Timestamp,Timestamp_UNIX,TP9,AF7,AF8,TP10,Valence,Arousal,Dominace,Viewed,Video,Participant
2024-02-28 10:50:46.003837,1709113846.003837,-21.97265625,-3.41796875,-12.6953125,-13.18359375,-1.0,1.0,-1.0,0.0,8.m4v,8.0
2024-02-28 10:50:46.007743,1709113846.0077431,-18.5546875,-17.08984375,-35.64453125,-10.25390625,-1.0,1.0,-1.0,0.0,8.m4v,8.0
2024-02-28 10:50:46.011649,1709113846.011649,-20.5078125,-19.04296875,-76.66015625,-52.24609375,-1.0,1.0,-1.0,0.0,8.m4v,8.0
2024-02-28 10:50:46.015555,1709113846.015555,0.9765625,-37.59765625,-54.19921875,-22.94921875,-1.0,1.0,-1.0,0.0,8.m4v,8.0
2024-02-28 10:50:46.019460,1709113846.0194604,-5.37109375,-87.40234375,-18.5546875,-12.6953125,-1.0,1.0,-1.0,0.0,8.m4v,8.0
2024-02-28 10:50:46.027274,1709113846.0272737,-59.08203125,-14.6484375,-23.92578125,-70.3125,-1.0,1.0,-1.0,0.0,8.m4v,8.0
2024-02-28 10:50:46.031179,1709113846.0311794,-59.5703125,-12.6953125,-19.53125,-52.734375,-1.0,1.0,-1.0,0.0,8.m4v,8.0
2024-02-28 10:50:46.038991,1709113846.038991,-23.92578125,-40.52734375,-21.484375,-32.2265625,-1.0,1.0,-1.0,0.0,8.m4v,8.0
2024-02-28 10:50:46.042897,1709113846.0428967,-6.8359375,-32.71484375,-21.97265625,-24.4140625,-1.0,1.0,-1.0,0.0,8.m4v,8.0
2024-02-28 10:50:46.046803,1709113846.0468023,-8.30078125,-29.296875,-33.69140625,-31.73828125,-1.0,1.0,-1.0,0.0,8.m4v,8.0
2024-02-28 10:50:46.269442,1709113846.2694423,-41.50390625,-46.875,-30.2734375,-44.43359375,-1.0,1.0,-1.0,0.0,8.m4v,8.0
2024-02-28 10:50:46.269442,1709113846.2694423,-41.50390625,-46.875,-30.2734375,-44.43359375,-1.0,1.0,-1.0,0.0,8.m4v,8.0
2024-02-28 10:50:46.269442,1709113846.2694423,-41.50390625,-46.875,-30.2734375,-44.43359375,-1.0,1.0,-1.0,0.0,8.m4v,8.0
2024-02-28 10:50:46.269442,1709113846.2694423,-41.50390625,-46.875,-30.2734375,-44.43359375,-1.0,1.0,-1.0,0.0,8.m4v,8.0
2024-02-28 10:50:46.269442,1709113846.2694423,-41.50390625,-46.875,-30.2734375,-44.43359375,-1.0,1.0,-1.0,0.0,8.m4v,8.0
2024-02-28 10:50:46.269442,1709113846.2694423,-41.50390625,-46.875,-30.2734375,-44.43359375,-1.0,1.0,-1.0,0.0,8.m4v,8.0
2024-02-28 10:50:46.273348,1709113846.273348,-4.8828125,-35.15625,-34.1796875,-25.87890625,-1.0,1.0,-1.0,0.0,8.m4v,8.0
2024-02-28 10:50:46.273348,1709113846.273348,-4.8828125,-35.15625,-34.1796875,-25.87890625,-1.0,1.0,-1.0,0.0,8.m4v,8.0
2024-02-28 10:50:46.273348,1709113846.273348,-4.8828125,-35.15625,-34.1796875,-25.87890625,-1.0,1.0,-1.0,0.0,8.m4v,8.0
2024-02-28 10:50:46.273348,1709113846.273348,-4.8828125,-35.15625,-34.1796875,-25.87890625,-1.0,1.0,-1.0,0.0,8.m4v,8.0
2024-02-28 10:50:46.273348,1709113846.273348,-4.8828125,-35.15625,-34.1796875,-25.87890625,-1.0,1.0,-1.0,0.0,8.m4v,8.0
2024-02-28 10:50:46.273348,1709113846.273348,-4.8828125,-35.15625,-34.1796875,-25.87890625,-1.0,1.0,-1.0,0.0,8.m4v,8.0
2024-02-28 10:50:46.277254,1709113846.277254,15.13671875,-39.55078125,-32.71484375,4.8828125,-1.0,1.0,-1.0,0.0,8.m4v,8.0
2024-02-28 10:50:46.277254,1709113846.277254,15.13671875,-39.55078125,-32.71484375,4.8828125,-1.0,1.0,-1.0,0.0,8.m4v,8.0
2024-02-28 10:50:46.277254,1709113846.277254,15.13671875,-39.55078125,-32.71484375,4.8828125,-1.0,1.0,-1.0,0.0,8.m4v,8.0
2024-02-28 10:50:46.277254,1709113846.277254,15.13671875,-39.55078125,-32.71484375,4.8828125,-1.0,1.0,-1.0,0.0,8.m4v,8.0
2024-02-28 10:50:46.277254,1709113846.277254,15.13671875,-39.55078125,-32.71484375,4.8828125,-1.0,1.0,-1.0,0.0,8.m4v,8.0
2024-02-28 10:50:46.277254,1709113846.277254,15.13671875,-39.55078125,-32.71484375,4.8828125,-1.0,1.0,-1.0,0.0,8.m4v,8.0
2024-02-28 10:50:46.281160,1709113846.2811596,-17.578125,-60.05859375,-19.04296875,-32.71484375,-1.0,1.0,-1.0,0.0,8.m4v,8.0
2024-02-28 10:50:46.281160,1709113846.2811596,-17.578125,-60.05859375,-19.04296875,-32.71484375,-1.0,1.0,-1.0,0.0,8.m4v,8.0
2024-02-28 10:50:46.281160,1709113846.2811596,-17.578125,-60.05859375,-19.04296875,-32.71484375,-1.0,1.0,-1.0,0.0,8.m4v,8.0
2024-02-28 10:50:46.281160,1709113846.2811596,-17.578125,-60.05859375,-19.04296875,-32.71484375,-1.0,1.0,-1.0,0.0,8.m4v,8.0
2024-02-28 10:50:46.281160,1709113846.2811596,-17.578125,-60.05859375,-19.04296875,-32.71484375,-1.0,1.0,-1.0,0.0,8.m4v,8.0
2024-02-28 10:50:46.281160,1709113846.2811596,-17.578125,-60.05859375,-19.04296875,-32.71484375,-1.0,1.0,-1.0,0.0,8.m4v,8.0
2024-02-28 10:50:46.285065,1709113846.2850654,-46.875,-51.26953125,-36.62109375,-31.73828125,-1.0,1.0,-1.0,0.0,8.m4v,8.0
2024-02-28 10:50:46.285065,1709113846.2850654,-46.875,-51.26953125,-36.62109375,-31.73828125,-1.0,1.0,-1.0,0.0,8.m4v,8.0
2024-02-28 10:50:46.285065,1709113846.2850654,-46.875,-51.26953125,-36.62109375,-31.73828125,-1.0,1.0,-1.0,0.0,8.m4v,8.0
2024-02-28 10:50:46.285065,1709113846.2850654,-46.875,-51.26953125,-36.62109375,-31.73828125,-1.0,1.0,-1.0,0.0,8.m4v,8.0
2024-02-28 10:50:46.285065,1709113846.2850654,-46.875,-51.26953125,-36.62109375,-31.73828125,-1.0,1.0,-1.0,0.0,8.m4v,8.0
2024-02-28 10:50:46.288971,1709113846.2889714,-33.69140625,-11.23046875,-61.5234375,-42.96875,-1.0,1.0,-1.0,0.0,8.m4v,8.0
2024-02-28 10:50:46.288971,1709113846.2889714,-33.69140625,-11.23046875,-61.5234375,-42.96875,-1.0,1.0,-1.0,0.0,8.m4v,8.0
2024-02-28 10:50:46.288971,1709113846.2889714,-33.69140625,-11.23046875,-61.5234375,-42.96875,-1.0,1.0,-1.0,0.0,8.m4v,8.0
2024-02-28 10:50:46.288971,1709113846.2889714,-33.69140625,-11.23046875,-61.5234375,-42.96875,-1.0,1.0,-1.0,0.0,8.m4v,8.0
2024-02-28 10:50:46.288971,1709113846.2889714,-33.69140625,-11.23046875,-61.5234375,-42.96875,-1.0,1.0,-1.0,0.0,8.m4v,8.0
2024-02-28 10:50:46.292877,1709113846.2928772,-20.99609375,-5.859375,-51.26953125,-82.51953125,-1.0,1.0,-1.0,0.0,8.m4v,8.0
2024-02-28 10:50:46.292877,1709113846.2928772,-20.99609375,-5.859375,-51.26953125,-82.51953125,-1.0,1.0,-1.0,0.0,8.m4v,8.0
2024-02-28 10:50:46.292877,1709113846.2928772,-20.99609375,-5.859375,-51.26953125,-82.51953125,-1.0,1.0,-1.0,0.0,8.m4v,8.0
2024-02-28 10:50:46.292877,1709113846.2928772,-20.99609375,-5.859375,-51.26953125,-82.51953125,-1.0,1.0,-1.0,0.0,8.m4v,8.0
2024-02-28 10:50:46.292877,1709113846.2928772,-20.99609375,-5.859375,-51.26953125,-82.51953125,-1.0,1.0,-1.0,0.0,8.m4v,8.0
2024-02-28 10:50:46.296783,1709113846.296783,-38.0859375,-22.94921875,-37.109375,-46.875,-1.0,1.0,-1.0,0.0,8.m4v,8.0
2024-02-28 10:50:46.296783,1709113846.296783,-38.0859375,-22.94921875,-37.109375,-46.875,-1.0,1.0,-1.0,0.0,8.m4v,8.0
2024-02-28 10:50:46.296783,1709113846.296783,-38.0859375,-22.94921875,-37.109375,-46.875,-1.0,1.0,-1.0,0.0,8.m4v,8.0
2024-02-28 10:50:46.296783,1709113846.296783,-38.0859375,-22.94921875,-37.109375,-46.875,-1.0,1.0,-1.0,0.0,8.m4v,8.0
2024-02-28 10:50:46.296783,1709113846.296783,-38.0859375,-22.94921875,-37.109375,-46.875,-1.0,1.0,-1.0,0.0,8.m4v,8.0
2024-02-28 10:50:46.335844,1709113846.3358436,-66.40625,-9.27734375,-30.76171875,-55.6640625,-1.0,1.0,-1.0,0.0,8.m4v,8.0
2024-02-28 10:50:46.339749,1709113846.339749,-47.36328125,-2.9296875,-24.4140625,-55.6640625,-1.0,1.0,-1.0,0.0,8.m4v,8.0
2024-02-28 10:50:46.343655,1709113846.343655,-49.8046875,-33.69140625,-4.39453125,-48.828125,-1.0,1.0,-1.0,0.0,8.m4v,8.0
2024-02-28 10:50:46.347561,1709113846.347561,-20.01953125,-46.875,0.9765625,-56.15234375,-1.0,1.0,-1.0,0.0,8.m4v,8.0
2024-02-28 10:50:46.351467,1709113846.351467,-18.06640625,-59.08203125,0.9765625,6.8359375,-1.0,1.0,-1.0,0.0,8.m4v,8.0
2024-02-28 10:50:46.355374,1709113846.355374,-41.50390625,-59.08203125,-41.015625,45.8984375,-1.0,1.0,-1.0,0.0,8.m4v,8.0
2024-02-28 10:50:46.359280,1709113846.35928,-20.01953125,-24.90234375,-122.0703125,-28.3203125,-1.0,1.0,-1.0,0.0,8.m4v,8.0
2024-02-28 10:50:46.363186,1709113846.363186,-54.19921875,-27.34375,-66.40625,-75.1953125,-1.0,1.0,-1.0,0.0,8.m4v,8.0
2024-02-28 10:50:46.367092,1709113846.3670917,-69.82421875,-45.8984375,11.23046875,-101.5625,-1.0,1.0,-1.0,0.0,8.m4v,8.0
2024-02-28 10:50:46.370997,1709113846.3709974,-36.62109375,-29.296875,13.18359375,-80.56640625,-1.0,1.0,-1.0,0.0,8.m4v,8.0
2024-02-28 10:50:46.390527,1709113846.3905263,-63.96484375,-25.87890625,-67.3828125,-60.546875,-1.0,1.0,-1.0,0.0,8.m4v,8.0
2024-02-28 10:50:46.394432,1709113846.3944323,-59.5703125,-44.921875,-31.25,-48.828125,-1.0,1.0,-1.0,0.0,8.m4v,8.0
2024-02-28 10:50:46.398338,1709113846.398338,-69.82421875,-44.921875,-13.18359375,-80.56640625,-1.0,1.0,-1.0,0.0,8.m4v,8.0
2024-02-28 10:50:46.402245,1709113846.4022453,-47.36328125,-51.26953125,-3.41796875,-64.94140625,-1.0,1.0,-1.0,0.0,8.m4v,8.0
2024-02-28 10:50:46.410057,1709113846.410057,-64.453125,-39.0625,-23.92578125,-36.62109375,-1.0,1.0,-1.0,0.0,8.m4v,8.0
2024-02-28 10:50:46.413963,1709113846.4139628,-37.59765625,-7.32421875,-15.13671875,-42.48046875,-1.0,1.0,-1.0,0.0,8.m4v,8.0
2024-02-28 10:50:46.417869,1709113846.4178686,-37.59765625,-4.39453125,-29.296875,-57.12890625,-1.0,1.0,-1.0,0.0,8.m4v,8.0
2024-02-28 10:50:46.421774,1709113846.4217744,-78.125,-26.3671875,-53.7109375,-56.640625,-1.0,1.0,-1.0,0.0,8.m4v,8.0
2024-02-28 10:50:46.425680,1709113846.4256802,-74.70703125,-35.15625,-90.8203125,-18.5546875,-1.0,1.0,-1.0,0.0,8.m4v,8.0
2024-02-28 10:50:46.429586,1709113846.429586,-45.41015625,-41.015625,-92.28515625,-20.01953125,-1.0,1.0,-1.0,0.0,8.m4v,8.0
2024-02-28 10:50:46.433492,1709113846.433492,-49.8046875,-51.26953125,-27.34375,-56.640625,-1.0,1.0,-1.0,0.0,8.m4v,8.0
2024-02-28 10:50:46.437398,1709113846.4373977,-63.4765625,-57.6171875,1.46484375,-64.453125,-1.0,1.0,-1.0,0.0,8.m4v,8.0
2024-02-28 10:50:46.441303,1709113846.4413035,-55.6640625,-33.69140625,-3.41796875,-59.5703125,-1.0,1.0,-1.0,0.0,8.m4v,8.0
2024-02-28 10:50:46.445209,1709113846.4452093,-62.98828125,-23.4375,-18.5546875,-64.453125,-1.0,1.0,-1.0,0.0,8.m4v,8.0
2024-02-28 10:50:46.449116,1709113846.4491165,-72.265625,-50.29296875,-15.13671875,-61.03515625,-1.0,1.0,-1.0,0.0,8.m4v,8.0
2024-02-28 10:50:46.453022,1709113846.4530222,-81.0546875,-42.48046875,-24.4140625,-48.33984375,-1.0,1.0,-1.0,0.0,8.m4v,8.0
2024-02-28 10:50:46.456928,1709113846.4569285,-96.19140625,-27.83203125,-54.6875,-41.9921875,-1.0,1.0,-1.0,0.0,8.m4v,8.0
2024-02-28 10:50:46.460834,1709113846.460834,-74.70703125,-12.6953125,-63.4765625,-60.05859375,-1.0,1.0,-1.0,0.0,8.m4v,8.0
2024-02-28 10:50:46.464740,1709113846.4647398,-53.22265625,-17.08984375,-59.5703125,-62.5,-1.0,1.0,-1.0,0.0,8.m4v,8.0
2024-02-28 10:50:46.609259,1709113846.6092591,-20.01953125,-29.296875,-18.06640625,-23.4375,-1.0,1.0,-1.0,0.0,8.m4v,8.0
2024-02-28 10:50:46.613165,1709113846.613165,-25.390625,-30.76171875,-13.671875,-23.92578125,-1.0,1.0,-1.0,0.0,8.m4v,8.0
2024-02-28 10:50:46.617071,1709113846.617071,-33.203125,-31.73828125,-11.71875,-40.52734375,-1.0,1.0,-1.0,0.0,8.m4v,8.0
2024-02-28 10:50:46.620977,1709113846.6209767,-30.2734375,-27.34375,-36.1328125,-54.6875,-1.0,1.0,-1.0,0.0,8.m4v,8.0
2024-02-28 10:50:46.624882,1709113846.6248825,-52.734375,-37.59765625,-43.9453125,-33.69140625,-1.0,1.0,-1.0,0.0,8.m4v,8.0
2024-02-28 10:50:46.628788,1709113846.6287882,-53.22265625,-38.57421875,-44.43359375,-36.62109375,-1.0,1.0,-1.0,0.0,8.m4v,8.0
2024-02-28 10:50:46.632694,1709113846.632694,-46.875,-29.296875,-43.45703125,-59.5703125,-1.0,1.0,-1.0,0.0,8.m4v,8.0
2024-02-28 10:50:46.636602,1709113846.6366017,-47.8515625,-26.85546875,-41.9921875,-64.94140625,-1.0,1.0,-1.0,0.0,8.m4v,8.0
2024-02-28 10:50:46.640507,1709113846.6405077,-62.98828125,-27.34375,-44.921875,-40.52734375,-1.0,1.0,-1.0,0.0,8.m4v,8.0
2024-02-28 10:50:46.644413,1709113846.6444132,-62.98828125,-28.80859375,-66.40625,-0.48828125,-1.0,1.0,-1.0,0.0,8.m4v,8.0
2024-02-28 10:50:46.648319,1709113846.648319,-17.578125,-24.4140625,-54.19921875,-28.3203125,-1.0,1.0,-1.0,0.0,8.m4v,8.0
2024-02-28 10:50:46.652225,1709113846.6522248,-38.0859375,-17.578125,-24.90234375,-106.93359375,-1.0,1.0,-1.0,0.0,8.m4v,8.0
2024-02-28 10:50:46.656131,1709113846.6561308,-80.078125,-18.06640625,-21.97265625,-114.2578125,-1.0,1.0,-1.0,0.0,8.m4v,8.0
2024-02-28 10:50:46.660037,1709113846.6600366,-83.0078125,-15.625,-23.4375,-101.5625,-1.0,1.0,-1.0,0.0,8.m4v,8.0
2024-02-28 10:50:46.663942,1709113846.6639423,-68.359375,-16.6015625,-29.78515625,-79.1015625,-1.0,1.0,-1.0,0.0,8.m4v,8.0
2024-02-28 10:50:46.667848,1709113846.667848,-42.96875,-22.94921875,-34.1796875,-56.15234375,-1.0,1.0,-1.0,0.0,8.m4v,8.0
2024-02-28 10:50:46.671754,1709113846.671754,-79.1015625,-28.3203125,-47.36328125,-81.54296875,-1.0,1.0,-1.0,0.0,8.m4v,8.0
2024-02-28 10:50:46.675660,1709113846.6756597,-137.20703125,-7.32421875,-54.19921875,-80.078125,-1.0,1.0,-1.0,0.0,8.m4v,8.0
2024-02-28 10:50:46.679565,1709113846.6795654,-120.1171875,16.11328125,-54.6875,-99.609375,-1.0,1.0,-1.0,0.0,8.m4v,8.0
2024-02-28 10:50:46.683473,1709113846.683473,-87.40234375,-8.7890625,-33.69140625,-159.66796875,-1.0,1.0,-1.0,0.0,8.m4v,8.0
2024-02-28 10:50:46.687379,1709113846.687379,-79.1015625,-33.203125,-15.13671875,-112.3046875,-1.0,1.0,-1.0,0.0,8.m4v,8.0
2024-02-28 10:50:46.691285,1709113846.691285,-118.1640625,0.48828125,-15.625,-109.86328125,-1.0,1.0,-1.0,0.0,8.m4v,8.0
2024-02-28 10:50:46.695190,1709113846.6951904,-133.7890625,38.0859375,-7.8125,-139.16015625,-1.0,1.0,-1.0,0.0,8.m4v,8.0
2024-02-28 10:50:46.699096,1709113846.6990962,-132.32421875,27.83203125,-10.7421875,-119.140625,-1.0,1.0,-1.0,0.0,8.m4v,8.0
2024-02-28 10:50:46.703002,1709113846.7030022,-107.421875,0.48828125,-23.4375,-87.40234375,-1.0,1.0,-1.0,0.0,8.m4v,8.0
2024-02-28 10:50:46.706908,1709113846.706908,-71.2890625,-17.578125,-39.0625,-89.35546875,-1.0,1.0,-1.0,0.0,8.m4v,8.0
2024-02-28 10:50:46.710814,1709113846.7108138,-91.796875,-7.32421875,-43.9453125,-97.16796875,-1.0,1.0,-1.0,0.0,8.m4v,8.0
2024-02-28 10:50:46.714720,1709113846.7147195,-90.33203125,-4.39453125,-47.36328125,-110.3515625,-1.0,1.0,-1.0,0.0,8.m4v,8.0
2024-02-28 10:50:46.718625,1709113846.7186253,-67.87109375,-6.8359375,-53.22265625,-137.6953125,-1.0,1.0,-1.0,0.0,8.m4v,8.0
2024-02-28 10:50:46.722531,1709113846.722531,-72.75390625,0.48828125,-43.45703125,-34.1796875,-1.0,1.0,-1.0,0.0,8.m4v,8.0
2024-02-28 10:50:46.726437,1709113846.726437,-79.1015625,-14.16015625,-9.765625,-12.20703125,-1.0,1.0,-1.0,0.0,8.m4v,8.0
2024-02-28 10:50:46.730345,1709113846.7303452,-73.73046875,-10.7421875,-6.34765625,-69.82421875,-1.0,1.0,-1.0,0.0,8.m4v,8.0
2024-02-28 10:50:46.734251,1709113846.734251,-63.96484375,0.9765625,-19.04296875,-63.96484375,-1.0,1.0,-1.0,0.0,8.m4v,8.0
2024-02-28 10:50:46.738157,1709113846.7381568,-47.36328125,-22.4609375,-9.765625,-77.63671875,-1.0,1.0,-1.0,0.0,8.m4v,8.0
2024-02-28 10:50:46.742063,1709113846.7420626,-27.34375,-69.3359375,-27.83203125,-50.78125,-1.0,1.0,-1.0,0.0,8.m4v,8.0
2024-02-28 10:50:46.745968,1709113846.7459683,-27.83203125,-67.3828125,-55.6640625,-41.9921875,-1.0,1.0,-1.0,0.0,8.m4v,8.0
2024-02-28 10:50:46.749874,1709113846.7498744,-31.73828125,-20.99609375,-51.7578125,-33.69140625,-1.0,1.0,-1.0,0.0,8.m4v,8.0
2024-02-28 10:50:46.753780,1709113846.75378,-15.625,-12.20703125,-27.83203125,0.48828125,-1.0,1.0,-1.0,0.0,8.m4v,8.0
2024-02-28 10:50:46.757686,1709113846.757686,-24.90234375,-42.96875,-20.01953125,-11.23046875,-1.0,1.0,-1.0,0.0,8.m4v,8.0
2024-02-28 10:50:46.761592,1709113846.7615917,-24.90234375,-54.6875,-15.13671875,-49.8046875,-1.0,1.0,-1.0,0.0,8.m4v,8.0
2024-02-28 10:50:46.765497,1709113846.7654974,9.765625,-43.9453125,-14.6484375,-35.15625,-1.0,1.0,-1.0,0.0,8.m4v,8.0
2024-02-28 10:50:46.769403,1709113846.7694032,4.8828125,-32.71484375,-46.875,-4.39453125,-1.0,1.0,-1.0,0.0,8.m4v,8.0
2024-02-28 10:50:46.773309,1709113846.7733092,4.39453125,-24.90234375,-65.91796875,-39.0625,-1.0,1.0,-1.0,0.0,8.m4v,8.0
2024-02-28 10:50:46.777216,1709113846.7772164,11.71875,-23.92578125,-62.01171875,3.90625,-1.0,1.0,-1.0,0.0,8.m4v,8.0
2024-02-28 10:50:46.781122,1709113846.7811222,5.37109375,-38.0859375,-59.08203125,65.4296875,-1.0,1.0,-1.0,0.0,8.m4v,8.0
2024-02-28 10:50:46.785028,1709113846.785028,30.2734375,-65.4296875,-38.0859375,16.6015625,-1.0,1.0,-1.0,0.0,8.m4v,8.0
2024-02-28 10:50:46.788934,1709113846.7889338,74.70703125,-82.03125,-2.9296875,-7.32421875,-1.0,1.0,-1.0,0.0,8.m4v,8.0
2024-02-28 10:50:46.792840,1709113846.7928395,50.78125,-73.73046875,-5.37109375,16.6015625,-1.0,1.0,-1.0,0.0,8.m4v,8.0
2024-02-28 10:50:46.796746,1709113846.7967455,-12.6953125,-45.8984375,-14.16015625,0.0,-1.0,1.0,-1.0,0.0,8.m4v,8.0
2024-02-28 10:50:46.800651,1709113846.8006513,2.9296875,-33.203125,-59.5703125,5.37109375,-1.0,1.0,-1.0,0.0,8.m4v,8.0
2024-02-28 10:50:46.804557,1709113846.804557,37.59765625,-21.97265625,-87.40234375,31.25,-1.0,1.0,-1.0,0.0,8.m4v,8.0
2024-02-28 10:50:46.882676,1709113846.882676,-20.01953125,-55.17578125,-71.2890625,13.671875,-1.0,1.0,-1.0,0.0,8.m4v,8.0
2024-02-28 10:50:46.882676,1709113846.882676,-20.01953125,-55.17578125,-71.2890625,13.671875,-1.0,1.0,-1.0,0.0,8.m4v,8.0
2024-02-28 10:50:46.882676,1709113846.882676,-20.01953125,-55.17578125,-71.2890625,13.671875,-1.0,1.0,-1.0,0.0,8.m4v,8.0
2024-02-28 10:50:46.886582,1709113846.8865817,-47.8515625,-56.15234375,-55.6640625,-8.7890625,-1.0,1.0,-1.0,0.0,8.m4v,8.0
2024-02-28 10:50:46.886582,1709113846.8865817,-47.8515625,-56.15234375,-55.6640625,-8.7890625,-1.0,1.0,-1.0,0.0,8.m4v,8.0
2024-02-28 10:50:46.886582,1709113846.8865817,-47.8515625,-56.15234375,-55.6640625,-8.7890625,-1.0,1.0,-1.0,0.0,8.m4v,8.0
2024-02-28 10:50:46.890488,1709113846.8904877,-42.48046875,-40.52734375,-30.2734375,-34.66796875,-1.0,1.0,-1.0,0.0,8.m4v,8.0
2024-02-28 10:50:46.890488,1709113846.8904877,-42.48046875,-40.52734375,-30.2734375,-34.66796875,-1.0,1.0,-1.0,0.0,8.m4v,8.0
2024-02-28 10:50:46.890488,1709113846.8904877,-42.48046875,-40.52734375,-30.2734375,-34.66796875,-1.0,1.0,-1.0,0.0,8.m4v,8.0
2024-02-28 10:50:46.894393,1709113846.8943934,-27.83203125,-24.90234375,-27.34375,1.953125,-1.0,1.0,-1.0,0.0,8.m4v,8.0
2024-02-28 10:50:46.894393,1709113846.8943934,-27.83203125,-24.90234375,-27.34375,1.953125,-1.0,1.0,-1.0,0.0,8.m4v,8.0
2024-02-28 10:50:46.898299,1709113846.8982992,-4.39453125,-22.4609375,-29.296875,-32.2265625,-1.0,1.0,-1.0,0.0,8.m4v,8.0
2024-02-28 10:50:46.898299,1709113846.8982992,-4.39453125,-22.4609375,-29.296875,-32.2265625,-1.0,1.0,-1.0,0.0,8.m4v,8.0
2024-02-28 10:50:46.902205,1709113846.902205,-13.671875,-30.2734375,-33.69140625,-49.31640625,-1.0,1.0,-1.0,0.0,8.m4v,8.0
2024-02-28 10:50:46.906111,1709113846.9061108,-43.9453125,-42.96875,-63.4765625,-27.83203125,-1.0,1.0,-1.0,0.0,8.m4v,8.0
2024-02-28 10:50:46.910017,1709113846.9100163,-41.9921875,-33.203125,-60.05859375,-32.2265625,-1.0,1.0,-1.0,0.0,8.m4v,8.0
2024-02-28 10:50:46.913922,1709113846.9139223,-30.76171875,-36.1328125,-32.2265625,-31.73828125,-1.0,1.0,-1.0,0.0,8.m4v,8.0
2024-02-28 10:50:46.917830,1709113846.9178295,-31.73828125,-62.01171875,-27.34375,-20.01953125,-1.0,1.0,-1.0,0.0,8.m4v,8.0
2024-02-28 10:50:46.921735,1709113846.9217353,0.0,-46.38671875,-26.3671875,-21.484375,-1.0,1.0,-1.0,0.0,8.m4v,8.0
2024-02-28 10:50:46.925641,1709113846.925641,-16.11328125,-59.5703125,-15.625,-33.69140625,-1.0,1.0,-1.0,0.0,8.m4v,8.0
2024-02-28 10:50:46.925641,1709113846.925641,-16.11328125,-59.5703125,-15.625,-33.69140625,-1.0,1.0,-1.0,0.0,8.m4v,8.0
2024-02-28 10:50:46.929547,1709113846.929547,-66.89453125,-70.3125,-24.4140625,-34.1796875,-1.0,1.0,-1.0,0.0,8.m4v,8.0
2024-02-28 10:50:46.929547,1709113846.929547,-66.89453125,-70.3125,-24.4140625,-34.1796875,-1.0,1.0,-1.0,0.0,8.m4v,8.0
2024-02-28 10:50:46.933453,1709113846.9334528,-48.828125,-34.66796875,-47.36328125,-30.76171875,-1.0,1.0,-1.0,0.0,8.m4v,8.0
2024-02-28 10:50:46.933453,1709113846.9334528,-48.828125,-34.66796875,-47.36328125,-30.76171875,-1.0,1.0,-1.0,0.0,8.m4v,8.0
2024-02-28 10:50:46.937359,1709113846.9373586,-34.66796875,-21.484375,-86.9140625,-45.8984375,-1.0,1.0,-1.0,0.0,8.m4v,8.0
2024-02-28 10:50:46.937359,1709113846.9373586,-34.66796875,-21.484375,-86.9140625,-45.8984375,-1.0,1.0,-1.0,0.0,8.m4v,8.0
2024-02-28 10:50:46.941264,1709113846.9412644,-62.01171875,-21.97265625,-52.734375,-66.40625,-1.0,1.0,-1.0,0.0,8.m4v,8.0
2024-02-28 10:50:46.941264,1709113846.9412644,-62.01171875,-21.97265625,-52.734375,-66.40625,-1.0,1.0,-1.0,0.0,8.m4v,8.0
2024-02-28 10:50:46.941264,1709113846.9412644,-62.01171875,-21.97265625,-52.734375,-66.40625,-1.0,1.0,-1.0,0.0,8.m4v,8.0
2024-02-28 10:50:46.941264,1709113846.9412644,-62.01171875,-21.97265625,-52.734375,-66.40625,-1.0,1.0,-1.0,0.0,8.m4v,8.0
2024-02-28 10:50:46.945170,1709113846.9451702,-63.4765625,-27.83203125,0.0,-64.453125,-1.0,1.0,-1.0,0.0,8.m4v,8.0
2024-02-28 10:50:46.945170,1709113846.9451702,-63.4765625,-27.83203125,0.0,-64.453125,-1.0,1.0,-1.0,0.0,8.m4v,8.0
2024-02-28 10:50:46.945170,1709113846.9451702,-63.4765625,-27.83203125,0.0,-64.453125,-1.0,1.0,-1.0,0.0,8.m4v,8.0
2024-02-28 10:50:46.945170,1709113846.9451702,-63.4765625,-27.83203125,0.0,-64.453125,-1.0,1.0,-1.0,0.0,8.m4v,8.0
2024-02-28 10:50:46.949076,1709113846.949076,-22.94921875,-35.64453125,-26.3671875,-34.1796875,-1.0,1.0,-1.0,0.0,8.m4v,8.0
2024-02-28 10:50:46.949076,1709113846.949076,-22.94921875,-35.64453125,-26.3671875,-34.1796875,-1.0,1.0,-1.0,0.0,8.m4v,8.0
2024-02-28 10:50:46.949076,1709113846.949076,-22.94921875,-35.64453125,-26.3671875,-34.1796875,-1.0,1.0,-1.0,0.0,8.m4v,8.0
2024-02-28 10:50:46.949076,1709113846.949076,-22.94921875,-35.64453125,-26.3671875,-34.1796875,-1.0,1.0,-1.0,0.0,8.m4v,8.0
2024-02-28 10:50:46.952982,1709113846.952982,-29.296875,-42.48046875,-61.5234375,-20.01953125,-1.0,1.0,-1.0,0.0,8.m4v,8.0
2024-02-28 10:50:46.952982,1709113846.952982,-29.296875,-42.48046875,-61.5234375,-20.01953125,-1.0,1.0,-1.0,0.0,8.m4v,8.0
2024-02-28 10:50:46.952982,1709113846.952982,-29.296875,-42.48046875,-61.5234375,-20.01953125,-1.0,1.0,-1.0,0.0,8.m4v,8.0
2024-02-28 10:50:46.952982,1709113846.952982,-29.296875,-42.48046875,-61.5234375,-20.01953125,-1.0,1.0,-1.0,0.0,8.m4v,8.0
2024-02-28 10:50:46.956888,1709113846.9568875,-30.2734375,-42.48046875,-52.734375,-22.94921875,-1.0,1.0,-1.0,0.0,8.m4v,8.0
2024-02-28 10:50:46.956888,1709113846.9568875,-30.2734375,-42.48046875,-52.734375,-22.94921875,-1.0,1.0,-1.0,0.0,8.m4v,8.0
2024-02-28 10:50:46.956888,1709113846.9568875,-30.2734375,-42.48046875,-52.734375,-22.94921875,-1.0,1.0,-1.0,0.0,8.m4v,8.0
2024-02-28 10:50:46.960793,1709113846.9607935,-23.92578125,-38.0859375,-26.3671875,-9.765625,-1.0,1.0,-1.0,0.0,8.m4v,8.0
2024-02-28 10:50:46.960793,1709113846.9607935,-23.92578125,-38.0859375,-26.3671875,-9.765625,-1.0,1.0,-1.0,0.0,8.m4v,8.0
2024-02-28 10:50:46.960793,1709113846.9607935,-23.92578125,-38.0859375,-26.3671875,-9.765625,-1.0,1.0,-1.0,0.0,8.m4v,8.0
2024-02-28 10:50:46.960793,1709113846.9607935,-23.92578125,-38.0859375,-26.3671875,-9.765625,-1.0,1.0,-1.0,0.0,8.m4v,8.0
2024-02-28 10:50:46.964701,1709113846.9647012,-59.08203125,-23.4375,-21.97265625,-54.6875,-1.0,1.0,-1.0,0.0,8.m4v,8.0
2024-02-28 10:50:46.964701,1709113846.9647012,-59.08203125,-23.4375,-21.97265625,-54.6875,-1.0,1.0,-1.0,0.0,8.m4v,8.0
2024-02-28 10:50:46.964701,1709113846.9647012,-59.08203125,-23.4375,-21.97265625,-54.6875,-1.0,1.0,-1.0,0.0,8.m4v,8.0
2024-02-28 10:50:46.964701,1709113846.9647012,-59.08203125,-23.4375,-21.97265625,-54.6875,-1.0,1.0,-1.0,0.0,8.m4v,8.0
2024-02-28 10:50:46.968607,1709113846.9686072,-64.94140625,-31.73828125,-41.015625,-65.4296875,-1.0,1.0,-1.0,0.0,8.m4v,8.0
2024-02-28 10:50:46.968607,1709113846.9686072,-64.94140625,-31.73828125,-41.015625,-65.4296875,-1.0,1.0,-1.0,0.0,8.m4v,8.0
2024-02-28 10:50:46.968607,1709113846.9686072,-64.94140625,-31.73828125,-41.015625,-65.4296875,-1.0,1.0,-1.0,0.0,8.m4v,8.0
2024-02-28 10:50:46.968607,1709113846.9686072,-64.94140625,-31.73828125,-41.015625,-65.4296875,-1.0,1.0,-1.0,0.0,8.m4v,8.0
2024-02-28 10:50:47.003759,1709113847.0037594,-109.375,-52.734375,-47.36328125,-103.02734375,-1.0,1.0,-1.0,0.0,8.m4v,8.0
2024-02-28 10:50:47.003759,1709113847.0037594,-109.375,-52.734375,-47.36328125,-103.02734375,-1.0,1.0,-1.0,0.0,8.m4v,8.0
2024-02-28 10:50:47.003759,1709113847.0037594,-109.375,-52.734375,-47.36328125,-103.02734375,-1.0,1.0,-1.0,0.0,8.m4v,8.0
2024-02-28 10:50:47.003759,1709113847.0037594,-109.375,-52.734375,-47.36328125,-103.02734375,-1.0,1.0,-1.0,0.0,8.m4v,8.0
2024-02-28 10:50:47.003759,1709113847.0037594,-109.375,-52.734375,-47.36328125,-103.02734375,-1.0,1.0,-1.0,0.0,8.m4v,8.0
2024-02-28 10:50:47.015479,1709113847.0154786,-115.234375,-31.73828125,-6.8359375,-75.1953125,-1.0,1.0,-1.0,0.0,8.m4v,8.0
2024-02-28 10:50:47.015479,1709113847.0154786,-115.234375,-31.73828125,-6.8359375,-75.1953125,-1.0,1.0,-1.0,0.0,8.m4v,8.0
2024-02-28 10:50:47.015479,1709113847.0154786,-115.234375,-31.73828125,-6.8359375,-75.1953125,-1.0,1.0,-1.0,0.0,8.m4v,8.0
2024-02-28 10:50:47.015479,1709113847.0154786,-115.234375,-31.73828125,-6.8359375,-75.1953125,-1.0,1.0,-1.0,0.0,8.m4v,8.0
2024-02-28 10:50:47.015479,1709113847.0154786,-115.234375,-31.73828125,-6.8359375,-75.1953125,-1.0,1.0,-1.0,0.0,8.m4v,8.0
2024-02-28 10:50:47.015479,1709113847.0154786,-115.234375,-31.73828125,-6.8359375,-75.1953125,-1.0,1.0,-1.0,0.0,8.m4v,8.0
2024-02-28 10:50:47.046725,1709113847.046725,-45.8984375,-37.109375,9.27734375,-48.33984375,-1.0,1.0,-1.0,0.0,8.m4v,8.0
2024-02-28 10:50:47.050631,1709113847.0506308,-32.71484375,-32.2265625,-20.01953125,-29.296875,-1.0,1.0,-1.0,0.0,8.m4v,8.0
2024-02-28 10:50:47.054537,1709113847.0545366,-23.4375,-36.62109375,-49.8046875,-27.83203125,-1.0,1.0,-1.0,0.0,8.m4v,8.0
2024-02-28 10:50:47.058444,1709113847.0584445,-20.5078125,-40.0390625,-22.4609375,-20.5078125,-1.0,1.0,-1.0,0.0,8.m4v,8.0
2024-02-28 10:50:47.257646,1709113847.2576463,-31.73828125,-26.85546875,-27.34375,-21.97265625,-1.0,1.0,-1.0,0.0,8.m4v,8.0
2024-02-28 10:50:47.265458,1709113847.265458,-15.625,-53.22265625,-68.84765625,-13.18359375,-1.0,1.0,-1.0,0.0,8.m4v,8.0
2024-02-28 10:50:47.269364,1709113847.2693636,-10.25390625,-52.734375,-26.3671875,-18.5546875,-1.0,1.0,-1.0,0.0,8.m4v,8.0
2024-02-28 10:50:47.273270,1709113847.2732697,-30.76171875,-45.8984375,-23.4375,-33.69140625,-1.0,1.0,-1.0,0.0,8.m4v,8.0
2024-02-28 10:50:47.277175,1709113847.2771754,-9.27734375,-42.96875,-58.59375,-21.484375,-1.0,1.0,-1.0,0.0,8.m4v,8.0
2024-02-28 10:50:47.281081,1709113847.2810812,2.9296875,-43.45703125,-38.57421875,8.30078125,-1.0,1.0,-1.0,0.0,8.m4v,8.0
2024-02-28 10:50:47.284987,1709113847.284987,11.71875,-38.57421875,-5.37109375,-6.34765625,-1.0,1.0,-1.0,0.0,8.m4v,8.0
2024-02-28 10:50:47.288893,1709113847.2888927,-7.8125,-43.45703125,-17.578125,-31.73828125,-1.0,1.0,-1.0,0.0,8.m4v,8.0
2024-02-28 10:50:47.292800,1709113847.2927997,-33.203125,-34.1796875,-36.1328125,-4.39453125,-1.0,1.0,-1.0,0.0,8.m4v,8.0
2024-02-28 10:50:47.296706,1709113847.2967055,-3.41796875,-17.08984375,-65.91796875,-11.23046875,-1.0,1.0,-1.0,0.0,8.m4v,8.0
2024-02-28 10:50:47.324046,1709113847.3240464,-5.37109375,-47.36328125,-29.296875,-4.8828125,-1.0,1.0,-1.0,0.0,8.m4v,8.0
2024-02-28 10:50:47.327952,1709113847.327952,32.2265625,-29.296875,-50.29296875,14.6484375,-1.0,1.0,-1.0,0.0,8.m4v,8.0
2024-02-28 10:50:47.331858,1709113847.331858,9.765625,-24.4140625,-64.94140625,-15.13671875,-1.0,1.0,-1.0,0.0,8.m4v,8.0
2024-02-28 10:50:47.335764,1709113847.3357637,-28.3203125,-38.0859375,-25.87890625,-64.453125,-1.0,1.0,-1.0,0.0,8.m4v,8.0
2024-02-28 10:50:47.339671,1709113847.3396714,-25.390625,-27.34375,0.9765625,-31.25,-1.0,1.0,-1.0,0.0,8.m4v,8.0
2024-02-28 10:50:47.343577,1709113847.3435774,-22.4609375,-20.99609375,-24.90234375,-14.6484375,-1.0,1.0,-1.0,0.0,8.m4v,8.0
2024-02-28 10:50:47.347483,1709113847.3474832,-8.30078125,-23.4375,-45.41015625,-27.34375,-1.0,1.0,-1.0,0.0,8.m4v,8.0
2024-02-28 10:50:47.351389,1709113847.351389,7.32421875,-21.97265625,-39.55078125,0.48828125,-1.0,1.0,-1.0,0.0,8.m4v,8.0
2024-02-28 10:50:47.355295,1709113847.3552947,7.8125,-27.83203125,-25.87890625,-1.46484375,-1.0,1.0,-1.0,0.0,8.m4v,8.0
2024-02-28 10:50:47.359200,1709113847.3592005,4.39453125,-44.921875,-11.71875,-12.6953125,-1.0,1.0,-1.0,0.0,8.m4v,8.0
2024-02-28 10:50:47.363106,1709113847.3631065,-10.25390625,-63.96484375,-37.59765625,6.8359375,-1.0,1.0,-1.0,0.0,8.m4v,8.0
2024-02-28 10:50:47.367012,1709113847.367012,-0.48828125,-41.9921875,-71.2890625,-26.85546875,-1.0,1.0,-1.0,0.0,8.m4v,8.0
2024-02-28 10:50:47.370918,1709113847.370918,-2.44140625,-33.203125,-59.08203125,-29.296875,-1.0,1.0,-1.0,0.0,8.m4v,8.0
2024-02-28 10:50:47.374824,1709113847.3748238,-62.01171875,-53.22265625,-20.01953125,-17.08984375,-1.0,1.0,-1.0,0.0,8.m4v,8.0
2024-02-28 10:50:47.378730,1709113847.3787296,-32.71484375,-50.29296875,-6.34765625,-53.7109375,-1.0,1.0,-1.0,0.0,8.m4v,8.0
2024-02-28 10:50:47.382635,1709113847.3826354,5.37109375,-25.390625,-16.11328125,-29.296875,-1.0,1.0,-1.0,0.0,8.m4v,8.0
2024-02-28 10:50:47.386544,1709113847.3865438,-38.57421875,-17.08984375,-27.34375,-30.2734375,-1.0,1.0,-1.0,0.0,8.m4v,8.0
2024-02-28 10:50:47.605275,1709113847.6052752,-18.06640625,-26.85546875,-18.06640625,-38.57421875,-1.0,1.0,-1.0,0.0,8.m4v,8.0
2024-02-28 10:50:47.613087,1709113847.613087,-39.0625,-56.640625,-9.27734375,-45.41015625,-1.0,1.0,-1.0,0.0,8.m4v,8.0
2024-02-28 10:50:47.620901,1709113847.6209006,4.39453125,-12.6953125,-24.4140625,-13.18359375,-1.0,1.0,-1.0,0.0,8.m4v,8.0
2024-02-28 10:50:47.628712,1709113847.6287122,-38.0859375,-6.8359375,-75.68359375,-52.734375,-1.0,1.0,-1.0,0.0,8.m4v,8.0
2024-02-28 10:50:47.636524,1709113847.6365235,-35.15625,-11.71875,-47.36328125,-4.39453125,-1.0,1.0,-1.0,0.0,8.m4v,8.0
2024-02-28 10:50:47.640429,1709113847.6404295,26.85546875,-22.4609375,-33.69140625,20.5078125,-1.0,1.0,-1.0,0.0,8.m4v,8.0
2024-02-28 10:50:47.644336,1709113847.6443355,51.26953125,-73.2421875,-7.32421875,31.73828125,-1.0,1.0,-1.0,0.0,8.m4v,8.0
2024-02-28 10:50:47.648241,1709113847.6482413,-9.765625,-88.37890625,4.8828125,-18.06640625,-1.0,1.0,-1.0,0.0,8.m4v,8.0
2024-02-28 10:50:47.652147,1709113847.652147,-61.5234375,-47.36328125,-25.87890625,-27.83203125,-1.0,1.0,-1.0,0.0,8.m4v,8.0
2024-02-28 10:50:47.656053,1709113847.6560528,-71.77734375,-3.90625,-50.29296875,-50.78125,-1.0,1.0,-1.0,0.0,8.m4v,8.0
2024-02-28 10:50:47.659959,1709113847.6599586,-53.7109375,0.48828125,-34.1796875,-68.359375,-1.0,1.0,-1.0,0.0,8.m4v,8.0
2024-02-28 10:50:47.663864,1709113847.6638644,-28.3203125,-15.13671875,-20.01953125,-33.69140625,-1.0,1.0,-1.0,0.0,8.m4v,8.0
2024-02-28 10:50:47.667772,1709113847.6677716,-22.94921875,-33.203125,-29.296875,-25.87890625,-1.0,1.0,-1.0,0.0,8.m4v,8.0
2024-02-28 10:50:47.671677,1709113847.6716774,-17.578125,-52.24609375,-53.7109375,-21.97265625,-1.0,1.0,-1.0,0.0,8.m4v,8.0
2024-02-28 10:50:47.675583,1709113847.6755831,-21.484375,-45.41015625,-59.08203125,-3.41796875,-1.0,1.0,-1.0,0.0,8.m4v,8.0
2024-02-28 10:50:47.753701,1709113847.7537012,-23.92578125,-39.55078125,-57.12890625,-41.9921875,-1.0,1.0,-1.0,0.0,8.m4v,8.0
2024-02-28 10:50:47.753701,1709113847.7537012,-23.92578125,-39.55078125,-57.12890625,-41.9921875,-1.0,1.0,-1.0,0.0,8.m4v,8.0
2024-02-28 10:50:47.753701,1709113847.7537012,-23.92578125,-39.55078125,-57.12890625,-41.9921875,-1.0,1.0,-1.0,0.0,8.m4v,8.0
2024-02-28 10:50:47.753701,1709113847.7537012,-23.92578125,-39.55078125,-57.12890625,-41.9921875,-1.0,1.0,-1.0,0.0,8.m4v,8.0
2024-02-28 10:50:47.761515,1709113847.761515,15.13671875,-39.55078125,-56.640625,-12.20703125,-1.0,1.0,-1.0,0.0,8.m4v,8.0
2024-02-28 10:50:47.761515,1709113847.761515,15.13671875,-39.55078125,-56.640625,-12.20703125,-1.0,1.0,-1.0,0.0,8.m4v,8.0
2024-02-28 10:50:47.761515,1709113847.761515,15.13671875,-39.55078125,-56.640625,-12.20703125,-1.0,1.0,-1.0,0.0,8.m4v,8.0
2024-02-28 10:50:47.761515,1709113847.761515,15.13671875,-39.55078125,-56.640625,-12.20703125,-1.0,1.0,-1.0,0.0,8.m4v,8.0
2024-02-28 10:50:47.773232,1709113847.773232,-47.8515625,-57.6171875,-14.16015625,-51.26953125,-1.0,1.0,-1.0,0.0,8.m4v,8.0
2024-02-28 10:50:47.773232,1709113847.773232,-47.8515625,-57.6171875,-14.16015625,-51.26953125,-1.0,1.0,-1.0,0.0,8.m4v,8.0
2024-02-28 10:50:47.773232,1709113847.773232,-47.8515625,-57.6171875,-14.16015625,-51.26953125,-1.0,1.0,-1.0,0.0,8.m4v,8.0
2024-02-28 10:50:47.773232,1709113847.773232,-47.8515625,-57.6171875,-14.16015625,-51.26953125,-1.0,1.0,-1.0,0.0,8.m4v,8.0
2024-02-28 10:50:47.777138,1709113847.7771378,-34.1796875,-29.296875,-23.4375,-25.390625,-1.0,1.0,-1.0,0.0,8.m4v,8.0
2024-02-28 10:50:47.781044,1709113847.7810435,-36.1328125,-3.41796875,-29.78515625,-11.23046875,-1.0,1.0,-1.0,0.0,8.m4v,8.0
2024-02-28 10:50:47.784950,1709113847.7849495,-38.0859375,-11.23046875,-52.734375,-36.62109375,-1.0,1.0,-1.0,0.0,8.m4v,8.0
2024-02-28 10:50:47.784950,1709113847.7849495,-38.0859375,-11.23046875,-52.734375,-36.62109375,-1.0,1.0,-1.0,0.0,8.m4v,8.0
2024-02-28 10:50:47.784950,1709113847.7849495,-38.0859375,-11.23046875,-52.734375,-36.62109375,-1.0,1.0,-1.0,0.0,8.m4v,8.0
2024-02-28 10:50:47.784950,1709113847.7849495,-38.0859375,-11.23046875,-52.734375,-36.62109375,-1.0,1.0,-1.0,0.0,8.m4v,8.0
2024-02-28 10:50:47.788855,1709113847.7888553,-38.57421875,-19.53125,-52.734375,-35.64453125,-1.0,1.0,-1.0,0.0,8.m4v,8.0
2024-02-28 10:50:47.792761,1709113847.792761,-43.45703125,-29.296875,-73.73046875,-34.66796875,-1.0,1.0,-1.0,0.0,8.m4v,8.0
2024-02-28 10:50:47.796667,1709113847.7966669,-26.85546875,-39.55078125,-55.6640625,-38.0859375,-1.0,1.0,-1.0,0.0,8.m4v,8.0
2024-02-28 10:50:47.796667,1709113847.7966669,-26.85546875,-39.55078125,-55.6640625,-38.0859375,-1.0,1.0,-1.0,0.0,8.m4v,8.0
2024-02-28 10:50:47.796667,1709113847.7966669,-26.85546875,-39.55078125,-55.6640625,-38.0859375,-1.0,1.0,-1.0,0.0,8.m4v,8.0
2024-02-28 10:50:47.796667,1709113847.7966669,-26.85546875,-39.55078125,-55.6640625,-38.0859375,-1.0,1.0,-1.0,0.0,8.m4v,8.0
2024-02-28 10:50:47.800573,1709113847.8005726,-26.85546875,-46.38671875,-30.76171875,-23.92578125,-1.0,1.0,-1.0,0.0,8.m4v,8.0
2024-02-28 10:50:47.804478,1709113847.8044784,-16.11328125,-50.29296875,-42.96875,-16.6015625,-1.0,1.0,-1.0,0.0,8.m4v,8.0
2024-02-28 10:50:47.804478,1709113847.8044784,-16.11328125,-50.29296875,-42.96875,-16.6015625,-1.0,1.0,-1.0,0.0,8.m4v,8.0
2024-02-28 10:50:47.804478,1709113847.8044784,-16.11328125,-50.29296875,-42.96875,-16.6015625,-1.0,1.0,-1.0,0.0,8.m4v,8.0
2024-02-28 10:50:47.804478,1709113847.8044784,-16.11328125,-50.29296875,-42.96875,-16.6015625,-1.0,1.0,-1.0,0.0,8.m4v,8.0
2024-02-28 10:50:47.808386,1709113847.808386,-11.71875,-49.8046875,-10.7421875,-23.92578125,-1.0,1.0,-1.0,0.0,8.m4v,8.0
2024-02-28 10:50:47.808386,1709113847.808386,-11.71875,-49.8046875,-10.7421875,-23.92578125,-1.0,1.0,-1.0,0.0,8.m4v,8.0
2024-02-28 10:50:47.808386,1709113847.808386,-11.71875,-49.8046875,-10.7421875,-23.92578125,-1.0,1.0,-1.0,0.0,8.m4v,8.0
2024-02-28 10:50:47.808386,1709113847.808386,-11.71875,-49.8046875,-10.7421875,-23.92578125,-1.0,1.0,-1.0,0.0,8.m4v,8.0
2024-02-28 10:50:47.812292,1709113847.812292,-20.99609375,-42.96875,10.7421875,-14.16015625,-1.0,1.0,-1.0,0.0,8.m4v,8.0
2024-02-28 10:50:47.812292,1709113847.812292,-20.99609375,-42.96875,10.7421875,-14.16015625,-1.0,1.0,-1.0,0.0,8.m4v,8.0
2024-02-28 10:50:47.812292,1709113847.812292,-20.99609375,-42.96875,10.7421875,-14.16015625,-1.0,1.0,-1.0,0.0,8.m4v,8.0
2024-02-28 10:50:47.812292,1709113847.812292,-20.99609375,-42.96875,10.7421875,-14.16015625,-1.0,1.0,-1.0,0.0,8.m4v,8.0
2024-02-28 10:50:47.816198,1709113847.8161976,0.9765625,-24.90234375,-11.71875,-1.46484375,-1.0,1.0,-1.0,0.0,8.m4v,8.0
2024-02-28 10:50:47.816198,1709113847.8161976,0.9765625,-24.90234375,-11.71875,-1.46484375,-1.0,1.0,-1.0,0.0,8.m4v,8.0
2024-02-28 10:50:47.816198,1709113847.8161976,0.9765625,-24.90234375,-11.71875,-1.46484375,-1.0,1.0,-1.0,0.0,8.m4v,8.0
2024-02-28 10:50:47.816198,1709113847.8161976,0.9765625,-24.90234375,-11.71875,-1.46484375,-1.0,1.0,-1.0,0.0,8.m4v,8.0
2024-02-28 10:50:47.820104,1709113847.8201036,-0.48828125,-5.859375,-28.3203125,-19.04296875,-1.0,1.0,-1.0,0.0,8.m4v,8.0
2024-02-28 10:50:47.820104,1709113847.8201036,-0.48828125,-5.859375,-28.3203125,-19.04296875,-1.0,1.0,-1.0,0.0,8.m4v,8.0
2024-02-28 10:50:47.820104,1709113847.8201036,-0.48828125,-5.859375,-28.3203125,-19.04296875,-1.0,1.0,-1.0,0.0,8.m4v,8.0
2024-02-28 10:50:47.820104,1709113847.8201036,-0.48828125,-5.859375,-28.3203125,-19.04296875,-1.0,1.0,-1.0,0.0,8.m4v,8.0
2024-02-28 10:50:47.824009,1709113847.8240094,-25.87890625,-13.18359375,-40.52734375,-32.71484375,-1.0,1.0,-1.0,0.0,8.m4v,8.0
2024-02-28 10:50:47.824009,1709113847.8240094,-25.87890625,-13.18359375,-40.52734375,-32.71484375,-1.0,1.0,-1.0,0.0,8.m4v,8.0
2024-02-28 10:50:47.824009,1709113847.8240094,-25.87890625,-13.18359375,-40.52734375,-32.71484375,-1.0,1.0,-1.0,0.0,8.m4v,8.0
2024-02-28 10:50:47.824009,1709113847.8240094,-25.87890625,-13.18359375,-40.52734375,-32.71484375,-1.0,1.0,-1.0,0.0,8.m4v,8.0
2024-02-28 10:50:47.824009,1709113847.8240094,-25.87890625,-13.18359375,-40.52734375,-32.71484375,-1.0,1.0,-1.0,0.0,8.m4v,8.0
2024-02-28 10:50:47.824009,1709113847.8240094,-25.87890625,-13.18359375,-40.52734375,-32.71484375,-1.0,1.0,-1.0,0.0,8.m4v,8.0
2024-02-28 10:50:47.824009,1709113847.8240094,-25.87890625,-13.18359375,-40.52734375,-32.71484375,-1.0,1.0,-1.0,0.0,8.m4v,8.0
2024-02-28 10:50:47.827915,1709113847.8279152,-19.53125,-25.87890625,-45.41015625,-27.83203125,-1.0,1.0,-1.0,0.0,8.m4v,8.0
2024-02-28 10:50:47.827915,1709113847.8279152,-19.53125,-25.87890625,-45.41015625,-27.83203125,-1.0,1.0,-1.0,0.0,8.m4v,8.0
2024-02-28 10:50:47.827915,1709113847.8279152,-19.53125,-25.87890625,-45.41015625,-27.83203125,-1.0,1.0,-1.0,0.0,8.m4v,8.0
2024-02-28 10:50:47.827915,1709113847.8279152,-19.53125,-25.87890625,-45.41015625,-27.83203125,-1.0,1.0,-1.0,0.0,8.m4v,8.0
2024-02-28 10:50:47.827915,1709113847.8279152,-19.53125,-25.87890625,-45.41015625,-27.83203125,-1.0,1.0,-1.0,0.0,8.m4v,8.0
2024-02-28 10:50:47.827915,1709113847.8279152,-19.53125,-25.87890625,-45.41015625,-27.83203125,-1.0,1.0,-1.0,0.0,8.m4v,8.0
2024-02-28 10:50:47.827915,1709113847.8279152,-19.53125,-25.87890625,-45.41015625,-27.83203125,-1.0,1.0,-1.0,0.0,8.m4v,8.0
2024-02-28 10:50:47.831821,1709113847.831821,-17.08984375,-28.3203125,-66.40625,-19.53125,-1.0,1.0,-1.0,0.0,8.m4v,8.0
2024-02-28 10:50:47.831821,1709113847.831821,-17.08984375,-28.3203125,-66.40625,-19.53125,-1.0,1.0,-1.0,0.0,8.m4v,8.0
2024-02-28 10:50:47.831821,1709113847.831821,-17.08984375,-28.3203125,-66.40625,-19.53125,-1.0,1.0,-1.0,0.0,8.m4v,8.0
2024-02-28 10:50:47.831821,1709113847.831821,-17.08984375,-28.3203125,-66.40625,-19.53125,-1.0,1.0,-1.0,0.0,8.m4v,8.0
2024-02-28 10:50:47.831821,1709113847.831821,-17.08984375,-28.3203125,-66.40625,-19.53125,-1.0,1.0,-1.0,0.0,8.m4v,8.0
2024-02-28 10:50:47.831821,1709113847.831821,-17.08984375,-28.3203125,-66.40625,-19.53125,-1.0,1.0,-1.0,0.0,8.m4v,8.0
2024-02-28 10:50:47.831821,1709113847.831821,-17.08984375,-28.3203125,-66.40625,-19.53125,-1.0,1.0,-1.0,0.0,8.m4v,8.0
2024-02-28 10:50:47.835727,1709113847.8357267,1.953125,-46.38671875,-82.51953125,6.34765625,-1.0,1.0,-1.0,0.0,8.m4v,8.0
2024-02-28 10:50:47.835727,1709113847.8357267,1.953125,-46.38671875,-82.51953125,6.34765625,-1.0,1.0,-1.0,0.0,8.m4v,8.0
2024-02-28 10:50:47.835727,1709113847.8357267,1.953125,-46.38671875,-82.51953125,6.34765625,-1.0,1.0,-1.0,0.0,8.m4v,8.0
2024-02-28 10:50:47.835727,1709113847.8357267,1.953125,-46.38671875,-82.51953125,6.34765625,-1.0,1.0,-1.0,0.0,8.m4v,8.0
2024-02-28 10:50:47.835727,1709113847.8357267,1.953125,-46.38671875,-82.51953125,6.34765625,-1.0,1.0,-1.0,0.0,8.m4v,8.0
2024-02-28 10:50:47.835727,1709113847.8357267,1.953125,-46.38671875,-82.51953125,6.34765625,-1.0,1.0,-1.0,0.0,8.m4v,8.0
2024-02-28 10:50:47.835727,1709113847.8357267,1.953125,-46.38671875,-82.51953125,6.34765625,-1.0,1.0,-1.0,0.0,8.m4v,8.0
2024-02-28 10:50:47.839633,1709113847.8396325,13.18359375,-58.10546875,-44.921875,1.953125,-1.0,1.0,-1.0,0.0,8.m4v,8.0
2024-02-28 10:50:47.839633,1709113847.8396325,13.18359375,-58.10546875,-44.921875,1.953125,-1.0,1.0,-1.0,0.0,8.m4v,8.0
2024-02-28 10:50:47.839633,1709113847.8396325,13.18359375,-58.10546875,-44.921875,1.953125,-1.0,1.0,-1.0,0.0,8.m4v,8.0
2024-02-28 10:50:47.839633,1709113847.8396325,13.18359375,-58.10546875,-44.921875,1.953125,-1.0,1.0,-1.0,0.0,8.m4v,8.0
2024-02-28 10:50:47.839633,1709113847.8396325,13.18359375,-58.10546875,-44.921875,1.953125,-1.0,1.0,-1.0,0.0,8.m4v,8.0
2024-02-28 10:50:47.839633,1709113847.8396325,13.18359375,-58.10546875,-44.921875,1.953125,-1.0,1.0,-1.0,0.0,8.m4v,8.0
2024-02-28 10:50:47.839633,1709113847.8396325,13.18359375,-58.10546875,-44.921875,1.953125,-1.0,1.0,-1.0,0.0,8.m4v,8.0
2024-02-28 10:50:47.843539,1709113847.8435383,4.39453125,-36.62109375,-16.6015625,-11.71875,-1.0,1.0,-1.0,0.0,8.m4v,8.0
2024-02-28 10:50:47.843539,1709113847.8435383,4.39453125,-36.62109375,-16.6015625,-11.71875,-1.0,1.0,-1.0,0.0,8.m4v,8.0
2024-02-28 10:50:47.843539,1709113847.8435383,4.39453125,-36.62109375,-16.6015625,-11.71875,-1.0,1.0,-1.0,0.0,8.m4v,8.0
2024-02-28 10:50:47.843539,1709113847.8435383,4.39453125,-36.62109375,-16.6015625,-11.71875,-1.0,1.0,-1.0,0.0,8.m4v,8.0
2024-02-28 10:50:47.843539,1709113847.8435383,4.39453125,-36.62109375,-16.6015625,-11.71875,-1.0,1.0,-1.0,0.0,8.m4v,8.0
2024-02-28 10:50:47.843539,1709113847.8435383,4.39453125,-36.62109375,-16.6015625,-11.71875,-1.0,1.0,-1.0,0.0,8.m4v,8.0
2024-02-28 10:50:47.847444,1709113847.8474443,10.7421875,-21.484375,-20.99609375,-9.765625,-1.0,1.0,-1.0,0.0,8.m4v,8.0
2024-02-28 10:50:47.847444,1709113847.8474443,10.7421875,-21.484375,-20.99609375,-9.765625,-1.0,1.0,-1.0,0.0,8.m4v,8.0
2024-02-28 10:50:47.847444,1709113847.8474443,10.7421875,-21.484375,-20.99609375,-9.765625,-1.0,1.0,-1.0,0.0,8.m4v,8.0
2024-02-28 10:50:47.847444,1709113847.8474443,10.7421875,-21.484375,-20.99609375,-9.765625,-1.0,1.0,-1.0,0.0,8.m4v,8.0
2024-02-28 10:50:47.847444,1709113847.8474443,10.7421875,-21.484375,-20.99609375,-9.765625,-1.0,1.0,-1.0,0.0,8.m4v,8.0
2024-02-28 10:50:47.847444,1709113847.8474443,10.7421875,-21.484375,-20.99609375,-9.765625,-1.0,1.0,-1.0,0.0,8.m4v,8.0
2024-02-28 10:50:47.851350,1709113847.85135,8.7890625,-27.34375,-30.2734375,8.30078125,-1.0,1.0,-1.0,0.0,8.m4v,8.0
2024-02-28 10:50:47.851350,1709113847.85135,8.7890625,-27.34375,-30.2734375,8.30078125,-1.0,1.0,-1.0,0.0,8.m4v,8.0
2024-02-28 10:50:47.851350,1709113847.85135,8.7890625,-27.34375,-30.2734375,8.30078125,-1.0,1.0,-1.0,0.0,8.m4v,8.0
2024-02-28 10:50:47.851350,1709113847.85135,8.7890625,-27.34375,-30.2734375,8.30078125,-1.0,1.0,-1.0,0.0,8.m4v,8.0
2024-02-28 10:50:47.851350,1709113847.85135,8.7890625,-27.34375,-30.2734375,8.30078125,-1.0,1.0,-1.0,0.0,8.m4v,8.0
2024-02-28 10:50:47.851350,1709113847.85135,8.7890625,-27.34375,-30.2734375,8.30078125,-1.0,1.0,-1.0,0.0,8.m4v,8.0
2024-02-28 10:50:47.855257,1709113847.8552573,16.11328125,-38.0859375,-15.625,6.34765625,-1.0,1.0,-1.0,0.0,8.m4v,8.0
2024-02-28 10:50:47.855257,1709113847.8552573,16.11328125,-38.0859375,-15.625,6.34765625,-1.0,1.0,-1.0,0.0,8.m4v,8.0
2024-02-28 10:50:47.855257,1709113847.8552573,16.11328125,-38.0859375,-15.625,6.34765625,-1.0,1.0,-1.0,0.0,8.m4v,8.0
2024-02-28 10:50:47.855257,1709113847.8552573,16.11328125,-38.0859375,-15.625,6.34765625,-1.0,1.0,-1.0,0.0,8.m4v,8.0
2024-02-28 10:50:47.855257,1709113847.8552573,16.11328125,-38.0859375,-15.625,6.34765625,-1.0,1.0,-1.0,0.0,8.m4v,8.0
2024-02-28 10:50:47.855257,1709113847.8552573,16.11328125,-38.0859375,-15.625,6.34765625,-1.0,1.0,-1.0,0.0,8.m4v,8.0
2024-02-28 10:50:47.859163,1709113847.8591633,22.94921875,-34.66796875,-13.18359375,-7.8125,-1.0,1.0,-1.0,0.0,8.m4v,8.0
2024-02-28 10:50:47.859163,1709113847.8591633,22.94921875,-34.66796875,-13.18359375,-7.8125,-1.0,1.0,-1.0,0.0,8.m4v,8.0
2024-02-28 10:50:47.859163,1709113847.8591633,22.94921875,-34.66796875,-13.18359375,-7.8125,-1.0,1.0,-1.0,0.0,8.m4v,8.0
2024-02-28 10:50:47.859163,1709113847.8591633,22.94921875,-34.66796875,-13.18359375,-7.8125,-1.0,1.0,-1.0,0.0,8.m4v,8.0
2024-02-28 10:50:47.859163,1709113847.8591633,22.94921875,-34.66796875,-13.18359375,-7.8125,-1.0,1.0,-1.0,0.0,8.m4v,8.0
2024-02-28 10:50:47.859163,1709113847.8591633,22.94921875,-34.66796875,-13.18359375,-7.8125,-1.0,1.0,-1.0,0.0,8.m4v,8.0
2024-02-28 10:50:47.863069,1709113847.863069,2.44140625,-40.52734375,-30.2734375,-8.7890625,-1.0,1.0,-1.0,0.0,8.m4v,8.0
2024-02-28 10:50:47.863069,1709113847.863069,2.44140625,-40.52734375,-30.2734375,-8.7890625,-1.0,1.0,-1.0,0.0,8.m4v,8.0
2024-02-28 10:50:47.863069,1709113847.863069,2.44140625,-40.52734375,-30.2734375,-8.7890625,-1.0,1.0,-1.0,0.0,8.m4v,8.0
2024-02-28 10:50:47.863069,1709113847.863069,2.44140625,-40.52734375,-30.2734375,-8.7890625,-1.0,1.0,-1.0,0.0,8.m4v,8.0
2024-02-28 10:50:47.863069,1709113847.863069,2.44140625,-40.52734375,-30.2734375,-8.7890625,-1.0,1.0,-1.0,0.0,8.m4v,8.0
2024-02-28 10:50:47.866975,1709113847.8669748,-1.953125,-41.9921875,-25.390625,-16.11328125,-1.0,1.0,-1.0,0.0,8.m4v,8.0
2024-02-28 10:50:47.866975,1709113847.8669748,-1.953125,-41.9921875,-25.390625,-16.11328125,-1.0,1.0,-1.0,0.0,8.m4v,8.0
2024-02-28 10:50:47.866975,1709113847.8669748,-1.953125,-41.9921875,-25.390625,-16.11328125,-1.0,1.0,-1.0,0.0,8.m4v,8.0
2024-02-28 10:50:47.866975,1709113847.8669748,-1.953125,-41.9921875,-25.390625,-16.11328125,-1.0,1.0,-1.0,0.0,8.m4v,8.0
2024-02-28 10:50:47.866975,1709113847.8669748,-1.953125,-41.9921875,-25.390625,-16.11328125,-1.0,1.0,-1.0,0.0,8.m4v,8.0
2024-02-28 10:50:47.870881,1709113847.8708806,12.20703125,-27.83203125,-48.33984375,-14.6484375,-1.0,1.0,-1.0,0.0,8.m4v,8.0
2024-02-28 10:50:47.874786,1709113847.8747864,6.34765625,-32.71484375,-64.453125,7.32421875,-1.0,1.0,-1.0,0.0,8.m4v,8.0
2024-02-28 10:50:47.878692,1709113847.8786922,19.53125,-44.921875,-34.66796875,22.4609375,-1.0,1.0,-1.0,0.0,8.m4v,8.0
2024-02-28 10:50:47.878692,1709113847.8786922,19.53125,-44.921875,-34.66796875,22.4609375,-1.0,1.0,-1.0,0.0,8.m4v,8.0
2024-02-28 10:50:47.878692,1709113847.8786922,19.53125,-44.921875,-34.66796875,22.4609375,-1.0,1.0,-1.0,0.0,8.m4v,8.0
2024-02-28 10:50:47.878692,1709113847.8786922,19.53125,-44.921875,-34.66796875,22.4609375,-1.0,1.0,-1.0,0.0,8.m4v,8.0
2024-02-28 10:50:47.878692,1709113847.8786922,19.53125,-44.921875,-34.66796875,22.4609375,-1.0,1.0,-1.0,0.0,8.m4v,8.0
2024-02-28 10:50:47.882598,1709113847.8825982,12.6953125,-40.52734375,-29.78515625,27.34375,-1.0,1.0,-1.0,0.0,8.m4v,8.0
2024-02-28 10:50:47.886504,1709113847.886504,-8.30078125,-31.73828125,-39.0625,13.671875,-1.0,1.0,-1.0,0.0,8.m4v,8.0
2024-02-28 10:50:47.890410,1709113847.8904097,-20.5078125,-33.203125,-58.59375,-27.34375,-1.0,1.0,-1.0,0.0,8.m4v,8.0
2024-02-28 10:50:47.890410,1709113847.8904097,-20.5078125,-33.203125,-58.59375,-27.34375,-1.0,1.0,-1.0,0.0,8.m4v,8.0
2024-02-28 10:50:47.890410,1709113847.8904097,-20.5078125,-33.203125,-58.59375,-27.34375,-1.0,1.0,-1.0,0.0,8.m4v,8.0
2024-02-28 10:50:47.890410,1709113847.8904097,-20.5078125,-33.203125,-58.59375,-27.34375,-1.0,1.0,-1.0,0.0,8.m4v,8.0
2024-02-28 10:50:47.890410,1709113847.8904097,-20.5078125,-33.203125,-58.59375,-27.34375,-1.0,1.0,-1.0,0.0,8.m4v,8.0
2024-02-28 10:50:47.894315,1709113847.8943155,-31.73828125,-36.1328125,-66.89453125,-33.203125,-1.0,1.0,-1.0,0.0,8.m4v,8.0
2024-02-28 10:50:47.898221,1709113847.8982213,-36.62109375,-36.62109375,-37.109375,-18.06640625,-1.0,1.0,-1.0,0.0,8.m4v,8.0
2024-02-28 10:50:47.902129,1709113847.9021287,-35.15625,-30.2734375,-52.24609375,-23.92578125,-1.0,1.0,-1.0,0.0,8.m4v,8.0
2024-02-28 10:50:47.902129,1709113847.9021287,-35.15625,-30.2734375,-52.24609375,-23.92578125,-1.0,1.0,-1.0,0.0,8.m4v,8.0
2024-02-28 10:50:47.902129,1709113847.9021287,-35.15625,-30.2734375,-52.24609375,-23.92578125,-1.0,1.0,-1.0,0.0,8.m4v,8.0
2024-02-28 10:50:47.902129,1709113847.9021287,-35.15625,-30.2734375,-52.24609375,-23.92578125,-1.0,1.0,-1.0,0.0,8.m4v,8.0
2024-02-28 10:50:47.902129,1709113847.9021287,-35.15625,-30.2734375,-52.24609375,-23.92578125,-1.0,1.0,-1.0,0.0,8.m4v,8.0
2024-02-28 10:50:47.906034,1709113847.9060345,-23.92578125,-30.76171875,-47.8515625,-30.76171875,-1.0,1.0,-1.0,0.0,8.m4v,8.0
2024-02-28 10:50:47.909940,1709113847.9099402,0.9765625,-32.2265625,-0.9765625,-22.94921875,-1.0,1.0,-1.0,0.0,8.m4v,8.0
2024-02-28 10:50:47.913846,1709113847.913846,-12.6953125,-41.9921875,-8.30078125,-41.50390625,-1.0,1.0,-1.0,0.0,8.m4v,8.0
2024-02-28 10:50:47.913846,1709113847.913846,-12.6953125,-41.9921875,-8.30078125,-41.50390625,-1.0,1.0,-1.0,0.0,8.m4v,8.0
2024-02-28 10:50:47.913846,1709113847.913846,-12.6953125,-41.9921875,-8.30078125,-41.50390625,-1.0,1.0,-1.0,0.0,8.m4v,8.0
2024-02-28 10:50:47.913846,1709113847.913846,-12.6953125,-41.9921875,-8.30078125,-41.50390625,-1.0,1.0,-1.0,0.0,8.m4v,8.0
2024-02-28 10:50:47.913846,1709113847.913846,-12.6953125,-41.9921875,-8.30078125,-41.50390625,-1.0,1.0,-1.0,0.0,8.m4v,8.0
2024-02-28 10:50:47.917752,1709113847.9177518,-44.921875,-43.45703125,-36.1328125,-34.66796875,-1.0,1.0,-1.0,0.0,8.m4v,8.0
2024-02-28 10:50:47.921658,1709113847.9216576,-29.78515625,-37.109375,-58.59375,-53.7109375,-1.0,1.0,-1.0,0.0,8.m4v,8.0
2024-02-28 10:50:47.921658,1709113847.9216576,-29.78515625,-37.109375,-58.59375,-53.7109375,-1.0,1.0,-1.0,0.0,8.m4v,8.0
2024-02-28 10:50:47.921658,1709113847.9216576,-29.78515625,-37.109375,-58.59375,-53.7109375,-1.0,1.0,-1.0,0.0,8.m4v,8.0
2024-02-28 10:50:47.921658,1709113847.9216576,-29.78515625,-37.109375,-58.59375,-53.7109375,-1.0,1.0,-1.0,0.0,8.m4v,8.0
2024-02-28 10:50:47.921658,1709113847.9216576,-29.78515625,-37.109375,-58.59375,-53.7109375,-1.0,1.0,-1.0,0.0,8.m4v,8.0
2024-02-28 10:50:47.925564,1709113847.9255636,-36.1328125,-41.9921875,-56.640625,-54.19921875,-1.0,1.0,-1.0,0.0,8.m4v,8.0
2024-02-28 10:50:47.929469,1709113847.929469,-62.01171875,-49.31640625,-40.0390625,-46.38671875,-1.0,1.0,-1.0,0.0,8.m4v,8.0
2024-02-28 10:50:47.929469,1709113847.929469,-62.01171875,-49.31640625,-40.0390625,-46.38671875,-1.0,1.0,-1.0,0.0,8.m4v,8.0
2024-02-28 10:50:47.929469,1709113847.929469,-62.01171875,-49.31640625,-40.0390625,-46.38671875,-1.0,1.0,-1.0,0.0,8.m4v,8.0
2024-02-28 10:50:47.929469,1709113847.929469,-62.01171875,-49.31640625,-40.0390625,-46.38671875,-1.0,1.0,-1.0,0.0,8.m4v,8.0
2024-02-28 10:50:47.933375,1709113847.9333751,-70.80078125,-31.25,-52.24609375,-74.21875,-1.0,1.0,-1.0,0.0,8.m4v,8.0
2024-02-28 10:50:47.937281,1709113847.937281,-51.7578125,-1.46484375,-53.7109375,-45.41015625,-1.0,1.0,-1.0,0.0,8.m4v,8.0
2024-02-28 10:50:47.937281,1709113847.937281,-51.7578125,-1.46484375,-53.7109375,-45.41015625,-1.0,1.0,-1.0,0.0,8.m4v,8.0
2024-02-28 10:50:47.937281,1709113847.937281,-51.7578125,-1.46484375,-53.7109375,-45.41015625,-1.0,1.0,-1.0,0.0,8.m4v,8.0
2024-02-28 10:50:47.937281,1709113847.937281,-51.7578125,-1.46484375,-53.7109375,-45.41015625,-1.0,1.0,-1.0,0.0,8.m4v,8.0
2024-02-28 10:50:47.941187,1709113847.941187,-50.29296875,-1.46484375,-43.45703125,-29.78515625,-1.0,1.0,-1.0,0.0,8.m4v,8.0
2024-02-28 10:50:47.945092,1709113847.9450924,-58.10546875,-31.25,-9.765625,-51.7578125,-1.0,1.0,-1.0,0.0,8.m4v,8.0
2024-02-28 10:50:47.945092,1709113847.9450924,-58.10546875,-31.25,-9.765625,-51.7578125,-1.0,1.0,-1.0,0.0,8.m4v,8.0
2024-02-28 10:50:47.945092,1709113847.9450924,-58.10546875,-31.25,-9.765625,-51.7578125,-1.0,1.0,-1.0,0.0,8.m4v,8.0
2024-02-28 10:50:47.945092,1709113847.9450924,-58.10546875,-31.25,-9.765625,-51.7578125,-1.0,1.0,-1.0,0.0,8.m4v,8.0
2024-02-28 10:50:47.949000,1709113847.949,-19.04296875,-56.15234375,12.6953125,-47.8515625,-1.0,1.0,-1.0,0.0,8.m4v,8.0
2024-02-28 10:50:47.952906,1709113847.9529057,-23.4375,-52.734375,-9.27734375,-41.9921875,-1.0,1.0,-1.0,0.0,8.m4v,8.0
2024-02-28 10:50:47.952906,1709113847.9529057,-23.4375,-52.734375,-9.27734375,-41.9921875,-1.0,1.0,-1.0,0.0,8.m4v,8.0
2024-02-28 10:50:47.952906,1709113847.9529057,-23.4375,-52.734375,-9.27734375,-41.9921875,-1.0,1.0,-1.0,0.0,8.m4v,8.0
2024-02-28 10:50:47.952906,1709113847.9529057,-23.4375,-52.734375,-9.27734375,-41.9921875,-1.0,1.0,-1.0,0.0,8.m4v,8.0
2024-02-28 10:50:47.956811,1709113847.9568114,-46.38671875,-40.52734375,-51.26953125,-10.7421875,-1.0,1.0,-1.0,0.0,8.m4v,8.0
2024-02-28 10:50:47.960717,1709113847.9607172,-41.015625,-25.87890625,-57.12890625,1.46484375,-1.0,1.0,-1.0,0.0,8.m4v,8.0
2024-02-28 10:50:47.960717,1709113847.9607172,-41.015625,-25.87890625,-57.12890625,1.46484375,-1.0,1.0,-1.0,0.0,8.m4v,8.0
2024-02-28 10:50:47.960717,1709113847.9607172,-41.015625,-25.87890625,-57.12890625,1.46484375,-1.0,1.0,-1.0,0.0,8.m4v,8.0
2024-02-28 10:50:47.960717,1709113847.9607172,-41.015625,-25.87890625,-57.12890625,1.46484375,-1.0,1.0,-1.0,0.0,8.m4v,8.0
2024-02-28 10:50:47.964623,1709113847.964623,-48.33984375,-20.5078125,-46.875,-38.0859375,-1.0,1.0,-1.0,0.0,8.m4v,8.0
2024-02-28 10:50:47.968529,1709113847.9685287,-52.734375,-40.0390625,-70.3125,-45.41015625,-1.0,1.0,-1.0,0.0,8.m4v,8.0
2024-02-28 10:50:47.968529,1709113847.9685287,-52.734375,-40.0390625,-70.3125,-45.41015625,-1.0,1.0,-1.0,0.0,8.m4v,8.0
2024-02-28 10:50:47.968529,1709113847.9685287,-52.734375,-40.0390625,-70.3125,-45.41015625,-1.0,1.0,-1.0,0.0,8.m4v,8.0
2024-02-28 10:50:47.968529,1709113847.9685287,-52.734375,-40.0390625,-70.3125,-45.41015625,-1.0,1.0,-1.0,0.0,8.m4v,8.0
2024-02-28 10:50:47.976341,1709113847.9763403,-50.29296875,-62.01171875,-35.64453125,-64.453125,-1.0,1.0,-1.0,0.0,8.m4v,8.0
2024-02-28 10:50:47.976341,1709113847.9763403,-50.29296875,-62.01171875,-35.64453125,-64.453125,-1.0,1.0,-1.0,0.0,8.m4v,8.0
2024-02-28 10:50:47.976341,1709113847.9763403,-50.29296875,-62.01171875,-35.64453125,-64.453125,-1.0,1.0,-1.0,0.0,8.m4v,8.0
2024-02-28 10:50:47.976341,1709113847.9763403,-50.29296875,-62.01171875,-35.64453125,-64.453125,-1.0,1.0,-1.0,0.0,8.m4v,8.0
2024-02-28 10:50:47.984152,1709113847.984152,-80.078125,-16.11328125,-20.99609375,-54.6875,-1.0,1.0,-1.0,0.0,8.m4v,8.0
2024-02-28 10:50:47.984152,1709113847.984152,-80.078125,-16.11328125,-20.99609375,-54.6875,-1.0,1.0,-1.0,0.0,8.m4v,8.0
2024-02-28 10:50:47.984152,1709113847.984152,-80.078125,-16.11328125,-20.99609375,-54.6875,-1.0,1.0,-1.0,0.0,8.m4v,8.0
2024-02-28 10:50:47.984152,1709113847.984152,-80.078125,-16.11328125,-20.99609375,-54.6875,-1.0,1.0,-1.0,0.0,8.m4v,8.0
2024-02-28 10:50:47.991964,1709113847.9919636,-75.1953125,-33.203125,-32.71484375,-95.21484375,-1.0,1.0,-1.0,0.0,8.m4v,8.0
2024-02-28 10:50:47.991964,1709113847.9919636,-75.1953125,-33.203125,-32.71484375,-95.21484375,-1.0,1.0,-1.0,0.0,8.m4v,8.0
2024-02-28 10:50:47.991964,1709113847.9919636,-75.1953125,-33.203125,-32.71484375,-95.21484375,-1.0,1.0,-1.0,0.0,8.m4v,8.0
2024-02-28 10:50:47.991964,1709113847.9919636,-75.1953125,-33.203125,-32.71484375,-95.21484375,-1.0,1.0,-1.0,0.0,8.m4v,8.0
2024-02-28 10:50:47.999777,1709113847.9997773,-77.63671875,-44.921875,-23.4375,-83.984375,-1.0,1.0,-1.0,0.0,8.m4v,8.0
2024-02-28 10:50:47.999777,1709113847.9997773,-77.63671875,-44.921875,-23.4375,-83.984375,-1.0,1.0,-1.0,0.0,8.m4v,8.0
2024-02-28 10:50:47.999777,1709113847.9997773,-77.63671875,-44.921875,-23.4375,-83.984375,-1.0,1.0,-1.0,0.0,8.m4v,8.0
2024-02-28 10:50:47.999777,1709113847.9997773,-77.63671875,-44.921875,-23.4375,-83.984375,-1.0,1.0,-1.0,0.0,8.m4v,8.0
2024-02-28 10:50:48.011495,1709113848.0114949,-67.87109375,-50.78125,-49.8046875,-59.5703125,-1.0,1.0,-1.0,0.0,8.m4v,8.0
2024-02-28 10:50:48.019306,1709113848.0193064,-78.125,-24.4140625,-53.7109375,-55.6640625,-1.0,1.0,-1.0,0.0,8.m4v,8.0
2024-02-28 10:50:48.019306,1709113848.0193064,-78.125,-24.4140625,-53.7109375,-55.6640625,-1.0,1.0,-1.0,0.0,8.m4v,8.0
2024-02-28 10:50:48.019306,1709113848.0193064,-78.125,-24.4140625,-53.7109375,-55.6640625,-1.0,1.0,-1.0,0.0,8.m4v,8.0
2024-02-28 10:50:48.019306,1709113848.0193064,-78.125,-24.4140625,-53.7109375,-55.6640625,-1.0,1.0,-1.0,0.0,8.m4v,8.0
2024-02-28 10:50:48.031024,1709113848.031024,-107.421875,-12.6953125,-18.5546875,-90.8203125,-1.0,1.0,-1.0,0.0,8.m4v,8.0
2024-02-28 10:50:48.031024,1709113848.031024,-107.421875,-12.6953125,-18.5546875,-90.8203125,-1.0,1.0,-1.0,0.0,8.m4v,8.0
2024-02-28 10:50:48.031024,1709113848.031024,-107.421875,-12.6953125,-18.5546875,-90.8203125,-1.0,1.0,-1.0,0.0,8.m4v,8.0
2024-02-28 10:50:48.031024,1709113848.031024,-107.421875,-12.6953125,-18.5546875,-90.8203125,-1.0,1.0,-1.0,0.0,8.m4v,8.0
2024-02-28 10:50:48.046649,1709113848.046649,-107.91015625,-68.359375,-56.15234375,-73.2421875,-1.0,1.0,-1.0,0.0,8.m4v,8.0
2024-02-28 10:50:48.046649,1709113848.046649,-107.91015625,-68.359375,-56.15234375,-73.2421875,-1.0,1.0,-1.0,0.0,8.m4v,8.0
2024-02-28 10:50:48.046649,1709113848.046649,-107.91015625,-68.359375,-56.15234375,-73.2421875,-1.0,1.0,-1.0,0.0,8.m4v,8.0
2024-02-28 10:50:48.046649,1709113848.046649,-107.91015625,-68.359375,-56.15234375,-73.2421875,-1.0,1.0,-1.0,0.0,8.m4v,8.0
2024-02-28 10:50:48.058367,1709113848.0583663,-77.63671875,-8.30078125,-31.25,-53.7109375,-1.0,1.0,-1.0,0.0,8.m4v,8.0
2024-02-28 10:50:48.058367,1709113848.0583663,-77.63671875,-8.30078125,-31.25,-53.7109375,-1.0,1.0,-1.0,0.0,8.m4v,8.0
2024-02-28 10:50:48.058367,1709113848.0583663,-77.63671875,-8.30078125,-31.25,-53.7109375,-1.0,1.0,-1.0,0.0,8.m4v,8.0
2024-02-28 10:50:48.058367,1709113848.0583663,-77.63671875,-8.30078125,-31.25,-53.7109375,-1.0,1.0,-1.0,0.0,8.m4v,8.0
2024-02-28 10:50:48.073990,1709113848.07399,-38.0859375,-77.1484375,13.18359375,-6.34765625,-1.0,1.0,-1.0,0.0,8.m4v,8.0
2024-02-28 10:50:48.073990,1709113848.07399,-38.0859375,-77.1484375,13.18359375,-6.34765625,-1.0,1.0,-1.0,0.0,8.m4v,8.0
2024-02-28 10:50:48.073990,1709113848.07399,-38.0859375,-77.1484375,13.18359375,-6.34765625,-1.0,1.0,-1.0,0.0,8.m4v,8.0
2024-02-28 10:50:48.073990,1709113848.07399,-38.0859375,-77.1484375,13.18359375,-6.34765625,-1.0,1.0,-1.0,0.0,8.m4v,8.0
2024-02-28 10:50:48.312253,1709113848.3122528,-62.98828125,-27.34375,-22.94921875,-20.5078125,-1.0,1.0,-1.0,0.0,8.m4v,8.0
2024-02-28 10:50:48.316159,1709113848.3161583,-50.78125,-32.71484375,-56.15234375,-63.4765625,-1.0,1.0,-1.0,0.0,8.m4v,8.0
2024-02-28 10:50:48.320064,1709113848.3200643,-38.57421875,-55.17578125,-42.48046875,-81.54296875,-1.0,1.0,-1.0,0.0,8.m4v,8.0
2024-02-28 10:50:48.323972,1709113848.3239715,-44.43359375,-63.96484375,1.953125,-43.45703125,-1.0,1.0,-1.0,0.0,8.m4v,8.0
2024-02-28 10:50:48.327877,1709113848.3278773,-50.78125,-42.96875,-8.30078125,-24.4140625,-1.0,1.0,-1.0,0.0,8.m4v,8.0
2024-02-28 10:50:48.331783,1709113848.331783,-31.25,-21.484375,-33.203125,-19.53125,-1.0,1.0,-1.0,0.0,8.m4v,8.0
2024-02-28 10:50:48.335689,1709113848.3356888,0.0,-24.4140625,-46.38671875,5.859375,-1.0,1.0,-1.0,0.0,8.m4v,8.0
2024-02-28 10:50:48.339595,1709113848.3395946,16.6015625,-28.3203125,-42.48046875,23.92578125,-1.0,1.0,-1.0,0.0,8.m4v,8.0
2024-02-28 10:50:48.343501,1709113848.3435006,-26.3671875,-42.96875,-32.71484375,-19.53125,-1.0,1.0,-1.0,0.0,8.m4v,8.0
2024-02-28 10:50:48.347406,1709113848.3474064,-53.22265625,-57.6171875,-38.57421875,-61.5234375,-1.0,1.0,-1.0,0.0,8.m4v,8.0
2024-02-28 10:50:48.351312,1709113848.3513122,-41.9921875,-50.29296875,-41.50390625,-51.7578125,-1.0,1.0,-1.0,0.0,8.m4v,8.0
2024-02-28 10:50:48.355218,1709113848.355218,-29.296875,-60.05859375,-28.80859375,-32.2265625,-1.0,1.0,-1.0,0.0,8.m4v,8.0
2024-02-28 10:50:48.359124,1709113848.3591237,-14.16015625,-56.15234375,-28.3203125,-20.99609375,-1.0,1.0,-1.0,0.0,8.m4v,8.0
2024-02-28 10:50:48.363029,1709113848.3630297,-14.16015625,-15.13671875,-35.64453125,-14.16015625,-1.0,1.0,-1.0,0.0,8.m4v,8.0
2024-02-28 10:50:48.366935,1709113848.3669355,-13.18359375,-14.16015625,-30.76171875,-23.4375,-1.0,1.0,-1.0,0.0,8.m4v,8.0
2024-02-28 10:50:48.370842,1709113848.3708425,9.765625,-12.6953125,-30.76171875,20.5078125,-1.0,1.0,-1.0,0.0,8.m4v,8.0
2024-02-28 10:50:48.374748,1709113848.3747482,21.484375,-4.8828125,-44.43359375,42.48046875,-1.0,1.0,-1.0,0.0,8.m4v,8.0
2024-02-28 10:50:48.378654,1709113848.3786542,-1.46484375,-46.875,-40.0390625,-17.578125,-1.0,1.0,-1.0,0.0,8.m4v,8.0
2024-02-28 10:50:48.382560,1709113848.38256,-0.48828125,-81.0546875,-21.97265625,-26.85546875,-1.0,1.0,-1.0,0.0,8.m4v,8.0
2024-02-28 10:50:48.386466,1709113848.3864658,19.04296875,-60.546875,-3.90625,-21.484375,-1.0,1.0,-1.0,0.0,8.m4v,8.0
2024-02-28 10:50:48.390372,1709113848.3903716,0.48828125,-22.4609375,-11.71875,3.90625,-1.0,1.0,-1.0,0.0,8.m4v,8.0
2024-02-28 10:50:48.394277,1709113848.394277,-24.90234375,-15.625,-46.38671875,20.99609375,-1.0,1.0,-1.0,0.0,8.m4v,8.0
2024-02-28 10:50:48.398183,1709113848.398183,-18.06640625,-21.97265625,-57.6171875,-16.11328125,-1.0,1.0,-1.0,0.0,8.m4v,8.0
2024-02-28 10:50:48.409901,1709113848.409901,4.39453125,-23.4375,-34.1796875,22.4609375,-1.0,1.0,-1.0,0.0,8.m4v,8.0
2024-02-28 10:50:48.413806,1709113848.4138064,13.671875,-34.1796875,-42.96875,-19.04296875,-1.0,1.0,-1.0,0.0,8.m4v,8.0
2024-02-28 10:50:48.417714,1709113848.417714,-14.6484375,-62.5,-48.33984375,-42.96875,-1.0,1.0,-1.0,0.0,8.m4v,8.0
2024-02-28 10:50:48.421620,1709113848.4216197,-30.2734375,-83.0078125,-24.90234375,-29.296875,-1.0,1.0,-1.0,0.0,8.m4v,8.0
2024-02-28 10:50:48.425526,1709113848.4255257,-12.20703125,-64.94140625,1.46484375,-20.99609375,-1.0,1.0,-1.0,0.0,8.m4v,8.0
2024-02-28 10:50:48.429431,1709113848.4294314,-14.6484375,-31.73828125,-26.3671875,-23.4375,-1.0,1.0,-1.0,0.0,8.m4v,8.0
2024-02-28 10:50:48.433337,1709113848.4333372,-2.44140625,-7.32421875,-56.640625,-1.46484375,-1.0,1.0,-1.0,0.0,8.m4v,8.0
2024-02-28 10:50:48.437243,1709113848.437243,1.953125,-6.34765625,-55.17578125,-2.44140625,-1.0,1.0,-1.0,0.0,8.m4v,8.0
2024-02-28 10:50:48.441149,1709113848.4411488,-23.92578125,-19.53125,-53.7109375,-32.71484375,-1.0,1.0,-1.0,0.0,8.m4v,8.0
2024-02-28 10:50:48.445055,1709113848.4450543,-20.01953125,-24.4140625,-51.26953125,-67.3828125,-1.0,1.0,-1.0,0.0,8.m4v,8.0
2024-02-28 10:50:48.448961,1709113848.4489603,-30.2734375,-33.203125,-31.73828125,-83.49609375,-1.0,1.0,-1.0,0.0,8.m4v,8.0
2024-02-28 10:50:48.452866,1709113848.4528663,-46.875,-47.8515625,-25.87890625,-45.41015625,-1.0,1.0,-1.0,0.0,8.m4v,8.0
2024-02-28 10:50:48.456772,1709113848.456772,-21.97265625,-45.41015625,-49.8046875,-20.5078125,-1.0,1.0,-1.0,0.0,8.m4v,8.0
2024-02-28 10:50:48.460678,1709113848.460678,-32.71484375,-49.31640625,-56.15234375,-30.2734375,-1.0,1.0,-1.0,0.0,8.m4v,8.0
2024-02-28 10:50:48.464586,1709113848.4645855,-39.0625,-72.75390625,-52.734375,-37.59765625,-1.0,1.0,-1.0,0.0,8.m4v,8.0
2024-02-28 10:50:48.589575,1709113848.589575,-59.5703125,-47.8515625,-14.6484375,-55.17578125,-1.0,1.0,-1.0,0.0,8.m4v,8.0
2024-02-28 10:50:48.589575,1709113848.589575,-59.5703125,-47.8515625,-14.6484375,-55.17578125,-1.0,1.0,-1.0,0.0,8.m4v,8.0
2024-02-28 10:50:48.589575,1709113848.589575,-59.5703125,-47.8515625,-14.6484375,-55.17578125,-1.0,1.0,-1.0,0.0,8.m4v,8.0
2024-02-28 10:50:48.589575,1709113848.589575,-59.5703125,-47.8515625,-14.6484375,-55.17578125,-1.0,1.0,-1.0,0.0,8.m4v,8.0
2024-02-28 10:50:48.589575,1709113848.589575,-59.5703125,-47.8515625,-14.6484375,-55.17578125,-1.0,1.0,-1.0,0.0,8.m4v,8.0
2024-02-28 10:50:48.593481,1709113848.5934808,-41.9921875,-26.3671875,-47.8515625,-40.52734375,-1.0,1.0,-1.0,0.0,8.m4v,8.0
2024-02-28 10:50:48.593481,1709113848.5934808,-41.9921875,-26.3671875,-47.8515625,-40.52734375,-1.0,1.0,-1.0,0.0,8.m4v,8.0
2024-02-28 10:50:48.593481,1709113848.5934808,-41.9921875,-26.3671875,-47.8515625,-40.52734375,-1.0,1.0,-1.0,0.0,8.m4v,8.0
2024-02-28 10:50:48.593481,1709113848.5934808,-41.9921875,-26.3671875,-47.8515625,-40.52734375,-1.0,1.0,-1.0,0.0,8.m4v,8.0
2024-02-28 10:50:48.597387,1709113848.5973866,-67.3828125,-31.73828125,-51.26953125,-41.50390625,-1.0,1.0,-1.0,0.0,8.m4v,8.0
2024-02-28 10:50:48.597387,1709113848.5973866,-67.3828125,-31.73828125,-51.26953125,-41.50390625,-1.0,1.0,-1.0,0.0,8.m4v,8.0
2024-02-28 10:50:48.597387,1709113848.5973866,-67.3828125,-31.73828125,-51.26953125,-41.50390625,-1.0,1.0,-1.0,0.0,8.m4v,8.0
2024-02-28 10:50:48.597387,1709113848.5973866,-67.3828125,-31.73828125,-51.26953125,-41.50390625,-1.0,1.0,-1.0,0.0,8.m4v,8.0
2024-02-28 10:50:48.601292,1709113848.6012924,-55.6640625,-36.1328125,-33.203125,-50.78125,-1.0,1.0,-1.0,0.0,8.m4v,8.0
2024-02-28 10:50:48.601292,1709113848.6012924,-55.6640625,-36.1328125,-33.203125,-50.78125,-1.0,1.0,-1.0,0.0,8.m4v,8.0
2024-02-28 10:50:48.601292,1709113848.6012924,-55.6640625,-36.1328125,-33.203125,-50.78125,-1.0,1.0,-1.0,0.0,8.m4v,8.0
2024-02-28 10:50:48.601292,1709113848.6012924,-55.6640625,-36.1328125,-33.203125,-50.78125,-1.0,1.0,-1.0,0.0,8.m4v,8.0
2024-02-28 10:50:48.605200,1709113848.6051998,-55.6640625,-33.203125,-27.83203125,-11.71875,-1.0,1.0,-1.0,0.0,8.m4v,8.0
2024-02-28 10:50:48.605200,1709113848.6051998,-55.6640625,-33.203125,-27.83203125,-11.71875,-1.0,1.0,-1.0,0.0,8.m4v,8.0
2024-02-28 10:50:48.605200,1709113848.6051998,-55.6640625,-33.203125,-27.83203125,-11.71875,-1.0,1.0,-1.0,0.0,8.m4v,8.0
2024-02-28 10:50:48.605200,1709113848.6051998,-55.6640625,-33.203125,-27.83203125,-11.71875,-1.0,1.0,-1.0,0.0,8.m4v,8.0
2024-02-28 10:50:48.609106,1709113848.6091056,-86.9140625,-38.57421875,-24.90234375,-66.40625,-1.0,1.0,-1.0,0.0,8.m4v,8.0
2024-02-28 10:50:48.609106,1709113848.6091056,-86.9140625,-38.57421875,-24.90234375,-66.40625,-1.0,1.0,-1.0,0.0,8.m4v,8.0
2024-02-28 10:50:48.609106,1709113848.6091056,-86.9140625,-38.57421875,-24.90234375,-66.40625,-1.0,1.0,-1.0,0.0,8.m4v,8.0
2024-02-28 10:50:48.609106,1709113848.6091056,-86.9140625,-38.57421875,-24.90234375,-66.40625,-1.0,1.0,-1.0,0.0,8.m4v,8.0
2024-02-28 10:50:48.613011,1709113848.6130114,-72.75390625,-28.80859375,-17.08984375,-97.65625,-1.0,1.0,-1.0,0.0,8.m4v,8.0
2024-02-28 10:50:48.613011,1709113848.6130114,-72.75390625,-28.80859375,-17.08984375,-97.65625,-1.0,1.0,-1.0,0.0,8.m4v,8.0
2024-02-28 10:50:48.613011,1709113848.6130114,-72.75390625,-28.80859375,-17.08984375,-97.65625,-1.0,1.0,-1.0,0.0,8.m4v,8.0
2024-02-28 10:50:48.613011,1709113848.6130114,-72.75390625,-28.80859375,-17.08984375,-97.65625,-1.0,1.0,-1.0,0.0,8.m4v,8.0
2024-02-28 10:50:48.624729,1709113848.624729,-109.86328125,-10.7421875,-41.015625,-59.5703125,-1.0,1.0,-1.0,0.0,8.m4v,8.0
2024-02-28 10:50:48.628635,1709113848.6286347,-103.515625,-8.7890625,-30.76171875,-54.6875,-1.0,1.0,-1.0,0.0,8.m4v,8.0
2024-02-28 10:50:48.632540,1709113848.6325405,-93.26171875,-30.2734375,-24.90234375,-92.28515625,-1.0,1.0,-1.0,0.0,8.m4v,8.0
2024-02-28 10:50:48.636446,1709113848.6364462,-83.0078125,-37.109375,-37.109375,-77.63671875,-1.0,1.0,-1.0,0.0,8.m4v,8.0
2024-02-28 10:50:48.644258,1709113848.644258,-79.1015625,-42.48046875,-48.33984375,-58.10546875,-1.0,1.0,-1.0,0.0,8.m4v,8.0
2024-02-28 10:50:48.652073,1709113848.652073,-70.80078125,-25.390625,-19.04296875,-65.91796875,-1.0,1.0,-1.0,0.0,8.m4v,8.0
2024-02-28 10:50:48.659884,1709113848.6598842,-66.40625,-55.6640625,-33.69140625,-41.015625,-1.0,1.0,-1.0,0.0,8.m4v,8.0
2024-02-28 10:50:48.667696,1709113848.6676958,-52.24609375,-15.625,-32.2265625,-29.296875,-1.0,1.0,-1.0,0.0,8.m4v,8.0
2024-02-28 10:50:48.675508,1709113848.6755075,-40.52734375,-25.87890625,-36.62109375,-18.06640625,-1.0,1.0,-1.0,0.0,8.m4v,8.0
2024-02-28 10:50:48.683319,1709113848.683319,-12.6953125,-65.4296875,-20.01953125,-41.015625,-1.0,1.0,-1.0,0.0,8.m4v,8.0
2024-02-28 10:50:48.691131,1709113848.6911306,-2.9296875,-24.4140625,-44.43359375,-2.44140625,-1.0,1.0,-1.0,0.0,8.m4v,8.0
2024-02-28 10:50:48.698944,1709113848.698944,-24.4140625,-32.71484375,-25.87890625,-11.71875,-1.0,1.0,-1.0,0.0,8.m4v,8.0
2024-02-28 10:50:48.706755,1709113848.7067554,-23.92578125,-27.34375,-62.98828125,-29.296875,-1.0,1.0,-1.0,0.0,8.m4v,8.0
2024-02-28 10:50:48.714567,1709113848.714567,-21.484375,-16.11328125,-11.71875,-3.90625,-1.0,1.0,-1.0,0.0,8.m4v,8.0
2024-02-28 10:50:48.722378,1709113848.7223785,-44.43359375,-29.296875,-43.45703125,-61.03515625,-1.0,1.0,-1.0,0.0,8.m4v,8.0
2024-02-28 10:50:48.730190,1709113848.7301905,-24.90234375,-18.5546875,-30.76171875,8.30078125,-1.0,1.0,-1.0,0.0,8.m4v,8.0
2024-02-28 10:50:48.738002,1709113848.7380018,5.37109375,-53.7109375,-10.7421875,-11.71875,-1.0,1.0,-1.0,0.0,8.m4v,8.0
2024-02-28 10:50:48.745815,1709113848.7458148,-51.7578125,-31.25,-23.4375,-59.5703125,-1.0,1.0,-1.0,0.0,8.m4v,8.0
2024-02-28 10:50:48.753626,1709113848.7536263,-31.73828125,-22.4609375,-16.6015625,-53.22265625,-1.0,1.0,-1.0,0.0,8.m4v,8.0
2024-02-28 10:50:48.761438,1709113848.761438,-32.2265625,-32.2265625,-51.26953125,-41.015625,-1.0,1.0,-1.0,0.0,8.m4v,8.0
2024-02-28 10:50:48.765344,1709113848.7653437,-14.6484375,-32.2265625,-49.8046875,-30.76171875,-1.0,1.0,-1.0,0.0,8.m4v,8.0
2024-02-28 10:50:48.769250,1709113848.7692497,-13.671875,-34.66796875,-54.19921875,-12.6953125,-1.0,1.0,-1.0,0.0,8.m4v,8.0
2024-02-28 10:50:48.773155,1709113848.7731557,-15.13671875,-50.78125,-56.15234375,-6.34765625,-1.0,1.0,-1.0,0.0,8.m4v,8.0
2024-02-28 10:50:48.777061,1709113848.7770612,6.8359375,-62.01171875,-34.66796875,17.08984375,-1.0,1.0,-1.0,0.0,8.m4v,8.0
2024-02-28 10:50:48.780967,1709113848.780967,-12.20703125,-38.0859375,-32.2265625,-8.30078125,-1.0,1.0,-1.0,0.0,8.m4v,8.0
2024-02-28 10:50:48.784873,1709113848.7848728,-46.38671875,-16.11328125,-39.55078125,-55.6640625,-1.0,1.0,-1.0,0.0,8.m4v,8.0
2024-02-28 10:50:48.788779,1709113848.7887783,-54.19921875,-20.99609375,-48.828125,-66.89453125,-1.0,1.0,-1.0,0.0,8.m4v,8.0
2024-02-28 10:50:48.792686,1709113848.7926855,-28.3203125,-12.6953125,-50.78125,-41.015625,-1.0,1.0,-1.0,0.0,8.m4v,8.0
2024-02-28 10:50:48.796592,1709113848.7965915,-16.6015625,-38.0859375,-34.1796875,-19.04296875,-1.0,1.0,-1.0,0.0,8.m4v,8.0
2024-02-28 10:50:48.800497,1709113848.8004973,-37.59765625,-61.5234375,-30.2734375,-33.69140625,-1.0,1.0,-1.0,0.0,8.m4v,8.0
2024-02-28 10:50:48.808309,1709113848.8083088,-27.34375,-33.203125,-21.97265625,-48.828125,-1.0,1.0,-1.0,0.0,8.m4v,8.0
2024-02-28 10:50:48.812215,1709113848.8122146,-24.90234375,-47.36328125,-15.625,-17.578125,-1.0,1.0,-1.0,0.0,8.m4v,8.0
2024-02-28 10:50:48.839557,1709113848.8395574,-96.6796875,-18.06640625,-2.44140625,-27.83203125,-1.0,1.0,-1.0,0.0,8.m4v,8.0
2024-02-28 10:50:48.847369,1709113848.847369,-54.6875,-50.29296875,-28.3203125,-66.89453125,-1.0,1.0,-1.0,0.0,8.m4v,8.0
2024-02-28 10:50:48.855181,1709113848.8551805,-22.4609375,-26.85546875,-32.2265625,-47.8515625,-1.0,1.0,-1.0,0.0,8.m4v,8.0
2024-02-28 10:50:48.862992,1709113848.8629923,-65.91796875,-29.296875,-52.734375,-27.83203125,-1.0,1.0,-1.0,0.0,8.m4v,8.0
2024-02-28 10:50:48.862992,1709113848.8629923,-65.91796875,-29.296875,-52.734375,-27.83203125,-1.0,1.0,-1.0,0.0,8.m4v,8.0
2024-02-28 10:50:48.862992,1709113848.8629923,-65.91796875,-29.296875,-52.734375,-27.83203125,-1.0,1.0,-1.0,0.0,8.m4v,8.0
2024-02-28 10:50:48.862992,1709113848.8629923,-65.91796875,-29.296875,-52.734375,-27.83203125,-1.0,1.0,-1.0,0.0,8.m4v,8.0
2024-02-28 10:50:48.862992,1709113848.8629923,-65.91796875,-29.296875,-52.734375,-27.83203125,-1.0,1.0,-1.0,0.0,8.m4v,8.0
2024-02-28 10:50:48.862992,1709113848.8629923,-65.91796875,-29.296875,-52.734375,-27.83203125,-1.0,1.0,-1.0,0.0,8.m4v,8.0
2024-02-28 10:50:48.862992,1709113848.8629923,-65.91796875,-29.296875,-52.734375,-27.83203125,-1.0,1.0,-1.0,0.0,8.m4v,8.0
2024-02-28 10:50:48.862992,1709113848.8629923,-65.91796875,-29.296875,-52.734375,-27.83203125,-1.0,1.0,-1.0,0.0,8.m4v,8.0
2024-02-28 10:50:48.862992,1709113848.8629923,-65.91796875,-29.296875,-52.734375,-27.83203125,-1.0,1.0,-1.0,0.0,8.m4v,8.0
2024-02-28 10:50:48.870804,1709113848.8708038,-22.4609375,-41.50390625,-71.2890625,9.765625,-1.0,1.0,-1.0,0.0,8.m4v,8.0
2024-02-28 10:50:48.870804,1709113848.8708038,-22.4609375,-41.50390625,-71.2890625,9.765625,-1.0,1.0,-1.0,0.0,8.m4v,8.0
2024-02-28 10:50:48.870804,1709113848.8708038,-22.4609375,-41.50390625,-71.2890625,9.765625,-1.0,1.0,-1.0,0.0,8.m4v,8.0
2024-02-28 10:50:48.870804,1709113848.8708038,-22.4609375,-41.50390625,-71.2890625,9.765625,-1.0,1.0,-1.0,0.0,8.m4v,8.0
2024-02-28 10:50:48.870804,1709113848.8708038,-22.4609375,-41.50390625,-71.2890625,9.765625,-1.0,1.0,-1.0,0.0,8.m4v,8.0
2024-02-28 10:50:48.870804,1709113848.8708038,-22.4609375,-41.50390625,-71.2890625,9.765625,-1.0,1.0,-1.0,0.0,8.m4v,8.0
2024-02-28 10:50:48.870804,1709113848.8708038,-22.4609375,-41.50390625,-71.2890625,9.765625,-1.0,1.0,-1.0,0.0,8.m4v,8.0
2024-02-28 10:50:48.870804,1709113848.8708038,-22.4609375,-41.50390625,-71.2890625,9.765625,-1.0,1.0,-1.0,0.0,8.m4v,8.0
2024-02-28 10:50:48.870804,1709113848.8708038,-22.4609375,-41.50390625,-71.2890625,9.765625,-1.0,1.0,-1.0,0.0,8.m4v,8.0
2024-02-28 10:50:48.878615,1709113848.8786154,2.44140625,-30.76171875,-2.44140625,-55.17578125,-1.0,1.0,-1.0,0.0,8.m4v,8.0
2024-02-28 10:50:48.878615,1709113848.8786154,2.44140625,-30.76171875,-2.44140625,-55.17578125,-1.0,1.0,-1.0,0.0,8.m4v,8.0
2024-02-28 10:50:48.878615,1709113848.8786154,2.44140625,-30.76171875,-2.44140625,-55.17578125,-1.0,1.0,-1.0,0.0,8.m4v,8.0
2024-02-28 10:50:48.878615,1709113848.8786154,2.44140625,-30.76171875,-2.44140625,-55.17578125,-1.0,1.0,-1.0,0.0,8.m4v,8.0
2024-02-28 10:50:48.878615,1709113848.8786154,2.44140625,-30.76171875,-2.44140625,-55.17578125,-1.0,1.0,-1.0,0.0,8.m4v,8.0
2024-02-28 10:50:48.878615,1709113848.8786154,2.44140625,-30.76171875,-2.44140625,-55.17578125,-1.0,1.0,-1.0,0.0,8.m4v,8.0
2024-02-28 10:50:48.878615,1709113848.8786154,2.44140625,-30.76171875,-2.44140625,-55.17578125,-1.0,1.0,-1.0,0.0,8.m4v,8.0
2024-02-28 10:50:48.878615,1709113848.8786154,2.44140625,-30.76171875,-2.44140625,-55.17578125,-1.0,1.0,-1.0,0.0,8.m4v,8.0
2024-02-28 10:50:48.878615,1709113848.8786154,2.44140625,-30.76171875,-2.44140625,-55.17578125,-1.0,1.0,-1.0,0.0,8.m4v,8.0
2024-02-28 10:50:48.886430,1709113848.8864298,-44.921875,-32.71484375,-5.37109375,-72.75390625,-1.0,1.0,-1.0,0.0,8.m4v,8.0
2024-02-28 10:50:48.886430,1709113848.8864298,-44.921875,-32.71484375,-5.37109375,-72.75390625,-1.0,1.0,-1.0,0.0,8.m4v,8.0
2024-02-28 10:50:48.886430,1709113848.8864298,-44.921875,-32.71484375,-5.37109375,-72.75390625,-1.0,1.0,-1.0,0.0,8.m4v,8.0
2024-02-28 10:50:48.886430,1709113848.8864298,-44.921875,-32.71484375,-5.37109375,-72.75390625,-1.0,1.0,-1.0,0.0,8.m4v,8.0
2024-02-28 10:50:48.886430,1709113848.8864298,-44.921875,-32.71484375,-5.37109375,-72.75390625,-1.0,1.0,-1.0,0.0,8.m4v,8.0
2024-02-28 10:50:48.886430,1709113848.8864298,-44.921875,-32.71484375,-5.37109375,-72.75390625,-1.0,1.0,-1.0,0.0,8.m4v,8.0
2024-02-28 10:50:48.886430,1709113848.8864298,-44.921875,-32.71484375,-5.37109375,-72.75390625,-1.0,1.0,-1.0,0.0,8.m4v,8.0
2024-02-28 10:50:48.886430,1709113848.8864298,-44.921875,-32.71484375,-5.37109375,-72.75390625,-1.0,1.0,-1.0,0.0,8.m4v,8.0
2024-02-28 10:50:48.886430,1709113848.8864298,-44.921875,-32.71484375,-5.37109375,-72.75390625,-1.0,1.0,-1.0,0.0,8.m4v,8.0
2024-02-28 10:50:48.894241,1709113848.894241,-55.17578125,-29.296875,-38.0859375,-7.8125,-1.0,1.0,-1.0,0.0,8.m4v,8.0
2024-02-28 10:50:48.902053,1709113848.9020529,-19.04296875,-69.3359375,-62.01171875,-32.2265625,-1.0,1.0,-1.0,0.0,8.m4v,8.0
2024-02-28 10:50:48.902053,1709113848.9020529,-19.04296875,-69.3359375,-62.01171875,-32.2265625,-1.0,1.0,-1.0,0.0,8.m4v,8.0
2024-02-28 10:50:48.902053,1709113848.9020529,-19.04296875,-69.3359375,-62.01171875,-32.2265625,-1.0,1.0,-1.0,0.0,8.m4v,8.0
2024-02-28 10:50:48.909865,1709113848.909865,-20.99609375,-18.06640625,-40.52734375,-45.8984375,-1.0,1.0,-1.0,0.0,8.m4v,8.0
2024-02-28 10:50:48.909865,1709113848.909865,-20.99609375,-18.06640625,-40.52734375,-45.8984375,-1.0,1.0,-1.0,0.0,8.m4v,8.0
2024-02-28 10:50:48.909865,1709113848.909865,-20.99609375,-18.06640625,-40.52734375,-45.8984375,-1.0,1.0,-1.0,0.0,8.m4v,8.0
2024-02-28 10:50:48.917676,1709113848.9176762,-20.01953125,-26.85546875,-11.23046875,-18.06640625,-1.0,1.0,-1.0,0.0,8.m4v,8.0
2024-02-28 10:50:48.917676,1709113848.9176762,-20.01953125,-26.85546875,-11.23046875,-18.06640625,-1.0,1.0,-1.0,0.0,8.m4v,8.0
2024-02-28 10:50:48.917676,1709113848.9176762,-20.01953125,-26.85546875,-11.23046875,-18.06640625,-1.0,1.0,-1.0,0.0,8.m4v,8.0
2024-02-28 10:50:48.925488,1709113848.9254878,-29.78515625,-20.99609375,-45.41015625,-22.4609375,-1.0,1.0,-1.0,0.0,8.m4v,8.0
2024-02-28 10:50:48.925488,1709113848.9254878,-29.78515625,-20.99609375,-45.41015625,-22.4609375,-1.0,1.0,-1.0,0.0,8.m4v,8.0
2024-02-28 10:50:48.925488,1709113848.9254878,-29.78515625,-20.99609375,-45.41015625,-22.4609375,-1.0,1.0,-1.0,0.0,8.m4v,8.0
2024-02-28 10:50:48.933301,1709113848.9333012,16.6015625,-37.59765625,-48.828125,21.484375,-1.0,1.0,-1.0,0.0,8.m4v,8.0
2024-02-28 10:50:48.933301,1709113848.9333012,16.6015625,-37.59765625,-48.828125,21.484375,-1.0,1.0,-1.0,0.0,8.m4v,8.0
2024-02-28 10:50:48.933301,1709113848.9333012,16.6015625,-37.59765625,-48.828125,21.484375,-1.0,1.0,-1.0,0.0,8.m4v,8.0
2024-02-28 10:50:48.941113,1709113848.9411128,0.48828125,-48.33984375,-11.71875,13.671875,-1.0,1.0,-1.0,0.0,8.m4v,8.0
2024-02-28 10:50:48.941113,1709113848.9411128,0.48828125,-48.33984375,-11.71875,13.671875,-1.0,1.0,-1.0,0.0,8.m4v,8.0
2024-02-28 10:50:48.941113,1709113848.9411128,0.48828125,-48.33984375,-11.71875,13.671875,-1.0,1.0,-1.0,0.0,8.m4v,8.0
2024-02-28 10:50:48.948924,1709113848.9489243,-2.44140625,-13.18359375,-54.19921875,-36.62109375,-1.0,1.0,-1.0,0.0,8.m4v,8.0
2024-02-28 10:50:48.948924,1709113848.9489243,-2.44140625,-13.18359375,-54.19921875,-36.62109375,-1.0,1.0,-1.0,0.0,8.m4v,8.0
2024-02-28 10:50:48.948924,1709113848.9489243,-2.44140625,-13.18359375,-54.19921875,-36.62109375,-1.0,1.0,-1.0,0.0,8.m4v,8.0
2024-02-28 10:50:48.956736,1709113848.956736,9.27734375,-55.17578125,-26.85546875,-17.578125,-1.0,1.0,-1.0,0.0,8.m4v,8.0
2024-02-28 10:50:48.956736,1709113848.956736,9.27734375,-55.17578125,-26.85546875,-17.578125,-1.0,1.0,-1.0,0.0,8.m4v,8.0
2024-02-28 10:50:48.964548,1709113848.9645476,0.48828125,-0.48828125,-25.87890625,-1.953125,-1.0,1.0,-1.0,0.0,8.m4v,8.0
2024-02-28 10:50:48.964548,1709113848.9645476,0.48828125,-0.48828125,-25.87890625,-1.953125,-1.0,1.0,-1.0,0.0,8.m4v,8.0
2024-02-28 10:50:48.972359,1709113848.9723592,-9.765625,-38.57421875,-30.76171875,-28.3203125,-1.0,1.0,-1.0,0.0,8.m4v,8.0
2024-02-28 10:50:48.972359,1709113848.9723592,-9.765625,-38.57421875,-30.76171875,-28.3203125,-1.0,1.0,-1.0,0.0,8.m4v,8.0
2024-02-28 10:50:48.980172,1709113848.9801724,-0.48828125,-71.2890625,-46.875,6.8359375,-1.0,1.0,-1.0,0.0,8.m4v,8.0
2024-02-28 10:50:48.980172,1709113848.9801724,-0.48828125,-71.2890625,-46.875,6.8359375,-1.0,1.0,-1.0,0.0,8.m4v,8.0
2024-02-28 10:50:48.987984,1709113848.987984,4.39453125,-37.59765625,-34.1796875,11.71875,-1.0,1.0,-1.0,0.0,8.m4v,8.0
2024-02-28 10:50:48.987984,1709113848.987984,4.39453125,-37.59765625,-34.1796875,11.71875,-1.0,1.0,-1.0,0.0,8.m4v,8.0
2024-02-28 10:50:48.995796,1709113848.9957955,-28.80859375,-15.13671875,-14.16015625,-15.13671875,-1.0,1.0,-1.0,0.0,8.m4v,8.0
2024-02-28 10:50:48.995796,1709113848.9957955,-28.80859375,-15.13671875,-14.16015625,-15.13671875,-1.0,1.0,-1.0,0.0,8.m4v,8.0
2024-02-28 10:50:49.007513,1709113849.007513,-31.25,-40.0390625,-53.22265625,-31.25,-1.0,1.0,-1.0,0.0,8.m4v,8.0
2024-02-28 10:50:49.007513,1709113849.007513,-31.25,-40.0390625,-53.22265625,-31.25,-1.0,1.0,-1.0,0.0,8.m4v,8.0
2024-02-28 10:50:49.015325,1709113849.0153248,-10.7421875,-46.38671875,-58.10546875,-26.85546875,-1.0,1.0,-1.0,0.0,8.m4v,8.0
2024-02-28 10:50:49.015325,1709113849.0153248,-10.7421875,-46.38671875,-58.10546875,-26.85546875,-1.0,1.0,-1.0,0.0,8.m4v,8.0
2024-02-28 10:50:49.027044,1709113849.0270436,-41.015625,-29.78515625,-7.32421875,-50.78125,-1.0,1.0,-1.0,0.0,8.m4v,8.0
2024-02-28 10:50:49.027044,1709113849.0270436,-41.015625,-29.78515625,-7.32421875,-50.78125,-1.0,1.0,-1.0,0.0,8.m4v,8.0
2024-02-28 10:50:49.034855,1709113849.0348554,-23.92578125,-31.25,-51.7578125,-46.38671875,-1.0,1.0,-1.0,0.0,8.m4v,8.0
2024-02-28 10:50:49.034855,1709113849.0348554,-23.92578125,-31.25,-51.7578125,-46.38671875,-1.0,1.0,-1.0,0.0,8.m4v,8.0
2024-02-28 10:50:49.046573,1709113849.0465727,-50.29296875,-30.2734375,-11.71875,-69.3359375,-1.0,1.0,-1.0,0.0,8.m4v,8.0
2024-02-28 10:50:49.046573,1709113849.0465727,-50.29296875,-30.2734375,-11.71875,-69.3359375,-1.0,1.0,-1.0,0.0,8.m4v,8.0
2024-02-28 10:50:49.054384,1709113849.0543845,-50.29296875,-37.109375,-45.41015625,-73.73046875,-1.0,1.0,-1.0,0.0,8.m4v,8.0
2024-02-28 10:50:49.054384,1709113849.0543845,-50.29296875,-37.109375,-45.41015625,-73.73046875,-1.0,1.0,-1.0,0.0,8.m4v,8.0
2024-02-28 10:50:49.066102,1709113849.0661018,-75.68359375,-29.78515625,-54.19921875,-46.38671875,-1.0,1.0,-1.0,0.0,8.m4v,8.0
2024-02-28 10:50:49.066102,1709113849.0661018,-75.68359375,-29.78515625,-54.19921875,-46.38671875,-1.0,1.0,-1.0,0.0,8.m4v,8.0
2024-02-28 10:50:49.066102,1709113849.0661018,-75.68359375,-29.78515625,-54.19921875,-46.38671875,-1.0,1.0,-1.0,0.0,8.m4v,8.0
2024-02-28 10:50:49.066102,1709113849.0661018,-75.68359375,-29.78515625,-54.19921875,-46.38671875,-1.0,1.0,-1.0,0.0,8.m4v,8.0
2024-02-28 10:50:49.073916,1709113849.0739155,-100.5859375,-32.71484375,-57.6171875,-83.0078125,-1.0,1.0,-1.0,0.0,8.m4v,8.0
2024-02-28 10:50:49.073916,1709113849.0739155,-100.5859375,-32.71484375,-57.6171875,-83.0078125,-1.0,1.0,-1.0,0.0,8.m4v,8.0
2024-02-28 10:50:49.073916,1709113849.0739155,-100.5859375,-32.71484375,-57.6171875,-83.0078125,-1.0,1.0,-1.0,0.0,8.m4v,8.0
2024-02-28 10:50:49.073916,1709113849.0739155,-100.5859375,-32.71484375,-57.6171875,-83.0078125,-1.0,1.0,-1.0,0.0,8.m4v,8.0
2024-02-28 10:50:49.136410,1709113849.13641,-159.66796875,-9.765625,-31.73828125,-144.53125,-1.0,1.0,-1.0,0.0,8.m4v,8.0
2024-02-28 10:50:49.140316,1709113849.140316,-164.0625,9.27734375,-21.484375,-133.30078125,-1.0,1.0,-1.0,0.0,8.m4v,8.0
2024-02-28 10:50:49.144222,1709113849.1442218,-192.3828125,-3.41796875,-13.671875,-183.59375,-1.0,1.0,-1.0,0.0,8.m4v,8.0
2024-02-28 10:50:49.148128,1709113849.1481276,-208.0078125,-2.9296875,-41.015625,-180.17578125,-1.0,1.0,-1.0,0.0,8.m4v,8.0
2024-02-28 10:50:49.152033,1709113849.152033,-175.78125,8.7890625,-42.48046875,-113.28125,-1.0,1.0,-1.0,0.0,8.m4v,8.0
2024-02-28 10:50:49.171564,1709113849.1715636,-145.5078125,6.34765625,-27.34375,-140.625,-1.0,1.0,-1.0,0.0,8.m4v,8.0
2024-02-28 10:50:49.191093,1709113849.1910927,-104.4921875,-24.90234375,-41.9921875,-102.5390625,-1.0,1.0,-1.0,0.0,8.m4v,8.0
2024-02-28 10:50:49.194999,1709113849.1949985,-99.12109375,-41.015625,-50.78125,-74.21875,-1.0,1.0,-1.0,0.0,8.m4v,8.0
2024-02-28 10:50:49.198904,1709113849.1989045,-70.80078125,-38.0859375,-46.875,-44.921875,-1.0,1.0,-1.0,0.0,8.m4v,8.0
2024-02-28 10:50:49.202810,1709113849.20281,-54.19921875,-33.69140625,-44.921875,-60.546875,-1.0,1.0,-1.0,0.0,8.m4v,8.0
2024-02-28 10:50:49.316085,1709113849.3160849,8.30078125,-38.57421875,-59.08203125,-8.30078125,-1.0,1.0,-1.0,0.0,8.m4v,8.0
2024-02-28 10:50:49.316085,1709113849.3160849,8.30078125,-38.57421875,-59.08203125,-8.30078125,-1.0,1.0,-1.0,0.0,8.m4v,8.0
2024-02-28 10:50:49.316085,1709113849.3160849,8.30078125,-38.57421875,-59.08203125,-8.30078125,-1.0,1.0,-1.0,0.0,8.m4v,8.0
2024-02-28 10:50:49.316085,1709113849.3160849,8.30078125,-38.57421875,-59.08203125,-8.30078125,-1.0,1.0,-1.0,0.0,8.m4v,8.0
2024-02-28 10:50:49.316085,1709113849.3160849,8.30078125,-38.57421875,-59.08203125,-8.30078125,-1.0,1.0,-1.0,0.0,8.m4v,8.0
2024-02-28 10:50:49.316085,1709113849.3160849,8.30078125,-38.57421875,-59.08203125,-8.30078125,-1.0,1.0,-1.0,0.0,8.m4v,8.0
2024-02-28 10:50:49.433262,1709113849.433262,-20.99609375,-21.484375,-30.2734375,-22.4609375,-1.0,1.0,-1.0,0.0,8.m4v,8.0
2024-02-28 10:50:49.441074,1709113849.441074,29.296875,-34.66796875,-25.87890625,6.34765625,-1.0,1.0,-1.0,0.0,8.m4v,8.0
2024-02-28 10:50:49.816044,1709113849.8160443,-31.73828125,-23.4375,-27.83203125,-29.78515625,-1.0,1.0,-1.0,0.0,8.m4v,8.0
2024-02-28 10:50:49.816044,1709113849.8160443,-31.73828125,-23.4375,-27.83203125,-29.78515625,-1.0,1.0,-1.0,0.0,8.m4v,8.0
2024-02-28 10:50:49.816044,1709113849.8160443,-31.73828125,-23.4375,-27.83203125,-29.78515625,-1.0,1.0,-1.0,0.0,8.m4v,8.0
2024-02-28 10:50:49.816044,1709113849.8160443,-31.73828125,-23.4375,-27.83203125,-29.78515625,-1.0,1.0,-1.0,0.0,8.m4v,8.0
2024-02-28 10:50:49.823857,1709113849.8238573,-17.578125,-73.73046875,-20.01953125,-31.25,-1.0,1.0,-1.0,0.0,8.m4v,8.0
2024-02-28 10:50:49.823857,1709113849.8238573,-17.578125,-73.73046875,-20.01953125,-31.25,-1.0,1.0,-1.0,0.0,8.m4v,8.0
2024-02-28 10:50:49.823857,1709113849.8238573,-17.578125,-73.73046875,-20.01953125,-31.25,-1.0,1.0,-1.0,0.0,8.m4v,8.0
2024-02-28 10:50:49.823857,1709113849.8238573,-17.578125,-73.73046875,-20.01953125,-31.25,-1.0,1.0,-1.0,0.0,8.m4v,8.0
2024-02-28 10:50:49.843386,1709113849.8433864,-29.296875,-26.85546875,-49.31640625,-27.83203125,-1.0,1.0,-1.0,0.0,8.m4v,8.0
2024-02-28 10:50:49.847292,1709113849.8472922,-11.23046875,-24.4140625,-24.90234375,-27.34375,-1.0,1.0,-1.0,0.0,8.m4v,8.0
2024-02-28 10:50:49.851198,1709113849.851198,-31.73828125,-30.76171875,-28.80859375,-46.875,-1.0,1.0,-1.0,0.0,8.m4v,8.0
2024-02-28 10:50:49.855104,1709113849.8551035,-52.734375,-38.57421875,-16.11328125,-20.01953125,-1.0,1.0,-1.0,0.0,8.m4v,8.0
2024-02-28 10:50:49.859010,1709113849.8590095,-39.0625,-34.66796875,-13.18359375,-9.765625,-1.0,1.0,-1.0,0.0,8.m4v,8.0
2024-02-28 10:50:49.862916,1709113849.8629155,-23.4375,-32.71484375,-19.04296875,-30.76171875,-1.0,1.0,-1.0,0.0,8.m4v,8.0
2024-02-28 10:50:49.866821,1709113849.8668213,-25.390625,-31.73828125,-18.06640625,-49.31640625,-1.0,1.0,-1.0,0.0,8.m4v,8.0
2024-02-28 10:50:49.870728,1709113849.8707285,-13.671875,-36.1328125,-51.26953125,-43.45703125,-1.0,1.0,-1.0,0.0,8.m4v,8.0
2024-02-28 10:50:49.874634,1709113849.8746345,-13.671875,-45.8984375,-46.38671875,-53.22265625,-1.0,1.0,-1.0,0.0,8.m4v,8.0
2024-02-28 10:50:49.878540,1709113849.87854,-20.5078125,-64.453125,-16.11328125,-34.1796875,-1.0,1.0,-1.0,0.0,8.m4v,8.0
2024-02-28 10:50:49.882446,1709113849.8824458,-11.23046875,-70.80078125,-41.50390625,-15.13671875,-1.0,1.0,-1.0,0.0,8.m4v,8.0
2024-02-28 10:50:49.886352,1709113849.8863516,-24.4140625,-41.9921875,-71.77734375,-18.06640625,-1.0,1.0,-1.0,0.0,8.m4v,8.0
2024-02-28 10:50:49.890257,1709113849.8902574,-27.34375,-19.04296875,-48.828125,-7.32421875,-1.0,1.0,-1.0,0.0,8.m4v,8.0
2024-02-28 10:50:49.894163,1709113849.8941631,-19.04296875,-4.39453125,-33.203125,14.16015625,-1.0,1.0,-1.0,0.0,8.m4v,8.0
2024-02-28 10:50:49.898069,1709113849.8980691,-41.50390625,-2.9296875,-38.0859375,-20.5078125,-1.0,1.0,-1.0,0.0,8.m4v,8.0
2024-02-28 10:50:49.901975,1709113849.901975,-41.50390625,-18.06640625,-15.13671875,-41.50390625,-1.0,1.0,-1.0,0.0,8.m4v,8.0
2024-02-28 10:50:49.905881,1709113849.9058807,-35.64453125,-37.59765625,-14.6484375,-51.7578125,-1.0,1.0,-1.0,0.0,8.m4v,8.0
2024-02-28 10:50:49.909786,1709113849.9097865,-34.1796875,-36.1328125,-32.2265625,-55.17578125,-1.0,1.0,-1.0,0.0,8.m4v,8.0
2024-02-28 10:50:49.913692,1709113849.9136922,-4.8828125,-30.76171875,-29.296875,-25.390625,-1.0,1.0,-1.0,0.0,8.m4v,8.0
2024-02-28 10:50:49.917599,1709113849.9175994,-8.7890625,-35.15625,-22.94921875,-22.94921875,-1.0,1.0,-1.0,0.0,8.m4v,8.0
2024-02-28 10:50:49.921505,1709113849.9215052,-29.296875,-52.24609375,-79.1015625,3.90625,-1.0,1.0,-1.0,0.0,8.m4v,8.0
2024-02-28 10:50:49.925411,1709113849.925411,-15.13671875,-54.19921875,-102.5390625,15.625,-1.0,1.0,-1.0,0.0,8.m4v,8.0
2024-02-28 10:50:49.929317,1709113849.9293168,-22.94921875,-61.03515625,-38.0859375,-41.9921875,-1.0,1.0,-1.0,0.0,8.m4v,8.0
2024-02-28 10:50:49.933223,1709113849.9332223,-39.55078125,-67.87109375,-11.23046875,-43.9453125,-1.0,1.0,-1.0,0.0,8.m4v,8.0
2024-02-28 10:50:49.937129,1709113849.9371283,-35.15625,-40.0390625,-8.7890625,-11.23046875,-1.0,1.0,-1.0,0.0,8.m4v,8.0
2024-02-28 10:50:49.941034,1709113849.9410343,-34.1796875,-21.484375,-0.9765625,-3.41796875,-1.0,1.0,-1.0,0.0,8.m4v,8.0
2024-02-28 10:50:49.944940,1709113849.94494,-14.16015625,-15.625,-14.6484375,-17.08984375,-1.0,1.0,-1.0,0.0,8.m4v,8.0
2024-02-28 10:50:49.948846,1709113849.948846,-26.3671875,-16.11328125,-39.55078125,-50.78125,-1.0,1.0,-1.0,0.0,8.m4v,8.0
2024-02-28 10:50:49.952752,1709113849.9527516,-45.8984375,-12.20703125,-50.78125,-36.1328125,-1.0,1.0,-1.0,0.0,8.m4v,8.0
2024-02-28 10:50:49.956657,1709113849.9566574,-31.25,-13.18359375,-36.1328125,-10.7421875,-1.0,1.0,-1.0,0.0,8.m4v,8.0
2024-02-28 10:50:49.960563,1709113849.9605632,-21.484375,-43.9453125,-18.5546875,-44.43359375,-1.0,1.0,-1.0,0.0,8.m4v,8.0
2024-02-28 10:50:49.964471,1709113849.9644709,-35.64453125,-58.59375,-24.90234375,-66.40625,-1.0,1.0,-1.0,0.0,8.m4v,8.0
2024-02-28 10:50:49.968377,1709113849.9683769,-32.71484375,-53.22265625,-25.87890625,-41.50390625,-1.0,1.0,-1.0,0.0,8.m4v,8.0
2024-02-28 10:50:49.972283,1709113849.9722826,-21.97265625,-53.7109375,-37.109375,-16.11328125,-1.0,1.0,-1.0,0.0,8.m4v,8.0
2024-02-28 10:50:49.976188,1709113849.9761884,-16.11328125,-53.22265625,-61.5234375,0.48828125,-1.0,1.0,-1.0,0.0,8.m4v,8.0
2024-02-28 10:50:50.034777,1709113850.0347774,24.90234375,-14.16015625,4.8828125,28.3203125,-1.0,1.0,-1.0,0.0,8.m4v,8.0
2024-02-28 10:50:50.034777,1709113850.0347774,24.90234375,-14.16015625,4.8828125,28.3203125,-1.0,1.0,-1.0,0.0,8.m4v,8.0
2024-02-28 10:50:50.034777,1709113850.0347774,24.90234375,-14.16015625,4.8828125,28.3203125,-1.0,1.0,-1.0,0.0,8.m4v,8.0
2024-02-28 10:50:50.038683,1709113850.0386832,17.578125,-12.6953125,-28.80859375,-15.625,-1.0,1.0,-1.0,0.0,8.m4v,8.0
2024-02-28 10:50:50.038683,1709113850.0386832,17.578125,-12.6953125,-28.80859375,-15.625,-1.0,1.0,-1.0,0.0,8.m4v,8.0
2024-02-28 10:50:50.038683,1709113850.0386832,17.578125,-12.6953125,-28.80859375,-15.625,-1.0,1.0,-1.0,0.0,8.m4v,8.0
2024-02-28 10:50:50.042589,1709113850.042589,4.39453125,-27.83203125,-32.71484375,10.7421875,-1.0,1.0,-1.0,0.0,8.m4v,8.0
2024-02-28 10:50:50.042589,1709113850.042589,4.39453125,-27.83203125,-32.71484375,10.7421875,-1.0,1.0,-1.0,0.0,8.m4v,8.0
2024-02-28 10:50:50.042589,1709113850.042589,4.39453125,-27.83203125,-32.71484375,10.7421875,-1.0,1.0,-1.0,0.0,8.m4v,8.0
2024-02-28 10:50:50.046495,1709113850.0464947,0.48828125,-33.203125,-18.5546875,8.30078125,-1.0,1.0,-1.0,0.0,8.m4v,8.0
2024-02-28 10:50:50.046495,1709113850.0464947,0.48828125,-33.203125,-18.5546875,8.30078125,-1.0,1.0,-1.0,0.0,8.m4v,8.0
2024-02-28 10:50:50.046495,1709113850.0464947,0.48828125,-33.203125,-18.5546875,8.30078125,-1.0,1.0,-1.0,0.0,8.m4v,8.0
2024-02-28 10:50:50.050400,1709113850.0504005,3.41796875,-37.59765625,-20.5078125,-12.6953125,-1.0,1.0,-1.0,0.0,8.m4v,8.0
2024-02-28 10:50:50.050400,1709113850.0504005,3.41796875,-37.59765625,-20.5078125,-12.6953125,-1.0,1.0,-1.0,0.0,8.m4v,8.0
2024-02-28 10:50:50.050400,1709113850.0504005,3.41796875,-37.59765625,-20.5078125,-12.6953125,-1.0,1.0,-1.0,0.0,8.m4v,8.0
2024-02-28 10:50:50.050400,1709113850.0504005,3.41796875,-37.59765625,-20.5078125,-12.6953125,-1.0,1.0,-1.0,0.0,8.m4v,8.0
2024-02-28 10:50:50.054306,1709113850.0543065,-6.8359375,-38.0859375,-48.828125,-10.7421875,-1.0,1.0,-1.0,0.0,8.m4v,8.0
2024-02-28 10:50:50.054306,1709113850.0543065,-6.8359375,-38.0859375,-48.828125,-10.7421875,-1.0,1.0,-1.0,0.0,8.m4v,8.0
2024-02-28 10:50:50.054306,1709113850.0543065,-6.8359375,-38.0859375,-48.828125,-10.7421875,-1.0,1.0,-1.0,0.0,8.m4v,8.0
2024-02-28 10:50:50.054306,1709113850.0543065,-6.8359375,-38.0859375,-48.828125,-10.7421875,-1.0,1.0,-1.0,0.0,8.m4v,8.0
2024-02-28 10:50:50.058214,1709113850.058214,-8.7890625,-35.15625,-62.5,-40.52734375,-1.0,1.0,-1.0,0.0,8.m4v,8.0
2024-02-28 10:50:50.058214,1709113850.058214,-8.7890625,-35.15625,-62.5,-40.52734375,-1.0,1.0,-1.0,0.0,8.m4v,8.0
2024-02-28 10:50:50.058214,1709113850.058214,-8.7890625,-35.15625,-62.5,-40.52734375,-1.0,1.0,-1.0,0.0,8.m4v,8.0
2024-02-28 10:50:50.058214,1709113850.058214,-8.7890625,-35.15625,-62.5,-40.52734375,-1.0,1.0,-1.0,0.0,8.m4v,8.0
2024-02-28 10:50:50.062120,1709113850.0621195,-6.34765625,-40.52734375,-80.078125,-17.578125,-1.0,1.0,-1.0,0.0,8.m4v,8.0
2024-02-28 10:50:50.062120,1709113850.0621195,-6.34765625,-40.52734375,-80.078125,-17.578125,-1.0,1.0,-1.0,0.0,8.m4v,8.0
2024-02-28 10:50:50.062120,1709113850.0621195,-6.34765625,-40.52734375,-80.078125,-17.578125,-1.0,1.0,-1.0,0.0,8.m4v,8.0
2024-02-28 10:50:50.062120,1709113850.0621195,-6.34765625,-40.52734375,-80.078125,-17.578125,-1.0,1.0,-1.0,0.0,8.m4v,8.0
2024-02-28 10:50:50.066025,1709113850.0660255,-1.46484375,-39.0625,-54.6875,6.8359375,-1.0,1.0,-1.0,0.0,8.m4v,8.0
2024-02-28 10:50:50.066025,1709113850.0660255,-1.46484375,-39.0625,-54.6875,6.8359375,-1.0,1.0,-1.0,0.0,8.m4v,8.0
2024-02-28 10:50:50.066025,1709113850.0660255,-1.46484375,-39.0625,-54.6875,6.8359375,-1.0,1.0,-1.0,0.0,8.m4v,8.0
2024-02-28 10:50:50.066025,1709113850.0660255,-1.46484375,-39.0625,-54.6875,6.8359375,-1.0,1.0,-1.0,0.0,8.m4v,8.0
2024-02-28 10:50:50.069931,1709113850.0699313,0.9765625,-19.04296875,5.37109375,-12.20703125,-1.0,1.0,-1.0,0.0,8.m4v,8.0
2024-02-28 10:50:50.069931,1709113850.0699313,0.9765625,-19.04296875,5.37109375,-12.20703125,-1.0,1.0,-1.0,0.0,8.m4v,8.0
2024-02-28 10:50:50.073837,1709113850.073837,-27.83203125,-14.6484375,-1.953125,-50.78125,-1.0,1.0,-1.0,0.0,8.m4v,8.0
2024-02-28 10:50:50.073837,1709113850.073837,-27.83203125,-14.6484375,-1.953125,-50.78125,-1.0,1.0,-1.0,0.0,8.m4v,8.0
2024-02-28 10:50:50.073837,1709113850.073837,-27.83203125,-14.6484375,-1.953125,-50.78125,-1.0,1.0,-1.0,0.0,8.m4v,8.0
2024-02-28 10:50:50.073837,1709113850.073837,-27.83203125,-14.6484375,-1.953125,-50.78125,-1.0,1.0,-1.0,0.0,8.m4v,8.0
2024-02-28 10:50:50.073837,1709113850.073837,-27.83203125,-14.6484375,-1.953125,-50.78125,-1.0,1.0,-1.0,0.0,8.m4v,8.0
2024-02-28 10:50:50.073837,1709113850.073837,-27.83203125,-14.6484375,-1.953125,-50.78125,-1.0,1.0,-1.0,0.0,8.m4v,8.0
2024-02-28 10:50:50.073837,1709113850.073837,-27.83203125,-14.6484375,-1.953125,-50.78125,-1.0,1.0,-1.0,0.0,8.m4v,8.0
2024-02-28 10:50:50.073837,1709113850.073837,-27.83203125,-14.6484375,-1.953125,-50.78125,-1.0,1.0,-1.0,0.0,8.m4v,8.0
2024-02-28 10:50:50.073837,1709113850.073837,-27.83203125,-14.6484375,-1.953125,-50.78125,-1.0,1.0,-1.0,0.0,8.m4v,8.0
2024-02-28 10:50:50.077743,1709113850.0777428,-25.87890625,-30.2734375,-19.04296875,-46.38671875,-1.0,1.0,-1.0,0.0,8.m4v,8.0
2024-02-28 10:50:50.077743,1709113850.0777428,-25.87890625,-30.2734375,-19.04296875,-46.38671875,-1.0,1.0,-1.0,0.0,8.m4v,8.0
2024-02-28 10:50:50.081649,1709113850.0816488,-46.875,-29.296875,-34.66796875,-56.15234375,-1.0,1.0,-1.0,0.0,8.m4v,8.0
2024-02-28 10:50:50.081649,1709113850.0816488,-46.875,-29.296875,-34.66796875,-56.15234375,-1.0,1.0,-1.0,0.0,8.m4v,8.0
2024-02-28 10:50:50.081649,1709113850.0816488,-46.875,-29.296875,-34.66796875,-56.15234375,-1.0,1.0,-1.0,0.0,8.m4v,8.0
2024-02-28 10:50:50.081649,1709113850.0816488,-46.875,-29.296875,-34.66796875,-56.15234375,-1.0,1.0,-1.0,0.0,8.m4v,8.0
2024-02-28 10:50:50.081649,1709113850.0816488,-46.875,-29.296875,-34.66796875,-56.15234375,-1.0,1.0,-1.0,0.0,8.m4v,8.0
2024-02-28 10:50:50.081649,1709113850.0816488,-46.875,-29.296875,-34.66796875,-56.15234375,-1.0,1.0,-1.0,0.0,8.m4v,8.0
2024-02-28 10:50:50.081649,1709113850.0816488,-46.875,-29.296875,-34.66796875,-56.15234375,-1.0,1.0,-1.0,0.0,8.m4v,8.0
2024-02-28 10:50:50.081649,1709113850.0816488,-46.875,-29.296875,-34.66796875,-56.15234375,-1.0,1.0,-1.0,0.0,8.m4v,8.0
2024-02-28 10:50:50.081649,1709113850.0816488,-46.875,-29.296875,-34.66796875,-56.15234375,-1.0,1.0,-1.0,0.0,8.m4v,8.0
2024-02-28 10:50:50.085555,1709113850.0855546,-57.12890625,-28.80859375,-49.8046875,-58.59375,-1.0,1.0,-1.0,0.0,8.m4v,8.0
2024-02-28 10:50:50.085555,1709113850.0855546,-57.12890625,-28.80859375,-49.8046875,-58.59375,-1.0,1.0,-1.0,0.0,8.m4v,8.0
2024-02-28 10:50:50.089460,1709113850.0894604,-29.296875,-38.57421875,-47.8515625,-21.484375,-1.0,1.0,-1.0,0.0,8.m4v,8.0
2024-02-28 10:50:50.089460,1709113850.0894604,-29.296875,-38.57421875,-47.8515625,-21.484375,-1.0,1.0,-1.0,0.0,8.m4v,8.0
2024-02-28 10:50:50.093366,1709113850.093366,-25.87890625,-31.25,-90.8203125,18.5546875,-1.0,1.0,-1.0,0.0,8.m4v,8.0
2024-02-28 10:50:50.093366,1709113850.093366,-25.87890625,-31.25,-90.8203125,18.5546875,-1.0,1.0,-1.0,0.0,8.m4v,8.0
2024-02-28 10:50:50.093366,1709113850.093366,-25.87890625,-31.25,-90.8203125,18.5546875,-1.0,1.0,-1.0,0.0,8.m4v,8.0
2024-02-28 10:50:50.093366,1709113850.093366,-25.87890625,-31.25,-90.8203125,18.5546875,-1.0,1.0,-1.0,0.0,8.m4v,8.0
2024-02-28 10:50:50.093366,1709113850.093366,-25.87890625,-31.25,-90.8203125,18.5546875,-1.0,1.0,-1.0,0.0,8.m4v,8.0
2024-02-28 10:50:50.093366,1709113850.093366,-25.87890625,-31.25,-90.8203125,18.5546875,-1.0,1.0,-1.0,0.0,8.m4v,8.0
2024-02-28 10:50:50.093366,1709113850.093366,-25.87890625,-31.25,-90.8203125,18.5546875,-1.0,1.0,-1.0,0.0,8.m4v,8.0
2024-02-28 10:50:50.093366,1709113850.093366,-25.87890625,-31.25,-90.8203125,18.5546875,-1.0,1.0,-1.0,0.0,8.m4v,8.0
2024-02-28 10:50:50.097272,1709113850.097272,-10.7421875,-8.30078125,-102.5390625,-0.9765625,-1.0,1.0,-1.0,0.0,8.m4v,8.0
2024-02-28 10:50:50.097272,1709113850.097272,-10.7421875,-8.30078125,-102.5390625,-0.9765625,-1.0,1.0,-1.0,0.0,8.m4v,8.0
2024-02-28 10:50:50.101178,1709113850.1011777,-22.94921875,-25.390625,-16.11328125,-69.3359375,-1.0,1.0,-1.0,0.0,8.m4v,8.0
2024-02-28 10:50:50.101178,1709113850.1011777,-22.94921875,-25.390625,-16.11328125,-69.3359375,-1.0,1.0,-1.0,0.0,8.m4v,8.0
2024-02-28 10:50:50.105085,1709113850.1050851,-40.52734375,-48.33984375,18.06640625,-87.40234375,-1.0,1.0,-1.0,0.0,8.m4v,8.0
2024-02-28 10:50:50.105085,1709113850.1050851,-40.52734375,-48.33984375,18.06640625,-87.40234375,-1.0,1.0,-1.0,0.0,8.m4v,8.0
2024-02-28 10:50:50.108991,1709113850.108991,-54.6875,-51.26953125,2.9296875,-78.125,-1.0,1.0,-1.0,0.0,8.m4v,8.0
2024-02-28 10:50:50.108991,1709113850.108991,-54.6875,-51.26953125,2.9296875,-78.125,-1.0,1.0,-1.0,0.0,8.m4v,8.0
2024-02-28 10:50:50.112897,1709113850.112897,-37.109375,-69.82421875,-13.671875,-49.31640625,-1.0,1.0,-1.0,0.0,8.m4v,8.0
2024-02-28 10:50:50.112897,1709113850.112897,-37.109375,-69.82421875,-13.671875,-49.31640625,-1.0,1.0,-1.0,0.0,8.m4v,8.0
2024-02-28 10:50:50.116803,1709113850.1168027,-19.53125,-69.82421875,-35.15625,-7.8125,-1.0,1.0,-1.0,0.0,8.m4v,8.0
2024-02-28 10:50:50.116803,1709113850.1168027,-19.53125,-69.82421875,-35.15625,-7.8125,-1.0,1.0,-1.0,0.0,8.m4v,8.0
2024-02-28 10:50:50.120708,1709113850.1207085,-34.66796875,-29.296875,-56.640625,-23.92578125,-1.0,1.0,-1.0,0.0,8.m4v,8.0
2024-02-28 10:50:50.120708,1709113850.1207085,-34.66796875,-29.296875,-56.640625,-23.92578125,-1.0,1.0,-1.0,0.0,8.m4v,8.0
2024-02-28 10:50:50.124614,1709113850.1246142,-32.2265625,-17.578125,-54.6875,-38.57421875,-1.0,1.0,-1.0,0.0,8.m4v,8.0
2024-02-28 10:50:50.124614,1709113850.1246142,-32.2265625,-17.578125,-54.6875,-38.57421875,-1.0,1.0,-1.0,0.0,8.m4v,8.0
2024-02-28 10:50:50.128520,1709113850.12852,-52.24609375,-15.625,-77.1484375,-40.52734375,-1.0,1.0,-1.0,0.0,8.m4v,8.0
2024-02-28 10:50:50.128520,1709113850.12852,-52.24609375,-15.625,-77.1484375,-40.52734375,-1.0,1.0,-1.0,0.0,8.m4v,8.0
2024-02-28 10:50:50.128520,1709113850.12852,-52.24609375,-15.625,-77.1484375,-40.52734375,-1.0,1.0,-1.0,0.0,8.m4v,8.0
2024-02-28 10:50:50.132426,1709113850.1324258,-54.6875,-1.953125,-93.75,-46.875,-1.0,1.0,-1.0,0.0,8.m4v,8.0
2024-02-28 10:50:50.132426,1709113850.1324258,-54.6875,-1.953125,-93.75,-46.875,-1.0,1.0,-1.0,0.0,8.m4v,8.0
2024-02-28 10:50:50.132426,1709113850.1324258,-54.6875,-1.953125,-93.75,-46.875,-1.0,1.0,-1.0,0.0,8.m4v,8.0
2024-02-28 10:50:50.136332,1709113850.1363318,-57.12890625,-20.01953125,-33.203125,-36.62109375,-1.0,1.0,-1.0,0.0,8.m4v,8.0
2024-02-28 10:50:50.136332,1709113850.1363318,-57.12890625,-20.01953125,-33.203125,-36.62109375,-1.0,1.0,-1.0,0.0,8.m4v,8.0
2024-02-28 10:50:50.136332,1709113850.1363318,-57.12890625,-20.01953125,-33.203125,-36.62109375,-1.0,1.0,-1.0,0.0,8.m4v,8.0
2024-02-28 10:50:50.245699,1709113850.2456987,-96.6796875,-32.2265625,-9.765625,-72.265625,-1.0,1.0,-1.0,0.0,8.m4v,8.0
2024-02-28 10:50:50.245699,1709113850.2456987,-96.6796875,-32.2265625,-9.765625,-72.265625,-1.0,1.0,-1.0,0.0,8.m4v,8.0
2024-02-28 10:50:50.245699,1709113850.2456987,-96.6796875,-32.2265625,-9.765625,-72.265625,-1.0,1.0,-1.0,0.0,8.m4v,8.0
2024-02-28 10:50:50.245699,1709113850.2456987,-96.6796875,-32.2265625,-9.765625,-72.265625,-1.0,1.0,-1.0,0.0,8.m4v,8.0
2024-02-28 10:50:50.245699,1709113850.2456987,-96.6796875,-32.2265625,-9.765625,-72.265625,-1.0,1.0,-1.0,0.0,8.m4v,8.0
2024-02-28 10:50:50.249604,1709113850.2496045,-61.5234375,-34.1796875,-40.52734375,-56.640625,-1.0,1.0,-1.0,0.0,8.m4v,8.0
2024-02-28 10:50:50.253510,1709113850.2535102,-46.875,-44.921875,-89.84375,-5.37109375,-1.0,1.0,-1.0,0.0,8.m4v,8.0
2024-02-28 10:50:50.257416,1709113850.257416,-48.33984375,-44.43359375,-64.94140625,4.8828125,-1.0,1.0,-1.0,0.0,8.m4v,8.0
2024-02-28 10:50:50.261322,1709113850.261322,-41.015625,-37.59765625,-24.90234375,-54.19921875,-1.0,1.0,-1.0,0.0,8.m4v,8.0
2024-02-28 10:50:50.265228,1709113850.2652278,-31.25,-44.43359375,-0.9765625,-48.33984375,-1.0,1.0,-1.0,0.0,8.m4v,8.0
2024-02-28 10:50:50.269134,1709113850.2691336,-18.06640625,-58.10546875,-2.9296875,-78.61328125,-1.0,1.0,-1.0,0.0,8.m4v,8.0
2024-02-28 10:50:50.273039,1709113850.273039,-46.38671875,-38.0859375,-31.25,-61.03515625,-1.0,1.0,-1.0,0.0,8.m4v,8.0
2024-02-28 10:50:50.284757,1709113850.284757,-30.76171875,-22.94921875,-79.1015625,-36.62109375,-1.0,1.0,-1.0,0.0,8.m4v,8.0
2024-02-28 10:50:50.292570,1709113850.2925696,-33.203125,-45.41015625,11.71875,-29.296875,-1.0,1.0,-1.0,0.0,8.m4v,8.0
2024-02-28 10:50:50.300381,1709113850.3003812,-22.4609375,-35.15625,-5.859375,-26.3671875,-1.0,1.0,-1.0,0.0,8.m4v,8.0
2024-02-28 10:50:50.308193,1709113850.308193,-39.55078125,-27.34375,-42.48046875,-31.25,-1.0,1.0,-1.0,0.0,8.m4v,8.0
2024-02-28 10:50:50.312099,1709113850.3120987,-37.109375,-35.15625,-57.12890625,-11.71875,-1.0,1.0,-1.0,0.0,8.m4v,8.0
2024-02-28 10:50:50.316005,1709113850.3160045,-30.2734375,-52.734375,-75.1953125,-2.44140625,-1.0,1.0,-1.0,0.0,8.m4v,8.0
2024-02-28 10:50:50.319910,1709113850.3199103,-35.64453125,-36.62109375,-62.01171875,-23.4375,-1.0,1.0,-1.0,0.0,8.m4v,8.0
2024-02-28 10:50:50.323816,1709113850.323816,-10.7421875,-13.18359375,-28.3203125,-7.32421875,-1.0,1.0,-1.0,0.0,8.m4v,8.0
2024-02-28 10:50:50.327722,1709113850.3277218,-15.13671875,-33.203125,-37.109375,-37.109375,-1.0,1.0,-1.0,0.0,8.m4v,8.0
2024-02-28 10:50:50.331628,1709113850.3316276,-44.921875,-44.921875,-33.69140625,-74.70703125,-1.0,1.0,-1.0,0.0,8.m4v,8.0
2024-02-28 10:50:50.335534,1709113850.3355336,-33.203125,-37.59765625,-16.6015625,-61.03515625,-1.0,1.0,-1.0,0.0,8.m4v,8.0
2024-02-28 10:50:50.339441,1709113850.3394413,-25.390625,-47.8515625,-26.85546875,-24.90234375,-1.0,1.0,-1.0,0.0,8.m4v,8.0
2024-02-28 10:50:50.343347,1709113850.343347,-34.66796875,-43.45703125,-42.96875,26.85546875,-1.0,1.0,-1.0,0.0,8.m4v,8.0
2024-02-28 10:50:50.347253,1709113850.3472528,-40.52734375,-27.34375,-76.66015625,26.3671875,-1.0,1.0,-1.0,0.0,8.m4v,8.0
2024-02-28 10:50:50.351159,1709113850.3511586,-34.66796875,-19.04296875,-74.21875,-45.41015625,-1.0,1.0,-1.0,0.0,8.m4v,8.0
2024-02-28 10:50:50.355064,1709113850.3550644,-38.57421875,-21.97265625,-28.3203125,-43.9453125,-1.0,1.0,-1.0,0.0,8.m4v,8.0
2024-02-28 10:50:50.358970,1709113850.3589704,-39.55078125,-32.71484375,1.46484375,-23.92578125,-1.0,1.0,-1.0,0.0,8.m4v,8.0
2024-02-28 10:50:50.362876,1709113850.3628762,-27.83203125,-42.48046875,-25.87890625,-42.96875,-1.0,1.0,-1.0,0.0,8.m4v,8.0
2024-02-28 10:50:50.366782,1709113850.366782,-21.484375,-42.48046875,-54.19921875,-47.8515625,-1.0,1.0,-1.0,0.0,8.m4v,8.0
2024-02-28 10:50:50.374593,1709113850.3745935,-35.64453125,-42.96875,-22.94921875,-39.55078125,-1.0,1.0,-1.0,0.0,8.m4v,8.0
2024-02-28 10:50:50.382405,1709113850.3824053,-13.18359375,-39.55078125,-43.9453125,4.8828125,-1.0,1.0,-1.0,0.0,8.m4v,8.0
2024-02-28 10:50:50.390218,1709113850.3902185,0.48828125,-30.2734375,-89.35546875,-5.859375,-1.0,1.0,-1.0,0.0,8.m4v,8.0
2024-02-28 10:50:50.573798,1709113850.5737982,-15.625,-0.9765625,-16.6015625,-36.1328125,-1.0,1.0,-1.0,0.0,8.m4v,8.0
2024-02-28 10:50:50.577704,1709113850.577704,-18.5546875,-12.20703125,-26.85546875,-44.43359375,-1.0,1.0,-1.0,0.0,8.m4v,8.0
2024-02-28 10:50:50.581610,1709113850.5816095,-30.76171875,-36.1328125,-38.0859375,-58.59375,-1.0,1.0,-1.0,0.0,8.m4v,8.0
2024-02-28 10:50:50.585516,1709113850.5855155,-50.78125,-44.921875,-47.36328125,-40.52734375,-1.0,1.0,-1.0,0.0,8.m4v,8.0
2024-02-28 10:50:50.589422,1709113850.5894215,-17.578125,-58.59375,-31.25,13.671875,-1.0,1.0,-1.0,0.0,8.m4v,8.0
2024-02-28 10:50:50.593327,1709113850.5933273,-4.8828125,-74.70703125,-28.3203125,0.0,-1.0,1.0,-1.0,0.0,8.m4v,8.0
2024-02-28 10:50:50.597233,1709113850.597233,-45.41015625,-46.38671875,-45.41015625,-69.82421875,-1.0,1.0,-1.0,0.0,8.m4v,8.0
2024-02-28 10:50:50.792531,1709113850.7925303,-36.1328125,-40.0390625,-15.13671875,-42.96875,-1.0,1.0,-1.0,0.0,8.m4v,8.0
2024-02-28 10:50:50.796436,1709113850.7964363,-28.80859375,-37.109375,-13.18359375,-16.6015625,-1.0,1.0,-1.0,0.0,8.m4v,8.0
2024-02-28 10:50:50.800342,1709113850.800342,-26.3671875,-38.0859375,-18.5546875,-8.7890625,-1.0,1.0,-1.0,0.0,8.m4v,8.0
2024-02-28 10:50:50.804248,1709113850.804248,-27.83203125,-38.0859375,-44.921875,-23.92578125,-1.0,1.0,-1.0,0.0,8.m4v,8.0
2024-02-28 10:50:50.808156,1709113850.8081555,-10.25390625,-11.71875,-72.265625,24.90234375,-1.0,1.0,-1.0,0.0,8.m4v,8.0
2024-02-28 10:50:50.812061,1709113850.8120613,-6.8359375,3.41796875,-44.43359375,-13.671875,-1.0,1.0,-1.0,0.0,8.m4v,8.0
2024-02-28 10:50:50.815967,1709113850.815967,-25.390625,-17.08984375,-4.8828125,-92.7734375,-1.0,1.0,-1.0,0.0,8.m4v,8.0
2024-02-28 10:50:50.819873,1709113850.819873,-41.015625,-42.96875,1.953125,-56.640625,-1.0,1.0,-1.0,0.0,8.m4v,8.0
2024-02-28 10:50:50.823779,1709113850.8237789,-43.9453125,-58.59375,-16.6015625,-25.87890625,-1.0,1.0,-1.0,0.0,8.m4v,8.0
2024-02-28 10:50:50.827685,1709113850.8276846,-33.203125,-62.98828125,-38.57421875,14.6484375,-1.0,1.0,-1.0,0.0,8.m4v,8.0
2024-02-28 10:50:50.831590,1709113850.8315904,-10.25390625,-37.59765625,-36.1328125,18.5546875,-1.0,1.0,-1.0,0.0,8.m4v,8.0
2024-02-28 10:50:50.835496,1709113850.8354962,-4.39453125,-32.2265625,-42.96875,-20.01953125,-1.0,1.0,-1.0,0.0,8.m4v,8.0
2024-02-28 10:50:50.839402,1709113850.839402,-32.2265625,-57.12890625,-53.22265625,-18.5546875,-1.0,1.0,-1.0,0.0,8.m4v,8.0
2024-02-28 10:50:51.284680,1709113851.28468,-66.89453125,-37.59765625,-37.59765625,-42.48046875,-1.0,1.0,-1.0,0.0,8.m4v,8.0
2024-02-28 10:50:51.284680,1709113851.28468,-66.89453125,-37.59765625,-37.59765625,-42.48046875,-1.0,1.0,-1.0,0.0,8.m4v,8.0
2024-02-28 10:50:51.284680,1709113851.28468,-66.89453125,-37.59765625,-37.59765625,-42.48046875,-1.0,1.0,-1.0,0.0,8.m4v,8.0
2024-02-28 10:50:51.288586,1709113851.288586,-46.875,-24.4140625,-28.80859375,-23.92578125,-1.0,1.0,-1.0,0.0,8.m4v,8.0
2024-02-28 10:50:51.288586,1709113851.288586,-46.875,-24.4140625,-28.80859375,-23.92578125,-1.0,1.0,-1.0,0.0,8.m4v,8.0
2024-02-28 10:50:51.288586,1709113851.288586,-46.875,-24.4140625,-28.80859375,-23.92578125,-1.0,1.0,-1.0,0.0,8.m4v,8.0
2024-02-28 10:50:51.339363,1709113851.3393629,-15.13671875,-59.5703125,-18.5546875,-46.875,-1.0,1.0,-1.0,0.0,8.m4v,8.0
2024-02-28 10:50:51.339363,1709113851.3393629,-15.13671875,-59.5703125,-18.5546875,-46.875,-1.0,1.0,-1.0,0.0,8.m4v,8.0
2024-02-28 10:50:51.343269,1709113851.3432686,-7.32421875,-55.6640625,-9.765625,15.625,-1.0,1.0,-1.0,0.0,8.m4v,8.0
2024-02-28 10:50:51.343269,1709113851.3432686,-7.32421875,-55.6640625,-9.765625,15.625,-1.0,1.0,-1.0,0.0,8.m4v,8.0
2024-02-28 10:50:51.347174,1709113851.3471744,-29.296875,-20.5078125,-70.3125,-15.13671875,-1.0,1.0,-1.0,0.0,8.m4v,8.0
2024-02-28 10:50:51.347174,1709113851.3471744,-29.296875,-20.5078125,-70.3125,-15.13671875,-1.0,1.0,-1.0,0.0,8.m4v,8.0
2024-02-28 10:50:51.351080,1709113851.3510802,-27.83203125,9.765625,-94.23828125,-3.90625,-1.0,1.0,-1.0,0.0,8.m4v,8.0
2024-02-28 10:50:51.351080,1709113851.3510802,-27.83203125,9.765625,-94.23828125,-3.90625,-1.0,1.0,-1.0,0.0,8.m4v,8.0
2024-02-28 10:50:51.354986,1709113851.3549862,-8.30078125,5.37109375,-37.59765625,26.3671875,-1.0,1.0,-1.0,0.0,8.m4v,8.0
2024-02-28 10:50:51.354986,1709113851.3549862,-8.30078125,5.37109375,-37.59765625,26.3671875,-1.0,1.0,-1.0,0.0,8.m4v,8.0
2024-02-28 10:50:51.358892,1709113851.358892,-9.765625,-40.0390625,-11.71875,-54.19921875,-1.0,1.0,-1.0,0.0,8.m4v,8.0
2024-02-28 10:50:51.358892,1709113851.358892,-9.765625,-40.0390625,-11.71875,-54.19921875,-1.0,1.0,-1.0,0.0,8.m4v,8.0
2024-02-28 10:50:51.362798,1709113851.3627975,-30.76171875,-77.63671875,-1.953125,-85.9375,-1.0,1.0,-1.0,0.0,8.m4v,8.0
2024-02-28 10:50:51.362798,1709113851.3627975,-30.76171875,-77.63671875,-1.953125,-85.9375,-1.0,1.0,-1.0,0.0,8.m4v,8.0
2024-02-28 10:50:51.366704,1709113851.3667035,-67.87109375,-64.453125,10.7421875,-49.8046875,-1.0,1.0,-1.0,0.0,8.m4v,8.0
2024-02-28 10:50:51.366704,1709113851.3667035,-67.87109375,-64.453125,10.7421875,-49.8046875,-1.0,1.0,-1.0,0.0,8.m4v,8.0
2024-02-28 10:50:51.370611,1709113851.3706107,-49.31640625,-39.0625,1.953125,-4.8828125,-1.0,1.0,-1.0,0.0,8.m4v,8.0
2024-02-28 10:50:51.370611,1709113851.3706107,-49.31640625,-39.0625,1.953125,-4.8828125,-1.0,1.0,-1.0,0.0,8.m4v,8.0
2024-02-28 10:50:51.370611,1709113851.3706107,-49.31640625,-39.0625,1.953125,-4.8828125,-1.0,1.0,-1.0,0.0,8.m4v,8.0
2024-02-28 10:50:51.374516,1709113851.3745165,-11.23046875,-37.59765625,-11.23046875,13.18359375,-1.0,1.0,-1.0,0.0,8.m4v,8.0
2024-02-28 10:50:51.374516,1709113851.3745165,-11.23046875,-37.59765625,-11.23046875,13.18359375,-1.0,1.0,-1.0,0.0,8.m4v,8.0
2024-02-28 10:50:51.374516,1709113851.3745165,-11.23046875,-37.59765625,-11.23046875,13.18359375,-1.0,1.0,-1.0,0.0,8.m4v,8.0
2024-02-28 10:50:51.378422,1709113851.3784225,0.48828125,-42.48046875,-75.1953125,10.7421875,-1.0,1.0,-1.0,0.0,8.m4v,8.0
2024-02-28 10:50:51.378422,1709113851.3784225,0.48828125,-42.48046875,-75.1953125,10.7421875,-1.0,1.0,-1.0,0.0,8.m4v,8.0
2024-02-28 10:50:51.378422,1709113851.3784225,0.48828125,-42.48046875,-75.1953125,10.7421875,-1.0,1.0,-1.0,0.0,8.m4v,8.0
2024-02-28 10:50:51.382328,1709113851.382328,-21.97265625,-26.85546875,-101.5625,-5.37109375,-1.0,1.0,-1.0,0.0,8.m4v,8.0
2024-02-28 10:50:51.382328,1709113851.382328,-21.97265625,-26.85546875,-101.5625,-5.37109375,-1.0,1.0,-1.0,0.0,8.m4v,8.0
2024-02-28 10:50:51.382328,1709113851.382328,-21.97265625,-26.85546875,-101.5625,-5.37109375,-1.0,1.0,-1.0,0.0,8.m4v,8.0
2024-02-28 10:50:51.386234,1709113851.3862338,-26.3671875,-9.765625,-42.48046875,-57.12890625,-1.0,1.0,-1.0,0.0,8.m4v,8.0
2024-02-28 10:50:51.386234,1709113851.3862338,-26.3671875,-9.765625,-42.48046875,-57.12890625,-1.0,1.0,-1.0,0.0,8.m4v,8.0
2024-02-28 10:50:51.386234,1709113851.3862338,-26.3671875,-9.765625,-42.48046875,-57.12890625,-1.0,1.0,-1.0,0.0,8.m4v,8.0
2024-02-28 10:50:51.390140,1709113851.3901398,0.0,-17.578125,-22.94921875,-30.76171875,-1.0,1.0,-1.0,0.0,8.m4v,8.0
2024-02-28 10:50:51.390140,1709113851.3901398,0.0,-17.578125,-22.94921875,-30.76171875,-1.0,1.0,-1.0,0.0,8.m4v,8.0
2024-02-28 10:50:51.390140,1709113851.3901398,0.0,-17.578125,-22.94921875,-30.76171875,-1.0,1.0,-1.0,0.0,8.m4v,8.0
2024-02-28 10:50:51.394046,1709113851.3940456,-22.94921875,-32.71484375,-16.11328125,-33.203125,-1.0,1.0,-1.0,0.0,8.m4v,8.0
2024-02-28 10:50:51.394046,1709113851.3940456,-22.94921875,-32.71484375,-16.11328125,-33.203125,-1.0,1.0,-1.0,0.0,8.m4v,8.0
2024-02-28 10:50:51.394046,1709113851.3940456,-22.94921875,-32.71484375,-16.11328125,-33.203125,-1.0,1.0,-1.0,0.0,8.m4v,8.0
2024-02-28 10:50:51.397951,1709113851.3979514,-36.1328125,-64.453125,-10.7421875,-32.71484375,-1.0,1.0,-1.0,0.0,8.m4v,8.0
2024-02-28 10:50:51.397951,1709113851.3979514,-36.1328125,-64.453125,-10.7421875,-32.71484375,-1.0,1.0,-1.0,0.0,8.m4v,8.0
2024-02-28 10:50:51.397951,1709113851.3979514,-36.1328125,-64.453125,-10.7421875,-32.71484375,-1.0,1.0,-1.0,0.0,8.m4v,8.0
2024-02-28 10:50:51.401857,1709113851.4018571,-32.2265625,-83.49609375,-12.20703125,-20.99609375,-1.0,1.0,-1.0,0.0,8.m4v,8.0
2024-02-28 10:50:51.401857,1709113851.4018571,-32.2265625,-83.49609375,-12.20703125,-20.99609375,-1.0,1.0,-1.0,0.0,8.m4v,8.0
2024-02-28 10:50:51.401857,1709113851.4018571,-32.2265625,-83.49609375,-12.20703125,-20.99609375,-1.0,1.0,-1.0,0.0,8.m4v,8.0
2024-02-28 10:50:51.405763,1709113851.405763,-42.48046875,-44.43359375,-15.13671875,-55.6640625,-1.0,1.0,-1.0,0.0,8.m4v,8.0
2024-02-28 10:50:51.405763,1709113851.405763,-42.48046875,-44.43359375,-15.13671875,-55.6640625,-1.0,1.0,-1.0,0.0,8.m4v,8.0
2024-02-28 10:50:51.405763,1709113851.405763,-42.48046875,-44.43359375,-15.13671875,-55.6640625,-1.0,1.0,-1.0,0.0,8.m4v,8.0
2024-02-28 10:50:51.409669,1709113851.4096687,-37.59765625,-16.6015625,-27.83203125,-41.015625,-1.0,1.0,-1.0,0.0,8.m4v,8.0
2024-02-28 10:50:51.409669,1709113851.4096687,-37.59765625,-16.6015625,-27.83203125,-41.015625,-1.0,1.0,-1.0,0.0,8.m4v,8.0
2024-02-28 10:50:51.409669,1709113851.4096687,-37.59765625,-16.6015625,-27.83203125,-41.015625,-1.0,1.0,-1.0,0.0,8.m4v,8.0
2024-02-28 10:50:51.413575,1709113851.4135747,-27.83203125,-15.625,-40.0390625,-0.48828125,-1.0,1.0,-1.0,0.0,8.m4v,8.0
2024-02-28 10:50:51.413575,1709113851.4135747,-27.83203125,-15.625,-40.0390625,-0.48828125,-1.0,1.0,-1.0,0.0,8.m4v,8.0
2024-02-28 10:50:51.413575,1709113851.4135747,-27.83203125,-15.625,-40.0390625,-0.48828125,-1.0,1.0,-1.0,0.0,8.m4v,8.0
2024-02-28 10:50:51.417482,1709113851.4174817,0.0,-28.3203125,-55.17578125,2.9296875,-1.0,1.0,-1.0,0.0,8.m4v,8.0
2024-02-28 10:50:51.417482,1709113851.4174817,0.0,-28.3203125,-55.17578125,2.9296875,-1.0,1.0,-1.0,0.0,8.m4v,8.0
2024-02-28 10:50:51.417482,1709113851.4174817,0.0,-28.3203125,-55.17578125,2.9296875,-1.0,1.0,-1.0,0.0,8.m4v,8.0
2024-02-28 10:50:51.421387,1709113851.4213874,-10.7421875,-37.59765625,-75.1953125,-18.5546875,-1.0,1.0,-1.0,0.0,8.m4v,8.0
2024-02-28 10:50:51.421387,1709113851.4213874,-10.7421875,-37.59765625,-75.1953125,-18.5546875,-1.0,1.0,-1.0,0.0,8.m4v,8.0
2024-02-28 10:50:51.421387,1709113851.4213874,-10.7421875,-37.59765625,-75.1953125,-18.5546875,-1.0,1.0,-1.0,0.0,8.m4v,8.0
2024-02-28 10:50:51.425293,1709113851.4252934,-35.15625,-13.671875,-68.359375,-16.6015625,-1.0,1.0,-1.0,0.0,8.m4v,8.0
2024-02-28 10:50:51.425293,1709113851.4252934,-35.15625,-13.671875,-68.359375,-16.6015625,-1.0,1.0,-1.0,0.0,8.m4v,8.0
2024-02-28 10:50:51.425293,1709113851.4252934,-35.15625,-13.671875,-68.359375,-16.6015625,-1.0,1.0,-1.0,0.0,8.m4v,8.0
2024-02-28 10:50:51.429199,1709113851.4291992,-18.5546875,-18.5546875,-41.50390625,-22.4609375,-1.0,1.0,-1.0,0.0,8.m4v,8.0
2024-02-28 10:50:51.429199,1709113851.4291992,-18.5546875,-18.5546875,-41.50390625,-22.4609375,-1.0,1.0,-1.0,0.0,8.m4v,8.0
2024-02-28 10:50:51.429199,1709113851.4291992,-18.5546875,-18.5546875,-41.50390625,-22.4609375,-1.0,1.0,-1.0,0.0,8.m4v,8.0
2024-02-28 10:50:51.433105,1709113851.433105,-32.71484375,-55.6640625,-11.71875,-40.0390625,-1.0,1.0,-1.0,0.0,8.m4v,8.0
2024-02-28 10:50:51.433105,1709113851.433105,-32.71484375,-55.6640625,-11.71875,-40.0390625,-1.0,1.0,-1.0,0.0,8.m4v,8.0
2024-02-28 10:50:51.433105,1709113851.433105,-32.71484375,-55.6640625,-11.71875,-40.0390625,-1.0,1.0,-1.0,0.0,8.m4v,8.0
2024-02-28 10:50:51.437011,1709113851.4370108,-41.9921875,-79.58984375,0.48828125,-53.22265625,-1.0,1.0,-1.0,0.0,8.m4v,8.0
2024-02-28 10:50:51.437011,1709113851.4370108,-41.9921875,-79.58984375,0.48828125,-53.22265625,-1.0,1.0,-1.0,0.0,8.m4v,8.0
2024-02-28 10:50:51.437011,1709113851.4370108,-41.9921875,-79.58984375,0.48828125,-53.22265625,-1.0,1.0,-1.0,0.0,8.m4v,8.0
2024-02-28 10:50:51.437011,1709113851.4370108,-41.9921875,-79.58984375,0.48828125,-53.22265625,-1.0,1.0,-1.0,0.0,8.m4v,8.0
2024-02-28 10:50:51.440917,1709113851.4409163,-43.45703125,-71.77734375,-15.13671875,-59.5703125,-1.0,1.0,-1.0,0.0,8.m4v,8.0
2024-02-28 10:50:51.440917,1709113851.4409163,-43.45703125,-71.77734375,-15.13671875,-59.5703125,-1.0,1.0,-1.0,0.0,8.m4v,8.0
2024-02-28 10:50:51.440917,1709113851.4409163,-43.45703125,-71.77734375,-15.13671875,-59.5703125,-1.0,1.0,-1.0,0.0,8.m4v,8.0
2024-02-28 10:50:51.440917,1709113851.4409163,-43.45703125,-71.77734375,-15.13671875,-59.5703125,-1.0,1.0,-1.0,0.0,8.m4v,8.0
2024-02-28 10:50:51.464353,1709113851.464353,-20.99609375,-41.015625,-18.5546875,-41.50390625,-1.0,1.0,-1.0,0.0,8.m4v,8.0
2024-02-28 10:50:51.468259,1709113851.468259,-30.76171875,-34.1796875,1.46484375,-50.78125,-1.0,1.0,-1.0,0.0,8.m4v,8.0
2024-02-28 10:50:51.472165,1709113851.4721649,-38.0859375,-34.1796875,-6.8359375,-48.828125,-1.0,1.0,-1.0,0.0,8.m4v,8.0
2024-02-28 10:50:51.476071,1709113851.476071,-27.34375,-46.38671875,-35.64453125,-44.43359375,-1.0,1.0,-1.0,0.0,8.m4v,8.0
2024-02-28 10:50:51.479977,1709113851.479977,1.953125,-50.29296875,-41.50390625,-22.94921875,-1.0,1.0,-1.0,0.0,8.m4v,8.0
2024-02-28 10:50:51.483882,1709113851.4838824,8.30078125,-51.26953125,-50.78125,-19.04296875,-1.0,1.0,-1.0,0.0,8.m4v,8.0
2024-02-28 10:50:51.487788,1709113851.4877882,-7.32421875,-56.15234375,-82.03125,-6.8359375,-1.0,1.0,-1.0,0.0,8.m4v,8.0
2024-02-28 10:50:51.487788,1709113851.4877882,-7.32421875,-56.15234375,-82.03125,-6.8359375,-1.0,1.0,-1.0,0.0,8.m4v,8.0
2024-02-28 10:50:51.487788,1709113851.4877882,-7.32421875,-56.15234375,-82.03125,-6.8359375,-1.0,1.0,-1.0,0.0,8.m4v,8.0
2024-02-28 10:50:51.487788,1709113851.4877882,-7.32421875,-56.15234375,-82.03125,-6.8359375,-1.0,1.0,-1.0,0.0,8.m4v,8.0
2024-02-28 10:50:51.487788,1709113851.4877882,-7.32421875,-56.15234375,-82.03125,-6.8359375,-1.0,1.0,-1.0,0.0,8.m4v,8.0
2024-02-28 10:50:51.491694,1709113851.491694,-17.08984375,-48.33984375,-71.77734375,16.6015625,-1.0,1.0,-1.0,0.0,8.m4v,8.0
2024-02-28 10:50:51.495600,1709113851.4955995,-12.6953125,-37.109375,-26.85546875,-14.6484375,-1.0,1.0,-1.0,0.0,8.m4v,8.0
2024-02-28 10:50:51.499506,1709113851.4995055,3.41796875,-21.97265625,-11.23046875,-21.97265625,-1.0,1.0,-1.0,0.0,8.m4v,8.0
2024-02-28 10:50:51.503412,1709113851.5034115,29.78515625,2.44140625,-32.2265625,-5.37109375,-1.0,1.0,-1.0,0.0,8.m4v,8.0
2024-02-28 10:50:51.507317,1709113851.5073173,14.16015625,-5.859375,-51.7578125,-6.8359375,-1.0,1.0,-1.0,0.0,8.m4v,8.0
2024-02-28 10:50:51.515131,1709113851.5151308,4.8828125,-33.203125,-53.7109375,28.3203125,-1.0,1.0,-1.0,0.0,8.m4v,8.0
2024-02-28 10:50:51.612779,1709113851.6127794,-39.0625,-49.31640625,-58.10546875,-37.109375,-1.0,1.0,-1.0,0.0,8.m4v,8.0
2024-02-28 10:50:51.616685,1709113851.6166852,-49.31640625,-17.08984375,-78.61328125,-52.24609375,-1.0,1.0,-1.0,0.0,8.m4v,8.0
2024-02-28 10:50:51.620591,1709113851.620591,-45.41015625,-4.39453125,-39.55078125,-44.43359375,-1.0,1.0,-1.0,0.0,8.m4v,8.0
2024-02-28 10:50:51.624497,1709113851.6244967,-73.73046875,-13.671875,-1.46484375,-78.125,-1.0,1.0,-1.0,0.0,8.m4v,8.0
2024-02-28 10:50:51.628402,1709113851.6284025,-68.84765625,-48.828125,-9.27734375,-87.40234375,-1.0,1.0,-1.0,0.0,8.m4v,8.0
2024-02-28 10:50:51.632308,1709113851.6323082,-65.91796875,-75.1953125,-23.92578125,-51.7578125,-1.0,1.0,-1.0,0.0,8.m4v,8.0
2024-02-28 10:50:51.636214,1709113851.6362145,-59.5703125,-60.546875,-20.99609375,-19.53125,-1.0,1.0,-1.0,0.0,8.m4v,8.0
2024-02-28 10:50:51.640120,1709113851.64012,-28.80859375,-26.3671875,-20.5078125,-1.953125,-1.0,1.0,-1.0,0.0,8.m4v,8.0
2024-02-28 10:50:51.804170,1709113851.80417,-64.453125,-31.73828125,-17.08984375,-36.62109375,-1.0,1.0,-1.0,0.0,8.m4v,8.0
2024-02-28 10:50:51.808076,1709113851.808076,-48.33984375,-28.3203125,-48.828125,-22.4609375,-1.0,1.0,-1.0,0.0,8.m4v,8.0
2024-02-28 10:50:51.811982,1709113851.811982,-24.90234375,-39.0625,-67.3828125,-46.38671875,-1.0,1.0,-1.0,0.0,8.m4v,8.0
2024-02-28 10:50:51.815888,1709113851.8158877,-27.34375,-51.26953125,-48.828125,-29.78515625,-1.0,1.0,-1.0,0.0,8.m4v,8.0
2024-02-28 10:50:51.851042,1709113851.8510418,-27.83203125,-43.45703125,-45.41015625,-20.5078125,-1.0,1.0,-1.0,0.0,8.m4v,8.0
2024-02-28 10:50:51.854948,1709113851.8549476,-20.01953125,-61.5234375,-53.7109375,-4.8828125,-1.0,1.0,-1.0,0.0,8.m4v,8.0
2024-02-28 10:50:51.858854,1709113851.8588536,-24.90234375,-61.03515625,-29.78515625,-24.90234375,-1.0,1.0,-1.0,0.0,8.m4v,8.0
2024-02-28 10:50:51.862759,1709113851.8627594,-46.875,-34.1796875,-11.71875,-54.6875,-1.0,1.0,-1.0,0.0,8.m4v,8.0
2024-02-28 10:50:51.866665,1709113851.8666651,-47.36328125,-27.34375,-1.46484375,-46.875,-1.0,1.0,-1.0,0.0,8.m4v,8.0
2024-02-28 10:50:51.870571,1709113851.870571,-26.85546875,-33.203125,-11.23046875,-25.87890625,-1.0,1.0,-1.0,0.0,8.m4v,8.0
2024-02-28 10:50:51.874477,1709113851.874477,-29.296875,-36.62109375,-13.671875,-27.83203125,-1.0,1.0,-1.0,0.0,8.m4v,8.0
2024-02-28 10:50:51.878382,1709113851.8783824,-14.6484375,-19.53125,-32.2265625,16.11328125,-1.0,1.0,-1.0,0.0,8.m4v,8.0
2024-02-28 10:50:51.882288,1709113851.8822885,0.48828125,-12.20703125,-72.265625,6.8359375,-1.0,1.0,-1.0,0.0,8.m4v,8.0
2024-02-28 10:50:51.886196,1709113851.886196,-38.0859375,-30.2734375,-83.0078125,-27.34375,-1.0,1.0,-1.0,0.0,8.m4v,8.0
2024-02-28 10:50:51.890102,1709113851.8901017,-31.25,-52.24609375,-27.83203125,-29.78515625,-1.0,1.0,-1.0,0.0,8.m4v,8.0
2024-02-28 10:50:51.894008,1709113851.8940077,-3.41796875,-65.4296875,12.6953125,-41.015625,-1.0,1.0,-1.0,0.0,8.m4v,8.0
2024-02-28 10:50:51.897913,1709113851.8979137,-22.4609375,-49.31640625,1.953125,-44.921875,-1.0,1.0,-1.0,0.0,8.m4v,8.0
2024-02-28 10:50:51.901819,1709113851.9018192,-70.3125,-20.99609375,-17.578125,-42.48046875,-1.0,1.0,-1.0,0.0,8.m4v,8.0
