Timestamp,Timestamp_UNIX,TP9,AF7,AF8,TP10,Valence,Arousal,Dominace,Viewed,Video,Participant
2024-02-28 10:11:37.368262,1709111497.3682618,31.73828125,-31.73828125,-46.875,105.95703125,0.0,0.0,0.0,0.0,1.m4v,8.0
2024-02-28 10:11:37.372167,1709111497.3721666,51.26953125,-31.25,-75.1953125,24.90234375,0.0,0.0,0.0,0.0,1.m4v,8.0
2024-02-28 10:11:37.376072,1709111497.3760717,-38.0859375,-34.66796875,-47.36328125,-28.80859375,0.0,0.0,0.0,0.0,1.m4v,8.0
2024-02-28 10:11:37.379977,1709111497.3799767,-1.46484375,-29.78515625,-12.20703125,-36.62109375,0.0,0.0,0.0,0.0,1.m4v,8.0
2024-02-28 10:11:37.383882,1709111497.3838818,21.484375,-32.71484375,-8.7890625,2.9296875,0.0,0.0,0.0,0.0,1.m4v,8.0
2024-02-28 10:11:37.387787,1709111497.3877869,-39.0625,-44.921875,6.8359375,49.31640625,0.0,0.0,0.0,0.0,1.m4v,8.0
2024-02-28 10:11:37.391692,1709111497.3916917,-20.99609375,-37.59765625,-3.41796875,-25.390625,0.0,0.0,0.0,0.0,1.m4v,8.0
2024-02-28 10:11:37.395597,1709111497.3955967,-2.44140625,-41.50390625,-21.97265625,-50.29296875,0.0,0.0,0.0,0.0,1.m4v,8.0
2024-02-28 10:11:37.399502,1709111497.3995018,-25.87890625,-42.96875,-13.671875,-20.99609375,0.0,0.0,0.0,0.0,1.m4v,8.0
2024-02-28 10:11:37.403407,1709111497.4034069,-1.46484375,-26.3671875,-37.59765625,-20.01953125,0.0,0.0,0.0,0.0,1.m4v,8.0
2024-02-28 10:11:37.407312,1709111497.407312,-3.90625,-25.87890625,-66.40625,61.5234375,0.0,0.0,0.0,0.0,1.m4v,8.0
2024-02-28 10:11:37.411217,1709111497.4112167,-12.20703125,-37.59765625,-40.52734375,104.00390625,0.0,0.0,0.0,0.0,1.m4v,8.0
2024-02-28 10:11:37.415134,1709111497.415134,25.390625,-36.62109375,-53.7109375,-45.41015625,0.0,0.0,0.0,0.0,1.m4v,8.0
2024-02-28 10:11:37.419039,1709111497.419039,-19.04296875,-42.96875,-75.1953125,-93.75,0.0,0.0,0.0,0.0,1.m4v,8.0
2024-02-28 10:11:37.422944,1709111497.422944,-38.0859375,-49.8046875,-56.640625,-29.78515625,0.0,0.0,0.0,0.0,1.m4v,8.0
2024-02-28 10:11:37.426849,1709111497.4268491,-13.18359375,-50.29296875,-30.76171875,-6.34765625,0.0,0.0,0.0,0.0,1.m4v,8.0
2024-02-28 10:11:37.430754,1709111497.4307542,-13.18359375,-44.921875,-23.4375,14.16015625,0.0,0.0,0.0,0.0,1.m4v,8.0
2024-02-28 10:11:37.434659,1709111497.434659,20.99609375,-43.9453125,-21.484375,48.33984375,0.0,0.0,0.0,0.0,1.m4v,8.0
2024-02-28 10:11:37.438564,1709111497.438564,24.4140625,-31.73828125,-22.4609375,-27.83203125,0.0,0.0,0.0,0.0,1.m4v,8.0
2024-02-28 10:11:37.442469,1709111497.4424691,-18.06640625,-16.11328125,-28.80859375,-52.734375,0.0,0.0,0.0,0.0,1.m4v,8.0
2024-02-28 10:11:37.446374,1709111497.4463742,-26.85546875,-34.66796875,-22.94921875,-20.99609375,0.0,0.0,0.0,0.0,1.m4v,8.0
2024-02-28 10:11:37.450279,1709111497.4502792,-31.25,-42.48046875,-37.109375,-44.921875,0.0,0.0,0.0,0.0,1.m4v,8.0
2024-02-28 10:11:37.454184,1709111497.454184,-10.7421875,-29.78515625,-83.0078125,29.78515625,0.0,0.0,0.0,0.0,1.m4v,8.0
2024-02-28 10:11:37.458089,1709111497.458089,8.7890625,-30.76171875,-71.2890625,87.40234375,0.0,0.0,0.0,0.0,1.m4v,8.0
2024-02-28 10:11:37.462006,1709111497.4620056,-23.4375,-40.52734375,-29.296875,-38.57421875,0.0,0.0,0.0,0.0,1.m4v,8.0
2024-02-28 10:11:37.465911,1709111497.465911,-40.52734375,-40.0390625,-23.92578125,-44.43359375,0.0,0.0,0.0,0.0,1.m4v,8.0
2024-02-28 10:11:37.469815,1709111497.4698155,-54.6875,-36.62109375,-8.7890625,-52.24609375,0.0,0.0,0.0,0.0,1.m4v,8.0
2024-02-28 10:11:37.473721,1709111497.4737206,-35.64453125,-40.52734375,-5.859375,-59.08203125,0.0,0.0,0.0,0.0,1.m4v,8.0
2024-02-28 10:11:37.477626,1709111497.4776256,-22.4609375,-43.45703125,-20.5078125,25.390625,0.0,0.0,0.0,0.0,1.m4v,8.0
2024-02-28 10:11:37.481531,1709111497.481531,-50.29296875,-40.52734375,-29.296875,-28.3203125,0.0,0.0,0.0,0.0,1.m4v,8.0
2024-02-28 10:11:37.485436,1709111497.4854355,-71.77734375,-37.59765625,-44.43359375,-79.58984375,0.0,0.0,0.0,0.0,1.m4v,8.0
2024-02-28 10:11:37.489341,1709111497.4893403,-58.10546875,-39.55078125,-64.453125,-55.17578125,0.0,0.0,0.0,0.0,1.m4v,8.0
2024-02-28 10:11:37.493246,1709111497.4932456,-31.73828125,-69.3359375,-73.73046875,-45.41015625,0.0,0.0,0.0,0.0,1.m4v,8.0
2024-02-28 10:11:37.497151,1709111497.497151,-57.12890625,-71.2890625,-55.6640625,-34.66796875,0.0,0.0,0.0,0.0,1.m4v,8.0
2024-02-28 10:11:37.501056,1709111497.5010557,-75.68359375,-28.3203125,-45.41015625,-11.71875,0.0,0.0,0.0,0.0,1.m4v,8.0
2024-02-28 10:11:37.504961,1709111497.5049608,-64.453125,-13.671875,-39.55078125,-42.48046875,0.0,0.0,0.0,0.0,1.m4v,8.0
2024-02-28 10:11:37.508876,1709111497.5088763,0.0,-19.04296875,-2.9296875,17.578125,0.0,0.0,0.0,0.0,1.m4v,8.0
2024-02-28 10:11:37.512781,1709111497.5127811,2.9296875,-25.87890625,8.7890625,11.23046875,0.0,0.0,0.0,0.0,1.m4v,8.0
2024-02-28 10:11:37.516686,1709111497.5166862,-67.3828125,-29.296875,-36.1328125,-74.21875,0.0,0.0,0.0,0.0,1.m4v,8.0
2024-02-28 10:11:37.520591,1709111497.5205913,-66.40625,-37.59765625,-56.15234375,-39.0625,0.0,0.0,0.0,0.0,1.m4v,8.0
2024-02-28 10:11:37.524496,1709111497.5244963,-113.76953125,-48.33984375,-22.4609375,-67.87109375,0.0,0.0,0.0,0.0,1.m4v,8.0
2024-02-28 10:11:37.528401,1709111497.5284014,-94.7265625,-48.33984375,-23.4375,-102.05078125,0.0,0.0,0.0,0.0,1.m4v,8.0
2024-02-28 10:11:37.532306,1709111497.5323062,-62.01171875,-45.8984375,-40.52734375,-18.06640625,0.0,0.0,0.0,0.0,1.m4v,8.0
2024-02-28 10:11:37.536211,1709111497.5362113,-25.87890625,-29.78515625,-39.55078125,35.15625,0.0,0.0,0.0,0.0,1.m4v,8.0
2024-02-28 10:11:37.540116,1709111497.5401163,-28.3203125,-26.3671875,-41.9921875,-52.24609375,0.0,0.0,0.0,0.0,1.m4v,8.0
2024-02-28 10:11:37.544021,1709111497.5440214,-71.77734375,-37.109375,-36.1328125,-78.61328125,0.0,0.0,0.0,0.0,1.m4v,8.0
2024-02-28 10:11:37.547926,1709111497.5479264,-68.84765625,-36.62109375,-40.0390625,-24.90234375,0.0,0.0,0.0,0.0,1.m4v,8.0
2024-02-28 10:11:37.551831,1709111497.5518312,-55.17578125,-43.45703125,-37.59765625,-75.68359375,0.0,0.0,0.0,0.0,1.m4v,8.0
2024-02-28 10:11:37.555745,1709111497.5557451,-59.08203125,-44.921875,-19.53125,-131.8359375,0.0,0.0,0.0,0.0,1.m4v,8.0
2024-02-28 10:11:37.559650,1709111497.5596502,-93.75,-39.55078125,-13.671875,-98.14453125,0.0,0.0,0.0,0.0,1.m4v,8.0
2024-02-28 10:11:37.563555,1709111497.5635552,-91.30859375,-34.66796875,-34.1796875,-75.68359375,0.0,0.0,0.0,0.0,1.m4v,8.0
2024-02-28 10:11:37.567460,1709111497.5674603,-48.33984375,-23.4375,-63.96484375,-55.6640625,0.0,0.0,0.0,0.0,1.m4v,8.0
2024-02-28 10:11:37.571365,1709111497.5713654,-28.3203125,-33.203125,-46.875,-36.1328125,0.0,0.0,0.0,0.0,1.m4v,8.0
2024-02-28 10:11:37.575270,1709111497.5752702,-85.9375,-33.69140625,-30.2734375,-60.546875,0.0,0.0,0.0,0.0,1.m4v,8.0
2024-02-28 10:11:37.579175,1709111497.5791752,-92.7734375,-20.5078125,-57.12890625,-66.89453125,0.0,0.0,0.0,0.0,1.m4v,8.0
2024-02-28 10:11:37.583080,1709111497.5830803,-58.59375,-11.23046875,-75.1953125,-89.35546875,0.0,0.0,0.0,0.0,1.m4v,8.0
2024-02-28 10:11:37.586985,1709111497.586985,-70.3125,-15.13671875,-41.015625,-106.4453125,0.0,0.0,0.0,0.0,1.m4v,8.0
2024-02-28 10:11:37.590890,1709111497.5908904,-74.70703125,-32.2265625,-10.25390625,-85.9375,0.0,0.0,0.0,0.0,1.m4v,8.0
2024-02-28 10:11:37.594795,1709111497.5947952,-84.47265625,-30.76171875,-19.53125,-82.03125,0.0,0.0,0.0,0.0,1.m4v,8.0
2024-02-28 10:11:37.598700,1709111497.5987003,-96.6796875,-23.4375,-28.3203125,-133.30078125,0.0,0.0,0.0,0.0,1.m4v,8.0
2024-02-28 10:11:37.602615,1709111497.6026149,-103.02734375,-35.64453125,-22.94921875,-157.71484375,0.0,0.0,0.0,0.0,1.m4v,8.0
2024-02-28 10:11:37.606520,1709111497.60652,-116.69921875,-38.57421875,-33.69140625,-126.46484375,0.0,0.0,0.0,0.0,1.m4v,8.0
2024-02-28 10:11:37.610425,1709111497.610425,-67.87109375,-29.296875,-65.4296875,-104.00390625,0.0,0.0,0.0,0.0,1.m4v,8.0
2024-02-28 10:11:37.614330,1709111497.6143298,-77.63671875,-37.59765625,-61.5234375,-69.82421875,0.0,0.0,0.0,0.0,1.m4v,8.0
2024-02-28 10:11:37.618235,1709111497.6182349,-96.6796875,-36.1328125,-51.7578125,-99.609375,0.0,0.0,0.0,0.0,1.m4v,8.0
2024-02-28 10:11:37.622140,1709111497.62214,-80.56640625,-30.76171875,-51.7578125,-92.7734375,0.0,0.0,0.0,0.0,1.m4v,8.0
2024-02-28 10:11:37.626045,1709111497.626045,-66.89453125,-35.64453125,-18.5546875,-97.16796875,0.0,0.0,0.0,0.0,1.m4v,8.0
2024-02-28 10:11:37.629950,1709111497.62995,-70.80078125,-40.52734375,-1.953125,-61.03515625,0.0,0.0,0.0,0.0,1.m4v,8.0
2024-02-28 10:11:37.633855,1709111497.6338549,-62.5,-30.2734375,-21.484375,-51.7578125,0.0,0.0,0.0,0.0,1.m4v,8.0
2024-02-28 10:11:37.637760,1709111497.63776,-49.8046875,-20.99609375,-42.48046875,-82.03125,0.0,0.0,0.0,0.0,1.m4v,8.0
2024-02-28 10:11:37.641665,1709111497.641665,-91.796875,-37.109375,-25.87890625,-100.09765625,0.0,0.0,0.0,0.0,1.m4v,8.0
2024-02-28 10:11:37.645570,1709111497.64557,-46.875,-40.0390625,-18.5546875,-86.9140625,0.0,0.0,0.0,0.0,1.m4v,8.0
2024-02-28 10:11:37.649483,1709111497.649483,-29.296875,-37.59765625,-47.8515625,-1.46484375,0.0,0.0,0.0,0.0,1.m4v,8.0
2024-02-28 10:11:37.653388,1709111497.653388,-5.859375,-39.0625,-25.390625,-56.15234375,0.0,0.0,0.0,0.0,1.m4v,8.0
2024-02-28 10:11:37.657293,1709111497.6572928,4.8828125,-34.1796875,-10.25390625,-67.3828125,0.0,0.0,0.0,0.0,1.m4v,8.0
2024-02-28 10:11:37.661198,1709111497.661198,-49.8046875,-42.48046875,-14.16015625,-44.921875,0.0,0.0,0.0,0.0,1.m4v,8.0
2024-02-28 10:11:37.665103,1709111497.665103,-65.4296875,-43.9453125,-8.7890625,-24.4140625,0.0,0.0,0.0,0.0,1.m4v,8.0
2024-02-28 10:11:37.669008,1709111497.669008,-1.46484375,-30.2734375,-41.9921875,15.13671875,0.0,0.0,0.0,0.0,1.m4v,8.0
2024-02-28 10:11:37.672913,1709111497.672913,20.01953125,-35.64453125,-54.19921875,-18.5546875,0.0,0.0,0.0,0.0,1.m4v,8.0
2024-02-28 10:11:37.676818,1709111497.676818,-46.875,-50.29296875,-26.3671875,-7.8125,0.0,0.0,0.0,0.0,1.m4v,8.0
2024-02-28 10:11:37.680723,1709111497.680723,-39.55078125,-35.15625,6.8359375,-43.45703125,0.0,0.0,0.0,0.0,1.m4v,8.0
2024-02-28 10:11:37.684628,1709111497.684628,12.6953125,-15.13671875,-22.94921875,-93.26171875,0.0,0.0,0.0,0.0,1.m4v,8.0
2024-02-28 10:11:37.688533,1709111497.688533,-2.44140625,-28.80859375,-88.8671875,8.30078125,0.0,0.0,0.0,0.0,1.m4v,8.0
2024-02-28 10:11:37.692438,1709111497.692438,-9.27734375,-26.85546875,-76.66015625,20.01953125,0.0,0.0,0.0,0.0,1.m4v,8.0
2024-02-28 10:11:37.696350,1709111497.6963503,9.765625,-21.484375,-10.7421875,-75.68359375,0.0,0.0,0.0,0.0,1.m4v,8.0
2024-02-28 10:11:37.700255,1709111497.7002554,-56.15234375,-41.9921875,-14.6484375,-15.625,0.0,0.0,0.0,0.0,1.m4v,8.0
2024-02-28 10:11:37.704160,1709111497.7041605,-71.2890625,-45.41015625,-21.97265625,2.44140625,0.0,0.0,0.0,0.0,1.m4v,8.0
2024-02-28 10:11:37.708065,1709111497.7080653,-45.8984375,-39.0625,12.6953125,-117.67578125,0.0,0.0,0.0,0.0,1.m4v,8.0
2024-02-28 10:11:37.711970,1709111497.7119703,-59.08203125,-40.52734375,22.4609375,-104.4921875,0.0,0.0,0.0,0.0,1.m4v,8.0
2024-02-28 10:11:37.715875,1709111497.7158754,-53.7109375,-44.43359375,4.39453125,-15.13671875,0.0,0.0,0.0,0.0,1.m4v,8.0
2024-02-28 10:11:37.719780,1709111497.7197804,-20.5078125,-63.4765625,-24.4140625,-30.2734375,0.0,0.0,0.0,0.0,1.m4v,8.0
2024-02-28 10:11:37.723686,1709111497.7236855,-0.48828125,-59.5703125,-59.08203125,-6.34765625,0.0,0.0,0.0,0.0,1.m4v,8.0
2024-02-28 10:11:37.727590,1709111497.7275903,-28.3203125,-38.57421875,-70.80078125,8.7890625,0.0,0.0,0.0,0.0,1.m4v,8.0
2024-02-28 10:11:37.731495,1709111497.7314954,-40.52734375,-18.5546875,-66.40625,-41.50390625,0.0,0.0,0.0,0.0,1.m4v,8.0
2024-02-28 10:11:37.735400,1709111497.7354004,-33.203125,-18.06640625,-18.5546875,-33.69140625,0.0,0.0,0.0,0.0,1.m4v,8.0
2024-02-28 10:11:37.739305,1709111497.7393055,-68.359375,-40.52734375,10.7421875,-58.59375,0.0,0.0,0.0,0.0,1.m4v,8.0
2024-02-28 10:11:37.743217,1709111497.7432165,-23.92578125,-28.3203125,-20.5078125,-60.05859375,0.0,0.0,0.0,0.0,1.m4v,8.0
2024-02-28 10:11:37.747122,1709111497.7471216,14.16015625,-15.625,-44.921875,2.9296875,0.0,0.0,0.0,0.0,1.m4v,8.0
2024-02-28 10:11:37.751026,1709111497.7510264,-31.73828125,-23.4375,-42.48046875,7.32421875,0.0,0.0,0.0,0.0,1.m4v,8.0
2024-02-28 10:11:37.754931,1709111497.7549314,-41.50390625,-25.390625,-37.109375,-4.39453125,0.0,0.0,0.0,0.0,1.m4v,8.0
2024-02-28 10:11:37.758837,1709111497.7588365,-36.62109375,-37.109375,-35.15625,-41.50390625,0.0,0.0,0.0,0.0,1.m4v,8.0
2024-02-28 10:11:37.762742,1709111497.7627416,10.7421875,-48.828125,-51.26953125,-11.23046875,0.0,0.0,0.0,0.0,1.m4v,8.0
2024-02-28 10:11:37.766647,1709111497.7666466,22.94921875,-67.3828125,-88.8671875,42.48046875,0.0,0.0,0.0,0.0,1.m4v,8.0
2024-02-28 10:11:37.770551,1709111497.7705514,-44.921875,-72.75390625,-59.08203125,-44.43359375,0.0,0.0,0.0,0.0,1.m4v,8.0
2024-02-28 10:11:37.774457,1709111497.7744565,-64.94140625,-28.3203125,-26.85546875,-62.5,0.0,0.0,0.0,0.0,1.m4v,8.0
2024-02-28 10:11:37.778362,1709111497.7783616,-35.15625,-2.44140625,-28.80859375,-82.03125,0.0,0.0,0.0,0.0,1.m4v,8.0
2024-02-28 10:11:37.782267,1709111497.7822666,-18.5546875,-9.765625,-16.11328125,-70.3125,0.0,0.0,0.0,0.0,1.m4v,8.0
2024-02-28 10:11:37.786172,1709111497.7861717,-37.59765625,-23.92578125,2.44140625,-56.15234375,0.0,0.0,0.0,0.0,1.m4v,8.0
2024-02-28 10:11:37.790089,1709111497.790089,-27.83203125,-36.62109375,-15.13671875,-42.48046875,0.0,0.0,0.0,0.0,1.m4v,8.0
2024-02-28 10:11:37.793994,1709111497.7939937,11.71875,-30.76171875,-68.359375,15.13671875,0.0,0.0,0.0,0.0,1.m4v,8.0
2024-02-28 10:11:37.797899,1709111497.7978988,19.53125,-41.50390625,-34.66796875,20.5078125,0.0,0.0,0.0,0.0,1.m4v,8.0
2024-02-28 10:11:37.801804,1709111497.8018038,-40.0390625,-58.10546875,1.46484375,-13.671875,0.0,0.0,0.0,0.0,1.m4v,8.0
2024-02-28 10:11:37.805709,1709111497.805709,-82.51953125,-51.7578125,-22.94921875,-74.70703125,0.0,0.0,0.0,0.0,1.m4v,8.0
2024-02-28 10:11:37.809614,1709111497.8096137,-15.13671875,-29.78515625,-30.2734375,-33.203125,0.0,0.0,0.0,0.0,1.m4v,8.0
2024-02-28 10:11:37.813519,1709111497.8135188,3.90625,-12.20703125,-41.9921875,3.90625,0.0,0.0,0.0,0.0,1.m4v,8.0
2024-02-28 10:11:37.817424,1709111497.8174238,-21.484375,-24.4140625,-67.3828125,-57.12890625,0.0,0.0,0.0,0.0,1.m4v,8.0
2024-02-28 10:11:37.821329,1709111497.8213289,-11.23046875,-34.66796875,-69.82421875,-38.0859375,0.0,0.0,0.0,0.0,1.m4v,8.0
2024-02-28 10:11:37.825234,1709111497.825234,-2.9296875,-20.99609375,-57.12890625,-5.37109375,0.0,0.0,0.0,0.0,1.m4v,8.0
2024-02-28 10:11:37.829139,1709111497.8291388,-28.80859375,-7.8125,-48.33984375,-17.08984375,0.0,0.0,0.0,0.0,1.m4v,8.0
2024-02-28 10:11:37.833044,1709111497.8330438,-49.31640625,-9.765625,-22.4609375,-25.87890625,0.0,0.0,0.0,0.0,1.m4v,8.0
2024-02-28 10:11:37.836960,1709111497.8369603,-31.73828125,-32.2265625,6.8359375,-9.765625,0.0,0.0,0.0,0.0,1.m4v,8.0
2024-02-28 10:11:37.840865,1709111497.8408654,-33.69140625,-56.640625,5.37109375,-44.921875,0.0,0.0,0.0,0.0,1.m4v,8.0
2024-02-28 10:11:37.844770,1709111497.8447704,-23.92578125,-59.08203125,-19.53125,-82.03125,0.0,0.0,0.0,0.0,1.m4v,8.0
2024-02-28 10:11:37.848675,1709111497.8486753,-23.4375,-30.2734375,-38.57421875,-59.5703125,0.0,0.0,0.0,0.0,1.m4v,8.0
2024-02-28 10:11:37.852580,1709111497.8525803,-15.13671875,-20.01953125,-53.22265625,-8.7890625,0.0,0.0,0.0,0.0,1.m4v,8.0
2024-02-28 10:11:37.856485,1709111497.8564854,-18.06640625,-38.57421875,-56.15234375,38.57421875,0.0,0.0,0.0,0.0,1.m4v,8.0
2024-02-28 10:11:37.860390,1709111497.8603904,-65.91796875,-35.64453125,-39.0625,-13.18359375,0.0,0.0,0.0,0.0,1.m4v,8.0
2024-02-28 10:11:37.864295,1709111497.8642955,-46.38671875,-16.11328125,-33.203125,-64.453125,0.0,0.0,0.0,0.0,1.m4v,8.0
2024-02-28 10:11:37.868200,1709111497.8682003,-4.8828125,-27.34375,-42.48046875,-6.8359375,0.0,0.0,0.0,0.0,1.m4v,8.0
2024-02-28 10:11:37.872105,1709111497.8721054,-6.8359375,-50.29296875,-35.64453125,-20.99609375,0.0,0.0,0.0,0.0,1.m4v,8.0
2024-02-28 10:11:37.876010,1709111497.8760104,-43.45703125,-43.9453125,-11.71875,-43.45703125,0.0,0.0,0.0,0.0,1.m4v,8.0
2024-02-28 10:11:37.879915,1709111497.8799157,-47.8515625,-33.69140625,-17.578125,-53.7109375,0.0,0.0,0.0,0.0,1.m4v,8.0
2024-02-28 10:11:37.883831,1709111497.8838303,-43.45703125,-41.50390625,-36.1328125,-46.875,0.0,0.0,0.0,0.0,1.m4v,8.0
2024-02-28 10:11:37.887736,1709111497.8877356,-45.41015625,-52.24609375,-31.73828125,19.53125,0.0,0.0,0.0,0.0,1.m4v,8.0
2024-02-28 10:11:37.891641,1709111497.891641,19.04296875,-38.0859375,-69.82421875,2.9296875,0.0,0.0,0.0,0.0,1.m4v,8.0
2024-02-28 10:11:37.895546,1709111497.8955455,7.32421875,-27.34375,-72.75390625,-44.921875,0.0,0.0,0.0,0.0,1.m4v,8.0
2024-02-28 10:11:37.899451,1709111497.8994503,-53.22265625,-33.69140625,10.7421875,3.41796875,0.0,0.0,0.0,0.0,1.m4v,8.0
2024-02-28 10:11:37.903356,1709111497.9033556,-44.43359375,-32.71484375,36.62109375,-40.0390625,0.0,0.0,0.0,0.0,1.m4v,8.0
2024-02-28 10:11:37.907261,1709111497.907261,-68.84765625,-37.59765625,10.25390625,-68.359375,0.0,0.0,0.0,0.0,1.m4v,8.0
2024-02-28 10:11:37.911166,1709111497.9111657,-57.12890625,-43.45703125,-9.765625,-15.13671875,0.0,0.0,0.0,0.0,1.m4v,8.0
2024-02-28 10:11:37.915071,1709111497.9150708,-22.94921875,-43.9453125,-11.71875,-37.109375,0.0,0.0,0.0,0.0,1.m4v,8.0
2024-02-28 10:11:37.918976,1709111497.9189756,-20.5078125,-33.203125,-20.5078125,1.46484375,0.0,0.0,0.0,0.0,1.m4v,8.0
2024-02-28 10:11:37.922881,1709111497.9228806,-31.73828125,-19.53125,-43.45703125,15.13671875,0.0,0.0,0.0,0.0,1.m4v,8.0
2024-02-28 10:11:37.926786,1709111497.9267857,-44.43359375,-19.04296875,-48.828125,-29.296875,0.0,0.0,0.0,0.0,1.m4v,8.0
2024-02-28 10:11:37.930701,1709111497.9307003,18.06640625,-5.859375,-96.6796875,20.01953125,0.0,0.0,0.0,0.0,1.m4v,8.0
2024-02-28 10:11:37.934605,1709111497.9346054,25.87890625,-22.94921875,-134.765625,60.546875,0.0,0.0,0.0,0.0,1.m4v,8.0
2024-02-28 10:11:37.938510,1709111497.9385104,-18.5546875,-69.3359375,-37.109375,30.2734375,0.0,0.0,0.0,0.0,1.m4v,8.0
2024-02-28 10:11:37.942415,1709111497.9424157,-27.83203125,-68.359375,43.45703125,13.671875,0.0,0.0,0.0,0.0,1.m4v,8.0
2024-02-28 10:11:37.946321,1709111497.9463203,-47.8515625,-34.66796875,20.5078125,-91.796875,0.0,0.0,0.0,0.0,1.m4v,8.0
2024-02-28 10:11:37.950226,1709111497.9502256,-57.12890625,-15.625,-9.765625,-74.70703125,0.0,0.0,0.0,0.0,1.m4v,8.0
2024-02-28 10:11:38.352526,1709111498.352526,6.8359375,-25.87890625,-33.69140625,0.0,0.0,0.0,0.0,0.0,1.m4v,8.0
2024-02-28 10:11:38.356431,1709111498.356431,22.94921875,-38.57421875,-34.66796875,57.12890625,0.0,0.0,0.0,0.0,1.m4v,8.0
2024-02-28 10:11:38.360336,1709111498.360336,33.203125,-21.97265625,-36.1328125,37.59765625,0.0,0.0,0.0,0.0,1.m4v,8.0
2024-02-28 10:11:38.364241,1709111498.3642411,41.015625,-13.671875,-29.296875,54.6875,0.0,0.0,0.0,0.0,1.m4v,8.0
2024-02-28 10:11:38.368146,1709111498.3681462,13.671875,-32.2265625,-14.6484375,54.19921875,0.0,0.0,0.0,0.0,1.m4v,8.0
2024-02-28 10:11:38.372051,1709111498.372051,6.8359375,-36.62109375,-19.53125,41.015625,0.0,0.0,0.0,0.0,1.m4v,8.0
2024-02-28 10:11:38.375956,1709111498.375956,16.11328125,-30.76171875,-11.71875,45.8984375,0.0,0.0,0.0,0.0,1.m4v,8.0
2024-02-28 10:11:38.379861,1709111498.379861,12.20703125,-31.73828125,0.0,-14.16015625,0.0,0.0,0.0,0.0,1.m4v,8.0
2024-02-28 10:11:38.383766,1709111498.3837662,25.87890625,-29.296875,-11.23046875,15.13671875,0.0,0.0,0.0,0.0,1.m4v,8.0
2024-02-28 10:11:38.387671,1709111498.3876712,25.390625,-31.73828125,-18.5546875,17.08984375,0.0,0.0,0.0,0.0,1.m4v,8.0
2024-02-28 10:11:38.391576,1709111498.3915763,30.2734375,-42.96875,-15.625,-7.32421875,0.0,0.0,0.0,0.0,1.m4v,8.0
2024-02-28 10:11:38.395481,1709111498.395481,10.25390625,-60.546875,-3.41796875,20.01953125,0.0,0.0,0.0,0.0,1.m4v,8.0
2024-02-28 10:11:38.399394,1709111498.399394,31.73828125,-68.84765625,-25.390625,86.9140625,0.0,0.0,0.0,0.0,1.m4v,8.0
2024-02-28 10:11:38.403299,1709111498.403299,36.1328125,-37.109375,-38.0859375,107.421875,0.0,0.0,0.0,0.0,1.m4v,8.0
2024-02-28 10:11:38.407204,1709111498.4072042,-4.8828125,0.9765625,-24.4140625,36.62109375,0.0,0.0,0.0,0.0,1.m4v,8.0
2024-02-28 10:11:38.411109,1709111498.4111092,-1.953125,0.0,-25.87890625,-25.87890625,0.0,0.0,0.0,0.0,1.m4v,8.0
2024-02-28 10:11:38.415014,1709111498.4150145,-2.44140625,-21.484375,-40.0390625,-43.45703125,0.0,0.0,0.0,0.0,1.m4v,8.0
2024-02-28 10:11:38.418919,1709111498.418919,-10.7421875,-41.50390625,-55.17578125,-19.04296875,0.0,0.0,0.0,0.0,1.m4v,8.0
2024-02-28 10:11:38.422824,1709111498.422824,-18.5546875,-39.0625,-46.875,-16.11328125,0.0,0.0,0.0,0.0,1.m4v,8.0
2024-02-28 10:11:38.426729,1709111498.4267292,-12.20703125,-26.85546875,-21.484375,-2.44140625,0.0,0.0,0.0,0.0,1.m4v,8.0
2024-02-28 10:11:38.430634,1709111498.4306345,9.27734375,-29.296875,-33.69140625,23.4375,0.0,0.0,0.0,0.0,1.m4v,8.0
2024-02-28 10:11:38.434539,1709111498.4345393,-5.37109375,-36.62109375,-30.76171875,6.8359375,0.0,0.0,0.0,0.0,1.m4v,8.0
2024-02-28 10:11:38.438444,1709111498.4384444,3.41796875,-31.73828125,-0.48828125,-4.8828125,0.0,0.0,0.0,0.0,1.m4v,8.0
2024-02-28 10:11:38.442349,1709111498.4423492,11.23046875,-21.484375,-7.32421875,-26.3671875,0.0,0.0,0.0,0.0,1.m4v,8.0
2024-02-28 10:11:38.446262,1709111498.4462624,-48.828125,-31.25,-15.625,-23.92578125,0.0,0.0,0.0,0.0,1.m4v,8.0
2024-02-28 10:11:38.450167,1709111498.4501672,-32.2265625,-21.97265625,-24.90234375,26.85546875,0.0,0.0,0.0,0.0,1.m4v,8.0
2024-02-28 10:11:38.454072,1709111498.4540722,5.37109375,-36.62109375,-40.52734375,-1.953125,0.0,0.0,0.0,0.0,1.m4v,8.0
2024-02-28 10:11:38.457977,1709111498.4579773,-13.671875,-60.546875,-32.71484375,-66.89453125,0.0,0.0,0.0,0.0,1.m4v,8.0
2024-02-28 10:11:38.461882,1709111498.4618824,-28.80859375,-34.66796875,-8.7890625,-37.109375,0.0,0.0,0.0,0.0,1.m4v,8.0
2024-02-28 10:11:38.465787,1709111498.4657874,-19.04296875,-10.25390625,-22.94921875,15.625,0.0,0.0,0.0,0.0,1.m4v,8.0
2024-02-28 10:11:38.469692,1709111498.4696925,-15.13671875,-11.71875,-48.33984375,3.41796875,0.0,0.0,0.0,0.0,1.m4v,8.0
2024-02-28 10:11:38.473597,1709111498.4735973,-9.27734375,-42.48046875,-28.3203125,2.44140625,0.0,0.0,0.0,0.0,1.m4v,8.0
2024-02-28 10:11:38.477502,1709111498.4775023,-20.99609375,-57.6171875,-4.8828125,0.48828125,0.0,0.0,0.0,0.0,1.m4v,8.0
2024-02-28 10:11:38.481407,1709111498.4814074,-30.2734375,-41.9921875,-20.99609375,-3.90625,0.0,0.0,0.0,0.0,1.m4v,8.0
2024-02-28 10:11:38.485312,1709111498.4853125,-35.64453125,-26.3671875,-33.69140625,-36.62109375,0.0,0.0,0.0,0.0,1.m4v,8.0
2024-02-28 10:11:38.489218,1709111498.4892175,-35.15625,-21.484375,-34.1796875,-52.734375,0.0,0.0,0.0,0.0,1.m4v,8.0
2024-02-28 10:11:38.493130,1709111498.4931304,-7.8125,-25.87890625,-44.921875,22.94921875,0.0,0.0,0.0,0.0,1.m4v,8.0
2024-02-28 10:11:38.497036,1709111498.4970355,1.46484375,-41.015625,-37.109375,57.6171875,0.0,0.0,0.0,0.0,1.m4v,8.0
2024-02-28 10:11:38.500941,1709111498.5009406,7.8125,-40.52734375,-17.08984375,9.27734375,0.0,0.0,0.0,0.0,1.m4v,8.0
2024-02-28 10:11:38.504845,1709111498.5048454,-1.46484375,-30.76171875,-32.71484375,-47.8515625,0.0,0.0,0.0,0.0,1.m4v,8.0
2024-02-28 10:11:38.508750,1709111498.5087504,-43.45703125,-32.2265625,-18.5546875,-55.6640625,0.0,0.0,0.0,0.0,1.m4v,8.0
2024-02-28 10:11:38.512655,1709111498.5126555,-37.109375,-45.8984375,-0.9765625,-42.48046875,0.0,0.0,0.0,0.0,1.m4v,8.0
2024-02-28 10:11:38.516561,1709111498.5165606,-29.78515625,-64.453125,-41.9921875,-33.203125,0.0,0.0,0.0,0.0,1.m4v,8.0
2024-02-28 10:11:38.520466,1709111498.5204656,-24.4140625,-56.640625,-39.0625,18.5546875,0.0,0.0,0.0,0.0,1.m4v,8.0
2024-02-28 10:11:38.524370,1709111498.5243704,-4.39453125,-44.43359375,-11.23046875,32.71484375,0.0,0.0,0.0,0.0,1.m4v,8.0
2024-02-28 10:11:38.528275,1709111498.5282755,-21.97265625,-40.52734375,-21.484375,-49.8046875,0.0,0.0,0.0,0.0,1.m4v,8.0
2024-02-28 10:11:38.532181,1709111498.5321803,-47.8515625,-26.3671875,-20.01953125,-77.1484375,0.0,0.0,0.0,0.0,1.m4v,8.0
2024-02-28 10:11:38.536086,1709111498.5360856,-51.26953125,-8.7890625,-36.1328125,-60.546875,0.0,0.0,0.0,0.0,1.m4v,8.0
2024-02-28 10:11:38.540003,1709111498.5400028,-28.80859375,2.9296875,-63.96484375,-47.8515625,0.0,0.0,0.0,0.0,1.m4v,8.0
2024-02-28 10:11:38.543908,1709111498.543908,-16.11328125,-3.90625,-63.4765625,-35.15625,0.0,0.0,0.0,0.0,1.m4v,8.0
2024-02-28 10:11:38.547813,1709111498.547813,-26.3671875,-35.64453125,-33.69140625,-7.32421875,0.0,0.0,0.0,0.0,1.m4v,8.0
2024-02-28 10:11:38.551718,1709111498.551718,-23.4375,-55.6640625,-12.20703125,26.85546875,0.0,0.0,0.0,0.0,1.m4v,8.0
2024-02-28 10:11:38.555623,1709111498.555623,-8.7890625,-44.921875,-14.6484375,-15.625,0.0,0.0,0.0,0.0,1.m4v,8.0
2024-02-28 10:11:38.559528,1709111498.559528,-18.06640625,-41.015625,-40.0390625,-57.6171875,0.0,0.0,0.0,0.0,1.m4v,8.0
2024-02-28 10:11:38.563433,1709111498.563433,-20.99609375,-41.015625,-35.64453125,-41.9921875,0.0,0.0,0.0,0.0,1.m4v,8.0
2024-02-28 10:11:38.567338,1709111498.567338,-31.73828125,-29.78515625,-9.27734375,-47.36328125,0.0,0.0,0.0,0.0,1.m4v,8.0
2024-02-28 10:11:38.571243,1709111498.571243,-21.484375,-28.3203125,-24.90234375,-49.8046875,0.0,0.0,0.0,0.0,1.m4v,8.0
2024-02-28 10:11:38.575148,1709111498.575148,-23.4375,-52.734375,-34.1796875,-19.53125,0.0,0.0,0.0,0.0,1.m4v,8.0
2024-02-28 10:11:38.579053,1709111498.579053,-50.78125,-38.0859375,-28.3203125,-40.0390625,0.0,0.0,0.0,0.0,1.m4v,8.0
2024-02-28 10:11:38.582958,1709111498.582958,-39.55078125,-5.37109375,-28.3203125,-52.734375,0.0,0.0,0.0,0.0,1.m4v,8.0
2024-02-28 10:11:38.586874,1709111498.5868745,-35.15625,-17.08984375,-28.80859375,-53.22265625,0.0,0.0,0.0,0.0,1.m4v,8.0
2024-02-28 10:11:38.590780,1709111498.5907795,-46.875,-36.1328125,-49.31640625,-14.6484375,0.0,0.0,0.0,0.0,1.m4v,8.0
2024-02-28 10:11:38.594685,1709111498.5946846,-33.69140625,-30.2734375,-68.84765625,80.078125,0.0,0.0,0.0,0.0,1.m4v,8.0
2024-02-28 10:11:38.598590,1709111498.5985897,-17.578125,-27.83203125,-65.4296875,31.73828125,0.0,0.0,0.0,0.0,1.m4v,8.0
2024-02-28 10:11:38.602494,1709111498.6024945,-35.15625,-55.6640625,-51.7578125,-70.3125,0.0,0.0,0.0,0.0,1.m4v,8.0
2024-02-28 10:11:38.606400,1709111498.6063995,-46.875,-84.9609375,-11.23046875,-105.46875,0.0,0.0,0.0,0.0,1.m4v,8.0
2024-02-28 10:11:38.610305,1709111498.6103046,-50.78125,-83.49609375,0.9765625,-90.8203125,0.0,0.0,0.0,0.0,1.m4v,8.0
2024-02-28 10:11:38.614210,1709111498.6142097,-55.6640625,-52.734375,-27.83203125,-71.2890625,0.0,0.0,0.0,0.0,1.m4v,8.0
2024-02-28 10:11:38.618115,1709111498.6181147,-55.17578125,-36.62109375,-29.296875,-47.36328125,0.0,0.0,0.0,0.0,1.m4v,8.0
2024-02-28 10:11:38.622020,1709111498.6220195,-48.828125,-22.94921875,-14.6484375,-23.92578125,0.0,0.0,0.0,0.0,1.m4v,8.0
2024-02-28 10:11:38.625925,1709111498.6259246,-35.64453125,-15.13671875,-19.53125,-11.71875,0.0,0.0,0.0,0.0,1.m4v,8.0
2024-02-28 10:11:38.629830,1709111498.6298296,-36.1328125,-33.203125,-35.15625,22.94921875,0.0,0.0,0.0,0.0,1.m4v,8.0
2024-02-28 10:11:38.633745,1709111498.6337452,-27.83203125,-44.43359375,-75.1953125,5.37109375,0.0,0.0,0.0,0.0,1.m4v,8.0
2024-02-28 10:11:38.637650,1709111498.6376505,-20.5078125,-28.3203125,-71.2890625,-62.5,0.0,0.0,0.0,0.0,1.m4v,8.0
2024-02-28 10:11:38.641555,1709111498.6415553,-50.29296875,-19.04296875,-13.671875,-71.2890625,0.0,0.0,0.0,0.0,1.m4v,8.0
2024-02-28 10:11:38.645460,1709111498.64546,-41.9921875,-30.2734375,-7.32421875,-59.5703125,0.0,0.0,0.0,0.0,1.m4v,8.0
2024-02-28 10:11:38.649365,1709111498.6493652,-36.62109375,-43.45703125,-19.53125,-53.7109375,0.0,0.0,0.0,0.0,1.m4v,8.0
2024-02-28 10:11:38.653270,1709111498.6532702,-35.64453125,-37.59765625,-23.4375,3.41796875,0.0,0.0,0.0,0.0,1.m4v,8.0
2024-02-28 10:11:38.657175,1709111498.6571753,-20.5078125,-25.87890625,-62.5,26.3671875,0.0,0.0,0.0,0.0,1.m4v,8.0
2024-02-28 10:11:38.661080,1709111498.6610804,-35.64453125,-35.15625,-72.75390625,-51.7578125,0.0,0.0,0.0,0.0,1.m4v,8.0
2024-02-28 10:11:38.664985,1709111498.6649852,-62.01171875,-41.50390625,-34.1796875,-92.7734375,0.0,0.0,0.0,0.0,1.m4v,8.0
2024-02-28 10:11:38.668890,1709111498.6688902,-55.17578125,-41.50390625,-13.18359375,-72.75390625,0.0,0.0,0.0,0.0,1.m4v,8.0
2024-02-28 10:11:38.672795,1709111498.6727953,-45.41015625,-55.6640625,-22.4609375,-51.7578125,0.0,0.0,0.0,0.0,1.m4v,8.0
2024-02-28 10:11:38.676700,1709111498.6767004,-34.1796875,-45.41015625,-42.96875,-46.38671875,0.0,0.0,0.0,0.0,1.m4v,8.0
2024-02-28 10:11:38.680616,1709111498.6806157,-34.1796875,-29.296875,-49.8046875,-43.9453125,0.0,0.0,0.0,0.0,1.m4v,8.0
2024-02-28 10:11:38.684521,1709111498.6845207,-40.52734375,-35.15625,-28.3203125,-11.23046875,0.0,0.0,0.0,0.0,1.m4v,8.0
2024-02-28 10:11:38.688426,1709111498.6884258,-44.921875,-35.15625,-17.08984375,5.859375,0.0,0.0,0.0,0.0,1.m4v,8.0
2024-02-28 10:11:38.692331,1709111498.6923308,-56.640625,-16.6015625,-58.59375,-38.57421875,0.0,0.0,0.0,0.0,1.m4v,8.0
2024-02-28 10:11:38.696236,1709111498.696236,-50.29296875,-7.8125,-67.87109375,-41.9921875,0.0,0.0,0.0,0.0,1.m4v,8.0
2024-02-28 10:11:38.700141,1709111498.7001407,-59.5703125,-17.578125,-29.78515625,-53.7109375,0.0,0.0,0.0,0.0,1.m4v,8.0
2024-02-28 10:11:38.704046,1709111498.7040458,-59.08203125,-25.390625,-24.4140625,-60.546875,0.0,0.0,0.0,0.0,1.m4v,8.0
2024-02-28 10:11:38.707951,1709111498.7079508,-25.87890625,-39.0625,-38.0859375,-46.875,0.0,0.0,0.0,0.0,1.m4v,8.0
2024-02-28 10:11:38.711856,1709111498.711856,-17.578125,-50.29296875,-38.0859375,-35.64453125,0.0,0.0,0.0,0.0,1.m4v,8.0
2024-02-28 10:11:38.715761,1709111498.715761,-37.59765625,-59.5703125,-29.78515625,-26.85546875,0.0,0.0,0.0,0.0,1.m4v,8.0
2024-02-28 10:11:38.719666,1709111498.719666,-41.9921875,-51.7578125,-35.15625,-50.29296875,0.0,0.0,0.0,0.0,1.m4v,8.0
2024-02-28 10:11:38.723571,1709111498.7235708,-36.1328125,-36.1328125,-41.015625,-41.50390625,0.0,0.0,0.0,0.0,1.m4v,8.0
2024-02-28 10:11:38.727485,1709111498.727485,-51.7578125,-37.109375,-40.52734375,-35.15625,0.0,0.0,0.0,0.0,1.m4v,8.0
2024-02-28 10:11:38.731390,1709111498.73139,-69.3359375,-31.25,-31.73828125,-43.9453125,0.0,0.0,0.0,0.0,1.m4v,8.0
2024-02-28 10:11:38.735295,1709111498.7352948,-65.91796875,-40.0390625,-24.90234375,-49.8046875,0.0,0.0,0.0,0.0,1.m4v,8.0
2024-02-28 10:11:38.739200,1709111498.7392,-41.015625,-53.22265625,-21.484375,-77.1484375,0.0,0.0,0.0,0.0,1.m4v,8.0
2024-02-28 10:11:38.743105,1709111498.743105,-47.8515625,-48.828125,-48.33984375,-57.6171875,0.0,0.0,0.0,0.0,1.m4v,8.0
2024-02-28 10:11:38.747010,1709111498.74701,-52.24609375,-39.55078125,-68.359375,-29.296875,0.0,0.0,0.0,0.0,1.m4v,8.0
2024-02-28 10:11:38.750915,1709111498.750915,-31.25,-24.4140625,-67.3828125,-34.66796875,0.0,0.0,0.0,0.0,1.m4v,8.0
2024-02-28 10:11:38.754820,1709111498.75482,-37.109375,-38.57421875,-53.7109375,-42.96875,0.0,0.0,0.0,0.0,1.m4v,8.0
2024-02-28 10:11:38.758725,1709111498.758725,-62.01171875,-52.734375,-5.37109375,-21.484375,0.0,0.0,0.0,0.0,1.m4v,8.0
2024-02-28 10:11:38.762630,1709111498.76263,-50.29296875,-21.97265625,6.8359375,-21.97265625,0.0,0.0,0.0,0.0,1.m4v,8.0
2024-02-28 10:11:38.766535,1709111498.766535,-46.875,-5.37109375,-15.13671875,-86.9140625,0.0,0.0,0.0,0.0,1.m4v,8.0
2024-02-28 10:11:38.770440,1709111498.77044,-55.6640625,-28.3203125,-25.390625,-80.56640625,0.0,0.0,0.0,0.0,1.m4v,8.0
2024-02-28 10:11:38.774353,1709111498.774353,-38.57421875,-54.19921875,-27.34375,-31.25,0.0,0.0,0.0,0.0,1.m4v,8.0
2024-02-28 10:11:38.778258,1709111498.778258,-38.57421875,-49.8046875,-13.671875,-5.37109375,0.0,0.0,0.0,0.0,1.m4v,8.0
2024-02-28 10:11:38.782163,1709111498.7821631,-38.57421875,-30.2734375,-20.99609375,-34.66796875,0.0,0.0,0.0,0.0,1.m4v,8.0
2024-02-28 10:11:38.786068,1709111498.786068,-29.296875,-14.16015625,-41.015625,-50.29296875,0.0,0.0,0.0,0.0,1.m4v,8.0
2024-02-28 10:11:38.789973,1709111498.789973,-19.04296875,-19.04296875,-61.5234375,-43.45703125,0.0,0.0,0.0,0.0,1.m4v,8.0
2024-02-28 10:11:38.793878,1709111498.793878,-29.296875,-22.4609375,-79.58984375,-28.80859375,0.0,0.0,0.0,0.0,1.m4v,8.0
2024-02-28 10:11:38.797783,1709111498.7977831,-35.64453125,-45.8984375,-56.15234375,-40.0390625,0.0,0.0,0.0,0.0,1.m4v,8.0
2024-02-28 10:11:38.801688,1709111498.8016882,-44.921875,-67.87109375,-10.7421875,-27.83203125,0.0,0.0,0.0,0.0,1.m4v,8.0
2024-02-28 10:11:38.805593,1709111498.8055933,-34.1796875,-45.8984375,5.859375,-20.99609375,0.0,0.0,0.0,0.0,1.m4v,8.0
2024-02-28 10:11:38.809498,1709111498.809498,-33.69140625,-15.625,-5.859375,-51.26953125,0.0,0.0,0.0,0.0,1.m4v,8.0
2024-02-28 10:11:38.813403,1709111498.8134031,-53.22265625,-17.08984375,-16.6015625,-77.1484375,0.0,0.0,0.0,0.0,1.m4v,8.0
2024-02-28 10:11:38.817308,1709111498.8173082,-57.6171875,-35.64453125,-21.484375,-50.78125,0.0,0.0,0.0,0.0,1.m4v,8.0
2024-02-28 10:11:38.821220,1709111498.8212204,-72.265625,-31.25,-38.57421875,-36.62109375,0.0,0.0,0.0,0.0,1.m4v,8.0
2024-02-28 10:11:38.825125,1709111498.8251252,-25.87890625,-23.92578125,-80.56640625,-28.3203125,0.0,0.0,0.0,0.0,1.m4v,8.0
2024-02-28 10:11:38.829030,1709111498.8290305,-8.7890625,-26.3671875,-80.078125,-9.27734375,0.0,0.0,0.0,0.0,1.m4v,8.0
2024-02-28 10:11:38.832935,1709111498.832935,-47.8515625,-36.1328125,-16.6015625,-79.58984375,0.0,0.0,0.0,0.0,1.m4v,8.0
2024-02-28 10:11:38.836840,1709111498.8368404,-68.84765625,-40.0390625,1.953125,-101.5625,0.0,0.0,0.0,0.0,1.m4v,8.0
2024-02-28 10:11:38.840745,1709111498.8407454,-55.17578125,-37.109375,-17.08984375,-39.0625,0.0,0.0,0.0,0.0,1.m4v,8.0
2024-02-28 10:11:38.844650,1709111498.8446505,-25.87890625,-50.29296875,-12.20703125,5.859375,0.0,0.0,0.0,0.0,1.m4v,8.0
2024-02-28 10:11:38.848555,1709111498.848555,-44.43359375,-61.5234375,-1.953125,-64.94140625,0.0,0.0,0.0,0.0,1.m4v,8.0
2024-02-28 10:11:38.852460,1709111498.8524604,-64.94140625,-38.0859375,-9.27734375,-107.421875,0.0,0.0,0.0,0.0,1.m4v,8.0
2024-02-28 10:11:38.856365,1709111498.8563654,-53.22265625,-41.9921875,-32.2265625,-57.6171875,0.0,0.0,0.0,0.0,1.m4v,8.0
2024-02-28 10:11:38.860271,1709111498.8602705,-17.578125,-53.22265625,-48.33984375,-23.4375,0.0,0.0,0.0,0.0,1.m4v,8.0
2024-02-28 10:11:38.864175,1709111498.864175,-11.71875,-26.3671875,-59.08203125,-20.99609375,0.0,0.0,0.0,0.0,1.m4v,8.0
2024-02-28 10:11:38.868101,1709111498.868101,-33.69140625,-20.01953125,-72.265625,-31.73828125,0.0,0.0,0.0,0.0,1.m4v,8.0
2024-02-28 10:11:38.872006,1709111498.8720057,-54.6875,-37.109375,-60.05859375,-92.28515625,0.0,0.0,0.0,0.0,1.m4v,8.0
2024-02-28 10:11:38.875911,1709111498.8759108,-70.80078125,-40.0390625,-28.3203125,-108.3984375,0.0,0.0,0.0,0.0,1.m4v,8.0
2024-02-28 10:11:38.879816,1709111498.8798158,-58.10546875,-36.1328125,-13.18359375,-76.66015625,0.0,0.0,0.0,0.0,1.m4v,8.0
2024-02-28 10:11:38.883721,1709111498.8837209,-39.0625,-35.64453125,-20.5078125,-47.8515625,0.0,0.0,0.0,0.0,1.m4v,8.0
2024-02-28 10:11:38.887626,1709111498.887626,-18.5546875,-39.55078125,-60.546875,-1.953125,0.0,0.0,0.0,0.0,1.m4v,8.0
2024-02-28 10:11:38.891531,1709111498.891531,-34.1796875,-58.59375,-70.80078125,-23.4375,0.0,0.0,0.0,0.0,1.m4v,8.0
2024-02-28 10:11:38.895436,1709111498.8954358,-35.15625,-50.29296875,-34.1796875,-20.01953125,0.0,0.0,0.0,0.0,1.m4v,8.0
2024-02-28 10:11:38.899341,1709111498.8993409,-7.8125,-31.73828125,-43.45703125,-16.6015625,0.0,0.0,0.0,0.0,1.m4v,8.0
2024-02-28 10:11:38.903246,1709111498.903246,-40.52734375,-33.69140625,-56.15234375,-50.78125,0.0,0.0,0.0,0.0,1.m4v,8.0
2024-02-28 10:11:38.907151,1709111498.907151,-49.31640625,-31.73828125,-22.4609375,-62.01171875,0.0,0.0,0.0,0.0,1.m4v,8.0
2024-02-28 10:11:38.911056,1709111498.911056,-20.99609375,-33.203125,2.44140625,-57.6171875,0.0,0.0,0.0,0.0,1.m4v,8.0
2024-02-28 10:11:38.914968,1709111498.9149678,-29.296875,-41.50390625,1.46484375,-43.45703125,0.0,0.0,0.0,0.0,1.m4v,8.0
2024-02-28 10:11:38.918873,1709111498.9188726,-49.8046875,-40.0390625,-27.34375,-39.55078125,0.0,0.0,0.0,0.0,1.m4v,8.0
2024-02-28 10:11:38.922778,1709111498.9227777,-49.8046875,-20.99609375,-64.453125,-9.765625,0.0,0.0,0.0,0.0,1.m4v,8.0
2024-02-28 10:11:38.926683,1709111498.9266827,-33.203125,-20.5078125,-60.546875,-22.4609375,0.0,0.0,0.0,0.0,1.m4v,8.0
2024-02-28 10:11:38.930588,1709111498.9305878,-31.25,-53.22265625,-35.64453125,-46.875,0.0,0.0,0.0,0.0,1.m4v,8.0
2024-02-28 10:11:38.934493,1709111498.9344928,-47.8515625,-51.7578125,-35.15625,-5.859375,0.0,0.0,0.0,0.0,1.m4v,8.0
2024-02-28 10:11:39.383660,1709111499.3836598,-45.41015625,-31.25,-104.4921875,-91.796875,0.0,0.0,0.0,0.0,1.m4v,8.0
2024-02-28 10:11:39.387565,1709111499.387565,-26.3671875,-33.203125,-74.70703125,-48.33984375,0.0,0.0,0.0,0.0,1.m4v,8.0
2024-02-28 10:11:39.391470,1709111499.3914697,-36.1328125,-37.109375,-10.25390625,-49.8046875,0.0,0.0,0.0,0.0,1.m4v,8.0
2024-02-28 10:11:39.395375,1709111499.3953748,-61.5234375,-33.69140625,-2.44140625,-79.1015625,0.0,0.0,0.0,0.0,1.m4v,8.0
2024-02-28 10:11:39.399280,1709111499.3992798,-77.63671875,-22.94921875,-6.34765625,-85.44921875,0.0,0.0,0.0,0.0,1.m4v,8.0
2024-02-28 10:11:39.403185,1709111499.403185,-65.91796875,-32.71484375,-13.671875,-89.35546875,0.0,0.0,0.0,0.0,1.m4v,8.0
2024-02-28 10:11:39.407090,1709111499.4070897,-48.828125,-37.109375,-41.015625,-68.84765625,0.0,0.0,0.0,0.0,1.m4v,8.0
2024-02-28 10:11:39.410995,1709111499.4109948,-30.76171875,-40.0390625,-66.40625,-21.97265625,0.0,0.0,0.0,0.0,1.m4v,8.0
2024-02-28 10:11:39.414900,1709111499.4148998,-28.3203125,-57.6171875,-83.984375,-1.46484375,0.0,0.0,0.0,0.0,1.m4v,8.0
2024-02-28 10:11:39.418805,1709111499.418805,-54.6875,-51.26953125,-83.984375,-4.39453125,0.0,0.0,0.0,0.0,1.m4v,8.0
2024-02-28 10:11:39.422710,1709111499.42271,-51.26953125,-31.25,-38.0859375,-38.57421875,0.0,0.0,0.0,0.0,1.m4v,8.0
2024-02-28 10:11:39.426615,1709111499.426615,-44.921875,-25.390625,-3.90625,-80.078125,0.0,0.0,0.0,0.0,1.m4v,8.0
2024-02-28 10:11:39.430532,1709111499.4305322,-25.87890625,-21.97265625,-19.53125,-75.1953125,0.0,0.0,0.0,0.0,1.m4v,8.0
2024-02-28 10:11:39.434437,1709111499.4344373,-10.7421875,-15.625,-34.66796875,-52.24609375,0.0,0.0,0.0,0.0,1.m4v,8.0
2024-02-28 10:11:39.438342,1709111499.4383423,-37.59765625,-25.390625,-36.62109375,-68.84765625,0.0,0.0,0.0,0.0,1.m4v,8.0
2024-02-28 10:11:39.442247,1709111499.4422474,-50.29296875,-31.25,-43.9453125,-41.50390625,0.0,0.0,0.0,0.0,1.m4v,8.0
2024-02-28 10:11:39.446152,1709111499.4461522,-45.41015625,-36.62109375,-32.71484375,-14.16015625,0.0,0.0,0.0,0.0,1.m4v,8.0
2024-02-28 10:11:39.450057,1709111499.4500573,-17.08984375,-36.62109375,-53.22265625,7.32421875,0.0,0.0,0.0,0.0,1.m4v,8.0
2024-02-28 10:11:39.453962,1709111499.4539623,3.41796875,-43.9453125,-57.12890625,21.484375,0.0,0.0,0.0,0.0,1.m4v,8.0
2024-02-28 10:11:39.457867,1709111499.4578674,-23.4375,-45.8984375,-3.90625,-4.8828125,0.0,0.0,0.0,0.0,1.m4v,8.0
2024-02-28 10:11:39.461772,1709111499.4617724,-70.80078125,-28.3203125,-13.671875,-64.453125,0.0,0.0,0.0,0.0,1.m4v,8.0
2024-02-28 10:11:39.465677,1709111499.4656773,-82.03125,-24.4140625,-35.64453125,-79.58984375,0.0,0.0,0.0,0.0,1.m4v,8.0
2024-02-28 10:11:39.469582,1709111499.4695823,-44.921875,-9.765625,-38.57421875,-18.06640625,0.0,0.0,0.0,0.0,1.m4v,8.0
2024-02-28 10:11:39.473487,1709111499.4734874,-13.671875,-8.7890625,-25.390625,-26.85546875,0.0,0.0,0.0,0.0,1.m4v,8.0
2024-02-28 10:11:39.477401,1709111499.4774015,-39.0625,-44.43359375,-20.99609375,-91.30859375,0.0,0.0,0.0,0.0,1.m4v,8.0
2024-02-28 10:11:39.481307,1709111499.4813066,-69.82421875,-53.7109375,-16.11328125,-89.35546875,0.0,0.0,0.0,0.0,1.m4v,8.0
2024-02-28 10:11:39.485212,1709111499.4852116,-57.6171875,-40.52734375,-22.94921875,-46.38671875,0.0,0.0,0.0,0.0,1.m4v,8.0
2024-02-28 10:11:39.489117,1709111499.489117,-34.66796875,-48.828125,-32.71484375,-22.94921875,0.0,0.0,0.0,0.0,1.m4v,8.0
2024-02-28 10:11:39.493021,1709111499.4930215,-32.2265625,-64.453125,-28.3203125,-10.25390625,0.0,0.0,0.0,0.0,1.m4v,8.0
2024-02-28 10:11:39.496927,1709111499.4969263,-43.45703125,-51.7578125,-39.55078125,17.08984375,0.0,0.0,0.0,0.0,1.m4v,8.0
2024-02-28 10:11:39.500832,1709111499.5008316,-44.43359375,-26.85546875,-25.390625,-23.4375,0.0,0.0,0.0,0.0,1.m4v,8.0
2024-02-28 10:11:39.504737,1709111499.504737,-47.8515625,-18.06640625,-35.64453125,-78.125,0.0,0.0,0.0,0.0,1.m4v,8.0
2024-02-28 10:11:39.508642,1709111499.5086415,-47.8515625,-21.484375,-54.19921875,-55.17578125,0.0,0.0,0.0,0.0,1.m4v,8.0
2024-02-28 10:11:39.512547,1709111499.5125468,-27.34375,-34.66796875,-66.89453125,-47.36328125,0.0,0.0,0.0,0.0,1.m4v,8.0
2024-02-28 10:11:39.516452,1709111499.5164516,-26.85546875,-43.9453125,-93.75,-24.4140625,0.0,0.0,0.0,0.0,1.m4v,8.0
2024-02-28 10:11:39.520357,1709111499.520357,-54.6875,-32.71484375,-58.59375,-17.08984375,0.0,0.0,0.0,0.0,1.m4v,8.0
2024-02-28 10:11:39.524271,1709111499.5242703,-57.12890625,-18.5546875,4.39453125,-41.9921875,0.0,0.0,0.0,0.0,1.m4v,8.0
2024-02-28 10:11:39.528176,1709111499.5281756,-48.33984375,-22.4609375,22.94921875,-43.45703125,0.0,0.0,0.0,0.0,1.m4v,8.0
2024-02-28 10:11:39.532081,1709111499.532081,-50.78125,-40.52734375,3.41796875,-66.89453125,0.0,0.0,0.0,0.0,1.m4v,8.0
2024-02-28 10:11:39.535986,1709111499.5359857,-53.22265625,-34.1796875,-17.08984375,-69.3359375,0.0,0.0,0.0,0.0,1.m4v,8.0
2024-02-28 10:11:39.539891,1709111499.5398908,-33.203125,-40.52734375,-45.41015625,-22.94921875,0.0,0.0,0.0,0.0,1.m4v,8.0
2024-02-28 10:11:39.543796,1709111499.5437956,-19.04296875,-64.453125,-54.19921875,27.83203125,0.0,0.0,0.0,0.0,1.m4v,8.0
2024-02-28 10:11:39.547701,1709111499.5477006,-34.1796875,-47.36328125,-46.38671875,-9.765625,0.0,0.0,0.0,0.0,1.m4v,8.0
2024-02-28 10:11:39.551606,1709111499.5516057,-31.73828125,-17.08984375,-32.71484375,-54.6875,0.0,0.0,0.0,0.0,1.m4v,8.0
2024-02-28 10:11:39.555511,1709111499.5555108,-28.80859375,-19.53125,-22.94921875,-41.9921875,0.0,0.0,0.0,0.0,1.m4v,8.0
2024-02-28 10:11:39.559416,1709111499.5594158,-46.38671875,-39.55078125,-49.31640625,-56.640625,0.0,0.0,0.0,0.0,1.m4v,8.0
2024-02-28 10:11:39.563321,1709111499.5633206,-60.05859375,-42.96875,-58.59375,-69.3359375,0.0,0.0,0.0,0.0,1.m4v,8.0
2024-02-28 10:11:39.567226,1709111499.5672257,-44.921875,-36.1328125,-59.5703125,-53.7109375,0.0,0.0,0.0,0.0,1.m4v,8.0
2024-02-28 10:11:39.571138,1709111499.571138,-27.83203125,-28.80859375,-97.65625,-12.20703125,0.0,0.0,0.0,0.0,1.m4v,8.0
2024-02-28 10:11:39.575043,1709111499.575043,-31.25,-45.41015625,-63.96484375,22.4609375,0.0,0.0,0.0,0.0,1.m4v,8.0
2024-02-28 10:11:39.578948,1709111499.578948,-35.64453125,-72.75390625,-4.8828125,-15.625,0.0,0.0,0.0,0.0,1.m4v,8.0
2024-02-28 10:11:39.582853,1709111499.582853,-52.24609375,-62.98828125,-4.39453125,-76.171875,0.0,0.0,0.0,0.0,1.m4v,8.0
2024-02-28 10:11:39.586758,1709111499.586758,-59.08203125,-30.2734375,-15.13671875,-74.70703125,0.0,0.0,0.0,0.0,1.m4v,8.0
2024-02-28 10:11:39.590663,1709111499.5906632,-51.7578125,-24.4140625,-40.0390625,-38.0859375,0.0,0.0,0.0,0.0,1.m4v,8.0
2024-02-28 10:11:39.594568,1709111499.5945685,-40.0390625,-30.2734375,-62.5,-36.1328125,0.0,0.0,0.0,0.0,1.m4v,8.0
2024-02-28 10:11:39.598473,1709111499.598473,-44.921875,-15.625,-40.52734375,-50.78125,0.0,0.0,0.0,0.0,1.m4v,8.0
2024-02-28 10:11:39.602378,1709111499.602378,-48.33984375,-3.41796875,-29.78515625,-10.7421875,0.0,0.0,0.0,0.0,1.m4v,8.0
2024-02-28 10:11:39.606283,1709111499.6062832,-33.203125,-12.20703125,-71.77734375,-5.859375,0.0,0.0,0.0,0.0,1.m4v,8.0
2024-02-28 10:11:39.610188,1709111499.6101882,-39.0625,-28.80859375,-64.94140625,-49.31640625,0.0,0.0,0.0,0.0,1.m4v,8.0
2024-02-28 10:11:39.614093,1709111499.6140933,-52.734375,-57.12890625,-13.18359375,-77.1484375,0.0,0.0,0.0,0.0,1.m4v,8.0
2024-02-28 10:11:39.618004,1709111499.6180043,-58.59375,-75.1953125,11.23046875,-70.3125,0.0,0.0,0.0,0.0,1.m4v,8.0
2024-02-28 10:11:39.621909,1709111499.6219094,-46.875,-58.59375,-4.8828125,-45.8984375,0.0,0.0,0.0,0.0,1.m4v,8.0
2024-02-28 10:11:39.625814,1709111499.6258144,-37.59765625,-46.875,-37.59765625,-23.4375,0.0,0.0,0.0,0.0,1.m4v,8.0
2024-02-28 10:11:39.629719,1709111499.6297193,-42.96875,-43.9453125,-41.9921875,-40.52734375,0.0,0.0,0.0,0.0,1.m4v,8.0
2024-02-28 10:11:39.633624,1709111499.6336243,-54.19921875,-34.1796875,-36.62109375,-77.1484375,0.0,0.0,0.0,0.0,1.m4v,8.0
2024-02-28 10:11:39.637529,1709111499.6375294,-46.38671875,-26.85546875,-24.4140625,-57.12890625,0.0,0.0,0.0,0.0,1.m4v,8.0
2024-02-28 10:11:39.641434,1709111499.6414344,-22.94921875,-26.3671875,-44.43359375,-13.18359375,0.0,0.0,0.0,0.0,1.m4v,8.0
2024-02-28 10:11:39.645339,1709111499.6453395,-3.90625,-20.99609375,-71.77734375,-5.37109375,0.0,0.0,0.0,0.0,1.m4v,8.0
2024-02-28 10:11:39.649245,1709111499.6492443,-24.90234375,-30.76171875,-47.36328125,-40.52734375,0.0,0.0,0.0,0.0,1.m4v,8.0
2024-02-28 10:11:39.653149,1709111499.6531494,-47.8515625,-56.640625,-19.53125,-50.78125,0.0,0.0,0.0,0.0,1.m4v,8.0
2024-02-28 10:11:39.657054,1709111499.6570544,-37.59765625,-53.7109375,-29.78515625,-33.203125,0.0,0.0,0.0,0.0,1.m4v,8.0
2024-02-28 10:11:39.660959,1709111499.6609595,-32.71484375,-22.4609375,-59.08203125,-34.66796875,0.0,0.0,0.0,0.0,1.m4v,8.0
2024-02-28 10:11:39.664876,1709111499.6648765,-29.78515625,-9.765625,-60.05859375,-46.38671875,0.0,0.0,0.0,0.0,1.m4v,8.0
2024-02-28 10:11:39.668782,1709111499.6687815,-57.12890625,-23.4375,-26.85546875,-40.0390625,0.0,0.0,0.0,0.0,1.m4v,8.0
2024-02-28 10:11:39.672687,1709111499.6726866,-71.2890625,-41.50390625,-1.953125,-57.6171875,0.0,0.0,0.0,0.0,1.m4v,8.0
2024-02-28 10:11:39.676592,1709111499.6765916,-61.03515625,-46.38671875,-9.27734375,-62.5,0.0,0.0,0.0,0.0,1.m4v,8.0
2024-02-28 10:11:39.680497,1709111499.6804967,-42.48046875,-39.55078125,-23.4375,-49.8046875,0.0,0.0,0.0,0.0,1.m4v,8.0
2024-02-28 10:11:39.684402,1709111499.6844015,-16.11328125,-38.0859375,-42.96875,-20.01953125,0.0,0.0,0.0,0.0,1.m4v,8.0
2024-02-28 10:11:39.688307,1709111499.6883066,-19.04296875,-53.7109375,-49.31640625,-38.57421875,0.0,0.0,0.0,0.0,1.m4v,8.0
2024-02-28 10:11:39.692212,1709111499.6922116,-46.38671875,-52.24609375,-37.109375,-67.3828125,0.0,0.0,0.0,0.0,1.m4v,8.0
2024-02-28 10:11:39.696117,1709111499.6961167,-84.9609375,-31.25,-28.3203125,-87.890625,0.0,0.0,0.0,0.0,1.m4v,8.0
2024-02-28 10:11:39.700022,1709111499.7000215,-102.5390625,-27.34375,-24.90234375,-98.6328125,0.0,0.0,0.0,0.0,1.m4v,8.0
2024-02-28 10:11:39.703927,1709111499.7039268,-87.40234375,-45.41015625,-47.8515625,-74.70703125,0.0,0.0,0.0,0.0,1.m4v,8.0
2024-02-28 10:11:39.707832,1709111499.7078316,-83.0078125,-47.36328125,-56.640625,-86.9140625,0.0,0.0,0.0,0.0,1.m4v,8.0
2024-02-28 10:11:39.711748,1709111499.711748,-112.3046875,-25.87890625,-36.1328125,-116.2109375,0.0,0.0,0.0,0.0,1.m4v,8.0
2024-02-28 10:11:39.715653,1709111499.7156532,-111.81640625,-18.5546875,-42.48046875,-107.421875,0.0,0.0,0.0,0.0,1.m4v,8.0
2024-02-28 10:11:39.719558,1709111499.7195582,-107.421875,-20.99609375,-43.9453125,-128.41796875,0.0,0.0,0.0,0.0,1.m4v,8.0
2024-02-28 10:11:39.723463,1709111499.7234633,-151.3671875,-17.578125,-2.44140625,-129.8828125,0.0,0.0,0.0,0.0,1.m4v,8.0
2024-02-28 10:11:39.727368,1709111499.7273684,-150.390625,-22.4609375,4.39453125,-137.20703125,0.0,0.0,0.0,0.0,1.m4v,8.0
2024-02-28 10:11:39.731273,1709111499.7312732,-134.27734375,-21.97265625,-28.3203125,-164.55078125,0.0,0.0,0.0,0.0,1.m4v,8.0
2024-02-28 10:11:39.735178,1709111499.7351782,-136.71875,-29.296875,-33.69140625,-166.9921875,0.0,0.0,0.0,0.0,1.m4v,8.0
2024-02-28 10:11:39.739083,1709111499.7390833,-124.0234375,-42.96875,-27.83203125,-167.96875,0.0,0.0,0.0,0.0,1.m4v,8.0
2024-02-28 10:11:39.742988,1709111499.7429883,-150.390625,-31.25,-44.921875,-138.671875,0.0,0.0,0.0,0.0,1.m4v,8.0
2024-02-28 10:11:39.746893,1709111499.7468934,-172.8515625,-8.30078125,-56.640625,-173.828125,0.0,0.0,0.0,0.0,1.m4v,8.0
2024-02-28 10:11:39.750798,1709111499.7507985,-147.4609375,-2.9296875,-52.24609375,-164.0625,0.0,0.0,0.0,0.0,1.m4v,8.0
2024-02-28 10:11:39.754703,1709111499.7547033,-145.5078125,-20.5078125,-51.7578125,-138.18359375,0.0,0.0,0.0,0.0,1.m4v,8.0
2024-02-28 10:11:39.758619,1709111499.758619,-173.828125,-30.76171875,-38.57421875,-175.29296875,0.0,0.0,0.0,0.0,1.m4v,8.0
2024-02-28 10:11:39.762524,1709111499.762524,-150.87890625,5.37109375,-31.25,-170.41015625,0.0,0.0,0.0,0.0,1.m4v,8.0
2024-02-28 10:11:39.766429,1709111499.7664292,-147.4609375,16.6015625,-14.6484375,-186.03515625,0.0,0.0,0.0,0.0,1.m4v,8.0
2024-02-28 10:11:39.770334,1709111499.7703342,-167.96875,-23.92578125,13.671875,-218.26171875,0.0,0.0,0.0,0.0,1.m4v,8.0
2024-02-28 10:11:39.774239,1709111499.7742393,-170.41015625,-26.85546875,-10.25390625,-215.8203125,0.0,0.0,0.0,0.0,1.m4v,8.0
2024-02-28 10:11:39.778144,1709111499.778144,-151.85546875,0.48828125,-71.77734375,-160.64453125,0.0,0.0,0.0,0.0,1.m4v,8.0
2024-02-28 10:11:39.782049,1709111499.7820492,-115.234375,-19.04296875,-66.40625,-131.8359375,0.0,0.0,0.0,0.0,1.m4v,8.0
2024-02-28 10:11:39.785954,1709111499.7859542,-114.2578125,-30.2734375,-19.04296875,-147.94921875,0.0,0.0,0.0,0.0,1.m4v,8.0
2024-02-28 10:11:39.789859,1709111499.7898593,-128.90625,-17.578125,-28.3203125,-146.484375,0.0,0.0,0.0,0.0,1.m4v,8.0
2024-02-28 10:11:39.793764,1709111499.7937644,-126.46484375,-13.671875,-37.59765625,-99.12109375,0.0,0.0,0.0,0.0,1.m4v,8.0
2024-02-28 10:11:39.797669,1709111499.7976694,-106.93359375,-13.671875,-35.64453125,-90.33203125,0.0,0.0,0.0,0.0,1.m4v,8.0
2024-02-28 10:11:39.801574,1709111499.8015742,-80.078125,-23.92578125,-42.48046875,-98.6328125,0.0,0.0,0.0,0.0,1.m4v,8.0
2024-02-28 10:11:39.805489,1709111499.8054893,-73.73046875,-55.6640625,-29.78515625,-103.02734375,0.0,0.0,0.0,0.0,1.m4v,8.0
2024-02-28 10:11:39.809394,1709111499.809394,-97.16796875,-80.56640625,-25.87890625,-125.48828125,0.0,0.0,0.0,0.0,1.m4v,8.0
2024-02-28 10:11:39.813299,1709111499.8132992,-85.44921875,-53.22265625,-65.91796875,-89.84375,0.0,0.0,0.0,0.0,1.m4v,8.0
2024-02-28 10:11:39.817204,1709111499.8172042,-57.12890625,-33.69140625,-121.09375,-72.75390625,0.0,0.0,0.0,0.0,1.m4v,8.0
2024-02-28 10:11:39.821109,1709111499.8211093,-52.24609375,-43.9453125,-71.77734375,-76.66015625,0.0,0.0,0.0,0.0,1.m4v,8.0
2024-02-28 10:11:39.825014,1709111499.8250144,-45.8984375,-42.48046875,-16.6015625,-46.875,0.0,0.0,0.0,0.0,1.m4v,8.0
2024-02-28 10:11:39.828919,1709111499.8289192,-29.78515625,-25.390625,-30.76171875,-14.6484375,0.0,0.0,0.0,0.0,1.m4v,8.0
2024-02-28 10:11:39.832824,1709111499.8328242,-21.484375,-38.57421875,-46.38671875,-27.83203125,0.0,0.0,0.0,0.0,1.m4v,8.0
2024-02-28 10:11:39.836729,1709111499.8367293,-36.1328125,-82.03125,-35.15625,-30.76171875,0.0,0.0,0.0,0.0,1.m4v,8.0
2024-02-28 10:11:39.840634,1709111499.8406343,-58.59375,-92.28515625,-22.4609375,-49.8046875,0.0,0.0,0.0,0.0,1.m4v,8.0
2024-02-28 10:11:39.844539,1709111499.8445394,-59.5703125,-71.77734375,-38.57421875,-60.546875,0.0,0.0,0.0,0.0,1.m4v,8.0
2024-02-28 10:11:39.848444,1709111499.8484445,-49.8046875,-54.6875,-75.68359375,-24.4140625,0.0,0.0,0.0,0.0,1.m4v,8.0
2024-02-28 10:11:39.852358,1709111499.8523583,-35.15625,-41.9921875,-76.66015625,-23.92578125,0.0,0.0,0.0,0.0,1.m4v,8.0
2024-02-28 10:11:39.856263,1709111499.8562632,-22.4609375,-29.296875,-37.109375,-41.9921875,0.0,0.0,0.0,0.0,1.m4v,8.0
2024-02-28 10:11:39.860168,1709111499.8601682,-26.3671875,-27.34375,-34.1796875,-39.55078125,0.0,0.0,0.0,0.0,1.m4v,8.0
2024-02-28 10:11:39.864073,1709111499.8640733,-19.04296875,-19.53125,-55.17578125,12.20703125,0.0,0.0,0.0,0.0,1.m4v,8.0
2024-02-28 10:11:39.867978,1709111499.8679783,-12.6953125,-8.30078125,-56.15234375,5.37109375,0.0,0.0,0.0,0.0,1.m4v,8.0
2024-02-28 10:11:39.871883,1709111499.8718834,-17.578125,-37.59765625,-19.53125,-36.62109375,0.0,0.0,0.0,0.0,1.m4v,8.0
2024-02-28 10:11:39.875788,1709111499.8757885,-17.578125,-71.2890625,-5.859375,-31.73828125,0.0,0.0,0.0,0.0,1.m4v,8.0
2024-02-28 10:11:39.879693,1709111499.8796933,-43.9453125,-67.87109375,-27.34375,-28.3203125,0.0,0.0,0.0,0.0,1.m4v,8.0
2024-02-28 10:11:39.883598,1709111499.8835983,-45.41015625,-46.38671875,-35.15625,-22.94921875,0.0,0.0,0.0,0.0,1.m4v,8.0
2024-02-28 10:11:39.887503,1709111499.8875034,-17.578125,-41.015625,-33.203125,-4.8828125,0.0,0.0,0.0,0.0,1.m4v,8.0
2024-02-28 10:11:39.891408,1709111499.8914084,-7.8125,-58.59375,-40.0390625,-12.20703125,0.0,0.0,0.0,0.0,1.m4v,8.0
2024-02-28 10:11:39.895314,1709111499.8953135,-12.6953125,-61.03515625,-57.12890625,-18.06640625,0.0,0.0,0.0,0.0,1.m4v,8.0
2024-02-28 10:11:39.899226,1709111499.8992264,-15.625,-26.3671875,-74.70703125,14.16015625,0.0,0.0,0.0,0.0,1.m4v,8.0
2024-02-28 10:11:39.903131,1709111499.9031315,-27.83203125,-4.8828125,-48.33984375,-11.71875,0.0,0.0,0.0,0.0,1.m4v,8.0
2024-02-28 10:11:39.907037,1709111499.9070363,-32.2265625,-27.83203125,-38.0859375,-49.31640625,0.0,0.0,0.0,0.0,1.m4v,8.0
2024-02-28 10:11:39.910941,1709111499.9109414,-34.66796875,-50.29296875,-50.29296875,-48.828125,0.0,0.0,0.0,0.0,1.m4v,8.0
2024-02-28 10:11:39.914846,1709111499.9148464,-25.390625,-47.36328125,-32.2265625,-13.671875,0.0,0.0,0.0,0.0,1.m4v,8.0
2024-02-28 10:11:39.918751,1709111499.9187517,-15.625,-50.78125,-22.94921875,-10.25390625,0.0,0.0,0.0,0.0,1.m4v,8.0
2024-02-28 10:11:39.922657,1709111499.9226563,-1.953125,-44.43359375,-32.71484375,-26.85546875,0.0,0.0,0.0,0.0,1.m4v,8.0
2024-02-28 10:11:39.926562,1709111499.9265616,-5.859375,-48.33984375,-52.734375,-44.43359375,0.0,0.0,0.0,0.0,1.m4v,8.0
2024-02-28 10:11:39.930467,1709111499.930467,-21.484375,-60.05859375,-49.8046875,-48.828125,0.0,0.0,0.0,0.0,1.m4v,8.0
2024-02-28 10:11:39.934371,1709111499.9343717,-23.92578125,-48.33984375,-29.296875,-30.2734375,0.0,0.0,0.0,0.0,1.m4v,8.0
2024-02-28 10:11:39.938277,1709111499.9382763,-26.85546875,-30.2734375,-24.4140625,-39.0625,0.0,0.0,0.0,0.0,1.m4v,8.0
2024-02-28 10:11:39.942182,1709111499.9421816,-24.4140625,-38.57421875,-18.06640625,-40.52734375,0.0,0.0,0.0,0.0,1.m4v,8.0
2024-02-28 10:11:39.946095,1709111499.9460948,-21.484375,-54.6875,-16.11328125,-38.57421875,0.0,0.0,0.0,0.0,1.m4v,8.0
2024-02-28 10:11:39.950000,1709111499.9499996,-11.71875,-32.71484375,-44.43359375,-24.4140625,0.0,0.0,0.0,0.0,1.m4v,8.0
2024-02-28 10:11:39.953905,1709111499.9539046,-9.765625,-23.92578125,-39.55078125,-12.20703125,0.0,0.0,0.0,0.0,1.m4v,8.0
2024-02-28 10:11:39.957810,1709111499.9578097,-37.109375,-43.45703125,-4.39453125,-30.2734375,0.0,0.0,0.0,0.0,1.m4v,8.0
2024-02-28 10:11:39.961715,1709111499.9617147,-44.921875,-42.96875,-38.0859375,-35.64453125,0.0,0.0,0.0,0.0,1.m4v,8.0
2024-02-28 10:11:39.965620,1709111499.9656198,-41.50390625,-31.25,-71.2890625,-9.765625,0.0,0.0,0.0,0.0,1.m4v,8.0
2024-02-28 10:11:40.414805,1709111500.414805,-10.25390625,-46.38671875,-37.109375,5.859375,0.0,0.0,0.0,0.0,1.m4v,8.0
2024-02-28 10:11:40.418710,1709111500.41871,-32.2265625,-36.62109375,-34.66796875,-11.23046875,0.0,0.0,0.0,0.0,1.m4v,8.0
2024-02-28 10:11:40.422615,1709111500.422615,-20.99609375,-27.34375,-47.8515625,-15.13671875,0.0,0.0,0.0,0.0,1.m4v,8.0
2024-02-28 10:11:40.426520,1709111500.42652,-21.484375,-10.25390625,-66.40625,-15.625,0.0,0.0,0.0,0.0,1.m4v,8.0
2024-02-28 10:11:40.430425,1709111500.4304252,-52.734375,-8.7890625,-8.30078125,-41.9921875,0.0,0.0,0.0,0.0,1.m4v,8.0
2024-02-28 10:11:40.434330,1709111500.4343302,-57.6171875,-20.01953125,12.20703125,-46.875,0.0,0.0,0.0,0.0,1.m4v,8.0
2024-02-28 10:11:40.438235,1709111500.438235,-39.55078125,-25.390625,-17.578125,-35.15625,0.0,0.0,0.0,0.0,1.m4v,8.0
2024-02-28 10:11:40.442140,1709111500.44214,-35.15625,-48.33984375,-12.6953125,-45.8984375,0.0,0.0,0.0,0.0,1.m4v,8.0
2024-02-28 10:11:40.446045,1709111500.4460452,-41.9921875,-56.15234375,-9.765625,-75.1953125,0.0,0.0,0.0,0.0,1.m4v,8.0
2024-02-28 10:11:40.449950,1709111500.4499502,-27.34375,-46.38671875,-37.109375,-53.22265625,0.0,0.0,0.0,0.0,1.m4v,8.0
2024-02-28 10:11:40.453855,1709111500.4538553,-13.671875,-35.64453125,-40.52734375,-30.2734375,0.0,0.0,0.0,0.0,1.m4v,8.0
2024-02-28 10:11:40.457760,1709111500.4577603,-18.5546875,-26.85546875,-24.4140625,-24.90234375,0.0,0.0,0.0,0.0,1.m4v,8.0
2024-02-28 10:11:40.461677,1709111500.4616766,-28.80859375,-35.64453125,-28.80859375,-24.90234375,0.0,0.0,0.0,0.0,1.m4v,8.0
2024-02-28 10:11:40.465582,1709111500.4655817,-23.92578125,-31.73828125,-34.1796875,-37.59765625,0.0,0.0,0.0,0.0,1.m4v,8.0
2024-02-28 10:11:40.469487,1709111500.4694867,-24.90234375,-23.92578125,-36.1328125,-30.76171875,0.0,0.0,0.0,0.0,1.m4v,8.0
2024-02-28 10:11:40.473392,1709111500.4733918,-14.6484375,-35.15625,-52.734375,-22.4609375,0.0,0.0,0.0,0.0,1.m4v,8.0
2024-02-28 10:11:40.477297,1709111500.4772968,-7.8125,-36.1328125,-49.8046875,-10.25390625,0.0,0.0,0.0,0.0,1.m4v,8.0
2024-02-28 10:11:40.481202,1709111500.481202,-11.23046875,-43.9453125,-51.26953125,0.48828125,0.0,0.0,0.0,0.0,1.m4v,8.0
2024-02-28 10:11:40.485107,1709111500.4851067,-16.6015625,-46.875,-68.84765625,1.46484375,0.0,0.0,0.0,0.0,1.m4v,8.0
2024-02-28 10:11:40.489012,1709111500.4890118,-26.3671875,-32.2265625,-60.05859375,-9.27734375,0.0,0.0,0.0,0.0,1.m4v,8.0
2024-02-28 10:11:40.492917,1709111500.4929168,-23.4375,-15.625,-59.5703125,-43.45703125,0.0,0.0,0.0,0.0,1.m4v,8.0
2024-02-28 10:11:40.496822,1709111500.496822,-36.62109375,-7.8125,-49.31640625,-35.64453125,0.0,0.0,0.0,0.0,1.m4v,8.0
2024-02-28 10:11:40.500727,1709111500.500727,-40.52734375,-25.87890625,0.9765625,-59.5703125,0.0,0.0,0.0,0.0,1.m4v,8.0
2024-02-28 10:11:40.504632,1709111500.504632,-20.5078125,-32.71484375,23.4375,-87.890625,0.0,0.0,0.0,0.0,1.m4v,8.0
2024-02-28 10:11:40.508548,1709111500.5085475,-9.27734375,-18.5546875,3.90625,-31.73828125,0.0,0.0,0.0,0.0,1.m4v,8.0
2024-02-28 10:11:40.512453,1709111500.5124526,-31.73828125,-21.97265625,-7.32421875,-32.71484375,0.0,0.0,0.0,0.0,1.m4v,8.0
2024-02-28 10:11:40.516357,1709111500.5163574,-48.828125,-41.9921875,-7.32421875,-65.91796875,0.0,0.0,0.0,0.0,1.m4v,8.0
2024-02-28 10:11:40.520262,1709111500.5202625,-38.0859375,-51.7578125,-26.3671875,-39.0625,0.0,0.0,0.0,0.0,1.m4v,8.0
2024-02-28 10:11:40.524168,1709111500.5241675,-41.50390625,-38.57421875,-46.38671875,-33.203125,0.0,0.0,0.0,0.0,1.m4v,8.0
2024-02-28 10:11:40.528073,1709111500.5280726,-41.50390625,-22.94921875,-41.50390625,-42.96875,0.0,0.0,0.0,0.0,1.m4v,8.0
2024-02-28 10:11:40.531978,1709111500.5319777,-38.0859375,-29.78515625,-57.6171875,-37.109375,0.0,0.0,0.0,0.0,1.m4v,8.0
2024-02-28 10:11:40.535883,1709111500.5358827,-37.109375,-51.7578125,-79.1015625,-31.25,0.0,0.0,0.0,0.0,1.m4v,8.0
2024-02-28 10:11:40.539788,1709111500.5397875,-33.69140625,-52.24609375,-50.78125,-31.73828125,0.0,0.0,0.0,0.0,1.m4v,8.0
2024-02-28 10:11:40.543693,1709111500.5436926,-17.08984375,-33.69140625,-32.71484375,-36.1328125,0.0,0.0,0.0,0.0,1.m4v,8.0
2024-02-28 10:11:40.547598,1709111500.5475976,-17.08984375,-28.80859375,-35.15625,-36.62109375,0.0,0.0,0.0,0.0,1.m4v,8.0
2024-02-28 10:11:40.551503,1709111500.5515027,-24.4140625,-41.015625,-29.78515625,-11.71875,0.0,0.0,0.0,0.0,1.m4v,8.0
2024-02-28 10:11:40.555417,1709111500.5554173,-7.8125,-47.8515625,-32.71484375,30.2734375,0.0,0.0,0.0,0.0,1.m4v,8.0
2024-02-28 10:11:40.559322,1709111500.5593224,19.04296875,-19.04296875,-72.265625,48.828125,0.0,0.0,0.0,0.0,1.m4v,8.0
2024-02-28 10:11:40.563227,1709111500.5632274,29.296875,-30.2734375,-87.890625,12.20703125,0.0,0.0,0.0,0.0,1.m4v,8.0
2024-02-28 10:11:40.567132,1709111500.5671325,-4.8828125,-62.98828125,-60.546875,-23.4375,0.0,0.0,0.0,0.0,1.m4v,8.0
2024-02-28 10:11:40.571038,1709111500.5710375,2.9296875,-41.50390625,-59.08203125,-3.90625,0.0,0.0,0.0,0.0,1.m4v,8.0
2024-02-28 10:11:40.574943,1709111500.5749426,2.9296875,-34.66796875,-46.875,-1.46484375,0.0,0.0,0.0,0.0,1.m4v,8.0
2024-02-28 10:11:40.578847,1709111500.5788474,-36.1328125,-29.296875,7.32421875,-17.08984375,0.0,0.0,0.0,0.0,1.m4v,8.0
2024-02-28 10:11:40.582752,1709111500.5827525,-36.1328125,-11.23046875,30.2734375,-44.43359375,0.0,0.0,0.0,0.0,1.m4v,8.0
2024-02-28 10:11:40.586658,1709111500.5866575,-15.13671875,-25.390625,8.30078125,-23.4375,0.0,0.0,0.0,0.0,1.m4v,8.0
2024-02-28 10:11:40.590563,1709111500.5905626,8.7890625,-39.0625,-3.90625,43.45703125,0.0,0.0,0.0,0.0,1.m4v,8.0
2024-02-28 10:11:40.594468,1709111500.5944676,2.44140625,-34.66796875,-25.87890625,18.06640625,0.0,0.0,0.0,0.0,1.m4v,8.0
2024-02-28 10:11:40.598373,1709111500.5983727,-3.41796875,-58.59375,-42.48046875,8.30078125,0.0,0.0,0.0,0.0,1.m4v,8.0
2024-02-28 10:11:40.602287,1709111500.6022873,18.5546875,-69.3359375,-26.3671875,62.01171875,0.0,0.0,0.0,0.0,1.m4v,8.0
2024-02-28 10:11:40.606192,1709111500.6061924,14.6484375,-42.48046875,-24.4140625,39.0625,0.0,0.0,0.0,0.0,1.m4v,8.0
2024-02-28 10:11:40.610097,1709111500.6100974,1.953125,-17.578125,-48.828125,20.5078125,0.0,0.0,0.0,0.0,1.m4v,8.0
2024-02-28 10:11:40.614002,1709111500.6140022,25.87890625,-27.34375,-81.0546875,54.19921875,0.0,0.0,0.0,0.0,1.m4v,8.0
2024-02-28 10:11:40.617907,1709111500.6179073,35.15625,-47.36328125,-76.66015625,44.921875,0.0,0.0,0.0,0.0,1.m4v,8.0
2024-02-28 10:11:40.621812,1709111500.6218123,14.16015625,-23.92578125,-21.97265625,8.30078125,0.0,0.0,0.0,0.0,1.m4v,8.0
2024-02-28 10:11:40.625717,1709111500.6257174,2.9296875,-4.39453125,17.578125,-6.8359375,0.0,0.0,0.0,0.0,1.m4v,8.0
2024-02-28 10:11:40.629622,1709111500.6296225,-6.8359375,-13.671875,8.30078125,14.6484375,0.0,0.0,0.0,0.0,1.m4v,8.0
2024-02-28 10:11:40.633528,1709111500.6335275,1.46484375,-25.390625,-11.71875,21.97265625,0.0,0.0,0.0,0.0,1.m4v,8.0
2024-02-28 10:11:40.637432,1709111500.6374323,20.5078125,-29.296875,-30.76171875,23.92578125,0.0,0.0,0.0,0.0,1.m4v,8.0
2024-02-28 10:11:40.641337,1709111500.6413374,9.27734375,-23.4375,-48.828125,28.3203125,0.0,0.0,0.0,0.0,1.m4v,8.0
2024-02-28 10:11:40.645242,1709111500.6452425,17.08984375,-33.203125,-48.33984375,11.23046875,0.0,0.0,0.0,0.0,1.m4v,8.0
2024-02-28 10:11:40.649156,1709111500.6491556,41.50390625,-67.3828125,-61.03515625,18.5546875,0.0,0.0,0.0,0.0,1.m4v,8.0
2024-02-28 10:11:40.653061,1709111500.653061,37.109375,-66.89453125,-54.19921875,41.9921875,0.0,0.0,0.0,0.0,1.m4v,8.0
2024-02-28 10:11:40.656966,1709111500.6569655,16.11328125,-38.0859375,-23.92578125,34.66796875,0.0,0.0,0.0,0.0,1.m4v,8.0
2024-02-28 10:11:40.660871,1709111500.6608706,-12.20703125,-12.6953125,-44.43359375,3.41796875,0.0,0.0,0.0,0.0,1.m4v,8.0
2024-02-28 10:11:40.664776,1709111500.6647756,-16.11328125,-8.7890625,-84.47265625,-1.953125,0.0,0.0,0.0,0.0,1.m4v,8.0
2024-02-28 10:11:40.668681,1709111500.668681,-8.30078125,-27.83203125,-61.5234375,0.9765625,0.0,0.0,0.0,0.0,1.m4v,8.0
2024-02-28 10:11:40.672586,1709111500.6725855,-6.8359375,-25.390625,-12.6953125,-6.34765625,0.0,0.0,0.0,0.0,1.m4v,8.0
2024-02-28 10:11:40.676491,1709111500.6764908,-20.99609375,-21.484375,-2.9296875,-19.53125,0.0,0.0,0.0,0.0,1.m4v,8.0
2024-02-28 10:11:40.680396,1709111500.6803958,-40.0390625,-32.71484375,-17.578125,-24.90234375,0.0,0.0,0.0,0.0,1.m4v,8.0
2024-02-28 10:11:40.684301,1709111500.684301,-13.671875,-36.1328125,-32.2265625,6.34765625,0.0,0.0,0.0,0.0,1.m4v,8.0
2024-02-28 10:11:40.688206,1709111500.6882057,14.6484375,-38.57421875,-38.0859375,21.484375,0.0,0.0,0.0,0.0,1.m4v,8.0
2024-02-28 10:11:40.692111,1709111500.6921108,-8.30078125,-59.08203125,-27.83203125,-3.90625,0.0,0.0,0.0,0.0,1.m4v,8.0
2024-02-28 10:11:40.696023,1709111500.696023,-46.38671875,-49.8046875,-21.484375,-41.9921875,0.0,0.0,0.0,0.0,1.m4v,8.0
2024-02-28 10:11:40.699928,1709111500.699928,-49.31640625,-6.34765625,-30.2734375,-43.45703125,0.0,0.0,0.0,0.0,1.m4v,8.0
2024-02-28 10:11:40.703833,1709111500.703833,-32.2265625,7.8125,-28.3203125,-17.08984375,0.0,0.0,0.0,0.0,1.m4v,8.0
2024-02-28 10:11:40.707738,1709111500.707738,-21.484375,-13.671875,-51.26953125,11.71875,0.0,0.0,0.0,0.0,1.m4v,8.0
2024-02-28 10:11:40.711643,1709111500.711643,-22.4609375,-34.1796875,-70.3125,16.11328125,0.0,0.0,0.0,0.0,1.m4v,8.0
2024-02-28 10:11:40.715548,1709111500.715548,-25.390625,-42.48046875,-38.0859375,-20.99609375,0.0,0.0,0.0,0.0,1.m4v,8.0
2024-02-28 10:11:40.719453,1709111500.719453,-35.15625,-46.38671875,-28.3203125,-27.34375,0.0,0.0,0.0,0.0,1.m4v,8.0
2024-02-28 10:11:40.723358,1709111500.7233582,-40.0390625,-34.1796875,-24.90234375,-33.69140625,0.0,0.0,0.0,0.0,1.m4v,8.0
2024-02-28 10:11:40.727263,1709111500.7272632,-33.69140625,-37.109375,-8.7890625,-56.640625,0.0,0.0,0.0,0.0,1.m4v,8.0
2024-02-28 10:11:40.731168,1709111500.731168,-46.875,-41.50390625,-24.90234375,-44.921875,0.0,0.0,0.0,0.0,1.m4v,8.0
2024-02-28 10:11:40.735073,1709111500.735073,-29.78515625,-23.4375,-40.52734375,-35.15625,0.0,0.0,0.0,0.0,1.m4v,8.0
2024-02-28 10:11:40.738978,1709111500.738978,-14.6484375,-32.71484375,-37.59765625,-37.59765625,0.0,0.0,0.0,0.0,1.m4v,8.0
2024-02-28 10:11:40.742889,1709111500.7428894,-26.3671875,-50.29296875,-27.34375,15.625,0.0,0.0,0.0,0.0,1.m4v,8.0
2024-02-28 10:11:40.746794,1709111500.7467945,-20.01953125,-26.3671875,-41.015625,20.01953125,0.0,0.0,0.0,0.0,1.m4v,8.0
2024-02-28 10:11:40.750700,1709111500.7506995,-5.859375,-21.97265625,-59.08203125,-27.83203125,0.0,0.0,0.0,0.0,1.m4v,8.0
2024-02-28 10:11:40.754605,1709111500.7546046,-14.16015625,-41.50390625,-48.828125,-38.0859375,0.0,0.0,0.0,0.0,1.m4v,8.0
2024-02-28 10:11:40.758510,1709111500.7585096,-27.34375,-14.6484375,-39.0625,-27.34375,0.0,0.0,0.0,0.0,1.m4v,8.0
2024-02-28 10:11:40.762414,1709111500.7624145,-15.13671875,7.32421875,-33.69140625,-17.578125,0.0,0.0,0.0,0.0,1.m4v,8.0
2024-02-28 10:11:40.766320,1709111500.7663195,-29.78515625,-17.08984375,-19.04296875,-17.08984375,0.0,0.0,0.0,0.0,1.m4v,8.0
2024-02-28 10:11:40.770225,1709111500.7702246,-51.7578125,-38.57421875,-16.11328125,-32.71484375,0.0,0.0,0.0,0.0,1.m4v,8.0
2024-02-28 10:11:40.774130,1709111500.7741296,-54.19921875,-42.96875,-13.671875,-62.5,0.0,0.0,0.0,0.0,1.m4v,8.0
2024-02-28 10:11:40.778035,1709111500.7780347,-26.85546875,-58.59375,-20.99609375,-56.640625,0.0,0.0,0.0,0.0,1.m4v,8.0
2024-02-28 10:11:40.781940,1709111500.7819395,-23.4375,-72.75390625,-41.9921875,-41.9921875,0.0,0.0,0.0,0.0,1.m4v,8.0
2024-02-28 10:11:40.785845,1709111500.7858446,-34.1796875,-64.453125,-43.45703125,-33.203125,0.0,0.0,0.0,0.0,1.m4v,8.0
2024-02-28 10:11:40.789762,1709111500.7897618,-29.78515625,-32.71484375,-44.921875,-15.625,0.0,0.0,0.0,0.0,1.m4v,8.0
2024-02-28 10:11:40.793667,1709111500.7936668,-41.9921875,-1.953125,-64.453125,-20.5078125,0.0,0.0,0.0,0.0,1.m4v,8.0
2024-02-28 10:11:40.797572,1709111500.797572,-29.78515625,-24.90234375,-69.3359375,-6.34765625,0.0,0.0,0.0,0.0,1.m4v,8.0
2024-02-28 10:11:40.801477,1709111500.801477,-1.953125,-53.22265625,-62.01171875,-10.7421875,0.0,0.0,0.0,0.0,1.m4v,8.0
2024-02-28 10:11:40.805382,1709111500.805382,-7.32421875,-24.4140625,-31.73828125,-32.71484375,0.0,0.0,0.0,0.0,1.m4v,8.0
2024-02-28 10:11:40.809287,1709111500.809287,-22.94921875,-2.44140625,-7.32421875,-38.0859375,0.0,0.0,0.0,0.0,1.m4v,8.0
2024-02-28 10:11:40.813192,1709111500.813192,-22.4609375,-17.578125,3.41796875,-51.26953125,0.0,0.0,0.0,0.0,1.m4v,8.0
2024-02-28 10:11:40.817097,1709111500.817097,-19.04296875,-39.55078125,0.9765625,-70.3125,0.0,0.0,0.0,0.0,1.m4v,8.0
2024-02-28 10:11:40.821002,1709111500.821002,-20.5078125,-34.66796875,-28.80859375,-59.5703125,0.0,0.0,0.0,0.0,1.m4v,8.0
2024-02-28 10:11:40.824907,1709111500.824907,-22.4609375,-19.53125,-52.734375,-20.5078125,0.0,0.0,0.0,0.0,1.m4v,8.0
2024-02-28 10:11:40.828812,1709111500.828812,-14.6484375,-21.484375,-45.41015625,-22.94921875,0.0,0.0,0.0,0.0,1.m4v,8.0
2024-02-28 10:11:40.832717,1709111500.8327172,0.0,-40.52734375,-37.59765625,-19.04296875,0.0,0.0,0.0,0.0,1.m4v,8.0
2024-02-28 10:11:40.836634,1709111500.8366337,1.46484375,-48.828125,-34.1796875,-4.8828125,0.0,0.0,0.0,0.0,1.m4v,8.0
2024-02-28 10:11:40.840539,1709111500.8405385,-20.5078125,-33.69140625,-19.04296875,-35.15625,0.0,0.0,0.0,0.0,1.m4v,8.0
2024-02-28 10:11:40.844444,1709111500.8444436,-30.76171875,-16.6015625,-8.30078125,-55.17578125,0.0,0.0,0.0,0.0,1.m4v,8.0
2024-02-28 10:11:40.848349,1709111500.8483486,-26.85546875,-33.69140625,-21.484375,-62.5,0.0,0.0,0.0,0.0,1.m4v,8.0
2024-02-28 10:11:40.852254,1709111500.8522537,-37.109375,-39.55078125,-27.83203125,-38.57421875,0.0,0.0,0.0,0.0,1.m4v,8.0
2024-02-28 10:11:40.856159,1709111500.8561587,-31.73828125,-13.671875,-33.69140625,-28.80859375,0.0,0.0,0.0,0.0,1.m4v,8.0
2024-02-28 10:11:40.860064,1709111500.8600638,-26.3671875,-8.7890625,-46.875,-17.578125,0.0,0.0,0.0,0.0,1.m4v,8.0
2024-02-28 10:11:40.863969,1709111500.8639688,-22.4609375,-13.18359375,-47.36328125,-10.7421875,0.0,0.0,0.0,0.0,1.m4v,8.0
2024-02-28 10:11:40.867874,1709111500.8678737,-8.30078125,-24.4140625,-47.36328125,-38.0859375,0.0,0.0,0.0,0.0,1.m4v,8.0
2024-02-28 10:11:40.871779,1709111500.8717787,-21.484375,-46.875,-45.41015625,-26.3671875,0.0,0.0,0.0,0.0,1.m4v,8.0
2024-02-28 10:11:40.875684,1709111500.8756838,-23.4375,-32.2265625,-43.45703125,-32.71484375,0.0,0.0,0.0,0.0,1.m4v,8.0
2024-02-28 10:11:40.879589,1709111500.8795888,-33.203125,-22.4609375,-35.15625,-51.26953125,0.0,0.0,0.0,0.0,1.m4v,8.0
2024-02-28 10:11:40.883504,1709111500.8835044,-35.15625,-53.22265625,-18.5546875,-32.2265625,0.0,0.0,0.0,0.0,1.m4v,8.0
2024-02-28 10:11:40.887409,1709111500.8874094,-25.390625,-50.78125,-36.62109375,-39.55078125,0.0,0.0,0.0,0.0,1.m4v,8.0
2024-02-28 10:11:40.891315,1709111500.8913145,-24.90234375,-29.296875,-53.22265625,-26.3671875,0.0,0.0,0.0,0.0,1.m4v,8.0
2024-02-28 10:11:40.895220,1709111500.8952196,-23.4375,-16.11328125,-49.31640625,-21.97265625,0.0,0.0,0.0,0.0,1.m4v,8.0
2024-02-28 10:11:40.899125,1709111500.8991246,-13.671875,-16.11328125,-37.109375,-46.38671875,0.0,0.0,0.0,0.0,1.m4v,8.0
2024-02-28 10:11:40.903030,1709111500.9030297,-7.8125,-24.90234375,-29.78515625,-46.38671875,0.0,0.0,0.0,0.0,1.m4v,8.0
2024-02-28 10:11:40.906934,1709111500.9069345,-9.27734375,-9.27734375,-29.78515625,-43.9453125,0.0,0.0,0.0,0.0,1.m4v,8.0
2024-02-28 10:11:40.910840,1709111500.9108396,-13.18359375,-14.6484375,-31.73828125,-20.99609375,0.0,0.0,0.0,0.0,1.m4v,8.0
2024-02-28 10:11:40.914745,1709111500.9147446,-6.8359375,-16.11328125,-46.38671875,-6.8359375,0.0,0.0,0.0,0.0,1.m4v,8.0
2024-02-28 10:11:40.918650,1709111500.9186497,-19.04296875,0.0,-51.7578125,-20.5078125,0.0,0.0,0.0,0.0,1.m4v,8.0
2024-02-28 10:11:40.922555,1709111500.9225547,-32.2265625,-6.34765625,-40.0390625,-55.17578125,0.0,0.0,0.0,0.0,1.m4v,8.0
2024-02-28 10:11:40.926460,1709111500.9264598,-16.6015625,-10.7421875,-38.57421875,-65.91796875,0.0,0.0,0.0,0.0,1.m4v,8.0
2024-02-28 10:11:40.930374,1709111500.9303744,-18.5546875,-18.06640625,-41.015625,-49.31640625,0.0,0.0,0.0,0.0,1.m4v,8.0
2024-02-28 10:11:40.934279,1709111500.9342794,-32.71484375,-40.0390625,-49.8046875,-43.45703125,0.0,0.0,0.0,0.0,1.m4v,8.0
2024-02-28 10:11:40.938184,1709111500.9381845,-28.80859375,-56.15234375,-70.80078125,-33.203125,0.0,0.0,0.0,0.0,1.m4v,8.0
2024-02-28 10:11:40.942089,1709111500.942089,-15.13671875,-37.109375,-59.08203125,-26.3671875,0.0,0.0,0.0,0.0,1.m4v,8.0
2024-02-28 10:11:40.945994,1709111500.9459944,-18.06640625,-12.20703125,-56.15234375,4.39453125,0.0,0.0,0.0,0.0,1.m4v,8.0
2024-02-28 10:11:40.949899,1709111500.9498994,-35.15625,-17.578125,-55.17578125,-8.7890625,0.0,0.0,0.0,0.0,1.m4v,8.0
2024-02-28 10:11:40.953804,1709111500.9538045,-46.38671875,-23.92578125,-20.01953125,-38.57421875,0.0,0.0,0.0,0.0,1.m4v,8.0
2024-02-28 10:11:40.957710,1709111500.9577096,-41.9921875,-47.8515625,-21.484375,-20.99609375,0.0,0.0,0.0,0.0,1.m4v,8.0
2024-02-28 10:11:40.961615,1709111500.9616146,-11.23046875,-54.6875,-62.01171875,-11.23046875,0.0,0.0,0.0,0.0,1.m4v,8.0
2024-02-28 10:11:40.965519,1709111500.9655194,-4.8828125,-16.11328125,-64.453125,-29.78515625,0.0,0.0,0.0,0.0,1.m4v,8.0
2024-02-28 10:11:40.969424,1709111500.9694245,-36.62109375,-1.46484375,-29.78515625,-58.59375,0.0,0.0,0.0,0.0,1.m4v,8.0
2024-02-28 10:11:40.973330,1709111500.9733295,-31.25,-21.97265625,-19.53125,-45.41015625,0.0,0.0,0.0,0.0,1.m4v,8.0
2024-02-28 10:11:40.977245,1709111500.9772446,-22.94921875,-36.1328125,-36.1328125,-20.5078125,0.0,0.0,0.0,0.0,1.m4v,8.0
2024-02-28 10:11:40.981149,1709111500.9811494,-20.5078125,-26.3671875,-42.48046875,-23.92578125,0.0,0.0,0.0,0.0,1.m4v,8.0
2024-02-28 10:11:40.985054,1709111500.9850545,-14.16015625,-34.66796875,-34.1796875,-26.85546875,0.0,0.0,0.0,0.0,1.m4v,8.0
2024-02-28 10:11:40.988960,1709111500.9889596,-4.39453125,-43.9453125,-39.55078125,-6.34765625,0.0,0.0,0.0,0.0,1.m4v,8.0
2024-02-28 10:11:40.992865,1709111500.9928646,-5.859375,-25.390625,-39.55078125,-2.9296875,0.0,0.0,0.0,0.0,1.m4v,8.0
2024-02-28 10:11:40.996770,1709111500.9967697,-24.90234375,-10.7421875,-33.203125,-38.0859375,0.0,0.0,0.0,0.0,1.m4v,8.0
2024-02-28 10:11:41.399069,1709111501.3990693,-47.8515625,-59.08203125,1.46484375,-54.6875,0.0,0.0,0.0,0.0,1.m4v,8.0
2024-02-28 10:11:41.402974,1709111501.4029744,-40.0390625,-39.0625,-9.765625,-57.6171875,0.0,0.0,0.0,0.0,1.m4v,8.0
2024-02-28 10:11:41.406879,1709111501.4068794,-28.80859375,-49.8046875,-26.85546875,-40.52734375,0.0,0.0,0.0,0.0,1.m4v,8.0
2024-02-28 10:11:41.410784,1709111501.4107845,-13.671875,-71.77734375,-56.15234375,-30.2734375,0.0,0.0,0.0,0.0,1.m4v,8.0
2024-02-28 10:11:41.414690,1709111501.4146895,3.41796875,-51.7578125,-85.44921875,-13.18359375,0.0,0.0,0.0,0.0,1.m4v,8.0
2024-02-28 10:11:41.418594,1709111501.4185944,-20.99609375,-19.04296875,-71.2890625,-6.34765625,0.0,0.0,0.0,0.0,1.m4v,8.0
2024-02-28 10:11:41.422499,1709111501.4224994,-37.109375,-14.16015625,-43.9453125,1.953125,0.0,0.0,0.0,0.0,1.m4v,8.0
2024-02-28 10:11:41.426404,1709111501.4264045,-34.1796875,-39.55078125,-20.99609375,-32.2265625,0.0,0.0,0.0,0.0,1.m4v,8.0
2024-02-28 10:11:41.430310,1709111501.4303095,-22.4609375,-56.640625,-11.71875,-54.6875,0.0,0.0,0.0,0.0,1.m4v,8.0
2024-02-28 10:11:41.434215,1709111501.4342146,7.8125,-41.015625,-37.109375,-4.8828125,0.0,0.0,0.0,0.0,1.m4v,8.0
2024-02-28 10:11:41.438120,1709111501.4381196,-16.6015625,-33.203125,-52.734375,4.8828125,0.0,0.0,0.0,0.0,1.m4v,8.0
2024-02-28 10:11:41.442025,1709111501.4420247,-64.94140625,-44.921875,-36.62109375,-42.96875,0.0,0.0,0.0,0.0,1.m4v,8.0
2024-02-28 10:11:41.445938,1709111501.4459376,-54.19921875,-48.828125,-20.5078125,-68.84765625,0.0,0.0,0.0,0.0,1.m4v,8.0
2024-02-28 10:11:41.449843,1709111501.4498427,-31.25,-58.59375,-9.765625,-68.359375,0.0,0.0,0.0,0.0,1.m4v,8.0
2024-02-28 10:11:41.453748,1709111501.4537475,-24.90234375,-62.01171875,-6.8359375,-60.05859375,0.0,0.0,0.0,0.0,1.m4v,8.0
2024-02-28 10:11:41.457653,1709111501.4576526,-22.4609375,-45.8984375,-21.97265625,-37.59765625,0.0,0.0,0.0,0.0,1.m4v,8.0
2024-02-28 10:11:41.461558,1709111501.4615576,-11.71875,-40.0390625,-46.875,-32.2265625,0.0,0.0,0.0,0.0,1.m4v,8.0
2024-02-28 10:11:41.465463,1709111501.4654627,-10.7421875,-26.3671875,-63.4765625,-37.109375,0.0,0.0,0.0,0.0,1.m4v,8.0
2024-02-28 10:11:41.469368,1709111501.4693675,-10.25390625,-36.62109375,-42.96875,-32.2265625,0.0,0.0,0.0,0.0,1.m4v,8.0
2024-02-28 10:11:41.473273,1709111501.4732728,-10.25390625,-50.78125,-14.16015625,-26.85546875,0.0,0.0,0.0,0.0,1.m4v,8.0
2024-02-28 10:11:41.477178,1709111501.477178,-30.2734375,-36.1328125,-6.34765625,-39.55078125,0.0,0.0,0.0,0.0,1.m4v,8.0
2024-02-28 10:11:41.481083,1709111501.481083,-40.52734375,-36.62109375,-18.06640625,-38.57421875,0.0,0.0,0.0,0.0,1.m4v,8.0
2024-02-28 10:11:41.484988,1709111501.4849875,-29.78515625,-44.43359375,-35.64453125,-56.15234375,0.0,0.0,0.0,0.0,1.m4v,8.0
2024-02-28 10:11:41.488893,1709111501.4888928,-15.625,-56.15234375,-32.71484375,-62.5,0.0,0.0,0.0,0.0,1.m4v,8.0
2024-02-28 10:11:41.492804,1709111501.4928043,3.41796875,-52.24609375,-40.0390625,-29.78515625,0.0,0.0,0.0,0.0,1.m4v,8.0
2024-02-28 10:11:41.496709,1709111501.496709,3.41796875,-32.71484375,-68.84765625,-10.25390625,0.0,0.0,0.0,0.0,1.m4v,8.0
2024-02-28 10:11:41.500614,1709111501.5006142,-8.7890625,-18.5546875,-85.9375,-33.69140625,0.0,0.0,0.0,0.0,1.m4v,8.0
2024-02-28 10:11:41.504519,1709111501.5045192,-29.296875,-20.01953125,-51.26953125,-49.8046875,0.0,0.0,0.0,0.0,1.m4v,8.0
2024-02-28 10:11:41.508424,1709111501.5084243,-33.69140625,-27.83203125,-21.484375,-53.7109375,0.0,0.0,0.0,0.0,1.m4v,8.0
2024-02-28 10:11:41.512329,1709111501.512329,-10.25390625,-25.390625,-14.16015625,-18.06640625,0.0,0.0,0.0,0.0,1.m4v,8.0
2024-02-28 10:11:41.516234,1709111501.5162344,-4.39453125,-29.296875,-10.25390625,-1.46484375,0.0,0.0,0.0,0.0,1.m4v,8.0
2024-02-28 10:11:41.520139,1709111501.5201397,2.44140625,-55.17578125,-45.8984375,-31.25,0.0,0.0,0.0,0.0,1.m4v,8.0
2024-02-28 10:11:41.524044,1709111501.5240445,11.71875,-73.73046875,-42.96875,-61.03515625,0.0,0.0,0.0,0.0,1.m4v,8.0
2024-02-28 10:11:41.527949,1709111501.527949,-21.484375,-49.31640625,8.30078125,-55.6640625,0.0,0.0,0.0,0.0,1.m4v,8.0
2024-02-28 10:11:41.531854,1709111501.5318544,-54.6875,-23.4375,11.71875,-47.8515625,0.0,0.0,0.0,0.0,1.m4v,8.0
2024-02-28 10:11:41.535759,1709111501.5357594,-52.734375,-20.99609375,-19.53125,-83.0078125,0.0,0.0,0.0,0.0,1.m4v,8.0
2024-02-28 10:11:41.539677,1709111501.539677,-43.9453125,-24.90234375,-39.55078125,-83.0078125,0.0,0.0,0.0,0.0,1.m4v,8.0
2024-02-28 10:11:41.543582,1709111501.5435815,-25.390625,-22.94921875,-44.43359375,-19.53125,0.0,0.0,0.0,0.0,1.m4v,8.0
2024-02-28 10:11:41.547487,1709111501.5474868,-24.4140625,-29.296875,-47.8515625,4.8828125,0.0,0.0,0.0,0.0,1.m4v,8.0
2024-02-28 10:11:41.551392,1709111501.5513916,-21.97265625,-49.31640625,-52.734375,-39.0625,0.0,0.0,0.0,0.0,1.m4v,8.0
2024-02-28 10:11:41.555297,1709111501.555297,-9.765625,-61.5234375,-58.59375,-35.15625,0.0,0.0,0.0,0.0,1.m4v,8.0
2024-02-28 10:11:41.559202,1709111501.5592017,-17.578125,-53.7109375,-55.6640625,-45.41015625,0.0,0.0,0.0,0.0,1.m4v,8.0
2024-02-28 10:11:41.563107,1709111501.5631068,-27.34375,-43.45703125,4.39453125,-70.3125,0.0,0.0,0.0,0.0,1.m4v,8.0
2024-02-28 10:11:41.567012,1709111501.5670118,-21.97265625,-28.80859375,22.4609375,-58.10546875,0.0,0.0,0.0,0.0,1.m4v,8.0
2024-02-28 10:11:41.570917,1709111501.570917,-22.94921875,-9.27734375,-21.97265625,-46.38671875,0.0,0.0,0.0,0.0,1.m4v,8.0
2024-02-28 10:11:41.574822,1709111501.5748217,-24.4140625,-16.6015625,-30.2734375,-27.34375,0.0,0.0,0.0,0.0,1.m4v,8.0
2024-02-28 10:11:41.578727,1709111501.5787268,-26.85546875,-30.76171875,-42.48046875,-0.48828125,0.0,0.0,0.0,0.0,1.m4v,8.0
2024-02-28 10:11:41.582632,1709111501.5826318,-20.5078125,-24.4140625,-82.03125,34.1796875,0.0,0.0,0.0,0.0,1.m4v,8.0
2024-02-28 10:11:41.586549,1709111501.5865486,-18.5546875,-42.48046875,-83.984375,-21.97265625,0.0,0.0,0.0,0.0,1.m4v,8.0
2024-02-28 10:11:41.590454,1709111501.5904536,-35.15625,-62.5,-7.32421875,-82.51953125,0.0,0.0,0.0,0.0,1.m4v,8.0
2024-02-28 10:11:41.594358,1709111501.5943584,-42.96875,-40.0390625,39.55078125,-73.73046875,0.0,0.0,0.0,0.0,1.m4v,8.0
2024-02-28 10:11:41.598264,1709111501.5982635,-22.4609375,-18.06640625,11.71875,-74.21875,0.0,0.0,0.0,0.0,1.m4v,8.0
2024-02-28 10:11:41.602169,1709111501.6021686,-14.16015625,-17.578125,-27.83203125,-52.24609375,0.0,0.0,0.0,0.0,1.m4v,8.0
2024-02-28 10:11:41.606074,1709111501.6060736,-12.20703125,-24.4140625,-15.13671875,-12.20703125,0.0,0.0,0.0,0.0,1.m4v,8.0
2024-02-28 10:11:41.609979,1709111501.609979,6.34765625,-18.5546875,-30.76171875,12.6953125,0.0,0.0,0.0,0.0,1.m4v,8.0
2024-02-28 10:11:41.613884,1709111501.6138835,-10.25390625,-22.94921875,-77.63671875,32.2265625,0.0,0.0,0.0,0.0,1.m4v,8.0
2024-02-28 10:11:41.617789,1709111501.6177886,-35.64453125,-57.12890625,-62.98828125,-20.5078125,0.0,0.0,0.0,0.0,1.m4v,8.0
2024-02-28 10:11:41.621694,1709111501.6216936,-18.06640625,-85.9375,-36.62109375,-83.49609375,0.0,0.0,0.0,0.0,1.m4v,8.0
2024-02-28 10:11:41.625599,1709111501.625599,-40.0390625,-80.56640625,17.578125,-83.49609375,0.0,0.0,0.0,0.0,1.m4v,8.0
2024-02-28 10:11:41.629504,1709111501.6295035,-64.94140625,-33.69140625,30.2734375,-76.66015625,0.0,0.0,0.0,0.0,1.m4v,8.0
2024-02-28 10:11:41.633419,1709111501.6334193,-38.0859375,-0.48828125,-10.25390625,-34.66796875,0.0,0.0,0.0,0.0,1.m4v,8.0
2024-02-28 10:11:41.637324,1709111501.6373243,-12.6953125,-5.37109375,-36.62109375,-24.4140625,0.0,0.0,0.0,0.0,1.m4v,8.0
2024-02-28 10:11:41.641229,1709111501.6412294,-6.8359375,-17.08984375,-34.66796875,-31.73828125,0.0,0.0,0.0,0.0,1.m4v,8.0
2024-02-28 10:11:41.645134,1709111501.6451344,-22.94921875,-29.296875,-22.94921875,-33.69140625,0.0,0.0,0.0,0.0,1.m4v,8.0
2024-02-28 10:11:41.649040,1709111501.6490395,-0.9765625,-24.90234375,-53.7109375,-2.9296875,0.0,0.0,0.0,0.0,1.m4v,8.0
2024-02-28 10:11:41.652944,1709111501.6529443,17.578125,-24.90234375,-76.66015625,30.76171875,0.0,0.0,0.0,0.0,1.m4v,8.0
2024-02-28 10:11:41.656849,1709111501.6568494,-15.13671875,-40.0390625,-60.05859375,-23.92578125,0.0,0.0,0.0,0.0,1.m4v,8.0
2024-02-28 10:11:41.660754,1709111501.6607544,-44.921875,-39.0625,-27.83203125,-66.40625,0.0,0.0,0.0,0.0,1.m4v,8.0
2024-02-28 10:11:41.664660,1709111501.6646595,-46.875,-21.484375,18.06640625,-65.91796875,0.0,0.0,0.0,0.0,1.m4v,8.0
2024-02-28 10:11:41.668565,1709111501.6685646,-29.296875,-27.34375,31.25,-49.31640625,0.0,0.0,0.0,0.0,1.m4v,8.0
2024-02-28 10:11:41.672470,1709111501.6724696,-31.25,-51.26953125,4.8828125,-30.2734375,0.0,0.0,0.0,0.0,1.m4v,8.0
2024-02-28 10:11:41.676374,1709111501.6763744,-31.73828125,-32.2265625,-25.87890625,-14.16015625,0.0,0.0,0.0,0.0,1.m4v,8.0
2024-02-28 10:11:41.680290,1709111501.6802895,-23.92578125,0.0,-73.2421875,38.57421875,0.0,0.0,0.0,0.0,1.m4v,8.0
2024-02-28 10:11:41.684194,1709111501.6841943,-6.8359375,-11.23046875,-104.00390625,14.16015625,0.0,0.0,0.0,0.0,1.m4v,8.0
2024-02-28 10:11:41.688099,1709111501.6880994,-12.20703125,-34.66796875,-42.96875,-53.22265625,0.0,0.0,0.0,0.0,1.m4v,8.0
2024-02-28 10:11:41.692004,1709111501.6920044,-45.8984375,-47.8515625,8.30078125,-59.5703125,0.0,0.0,0.0,0.0,1.m4v,8.0
2024-02-28 10:11:41.695910,1709111501.6959095,-64.453125,-46.38671875,18.5546875,-79.1015625,0.0,0.0,0.0,0.0,1.m4v,8.0
2024-02-28 10:11:41.699815,1709111501.6998146,-58.10546875,-27.34375,22.4609375,-76.66015625,0.0,0.0,0.0,0.0,1.m4v,8.0
2024-02-28 10:11:41.703720,1709111501.7037196,-41.015625,-25.390625,6.34765625,-47.36328125,0.0,0.0,0.0,0.0,1.m4v,8.0
2024-02-28 10:11:41.707624,1709111501.7076244,-29.78515625,-34.1796875,-15.13671875,-50.78125,0.0,0.0,0.0,0.0,1.m4v,8.0
2024-02-28 10:11:41.711529,1709111501.7115295,-31.25,-47.36328125,-35.64453125,-56.15234375,0.0,0.0,0.0,0.0,1.m4v,8.0
2024-02-28 10:11:41.715435,1709111501.7154346,-35.15625,-72.265625,-58.10546875,-22.4609375,0.0,0.0,0.0,0.0,1.m4v,8.0
2024-02-28 10:11:41.719340,1709111501.7193396,-24.4140625,-59.5703125,-68.359375,9.765625,0.0,0.0,0.0,0.0,1.m4v,8.0
2024-02-28 10:11:41.723245,1709111501.723245,-16.11328125,-13.671875,-61.5234375,-20.5078125,0.0,0.0,0.0,0.0,1.m4v,8.0
2024-02-28 10:11:41.727159,1709111501.7271583,-21.97265625,8.30078125,-79.58984375,-18.5546875,0.0,0.0,0.0,0.0,1.m4v,8.0
2024-02-28 10:11:41.731064,1709111501.7310636,-18.06640625,2.44140625,-103.02734375,14.16015625,0.0,0.0,0.0,0.0,1.m4v,8.0
2024-02-28 10:11:41.734969,1709111501.734969,-40.52734375,-26.3671875,-61.5234375,-32.71484375,0.0,0.0,0.0,0.0,1.m4v,8.0
2024-02-28 10:11:41.738873,1709111501.7388735,-46.875,-54.19921875,28.3203125,-60.05859375,0.0,0.0,0.0,0.0,1.m4v,8.0
2024-02-28 10:11:41.742779,1709111501.7427783,-41.50390625,-53.22265625,45.8984375,-57.12890625,0.0,0.0,0.0,0.0,1.m4v,8.0
2024-02-28 10:11:41.746684,1709111501.7466836,-47.8515625,-40.52734375,15.13671875,-67.87109375,0.0,0.0,0.0,0.0,1.m4v,8.0
2024-02-28 10:11:41.750589,1709111501.750589,-35.15625,-59.5703125,-16.11328125,-24.90234375,0.0,0.0,0.0,0.0,1.m4v,8.0
2024-02-28 10:11:41.754494,1709111501.7544937,-22.94921875,-80.56640625,-40.0390625,-18.06640625,0.0,0.0,0.0,0.0,1.m4v,8.0
2024-02-28 10:11:41.758399,1709111501.7583988,-30.76171875,-44.921875,-56.640625,-53.22265625,0.0,0.0,0.0,0.0,1.m4v,8.0
2024-02-28 10:11:41.762304,1709111501.7623036,-32.2265625,-16.6015625,-48.33984375,-31.73828125,0.0,0.0,0.0,0.0,1.m4v,8.0
2024-02-28 10:11:41.766209,1709111501.7662086,-24.90234375,-11.71875,-30.76171875,5.859375,0.0,0.0,0.0,0.0,1.m4v,8.0
2024-02-28 10:11:41.770114,1709111501.7701137,-23.92578125,-11.23046875,-45.41015625,-14.16015625,0.0,0.0,0.0,0.0,1.m4v,8.0
2024-02-28 10:11:41.774027,1709111501.7740269,-43.45703125,-17.08984375,-14.16015625,-47.8515625,0.0,0.0,0.0,0.0,1.m4v,8.0
2024-02-28 10:11:41.777932,1709111501.777932,-39.55078125,-32.2265625,-1.46484375,-36.62109375,0.0,0.0,0.0,0.0,1.m4v,8.0
2024-02-28 10:11:41.781837,1709111501.7818367,-24.90234375,-48.828125,-34.1796875,-60.546875,0.0,0.0,0.0,0.0,1.m4v,8.0
2024-02-28 10:11:41.785742,1709111501.7857418,-27.83203125,-37.109375,-79.1015625,-45.8984375,0.0,0.0,0.0,0.0,1.m4v,8.0
2024-02-28 10:11:41.789647,1709111501.7896469,-30.76171875,-26.85546875,-94.7265625,-21.97265625,0.0,0.0,0.0,0.0,1.m4v,8.0
2024-02-28 10:11:41.793552,1709111501.793552,-20.5078125,-44.43359375,-30.76171875,-64.94140625,0.0,0.0,0.0,0.0,1.m4v,8.0
2024-02-28 10:11:41.797457,1709111501.797457,-41.50390625,-48.828125,12.6953125,-58.59375,0.0,0.0,0.0,0.0,1.m4v,8.0
2024-02-28 10:11:41.801362,1709111501.801362,-73.2421875,-30.76171875,20.99609375,-66.89453125,0.0,0.0,0.0,0.0,1.m4v,8.0
2024-02-28 10:11:41.805267,1709111501.805267,-63.4765625,-27.34375,23.4375,-82.51953125,0.0,0.0,0.0,0.0,1.m4v,8.0
2024-02-28 10:11:41.809172,1709111501.809172,-39.55078125,-36.62109375,-20.5078125,-29.78515625,0.0,0.0,0.0,0.0,1.m4v,8.0
2024-02-28 10:11:41.813077,1709111501.813077,-5.859375,-25.87890625,-64.94140625,1.953125,0.0,0.0,0.0,0.0,1.m4v,8.0
2024-02-28 10:11:41.816982,1709111501.816982,-15.13671875,-23.92578125,-55.6640625,27.34375,0.0,0.0,0.0,0.0,1.m4v,8.0
2024-02-28 10:11:41.820894,1709111501.8208945,-41.015625,-27.83203125,-30.2734375,-13.18359375,0.0,0.0,0.0,0.0,1.m4v,8.0
2024-02-28 10:11:41.824800,1709111501.8247995,-25.390625,-25.390625,-10.7421875,-95.703125,0.0,0.0,0.0,0.0,1.m4v,8.0
2024-02-28 10:11:41.828705,1709111501.8287046,-42.96875,-29.78515625,-16.11328125,-61.03515625,0.0,0.0,0.0,0.0,1.m4v,8.0
2024-02-28 10:11:41.832609,1709111501.8326094,-40.0390625,-29.296875,-42.96875,-37.109375,0.0,0.0,0.0,0.0,1.m4v,8.0
2024-02-28 10:11:41.836514,1709111501.8365145,-25.390625,-38.57421875,-62.5,-25.87890625,0.0,0.0,0.0,0.0,1.m4v,8.0
2024-02-28 10:11:41.840420,1709111501.8404195,-35.15625,-47.36328125,-67.87109375,-0.48828125,0.0,0.0,0.0,0.0,1.m4v,8.0
2024-02-28 10:11:41.844325,1709111501.8443246,-54.6875,-32.2265625,-45.41015625,-12.6953125,0.0,0.0,0.0,0.0,1.m4v,8.0
2024-02-28 10:11:41.848230,1709111501.8482296,-40.52734375,-27.83203125,-2.44140625,-45.41015625,0.0,0.0,0.0,0.0,1.m4v,8.0
2024-02-28 10:11:41.852135,1709111501.8521347,-42.96875,-22.4609375,-0.48828125,-54.6875,0.0,0.0,0.0,0.0,1.m4v,8.0
2024-02-28 10:11:41.856040,1709111501.8560395,-35.64453125,-8.7890625,-28.3203125,-30.76171875,0.0,0.0,0.0,0.0,1.m4v,8.0
2024-02-28 10:11:41.859945,1709111501.8599446,-24.90234375,-15.625,-16.6015625,-2.44140625,0.0,0.0,0.0,0.0,1.m4v,8.0
2024-02-28 10:11:41.863850,1709111501.8638496,-47.36328125,-23.4375,-29.78515625,-23.4375,0.0,0.0,0.0,0.0,1.m4v,8.0
2024-02-28 10:11:41.867762,1709111501.867762,-33.69140625,-26.85546875,-49.8046875,-73.2421875,0.0,0.0,0.0,0.0,1.m4v,8.0
2024-02-28 10:11:41.871667,1709111501.8716671,-54.6875,-38.0859375,-33.69140625,-83.0078125,0.0,0.0,0.0,0.0,1.m4v,8.0
2024-02-28 10:11:41.875572,1709111501.8755722,-65.4296875,-37.109375,-22.4609375,-37.59765625,0.0,0.0,0.0,0.0,1.m4v,8.0
2024-02-28 10:11:41.879477,1709111501.8794773,-47.36328125,-32.2265625,-28.80859375,19.04296875,0.0,0.0,0.0,0.0,1.m4v,8.0
2024-02-28 10:11:41.883382,1709111501.883382,-34.66796875,-39.0625,-55.17578125,-7.32421875,0.0,0.0,0.0,0.0,1.m4v,8.0
2024-02-28 10:11:41.887287,1709111501.8872871,-30.76171875,-43.45703125,-45.41015625,-33.203125,0.0,0.0,0.0,0.0,1.m4v,8.0
2024-02-28 10:11:41.891192,1709111501.8911922,-39.0625,-53.22265625,-10.7421875,-38.0859375,0.0,0.0,0.0,0.0,1.m4v,8.0
2024-02-28 10:11:41.895097,1709111501.8950973,-40.0390625,-48.828125,-10.7421875,-45.8984375,0.0,0.0,0.0,0.0,1.m4v,8.0
2024-02-28 10:11:41.899002,1709111501.8990023,-42.96875,-32.2265625,-12.6953125,-31.25,0.0,0.0,0.0,0.0,1.m4v,8.0
2024-02-28 10:11:41.902907,1709111501.9029074,-40.52734375,-31.73828125,-26.85546875,-48.33984375,0.0,0.0,0.0,0.0,1.m4v,8.0
2024-02-28 10:11:41.906812,1709111501.9068124,-32.2265625,-25.87890625,-64.94140625,-52.734375,0.0,0.0,0.0,0.0,1.m4v,8.0
2024-02-28 10:11:41.910717,1709111501.9107172,-42.96875,-24.90234375,-67.87109375,-31.25,0.0,0.0,0.0,0.0,1.m4v,8.0
2024-02-28 10:11:41.914634,1709111501.9146342,-40.0390625,-34.1796875,-42.48046875,-40.0390625,0.0,0.0,0.0,0.0,1.m4v,8.0
2024-02-28 10:11:41.918539,1709111501.918539,-35.64453125,-36.62109375,-28.3203125,-41.015625,0.0,0.0,0.0,0.0,1.m4v,8.0
2024-02-28 10:11:41.922444,1709111501.922444,-42.48046875,-20.99609375,-52.734375,-9.27734375,0.0,0.0,0.0,0.0,1.m4v,8.0
2024-02-28 10:11:41.926349,1709111501.9263492,-11.71875,-4.8828125,-68.84765625,6.34765625,0.0,0.0,0.0,0.0,1.m4v,8.0
2024-02-28 10:11:41.930254,1709111501.9302542,1.46484375,-31.73828125,-7.8125,1.46484375,0.0,0.0,0.0,0.0,1.m4v,8.0
2024-02-28 10:11:41.934159,1709111501.9341593,-29.296875,-52.24609375,0.0,-28.80859375,0.0,0.0,0.0,0.0,1.m4v,8.0
2024-02-28 10:11:41.938064,1709111501.9380643,-42.48046875,-35.15625,-37.109375,-69.3359375,0.0,0.0,0.0,0.0,1.m4v,8.0
2024-02-28 10:11:41.941969,1709111501.9419692,-30.2734375,-20.5078125,-27.83203125,-48.828125,0.0,0.0,0.0,0.0,1.m4v,8.0
2024-02-28 10:11:41.945874,1709111501.9458742,-30.76171875,-29.296875,-8.30078125,-45.8984375,0.0,0.0,0.0,0.0,1.m4v,8.0
2024-02-28 10:11:41.949779,1709111501.9497793,-42.48046875,-36.1328125,-5.859375,-76.171875,0.0,0.0,0.0,0.0,1.m4v,8.0
2024-02-28 10:11:41.953684,1709111501.9536843,-46.38671875,-25.87890625,-30.2734375,-45.8984375,0.0,0.0,0.0,0.0,1.m4v,8.0
2024-02-28 10:11:41.957589,1709111501.9575894,-33.203125,-12.20703125,-51.7578125,-11.23046875,0.0,0.0,0.0,0.0,1.m4v,8.0
2024-02-28 10:11:41.961506,1709111501.961506,-24.4140625,-16.6015625,-74.21875,-24.90234375,0.0,0.0,0.0,0.0,1.m4v,8.0
2024-02-28 10:11:41.965411,1709111501.9654107,-26.3671875,-35.64453125,-62.98828125,-20.99609375,0.0,0.0,0.0,0.0,1.m4v,8.0
2024-02-28 10:11:41.969316,1709111501.9693158,-12.6953125,-47.36328125,-20.99609375,-23.92578125,0.0,0.0,0.0,0.0,1.m4v,8.0
2024-02-28 10:11:41.973221,1709111501.9732208,-7.32421875,-45.8984375,-2.9296875,-62.01171875,0.0,0.0,0.0,0.0,1.m4v,8.0
2024-02-28 10:11:41.977126,1709111501.977126,-20.5078125,-40.52734375,-0.48828125,-21.484375,0.0,0.0,0.0,0.0,1.m4v,8.0
2024-02-28 10:11:41.981031,1709111501.981031,-22.94921875,-33.203125,-27.34375,15.13671875,0.0,0.0,0.0,0.0,1.m4v,8.0
2024-02-28 10:11:42.430219,1709111502.4302187,8.30078125,-40.52734375,-47.36328125,-8.30078125,0.0,0.0,0.0,0.0,1.m4v,8.0
2024-02-28 10:11:42.434124,1709111502.4341238,-6.8359375,-28.3203125,-77.63671875,-14.16015625,0.0,0.0,0.0,0.0,1.m4v,8.0
2024-02-28 10:11:42.438029,1709111502.4380288,-15.625,-22.4609375,-40.52734375,-17.578125,0.0,0.0,0.0,0.0,1.m4v,8.0
2024-02-28 10:11:42.441934,1709111502.441934,-39.0625,-40.52734375,15.625,-9.27734375,0.0,0.0,0.0,0.0,1.m4v,8.0
2024-02-28 10:11:42.445839,1709111502.4458387,-34.1796875,-48.33984375,-5.37109375,-31.25,0.0,0.0,0.0,0.0,1.m4v,8.0
2024-02-28 10:11:42.449744,1709111502.4497435,2.9296875,-44.43359375,-48.828125,-27.83203125,0.0,0.0,0.0,0.0,1.m4v,8.0
2024-02-28 10:11:42.453649,1709111502.4536488,-22.4609375,-51.26953125,-34.1796875,-5.37109375,0.0,0.0,0.0,0.0,1.m4v,8.0
2024-02-28 10:11:42.457554,1709111502.457554,-37.59765625,-49.8046875,-46.38671875,-26.3671875,0.0,0.0,0.0,0.0,1.m4v,8.0
2024-02-28 10:11:42.461459,1709111502.461459,-7.32421875,-31.25,-79.1015625,8.7890625,0.0,0.0,0.0,0.0,1.m4v,8.0
2024-02-28 10:11:42.465364,1709111502.465364,-20.01953125,-22.4609375,-25.87890625,-2.44140625,0.0,0.0,0.0,0.0,1.m4v,8.0
2024-02-28 10:11:42.469269,1709111502.469269,-21.97265625,-28.80859375,18.5546875,-10.25390625,0.0,0.0,0.0,0.0,1.m4v,8.0
2024-02-28 10:11:42.473174,1709111502.473174,-34.66796875,-38.57421875,-5.859375,-12.20703125,0.0,0.0,0.0,0.0,1.m4v,8.0
2024-02-28 10:11:42.477090,1709111502.47709,-23.4375,-27.83203125,-31.73828125,-30.2734375,0.0,0.0,0.0,0.0,1.m4v,8.0
2024-02-28 10:11:42.480995,1709111502.480995,3.90625,-8.7890625,-13.18359375,-11.71875,0.0,0.0,0.0,0.0,1.m4v,8.0
2024-02-28 10:11:42.484900,1709111502.4848998,-22.4609375,-22.4609375,-8.7890625,-35.64453125,0.0,0.0,0.0,0.0,1.m4v,8.0
2024-02-28 10:11:42.488805,1709111502.4888048,-28.80859375,-37.59765625,-36.1328125,-34.1796875,0.0,0.0,0.0,0.0,1.m4v,8.0
2024-02-28 10:11:42.492710,1709111502.49271,7.32421875,-41.015625,-67.3828125,17.578125,0.0,0.0,0.0,0.0,1.m4v,8.0
2024-02-28 10:11:42.496615,1709111502.496615,25.390625,-51.7578125,-76.171875,28.80859375,0.0,0.0,0.0,0.0,1.m4v,8.0
2024-02-28 10:11:42.500520,1709111502.50052,8.7890625,-67.87109375,-52.24609375,26.85546875,0.0,0.0,0.0,0.0,1.m4v,8.0
2024-02-28 10:11:42.504425,1709111502.504425,-6.34765625,-45.8984375,-61.5234375,35.15625,0.0,0.0,0.0,0.0,1.m4v,8.0
2024-02-28 10:11:42.508330,1709111502.50833,-20.5078125,-16.11328125,-42.96875,-20.01953125,0.0,0.0,0.0,0.0,1.m4v,8.0
2024-02-28 10:11:42.512235,1709111502.512235,-38.0859375,-12.6953125,11.23046875,-74.70703125,0.0,0.0,0.0,0.0,1.m4v,8.0
2024-02-28 10:11:42.516140,1709111502.51614,-46.38671875,-15.625,5.859375,-54.19921875,0.0,0.0,0.0,0.0,1.m4v,8.0
2024-02-28 10:11:42.520045,1709111502.520045,-31.73828125,-24.90234375,-37.59765625,4.39453125,0.0,0.0,0.0,0.0,1.m4v,8.0
2024-02-28 10:11:42.523959,1709111502.523959,-2.9296875,-23.92578125,-33.69140625,13.18359375,0.0,0.0,0.0,0.0,1.m4v,8.0
2024-02-28 10:11:42.527864,1709111502.527864,-7.32421875,-42.48046875,-16.11328125,-28.3203125,0.0,0.0,0.0,0.0,1.m4v,8.0
2024-02-28 10:11:42.531769,1709111502.531769,-10.25390625,-92.7734375,-43.9453125,-44.43359375,0.0,0.0,0.0,0.0,1.m4v,8.0
2024-02-28 10:11:42.535674,1709111502.535674,-33.69140625,-81.0546875,-47.36328125,-23.4375,0.0,0.0,0.0,0.0,1.m4v,8.0
2024-02-28 10:11:42.539579,1709111502.5395792,-66.89453125,-33.69140625,-27.34375,-30.2734375,0.0,0.0,0.0,0.0,1.m4v,8.0
2024-02-28 10:11:42.543484,1709111502.543484,-56.15234375,-5.37109375,-39.55078125,-10.7421875,0.0,0.0,0.0,0.0,1.m4v,8.0
2024-02-28 10:11:42.547389,1709111502.547389,-38.0859375,-8.7890625,-86.9140625,11.23046875,0.0,0.0,0.0,0.0,1.m4v,8.0
2024-02-28 10:11:42.551294,1709111502.551294,-19.53125,-29.296875,-77.1484375,-47.36328125,0.0,0.0,0.0,0.0,1.m4v,8.0
2024-02-28 10:11:42.555199,1709111502.5551991,-33.203125,-46.38671875,-27.34375,-64.94140625,0.0,0.0,0.0,0.0,1.m4v,8.0
2024-02-28 10:11:42.559104,1709111502.5591042,-36.62109375,-36.1328125,-39.55078125,-30.2734375,0.0,0.0,0.0,0.0,1.m4v,8.0
2024-02-28 10:11:42.563009,1709111502.5630093,-31.73828125,-21.97265625,-54.6875,-56.640625,0.0,0.0,0.0,0.0,1.m4v,8.0
2024-02-28 10:11:42.566914,1709111502.5669143,-44.921875,-45.8984375,-30.2734375,-57.6171875,0.0,0.0,0.0,0.0,1.m4v,8.0
2024-02-28 10:11:42.570827,1709111502.5708263,-37.59765625,-75.1953125,-3.90625,-45.41015625,0.0,0.0,0.0,0.0,1.m4v,8.0
2024-02-28 10:11:42.574732,1709111502.5747316,-41.50390625,-54.19921875,-4.8828125,-65.91796875,0.0,0.0,0.0,0.0,1.m4v,8.0
2024-02-28 10:11:42.578637,1709111502.5786366,-70.80078125,-15.625,-24.90234375,-75.68359375,0.0,0.0,0.0,0.0,1.m4v,8.0
2024-02-28 10:11:42.582541,1709111502.5825417,-75.68359375,-10.7421875,-27.34375,-91.30859375,0.0,0.0,0.0,0.0,1.m4v,8.0
2024-02-28 10:11:42.586447,1709111502.5864463,-44.921875,-23.92578125,-55.17578125,-77.63671875,0.0,0.0,0.0,0.0,1.m4v,8.0
2024-02-28 10:11:42.590352,1709111502.5903516,-25.87890625,-26.85546875,-73.73046875,-46.38671875,0.0,0.0,0.0,0.0,1.m4v,8.0
2024-02-28 10:11:42.594257,1709111502.5942566,-39.55078125,-30.76171875,-52.24609375,-30.76171875,0.0,0.0,0.0,0.0,1.m4v,8.0
2024-02-28 10:11:42.598162,1709111502.5981617,-45.41015625,-39.0625,-49.8046875,-33.69140625,0.0,0.0,0.0,0.0,1.m4v,8.0
2024-02-28 10:11:42.602067,1709111502.6020668,-49.8046875,-36.62109375,-33.69140625,-55.6640625,0.0,0.0,0.0,0.0,1.m4v,8.0
2024-02-28 10:11:42.605972,1709111502.6059718,-67.3828125,-42.48046875,-14.16015625,-85.9375,0.0,0.0,0.0,0.0,1.m4v,8.0
2024-02-28 10:11:42.609877,1709111502.6098766,-64.453125,-42.96875,-12.6953125,-87.890625,0.0,0.0,0.0,0.0,1.m4v,8.0
2024-02-28 10:11:42.613782,1709111502.6137817,-56.640625,-49.31640625,-36.1328125,-52.24609375,0.0,0.0,0.0,0.0,1.m4v,8.0
2024-02-28 10:11:42.617693,1709111502.617693,-55.6640625,-71.77734375,-48.828125,-41.9921875,0.0,0.0,0.0,0.0,1.m4v,8.0
2024-02-28 10:11:42.621598,1709111502.621598,-50.78125,-56.15234375,-18.5546875,-79.58984375,0.0,0.0,0.0,0.0,1.m4v,8.0
2024-02-28 10:11:42.625503,1709111502.625503,-68.359375,-25.390625,-9.27734375,-61.5234375,0.0,0.0,0.0,0.0,1.m4v,8.0
2024-02-28 10:11:42.629408,1709111502.629408,-84.9609375,-18.5546875,-17.08984375,-51.7578125,0.0,0.0,0.0,0.0,1.m4v,8.0
2024-02-28 10:11:42.633313,1709111502.6333132,-61.03515625,-17.578125,-2.9296875,-118.1640625,0.0,0.0,0.0,0.0,1.m4v,8.0
2024-02-28 10:11:42.637218,1709111502.6372182,-68.84765625,-23.92578125,9.27734375,-128.41796875,0.0,0.0,0.0,0.0,1.m4v,8.0
2024-02-28 10:11:42.641123,1709111502.641123,-88.37890625,-35.15625,-13.18359375,-100.09765625,0.0,0.0,0.0,0.0,1.m4v,8.0
2024-02-28 10:11:42.645028,1709111502.645028,-43.9453125,-20.5078125,-46.38671875,-58.10546875,0.0,0.0,0.0,0.0,1.m4v,8.0
2024-02-28 10:11:42.648933,1709111502.6489332,-50.78125,-20.99609375,-65.4296875,-26.3671875,0.0,0.0,0.0,0.0,1.m4v,8.0
2024-02-28 10:11:42.652838,1709111502.6528382,-80.078125,-48.828125,-42.48046875,-72.75390625,0.0,0.0,0.0,0.0,1.m4v,8.0
2024-02-28 10:11:42.656743,1709111502.6567433,-75.68359375,-67.3828125,-20.5078125,-130.37109375,0.0,0.0,0.0,0.0,1.m4v,8.0
2024-02-28 10:11:42.660648,1709111502.6606483,-80.078125,-57.12890625,-30.76171875,-125.48828125,0.0,0.0,0.0,0.0,1.m4v,8.0
2024-02-28 10:11:42.664566,1709111502.6645656,-74.70703125,-34.1796875,-40.0390625,-85.44921875,0.0,0.0,0.0,0.0,1.m4v,8.0
2024-02-28 10:11:42.668471,1709111502.6684706,-74.21875,-27.83203125,-25.390625,-88.8671875,0.0,0.0,0.0,0.0,1.m4v,8.0
2024-02-28 10:11:42.672376,1709111502.6723757,-79.1015625,-21.484375,-14.6484375,-111.81640625,0.0,0.0,0.0,0.0,1.m4v,8.0
2024-02-28 10:11:42.676281,1709111502.6762807,-63.96484375,-12.20703125,-38.0859375,-41.9921875,0.0,0.0,0.0,0.0,1.m4v,8.0
2024-02-28 10:11:42.680186,1709111502.6801856,-50.78125,-16.6015625,-55.6640625,-15.13671875,0.0,0.0,0.0,0.0,1.m4v,8.0
2024-02-28 10:11:42.684091,1709111502.6840906,-30.2734375,-22.94921875,-63.96484375,-43.45703125,0.0,0.0,0.0,0.0,1.m4v,8.0
2024-02-28 10:11:42.687996,1709111502.6879957,-54.6875,-25.87890625,-50.29296875,-101.07421875,0.0,0.0,0.0,0.0,1.m4v,8.0
2024-02-28 10:11:42.691901,1709111502.6919007,-79.58984375,-34.1796875,-7.32421875,-123.046875,0.0,0.0,0.0,0.0,1.m4v,8.0
2024-02-28 10:11:42.695806,1709111502.6958058,-57.6171875,-45.8984375,14.16015625,-100.09765625,0.0,0.0,0.0,0.0,1.m4v,8.0
2024-02-28 10:11:42.699711,1709111502.6997108,-72.75390625,-48.828125,-0.48828125,-102.05078125,0.0,0.0,0.0,0.0,1.m4v,8.0
2024-02-28 10:11:42.703616,1709111502.703616,-69.3359375,-44.921875,-21.97265625,-64.94140625,0.0,0.0,0.0,0.0,1.m4v,8.0
2024-02-28 10:11:42.707521,1709111502.7075207,-31.25,-35.15625,-49.31640625,-3.90625,0.0,0.0,0.0,0.0,1.m4v,8.0
2024-02-28 10:11:42.711437,1709111502.7114372,-29.296875,-20.99609375,-64.453125,6.8359375,0.0,0.0,0.0,0.0,1.m4v,8.0
2024-02-28 10:11:42.715342,1709111502.7153423,-25.390625,-12.20703125,-101.5625,17.578125,0.0,0.0,0.0,0.0,1.m4v,8.0
2024-02-28 10:11:42.719247,1709111502.719247,-0.9765625,-13.18359375,-88.8671875,-9.27734375,0.0,0.0,0.0,0.0,1.m4v,8.0
2024-02-28 10:11:42.723152,1709111502.7231522,-10.7421875,-16.11328125,-32.71484375,-52.734375,0.0,0.0,0.0,0.0,1.m4v,8.0
2024-02-28 10:11:42.727057,1709111502.7270572,-18.5546875,-30.76171875,-11.23046875,-48.33984375,0.0,0.0,0.0,0.0,1.m4v,8.0
2024-02-28 10:11:42.730962,1709111502.7309625,-32.71484375,-45.41015625,6.8359375,-71.2890625,0.0,0.0,0.0,0.0,1.m4v,8.0
2024-02-28 10:11:42.734867,1709111502.734867,-30.76171875,-50.78125,-10.25390625,-35.15625,0.0,0.0,0.0,0.0,1.m4v,8.0
2024-02-28 10:11:42.738772,1709111502.7387724,-4.39453125,-40.52734375,-26.85546875,-12.6953125,0.0,0.0,0.0,0.0,1.m4v,8.0
2024-02-28 10:11:42.742677,1709111502.7426777,9.765625,-13.671875,-16.6015625,-3.41796875,0.0,0.0,0.0,0.0,1.m4v,8.0
2024-02-28 10:11:42.746583,1709111502.7465825,0.0,-22.4609375,-39.55078125,28.3203125,0.0,0.0,0.0,0.0,1.m4v,8.0
2024-02-28 10:11:42.750487,1709111502.750487,-4.39453125,-28.80859375,-79.1015625,25.390625,0.0,0.0,0.0,0.0,1.m4v,8.0
2024-02-28 10:11:42.754392,1709111502.7543924,-6.34765625,-24.90234375,-58.10546875,1.46484375,0.0,0.0,0.0,0.0,1.m4v,8.0
2024-02-28 10:11:42.758308,1709111502.7583082,-7.32421875,-34.66796875,-23.92578125,-7.8125,0.0,0.0,0.0,0.0,1.m4v,8.0
2024-02-28 10:11:42.762213,1709111502.7622132,13.18359375,-39.0625,-52.24609375,-5.859375,0.0,0.0,0.0,0.0,1.m4v,8.0
2024-02-28 10:11:42.766118,1709111502.7661183,-13.671875,-28.3203125,-41.015625,-21.97265625,0.0,0.0,0.0,0.0,1.m4v,8.0
2024-02-28 10:11:42.770023,1709111502.770023,-21.97265625,-26.85546875,-21.484375,-12.6953125,0.0,0.0,0.0,0.0,1.m4v,8.0
2024-02-28 10:11:42.773928,1709111502.7739284,4.39453125,-23.92578125,-42.48046875,17.578125,0.0,0.0,0.0,0.0,1.m4v,8.0
2024-02-28 10:11:42.777833,1709111502.7778332,25.87890625,-41.9921875,-22.4609375,20.99609375,0.0,0.0,0.0,0.0,1.m4v,8.0
2024-02-28 10:11:42.781738,1709111502.7817383,11.71875,-61.03515625,-9.765625,6.34765625,0.0,0.0,0.0,0.0,1.m4v,8.0
2024-02-28 10:11:42.785643,1709111502.785643,-11.71875,-37.109375,-24.4140625,27.34375,0.0,0.0,0.0,0.0,1.m4v,8.0
2024-02-28 10:11:42.789548,1709111502.7895484,-9.27734375,-26.85546875,-44.921875,11.71875,0.0,0.0,0.0,0.0,1.m4v,8.0
2024-02-28 10:11:42.793453,1709111502.7934537,-7.32421875,-15.13671875,-76.66015625,-2.44140625,0.0,0.0,0.0,0.0,1.m4v,8.0
2024-02-28 10:11:42.797359,1709111502.7973585,-10.7421875,0.48828125,-84.9609375,31.25,0.0,0.0,0.0,0.0,1.m4v,8.0
2024-02-28 10:11:42.801264,1709111502.8012636,-3.41796875,-23.92578125,-37.59765625,4.8828125,0.0,0.0,0.0,0.0,1.m4v,8.0
2024-02-28 10:11:42.805178,1709111502.8051784,-3.90625,-48.33984375,2.9296875,-24.90234375,0.0,0.0,0.0,0.0,1.m4v,8.0
2024-02-28 10:11:42.809083,1709111502.8090837,-28.80859375,-52.24609375,-5.859375,-15.13671875,0.0,0.0,0.0,0.0,1.m4v,8.0
2024-02-28 10:11:42.812988,1709111502.8129883,-28.80859375,-52.734375,-16.11328125,-29.296875,0.0,0.0,0.0,0.0,1.m4v,8.0
2024-02-28 10:11:42.816893,1709111502.816893,1.46484375,-47.8515625,-18.5546875,-0.9765625,0.0,0.0,0.0,0.0,1.m4v,8.0
2024-02-28 10:11:42.820798,1709111502.8207984,22.94921875,-37.59765625,-35.64453125,46.38671875,0.0,0.0,0.0,0.0,1.m4v,8.0
2024-02-28 10:11:42.824703,1709111502.8247037,4.8828125,-40.52734375,-54.6875,70.80078125,0.0,0.0,0.0,0.0,1.m4v,8.0
2024-02-28 10:11:42.828609,1709111502.8286085,-17.08984375,-41.9921875,-63.96484375,28.80859375,0.0,0.0,0.0,0.0,1.m4v,8.0
2024-02-28 10:11:42.832514,1709111502.8325136,-9.27734375,-18.5546875,-76.66015625,-47.8515625,0.0,0.0,0.0,0.0,1.m4v,8.0
2024-02-28 10:11:42.836419,1709111502.8364186,-13.671875,-8.7890625,-30.2734375,-34.1796875,0.0,0.0,0.0,0.0,1.m4v,8.0
2024-02-28 10:11:42.840323,1709111502.8403234,-10.7421875,-16.11328125,10.7421875,6.34765625,0.0,0.0,0.0,0.0,1.m4v,8.0
2024-02-28 10:11:42.844229,1709111502.8442285,12.6953125,-23.92578125,10.25390625,11.71875,0.0,0.0,0.0,0.0,1.m4v,8.0
2024-02-28 10:11:42.848134,1709111502.8481336,8.7890625,-29.78515625,-2.44140625,24.4140625,0.0,0.0,0.0,0.0,1.m4v,8.0
2024-02-28 10:11:42.852048,1709111502.8520477,0.48828125,-28.3203125,-49.8046875,39.0625,0.0,0.0,0.0,0.0,1.m4v,8.0
2024-02-28 10:11:42.855953,1709111502.8559527,3.41796875,-38.0859375,-67.87109375,48.33984375,0.0,0.0,0.0,0.0,1.m4v,8.0
2024-02-28 10:11:42.859858,1709111502.8598576,5.859375,-62.01171875,-96.19140625,60.546875,0.0,0.0,0.0,0.0,1.m4v,8.0
2024-02-28 10:11:42.863763,1709111502.8637626,-3.90625,-58.59375,-67.87109375,0.0,0.0,0.0,0.0,0.0,1.m4v,8.0
2024-02-28 10:11:42.867668,1709111502.8676677,-36.1328125,-61.03515625,29.78515625,-42.48046875,0.0,0.0,0.0,0.0,1.m4v,8.0
2024-02-28 10:11:42.871573,1709111502.8715727,-47.36328125,-52.24609375,31.73828125,-70.3125,0.0,0.0,0.0,0.0,1.m4v,8.0
2024-02-28 10:11:42.875478,1709111502.8754778,-47.8515625,-12.20703125,-9.27734375,-60.546875,0.0,0.0,0.0,0.0,1.m4v,8.0
2024-02-28 10:11:42.879383,1709111502.8793828,-34.66796875,0.9765625,-31.25,-13.671875,0.0,0.0,0.0,0.0,1.m4v,8.0
2024-02-28 10:11:42.883288,1709111502.883288,-22.94921875,-11.23046875,-51.26953125,-12.6953125,0.0,0.0,0.0,0.0,1.m4v,8.0
2024-02-28 10:11:42.887193,1709111502.8871927,-23.4375,-20.99609375,-69.82421875,-9.27734375,0.0,0.0,0.0,0.0,1.m4v,8.0
2024-02-28 10:11:42.891098,1709111502.8910978,-32.2265625,-35.15625,-59.08203125,-16.11328125,0.0,0.0,0.0,0.0,1.m4v,8.0
2024-02-28 10:11:42.895003,1709111502.8950028,-31.73828125,-42.96875,-56.640625,-15.13671875,0.0,0.0,0.0,0.0,1.m4v,8.0
2024-02-28 10:11:42.898916,1709111502.8989155,-34.1796875,-56.15234375,-56.15234375,-21.97265625,0.0,0.0,0.0,0.0,1.m4v,8.0
2024-02-28 10:11:42.902821,1709111502.9028206,-45.8984375,-71.2890625,-10.25390625,-72.75390625,0.0,0.0,0.0,0.0,1.m4v,8.0
2024-02-28 10:11:42.906726,1709111502.9067256,-53.22265625,-59.08203125,-0.9765625,-84.9609375,0.0,0.0,0.0,0.0,1.m4v,8.0
2024-02-28 10:11:42.910631,1709111502.9106307,-49.31640625,-41.50390625,-2.9296875,-50.29296875,0.0,0.0,0.0,0.0,1.m4v,8.0
2024-02-28 10:11:42.914536,1709111502.9145355,-52.24609375,-19.04296875,-13.18359375,-28.3203125,0.0,0.0,0.0,0.0,1.m4v,8.0
2024-02-28 10:11:42.918441,1709111502.9184406,-57.6171875,-9.765625,-65.91796875,-21.97265625,0.0,0.0,0.0,0.0,1.m4v,8.0
2024-02-28 10:11:42.922346,1709111502.9223456,-56.640625,-18.5546875,-68.359375,-34.1796875,0.0,0.0,0.0,0.0,1.m4v,8.0
2024-02-28 10:11:42.926251,1709111502.9262507,-58.59375,-18.06640625,-25.390625,-45.8984375,0.0,0.0,0.0,0.0,1.m4v,8.0
2024-02-28 10:11:42.930156,1709111502.9301558,-53.7109375,-15.13671875,-26.3671875,-32.71484375,0.0,0.0,0.0,0.0,1.m4v,8.0
2024-02-28 10:11:42.934061,1709111502.9340608,-57.12890625,-33.69140625,-61.5234375,-41.9921875,0.0,0.0,0.0,0.0,1.m4v,8.0
2024-02-28 10:11:42.937966,1709111502.937966,-58.59375,-48.828125,-74.70703125,-29.296875,0.0,0.0,0.0,0.0,1.m4v,8.0
2024-02-28 10:11:42.941871,1709111502.9418707,-39.55078125,-46.875,-62.98828125,-34.66796875,0.0,0.0,0.0,0.0,1.m4v,8.0
2024-02-28 10:11:42.945784,1709111502.945784,-49.31640625,-52.24609375,-22.94921875,-70.3125,0.0,0.0,0.0,0.0,1.m4v,8.0
2024-02-28 10:11:42.949689,1709111502.949689,-70.80078125,-54.19921875,0.0,-96.6796875,0.0,0.0,0.0,0.0,1.m4v,8.0
2024-02-28 10:11:42.953594,1709111502.953594,-65.4296875,-39.55078125,-20.5078125,-90.8203125,0.0,0.0,0.0,0.0,1.m4v,8.0
2024-02-28 10:11:42.957499,1709111502.957499,-80.078125,-23.4375,-21.97265625,-75.68359375,0.0,0.0,0.0,0.0,1.m4v,8.0
2024-02-28 10:11:42.961404,1709111502.9614038,-62.5,-17.578125,-41.50390625,-43.9453125,0.0,0.0,0.0,0.0,1.m4v,8.0
2024-02-28 10:11:42.965309,1709111502.965309,-39.55078125,-14.16015625,-97.65625,-36.62109375,0.0,0.0,0.0,0.0,1.m4v,8.0
2024-02-28 10:11:42.969214,1709111502.969214,-65.91796875,-21.97265625,-75.1953125,-75.1953125,0.0,0.0,0.0,0.0,1.m4v,8.0
2024-02-28 10:11:42.973119,1709111502.973119,-78.125,-42.96875,0.48828125,-102.5390625,0.0,0.0,0.0,0.0,1.m4v,8.0
2024-02-28 10:11:42.977024,1709111502.977024,-86.42578125,-53.22265625,15.625,-106.93359375,0.0,0.0,0.0,0.0,1.m4v,8.0
2024-02-28 10:11:42.980929,1709111502.9809291,-84.9609375,-47.36328125,-2.9296875,-106.4453125,0.0,0.0,0.0,0.0,1.m4v,8.0
2024-02-28 10:11:42.984834,1709111502.9848342,-71.2890625,-40.52734375,-29.296875,-79.1015625,0.0,0.0,0.0,0.0,1.m4v,8.0
2024-02-28 10:11:42.988739,1709111502.988739,-76.66015625,-22.4609375,-40.0390625,-63.96484375,0.0,0.0,0.0,0.0,1.m4v,8.0
2024-02-28 10:11:42.992651,1709111502.9926507,-83.49609375,-1.46484375,-59.5703125,-65.4296875,0.0,0.0,0.0,0.0,1.m4v,8.0
2024-02-28 10:11:42.996556,1709111502.9965556,-91.796875,-18.06640625,-90.8203125,-88.8671875,0.0,0.0,0.0,0.0,1.m4v,8.0
2024-02-28 10:11:43.000461,1709111503.0004606,-91.796875,-30.2734375,-47.36328125,-112.79296875,0.0,0.0,0.0,0.0,1.m4v,8.0
2024-02-28 10:11:43.004366,1709111503.0043657,-108.88671875,-23.4375,-3.90625,-119.140625,0.0,0.0,0.0,0.0,1.m4v,8.0
2024-02-28 10:11:43.008271,1709111503.0082707,-132.32421875,-35.64453125,0.0,-146.484375,0.0,0.0,0.0,0.0,1.m4v,8.0
2024-02-28 10:11:43.012176,1709111503.0121758,-145.5078125,-41.9921875,-18.06640625,-181.640625,0.0,0.0,0.0,0.0,1.m4v,8.0
2024-02-28 10:11:43.414488,1709111503.4144883,-115.234375,-34.1796875,-57.6171875,-125.9765625,0.0,0.0,0.0,0.0,1.m4v,8.0
2024-02-28 10:11:43.418393,1709111503.4183934,-117.1875,-29.296875,-63.4765625,-142.578125,0.0,0.0,0.0,0.0,1.m4v,8.0
2024-02-28 10:11:43.422298,1709111503.4222984,-91.30859375,-21.97265625,-60.05859375,-100.09765625,0.0,0.0,0.0,0.0,1.m4v,8.0
2024-02-28 10:11:43.426203,1709111503.4262035,-107.421875,-21.97265625,-58.59375,-92.28515625,0.0,0.0,0.0,0.0,1.m4v,8.0
2024-02-28 10:11:43.430109,1709111503.4301083,-108.88671875,-21.97265625,-32.2265625,-166.015625,0.0,0.0,0.0,0.0,1.m4v,8.0
2024-02-28 10:11:43.434014,1709111503.4340136,-98.6328125,-26.85546875,-19.04296875,-165.52734375,0.0,0.0,0.0,0.0,1.m4v,8.0
2024-02-28 10:11:43.437918,1709111503.4379184,-98.14453125,-31.73828125,-34.1796875,-104.00390625,0.0,0.0,0.0,0.0,1.m4v,8.0
2024-02-28 10:11:43.441823,1709111503.4418235,-65.4296875,-29.78515625,-33.69140625,-84.47265625,0.0,0.0,0.0,0.0,1.m4v,8.0
2024-02-28 10:11:43.445729,1709111503.4457283,-33.69140625,-27.83203125,-25.390625,-103.515625,0.0,0.0,0.0,0.0,1.m4v,8.0
2024-02-28 10:11:43.449634,1709111503.4496336,-48.828125,-31.73828125,-18.5546875,-88.37890625,0.0,0.0,0.0,0.0,1.m4v,8.0
2024-02-28 10:11:43.453539,1709111503.453539,-54.6875,-25.87890625,-19.04296875,-44.921875,0.0,0.0,0.0,0.0,1.m4v,8.0
2024-02-28 10:11:43.457444,1709111503.4574437,-36.1328125,-21.484375,-32.2265625,-43.9453125,0.0,0.0,0.0,0.0,1.m4v,8.0
2024-02-28 10:11:43.461360,1709111503.4613602,-20.99609375,-26.3671875,-29.78515625,-44.921875,0.0,0.0,0.0,0.0,1.m4v,8.0
2024-02-28 10:11:43.465265,1709111503.4652653,-16.11328125,-23.92578125,-30.76171875,-21.97265625,0.0,0.0,0.0,0.0,1.m4v,8.0
2024-02-28 10:11:43.469170,1709111503.4691703,-34.66796875,-24.90234375,-33.69140625,-27.83203125,0.0,0.0,0.0,0.0,1.m4v,8.0
2024-02-28 10:11:43.473075,1709111503.4730754,-13.18359375,-21.484375,-39.0625,1.46484375,0.0,0.0,0.0,0.0,1.m4v,8.0
2024-02-28 10:11:43.476980,1709111503.4769804,-9.27734375,-13.671875,-43.45703125,21.97265625,0.0,0.0,0.0,0.0,1.m4v,8.0
2024-02-28 10:11:43.480886,1709111503.4808855,-27.34375,-23.92578125,-33.69140625,-16.6015625,0.0,0.0,0.0,0.0,1.m4v,8.0
2024-02-28 10:11:43.484790,1709111503.4847903,-16.11328125,-30.2734375,-50.29296875,-9.27734375,0.0,0.0,0.0,0.0,1.m4v,8.0
2024-02-28 10:11:43.488695,1709111503.4886954,-15.13671875,-24.4140625,-58.10546875,-3.41796875,0.0,0.0,0.0,0.0,1.m4v,8.0
2024-02-28 10:11:43.492600,1709111503.4926004,-17.578125,-23.92578125,-35.64453125,-25.390625,0.0,0.0,0.0,0.0,1.m4v,8.0
2024-02-28 10:11:43.496505,1709111503.4965055,-21.97265625,-20.5078125,-28.80859375,-33.69140625,0.0,0.0,0.0,0.0,1.m4v,8.0
2024-02-28 10:11:43.500411,1709111503.5004106,-31.73828125,-13.18359375,-45.41015625,-20.01953125,0.0,0.0,0.0,0.0,1.m4v,8.0
2024-02-28 10:11:43.504316,1709111503.5043156,-41.015625,-11.71875,-44.43359375,0.9765625,0.0,0.0,0.0,0.0,1.m4v,8.0
2024-02-28 10:11:43.508231,1709111503.5082312,-53.22265625,-9.27734375,-34.66796875,-25.390625,0.0,0.0,0.0,0.0,1.m4v,8.0
2024-02-28 10:11:43.512136,1709111503.5121362,-58.10546875,-19.04296875,-39.55078125,-70.3125,0.0,0.0,0.0,0.0,1.m4v,8.0
2024-02-28 10:11:43.516041,1709111503.5160413,-63.96484375,-51.7578125,-32.71484375,-93.26171875,0.0,0.0,0.0,0.0,1.m4v,8.0
2024-02-28 10:11:43.519946,1709111503.5199463,-75.68359375,-56.640625,-1.46484375,-78.61328125,0.0,0.0,0.0,0.0,1.m4v,8.0
2024-02-28 10:11:43.523851,1709111503.5238514,-72.265625,-12.6953125,8.7890625,-51.26953125,0.0,0.0,0.0,0.0,1.m4v,8.0
2024-02-28 10:11:43.527756,1709111503.5277565,-86.42578125,25.87890625,-11.23046875,-93.75,0.0,0.0,0.0,0.0,1.m4v,8.0
2024-02-28 10:11:43.531661,1709111503.5316613,-97.65625,27.34375,-5.37109375,-130.37109375,0.0,0.0,0.0,0.0,1.m4v,8.0
2024-02-28 10:11:43.535566,1709111503.5355663,-72.265625,9.765625,-14.6484375,-85.44921875,0.0,0.0,0.0,0.0,1.m4v,8.0
2024-02-28 10:11:43.539471,1709111503.5394714,-55.17578125,2.44140625,-25.390625,-62.98828125,0.0,0.0,0.0,0.0,1.m4v,8.0
2024-02-28 10:11:43.543376,1709111503.5433764,-61.5234375,-8.7890625,-26.3671875,-63.96484375,0.0,0.0,0.0,0.0,1.m4v,8.0
2024-02-28 10:11:43.547282,1709111503.5472815,-51.26953125,-31.73828125,-79.1015625,-58.10546875,0.0,0.0,0.0,0.0,1.m4v,8.0
2024-02-28 10:11:43.551187,1709111503.5511866,-25.390625,-33.69140625,-68.359375,-75.68359375,0.0,0.0,0.0,0.0,1.m4v,8.0
2024-02-28 10:11:43.555102,1709111503.5551016,-80.56640625,-13.671875,14.16015625,-58.59375,0.0,0.0,0.0,0.0,1.m4v,8.0
2024-02-28 10:11:43.559007,1709111503.5590067,-112.79296875,10.25390625,43.45703125,-84.9609375,0.0,0.0,0.0,0.0,1.m4v,8.0
2024-02-28 10:11:43.562912,1709111503.5629115,-70.80078125,0.0,6.8359375,-75.68359375,0.0,0.0,0.0,0.0,1.m4v,8.0
2024-02-28 10:11:43.566817,1709111503.5668168,-16.11328125,-18.06640625,-41.50390625,-29.296875,0.0,0.0,0.0,0.0,1.m4v,8.0
2024-02-28 10:11:43.570722,1709111503.570722,-13.671875,-25.87890625,-49.8046875,-38.57421875,0.0,0.0,0.0,0.0,1.m4v,8.0
2024-02-28 10:11:43.574627,1709111503.574627,-50.78125,-41.015625,-61.03515625,-19.04296875,0.0,0.0,0.0,0.0,1.m4v,8.0
2024-02-28 10:11:43.578532,1709111503.578532,-24.90234375,-29.296875,-62.01171875,2.44140625,0.0,0.0,0.0,0.0,1.m4v,8.0
2024-02-28 10:11:43.582437,1709111503.5824368,-35.64453125,-2.44140625,-61.03515625,-51.26953125,0.0,0.0,0.0,0.0,1.m4v,8.0
2024-02-28 10:11:43.586342,1709111503.586342,-34.66796875,-34.66796875,-28.3203125,-41.9921875,0.0,0.0,0.0,0.0,1.m4v,8.0
2024-02-28 10:11:43.590247,1709111503.590247,-17.578125,-75.1953125,-19.04296875,18.5546875,0.0,0.0,0.0,0.0,1.m4v,8.0
2024-02-28 10:11:43.594152,1709111503.594152,-44.921875,-47.36328125,-49.8046875,-38.57421875,0.0,0.0,0.0,0.0,1.m4v,8.0
2024-02-28 10:11:43.598057,1709111503.598057,-34.1796875,-11.23046875,-35.15625,-42.96875,0.0,0.0,0.0,0.0,1.m4v,8.0
2024-02-28 10:11:43.601972,1709111503.601972,-25.87890625,-13.18359375,-23.4375,-37.109375,0.0,0.0,0.0,0.0,1.m4v,8.0
2024-02-28 10:11:43.605877,1709111503.6058767,-19.04296875,-21.97265625,-31.73828125,-42.96875,0.0,0.0,0.0,0.0,1.m4v,8.0
2024-02-28 10:11:43.609782,1709111503.6097815,5.37109375,-33.203125,-62.5,7.8125,0.0,0.0,0.0,0.0,1.m4v,8.0
2024-02-28 10:11:43.613687,1709111503.6136868,28.80859375,-67.3828125,-83.49609375,67.3828125,0.0,0.0,0.0,0.0,1.m4v,8.0
2024-02-28 10:11:43.617592,1709111503.617592,35.64453125,-77.1484375,-46.38671875,17.578125,0.0,0.0,0.0,0.0,1.m4v,8.0
2024-02-28 10:11:43.621497,1709111503.621497,-5.859375,-50.78125,-10.7421875,-36.62109375,0.0,0.0,0.0,0.0,1.m4v,8.0
2024-02-28 10:11:43.625402,1709111503.625402,-24.4140625,-29.78515625,-42.48046875,5.37109375,0.0,0.0,0.0,0.0,1.m4v,8.0
2024-02-28 10:11:43.629307,1709111503.629307,16.11328125,-26.3671875,-61.03515625,71.2890625,0.0,0.0,0.0,0.0,1.m4v,8.0
2024-02-28 10:11:43.633212,1709111503.633212,29.296875,-40.52734375,-37.109375,27.34375,0.0,0.0,0.0,0.0,1.m4v,8.0
2024-02-28 10:11:43.637117,1709111503.637117,-3.90625,-52.24609375,-23.92578125,5.37109375,0.0,0.0,0.0,0.0,1.m4v,8.0
2024-02-28 10:11:43.641022,1709111503.641022,-18.5546875,-58.59375,-34.66796875,29.296875,0.0,0.0,0.0,0.0,1.m4v,8.0
2024-02-28 10:11:43.644927,1709111503.644927,-4.8828125,-62.98828125,-47.36328125,-7.8125,0.0,0.0,0.0,0.0,1.m4v,8.0
2024-02-28 10:11:43.648840,1709111503.6488402,23.4375,-50.29296875,-48.828125,21.484375,0.0,0.0,0.0,0.0,1.m4v,8.0
2024-02-28 10:11:43.652745,1709111503.6527452,1.953125,-51.26953125,-37.109375,25.390625,0.0,0.0,0.0,0.0,1.m4v,8.0
2024-02-28 10:11:43.656650,1709111503.6566503,2.9296875,-59.08203125,-32.71484375,-2.9296875,0.0,0.0,0.0,0.0,1.m4v,8.0
2024-02-28 10:11:43.660555,1709111503.6605554,19.04296875,-48.33984375,-31.73828125,16.6015625,0.0,0.0,0.0,0.0,1.m4v,8.0
2024-02-28 10:11:43.664460,1709111503.6644604,1.46484375,-45.41015625,-38.0859375,66.40625,0.0,0.0,0.0,0.0,1.m4v,8.0
2024-02-28 10:11:43.668365,1709111503.6683657,9.765625,-31.73828125,-27.83203125,70.80078125,0.0,0.0,0.0,0.0,1.m4v,8.0
2024-02-28 10:11:43.672270,1709111503.6722703,8.7890625,-30.76171875,-7.8125,45.41015625,0.0,0.0,0.0,0.0,1.m4v,8.0
2024-02-28 10:11:43.676175,1709111503.6761754,6.8359375,-47.36328125,-28.3203125,-6.34765625,0.0,0.0,0.0,0.0,1.m4v,8.0
2024-02-28 10:11:43.680080,1709111503.6800804,12.6953125,-43.9453125,-40.52734375,-34.66796875,0.0,0.0,0.0,0.0,1.m4v,8.0
2024-02-28 10:11:43.683985,1709111503.6839857,8.30078125,-43.45703125,-42.48046875,19.53125,0.0,0.0,0.0,0.0,1.m4v,8.0
2024-02-28 10:11:43.687891,1709111503.6878903,14.6484375,-40.0390625,-45.8984375,53.7109375,0.0,0.0,0.0,0.0,1.m4v,8.0
2024-02-28 10:11:43.691796,1709111503.6917956,18.5546875,-38.0859375,-48.828125,22.4609375,0.0,0.0,0.0,0.0,1.m4v,8.0
2024-02-28 10:11:43.695708,1709111503.695708,8.7890625,-55.17578125,-22.94921875,-10.7421875,0.0,0.0,0.0,0.0,1.m4v,8.0
2024-02-28 10:11:43.699613,1709111503.699613,11.71875,-54.6875,-6.34765625,9.765625,0.0,0.0,0.0,0.0,1.m4v,8.0
2024-02-28 10:11:43.703518,1709111503.703518,-3.90625,-45.41015625,-34.1796875,-6.8359375,0.0,0.0,0.0,0.0,1.m4v,8.0
2024-02-28 10:11:43.707423,1709111503.707423,-14.6484375,-22.4609375,-34.66796875,-21.97265625,0.0,0.0,0.0,0.0,1.m4v,8.0
2024-02-28 10:11:43.711328,1709111503.711328,-5.859375,-18.5546875,-36.62109375,-5.37109375,0.0,0.0,0.0,0.0,1.m4v,8.0
2024-02-28 10:11:43.715233,1709111503.715233,6.34765625,-34.1796875,-67.87109375,16.11328125,0.0,0.0,0.0,0.0,1.m4v,8.0
2024-02-28 10:11:43.719138,1709111503.719138,9.27734375,-41.50390625,-74.21875,22.94921875,0.0,0.0,0.0,0.0,1.m4v,8.0
2024-02-28 10:11:43.723043,1709111503.7230432,-10.7421875,-46.875,-36.1328125,-9.765625,0.0,0.0,0.0,0.0,1.m4v,8.0
2024-02-28 10:11:43.726948,1709111503.7269485,-23.92578125,-37.59765625,-5.37109375,-13.18359375,0.0,0.0,0.0,0.0,1.m4v,8.0
2024-02-28 10:11:43.730853,1709111503.730853,-14.16015625,-26.3671875,-30.76171875,1.46484375,0.0,0.0,0.0,0.0,1.m4v,8.0
2024-02-28 10:11:43.734758,1709111503.734758,-0.48828125,-42.96875,-46.38671875,8.30078125,0.0,0.0,0.0,0.0,1.m4v,8.0
2024-02-28 10:11:43.738663,1709111503.7386632,0.9765625,-49.31640625,-44.43359375,43.9453125,0.0,0.0,0.0,0.0,1.m4v,8.0
2024-02-28 10:11:43.742575,1709111503.7425747,2.44140625,-20.01953125,-46.875,6.8359375,0.0,0.0,0.0,0.0,1.m4v,8.0
2024-02-28 10:11:43.746480,1709111503.7464795,-6.34765625,-12.20703125,-49.31640625,-28.80859375,0.0,0.0,0.0,0.0,1.m4v,8.0
2024-02-28 10:11:43.750385,1709111503.7503848,-1.46484375,-32.2265625,-49.8046875,20.99609375,0.0,0.0,0.0,0.0,1.m4v,8.0
2024-02-28 10:11:43.754290,1709111503.75429,-18.5546875,-48.33984375,-31.73828125,-5.859375,0.0,0.0,0.0,0.0,1.m4v,8.0
2024-02-28 10:11:43.758195,1709111503.7581947,-38.0859375,-54.19921875,2.44140625,-51.26953125,0.0,0.0,0.0,0.0,1.m4v,8.0
2024-02-28 10:11:43.762100,1709111503.7620995,-29.296875,-42.96875,-4.8828125,-36.1328125,0.0,0.0,0.0,0.0,1.m4v,8.0
2024-02-28 10:11:43.766005,1709111503.7660048,-46.38671875,-40.0390625,-20.01953125,-32.71484375,0.0,0.0,0.0,0.0,1.m4v,8.0
2024-02-28 10:11:43.769910,1709111503.76991,-28.80859375,-38.0859375,-28.3203125,-28.3203125,0.0,0.0,0.0,0.0,1.m4v,8.0
2024-02-28 10:11:43.773815,1709111503.773815,-27.34375,-23.4375,-63.96484375,1.46484375,0.0,0.0,0.0,0.0,1.m4v,8.0
2024-02-28 10:11:43.777720,1709111503.77772,-42.96875,-21.97265625,-61.03515625,24.4140625,0.0,0.0,0.0,0.0,1.m4v,8.0
2024-02-28 10:11:43.781625,1709111503.781625,-39.0625,-40.0390625,-39.55078125,-25.390625,0.0,0.0,0.0,0.0,1.m4v,8.0
2024-02-28 10:11:43.785530,1709111503.78553,-55.6640625,-69.3359375,-35.15625,-80.56640625,0.0,0.0,0.0,0.0,1.m4v,8.0
2024-02-28 10:11:43.789441,1709111503.789441,-42.48046875,-79.1015625,-27.34375,-64.94140625,0.0,0.0,0.0,0.0,1.m4v,8.0
2024-02-28 10:11:43.793346,1709111503.7933464,-16.11328125,-64.453125,-55.6640625,-36.1328125,0.0,0.0,0.0,0.0,1.m4v,8.0
2024-02-28 10:11:43.797251,1709111503.7972512,-21.97265625,-37.59765625,-73.2421875,-8.7890625,0.0,0.0,0.0,0.0,1.m4v,8.0
2024-02-28 10:11:43.801156,1709111503.8011563,-40.0390625,-18.5546875,-50.29296875,-13.671875,0.0,0.0,0.0,0.0,1.m4v,8.0
2024-02-28 10:11:43.805061,1709111503.805061,-59.08203125,-26.3671875,-40.52734375,-48.33984375,0.0,0.0,0.0,0.0,1.m4v,8.0
2024-02-28 10:11:43.808966,1709111503.8089664,-58.59375,-30.2734375,-28.80859375,-60.05859375,0.0,0.0,0.0,0.0,1.m4v,8.0
2024-02-28 10:11:43.812871,1709111503.8128717,-42.96875,-32.2265625,-35.15625,-37.59765625,0.0,0.0,0.0,0.0,1.m4v,8.0
2024-02-28 10:11:43.816777,1709111503.8167765,-39.0625,-32.71484375,-42.48046875,-25.390625,0.0,0.0,0.0,0.0,1.m4v,8.0
2024-02-28 10:11:43.820682,1709111503.8206816,-62.5,-35.15625,-33.69140625,-64.453125,0.0,0.0,0.0,0.0,1.m4v,8.0
2024-02-28 10:11:43.824586,1709111503.8245864,-60.05859375,-56.15234375,-31.73828125,-77.63671875,0.0,0.0,0.0,0.0,1.m4v,8.0
2024-02-28 10:11:43.828491,1709111503.8284914,-47.8515625,-65.91796875,-44.921875,-70.3125,0.0,0.0,0.0,0.0,1.m4v,8.0
