Timestamp,Timestamp_UNIX,TP9,AF7,AF8,TP10,Valence,Arousal,Dominace,Viewed,Video,Participant
2024-02-28 14:38:54.000253,1709127534.0002527,-20.99609375,-4.8828125,-41.50390625,83.984375,-1.0,0.0,-1.0,0.0,5.m4v,11.0
2024-02-28 14:38:54.004158,1709127534.004158,-7.32421875,-28.80859375,-43.9453125,193.359375,-1.0,0.0,-1.0,0.0,5.m4v,11.0
2024-02-28 14:38:54.008063,1709127534.0080633,-24.4140625,-40.52734375,-40.52734375,51.26953125,-1.0,0.0,-1.0,0.0,5.m4v,11.0
2024-02-28 14:38:54.011969,1709127534.0119686,-55.6640625,-31.25,-25.87890625,-125.9765625,-1.0,0.0,-1.0,0.0,5.m4v,11.0
2024-02-28 14:38:54.015874,1709127534.015874,-62.01171875,-31.73828125,-24.90234375,-123.046875,-1.0,0.0,-1.0,0.0,5.m4v,11.0
2024-02-28 14:38:54.019779,1709127534.0197792,-36.62109375,-38.57421875,-43.45703125,34.1796875,-1.0,0.0,-1.0,0.0,5.m4v,11.0
2024-02-28 14:38:54.023685,1709127534.0236845,-14.6484375,-36.62109375,-50.78125,175.29296875,-1.0,0.0,-1.0,0.0,5.m4v,11.0
2024-02-28 14:38:54.027603,1709127534.0276034,-4.8828125,-14.16015625,-33.203125,104.4921875,-1.0,0.0,-1.0,0.0,5.m4v,11.0
2024-02-28 14:38:54.031509,1709127534.0315087,-35.15625,-20.01953125,-34.66796875,-92.28515625,-1.0,0.0,-1.0,0.0,5.m4v,11.0
2024-02-28 14:38:54.035414,1709127534.035414,-48.33984375,-37.59765625,-55.6640625,-125.0,-1.0,0.0,-1.0,0.0,5.m4v,11.0
2024-02-28 14:38:54.039319,1709127534.0393193,-3.41796875,-18.06640625,-38.57421875,79.1015625,-1.0,0.0,-1.0,0.0,5.m4v,11.0
2024-02-28 14:38:54.043225,1709127534.0432246,28.3203125,5.859375,-2.9296875,249.0234375,-1.0,0.0,-1.0,0.0,5.m4v,11.0
2024-02-28 14:38:54.047130,1709127534.04713,31.25,5.859375,7.8125,185.05859375,-1.0,0.0,-1.0,0.0,5.m4v,11.0
2024-02-28 14:38:54.051035,1709127534.0510352,-22.4609375,-35.15625,-24.4140625,-80.56640625,-1.0,0.0,-1.0,0.0,5.m4v,11.0
2024-02-28 14:38:54.054940,1709127534.0549405,-66.89453125,-64.94140625,-54.19921875,-217.28515625,-1.0,0.0,-1.0,0.0,5.m4v,11.0
2024-02-28 14:38:54.058846,1709127534.0588458,-54.19921875,-63.96484375,-46.875,-50.29296875,-1.0,0.0,-1.0,0.0,5.m4v,11.0
2024-02-28 14:38:54.062751,1709127534.062751,-38.0859375,-40.52734375,-28.3203125,152.34375,-1.0,0.0,-1.0,0.0,5.m4v,11.0
2024-02-28 14:38:54.066656,1709127534.0666564,-29.296875,-23.4375,-31.73828125,102.5390625,-1.0,0.0,-1.0,0.0,5.m4v,11.0
2024-02-28 14:38:54.070562,1709127534.0705616,-34.66796875,-35.64453125,-41.9921875,-84.9609375,-1.0,0.0,-1.0,0.0,5.m4v,11.0
2024-02-28 14:38:54.074475,1709127534.0744753,-43.9453125,-42.96875,-48.828125,-137.6953125,-1.0,0.0,-1.0,0.0,5.m4v,11.0
2024-02-28 14:38:54.078381,1709127534.0783806,-46.38671875,-29.78515625,-60.05859375,-39.55078125,-1.0,0.0,-1.0,0.0,5.m4v,11.0
2024-02-28 14:38:54.082286,1709127534.082286,-13.18359375,-0.9765625,-42.96875,173.828125,-1.0,0.0,-1.0,0.0,5.m4v,11.0
2024-02-28 14:38:54.086191,1709127534.0861912,6.8359375,-3.41796875,-19.53125,174.8046875,-1.0,0.0,-1.0,0.0,5.m4v,11.0
2024-02-28 14:38:54.090096,1709127534.0900965,-18.5546875,-27.34375,0.0,-64.453125,-1.0,0.0,-1.0,0.0,5.m4v,11.0
2024-02-28 14:38:54.094002,1709127534.0940018,-47.8515625,-29.78515625,3.90625,-132.32421875,-1.0,0.0,-1.0,0.0,5.m4v,11.0
2024-02-28 14:38:54.097907,1709127534.097907,-60.05859375,-21.97265625,-12.6953125,-41.50390625,-1.0,0.0,-1.0,0.0,5.m4v,11.0
2024-02-28 14:38:54.101812,1709127534.1018124,-58.59375,-27.34375,-33.203125,65.4296875,-1.0,0.0,-1.0,0.0,5.m4v,11.0
2024-02-28 14:38:54.105718,1709127534.1057177,-49.31640625,-53.7109375,-39.55078125,110.83984375,-1.0,0.0,-1.0,0.0,5.m4v,11.0
2024-02-28 14:38:54.109623,1709127534.109623,-44.43359375,-64.453125,-35.15625,-38.57421875,-1.0,0.0,-1.0,0.0,5.m4v,11.0
2024-02-28 14:38:54.113528,1709127534.1135285,-43.9453125,-38.0859375,-22.94921875,-156.25,-1.0,0.0,-1.0,0.0,5.m4v,11.0
2024-02-28 14:38:54.117434,1709127534.1174335,-38.0859375,-40.52734375,-5.37109375,-64.453125,-1.0,0.0,-1.0,0.0,5.m4v,11.0
2024-02-28 14:38:54.121351,1709127534.1213508,-24.90234375,-48.33984375,-10.7421875,109.375,-1.0,0.0,-1.0,0.0,5.m4v,11.0
2024-02-28 14:38:54.125256,1709127534.125256,-16.11328125,-22.4609375,-22.94921875,159.66796875,-1.0,0.0,-1.0,0.0,5.m4v,11.0
2024-02-28 14:38:54.129161,1709127534.1291614,-14.6484375,-1.46484375,-33.69140625,-6.8359375,-1.0,0.0,-1.0,0.0,5.m4v,11.0
2024-02-28 14:38:54.133067,1709127534.133067,-13.671875,-10.25390625,-47.36328125,-143.06640625,-1.0,0.0,-1.0,0.0,5.m4v,11.0
2024-02-28 14:38:54.136972,1709127534.136972,-25.390625,-30.76171875,-53.7109375,-87.40234375,-1.0,0.0,-1.0,0.0,5.m4v,11.0
2024-02-28 14:38:54.140877,1709127534.1408772,-30.76171875,-19.04296875,-39.55078125,83.0078125,-1.0,0.0,-1.0,0.0,5.m4v,11.0
2024-02-28 14:38:54.144783,1709127534.1447823,-16.6015625,-0.48828125,-15.625,168.9453125,-1.0,0.0,-1.0,0.0,5.m4v,11.0
2024-02-28 14:38:54.148688,1709127534.1486878,-40.0390625,-18.5546875,-26.3671875,-26.85546875,-1.0,0.0,-1.0,0.0,5.m4v,11.0
2024-02-28 14:38:54.152593,1709127534.1525931,-73.2421875,-50.29296875,-58.59375,-238.28125,-1.0,0.0,-1.0,0.0,5.m4v,11.0
2024-02-28 14:38:54.156498,1709127534.1564984,-57.12890625,-52.24609375,-44.921875,-166.015625,-1.0,0.0,-1.0,0.0,5.m4v,11.0
2024-02-28 14:38:54.160404,1709127534.1604035,-40.0390625,-35.64453125,-7.8125,44.921875,-1.0,0.0,-1.0,0.0,5.m4v,11.0
2024-02-28 14:38:54.164309,1709127534.164309,-31.73828125,-32.2265625,-9.27734375,166.015625,-1.0,0.0,-1.0,0.0,5.m4v,11.0
2024-02-28 14:38:54.168231,1709127534.1682303,-35.64453125,-44.921875,-34.1796875,12.6953125,-1.0,0.0,-1.0,0.0,5.m4v,11.0
2024-02-28 14:38:54.172136,1709127534.1721358,-49.31640625,-46.875,-32.71484375,-198.73046875,-1.0,0.0,-1.0,0.0,5.m4v,11.0
2024-02-28 14:38:54.176041,1709127534.1760411,-41.50390625,-30.2734375,-41.015625,-154.296875,-1.0,0.0,-1.0,0.0,5.m4v,11.0
2024-02-28 14:38:54.179946,1709127534.1799464,-25.87890625,-18.5546875,-26.3671875,21.97265625,-1.0,0.0,-1.0,0.0,5.m4v,11.0
2024-02-28 14:38:54.183852,1709127534.1838517,-12.20703125,-21.484375,-0.48828125,141.6015625,-1.0,0.0,-1.0,0.0,5.m4v,11.0
2024-02-28 14:38:54.187757,1709127534.187757,-19.04296875,-33.203125,-22.94921875,50.29296875,-1.0,0.0,-1.0,0.0,5.m4v,11.0
2024-02-28 14:38:54.191662,1709127534.1916623,-21.97265625,-20.01953125,-33.203125,-133.30078125,-1.0,0.0,-1.0,0.0,5.m4v,11.0
2024-02-28 14:38:54.195568,1709127534.1955676,-28.3203125,-33.69140625,-41.50390625,-155.76171875,-1.0,0.0,-1.0,0.0,5.m4v,11.0
2024-02-28 14:38:54.199473,1709127534.199473,-37.109375,-39.0625,-53.7109375,-30.2734375,-1.0,0.0,-1.0,0.0,5.m4v,11.0
2024-02-28 14:38:54.203378,1709127534.2033782,-36.62109375,-18.06640625,-44.921875,71.77734375,-1.0,0.0,-1.0,0.0,5.m4v,11.0
2024-02-28 14:38:54.207283,1709127534.2072835,-39.55078125,-34.66796875,-32.71484375,-4.8828125,-1.0,0.0,-1.0,0.0,5.m4v,11.0
2024-02-28 14:38:54.211189,1709127534.2111888,-61.03515625,-39.0625,-37.59765625,-215.8203125,-1.0,0.0,-1.0,0.0,5.m4v,11.0
2024-02-28 14:38:54.215105,1709127534.2151053,-56.15234375,-20.5078125,-34.66796875,-230.46875,-1.0,0.0,-1.0,0.0,5.m4v,11.0
2024-02-28 14:38:54.219011,1709127534.2190106,-36.62109375,-10.7421875,-20.01953125,-46.38671875,-1.0,0.0,-1.0,0.0,5.m4v,11.0
2024-02-28 14:38:54.222916,1709127534.222916,-35.15625,-29.296875,-23.4375,117.67578125,-1.0,0.0,-1.0,0.0,5.m4v,11.0
2024-02-28 14:38:54.226821,1709127534.2268212,-32.71484375,-44.43359375,-18.06640625,90.33203125,-1.0,0.0,-1.0,0.0,5.m4v,11.0
2024-02-28 14:38:54.230726,1709127534.2307265,-35.64453125,-31.25,-22.94921875,-100.5859375,-1.0,0.0,-1.0,0.0,5.m4v,11.0
2024-02-28 14:38:54.234632,1709127534.2346318,-43.9453125,-35.15625,-27.34375,-166.015625,-1.0,0.0,-1.0,0.0,5.m4v,11.0
2024-02-28 14:38:54.238537,1709127534.238537,-45.8984375,-43.9453125,-23.4375,-38.0859375,-1.0,0.0,-1.0,0.0,5.m4v,11.0
2024-02-28 14:38:54.242442,1709127534.2424424,-18.5546875,-33.69140625,-20.99609375,147.94921875,-1.0,0.0,-1.0,0.0,5.m4v,11.0
2024-02-28 14:38:54.246348,1709127534.2463477,7.8125,-34.66796875,-6.34765625,136.23046875,-1.0,0.0,-1.0,0.0,5.m4v,11.0
2024-02-28 14:38:54.250253,1709127534.250253,-20.99609375,-51.26953125,-21.97265625,-114.2578125,-1.0,0.0,-1.0,0.0,5.m4v,11.0
2024-02-28 14:38:54.254158,1709127534.2541585,-57.12890625,-54.6875,-59.5703125,-247.55859375,-1.0,0.0,-1.0,0.0,5.m4v,11.0
2024-02-28 14:38:54.258063,1709127534.2580633,-57.6171875,-23.4375,-62.5,-120.1171875,-1.0,0.0,-1.0,0.0,5.m4v,11.0
2024-02-28 14:38:54.261979,1709127534.261979,-43.45703125,-9.765625,-40.52734375,106.93359375,-1.0,0.0,-1.0,0.0,5.m4v,11.0
2024-02-28 14:38:54.265884,1709127534.2658844,-38.57421875,-25.390625,-41.9921875,84.9609375,-1.0,0.0,-1.0,0.0,5.m4v,11.0
2024-02-28 14:38:54.269790,1709127534.2697897,-51.7578125,-27.83203125,-49.31640625,-150.390625,-1.0,0.0,-1.0,0.0,5.m4v,11.0
2024-02-28 14:38:54.273695,1709127534.273695,-64.453125,-33.69140625,-50.29296875,-251.46484375,-1.0,0.0,-1.0,0.0,5.m4v,11.0
2024-02-28 14:38:54.277600,1709127534.2776003,-58.59375,-33.203125,-62.98828125,-162.109375,-1.0,0.0,-1.0,0.0,5.m4v,11.0
2024-02-28 14:38:54.281506,1709127534.2815056,-28.80859375,-15.13671875,-57.6171875,60.05859375,-1.0,0.0,-1.0,0.0,5.m4v,11.0
2024-02-28 14:38:54.285411,1709127534.285411,10.7421875,-2.9296875,-54.19921875,156.25,-1.0,0.0,-1.0,0.0,5.m4v,11.0
2024-02-28 14:38:54.289316,1709127534.2893162,22.4609375,-8.7890625,-81.54296875,-33.203125,-1.0,0.0,-1.0,0.0,5.m4v,11.0
2024-02-28 14:38:54.293221,1709127534.2932217,-4.39453125,-12.20703125,-62.98828125,-175.78125,-1.0,0.0,-1.0,0.0,5.m4v,11.0
2024-02-28 14:38:54.297127,1709127534.2971268,-20.5078125,-39.0625,-27.83203125,-115.72265625,-1.0,0.0,-1.0,0.0,5.m4v,11.0
2024-02-28 14:38:54.301032,1709127534.301032,-4.8828125,-51.26953125,-62.01171875,24.90234375,-1.0,0.0,-1.0,0.0,5.m4v,11.0
2024-02-28 14:38:54.304937,1709127534.3049374,-1.953125,3.90625,-89.35546875,101.07421875,-1.0,0.0,-1.0,0.0,5.m4v,11.0
2024-02-28 14:38:54.308852,1709127534.3088522,-14.16015625,18.06640625,-62.5,-39.55078125,-1.0,0.0,-1.0,0.0,5.m4v,11.0
2024-02-28 14:38:54.312757,1709127534.3127575,-10.25390625,0.9765625,-43.9453125,-194.82421875,-1.0,0.0,-1.0,0.0,5.m4v,11.0
2024-02-28 14:38:54.316663,1709127534.3166628,-18.5546875,-4.39453125,-32.71484375,-128.41796875,-1.0,0.0,-1.0,0.0,5.m4v,11.0
2024-02-28 14:38:54.320568,1709127534.320568,-18.06640625,-8.7890625,-32.71484375,62.98828125,-1.0,0.0,-1.0,0.0,5.m4v,11.0
2024-02-28 14:38:54.324473,1709127534.3244734,0.48828125,-14.6484375,-40.52734375,156.73828125,-1.0,0.0,-1.0,0.0,5.m4v,11.0
2024-02-28 14:38:54.328379,1709127534.328379,-6.8359375,-23.92578125,-36.1328125,41.015625,-1.0,0.0,-1.0,0.0,5.m4v,11.0
2024-02-28 14:38:54.332284,1709127534.3322835,-22.94921875,-27.83203125,-48.33984375,-133.30078125,-1.0,0.0,-1.0,0.0,5.m4v,11.0
2024-02-28 14:38:54.336189,1709127534.336189,-35.15625,-36.1328125,-48.33984375,-154.78515625,-1.0,0.0,-1.0,0.0,5.m4v,11.0
2024-02-28 14:38:54.340094,1709127534.3400943,-32.2265625,-31.25,-55.17578125,7.8125,-1.0,0.0,-1.0,0.0,5.m4v,11.0
2024-02-28 14:38:54.344000,1709127534.3439996,-7.32421875,-17.08984375,-76.171875,150.87890625,-1.0,0.0,-1.0,0.0,5.m4v,11.0
2024-02-28 14:38:54.347905,1709127534.347905,4.39453125,-12.6953125,-60.546875,57.12890625,-1.0,0.0,-1.0,0.0,5.m4v,11.0
2024-02-28 14:38:54.351810,1709127534.3518102,-5.37109375,-20.01953125,-35.64453125,-121.58203125,-1.0,0.0,-1.0,0.0,5.m4v,11.0
2024-02-28 14:38:54.355724,1709127534.3557243,-21.97265625,-39.55078125,-22.94921875,-95.21484375,-1.0,0.0,-1.0,0.0,5.m4v,11.0
2024-02-28 14:38:54.359630,1709127534.3596296,-23.4375,-36.62109375,-36.62109375,57.6171875,-1.0,0.0,-1.0,0.0,5.m4v,11.0
2024-02-28 14:38:54.363535,1709127534.363535,-8.30078125,-25.87890625,-64.453125,148.92578125,-1.0,0.0,-1.0,0.0,5.m4v,11.0
2024-02-28 14:38:54.367440,1709127534.3674402,-7.8125,-21.97265625,-43.9453125,103.02734375,-1.0,0.0,-1.0,0.0,5.m4v,11.0
2024-02-28 14:38:54.371346,1709127534.3713455,-8.7890625,-24.90234375,-26.85546875,-88.37890625,-1.0,0.0,-1.0,0.0,5.m4v,11.0
2024-02-28 14:38:54.375251,1709127534.3752508,-23.4375,-16.11328125,-37.109375,-177.24609375,-1.0,0.0,-1.0,0.0,5.m4v,11.0
2024-02-28 14:38:54.379156,1709127534.379156,-38.57421875,-18.5546875,-17.08984375,-12.6953125,-1.0,0.0,-1.0,0.0,5.m4v,11.0
2024-02-28 14:38:54.383061,1709127534.3830614,-26.85546875,-22.4609375,-2.44140625,129.39453125,-1.0,0.0,-1.0,0.0,5.m4v,11.0
2024-02-28 14:38:54.386967,1709127534.3869667,-24.4140625,-28.3203125,-20.99609375,41.9921875,-1.0,0.0,-1.0,0.0,5.m4v,11.0
2024-02-28 14:38:54.390872,1709127534.390872,-36.62109375,-44.43359375,-38.0859375,-144.04296875,-1.0,0.0,-1.0,0.0,5.m4v,11.0
2024-02-28 14:38:54.394777,1709127534.3947773,-48.33984375,-32.71484375,-50.29296875,-192.87109375,-1.0,0.0,-1.0,0.0,5.m4v,11.0
2024-02-28 14:38:54.398683,1709127534.3986826,-45.41015625,-26.3671875,-60.546875,-44.43359375,-1.0,0.0,-1.0,0.0,5.m4v,11.0
2024-02-28 14:38:54.402596,1709127534.402596,-33.69140625,-35.15625,-73.2421875,123.046875,-1.0,0.0,-1.0,0.0,5.m4v,11.0
2024-02-28 14:38:54.406501,1709127534.4065013,-9.765625,-32.71484375,-56.15234375,122.55859375,-1.0,0.0,-1.0,0.0,5.m4v,11.0
2024-02-28 14:38:54.410407,1709127534.4104066,1.46484375,-6.8359375,-11.23046875,-48.828125,-1.0,0.0,-1.0,0.0,5.m4v,11.0
2024-02-28 14:38:54.414312,1709127534.414312,-16.11328125,-10.25390625,-9.27734375,-144.04296875,-1.0,0.0,-1.0,0.0,5.m4v,11.0
2024-02-28 14:38:54.418217,1709127534.4182172,-60.05859375,-46.875,-35.64453125,-102.05078125,-1.0,0.0,-1.0,0.0,5.m4v,11.0
2024-02-28 14:38:54.422122,1709127534.4221225,-47.8515625,-32.71484375,-40.0390625,81.54296875,-1.0,0.0,-1.0,0.0,5.m4v,11.0
2024-02-28 14:38:54.824455,1709127534.8244543,-18.5546875,-24.90234375,-45.41015625,152.34375,-1.0,0.0,-1.0,0.0,5.m4v,11.0
2024-02-28 14:38:54.828360,1709127534.8283598,-14.6484375,-24.90234375,-30.76171875,50.78125,-1.0,0.0,-1.0,0.0,5.m4v,11.0
2024-02-28 14:38:54.832265,1709127534.8322651,-9.765625,-7.32421875,-1.953125,-90.33203125,-1.0,0.0,-1.0,0.0,5.m4v,11.0
2024-02-28 14:38:54.836170,1709127534.8361704,-20.5078125,2.9296875,-8.30078125,-107.91015625,-1.0,0.0,-1.0,0.0,5.m4v,11.0
2024-02-28 14:38:54.840076,1709127534.8400755,-44.921875,-15.13671875,-34.1796875,6.34765625,-1.0,0.0,-1.0,0.0,5.m4v,11.0
2024-02-28 14:38:54.843981,1709127534.843981,-41.9921875,-24.4140625,-31.25,160.64453125,-1.0,0.0,-1.0,0.0,5.m4v,11.0
2024-02-28 14:38:54.847886,1709127534.8478863,-44.921875,-56.15234375,-25.390625,48.33984375,-1.0,0.0,-1.0,0.0,5.m4v,11.0
2024-02-28 14:38:54.851792,1709127534.8517916,-70.3125,-80.078125,-43.45703125,-221.19140625,-1.0,0.0,-1.0,0.0,5.m4v,11.0
2024-02-28 14:38:54.855697,1709127534.855697,-62.01171875,-49.31640625,-41.015625,-212.890625,-1.0,0.0,-1.0,0.0,5.m4v,11.0
2024-02-28 14:38:54.859602,1709127534.8596022,-30.76171875,-18.06640625,-29.78515625,26.3671875,-1.0,0.0,-1.0,0.0,5.m4v,11.0
2024-02-28 14:38:54.863508,1709127534.8635075,-29.296875,-27.34375,-29.296875,157.2265625,-1.0,0.0,-1.0,0.0,5.m4v,11.0
2024-02-28 14:38:54.867413,1709127534.8674128,-49.31640625,-48.33984375,-45.8984375,30.2734375,-1.0,0.0,-1.0,0.0,5.m4v,11.0
2024-02-28 14:38:54.871330,1709127534.87133,-51.26953125,-35.64453125,-44.43359375,-157.2265625,-1.0,0.0,-1.0,0.0,5.m4v,11.0
2024-02-28 14:38:54.875235,1709127534.8752353,-39.0625,-9.27734375,-24.90234375,-154.78515625,-1.0,0.0,-1.0,0.0,5.m4v,11.0
2024-02-28 14:38:54.879141,1709127534.8791406,-39.55078125,-7.8125,-16.11328125,-27.34375,-1.0,0.0,-1.0,0.0,5.m4v,11.0
2024-02-28 14:38:54.883046,1709127534.883046,-37.59765625,-20.5078125,-20.01953125,113.28125,-1.0,0.0,-1.0,0.0,5.m4v,11.0
2024-02-28 14:38:54.886951,1709127534.8869512,-34.66796875,-30.2734375,-19.53125,92.28515625,-1.0,0.0,-1.0,0.0,5.m4v,11.0
2024-02-28 14:38:54.890857,1709127534.8908565,-43.9453125,-40.52734375,-26.3671875,-80.078125,-1.0,0.0,-1.0,0.0,5.m4v,11.0
2024-02-28 14:38:54.894762,1709127534.8947618,-27.83203125,-25.390625,-34.66796875,-124.0234375,-1.0,0.0,-1.0,0.0,5.m4v,11.0
2024-02-28 14:38:54.898667,1709127534.898667,-9.765625,-16.11328125,-17.578125,-4.8828125,-1.0,0.0,-1.0,0.0,5.m4v,11.0
2024-02-28 14:38:54.902572,1709127534.9025724,-18.5546875,-25.87890625,-9.27734375,136.71875,-1.0,0.0,-1.0,0.0,5.m4v,11.0
2024-02-28 14:38:54.906478,1709127534.9064777,-28.3203125,-20.99609375,-28.3203125,77.1484375,-1.0,0.0,-1.0,0.0,5.m4v,11.0
2024-02-28 14:38:54.910383,1709127534.910383,-38.0859375,-20.5078125,-43.45703125,-117.1875,-1.0,0.0,-1.0,0.0,5.m4v,11.0
2024-02-28 14:38:54.914288,1709127534.9142883,-47.36328125,-28.3203125,-35.64453125,-187.98828125,-1.0,0.0,-1.0,0.0,5.m4v,11.0
2024-02-28 14:38:54.918205,1709127534.9182053,-27.83203125,-26.85546875,-20.99609375,-62.01171875,-1.0,0.0,-1.0,0.0,5.m4v,11.0
2024-02-28 14:38:54.922111,1709127534.9221106,-13.18359375,-27.34375,-22.94921875,124.51171875,-1.0,0.0,-1.0,0.0,5.m4v,11.0
2024-02-28 14:38:54.926016,1709127534.926016,-11.23046875,-51.26953125,-32.71484375,115.72265625,-1.0,0.0,-1.0,0.0,5.m4v,11.0
2024-02-28 14:38:54.929921,1709127534.9299212,-6.8359375,-36.62109375,-35.15625,-107.91015625,-1.0,0.0,-1.0,0.0,5.m4v,11.0
2024-02-28 14:38:54.933826,1709127534.9338264,-4.39453125,-5.859375,-52.734375,-217.28515625,-1.0,0.0,-1.0,0.0,5.m4v,11.0
2024-02-28 14:38:54.937732,1709127534.9377315,-4.8828125,-10.7421875,-61.5234375,-89.35546875,-1.0,0.0,-1.0,0.0,5.m4v,11.0
2024-02-28 14:38:54.941637,1709127534.941637,-10.7421875,-29.296875,-30.2734375,92.28515625,-1.0,0.0,-1.0,0.0,5.m4v,11.0
2024-02-28 14:38:54.945542,1709127534.9455423,-25.87890625,-33.69140625,-7.32421875,89.84375,-1.0,0.0,-1.0,0.0,5.m4v,11.0
2024-02-28 14:38:54.949448,1709127534.9494476,-50.29296875,-31.25,-37.59765625,-136.71875,-1.0,0.0,-1.0,0.0,5.m4v,11.0
2024-02-28 14:38:54.953353,1709127534.953353,-63.4765625,-47.8515625,-51.7578125,-267.578125,-1.0,0.0,-1.0,0.0,5.m4v,11.0
2024-02-28 14:38:54.957258,1709127534.9572582,-69.82421875,-49.8046875,-44.43359375,-181.640625,-1.0,0.0,-1.0,0.0,5.m4v,11.0
2024-02-28 14:38:54.961164,1709127534.9611635,-48.828125,-26.85546875,-51.7578125,1.953125,-1.0,0.0,-1.0,0.0,5.m4v,11.0
2024-02-28 14:38:54.965080,1709127534.9650795,-24.90234375,-27.34375,-34.1796875,84.47265625,-1.0,0.0,-1.0,0.0,5.m4v,11.0
2024-02-28 14:38:54.968985,1709127534.9689848,-26.85546875,-38.57421875,-12.6953125,-65.91796875,-1.0,0.0,-1.0,0.0,5.m4v,11.0
2024-02-28 14:38:54.972890,1709127534.97289,-35.64453125,-36.62109375,-31.25,-229.4921875,-1.0,0.0,-1.0,0.0,5.m4v,11.0
2024-02-28 14:38:54.976795,1709127534.9767954,-43.45703125,-30.2734375,-41.015625,-164.0625,-1.0,0.0,-1.0,0.0,5.m4v,11.0
2024-02-28 14:38:54.980701,1709127534.9807007,-15.13671875,-10.7421875,-0.9765625,67.87109375,-1.0,0.0,-1.0,0.0,5.m4v,11.0
2024-02-28 14:38:54.984606,1709127534.984606,0.9765625,-19.04296875,5.859375,139.6484375,-1.0,0.0,-1.0,0.0,5.m4v,11.0
2024-02-28 14:38:54.988511,1709127534.988511,-20.99609375,-48.33984375,-26.85546875,-44.921875,-1.0,0.0,-1.0,0.0,5.m4v,11.0
2024-02-28 14:38:54.992417,1709127534.9924166,-51.26953125,-47.8515625,-47.36328125,-264.16015625,-1.0,0.0,-1.0,0.0,5.m4v,11.0
2024-02-28 14:38:54.996322,1709127534.996322,-54.19921875,-24.90234375,-41.9921875,-248.53515625,-1.0,0.0,-1.0,0.0,5.m4v,11.0
2024-02-28 14:38:55.000227,1709127535.0002272,-9.765625,-0.9765625,-16.11328125,9.27734375,-1.0,0.0,-1.0,0.0,5.m4v,11.0
2024-02-28 14:38:55.004133,1709127535.0041325,18.06640625,4.39453125,-5.37109375,195.3125,-1.0,0.0,-1.0,0.0,5.m4v,11.0
2024-02-28 14:38:55.008038,1709127535.0080378,-21.97265625,-18.5546875,-15.625,9.765625,-1.0,0.0,-1.0,0.0,5.m4v,11.0
2024-02-28 14:38:55.011953,1709127535.0119534,-52.734375,-39.55078125,-25.390625,-244.62890625,-1.0,0.0,-1.0,0.0,5.m4v,11.0
2024-02-28 14:38:55.015859,1709127535.015859,-49.8046875,-37.109375,-31.73828125,-232.91015625,-1.0,0.0,-1.0,0.0,5.m4v,11.0
2024-02-28 14:38:55.019764,1709127535.019764,-37.109375,-26.3671875,-34.66796875,-53.7109375,-1.0,0.0,-1.0,0.0,5.m4v,11.0
2024-02-28 14:38:55.023669,1709127535.0236692,-10.25390625,-22.94921875,-41.50390625,102.5390625,-1.0,0.0,-1.0,0.0,5.m4v,11.0
2024-02-28 14:38:55.027575,1709127535.0275743,-3.41796875,-30.76171875,-30.76171875,41.015625,-1.0,0.0,-1.0,0.0,5.m4v,11.0
2024-02-28 14:38:55.031480,1709127535.0314798,-9.765625,-39.0625,-12.20703125,-115.72265625,-1.0,0.0,-1.0,0.0,5.m4v,11.0
2024-02-28 14:38:55.035385,1709127535.0353851,-12.20703125,-44.43359375,-13.671875,-169.921875,-1.0,0.0,-1.0,0.0,5.m4v,11.0
2024-02-28 14:38:55.039290,1709127535.0392904,-10.25390625,-55.17578125,-28.3203125,-38.0859375,-1.0,0.0,-1.0,0.0,5.m4v,11.0
2024-02-28 14:38:55.043196,1709127535.0431955,-2.9296875,-33.69140625,-43.45703125,138.18359375,-1.0,0.0,-1.0,0.0,5.m4v,11.0
2024-02-28 14:38:55.047101,1709127535.047101,-11.23046875,-10.25390625,-48.33984375,68.359375,-1.0,0.0,-1.0,0.0,5.m4v,11.0
2024-02-28 14:38:55.051006,1709127535.0510063,-22.4609375,-9.27734375,-24.4140625,-121.58203125,-1.0,0.0,-1.0,0.0,5.m4v,11.0
2024-02-28 14:38:55.054912,1709127535.0549116,-49.31640625,-27.34375,-22.94921875,-217.7734375,-1.0,0.0,-1.0,0.0,5.m4v,11.0
2024-02-28 14:38:55.058826,1709127535.0588262,-60.05859375,-36.1328125,-22.4609375,-113.28125,-1.0,0.0,-1.0,0.0,5.m4v,11.0
2024-02-28 14:38:55.062732,1709127535.0627315,-29.296875,-22.4609375,-15.625,103.02734375,-1.0,0.0,-1.0,0.0,5.m4v,11.0
2024-02-28 14:38:55.066637,1709127535.0666368,-22.4609375,-31.73828125,-31.73828125,84.47265625,-1.0,0.0,-1.0,0.0,5.m4v,11.0
2024-02-28 14:38:55.070542,1709127535.070542,-31.73828125,-47.36328125,-44.921875,-111.328125,-1.0,0.0,-1.0,0.0,5.m4v,11.0
2024-02-28 14:38:55.074447,1709127535.0744474,-27.83203125,-34.1796875,-73.2421875,-171.38671875,-1.0,0.0,-1.0,0.0,5.m4v,11.0
2024-02-28 14:38:55.078353,1709127535.0783527,-32.71484375,-21.484375,-57.12890625,-41.50390625,-1.0,0.0,-1.0,0.0,5.m4v,11.0
2024-02-28 14:38:55.082258,1709127535.082258,-22.4609375,-23.4375,-18.5546875,121.58203125,-1.0,0.0,-1.0,0.0,5.m4v,11.0
2024-02-28 14:38:55.086163,1709127535.0861633,-21.484375,-30.76171875,-23.4375,89.35546875,-1.0,0.0,-1.0,0.0,5.m4v,11.0
2024-02-28 14:38:55.090069,1709127535.0900686,-44.43359375,-47.36328125,-34.66796875,-124.51171875,-1.0,0.0,-1.0,0.0,5.m4v,11.0
2024-02-28 14:38:55.093974,1709127535.093974,-55.6640625,-67.3828125,-50.29296875,-219.23828125,-1.0,0.0,-1.0,0.0,5.m4v,11.0
2024-02-28 14:38:55.097879,1709127535.0978792,-61.03515625,-79.58984375,-59.08203125,-111.81640625,-1.0,0.0,-1.0,0.0,5.m4v,11.0
2024-02-28 14:38:55.101784,1709127535.1017845,-31.73828125,-36.62109375,-28.3203125,122.55859375,-1.0,0.0,-1.0,0.0,5.m4v,11.0
2024-02-28 14:38:55.105699,1709127535.105699,-10.7421875,-1.46484375,-1.953125,187.5,-1.0,0.0,-1.0,0.0,5.m4v,11.0
2024-02-28 14:38:55.109604,1709127535.1096044,-36.1328125,-12.6953125,-14.16015625,-61.03515625,-1.0,0.0,-1.0,0.0,5.m4v,11.0
2024-02-28 14:38:55.113510,1709127535.1135097,-49.31640625,-28.3203125,-31.73828125,-208.984375,-1.0,0.0,-1.0,0.0,5.m4v,11.0
2024-02-28 14:38:55.117415,1709127535.117415,-56.15234375,-38.57421875,-32.71484375,-125.0,-1.0,0.0,-1.0,0.0,5.m4v,11.0
2024-02-28 14:38:55.121320,1709127535.1213202,-33.69140625,-16.11328125,-32.2265625,45.41015625,-1.0,0.0,-1.0,0.0,5.m4v,11.0
2024-02-28 14:38:55.125226,1709127535.1252255,-18.06640625,-24.90234375,-39.0625,130.37109375,-1.0,0.0,-1.0,0.0,5.m4v,11.0
2024-02-28 14:38:55.129131,1709127535.1291308,-62.5,-60.546875,-46.875,-61.5234375,-1.0,0.0,-1.0,0.0,5.m4v,11.0
2024-02-28 14:38:55.133036,1709127535.133036,-86.42578125,-59.5703125,-41.015625,-253.41796875,-1.0,0.0,-1.0,0.0,5.m4v,11.0
2024-02-28 14:38:55.136941,1709127535.1369414,-50.78125,-32.71484375,-24.90234375,-167.96875,-1.0,0.0,-1.0,0.0,5.m4v,11.0
2024-02-28 14:38:55.140847,1709127535.1408467,-17.578125,-14.6484375,-17.08984375,59.08203125,-1.0,0.0,-1.0,0.0,5.m4v,11.0
2024-02-28 14:38:55.144752,1709127535.144752,-14.16015625,-25.390625,-26.3671875,153.3203125,-1.0,0.0,-1.0,0.0,5.m4v,11.0
2024-02-28 14:38:55.148657,1709127535.148657,-34.1796875,-37.109375,-49.8046875,-57.12890625,-1.0,0.0,-1.0,0.0,5.m4v,11.0
2024-02-28 14:38:55.152571,1709127535.1525707,-45.41015625,-37.59765625,-47.36328125,-237.3046875,-1.0,0.0,-1.0,0.0,5.m4v,11.0
2024-02-28 14:38:55.156476,1709127535.156476,-42.48046875,-40.52734375,-35.15625,-153.3203125,-1.0,0.0,-1.0,0.0,5.m4v,11.0
2024-02-28 14:38:55.160381,1709127535.1603813,-43.9453125,-41.50390625,-39.0625,27.83203125,-1.0,0.0,-1.0,0.0,5.m4v,11.0
2024-02-28 14:38:55.164287,1709127535.1642866,-31.73828125,-50.78125,-59.5703125,132.32421875,-1.0,0.0,-1.0,0.0,5.m4v,11.0
2024-02-28 14:38:55.168192,1709127535.168192,-24.4140625,-36.62109375,-63.4765625,19.04296875,-1.0,0.0,-1.0,0.0,5.m4v,11.0
2024-02-28 14:38:55.172097,1709127535.1720972,-23.92578125,6.8359375,-18.06640625,-124.0234375,-1.0,0.0,-1.0,0.0,5.m4v,11.0
2024-02-28 14:38:55.176003,1709127535.1760025,-30.76171875,-12.20703125,0.9765625,-127.9296875,-1.0,0.0,-1.0,0.0,5.m4v,11.0
2024-02-28 14:38:55.179908,1709127535.1799078,-47.8515625,-43.9453125,-18.06640625,-36.1328125,-1.0,0.0,-1.0,0.0,5.m4v,11.0
2024-02-28 14:38:55.183813,1709127535.183813,-42.48046875,-41.9921875,-22.4609375,83.984375,-1.0,0.0,-1.0,0.0,5.m4v,11.0
2024-02-28 14:38:55.187718,1709127535.1877184,-33.69140625,-48.33984375,-11.71875,25.390625,-1.0,0.0,-1.0,0.0,5.m4v,11.0
2024-02-28 14:38:55.191624,1709127535.1916237,-45.8984375,-46.875,-34.1796875,-157.2265625,-1.0,0.0,-1.0,0.0,5.m4v,11.0
2024-02-28 14:38:55.195529,1709127535.195529,-59.5703125,-41.50390625,-56.15234375,-204.1015625,-1.0,0.0,-1.0,0.0,5.m4v,11.0
2024-02-28 14:38:55.199442,1709127535.199442,-44.921875,-39.55078125,-45.8984375,-55.17578125,-1.0,0.0,-1.0,0.0,5.m4v,11.0
2024-02-28 14:38:55.203347,1709127535.2033472,0.0,-32.2265625,-12.6953125,176.7578125,-1.0,0.0,-1.0,0.0,5.m4v,11.0
2024-02-28 14:38:55.207253,1709127535.2072525,1.46484375,-33.203125,-14.16015625,120.60546875,-1.0,0.0,-1.0,0.0,5.m4v,11.0
2024-02-28 14:38:55.211158,1709127535.2111578,-41.015625,-39.0625,-47.8515625,-139.16015625,-1.0,0.0,-1.0,0.0,5.m4v,11.0
2024-02-28 14:38:55.215063,1709127535.215063,-57.12890625,-34.1796875,-42.48046875,-180.6640625,-1.0,0.0,-1.0,0.0,5.m4v,11.0
2024-02-28 14:38:55.218968,1709127535.2189684,-53.22265625,-19.53125,-32.71484375,-35.64453125,-1.0,0.0,-1.0,0.0,5.m4v,11.0
2024-02-28 14:38:55.222874,1709127535.2228737,-17.578125,-4.8828125,-33.69140625,173.828125,-1.0,0.0,-1.0,0.0,5.m4v,11.0
2024-02-28 14:38:55.226779,1709127535.226779,0.0,-31.25,-27.34375,145.5078125,-1.0,0.0,-1.0,0.0,5.m4v,11.0
2024-02-28 14:38:55.230684,1709127535.2306845,-26.85546875,-44.921875,-19.53125,-100.09765625,-1.0,0.0,-1.0,0.0,5.m4v,11.0
2024-02-28 14:38:55.234590,1709127535.2345896,-52.734375,-28.80859375,-20.99609375,-189.453125,-1.0,0.0,-1.0,0.0,5.m4v,11.0
2024-02-28 14:38:55.238495,1709127535.2384949,-49.8046875,-24.90234375,-14.16015625,-61.5234375,-1.0,0.0,-1.0,0.0,5.m4v,11.0
2024-02-28 14:38:55.242400,1709127535.2424002,-28.80859375,-44.921875,-17.08984375,124.0234375,-1.0,0.0,-1.0,0.0,5.m4v,11.0
2024-02-28 14:38:55.246312,1709127535.246312,-31.25,-61.03515625,-34.66796875,127.9296875,-1.0,0.0,-1.0,0.0,5.m4v,11.0
2024-02-28 14:38:55.250217,1709127535.2502174,-47.8515625,-47.36328125,-56.15234375,-44.921875,-1.0,0.0,-1.0,0.0,5.m4v,11.0
2024-02-28 14:38:55.254123,1709127535.2541227,-54.6875,-33.69140625,-58.59375,-142.08984375,-1.0,0.0,-1.0,0.0,5.m4v,11.0
2024-02-28 14:38:55.258028,1709127535.258028,-43.9453125,-21.97265625,-44.43359375,-46.875,-1.0,0.0,-1.0,0.0,5.m4v,11.0
2024-02-28 14:38:55.261933,1709127535.261933,-24.4140625,-34.66796875,-27.34375,153.80859375,-1.0,0.0,-1.0,0.0,5.m4v,11.0
2024-02-28 14:38:55.265839,1709127535.2658386,-6.34765625,-36.62109375,-14.16015625,198.2421875,-1.0,0.0,-1.0,0.0,5.m4v,11.0
2024-02-28 14:38:55.269744,1709127535.269744,-24.90234375,-24.90234375,-32.71484375,-39.55078125,-1.0,0.0,-1.0,0.0,5.m4v,11.0
2024-02-28 14:38:55.273649,1709127535.2736492,-42.48046875,-26.85546875,-41.015625,-202.63671875,-1.0,0.0,-1.0,0.0,5.m4v,11.0
2024-02-28 14:38:55.277555,1709127535.2775545,-35.15625,-21.484375,-35.15625,-91.796875,-1.0,0.0,-1.0,0.0,5.m4v,11.0
2024-02-28 14:38:55.281460,1709127535.2814598,-20.99609375,-13.18359375,-47.8515625,91.796875,-1.0,0.0,-1.0,0.0,5.m4v,11.0
2024-02-28 14:38:55.285365,1709127535.285365,-20.01953125,-15.13671875,-39.0625,127.9296875,-1.0,0.0,-1.0,0.0,5.m4v,11.0
2024-02-28 14:38:55.289270,1709127535.2892704,-34.1796875,-19.53125,-5.37109375,-41.9921875,-1.0,0.0,-1.0,0.0,5.m4v,11.0
2024-02-28 14:38:55.293187,1709127535.2931874,-62.5,-42.48046875,-13.18359375,-204.58984375,-1.0,0.0,-1.0,0.0,5.m4v,11.0
2024-02-28 14:38:55.297093,1709127535.297093,-79.1015625,-55.6640625,-35.64453125,-157.2265625,-1.0,0.0,-1.0,0.0,5.m4v,11.0
2024-02-28 14:38:55.300998,1709127535.300998,-58.59375,-57.12890625,-44.921875,23.92578125,-1.0,0.0,-1.0,0.0,5.m4v,11.0
2024-02-28 14:38:55.304903,1709127535.3049033,-44.921875,-62.5,-39.0625,104.00390625,-1.0,0.0,-1.0,0.0,5.m4v,11.0
2024-02-28 14:38:55.308809,1709127535.3088086,-47.36328125,-43.45703125,-33.203125,-44.43359375,-1.0,0.0,-1.0,0.0,5.m4v,11.0
2024-02-28 14:38:55.312714,1709127535.312714,-29.78515625,-10.25390625,-23.92578125,-173.828125,-1.0,0.0,-1.0,0.0,5.m4v,11.0
2024-02-28 14:38:55.316619,1709127535.3166192,-33.203125,-12.6953125,-17.578125,-149.4140625,-1.0,0.0,-1.0,0.0,5.m4v,11.0
2024-02-28 14:38:55.320524,1709127535.3205245,-47.36328125,-34.1796875,-30.76171875,-34.66796875,-1.0,0.0,-1.0,0.0,5.m4v,11.0
2024-02-28 14:38:55.324430,1709127535.3244298,-21.97265625,-11.23046875,-30.76171875,110.3515625,-1.0,0.0,-1.0,0.0,5.m4v,11.0
2024-02-28 14:38:55.328335,1709127535.328335,-17.08984375,-21.97265625,-29.78515625,10.7421875,-1.0,0.0,-1.0,0.0,5.m4v,11.0
2024-02-28 14:38:55.332240,1709127535.3322403,-38.0859375,-45.8984375,-43.45703125,-199.70703125,-1.0,0.0,-1.0,0.0,5.m4v,11.0
2024-02-28 14:38:55.336146,1709127535.3361456,-33.203125,-20.99609375,-15.625,-184.08203125,-1.0,0.0,-1.0,0.0,5.m4v,11.0
2024-02-28 14:38:55.340062,1709127535.340062,-15.13671875,-6.8359375,7.8125,-1.953125,-1.0,0.0,-1.0,0.0,5.m4v,11.0
2024-02-28 14:38:55.343967,1709127535.3439672,-19.04296875,-24.4140625,-28.3203125,83.49609375,-1.0,0.0,-1.0,0.0,5.m4v,11.0
2024-02-28 14:38:55.347872,1709127535.3478725,-31.25,-23.4375,-59.08203125,-46.38671875,-1.0,0.0,-1.0,0.0,5.m4v,11.0
2024-02-28 14:38:55.351778,1709127535.3517778,-53.7109375,-27.34375,-57.6171875,-229.98046875,-1.0,0.0,-1.0,0.0,5.m4v,11.0
2024-02-28 14:38:55.355683,1709127535.355683,-54.19921875,-28.80859375,-31.25,-234.86328125,-1.0,0.0,-1.0,0.0,5.m4v,11.0
2024-02-28 14:38:55.359588,1709127535.3595884,-31.73828125,-15.625,-7.32421875,-79.58984375,-1.0,0.0,-1.0,0.0,5.m4v,11.0
2024-02-28 14:38:55.363494,1709127535.3634937,-30.76171875,-35.64453125,-12.20703125,46.875,-1.0,0.0,-1.0,0.0,5.m4v,11.0
2024-02-28 14:38:55.367399,1709127535.367399,-39.55078125,-49.31640625,-31.73828125,-70.3125,-1.0,0.0,-1.0,0.0,5.m4v,11.0
2024-02-28 14:38:55.371304,1709127535.3713045,-29.78515625,-37.59765625,-29.78515625,-250.0,-1.0,0.0,-1.0,0.0,5.m4v,11.0
2024-02-28 14:38:55.375210,1709127535.3752096,-35.15625,-39.0625,-27.83203125,-265.13671875,-1.0,0.0,-1.0,0.0,5.m4v,11.0
2024-02-28 14:38:55.379115,1709127535.3791149,-55.17578125,-34.66796875,-21.97265625,-166.9921875,-1.0,0.0,-1.0,0.0,5.m4v,11.0
2024-02-28 14:38:55.383020,1709127535.3830202,-34.1796875,-9.27734375,0.0,38.0859375,-1.0,0.0,-1.0,0.0,5.m4v,11.0
2024-02-28 14:38:55.386936,1709127535.3869357,-7.8125,-6.34765625,11.71875,62.01171875,-1.0,0.0,-1.0,0.0,5.m4v,11.0
2024-02-28 14:38:55.390841,1709127535.390841,-22.4609375,-14.16015625,-14.6484375,-176.26953125,-1.0,0.0,-1.0,0.0,5.m4v,11.0
2024-02-28 14:38:55.394746,1709127535.3947463,-61.03515625,-24.90234375,-44.43359375,-285.15625,-1.0,0.0,-1.0,0.0,5.m4v,11.0
2024-02-28 14:38:55.398652,1709127535.3986516,-67.3828125,-38.57421875,-53.7109375,-149.90234375,-1.0,0.0,-1.0,0.0,5.m4v,11.0
2024-02-28 14:38:55.402557,1709127535.402557,-42.48046875,-36.62109375,-46.875,82.03125,-1.0,0.0,-1.0,0.0,5.m4v,11.0
2024-02-28 14:38:55.406462,1709127535.4064622,-31.25,-23.92578125,-20.5078125,106.93359375,-1.0,0.0,-1.0,0.0,5.m4v,11.0
2024-02-28 14:38:55.855664,1709127535.8556635,-15.13671875,-22.94921875,-20.01953125,-167.48046875,-1.0,0.0,-1.0,0.0,5.m4v,11.0
2024-02-28 14:38:55.859569,1709127535.8595688,-17.578125,-25.390625,-26.85546875,-55.17578125,-1.0,0.0,-1.0,0.0,5.m4v,11.0
2024-02-28 14:38:55.863474,1709127535.863474,-11.71875,-30.2734375,-30.2734375,46.38671875,-1.0,0.0,-1.0,0.0,5.m4v,11.0
2024-02-28 14:38:55.867379,1709127535.8673794,-8.30078125,-45.8984375,-24.4140625,66.89453125,-1.0,0.0,-1.0,0.0,5.m4v,11.0
2024-02-28 14:38:55.871285,1709127535.8712847,-36.62109375,-47.8515625,-20.5078125,-119.62890625,-1.0,0.0,-1.0,0.0,5.m4v,11.0
2024-02-28 14:38:55.875190,1709127535.87519,-47.8515625,-36.1328125,-28.80859375,-216.30859375,-1.0,0.0,-1.0,0.0,5.m4v,11.0
2024-02-28 14:38:55.879095,1709127535.8790953,-27.34375,-27.83203125,-25.87890625,-37.59765625,-1.0,0.0,-1.0,0.0,5.m4v,11.0
2024-02-28 14:38:55.883001,1709127535.8830006,-32.2265625,-24.4140625,-23.92578125,101.07421875,-1.0,0.0,-1.0,0.0,5.m4v,11.0
2024-02-28 14:38:55.886906,1709127535.886906,-28.3203125,-21.97265625,-17.578125,61.5234375,-1.0,0.0,-1.0,0.0,5.m4v,11.0
2024-02-28 14:38:55.890811,1709127535.8908112,-23.4375,-18.06640625,-21.97265625,-109.86328125,-1.0,0.0,-1.0,0.0,5.m4v,11.0
2024-02-28 14:38:55.894717,1709127535.8947165,-39.0625,-13.671875,-24.4140625,-178.7109375,-1.0,0.0,-1.0,0.0,5.m4v,11.0
2024-02-28 14:38:55.898622,1709127535.8986218,-54.6875,-23.92578125,-34.66796875,-76.171875,-1.0,0.0,-1.0,0.0,5.m4v,11.0
2024-02-28 14:38:55.902536,1709127535.9025357,-46.38671875,-33.69140625,-39.0625,79.1015625,-1.0,0.0,-1.0,0.0,5.m4v,11.0
2024-02-28 14:38:55.906441,1709127535.906441,-18.5546875,-23.4375,-27.34375,132.32421875,-1.0,0.0,-1.0,0.0,5.m4v,11.0
2024-02-28 14:38:55.910346,1709127535.9103465,-26.3671875,-31.73828125,-54.6875,-46.38671875,-1.0,0.0,-1.0,0.0,5.m4v,11.0
2024-02-28 14:38:55.914252,1709127535.9142516,-34.1796875,-41.9921875,-85.9375,-165.52734375,-1.0,0.0,-1.0,0.0,5.m4v,11.0
2024-02-28 14:38:55.918157,1709127535.9181569,-28.80859375,-39.55078125,-97.16796875,-52.24609375,-1.0,0.0,-1.0,0.0,5.m4v,11.0
2024-02-28 14:38:55.922062,1709127535.9220622,-18.5546875,-37.109375,-75.68359375,171.875,-1.0,0.0,-1.0,0.0,5.m4v,11.0
2024-02-28 14:38:55.925967,1709127535.9259677,-2.44140625,-37.109375,-22.94921875,208.49609375,-1.0,0.0,-1.0,0.0,5.m4v,11.0
2024-02-28 14:38:55.929873,1709127535.9298728,-8.7890625,-27.34375,-12.20703125,2.9296875,-1.0,0.0,-1.0,0.0,5.m4v,11.0
2024-02-28 14:38:55.933778,1709127535.933778,-32.71484375,-24.90234375,-32.71484375,-141.11328125,-1.0,0.0,-1.0,0.0,5.m4v,11.0
2024-02-28 14:38:55.937683,1709127535.937683,-58.59375,-36.62109375,-29.78515625,-82.51953125,-1.0,0.0,-1.0,0.0,5.m4v,11.0
2024-02-28 14:38:55.941589,1709127535.9415886,-46.38671875,-21.484375,-3.41796875,95.703125,-1.0,0.0,-1.0,0.0,5.m4v,11.0
2024-02-28 14:38:55.945494,1709127535.945494,-3.41796875,-2.44140625,-1.953125,175.29296875,-1.0,0.0,-1.0,0.0,5.m4v,11.0
2024-02-28 14:38:55.949407,1709127535.949407,-23.92578125,-29.296875,-22.4609375,-36.62109375,-1.0,0.0,-1.0,0.0,5.m4v,11.0
2024-02-28 14:38:55.953313,1709127535.9533126,-67.87109375,-70.3125,-40.52734375,-223.14453125,-1.0,0.0,-1.0,0.0,5.m4v,11.0
2024-02-28 14:38:55.957218,1709127535.957218,-56.640625,-60.05859375,-55.17578125,-119.62890625,-1.0,0.0,-1.0,0.0,5.m4v,11.0
2024-02-28 14:38:55.961123,1709127535.9611232,-37.109375,-38.57421875,-49.31640625,81.54296875,-1.0,0.0,-1.0,0.0,5.m4v,11.0
2024-02-28 14:38:55.965029,1709127535.9650283,-31.25,-37.109375,-25.390625,158.69140625,-1.0,0.0,-1.0,0.0,5.m4v,11.0
2024-02-28 14:38:55.968934,1709127535.9689338,-8.7890625,-17.08984375,-7.8125,64.94140625,-1.0,0.0,-1.0,0.0,5.m4v,11.0
2024-02-28 14:38:55.972839,1709127535.972839,-14.16015625,-19.53125,-24.90234375,-103.02734375,-1.0,0.0,-1.0,0.0,5.m4v,11.0
2024-02-28 14:38:55.976744,1709127535.9767444,-33.69140625,-34.1796875,-35.64453125,-138.18359375,-1.0,0.0,-1.0,0.0,5.m4v,11.0
2024-02-28 14:38:55.980650,1709127535.9806497,-29.296875,-38.57421875,-28.80859375,56.640625,-1.0,0.0,-1.0,0.0,5.m4v,11.0
2024-02-28 14:38:55.984555,1709127535.984555,-18.06640625,-53.7109375,-32.71484375,192.87109375,-1.0,0.0,-1.0,0.0,5.m4v,11.0
2024-02-28 14:38:55.988460,1709127535.9884603,-21.484375,-50.78125,-43.45703125,54.19921875,-1.0,0.0,-1.0,0.0,5.m4v,11.0
2024-02-28 14:38:55.992366,1709127535.9923656,-33.203125,-41.015625,-32.2265625,-145.01953125,-1.0,0.0,-1.0,0.0,5.m4v,11.0
2024-02-28 14:38:55.996283,1709127535.996283,-39.0625,-30.2734375,-29.296875,-121.58203125,-1.0,0.0,-1.0,0.0,5.m4v,11.0
2024-02-28 14:38:56.000188,1709127536.0001884,-39.55078125,-27.34375,-23.92578125,70.80078125,-1.0,0.0,-1.0,0.0,5.m4v,11.0
2024-02-28 14:38:56.004094,1709127536.0040936,-27.34375,-32.71484375,-7.32421875,180.6640625,-1.0,0.0,-1.0,0.0,5.m4v,11.0
2024-02-28 14:38:56.007999,1709127536.007999,-49.31640625,-52.24609375,-19.04296875,26.85546875,-1.0,0.0,-1.0,0.0,5.m4v,11.0
2024-02-28 14:38:56.011904,1709127536.0119042,-54.6875,-51.7578125,-26.3671875,-142.08984375,-1.0,0.0,-1.0,0.0,5.m4v,11.0
2024-02-28 14:38:56.015810,1709127536.0158095,-15.625,-24.90234375,-24.4140625,-68.84765625,-1.0,0.0,-1.0,0.0,5.m4v,11.0
2024-02-28 14:38:56.019715,1709127536.0197148,-21.97265625,-23.92578125,-31.73828125,61.5234375,-1.0,0.0,-1.0,0.0,5.m4v,11.0
2024-02-28 14:38:56.023620,1709127536.02362,-37.59765625,-38.57421875,-41.50390625,161.1328125,-1.0,0.0,-1.0,0.0,5.m4v,11.0
2024-02-28 14:38:56.027525,1709127536.0275254,-32.2265625,-43.45703125,-34.66796875,79.1015625,-1.0,0.0,-1.0,0.0,5.m4v,11.0
2024-02-28 14:38:56.031431,1709127536.0314307,-30.2734375,-38.0859375,-14.16015625,-132.32421875,-1.0,0.0,-1.0,0.0,5.m4v,11.0
2024-02-28 14:38:56.035336,1709127536.035336,-27.83203125,-36.62109375,-9.27734375,-143.5546875,-1.0,0.0,-1.0,0.0,5.m4v,11.0
2024-02-28 14:38:56.039241,1709127536.0392413,-37.109375,-39.55078125,-24.90234375,-21.97265625,-1.0,0.0,-1.0,0.0,5.m4v,11.0
2024-02-28 14:38:56.043158,1709127536.0431578,-49.8046875,-46.875,-52.24609375,91.796875,-1.0,0.0,-1.0,0.0,5.m4v,11.0
2024-02-28 14:38:56.047063,1709127536.047063,-36.62109375,-43.9453125,-41.9921875,88.37890625,-1.0,0.0,-1.0,0.0,5.m4v,11.0
2024-02-28 14:38:56.050968,1709127536.0509684,-22.4609375,-32.71484375,-9.765625,-68.84765625,-1.0,0.0,-1.0,0.0,5.m4v,11.0
2024-02-28 14:38:56.054874,1709127536.0548737,-34.66796875,-34.66796875,-3.90625,-158.69140625,-1.0,0.0,-1.0,0.0,5.m4v,11.0
2024-02-28 14:38:56.058779,1709127536.058779,-53.22265625,-36.62109375,-53.22265625,-62.5,-1.0,0.0,-1.0,0.0,5.m4v,11.0
2024-02-28 14:38:56.062684,1709127536.0626843,-24.4140625,-36.62109375,-75.68359375,173.33984375,-1.0,0.0,-1.0,0.0,5.m4v,11.0
2024-02-28 14:38:56.066590,1709127536.0665896,-10.7421875,-48.33984375,-51.7578125,188.96484375,-1.0,0.0,-1.0,0.0,5.m4v,11.0
2024-02-28 14:38:56.070495,1709127536.070495,-51.26953125,-63.4765625,-55.17578125,-110.83984375,-1.0,0.0,-1.0,0.0,5.m4v,11.0
2024-02-28 14:38:56.074400,1709127536.0744002,-64.453125,-59.5703125,-62.98828125,-193.359375,-1.0,0.0,-1.0,0.0,5.m4v,11.0
2024-02-28 14:38:56.078305,1709127536.0783055,-33.69140625,-30.2734375,-20.5078125,5.859375,-1.0,0.0,-1.0,0.0,5.m4v,11.0
2024-02-28 14:38:56.082211,1709127536.0822108,-11.23046875,-5.37109375,15.625,136.71875,-1.0,0.0,-1.0,0.0,5.m4v,11.0
2024-02-28 14:38:56.086116,1709127536.086116,-34.1796875,-31.73828125,-18.06640625,72.265625,-1.0,0.0,-1.0,0.0,5.m4v,11.0
2024-02-28 14:38:56.090032,1709127536.090032,-42.96875,-56.15234375,-36.1328125,-92.7734375,-1.0,0.0,-1.0,0.0,5.m4v,11.0
2024-02-28 14:38:56.093937,1709127536.0939374,-30.76171875,-39.0625,-16.6015625,-165.0390625,-1.0,0.0,-1.0,0.0,5.m4v,11.0
2024-02-28 14:38:56.097843,1709127536.0978427,-21.97265625,-29.78515625,-11.71875,-77.1484375,-1.0,0.0,-1.0,0.0,5.m4v,11.0
2024-02-28 14:38:56.101748,1709127536.101748,-16.11328125,-23.4375,-37.59765625,114.2578125,-1.0,0.0,-1.0,0.0,5.m4v,11.0
2024-02-28 14:38:56.105653,1709127536.1056533,-34.1796875,-25.390625,-48.828125,173.828125,-1.0,0.0,-1.0,0.0,5.m4v,11.0
2024-02-28 14:38:56.109559,1709127536.1095586,-37.109375,-44.43359375,-31.25,21.484375,-1.0,0.0,-1.0,0.0,5.m4v,11.0
2024-02-28 14:38:56.113464,1709127536.113464,-44.921875,-49.31640625,-24.90234375,-138.671875,-1.0,0.0,-1.0,0.0,5.m4v,11.0
2024-02-28 14:38:56.117369,1709127536.1173692,-64.453125,-30.76171875,-17.08984375,-109.86328125,-1.0,0.0,-1.0,0.0,5.m4v,11.0
2024-02-28 14:38:56.121274,1709127536.1212745,-50.78125,-15.13671875,-16.11328125,86.42578125,-1.0,0.0,-1.0,0.0,5.m4v,11.0
2024-02-28 14:38:56.125180,1709127536.1251798,-22.94921875,-31.25,-45.8984375,143.5546875,-1.0,0.0,-1.0,0.0,5.m4v,11.0
2024-02-28 14:38:56.129085,1709127536.129085,-11.71875,-36.1328125,-40.0390625,-9.27734375,-1.0,0.0,-1.0,0.0,5.m4v,11.0
2024-02-28 14:38:56.132990,1709127536.1329904,-33.69140625,-39.55078125,-12.6953125,-166.9921875,-1.0,0.0,-1.0,0.0,5.m4v,11.0
2024-02-28 14:38:56.136906,1709127536.136906,-35.15625,-33.203125,-14.16015625,-133.7890625,-1.0,0.0,-1.0,0.0,5.m4v,11.0
2024-02-28 14:38:56.140811,1709127536.1408114,-30.76171875,-25.87890625,-36.1328125,38.57421875,-1.0,0.0,-1.0,0.0,5.m4v,11.0
2024-02-28 14:38:56.144717,1709127536.1447167,-30.76171875,-32.71484375,-50.78125,129.39453125,-1.0,0.0,-1.0,0.0,5.m4v,11.0
2024-02-28 14:38:56.148622,1709127536.148622,-20.01953125,-16.6015625,-28.80859375,22.94921875,-1.0,0.0,-1.0,0.0,5.m4v,11.0
2024-02-28 14:38:56.152527,1709127536.152527,-24.4140625,-21.484375,-19.04296875,-134.27734375,-1.0,0.0,-1.0,0.0,5.m4v,11.0
2024-02-28 14:38:56.156433,1709127536.1564326,-32.2265625,-40.52734375,-30.76171875,-110.83984375,-1.0,0.0,-1.0,0.0,5.m4v,11.0
2024-02-28 14:38:56.160338,1709127536.160338,-20.01953125,-37.109375,-32.2265625,44.921875,-1.0,0.0,-1.0,0.0,5.m4v,11.0
2024-02-28 14:38:56.164243,1709127536.1642432,-26.3671875,-52.24609375,-36.62109375,141.6015625,-1.0,0.0,-1.0,0.0,5.m4v,11.0
2024-02-28 14:38:56.168149,1709127536.1681485,-51.7578125,-53.7109375,-61.03515625,17.08984375,-1.0,0.0,-1.0,0.0,5.m4v,11.0
2024-02-28 14:38:56.172054,1709127536.1720538,-51.26953125,-31.25,-42.48046875,-171.875,-1.0,0.0,-1.0,0.0,5.m4v,11.0
2024-02-28 14:38:56.175959,1709127536.175959,-42.48046875,-22.94921875,-21.97265625,-179.19921875,-1.0,0.0,-1.0,0.0,5.m4v,11.0
2024-02-28 14:38:56.179864,1709127536.1798644,-36.1328125,-32.71484375,-45.8984375,-26.3671875,-1.0,0.0,-1.0,0.0,5.m4v,11.0
2024-02-28 14:38:56.183780,1709127536.1837797,-29.296875,-29.78515625,-27.83203125,134.27734375,-1.0,0.0,-1.0,0.0,5.m4v,11.0
2024-02-28 14:38:56.187685,1709127536.187685,-29.78515625,-15.625,-0.48828125,73.2421875,-1.0,0.0,-1.0,0.0,5.m4v,11.0
2024-02-28 14:38:56.191590,1709127536.1915903,-43.9453125,-27.34375,-24.4140625,-115.234375,-1.0,0.0,-1.0,0.0,5.m4v,11.0
2024-02-28 14:38:56.195496,1709127536.1954956,-54.19921875,-40.52734375,-58.59375,-176.26953125,-1.0,0.0,-1.0,0.0,5.m4v,11.0
2024-02-28 14:38:56.199401,1709127536.199401,-35.15625,-24.90234375,-48.33984375,-30.76171875,-1.0,0.0,-1.0,0.0,5.m4v,11.0
2024-02-28 14:38:56.203306,1709127536.2033062,-14.16015625,-13.671875,-14.16015625,178.7109375,-1.0,0.0,-1.0,0.0,5.m4v,11.0
2024-02-28 14:38:56.207211,1709127536.2072115,-21.484375,-29.78515625,-34.1796875,104.98046875,-1.0,0.0,-1.0,0.0,5.m4v,11.0
2024-02-28 14:38:56.211117,1709127536.2111168,-45.8984375,-50.78125,-56.15234375,-156.73828125,-1.0,0.0,-1.0,0.0,5.m4v,11.0
2024-02-28 14:38:56.215022,1709127536.215022,-46.38671875,-39.0625,-23.4375,-219.23828125,-1.0,0.0,-1.0,0.0,5.m4v,11.0
2024-02-28 14:38:56.218927,1709127536.2189274,-32.2265625,-29.78515625,-2.9296875,-57.12890625,-1.0,0.0,-1.0,0.0,5.m4v,11.0
2024-02-28 14:38:56.222833,1709127536.222833,-30.2734375,-30.76171875,-13.18359375,104.00390625,-1.0,0.0,-1.0,0.0,5.m4v,11.0
2024-02-28 14:38:56.226738,1709127536.226738,-26.3671875,-22.94921875,-12.6953125,53.7109375,-1.0,0.0,-1.0,0.0,5.m4v,11.0
2024-02-28 14:38:56.230652,1709127536.230652,-32.2265625,-26.3671875,-20.99609375,-125.9765625,-1.0,0.0,-1.0,0.0,5.m4v,11.0
2024-02-28 14:38:56.234557,1709127536.2345574,-38.57421875,-29.78515625,-36.1328125,-217.28515625,-1.0,0.0,-1.0,0.0,5.m4v,11.0
2024-02-28 14:38:56.238463,1709127536.2384627,-31.25,-25.87890625,-37.59765625,-73.73046875,-1.0,0.0,-1.0,0.0,5.m4v,11.0
2024-02-28 14:38:56.242368,1709127536.242368,-20.5078125,-27.83203125,-34.66796875,165.52734375,-1.0,0.0,-1.0,0.0,5.m4v,11.0
2024-02-28 14:38:56.246273,1709127536.2462733,-23.4375,-39.55078125,-40.52734375,129.8828125,-1.0,0.0,-1.0,0.0,5.m4v,11.0
2024-02-28 14:38:56.250179,1709127536.2501786,-41.9921875,-43.9453125,-50.29296875,-113.76953125,-1.0,0.0,-1.0,0.0,5.m4v,11.0
2024-02-28 14:38:56.254084,1709127536.254084,-41.9921875,-35.15625,-49.31640625,-214.84375,-1.0,0.0,-1.0,0.0,5.m4v,11.0
2024-02-28 14:38:56.257989,1709127536.2579892,-34.66796875,-16.11328125,-19.53125,-140.13671875,-1.0,0.0,-1.0,0.0,5.m4v,11.0
2024-02-28 14:38:56.261894,1709127536.2618945,-41.50390625,-20.99609375,3.41796875,29.296875,-1.0,0.0,-1.0,0.0,5.m4v,11.0
2024-02-28 14:38:56.265800,1709127536.2657998,-35.64453125,-32.71484375,-20.01953125,94.23828125,-1.0,0.0,-1.0,0.0,5.m4v,11.0
2024-02-28 14:38:56.269705,1709127536.269705,-47.8515625,-29.296875,-30.2734375,-85.9375,-1.0,0.0,-1.0,0.0,5.m4v,11.0
2024-02-28 14:38:56.273610,1709127536.2736104,-57.12890625,-27.83203125,-25.87890625,-196.2890625,-1.0,0.0,-1.0,0.0,5.m4v,11.0
2024-02-28 14:38:56.277529,1709127536.2775288,-55.6640625,-37.59765625,-27.34375,-121.58203125,-1.0,0.0,-1.0,0.0,5.m4v,11.0
2024-02-28 14:38:56.281434,1709127536.281434,-41.015625,-49.31640625,-30.2734375,36.62109375,-1.0,0.0,-1.0,0.0,5.m4v,11.0
2024-02-28 14:38:56.285339,1709127536.2853394,-10.25390625,-41.9921875,-25.87890625,141.11328125,-1.0,0.0,-1.0,0.0,5.m4v,11.0
2024-02-28 14:38:56.289245,1709127536.289245,-20.5078125,-28.3203125,-27.34375,-15.13671875,-1.0,0.0,-1.0,0.0,5.m4v,11.0
2024-02-28 14:38:56.293150,1709127536.29315,-48.33984375,-17.578125,-51.26953125,-204.58984375,-1.0,0.0,-1.0,0.0,5.m4v,11.0
2024-02-28 14:38:56.297055,1709127536.2970552,-36.62109375,-2.9296875,-49.8046875,-123.53515625,-1.0,0.0,-1.0,0.0,5.m4v,11.0
2024-02-28 14:38:56.300961,1709127536.3009603,-9.27734375,7.8125,-38.0859375,97.16796875,-1.0,0.0,-1.0,0.0,5.m4v,11.0
2024-02-28 14:38:56.304866,1709127536.3048658,-6.8359375,-15.13671875,-13.18359375,174.31640625,-1.0,0.0,-1.0,0.0,5.m4v,11.0
2024-02-28 14:38:56.308771,1709127536.3087711,-26.3671875,-41.015625,6.34765625,-18.06640625,-1.0,0.0,-1.0,0.0,5.m4v,11.0
2024-02-28 14:38:56.312676,1709127536.3126764,-38.57421875,-22.94921875,-22.4609375,-229.00390625,-1.0,0.0,-1.0,0.0,5.m4v,11.0
2024-02-28 14:38:56.316582,1709127536.3165815,-46.38671875,-32.2265625,-59.08203125,-189.94140625,-1.0,0.0,-1.0,0.0,5.m4v,11.0
2024-02-28 14:38:56.320487,1709127536.320487,-32.2265625,-54.19921875,-43.45703125,-20.5078125,-1.0,0.0,-1.0,0.0,5.m4v,11.0
2024-02-28 14:38:56.324400,1709127536.3244004,-7.8125,-23.92578125,-12.6953125,135.7421875,-1.0,0.0,-1.0,0.0,5.m4v,11.0
2024-02-28 14:38:56.328306,1709127536.3283055,-18.06640625,-3.41796875,-13.671875,17.578125,-1.0,0.0,-1.0,0.0,5.m4v,11.0
2024-02-28 14:38:56.332211,1709127536.332211,-41.50390625,-20.5078125,-23.92578125,-229.98046875,-1.0,0.0,-1.0,0.0,5.m4v,11.0
2024-02-28 14:38:56.336116,1709127536.3361163,-47.8515625,-36.1328125,-34.1796875,-221.6796875,-1.0,0.0,-1.0,0.0,5.m4v,11.0
2024-02-28 14:38:56.340022,1709127536.3400216,-50.78125,-39.55078125,-51.26953125,-62.98828125,-1.0,0.0,-1.0,0.0,5.m4v,11.0
2024-02-28 14:38:56.343927,1709127536.343927,-29.78515625,-32.71484375,-55.6640625,106.4453125,-1.0,0.0,-1.0,0.0,5.m4v,11.0
2024-02-28 14:38:56.347832,1709127536.3478322,-17.578125,-39.0625,-45.41015625,68.84765625,-1.0,0.0,-1.0,0.0,5.m4v,11.0
2024-02-28 14:38:56.351737,1709127536.3517375,-41.50390625,-36.1328125,-35.15625,-127.44140625,-1.0,0.0,-1.0,0.0,5.m4v,11.0
2024-02-28 14:38:56.355643,1709127536.3556428,-43.45703125,-11.71875,-28.80859375,-157.71484375,-1.0,0.0,-1.0,0.0,5.m4v,11.0
2024-02-28 14:38:56.359548,1709127536.359548,-36.1328125,-12.6953125,-20.99609375,0.0,-1.0,0.0,-1.0,0.0,5.m4v,11.0
2024-02-28 14:38:56.363453,1709127536.3634534,-30.76171875,-41.50390625,-9.27734375,160.64453125,-1.0,0.0,-1.0,0.0,5.m4v,11.0
2024-02-28 14:38:56.367359,1709127536.3673587,-34.66796875,-52.24609375,-21.97265625,81.54296875,-1.0,0.0,-1.0,0.0,5.m4v,11.0
2024-02-28 14:38:56.371276,1709127536.371276,-41.9921875,-34.1796875,-21.97265625,-82.03125,-1.0,0.0,-1.0,0.0,5.m4v,11.0
2024-02-28 14:38:56.375181,1709127536.3751814,-31.73828125,-24.4140625,-10.25390625,-145.5078125,-1.0,0.0,-1.0,0.0,5.m4v,11.0
2024-02-28 14:38:56.379087,1709127536.3790867,-26.3671875,-42.96875,-31.25,-93.75,-1.0,0.0,-1.0,0.0,5.m4v,11.0
2024-02-28 14:38:56.382992,1709127536.382992,-12.6953125,-41.015625,-36.62109375,84.47265625,-1.0,0.0,-1.0,0.0,5.m4v,11.0
2024-02-28 14:38:56.386897,1709127536.386897,6.34765625,-25.390625,-20.01953125,117.67578125,-1.0,0.0,-1.0,0.0,5.m4v,11.0
2024-02-28 14:38:56.390803,1709127536.3908026,-20.99609375,-40.52734375,-41.015625,-126.46484375,-1.0,0.0,-1.0,0.0,5.m4v,11.0
2024-02-28 14:38:56.394708,1709127536.3947082,-43.45703125,-36.62109375,-64.453125,-217.7734375,-1.0,0.0,-1.0,0.0,5.m4v,11.0
2024-02-28 14:38:56.398613,1709127536.3986137,-33.203125,-18.06640625,-41.50390625,-102.5390625,-1.0,0.0,-1.0,0.0,5.m4v,11.0
2024-02-28 14:38:56.402519,1709127536.4025187,-28.3203125,-21.97265625,-24.90234375,53.22265625,-1.0,0.0,-1.0,0.0,5.m4v,11.0
2024-02-28 14:38:56.406424,1709127536.406424,-9.765625,-17.578125,-30.76171875,116.2109375,-1.0,0.0,-1.0,0.0,5.m4v,11.0
2024-02-28 14:38:56.410329,1709127536.410329,-17.08984375,-23.4375,-58.59375,-96.19140625,-1.0,0.0,-1.0,0.0,5.m4v,11.0
2024-02-28 14:38:56.414235,1709127536.4142346,-37.59765625,-36.62109375,-57.12890625,-228.515625,-1.0,0.0,-1.0,0.0,5.m4v,11.0
2024-02-28 14:38:56.418151,1709127536.4181514,-45.8984375,-41.015625,-24.90234375,-105.95703125,-1.0,0.0,-1.0,0.0,5.m4v,11.0
2024-02-28 14:38:56.422057,1709127536.422057,-35.64453125,-50.29296875,-25.390625,102.05078125,-1.0,0.0,-1.0,0.0,5.m4v,11.0
2024-02-28 14:38:56.425962,1709127536.425962,-9.27734375,-36.62109375,-32.2265625,158.69140625,-1.0,0.0,-1.0,0.0,5.m4v,11.0
2024-02-28 14:38:56.429867,1709127536.4298673,-9.27734375,-14.16015625,-18.06640625,-24.90234375,-1.0,0.0,-1.0,0.0,5.m4v,11.0
2024-02-28 14:38:56.433773,1709127536.4337726,-50.78125,-32.2265625,-10.25390625,-225.09765625,-1.0,0.0,-1.0,0.0,5.m4v,11.0
2024-02-28 14:38:56.437678,1709127536.437678,-56.640625,-28.80859375,-13.671875,-148.92578125,-1.0,0.0,-1.0,0.0,5.m4v,11.0
2024-02-28 14:38:56.886887,1709127536.8868866,-7.8125,-20.01953125,-80.56640625,131.8359375,-1.0,0.0,-1.0,0.0,5.m4v,11.0
2024-02-28 14:38:56.890792,1709127536.890792,-22.4609375,-25.390625,-68.359375,-110.3515625,-1.0,0.0,-1.0,0.0,5.m4v,11.0
2024-02-28 14:38:56.894697,1709127536.8946972,-22.94921875,-10.25390625,-47.36328125,-164.55078125,-1.0,0.0,-1.0,0.0,5.m4v,11.0
2024-02-28 14:38:56.898602,1709127536.8986025,-17.578125,-2.9296875,-56.640625,-35.64453125,-1.0,0.0,-1.0,0.0,5.m4v,11.0
2024-02-28 14:38:56.902508,1709127536.9025078,-27.83203125,-22.4609375,-47.8515625,148.4375,-1.0,0.0,-1.0,0.0,5.m4v,11.0
2024-02-28 14:38:56.906413,1709127536.906413,-31.73828125,-30.2734375,-5.859375,162.59765625,-1.0,0.0,-1.0,0.0,5.m4v,11.0
2024-02-28 14:38:56.910318,1709127536.9103184,-50.29296875,-49.8046875,-4.39453125,-65.91796875,-1.0,0.0,-1.0,0.0,5.m4v,11.0
2024-02-28 14:38:56.914224,1709127536.9142237,-62.98828125,-57.12890625,-10.7421875,-196.77734375,-1.0,0.0,-1.0,0.0,5.m4v,11.0
2024-02-28 14:38:56.918129,1709127536.918129,-54.19921875,-59.08203125,-21.484375,-116.69921875,-1.0,0.0,-1.0,0.0,5.m4v,11.0
2024-02-28 14:38:56.922034,1709127536.9220345,-37.59765625,-55.17578125,-23.4375,85.9375,-1.0,0.0,-1.0,0.0,5.m4v,11.0
2024-02-28 14:38:56.925940,1709127536.9259396,-28.3203125,-32.2265625,-16.6015625,149.4140625,-1.0,0.0,-1.0,0.0,5.m4v,11.0
2024-02-28 14:38:56.929845,1709127536.9298449,-21.97265625,-27.34375,-12.20703125,-44.921875,-1.0,0.0,-1.0,0.0,5.m4v,11.0
2024-02-28 14:38:56.933760,1709127536.9337597,-33.203125,-30.2734375,-18.06640625,-202.63671875,-1.0,0.0,-1.0,0.0,5.m4v,11.0
2024-02-28 14:38:56.937665,1709127536.937665,-34.66796875,-17.578125,-29.296875,-135.7421875,-1.0,0.0,-1.0,0.0,5.m4v,11.0
2024-02-28 14:38:56.941570,1709127536.9415703,-21.97265625,-15.625,-26.85546875,71.2890625,-1.0,0.0,-1.0,0.0,5.m4v,11.0
2024-02-28 14:38:56.945476,1709127536.9454756,-28.80859375,-17.578125,-31.25,152.34375,-1.0,0.0,-1.0,0.0,5.m4v,11.0
2024-02-28 14:38:56.949381,1709127536.9493809,-49.8046875,-31.25,-47.36328125,-20.99609375,-1.0,0.0,-1.0,0.0,5.m4v,11.0
2024-02-28 14:38:56.953286,1709127536.9532862,-54.6875,-34.66796875,-46.875,-150.87890625,-1.0,0.0,-1.0,0.0,5.m4v,11.0
2024-02-28 14:38:56.957191,1709127536.9571917,-41.015625,-22.4609375,-40.52734375,-61.5234375,-1.0,0.0,-1.0,0.0,5.m4v,11.0
2024-02-28 14:38:56.961097,1709127536.9610968,-35.64453125,-29.78515625,-41.50390625,93.26171875,-1.0,0.0,-1.0,0.0,5.m4v,11.0
2024-02-28 14:38:56.965002,1709127536.965002,-30.76171875,-39.55078125,-17.08984375,193.359375,-1.0,0.0,-1.0,0.0,5.m4v,11.0
2024-02-28 14:38:56.968907,1709127536.9689074,-40.52734375,-46.38671875,-17.578125,38.0859375,-1.0,0.0,-1.0,0.0,5.m4v,11.0
2024-02-28 14:38:56.972813,1709127536.972813,-39.55078125,-53.22265625,-38.0859375,-174.31640625,-1.0,0.0,-1.0,0.0,5.m4v,11.0
2024-02-28 14:38:56.976718,1709127536.976718,-20.01953125,-28.3203125,-12.20703125,-138.18359375,-1.0,0.0,-1.0,0.0,5.m4v,11.0
2024-02-28 14:38:56.980632,1709127536.9806323,-23.4375,-0.9765625,4.39453125,11.71875,-1.0,0.0,-1.0,0.0,5.m4v,11.0
2024-02-28 14:38:56.984538,1709127536.9845376,-20.01953125,-8.30078125,-16.6015625,128.41796875,-1.0,0.0,-1.0,0.0,5.m4v,11.0
2024-02-28 14:38:56.988443,1709127536.988443,-38.0859375,-19.53125,-43.45703125,11.23046875,-1.0,0.0,-1.0,0.0,5.m4v,11.0
2024-02-28 14:38:56.992348,1709127536.9923482,-62.98828125,-9.765625,-55.17578125,-200.68359375,-1.0,0.0,-1.0,0.0,5.m4v,11.0
2024-02-28 14:38:56.996253,1709127536.9962535,-42.96875,-1.953125,-36.1328125,-184.08203125,-1.0,0.0,-1.0,0.0,5.m4v,11.0
2024-02-28 14:38:57.000159,1709127537.0001588,-36.1328125,-20.01953125,-41.9921875,-31.25,-1.0,0.0,-1.0,0.0,5.m4v,11.0
2024-02-28 14:38:57.004064,1709127537.004064,-18.5546875,-19.53125,-37.109375,134.765625,-1.0,0.0,-1.0,0.0,5.m4v,11.0
2024-02-28 14:38:57.007969,1709127537.0079694,-12.6953125,-23.4375,-23.4375,114.2578125,-1.0,0.0,-1.0,0.0,5.m4v,11.0
2024-02-28 14:38:57.011875,1709127537.011875,-45.41015625,-43.45703125,-30.76171875,-134.765625,-1.0,0.0,-1.0,0.0,5.m4v,11.0
2024-02-28 14:38:57.015780,1709127537.01578,-59.08203125,-46.875,-20.5078125,-244.140625,-1.0,0.0,-1.0,0.0,5.m4v,11.0
2024-02-28 14:38:57.019685,1709127537.0196853,-45.41015625,-34.1796875,-33.69140625,-32.71484375,-1.0,0.0,-1.0,0.0,5.m4v,11.0
2024-02-28 14:38:57.023591,1709127537.0235906,-17.08984375,-31.73828125,-26.3671875,176.7578125,-1.0,0.0,-1.0,0.0,5.m4v,11.0
2024-02-28 14:38:57.027505,1709127537.027505,-15.625,-24.90234375,-14.6484375,93.26171875,-1.0,0.0,-1.0,0.0,5.m4v,11.0
2024-02-28 14:38:57.031410,1709127537.0314102,-50.29296875,-30.2734375,-42.96875,-141.6015625,-1.0,0.0,-1.0,0.0,5.m4v,11.0
2024-02-28 14:38:57.035316,1709127537.0353155,-69.3359375,-37.59765625,-51.7578125,-214.84375,-1.0,0.0,-1.0,0.0,5.m4v,11.0
2024-02-28 14:38:57.039221,1709127537.0392208,-52.24609375,-33.203125,-39.55078125,-69.82421875,-1.0,0.0,-1.0,0.0,5.m4v,11.0
2024-02-28 14:38:57.043126,1709127537.043126,-20.5078125,-39.0625,-42.48046875,115.72265625,-1.0,0.0,-1.0,0.0,5.m4v,11.0
2024-02-28 14:38:57.047031,1709127537.0470314,-6.34765625,-30.2734375,-41.9921875,104.98046875,-1.0,0.0,-1.0,0.0,5.m4v,11.0
2024-02-28 14:38:57.050937,1709127537.0509367,-25.390625,-25.390625,-37.109375,-110.83984375,-1.0,0.0,-1.0,0.0,5.m4v,11.0
2024-02-28 14:38:57.054842,1709127537.054842,-41.9921875,-19.53125,-28.3203125,-244.140625,-1.0,0.0,-1.0,0.0,5.m4v,11.0
2024-02-28 14:38:57.058747,1709127537.0587473,-38.0859375,-15.13671875,-20.5078125,-145.5078125,-1.0,0.0,-1.0,0.0,5.m4v,11.0
2024-02-28 14:38:57.062653,1709127537.0626526,-18.5546875,-24.4140625,-39.0625,52.24609375,-1.0,0.0,-1.0,0.0,5.m4v,11.0
2024-02-28 14:38:57.066558,1709127537.066558,5.859375,-17.578125,-20.01953125,127.44140625,-1.0,0.0,-1.0,0.0,5.m4v,11.0
2024-02-28 14:38:57.070463,1709127537.0704632,-14.6484375,-23.4375,-1.46484375,-94.23828125,-1.0,0.0,-1.0,0.0,5.m4v,11.0
2024-02-28 14:38:57.074376,1709127537.074376,-36.62109375,-42.96875,-18.06640625,-270.5078125,-1.0,0.0,-1.0,0.0,5.m4v,11.0
2024-02-28 14:38:57.078281,1709127537.0782814,-46.38671875,-54.6875,-49.31640625,-177.734375,-1.0,0.0,-1.0,0.0,5.m4v,11.0
2024-02-28 14:38:57.082187,1709127537.0821867,-46.875,-43.9453125,-67.3828125,-3.41796875,-1.0,0.0,-1.0,0.0,5.m4v,11.0
2024-02-28 14:38:57.086092,1709127537.086092,-38.57421875,-42.96875,-44.921875,58.59375,-1.0,0.0,-1.0,0.0,5.m4v,11.0
2024-02-28 14:38:57.089997,1709127537.0899973,-32.2265625,-41.50390625,-18.06640625,-93.75,-1.0,0.0,-1.0,0.0,5.m4v,11.0
2024-02-28 14:38:57.093903,1709127537.0939026,-36.1328125,-25.390625,-22.4609375,-190.91796875,-1.0,0.0,-1.0,0.0,5.m4v,11.0
2024-02-28 14:38:57.097808,1709127537.097808,-43.45703125,-26.85546875,-41.50390625,-108.88671875,-1.0,0.0,-1.0,0.0,5.m4v,11.0
2024-02-28 14:38:57.101713,1709127537.1017132,-24.90234375,-20.5078125,-43.9453125,23.92578125,-1.0,0.0,-1.0,0.0,5.m4v,11.0
2024-02-28 14:38:57.105618,1709127537.1056185,-3.41796875,-3.90625,-21.484375,115.72265625,-1.0,0.0,-1.0,0.0,5.m4v,11.0
2024-02-28 14:38:57.109524,1709127537.1095238,-22.94921875,0.9765625,-1.46484375,-27.83203125,-1.0,0.0,-1.0,0.0,5.m4v,11.0
2024-02-28 14:38:57.113429,1709127537.113429,-54.6875,-24.4140625,-10.7421875,-220.703125,-1.0,0.0,-1.0,0.0,5.m4v,11.0
2024-02-28 14:38:57.117334,1709127537.1173344,-65.4296875,-48.33984375,-24.4140625,-177.24609375,-1.0,0.0,-1.0,0.0,5.m4v,11.0
2024-02-28 14:38:57.121247,1709127537.1212468,-52.24609375,-42.48046875,-20.01953125,-6.8359375,-1.0,0.0,-1.0,0.0,5.m4v,11.0
2024-02-28 14:38:57.125152,1709127537.125152,-26.85546875,-28.3203125,-27.83203125,82.03125,-1.0,0.0,-1.0,0.0,5.m4v,11.0
2024-02-28 14:38:57.129057,1709127537.1290574,-36.1328125,-41.015625,-38.0859375,-44.921875,-1.0,0.0,-1.0,0.0,5.m4v,11.0
2024-02-28 14:38:57.132963,1709127537.1329627,-55.6640625,-54.6875,-24.90234375,-213.37890625,-1.0,0.0,-1.0,0.0,5.m4v,11.0
2024-02-28 14:38:57.136868,1709127537.136868,-40.52734375,-31.73828125,-15.625,-155.76171875,-1.0,0.0,-1.0,0.0,5.m4v,11.0
2024-02-28 14:38:57.140773,1709127537.1407733,-24.4140625,-27.83203125,-39.0625,27.34375,-1.0,0.0,-1.0,0.0,5.m4v,11.0
2024-02-28 14:38:57.144679,1709127537.1446786,-20.99609375,-30.76171875,-38.57421875,130.37109375,-1.0,0.0,-1.0,0.0,5.m4v,11.0
2024-02-28 14:38:57.148584,1709127537.148584,-12.20703125,-14.6484375,-5.859375,31.73828125,-1.0,0.0,-1.0,0.0,5.m4v,11.0
2024-02-28 14:38:57.152489,1709127537.1524892,-27.34375,-39.55078125,-11.23046875,-166.50390625,-1.0,0.0,-1.0,0.0,5.m4v,11.0
2024-02-28 14:38:57.156394,1709127537.1563945,-52.24609375,-68.84765625,-30.76171875,-185.546875,-1.0,0.0,-1.0,0.0,5.m4v,11.0
2024-02-28 14:38:57.160300,1709127537.1602998,-34.1796875,-41.50390625,-27.34375,4.8828125,-1.0,0.0,-1.0,0.0,5.m4v,11.0
2024-02-28 14:38:57.164205,1709127537.164205,-12.20703125,-20.5078125,-19.53125,161.62109375,-1.0,0.0,-1.0,0.0,5.m4v,11.0
2024-02-28 14:38:57.168122,1709127537.1681218,-28.80859375,-38.57421875,-26.85546875,84.47265625,-1.0,0.0,-1.0,0.0,5.m4v,11.0
2024-02-28 14:38:57.172027,1709127537.172027,-42.48046875,-41.9921875,-41.015625,-132.8125,-1.0,0.0,-1.0,0.0,5.m4v,11.0
2024-02-28 14:38:57.175932,1709127537.1759324,-28.80859375,-19.53125,-20.01953125,-191.89453125,-1.0,0.0,-1.0,0.0,5.m4v,11.0
2024-02-28 14:38:57.179838,1709127537.1798377,-26.3671875,-20.01953125,-7.8125,-57.12890625,-1.0,0.0,-1.0,0.0,5.m4v,11.0
2024-02-28 14:38:57.183743,1709127537.183743,-28.3203125,-38.57421875,-37.59765625,99.609375,-1.0,0.0,-1.0,0.0,5.m4v,11.0
2024-02-28 14:38:57.187648,1709127537.1876483,-9.27734375,-37.59765625,-52.734375,91.796875,-1.0,0.0,-1.0,0.0,5.m4v,11.0
2024-02-28 14:38:57.191554,1709127537.1915536,-12.6953125,-36.62109375,-31.25,-132.8125,-1.0,0.0,-1.0,0.0,5.m4v,11.0
2024-02-28 14:38:57.195459,1709127537.195459,-20.99609375,-33.203125,-31.73828125,-223.6328125,-1.0,0.0,-1.0,0.0,5.m4v,11.0
2024-02-28 14:38:57.199364,1709127537.1993642,-17.08984375,-32.2265625,-37.59765625,-88.8671875,-1.0,0.0,-1.0,0.0,5.m4v,11.0
2024-02-28 14:38:57.203269,1709127537.2032695,-30.76171875,-46.875,-16.6015625,112.79296875,-1.0,0.0,-1.0,0.0,5.m4v,11.0
2024-02-28 14:38:57.207175,1709127537.2071748,-36.1328125,-55.17578125,-28.3203125,47.36328125,-1.0,0.0,-1.0,0.0,5.m4v,11.0
2024-02-28 14:38:57.211080,1709127537.21108,-40.52734375,-46.875,-38.57421875,-221.19140625,-1.0,0.0,-1.0,0.0,5.m4v,11.0
2024-02-28 14:38:57.214996,1709127537.2149963,-46.38671875,-38.0859375,-35.64453125,-285.15625,-1.0,0.0,-1.0,0.0,5.m4v,11.0
2024-02-28 14:38:57.218902,1709127537.2189016,-34.66796875,-25.87890625,-49.31640625,-135.25390625,-1.0,0.0,-1.0,0.0,5.m4v,11.0
2024-02-28 14:38:57.222807,1709127537.222807,-39.0625,-30.2734375,-53.7109375,41.9921875,-1.0,0.0,-1.0,0.0,5.m4v,11.0
2024-02-28 14:38:57.226712,1709127537.2267122,-38.0859375,-35.15625,-38.57421875,34.1796875,-1.0,0.0,-1.0,0.0,5.m4v,11.0
2024-02-28 14:38:57.230618,1709127537.2306175,-28.3203125,-13.18359375,-6.34765625,-114.2578125,-1.0,0.0,-1.0,0.0,5.m4v,11.0
2024-02-28 14:38:57.234523,1709127537.2345228,-34.66796875,-15.13671875,-16.11328125,-203.61328125,-1.0,0.0,-1.0,0.0,5.m4v,11.0
2024-02-28 14:38:57.238428,1709127537.238428,-53.7109375,-41.50390625,-61.5234375,-175.78125,-1.0,0.0,-1.0,0.0,5.m4v,11.0
2024-02-28 14:38:57.242333,1709127537.2423334,-42.96875,-37.109375,-42.48046875,-30.2734375,-1.0,0.0,-1.0,0.0,5.m4v,11.0
2024-02-28 14:38:57.246239,1709127537.2462387,-22.94921875,-36.62109375,-5.859375,62.01171875,-1.0,0.0,-1.0,0.0,5.m4v,11.0
2024-02-28 14:38:57.250144,1709127537.250144,-31.25,-41.9921875,-17.578125,-105.95703125,-1.0,0.0,-1.0,0.0,5.m4v,11.0
2024-02-28 14:38:57.254049,1709127537.2540493,-38.57421875,-28.3203125,-31.73828125,-229.00390625,-1.0,0.0,-1.0,0.0,5.m4v,11.0
2024-02-28 14:38:57.257955,1709127537.2579546,-57.6171875,-40.0390625,-49.8046875,-141.6015625,-1.0,0.0,-1.0,0.0,5.m4v,11.0
2024-02-28 14:38:57.261871,1709127537.2618706,-35.64453125,-49.8046875,-49.8046875,20.5078125,-1.0,0.0,-1.0,0.0,5.m4v,11.0
2024-02-28 14:38:57.265776,1709127537.265776,3.41796875,-34.66796875,-21.97265625,107.91015625,-1.0,0.0,-1.0,0.0,5.m4v,11.0
2024-02-28 14:38:57.269681,1709127537.2696812,-27.34375,-40.52734375,-9.27734375,-34.66796875,-1.0,0.0,-1.0,0.0,5.m4v,11.0
2024-02-28 14:38:57.273587,1709127537.2735865,-53.7109375,-37.59765625,-23.92578125,-227.5390625,-1.0,0.0,-1.0,0.0,5.m4v,11.0
2024-02-28 14:38:57.277492,1709127537.2774918,-40.52734375,-15.13671875,-43.9453125,-180.6640625,-1.0,0.0,-1.0,0.0,5.m4v,11.0
2024-02-28 14:38:57.281397,1709127537.281397,-9.765625,0.0,-34.66796875,61.03515625,-1.0,0.0,-1.0,0.0,5.m4v,11.0
2024-02-28 14:38:57.285302,1709127537.2853024,-13.671875,-13.671875,-30.76171875,134.765625,-1.0,0.0,-1.0,0.0,5.m4v,11.0
2024-02-28 14:38:57.289208,1709127537.2892077,-49.31640625,-58.59375,-45.41015625,-68.359375,-1.0,0.0,-1.0,0.0,5.m4v,11.0
2024-02-28 14:38:57.293113,1709127537.293113,-70.3125,-77.63671875,-41.9921875,-265.13671875,-1.0,0.0,-1.0,0.0,5.m4v,11.0
2024-02-28 14:38:57.297018,1709127537.2970183,-72.75390625,-64.94140625,-41.015625,-238.28125,-1.0,0.0,-1.0,0.0,5.m4v,11.0
2024-02-28 14:38:57.300924,1709127537.3009236,-38.0859375,-41.50390625,-24.4140625,-0.48828125,-1.0,0.0,-1.0,0.0,5.m4v,11.0
2024-02-28 14:38:57.304829,1709127537.304829,-3.90625,-29.78515625,-33.203125,140.625,-1.0,0.0,-1.0,0.0,5.m4v,11.0
2024-02-28 14:38:57.308744,1709127537.3087437,-21.97265625,-34.66796875,-56.15234375,-40.52734375,-1.0,0.0,-1.0,0.0,5.m4v,11.0
2024-02-28 14:38:57.312649,1709127537.312649,-40.0390625,-37.59765625,-31.25,-249.0234375,-1.0,0.0,-1.0,0.0,5.m4v,11.0
2024-02-28 14:38:57.316554,1709127537.3165543,-33.69140625,-36.62109375,-19.04296875,-213.37890625,-1.0,0.0,-1.0,0.0,5.m4v,11.0
2024-02-28 14:38:57.320460,1709127537.3204596,-36.1328125,-37.59765625,-28.80859375,-16.6015625,-1.0,0.0,-1.0,0.0,5.m4v,11.0
2024-02-28 14:38:57.324365,1709127537.324365,-37.59765625,-59.08203125,-20.5078125,92.7734375,-1.0,0.0,-1.0,0.0,5.m4v,11.0
2024-02-28 14:38:57.328270,1709127537.3282702,-31.25,-48.33984375,-25.390625,-16.6015625,-1.0,0.0,-1.0,0.0,5.m4v,11.0
2024-02-28 14:38:57.332175,1709127537.3321755,-27.34375,-13.671875,-49.31640625,-212.890625,-1.0,0.0,-1.0,0.0,5.m4v,11.0
2024-02-28 14:38:57.336081,1709127537.3360808,-35.64453125,-18.06640625,-42.48046875,-239.2578125,-1.0,0.0,-1.0,0.0,5.m4v,11.0
2024-02-28 14:38:57.339986,1709127537.339986,-51.26953125,-47.8515625,-35.15625,-94.7265625,-1.0,0.0,-1.0,0.0,5.m4v,11.0
2024-02-28 14:38:57.343891,1709127537.3438914,-41.9921875,-47.36328125,-40.0390625,86.42578125,-1.0,0.0,-1.0,0.0,5.m4v,11.0
2024-02-28 14:38:57.347797,1709127537.347797,-17.08984375,-15.13671875,-31.73828125,92.7734375,-1.0,0.0,-1.0,0.0,5.m4v,11.0
2024-02-28 14:38:57.351702,1709127537.351702,-29.78515625,-3.90625,-27.83203125,-124.51171875,-1.0,0.0,-1.0,0.0,5.m4v,11.0
2024-02-28 14:38:57.355616,1709127537.355616,-55.17578125,-20.99609375,-36.1328125,-206.54296875,-1.0,0.0,-1.0,0.0,5.m4v,11.0
2024-02-28 14:38:57.359521,1709127537.3595214,-57.12890625,-33.69140625,-54.19921875,-76.171875,-1.0,0.0,-1.0,0.0,5.m4v,11.0
2024-02-28 14:38:57.363427,1709127537.3634267,-42.48046875,-40.0390625,-46.875,132.32421875,-1.0,0.0,-1.0,0.0,5.m4v,11.0
2024-02-28 14:38:57.367332,1709127537.367332,-28.80859375,-39.55078125,-23.92578125,128.41796875,-1.0,0.0,-1.0,0.0,5.m4v,11.0
2024-02-28 14:38:57.371237,1709127537.3712373,-34.66796875,-22.4609375,-29.296875,-105.46875,-1.0,0.0,-1.0,0.0,5.m4v,11.0
2024-02-28 14:38:57.375143,1709127537.3751426,-45.8984375,-20.99609375,-43.9453125,-161.1328125,-1.0,0.0,-1.0,0.0,5.m4v,11.0
2024-02-28 14:38:57.379048,1709127537.379048,-32.71484375,-5.859375,-35.64453125,-36.62109375,-1.0,0.0,-1.0,0.0,5.m4v,11.0
2024-02-28 14:38:57.382953,1709127537.3829532,-15.13671875,-7.8125,-20.99609375,88.37890625,-1.0,0.0,-1.0,0.0,5.m4v,11.0
2024-02-28 14:38:57.386858,1709127537.3868585,-24.4140625,-32.71484375,-26.85546875,64.453125,-1.0,0.0,-1.0,0.0,5.m4v,11.0
2024-02-28 14:38:57.390764,1709127537.3907638,-55.17578125,-44.43359375,-38.57421875,-174.31640625,-1.0,0.0,-1.0,0.0,5.m4v,11.0
2024-02-28 14:38:57.394669,1709127537.394669,-67.3828125,-53.7109375,-39.0625,-306.15234375,-1.0,0.0,-1.0,0.0,5.m4v,11.0
2024-02-28 14:38:57.398574,1709127537.3985744,-36.62109375,-33.203125,-26.3671875,-136.23046875,-1.0,0.0,-1.0,0.0,5.m4v,11.0
2024-02-28 14:38:57.402488,1709127537.4024882,-8.30078125,-14.6484375,-13.671875,118.65234375,-1.0,0.0,-1.0,0.0,5.m4v,11.0
2024-02-28 14:38:57.406394,1709127537.4063935,-14.16015625,-18.06640625,-15.13671875,138.671875,-1.0,0.0,-1.0,0.0,5.m4v,11.0
2024-02-28 14:38:57.410299,1709127537.4102988,-44.43359375,-21.484375,-32.2265625,-104.00390625,-1.0,0.0,-1.0,0.0,5.m4v,11.0
2024-02-28 14:38:57.414204,1709127537.414204,-67.87109375,-22.94921875,-41.9921875,-249.51171875,-1.0,0.0,-1.0,0.0,5.m4v,11.0
2024-02-28 14:38:57.418109,1709127537.4181094,-75.1953125,-27.83203125,-43.9453125,-176.26953125,-1.0,0.0,-1.0,0.0,5.m4v,11.0
2024-02-28 14:38:57.422015,1709127537.4220147,-40.0390625,-9.765625,-25.390625,79.1015625,-1.0,0.0,-1.0,0.0,5.m4v,11.0
2024-02-28 14:38:57.425920,1709127537.42592,-20.99609375,-18.06640625,-31.25,220.703125,-1.0,0.0,-1.0,0.0,5.m4v,11.0
2024-02-28 14:38:57.429825,1709127537.4298253,-54.6875,-50.29296875,-42.48046875,-36.62109375,-1.0,0.0,-1.0,0.0,5.m4v,11.0
2024-02-28 14:38:57.433731,1709127537.4337306,-83.0078125,-61.03515625,-22.4609375,-248.046875,-1.0,0.0,-1.0,0.0,5.m4v,11.0
2024-02-28 14:38:57.437636,1709127537.437636,-82.51953125,-61.03515625,-14.6484375,-161.62109375,-1.0,0.0,-1.0,0.0,5.m4v,11.0
2024-02-28 14:38:57.441541,1709127537.4415412,-65.91796875,-57.12890625,-17.08984375,-1.46484375,-1.0,0.0,-1.0,0.0,5.m4v,11.0
2024-02-28 14:38:57.445446,1709127537.4454465,-33.69140625,-44.43359375,-8.30078125,127.9296875,-1.0,0.0,-1.0,0.0,5.m4v,11.0
2024-02-28 14:38:57.449360,1709127537.44936,-40.0390625,-39.55078125,-17.578125,2.44140625,-1.0,0.0,-1.0,0.0,5.m4v,11.0
2024-02-28 14:38:57.453265,1709127537.4532654,-66.40625,-59.5703125,-72.265625,-180.6640625,-1.0,0.0,-1.0,0.0,5.m4v,11.0
2024-02-28 14:38:57.457171,1709127537.4571707,-41.9921875,-60.546875,-66.40625,-91.30859375,-1.0,0.0,-1.0,0.0,5.m4v,11.0
2024-02-28 14:38:57.461076,1709127537.461076,-22.94921875,-35.15625,-7.32421875,83.49609375,-1.0,0.0,-1.0,0.0,5.m4v,11.0
2024-02-28 14:38:57.464981,1709127537.4649813,-34.1796875,-31.25,-0.9765625,159.1796875,-1.0,0.0,-1.0,0.0,5.m4v,11.0
2024-02-28 14:38:57.468887,1709127537.4688866,-48.33984375,-33.69140625,-22.94921875,30.76171875,-1.0,0.0,-1.0,0.0,5.m4v,11.0
2024-02-28 14:38:57.871220,1709127537.87122,-103.515625,-47.8515625,-43.9453125,-234.375,-1.0,0.0,-1.0,0.0,5.m4v,11.0
2024-02-28 14:38:57.875125,1709127537.8751252,-119.62890625,-51.7578125,-39.0625,-280.76171875,-1.0,0.0,-1.0,0.0,5.m4v,11.0
2024-02-28 14:38:57.879030,1709127537.8790305,-112.3046875,-41.50390625,-26.85546875,-157.71484375,-1.0,0.0,-1.0,0.0,5.m4v,11.0
2024-02-28 14:38:57.882936,1709127537.8829358,-115.234375,-31.25,-14.6484375,-47.8515625,-1.0,0.0,-1.0,0.0,5.m4v,11.0
2024-02-28 14:38:57.886841,1709127537.886841,-90.33203125,-20.99609375,-12.20703125,-6.34765625,-1.0,0.0,-1.0,0.0,5.m4v,11.0
2024-02-28 14:38:57.890746,1709127537.8907464,-85.9375,-20.5078125,-28.80859375,-91.796875,-1.0,0.0,-1.0,0.0,5.m4v,11.0
2024-02-28 14:38:57.894652,1709127537.8946517,-112.79296875,-23.4375,-39.0625,-210.9375,-1.0,0.0,-1.0,0.0,5.m4v,11.0
2024-02-28 14:38:57.898557,1709127537.898557,-95.703125,-12.6953125,-31.73828125,-137.20703125,-1.0,0.0,-1.0,0.0,5.m4v,11.0
2024-02-28 14:38:57.902462,1709127537.9024622,-55.17578125,-16.11328125,-24.4140625,91.796875,-1.0,0.0,-1.0,0.0,5.m4v,11.0
2024-02-28 14:38:57.906368,1709127537.9063675,-50.78125,-27.83203125,-40.0390625,99.609375,-1.0,0.0,-1.0,0.0,5.m4v,11.0
2024-02-28 14:38:57.910273,1709127537.9102728,-87.890625,-34.66796875,-55.6640625,-124.51171875,-1.0,0.0,-1.0,0.0,5.m4v,11.0
2024-02-28 14:38:57.914178,1709127537.914178,-72.265625,-27.83203125,-40.0390625,-217.28515625,-1.0,0.0,-1.0,0.0,5.m4v,11.0
2024-02-28 14:38:57.918095,1709127537.9180954,-43.9453125,-20.99609375,-25.87890625,-116.69921875,-1.0,0.0,-1.0,0.0,5.m4v,11.0
2024-02-28 14:38:57.922001,1709127537.9220006,-37.109375,-15.625,-25.87890625,112.79296875,-1.0,0.0,-1.0,0.0,5.m4v,11.0
2024-02-28 14:38:57.925906,1709127537.925906,-19.53125,-12.20703125,-26.85546875,240.72265625,-1.0,0.0,-1.0,0.0,5.m4v,11.0
2024-02-28 14:38:57.929811,1709127537.9298112,-32.71484375,-25.87890625,-36.1328125,-9.27734375,-1.0,0.0,-1.0,0.0,5.m4v,11.0
2024-02-28 14:38:57.933717,1709127537.9337163,-44.43359375,-30.76171875,-47.36328125,-242.67578125,-1.0,0.0,-1.0,0.0,5.m4v,11.0
2024-02-28 14:38:57.937622,1709127537.9376218,-27.83203125,-33.69140625,-41.9921875,-149.90234375,-1.0,0.0,-1.0,0.0,5.m4v,11.0
2024-02-28 14:38:57.941527,1709127537.9415271,-9.27734375,-27.83203125,-51.26953125,47.8515625,-1.0,0.0,-1.0,0.0,5.m4v,11.0
2024-02-28 14:38:57.945432,1709127537.9454324,-15.13671875,-20.01953125,-53.22265625,120.1171875,-1.0,0.0,-1.0,0.0,5.m4v,11.0
2024-02-28 14:38:57.949338,1709127537.9493375,-33.69140625,-30.76171875,-32.71484375,-33.203125,-1.0,0.0,-1.0,0.0,5.m4v,11.0
2024-02-28 14:38:57.953243,1709127537.953243,-62.98828125,-47.8515625,-32.71484375,-236.81640625,-1.0,0.0,-1.0,0.0,5.m4v,11.0
2024-02-28 14:38:57.957148,1709127537.9571483,-77.1484375,-58.10546875,-42.48046875,-206.0546875,-1.0,0.0,-1.0,0.0,5.m4v,11.0
2024-02-28 14:38:57.961054,1709127537.9610536,-42.96875,-57.12890625,-36.1328125,40.0390625,-1.0,0.0,-1.0,0.0,5.m4v,11.0
2024-02-28 14:38:57.964970,1709127537.9649696,-18.5546875,-40.0390625,-16.11328125,195.3125,-1.0,0.0,-1.0,0.0,5.m4v,11.0
2024-02-28 14:38:57.968875,1709127537.968875,-36.62109375,-28.80859375,-10.7421875,54.19921875,-1.0,0.0,-1.0,0.0,5.m4v,11.0
2024-02-28 14:38:57.972780,1709127537.9727802,-54.19921875,-29.78515625,-15.13671875,-128.90625,-1.0,0.0,-1.0,0.0,5.m4v,11.0
2024-02-28 14:38:57.976686,1709127537.9766855,-56.640625,-24.4140625,-17.578125,-152.83203125,-1.0,0.0,-1.0,0.0,5.m4v,11.0
2024-02-28 14:38:57.980591,1709127537.9805908,-42.48046875,-17.08984375,-17.578125,-23.4375,-1.0,0.0,-1.0,0.0,5.m4v,11.0
2024-02-28 14:38:57.984496,1709127537.984496,-20.5078125,-17.578125,-10.25390625,172.36328125,-1.0,0.0,-1.0,0.0,5.m4v,11.0
2024-02-28 14:38:57.988401,1709127537.9884014,-35.15625,-38.0859375,-26.3671875,79.58984375,-1.0,0.0,-1.0,0.0,5.m4v,11.0
2024-02-28 14:38:57.992307,1709127537.9923067,-67.3828125,-61.03515625,-42.48046875,-174.31640625,-1.0,0.0,-1.0,0.0,5.m4v,11.0
2024-02-28 14:38:57.996212,1709127537.996212,-69.3359375,-52.24609375,-42.96875,-153.80859375,-1.0,0.0,-1.0,0.0,5.m4v,11.0
2024-02-28 14:38:58.000117,1709127538.0001173,-52.24609375,-31.25,-42.48046875,27.34375,-1.0,0.0,-1.0,0.0,5.m4v,11.0
2024-02-28 14:38:58.004023,1709127538.0040226,-44.43359375,-41.9921875,-35.15625,147.4609375,-1.0,0.0,-1.0,0.0,5.m4v,11.0
2024-02-28 14:38:58.007928,1709127538.007928,-70.3125,-48.33984375,-35.15625,77.63671875,-1.0,0.0,-1.0,0.0,5.m4v,11.0
2024-02-28 14:38:58.011843,1709127538.0118432,-107.421875,-66.89453125,-58.10546875,-152.34375,-1.0,0.0,-1.0,0.0,5.m4v,11.0
2024-02-28 14:38:58.015749,1709127538.0157485,-90.8203125,-76.66015625,-51.26953125,-211.42578125,-1.0,0.0,-1.0,0.0,5.m4v,11.0
2024-02-28 14:38:58.019654,1709127538.0196538,-85.9375,-41.015625,-45.8984375,-87.890625,-1.0,0.0,-1.0,0.0,5.m4v,11.0
2024-02-28 14:38:58.023559,1709127538.023559,-80.56640625,-25.390625,-28.3203125,102.05078125,-1.0,0.0,-1.0,0.0,5.m4v,11.0
2024-02-28 14:38:58.027464,1709127538.0274644,-53.22265625,-36.1328125,11.71875,139.16015625,-1.0,0.0,-1.0,0.0,5.m4v,11.0
2024-02-28 14:38:58.031370,1709127538.0313697,-82.03125,-47.8515625,-18.06640625,-122.55859375,-1.0,0.0,-1.0,0.0,5.m4v,11.0
2024-02-28 14:38:58.035275,1709127538.035275,-103.515625,-40.52734375,-26.85546875,-260.7421875,-1.0,0.0,-1.0,0.0,5.m4v,11.0
2024-02-28 14:38:58.039180,1709127538.0391805,-85.44921875,-27.83203125,-11.71875,-126.46484375,-1.0,0.0,-1.0,0.0,5.m4v,11.0
2024-02-28 14:38:58.043086,1709127538.0430856,-75.68359375,-64.94140625,-55.6640625,43.9453125,-1.0,0.0,-1.0,0.0,5.m4v,11.0
2024-02-28 14:38:58.046991,1709127538.0469909,-67.87109375,-89.35546875,-46.38671875,77.1484375,-1.0,0.0,-1.0,0.0,5.m4v,11.0
2024-02-28 14:38:58.050896,1709127538.0508964,-44.43359375,-26.3671875,17.08984375,-75.68359375,-1.0,0.0,-1.0,0.0,5.m4v,11.0
2024-02-28 14:38:58.054802,1709127538.0548017,-49.31640625,-13.671875,8.30078125,-178.22265625,-1.0,0.0,-1.0,0.0,5.m4v,11.0
2024-02-28 14:38:58.058717,1709127538.0587168,-71.2890625,-40.0390625,-18.5546875,-91.30859375,-1.0,0.0,-1.0,0.0,5.m4v,11.0
2024-02-28 14:38:58.062622,1709127538.062622,-53.22265625,-22.94921875,-4.39453125,104.98046875,-1.0,0.0,-1.0,0.0,5.m4v,11.0
2024-02-28 14:38:58.066527,1709127538.0665274,-27.34375,-29.78515625,-8.30078125,161.1328125,-1.0,0.0,-1.0,0.0,5.m4v,11.0
2024-02-28 14:38:58.070433,1709127538.070433,-26.3671875,-44.43359375,-11.71875,-6.8359375,-1.0,0.0,-1.0,0.0,5.m4v,11.0
2024-02-28 14:38:58.074338,1709127538.074338,-29.296875,-39.55078125,-21.97265625,-166.9921875,-1.0,0.0,-1.0,0.0,5.m4v,11.0
2024-02-28 14:38:58.078243,1709127538.0782433,-27.83203125,-25.87890625,-44.921875,-92.28515625,-1.0,0.0,-1.0,0.0,5.m4v,11.0
2024-02-28 14:38:58.082149,1709127538.0821486,-14.6484375,-30.2734375,-34.66796875,115.234375,-1.0,0.0,-1.0,0.0,5.m4v,11.0
2024-02-28 14:38:58.086054,1709127538.0860538,9.765625,-28.3203125,-44.43359375,167.96875,-1.0,0.0,-1.0,0.0,5.m4v,11.0
2024-02-28 14:38:58.089959,1709127538.0899591,5.37109375,-18.06640625,-71.2890625,0.48828125,-1.0,0.0,-1.0,0.0,5.m4v,11.0
2024-02-28 14:38:58.093864,1709127538.0938644,-12.20703125,-14.16015625,-61.03515625,-148.4375,-1.0,0.0,-1.0,0.0,5.m4v,11.0
2024-02-28 14:38:58.097770,1709127538.0977695,-29.296875,-23.92578125,-37.109375,-127.9296875,-1.0,0.0,-1.0,0.0,5.m4v,11.0
2024-02-28 14:38:58.101675,1709127538.101675,-16.6015625,-44.921875,-13.18359375,65.4296875,-1.0,0.0,-1.0,0.0,5.m4v,11.0
2024-02-28 14:38:58.105590,1709127538.10559,29.78515625,-39.0625,-10.7421875,231.4453125,-1.0,0.0,-1.0,0.0,5.m4v,11.0
2024-02-28 14:38:58.109495,1709127538.1094952,21.484375,-20.01953125,-38.57421875,85.44921875,-1.0,0.0,-1.0,0.0,5.m4v,11.0
2024-02-28 14:38:58.113400,1709127538.1134005,-10.7421875,-24.4140625,-48.828125,-144.04296875,-1.0,0.0,-1.0,0.0,5.m4v,11.0
2024-02-28 14:38:58.117306,1709127538.1173058,-30.2734375,-33.69140625,-42.96875,-136.71875,-1.0,0.0,-1.0,0.0,5.m4v,11.0
2024-02-28 14:38:58.121211,1709127538.121211,-10.25390625,-18.06640625,-31.25,60.05859375,-1.0,0.0,-1.0,0.0,5.m4v,11.0
2024-02-28 14:38:58.125116,1709127538.1251163,38.0859375,1.953125,-14.6484375,243.1640625,-1.0,0.0,-1.0,0.0,5.m4v,11.0
2024-02-28 14:38:58.129022,1709127538.1290216,19.53125,-20.5078125,-20.01953125,117.67578125,-1.0,0.0,-1.0,0.0,5.m4v,11.0
2024-02-28 14:38:58.132927,1709127538.132927,-26.3671875,-36.1328125,-45.41015625,-136.71875,-1.0,0.0,-1.0,0.0,5.m4v,11.0
2024-02-28 14:38:58.136832,1709127538.1368322,-14.6484375,-12.20703125,-42.96875,-124.0234375,-1.0,0.0,-1.0,0.0,5.m4v,11.0
2024-02-28 14:38:58.140738,1709127538.1407375,-11.71875,-15.625,-36.1328125,25.87890625,-1.0,0.0,-1.0,0.0,5.m4v,11.0
2024-02-28 14:38:58.144643,1709127538.1446428,-13.18359375,-29.78515625,-39.55078125,164.0625,-1.0,0.0,-1.0,0.0,5.m4v,11.0
2024-02-28 14:38:58.148548,1709127538.148548,-3.41796875,-21.484375,-37.109375,94.23828125,-1.0,0.0,-1.0,0.0,5.m4v,11.0
2024-02-28 14:38:58.152462,1709127538.1524615,-13.18359375,-25.87890625,-47.36328125,-121.58203125,-1.0,0.0,-1.0,0.0,5.m4v,11.0
2024-02-28 14:38:58.156367,1709127538.1563668,-19.53125,-44.43359375,-54.6875,-140.13671875,-1.0,0.0,-1.0,0.0,5.m4v,11.0
2024-02-28 14:38:58.160272,1709127538.160272,-1.953125,-29.78515625,-39.55078125,85.9375,-1.0,0.0,-1.0,0.0,5.m4v,11.0
2024-02-28 14:38:58.164177,1709127538.1641774,21.484375,-14.6484375,-17.08984375,249.0234375,-1.0,0.0,-1.0,0.0,5.m4v,11.0
2024-02-28 14:38:58.168083,1709127538.1680827,6.8359375,-32.71484375,-27.83203125,103.02734375,-1.0,0.0,-1.0,0.0,5.m4v,11.0
2024-02-28 14:38:58.171988,1709127538.171988,8.7890625,-24.90234375,-32.2265625,-79.58984375,-1.0,0.0,-1.0,0.0,5.m4v,11.0
2024-02-28 14:38:58.175893,1709127538.1758933,11.23046875,-10.25390625,-14.16015625,-123.046875,-1.0,0.0,-1.0,0.0,5.m4v,11.0
2024-02-28 14:38:58.179799,1709127538.1797986,-21.97265625,-21.97265625,-35.64453125,-45.8984375,-1.0,0.0,-1.0,0.0,5.m4v,11.0
2024-02-28 14:38:58.183704,1709127538.183704,-6.34765625,-13.671875,-40.52734375,162.59765625,-1.0,0.0,-1.0,0.0,5.m4v,11.0
2024-02-28 14:38:58.187609,1709127538.1876092,10.7421875,-28.3203125,-13.671875,171.38671875,-1.0,0.0,-1.0,0.0,5.m4v,11.0
2024-02-28 14:38:58.191514,1709127538.1915145,-21.484375,-42.96875,-16.6015625,-92.28515625,-1.0,0.0,-1.0,0.0,5.m4v,11.0
2024-02-28 14:38:58.195420,1709127538.1954198,-23.92578125,-28.3203125,-29.78515625,-174.8046875,-1.0,0.0,-1.0,0.0,5.m4v,11.0
2024-02-28 14:38:58.199333,1709127538.1993327,-25.87890625,-31.73828125,-35.64453125,-32.71484375,-1.0,0.0,-1.0,0.0,5.m4v,11.0
2024-02-28 14:38:58.203238,1709127538.203238,-31.73828125,-32.71484375,-30.2734375,128.41796875,-1.0,0.0,-1.0,0.0,5.m4v,11.0
2024-02-28 14:38:58.207143,1709127538.2071433,-16.6015625,-29.78515625,-18.06640625,144.53125,-1.0,0.0,-1.0,0.0,5.m4v,11.0
2024-02-28 14:38:58.211049,1709127538.2110486,-21.484375,-44.43359375,-20.99609375,-54.19921875,-1.0,0.0,-1.0,0.0,5.m4v,11.0
2024-02-28 14:38:58.214954,1709127538.214954,-35.64453125,-47.8515625,-33.203125,-162.59765625,-1.0,0.0,-1.0,0.0,5.m4v,11.0
2024-02-28 14:38:58.218859,1709127538.2188592,-20.99609375,-34.1796875,-38.57421875,-27.34375,-1.0,0.0,-1.0,0.0,5.m4v,11.0
2024-02-28 14:38:58.222765,1709127538.2227647,-0.48828125,-26.85546875,-12.6953125,167.96875,-1.0,0.0,-1.0,0.0,5.m4v,11.0
2024-02-28 14:38:58.226670,1709127538.22667,16.6015625,-13.671875,-16.6015625,168.45703125,-1.0,0.0,-1.0,0.0,5.m4v,11.0
2024-02-28 14:38:58.230575,1709127538.230575,3.41796875,-17.578125,-42.96875,-26.85546875,-1.0,0.0,-1.0,0.0,5.m4v,11.0
2024-02-28 14:38:58.234481,1709127538.2344806,-22.4609375,-21.97265625,-20.99609375,-143.5546875,-1.0,0.0,-1.0,0.0,5.m4v,11.0
2024-02-28 14:38:58.238386,1709127538.238386,-10.7421875,0.48828125,-6.34765625,-62.5,-1.0,0.0,-1.0,0.0,5.m4v,11.0
2024-02-28 14:38:58.242291,1709127538.2422912,-4.39453125,-4.8828125,-27.34375,96.19140625,-1.0,0.0,-1.0,0.0,5.m4v,11.0
2024-02-28 14:38:58.246208,1709127538.2462084,-1.953125,-19.04296875,-24.90234375,169.43359375,-1.0,0.0,-1.0,0.0,5.m4v,11.0
2024-02-28 14:38:58.250114,1709127538.2501135,-15.625,-22.94921875,-33.69140625,28.80859375,-1.0,0.0,-1.0,0.0,5.m4v,11.0
2024-02-28 14:38:58.254019,1709127538.254019,-39.0625,-45.8984375,-67.87109375,-196.2890625,-1.0,0.0,-1.0,0.0,5.m4v,11.0
2024-02-28 14:38:58.257924,1709127538.2579243,-37.59765625,-47.8515625,-35.15625,-169.921875,-1.0,0.0,-1.0,0.0,5.m4v,11.0
2024-02-28 14:38:58.261830,1709127538.2618296,-22.94921875,-24.90234375,4.39453125,48.828125,-1.0,0.0,-1.0,0.0,5.m4v,11.0
2024-02-28 14:38:58.265735,1709127538.265735,-7.32421875,-11.23046875,4.39453125,176.26953125,-1.0,0.0,-1.0,0.0,5.m4v,11.0
2024-02-28 14:38:58.269640,1709127538.2696402,-22.94921875,-29.78515625,-8.7890625,23.4375,-1.0,0.0,-1.0,0.0,5.m4v,11.0
2024-02-28 14:38:58.273546,1709127538.2735455,-41.50390625,-50.29296875,-18.06640625,-194.82421875,-1.0,0.0,-1.0,0.0,5.m4v,11.0
2024-02-28 14:38:58.277451,1709127538.2774508,-37.59765625,-49.8046875,-20.5078125,-179.19921875,-1.0,0.0,-1.0,0.0,5.m4v,11.0
2024-02-28 14:38:58.281356,1709127538.281356,-35.15625,-34.1796875,-44.921875,9.27734375,-1.0,0.0,-1.0,0.0,5.m4v,11.0
2024-02-28 14:38:58.285261,1709127538.2852614,-11.23046875,-31.73828125,-55.17578125,124.0234375,-1.0,0.0,-1.0,0.0,5.m4v,11.0
2024-02-28 14:38:58.289167,1709127538.2891667,-3.90625,-46.38671875,-25.390625,20.5078125,-1.0,0.0,-1.0,0.0,5.m4v,11.0
2024-02-28 14:38:58.293084,1709127538.2930837,-28.80859375,-40.52734375,-41.50390625,-160.64453125,-1.0,0.0,-1.0,0.0,5.m4v,11.0
2024-02-28 14:38:58.296989,1709127538.296989,-8.30078125,-16.11328125,-41.9921875,-119.62890625,-1.0,0.0,-1.0,0.0,5.m4v,11.0
2024-02-28 14:38:58.300894,1709127538.3008945,8.30078125,13.18359375,-42.96875,93.26171875,-1.0,0.0,-1.0,0.0,5.m4v,11.0
2024-02-28 14:38:58.304800,1709127538.3047996,-8.7890625,4.39453125,-57.12890625,198.2421875,-1.0,0.0,-1.0,0.0,5.m4v,11.0
2024-02-28 14:38:58.308705,1709127538.3087049,-19.53125,-18.06640625,-16.11328125,51.7578125,-1.0,0.0,-1.0,0.0,5.m4v,11.0
2024-02-28 14:38:58.312610,1709127538.31261,-39.0625,-23.4375,6.8359375,-159.1796875,-1.0,0.0,-1.0,0.0,5.m4v,11.0
2024-02-28 14:38:58.316515,1709127538.3165154,-60.05859375,-41.50390625,-9.765625,-179.19921875,-1.0,0.0,-1.0,0.0,5.m4v,11.0
2024-02-28 14:38:58.320421,1709127538.3204207,-62.98828125,-59.08203125,-28.80859375,-43.45703125,-1.0,0.0,-1.0,0.0,5.m4v,11.0
2024-02-28 14:38:58.324326,1709127538.324326,-27.34375,-41.50390625,-32.2265625,120.60546875,-1.0,0.0,-1.0,0.0,5.m4v,11.0
2024-02-28 14:38:58.328231,1709127538.328231,-15.625,-44.921875,-35.15625,73.2421875,-1.0,0.0,-1.0,0.0,5.m4v,11.0
2024-02-28 14:38:58.332137,1709127538.3321366,-38.57421875,-71.2890625,-34.66796875,-139.16015625,-1.0,0.0,-1.0,0.0,5.m4v,11.0
2024-02-28 14:38:58.336042,1709127538.336042,-27.83203125,-56.640625,-15.13671875,-166.50390625,-1.0,0.0,-1.0,0.0,5.m4v,11.0
2024-02-28 14:38:58.339958,1709127538.3399584,-4.8828125,-26.3671875,-8.30078125,9.27734375,-1.0,0.0,-1.0,0.0,5.m4v,11.0
2024-02-28 14:38:58.343864,1709127538.3438635,-17.578125,-6.8359375,-41.9921875,163.0859375,-1.0,0.0,-1.0,0.0,5.m4v,11.0
2024-02-28 14:38:58.347769,1709127538.347769,-18.5546875,-4.8828125,-45.8984375,127.9296875,-1.0,0.0,-1.0,0.0,5.m4v,11.0
2024-02-28 14:38:58.351674,1709127538.3516743,-30.2734375,-10.25390625,-50.29296875,-100.5859375,-1.0,0.0,-1.0,0.0,5.m4v,11.0
2024-02-28 14:38:58.355580,1709127538.35558,-52.24609375,-21.484375,-66.89453125,-156.25,-1.0,0.0,-1.0,0.0,5.m4v,11.0
2024-02-28 14:38:58.359485,1709127538.3594851,-45.41015625,-30.76171875,-41.015625,-27.34375,-1.0,0.0,-1.0,0.0,5.m4v,11.0
2024-02-28 14:38:58.363390,1709127538.3633904,-43.45703125,-41.50390625,-10.7421875,41.50390625,-1.0,0.0,-1.0,0.0,5.m4v,11.0
2024-02-28 14:38:58.367296,1709127538.3672955,-38.57421875,-41.50390625,-1.46484375,37.59765625,-1.0,0.0,-1.0,0.0,5.m4v,11.0
2024-02-28 14:38:58.371201,1709127538.371201,-41.9921875,-47.36328125,-23.92578125,-139.16015625,-1.0,0.0,-1.0,0.0,5.m4v,11.0
2024-02-28 14:38:58.375106,1709127538.3751063,-28.80859375,-43.9453125,-32.71484375,-221.19140625,-1.0,0.0,-1.0,0.0,5.m4v,11.0
2024-02-28 14:38:58.379012,1709127538.3790116,-7.8125,-22.94921875,-26.85546875,-116.69921875,-1.0,0.0,-1.0,0.0,5.m4v,11.0
2024-02-28 14:38:58.382917,1709127538.382917,-6.8359375,-24.4140625,-22.4609375,49.8046875,-1.0,0.0,-1.0,0.0,5.m4v,11.0
2024-02-28 14:38:58.386832,1709127538.3868322,-4.8828125,-41.015625,-31.25,87.40234375,-1.0,0.0,-1.0,0.0,5.m4v,11.0
2024-02-28 14:38:58.390738,1709127538.3907375,-8.7890625,-44.921875,-45.8984375,-59.08203125,-1.0,0.0,-1.0,0.0,5.m4v,11.0
2024-02-28 14:38:58.394643,1709127538.3946428,-31.73828125,-33.69140625,-58.10546875,-181.640625,-1.0,0.0,-1.0,0.0,5.m4v,11.0
2024-02-28 14:38:58.398548,1709127538.398548,-52.734375,-23.4375,-45.8984375,-145.99609375,-1.0,0.0,-1.0,0.0,5.m4v,11.0
2024-02-28 14:38:58.402453,1709127538.4024534,-42.96875,-26.85546875,-36.62109375,51.7578125,-1.0,0.0,-1.0,0.0,5.m4v,11.0
2024-02-28 14:38:58.406359,1709127538.4063587,-32.2265625,-25.390625,-43.45703125,131.8359375,-1.0,0.0,-1.0,0.0,5.m4v,11.0
2024-02-28 14:38:58.410264,1709127538.410264,-42.48046875,-35.15625,-32.71484375,-64.453125,-1.0,0.0,-1.0,0.0,5.m4v,11.0
2024-02-28 14:38:58.414169,1709127538.4141693,-47.36328125,-41.9921875,-33.203125,-239.74609375,-1.0,0.0,-1.0,0.0,5.m4v,11.0
2024-02-28 14:38:58.418075,1709127538.4180746,-36.1328125,-32.71484375,-25.87890625,-129.8828125,-1.0,0.0,-1.0,0.0,5.m4v,11.0
2024-02-28 14:38:58.421980,1709127538.42198,-7.32421875,-36.1328125,-13.18359375,121.58203125,-1.0,0.0,-1.0,0.0,5.m4v,11.0
2024-02-28 14:38:58.425885,1709127538.4258852,0.9765625,-41.9921875,-14.6484375,200.1953125,-1.0,0.0,-1.0,0.0,5.m4v,11.0
2024-02-28 14:38:58.429790,1709127538.4297905,-14.16015625,-34.66796875,-14.16015625,13.671875,-1.0,0.0,-1.0,0.0,5.m4v,11.0
2024-02-28 14:38:58.433705,1709127538.433705,-37.59765625,-18.5546875,-20.5078125,-196.77734375,-1.0,0.0,-1.0,0.0,5.m4v,11.0
2024-02-28 14:38:58.437611,1709127538.4376106,-40.0390625,-15.13671875,-22.94921875,-173.828125,-1.0,0.0,-1.0,0.0,5.m4v,11.0
2024-02-28 14:38:58.441516,1709127538.441516,-25.87890625,-24.4140625,-25.87890625,30.2734375,-1.0,0.0,-1.0,0.0,5.m4v,11.0
2024-02-28 14:38:58.445421,1709127538.4454212,-8.7890625,-26.3671875,-30.2734375,156.73828125,-1.0,0.0,-1.0,0.0,5.m4v,11.0
2024-02-28 14:38:58.449327,1709127538.4493265,-13.18359375,-28.80859375,-47.36328125,73.73046875,-1.0,0.0,-1.0,0.0,5.m4v,11.0
2024-02-28 14:38:58.453232,1709127538.4532318,-16.6015625,-31.25,-60.05859375,-98.6328125,-1.0,0.0,-1.0,0.0,5.m4v,11.0
2024-02-28 14:38:58.902434,1709127538.9024336,-50.78125,-32.2265625,-48.828125,62.98828125,-1.0,0.0,-1.0,0.0,5.m4v,11.0
2024-02-28 14:38:58.906339,1709127538.906339,-18.06640625,-21.484375,-15.13671875,165.52734375,-1.0,0.0,-1.0,0.0,5.m4v,11.0
2024-02-28 14:38:58.910244,1709127538.9102442,-6.34765625,-9.765625,8.30078125,0.9765625,-1.0,0.0,-1.0,0.0,5.m4v,11.0
2024-02-28 14:38:58.914150,1709127538.9141495,-29.78515625,-23.92578125,-21.97265625,-177.24609375,-1.0,0.0,-1.0,0.0,5.m4v,11.0
2024-02-28 14:38:58.918055,1709127538.9180548,-58.59375,-50.29296875,-57.6171875,-174.8046875,-1.0,0.0,-1.0,0.0,5.m4v,11.0
2024-02-28 14:38:58.921960,1709127538.92196,-38.0859375,-42.96875,-40.52734375,34.66796875,-1.0,0.0,-1.0,0.0,5.m4v,11.0
2024-02-28 14:38:58.925865,1709127538.9258654,-11.71875,-26.3671875,-22.4609375,184.5703125,-1.0,0.0,-1.0,0.0,5.m4v,11.0
2024-02-28 14:38:58.929771,1709127538.9297707,-16.6015625,-38.57421875,-28.80859375,12.20703125,-1.0,0.0,-1.0,0.0,5.m4v,11.0
2024-02-28 14:38:58.933676,1709127538.933676,-32.71484375,-39.0625,-29.78515625,-185.05859375,-1.0,0.0,-1.0,0.0,5.m4v,11.0
2024-02-28 14:38:58.937581,1709127538.9375813,-42.48046875,-25.390625,-40.52734375,-146.97265625,-1.0,0.0,-1.0,0.0,5.m4v,11.0
2024-02-28 14:38:58.941487,1709127538.9414866,-33.69140625,-14.16015625,-34.1796875,33.203125,-1.0,0.0,-1.0,0.0,5.m4v,11.0
2024-02-28 14:38:58.945392,1709127538.945392,-26.85546875,-20.01953125,-19.04296875,148.4375,-1.0,0.0,-1.0,0.0,5.m4v,11.0
2024-02-28 14:38:58.949306,1709127538.9493055,-42.48046875,-32.2265625,-23.4375,32.71484375,-1.0,0.0,-1.0,0.0,5.m4v,11.0
2024-02-28 14:38:58.953211,1709127538.9532108,-68.84765625,-48.33984375,-31.73828125,-197.75390625,-1.0,0.0,-1.0,0.0,5.m4v,11.0
2024-02-28 14:38:58.957116,1709127538.957116,-71.2890625,-51.26953125,-32.2265625,-225.5859375,-1.0,0.0,-1.0,0.0,5.m4v,11.0
2024-02-28 14:38:58.961021,1709127538.9610214,-41.015625,-36.62109375,-29.78515625,-49.8046875,-1.0,0.0,-1.0,0.0,5.m4v,11.0
2024-02-28 14:38:58.964927,1709127538.9649267,-12.20703125,-31.73828125,-34.66796875,101.5625,-1.0,0.0,-1.0,0.0,5.m4v,11.0
2024-02-28 14:38:58.968832,1709127538.968832,-11.71875,-18.06640625,-39.55078125,50.29296875,-1.0,0.0,-1.0,0.0,5.m4v,11.0
2024-02-28 14:38:58.972737,1709127538.9727373,-41.50390625,-25.87890625,-45.8984375,-185.05859375,-1.0,0.0,-1.0,0.0,5.m4v,11.0
2024-02-28 14:38:58.976643,1709127538.9766426,-49.31640625,-31.25,-54.6875,-230.95703125,-1.0,0.0,-1.0,0.0,5.m4v,11.0
2024-02-28 14:38:58.980548,1709127538.980548,-18.06640625,-14.6484375,-38.57421875,-11.71875,-1.0,0.0,-1.0,0.0,5.m4v,11.0
2024-02-28 14:38:58.984453,1709127538.9844532,-8.7890625,-18.5546875,-22.4609375,131.8359375,-1.0,0.0,-1.0,0.0,5.m4v,11.0
2024-02-28 14:38:58.988358,1709127538.9883585,-24.90234375,-32.2265625,-28.80859375,38.0859375,-1.0,0.0,-1.0,0.0,5.m4v,11.0
2024-02-28 14:38:58.992264,1709127538.9922638,-41.015625,-43.9453125,-32.2265625,-151.3671875,-1.0,0.0,-1.0,0.0,5.m4v,11.0
2024-02-28 14:38:58.996176,1709127538.996176,-58.10546875,-38.0859375,-38.57421875,-211.9140625,-1.0,0.0,-1.0,0.0,5.m4v,11.0
2024-02-28 14:38:59.000081,1709127539.0000813,-50.78125,-30.2734375,-51.26953125,-62.98828125,-1.0,0.0,-1.0,0.0,5.m4v,11.0
2024-02-28 14:38:59.003987,1709127539.0039866,-26.3671875,-15.625,-41.015625,117.67578125,-1.0,0.0,-1.0,0.0,5.m4v,11.0
2024-02-28 14:38:59.007892,1709127539.007892,-27.34375,-20.01953125,-22.94921875,62.01171875,-1.0,0.0,-1.0,0.0,5.m4v,11.0
2024-02-28 14:38:59.011797,1709127539.0117972,-47.8515625,-42.96875,-28.3203125,-144.04296875,-1.0,0.0,-1.0,0.0,5.m4v,11.0
2024-02-28 14:38:59.015702,1709127539.0157025,-53.22265625,-31.73828125,-31.25,-181.640625,-1.0,0.0,-1.0,0.0,5.m4v,11.0
2024-02-28 14:38:59.019608,1709127539.0196078,-42.96875,-25.390625,-38.0859375,-36.1328125,-1.0,0.0,-1.0,0.0,5.m4v,11.0
2024-02-28 14:38:59.023513,1709127539.023513,-10.7421875,-25.87890625,-25.390625,113.28125,-1.0,0.0,-1.0,0.0,5.m4v,11.0
2024-02-28 14:38:59.027418,1709127539.0274184,4.39453125,-9.765625,-11.23046875,117.67578125,-1.0,0.0,-1.0,0.0,5.m4v,11.0
2024-02-28 14:38:59.031324,1709127539.0313237,-33.203125,-13.18359375,-26.85546875,-75.68359375,-1.0,0.0,-1.0,0.0,5.m4v,11.0
2024-02-28 14:38:59.035229,1709127539.035229,-51.7578125,-15.13671875,-44.921875,-189.453125,-1.0,0.0,-1.0,0.0,5.m4v,11.0
2024-02-28 14:38:59.039134,1709127539.0391345,-58.10546875,-26.85546875,-51.7578125,-98.6328125,-1.0,0.0,-1.0,0.0,5.m4v,11.0
2024-02-28 14:38:59.043051,1709127539.043051,-33.69140625,-39.55078125,-33.69140625,137.6953125,-1.0,0.0,-1.0,0.0,5.m4v,11.0
2024-02-28 14:38:59.046956,1709127539.0469563,-11.23046875,-28.80859375,-19.53125,204.58984375,-1.0,0.0,-1.0,0.0,5.m4v,11.0
2024-02-28 14:38:59.050862,1709127539.0508616,-49.8046875,-50.78125,-40.52734375,-62.01171875,-1.0,0.0,-1.0,0.0,5.m4v,11.0
2024-02-28 14:38:59.054767,1709127539.054767,-70.3125,-60.05859375,-51.26953125,-194.82421875,-1.0,0.0,-1.0,0.0,5.m4v,11.0
2024-02-28 14:38:59.058672,1709127539.0586722,-44.43359375,-15.13671875,-33.203125,-85.44921875,-1.0,0.0,-1.0,0.0,5.m4v,11.0
2024-02-28 14:38:59.062577,1709127539.0625775,-25.87890625,10.7421875,-27.83203125,100.5859375,-1.0,0.0,-1.0,0.0,5.m4v,11.0
2024-02-28 14:38:59.066483,1709127539.0664828,-14.6484375,5.37109375,-15.13671875,184.5703125,-1.0,0.0,-1.0,0.0,5.m4v,11.0
2024-02-28 14:38:59.070388,1709127539.070388,-23.92578125,-24.4140625,-22.4609375,-8.7890625,-1.0,0.0,-1.0,0.0,5.m4v,11.0
2024-02-28 14:38:59.074293,1709127539.0742934,-55.6640625,-52.24609375,-36.1328125,-202.63671875,-1.0,0.0,-1.0,0.0,5.m4v,11.0
2024-02-28 14:38:59.078199,1709127539.078199,-61.5234375,-60.05859375,-48.33984375,-157.71484375,-1.0,0.0,-1.0,0.0,5.m4v,11.0
2024-02-28 14:38:59.082104,1709127539.082104,-45.8984375,-49.31640625,-58.59375,23.92578125,-1.0,0.0,-1.0,0.0,5.m4v,11.0
2024-02-28 14:38:59.086009,1709127539.0860093,-26.3671875,-26.85546875,-46.38671875,141.11328125,-1.0,0.0,-1.0,0.0,5.m4v,11.0
2024-02-28 14:38:59.089925,1709127539.0899253,-25.87890625,-28.80859375,-26.3671875,61.5234375,-1.0,0.0,-1.0,0.0,5.m4v,11.0
2024-02-28 14:38:59.093831,1709127539.0938306,-40.52734375,-21.484375,-9.27734375,-142.578125,-1.0,0.0,-1.0,0.0,5.m4v,11.0
2024-02-28 14:38:59.097736,1709127539.097736,-32.2265625,-3.90625,-10.7421875,-159.1796875,-1.0,0.0,-1.0,0.0,5.m4v,11.0
2024-02-28 14:38:59.101641,1709127539.1016412,-30.76171875,-5.859375,-22.94921875,41.50390625,-1.0,0.0,-1.0,0.0,5.m4v,11.0
2024-02-28 14:38:59.105546,1709127539.1055465,-26.3671875,-22.94921875,-31.25,141.11328125,-1.0,0.0,-1.0,0.0,5.m4v,11.0
2024-02-28 14:38:59.109452,1709127539.1094518,-15.625,-17.578125,-27.83203125,41.9921875,-1.0,0.0,-1.0,0.0,5.m4v,11.0
2024-02-28 14:38:59.113357,1709127539.113357,-44.921875,-8.7890625,-34.66796875,-163.0859375,-1.0,0.0,-1.0,0.0,5.m4v,11.0
2024-02-28 14:38:59.117262,1709127539.1172624,-48.33984375,-19.04296875,-32.2265625,-187.5,-1.0,0.0,-1.0,0.0,5.m4v,11.0
2024-02-28 14:38:59.121168,1709127539.1211677,-26.85546875,-36.1328125,-15.13671875,16.6015625,-1.0,0.0,-1.0,0.0,5.m4v,11.0
2024-02-28 14:38:59.125073,1709127539.125073,-32.71484375,-49.31640625,-16.6015625,130.859375,-1.0,0.0,-1.0,0.0,5.m4v,11.0
2024-02-28 14:38:59.128978,1709127539.1289785,-33.69140625,-42.48046875,-33.69140625,28.80859375,-1.0,0.0,-1.0,0.0,5.m4v,11.0
2024-02-28 14:38:59.132884,1709127539.1328835,-42.48046875,-39.0625,-63.96484375,-134.765625,-1.0,0.0,-1.0,0.0,5.m4v,11.0
2024-02-28 14:38:59.136799,1709127539.136799,-45.8984375,-44.921875,-64.94140625,-174.31640625,-1.0,0.0,-1.0,0.0,5.m4v,11.0
2024-02-28 14:38:59.140705,1709127539.1407046,-45.41015625,-48.33984375,-29.296875,-30.2734375,-1.0,0.0,-1.0,0.0,5.m4v,11.0
2024-02-28 14:38:59.144610,1709127539.14461,-25.390625,-40.52734375,-9.765625,150.390625,-1.0,0.0,-1.0,0.0,5.m4v,11.0
2024-02-28 14:38:59.148515,1709127539.1485152,-16.6015625,-27.34375,-32.71484375,84.47265625,-1.0,0.0,-1.0,0.0,5.m4v,11.0
2024-02-28 14:38:59.152421,1709127539.1524203,-34.1796875,-20.99609375,-32.2265625,-117.67578125,-1.0,0.0,-1.0,0.0,5.m4v,11.0
2024-02-28 14:38:59.156326,1709127539.1563258,-27.34375,-20.99609375,-16.11328125,-150.390625,-1.0,0.0,-1.0,0.0,5.m4v,11.0
2024-02-28 14:38:59.160231,1709127539.160231,-15.625,-17.08984375,-32.71484375,-9.27734375,-1.0,0.0,-1.0,0.0,5.m4v,11.0
2024-02-28 14:38:59.164136,1709127539.1641364,-18.5546875,-13.18359375,-37.59765625,121.09375,-1.0,0.0,-1.0,0.0,5.m4v,11.0
2024-02-28 14:38:59.168042,1709127539.1680417,-27.83203125,-28.3203125,-30.2734375,62.5,-1.0,0.0,-1.0,0.0,5.m4v,11.0
2024-02-28 14:38:59.171947,1709127539.171947,-42.96875,-28.80859375,-36.1328125,-144.53125,-1.0,0.0,-1.0,0.0,5.m4v,11.0
2024-02-28 14:38:59.175852,1709127539.1758523,-51.7578125,-14.6484375,-30.76171875,-219.7265625,-1.0,0.0,-1.0,0.0,5.m4v,11.0
2024-02-28 14:38:59.179758,1709127539.1797576,-59.08203125,-26.3671875,-27.83203125,-35.15625,-1.0,0.0,-1.0,0.0,5.m4v,11.0
2024-02-28 14:38:59.183673,1709127539.1836731,-41.50390625,-44.921875,-59.5703125,135.7421875,-1.0,0.0,-1.0,0.0,5.m4v,11.0
2024-02-28 14:38:59.187578,1709127539.1875784,-31.73828125,-46.38671875,-66.40625,84.9609375,-1.0,0.0,-1.0,0.0,5.m4v,11.0
2024-02-28 14:38:59.191484,1709127539.1914835,-30.2734375,-38.0859375,-22.94921875,-71.2890625,-1.0,0.0,-1.0,0.0,5.m4v,11.0
2024-02-28 14:38:59.195389,1709127539.195389,-31.73828125,-32.71484375,0.48828125,-165.0390625,-1.0,0.0,-1.0,0.0,5.m4v,11.0
2024-02-28 14:38:59.199294,1709127539.1992943,-49.8046875,-40.52734375,-15.13671875,-102.5390625,-1.0,0.0,-1.0,0.0,5.m4v,11.0
2024-02-28 14:38:59.203200,1709127539.2031996,-30.76171875,-29.78515625,-26.3671875,104.4921875,-1.0,0.0,-1.0,0.0,5.m4v,11.0
2024-02-28 14:38:59.207105,1709127539.207105,-10.7421875,5.37109375,-27.34375,179.6875,-1.0,0.0,-1.0,0.0,5.m4v,11.0
2024-02-28 14:38:59.211010,1709127539.2110102,-25.390625,-4.8828125,-58.59375,-46.38671875,-1.0,0.0,-1.0,0.0,5.m4v,11.0
2024-02-28 14:38:59.214916,1709127539.2149155,-29.296875,-27.83203125,-77.63671875,-203.61328125,-1.0,0.0,-1.0,0.0,5.m4v,11.0
2024-02-28 14:38:59.218821,1709127539.2188208,-26.3671875,-33.203125,-60.546875,-113.28125,-1.0,0.0,-1.0,0.0,5.m4v,11.0
2024-02-28 14:38:59.222726,1709127539.222726,-37.59765625,-37.109375,-39.55078125,67.87109375,-1.0,0.0,-1.0,0.0,5.m4v,11.0
2024-02-28 14:38:59.226631,1709127539.2266314,-39.0625,-31.73828125,-19.04296875,119.62890625,-1.0,0.0,-1.0,0.0,5.m4v,11.0
2024-02-28 14:38:59.230546,1709127539.2305455,-44.43359375,-37.59765625,-14.16015625,-39.0625,-1.0,0.0,-1.0,0.0,5.m4v,11.0
2024-02-28 14:38:59.234451,1709127539.2344508,-62.01171875,-41.9921875,-31.25,-179.6875,-1.0,0.0,-1.0,0.0,5.m4v,11.0
2024-02-28 14:38:59.238356,1709127539.238356,-61.03515625,-29.78515625,-37.109375,-106.4453125,-1.0,0.0,-1.0,0.0,5.m4v,11.0
2024-02-28 14:38:59.242261,1709127539.2422614,-49.8046875,-28.80859375,-16.6015625,97.65625,-1.0,0.0,-1.0,0.0,5.m4v,11.0
2024-02-28 14:38:59.246167,1709127539.2461667,-32.71484375,-32.2265625,-21.97265625,177.734375,-1.0,0.0,-1.0,0.0,5.m4v,11.0
2024-02-28 14:38:59.250072,1709127539.250072,-34.1796875,-28.3203125,-37.59765625,28.80859375,-1.0,0.0,-1.0,0.0,5.m4v,11.0
2024-02-28 14:38:59.253977,1709127539.2539773,-37.59765625,-29.296875,-23.4375,-148.4375,-1.0,0.0,-1.0,0.0,5.m4v,11.0
2024-02-28 14:38:59.257883,1709127539.2578826,-46.38671875,-30.2734375,-17.578125,-151.85546875,-1.0,0.0,-1.0,0.0,5.m4v,11.0
2024-02-28 14:38:59.261788,1709127539.261788,-55.17578125,-36.62109375,-33.69140625,14.16015625,-1.0,0.0,-1.0,0.0,5.m4v,11.0
2024-02-28 14:38:59.265693,1709127539.2656932,-26.3671875,-35.64453125,-41.9921875,183.10546875,-1.0,0.0,-1.0,0.0,5.m4v,11.0
2024-02-28 14:38:59.269598,1709127539.2695985,-1.953125,-21.484375,-49.8046875,64.453125,-1.0,0.0,-1.0,0.0,5.m4v,11.0
2024-02-28 14:38:59.273504,1709127539.2735038,-15.625,-22.94921875,-45.41015625,-116.69921875,-1.0,0.0,-1.0,0.0,5.m4v,11.0
2024-02-28 14:38:59.277417,1709127539.2774174,-35.64453125,-34.66796875,-46.875,-96.19140625,-1.0,0.0,-1.0,0.0,5.m4v,11.0
2024-02-28 14:38:59.281323,1709127539.2813227,-47.8515625,-46.875,-67.87109375,-11.23046875,-1.0,0.0,-1.0,0.0,5.m4v,11.0
2024-02-28 14:38:59.285228,1709127539.285228,-35.15625,-41.50390625,-70.3125,143.5546875,-1.0,0.0,-1.0,0.0,5.m4v,11.0
2024-02-28 14:38:59.289133,1709127539.2891333,-23.4375,-33.203125,-65.91796875,80.56640625,-1.0,0.0,-1.0,0.0,5.m4v,11.0
2024-02-28 14:38:59.293039,1709127539.2930386,-42.48046875,-26.3671875,-38.57421875,-169.43359375,-1.0,0.0,-1.0,0.0,5.m4v,11.0
2024-02-28 14:38:59.296944,1709127539.296944,-54.6875,-12.6953125,-11.23046875,-170.41015625,-1.0,0.0,-1.0,0.0,5.m4v,11.0
2024-02-28 14:38:59.300849,1709127539.3008492,-54.19921875,-21.484375,-24.90234375,9.27734375,-1.0,0.0,-1.0,0.0,5.m4v,11.0
2024-02-28 14:38:59.304754,1709127539.3047545,-36.62109375,-37.59765625,-19.04296875,166.015625,-1.0,0.0,-1.0,0.0,5.m4v,11.0
2024-02-28 14:38:59.308660,1709127539.3086598,-15.13671875,-25.87890625,-6.34765625,110.83984375,-1.0,0.0,-1.0,0.0,5.m4v,11.0
2024-02-28 14:38:59.312565,1709127539.312565,-20.99609375,-21.484375,-15.625,-83.0078125,-1.0,0.0,-1.0,0.0,5.m4v,11.0
2024-02-28 14:38:59.316470,1709127539.3164704,-31.73828125,-20.01953125,-23.92578125,-137.20703125,-1.0,0.0,-1.0,0.0,5.m4v,11.0
2024-02-28 14:38:59.320376,1709127539.3203757,-47.8515625,-35.15625,-51.26953125,-10.25390625,-1.0,0.0,-1.0,0.0,5.m4v,11.0
2024-02-28 14:38:59.324289,1709127539.3242888,-19.53125,-33.203125,-48.33984375,184.5703125,-1.0,0.0,-1.0,0.0,5.m4v,11.0
2024-02-28 14:38:59.328194,1709127539.328194,5.37109375,1.46484375,-19.53125,160.15625,-1.0,0.0,-1.0,0.0,5.m4v,11.0
2024-02-28 14:38:59.332099,1709127539.3320994,-20.01953125,-9.765625,-22.94921875,-53.7109375,-1.0,0.0,-1.0,0.0,5.m4v,11.0
2024-02-28 14:38:59.336005,1709127539.3360047,-47.8515625,-37.109375,-25.390625,-144.04296875,-1.0,0.0,-1.0,0.0,5.m4v,11.0
2024-02-28 14:38:59.339910,1709127539.33991,-69.82421875,-40.52734375,-51.26953125,-68.84765625,-1.0,0.0,-1.0,0.0,5.m4v,11.0
2024-02-28 14:38:59.343815,1709127539.343815,-52.24609375,-34.1796875,-42.48046875,113.76953125,-1.0,0.0,-1.0,0.0,5.m4v,11.0
2024-02-28 14:38:59.347721,1709127539.3477206,-19.53125,-34.66796875,-4.39453125,134.765625,-1.0,0.0,-1.0,0.0,5.m4v,11.0
2024-02-28 14:38:59.351626,1709127539.351626,-31.73828125,-41.50390625,1.953125,-80.078125,-1.0,0.0,-1.0,0.0,5.m4v,11.0
2024-02-28 14:38:59.355531,1709127539.3555312,-54.6875,-47.8515625,-15.13671875,-174.8046875,-1.0,0.0,-1.0,0.0,5.m4v,11.0
2024-02-28 14:38:59.359437,1709127539.3594365,-45.41015625,-31.25,-25.390625,-55.6640625,-1.0,0.0,-1.0,0.0,5.m4v,11.0
2024-02-28 14:38:59.363342,1709127539.3633418,-22.94921875,-10.25390625,-23.4375,169.921875,-1.0,0.0,-1.0,0.0,5.m4v,11.0
2024-02-28 14:38:59.367247,1709127539.367247,-20.5078125,-16.11328125,-32.2265625,152.83203125,-1.0,0.0,-1.0,0.0,5.m4v,11.0
2024-02-28 14:38:59.371160,1709127539.37116,-35.15625,-20.5078125,-36.1328125,-57.6171875,-1.0,0.0,-1.0,0.0,5.m4v,11.0
2024-02-28 14:38:59.375065,1709127539.375065,-51.26953125,-30.76171875,-46.875,-162.109375,-1.0,0.0,-1.0,0.0,5.m4v,11.0
2024-02-28 14:38:59.378971,1709127539.3789706,-49.31640625,-41.50390625,-59.5703125,-109.375,-1.0,0.0,-1.0,0.0,5.m4v,11.0
2024-02-28 14:38:59.382876,1709127539.382876,-39.0625,-32.71484375,-53.7109375,83.49609375,-1.0,0.0,-1.0,0.0,5.m4v,11.0
2024-02-28 14:38:59.386781,1709127539.3867812,-55.17578125,-41.015625,-46.38671875,114.2578125,-1.0,0.0,-1.0,0.0,5.m4v,11.0
2024-02-28 14:38:59.390687,1709127539.3906865,-62.01171875,-47.36328125,-42.48046875,-43.45703125,-1.0,0.0,-1.0,0.0,5.m4v,11.0
2024-02-28 14:38:59.394592,1709127539.394592,-61.03515625,-43.9453125,-31.25,-167.96875,-1.0,0.0,-1.0,0.0,5.m4v,11.0
2024-02-28 14:38:59.398497,1709127539.398497,-57.12890625,-32.2265625,-10.7421875,-125.48828125,-1.0,0.0,-1.0,0.0,5.m4v,11.0
2024-02-28 14:38:59.402403,1709127539.4024026,-48.33984375,-18.5546875,-17.08984375,28.80859375,-1.0,0.0,-1.0,0.0,5.m4v,11.0
2024-02-28 14:38:59.406308,1709127539.406308,-46.38671875,-23.92578125,-31.73828125,118.65234375,-1.0,0.0,-1.0,0.0,5.m4v,11.0
2024-02-28 14:38:59.410213,1709127539.4102132,-54.19921875,-44.43359375,-23.92578125,-20.01953125,-1.0,0.0,-1.0,0.0,5.m4v,11.0
2024-02-28 14:38:59.414119,1709127539.4141183,-64.94140625,-59.08203125,-20.5078125,-194.3359375,-1.0,0.0,-1.0,0.0,5.m4v,11.0
2024-02-28 14:38:59.418040,1709127539.4180405,-65.4296875,-65.91796875,-25.87890625,-160.15625,-1.0,0.0,-1.0,0.0,5.m4v,11.0
2024-02-28 14:38:59.421946,1709127539.4219456,-45.8984375,-62.5,-30.76171875,45.41015625,-1.0,0.0,-1.0,0.0,5.m4v,11.0
2024-02-28 14:38:59.425851,1709127539.4258509,-8.7890625,-18.5546875,-23.4375,186.03515625,-1.0,0.0,-1.0,0.0,5.m4v,11.0
2024-02-28 14:38:59.429756,1709127539.4297564,-21.97265625,-13.18359375,-50.78125,26.3671875,-1.0,0.0,-1.0,0.0,5.m4v,11.0
2024-02-28 14:38:59.433662,1709127539.4336617,-58.59375,-42.96875,-85.9375,-196.77734375,-1.0,0.0,-1.0,0.0,5.m4v,11.0
2024-02-28 14:38:59.437567,1709127539.437567,-43.9453125,-25.390625,-66.40625,-148.92578125,-1.0,0.0,-1.0,0.0,5.m4v,11.0
2024-02-28 14:38:59.441472,1709127539.4414723,-38.0859375,-28.80859375,-38.57421875,10.25390625,-1.0,0.0,-1.0,0.0,5.m4v,11.0
2024-02-28 14:38:59.445378,1709127539.4453776,-48.33984375,-54.6875,-16.11328125,86.9140625,-1.0,0.0,-1.0,0.0,5.m4v,11.0
2024-02-28 14:38:59.449283,1709127539.449283,-33.69140625,-51.7578125,-8.7890625,0.9765625,-1.0,0.0,-1.0,0.0,5.m4v,11.0
2024-02-28 14:38:59.453188,1709127539.4531882,-19.53125,-36.1328125,-25.87890625,-158.69140625,-1.0,0.0,-1.0,0.0,5.m4v,11.0
2024-02-28 14:38:59.457093,1709127539.4570937,-25.87890625,-29.78515625,-48.33984375,-113.28125,-1.0,0.0,-1.0,0.0,5.m4v,11.0
2024-02-28 14:38:59.460999,1709127539.4609988,-26.85546875,-35.15625,-46.38671875,33.69140625,-1.0,0.0,-1.0,0.0,5.m4v,11.0
2024-02-28 14:38:59.464915,1709127539.464915,-9.27734375,-25.390625,-28.3203125,111.328125,-1.0,0.0,-1.0,0.0,5.m4v,11.0
2024-02-28 14:38:59.468820,1709127539.4688203,-10.25390625,-31.73828125,-21.484375,26.85546875,-1.0,0.0,-1.0,0.0,5.m4v,11.0
2024-02-28 14:38:59.472726,1709127539.4727256,-47.8515625,-54.19921875,-42.96875,-188.96484375,-1.0,0.0,-1.0,0.0,5.m4v,11.0
2024-02-28 14:38:59.476631,1709127539.476631,-59.5703125,-44.921875,-41.50390625,-241.2109375,-1.0,0.0,-1.0,0.0,5.m4v,11.0
2024-02-28 14:38:59.480536,1709127539.4805362,-38.57421875,-23.4375,-20.99609375,-68.84765625,-1.0,0.0,-1.0,0.0,5.m4v,11.0
2024-02-28 14:38:59.484442,1709127539.4844415,-20.01953125,-10.25390625,-16.6015625,138.671875,-1.0,0.0,-1.0,0.0,5.m4v,11.0
2024-02-28 14:38:59.933650,1709127539.9336505,-37.109375,-21.97265625,-23.92578125,-168.9453125,-1.0,0.0,-1.0,0.0,5.m4v,11.0
2024-02-28 14:38:59.937556,1709127539.9375556,-43.9453125,-35.64453125,-15.625,-172.36328125,-1.0,0.0,-1.0,0.0,5.m4v,11.0
2024-02-28 14:38:59.941461,1709127539.9414608,-45.8984375,-48.33984375,-14.16015625,6.8359375,-1.0,0.0,-1.0,0.0,5.m4v,11.0
2024-02-28 14:38:59.945366,1709127539.945366,-33.69140625,-40.0390625,-16.11328125,136.71875,-1.0,0.0,-1.0,0.0,5.m4v,11.0
2024-02-28 14:38:59.949271,1709127539.9492714,-30.76171875,-14.16015625,-27.83203125,35.64453125,-1.0,0.0,-1.0,0.0,5.m4v,11.0
2024-02-28 14:38:59.953177,1709127539.9531767,-40.52734375,-0.48828125,-33.69140625,-134.765625,-1.0,0.0,-1.0,0.0,5.m4v,11.0
2024-02-28 14:38:59.957082,1709127539.957082,-64.94140625,-6.8359375,-37.109375,-167.48046875,-1.0,0.0,-1.0,0.0,5.m4v,11.0
2024-02-28 14:38:59.960987,1709127539.960987,-62.98828125,-12.6953125,-30.2734375,-23.4375,-1.0,0.0,-1.0,0.0,5.m4v,11.0
2024-02-28 14:38:59.964893,1709127539.9648926,-39.55078125,-25.390625,-37.109375,156.25,-1.0,0.0,-1.0,0.0,5.m4v,11.0
2024-02-28 14:38:59.968798,1709127539.968798,-55.6640625,-49.8046875,-62.01171875,60.05859375,-1.0,0.0,-1.0,0.0,5.m4v,11.0
2024-02-28 14:38:59.972703,1709127539.9727032,-72.75390625,-53.22265625,-64.94140625,-155.76171875,-1.0,0.0,-1.0,0.0,5.m4v,11.0
2024-02-28 14:38:59.976609,1709127539.9766085,-64.453125,-39.55078125,-37.109375,-180.6640625,-1.0,0.0,-1.0,0.0,5.m4v,11.0
2024-02-28 14:38:59.980523,1709127539.980523,-44.921875,-16.6015625,-10.25390625,-16.11328125,-1.0,0.0,-1.0,0.0,5.m4v,11.0
2024-02-28 14:38:59.984428,1709127539.9844284,-23.4375,-5.859375,4.8828125,206.54296875,-1.0,0.0,-1.0,0.0,5.m4v,11.0
2024-02-28 14:38:59.988334,1709127539.9883337,-29.296875,-40.0390625,-14.16015625,164.55078125,-1.0,0.0,-1.0,0.0,5.m4v,11.0
2024-02-28 14:38:59.992239,1709127539.992239,-62.01171875,-64.453125,-54.19921875,-100.09765625,-1.0,0.0,-1.0,0.0,5.m4v,11.0
2024-02-28 14:38:59.996144,1709127539.9961443,-65.91796875,-40.0390625,-41.9921875,-179.6875,-1.0,0.0,-1.0,0.0,5.m4v,11.0
2024-02-28 14:39:00.000050,1709127540.0000496,-34.66796875,-8.30078125,-3.90625,1.46484375,-1.0,0.0,-1.0,0.0,5.m4v,11.0
2024-02-28 14:39:00.003955,1709127540.003955,-14.6484375,0.48828125,2.44140625,187.98828125,-1.0,0.0,-1.0,0.0,5.m4v,11.0
2024-02-28 14:39:00.007860,1709127540.0078602,-16.6015625,-15.13671875,-24.4140625,150.87890625,-1.0,0.0,-1.0,0.0,5.m4v,11.0
2024-02-28 14:39:00.011765,1709127540.0117657,-36.62109375,-26.85546875,-43.45703125,-40.52734375,-1.0,0.0,-1.0,0.0,5.m4v,11.0
2024-02-28 14:39:00.015671,1709127540.0156708,-50.78125,-21.484375,-37.109375,-142.08984375,-1.0,0.0,-1.0,0.0,5.m4v,11.0
2024-02-28 14:39:00.019576,1709127540.019576,-35.64453125,-27.83203125,-27.83203125,-25.390625,-1.0,0.0,-1.0,0.0,5.m4v,11.0
2024-02-28 14:39:00.023481,1709127540.0234814,-26.85546875,-46.875,-44.921875,160.15625,-1.0,0.0,-1.0,0.0,5.m4v,11.0
2024-02-28 14:39:00.027396,1709127540.0273955,-23.4375,-33.203125,-66.40625,154.78515625,-1.0,0.0,-1.0,0.0,5.m4v,11.0
2024-02-28 14:39:00.031301,1709127540.031301,-26.3671875,-28.80859375,-50.78125,-19.53125,-1.0,0.0,-1.0,0.0,5.m4v,11.0
2024-02-28 14:39:00.035206,1709127540.0352063,-44.43359375,-37.109375,-17.08984375,-149.90234375,-1.0,0.0,-1.0,0.0,5.m4v,11.0
2024-02-28 14:39:00.039112,1709127540.0391116,-48.33984375,-28.80859375,0.9765625,-79.58984375,-1.0,0.0,-1.0,0.0,5.m4v,11.0
2024-02-28 14:39:00.043017,1709127540.043017,-31.25,-20.5078125,12.6953125,90.33203125,-1.0,0.0,-1.0,0.0,5.m4v,11.0
2024-02-28 14:39:00.046922,1709127540.0469222,-15.625,0.0,-0.9765625,183.59375,-1.0,0.0,-1.0,0.0,5.m4v,11.0
2024-02-28 14:39:00.050828,1709127540.0508275,-38.0859375,-4.39453125,-21.484375,23.92578125,-1.0,0.0,-1.0,0.0,5.m4v,11.0
2024-02-28 14:39:00.054733,1709127540.0547328,-51.7578125,-24.4140625,-22.94921875,-200.1953125,-1.0,0.0,-1.0,0.0,5.m4v,11.0
2024-02-28 14:39:00.058638,1709127540.058638,-60.546875,-42.48046875,-38.0859375,-171.875,-1.0,0.0,-1.0,0.0,5.m4v,11.0
2024-02-28 14:39:00.062543,1709127540.0625434,-58.10546875,-52.24609375,-54.6875,7.8125,-1.0,0.0,-1.0,0.0,5.m4v,11.0
2024-02-28 14:39:00.066449,1709127540.0664487,-36.1328125,-38.0859375,-44.43359375,106.4453125,-1.0,0.0,-1.0,0.0,5.m4v,11.0
2024-02-28 14:39:00.070354,1709127540.070354,-22.94921875,-25.390625,-29.296875,-4.39453125,-1.0,0.0,-1.0,0.0,5.m4v,11.0
2024-02-28 14:39:00.074267,1709127540.074267,-22.94921875,-21.484375,-42.48046875,-175.29296875,-1.0,0.0,-1.0,0.0,5.m4v,11.0
2024-02-28 14:39:00.078172,1709127540.0781722,-44.43359375,-22.94921875,-55.17578125,-186.5234375,-1.0,0.0,-1.0,0.0,5.m4v,11.0
2024-02-28 14:39:00.082078,1709127540.0820775,-42.48046875,-27.34375,-27.83203125,20.01953125,-1.0,0.0,-1.0,0.0,5.m4v,11.0
2024-02-28 14:39:00.085983,1709127540.0859828,-11.71875,-20.99609375,12.20703125,172.8515625,-1.0,0.0,-1.0,0.0,5.m4v,11.0
2024-02-28 14:39:00.089888,1709127540.089888,-20.99609375,-35.64453125,-0.9765625,24.4140625,-1.0,0.0,-1.0,0.0,5.m4v,11.0
2024-02-28 14:39:00.093793,1709127540.0937934,-43.9453125,-50.29296875,-32.2265625,-182.6171875,-1.0,0.0,-1.0,0.0,5.m4v,11.0
2024-02-28 14:39:00.097699,1709127540.0976987,-51.26953125,-30.76171875,-52.24609375,-207.03125,-1.0,0.0,-1.0,0.0,5.m4v,11.0
2024-02-28 14:39:00.101604,1709127540.101604,-55.17578125,-20.99609375,-68.84765625,-29.296875,-1.0,0.0,-1.0,0.0,5.m4v,11.0
2024-02-28 14:39:00.105509,1709127540.1055093,-23.4375,-19.04296875,-40.0390625,140.625,-1.0,0.0,-1.0,0.0,5.m4v,11.0
2024-02-28 14:39:00.109415,1709127540.1094146,-2.9296875,-3.90625,-3.90625,40.52734375,-1.0,0.0,-1.0,0.0,5.m4v,11.0
2024-02-28 14:39:00.113320,1709127540.11332,-27.34375,-12.20703125,-21.484375,-174.8046875,-1.0,0.0,-1.0,0.0,5.m4v,11.0
2024-02-28 14:39:00.117225,1709127540.1172252,-42.96875,-36.1328125,-34.66796875,-217.7734375,-1.0,0.0,-1.0,0.0,5.m4v,11.0
2024-02-28 14:39:00.121137,1709127540.1211374,-40.52734375,-39.55078125,-22.4609375,-87.890625,-1.0,0.0,-1.0,0.0,5.m4v,11.0
2024-02-28 14:39:00.125043,1709127540.125043,-32.71484375,-41.015625,-31.25,45.8984375,-1.0,0.0,-1.0,0.0,5.m4v,11.0
2024-02-28 14:39:00.128948,1709127540.128948,-35.15625,-36.1328125,-37.59765625,0.9765625,-1.0,0.0,-1.0,0.0,5.m4v,11.0
2024-02-28 14:39:00.132853,1709127540.1328533,-38.0859375,-11.23046875,-32.71484375,-146.484375,-1.0,0.0,-1.0,0.0,5.m4v,11.0
2024-02-28 14:39:00.136759,1709127540.1367586,-29.78515625,-1.953125,-47.8515625,-157.71484375,-1.0,0.0,-1.0,0.0,5.m4v,11.0
2024-02-28 14:39:00.140664,1709127540.140664,-42.96875,-31.25,-62.5,-37.109375,-1.0,0.0,-1.0,0.0,5.m4v,11.0
2024-02-28 14:39:00.144569,1709127540.1445692,-22.94921875,-34.1796875,-36.1328125,124.51171875,-1.0,0.0,-1.0,0.0,5.m4v,11.0
2024-02-28 14:39:00.148474,1709127540.1484745,4.39453125,-10.7421875,-15.13671875,119.140625,-1.0,0.0,-1.0,0.0,5.m4v,11.0
2024-02-28 14:39:00.152380,1709127540.1523798,4.8828125,0.9765625,0.9765625,-83.984375,-1.0,0.0,-1.0,0.0,5.m4v,11.0
2024-02-28 14:39:00.156285,1709127540.156285,1.46484375,-10.25390625,-22.94921875,-175.29296875,-1.0,0.0,-1.0,0.0,5.m4v,11.0
2024-02-28 14:39:00.160190,1709127540.1601903,-31.73828125,-33.69140625,-58.10546875,-78.125,-1.0,0.0,-1.0,0.0,5.m4v,11.0
2024-02-28 14:39:00.164096,1709127540.1640956,-41.9921875,-32.2265625,-41.015625,98.14453125,-1.0,0.0,-1.0,0.0,5.m4v,11.0
2024-02-28 14:39:00.168012,1709127540.168012,-22.4609375,-24.4140625,-7.8125,130.37109375,-1.0,0.0,-1.0,0.0,5.m4v,11.0
2024-02-28 14:39:00.171917,1709127540.1719174,-38.57421875,-44.921875,-19.53125,-69.3359375,-1.0,0.0,-1.0,0.0,5.m4v,11.0
2024-02-28 14:39:00.175823,1709127540.175823,-57.6171875,-55.17578125,-41.9921875,-179.6875,-1.0,0.0,-1.0,0.0,5.m4v,11.0
2024-02-28 14:39:00.179728,1709127540.1797285,-48.828125,-39.0625,-19.04296875,-88.8671875,-1.0,0.0,-1.0,0.0,5.m4v,11.0
2024-02-28 14:39:00.183634,1709127540.1836336,-23.4375,-20.01953125,-6.8359375,123.046875,-1.0,0.0,-1.0,0.0,5.m4v,11.0
2024-02-28 14:39:00.187539,1709127540.1875389,-15.13671875,-15.625,-33.69140625,182.12890625,-1.0,0.0,-1.0,0.0,5.m4v,11.0
2024-02-28 14:39:00.191444,1709127540.1914442,-2.44140625,-8.30078125,-35.15625,59.5703125,-1.0,0.0,-1.0,0.0,5.m4v,11.0
2024-02-28 14:39:00.195349,1709127540.1953497,-9.765625,-7.32421875,-14.6484375,-95.703125,-1.0,0.0,-1.0,0.0,5.m4v,11.0
2024-02-28 14:39:00.199255,1709127540.1992548,-43.9453125,-11.23046875,-22.94921875,-148.92578125,-1.0,0.0,-1.0,0.0,5.m4v,11.0
2024-02-28 14:39:00.203160,1709127540.20316,-33.203125,-9.27734375,-35.15625,43.45703125,-1.0,0.0,-1.0,0.0,5.m4v,11.0
2024-02-28 14:39:00.207065,1709127540.207065,-13.18359375,-19.04296875,-23.92578125,136.71875,-1.0,0.0,-1.0,0.0,5.m4v,11.0
2024-02-28 14:39:00.210971,1709127540.2109706,-32.71484375,-32.2265625,-20.99609375,-43.9453125,-1.0,0.0,-1.0,0.0,5.m4v,11.0
2024-02-28 14:39:00.214887,1709127540.2148874,-50.78125,-51.7578125,-39.0625,-196.77734375,-1.0,0.0,-1.0,0.0,5.m4v,11.0
2024-02-28 14:39:00.218793,1709127540.218793,-33.203125,-37.109375,-28.80859375,-102.05078125,-1.0,0.0,-1.0,0.0,5.m4v,11.0
2024-02-28 14:39:00.222698,1709127540.222698,-26.3671875,-31.73828125,-28.80859375,52.734375,-1.0,0.0,-1.0,0.0,5.m4v,11.0
2024-02-28 14:39:00.226603,1709127540.2266033,-23.92578125,-41.015625,-38.57421875,117.1875,-1.0,0.0,-1.0,0.0,5.m4v,11.0
2024-02-28 14:39:00.230509,1709127540.2305086,-9.765625,-24.4140625,-17.578125,0.9765625,-1.0,0.0,-1.0,0.0,5.m4v,11.0
2024-02-28 14:39:00.234414,1709127540.234414,-22.94921875,-15.625,-29.78515625,-151.85546875,-1.0,0.0,-1.0,0.0,5.m4v,11.0
2024-02-28 14:39:00.238319,1709127540.2383192,-38.57421875,-24.90234375,-42.48046875,-139.16015625,-1.0,0.0,-1.0,0.0,5.m4v,11.0
2024-02-28 14:39:00.242224,1709127540.2422245,-27.34375,-27.34375,-20.99609375,49.8046875,-1.0,0.0,-1.0,0.0,5.m4v,11.0
2024-02-28 14:39:00.246130,1709127540.2461298,-6.34765625,-7.32421875,-19.04296875,197.75390625,-1.0,0.0,-1.0,0.0,5.m4v,11.0
2024-02-28 14:39:00.250035,1709127540.250035,-11.23046875,-6.8359375,-20.01953125,0.9765625,-1.0,0.0,-1.0,0.0,5.m4v,11.0
2024-02-28 14:39:00.253940,1709127540.2539403,-40.0390625,-33.69140625,-29.296875,-237.79296875,-1.0,0.0,-1.0,0.0,5.m4v,11.0
2024-02-28 14:39:00.257846,1709127540.2578456,-71.2890625,-55.17578125,-63.96484375,-245.60546875,-1.0,0.0,-1.0,0.0,5.m4v,11.0
2024-02-28 14:39:00.261762,1709127540.261762,-69.82421875,-50.78125,-61.5234375,-49.31640625,-1.0,0.0,-1.0,0.0,5.m4v,11.0
2024-02-28 14:39:00.265667,1709127540.2656672,-38.57421875,-48.828125,-32.2265625,121.09375,-1.0,0.0,-1.0,0.0,5.m4v,11.0
2024-02-28 14:39:00.269572,1709127540.2695725,-21.97265625,-43.45703125,-13.18359375,22.4609375,-1.0,0.0,-1.0,0.0,5.m4v,11.0
2024-02-28 14:39:00.273478,1709127540.2734778,-34.1796875,-28.3203125,-24.90234375,-157.71484375,-1.0,0.0,-1.0,0.0,5.m4v,11.0
2024-02-28 14:39:00.277383,1709127540.277383,-49.8046875,-19.04296875,-44.921875,-182.6171875,-1.0,0.0,-1.0,0.0,5.m4v,11.0
2024-02-28 14:39:00.281288,1709127540.2812884,-26.3671875,2.9296875,-16.6015625,9.27734375,-1.0,0.0,-1.0,0.0,5.m4v,11.0
2024-02-28 14:39:00.285194,1709127540.2851937,-6.34765625,6.8359375,-11.23046875,184.08203125,-1.0,0.0,-1.0,0.0,5.m4v,11.0
2024-02-28 14:39:00.289099,1709127540.289099,-29.296875,-23.92578125,-30.76171875,46.38671875,-1.0,0.0,-1.0,0.0,5.m4v,11.0
2024-02-28 14:39:00.293004,1709127540.2930045,-40.52734375,-44.43359375,-26.3671875,-168.45703125,-1.0,0.0,-1.0,0.0,5.m4v,11.0
2024-02-28 14:39:00.296910,1709127540.2969096,-20.5078125,-32.71484375,-14.6484375,-154.296875,-1.0,0.0,-1.0,0.0,5.m4v,11.0
2024-02-28 14:39:00.300815,1709127540.3008149,-20.99609375,-20.01953125,-15.13671875,13.671875,-1.0,0.0,-1.0,0.0,5.m4v,11.0
2024-02-28 14:39:00.304720,1709127540.3047202,-22.94921875,-32.71484375,-29.296875,147.94921875,-1.0,0.0,-1.0,0.0,5.m4v,11.0
2024-02-28 14:39:00.308635,1709127540.308635,-21.484375,-34.1796875,-45.8984375,44.921875,-1.0,0.0,-1.0,0.0,5.m4v,11.0
2024-02-28 14:39:00.312540,1709127540.3125403,-26.85546875,-29.78515625,-68.84765625,-140.13671875,-1.0,0.0,-1.0,0.0,5.m4v,11.0
2024-02-28 14:39:00.316446,1709127540.3164456,-50.78125,-40.0390625,-82.03125,-216.30859375,-1.0,0.0,-1.0,0.0,5.m4v,11.0
2024-02-28 14:39:00.320351,1709127540.320351,-66.89453125,-42.48046875,-48.828125,-117.67578125,-1.0,0.0,-1.0,0.0,5.m4v,11.0
2024-02-28 14:39:00.324256,1709127540.3242562,-36.62109375,-34.66796875,-15.625,90.8203125,-1.0,0.0,-1.0,0.0,5.m4v,11.0
2024-02-28 14:39:00.328161,1709127540.3281617,-16.6015625,-14.16015625,-14.16015625,104.00390625,-1.0,0.0,-1.0,0.0,5.m4v,11.0
2024-02-28 14:39:00.332067,1709127540.3320668,-23.4375,-11.23046875,-22.4609375,-93.75,-1.0,0.0,-1.0,0.0,5.m4v,11.0
2024-02-28 14:39:00.335972,1709127540.335972,-41.50390625,-21.97265625,-41.50390625,-190.91796875,-1.0,0.0,-1.0,0.0,5.m4v,11.0
2024-02-28 14:39:00.339877,1709127540.3398774,-41.9921875,-26.3671875,-32.2265625,-90.8203125,-1.0,0.0,-1.0,0.0,5.m4v,11.0
2024-02-28 14:39:00.343783,1709127540.343783,-24.90234375,-28.80859375,-3.90625,93.26171875,-1.0,0.0,-1.0,0.0,5.m4v,11.0
2024-02-28 14:39:00.347688,1709127540.347688,-20.01953125,-32.71484375,-8.7890625,121.58203125,-1.0,0.0,-1.0,0.0,5.m4v,11.0
2024-02-28 14:39:00.351593,1709127540.3515933,-37.109375,-43.9453125,-32.71484375,-107.421875,-1.0,0.0,-1.0,0.0,5.m4v,11.0
2024-02-28 14:39:00.355507,1709127540.3555074,-56.640625,-55.6640625,-45.8984375,-232.91015625,-1.0,0.0,-1.0,0.0,5.m4v,11.0
2024-02-28 14:39:00.359413,1709127540.359413,-46.875,-48.828125,-39.0625,-106.4453125,-1.0,0.0,-1.0,0.0,5.m4v,11.0
2024-02-28 14:39:00.363318,1709127540.363318,-14.6484375,-24.4140625,-51.7578125,102.5390625,-1.0,0.0,-1.0,0.0,5.m4v,11.0
2024-02-28 14:39:00.367223,1709127540.3672233,-1.46484375,-14.6484375,-70.80078125,138.671875,-1.0,0.0,-1.0,0.0,5.m4v,11.0
2024-02-28 14:39:00.371129,1709127540.3711286,-27.34375,-10.7421875,-74.70703125,-63.96484375,-1.0,0.0,-1.0,0.0,5.m4v,11.0
2024-02-28 14:39:00.375034,1709127540.375034,-35.64453125,-14.6484375,-32.71484375,-180.17578125,-1.0,0.0,-1.0,0.0,5.m4v,11.0
2024-02-28 14:39:00.378939,1709127540.3789392,-23.92578125,-33.203125,12.6953125,-109.86328125,-1.0,0.0,-1.0,0.0,5.m4v,11.0
2024-02-28 14:39:00.382844,1709127540.3828444,-34.1796875,-34.66796875,-2.9296875,10.7421875,-1.0,0.0,-1.0,0.0,5.m4v,11.0
2024-02-28 14:39:00.386750,1709127540.3867495,-49.8046875,-28.80859375,-14.6484375,60.546875,-1.0,0.0,-1.0,0.0,5.m4v,11.0
2024-02-28 14:39:00.390655,1709127540.390655,-55.6640625,-27.83203125,-24.90234375,-112.79296875,-1.0,0.0,-1.0,0.0,5.m4v,11.0
2024-02-28 14:39:00.394560,1709127540.3945603,-70.3125,-34.66796875,-30.2734375,-307.6171875,-1.0,0.0,-1.0,0.0,5.m4v,11.0
