Timestamp,Timestamp_UNIX,TP9,AF7,AF8,TP10,Valence,Arousal,Dominace,Viewed,Video,Participant
2024-02-27 09:22:21.001681,1709022141.001681,17.08984375,-41.9921875,-19.04296875,-39.0625,0.0,-1.0,1.0,0.0,2.m4v,1.0
2024-02-27 09:22:21.005587,1709022141.005587,47.8515625,-10.7421875,-14.16015625,4.39453125,0.0,-1.0,1.0,0.0,2.m4v,1.0
2024-02-27 09:22:21.009493,1709022141.0094926,121.58203125,-1.953125,3.90625,46.38671875,0.0,-1.0,1.0,0.0,2.m4v,1.0
2024-02-27 09:22:21.013399,1709022141.013399,42.96875,-22.4609375,-31.25,-0.48828125,0.0,-1.0,1.0,0.0,2.m4v,1.0
2024-02-27 09:22:21.017305,1709022141.017305,-8.30078125,-62.98828125,-28.80859375,-30.76171875,0.0,-1.0,1.0,0.0,2.m4v,1.0
2024-02-27 09:22:21.021210,1709022141.0212102,-31.25,-53.22265625,-27.34375,-67.87109375,0.0,-1.0,1.0,0.0,2.m4v,1.0
2024-02-27 09:22:21.025116,1709022141.025116,-31.25,-51.7578125,-28.80859375,-58.10546875,0.0,-1.0,1.0,0.0,2.m4v,1.0
2024-02-27 09:22:21.029022,1709022141.0290215,-29.78515625,-42.48046875,-25.87890625,-53.7109375,0.0,-1.0,1.0,0.0,2.m4v,1.0
2024-02-27 09:22:21.032927,1709022141.0329273,14.6484375,-35.15625,-0.48828125,-28.80859375,0.0,-1.0,1.0,0.0,2.m4v,1.0
2024-02-27 09:22:21.036833,1709022141.036833,-26.3671875,20.99609375,-15.13671875,-23.4375,0.0,-1.0,1.0,0.0,2.m4v,1.0
2024-02-27 09:22:21.040739,1709022141.0407386,-46.875,63.4765625,-24.90234375,-15.625,0.0,-1.0,1.0,0.0,2.m4v,1.0
2024-02-27 09:22:21.044644,1709022141.0446444,8.7890625,-39.55078125,8.30078125,6.34765625,0.0,-1.0,1.0,0.0,2.m4v,1.0
2024-02-27 09:22:21.048550,1709022141.04855,-12.6953125,-98.14453125,-14.16015625,-41.50390625,0.0,-1.0,1.0,0.0,2.m4v,1.0
2024-02-27 09:22:21.052456,1709022141.0524557,-40.0390625,-48.33984375,-37.59765625,-52.24609375,0.0,-1.0,1.0,0.0,2.m4v,1.0
2024-02-27 09:22:21.056361,1709022141.0563614,-25.87890625,-22.94921875,-17.08984375,-11.23046875,0.0,-1.0,1.0,0.0,2.m4v,1.0
2024-02-27 09:22:21.060270,1709022141.0602703,-20.5078125,-2.44140625,-33.69140625,-21.484375,0.0,-1.0,1.0,0.0,2.m4v,1.0
2024-02-27 09:22:21.064176,1709022141.0641758,-36.62109375,-7.8125,-40.52734375,-42.96875,0.0,-1.0,1.0,0.0,2.m4v,1.0
2024-02-27 09:22:21.068082,1709022141.0680816,-16.11328125,-13.18359375,-4.39453125,-20.99609375,0.0,-1.0,1.0,0.0,2.m4v,1.0
2024-02-27 09:22:21.071987,1709022141.0719872,-13.18359375,-27.34375,-4.39453125,-26.85546875,0.0,-1.0,1.0,0.0,2.m4v,1.0
2024-02-27 09:22:21.075893,1709022141.075893,2.44140625,-32.71484375,-12.20703125,-24.4140625,0.0,-1.0,1.0,0.0,2.m4v,1.0
2024-02-27 09:22:21.079799,1709022141.0797987,-1.953125,-7.32421875,-33.203125,-31.25,0.0,-1.0,1.0,0.0,2.m4v,1.0
2024-02-27 09:22:21.083704,1709022141.0837042,5.859375,-0.9765625,-47.36328125,0.9765625,0.0,-1.0,1.0,0.0,2.m4v,1.0
2024-02-27 09:22:21.087610,1709022141.08761,63.96484375,-3.41796875,-12.6953125,41.9921875,0.0,-1.0,1.0,0.0,2.m4v,1.0
2024-02-27 09:22:21.091516,1709022141.0915155,93.26171875,-39.55078125,13.671875,35.15625,0.0,-1.0,1.0,0.0,2.m4v,1.0
2024-02-27 09:22:21.095421,1709022141.0954213,40.0390625,-26.85546875,-8.30078125,-14.16015625,0.0,-1.0,1.0,0.0,2.m4v,1.0
2024-02-27 09:22:21.099327,1709022141.099327,-11.71875,-12.6953125,-37.59765625,-29.296875,0.0,-1.0,1.0,0.0,2.m4v,1.0
2024-02-27 09:22:21.103233,1709022141.1032326,-9.27734375,-29.78515625,-33.69140625,-30.2734375,0.0,-1.0,1.0,0.0,2.m4v,1.0
2024-02-27 09:22:21.107138,1709022141.1071382,53.7109375,-15.13671875,-23.92578125,-5.37109375,0.0,-1.0,1.0,0.0,2.m4v,1.0
2024-02-27 09:22:21.111044,1709022141.1110437,96.19140625,-31.25,-13.671875,4.39453125,0.0,-1.0,1.0,0.0,2.m4v,1.0
2024-02-27 09:22:21.114949,1709022141.1149497,55.17578125,-33.203125,-14.16015625,-54.6875,0.0,-1.0,1.0,0.0,2.m4v,1.0
2024-02-27 09:22:21.118855,1709022141.1188552,8.7890625,-14.16015625,-18.06640625,-62.98828125,0.0,-1.0,1.0,0.0,2.m4v,1.0
2024-02-27 09:22:21.122761,1709022141.1227608,-17.578125,14.6484375,-32.71484375,-67.3828125,0.0,-1.0,1.0,0.0,2.m4v,1.0
2024-02-27 09:22:21.126667,1709022141.1266663,94.23828125,-23.4375,-13.671875,-5.37109375,0.0,-1.0,1.0,0.0,2.m4v,1.0
2024-02-27 09:22:21.130572,1709022141.130572,64.453125,-7.32421875,-37.109375,-16.6015625,0.0,-1.0,1.0,0.0,2.m4v,1.0
2024-02-27 09:22:21.134478,1709022141.134478,89.35546875,-29.78515625,-32.2265625,7.8125,0.0,-1.0,1.0,0.0,2.m4v,1.0
2024-02-27 09:22:21.138384,1709022141.1383836,127.44140625,-33.69140625,7.32421875,52.24609375,0.0,-1.0,1.0,0.0,2.m4v,1.0
2024-02-27 09:22:21.142289,1709022141.1422892,79.1015625,-25.87890625,-6.8359375,7.8125,0.0,-1.0,1.0,0.0,2.m4v,1.0
2024-02-27 09:22:21.146195,1709022141.146195,108.3984375,-34.1796875,-23.4375,29.296875,0.0,-1.0,1.0,0.0,2.m4v,1.0
2024-02-27 09:22:21.150100,1709022141.1501005,53.7109375,-31.25,-36.62109375,12.6953125,0.0,-1.0,1.0,0.0,2.m4v,1.0
2024-02-27 09:22:21.154006,1709022141.1540055,51.7578125,-36.1328125,-35.64453125,-35.64453125,0.0,-1.0,1.0,0.0,2.m4v,1.0
2024-02-27 09:22:21.157911,1709022141.1579113,119.140625,-32.71484375,-10.25390625,-20.5078125,0.0,-1.0,1.0,0.0,2.m4v,1.0
2024-02-27 09:22:21.161817,1709022141.161817,113.28125,-13.18359375,-15.13671875,18.06640625,0.0,-1.0,1.0,0.0,2.m4v,1.0
2024-02-27 09:22:21.165723,1709022141.1657226,23.4375,32.71484375,-47.8515625,-11.71875,0.0,-1.0,1.0,0.0,2.m4v,1.0
2024-02-27 09:22:21.169628,1709022141.1696284,-44.921875,-14.6484375,-20.01953125,-12.6953125,0.0,-1.0,1.0,0.0,2.m4v,1.0
2024-02-27 09:22:21.173534,1709022141.173534,69.82421875,-60.05859375,5.37109375,3.41796875,0.0,-1.0,1.0,0.0,2.m4v,1.0
2024-02-27 09:22:21.177440,1709022141.1774397,96.6796875,-48.33984375,-15.625,-58.10546875,0.0,-1.0,1.0,0.0,2.m4v,1.0
2024-02-27 09:22:21.181345,1709022141.1813457,44.921875,-14.16015625,-32.71484375,-38.57421875,0.0,-1.0,1.0,0.0,2.m4v,1.0
2024-02-27 09:22:21.185251,1709022141.185251,67.87109375,-12.6953125,-24.4140625,-17.08984375,0.0,-1.0,1.0,0.0,2.m4v,1.0
2024-02-27 09:22:21.189157,1709022141.1891568,103.02734375,-78.125,-25.390625,6.34765625,0.0,-1.0,1.0,0.0,2.m4v,1.0
2024-02-27 09:22:21.193062,1709022141.1930623,140.625,-32.71484375,-38.57421875,7.32421875,0.0,-1.0,1.0,0.0,2.m4v,1.0
2024-02-27 09:22:21.196968,1709022141.196968,17.578125,-23.92578125,-27.34375,-19.04296875,0.0,-1.0,1.0,0.0,2.m4v,1.0
2024-02-27 09:22:21.200873,1709022141.200873,46.38671875,-79.58984375,-26.85546875,-20.99609375,0.0,-1.0,1.0,0.0,2.m4v,1.0
2024-02-27 09:22:21.204779,1709022141.204779,241.2109375,-57.12890625,0.9765625,14.6484375,0.0,-1.0,1.0,0.0,2.m4v,1.0
2024-02-27 09:22:21.208684,1709022141.2086842,163.0859375,-36.1328125,5.859375,-12.6953125,0.0,-1.0,1.0,0.0,2.m4v,1.0
2024-02-27 09:22:21.212590,1709022141.21259,129.8828125,-59.5703125,-37.59765625,-64.94140625,0.0,-1.0,1.0,0.0,2.m4v,1.0
2024-02-27 09:22:21.216496,1709022141.2164955,158.69140625,-24.90234375,-21.97265625,-52.734375,0.0,-1.0,1.0,0.0,2.m4v,1.0
2024-02-27 09:22:21.220401,1709022141.2204013,136.23046875,-4.8828125,4.8828125,-21.484375,0.0,-1.0,1.0,0.0,2.m4v,1.0
2024-02-27 09:22:21.224307,1709022141.224307,77.1484375,-13.671875,-37.109375,-38.0859375,0.0,-1.0,1.0,0.0,2.m4v,1.0
2024-02-27 09:22:21.228213,1709022141.2282126,30.76171875,-14.6484375,-55.6640625,-29.296875,0.0,-1.0,1.0,0.0,2.m4v,1.0
2024-02-27 09:22:21.232118,1709022141.2321184,210.44921875,0.48828125,-18.5546875,10.25390625,0.0,-1.0,1.0,0.0,2.m4v,1.0
2024-02-27 09:22:21.236024,1709022141.236024,257.32421875,-28.3203125,4.8828125,24.90234375,0.0,-1.0,1.0,0.0,2.m4v,1.0
2024-02-27 09:22:21.239930,1709022141.2399297,189.453125,-62.98828125,0.9765625,26.3671875,0.0,-1.0,1.0,0.0,2.m4v,1.0
2024-02-27 09:22:21.243835,1709022141.2438352,189.453125,-38.57421875,-32.2265625,-27.34375,0.0,-1.0,1.0,0.0,2.m4v,1.0
2024-02-27 09:22:21.247743,1709022141.247743,114.74609375,3.41796875,-65.4296875,-40.52734375,0.0,-1.0,1.0,0.0,2.m4v,1.0
2024-02-27 09:22:21.251648,1709022141.2516484,158.203125,-0.9765625,-48.33984375,13.671875,0.0,-1.0,1.0,0.0,2.m4v,1.0
2024-02-27 09:22:21.255554,1709022141.255554,148.4375,-19.04296875,-13.18359375,10.7421875,0.0,-1.0,1.0,0.0,2.m4v,1.0
2024-02-27 09:22:21.259460,1709022141.2594595,72.75390625,-23.4375,-13.18359375,-10.25390625,0.0,-1.0,1.0,0.0,2.m4v,1.0
2024-02-27 09:22:21.263365,1709022141.2633653,134.27734375,-35.15625,-23.92578125,8.30078125,0.0,-1.0,1.0,0.0,2.m4v,1.0
2024-02-27 09:22:21.267271,1709022141.267271,154.296875,3.41796875,-32.2265625,-1.953125,0.0,-1.0,1.0,0.0,2.m4v,1.0
2024-02-27 09:22:21.271177,1709022141.2711768,171.38671875,10.7421875,-25.390625,4.8828125,0.0,-1.0,1.0,0.0,2.m4v,1.0
2024-02-27 09:22:21.275082,1709022141.2750823,121.09375,-54.6875,-46.38671875,31.73828125,0.0,-1.0,1.0,0.0,2.m4v,1.0
2024-02-27 09:22:21.278988,1709022141.278988,145.5078125,-98.6328125,-11.23046875,28.80859375,0.0,-1.0,1.0,0.0,2.m4v,1.0
2024-02-27 09:22:21.282894,1709022141.2828937,23.4375,46.38671875,0.9765625,-32.2265625,0.0,-1.0,1.0,0.0,2.m4v,1.0
2024-02-27 09:22:21.286799,1709022141.2867994,-88.8671875,75.1953125,-31.73828125,-59.5703125,0.0,-1.0,1.0,0.0,2.m4v,1.0
2024-02-27 09:22:21.290705,1709022141.2907052,125.0,-40.0390625,8.30078125,-8.7890625,0.0,-1.0,1.0,0.0,2.m4v,1.0
2024-02-27 09:22:21.294612,1709022141.2946124,118.65234375,-25.87890625,-2.9296875,-15.625,0.0,-1.0,1.0,0.0,2.m4v,1.0
2024-02-27 09:22:21.298518,1709022141.298518,107.91015625,-50.29296875,-34.66796875,5.37109375,0.0,-1.0,1.0,0.0,2.m4v,1.0
2024-02-27 09:22:21.302424,1709022141.3024237,103.02734375,-52.24609375,-52.24609375,33.203125,0.0,-1.0,1.0,0.0,2.m4v,1.0
2024-02-27 09:22:21.306329,1709022141.3063293,23.4375,3.90625,-39.55078125,12.6953125,0.0,-1.0,1.0,0.0,2.m4v,1.0
2024-02-27 09:22:21.310235,1709022141.310235,35.64453125,-5.859375,-8.30078125,-16.6015625,0.0,-1.0,1.0,0.0,2.m4v,1.0
2024-02-27 09:22:21.314141,1709022141.3141408,-31.73828125,-32.71484375,-7.32421875,-88.37890625,0.0,-1.0,1.0,0.0,2.m4v,1.0
2024-02-27 09:22:21.318046,1709022141.3180463,-0.48828125,-23.92578125,3.90625,-43.45703125,0.0,-1.0,1.0,0.0,2.m4v,1.0
2024-02-27 09:22:21.321952,1709022141.321952,83.49609375,-48.33984375,-7.8125,39.55078125,0.0,-1.0,1.0,0.0,2.m4v,1.0
2024-02-27 09:22:21.325858,1709022141.3258576,11.71875,-42.96875,-43.45703125,-2.9296875,0.0,-1.0,1.0,0.0,2.m4v,1.0
2024-02-27 09:22:21.329763,1709022141.3297634,13.671875,-6.8359375,-48.828125,-17.08984375,0.0,-1.0,1.0,0.0,2.m4v,1.0
2024-02-27 09:22:21.333669,1709022141.3336692,64.453125,-7.8125,-22.94921875,3.41796875,0.0,-1.0,1.0,0.0,2.m4v,1.0
2024-02-27 09:22:21.337575,1709022141.3375747,86.9140625,3.90625,-19.04296875,-14.16015625,0.0,-1.0,1.0,0.0,2.m4v,1.0
2024-02-27 09:22:21.341481,1709022141.3414814,4.39453125,33.203125,-16.11328125,-11.23046875,0.0,-1.0,1.0,0.0,2.m4v,1.0
2024-02-27 09:22:21.345387,1709022141.3453872,42.96875,-41.015625,-40.0390625,27.83203125,0.0,-1.0,1.0,0.0,2.m4v,1.0
2024-02-27 09:22:21.345387,1709022141.3453872,42.96875,-41.015625,-40.0390625,27.83203125,0.0,-1.0,1.0,0.0,2.m4v,1.0
2024-02-27 09:22:21.349293,1709022141.3492928,55.6640625,-26.85546875,-46.38671875,19.04296875,0.0,-1.0,1.0,0.0,2.m4v,1.0
2024-02-27 09:22:21.349293,1709022141.3492928,55.6640625,-26.85546875,-46.38671875,19.04296875,0.0,-1.0,1.0,0.0,2.m4v,1.0
2024-02-27 09:22:21.353199,1709022141.3531983,61.03515625,11.71875,14.16015625,35.15625,0.0,-1.0,1.0,0.0,2.m4v,1.0
2024-02-27 09:22:21.353199,1709022141.3531983,61.03515625,11.71875,14.16015625,35.15625,0.0,-1.0,1.0,0.0,2.m4v,1.0
2024-02-27 09:22:21.357104,1709022141.3571043,48.33984375,-5.859375,-4.8828125,-20.01953125,0.0,-1.0,1.0,0.0,2.m4v,1.0
2024-02-27 09:22:21.357104,1709022141.3571043,48.33984375,-5.859375,-4.8828125,-20.01953125,0.0,-1.0,1.0,0.0,2.m4v,1.0
2024-02-27 09:22:21.361010,1709022141.3610098,-43.45703125,-9.765625,-46.38671875,-59.5703125,0.0,-1.0,1.0,0.0,2.m4v,1.0
2024-02-27 09:22:21.361010,1709022141.3610098,-43.45703125,-9.765625,-46.38671875,-59.5703125,0.0,-1.0,1.0,0.0,2.m4v,1.0
2024-02-27 09:22:21.364916,1709022141.3649156,0.9765625,-72.265625,-41.9921875,-26.85546875,0.0,-1.0,1.0,0.0,2.m4v,1.0
2024-02-27 09:22:21.368821,1709022141.3688211,44.43359375,-47.8515625,-32.2265625,-29.296875,0.0,-1.0,1.0,0.0,2.m4v,1.0
2024-02-27 09:22:21.372727,1709022141.372727,39.55078125,-15.625,-28.3203125,-28.3203125,0.0,-1.0,1.0,0.0,2.m4v,1.0
2024-02-27 09:22:21.376633,1709022141.3766327,34.1796875,-29.296875,-7.8125,7.32421875,0.0,-1.0,1.0,0.0,2.m4v,1.0
2024-02-27 09:22:21.380538,1709022141.3805382,42.48046875,-15.625,2.44140625,23.4375,0.0,-1.0,1.0,0.0,2.m4v,1.0
2024-02-27 09:22:21.384444,1709022141.384444,-3.41796875,1.953125,-39.55078125,-4.8828125,0.0,-1.0,1.0,0.0,2.m4v,1.0
2024-02-27 09:22:21.388350,1709022141.3883505,55.17578125,-39.55078125,-36.1328125,10.25390625,0.0,-1.0,1.0,0.0,2.m4v,1.0
2024-02-27 09:22:21.392256,1709022141.392256,61.5234375,-30.76171875,-10.25390625,11.71875,0.0,-1.0,1.0,0.0,2.m4v,1.0
2024-02-27 09:22:21.396162,1709022141.3961618,78.125,26.3671875,3.90625,-3.41796875,0.0,-1.0,1.0,0.0,2.m4v,1.0
2024-02-27 09:22:21.400067,1709022141.400067,54.6875,31.25,-19.53125,2.9296875,0.0,-1.0,1.0,0.0,2.m4v,1.0
2024-02-27 09:22:21.403973,1709022141.403973,25.390625,-13.18359375,-18.5546875,17.08984375,0.0,-1.0,1.0,0.0,2.m4v,1.0
2024-02-27 09:22:21.407879,1709022141.4078786,72.265625,-57.6171875,-18.5546875,25.390625,0.0,-1.0,1.0,0.0,2.m4v,1.0
2024-02-27 09:22:21.411784,1709022141.4117844,33.69140625,-41.50390625,-30.76171875,-21.97265625,0.0,-1.0,1.0,0.0,2.m4v,1.0
2024-02-27 09:22:21.415690,1709022141.4156902,-30.2734375,-31.73828125,-24.90234375,-49.31640625,0.0,-1.0,1.0,0.0,2.m4v,1.0
2024-02-27 09:22:21.419596,1709022141.4195957,-0.9765625,-49.8046875,-24.90234375,-18.5546875,0.0,-1.0,1.0,0.0,2.m4v,1.0
2024-02-27 09:22:21.423501,1709022141.4235015,18.06640625,28.80859375,-9.27734375,-2.44140625,0.0,-1.0,1.0,0.0,2.m4v,1.0
2024-02-27 09:22:21.427407,1709022141.427407,-21.97265625,38.0859375,-24.4140625,-18.06640625,0.0,-1.0,1.0,0.0,2.m4v,1.0
2024-02-27 09:22:21.431313,1709022141.4313128,21.97265625,-42.48046875,-26.3671875,4.39453125,0.0,-1.0,1.0,0.0,2.m4v,1.0
2024-02-27 09:22:21.435219,1709022141.4352188,79.1015625,-41.50390625,24.4140625,39.0625,0.0,-1.0,1.0,0.0,2.m4v,1.0
2024-02-27 09:22:21.439124,1709022141.4391243,41.50390625,-28.80859375,30.76171875,26.85546875,0.0,-1.0,1.0,0.0,2.m4v,1.0
2024-02-27 09:22:21.443030,1709022141.44303,-48.828125,-4.39453125,-19.53125,-42.96875,0.0,-1.0,1.0,0.0,2.m4v,1.0
2024-02-27 09:22:21.446936,1709022141.4469357,-3.90625,-23.4375,-19.53125,-17.578125,0.0,-1.0,1.0,0.0,2.m4v,1.0
2024-02-27 09:22:21.450841,1709022141.4508414,32.71484375,-21.97265625,-34.1796875,-2.9296875,0.0,-1.0,1.0,0.0,2.m4v,1.0
2024-02-27 09:22:21.454747,1709022141.4547472,27.83203125,-30.2734375,-38.0859375,-11.71875,0.0,-1.0,1.0,0.0,2.m4v,1.0
2024-02-27 09:22:21.458653,1709022141.4586527,35.64453125,-43.9453125,-21.484375,28.80859375,0.0,-1.0,1.0,0.0,2.m4v,1.0
2024-02-27 09:22:21.462559,1709022141.4625585,-22.94921875,-16.11328125,-39.55078125,-1.46484375,0.0,-1.0,1.0,0.0,2.m4v,1.0
2024-02-27 09:22:21.466464,1709022141.466464,-32.2265625,27.34375,-31.73828125,-56.15234375,0.0,-1.0,1.0,0.0,2.m4v,1.0
2024-02-27 09:22:21.470370,1709022141.4703698,-20.99609375,-2.9296875,-11.23046875,-23.4375,0.0,-1.0,1.0,0.0,2.m4v,1.0
2024-02-27 09:22:21.474276,1709022141.4742756,0.9765625,-58.10546875,-24.4140625,3.90625,0.0,-1.0,1.0,0.0,2.m4v,1.0
2024-02-27 09:22:21.478181,1709022141.4781811,28.80859375,-20.01953125,-3.90625,-7.32421875,0.0,-1.0,1.0,0.0,2.m4v,1.0
2024-02-27 09:22:21.482087,1709022141.482087,0.0,-26.85546875,16.11328125,-11.71875,0.0,-1.0,1.0,0.0,2.m4v,1.0
2024-02-27 09:22:21.485993,1709022141.485993,-6.34765625,-13.671875,-2.44140625,-21.484375,0.0,-1.0,1.0,0.0,2.m4v,1.0
2024-02-27 09:22:21.489898,1709022141.4898982,15.625,-6.8359375,-29.296875,-10.25390625,0.0,-1.0,1.0,0.0,2.m4v,1.0
2024-02-27 09:22:21.493804,1709022141.493804,-17.578125,11.23046875,-49.8046875,-23.92578125,0.0,-1.0,1.0,0.0,2.m4v,1.0
2024-02-27 09:22:21.497710,1709022141.4977098,-23.4375,6.8359375,-36.62109375,-18.5546875,0.0,-1.0,1.0,0.0,2.m4v,1.0
2024-02-27 09:22:21.501615,1709022141.5016153,12.20703125,-52.734375,-21.97265625,5.37109375,0.0,-1.0,1.0,0.0,2.m4v,1.0
2024-02-27 09:22:21.505521,1709022141.505521,21.484375,-32.71484375,-24.90234375,4.8828125,0.0,-1.0,1.0,0.0,2.m4v,1.0
2024-02-27 09:22:21.509427,1709022141.5094266,55.6640625,5.859375,6.34765625,48.33984375,0.0,-1.0,1.0,0.0,2.m4v,1.0
2024-02-27 09:22:21.513332,1709022141.5133324,49.31640625,-20.5078125,25.87890625,35.15625,0.0,-1.0,1.0,0.0,2.m4v,1.0
2024-02-27 09:22:21.517238,1709022141.517238,-41.015625,-2.9296875,-13.18359375,-57.6171875,0.0,-1.0,1.0,0.0,2.m4v,1.0
2024-02-27 09:22:21.521144,1709022141.5211437,-37.109375,3.41796875,-31.25,-39.55078125,0.0,-1.0,1.0,0.0,2.m4v,1.0
2024-02-27 09:22:21.525049,1709022141.5250494,-8.7890625,3.41796875,-41.015625,-36.62109375,0.0,-1.0,1.0,0.0,2.m4v,1.0
2024-02-27 09:22:21.528954,1709022141.5289545,-3.90625,5.859375,-34.66796875,-27.34375,0.0,-1.0,1.0,0.0,2.m4v,1.0
2024-02-27 09:22:21.532860,1709022141.5328598,58.10546875,-49.31640625,-20.5078125,46.875,0.0,-1.0,1.0,0.0,2.m4v,1.0
2024-02-27 09:22:21.536766,1709022141.5367656,38.57421875,-52.734375,-28.80859375,6.8359375,0.0,-1.0,1.0,0.0,2.m4v,1.0
2024-02-27 09:22:21.540671,1709022141.540671,6.8359375,-23.92578125,-10.25390625,-26.85546875,0.0,-1.0,1.0,0.0,2.m4v,1.0
2024-02-27 09:22:21.544577,1709022141.544577,20.5078125,-6.8359375,-12.20703125,-11.23046875,0.0,-1.0,1.0,0.0,2.m4v,1.0
2024-02-27 09:22:21.548483,1709022141.548483,44.43359375,-26.85546875,-15.625,-21.97265625,0.0,-1.0,1.0,0.0,2.m4v,1.0
2024-02-27 09:22:21.552388,1709022141.5523882,57.12890625,-38.57421875,-13.671875,-20.01953125,0.0,-1.0,1.0,0.0,2.m4v,1.0
2024-02-27 09:22:21.556294,1709022141.556294,15.625,22.94921875,-30.76171875,-24.90234375,0.0,-1.0,1.0,0.0,2.m4v,1.0
2024-02-27 09:22:21.560200,1709022141.5601995,-10.7421875,72.75390625,-30.2734375,-16.11328125,0.0,-1.0,1.0,0.0,2.m4v,1.0
2024-02-27 09:22:21.564105,1709022141.5641053,8.7890625,21.97265625,-10.25390625,9.765625,0.0,-1.0,1.0,0.0,2.m4v,1.0
2024-02-27 09:22:21.568011,1709022141.568011,0.9765625,-19.04296875,1.953125,-35.15625,0.0,-1.0,1.0,0.0,2.m4v,1.0
2024-02-27 09:22:21.571917,1709022141.5719166,-14.16015625,-20.01953125,-8.30078125,-56.640625,0.0,-1.0,1.0,0.0,2.m4v,1.0
2024-02-27 09:22:21.575821,1709022141.5758214,-44.921875,4.8828125,-27.83203125,-63.4765625,0.0,-1.0,1.0,0.0,2.m4v,1.0
2024-02-27 09:22:21.579727,1709022141.579727,-51.7578125,2.44140625,-23.4375,-61.03515625,0.0,-1.0,1.0,0.0,2.m4v,1.0
2024-02-27 09:22:21.583633,1709022141.5836327,-92.7734375,40.52734375,-32.2265625,-84.9609375,0.0,-1.0,1.0,0.0,2.m4v,1.0
2024-02-27 09:22:21.587538,1709022141.5875385,-64.453125,45.8984375,-26.3671875,-67.3828125,0.0,-1.0,1.0,0.0,2.m4v,1.0
2024-02-27 09:22:21.591444,1709022141.591444,-4.39453125,-2.9296875,-1.46484375,-44.43359375,0.0,-1.0,1.0,0.0,2.m4v,1.0
2024-02-27 09:22:21.595350,1709022141.5953498,-74.70703125,-18.06640625,-23.4375,-95.21484375,0.0,-1.0,1.0,0.0,2.m4v,1.0
2024-02-27 09:22:21.599255,1709022141.599255,-110.3515625,-23.92578125,-31.73828125,-106.4453125,0.0,-1.0,1.0,0.0,2.m4v,1.0
2024-02-27 09:22:21.603161,1709022141.603161,-119.62890625,20.5078125,-28.80859375,-111.328125,0.0,-1.0,1.0,0.0,2.m4v,1.0
2024-02-27 09:22:21.607067,1709022141.6070669,-120.1171875,4.39453125,-25.390625,-147.94921875,0.0,-1.0,1.0,0.0,2.m4v,1.0
2024-02-27 09:22:21.610972,1709022141.6109724,-137.20703125,-9.765625,-23.4375,-187.01171875,0.0,-1.0,1.0,0.0,2.m4v,1.0
2024-02-27 09:22:21.614878,1709022141.6148782,-200.68359375,22.4609375,-20.01953125,-217.7734375,0.0,-1.0,1.0,0.0,2.m4v,1.0
2024-02-27 09:22:21.618784,1709022141.6187837,-224.609375,49.8046875,-6.8359375,-236.81640625,0.0,-1.0,1.0,0.0,2.m4v,1.0
2024-02-27 09:22:21.622691,1709022141.6226912,-202.1484375,9.27734375,-2.44140625,-195.3125,0.0,-1.0,1.0,0.0,2.m4v,1.0
2024-02-27 09:22:21.626597,1709022141.626597,-159.66796875,-38.0859375,-27.34375,-161.1328125,0.0,-1.0,1.0,0.0,2.m4v,1.0
2024-02-27 09:22:21.630502,1709022141.6305025,-128.41796875,38.57421875,-3.90625,-171.38671875,0.0,-1.0,1.0,0.0,2.m4v,1.0
2024-02-27 09:22:21.634408,1709022141.6344082,-104.4921875,53.7109375,41.50390625,-175.78125,0.0,-1.0,1.0,0.0,2.m4v,1.0
2024-02-27 09:22:21.638314,1709022141.6383138,-119.62890625,-0.48828125,32.71484375,-173.33984375,0.0,-1.0,1.0,0.0,2.m4v,1.0
2024-02-27 09:22:21.642220,1709022141.6422195,-158.69140625,12.6953125,-3.41796875,-160.15625,0.0,-1.0,1.0,0.0,2.m4v,1.0
2024-02-27 09:22:21.646125,1709022141.6461253,-149.90234375,11.23046875,-24.90234375,-160.64453125,0.0,-1.0,1.0,0.0,2.m4v,1.0
2024-02-27 09:22:21.650031,1709022141.6500309,-154.78515625,35.64453125,-35.64453125,-179.6875,0.0,-1.0,1.0,0.0,2.m4v,1.0
2024-02-27 09:22:21.653937,1709022141.6539366,-118.65234375,23.92578125,-20.5078125,-143.5546875,0.0,-1.0,1.0,0.0,2.m4v,1.0
2024-02-27 09:22:21.657842,1709022141.6578422,-122.55859375,-8.30078125,-12.6953125,-130.37109375,0.0,-1.0,1.0,0.0,2.m4v,1.0
2024-02-27 09:22:21.661748,1709022141.661748,-134.27734375,5.37109375,-9.27734375,-128.90625,0.0,-1.0,1.0,0.0,2.m4v,1.0
2024-02-27 09:22:21.665654,1709022141.6656537,-69.82421875,-9.27734375,-6.34765625,-98.14453125,0.0,-1.0,1.0,0.0,2.m4v,1.0
2024-02-27 09:22:21.669561,1709022141.669561,-63.96484375,-11.71875,-32.71484375,-116.69921875,0.0,-1.0,1.0,0.0,2.m4v,1.0
2024-02-27 09:22:21.673466,1709022141.6734662,-84.47265625,17.578125,-41.015625,-113.76953125,0.0,-1.0,1.0,0.0,2.m4v,1.0
2024-02-27 09:22:21.677372,1709022141.677372,-80.078125,47.8515625,-25.390625,-85.9375,0.0,-1.0,1.0,0.0,2.m4v,1.0
2024-02-27 09:22:21.681278,1709022141.6812775,-79.1015625,-12.6953125,-46.38671875,-93.26171875,0.0,-1.0,1.0,0.0,2.m4v,1.0
2024-02-27 09:22:21.685183,1709022141.6851833,-76.171875,-59.08203125,-51.26953125,-87.40234375,0.0,-1.0,1.0,0.0,2.m4v,1.0
2024-02-27 09:22:21.689089,1709022141.689089,-15.625,-50.78125,-26.3671875,-55.17578125,0.0,-1.0,1.0,0.0,2.m4v,1.0
2024-02-27 09:22:21.692995,1709022141.6929946,3.90625,-46.38671875,-39.55078125,-46.875,0.0,-1.0,1.0,0.0,2.m4v,1.0
2024-02-27 09:22:21.696900,1709022141.6969004,-52.24609375,-21.484375,-52.734375,-78.125,0.0,-1.0,1.0,0.0,2.m4v,1.0
2024-02-27 09:22:21.700806,1709022141.700806,-65.91796875,-17.578125,-22.94921875,-85.44921875,0.0,-1.0,1.0,0.0,2.m4v,1.0
2024-02-27 09:22:21.704712,1709022141.7047117,-35.64453125,-44.921875,-11.23046875,-56.640625,0.0,-1.0,1.0,0.0,2.m4v,1.0
2024-02-27 09:22:21.708617,1709022141.7086174,15.13671875,-30.2734375,-21.97265625,-12.6953125,0.0,-1.0,1.0,0.0,2.m4v,1.0
2024-02-27 09:22:21.712523,1709022141.712523,52.24609375,-2.9296875,-19.53125,42.96875,0.0,-1.0,1.0,0.0,2.m4v,1.0
2024-02-27 09:22:21.716430,1709022141.7164297,44.921875,4.8828125,-29.296875,20.99609375,0.0,-1.0,1.0,0.0,2.m4v,1.0
2024-02-27 09:22:21.720335,1709022141.7203352,-14.16015625,-3.41796875,-52.734375,-32.2265625,0.0,-1.0,1.0,0.0,2.m4v,1.0
2024-02-27 09:22:21.724241,1709022141.724241,-29.296875,-48.33984375,-48.828125,-13.671875,0.0,-1.0,1.0,0.0,2.m4v,1.0
2024-02-27 09:22:21.728147,1709022141.7281468,36.1328125,-65.4296875,-15.625,16.6015625,0.0,-1.0,1.0,0.0,2.m4v,1.0
2024-02-27 09:22:21.732052,1709022141.7320523,41.9921875,-48.33984375,-5.37109375,12.6953125,0.0,-1.0,1.0,0.0,2.m4v,1.0
2024-02-27 09:22:21.735958,1709022141.735958,37.59765625,-58.10546875,-5.859375,21.484375,0.0,-1.0,1.0,0.0,2.m4v,1.0
2024-02-27 09:22:21.739864,1709022141.7398636,51.7578125,-46.38671875,5.859375,31.73828125,0.0,-1.0,1.0,0.0,2.m4v,1.0
2024-02-27 09:22:21.743769,1709022141.7437694,47.8515625,-38.57421875,-14.6484375,25.390625,0.0,-1.0,1.0,0.0,2.m4v,1.0
2024-02-27 09:22:21.747675,1709022141.747675,38.0859375,-29.296875,-40.52734375,20.01953125,0.0,-1.0,1.0,0.0,2.m4v,1.0
2024-02-27 09:22:21.751581,1709022141.7515807,54.19921875,-29.296875,-33.69140625,38.0859375,0.0,-1.0,1.0,0.0,2.m4v,1.0
2024-02-27 09:22:21.755486,1709022141.7554865,49.8046875,-22.94921875,-23.4375,17.578125,0.0,-1.0,1.0,0.0,2.m4v,1.0
2024-02-27 09:22:21.759392,1709022141.759392,51.7578125,-30.2734375,-3.90625,4.39453125,0.0,-1.0,1.0,0.0,2.m4v,1.0
2024-02-27 09:22:21.763298,1709022141.7632985,69.3359375,-28.3203125,1.46484375,38.0859375,0.0,-1.0,1.0,0.0,2.m4v,1.0
2024-02-27 09:22:21.767204,1709022141.767204,84.47265625,-20.5078125,-24.90234375,59.5703125,0.0,-1.0,1.0,0.0,2.m4v,1.0
2024-02-27 09:22:21.771110,1709022141.7711096,139.6484375,-49.31640625,-24.4140625,88.8671875,0.0,-1.0,1.0,0.0,2.m4v,1.0
2024-02-27 09:22:21.775015,1709022141.7750154,103.02734375,-32.2265625,-36.1328125,61.03515625,0.0,-1.0,1.0,0.0,2.m4v,1.0
2024-02-27 09:22:21.778921,1709022141.7789211,53.7109375,-44.43359375,-45.41015625,30.2734375,0.0,-1.0,1.0,0.0,2.m4v,1.0
2024-02-27 09:22:21.782827,1709022141.782827,54.6875,-64.94140625,-15.625,27.34375,0.0,-1.0,1.0,0.0,2.m4v,1.0
2024-02-27 09:22:21.786732,1709022141.7867324,67.87109375,-46.875,-0.48828125,35.15625,0.0,-1.0,1.0,0.0,2.m4v,1.0
2024-02-27 09:22:22.189021,1709022142.189021,-79.58984375,-14.6484375,-12.6953125,-40.52734375,0.0,-1.0,1.0,0.0,2.m4v,1.0
2024-02-27 09:22:22.192927,1709022142.1929266,-40.52734375,-2.44140625,6.34765625,-14.16015625,0.0,-1.0,1.0,0.0,2.m4v,1.0
2024-02-27 09:22:22.196832,1709022142.1968324,-12.20703125,8.30078125,-9.27734375,-0.48828125,0.0,-1.0,1.0,0.0,2.m4v,1.0
2024-02-27 09:22:22.200738,1709022142.2007382,-83.49609375,-54.19921875,-13.18359375,-53.7109375,0.0,-1.0,1.0,0.0,2.m4v,1.0
2024-02-27 09:22:22.204644,1709022142.2046435,-112.79296875,-85.44921875,-18.5546875,-86.9140625,0.0,-1.0,1.0,0.0,2.m4v,1.0
2024-02-27 09:22:22.208549,1709022142.2085495,-72.75390625,-41.015625,-21.484375,-55.17578125,0.0,-1.0,1.0,0.0,2.m4v,1.0
2024-02-27 09:22:22.212455,1709022142.212455,-62.01171875,-23.92578125,-52.734375,-44.43359375,0.0,-1.0,1.0,0.0,2.m4v,1.0
2024-02-27 09:22:22.216361,1709022142.2163608,-53.7109375,-11.71875,-50.78125,-33.203125,0.0,-1.0,1.0,0.0,2.m4v,1.0
2024-02-27 09:22:22.220266,1709022142.2202663,-49.31640625,5.37109375,1.953125,-25.87890625,0.0,-1.0,1.0,0.0,2.m4v,1.0
2024-02-27 09:22:22.224172,1709022142.224172,-50.78125,-2.44140625,7.8125,-40.0390625,0.0,-1.0,1.0,0.0,2.m4v,1.0
2024-02-27 09:22:22.228078,1709022142.228078,-58.10546875,-24.90234375,-20.99609375,-62.01171875,0.0,-1.0,1.0,0.0,2.m4v,1.0
2024-02-27 09:22:22.231983,1709022142.2319832,-62.98828125,-34.1796875,-12.6953125,-59.08203125,0.0,-1.0,1.0,0.0,2.m4v,1.0
2024-02-27 09:22:22.235889,1709022142.235889,-31.25,0.48828125,-7.8125,-31.73828125,0.0,-1.0,1.0,0.0,2.m4v,1.0
2024-02-27 09:22:22.239795,1709022142.2397947,-19.53125,9.27734375,-13.18359375,-13.18359375,0.0,-1.0,1.0,0.0,2.m4v,1.0
2024-02-27 09:22:22.243700,1709022142.2437005,-19.04296875,-30.76171875,-18.5546875,2.44140625,0.0,-1.0,1.0,0.0,2.m4v,1.0
2024-02-27 09:22:22.247606,1709022142.247606,3.90625,-52.734375,-31.73828125,-4.8828125,0.0,-1.0,1.0,0.0,2.m4v,1.0
2024-02-27 09:22:22.251512,1709022142.2515116,9.27734375,-54.6875,-32.71484375,-23.4375,0.0,-1.0,1.0,0.0,2.m4v,1.0
2024-02-27 09:22:22.255417,1709022142.255417,-27.34375,-47.8515625,-43.45703125,-42.96875,0.0,-1.0,1.0,0.0,2.m4v,1.0
2024-02-27 09:22:22.259323,1709022142.2593231,-45.41015625,9.27734375,-34.1796875,-43.45703125,0.0,-1.0,1.0,0.0,2.m4v,1.0
2024-02-27 09:22:22.263229,1709022142.263229,-38.0859375,20.01953125,1.46484375,-16.6015625,0.0,-1.0,1.0,0.0,2.m4v,1.0
2024-02-27 09:22:22.267134,1709022142.2671344,-9.27734375,-6.8359375,2.44140625,-10.7421875,0.0,-1.0,1.0,0.0,2.m4v,1.0
2024-02-27 09:22:22.271040,1709022142.27104,-3.90625,-14.6484375,-17.578125,-48.33984375,0.0,-1.0,1.0,0.0,2.m4v,1.0
2024-02-27 09:22:22.274946,1709022142.2749455,-21.97265625,-32.2265625,-36.62109375,-59.5703125,0.0,-1.0,1.0,0.0,2.m4v,1.0
2024-02-27 09:22:22.278851,1709022142.2788508,-26.85546875,-15.625,-37.109375,-41.9921875,0.0,-1.0,1.0,0.0,2.m4v,1.0
2024-02-27 09:22:22.282757,1709022142.2827566,-34.66796875,-18.06640625,-32.71484375,-41.9921875,0.0,-1.0,1.0,0.0,2.m4v,1.0
2024-02-27 09:22:22.286662,1709022142.286662,-9.27734375,-43.9453125,-26.3671875,-27.83203125,0.0,-1.0,1.0,0.0,2.m4v,1.0
2024-02-27 09:22:22.290568,1709022142.290568,-3.41796875,-49.31640625,-50.78125,-30.2734375,0.0,-1.0,1.0,0.0,2.m4v,1.0
2024-02-27 09:22:22.294474,1709022142.2944736,3.90625,-20.99609375,-37.59765625,-20.01953125,0.0,-1.0,1.0,0.0,2.m4v,1.0
2024-02-27 09:22:22.298379,1709022142.2983792,9.765625,-11.71875,7.8125,-3.41796875,0.0,-1.0,1.0,0.0,2.m4v,1.0
2024-02-27 09:22:22.302285,1709022142.302285,-31.25,-33.203125,-18.06640625,-26.3671875,0.0,-1.0,1.0,0.0,2.m4v,1.0
2024-02-27 09:22:22.306190,1709022142.3061905,-32.2265625,-31.25,-21.484375,-32.2265625,0.0,-1.0,1.0,0.0,2.m4v,1.0
2024-02-27 09:22:22.310096,1709022142.3100965,-21.484375,-29.296875,-6.34765625,-35.64453125,0.0,-1.0,1.0,0.0,2.m4v,1.0
2024-02-27 09:22:22.314002,1709022142.314002,-34.1796875,-19.04296875,-6.8359375,-40.0390625,0.0,-1.0,1.0,0.0,2.m4v,1.0
2024-02-27 09:22:22.317908,1709022142.3179076,-46.38671875,-25.390625,-16.6015625,-38.57421875,0.0,-1.0,1.0,0.0,2.m4v,1.0
2024-02-27 09:22:22.321813,1709022142.321813,-79.58984375,-29.78515625,-52.24609375,-47.8515625,0.0,-1.0,1.0,0.0,2.m4v,1.0
2024-02-27 09:22:22.325718,1709022142.3257184,-58.59375,-29.296875,-63.4765625,-36.1328125,0.0,-1.0,1.0,0.0,2.m4v,1.0
2024-02-27 09:22:22.329624,1709022142.329624,-17.578125,-33.69140625,-39.0625,-26.3671875,0.0,-1.0,1.0,0.0,2.m4v,1.0
2024-02-27 09:22:22.333530,1709022142.3335297,-17.578125,-31.73828125,-22.4609375,-39.0625,0.0,-1.0,1.0,0.0,2.m4v,1.0
2024-02-27 09:22:22.337435,1709022142.3374355,-33.203125,-20.01953125,-21.97265625,-41.9921875,0.0,-1.0,1.0,0.0,2.m4v,1.0
2024-02-27 09:22:22.341341,1709022142.341341,-32.71484375,6.8359375,-14.16015625,-26.3671875,0.0,-1.0,1.0,0.0,2.m4v,1.0
2024-02-27 09:22:22.345247,1709022142.3452468,-1.953125,12.20703125,-4.39453125,-5.37109375,0.0,-1.0,1.0,0.0,2.m4v,1.0
2024-02-27 09:22:22.774876,1709022142.774876,-66.40625,-21.97265625,2.9296875,-35.15625,0.0,-1.0,1.0,0.0,2.m4v,1.0
2024-02-27 09:22:22.778781,1709022142.7787814,-102.5390625,-31.73828125,-3.41796875,-49.8046875,0.0,-1.0,1.0,0.0,2.m4v,1.0
2024-02-27 09:22:22.782687,1709022142.7826872,-62.5,-24.90234375,-7.32421875,-49.8046875,0.0,-1.0,1.0,0.0,2.m4v,1.0
2024-02-27 09:22:22.786593,1709022142.7865927,-7.32421875,13.671875,8.30078125,-7.32421875,0.0,-1.0,1.0,0.0,2.m4v,1.0
2024-02-27 09:22:22.790498,1709022142.7904985,11.23046875,6.34765625,-1.46484375,2.44140625,0.0,-1.0,1.0,0.0,2.m4v,1.0
2024-02-27 09:22:22.794405,1709022142.7944057,-9.765625,-44.921875,-31.25,-20.99609375,0.0,-1.0,1.0,0.0,2.m4v,1.0
2024-02-27 09:22:22.794405,1709022142.7944057,-9.765625,-44.921875,-31.25,-20.99609375,0.0,-1.0,1.0,0.0,2.m4v,1.0
2024-02-27 09:22:22.798311,1709022142.7983112,-16.11328125,-72.75390625,-43.45703125,-15.625,0.0,-1.0,1.0,0.0,2.m4v,1.0
2024-02-27 09:22:22.798311,1709022142.7983112,-16.11328125,-72.75390625,-43.45703125,-15.625,0.0,-1.0,1.0,0.0,2.m4v,1.0
2024-02-27 09:22:22.802217,1709022142.8022168,-47.36328125,-74.21875,-49.8046875,-19.04296875,0.0,-1.0,1.0,0.0,2.m4v,1.0
2024-02-27 09:22:22.802217,1709022142.8022168,-47.36328125,-74.21875,-49.8046875,-19.04296875,0.0,-1.0,1.0,0.0,2.m4v,1.0
2024-02-27 09:22:22.806123,1709022142.8061223,-51.7578125,-48.33984375,-36.62109375,-31.25,0.0,-1.0,1.0,0.0,2.m4v,1.0
2024-02-27 09:22:22.806123,1709022142.8061223,-51.7578125,-48.33984375,-36.62109375,-31.25,0.0,-1.0,1.0,0.0,2.m4v,1.0
2024-02-27 09:22:22.810028,1709022142.810028,-24.90234375,-32.2265625,-30.76171875,-69.82421875,0.0,-1.0,1.0,0.0,2.m4v,1.0
2024-02-27 09:22:22.810028,1709022142.810028,-24.90234375,-32.2265625,-30.76171875,-69.82421875,0.0,-1.0,1.0,0.0,2.m4v,1.0
2024-02-27 09:22:22.813934,1709022142.8139338,-21.97265625,-26.3671875,-38.0859375,-60.546875,0.0,-1.0,1.0,0.0,2.m4v,1.0
2024-02-27 09:22:22.813934,1709022142.8139338,-21.97265625,-26.3671875,-38.0859375,-60.546875,0.0,-1.0,1.0,0.0,2.m4v,1.0
2024-02-27 09:22:22.817839,1709022142.8178394,21.484375,-19.53125,-0.48828125,8.30078125,0.0,-1.0,1.0,0.0,2.m4v,1.0
2024-02-27 09:22:22.817839,1709022142.8178394,21.484375,-19.53125,-0.48828125,8.30078125,0.0,-1.0,1.0,0.0,2.m4v,1.0
2024-02-27 09:22:22.821745,1709022142.8217452,6.34765625,-14.6484375,21.97265625,-0.48828125,0.0,-1.0,1.0,0.0,2.m4v,1.0
2024-02-27 09:22:22.821745,1709022142.8217452,6.34765625,-14.6484375,21.97265625,-0.48828125,0.0,-1.0,1.0,0.0,2.m4v,1.0
2024-02-27 09:22:22.825651,1709022142.825651,-49.31640625,-4.39453125,-2.44140625,-32.2265625,0.0,-1.0,1.0,0.0,2.m4v,1.0
2024-02-27 09:22:22.825651,1709022142.825651,-49.31640625,-4.39453125,-2.44140625,-32.2265625,0.0,-1.0,1.0,0.0,2.m4v,1.0
2024-02-27 09:22:22.829556,1709022142.8295565,-40.52734375,8.7890625,-10.25390625,-31.25,0.0,-1.0,1.0,0.0,2.m4v,1.0
2024-02-27 09:22:22.829556,1709022142.8295565,-40.52734375,8.7890625,-10.25390625,-31.25,0.0,-1.0,1.0,0.0,2.m4v,1.0
2024-02-27 09:22:22.833462,1709022142.8334622,-42.48046875,-13.671875,-23.92578125,-47.8515625,0.0,-1.0,1.0,0.0,2.m4v,1.0
2024-02-27 09:22:22.833462,1709022142.8334622,-42.48046875,-13.671875,-23.92578125,-47.8515625,0.0,-1.0,1.0,0.0,2.m4v,1.0
2024-02-27 09:22:22.837368,1709022142.8373678,-43.9453125,-30.2734375,-27.83203125,-15.625,0.0,-1.0,1.0,0.0,2.m4v,1.0
2024-02-27 09:22:22.837368,1709022142.8373678,-43.9453125,-30.2734375,-27.83203125,-15.625,0.0,-1.0,1.0,0.0,2.m4v,1.0
2024-02-27 09:22:22.841277,1709022142.8412771,-38.57421875,-42.48046875,-35.64453125,-12.20703125,0.0,-1.0,1.0,0.0,2.m4v,1.0
2024-02-27 09:22:22.841277,1709022142.8412771,-38.57421875,-42.48046875,-35.64453125,-12.20703125,0.0,-1.0,1.0,0.0,2.m4v,1.0
2024-02-27 09:22:22.845183,1709022142.845183,-53.22265625,-41.015625,-40.52734375,-45.8984375,0.0,-1.0,1.0,0.0,2.m4v,1.0
2024-02-27 09:22:22.845183,1709022142.845183,-53.22265625,-41.015625,-40.52734375,-45.8984375,0.0,-1.0,1.0,0.0,2.m4v,1.0
2024-02-27 09:22:22.849088,1709022142.8490884,-25.87890625,-19.04296875,-26.85546875,-25.87890625,0.0,-1.0,1.0,0.0,2.m4v,1.0
2024-02-27 09:22:22.849088,1709022142.8490884,-25.87890625,-19.04296875,-26.85546875,-25.87890625,0.0,-1.0,1.0,0.0,2.m4v,1.0
2024-02-27 09:22:22.852994,1709022142.8529942,-19.53125,-18.5546875,-42.48046875,-19.04296875,0.0,-1.0,1.0,0.0,2.m4v,1.0
2024-02-27 09:22:22.852994,1709022142.8529942,-19.53125,-18.5546875,-42.48046875,-19.04296875,0.0,-1.0,1.0,0.0,2.m4v,1.0
2024-02-27 09:22:22.856900,1709022142.8568995,-24.90234375,-6.34765625,-29.78515625,-10.7421875,0.0,-1.0,1.0,0.0,2.m4v,1.0
2024-02-27 09:22:22.856900,1709022142.8568995,-24.90234375,-6.34765625,-29.78515625,-10.7421875,0.0,-1.0,1.0,0.0,2.m4v,1.0
2024-02-27 09:22:22.860806,1709022142.8608055,-10.25390625,0.9765625,5.859375,0.48828125,0.0,-1.0,1.0,0.0,2.m4v,1.0
2024-02-27 09:22:22.860806,1709022142.8608055,-10.25390625,0.9765625,5.859375,0.48828125,0.0,-1.0,1.0,0.0,2.m4v,1.0
2024-02-27 09:22:22.864711,1709022142.864711,-26.3671875,-6.34765625,-9.27734375,-17.578125,0.0,-1.0,1.0,0.0,2.m4v,1.0
2024-02-27 09:22:22.864711,1709022142.864711,-26.3671875,-6.34765625,-9.27734375,-17.578125,0.0,-1.0,1.0,0.0,2.m4v,1.0
2024-02-27 09:22:22.868617,1709022142.8686168,-32.2265625,-16.11328125,-8.30078125,-12.6953125,0.0,-1.0,1.0,0.0,2.m4v,1.0
2024-02-27 09:22:22.872523,1709022142.8725226,-45.41015625,-29.296875,11.23046875,-25.87890625,0.0,-1.0,1.0,0.0,2.m4v,1.0
2024-02-27 09:22:22.876428,1709022142.876428,-64.453125,-27.34375,-1.46484375,-44.43359375,0.0,-1.0,1.0,0.0,2.m4v,1.0
2024-02-27 09:22:22.880334,1709022142.880334,-64.94140625,-6.8359375,-20.5078125,-17.08984375,0.0,-1.0,1.0,0.0,2.m4v,1.0
2024-02-27 09:22:22.884239,1709022142.8842394,-73.2421875,-27.34375,-27.34375,-24.90234375,0.0,-1.0,1.0,0.0,2.m4v,1.0
2024-02-27 09:22:22.888146,1709022142.888146,-57.6171875,-60.546875,-33.203125,-42.48046875,0.0,-1.0,1.0,0.0,2.m4v,1.0
2024-02-27 09:22:22.892052,1709022142.8920517,-41.50390625,-27.83203125,-33.69140625,-15.625,0.0,-1.0,1.0,0.0,2.m4v,1.0
2024-02-27 09:22:22.899863,1709022142.899863,-24.4140625,2.44140625,9.27734375,-8.7890625,0.0,-1.0,1.0,0.0,2.m4v,1.0
2024-02-27 09:22:22.911580,1709022142.91158,-44.921875,-21.97265625,-14.16015625,-43.45703125,0.0,-1.0,1.0,0.0,2.m4v,1.0
2024-02-27 09:22:22.919391,1709022142.9193914,-60.05859375,-53.7109375,-33.69140625,-39.0625,0.0,-1.0,1.0,0.0,2.m4v,1.0
2024-02-27 09:22:22.931108,1709022142.9311085,-70.80078125,-13.671875,-33.203125,-72.75390625,0.0,-1.0,1.0,0.0,2.m4v,1.0
2024-02-27 09:22:22.942826,1709022142.9428258,-34.1796875,-11.23046875,-3.41796875,-18.06640625,0.0,-1.0,1.0,0.0,2.m4v,1.0
2024-02-27 09:22:22.950637,1709022142.950637,-33.203125,-29.78515625,-7.32421875,-40.52734375,0.0,-1.0,1.0,0.0,2.m4v,1.0
2024-02-27 09:22:22.962354,1709022142.9623542,-80.078125,-12.20703125,-42.48046875,-38.0859375,0.0,-1.0,1.0,0.0,2.m4v,1.0
2024-02-27 09:22:22.970165,1709022142.9701655,-62.01171875,-18.5546875,-41.50390625,-35.64453125,0.0,-1.0,1.0,0.0,2.m4v,1.0
2024-02-27 09:22:22.981882,1709022142.9818823,-58.10546875,-4.8828125,-7.8125,-17.08984375,0.0,-1.0,1.0,0.0,2.m4v,1.0
2024-02-27 09:22:22.993599,1709022142.9935994,-53.7109375,-16.6015625,-14.16015625,-53.7109375,0.0,-1.0,1.0,0.0,2.m4v,1.0
2024-02-27 09:22:23.001411,1709022143.0014107,-53.7109375,-38.57421875,-26.85546875,-22.94921875,0.0,-1.0,1.0,0.0,2.m4v,1.0
2024-02-27 09:22:23.013128,1709022143.0131278,-54.19921875,-1.46484375,-33.203125,-36.62109375,0.0,-1.0,1.0,0.0,2.m4v,1.0
2024-02-27 09:22:23.020939,1709022143.020939,-59.08203125,-16.11328125,-12.6953125,-29.296875,0.0,-1.0,1.0,0.0,2.m4v,1.0
2024-02-27 09:22:23.032656,1709022143.0326557,-39.55078125,-21.484375,-21.97265625,-29.78515625,0.0,-1.0,1.0,0.0,2.m4v,1.0
2024-02-27 09:22:23.044373,1709022143.0443728,-53.7109375,-15.625,-31.73828125,-6.8359375,0.0,-1.0,1.0,0.0,2.m4v,1.0
2024-02-27 09:22:23.052184,1709022143.052184,-57.12890625,-22.94921875,-23.92578125,-43.45703125,0.0,-1.0,1.0,0.0,2.m4v,1.0
2024-02-27 09:22:23.063901,1709022143.0639012,-72.265625,-20.01953125,-13.671875,-41.50390625,0.0,-1.0,1.0,0.0,2.m4v,1.0
2024-02-27 09:22:23.071712,1709022143.0717125,-59.08203125,-13.18359375,-51.7578125,-23.4375,0.0,-1.0,1.0,0.0,2.m4v,1.0
2024-02-27 09:22:23.083429,1709022143.0834286,-73.2421875,-15.13671875,-14.6484375,-23.92578125,0.0,-1.0,1.0,0.0,2.m4v,1.0
2024-02-27 09:22:23.095145,1709022143.0951457,9.765625,5.859375,4.39453125,24.90234375,0.0,-1.0,1.0,0.0,2.m4v,1.0
2024-02-27 09:22:23.102957,1709022143.102957,-126.953125,-48.33984375,-38.0859375,-65.91796875,0.0,-1.0,1.0,0.0,2.m4v,1.0
2024-02-27 09:22:23.114674,1709022143.114674,-52.734375,-41.50390625,-38.0859375,-44.921875,0.0,-1.0,1.0,0.0,2.m4v,1.0
2024-02-27 09:22:23.122487,1709022143.122487,-77.63671875,-34.66796875,-10.25390625,-27.83203125,0.0,-1.0,1.0,0.0,2.m4v,1.0
2024-02-27 09:22:23.134204,1709022143.134204,3.90625,-8.30078125,5.37109375,-7.8125,0.0,-1.0,1.0,0.0,2.m4v,1.0
2024-02-27 09:22:23.142015,1709022143.1420157,-23.92578125,-20.5078125,-15.13671875,-12.6953125,0.0,-1.0,1.0,0.0,2.m4v,1.0
2024-02-27 09:22:23.149827,1709022143.1498268,-71.77734375,-34.1796875,-51.26953125,-23.4375,0.0,-1.0,1.0,0.0,2.m4v,1.0
2024-02-27 09:22:23.157638,1709022143.157638,-32.2265625,-34.1796875,-39.55078125,-55.6640625,0.0,-1.0,1.0,0.0,2.m4v,1.0
2024-02-27 09:22:23.165450,1709022143.1654496,-34.66796875,-10.7421875,-11.71875,-39.55078125,0.0,-1.0,1.0,0.0,2.m4v,1.0
2024-02-27 09:22:23.173262,1709022143.173262,12.6953125,24.90234375,-17.578125,-5.37109375,0.0,-1.0,1.0,0.0,2.m4v,1.0
2024-02-27 09:22:23.181074,1709022143.1810737,-42.96875,-8.30078125,-8.30078125,-46.875,0.0,-1.0,1.0,0.0,2.m4v,1.0
2024-02-27 09:22:23.188885,1709022143.188885,10.25390625,-43.45703125,-22.94921875,-14.16015625,0.0,-1.0,1.0,0.0,2.m4v,1.0
2024-02-27 09:22:23.196696,1709022143.1966963,-2.9296875,-36.62109375,-22.94921875,-51.7578125,0.0,-1.0,1.0,0.0,2.m4v,1.0
2024-02-27 09:22:23.204508,1709022143.2045076,-0.9765625,-31.25,-32.2265625,-24.4140625,0.0,-1.0,1.0,0.0,2.m4v,1.0
2024-02-27 09:22:23.212319,1709022143.212319,45.41015625,0.48828125,-19.04296875,-17.08984375,0.0,-1.0,1.0,0.0,2.m4v,1.0
2024-02-27 09:22:23.220131,1709022143.2201314,27.34375,-10.25390625,-22.4609375,-11.71875,0.0,-1.0,1.0,0.0,2.m4v,1.0
2024-02-27 09:22:23.227943,1709022143.2279427,3.90625,-30.2734375,-36.1328125,-18.06640625,0.0,-1.0,1.0,0.0,2.m4v,1.0
2024-02-27 09:22:23.235754,1709022143.235754,24.4140625,-5.859375,-17.578125,-21.484375,0.0,-1.0,1.0,0.0,2.m4v,1.0
2024-02-27 09:22:23.243565,1709022143.243565,22.94921875,-16.11328125,-21.97265625,2.9296875,0.0,-1.0,1.0,0.0,2.m4v,1.0
2024-02-27 09:22:23.251377,1709022143.2513766,13.671875,-29.296875,-0.9765625,-55.17578125,0.0,-1.0,1.0,0.0,2.m4v,1.0
2024-02-27 09:22:23.259188,1709022143.2591882,10.7421875,-16.11328125,-19.04296875,-25.390625,0.0,-1.0,1.0,0.0,2.m4v,1.0
2024-02-27 09:22:23.267000,1709022143.267,35.15625,-22.94921875,-37.59765625,1.46484375,0.0,-1.0,1.0,0.0,2.m4v,1.0
2024-02-27 09:22:23.274811,1709022143.2748113,42.96875,-21.484375,-35.64453125,-1.953125,0.0,-1.0,1.0,0.0,2.m4v,1.0
2024-02-27 09:22:23.282623,1709022143.2826226,-23.4375,-44.43359375,0.9765625,-36.1328125,0.0,-1.0,1.0,0.0,2.m4v,1.0
2024-02-27 09:22:23.290434,1709022143.290434,10.25390625,-19.04296875,-8.30078125,-31.25,0.0,-1.0,1.0,0.0,2.m4v,1.0
2024-02-27 09:22:23.298245,1709022143.2982454,3.41796875,-44.921875,10.25390625,-8.30078125,0.0,-1.0,1.0,0.0,2.m4v,1.0
2024-02-27 09:22:23.306057,1709022143.3060567,-26.85546875,-45.41015625,-58.59375,-9.765625,0.0,-1.0,1.0,0.0,2.m4v,1.0
2024-02-27 09:22:23.313868,1709022143.3138683,-42.48046875,-36.62109375,-17.578125,-66.89453125,0.0,-1.0,1.0,0.0,2.m4v,1.0
2024-02-27 09:22:23.321680,1709022143.3216796,-67.87109375,-51.26953125,-17.578125,-36.1328125,0.0,-1.0,1.0,0.0,2.m4v,1.0
2024-02-27 09:22:23.329491,1709022143.329491,-1.953125,-24.4140625,-13.671875,-23.92578125,0.0,-1.0,1.0,0.0,2.m4v,1.0
2024-02-27 09:22:23.337302,1709022143.3373022,-7.32421875,-19.53125,-22.94921875,-8.7890625,0.0,-1.0,1.0,0.0,2.m4v,1.0
2024-02-27 09:22:23.345114,1709022143.3451138,-23.4375,-31.25,-15.625,-42.48046875,0.0,-1.0,1.0,0.0,2.m4v,1.0
2024-02-27 09:22:23.352925,1709022143.352925,-13.18359375,-37.109375,-5.859375,-19.04296875,0.0,-1.0,1.0,0.0,2.m4v,1.0
2024-02-27 09:22:23.360736,1709022143.360736,-36.62109375,-19.04296875,-47.8515625,-23.92578125,0.0,-1.0,1.0,0.0,2.m4v,1.0
2024-02-27 09:22:23.368548,1709022143.3685477,11.71875,-6.8359375,-12.20703125,-12.20703125,0.0,-1.0,1.0,0.0,2.m4v,1.0
2024-02-27 09:22:23.376359,1709022143.376359,-47.8515625,-28.3203125,-25.390625,-55.6640625,0.0,-1.0,1.0,0.0,2.m4v,1.0
2024-02-27 09:22:23.778650,1709022143.7786503,-29.78515625,-18.5546875,11.23046875,-59.08203125,0.0,-1.0,1.0,0.0,2.m4v,1.0
2024-02-27 09:22:23.782556,1709022143.782556,-49.31640625,-17.578125,-2.9296875,-49.8046875,0.0,-1.0,1.0,0.0,2.m4v,1.0
2024-02-27 09:22:23.786462,1709022143.7864618,-23.4375,-26.3671875,-9.765625,-14.16015625,0.0,-1.0,1.0,0.0,2.m4v,1.0
2024-02-27 09:22:23.790367,1709022143.7903674,12.20703125,-9.765625,-2.9296875,-11.23046875,0.0,-1.0,1.0,0.0,2.m4v,1.0
2024-02-27 09:22:23.794273,1709022143.7942731,11.71875,1.953125,-23.4375,-30.2734375,0.0,-1.0,1.0,0.0,2.m4v,1.0
2024-02-27 09:22:23.798179,1709022143.798179,-8.30078125,-29.78515625,-52.24609375,-41.015625,0.0,-1.0,1.0,0.0,2.m4v,1.0
2024-02-27 09:22:23.802084,1709022143.8020844,-19.53125,-39.0625,-54.19921875,-20.01953125,0.0,-1.0,1.0,0.0,2.m4v,1.0
2024-02-27 09:22:23.805990,1709022143.8059902,-33.203125,-39.0625,-42.48046875,-16.6015625,0.0,-1.0,1.0,0.0,2.m4v,1.0
2024-02-27 09:22:23.809896,1709022143.8098958,-40.0390625,-31.25,-16.11328125,-43.9453125,0.0,-1.0,1.0,0.0,2.m4v,1.0
2024-02-27 09:22:23.813802,1709022143.8138015,-20.99609375,-13.671875,0.9765625,-47.8515625,0.0,-1.0,1.0,0.0,2.m4v,1.0
2024-02-27 09:22:23.817707,1709022143.817707,-11.71875,-18.5546875,-23.4375,-38.0859375,0.0,-1.0,1.0,0.0,2.m4v,1.0
2024-02-27 09:22:23.821613,1709022143.8216128,-35.64453125,-26.3671875,-39.0625,-20.99609375,0.0,-1.0,1.0,0.0,2.m4v,1.0
2024-02-27 09:22:23.825518,1709022143.825518,-22.94921875,-13.671875,-24.90234375,7.8125,0.0,-1.0,1.0,0.0,2.m4v,1.0
2024-02-27 09:22:23.829424,1709022143.8294237,17.08984375,-17.08984375,-1.953125,8.7890625,0.0,-1.0,1.0,0.0,2.m4v,1.0
2024-02-27 09:22:23.833329,1709022143.8333294,0.9765625,-30.76171875,-10.25390625,-31.25,0.0,-1.0,1.0,0.0,2.m4v,1.0
2024-02-27 09:22:23.837235,1709022143.837235,-35.15625,-22.94921875,-38.57421875,-58.59375,0.0,-1.0,1.0,0.0,2.m4v,1.0
2024-02-27 09:22:23.841141,1709022143.8411407,-45.8984375,-21.97265625,-25.390625,-51.7578125,0.0,-1.0,1.0,0.0,2.m4v,1.0
2024-02-27 09:22:23.845046,1709022143.8450463,-26.3671875,-23.92578125,-18.5546875,-17.08984375,0.0,-1.0,1.0,0.0,2.m4v,1.0
2024-02-27 09:22:23.848952,1709022143.848952,-5.37109375,-28.3203125,-46.875,-19.04296875,0.0,-1.0,1.0,0.0,2.m4v,1.0
2024-02-27 09:22:23.852858,1709022143.8528578,-7.32421875,-52.734375,-51.26953125,-36.62109375,0.0,-1.0,1.0,0.0,2.m4v,1.0
2024-02-27 09:22:23.856763,1709022143.8567634,-6.8359375,-39.0625,-31.25,-24.4140625,0.0,-1.0,1.0,0.0,2.m4v,1.0
2024-02-27 09:22:23.860669,1709022143.8606691,-17.578125,-7.8125,-7.32421875,-25.390625,0.0,-1.0,1.0,0.0,2.m4v,1.0
2024-02-27 09:22:23.864575,1709022143.864575,-36.62109375,-51.7578125,-7.32421875,-29.78515625,0.0,-1.0,1.0,0.0,2.m4v,1.0
2024-02-27 09:22:23.868480,1709022143.8684804,-18.06640625,-52.734375,-6.34765625,-19.53125,0.0,-1.0,1.0,0.0,2.m4v,1.0
2024-02-27 09:22:23.872388,1709022143.872388,7.32421875,-12.20703125,-1.46484375,-15.625,0.0,-1.0,1.0,0.0,2.m4v,1.0
2024-02-27 09:22:23.876294,1709022143.8762937,-33.69140625,-19.04296875,-33.69140625,-41.015625,0.0,-1.0,1.0,0.0,2.m4v,1.0
2024-02-27 09:22:23.880199,1709022143.8801992,-84.47265625,-35.15625,-64.94140625,-68.84765625,0.0,-1.0,1.0,0.0,2.m4v,1.0
2024-02-27 09:22:23.884105,1709022143.884105,-62.5,-20.5078125,-49.31640625,-43.9453125,0.0,-1.0,1.0,0.0,2.m4v,1.0
2024-02-27 09:22:23.888011,1709022143.8880107,-1.46484375,-8.7890625,-22.94921875,-20.99609375,0.0,-1.0,1.0,0.0,2.m4v,1.0
2024-02-27 09:22:23.891916,1709022143.8919165,-8.7890625,-41.50390625,-44.43359375,-41.9921875,0.0,-1.0,1.0,0.0,2.m4v,1.0
2024-02-27 09:22:23.895822,1709022143.895822,-25.87890625,-40.0390625,-54.19921875,-34.1796875,0.0,-1.0,1.0,0.0,2.m4v,1.0
2024-02-27 09:22:23.899728,1709022143.8997276,-7.32421875,-17.08984375,-8.7890625,-16.6015625,0.0,-1.0,1.0,0.0,2.m4v,1.0
2024-02-27 09:22:23.903633,1709022143.9036334,5.859375,-18.06640625,16.6015625,0.0,0.0,-1.0,1.0,0.0,2.m4v,1.0
2024-02-27 09:22:23.907539,1709022143.9075391,15.13671875,-26.3671875,-5.37109375,7.8125,0.0,-1.0,1.0,0.0,2.m4v,1.0
2024-02-27 09:22:23.911445,1709022143.911445,-2.9296875,-35.64453125,-18.06640625,-7.8125,0.0,-1.0,1.0,0.0,2.m4v,1.0
2024-02-27 09:22:23.915350,1709022143.9153504,-37.59765625,-37.109375,-28.80859375,-50.29296875,0.0,-1.0,1.0,0.0,2.m4v,1.0
2024-02-27 09:22:23.919258,1709022143.9192576,-48.33984375,-37.59765625,-25.87890625,-75.1953125,0.0,-1.0,1.0,0.0,2.m4v,1.0
2024-02-27 09:22:23.923163,1709022143.9231634,-54.19921875,-20.5078125,-10.7421875,-46.38671875,0.0,-1.0,1.0,0.0,2.m4v,1.0
2024-02-27 09:22:23.927069,1709022143.927069,-59.08203125,-27.34375,-33.203125,-47.36328125,0.0,-1.0,1.0,0.0,2.m4v,1.0
2024-02-27 09:22:23.930975,1709022143.9309747,-42.96875,-25.390625,-44.43359375,-52.24609375,0.0,-1.0,1.0,0.0,2.m4v,1.0
2024-02-27 09:22:23.934880,1709022143.9348805,-24.4140625,-8.7890625,-64.453125,-40.52734375,0.0,-1.0,1.0,0.0,2.m4v,1.0
2024-02-27 09:22:23.938786,1709022143.938786,3.41796875,-8.30078125,-69.3359375,-22.94921875,0.0,-1.0,1.0,0.0,2.m4v,1.0
2024-02-27 09:22:23.942692,1709022143.9426918,22.4609375,2.9296875,-24.4140625,24.90234375,0.0,-1.0,1.0,0.0,2.m4v,1.0
2024-02-27 09:22:23.946597,1709022143.946597,19.53125,-24.4140625,6.34765625,34.66796875,0.0,-1.0,1.0,0.0,2.m4v,1.0
2024-02-27 09:22:23.950503,1709022143.950503,-3.41796875,-63.96484375,-9.765625,-7.32421875,0.0,-1.0,1.0,0.0,2.m4v,1.0
2024-02-27 09:22:23.954409,1709022143.9544086,-45.8984375,-38.0859375,-20.5078125,-56.640625,0.0,-1.0,1.0,0.0,2.m4v,1.0
2024-02-27 09:22:23.958314,1709022143.9583144,-71.77734375,-10.25390625,-5.859375,-87.40234375,0.0,-1.0,1.0,0.0,2.m4v,1.0
2024-02-27 09:22:23.962220,1709022143.9622202,-83.984375,-12.6953125,-18.06640625,-82.03125,0.0,-1.0,1.0,0.0,2.m4v,1.0
2024-02-27 09:22:23.966127,1709022143.9661272,-89.35546875,-8.30078125,-44.921875,-70.80078125,0.0,-1.0,1.0,0.0,2.m4v,1.0
2024-02-27 09:22:23.970033,1709022143.9700327,-55.6640625,-14.16015625,-26.85546875,-46.875,0.0,-1.0,1.0,0.0,2.m4v,1.0
2024-02-27 09:22:23.973938,1709022143.9739385,-20.01953125,-22.4609375,-20.01953125,-31.73828125,0.0,-1.0,1.0,0.0,2.m4v,1.0
2024-02-27 09:22:23.977844,1709022143.9778442,-9.765625,-11.23046875,-32.71484375,-29.78515625,0.0,-1.0,1.0,0.0,2.m4v,1.0
2024-02-27 09:22:23.981750,1709022143.9817498,-34.1796875,-8.7890625,-24.90234375,-8.30078125,0.0,-1.0,1.0,0.0,2.m4v,1.0
2024-02-27 09:22:23.985656,1709022143.9856555,-2.9296875,-20.5078125,-24.90234375,20.99609375,0.0,-1.0,1.0,0.0,2.m4v,1.0
2024-02-27 09:22:23.989561,1709022143.989561,45.41015625,-28.3203125,-17.08984375,42.48046875,0.0,-1.0,1.0,0.0,2.m4v,1.0
2024-02-27 09:22:23.993467,1709022143.9934669,24.4140625,-34.1796875,-0.48828125,22.94921875,0.0,-1.0,1.0,0.0,2.m4v,1.0
2024-02-27 09:22:23.997373,1709022143.9973726,-20.01953125,-27.83203125,-20.01953125,-44.43359375,0.0,-1.0,1.0,0.0,2.m4v,1.0
2024-02-27 09:22:24.001278,1709022144.0012782,-72.265625,-23.92578125,-33.69140625,-77.63671875,0.0,-1.0,1.0,0.0,2.m4v,1.0
2024-02-27 09:22:24.005184,1709022144.005184,-54.19921875,-4.39453125,-15.13671875,-50.78125,0.0,-1.0,1.0,0.0,2.m4v,1.0
2024-02-27 09:22:24.009089,1709022144.0090897,0.9765625,20.01953125,7.32421875,-11.71875,0.0,-1.0,1.0,0.0,2.m4v,1.0
2024-02-27 09:22:24.012996,1709022144.012996,0.9765625,-19.04296875,-11.23046875,0.48828125,0.0,-1.0,1.0,0.0,2.m4v,1.0
2024-02-27 09:22:24.016901,1709022144.0169015,-16.11328125,-56.640625,-41.9921875,-14.6484375,0.0,-1.0,1.0,0.0,2.m4v,1.0
2024-02-27 09:22:24.020807,1709022144.0208073,-4.39453125,-13.671875,-23.92578125,-9.27734375,0.0,-1.0,1.0,0.0,2.m4v,1.0
2024-02-27 09:22:24.024713,1709022144.0247128,-9.27734375,5.37109375,-32.71484375,-3.41796875,0.0,-1.0,1.0,0.0,2.m4v,1.0
2024-02-27 09:22:24.028619,1709022144.0286186,-37.109375,-19.53125,-49.8046875,-37.109375,0.0,-1.0,1.0,0.0,2.m4v,1.0
2024-02-27 09:22:24.032524,1709022144.032524,-31.25,-29.296875,-21.484375,-38.57421875,0.0,-1.0,1.0,0.0,2.m4v,1.0
2024-02-27 09:22:24.036430,1709022144.03643,-5.859375,-17.578125,7.8125,-10.7421875,0.0,-1.0,1.0,0.0,2.m4v,1.0
2024-02-27 09:22:24.040336,1709022144.0403357,-18.5546875,-26.3671875,0.0,-25.87890625,0.0,-1.0,1.0,0.0,2.m4v,1.0
2024-02-27 09:22:24.044241,1709022144.0442412,-53.7109375,-41.015625,-32.71484375,-48.33984375,0.0,-1.0,1.0,0.0,2.m4v,1.0
2024-02-27 09:22:24.048147,1709022144.048147,-46.875,-26.3671875,-47.36328125,-44.43359375,0.0,-1.0,1.0,0.0,2.m4v,1.0
2024-02-27 09:22:24.052052,1709022144.0520525,-2.44140625,-9.27734375,-18.06640625,-15.13671875,0.0,-1.0,1.0,0.0,2.m4v,1.0
2024-02-27 09:22:24.055958,1709022144.0559585,12.6953125,-6.34765625,12.6953125,-2.44140625,0.0,-1.0,1.0,0.0,2.m4v,1.0
2024-02-27 09:22:24.059864,1709022144.0598643,-3.90625,-4.8828125,-3.41796875,-15.13671875,0.0,-1.0,1.0,0.0,2.m4v,1.0
2024-02-27 09:22:24.063770,1709022144.0637698,-11.23046875,-1.46484375,-9.765625,11.71875,0.0,-1.0,1.0,0.0,2.m4v,1.0
2024-02-27 09:22:24.067676,1709022144.0676756,-5.37109375,-20.99609375,-35.64453125,10.25390625,0.0,-1.0,1.0,0.0,2.m4v,1.0
2024-02-27 09:22:24.071581,1709022144.0715811,-9.765625,-33.203125,-42.48046875,-28.3203125,0.0,-1.0,1.0,0.0,2.m4v,1.0
2024-02-27 09:22:24.075487,1709022144.075487,-19.53125,-26.3671875,-11.71875,-41.015625,0.0,-1.0,1.0,0.0,2.m4v,1.0
2024-02-27 09:22:24.079393,1709022144.079393,-28.3203125,-20.01953125,-14.6484375,-42.96875,0.0,-1.0,1.0,0.0,2.m4v,1.0
2024-02-27 09:22:24.083298,1709022144.0832982,-39.55078125,-35.15625,-24.4140625,-28.80859375,0.0,-1.0,1.0,0.0,2.m4v,1.0
2024-02-27 09:22:24.087204,1709022144.087204,-28.3203125,-50.29296875,-25.390625,-10.7421875,0.0,-1.0,1.0,0.0,2.m4v,1.0
2024-02-27 09:22:24.091110,1709022144.0911095,19.53125,-38.57421875,-4.8828125,11.71875,0.0,-1.0,1.0,0.0,2.m4v,1.0
2024-02-27 09:22:24.095015,1709022144.0950153,41.015625,-20.5078125,6.8359375,19.04296875,0.0,-1.0,1.0,0.0,2.m4v,1.0
2024-02-27 09:22:24.098921,1709022144.098921,-25.87890625,-11.23046875,-13.671875,-44.921875,0.0,-1.0,1.0,0.0,2.m4v,1.0
2024-02-27 09:22:24.102827,1709022144.1028266,-67.3828125,1.46484375,-16.11328125,-83.984375,0.0,-1.0,1.0,0.0,2.m4v,1.0
2024-02-27 09:22:24.106732,1709022144.106732,-46.38671875,-3.90625,-10.7421875,-68.84765625,0.0,-1.0,1.0,0.0,2.m4v,1.0
2024-02-27 09:22:24.110638,1709022144.110638,-41.50390625,-19.53125,-28.3203125,-65.91796875,0.0,-1.0,1.0,0.0,2.m4v,1.0
2024-02-27 09:22:24.114544,1709022144.1145437,-69.3359375,-24.4140625,-51.7578125,-88.37890625,0.0,-1.0,1.0,0.0,2.m4v,1.0
2024-02-27 09:22:24.118449,1709022144.1184492,-63.4765625,-17.08984375,-51.26953125,-93.26171875,0.0,-1.0,1.0,0.0,2.m4v,1.0
2024-02-27 09:22:24.122355,1709022144.122355,-31.25,-19.53125,-43.9453125,-56.640625,0.0,-1.0,1.0,0.0,2.m4v,1.0
2024-02-27 09:22:24.126261,1709022144.1262605,-28.3203125,-24.90234375,-48.828125,-36.62109375,0.0,-1.0,1.0,0.0,2.m4v,1.0
2024-02-27 09:22:24.130166,1709022144.1301663,-35.64453125,-9.765625,-41.015625,-51.7578125,0.0,-1.0,1.0,0.0,2.m4v,1.0
2024-02-27 09:22:24.134072,1709022144.134072,-32.71484375,-17.578125,-33.69140625,-61.5234375,0.0,-1.0,1.0,0.0,2.m4v,1.0
2024-02-27 09:22:24.137978,1709022144.1379776,-37.109375,-32.71484375,-23.4375,-70.3125,0.0,-1.0,1.0,0.0,2.m4v,1.0
2024-02-27 09:22:24.141883,1709022144.1418834,-36.62109375,-28.80859375,-0.48828125,-59.08203125,0.0,-1.0,1.0,0.0,2.m4v,1.0
2024-02-27 09:22:24.145789,1709022144.145789,-39.55078125,-27.83203125,-18.06640625,-50.29296875,0.0,-1.0,1.0,0.0,2.m4v,1.0
2024-02-27 09:22:24.149695,1709022144.1496947,-23.4375,-28.80859375,-27.34375,-32.71484375,0.0,-1.0,1.0,0.0,2.m4v,1.0
2024-02-27 09:22:24.153600,1709022144.1536,-0.48828125,-24.4140625,-29.78515625,-21.97265625,0.0,-1.0,1.0,0.0,2.m4v,1.0
2024-02-27 09:22:24.157506,1709022144.1575055,-26.85546875,-7.8125,-44.921875,-36.1328125,0.0,-1.0,1.0,0.0,2.m4v,1.0
2024-02-27 09:22:24.161411,1709022144.1614113,-48.828125,-20.01953125,-36.1328125,-51.7578125,0.0,-1.0,1.0,0.0,2.m4v,1.0
2024-02-27 09:22:24.165317,1709022144.1653168,-29.296875,-34.66796875,-38.0859375,-41.9921875,0.0,-1.0,1.0,0.0,2.m4v,1.0
2024-02-27 09:22:24.169223,1709022144.1692226,-5.859375,-15.625,-30.2734375,-20.01953125,0.0,-1.0,1.0,0.0,2.m4v,1.0
2024-02-27 09:22:24.173128,1709022144.1731284,0.48828125,-3.41796875,-24.4140625,-18.06640625,0.0,-1.0,1.0,0.0,2.m4v,1.0
2024-02-27 09:22:24.177034,1709022144.177034,-10.7421875,-5.859375,-17.08984375,-29.78515625,0.0,-1.0,1.0,0.0,2.m4v,1.0
2024-02-27 09:22:24.180940,1709022144.1809397,-18.06640625,-13.671875,-4.39453125,-32.71484375,0.0,-1.0,1.0,0.0,2.m4v,1.0
2024-02-27 09:22:24.184845,1709022144.1848452,-24.90234375,-28.80859375,-10.7421875,-15.13671875,0.0,-1.0,1.0,0.0,2.m4v,1.0
2024-02-27 09:22:24.188751,1709022144.188751,-28.3203125,-53.22265625,-21.97265625,-37.109375,0.0,-1.0,1.0,0.0,2.m4v,1.0
2024-02-27 09:22:24.192657,1709022144.1926568,-38.57421875,-60.546875,-39.55078125,-57.12890625,0.0,-1.0,1.0,0.0,2.m4v,1.0
2024-02-27 09:22:24.196562,1709022144.1965623,-42.48046875,-15.13671875,-35.64453125,-31.73828125,0.0,-1.0,1.0,0.0,2.m4v,1.0
2024-02-27 09:22:24.200467,1709022144.200467,-32.2265625,6.34765625,-17.578125,-20.5078125,0.0,-1.0,1.0,0.0,2.m4v,1.0
2024-02-27 09:22:24.204373,1709022144.2043726,-25.390625,-30.2734375,-34.66796875,-20.99609375,0.0,-1.0,1.0,0.0,2.m4v,1.0
2024-02-27 09:22:24.208278,1709022144.2082784,-16.11328125,-34.66796875,-42.96875,-17.08984375,0.0,-1.0,1.0,0.0,2.m4v,1.0
2024-02-27 09:22:24.212184,1709022144.2121842,-24.90234375,-13.671875,-25.87890625,-32.2265625,0.0,-1.0,1.0,0.0,2.m4v,1.0
2024-02-27 09:22:24.216090,1709022144.2160895,-12.6953125,-7.32421875,-23.92578125,-37.59765625,0.0,-1.0,1.0,0.0,2.m4v,1.0
2024-02-27 09:22:24.219995,1709022144.2199955,-0.48828125,-9.765625,-20.99609375,-15.625,0.0,-1.0,1.0,0.0,2.m4v,1.0
2024-02-27 09:22:24.219995,1709022144.2199955,-0.48828125,-9.765625,-20.99609375,-15.625,0.0,-1.0,1.0,0.0,2.m4v,1.0
2024-02-27 09:22:24.223901,1709022144.223901,4.39453125,-0.48828125,-18.5546875,12.6953125,0.0,-1.0,1.0,0.0,2.m4v,1.0
2024-02-27 09:22:24.223901,1709022144.223901,4.39453125,-0.48828125,-18.5546875,12.6953125,0.0,-1.0,1.0,0.0,2.m4v,1.0
2024-02-27 09:22:24.227807,1709022144.2278068,9.765625,-6.8359375,-17.08984375,12.6953125,0.0,-1.0,1.0,0.0,2.m4v,1.0
2024-02-27 09:22:24.227807,1709022144.2278068,9.765625,-6.8359375,-17.08984375,12.6953125,0.0,-1.0,1.0,0.0,2.m4v,1.0
2024-02-27 09:22:24.231713,1709022144.2317126,-1.953125,-43.45703125,-12.20703125,-20.01953125,0.0,-1.0,1.0,0.0,2.m4v,1.0
2024-02-27 09:22:24.231713,1709022144.2317126,-1.953125,-43.45703125,-12.20703125,-20.01953125,0.0,-1.0,1.0,0.0,2.m4v,1.0
2024-02-27 09:22:24.235618,1709022144.235618,-38.57421875,-65.4296875,-28.3203125,-62.01171875,0.0,-1.0,1.0,0.0,2.m4v,1.0
2024-02-27 09:22:24.235618,1709022144.235618,-38.57421875,-65.4296875,-28.3203125,-62.01171875,0.0,-1.0,1.0,0.0,2.m4v,1.0
2024-02-27 09:22:24.239524,1709022144.239524,-50.29296875,-32.71484375,-29.296875,-65.91796875,0.0,-1.0,1.0,0.0,2.m4v,1.0
2024-02-27 09:22:24.239524,1709022144.239524,-50.29296875,-32.71484375,-29.296875,-65.91796875,0.0,-1.0,1.0,0.0,2.m4v,1.0
2024-02-27 09:22:24.243429,1709022144.2434294,-48.828125,-9.765625,-6.34765625,-51.26953125,0.0,-1.0,1.0,0.0,2.m4v,1.0
2024-02-27 09:22:24.243429,1709022144.2434294,-48.828125,-9.765625,-6.34765625,-51.26953125,0.0,-1.0,1.0,0.0,2.m4v,1.0
2024-02-27 09:22:24.247334,1709022144.2473342,-48.33984375,-20.5078125,-19.04296875,-37.109375,0.0,-1.0,1.0,0.0,2.m4v,1.0
2024-02-27 09:22:24.247334,1709022144.2473342,-48.33984375,-20.5078125,-19.04296875,-37.109375,0.0,-1.0,1.0,0.0,2.m4v,1.0
2024-02-27 09:22:24.251240,1709022144.25124,-9.27734375,-16.6015625,-28.3203125,-17.08984375,0.0,-1.0,1.0,0.0,2.m4v,1.0
2024-02-27 09:22:24.251240,1709022144.25124,-9.27734375,-16.6015625,-28.3203125,-17.08984375,0.0,-1.0,1.0,0.0,2.m4v,1.0
2024-02-27 09:22:24.255146,1709022144.2551455,0.48828125,-27.34375,-16.6015625,-17.578125,0.0,-1.0,1.0,0.0,2.m4v,1.0
2024-02-27 09:22:24.255146,1709022144.2551455,0.48828125,-27.34375,-16.6015625,-17.578125,0.0,-1.0,1.0,0.0,2.m4v,1.0
2024-02-27 09:22:24.259051,1709022144.259051,-16.11328125,-21.97265625,-13.671875,-25.87890625,0.0,-1.0,1.0,0.0,2.m4v,1.0
2024-02-27 09:22:24.259051,1709022144.259051,-16.11328125,-21.97265625,-13.671875,-25.87890625,0.0,-1.0,1.0,0.0,2.m4v,1.0
2024-02-27 09:22:24.262957,1709022144.2629569,-30.76171875,-2.44140625,-35.64453125,-29.78515625,0.0,-1.0,1.0,0.0,2.m4v,1.0
2024-02-27 09:22:24.266863,1709022144.2668626,-38.57421875,-19.04296875,-45.41015625,-32.2265625,0.0,-1.0,1.0,0.0,2.m4v,1.0
2024-02-27 09:22:24.270768,1709022144.2707684,-30.2734375,-32.71484375,-30.76171875,-36.1328125,0.0,-1.0,1.0,0.0,2.m4v,1.0
2024-02-27 09:22:24.274674,1709022144.274674,-28.3203125,-30.76171875,-17.578125,-48.33984375,0.0,-1.0,1.0,0.0,2.m4v,1.0
2024-02-27 09:22:24.278580,1709022144.2785797,-35.64453125,-37.109375,-12.20703125,-51.7578125,0.0,-1.0,1.0,0.0,2.m4v,1.0
2024-02-27 09:22:24.282485,1709022144.2824852,-69.3359375,-49.8046875,-27.83203125,-51.26953125,0.0,-1.0,1.0,0.0,2.m4v,1.0
2024-02-27 09:22:24.290297,1709022144.2902968,1.46484375,-4.8828125,-15.625,-23.92578125,0.0,-1.0,1.0,0.0,2.m4v,1.0
2024-02-27 09:22:24.302018,1709022144.3020182,1.953125,-4.39453125,-4.8828125,-5.859375,0.0,-1.0,1.0,0.0,2.m4v,1.0
2024-02-27 09:22:24.313735,1709022144.3137352,-30.2734375,-42.96875,-36.1328125,-37.109375,0.0,-1.0,1.0,0.0,2.m4v,1.0
2024-02-27 09:22:24.325452,1709022144.3254523,-35.15625,-34.66796875,-17.578125,-35.64453125,0.0,-1.0,1.0,0.0,2.m4v,1.0
2024-02-27 09:22:24.337169,1709022144.3371692,-1.953125,-5.859375,-4.8828125,-8.7890625,0.0,-1.0,1.0,0.0,2.m4v,1.0
2024-02-27 09:22:24.348887,1709022144.3488872,-61.5234375,-42.48046875,-26.3671875,-37.109375,0.0,-1.0,1.0,0.0,2.m4v,1.0
2024-02-27 09:22:24.360604,1709022144.3606043,-2.44140625,-18.06640625,-28.3203125,-22.4609375,0.0,-1.0,1.0,0.0,2.m4v,1.0
2024-02-27 09:22:24.817576,1709022144.8175764,-27.83203125,-20.5078125,-28.3203125,-32.71484375,0.0,-1.0,1.0,0.0,2.m4v,1.0
2024-02-27 09:22:24.817576,1709022144.8175764,-27.83203125,-20.5078125,-28.3203125,-32.71484375,0.0,-1.0,1.0,0.0,2.m4v,1.0
2024-02-27 09:22:24.829293,1709022144.8292935,27.34375,-8.7890625,8.7890625,-5.37109375,0.0,-1.0,1.0,0.0,2.m4v,1.0
2024-02-27 09:22:24.829293,1709022144.8292935,27.34375,-8.7890625,8.7890625,-5.37109375,0.0,-1.0,1.0,0.0,2.m4v,1.0
2024-02-27 09:22:24.841010,1709022144.8410103,-38.0859375,-4.8828125,-28.3203125,-20.01953125,0.0,-1.0,1.0,0.0,2.m4v,1.0
2024-02-27 09:22:24.841010,1709022144.8410103,-38.0859375,-4.8828125,-28.3203125,-20.01953125,0.0,-1.0,1.0,0.0,2.m4v,1.0
2024-02-27 09:22:24.852727,1709022144.8527274,-19.53125,-27.83203125,-68.359375,-21.97265625,0.0,-1.0,1.0,0.0,2.m4v,1.0
2024-02-27 09:22:24.852727,1709022144.8527274,-19.53125,-27.83203125,-68.359375,-21.97265625,0.0,-1.0,1.0,0.0,2.m4v,1.0
2024-02-27 09:22:24.864447,1709022144.8644474,-15.13671875,-52.734375,-11.71875,-25.390625,0.0,-1.0,1.0,0.0,2.m4v,1.0
2024-02-27 09:22:24.864447,1709022144.8644474,-15.13671875,-52.734375,-11.71875,-25.390625,0.0,-1.0,1.0,0.0,2.m4v,1.0
2024-02-27 09:22:24.876164,1709022144.8761644,-8.30078125,-11.71875,-36.1328125,-41.015625,0.0,-1.0,1.0,0.0,2.m4v,1.0
2024-02-27 09:22:24.876164,1709022144.8761644,-8.30078125,-11.71875,-36.1328125,-41.015625,0.0,-1.0,1.0,0.0,2.m4v,1.0
2024-02-27 09:22:24.887882,1709022144.8878815,-21.484375,-31.73828125,-58.59375,-32.2265625,0.0,-1.0,1.0,0.0,2.m4v,1.0
2024-02-27 09:22:24.887882,1709022144.8878815,-21.484375,-31.73828125,-58.59375,-32.2265625,0.0,-1.0,1.0,0.0,2.m4v,1.0
2024-02-27 09:22:24.899599,1709022144.8995986,-39.55078125,-50.78125,4.8828125,-57.6171875,0.0,-1.0,1.0,0.0,2.m4v,1.0
2024-02-27 09:22:24.899599,1709022144.8995986,-39.55078125,-50.78125,4.8828125,-57.6171875,0.0,-1.0,1.0,0.0,2.m4v,1.0
2024-02-27 09:22:24.911315,1709022144.9113154,-13.18359375,-19.04296875,-45.8984375,-33.69140625,0.0,-1.0,1.0,0.0,2.m4v,1.0
2024-02-27 09:22:24.911315,1709022144.9113154,-13.18359375,-19.04296875,-45.8984375,-33.69140625,0.0,-1.0,1.0,0.0,2.m4v,1.0
2024-02-27 09:22:24.923032,1709022144.9230323,16.11328125,-3.90625,-26.3671875,6.34765625,0.0,-1.0,1.0,0.0,2.m4v,1.0
2024-02-27 09:22:24.923032,1709022144.9230323,16.11328125,-3.90625,-26.3671875,6.34765625,0.0,-1.0,1.0,0.0,2.m4v,1.0
2024-02-27 09:22:24.934749,1709022144.9347494,-18.5546875,-25.390625,3.90625,-30.2734375,0.0,-1.0,1.0,0.0,2.m4v,1.0
2024-02-27 09:22:24.934749,1709022144.9347494,-18.5546875,-25.390625,3.90625,-30.2734375,0.0,-1.0,1.0,0.0,2.m4v,1.0
2024-02-27 09:22:24.946466,1709022144.9464664,-48.33984375,-33.69140625,-55.6640625,-26.3671875,0.0,-1.0,1.0,0.0,2.m4v,1.0
2024-02-27 09:22:24.946466,1709022144.9464664,-48.33984375,-33.69140625,-55.6640625,-26.3671875,0.0,-1.0,1.0,0.0,2.m4v,1.0
2024-02-27 09:22:24.954277,1709022144.9542768,9.27734375,-12.6953125,-13.671875,-19.04296875,0.0,-1.0,1.0,0.0,2.m4v,1.0
2024-02-27 09:22:24.958183,1709022144.9581826,-7.8125,-11.71875,-11.71875,-28.80859375,0.0,-1.0,1.0,0.0,2.m4v,1.0
2024-02-27 09:22:24.962088,1709022144.962088,-40.0390625,-25.87890625,-24.90234375,-48.828125,0.0,-1.0,1.0,0.0,2.m4v,1.0
2024-02-27 09:22:24.965994,1709022144.965994,-31.25,-28.80859375,-30.76171875,-37.109375,0.0,-1.0,1.0,0.0,2.m4v,1.0
2024-02-27 09:22:24.969899,1709022144.9698994,20.01953125,-18.5546875,-11.71875,-2.44140625,0.0,-1.0,1.0,0.0,2.m4v,1.0
2024-02-27 09:22:24.973805,1709022144.9738052,28.3203125,-29.78515625,-4.39453125,-1.46484375,0.0,-1.0,1.0,0.0,2.m4v,1.0
2024-02-27 09:22:24.977711,1709022144.977711,-14.16015625,-27.83203125,-13.18359375,-15.13671875,0.0,-1.0,1.0,0.0,2.m4v,1.0
2024-02-27 09:22:24.981616,1709022144.9816165,-22.4609375,-23.4375,-24.90234375,-18.06640625,0.0,-1.0,1.0,0.0,2.m4v,1.0
2024-02-27 09:22:24.985522,1709022144.9855225,-42.96875,-33.69140625,-37.109375,-37.59765625,0.0,-1.0,1.0,0.0,2.m4v,1.0
2024-02-27 09:22:24.989428,1709022144.9894278,-32.2265625,-25.390625,-23.4375,-46.38671875,0.0,-1.0,1.0,0.0,2.m4v,1.0
2024-02-27 09:22:24.993334,1709022144.9933336,-12.6953125,-30.76171875,-28.3203125,-44.921875,0.0,-1.0,1.0,0.0,2.m4v,1.0
2024-02-27 09:22:24.997238,1709022144.997238,-16.11328125,-36.1328125,-36.1328125,-39.55078125,0.0,-1.0,1.0,0.0,2.m4v,1.0
2024-02-27 09:22:25.001144,1709022145.0011437,0.48828125,-17.08984375,-24.4140625,-10.7421875,0.0,-1.0,1.0,0.0,2.m4v,1.0
2024-02-27 09:22:25.005049,1709022145.0050492,10.25390625,9.765625,-28.80859375,-3.41796875,0.0,-1.0,1.0,0.0,2.m4v,1.0
2024-02-27 09:22:25.008955,1709022145.008955,-1.46484375,-5.37109375,-27.34375,-21.97265625,0.0,-1.0,1.0,0.0,2.m4v,1.0
2024-02-27 09:22:25.012861,1709022145.0128608,-35.64453125,-32.2265625,-24.4140625,-38.57421875,0.0,-1.0,1.0,0.0,2.m4v,1.0
2024-02-27 09:22:25.016766,1709022145.0167663,-49.8046875,-31.25,-27.83203125,-56.15234375,0.0,-1.0,1.0,0.0,2.m4v,1.0
2024-02-27 09:22:25.020672,1709022145.020672,-32.71484375,-10.7421875,-17.08984375,-46.875,0.0,-1.0,1.0,0.0,2.m4v,1.0
2024-02-27 09:22:25.024578,1709022145.0245776,-19.04296875,-15.625,-4.39453125,-17.08984375,0.0,-1.0,1.0,0.0,2.m4v,1.0
2024-02-27 09:22:25.028483,1709022145.0284834,7.32421875,-31.25,-9.765625,-5.37109375,0.0,-1.0,1.0,0.0,2.m4v,1.0
2024-02-27 09:22:25.032389,1709022145.0323892,1.46484375,-36.62109375,-29.296875,-32.71484375,0.0,-1.0,1.0,0.0,2.m4v,1.0
2024-02-27 09:22:25.036295,1709022145.0362947,-18.06640625,-27.34375,-42.48046875,-46.875,0.0,-1.0,1.0,0.0,2.m4v,1.0
2024-02-27 09:22:25.040200,1709022145.0402005,-30.76171875,-13.18359375,-48.33984375,-28.3203125,0.0,-1.0,1.0,0.0,2.m4v,1.0
2024-02-27 09:22:25.044107,1709022145.0441074,-54.6875,-28.3203125,-51.7578125,-49.31640625,0.0,-1.0,1.0,0.0,2.m4v,1.0
2024-02-27 09:22:25.048013,1709022145.0480132,-29.78515625,-32.2265625,-34.66796875,-62.5,0.0,-1.0,1.0,0.0,2.m4v,1.0
2024-02-27 09:22:25.051919,1709022145.0519187,2.9296875,-43.9453125,-11.23046875,-37.109375,0.0,-1.0,1.0,0.0,2.m4v,1.0
2024-02-27 09:22:25.055825,1709022145.0558245,-17.578125,-56.15234375,-7.8125,-32.71484375,0.0,-1.0,1.0,0.0,2.m4v,1.0
2024-02-27 09:22:25.059730,1709022145.0597303,-45.41015625,-29.78515625,-22.94921875,-39.55078125,0.0,-1.0,1.0,0.0,2.m4v,1.0
2024-02-27 09:22:25.063636,1709022145.0636358,-40.0390625,-15.13671875,-35.15625,-39.0625,0.0,-1.0,1.0,0.0,2.m4v,1.0
2024-02-27 09:22:25.067542,1709022145.0675416,-35.64453125,-23.4375,-34.1796875,-34.66796875,0.0,-1.0,1.0,0.0,2.m4v,1.0
2024-02-27 09:22:25.071447,1709022145.0714471,-18.06640625,-20.99609375,-13.18359375,-19.04296875,0.0,-1.0,1.0,0.0,2.m4v,1.0
2024-02-27 09:22:25.075353,1709022145.075353,1.953125,-32.2265625,-13.18359375,-9.27734375,0.0,-1.0,1.0,0.0,2.m4v,1.0
2024-02-27 09:22:25.079259,1709022145.079259,-15.13671875,-27.83203125,-20.5078125,-34.1796875,0.0,-1.0,1.0,0.0,2.m4v,1.0
2024-02-27 09:22:25.083164,1709022145.0831642,-53.22265625,-6.34765625,-6.8359375,-46.38671875,0.0,-1.0,1.0,0.0,2.m4v,1.0
2024-02-27 09:22:25.087070,1709022145.08707,-75.68359375,-15.625,-2.9296875,-43.45703125,0.0,-1.0,1.0,0.0,2.m4v,1.0
2024-02-27 09:22:25.090980,1709022145.0909796,-60.05859375,-21.97265625,-14.16015625,-63.96484375,0.0,-1.0,1.0,0.0,2.m4v,1.0
2024-02-27 09:22:25.094885,1709022145.094885,-29.296875,-16.6015625,-29.296875,-58.59375,0.0,-1.0,1.0,0.0,2.m4v,1.0
2024-02-27 09:22:25.098791,1709022145.098791,-21.484375,-23.92578125,-27.83203125,-40.0390625,0.0,-1.0,1.0,0.0,2.m4v,1.0
2024-02-27 09:22:25.102697,1709022145.102697,-61.5234375,-26.3671875,-18.06640625,-46.38671875,0.0,-1.0,1.0,0.0,2.m4v,1.0
2024-02-27 09:22:25.106602,1709022145.1066024,-85.44921875,-13.18359375,-25.87890625,-44.921875,0.0,-1.0,1.0,0.0,2.m4v,1.0
2024-02-27 09:22:25.110508,1709022145.110508,-63.96484375,-9.27734375,-36.1328125,-50.29296875,0.0,-1.0,1.0,0.0,2.m4v,1.0
2024-02-27 09:22:25.114414,1709022145.1144135,-55.6640625,-12.20703125,-33.203125,-76.171875,0.0,-1.0,1.0,0.0,2.m4v,1.0
2024-02-27 09:22:25.118319,1709022145.1183193,-49.8046875,-1.953125,-21.97265625,-76.66015625,0.0,-1.0,1.0,0.0,2.m4v,1.0
2024-02-27 09:22:25.122225,1709022145.122225,-65.91796875,-1.46484375,-14.16015625,-64.453125,0.0,-1.0,1.0,0.0,2.m4v,1.0
2024-02-27 09:22:25.126131,1709022145.1261308,-73.2421875,-18.06640625,-21.484375,-50.29296875,0.0,-1.0,1.0,0.0,2.m4v,1.0
2024-02-27 09:22:25.130036,1709022145.1300364,-68.359375,-20.01953125,-38.0859375,-63.96484375,0.0,-1.0,1.0,0.0,2.m4v,1.0
2024-02-27 09:22:25.133942,1709022145.133942,-92.7734375,-9.765625,-44.43359375,-110.3515625,0.0,-1.0,1.0,0.0,2.m4v,1.0
2024-02-27 09:22:25.137848,1709022145.1378484,-94.23828125,6.34765625,-34.1796875,-99.12109375,0.0,-1.0,1.0,0.0,2.m4v,1.0
2024-02-27 09:22:25.141754,1709022145.1417542,-99.609375,0.48828125,-14.6484375,-82.51953125,0.0,-1.0,1.0,0.0,2.m4v,1.0
2024-02-27 09:22:25.145660,1709022145.1456597,-120.1171875,-2.44140625,-8.7890625,-129.8828125,0.0,-1.0,1.0,0.0,2.m4v,1.0
2024-02-27 09:22:25.149565,1709022145.1495657,-139.16015625,13.18359375,-18.06640625,-161.62109375,0.0,-1.0,1.0,0.0,2.m4v,1.0
2024-02-27 09:22:25.153471,1709022145.1534712,-146.97265625,15.13671875,-16.6015625,-147.4609375,0.0,-1.0,1.0,0.0,2.m4v,1.0
2024-02-27 09:22:25.157377,1709022145.1573768,-131.34765625,-4.39453125,-4.8828125,-144.04296875,0.0,-1.0,1.0,0.0,2.m4v,1.0
2024-02-27 09:22:25.161283,1709022145.1612823,-191.40625,-27.34375,-3.41796875,-175.78125,0.0,-1.0,1.0,0.0,2.m4v,1.0
2024-02-27 09:22:25.165188,1709022145.165188,-234.86328125,3.90625,-1.953125,-205.078125,0.0,-1.0,1.0,0.0,2.m4v,1.0
2024-02-27 09:22:25.169094,1709022145.1690938,-212.890625,17.08984375,-5.37109375,-233.88671875,0.0,-1.0,1.0,0.0,2.m4v,1.0
2024-02-27 09:22:25.173000,1709022145.1729996,-209.47265625,-0.48828125,-28.80859375,-250.0,0.0,-1.0,1.0,0.0,2.m4v,1.0
2024-02-27 09:22:25.176905,1709022145.1769052,-203.61328125,10.25390625,-40.0390625,-217.28515625,0.0,-1.0,1.0,0.0,2.m4v,1.0
2024-02-27 09:22:25.180811,1709022145.180811,-165.52734375,16.11328125,-14.16015625,-165.0390625,0.0,-1.0,1.0,0.0,2.m4v,1.0
2024-02-27 09:22:25.184717,1709022145.184717,-164.55078125,5.37109375,-19.04296875,-133.7890625,0.0,-1.0,1.0,0.0,2.m4v,1.0
2024-02-27 09:22:25.188622,1709022145.1886225,-198.73046875,2.44140625,-21.484375,-172.8515625,0.0,-1.0,1.0,0.0,2.m4v,1.0
2024-02-27 09:22:25.192528,1709022145.1925282,-222.65625,-10.7421875,12.6953125,-236.328125,0.0,-1.0,1.0,0.0,2.m4v,1.0
2024-02-27 09:22:25.196434,1709022145.196434,-181.15234375,-13.18359375,32.2265625,-204.1015625,0.0,-1.0,1.0,0.0,2.m4v,1.0
2024-02-27 09:22:25.200340,1709022145.2003396,-153.80859375,0.0,28.3203125,-167.96875,0.0,-1.0,1.0,0.0,2.m4v,1.0
2024-02-27 09:22:25.204245,1709022145.204245,-202.63671875,9.27734375,-0.9765625,-191.89453125,0.0,-1.0,1.0,0.0,2.m4v,1.0
2024-02-27 09:22:25.208151,1709022145.2081509,-174.8046875,25.87890625,-23.92578125,-166.50390625,0.0,-1.0,1.0,0.0,2.m4v,1.0
2024-02-27 09:22:25.212057,1709022145.2120566,-129.8828125,13.671875,-36.62109375,-143.5546875,0.0,-1.0,1.0,0.0,2.m4v,1.0
2024-02-27 09:22:25.215962,1709022145.2159624,-125.48828125,3.41796875,-51.7578125,-142.08984375,0.0,-1.0,1.0,0.0,2.m4v,1.0
2024-02-27 09:22:25.219868,1709022145.219868,-100.09765625,16.11328125,-20.99609375,-95.703125,0.0,-1.0,1.0,0.0,2.m4v,1.0
2024-02-27 09:22:25.223774,1709022145.2237737,-107.421875,-17.08984375,-5.859375,-86.9140625,0.0,-1.0,1.0,0.0,2.m4v,1.0
2024-02-27 09:22:25.227679,1709022145.2276793,-133.7890625,-61.5234375,-21.97265625,-114.74609375,0.0,-1.0,1.0,0.0,2.m4v,1.0
2024-02-27 09:22:25.231585,1709022145.231585,-114.2578125,-53.22265625,-29.296875,-109.86328125,0.0,-1.0,1.0,0.0,2.m4v,1.0
2024-02-27 09:22:25.235491,1709022145.2354908,-111.81640625,-49.8046875,-50.29296875,-113.76953125,0.0,-1.0,1.0,0.0,2.m4v,1.0
2024-02-27 09:22:25.239396,1709022145.2393963,-83.0078125,-51.26953125,-44.43359375,-105.95703125,0.0,-1.0,1.0,0.0,2.m4v,1.0
2024-02-27 09:22:25.243302,1709022145.243302,-50.78125,-33.203125,-30.76171875,-60.05859375,0.0,-1.0,1.0,0.0,2.m4v,1.0
2024-02-27 09:22:25.247208,1709022145.2472076,-78.125,-42.96875,-68.84765625,-58.59375,0.0,-1.0,1.0,0.0,2.m4v,1.0
2024-02-27 09:22:25.251113,1709022145.2511134,-58.10546875,-33.69140625,-105.46875,-79.1015625,0.0,-1.0,1.0,0.0,2.m4v,1.0
2024-02-27 09:22:25.255019,1709022145.2550192,-41.50390625,-15.625,-89.35546875,-58.10546875,0.0,-1.0,1.0,0.0,2.m4v,1.0
2024-02-27 09:22:25.258925,1709022145.2589247,-38.0859375,-20.5078125,-25.87890625,-23.92578125,0.0,-1.0,1.0,0.0,2.m4v,1.0
2024-02-27 09:22:25.262830,1709022145.2628305,-34.66796875,-28.3203125,-0.48828125,-20.5078125,0.0,-1.0,1.0,0.0,2.m4v,1.0
2024-02-27 09:22:25.266736,1709022145.266736,-58.59375,-48.828125,-2.9296875,-20.5078125,0.0,-1.0,1.0,0.0,2.m4v,1.0
2024-02-27 09:22:25.270642,1709022145.2706418,-42.48046875,-78.125,-17.578125,-20.01953125,0.0,-1.0,1.0,0.0,2.m4v,1.0
2024-02-27 09:22:25.274548,1709022145.2745476,1.46484375,-71.2890625,-43.45703125,-7.8125,0.0,-1.0,1.0,0.0,2.m4v,1.0
2024-02-27 09:22:25.278453,1709022145.2784526,0.9765625,-36.62109375,-41.50390625,9.27734375,0.0,-1.0,1.0,0.0,2.m4v,1.0
2024-02-27 09:22:25.282358,1709022145.2823584,-45.8984375,-35.15625,-57.12890625,-24.4140625,0.0,-1.0,1.0,0.0,2.m4v,1.0
2024-02-27 09:22:25.286264,1709022145.286264,-66.89453125,-53.22265625,-72.265625,-48.33984375,0.0,-1.0,1.0,0.0,2.m4v,1.0
2024-02-27 09:22:25.290170,1709022145.2901697,-17.08984375,-45.8984375,-57.6171875,-29.78515625,0.0,-1.0,1.0,0.0,2.m4v,1.0
2024-02-27 09:22:25.294075,1709022145.2940755,22.94921875,-30.2734375,-29.296875,-8.30078125,0.0,-1.0,1.0,0.0,2.m4v,1.0
2024-02-27 09:22:25.297981,1709022145.297981,44.43359375,-40.52734375,-12.20703125,14.16015625,0.0,-1.0,1.0,0.0,2.m4v,1.0
2024-02-27 09:22:25.301887,1709022145.3018868,53.7109375,-43.9453125,-22.4609375,41.015625,0.0,-1.0,1.0,0.0,2.m4v,1.0
2024-02-27 09:22:25.305792,1709022145.3057923,24.90234375,-45.41015625,-39.55078125,38.0859375,0.0,-1.0,1.0,0.0,2.m4v,1.0
2024-02-27 09:22:25.309698,1709022145.309698,41.9921875,-47.36328125,-31.25,46.38671875,0.0,-1.0,1.0,0.0,2.m4v,1.0
2024-02-27 09:22:25.313604,1709022145.313604,48.828125,-28.80859375,-14.6484375,38.57421875,0.0,-1.0,1.0,0.0,2.m4v,1.0
2024-02-27 09:22:25.317509,1709022145.3175094,14.16015625,-25.87890625,-24.90234375,-1.46484375,0.0,-1.0,1.0,0.0,2.m4v,1.0
2024-02-27 09:22:25.321415,1709022145.3214152,25.87890625,-27.83203125,-13.671875,21.97265625,0.0,-1.0,1.0,0.0,2.m4v,1.0
2024-02-27 09:22:25.325320,1709022145.3253205,70.3125,-21.484375,-10.25390625,55.17578125,0.0,-1.0,1.0,0.0,2.m4v,1.0
2024-02-27 09:22:25.329226,1709022145.3292265,48.828125,-48.33984375,-54.6875,37.59765625,0.0,-1.0,1.0,0.0,2.m4v,1.0
2024-02-27 09:22:25.333132,1709022145.3331318,44.921875,-64.94140625,-54.19921875,31.25,0.0,-1.0,1.0,0.0,2.m4v,1.0
2024-02-27 09:22:25.337038,1709022145.3370376,51.26953125,-49.31640625,-54.6875,25.87890625,0.0,-1.0,1.0,0.0,2.m4v,1.0
2024-02-27 09:22:25.340943,1709022145.340943,34.1796875,-30.2734375,-46.38671875,25.87890625,0.0,-1.0,1.0,0.0,2.m4v,1.0
2024-02-27 09:22:25.344849,1709022145.3448489,39.0625,-21.97265625,-35.15625,43.45703125,0.0,-1.0,1.0,0.0,2.m4v,1.0
2024-02-27 09:22:25.348755,1709022145.3487546,80.078125,-22.4609375,-22.4609375,62.98828125,0.0,-1.0,1.0,0.0,2.m4v,1.0
2024-02-27 09:22:25.352660,1709022145.3526602,98.14453125,-31.73828125,-1.953125,70.80078125,0.0,-1.0,1.0,0.0,2.m4v,1.0
2024-02-27 09:22:25.356566,1709022145.356566,98.6328125,-47.36328125,5.37109375,87.40234375,0.0,-1.0,1.0,0.0,2.m4v,1.0
2024-02-27 09:22:25.360471,1709022145.3604715,74.70703125,-38.0859375,8.30078125,66.89453125,0.0,-1.0,1.0,0.0,2.m4v,1.0
2024-02-27 09:22:25.364377,1709022145.3643773,17.578125,-31.73828125,-33.203125,24.4140625,0.0,-1.0,1.0,0.0,2.m4v,1.0
2024-02-27 09:22:25.368283,1709022145.368283,9.765625,-44.921875,-50.78125,5.37109375,0.0,-1.0,1.0,0.0,2.m4v,1.0
2024-02-27 09:22:25.372187,1709022145.3721874,45.8984375,-29.296875,-19.53125,17.08984375,0.0,-1.0,1.0,0.0,2.m4v,1.0
2024-02-27 09:22:25.376093,1709022145.3760931,50.29296875,-18.5546875,-6.34765625,17.578125,0.0,-1.0,1.0,0.0,2.m4v,1.0
2024-02-27 09:22:25.379999,1709022145.3799987,20.01953125,-33.69140625,-27.83203125,0.0,0.0,-1.0,1.0,0.0,2.m4v,1.0
2024-02-27 09:22:25.383904,1709022145.3839045,9.27734375,-40.0390625,-30.76171875,19.53125,0.0,-1.0,1.0,0.0,2.m4v,1.0
2024-02-27 09:22:25.387810,1709022145.38781,49.8046875,-23.92578125,-23.4375,52.734375,0.0,-1.0,1.0,0.0,2.m4v,1.0
2024-02-27 09:22:25.391716,1709022145.3917158,75.68359375,-33.69140625,-26.3671875,45.8984375,0.0,-1.0,1.0,0.0,2.m4v,1.0
2024-02-27 09:22:25.540135,1709022145.540135,-7.32421875,-36.1328125,-23.4375,-21.97265625,0.0,-1.0,1.0,0.0,2.m4v,1.0
2024-02-27 09:22:25.544040,1709022145.5440402,-17.08984375,-31.25,-21.97265625,-13.671875,0.0,-1.0,1.0,0.0,2.m4v,1.0
2024-02-27 09:22:25.547946,1709022145.547946,-17.578125,-28.80859375,-29.296875,-12.6953125,0.0,-1.0,1.0,0.0,2.m4v,1.0
2024-02-27 09:22:25.551852,1709022145.5518515,8.7890625,-36.62109375,-24.90234375,7.8125,0.0,-1.0,1.0,0.0,2.m4v,1.0
2024-02-27 09:22:25.555757,1709022145.5557573,-8.7890625,-42.48046875,-29.78515625,-17.08984375,0.0,-1.0,1.0,0.0,2.m4v,1.0
2024-02-27 09:22:25.559663,1709022145.5596633,-29.78515625,-26.85546875,-26.85546875,-29.296875,0.0,-1.0,1.0,0.0,2.m4v,1.0
2024-02-27 09:22:25.563569,1709022145.5635688,-11.71875,-3.90625,-11.23046875,-14.6484375,0.0,-1.0,1.0,0.0,2.m4v,1.0
2024-02-27 09:22:25.567475,1709022145.5674746,-16.11328125,-18.06640625,-18.06640625,-28.80859375,0.0,-1.0,1.0,0.0,2.m4v,1.0
2024-02-27 09:22:25.571380,1709022145.5713804,-16.6015625,-22.4609375,-20.5078125,-17.08984375,0.0,-1.0,1.0,0.0,2.m4v,1.0
2024-02-27 09:22:25.575286,1709022145.575286,21.97265625,2.44140625,-14.6484375,21.484375,0.0,-1.0,1.0,0.0,2.m4v,1.0
2024-02-27 09:22:25.579192,1709022145.5791917,3.41796875,-16.11328125,-44.921875,0.9765625,0.0,-1.0,1.0,0.0,2.m4v,1.0
2024-02-27 09:22:25.583097,1709022145.5830972,-47.8515625,-35.64453125,-58.59375,-39.0625,0.0,-1.0,1.0,0.0,2.m4v,1.0
2024-02-27 09:22:25.587003,1709022145.587003,-13.18359375,-23.4375,-27.83203125,-1.953125,0.0,-1.0,1.0,0.0,2.m4v,1.0
2024-02-27 09:22:25.590909,1709022145.5909088,-5.859375,-29.78515625,-16.6015625,16.6015625,0.0,-1.0,1.0,0.0,2.m4v,1.0
2024-02-27 09:22:25.594814,1709022145.5948143,-20.99609375,-40.0390625,-10.25390625,-16.11328125,0.0,-1.0,1.0,0.0,2.m4v,1.0
2024-02-27 09:22:25.598720,1709022145.59872,-20.99609375,-41.9921875,-11.23046875,-28.3203125,0.0,-1.0,1.0,0.0,2.m4v,1.0
2024-02-27 09:22:25.602626,1709022145.6026256,-48.828125,-44.921875,-37.109375,-44.43359375,0.0,-1.0,1.0,0.0,2.m4v,1.0
2024-02-27 09:22:25.606534,1709022145.6065345,-54.19921875,-37.109375,-42.48046875,-51.7578125,0.0,-1.0,1.0,0.0,2.m4v,1.0
2024-02-27 09:22:25.610440,1709022145.61044,-46.875,-14.6484375,-22.4609375,-30.2734375,0.0,-1.0,1.0,0.0,2.m4v,1.0
2024-02-27 09:22:25.614346,1709022145.6143458,-9.765625,1.953125,-16.11328125,-13.671875,0.0,-1.0,1.0,0.0,2.m4v,1.0
2024-02-27 09:22:25.618251,1709022145.618251,-16.6015625,-19.04296875,-33.203125,-41.50390625,0.0,-1.0,1.0,0.0,2.m4v,1.0
2024-02-27 09:22:25.622157,1709022145.622157,-71.2890625,-30.76171875,-29.78515625,-67.3828125,0.0,-1.0,1.0,0.0,2.m4v,1.0
2024-02-27 09:22:25.626063,1709022145.6260629,-34.66796875,-20.01953125,-20.01953125,-27.34375,0.0,-1.0,1.0,0.0,2.m4v,1.0
2024-02-27 09:22:25.629968,1709022145.6299684,7.32421875,-8.7890625,-30.76171875,8.7890625,0.0,-1.0,1.0,0.0,2.m4v,1.0
2024-02-27 09:22:25.633874,1709022145.6338742,0.0,-18.06640625,-36.62109375,-6.8359375,0.0,-1.0,1.0,0.0,2.m4v,1.0
2024-02-27 09:22:25.637780,1709022145.6377797,-18.5546875,-54.19921875,-32.71484375,-31.73828125,0.0,-1.0,1.0,0.0,2.m4v,1.0
2024-02-27 09:22:25.641685,1709022145.6416855,-61.5234375,-55.17578125,-24.4140625,-49.8046875,0.0,-1.0,1.0,0.0,2.m4v,1.0
2024-02-27 09:22:25.645591,1709022145.6455913,-49.8046875,-38.57421875,-1.953125,-53.22265625,0.0,-1.0,1.0,0.0,2.m4v,1.0
2024-02-27 09:22:25.649497,1709022145.6494968,-10.25390625,-20.99609375,9.27734375,-32.2265625,0.0,-1.0,1.0,0.0,2.m4v,1.0
2024-02-27 09:22:25.653402,1709022145.653402,-31.25,-26.85546875,-15.625,-36.62109375,0.0,-1.0,1.0,0.0,2.m4v,1.0
2024-02-27 09:22:25.657308,1709022145.657308,-46.875,-43.45703125,-40.0390625,-31.25,0.0,-1.0,1.0,0.0,2.m4v,1.0
2024-02-27 09:22:25.661213,1709022145.6612134,-49.31640625,-30.2734375,-39.0625,-21.484375,0.0,-1.0,1.0,0.0,2.m4v,1.0
2024-02-27 09:22:25.665119,1709022145.6651192,-45.41015625,-13.18359375,-32.71484375,-35.64453125,0.0,-1.0,1.0,0.0,2.m4v,1.0
2024-02-27 09:22:25.669025,1709022145.6690247,-37.59765625,-9.27734375,-44.921875,-33.69140625,0.0,-1.0,1.0,0.0,2.m4v,1.0
2024-02-27 09:22:25.672930,1709022145.6729305,-4.39453125,-16.6015625,-52.734375,-12.6953125,0.0,-1.0,1.0,0.0,2.m4v,1.0
2024-02-27 09:22:25.676836,1709022145.6768365,28.80859375,-36.1328125,-50.78125,-4.39453125,0.0,-1.0,1.0,0.0,2.m4v,1.0
2024-02-27 09:22:26.016632,1709022146.0166316,-15.625,-23.92578125,-19.53125,-14.16015625,0.0,-1.0,1.0,0.0,2.m4v,1.0
2024-02-27 09:22:26.024443,1709022146.024443,26.85546875,-19.53125,-21.97265625,45.41015625,0.0,-1.0,1.0,0.0,2.m4v,1.0
2024-02-27 09:22:26.032257,1709022146.0322568,-53.7109375,-23.4375,-11.71875,-66.40625,0.0,-1.0,1.0,0.0,2.m4v,1.0
2024-02-27 09:22:26.040068,1709022146.040068,-42.96875,-13.671875,-32.2265625,-68.84765625,0.0,-1.0,1.0,0.0,2.m4v,1.0
2024-02-27 09:22:26.047879,1709022146.0478797,-21.97265625,-6.8359375,-24.4140625,-46.38671875,0.0,-1.0,1.0,0.0,2.m4v,1.0
2024-02-27 09:22:26.055691,1709022146.055691,-41.015625,-27.34375,-46.875,-76.171875,0.0,-1.0,1.0,0.0,2.m4v,1.0
2024-02-27 09:22:26.055691,1709022146.055691,-41.015625,-27.34375,-46.875,-76.171875,0.0,-1.0,1.0,0.0,2.m4v,1.0
2024-02-27 09:22:26.063502,1709022146.0635023,-64.453125,-21.484375,-31.25,-46.38671875,0.0,-1.0,1.0,0.0,2.m4v,1.0
2024-02-27 09:22:26.063502,1709022146.0635023,-64.453125,-21.484375,-31.25,-46.38671875,0.0,-1.0,1.0,0.0,2.m4v,1.0
2024-02-27 09:22:26.071314,1709022146.0713136,-34.66796875,-21.484375,-49.8046875,-47.36328125,0.0,-1.0,1.0,0.0,2.m4v,1.0
2024-02-27 09:22:26.071314,1709022146.0713136,-34.66796875,-21.484375,-49.8046875,-47.36328125,0.0,-1.0,1.0,0.0,2.m4v,1.0
2024-02-27 09:22:26.079125,1709022146.079125,-10.7421875,-15.13671875,-34.1796875,-14.16015625,0.0,-1.0,1.0,0.0,2.m4v,1.0
2024-02-27 09:22:26.079125,1709022146.079125,-10.7421875,-15.13671875,-34.1796875,-14.16015625,0.0,-1.0,1.0,0.0,2.m4v,1.0
2024-02-27 09:22:26.086936,1709022146.0869365,-40.52734375,-19.04296875,-37.109375,-48.828125,0.0,-1.0,1.0,0.0,2.m4v,1.0
2024-02-27 09:22:26.086936,1709022146.0869365,-40.52734375,-19.04296875,-37.109375,-48.828125,0.0,-1.0,1.0,0.0,2.m4v,1.0
2024-02-27 09:22:26.094748,1709022146.0947478,-11.71875,-33.203125,-38.0859375,-49.8046875,0.0,-1.0,1.0,0.0,2.m4v,1.0
2024-02-27 09:22:26.094748,1709022146.0947478,-11.71875,-33.203125,-38.0859375,-49.8046875,0.0,-1.0,1.0,0.0,2.m4v,1.0
2024-02-27 09:22:26.102559,1709022146.102559,-43.9453125,-1.953125,-16.11328125,-34.66796875,0.0,-1.0,1.0,0.0,2.m4v,1.0
2024-02-27 09:22:26.102559,1709022146.102559,-43.9453125,-1.953125,-16.11328125,-34.66796875,0.0,-1.0,1.0,0.0,2.m4v,1.0
2024-02-27 09:22:26.110370,1709022146.1103704,-25.87890625,-26.85546875,-30.76171875,-27.34375,0.0,-1.0,1.0,0.0,2.m4v,1.0
2024-02-27 09:22:26.110370,1709022146.1103704,-25.87890625,-26.85546875,-30.76171875,-27.34375,0.0,-1.0,1.0,0.0,2.m4v,1.0
2024-02-27 09:22:26.118182,1709022146.1181817,-28.80859375,-19.04296875,-48.33984375,-47.8515625,0.0,-1.0,1.0,0.0,2.m4v,1.0
2024-02-27 09:22:26.118182,1709022146.1181817,-28.80859375,-19.04296875,-48.33984375,-47.8515625,0.0,-1.0,1.0,0.0,2.m4v,1.0
2024-02-27 09:22:26.125995,1709022146.125995,26.85546875,16.6015625,9.765625,29.296875,0.0,-1.0,1.0,0.0,2.m4v,1.0
2024-02-27 09:22:26.125995,1709022146.125995,26.85546875,16.6015625,9.765625,29.296875,0.0,-1.0,1.0,0.0,2.m4v,1.0
2024-02-27 09:22:26.133806,1709022146.1338062,-15.625,-26.3671875,-27.34375,-33.203125,0.0,-1.0,1.0,0.0,2.m4v,1.0
2024-02-27 09:22:26.133806,1709022146.1338062,-15.625,-26.3671875,-27.34375,-33.203125,0.0,-1.0,1.0,0.0,2.m4v,1.0
2024-02-27 09:22:26.141618,1709022146.1416178,-53.7109375,-31.73828125,-36.62109375,-48.33984375,0.0,-1.0,1.0,0.0,2.m4v,1.0
2024-02-27 09:22:26.141618,1709022146.1416178,-53.7109375,-31.73828125,-36.62109375,-48.33984375,0.0,-1.0,1.0,0.0,2.m4v,1.0
2024-02-27 09:22:26.149429,1709022146.149429,-41.50390625,-34.66796875,-43.45703125,-27.83203125,0.0,-1.0,1.0,0.0,2.m4v,1.0
2024-02-27 09:22:26.149429,1709022146.149429,-41.50390625,-34.66796875,-43.45703125,-27.83203125,0.0,-1.0,1.0,0.0,2.m4v,1.0
2024-02-27 09:22:26.157240,1709022146.1572404,-19.53125,-35.15625,-5.37109375,-33.69140625,0.0,-1.0,1.0,0.0,2.m4v,1.0
2024-02-27 09:22:26.157240,1709022146.1572404,-19.53125,-35.15625,-5.37109375,-33.69140625,0.0,-1.0,1.0,0.0,2.m4v,1.0
2024-02-27 09:22:26.165052,1709022146.1650517,-21.97265625,-15.13671875,3.41796875,-21.484375,0.0,-1.0,1.0,0.0,2.m4v,1.0
2024-02-27 09:22:26.165052,1709022146.1650517,-21.97265625,-15.13671875,3.41796875,-21.484375,0.0,-1.0,1.0,0.0,2.m4v,1.0
2024-02-27 09:22:26.172864,1709022146.1728644,-46.875,-13.671875,-39.0625,-40.0390625,0.0,-1.0,1.0,0.0,2.m4v,1.0
2024-02-27 09:22:26.172864,1709022146.1728644,-46.875,-13.671875,-39.0625,-40.0390625,0.0,-1.0,1.0,0.0,2.m4v,1.0
2024-02-27 09:22:26.180676,1709022146.180676,-0.48828125,-20.01953125,-37.109375,0.48828125,0.0,-1.0,1.0,0.0,2.m4v,1.0
2024-02-27 09:22:26.180676,1709022146.180676,-0.48828125,-20.01953125,-37.109375,0.48828125,0.0,-1.0,1.0,0.0,2.m4v,1.0
2024-02-27 09:22:26.188487,1709022146.1884873,-28.80859375,-34.66796875,-20.99609375,-7.8125,0.0,-1.0,1.0,0.0,2.m4v,1.0
2024-02-27 09:22:26.188487,1709022146.1884873,-28.80859375,-34.66796875,-20.99609375,-7.8125,0.0,-1.0,1.0,0.0,2.m4v,1.0
2024-02-27 09:22:26.196299,1709022146.1962986,-44.43359375,-35.15625,-32.2265625,-51.7578125,0.0,-1.0,1.0,0.0,2.m4v,1.0
2024-02-27 09:22:26.196299,1709022146.1962986,-44.43359375,-35.15625,-32.2265625,-51.7578125,0.0,-1.0,1.0,0.0,2.m4v,1.0
2024-02-27 09:22:26.204110,1709022146.20411,-58.59375,-27.83203125,-34.1796875,-52.734375,0.0,-1.0,1.0,0.0,2.m4v,1.0
2024-02-27 09:22:26.204110,1709022146.20411,-58.59375,-27.83203125,-34.1796875,-52.734375,0.0,-1.0,1.0,0.0,2.m4v,1.0
2024-02-27 09:22:26.211921,1709022146.2119212,-60.546875,-17.578125,-31.25,-49.31640625,0.0,-1.0,1.0,0.0,2.m4v,1.0
2024-02-27 09:22:26.211921,1709022146.2119212,-60.546875,-17.578125,-31.25,-49.31640625,0.0,-1.0,1.0,0.0,2.m4v,1.0
2024-02-27 09:22:26.219734,1709022146.2197337,-9.765625,-8.30078125,-24.90234375,-4.39453125,0.0,-1.0,1.0,0.0,2.m4v,1.0
2024-02-27 09:22:26.219734,1709022146.2197337,-9.765625,-8.30078125,-24.90234375,-4.39453125,0.0,-1.0,1.0,0.0,2.m4v,1.0
2024-02-27 09:22:26.227545,1709022146.227545,-53.7109375,-56.640625,-34.1796875,-9.765625,0.0,-1.0,1.0,0.0,2.m4v,1.0
2024-02-27 09:22:26.227545,1709022146.227545,-53.7109375,-56.640625,-34.1796875,-9.765625,0.0,-1.0,1.0,0.0,2.m4v,1.0
2024-02-27 09:22:26.235357,1709022146.2353566,-26.3671875,-6.8359375,-14.16015625,-46.38671875,0.0,-1.0,1.0,0.0,2.m4v,1.0
2024-02-27 09:22:26.235357,1709022146.2353566,-26.3671875,-6.8359375,-14.16015625,-46.38671875,0.0,-1.0,1.0,0.0,2.m4v,1.0
2024-02-27 09:22:26.239262,1709022146.239262,-40.52734375,-15.625,-23.92578125,-42.48046875,0.0,-1.0,1.0,0.0,2.m4v,1.0
2024-02-27 09:22:26.243168,1709022146.243168,-94.7265625,-31.25,-51.7578125,-64.94140625,0.0,-1.0,1.0,0.0,2.m4v,1.0
2024-02-27 09:22:26.247073,1709022146.2470734,-71.2890625,-33.69140625,-47.8515625,-53.22265625,0.0,-1.0,1.0,0.0,2.m4v,1.0
2024-02-27 09:22:26.250979,1709022146.2509792,-42.48046875,-44.921875,-42.48046875,-48.828125,0.0,-1.0,1.0,0.0,2.m4v,1.0
2024-02-27 09:22:26.254885,1709022146.254885,-31.73828125,-32.2265625,-42.48046875,-48.33984375,0.0,-1.0,1.0,0.0,2.m4v,1.0
2024-02-27 09:22:26.258790,1709022146.2587905,-6.34765625,-15.625,-22.4609375,-13.671875,0.0,-1.0,1.0,0.0,2.m4v,1.0
2024-02-27 09:22:26.262697,1709022146.262697,0.48828125,4.39453125,2.9296875,9.27734375,0.0,-1.0,1.0,0.0,2.m4v,1.0
2024-02-27 09:22:26.266603,1709022146.2666025,-32.2265625,-18.06640625,-12.20703125,-3.90625,0.0,-1.0,1.0,0.0,2.m4v,1.0
2024-02-27 09:22:26.270508,1709022146.2705083,-21.97265625,-22.94921875,-16.6015625,-12.6953125,0.0,-1.0,1.0,0.0,2.m4v,1.0
2024-02-27 09:22:26.274414,1709022146.2744138,-6.8359375,-16.11328125,-21.97265625,-29.78515625,0.0,-1.0,1.0,0.0,2.m4v,1.0
2024-02-27 09:22:26.278320,1709022146.2783196,-29.78515625,-42.48046875,-39.55078125,-44.43359375,0.0,-1.0,1.0,0.0,2.m4v,1.0
2024-02-27 09:22:26.282225,1709022146.2822254,-64.453125,-40.52734375,-42.48046875,-50.78125,0.0,-1.0,1.0,0.0,2.m4v,1.0
2024-02-27 09:22:26.286131,1709022146.286131,-59.5703125,-26.3671875,-40.0390625,-41.9921875,0.0,-1.0,1.0,0.0,2.m4v,1.0
2024-02-27 09:22:26.290037,1709022146.290037,-35.64453125,-19.53125,-28.3203125,-41.015625,0.0,-1.0,1.0,0.0,2.m4v,1.0
2024-02-27 09:22:26.293942,1709022146.2939422,-34.66796875,-19.53125,-27.34375,-31.25,0.0,-1.0,1.0,0.0,2.m4v,1.0
2024-02-27 09:22:26.297848,1709022146.297848,-23.92578125,-17.08984375,-17.578125,-1.46484375,0.0,-1.0,1.0,0.0,2.m4v,1.0
2024-02-27 09:22:26.301754,1709022146.3017538,-27.34375,-7.8125,-2.44140625,-12.20703125,0.0,-1.0,1.0,0.0,2.m4v,1.0
2024-02-27 09:22:26.305659,1709022146.3056593,-19.04296875,-24.4140625,0.9765625,-24.4140625,0.0,-1.0,1.0,0.0,2.m4v,1.0
2024-02-27 09:22:26.309565,1709022146.3095653,1.46484375,-46.38671875,-3.41796875,-19.53125,0.0,-1.0,1.0,0.0,2.m4v,1.0
2024-02-27 09:22:26.313471,1709022146.313471,-13.18359375,-36.1328125,-27.83203125,-15.13671875,0.0,-1.0,1.0,0.0,2.m4v,1.0
2024-02-27 09:22:26.317377,1709022146.3173766,-29.296875,-10.7421875,-50.29296875,-16.11328125,0.0,-1.0,1.0,0.0,2.m4v,1.0
2024-02-27 09:22:26.321282,1709022146.3212824,-64.453125,-10.7421875,-39.55078125,-43.9453125,0.0,-1.0,1.0,0.0,2.m4v,1.0
2024-02-27 09:22:26.325188,1709022146.3251882,-80.56640625,-28.3203125,-31.73828125,-57.6171875,0.0,-1.0,1.0,0.0,2.m4v,1.0
2024-02-27 09:22:26.329094,1709022146.3290937,-66.40625,-32.71484375,-37.59765625,-51.26953125,0.0,-1.0,1.0,0.0,2.m4v,1.0
2024-02-27 09:22:26.332999,1709022146.3329997,-38.57421875,-29.78515625,-31.25,-45.8984375,0.0,-1.0,1.0,0.0,2.m4v,1.0
2024-02-27 09:22:26.336905,1709022146.336905,-8.7890625,-14.16015625,-23.92578125,-28.80859375,0.0,-1.0,1.0,0.0,2.m4v,1.0
2024-02-27 09:22:26.340811,1709022146.3408108,-28.80859375,-13.18359375,-17.08984375,-15.625,0.0,-1.0,1.0,0.0,2.m4v,1.0
2024-02-27 09:22:26.344717,1709022146.3447163,-38.0859375,-16.6015625,-4.8828125,-17.08984375,0.0,-1.0,1.0,0.0,2.m4v,1.0
2024-02-27 09:22:26.348622,1709022146.348622,-3.90625,-23.92578125,4.39453125,-19.04296875,0.0,-1.0,1.0,0.0,2.m4v,1.0
2024-02-27 09:22:26.352528,1709022146.352528,11.71875,-25.390625,-3.41796875,-18.5546875,0.0,-1.0,1.0,0.0,2.m4v,1.0
2024-02-27 09:22:26.356433,1709022146.3564334,-13.18359375,-10.7421875,-32.2265625,-21.484375,0.0,-1.0,1.0,0.0,2.m4v,1.0
2024-02-27 09:22:26.360339,1709022146.3603392,-22.4609375,-24.4140625,-57.12890625,-18.5546875,0.0,-1.0,1.0,0.0,2.m4v,1.0
2024-02-27 09:22:26.364245,1709022146.3642447,-15.13671875,-22.4609375,-31.73828125,-8.7890625,0.0,-1.0,1.0,0.0,2.m4v,1.0
2024-02-27 09:22:26.368150,1709022146.3681505,-30.2734375,-25.87890625,-11.23046875,-31.73828125,0.0,-1.0,1.0,0.0,2.m4v,1.0
2024-02-27 09:22:26.372056,1709022146.3720562,-19.53125,-27.34375,-6.8359375,-48.33984375,0.0,-1.0,1.0,0.0,2.m4v,1.0
2024-02-27 09:22:26.375962,1709022146.3759618,-20.01953125,-6.8359375,-10.7421875,-24.90234375,0.0,-1.0,1.0,0.0,2.m4v,1.0
2024-02-27 09:22:26.379868,1709022146.3798676,-56.15234375,-30.76171875,-41.015625,-22.4609375,0.0,-1.0,1.0,0.0,2.m4v,1.0
2024-02-27 09:22:26.383773,1709022146.383773,-69.82421875,-44.43359375,-34.66796875,-62.01171875,0.0,-1.0,1.0,0.0,2.m4v,1.0
2024-02-27 09:22:26.387679,1709022146.3876789,-56.15234375,-34.66796875,-19.04296875,-56.640625,0.0,-1.0,1.0,0.0,2.m4v,1.0
2024-02-27 09:22:26.391585,1709022146.3915846,-27.83203125,-27.83203125,-16.11328125,-37.109375,0.0,-1.0,1.0,0.0,2.m4v,1.0
2024-02-27 09:22:26.395490,1709022146.3954902,-31.73828125,-29.296875,-34.1796875,-50.29296875,0.0,-1.0,1.0,0.0,2.m4v,1.0
2024-02-27 09:22:26.399396,1709022146.399396,-47.8515625,-41.015625,-44.43359375,-41.9921875,0.0,-1.0,1.0,0.0,2.m4v,1.0
2024-02-27 09:22:26.403301,1709022146.4033012,-35.15625,-20.5078125,-9.765625,-9.27734375,0.0,-1.0,1.0,0.0,2.m4v,1.0
2024-02-27 09:22:26.407207,1709022146.4072068,-15.625,-11.71875,-6.8359375,-3.41796875,0.0,-1.0,1.0,0.0,2.m4v,1.0
2024-02-27 09:22:26.411113,1709022146.4111123,-14.16015625,-14.6484375,-25.87890625,-22.4609375,0.0,-1.0,1.0,0.0,2.m4v,1.0
2024-02-27 09:22:26.415018,1709022146.4150183,2.9296875,-25.87890625,-25.390625,-35.15625,0.0,-1.0,1.0,0.0,2.m4v,1.0
2024-02-27 09:22:26.418924,1709022146.418924,9.27734375,-37.109375,-13.671875,-12.20703125,0.0,-1.0,1.0,0.0,2.m4v,1.0
2024-02-27 09:22:26.422830,1709022146.4228296,-26.85546875,-36.62109375,-10.25390625,-9.27734375,0.0,-1.0,1.0,0.0,2.m4v,1.0
2024-02-27 09:22:26.825127,1709022146.8251271,-56.640625,-22.4609375,-38.0859375,-34.66796875,0.0,-1.0,1.0,0.0,2.m4v,1.0
2024-02-27 09:22:26.829033,1709022146.829033,-20.01953125,-38.0859375,-29.296875,-1.953125,0.0,-1.0,1.0,0.0,2.m4v,1.0
2024-02-27 09:22:26.832938,1709022146.8329384,15.13671875,-28.80859375,-19.04296875,3.90625,0.0,-1.0,1.0,0.0,2.m4v,1.0
2024-02-27 09:22:26.836844,1709022146.8368442,-5.37109375,-26.85546875,-19.53125,-34.1796875,0.0,-1.0,1.0,0.0,2.m4v,1.0
2024-02-27 09:22:26.840750,1709022146.8407495,-51.7578125,-20.5078125,-18.5546875,-43.45703125,0.0,-1.0,1.0,0.0,2.m4v,1.0
2024-02-27 09:22:26.844656,1709022146.8446555,-24.4140625,-1.953125,-14.6484375,-9.27734375,0.0,-1.0,1.0,0.0,2.m4v,1.0
2024-02-27 09:22:26.848561,1709022146.8485613,-13.18359375,-14.6484375,-11.71875,-15.625,0.0,-1.0,1.0,0.0,2.m4v,1.0
2024-02-27 09:22:26.852467,1709022146.8524668,-39.55078125,-20.99609375,-24.90234375,-46.875,0.0,-1.0,1.0,0.0,2.m4v,1.0
2024-02-27 09:22:26.856373,1709022146.8563726,-18.06640625,-25.87890625,-22.94921875,-36.62109375,0.0,-1.0,1.0,0.0,2.m4v,1.0
2024-02-27 09:22:26.860278,1709022146.860278,-54.6875,-59.5703125,-34.1796875,-36.62109375,0.0,-1.0,1.0,0.0,2.m4v,1.0
2024-02-27 09:22:26.864184,1709022146.864184,-71.77734375,-53.22265625,-53.7109375,-36.62109375,0.0,-1.0,1.0,0.0,2.m4v,1.0
2024-02-27 09:22:26.868090,1709022146.8680897,-18.5546875,-26.85546875,-28.3203125,6.8359375,0.0,-1.0,1.0,0.0,2.m4v,1.0
2024-02-27 09:22:26.871994,1709022146.8719938,-2.44140625,-19.53125,-19.04296875,3.90625,0.0,-1.0,1.0,0.0,2.m4v,1.0
2024-02-27 09:22:26.871994,1709022146.8719938,-2.44140625,-19.53125,-19.04296875,3.90625,0.0,-1.0,1.0,0.0,2.m4v,1.0
2024-02-27 09:22:26.875899,1709022146.8758993,-25.390625,-18.5546875,-20.5078125,-39.55078125,0.0,-1.0,1.0,0.0,2.m4v,1.0
2024-02-27 09:22:26.875899,1709022146.8758993,-25.390625,-18.5546875,-20.5078125,-39.55078125,0.0,-1.0,1.0,0.0,2.m4v,1.0
2024-02-27 09:22:26.879805,1709022146.879805,-47.36328125,-23.4375,-14.6484375,-53.22265625,0.0,-1.0,1.0,0.0,2.m4v,1.0
2024-02-27 09:22:26.879805,1709022146.879805,-47.36328125,-23.4375,-14.6484375,-53.22265625,0.0,-1.0,1.0,0.0,2.m4v,1.0
2024-02-27 09:22:26.883711,1709022146.8837109,-58.59375,-19.04296875,-20.01953125,-37.59765625,0.0,-1.0,1.0,0.0,2.m4v,1.0
2024-02-27 09:22:26.883711,1709022146.8837109,-58.59375,-19.04296875,-20.01953125,-37.59765625,0.0,-1.0,1.0,0.0,2.m4v,1.0
2024-02-27 09:22:26.887616,1709022146.8876164,-31.73828125,-15.13671875,-12.20703125,-20.99609375,0.0,-1.0,1.0,0.0,2.m4v,1.0
2024-02-27 09:22:26.887616,1709022146.8876164,-31.73828125,-15.13671875,-12.20703125,-20.99609375,0.0,-1.0,1.0,0.0,2.m4v,1.0
2024-02-27 09:22:26.891522,1709022146.8915222,-15.13671875,-17.578125,-15.13671875,-46.875,0.0,-1.0,1.0,0.0,2.m4v,1.0
2024-02-27 09:22:26.891522,1709022146.8915222,-15.13671875,-17.578125,-15.13671875,-46.875,0.0,-1.0,1.0,0.0,2.m4v,1.0
2024-02-27 09:22:26.895428,1709022146.8954277,-21.97265625,-16.11328125,-31.73828125,-55.6640625,0.0,-1.0,1.0,0.0,2.m4v,1.0
2024-02-27 09:22:26.895428,1709022146.8954277,-21.97265625,-16.11328125,-31.73828125,-55.6640625,0.0,-1.0,1.0,0.0,2.m4v,1.0
2024-02-27 09:22:26.899333,1709022146.8993337,-39.55078125,-12.6953125,-37.109375,-28.80859375,0.0,-1.0,1.0,0.0,2.m4v,1.0
2024-02-27 09:22:26.899333,1709022146.8993337,-39.55078125,-12.6953125,-37.109375,-28.80859375,0.0,-1.0,1.0,0.0,2.m4v,1.0
2024-02-27 09:22:26.903239,1709022146.9032393,-57.6171875,-27.34375,-29.78515625,-24.90234375,0.0,-1.0,1.0,0.0,2.m4v,1.0
2024-02-27 09:22:26.903239,1709022146.9032393,-57.6171875,-27.34375,-29.78515625,-24.90234375,0.0,-1.0,1.0,0.0,2.m4v,1.0
2024-02-27 09:22:26.907145,1709022146.9071448,-55.17578125,-60.546875,-30.76171875,-37.109375,0.0,-1.0,1.0,0.0,2.m4v,1.0
2024-02-27 09:22:26.907145,1709022146.9071448,-55.17578125,-60.546875,-30.76171875,-37.109375,0.0,-1.0,1.0,0.0,2.m4v,1.0
2024-02-27 09:22:26.911051,1709022146.9110506,-17.08984375,-61.5234375,-24.4140625,-29.296875,0.0,-1.0,1.0,0.0,2.m4v,1.0
2024-02-27 09:22:26.911051,1709022146.9110506,-17.08984375,-61.5234375,-24.4140625,-29.296875,0.0,-1.0,1.0,0.0,2.m4v,1.0
2024-02-27 09:22:26.914956,1709022146.914956,-6.8359375,-36.1328125,-9.765625,-34.66796875,0.0,-1.0,1.0,0.0,2.m4v,1.0
2024-02-27 09:22:26.914956,1709022146.914956,-6.8359375,-36.1328125,-9.765625,-34.66796875,0.0,-1.0,1.0,0.0,2.m4v,1.0
2024-02-27 09:22:26.918864,1709022146.9188635,-22.94921875,-25.87890625,-9.765625,-46.38671875,0.0,-1.0,1.0,0.0,2.m4v,1.0
2024-02-27 09:22:26.918864,1709022146.9188635,-22.94921875,-25.87890625,-9.765625,-46.38671875,0.0,-1.0,1.0,0.0,2.m4v,1.0
2024-02-27 09:22:26.922769,1709022146.922769,-33.69140625,-19.53125,-4.39453125,-21.484375,0.0,-1.0,1.0,0.0,2.m4v,1.0
2024-02-27 09:22:26.922769,1709022146.922769,-33.69140625,-19.53125,-4.39453125,-21.484375,0.0,-1.0,1.0,0.0,2.m4v,1.0
2024-02-27 09:22:26.926675,1709022146.9266748,-55.17578125,-23.92578125,-25.87890625,-31.73828125,0.0,-1.0,1.0,0.0,2.m4v,1.0
2024-02-27 09:22:26.926675,1709022146.9266748,-55.17578125,-23.92578125,-25.87890625,-31.73828125,0.0,-1.0,1.0,0.0,2.m4v,1.0
2024-02-27 09:22:26.930581,1709022146.9305806,-41.50390625,-13.671875,-39.55078125,-47.36328125,0.0,-1.0,1.0,0.0,2.m4v,1.0
2024-02-27 09:22:26.930581,1709022146.9305806,-41.50390625,-13.671875,-39.55078125,-47.36328125,0.0,-1.0,1.0,0.0,2.m4v,1.0
2024-02-27 09:22:26.934486,1709022146.9344862,-11.71875,5.859375,-23.92578125,-21.484375,0.0,-1.0,1.0,0.0,2.m4v,1.0
2024-02-27 09:22:26.934486,1709022146.9344862,-11.71875,5.859375,-23.92578125,-21.484375,0.0,-1.0,1.0,0.0,2.m4v,1.0
2024-02-27 09:22:26.938392,1709022146.938392,-12.6953125,-11.23046875,-29.296875,-20.01953125,0.0,-1.0,1.0,0.0,2.m4v,1.0
2024-02-27 09:22:26.938392,1709022146.938392,-12.6953125,-11.23046875,-29.296875,-20.01953125,0.0,-1.0,1.0,0.0,2.m4v,1.0
2024-02-27 09:22:26.942297,1709022146.9422977,-51.7578125,-39.55078125,-45.41015625,-51.7578125,0.0,-1.0,1.0,0.0,2.m4v,1.0
2024-02-27 09:22:26.942297,1709022146.9422977,-51.7578125,-39.55078125,-45.41015625,-51.7578125,0.0,-1.0,1.0,0.0,2.m4v,1.0
2024-02-27 09:22:26.946203,1709022146.9462032,-64.453125,-46.875,-31.25,-54.19921875,0.0,-1.0,1.0,0.0,2.m4v,1.0
2024-02-27 09:22:26.946203,1709022146.9462032,-64.453125,-46.875,-31.25,-54.19921875,0.0,-1.0,1.0,0.0,2.m4v,1.0
2024-02-27 09:22:26.950109,1709022146.950109,-23.4375,-37.109375,-8.30078125,-33.203125,0.0,-1.0,1.0,0.0,2.m4v,1.0
2024-02-27 09:22:26.950109,1709022146.950109,-23.4375,-37.109375,-8.30078125,-33.203125,0.0,-1.0,1.0,0.0,2.m4v,1.0
2024-02-27 09:22:26.954015,1709022146.9540143,-10.7421875,-22.94921875,-12.6953125,-26.3671875,0.0,-1.0,1.0,0.0,2.m4v,1.0
2024-02-27 09:22:26.954015,1709022146.9540143,-10.7421875,-22.94921875,-12.6953125,-26.3671875,0.0,-1.0,1.0,0.0,2.m4v,1.0
2024-02-27 09:22:26.957920,1709022146.9579203,-16.11328125,-5.37109375,-17.08984375,-24.4140625,0.0,-1.0,1.0,0.0,2.m4v,1.0
2024-02-27 09:22:26.957920,1709022146.9579203,-16.11328125,-5.37109375,-17.08984375,-24.4140625,0.0,-1.0,1.0,0.0,2.m4v,1.0
2024-02-27 09:22:26.961826,1709022146.9618258,-40.0390625,-25.87890625,-13.18359375,-40.0390625,0.0,-1.0,1.0,0.0,2.m4v,1.0
2024-02-27 09:22:26.961826,1709022146.9618258,-40.0390625,-25.87890625,-13.18359375,-40.0390625,0.0,-1.0,1.0,0.0,2.m4v,1.0
2024-02-27 09:22:26.965733,1709022146.9657326,-51.26953125,-40.52734375,-20.01953125,-33.203125,0.0,-1.0,1.0,0.0,2.m4v,1.0
2024-02-27 09:22:26.965733,1709022146.9657326,-51.26953125,-40.52734375,-20.01953125,-33.203125,0.0,-1.0,1.0,0.0,2.m4v,1.0
2024-02-27 09:22:26.969638,1709022146.9696383,-42.48046875,-27.83203125,-28.80859375,-24.4140625,0.0,-1.0,1.0,0.0,2.m4v,1.0
2024-02-27 09:22:26.969638,1709022146.9696383,-42.48046875,-27.83203125,-28.80859375,-24.4140625,0.0,-1.0,1.0,0.0,2.m4v,1.0
2024-02-27 09:22:26.973544,1709022146.973544,-48.33984375,-35.64453125,-52.24609375,-33.69140625,0.0,-1.0,1.0,0.0,2.m4v,1.0
2024-02-27 09:22:26.973544,1709022146.973544,-48.33984375,-35.64453125,-52.24609375,-33.69140625,0.0,-1.0,1.0,0.0,2.m4v,1.0
2024-02-27 09:22:26.977450,1709022146.9774497,-12.6953125,-22.94921875,-53.7109375,-15.13671875,0.0,-1.0,1.0,0.0,2.m4v,1.0
2024-02-27 09:22:26.977450,1709022146.9774497,-12.6953125,-22.94921875,-53.7109375,-15.13671875,0.0,-1.0,1.0,0.0,2.m4v,1.0
2024-02-27 09:22:26.981355,1709022146.9813554,-13.18359375,-31.73828125,-28.3203125,-9.765625,0.0,-1.0,1.0,0.0,2.m4v,1.0
2024-02-27 09:22:26.981355,1709022146.9813554,-13.18359375,-31.73828125,-28.3203125,-9.765625,0.0,-1.0,1.0,0.0,2.m4v,1.0
2024-02-27 09:22:26.985261,1709022146.985261,-41.9921875,-63.96484375,-7.8125,-20.5078125,0.0,-1.0,1.0,0.0,2.m4v,1.0
2024-02-27 09:22:26.985261,1709022146.985261,-41.9921875,-63.96484375,-7.8125,-20.5078125,0.0,-1.0,1.0,0.0,2.m4v,1.0
2024-02-27 09:22:26.989167,1709022146.9891667,-18.5546875,-41.9921875,-9.765625,-36.62109375,0.0,-1.0,1.0,0.0,2.m4v,1.0
2024-02-27 09:22:26.989167,1709022146.9891667,-18.5546875,-41.9921875,-9.765625,-36.62109375,0.0,-1.0,1.0,0.0,2.m4v,1.0
2024-02-27 09:22:26.993073,1709022146.9930725,-4.39453125,-14.6484375,-35.64453125,-31.25,0.0,-1.0,1.0,0.0,2.m4v,1.0
2024-02-27 09:22:26.993073,1709022146.9930725,-4.39453125,-14.6484375,-35.64453125,-31.25,0.0,-1.0,1.0,0.0,2.m4v,1.0
2024-02-27 09:22:26.996978,1709022146.996978,2.44140625,-8.30078125,-26.3671875,-8.30078125,0.0,-1.0,1.0,0.0,2.m4v,1.0
2024-02-27 09:22:26.996978,1709022146.996978,2.44140625,-8.30078125,-26.3671875,-8.30078125,0.0,-1.0,1.0,0.0,2.m4v,1.0
2024-02-27 09:22:27.000884,1709022147.0008838,-56.15234375,-34.66796875,-5.859375,-40.52734375,0.0,-1.0,1.0,0.0,2.m4v,1.0
2024-02-27 09:22:27.000884,1709022147.0008838,-56.15234375,-34.66796875,-5.859375,-40.52734375,0.0,-1.0,1.0,0.0,2.m4v,1.0
2024-02-27 09:22:27.004789,1709022147.0047894,-94.23828125,-33.69140625,4.8828125,-47.36328125,0.0,-1.0,1.0,0.0,2.m4v,1.0
2024-02-27 09:22:27.004789,1709022147.0047894,-94.23828125,-33.69140625,4.8828125,-47.36328125,0.0,-1.0,1.0,0.0,2.m4v,1.0
2024-02-27 09:22:27.008695,1709022147.0086951,-64.94140625,-19.53125,-10.7421875,-47.36328125,0.0,-1.0,1.0,0.0,2.m4v,1.0
2024-02-27 09:22:27.008695,1709022147.0086951,-64.94140625,-19.53125,-10.7421875,-47.36328125,0.0,-1.0,1.0,0.0,2.m4v,1.0
2024-02-27 09:22:27.012601,1709022147.0126014,-69.3359375,-46.875,-40.52734375,-79.1015625,0.0,-1.0,1.0,0.0,2.m4v,1.0
2024-02-27 09:22:27.012601,1709022147.0126014,-69.3359375,-46.875,-40.52734375,-79.1015625,0.0,-1.0,1.0,0.0,2.m4v,1.0
2024-02-27 09:22:27.016507,1709022147.0165071,-80.56640625,-59.08203125,-48.828125,-77.1484375,0.0,-1.0,1.0,0.0,2.m4v,1.0
2024-02-27 09:22:27.016507,1709022147.0165071,-80.56640625,-59.08203125,-48.828125,-77.1484375,0.0,-1.0,1.0,0.0,2.m4v,1.0
2024-02-27 09:22:27.020413,1709022147.020413,-59.5703125,-56.640625,-43.45703125,-50.29296875,0.0,-1.0,1.0,0.0,2.m4v,1.0
2024-02-27 09:22:27.020413,1709022147.020413,-59.5703125,-56.640625,-43.45703125,-50.29296875,0.0,-1.0,1.0,0.0,2.m4v,1.0
2024-02-27 09:22:27.024318,1709022147.0243185,-54.6875,-50.78125,-31.25,-35.64453125,0.0,-1.0,1.0,0.0,2.m4v,1.0
2024-02-27 09:22:27.024318,1709022147.0243185,-54.6875,-50.78125,-31.25,-35.64453125,0.0,-1.0,1.0,0.0,2.m4v,1.0
2024-02-27 09:22:27.028224,1709022147.0282242,-44.921875,-34.66796875,-20.99609375,-20.01953125,0.0,-1.0,1.0,0.0,2.m4v,1.0
2024-02-27 09:22:27.028224,1709022147.0282242,-44.921875,-34.66796875,-20.99609375,-20.01953125,0.0,-1.0,1.0,0.0,2.m4v,1.0
2024-02-27 09:22:27.032130,1709022147.0321298,-13.671875,-24.90234375,-18.5546875,1.46484375,0.0,-1.0,1.0,0.0,2.m4v,1.0
2024-02-27 09:22:27.032130,1709022147.0321298,-13.671875,-24.90234375,-18.5546875,1.46484375,0.0,-1.0,1.0,0.0,2.m4v,1.0
2024-02-27 09:22:27.036036,1709022147.0360355,-18.06640625,-39.0625,-19.53125,-12.20703125,0.0,-1.0,1.0,0.0,2.m4v,1.0
2024-02-27 09:22:27.036036,1709022147.0360355,-18.06640625,-39.0625,-19.53125,-12.20703125,0.0,-1.0,1.0,0.0,2.m4v,1.0
2024-02-27 09:22:27.039941,1709022147.0399413,-38.57421875,-65.91796875,-12.20703125,-38.0859375,0.0,-1.0,1.0,0.0,2.m4v,1.0
2024-02-27 09:22:27.039941,1709022147.0399413,-38.57421875,-65.91796875,-12.20703125,-38.0859375,0.0,-1.0,1.0,0.0,2.m4v,1.0
2024-02-27 09:22:27.043847,1709022147.0438468,-82.03125,-67.3828125,-40.52734375,-55.6640625,0.0,-1.0,1.0,0.0,2.m4v,1.0
2024-02-27 09:22:27.043847,1709022147.0438468,-82.03125,-67.3828125,-40.52734375,-55.6640625,0.0,-1.0,1.0,0.0,2.m4v,1.0
2024-02-27 09:22:27.047753,1709022147.0477526,-78.61328125,-36.62109375,-50.29296875,-59.5703125,0.0,-1.0,1.0,0.0,2.m4v,1.0
2024-02-27 09:22:27.047753,1709022147.0477526,-78.61328125,-36.62109375,-50.29296875,-59.5703125,0.0,-1.0,1.0,0.0,2.m4v,1.0
2024-02-27 09:22:27.051658,1709022147.0516582,-50.78125,-20.5078125,-31.25,-50.78125,0.0,-1.0,1.0,0.0,2.m4v,1.0
2024-02-27 09:22:27.051658,1709022147.0516582,-50.78125,-20.5078125,-31.25,-50.78125,0.0,-1.0,1.0,0.0,2.m4v,1.0
2024-02-27 09:22:27.055564,1709022147.055564,-34.1796875,-21.97265625,-21.484375,-33.69140625,0.0,-1.0,1.0,0.0,2.m4v,1.0
2024-02-27 09:22:27.055564,1709022147.055564,-34.1796875,-21.97265625,-21.484375,-33.69140625,0.0,-1.0,1.0,0.0,2.m4v,1.0
2024-02-27 09:22:27.059470,1709022147.05947,-15.625,-23.92578125,-2.44140625,-13.671875,0.0,-1.0,1.0,0.0,2.m4v,1.0
2024-02-27 09:22:27.059470,1709022147.05947,-15.625,-23.92578125,-2.44140625,-13.671875,0.0,-1.0,1.0,0.0,2.m4v,1.0
2024-02-27 09:22:27.063376,1709022147.0633757,-33.203125,-32.2265625,-16.6015625,-17.578125,0.0,-1.0,1.0,0.0,2.m4v,1.0
2024-02-27 09:22:27.063376,1709022147.0633757,-33.203125,-32.2265625,-16.6015625,-17.578125,0.0,-1.0,1.0,0.0,2.m4v,1.0
2024-02-27 09:22:27.067281,1709022147.0672812,-30.2734375,-46.38671875,-39.55078125,-22.4609375,0.0,-1.0,1.0,0.0,2.m4v,1.0
2024-02-27 09:22:27.067281,1709022147.0672812,-30.2734375,-46.38671875,-39.55078125,-22.4609375,0.0,-1.0,1.0,0.0,2.m4v,1.0
2024-02-27 09:22:27.071187,1709022147.071187,-23.92578125,-56.640625,-42.96875,-25.87890625,0.0,-1.0,1.0,0.0,2.m4v,1.0
2024-02-27 09:22:27.071187,1709022147.071187,-23.92578125,-56.640625,-42.96875,-25.87890625,0.0,-1.0,1.0,0.0,2.m4v,1.0
2024-02-27 09:22:27.075093,1709022147.0750926,-11.23046875,-50.29296875,-25.87890625,-31.25,0.0,-1.0,1.0,0.0,2.m4v,1.0
2024-02-27 09:22:27.075093,1709022147.0750926,-11.23046875,-50.29296875,-25.87890625,-31.25,0.0,-1.0,1.0,0.0,2.m4v,1.0
2024-02-27 09:22:27.078998,1709022147.0789983,-9.27734375,-26.85546875,-11.71875,-29.296875,0.0,-1.0,1.0,0.0,2.m4v,1.0
2024-02-27 09:22:27.078998,1709022147.0789983,-9.27734375,-26.85546875,-11.71875,-29.296875,0.0,-1.0,1.0,0.0,2.m4v,1.0
2024-02-27 09:22:27.082904,1709022147.082904,-50.78125,-26.3671875,-19.04296875,-28.80859375,0.0,-1.0,1.0,0.0,2.m4v,1.0
2024-02-27 09:22:27.082904,1709022147.082904,-50.78125,-26.3671875,-19.04296875,-28.80859375,0.0,-1.0,1.0,0.0,2.m4v,1.0
2024-02-27 09:22:27.086810,1709022147.0868096,-71.77734375,-45.8984375,-25.390625,-35.15625,0.0,-1.0,1.0,0.0,2.m4v,1.0
2024-02-27 09:22:27.086810,1709022147.0868096,-71.77734375,-45.8984375,-25.390625,-35.15625,0.0,-1.0,1.0,0.0,2.m4v,1.0
2024-02-27 09:22:27.090715,1709022147.0907154,-53.7109375,-38.0859375,-38.57421875,-46.38671875,0.0,-1.0,1.0,0.0,2.m4v,1.0
2024-02-27 09:22:27.090715,1709022147.0907154,-53.7109375,-38.0859375,-38.57421875,-46.38671875,0.0,-1.0,1.0,0.0,2.m4v,1.0
2024-02-27 09:22:27.094621,1709022147.094621,-15.625,-13.18359375,-37.59765625,-35.64453125,0.0,-1.0,1.0,0.0,2.m4v,1.0
2024-02-27 09:22:27.094621,1709022147.094621,-15.625,-13.18359375,-37.59765625,-35.64453125,0.0,-1.0,1.0,0.0,2.m4v,1.0
2024-02-27 09:22:27.098527,1709022147.0985267,-5.859375,-22.94921875,-17.578125,-20.01953125,0.0,-1.0,1.0,0.0,2.m4v,1.0
2024-02-27 09:22:27.098527,1709022147.0985267,-5.859375,-22.94921875,-17.578125,-20.01953125,0.0,-1.0,1.0,0.0,2.m4v,1.0
2024-02-27 09:22:27.102432,1709022147.1024325,-33.203125,-44.43359375,-24.90234375,-31.25,0.0,-1.0,1.0,0.0,2.m4v,1.0
2024-02-27 09:22:27.102432,1709022147.1024325,-33.203125,-44.43359375,-24.90234375,-31.25,0.0,-1.0,1.0,0.0,2.m4v,1.0
2024-02-27 09:22:27.106338,1709022147.106338,-53.22265625,-39.55078125,-36.62109375,-38.0859375,0.0,-1.0,1.0,0.0,2.m4v,1.0
2024-02-27 09:22:27.106338,1709022147.106338,-53.22265625,-39.55078125,-36.62109375,-38.0859375,0.0,-1.0,1.0,0.0,2.m4v,1.0
2024-02-27 09:22:27.110244,1709022147.1102438,-36.62109375,-21.97265625,-18.5546875,-27.34375,0.0,-1.0,1.0,0.0,2.m4v,1.0
2024-02-27 09:22:27.110244,1709022147.1102438,-36.62109375,-21.97265625,-18.5546875,-27.34375,0.0,-1.0,1.0,0.0,2.m4v,1.0
2024-02-27 09:22:27.114149,1709022147.114149,-10.7421875,-7.8125,-13.18359375,-23.4375,0.0,-1.0,1.0,0.0,2.m4v,1.0
2024-02-27 09:22:27.114149,1709022147.114149,-10.7421875,-7.8125,-13.18359375,-23.4375,0.0,-1.0,1.0,0.0,2.m4v,1.0
2024-02-27 09:22:27.118055,1709022147.118055,-21.97265625,-24.90234375,-23.4375,-36.1328125,0.0,-1.0,1.0,0.0,2.m4v,1.0
2024-02-27 09:22:27.118055,1709022147.118055,-21.97265625,-24.90234375,-23.4375,-36.1328125,0.0,-1.0,1.0,0.0,2.m4v,1.0
2024-02-27 09:22:27.121961,1709022147.1219609,-55.6640625,-42.48046875,-25.390625,-43.9453125,0.0,-1.0,1.0,0.0,2.m4v,1.0
2024-02-27 09:22:27.121961,1709022147.1219609,-55.6640625,-42.48046875,-25.390625,-43.9453125,0.0,-1.0,1.0,0.0,2.m4v,1.0
2024-02-27 09:22:27.125866,1709022147.1258664,-44.921875,-35.15625,-19.53125,-27.34375,0.0,-1.0,1.0,0.0,2.m4v,1.0
2024-02-27 09:22:27.125866,1709022147.1258664,-44.921875,-35.15625,-19.53125,-27.34375,0.0,-1.0,1.0,0.0,2.m4v,1.0
2024-02-27 09:22:27.129772,1709022147.1297722,12.20703125,-38.0859375,-26.85546875,0.9765625,0.0,-1.0,1.0,0.0,2.m4v,1.0
2024-02-27 09:22:27.129772,1709022147.1297722,12.20703125,-38.0859375,-26.85546875,0.9765625,0.0,-1.0,1.0,0.0,2.m4v,1.0
2024-02-27 09:22:27.133678,1709022147.1336775,22.4609375,-39.55078125,-42.48046875,-8.30078125,0.0,-1.0,1.0,0.0,2.m4v,1.0
2024-02-27 09:22:27.133678,1709022147.1336775,22.4609375,-39.55078125,-42.48046875,-8.30078125,0.0,-1.0,1.0,0.0,2.m4v,1.0
2024-02-27 09:22:27.137583,1709022147.1375835,-30.76171875,-20.5078125,-39.55078125,-24.4140625,0.0,-1.0,1.0,0.0,2.m4v,1.0
2024-02-27 09:22:27.137583,1709022147.1375835,-30.76171875,-20.5078125,-39.55078125,-24.4140625,0.0,-1.0,1.0,0.0,2.m4v,1.0
2024-02-27 09:22:27.141489,1709022147.1414893,-61.03515625,-22.94921875,-27.34375,-36.62109375,0.0,-1.0,1.0,0.0,2.m4v,1.0
2024-02-27 09:22:27.141489,1709022147.1414893,-61.03515625,-22.94921875,-27.34375,-36.62109375,0.0,-1.0,1.0,0.0,2.m4v,1.0
2024-02-27 09:22:27.145395,1709022147.1453948,-78.125,-51.7578125,-18.5546875,-62.5,0.0,-1.0,1.0,0.0,2.m4v,1.0
2024-02-27 09:22:27.145395,1709022147.1453948,-78.125,-51.7578125,-18.5546875,-62.5,0.0,-1.0,1.0,0.0,2.m4v,1.0
2024-02-27 09:22:27.149301,1709022147.1493006,-60.05859375,-56.15234375,-20.99609375,-62.98828125,0.0,-1.0,1.0,0.0,2.m4v,1.0
2024-02-27 09:22:27.149301,1709022147.1493006,-60.05859375,-56.15234375,-20.99609375,-62.98828125,0.0,-1.0,1.0,0.0,2.m4v,1.0
2024-02-27 09:22:27.153206,1709022147.153206,-19.53125,-22.94921875,-20.99609375,-52.734375,0.0,-1.0,1.0,0.0,2.m4v,1.0
2024-02-27 09:22:27.153206,1709022147.153206,-19.53125,-22.94921875,-20.99609375,-52.734375,0.0,-1.0,1.0,0.0,2.m4v,1.0
2024-02-27 09:22:27.856236,1709022147.856236,28.3203125,-29.78515625,-3.90625,42.96875,0.0,-1.0,1.0,0.0,2.m4v,1.0
2024-02-27 09:22:27.860142,1709022147.8601418,-39.55078125,-36.62109375,-30.2734375,22.4609375,0.0,-1.0,1.0,0.0,2.m4v,1.0
2024-02-27 09:22:27.864048,1709022147.8640475,-57.6171875,-19.53125,-48.828125,23.92578125,0.0,-1.0,1.0,0.0,2.m4v,1.0
2024-02-27 09:22:27.867953,1709022147.867953,-43.9453125,-26.3671875,-34.1796875,38.57421875,0.0,-1.0,1.0,0.0,2.m4v,1.0
2024-02-27 09:22:27.871859,1709022147.8718588,-28.3203125,-45.41015625,-30.76171875,24.4140625,0.0,-1.0,1.0,0.0,2.m4v,1.0
2024-02-27 09:22:27.875764,1709022147.8757644,3.41796875,-41.9921875,-40.0390625,27.83203125,0.0,-1.0,1.0,0.0,2.m4v,1.0
2024-02-27 09:22:27.879670,1709022147.87967,-8.30078125,-47.36328125,-23.92578125,36.1328125,0.0,-1.0,1.0,0.0,2.m4v,1.0
2024-02-27 09:22:27.883576,1709022147.883576,-71.2890625,-45.41015625,-21.484375,12.20703125,0.0,-1.0,1.0,0.0,2.m4v,1.0
2024-02-27 09:22:27.887481,1709022147.8874817,-58.10546875,-12.20703125,-14.6484375,19.04296875,0.0,-1.0,1.0,0.0,2.m4v,1.0
2024-02-27 09:22:27.891387,1709022147.8913872,11.23046875,-18.5546875,0.9765625,54.6875,0.0,-1.0,1.0,0.0,2.m4v,1.0
2024-02-27 09:22:27.895293,1709022147.8952928,-26.3671875,-51.26953125,-20.99609375,9.765625,0.0,-1.0,1.0,0.0,2.m4v,1.0
2024-02-27 09:22:27.899199,1709022147.8991983,-86.42578125,-42.48046875,-30.76171875,-39.55078125,0.0,-1.0,1.0,0.0,2.m4v,1.0
2024-02-27 09:22:27.903104,1709022147.9031038,-71.77734375,-20.5078125,-20.01953125,-16.6015625,0.0,-1.0,1.0,0.0,2.m4v,1.0
2024-02-27 09:22:27.907009,1709022147.9070094,-49.8046875,-15.625,-24.90234375,14.16015625,0.0,-1.0,1.0,0.0,2.m4v,1.0
2024-02-27 09:22:27.910915,1709022147.9109151,-23.92578125,-45.41015625,-38.0859375,29.78515625,0.0,-1.0,1.0,0.0,2.m4v,1.0
2024-02-27 09:22:27.914821,1709022147.914821,9.765625,-49.31640625,-32.71484375,31.73828125,0.0,-1.0,1.0,0.0,2.m4v,1.0
2024-02-27 09:22:27.918726,1709022147.9187264,2.9296875,-37.59765625,-20.5078125,20.01953125,0.0,-1.0,1.0,0.0,2.m4v,1.0
2024-02-27 09:22:27.922632,1709022147.9226322,-28.80859375,-34.66796875,-34.1796875,20.01953125,0.0,-1.0,1.0,0.0,2.m4v,1.0
2024-02-27 09:22:27.926538,1709022147.9265378,-22.94921875,-5.859375,-31.73828125,41.015625,0.0,-1.0,1.0,0.0,2.m4v,1.0
2024-02-27 09:22:27.930444,1709022147.9304435,-10.25390625,-18.06640625,-6.8359375,36.62109375,0.0,-1.0,1.0,0.0,2.m4v,1.0
2024-02-27 09:22:27.934349,1709022147.9343493,-30.76171875,-24.90234375,2.9296875,13.671875,0.0,-1.0,1.0,0.0,2.m4v,1.0
2024-02-27 09:22:27.938255,1709022147.9382548,-11.23046875,-13.18359375,-5.37109375,19.04296875,0.0,-1.0,1.0,0.0,2.m4v,1.0
2024-02-27 09:22:27.942161,1709022147.9421606,-17.578125,-35.64453125,-40.52734375,16.6015625,0.0,-1.0,1.0,0.0,2.m4v,1.0
2024-02-27 09:22:27.946066,1709022147.946066,-69.3359375,-30.76171875,-55.17578125,3.41796875,0.0,-1.0,1.0,0.0,2.m4v,1.0
2024-02-27 09:22:27.949971,1709022147.949971,-69.82421875,-27.83203125,-51.26953125,-6.34765625,0.0,-1.0,1.0,0.0,2.m4v,1.0
2024-02-27 09:22:27.953876,1709022147.9538765,-36.1328125,-29.78515625,-29.78515625,-7.32421875,0.0,-1.0,1.0,0.0,2.m4v,1.0
2024-02-27 09:22:27.957782,1709022147.9577825,-58.10546875,-30.2734375,-21.484375,-16.11328125,0.0,-1.0,1.0,0.0,2.m4v,1.0
2024-02-27 09:22:27.961688,1709022147.9616878,-80.56640625,-56.640625,-26.3671875,-18.06640625,0.0,-1.0,1.0,0.0,2.m4v,1.0
2024-02-27 09:22:27.965594,1709022147.9655936,-36.1328125,-54.6875,-2.9296875,13.18359375,0.0,-1.0,1.0,0.0,2.m4v,1.0
2024-02-27 09:22:27.969499,1709022147.969499,-30.76171875,-41.015625,4.39453125,4.8828125,0.0,-1.0,1.0,0.0,2.m4v,1.0
2024-02-27 09:22:27.973405,1709022147.973405,-52.734375,-38.57421875,-28.3203125,-30.76171875,0.0,-1.0,1.0,0.0,2.m4v,1.0
2024-02-27 09:22:27.977311,1709022147.977311,-48.33984375,-19.53125,-51.7578125,-26.85546875,0.0,-1.0,1.0,0.0,2.m4v,1.0
2024-02-27 09:22:27.981216,1709022147.9812162,-63.4765625,-12.20703125,-26.85546875,-16.11328125,0.0,-1.0,1.0,0.0,2.m4v,1.0
2024-02-27 09:22:27.985122,1709022147.985122,-60.546875,-20.99609375,-17.08984375,-13.671875,0.0,-1.0,1.0,0.0,2.m4v,1.0
2024-02-27 09:22:27.989028,1709022147.9890275,-32.2265625,-29.296875,-33.69140625,-5.37109375,0.0,-1.0,1.0,0.0,2.m4v,1.0
2024-02-27 09:22:27.992933,1709022147.9929333,-23.4375,-20.5078125,-32.2265625,-0.48828125,0.0,-1.0,1.0,0.0,2.m4v,1.0
2024-02-27 09:22:27.996841,1709022147.996841,-36.1328125,-18.06640625,-41.015625,-20.5078125,0.0,-1.0,1.0,0.0,2.m4v,1.0
2024-02-27 09:22:28.000746,1709022148.0007465,-47.8515625,-30.2734375,-42.96875,-23.92578125,0.0,-1.0,1.0,0.0,2.m4v,1.0
2024-02-27 09:22:28.004652,1709022148.0046525,-48.828125,-39.55078125,-22.4609375,-18.06640625,0.0,-1.0,1.0,0.0,2.m4v,1.0
2024-02-27 09:22:28.008558,1709022148.0085578,-51.7578125,-52.734375,-12.6953125,-15.625,0.0,-1.0,1.0,0.0,2.m4v,1.0
2024-02-27 09:22:28.012464,1709022148.0124636,-40.52734375,-51.26953125,-25.87890625,-18.06640625,0.0,-1.0,1.0,0.0,2.m4v,1.0
2024-02-27 09:22:28.016369,1709022148.016369,-19.53125,-39.0625,-30.76171875,-13.671875,0.0,-1.0,1.0,0.0,2.m4v,1.0
2024-02-27 09:22:28.020275,1709022148.0202749,-27.34375,-20.01953125,-25.87890625,-5.859375,0.0,-1.0,1.0,0.0,2.m4v,1.0
2024-02-27 09:22:28.024181,1709022148.024181,-53.7109375,-23.4375,-32.71484375,-14.16015625,0.0,-1.0,1.0,0.0,2.m4v,1.0
2024-02-27 09:22:28.028086,1709022148.0280862,-34.66796875,-28.3203125,-31.25,-2.9296875,0.0,-1.0,1.0,0.0,2.m4v,1.0
2024-02-27 09:22:28.031992,1709022148.031992,-24.4140625,-20.99609375,-47.36328125,-7.32421875,0.0,-1.0,1.0,0.0,2.m4v,1.0
2024-02-27 09:22:28.035898,1709022148.0358975,-25.390625,-32.2265625,-46.38671875,-11.71875,0.0,-1.0,1.0,0.0,2.m4v,1.0
2024-02-27 09:22:28.039803,1709022148.0398033,-27.83203125,-45.8984375,-28.80859375,-14.16015625,0.0,-1.0,1.0,0.0,2.m4v,1.0
2024-02-27 09:22:28.043710,1709022148.0437102,-69.3359375,-19.53125,-34.1796875,-24.4140625,0.0,-1.0,1.0,0.0,2.m4v,1.0
2024-02-27 09:22:28.047616,1709022148.047616,-95.21484375,-18.5546875,-40.52734375,-21.484375,0.0,-1.0,1.0,0.0,2.m4v,1.0
2024-02-27 09:22:28.051522,1709022148.0515215,-48.828125,-21.97265625,-33.69140625,-24.90234375,0.0,-1.0,1.0,0.0,2.m4v,1.0
2024-02-27 09:22:28.055427,1709022148.0554273,19.53125,-8.30078125,-12.6953125,-6.34765625,0.0,-1.0,1.0,0.0,2.m4v,1.0
2024-02-27 09:22:28.059333,1709022148.0593328,28.3203125,-38.0859375,8.7890625,18.5546875,0.0,-1.0,1.0,0.0,2.m4v,1.0
2024-02-27 09:22:28.063239,1709022148.0632386,-33.203125,-71.77734375,-7.8125,5.37109375,0.0,-1.0,1.0,0.0,2.m4v,1.0
2024-02-27 09:22:28.067144,1709022148.0671444,-47.8515625,-67.3828125,-31.73828125,-14.16015625,0.0,-1.0,1.0,0.0,2.m4v,1.0
2024-02-27 09:22:28.071050,1709022148.07105,-50.78125,-10.25390625,-35.64453125,-37.109375,0.0,-1.0,1.0,0.0,2.m4v,1.0
2024-02-27 09:22:28.074956,1709022148.0749557,-78.61328125,13.18359375,-37.59765625,-59.5703125,0.0,-1.0,1.0,0.0,2.m4v,1.0
2024-02-27 09:22:28.078861,1709022148.0788612,-87.890625,5.37109375,-49.8046875,-61.03515625,0.0,-1.0,1.0,0.0,2.m4v,1.0
2024-02-27 09:22:28.082767,1709022148.082767,-77.1484375,11.23046875,-54.6875,-33.69140625,0.0,-1.0,1.0,0.0,2.m4v,1.0
2024-02-27 09:22:28.086673,1709022148.0866728,-49.8046875,-4.39453125,-22.94921875,5.859375,0.0,-1.0,1.0,0.0,2.m4v,1.0
2024-02-27 09:22:28.090580,1709022148.0905795,-8.30078125,-42.96875,6.34765625,19.04296875,0.0,-1.0,1.0,0.0,2.m4v,1.0
2024-02-27 09:22:28.094485,1709022148.094485,-13.671875,-52.24609375,3.41796875,-12.6953125,0.0,-1.0,1.0,0.0,2.m4v,1.0
2024-02-27 09:22:28.098391,1709022148.0983908,-63.4765625,-51.7578125,-8.30078125,-40.52734375,0.0,-1.0,1.0,0.0,2.m4v,1.0
2024-02-27 09:22:28.102296,1709022148.1022964,-52.734375,-25.87890625,-20.01953125,-25.390625,0.0,-1.0,1.0,0.0,2.m4v,1.0
2024-02-27 09:22:28.106202,1709022148.106202,-56.640625,-7.32421875,-33.203125,-11.71875,0.0,-1.0,1.0,0.0,2.m4v,1.0
2024-02-27 09:22:28.110108,1709022148.1101077,-78.61328125,-14.16015625,-29.78515625,-33.203125,0.0,-1.0,1.0,0.0,2.m4v,1.0
2024-02-27 09:22:28.114013,1709022148.1140134,-71.2890625,-11.23046875,-30.2734375,-48.33984375,0.0,-1.0,1.0,0.0,2.m4v,1.0
2024-02-27 09:22:28.117919,1709022148.1179192,-99.12109375,-23.4375,-38.0859375,-63.4765625,0.0,-1.0,1.0,0.0,2.m4v,1.0
2024-02-27 09:22:28.121825,1709022148.1218247,-104.00390625,-27.34375,-31.25,-71.77734375,0.0,-1.0,1.0,0.0,2.m4v,1.0
