Timestamp,Timestamp_UNIX,TP9,AF7,AF8,TP10,Valence,Arousal,Dominace,Viewed,Video,Participant
2024-02-28 15:02:01.000524,1709128921.0005243,-85.44921875,-62.5,-12.6953125,-9.27734375,-1.0,0.0,0.0,0.0,9.m4v,11.0
2024-02-28 15:02:01.004428,1709128921.0044284,-172.36328125,-10.25390625,-2.44140625,-41.50390625,-1.0,0.0,0.0,0.0,9.m4v,11.0
2024-02-28 15:02:01.008332,1709128921.0083325,-278.3203125,-3.90625,-31.25,-29.78515625,-1.0,0.0,0.0,0.0,9.m4v,11.0
2024-02-28 15:02:01.012237,1709128921.0122366,-260.7421875,-16.6015625,-46.875,-4.8828125,-1.0,0.0,0.0,0.0,9.m4v,11.0
2024-02-28 15:02:01.016141,1709128921.016141,-75.68359375,-23.92578125,4.8828125,2.9296875,-1.0,0.0,0.0,0.0,9.m4v,11.0
2024-02-28 15:02:01.020045,1709128921.020045,-17.578125,-24.90234375,14.16015625,-11.71875,-1.0,0.0,0.0,0.0,9.m4v,11.0
2024-02-28 15:02:01.023949,1709128921.0239491,-139.16015625,-32.71484375,1.953125,-38.0859375,-1.0,0.0,0.0,0.0,9.m4v,11.0
2024-02-28 15:02:01.027853,1709128921.0278533,-310.546875,-49.8046875,1.953125,-51.7578125,-1.0,0.0,0.0,0.0,9.m4v,11.0
2024-02-28 15:02:01.031757,1709128921.0317574,-250.48828125,-50.78125,3.90625,-31.25,-1.0,0.0,0.0,0.0,9.m4v,11.0
2024-02-28 15:02:01.035662,1709128921.0356617,-87.890625,-40.52734375,-1.46484375,-36.62109375,-1.0,0.0,0.0,0.0,9.m4v,11.0
2024-02-28 15:02:01.039566,1709128921.0395658,-106.4453125,-37.109375,-7.8125,-80.078125,-1.0,0.0,0.0,0.0,9.m4v,11.0
2024-02-28 15:02:01.043470,1709128921.04347,-204.58984375,-34.1796875,-12.20703125,-93.26171875,-1.0,0.0,0.0,0.0,9.m4v,11.0
2024-02-28 15:02:01.047390,1709128921.0473895,-264.6484375,-44.921875,-12.20703125,-59.5703125,-1.0,0.0,0.0,0.0,9.m4v,11.0
2024-02-28 15:02:01.051294,1709128921.0512936,-215.33203125,-66.89453125,-5.37109375,-14.16015625,-1.0,0.0,0.0,0.0,9.m4v,11.0
2024-02-28 15:02:01.055198,1709128921.0551977,-87.890625,-53.22265625,-9.765625,-5.37109375,-1.0,0.0,0.0,0.0,9.m4v,11.0
2024-02-28 15:02:01.059102,1709128921.0591018,-105.46875,-32.71484375,-22.94921875,-34.66796875,-1.0,0.0,0.0,0.0,9.m4v,11.0
2024-02-28 15:02:01.063006,1709128921.0630062,-235.3515625,-34.1796875,-23.4375,-59.08203125,-1.0,0.0,0.0,0.0,9.m4v,11.0
2024-02-28 15:02:01.066910,1709128921.0669105,-281.25,-32.2265625,-11.23046875,-47.8515625,-1.0,0.0,0.0,0.0,9.m4v,11.0
2024-02-28 15:02:01.070814,1709128921.0708144,-261.23046875,-33.203125,-14.16015625,-23.92578125,-1.0,0.0,0.0,0.0,9.m4v,11.0
2024-02-28 15:02:01.074718,1709128921.0747185,-151.85546875,-36.1328125,-20.99609375,-5.37109375,-1.0,0.0,0.0,0.0,9.m4v,11.0
2024-02-28 15:02:01.078623,1709128921.0786228,-148.4375,-42.96875,-18.06640625,-22.4609375,-1.0,0.0,0.0,0.0,9.m4v,11.0
2024-02-28 15:02:01.082527,1709128921.082527,-242.67578125,-46.875,-16.11328125,-43.45703125,-1.0,0.0,0.0,0.0,9.m4v,11.0
2024-02-28 15:02:01.086431,1709128921.086431,-303.7109375,-41.50390625,-14.16015625,-33.203125,-1.0,0.0,0.0,0.0,9.m4v,11.0
2024-02-28 15:02:01.090335,1709128921.0903351,-364.74609375,-43.45703125,-19.04296875,-30.2734375,-1.0,0.0,0.0,0.0,9.m4v,11.0
2024-02-28 15:02:01.094253,1709128921.0942526,-235.83984375,-44.43359375,-19.04296875,-13.671875,-1.0,0.0,0.0,0.0,9.m4v,11.0
2024-02-28 15:02:01.098157,1709128921.0981567,-138.671875,-43.9453125,-28.3203125,-14.6484375,-1.0,0.0,0.0,0.0,9.m4v,11.0
2024-02-28 15:02:01.102061,1709128921.1020608,-229.00390625,-41.015625,-30.2734375,-33.203125,-1.0,0.0,0.0,0.0,9.m4v,11.0
2024-02-28 15:02:01.105965,1709128921.105965,-338.37890625,-39.0625,-13.671875,-35.15625,-1.0,0.0,0.0,0.0,9.m4v,11.0
2024-02-28 15:02:01.109869,1709128921.1098692,-360.3515625,-34.1796875,-19.53125,-23.4375,-1.0,0.0,0.0,0.0,9.m4v,11.0
2024-02-28 15:02:01.113773,1709128921.113773,-172.8515625,-34.1796875,-28.80859375,5.37109375,-1.0,0.0,0.0,0.0,9.m4v,11.0
2024-02-28 15:02:01.117677,1709128921.1176777,-87.890625,-45.41015625,-36.62109375,-7.32421875,-1.0,0.0,0.0,0.0,9.m4v,11.0
2024-02-28 15:02:01.121582,1709128921.1215816,-254.8828125,-52.24609375,-37.109375,-46.38671875,-1.0,0.0,0.0,0.0,9.m4v,11.0
2024-02-28 15:02:01.125486,1709128921.125486,-347.65625,-55.17578125,-22.4609375,-34.1796875,-1.0,0.0,0.0,0.0,9.m4v,11.0
2024-02-28 15:02:01.129390,1709128921.12939,-380.37109375,-53.7109375,-20.01953125,-12.6953125,-1.0,0.0,0.0,0.0,9.m4v,11.0
2024-02-28 15:02:01.133294,1709128921.133294,-317.3828125,-53.22265625,-32.2265625,1.46484375,-1.0,0.0,0.0,0.0,9.m4v,11.0
2024-02-28 15:02:01.137198,1709128921.1371982,-170.8984375,-51.7578125,-24.4140625,13.18359375,-1.0,0.0,0.0,0.0,9.m4v,11.0
2024-02-28 15:02:01.141128,1709128921.1411276,-214.35546875,-52.24609375,-17.578125,-10.7421875,-1.0,0.0,0.0,0.0,9.m4v,11.0
2024-02-28 15:02:01.145032,1709128921.145032,-362.79296875,-57.6171875,-38.0859375,-25.87890625,-1.0,0.0,0.0,0.0,9.m4v,11.0
2024-02-28 15:02:01.148936,1709128921.148936,-449.21875,-62.01171875,-35.15625,-19.53125,-1.0,0.0,0.0,0.0,9.m4v,11.0
2024-02-28 15:02:01.152840,1709128921.15284,-360.83984375,-56.640625,-11.23046875,-1.953125,-1.0,0.0,0.0,0.0,9.m4v,11.0
2024-02-28 15:02:01.156744,1709128921.1567442,-196.2890625,-41.9921875,-14.6484375,10.25390625,-1.0,0.0,0.0,0.0,9.m4v,11.0
2024-02-28 15:02:01.160649,1709128921.1606486,-211.42578125,-38.0859375,-21.484375,-14.6484375,-1.0,0.0,0.0,0.0,9.m4v,11.0
2024-02-28 15:02:01.164553,1709128921.1645527,-353.515625,-42.96875,-24.90234375,-35.64453125,-1.0,0.0,0.0,0.0,9.m4v,11.0
2024-02-28 15:02:01.168457,1709128921.1684568,-463.8671875,-41.9921875,-29.296875,-20.5078125,-1.0,0.0,0.0,0.0,9.m4v,11.0
2024-02-28 15:02:01.172361,1709128921.172361,-358.3984375,-45.8984375,-28.80859375,1.953125,-1.0,0.0,0.0,0.0,9.m4v,11.0
2024-02-28 15:02:01.176265,1709128921.1762652,-210.9375,-51.26953125,-35.64453125,-8.7890625,-1.0,0.0,0.0,0.0,9.m4v,11.0
2024-02-28 15:02:01.180169,1709128921.180169,-270.99609375,-51.26953125,-42.48046875,-32.2265625,-1.0,0.0,0.0,0.0,9.m4v,11.0
2024-02-28 15:02:01.184073,1709128921.1840734,-362.79296875,-54.19921875,-38.0859375,-33.69140625,-1.0,0.0,0.0,0.0,9.m4v,11.0
2024-02-28 15:02:01.188002,1709128921.188002,-405.76171875,-56.15234375,-27.34375,-23.4375,-1.0,0.0,0.0,0.0,9.m4v,11.0
2024-02-28 15:02:01.191906,1709128921.1919062,-375.9765625,-49.31640625,-25.390625,-14.16015625,-1.0,0.0,0.0,0.0,9.m4v,11.0
2024-02-28 15:02:01.195811,1709128921.1958106,-261.23046875,-33.69140625,-31.73828125,-20.5078125,-1.0,0.0,0.0,0.0,9.m4v,11.0
2024-02-28 15:02:01.199715,1709128921.199715,-250.9765625,-28.3203125,-31.73828125,-36.1328125,-1.0,0.0,0.0,0.0,9.m4v,11.0
2024-02-28 15:02:01.203619,1709128921.2036188,-357.91015625,-29.78515625,-27.83203125,-42.96875,-1.0,0.0,0.0,0.0,9.m4v,11.0
2024-02-28 15:02:01.207523,1709128921.2075229,-419.43359375,-22.4609375,-21.97265625,-32.71484375,-1.0,0.0,0.0,0.0,9.m4v,11.0
2024-02-28 15:02:01.211427,1709128921.2114272,-347.16796875,-26.3671875,-23.92578125,-20.99609375,-1.0,0.0,0.0,0.0,9.m4v,11.0
2024-02-28 15:02:01.215331,1709128921.2153313,-231.4453125,-34.1796875,-29.78515625,-20.99609375,-1.0,0.0,0.0,0.0,9.m4v,11.0
2024-02-28 15:02:01.219235,1709128921.2192354,-223.14453125,-37.109375,-38.0859375,-42.96875,-1.0,0.0,0.0,0.0,9.m4v,11.0
2024-02-28 15:02:01.223140,1709128921.2231395,-349.12109375,-39.0625,-41.9921875,-82.51953125,-1.0,0.0,0.0,0.0,9.m4v,11.0
2024-02-28 15:02:01.227044,1709128921.227044,-490.234375,-44.921875,-45.41015625,-80.078125,-1.0,0.0,0.0,0.0,9.m4v,11.0
2024-02-28 15:02:01.230948,1709128921.230948,-459.47265625,-47.8515625,-38.0859375,-37.109375,-1.0,0.0,0.0,0.0,9.m4v,11.0
2024-02-28 15:02:01.234874,1709128921.234874,-261.71875,-38.57421875,-50.29296875,-10.7421875,-1.0,0.0,0.0,0.0,9.m4v,11.0
2024-02-28 15:02:01.238778,1709128921.238778,-187.01171875,-38.57421875,-45.8984375,-38.0859375,-1.0,0.0,0.0,0.0,9.m4v,11.0
2024-02-28 15:02:01.242682,1709128921.2426825,-257.32421875,-40.52734375,-9.27734375,-42.48046875,-1.0,0.0,0.0,0.0,9.m4v,11.0
2024-02-28 15:02:01.246587,1709128921.2465866,-307.12890625,-39.55078125,-27.83203125,-17.08984375,-1.0,0.0,0.0,0.0,9.m4v,11.0
2024-02-28 15:02:01.250491,1709128921.250491,-363.76953125,-41.015625,-28.3203125,-40.0390625,-1.0,0.0,0.0,0.0,9.m4v,11.0
2024-02-28 15:02:01.254395,1709128921.2543948,-250.9765625,-35.64453125,-27.34375,-45.41015625,-1.0,0.0,0.0,0.0,9.m4v,11.0
2024-02-28 15:02:01.258299,1709128921.258299,-175.29296875,-27.83203125,-53.22265625,-33.69140625,-1.0,0.0,0.0,0.0,9.m4v,11.0
2024-02-28 15:02:01.262203,1709128921.2622032,-325.1953125,-38.0859375,-12.6953125,-47.8515625,-1.0,0.0,0.0,0.0,9.m4v,11.0
2024-02-28 15:02:01.266107,1709128921.266107,-460.44921875,-42.48046875,-1.46484375,-75.1953125,-1.0,0.0,0.0,0.0,9.m4v,11.0
2024-02-28 15:02:01.270011,1709128921.2700114,-462.890625,-44.921875,-20.01953125,-60.05859375,-1.0,0.0,0.0,0.0,9.m4v,11.0
2024-02-28 15:02:01.273916,1709128921.2739158,-350.09765625,-46.38671875,-20.01953125,-39.55078125,-1.0,0.0,0.0,0.0,9.m4v,11.0
2024-02-28 15:02:01.277820,1709128921.27782,-327.63671875,-36.1328125,-36.1328125,-57.6171875,-1.0,0.0,0.0,0.0,9.m4v,11.0
2024-02-28 15:02:01.281744,1709128921.2817442,-372.55859375,-30.2734375,-37.109375,-62.98828125,-1.0,0.0,0.0,0.0,9.m4v,11.0
2024-02-28 15:02:01.285649,1709128921.2856486,-438.4765625,-33.203125,-35.64453125,-61.5234375,-1.0,0.0,0.0,0.0,9.m4v,11.0
2024-02-28 15:02:01.289553,1709128921.2895527,-462.890625,-34.1796875,-50.29296875,-49.8046875,-1.0,0.0,0.0,0.0,9.m4v,11.0
2024-02-28 15:02:01.293457,1709128921.2934568,-338.37890625,-40.0390625,-46.38671875,-48.33984375,-1.0,0.0,0.0,0.0,9.m4v,11.0
2024-02-28 15:02:01.297361,1709128921.297361,-238.76953125,-42.96875,-23.92578125,-64.94140625,-1.0,0.0,0.0,0.0,9.m4v,11.0
2024-02-28 15:02:01.301265,1709128921.3012652,-293.9453125,-33.69140625,-33.203125,-75.1953125,-1.0,0.0,0.0,0.0,9.m4v,11.0
2024-02-28 15:02:01.305169,1709128921.305169,-391.6015625,-32.71484375,-37.59765625,-59.08203125,-1.0,0.0,0.0,0.0,9.m4v,11.0
2024-02-28 15:02:01.309073,1709128921.3090734,-461.9140625,-43.9453125,-11.71875,-60.546875,-1.0,0.0,0.0,0.0,9.m4v,11.0
2024-02-28 15:02:01.312978,1709128921.3129776,-388.18359375,-50.29296875,-45.8984375,-60.05859375,-1.0,0.0,0.0,0.0,9.m4v,11.0
2024-02-28 15:02:01.316882,1709128921.316882,-244.62890625,-47.36328125,-60.05859375,-50.78125,-1.0,0.0,0.0,0.0,9.m4v,11.0
2024-02-28 15:02:01.320786,1709128921.320786,-265.625,-46.875,-24.90234375,-75.1953125,-1.0,0.0,0.0,0.0,9.m4v,11.0
2024-02-28 15:02:01.324690,1709128921.32469,-369.140625,-48.33984375,-29.296875,-81.0546875,-1.0,0.0,0.0,0.0,9.m4v,11.0
2024-02-28 15:02:01.328614,1709128921.328614,-427.734375,-48.828125,-44.43359375,-64.453125,-1.0,0.0,0.0,0.0,9.m4v,11.0
2024-02-28 15:02:01.332518,1709128921.332518,-314.94140625,-43.9453125,-41.015625,-47.8515625,-1.0,0.0,0.0,0.0,9.m4v,11.0
2024-02-28 15:02:01.336422,1709128921.3364222,-164.0625,-43.9453125,-30.76171875,-46.875,-1.0,0.0,0.0,0.0,9.m4v,11.0
2024-02-28 15:02:01.340327,1709128921.3403263,-188.96484375,-40.52734375,-22.4609375,-77.1484375,-1.0,0.0,0.0,0.0,9.m4v,11.0
2024-02-28 15:02:01.344231,1709128921.344231,-311.5234375,-30.76171875,-50.29296875,-93.75,-1.0,0.0,0.0,0.0,9.m4v,11.0
2024-02-28 15:02:01.348135,1709128921.3481348,-349.12109375,-45.41015625,-59.5703125,-70.80078125,-1.0,0.0,0.0,0.0,9.m4v,11.0
2024-02-28 15:02:01.352039,1709128921.3520389,-202.63671875,-49.31640625,-16.6015625,-34.1796875,-1.0,0.0,0.0,0.0,9.m4v,11.0
2024-02-28 15:02:01.355943,1709128921.3559432,-134.27734375,-37.59765625,-22.94921875,-44.921875,-1.0,0.0,0.0,0.0,9.m4v,11.0
2024-02-28 15:02:01.359847,1709128921.3598473,-225.09765625,-41.50390625,-34.66796875,-73.73046875,-1.0,0.0,0.0,0.0,9.m4v,11.0
2024-02-28 15:02:01.363751,1709128921.3637514,-290.52734375,-41.9921875,-20.99609375,-85.44921875,-1.0,0.0,0.0,0.0,9.m4v,11.0
2024-02-28 15:02:01.367656,1709128921.3676555,-355.46875,-40.52734375,-19.04296875,-85.9375,-1.0,0.0,0.0,0.0,9.m4v,11.0
2024-02-28 15:02:01.371560,1709128921.37156,-276.85546875,-37.59765625,-16.11328125,-49.8046875,-1.0,0.0,0.0,0.0,9.m4v,11.0
2024-02-28 15:02:01.375482,1709128921.3754816,-98.14453125,-34.1796875,-44.43359375,-45.41015625,-1.0,0.0,0.0,0.0,9.m4v,11.0
2024-02-28 15:02:01.379386,1709128921.3793857,-143.06640625,-37.59765625,-62.5,-93.26171875,-1.0,0.0,0.0,0.0,9.m4v,11.0
2024-02-28 15:02:01.383290,1709128921.38329,-249.0234375,-42.48046875,-20.99609375,-107.91015625,-1.0,0.0,0.0,0.0,9.m4v,11.0
2024-02-28 15:02:01.387194,1709128921.3871942,-287.109375,-38.57421875,-6.8359375,-89.84375,-1.0,0.0,0.0,0.0,9.m4v,11.0
2024-02-28 15:02:01.391098,1709128921.3910985,-231.93359375,-34.66796875,-38.0859375,-67.3828125,-1.0,0.0,0.0,0.0,9.m4v,11.0
2024-02-28 15:02:01.395002,1709128921.3950024,-12.6953125,-33.203125,-29.78515625,-36.62109375,-1.0,0.0,0.0,0.0,9.m4v,11.0
2024-02-28 15:02:01.398907,1709128921.3989067,-6.8359375,-37.59765625,-24.4140625,-33.203125,-1.0,0.0,0.0,0.0,9.m4v,11.0
2024-02-28 15:02:01.402811,1709128921.4028108,-228.515625,-54.6875,-32.71484375,-69.3359375,-1.0,0.0,0.0,0.0,9.m4v,11.0
2024-02-28 15:02:01.406715,1709128921.406715,-359.375,-56.640625,-54.19921875,-72.265625,-1.0,0.0,0.0,0.0,9.m4v,11.0
2024-02-28 15:02:01.410619,1709128921.410619,-302.24609375,-45.8984375,-53.7109375,-35.64453125,-1.0,0.0,0.0,0.0,9.m4v,11.0
2024-02-28 15:02:01.414523,1709128921.4145234,-114.2578125,-39.0625,-13.18359375,-21.484375,-1.0,0.0,0.0,0.0,9.m4v,11.0
2024-02-28 15:02:01.418427,1709128921.4184277,-89.84375,-40.52734375,-8.30078125,-46.875,-1.0,0.0,0.0,0.0,9.m4v,11.0
2024-02-28 15:02:01.422350,1709128921.4223497,-206.54296875,-47.36328125,-35.64453125,-66.89453125,-1.0,0.0,0.0,0.0,9.m4v,11.0
2024-02-28 15:02:01.426254,1709128921.4262538,-286.62109375,-49.31640625,-46.875,-50.29296875,-1.0,0.0,0.0,0.0,9.m4v,11.0
2024-02-28 15:02:01.430158,1709128921.430158,-279.296875,-45.8984375,-25.87890625,-18.06640625,-1.0,0.0,0.0,0.0,9.m4v,11.0
2024-02-28 15:02:01.434062,1709128921.4340622,-138.671875,-52.734375,-39.0625,7.8125,-1.0,0.0,0.0,0.0,9.m4v,11.0
2024-02-28 15:02:01.437966,1709128921.4379663,-97.16796875,-54.19921875,-47.8515625,-2.44140625,-1.0,0.0,0.0,0.0,9.m4v,11.0
2024-02-28 15:02:01.441870,1709128921.4418705,-174.31640625,-32.71484375,-37.59765625,-29.78515625,-1.0,0.0,0.0,0.0,9.m4v,11.0
2024-02-28 15:02:01.445775,1709128921.4457748,-267.578125,-25.390625,-38.0859375,-37.59765625,-1.0,0.0,0.0,0.0,9.m4v,11.0
2024-02-28 15:02:01.449679,1709128921.449679,-358.88671875,-74.70703125,-37.59765625,-43.9453125,-1.0,0.0,0.0,0.0,9.m4v,11.0
2024-02-28 15:02:01.453583,1709128921.453583,-207.03125,-94.23828125,-28.3203125,-20.99609375,-1.0,0.0,0.0,0.0,9.m4v,11.0
2024-02-28 15:02:01.457487,1709128921.457487,-70.80078125,-57.12890625,-20.5078125,-7.32421875,-1.0,0.0,0.0,0.0,9.m4v,11.0
2024-02-28 15:02:01.461391,1709128921.4613914,-166.50390625,-47.8515625,-30.2734375,-44.921875,-1.0,0.0,0.0,0.0,9.m4v,11.0
2024-02-28 15:02:01.465296,1709128921.4652956,-325.68359375,-43.9453125,-28.80859375,-62.98828125,-1.0,0.0,0.0,0.0,9.m4v,11.0
2024-02-28 15:02:01.469213,1709128921.4692132,-416.015625,-13.671875,-30.2734375,-55.17578125,-1.0,0.0,0.0,0.0,9.m4v,11.0
2024-02-28 15:02:01.473117,1709128921.4731174,-233.3984375,7.32421875,-48.828125,-25.390625,-1.0,0.0,0.0,0.0,9.m4v,11.0
2024-02-28 15:02:01.477021,1709128921.4770217,-96.6796875,-15.625,-82.51953125,-27.83203125,-1.0,0.0,0.0,0.0,9.m4v,11.0
2024-02-28 15:02:01.480926,1709128921.4809256,-155.2734375,-36.62109375,-42.96875,-37.59765625,-1.0,0.0,0.0,0.0,9.m4v,11.0
2024-02-28 15:02:01.484830,1709128921.48483,-179.6875,-54.6875,-1.46484375,-19.04296875,-1.0,0.0,0.0,0.0,9.m4v,11.0
2024-02-28 15:02:01.488734,1709128921.488734,-217.7734375,-75.68359375,-26.3671875,-40.0390625,-1.0,0.0,0.0,0.0,9.m4v,11.0
2024-02-28 15:02:01.492638,1709128921.492638,-168.45703125,-39.55078125,-55.17578125,-23.4375,-1.0,0.0,0.0,0.0,9.m4v,11.0
2024-02-28 15:02:01.496542,1709128921.4965425,-102.05078125,-11.71875,-40.0390625,-16.6015625,-1.0,0.0,0.0,0.0,9.m4v,11.0
2024-02-28 15:02:01.500447,1709128921.5004466,-150.87890625,-25.390625,-28.80859375,-58.10546875,-1.0,0.0,0.0,0.0,9.m4v,11.0
2024-02-28 15:02:01.504351,1709128921.504351,-260.7421875,-57.6171875,-73.73046875,-88.37890625,-1.0,0.0,0.0,0.0,9.m4v,11.0
2024-02-28 15:02:01.508255,1709128921.5082548,-294.921875,-48.828125,-57.12890625,-57.12890625,-1.0,0.0,0.0,0.0,9.m4v,11.0
2024-02-28 15:02:01.512159,1709128921.512159,-163.57421875,-15.13671875,-18.06640625,-19.53125,-1.0,0.0,0.0,0.0,9.m4v,11.0
2024-02-28 15:02:01.516089,1709128921.5160887,-72.265625,-18.5546875,-32.71484375,-34.66796875,-1.0,0.0,0.0,0.0,9.m4v,11.0
2024-02-28 15:02:01.519993,1709128921.5199928,-123.53515625,-34.1796875,-31.25,-90.33203125,-1.0,0.0,0.0,0.0,9.m4v,11.0
2024-02-28 15:02:01.523897,1709128921.5238972,-213.8671875,-37.109375,-5.859375,-97.16796875,-1.0,0.0,0.0,0.0,9.m4v,11.0
2024-02-28 15:02:01.527801,1709128921.5278013,-238.28125,-34.66796875,-20.01953125,-41.50390625,-1.0,0.0,0.0,0.0,9.m4v,11.0
2024-02-28 15:02:01.531705,1709128921.5317054,-150.87890625,-54.19921875,-6.34765625,-38.57421875,-1.0,0.0,0.0,0.0,9.m4v,11.0
2024-02-28 15:02:01.535610,1709128921.5356095,-0.48828125,-44.43359375,-0.9765625,-38.0859375,-1.0,0.0,0.0,0.0,9.m4v,11.0
2024-02-28 15:02:01.539514,1709128921.5395138,-58.59375,-24.90234375,-20.99609375,-56.15234375,-1.0,0.0,0.0,0.0,9.m4v,11.0
2024-02-28 15:02:01.543418,1709128921.543418,-196.2890625,-35.15625,-45.8984375,-69.3359375,-1.0,0.0,0.0,0.0,9.m4v,11.0
2024-02-28 15:02:01.547322,1709128921.547322,-225.5859375,-38.57421875,-51.26953125,-44.43359375,-1.0,0.0,0.0,0.0,9.m4v,11.0
2024-02-28 15:02:01.551226,1709128921.5512264,-161.62109375,-41.50390625,-44.43359375,-24.4140625,-1.0,0.0,0.0,0.0,9.m4v,11.0
2024-02-28 15:02:01.555130,1709128921.5551305,-45.41015625,-42.96875,-46.38671875,-34.1796875,-1.0,0.0,0.0,0.0,9.m4v,11.0
2024-02-28 15:02:01.559035,1709128921.5590346,-102.05078125,-47.8515625,-64.453125,-77.1484375,-1.0,0.0,0.0,0.0,9.m4v,11.0
2024-02-28 15:02:01.562963,1709128921.5629628,-225.5859375,-51.7578125,-74.21875,-102.05078125,-1.0,0.0,0.0,0.0,9.m4v,11.0
2024-02-28 15:02:01.566867,1709128921.5668669,-265.13671875,-58.59375,-45.8984375,-87.890625,-1.0,0.0,0.0,0.0,9.m4v,11.0
2024-02-28 15:02:01.570771,1709128921.570771,-176.26953125,-67.87109375,-29.296875,-58.59375,-1.0,0.0,0.0,0.0,9.m4v,11.0
2024-02-28 15:02:01.574675,1709128921.574675,-16.6015625,-54.19921875,-40.52734375,-48.33984375,-1.0,0.0,0.0,0.0,9.m4v,11.0
2024-02-28 15:02:01.578579,1709128921.5785794,2.9296875,-46.875,-58.10546875,-60.05859375,-1.0,0.0,0.0,0.0,9.m4v,11.0
2024-02-28 15:02:01.582484,1709128921.5824835,-71.2890625,-60.546875,-59.08203125,-53.7109375,-1.0,0.0,0.0,0.0,9.m4v,11.0
2024-02-28 15:02:01.586388,1709128921.5863876,-195.3125,-56.640625,-81.54296875,-35.64453125,-1.0,0.0,0.0,0.0,9.m4v,11.0
2024-02-28 15:02:01.590292,1709128921.590292,-226.07421875,-42.96875,-58.10546875,-20.5078125,-1.0,0.0,0.0,0.0,9.m4v,11.0
2024-02-28 15:02:01.594196,1709128921.594196,-40.52734375,-48.828125,-16.11328125,0.48828125,-1.0,0.0,0.0,0.0,9.m4v,11.0
2024-02-28 15:02:01.598100,1709128921.5981002,-29.296875,-61.5234375,-49.31640625,-25.87890625,-1.0,0.0,0.0,0.0,9.m4v,11.0
2024-02-28 15:02:01.602004,1709128921.6020043,-179.19921875,-45.41015625,-49.31640625,-65.91796875,-1.0,0.0,0.0,0.0,9.m4v,11.0
2024-02-28 15:02:01.605909,1709128921.6059086,-228.515625,-29.296875,-15.13671875,-50.29296875,-1.0,0.0,0.0,0.0,9.m4v,11.0
2024-02-28 15:02:01.609835,1709128921.6098354,-253.90625,-34.1796875,-30.2734375,-34.1796875,-1.0,0.0,0.0,0.0,9.m4v,11.0
2024-02-28 15:02:01.613740,1709128921.6137395,-128.41796875,-41.9921875,-43.9453125,-30.2734375,-1.0,0.0,0.0,0.0,9.m4v,11.0
2024-02-28 15:02:01.617644,1709128921.6176438,-44.43359375,-52.24609375,-54.6875,-50.29296875,-1.0,0.0,0.0,0.0,9.m4v,11.0
2024-02-28 15:02:01.621548,1709128921.621548,-128.90625,-51.7578125,-44.921875,-75.68359375,-1.0,0.0,0.0,0.0,9.m4v,11.0
2024-02-28 15:02:01.625452,1709128921.6254525,-232.91015625,-37.109375,-43.9453125,-76.66015625,-1.0,0.0,0.0,0.0,9.m4v,11.0
2024-02-28 15:02:01.629356,1709128921.6293564,-194.3359375,-21.97265625,-25.390625,-44.43359375,-1.0,0.0,0.0,0.0,9.m4v,11.0
2024-02-28 15:02:01.633260,1709128921.6332605,-32.2265625,-29.78515625,-11.71875,-14.6484375,-1.0,0.0,0.0,0.0,9.m4v,11.0
2024-02-28 15:02:01.637165,1709128921.6371646,-12.20703125,-39.0625,-36.62109375,-32.71484375,-1.0,0.0,0.0,0.0,9.m4v,11.0
2024-02-28 15:02:01.641069,1709128921.641069,-115.234375,-41.015625,-43.45703125,-64.453125,-1.0,0.0,0.0,0.0,9.m4v,11.0
2024-02-28 15:02:01.644973,1709128921.644973,-229.98046875,-41.9921875,-57.12890625,-54.19921875,-1.0,0.0,0.0,0.0,9.m4v,11.0
2024-02-28 15:02:01.648877,1709128921.6488771,-229.98046875,-37.59765625,-59.08203125,-5.859375,-1.0,0.0,0.0,0.0,9.m4v,11.0
2024-02-28 15:02:01.652781,1709128921.6527812,-87.40234375,-33.69140625,-50.29296875,6.8359375,-1.0,0.0,0.0,0.0,9.m4v,11.0
2024-02-28 15:02:01.656706,1709128921.6567056,10.7421875,-40.0390625,-41.015625,-10.25390625,-1.0,0.0,0.0,0.0,9.m4v,11.0
2024-02-28 15:02:01.660610,1709128921.66061,-75.1953125,-60.546875,-48.33984375,-27.83203125,-1.0,0.0,0.0,0.0,9.m4v,11.0
2024-02-28 15:02:01.664514,1709128921.664514,-152.83203125,-54.19921875,-48.33984375,-17.08984375,-1.0,0.0,0.0,0.0,9.m4v,11.0
2024-02-28 15:02:01.668418,1709128921.6684182,-210.44921875,-50.78125,-35.64453125,-3.90625,-1.0,0.0,0.0,0.0,9.m4v,11.0
2024-02-28 15:02:01.672323,1709128921.6723225,-144.53125,-63.96484375,-40.0390625,13.18359375,-1.0,0.0,0.0,0.0,9.m4v,11.0
2024-02-28 15:02:01.676227,1709128921.6762266,39.0625,-43.45703125,-69.3359375,7.8125,-1.0,0.0,0.0,0.0,9.m4v,11.0
2024-02-28 15:02:01.680131,1709128921.6801307,-47.8515625,-29.296875,-102.05078125,-49.31640625,-1.0,0.0,0.0,0.0,9.m4v,11.0
2024-02-28 15:02:01.684035,1709128921.6840348,-235.83984375,-41.50390625,-70.3125,-63.4765625,-1.0,0.0,0.0,0.0,9.m4v,11.0
2024-02-28 15:02:01.687939,1709128921.6879392,-269.04296875,-46.875,-20.99609375,-44.921875,-1.0,0.0,0.0,0.0,9.m4v,11.0
2024-02-28 15:02:01.691843,1709128921.6918433,-145.01953125,-36.1328125,-4.8828125,-28.80859375,-1.0,0.0,0.0,0.0,9.m4v,11.0
2024-02-28 15:02:01.695747,1709128921.6957474,-47.8515625,-40.52734375,-20.99609375,-39.55078125,-1.0,0.0,0.0,0.0,9.m4v,11.0
2024-02-28 15:02:01.699651,1709128921.6996517,-98.6328125,-56.640625,-17.08984375,-53.22265625,-1.0,0.0,0.0,0.0,9.m4v,11.0
2024-02-28 15:02:01.703574,1709128921.7035744,-202.1484375,-64.453125,-25.87890625,-44.921875,-1.0,0.0,0.0,0.0,9.m4v,11.0
2024-02-28 15:02:01.707479,1709128921.7074783,-275.87890625,-50.78125,-46.875,-45.8984375,-1.0,0.0,0.0,0.0,9.m4v,11.0
2024-02-28 15:02:01.711383,1709128921.7113826,-170.8984375,-26.3671875,-39.0625,-27.83203125,-1.0,0.0,0.0,0.0,9.m4v,11.0
2024-02-28 15:02:01.715287,1709128921.715287,-46.875,-17.08984375,-10.25390625,-13.671875,-1.0,0.0,0.0,0.0,9.m4v,11.0
2024-02-28 15:02:01.719191,1709128921.719191,-174.8046875,-52.734375,-20.99609375,-49.8046875,-1.0,0.0,0.0,0.0,9.m4v,11.0
2024-02-28 15:02:01.723095,1709128921.7230952,-299.8046875,-87.890625,-12.6953125,-67.87109375,-1.0,0.0,0.0,0.0,9.m4v,11.0
2024-02-28 15:02:01.727000,1709128921.7269995,-303.22265625,-70.80078125,-7.32421875,-29.296875,-1.0,0.0,0.0,0.0,9.m4v,11.0
2024-02-28 15:02:01.730904,1709128921.7309036,-249.0234375,-71.77734375,-40.0390625,0.9765625,-1.0,0.0,0.0,0.0,9.m4v,11.0
2024-02-28 15:02:01.734808,1709128921.7348075,-162.109375,-68.84765625,-49.8046875,-5.37109375,-1.0,0.0,0.0,0.0,9.m4v,11.0
2024-02-28 15:02:01.738712,1709128921.7387118,-167.48046875,-35.64453125,-50.78125,-14.6484375,-1.0,0.0,0.0,0.0,9.m4v,11.0
2024-02-28 15:02:01.742616,1709128921.7426162,-279.296875,-24.90234375,-34.66796875,-39.55078125,-1.0,0.0,0.0,0.0,9.m4v,11.0
2024-02-28 15:02:01.746520,1709128921.7465203,-350.09765625,-26.3671875,-29.296875,-13.671875,-1.0,0.0,0.0,0.0,9.m4v,11.0
2024-02-28 15:02:01.750441,1709128921.7504413,-341.30859375,-17.578125,-17.578125,0.0,-1.0,0.0,0.0,0.0,9.m4v,11.0
2024-02-28 15:02:01.754345,1709128921.7543454,-266.11328125,-11.71875,-10.25390625,-35.15625,-1.0,0.0,0.0,0.0,9.m4v,11.0
2024-02-28 15:02:01.758250,1709128921.7582498,-272.4609375,-10.25390625,-25.390625,-67.87109375,-1.0,0.0,0.0,0.0,9.m4v,11.0
2024-02-28 15:02:01.762154,1709128921.762154,-381.8359375,-14.6484375,-36.1328125,-99.609375,-1.0,0.0,0.0,0.0,9.m4v,11.0
2024-02-28 15:02:01.766058,1709128921.766058,-474.12109375,-26.85546875,-44.43359375,-98.6328125,-1.0,0.0,0.0,0.0,9.m4v,11.0
2024-02-28 15:02:01.769962,1709128921.769962,-389.6484375,-52.24609375,-26.85546875,-52.734375,-1.0,0.0,0.0,0.0,9.m4v,11.0
2024-02-28 15:02:01.773866,1709128921.7738664,-203.125,-55.17578125,-20.01953125,-24.90234375,-1.0,0.0,0.0,0.0,9.m4v,11.0
2024-02-28 15:02:01.777771,1709128921.7777703,-296.875,-38.57421875,-69.3359375,-51.7578125,-1.0,0.0,0.0,0.0,9.m4v,11.0
2024-02-28 15:02:01.781675,1709128921.7816746,-478.02734375,-38.57421875,-68.84765625,-59.5703125,-1.0,0.0,0.0,0.0,9.m4v,11.0
2024-02-28 15:02:01.785579,1709128921.785579,-547.36328125,-33.69140625,-14.6484375,-44.43359375,-1.0,0.0,0.0,0.0,9.m4v,11.0
2024-02-28 15:02:01.789483,1709128921.789483,-549.8046875,-31.25,-23.4375,-22.94921875,-1.0,0.0,0.0,0.0,9.m4v,11.0
2024-02-28 15:02:01.793387,1709128921.7933872,-443.359375,-31.73828125,-32.2265625,-1.46484375,-1.0,0.0,0.0,0.0,9.m4v,11.0
2024-02-28 15:02:01.797308,1709128921.7973075,-444.3359375,-30.76171875,-41.015625,-16.6015625,-1.0,0.0,0.0,0.0,9.m4v,11.0
2024-02-28 15:02:01.801212,1709128921.8012118,-528.80859375,-36.62109375,-31.73828125,-41.50390625,-1.0,0.0,0.0,0.0,9.m4v,11.0
2024-02-28 15:02:01.805116,1709128921.805116,-583.0078125,-41.9921875,-19.53125,-40.0390625,-1.0,0.0,0.0,0.0,9.m4v,11.0
2024-02-28 15:02:01.809020,1709128921.80902,-650.390625,-39.0625,-51.7578125,-38.0859375,-1.0,0.0,0.0,0.0,9.m4v,11.0
2024-02-28 15:02:01.812924,1709128921.8129244,-543.9453125,-31.25,-66.89453125,-20.99609375,-1.0,0.0,0.0,0.0,9.m4v,11.0
2024-02-28 15:02:01.816828,1709128921.8168285,-402.83203125,-33.203125,-22.4609375,-8.7890625,-1.0,0.0,0.0,0.0,9.m4v,11.0
2024-02-28 15:02:01.820733,1709128921.8207326,-581.0546875,-45.8984375,-2.44140625,-24.90234375,-1.0,0.0,0.0,0.0,9.m4v,11.0
2024-02-28 15:02:01.824637,1709128921.824637,-808.10546875,-55.6640625,-15.13671875,-20.99609375,-1.0,0.0,0.0,0.0,9.m4v,11.0
2024-02-28 15:02:01.828541,1709128921.828541,-827.1484375,-54.6875,-37.109375,2.9296875,-1.0,0.0,0.0,0.0,9.m4v,11.0
2024-02-28 15:02:01.832445,1709128921.8324451,-676.7578125,-45.8984375,-46.875,22.4609375,-1.0,0.0,0.0,0.0,9.m4v,11.0
2024-02-28 15:02:01.836349,1709128921.8363492,-541.50390625,-36.1328125,-26.85546875,7.32421875,-1.0,0.0,0.0,0.0,9.m4v,11.0
2024-02-28 15:02:01.840254,1709128921.8402536,-597.16796875,-47.36328125,-34.1796875,-25.390625,-1.0,0.0,0.0,0.0,9.m4v,11.0
2024-02-28 15:02:01.844174,1709128921.8441737,-666.015625,-53.22265625,-32.2265625,-24.4140625,-1.0,0.0,0.0,0.0,9.m4v,11.0
2024-02-28 15:02:01.848078,1709128921.8480778,-682.6171875,-47.36328125,-50.29296875,2.44140625,-1.0,0.0,0.0,0.0,9.m4v,11.0
2024-02-28 15:02:01.851982,1709128921.851982,-612.3046875,-49.31640625,-55.17578125,17.578125,-1.0,0.0,0.0,0.0,9.m4v,11.0
2024-02-28 15:02:01.855886,1709128921.8558862,-528.3203125,-39.55078125,-43.45703125,-11.71875,-1.0,0.0,0.0,0.0,9.m4v,11.0
2024-02-28 15:02:01.859790,1709128921.8597903,-640.625,-29.296875,-61.03515625,-62.5,-1.0,0.0,0.0,0.0,9.m4v,11.0
2024-02-28 15:02:01.863694,1709128921.8636944,-696.2890625,-25.390625,-18.06640625,-72.75390625,-1.0,0.0,0.0,0.0,9.m4v,11.0
2024-02-28 15:02:01.867599,1709128921.8675983,-750.48828125,-27.83203125,-22.4609375,-63.96484375,-1.0,0.0,0.0,0.0,9.m4v,11.0
2024-02-28 15:02:01.871503,1709128921.8715029,-741.69921875,-36.1328125,-33.203125,-56.15234375,-1.0,0.0,0.0,0.0,9.m4v,11.0
2024-02-28 15:02:01.875407,1709128921.875407,-595.21484375,-34.66796875,-22.94921875,-48.828125,-1.0,0.0,0.0,0.0,9.m4v,11.0
2024-02-28 15:02:01.879311,1709128921.879311,-647.94921875,-24.90234375,-54.6875,-70.3125,-1.0,0.0,0.0,0.0,9.m4v,11.0
2024-02-28 15:02:01.883215,1709128921.8832152,-786.62109375,-24.90234375,-43.9453125,-92.7734375,-1.0,0.0,0.0,0.0,9.m4v,11.0
2024-02-28 15:02:01.887120,1709128921.8871195,-819.3359375,-26.85546875,-10.7421875,-78.125,-1.0,0.0,0.0,0.0,9.m4v,11.0
2024-02-28 15:02:01.891049,1709128921.891049,-678.7109375,-26.3671875,-15.625,-32.71484375,-1.0,0.0,0.0,0.0,9.m4v,11.0
2024-02-28 15:02:01.894953,1709128921.894953,-521.97265625,-28.80859375,-33.203125,-15.625,-1.0,0.0,0.0,0.0,9.m4v,11.0
2024-02-28 15:02:01.898857,1709128921.8988574,-579.58984375,-37.109375,-33.203125,-43.45703125,-1.0,0.0,0.0,0.0,9.m4v,11.0
2024-02-28 15:02:01.902761,1709128921.9027617,-695.3125,-41.50390625,-36.1328125,-69.82421875,-1.0,0.0,0.0,0.0,9.m4v,11.0
2024-02-28 15:02:01.906666,1709128921.9066656,-770.5078125,-41.50390625,-36.1328125,-61.5234375,-1.0,0.0,0.0,0.0,9.m4v,11.0
2024-02-28 15:02:01.910570,1709128921.9105697,-672.8515625,-41.50390625,-49.31640625,-19.04296875,-1.0,0.0,0.0,0.0,9.m4v,11.0
2024-02-28 15:02:01.914474,1709128921.914474,-549.8046875,-45.8984375,-50.29296875,-10.25390625,-1.0,0.0,0.0,0.0,9.m4v,11.0
2024-02-28 15:02:01.918378,1709128921.918378,-591.796875,-39.0625,-20.99609375,-35.15625,-1.0,0.0,0.0,0.0,9.m4v,11.0
2024-02-28 15:02:01.922282,1709128921.9222822,-643.06640625,-28.3203125,-47.36328125,-45.41015625,-1.0,0.0,0.0,0.0,9.m4v,11.0
2024-02-28 15:02:01.926187,1709128921.9261866,-694.82421875,-36.1328125,-51.7578125,-36.1328125,-1.0,0.0,0.0,0.0,9.m4v,11.0
2024-02-28 15:02:01.930091,1709128921.930091,-582.51953125,-35.64453125,-13.18359375,-6.34765625,-1.0,0.0,0.0,0.0,9.m4v,11.0
2024-02-28 15:02:01.933995,1709128921.9339948,-369.62890625,-17.578125,-20.01953125,24.4140625,-1.0,0.0,0.0,0.0,9.m4v,11.0
2024-02-28 15:02:01.937923,1709128921.9379227,-394.04296875,-29.78515625,-43.9453125,-5.859375,-1.0,0.0,0.0,0.0,9.m4v,11.0
2024-02-28 15:02:01.941827,1709128921.9418268,-522.4609375,-56.640625,-23.4375,-30.76171875,-1.0,0.0,0.0,0.0,9.m4v,11.0
2024-02-28 15:02:01.945731,1709128921.945731,-564.94140625,-53.22265625,-10.25390625,-3.90625,-1.0,0.0,0.0,0.0,9.m4v,11.0
2024-02-28 15:02:01.949635,1709128921.9496353,-507.32421875,-20.5078125,-45.8984375,-3.90625,-1.0,0.0,0.0,0.0,9.m4v,11.0
2024-02-28 15:02:01.953539,1709128921.9535394,-336.9140625,-11.23046875,-41.9921875,-8.30078125,-1.0,0.0,0.0,0.0,9.m4v,11.0
2024-02-28 15:02:01.957443,1709128921.9574437,-276.85546875,-20.01953125,-19.53125,-8.30078125,-1.0,0.0,0.0,0.0,9.m4v,11.0
2024-02-28 15:02:01.961348,1709128921.9613478,-426.26953125,-20.99609375,-34.1796875,-19.53125,-1.0,0.0,0.0,0.0,9.m4v,11.0
2024-02-28 15:02:01.965252,1709128921.965252,-550.78125,-23.4375,-33.69140625,-48.33984375,-1.0,0.0,0.0,0.0,9.m4v,11.0
2024-02-28 15:02:01.969156,1709128921.969156,-570.80078125,-29.296875,-59.5703125,-63.4765625,-1.0,0.0,0.0,0.0,9.m4v,11.0
2024-02-28 15:02:01.973060,1709128921.97306,-364.74609375,-36.1328125,-53.22265625,-17.578125,-1.0,0.0,0.0,0.0,9.m4v,11.0
2024-02-28 15:02:01.976964,1709128921.9769645,-236.81640625,-37.59765625,2.44140625,-25.390625,-1.0,0.0,0.0,0.0,9.m4v,11.0
2024-02-28 15:02:01.980869,1709128921.9808686,-363.28125,-39.55078125,-14.6484375,-62.01171875,-1.0,0.0,0.0,0.0,9.m4v,11.0
2024-02-28 15:02:01.984795,1709128921.9847949,-481.93359375,-41.015625,-35.15625,-57.12890625,-1.0,0.0,0.0,0.0,9.m4v,11.0
2024-02-28 15:02:01.988699,1709128921.988699,-479.00390625,-35.15625,-38.57421875,-39.55078125,-1.0,0.0,0.0,0.0,9.m4v,11.0
2024-02-28 15:02:01.992603,1709128921.992603,-287.109375,-33.203125,-44.43359375,-19.53125,-1.0,0.0,0.0,0.0,9.m4v,11.0
2024-02-28 15:02:01.996507,1709128921.9965072,-180.17578125,-43.9453125,-22.4609375,-24.90234375,-1.0,0.0,0.0,0.0,9.m4v,11.0
2024-02-28 15:02:02.000412,1709128922.0004115,-308.10546875,-47.36328125,-20.01953125,-48.828125,-1.0,0.0,0.0,0.0,9.m4v,11.0
2024-02-28 15:02:02.004316,1709128922.0043156,-367.1875,-30.76171875,-15.13671875,-33.203125,-1.0,0.0,0.0,0.0,9.m4v,11.0
2024-02-28 15:02:02.008220,1709128922.0082197,-372.55859375,-28.3203125,-29.78515625,7.32421875,-1.0,0.0,0.0,0.0,9.m4v,11.0
2024-02-28 15:02:02.012124,1709128922.012124,-286.1328125,-29.78515625,-36.1328125,21.97265625,-1.0,0.0,0.0,0.0,9.m4v,11.0
2024-02-28 15:02:02.016028,1709128922.0160282,-157.71484375,-21.484375,-17.08984375,14.16015625,-1.0,0.0,0.0,0.0,9.m4v,11.0
2024-02-28 15:02:02.019932,1709128922.0199325,-286.1328125,-21.484375,-29.296875,-49.31640625,-1.0,0.0,0.0,0.0,9.m4v,11.0
2024-02-28 15:02:02.023836,1709128922.0238364,-373.046875,-20.5078125,-40.0390625,-59.08203125,-1.0,0.0,0.0,0.0,9.m4v,11.0
2024-02-28 15:02:02.027741,1709128922.0277407,-357.91015625,-18.06640625,-53.7109375,-24.90234375,-1.0,0.0,0.0,0.0,9.m4v,11.0
2024-02-28 15:02:02.031666,1709128922.031666,-301.26953125,-20.01953125,-55.17578125,-28.80859375,-1.0,0.0,0.0,0.0,9.m4v,11.0
2024-02-28 15:02:02.035570,1709128922.03557,-143.06640625,-28.80859375,-34.1796875,-28.3203125,-1.0,0.0,0.0,0.0,9.m4v,11.0
2024-02-28 15:02:02.039474,1709128922.0394745,-170.8984375,-32.71484375,-30.76171875,-64.94140625,-1.0,0.0,0.0,0.0,9.m4v,11.0
2024-02-28 15:02:02.043379,1709128922.0433786,-326.171875,-36.62109375,-43.45703125,-81.54296875,-1.0,0.0,0.0,0.0,9.m4v,11.0
2024-02-28 15:02:02.047283,1709128922.0472827,-398.92578125,-42.96875,-41.50390625,-60.546875,-1.0,0.0,0.0,0.0,9.m4v,11.0
2024-02-28 15:02:02.051187,1709128922.0511868,-259.765625,-40.52734375,-53.7109375,-20.5078125,-1.0,0.0,0.0,0.0,9.m4v,11.0
2024-02-28 15:02:02.055091,1709128922.0550911,-120.1171875,-31.25,-42.48046875,-5.859375,-1.0,0.0,0.0,0.0,9.m4v,11.0
2024-02-28 15:02:02.058995,1709128922.0589952,-209.9609375,-17.08984375,-27.83203125,-41.50390625,-1.0,0.0,0.0,0.0,9.m4v,11.0
2024-02-28 15:02:02.062899,1709128922.0628994,-317.3828125,-54.6875,-45.41015625,-54.6875,-1.0,0.0,0.0,0.0,9.m4v,11.0
2024-02-28 15:02:02.066804,1709128922.0668037,-388.18359375,-71.2890625,-61.5234375,-41.9921875,-1.0,0.0,0.0,0.0,9.m4v,11.0
2024-02-28 15:02:02.070708,1709128922.0707078,-282.71484375,-30.2734375,-57.12890625,-19.53125,-1.0,0.0,0.0,0.0,9.m4v,11.0
2024-02-28 15:02:02.074612,1709128922.074612,-103.02734375,-13.18359375,-45.41015625,-18.5546875,-1.0,0.0,0.0,0.0,9.m4v,11.0
2024-02-28 15:02:02.078536,1709128922.0785356,-154.296875,-11.23046875,-42.96875,-53.22265625,-1.0,0.0,0.0,0.0,9.m4v,11.0
2024-02-28 15:02:02.082440,1709128922.0824397,-276.85546875,-13.18359375,-47.8515625,-69.82421875,-1.0,0.0,0.0,0.0,9.m4v,11.0
2024-02-28 15:02:02.086344,1709128922.086344,-306.15234375,-17.08984375,-46.875,-59.08203125,-1.0,0.0,0.0,0.0,9.m4v,11.0
2024-02-28 15:02:02.090248,1709128922.090248,-236.81640625,-23.92578125,-43.45703125,-36.62109375,-1.0,0.0,0.0,0.0,9.m4v,11.0
2024-02-28 15:02:02.094152,1709128922.0941522,-72.265625,-41.50390625,-45.41015625,-13.671875,-1.0,0.0,0.0,0.0,9.m4v,11.0
2024-02-28 15:02:02.098056,1709128922.0980563,-32.71484375,-62.98828125,-55.17578125,-10.7421875,-1.0,0.0,0.0,0.0,9.m4v,11.0
2024-02-28 15:02:02.101961,1709128922.101961,-187.5,-53.7109375,-58.10546875,-44.43359375,-1.0,0.0,0.0,0.0,9.m4v,11.0
2024-02-28 15:02:02.105865,1709128922.1058648,-335.44921875,-29.296875,-47.8515625,-48.828125,-1.0,0.0,0.0,0.0,9.m4v,11.0
2024-02-28 15:02:02.109769,1709128922.1097689,-284.1796875,-17.08984375,-34.1796875,-20.01953125,-1.0,0.0,0.0,0.0,9.m4v,11.0
2024-02-28 15:02:02.113673,1709128922.1136732,-111.81640625,-17.08984375,-24.90234375,-19.04296875,-1.0,0.0,0.0,0.0,9.m4v,11.0
2024-02-28 15:02:02.117577,1709128922.1175773,-58.59375,-21.484375,-21.97265625,-28.3203125,-1.0,0.0,0.0,0.0,9.m4v,11.0
2024-02-28 15:02:02.121481,1709128922.1214814,-186.5234375,-40.52734375,-29.78515625,-48.828125,-1.0,0.0,0.0,0.0,9.m4v,11.0
2024-02-28 15:02:02.125403,1709128922.125403,-293.45703125,-64.94140625,-36.1328125,-41.9921875,-1.0,0.0,0.0,0.0,9.m4v,11.0
2024-02-28 15:02:02.129307,1709128922.129307,-232.421875,-58.59375,-28.80859375,5.37109375,-1.0,0.0,0.0,0.0,9.m4v,11.0
2024-02-28 15:02:02.133211,1709128922.1332111,-91.30859375,-32.71484375,-41.50390625,10.25390625,-1.0,0.0,0.0,0.0,9.m4v,11.0
2024-02-28 15:02:02.137115,1709128922.1371152,-77.1484375,-27.83203125,-56.15234375,-21.484375,-1.0,0.0,0.0,0.0,9.m4v,11.0
2024-02-28 15:02:02.141020,1709128922.1410196,-155.76171875,-31.73828125,-24.90234375,-44.921875,-1.0,0.0,0.0,0.0,9.m4v,11.0
2024-02-28 15:02:02.144924,1709128922.1449237,-202.1484375,-4.8828125,-18.06640625,-47.36328125,-1.0,0.0,0.0,0.0,9.m4v,11.0
2024-02-28 15:02:02.148828,1709128922.1488278,-181.640625,4.8828125,-32.71484375,-23.4375,-1.0,0.0,0.0,0.0,9.m4v,11.0
2024-02-28 15:02:02.152732,1709128922.152732,-76.66015625,-15.13671875,-33.203125,-2.9296875,-1.0,0.0,0.0,0.0,9.m4v,11.0
2024-02-28 15:02:02.156636,1709128922.1566362,-68.84765625,-29.296875,-39.0625,-6.34765625,-1.0,0.0,0.0,0.0,9.m4v,11.0
2024-02-28 15:02:02.160540,1709128922.1605403,-186.03515625,-27.83203125,-38.0859375,-32.71484375,-1.0,0.0,0.0,0.0,9.m4v,11.0
2024-02-28 15:02:02.164445,1709128922.1644447,-295.41015625,-32.71484375,-31.73828125,-41.9921875,-1.0,0.0,0.0,0.0,9.m4v,11.0
2024-02-28 15:02:02.168349,1709128922.1683488,-287.59765625,-48.33984375,-30.76171875,-10.25390625,-1.0,0.0,0.0,0.0,9.m4v,11.0
2024-02-28 15:02:02.172268,1709128922.1722684,-108.88671875,-48.828125,-28.3203125,21.97265625,-1.0,0.0,0.0,0.0,9.m4v,11.0
2024-02-28 15:02:02.176172,1709128922.1761725,5.859375,-34.66796875,-30.76171875,-4.8828125,-1.0,0.0,0.0,0.0,9.m4v,11.0
2024-02-28 15:02:02.180077,1709128922.1800766,-95.21484375,-42.96875,-29.296875,-57.6171875,-1.0,0.0,0.0,0.0,9.m4v,11.0
2024-02-28 15:02:02.183981,1709128922.183981,-214.35546875,-47.36328125,-42.48046875,-50.29296875,-1.0,0.0,0.0,0.0,9.m4v,11.0
2024-02-28 15:02:02.187885,1709128922.187885,-236.328125,-26.85546875,-41.50390625,-26.3671875,-1.0,0.0,0.0,0.0,9.m4v,11.0
2024-02-28 15:02:02.191789,1709128922.1917892,-44.43359375,-15.13671875,-20.01953125,0.9765625,-1.0,0.0,0.0,0.0,9.m4v,11.0
2024-02-28 15:02:02.195693,1709128922.1956935,73.2421875,-27.34375,-26.3671875,0.9765625,-1.0,0.0,0.0,0.0,9.m4v,11.0
2024-02-28 15:02:02.199598,1709128922.1995976,-109.375,-45.8984375,-35.64453125,-66.89453125,-1.0,0.0,0.0,0.0,9.m4v,11.0
2024-02-28 15:02:02.203502,1709128922.2035017,-222.65625,-40.52734375,-29.78515625,-82.03125,-1.0,0.0,0.0,0.0,9.m4v,11.0
2024-02-28 15:02:02.207406,1709128922.207406,-234.86328125,-32.2265625,-27.34375,-65.4296875,-1.0,0.0,0.0,0.0,9.m4v,11.0
2024-02-28 15:02:02.211310,1709128922.21131,-136.71875,-34.1796875,-32.2265625,-48.33984375,-1.0,0.0,0.0,0.0,9.m4v,11.0
2024-02-28 15:02:02.215214,1709128922.2152145,-23.92578125,-32.71484375,-34.1796875,-23.92578125,-1.0,0.0,0.0,0.0,9.m4v,11.0
2024-02-28 15:02:02.219133,1709128922.2191331,-101.5625,-36.62109375,-32.71484375,-51.26953125,-1.0,0.0,0.0,0.0,9.m4v,11.0
2024-02-28 15:02:02.223037,1709128922.2230372,-198.73046875,-45.8984375,-28.3203125,-66.40625,-1.0,0.0,0.0,0.0,9.m4v,11.0
2024-02-28 15:02:02.226942,1709128922.2269416,-243.1640625,-43.9453125,-29.296875,-56.640625,-1.0,0.0,0.0,0.0,9.m4v,11.0
2024-02-28 15:02:02.230846,1709128922.2308457,-161.62109375,-41.50390625,-31.25,-41.015625,-1.0,0.0,0.0,0.0,9.m4v,11.0
2024-02-28 15:02:02.234750,1709128922.2347498,-14.16015625,-37.109375,-21.97265625,-14.16015625,-1.0,0.0,0.0,0.0,9.m4v,11.0
2024-02-28 15:02:02.238654,1709128922.238654,-31.25,-22.94921875,-28.80859375,-45.8984375,-1.0,0.0,0.0,0.0,9.m4v,11.0
2024-02-28 15:02:02.242558,1709128922.2425582,-184.5703125,-26.85546875,-37.59765625,-81.0546875,-1.0,0.0,0.0,0.0,9.m4v,11.0
2024-02-28 15:02:02.246462,1709128922.2464623,-280.2734375,-36.62109375,-28.3203125,-63.96484375,-1.0,0.0,0.0,0.0,9.m4v,11.0
2024-02-28 15:02:02.250366,1709128922.2503664,-189.453125,-42.96875,-19.53125,-40.0390625,-1.0,0.0,0.0,0.0,9.m4v,11.0
2024-02-28 15:02:02.254271,1709128922.2542708,-49.31640625,-46.38671875,-19.53125,-46.875,-1.0,0.0,0.0,0.0,9.m4v,11.0
2024-02-28 15:02:02.258175,1709128922.258175,-77.63671875,-49.8046875,-27.34375,-62.5,-1.0,0.0,0.0,0.0,9.m4v,11.0
2024-02-28 15:02:02.262079,1709128922.262079,-189.453125,-50.78125,-41.015625,-73.2421875,-1.0,0.0,0.0,0.0,9.m4v,11.0
2024-02-28 15:02:02.265997,1709128922.2659974,-249.51171875,-49.8046875,-48.828125,-74.70703125,-1.0,0.0,0.0,0.0,9.m4v,11.0
2024-02-28 15:02:02.269902,1709128922.2699018,-216.796875,-51.26953125,-42.96875,-54.6875,-1.0,0.0,0.0,0.0,9.m4v,11.0
2024-02-28 15:02:02.273806,1709128922.273806,-95.703125,-47.8515625,-41.015625,-48.828125,-1.0,0.0,0.0,0.0,9.m4v,11.0
2024-02-28 15:02:02.277710,1709128922.27771,-78.125,-49.31640625,-44.43359375,-55.17578125,-1.0,0.0,0.0,0.0,9.m4v,11.0
2024-02-28 15:02:02.281614,1709128922.281614,-220.703125,-50.78125,-40.0390625,-80.078125,-1.0,0.0,0.0,0.0,9.m4v,11.0
2024-02-28 15:02:02.285518,1709128922.2855184,-274.90234375,-37.59765625,-29.78515625,-68.359375,-1.0,0.0,0.0,0.0,9.m4v,11.0
2024-02-28 15:02:02.289423,1709128922.2894225,-196.2890625,-41.9921875,-25.87890625,-13.671875,-1.0,0.0,0.0,0.0,9.m4v,11.0
2024-02-28 15:02:02.293327,1709128922.2933266,-129.39453125,-57.6171875,-32.71484375,-3.90625,-1.0,0.0,0.0,0.0,9.m4v,11.0
2024-02-28 15:02:02.297231,1709128922.297231,-92.28515625,-54.19921875,-35.64453125,-33.203125,-1.0,0.0,0.0,0.0,9.m4v,11.0
2024-02-28 15:02:02.301135,1709128922.301135,-188.4765625,-51.26953125,-39.55078125,-68.84765625,-1.0,0.0,0.0,0.0,9.m4v,11.0
2024-02-28 15:02:02.305039,1709128922.3050392,-319.82421875,-46.38671875,-46.875,-67.87109375,-1.0,0.0,0.0,0.0,9.m4v,11.0
2024-02-28 15:02:02.308944,1709128922.3089435,-270.01953125,-24.4140625,-31.73828125,-37.59765625,-1.0,0.0,0.0,0.0,9.m4v,11.0
2024-02-28 15:02:02.312871,1709128922.3128712,-62.98828125,-11.23046875,-15.625,-8.30078125,-1.0,0.0,0.0,0.0,9.m4v,11.0
2024-02-28 15:02:02.316775,1709128922.316775,-25.390625,-11.23046875,-20.01953125,-20.5078125,-1.0,0.0,0.0,0.0,9.m4v,11.0
2024-02-28 15:02:02.320679,1709128922.3206794,-190.4296875,-15.625,-28.80859375,-62.98828125,-1.0,0.0,0.0,0.0,9.m4v,11.0
2024-02-28 15:02:02.324584,1709128922.3245835,-273.92578125,-19.04296875,-25.390625,-68.84765625,-1.0,0.0,0.0,0.0,9.m4v,11.0
2024-02-28 15:02:02.328488,1709128922.328488,-270.99609375,-28.80859375,-25.390625,-31.73828125,-1.0,0.0,0.0,0.0,9.m4v,11.0
2024-02-28 15:02:02.332392,1709128922.332392,-119.62890625,-39.55078125,-27.83203125,5.37109375,-1.0,0.0,0.0,0.0,9.m4v,11.0
2024-02-28 15:02:02.336296,1709128922.336296,-14.16015625,-37.59765625,-27.34375,-1.953125,-1.0,0.0,0.0,0.0,9.m4v,11.0
2024-02-28 15:02:02.340200,1709128922.3402004,-163.0859375,-40.52734375,-24.4140625,-41.015625,-1.0,0.0,0.0,0.0,9.m4v,11.0
2024-02-28 15:02:02.344105,1709128922.3441043,-311.03515625,-48.33984375,-29.296875,-63.96484375,-1.0,0.0,0.0,0.0,9.m4v,11.0
2024-02-28 15:02:02.348009,1709128922.3480086,-339.35546875,-49.31640625,-41.015625,-51.26953125,-1.0,0.0,0.0,0.0,9.m4v,11.0
2024-02-28 15:02:02.351913,1709128922.351913,-174.8046875,-37.109375,-38.0859375,-23.92578125,-1.0,0.0,0.0,0.0,9.m4v,11.0
2024-02-28 15:02:02.355817,1709128922.355817,-17.08984375,-24.90234375,-28.80859375,-8.30078125,-1.0,0.0,0.0,0.0,9.m4v,11.0
2024-02-28 15:02:02.359743,1709128922.359743,-106.93359375,-22.94921875,-21.484375,-34.66796875,-1.0,0.0,0.0,0.0,9.m4v,11.0
2024-02-28 15:02:02.363647,1709128922.3636472,-270.01953125,-27.83203125,-24.4140625,-58.10546875,-1.0,0.0,0.0,0.0,9.m4v,11.0
2024-02-28 15:02:02.367552,1709128922.3675516,-336.42578125,-33.69140625,-26.85546875,-45.41015625,-1.0,0.0,0.0,0.0,9.m4v,11.0
2024-02-28 15:02:02.371456,1709128922.3714557,-210.44921875,-34.66796875,-30.76171875,-29.296875,-1.0,0.0,0.0,0.0,9.m4v,11.0
2024-02-28 15:02:02.375360,1709128922.3753598,-76.66015625,-36.62109375,-37.59765625,-34.66796875,-1.0,0.0,0.0,0.0,9.m4v,11.0
2024-02-28 15:02:02.379264,1709128922.379264,-106.4453125,-37.109375,-32.2265625,-52.24609375,-1.0,0.0,0.0,0.0,9.m4v,11.0
2024-02-28 15:02:02.383168,1709128922.3831682,-229.98046875,-39.55078125,-31.25,-61.03515625,-1.0,0.0,0.0,0.0,9.m4v,11.0
2024-02-28 15:02:02.387072,1709128922.3870723,-316.40625,-38.57421875,-32.71484375,-47.36328125,-1.0,0.0,0.0,0.0,9.m4v,11.0
2024-02-28 15:02:02.390977,1709128922.390977,-212.890625,-34.66796875,-35.64453125,-17.578125,-1.0,0.0,0.0,0.0,9.m4v,11.0
2024-02-28 15:02:02.394881,1709128922.3948808,-72.265625,-37.109375,-39.0625,-10.7421875,-1.0,0.0,0.0,0.0,9.m4v,11.0
2024-02-28 15:02:02.398785,1709128922.3987849,-106.4453125,-38.0859375,-27.34375,-45.41015625,-1.0,0.0,0.0,0.0,9.m4v,11.0
2024-02-28 15:02:02.402689,1709128922.402689,-210.44921875,-38.57421875,-22.94921875,-62.98828125,-1.0,0.0,0.0,0.0,9.m4v,11.0
2024-02-28 15:02:02.406614,1709128922.4066136,-261.71875,-42.96875,-28.3203125,-52.734375,-1.0,0.0,0.0,0.0,9.m4v,11.0
2024-02-28 15:02:02.410518,1709128922.4105177,-191.89453125,-38.57421875,-19.04296875,-49.31640625,-1.0,0.0,0.0,0.0,9.m4v,11.0
2024-02-28 15:02:02.414422,1709128922.4144218,-55.6640625,-28.3203125,-13.18359375,-40.0390625,-1.0,0.0,0.0,0.0,9.m4v,11.0
2024-02-28 15:02:02.418326,1709128922.418326,-79.58984375,-42.96875,-22.4609375,-61.5234375,-1.0,0.0,0.0,0.0,9.m4v,11.0
2024-02-28 15:02:02.422230,1709128922.4222302,-215.33203125,-51.7578125,-24.90234375,-74.21875,-1.0,0.0,0.0,0.0,9.m4v,11.0
2024-02-28 15:02:02.426134,1709128922.4261343,-228.515625,-33.203125,-26.85546875,-41.50390625,-1.0,0.0,0.0,0.0,9.m4v,11.0
2024-02-28 15:02:02.430038,1709128922.4300385,-163.57421875,-15.625,-30.76171875,-20.01953125,-1.0,0.0,0.0,0.0,9.m4v,11.0
2024-02-28 15:02:02.433943,1709128922.4339428,-86.42578125,-14.16015625,-19.53125,-24.90234375,-1.0,0.0,0.0,0.0,9.m4v,11.0
2024-02-28 15:02:02.437847,1709128922.437847,-95.21484375,-20.99609375,-15.13671875,-40.52734375,-1.0,0.0,0.0,0.0,9.m4v,11.0
2024-02-28 15:02:02.441751,1709128922.441751,-216.30859375,-21.484375,-19.04296875,-55.6640625,-1.0,0.0,0.0,0.0,9.m4v,11.0
2024-02-28 15:02:02.445655,1709128922.445655,-231.93359375,-20.5078125,-20.01953125,-41.015625,-1.0,0.0,0.0,0.0,9.m4v,11.0
2024-02-28 15:02:02.449559,1709128922.4495597,-192.3828125,-31.25,-21.484375,3.41796875,-1.0,0.0,0.0,0.0,9.m4v,11.0
2024-02-28 15:02:02.453483,1709128922.4534829,-75.68359375,-34.1796875,-19.04296875,36.62109375,-1.0,0.0,0.0,0.0,9.m4v,11.0
2024-02-28 15:02:02.457387,1709128922.4573872,-67.3828125,-34.66796875,-28.3203125,3.41796875,-1.0,0.0,0.0,0.0,9.m4v,11.0
2024-02-28 15:02:02.461291,1709128922.4612913,-200.1953125,-30.2734375,-26.3671875,-34.1796875,-1.0,0.0,0.0,0.0,9.m4v,11.0
2024-02-28 15:02:02.465195,1709128922.4651954,-263.671875,-28.3203125,-22.4609375,-18.06640625,-1.0,0.0,0.0,0.0,9.m4v,11.0
2024-02-28 15:02:02.469100,1709128922.4690998,-221.19140625,-36.62109375,-26.85546875,15.625,-1.0,0.0,0.0,0.0,9.m4v,11.0
2024-02-28 15:02:02.473004,1709128922.473004,-39.55078125,-36.62109375,-29.78515625,33.69140625,-1.0,0.0,0.0,0.0,9.m4v,11.0
2024-02-28 15:02:02.476908,1709128922.476908,-6.8359375,-34.66796875,-26.3671875,17.578125,-1.0,0.0,0.0,0.0,9.m4v,11.0
2024-02-28 15:02:02.480812,1709128922.4808123,-166.9921875,-34.1796875,-22.94921875,-0.48828125,-1.0,0.0,0.0,0.0,9.m4v,11.0
2024-02-28 15:02:02.484716,1709128922.4847164,-280.76171875,-33.69140625,-28.3203125,-4.8828125,-1.0,0.0,0.0,0.0,9.m4v,11.0
2024-02-28 15:02:02.488621,1709128922.4886203,-258.30078125,-31.25,-25.87890625,5.37109375,-1.0,0.0,0.0,0.0,9.m4v,11.0
2024-02-28 15:02:02.492525,1709128922.4925249,-107.421875,-35.15625,-19.53125,22.94921875,-1.0,0.0,0.0,0.0,9.m4v,11.0
2024-02-28 15:02:02.496429,1709128922.496429,-70.80078125,-35.15625,-30.2734375,3.41796875,-1.0,0.0,0.0,0.0,9.m4v,11.0
2024-02-28 15:02:02.500352,1709128922.5003524,-181.640625,-32.2265625,-37.59765625,-34.1796875,-1.0,0.0,0.0,0.0,9.m4v,11.0
2024-02-28 15:02:02.504256,1709128922.5042565,-231.93359375,-28.80859375,-26.3671875,-46.875,-1.0,0.0,0.0,0.0,9.m4v,11.0
2024-02-28 15:02:02.508161,1709128922.5081608,-227.05078125,-26.85546875,-31.25,-24.4140625,-1.0,0.0,0.0,0.0,9.m4v,11.0
2024-02-28 15:02:02.512065,1709128922.512065,-108.88671875,-34.1796875,-31.73828125,-13.671875,-1.0,0.0,0.0,0.0,9.m4v,11.0
2024-02-28 15:02:02.515969,1709128922.515969,-6.8359375,-32.2265625,-29.78515625,-33.69140625,-1.0,0.0,0.0,0.0,9.m4v,11.0
2024-02-28 15:02:02.519873,1709128922.5198734,-79.58984375,-29.296875,-31.73828125,-60.05859375,-1.0,0.0,0.0,0.0,9.m4v,11.0
2024-02-28 15:02:02.523777,1709128922.5237775,-194.82421875,-44.43359375,-34.66796875,-64.94140625,-1.0,0.0,0.0,0.0,9.m4v,11.0
2024-02-28 15:02:02.527682,1709128922.5276816,-250.0,-58.59375,-42.96875,-55.6640625,-1.0,0.0,0.0,0.0,9.m4v,11.0
2024-02-28 15:02:02.531586,1709128922.5315857,-50.78125,-53.7109375,-25.87890625,-9.765625,-1.0,0.0,0.0,0.0,9.m4v,11.0
2024-02-28 15:02:02.535490,1709128922.53549,65.91796875,-49.31640625,-16.11328125,-14.16015625,-1.0,0.0,0.0,0.0,9.m4v,11.0
2024-02-28 15:02:02.539394,1709128922.539394,-68.359375,-45.8984375,-28.3203125,-72.265625,-1.0,0.0,0.0,0.0,9.m4v,11.0
2024-02-28 15:02:02.543298,1709128922.5432982,-178.7109375,-32.71484375,-33.203125,-65.91796875,-1.0,0.0,0.0,0.0,9.m4v,11.0
2024-02-28 15:02:02.547218,1709128922.5472178,-214.84375,-21.97265625,-32.2265625,-31.25,-1.0,0.0,0.0,0.0,9.m4v,11.0
2024-02-28 15:02:02.551122,1709128922.551122,-105.95703125,-24.4140625,-34.66796875,-3.90625,-1.0,0.0,0.0,0.0,9.m4v,11.0
2024-02-28 15:02:02.555026,1709128922.555026,15.625,-29.296875,-36.62109375,-8.30078125,-1.0,0.0,0.0,0.0,9.m4v,11.0
2024-02-28 15:02:02.558930,1709128922.5589304,-70.80078125,-34.66796875,-36.1328125,-38.0859375,-1.0,0.0,0.0,0.0,9.m4v,11.0
2024-02-28 15:02:02.562835,1709128922.5628345,-181.640625,-35.15625,-39.55078125,-45.8984375,-1.0,0.0,0.0,0.0,9.m4v,11.0
2024-02-28 15:02:02.566739,1709128922.5667386,-186.03515625,-37.109375,-29.78515625,-32.71484375,-1.0,0.0,0.0,0.0,9.m4v,11.0
2024-02-28 15:02:02.570643,1709128922.570643,-77.1484375,-42.48046875,-19.04296875,-3.90625,-1.0,0.0,0.0,0.0,9.m4v,11.0
2024-02-28 15:02:02.574547,1709128922.574547,-6.8359375,-41.50390625,-29.296875,0.48828125,-1.0,0.0,0.0,0.0,9.m4v,11.0
2024-02-28 15:02:02.578451,1709128922.5784512,-92.7734375,-47.8515625,-36.1328125,-36.1328125,-1.0,0.0,0.0,0.0,9.m4v,11.0
2024-02-28 15:02:02.582355,1709128922.5823555,-187.5,-51.26953125,-30.2734375,-51.7578125,-1.0,0.0,0.0,0.0,9.m4v,11.0
2024-02-28 15:02:02.586260,1709128922.5862596,-235.83984375,-43.45703125,-20.99609375,-30.2734375,-1.0,0.0,0.0,0.0,9.m4v,11.0
2024-02-28 15:02:02.590164,1709128922.5901637,-145.99609375,-33.69140625,-20.99609375,6.8359375,-1.0,0.0,0.0,0.0,9.m4v,11.0
2024-02-28 15:02:02.594082,1709128922.594082,-16.6015625,-23.92578125,-27.34375,-2.9296875,-1.0,0.0,0.0,0.0,9.m4v,11.0
2024-02-28 15:02:02.597986,1709128922.5979862,-62.5,-23.4375,-31.73828125,-53.7109375,-1.0,0.0,0.0,0.0,9.m4v,11.0
2024-02-28 15:02:02.601891,1709128922.6018906,-151.3671875,-26.85546875,-29.296875,-62.98828125,-1.0,0.0,0.0,0.0,9.m4v,11.0
2024-02-28 15:02:02.605795,1709128922.605795,-190.91796875,-32.2265625,-27.83203125,-42.48046875,-1.0,0.0,0.0,0.0,9.m4v,11.0
2024-02-28 15:02:02.609699,1709128922.6096988,-144.53125,-36.1328125,-29.296875,-17.08984375,-1.0,0.0,0.0,0.0,9.m4v,11.0
2024-02-28 15:02:02.613603,1709128922.613603,35.64453125,-30.2734375,-23.4375,-7.8125,-1.0,0.0,0.0,0.0,9.m4v,11.0
2024-02-28 15:02:02.617507,1709128922.6175072,13.671875,-31.73828125,-26.3671875,-51.26953125,-1.0,0.0,0.0,0.0,9.m4v,11.0
2024-02-28 15:02:02.621411,1709128922.621411,-202.1484375,-39.0625,-29.296875,-83.984375,-1.0,0.0,0.0,0.0,9.m4v,11.0
2024-02-28 15:02:02.625316,1709128922.6253157,-258.30078125,-38.0859375,-23.4375,-62.01171875,-1.0,0.0,0.0,0.0,9.m4v,11.0
2024-02-28 15:02:02.629220,1709128922.6292198,-201.171875,-41.015625,-20.01953125,-34.1796875,-1.0,0.0,0.0,0.0,9.m4v,11.0
2024-02-28 15:02:02.633124,1709128922.633124,-74.21875,-44.43359375,-27.34375,-20.99609375,-1.0,0.0,0.0,0.0,9.m4v,11.0
2024-02-28 15:02:02.637028,1709128922.637028,-51.26953125,-41.015625,-29.296875,-41.015625,-1.0,0.0,0.0,0.0,9.m4v,11.0
2024-02-28 15:02:02.640957,1709128922.6409574,-145.99609375,-33.69140625,-31.73828125,-54.19921875,-1.0,0.0,0.0,0.0,9.m4v,11.0
2024-02-28 15:02:02.644862,1709128922.6448617,-183.59375,-40.0390625,-38.57421875,-32.2265625,-1.0,0.0,0.0,0.0,9.m4v,11.0
2024-02-28 15:02:02.648766,1709128922.6487658,-147.4609375,-54.6875,-35.64453125,-10.7421875,-1.0,0.0,0.0,0.0,9.m4v,11.0
2024-02-28 15:02:02.652670,1709128922.65267,-42.48046875,-43.9453125,-39.0625,-11.23046875,-1.0,0.0,0.0,0.0,9.m4v,11.0
2024-02-28 15:02:02.656574,1709128922.6565742,14.6484375,-31.25,-34.1796875,-20.99609375,-1.0,0.0,0.0,0.0,9.m4v,11.0
2024-02-28 15:02:02.660478,1709128922.6604784,-45.8984375,-32.71484375,-19.04296875,-35.64453125,-1.0,0.0,0.0,0.0,9.m4v,11.0
2024-02-28 15:02:02.664382,1709128922.6643825,-190.91796875,-36.62109375,-11.71875,-50.29296875,-1.0,0.0,0.0,0.0,9.m4v,11.0
2024-02-28 15:02:02.668287,1709128922.6682868,-241.69921875,-36.1328125,-22.94921875,-40.0390625,-1.0,0.0,0.0,0.0,9.m4v,11.0
2024-02-28 15:02:02.672191,1709128922.672191,-87.40234375,-35.64453125,-30.2734375,-16.6015625,-1.0,0.0,0.0,0.0,9.m4v,11.0
2024-02-28 15:02:02.676095,1709128922.676095,0.48828125,-43.45703125,-26.3671875,-20.01953125,-1.0,0.0,0.0,0.0,9.m4v,11.0
2024-02-28 15:02:02.679999,1709128922.6799994,-106.93359375,-49.8046875,-29.78515625,-54.19921875,-1.0,0.0,0.0,0.0,9.m4v,11.0
2024-02-28 15:02:02.683903,1709128922.6839037,-186.5234375,-42.48046875,-27.83203125,-59.5703125,-1.0,0.0,0.0,0.0,9.m4v,11.0
2024-02-28 15:02:02.687832,1709128922.687832,-187.5,-41.50390625,-29.78515625,-27.83203125,-1.0,0.0,0.0,0.0,9.m4v,11.0
2024-02-28 15:02:02.691736,1709128922.6917365,-100.5859375,-46.38671875,-26.85546875,-26.85546875,-1.0,0.0,0.0,0.0,9.m4v,11.0
2024-02-28 15:02:02.695641,1709128922.6956406,5.859375,-42.96875,-23.4375,-30.76171875,-1.0,0.0,0.0,0.0,9.m4v,11.0
2024-02-28 15:02:02.699545,1709128922.699545,-62.01171875,-41.015625,-29.78515625,-45.8984375,-1.0,0.0,0.0,0.0,9.m4v,11.0
2024-02-28 15:02:02.703449,1709128922.703449,-156.25,-36.1328125,-30.76171875,-56.640625,-1.0,0.0,0.0,0.0,9.m4v,11.0
2024-02-28 15:02:02.707353,1709128922.707353,-140.625,-31.73828125,-32.71484375,-26.85546875,-1.0,0.0,0.0,0.0,9.m4v,11.0
2024-02-28 15:02:02.711257,1709128922.7112572,-24.90234375,-31.25,-28.3203125,6.8359375,-1.0,0.0,0.0,0.0,9.m4v,11.0
2024-02-28 15:02:02.715162,1709128922.7151616,21.484375,-33.203125,-23.4375,-1.953125,-1.0,0.0,0.0,0.0,9.m4v,11.0
2024-02-28 15:02:02.719066,1709128922.7190657,-62.98828125,-41.50390625,-29.296875,-31.25,-1.0,0.0,0.0,0.0,9.m4v,11.0
2024-02-28 15:02:02.722970,1709128922.7229698,-179.6875,-48.828125,-38.57421875,-59.5703125,-1.0,0.0,0.0,0.0,9.m4v,11.0
2024-02-28 15:02:02.726874,1709128922.726874,-226.07421875,-40.52734375,-37.59765625,-49.31640625,-1.0,0.0,0.0,0.0,9.m4v,11.0
2024-02-28 15:02:02.730778,1709128922.7307782,-104.00390625,-37.109375,-25.87890625,-20.5078125,-1.0,0.0,0.0,0.0,9.m4v,11.0
2024-02-28 15:02:02.734704,1709128922.7347045,38.57421875,-36.1328125,-18.5546875,-20.99609375,-1.0,0.0,0.0,0.0,9.m4v,11.0
2024-02-28 15:02:02.738609,1709128922.7386086,-2.9296875,-33.203125,-23.4375,-42.48046875,-1.0,0.0,0.0,0.0,9.m4v,11.0
2024-02-28 15:02:02.742513,1709128922.742513,-137.6953125,-32.71484375,-30.76171875,-65.4296875,-1.0,0.0,0.0,0.0,9.m4v,11.0
2024-02-28 15:02:02.746417,1709128922.746417,-172.36328125,-38.0859375,-36.1328125,-44.43359375,-1.0,0.0,0.0,0.0,9.m4v,11.0
2024-02-28 15:02:02.750321,1709128922.7503211,-44.43359375,-56.640625,-31.73828125,-22.94921875,-1.0,0.0,0.0,0.0,9.m4v,11.0
2024-02-28 15:02:02.754225,1709128922.7542255,128.90625,-44.43359375,-21.484375,-27.83203125,-1.0,0.0,0.0,0.0,9.m4v,11.0
2024-02-28 15:02:02.758130,1709128922.7581296,29.296875,-23.4375,-27.34375,-62.01171875,-1.0,0.0,0.0,0.0,9.m4v,11.0
2024-02-28 15:02:02.762034,1709128922.7620337,-166.50390625,-22.94921875,-31.73828125,-94.23828125,-1.0,0.0,0.0,0.0,9.m4v,11.0
2024-02-28 15:02:02.765938,1709128922.765938,-186.03515625,-21.97265625,-33.203125,-73.2421875,-1.0,0.0,0.0,0.0,9.m4v,11.0
2024-02-28 15:02:02.769842,1709128922.769842,-104.98046875,-19.04296875,-39.55078125,-36.1328125,-1.0,0.0,0.0,0.0,9.m4v,11.0
2024-02-28 15:02:02.773746,1709128922.7737465,18.5546875,-21.97265625,-37.59765625,-33.203125,-1.0,0.0,0.0,0.0,9.m4v,11.0
2024-02-28 15:02:02.777651,1709128922.7776506,36.62109375,-31.25,-37.59765625,-45.8984375,-1.0,0.0,0.0,0.0,9.m4v,11.0
2024-02-28 15:02:02.781575,1709128922.7815752,-85.44921875,-40.0390625,-41.9921875,-59.08203125,-1.0,0.0,0.0,0.0,9.m4v,11.0
2024-02-28 15:02:02.785479,1709128922.7854793,-171.38671875,-37.109375,-44.43359375,-29.296875,-1.0,0.0,0.0,0.0,9.m4v,11.0
2024-02-28 15:02:02.789384,1709128922.7893836,-62.5,-24.4140625,-31.25,20.01953125,-1.0,0.0,0.0,0.0,9.m4v,11.0
2024-02-28 15:02:02.793288,1709128922.7932878,78.61328125,-22.94921875,-26.3671875,17.578125,-1.0,0.0,0.0,0.0,9.m4v,11.0
2024-02-28 15:02:02.797192,1709128922.797192,28.3203125,-39.0625,-42.48046875,-12.20703125,-1.0,0.0,0.0,0.0,9.m4v,11.0
2024-02-28 15:02:02.801096,1709128922.8010962,-68.359375,-47.8515625,-45.8984375,-31.25,-1.0,0.0,0.0,0.0,9.m4v,11.0
2024-02-28 15:02:02.805000,1709128922.8050003,-124.51171875,-36.1328125,-36.62109375,-19.53125,-1.0,0.0,0.0,0.0,9.m4v,11.0
2024-02-28 15:02:02.808904,1709128922.8089044,-121.58203125,-33.203125,-32.2265625,2.44140625,-1.0,0.0,0.0,0.0,9.m4v,11.0
2024-02-28 15:02:02.812809,1709128922.8128088,-26.3671875,-37.59765625,-29.296875,19.04296875,-1.0,0.0,0.0,0.0,9.m4v,11.0
2024-02-28 15:02:02.816713,1709128922.8167129,-32.71484375,-34.1796875,-27.83203125,-3.41796875,-1.0,0.0,0.0,0.0,9.m4v,11.0
2024-02-28 15:02:02.820617,1709128922.820617,-125.9765625,-34.1796875,-37.109375,-41.015625,-1.0,0.0,0.0,0.0,9.m4v,11.0
2024-02-28 15:02:02.824521,1709128922.824521,-184.5703125,-34.66796875,-38.57421875,-43.45703125,-1.0,0.0,0.0,0.0,9.m4v,11.0
2024-02-28 15:02:02.828444,1709128922.8284442,-189.453125,-40.0390625,-38.0859375,-22.4609375,-1.0,0.0,0.0,0.0,9.m4v,11.0
2024-02-28 15:02:02.832348,1709128922.8323483,-51.7578125,-35.64453125,-36.1328125,0.48828125,-1.0,0.0,0.0,0.0,9.m4v,11.0
2024-02-28 15:02:02.836252,1709128922.8362525,48.828125,-23.4375,-35.15625,-9.765625,-1.0,0.0,0.0,0.0,9.m4v,11.0
2024-02-28 15:02:02.840157,1709128922.8401568,-62.98828125,-36.62109375,-47.8515625,-46.875,-1.0,0.0,0.0,0.0,9.m4v,11.0
2024-02-28 15:02:02.844061,1709128922.844061,-176.26953125,-42.48046875,-55.6640625,-34.66796875,-1.0,0.0,0.0,0.0,9.m4v,11.0
2024-02-28 15:02:02.847965,1709128922.847965,-132.8125,-39.55078125,-47.8515625,-22.94921875,-1.0,0.0,0.0,0.0,9.m4v,11.0
2024-02-28 15:02:02.851869,1709128922.851869,-5.859375,-40.0390625,-35.64453125,-32.71484375,-1.0,0.0,0.0,0.0,9.m4v,11.0
2024-02-28 15:02:02.855773,1709128922.8557734,3.90625,-34.1796875,-29.78515625,-44.43359375,-1.0,0.0,0.0,0.0,9.m4v,11.0
2024-02-28 15:02:02.859678,1709128922.8596776,-110.83984375,-31.73828125,-27.34375,-81.0546875,-1.0,0.0,0.0,0.0,9.m4v,11.0
2024-02-28 15:02:02.863582,1709128922.863582,-196.2890625,-35.64453125,-34.66796875,-103.515625,-1.0,0.0,0.0,0.0,9.m4v,11.0
2024-02-28 15:02:02.867486,1709128922.867486,-188.96484375,-41.015625,-36.1328125,-79.58984375,-1.0,0.0,0.0,0.0,9.m4v,11.0
2024-02-28 15:02:02.871390,1709128922.87139,-42.96875,-30.76171875,-38.57421875,-44.921875,-1.0,0.0,0.0,0.0,9.m4v,11.0
2024-02-28 15:02:02.875314,1709128922.8753145,66.40625,-32.2265625,-48.828125,-31.25,-1.0,0.0,0.0,0.0,9.m4v,11.0
2024-02-28 15:02:02.879219,1709128922.8792186,-20.5078125,-43.45703125,-42.48046875,-47.36328125,-1.0,0.0,0.0,0.0,9.m4v,11.0
2024-02-28 15:02:02.883123,1709128922.8831227,-137.20703125,-37.59765625,-30.76171875,-59.08203125,-1.0,0.0,0.0,0.0,9.m4v,11.0
2024-02-28 15:02:02.887027,1709128922.887027,-186.5234375,-40.0390625,-26.3671875,-35.15625,-1.0,0.0,0.0,0.0,9.m4v,11.0
2024-02-28 15:02:02.890931,1709128922.8909311,-62.01171875,-43.9453125,-20.01953125,-14.16015625,-1.0,0.0,0.0,0.0,9.m4v,11.0
2024-02-28 15:02:02.894835,1709128922.8948352,103.02734375,-26.85546875,-18.06640625,-28.80859375,-1.0,0.0,0.0,0.0,9.m4v,11.0
2024-02-28 15:02:02.898739,1709128922.898739,3.41796875,-24.4140625,-27.34375,-62.5,-1.0,0.0,0.0,0.0,9.m4v,11.0
2024-02-28 15:02:02.902644,1709128922.9026437,-201.66015625,-38.57421875,-34.66796875,-90.8203125,-1.0,0.0,0.0,0.0,9.m4v,11.0
2024-02-28 15:02:02.906548,1709128922.9065478,-240.234375,-36.1328125,-31.73828125,-63.4765625,-1.0,0.0,0.0,0.0,9.m4v,11.0
2024-02-28 15:02:02.910452,1709128922.910452,-86.9140625,-29.296875,-26.85546875,-26.85546875,-1.0,0.0,0.0,0.0,9.m4v,11.0
2024-02-28 15:02:02.914356,1709128922.9143562,60.05859375,-25.87890625,-28.80859375,-28.80859375,-1.0,0.0,0.0,0.0,9.m4v,11.0
2024-02-28 15:02:02.918260,1709128922.9182603,-21.97265625,-29.78515625,-34.66796875,-54.6875,-1.0,0.0,0.0,0.0,9.m4v,11.0
2024-02-28 15:02:02.922182,1709128922.9221823,-151.85546875,-34.1796875,-37.109375,-85.44921875,-1.0,0.0,0.0,0.0,9.m4v,11.0
2024-02-28 15:02:02.926086,1709128922.9260864,-187.98828125,-37.109375,-38.0859375,-76.66015625,-1.0,0.0,0.0,0.0,9.m4v,11.0
2024-02-28 15:02:02.929991,1709128922.9299908,-76.66015625,-32.2265625,-38.0859375,-40.52734375,-1.0,0.0,0.0,0.0,9.m4v,11.0
2024-02-28 15:02:02.933895,1709128922.9338949,58.10546875,-32.71484375,-35.15625,-39.0625,-1.0,0.0,0.0,0.0,9.m4v,11.0
2024-02-28 15:02:02.937799,1709128922.937799,-2.9296875,-42.48046875,-36.1328125,-62.5,-1.0,0.0,0.0,0.0,9.m4v,11.0
2024-02-28 15:02:02.941703,1709128922.941703,-99.12109375,-31.73828125,-36.62109375,-75.1953125,-1.0,0.0,0.0,0.0,9.m4v,11.0
2024-02-28 15:02:02.945607,1709128922.9456074,-159.1796875,-27.34375,-35.15625,-73.2421875,-1.0,0.0,0.0,0.0,9.m4v,11.0
2024-02-28 15:02:02.949512,1709128922.9495115,-139.6484375,-39.55078125,-34.1796875,-39.55078125,-1.0,0.0,0.0,0.0,9.m4v,11.0
2024-02-28 15:02:02.953416,1709128922.953416,41.9921875,-38.0859375,-33.203125,-1.953125,-1.0,0.0,0.0,0.0,9.m4v,11.0
2024-02-28 15:02:02.957320,1709128922.95732,28.3203125,-40.0390625,-35.64453125,-27.34375,-1.0,0.0,0.0,0.0,9.m4v,11.0
2024-02-28 15:02:02.961224,1709128922.961224,-170.8984375,-46.875,-37.109375,-83.984375,-1.0,0.0,0.0,0.0,9.m4v,11.0
2024-02-28 15:02:02.965128,1709128922.9651284,-251.46484375,-42.96875,-33.203125,-90.33203125,-1.0,0.0,0.0,0.0,9.m4v,11.0
2024-02-28 15:02:02.969046,1709128922.969046,-181.640625,-41.9921875,-30.2734375,-64.453125,-1.0,0.0,0.0,0.0,9.m4v,11.0
2024-02-28 15:02:02.972950,1709128922.9729502,-23.92578125,-40.0390625,-32.2265625,-56.15234375,-1.0,0.0,0.0,0.0,9.m4v,11.0
2024-02-28 15:02:02.976855,1709128922.9768546,-12.20703125,-42.96875,-34.66796875,-81.0546875,-1.0,0.0,0.0,0.0,9.m4v,11.0
2024-02-28 15:02:02.980759,1709128922.980759,-110.83984375,-48.33984375,-33.203125,-96.19140625,-1.0,0.0,0.0,0.0,9.m4v,11.0
2024-02-28 15:02:02.984663,1709128922.9846628,-185.546875,-43.9453125,-35.64453125,-88.37890625,-1.0,0.0,0.0,0.0,9.m4v,11.0
2024-02-28 15:02:02.988567,1709128922.988567,-121.09375,-41.015625,-41.9921875,-52.24609375,-1.0,0.0,0.0,0.0,9.m4v,11.0
2024-02-28 15:02:02.992471,1709128922.9924712,41.9921875,-41.015625,-43.45703125,-23.4375,-1.0,0.0,0.0,0.0,9.m4v,11.0
2024-02-28 15:02:02.996375,1709128922.996375,7.32421875,-40.0390625,-42.48046875,-26.3671875,-1.0,0.0,0.0,0.0,9.m4v,11.0
2024-02-28 15:02:03.000280,1709128923.0002797,-94.23828125,-35.15625,-38.0859375,-44.921875,-1.0,0.0,0.0,0.0,9.m4v,11.0
2024-02-28 15:02:03.004184,1709128923.0041838,-140.625,-38.0859375,-39.55078125,-49.8046875,-1.0,0.0,0.0,0.0,9.m4v,11.0
2024-02-28 15:02:03.008088,1709128923.008088,-149.90234375,-39.55078125,-40.0390625,-21.484375,-1.0,0.0,0.0,0.0,9.m4v,11.0
2024-02-28 15:02:03.011992,1709128923.0119922,6.34765625,-36.1328125,-31.73828125,19.04296875,-1.0,0.0,0.0,0.0,9.m4v,11.0
2024-02-28 15:02:03.015908,1709128923.015908,91.30859375,-36.1328125,-27.34375,0.9765625,-1.0,0.0,0.0,0.0,9.m4v,11.0
2024-02-28 15:02:03.019812,1709128923.019812,-23.92578125,-40.52734375,-30.2734375,-44.921875,-1.0,0.0,0.0,0.0,9.m4v,11.0
2024-02-28 15:02:03.023716,1709128923.0237164,-113.28125,-31.73828125,-31.73828125,-37.59765625,-1.0,0.0,0.0,0.0,9.m4v,11.0
2024-02-28 15:02:03.027621,1709128923.0276206,-145.01953125,-28.80859375,-28.3203125,-39.55078125,-1.0,0.0,0.0,0.0,9.m4v,11.0
2024-02-28 15:02:03.031525,1709128923.031525,-28.3203125,-35.15625,-28.80859375,-38.57421875,-1.0,0.0,0.0,0.0,9.m4v,11.0
2024-02-28 15:02:03.035429,1709128923.035429,114.74609375,-27.34375,-26.3671875,-28.3203125,-1.0,0.0,0.0,0.0,9.m4v,11.0
2024-02-28 15:02:03.039333,1709128923.039333,-3.41796875,-27.34375,-19.53125,-48.33984375,-1.0,0.0,0.0,0.0,9.m4v,11.0
2024-02-28 15:02:03.043237,1709128923.0432372,-164.0625,-35.15625,-30.76171875,-62.01171875,-1.0,0.0,0.0,0.0,9.m4v,11.0
2024-02-28 15:02:03.047142,1709128923.0471416,-150.87890625,-25.390625,-38.57421875,-39.0625,-1.0,0.0,0.0,0.0,9.m4v,11.0
2024-02-28 15:02:03.051046,1709128923.0510457,0.48828125,-20.5078125,-25.390625,-4.39453125,-1.0,0.0,0.0,0.0,9.m4v,11.0
2024-02-28 15:02:03.054950,1709128923.0549498,89.84375,-29.78515625,-26.85546875,-23.92578125,-1.0,0.0,0.0,0.0,9.m4v,11.0
2024-02-28 15:02:03.058854,1709128923.058854,-33.203125,-35.15625,-30.2734375,-60.546875,-1.0,0.0,0.0,0.0,9.m4v,11.0
2024-02-28 15:02:03.062782,1709128923.0627818,-148.4375,-33.69140625,-27.34375,-64.94140625,-1.0,0.0,0.0,0.0,9.m4v,11.0
2024-02-28 15:02:03.066686,1709128923.066686,-191.89453125,-38.57421875,-29.78515625,-52.734375,-1.0,0.0,0.0,0.0,9.m4v,11.0
2024-02-28 15:02:03.070590,1709128923.07059,-71.77734375,-32.2265625,-26.85546875,-24.4140625,-1.0,0.0,0.0,0.0,9.m4v,11.0
2024-02-28 15:02:03.074494,1709128923.0744944,79.58984375,-17.08984375,-27.83203125,-15.13671875,-1.0,0.0,0.0,0.0,9.m4v,11.0
2024-02-28 15:02:03.078398,1709128923.0783985,21.97265625,-23.4375,-37.109375,-31.73828125,-1.0,0.0,0.0,0.0,9.m4v,11.0
2024-02-28 15:02:03.082303,1709128923.0823026,-86.9140625,-26.85546875,-43.45703125,-30.2734375,-1.0,0.0,0.0,0.0,9.m4v,11.0
2024-02-28 15:02:03.086207,1709128923.086207,-146.484375,-30.2734375,-39.55078125,-19.53125,-1.0,0.0,0.0,0.0,9.m4v,11.0
2024-02-28 15:02:03.090111,1709128923.090111,-100.5859375,-39.55078125,-31.73828125,-3.90625,-1.0,0.0,0.0,0.0,9.m4v,11.0
2024-02-28 15:02:03.094015,1709128923.0940151,53.22265625,-42.48046875,-23.92578125,13.671875,-1.0,0.0,0.0,0.0,9.m4v,11.0
2024-02-28 15:02:03.097919,1709128923.0979197,24.90234375,-41.50390625,-21.484375,-27.83203125,-1.0,0.0,0.0,0.0,9.m4v,11.0
2024-02-28 15:02:03.101824,1709128923.1018236,-178.7109375,-36.62109375,-33.203125,-79.58984375,-1.0,0.0,0.0,0.0,9.m4v,11.0
2024-02-28 15:02:03.105728,1709128923.1057277,-242.1875,-34.66796875,-38.0859375,-46.38671875,-1.0,0.0,0.0,0.0,9.m4v,11.0
2024-02-28 15:02:03.109655,1709128923.109655,-153.80859375,-36.62109375,-37.59765625,-29.78515625,-1.0,0.0,0.0,0.0,9.m4v,11.0
2024-02-28 15:02:03.113559,1709128923.113559,-44.921875,-32.2265625,-44.43359375,-53.7109375,-1.0,0.0,0.0,0.0,9.m4v,11.0
2024-02-28 15:02:03.117463,1709128923.117463,-27.34375,-23.92578125,-45.8984375,-69.82421875,-1.0,0.0,0.0,0.0,9.m4v,11.0
2024-02-28 15:02:03.121367,1709128923.1213677,-141.11328125,-20.01953125,-38.57421875,-83.984375,-1.0,0.0,0.0,0.0,9.m4v,11.0
2024-02-28 15:02:03.125272,1709128923.1252716,-259.765625,-27.34375,-29.78515625,-76.171875,-1.0,0.0,0.0,0.0,9.m4v,11.0
2024-02-28 15:02:03.129176,1709128923.1291757,-176.26953125,-26.3671875,-24.90234375,-41.50390625,-1.0,0.0,0.0,0.0,9.m4v,11.0
2024-02-28 15:02:03.133080,1709128923.13308,-0.48828125,-21.484375,-20.5078125,-23.92578125,-1.0,0.0,0.0,0.0,9.m4v,11.0
2024-02-28 15:02:03.136984,1709128923.136984,-41.9921875,-30.76171875,-25.87890625,-34.66796875,-1.0,0.0,0.0,0.0,9.m4v,11.0
2024-02-28 15:02:03.140888,1709128923.1408882,-148.4375,-33.203125,-29.78515625,-48.33984375,-1.0,0.0,0.0,0.0,9.m4v,11.0
2024-02-28 15:02:03.144793,1709128923.1447926,-214.35546875,-31.25,-27.83203125,-48.828125,-1.0,0.0,0.0,0.0,9.m4v,11.0
2024-02-28 15:02:03.148697,1709128923.148697,-188.4765625,-29.78515625,-22.4609375,-33.203125,-1.0,0.0,0.0,0.0,9.m4v,11.0
2024-02-28 15:02:03.152601,1709128923.1526008,-37.59765625,-24.90234375,-26.85546875,-15.625,-1.0,0.0,0.0,0.0,9.m4v,11.0
2024-02-28 15:02:03.156526,1709128923.1565256,0.0,-22.94921875,-32.2265625,-32.71484375,-1.0,0.0,0.0,0.0,9.m4v,11.0
2024-02-28 15:02:03.160430,1709128923.1604297,-114.2578125,-36.62109375,-29.296875,-67.87109375,-1.0,0.0,0.0,0.0,9.m4v,11.0
2024-02-28 15:02:03.164334,1709128923.1643338,-172.36328125,-35.15625,-29.296875,-65.91796875,-1.0,0.0,0.0,0.0,9.m4v,11.0
2024-02-28 15:02:03.168238,1709128923.1682382,-149.4140625,-28.80859375,-27.83203125,-35.15625,-1.0,0.0,0.0,0.0,9.m4v,11.0
2024-02-28 15:02:03.172142,1709128923.1721425,-47.8515625,-40.0390625,-29.78515625,-28.80859375,-1.0,0.0,0.0,0.0,9.m4v,11.0
2024-02-28 15:02:03.176046,1709128923.1760464,29.78515625,-38.57421875,-32.2265625,-43.45703125,-1.0,0.0,0.0,0.0,9.m4v,11.0
2024-02-28 15:02:03.179951,1709128923.1799507,-62.5,-32.2265625,-27.83203125,-45.41015625,-1.0,0.0,0.0,0.0,9.m4v,11.0
2024-02-28 15:02:03.183855,1709128923.1838548,-167.96875,-39.0625,-26.3671875,-18.5546875,-1.0,0.0,0.0,0.0,9.m4v,11.0
2024-02-28 15:02:03.187759,1709128923.187759,-176.7578125,-42.96875,-35.15625,-15.13671875,-1.0,0.0,0.0,0.0,9.m4v,11.0
2024-02-28 15:02:03.191663,1709128923.1916633,-73.73046875,-26.85546875,-36.62109375,-21.484375,-1.0,0.0,0.0,0.0,9.m4v,11.0
2024-02-28 15:02:03.195567,1709128923.1955674,14.16015625,-12.20703125,-28.80859375,-26.85546875,-1.0,0.0,0.0,0.0,9.m4v,11.0
2024-02-28 15:02:03.199471,1709128923.1994717,-64.94140625,-16.6015625,-20.99609375,-45.8984375,-1.0,0.0,0.0,0.0,9.m4v,11.0
2024-02-28 15:02:03.203395,1709128923.203395,-194.82421875,-28.3203125,-18.5546875,-36.1328125,-1.0,0.0,0.0,0.0,9.m4v,11.0
2024-02-28 15:02:03.207299,1709128923.2072988,-220.703125,-30.2734375,-19.04296875,-19.53125,-1.0,0.0,0.0,0.0,9.m4v,11.0
2024-02-28 15:02:03.211203,1709128923.2112029,-63.4765625,-31.25,-19.04296875,14.6484375,-1.0,0.0,0.0,0.0,9.m4v,11.0
2024-02-28 15:02:03.215107,1709128923.2151072,25.87890625,-26.3671875,-21.97265625,20.99609375,-1.0,0.0,0.0,0.0,9.m4v,11.0
2024-02-28 15:02:03.219011,1709128923.2190113,-80.078125,-25.87890625,-24.90234375,-10.25390625,-1.0,0.0,0.0,0.0,9.m4v,11.0
2024-02-28 15:02:03.222915,1709128923.2229154,-138.671875,-29.78515625,-25.390625,-10.25390625,-1.0,0.0,0.0,0.0,9.m4v,11.0
2024-02-28 15:02:03.226820,1709128923.2268198,-149.4140625,-24.90234375,-25.87890625,0.0,-1.0,0.0,0.0,0.0,9.m4v,11.0
2024-02-28 15:02:03.230724,1709128923.230724,-92.7734375,-33.203125,-14.6484375,22.94921875,-1.0,0.0,0.0,0.0,9.m4v,11.0
2024-02-28 15:02:03.234628,1709128923.234628,-13.671875,-34.66796875,-17.08984375,23.4375,-1.0,0.0,0.0,0.0,9.m4v,11.0
2024-02-28 15:02:03.238532,1709128923.2385323,-100.09765625,-29.78515625,-31.73828125,-22.94921875,-1.0,0.0,0.0,0.0,9.m4v,11.0
2024-02-28 15:02:03.242436,1709128923.2424364,-227.05078125,-39.0625,-32.2265625,-45.41015625,-1.0,0.0,0.0,0.0,9.m4v,11.0
2024-02-28 15:02:03.246341,1709128923.2463405,-232.91015625,-37.59765625,-29.78515625,-17.08984375,-1.0,0.0,0.0,0.0,9.m4v,11.0
2024-02-28 15:02:03.250262,1709128923.2502615,-104.4921875,-30.76171875,-29.78515625,19.04296875,-1.0,0.0,0.0,0.0,9.m4v,11.0
2024-02-28 15:02:03.254166,1709128923.254166,1.46484375,-34.66796875,-28.80859375,22.94921875,-1.0,0.0,0.0,0.0,9.m4v,11.0
2024-02-28 15:02:03.258070,1709128923.25807,-66.40625,-34.66796875,-26.85546875,-32.71484375,-1.0,0.0,0.0,0.0,9.m4v,11.0
2024-02-28 15:02:03.261974,1709128923.261974,-173.828125,-28.3203125,-29.296875,-62.98828125,-1.0,0.0,0.0,0.0,9.m4v,11.0
2024-02-28 15:02:03.265878,1709128923.2658784,-251.46484375,-34.1796875,-36.62109375,-48.828125,-1.0,0.0,0.0,0.0,9.m4v,11.0
2024-02-28 15:02:03.269783,1709128923.2697823,-137.6953125,-31.25,-34.66796875,-32.2265625,-1.0,0.0,0.0,0.0,9.m4v,11.0
2024-02-28 15:02:03.273687,1709128923.2736866,23.4375,-21.97265625,-35.15625,-31.73828125,-1.0,0.0,0.0,0.0,9.m4v,11.0
2024-02-28 15:02:03.277591,1709128923.277591,-89.35546875,-31.73828125,-39.0625,-71.2890625,-1.0,0.0,0.0,0.0,9.m4v,11.0
2024-02-28 15:02:03.281495,1709128923.281495,-221.19140625,-35.64453125,-37.109375,-80.56640625,-1.0,0.0,0.0,0.0,9.m4v,11.0
2024-02-28 15:02:03.285399,1709128923.2853992,-216.796875,-30.2734375,-32.71484375,-59.5703125,-1.0,0.0,0.0,0.0,9.m4v,11.0
2024-02-28 15:02:03.289304,1709128923.2893035,-154.78515625,-30.76171875,-31.73828125,-40.52734375,-1.0,0.0,0.0,0.0,9.m4v,11.0
2024-02-28 15:02:03.293208,1709128923.2932076,-25.87890625,-28.3203125,-32.2265625,-26.85546875,-1.0,0.0,0.0,0.0,9.m4v,11.0
2024-02-28 15:02:03.297128,1709128923.297128,-13.18359375,-33.203125,-29.296875,-44.921875,-1.0,0.0,0.0,0.0,9.m4v,11.0
2024-02-28 15:02:03.301032,1709128923.301032,-171.875,-40.52734375,-29.78515625,-57.6171875,-1.0,0.0,0.0,0.0,9.m4v,11.0
2024-02-28 15:02:03.304936,1709128923.3049364,-233.3984375,-31.25,-25.87890625,-18.06640625,-1.0,0.0,0.0,0.0,9.m4v,11.0
2024-02-28 15:02:03.308841,1709128923.3088405,-162.59765625,-25.87890625,-21.97265625,10.25390625,-1.0,0.0,0.0,0.0,9.m4v,11.0
2024-02-28 15:02:03.312745,1709128923.3127446,-38.57421875,-31.25,-22.4609375,16.6015625,-1.0,0.0,0.0,0.0,9.m4v,11.0
2024-02-28 15:02:03.316649,1709128923.316649,2.44140625,-34.1796875,-22.4609375,4.39453125,-1.0,0.0,0.0,0.0,9.m4v,11.0
2024-02-28 15:02:03.320553,1709128923.320553,-133.30078125,-31.25,-30.76171875,-37.59765625,-1.0,0.0,0.0,0.0,9.m4v,11.0
2024-02-28 15:02:03.324457,1709128923.3244572,-288.57421875,-29.78515625,-35.64453125,-46.38671875,-1.0,0.0,0.0,0.0,9.m4v,11.0
2024-02-28 15:02:03.328362,1709128923.3283615,-226.07421875,-25.87890625,-25.390625,5.37109375,-1.0,0.0,0.0,0.0,9.m4v,11.0
2024-02-28 15:02:03.332266,1709128923.3322656,-60.05859375,-27.34375,-18.5546875,36.1328125,-1.0,0.0,0.0,0.0,9.m4v,11.0
2024-02-28 15:02:03.336170,1709128923.3361695,-30.76171875,-21.97265625,-24.90234375,-0.9765625,-1.0,0.0,0.0,0.0,9.m4v,11.0
2024-02-28 15:02:03.340074,1709128923.340074,-138.18359375,-18.06640625,-25.390625,-38.0859375,-1.0,0.0,0.0,0.0,9.m4v,11.0
2024-02-28 15:02:03.343994,1709128923.3439944,-223.6328125,-29.78515625,-21.484375,-22.4609375,-1.0,0.0,0.0,0.0,9.m4v,11.0
2024-02-28 15:02:03.347898,1709128923.3478985,-219.7265625,-43.9453125,-24.4140625,10.25390625,-1.0,0.0,0.0,0.0,9.m4v,11.0
2024-02-28 15:02:03.351803,1709128923.3518028,-117.67578125,-43.45703125,-33.69140625,21.97265625,-1.0,0.0,0.0,0.0,9.m4v,11.0
2024-02-28 15:02:03.355707,1709128923.355707,-63.4765625,-38.0859375,-33.69140625,11.71875,-1.0,0.0,0.0,0.0,9.m4v,11.0
2024-02-28 15:02:03.359611,1709128923.359611,-135.25390625,-41.50390625,-25.87890625,-8.30078125,-1.0,0.0,0.0,0.0,9.m4v,11.0
2024-02-28 15:02:03.363515,1709128923.3635154,-190.4296875,-39.0625,-23.4375,-3.41796875,-1.0,0.0,0.0,0.0,9.m4v,11.0
2024-02-28 15:02:03.367419,1709128923.3674195,-190.91796875,-32.2265625,-19.04296875,28.3203125,-1.0,0.0,0.0,0.0,9.m4v,11.0
2024-02-28 15:02:03.371324,1709128923.3713236,-103.515625,-23.92578125,-16.6015625,45.41015625,-1.0,0.0,0.0,0.0,9.m4v,11.0
2024-02-28 15:02:03.375228,1709128923.375228,-36.1328125,-22.4609375,-24.90234375,43.9453125,-1.0,0.0,0.0,0.0,9.m4v,11.0
2024-02-28 15:02:03.379132,1709128923.379132,-137.6953125,-25.390625,-37.109375,17.08984375,-1.0,0.0,0.0,0.0,9.m4v,11.0
2024-02-28 15:02:03.383036,1709128923.383036,-269.53125,-24.90234375,-33.69140625,-10.25390625,-1.0,0.0,0.0,0.0,9.m4v,11.0
2024-02-28 15:02:03.386940,1709128923.3869405,-280.2734375,-28.3203125,-22.94921875,-2.9296875,-1.0,0.0,0.0,0.0,9.m4v,11.0
2024-02-28 15:02:03.390856,1709128923.3908565,-135.25390625,-24.90234375,-19.04296875,8.30078125,-1.0,0.0,0.0,0.0,9.m4v,11.0
2024-02-28 15:02:03.394761,1709128923.3947606,-20.99609375,-16.6015625,-27.34375,5.859375,-1.0,0.0,0.0,0.0,9.m4v,11.0
2024-02-28 15:02:03.398665,1709128923.3986647,-111.328125,-25.390625,-26.85546875,-27.83203125,-1.0,0.0,0.0,0.0,9.m4v,11.0
2024-02-28 15:02:03.402569,1709128923.4025688,-245.60546875,-37.109375,-19.04296875,-52.24609375,-1.0,0.0,0.0,0.0,9.m4v,11.0
2024-02-28 15:02:03.406473,1709128923.4064732,-244.62890625,-30.76171875,-23.4375,-35.64453125,-1.0,0.0,0.0,0.0,9.m4v,11.0
2024-02-28 15:02:03.410377,1709128923.4103773,-90.8203125,-26.3671875,-33.203125,-3.41796875,-1.0,0.0,0.0,0.0,9.m4v,11.0
2024-02-28 15:02:03.414281,1709128923.4142814,0.9765625,-32.2265625,-34.1796875,-4.8828125,-1.0,0.0,0.0,0.0,9.m4v,11.0
2024-02-28 15:02:03.418186,1709128923.4181857,-103.02734375,-33.69140625,-27.34375,-41.9921875,-1.0,0.0,0.0,0.0,9.m4v,11.0
2024-02-28 15:02:03.422090,1709128923.4220898,-198.73046875,-31.73828125,-26.85546875,-46.38671875,-1.0,0.0,0.0,0.0,9.m4v,11.0
2024-02-28 15:02:03.425994,1709128923.425994,-244.62890625,-33.69140625,-30.76171875,-41.9921875,-1.0,0.0,0.0,0.0,9.m4v,11.0
2024-02-28 15:02:03.429898,1709128923.4298985,-129.8828125,-38.0859375,-33.203125,-20.01953125,-1.0,0.0,0.0,0.0,9.m4v,11.0
2024-02-28 15:02:03.433802,1709128923.4338024,13.18359375,-44.43359375,-33.69140625,-5.37109375,-1.0,0.0,0.0,0.0,9.m4v,11.0
2024-02-28 15:02:03.437731,1709128923.437731,-30.2734375,-38.57421875,-33.203125,-26.85546875,-1.0,0.0,0.0,0.0,9.m4v,11.0
2024-02-28 15:02:03.441635,1709128923.4416354,-147.4609375,-33.203125,-31.25,-44.43359375,-1.0,0.0,0.0,0.0,9.m4v,11.0
2024-02-28 15:02:03.445539,1709128923.4455397,-222.65625,-37.59765625,-29.78515625,-37.109375,-1.0,0.0,0.0,0.0,9.m4v,11.0
2024-02-28 15:02:03.449444,1709128923.4494438,-124.51171875,-37.109375,-27.34375,-6.34765625,-1.0,0.0,0.0,0.0,9.m4v,11.0
2024-02-28 15:02:03.453348,1709128923.453348,28.80859375,-33.203125,-31.25,2.9296875,-1.0,0.0,0.0,0.0,9.m4v,11.0
2024-02-28 15:02:03.457252,1709128923.457252,25.390625,-31.25,-42.48046875,-24.4140625,-1.0,0.0,0.0,0.0,9.m4v,11.0
2024-02-28 15:02:03.461156,1709128923.4611564,-134.765625,-38.0859375,-38.57421875,-50.29296875,-1.0,0.0,0.0,0.0,9.m4v,11.0
2024-02-28 15:02:03.465060,1709128923.4650605,-245.60546875,-39.55078125,-27.34375,-63.96484375,-1.0,0.0,0.0,0.0,9.m4v,11.0
2024-02-28 15:02:03.468965,1709128923.4689646,-160.15625,-31.73828125,-25.87890625,-38.57421875,-1.0,0.0,0.0,0.0,9.m4v,11.0
2024-02-28 15:02:03.472869,1709128923.472869,-5.37109375,-28.3203125,-34.1796875,-7.32421875,-1.0,0.0,0.0,0.0,9.m4v,11.0
2024-02-28 15:02:03.476773,1709128923.476773,-6.34765625,-26.85546875,-41.50390625,-22.94921875,-1.0,0.0,0.0,0.0,9.m4v,11.0
2024-02-28 15:02:03.480677,1709128923.4806771,-124.51171875,-26.85546875,-35.64453125,-55.6640625,-1.0,0.0,0.0,0.0,9.m4v,11.0
2024-02-28 15:02:03.484603,1709128923.4846034,-193.84765625,-29.296875,-33.69140625,-60.546875,-1.0,0.0,0.0,0.0,9.m4v,11.0
2024-02-28 15:02:03.488508,1709128923.4885075,-145.01953125,-31.73828125,-36.62109375,-44.43359375,-1.0,0.0,0.0,0.0,9.m4v,11.0
2024-02-28 15:02:03.492412,1709128923.492412,-14.6484375,-37.109375,-31.73828125,-33.69140625,-1.0,0.0,0.0,0.0,9.m4v,11.0
2024-02-28 15:02:03.496316,1709128923.4963162,8.30078125,-36.1328125,-28.80859375,-41.015625,-1.0,0.0,0.0,0.0,9.m4v,11.0
2024-02-28 15:02:03.500220,1709128923.5002203,-79.1015625,-31.73828125,-32.71484375,-43.9453125,-1.0,0.0,0.0,0.0,9.m4v,11.0
2024-02-28 15:02:03.504124,1709128923.5041244,-134.27734375,-38.0859375,-30.76171875,-41.015625,-1.0,0.0,0.0,0.0,9.m4v,11.0
2024-02-28 15:02:03.508029,1709128923.5080287,-140.625,-39.0625,-21.97265625,-33.203125,-1.0,0.0,0.0,0.0,9.m4v,11.0
2024-02-28 15:02:03.511933,1709128923.5119328,-50.29296875,-31.73828125,-20.99609375,-17.578125,-1.0,0.0,0.0,0.0,9.m4v,11.0
2024-02-28 15:02:03.515837,1709128923.515837,-12.6953125,-30.76171875,-22.94921875,-39.55078125,-1.0,0.0,0.0,0.0,9.m4v,11.0
2024-02-28 15:02:03.519741,1709128923.5197413,-120.1171875,-31.25,-32.71484375,-68.84765625,-1.0,0.0,0.0,0.0,9.m4v,11.0
2024-02-28 15:02:03.523645,1709128923.5236454,-204.1015625,-27.83203125,-40.52734375,-62.5,-1.0,0.0,0.0,0.0,9.m4v,11.0
2024-02-28 15:02:03.527550,1709128923.5275495,-166.9921875,-27.83203125,-31.25,-39.0625,-1.0,0.0,0.0,0.0,9.m4v,11.0
2024-02-28 15:02:03.531475,1709128923.5314748,-42.96875,-27.34375,-25.390625,-25.390625,-1.0,0.0,0.0,0.0,9.m4v,11.0
2024-02-28 15:02:03.535379,1709128923.5353792,-7.32421875,-28.80859375,-31.73828125,-38.57421875,-1.0,0.0,0.0,0.0,9.m4v,11.0
2024-02-28 15:02:03.539283,1709128923.5392833,-94.7265625,-36.1328125,-34.66796875,-55.6640625,-1.0,0.0,0.0,0.0,9.m4v,11.0
2024-02-28 15:02:03.543187,1709128923.5431874,-190.91796875,-37.59765625,-33.69140625,-55.6640625,-1.0,0.0,0.0,0.0,9.m4v,11.0
2024-02-28 15:02:03.547092,1709128923.5470915,-202.1484375,-27.34375,-34.1796875,-32.2265625,-1.0,0.0,0.0,0.0,9.m4v,11.0
2024-02-28 15:02:03.550996,1709128923.5509958,-31.25,-25.87890625,-32.2265625,-5.37109375,-1.0,0.0,0.0,0.0,9.m4v,11.0
2024-02-28 15:02:03.554900,1709128923.5549,49.8046875,-37.59765625,-29.78515625,-9.765625,-1.0,0.0,0.0,0.0,9.m4v,11.0
2024-02-28 15:02:03.558804,1709128923.5588045,-104.00390625,-45.8984375,-34.1796875,-37.109375,-1.0,0.0,0.0,0.0,9.m4v,11.0
2024-02-28 15:02:03.562708,1709128923.5627084,-202.1484375,-35.64453125,-43.45703125,-46.38671875,-1.0,0.0,0.0,0.0,9.m4v,11.0
2024-02-28 15:02:03.566612,1709128923.5666125,-225.09765625,-28.3203125,-41.015625,-40.52734375,-1.0,0.0,0.0,0.0,9.m4v,11.0
2024-02-28 15:02:03.570517,1709128923.5705168,-124.51171875,-29.296875,-27.34375,-34.66796875,-1.0,0.0,0.0,0.0,9.m4v,11.0
2024-02-28 15:02:03.574421,1709128923.574421,-20.5078125,-29.78515625,-29.296875,-38.0859375,-1.0,0.0,0.0,0.0,9.m4v,11.0
2024-02-28 15:02:03.578344,1709128923.5783436,-69.82421875,-29.78515625,-30.76171875,-57.6171875,-1.0,0.0,0.0,0.0,9.m4v,11.0
2024-02-28 15:02:03.582248,1709128923.582248,-156.25,-28.3203125,-24.90234375,-65.91796875,-1.0,0.0,0.0,0.0,9.m4v,11.0
2024-02-28 15:02:03.586152,1709128923.586152,-153.3203125,-26.85546875,-26.3671875,-34.66796875,-1.0,0.0,0.0,0.0,9.m4v,11.0
2024-02-28 15:02:03.590056,1709128923.5900564,-53.22265625,-34.66796875,-30.2734375,-6.8359375,-1.0,0.0,0.0,0.0,9.m4v,11.0
2024-02-28 15:02:03.593961,1709128923.5939603,1.46484375,-44.43359375,-29.296875,-19.04296875,-1.0,0.0,0.0,0.0,9.m4v,11.0
2024-02-28 15:02:03.597865,1709128923.5978646,-29.78515625,-41.9921875,-25.87890625,-38.0859375,-1.0,0.0,0.0,0.0,9.m4v,11.0
2024-02-28 15:02:03.601769,1709128923.601769,-106.4453125,-33.69140625,-22.4609375,-39.0625,-1.0,0.0,0.0,0.0,9.m4v,11.0
2024-02-28 15:02:03.605673,1709128923.605673,-219.23828125,-36.62109375,-26.3671875,-30.2734375,-1.0,0.0,0.0,0.0,9.m4v,11.0
2024-02-28 15:02:03.609577,1709128923.6095772,-153.3203125,-35.64453125,-26.85546875,-14.16015625,-1.0,0.0,0.0,0.0,9.m4v,11.0
2024-02-28 15:02:03.613482,1709128923.6134815,-8.7890625,-32.71484375,-26.3671875,-18.06640625,-1.0,0.0,0.0,0.0,9.m4v,11.0
2024-02-28 15:02:03.617386,1709128923.6173856,-60.546875,-45.41015625,-34.1796875,-46.875,-1.0,0.0,0.0,0.0,9.m4v,11.0
2024-02-28 15:02:03.621290,1709128923.6212895,-182.12890625,-46.875,-31.25,-69.82421875,-1.0,0.0,0.0,0.0,9.m4v,11.0
2024-02-28 15:02:03.625211,1709128923.625211,-244.62890625,-33.203125,-23.92578125,-59.08203125,-1.0,0.0,0.0,0.0,9.m4v,11.0
2024-02-28 15:02:03.629115,1709128923.629115,-150.390625,-31.73828125,-20.99609375,-29.78515625,-1.0,0.0,0.0,0.0,9.m4v,11.0
2024-02-28 15:02:03.633019,1709128923.6330194,-11.23046875,-28.3203125,-21.97265625,-24.4140625,-1.0,0.0,0.0,0.0,9.m4v,11.0
2024-02-28 15:02:03.636924,1709128923.6369236,-46.875,-21.97265625,-32.2265625,-53.22265625,-1.0,0.0,0.0,0.0,9.m4v,11.0
2024-02-28 15:02:03.640828,1709128923.6408277,-145.01953125,-27.34375,-48.33984375,-78.61328125,-1.0,0.0,0.0,0.0,9.m4v,11.0
2024-02-28 15:02:03.644732,1709128923.644732,-180.17578125,-24.4140625,-53.7109375,-60.546875,-1.0,0.0,0.0,0.0,9.m4v,11.0
2024-02-28 15:02:03.648636,1709128923.648636,-67.87109375,-12.6953125,-37.59765625,-19.53125,-1.0,0.0,0.0,0.0,9.m4v,11.0
2024-02-28 15:02:03.652540,1709128923.6525402,28.80859375,-16.6015625,-27.34375,-20.99609375,-1.0,0.0,0.0,0.0,9.m4v,11.0
2024-02-28 15:02:03.656445,1709128923.6564443,-99.12109375,-36.1328125,-28.80859375,-69.3359375,-1.0,0.0,0.0,0.0,9.m4v,11.0
2024-02-28 15:02:03.660349,1709128923.660349,-214.84375,-43.45703125,-29.296875,-95.21484375,-1.0,0.0,0.0,0.0,9.m4v,11.0
2024-02-28 15:02:03.664253,1709128923.6642528,-208.49609375,-41.015625,-25.390625,-61.03515625,-1.0,0.0,0.0,0.0,9.m4v,11.0
2024-02-28 15:02:03.668157,1709128923.668157,-148.4375,-43.45703125,-22.94921875,-20.01953125,-1.0,0.0,0.0,0.0,9.m4v,11.0
2024-02-28 15:02:03.672076,1709128923.6720765,-28.3203125,-49.8046875,-20.5078125,-17.578125,-1.0,0.0,0.0,0.0,9.m4v,11.0
2024-02-28 15:02:03.675981,1709128923.6759808,19.04296875,-48.828125,-20.01953125,-35.15625,-1.0,0.0,0.0,0.0,9.m4v,11.0
2024-02-28 15:02:03.679885,1709128923.679885,-84.47265625,-43.45703125,-25.390625,-62.5,-1.0,0.0,0.0,0.0,9.m4v,11.0
2024-02-28 15:02:03.683789,1709128923.6837893,-219.23828125,-45.41015625,-34.66796875,-67.3828125,-1.0,0.0,0.0,0.0,9.m4v,11.0
2024-02-28 15:02:03.687693,1709128923.6876934,-199.70703125,-41.015625,-31.73828125,-35.15625,-1.0,0.0,0.0,0.0,9.m4v,11.0
2024-02-28 15:02:03.691597,1709128923.6915977,-10.25390625,-29.296875,-23.92578125,-20.01953125,-1.0,0.0,0.0,0.0,9.m4v,11.0
2024-02-28 15:02:03.695502,1709128923.6955018,-25.390625,-35.64453125,-26.85546875,-58.59375,-1.0,0.0,0.0,0.0,9.m4v,11.0
2024-02-28 15:02:03.699406,1709128923.699406,-179.6875,-45.8984375,-27.83203125,-85.44921875,-1.0,0.0,0.0,0.0,9.m4v,11.0
2024-02-28 15:02:03.703310,1709128923.70331,-240.72265625,-41.50390625,-30.76171875,-76.66015625,-1.0,0.0,0.0,0.0,9.m4v,11.0
2024-02-28 15:02:03.707214,1709128923.7072144,-216.796875,-35.15625,-31.25,-51.7578125,-1.0,0.0,0.0,0.0,9.m4v,11.0
2024-02-28 15:02:03.711118,1709128923.7111185,-77.1484375,-39.55078125,-26.85546875,-27.83203125,-1.0,0.0,0.0,0.0,9.m4v,11.0
2024-02-28 15:02:03.715023,1709128923.7150226,-27.83203125,-36.1328125,-30.2734375,-40.52734375,-1.0,0.0,0.0,0.0,9.m4v,11.0
2024-02-28 15:02:03.718942,1709128923.7189422,-116.2109375,-31.25,-32.2265625,-60.05859375,-1.0,0.0,0.0,0.0,9.m4v,11.0
2024-02-28 15:02:03.722846,1709128923.7228465,-184.5703125,-33.69140625,-29.296875,-47.36328125,-1.0,0.0,0.0,0.0,9.m4v,11.0
2024-02-28 15:02:03.726750,1709128923.7267504,-203.61328125,-33.203125,-29.296875,-29.296875,-1.0,0.0,0.0,0.0,9.m4v,11.0
2024-02-28 15:02:03.730655,1709128923.7306547,-124.0234375,-36.1328125,-34.1796875,-37.109375,-1.0,0.0,0.0,0.0,9.m4v,11.0
2024-02-28 15:02:03.734559,1709128923.7345588,-43.9453125,-47.36328125,-37.59765625,-58.10546875,-1.0,0.0,0.0,0.0,9.m4v,11.0
2024-02-28 15:02:03.738463,1709128923.7384632,-43.9453125,-45.41015625,-34.1796875,-72.265625,-1.0,0.0,0.0,0.0,9.m4v,11.0
2024-02-28 15:02:03.742367,1709128923.7423673,-145.5078125,-41.9921875,-37.109375,-82.03125,-1.0,0.0,0.0,0.0,9.m4v,11.0
2024-02-28 15:02:03.746271,1709128923.7462714,-225.09765625,-50.29296875,-31.25,-59.08203125,-1.0,0.0,0.0,0.0,9.m4v,11.0
2024-02-28 15:02:03.750176,1709128923.7501757,-76.171875,-47.8515625,-27.34375,-21.97265625,-1.0,0.0,0.0,0.0,9.m4v,11.0
2024-02-28 15:02:03.754080,1709128923.7540798,34.1796875,-38.0859375,-30.2734375,-23.92578125,-1.0,0.0,0.0,0.0,9.m4v,11.0
2024-02-28 15:02:03.757984,1709128923.757984,-57.12890625,-37.59765625,-32.71484375,-47.8515625,-1.0,0.0,0.0,0.0,9.m4v,11.0
2024-02-28 15:02:03.761888,1709128923.7618885,-186.5234375,-41.50390625,-30.2734375,-70.3125,-1.0,0.0,0.0,0.0,9.m4v,11.0
2024-02-28 15:02:03.765806,1709128923.7658064,-193.84765625,-39.0625,-20.99609375,-35.64453125,-1.0,0.0,0.0,0.0,9.m4v,11.0
2024-02-28 15:02:03.769711,1709128923.7697108,-70.80078125,-41.50390625,-14.16015625,0.9765625,-1.0,0.0,0.0,0.0,9.m4v,11.0
2024-02-28 15:02:03.773615,1709128923.773615,-26.3671875,-36.62109375,-43.9453125,-27.83203125,-1.0,0.0,0.0,0.0,9.m4v,11.0
2024-02-28 15:02:03.777519,1709128923.777519,-80.078125,-27.34375,-52.734375,-46.38671875,-1.0,0.0,0.0,0.0,9.m4v,11.0
2024-02-28 15:02:03.781423,1709128923.781423,-122.0703125,-30.2734375,-14.16015625,-39.0625,-1.0,0.0,0.0,0.0,9.m4v,11.0
2024-02-28 15:02:03.785327,1709128923.7853274,-153.80859375,-33.203125,-12.20703125,-5.37109375,-1.0,0.0,0.0,0.0,9.m4v,11.0
2024-02-28 15:02:03.789232,1709128923.7892315,-109.86328125,-33.69140625,-19.04296875,18.5546875,-1.0,0.0,0.0,0.0,9.m4v,11.0
2024-02-28 15:02:03.793136,1709128923.793136,-17.08984375,-34.66796875,-20.5078125,7.32421875,-1.0,0.0,0.0,0.0,9.m4v,11.0
2024-02-28 15:02:03.797040,1709128923.79704,-21.484375,-31.25,-19.53125,-14.16015625,-1.0,0.0,0.0,0.0,9.m4v,11.0
2024-02-28 15:02:03.800944,1709128923.8009443,-128.90625,-30.76171875,-23.4375,-33.203125,-1.0,0.0,0.0,0.0,9.m4v,11.0
2024-02-28 15:02:03.804848,1709128923.8048484,-233.88671875,-34.66796875,-32.2265625,-32.2265625,-1.0,0.0,0.0,0.0,9.m4v,11.0
2024-02-28 15:02:03.808753,1709128923.8087523,-149.90234375,-33.69140625,-31.25,-8.30078125,-1.0,0.0,0.0,0.0,9.m4v,11.0
2024-02-28 15:02:03.812680,1709128923.8126805,20.5078125,-35.15625,-27.83203125,-0.9765625,-1.0,0.0,0.0,0.0,9.m4v,11.0
2024-02-28 15:02:03.816585,1709128923.8165848,-20.01953125,-44.43359375,-30.2734375,-21.97265625,-1.0,0.0,0.0,0.0,9.m4v,11.0
2024-02-28 15:02:03.820489,1709128923.820489,-141.6015625,-46.875,-34.1796875,-33.69140625,-1.0,0.0,0.0,0.0,9.m4v,11.0
2024-02-28 15:02:03.824393,1709128923.824393,-194.3359375,-40.0390625,-33.203125,-19.53125,-1.0,0.0,0.0,0.0,9.m4v,11.0
2024-02-28 15:02:03.828297,1709128923.8282974,-151.3671875,-42.96875,-31.25,6.34765625,-1.0,0.0,0.0,0.0,9.m4v,11.0
2024-02-28 15:02:03.832201,1709128923.8322015,-19.04296875,-42.48046875,-26.3671875,7.8125,-1.0,0.0,0.0,0.0,9.m4v,11.0
2024-02-28 15:02:03.836106,1709128923.8361056,-37.59765625,-34.66796875,-24.90234375,-28.3203125,-1.0,0.0,0.0,0.0,9.m4v,11.0
2024-02-28 15:02:03.840010,1709128923.84001,-197.265625,-37.59765625,-40.52734375,-55.6640625,-1.0,0.0,0.0,0.0,9.m4v,11.0
2024-02-28 15:02:03.843914,1709128923.843914,-262.6953125,-40.52734375,-48.33984375,-49.31640625,-1.0,0.0,0.0,0.0,9.m4v,11.0
2024-02-28 15:02:03.847818,1709128923.847818,-222.65625,-33.69140625,-44.921875,-27.34375,-1.0,0.0,0.0,0.0,9.m4v,11.0
2024-02-28 15:02:03.851722,1709128923.8517225,-64.94140625,-27.34375,-38.0859375,-18.06640625,-1.0,0.0,0.0,0.0,9.m4v,11.0
2024-02-28 15:02:03.855627,1709128923.8556266,-29.296875,-29.296875,-32.71484375,-50.29296875,-1.0,0.0,0.0,0.0,9.m4v,11.0
2024-02-28 15:02:03.859553,1709128923.859553,-155.76171875,-31.25,-41.9921875,-88.8671875,-1.0,0.0,0.0,0.0,9.m4v,11.0
2024-02-28 15:02:03.863457,1709128923.8634574,-229.00390625,-29.78515625,-43.9453125,-81.54296875,-1.0,0.0,0.0,0.0,9.m4v,11.0
2024-02-28 15:02:03.867362,1709128923.8673615,-233.3984375,-31.25,-31.25,-64.453125,-1.0,0.0,0.0,0.0,9.m4v,11.0
2024-02-28 15:02:03.871266,1709128923.8712656,-98.6328125,-35.15625,-24.90234375,-56.15234375,-1.0,0.0,0.0,0.0,9.m4v,11.0
2024-02-28 15:02:03.875170,1709128923.87517,-48.33984375,-33.203125,-29.78515625,-66.89453125,-1.0,0.0,0.0,0.0,9.m4v,11.0
2024-02-28 15:02:03.879074,1709128923.879074,-112.3046875,-30.2734375,-28.80859375,-78.125,-1.0,0.0,0.0,0.0,9.m4v,11.0
2024-02-28 15:02:03.882978,1709128923.8829782,-187.5,-29.296875,-26.3671875,-71.77734375,-1.0,0.0,0.0,0.0,9.m4v,11.0
2024-02-28 15:02:03.886883,1709128923.8868823,-243.1640625,-31.25,-29.78515625,-44.921875,-1.0,0.0,0.0,0.0,9.m4v,11.0
2024-02-28 15:02:03.890787,1709128923.8907866,-109.86328125,-34.1796875,-29.78515625,-21.484375,-1.0,0.0,0.0,0.0,9.m4v,11.0
2024-02-28 15:02:03.894691,1709128923.894691,-35.15625,-34.66796875,-35.15625,-27.34375,-1.0,0.0,0.0,0.0,9.m4v,11.0
2024-02-28 15:02:03.898595,1709128923.898595,-140.625,-34.1796875,-36.1328125,-51.26953125,-1.0,0.0,0.0,0.0,9.m4v,11.0
2024-02-28 15:02:03.902499,1709128923.9024992,-216.796875,-34.66796875,-28.80859375,-50.29296875,-1.0,0.0,0.0,0.0,9.m4v,11.0
2024-02-28 15:02:03.906424,1709128923.9064238,-228.515625,-31.25,-27.83203125,-26.85546875,-1.0,0.0,0.0,0.0,9.m4v,11.0
2024-02-28 15:02:03.910328,1709128923.910328,-88.8671875,-24.90234375,-25.390625,3.41796875,-1.0,0.0,0.0,0.0,9.m4v,11.0
2024-02-28 15:02:03.914232,1709128923.9142325,19.53125,-22.94921875,-18.5546875,10.7421875,-1.0,0.0,0.0,0.0,9.m4v,11.0
2024-02-28 15:02:03.918137,1709128923.9181366,-77.63671875,-21.97265625,-22.94921875,-27.34375,-1.0,0.0,0.0,0.0,9.m4v,11.0
2024-02-28 15:02:03.922041,1709128923.9220407,-200.68359375,-22.94921875,-34.66796875,-26.3671875,-1.0,0.0,0.0,0.0,9.m4v,11.0
2024-02-28 15:02:03.925945,1709128923.9259448,-191.40625,-25.87890625,-30.2734375,19.53125,-1.0,0.0,0.0,0.0,9.m4v,11.0
2024-02-28 15:02:03.929849,1709128923.9298491,-49.31640625,-29.296875,-21.484375,53.7109375,-1.0,0.0,0.0,0.0,9.m4v,11.0
2024-02-28 15:02:03.933753,1709128923.9337533,9.27734375,-34.1796875,-24.90234375,48.828125,-1.0,0.0,0.0,0.0,9.m4v,11.0
2024-02-28 15:02:03.937657,1709128923.9376574,-87.890625,-42.96875,-32.2265625,3.41796875,-1.0,0.0,0.0,0.0,9.m4v,11.0
2024-02-28 15:02:03.941562,1709128923.9415617,-211.9140625,-34.66796875,-31.25,-28.3203125,-1.0,0.0,0.0,0.0,9.m4v,11.0
2024-02-28 15:02:03.945466,1709128923.9454658,-246.09375,-19.04296875,-31.25,-23.92578125,-1.0,0.0,0.0,0.0,9.m4v,11.0
2024-02-28 15:02:03.949370,1709128923.94937,-155.76171875,-26.85546875,-33.69140625,1.953125,-1.0,0.0,0.0,0.0,9.m4v,11.0
2024-02-28 15:02:03.953294,1709128923.9532945,-34.1796875,-35.64453125,-29.78515625,-9.27734375,-1.0,0.0,0.0,0.0,9.m4v,11.0
2024-02-28 15:02:03.957198,1709128923.9571984,-70.3125,-38.57421875,-30.76171875,-41.50390625,-1.0,0.0,0.0,0.0,9.m4v,11.0
2024-02-28 15:02:03.961103,1709128923.9611027,-196.2890625,-43.45703125,-32.2265625,-59.08203125,-1.0,0.0,0.0,0.0,9.m4v,11.0
2024-02-28 15:02:03.965007,1709128923.9650068,-242.1875,-37.109375,-34.66796875,-42.96875,-1.0,0.0,0.0,0.0,9.m4v,11.0
2024-02-28 15:02:03.968911,1709128923.968911,-152.83203125,-28.3203125,-35.64453125,-3.90625,-1.0,0.0,0.0,0.0,9.m4v,11.0
2024-02-28 15:02:03.972815,1709128923.9728153,19.53125,-25.390625,-27.34375,0.0,-1.0,0.0,0.0,0.0,9.m4v,11.0
2024-02-28 15:02:03.976719,1709128923.9767194,-14.16015625,-32.71484375,-25.87890625,-30.2734375,-1.0,0.0,0.0,0.0,9.m4v,11.0
2024-02-28 15:02:03.980624,1709128923.9806235,-187.01171875,-43.45703125,-30.76171875,-50.29296875,-1.0,0.0,0.0,0.0,9.m4v,11.0
2024-02-28 15:02:03.984528,1709128923.9845278,-238.28125,-40.52734375,-26.3671875,-40.0390625,-1.0,0.0,0.0,0.0,9.m4v,11.0
2024-02-28 15:02:03.988432,1709128923.988432,-152.83203125,-40.52734375,-20.01953125,-27.83203125,-1.0,0.0,0.0,0.0,9.m4v,11.0
2024-02-28 15:02:03.992336,1709128923.9923365,-24.90234375,-39.0625,-23.4375,-24.4140625,-1.0,0.0,0.0,0.0,9.m4v,11.0
2024-02-28 15:02:03.996240,1709128923.9962404,-12.20703125,-31.73828125,-22.94921875,-43.45703125,-1.0,0.0,0.0,0.0,9.m4v,11.0
2024-02-28 15:02:04.000162,1709128924.000162,-109.375,-30.76171875,-26.85546875,-51.26953125,-1.0,0.0,0.0,0.0,9.m4v,11.0
2024-02-28 15:02:04.004066,1709128924.004066,-197.265625,-29.296875,-30.2734375,-48.33984375,-1.0,0.0,0.0,0.0,9.m4v,11.0
2024-02-28 15:02:04.007970,1709128924.0079703,-151.3671875,-26.3671875,-22.4609375,-35.15625,-1.0,0.0,0.0,0.0,9.m4v,11.0
2024-02-28 15:02:04.011874,1709128924.0118744,-31.25,-29.296875,-23.92578125,-11.71875,-1.0,0.0,0.0,0.0,9.m4v,11.0
2024-02-28 15:02:04.015779,1709128924.0157783,-48.828125,-31.25,-23.4375,-35.15625,-1.0,0.0,0.0,0.0,9.m4v,11.0
2024-02-28 15:02:04.019683,1709128924.019683,-108.3984375,-27.83203125,-21.484375,-49.31640625,-1.0,0.0,0.0,0.0,9.m4v,11.0
2024-02-28 15:02:04.023587,1709128924.023587,-170.8984375,-34.1796875,-24.90234375,-26.3671875,-1.0,0.0,0.0,0.0,9.m4v,11.0
2024-02-28 15:02:04.027491,1709128924.027491,-206.54296875,-37.109375,-25.87890625,-14.6484375,-1.0,0.0,0.0,0.0,9.m4v,11.0
2024-02-28 15:02:04.031395,1709128924.0313954,-81.54296875,-34.1796875,-30.76171875,-0.48828125,-1.0,0.0,0.0,0.0,9.m4v,11.0
2024-02-28 15:02:04.035300,1709128924.0352995,-16.11328125,-31.25,-30.2734375,-1.46484375,-1.0,0.0,0.0,0.0,9.m4v,11.0
2024-02-28 15:02:04.039204,1709128924.039204,-98.6328125,-31.73828125,-26.3671875,-20.01953125,-1.0,0.0,0.0,0.0,9.m4v,11.0
2024-02-28 15:02:04.043108,1709128924.043108,-169.921875,-29.296875,-21.97265625,-11.71875,-1.0,0.0,0.0,0.0,9.m4v,11.0
2024-02-28 15:02:04.047028,1709128924.0470278,-166.50390625,-31.73828125,-23.92578125,13.18359375,-1.0,0.0,0.0,0.0,9.m4v,11.0
2024-02-28 15:02:04.050932,1709128924.050932,-46.38671875,-38.57421875,-27.83203125,22.94921875,-1.0,0.0,0.0,0.0,9.m4v,11.0
2024-02-28 15:02:04.054836,1709128924.054836,11.23046875,-30.76171875,-25.87890625,7.8125,-1.0,0.0,0.0,0.0,9.m4v,11.0
2024-02-28 15:02:04.058740,1709128924.0587404,-88.37890625,-27.83203125,-22.94921875,-17.578125,-1.0,0.0,0.0,0.0,9.m4v,11.0
2024-02-28 15:02:04.062644,1709128924.0626445,-186.5234375,-37.109375,-18.5546875,-30.2734375,-1.0,0.0,0.0,0.0,9.m4v,11.0
2024-02-28 15:02:04.066549,1709128924.0665486,-178.22265625,-36.1328125,-17.578125,-13.671875,-1.0,0.0,0.0,0.0,9.m4v,11.0
2024-02-28 15:02:04.070453,1709128924.070453,-15.13671875,-30.2734375,-17.578125,12.6953125,-1.0,0.0,0.0,0.0,9.m4v,11.0
2024-02-28 15:02:04.074357,1709128924.074357,17.578125,-29.78515625,-20.01953125,-2.44140625,-1.0,0.0,0.0,0.0,9.m4v,11.0
2024-02-28 15:02:04.078261,1709128924.0782614,-126.953125,-31.73828125,-32.2265625,-23.4375,-1.0,0.0,0.0,0.0,9.m4v,11.0
2024-02-28 15:02:04.082165,1709128924.0821657,-195.3125,-30.2734375,-35.15625,-21.484375,-1.0,0.0,0.0,0.0,9.m4v,11.0
2024-02-28 15:02:04.086070,1709128924.0860696,-191.40625,-24.90234375,-23.4375,-14.6484375,-1.0,0.0,0.0,0.0,9.m4v,11.0
2024-02-28 15:02:04.089974,1709128924.089974,-72.75390625,-20.99609375,-14.16015625,-1.46484375,-1.0,0.0,0.0,0.0,9.m4v,11.0
2024-02-28 15:02:04.093901,1709128924.093901,46.38671875,-27.83203125,-13.18359375,-7.32421875,-1.0,0.0,0.0,0.0,9.m4v,11.0
2024-02-28 15:02:04.097805,1709128924.0978048,-12.6953125,-37.59765625,-15.625,-21.484375,-1.0,0.0,0.0,0.0,9.m4v,11.0
2024-02-28 15:02:04.101709,1709128924.1017091,-130.37109375,-36.62109375,-20.99609375,-24.4140625,-1.0,0.0,0.0,0.0,9.m4v,11.0
2024-02-28 15:02:04.105613,1709128924.1056132,-194.3359375,-39.0625,-26.3671875,-10.7421875,-1.0,0.0,0.0,0.0,9.m4v,11.0
2024-02-28 15:02:04.109517,1709128924.109517,-87.40234375,-39.0625,-21.97265625,7.32421875,-1.0,0.0,0.0,0.0,9.m4v,11.0
2024-02-28 15:02:04.113422,1709128924.1134217,57.12890625,-32.2265625,-17.08984375,15.13671875,-1.0,0.0,0.0,0.0,9.m4v,11.0
2024-02-28 15:02:04.117326,1709128924.1173258,-28.80859375,-38.0859375,-24.4140625,-6.8359375,-1.0,0.0,0.0,0.0,9.m4v,11.0
2024-02-28 15:02:04.121230,1709128924.12123,-221.6796875,-43.9453125,-26.3671875,-38.0859375,-1.0,0.0,0.0,0.0,9.m4v,11.0
2024-02-28 15:02:04.125134,1709128924.1251342,-197.75390625,-35.64453125,-12.6953125,-4.39453125,-1.0,0.0,0.0,0.0,9.m4v,11.0
2024-02-28 15:02:04.129038,1709128924.1290383,-27.83203125,-34.66796875,-10.7421875,23.92578125,-1.0,0.0,0.0,0.0,9.m4v,11.0
2024-02-28 15:02:04.132943,1709128924.132943,27.34375,-37.59765625,-25.87890625,2.9296875,-1.0,0.0,0.0,0.0,9.m4v,11.0
2024-02-28 15:02:04.136847,1709128924.1368468,-46.38671875,-32.2265625,-37.109375,-26.85546875,-1.0,0.0,0.0,0.0,9.m4v,11.0
2024-02-28 15:02:04.140764,1709128924.1407635,-132.8125,-35.15625,-35.15625,-41.015625,-1.0,0.0,0.0,0.0,9.m4v,11.0
2024-02-28 15:02:04.144668,1709128924.144668,-158.203125,-38.0859375,-26.85546875,-15.625,-1.0,0.0,0.0,0.0,9.m4v,11.0
2024-02-28 15:02:04.148572,1709128924.148572,-66.89453125,-31.73828125,-23.92578125,8.30078125,-1.0,0.0,0.0,0.0,9.m4v,11.0
2024-02-28 15:02:04.152476,1709128924.1524763,34.1796875,-40.0390625,-29.296875,6.34765625,-1.0,0.0,0.0,0.0,9.m4v,11.0
2024-02-28 15:02:04.156380,1709128924.1563804,-25.87890625,-50.29296875,-35.15625,-21.97265625,-1.0,0.0,0.0,0.0,9.m4v,11.0
2024-02-28 15:02:04.160285,1709128924.1602845,-93.26171875,-36.62109375,-26.3671875,-37.59765625,-1.0,0.0,0.0,0.0,9.m4v,11.0
2024-02-28 15:02:04.164189,1709128924.1641889,-136.71875,-27.83203125,-23.4375,-23.4375,-1.0,0.0,0.0,0.0,9.m4v,11.0
2024-02-28 15:02:04.168093,1709128924.168093,-136.71875,-25.87890625,-26.85546875,2.44140625,-1.0,0.0,0.0,0.0,9.m4v,11.0
2024-02-28 15:02:04.171997,1709128924.171997,-10.25390625,-22.4609375,-19.53125,-5.37109375,-1.0,0.0,0.0,0.0,9.m4v,11.0
2024-02-28 15:02:04.175901,1709128924.1759014,-15.625,-31.25,-20.5078125,-41.9921875,-1.0,0.0,0.0,0.0,9.m4v,11.0
2024-02-28 15:02:04.179806,1709128924.1798055,-119.140625,-41.015625,-19.53125,-47.36328125,-1.0,0.0,0.0,0.0,9.m4v,11.0
2024-02-28 15:02:04.183710,1709128924.18371,-158.69140625,-35.15625,-20.5078125,-33.69140625,-1.0,0.0,0.0,0.0,9.m4v,11.0
2024-02-28 15:02:04.187639,1709128924.1876383,-125.48828125,-26.85546875,-29.296875,-23.4375,-1.0,0.0,0.0,0.0,9.m4v,11.0
2024-02-28 15:02:04.191543,1709128924.1915426,-28.80859375,-28.80859375,-32.2265625,-28.3203125,-1.0,0.0,0.0,0.0,9.m4v,11.0
2024-02-28 15:02:04.195447,1709128924.1954467,-29.78515625,-31.25,-34.1796875,-76.171875,-1.0,0.0,0.0,0.0,9.m4v,11.0
2024-02-28 15:02:04.199351,1709128924.199351,-127.9296875,-27.34375,-35.15625,-102.05078125,-1.0,0.0,0.0,0.0,9.m4v,11.0
2024-02-28 15:02:04.203255,1709128924.2032552,-156.25,-20.99609375,-36.1328125,-54.19921875,-1.0,0.0,0.0,0.0,9.m4v,11.0
2024-02-28 15:02:04.207160,1709128924.2071595,-85.44921875,-12.6953125,-41.015625,-23.92578125,-1.0,0.0,0.0,0.0,9.m4v,11.0
2024-02-28 15:02:04.211064,1709128924.2110636,26.3671875,-15.625,-46.875,-19.53125,-1.0,0.0,0.0,0.0,9.m4v,11.0
2024-02-28 15:02:04.214968,1709128924.2149675,5.37109375,-26.3671875,-39.55078125,-24.90234375,-1.0,0.0,0.0,0.0,9.m4v,11.0
2024-02-28 15:02:04.218872,1709128924.218872,-120.1171875,-29.296875,-35.64453125,-59.5703125,-1.0,0.0,0.0,0.0,9.m4v,11.0
2024-02-28 15:02:04.222776,1709128924.2227762,-194.3359375,-30.76171875,-41.015625,-67.3828125,-1.0,0.0,0.0,0.0,9.m4v,11.0
2024-02-28 15:02:04.226681,1709128924.2266805,-183.59375,-36.62109375,-37.109375,-41.015625,-1.0,0.0,0.0,0.0,9.m4v,11.0
2024-02-28 15:02:04.230585,1709128924.2305846,-35.15625,-28.3203125,-30.76171875,-22.94921875,-1.0,0.0,0.0,0.0,9.m4v,11.0
2024-02-28 15:02:04.234511,1709128924.234511,25.87890625,-23.4375,-29.78515625,-37.59765625,-1.0,0.0,0.0,0.0,9.m4v,11.0
2024-02-28 15:02:04.238415,1709128924.238415,-81.54296875,-33.203125,-35.64453125,-58.10546875,-1.0,0.0,0.0,0.0,9.m4v,11.0
2024-02-28 15:02:04.242319,1709128924.242319,-187.01171875,-35.15625,-38.57421875,-61.03515625,-1.0,0.0,0.0,0.0,9.m4v,11.0
2024-02-28 15:02:04.246223,1709128924.2462232,-173.33984375,-29.78515625,-32.71484375,-41.9921875,-1.0,0.0,0.0,0.0,9.m4v,11.0
2024-02-28 15:02:04.250128,1709128924.2501276,-41.9921875,-31.73828125,-33.203125,-7.8125,-1.0,0.0,0.0,0.0,9.m4v,11.0
2024-02-28 15:02:04.254032,1709128924.2540317,38.0859375,-28.3203125,-38.0859375,-15.625,-1.0,0.0,0.0,0.0,9.m4v,11.0
2024-02-28 15:02:04.257936,1709128924.2579358,-13.18359375,-22.4609375,-40.0390625,-47.36328125,-1.0,0.0,0.0,0.0,9.m4v,11.0
2024-02-28 15:02:04.261840,1709128924.26184,-166.015625,-29.296875,-39.55078125,-62.5,-1.0,0.0,0.0,0.0,9.m4v,11.0
2024-02-28 15:02:04.265744,1709128924.2657442,-222.65625,-31.73828125,-36.1328125,-47.8515625,-1.0,0.0,0.0,0.0,9.m4v,11.0
2024-02-28 15:02:04.269649,1709128924.2696486,-86.42578125,-27.34375,-29.78515625,-22.94921875,-1.0,0.0,0.0,0.0,9.m4v,11.0
2024-02-28 15:02:04.273553,1709128924.273553,59.08203125,-19.53125,-23.92578125,-4.8828125,-1.0,0.0,0.0,0.0,9.m4v,11.0
2024-02-28 15:02:04.277457,1709128924.2774568,-8.7890625,-15.625,-31.25,-28.3203125,-1.0,0.0,0.0,0.0,9.m4v,11.0
2024-02-28 15:02:04.281381,1709128924.2813814,-153.3203125,-23.4375,-32.2265625,-52.24609375,-1.0,0.0,0.0,0.0,9.m4v,11.0
2024-02-28 15:02:04.285286,1709128924.2852857,-197.265625,-28.80859375,-33.69140625,-38.0859375,-1.0,0.0,0.0,0.0,9.m4v,11.0
2024-02-28 15:02:04.289190,1709128924.2891898,-108.88671875,-25.87890625,-45.8984375,-18.5546875,-1.0,0.0,0.0,0.0,9.m4v,11.0
2024-02-28 15:02:04.293094,1709128924.293094,33.203125,-26.85546875,-44.43359375,-9.27734375,-1.0,0.0,0.0,0.0,9.m4v,11.0
2024-02-28 15:02:04.296998,1709128924.2969985,-10.7421875,-35.64453125,-34.1796875,-37.109375,-1.0,0.0,0.0,0.0,9.m4v,11.0
2024-02-28 15:02:04.300902,1709128924.3009024,-117.67578125,-39.0625,-26.85546875,-56.640625,-1.0,0.0,0.0,0.0,9.m4v,11.0
2024-02-28 15:02:04.304806,1709128924.3048065,-153.3203125,-34.66796875,-27.34375,-42.48046875,-1.0,0.0,0.0,0.0,9.m4v,11.0
2024-02-28 15:02:04.308711,1709128924.3087108,-88.37890625,-31.25,-36.62109375,-32.2265625,-1.0,0.0,0.0,0.0,9.m4v,11.0
2024-02-28 15:02:04.312615,1709128924.312615,16.11328125,-34.66796875,-38.57421875,-27.83203125,-1.0,0.0,0.0,0.0,9.m4v,11.0
2024-02-28 15:02:04.316519,1709128924.3165193,-51.26953125,-39.55078125,-29.78515625,-59.08203125,-1.0,0.0,0.0,0.0,9.m4v,11.0
2024-02-28 15:02:04.320423,1709128924.3204234,-167.96875,-41.015625,-28.3203125,-88.8671875,-1.0,0.0,0.0,0.0,9.m4v,11.0
2024-02-28 15:02:04.324327,1709128924.3243277,-216.30859375,-46.38671875,-33.69140625,-64.94140625,-1.0,0.0,0.0,0.0,9.m4v,11.0
2024-02-28 15:02:04.328250,1709128924.3282504,-139.16015625,-43.45703125,-29.78515625,-41.015625,-1.0,0.0,0.0,0.0,9.m4v,11.0
2024-02-28 15:02:04.332155,1709128924.3321548,-4.39453125,-43.45703125,-27.34375,-42.96875,-1.0,0.0,0.0,0.0,9.m4v,11.0
2024-02-28 15:02:04.336059,1709128924.3360589,-0.9765625,-38.0859375,-31.73828125,-55.6640625,-1.0,0.0,0.0,0.0,9.m4v,11.0
2024-02-28 15:02:04.339963,1709128924.3399632,-125.48828125,-33.69140625,-33.203125,-81.0546875,-1.0,0.0,0.0,0.0,9.m4v,11.0
2024-02-28 15:02:04.343867,1709128924.3438673,-222.16796875,-39.0625,-31.73828125,-73.73046875,-1.0,0.0,0.0,0.0,9.m4v,11.0
2024-02-28 15:02:04.347771,1709128924.3477714,-111.328125,-30.2734375,-30.2734375,-39.0625,-1.0,0.0,0.0,0.0,9.m4v,11.0
2024-02-28 15:02:04.351676,1709128924.3516755,15.13671875,-27.34375,-29.296875,-41.015625,-1.0,0.0,0.0,0.0,9.m4v,11.0
2024-02-28 15:02:04.355580,1709128924.35558,-46.38671875,-41.50390625,-28.80859375,-69.3359375,-1.0,0.0,0.0,0.0,9.m4v,11.0
2024-02-28 15:02:04.359484,1709128924.359484,-158.203125,-49.8046875,-27.34375,-88.37890625,-1.0,0.0,0.0,0.0,9.m4v,11.0
2024-02-28 15:02:04.363388,1709128924.3633883,-239.2578125,-47.36328125,-29.296875,-77.1484375,-1.0,0.0,0.0,0.0,9.m4v,11.0
2024-02-28 15:02:04.367292,1709128924.3672924,-199.70703125,-34.1796875,-30.76171875,-49.8046875,-1.0,0.0,0.0,0.0,9.m4v,11.0
2024-02-28 15:02:04.371197,1709128924.3711967,-66.89453125,-24.4140625,-31.25,-35.15625,-1.0,0.0,0.0,0.0,9.m4v,11.0
2024-02-28 15:02:04.375119,1709128924.3751187,-60.546875,-30.76171875,-37.109375,-58.10546875,-1.0,0.0,0.0,0.0,9.m4v,11.0
2024-02-28 15:02:04.379023,1709128924.3790228,-176.26953125,-33.69140625,-35.64453125,-86.9140625,-1.0,0.0,0.0,0.0,9.m4v,11.0
2024-02-28 15:02:04.382927,1709128924.382927,-238.76953125,-30.76171875,-31.73828125,-88.37890625,-1.0,0.0,0.0,0.0,9.m4v,11.0
2024-02-28 15:02:04.386831,1709128924.3868313,-211.42578125,-33.69140625,-30.76171875,-51.7578125,-1.0,0.0,0.0,0.0,9.m4v,11.0
2024-02-28 15:02:04.390735,1709128924.3907354,-60.546875,-30.2734375,-25.87890625,-11.71875,-1.0,0.0,0.0,0.0,9.m4v,11.0
2024-02-28 15:02:04.394640,1709128924.3946395,17.578125,-35.15625,-25.390625,-25.390625,-1.0,0.0,0.0,0.0,9.m4v,11.0
2024-02-28 15:02:04.398544,1709128924.3985438,-124.0234375,-46.38671875,-28.80859375,-53.7109375,-1.0,0.0,0.0,0.0,9.m4v,11.0
2024-02-28 15:02:04.402448,1709128924.402448,-232.91015625,-42.48046875,-29.78515625,-44.43359375,-1.0,0.0,0.0,0.0,9.m4v,11.0
2024-02-28 15:02:04.406352,1709128924.4063523,-229.4921875,-35.15625,-34.66796875,-29.296875,-1.0,0.0,0.0,0.0,9.m4v,11.0
2024-02-28 15:02:04.410256,1709128924.4102564,-107.421875,-32.2265625,-32.2265625,-8.30078125,-1.0,0.0,0.0,0.0,9.m4v,11.0
2024-02-28 15:02:04.414160,1709128924.4141605,-32.71484375,-36.62109375,-27.34375,-12.6953125,-1.0,0.0,0.0,0.0,9.m4v,11.0
2024-02-28 15:02:04.418065,1709128924.4180648,-114.2578125,-39.55078125,-22.94921875,-34.66796875,-1.0,0.0,0.0,0.0,9.m4v,11.0
2024-02-28 15:02:04.422000,1709128924.422,-189.453125,-30.2734375,-16.11328125,-30.76171875,-1.0,0.0,0.0,0.0,9.m4v,11.0
2024-02-28 15:02:04.425904,1709128924.425904,-187.01171875,-27.34375,-15.625,-5.37109375,-1.0,0.0,0.0,0.0,9.m4v,11.0
2024-02-28 15:02:04.429808,1709128924.4298084,-73.73046875,-32.2265625,-21.484375,18.5546875,-1.0,0.0,0.0,0.0,9.m4v,11.0
2024-02-28 15:02:04.433712,1709128924.4337125,10.7421875,-30.76171875,-26.85546875,19.04296875,-1.0,0.0,0.0,0.0,9.m4v,11.0
2024-02-28 15:02:04.437617,1709128924.4376166,-69.3359375,-35.64453125,-24.90234375,-8.7890625,-1.0,0.0,0.0,0.0,9.m4v,11.0
2024-02-28 15:02:04.441521,1709128924.441521,-152.34375,-41.9921875,-25.390625,-20.99609375,-1.0,0.0,0.0,0.0,9.m4v,11.0
2024-02-28 15:02:04.445425,1709128924.445425,-158.69140625,-35.64453125,-22.4609375,10.25390625,-1.0,0.0,0.0,0.0,9.m4v,11.0
2024-02-28 15:02:04.449329,1709128924.4493294,-104.00390625,-29.78515625,-37.109375,33.203125,-1.0,0.0,0.0,0.0,9.m4v,11.0
2024-02-28 15:02:04.453233,1709128924.4532337,-20.5078125,-27.34375,-54.6875,25.390625,-1.0,0.0,0.0,0.0,9.m4v,11.0
2024-02-28 15:02:04.457138,1709128924.4571376,-69.82421875,-28.80859375,-26.3671875,4.8828125,-1.0,0.0,0.0,0.0,9.m4v,11.0
2024-02-28 15:02:04.461042,1709128924.461042,-169.921875,-32.2265625,-14.16015625,-6.34765625,-1.0,0.0,0.0,0.0,9.m4v,11.0
2024-02-28 15:02:04.464946,1709128924.464946,-197.75390625,-33.203125,-19.53125,4.39453125,-1.0,0.0,0.0,0.0,9.m4v,11.0
2024-02-28 15:02:04.468864,1709128924.4688644,-122.55859375,-33.203125,-14.16015625,21.484375,-1.0,0.0,0.0,0.0,9.m4v,11.0
2024-02-28 15:02:04.472769,1709128924.4727688,-33.203125,-38.0859375,-19.04296875,9.27734375,-1.0,0.0,0.0,0.0,9.m4v,11.0
2024-02-28 15:02:04.476673,1709128924.476673,-73.73046875,-42.48046875,-28.3203125,-8.7890625,-1.0,0.0,0.0,0.0,9.m4v,11.0
2024-02-28 15:02:04.480577,1709128924.4805772,-199.21875,-46.875,-31.73828125,-19.04296875,-1.0,0.0,0.0,0.0,9.m4v,11.0
2024-02-28 15:02:04.484481,1709128924.484481,-267.578125,-55.6640625,-35.15625,-3.90625,-1.0,0.0,0.0,0.0,9.m4v,11.0
2024-02-28 15:02:04.488385,1709128924.4883854,-116.69921875,-46.875,-30.2734375,32.2265625,-1.0,0.0,0.0,0.0,9.m4v,11.0
2024-02-28 15:02:04.492290,1709128924.4922898,18.06640625,-28.80859375,-23.92578125,34.66796875,-1.0,0.0,0.0,0.0,9.m4v,11.0
2024-02-28 15:02:04.496194,1709128924.496194,-81.0546875,-29.296875,-23.4375,8.7890625,-1.0,0.0,0.0,0.0,9.m4v,11.0
2024-02-28 15:02:04.500098,1709128924.5000982,-214.35546875,-35.15625,-23.4375,-14.6484375,-1.0,0.0,0.0,0.0,9.m4v,11.0
2024-02-28 15:02:04.504002,1709128924.5040023,-284.66796875,-32.2265625,-24.4140625,-24.4140625,-1.0,0.0,0.0,0.0,9.m4v,11.0
2024-02-28 15:02:04.507906,1709128924.5079064,-206.54296875,-36.1328125,-34.1796875,-5.859375,-1.0,0.0,0.0,0.0,9.m4v,11.0
2024-02-28 15:02:04.511811,1709128924.5118108,-43.9453125,-36.1328125,-36.62109375,11.71875,-1.0,0.0,0.0,0.0,9.m4v,11.0
2024-02-28 15:02:04.515727,1709128924.5157268,-42.48046875,-35.64453125,-27.34375,-11.23046875,-1.0,0.0,0.0,0.0,9.m4v,11.0
2024-02-28 15:02:04.519631,1709128924.5196311,-186.5234375,-39.55078125,-23.4375,-34.66796875,-1.0,0.0,0.0,0.0,9.m4v,11.0
2024-02-28 15:02:04.523535,1709128924.5235353,-262.6953125,-38.0859375,-18.06640625,-19.53125,-1.0,0.0,0.0,0.0,9.m4v,11.0
2024-02-28 15:02:04.527439,1709128924.5274394,-205.078125,-38.0859375,-17.578125,12.20703125,-1.0,0.0,0.0,0.0,9.m4v,11.0
2024-02-28 15:02:04.531344,1709128924.5313437,-62.98828125,-39.0625,-15.13671875,37.59765625,-1.0,0.0,0.0,0.0,9.m4v,11.0
2024-02-28 15:02:04.535248,1709128924.5352478,-14.16015625,-30.76171875,-19.53125,20.5078125,-1.0,0.0,0.0,0.0,9.m4v,11.0
2024-02-28 15:02:04.539152,1709128924.539152,-147.94921875,-25.87890625,-31.25,-22.94921875,-1.0,0.0,0.0,0.0,9.m4v,11.0
2024-02-28 15:02:04.543056,1709128924.5430562,-323.73046875,-32.71484375,-29.296875,-28.80859375,-1.0,0.0,0.0,0.0,9.m4v,11.0
2024-02-28 15:02:04.546960,1709128924.5469604,-255.859375,-29.296875,-22.94921875,6.34765625,-1.0,0.0,0.0,0.0,9.m4v,11.0
2024-02-28 15:02:04.550865,1709128924.5508647,-83.984375,-32.2265625,-27.83203125,14.6484375,-1.0,0.0,0.0,0.0,9.m4v,11.0
2024-02-28 15:02:04.554769,1709128924.5547688,-88.8671875,-41.015625,-32.2265625,-11.23046875,-1.0,0.0,0.0,0.0,9.m4v,11.0
2024-02-28 15:02:04.558673,1709128924.5586731,-186.03515625,-41.50390625,-32.71484375,-38.57421875,-1.0,0.0,0.0,0.0,9.m4v,11.0
2024-02-28 15:02:04.562601,1709128924.5626009,-235.3515625,-35.15625,-28.3203125,-23.92578125,-1.0,0.0,0.0,0.0,9.m4v,11.0
2024-02-28 15:02:04.566505,1709128924.566505,-215.33203125,-32.71484375,-27.34375,7.32421875,-1.0,0.0,0.0,0.0,9.m4v,11.0
2024-02-28 15:02:04.570409,1709128924.5704093,-103.02734375,-29.296875,-25.87890625,26.3671875,-1.0,0.0,0.0,0.0,9.m4v,11.0
2024-02-28 15:02:04.574313,1709128924.5743134,-62.01171875,-21.97265625,-22.4609375,2.44140625,-1.0,0.0,0.0,0.0,9.m4v,11.0
2024-02-28 15:02:04.578218,1709128924.5782175,-147.94921875,-19.53125,-27.83203125,-30.76171875,-1.0,0.0,0.0,0.0,9.m4v,11.0
2024-02-28 15:02:04.582122,1709128924.5821218,-211.42578125,-20.5078125,-32.71484375,-25.87890625,-1.0,0.0,0.0,0.0,9.m4v,11.0
2024-02-28 15:02:04.586026,1709128924.586026,-278.80859375,-27.34375,-31.25,-37.59765625,-1.0,0.0,0.0,0.0,9.m4v,11.0
2024-02-28 15:02:04.589930,1709128924.5899303,-201.171875,-32.2265625,-29.78515625,-30.2734375,-1.0,0.0,0.0,0.0,9.m4v,11.0
2024-02-28 15:02:04.593834,1709128924.5938344,-101.5625,-41.9921875,-31.73828125,-34.66796875,-1.0,0.0,0.0,0.0,9.m4v,11.0
2024-02-28 15:02:04.597739,1709128924.5977387,-175.78125,-41.9921875,-33.203125,-63.4765625,-1.0,0.0,0.0,0.0,9.m4v,11.0
2024-02-28 15:02:04.601643,1709128924.6016428,-257.32421875,-33.203125,-29.296875,-69.3359375,-1.0,0.0,0.0,0.0,9.m4v,11.0
2024-02-28 15:02:04.605547,1709128924.605547,-246.58203125,-31.25,-25.87890625,-33.69140625,-1.0,0.0,0.0,0.0,9.m4v,11.0
2024-02-28 15:02:04.609474,1709128924.609474,-124.51171875,-25.87890625,-23.4375,-6.34765625,-1.0,0.0,0.0,0.0,9.m4v,11.0
2024-02-28 15:02:04.613378,1709128924.6133783,-64.94140625,-20.99609375,-22.94921875,-22.94921875,-1.0,0.0,0.0,0.0,9.m4v,11.0
2024-02-28 15:02:04.617282,1709128924.6172824,-177.734375,-23.4375,-33.69140625,-56.15234375,-1.0,0.0,0.0,0.0,9.m4v,11.0
2024-02-28 15:02:04.621187,1709128924.6211867,-297.8515625,-31.25,-41.50390625,-73.2421875,-1.0,0.0,0.0,0.0,9.m4v,11.0
2024-02-28 15:02:04.625091,1709128924.6250908,-333.49609375,-33.203125,-38.57421875,-56.15234375,-1.0,0.0,0.0,0.0,9.m4v,11.0
2024-02-28 15:02:04.628995,1709128924.628995,-157.71484375,-23.92578125,-32.71484375,-13.18359375,-1.0,0.0,0.0,0.0,9.m4v,11.0
2024-02-28 15:02:04.632899,1709128924.6328993,-40.0390625,-23.92578125,-28.80859375,-17.578125,-1.0,0.0,0.0,0.0,9.m4v,11.0
2024-02-28 15:02:04.636803,1709128924.6368034,-165.52734375,-32.2265625,-27.34375,-58.10546875,-1.0,0.0,0.0,0.0,9.m4v,11.0
2024-02-28 15:02:04.640708,1709128924.6407075,-263.671875,-35.64453125,-28.80859375,-64.453125,-1.0,0.0,0.0,0.0,9.m4v,11.0
2024-02-28 15:02:04.644612,1709128924.6446118,-305.6640625,-33.69140625,-33.203125,-42.96875,-1.0,0.0,0.0,0.0,9.m4v,11.0
2024-02-28 15:02:04.648516,1709128924.648516,-209.9609375,-29.78515625,-33.69140625,-24.90234375,-1.0,0.0,0.0,0.0,9.m4v,11.0
2024-02-28 15:02:04.652420,1709128924.6524203,-69.3359375,-33.69140625,-34.1796875,-15.625,-1.0,0.0,0.0,0.0,9.m4v,11.0
2024-02-28 15:02:04.656358,1709128924.656358,-117.1875,-41.015625,-36.1328125,-48.33984375,-1.0,0.0,0.0,0.0,9.m4v,11.0
2024-02-28 15:02:04.660262,1709128924.6602623,-246.09375,-41.50390625,-34.1796875,-83.0078125,-1.0,0.0,0.0,0.0,9.m4v,11.0
2024-02-28 15:02:04.664166,1709128924.6641665,-270.5078125,-33.69140625,-31.25,-46.875,-1.0,0.0,0.0,0.0,9.m4v,11.0
2024-02-28 15:02:04.668071,1709128924.6680706,-151.3671875,-23.4375,-29.78515625,-11.71875,-1.0,0.0,0.0,0.0,9.m4v,11.0
2024-02-28 15:02:04.671975,1709128924.671975,-45.41015625,-26.3671875,-31.73828125,-22.94921875,-1.0,0.0,0.0,0.0,9.m4v,11.0
2024-02-28 15:02:04.675879,1709128924.675879,-105.46875,-34.1796875,-32.71484375,-72.75390625,-1.0,0.0,0.0,0.0,9.m4v,11.0
2024-02-28 15:02:04.679783,1709128924.679783,-227.5390625,-37.59765625,-36.1328125,-98.6328125,-1.0,0.0,0.0,0.0,9.m4v,11.0
2024-02-28 15:02:04.683687,1709128924.6836874,-326.171875,-46.38671875,-37.109375,-81.54296875,-1.0,0.0,0.0,0.0,9.m4v,11.0
2024-02-28 15:02:04.687592,1709128924.6875918,-276.3671875,-49.8046875,-25.390625,-53.22265625,-1.0,0.0,0.0,0.0,9.m4v,11.0
2024-02-28 15:02:04.691496,1709128924.691496,-106.93359375,-46.38671875,-20.99609375,-36.1328125,-1.0,0.0,0.0,0.0,9.m4v,11.0
2024-02-28 15:02:04.695400,1709128924.6954,-88.37890625,-44.921875,-28.80859375,-57.12890625,-1.0,0.0,0.0,0.0,9.m4v,11.0
2024-02-28 15:02:04.699304,1709128924.6993043,-194.3359375,-41.015625,-27.34375,-74.70703125,-1.0,0.0,0.0,0.0,9.m4v,11.0
2024-02-28 15:02:04.703227,1709128924.703227,-249.51171875,-41.015625,-26.3671875,-59.5703125,-1.0,0.0,0.0,0.0,9.m4v,11.0
2024-02-28 15:02:04.707131,1709128924.7071311,-199.70703125,-40.0390625,-25.390625,-28.3203125,-1.0,0.0,0.0,0.0,9.m4v,11.0
2024-02-28 15:02:04.711035,1709128924.7110355,-50.29296875,-36.1328125,-17.578125,-6.8359375,-1.0,0.0,0.0,0.0,9.m4v,11.0
2024-02-28 15:02:04.714940,1709128924.7149396,-27.34375,-41.50390625,-18.5546875,-19.04296875,-1.0,0.0,0.0,0.0,9.m4v,11.0
2024-02-28 15:02:04.718844,1709128924.718844,-163.57421875,-41.015625,-23.92578125,-46.38671875,-1.0,0.0,0.0,0.0,9.m4v,11.0
2024-02-28 15:02:04.722748,1709128924.722748,-225.09765625,-31.25,-23.4375,-48.33984375,-1.0,0.0,0.0,0.0,9.m4v,11.0
2024-02-28 15:02:04.726652,1709128924.726652,-172.36328125,-27.34375,-21.97265625,-25.390625,-1.0,0.0,0.0,0.0,9.m4v,11.0
2024-02-28 15:02:04.730556,1709128924.7305565,-58.10546875,-30.76171875,-21.97265625,-21.484375,-1.0,0.0,0.0,0.0,9.m4v,11.0
2024-02-28 15:02:04.734461,1709128924.7344606,-51.7578125,-36.62109375,-26.85546875,-45.41015625,-1.0,0.0,0.0,0.0,9.m4v,11.0
2024-02-28 15:02:04.738365,1709128924.738365,-150.390625,-32.2265625,-29.78515625,-64.453125,-1.0,0.0,0.0,0.0,9.m4v,11.0
2024-02-28 15:02:04.742269,1709128924.742269,-196.77734375,-28.3203125,-24.90234375,-45.41015625,-1.0,0.0,0.0,0.0,9.m4v,11.0
2024-02-28 15:02:04.746173,1709128924.7461731,-176.7578125,-35.15625,-22.4609375,-20.5078125,-1.0,0.0,0.0,0.0,9.m4v,11.0
2024-02-28 15:02:04.750095,1709128924.750095,-59.5703125,-38.57421875,-25.390625,-20.99609375,-1.0,0.0,0.0,0.0,9.m4v,11.0
2024-02-28 15:02:04.753999,1709128924.753999,12.20703125,-30.76171875,-20.99609375,-30.2734375,-1.0,0.0,0.0,0.0,9.m4v,11.0
2024-02-28 15:02:04.757903,1709128924.757903,-78.125,-26.3671875,-23.4375,-62.98828125,-1.0,0.0,0.0,0.0,9.m4v,11.0
2024-02-28 15:02:04.761807,1709128924.7618074,-191.89453125,-26.3671875,-33.203125,-77.63671875,-1.0,0.0,0.0,0.0,9.m4v,11.0
2024-02-28 15:02:04.765712,1709128924.7657115,-212.40234375,-30.2734375,-29.296875,-42.48046875,-1.0,0.0,0.0,0.0,9.m4v,11.0
2024-02-28 15:02:04.769616,1709128924.7696157,-36.62109375,-26.3671875,-20.01953125,-17.08984375,-1.0,0.0,0.0,0.0,9.m4v,11.0
2024-02-28 15:02:04.773520,1709128924.77352,58.10546875,-27.83203125,-21.484375,-35.15625,-1.0,0.0,0.0,0.0,9.m4v,11.0
2024-02-28 15:02:04.777424,1709128924.777424,-72.75390625,-34.1796875,-22.94921875,-67.87109375,-1.0,0.0,0.0,0.0,9.m4v,11.0
2024-02-28 15:02:04.781328,1709128924.7813284,-198.2421875,-35.64453125,-20.01953125,-83.0078125,-1.0,0.0,0.0,0.0,9.m4v,11.0
2024-02-28 15:02:04.785233,1709128924.7852323,-226.07421875,-33.69140625,-18.5546875,-77.1484375,-1.0,0.0,0.0,0.0,9.m4v,11.0
2024-02-28 15:02:04.789137,1709128924.7891366,-72.75390625,-32.2265625,-31.25,-48.33984375,-1.0,0.0,0.0,0.0,9.m4v,11.0
2024-02-28 15:02:04.793041,1709128924.793041,9.27734375,-39.0625,-48.33984375,-57.12890625,-1.0,0.0,0.0,0.0,9.m4v,11.0
2024-02-28 15:02:04.796961,1709128924.7969613,-68.359375,-40.0390625,-43.9453125,-85.9375,-1.0,0.0,0.0,0.0,9.m4v,11.0
2024-02-28 15:02:04.800866,1709128924.8008657,-149.90234375,-39.0625,-35.15625,-80.078125,-1.0,0.0,0.0,0.0,9.m4v,11.0
2024-02-28 15:02:04.804770,1709128924.8047698,-201.66015625,-40.52734375,-26.3671875,-64.94140625,-1.0,0.0,0.0,0.0,9.m4v,11.0
2024-02-28 15:02:04.808674,1709128924.808674,-109.375,-39.55078125,-21.484375,-34.66796875,-1.0,0.0,0.0,0.0,9.m4v,11.0
2024-02-28 15:02:04.812578,1709128924.8125782,26.3671875,-37.109375,-25.87890625,-19.04296875,-1.0,0.0,0.0,0.0,9.m4v,11.0
2024-02-28 15:02:04.816483,1709128924.8164823,5.859375,-33.69140625,-26.3671875,-41.9921875,-1.0,0.0,0.0,0.0,9.m4v,11.0
2024-02-28 15:02:04.820387,1709128924.8203866,-158.69140625,-42.48046875,-33.203125,-63.96484375,-1.0,0.0,0.0,0.0,9.m4v,11.0
2024-02-28 15:02:04.824291,1709128924.8242908,-278.3203125,-52.24609375,-37.59765625,-56.640625,-1.0,0.0,0.0,0.0,9.m4v,11.0
2024-02-28 15:02:04.828195,1709128924.828195,-133.30078125,-41.015625,-27.83203125,-22.4609375,-1.0,0.0,0.0,0.0,9.m4v,11.0
2024-02-28 15:02:04.832099,1709128924.8320992,25.87890625,-25.390625,-29.78515625,-13.671875,-1.0,0.0,0.0,0.0,9.m4v,11.0
2024-02-28 15:02:04.836004,1709128924.8360035,-48.33984375,-26.3671875,-39.0625,-44.43359375,-1.0,0.0,0.0,0.0,9.m4v,11.0
2024-02-28 15:02:04.839908,1709128924.8399076,-170.41015625,-36.62109375,-37.59765625,-69.82421875,-1.0,0.0,0.0,0.0,9.m4v,11.0
