Timestamp,Timestamp_UNIX,TP9,AF7,AF8,TP10,Valence,Arousal,Dominace,Viewed,Video,Participant
2024-02-27 09:30:05.525023,1709022605.5250232,-51.7578125,-47.8515625,-64.453125,-52.24609375,1.0,1.0,1.0,1.0,3.m4v,1.0
2024-02-27 09:30:05.528929,1709022605.5289288,3.41796875,-33.69140625,-17.08984375,-24.90234375,1.0,1.0,1.0,1.0,3.m4v,1.0
2024-02-27 09:30:05.532835,1709022605.5328355,-0.48828125,-75.1953125,-10.25390625,-12.20703125,1.0,1.0,1.0,1.0,3.m4v,1.0
2024-02-27 09:30:05.536741,1709022605.5367413,-53.7109375,-72.265625,-56.640625,-27.34375,1.0,1.0,1.0,1.0,3.m4v,1.0
2024-02-27 09:30:05.540647,1709022605.540647,-72.75390625,-47.36328125,-50.29296875,-42.48046875,1.0,1.0,1.0,1.0,3.m4v,1.0
2024-02-27 09:30:05.544553,1709022605.5445526,-52.24609375,-20.99609375,-23.92578125,-55.17578125,1.0,1.0,1.0,1.0,3.m4v,1.0
2024-02-27 09:30:05.548458,1709022605.5484583,-32.71484375,-7.8125,-7.8125,-42.96875,1.0,1.0,1.0,1.0,3.m4v,1.0
2024-02-27 09:30:05.552364,1709022605.552364,-65.91796875,-36.62109375,-27.34375,-80.078125,1.0,1.0,1.0,1.0,3.m4v,1.0
2024-02-27 09:30:05.556270,1709022605.55627,-71.2890625,-32.71484375,-47.8515625,-80.56640625,1.0,1.0,1.0,1.0,3.m4v,1.0
2024-02-27 09:30:05.560175,1709022605.5601754,-18.06640625,-5.859375,-44.921875,-17.08984375,1.0,1.0,1.0,1.0,3.m4v,1.0
2024-02-27 09:30:05.564081,1709022605.5640812,10.25390625,0.9765625,-34.1796875,20.99609375,1.0,1.0,1.0,1.0,3.m4v,1.0
2024-02-27 09:30:05.567987,1709022605.567987,0.9765625,-17.578125,-20.99609375,7.8125,1.0,1.0,1.0,1.0,3.m4v,1.0
2024-02-27 09:30:05.571892,1709022605.5718925,-39.0625,-72.265625,-21.97265625,-31.73828125,1.0,1.0,1.0,1.0,3.m4v,1.0
2024-02-27 09:30:05.575798,1709022605.5757985,-74.21875,-83.984375,-30.2734375,-64.94140625,1.0,1.0,1.0,1.0,3.m4v,1.0
2024-02-27 09:30:05.579707,1709022605.579707,-80.56640625,-47.8515625,-39.0625,-69.3359375,1.0,1.0,1.0,1.0,3.m4v,1.0
2024-02-27 09:30:05.583612,1709022605.5836122,-66.89453125,-29.78515625,-36.1328125,-65.91796875,1.0,1.0,1.0,1.0,3.m4v,1.0
2024-02-27 09:30:05.587518,1709022605.587518,-63.4765625,-36.1328125,-33.69140625,-70.80078125,1.0,1.0,1.0,1.0,3.m4v,1.0
2024-02-27 09:30:05.591424,1709022605.5914235,-72.265625,-34.1796875,-36.1328125,-54.6875,1.0,1.0,1.0,1.0,3.m4v,1.0
2024-02-27 09:30:05.595329,1709022605.5953293,-47.36328125,-22.94921875,-31.73828125,-16.11328125,1.0,1.0,1.0,1.0,3.m4v,1.0
2024-02-27 09:30:05.603141,1709022605.6031408,4.39453125,-22.4609375,-42.96875,-4.8828125,1.0,1.0,1.0,1.0,3.m4v,1.0
2024-02-27 09:30:05.607047,1709022605.6070466,-13.671875,-20.99609375,-26.3671875,0.9765625,1.0,1.0,1.0,1.0,3.m4v,1.0
2024-02-27 09:30:05.614858,1709022605.614858,-10.25390625,-50.78125,-36.62109375,-22.4609375,1.0,1.0,1.0,1.0,3.m4v,1.0
2024-02-27 09:30:05.618764,1709022605.6187637,-51.26953125,-62.98828125,-26.3671875,-62.98828125,1.0,1.0,1.0,1.0,3.m4v,1.0
2024-02-27 09:30:05.626577,1709022605.6265774,-50.78125,-6.8359375,-26.3671875,-46.38671875,1.0,1.0,1.0,1.0,3.m4v,1.0
2024-02-27 09:30:05.634389,1709022605.634389,-35.15625,-12.20703125,-34.66796875,-43.45703125,1.0,1.0,1.0,1.0,3.m4v,1.0
2024-02-27 09:30:05.638294,1709022605.6382945,-42.96875,-16.11328125,-46.38671875,-32.71484375,1.0,1.0,1.0,1.0,3.m4v,1.0
2024-02-27 09:30:05.646106,1709022605.646106,-11.23046875,-15.625,-19.04296875,-42.48046875,1.0,1.0,1.0,1.0,3.m4v,1.0
2024-02-27 09:30:05.853116,1709022605.8531158,-176.26953125,-0.9765625,-3.90625,-162.59765625,1.0,1.0,1.0,1.0,3.m4v,1.0
2024-02-27 09:30:05.853116,1709022605.8531158,-176.26953125,-0.9765625,-3.90625,-162.59765625,1.0,1.0,1.0,1.0,3.m4v,1.0
2024-02-27 09:30:05.857022,1709022605.8570216,-162.59765625,-7.32421875,-20.01953125,-156.25,1.0,1.0,1.0,1.0,3.m4v,1.0
2024-02-27 09:30:05.857022,1709022605.8570216,-162.59765625,-7.32421875,-20.01953125,-156.25,1.0,1.0,1.0,1.0,3.m4v,1.0
2024-02-27 09:30:05.860928,1709022605.8609283,-171.875,-26.3671875,-28.3203125,-168.45703125,1.0,1.0,1.0,1.0,3.m4v,1.0
2024-02-27 09:30:05.860928,1709022605.8609283,-171.875,-26.3671875,-28.3203125,-168.45703125,1.0,1.0,1.0,1.0,3.m4v,1.0
2024-02-27 09:30:05.864834,1709022605.864834,-156.25,-31.25,-18.06640625,-164.55078125,1.0,1.0,1.0,1.0,3.m4v,1.0
2024-02-27 09:30:05.864834,1709022605.864834,-156.25,-31.25,-18.06640625,-164.55078125,1.0,1.0,1.0,1.0,3.m4v,1.0
2024-02-27 09:30:05.868740,1709022605.8687398,-144.53125,-11.71875,-14.16015625,-153.3203125,1.0,1.0,1.0,1.0,3.m4v,1.0
2024-02-27 09:30:05.868740,1709022605.8687398,-144.53125,-11.71875,-14.16015625,-153.3203125,1.0,1.0,1.0,1.0,3.m4v,1.0
2024-02-27 09:30:05.872646,1709022605.8726456,-114.74609375,17.08984375,-40.52734375,-128.90625,1.0,1.0,1.0,1.0,3.m4v,1.0
2024-02-27 09:30:05.872646,1709022605.8726456,-114.74609375,17.08984375,-40.52734375,-128.90625,1.0,1.0,1.0,1.0,3.m4v,1.0
2024-02-27 09:30:05.876551,1709022605.8765512,-93.26171875,18.5546875,-40.52734375,-109.86328125,1.0,1.0,1.0,1.0,3.m4v,1.0
2024-02-27 09:30:05.876551,1709022605.8765512,-93.26171875,18.5546875,-40.52734375,-109.86328125,1.0,1.0,1.0,1.0,3.m4v,1.0
2024-02-27 09:30:05.880457,1709022605.880457,-100.09765625,-17.578125,-20.99609375,-104.00390625,1.0,1.0,1.0,1.0,3.m4v,1.0
2024-02-27 09:30:05.880457,1709022605.880457,-100.09765625,-17.578125,-20.99609375,-104.00390625,1.0,1.0,1.0,1.0,3.m4v,1.0
2024-02-27 09:30:05.884363,1709022605.8843627,-104.00390625,-53.22265625,-20.01953125,-105.46875,1.0,1.0,1.0,1.0,3.m4v,1.0
2024-02-27 09:30:05.888268,1709022605.8882682,-116.69921875,-54.19921875,-32.71484375,-122.0703125,1.0,1.0,1.0,1.0,3.m4v,1.0
2024-02-27 09:30:05.892174,1709022605.892174,-140.13671875,-45.8984375,-36.1328125,-126.953125,1.0,1.0,1.0,1.0,3.m4v,1.0
2024-02-27 09:30:05.896080,1709022605.8960798,-122.0703125,-42.48046875,-30.76171875,-98.14453125,1.0,1.0,1.0,1.0,3.m4v,1.0
2024-02-27 09:30:05.899986,1709022605.8999856,-59.5703125,-30.2734375,-41.9921875,-58.59375,1.0,1.0,1.0,1.0,3.m4v,1.0
2024-02-27 09:30:05.903891,1709022605.903891,-79.1015625,-24.4140625,-54.6875,-72.75390625,1.0,1.0,1.0,1.0,3.m4v,1.0
2024-02-27 09:30:05.907801,1709022605.9078014,-110.83984375,-33.69140625,-43.9453125,-86.42578125,1.0,1.0,1.0,1.0,3.m4v,1.0
2024-02-27 09:30:05.911707,1709022605.9117072,-67.3828125,-42.96875,-35.64453125,-37.109375,1.0,1.0,1.0,1.0,3.m4v,1.0
2024-02-27 09:30:05.915613,1709022605.915613,-52.24609375,-43.9453125,-33.203125,13.671875,1.0,1.0,1.0,1.0,3.m4v,1.0
2024-02-27 09:30:05.919519,1709022605.9195187,-42.48046875,-29.296875,-41.9921875,8.30078125,1.0,1.0,1.0,1.0,3.m4v,1.0
2024-02-27 09:30:05.923424,1709022605.9234242,-7.32421875,-27.83203125,-61.03515625,-37.109375,1.0,1.0,1.0,1.0,3.m4v,1.0
2024-02-27 09:30:05.927330,1709022605.92733,6.8359375,-28.80859375,-69.82421875,-10.7421875,1.0,1.0,1.0,1.0,3.m4v,1.0
2024-02-27 09:30:05.931236,1709022605.9312358,25.87890625,-24.4140625,-60.546875,42.96875,1.0,1.0,1.0,1.0,3.m4v,1.0
2024-02-27 09:30:05.935141,1709022605.935141,0.48828125,-49.8046875,-46.38671875,15.625,1.0,1.0,1.0,1.0,3.m4v,1.0
2024-02-27 09:30:05.939047,1709022605.939047,-27.34375,-63.4765625,-43.45703125,1.953125,1.0,1.0,1.0,1.0,3.m4v,1.0
2024-02-27 09:30:05.942953,1709022605.9429529,31.73828125,-46.875,-39.0625,87.40234375,1.0,1.0,1.0,1.0,3.m4v,1.0
2024-02-27 09:30:05.946859,1709022605.9468586,33.203125,-47.36328125,-34.1796875,0.48828125,1.0,1.0,1.0,1.0,3.m4v,1.0
2024-02-27 09:30:05.950764,1709022605.9507642,-37.109375,-62.98828125,-39.55078125,-76.66015625,1.0,1.0,1.0,1.0,3.m4v,1.0
2024-02-27 09:30:05.954673,1709022605.9546726,-3.90625,-36.62109375,-16.6015625,25.390625,1.0,1.0,1.0,1.0,3.m4v,1.0
2024-02-27 09:30:05.958578,1709022605.958578,44.921875,-19.53125,5.37109375,-4.39453125,1.0,1.0,1.0,1.0,3.m4v,1.0
2024-02-27 09:30:05.962484,1709022605.962484,48.33984375,-44.921875,-25.87890625,-29.296875,1.0,1.0,1.0,1.0,3.m4v,1.0
2024-02-27 09:30:05.985918,1709022605.9859183,-29.296875,-68.359375,-25.390625,-31.25,1.0,1.0,1.0,1.0,3.m4v,1.0
2024-02-27 09:30:06.134341,1709022606.1343417,-17.08984375,-29.296875,-32.2265625,-25.87890625,1.0,1.0,1.0,1.0,3.m4v,1.0
2024-02-27 09:30:06.138247,1709022606.1382473,12.20703125,-7.32421875,-51.7578125,-29.296875,1.0,1.0,1.0,1.0,3.m4v,1.0
2024-02-27 09:30:06.142154,1709022606.1421545,35.15625,-12.6953125,-44.43359375,-20.01953125,1.0,1.0,1.0,1.0,3.m4v,1.0
2024-02-27 09:30:06.146060,1709022606.1460602,15.625,-19.04296875,-21.484375,13.18359375,1.0,1.0,1.0,1.0,3.m4v,1.0
2024-02-27 09:30:06.149966,1709022606.149966,6.34765625,-25.390625,-32.71484375,28.3203125,1.0,1.0,1.0,1.0,3.m4v,1.0
2024-02-27 09:30:06.153872,1709022606.1538715,12.6953125,-49.8046875,-28.3203125,8.7890625,1.0,1.0,1.0,1.0,3.m4v,1.0
2024-02-27 09:30:06.157777,1709022606.1577773,18.06640625,-38.0859375,-3.90625,-3.90625,1.0,1.0,1.0,1.0,3.m4v,1.0
2024-02-27 09:30:06.161683,1709022606.161683,-1.953125,-25.390625,-15.13671875,-24.90234375,1.0,1.0,1.0,1.0,3.m4v,1.0
2024-02-27 09:30:06.165589,1709022606.1655889,-33.203125,-59.08203125,-33.203125,-62.98828125,1.0,1.0,1.0,1.0,3.m4v,1.0
2024-02-27 09:30:06.169494,1709022606.1694944,-49.8046875,-60.05859375,-25.87890625,-68.359375,1.0,1.0,1.0,1.0,3.m4v,1.0
2024-02-27 09:30:06.173400,1709022606.1734002,-36.62109375,-33.69140625,-35.15625,-64.453125,1.0,1.0,1.0,1.0,3.m4v,1.0
2024-02-27 09:30:06.177306,1709022606.177306,-7.32421875,-33.203125,-70.80078125,-33.69140625,1.0,1.0,1.0,1.0,3.m4v,1.0
2024-02-27 09:30:06.181212,1709022606.1812117,38.57421875,-26.3671875,-38.0859375,-5.859375,1.0,1.0,1.0,1.0,3.m4v,1.0
2024-02-27 09:30:06.185117,1709022606.1851172,26.85546875,-15.13671875,-10.7421875,-20.5078125,1.0,1.0,1.0,1.0,3.m4v,1.0
2024-02-27 09:30:06.189024,1709022606.1890242,-18.06640625,-20.99609375,-36.62109375,-21.484375,1.0,1.0,1.0,1.0,3.m4v,1.0
2024-02-27 09:30:06.192930,1709022606.19293,-10.25390625,-17.578125,-31.73828125,-10.7421875,1.0,1.0,1.0,1.0,3.m4v,1.0
2024-02-27 09:30:06.196836,1709022606.1968358,-22.94921875,-41.015625,-23.4375,-17.08984375,1.0,1.0,1.0,1.0,3.m4v,1.0
2024-02-27 09:30:06.200742,1709022606.2007415,-8.7890625,-46.38671875,-35.15625,-38.57421875,1.0,1.0,1.0,1.0,3.m4v,1.0
2024-02-27 09:30:06.204647,1709022606.204647,29.296875,-19.53125,-31.25,-58.10546875,1.0,1.0,1.0,1.0,3.m4v,1.0
2024-02-27 09:30:06.208553,1709022606.2085528,-0.9765625,-19.04296875,-4.39453125,-29.296875,1.0,1.0,1.0,1.0,3.m4v,1.0
2024-02-27 09:30:06.212459,1709022606.2124586,-46.38671875,-51.26953125,-40.52734375,-36.62109375,1.0,1.0,1.0,1.0,3.m4v,1.0
2024-02-27 09:30:06.216364,1709022606.2163644,-19.53125,-47.8515625,-59.5703125,-25.390625,1.0,1.0,1.0,1.0,3.m4v,1.0
2024-02-27 09:30:06.220270,1709022606.22027,28.3203125,-22.4609375,-37.109375,-7.32421875,1.0,1.0,1.0,1.0,3.m4v,1.0
2024-02-27 09:30:06.224176,1709022606.2241757,6.34765625,-14.6484375,-28.80859375,-45.8984375,1.0,1.0,1.0,1.0,3.m4v,1.0
2024-02-27 09:30:06.228081,1709022606.2280817,-2.9296875,-18.06640625,-9.765625,-14.6484375,1.0,1.0,1.0,1.0,3.m4v,1.0
2024-02-27 09:30:06.231987,1709022606.231987,-31.73828125,-58.10546875,-26.3671875,-16.11328125,1.0,1.0,1.0,1.0,3.m4v,1.0
2024-02-27 09:30:06.235894,1709022606.2358942,-53.22265625,-60.05859375,-56.15234375,-66.40625,1.0,1.0,1.0,1.0,3.m4v,1.0
2024-02-27 09:30:06.239800,1709022606.2398,-35.64453125,-32.2265625,-52.24609375,-70.80078125,1.0,1.0,1.0,1.0,3.m4v,1.0
2024-02-27 09:30:06.243706,1709022606.2437055,-18.5546875,-15.13671875,-31.73828125,-33.69140625,1.0,1.0,1.0,1.0,3.m4v,1.0
2024-02-27 09:30:06.247611,1709022606.2476113,-38.57421875,-20.99609375,-24.4140625,-12.20703125,1.0,1.0,1.0,1.0,3.m4v,1.0
2024-02-27 09:30:06.251517,1709022606.251517,-51.26953125,-26.3671875,-23.92578125,-26.85546875,1.0,1.0,1.0,1.0,3.m4v,1.0
2024-02-27 09:30:06.255423,1709022606.2554228,-13.18359375,-28.80859375,-30.2734375,-35.15625,1.0,1.0,1.0,1.0,3.m4v,1.0
2024-02-27 09:30:06.259328,1709022606.2593284,-1.46484375,-50.78125,-46.38671875,-33.69140625,1.0,1.0,1.0,1.0,3.m4v,1.0
2024-02-27 09:30:06.263234,1709022606.263234,13.671875,-41.015625,-14.6484375,-11.71875,1.0,1.0,1.0,1.0,3.m4v,1.0
2024-02-27 09:30:06.267140,1709022606.26714,2.44140625,-36.62109375,-12.20703125,-2.9296875,1.0,1.0,1.0,1.0,3.m4v,1.0
2024-02-27 09:30:06.271046,1709022606.2710457,-9.765625,-36.1328125,-39.0625,-12.6953125,1.0,1.0,1.0,1.0,3.m4v,1.0
2024-02-27 09:30:06.274951,1709022606.2749512,-5.859375,-33.203125,-56.15234375,-35.15625,1.0,1.0,1.0,1.0,3.m4v,1.0
2024-02-27 09:30:06.278857,1709022606.278857,-27.83203125,-41.015625,-67.87109375,-52.24609375,1.0,1.0,1.0,1.0,3.m4v,1.0
2024-02-27 09:30:06.282764,1709022606.2827635,-42.96875,-47.36328125,-68.84765625,-48.828125,1.0,1.0,1.0,1.0,3.m4v,1.0
2024-02-27 09:30:06.286669,1709022606.2866693,-37.109375,-23.92578125,-37.109375,-32.2265625,1.0,1.0,1.0,1.0,3.m4v,1.0
2024-02-27 09:30:06.290575,1709022606.290575,-28.3203125,-20.99609375,-11.23046875,-27.83203125,1.0,1.0,1.0,1.0,3.m4v,1.0
2024-02-27 09:30:06.294481,1709022606.2944808,-17.578125,-28.80859375,-18.06640625,-31.73828125,1.0,1.0,1.0,1.0,3.m4v,1.0
2024-02-27 09:30:06.298387,1709022606.2983866,1.953125,-29.296875,-39.0625,-22.94921875,1.0,1.0,1.0,1.0,3.m4v,1.0
2024-02-27 09:30:06.302292,1709022606.302292,14.16015625,-58.59375,-48.828125,-28.3203125,1.0,1.0,1.0,1.0,3.m4v,1.0
2024-02-27 09:30:06.306198,1709022606.306198,33.203125,-69.3359375,-41.9921875,-40.52734375,1.0,1.0,1.0,1.0,3.m4v,1.0
2024-02-27 09:30:06.310104,1709022606.3101037,7.8125,-56.15234375,-18.06640625,-46.875,1.0,1.0,1.0,1.0,3.m4v,1.0
2024-02-27 09:30:06.314009,1709022606.3140092,-59.5703125,-44.43359375,-12.6953125,-65.91796875,1.0,1.0,1.0,1.0,3.m4v,1.0
2024-02-27 09:30:06.317915,1709022606.317915,-74.70703125,-42.48046875,-45.8984375,-66.40625,1.0,1.0,1.0,1.0,3.m4v,1.0
2024-02-27 09:30:06.321821,1709022606.3218207,-41.015625,-32.2265625,-66.40625,-30.2734375,1.0,1.0,1.0,1.0,3.m4v,1.0
2024-02-27 09:30:06.325727,1709022606.3257265,-2.9296875,-6.34765625,-39.0625,2.44140625,1.0,1.0,1.0,1.0,3.m4v,1.0
2024-02-27 09:30:06.329635,1709022606.329635,-16.6015625,-3.41796875,-11.23046875,-12.6953125,1.0,1.0,1.0,1.0,3.m4v,1.0
2024-02-27 09:30:06.333540,1709022606.3335404,-32.71484375,-26.3671875,-31.73828125,-41.50390625,1.0,1.0,1.0,1.0,3.m4v,1.0
2024-02-27 09:30:06.337446,1709022606.3374462,-21.484375,-33.69140625,-42.96875,-52.24609375,1.0,1.0,1.0,1.0,3.m4v,1.0
2024-02-27 09:30:06.341352,1709022606.3413515,4.39453125,-37.109375,-40.0390625,-23.92578125,1.0,1.0,1.0,1.0,3.m4v,1.0
2024-02-27 09:30:06.345258,1709022606.3452575,36.62109375,-45.8984375,-35.64453125,11.23046875,1.0,1.0,1.0,1.0,3.m4v,1.0
2024-02-27 09:30:06.349163,1709022606.3491633,-19.53125,-58.59375,-37.109375,-16.11328125,1.0,1.0,1.0,1.0,3.m4v,1.0
2024-02-27 09:30:06.353069,1709022606.353069,-61.5234375,-47.8515625,-31.73828125,-42.48046875,1.0,1.0,1.0,1.0,3.m4v,1.0
2024-02-27 09:30:06.356975,1709022606.3569746,-39.55078125,-20.99609375,-6.34765625,-36.1328125,1.0,1.0,1.0,1.0,3.m4v,1.0
2024-02-27 09:30:06.360880,1709022606.3608804,-8.7890625,-11.23046875,-6.8359375,-23.92578125,1.0,1.0,1.0,1.0,3.m4v,1.0
2024-02-27 09:30:06.364786,1709022606.364786,-15.625,-35.64453125,-51.26953125,-26.85546875,1.0,1.0,1.0,1.0,3.m4v,1.0
2024-02-27 09:30:06.368692,1709022606.3686917,-39.55078125,-35.64453125,-54.19921875,-32.71484375,1.0,1.0,1.0,1.0,3.m4v,1.0
2024-02-27 09:30:06.372597,1709022606.3725977,-49.31640625,-29.78515625,-34.66796875,-46.38671875,1.0,1.0,1.0,1.0,3.m4v,1.0
2024-02-27 09:30:06.376506,1709022606.376506,-19.53125,-39.0625,-41.50390625,-25.390625,1.0,1.0,1.0,1.0,3.m4v,1.0
2024-02-27 09:30:06.380412,1709022606.3804116,13.671875,-40.0390625,-60.05859375,-18.06640625,1.0,1.0,1.0,1.0,3.m4v,1.0
2024-02-27 09:30:06.384317,1709022606.3843174,-3.41796875,-49.31640625,-37.59765625,-38.57421875,1.0,1.0,1.0,1.0,3.m4v,1.0
2024-02-27 09:30:06.388223,1709022606.388223,-36.62109375,-59.5703125,-38.0859375,-41.9921875,1.0,1.0,1.0,1.0,3.m4v,1.0
2024-02-27 09:30:06.392129,1709022606.3921287,-36.1328125,-54.19921875,-55.17578125,-47.36328125,1.0,1.0,1.0,1.0,3.m4v,1.0
2024-02-27 09:30:06.396034,1709022606.3960345,-17.578125,-32.2265625,-23.92578125,-1.46484375,1.0,1.0,1.0,1.0,3.m4v,1.0
2024-02-27 09:30:06.399940,1709022606.3999405,12.6953125,-20.01953125,-11.71875,32.2265625,1.0,1.0,1.0,1.0,3.m4v,1.0
2024-02-27 09:30:06.403846,1709022606.4038458,8.30078125,-13.18359375,-23.92578125,-24.90234375,1.0,1.0,1.0,1.0,3.m4v,1.0
2024-02-27 09:30:06.407752,1709022606.4077516,-77.63671875,-22.4609375,-20.99609375,-62.01171875,1.0,1.0,1.0,1.0,3.m4v,1.0
2024-02-27 09:30:06.411657,1709022606.411657,-101.5625,-40.52734375,-21.484375,-64.94140625,1.0,1.0,1.0,1.0,3.m4v,1.0
2024-02-27 09:30:06.415563,1709022606.4155629,-44.921875,-33.203125,-28.80859375,-62.5,1.0,1.0,1.0,1.0,3.m4v,1.0
2024-02-27 09:30:06.419469,1709022606.4194686,-29.296875,-26.85546875,-46.875,-48.828125,1.0,1.0,1.0,1.0,3.m4v,1.0
2024-02-27 09:30:06.423377,1709022606.4233766,-12.20703125,-29.296875,-52.24609375,-26.85546875,1.0,1.0,1.0,1.0,3.m4v,1.0
2024-02-27 09:30:06.427282,1709022606.427282,39.0625,-7.8125,0.0,43.9453125,1.0,1.0,1.0,1.0,3.m4v,1.0
2024-02-27 09:30:06.431188,1709022606.431188,12.6953125,-22.4609375,7.8125,46.875,1.0,1.0,1.0,1.0,3.m4v,1.0
2024-02-27 09:30:06.435094,1709022606.4350936,-35.15625,-50.29296875,-18.06640625,-43.9453125,1.0,1.0,1.0,1.0,3.m4v,1.0
2024-02-27 09:30:06.454622,1709022606.454622,-28.3203125,-28.80859375,-24.90234375,16.11328125,1.0,1.0,1.0,1.0,3.m4v,1.0
2024-02-27 09:30:06.454622,1709022606.454622,-28.3203125,-28.80859375,-24.90234375,16.11328125,1.0,1.0,1.0,1.0,3.m4v,1.0
2024-02-27 09:30:06.458528,1709022606.4585278,-39.0625,-23.92578125,-32.2265625,-13.18359375,1.0,1.0,1.0,1.0,3.m4v,1.0
2024-02-27 09:30:06.458528,1709022606.4585278,-39.0625,-23.92578125,-32.2265625,-13.18359375,1.0,1.0,1.0,1.0,3.m4v,1.0
2024-02-27 09:30:06.462434,1709022606.4624336,-19.04296875,-23.92578125,-34.66796875,-44.43359375,1.0,1.0,1.0,1.0,3.m4v,1.0
2024-02-27 09:30:06.462434,1709022606.4624336,-19.04296875,-23.92578125,-34.66796875,-44.43359375,1.0,1.0,1.0,1.0,3.m4v,1.0
2024-02-27 09:30:06.466339,1709022606.466339,13.671875,-28.80859375,-36.1328125,-9.27734375,1.0,1.0,1.0,1.0,3.m4v,1.0
2024-02-27 09:30:06.466339,1709022606.466339,13.671875,-28.80859375,-36.1328125,-9.27734375,1.0,1.0,1.0,1.0,3.m4v,1.0
2024-02-27 09:30:06.470247,1709022606.470247,-21.97265625,-44.43359375,-37.109375,-12.6953125,1.0,1.0,1.0,1.0,3.m4v,1.0
2024-02-27 09:30:06.470247,1709022606.470247,-21.97265625,-44.43359375,-37.109375,-12.6953125,1.0,1.0,1.0,1.0,3.m4v,1.0
2024-02-27 09:30:06.474153,1709022606.4741526,-49.31640625,-37.109375,-37.109375,-8.30078125,1.0,1.0,1.0,1.0,3.m4v,1.0
2024-02-27 09:30:06.474153,1709022606.4741526,-49.31640625,-37.109375,-37.109375,-8.30078125,1.0,1.0,1.0,1.0,3.m4v,1.0
2024-02-27 09:30:06.478058,1709022606.4780583,-17.578125,-7.32421875,-14.6484375,-24.4140625,1.0,1.0,1.0,1.0,3.m4v,1.0
2024-02-27 09:30:06.478058,1709022606.4780583,-17.578125,-7.32421875,-14.6484375,-24.4140625,1.0,1.0,1.0,1.0,3.m4v,1.0
2024-02-27 09:30:06.481964,1709022606.481964,-15.625,-17.08984375,-15.625,-81.0546875,1.0,1.0,1.0,1.0,3.m4v,1.0
2024-02-27 09:30:06.481964,1709022606.481964,-15.625,-17.08984375,-15.625,-81.0546875,1.0,1.0,1.0,1.0,3.m4v,1.0
2024-02-27 09:30:06.485870,1709022606.48587,-47.36328125,-39.0625,-28.80859375,-83.0078125,1.0,1.0,1.0,1.0,3.m4v,1.0
2024-02-27 09:30:06.485870,1709022606.48587,-47.36328125,-39.0625,-28.80859375,-83.0078125,1.0,1.0,1.0,1.0,3.m4v,1.0
2024-02-27 09:30:06.489775,1709022606.4897754,-64.94140625,-44.43359375,-36.1328125,-44.921875,1.0,1.0,1.0,1.0,3.m4v,1.0
2024-02-27 09:30:06.489775,1709022606.4897754,-64.94140625,-44.43359375,-36.1328125,-44.921875,1.0,1.0,1.0,1.0,3.m4v,1.0
2024-02-27 09:30:06.493681,1709022606.4936812,-25.390625,-17.578125,-46.875,3.90625,1.0,1.0,1.0,1.0,3.m4v,1.0
2024-02-27 09:30:06.493681,1709022606.4936812,-25.390625,-17.578125,-46.875,3.90625,1.0,1.0,1.0,1.0,3.m4v,1.0
2024-02-27 09:30:06.497587,1709022606.497587,9.27734375,-0.48828125,-43.9453125,0.0,1.0,1.0,1.0,1.0,3.m4v,1.0
2024-02-27 09:30:06.497587,1709022606.497587,9.27734375,-0.48828125,-43.9453125,0.0,1.0,1.0,1.0,1.0,3.m4v,1.0
2024-02-27 09:30:06.501493,1709022606.5014925,1.953125,-41.9921875,-29.296875,-36.62109375,1.0,1.0,1.0,1.0,3.m4v,1.0
2024-02-27 09:30:06.501493,1709022606.5014925,1.953125,-41.9921875,-29.296875,-36.62109375,1.0,1.0,1.0,1.0,3.m4v,1.0
2024-02-27 09:30:06.505398,1709022606.5053985,-1.46484375,-46.38671875,-13.671875,-23.92578125,1.0,1.0,1.0,1.0,3.m4v,1.0
2024-02-27 09:30:06.505398,1709022606.5053985,-1.46484375,-46.38671875,-13.671875,-23.92578125,1.0,1.0,1.0,1.0,3.m4v,1.0
2024-02-27 09:30:06.509304,1709022606.509304,-31.73828125,-28.3203125,-29.78515625,-29.78515625,1.0,1.0,1.0,1.0,3.m4v,1.0
2024-02-27 09:30:06.509304,1709022606.509304,-31.73828125,-28.3203125,-29.78515625,-29.78515625,1.0,1.0,1.0,1.0,3.m4v,1.0
2024-02-27 09:30:06.513210,1709022606.5132098,-56.640625,-39.55078125,-28.80859375,-42.48046875,1.0,1.0,1.0,1.0,3.m4v,1.0
2024-02-27 09:30:06.513210,1709022606.5132098,-56.640625,-39.55078125,-28.80859375,-42.48046875,1.0,1.0,1.0,1.0,3.m4v,1.0
2024-02-27 09:30:06.517119,1709022606.517119,-50.29296875,-40.52734375,-3.41796875,-40.0390625,1.0,1.0,1.0,1.0,3.m4v,1.0
2024-02-27 09:30:06.517119,1709022606.517119,-50.29296875,-40.52734375,-3.41796875,-40.0390625,1.0,1.0,1.0,1.0,3.m4v,1.0
2024-02-27 09:30:06.521025,1709022606.5210247,-42.48046875,-31.73828125,-20.01953125,-71.2890625,1.0,1.0,1.0,1.0,3.m4v,1.0
2024-02-27 09:30:06.521025,1709022606.5210247,-42.48046875,-31.73828125,-20.01953125,-71.2890625,1.0,1.0,1.0,1.0,3.m4v,1.0
2024-02-27 09:30:06.524930,1709022606.5249302,-39.55078125,-25.87890625,-44.43359375,-78.61328125,1.0,1.0,1.0,1.0,3.m4v,1.0
2024-02-27 09:30:06.524930,1709022606.5249302,-39.55078125,-25.87890625,-44.43359375,-78.61328125,1.0,1.0,1.0,1.0,3.m4v,1.0
2024-02-27 09:30:06.528836,1709022606.528836,-64.453125,-29.78515625,-65.4296875,-33.203125,1.0,1.0,1.0,1.0,3.m4v,1.0
2024-02-27 09:30:06.528836,1709022606.528836,-64.453125,-29.78515625,-65.4296875,-33.203125,1.0,1.0,1.0,1.0,3.m4v,1.0
2024-02-27 09:30:06.532742,1709022606.5327418,-32.71484375,-14.16015625,-42.48046875,-1.46484375,1.0,1.0,1.0,1.0,3.m4v,1.0
2024-02-27 09:30:06.532742,1709022606.5327418,-32.71484375,-14.16015625,-42.48046875,-1.46484375,1.0,1.0,1.0,1.0,3.m4v,1.0
2024-02-27 09:30:06.536648,1709022606.5366476,-14.16015625,-21.97265625,0.48828125,-29.78515625,1.0,1.0,1.0,1.0,3.m4v,1.0
2024-02-27 09:30:06.536648,1709022606.5366476,-14.16015625,-21.97265625,0.48828125,-29.78515625,1.0,1.0,1.0,1.0,3.m4v,1.0
2024-02-27 09:30:06.540553,1709022606.540553,-40.0390625,-49.8046875,-15.13671875,-72.265625,1.0,1.0,1.0,1.0,3.m4v,1.0
2024-02-27 09:30:06.540553,1709022606.540553,-40.0390625,-49.8046875,-15.13671875,-72.265625,1.0,1.0,1.0,1.0,3.m4v,1.0
2024-02-27 09:30:06.544459,1709022606.5444589,-54.6875,-62.5,-39.55078125,-64.94140625,1.0,1.0,1.0,1.0,3.m4v,1.0
2024-02-27 09:30:06.544459,1709022606.5444589,-54.6875,-62.5,-39.55078125,-64.94140625,1.0,1.0,1.0,1.0,3.m4v,1.0
2024-02-27 09:30:06.548365,1709022606.5483646,-71.77734375,-57.6171875,-52.24609375,-57.12890625,1.0,1.0,1.0,1.0,3.m4v,1.0
2024-02-27 09:30:06.548365,1709022606.5483646,-71.77734375,-57.6171875,-52.24609375,-57.12890625,1.0,1.0,1.0,1.0,3.m4v,1.0
2024-02-27 09:30:06.552270,1709022606.5522702,-67.3828125,-44.43359375,-48.828125,-45.8984375,1.0,1.0,1.0,1.0,3.m4v,1.0
2024-02-27 09:30:06.552270,1709022606.5522702,-67.3828125,-44.43359375,-48.828125,-45.8984375,1.0,1.0,1.0,1.0,3.m4v,1.0
2024-02-27 09:30:06.556176,1709022606.556176,-34.1796875,-32.2265625,-40.52734375,-24.90234375,1.0,1.0,1.0,1.0,3.m4v,1.0
2024-02-27 09:30:06.556176,1709022606.556176,-34.1796875,-32.2265625,-40.52734375,-24.90234375,1.0,1.0,1.0,1.0,3.m4v,1.0
2024-02-27 09:30:06.560082,1709022606.5600815,10.25390625,-19.53125,-44.921875,4.39453125,1.0,1.0,1.0,1.0,3.m4v,1.0
2024-02-27 09:30:06.560082,1709022606.5600815,10.25390625,-19.53125,-44.921875,4.39453125,1.0,1.0,1.0,1.0,3.m4v,1.0
2024-02-27 09:30:06.563989,1709022606.563989,15.13671875,-28.3203125,-46.875,20.99609375,1.0,1.0,1.0,1.0,3.m4v,1.0
2024-02-27 09:30:06.563989,1709022606.563989,15.13671875,-28.3203125,-46.875,20.99609375,1.0,1.0,1.0,1.0,3.m4v,1.0
2024-02-27 09:30:06.567894,1709022606.5678945,-56.640625,-43.45703125,-43.9453125,-20.99609375,1.0,1.0,1.0,1.0,3.m4v,1.0
2024-02-27 09:30:06.567894,1709022606.5678945,-56.640625,-43.45703125,-43.9453125,-20.99609375,1.0,1.0,1.0,1.0,3.m4v,1.0
2024-02-27 09:30:06.571800,1709022606.5718002,-79.1015625,-42.96875,-34.66796875,-57.6171875,1.0,1.0,1.0,1.0,3.m4v,1.0
2024-02-27 09:30:06.571800,1709022606.5718002,-79.1015625,-42.96875,-34.66796875,-57.6171875,1.0,1.0,1.0,1.0,3.m4v,1.0
2024-02-27 09:30:06.575706,1709022606.575706,-35.15625,-35.64453125,-24.4140625,-71.2890625,1.0,1.0,1.0,1.0,3.m4v,1.0
2024-02-27 09:30:06.575706,1709022606.575706,-35.15625,-35.64453125,-24.4140625,-71.2890625,1.0,1.0,1.0,1.0,3.m4v,1.0
2024-02-27 09:30:06.911612,1709022606.9116118,19.53125,-35.64453125,-48.33984375,-9.765625,1.0,1.0,1.0,1.0,3.m4v,1.0
2024-02-27 09:30:06.915518,1709022606.9155176,15.625,-24.4140625,-45.41015625,-4.8828125,1.0,1.0,1.0,1.0,3.m4v,1.0
2024-02-27 09:30:06.919423,1709022606.919423,-2.44140625,-8.7890625,-15.13671875,-13.18359375,1.0,1.0,1.0,1.0,3.m4v,1.0
2024-02-27 09:30:06.923329,1709022606.9233289,-8.30078125,-28.3203125,-4.8828125,-14.16015625,1.0,1.0,1.0,1.0,3.m4v,1.0
2024-02-27 09:30:06.927235,1709022606.9272346,-41.015625,-46.38671875,-32.2265625,-44.43359375,1.0,1.0,1.0,1.0,3.m4v,1.0
2024-02-27 09:30:06.931140,1709022606.9311404,-80.56640625,-40.52734375,-47.8515625,-92.28515625,1.0,1.0,1.0,1.0,3.m4v,1.0
2024-02-27 09:30:06.935046,1709022606.9350462,-76.171875,-37.59765625,-36.1328125,-89.35546875,1.0,1.0,1.0,1.0,3.m4v,1.0
2024-02-27 09:30:06.938953,1709022606.9389534,-54.6875,-42.48046875,-33.69140625,-58.10546875,1.0,1.0,1.0,1.0,3.m4v,1.0
2024-02-27 09:30:06.942859,1709022606.942859,-30.2734375,-29.78515625,-33.69140625,-37.109375,1.0,1.0,1.0,1.0,3.m4v,1.0
2024-02-27 09:30:06.946765,1709022606.9467647,-24.90234375,-16.6015625,-36.62109375,-34.1796875,1.0,1.0,1.0,1.0,3.m4v,1.0
2024-02-27 09:30:06.950670,1709022606.9506705,-28.80859375,-22.4609375,-49.31640625,-13.671875,1.0,1.0,1.0,1.0,3.m4v,1.0
2024-02-27 09:30:06.954576,1709022606.9545765,7.32421875,-27.83203125,-33.69140625,16.6015625,1.0,1.0,1.0,1.0,3.m4v,1.0
2024-02-27 09:30:06.958482,1709022606.9584818,26.3671875,-29.296875,-2.44140625,-6.8359375,1.0,1.0,1.0,1.0,3.m4v,1.0
2024-02-27 09:30:06.962388,1709022606.9623876,-19.04296875,-42.96875,-20.01953125,-38.57421875,1.0,1.0,1.0,1.0,3.m4v,1.0
2024-02-27 09:30:06.966293,1709022606.966293,-52.24609375,-42.48046875,-43.45703125,-20.5078125,1.0,1.0,1.0,1.0,3.m4v,1.0
2024-02-27 09:30:06.970199,1709022606.970199,-67.3828125,-38.0859375,-34.66796875,-37.109375,1.0,1.0,1.0,1.0,3.m4v,1.0
2024-02-27 09:30:06.974105,1709022606.9741046,-69.82421875,-47.8515625,-32.71484375,-89.84375,1.0,1.0,1.0,1.0,3.m4v,1.0
2024-02-27 09:30:06.978010,1709022606.9780104,-12.6953125,-31.25,-13.671875,-75.68359375,1.0,1.0,1.0,1.0,3.m4v,1.0
2024-02-27 09:30:06.981916,1709022606.9819162,0.0,-24.90234375,-7.32421875,-45.8984375,1.0,1.0,1.0,1.0,3.m4v,1.0
2024-02-27 09:30:06.985823,1709022606.9858232,-46.38671875,-39.0625,-20.5078125,-44.43359375,1.0,1.0,1.0,1.0,3.m4v,1.0
2024-02-27 09:30:06.989729,1709022606.9897287,-51.7578125,-44.43359375,-30.2734375,-41.50390625,1.0,1.0,1.0,1.0,3.m4v,1.0
2024-02-27 09:30:06.993634,1709022606.9936345,-33.69140625,-36.62109375,-45.41015625,-32.71484375,1.0,1.0,1.0,1.0,3.m4v,1.0
2024-02-27 09:30:07.313915,1709022607.3139155,-56.15234375,-20.5078125,-44.43359375,-17.08984375,1.0,1.0,1.0,1.0,3.m4v,1.0
2024-02-27 09:30:07.317821,1709022607.3178213,-24.90234375,-21.97265625,-63.96484375,-2.44140625,1.0,1.0,1.0,1.0,3.m4v,1.0
2024-02-27 09:30:07.321727,1709022607.321727,-27.83203125,-32.2265625,-47.8515625,-19.53125,1.0,1.0,1.0,1.0,3.m4v,1.0
2024-02-27 09:30:07.325633,1709022607.3256328,-22.4609375,-13.671875,-9.27734375,-20.5078125,1.0,1.0,1.0,1.0,3.m4v,1.0
2024-02-27 09:30:07.501397,1709022607.5013971,-23.4375,-47.36328125,-23.92578125,-28.80859375,1.0,1.0,1.0,1.0,3.m4v,1.0
2024-02-27 09:30:07.501397,1709022607.5013971,-23.4375,-47.36328125,-23.92578125,-28.80859375,1.0,1.0,1.0,1.0,3.m4v,1.0
2024-02-27 09:30:07.505303,1709022607.505303,-20.5078125,-16.6015625,-14.16015625,-20.99609375,1.0,1.0,1.0,1.0,3.m4v,1.0
2024-02-27 09:30:07.505303,1709022607.505303,-20.5078125,-16.6015625,-14.16015625,-20.99609375,1.0,1.0,1.0,1.0,3.m4v,1.0
2024-02-27 09:30:07.509208,1709022607.5092084,-68.84765625,-20.01953125,-11.71875,-25.390625,1.0,1.0,1.0,1.0,3.m4v,1.0
2024-02-27 09:30:07.509208,1709022607.5092084,-68.84765625,-20.01953125,-11.71875,-25.390625,1.0,1.0,1.0,1.0,3.m4v,1.0
2024-02-27 09:30:07.513114,1709022607.5131142,-67.87109375,-41.9921875,-31.73828125,-11.23046875,1.0,1.0,1.0,1.0,3.m4v,1.0
2024-02-27 09:30:07.513114,1709022607.5131142,-67.87109375,-41.9921875,-31.73828125,-11.23046875,1.0,1.0,1.0,1.0,3.m4v,1.0
2024-02-27 09:30:07.517020,1709022607.51702,-39.55078125,-38.57421875,-34.66796875,-13.18359375,1.0,1.0,1.0,1.0,3.m4v,1.0
2024-02-27 09:30:07.517020,1709022607.51702,-39.55078125,-38.57421875,-34.66796875,-13.18359375,1.0,1.0,1.0,1.0,3.m4v,1.0
2024-02-27 09:30:07.520926,1709022607.5209255,-49.31640625,-40.0390625,-29.296875,-46.38671875,1.0,1.0,1.0,1.0,3.m4v,1.0
2024-02-27 09:30:07.520926,1709022607.5209255,-49.31640625,-40.0390625,-29.296875,-46.38671875,1.0,1.0,1.0,1.0,3.m4v,1.0
2024-02-27 09:30:07.524831,1709022607.5248313,-58.59375,-30.2734375,-11.71875,-62.5,1.0,1.0,1.0,1.0,3.m4v,1.0
2024-02-27 09:30:07.524831,1709022607.5248313,-58.59375,-30.2734375,-11.71875,-62.5,1.0,1.0,1.0,1.0,3.m4v,1.0
2024-02-27 09:30:07.528737,1709022607.528737,-45.8984375,-17.08984375,-14.16015625,-31.73828125,1.0,1.0,1.0,1.0,3.m4v,1.0
2024-02-27 09:30:07.528737,1709022607.528737,-45.8984375,-17.08984375,-14.16015625,-31.73828125,1.0,1.0,1.0,1.0,3.m4v,1.0
2024-02-27 09:30:07.532643,1709022607.5326426,-73.2421875,-27.34375,-31.73828125,-25.87890625,1.0,1.0,1.0,1.0,3.m4v,1.0
2024-02-27 09:30:07.532643,1709022607.5326426,-73.2421875,-27.34375,-31.73828125,-25.87890625,1.0,1.0,1.0,1.0,3.m4v,1.0
2024-02-27 09:30:07.536548,1709022607.5365484,-87.40234375,-31.73828125,-46.875,-62.98828125,1.0,1.0,1.0,1.0,3.m4v,1.0
2024-02-27 09:30:07.536548,1709022607.5365484,-87.40234375,-31.73828125,-46.875,-62.98828125,1.0,1.0,1.0,1.0,3.m4v,1.0
2024-02-27 09:30:07.540454,1709022607.540454,-31.73828125,-21.484375,-62.5,-25.87890625,1.0,1.0,1.0,1.0,3.m4v,1.0
2024-02-27 09:30:07.540454,1709022607.540454,-31.73828125,-21.484375,-62.5,-25.87890625,1.0,1.0,1.0,1.0,3.m4v,1.0
2024-02-27 09:30:07.544360,1709022607.54436,-11.23046875,-20.99609375,-49.31640625,-8.7890625,1.0,1.0,1.0,1.0,3.m4v,1.0
2024-02-27 09:30:07.544360,1709022607.54436,-11.23046875,-20.99609375,-49.31640625,-8.7890625,1.0,1.0,1.0,1.0,3.m4v,1.0
2024-02-27 09:30:07.548268,1709022607.5482676,-74.21875,-45.8984375,-26.85546875,-47.36328125,1.0,1.0,1.0,1.0,3.m4v,1.0
2024-02-27 09:30:07.548268,1709022607.5482676,-74.21875,-45.8984375,-26.85546875,-47.36328125,1.0,1.0,1.0,1.0,3.m4v,1.0
2024-02-27 09:30:07.552173,1709022607.5521734,-83.0078125,-63.4765625,-15.13671875,-46.38671875,1.0,1.0,1.0,1.0,3.m4v,1.0
2024-02-27 09:30:07.552173,1709022607.5521734,-83.0078125,-63.4765625,-15.13671875,-46.38671875,1.0,1.0,1.0,1.0,3.m4v,1.0
2024-02-27 09:30:07.556079,1709022607.5560791,-57.12890625,-62.98828125,-23.4375,-42.48046875,1.0,1.0,1.0,1.0,3.m4v,1.0
2024-02-27 09:30:07.556079,1709022607.5560791,-57.12890625,-62.98828125,-23.4375,-42.48046875,1.0,1.0,1.0,1.0,3.m4v,1.0
2024-02-27 09:30:07.559985,1709022607.5599847,-50.78125,-50.29296875,-32.71484375,-61.5234375,1.0,1.0,1.0,1.0,3.m4v,1.0
2024-02-27 09:30:07.559985,1709022607.5599847,-50.78125,-50.29296875,-32.71484375,-61.5234375,1.0,1.0,1.0,1.0,3.m4v,1.0
2024-02-27 09:30:07.563890,1709022607.5638905,-49.8046875,-39.0625,-25.87890625,-65.4296875,1.0,1.0,1.0,1.0,3.m4v,1.0
2024-02-27 09:30:07.563890,1709022607.5638905,-49.8046875,-39.0625,-25.87890625,-65.4296875,1.0,1.0,1.0,1.0,3.m4v,1.0
2024-02-27 09:30:07.567796,1709022607.5677962,-45.8984375,-44.43359375,-29.296875,-35.64453125,1.0,1.0,1.0,1.0,3.m4v,1.0
2024-02-27 09:30:07.567796,1709022607.5677962,-45.8984375,-44.43359375,-29.296875,-35.64453125,1.0,1.0,1.0,1.0,3.m4v,1.0
2024-02-27 09:30:07.571702,1709022607.571702,-33.203125,-54.6875,-39.0625,-26.3671875,1.0,1.0,1.0,1.0,3.m4v,1.0
2024-02-27 09:30:07.571702,1709022607.571702,-33.203125,-54.6875,-39.0625,-26.3671875,1.0,1.0,1.0,1.0,3.m4v,1.0
2024-02-27 09:30:07.575608,1709022607.5756075,-28.80859375,-39.55078125,-39.0625,-28.80859375,1.0,1.0,1.0,1.0,3.m4v,1.0
2024-02-27 09:30:07.575608,1709022607.5756075,-28.80859375,-39.55078125,-39.0625,-28.80859375,1.0,1.0,1.0,1.0,3.m4v,1.0
2024-02-27 09:30:07.579513,1709022607.5795133,-23.4375,-22.4609375,-36.62109375,-24.90234375,1.0,1.0,1.0,1.0,3.m4v,1.0
2024-02-27 09:30:07.579513,1709022607.5795133,-23.4375,-22.4609375,-36.62109375,-24.90234375,1.0,1.0,1.0,1.0,3.m4v,1.0
2024-02-27 09:30:07.583419,1709022607.583419,-7.32421875,-29.296875,-39.0625,-51.26953125,1.0,1.0,1.0,1.0,3.m4v,1.0
2024-02-27 09:30:07.583419,1709022607.583419,-7.32421875,-29.296875,-39.0625,-51.26953125,1.0,1.0,1.0,1.0,3.m4v,1.0
2024-02-27 09:30:07.587325,1709022607.5873246,-23.92578125,-22.94921875,-42.96875,-37.109375,1.0,1.0,1.0,1.0,3.m4v,1.0
2024-02-27 09:30:07.587325,1709022607.5873246,-23.92578125,-22.94921875,-42.96875,-37.109375,1.0,1.0,1.0,1.0,3.m4v,1.0
2024-02-27 09:30:07.591230,1709022607.5912304,-32.71484375,-0.9765625,-20.01953125,8.7890625,1.0,1.0,1.0,1.0,3.m4v,1.0
2024-02-27 09:30:07.595138,1709022607.595138,-18.06640625,-20.99609375,-9.765625,-19.53125,1.0,1.0,1.0,1.0,3.m4v,1.0
2024-02-27 09:30:07.599044,1709022607.5990436,-36.62109375,-37.59765625,-44.43359375,-31.73828125,1.0,1.0,1.0,1.0,3.m4v,1.0
2024-02-27 09:30:07.602949,1709022607.6029494,-27.34375,-27.34375,-35.15625,0.48828125,1.0,1.0,1.0,1.0,3.m4v,1.0
2024-02-27 09:30:07.606855,1709022607.6068552,-33.203125,-31.73828125,-13.671875,-34.66796875,1.0,1.0,1.0,1.0,3.m4v,1.0
2024-02-27 09:30:07.610761,1709022607.610761,-65.91796875,-57.6171875,-23.92578125,-53.7109375,1.0,1.0,1.0,1.0,3.m4v,1.0
2024-02-27 09:30:07.614666,1709022607.6146665,-62.5,-60.05859375,-22.94921875,-21.97265625,1.0,1.0,1.0,1.0,3.m4v,1.0
2024-02-27 09:30:07.618572,1709022607.6185722,-52.734375,-28.3203125,-28.80859375,-54.6875,1.0,1.0,1.0,1.0,3.m4v,1.0
2024-02-27 09:30:07.622478,1709022607.622478,-43.45703125,-14.16015625,-46.875,-67.3828125,1.0,1.0,1.0,1.0,3.m4v,1.0
2024-02-27 09:30:07.626384,1709022607.6263838,-49.31640625,-20.01953125,-63.4765625,-53.7109375,1.0,1.0,1.0,1.0,3.m4v,1.0
2024-02-27 09:30:07.630289,1709022607.6302893,-41.50390625,-24.4140625,-53.7109375,-60.05859375,1.0,1.0,1.0,1.0,3.m4v,1.0
2024-02-27 09:30:07.634195,1709022607.634195,-20.99609375,-30.2734375,-41.015625,-41.50390625,1.0,1.0,1.0,1.0,3.m4v,1.0
2024-02-27 09:30:07.638101,1709022607.6381009,-13.18359375,-15.13671875,-28.3203125,-22.4609375,1.0,1.0,1.0,1.0,3.m4v,1.0
2024-02-27 09:30:07.642008,1709022607.642008,-21.484375,-11.71875,-15.625,-24.4140625,1.0,1.0,1.0,1.0,3.m4v,1.0
2024-02-27 09:30:07.645914,1709022607.6459138,-39.0625,-39.55078125,-18.06640625,-41.9921875,1.0,1.0,1.0,1.0,3.m4v,1.0
2024-02-27 09:30:07.649820,1709022607.6498196,-97.16796875,-61.03515625,-14.16015625,-66.40625,1.0,1.0,1.0,1.0,3.m4v,1.0
2024-02-27 09:30:07.653725,1709022607.6537254,-90.33203125,-50.78125,-16.11328125,-57.6171875,1.0,1.0,1.0,1.0,3.m4v,1.0
2024-02-27 09:30:07.657631,1709022607.657631,-24.90234375,-27.83203125,-19.53125,-39.55078125,1.0,1.0,1.0,1.0,3.m4v,1.0
2024-02-27 09:30:07.661537,1709022607.6615367,-30.76171875,-35.64453125,-27.34375,-24.4140625,1.0,1.0,1.0,1.0,3.m4v,1.0
2024-02-27 09:30:07.665442,1709022607.6654425,-62.01171875,-43.9453125,-41.015625,-19.53125,1.0,1.0,1.0,1.0,3.m4v,1.0
2024-02-27 09:30:07.669348,1709022607.6693482,-79.58984375,-35.15625,-59.08203125,-55.6640625,1.0,1.0,1.0,1.0,3.m4v,1.0
2024-02-27 09:30:07.673254,1709022607.6732538,-66.40625,-36.62109375,-48.828125,-65.4296875,1.0,1.0,1.0,1.0,3.m4v,1.0
2024-02-27 09:30:07.677160,1709022607.6771595,-30.76171875,-35.15625,-37.59765625,-51.26953125,1.0,1.0,1.0,1.0,3.m4v,1.0
2024-02-27 09:30:07.681065,1709022607.681065,-20.01953125,-40.52734375,-37.109375,-38.57421875,1.0,1.0,1.0,1.0,3.m4v,1.0
2024-02-27 09:30:07.684971,1709022607.6849709,-17.08984375,-22.4609375,-12.20703125,-22.4609375,1.0,1.0,1.0,1.0,3.m4v,1.0
2024-02-27 09:30:07.688878,1709022607.688878,-9.27734375,-6.34765625,1.953125,-9.27734375,1.0,1.0,1.0,1.0,3.m4v,1.0
2024-02-27 09:30:07.692784,1709022607.6927838,-32.2265625,-30.76171875,-20.99609375,-25.87890625,1.0,1.0,1.0,1.0,3.m4v,1.0
2024-02-27 09:30:07.696689,1709022607.6966894,-47.36328125,-48.33984375,-34.1796875,-50.78125,1.0,1.0,1.0,1.0,3.m4v,1.0
2024-02-27 09:30:07.700595,1709022607.7005951,-32.2265625,-45.41015625,-29.78515625,-62.5,1.0,1.0,1.0,1.0,3.m4v,1.0
2024-02-27 09:30:07.704501,1709022607.704501,-32.2265625,-52.734375,-27.83203125,-63.96484375,1.0,1.0,1.0,1.0,3.m4v,1.0
2024-02-27 09:30:07.708407,1709022607.7084067,-54.6875,-50.29296875,-38.57421875,-25.87890625,1.0,1.0,1.0,1.0,3.m4v,1.0
2024-02-27 09:30:07.712312,1709022607.7123122,-66.89453125,-38.57421875,-51.26953125,-10.25390625,1.0,1.0,1.0,1.0,3.m4v,1.0
2024-02-27 09:30:07.716218,1709022607.716218,-36.62109375,-41.015625,-51.7578125,-19.04296875,1.0,1.0,1.0,1.0,3.m4v,1.0
2024-02-27 09:30:07.720124,1709022607.7201238,1.953125,-45.41015625,-46.875,-40.0390625,1.0,1.0,1.0,1.0,3.m4v,1.0
2024-02-27 09:30:07.724030,1709022607.7240295,-5.37109375,-37.59765625,-27.83203125,-50.29296875,1.0,1.0,1.0,1.0,3.m4v,1.0
2024-02-27 09:30:07.727935,1709022607.727935,-48.828125,-41.9921875,-26.85546875,-25.390625,1.0,1.0,1.0,1.0,3.m4v,1.0
2024-02-27 09:30:07.731841,1709022607.7318408,-72.75390625,-39.0625,-43.45703125,-42.48046875,1.0,1.0,1.0,1.0,3.m4v,1.0
2024-02-27 09:30:07.735748,1709022607.735748,-62.01171875,-25.87890625,-41.9921875,-74.21875,1.0,1.0,1.0,1.0,3.m4v,1.0
2024-02-27 09:30:07.739654,1709022607.7396536,-21.484375,-13.18359375,-31.73828125,-56.15234375,1.0,1.0,1.0,1.0,3.m4v,1.0
2024-02-27 09:30:07.743559,1709022607.7435594,-13.671875,-10.7421875,-31.25,-18.06640625,1.0,1.0,1.0,1.0,3.m4v,1.0
2024-02-27 09:30:07.747465,1709022607.7474651,-41.9921875,-34.66796875,-39.0625,-28.3203125,1.0,1.0,1.0,1.0,3.m4v,1.0
2024-02-27 09:30:07.751371,1709022607.751371,-62.5,-46.875,-42.96875,-55.6640625,1.0,1.0,1.0,1.0,3.m4v,1.0
2024-02-27 09:30:07.755276,1709022607.7552764,-43.45703125,-41.9921875,-36.62109375,-43.9453125,1.0,1.0,1.0,1.0,3.m4v,1.0
2024-02-27 09:30:07.759182,1709022607.7591822,-11.23046875,-37.59765625,-47.8515625,-24.90234375,1.0,1.0,1.0,1.0,3.m4v,1.0
2024-02-27 09:30:07.763088,1709022607.763088,-22.4609375,-37.109375,-57.12890625,-16.6015625,1.0,1.0,1.0,1.0,3.m4v,1.0
2024-02-27 09:30:07.766994,1709022607.7669938,-31.73828125,-39.55078125,-45.41015625,-17.08984375,1.0,1.0,1.0,1.0,3.m4v,1.0
2024-02-27 09:30:07.770899,1709022607.7708993,-2.9296875,-46.38671875,-39.0625,-4.39453125,1.0,1.0,1.0,1.0,3.m4v,1.0
2024-02-27 09:30:07.774805,1709022607.774805,-22.94921875,-25.87890625,-41.9921875,-1.46484375,1.0,1.0,1.0,1.0,3.m4v,1.0
2024-02-27 09:30:07.778711,1709022607.7787108,-48.33984375,-9.765625,-34.66796875,-36.1328125,1.0,1.0,1.0,1.0,3.m4v,1.0
2024-02-27 09:30:07.782617,1709022607.782617,-24.90234375,-22.4609375,-25.87890625,-58.59375,1.0,1.0,1.0,1.0,3.m4v,1.0
2024-02-27 09:30:07.786523,1709022607.786523,-34.66796875,-20.99609375,-25.390625,-63.4765625,1.0,1.0,1.0,1.0,3.m4v,1.0
2024-02-27 09:30:07.790429,1709022607.7904289,-60.546875,-13.671875,-55.6640625,-49.31640625,1.0,1.0,1.0,1.0,3.m4v,1.0
2024-02-27 09:30:07.794335,1709022607.794335,-45.41015625,-7.8125,-51.7578125,-41.50390625,1.0,1.0,1.0,1.0,3.m4v,1.0
2024-02-27 09:30:07.798240,1709022607.7982402,-29.296875,-14.16015625,-30.76171875,-56.640625,1.0,1.0,1.0,1.0,3.m4v,1.0
2024-02-27 09:30:07.802146,1709022607.802146,-51.7578125,-28.80859375,-33.69140625,-75.1953125,1.0,1.0,1.0,1.0,3.m4v,1.0
2024-02-27 09:30:07.806052,1709022607.8060515,-59.5703125,-34.1796875,-39.0625,-68.359375,1.0,1.0,1.0,1.0,3.m4v,1.0
2024-02-27 09:30:07.809957,1709022607.8099573,-66.40625,-45.41015625,-53.22265625,-63.96484375,1.0,1.0,1.0,1.0,3.m4v,1.0
2024-02-27 09:30:07.813863,1709022607.813863,-62.5,-44.921875,-53.7109375,-72.75390625,1.0,1.0,1.0,1.0,3.m4v,1.0
2024-02-27 09:30:07.817769,1709022607.8177688,-25.87890625,-30.76171875,-59.5703125,-53.22265625,1.0,1.0,1.0,1.0,3.m4v,1.0
2024-02-27 09:30:07.821675,1709022607.8216746,-0.9765625,-24.90234375,-64.453125,-36.62109375,1.0,1.0,1.0,1.0,3.m4v,1.0
2024-02-27 09:30:07.825580,1709022607.82558,-28.3203125,-32.2265625,-60.05859375,-55.17578125,1.0,1.0,1.0,1.0,3.m4v,1.0
2024-02-27 09:30:07.829489,1709022607.8294885,-41.9921875,-24.90234375,-48.828125,-44.921875,1.0,1.0,1.0,1.0,3.m4v,1.0
2024-02-27 09:30:07.833394,1709022607.8333943,-13.18359375,-11.23046875,-41.50390625,-11.71875,1.0,1.0,1.0,1.0,3.m4v,1.0
2024-02-27 09:30:07.837300,1709022607.8372998,5.37109375,-24.4140625,-30.76171875,-20.01953125,1.0,1.0,1.0,1.0,3.m4v,1.0
2024-02-27 09:30:07.841206,1709022607.8412056,2.44140625,-46.38671875,-16.11328125,-41.015625,1.0,1.0,1.0,1.0,3.m4v,1.0
2024-02-27 09:30:07.845111,1709022607.8451114,-10.7421875,-39.0625,-22.4609375,-33.69140625,1.0,1.0,1.0,1.0,3.m4v,1.0
2024-02-27 09:30:07.849017,1709022607.8490171,-22.94921875,-14.6484375,-24.4140625,-28.80859375,1.0,1.0,1.0,1.0,3.m4v,1.0
2024-02-27 09:30:07.856828,1709022607.8568285,-32.71484375,-43.45703125,-37.109375,-37.109375,1.0,1.0,1.0,1.0,3.m4v,1.0
2024-02-27 09:30:07.864640,1709022607.8646398,-13.18359375,-23.92578125,-37.109375,-32.2265625,1.0,1.0,1.0,1.0,3.m4v,1.0
2024-02-27 09:30:07.872451,1709022607.8724513,-47.8515625,-11.23046875,-31.25,-19.04296875,1.0,1.0,1.0,1.0,3.m4v,1.0
2024-02-27 09:30:07.880265,1709022607.880265,-10.25390625,-28.80859375,-24.4140625,-10.7421875,1.0,1.0,1.0,1.0,3.m4v,1.0
2024-02-27 09:30:07.888077,1709022607.8880763,-75.68359375,-62.98828125,-19.53125,-59.5703125,1.0,1.0,1.0,1.0,3.m4v,1.0
2024-02-27 09:30:07.895888,1709022607.895888,-38.57421875,-41.50390625,-58.10546875,-31.25,1.0,1.0,1.0,1.0,3.m4v,1.0
2024-02-27 09:30:08.345063,1709022608.3450632,-56.15234375,-45.8984375,-27.34375,-33.69140625,1.0,1.0,1.0,1.0,3.m4v,1.0
2024-02-27 09:30:08.348969,1709022608.348969,-67.87109375,-38.57421875,-27.83203125,-47.8515625,1.0,1.0,1.0,1.0,3.m4v,1.0
2024-02-27 09:30:08.352875,1709022608.3528748,-35.15625,-18.06640625,-43.9453125,-24.4140625,1.0,1.0,1.0,1.0,3.m4v,1.0
2024-02-27 09:30:08.356780,1709022608.3567803,-11.71875,-27.83203125,-47.36328125,-19.04296875,1.0,1.0,1.0,1.0,3.m4v,1.0
2024-02-27 09:30:08.360686,1709022608.360686,-8.30078125,-27.83203125,-19.53125,-32.2265625,1.0,1.0,1.0,1.0,3.m4v,1.0
2024-02-27 09:30:08.364592,1709022608.3645918,-33.203125,-26.85546875,-3.90625,-37.109375,1.0,1.0,1.0,1.0,3.m4v,1.0
2024-02-27 09:30:08.368498,1709022608.3684976,-66.40625,-40.0390625,-21.484375,-31.73828125,1.0,1.0,1.0,1.0,3.m4v,1.0
2024-02-27 09:30:08.372403,1709022608.3724031,-62.98828125,-42.96875,-33.69140625,-34.66796875,1.0,1.0,1.0,1.0,3.m4v,1.0
2024-02-27 09:30:08.376309,1709022608.376309,-26.3671875,-42.96875,-37.59765625,-30.76171875,1.0,1.0,1.0,1.0,3.m4v,1.0
2024-02-27 09:30:08.380215,1709022608.3802147,1.953125,-32.2265625,-51.7578125,-12.20703125,1.0,1.0,1.0,1.0,3.m4v,1.0
2024-02-27 09:30:08.380215,1709022608.3802147,1.953125,-32.2265625,-51.7578125,-12.20703125,1.0,1.0,1.0,1.0,3.m4v,1.0
2024-02-27 09:30:08.384120,1709022608.3841202,2.44140625,-17.08984375,-44.43359375,17.578125,1.0,1.0,1.0,1.0,3.m4v,1.0
2024-02-27 09:30:08.384120,1709022608.3841202,2.44140625,-17.08984375,-44.43359375,17.578125,1.0,1.0,1.0,1.0,3.m4v,1.0
2024-02-27 09:30:08.388026,1709022608.388026,-8.7890625,-13.18359375,-10.25390625,-3.90625,1.0,1.0,1.0,1.0,3.m4v,1.0
2024-02-27 09:30:08.388026,1709022608.388026,-8.7890625,-13.18359375,-10.25390625,-3.90625,1.0,1.0,1.0,1.0,3.m4v,1.0
2024-02-27 09:30:08.391933,1709022608.3919334,-70.80078125,-36.62109375,-10.25390625,-90.33203125,1.0,1.0,1.0,1.0,3.m4v,1.0
2024-02-27 09:30:08.391933,1709022608.3919334,-70.80078125,-36.62109375,-10.25390625,-90.33203125,1.0,1.0,1.0,1.0,3.m4v,1.0
2024-02-27 09:30:08.395839,1709022608.3958392,-69.82421875,-31.73828125,-33.203125,-81.0546875,1.0,1.0,1.0,1.0,3.m4v,1.0
2024-02-27 09:30:08.395839,1709022608.3958392,-69.82421875,-31.73828125,-33.203125,-81.0546875,1.0,1.0,1.0,1.0,3.m4v,1.0
2024-02-27 09:30:08.399745,1709022608.399745,-20.99609375,-11.71875,-40.52734375,-32.71484375,1.0,1.0,1.0,1.0,3.m4v,1.0
2024-02-27 09:30:08.399745,1709022608.399745,-20.99609375,-11.71875,-40.52734375,-32.71484375,1.0,1.0,1.0,1.0,3.m4v,1.0
2024-02-27 09:30:08.403651,1709022608.4036503,-30.76171875,-41.9921875,-26.85546875,-29.78515625,1.0,1.0,1.0,1.0,3.m4v,1.0
2024-02-27 09:30:08.403651,1709022608.4036503,-30.76171875,-41.9921875,-26.85546875,-29.78515625,1.0,1.0,1.0,1.0,3.m4v,1.0
2024-02-27 09:30:08.407556,1709022608.4075563,-75.1953125,-70.80078125,-13.671875,-72.265625,1.0,1.0,1.0,1.0,3.m4v,1.0
2024-02-27 09:30:08.407556,1709022608.4075563,-75.1953125,-70.80078125,-13.671875,-72.265625,1.0,1.0,1.0,1.0,3.m4v,1.0
2024-02-27 09:30:08.411462,1709022608.411462,-51.26953125,-48.33984375,-21.97265625,-62.98828125,1.0,1.0,1.0,1.0,3.m4v,1.0
2024-02-27 09:30:08.411462,1709022608.411462,-51.26953125,-48.33984375,-21.97265625,-62.98828125,1.0,1.0,1.0,1.0,3.m4v,1.0
2024-02-27 09:30:08.415368,1709022608.4153676,-16.6015625,-23.4375,-46.38671875,-15.625,1.0,1.0,1.0,1.0,3.m4v,1.0
2024-02-27 09:30:08.415368,1709022608.4153676,-16.6015625,-23.4375,-46.38671875,-15.625,1.0,1.0,1.0,1.0,3.m4v,1.0
2024-02-27 09:30:08.419273,1709022608.4192734,12.20703125,-30.2734375,-53.7109375,8.30078125,1.0,1.0,1.0,1.0,3.m4v,1.0
2024-02-27 09:30:08.419273,1709022608.4192734,12.20703125,-30.2734375,-53.7109375,8.30078125,1.0,1.0,1.0,1.0,3.m4v,1.0
2024-02-27 09:30:08.423179,1709022608.4231791,0.48828125,-41.9921875,-34.66796875,-4.8828125,1.0,1.0,1.0,1.0,3.m4v,1.0
2024-02-27 09:30:08.423179,1709022608.4231791,0.48828125,-41.9921875,-34.66796875,-4.8828125,1.0,1.0,1.0,1.0,3.m4v,1.0
2024-02-27 09:30:08.427085,1709022608.427085,-71.2890625,-45.8984375,-12.20703125,-37.59765625,1.0,1.0,1.0,1.0,3.m4v,1.0
2024-02-27 09:30:08.427085,1709022608.427085,-71.2890625,-45.8984375,-12.20703125,-37.59765625,1.0,1.0,1.0,1.0,3.m4v,1.0
2024-02-27 09:30:08.430990,1709022608.4309905,-78.61328125,-36.1328125,-3.41796875,-24.90234375,1.0,1.0,1.0,1.0,3.m4v,1.0
2024-02-27 09:30:08.430990,1709022608.4309905,-78.61328125,-36.1328125,-3.41796875,-24.90234375,1.0,1.0,1.0,1.0,3.m4v,1.0
2024-02-27 09:30:08.434896,1709022608.4348962,-38.0859375,-8.30078125,-14.6484375,-36.1328125,1.0,1.0,1.0,1.0,3.m4v,1.0
2024-02-27 09:30:08.434896,1709022608.4348962,-38.0859375,-8.30078125,-14.6484375,-36.1328125,1.0,1.0,1.0,1.0,3.m4v,1.0
2024-02-27 09:30:08.438803,1709022608.4388034,-52.734375,-7.32421875,-29.78515625,-60.546875,1.0,1.0,1.0,1.0,3.m4v,1.0
2024-02-27 09:30:08.438803,1709022608.4388034,-52.734375,-7.32421875,-29.78515625,-60.546875,1.0,1.0,1.0,1.0,3.m4v,1.0
2024-02-27 09:30:08.442709,1709022608.4427092,-84.47265625,-22.4609375,-34.66796875,-73.2421875,1.0,1.0,1.0,1.0,3.m4v,1.0
2024-02-27 09:30:08.442709,1709022608.4427092,-84.47265625,-22.4609375,-34.66796875,-73.2421875,1.0,1.0,1.0,1.0,3.m4v,1.0
2024-02-27 09:30:08.446615,1709022608.4466147,-93.26171875,-32.71484375,-35.64453125,-72.265625,1.0,1.0,1.0,1.0,3.m4v,1.0
2024-02-27 09:30:08.446615,1709022608.4466147,-93.26171875,-32.71484375,-35.64453125,-72.265625,1.0,1.0,1.0,1.0,3.m4v,1.0
2024-02-27 09:30:08.450521,1709022608.4505205,-82.03125,-43.45703125,-46.38671875,-42.48046875,1.0,1.0,1.0,1.0,3.m4v,1.0
2024-02-27 09:30:08.450521,1709022608.4505205,-82.03125,-43.45703125,-46.38671875,-42.48046875,1.0,1.0,1.0,1.0,3.m4v,1.0
2024-02-27 09:30:08.454426,1709022608.4544263,-50.78125,-35.64453125,-49.8046875,-27.34375,1.0,1.0,1.0,1.0,3.m4v,1.0
2024-02-27 09:30:08.454426,1709022608.4544263,-50.78125,-35.64453125,-49.8046875,-27.34375,1.0,1.0,1.0,1.0,3.m4v,1.0
2024-02-27 09:30:08.458332,1709022608.458332,-18.06640625,-40.52734375,-36.1328125,-30.2734375,1.0,1.0,1.0,1.0,3.m4v,1.0
2024-02-27 09:30:08.458332,1709022608.458332,-18.06640625,-40.52734375,-36.1328125,-30.2734375,1.0,1.0,1.0,1.0,3.m4v,1.0
2024-02-27 09:30:08.462238,1709022608.4622376,-2.44140625,-40.52734375,-31.25,-15.625,1.0,1.0,1.0,1.0,3.m4v,1.0
2024-02-27 09:30:08.462238,1709022608.4622376,-2.44140625,-40.52734375,-31.25,-15.625,1.0,1.0,1.0,1.0,3.m4v,1.0
2024-02-27 09:30:08.466143,1709022608.4661434,-8.30078125,-24.4140625,-31.25,29.296875,1.0,1.0,1.0,1.0,3.m4v,1.0
2024-02-27 09:30:08.466143,1709022608.4661434,-8.30078125,-24.4140625,-31.25,29.296875,1.0,1.0,1.0,1.0,3.m4v,1.0
2024-02-27 09:30:08.470049,1709022608.4700491,-2.9296875,-26.3671875,-22.94921875,21.484375,1.0,1.0,1.0,1.0,3.m4v,1.0
2024-02-27 09:30:08.470049,1709022608.4700491,-2.9296875,-26.3671875,-22.94921875,21.484375,1.0,1.0,1.0,1.0,3.m4v,1.0
2024-02-27 09:30:08.473955,1709022608.473955,-31.73828125,-36.1328125,-20.01953125,-57.6171875,1.0,1.0,1.0,1.0,3.m4v,1.0
2024-02-27 09:30:08.473955,1709022608.473955,-31.73828125,-36.1328125,-20.01953125,-57.6171875,1.0,1.0,1.0,1.0,3.m4v,1.0
2024-02-27 09:30:08.477860,1709022608.4778605,-33.203125,-26.3671875,-27.34375,-52.734375,1.0,1.0,1.0,1.0,3.m4v,1.0
2024-02-27 09:30:08.477860,1709022608.4778605,-33.203125,-26.3671875,-27.34375,-52.734375,1.0,1.0,1.0,1.0,3.m4v,1.0
2024-02-27 09:30:08.481766,1709022608.4817662,-41.50390625,-29.296875,-36.62109375,-53.22265625,1.0,1.0,1.0,1.0,3.m4v,1.0
2024-02-27 09:30:08.481766,1709022608.4817662,-41.50390625,-29.296875,-36.62109375,-53.22265625,1.0,1.0,1.0,1.0,3.m4v,1.0
2024-02-27 09:30:08.485673,1709022608.4856732,-106.93359375,-44.43359375,-27.34375,-71.2890625,1.0,1.0,1.0,1.0,3.m4v,1.0
2024-02-27 09:30:08.485673,1709022608.4856732,-106.93359375,-44.43359375,-27.34375,-71.2890625,1.0,1.0,1.0,1.0,3.m4v,1.0
2024-02-27 09:30:08.489579,1709022608.4895787,-100.09765625,-34.66796875,-29.296875,-79.58984375,1.0,1.0,1.0,1.0,3.m4v,1.0
2024-02-27 09:30:08.489579,1709022608.4895787,-100.09765625,-34.66796875,-29.296875,-79.58984375,1.0,1.0,1.0,1.0,3.m4v,1.0
2024-02-27 09:30:08.493484,1709022608.4934845,-60.05859375,-17.578125,-21.97265625,-74.70703125,1.0,1.0,1.0,1.0,3.m4v,1.0
2024-02-27 09:30:08.493484,1709022608.4934845,-60.05859375,-17.578125,-21.97265625,-74.70703125,1.0,1.0,1.0,1.0,3.m4v,1.0
2024-02-27 09:30:08.497390,1709022608.4973905,-40.52734375,-16.11328125,-22.94921875,-49.8046875,1.0,1.0,1.0,1.0,3.m4v,1.0
2024-02-27 09:30:08.497390,1709022608.4973905,-40.52734375,-16.11328125,-22.94921875,-49.8046875,1.0,1.0,1.0,1.0,3.m4v,1.0
2024-02-27 09:30:08.501296,1709022608.501296,-31.25,-30.2734375,-48.33984375,-43.9453125,1.0,1.0,1.0,1.0,3.m4v,1.0
2024-02-27 09:30:08.501296,1709022608.501296,-31.25,-30.2734375,-48.33984375,-43.9453125,1.0,1.0,1.0,1.0,3.m4v,1.0
2024-02-27 09:30:08.505202,1709022608.5052016,-2.9296875,-21.97265625,-39.55078125,5.37109375,1.0,1.0,1.0,1.0,3.m4v,1.0
2024-02-27 09:30:08.505202,1709022608.5052016,-2.9296875,-21.97265625,-39.55078125,5.37109375,1.0,1.0,1.0,1.0,3.m4v,1.0
2024-02-27 09:30:08.509107,1709022608.5091074,-23.4375,-23.92578125,-31.73828125,15.625,1.0,1.0,1.0,1.0,3.m4v,1.0
2024-02-27 09:30:08.509107,1709022608.5091074,-23.4375,-23.92578125,-31.73828125,15.625,1.0,1.0,1.0,1.0,3.m4v,1.0
2024-02-27 09:30:08.513013,1709022608.5130131,-48.33984375,-47.8515625,-36.1328125,-44.43359375,1.0,1.0,1.0,1.0,3.m4v,1.0
2024-02-27 09:30:08.513013,1709022608.5130131,-48.33984375,-47.8515625,-36.1328125,-44.43359375,1.0,1.0,1.0,1.0,3.m4v,1.0
2024-02-27 09:30:08.516919,1709022608.516919,-43.9453125,-59.5703125,-26.85546875,-83.0078125,1.0,1.0,1.0,1.0,3.m4v,1.0
2024-02-27 09:30:08.516919,1709022608.516919,-43.9453125,-59.5703125,-26.85546875,-83.0078125,1.0,1.0,1.0,1.0,3.m4v,1.0
2024-02-27 09:30:08.520824,1709022608.5208244,-47.36328125,-49.31640625,-17.08984375,-81.0546875,1.0,1.0,1.0,1.0,3.m4v,1.0
2024-02-27 09:30:08.520824,1709022608.5208244,-47.36328125,-49.31640625,-17.08984375,-81.0546875,1.0,1.0,1.0,1.0,3.m4v,1.0
2024-02-27 09:30:08.524730,1709022608.5247302,-53.22265625,-54.6875,-24.90234375,-81.54296875,1.0,1.0,1.0,1.0,3.m4v,1.0
2024-02-27 09:30:08.524730,1709022608.5247302,-53.22265625,-54.6875,-24.90234375,-81.54296875,1.0,1.0,1.0,1.0,3.m4v,1.0
2024-02-27 09:30:08.528636,1709022608.528636,-70.3125,-41.50390625,-33.203125,-55.17578125,1.0,1.0,1.0,1.0,3.m4v,1.0
2024-02-27 09:30:08.528636,1709022608.528636,-70.3125,-41.50390625,-33.203125,-55.17578125,1.0,1.0,1.0,1.0,3.m4v,1.0
2024-02-27 09:30:08.532542,1709022608.5325425,-74.21875,-18.5546875,-29.296875,-24.90234375,1.0,1.0,1.0,1.0,3.m4v,1.0
2024-02-27 09:30:08.532542,1709022608.5325425,-74.21875,-18.5546875,-29.296875,-24.90234375,1.0,1.0,1.0,1.0,3.m4v,1.0
2024-02-27 09:30:08.536448,1709022608.5364482,-36.1328125,-20.01953125,-29.296875,-29.296875,1.0,1.0,1.0,1.0,3.m4v,1.0
2024-02-27 09:30:08.536448,1709022608.5364482,-36.1328125,-20.01953125,-29.296875,-29.296875,1.0,1.0,1.0,1.0,3.m4v,1.0
2024-02-27 09:30:08.540354,1709022608.540354,-31.25,-31.73828125,-48.33984375,-46.875,1.0,1.0,1.0,1.0,3.m4v,1.0
2024-02-27 09:30:08.540354,1709022608.540354,-31.25,-31.73828125,-48.33984375,-46.875,1.0,1.0,1.0,1.0,3.m4v,1.0
2024-02-27 09:30:08.544260,1709022608.5442598,-50.29296875,-34.1796875,-65.91796875,-36.1328125,1.0,1.0,1.0,1.0,3.m4v,1.0
2024-02-27 09:30:08.544260,1709022608.5442598,-50.29296875,-34.1796875,-65.91796875,-36.1328125,1.0,1.0,1.0,1.0,3.m4v,1.0
2024-02-27 09:30:08.548165,1709022608.548165,-30.76171875,-24.90234375,-52.24609375,13.671875,1.0,1.0,1.0,1.0,3.m4v,1.0
2024-02-27 09:30:08.548165,1709022608.548165,-30.76171875,-24.90234375,-52.24609375,13.671875,1.0,1.0,1.0,1.0,3.m4v,1.0
2024-02-27 09:30:08.552071,1709022608.552071,-10.25390625,-15.625,-18.5546875,-2.44140625,1.0,1.0,1.0,1.0,3.m4v,1.0
2024-02-27 09:30:08.552071,1709022608.552071,-10.25390625,-15.625,-18.5546875,-2.44140625,1.0,1.0,1.0,1.0,3.m4v,1.0
2024-02-27 09:30:08.555977,1709022608.5559769,-28.80859375,-37.109375,-2.44140625,-50.29296875,1.0,1.0,1.0,1.0,3.m4v,1.0
2024-02-27 09:30:08.555977,1709022608.5559769,-28.80859375,-37.109375,-2.44140625,-50.29296875,1.0,1.0,1.0,1.0,3.m4v,1.0
2024-02-27 09:30:08.559883,1709022608.5598826,-67.3828125,-63.96484375,-11.23046875,-71.77734375,1.0,1.0,1.0,1.0,3.m4v,1.0
2024-02-27 09:30:08.559883,1709022608.5598826,-67.3828125,-63.96484375,-11.23046875,-71.77734375,1.0,1.0,1.0,1.0,3.m4v,1.0
2024-02-27 09:30:08.563788,1709022608.5637882,-62.98828125,-44.921875,-18.5546875,-73.2421875,1.0,1.0,1.0,1.0,3.m4v,1.0
2024-02-27 09:30:08.563788,1709022608.5637882,-62.98828125,-44.921875,-18.5546875,-73.2421875,1.0,1.0,1.0,1.0,3.m4v,1.0
2024-02-27 09:30:08.567694,1709022608.567694,-48.828125,-2.44140625,-25.390625,-36.1328125,1.0,1.0,1.0,1.0,3.m4v,1.0
2024-02-27 09:30:08.567694,1709022608.567694,-48.828125,-2.44140625,-25.390625,-36.1328125,1.0,1.0,1.0,1.0,3.m4v,1.0
2024-02-27 09:30:08.571600,1709022608.5715995,-64.94140625,-21.97265625,-44.921875,-60.05859375,1.0,1.0,1.0,1.0,3.m4v,1.0
2024-02-27 09:30:08.571600,1709022608.5715995,-64.94140625,-21.97265625,-44.921875,-60.05859375,1.0,1.0,1.0,1.0,3.m4v,1.0
2024-02-27 09:30:08.575505,1709022608.5755055,-35.64453125,-45.8984375,-31.25,-55.17578125,1.0,1.0,1.0,1.0,3.m4v,1.0
2024-02-27 09:30:08.575505,1709022608.5755055,-35.64453125,-45.8984375,-31.25,-55.17578125,1.0,1.0,1.0,1.0,3.m4v,1.0
2024-02-27 09:30:08.579414,1709022608.5794137,-23.4375,-25.87890625,-46.38671875,-40.52734375,1.0,1.0,1.0,1.0,3.m4v,1.0
2024-02-27 09:30:08.579414,1709022608.5794137,-23.4375,-25.87890625,-46.38671875,-40.52734375,1.0,1.0,1.0,1.0,3.m4v,1.0
2024-02-27 09:30:08.583319,1709022608.5833194,-66.40625,-38.57421875,-55.6640625,-82.03125,1.0,1.0,1.0,1.0,3.m4v,1.0
2024-02-27 09:30:08.583319,1709022608.5833194,-66.40625,-38.57421875,-55.6640625,-82.03125,1.0,1.0,1.0,1.0,3.m4v,1.0
2024-02-27 09:30:08.587225,1709022608.587225,-84.9609375,-24.4140625,-24.90234375,-61.5234375,1.0,1.0,1.0,1.0,3.m4v,1.0
2024-02-27 09:30:08.587225,1709022608.587225,-84.9609375,-24.4140625,-24.90234375,-61.5234375,1.0,1.0,1.0,1.0,3.m4v,1.0
2024-02-27 09:30:08.591131,1709022608.5911307,-17.578125,13.18359375,-30.76171875,-14.6484375,1.0,1.0,1.0,1.0,3.m4v,1.0
2024-02-27 09:30:08.591131,1709022608.5911307,-17.578125,13.18359375,-30.76171875,-14.6484375,1.0,1.0,1.0,1.0,3.m4v,1.0
2024-02-27 09:30:08.595037,1709022608.5950365,25.390625,-16.6015625,-27.83203125,-3.41796875,1.0,1.0,1.0,1.0,3.m4v,1.0
2024-02-27 09:30:08.595037,1709022608.5950365,25.390625,-16.6015625,-27.83203125,-3.41796875,1.0,1.0,1.0,1.0,3.m4v,1.0
2024-02-27 09:30:08.598942,1709022608.5989425,-24.4140625,-46.875,-10.25390625,-20.01953125,1.0,1.0,1.0,1.0,3.m4v,1.0
2024-02-27 09:30:08.598942,1709022608.5989425,-24.4140625,-46.875,-10.25390625,-20.01953125,1.0,1.0,1.0,1.0,3.m4v,1.0
2024-02-27 09:30:08.602848,1709022608.6028478,-72.75390625,-37.109375,-18.06640625,-65.91796875,1.0,1.0,1.0,1.0,3.m4v,1.0
2024-02-27 09:30:08.602848,1709022608.6028478,-72.75390625,-37.109375,-18.06640625,-65.91796875,1.0,1.0,1.0,1.0,3.m4v,1.0
2024-02-27 09:30:08.606754,1709022608.6067536,-86.9140625,-26.85546875,-28.80859375,-87.40234375,1.0,1.0,1.0,1.0,3.m4v,1.0
2024-02-27 09:30:08.606754,1709022608.6067536,-86.9140625,-26.85546875,-28.80859375,-87.40234375,1.0,1.0,1.0,1.0,3.m4v,1.0
2024-02-27 09:30:08.610659,1709022608.6106594,-72.75390625,-25.87890625,-31.25,-69.3359375,1.0,1.0,1.0,1.0,3.m4v,1.0
2024-02-27 09:30:08.610659,1709022608.6106594,-72.75390625,-25.87890625,-31.25,-69.3359375,1.0,1.0,1.0,1.0,3.m4v,1.0
2024-02-27 09:30:08.614565,1709022608.6145651,-35.15625,-34.66796875,-51.26953125,-36.1328125,1.0,1.0,1.0,1.0,3.m4v,1.0
2024-02-27 09:30:08.614565,1709022608.6145651,-35.15625,-34.66796875,-51.26953125,-36.1328125,1.0,1.0,1.0,1.0,3.m4v,1.0
2024-02-27 09:30:08.618471,1709022608.618471,-22.94921875,-36.1328125,-59.5703125,-21.484375,1.0,1.0,1.0,1.0,3.m4v,1.0
2024-02-27 09:30:08.618471,1709022608.618471,-22.94921875,-36.1328125,-59.5703125,-21.484375,1.0,1.0,1.0,1.0,3.m4v,1.0
2024-02-27 09:30:08.622376,1709022608.6223764,-27.34375,-18.06640625,-15.13671875,-47.36328125,1.0,1.0,1.0,1.0,3.m4v,1.0
2024-02-27 09:30:08.622376,1709022608.6223764,-27.34375,-18.06640625,-15.13671875,-47.36328125,1.0,1.0,1.0,1.0,3.m4v,1.0
2024-02-27 09:30:08.626285,1709022608.6262846,-32.71484375,-13.671875,7.8125,-55.6640625,1.0,1.0,1.0,1.0,3.m4v,1.0
2024-02-27 09:30:08.626285,1709022608.6262846,-32.71484375,-13.671875,7.8125,-55.6640625,1.0,1.0,1.0,1.0,3.m4v,1.0
2024-02-27 09:30:08.630190,1709022608.63019,-45.8984375,-21.97265625,-15.13671875,-33.203125,1.0,1.0,1.0,1.0,3.m4v,1.0
2024-02-27 09:30:08.630190,1709022608.63019,-45.8984375,-21.97265625,-15.13671875,-33.203125,1.0,1.0,1.0,1.0,3.m4v,1.0
2024-02-27 09:30:08.634096,1709022608.634096,-40.0390625,-28.80859375,-38.57421875,-39.0625,1.0,1.0,1.0,1.0,3.m4v,1.0
2024-02-27 09:30:08.634096,1709022608.634096,-40.0390625,-28.80859375,-38.57421875,-39.0625,1.0,1.0,1.0,1.0,3.m4v,1.0
2024-02-27 09:30:08.638002,1709022608.6380017,-8.7890625,-22.94921875,-30.2734375,-48.828125,1.0,1.0,1.0,1.0,3.m4v,1.0
2024-02-27 09:30:08.638002,1709022608.6380017,-8.7890625,-22.94921875,-30.2734375,-48.828125,1.0,1.0,1.0,1.0,3.m4v,1.0
2024-02-27 09:30:08.641907,1709022608.6419077,9.27734375,-21.484375,-16.6015625,-17.08984375,1.0,1.0,1.0,1.0,3.m4v,1.0
2024-02-27 09:30:08.641907,1709022608.6419077,9.27734375,-21.484375,-16.6015625,-17.08984375,1.0,1.0,1.0,1.0,3.m4v,1.0
2024-02-27 09:30:08.645813,1709022608.645813,-27.83203125,-42.96875,-29.296875,-22.4609375,1.0,1.0,1.0,1.0,3.m4v,1.0
2024-02-27 09:30:08.645813,1709022608.645813,-27.83203125,-42.96875,-29.296875,-22.4609375,1.0,1.0,1.0,1.0,3.m4v,1.0
2024-02-27 09:30:08.649719,1709022608.6497188,-76.171875,-58.10546875,-46.38671875,-71.2890625,1.0,1.0,1.0,1.0,3.m4v,1.0
2024-02-27 09:30:08.649719,1709022608.6497188,-76.171875,-58.10546875,-46.38671875,-71.2890625,1.0,1.0,1.0,1.0,3.m4v,1.0
2024-02-27 09:30:08.653625,1709022608.6536243,-57.6171875,-40.52734375,-38.57421875,-67.3828125,1.0,1.0,1.0,1.0,3.m4v,1.0
2024-02-27 09:30:08.653625,1709022608.6536243,-57.6171875,-40.52734375,-38.57421875,-67.3828125,1.0,1.0,1.0,1.0,3.m4v,1.0
2024-02-27 09:30:08.657530,1709022608.6575303,-22.94921875,-29.296875,-33.69140625,-42.48046875,1.0,1.0,1.0,1.0,3.m4v,1.0
2024-02-27 09:30:08.657530,1709022608.6575303,-22.94921875,-29.296875,-33.69140625,-42.48046875,1.0,1.0,1.0,1.0,3.m4v,1.0
2024-02-27 09:30:08.661436,1709022608.6614358,-36.1328125,-29.78515625,-46.38671875,-44.921875,1.0,1.0,1.0,1.0,3.m4v,1.0
2024-02-27 09:30:08.661436,1709022608.6614358,-36.1328125,-29.78515625,-46.38671875,-44.921875,1.0,1.0,1.0,1.0,3.m4v,1.0
2024-02-27 09:30:08.665342,1709022608.6653416,-60.05859375,-31.73828125,-52.24609375,-36.1328125,1.0,1.0,1.0,1.0,3.m4v,1.0
2024-02-27 09:30:08.665342,1709022608.6653416,-60.05859375,-31.73828125,-52.24609375,-36.1328125,1.0,1.0,1.0,1.0,3.m4v,1.0
2024-02-27 09:30:08.669247,1709022608.6692474,-34.1796875,-28.80859375,-47.36328125,-26.3671875,1.0,1.0,1.0,1.0,3.m4v,1.0
2024-02-27 09:30:08.669247,1709022608.6692474,-34.1796875,-28.80859375,-47.36328125,-26.3671875,1.0,1.0,1.0,1.0,3.m4v,1.0
2024-02-27 09:30:08.673155,1709022608.673155,2.44140625,-19.53125,-43.45703125,-26.3671875,1.0,1.0,1.0,1.0,3.m4v,1.0
2024-02-27 09:30:08.673155,1709022608.673155,2.44140625,-19.53125,-43.45703125,-26.3671875,1.0,1.0,1.0,1.0,3.m4v,1.0
2024-02-27 09:30:08.677061,1709022608.6770608,-3.90625,-20.5078125,-34.66796875,-5.859375,1.0,1.0,1.0,1.0,3.m4v,1.0
2024-02-27 09:30:08.677061,1709022608.6770608,-3.90625,-20.5078125,-34.66796875,-5.859375,1.0,1.0,1.0,1.0,3.m4v,1.0
2024-02-27 09:30:08.680967,1709022608.6809666,-18.5546875,-24.4140625,-19.04296875,-13.671875,1.0,1.0,1.0,1.0,3.m4v,1.0
2024-02-27 09:30:09.294186,1709022609.2941864,-5.37109375,-28.80859375,-43.9453125,4.8828125,1.0,1.0,1.0,1.0,3.m4v,1.0
2024-02-27 09:30:09.298092,1709022609.298092,27.34375,-16.11328125,7.32421875,3.41796875,1.0,1.0,1.0,1.0,3.m4v,1.0
2024-02-27 09:30:09.536352,1709022609.5363517,-22.94921875,-20.99609375,-9.27734375,-20.99609375,1.0,1.0,1.0,1.0,3.m4v,1.0
2024-02-27 09:30:09.540257,1709022609.5402577,-7.8125,-16.11328125,-17.08984375,-25.87890625,1.0,1.0,1.0,1.0,3.m4v,1.0
2024-02-27 09:30:09.544163,1709022609.5441632,-83.984375,-38.0859375,-45.41015625,-67.3828125,1.0,1.0,1.0,1.0,3.m4v,1.0
2024-02-27 09:30:09.548069,1709022609.548069,-111.328125,-50.29296875,-41.9921875,-69.3359375,1.0,1.0,1.0,1.0,3.m4v,1.0
2024-02-27 09:30:09.551975,1709022609.5519743,-83.0078125,-36.62109375,-39.55078125,-20.99609375,1.0,1.0,1.0,1.0,3.m4v,1.0
2024-02-27 09:30:09.555880,1709022609.5558803,-36.1328125,-19.04296875,-53.7109375,4.8828125,1.0,1.0,1.0,1.0,3.m4v,1.0
2024-02-27 09:30:09.559786,1709022609.559786,-34.66796875,-23.92578125,-52.734375,-33.69140625,1.0,1.0,1.0,1.0,3.m4v,1.0
2024-02-27 09:30:09.563693,1709022609.5636933,-50.78125,-38.0859375,-39.55078125,-41.015625,1.0,1.0,1.0,1.0,3.m4v,1.0
2024-02-27 09:30:09.567599,1709022609.5675988,-69.3359375,-36.62109375,-34.66796875,-39.55078125,1.0,1.0,1.0,1.0,3.m4v,1.0
2024-02-27 09:30:09.571505,1709022609.5715046,-90.33203125,-37.109375,-41.015625,-66.40625,1.0,1.0,1.0,1.0,3.m4v,1.0
2024-02-27 09:30:09.575410,1709022609.5754104,-77.63671875,-39.0625,-34.1796875,-74.21875,1.0,1.0,1.0,1.0,3.m4v,1.0
2024-02-27 09:30:09.579316,1709022609.579316,-54.6875,-33.69140625,-14.16015625,-52.24609375,1.0,1.0,1.0,1.0,3.m4v,1.0
2024-02-27 09:30:09.583222,1709022609.5832217,-38.57421875,-26.3671875,-10.7421875,-37.59765625,1.0,1.0,1.0,1.0,3.m4v,1.0
2024-02-27 09:30:09.587127,1709022609.5871274,-38.57421875,-26.3671875,-21.97265625,-34.1796875,1.0,1.0,1.0,1.0,3.m4v,1.0
2024-02-27 09:30:09.591033,1709022609.5910332,-62.98828125,-34.66796875,-47.8515625,-40.0390625,1.0,1.0,1.0,1.0,3.m4v,1.0
2024-02-27 09:30:09.594939,1709022609.5949388,-51.7578125,-49.31640625,-62.98828125,-12.20703125,1.0,1.0,1.0,1.0,3.m4v,1.0
2024-02-27 09:30:09.598845,1709022609.5988443,-30.2734375,-59.08203125,-56.640625,23.4375,1.0,1.0,1.0,1.0,3.m4v,1.0
2024-02-27 09:30:09.602750,1709022609.6027503,-37.109375,-41.50390625,-49.31640625,-23.92578125,1.0,1.0,1.0,1.0,3.m4v,1.0
2024-02-27 09:30:09.606656,1709022609.606656,-64.453125,-31.25,-33.69140625,-53.7109375,1.0,1.0,1.0,1.0,3.m4v,1.0
2024-02-27 09:30:09.610563,1709022609.610563,-78.125,-29.296875,-28.3203125,-64.94140625,1.0,1.0,1.0,1.0,3.m4v,1.0
2024-02-27 09:30:09.614469,1709022609.6144686,-61.03515625,-21.484375,-33.203125,-60.546875,1.0,1.0,1.0,1.0,3.m4v,1.0
2024-02-27 09:30:09.618374,1709022609.6183743,-20.99609375,-12.20703125,-28.3203125,-30.76171875,1.0,1.0,1.0,1.0,3.m4v,1.0
2024-02-27 09:30:09.622280,1709022609.62228,-39.0625,-22.94921875,-20.01953125,-25.87890625,1.0,1.0,1.0,1.0,3.m4v,1.0
2024-02-27 09:30:09.626186,1709022609.626186,-67.87109375,-38.0859375,-32.2265625,-29.78515625,1.0,1.0,1.0,1.0,3.m4v,1.0
2024-02-27 09:30:09.630091,1709022609.6300914,-50.29296875,-38.57421875,-71.77734375,-31.25,1.0,1.0,1.0,1.0,3.m4v,1.0
2024-02-27 09:30:09.633997,1709022609.6339972,-24.90234375,-39.0625,-62.5,-13.671875,1.0,1.0,1.0,1.0,3.m4v,1.0
2024-02-27 09:30:09.637903,1709022609.637903,-2.9296875,-41.9921875,-18.06640625,-1.46484375,1.0,1.0,1.0,1.0,3.m4v,1.0
2024-02-27 09:30:09.641809,1709022609.6418087,-20.99609375,-37.59765625,-21.97265625,-29.78515625,1.0,1.0,1.0,1.0,3.m4v,1.0
2024-02-27 09:30:09.645714,1709022609.6457143,-55.6640625,-33.69140625,-20.5078125,-31.73828125,1.0,1.0,1.0,1.0,3.m4v,1.0
2024-02-27 09:30:09.649620,1709022609.64962,-62.98828125,-32.2265625,-9.27734375,-29.78515625,1.0,1.0,1.0,1.0,3.m4v,1.0
2024-02-27 09:30:09.653526,1709022609.6535258,-62.5,-25.87890625,-34.66796875,-43.9453125,1.0,1.0,1.0,1.0,3.m4v,1.0
2024-02-27 09:30:09.657433,1709022609.6574328,-57.6171875,-15.13671875,-47.8515625,-18.5546875,1.0,1.0,1.0,1.0,3.m4v,1.0
2024-02-27 09:30:09.661338,1709022609.6613383,-56.640625,-26.85546875,-37.59765625,-20.99609375,1.0,1.0,1.0,1.0,3.m4v,1.0
2024-02-27 09:30:09.665244,1709022609.665244,-59.5703125,-46.875,-38.0859375,-64.94140625,1.0,1.0,1.0,1.0,3.m4v,1.0
2024-02-27 09:30:09.770703,1709022609.7707033,-40.0390625,-26.85546875,-30.2734375,-18.06640625,1.0,1.0,1.0,1.0,3.m4v,1.0
2024-02-27 09:30:09.770703,1709022609.7707033,-40.0390625,-26.85546875,-30.2734375,-18.06640625,1.0,1.0,1.0,1.0,3.m4v,1.0
2024-02-27 09:30:09.774609,1709022609.7746089,-53.7109375,-28.3203125,-20.99609375,-39.55078125,1.0,1.0,1.0,1.0,3.m4v,1.0
2024-02-27 09:30:09.774609,1709022609.7746089,-53.7109375,-28.3203125,-20.99609375,-39.55078125,1.0,1.0,1.0,1.0,3.m4v,1.0
2024-02-27 09:30:09.778515,1709022609.7785146,-55.6640625,-33.203125,-32.2265625,-47.36328125,1.0,1.0,1.0,1.0,3.m4v,1.0
2024-02-27 09:30:09.778515,1709022609.7785146,-55.6640625,-33.203125,-32.2265625,-47.36328125,1.0,1.0,1.0,1.0,3.m4v,1.0
2024-02-27 09:30:09.782420,1709022609.7824204,-31.25,-43.9453125,-37.59765625,-12.6953125,1.0,1.0,1.0,1.0,3.m4v,1.0
2024-02-27 09:30:09.782420,1709022609.7824204,-31.25,-43.9453125,-37.59765625,-12.6953125,1.0,1.0,1.0,1.0,3.m4v,1.0
2024-02-27 09:30:09.786326,1709022609.7863262,-21.484375,-27.34375,-20.99609375,-4.39453125,1.0,1.0,1.0,1.0,3.m4v,1.0
2024-02-27 09:30:09.786326,1709022609.7863262,-21.484375,-27.34375,-20.99609375,-4.39453125,1.0,1.0,1.0,1.0,3.m4v,1.0
2024-02-27 09:30:09.790232,1709022609.7902317,-53.7109375,-27.34375,-17.08984375,-39.0625,1.0,1.0,1.0,1.0,3.m4v,1.0
2024-02-27 09:30:09.790232,1709022609.7902317,-53.7109375,-27.34375,-17.08984375,-39.0625,1.0,1.0,1.0,1.0,3.m4v,1.0
2024-02-27 09:30:09.794137,1709022609.7941377,-70.3125,-37.109375,-22.94921875,-45.8984375,1.0,1.0,1.0,1.0,3.m4v,1.0
2024-02-27 09:30:09.794137,1709022609.7941377,-70.3125,-37.109375,-22.94921875,-45.8984375,1.0,1.0,1.0,1.0,3.m4v,1.0
2024-02-27 09:30:09.798045,1709022609.7980454,-42.96875,-30.76171875,-17.08984375,-21.97265625,1.0,1.0,1.0,1.0,3.m4v,1.0
2024-02-27 09:30:09.798045,1709022609.7980454,-42.96875,-30.76171875,-17.08984375,-21.97265625,1.0,1.0,1.0,1.0,3.m4v,1.0
2024-02-27 09:30:09.801951,1709022609.8019512,-25.390625,-17.578125,-28.3203125,-33.203125,1.0,1.0,1.0,1.0,3.m4v,1.0
2024-02-27 09:30:09.801951,1709022609.8019512,-25.390625,-17.578125,-28.3203125,-33.203125,1.0,1.0,1.0,1.0,3.m4v,1.0
2024-02-27 09:30:09.805857,1709022609.8058567,-66.40625,-34.66796875,-56.15234375,-50.78125,1.0,1.0,1.0,1.0,3.m4v,1.0
2024-02-27 09:30:09.805857,1709022609.8058567,-66.40625,-34.66796875,-56.15234375,-50.78125,1.0,1.0,1.0,1.0,3.m4v,1.0
2024-02-27 09:30:09.809762,1709022609.8097625,-72.265625,-48.828125,-48.828125,-32.71484375,1.0,1.0,1.0,1.0,3.m4v,1.0
2024-02-27 09:30:09.809762,1709022609.8097625,-72.265625,-48.828125,-48.828125,-32.71484375,1.0,1.0,1.0,1.0,3.m4v,1.0
2024-02-27 09:30:09.813668,1709022609.8136685,-44.921875,-39.0625,-20.01953125,-25.390625,1.0,1.0,1.0,1.0,3.m4v,1.0
2024-02-27 09:30:09.813668,1709022609.8136685,-44.921875,-39.0625,-20.01953125,-25.390625,1.0,1.0,1.0,1.0,3.m4v,1.0
2024-02-27 09:30:09.817574,1709022609.817574,-44.43359375,-33.203125,-5.859375,-32.71484375,1.0,1.0,1.0,1.0,3.m4v,1.0
2024-02-27 09:30:09.817574,1709022609.817574,-44.43359375,-33.203125,-5.859375,-32.71484375,1.0,1.0,1.0,1.0,3.m4v,1.0
2024-02-27 09:30:09.821480,1709022609.8214796,-13.18359375,-20.5078125,-15.625,-16.6015625,1.0,1.0,1.0,1.0,3.m4v,1.0
2024-02-27 09:30:09.821480,1709022609.8214796,-13.18359375,-20.5078125,-15.625,-16.6015625,1.0,1.0,1.0,1.0,3.m4v,1.0
2024-02-27 09:30:09.825385,1709022609.825385,-22.4609375,-30.76171875,-39.0625,-19.04296875,1.0,1.0,1.0,1.0,3.m4v,1.0
2024-02-27 09:30:09.825385,1709022609.825385,-22.4609375,-30.76171875,-39.0625,-19.04296875,1.0,1.0,1.0,1.0,3.m4v,1.0
2024-02-27 09:30:09.829291,1709022609.829291,-60.05859375,-35.64453125,-47.8515625,-23.92578125,1.0,1.0,1.0,1.0,3.m4v,1.0
2024-02-27 09:30:09.829291,1709022609.829291,-60.05859375,-35.64453125,-47.8515625,-23.92578125,1.0,1.0,1.0,1.0,3.m4v,1.0
2024-02-27 09:30:09.833197,1709022609.8331969,-55.17578125,-34.1796875,-37.59765625,-34.1796875,1.0,1.0,1.0,1.0,3.m4v,1.0
2024-02-27 09:30:09.833197,1709022609.8331969,-55.17578125,-34.1796875,-37.59765625,-34.1796875,1.0,1.0,1.0,1.0,3.m4v,1.0
2024-02-27 09:30:09.837102,1709022609.8371024,-50.29296875,-27.34375,-25.390625,-48.33984375,1.0,1.0,1.0,1.0,3.m4v,1.0
2024-02-27 09:30:09.837102,1709022609.8371024,-50.29296875,-27.34375,-25.390625,-48.33984375,1.0,1.0,1.0,1.0,3.m4v,1.0
2024-02-27 09:30:09.841008,1709022609.8410082,-43.9453125,-25.87890625,-21.97265625,-25.87890625,1.0,1.0,1.0,1.0,3.m4v,1.0
2024-02-27 09:30:09.841008,1709022609.8410082,-43.9453125,-25.87890625,-21.97265625,-25.87890625,1.0,1.0,1.0,1.0,3.m4v,1.0
2024-02-27 09:30:09.844916,1709022609.844916,-46.38671875,-34.66796875,-31.25,-41.9921875,1.0,1.0,1.0,1.0,3.m4v,1.0
2024-02-27 09:30:09.844916,1709022609.844916,-46.38671875,-34.66796875,-31.25,-41.9921875,1.0,1.0,1.0,1.0,3.m4v,1.0
2024-02-27 09:30:09.848821,1709022609.8488214,-64.453125,-33.69140625,-32.2265625,-66.89453125,1.0,1.0,1.0,1.0,3.m4v,1.0
2024-02-27 09:30:09.848821,1709022609.8488214,-64.453125,-33.69140625,-32.2265625,-66.89453125,1.0,1.0,1.0,1.0,3.m4v,1.0
2024-02-27 09:30:09.852727,1709022609.8527272,-46.875,-17.08984375,-29.296875,-39.55078125,1.0,1.0,1.0,1.0,3.m4v,1.0
2024-02-27 09:30:09.852727,1709022609.8527272,-46.875,-17.08984375,-29.296875,-39.55078125,1.0,1.0,1.0,1.0,3.m4v,1.0
2024-02-27 09:30:09.856633,1709022609.856633,-16.6015625,-8.7890625,-41.015625,-6.8359375,1.0,1.0,1.0,1.0,3.m4v,1.0
2024-02-27 09:30:09.856633,1709022609.856633,-16.6015625,-8.7890625,-41.015625,-6.8359375,1.0,1.0,1.0,1.0,3.m4v,1.0
2024-02-27 09:30:09.860539,1709022609.8605387,9.27734375,-38.0859375,-38.57421875,-0.9765625,1.0,1.0,1.0,1.0,3.m4v,1.0
2024-02-27 09:30:09.860539,1709022609.8605387,9.27734375,-38.0859375,-38.57421875,-0.9765625,1.0,1.0,1.0,1.0,3.m4v,1.0
2024-02-27 09:30:09.864444,1709022609.8644445,-33.203125,-49.8046875,-20.99609375,-16.11328125,1.0,1.0,1.0,1.0,3.m4v,1.0
2024-02-27 09:30:09.864444,1709022609.8644445,-33.203125,-49.8046875,-20.99609375,-16.11328125,1.0,1.0,1.0,1.0,3.m4v,1.0
2024-02-27 09:30:09.868350,1709022609.86835,-70.3125,-45.41015625,-15.625,-28.80859375,1.0,1.0,1.0,1.0,3.m4v,1.0
2024-02-27 09:30:09.868350,1709022609.86835,-70.3125,-45.41015625,-15.625,-28.80859375,1.0,1.0,1.0,1.0,3.m4v,1.0
2024-02-27 09:30:09.872256,1709022609.8722558,-62.01171875,-45.8984375,-32.71484375,-25.87890625,1.0,1.0,1.0,1.0,3.m4v,1.0
2024-02-27 09:30:09.872256,1709022609.8722558,-62.01171875,-45.8984375,-32.71484375,-25.87890625,1.0,1.0,1.0,1.0,3.m4v,1.0
2024-02-27 09:30:09.876162,1709022609.8761616,-68.359375,-52.734375,-34.1796875,-56.15234375,1.0,1.0,1.0,1.0,3.m4v,1.0
2024-02-27 09:30:09.876162,1709022609.8761616,-68.359375,-52.734375,-34.1796875,-56.15234375,1.0,1.0,1.0,1.0,3.m4v,1.0
2024-02-27 09:30:09.880067,1709022609.880067,-43.45703125,-50.78125,-24.4140625,-67.3828125,1.0,1.0,1.0,1.0,3.m4v,1.0
2024-02-27 09:30:09.880067,1709022609.880067,-43.45703125,-50.78125,-24.4140625,-67.3828125,1.0,1.0,1.0,1.0,3.m4v,1.0
2024-02-27 09:30:09.883973,1709022609.883973,-31.25,-33.203125,-48.828125,-31.73828125,1.0,1.0,1.0,1.0,3.m4v,1.0
2024-02-27 09:30:09.883973,1709022609.883973,-31.25,-33.203125,-48.828125,-31.73828125,1.0,1.0,1.0,1.0,3.m4v,1.0
2024-02-27 09:30:09.887879,1709022609.887879,-62.01171875,-24.90234375,-50.29296875,-17.578125,1.0,1.0,1.0,1.0,3.m4v,1.0
2024-02-27 09:30:09.887879,1709022609.887879,-62.01171875,-24.90234375,-50.29296875,-17.578125,1.0,1.0,1.0,1.0,3.m4v,1.0
2024-02-27 09:30:09.891786,1709022609.891786,-62.98828125,-18.06640625,-42.96875,-35.64453125,1.0,1.0,1.0,1.0,3.m4v,1.0
2024-02-27 09:30:09.891786,1709022609.891786,-62.98828125,-18.06640625,-42.96875,-35.64453125,1.0,1.0,1.0,1.0,3.m4v,1.0
2024-02-27 09:30:09.895692,1709022609.8956916,-26.3671875,-12.20703125,-32.2265625,-36.62109375,1.0,1.0,1.0,1.0,3.m4v,1.0
2024-02-27 09:30:09.895692,1709022609.8956916,-26.3671875,-12.20703125,-32.2265625,-36.62109375,1.0,1.0,1.0,1.0,3.m4v,1.0
2024-02-27 09:30:09.899597,1709022609.8995974,-2.44140625,-14.6484375,1.46484375,-19.04296875,1.0,1.0,1.0,1.0,3.m4v,1.0
2024-02-27 09:30:09.899597,1709022609.8995974,-2.44140625,-14.6484375,1.46484375,-19.04296875,1.0,1.0,1.0,1.0,3.m4v,1.0
2024-02-27 09:30:09.903503,1709022609.9035032,-14.16015625,-33.69140625,-2.44140625,-23.4375,1.0,1.0,1.0,1.0,3.m4v,1.0
2024-02-27 09:30:09.903503,1709022609.9035032,-14.16015625,-33.69140625,-2.44140625,-23.4375,1.0,1.0,1.0,1.0,3.m4v,1.0
2024-02-27 09:30:09.907409,1709022609.9074087,-49.8046875,-39.0625,-24.90234375,-35.15625,1.0,1.0,1.0,1.0,3.m4v,1.0
2024-02-27 09:30:09.907409,1709022609.9074087,-49.8046875,-39.0625,-24.90234375,-35.15625,1.0,1.0,1.0,1.0,3.m4v,1.0
2024-02-27 09:30:10.321432,1709022610.321432,-60.05859375,-41.015625,-51.26953125,-57.6171875,1.0,1.0,1.0,1.0,3.m4v,1.0
2024-02-27 09:30:10.329243,1709022610.3292432,-55.17578125,-32.2265625,-67.87109375,-32.2265625,1.0,1.0,1.0,1.0,3.m4v,1.0
2024-02-27 09:30:10.337055,1709022610.3370547,-31.25,-21.97265625,-29.78515625,-23.4375,1.0,1.0,1.0,1.0,3.m4v,1.0
2024-02-27 09:30:10.344866,1709022610.344866,-39.55078125,-30.2734375,-30.2734375,2.44140625,1.0,1.0,1.0,1.0,3.m4v,1.0
2024-02-27 09:30:10.352678,1709022610.3526776,-10.25390625,-30.2734375,-5.37109375,-13.671875,1.0,1.0,1.0,1.0,3.m4v,1.0
2024-02-27 09:30:10.360490,1709022610.36049,-47.36328125,-41.9921875,-43.9453125,-63.4765625,1.0,1.0,1.0,1.0,3.m4v,1.0
2024-02-27 09:30:10.364396,1709022610.364396,-36.1328125,-36.1328125,-42.96875,-49.8046875,1.0,1.0,1.0,1.0,3.m4v,1.0
2024-02-27 09:30:10.368302,1709022610.3683016,-48.828125,-33.203125,-40.0390625,-41.015625,1.0,1.0,1.0,1.0,3.m4v,1.0
2024-02-27 09:30:10.372207,1709022610.3722072,-59.5703125,-29.296875,-48.33984375,-44.921875,1.0,1.0,1.0,1.0,3.m4v,1.0
2024-02-27 09:30:10.376113,1709022610.376113,-59.08203125,-26.3671875,-41.015625,-52.734375,1.0,1.0,1.0,1.0,3.m4v,1.0
2024-02-27 09:30:10.380019,1709022610.3800187,-31.73828125,-35.15625,-32.71484375,-44.43359375,1.0,1.0,1.0,1.0,3.m4v,1.0
2024-02-27 09:30:10.383924,1709022610.3839245,-32.2265625,-37.59765625,-38.0859375,-40.0390625,1.0,1.0,1.0,1.0,3.m4v,1.0
2024-02-27 09:30:10.387830,1709022610.38783,-22.4609375,-14.6484375,-30.2734375,-10.25390625,1.0,1.0,1.0,1.0,3.m4v,1.0
2024-02-27 09:30:10.391736,1709022610.3917358,-41.50390625,-18.5546875,-34.1796875,-16.11328125,1.0,1.0,1.0,1.0,3.m4v,1.0
2024-02-27 09:30:10.395642,1709022610.3956416,-54.6875,-22.94921875,-32.71484375,-38.57421875,1.0,1.0,1.0,1.0,3.m4v,1.0
2024-02-27 09:30:10.399547,1709022610.399547,-43.9453125,-30.2734375,-21.484375,-32.2265625,1.0,1.0,1.0,1.0,3.m4v,1.0
2024-02-27 09:30:10.403453,1709022610.4034529,-55.6640625,-41.50390625,-24.4140625,-56.15234375,1.0,1.0,1.0,1.0,3.m4v,1.0
2024-02-27 09:30:10.407360,1709022610.4073596,-79.1015625,-52.734375,-29.296875,-76.66015625,1.0,1.0,1.0,1.0,3.m4v,1.0
2024-02-27 09:30:10.411265,1709022610.4112654,-70.3125,-66.40625,-44.921875,-57.6171875,1.0,1.0,1.0,1.0,3.m4v,1.0
2024-02-27 09:30:10.415171,1709022610.415171,-36.1328125,-62.01171875,-54.6875,-20.5078125,1.0,1.0,1.0,1.0,3.m4v,1.0
2024-02-27 09:30:10.419077,1709022610.4190767,-10.7421875,-51.7578125,-58.59375,-7.32421875,1.0,1.0,1.0,1.0,3.m4v,1.0
2024-02-27 09:30:10.422982,1709022610.4229825,-6.8359375,-44.43359375,-56.640625,-30.76171875,1.0,1.0,1.0,1.0,3.m4v,1.0
2024-02-27 09:30:10.430794,1709022610.4307938,-29.296875,-3.41796875,-25.87890625,10.7421875,1.0,1.0,1.0,1.0,3.m4v,1.0
2024-02-27 09:30:10.442511,1709022610.442511,-10.7421875,-48.828125,12.6953125,-1.953125,1.0,1.0,1.0,1.0,3.m4v,1.0
2024-02-27 09:30:10.454231,1709022610.4542308,-79.58984375,-48.33984375,-72.265625,-50.78125,1.0,1.0,1.0,1.0,3.m4v,1.0
2024-02-27 09:30:10.465948,1709022610.465948,-8.30078125,-3.41796875,-23.92578125,-26.3671875,1.0,1.0,1.0,1.0,3.m4v,1.0
2024-02-27 09:30:10.477665,1709022610.477665,-23.92578125,-47.8515625,-41.50390625,-38.0859375,1.0,1.0,1.0,1.0,3.m4v,1.0
2024-02-27 09:30:10.489382,1709022610.489382,-34.1796875,-26.85546875,-39.55078125,-36.62109375,1.0,1.0,1.0,1.0,3.m4v,1.0
2024-02-27 09:30:10.501102,1709022610.5011015,10.25390625,-30.2734375,-34.66796875,-15.13671875,1.0,1.0,1.0,1.0,3.m4v,1.0
2024-02-27 09:30:10.512819,1709022610.5128188,-45.41015625,-40.0390625,-33.203125,-52.24609375,1.0,1.0,1.0,1.0,3.m4v,1.0
2024-02-27 09:30:10.520630,1709022610.52063,-29.296875,-32.71484375,-36.1328125,-34.1796875,1.0,1.0,1.0,1.0,3.m4v,1.0
2024-02-27 09:30:10.528442,1709022610.5284417,-25.87890625,-48.828125,-47.8515625,-11.71875,1.0,1.0,1.0,1.0,3.m4v,1.0
2024-02-27 09:30:10.536253,1709022610.536253,-37.59765625,-37.59765625,-50.78125,-14.6484375,1.0,1.0,1.0,1.0,3.m4v,1.0
2024-02-27 09:30:10.544065,1709022610.5440643,-22.94921875,-11.23046875,-9.27734375,7.8125,1.0,1.0,1.0,1.0,3.m4v,1.0
2024-02-27 09:30:10.551878,1709022610.551878,-41.9921875,-30.2734375,-20.01953125,-52.24609375,1.0,1.0,1.0,1.0,3.m4v,1.0
2024-02-27 09:30:10.559689,1709022610.5596893,-26.3671875,-39.55078125,-46.875,-50.29296875,1.0,1.0,1.0,1.0,3.m4v,1.0
2024-02-27 09:30:10.567501,1709022610.5675008,-30.76171875,-30.2734375,-48.33984375,-36.62109375,1.0,1.0,1.0,1.0,3.m4v,1.0
2024-02-27 09:30:10.575312,1709022610.575312,11.71875,-29.78515625,-40.52734375,3.41796875,1.0,1.0,1.0,1.0,3.m4v,1.0
2024-02-27 09:30:10.633900,1709022610.6339,-56.640625,-31.73828125,-34.66796875,-3.90625,1.0,1.0,1.0,1.0,3.m4v,1.0
2024-02-27 09:30:10.637805,1709022610.6378057,-76.171875,-29.78515625,-30.76171875,-45.41015625,1.0,1.0,1.0,1.0,3.m4v,1.0
2024-02-27 09:30:10.641713,1709022610.641713,-70.80078125,-50.78125,-44.43359375,-76.171875,1.0,1.0,1.0,1.0,3.m4v,1.0
2024-02-27 09:30:10.645619,1709022610.645619,-52.24609375,-57.12890625,-44.43359375,-45.8984375,1.0,1.0,1.0,1.0,3.m4v,1.0
2024-02-27 09:30:10.649524,1709022610.6495245,-46.875,-58.10546875,-39.55078125,-26.3671875,1.0,1.0,1.0,1.0,3.m4v,1.0
2024-02-27 09:30:10.653430,1709022610.65343,-44.43359375,-46.38671875,-33.69140625,0.9765625,1.0,1.0,1.0,1.0,3.m4v,1.0
2024-02-27 09:30:10.657336,1709022610.6573358,-16.6015625,-7.32421875,-45.41015625,5.859375,1.0,1.0,1.0,1.0,3.m4v,1.0
2024-02-27 09:30:10.661242,1709022610.6612415,7.8125,17.578125,-27.83203125,6.8359375,1.0,1.0,1.0,1.0,3.m4v,1.0
2024-02-27 09:30:10.665147,1709022610.6651473,-7.8125,-30.76171875,-6.34765625,-10.25390625,1.0,1.0,1.0,1.0,3.m4v,1.0
2024-02-27 09:30:10.669053,1709022610.6690528,-19.04296875,-54.6875,-6.34765625,-17.578125,1.0,1.0,1.0,1.0,3.m4v,1.0
2024-02-27 09:30:10.672959,1709022610.6729586,-26.85546875,-40.52734375,-5.859375,-16.11328125,1.0,1.0,1.0,1.0,3.m4v,1.0
2024-02-27 09:30:10.676864,1709022610.6768644,-49.8046875,-42.48046875,-20.99609375,-39.0625,1.0,1.0,1.0,1.0,3.m4v,1.0
2024-02-27 09:30:10.680770,1709022610.68077,-76.66015625,-35.64453125,-31.73828125,-60.546875,1.0,1.0,1.0,1.0,3.m4v,1.0
2024-02-27 09:30:10.684676,1709022610.6846757,-74.70703125,-27.83203125,-71.2890625,-28.3203125,1.0,1.0,1.0,1.0,3.m4v,1.0
2024-02-27 09:30:10.688583,1709022610.688583,-47.8515625,-18.5546875,-78.125,0.9765625,1.0,1.0,1.0,1.0,3.m4v,1.0
2024-02-27 09:30:10.692488,1709022610.6924884,-42.48046875,-19.04296875,-21.97265625,-24.4140625,1.0,1.0,1.0,1.0,3.m4v,1.0
2024-02-27 09:30:10.696394,1709022610.6963942,-32.71484375,-37.109375,-3.90625,-15.13671875,1.0,1.0,1.0,1.0,3.m4v,1.0
2024-02-27 09:30:10.700300,1709022610.7003,-22.4609375,-37.109375,-13.671875,-8.30078125,1.0,1.0,1.0,1.0,3.m4v,1.0
2024-02-27 09:30:10.704206,1709022610.7042058,-29.78515625,-29.78515625,-16.6015625,-24.4140625,1.0,1.0,1.0,1.0,3.m4v,1.0
2024-02-27 09:30:10.708111,1709022610.7081113,-39.55078125,-25.87890625,-13.671875,-32.71484375,1.0,1.0,1.0,1.0,3.m4v,1.0
2024-02-27 09:30:10.712017,1709022610.712017,-39.0625,-23.4375,-9.27734375,-34.1796875,1.0,1.0,1.0,1.0,3.m4v,1.0
2024-02-27 09:30:10.715923,1709022610.7159228,-7.32421875,-39.55078125,-24.90234375,2.44140625,1.0,1.0,1.0,1.0,3.m4v,1.0
2024-02-27 09:30:10.719828,1709022610.7198284,-0.9765625,-43.45703125,-36.62109375,17.578125,1.0,1.0,1.0,1.0,3.m4v,1.0
2024-02-27 09:30:10.723734,1709022610.723734,3.41796875,-20.5078125,-22.4609375,8.7890625,1.0,1.0,1.0,1.0,3.m4v,1.0
2024-02-27 09:30:10.727640,1709022610.72764,-12.20703125,-15.13671875,-41.9921875,2.9296875,1.0,1.0,1.0,1.0,3.m4v,1.0
2024-02-27 09:30:10.731546,1709022610.7315457,-35.64453125,-16.11328125,-56.15234375,-8.7890625,1.0,1.0,1.0,1.0,3.m4v,1.0
2024-02-27 09:30:10.735453,1709022610.735453,-8.7890625,-18.06640625,-21.484375,-48.33984375,1.0,1.0,1.0,1.0,3.m4v,1.0
2024-02-27 09:30:10.739358,1709022610.7393584,-5.859375,-22.4609375,-12.20703125,-38.0859375,1.0,1.0,1.0,1.0,3.m4v,1.0
2024-02-27 09:30:10.743264,1709022610.7432642,-27.83203125,-29.78515625,-19.53125,-25.390625,1.0,1.0,1.0,1.0,3.m4v,1.0
2024-02-27 09:30:10.747170,1709022610.74717,-20.5078125,-35.64453125,-9.765625,-49.31640625,1.0,1.0,1.0,1.0,3.m4v,1.0
2024-02-27 09:30:10.751076,1709022610.7510755,-48.33984375,-33.69140625,-20.99609375,-37.59765625,1.0,1.0,1.0,1.0,3.m4v,1.0
2024-02-27 09:30:10.754981,1709022610.7549813,-58.10546875,-35.15625,-54.19921875,-32.71484375,1.0,1.0,1.0,1.0,3.m4v,1.0
2024-02-27 09:30:10.758887,1709022610.758887,-43.45703125,-36.62109375,-56.640625,-48.33984375,1.0,1.0,1.0,1.0,3.m4v,1.0
2024-02-27 09:30:10.762793,1709022610.7627928,-42.48046875,-32.2265625,-46.38671875,-46.875,1.0,1.0,1.0,1.0,3.m4v,1.0
2024-02-27 09:30:10.766698,1709022610.7666984,-39.0625,-19.53125,-35.64453125,-33.203125,1.0,1.0,1.0,1.0,3.m4v,1.0
2024-02-27 09:30:10.770604,1709022610.770604,-26.85546875,-16.11328125,-39.0625,15.625,1.0,1.0,1.0,1.0,3.m4v,1.0
2024-02-27 09:30:10.774510,1709022610.77451,-16.11328125,-22.94921875,-39.0625,37.109375,1.0,1.0,1.0,1.0,3.m4v,1.0
2024-02-27 09:30:10.778416,1709022610.7784157,-15.625,-30.76171875,-20.5078125,-31.25,1.0,1.0,1.0,1.0,3.m4v,1.0
2024-02-27 09:30:10.782322,1709022610.7823222,-8.30078125,-51.26953125,-14.6484375,-39.55078125,1.0,1.0,1.0,1.0,3.m4v,1.0
2024-02-27 09:30:10.786228,1709022610.786228,-33.203125,-50.78125,-10.25390625,-13.671875,1.0,1.0,1.0,1.0,3.m4v,1.0
2024-02-27 09:30:11.020581,1709022611.0205815,-11.23046875,-50.78125,-20.01953125,3.90625,1.0,1.0,1.0,1.0,3.m4v,1.0
2024-02-27 09:30:11.024487,1709022611.024487,-6.8359375,-48.828125,-24.4140625,-13.18359375,1.0,1.0,1.0,1.0,3.m4v,1.0
2024-02-27 09:30:11.028393,1709022611.0283928,-26.3671875,-27.34375,-33.203125,-17.08984375,1.0,1.0,1.0,1.0,3.m4v,1.0
2024-02-27 09:30:11.032299,1709022611.0322986,-56.640625,-7.8125,-18.5546875,-14.6484375,1.0,1.0,1.0,1.0,3.m4v,1.0
2024-02-27 09:30:11.036204,1709022611.0362043,-32.71484375,-0.48828125,-24.90234375,-34.1796875,1.0,1.0,1.0,1.0,3.m4v,1.0
2024-02-27 09:30:11.040110,1709022611.04011,-2.9296875,-1.953125,-52.734375,-15.13671875,1.0,1.0,1.0,1.0,3.m4v,1.0
2024-02-27 09:30:11.044016,1709022611.0440156,-8.7890625,-24.4140625,-37.59765625,13.671875,1.0,1.0,1.0,1.0,3.m4v,1.0
2024-02-27 09:30:11.047921,1709022611.0479214,-44.921875,-49.31640625,-14.6484375,-26.3671875,1.0,1.0,1.0,1.0,3.m4v,1.0
2024-02-27 09:30:11.051827,1709022611.051827,-49.8046875,-43.9453125,-20.5078125,-55.6640625,1.0,1.0,1.0,1.0,3.m4v,1.0
2024-02-27 09:30:11.055733,1709022611.0557327,-1.46484375,-12.6953125,-30.2734375,-10.7421875,1.0,1.0,1.0,1.0,3.m4v,1.0
2024-02-27 09:30:11.059639,1709022611.0596385,10.7421875,-37.109375,-23.4375,-0.48828125,1.0,1.0,1.0,1.0,3.m4v,1.0
2024-02-27 09:30:11.063548,1709022611.0635476,-11.23046875,-51.26953125,0.0,6.34765625,1.0,1.0,1.0,1.0,3.m4v,1.0
2024-02-27 09:30:11.067453,1709022611.0674534,-51.7578125,-23.4375,-9.765625,14.16015625,1.0,1.0,1.0,1.0,3.m4v,1.0
2024-02-27 09:30:11.071359,1709022611.0713592,-74.70703125,-20.01953125,-26.3671875,-46.38671875,1.0,1.0,1.0,1.0,3.m4v,1.0
2024-02-27 09:30:11.075265,1709022611.0752647,-45.8984375,-16.6015625,-31.73828125,-60.546875,1.0,1.0,1.0,1.0,3.m4v,1.0
2024-02-27 09:30:11.079170,1709022611.0791705,-28.80859375,-9.27734375,-36.1328125,-38.57421875,1.0,1.0,1.0,1.0,3.m4v,1.0
2024-02-27 09:30:11.083076,1709022611.0830762,-30.2734375,-15.625,-20.5078125,-33.203125,1.0,1.0,1.0,1.0,3.m4v,1.0
2024-02-27 09:30:11.086982,1709022611.086982,-12.20703125,-20.99609375,-34.1796875,-24.90234375,1.0,1.0,1.0,1.0,3.m4v,1.0
2024-02-27 09:30:11.090888,1709022611.0908875,-4.39453125,-21.484375,-54.19921875,18.5546875,1.0,1.0,1.0,1.0,3.m4v,1.0
2024-02-27 09:30:11.094793,1709022611.094793,2.44140625,-22.4609375,-23.92578125,31.73828125,1.0,1.0,1.0,1.0,3.m4v,1.0
2024-02-27 09:30:11.098699,1709022611.098699,5.859375,-34.66796875,-0.48828125,-24.90234375,1.0,1.0,1.0,1.0,3.m4v,1.0
2024-02-27 09:30:11.102605,1709022611.1026049,-36.62109375,-62.98828125,-15.625,-57.6171875,1.0,1.0,1.0,1.0,3.m4v,1.0
2024-02-27 09:30:11.106510,1709022611.1065104,-77.1484375,-65.4296875,-22.94921875,-64.94140625,1.0,1.0,1.0,1.0,3.m4v,1.0
2024-02-27 09:30:11.110418,1709022611.1104176,-73.73046875,-32.71484375,-25.87890625,-46.875,1.0,1.0,1.0,1.0,3.m4v,1.0
2024-02-27 09:30:11.114323,1709022611.1143234,-47.8515625,-13.18359375,-46.38671875,-23.92578125,1.0,1.0,1.0,1.0,3.m4v,1.0
2024-02-27 09:30:11.118229,1709022611.1182292,-31.25,-24.90234375,-43.9453125,-22.4609375,1.0,1.0,1.0,1.0,3.m4v,1.0
2024-02-27 09:30:11.122135,1709022611.1221347,-35.64453125,-40.0390625,-23.4375,-29.296875,1.0,1.0,1.0,1.0,3.m4v,1.0
2024-02-27 09:30:11.153380,1709022611.1533804,-58.59375,-27.83203125,-27.34375,-41.50390625,1.0,1.0,1.0,1.0,3.m4v,1.0
2024-02-27 09:30:11.157289,1709022611.1572893,-12.20703125,-40.52734375,-26.3671875,-20.01953125,1.0,1.0,1.0,1.0,3.m4v,1.0
2024-02-27 09:30:11.161195,1709022611.161195,-21.97265625,-51.7578125,-53.7109375,-41.015625,1.0,1.0,1.0,1.0,3.m4v,1.0
2024-02-27 09:30:11.165101,1709022611.1651006,-62.98828125,-29.78515625,-76.66015625,-57.12890625,1.0,1.0,1.0,1.0,3.m4v,1.0
2024-02-27 09:30:11.169006,1709022611.1690063,-62.5,-21.484375,-71.2890625,-60.546875,1.0,1.0,1.0,1.0,3.m4v,1.0
2024-02-27 09:30:11.172912,1709022611.172912,-43.9453125,-34.66796875,-52.734375,-65.4296875,1.0,1.0,1.0,1.0,3.m4v,1.0
2024-02-27 09:30:11.176818,1709022611.1768177,-36.62109375,-22.4609375,-26.85546875,-38.0859375,1.0,1.0,1.0,1.0,3.m4v,1.0
2024-02-27 09:30:11.180723,1709022611.1807234,-31.73828125,-22.94921875,-13.671875,-21.484375,1.0,1.0,1.0,1.0,3.m4v,1.0
2024-02-27 09:30:11.184629,1709022611.1846292,-24.90234375,-47.36328125,-22.4609375,-23.4375,1.0,1.0,1.0,1.0,3.m4v,1.0
2024-02-27 09:30:11.188535,1709022611.188535,-35.64453125,-41.50390625,-19.53125,-3.90625,1.0,1.0,1.0,1.0,3.m4v,1.0
2024-02-27 09:30:11.192441,1709022611.1924405,-33.69140625,-29.296875,-36.62109375,-21.484375,1.0,1.0,1.0,1.0,3.m4v,1.0
2024-02-27 09:30:11.196346,1709022611.1963463,-28.3203125,-26.3671875,-41.9921875,-33.203125,1.0,1.0,1.0,1.0,3.m4v,1.0
2024-02-27 09:30:11.200252,1709022611.200252,-33.203125,-49.31640625,-25.87890625,-21.97265625,1.0,1.0,1.0,1.0,3.m4v,1.0
2024-02-27 09:30:11.204160,1709022611.2041605,-62.5,-66.89453125,-37.109375,-41.50390625,1.0,1.0,1.0,1.0,3.m4v,1.0
2024-02-27 09:30:11.208066,1709022611.2080662,-83.984375,-47.8515625,-36.62109375,-48.828125,1.0,1.0,1.0,1.0,3.m4v,1.0
2024-02-27 09:30:11.211972,1709022611.2119718,-92.28515625,-32.71484375,-23.92578125,-46.875,1.0,1.0,1.0,1.0,3.m4v,1.0
2024-02-27 09:30:11.215878,1709022611.2158775,-58.59375,-25.390625,-33.203125,-38.57421875,1.0,1.0,1.0,1.0,3.m4v,1.0
2024-02-27 09:30:11.219783,1709022611.2197833,-6.8359375,-21.484375,-20.5078125,-37.109375,1.0,1.0,1.0,1.0,3.m4v,1.0
2024-02-27 09:30:11.223689,1709022611.223689,-13.671875,1.46484375,-14.6484375,-32.71484375,1.0,1.0,1.0,1.0,3.m4v,1.0
2024-02-27 09:30:11.227595,1709022611.2275946,-26.3671875,12.6953125,-38.0859375,3.90625,1.0,1.0,1.0,1.0,3.m4v,1.0
2024-02-27 09:30:11.231500,1709022611.2315004,-22.94921875,-32.71484375,-47.36328125,24.90234375,1.0,1.0,1.0,1.0,3.m4v,1.0
2024-02-27 09:30:11.235406,1709022611.2354062,-53.7109375,-64.453125,-43.9453125,-12.20703125,1.0,1.0,1.0,1.0,3.m4v,1.0
2024-02-27 09:30:11.239312,1709022611.239312,-50.29296875,-63.4765625,-51.7578125,-62.5,1.0,1.0,1.0,1.0,3.m4v,1.0
2024-02-27 09:30:11.243217,1709022611.2432177,-36.62109375,-56.15234375,-42.96875,-61.5234375,1.0,1.0,1.0,1.0,3.m4v,1.0
2024-02-27 09:30:11.247123,1709022611.2471232,-58.10546875,-38.57421875,-9.765625,-35.15625,1.0,1.0,1.0,1.0,3.m4v,1.0
2024-02-27 09:30:11.251031,1709022611.2510314,-49.31640625,-24.4140625,-4.8828125,-30.76171875,1.0,1.0,1.0,1.0,3.m4v,1.0
2024-02-27 09:30:11.254937,1709022611.2549372,-29.296875,-36.62109375,-29.296875,-19.04296875,1.0,1.0,1.0,1.0,3.m4v,1.0
2024-02-27 09:30:11.258843,1709022611.2588427,-21.484375,-48.828125,-34.1796875,-8.30078125,1.0,1.0,1.0,1.0,3.m4v,1.0
2024-02-27 09:30:11.262748,1709022611.2627485,-30.2734375,-39.0625,-31.73828125,-37.109375,1.0,1.0,1.0,1.0,3.m4v,1.0
2024-02-27 09:30:11.266654,1709022611.2666545,-27.34375,-26.85546875,-52.24609375,-22.94921875,1.0,1.0,1.0,1.0,3.m4v,1.0
2024-02-27 09:30:11.270560,1709022611.2705598,-25.390625,-25.87890625,-54.6875,-12.20703125,1.0,1.0,1.0,1.0,3.m4v,1.0
2024-02-27 09:30:11.274466,1709022611.2744656,-42.48046875,-35.64453125,-39.55078125,-9.27734375,1.0,1.0,1.0,1.0,3.m4v,1.0
2024-02-27 09:30:11.278371,1709022611.278371,-3.41796875,-37.59765625,-28.80859375,-2.44140625,1.0,1.0,1.0,1.0,3.m4v,1.0
2024-02-27 09:30:11.282277,1709022611.282277,-11.23046875,-26.85546875,-19.53125,-9.765625,1.0,1.0,1.0,1.0,3.m4v,1.0
2024-02-27 09:30:11.286183,1709022611.2861826,-64.453125,-33.203125,-22.4609375,-55.17578125,1.0,1.0,1.0,1.0,3.m4v,1.0
2024-02-27 09:30:11.290088,1709022611.2900884,-63.4765625,-29.78515625,-24.90234375,-54.6875,1.0,1.0,1.0,1.0,3.m4v,1.0
2024-02-27 09:30:11.293994,1709022611.2939942,-9.765625,-23.92578125,-12.6953125,-15.625,1.0,1.0,1.0,1.0,3.m4v,1.0
2024-02-27 09:30:11.297902,1709022611.297902,3.90625,-16.6015625,-15.625,1.953125,1.0,1.0,1.0,1.0,3.m4v,1.0
2024-02-27 09:30:11.301808,1709022611.3018076,-42.96875,-21.484375,-47.36328125,-24.90234375,1.0,1.0,1.0,1.0,3.m4v,1.0
2024-02-27 09:30:11.305713,1709022611.3057134,-62.01171875,-40.52734375,-56.640625,-67.87109375,1.0,1.0,1.0,1.0,3.m4v,1.0
2024-02-27 09:30:11.309619,1709022611.3096192,-67.3828125,-44.921875,-47.36328125,-72.265625,1.0,1.0,1.0,1.0,3.m4v,1.0
2024-02-27 09:30:11.313525,1709022611.3135247,-41.015625,-41.9921875,-29.78515625,-38.57421875,1.0,1.0,1.0,1.0,3.m4v,1.0
2024-02-27 09:30:11.317430,1709022611.3174305,0.0,-32.2265625,-10.7421875,-0.9765625,1.0,1.0,1.0,1.0,3.m4v,1.0
2024-02-27 09:30:11.321336,1709022611.3213365,-22.94921875,-8.30078125,-24.4140625,-10.25390625,1.0,1.0,1.0,1.0,3.m4v,1.0
2024-02-27 09:30:11.325242,1709022611.325242,-50.29296875,-3.90625,-29.78515625,-12.20703125,1.0,1.0,1.0,1.0,3.m4v,1.0
2024-02-27 09:30:11.329148,1709022611.3291476,-41.9921875,-18.06640625,-38.57421875,-29.296875,1.0,1.0,1.0,1.0,3.m4v,1.0
2024-02-27 09:30:11.333053,1709022611.3330534,-33.69140625,-12.6953125,-51.26953125,-37.109375,1.0,1.0,1.0,1.0,3.m4v,1.0
2024-02-27 09:30:11.336959,1709022611.3369591,-8.7890625,0.0,-33.69140625,-23.4375,1.0,1.0,1.0,1.0,3.m4v,1.0
2024-02-27 09:30:11.340865,1709022611.340865,0.48828125,-24.90234375,-16.11328125,-39.55078125,1.0,1.0,1.0,1.0,3.m4v,1.0
2024-02-27 09:30:11.344772,1709022611.3447723,-60.05859375,-55.17578125,-30.2734375,-50.29296875,1.0,1.0,1.0,1.0,3.m4v,1.0
2024-02-27 09:30:11.348678,1709022611.348678,-99.609375,-53.7109375,-51.26953125,-47.8515625,1.0,1.0,1.0,1.0,3.m4v,1.0
2024-02-27 09:30:11.352584,1709022611.352584,-41.50390625,-31.73828125,-41.50390625,-53.7109375,1.0,1.0,1.0,1.0,3.m4v,1.0
2024-02-27 09:30:11.356489,1709022611.3564894,-12.6953125,-27.83203125,-49.31640625,-22.94921875,1.0,1.0,1.0,1.0,3.m4v,1.0
2024-02-27 09:30:11.360395,1709022611.3603952,-30.2734375,-38.0859375,-47.36328125,-12.6953125,1.0,1.0,1.0,1.0,3.m4v,1.0
2024-02-27 09:30:11.364301,1709022611.364301,-27.34375,-41.50390625,-37.109375,-44.43359375,1.0,1.0,1.0,1.0,3.m4v,1.0
2024-02-27 09:30:11.368207,1709022611.3682067,-22.4609375,-38.57421875,-18.5546875,-39.0625,1.0,1.0,1.0,1.0,3.m4v,1.0
2024-02-27 09:30:11.372112,1709022611.3721125,-30.76171875,-42.96875,-15.13671875,-34.1796875,1.0,1.0,1.0,1.0,3.m4v,1.0
2024-02-27 09:30:11.376018,1709022611.376018,-35.15625,-29.78515625,-28.80859375,-13.671875,1.0,1.0,1.0,1.0,3.m4v,1.0
2024-02-27 09:30:11.379924,1709022611.3799238,-12.6953125,-8.7890625,-37.59765625,0.9765625,1.0,1.0,1.0,1.0,3.m4v,1.0
2024-02-27 09:30:11.383830,1709022611.3838296,-29.296875,-23.4375,-38.0859375,-41.9921875,1.0,1.0,1.0,1.0,3.m4v,1.0
2024-02-27 09:30:11.387735,1709022611.3877351,-48.33984375,-17.08984375,-11.23046875,-48.33984375,1.0,1.0,1.0,1.0,3.m4v,1.0
2024-02-27 09:30:11.391643,1709022611.3916426,-48.828125,-9.27734375,2.9296875,-18.06640625,1.0,1.0,1.0,1.0,3.m4v,1.0
2024-02-27 09:30:11.391643,1709022611.3916426,-48.828125,-9.27734375,2.9296875,-18.06640625,1.0,1.0,1.0,1.0,3.m4v,1.0
2024-02-27 09:30:11.395548,1709022611.3955483,-23.92578125,-38.0859375,-23.4375,-41.50390625,1.0,1.0,1.0,1.0,3.m4v,1.0
2024-02-27 09:30:11.395548,1709022611.3955483,-23.92578125,-38.0859375,-23.4375,-41.50390625,1.0,1.0,1.0,1.0,3.m4v,1.0
2024-02-27 09:30:11.399454,1709022611.399454,-1.953125,-54.19921875,-55.17578125,-57.12890625,1.0,1.0,1.0,1.0,3.m4v,1.0
2024-02-27 09:30:11.399454,1709022611.399454,-1.953125,-54.19921875,-55.17578125,-57.12890625,1.0,1.0,1.0,1.0,3.m4v,1.0
2024-02-27 09:30:11.403360,1709022611.4033597,-28.80859375,-49.8046875,-64.453125,-36.62109375,1.0,1.0,1.0,1.0,3.m4v,1.0
2024-02-27 09:30:11.403360,1709022611.4033597,-28.80859375,-49.8046875,-64.453125,-36.62109375,1.0,1.0,1.0,1.0,3.m4v,1.0
2024-02-27 09:30:11.407265,1709022611.4072654,-45.41015625,-21.484375,-29.296875,-4.39453125,1.0,1.0,1.0,1.0,3.m4v,1.0
2024-02-27 09:30:11.407265,1709022611.4072654,-45.41015625,-21.484375,-29.296875,-4.39453125,1.0,1.0,1.0,1.0,3.m4v,1.0
2024-02-27 09:30:11.411171,1709022611.4111712,-19.53125,-14.16015625,-11.23046875,7.32421875,1.0,1.0,1.0,1.0,3.m4v,1.0
2024-02-27 09:30:11.411171,1709022611.4111712,-19.53125,-14.16015625,-11.23046875,7.32421875,1.0,1.0,1.0,1.0,3.m4v,1.0
2024-02-27 09:30:11.415077,1709022611.415077,9.27734375,-22.4609375,-12.20703125,-6.34765625,1.0,1.0,1.0,1.0,3.m4v,1.0
2024-02-27 09:30:11.415077,1709022611.415077,9.27734375,-22.4609375,-12.20703125,-6.34765625,1.0,1.0,1.0,1.0,3.m4v,1.0
2024-02-27 09:30:11.418983,1709022611.4189825,-49.31640625,-40.52734375,-18.5546875,-46.875,1.0,1.0,1.0,1.0,3.m4v,1.0
2024-02-27 09:30:11.418983,1709022611.4189825,-49.31640625,-40.52734375,-18.5546875,-46.875,1.0,1.0,1.0,1.0,3.m4v,1.0
2024-02-27 09:30:11.422888,1709022611.4228885,-82.51953125,-51.26953125,-20.5078125,-63.96484375,1.0,1.0,1.0,1.0,3.m4v,1.0
2024-02-27 09:30:11.422888,1709022611.4228885,-82.51953125,-51.26953125,-20.5078125,-63.96484375,1.0,1.0,1.0,1.0,3.m4v,1.0
2024-02-27 09:30:11.426794,1709022611.426794,-50.78125,-32.71484375,-15.13671875,-47.36328125,1.0,1.0,1.0,1.0,3.m4v,1.0
2024-02-27 09:30:11.426794,1709022611.426794,-50.78125,-32.71484375,-15.13671875,-47.36328125,1.0,1.0,1.0,1.0,3.m4v,1.0
2024-02-27 09:30:11.430700,1709022611.4306998,-49.8046875,-25.390625,-33.69140625,-41.015625,1.0,1.0,1.0,1.0,3.m4v,1.0
2024-02-27 09:30:11.430700,1709022611.4306998,-49.8046875,-25.390625,-33.69140625,-41.015625,1.0,1.0,1.0,1.0,3.m4v,1.0
2024-02-27 09:30:11.434605,1709022611.4346054,-25.390625,-37.109375,-48.33984375,-23.92578125,1.0,1.0,1.0,1.0,3.m4v,1.0
2024-02-27 09:30:11.438513,1709022611.4385126,-7.32421875,-36.1328125,-28.80859375,-19.53125,1.0,1.0,1.0,1.0,3.m4v,1.0
2024-02-27 09:30:11.442418,1709022611.4424183,-2.44140625,-27.83203125,-23.4375,-7.8125,1.0,1.0,1.0,1.0,3.m4v,1.0
2024-02-27 09:30:11.446324,1709022611.446324,-33.203125,-39.55078125,-47.36328125,-20.5078125,1.0,1.0,1.0,1.0,3.m4v,1.0
2024-02-27 09:30:11.450230,1709022611.4502296,-68.84765625,-39.0625,-36.62109375,-53.22265625,1.0,1.0,1.0,1.0,3.m4v,1.0
2024-02-27 09:30:11.454135,1709022611.4541354,-55.17578125,-27.34375,-18.06640625,-43.9453125,1.0,1.0,1.0,1.0,3.m4v,1.0
2024-02-27 09:30:11.458041,1709022611.4580412,-34.66796875,-43.9453125,-24.4140625,-48.33984375,1.0,1.0,1.0,1.0,3.m4v,1.0
2024-02-27 09:30:11.461947,1709022611.461947,-18.5546875,-42.48046875,-39.0625,-47.36328125,1.0,1.0,1.0,1.0,3.m4v,1.0
2024-02-27 09:30:11.465852,1709022611.4658525,-42.96875,-19.53125,-48.33984375,-28.80859375,1.0,1.0,1.0,1.0,3.m4v,1.0
2024-02-27 09:30:11.469758,1709022611.4697585,-27.34375,-11.71875,-38.57421875,-28.3203125,1.0,1.0,1.0,1.0,3.m4v,1.0
2024-02-27 09:30:11.473664,1709022611.473664,-13.18359375,-9.27734375,-16.11328125,-14.6484375,1.0,1.0,1.0,1.0,3.m4v,1.0
2024-02-27 09:30:11.477570,1709022611.4775698,-23.92578125,-20.99609375,-15.13671875,-22.94921875,1.0,1.0,1.0,1.0,3.m4v,1.0
2024-02-27 09:30:11.481475,1709022611.4814754,-11.71875,-41.50390625,-26.85546875,-35.64453125,1.0,1.0,1.0,1.0,3.m4v,1.0
2024-02-27 09:30:11.485382,1709022611.4853823,2.9296875,-38.0859375,-14.16015625,-28.3203125,1.0,1.0,1.0,1.0,3.m4v,1.0
2024-02-27 09:30:11.489288,1709022611.489288,-26.3671875,-23.4375,-21.97265625,-23.92578125,1.0,1.0,1.0,1.0,3.m4v,1.0
2024-02-27 09:30:11.493194,1709022611.493194,-54.19921875,-20.5078125,-41.015625,-42.48046875,1.0,1.0,1.0,1.0,3.m4v,1.0
2024-02-27 09:30:11.497100,1709022611.4970996,-50.78125,-29.296875,-29.78515625,-66.89453125,1.0,1.0,1.0,1.0,3.m4v,1.0
2024-02-27 09:30:11.501005,1709022611.5010052,-19.04296875,-25.87890625,-21.97265625,-45.41015625,1.0,1.0,1.0,1.0,3.m4v,1.0
2024-02-27 09:30:11.504911,1709022611.504911,-6.34765625,-17.578125,-30.76171875,-18.06640625,1.0,1.0,1.0,1.0,3.m4v,1.0
2024-02-27 09:30:11.508817,1709022611.5088167,-19.53125,-17.08984375,-35.64453125,0.0,1.0,1.0,1.0,1.0,3.m4v,1.0
2024-02-27 09:30:11.512722,1709022611.5127225,-19.04296875,-26.85546875,-30.2734375,-15.625,1.0,1.0,1.0,1.0,3.m4v,1.0
2024-02-27 09:30:11.516628,1709022611.516628,-35.64453125,-33.203125,-32.71484375,-56.640625,1.0,1.0,1.0,1.0,3.m4v,1.0
2024-02-27 09:30:11.520534,1709022611.5205338,-59.08203125,-41.9921875,-42.96875,-73.73046875,1.0,1.0,1.0,1.0,3.m4v,1.0
2024-02-27 09:30:11.524440,1709022611.5244396,-44.43359375,-46.38671875,-40.0390625,-46.875,1.0,1.0,1.0,1.0,3.m4v,1.0
2024-02-27 09:30:11.528345,1709022611.528345,-36.62109375,-34.66796875,-37.109375,-36.1328125,1.0,1.0,1.0,1.0,3.m4v,1.0
2024-02-27 09:30:11.532252,1709022611.5322518,-26.3671875,-14.16015625,-31.73828125,-39.55078125,1.0,1.0,1.0,1.0,3.m4v,1.0
2024-02-27 09:30:11.536158,1709022611.5361576,-16.11328125,-18.06640625,-21.484375,2.9296875,1.0,1.0,1.0,1.0,3.m4v,1.0
2024-02-27 09:30:11.540063,1709022611.5400634,-16.11328125,-28.80859375,-29.296875,-10.7421875,1.0,1.0,1.0,1.0,3.m4v,1.0
2024-02-27 09:30:11.543969,1709022611.5439692,-36.1328125,-35.15625,-35.64453125,-73.2421875,1.0,1.0,1.0,1.0,3.m4v,1.0
2024-02-27 09:30:11.547875,1709022611.5478747,-57.12890625,-35.64453125,-22.94921875,-50.78125,1.0,1.0,1.0,1.0,3.m4v,1.0
2024-02-27 09:30:11.551780,1709022611.5517805,-12.20703125,-25.390625,-29.78515625,-2.9296875,1.0,1.0,1.0,1.0,3.m4v,1.0
2024-02-27 09:30:11.555686,1709022611.5556862,5.37109375,-33.69140625,-42.48046875,-11.71875,1.0,1.0,1.0,1.0,3.m4v,1.0
2024-02-27 09:30:11.559592,1709022611.559592,-8.7890625,-48.33984375,-33.203125,-38.0859375,1.0,1.0,1.0,1.0,3.m4v,1.0
2024-02-27 09:30:11.563498,1709022611.5634975,-41.015625,-42.96875,-35.15625,-30.76171875,1.0,1.0,1.0,1.0,3.m4v,1.0
2024-02-27 09:30:11.567403,1709022611.5674033,-60.05859375,-41.50390625,-48.33984375,-9.765625,1.0,1.0,1.0,1.0,3.m4v,1.0
2024-02-27 09:30:11.571309,1709022611.571309,-33.203125,-55.6640625,-36.1328125,-21.97265625,1.0,1.0,1.0,1.0,3.m4v,1.0
2024-02-27 09:30:11.575215,1709022611.5752149,-12.20703125,-36.1328125,-16.11328125,-23.92578125,1.0,1.0,1.0,1.0,3.m4v,1.0
2024-02-27 09:30:11.579122,1709022611.5791216,-15.13671875,-21.97265625,-25.390625,-10.25390625,1.0,1.0,1.0,1.0,3.m4v,1.0
2024-02-27 09:30:11.583027,1709022611.5830274,-29.296875,-19.04296875,-20.99609375,-45.41015625,1.0,1.0,1.0,1.0,3.m4v,1.0
2024-02-27 09:30:11.586933,1709022611.5869331,-47.36328125,-19.04296875,-23.4375,-68.359375,1.0,1.0,1.0,1.0,3.m4v,1.0
2024-02-27 09:30:11.590839,1709022611.590839,-64.94140625,-22.94921875,-41.9921875,-59.08203125,1.0,1.0,1.0,1.0,3.m4v,1.0
2024-02-27 09:30:11.594744,1709022611.5947444,-22.4609375,-6.8359375,-22.4609375,-9.765625,1.0,1.0,1.0,1.0,3.m4v,1.0
2024-02-27 09:30:11.598650,1709022611.5986502,0.9765625,-18.5546875,-28.3203125,-5.37109375,1.0,1.0,1.0,1.0,3.m4v,1.0
2024-02-27 09:30:11.602556,1709022611.602556,-49.8046875,-54.19921875,-41.50390625,-59.08203125,1.0,1.0,1.0,1.0,3.m4v,1.0
2024-02-27 09:30:11.606462,1709022611.6064615,-64.94140625,-65.4296875,-29.78515625,-72.265625,1.0,1.0,1.0,1.0,3.m4v,1.0
2024-02-27 09:30:11.610367,1709022611.6103673,-34.66796875,-60.546875,-42.96875,-42.96875,1.0,1.0,1.0,1.0,3.m4v,1.0
2024-02-27 09:30:11.614273,1709022611.614273,-38.57421875,-39.55078125,-44.43359375,9.765625,1.0,1.0,1.0,1.0,3.m4v,1.0
2024-02-27 09:30:11.618179,1709022611.6181786,-16.11328125,-19.53125,-31.25,-21.97265625,1.0,1.0,1.0,1.0,3.m4v,1.0
2024-02-27 09:30:11.622084,1709022611.6220844,10.7421875,-19.04296875,-25.390625,-38.0859375,1.0,1.0,1.0,1.0,3.m4v,1.0
2024-02-27 09:30:11.625992,1709022611.6259923,-9.765625,-33.203125,-13.18359375,-27.34375,1.0,1.0,1.0,1.0,3.m4v,1.0
2024-02-27 09:30:11.629898,1709022611.629898,-28.3203125,-36.1328125,-34.66796875,-34.66796875,1.0,1.0,1.0,1.0,3.m4v,1.0
2024-02-27 09:30:11.633804,1709022611.6338038,-24.90234375,-20.99609375,-42.96875,-9.27734375,1.0,1.0,1.0,1.0,3.m4v,1.0
2024-02-27 09:30:11.637709,1709022611.6377094,-16.11328125,-29.296875,-20.01953125,-14.6484375,1.0,1.0,1.0,1.0,3.m4v,1.0
2024-02-27 09:30:11.641615,1709022611.6416152,-21.97265625,-38.57421875,-15.625,-24.4140625,1.0,1.0,1.0,1.0,3.m4v,1.0
2024-02-27 09:30:11.645521,1709022611.645521,-33.203125,-23.92578125,-11.23046875,-47.8515625,1.0,1.0,1.0,1.0,3.m4v,1.0
2024-02-27 09:30:11.809568,1709022611.8095682,-64.453125,-26.3671875,-40.52734375,-41.9921875,1.0,1.0,1.0,1.0,3.m4v,1.0
2024-02-27 09:30:11.813475,1709022611.8134754,-36.62109375,-13.18359375,-24.4140625,-30.2734375,1.0,1.0,1.0,1.0,3.m4v,1.0
2024-02-27 09:30:11.833004,1709022611.833004,-7.32421875,-24.90234375,-32.71484375,-2.9296875,1.0,1.0,1.0,1.0,3.m4v,1.0
2024-02-27 09:30:11.836910,1709022611.8369095,26.3671875,-14.16015625,-14.6484375,12.20703125,1.0,1.0,1.0,1.0,3.m4v,1.0
2024-02-27 09:30:11.840815,1709022611.8408153,-14.16015625,-41.50390625,-33.69140625,-32.2265625,1.0,1.0,1.0,1.0,3.m4v,1.0
2024-02-27 09:30:11.844721,1709022611.844721,-76.171875,-59.5703125,-44.921875,-92.28515625,1.0,1.0,1.0,1.0,3.m4v,1.0
2024-02-27 09:30:11.848627,1709022611.8486269,-91.30859375,-40.52734375,-29.78515625,-68.359375,1.0,1.0,1.0,1.0,3.m4v,1.0
2024-02-27 09:30:11.852532,1709022611.8525324,-57.12890625,-28.3203125,-16.11328125,-51.7578125,1.0,1.0,1.0,1.0,3.m4v,1.0
2024-02-27 09:30:11.856438,1709022611.8564382,-40.52734375,-24.4140625,-34.1796875,-45.41015625,1.0,1.0,1.0,1.0,3.m4v,1.0
2024-02-27 09:30:11.860345,1709022611.8603451,-25.87890625,-29.78515625,-46.875,-42.48046875,1.0,1.0,1.0,1.0,3.m4v,1.0
2024-02-27 09:30:11.864251,1709022611.864251,-21.97265625,-42.48046875,-29.78515625,-37.109375,1.0,1.0,1.0,1.0,3.m4v,1.0
2024-02-27 09:30:11.868157,1709022611.868157,-34.66796875,-40.0390625,-24.90234375,-30.2734375,1.0,1.0,1.0,1.0,3.m4v,1.0
2024-02-27 09:30:11.872062,1709022611.8720622,-26.85546875,-35.64453125,-37.109375,-50.78125,1.0,1.0,1.0,1.0,3.m4v,1.0
2024-02-27 09:30:11.875968,1709022611.875968,-43.45703125,-43.9453125,-44.43359375,-58.10546875,1.0,1.0,1.0,1.0,3.m4v,1.0
2024-02-27 09:30:11.879874,1709022611.8798738,-43.45703125,-39.55078125,-46.38671875,-32.2265625,1.0,1.0,1.0,1.0,3.m4v,1.0
2024-02-27 09:30:11.883780,1709022611.8837795,0.9765625,-24.90234375,-41.9921875,-35.64453125,1.0,1.0,1.0,1.0,3.m4v,1.0
2024-02-27 09:30:11.887685,1709022611.887685,0.48828125,-19.53125,-14.16015625,-41.015625,1.0,1.0,1.0,1.0,3.m4v,1.0
2024-02-27 09:30:11.891591,1709022611.8915908,-18.06640625,-20.99609375,3.90625,11.23046875,1.0,1.0,1.0,1.0,3.m4v,1.0
2024-02-27 09:30:12.274365,1709022612.2743654,-50.78125,-20.5078125,-35.15625,-55.17578125,1.0,1.0,1.0,1.0,3.m4v,1.0
2024-02-27 09:30:12.278271,1709022612.278271,-48.33984375,-22.4609375,-47.36328125,-39.0625,1.0,1.0,1.0,1.0,3.m4v,1.0
2024-02-27 09:30:12.282178,1709022612.2821777,-27.83203125,-32.2265625,-46.875,-30.76171875,1.0,1.0,1.0,1.0,3.m4v,1.0
2024-02-27 09:30:12.286083,1709022612.2860837,-43.45703125,-44.43359375,-32.71484375,-65.4296875,1.0,1.0,1.0,1.0,3.m4v,1.0
2024-02-27 09:30:12.289989,1709022612.2899892,-54.6875,-36.1328125,-27.34375,-58.10546875,1.0,1.0,1.0,1.0,3.m4v,1.0
2024-02-27 09:30:12.293895,1709022612.2938948,-37.109375,-18.06640625,-32.2265625,-18.5546875,1.0,1.0,1.0,1.0,3.m4v,1.0
2024-02-27 09:30:12.297801,1709022612.2978003,-17.578125,-24.90234375,-40.0390625,-9.765625,1.0,1.0,1.0,1.0,3.m4v,1.0
2024-02-27 09:30:12.301706,1709022612.3017063,-12.20703125,-27.34375,-19.04296875,-37.59765625,1.0,1.0,1.0,1.0,3.m4v,1.0
2024-02-27 09:30:12.305612,1709022612.3056118,-32.71484375,-36.1328125,-2.44140625,-57.6171875,1.0,1.0,1.0,1.0,3.m4v,1.0
2024-02-27 09:30:12.309518,1709022612.3095176,-54.6875,-47.8515625,-4.39453125,-52.24609375,1.0,1.0,1.0,1.0,3.m4v,1.0
2024-02-27 09:30:12.313423,1709022612.3134234,-37.109375,-37.109375,-12.20703125,-40.0390625,1.0,1.0,1.0,1.0,3.m4v,1.0
2024-02-27 09:30:12.317329,1709022612.3173292,-16.11328125,-37.59765625,-49.8046875,-24.4140625,1.0,1.0,1.0,1.0,3.m4v,1.0
2024-02-27 09:30:12.321235,1709022612.3212347,6.34765625,-45.41015625,-71.77734375,-22.94921875,1.0,1.0,1.0,1.0,3.m4v,1.0
2024-02-27 09:30:12.325140,1709022612.3251405,-35.15625,-35.15625,-63.96484375,-42.96875,1.0,1.0,1.0,1.0,3.m4v,1.0
2024-02-27 09:30:12.329049,1709022612.3290489,-62.5,-26.3671875,-36.1328125,-39.55078125,1.0,1.0,1.0,1.0,3.m4v,1.0
2024-02-27 09:30:12.332955,1709022612.3329546,-50.29296875,-35.64453125,-12.20703125,-30.2734375,1.0,1.0,1.0,1.0,3.m4v,1.0
2024-02-27 09:30:12.336860,1709022612.3368604,-42.48046875,-20.99609375,-5.37109375,-33.203125,1.0,1.0,1.0,1.0,3.m4v,1.0
2024-02-27 09:30:12.340766,1709022612.340766,-20.5078125,-12.6953125,-8.7890625,-46.875,1.0,1.0,1.0,1.0,3.m4v,1.0
2024-02-27 09:30:12.344672,1709022612.3446715,-17.08984375,-26.3671875,-22.94921875,-38.57421875,1.0,1.0,1.0,1.0,3.m4v,1.0
2024-02-27 09:30:12.348577,1709022612.3485775,-31.73828125,-33.203125,-40.0390625,-33.69140625,1.0,1.0,1.0,1.0,3.m4v,1.0
2024-02-27 09:30:12.352483,1709022612.3524833,-24.90234375,-33.69140625,-40.0390625,-38.0859375,1.0,1.0,1.0,1.0,3.m4v,1.0
2024-02-27 09:30:12.356389,1709022612.3563888,-28.3203125,-36.62109375,-32.71484375,-17.578125,1.0,1.0,1.0,1.0,3.m4v,1.0
2024-02-27 09:30:12.360295,1709022612.3602946,-23.4375,-33.69140625,-36.62109375,-33.69140625,1.0,1.0,1.0,1.0,3.m4v,1.0
2024-02-27 09:30:12.364200,1709022612.3642004,-16.6015625,-35.64453125,-34.1796875,-48.33984375,1.0,1.0,1.0,1.0,3.m4v,1.0
2024-02-27 09:30:12.368106,1709022612.368106,-46.875,-41.9921875,-38.57421875,-33.203125,1.0,1.0,1.0,1.0,3.m4v,1.0
2024-02-27 09:30:12.372012,1709022612.3720117,-46.875,-39.55078125,-59.5703125,-45.41015625,1.0,1.0,1.0,1.0,3.m4v,1.0
2024-02-27 09:30:12.375920,1709022612.3759198,-35.15625,-36.62109375,-59.08203125,-49.8046875,1.0,1.0,1.0,1.0,3.m4v,1.0
2024-02-27 09:30:12.375920,1709022612.3759198,-35.15625,-36.62109375,-59.08203125,-49.8046875,1.0,1.0,1.0,1.0,3.m4v,1.0
2024-02-27 09:30:12.379826,1709022612.3798256,-2.9296875,-12.6953125,-25.390625,-26.85546875,1.0,1.0,1.0,1.0,3.m4v,1.0
2024-02-27 09:30:12.379826,1709022612.3798256,-2.9296875,-12.6953125,-25.390625,-26.85546875,1.0,1.0,1.0,1.0,3.m4v,1.0
2024-02-27 09:30:12.383731,1709022612.3837314,12.6953125,-0.48828125,0.48828125,-7.32421875,1.0,1.0,1.0,1.0,3.m4v,1.0
2024-02-27 09:30:12.383731,1709022612.3837314,12.6953125,-0.48828125,0.48828125,-7.32421875,1.0,1.0,1.0,1.0,3.m4v,1.0
2024-02-27 09:30:12.387637,1709022612.387637,-32.71484375,-34.66796875,-4.8828125,-22.94921875,1.0,1.0,1.0,1.0,3.m4v,1.0
2024-02-27 09:30:12.387637,1709022612.387637,-32.71484375,-34.66796875,-4.8828125,-22.94921875,1.0,1.0,1.0,1.0,3.m4v,1.0
2024-02-27 09:30:12.391543,1709022612.391543,-55.17578125,-51.26953125,-16.11328125,-61.5234375,1.0,1.0,1.0,1.0,3.m4v,1.0
2024-02-27 09:30:12.391543,1709022612.391543,-55.17578125,-51.26953125,-16.11328125,-61.5234375,1.0,1.0,1.0,1.0,3.m4v,1.0
2024-02-27 09:30:12.395448,1709022612.3954484,-41.9921875,-40.52734375,-22.4609375,-53.22265625,1.0,1.0,1.0,1.0,3.m4v,1.0
2024-02-27 09:30:12.395448,1709022612.3954484,-41.9921875,-40.52734375,-22.4609375,-53.22265625,1.0,1.0,1.0,1.0,3.m4v,1.0
2024-02-27 09:30:12.399354,1709022612.3993542,-20.5078125,-44.921875,-37.59765625,-38.57421875,1.0,1.0,1.0,1.0,3.m4v,1.0
2024-02-27 09:30:12.399354,1709022612.3993542,-20.5078125,-44.921875,-37.59765625,-38.57421875,1.0,1.0,1.0,1.0,3.m4v,1.0
2024-02-27 09:30:12.403260,1709022612.4032598,-8.30078125,-38.57421875,-35.64453125,-43.45703125,1.0,1.0,1.0,1.0,3.m4v,1.0
2024-02-27 09:30:12.403260,1709022612.4032598,-8.30078125,-38.57421875,-35.64453125,-43.45703125,1.0,1.0,1.0,1.0,3.m4v,1.0
2024-02-27 09:30:12.407166,1709022612.4071655,-11.71875,-36.1328125,-36.62109375,-34.1796875,1.0,1.0,1.0,1.0,3.m4v,1.0
2024-02-27 09:30:12.407166,1709022612.4071655,-11.71875,-36.1328125,-36.62109375,-34.1796875,1.0,1.0,1.0,1.0,3.m4v,1.0
2024-02-27 09:30:12.411071,1709022612.4110713,-52.734375,-45.8984375,-55.17578125,-56.640625,1.0,1.0,1.0,1.0,3.m4v,1.0
2024-02-27 09:30:12.411071,1709022612.4110713,-52.734375,-45.8984375,-55.17578125,-56.640625,1.0,1.0,1.0,1.0,3.m4v,1.0
2024-02-27 09:30:12.414977,1709022612.414977,-52.24609375,-41.50390625,-49.31640625,-49.31640625,1.0,1.0,1.0,1.0,3.m4v,1.0
2024-02-27 09:30:12.414977,1709022612.414977,-52.24609375,-41.50390625,-49.31640625,-49.31640625,1.0,1.0,1.0,1.0,3.m4v,1.0
2024-02-27 09:30:12.418883,1709022612.4188826,-5.37109375,-26.85546875,-34.66796875,-9.765625,1.0,1.0,1.0,1.0,3.m4v,1.0
2024-02-27 09:30:12.418883,1709022612.4188826,-5.37109375,-26.85546875,-34.66796875,-9.765625,1.0,1.0,1.0,1.0,3.m4v,1.0
2024-02-27 09:30:12.422791,1709022612.4227903,-1.953125,-20.5078125,-21.484375,-23.92578125,1.0,1.0,1.0,1.0,3.m4v,1.0
2024-02-27 09:30:12.422791,1709022612.4227903,-1.953125,-20.5078125,-21.484375,-23.92578125,1.0,1.0,1.0,1.0,3.m4v,1.0
2024-02-27 09:30:12.426696,1709022612.4266963,-20.01953125,-34.1796875,-8.7890625,-25.390625,1.0,1.0,1.0,1.0,3.m4v,1.0
2024-02-27 09:30:12.426696,1709022612.4266963,-20.01953125,-34.1796875,-8.7890625,-25.390625,1.0,1.0,1.0,1.0,3.m4v,1.0
2024-02-27 09:30:12.430602,1709022612.430602,-28.80859375,-28.80859375,-18.06640625,-40.52734375,1.0,1.0,1.0,1.0,3.m4v,1.0
2024-02-27 09:30:12.430602,1709022612.430602,-28.80859375,-28.80859375,-18.06640625,-40.52734375,1.0,1.0,1.0,1.0,3.m4v,1.0
2024-02-27 09:30:12.434508,1709022612.4345076,-41.50390625,-5.37109375,-21.97265625,-50.29296875,1.0,1.0,1.0,1.0,3.m4v,1.0
2024-02-27 09:30:12.434508,1709022612.4345076,-41.50390625,-5.37109375,-21.97265625,-50.29296875,1.0,1.0,1.0,1.0,3.m4v,1.0
2024-02-27 09:30:12.438413,1709022612.4384134,-40.0390625,-18.5546875,-22.94921875,-52.24609375,1.0,1.0,1.0,1.0,3.m4v,1.0
2024-02-27 09:30:12.438413,1709022612.4384134,-40.0390625,-18.5546875,-22.94921875,-52.24609375,1.0,1.0,1.0,1.0,3.m4v,1.0
2024-02-27 09:30:12.442319,1709022612.4423192,-25.87890625,-48.33984375,-28.3203125,-58.59375,1.0,1.0,1.0,1.0,3.m4v,1.0
2024-02-27 09:30:12.442319,1709022612.4423192,-25.87890625,-48.33984375,-28.3203125,-58.59375,1.0,1.0,1.0,1.0,3.m4v,1.0
2024-02-27 09:30:12.446225,1709022612.446225,-23.4375,-31.25,-28.3203125,-36.1328125,1.0,1.0,1.0,1.0,3.m4v,1.0
2024-02-27 09:30:12.446225,1709022612.446225,-23.4375,-31.25,-28.3203125,-36.1328125,1.0,1.0,1.0,1.0,3.m4v,1.0
2024-02-27 09:30:12.450130,1709022612.4501305,-51.26953125,-23.4375,-39.0625,-30.2734375,1.0,1.0,1.0,1.0,3.m4v,1.0
2024-02-27 09:30:12.450130,1709022612.4501305,-51.26953125,-23.4375,-39.0625,-30.2734375,1.0,1.0,1.0,1.0,3.m4v,1.0
2024-02-27 09:30:12.454036,1709022612.4540362,-70.80078125,-39.55078125,-47.36328125,-53.22265625,1.0,1.0,1.0,1.0,3.m4v,1.0
2024-02-27 09:30:12.454036,1709022612.4540362,-70.80078125,-39.55078125,-47.36328125,-53.22265625,1.0,1.0,1.0,1.0,3.m4v,1.0
2024-02-27 09:30:12.457942,1709022612.457942,-23.92578125,-41.9921875,-49.31640625,-47.36328125,1.0,1.0,1.0,1.0,3.m4v,1.0
2024-02-27 09:30:12.457942,1709022612.457942,-23.92578125,-41.9921875,-49.31640625,-47.36328125,1.0,1.0,1.0,1.0,3.m4v,1.0
2024-02-27 09:30:12.461848,1709022612.4618478,-13.18359375,-31.73828125,-41.015625,-20.5078125,1.0,1.0,1.0,1.0,3.m4v,1.0
2024-02-27 09:30:12.461848,1709022612.4618478,-13.18359375,-31.73828125,-41.015625,-20.5078125,1.0,1.0,1.0,1.0,3.m4v,1.0
2024-02-27 09:30:12.465753,1709022612.4657533,-35.64453125,-25.390625,-20.01953125,-31.25,1.0,1.0,1.0,1.0,3.m4v,1.0
2024-02-27 09:30:12.465753,1709022612.4657533,-35.64453125,-25.390625,-20.01953125,-31.25,1.0,1.0,1.0,1.0,3.m4v,1.0
2024-02-27 09:30:12.469661,1709022612.4696617,-60.05859375,-30.76171875,-29.78515625,-68.84765625,1.0,1.0,1.0,1.0,3.m4v,1.0
2024-02-27 09:30:12.469661,1709022612.4696617,-60.05859375,-30.76171875,-29.78515625,-68.84765625,1.0,1.0,1.0,1.0,3.m4v,1.0
2024-02-27 09:30:12.473567,1709022612.4735672,-58.10546875,-40.0390625,-47.36328125,-53.7109375,1.0,1.0,1.0,1.0,3.m4v,1.0
2024-02-27 09:30:12.473567,1709022612.4735672,-58.10546875,-40.0390625,-47.36328125,-53.7109375,1.0,1.0,1.0,1.0,3.m4v,1.0
2024-02-27 09:30:12.477473,1709022612.4774728,-21.97265625,-35.64453125,-50.78125,-36.62109375,1.0,1.0,1.0,1.0,3.m4v,1.0
2024-02-27 09:30:12.477473,1709022612.4774728,-21.97265625,-35.64453125,-50.78125,-36.62109375,1.0,1.0,1.0,1.0,3.m4v,1.0
2024-02-27 09:30:12.481379,1709022612.4813786,-18.06640625,-24.90234375,-38.57421875,-38.0859375,1.0,1.0,1.0,1.0,3.m4v,1.0
2024-02-27 09:30:12.481379,1709022612.4813786,-18.06640625,-24.90234375,-38.57421875,-38.0859375,1.0,1.0,1.0,1.0,3.m4v,1.0
2024-02-27 09:30:12.485284,1709022612.4852843,-21.97265625,-21.484375,-18.06640625,-38.57421875,1.0,1.0,1.0,1.0,3.m4v,1.0
2024-02-27 09:30:12.485284,1709022612.4852843,-21.97265625,-21.484375,-18.06640625,-38.57421875,1.0,1.0,1.0,1.0,3.m4v,1.0
2024-02-27 09:30:12.489190,1709022612.48919,-31.73828125,-40.0390625,-20.01953125,-46.875,1.0,1.0,1.0,1.0,3.m4v,1.0
2024-02-27 09:30:12.489190,1709022612.48919,-31.73828125,-40.0390625,-20.01953125,-46.875,1.0,1.0,1.0,1.0,3.m4v,1.0
2024-02-27 09:30:12.493096,1709022612.4930956,-59.5703125,-49.8046875,-22.4609375,-64.453125,1.0,1.0,1.0,1.0,3.m4v,1.0
2024-02-27 09:30:12.497001,1709022612.4970014,-52.734375,-31.25,-17.578125,-66.40625,1.0,1.0,1.0,1.0,3.m4v,1.0
2024-02-27 09:30:12.500907,1709022612.5009072,-31.73828125,-25.87890625,-26.85546875,-65.4296875,1.0,1.0,1.0,1.0,3.m4v,1.0
2024-02-27 09:30:12.504813,1709022612.504813,-24.90234375,-21.97265625,-45.8984375,-49.31640625,1.0,1.0,1.0,1.0,3.m4v,1.0
2024-02-27 09:30:12.508718,1709022612.5087185,-33.203125,-18.06640625,-42.96875,-25.87890625,1.0,1.0,1.0,1.0,3.m4v,1.0
2024-02-27 09:30:12.512624,1709022612.5126245,-17.578125,-15.13671875,-34.66796875,-16.11328125,1.0,1.0,1.0,1.0,3.m4v,1.0
2024-02-27 09:30:12.516532,1709022612.5165317,-14.6484375,-21.484375,-60.05859375,-8.30078125,1.0,1.0,1.0,1.0,3.m4v,1.0
2024-02-27 09:30:12.520437,1709022612.5204377,-31.25,-29.296875,-60.05859375,-63.96484375,1.0,1.0,1.0,1.0,3.m4v,1.0
2024-02-27 09:30:12.524343,1709022612.524343,-28.80859375,-31.25,-14.6484375,-66.89453125,1.0,1.0,1.0,1.0,3.m4v,1.0
2024-02-27 09:30:12.528249,1709022612.5282488,-25.87890625,-34.66796875,-4.8828125,-33.69140625,1.0,1.0,1.0,1.0,3.m4v,1.0
2024-02-27 09:30:12.532155,1709022612.5321546,-39.0625,-23.4375,-7.8125,-55.17578125,1.0,1.0,1.0,1.0,3.m4v,1.0
2024-02-27 09:30:12.536060,1709022612.5360603,-51.7578125,-37.59765625,-12.6953125,-52.24609375,1.0,1.0,1.0,1.0,3.m4v,1.0
2024-02-27 09:30:12.539966,1709022612.539966,-16.6015625,-63.4765625,-36.1328125,-31.73828125,1.0,1.0,1.0,1.0,3.m4v,1.0
2024-02-27 09:30:13.516430,1709022613.5164304,-51.7578125,-19.53125,-23.4375,-44.921875,1.0,1.0,1.0,1.0,3.m4v,1.0
2024-02-27 09:30:13.520336,1709022613.5203362,-33.69140625,-17.578125,-21.97265625,-37.59765625,1.0,1.0,1.0,1.0,3.m4v,1.0
2024-02-27 09:30:13.524242,1709022613.5242417,-33.203125,-26.3671875,-26.3671875,-21.97265625,1.0,1.0,1.0,1.0,3.m4v,1.0
2024-02-27 09:30:13.528147,1709022613.5281477,-39.0625,-31.25,-24.90234375,-57.12890625,1.0,1.0,1.0,1.0,3.m4v,1.0
2024-02-27 09:30:13.532053,1709022613.5320532,-41.015625,-36.62109375,-32.2265625,-42.96875,1.0,1.0,1.0,1.0,3.m4v,1.0
2024-02-27 09:30:13.535959,1709022613.535959,-7.8125,-21.484375,-28.3203125,-16.6015625,1.0,1.0,1.0,1.0,3.m4v,1.0
2024-02-27 09:30:13.539865,1709022613.5398643,-6.8359375,-12.6953125,-16.11328125,-40.52734375,1.0,1.0,1.0,1.0,3.m4v,1.0
2024-02-27 09:30:13.543770,1709022613.5437703,-19.04296875,-31.25,-24.90234375,-35.15625,1.0,1.0,1.0,1.0,3.m4v,1.0
2024-02-27 09:30:13.547678,1709022613.5476782,-15.625,-28.80859375,-16.11328125,-9.27734375,1.0,1.0,1.0,1.0,3.m4v,1.0
2024-02-27 09:30:13.551584,1709022613.551584,-30.76171875,-21.97265625,-17.578125,-7.8125,1.0,1.0,1.0,1.0,3.m4v,1.0
2024-02-27 09:30:13.555490,1709022613.5554895,-35.15625,-30.76171875,-42.96875,-40.52734375,1.0,1.0,1.0,1.0,3.m4v,1.0
2024-02-27 09:30:13.559395,1709022613.5593953,-31.25,-39.55078125,-42.96875,-64.94140625,1.0,1.0,1.0,1.0,3.m4v,1.0
2024-02-27 09:30:13.563301,1709022613.563301,-17.08984375,-35.64453125,-18.06640625,-52.734375,1.0,1.0,1.0,1.0,3.m4v,1.0
2024-02-27 09:30:13.567207,1709022613.5672069,-28.80859375,-43.45703125,-24.4140625,-49.8046875,1.0,1.0,1.0,1.0,3.m4v,1.0
2024-02-27 09:30:13.571112,1709022613.5711124,-46.875,-42.96875,-32.71484375,-50.78125,1.0,1.0,1.0,1.0,3.m4v,1.0
2024-02-27 09:30:13.575018,1709022613.5750182,-32.71484375,-35.64453125,-25.390625,-40.0390625,1.0,1.0,1.0,1.0,3.m4v,1.0
2024-02-27 09:30:13.578924,1709022613.578924,-18.5546875,-51.26953125,-18.5546875,-38.57421875,1.0,1.0,1.0,1.0,3.m4v,1.0
2024-02-27 09:30:13.582829,1709022613.5828297,-28.80859375,-32.71484375,-18.06640625,-42.96875,1.0,1.0,1.0,1.0,3.m4v,1.0
2024-02-27 09:30:13.586735,1709022613.5867352,-27.34375,-3.41796875,-20.01953125,-24.90234375,1.0,1.0,1.0,1.0,3.m4v,1.0
2024-02-27 09:30:13.590641,1709022613.590641,-56.15234375,-26.3671875,-23.4375,-39.0625,1.0,1.0,1.0,1.0,3.m4v,1.0
2024-02-27 09:30:13.594549,1709022613.5945487,-56.15234375,-42.96875,-19.04296875,-51.7578125,1.0,1.0,1.0,1.0,3.m4v,1.0
2024-02-27 09:30:13.598454,1709022613.5984545,-36.1328125,-29.296875,-21.97265625,-39.0625,1.0,1.0,1.0,1.0,3.m4v,1.0
