Timestamp,Timestamp_UNIX,TP9,AF7,AF8,TP10,Valence,Arousal,Dominace,Viewed,Video,Participant
2024-02-28 11:47:06.148091,1709117226.148091,-34.66796875,-29.78515625,-24.90234375,-20.01953125,1.0,1.0,0.0,1.0,7.m4v,9.0
2024-02-28 11:47:06.151997,1709117226.151997,-36.1328125,-40.0390625,-27.83203125,-36.1328125,1.0,1.0,0.0,1.0,7.m4v,9.0
2024-02-28 11:47:06.155903,1709117226.155903,-39.0625,-38.0859375,-34.1796875,-28.3203125,1.0,1.0,0.0,1.0,7.m4v,9.0
2024-02-28 11:47:06.159809,1709117226.159809,-33.203125,-27.34375,-37.59765625,-33.69140625,1.0,1.0,0.0,1.0,7.m4v,9.0
2024-02-28 11:47:06.163715,1709117226.1637151,-20.5078125,-34.66796875,-37.59765625,-27.83203125,1.0,1.0,0.0,1.0,7.m4v,9.0
2024-02-28 11:47:06.171527,1709117226.171527,-29.296875,-24.90234375,-37.109375,-47.36328125,1.0,1.0,0.0,1.0,7.m4v,9.0
2024-02-28 11:47:06.175429,1709117226.1754286,-32.2265625,-22.94921875,-33.69140625,-32.71484375,1.0,1.0,0.0,1.0,7.m4v,9.0
2024-02-28 11:47:06.179334,1709117226.1793344,-51.7578125,-30.76171875,-30.2734375,-16.11328125,1.0,1.0,0.0,1.0,7.m4v,9.0
2024-02-28 11:47:06.183240,1709117226.1832404,-32.71484375,-36.1328125,-30.2734375,-32.71484375,1.0,1.0,0.0,1.0,7.m4v,9.0
2024-02-28 11:47:06.187146,1709117226.1871464,-8.7890625,-39.0625,-29.296875,-34.1796875,1.0,1.0,0.0,1.0,7.m4v,9.0
2024-02-28 11:47:06.191052,1709117226.1910524,-24.90234375,-44.921875,-27.34375,-56.640625,1.0,1.0,0.0,1.0,7.m4v,9.0
2024-02-28 11:47:06.194958,1709117226.1949584,-38.0859375,-46.38671875,-27.83203125,-59.5703125,1.0,1.0,0.0,1.0,7.m4v,9.0
2024-02-28 11:47:06.198864,1709117226.1988645,-47.36328125,-41.9921875,-31.73828125,-37.59765625,1.0,1.0,0.0,1.0,7.m4v,9.0
2024-02-28 11:47:06.202770,1709117226.2027705,-51.26953125,-36.62109375,-34.66796875,-33.69140625,1.0,1.0,0.0,1.0,7.m4v,9.0
2024-02-28 11:47:06.206676,1709117226.2066762,-38.0859375,-34.1796875,-35.15625,-40.0390625,1.0,1.0,0.0,1.0,7.m4v,9.0
2024-02-28 11:47:06.210582,1709117226.2105825,-36.1328125,-33.203125,-38.0859375,-41.9921875,1.0,1.0,0.0,1.0,7.m4v,9.0
2024-02-28 11:47:06.214488,1709117226.2144885,-36.1328125,-32.2265625,-46.875,-45.8984375,1.0,1.0,0.0,1.0,7.m4v,9.0
2024-02-28 11:47:06.218394,1709117226.2183945,-29.78515625,-34.1796875,-42.48046875,-34.1796875,1.0,1.0,0.0,1.0,7.m4v,9.0
2024-02-28 11:47:06.222296,1709117226.2222955,-39.55078125,-37.59765625,-29.78515625,-44.921875,1.0,1.0,0.0,1.0,7.m4v,9.0
2024-02-28 11:47:06.226202,1709117226.2262015,-51.26953125,-33.69140625,-29.296875,-46.875,1.0,1.0,0.0,1.0,7.m4v,9.0
2024-02-28 11:47:06.230108,1709117226.2301075,-47.8515625,-24.4140625,-26.3671875,-25.87890625,1.0,1.0,0.0,1.0,7.m4v,9.0
2024-02-28 11:47:06.234014,1709117226.2340136,-29.78515625,-20.5078125,-23.4375,-19.04296875,1.0,1.0,0.0,1.0,7.m4v,9.0
2024-02-28 11:47:06.237920,1709117226.2379196,-34.1796875,-29.296875,-20.5078125,-25.390625,1.0,1.0,0.0,1.0,7.m4v,9.0
2024-02-28 11:47:06.241825,1709117226.241825,-24.4140625,-34.66796875,-15.13671875,-41.9921875,1.0,1.0,0.0,1.0,7.m4v,9.0
2024-02-28 11:47:06.245731,1709117226.2457314,-15.625,-41.015625,-24.90234375,-44.921875,1.0,1.0,0.0,1.0,7.m4v,9.0
2024-02-28 11:47:06.249637,1709117226.2496374,-34.1796875,-59.08203125,-30.76171875,-23.4375,1.0,1.0,0.0,1.0,7.m4v,9.0
2024-02-28 11:47:06.253543,1709117226.2535434,-42.96875,-51.7578125,-33.203125,-24.90234375,1.0,1.0,0.0,1.0,7.m4v,9.0
2024-02-28 11:47:06.257449,1709117226.2574494,-41.015625,-19.04296875,-35.15625,-29.296875,1.0,1.0,0.0,1.0,7.m4v,9.0
2024-02-28 11:47:06.261355,1709117226.2613554,-37.109375,-16.6015625,-33.203125,-27.83203125,1.0,1.0,0.0,1.0,7.m4v,9.0
2024-02-28 11:47:06.265261,1709117226.2652614,-37.59765625,-25.87890625,-32.71484375,-31.73828125,1.0,1.0,0.0,1.0,7.m4v,9.0
2024-02-28 11:47:06.269163,1709117226.2691634,-28.3203125,-25.87890625,-29.296875,-45.8984375,1.0,1.0,0.0,1.0,7.m4v,9.0
2024-02-28 11:47:06.273069,1709117226.2730694,-30.2734375,-26.3671875,-27.34375,-52.734375,1.0,1.0,0.0,1.0,7.m4v,9.0
2024-02-28 11:47:06.276975,1709117226.2769754,-40.0390625,-22.4609375,-33.203125,-51.26953125,1.0,1.0,0.0,1.0,7.m4v,9.0
2024-02-28 11:47:06.280881,1709117226.2808814,-36.62109375,-24.90234375,-38.0859375,-38.0859375,1.0,1.0,0.0,1.0,7.m4v,9.0
2024-02-28 11:47:06.284787,1709117226.2847874,-47.8515625,-29.296875,-33.69140625,-10.7421875,1.0,1.0,0.0,1.0,7.m4v,9.0
2024-02-28 11:47:06.288693,1709117226.2886932,-53.22265625,-29.78515625,-25.390625,-37.59765625,1.0,1.0,0.0,1.0,7.m4v,9.0
2024-02-28 11:47:06.292599,1709117226.2925992,-34.1796875,-34.1796875,-23.4375,-30.76171875,1.0,1.0,0.0,1.0,7.m4v,9.0
2024-02-28 11:47:06.296505,1709117226.2965052,-20.01953125,-36.1328125,-31.73828125,0.9765625,1.0,1.0,0.0,1.0,7.m4v,9.0
2024-02-28 11:47:06.300411,1709117226.3004112,-12.6953125,-30.76171875,-27.83203125,-22.94921875,1.0,1.0,0.0,1.0,7.m4v,9.0
2024-02-28 11:47:06.304317,1709117226.3043172,-28.3203125,-40.0390625,-26.3671875,-40.52734375,1.0,1.0,0.0,1.0,7.m4v,9.0
2024-02-28 11:47:06.308223,1709117226.3082232,-59.08203125,-34.66796875,-28.80859375,-41.9921875,1.0,1.0,0.0,1.0,7.m4v,9.0
2024-02-28 11:47:06.312129,1709117226.3121293,-52.24609375,-21.97265625,-32.71484375,-46.875,1.0,1.0,0.0,1.0,7.m4v,9.0
2024-02-28 11:47:06.316030,1709117226.3160305,-43.45703125,-17.08984375,-32.2265625,-44.43359375,1.0,1.0,0.0,1.0,7.m4v,9.0
2024-02-28 11:47:06.319936,1709117226.3199365,-48.828125,-23.92578125,-26.85546875,-32.71484375,1.0,1.0,0.0,1.0,7.m4v,9.0
2024-02-28 11:47:06.323842,1709117226.323842,-39.55078125,-26.3671875,-34.1796875,-29.78515625,1.0,1.0,0.0,1.0,7.m4v,9.0
2024-02-28 11:47:06.327748,1709117226.327748,-28.3203125,-20.01953125,-40.0390625,-49.8046875,1.0,1.0,0.0,1.0,7.m4v,9.0
2024-02-28 11:47:06.331654,1709117226.331654,-22.4609375,-27.34375,-38.0859375,-45.8984375,1.0,1.0,0.0,1.0,7.m4v,9.0
2024-02-28 11:47:06.335560,1709117226.33556,-22.4609375,-33.69140625,-30.2734375,-38.0859375,1.0,1.0,0.0,1.0,7.m4v,9.0
2024-02-28 11:47:06.339466,1709117226.339466,-38.0859375,-38.0859375,-32.71484375,-38.57421875,1.0,1.0,0.0,1.0,7.m4v,9.0
2024-02-28 11:47:06.343372,1709117226.343372,-26.85546875,-33.203125,-41.9921875,-21.484375,1.0,1.0,0.0,1.0,7.m4v,9.0
2024-02-28 11:47:06.347278,1709117226.347278,-11.23046875,-22.94921875,-37.109375,-31.73828125,1.0,1.0,0.0,1.0,7.m4v,9.0
2024-02-28 11:47:06.351184,1709117226.351184,-41.50390625,-24.90234375,-25.390625,-41.50390625,1.0,1.0,0.0,1.0,7.m4v,9.0
2024-02-28 11:47:06.355090,1709117226.35509,-47.36328125,-26.85546875,-19.53125,-29.296875,1.0,1.0,0.0,1.0,7.m4v,9.0
2024-02-28 11:47:06.417575,1709117226.4175754,-41.50390625,-32.2265625,-35.15625,-36.1328125,1.0,1.0,0.0,1.0,7.m4v,9.0
2024-02-28 11:47:06.421481,1709117226.4214814,-57.12890625,-39.55078125,-31.73828125,-32.71484375,1.0,1.0,0.0,1.0,7.m4v,9.0
2024-02-28 11:47:06.425387,1709117226.4253874,-48.33984375,-44.921875,-33.69140625,-30.2734375,1.0,1.0,0.0,1.0,7.m4v,9.0
2024-02-28 11:47:06.429293,1709117226.4292934,-32.2265625,-41.9921875,-33.69140625,-44.921875,1.0,1.0,0.0,1.0,7.m4v,9.0
2024-02-28 11:47:06.433199,1709117226.4331994,-31.25,-36.62109375,-38.0859375,-44.921875,1.0,1.0,0.0,1.0,7.m4v,9.0
2024-02-28 11:47:06.437105,1709117226.4371054,-27.83203125,-29.78515625,-41.50390625,-38.0859375,1.0,1.0,0.0,1.0,7.m4v,9.0
2024-02-28 11:47:06.441011,1709117226.4410114,-23.92578125,-36.1328125,-39.55078125,-51.7578125,1.0,1.0,0.0,1.0,7.m4v,9.0
2024-02-28 11:47:06.444917,1709117226.4449172,-41.015625,-41.015625,-36.1328125,-57.12890625,1.0,1.0,0.0,1.0,7.m4v,9.0
2024-02-28 11:47:06.448823,1709117226.4488232,-44.43359375,-39.55078125,-33.69140625,-30.76171875,1.0,1.0,0.0,1.0,7.m4v,9.0
2024-02-28 11:47:06.452729,1709117226.4527292,-42.96875,-36.62109375,-32.71484375,-14.16015625,1.0,1.0,0.0,1.0,7.m4v,9.0
2024-02-28 11:47:06.456631,1709117226.456631,-42.96875,-27.83203125,-30.76171875,-33.69140625,1.0,1.0,0.0,1.0,7.m4v,9.0
2024-02-28 11:47:06.460537,1709117226.460537,-32.71484375,-19.04296875,-31.25,-30.76171875,1.0,1.0,0.0,1.0,7.m4v,9.0
2024-02-28 11:47:06.464443,1709117226.4644427,-25.390625,-21.484375,-34.66796875,-24.90234375,1.0,1.0,0.0,1.0,7.m4v,9.0
2024-02-28 11:47:06.468349,1709117226.4683487,-26.3671875,-28.3203125,-40.52734375,-42.96875,1.0,1.0,0.0,1.0,7.m4v,9.0
2024-02-28 11:47:06.472255,1709117226.4722548,-20.99609375,-27.34375,-43.45703125,-33.203125,1.0,1.0,0.0,1.0,7.m4v,9.0
2024-02-28 11:47:06.476161,1709117226.4761608,-25.390625,-28.80859375,-35.64453125,-31.73828125,1.0,1.0,0.0,1.0,7.m4v,9.0
2024-02-28 11:47:06.480067,1709117226.4800668,-28.3203125,-34.1796875,-25.87890625,-31.25,1.0,1.0,0.0,1.0,7.m4v,9.0
2024-02-28 11:47:06.483973,1709117226.4839728,1.953125,-32.2265625,-30.76171875,-5.37109375,1.0,1.0,0.0,1.0,7.m4v,9.0
2024-02-28 11:47:06.487879,1709117226.4878788,-7.32421875,-31.25,-26.85546875,-15.625,1.0,1.0,0.0,1.0,7.m4v,9.0
2024-02-28 11:47:06.491785,1709117226.4917846,-53.22265625,-33.69140625,-34.66796875,-59.5703125,1.0,1.0,0.0,1.0,7.m4v,9.0
2024-02-28 11:47:06.495691,1709117226.4956906,-48.33984375,-35.64453125,-38.0859375,-55.17578125,1.0,1.0,0.0,1.0,7.m4v,9.0
2024-02-28 11:47:06.499597,1709117226.4995966,-36.1328125,-42.48046875,-30.2734375,-43.9453125,1.0,1.0,0.0,1.0,7.m4v,9.0
2024-02-28 11:47:06.679253,1709117226.679253,-23.4375,-28.80859375,-36.1328125,-45.41015625,1.0,1.0,0.0,1.0,7.m4v,9.0
2024-02-28 11:47:06.687065,1709117226.6870651,-58.59375,-17.578125,-24.90234375,-36.62109375,1.0,1.0,0.0,1.0,7.m4v,9.0
2024-02-28 11:47:06.694872,1709117226.694872,-47.36328125,-36.62109375,-29.296875,-25.87890625,1.0,1.0,0.0,1.0,7.m4v,9.0
2024-02-28 11:47:06.702684,1709117226.7026842,-20.5078125,-37.59765625,-31.25,-33.69140625,1.0,1.0,0.0,1.0,7.m4v,9.0
2024-02-28 11:47:06.710496,1709117226.710496,-31.25,-22.4609375,-36.62109375,-31.25,1.0,1.0,0.0,1.0,7.m4v,9.0
2024-02-28 11:47:06.718308,1709117226.718308,-21.484375,-37.109375,-41.015625,-63.96484375,1.0,1.0,0.0,1.0,7.m4v,9.0
2024-02-28 11:47:06.726120,1709117226.72612,-58.10546875,-27.34375,-46.38671875,-53.22265625,1.0,1.0,0.0,1.0,7.m4v,9.0
2024-02-28 11:47:06.733932,1709117226.7339318,-35.64453125,-30.76171875,-43.45703125,-56.640625,1.0,1.0,0.0,1.0,7.m4v,9.0
2024-02-28 11:47:06.741739,1709117226.7417388,-7.8125,-24.4140625,-30.2734375,-48.828125,1.0,1.0,0.0,1.0,7.m4v,9.0
2024-02-28 11:47:06.749551,1709117226.7495506,-45.8984375,-28.3203125,-38.57421875,-31.73828125,1.0,1.0,0.0,1.0,7.m4v,9.0
2024-02-28 11:47:06.753457,1709117226.7534566,-46.38671875,-36.62109375,-36.1328125,-44.921875,1.0,1.0,0.0,1.0,7.m4v,9.0
2024-02-28 11:47:06.765175,1709117226.7651746,-38.0859375,-27.83203125,-36.62109375,-35.15625,1.0,1.0,0.0,1.0,7.m4v,9.0
2024-02-28 11:47:06.765175,1709117226.7651746,-38.0859375,-27.83203125,-36.62109375,-35.15625,1.0,1.0,0.0,1.0,7.m4v,9.0
2024-02-28 11:47:06.769081,1709117226.7690806,-33.203125,-18.5546875,-40.0390625,-40.52734375,1.0,1.0,0.0,1.0,7.m4v,9.0
2024-02-28 11:47:06.769081,1709117226.7690806,-33.203125,-18.5546875,-40.0390625,-40.52734375,1.0,1.0,0.0,1.0,7.m4v,9.0
2024-02-28 11:47:06.772986,1709117226.7729864,-20.99609375,-17.08984375,-38.57421875,-57.12890625,1.0,1.0,0.0,1.0,7.m4v,9.0
2024-02-28 11:47:06.772986,1709117226.7729864,-20.99609375,-17.08984375,-38.57421875,-57.12890625,1.0,1.0,0.0,1.0,7.m4v,9.0
2024-02-28 11:47:06.776892,1709117226.7768924,-28.3203125,-23.92578125,-30.76171875,-60.546875,1.0,1.0,0.0,1.0,7.m4v,9.0
2024-02-28 11:47:06.776892,1709117226.7768924,-28.3203125,-23.92578125,-30.76171875,-60.546875,1.0,1.0,0.0,1.0,7.m4v,9.0
2024-02-28 11:47:06.780798,1709117226.7807984,-25.87890625,-26.85546875,-32.2265625,-54.19921875,1.0,1.0,0.0,1.0,7.m4v,9.0
2024-02-28 11:47:06.780798,1709117226.7807984,-25.87890625,-26.85546875,-32.2265625,-54.19921875,1.0,1.0,0.0,1.0,7.m4v,9.0
2024-02-28 11:47:06.784700,1709117226.7847002,-21.484375,-24.90234375,-31.73828125,-34.1796875,1.0,1.0,0.0,1.0,7.m4v,9.0
2024-02-28 11:47:06.784700,1709117226.7847002,-21.484375,-24.90234375,-31.73828125,-34.1796875,1.0,1.0,0.0,1.0,7.m4v,9.0
2024-02-28 11:47:06.788606,1709117226.7886062,-35.15625,-22.4609375,-33.203125,-28.80859375,1.0,1.0,0.0,1.0,7.m4v,9.0
2024-02-28 11:47:06.788606,1709117226.7886062,-35.15625,-22.4609375,-33.203125,-28.80859375,1.0,1.0,0.0,1.0,7.m4v,9.0
2024-02-28 11:47:06.792512,1709117226.7925122,-26.85546875,-22.4609375,-39.0625,-26.85546875,1.0,1.0,0.0,1.0,7.m4v,9.0
2024-02-28 11:47:06.792512,1709117226.7925122,-26.85546875,-22.4609375,-39.0625,-26.85546875,1.0,1.0,0.0,1.0,7.m4v,9.0
2024-02-28 11:47:06.796418,1709117226.7964182,-10.7421875,-43.45703125,-40.0390625,-21.97265625,1.0,1.0,0.0,1.0,7.m4v,9.0
2024-02-28 11:47:06.796418,1709117226.7964182,-10.7421875,-43.45703125,-40.0390625,-21.97265625,1.0,1.0,0.0,1.0,7.m4v,9.0
2024-02-28 11:47:06.800324,1709117226.8003242,-16.6015625,-54.6875,-35.15625,-34.1796875,1.0,1.0,0.0,1.0,7.m4v,9.0
2024-02-28 11:47:06.800324,1709117226.8003242,-16.6015625,-54.6875,-35.15625,-34.1796875,1.0,1.0,0.0,1.0,7.m4v,9.0
2024-02-28 11:47:06.804230,1709117226.80423,-27.83203125,-43.45703125,-34.66796875,-45.8984375,1.0,1.0,0.0,1.0,7.m4v,9.0
2024-02-28 11:47:06.804230,1709117226.80423,-27.83203125,-43.45703125,-34.66796875,-45.8984375,1.0,1.0,0.0,1.0,7.m4v,9.0
2024-02-28 11:47:06.808136,1709117226.808136,-28.80859375,-34.66796875,-41.50390625,-32.71484375,1.0,1.0,0.0,1.0,7.m4v,9.0
2024-02-28 11:47:06.808136,1709117226.808136,-28.80859375,-34.66796875,-41.50390625,-32.71484375,1.0,1.0,0.0,1.0,7.m4v,9.0
2024-02-28 11:47:06.812042,1709117226.812042,-21.484375,-18.5546875,-42.48046875,-16.11328125,1.0,1.0,0.0,1.0,7.m4v,9.0
2024-02-28 11:47:06.815948,1709117226.815948,-22.94921875,-18.06640625,-42.48046875,-15.13671875,1.0,1.0,0.0,1.0,7.m4v,9.0
2024-02-28 11:47:07.222127,1709117227.2221272,-27.34375,-26.85546875,-37.59765625,-28.80859375,1.0,1.0,0.0,1.0,7.m4v,9.0
2024-02-28 11:47:07.226033,1709117227.226033,-41.50390625,-24.90234375,-34.66796875,-24.4140625,1.0,1.0,0.0,1.0,7.m4v,9.0
2024-02-28 11:47:07.233845,1709117227.233845,-41.50390625,-28.3203125,-34.66796875,-41.015625,1.0,1.0,0.0,1.0,7.m4v,9.0
2024-02-28 11:47:07.237751,1709117227.237751,-40.0390625,-38.0859375,-32.2265625,-29.78515625,1.0,1.0,0.0,1.0,7.m4v,9.0
2024-02-28 11:47:07.245563,1709117227.245563,-28.3203125,-25.390625,-34.66796875,-47.36328125,1.0,1.0,0.0,1.0,7.m4v,9.0
2024-02-28 11:47:07.374446,1709117227.3744464,-1.953125,-31.25,-38.57421875,-38.57421875,1.0,1.0,0.0,1.0,7.m4v,9.0
2024-02-28 11:47:07.378352,1709117227.3783524,-11.71875,-37.59765625,-44.43359375,-23.92578125,1.0,1.0,0.0,1.0,7.m4v,9.0
2024-02-28 11:47:07.382258,1709117227.3822584,-24.4140625,-27.34375,-36.1328125,8.30078125,1.0,1.0,0.0,1.0,7.m4v,9.0
2024-02-28 11:47:07.386164,1709117227.3861644,-8.7890625,-20.99609375,-29.78515625,8.7890625,1.0,1.0,0.0,1.0,7.m4v,9.0
2024-02-28 11:47:07.390070,1709117227.3900704,-4.39453125,-26.3671875,-41.015625,-55.17578125,1.0,1.0,0.0,1.0,7.m4v,9.0
2024-02-28 11:47:07.393971,1709117227.3939714,-11.23046875,-25.390625,-45.8984375,-60.05859375,1.0,1.0,0.0,1.0,7.m4v,9.0
2024-02-28 11:47:07.397877,1709117227.3978777,-9.27734375,-25.87890625,-36.1328125,-45.41015625,1.0,1.0,0.0,1.0,7.m4v,9.0
2024-02-28 11:47:07.401783,1709117227.4017837,-6.34765625,-27.83203125,-33.203125,-41.9921875,1.0,1.0,0.0,1.0,7.m4v,9.0
2024-02-28 11:47:07.405689,1709117227.4056897,-15.625,-27.83203125,-41.50390625,-29.296875,1.0,1.0,0.0,1.0,7.m4v,9.0
2024-02-28 11:47:07.409595,1709117227.4095953,-18.06640625,-27.34375,-41.50390625,-37.109375,1.0,1.0,0.0,1.0,7.m4v,9.0
2024-02-28 11:47:07.413501,1709117227.4135013,-12.6953125,-25.87890625,-30.76171875,-13.18359375,1.0,1.0,0.0,1.0,7.m4v,9.0
2024-02-28 11:47:07.417407,1709117227.4174073,-23.92578125,-31.73828125,-28.80859375,1.953125,1.0,1.0,0.0,1.0,7.m4v,9.0
2024-02-28 11:47:07.421313,1709117227.4213133,-24.90234375,-35.15625,-32.71484375,-49.31640625,1.0,1.0,0.0,1.0,7.m4v,9.0
2024-02-28 11:47:07.425219,1709117227.4252193,-24.90234375,-38.0859375,-35.15625,-55.17578125,1.0,1.0,0.0,1.0,7.m4v,9.0
2024-02-28 11:47:07.429125,1709117227.4291253,-26.3671875,-48.828125,-35.15625,-31.73828125,1.0,1.0,0.0,1.0,7.m4v,9.0
2024-02-28 11:47:07.433031,1709117227.433031,-23.4375,-37.59765625,-35.15625,-38.0859375,1.0,1.0,0.0,1.0,7.m4v,9.0
2024-02-28 11:47:07.436937,1709117227.436937,-24.4140625,-30.76171875,-33.203125,-44.43359375,1.0,1.0,0.0,1.0,7.m4v,9.0
2024-02-28 11:47:07.440838,1709117227.4408383,-14.16015625,-35.15625,-35.64453125,-30.2734375,1.0,1.0,0.0,1.0,7.m4v,9.0
2024-02-28 11:47:07.444744,1709117227.4447443,-7.32421875,-40.0390625,-44.43359375,-32.71484375,1.0,1.0,0.0,1.0,7.m4v,9.0
2024-02-28 11:47:07.448650,1709117227.44865,-20.99609375,-38.0859375,-30.76171875,-45.8984375,1.0,1.0,0.0,1.0,7.m4v,9.0
2024-02-28 11:47:07.452556,1709117227.452556,-39.55078125,-24.90234375,-21.484375,-42.96875,1.0,1.0,0.0,1.0,7.m4v,9.0
2024-02-28 11:47:07.456462,1709117227.456462,-32.71484375,-26.3671875,-34.1796875,-38.57421875,1.0,1.0,0.0,1.0,7.m4v,9.0
2024-02-28 11:47:07.460368,1709117227.4603682,0.0,-41.015625,-40.0390625,-44.921875,1.0,1.0,0.0,1.0,7.m4v,9.0
2024-02-28 11:47:07.464274,1709117227.4642742,-0.9765625,-38.0859375,-40.0390625,-41.015625,1.0,1.0,0.0,1.0,7.m4v,9.0
2024-02-28 11:47:07.468180,1709117227.4681802,-42.96875,-29.296875,-34.1796875,-39.0625,1.0,1.0,0.0,1.0,7.m4v,9.0
2024-02-28 11:47:07.472086,1709117227.4720862,-53.22265625,-23.92578125,-28.3203125,-35.64453125,1.0,1.0,0.0,1.0,7.m4v,9.0
2024-02-28 11:47:07.475992,1709117227.475992,-39.55078125,-22.4609375,-33.69140625,-19.53125,1.0,1.0,0.0,1.0,7.m4v,9.0
2024-02-28 11:47:07.479898,1709117227.479898,-25.390625,-27.83203125,-31.73828125,-22.4609375,1.0,1.0,0.0,1.0,7.m4v,9.0
2024-02-28 11:47:07.483804,1709117227.483804,-22.94921875,-36.62109375,-33.69140625,-41.015625,1.0,1.0,0.0,1.0,7.m4v,9.0
2024-02-28 11:47:07.487705,1709117227.487705,-45.8984375,-49.8046875,-39.0625,-35.15625,1.0,1.0,0.0,1.0,7.m4v,9.0
2024-02-28 11:47:07.491611,1709117227.4916108,-46.875,-48.33984375,-34.1796875,-31.25,1.0,1.0,0.0,1.0,7.m4v,9.0
2024-02-28 11:47:07.495517,1709117227.4955168,-20.99609375,-41.015625,-34.66796875,-31.73828125,1.0,1.0,0.0,1.0,7.m4v,9.0
2024-02-28 11:47:07.499423,1709117227.4994228,-26.3671875,-38.0859375,-38.0859375,-33.69140625,1.0,1.0,0.0,1.0,7.m4v,9.0
2024-02-28 11:47:07.503329,1709117227.5033288,-50.29296875,-36.1328125,-39.0625,-46.875,1.0,1.0,0.0,1.0,7.m4v,9.0
2024-02-28 11:47:07.507235,1709117227.5072348,-46.38671875,-27.83203125,-37.59765625,-50.29296875,1.0,1.0,0.0,1.0,7.m4v,9.0
2024-02-28 11:47:07.511141,1709117227.5111408,-49.8046875,-29.296875,-43.9453125,-49.8046875,1.0,1.0,0.0,1.0,7.m4v,9.0
2024-02-28 11:47:07.515047,1709117227.5150466,-31.25,-31.73828125,-46.38671875,-39.55078125,1.0,1.0,0.0,1.0,7.m4v,9.0
2024-02-28 11:47:07.518953,1709117227.5189526,-8.30078125,-34.1796875,-37.59765625,-34.66796875,1.0,1.0,0.0,1.0,7.m4v,9.0
2024-02-28 11:47:07.522859,1709117227.5228586,-41.50390625,-48.33984375,-36.62109375,-29.78515625,1.0,1.0,0.0,1.0,7.m4v,9.0
2024-02-28 11:47:07.526765,1709117227.5267646,-60.05859375,-58.59375,-39.0625,-26.3671875,1.0,1.0,0.0,1.0,7.m4v,9.0
2024-02-28 11:47:07.530671,1709117227.5306706,-47.36328125,-46.38671875,-36.62109375,-30.2734375,1.0,1.0,0.0,1.0,7.m4v,9.0
2024-02-28 11:47:07.534571,1709117227.5345714,-34.66796875,-35.64453125,-34.66796875,-33.69140625,1.0,1.0,0.0,1.0,7.m4v,9.0
2024-02-28 11:47:07.538477,1709117227.5384772,-32.2265625,-38.57421875,-40.52734375,-31.25,1.0,1.0,0.0,1.0,7.m4v,9.0
2024-02-28 11:47:07.542383,1709117227.5423832,-26.85546875,-26.85546875,-39.0625,-28.80859375,1.0,1.0,0.0,1.0,7.m4v,9.0
2024-02-28 11:47:07.546289,1709117227.5462892,-26.3671875,-20.01953125,-32.2265625,-42.48046875,1.0,1.0,0.0,1.0,7.m4v,9.0
2024-02-28 11:47:07.550195,1709117227.5501952,-48.33984375,-31.25,-36.1328125,-50.29296875,1.0,1.0,0.0,1.0,7.m4v,9.0
2024-02-28 11:47:07.554101,1709117227.5541012,-45.8984375,-30.2734375,-36.1328125,-43.9453125,1.0,1.0,0.0,1.0,7.m4v,9.0
2024-02-28 11:47:07.558007,1709117227.5580072,-23.92578125,-20.99609375,-35.15625,-40.52734375,1.0,1.0,0.0,1.0,7.m4v,9.0
2024-02-28 11:47:07.561913,1709117227.5619133,-46.38671875,-27.83203125,-38.0859375,-41.9921875,1.0,1.0,0.0,1.0,7.m4v,9.0
2024-02-28 11:47:07.565819,1709117227.565819,-51.26953125,-38.0859375,-37.59765625,-36.1328125,1.0,1.0,0.0,1.0,7.m4v,9.0
2024-02-28 11:47:07.889982,1709117227.8899822,-38.57421875,-33.69140625,-38.57421875,-42.48046875,1.0,1.0,0.0,1.0,7.m4v,9.0
2024-02-28 11:47:07.893888,1709117227.8938882,-36.62109375,-36.62109375,-36.62109375,-62.5,1.0,1.0,0.0,1.0,7.m4v,9.0
2024-02-28 11:47:07.897794,1709117227.8977942,-37.59765625,-42.96875,-38.0859375,-51.26953125,1.0,1.0,0.0,1.0,7.m4v,9.0
2024-02-28 11:47:07.901700,1709117227.9017005,-55.6640625,-48.33984375,-40.0390625,-36.62109375,1.0,1.0,0.0,1.0,7.m4v,9.0
2024-02-28 11:47:07.905606,1709117227.9056065,-48.828125,-46.875,-41.015625,-30.76171875,1.0,1.0,0.0,1.0,7.m4v,9.0
2024-02-28 11:47:07.909508,1709117227.909508,-48.33984375,-55.17578125,-34.1796875,-38.57421875,1.0,1.0,0.0,1.0,7.m4v,9.0
2024-02-28 11:47:07.913414,1709117227.913414,-62.01171875,-52.734375,-34.1796875,-57.12890625,1.0,1.0,0.0,1.0,7.m4v,9.0
2024-02-28 11:47:07.917320,1709117227.91732,-38.0859375,-35.64453125,-45.8984375,-62.01171875,1.0,1.0,0.0,1.0,7.m4v,9.0
2024-02-28 11:47:07.921226,1709117227.921226,-19.04296875,-30.76171875,-44.43359375,-62.01171875,1.0,1.0,0.0,1.0,7.m4v,9.0
2024-02-28 11:47:07.925132,1709117227.925132,-44.921875,-35.15625,-41.50390625,-54.6875,1.0,1.0,0.0,1.0,7.m4v,9.0
2024-02-28 11:47:07.929038,1709117227.929038,-58.10546875,-33.203125,-46.875,-46.38671875,1.0,1.0,0.0,1.0,7.m4v,9.0
2024-02-28 11:47:07.932944,1709117227.9329438,-53.7109375,-30.2734375,-47.8515625,-37.59765625,1.0,1.0,0.0,1.0,7.m4v,9.0
2024-02-28 11:47:07.936850,1709117227.9368498,-33.203125,-30.76171875,-35.15625,-5.859375,1.0,1.0,0.0,1.0,7.m4v,9.0
2024-02-28 11:47:07.940756,1709117227.9407558,-36.1328125,-25.87890625,-24.4140625,-17.08984375,1.0,1.0,0.0,1.0,7.m4v,9.0
2024-02-28 11:47:07.944662,1709117227.944662,-44.921875,-34.1796875,-26.85546875,-58.59375,1.0,1.0,0.0,1.0,7.m4v,9.0
2024-02-28 11:47:07.948568,1709117227.948568,-32.2265625,-44.921875,-29.78515625,-51.26953125,1.0,1.0,0.0,1.0,7.m4v,9.0
2024-02-28 11:47:07.952474,1709117227.952474,-37.109375,-36.1328125,-34.66796875,-39.55078125,1.0,1.0,0.0,1.0,7.m4v,9.0
2024-02-28 11:47:07.956375,1709117227.9563754,-47.8515625,-30.2734375,-32.71484375,-29.296875,1.0,1.0,0.0,1.0,7.m4v,9.0
2024-02-28 11:47:07.971999,1709117227.9719994,-37.59765625,-33.203125,-31.25,-28.3203125,1.0,1.0,0.0,1.0,7.m4v,9.0
2024-02-28 11:47:07.979811,1709117227.9798112,-47.36328125,-27.83203125,-39.55078125,-38.57421875,1.0,1.0,0.0,1.0,7.m4v,9.0
2024-02-28 11:47:07.987623,1709117227.9876232,-33.203125,-34.66796875,-26.85546875,-38.57421875,1.0,1.0,0.0,1.0,7.m4v,9.0
2024-02-28 11:47:07.995435,1709117227.9954352,-32.2265625,-27.83203125,-46.38671875,-43.45703125,1.0,1.0,0.0,1.0,7.m4v,9.0
2024-02-28 11:47:08.167280,1709117228.1672802,-40.52734375,-38.0859375,-42.48046875,-38.0859375,1.0,1.0,0.0,1.0,7.m4v,9.0
2024-02-28 11:47:08.175092,1709117228.175092,-20.01953125,-49.8046875,-30.76171875,-46.38671875,1.0,1.0,0.0,1.0,7.m4v,9.0
2024-02-28 11:47:08.182904,1709117228.182904,-45.8984375,-45.8984375,-46.875,-42.48046875,1.0,1.0,0.0,1.0,7.m4v,9.0
2024-02-28 11:47:08.186810,1709117228.18681,-60.05859375,-42.48046875,-45.41015625,-35.64453125,1.0,1.0,0.0,1.0,7.m4v,9.0
2024-02-28 11:47:08.190711,1709117228.190711,-68.359375,-35.64453125,-28.80859375,-37.59765625,1.0,1.0,0.0,1.0,7.m4v,9.0
2024-02-28 11:47:08.198523,1709117228.198523,-48.828125,-39.0625,-23.4375,-45.41015625,1.0,1.0,0.0,1.0,7.m4v,9.0
2024-02-28 11:47:08.202429,1709117228.202429,-44.43359375,-30.76171875,-23.92578125,-40.52734375,1.0,1.0,0.0,1.0,7.m4v,9.0
2024-02-28 11:47:08.206335,1709117228.206335,-33.69140625,-33.69140625,-36.1328125,-26.3671875,1.0,1.0,0.0,1.0,7.m4v,9.0
2024-02-28 11:47:08.210241,1709117228.210241,-7.32421875,-34.1796875,-32.2265625,-32.2265625,1.0,1.0,0.0,1.0,7.m4v,9.0
2024-02-28 11:47:08.214147,1709117228.2141469,-20.01953125,-35.15625,-33.203125,-43.45703125,1.0,1.0,0.0,1.0,7.m4v,9.0
2024-02-28 11:47:08.218053,1709117228.2180529,-62.01171875,-42.96875,-42.96875,-57.6171875,1.0,1.0,0.0,1.0,7.m4v,9.0
2024-02-28 11:47:08.225865,1709117228.225865,-48.33984375,-17.578125,-35.64453125,-31.25,1.0,1.0,0.0,1.0,7.m4v,9.0
2024-02-28 11:47:08.229771,1709117228.229771,-43.45703125,-27.83203125,-35.15625,-32.2265625,1.0,1.0,0.0,1.0,7.m4v,9.0
2024-02-28 11:47:08.233677,1709117228.233677,-30.76171875,-41.015625,-24.90234375,-32.2265625,1.0,1.0,0.0,1.0,7.m4v,9.0
2024-02-28 11:47:08.237578,1709117228.237578,-45.41015625,-36.1328125,-26.3671875,-41.015625,1.0,1.0,0.0,1.0,7.m4v,9.0
2024-02-28 11:47:08.241484,1709117228.2414837,-22.4609375,-29.78515625,-34.1796875,-40.52734375,1.0,1.0,0.0,1.0,7.m4v,9.0
2024-02-28 11:47:08.245390,1709117228.2453897,-7.8125,-42.48046875,-31.25,-32.71484375,1.0,1.0,0.0,1.0,7.m4v,9.0
2024-02-28 11:47:08.249296,1709117228.2492957,-25.390625,-35.64453125,-22.94921875,-41.50390625,1.0,1.0,0.0,1.0,7.m4v,9.0
2024-02-28 11:47:08.253202,1709117228.2532015,-32.71484375,-25.87890625,-23.92578125,-51.26953125,1.0,1.0,0.0,1.0,7.m4v,9.0
2024-02-28 11:47:08.257108,1709117228.2571075,-20.01953125,-30.76171875,-26.3671875,-31.73828125,1.0,1.0,0.0,1.0,7.m4v,9.0
2024-02-28 11:47:08.261014,1709117228.2610135,-20.5078125,-30.76171875,-30.2734375,-24.90234375,1.0,1.0,0.0,1.0,7.m4v,9.0
2024-02-28 11:47:08.264920,1709117228.2649195,-37.109375,-30.2734375,-30.76171875,-26.85546875,1.0,1.0,0.0,1.0,7.m4v,9.0
2024-02-28 11:47:08.268826,1709117228.2688255,-46.38671875,-31.25,-25.390625,-41.015625,1.0,1.0,0.0,1.0,7.m4v,9.0
2024-02-28 11:47:08.272732,1709117228.2727315,-37.59765625,-32.2265625,-33.203125,-46.875,1.0,1.0,0.0,1.0,7.m4v,9.0
2024-02-28 11:47:08.276638,1709117228.2766376,-23.4375,-34.66796875,-43.45703125,-32.2265625,1.0,1.0,0.0,1.0,7.m4v,9.0
2024-02-28 11:47:08.280544,1709117228.2805436,-27.34375,-33.203125,-41.015625,-40.0390625,1.0,1.0,0.0,1.0,7.m4v,9.0
2024-02-28 11:47:08.284444,1709117228.2844443,-46.875,-34.1796875,-41.9921875,-35.64453125,1.0,1.0,0.0,1.0,7.m4v,9.0
2024-02-28 11:47:08.288350,1709117228.2883503,-54.19921875,-35.64453125,-39.0625,-9.765625,1.0,1.0,0.0,1.0,7.m4v,9.0
2024-02-28 11:47:08.292256,1709117228.2922564,-34.1796875,-37.59765625,-35.64453125,-36.62109375,1.0,1.0,0.0,1.0,7.m4v,9.0
2024-02-28 11:47:08.296162,1709117228.2961624,-31.73828125,-35.15625,-37.59765625,-49.8046875,1.0,1.0,0.0,1.0,7.m4v,9.0
2024-02-28 11:47:08.300068,1709117228.3000684,-33.203125,-39.0625,-27.83203125,-15.625,1.0,1.0,0.0,1.0,7.m4v,9.0
2024-02-28 11:47:08.303974,1709117228.3039742,-25.390625,-38.57421875,-26.85546875,-1.46484375,1.0,1.0,0.0,1.0,7.m4v,9.0
2024-02-28 11:47:08.307880,1709117228.3078802,-25.87890625,-37.109375,-40.0390625,-17.578125,1.0,1.0,0.0,1.0,7.m4v,9.0
2024-02-28 11:47:08.311786,1709117228.3117862,-26.85546875,-43.9453125,-37.109375,-36.1328125,1.0,1.0,0.0,1.0,7.m4v,9.0
2024-02-28 11:47:08.315692,1709117228.3156922,-55.17578125,-35.64453125,-30.2734375,-49.31640625,1.0,1.0,0.0,1.0,7.m4v,9.0
2024-02-28 11:47:08.319598,1709117228.3195982,-51.26953125,-28.3203125,-35.15625,-39.55078125,1.0,1.0,0.0,1.0,7.m4v,9.0
2024-02-28 11:47:08.323504,1709117228.3235042,-29.296875,-27.83203125,-37.109375,-12.20703125,1.0,1.0,0.0,1.0,7.m4v,9.0
2024-02-28 11:47:08.327410,1709117228.3274102,-44.43359375,-29.78515625,-39.0625,-32.71484375,1.0,1.0,0.0,1.0,7.m4v,9.0
2024-02-28 11:47:08.331312,1709117228.331312,-43.45703125,-30.2734375,-35.15625,-34.1796875,1.0,1.0,0.0,1.0,7.m4v,9.0
2024-02-28 11:47:08.335218,1709117228.335218,-20.99609375,-23.92578125,-32.71484375,-30.76171875,1.0,1.0,0.0,1.0,7.m4v,9.0
2024-02-28 11:47:08.339124,1709117228.3391235,-38.57421875,-21.484375,-33.69140625,-42.96875,1.0,1.0,0.0,1.0,7.m4v,9.0
2024-02-28 11:47:08.343030,1709117228.3430295,-52.24609375,-33.69140625,-30.76171875,-41.50390625,1.0,1.0,0.0,1.0,7.m4v,9.0
2024-02-28 11:47:08.346936,1709117228.3469355,-44.921875,-44.43359375,-37.109375,-49.31640625,1.0,1.0,0.0,1.0,7.m4v,9.0
2024-02-28 11:47:08.350842,1709117228.3508418,-39.0625,-41.50390625,-32.71484375,-41.50390625,1.0,1.0,0.0,1.0,7.m4v,9.0
2024-02-28 11:47:08.354748,1709117228.3547478,-46.38671875,-32.71484375,-33.69140625,-15.13671875,1.0,1.0,0.0,1.0,7.m4v,9.0
2024-02-28 11:47:08.358654,1709117228.3586538,-42.96875,-30.2734375,-43.9453125,-14.6484375,1.0,1.0,0.0,1.0,7.m4v,9.0
2024-02-28 11:47:08.362560,1709117228.3625596,-25.390625,-30.2734375,-41.015625,-48.33984375,1.0,1.0,0.0,1.0,7.m4v,9.0
2024-02-28 11:47:08.366466,1709117228.3664656,-26.3671875,-33.203125,-37.109375,-36.1328125,1.0,1.0,0.0,1.0,7.m4v,9.0
2024-02-28 11:47:08.370372,1709117228.3703716,-28.3203125,-36.1328125,-38.57421875,-11.71875,1.0,1.0,0.0,1.0,7.m4v,9.0
2024-02-28 11:47:08.374278,1709117228.3742776,-42.48046875,-40.52734375,-40.52734375,-26.3671875,1.0,1.0,0.0,1.0,7.m4v,9.0
2024-02-28 11:47:08.378179,1709117228.378179,-46.875,-46.38671875,-33.203125,-35.64453125,1.0,1.0,0.0,1.0,7.m4v,9.0
2024-02-28 11:47:08.385991,1709117228.385991,-39.55078125,-27.34375,-30.76171875,-46.38671875,1.0,1.0,0.0,1.0,7.m4v,9.0
2024-02-28 11:47:08.389897,1709117228.389897,-38.0859375,-35.64453125,-33.69140625,-45.8984375,1.0,1.0,0.0,1.0,7.m4v,9.0
2024-02-28 11:47:08.393803,1709117228.3938031,-32.71484375,-45.8984375,-39.55078125,-41.015625,1.0,1.0,0.0,1.0,7.m4v,9.0
2024-02-28 11:47:08.397709,1709117228.3977091,-40.52734375,-39.55078125,-39.0625,-34.1796875,1.0,1.0,0.0,1.0,7.m4v,9.0
2024-02-28 11:47:08.401615,1709117228.401615,-27.34375,-26.85546875,-36.1328125,-41.9921875,1.0,1.0,0.0,1.0,7.m4v,9.0
2024-02-28 11:47:08.405521,1709117228.405521,-21.484375,-22.4609375,-38.57421875,-33.69140625,1.0,1.0,0.0,1.0,7.m4v,9.0
2024-02-28 11:47:08.409427,1709117228.409427,-41.9921875,-29.296875,-36.62109375,-33.69140625,1.0,1.0,0.0,1.0,7.m4v,9.0
2024-02-28 11:47:08.413333,1709117228.413333,-41.50390625,-33.203125,-31.25,-21.97265625,1.0,1.0,0.0,1.0,7.m4v,9.0
2024-02-28 11:47:08.417239,1709117228.417239,-33.69140625,-25.87890625,-36.62109375,-28.3203125,1.0,1.0,0.0,1.0,7.m4v,9.0
2024-02-28 11:47:08.421145,1709117228.421145,-22.4609375,-33.203125,-42.48046875,-43.45703125,1.0,1.0,0.0,1.0,7.m4v,9.0
2024-02-28 11:47:08.425046,1709117228.4250464,-19.53125,-41.015625,-38.0859375,-44.43359375,1.0,1.0,0.0,1.0,7.m4v,9.0
2024-02-28 11:47:08.428952,1709117228.4289522,-17.578125,-30.76171875,-35.15625,-33.203125,1.0,1.0,0.0,1.0,7.m4v,9.0
2024-02-28 11:47:08.432858,1709117228.4328582,-16.11328125,-28.3203125,-39.0625,-13.671875,1.0,1.0,0.0,1.0,7.m4v,9.0
2024-02-28 11:47:08.436764,1709117228.4367642,-9.27734375,-24.4140625,-39.55078125,-37.59765625,1.0,1.0,0.0,1.0,7.m4v,9.0
2024-02-28 11:47:08.440670,1709117228.4406705,-16.11328125,-13.18359375,-30.2734375,-41.9921875,1.0,1.0,0.0,1.0,7.m4v,9.0
2024-02-28 11:47:08.444576,1709117228.4445765,-34.66796875,-23.4375,-30.76171875,-25.87890625,1.0,1.0,0.0,1.0,7.m4v,9.0
2024-02-28 11:47:08.448482,1709117228.4484825,-42.48046875,-34.66796875,-32.2265625,-27.34375,1.0,1.0,0.0,1.0,7.m4v,9.0
2024-02-28 11:47:08.452388,1709117228.4523883,-53.7109375,-35.15625,-24.90234375,-26.85546875,1.0,1.0,0.0,1.0,7.m4v,9.0
2024-02-28 11:47:08.456294,1709117228.456294,-58.10546875,-37.109375,-21.97265625,-20.01953125,1.0,1.0,0.0,1.0,7.m4v,9.0
2024-02-28 11:47:08.460200,1709117228.4602,-49.31640625,-33.203125,-26.3671875,-47.8515625,1.0,1.0,0.0,1.0,7.m4v,9.0
2024-02-28 11:47:08.464106,1709117228.464106,-34.1796875,-30.76171875,-27.34375,-51.7578125,1.0,1.0,0.0,1.0,7.m4v,9.0
2024-02-28 11:47:08.858567,1709117228.8585677,-24.90234375,-33.203125,-33.203125,-30.76171875,1.0,1.0,0.0,1.0,7.m4v,9.0
2024-02-28 11:47:08.862473,1709117228.8624735,-21.484375,-32.2265625,-40.52734375,2.44140625,1.0,1.0,0.0,1.0,7.m4v,9.0
2024-02-28 11:47:08.866379,1709117228.8663795,-35.15625,-23.92578125,-30.2734375,-38.57421875,1.0,1.0,0.0,1.0,7.m4v,9.0
2024-02-28 11:47:08.870286,1709117228.8702855,-31.25,-30.2734375,-24.90234375,-52.24609375,1.0,1.0,0.0,1.0,7.m4v,9.0
2024-02-28 11:47:08.874192,1709117228.8741915,-50.78125,-50.29296875,-28.3203125,-44.921875,1.0,1.0,0.0,1.0,7.m4v,9.0
2024-02-28 11:47:08.878097,1709117228.8780973,-38.0859375,-50.29296875,-32.2265625,-48.33984375,1.0,1.0,0.0,1.0,7.m4v,9.0
2024-02-28 11:47:08.882003,1709117228.8820033,-33.69140625,-38.57421875,-49.31640625,-43.9453125,1.0,1.0,0.0,1.0,7.m4v,9.0
2024-02-28 11:47:08.885909,1709117228.8859093,-36.1328125,-39.0625,-42.96875,-20.99609375,1.0,1.0,0.0,1.0,7.m4v,9.0
2024-02-28 11:47:08.889815,1709117228.889815,-31.25,-46.38671875,-26.85546875,-24.90234375,1.0,1.0,0.0,1.0,7.m4v,9.0
2024-02-28 11:47:08.893717,1709117228.8937166,-53.22265625,-41.50390625,-29.78515625,-34.1796875,1.0,1.0,0.0,1.0,7.m4v,9.0
2024-02-28 11:47:08.897623,1709117228.8976226,-51.7578125,-29.78515625,-23.92578125,-27.83203125,1.0,1.0,0.0,1.0,7.m4v,9.0
2024-02-28 11:47:08.901528,1709117228.9015284,-40.0390625,-22.4609375,-31.25,-55.17578125,1.0,1.0,0.0,1.0,7.m4v,9.0
2024-02-28 11:47:08.905434,1709117228.9054344,-44.43359375,-28.80859375,-43.45703125,-55.17578125,1.0,1.0,0.0,1.0,7.m4v,9.0
2024-02-28 11:47:08.909340,1709117228.9093404,-46.875,-46.38671875,-40.52734375,-29.78515625,1.0,1.0,0.0,1.0,7.m4v,9.0
2024-02-28 11:47:08.913246,1709117228.9132464,-33.203125,-41.015625,-39.55078125,-41.015625,1.0,1.0,0.0,1.0,7.m4v,9.0
2024-02-28 11:47:08.917152,1709117228.9171524,-11.71875,-26.85546875,-37.59765625,-42.96875,1.0,1.0,0.0,1.0,7.m4v,9.0
2024-02-28 11:47:08.921058,1709117228.9210584,-2.44140625,-31.73828125,-36.1328125,-48.828125,1.0,1.0,0.0,1.0,7.m4v,9.0
2024-02-28 11:47:08.924964,1709117228.9249644,-25.390625,-38.0859375,-26.3671875,-32.2265625,1.0,1.0,0.0,1.0,7.m4v,9.0
2024-02-28 11:47:08.928870,1709117228.9288702,-34.66796875,-33.69140625,-20.5078125,-15.13671875,1.0,1.0,0.0,1.0,7.m4v,9.0
2024-02-28 11:47:08.932776,1709117228.9327762,-34.66796875,-35.15625,-30.76171875,-21.97265625,1.0,1.0,0.0,1.0,7.m4v,9.0
2024-02-28 11:47:08.932776,1709117228.9327762,-34.66796875,-35.15625,-30.76171875,-21.97265625,1.0,1.0,0.0,1.0,7.m4v,9.0
2024-02-28 11:47:08.936682,1709117228.9366822,-49.31640625,-37.59765625,-34.66796875,-27.34375,1.0,1.0,0.0,1.0,7.m4v,9.0
2024-02-28 11:47:08.936682,1709117228.9366822,-49.31640625,-37.59765625,-34.66796875,-27.34375,1.0,1.0,0.0,1.0,7.m4v,9.0
2024-02-28 11:47:08.940583,1709117228.9405837,-42.48046875,-33.69140625,-39.55078125,-52.24609375,1.0,1.0,0.0,1.0,7.m4v,9.0
2024-02-28 11:47:08.940583,1709117228.9405837,-42.48046875,-33.69140625,-39.55078125,-52.24609375,1.0,1.0,0.0,1.0,7.m4v,9.0
2024-02-28 11:47:08.944489,1709117228.9444892,-12.6953125,-26.85546875,-37.59765625,-38.57421875,1.0,1.0,0.0,1.0,7.m4v,9.0
2024-02-28 11:47:08.956207,1709117228.9562073,-27.34375,-35.64453125,-39.55078125,-33.69140625,1.0,1.0,0.0,1.0,7.m4v,9.0
2024-02-28 11:47:08.960113,1709117228.9601133,-11.71875,-36.1328125,-33.69140625,-34.66796875,1.0,1.0,0.0,1.0,7.m4v,9.0
2024-02-28 11:47:08.964019,1709117228.9640193,-20.5078125,-29.296875,-36.1328125,-56.640625,1.0,1.0,0.0,1.0,7.m4v,9.0
2024-02-28 11:47:09.096808,1709117229.096808,-39.55078125,-28.3203125,-26.85546875,-17.578125,1.0,1.0,0.0,1.0,7.m4v,9.0
2024-02-28 11:47:09.104620,1709117229.10462,-59.08203125,-27.83203125,-23.4375,-44.921875,1.0,1.0,0.0,1.0,7.m4v,9.0
2024-02-28 11:47:09.104620,1709117229.10462,-59.08203125,-27.83203125,-23.4375,-44.921875,1.0,1.0,0.0,1.0,7.m4v,9.0
2024-02-28 11:47:09.112432,1709117229.1124318,-45.41015625,-27.83203125,-24.90234375,-47.8515625,1.0,1.0,0.0,1.0,7.m4v,9.0
2024-02-28 11:47:09.112432,1709117229.1124318,-45.41015625,-27.83203125,-24.90234375,-47.8515625,1.0,1.0,0.0,1.0,7.m4v,9.0
2024-02-28 11:47:09.120244,1709117229.1202438,-47.36328125,-41.9921875,-28.3203125,-30.76171875,1.0,1.0,0.0,1.0,7.m4v,9.0
2024-02-28 11:47:09.120244,1709117229.1202438,-47.36328125,-41.9921875,-28.3203125,-30.76171875,1.0,1.0,0.0,1.0,7.m4v,9.0
2024-02-28 11:47:09.128051,1709117229.1280513,-12.6953125,-35.15625,-26.3671875,-34.1796875,1.0,1.0,0.0,1.0,7.m4v,9.0
2024-02-28 11:47:09.128051,1709117229.1280513,-12.6953125,-35.15625,-26.3671875,-34.1796875,1.0,1.0,0.0,1.0,7.m4v,9.0
2024-02-28 11:47:09.135863,1709117229.1358633,-51.7578125,-35.15625,-32.71484375,-57.12890625,1.0,1.0,0.0,1.0,7.m4v,9.0
2024-02-28 11:47:09.143675,1709117229.143675,-43.9453125,-28.80859375,-31.73828125,-62.98828125,1.0,1.0,0.0,1.0,7.m4v,9.0
2024-02-28 11:47:09.151487,1709117229.151487,-45.8984375,-32.2265625,-32.2265625,-11.71875,1.0,1.0,0.0,1.0,7.m4v,9.0
2024-02-28 11:47:09.159299,1709117229.1592991,-50.78125,-53.7109375,-28.3203125,-50.29296875,1.0,1.0,0.0,1.0,7.m4v,9.0
2024-02-28 11:47:09.167111,1709117229.1671112,-33.203125,-34.1796875,-36.62109375,-33.69140625,1.0,1.0,0.0,1.0,7.m4v,9.0
2024-02-28 11:47:09.174919,1709117229.174919,-30.76171875,-34.1796875,-31.73828125,-48.33984375,1.0,1.0,0.0,1.0,7.m4v,9.0
2024-02-28 11:47:09.182730,1709117229.1827304,-41.50390625,-37.59765625,-25.390625,-52.734375,1.0,1.0,0.0,1.0,7.m4v,9.0
2024-02-28 11:47:09.194448,1709117229.1944485,-29.78515625,-48.828125,-28.80859375,-35.15625,1.0,1.0,0.0,1.0,7.m4v,9.0
2024-02-28 11:47:09.198354,1709117229.1983545,-68.359375,-24.4140625,-38.57421875,-9.27734375,1.0,1.0,0.0,1.0,7.m4v,9.0
2024-02-28 11:47:09.213978,1709117229.2139783,-37.109375,-26.3671875,-31.73828125,-56.15234375,1.0,1.0,0.0,1.0,7.m4v,9.0
2024-02-28 11:47:09.366292,1709117229.3662922,-33.203125,-26.3671875,-38.0859375,-80.078125,1.0,1.0,0.0,1.0,7.m4v,9.0
2024-02-28 11:47:09.381916,1709117229.3819163,-28.3203125,-33.203125,-33.69140625,-39.0625,1.0,1.0,0.0,1.0,7.m4v,9.0
2024-02-28 11:47:09.389728,1709117229.389728,-45.41015625,-31.73828125,-45.41015625,-35.64453125,1.0,1.0,0.0,1.0,7.m4v,9.0
2024-02-28 11:47:09.405352,1709117229.405352,-28.3203125,-47.36328125,-35.15625,-43.9453125,1.0,1.0,0.0,1.0,7.m4v,9.0
2024-02-28 11:47:09.413160,1709117229.41316,-51.7578125,-18.5546875,-36.62109375,-11.71875,1.0,1.0,0.0,1.0,7.m4v,9.0
2024-02-28 11:47:09.428784,1709117229.428784,-32.2265625,-29.296875,-34.66796875,-26.85546875,1.0,1.0,0.0,1.0,7.m4v,9.0
2024-02-28 11:47:09.436596,1709117229.436596,-53.22265625,-39.55078125,-36.1328125,-48.828125,1.0,1.0,0.0,1.0,7.m4v,9.0
2024-02-28 11:47:09.452220,1709117229.4522195,-33.69140625,-32.71484375,-32.2265625,-43.45703125,1.0,1.0,0.0,1.0,7.m4v,9.0
2024-02-28 11:47:09.460027,1709117229.4600277,-18.06640625,-41.015625,-19.53125,-24.90234375,1.0,1.0,0.0,1.0,7.m4v,9.0
2024-02-28 11:47:09.467839,1709117229.4678397,-27.83203125,-30.2734375,-24.4140625,-24.90234375,1.0,1.0,0.0,1.0,7.m4v,9.0
2024-02-28 11:47:09.475651,1709117229.4756513,-28.80859375,-20.01953125,-28.80859375,-48.828125,1.0,1.0,0.0,1.0,7.m4v,9.0
2024-02-28 11:47:09.483463,1709117229.4834633,-21.97265625,-31.73828125,-31.25,-33.69140625,1.0,1.0,0.0,1.0,7.m4v,9.0
2024-02-28 11:47:09.491275,1709117229.4912753,-20.01953125,-31.73828125,-34.1796875,-40.0390625,1.0,1.0,0.0,1.0,7.m4v,9.0
2024-02-28 11:47:09.499087,1709117229.499087,-34.66796875,-34.1796875,-34.1796875,-10.25390625,1.0,1.0,0.0,1.0,7.m4v,9.0
2024-02-28 11:47:09.506895,1709117229.5068948,-19.04296875,-25.87890625,-34.66796875,-38.57421875,1.0,1.0,0.0,1.0,7.m4v,9.0
2024-02-28 11:47:09.514707,1709117229.5147066,-34.66796875,-29.78515625,-34.1796875,-37.59765625,1.0,1.0,0.0,1.0,7.m4v,9.0
2024-02-28 11:47:09.522519,1709117229.5225186,-19.53125,-34.66796875,-16.11328125,-26.85546875,1.0,1.0,0.0,1.0,7.m4v,9.0
2024-02-28 11:47:09.530331,1709117229.530331,-33.69140625,-30.2734375,-23.92578125,-25.390625,1.0,1.0,0.0,1.0,7.m4v,9.0
2024-02-28 11:47:09.538142,1709117229.5381424,-34.1796875,-28.80859375,-34.1796875,-45.8984375,1.0,1.0,0.0,1.0,7.m4v,9.0
2024-02-28 11:47:09.545954,1709117229.5459545,-24.90234375,-26.3671875,-23.92578125,-35.64453125,1.0,1.0,0.0,1.0,7.m4v,9.0
2024-02-28 11:47:09.557668,1709117229.557668,-20.5078125,-32.71484375,-34.1796875,-33.69140625,1.0,1.0,0.0,1.0,7.m4v,9.0
2024-02-28 11:47:09.565480,1709117229.5654798,-28.3203125,-26.85546875,-33.69140625,-47.8515625,1.0,1.0,0.0,1.0,7.m4v,9.0
2024-02-28 11:47:09.573292,1709117229.5732918,-8.7890625,-35.64453125,-42.96875,-19.04296875,1.0,1.0,0.0,1.0,7.m4v,9.0
2024-02-28 11:47:09.585010,1709117229.5850098,-33.69140625,-38.0859375,-27.83203125,-39.55078125,1.0,1.0,0.0,1.0,7.m4v,9.0
2024-02-28 11:47:09.592822,1709117229.5928216,-33.69140625,-38.57421875,-27.34375,-43.9453125,1.0,1.0,0.0,1.0,7.m4v,9.0
2024-02-28 11:47:09.600629,1709117229.600629,-37.59765625,-43.9453125,-31.25,-51.26953125,1.0,1.0,0.0,1.0,7.m4v,9.0
2024-02-28 11:47:09.612347,1709117229.6123471,-26.85546875,-33.203125,-34.66796875,-52.24609375,1.0,1.0,0.0,1.0,7.m4v,9.0
2024-02-28 11:47:09.616253,1709117229.6162531,-12.6953125,-25.87890625,-33.69140625,-35.64453125,1.0,1.0,0.0,1.0,7.m4v,9.0
2024-02-28 11:47:09.620159,1709117229.620159,-20.99609375,-28.3203125,-35.15625,-21.484375,1.0,1.0,0.0,1.0,7.m4v,9.0
2024-02-28 11:47:09.624065,1709117229.624065,-28.3203125,-30.2734375,-36.62109375,-17.08984375,1.0,1.0,0.0,1.0,7.m4v,9.0
2024-02-28 11:47:09.627971,1709117229.627971,-23.4375,-33.203125,-40.0390625,-31.73828125,1.0,1.0,0.0,1.0,7.m4v,9.0
2024-02-28 11:47:09.635783,1709117229.635783,-35.64453125,-35.64453125,-40.52734375,-51.26953125,1.0,1.0,0.0,1.0,7.m4v,9.0
2024-02-28 11:47:09.639689,1709117229.639689,-24.4140625,-30.2734375,-37.109375,-47.36328125,1.0,1.0,0.0,1.0,7.m4v,9.0
2024-02-28 11:47:09.643590,1709117229.64359,-20.01953125,-32.71484375,-33.203125,-32.71484375,1.0,1.0,0.0,1.0,7.m4v,9.0
2024-02-28 11:47:09.647496,1709117229.647496,-21.97265625,-40.0390625,-28.80859375,-41.50390625,1.0,1.0,0.0,1.0,7.m4v,9.0
2024-02-28 11:47:09.651402,1709117229.651402,-14.6484375,-36.62109375,-31.73828125,-43.9453125,1.0,1.0,0.0,1.0,7.m4v,9.0
2024-02-28 11:47:09.655308,1709117229.655308,-36.62109375,-27.83203125,-32.2265625,-37.59765625,1.0,1.0,0.0,1.0,7.m4v,9.0
2024-02-28 11:47:09.659214,1709117229.659214,-45.8984375,-29.78515625,-32.2265625,-34.1796875,1.0,1.0,0.0,1.0,7.m4v,9.0
2024-02-28 11:47:09.663120,1709117229.66312,-38.0859375,-27.34375,-32.2265625,-39.55078125,1.0,1.0,0.0,1.0,7.m4v,9.0
2024-02-28 11:47:09.667026,1709117229.667026,-41.9921875,-28.3203125,-35.64453125,-43.9453125,1.0,1.0,0.0,1.0,7.m4v,9.0
2024-02-28 11:47:09.670932,1709117229.6709318,-52.734375,-31.73828125,-37.109375,-36.62109375,1.0,1.0,0.0,1.0,7.m4v,9.0
2024-02-28 11:47:09.674838,1709117229.6748378,-43.9453125,-29.78515625,-34.66796875,-20.5078125,1.0,1.0,0.0,1.0,7.m4v,9.0
2024-02-28 11:47:09.678744,1709117229.6787438,-38.0859375,-30.2734375,-30.2734375,-24.90234375,1.0,1.0,0.0,1.0,7.m4v,9.0
2024-02-28 11:47:09.682650,1709117229.68265,-36.62109375,-29.296875,-38.57421875,-47.8515625,1.0,1.0,0.0,1.0,7.m4v,9.0
2024-02-28 11:47:09.686556,1709117229.686556,-23.4375,-26.3671875,-44.43359375,-28.80859375,1.0,1.0,0.0,1.0,7.m4v,9.0
2024-02-28 11:47:09.690457,1709117229.6904569,-28.3203125,-23.92578125,-32.71484375,-19.04296875,1.0,1.0,0.0,1.0,7.m4v,9.0
2024-02-28 11:47:09.706081,1709117229.706081,-40.0390625,-31.73828125,-25.390625,-35.64453125,1.0,1.0,0.0,1.0,7.m4v,9.0
2024-02-28 11:47:09.709987,1709117229.7099867,-47.8515625,-28.3203125,-27.83203125,-20.01953125,1.0,1.0,0.0,1.0,7.m4v,9.0
2024-02-28 11:47:09.713893,1709117229.7138927,-48.33984375,-29.78515625,-34.1796875,-65.4296875,1.0,1.0,0.0,1.0,7.m4v,9.0
2024-02-28 11:47:09.717799,1709117229.7177987,-28.80859375,-38.57421875,-44.43359375,-82.51953125,1.0,1.0,0.0,1.0,7.m4v,9.0
2024-02-28 11:47:09.721705,1709117229.7217047,-16.6015625,-33.203125,-49.31640625,-56.15234375,1.0,1.0,0.0,1.0,7.m4v,9.0
2024-02-28 11:47:09.725611,1709117229.7256107,-31.25,-33.69140625,-45.41015625,-38.57421875,1.0,1.0,0.0,1.0,7.m4v,9.0
2024-02-28 11:47:09.729517,1709117229.7295167,-51.7578125,-45.41015625,-42.48046875,-44.43359375,1.0,1.0,0.0,1.0,7.m4v,9.0
2024-02-28 11:47:09.733423,1709117229.7334225,-60.05859375,-40.0390625,-38.57421875,-46.38671875,1.0,1.0,0.0,1.0,7.m4v,9.0
2024-02-28 11:47:09.737324,1709117229.7373238,-54.6875,-41.9921875,-31.73828125,-30.2734375,1.0,1.0,0.0,1.0,7.m4v,9.0
2024-02-28 11:47:09.741230,1709117229.7412298,-40.0390625,-48.33984375,-31.73828125,-37.109375,1.0,1.0,0.0,1.0,7.m4v,9.0
2024-02-28 11:47:09.745136,1709117229.7451355,-27.34375,-32.71484375,-34.66796875,-50.29296875,1.0,1.0,0.0,1.0,7.m4v,9.0
2024-02-28 11:47:09.749042,1709117229.7490416,-35.15625,-33.69140625,-32.71484375,-44.921875,1.0,1.0,0.0,1.0,7.m4v,9.0
2024-02-28 11:47:09.752948,1709117229.7529476,-32.71484375,-39.0625,-32.2265625,-28.3203125,1.0,1.0,0.0,1.0,7.m4v,9.0
2024-02-28 11:47:09.756854,1709117229.7568536,-32.71484375,-24.4140625,-29.78515625,-32.71484375,1.0,1.0,0.0,1.0,7.m4v,9.0
2024-02-28 11:47:09.760760,1709117229.7607596,-38.57421875,-27.83203125,-27.83203125,-39.55078125,1.0,1.0,0.0,1.0,7.m4v,9.0
2024-02-28 11:47:09.764666,1709117229.7646656,-33.69140625,-42.96875,-33.203125,-30.76171875,1.0,1.0,0.0,1.0,7.m4v,9.0
2024-02-28 11:47:09.768571,1709117229.7685714,-30.76171875,-42.48046875,-40.52734375,-40.0390625,1.0,1.0,0.0,1.0,7.m4v,9.0
2024-02-28 11:47:09.811532,1709117229.8115325,-34.66796875,-43.9453125,-46.875,-35.15625,1.0,1.0,0.0,1.0,7.m4v,9.0
2024-02-28 11:47:09.823250,1709117229.82325,-45.41015625,-26.85546875,-27.34375,-22.94921875,1.0,1.0,0.0,1.0,7.m4v,9.0
2024-02-28 11:47:09.870118,1709117229.8701177,-31.25,-28.3203125,-36.1328125,-29.296875,1.0,1.0,0.0,1.0,7.m4v,9.0
2024-02-28 11:47:09.874024,1709117229.8740237,-38.0859375,-24.90234375,-32.71484375,-34.1796875,1.0,1.0,0.0,1.0,7.m4v,9.0
2024-02-28 11:47:09.877925,1709117229.8779252,-39.55078125,-22.94921875,-40.52734375,-41.015625,1.0,1.0,0.0,1.0,7.m4v,9.0
2024-02-28 11:47:09.881831,1709117229.8818312,-38.0859375,-27.83203125,-41.015625,-26.3671875,1.0,1.0,0.0,1.0,7.m4v,9.0
2024-02-28 11:47:09.885737,1709117229.8857372,-50.78125,-37.59765625,-29.78515625,-45.8984375,1.0,1.0,0.0,1.0,7.m4v,9.0
2024-02-28 11:47:09.889643,1709117229.8896432,-48.33984375,-41.015625,-32.2265625,-69.82421875,1.0,1.0,0.0,1.0,7.m4v,9.0
2024-02-28 11:47:09.893549,1709117229.893549,-43.9453125,-43.9453125,-40.52734375,-55.6640625,1.0,1.0,0.0,1.0,7.m4v,9.0
2024-02-28 11:47:09.897455,1709117229.897455,-28.3203125,-46.38671875,-41.50390625,-36.62109375,1.0,1.0,0.0,1.0,7.m4v,9.0
2024-02-28 11:47:09.901361,1709117229.901361,-39.0625,-43.45703125,-36.62109375,-32.2265625,1.0,1.0,0.0,1.0,7.m4v,9.0
2024-02-28 11:47:09.905267,1709117229.905267,-43.45703125,-42.48046875,-35.15625,-42.48046875,1.0,1.0,0.0,1.0,7.m4v,9.0
2024-02-28 11:47:09.909173,1709117229.909173,-26.85546875,-47.36328125,-38.0859375,-48.828125,1.0,1.0,0.0,1.0,7.m4v,9.0
2024-02-28 11:47:09.913079,1709117229.913079,-33.69140625,-51.7578125,-40.0390625,-41.50390625,1.0,1.0,0.0,1.0,7.m4v,9.0
2024-02-28 11:47:09.916985,1709117229.916985,-41.9921875,-43.9453125,-39.55078125,-29.78515625,1.0,1.0,0.0,1.0,7.m4v,9.0
2024-02-28 11:47:09.920891,1709117229.9208908,-52.24609375,-41.015625,-41.015625,-40.52734375,1.0,1.0,0.0,1.0,7.m4v,9.0
2024-02-28 11:47:09.924792,1709117229.9247923,-56.15234375,-44.43359375,-36.1328125,-54.19921875,1.0,1.0,0.0,1.0,7.m4v,9.0
2024-02-28 11:47:09.928698,1709117229.9286983,-44.921875,-40.0390625,-27.83203125,-44.43359375,1.0,1.0,0.0,1.0,7.m4v,9.0
2024-02-28 11:47:09.932604,1709117229.9326043,-40.0390625,-33.69140625,-28.3203125,-16.11328125,1.0,1.0,0.0,1.0,7.m4v,9.0
2024-02-28 11:47:09.936510,1709117229.9365103,-44.43359375,-31.73828125,-30.2734375,-23.92578125,1.0,1.0,0.0,1.0,7.m4v,9.0
2024-02-28 11:47:09.940416,1709117229.940416,-36.62109375,-31.25,-37.59765625,-62.01171875,1.0,1.0,0.0,1.0,7.m4v,9.0
2024-02-28 11:47:09.944322,1709117229.944322,-26.3671875,-24.4140625,-36.1328125,-56.15234375,1.0,1.0,0.0,1.0,7.m4v,9.0
2024-02-28 11:47:09.948228,1709117229.948228,-42.96875,-24.4140625,-32.2265625,-46.875,1.0,1.0,0.0,1.0,7.m4v,9.0
2024-02-28 11:47:09.952134,1709117229.952134,-37.59765625,-30.2734375,-31.25,-36.62109375,1.0,1.0,0.0,1.0,7.m4v,9.0
2024-02-28 11:47:09.956040,1709117229.95604,-28.3203125,-38.57421875,-27.83203125,-23.92578125,1.0,1.0,0.0,1.0,7.m4v,9.0
2024-02-28 11:47:09.959946,1709117229.9599462,-48.828125,-37.59765625,-32.2265625,-35.64453125,1.0,1.0,0.0,1.0,7.m4v,9.0
2024-02-28 11:47:09.963852,1709117229.9638522,-55.17578125,-36.1328125,-36.62109375,-55.17578125,1.0,1.0,0.0,1.0,7.m4v,9.0
2024-02-28 11:47:09.967758,1709117229.967758,-42.48046875,-33.203125,-35.64453125,-32.2265625,1.0,1.0,0.0,1.0,7.m4v,9.0
2024-02-28 11:47:09.971659,1709117229.9716594,-49.8046875,-40.52734375,-43.9453125,-27.83203125,1.0,1.0,0.0,1.0,7.m4v,9.0
2024-02-28 11:47:09.987283,1709117229.9872837,-47.8515625,-44.43359375,-31.25,-41.015625,1.0,1.0,0.0,1.0,7.m4v,9.0
2024-02-28 11:47:09.999001,1709117229.9990013,-41.9921875,-26.85546875,-31.25,-29.78515625,1.0,1.0,0.0,1.0,7.m4v,9.0
2024-02-28 11:47:10.010719,1709117230.0107193,-36.1328125,-32.71484375,-33.203125,-44.921875,1.0,1.0,0.0,1.0,7.m4v,9.0
2024-02-28 11:47:10.022433,1709117230.0224326,-44.921875,-23.4375,-34.66796875,-62.5,1.0,1.0,0.0,1.0,7.m4v,9.0
2024-02-28 11:47:10.034150,1709117230.0341504,-55.6640625,-40.52734375,-39.0625,-38.0859375,1.0,1.0,0.0,1.0,7.m4v,9.0
2024-02-28 11:47:10.038056,1709117230.0380564,-29.78515625,-36.62109375,-28.80859375,-35.15625,1.0,1.0,0.0,1.0,7.m4v,9.0
2024-02-28 11:47:10.389563,1709117230.3895628,-36.1328125,-31.73828125,-42.96875,-37.109375,1.0,1.0,0.0,1.0,7.m4v,9.0
2024-02-28 11:47:10.514539,1709117230.5145397,-29.78515625,-29.78515625,-53.22265625,-62.98828125,1.0,1.0,0.0,1.0,7.m4v,9.0
2024-02-28 11:47:10.518445,1709117230.5184455,-21.484375,-23.4375,-47.8515625,-48.33984375,1.0,1.0,0.0,1.0,7.m4v,9.0
2024-02-28 11:47:10.522352,1709117230.5223515,-38.0859375,-24.90234375,-29.296875,-43.9453125,1.0,1.0,0.0,1.0,7.m4v,9.0
2024-02-28 11:47:10.526258,1709117230.5262575,-44.921875,-30.2734375,-32.71484375,-52.24609375,1.0,1.0,0.0,1.0,7.m4v,9.0
2024-02-28 11:47:10.530163,1709117230.5301633,-27.34375,-36.1328125,-37.59765625,-44.43359375,1.0,1.0,0.0,1.0,7.m4v,9.0
2024-02-28 11:47:10.534064,1709117230.5340643,-10.7421875,-33.203125,-31.73828125,-38.0859375,1.0,1.0,0.0,1.0,7.m4v,9.0
2024-02-28 11:47:10.537970,1709117230.5379703,-32.71484375,-27.83203125,-28.3203125,-23.92578125,1.0,1.0,0.0,1.0,7.m4v,9.0
2024-02-28 11:47:10.541876,1709117230.5418763,-45.41015625,-24.4140625,-34.1796875,-26.85546875,1.0,1.0,0.0,1.0,7.m4v,9.0
2024-02-28 11:47:10.545782,1709117230.5457823,-39.0625,-13.18359375,-39.0625,-31.73828125,1.0,1.0,0.0,1.0,7.m4v,9.0
2024-02-28 11:47:10.549688,1709117230.549688,-35.64453125,-17.08984375,-34.1796875,-33.203125,1.0,1.0,0.0,1.0,7.m4v,9.0
2024-02-28 11:47:10.553594,1709117230.553594,-23.4375,-28.80859375,-27.34375,-31.73828125,1.0,1.0,0.0,1.0,7.m4v,9.0
2024-02-28 11:47:10.557500,1709117230.5575,-29.296875,-30.76171875,-28.80859375,-10.25390625,1.0,1.0,0.0,1.0,7.m4v,9.0
2024-02-28 11:47:10.561406,1709117230.561406,-32.71484375,-28.3203125,-28.80859375,-39.0625,1.0,1.0,0.0,1.0,7.m4v,9.0
2024-02-28 11:47:10.565312,1709117230.565312,-21.97265625,-20.5078125,-35.15625,-64.453125,1.0,1.0,0.0,1.0,7.m4v,9.0
2024-02-28 11:47:10.569218,1709117230.5692182,-19.04296875,-15.13671875,-37.109375,-39.0625,1.0,1.0,0.0,1.0,7.m4v,9.0
2024-02-28 11:47:10.573124,1709117230.5731242,-11.71875,-18.06640625,-41.9921875,-24.4140625,1.0,1.0,0.0,1.0,7.m4v,9.0
2024-02-28 11:47:10.577030,1709117230.57703,-18.06640625,-23.4375,-47.36328125,-33.69140625,1.0,1.0,0.0,1.0,7.m4v,9.0
2024-02-28 11:47:10.580932,1709117230.5809317,-34.66796875,-31.73828125,-33.69140625,-30.2734375,1.0,1.0,0.0,1.0,7.m4v,9.0
2024-02-28 11:47:10.584838,1709117230.5848377,-31.73828125,-42.48046875,-32.2265625,-7.8125,1.0,1.0,0.0,1.0,7.m4v,9.0
2024-02-28 11:47:10.588744,1709117230.5887437,-15.625,-35.64453125,-30.76171875,-19.04296875,1.0,1.0,0.0,1.0,7.m4v,9.0
2024-02-28 11:47:10.592650,1709117230.5926497,-35.15625,-28.3203125,-31.25,-49.31640625,1.0,1.0,0.0,1.0,7.m4v,9.0
2024-02-28 11:47:10.596556,1709117230.5965557,-43.45703125,-33.69140625,-35.15625,-52.24609375,1.0,1.0,0.0,1.0,7.m4v,9.0
2024-02-28 11:47:10.600461,1709117230.6004615,-42.96875,-31.73828125,-30.76171875,-31.25,1.0,1.0,0.0,1.0,7.m4v,9.0
2024-02-28 11:47:10.604367,1709117230.6043675,-47.8515625,-35.64453125,-36.1328125,-25.390625,1.0,1.0,0.0,1.0,7.m4v,9.0
2024-02-28 11:47:10.608274,1709117230.6082735,-40.0390625,-46.875,-36.62109375,-45.41015625,1.0,1.0,0.0,1.0,7.m4v,9.0
2024-02-28 11:47:10.612180,1709117230.6121795,-39.0625,-44.43359375,-34.66796875,-59.5703125,1.0,1.0,0.0,1.0,7.m4v,9.0
2024-02-28 11:47:10.616086,1709117230.6160855,-26.85546875,-34.1796875,-29.78515625,-51.7578125,1.0,1.0,0.0,1.0,7.m4v,9.0
2024-02-28 11:47:10.619992,1709117230.6199915,-24.90234375,-32.2265625,-32.71484375,-43.45703125,1.0,1.0,0.0,1.0,7.m4v,9.0
2024-02-28 11:47:10.623897,1709117230.6238973,-26.85546875,-46.38671875,-33.203125,-32.2265625,1.0,1.0,0.0,1.0,7.m4v,9.0
2024-02-28 11:47:10.627799,1709117230.627799,-15.13671875,-43.9453125,-28.3203125,-19.53125,1.0,1.0,0.0,1.0,7.m4v,9.0
2024-02-28 11:47:10.631705,1709117230.631705,-23.92578125,-25.87890625,-39.55078125,-43.9453125,1.0,1.0,0.0,1.0,7.m4v,9.0
2024-02-28 11:47:10.635611,1709117230.635611,-30.76171875,-16.11328125,-42.48046875,-41.015625,1.0,1.0,0.0,1.0,7.m4v,9.0
2024-02-28 11:47:10.639517,1709117230.639517,-21.97265625,-16.11328125,-31.25,-45.41015625,1.0,1.0,0.0,1.0,7.m4v,9.0
2024-02-28 11:47:10.643423,1709117230.643423,-30.2734375,-22.94921875,-25.390625,-41.9921875,1.0,1.0,0.0,1.0,7.m4v,9.0
2024-02-28 11:47:10.647329,1709117230.6473289,-23.92578125,-25.87890625,-20.99609375,-22.94921875,1.0,1.0,0.0,1.0,7.m4v,9.0
2024-02-28 11:47:10.651235,1709117230.6512349,-18.5546875,-34.1796875,-22.94921875,-33.203125,1.0,1.0,0.0,1.0,7.m4v,9.0
2024-02-28 11:47:10.655141,1709117230.6551409,-39.55078125,-36.62109375,-25.390625,-26.3671875,1.0,1.0,0.0,1.0,7.m4v,9.0
2024-02-28 11:47:10.659047,1709117230.659047,-48.828125,-29.78515625,-38.0859375,-26.3671875,1.0,1.0,0.0,1.0,7.m4v,9.0
2024-02-28 11:47:10.662953,1709117230.662953,-36.1328125,-25.390625,-50.29296875,-28.80859375,1.0,1.0,0.0,1.0,7.m4v,9.0
2024-02-28 11:47:10.666859,1709117230.666859,-41.50390625,-26.3671875,-49.31640625,-39.55078125,1.0,1.0,0.0,1.0,7.m4v,9.0
2024-02-28 11:47:10.670765,1709117230.670765,-52.24609375,-27.83203125,-35.15625,-40.52734375,1.0,1.0,0.0,1.0,7.m4v,9.0
2024-02-28 11:47:10.674666,1709117230.6746664,-24.90234375,-27.83203125,-26.85546875,-36.62109375,1.0,1.0,0.0,1.0,7.m4v,9.0
2024-02-28 11:47:10.678572,1709117230.6785724,-26.3671875,-30.76171875,-33.69140625,-32.2265625,1.0,1.0,0.0,1.0,7.m4v,9.0
2024-02-28 11:47:10.682478,1709117230.6824782,-40.0390625,-34.66796875,-34.1796875,-16.11328125,1.0,1.0,0.0,1.0,7.m4v,9.0
2024-02-28 11:47:10.686384,1709117230.6863842,-29.296875,-30.76171875,-37.109375,-24.4140625,1.0,1.0,0.0,1.0,7.m4v,9.0
2024-02-28 11:47:10.690290,1709117230.6902902,-38.0859375,-36.1328125,-41.9921875,-43.45703125,1.0,1.0,0.0,1.0,7.m4v,9.0
2024-02-28 11:47:10.694196,1709117230.6941962,-42.48046875,-56.15234375,-44.43359375,-35.64453125,1.0,1.0,0.0,1.0,7.m4v,9.0
2024-02-28 11:47:10.698102,1709117230.6981022,-28.80859375,-49.31640625,-40.52734375,-37.59765625,1.0,1.0,0.0,1.0,7.m4v,9.0
2024-02-28 11:47:10.702008,1709117230.7020082,-27.83203125,-28.3203125,-30.2734375,-33.69140625,1.0,1.0,0.0,1.0,7.m4v,9.0
2024-02-28 11:47:10.705914,1709117230.7059145,-30.76171875,-26.3671875,-31.25,-31.25,1.0,1.0,0.0,1.0,7.m4v,9.0
2024-02-28 11:47:10.709820,1709117230.70982,-34.66796875,-33.69140625,-30.2734375,-45.41015625,1.0,1.0,0.0,1.0,7.m4v,9.0
2024-02-28 11:47:10.713726,1709117230.713726,-30.2734375,-29.78515625,-28.3203125,-50.29296875,1.0,1.0,0.0,1.0,7.m4v,9.0
2024-02-28 11:47:10.717632,1709117230.717632,-27.83203125,-21.484375,-29.296875,-39.0625,1.0,1.0,0.0,1.0,7.m4v,9.0
2024-02-28 11:47:10.721533,1709117230.7215333,-26.85546875,-22.4609375,-30.2734375,-33.69140625,1.0,1.0,0.0,1.0,7.m4v,9.0
2024-02-28 11:47:10.725439,1709117230.7254393,-33.69140625,-24.4140625,-39.0625,-31.73828125,1.0,1.0,0.0,1.0,7.m4v,9.0
2024-02-28 11:47:10.729345,1709117230.729345,-41.50390625,-24.90234375,-29.78515625,-15.13671875,1.0,1.0,0.0,1.0,7.m4v,9.0
2024-02-28 11:47:10.733251,1709117230.733251,-38.0859375,-31.25,-22.94921875,-16.6015625,1.0,1.0,0.0,1.0,7.m4v,9.0
2024-02-28 11:47:11.037889,1709117231.0378892,-32.2265625,-31.73828125,-31.73828125,-19.04296875,1.0,1.0,0.0,1.0,7.m4v,9.0
2024-02-28 11:47:11.045701,1709117231.0457013,-16.6015625,-24.4140625,-25.87890625,-45.41015625,1.0,1.0,0.0,1.0,7.m4v,9.0
2024-02-28 11:47:11.053509,1709117231.0535088,-32.71484375,-24.90234375,-33.69140625,-36.1328125,1.0,1.0,0.0,1.0,7.m4v,9.0
2024-02-28 11:47:11.061321,1709117231.0613208,-42.96875,-25.390625,-38.0859375,-54.6875,1.0,1.0,0.0,1.0,7.m4v,9.0
2024-02-28 11:47:11.069133,1709117231.0691326,-40.0390625,-39.55078125,-34.1796875,-20.5078125,1.0,1.0,0.0,1.0,7.m4v,9.0
2024-02-28 11:47:11.076945,1709117231.0769446,-28.80859375,-32.2265625,-45.41015625,-41.9921875,1.0,1.0,0.0,1.0,7.m4v,9.0
2024-02-28 11:47:11.084757,1709117231.0847566,-39.0625,-40.0390625,-41.9921875,-48.828125,1.0,1.0,0.0,1.0,7.m4v,9.0
2024-02-28 11:47:11.092568,1709117231.0925684,-25.390625,-38.57421875,-33.69140625,-34.66796875,1.0,1.0,0.0,1.0,7.m4v,9.0
2024-02-28 11:47:11.100376,1709117231.100376,-29.78515625,-50.78125,-31.73828125,-25.390625,1.0,1.0,0.0,1.0,7.m4v,9.0
2024-02-28 11:47:11.108188,1709117231.108188,-38.0859375,-33.69140625,-27.83203125,-27.83203125,1.0,1.0,0.0,1.0,7.m4v,9.0
2024-02-28 11:47:11.116000,1709117231.1159997,-50.78125,-30.2734375,-42.96875,-61.5234375,1.0,1.0,0.0,1.0,7.m4v,9.0
2024-02-28 11:47:11.123812,1709117231.1238115,-40.0390625,-44.921875,-32.71484375,-43.9453125,1.0,1.0,0.0,1.0,7.m4v,9.0
2024-02-28 11:47:11.135530,1709117231.1355298,-45.8984375,-31.73828125,-33.203125,-19.53125,1.0,1.0,0.0,1.0,7.m4v,9.0
2024-02-28 11:47:11.151149,1709117231.1511488,-48.33984375,-28.3203125,-36.62109375,-48.828125,1.0,1.0,0.0,1.0,7.m4v,9.0
2024-02-28 11:47:11.166773,1709117231.1667726,-41.015625,-37.59765625,-44.921875,-37.109375,1.0,1.0,0.0,1.0,7.m4v,9.0
2024-02-28 11:47:11.182397,1709117231.182397,-14.6484375,-35.15625,-30.76171875,-40.52734375,1.0,1.0,0.0,1.0,7.m4v,9.0
2024-02-28 11:47:11.198016,1709117231.1980157,-36.62109375,-32.71484375,-33.203125,-45.41015625,1.0,1.0,0.0,1.0,7.m4v,9.0
2024-02-28 11:47:11.213639,1709117231.2136395,-35.64453125,-17.08984375,-34.1796875,-24.4140625,1.0,1.0,0.0,1.0,7.m4v,9.0
2024-02-28 11:47:11.225358,1709117231.2253575,-51.26953125,-27.34375,-38.57421875,-52.24609375,1.0,1.0,0.0,1.0,7.m4v,9.0
2024-02-28 11:47:11.233169,1709117231.2331693,-25.390625,-32.71484375,-38.57421875,-35.64453125,1.0,1.0,0.0,1.0,7.m4v,9.0
2024-02-28 11:47:11.237070,1709117231.2370703,-22.4609375,-30.2734375,-38.0859375,-30.76171875,1.0,1.0,0.0,1.0,7.m4v,9.0
2024-02-28 11:47:11.311279,1709117231.3112788,-43.9453125,-32.71484375,-36.62109375,-50.78125,1.0,1.0,0.0,1.0,7.m4v,9.0
2024-02-28 11:47:11.326903,1709117231.3269029,-24.4140625,-37.109375,-30.76171875,2.9296875,1.0,1.0,0.0,1.0,7.m4v,9.0
2024-02-28 11:47:11.350335,1709117231.3503346,-27.83203125,-40.52734375,-36.1328125,-38.57421875,1.0,1.0,0.0,1.0,7.m4v,9.0
2024-02-28 11:47:11.373770,1709117231.3737705,-40.0390625,-31.73828125,-36.62109375,-35.15625,1.0,1.0,0.0,1.0,7.m4v,9.0
2024-02-28 11:47:11.397202,1709117231.3972018,-42.96875,-31.73828125,-45.41015625,-35.64453125,1.0,1.0,0.0,1.0,7.m4v,9.0
2024-02-28 11:47:11.408920,1709117231.4089198,-58.59375,-47.36328125,-28.80859375,-44.43359375,1.0,1.0,0.0,1.0,7.m4v,9.0
2024-02-28 11:47:11.420638,1709117231.4206376,-42.48046875,-38.57421875,-39.55078125,-59.08203125,1.0,1.0,0.0,1.0,7.m4v,9.0
2024-02-28 11:47:11.444069,1709117231.4440691,-36.62109375,-37.59765625,-34.66796875,-53.22265625,1.0,1.0,0.0,1.0,7.m4v,9.0
2024-02-28 11:47:11.459693,1709117231.459693,-57.12890625,-34.66796875,-32.2265625,-49.8046875,1.0,1.0,0.0,1.0,7.m4v,9.0
2024-02-28 11:47:11.471406,1709117231.4714065,-28.3203125,-26.85546875,-32.2265625,-48.33984375,1.0,1.0,0.0,1.0,7.m4v,9.0
2024-02-28 11:47:11.479218,1709117231.4792182,-15.13671875,-30.76171875,-32.71484375,-40.52734375,1.0,1.0,0.0,1.0,7.m4v,9.0
2024-02-28 11:47:11.487030,1709117231.4870305,-51.7578125,-34.1796875,-30.76171875,-19.53125,1.0,1.0,0.0,1.0,7.m4v,9.0
2024-02-28 11:47:11.494842,1709117231.4948423,-52.734375,-31.73828125,-45.41015625,-61.5234375,1.0,1.0,0.0,1.0,7.m4v,9.0
2024-02-28 11:47:11.502654,1709117231.502654,-39.55078125,-46.875,-28.3203125,-34.66796875,1.0,1.0,0.0,1.0,7.m4v,9.0
2024-02-28 11:47:11.510466,1709117231.510466,-45.41015625,-37.109375,-28.80859375,-35.64453125,1.0,1.0,0.0,1.0,7.m4v,9.0
2024-02-28 11:47:11.522179,1709117231.5221794,-43.45703125,-34.66796875,-41.015625,-46.875,1.0,1.0,0.0,1.0,7.m4v,9.0
2024-02-28 11:47:11.526085,1709117231.5260854,-57.12890625,-36.62109375,-42.48046875,-35.64453125,1.0,1.0,0.0,1.0,7.m4v,9.0
2024-02-28 11:47:11.529991,1709117231.5299914,-46.38671875,-30.2734375,-37.59765625,-28.80859375,1.0,1.0,0.0,1.0,7.m4v,9.0
2024-02-28 11:47:11.533897,1709117231.5338974,-25.87890625,-32.71484375,-34.66796875,-46.875,1.0,1.0,0.0,1.0,7.m4v,9.0
2024-02-28 11:47:11.537803,1709117231.5378032,-34.1796875,-33.203125,-31.73828125,-48.33984375,1.0,1.0,0.0,1.0,7.m4v,9.0
2024-02-28 11:47:11.541709,1709117231.5417092,-51.26953125,-33.203125,-38.0859375,-59.08203125,1.0,1.0,0.0,1.0,7.m4v,9.0
2024-02-28 11:47:11.545615,1709117231.5456152,-57.6171875,-36.62109375,-38.57421875,-58.10546875,1.0,1.0,0.0,1.0,7.m4v,9.0
2024-02-28 11:47:11.549521,1709117231.5495212,-58.10546875,-35.15625,-29.78515625,-44.43359375,1.0,1.0,0.0,1.0,7.m4v,9.0
2024-02-28 11:47:11.553427,1709117231.5534272,-51.7578125,-34.66796875,-29.296875,-44.43359375,1.0,1.0,0.0,1.0,7.m4v,9.0
2024-02-28 11:47:11.557333,1709117231.5573332,-43.9453125,-36.1328125,-37.59765625,-25.87890625,1.0,1.0,0.0,1.0,7.m4v,9.0
2024-02-28 11:47:11.561239,1709117231.561239,-47.36328125,-39.55078125,-36.62109375,-20.99609375,1.0,1.0,0.0,1.0,7.m4v,9.0
2024-02-28 11:47:11.565140,1709117231.5651402,-53.22265625,-33.69140625,-32.2265625,-51.26953125,1.0,1.0,0.0,1.0,7.m4v,9.0
2024-02-28 11:47:11.807288,1709117231.8072877,-22.94921875,-33.69140625,-28.3203125,-48.33984375,1.0,1.0,0.0,1.0,7.m4v,9.0
2024-02-28 11:47:11.811194,1709117231.8111937,-28.80859375,-38.0859375,-30.2734375,-35.64453125,1.0,1.0,0.0,1.0,7.m4v,9.0
2024-02-28 11:47:11.815100,1709117231.8150997,-27.34375,-39.55078125,-28.80859375,-15.625,1.0,1.0,0.0,1.0,7.m4v,9.0
2024-02-28 11:47:11.819006,1709117231.8190055,-26.85546875,-33.69140625,-29.296875,-48.828125,1.0,1.0,0.0,1.0,7.m4v,9.0
2024-02-28 11:47:11.822912,1709117231.8229115,-39.55078125,-32.2265625,-36.1328125,-38.0859375,1.0,1.0,0.0,1.0,7.m4v,9.0
2024-02-28 11:47:11.858061,1709117231.8580608,-55.6640625,-32.2265625,-35.64453125,-17.08984375,1.0,1.0,0.0,1.0,7.m4v,9.0
2024-02-28 11:47:11.861967,1709117231.8619668,-48.33984375,-32.71484375,-27.34375,-17.08984375,1.0,1.0,0.0,1.0,7.m4v,9.0
2024-02-28 11:47:11.893210,1709117231.89321,-55.17578125,-41.9921875,-37.59765625,-26.85546875,1.0,1.0,0.0,1.0,7.m4v,9.0
2024-02-28 11:47:11.897116,1709117231.897116,-42.96875,-59.5703125,-25.390625,-12.6953125,1.0,1.0,0.0,1.0,7.m4v,9.0
2024-02-28 11:47:11.901022,1709117231.901022,-40.0390625,-52.734375,-27.34375,-43.45703125,1.0,1.0,0.0,1.0,7.m4v,9.0
2024-02-28 11:47:11.904928,1709117231.9049275,-49.8046875,-24.90234375,-30.76171875,-57.6171875,1.0,1.0,0.0,1.0,7.m4v,9.0
2024-02-28 11:47:11.916646,1709117231.9166458,-31.73828125,-21.484375,-34.1796875,-20.5078125,1.0,1.0,0.0,1.0,7.m4v,9.0
2024-02-28 11:47:11.932270,1709117231.9322696,-32.71484375,-33.203125,-32.71484375,-59.5703125,1.0,1.0,0.0,1.0,7.m4v,9.0
2024-02-28 11:47:11.943983,1709117231.9439828,-11.71875,-36.62109375,-33.203125,-47.36328125,1.0,1.0,0.0,1.0,7.m4v,9.0
2024-02-28 11:47:12.080678,1709117232.0806775,-41.015625,-18.06640625,-27.83203125,-28.80859375,1.0,1.0,0.0,1.0,7.m4v,9.0
2024-02-28 11:47:12.088490,1709117232.0884895,-26.85546875,-27.83203125,-28.80859375,-21.484375,1.0,1.0,0.0,1.0,7.m4v,9.0
2024-02-28 11:47:12.096302,1709117232.0963016,-38.57421875,-24.4140625,-34.66796875,-26.3671875,1.0,1.0,0.0,1.0,7.m4v,9.0
2024-02-28 11:47:12.104114,1709117232.1041136,-29.296875,-41.015625,-38.57421875,-76.66015625,1.0,1.0,0.0,1.0,7.m4v,9.0
2024-02-28 11:47:12.111925,1709117232.1119254,-36.62109375,-28.3203125,-38.0859375,-35.15625,1.0,1.0,0.0,1.0,7.m4v,9.0
2024-02-28 11:47:12.119737,1709117232.1197374,-38.57421875,-24.90234375,-38.0859375,-47.36328125,1.0,1.0,0.0,1.0,7.m4v,9.0
2024-02-28 11:47:12.127545,1709117232.1275449,-38.0859375,-20.99609375,-40.52734375,-27.34375,1.0,1.0,0.0,1.0,7.m4v,9.0
2024-02-28 11:47:12.135357,1709117232.135357,-39.55078125,-27.83203125,-35.15625,-42.96875,1.0,1.0,0.0,1.0,7.m4v,9.0
2024-02-28 11:47:12.143169,1709117232.143169,-39.55078125,-25.87890625,-33.203125,-41.015625,1.0,1.0,0.0,1.0,7.m4v,9.0
2024-02-28 11:47:12.150981,1709117232.150981,-33.203125,-35.15625,-29.78515625,-35.15625,1.0,1.0,0.0,1.0,7.m4v,9.0
2024-02-28 11:47:12.158793,1709117232.1587927,-36.1328125,-29.296875,-24.4140625,-47.36328125,1.0,1.0,0.0,1.0,7.m4v,9.0
2024-02-28 11:47:12.166605,1709117232.1666048,-39.0625,-31.73828125,-43.45703125,-27.83203125,1.0,1.0,0.0,1.0,7.m4v,9.0
2024-02-28 11:47:12.174412,1709117232.1744125,-14.16015625,-32.2265625,-31.73828125,-47.8515625,1.0,1.0,0.0,1.0,7.m4v,9.0
2024-02-28 11:47:12.182224,1709117232.1822245,-19.04296875,-41.50390625,-28.80859375,-38.0859375,1.0,1.0,0.0,1.0,7.m4v,9.0
2024-02-28 11:47:12.190036,1709117232.1900363,-51.26953125,-41.015625,-36.62109375,-41.50390625,1.0,1.0,0.0,1.0,7.m4v,9.0
2024-02-28 11:47:12.197848,1709117232.197848,-40.0390625,-37.109375,-32.2265625,-44.921875,1.0,1.0,0.0,1.0,7.m4v,9.0
2024-02-28 11:47:12.205660,1709117232.20566,-36.62109375,-40.52734375,-41.50390625,-34.1796875,1.0,1.0,0.0,1.0,7.m4v,9.0
2024-02-28 11:47:12.213472,1709117232.213472,-33.69140625,-31.25,-39.55078125,-28.80859375,1.0,1.0,0.0,1.0,7.m4v,9.0
2024-02-28 11:47:12.221279,1709117232.2212794,-5.859375,-29.296875,-40.52734375,-40.0390625,1.0,1.0,0.0,1.0,7.m4v,9.0
2024-02-28 11:47:12.229091,1709117232.2290914,-60.546875,-37.59765625,-32.2265625,-30.76171875,1.0,1.0,0.0,1.0,7.m4v,9.0
2024-02-28 11:47:12.232997,1709117232.2329974,-60.05859375,-41.50390625,-42.48046875,-44.43359375,1.0,1.0,0.0,1.0,7.m4v,9.0
2024-02-28 11:47:12.236903,1709117232.2369034,-29.296875,-32.71484375,-41.9921875,-45.8984375,1.0,1.0,0.0,1.0,7.m4v,9.0
2024-02-28 11:47:12.240809,1709117232.2408092,-12.20703125,-31.25,-35.64453125,-33.203125,1.0,1.0,0.0,1.0,7.m4v,9.0
2024-02-28 11:47:12.244715,1709117232.2447152,-32.2265625,-41.50390625,-33.69140625,-29.296875,1.0,1.0,0.0,1.0,7.m4v,9.0
2024-02-28 11:47:12.248621,1709117232.2486212,-42.48046875,-48.33984375,-36.62109375,-37.109375,1.0,1.0,0.0,1.0,7.m4v,9.0
2024-02-28 11:47:12.252527,1709117232.2525272,-48.828125,-43.45703125,-35.64453125,-38.57421875,1.0,1.0,0.0,1.0,7.m4v,9.0
2024-02-28 11:47:12.256433,1709117232.2564332,-46.875,-38.0859375,-33.69140625,-38.0859375,1.0,1.0,0.0,1.0,7.m4v,9.0
2024-02-28 11:47:12.260339,1709117232.2603393,-26.3671875,-34.66796875,-31.73828125,-30.76171875,1.0,1.0,0.0,1.0,7.m4v,9.0
2024-02-28 11:47:12.264245,1709117232.2642453,-21.484375,-33.203125,-33.203125,-36.62109375,1.0,1.0,0.0,1.0,7.m4v,9.0
2024-02-28 11:47:12.268146,1709117232.2681465,-41.015625,-33.69140625,-32.71484375,-41.015625,1.0,1.0,0.0,1.0,7.m4v,9.0
2024-02-28 11:47:12.272052,1709117232.2720523,-40.52734375,-40.52734375,-33.69140625,-35.64453125,1.0,1.0,0.0,1.0,7.m4v,9.0
2024-02-28 11:47:12.275958,1709117232.2759583,-37.109375,-41.9921875,-36.62109375,-41.015625,1.0,1.0,0.0,1.0,7.m4v,9.0
2024-02-28 11:47:12.279864,1709117232.2798643,-30.76171875,-36.62109375,-38.57421875,-18.06640625,1.0,1.0,0.0,1.0,7.m4v,9.0
2024-02-28 11:47:12.283770,1709117232.2837703,-17.08984375,-35.15625,-44.921875,-24.90234375,1.0,1.0,0.0,1.0,7.m4v,9.0
2024-02-28 11:47:12.287676,1709117232.2876763,-23.4375,-34.66796875,-42.48046875,-66.89453125,1.0,1.0,0.0,1.0,7.m4v,9.0
2024-02-28 11:47:12.291582,1709117232.2915823,-37.59765625,-41.50390625,-30.2734375,-32.71484375,1.0,1.0,0.0,1.0,7.m4v,9.0
2024-02-28 11:47:12.295488,1709117232.295488,-51.26953125,-49.8046875,-23.4375,-6.34765625,1.0,1.0,0.0,1.0,7.m4v,9.0
2024-02-28 11:47:12.443901,1709117232.4439006,-57.12890625,-35.15625,-29.296875,-52.734375,1.0,1.0,0.0,1.0,7.m4v,9.0
2024-02-28 11:47:12.447807,1709117232.4478066,-64.94140625,-29.78515625,-34.66796875,-65.4296875,1.0,1.0,0.0,1.0,7.m4v,9.0
2024-02-28 11:47:12.451713,1709117232.4517126,-75.1953125,-29.78515625,-40.0390625,-56.640625,1.0,1.0,0.0,1.0,7.m4v,9.0
2024-02-28 11:47:12.455614,1709117232.4556143,-60.546875,-40.52734375,-31.25,-43.45703125,1.0,1.0,0.0,1.0,7.m4v,9.0
2024-02-28 11:47:12.459520,1709117232.4595203,-70.3125,-46.875,-35.64453125,-73.2421875,1.0,1.0,0.0,1.0,7.m4v,9.0
2024-02-28 11:47:12.701668,1709117232.7016675,-144.53125,-28.3203125,-53.7109375,-180.17578125,1.0,1.0,0.0,1.0,7.m4v,9.0
2024-02-28 11:47:12.709480,1709117232.7094796,-126.46484375,-27.83203125,-51.7578125,-150.87890625,1.0,1.0,0.0,1.0,7.m4v,9.0
2024-02-28 11:47:12.713386,1709117232.7133856,-95.703125,-28.3203125,-48.33984375,-159.1796875,1.0,1.0,0.0,1.0,7.m4v,9.0
2024-02-28 11:47:12.717292,1709117232.7172916,-83.984375,-28.80859375,-48.828125,-134.27734375,1.0,1.0,0.0,1.0,7.m4v,9.0
2024-02-28 11:47:12.725104,1709117232.7251036,-103.515625,-37.59765625,-41.9921875,-128.90625,1.0,1.0,0.0,1.0,7.m4v,9.0
2024-02-28 11:47:12.729009,1709117232.7290094,-86.9140625,-40.0390625,-44.921875,-103.515625,1.0,1.0,0.0,1.0,7.m4v,9.0
2024-02-28 11:47:12.732915,1709117232.7329154,-76.66015625,-40.0390625,-39.0625,-83.984375,1.0,1.0,0.0,1.0,7.m4v,9.0
2024-02-28 11:47:12.740722,1709117232.7407224,-43.9453125,-29.78515625,-50.29296875,-73.2421875,1.0,1.0,0.0,1.0,7.m4v,9.0
2024-02-28 11:47:12.744628,1709117232.7446284,-33.203125,-33.203125,-37.109375,-79.1015625,1.0,1.0,0.0,1.0,7.m4v,9.0
2024-02-28 11:47:12.748534,1709117232.7485344,-20.99609375,-24.4140625,-27.83203125,-20.99609375,1.0,1.0,0.0,1.0,7.m4v,9.0
2024-02-28 11:47:12.756346,1709117232.7563462,-34.1796875,-34.1796875,-35.15625,-90.33203125,1.0,1.0,0.0,1.0,7.m4v,9.0
2024-02-28 11:47:12.760252,1709117232.7602522,-20.99609375,-31.25,-26.3671875,-25.87890625,1.0,1.0,0.0,1.0,7.m4v,9.0
2024-02-28 11:47:12.764158,1709117232.7641582,-1.953125,-25.87890625,-22.4609375,0.9765625,1.0,1.0,0.0,1.0,7.m4v,9.0
2024-02-28 11:47:12.771970,1709117232.7719705,-12.6953125,-38.0859375,-18.5546875,-2.9296875,1.0,1.0,0.0,1.0,7.m4v,9.0
2024-02-28 11:47:12.775876,1709117232.7758763,-6.8359375,-35.64453125,-13.671875,12.6953125,1.0,1.0,0.0,1.0,7.m4v,9.0
2024-02-28 11:47:12.779782,1709117232.779782,18.06640625,-29.78515625,-16.11328125,-5.37109375,1.0,1.0,0.0,1.0,7.m4v,9.0
2024-02-28 11:47:12.787589,1709117232.787589,8.30078125,-41.9921875,-27.34375,-7.32421875,1.0,1.0,0.0,1.0,7.m4v,9.0
2024-02-28 11:47:12.791495,1709117232.791495,5.37109375,-40.0390625,-24.4140625,0.0,1.0,1.0,0.0,1.0,7.m4v,9.0
2024-02-28 11:47:12.807119,1709117232.8071191,-4.39453125,-40.0390625,-16.11328125,-6.8359375,1.0,1.0,0.0,1.0,7.m4v,9.0
2024-02-28 11:47:12.811025,1709117232.8110251,-15.625,-31.25,-17.08984375,0.48828125,1.0,1.0,0.0,1.0,7.m4v,9.0
2024-02-28 11:47:12.818837,1709117232.818837,-6.34765625,-24.90234375,-30.76171875,-8.7890625,1.0,1.0,0.0,1.0,7.m4v,9.0
2024-02-28 11:47:12.822743,1709117232.822743,26.85546875,-26.3671875,-21.484375,27.34375,1.0,1.0,0.0,1.0,7.m4v,9.0
2024-02-28 11:47:12.826649,1709117232.826649,51.7578125,-25.390625,-11.71875,24.4140625,1.0,1.0,0.0,1.0,7.m4v,9.0
2024-02-28 11:47:12.834457,1709117232.8344567,-4.39453125,-29.78515625,-21.484375,-18.06640625,1.0,1.0,0.0,1.0,7.m4v,9.0
2024-02-28 11:47:12.838363,1709117232.8383627,-8.7890625,-29.296875,-19.04296875,-5.37109375,1.0,1.0,0.0,1.0,7.m4v,9.0
2024-02-28 11:47:12.842268,1709117232.8422685,-24.4140625,-32.71484375,-15.625,20.99609375,1.0,1.0,0.0,1.0,7.m4v,9.0
2024-02-28 11:47:13.346088,1709117233.346088,-28.80859375,-32.2265625,-27.34375,20.01953125,1.0,1.0,0.0,1.0,7.m4v,9.0
2024-02-28 11:47:13.349994,1709117233.349994,-35.15625,-29.78515625,-32.2265625,-20.5078125,1.0,1.0,0.0,1.0,7.m4v,9.0
2024-02-28 11:47:13.353900,1709117233.3538997,-43.9453125,-31.73828125,-35.64453125,-46.875,1.0,1.0,0.0,1.0,7.m4v,9.0
2024-02-28 11:47:13.357806,1709117233.3578055,-25.390625,-35.15625,-30.2734375,-21.97265625,1.0,1.0,0.0,1.0,7.m4v,9.0
2024-02-28 11:47:13.361712,1709117233.3617115,-9.765625,-31.73828125,-26.85546875,-46.875,1.0,1.0,0.0,1.0,7.m4v,9.0
2024-02-28 11:47:13.365618,1709117233.3656178,-17.08984375,-32.71484375,-33.203125,-45.8984375,1.0,1.0,0.0,1.0,7.m4v,9.0
2024-02-28 11:47:13.369524,1709117233.3695238,-18.06640625,-37.59765625,-35.64453125,-30.76171875,1.0,1.0,0.0,1.0,7.m4v,9.0
2024-02-28 11:47:13.373430,1709117233.3734298,-32.71484375,-36.62109375,-36.62109375,-41.50390625,1.0,1.0,0.0,1.0,7.m4v,9.0
2024-02-28 11:47:13.377336,1709117233.3773355,-10.7421875,-35.15625,-43.45703125,-43.9453125,1.0,1.0,0.0,1.0,7.m4v,9.0
2024-02-28 11:47:13.381242,1709117233.3812416,-4.8828125,-39.0625,-38.57421875,-28.3203125,1.0,1.0,0.0,1.0,7.m4v,9.0
2024-02-28 11:47:13.385148,1709117233.3851476,-45.41015625,-40.52734375,-23.4375,-15.13671875,1.0,1.0,0.0,1.0,7.m4v,9.0
2024-02-28 11:47:13.389054,1709117233.3890536,-50.78125,-40.52734375,-22.4609375,-28.80859375,1.0,1.0,0.0,1.0,7.m4v,9.0
2024-02-28 11:47:13.392955,1709117233.3929548,-37.59765625,-42.48046875,-23.92578125,-36.62109375,1.0,1.0,0.0,1.0,7.m4v,9.0
2024-02-28 11:47:13.396861,1709117233.3968608,-36.1328125,-43.9453125,-25.87890625,-46.875,1.0,1.0,0.0,1.0,7.m4v,9.0
2024-02-28 11:47:13.400767,1709117233.4007668,-23.92578125,-40.52734375,-32.71484375,-45.8984375,1.0,1.0,0.0,1.0,7.m4v,9.0
2024-02-28 11:47:13.404673,1709117233.4046729,12.20703125,-31.25,-35.15625,-20.01953125,1.0,1.0,0.0,1.0,7.m4v,9.0
2024-02-28 11:47:13.408579,1709117233.4085789,0.0,-31.73828125,-31.73828125,-36.62109375,1.0,1.0,0.0,1.0,7.m4v,9.0
2024-02-28 11:47:13.412485,1709117233.412485,-33.203125,-31.25,-31.73828125,-47.36328125,1.0,1.0,0.0,1.0,7.m4v,9.0
2024-02-28 11:47:13.416391,1709117233.416391,-39.55078125,-28.80859375,-28.80859375,-29.78515625,1.0,1.0,0.0,1.0,7.m4v,9.0
2024-02-28 11:47:13.420297,1709117233.420297,-41.015625,-39.0625,-30.2734375,-37.109375,1.0,1.0,0.0,1.0,7.m4v,9.0
2024-02-28 11:47:13.424203,1709117233.424203,-32.71484375,-43.9453125,-34.66796875,-45.8984375,1.0,1.0,0.0,1.0,7.m4v,9.0
2024-02-28 11:47:13.428109,1709117233.4281087,-25.390625,-34.1796875,-34.66796875,-39.0625,1.0,1.0,0.0,1.0,7.m4v,9.0
2024-02-28 11:47:13.432015,1709117233.4320147,-33.203125,-35.15625,-37.109375,-32.2265625,1.0,1.0,0.0,1.0,7.m4v,9.0
2024-02-28 11:47:13.435921,1709117233.4359207,-38.57421875,-41.015625,-36.1328125,-22.94921875,1.0,1.0,0.0,1.0,7.m4v,9.0
2024-02-28 11:47:13.439823,1709117233.439823,-15.13671875,-30.76171875,-38.57421875,-65.91796875,1.0,1.0,0.0,1.0,7.m4v,9.0
2024-02-28 11:47:13.443729,1709117233.443729,-26.3671875,-20.5078125,-32.2265625,-62.5,1.0,1.0,0.0,1.0,7.m4v,9.0
2024-02-28 11:47:13.447635,1709117233.447635,-26.3671875,-21.484375,-26.85546875,-35.64453125,1.0,1.0,0.0,1.0,7.m4v,9.0
2024-02-28 11:47:13.451541,1709117233.451541,-12.6953125,-28.80859375,-32.71484375,-45.41015625,1.0,1.0,0.0,1.0,7.m4v,9.0
2024-02-28 11:47:13.455447,1709117233.4554467,-18.06640625,-35.15625,-32.71484375,-40.0390625,1.0,1.0,0.0,1.0,7.m4v,9.0
2024-02-28 11:47:13.459353,1709117233.4593527,-29.296875,-32.71484375,-34.66796875,-36.62109375,1.0,1.0,0.0,1.0,7.m4v,9.0
2024-02-28 11:47:13.463259,1709117233.4632587,-26.85546875,-36.62109375,-33.203125,-44.43359375,1.0,1.0,0.0,1.0,7.m4v,9.0
2024-02-28 11:47:13.467165,1709117233.4671648,-22.94921875,-44.921875,-35.64453125,-39.55078125,1.0,1.0,0.0,1.0,7.m4v,9.0
2024-02-28 11:47:13.478883,1709117233.4788826,-57.12890625,-40.52734375,-48.828125,-39.0625,1.0,1.0,0.0,1.0,7.m4v,9.0
2024-02-28 11:47:13.490596,1709117233.4905956,-59.5703125,-37.59765625,-35.64453125,-32.2265625,1.0,1.0,0.0,1.0,7.m4v,9.0
2024-02-28 11:47:13.498408,1709117233.4984076,-27.83203125,-34.1796875,-30.76171875,-56.15234375,1.0,1.0,0.0,1.0,7.m4v,9.0
2024-02-28 11:47:13.502314,1709117233.5023136,-43.45703125,-37.109375,-34.66796875,-54.6875,1.0,1.0,0.0,1.0,7.m4v,9.0
2024-02-28 11:47:13.506220,1709117233.5062196,-27.34375,-32.2265625,-38.0859375,-11.71875,1.0,1.0,0.0,1.0,7.m4v,9.0
2024-02-28 11:47:13.510126,1709117233.5101256,-12.6953125,-32.71484375,-37.109375,-8.7890625,1.0,1.0,0.0,1.0,7.m4v,9.0
2024-02-28 11:47:13.514032,1709117233.5140316,-26.3671875,-39.0625,-35.15625,-35.15625,1.0,1.0,0.0,1.0,7.m4v,9.0
2024-02-28 11:47:13.517937,1709117233.5179374,-27.83203125,-34.1796875,-34.66796875,-37.109375,1.0,1.0,0.0,1.0,7.m4v,9.0
2024-02-28 11:47:13.521843,1709117233.5218434,-25.390625,-35.64453125,-35.15625,-23.92578125,1.0,1.0,0.0,1.0,7.m4v,9.0
2024-02-28 11:47:13.525749,1709117233.5257494,-27.34375,-34.1796875,-31.25,-39.55078125,1.0,1.0,0.0,1.0,7.m4v,9.0
2024-02-28 11:47:13.529655,1709117233.5296557,-34.66796875,-31.73828125,-31.25,-45.41015625,1.0,1.0,0.0,1.0,7.m4v,9.0
2024-02-28 11:47:13.533556,1709117233.5335562,-56.15234375,-31.25,-35.15625,-41.015625,1.0,1.0,0.0,1.0,7.m4v,9.0
2024-02-28 11:47:13.541368,1709117233.5413682,-34.66796875,-27.83203125,-39.55078125,-46.38671875,1.0,1.0,0.0,1.0,7.m4v,9.0
2024-02-28 11:47:13.545274,1709117233.5452745,-29.296875,-27.83203125,-40.0390625,-34.1796875,1.0,1.0,0.0,1.0,7.m4v,9.0
2024-02-28 11:47:13.553086,1709117233.5530863,-40.0390625,-27.83203125,-26.85546875,-24.90234375,1.0,1.0,0.0,1.0,7.m4v,9.0
2024-02-28 11:47:13.556992,1709117233.556992,-44.43359375,-37.59765625,-31.73828125,-19.04296875,1.0,1.0,0.0,1.0,7.m4v,9.0
2024-02-28 11:47:13.564804,1709117233.564804,-43.45703125,-36.62109375,-44.43359375,-32.2265625,1.0,1.0,0.0,1.0,7.m4v,9.0
2024-02-28 11:47:13.568710,1709117233.56871,-35.15625,-40.52734375,-28.80859375,-14.16015625,1.0,1.0,0.0,1.0,7.m4v,9.0
2024-02-28 11:47:13.576522,1709117233.576522,-27.83203125,-38.0859375,-32.2265625,-54.19921875,1.0,1.0,0.0,1.0,7.m4v,9.0
2024-02-28 11:47:13.580424,1709117233.5804238,0.0,-29.296875,-32.71484375,-60.546875,1.0,1.0,0.0,1.0,7.m4v,9.0
2024-02-28 11:47:13.588236,1709117233.5882356,-47.36328125,-33.203125,-32.2265625,-18.06640625,1.0,1.0,0.0,1.0,7.m4v,9.0
2024-02-28 11:47:13.592142,1709117233.5921416,-46.38671875,-36.1328125,-31.73828125,-29.296875,1.0,1.0,0.0,1.0,7.m4v,9.0
2024-02-28 11:47:13.599954,1709117233.5999537,-41.50390625,-39.0625,-37.109375,-42.48046875,1.0,1.0,0.0,1.0,7.m4v,9.0
2024-02-28 11:47:13.603860,1709117233.6038597,-30.76171875,-36.1328125,-38.57421875,-40.0390625,1.0,1.0,0.0,1.0,7.m4v,9.0
2024-02-28 11:47:13.611672,1709117233.6116717,-13.671875,-34.1796875,-29.296875,-38.0859375,1.0,1.0,0.0,1.0,7.m4v,9.0
2024-02-28 11:47:13.615577,1709117233.6155777,-20.01953125,-32.2265625,-34.66796875,-31.73828125,1.0,1.0,0.0,1.0,7.m4v,9.0
2024-02-28 11:47:13.619483,1709117233.6194837,-57.6171875,-40.0390625,-36.1328125,-20.5078125,1.0,1.0,0.0,1.0,7.m4v,9.0
2024-02-28 11:47:13.654633,1709117233.654633,-35.15625,-32.71484375,-26.3671875,-38.0859375,1.0,1.0,0.0,1.0,7.m4v,9.0
2024-02-28 11:47:13.658539,1709117233.658539,-49.31640625,-39.55078125,-23.92578125,-41.015625,1.0,1.0,0.0,1.0,7.m4v,9.0
2024-02-28 11:47:13.662445,1709117233.662445,-64.453125,-42.96875,-28.3203125,-44.921875,1.0,1.0,0.0,1.0,7.m4v,9.0
2024-02-28 11:47:13.666351,1709117233.666351,-62.98828125,-35.64453125,-31.25,-45.41015625,1.0,1.0,0.0,1.0,7.m4v,9.0
2024-02-28 11:47:13.670257,1709117233.670257,-46.38671875,-28.3203125,-30.76171875,-37.59765625,1.0,1.0,0.0,1.0,7.m4v,9.0
2024-02-28 11:47:13.674159,1709117233.6741586,-37.59765625,-23.92578125,-29.78515625,-34.1796875,1.0,1.0,0.0,1.0,7.m4v,9.0
2024-02-28 11:47:13.678065,1709117233.6780646,-35.64453125,-24.90234375,-35.15625,-45.41015625,1.0,1.0,0.0,1.0,7.m4v,9.0
2024-02-28 11:47:13.685877,1709117233.6858766,-24.4140625,-34.1796875,-28.3203125,-23.4375,1.0,1.0,0.0,1.0,7.m4v,9.0
2024-02-28 11:47:13.689783,1709117233.6897826,-25.390625,-31.73828125,-33.69140625,-9.765625,1.0,1.0,0.0,1.0,7.m4v,9.0
2024-02-28 11:47:13.697594,1709117233.6975944,-12.6953125,-24.4140625,-32.71484375,-58.10546875,1.0,1.0,0.0,1.0,7.m4v,9.0
2024-02-28 11:47:13.701500,1709117233.7015004,-39.0625,-24.90234375,-36.1328125,-71.2890625,1.0,1.0,0.0,1.0,7.m4v,9.0
2024-02-28 11:47:13.709312,1709117233.7093124,-5.859375,-23.4375,-21.484375,-29.78515625,1.0,1.0,0.0,1.0,7.m4v,9.0
2024-02-28 11:47:13.713218,1709117233.7132185,23.92578125,-15.13671875,-25.87890625,5.37109375,1.0,1.0,0.0,1.0,7.m4v,9.0
2024-02-28 11:47:13.721026,1709117233.7210257,-56.640625,-36.62109375,-30.2734375,-45.8984375,1.0,1.0,0.0,1.0,7.m4v,9.0
2024-02-28 11:47:13.931929,1709117233.9319289,-50.29296875,-32.2265625,-39.55078125,-40.52734375,1.0,1.0,0.0,1.0,7.m4v,9.0
2024-02-28 11:47:13.935835,1709117233.935835,-28.3203125,-29.78515625,-44.43359375,-36.1328125,1.0,1.0,0.0,1.0,7.m4v,9.0
2024-02-28 11:47:13.939741,1709117233.939741,3.90625,-26.3671875,-39.55078125,-37.109375,1.0,1.0,0.0,1.0,7.m4v,9.0
2024-02-28 11:47:14.029570,1709117234.0295696,-31.25,-39.55078125,-28.80859375,-20.5078125,1.0,1.0,0.0,1.0,7.m4v,9.0
2024-02-28 11:47:14.033476,1709117234.0334756,-9.765625,-34.66796875,-29.296875,-23.92578125,1.0,1.0,0.0,1.0,7.m4v,9.0
2024-02-28 11:47:14.076437,1709117234.076437,-49.8046875,-43.9453125,-30.2734375,-19.04296875,1.0,1.0,0.0,1.0,7.m4v,9.0
2024-02-28 11:47:14.080343,1709117234.080343,-43.9453125,-41.50390625,-36.1328125,-13.671875,1.0,1.0,0.0,1.0,7.m4v,9.0
2024-02-28 11:47:14.088155,1709117234.088155,-41.015625,-40.52734375,-43.45703125,-35.15625,1.0,1.0,0.0,1.0,7.m4v,9.0
2024-02-28 11:47:14.092061,1709117234.092061,-27.34375,-43.45703125,-39.0625,-40.0390625,1.0,1.0,0.0,1.0,7.m4v,9.0
2024-02-28 11:47:14.099869,1709117234.0998683,-18.5546875,-35.15625,-37.59765625,-37.59765625,1.0,1.0,0.0,1.0,7.m4v,9.0
2024-02-28 11:47:14.103775,1709117234.1037743,4.8828125,-32.2265625,-35.15625,-41.9921875,1.0,1.0,0.0,1.0,7.m4v,9.0
2024-02-28 11:47:14.111586,1709117234.1115863,3.90625,-39.0625,-38.0859375,-44.921875,1.0,1.0,0.0,1.0,7.m4v,9.0
2024-02-28 11:47:14.115492,1709117234.1154923,5.37109375,-34.1796875,-32.71484375,-39.55078125,1.0,1.0,0.0,1.0,7.m4v,9.0
2024-02-28 11:47:14.123304,1709117234.1233044,-12.6953125,-35.15625,-44.921875,-41.015625,1.0,1.0,0.0,1.0,7.m4v,9.0
2024-02-28 11:47:14.127210,1709117234.1272104,-19.04296875,-36.1328125,-38.57421875,-22.4609375,1.0,1.0,0.0,1.0,7.m4v,9.0
2024-02-28 11:47:14.135022,1709117234.1350222,-10.25390625,-31.25,-34.1796875,-51.26953125,1.0,1.0,0.0,1.0,7.m4v,9.0
2024-02-28 11:47:14.138928,1709117234.1389282,8.30078125,-25.87890625,-28.80859375,-23.92578125,1.0,1.0,0.0,1.0,7.m4v,9.0
2024-02-28 11:47:14.146735,1709117234.1467354,7.8125,-35.64453125,-35.64453125,-22.94921875,1.0,1.0,0.0,1.0,7.m4v,9.0
2024-02-28 11:47:14.150641,1709117234.1506414,0.9765625,-34.66796875,-37.59765625,-43.45703125,1.0,1.0,0.0,1.0,7.m4v,9.0
2024-02-28 11:47:14.158453,1709117234.1584537,27.34375,-40.52734375,-37.109375,-48.828125,1.0,1.0,0.0,1.0,7.m4v,9.0
2024-02-28 11:47:14.162359,1709117234.1623592,0.48828125,-37.59765625,-48.828125,-25.390625,1.0,1.0,0.0,1.0,7.m4v,9.0
2024-02-28 11:47:14.170171,1709117234.1701713,-25.87890625,-42.48046875,-48.828125,-41.015625,1.0,1.0,0.0,1.0,7.m4v,9.0
2024-02-28 11:47:14.174077,1709117234.1740773,2.44140625,-47.36328125,-38.0859375,-46.875,1.0,1.0,0.0,1.0,7.m4v,9.0
2024-02-28 11:47:14.181889,1709117234.1818893,-3.90625,-34.1796875,-30.76171875,-46.38671875,1.0,1.0,0.0,1.0,7.m4v,9.0
2024-02-28 11:47:14.185795,1709117234.185795,17.578125,-31.25,-27.83203125,-38.57421875,1.0,1.0,0.0,1.0,7.m4v,9.0
2024-02-28 11:47:14.193602,1709117234.1936023,-63.96484375,-42.96875,-39.55078125,-44.43359375,1.0,1.0,0.0,1.0,7.m4v,9.0
2024-02-28 11:47:14.197508,1709117234.1975083,-45.8984375,-43.45703125,-40.0390625,-38.0859375,1.0,1.0,0.0,1.0,7.m4v,9.0
2024-02-28 11:47:14.205320,1709117234.20532,-23.92578125,-35.15625,-32.2265625,-14.16015625,1.0,1.0,0.0,1.0,7.m4v,9.0
2024-02-28 11:47:14.209226,1709117234.209226,-11.23046875,-35.15625,-29.78515625,-19.53125,1.0,1.0,0.0,1.0,7.m4v,9.0
2024-02-28 11:47:14.220944,1709117234.2209442,-27.83203125,-35.15625,-30.76171875,-41.50390625,1.0,1.0,0.0,1.0,7.m4v,9.0
2024-02-28 11:47:14.232662,1709117234.232662,0.0,-30.76171875,-36.1328125,-33.69140625,1.0,1.0,0.0,1.0,7.m4v,9.0
2024-02-28 11:47:14.244375,1709117234.244375,-31.25,-37.59765625,-30.76171875,-40.0390625,1.0,1.0,0.0,1.0,7.m4v,9.0
2024-02-28 11:47:14.256093,1709117234.256093,-25.87890625,-27.83203125,-42.48046875,-38.0859375,1.0,1.0,0.0,1.0,7.m4v,9.0
2024-02-28 11:47:14.259999,1709117234.2599988,-7.8125,-37.109375,-34.1796875,-28.80859375,1.0,1.0,0.0,1.0,7.m4v,9.0
2024-02-28 11:47:14.267811,1709117234.2678108,-33.203125,-35.64453125,-28.3203125,-28.3203125,1.0,1.0,0.0,1.0,7.m4v,9.0
2024-02-28 11:47:14.271717,1709117234.2717168,-27.83203125,-32.71484375,-33.203125,-16.6015625,1.0,1.0,0.0,1.0,7.m4v,9.0
2024-02-28 11:47:14.279529,1709117234.2795289,-43.9453125,-30.2734375,-33.69140625,-60.05859375,1.0,1.0,0.0,1.0,7.m4v,9.0
2024-02-28 11:47:14.287336,1709117234.287336,-8.7890625,-38.0859375,-33.69140625,-9.765625,1.0,1.0,0.0,1.0,7.m4v,9.0
2024-02-28 11:47:14.299054,1709117234.2990537,-7.32421875,-28.3203125,-34.1796875,-45.8984375,1.0,1.0,0.0,1.0,7.m4v,9.0
2024-02-28 11:47:14.306866,1709117234.3068657,-57.12890625,-34.1796875,-31.25,-45.8984375,1.0,1.0,0.0,1.0,7.m4v,9.0
2024-02-28 11:47:14.318584,1709117234.3185835,-20.01953125,-37.59765625,-32.71484375,-29.296875,1.0,1.0,0.0,1.0,7.m4v,9.0
2024-02-28 11:47:14.326396,1709117234.3263955,-5.859375,-32.71484375,-41.50390625,-46.875,1.0,1.0,0.0,1.0,7.m4v,9.0
2024-02-28 11:47:14.334203,1709117234.3342032,-14.6484375,-35.64453125,-36.1328125,-10.25390625,1.0,1.0,0.0,1.0,7.m4v,9.0
2024-02-28 11:47:14.342015,1709117234.3420153,-17.08984375,-32.71484375,-35.64453125,-55.17578125,1.0,1.0,0.0,1.0,7.m4v,9.0
2024-02-28 11:47:14.349827,1709117234.3498273,-21.97265625,-30.76171875,-31.73828125,-12.6953125,1.0,1.0,0.0,1.0,7.m4v,9.0
2024-02-28 11:47:14.357639,1709117234.357639,-26.85546875,-31.73828125,-29.296875,-47.36328125,1.0,1.0,0.0,1.0,7.m4v,9.0
2024-02-28 11:47:14.365451,1709117234.365451,-22.94921875,-32.71484375,-33.203125,-41.50390625,1.0,1.0,0.0,1.0,7.m4v,9.0
2024-02-28 11:47:14.373263,1709117234.3732631,-0.9765625,-32.2265625,-21.97265625,-32.2265625,1.0,1.0,0.0,1.0,7.m4v,9.0
2024-02-28 11:47:14.381071,1709117234.3810706,-33.69140625,-31.25,-36.62109375,-32.2265625,1.0,1.0,0.0,1.0,7.m4v,9.0
2024-02-28 11:47:14.459186,1709117234.4591856,-61.03515625,-41.50390625,-33.69140625,-33.69140625,1.0,1.0,0.0,1.0,7.m4v,9.0
2024-02-28 11:47:14.466998,1709117234.4669976,-22.4609375,-45.41015625,-29.78515625,-57.6171875,1.0,1.0,0.0,1.0,7.m4v,9.0
2024-02-28 11:47:14.470899,1709117234.470899,-48.828125,-40.52734375,-23.92578125,-34.66796875,1.0,1.0,0.0,1.0,7.m4v,9.0
2024-02-28 11:47:14.474805,1709117234.474805,-62.01171875,-35.15625,-25.87890625,-29.296875,1.0,1.0,0.0,1.0,7.m4v,9.0
2024-02-28 11:47:14.478711,1709117234.478711,-58.10546875,-32.2265625,-28.3203125,-39.55078125,1.0,1.0,0.0,1.0,7.m4v,9.0
2024-02-28 11:47:14.482617,1709117234.482617,-44.43359375,-33.203125,-34.1796875,-19.53125,1.0,1.0,0.0,1.0,7.m4v,9.0
2024-02-28 11:47:14.486523,1709117234.486523,-41.9921875,-36.1328125,-38.57421875,-46.38671875,1.0,1.0,0.0,1.0,7.m4v,9.0
2024-02-28 11:47:14.490429,1709117234.490429,-40.52734375,-32.2265625,-31.73828125,-49.8046875,1.0,1.0,0.0,1.0,7.m4v,9.0
2024-02-28 11:47:14.494335,1709117234.494335,-26.3671875,-36.1328125,-27.83203125,-29.78515625,1.0,1.0,0.0,1.0,7.m4v,9.0
2024-02-28 11:47:14.498241,1709117234.498241,-23.4375,-40.52734375,-29.78515625,-43.45703125,1.0,1.0,0.0,1.0,7.m4v,9.0
2024-02-28 11:47:14.502147,1709117234.502147,-44.43359375,-36.62109375,-30.2734375,-45.8984375,1.0,1.0,0.0,1.0,7.m4v,9.0
2024-02-28 11:47:14.506053,1709117234.5060527,-54.6875,-31.73828125,-28.3203125,-46.38671875,1.0,1.0,0.0,1.0,7.m4v,9.0
2024-02-28 11:47:14.509959,1709117234.5099587,-46.38671875,-34.66796875,-34.66796875,-51.26953125,1.0,1.0,0.0,1.0,7.m4v,9.0
2024-02-28 11:47:14.513865,1709117234.5138648,-34.66796875,-37.109375,-40.0390625,-41.9921875,1.0,1.0,0.0,1.0,7.m4v,9.0
2024-02-28 11:47:14.517766,1709117234.5177662,-13.18359375,-32.71484375,-38.0859375,-31.25,1.0,1.0,0.0,1.0,7.m4v,9.0
2024-02-28 11:47:14.521672,1709117234.5216722,1.46484375,-34.1796875,-37.109375,-41.50390625,1.0,1.0,0.0,1.0,7.m4v,9.0
2024-02-28 11:47:14.525578,1709117234.525578,-34.66796875,-39.55078125,-32.71484375,-40.0390625,1.0,1.0,0.0,1.0,7.m4v,9.0
2024-02-28 11:47:14.545108,1709117234.545108,-21.484375,-47.36328125,-30.76171875,-11.23046875,1.0,1.0,0.0,1.0,7.m4v,9.0
2024-02-28 11:47:14.549014,1709117234.549014,-37.59765625,-46.875,-29.296875,-16.11328125,1.0,1.0,0.0,1.0,7.m4v,9.0
2024-02-28 11:47:14.552920,1709117234.55292,-16.6015625,-33.203125,-26.85546875,-48.33984375,1.0,1.0,0.0,1.0,7.m4v,9.0
2024-02-28 11:47:14.556826,1709117234.556826,-20.5078125,-27.83203125,-34.66796875,-62.01171875,1.0,1.0,0.0,1.0,7.m4v,9.0
2024-02-28 11:47:14.560732,1709117234.560732,-51.26953125,-26.85546875,-39.0625,-44.43359375,1.0,1.0,0.0,1.0,7.m4v,9.0
2024-02-28 11:47:14.564633,1709117234.5646331,-37.109375,-24.90234375,-26.85546875,-23.92578125,1.0,1.0,0.0,1.0,7.m4v,9.0
2024-02-28 11:47:14.568539,1709117234.568539,-16.11328125,-24.4140625,-28.80859375,-39.0625,1.0,1.0,0.0,1.0,7.m4v,9.0
2024-02-28 11:47:14.572445,1709117234.572445,-42.48046875,-26.3671875,-29.78515625,-41.9921875,1.0,1.0,0.0,1.0,7.m4v,9.0
2024-02-28 11:47:14.576351,1709117234.576351,-45.8984375,-33.69140625,-25.87890625,-23.4375,1.0,1.0,0.0,1.0,7.m4v,9.0
2024-02-28 11:47:14.580257,1709117234.580257,-31.73828125,-40.0390625,-32.2265625,-17.08984375,1.0,1.0,0.0,1.0,7.m4v,9.0
2024-02-28 11:47:14.584163,1709117234.584163,-31.73828125,-37.109375,-33.69140625,-22.94921875,1.0,1.0,0.0,1.0,7.m4v,9.0
2024-02-28 11:47:14.588069,1709117234.588069,-30.76171875,-34.66796875,-34.66796875,-27.34375,1.0,1.0,0.0,1.0,7.m4v,9.0
2024-02-28 11:47:14.591975,1709117234.591975,-35.64453125,-39.0625,-39.55078125,-52.734375,1.0,1.0,0.0,1.0,7.m4v,9.0
2024-02-28 11:47:14.638842,1709117234.6388416,-49.8046875,-38.57421875,-29.296875,28.80859375,1.0,1.0,0.0,1.0,7.m4v,9.0
2024-02-28 11:47:14.642748,1709117234.6427476,-65.91796875,-37.109375,-35.64453125,-6.8359375,1.0,1.0,0.0,1.0,7.m4v,9.0
2024-02-28 11:47:14.646654,1709117234.6466537,-60.05859375,-30.2734375,-44.921875,-83.0078125,1.0,1.0,0.0,1.0,7.m4v,9.0
2024-02-28 11:47:14.650559,1709117234.6505594,-50.29296875,-34.66796875,-33.203125,-65.91796875,1.0,1.0,0.0,1.0,7.m4v,9.0
2024-02-28 11:47:14.654465,1709117234.6544654,-41.015625,-37.59765625,-27.34375,-29.296875,1.0,1.0,0.0,1.0,7.m4v,9.0
2024-02-28 11:47:14.658366,1709117234.6583664,-57.6171875,-36.1328125,-30.2734375,-28.80859375,1.0,1.0,0.0,1.0,7.m4v,9.0
2024-02-28 11:47:14.662272,1709117234.6622725,-59.08203125,-35.64453125,-37.109375,-32.2265625,1.0,1.0,0.0,1.0,7.m4v,9.0
2024-02-28 11:47:14.666178,1709117234.6661785,-48.33984375,-31.73828125,-37.109375,-28.80859375,1.0,1.0,0.0,1.0,7.m4v,9.0
2024-02-28 11:47:14.670084,1709117234.6700845,-38.57421875,-32.2265625,-33.203125,-45.8984375,1.0,1.0,0.0,1.0,7.m4v,9.0
2024-02-28 11:47:14.673990,1709117234.6739905,-41.50390625,-38.0859375,-32.71484375,-39.0625,1.0,1.0,0.0,1.0,7.m4v,9.0
2024-02-28 11:47:14.677896,1709117234.6778965,-50.78125,-42.48046875,-35.15625,-30.2734375,1.0,1.0,0.0,1.0,7.m4v,9.0
2024-02-28 11:47:14.681802,1709117234.6818025,-32.71484375,-38.0859375,-39.55078125,-36.1328125,1.0,1.0,0.0,1.0,7.m4v,9.0
2024-02-28 11:47:14.685708,1709117234.6857083,-45.8984375,-33.203125,-37.109375,-52.24609375,1.0,1.0,0.0,1.0,7.m4v,9.0
2024-02-28 11:47:14.689614,1709117234.6896143,-43.45703125,-30.2734375,-35.64453125,-42.48046875,1.0,1.0,0.0,1.0,7.m4v,9.0
2024-02-28 11:47:14.693520,1709117234.6935203,-20.99609375,-28.80859375,-34.66796875,-22.94921875,1.0,1.0,0.0,1.0,7.m4v,9.0
2024-02-28 11:47:14.697426,1709117234.6974263,-24.4140625,-30.2734375,-32.71484375,-47.8515625,1.0,1.0,0.0,1.0,7.m4v,9.0
2024-02-28 11:47:14.701332,1709117234.7013323,-44.43359375,-33.203125,-36.1328125,-59.5703125,1.0,1.0,0.0,1.0,7.m4v,9.0
2024-02-28 11:47:14.705233,1709117234.705233,-51.26953125,-28.3203125,-31.73828125,-46.38671875,1.0,1.0,0.0,1.0,7.m4v,9.0
2024-02-28 11:47:14.709139,1709117234.709139,-42.96875,-35.15625,-25.390625,-40.0390625,1.0,1.0,0.0,1.0,7.m4v,9.0
2024-02-28 11:47:14.713045,1709117234.7130451,-38.0859375,-39.55078125,-30.2734375,-26.85546875,1.0,1.0,0.0,1.0,7.m4v,9.0
2024-02-28 11:47:14.716951,1709117234.7169511,-15.13671875,-31.25,-33.69140625,9.765625,1.0,1.0,0.0,1.0,7.m4v,9.0
2024-02-28 11:47:14.720857,1709117234.720857,-6.34765625,-26.85546875,-36.1328125,-31.73828125,1.0,1.0,0.0,1.0,7.m4v,9.0
2024-02-28 11:47:14.724763,1709117234.724763,-41.015625,-28.80859375,-41.015625,-47.8515625,1.0,1.0,0.0,1.0,7.m4v,9.0
2024-02-28 11:47:14.728669,1709117234.728669,-38.57421875,-32.71484375,-43.45703125,17.08984375,1.0,1.0,0.0,1.0,7.m4v,9.0
2024-02-28 11:47:14.732575,1709117234.732575,-30.2734375,-28.3203125,-34.66796875,-30.76171875,1.0,1.0,0.0,1.0,7.m4v,9.0
2024-02-28 11:47:14.736481,1709117234.736481,-46.38671875,-27.83203125,-33.69140625,-63.96484375,1.0,1.0,0.0,1.0,7.m4v,9.0
2024-02-28 11:47:14.740387,1709117234.740387,-45.41015625,-26.3671875,-38.57421875,-30.2734375,1.0,1.0,0.0,1.0,7.m4v,9.0
2024-02-28 11:47:14.744293,1709117234.744293,-34.1796875,-20.99609375,-30.76171875,-27.83203125,1.0,1.0,0.0,1.0,7.m4v,9.0
2024-02-28 11:47:14.748199,1709117234.7481987,-25.390625,-21.484375,-20.01953125,-35.64453125,1.0,1.0,0.0,1.0,7.m4v,9.0
2024-02-28 11:47:14.752100,1709117234.7521005,-52.734375,-29.296875,-18.5546875,-16.6015625,1.0,1.0,0.0,1.0,7.m4v,9.0
2024-02-28 11:47:14.756006,1709117234.7560065,-49.8046875,-33.69140625,-27.83203125,-17.08984375,1.0,1.0,0.0,1.0,7.m4v,9.0
2024-02-28 11:47:14.759912,1709117234.7599125,-31.73828125,-38.0859375,-36.1328125,-50.78125,1.0,1.0,0.0,1.0,7.m4v,9.0
2024-02-28 11:47:14.763819,1709117234.7638185,-41.015625,-36.62109375,-34.1796875,-45.8984375,1.0,1.0,0.0,1.0,7.m4v,9.0
2024-02-28 11:47:14.767724,1709117234.7677245,-36.1328125,-34.66796875,-29.78515625,-18.06640625,1.0,1.0,0.0,1.0,7.m4v,9.0
2024-02-28 11:47:14.771630,1709117234.7716303,-15.13671875,-37.109375,-29.78515625,3.90625,1.0,1.0,0.0,1.0,7.m4v,9.0
2024-02-28 11:47:14.775536,1709117234.7755363,-24.90234375,-32.2265625,-35.15625,-48.33984375,1.0,1.0,0.0,1.0,7.m4v,9.0
2024-02-28 11:47:14.779442,1709117234.7794423,-1.46484375,-29.296875,-44.43359375,-69.82421875,1.0,1.0,0.0,1.0,7.m4v,9.0
2024-02-28 11:47:14.783348,1709117234.7833483,-14.16015625,-31.25,-43.45703125,-49.8046875,1.0,1.0,0.0,1.0,7.m4v,9.0
2024-02-28 11:47:14.787254,1709117234.7872543,-35.64453125,-29.78515625,-39.55078125,-51.7578125,1.0,1.0,0.0,1.0,7.m4v,9.0
2024-02-28 11:47:14.791160,1709117234.79116,-26.85546875,-25.390625,-38.0859375,-35.15625,1.0,1.0,0.0,1.0,7.m4v,9.0
2024-02-28 11:47:14.795066,1709117234.795066,-36.1328125,-31.25,-34.1796875,-27.34375,1.0,1.0,0.0,1.0,7.m4v,9.0
2024-02-28 11:47:14.798968,1709117234.7989676,-40.52734375,-30.76171875,-33.69140625,-47.8515625,1.0,1.0,0.0,1.0,7.m4v,9.0
2024-02-28 11:47:14.802874,1709117234.8028736,-33.69140625,-29.296875,-35.64453125,-26.3671875,1.0,1.0,0.0,1.0,7.m4v,9.0
2024-02-28 11:47:14.806780,1709117234.8067796,-14.6484375,-30.2734375,-36.62109375,-18.06640625,1.0,1.0,0.0,1.0,7.m4v,9.0
2024-02-28 11:47:14.810686,1709117234.8106856,-15.625,-32.2265625,-36.62109375,-34.1796875,1.0,1.0,0.0,1.0,7.m4v,9.0
2024-02-28 11:47:14.814592,1709117234.8145916,-21.97265625,-33.69140625,-36.1328125,-40.0390625,1.0,1.0,0.0,1.0,7.m4v,9.0
2024-02-28 11:47:14.826309,1709117234.8263094,-25.87890625,-23.92578125,-32.2265625,3.41796875,1.0,1.0,0.0,1.0,7.m4v,9.0
2024-02-28 11:47:14.834121,1709117234.8341217,-61.03515625,-40.0390625,-44.921875,-76.171875,1.0,1.0,0.0,1.0,7.m4v,9.0
2024-02-28 11:47:14.838027,1709117234.8380277,-43.9453125,-37.59765625,-42.48046875,-54.6875,1.0,1.0,0.0,1.0,7.m4v,9.0
2024-02-28 11:47:14.845835,1709117234.8458347,-23.4375,-26.85546875,-39.55078125,-48.33984375,1.0,1.0,0.0,1.0,7.m4v,9.0
2024-02-28 11:47:15.037208,1709117235.037208,-23.92578125,-32.2265625,-37.109375,-32.71484375,1.0,1.0,0.0,1.0,7.m4v,9.0
2024-02-28 11:47:15.107511,1709117235.1075106,-38.57421875,-43.45703125,-31.25,-62.98828125,1.0,1.0,0.0,1.0,7.m4v,9.0
2024-02-28 11:47:15.115323,1709117235.1153226,-36.62109375,-39.55078125,-38.0859375,-49.8046875,1.0,1.0,0.0,1.0,7.m4v,9.0
2024-02-28 11:47:15.127036,1709117235.1270363,-30.76171875,-38.0859375,-35.64453125,-29.78515625,1.0,1.0,0.0,1.0,7.m4v,9.0
2024-02-28 11:47:15.130942,1709117235.1309423,-14.6484375,-40.0390625,-36.62109375,-20.99609375,1.0,1.0,0.0,1.0,7.m4v,9.0
2024-02-28 11:47:15.142660,1709117235.14266,-51.26953125,-43.45703125,-45.41015625,-68.84765625,1.0,1.0,0.0,1.0,7.m4v,9.0
2024-02-28 11:47:15.150472,1709117235.1504722,-59.08203125,-52.24609375,-30.2734375,-49.31640625,1.0,1.0,0.0,1.0,7.m4v,9.0
2024-02-28 11:47:15.154378,1709117235.1543782,-47.36328125,-49.31640625,-33.69140625,-50.29296875,1.0,1.0,0.0,1.0,7.m4v,9.0
2024-02-28 11:47:15.162190,1709117235.16219,-37.59765625,-53.7109375,-32.2265625,-40.0390625,1.0,1.0,0.0,1.0,7.m4v,9.0
2024-02-28 11:47:15.166096,1709117235.166096,-27.83203125,-47.8515625,-35.15625,-55.6640625,1.0,1.0,0.0,1.0,7.m4v,9.0
2024-02-28 11:47:15.170002,1709117235.170002,-39.0625,-43.45703125,-39.0625,-49.31640625,1.0,1.0,0.0,1.0,7.m4v,9.0
2024-02-28 11:47:15.173904,1709117235.1739037,-52.734375,-44.921875,-40.52734375,-44.921875,1.0,1.0,0.0,1.0,7.m4v,9.0
2024-02-28 11:47:15.177810,1709117235.1778097,-44.921875,-37.59765625,-35.15625,-26.85546875,1.0,1.0,0.0,1.0,7.m4v,9.0
2024-02-28 11:47:15.181716,1709117235.1817155,-36.1328125,-30.2734375,-34.1796875,-30.76171875,1.0,1.0,0.0,1.0,7.m4v,9.0
2024-02-28 11:47:15.185622,1709117235.1856215,-41.015625,-28.80859375,-44.43359375,-56.640625,1.0,1.0,0.0,1.0,7.m4v,9.0
2024-02-28 11:47:15.189528,1709117235.1895275,-39.0625,-29.296875,-39.0625,-50.78125,1.0,1.0,0.0,1.0,7.m4v,9.0
2024-02-28 11:47:15.193434,1709117235.1934335,-35.15625,-30.76171875,-24.4140625,-43.45703125,1.0,1.0,0.0,1.0,7.m4v,9.0
2024-02-28 11:47:15.197340,1709117235.1973395,-42.48046875,-35.64453125,-21.97265625,-49.8046875,1.0,1.0,0.0,1.0,7.m4v,9.0
2024-02-28 11:47:15.201246,1709117235.2012455,-48.828125,-34.66796875,-19.04296875,-45.41015625,1.0,1.0,0.0,1.0,7.m4v,9.0
2024-02-28 11:47:15.205152,1709117235.2051516,-36.1328125,-33.203125,-20.5078125,-32.2265625,1.0,1.0,0.0,1.0,7.m4v,9.0
2024-02-28 11:47:15.209058,1709117235.2090576,-42.96875,-35.64453125,-30.76171875,-26.85546875,1.0,1.0,0.0,1.0,7.m4v,9.0
2024-02-28 11:47:15.212963,1709117235.212963,-49.8046875,-35.15625,-30.2734375,-25.87890625,1.0,1.0,0.0,1.0,7.m4v,9.0
2024-02-28 11:47:15.216869,1709117235.2168694,-30.76171875,-35.15625,-24.4140625,-25.87890625,1.0,1.0,0.0,1.0,7.m4v,9.0
2024-02-28 11:47:15.220771,1709117235.2207708,-18.06640625,-33.69140625,-27.83203125,-48.828125,1.0,1.0,0.0,1.0,7.m4v,9.0
2024-02-28 11:47:15.224677,1709117235.2246768,-12.6953125,-27.34375,-35.15625,-46.38671875,1.0,1.0,0.0,1.0,7.m4v,9.0
2024-02-28 11:47:15.228583,1709117235.2285826,-26.3671875,-27.83203125,-31.73828125,-17.578125,1.0,1.0,0.0,1.0,7.m4v,9.0
2024-02-28 11:47:15.232489,1709117235.2324886,-62.98828125,-37.109375,-30.2734375,-28.80859375,1.0,1.0,0.0,1.0,7.m4v,9.0
2024-02-28 11:47:15.236395,1709117235.2363946,-56.640625,-36.62109375,-33.69140625,-48.33984375,1.0,1.0,0.0,1.0,7.m4v,9.0
2024-02-28 11:47:15.240301,1709117235.240301,-35.15625,-32.2265625,-32.71484375,-46.38671875,1.0,1.0,0.0,1.0,7.m4v,9.0
2024-02-28 11:47:15.244207,1709117235.244207,-22.4609375,-36.62109375,-30.2734375,-28.3203125,1.0,1.0,0.0,1.0,7.m4v,9.0
2024-02-28 11:47:15.248113,1709117235.248113,-31.25,-39.0625,-30.76171875,-39.0625,1.0,1.0,0.0,1.0,7.m4v,9.0
2024-02-28 11:47:15.252019,1709117235.2520187,-41.015625,-40.0390625,-32.2265625,-44.921875,1.0,1.0,0.0,1.0,7.m4v,9.0
2024-02-28 11:47:15.255924,1709117235.2559245,-41.50390625,-47.36328125,-28.80859375,-40.52734375,1.0,1.0,0.0,1.0,7.m4v,9.0
2024-02-28 11:47:15.259830,1709117235.2598305,-38.0859375,-43.9453125,-25.87890625,-21.484375,1.0,1.0,0.0,1.0,7.m4v,9.0
2024-02-28 11:47:15.263736,1709117235.2637365,-40.52734375,-34.1796875,-31.25,6.34765625,1.0,1.0,0.0,1.0,7.m4v,9.0
2024-02-28 11:47:15.267638,1709117235.2676375,-44.43359375,-38.0859375,-32.2265625,-33.203125,1.0,1.0,0.0,1.0,7.m4v,9.0
2024-02-28 11:47:15.271544,1709117235.2715435,-24.4140625,-33.69140625,-32.71484375,-25.390625,1.0,1.0,0.0,1.0,7.m4v,9.0
2024-02-28 11:47:15.275450,1709117235.2754498,-11.23046875,-26.3671875,-32.71484375,-13.18359375,1.0,1.0,0.0,1.0,7.m4v,9.0
2024-02-28 11:47:15.279356,1709117235.2793558,-23.4375,-29.296875,-34.66796875,-26.85546875,1.0,1.0,0.0,1.0,7.m4v,9.0
2024-02-28 11:47:15.283262,1709117235.2832618,-31.73828125,-30.2734375,-32.71484375,-36.62109375,1.0,1.0,0.0,1.0,7.m4v,9.0
2024-02-28 11:47:15.287168,1709117235.2871675,-19.53125,-30.2734375,-31.73828125,-34.66796875,1.0,1.0,0.0,1.0,7.m4v,9.0
2024-02-28 11:47:15.291074,1709117235.2910736,-50.78125,-35.64453125,-34.1796875,-12.20703125,1.0,1.0,0.0,1.0,7.m4v,9.0
2024-02-28 11:47:15.294980,1709117235.2949796,-62.98828125,-38.57421875,-35.15625,-53.7109375,1.0,1.0,0.0,1.0,7.m4v,9.0
2024-02-28 11:47:15.298886,1709117235.2988856,-33.69140625,-34.66796875,-36.62109375,-70.3125,1.0,1.0,0.0,1.0,7.m4v,9.0
2024-02-28 11:47:15.302792,1709117235.3027916,-45.8984375,-32.2265625,-43.9453125,-48.33984375,1.0,1.0,0.0,1.0,7.m4v,9.0
2024-02-28 11:47:15.306698,1709117235.3066976,-56.640625,-35.15625,-49.8046875,-41.50390625,1.0,1.0,0.0,1.0,7.m4v,9.0
2024-02-28 11:47:15.310603,1709117235.3106034,-41.9921875,-40.0390625,-41.9921875,-26.3671875,1.0,1.0,0.0,1.0,7.m4v,9.0
2024-02-28 11:47:15.314505,1709117235.3145049,-47.36328125,-35.15625,-31.25,-29.296875,1.0,1.0,0.0,1.0,7.m4v,9.0
2024-02-28 11:47:15.318411,1709117235.3184106,-19.53125,-34.66796875,-35.64453125,-53.7109375,1.0,1.0,0.0,1.0,7.m4v,9.0
2024-02-28 11:47:15.322317,1709117235.3223166,-5.37109375,-35.64453125,-37.59765625,-57.6171875,1.0,1.0,0.0,1.0,7.m4v,9.0
2024-02-28 11:47:15.330129,1709117235.330129,-89.84375,-36.1328125,-36.1328125,-56.640625,1.0,1.0,0.0,1.0,7.m4v,9.0
2024-02-28 11:47:15.341847,1709117235.3418467,-62.01171875,-45.41015625,-40.0390625,-51.26953125,1.0,1.0,0.0,1.0,7.m4v,9.0
2024-02-28 11:47:15.353565,1709117235.3535645,-75.1953125,-41.50390625,-44.921875,-80.56640625,1.0,1.0,0.0,1.0,7.m4v,9.0
2024-02-28 11:47:15.365278,1709117235.3652775,-65.4296875,-41.015625,-51.7578125,-87.890625,1.0,1.0,0.0,1.0,7.m4v,9.0
2024-02-28 11:47:15.376996,1709117235.3769956,-64.453125,-50.29296875,-41.9921875,-50.29296875,1.0,1.0,0.0,1.0,7.m4v,9.0
2024-02-28 11:47:15.388713,1709117235.3887134,-53.7109375,-42.96875,-48.33984375,-62.5,1.0,1.0,0.0,1.0,7.m4v,9.0
2024-02-28 11:47:15.400431,1709117235.4004314,-7.32421875,-28.3203125,-41.015625,-41.9921875,1.0,1.0,0.0,1.0,7.m4v,9.0
2024-02-28 11:47:15.416050,1709117235.4160502,-32.2265625,-30.76171875,-34.66796875,-56.640625,1.0,1.0,0.0,1.0,7.m4v,9.0
2024-02-28 11:47:15.419956,1709117235.4199562,-32.71484375,-29.296875,-34.66796875,-44.921875,1.0,1.0,0.0,1.0,7.m4v,9.0
2024-02-28 11:47:15.423862,1709117235.4238622,-38.0859375,-37.59765625,-34.66796875,-46.38671875,1.0,1.0,0.0,1.0,7.m4v,9.0
2024-02-28 11:47:15.427768,1709117235.427768,-42.48046875,-36.1328125,-36.62109375,-35.64453125,1.0,1.0,0.0,1.0,7.m4v,9.0
2024-02-28 11:47:15.431674,1709117235.431674,-25.87890625,-35.15625,-39.55078125,0.48828125,1.0,1.0,0.0,1.0,7.m4v,9.0
2024-02-28 11:47:15.439486,1709117235.439486,-24.4140625,-34.66796875,-31.25,-49.8046875,1.0,1.0,0.0,1.0,7.m4v,9.0
2024-02-28 11:47:15.447298,1709117235.447298,-24.4140625,-31.73828125,-35.64453125,-46.38671875,1.0,1.0,0.0,1.0,7.m4v,9.0
2024-02-28 11:47:15.455105,1709117235.4551046,-19.53125,-21.97265625,-15.625,-31.25,1.0,1.0,0.0,1.0,7.m4v,9.0
2024-02-28 11:47:15.462917,1709117235.4629166,-26.85546875,-20.5078125,-25.87890625,-25.87890625,1.0,1.0,0.0,1.0,7.m4v,9.0
2024-02-28 11:47:15.595706,1709117235.5957065,-41.9921875,-36.1328125,-42.48046875,-50.78125,1.0,1.0,0.0,1.0,7.m4v,9.0
2024-02-28 11:47:15.599612,1709117235.5996125,-25.87890625,-31.25,-37.109375,-44.921875,1.0,1.0,0.0,1.0,7.m4v,9.0
2024-02-28 11:47:15.603518,1709117235.6035185,-26.85546875,-31.25,-30.2734375,-21.484375,1.0,1.0,0.0,1.0,7.m4v,9.0
2024-02-28 11:47:15.607424,1709117235.6074245,-38.57421875,-32.71484375,-22.94921875,-3.90625,1.0,1.0,0.0,1.0,7.m4v,9.0
2024-02-28 11:47:15.611331,1709117235.6113305,-39.55078125,-30.76171875,-24.90234375,-51.26953125,1.0,1.0,0.0,1.0,7.m4v,9.0
2024-02-28 11:47:15.615237,1709117235.6152363,-35.64453125,-24.90234375,-27.83203125,-52.24609375,1.0,1.0,0.0,1.0,7.m4v,9.0
2024-02-28 11:47:15.619143,1709117235.6191423,-39.0625,-30.76171875,-28.80859375,-28.80859375,1.0,1.0,0.0,1.0,7.m4v,9.0
2024-02-28 11:47:15.623048,1709117235.6230483,-33.203125,-34.1796875,-30.76171875,-12.6953125,1.0,1.0,0.0,1.0,7.m4v,9.0
2024-02-28 11:47:15.626954,1709117235.6269543,-32.71484375,-35.15625,-35.64453125,-17.08984375,1.0,1.0,0.0,1.0,7.m4v,9.0
2024-02-28 11:47:15.630860,1709117235.6308603,-36.1328125,-31.25,-35.64453125,-31.25,1.0,1.0,0.0,1.0,7.m4v,9.0
2024-02-28 11:47:15.634766,1709117235.6347663,-27.83203125,-28.80859375,-38.0859375,-3.41796875,1.0,1.0,0.0,1.0,7.m4v,9.0
2024-02-28 11:47:15.638672,1709117235.6386724,-20.01953125,-31.73828125,-36.62109375,-13.671875,1.0,1.0,0.0,1.0,7.m4v,9.0
2024-02-28 11:47:15.642574,1709117235.6425736,-20.5078125,-35.64453125,-25.87890625,-48.33984375,1.0,1.0,0.0,1.0,7.m4v,9.0
2024-02-28 11:47:15.646480,1709117235.6464796,-44.921875,-31.73828125,-30.76171875,-45.8984375,1.0,1.0,0.0,1.0,7.m4v,9.0
2024-02-28 11:47:15.650385,1709117235.6503854,-47.36328125,-32.2265625,-36.1328125,-46.875,1.0,1.0,0.0,1.0,7.m4v,9.0
2024-02-28 11:47:15.654291,1709117235.6542914,-35.64453125,-41.015625,-33.69140625,-46.875,1.0,1.0,0.0,1.0,7.m4v,9.0
2024-02-28 11:47:15.658197,1709117235.6581974,-51.26953125,-41.9921875,-30.76171875,-23.92578125,1.0,1.0,0.0,1.0,7.m4v,9.0
2024-02-28 11:47:15.662103,1709117235.6621034,-52.734375,-38.57421875,-31.25,-16.11328125,1.0,1.0,0.0,1.0,7.m4v,9.0
2024-02-28 11:47:15.666009,1709117235.6660094,-49.31640625,-37.59765625,-34.66796875,-36.62109375,1.0,1.0,0.0,1.0,7.m4v,9.0
2024-02-28 11:47:15.669915,1709117235.6699154,-50.78125,-44.43359375,-34.1796875,-51.7578125,1.0,1.0,0.0,1.0,7.m4v,9.0
2024-02-28 11:47:15.673821,1709117235.6738212,-25.87890625,-39.0625,-40.0390625,-50.29296875,1.0,1.0,0.0,1.0,7.m4v,9.0
2024-02-28 11:47:15.677727,1709117235.6777272,-13.671875,-25.87890625,-43.9453125,-44.921875,1.0,1.0,0.0,1.0,7.m4v,9.0
2024-02-28 11:47:15.681633,1709117235.6816332,-42.48046875,-25.87890625,-39.0625,-7.32421875,1.0,1.0,0.0,1.0,7.m4v,9.0
2024-02-28 11:47:15.685539,1709117235.6855392,-50.29296875,-32.71484375,-36.62109375,-21.484375,1.0,1.0,0.0,1.0,7.m4v,9.0
2024-02-28 11:47:15.689440,1709117235.6894405,-38.57421875,-33.69140625,-35.64453125,-33.203125,1.0,1.0,0.0,1.0,7.m4v,9.0
2024-02-28 11:47:15.818328,1709117235.8183277,-23.92578125,-30.2734375,-29.296875,-49.31640625,1.0,1.0,0.0,1.0,7.m4v,9.0
2024-02-28 11:47:15.845665,1709117235.8456652,-38.57421875,-45.8984375,-33.69140625,-55.17578125,1.0,1.0,0.0,1.0,7.m4v,9.0
2024-02-28 11:47:15.849571,1709117235.8495712,-36.1328125,-40.52734375,-34.66796875,-32.71484375,1.0,1.0,0.0,1.0,7.m4v,9.0
2024-02-28 11:47:15.857383,1709117235.8573833,-37.59765625,-36.62109375,-28.80859375,-35.64453125,1.0,1.0,0.0,1.0,7.m4v,9.0
2024-02-28 11:47:15.865195,1709117235.8651953,-14.6484375,-38.57421875,-37.109375,-15.13671875,1.0,1.0,0.0,1.0,7.m4v,9.0
2024-02-28 11:47:15.869101,1709117235.869101,-16.6015625,-34.1796875,-43.45703125,-51.7578125,1.0,1.0,0.0,1.0,7.m4v,9.0
2024-02-28 11:47:15.876909,1709117235.8769088,-21.484375,-30.76171875,-31.73828125,-51.26953125,1.0,1.0,0.0,1.0,7.m4v,9.0
2024-02-28 11:47:15.896439,1709117235.8964386,-28.80859375,-31.73828125,-36.1328125,-25.87890625,1.0,1.0,0.0,1.0,7.m4v,9.0
2024-02-28 11:47:15.904251,1709117235.9042506,-41.9921875,-33.203125,-37.59765625,-39.55078125,1.0,1.0,0.0,1.0,7.m4v,9.0
2024-02-28 11:47:15.908157,1709117235.9081566,-41.015625,-36.62109375,-31.25,-33.69140625,1.0,1.0,0.0,1.0,7.m4v,9.0
2024-02-28 11:47:15.915968,1709117235.9159684,-41.015625,-36.1328125,-31.73828125,-43.45703125,1.0,1.0,0.0,1.0,7.m4v,9.0
2024-02-28 11:47:15.919874,1709117235.9198744,-39.0625,-40.0390625,-32.2265625,-57.6171875,1.0,1.0,0.0,1.0,7.m4v,9.0
2024-02-28 11:47:15.927682,1709117235.927682,-20.99609375,-26.3671875,-38.57421875,-46.38671875,1.0,1.0,0.0,1.0,7.m4v,9.0
2024-02-28 11:47:15.935494,1709117235.935494,-40.52734375,-33.203125,-26.3671875,-29.78515625,1.0,1.0,0.0,1.0,7.m4v,9.0
2024-02-28 11:47:15.939400,1709117235.9394,-33.69140625,-35.15625,-28.80859375,-32.71484375,1.0,1.0,0.0,1.0,7.m4v,9.0
2024-02-28 11:47:15.947212,1709117235.9472115,-17.08984375,-26.3671875,-29.78515625,-49.31640625,1.0,1.0,0.0,1.0,7.m4v,9.0
2024-02-28 11:47:15.951118,1709117235.9511178,-36.1328125,-29.78515625,-32.2265625,-33.203125,1.0,1.0,0.0,1.0,7.m4v,9.0
2024-02-28 11:47:15.958930,1709117235.9589298,-21.484375,-37.109375,-33.203125,-21.484375,1.0,1.0,0.0,1.0,7.m4v,9.0
2024-02-28 11:47:15.962836,1709117235.9628358,-44.43359375,-33.203125,-32.71484375,-33.203125,1.0,1.0,0.0,1.0,7.m4v,9.0
2024-02-28 11:47:15.970643,1709117235.9706433,-57.6171875,-32.71484375,-31.73828125,-37.59765625,1.0,1.0,0.0,1.0,7.m4v,9.0
2024-02-28 11:47:15.974549,1709117235.9745493,-28.80859375,-30.2734375,-34.66796875,-52.24609375,1.0,1.0,0.0,1.0,7.m4v,9.0
2024-02-28 11:47:16.181547,1709117236.1815474,-44.43359375,-34.1796875,-41.015625,-70.3125,1.0,1.0,0.0,1.0,7.m4v,9.0
2024-02-28 11:47:16.185453,1709117236.1854534,-29.296875,-36.62109375,-29.296875,-45.41015625,1.0,1.0,0.0,1.0,7.m4v,9.0
2024-02-28 11:47:16.189359,1709117236.1893592,5.37109375,-35.15625,-28.80859375,-36.62109375,1.0,1.0,0.0,1.0,7.m4v,9.0
2024-02-28 11:47:16.193265,1709117236.1932652,-10.7421875,-31.73828125,-33.203125,-39.0625,1.0,1.0,0.0,1.0,7.m4v,9.0
2024-02-28 11:47:16.197171,1709117236.1971712,-61.03515625,-28.80859375,-34.66796875,-39.0625,1.0,1.0,0.0,1.0,7.m4v,9.0
2024-02-28 11:47:16.201077,1709117236.2010772,-57.12890625,-29.296875,-36.62109375,-55.17578125,1.0,1.0,0.0,1.0,7.m4v,9.0
2024-02-28 11:47:16.204978,1709117236.2049782,-40.0390625,-25.87890625,-36.62109375,-64.94140625,1.0,1.0,0.0,1.0,7.m4v,9.0
2024-02-28 11:47:16.208884,1709117236.208884,-39.0625,-21.484375,-36.1328125,-51.7578125,1.0,1.0,0.0,1.0,7.m4v,9.0
2024-02-28 11:47:16.212790,1709117236.21279,-27.83203125,-23.92578125,-32.71484375,-41.50390625,1.0,1.0,0.0,1.0,7.m4v,9.0
2024-02-28 11:47:16.216696,1709117236.216696,-18.5546875,-22.94921875,-32.2265625,-34.66796875,1.0,1.0,0.0,1.0,7.m4v,9.0
2024-02-28 11:47:16.220602,1709117236.220602,-19.04296875,-23.92578125,-27.83203125,-38.0859375,1.0,1.0,0.0,1.0,7.m4v,9.0
2024-02-28 11:47:16.224508,1709117236.224508,-31.73828125,-27.83203125,-32.71484375,-41.015625,1.0,1.0,0.0,1.0,7.m4v,9.0
2024-02-28 11:47:16.228414,1709117236.228414,-35.15625,-33.69140625,-51.7578125,-37.59765625,1.0,1.0,0.0,1.0,7.m4v,9.0
2024-02-28 11:47:16.232320,1709117236.2323198,-32.71484375,-33.69140625,-57.6171875,-44.921875,1.0,1.0,0.0,1.0,7.m4v,9.0
2024-02-28 11:47:16.236226,1709117236.2362258,-26.85546875,-31.73828125,-36.62109375,-27.83203125,1.0,1.0,0.0,1.0,7.m4v,9.0
2024-02-28 11:47:16.240132,1709117236.240132,-17.578125,-35.64453125,-21.484375,-38.0859375,1.0,1.0,0.0,1.0,7.m4v,9.0
2024-02-28 11:47:16.365110,1709117236.36511,-40.52734375,-27.34375,-41.015625,-34.66796875,1.0,1.0,0.0,1.0,7.m4v,9.0
2024-02-28 11:47:16.369016,1709117236.369016,-38.57421875,-32.71484375,-40.0390625,-43.45703125,1.0,1.0,0.0,1.0,7.m4v,9.0
2024-02-28 11:47:16.372922,1709117236.372922,-34.66796875,-39.0625,-43.9453125,-44.43359375,1.0,1.0,0.0,1.0,7.m4v,9.0
2024-02-28 11:47:16.376828,1709117236.376828,-41.50390625,-46.875,-53.22265625,-44.43359375,1.0,1.0,0.0,1.0,7.m4v,9.0
2024-02-28 11:47:16.380734,1709117236.380734,-54.6875,-42.48046875,-41.9921875,-45.41015625,1.0,1.0,0.0,1.0,7.m4v,9.0
2024-02-28 11:47:16.384640,1709117236.38464,-36.62109375,-36.1328125,-29.296875,-16.11328125,1.0,1.0,0.0,1.0,7.m4v,9.0
2024-02-28 11:47:16.388546,1709117236.3885458,-15.625,-41.9921875,-31.25,-3.41796875,1.0,1.0,0.0,1.0,7.m4v,9.0
2024-02-28 11:47:16.392447,1709117236.3924472,-44.43359375,-43.9453125,-29.296875,-30.76171875,1.0,1.0,0.0,1.0,7.m4v,9.0
2024-02-28 11:47:16.396353,1709117236.3963532,-57.6171875,-36.62109375,-28.80859375,-42.96875,1.0,1.0,0.0,1.0,7.m4v,9.0
2024-02-28 11:47:16.400259,1709117236.4002593,-52.734375,-36.1328125,-36.1328125,-54.6875,1.0,1.0,0.0,1.0,7.m4v,9.0
2024-02-28 11:47:16.404165,1709117236.4041653,-49.31640625,-36.1328125,-36.1328125,-59.08203125,1.0,1.0,0.0,1.0,7.m4v,9.0
2024-02-28 11:47:16.408071,1709117236.408071,-17.08984375,-35.15625,-32.71484375,-55.17578125,1.0,1.0,0.0,1.0,7.m4v,9.0
2024-02-28 11:47:16.411977,1709117236.411977,-8.30078125,-35.15625,-35.15625,-46.875,1.0,1.0,0.0,1.0,7.m4v,9.0
2024-02-28 11:47:16.415883,1709117236.415883,-38.0859375,-36.1328125,-38.57421875,-37.59765625,1.0,1.0,0.0,1.0,7.m4v,9.0
2024-02-28 11:47:16.419789,1709117236.419789,-59.08203125,-39.0625,-35.15625,-46.38671875,1.0,1.0,0.0,1.0,7.m4v,9.0
2024-02-28 11:47:16.423695,1709117236.423695,-71.77734375,-38.0859375,-24.90234375,-47.36328125,1.0,1.0,0.0,1.0,7.m4v,9.0
2024-02-28 11:47:16.427601,1709117236.427601,-76.66015625,-41.015625,-21.484375,-48.33984375,1.0,1.0,0.0,1.0,7.m4v,9.0
2024-02-28 11:47:16.431507,1709117236.4315069,-57.12890625,-40.0390625,-36.1328125,-50.29296875,1.0,1.0,0.0,1.0,7.m4v,9.0
2024-02-28 11:47:16.435413,1709117236.435413,-41.015625,-35.15625,-41.9921875,-47.36328125,1.0,1.0,0.0,1.0,7.m4v,9.0
2024-02-28 11:47:16.439314,1709117236.4393144,-26.3671875,-30.76171875,-36.62109375,-38.57421875,1.0,1.0,0.0,1.0,7.m4v,9.0
2024-02-28 11:47:16.443220,1709117236.44322,-21.484375,-31.25,-35.15625,-29.296875,1.0,1.0,0.0,1.0,7.m4v,9.0
2024-02-28 11:47:16.447126,1709117236.4471262,-35.15625,-26.85546875,-28.3203125,-41.015625,1.0,1.0,0.0,1.0,7.m4v,9.0
2024-02-28 11:47:16.458844,1709117236.4588442,-39.0625,-31.73828125,-33.69140625,-47.36328125,1.0,1.0,0.0,1.0,7.m4v,9.0
2024-02-28 11:47:16.462750,1709117236.4627502,-31.73828125,-36.1328125,-32.71484375,-40.0390625,1.0,1.0,0.0,1.0,7.m4v,9.0
2024-02-28 11:47:16.466656,1709117236.466656,-35.64453125,-42.48046875,-29.78515625,-43.9453125,1.0,1.0,0.0,1.0,7.m4v,9.0
2024-02-28 11:47:16.470562,1709117236.470562,-35.64453125,-37.59765625,-24.4140625,-19.04296875,1.0,1.0,0.0,1.0,7.m4v,9.0
2024-02-28 11:47:16.474468,1709117236.474468,-31.73828125,-29.78515625,-23.4375,-29.78515625,1.0,1.0,0.0,1.0,7.m4v,9.0
2024-02-28 11:47:16.478374,1709117236.478374,-3.90625,-27.34375,-26.3671875,-49.8046875,1.0,1.0,0.0,1.0,7.m4v,9.0
2024-02-28 11:47:16.482280,1709117236.48228,-33.203125,-28.80859375,-26.85546875,-53.7109375,1.0,1.0,0.0,1.0,7.m4v,9.0
2024-02-28 11:47:16.486181,1709117236.486181,-62.01171875,-29.78515625,-27.83203125,-43.9453125,1.0,1.0,0.0,1.0,7.m4v,9.0
2024-02-28 11:47:16.490087,1709117236.490087,-37.59765625,-29.296875,-30.76171875,-28.3203125,1.0,1.0,0.0,1.0,7.m4v,9.0
2024-02-28 11:47:16.529147,1709117236.529147,-37.109375,-27.34375,-35.64453125,-33.203125,1.0,1.0,0.0,1.0,7.m4v,9.0
2024-02-28 11:47:16.536954,1709117236.5369537,-36.1328125,-32.2265625,-29.296875,-60.05859375,1.0,1.0,0.0,1.0,7.m4v,9.0
2024-02-28 11:47:16.544765,1709117236.5447657,-13.671875,-34.1796875,-31.25,-26.85546875,1.0,1.0,0.0,1.0,7.m4v,9.0
2024-02-28 11:47:16.548671,1709117236.5486715,-52.24609375,-30.76171875,-30.2734375,-44.921875,1.0,1.0,0.0,1.0,7.m4v,9.0
2024-02-28 11:47:16.552577,1709117236.5525775,-34.1796875,-23.4375,-28.3203125,-25.87890625,1.0,1.0,0.0,1.0,7.m4v,9.0
2024-02-28 11:47:16.599444,1709117236.5994442,-44.43359375,-40.0390625,-46.875,-45.8984375,1.0,1.0,0.0,1.0,7.m4v,9.0
2024-02-28 11:47:16.603350,1709117236.6033502,-34.66796875,-43.45703125,-36.1328125,-71.77734375,1.0,1.0,0.0,1.0,7.m4v,9.0
2024-02-28 11:47:16.611162,1709117236.611162,-31.25,-40.0390625,-35.64453125,-62.5,1.0,1.0,0.0,1.0,7.m4v,9.0
2024-02-28 11:47:16.615068,1709117236.615068,-33.69140625,-35.64453125,-41.9921875,-73.2421875,1.0,1.0,0.0,1.0,7.m4v,9.0
2024-02-28 11:47:16.626782,1709117236.6267817,-30.76171875,-41.015625,-39.0625,-29.78515625,1.0,1.0,0.0,1.0,7.m4v,9.0
2024-02-28 11:47:16.634594,1709117236.6345935,-29.78515625,-38.0859375,-38.57421875,-15.625,1.0,1.0,0.0,1.0,7.m4v,9.0
2024-02-28 11:47:16.638500,1709117236.6384995,0.0,-42.48046875,-48.33984375,-50.78125,1.0,1.0,0.0,1.0,7.m4v,9.0
2024-02-28 11:47:16.642406,1709117236.6424055,-9.27734375,-31.25,-39.55078125,-57.12890625,1.0,1.0,0.0,1.0,7.m4v,9.0
2024-02-28 11:47:16.646312,1709117236.6463115,-42.48046875,-23.92578125,-30.76171875,-46.38671875,1.0,1.0,0.0,1.0,7.m4v,9.0
2024-02-28 11:47:16.650218,1709117236.6502175,-51.7578125,-26.3671875,-32.71484375,-37.59765625,1.0,1.0,0.0,1.0,7.m4v,9.0
2024-02-28 11:47:16.841592,1709117236.841592,-52.24609375,-30.2734375,-41.50390625,-59.5703125,1.0,1.0,0.0,1.0,7.m4v,9.0
2024-02-28 11:47:16.845498,1709117236.845498,-46.38671875,-27.34375,-41.50390625,-32.71484375,1.0,1.0,0.0,1.0,7.m4v,9.0
2024-02-28 11:47:16.849404,1709117236.849404,-37.59765625,-20.99609375,-39.55078125,-31.73828125,1.0,1.0,0.0,1.0,7.m4v,9.0
2024-02-28 11:47:16.853310,1709117236.85331,-48.828125,-21.484375,-41.015625,-44.43359375,1.0,1.0,0.0,1.0,7.m4v,9.0
2024-02-28 11:47:16.857216,1709117236.857216,-38.57421875,-25.87890625,-41.015625,-46.38671875,1.0,1.0,0.0,1.0,7.m4v,9.0
2024-02-28 11:47:16.861117,1709117236.8611171,-37.59765625,-31.25,-43.9453125,-54.19921875,1.0,1.0,0.0,1.0,7.m4v,9.0
2024-02-28 11:47:16.865023,1709117236.8650231,-47.36328125,-39.55078125,-44.43359375,-62.01171875,1.0,1.0,0.0,1.0,7.m4v,9.0
2024-02-28 11:47:16.868929,1709117236.8689291,-36.1328125,-39.55078125,-38.0859375,-38.57421875,1.0,1.0,0.0,1.0,7.m4v,9.0
2024-02-28 11:47:16.872835,1709117236.872835,-34.66796875,-37.59765625,-37.59765625,-27.83203125,1.0,1.0,0.0,1.0,7.m4v,9.0
2024-02-28 11:47:16.876741,1709117236.876741,-33.203125,-36.62109375,-44.921875,-54.6875,1.0,1.0,0.0,1.0,7.m4v,9.0
2024-02-28 11:47:16.880647,1709117236.880647,-17.578125,-34.1796875,-47.8515625,-45.41015625,1.0,1.0,0.0,1.0,7.m4v,9.0
2024-02-28 11:47:16.884553,1709117236.884553,-25.87890625,-37.59765625,-33.69140625,-56.15234375,1.0,1.0,0.0,1.0,7.m4v,9.0
2024-02-28 11:47:16.888459,1709117236.888459,-45.8984375,-41.9921875,-26.3671875,-47.8515625,1.0,1.0,0.0,1.0,7.m4v,9.0
2024-02-28 11:47:16.892365,1709117236.892365,-35.15625,-38.57421875,-28.3203125,-36.62109375,1.0,1.0,0.0,1.0,7.m4v,9.0
2024-02-28 11:47:16.896271,1709117236.8962708,-23.92578125,-36.62109375,-34.66796875,-50.29296875,1.0,1.0,0.0,1.0,7.m4v,9.0
2024-02-28 11:47:16.900177,1709117236.9001768,-25.390625,-32.71484375,-37.109375,-47.36328125,1.0,1.0,0.0,1.0,7.m4v,9.0
2024-02-28 11:47:16.907984,1709117236.9079838,5.859375,-33.203125,-33.203125,8.30078125,1.0,1.0,0.0,1.0,7.m4v,9.0
2024-02-28 11:47:16.915796,1709117236.9157956,-50.29296875,-34.1796875,-44.43359375,-79.58984375,1.0,1.0,0.0,1.0,7.m4v,9.0
2024-02-28 11:47:16.919702,1709117236.9197016,-53.7109375,-27.83203125,-38.57421875,-56.15234375,1.0,1.0,0.0,1.0,7.m4v,9.0
2024-02-28 11:47:16.923608,1709117236.9236076,-53.7109375,-31.25,-36.1328125,-34.1796875,1.0,1.0,0.0,1.0,7.m4v,9.0
2024-02-28 11:47:16.927514,1709117236.9275136,-36.62109375,-33.69140625,-35.15625,-12.20703125,1.0,1.0,0.0,1.0,7.m4v,9.0
2024-02-28 11:47:16.931420,1709117236.9314196,-43.45703125,-37.59765625,-38.57421875,-20.5078125,1.0,1.0,0.0,1.0,7.m4v,9.0
2024-02-28 11:47:16.993910,1709117236.9939098,-21.97265625,-30.2734375,-36.62109375,-42.96875,1.0,1.0,0.0,1.0,7.m4v,9.0
2024-02-28 11:47:16.997816,1709117236.9978158,-20.5078125,-28.3203125,-41.015625,-49.8046875,1.0,1.0,0.0,1.0,7.m4v,9.0
2024-02-28 11:47:17.001718,1709117237.0017176,-28.80859375,-24.4140625,-38.57421875,-35.15625,1.0,1.0,0.0,1.0,7.m4v,9.0
2024-02-28 11:47:17.005624,1709117237.0056236,-23.92578125,-32.71484375,-34.66796875,-23.4375,1.0,1.0,0.0,1.0,7.m4v,9.0
2024-02-28 11:47:17.009530,1709117237.0095296,-28.3203125,-36.1328125,-37.109375,-38.0859375,1.0,1.0,0.0,1.0,7.m4v,9.0
2024-02-28 11:47:17.013435,1709117237.0134354,-34.1796875,-26.3671875,-39.55078125,-23.92578125,1.0,1.0,0.0,1.0,7.m4v,9.0
2024-02-28 11:47:17.017341,1709117237.0173414,-22.94921875,-28.3203125,-37.109375,-23.4375,1.0,1.0,0.0,1.0,7.m4v,9.0
2024-02-28 11:47:17.021247,1709117237.0212474,-54.6875,-36.62109375,-39.0625,-32.2265625,1.0,1.0,0.0,1.0,7.m4v,9.0
