Timestamp,Timestamp_UNIX,TP9,AF7,AF8,TP10,Valence,Arousal,Dominace,Viewed,Video,Participant
2024-02-28 13:19:56.119417,1709122796.119417,-38.57421875,-42.96875,-26.3671875,-36.62109375,1.0,-1.0,0.0,0.0,2.m4v,10.0
2024-02-28 13:19:56.123322,1709122796.1233225,-29.296875,-43.45703125,-21.97265625,-32.71484375,1.0,-1.0,0.0,0.0,2.m4v,10.0
2024-02-28 13:19:56.127228,1709122796.127228,-31.73828125,-43.45703125,-23.92578125,-41.015625,1.0,-1.0,0.0,0.0,2.m4v,10.0
2024-02-28 13:19:56.131134,1709122796.1311336,-38.0859375,-43.45703125,-24.90234375,-50.29296875,1.0,-1.0,0.0,0.0,2.m4v,10.0
2024-02-28 13:19:56.135039,1709122796.135039,-42.96875,-44.43359375,-24.90234375,-45.41015625,1.0,-1.0,0.0,0.0,2.m4v,10.0
2024-02-28 13:19:56.138945,1709122796.1389449,-42.96875,-41.015625,-28.3203125,-39.0625,1.0,-1.0,0.0,0.0,2.m4v,10.0
2024-02-28 13:19:56.142850,1709122796.1428504,-41.50390625,-41.015625,-32.2265625,-41.50390625,1.0,-1.0,0.0,0.0,2.m4v,10.0
2024-02-28 13:19:56.146756,1709122796.146756,-41.015625,-44.921875,-36.62109375,-41.9921875,1.0,-1.0,0.0,0.0,2.m4v,10.0
2024-02-28 13:19:56.150661,1709122796.1506617,-39.0625,-37.109375,-35.64453125,-42.96875,1.0,-1.0,0.0,0.0,2.m4v,10.0
2024-02-28 13:19:56.154567,1709122796.154567,-32.2265625,-32.2265625,-29.78515625,-35.15625,1.0,-1.0,0.0,0.0,2.m4v,10.0
2024-02-28 13:19:56.158473,1709122796.1584723,-29.78515625,-37.59765625,-24.90234375,-32.2265625,1.0,-1.0,0.0,0.0,2.m4v,10.0
2024-02-28 13:19:56.162385,1709122796.1623852,-35.15625,-40.0390625,-30.2734375,-35.15625,1.0,-1.0,0.0,0.0,2.m4v,10.0
2024-02-28 13:19:56.166291,1709122796.1662908,-39.0625,-39.55078125,-34.1796875,-37.109375,1.0,-1.0,0.0,0.0,2.m4v,10.0
2024-02-28 13:19:56.170196,1709122796.1701963,-43.45703125,-41.015625,-33.203125,-38.57421875,1.0,-1.0,0.0,0.0,2.m4v,10.0
2024-02-28 13:19:56.174102,1709122796.1741018,-45.8984375,-42.48046875,-32.2265625,-40.0390625,1.0,-1.0,0.0,0.0,2.m4v,10.0
2024-02-28 13:19:56.178007,1709122796.1780074,-43.45703125,-40.0390625,-29.296875,-33.69140625,1.0,-1.0,0.0,0.0,2.m4v,10.0
2024-02-28 13:19:56.181913,1709122796.181913,-44.921875,-35.64453125,-29.296875,-33.69140625,1.0,-1.0,0.0,0.0,2.m4v,10.0
2024-02-28 13:19:56.185818,1709122796.1858184,-43.45703125,-33.69140625,-29.296875,-36.62109375,1.0,-1.0,0.0,0.0,2.m4v,10.0
2024-02-28 13:19:56.189724,1709122796.189724,-41.015625,-31.73828125,-28.3203125,-31.73828125,1.0,-1.0,0.0,0.0,2.m4v,10.0
2024-02-28 13:19:56.193630,1709122796.1936295,-44.921875,-32.2265625,-32.2265625,-35.15625,1.0,-1.0,0.0,0.0,2.m4v,10.0
2024-02-28 13:19:56.197535,1709122796.197535,-45.41015625,-33.203125,-38.0859375,-38.0859375,1.0,-1.0,0.0,0.0,2.m4v,10.0
2024-02-28 13:19:56.201441,1709122796.2014406,-38.0859375,-32.2265625,-32.71484375,-35.64453125,1.0,-1.0,0.0,0.0,2.m4v,10.0
2024-02-28 13:19:56.205346,1709122796.205346,-32.71484375,-29.78515625,-25.87890625,-33.69140625,1.0,-1.0,0.0,0.0,2.m4v,10.0
2024-02-28 13:19:56.209258,1709122796.2092583,-29.296875,-24.90234375,-25.390625,-27.83203125,1.0,-1.0,0.0,0.0,2.m4v,10.0
2024-02-28 13:19:56.213164,1709122796.213164,-32.2265625,-27.34375,-27.83203125,-34.66796875,1.0,-1.0,0.0,0.0,2.m4v,10.0
2024-02-28 13:19:56.217069,1709122796.2170694,-44.43359375,-31.73828125,-32.71484375,-48.828125,1.0,-1.0,0.0,0.0,2.m4v,10.0
2024-02-28 13:19:56.220975,1709122796.220975,-43.45703125,-28.3203125,-35.15625,-37.59765625,1.0,-1.0,0.0,0.0,2.m4v,10.0
2024-02-28 13:19:56.224880,1709122796.2248805,-32.71484375,-29.78515625,-30.76171875,-28.80859375,1.0,-1.0,0.0,0.0,2.m4v,10.0
2024-02-28 13:19:56.228786,1709122796.228786,-30.76171875,-35.15625,-26.85546875,-33.203125,1.0,-1.0,0.0,0.0,2.m4v,10.0
2024-02-28 13:19:56.232692,1709122796.2326915,-33.203125,-34.66796875,-28.3203125,-34.1796875,1.0,-1.0,0.0,0.0,2.m4v,10.0
2024-02-28 13:19:56.236597,1709122796.236597,-38.0859375,-29.78515625,-26.3671875,-33.69140625,1.0,-1.0,0.0,0.0,2.m4v,10.0
2024-02-28 13:19:56.240503,1709122796.2405026,-34.66796875,-27.34375,-23.92578125,-29.296875,1.0,-1.0,0.0,0.0,2.m4v,10.0
2024-02-28 13:19:56.244408,1709122796.244408,-30.76171875,-28.3203125,-24.90234375,-31.73828125,1.0,-1.0,0.0,0.0,2.m4v,10.0
2024-02-28 13:19:56.248314,1709122796.2483137,-39.0625,-29.296875,-25.390625,-37.109375,1.0,-1.0,0.0,0.0,2.m4v,10.0
2024-02-28 13:19:56.252219,1709122796.2522192,-36.62109375,-26.3671875,-23.92578125,-33.69140625,1.0,-1.0,0.0,0.0,2.m4v,10.0
2024-02-28 13:19:56.256131,1709122796.2561312,-37.109375,-28.80859375,-30.2734375,-38.0859375,1.0,-1.0,0.0,0.0,2.m4v,10.0
2024-02-28 13:19:56.260037,1709122796.2600367,-41.9921875,-26.3671875,-30.76171875,-41.9921875,1.0,-1.0,0.0,0.0,2.m4v,10.0
2024-02-28 13:19:56.263942,1709122796.2639422,-43.45703125,-26.85546875,-26.85546875,-43.9453125,1.0,-1.0,0.0,0.0,2.m4v,10.0
2024-02-28 13:19:56.267848,1709122796.2678478,-52.734375,-31.25,-27.83203125,-45.8984375,1.0,-1.0,0.0,0.0,2.m4v,10.0
2024-02-28 13:19:56.271753,1709122796.2717533,-64.94140625,-29.78515625,-29.296875,-63.4765625,1.0,-1.0,0.0,0.0,2.m4v,10.0
2024-02-28 13:19:56.275659,1709122796.2756588,-83.0078125,-28.80859375,-36.1328125,-93.26171875,1.0,-1.0,0.0,0.0,2.m4v,10.0
2024-02-28 13:19:56.279564,1709122796.2795644,-100.09765625,-31.25,-32.71484375,-110.3515625,1.0,-1.0,0.0,0.0,2.m4v,10.0
2024-02-28 13:19:56.283470,1709122796.28347,-119.62890625,-34.66796875,-29.296875,-129.8828125,1.0,-1.0,0.0,0.0,2.m4v,10.0
2024-02-28 13:19:56.287376,1709122796.2873757,-146.484375,-31.25,-35.64453125,-156.73828125,1.0,-1.0,0.0,0.0,2.m4v,10.0
2024-02-28 13:19:56.291281,1709122796.2912812,-165.52734375,-34.1796875,-38.0859375,-176.26953125,1.0,-1.0,0.0,0.0,2.m4v,10.0
2024-02-28 13:19:56.295187,1709122796.2951868,-179.6875,-37.109375,-41.015625,-186.5234375,1.0,-1.0,0.0,0.0,2.m4v,10.0
2024-02-28 13:19:56.299092,1709122796.2990923,-193.84765625,-33.203125,-45.41015625,-201.66015625,1.0,-1.0,0.0,0.0,2.m4v,10.0
2024-02-28 13:19:56.303004,1709122796.303004,-204.58984375,-24.4140625,-41.9921875,-211.42578125,1.0,-1.0,0.0,0.0,2.m4v,10.0
2024-02-28 13:19:56.306910,1709122796.3069098,-210.9375,-23.4375,-34.66796875,-210.44921875,1.0,-1.0,0.0,0.0,2.m4v,10.0
2024-02-28 13:19:56.310815,1709122796.310815,-211.42578125,-31.25,-36.1328125,-211.42578125,1.0,-1.0,0.0,0.0,2.m4v,10.0
2024-02-28 13:19:56.314721,1709122796.3147209,-202.1484375,-29.78515625,-36.62109375,-204.58984375,1.0,-1.0,0.0,0.0,2.m4v,10.0
2024-02-28 13:19:56.318626,1709122796.3186264,-199.70703125,-34.66796875,-36.62109375,-195.3125,1.0,-1.0,0.0,0.0,2.m4v,10.0
2024-02-28 13:19:56.322532,1709122796.322532,-202.1484375,-39.55078125,-37.59765625,-192.3828125,1.0,-1.0,0.0,0.0,2.m4v,10.0
2024-02-28 13:19:56.326437,1709122796.3264377,-190.91796875,-40.52734375,-35.64453125,-183.59375,1.0,-1.0,0.0,0.0,2.m4v,10.0
2024-02-28 13:19:56.330343,1709122796.330343,-177.24609375,-37.109375,-30.76171875,-170.41015625,1.0,-1.0,0.0,0.0,2.m4v,10.0
2024-02-28 13:19:56.334249,1709122796.3342483,-159.66796875,-31.73828125,-29.296875,-147.94921875,1.0,-1.0,0.0,0.0,2.m4v,10.0
2024-02-28 13:19:56.338154,1709122796.338154,-142.578125,-34.66796875,-33.203125,-136.23046875,1.0,-1.0,0.0,0.0,2.m4v,10.0
2024-02-28 13:19:56.342060,1709122796.3420596,-131.8359375,-34.1796875,-37.59765625,-140.13671875,1.0,-1.0,0.0,0.0,2.m4v,10.0
2024-02-28 13:19:56.345965,1709122796.3459651,-124.0234375,-32.2265625,-39.55078125,-134.765625,1.0,-1.0,0.0,0.0,2.m4v,10.0
2024-02-28 13:19:56.349876,1709122796.349876,-117.1875,-35.64453125,-36.62109375,-120.1171875,1.0,-1.0,0.0,0.0,2.m4v,10.0
2024-02-28 13:19:56.353781,1709122796.3537817,-104.4921875,-36.1328125,-28.80859375,-104.00390625,1.0,-1.0,0.0,0.0,2.m4v,10.0
2024-02-28 13:19:56.357687,1709122796.357687,-87.890625,-42.96875,-26.3671875,-85.9375,1.0,-1.0,0.0,0.0,2.m4v,10.0
2024-02-28 13:19:56.361593,1709122796.3615923,-75.1953125,-49.31640625,-35.15625,-75.1953125,1.0,-1.0,0.0,0.0,2.m4v,10.0
2024-02-28 13:19:56.365498,1709122796.3654983,-73.2421875,-47.8515625,-41.50390625,-71.2890625,1.0,-1.0,0.0,0.0,2.m4v,10.0
2024-02-28 13:19:56.369404,1709122796.3694038,-63.4765625,-46.38671875,-39.55078125,-58.59375,1.0,-1.0,0.0,0.0,2.m4v,10.0
2024-02-28 13:19:56.373309,1709122796.3733094,-43.45703125,-41.015625,-38.57421875,-44.921875,1.0,-1.0,0.0,0.0,2.m4v,10.0
2024-02-28 13:19:56.377215,1709122796.377215,-41.50390625,-39.0625,-43.9453125,-46.875,1.0,-1.0,0.0,0.0,2.m4v,10.0
2024-02-28 13:19:56.381120,1709122796.3811204,-30.2734375,-40.0390625,-44.43359375,-37.109375,1.0,-1.0,0.0,0.0,2.m4v,10.0
2024-02-28 13:19:56.385026,1709122796.385026,-17.08984375,-39.0625,-44.921875,-32.2265625,1.0,-1.0,0.0,0.0,2.m4v,10.0
2024-02-28 13:19:56.388932,1709122796.3889315,-16.6015625,-35.15625,-47.8515625,-34.66796875,1.0,-1.0,0.0,0.0,2.m4v,10.0
2024-02-28 13:19:56.392837,1709122796.392837,-16.11328125,-34.66796875,-42.96875,-27.34375,1.0,-1.0,0.0,0.0,2.m4v,10.0
2024-02-28 13:19:56.396747,1709122796.3967474,-11.71875,-34.66796875,-42.48046875,-12.6953125,1.0,-1.0,0.0,0.0,2.m4v,10.0
2024-02-28 13:19:56.400653,1709122796.400653,-0.48828125,-39.55078125,-42.48046875,-6.8359375,1.0,-1.0,0.0,0.0,2.m4v,10.0
2024-02-28 13:19:56.404558,1709122796.4045584,4.8828125,-41.9921875,-41.015625,-7.32421875,1.0,-1.0,0.0,0.0,2.m4v,10.0
2024-02-28 13:19:56.408464,1709122796.408464,12.20703125,-39.0625,-38.57421875,2.9296875,1.0,-1.0,0.0,0.0,2.m4v,10.0
2024-02-28 13:19:56.412369,1709122796.4123695,14.6484375,-39.0625,-37.109375,7.32421875,1.0,-1.0,0.0,0.0,2.m4v,10.0
2024-02-28 13:19:58.252121,1709122798.2521214,-38.0859375,-46.875,-27.83203125,-35.64453125,1.0,-1.0,0.0,0.0,2.m4v,10.0
2024-02-28 13:19:58.259933,1709122798.2599325,-37.59765625,-41.9921875,-23.92578125,-29.78515625,1.0,-1.0,0.0,0.0,2.m4v,10.0
2024-02-28 13:19:58.267744,1709122798.2677436,-34.66796875,-44.921875,-28.3203125,-28.3203125,1.0,-1.0,0.0,0.0,2.m4v,10.0
2024-02-28 13:19:58.275560,1709122798.2755597,-38.57421875,-41.015625,-22.94921875,-19.53125,1.0,-1.0,0.0,0.0,2.m4v,10.0
2024-02-28 13:19:58.283371,1709122798.2833707,-36.62109375,-35.64453125,-32.2265625,-25.87890625,1.0,-1.0,0.0,0.0,2.m4v,10.0
2024-02-28 13:19:58.291182,1709122798.2911818,-42.48046875,-29.296875,-32.2265625,-36.1328125,1.0,-1.0,0.0,0.0,2.m4v,10.0
2024-02-28 13:19:58.298993,1709122798.2989929,-48.828125,-39.0625,-37.59765625,-43.9453125,1.0,-1.0,0.0,0.0,2.m4v,10.0
2024-02-28 13:19:58.306804,1709122798.306804,-42.48046875,-38.57421875,-32.71484375,-37.59765625,1.0,-1.0,0.0,0.0,2.m4v,10.0
2024-02-28 13:19:58.314615,1709122798.314615,-53.22265625,-31.73828125,-34.1796875,-38.0859375,1.0,-1.0,0.0,0.0,2.m4v,10.0
2024-02-28 13:19:58.322431,1709122798.3224306,-56.640625,-34.66796875,-32.71484375,-43.45703125,1.0,-1.0,0.0,0.0,2.m4v,10.0
2024-02-28 13:19:58.330242,1709122798.3302417,-59.5703125,-36.62109375,-34.66796875,-47.36328125,1.0,-1.0,0.0,0.0,2.m4v,10.0
2024-02-28 13:19:58.338053,1709122798.3380527,-60.05859375,-28.80859375,-30.76171875,-42.48046875,1.0,-1.0,0.0,0.0,2.m4v,10.0
2024-02-28 13:19:58.345864,1709122798.3458638,-44.921875,-32.2265625,-34.1796875,-46.38671875,1.0,-1.0,0.0,0.0,2.m4v,10.0
2024-02-28 13:19:58.353675,1709122798.353675,-46.38671875,-31.25,-30.2734375,-50.29296875,1.0,-1.0,0.0,0.0,2.m4v,10.0
2024-02-28 13:19:58.943500,1709122798.9435,-9.27734375,-27.34375,-32.2265625,-9.27734375,1.0,-1.0,0.0,0.0,2.m4v,10.0
2024-02-28 13:19:58.947406,1709122798.9474056,-2.9296875,-27.83203125,-30.76171875,-10.7421875,1.0,-1.0,0.0,0.0,2.m4v,10.0
2024-02-28 13:19:58.951311,1709122798.951311,-2.44140625,-27.34375,-34.66796875,-8.7890625,1.0,-1.0,0.0,0.0,2.m4v,10.0
2024-02-28 13:19:58.955217,1709122798.9552166,-5.859375,-26.85546875,-40.0390625,-7.8125,1.0,-1.0,0.0,0.0,2.m4v,10.0
2024-02-28 13:19:58.959122,1709122798.9591222,6.8359375,-25.390625,-37.59765625,-3.41796875,1.0,-1.0,0.0,0.0,2.m4v,10.0
2024-02-28 13:19:58.963028,1709122798.9630277,14.16015625,-24.4140625,-34.66796875,-2.44140625,1.0,-1.0,0.0,0.0,2.m4v,10.0
2024-02-28 13:19:58.966933,1709122798.9669333,4.39453125,-29.78515625,-34.66796875,-4.8828125,1.0,-1.0,0.0,0.0,2.m4v,10.0
2024-02-28 13:19:58.970839,1709122798.9708388,1.953125,-35.15625,-29.78515625,-3.90625,1.0,-1.0,0.0,0.0,2.m4v,10.0
2024-02-28 13:19:58.974750,1709122798.97475,1.46484375,-35.15625,-28.80859375,-3.90625,1.0,-1.0,0.0,0.0,2.m4v,10.0
2024-02-28 13:19:58.978656,1709122798.9786556,0.9765625,-29.296875,-28.80859375,-2.9296875,1.0,-1.0,0.0,0.0,2.m4v,10.0
2024-02-28 13:19:58.982561,1709122798.982561,4.8828125,-28.3203125,-26.85546875,4.8828125,1.0,-1.0,0.0,0.0,2.m4v,10.0
2024-02-28 13:19:58.986467,1709122798.9864666,11.71875,-29.78515625,-28.3203125,6.34765625,1.0,-1.0,0.0,0.0,2.m4v,10.0
2024-02-28 13:19:58.990372,1709122798.9903722,11.71875,-30.2734375,-31.73828125,8.7890625,1.0,-1.0,0.0,0.0,2.m4v,10.0
2024-02-28 13:19:58.994278,1709122798.9942777,3.90625,-31.25,-31.73828125,6.8359375,1.0,-1.0,0.0,0.0,2.m4v,10.0
2024-02-28 13:19:58.998183,1709122798.9981833,9.765625,-31.25,-30.76171875,7.8125,1.0,-1.0,0.0,0.0,2.m4v,10.0
2024-02-28 13:19:59.002089,1709122799.0020888,13.671875,-30.2734375,-36.62109375,10.7421875,1.0,-1.0,0.0,0.0,2.m4v,10.0
2024-02-28 13:19:59.005994,1709122799.0059943,4.8828125,-29.296875,-36.1328125,6.8359375,1.0,-1.0,0.0,0.0,2.m4v,10.0
2024-02-28 13:19:59.009900,1709122799.0099,-3.90625,-29.296875,-30.2734375,4.39453125,1.0,-1.0,0.0,0.0,2.m4v,10.0
2024-02-28 13:19:59.013805,1709122799.0138054,-7.32421875,-25.390625,-32.2265625,-1.46484375,1.0,-1.0,0.0,0.0,2.m4v,10.0
2024-02-28 13:19:59.017711,1709122799.017711,-7.8125,-28.80859375,-39.0625,-2.9296875,1.0,-1.0,0.0,0.0,2.m4v,10.0
2024-02-28 13:19:59.021622,1709122799.0216217,-3.41796875,-27.83203125,-39.0625,-1.46484375,1.0,-1.0,0.0,0.0,2.m4v,10.0
2024-02-28 13:19:59.025527,1709122799.0255277,-0.48828125,-26.3671875,-34.66796875,0.9765625,1.0,-1.0,0.0,0.0,2.m4v,10.0
2024-02-28 13:19:59.029433,1709122799.029433,-0.9765625,-27.34375,-30.76171875,1.953125,1.0,-1.0,0.0,0.0,2.m4v,10.0
2024-02-28 13:19:59.455195,1709122799.455195,-38.57421875,-34.1796875,-33.203125,-33.203125,1.0,-1.0,0.0,0.0,2.m4v,10.0
2024-02-28 13:19:59.466912,1709122799.4669116,-39.0625,-38.57421875,-33.203125,-30.76171875,1.0,-1.0,0.0,0.0,2.m4v,10.0
2024-02-28 13:19:59.474723,1709122799.4747226,-39.0625,-31.25,-30.76171875,-28.80859375,1.0,-1.0,0.0,0.0,2.m4v,10.0
2024-02-28 13:20:00.068447,1709122800.0684466,2.9296875,-32.71484375,-30.76171875,4.8828125,1.0,-1.0,0.0,0.0,2.m4v,10.0
2024-02-28 13:20:00.072352,1709122800.0723522,1.46484375,-31.73828125,-34.1796875,1.953125,1.0,-1.0,0.0,0.0,2.m4v,10.0
2024-02-28 13:20:00.076258,1709122800.0762577,-1.46484375,-35.64453125,-36.62109375,3.90625,1.0,-1.0,0.0,0.0,2.m4v,10.0
2024-02-28 13:20:00.080163,1709122800.0801632,2.44140625,-36.1328125,-37.59765625,-2.44140625,1.0,-1.0,0.0,0.0,2.m4v,10.0
2024-02-28 13:20:00.084069,1709122800.0840688,3.41796875,-22.94921875,-36.1328125,-5.859375,1.0,-1.0,0.0,0.0,2.m4v,10.0
2024-02-28 13:20:00.087974,1709122800.0879743,0.9765625,-22.94921875,-39.0625,-4.8828125,1.0,-1.0,0.0,0.0,2.m4v,10.0
2024-02-28 13:20:00.091880,1709122800.0918798,7.32421875,-28.3203125,-41.015625,-0.9765625,1.0,-1.0,0.0,0.0,2.m4v,10.0
2024-02-28 13:20:00.095785,1709122800.0957854,13.671875,-26.3671875,-38.57421875,5.37109375,1.0,-1.0,0.0,0.0,2.m4v,10.0
2024-02-28 13:20:00.099697,1709122800.0996966,18.06640625,-22.94921875,-29.78515625,12.6953125,1.0,-1.0,0.0,0.0,2.m4v,10.0
2024-02-28 13:20:00.103602,1709122800.1036022,18.06640625,-21.97265625,-23.4375,13.671875,1.0,-1.0,0.0,0.0,2.m4v,10.0
2024-02-28 13:20:00.107508,1709122800.1075077,7.8125,-21.484375,-19.53125,12.20703125,1.0,-1.0,0.0,0.0,2.m4v,10.0
2024-02-28 13:20:00.111413,1709122800.1114132,-0.9765625,-28.3203125,-20.01953125,12.20703125,1.0,-1.0,0.0,0.0,2.m4v,10.0
2024-02-28 13:20:00.115319,1709122800.1153188,-2.9296875,-35.64453125,-25.87890625,12.6953125,1.0,-1.0,0.0,0.0,2.m4v,10.0
2024-02-28 13:20:00.119224,1709122800.1192243,0.0,-36.1328125,-30.2734375,10.7421875,1.0,-1.0,0.0,0.0,2.m4v,10.0
2024-02-28 13:20:00.123130,1709122800.1231298,7.8125,-38.0859375,-29.78515625,10.7421875,1.0,-1.0,0.0,0.0,2.m4v,10.0
2024-02-28 13:20:00.127035,1709122800.1270354,14.16015625,-37.109375,-25.390625,16.6015625,1.0,-1.0,0.0,0.0,2.m4v,10.0
2024-02-28 13:20:00.130941,1709122800.130941,15.13671875,-32.2265625,-24.4140625,19.04296875,1.0,-1.0,0.0,0.0,2.m4v,10.0
2024-02-28 13:20:00.134846,1709122800.1348464,10.7421875,-31.73828125,-29.78515625,10.25390625,1.0,-1.0,0.0,0.0,2.m4v,10.0
2024-02-28 13:20:00.138752,1709122800.138752,6.8359375,-32.2265625,-32.71484375,4.8828125,1.0,-1.0,0.0,0.0,2.m4v,10.0
2024-02-28 13:20:00.142658,1709122800.1426575,7.8125,-28.3203125,-29.78515625,4.39453125,1.0,-1.0,0.0,0.0,2.m4v,10.0
2024-02-28 13:20:00.146569,1709122800.1465683,6.8359375,-26.85546875,-31.73828125,-1.953125,1.0,-1.0,0.0,0.0,2.m4v,10.0
2024-02-28 13:20:00.150474,1709122800.1504743,-3.90625,-31.73828125,-34.1796875,-13.18359375,1.0,-1.0,0.0,0.0,2.m4v,10.0
2024-02-28 13:20:00.154380,1709122800.1543798,-16.11328125,-33.69140625,-37.109375,-19.53125,1.0,-1.0,0.0,0.0,2.m4v,10.0
2024-02-28 13:20:00.158285,1709122800.1582854,-10.7421875,-34.1796875,-37.109375,-18.5546875,1.0,-1.0,0.0,0.0,2.m4v,10.0
2024-02-28 13:20:00.162191,1709122800.162191,-2.44140625,-34.1796875,-39.55078125,-15.13671875,1.0,-1.0,0.0,0.0,2.m4v,10.0
2024-02-28 13:20:00.166096,1709122800.1660964,-8.30078125,-34.66796875,-40.0390625,-14.16015625,1.0,-1.0,0.0,0.0,2.m4v,10.0
2024-02-28 13:20:00.170002,1709122800.170002,-15.625,-39.0625,-44.43359375,-14.6484375,1.0,-1.0,0.0,0.0,2.m4v,10.0
2024-02-28 13:20:00.173908,1709122800.1739075,-11.71875,-39.0625,-44.43359375,-8.30078125,1.0,-1.0,0.0,0.0,2.m4v,10.0
2024-02-28 13:20:00.177813,1709122800.177813,-8.30078125,-32.2265625,-38.0859375,-4.8828125,1.0,-1.0,0.0,0.0,2.m4v,10.0
2024-02-28 13:20:00.181719,1709122800.1817186,-12.20703125,-30.2734375,-37.109375,-6.34765625,1.0,-1.0,0.0,0.0,2.m4v,10.0
2024-02-28 13:20:00.185624,1709122800.185624,-18.06640625,-32.71484375,-36.62109375,-7.32421875,1.0,-1.0,0.0,0.0,2.m4v,10.0
2024-02-28 13:20:00.189530,1709122800.1895297,-13.18359375,-34.1796875,-39.0625,-11.23046875,1.0,-1.0,0.0,0.0,2.m4v,10.0
2024-02-28 13:20:00.193440,1709122800.1934395,-3.41796875,-33.203125,-37.59765625,-13.18359375,1.0,-1.0,0.0,0.0,2.m4v,10.0
2024-02-28 13:20:00.197345,1709122800.1973453,4.39453125,-29.78515625,-32.2265625,-7.32421875,1.0,-1.0,0.0,0.0,2.m4v,10.0
2024-02-28 13:20:00.201251,1709122800.2012508,9.765625,-24.90234375,-33.69140625,-1.953125,1.0,-1.0,0.0,0.0,2.m4v,10.0
2024-02-28 13:20:00.205156,1709122800.2051563,6.8359375,-26.85546875,-36.1328125,-5.859375,1.0,-1.0,0.0,0.0,2.m4v,10.0
2024-02-28 13:20:00.209062,1709122800.209062,7.8125,-29.296875,-37.109375,-13.18359375,1.0,-1.0,0.0,0.0,2.m4v,10.0
2024-02-28 13:20:00.212967,1709122800.2129674,1.953125,-23.4375,-33.203125,-10.25390625,1.0,-1.0,0.0,0.0,2.m4v,10.0
2024-02-28 13:20:00.216873,1709122800.216873,-8.30078125,-24.90234375,-31.73828125,-8.30078125,1.0,-1.0,0.0,0.0,2.m4v,10.0
2024-02-28 13:20:00.220778,1709122800.2207785,-9.765625,-26.85546875,-32.2265625,-12.20703125,1.0,-1.0,0.0,0.0,2.m4v,10.0
2024-02-28 13:20:00.224684,1709122800.224684,-17.08984375,-26.3671875,-34.1796875,-18.06640625,1.0,-1.0,0.0,0.0,2.m4v,10.0
2024-02-28 13:20:00.228590,1709122800.2285895,-20.01953125,-28.3203125,-36.1328125,-14.16015625,1.0,-1.0,0.0,0.0,2.m4v,10.0
2024-02-28 13:20:00.232495,1709122800.232495,-9.27734375,-26.3671875,-33.203125,-2.9296875,1.0,-1.0,0.0,0.0,2.m4v,10.0
2024-02-28 13:20:00.236401,1709122800.2364006,-4.8828125,-24.4140625,-37.59765625,-9.765625,1.0,-1.0,0.0,0.0,2.m4v,10.0
2024-02-28 13:20:00.240314,1709122800.2403138,-4.8828125,-26.85546875,-40.0390625,-11.23046875,1.0,-1.0,0.0,0.0,2.m4v,10.0
2024-02-28 13:20:00.244219,1709122800.2442193,-11.23046875,-30.76171875,-36.62109375,-12.6953125,1.0,-1.0,0.0,0.0,2.m4v,10.0
2024-02-28 13:20:00.248125,1709122800.2481248,-14.16015625,-28.80859375,-33.203125,-13.18359375,1.0,-1.0,0.0,0.0,2.m4v,10.0
2024-02-28 13:20:00.252030,1709122800.2520304,-12.6953125,-30.76171875,-30.76171875,-7.8125,1.0,-1.0,0.0,0.0,2.m4v,10.0
2024-02-28 13:20:00.255936,1709122800.255936,-18.5546875,-34.66796875,-34.1796875,-18.06640625,1.0,-1.0,0.0,0.0,2.m4v,10.0
2024-02-28 13:20:00.259842,1709122800.2598417,-20.5078125,-34.1796875,-34.1796875,-15.625,1.0,-1.0,0.0,0.0,2.m4v,10.0
2024-02-28 13:20:00.263747,1709122800.2637472,-27.34375,-33.69140625,-33.69140625,-14.6484375,1.0,-1.0,0.0,0.0,2.m4v,10.0
2024-02-28 13:20:00.267653,1709122800.2676528,-32.2265625,-37.109375,-39.55078125,-29.296875,1.0,-1.0,0.0,0.0,2.m4v,10.0
2024-02-28 13:20:00.271558,1709122800.2715583,-27.34375,-39.55078125,-39.0625,-27.83203125,1.0,-1.0,0.0,0.0,2.m4v,10.0
2024-02-28 13:20:00.275464,1709122800.2754638,-30.2734375,-39.0625,-35.64453125,-26.3671875,1.0,-1.0,0.0,0.0,2.m4v,10.0
2024-02-28 13:20:00.279369,1709122800.2793694,-31.73828125,-39.55078125,-33.69140625,-27.34375,1.0,-1.0,0.0,0.0,2.m4v,10.0
2024-02-28 13:20:00.283275,1709122800.283275,-22.4609375,-36.62109375,-37.109375,-20.5078125,1.0,-1.0,0.0,0.0,2.m4v,10.0
2024-02-28 13:20:00.287188,1709122800.2871876,-19.53125,-31.73828125,-35.64453125,-16.6015625,1.0,-1.0,0.0,0.0,2.m4v,10.0
2024-02-28 13:20:00.291093,1709122800.291093,-25.87890625,-33.203125,-33.69140625,-23.4375,1.0,-1.0,0.0,0.0,2.m4v,10.0
2024-02-28 13:20:00.294999,1709122800.2949986,-25.87890625,-34.66796875,-35.15625,-28.3203125,1.0,-1.0,0.0,0.0,2.m4v,10.0
2024-02-28 13:20:00.298904,1709122800.2989042,-18.5546875,-33.69140625,-34.1796875,-24.4140625,1.0,-1.0,0.0,0.0,2.m4v,10.0
2024-02-28 13:20:00.302810,1709122800.3028097,-14.16015625,-30.76171875,-30.2734375,-25.390625,1.0,-1.0,0.0,0.0,2.m4v,10.0
2024-02-28 13:20:00.306715,1709122800.3067153,-20.5078125,-32.2265625,-24.90234375,-30.76171875,1.0,-1.0,0.0,0.0,2.m4v,10.0
2024-02-28 13:20:00.310621,1709122800.3106208,-27.83203125,-34.66796875,-29.296875,-31.25,1.0,-1.0,0.0,0.0,2.m4v,10.0
2024-02-28 13:20:00.314526,1709122800.3145263,-26.3671875,-35.64453125,-26.3671875,-26.3671875,1.0,-1.0,0.0,0.0,2.m4v,10.0
2024-02-28 13:20:00.318432,1709122800.318432,-21.97265625,-37.59765625,-20.99609375,-21.97265625,1.0,-1.0,0.0,0.0,2.m4v,10.0
2024-02-28 13:20:00.322337,1709122800.3223374,-22.94921875,-35.15625,-27.34375,-22.94921875,1.0,-1.0,0.0,0.0,2.m4v,10.0
2024-02-28 13:20:00.326243,1709122800.326243,-17.578125,-33.69140625,-27.83203125,-23.92578125,1.0,-1.0,0.0,0.0,2.m4v,10.0
2024-02-28 13:20:00.330148,1709122800.3301485,-13.18359375,-34.66796875,-27.83203125,-22.94921875,1.0,-1.0,0.0,0.0,2.m4v,10.0
2024-02-28 13:20:00.334061,1709122800.3340611,-15.13671875,-32.71484375,-32.2265625,-27.83203125,1.0,-1.0,0.0,0.0,2.m4v,10.0
2024-02-28 13:20:00.337967,1709122800.337967,-13.18359375,-27.83203125,-33.203125,-27.34375,1.0,-1.0,0.0,0.0,2.m4v,10.0
2024-02-28 13:20:00.341872,1709122800.3418722,-18.06640625,-27.83203125,-32.2265625,-28.3203125,1.0,-1.0,0.0,0.0,2.m4v,10.0
2024-02-28 13:20:00.345778,1709122800.3457778,-25.87890625,-28.3203125,-31.73828125,-28.80859375,1.0,-1.0,0.0,0.0,2.m4v,10.0
2024-02-28 13:20:00.349683,1709122800.3496833,-15.13671875,-27.83203125,-33.203125,-22.4609375,1.0,-1.0,0.0,0.0,2.m4v,10.0
2024-02-28 13:20:00.353589,1709122800.3535888,-9.765625,-25.390625,-25.390625,-12.20703125,1.0,-1.0,0.0,0.0,2.m4v,10.0
2024-02-28 13:20:00.357494,1709122800.3574944,-20.5078125,-29.296875,-22.94921875,-8.7890625,1.0,-1.0,0.0,0.0,2.m4v,10.0
2024-02-28 13:20:00.361400,1709122800.3614,-38.57421875,-32.2265625,-30.76171875,-24.90234375,1.0,-1.0,0.0,0.0,2.m4v,10.0
2024-02-28 13:20:00.365305,1709122800.3653054,-48.33984375,-33.69140625,-33.69140625,-37.59765625,1.0,-1.0,0.0,0.0,2.m4v,10.0
2024-02-28 13:20:00.369211,1709122800.369211,-42.96875,-35.64453125,-31.25,-31.25,1.0,-1.0,0.0,0.0,2.m4v,10.0
2024-02-28 13:20:00.373116,1709122800.3731165,-41.50390625,-27.83203125,-30.76171875,-29.78515625,1.0,-1.0,0.0,0.0,2.m4v,10.0
2024-02-28 13:20:00.377022,1709122800.377022,-37.59765625,-25.87890625,-30.2734375,-32.2265625,1.0,-1.0,0.0,0.0,2.m4v,10.0
2024-02-28 13:20:00.380934,1709122800.3809345,-33.69140625,-32.2265625,-29.296875,-35.64453125,1.0,-1.0,0.0,0.0,2.m4v,10.0
2024-02-28 13:20:00.384840,1709122800.38484,-26.85546875,-36.1328125,-29.78515625,-37.109375,1.0,-1.0,0.0,0.0,2.m4v,10.0
2024-02-28 13:20:00.388746,1709122800.3887455,-29.296875,-38.57421875,-30.76171875,-34.1796875,1.0,-1.0,0.0,0.0,2.m4v,10.0
2024-02-28 13:20:00.392651,1709122800.392651,-35.15625,-33.203125,-31.25,-31.73828125,1.0,-1.0,0.0,0.0,2.m4v,10.0
2024-02-28 13:20:00.396557,1709122800.3965566,-29.78515625,-29.296875,-29.78515625,-28.3203125,1.0,-1.0,0.0,0.0,2.m4v,10.0
2024-02-28 13:20:00.400462,1709122800.4004622,-23.92578125,-35.64453125,-28.80859375,-22.94921875,1.0,-1.0,0.0,0.0,2.m4v,10.0
2024-02-28 13:20:00.404368,1709122800.4043677,-20.5078125,-36.1328125,-27.83203125,-24.4140625,1.0,-1.0,0.0,0.0,2.m4v,10.0
2024-02-28 13:20:00.408273,1709122800.4082732,-18.5546875,-34.1796875,-27.83203125,-28.80859375,1.0,-1.0,0.0,0.0,2.m4v,10.0
2024-02-28 13:20:00.412179,1709122800.4121788,-26.3671875,-38.0859375,-32.2265625,-31.25,1.0,-1.0,0.0,0.0,2.m4v,10.0
2024-02-28 13:20:00.416084,1709122800.4160843,-21.484375,-37.109375,-30.76171875,-33.69140625,1.0,-1.0,0.0,0.0,2.m4v,10.0
2024-02-28 13:20:00.419990,1709122800.4199898,-23.4375,-33.203125,-27.83203125,-31.73828125,1.0,-1.0,0.0,0.0,2.m4v,10.0
2024-02-28 13:20:00.423895,1709122800.4238954,-25.390625,-37.109375,-30.76171875,-27.83203125,1.0,-1.0,0.0,0.0,2.m4v,10.0
2024-02-28 13:20:00.427807,1709122800.4278069,-23.4375,-38.57421875,-32.2265625,-24.90234375,1.0,-1.0,0.0,0.0,2.m4v,10.0
2024-02-28 13:20:00.431712,1709122800.4317124,-30.76171875,-40.0390625,-33.69140625,-27.34375,1.0,-1.0,0.0,0.0,2.m4v,10.0
2024-02-28 13:20:00.435618,1709122800.435618,-29.296875,-41.015625,-32.71484375,-32.2265625,1.0,-1.0,0.0,0.0,2.m4v,10.0
2024-02-28 13:20:00.439523,1709122800.4395237,-32.71484375,-41.50390625,-34.1796875,-39.55078125,1.0,-1.0,0.0,0.0,2.m4v,10.0
2024-02-28 13:20:00.443429,1709122800.443429,-36.62109375,-40.0390625,-36.62109375,-35.64453125,1.0,-1.0,0.0,0.0,2.m4v,10.0
2024-02-28 13:20:00.447335,1709122800.4473343,-35.64453125,-36.1328125,-34.1796875,-31.25,1.0,-1.0,0.0,0.0,2.m4v,10.0
2024-02-28 13:20:00.451240,1709122800.45124,-30.76171875,-35.15625,-33.69140625,-34.1796875,1.0,-1.0,0.0,0.0,2.m4v,10.0
2024-02-28 13:20:01.486344,1709122801.486344,20.5078125,-30.76171875,-34.1796875,94.23828125,1.0,-1.0,0.0,0.0,2.m4v,10.0
2024-02-28 13:20:01.490250,1709122801.4902496,45.8984375,-28.80859375,-28.80859375,54.19921875,1.0,-1.0,0.0,0.0,2.m4v,10.0
2024-02-28 13:20:01.494155,1709122801.4941552,70.3125,-23.4375,-28.3203125,62.98828125,1.0,-1.0,0.0,0.0,2.m4v,10.0
2024-02-28 13:20:01.498061,1709122801.4980607,59.5703125,-23.92578125,-30.2734375,97.65625,1.0,-1.0,0.0,0.0,2.m4v,10.0
2024-02-28 13:20:01.501966,1709122801.5019662,63.4765625,-36.1328125,-31.25,83.984375,1.0,-1.0,0.0,0.0,2.m4v,10.0
2024-02-28 13:20:01.505878,1709122801.5058782,56.640625,-36.1328125,-30.76171875,50.78125,1.0,-1.0,0.0,0.0,2.m4v,10.0
2024-02-28 13:20:01.509784,1709122801.5097835,45.8984375,-28.3203125,-38.0859375,22.4609375,1.0,-1.0,0.0,0.0,2.m4v,10.0
2024-02-28 13:20:01.513689,1709122801.5136893,42.48046875,-30.76171875,-42.96875,8.30078125,1.0,-1.0,0.0,0.0,2.m4v,10.0
2024-02-28 13:20:01.517595,1709122801.5175948,39.0625,-28.3203125,-40.52734375,34.1796875,1.0,-1.0,0.0,0.0,2.m4v,10.0
2024-02-28 13:20:01.521500,1709122801.5215003,37.109375,-24.90234375,-38.0859375,63.4765625,1.0,-1.0,0.0,0.0,2.m4v,10.0
2024-02-28 13:20:01.525406,1709122801.525406,46.875,-28.3203125,-42.48046875,80.078125,1.0,-1.0,0.0,0.0,2.m4v,10.0
2024-02-28 13:20:01.529311,1709122801.5293114,34.66796875,-28.80859375,-46.38671875,2.9296875,1.0,-1.0,0.0,0.0,2.m4v,10.0
2024-02-28 13:20:01.533217,1709122801.533217,26.3671875,-29.78515625,-42.96875,-28.80859375,1.0,-1.0,0.0,0.0,2.m4v,10.0
2024-02-28 13:20:01.537122,1709122801.5371225,-6.8359375,-35.64453125,-41.015625,26.85546875,1.0,-1.0,0.0,0.0,2.m4v,10.0
2024-02-28 13:20:01.541028,1709122801.5410285,-20.01953125,-34.66796875,-41.015625,6.8359375,1.0,-1.0,0.0,0.0,2.m4v,10.0
2024-02-28 13:20:01.544934,1709122801.5449338,11.71875,-41.9921875,-43.45703125,-48.828125,1.0,-1.0,0.0,0.0,2.m4v,10.0
2024-02-28 13:20:01.548839,1709122801.548839,9.27734375,-42.48046875,-43.45703125,-14.16015625,1.0,-1.0,0.0,0.0,2.m4v,10.0
2024-02-28 13:20:01.552751,1709122801.552751,38.57421875,-31.73828125,-35.15625,45.8984375,1.0,-1.0,0.0,0.0,2.m4v,10.0
2024-02-28 13:20:01.556657,1709122801.5566566,35.64453125,-31.73828125,-34.1796875,35.15625,1.0,-1.0,0.0,0.0,2.m4v,10.0
2024-02-28 13:20:01.560562,1709122801.560562,5.37109375,-35.64453125,-41.50390625,-19.04296875,1.0,-1.0,0.0,0.0,2.m4v,10.0
2024-02-28 13:20:01.564468,1709122801.5644677,-2.44140625,-34.66796875,-42.96875,-43.45703125,1.0,-1.0,0.0,0.0,2.m4v,10.0
2024-02-28 13:20:01.568373,1709122801.5683732,-17.08984375,-32.2265625,-41.015625,-61.03515625,1.0,-1.0,0.0,0.0,2.m4v,10.0
2024-02-28 13:20:01.572279,1709122801.5722787,-21.484375,-27.34375,-38.0859375,-14.6484375,1.0,-1.0,0.0,0.0,2.m4v,10.0
2024-02-28 13:20:01.576184,1709122801.5761845,-3.90625,-26.85546875,-35.15625,18.06640625,1.0,-1.0,0.0,0.0,2.m4v,10.0
2024-02-28 13:20:01.580090,1709122801.5800898,7.32421875,-32.2265625,-36.62109375,-12.20703125,1.0,-1.0,0.0,0.0,2.m4v,10.0
2024-02-28 13:20:01.583995,1709122801.583995,3.90625,-30.76171875,-34.66796875,-40.0390625,1.0,-1.0,0.0,0.0,2.m4v,10.0
2024-02-28 13:20:01.587901,1709122801.5879009,-2.9296875,-26.85546875,-32.71484375,-40.52734375,1.0,-1.0,0.0,0.0,2.m4v,10.0
2024-02-28 13:20:01.591806,1709122801.5918064,-4.8828125,-28.3203125,-36.62109375,-31.73828125,1.0,-1.0,0.0,0.0,2.m4v,10.0
2024-02-28 13:20:01.595712,1709122801.595712,4.8828125,-30.2734375,-31.25,-18.5546875,1.0,-1.0,0.0,0.0,2.m4v,10.0
2024-02-28 13:20:01.599623,1709122801.5996232,0.48828125,-31.25,-30.76171875,-11.71875,1.0,-1.0,0.0,0.0,2.m4v,10.0
2024-02-28 13:20:01.603529,1709122801.6035287,-15.13671875,-31.73828125,-31.73828125,18.06640625,1.0,-1.0,0.0,0.0,2.m4v,10.0
2024-02-28 13:20:01.607434,1709122801.6074345,-13.671875,-36.1328125,-27.34375,16.11328125,1.0,-1.0,0.0,0.0,2.m4v,10.0
2024-02-28 13:20:01.611340,1709122801.6113398,-20.01953125,-36.1328125,-26.85546875,-3.41796875,1.0,-1.0,0.0,0.0,2.m4v,10.0
2024-02-28 13:20:01.615245,1709122801.615245,-10.25390625,-34.66796875,-31.25,0.48828125,1.0,-1.0,0.0,0.0,2.m4v,10.0
2024-02-28 13:20:01.619151,1709122801.6191509,-39.55078125,-38.57421875,-35.15625,1.46484375,1.0,-1.0,0.0,0.0,2.m4v,10.0
2024-02-28 13:20:01.623056,1709122801.6230564,-17.578125,-39.0625,-37.59765625,12.6953125,1.0,-1.0,0.0,0.0,2.m4v,10.0
2024-02-28 13:20:01.626962,1709122801.626962,34.66796875,-39.0625,-38.57421875,18.5546875,1.0,-1.0,0.0,0.0,2.m4v,10.0
2024-02-28 13:20:01.630867,1709122801.6308675,21.484375,-34.66796875,-34.66796875,20.01953125,1.0,-1.0,0.0,0.0,2.m4v,10.0
2024-02-28 13:20:01.634773,1709122801.6347733,20.5078125,-29.78515625,-28.80859375,38.57421875,1.0,-1.0,0.0,0.0,2.m4v,10.0
2024-02-28 13:20:01.638679,1709122801.6386788,18.06640625,-24.90234375,-31.73828125,22.4609375,1.0,-1.0,0.0,0.0,2.m4v,10.0
2024-02-28 13:20:01.642584,1709122801.6425843,0.48828125,-26.85546875,-34.66796875,-16.6015625,1.0,-1.0,0.0,0.0,2.m4v,10.0
2024-02-28 13:20:01.646496,1709122801.6464956,-13.18359375,-35.15625,-32.71484375,-9.27734375,1.0,-1.0,0.0,0.0,2.m4v,10.0
2024-02-28 13:20:01.650401,1709122801.650401,-13.18359375,-36.62109375,-32.71484375,-3.41796875,1.0,-1.0,0.0,0.0,2.m4v,10.0
2024-02-28 13:20:01.654307,1709122801.654307,-16.11328125,-40.0390625,-32.2265625,-9.765625,1.0,-1.0,0.0,0.0,2.m4v,10.0
2024-02-28 13:20:01.658212,1709122801.6582122,-24.4140625,-36.62109375,-32.71484375,-26.3671875,1.0,-1.0,0.0,0.0,2.m4v,10.0
2024-02-28 13:20:02.915959,1709122802.9159586,-52.734375,-26.3671875,-31.25,-44.921875,1.0,-1.0,0.0,0.0,2.m4v,10.0
2024-02-28 13:20:02.919864,1709122802.9198642,-40.52734375,-24.90234375,-27.34375,-30.76171875,1.0,-1.0,0.0,0.0,2.m4v,10.0
2024-02-28 13:20:02.923770,1709122802.9237697,-43.9453125,-24.90234375,-32.2265625,-34.1796875,1.0,-1.0,0.0,0.0,2.m4v,10.0
2024-02-28 13:20:02.927675,1709122802.9276752,-59.5703125,-31.25,-34.1796875,-54.19921875,1.0,-1.0,0.0,0.0,2.m4v,10.0
2024-02-28 13:20:02.931581,1709122802.9315808,-60.546875,-33.203125,-37.59765625,-62.98828125,1.0,-1.0,0.0,0.0,2.m4v,10.0
2024-02-28 13:20:02.935486,1709122802.9354863,-53.7109375,-32.2265625,-37.109375,-62.01171875,1.0,-1.0,0.0,0.0,2.m4v,10.0
2024-02-28 13:20:02.939392,1709122802.939392,-47.8515625,-29.78515625,-33.203125,-57.12890625,1.0,-1.0,0.0,0.0,2.m4v,10.0
2024-02-28 13:20:02.943297,1709122802.9432974,-63.4765625,-32.2265625,-36.62109375,-62.01171875,1.0,-1.0,0.0,0.0,2.m4v,10.0
2024-02-28 13:20:02.947203,1709122802.947203,-66.40625,-34.1796875,-34.66796875,-54.6875,1.0,-1.0,0.0,0.0,2.m4v,10.0
2024-02-28 13:20:02.951108,1709122802.9511085,-69.82421875,-31.73828125,-32.71484375,-67.3828125,1.0,-1.0,0.0,0.0,2.m4v,10.0
2024-02-28 13:20:02.955014,1709122802.955014,-77.1484375,-31.73828125,-32.2265625,-69.3359375,1.0,-1.0,0.0,0.0,2.m4v,10.0
2024-02-28 13:20:03.669823,1709122803.669823,-11.23046875,-30.76171875,-25.87890625,-35.15625,1.0,-1.0,0.0,0.0,2.m4v,10.0
2024-02-28 13:20:03.681540,1709122803.6815395,-7.32421875,-35.15625,-23.92578125,-31.73828125,1.0,-1.0,0.0,0.0,2.m4v,10.0
2024-02-28 13:20:03.693256,1709122803.6932564,-17.08984375,-34.1796875,-28.3203125,-39.55078125,1.0,-1.0,0.0,0.0,2.m4v,10.0
2024-02-28 13:20:03.704973,1709122803.704973,-32.71484375,-37.59765625,-33.203125,-41.015625,1.0,-1.0,0.0,0.0,2.m4v,10.0
2024-02-28 13:20:03.716697,1709122803.7166965,-30.2734375,-35.15625,-32.2265625,-42.48046875,1.0,-1.0,0.0,0.0,2.m4v,10.0
2024-02-28 13:20:03.728413,1709122803.728413,-38.57421875,-31.73828125,-35.15625,-60.05859375,1.0,-1.0,0.0,0.0,2.m4v,10.0
2024-02-28 13:20:04.322135,1709122804.3221347,41.9921875,-23.92578125,-25.87890625,33.69140625,1.0,-1.0,0.0,0.0,2.m4v,10.0
2024-02-28 13:20:04.326040,1709122804.3260405,35.15625,-23.92578125,-22.4609375,33.203125,1.0,-1.0,0.0,0.0,2.m4v,10.0
2024-02-28 13:20:04.329946,1709122804.3299458,29.296875,-23.92578125,-20.99609375,26.85546875,1.0,-1.0,0.0,0.0,2.m4v,10.0
2024-02-28 13:20:04.333851,1709122804.333851,27.34375,-21.97265625,-24.90234375,25.390625,1.0,-1.0,0.0,0.0,2.m4v,10.0
2024-02-28 13:20:04.337757,1709122804.3377569,25.390625,-24.4140625,-23.4375,23.92578125,1.0,-1.0,0.0,0.0,2.m4v,10.0
2024-02-28 13:20:04.341662,1709122804.3416624,25.390625,-29.296875,-25.390625,21.484375,1.0,-1.0,0.0,0.0,2.m4v,10.0
2024-02-28 13:20:04.345568,1709122804.345568,26.85546875,-31.73828125,-27.34375,15.625,1.0,-1.0,0.0,0.0,2.m4v,10.0
2024-02-28 13:20:04.349473,1709122804.3494737,20.99609375,-34.66796875,-27.34375,10.7421875,1.0,-1.0,0.0,0.0,2.m4v,10.0
2024-02-28 13:20:04.353379,1709122804.353379,7.8125,-37.109375,-32.2265625,11.23046875,1.0,-1.0,0.0,0.0,2.m4v,10.0
2024-02-28 13:20:04.357285,1709122804.3572843,3.90625,-38.0859375,-31.25,17.08984375,1.0,-1.0,0.0,0.0,2.m4v,10.0
2024-02-28 13:20:04.361190,1709122804.36119,13.18359375,-35.64453125,-26.85546875,20.01953125,1.0,-1.0,0.0,0.0,2.m4v,10.0
2024-02-28 13:20:04.365103,1709122804.3651032,16.6015625,-29.78515625,-26.85546875,14.16015625,1.0,-1.0,0.0,0.0,2.m4v,10.0
2024-02-28 13:20:04.369009,1709122804.3690088,11.71875,-27.83203125,-26.3671875,10.25390625,1.0,-1.0,0.0,0.0,2.m4v,10.0
2024-02-28 13:20:04.372914,1709122804.3729143,8.7890625,-33.69140625,-29.296875,10.7421875,1.0,-1.0,0.0,0.0,2.m4v,10.0
2024-02-28 13:20:04.376820,1709122804.3768198,6.8359375,-34.1796875,-29.78515625,2.9296875,1.0,-1.0,0.0,0.0,2.m4v,10.0
2024-02-28 13:20:04.380726,1709122804.3807256,13.671875,-31.73828125,-25.390625,3.90625,1.0,-1.0,0.0,0.0,2.m4v,10.0
2024-02-28 13:20:04.384631,1709122804.3846312,18.5546875,-33.203125,-28.80859375,6.34765625,1.0,-1.0,0.0,0.0,2.m4v,10.0
2024-02-28 13:20:04.388537,1709122804.3885367,26.3671875,-33.203125,-30.76171875,3.41796875,1.0,-1.0,0.0,0.0,2.m4v,10.0
2024-02-28 13:20:05.419734,1709122805.419734,-12.6953125,-22.4609375,-30.2734375,-14.6484375,1.0,-1.0,0.0,0.0,2.m4v,10.0
2024-02-28 13:20:05.423640,1709122805.4236395,-6.34765625,-27.34375,-33.203125,-3.90625,1.0,-1.0,0.0,0.0,2.m4v,10.0
2024-02-28 13:20:05.427545,1709122805.427545,-3.90625,-29.78515625,-33.203125,-5.859375,1.0,-1.0,0.0,0.0,2.m4v,10.0
2024-02-28 13:20:05.431451,1709122805.4314506,-17.08984375,-29.296875,-35.64453125,-21.97265625,1.0,-1.0,0.0,0.0,2.m4v,10.0
2024-02-28 13:20:05.435356,1709122805.435356,-22.94921875,-29.78515625,-40.52734375,-35.64453125,1.0,-1.0,0.0,0.0,2.m4v,10.0
2024-02-28 13:20:05.439262,1709122805.4392617,-17.08984375,-29.296875,-41.50390625,-34.66796875,1.0,-1.0,0.0,0.0,2.m4v,10.0
2024-02-28 13:20:05.443172,1709122805.4431722,-19.53125,-28.3203125,-39.0625,-39.55078125,1.0,-1.0,0.0,0.0,2.m4v,10.0
2024-02-28 13:20:05.447078,1709122805.4470778,-22.94921875,-29.296875,-41.015625,-50.78125,1.0,-1.0,0.0,0.0,2.m4v,10.0
2024-02-28 13:20:05.450983,1709122805.4509833,-17.08984375,-29.78515625,-42.48046875,-47.36328125,1.0,-1.0,0.0,0.0,2.m4v,10.0
2024-02-28 13:20:05.454889,1709122805.4548888,-9.765625,-29.78515625,-40.0390625,-33.69140625,1.0,-1.0,0.0,0.0,2.m4v,10.0
2024-02-28 13:20:05.458794,1709122805.4587944,-12.20703125,-23.92578125,-39.0625,-31.25,1.0,-1.0,0.0,0.0,2.m4v,10.0
2024-02-28 13:20:05.462700,1709122805.4627,-18.5546875,-23.92578125,-40.52734375,-32.2265625,1.0,-1.0,0.0,0.0,2.m4v,10.0
2024-02-28 13:20:05.466605,1709122805.4666054,-23.4375,-31.73828125,-40.52734375,-31.73828125,1.0,-1.0,0.0,0.0,2.m4v,10.0
2024-02-28 13:20:05.470511,1709122805.470511,-21.484375,-34.1796875,-33.69140625,-29.296875,1.0,-1.0,0.0,0.0,2.m4v,10.0
2024-02-28 13:20:05.474416,1709122805.4744165,-20.01953125,-26.85546875,-35.64453125,-29.78515625,1.0,-1.0,0.0,0.0,2.m4v,10.0
2024-02-28 13:20:05.478322,1709122805.478322,-20.01953125,-27.83203125,-39.0625,-28.3203125,1.0,-1.0,0.0,0.0,2.m4v,10.0
2024-02-28 13:20:05.482228,1709122805.4822276,-22.4609375,-31.25,-36.1328125,-27.83203125,1.0,-1.0,0.0,0.0,2.m4v,10.0
2024-02-28 13:20:05.486133,1709122805.486133,-18.06640625,-30.2734375,-34.66796875,-26.85546875,1.0,-1.0,0.0,0.0,2.m4v,10.0
2024-02-28 13:20:05.490043,1709122805.4900434,-11.71875,-32.71484375,-34.1796875,-18.06640625,1.0,-1.0,0.0,0.0,2.m4v,10.0
2024-02-28 13:20:05.493949,1709122805.493949,-9.27734375,-36.62109375,-40.0390625,-17.08984375,1.0,-1.0,0.0,0.0,2.m4v,10.0
2024-02-28 13:20:05.497855,1709122805.4978547,-2.9296875,-35.64453125,-41.015625,-13.18359375,1.0,-1.0,0.0,0.0,2.m4v,10.0
2024-02-28 13:20:05.501760,1709122805.5017602,-4.8828125,-30.2734375,-34.66796875,-11.71875,1.0,-1.0,0.0,0.0,2.m4v,10.0
2024-02-28 13:20:05.505666,1709122805.5056658,-10.7421875,-36.1328125,-31.25,-15.625,1.0,-1.0,0.0,0.0,2.m4v,10.0
2024-02-28 13:20:05.509571,1709122805.5095713,-15.625,-41.50390625,-33.203125,-20.99609375,1.0,-1.0,0.0,0.0,2.m4v,10.0
2024-02-28 13:20:05.513477,1709122805.5134768,-17.08984375,-43.9453125,-33.69140625,-22.94921875,1.0,-1.0,0.0,0.0,2.m4v,10.0
2024-02-28 13:20:05.517382,1709122805.5173824,-17.08984375,-41.50390625,-34.66796875,-20.5078125,1.0,-1.0,0.0,0.0,2.m4v,10.0
2024-02-28 13:20:05.521288,1709122805.521288,-22.4609375,-37.59765625,-36.1328125,-26.3671875,1.0,-1.0,0.0,0.0,2.m4v,10.0
2024-02-28 13:20:05.525193,1709122805.5251937,-17.578125,-36.1328125,-32.71484375,-28.3203125,1.0,-1.0,0.0,0.0,2.m4v,10.0
2024-02-28 13:20:05.529099,1709122805.529099,-12.20703125,-34.66796875,-33.69140625,-21.97265625,1.0,-1.0,0.0,0.0,2.m4v,10.0
2024-02-28 13:20:05.533005,1709122805.5330043,-11.23046875,-37.59765625,-34.66796875,-20.5078125,1.0,-1.0,0.0,0.0,2.m4v,10.0
2024-02-28 13:20:05.536917,1709122805.5369174,-5.37109375,-36.62109375,-32.2265625,-21.97265625,1.0,-1.0,0.0,0.0,2.m4v,10.0
2024-02-28 13:20:05.540823,1709122805.540823,-5.859375,-31.25,-30.2734375,-25.390625,1.0,-1.0,0.0,0.0,2.m4v,10.0
2024-02-28 13:20:05.544729,1709122805.5447285,-3.90625,-32.71484375,-31.25,-22.4609375,1.0,-1.0,0.0,0.0,2.m4v,10.0
2024-02-28 13:20:05.548634,1709122805.548634,-1.46484375,-36.1328125,-27.34375,-20.99609375,1.0,-1.0,0.0,0.0,2.m4v,10.0
2024-02-28 13:20:05.552540,1709122805.5525396,1.46484375,-37.109375,-25.87890625,-18.06640625,1.0,-1.0,0.0,0.0,2.m4v,10.0
2024-02-28 13:20:05.556445,1709122805.5564451,-0.48828125,-35.15625,-31.73828125,-13.18359375,1.0,-1.0,0.0,0.0,2.m4v,10.0
2024-02-28 13:20:05.560351,1709122805.560351,-12.6953125,-29.296875,-30.2734375,-25.87890625,1.0,-1.0,0.0,0.0,2.m4v,10.0
2024-02-28 13:20:05.564256,1709122805.5642562,-20.01953125,-30.2734375,-29.78515625,-43.9453125,1.0,-1.0,0.0,0.0,2.m4v,10.0
2024-02-28 13:20:05.568162,1709122805.5681615,-25.87890625,-33.203125,-32.2265625,-40.52734375,1.0,-1.0,0.0,0.0,2.m4v,10.0
2024-02-28 13:20:05.572067,1709122805.5720673,-28.80859375,-28.3203125,-32.2265625,-30.2734375,1.0,-1.0,0.0,0.0,2.m4v,10.0
2024-02-28 13:20:05.575973,1709122805.5759728,-22.4609375,-26.3671875,-33.203125,-32.2265625,1.0,-1.0,0.0,0.0,2.m4v,10.0
2024-02-28 13:20:05.579878,1709122805.5798783,-22.4609375,-21.97265625,-35.15625,-38.0859375,1.0,-1.0,0.0,0.0,2.m4v,10.0
2024-02-28 13:20:05.583791,1709122805.5837908,-24.4140625,-22.4609375,-36.62109375,-32.2265625,1.0,-1.0,0.0,0.0,2.m4v,10.0
2024-02-28 13:20:05.587696,1709122805.5876963,-26.85546875,-29.78515625,-34.66796875,-36.1328125,1.0,-1.0,0.0,0.0,2.m4v,10.0
2024-02-28 13:20:05.591602,1709122805.5916018,-25.87890625,-25.87890625,-34.66796875,-32.71484375,1.0,-1.0,0.0,0.0,2.m4v,10.0
2024-02-28 13:20:05.595507,1709122805.5955074,-21.97265625,-22.4609375,-34.1796875,-19.53125,1.0,-1.0,0.0,0.0,2.m4v,10.0
2024-02-28 13:20:05.599413,1709122805.599413,-16.6015625,-25.390625,-35.15625,-26.3671875,1.0,-1.0,0.0,0.0,2.m4v,10.0
2024-02-28 13:20:05.603318,1709122805.6033185,-17.578125,-27.83203125,-40.0390625,-33.203125,1.0,-1.0,0.0,0.0,2.m4v,10.0
2024-02-28 13:20:05.607224,1709122805.607224,-22.4609375,-29.296875,-44.43359375,-30.2734375,1.0,-1.0,0.0,0.0,2.m4v,10.0
2024-02-28 13:20:05.611130,1709122805.6111295,-19.04296875,-27.34375,-44.921875,-40.0390625,1.0,-1.0,0.0,0.0,2.m4v,10.0
2024-02-28 13:20:05.615035,1709122805.6150353,-12.6953125,-26.85546875,-39.0625,-40.52734375,1.0,-1.0,0.0,0.0,2.m4v,10.0
2024-02-28 13:20:05.618941,1709122805.6189408,-14.6484375,-32.2265625,-34.1796875,-31.25,1.0,-1.0,0.0,0.0,2.m4v,10.0
2024-02-28 13:20:05.622846,1709122805.6228464,-18.5546875,-28.3203125,-31.73828125,-35.64453125,1.0,-1.0,0.0,0.0,2.m4v,10.0
2024-02-28 13:20:05.626752,1709122805.626752,-19.04296875,-26.85546875,-34.66796875,-35.64453125,1.0,-1.0,0.0,0.0,2.m4v,10.0
2024-02-28 13:20:05.630664,1709122805.630664,-20.99609375,-30.2734375,-40.52734375,-35.15625,1.0,-1.0,0.0,0.0,2.m4v,10.0
2024-02-28 13:20:05.634569,1709122805.6345694,-14.16015625,-29.78515625,-36.62109375,-36.62109375,1.0,-1.0,0.0,0.0,2.m4v,10.0
2024-02-28 13:20:05.638475,1709122805.638475,-18.5546875,-24.4140625,-35.64453125,-38.57421875,1.0,-1.0,0.0,0.0,2.m4v,10.0
2024-02-28 13:20:05.642380,1709122805.6423805,-21.484375,-23.4375,-40.52734375,-36.1328125,1.0,-1.0,0.0,0.0,2.m4v,10.0
2024-02-28 13:20:05.646286,1709122805.646286,-22.94921875,-32.71484375,-41.015625,-32.71484375,1.0,-1.0,0.0,0.0,2.m4v,10.0
2024-02-28 13:20:05.650192,1709122805.6501915,-27.83203125,-38.57421875,-39.55078125,-34.1796875,1.0,-1.0,0.0,0.0,2.m4v,10.0
2024-02-28 13:20:05.654097,1709122805.654097,-24.90234375,-36.62109375,-37.59765625,-32.71484375,1.0,-1.0,0.0,0.0,2.m4v,10.0
2024-02-28 13:20:05.658003,1709122805.6580026,-24.90234375,-33.203125,-31.73828125,-38.57421875,1.0,-1.0,0.0,0.0,2.m4v,10.0
2024-02-28 13:20:05.661908,1709122805.661908,-27.34375,-31.73828125,-30.76171875,-37.59765625,1.0,-1.0,0.0,0.0,2.m4v,10.0
2024-02-28 13:20:05.665814,1709122805.6658137,-23.4375,-30.76171875,-29.296875,-30.2734375,1.0,-1.0,0.0,0.0,2.m4v,10.0
2024-02-28 13:20:05.669719,1709122805.6697192,-15.625,-28.80859375,-25.87890625,-29.296875,1.0,-1.0,0.0,0.0,2.m4v,10.0
2024-02-28 13:20:05.673625,1709122805.6736248,-14.16015625,-29.296875,-26.3671875,-24.4140625,1.0,-1.0,0.0,0.0,2.m4v,10.0
2024-02-28 13:20:05.677537,1709122805.6775367,-20.01953125,-33.69140625,-29.296875,-19.04296875,1.0,-1.0,0.0,0.0,2.m4v,10.0
2024-02-28 13:20:05.681442,1709122805.6814425,-20.01953125,-30.2734375,-31.73828125,-20.01953125,1.0,-1.0,0.0,0.0,2.m4v,10.0
2024-02-28 13:20:05.685348,1709122805.6853478,-10.25390625,-27.34375,-28.80859375,-16.11328125,1.0,-1.0,0.0,0.0,2.m4v,10.0
2024-02-28 13:20:05.689253,1709122805.689253,-9.765625,-25.390625,-28.3203125,-15.625,1.0,-1.0,0.0,0.0,2.m4v,10.0
2024-02-28 13:20:05.693159,1709122805.6931589,-12.20703125,-21.97265625,-29.296875,-19.53125,1.0,-1.0,0.0,0.0,2.m4v,10.0
2024-02-28 13:20:05.697064,1709122805.6970644,-15.13671875,-20.99609375,-30.76171875,-22.94921875,1.0,-1.0,0.0,0.0,2.m4v,10.0
2024-02-28 13:20:05.700970,1709122805.70097,-17.08984375,-26.85546875,-28.3203125,-24.4140625,1.0,-1.0,0.0,0.0,2.m4v,10.0
2024-02-28 13:20:05.704875,1709122805.7048757,-19.53125,-32.71484375,-30.2734375,-29.296875,1.0,-1.0,0.0,0.0,2.m4v,10.0
2024-02-28 13:20:05.708781,1709122805.708781,-21.484375,-32.2265625,-29.296875,-32.71484375,1.0,-1.0,0.0,0.0,2.m4v,10.0
2024-02-28 13:20:05.712687,1709122805.7126863,-11.71875,-33.69140625,-25.390625,-25.87890625,1.0,-1.0,0.0,0.0,2.m4v,10.0
2024-02-28 13:20:05.716592,1709122805.716592,-9.765625,-32.71484375,-27.83203125,-24.4140625,1.0,-1.0,0.0,0.0,2.m4v,10.0
2024-02-28 13:20:05.720498,1709122805.7204976,-16.6015625,-32.71484375,-31.73828125,-27.83203125,1.0,-1.0,0.0,0.0,2.m4v,10.0
2024-02-28 13:20:05.724413,1709122805.724413,-20.01953125,-31.25,-29.78515625,-29.296875,1.0,-1.0,0.0,0.0,2.m4v,10.0
2024-02-28 13:20:05.728318,1709122805.7283182,-25.87890625,-27.83203125,-26.3671875,-37.109375,1.0,-1.0,0.0,0.0,2.m4v,10.0
2024-02-28 13:20:05.732224,1709122805.7322235,-35.64453125,-31.73828125,-28.3203125,-43.45703125,1.0,-1.0,0.0,0.0,2.m4v,10.0
2024-02-28 13:20:05.736129,1709122805.7361293,-34.66796875,-31.73828125,-28.80859375,-36.1328125,1.0,-1.0,0.0,0.0,2.m4v,10.0
2024-02-28 13:20:05.740035,1709122805.7400348,-29.78515625,-31.25,-29.296875,-36.62109375,1.0,-1.0,0.0,0.0,2.m4v,10.0
2024-02-28 13:20:05.743940,1709122805.7439404,-31.73828125,-33.203125,-34.66796875,-38.0859375,1.0,-1.0,0.0,0.0,2.m4v,10.0
2024-02-28 13:20:05.747846,1709122805.747846,-40.0390625,-35.15625,-38.0859375,-39.55078125,1.0,-1.0,0.0,0.0,2.m4v,10.0
2024-02-28 13:20:05.751751,1709122805.7517514,-35.15625,-40.52734375,-36.62109375,-39.0625,1.0,-1.0,0.0,0.0,2.m4v,10.0
2024-02-28 13:20:05.755657,1709122805.755657,-26.85546875,-36.1328125,-34.66796875,-32.71484375,1.0,-1.0,0.0,0.0,2.m4v,10.0
2024-02-28 13:20:05.759563,1709122805.7595627,-30.2734375,-33.69140625,-32.2265625,-30.2734375,1.0,-1.0,0.0,0.0,2.m4v,10.0
2024-02-28 13:20:05.763468,1709122805.7634685,-30.76171875,-40.0390625,-32.2265625,-32.2265625,1.0,-1.0,0.0,0.0,2.m4v,10.0
2024-02-28 13:20:05.767374,1709122805.7673738,-25.87890625,-43.45703125,-35.15625,-33.203125,1.0,-1.0,0.0,0.0,2.m4v,10.0
2024-02-28 13:20:05.771285,1709122805.7712846,-23.4375,-38.57421875,-37.59765625,-29.78515625,1.0,-1.0,0.0,0.0,2.m4v,10.0
2024-02-28 13:20:06.806408,1709122806.8064084,13.671875,-28.3203125,-22.94921875,14.16015625,1.0,-1.0,0.0,0.0,2.m4v,10.0
2024-02-28 13:20:06.810314,1709122806.810314,13.671875,-39.0625,-21.97265625,15.13671875,1.0,-1.0,0.0,0.0,2.m4v,10.0
2024-02-28 13:20:06.814220,1709122806.8142197,1.953125,-40.52734375,-26.3671875,14.16015625,1.0,-1.0,0.0,0.0,2.m4v,10.0
2024-02-28 13:20:06.818125,1709122806.8181252,5.37109375,-37.109375,-26.85546875,12.6953125,1.0,-1.0,0.0,0.0,2.m4v,10.0
2024-02-28 13:20:06.822031,1709122806.8220308,11.71875,-33.203125,-21.97265625,10.25390625,1.0,-1.0,0.0,0.0,2.m4v,10.0
2024-02-28 13:20:06.825936,1709122806.8259363,5.37109375,-31.25,-22.4609375,1.46484375,1.0,-1.0,0.0,0.0,2.m4v,10.0
2024-02-28 13:20:06.829842,1709122806.829842,5.859375,-26.85546875,-20.99609375,7.32421875,1.0,-1.0,0.0,0.0,2.m4v,10.0
2024-02-28 13:20:06.833747,1709122806.8337474,7.8125,-26.85546875,-23.92578125,15.13671875,1.0,-1.0,0.0,0.0,2.m4v,10.0
2024-02-28 13:20:06.837653,1709122806.837653,-0.9765625,-29.296875,-32.71484375,1.953125,1.0,-1.0,0.0,0.0,2.m4v,10.0
2024-02-28 13:20:06.841558,1709122806.8415585,-3.90625,-29.78515625,-38.0859375,-3.90625,1.0,-1.0,0.0,0.0,2.m4v,10.0
2024-02-28 13:20:06.845464,1709122806.845464,0.9765625,-28.80859375,-38.0859375,-7.32421875,1.0,-1.0,0.0,0.0,2.m4v,10.0
2024-02-28 13:20:06.849379,1709122806.8493786,0.0,-28.3203125,-37.109375,-9.765625,1.0,-1.0,0.0,0.0,2.m4v,10.0
2024-02-28 13:20:06.853284,1709122806.853284,2.9296875,-32.2265625,-34.66796875,-3.41796875,1.0,-1.0,0.0,0.0,2.m4v,10.0
2024-02-28 13:20:06.857190,1709122806.8571897,6.8359375,-37.59765625,-35.15625,3.90625,1.0,-1.0,0.0,0.0,2.m4v,10.0
2024-02-28 13:20:06.861095,1709122806.8610952,1.953125,-41.9921875,-40.0390625,1.953125,1.0,-1.0,0.0,0.0,2.m4v,10.0
2024-02-28 13:20:06.865001,1709122806.8650007,2.44140625,-39.0625,-39.0625,1.46484375,1.0,-1.0,0.0,0.0,2.m4v,10.0
2024-02-28 13:20:06.868906,1709122806.8689065,15.13671875,-36.1328125,-35.64453125,5.859375,1.0,-1.0,0.0,0.0,2.m4v,10.0
2024-02-28 13:20:06.872812,1709122806.8728118,20.01953125,-40.52734375,-35.15625,10.25390625,1.0,-1.0,0.0,0.0,2.m4v,10.0
2024-02-28 13:20:06.876717,1709122806.876717,18.06640625,-33.69140625,-36.1328125,12.6953125,1.0,-1.0,0.0,0.0,2.m4v,10.0
2024-02-28 13:20:06.880623,1709122806.8806229,18.5546875,-33.203125,-37.59765625,12.6953125,1.0,-1.0,0.0,0.0,2.m4v,10.0
2024-02-28 13:20:06.884528,1709122806.8845284,14.16015625,-41.015625,-38.0859375,5.859375,1.0,-1.0,0.0,0.0,2.m4v,10.0
2024-02-28 13:20:06.888434,1709122806.888434,17.08984375,-33.69140625,-33.69140625,13.18359375,1.0,-1.0,0.0,0.0,2.m4v,10.0
2024-02-28 13:20:06.892340,1709122806.8923397,31.73828125,-32.71484375,-33.203125,26.85546875,1.0,-1.0,0.0,0.0,2.m4v,10.0
2024-02-28 13:20:06.896250,1709122806.8962505,38.57421875,-30.2734375,-35.15625,31.25,1.0,-1.0,0.0,0.0,2.m4v,10.0
2024-02-28 13:20:06.900156,1709122806.900156,28.80859375,-22.94921875,-37.109375,26.85546875,1.0,-1.0,0.0,0.0,2.m4v,10.0
2024-02-28 13:20:06.904062,1709122806.9040616,21.97265625,-21.97265625,-39.55078125,20.5078125,1.0,-1.0,0.0,0.0,2.m4v,10.0
2024-02-28 13:20:06.907967,1709122806.907967,28.3203125,-19.53125,-35.15625,25.87890625,1.0,-1.0,0.0,0.0,2.m4v,10.0
2024-02-28 13:20:06.911873,1709122806.9118726,29.78515625,-16.11328125,-33.69140625,27.83203125,1.0,-1.0,0.0,0.0,2.m4v,10.0
2024-02-28 13:20:06.915778,1709122806.9157782,26.85546875,-15.13671875,-41.015625,21.97265625,1.0,-1.0,0.0,0.0,2.m4v,10.0
2024-02-28 13:20:06.919684,1709122806.9196837,28.3203125,-19.53125,-41.9921875,14.6484375,1.0,-1.0,0.0,0.0,2.m4v,10.0
2024-02-28 13:20:06.923589,1709122806.9235892,26.3671875,-21.484375,-37.59765625,8.7890625,1.0,-1.0,0.0,0.0,2.m4v,10.0
2024-02-28 13:20:06.927495,1709122806.927495,26.3671875,-20.01953125,-42.96875,7.8125,1.0,-1.0,0.0,0.0,2.m4v,10.0
2024-02-28 13:20:06.931401,1709122806.9314003,30.2734375,-17.578125,-47.36328125,8.30078125,1.0,-1.0,0.0,0.0,2.m4v,10.0
2024-02-28 13:20:06.935306,1709122806.935306,29.296875,-18.5546875,-51.26953125,6.8359375,1.0,-1.0,0.0,0.0,2.m4v,10.0
2024-02-28 13:20:06.939212,1709122806.9392116,23.92578125,-20.01953125,-58.59375,-2.44140625,1.0,-1.0,0.0,0.0,2.m4v,10.0
2024-02-28 13:20:06.943125,1709122806.9431252,31.25,-18.06640625,-50.29296875,-1.46484375,1.0,-1.0,0.0,0.0,2.m4v,10.0
2024-02-28 13:20:06.947031,1709122806.9470308,37.59765625,-18.5546875,-42.96875,8.7890625,1.0,-1.0,0.0,0.0,2.m4v,10.0
2024-02-28 13:20:06.950936,1709122806.9509363,34.1796875,-20.99609375,-46.38671875,13.671875,1.0,-1.0,0.0,0.0,2.m4v,10.0
2024-02-28 13:20:06.954842,1709122806.954842,32.71484375,-22.94921875,-44.921875,17.578125,1.0,-1.0,0.0,0.0,2.m4v,10.0
2024-02-28 13:20:06.958747,1709122806.9587474,32.2265625,-25.390625,-42.96875,11.23046875,1.0,-1.0,0.0,0.0,2.m4v,10.0
2024-02-28 13:20:06.962653,1709122806.962653,32.2265625,-25.87890625,-38.0859375,4.39453125,1.0,-1.0,0.0,0.0,2.m4v,10.0
2024-02-28 13:20:06.966558,1709122806.9665585,29.296875,-26.3671875,-37.59765625,12.6953125,1.0,-1.0,0.0,0.0,2.m4v,10.0
2024-02-28 13:20:06.970464,1709122806.970464,20.01953125,-28.3203125,-38.57421875,19.04296875,1.0,-1.0,0.0,0.0,2.m4v,10.0
2024-02-28 13:20:06.974370,1709122806.9743698,16.11328125,-25.87890625,-34.1796875,17.578125,1.0,-1.0,0.0,0.0,2.m4v,10.0
2024-02-28 13:20:06.978275,1709122806.9782753,25.390625,-29.296875,-30.76171875,18.5546875,1.0,-1.0,0.0,0.0,2.m4v,10.0
2024-02-28 13:20:06.982181,1709122806.9821808,34.1796875,-33.69140625,-28.80859375,20.5078125,1.0,-1.0,0.0,0.0,2.m4v,10.0
2024-02-28 13:20:06.986086,1709122806.9860864,42.48046875,-32.2265625,-30.76171875,18.5546875,1.0,-1.0,0.0,0.0,2.m4v,10.0
2024-02-28 13:20:06.989997,1709122806.989997,43.45703125,-31.73828125,-33.69140625,16.11328125,1.0,-1.0,0.0,0.0,2.m4v,10.0
2024-02-28 13:20:06.993902,1709122806.9939022,44.921875,-31.73828125,-36.1328125,21.97265625,1.0,-1.0,0.0,0.0,2.m4v,10.0
2024-02-28 13:20:06.997808,1709122806.9978075,53.7109375,-27.83203125,-39.0625,25.390625,1.0,-1.0,0.0,0.0,2.m4v,10.0
2024-02-28 13:20:07.001713,1709122807.0017133,46.875,-20.99609375,-41.9921875,8.7890625,1.0,-1.0,0.0,0.0,2.m4v,10.0
2024-02-28 13:20:07.005619,1709122807.005619,35.15625,-24.90234375,-40.52734375,-1.953125,1.0,-1.0,0.0,0.0,2.m4v,10.0
2024-02-28 13:20:07.009525,1709122807.0095246,28.80859375,-22.94921875,-43.45703125,-4.8828125,1.0,-1.0,0.0,0.0,2.m4v,10.0
2024-02-28 13:20:07.013430,1709122807.01343,24.4140625,-22.4609375,-44.43359375,-8.30078125,1.0,-1.0,0.0,0.0,2.m4v,10.0
2024-02-28 13:20:07.017336,1709122807.0173357,18.5546875,-30.76171875,-43.9453125,-3.90625,1.0,-1.0,0.0,0.0,2.m4v,10.0
2024-02-28 13:20:07.021241,1709122807.0212412,19.53125,-29.296875,-41.015625,-6.8359375,1.0,-1.0,0.0,0.0,2.m4v,10.0
2024-02-28 13:20:07.025147,1709122807.0251467,19.04296875,-32.2265625,-41.9921875,-11.71875,1.0,-1.0,0.0,0.0,2.m4v,10.0
2024-02-28 13:20:07.029052,1709122807.0290525,12.20703125,-32.71484375,-48.33984375,-6.8359375,1.0,-1.0,0.0,0.0,2.m4v,10.0
2024-02-28 13:20:07.032958,1709122807.0329578,21.97265625,-26.3671875,-43.45703125,1.953125,1.0,-1.0,0.0,0.0,2.m4v,10.0
2024-02-28 13:20:08.282920,1709122808.2829196,-61.5234375,-40.52734375,-33.69140625,-49.8046875,1.0,-1.0,0.0,0.0,2.m4v,10.0
2024-02-28 13:20:08.286825,1709122808.2868252,-53.22265625,-47.8515625,-32.71484375,-47.36328125,1.0,-1.0,0.0,0.0,2.m4v,10.0
2024-02-28 13:20:08.290731,1709122808.2907307,-47.36328125,-40.0390625,-30.76171875,-39.0625,1.0,-1.0,0.0,0.0,2.m4v,10.0
2024-02-28 13:20:08.294636,1709122808.2946362,-45.8984375,-36.62109375,-27.83203125,-39.0625,1.0,-1.0,0.0,0.0,2.m4v,10.0
2024-02-28 13:20:08.298542,1709122808.298542,-44.43359375,-35.64453125,-24.4140625,-38.57421875,1.0,-1.0,0.0,0.0,2.m4v,10.0
2024-02-28 13:20:08.302454,1709122808.302454,-41.50390625,-33.203125,-26.85546875,-41.50390625,1.0,-1.0,0.0,0.0,2.m4v,10.0
2024-02-28 13:20:08.306360,1709122808.3063595,-37.109375,-36.1328125,-25.87890625,-41.015625,1.0,-1.0,0.0,0.0,2.m4v,10.0
2024-02-28 13:20:08.310265,1709122808.310265,-35.64453125,-39.55078125,-23.92578125,-37.59765625,1.0,-1.0,0.0,0.0,2.m4v,10.0
2024-02-28 13:20:08.314171,1709122808.3141706,-34.1796875,-35.15625,-26.3671875,-36.1328125,1.0,-1.0,0.0,0.0,2.m4v,10.0
2024-02-28 13:20:08.318076,1709122808.318076,-29.296875,-32.2265625,-22.4609375,-29.296875,1.0,-1.0,0.0,0.0,2.m4v,10.0
2024-02-28 13:20:08.321982,1709122808.3219817,-24.90234375,-32.2265625,-21.484375,-31.73828125,1.0,-1.0,0.0,0.0,2.m4v,10.0
2024-02-28 13:20:09.001633,1709122809.0016334,-45.8984375,-31.73828125,-36.62109375,-37.109375,1.0,-1.0,0.0,0.0,2.m4v,10.0
2024-02-28 13:20:09.013356,1709122809.0133564,-41.9921875,-34.1796875,-29.296875,-30.76171875,1.0,-1.0,0.0,0.0,2.m4v,10.0
2024-02-28 13:20:09.025073,1709122809.025073,-40.0390625,-31.25,-29.78515625,-34.66796875,1.0,-1.0,0.0,0.0,2.m4v,10.0
2024-02-28 13:20:09.032884,1709122809.032884,-37.59765625,-28.80859375,-32.2265625,-34.66796875,1.0,-1.0,0.0,0.0,2.m4v,10.0
2024-02-28 13:20:09.044601,1709122809.0446007,-33.69140625,-31.73828125,-35.64453125,-37.109375,1.0,-1.0,0.0,0.0,2.m4v,10.0
2024-02-28 13:20:09.052418,1709122809.052418,-39.55078125,-34.66796875,-30.76171875,-38.57421875,1.0,-1.0,0.0,0.0,2.m4v,10.0
2024-02-28 13:20:09.064135,1709122809.0641346,-39.0625,-24.4140625,-28.3203125,-37.59765625,1.0,-1.0,0.0,0.0,2.m4v,10.0
2024-02-28 13:20:09.657847,1709122809.6578467,-20.01953125,-25.390625,-38.0859375,-26.3671875,1.0,-1.0,0.0,0.0,2.m4v,10.0
2024-02-28 13:20:09.661759,1709122809.6617594,-24.4140625,-24.90234375,-35.64453125,-34.1796875,1.0,-1.0,0.0,0.0,2.m4v,10.0
2024-02-28 13:20:09.665665,1709122809.6656651,-23.4375,-26.85546875,-35.15625,-33.203125,1.0,-1.0,0.0,0.0,2.m4v,10.0
2024-02-28 13:20:09.669571,1709122809.6695707,-15.13671875,-26.85546875,-33.69140625,-34.66796875,1.0,-1.0,0.0,0.0,2.m4v,10.0
2024-02-28 13:20:09.673476,1709122809.6734762,-21.484375,-25.390625,-30.76171875,-41.9921875,1.0,-1.0,0.0,0.0,2.m4v,10.0
2024-02-28 13:20:09.677382,1709122809.6773818,-26.85546875,-25.87890625,-32.2265625,-41.015625,1.0,-1.0,0.0,0.0,2.m4v,10.0
2024-02-28 13:20:09.681287,1709122809.6812873,-23.92578125,-28.3203125,-30.76171875,-34.66796875,1.0,-1.0,0.0,0.0,2.m4v,10.0
2024-02-28 13:20:09.685193,1709122809.6851928,-23.4375,-30.2734375,-27.34375,-35.15625,1.0,-1.0,0.0,0.0,2.m4v,10.0
2024-02-28 13:20:09.689098,1709122809.6890984,-20.99609375,-29.78515625,-27.34375,-37.109375,1.0,-1.0,0.0,0.0,2.m4v,10.0
2024-02-28 13:20:09.693004,1709122809.693004,-24.90234375,-28.80859375,-27.83203125,-35.64453125,1.0,-1.0,0.0,0.0,2.m4v,10.0
2024-02-28 13:20:09.696909,1709122809.6969094,-30.2734375,-34.1796875,-32.71484375,-35.15625,1.0,-1.0,0.0,0.0,2.m4v,10.0
2024-02-28 13:20:09.700815,1709122809.700815,-26.85546875,-32.2265625,-33.203125,-33.203125,1.0,-1.0,0.0,0.0,2.m4v,10.0
2024-02-28 13:20:09.704720,1709122809.7047205,-23.4375,-27.34375,-26.85546875,-37.59765625,1.0,-1.0,0.0,0.0,2.m4v,10.0
2024-02-28 13:20:09.708633,1709122809.708633,-26.3671875,-30.2734375,-24.90234375,-37.109375,1.0,-1.0,0.0,0.0,2.m4v,10.0
2024-02-28 13:20:09.712538,1709122809.7125385,-30.2734375,-34.1796875,-30.76171875,-39.0625,1.0,-1.0,0.0,0.0,2.m4v,10.0
2024-02-28 13:20:09.716444,1709122809.716444,-32.2265625,-34.1796875,-32.2265625,-42.48046875,1.0,-1.0,0.0,0.0,2.m4v,10.0
2024-02-28 13:20:09.720350,1709122809.7203496,-29.78515625,-34.66796875,-31.25,-41.015625,1.0,-1.0,0.0,0.0,2.m4v,10.0
2024-02-28 13:20:09.724255,1709122809.724255,-32.2265625,-37.59765625,-26.85546875,-38.0859375,1.0,-1.0,0.0,0.0,2.m4v,10.0
2024-02-28 13:20:09.728161,1709122809.7281609,-30.2734375,-35.64453125,-24.90234375,-35.64453125,1.0,-1.0,0.0,0.0,2.m4v,10.0
2024-02-28 13:20:09.732066,1709122809.7320664,-30.2734375,-33.203125,-26.85546875,-42.48046875,1.0,-1.0,0.0,0.0,2.m4v,10.0
2024-02-28 13:20:09.735972,1709122809.735972,-29.296875,-26.3671875,-28.80859375,-42.48046875,1.0,-1.0,0.0,0.0,2.m4v,10.0
2024-02-28 13:20:09.739877,1709122809.7398777,-30.76171875,-27.83203125,-39.0625,-47.36328125,1.0,-1.0,0.0,0.0,2.m4v,10.0
2024-02-28 13:20:09.743783,1709122809.743783,-33.69140625,-29.78515625,-42.48046875,-51.7578125,1.0,-1.0,0.0,0.0,2.m4v,10.0
2024-02-28 13:20:09.747689,1709122809.7476883,-31.25,-26.3671875,-37.109375,-50.29296875,1.0,-1.0,0.0,0.0,2.m4v,10.0
2024-02-28 13:20:09.751594,1709122809.751594,-31.73828125,-29.78515625,-39.55078125,-48.33984375,1.0,-1.0,0.0,0.0,2.m4v,10.0
2024-02-28 13:20:09.755506,1709122809.7555065,-29.78515625,-34.1796875,-41.50390625,-42.96875,1.0,-1.0,0.0,0.0,2.m4v,10.0
2024-02-28 13:20:10.220324,1709122810.220324,-23.92578125,-33.203125,-27.83203125,-33.203125,1.0,-1.0,0.0,0.0,2.m4v,10.0
2024-02-28 13:20:10.232047,1709122810.2320468,-28.80859375,-38.0859375,-30.76171875,-33.69140625,1.0,-1.0,0.0,0.0,2.m4v,10.0
2024-02-28 13:20:10.243763,1709122810.2437634,-23.92578125,-33.203125,-32.2265625,-32.71484375,1.0,-1.0,0.0,0.0,2.m4v,10.0
2024-02-28 13:20:10.255480,1709122810.25548,-30.2734375,-38.0859375,-32.2265625,-27.34375,1.0,-1.0,0.0,0.0,2.m4v,10.0
2024-02-28 13:20:10.267197,1709122810.267197,-20.99609375,-30.76171875,-30.76171875,-32.71484375,1.0,-1.0,0.0,0.0,2.m4v,10.0
2024-02-28 13:20:10.278919,1709122810.2789185,-21.97265625,-31.73828125,-30.76171875,-22.94921875,1.0,-1.0,0.0,0.0,2.m4v,10.0
2024-02-28 13:20:10.872631,1709122810.872631,-5.37109375,-33.69140625,-43.45703125,-23.4375,1.0,-1.0,0.0,0.0,2.m4v,10.0
2024-02-28 13:20:10.876537,1709122810.8765366,-11.71875,-25.390625,-40.0390625,-20.01953125,1.0,-1.0,0.0,0.0,2.m4v,10.0
2024-02-28 13:20:10.880449,1709122810.8804486,-15.625,-25.390625,-37.109375,-20.01953125,1.0,-1.0,0.0,0.0,2.m4v,10.0
2024-02-28 13:20:10.884354,1709122810.884354,-18.5546875,-27.83203125,-37.109375,-21.484375,1.0,-1.0,0.0,0.0,2.m4v,10.0
2024-02-28 13:20:10.888260,1709122810.8882596,-25.87890625,-28.80859375,-34.66796875,-25.390625,1.0,-1.0,0.0,0.0,2.m4v,10.0
2024-02-28 13:20:10.892165,1709122810.8921652,-36.62109375,-32.2265625,-39.0625,-29.78515625,1.0,-1.0,0.0,0.0,2.m4v,10.0
2024-02-28 13:20:10.896071,1709122810.8960707,-38.0859375,-36.62109375,-41.9921875,-33.203125,1.0,-1.0,0.0,0.0,2.m4v,10.0
2024-02-28 13:20:10.899976,1709122810.8999765,-32.71484375,-32.71484375,-40.52734375,-30.76171875,1.0,-1.0,0.0,0.0,2.m4v,10.0
2024-02-28 13:20:10.903882,1709122810.9038818,-31.73828125,-30.2734375,-37.109375,-28.80859375,1.0,-1.0,0.0,0.0,2.m4v,10.0
2024-02-28 13:20:10.907787,1709122810.907787,-33.203125,-33.203125,-33.203125,-25.87890625,1.0,-1.0,0.0,0.0,2.m4v,10.0
2024-02-28 13:20:10.911693,1709122810.911693,-31.25,-33.203125,-37.59765625,-23.4375,1.0,-1.0,0.0,0.0,2.m4v,10.0
2024-02-28 13:20:10.915599,1709122810.9155986,-27.34375,-32.2265625,-39.0625,-25.87890625,1.0,-1.0,0.0,0.0,2.m4v,10.0
2024-02-28 13:20:10.919504,1709122810.9195042,-24.90234375,-26.3671875,-34.66796875,-30.2734375,1.0,-1.0,0.0,0.0,2.m4v,10.0
2024-02-28 13:20:10.923410,1709122810.9234097,-25.390625,-22.4609375,-32.2265625,-29.78515625,1.0,-1.0,0.0,0.0,2.m4v,10.0
2024-02-28 13:20:10.927321,1709122810.9273212,-22.94921875,-27.34375,-27.83203125,-27.34375,1.0,-1.0,0.0,0.0,2.m4v,10.0
2024-02-28 13:20:10.931227,1709122810.9312267,-28.80859375,-32.2265625,-27.83203125,-36.62109375,1.0,-1.0,0.0,0.0,2.m4v,10.0
2024-02-28 13:20:10.935132,1709122810.9351325,-38.57421875,-35.64453125,-30.76171875,-37.109375,1.0,-1.0,0.0,0.0,2.m4v,10.0
2024-02-28 13:20:10.939038,1709122810.9390378,-36.62109375,-38.57421875,-30.2734375,-29.296875,1.0,-1.0,0.0,0.0,2.m4v,10.0
2024-02-28 13:20:10.942943,1709122810.942943,-30.76171875,-37.59765625,-26.3671875,-23.92578125,1.0,-1.0,0.0,0.0,2.m4v,10.0
2024-02-28 13:20:10.946849,1709122810.946849,-31.73828125,-33.69140625,-26.3671875,-24.90234375,1.0,-1.0,0.0,0.0,2.m4v,10.0
2024-02-28 13:20:10.950755,1709122810.9507546,-36.1328125,-33.69140625,-29.78515625,-24.90234375,1.0,-1.0,0.0,0.0,2.m4v,10.0
2024-02-28 13:20:10.954660,1709122810.9546602,-40.52734375,-34.66796875,-28.80859375,-22.94921875,1.0,-1.0,0.0,0.0,2.m4v,10.0
2024-02-28 13:20:10.958566,1709122810.9585657,-38.57421875,-39.0625,-34.66796875,-21.484375,1.0,-1.0,0.0,0.0,2.m4v,10.0
2024-02-28 13:20:10.962471,1709122810.9624712,-34.66796875,-35.15625,-35.15625,-22.4609375,1.0,-1.0,0.0,0.0,2.m4v,10.0
2024-02-28 13:20:10.966377,1709122810.9663768,-42.96875,-30.2734375,-33.203125,-31.73828125,1.0,-1.0,0.0,0.0,2.m4v,10.0
2024-02-28 13:20:10.970282,1709122810.9702823,-49.31640625,-29.296875,-34.1796875,-30.76171875,1.0,-1.0,0.0,0.0,2.m4v,10.0
2024-02-28 13:20:10.974194,1709122810.9741936,-42.96875,-25.87890625,-31.25,-32.71484375,1.0,-1.0,0.0,0.0,2.m4v,10.0
2024-02-28 13:20:10.978099,1709122810.978099,-43.45703125,-23.4375,-30.76171875,-42.48046875,1.0,-1.0,0.0,0.0,2.m4v,10.0
2024-02-28 13:20:10.982005,1709122810.9820046,-45.41015625,-28.80859375,-31.25,-52.24609375,1.0,-1.0,0.0,0.0,2.m4v,10.0
2024-02-28 13:20:10.985910,1709122810.9859102,-42.96875,-36.62109375,-30.2734375,-53.7109375,1.0,-1.0,0.0,0.0,2.m4v,10.0
2024-02-28 13:20:10.989816,1709122810.9898157,-41.015625,-31.73828125,-32.2265625,-43.9453125,1.0,-1.0,0.0,0.0,2.m4v,10.0
2024-02-28 13:20:10.993721,1709122810.9937212,-45.41015625,-25.87890625,-35.64453125,-48.828125,1.0,-1.0,0.0,0.0,2.m4v,10.0
2024-02-28 13:20:10.997627,1709122810.9976268,-43.9453125,-26.3671875,-34.66796875,-52.734375,1.0,-1.0,0.0,0.0,2.m4v,10.0
2024-02-28 13:20:11.001532,1709122811.0015323,-46.38671875,-31.73828125,-33.69140625,-52.24609375,1.0,-1.0,0.0,0.0,2.m4v,10.0
2024-02-28 13:20:11.005438,1709122811.005438,-51.26953125,-33.203125,-31.73828125,-53.22265625,1.0,-1.0,0.0,0.0,2.m4v,10.0
2024-02-28 13:20:11.009343,1709122811.0093434,-44.921875,-32.71484375,-25.87890625,-56.640625,1.0,-1.0,0.0,0.0,2.m4v,10.0
2024-02-28 13:20:11.013249,1709122811.013249,-44.921875,-32.71484375,-28.3203125,-62.98828125,1.0,-1.0,0.0,0.0,2.m4v,10.0
2024-02-28 13:20:11.017155,1709122811.0171547,-50.29296875,-35.64453125,-32.2265625,-66.40625,1.0,-1.0,0.0,0.0,2.m4v,10.0
2024-02-28 13:20:11.021065,1709122811.0210657,-61.03515625,-33.69140625,-31.25,-79.1015625,1.0,-1.0,0.0,0.0,2.m4v,10.0
2024-02-28 13:20:11.024971,1709122811.0249712,-75.68359375,-31.25,-29.296875,-84.47265625,1.0,-1.0,0.0,0.0,2.m4v,10.0
2024-02-28 13:20:11.028877,1709122811.0288768,-83.49609375,-34.1796875,-30.2734375,-90.33203125,1.0,-1.0,0.0,0.0,2.m4v,10.0
2024-02-28 13:20:11.032782,1709122811.0327823,-94.23828125,-35.64453125,-28.3203125,-105.46875,1.0,-1.0,0.0,0.0,2.m4v,10.0
2024-02-28 13:20:11.036688,1709122811.036688,-107.421875,-40.52734375,-24.4140625,-117.1875,1.0,-1.0,0.0,0.0,2.m4v,10.0
2024-02-28 13:20:11.040593,1709122811.0405934,-117.67578125,-39.55078125,-21.97265625,-125.9765625,1.0,-1.0,0.0,0.0,2.m4v,10.0
2024-02-28 13:20:11.044499,1709122811.044499,-131.34765625,-34.66796875,-20.99609375,-137.20703125,1.0,-1.0,0.0,0.0,2.m4v,10.0
2024-02-28 13:20:11.048404,1709122811.0484045,-148.92578125,-39.55078125,-24.90234375,-151.3671875,1.0,-1.0,0.0,0.0,2.m4v,10.0
2024-02-28 13:20:11.052310,1709122811.05231,-156.25,-41.9921875,-21.97265625,-159.1796875,1.0,-1.0,0.0,0.0,2.m4v,10.0
2024-02-28 13:20:11.056216,1709122811.0562155,-158.69140625,-41.50390625,-22.4609375,-166.015625,1.0,-1.0,0.0,0.0,2.m4v,10.0
2024-02-28 13:20:11.060121,1709122811.060121,-166.015625,-40.0390625,-31.73828125,-180.17578125,1.0,-1.0,0.0,0.0,2.m4v,10.0
2024-02-28 13:20:11.064027,1709122811.0640266,-168.9453125,-41.50390625,-36.1328125,-188.4765625,1.0,-1.0,0.0,0.0,2.m4v,10.0
2024-02-28 13:20:11.067938,1709122811.0679376,-172.36328125,-38.0859375,-33.203125,-176.26953125,1.0,-1.0,0.0,0.0,2.m4v,10.0
2024-02-28 13:20:11.071843,1709122811.0718431,-165.52734375,-31.25,-28.80859375,-162.109375,1.0,-1.0,0.0,0.0,2.m4v,10.0
2024-02-28 13:20:11.075749,1709122811.0757487,-157.71484375,-29.78515625,-27.83203125,-158.203125,1.0,-1.0,0.0,0.0,2.m4v,10.0
2024-02-28 13:20:11.079654,1709122811.0796542,-158.203125,-29.78515625,-29.78515625,-155.2734375,1.0,-1.0,0.0,0.0,2.m4v,10.0
2024-02-28 13:20:11.083560,1709122811.0835598,-148.92578125,-27.83203125,-27.34375,-148.4375,1.0,-1.0,0.0,0.0,2.m4v,10.0
2024-02-28 13:20:11.087465,1709122811.0874653,-134.765625,-25.390625,-23.92578125,-141.6015625,1.0,-1.0,0.0,0.0,2.m4v,10.0
2024-02-28 13:20:11.091371,1709122811.0913708,-130.859375,-28.80859375,-27.83203125,-135.25390625,1.0,-1.0,0.0,0.0,2.m4v,10.0
2024-02-28 13:20:11.095276,1709122811.0952764,-130.37109375,-35.15625,-34.1796875,-128.90625,1.0,-1.0,0.0,0.0,2.m4v,10.0
2024-02-28 13:20:11.099182,1709122811.099182,-117.1875,-35.15625,-37.109375,-121.09375,1.0,-1.0,0.0,0.0,2.m4v,10.0
2024-02-28 13:20:11.103087,1709122811.1030874,-102.05078125,-34.1796875,-39.55078125,-104.98046875,1.0,-1.0,0.0,0.0,2.m4v,10.0
2024-02-28 13:20:11.106993,1709122811.106993,-91.30859375,-32.71484375,-41.9921875,-93.26171875,1.0,-1.0,0.0,0.0,2.m4v,10.0
2024-02-28 13:20:11.110899,1709122811.1108987,-79.1015625,-31.73828125,-41.015625,-84.47265625,1.0,-1.0,0.0,0.0,2.m4v,10.0
2024-02-28 13:20:11.114808,1709122811.1148083,-68.359375,-34.1796875,-39.55078125,-74.70703125,1.0,-1.0,0.0,0.0,2.m4v,10.0
2024-02-28 13:20:11.118714,1709122811.118714,-62.98828125,-33.203125,-39.55078125,-70.80078125,1.0,-1.0,0.0,0.0,2.m4v,10.0
2024-02-28 13:20:11.122620,1709122811.1226196,-57.6171875,-34.66796875,-35.15625,-69.3359375,1.0,-1.0,0.0,0.0,2.m4v,10.0
2024-02-28 13:20:11.126525,1709122811.1265252,-48.828125,-36.62109375,-30.2734375,-59.08203125,1.0,-1.0,0.0,0.0,2.m4v,10.0
2024-02-28 13:20:11.130431,1709122811.1304307,-47.8515625,-38.0859375,-30.76171875,-47.8515625,1.0,-1.0,0.0,0.0,2.m4v,10.0
2024-02-28 13:20:11.134336,1709122811.1343362,-42.96875,-35.64453125,-37.109375,-41.50390625,1.0,-1.0,0.0,0.0,2.m4v,10.0
2024-02-28 13:20:11.138242,1709122811.1382418,-29.78515625,-37.109375,-50.29296875,-36.1328125,1.0,-1.0,0.0,0.0,2.m4v,10.0
2024-02-28 13:20:12.173348,1709122812.1733482,-193.84765625,-40.52734375,-31.73828125,-199.21875,1.0,-1.0,0.0,0.0,2.m4v,10.0
2024-02-28 13:20:12.177254,1709122812.1772535,-195.3125,-33.69140625,-33.203125,-197.265625,1.0,-1.0,0.0,0.0,2.m4v,10.0
2024-02-28 13:20:12.181159,1709122812.1811593,-197.75390625,-36.1328125,-35.15625,-199.21875,1.0,-1.0,0.0,0.0,2.m4v,10.0
2024-02-28 13:20:12.185065,1709122812.1850648,-192.87109375,-41.015625,-35.15625,-195.80078125,1.0,-1.0,0.0,0.0,2.m4v,10.0
2024-02-28 13:20:12.188970,1709122812.1889703,-180.17578125,-39.0625,-36.62109375,-189.94140625,1.0,-1.0,0.0,0.0,2.m4v,10.0
2024-02-28 13:20:12.192881,1709122812.1928809,-174.8046875,-37.59765625,-35.64453125,-179.6875,1.0,-1.0,0.0,0.0,2.m4v,10.0
2024-02-28 13:20:12.196786,1709122812.1967864,-181.640625,-35.64453125,-34.1796875,-180.6640625,1.0,-1.0,0.0,0.0,2.m4v,10.0
2024-02-28 13:20:12.200692,1709122812.200692,-171.38671875,-33.203125,-30.76171875,-174.31640625,1.0,-1.0,0.0,0.0,2.m4v,10.0
2024-02-28 13:20:12.204597,1709122812.2045977,-156.73828125,-34.1796875,-33.203125,-165.0390625,1.0,-1.0,0.0,0.0,2.m4v,10.0
2024-02-28 13:20:12.208503,1709122812.208503,-154.78515625,-37.59765625,-36.1328125,-161.62109375,1.0,-1.0,0.0,0.0,2.m4v,10.0
2024-02-28 13:20:12.212409,1709122812.2124083,-150.390625,-35.64453125,-33.69140625,-147.94921875,1.0,-1.0,0.0,0.0,2.m4v,10.0
2024-02-28 13:20:12.216314,1709122812.216314,-142.08984375,-41.015625,-38.0859375,-140.13671875,1.0,-1.0,0.0,0.0,2.m4v,10.0
2024-02-28 13:20:12.220220,1709122812.2202196,-134.27734375,-43.9453125,-41.9921875,-137.20703125,1.0,-1.0,0.0,0.0,2.m4v,10.0
2024-02-28 13:20:12.224125,1709122812.2241251,-119.140625,-38.0859375,-37.59765625,-120.1171875,1.0,-1.0,0.0,0.0,2.m4v,10.0
2024-02-28 13:20:12.228031,1709122812.2280307,-110.83984375,-37.109375,-35.64453125,-106.93359375,1.0,-1.0,0.0,0.0,2.m4v,10.0
2024-02-28 13:20:12.231936,1709122812.2319362,-102.5390625,-35.15625,-38.57421875,-104.98046875,1.0,-1.0,0.0,0.0,2.m4v,10.0
2024-02-28 13:20:12.235842,1709122812.2358418,-94.23828125,-36.62109375,-46.38671875,-100.09765625,1.0,-1.0,0.0,0.0,2.m4v,10.0
2024-02-28 13:20:12.239752,1709122812.2397516,-86.42578125,-39.0625,-52.24609375,-90.8203125,1.0,-1.0,0.0,0.0,2.m4v,10.0
2024-02-28 13:20:12.243657,1709122812.243657,-66.89453125,-35.15625,-43.45703125,-74.21875,1.0,-1.0,0.0,0.0,2.m4v,10.0
2024-02-28 13:20:12.247563,1709122812.2475626,-61.5234375,-38.0859375,-40.0390625,-69.82421875,1.0,-1.0,0.0,0.0,2.m4v,10.0
2024-02-28 13:20:12.251468,1709122812.2514684,-53.7109375,-36.62109375,-43.45703125,-64.453125,1.0,-1.0,0.0,0.0,2.m4v,10.0
2024-02-28 13:20:12.255374,1709122812.255374,-38.0859375,-32.71484375,-43.45703125,-45.8984375,1.0,-1.0,0.0,0.0,2.m4v,10.0
2024-02-28 13:20:12.259279,1709122812.2592795,-27.83203125,-40.52734375,-43.9453125,-36.62109375,1.0,-1.0,0.0,0.0,2.m4v,10.0
2024-02-28 13:20:12.263185,1709122812.263185,-17.08984375,-41.015625,-42.96875,-29.78515625,1.0,-1.0,0.0,0.0,2.m4v,10.0
2024-02-28 13:20:12.267091,1709122812.2670906,-11.23046875,-40.0390625,-45.41015625,-20.5078125,1.0,-1.0,0.0,0.0,2.m4v,10.0
2024-02-28 13:20:12.270996,1709122812.270996,-8.7890625,-38.57421875,-48.33984375,-11.23046875,1.0,-1.0,0.0,0.0,2.m4v,10.0
2024-02-28 13:20:12.274902,1709122812.2749016,-9.765625,-41.50390625,-52.734375,-7.32421875,1.0,-1.0,0.0,0.0,2.m4v,10.0
2024-02-28 13:20:12.278807,1709122812.2788072,-1.46484375,-42.96875,-50.29296875,-8.30078125,1.0,-1.0,0.0,0.0,2.m4v,10.0
2024-02-28 13:20:12.282713,1709122812.2827127,11.23046875,-29.296875,-39.55078125,-4.8828125,1.0,-1.0,0.0,0.0,2.m4v,10.0
2024-02-28 13:20:12.286626,1709122812.2866256,4.8828125,-24.4140625,-38.57421875,-1.953125,1.0,-1.0,0.0,0.0,2.m4v,10.0
2024-02-28 13:20:12.290531,1709122812.2905312,0.9765625,-32.2265625,-38.57421875,1.46484375,1.0,-1.0,0.0,0.0,2.m4v,10.0
2024-02-28 13:20:12.294437,1709122812.2944367,3.90625,-33.69140625,-36.62109375,9.27734375,1.0,-1.0,0.0,0.0,2.m4v,10.0
2024-02-28 13:20:12.298342,1709122812.2983422,12.6953125,-30.76171875,-38.0859375,13.18359375,1.0,-1.0,0.0,0.0,2.m4v,10.0
2024-02-28 13:20:12.302248,1709122812.302248,22.4609375,-31.25,-36.62109375,12.20703125,1.0,-1.0,0.0,0.0,2.m4v,10.0
2024-02-28 13:20:12.306154,1709122812.3061535,18.06640625,-30.2734375,-35.64453125,11.23046875,1.0,-1.0,0.0,0.0,2.m4v,10.0
2024-02-28 13:20:12.310059,1709122812.310059,19.53125,-26.85546875,-30.2734375,13.671875,1.0,-1.0,0.0,0.0,2.m4v,10.0
2024-02-28 13:20:12.313965,1709122812.3139646,28.80859375,-28.3203125,-26.85546875,19.53125,1.0,-1.0,0.0,0.0,2.m4v,10.0
2024-02-28 13:20:12.317870,1709122812.31787,26.3671875,-34.1796875,-29.296875,20.01953125,1.0,-1.0,0.0,0.0,2.m4v,10.0
2024-02-28 13:20:12.321776,1709122812.3217757,14.6484375,-37.59765625,-29.78515625,16.6015625,1.0,-1.0,0.0,0.0,2.m4v,10.0
2024-02-28 13:20:12.325681,1709122812.3256812,11.23046875,-35.64453125,-28.80859375,20.01953125,1.0,-1.0,0.0,0.0,2.m4v,10.0
2024-02-28 13:20:12.329587,1709122812.3295867,13.671875,-30.76171875,-23.4375,20.99609375,1.0,-1.0,0.0,0.0,2.m4v,10.0
2024-02-28 13:20:12.333500,1709122812.3334997,12.6953125,-29.296875,-23.92578125,15.625,1.0,-1.0,0.0,0.0,2.m4v,10.0
2024-02-28 13:20:12.337405,1709122812.3374052,13.18359375,-30.76171875,-27.83203125,11.71875,1.0,-1.0,0.0,0.0,2.m4v,10.0
2024-02-28 13:20:12.341311,1709122812.3413107,16.11328125,-27.83203125,-28.3203125,13.18359375,1.0,-1.0,0.0,0.0,2.m4v,10.0
2024-02-28 13:20:12.345216,1709122812.3452165,16.11328125,-33.69140625,-26.85546875,16.6015625,1.0,-1.0,0.0,0.0,2.m4v,10.0
2024-02-28 13:20:12.349122,1709122812.3491218,17.578125,-39.0625,-24.90234375,18.5546875,1.0,-1.0,0.0,0.0,2.m4v,10.0
2024-02-28 13:20:12.353027,1709122812.353027,18.5546875,-36.1328125,-29.296875,11.71875,1.0,-1.0,0.0,0.0,2.m4v,10.0
2024-02-28 13:20:12.356933,1709122812.3569329,14.16015625,-34.1796875,-34.66796875,4.39453125,1.0,-1.0,0.0,0.0,2.m4v,10.0
2024-02-28 13:20:12.360838,1709122812.3608384,12.20703125,-37.59765625,-34.1796875,1.46484375,1.0,-1.0,0.0,0.0,2.m4v,10.0
2024-02-28 13:20:12.364744,1709122812.3647442,18.06640625,-37.59765625,-28.80859375,3.41796875,1.0,-1.0,0.0,0.0,2.m4v,10.0
2024-02-28 13:20:12.368650,1709122812.3686495,16.11328125,-34.1796875,-26.85546875,11.71875,1.0,-1.0,0.0,0.0,2.m4v,10.0
2024-02-28 13:20:12.372555,1709122812.3725553,14.6484375,-31.73828125,-26.85546875,9.765625,1.0,-1.0,0.0,0.0,2.m4v,10.0
2024-02-28 13:20:12.376461,1709122812.3764608,15.625,-34.1796875,-30.2734375,7.32421875,1.0,-1.0,0.0,0.0,2.m4v,10.0
2024-02-28 13:20:12.380373,1709122812.3803728,17.08984375,-37.109375,-33.203125,4.8828125,1.0,-1.0,0.0,0.0,2.m4v,10.0
2024-02-28 13:20:12.384278,1709122812.3842783,14.6484375,-36.1328125,-30.76171875,-1.46484375,1.0,-1.0,0.0,0.0,2.m4v,10.0
2024-02-28 13:20:12.388184,1709122812.3881838,17.578125,-35.15625,-29.296875,2.44140625,1.0,-1.0,0.0,0.0,2.m4v,10.0
2024-02-28 13:20:12.392090,1709122812.3920896,22.4609375,-33.203125,-29.78515625,7.32421875,1.0,-1.0,0.0,0.0,2.m4v,10.0
2024-02-28 13:20:12.395995,1709122812.3959951,13.671875,-29.78515625,-32.71484375,2.9296875,1.0,-1.0,0.0,0.0,2.m4v,10.0
2024-02-28 13:20:12.399901,1709122812.399901,5.37109375,-28.3203125,-33.69140625,-9.27734375,1.0,-1.0,0.0,0.0,2.m4v,10.0
2024-02-28 13:20:12.403806,1709122812.4038062,-0.48828125,-34.66796875,-39.0625,-14.16015625,1.0,-1.0,0.0,0.0,2.m4v,10.0
2024-02-28 13:20:12.407712,1709122812.4077115,-2.9296875,-37.109375,-41.50390625,-9.765625,1.0,-1.0,0.0,0.0,2.m4v,10.0
2024-02-28 13:20:12.411617,1709122812.4116173,-1.953125,-35.15625,-37.59765625,-6.8359375,1.0,-1.0,0.0,0.0,2.m4v,10.0
2024-02-28 13:20:12.415523,1709122812.4155228,-1.46484375,-35.15625,-33.69140625,-5.37109375,1.0,-1.0,0.0,0.0,2.m4v,10.0
2024-02-28 13:20:12.419428,1709122812.4194283,-3.90625,-33.203125,-31.25,-10.25390625,1.0,-1.0,0.0,0.0,2.m4v,10.0
2024-02-28 13:20:12.423334,1709122812.423334,-2.9296875,-33.203125,-29.296875,-4.8828125,1.0,-1.0,0.0,0.0,2.m4v,10.0
2024-02-28 13:20:12.427246,1709122812.4272456,-10.25390625,-31.25,-29.296875,-12.20703125,1.0,-1.0,0.0,0.0,2.m4v,10.0
2024-02-28 13:20:12.431151,1709122812.4311512,-12.6953125,-31.25,-28.80859375,-21.97265625,1.0,-1.0,0.0,0.0,2.m4v,10.0
2024-02-28 13:20:12.435057,1709122812.4350567,-7.8125,-36.1328125,-28.3203125,-17.578125,1.0,-1.0,0.0,0.0,2.m4v,10.0
2024-02-28 13:20:12.438962,1709122812.4389622,-11.23046875,-33.69140625,-33.69140625,-12.6953125,1.0,-1.0,0.0,0.0,2.m4v,10.0
2024-02-28 13:20:12.442868,1709122812.4428678,-10.25390625,-28.3203125,-32.71484375,-6.8359375,1.0,-1.0,0.0,0.0,2.m4v,10.0
2024-02-28 13:20:12.446773,1709122812.4467733,-7.32421875,-27.83203125,-31.73828125,-11.23046875,1.0,-1.0,0.0,0.0,2.m4v,10.0
2024-02-28 13:20:12.450679,1709122812.4506788,-8.30078125,-26.3671875,-35.15625,-16.6015625,1.0,-1.0,0.0,0.0,2.m4v,10.0
2024-02-28 13:20:12.454584,1709122812.4545844,-8.7890625,-29.78515625,-35.15625,-15.13671875,1.0,-1.0,0.0,0.0,2.m4v,10.0
2024-02-28 13:20:12.458490,1709122812.45849,-8.30078125,-39.55078125,-38.57421875,-17.08984375,1.0,-1.0,0.0,0.0,2.m4v,10.0
2024-02-28 13:20:12.462396,1709122812.4623957,-6.8359375,-35.15625,-38.0859375,-18.06640625,1.0,-1.0,0.0,0.0,2.m4v,10.0
2024-02-28 13:20:12.466301,1709122812.4663012,-8.7890625,-30.2734375,-36.62109375,-22.4609375,1.0,-1.0,0.0,0.0,2.m4v,10.0
2024-02-28 13:20:12.470207,1709122812.4702067,-11.71875,-32.71484375,-36.62109375,-22.94921875,1.0,-1.0,0.0,0.0,2.m4v,10.0
2024-02-28 13:20:12.474118,1709122812.474118,-8.7890625,-35.15625,-34.1796875,-16.11328125,1.0,-1.0,0.0,0.0,2.m4v,10.0
2024-02-28 13:20:12.478024,1709122812.4780235,-7.8125,-37.59765625,-38.0859375,-16.11328125,1.0,-1.0,0.0,0.0,2.m4v,10.0
2024-02-28 13:20:12.481929,1709122812.4819293,-7.8125,-38.0859375,-40.0390625,-14.6484375,1.0,-1.0,0.0,0.0,2.m4v,10.0
2024-02-28 13:20:12.485835,1709122812.4858348,-7.32421875,-38.0859375,-37.59765625,-8.7890625,1.0,-1.0,0.0,0.0,2.m4v,10.0
2024-02-28 13:20:12.489740,1709122812.4897404,-14.16015625,-38.57421875,-35.64453125,-9.27734375,1.0,-1.0,0.0,0.0,2.m4v,10.0
2024-02-28 13:20:12.493646,1709122812.493646,-19.53125,-39.0625,-34.1796875,-11.71875,1.0,-1.0,0.0,0.0,2.m4v,10.0
2024-02-28 13:20:12.497551,1709122812.4975514,-22.4609375,-33.69140625,-37.59765625,-16.6015625,1.0,-1.0,0.0,0.0,2.m4v,10.0
2024-02-28 13:20:12.501457,1709122812.501457,-25.87890625,-34.66796875,-37.109375,-27.34375,1.0,-1.0,0.0,0.0,2.m4v,10.0
2024-02-28 13:20:12.505363,1709122812.5053625,-23.92578125,-39.0625,-32.2265625,-26.3671875,1.0,-1.0,0.0,0.0,2.m4v,10.0
2024-02-28 13:20:12.509268,1709122812.509268,-21.484375,-33.203125,-29.78515625,-19.53125,1.0,-1.0,0.0,0.0,2.m4v,10.0
2024-02-28 13:20:12.513174,1709122812.5131736,-23.4375,-32.2265625,-34.1796875,-20.01953125,1.0,-1.0,0.0,0.0,2.m4v,10.0
2024-02-28 13:20:12.517079,1709122812.517079,-28.80859375,-38.0859375,-37.109375,-20.01953125,1.0,-1.0,0.0,0.0,2.m4v,10.0
2024-02-28 13:20:12.520990,1709122812.52099,-31.25,-39.55078125,-33.203125,-22.94921875,1.0,-1.0,0.0,0.0,2.m4v,10.0
2024-02-28 13:20:12.524896,1709122812.5248957,-30.76171875,-25.87890625,-27.34375,-24.4140625,1.0,-1.0,0.0,0.0,2.m4v,10.0
2024-02-28 13:20:12.528801,1709122812.5288012,-33.203125,-29.296875,-28.3203125,-22.4609375,1.0,-1.0,0.0,0.0,2.m4v,10.0
2024-02-28 13:20:12.532707,1709122812.5327067,-37.59765625,-47.36328125,-33.203125,-25.87890625,1.0,-1.0,0.0,0.0,2.m4v,10.0
2024-02-28 13:20:12.536613,1709122812.5366125,-36.62109375,-39.0625,-36.62109375,-22.94921875,1.0,-1.0,0.0,0.0,2.m4v,10.0
2024-02-28 13:20:12.540518,1709122812.540518,-31.25,-37.59765625,-35.15625,-20.01953125,1.0,-1.0,0.0,0.0,2.m4v,10.0
2024-02-28 13:20:14.352930,1709122814.3529296,-27.34375,-32.2265625,-32.71484375,-42.48046875,1.0,-1.0,0.0,0.0,2.m4v,10.0
2024-02-28 13:20:14.360741,1709122814.360741,-33.69140625,-29.296875,-34.66796875,-37.109375,1.0,-1.0,0.0,0.0,2.m4v,10.0
2024-02-28 13:20:14.368552,1709122814.368552,-14.6484375,-22.94921875,-33.69140625,-20.99609375,1.0,-1.0,0.0,0.0,2.m4v,10.0
2024-02-28 13:20:14.376363,1709122814.376363,-36.62109375,-38.0859375,-33.69140625,-47.36328125,1.0,-1.0,0.0,0.0,2.m4v,10.0
2024-02-28 13:20:14.384174,1709122814.384174,-26.3671875,-33.69140625,-27.83203125,-36.1328125,1.0,-1.0,0.0,0.0,2.m4v,10.0
2024-02-28 13:20:14.391985,1709122814.3919852,-31.25,-32.71484375,-31.25,-24.4140625,1.0,-1.0,0.0,0.0,2.m4v,10.0
2024-02-28 13:20:14.399801,1709122814.3998015,-29.296875,-29.78515625,-29.296875,-30.76171875,1.0,-1.0,0.0,0.0,2.m4v,10.0
2024-02-28 13:20:14.407613,1709122814.4076126,-34.1796875,-37.109375,-32.71484375,-36.1328125,1.0,-1.0,0.0,0.0,2.m4v,10.0
2024-02-28 13:20:14.415424,1709122814.415424,-32.71484375,-30.76171875,-34.66796875,-33.69140625,1.0,-1.0,0.0,0.0,2.m4v,10.0
2024-02-28 13:20:14.423235,1709122814.423235,-22.94921875,-26.85546875,-37.109375,-35.64453125,1.0,-1.0,0.0,0.0,2.m4v,10.0
2024-02-28 13:20:14.431046,1709122814.431046,-17.08984375,-22.94921875,-27.34375,-23.92578125,1.0,-1.0,0.0,0.0,2.m4v,10.0
2024-02-28 13:20:14.438857,1709122814.438857,-15.13671875,-31.25,-31.73828125,-22.4609375,1.0,-1.0,0.0,0.0,2.m4v,10.0
2024-02-28 13:20:15.028675,1709122815.0286748,-29.296875,-23.92578125,-29.78515625,-26.85546875,1.0,-1.0,0.0,0.0,2.m4v,10.0
2024-02-28 13:20:15.145859,1709122815.1458597,-21.97265625,-30.76171875,-25.87890625,-18.06640625,1.0,-1.0,0.0,0.0,2.m4v,10.0
2024-02-28 13:20:15.157576,1709122815.157576,-23.92578125,-36.1328125,-26.85546875,-22.94921875,1.0,-1.0,0.0,0.0,2.m4v,10.0
2024-02-28 13:20:15.165387,1709122815.1653872,-35.15625,-37.59765625,-31.25,-23.4375,1.0,-1.0,0.0,0.0,2.m4v,10.0
2024-02-28 13:20:15.177104,1709122815.1771038,-44.921875,-38.57421875,-39.55078125,-39.55078125,1.0,-1.0,0.0,0.0,2.m4v,10.0
2024-02-28 13:20:15.184915,1709122815.184915,-36.62109375,-32.71484375,-32.71484375,-35.64453125,1.0,-1.0,0.0,0.0,2.m4v,10.0
2024-02-28 13:20:15.196637,1709122815.1966372,-37.109375,-41.50390625,-33.69140625,-43.45703125,1.0,-1.0,0.0,0.0,2.m4v,10.0
2024-02-28 13:20:15.204448,1709122815.2044482,-41.9921875,-40.52734375,-35.15625,-40.52734375,1.0,-1.0,0.0,0.0,2.m4v,10.0
2024-02-28 13:20:15.216165,1709122815.216165,-30.2734375,-39.0625,-41.015625,-33.69140625,1.0,-1.0,0.0,0.0,2.m4v,10.0
2024-02-28 13:20:15.223976,1709122815.223976,-32.71484375,-45.41015625,-38.0859375,-38.0859375,1.0,-1.0,0.0,0.0,2.m4v,10.0
2024-02-28 13:20:15.235693,1709122815.2356927,-41.9921875,-37.109375,-28.3203125,-32.2265625,1.0,-1.0,0.0,0.0,2.m4v,10.0
2024-02-28 13:20:15.243508,1709122815.2435083,-42.48046875,-46.38671875,-27.83203125,-39.55078125,1.0,-1.0,0.0,0.0,2.m4v,10.0
2024-02-28 13:20:15.255225,1709122815.255225,-38.0859375,-41.50390625,-24.90234375,-29.296875,1.0,-1.0,0.0,0.0,2.m4v,10.0
2024-02-28 13:20:15.263036,1709122815.263036,-42.96875,-42.48046875,-27.34375,-36.1328125,1.0,-1.0,0.0,0.0,2.m4v,10.0
2024-02-28 13:20:15.274753,1709122815.2747529,-43.45703125,-38.57421875,-31.73828125,-33.203125,1.0,-1.0,0.0,0.0,2.m4v,10.0
2024-02-28 13:20:15.282564,1709122815.282564,-46.38671875,-40.0390625,-36.1328125,-47.8515625,1.0,-1.0,0.0,0.0,2.m4v,10.0
2024-02-28 13:20:15.294286,1709122815.2942865,-40.52734375,-35.15625,-34.1796875,-36.62109375,1.0,-1.0,0.0,0.0,2.m4v,10.0
2024-02-28 13:20:15.302098,1709122815.3020978,-31.25,-43.9453125,-27.34375,-26.85546875,1.0,-1.0,0.0,0.0,2.m4v,10.0
2024-02-28 13:20:15.313814,1709122815.3138144,-36.62109375,-41.015625,-37.59765625,-34.66796875,1.0,-1.0,0.0,0.0,2.m4v,10.0
2024-02-28 13:20:15.321625,1709122815.3216257,-42.96875,-39.55078125,-34.1796875,-38.57421875,1.0,-1.0,0.0,0.0,2.m4v,10.0
2024-02-28 13:20:15.333349,1709122815.3333497,-37.59765625,-32.71484375,-32.2265625,-36.1328125,1.0,-1.0,0.0,0.0,2.m4v,10.0
2024-02-28 13:20:15.341161,1709122815.3411603,-44.43359375,-39.55078125,-36.1328125,-45.8984375,1.0,-1.0,0.0,0.0,2.m4v,10.0
2024-02-28 13:20:15.352877,1709122815.3528771,-37.109375,-29.296875,-28.80859375,-32.71484375,1.0,-1.0,0.0,0.0,2.m4v,10.0
2024-02-28 13:20:15.360688,1709122815.3606882,-41.9921875,-33.69140625,-32.71484375,-38.0859375,1.0,-1.0,0.0,0.0,2.m4v,10.0
2024-02-28 13:20:15.372405,1709122815.3724048,-43.45703125,-29.296875,-29.296875,-32.71484375,1.0,-1.0,0.0,0.0,2.m4v,10.0
2024-02-28 13:20:15.380223,1709122815.3802226,-35.15625,-32.2265625,-30.2734375,-33.203125,1.0,-1.0,0.0,0.0,2.m4v,10.0
2024-02-28 13:20:15.391939,1709122815.3919392,-28.80859375,-28.80859375,-27.83203125,-21.484375,1.0,-1.0,0.0,0.0,2.m4v,10.0
2024-02-28 13:20:15.399750,1709122815.3997505,-27.83203125,-32.2265625,-31.25,-30.2734375,1.0,-1.0,0.0,0.0,2.m4v,10.0
2024-02-28 13:20:15.411467,1709122815.411467,-41.015625,-36.62109375,-36.1328125,-38.57421875,1.0,-1.0,0.0,0.0,2.m4v,10.0
2024-02-28 13:20:15.419278,1709122815.419278,-31.25,-30.2734375,-30.76171875,-33.69140625,1.0,-1.0,0.0,0.0,2.m4v,10.0
2024-02-28 13:20:15.431001,1709122815.431001,-39.0625,-34.66796875,-33.69140625,-29.78515625,1.0,-1.0,0.0,0.0,2.m4v,10.0
2024-02-28 13:20:15.438812,1709122815.438812,-48.33984375,-27.34375,-30.76171875,-31.25,1.0,-1.0,0.0,0.0,2.m4v,10.0
2024-02-28 13:20:15.450529,1709122815.4505289,-45.41015625,-23.4375,-31.25,-26.85546875,1.0,-1.0,0.0,0.0,2.m4v,10.0
2024-02-28 13:20:15.458340,1709122815.45834,-44.921875,-37.109375,-41.50390625,-33.203125,1.0,-1.0,0.0,0.0,2.m4v,10.0
2024-02-28 13:20:15.470057,1709122815.4700563,-37.59765625,-31.73828125,-36.62109375,-41.9921875,1.0,-1.0,0.0,0.0,2.m4v,10.0
2024-02-28 13:20:15.481779,1709122815.4817789,-44.43359375,-31.25,-38.57421875,-51.7578125,1.0,-1.0,0.0,0.0,2.m4v,10.0
2024-02-28 13:20:15.493495,1709122815.4934957,-42.96875,-31.25,-33.203125,-43.9453125,1.0,-1.0,0.0,0.0,2.m4v,10.0
2024-02-28 13:20:15.505212,1709122815.5052123,-32.2265625,-41.50390625,-31.25,-25.390625,1.0,-1.0,0.0,0.0,2.m4v,10.0
2024-02-28 13:20:15.516929,1709122815.516929,-41.015625,-36.1328125,-27.34375,-44.43359375,1.0,-1.0,0.0,0.0,2.m4v,10.0
2024-02-28 13:20:15.528651,1709122815.528651,-36.1328125,-32.71484375,-30.76171875,-37.109375,1.0,-1.0,0.0,0.0,2.m4v,10.0
2024-02-28 13:20:15.540368,1709122815.5403676,-42.48046875,-33.69140625,-31.25,-34.66796875,1.0,-1.0,0.0,0.0,2.m4v,10.0
2024-02-28 13:20:15.552084,1709122815.5520844,-44.921875,-38.57421875,-30.76171875,-41.015625,1.0,-1.0,0.0,0.0,2.m4v,10.0
2024-02-28 13:20:15.563801,1709122815.563801,-34.1796875,-38.0859375,-30.76171875,-28.80859375,1.0,-1.0,0.0,0.0,2.m4v,10.0
2024-02-28 13:20:15.575523,1709122815.5755231,-37.109375,-40.52734375,-36.62109375,-26.3671875,1.0,-1.0,0.0,0.0,2.m4v,10.0
2024-02-28 13:20:15.587240,1709122815.5872395,-29.78515625,-29.78515625,-35.15625,-26.85546875,1.0,-1.0,0.0,0.0,2.m4v,10.0
2024-02-28 13:20:15.598956,1709122815.5989563,-30.2734375,-35.64453125,-38.0859375,-36.62109375,1.0,-1.0,0.0,0.0,2.m4v,10.0
2024-02-28 13:20:15.610673,1709122815.6106732,-21.484375,-24.4140625,-31.25,-26.3671875,1.0,-1.0,0.0,0.0,2.m4v,10.0
2024-02-28 13:20:15.622394,1709122815.622394,-30.76171875,-29.78515625,-33.69140625,-34.66796875,1.0,-1.0,0.0,0.0,2.m4v,10.0
2024-02-28 13:20:15.634111,1709122815.634111,-34.66796875,-31.73828125,-37.109375,-33.69140625,1.0,-1.0,0.0,0.0,2.m4v,10.0
2024-02-28 13:20:15.645828,1709122815.6458275,-43.9453125,-32.2265625,-38.0859375,-36.62109375,1.0,-1.0,0.0,0.0,2.m4v,10.0
2024-02-28 13:20:15.657544,1709122815.657544,-41.9921875,-29.78515625,-40.52734375,-41.9921875,1.0,-1.0,0.0,0.0,2.m4v,10.0
2024-02-28 13:20:15.669265,1709122815.6692648,-47.8515625,-39.0625,-45.8984375,-32.71484375,1.0,-1.0,0.0,0.0,2.m4v,10.0
2024-02-28 13:20:16.262983,1709122816.262983,5.859375,-32.71484375,-24.4140625,8.30078125,1.0,-1.0,0.0,0.0,2.m4v,10.0
2024-02-28 13:20:16.266889,1709122816.2668889,7.32421875,-28.80859375,-26.85546875,10.25390625,1.0,-1.0,0.0,0.0,2.m4v,10.0
2024-02-28 13:20:16.270800,1709122816.2707996,0.48828125,-27.34375,-26.3671875,9.27734375,1.0,-1.0,0.0,0.0,2.m4v,10.0
2024-02-28 13:20:16.274705,1709122816.2747054,-5.37109375,-31.73828125,-28.80859375,0.9765625,1.0,-1.0,0.0,0.0,2.m4v,10.0
2024-02-28 13:20:16.278611,1709122816.278611,3.90625,-31.25,-28.80859375,5.37109375,1.0,-1.0,0.0,0.0,2.m4v,10.0
2024-02-28 13:20:16.282516,1709122816.2825165,19.53125,-28.3203125,-24.4140625,14.6484375,1.0,-1.0,0.0,0.0,2.m4v,10.0
2024-02-28 13:20:16.286422,1709122816.286422,35.15625,-30.76171875,-24.90234375,15.625,1.0,-1.0,0.0,0.0,2.m4v,10.0
2024-02-28 13:20:16.290328,1709122816.2903275,17.08984375,-34.1796875,-27.83203125,16.6015625,1.0,-1.0,0.0,0.0,2.m4v,10.0
2024-02-28 13:20:16.294233,1709122816.294233,10.7421875,-34.66796875,-29.78515625,13.18359375,1.0,-1.0,0.0,0.0,2.m4v,10.0
2024-02-28 13:20:16.298139,1709122816.2981386,30.76171875,-35.64453125,-34.1796875,5.859375,1.0,-1.0,0.0,0.0,2.m4v,10.0
2024-02-28 13:20:16.302044,1709122816.3020442,7.32421875,-41.015625,-32.71484375,4.39453125,1.0,-1.0,0.0,0.0,2.m4v,10.0
2024-02-28 13:20:16.305950,1709122816.3059497,-16.6015625,-38.0859375,-24.90234375,6.8359375,1.0,-1.0,0.0,0.0,2.m4v,10.0
2024-02-28 13:20:16.309855,1709122816.3098552,-8.30078125,-33.203125,-23.4375,6.34765625,1.0,-1.0,0.0,0.0,2.m4v,10.0
2024-02-28 13:20:16.313761,1709122816.3137608,0.0,-32.2265625,-27.34375,7.8125,1.0,-1.0,0.0,0.0,2.m4v,10.0
2024-02-28 13:20:16.317671,1709122816.3176713,0.48828125,-30.76171875,-31.25,7.8125,1.0,-1.0,0.0,0.0,2.m4v,10.0
2024-02-28 13:20:16.321577,1709122816.3215768,-8.30078125,-32.2265625,-32.71484375,-1.953125,1.0,-1.0,0.0,0.0,2.m4v,10.0
2024-02-28 13:20:16.325482,1709122816.3254824,-15.625,-29.78515625,-32.2265625,-4.8828125,1.0,-1.0,0.0,0.0,2.m4v,10.0
2024-02-28 13:20:16.329388,1709122816.329388,-20.5078125,-32.71484375,-33.203125,-6.34765625,1.0,-1.0,0.0,0.0,2.m4v,10.0
2024-02-28 13:20:16.333293,1709122816.3332934,-24.90234375,-37.59765625,-31.25,-12.6953125,1.0,-1.0,0.0,0.0,2.m4v,10.0
2024-02-28 13:20:16.337199,1709122816.337199,-9.27734375,-32.2265625,-24.90234375,-8.7890625,1.0,-1.0,0.0,0.0,2.m4v,10.0
2024-02-28 13:20:16.341105,1709122816.3411045,-2.44140625,-33.69140625,-26.85546875,-11.23046875,1.0,-1.0,0.0,0.0,2.m4v,10.0
2024-02-28 13:20:16.345010,1709122816.34501,-15.13671875,-37.109375,-31.73828125,-15.13671875,1.0,-1.0,0.0,0.0,2.m4v,10.0
2024-02-28 13:20:16.348916,1709122816.3489158,-22.4609375,-32.71484375,-32.2265625,-17.08984375,1.0,-1.0,0.0,0.0,2.m4v,10.0
2024-02-28 13:20:16.352821,1709122816.3528214,-27.34375,-31.25,-33.203125,-20.99609375,1.0,-1.0,0.0,0.0,2.m4v,10.0
2024-02-28 13:20:16.356727,1709122816.356727,-27.34375,-34.1796875,-34.1796875,-23.4375,1.0,-1.0,0.0,0.0,2.m4v,10.0
2024-02-28 13:20:16.360632,1709122816.3606324,-32.71484375,-30.2734375,-34.66796875,-23.4375,1.0,-1.0,0.0,0.0,2.m4v,10.0
2024-02-28 13:20:16.364542,1709122816.3645425,-37.59765625,-33.69140625,-34.66796875,-23.4375,1.0,-1.0,0.0,0.0,2.m4v,10.0
2024-02-28 13:20:16.368448,1709122816.368448,-36.62109375,-38.57421875,-31.25,-22.4609375,1.0,-1.0,0.0,0.0,2.m4v,10.0
2024-02-28 13:20:16.372354,1709122816.3723536,-30.2734375,-28.80859375,-34.66796875,-19.04296875,1.0,-1.0,0.0,0.0,2.m4v,10.0
2024-02-28 13:20:16.376259,1709122816.376259,-33.69140625,-31.25,-40.0390625,-18.5546875,1.0,-1.0,0.0,0.0,2.m4v,10.0
2024-02-28 13:20:16.380165,1709122816.3801649,-41.9921875,-33.69140625,-41.50390625,-20.99609375,1.0,-1.0,0.0,0.0,2.m4v,10.0
2024-02-28 13:20:16.384070,1709122816.3840704,-44.921875,-32.71484375,-37.59765625,-22.94921875,1.0,-1.0,0.0,0.0,2.m4v,10.0
2024-02-28 13:20:16.387976,1709122816.387976,-48.33984375,-36.1328125,-32.2265625,-23.92578125,1.0,-1.0,0.0,0.0,2.m4v,10.0
2024-02-28 13:20:16.391881,1709122816.3918817,-44.43359375,-36.1328125,-32.2265625,-20.5078125,1.0,-1.0,0.0,0.0,2.m4v,10.0
2024-02-28 13:20:16.395787,1709122816.395787,-37.59765625,-37.109375,-34.66796875,-22.4609375,1.0,-1.0,0.0,0.0,2.m4v,10.0
2024-02-28 13:20:16.399693,1709122816.3996923,-28.3203125,-35.15625,-37.59765625,-23.4375,1.0,-1.0,0.0,0.0,2.m4v,10.0
2024-02-28 13:20:16.403598,1709122816.403598,-21.484375,-31.25,-31.25,-17.578125,1.0,-1.0,0.0,0.0,2.m4v,10.0
2024-02-28 13:20:16.407504,1709122816.4075036,-20.99609375,-33.203125,-34.66796875,-21.97265625,1.0,-1.0,0.0,0.0,2.m4v,10.0
2024-02-28 13:20:16.411414,1709122816.4114137,-17.578125,-30.76171875,-37.109375,-18.5546875,1.0,-1.0,0.0,0.0,2.m4v,10.0
2024-02-28 13:20:16.415319,1709122816.4153194,-21.97265625,-30.2734375,-31.25,-19.04296875,1.0,-1.0,0.0,0.0,2.m4v,10.0
2024-02-28 13:20:16.419225,1709122816.419225,-29.296875,-34.1796875,-31.73828125,-23.4375,1.0,-1.0,0.0,0.0,2.m4v,10.0
2024-02-28 13:20:16.423131,1709122816.4231305,-25.87890625,-30.76171875,-31.25,-23.92578125,1.0,-1.0,0.0,0.0,2.m4v,10.0
2024-02-28 13:20:16.427036,1709122816.427036,-31.25,-30.2734375,-29.78515625,-36.1328125,1.0,-1.0,0.0,0.0,2.m4v,10.0
2024-02-28 13:20:16.430942,1709122816.4309416,-32.2265625,-33.69140625,-26.85546875,-31.73828125,1.0,-1.0,0.0,0.0,2.m4v,10.0
2024-02-28 13:20:16.434847,1709122816.434847,-26.85546875,-32.2265625,-23.92578125,-31.25,1.0,-1.0,0.0,0.0,2.m4v,10.0
2024-02-28 13:20:16.438753,1709122816.438753,-30.76171875,-33.203125,-32.2265625,-35.64453125,1.0,-1.0,0.0,0.0,2.m4v,10.0
2024-02-28 13:20:16.442658,1709122816.4426582,-21.97265625,-30.76171875,-37.109375,-27.83203125,1.0,-1.0,0.0,0.0,2.m4v,10.0
2024-02-28 13:20:16.446564,1709122816.4465635,-16.6015625,-32.2265625,-38.57421875,-20.99609375,1.0,-1.0,0.0,0.0,2.m4v,10.0
2024-02-28 13:20:16.450469,1709122816.4504693,-11.71875,-29.78515625,-39.0625,-18.5546875,1.0,-1.0,0.0,0.0,2.m4v,10.0
2024-02-28 13:20:16.454375,1709122816.4543748,-13.671875,-24.4140625,-37.109375,-21.97265625,1.0,-1.0,0.0,0.0,2.m4v,10.0
2024-02-28 13:20:16.458287,1709122816.4582877,-22.4609375,-30.76171875,-40.0390625,-24.90234375,1.0,-1.0,0.0,0.0,2.m4v,10.0
2024-02-28 13:20:16.462193,1709122816.462193,-24.90234375,-36.62109375,-41.50390625,-25.390625,1.0,-1.0,0.0,0.0,2.m4v,10.0
2024-02-28 13:20:16.466099,1709122816.4660983,-24.90234375,-39.55078125,-42.96875,-22.4609375,1.0,-1.0,0.0,0.0,2.m4v,10.0
2024-02-28 13:20:16.470004,1709122816.470004,-24.90234375,-41.015625,-42.48046875,-22.94921875,1.0,-1.0,0.0,0.0,2.m4v,10.0
2024-02-28 13:20:16.473910,1709122816.4739096,-25.390625,-34.66796875,-39.0625,-27.83203125,1.0,-1.0,0.0,0.0,2.m4v,10.0
2024-02-28 13:20:16.477815,1709122816.4778152,-20.99609375,-36.1328125,-38.57421875,-23.4375,1.0,-1.0,0.0,0.0,2.m4v,10.0
2024-02-28 13:20:16.481721,1709122816.4817207,-18.06640625,-38.57421875,-39.0625,-19.04296875,1.0,-1.0,0.0,0.0,2.m4v,10.0
2024-02-28 13:20:16.485626,1709122816.4856262,-17.578125,-35.64453125,-36.1328125,-24.4140625,1.0,-1.0,0.0,0.0,2.m4v,10.0
2024-02-28 13:20:16.489532,1709122816.489532,-11.23046875,-32.2265625,-35.15625,-21.484375,1.0,-1.0,0.0,0.0,2.m4v,10.0
2024-02-28 13:20:16.493438,1709122816.4934375,-9.765625,-33.203125,-35.64453125,-16.11328125,1.0,-1.0,0.0,0.0,2.m4v,10.0
2024-02-28 13:20:16.497343,1709122816.497343,-10.25390625,-39.0625,-36.1328125,-25.87890625,1.0,-1.0,0.0,0.0,2.m4v,10.0
2024-02-28 13:20:16.501249,1709122816.5012486,-12.6953125,-40.0390625,-35.64453125,-31.25,1.0,-1.0,0.0,0.0,2.m4v,10.0
2024-02-28 13:20:16.505161,1709122816.5051606,-19.04296875,-35.15625,-37.59765625,-29.296875,1.0,-1.0,0.0,0.0,2.m4v,10.0
2024-02-28 13:20:17.505117,1709122817.505117,-28.80859375,-24.90234375,-31.25,-40.0390625,1.0,-1.0,0.0,0.0,2.m4v,10.0
2024-02-28 13:20:17.509022,1709122817.5090225,-32.2265625,-25.390625,-27.83203125,-34.1796875,1.0,-1.0,0.0,0.0,2.m4v,10.0
2024-02-28 13:20:17.512928,1709122817.512928,-34.1796875,-29.296875,-30.76171875,-24.4140625,1.0,-1.0,0.0,0.0,2.m4v,10.0
2024-02-28 13:20:17.516834,1709122817.5168335,-24.90234375,-30.76171875,-35.15625,-18.5546875,1.0,-1.0,0.0,0.0,2.m4v,10.0
2024-02-28 13:20:17.520739,1709122817.520739,-16.11328125,-31.25,-34.66796875,-19.04296875,1.0,-1.0,0.0,0.0,2.m4v,10.0
2024-02-28 13:20:17.524645,1709122817.5246446,-15.625,-27.83203125,-30.2734375,-17.08984375,1.0,-1.0,0.0,0.0,2.m4v,10.0
2024-02-28 13:20:17.528550,1709122817.52855,-15.625,-27.83203125,-32.2265625,-17.578125,1.0,-1.0,0.0,0.0,2.m4v,10.0
2024-02-28 13:20:17.532456,1709122817.5324557,-20.5078125,-34.1796875,-33.203125,-18.06640625,1.0,-1.0,0.0,0.0,2.m4v,10.0
2024-02-28 13:20:17.536365,1709122817.5363653,-23.92578125,-35.15625,-31.73828125,-17.08984375,1.0,-1.0,0.0,0.0,2.m4v,10.0
2024-02-28 13:20:17.540271,1709122817.5402708,-22.4609375,-36.1328125,-30.76171875,-23.4375,1.0,-1.0,0.0,0.0,2.m4v,10.0
2024-02-28 13:20:17.544176,1709122817.5441763,-11.71875,-32.2265625,-29.296875,-20.99609375,1.0,-1.0,0.0,0.0,2.m4v,10.0
2024-02-28 13:20:17.548082,1709122817.548082,-5.859375,-30.76171875,-26.85546875,-15.625,1.0,-1.0,0.0,0.0,2.m4v,10.0
2024-02-28 13:20:17.551988,1709122817.5519876,-19.53125,-32.2265625,-23.4375,-25.390625,1.0,-1.0,0.0,0.0,2.m4v,10.0
2024-02-28 13:20:17.555893,1709122817.5558932,-24.90234375,-34.66796875,-22.4609375,-32.71484375,1.0,-1.0,0.0,0.0,2.m4v,10.0
2024-02-28 13:20:17.559799,1709122817.5597987,-20.5078125,-41.50390625,-26.85546875,-28.80859375,1.0,-1.0,0.0,0.0,2.m4v,10.0
2024-02-28 13:20:17.563704,1709122817.5637045,-25.390625,-40.0390625,-27.34375,-31.73828125,1.0,-1.0,0.0,0.0,2.m4v,10.0
2024-02-28 13:20:17.567610,1709122817.5676098,-35.15625,-41.015625,-29.78515625,-31.25,1.0,-1.0,0.0,0.0,2.m4v,10.0
2024-02-28 13:20:17.571515,1709122817.571515,-30.76171875,-39.55078125,-26.85546875,-20.99609375,1.0,-1.0,0.0,0.0,2.m4v,10.0
2024-02-28 13:20:17.575421,1709122817.5754209,-32.71484375,-41.015625,-21.484375,-13.18359375,1.0,-1.0,0.0,0.0,2.m4v,10.0
2024-02-28 13:20:17.579326,1709122817.5793264,-37.109375,-45.41015625,-23.92578125,-12.6953125,1.0,-1.0,0.0,0.0,2.m4v,10.0
2024-02-28 13:20:17.583239,1709122817.583239,-40.52734375,-44.921875,-25.390625,-17.08984375,1.0,-1.0,0.0,0.0,2.m4v,10.0
2024-02-28 13:20:17.587145,1709122817.5871446,-41.9921875,-43.9453125,-23.92578125,-11.23046875,1.0,-1.0,0.0,0.0,2.m4v,10.0
2024-02-28 13:20:17.591050,1709122817.59105,-41.9921875,-41.50390625,-21.97265625,-9.27734375,1.0,-1.0,0.0,0.0,2.m4v,10.0
2024-02-28 13:20:17.594956,1709122817.5949557,-43.45703125,-43.9453125,-20.5078125,-9.765625,1.0,-1.0,0.0,0.0,2.m4v,10.0
2024-02-28 13:20:17.598861,1709122817.5988612,-38.0859375,-45.41015625,-20.01953125,-10.25390625,1.0,-1.0,0.0,0.0,2.m4v,10.0
2024-02-28 13:20:17.602767,1709122817.6027668,-31.73828125,-35.64453125,-18.06640625,-18.06640625,1.0,-1.0,0.0,0.0,2.m4v,10.0
2024-02-28 13:20:17.606672,1709122817.6066723,-33.69140625,-29.296875,-21.484375,-22.4609375,1.0,-1.0,0.0,0.0,2.m4v,10.0
2024-02-28 13:20:17.610578,1709122817.6105778,-39.55078125,-33.69140625,-25.390625,-21.97265625,1.0,-1.0,0.0,0.0,2.m4v,10.0
2024-02-28 13:20:17.614484,1709122817.6144836,-33.69140625,-37.109375,-25.390625,-18.06640625,1.0,-1.0,0.0,0.0,2.m4v,10.0
2024-02-28 13:20:17.618389,1709122817.6183891,-24.90234375,-41.50390625,-27.34375,-20.99609375,1.0,-1.0,0.0,0.0,2.m4v,10.0
2024-02-28 13:20:17.622295,1709122817.622295,-27.34375,-41.50390625,-22.94921875,-24.90234375,1.0,-1.0,0.0,0.0,2.m4v,10.0
2024-02-28 13:20:17.626200,1709122817.6262002,-31.73828125,-34.66796875,-20.99609375,-24.90234375,1.0,-1.0,0.0,0.0,2.m4v,10.0
2024-02-28 13:20:17.630112,1709122817.6301122,-35.64453125,-35.15625,-26.3671875,-29.296875,1.0,-1.0,0.0,0.0,2.m4v,10.0
2024-02-28 13:20:17.634018,1709122817.634018,-39.0625,-34.66796875,-30.76171875,-30.76171875,1.0,-1.0,0.0,0.0,2.m4v,10.0
