Timestamp,Timestamp_UNIX,TP9,AF7,AF8,TP10,Valence,Arousal,Dominace,Viewed,Video,Participant
2024-02-27 16:11:58.001665,1709046718.0016654,-16.6015625,-41.015625,-33.69140625,-32.71484375,-1.0,0.0,0.0,0.0,9.m4v,6.0
2024-02-27 16:11:58.005571,1709046718.005571,-14.6484375,-41.50390625,-45.8984375,-34.66796875,-1.0,0.0,0.0,0.0,9.m4v,6.0
2024-02-27 16:11:58.009476,1709046718.0094764,-33.203125,-40.0390625,-45.41015625,-36.1328125,-1.0,0.0,0.0,0.0,9.m4v,6.0
2024-02-27 16:11:58.013382,1709046718.0133822,-60.546875,-32.71484375,-38.0859375,-34.66796875,-1.0,0.0,0.0,0.0,9.m4v,6.0
2024-02-27 16:11:58.017288,1709046718.0172875,-33.203125,-29.296875,-36.62109375,-35.15625,-1.0,0.0,0.0,0.0,9.m4v,6.0
2024-02-27 16:11:58.021193,1709046718.0211933,-2.44140625,-32.71484375,-35.64453125,-31.25,-1.0,0.0,0.0,0.0,9.m4v,6.0
2024-02-27 16:11:58.025099,1709046718.0250988,1.46484375,-31.25,-28.3203125,-27.83203125,-1.0,0.0,0.0,0.0,9.m4v,6.0
2024-02-27 16:11:58.029005,1709046718.0290046,-26.85546875,-29.296875,-34.1796875,-40.52734375,-1.0,0.0,0.0,0.0,9.m4v,6.0
2024-02-27 16:11:58.032915,1709046718.0329146,-57.12890625,-33.69140625,-36.62109375,-42.48046875,-1.0,0.0,0.0,0.0,9.m4v,6.0
2024-02-27 16:11:58.036820,1709046718.0368202,-44.43359375,-38.57421875,-30.2734375,-30.76171875,-1.0,0.0,0.0,0.0,9.m4v,6.0
2024-02-27 16:11:58.040726,1709046718.0407257,-27.34375,-42.48046875,-30.2734375,-29.296875,-1.0,0.0,0.0,0.0,9.m4v,6.0
2024-02-27 16:11:58.044631,1709046718.0446315,-16.6015625,-37.109375,-34.66796875,-30.76171875,-1.0,0.0,0.0,0.0,9.m4v,6.0
2024-02-27 16:11:58.048537,1709046718.048537,-27.34375,-32.2265625,-39.0625,-34.66796875,-1.0,0.0,0.0,0.0,9.m4v,6.0
2024-02-27 16:11:58.052443,1709046718.0524426,-57.12890625,-31.25,-36.62109375,-31.25,-1.0,0.0,0.0,0.0,9.m4v,6.0
2024-02-27 16:11:58.501624,1709046718.501624,4.39453125,-28.80859375,-32.71484375,-23.92578125,-1.0,0.0,0.0,0.0,9.m4v,6.0
2024-02-27 16:11:58.505530,1709046718.5055296,-3.90625,-24.90234375,-33.69140625,-29.78515625,-1.0,0.0,0.0,0.0,9.m4v,6.0
2024-02-27 16:11:58.509435,1709046718.5094354,-15.625,-15.625,-26.3671875,-33.69140625,-1.0,0.0,0.0,0.0,9.m4v,6.0
2024-02-27 16:11:58.513341,1709046718.513341,-28.80859375,-20.01953125,-24.4140625,-30.2734375,-1.0,0.0,0.0,0.0,9.m4v,6.0
2024-02-27 16:11:58.517246,1709046718.5172465,-20.01953125,-29.78515625,-28.3203125,-23.92578125,-1.0,0.0,0.0,0.0,9.m4v,6.0
2024-02-27 16:11:58.521152,1709046718.5211525,-1.46484375,-34.1796875,-36.1328125,-29.78515625,-1.0,0.0,0.0,0.0,9.m4v,6.0
2024-02-27 16:11:58.525058,1709046718.5250578,-5.859375,-32.2265625,-43.45703125,-41.9921875,-1.0,0.0,0.0,0.0,9.m4v,6.0
2024-02-27 16:11:58.528963,1709046718.528963,-31.25,-28.3203125,-45.8984375,-45.8984375,-1.0,0.0,0.0,0.0,9.m4v,6.0
2024-02-27 16:11:58.532869,1709046718.5328689,-44.43359375,-25.390625,-38.0859375,-34.66796875,-1.0,0.0,0.0,0.0,9.m4v,6.0
2024-02-27 16:11:58.536775,1709046718.5367746,-39.55078125,-21.97265625,-35.64453125,-28.80859375,-1.0,0.0,0.0,0.0,9.m4v,6.0
2024-02-27 16:11:58.540680,1709046718.5406802,-12.6953125,-30.2734375,-39.0625,-34.1796875,-1.0,0.0,0.0,0.0,9.m4v,6.0
2024-02-27 16:11:58.544586,1709046718.5445857,-0.48828125,-33.69140625,-36.1328125,-38.0859375,-1.0,0.0,0.0,0.0,9.m4v,6.0
2024-02-27 16:11:58.548495,1709046718.5484946,-20.99609375,-24.90234375,-35.15625,-41.50390625,-1.0,0.0,0.0,0.0,9.m4v,6.0
2024-02-27 16:11:58.552400,1709046718.5524,-58.10546875,-32.71484375,-46.875,-41.015625,-1.0,0.0,0.0,0.0,9.m4v,6.0
2024-02-27 16:11:58.556306,1709046718.556306,-56.15234375,-39.55078125,-44.43359375,-38.57421875,-1.0,0.0,0.0,0.0,9.m4v,6.0
2024-02-27 16:11:58.560211,1709046718.5602114,-37.109375,-32.71484375,-39.0625,-35.15625,-1.0,0.0,0.0,0.0,9.m4v,6.0
2024-02-27 16:11:58.564117,1709046718.564117,-32.71484375,-31.73828125,-39.55078125,-40.0390625,-1.0,0.0,0.0,0.0,9.m4v,6.0
2024-02-27 16:11:58.568023,1709046718.5680227,-25.390625,-33.203125,-35.15625,-41.50390625,-1.0,0.0,0.0,0.0,9.m4v,6.0
2024-02-27 16:11:58.571928,1709046718.5719285,-48.33984375,-39.0625,-40.52734375,-36.62109375,-1.0,0.0,0.0,0.0,9.m4v,6.0
2024-02-27 16:11:58.575834,1709046718.5758338,-45.8984375,-40.0390625,-39.55078125,-22.4609375,-1.0,0.0,0.0,0.0,9.m4v,6.0
2024-02-27 16:11:58.579739,1709046718.579739,-20.5078125,-41.015625,-38.0859375,-21.97265625,-1.0,0.0,0.0,0.0,9.m4v,6.0
2024-02-27 16:11:58.583645,1709046718.583645,-16.6015625,-40.0390625,-44.921875,-35.64453125,-1.0,0.0,0.0,0.0,9.m4v,6.0
2024-02-27 16:11:58.587551,1709046718.5875506,-20.5078125,-37.109375,-43.9453125,-33.69140625,-1.0,0.0,0.0,0.0,9.m4v,6.0
2024-02-27 16:11:58.591456,1709046718.5914562,-35.64453125,-35.15625,-33.203125,-30.76171875,-1.0,0.0,0.0,0.0,9.m4v,6.0
2024-02-27 16:11:58.595365,1709046718.5953648,-49.31640625,-33.69140625,-26.3671875,-33.69140625,-1.0,0.0,0.0,0.0,9.m4v,6.0
2024-02-27 16:11:58.599271,1709046718.5992706,-37.59765625,-34.66796875,-35.15625,-33.69140625,-1.0,0.0,0.0,0.0,9.m4v,6.0
2024-02-27 16:11:58.603176,1709046718.603176,-20.5078125,-37.109375,-44.921875,-36.62109375,-1.0,0.0,0.0,0.0,9.m4v,6.0
2024-02-27 16:11:58.607082,1709046718.6070817,-22.94921875,-35.15625,-39.0625,-38.0859375,-1.0,0.0,0.0,0.0,9.m4v,6.0
2024-02-27 16:11:58.610987,1709046718.6109874,-41.9921875,-30.2734375,-30.2734375,-33.69140625,-1.0,0.0,0.0,0.0,9.m4v,6.0
2024-02-27 16:11:58.614893,1709046718.614893,-41.015625,-24.90234375,-25.87890625,-27.83203125,-1.0,0.0,0.0,0.0,9.m4v,6.0
2024-02-27 16:11:58.618798,1709046718.6187985,-8.7890625,-23.4375,-27.34375,-15.13671875,-1.0,0.0,0.0,0.0,9.m4v,6.0
2024-02-27 16:11:58.622704,1709046718.622704,-0.9765625,-28.3203125,-33.69140625,-17.578125,-1.0,0.0,0.0,0.0,9.m4v,6.0
2024-02-27 16:11:58.626610,1709046718.6266098,-13.18359375,-31.73828125,-30.2734375,-29.296875,-1.0,0.0,0.0,0.0,9.m4v,6.0
2024-02-27 16:11:58.630515,1709046718.630515,-30.2734375,-32.71484375,-28.80859375,-26.85546875,-1.0,0.0,0.0,0.0,9.m4v,6.0
2024-02-27 16:11:58.634421,1709046718.6344209,-41.50390625,-35.15625,-32.71484375,-25.87890625,-1.0,0.0,0.0,0.0,9.m4v,6.0
2024-02-27 16:11:58.638327,1709046718.6383266,-33.203125,-31.25,-31.73828125,-31.25,-1.0,0.0,0.0,0.0,9.m4v,6.0
2024-02-27 16:11:58.642235,1709046718.6422353,-29.78515625,-30.76171875,-35.64453125,-38.57421875,-1.0,0.0,0.0,0.0,9.m4v,6.0
2024-02-27 16:11:58.646141,1709046718.6461408,-35.64453125,-36.1328125,-37.109375,-42.48046875,-1.0,0.0,0.0,0.0,9.m4v,6.0
2024-02-27 16:11:58.650046,1709046718.6500463,-57.6171875,-34.1796875,-32.71484375,-41.9921875,-1.0,0.0,0.0,0.0,9.m4v,6.0
2024-02-27 16:11:58.689105,1709046718.689105,-26.85546875,-31.73828125,-31.73828125,-38.57421875,-1.0,0.0,0.0,0.0,9.m4v,6.0
2024-02-27 16:11:58.693011,1709046718.6930106,-51.26953125,-35.15625,-32.71484375,-40.0390625,-1.0,0.0,0.0,0.0,9.m4v,6.0
2024-02-27 16:11:58.696916,1709046718.696916,-43.9453125,-34.66796875,-30.2734375,-35.15625,-1.0,0.0,0.0,0.0,9.m4v,6.0
2024-02-27 16:11:58.700822,1709046718.7008216,-33.69140625,-31.73828125,-30.2734375,-34.66796875,-1.0,0.0,0.0,0.0,9.m4v,6.0
2024-02-27 16:11:58.704727,1709046718.7047274,-25.390625,-27.83203125,-31.25,-39.55078125,-1.0,0.0,0.0,0.0,9.m4v,6.0
2024-02-27 16:11:58.708633,1709046718.708633,-24.90234375,-28.80859375,-29.78515625,-38.57421875,-1.0,0.0,0.0,0.0,9.m4v,6.0
2024-02-27 16:11:58.712538,1709046718.7125385,-64.453125,-40.52734375,-35.64453125,-47.8515625,-1.0,0.0,0.0,0.0,9.m4v,6.0
2024-02-27 16:11:58.716444,1709046718.7164445,-68.359375,-39.0625,-41.9921875,-43.9453125,-1.0,0.0,0.0,0.0,9.m4v,6.0
2024-02-27 16:11:58.720350,1709046718.7203498,-30.2734375,-33.203125,-39.55078125,-33.69140625,-1.0,0.0,0.0,0.0,9.m4v,6.0
2024-02-27 16:11:58.724255,1709046718.724255,-21.97265625,-42.48046875,-36.1328125,-42.48046875,-1.0,0.0,0.0,0.0,9.m4v,6.0
2024-02-27 16:11:58.728161,1709046718.7281609,-36.62109375,-41.9921875,-30.76171875,-50.78125,-1.0,0.0,0.0,0.0,9.m4v,6.0
2024-02-27 16:11:58.732067,1709046718.7320666,-58.59375,-34.66796875,-26.85546875,-45.41015625,-1.0,0.0,0.0,0.0,9.m4v,6.0
2024-02-27 16:11:58.735977,1709046718.7359767,-47.36328125,-31.25,-24.4140625,-32.71484375,-1.0,0.0,0.0,0.0,9.m4v,6.0
2024-02-27 16:11:58.739882,1709046718.7398822,-14.16015625,-32.71484375,-29.296875,-34.66796875,-1.0,0.0,0.0,0.0,9.m4v,6.0
2024-02-27 16:11:58.743788,1709046718.7437878,-20.01953125,-38.0859375,-37.59765625,-49.31640625,-1.0,0.0,0.0,0.0,9.m4v,6.0
2024-02-27 16:11:58.747693,1709046718.7476933,-35.64453125,-36.62109375,-40.52734375,-52.734375,-1.0,0.0,0.0,0.0,9.m4v,6.0
2024-02-27 16:11:58.751599,1709046718.751599,-46.875,-37.59765625,-42.96875,-49.8046875,-1.0,0.0,0.0,0.0,9.m4v,6.0
2024-02-27 16:11:58.755505,1709046718.7555046,-30.2734375,-29.78515625,-31.73828125,-39.0625,-1.0,0.0,0.0,0.0,9.m4v,6.0
2024-02-27 16:11:58.759410,1709046718.75941,8.30078125,-27.34375,-25.87890625,-29.296875,-1.0,0.0,0.0,0.0,9.m4v,6.0
2024-02-27 16:11:58.763316,1709046718.763316,-1.46484375,-33.203125,-32.71484375,-35.15625,-1.0,0.0,0.0,0.0,9.m4v,6.0
2024-02-27 16:11:58.767221,1709046718.7672217,-23.4375,-32.2265625,-33.203125,-41.50390625,-1.0,0.0,0.0,0.0,9.m4v,6.0
2024-02-27 16:11:58.771127,1709046718.771127,-46.38671875,-35.64453125,-32.71484375,-47.36328125,-1.0,0.0,0.0,0.0,9.m4v,6.0
2024-02-27 16:11:58.775033,1709046718.7750323,-69.3359375,-32.2265625,-32.2265625,-45.41015625,-1.0,0.0,0.0,0.0,9.m4v,6.0
2024-02-27 16:11:58.778938,1709046718.7789383,-48.33984375,-35.15625,-29.78515625,-34.66796875,-1.0,0.0,0.0,0.0,9.m4v,6.0
2024-02-27 16:11:58.782848,1709046718.782848,-26.3671875,-35.64453125,-32.71484375,-40.52734375,-1.0,0.0,0.0,0.0,9.m4v,6.0
2024-02-27 16:11:58.786754,1709046718.7867537,-35.15625,-26.3671875,-36.1328125,-46.875,-1.0,0.0,0.0,0.0,9.m4v,6.0
2024-02-27 16:11:58.790659,1709046718.7906592,-65.91796875,-31.73828125,-30.76171875,-46.38671875,-1.0,0.0,0.0,0.0,9.m4v,6.0
2024-02-27 16:11:58.794565,1709046718.7945647,-85.44921875,-36.62109375,-32.2265625,-40.52734375,-1.0,0.0,0.0,0.0,9.m4v,6.0
2024-02-27 16:11:58.798470,1709046718.7984705,-65.4296875,-33.69140625,-38.57421875,-33.203125,-1.0,0.0,0.0,0.0,9.m4v,6.0
2024-02-27 16:11:58.802376,1709046718.802376,-26.85546875,-33.69140625,-33.203125,-37.109375,-1.0,0.0,0.0,0.0,9.m4v,6.0
2024-02-27 16:11:58.806282,1709046718.8062816,-33.203125,-39.0625,-36.1328125,-49.31640625,-1.0,0.0,0.0,0.0,9.m4v,6.0
2024-02-27 16:11:58.810187,1709046718.810187,-71.77734375,-41.50390625,-50.29296875,-58.10546875,-1.0,0.0,0.0,0.0,9.m4v,6.0
2024-02-27 16:11:58.814093,1709046718.8140929,-71.2890625,-35.64453125,-46.38671875,-48.828125,-1.0,0.0,0.0,0.0,9.m4v,6.0
2024-02-27 16:11:58.817998,1709046718.8179984,-48.828125,-39.0625,-44.43359375,-43.45703125,-1.0,0.0,0.0,0.0,9.m4v,6.0
2024-02-27 16:11:58.821904,1709046718.8219042,-23.92578125,-34.1796875,-43.9453125,-45.41015625,-1.0,0.0,0.0,0.0,9.m4v,6.0
2024-02-27 16:11:58.825810,1709046718.8258097,-11.23046875,-28.80859375,-38.57421875,-39.55078125,-1.0,0.0,0.0,0.0,9.m4v,6.0
2024-02-27 16:11:58.829719,1709046718.8297193,-31.25,-35.64453125,-34.1796875,-40.52734375,-1.0,0.0,0.0,0.0,9.m4v,6.0
2024-02-27 16:11:58.833625,1709046718.8336248,-54.19921875,-32.71484375,-32.2265625,-42.96875,-1.0,0.0,0.0,0.0,9.m4v,6.0
2024-02-27 16:11:58.837531,1709046718.8375306,-54.19921875,-35.15625,-39.55078125,-40.0390625,-1.0,0.0,0.0,0.0,9.m4v,6.0
2024-02-27 16:11:58.841436,1709046718.841436,-20.99609375,-33.69140625,-36.1328125,-36.62109375,-1.0,0.0,0.0,0.0,9.m4v,6.0
2024-02-27 16:11:58.845342,1709046718.8453417,-9.765625,-32.2265625,-34.1796875,-40.52734375,-1.0,0.0,0.0,0.0,9.m4v,6.0
2024-02-27 16:11:58.849247,1709046718.8492477,-36.1328125,-37.59765625,-42.48046875,-42.96875,-1.0,0.0,0.0,0.0,9.m4v,6.0
2024-02-27 16:11:58.853153,1709046718.853153,-60.05859375,-33.69140625,-40.0390625,-39.0625,-1.0,0.0,0.0,0.0,9.m4v,6.0
2024-02-27 16:11:58.857059,1709046718.8570583,-53.22265625,-32.2265625,-37.59765625,-33.69140625,-1.0,0.0,0.0,0.0,9.m4v,6.0
2024-02-27 16:11:58.860964,1709046718.860964,-27.83203125,-32.2265625,-39.55078125,-27.83203125,-1.0,0.0,0.0,0.0,9.m4v,6.0
2024-02-27 16:11:58.864870,1709046718.8648698,-22.94921875,-25.87890625,-31.73828125,-30.76171875,-1.0,0.0,0.0,0.0,9.m4v,6.0
2024-02-27 16:11:58.868775,1709046718.8687754,-41.015625,-28.3203125,-30.2734375,-38.0859375,-1.0,0.0,0.0,0.0,9.m4v,6.0
2024-02-27 16:11:58.872681,1709046718.872681,-72.265625,-30.2734375,-41.015625,-38.0859375,-1.0,0.0,0.0,0.0,9.m4v,6.0
2024-02-27 16:11:58.876590,1709046718.8765905,-75.68359375,-33.69140625,-44.921875,-32.2265625,-1.0,0.0,0.0,0.0,9.m4v,6.0
2024-02-27 16:11:58.880496,1709046718.880496,-45.41015625,-35.64453125,-34.66796875,-26.3671875,-1.0,0.0,0.0,0.0,9.m4v,6.0
2024-02-27 16:11:58.884402,1709046718.8844016,-39.0625,-34.1796875,-23.4375,-30.2734375,-1.0,0.0,0.0,0.0,9.m4v,6.0
2024-02-27 16:11:58.888307,1709046718.888307,-53.7109375,-44.921875,-31.25,-41.50390625,-1.0,0.0,0.0,0.0,9.m4v,6.0
2024-02-27 16:11:58.892213,1709046718.8922129,-65.91796875,-44.43359375,-43.9453125,-38.57421875,-1.0,0.0,0.0,0.0,9.m4v,6.0
2024-02-27 16:11:58.896118,1709046718.8961184,-51.7578125,-40.52734375,-35.15625,-29.78515625,-1.0,0.0,0.0,0.0,9.m4v,6.0
2024-02-27 16:11:58.900024,1709046718.900024,-15.625,-39.0625,-29.296875,-24.90234375,-1.0,0.0,0.0,0.0,9.m4v,6.0
2024-02-27 16:11:58.903930,1709046718.9039297,-11.23046875,-37.59765625,-33.69140625,-25.87890625,-1.0,0.0,0.0,0.0,9.m4v,6.0
2024-02-27 16:11:58.907835,1709046718.9078352,-25.87890625,-29.78515625,-27.83203125,-23.92578125,-1.0,0.0,0.0,0.0,9.m4v,6.0
2024-02-27 16:11:58.911741,1709046718.9117408,-50.78125,-24.4140625,-22.4609375,-25.87890625,-1.0,0.0,0.0,0.0,9.m4v,6.0
2024-02-27 16:11:58.915647,1709046718.9156466,-59.5703125,-33.203125,-30.2734375,-26.3671875,-1.0,0.0,0.0,0.0,9.m4v,6.0
2024-02-27 16:11:58.919552,1709046718.919552,-31.25,-37.109375,-33.69140625,-25.87890625,-1.0,0.0,0.0,0.0,9.m4v,6.0
2024-02-27 16:11:58.923461,1709046718.9234612,-15.13671875,-33.69140625,-32.71484375,-27.83203125,-1.0,0.0,0.0,0.0,9.m4v,6.0
2024-02-27 16:11:58.927367,1709046718.9273667,-24.4140625,-31.73828125,-32.2265625,-30.76171875,-1.0,0.0,0.0,0.0,9.m4v,6.0
2024-02-27 16:11:58.931272,1709046718.9312725,-48.828125,-34.66796875,-30.2734375,-33.203125,-1.0,0.0,0.0,0.0,9.m4v,6.0
2024-02-27 16:11:58.935178,1709046718.9351778,-64.453125,-39.55078125,-36.62109375,-34.1796875,-1.0,0.0,0.0,0.0,9.m4v,6.0
2024-02-27 16:11:58.939084,1709046718.9390836,-56.15234375,-39.55078125,-42.96875,-34.66796875,-1.0,0.0,0.0,0.0,9.m4v,6.0
2024-02-27 16:11:58.942989,1709046718.942989,-22.94921875,-37.109375,-39.0625,-38.0859375,-1.0,0.0,0.0,0.0,9.m4v,6.0
2024-02-27 16:11:58.946895,1709046718.9468946,-16.11328125,-39.0625,-32.71484375,-42.48046875,-1.0,0.0,0.0,0.0,9.m4v,6.0
2024-02-27 16:11:58.950800,1709046718.9508004,-64.94140625,-46.38671875,-34.66796875,-46.38671875,-1.0,0.0,0.0,0.0,9.m4v,6.0
2024-02-27 16:11:58.954706,1709046718.954706,-79.1015625,-47.36328125,-32.2265625,-44.921875,-1.0,0.0,0.0,0.0,9.m4v,6.0
2024-02-27 16:11:58.958611,1709046718.9586115,-42.96875,-36.1328125,-24.90234375,-34.66796875,-1.0,0.0,0.0,0.0,9.m4v,6.0
2024-02-27 16:11:58.962517,1709046718.962517,-18.5546875,-29.296875,-25.87890625,-28.3203125,-1.0,0.0,0.0,0.0,9.m4v,6.0
2024-02-27 16:11:58.966423,1709046718.9664228,-11.71875,-21.97265625,-20.99609375,-29.78515625,-1.0,0.0,0.0,0.0,9.m4v,6.0
2024-02-27 16:11:58.970332,1709046718.9703317,-38.57421875,-22.94921875,-19.04296875,-35.15625,-1.0,0.0,0.0,0.0,9.m4v,6.0
2024-02-27 16:11:58.974237,1709046718.9742372,-62.01171875,-22.94921875,-31.25,-30.2734375,-1.0,0.0,0.0,0.0,9.m4v,6.0
2024-02-27 16:11:58.978143,1709046718.9781427,-37.59765625,-21.484375,-38.57421875,-24.4140625,-1.0,0.0,0.0,0.0,9.m4v,6.0
2024-02-27 16:11:58.982049,1709046718.9820485,-13.671875,-29.78515625,-33.203125,-30.2734375,-1.0,0.0,0.0,0.0,9.m4v,6.0
2024-02-27 16:11:58.985954,1709046718.985954,-25.87890625,-30.2734375,-25.87890625,-36.1328125,-1.0,0.0,0.0,0.0,9.m4v,6.0
2024-02-27 16:11:58.989860,1709046718.9898596,-52.24609375,-31.73828125,-26.3671875,-39.55078125,-1.0,0.0,0.0,0.0,9.m4v,6.0
2024-02-27 16:11:58.993765,1709046718.9937654,-53.22265625,-37.59765625,-35.64453125,-37.109375,-1.0,0.0,0.0,0.0,9.m4v,6.0
2024-02-27 16:11:58.997671,1709046718.997671,-34.66796875,-40.52734375,-39.0625,-34.1796875,-1.0,0.0,0.0,0.0,9.m4v,6.0
2024-02-27 16:11:59.001576,1709046719.0015764,-17.578125,-41.50390625,-41.015625,-36.1328125,-1.0,0.0,0.0,0.0,9.m4v,6.0
2024-02-27 16:11:59.005482,1709046719.005482,-19.04296875,-37.59765625,-45.41015625,-44.921875,-1.0,0.0,0.0,0.0,9.m4v,6.0
2024-02-27 16:11:59.009388,1709046719.0093875,-40.52734375,-30.2734375,-40.52734375,-49.8046875,-1.0,0.0,0.0,0.0,9.m4v,6.0
2024-02-27 16:11:59.013293,1709046719.0132933,-59.5703125,-32.71484375,-33.203125,-42.96875,-1.0,0.0,0.0,0.0,9.m4v,6.0
2024-02-27 16:11:59.017204,1709046719.017204,-55.17578125,-41.9921875,-34.1796875,-39.0625,-1.0,0.0,0.0,0.0,9.m4v,6.0
2024-02-27 16:11:59.021110,1709046719.0211096,-28.3203125,-38.0859375,-38.0859375,-44.43359375,-1.0,0.0,0.0,0.0,9.m4v,6.0
2024-02-27 16:11:59.025015,1709046719.025015,-20.99609375,-37.109375,-31.73828125,-50.29296875,-1.0,0.0,0.0,0.0,9.m4v,6.0
2024-02-27 16:11:59.036732,1709046719.036732,-49.8046875,-26.85546875,-28.80859375,-33.69140625,-1.0,0.0,0.0,0.0,9.m4v,6.0
2024-02-27 16:11:59.048449,1709046719.0484488,-29.78515625,-32.2265625,-36.62109375,-42.48046875,-1.0,0.0,0.0,0.0,9.m4v,6.0
2024-02-27 16:11:59.060166,1709046719.0601656,-9.27734375,-33.69140625,-36.1328125,-35.15625,-1.0,0.0,0.0,0.0,9.m4v,6.0
2024-02-27 16:11:59.071885,1709046719.071885,-54.19921875,-27.83203125,-33.69140625,-57.6171875,-1.0,0.0,0.0,0.0,9.m4v,6.0
2024-02-27 16:11:59.083602,1709046719.083602,-5.859375,-21.484375,-23.92578125,-37.109375,-1.0,0.0,0.0,0.0,9.m4v,6.0
2024-02-27 16:11:59.532785,1709046719.532785,-26.3671875,-49.31640625,-36.62109375,-20.01953125,-1.0,0.0,0.0,0.0,9.m4v,6.0
2024-02-27 16:11:59.540596,1709046719.540596,9.765625,-36.62109375,-33.203125,-10.7421875,-1.0,0.0,0.0,0.0,9.m4v,6.0
2024-02-27 16:11:59.548407,1709046719.5484073,-15.625,-33.69140625,-41.9921875,-30.76171875,-1.0,0.0,0.0,0.0,9.m4v,6.0
2024-02-27 16:11:59.552313,1709046719.5523129,-31.73828125,-35.64453125,-44.43359375,-32.71484375,-1.0,0.0,0.0,0.0,9.m4v,6.0
2024-02-27 16:11:59.560124,1709046719.5601242,-6.8359375,-41.50390625,-43.45703125,-22.94921875,-1.0,0.0,0.0,0.0,9.m4v,6.0
2024-02-27 16:11:59.567935,1709046719.5679352,-14.6484375,-43.9453125,-36.62109375,-32.2265625,-1.0,0.0,0.0,0.0,9.m4v,6.0
2024-02-27 16:11:59.575747,1709046719.5757463,-46.875,-34.66796875,-36.1328125,-25.87890625,-1.0,0.0,0.0,0.0,9.m4v,6.0
2024-02-27 16:11:59.579656,1709046719.5796564,-20.01953125,-39.55078125,-41.50390625,-23.92578125,-1.0,0.0,0.0,0.0,9.m4v,6.0
2024-02-27 16:11:59.583562,1709046719.583562,4.39453125,-37.59765625,-38.0859375,-28.3203125,-1.0,0.0,0.0,0.0,9.m4v,6.0
2024-02-27 16:11:59.614807,1709046719.614807,-62.5,-46.875,-45.41015625,-37.59765625,-1.0,0.0,0.0,0.0,9.m4v,6.0
2024-02-27 16:11:59.618712,1709046719.6187124,-27.34375,-33.69140625,-46.38671875,-27.34375,-1.0,0.0,0.0,0.0,9.m4v,6.0
2024-02-27 16:11:59.622618,1709046719.622618,-10.25390625,-30.2734375,-45.41015625,-34.1796875,-1.0,0.0,0.0,0.0,9.m4v,6.0
2024-02-27 16:11:59.626527,1709046719.6265273,-13.18359375,-32.2265625,-35.64453125,-38.57421875,-1.0,0.0,0.0,0.0,9.m4v,6.0
2024-02-27 16:11:59.630433,1709046719.6304328,-29.78515625,-29.296875,-28.80859375,-31.73828125,-1.0,0.0,0.0,0.0,9.m4v,6.0
2024-02-27 16:11:59.634338,1709046719.6343384,-43.9453125,-28.3203125,-33.203125,-32.2265625,-1.0,0.0,0.0,0.0,9.m4v,6.0
2024-02-27 16:11:59.638244,1709046719.638244,-32.2265625,-25.390625,-32.2265625,-27.83203125,-1.0,0.0,0.0,0.0,9.m4v,6.0
2024-02-27 16:11:59.642150,1709046719.6421497,-23.4375,-32.2265625,-30.76171875,-31.73828125,-1.0,0.0,0.0,0.0,9.m4v,6.0
2024-02-27 16:11:59.646055,1709046719.6460552,-20.5078125,-37.59765625,-36.62109375,-42.48046875,-1.0,0.0,0.0,0.0,9.m4v,6.0
2024-02-27 16:11:59.649961,1709046719.6499608,-30.76171875,-31.73828125,-31.73828125,-37.59765625,-1.0,0.0,0.0,0.0,9.m4v,6.0
2024-02-27 16:11:59.653867,1709046719.6538663,-50.29296875,-34.66796875,-31.25,-34.66796875,-1.0,0.0,0.0,0.0,9.m4v,6.0
2024-02-27 16:11:59.657772,1709046719.657772,-32.71484375,-36.62109375,-33.203125,-31.73828125,-1.0,0.0,0.0,0.0,9.m4v,6.0
2024-02-27 16:11:59.661678,1709046719.6616776,-8.7890625,-33.203125,-29.296875,-32.71484375,-1.0,0.0,0.0,0.0,9.m4v,6.0
2024-02-27 16:11:59.665583,1709046719.6655831,-15.625,-37.109375,-32.2265625,-41.50390625,-1.0,0.0,0.0,0.0,9.m4v,6.0
2024-02-27 16:11:59.669489,1709046719.669489,-35.64453125,-32.71484375,-29.78515625,-36.62109375,-1.0,0.0,0.0,0.0,9.m4v,6.0
2024-02-27 16:11:59.673398,1709046719.6733978,-59.5703125,-29.296875,-27.83203125,-32.2265625,-1.0,0.0,0.0,0.0,9.m4v,6.0
2024-02-27 16:11:59.677303,1709046719.6773033,-41.015625,-33.69140625,-25.87890625,-28.80859375,-1.0,0.0,0.0,0.0,9.m4v,6.0
2024-02-27 16:11:59.681209,1709046719.6812088,-7.8125,-32.2265625,-18.06640625,-27.34375,-1.0,0.0,0.0,0.0,9.m4v,6.0
2024-02-27 16:11:59.685115,1709046719.6851146,-7.8125,-33.69140625,-24.4140625,-35.15625,-1.0,0.0,0.0,0.0,9.m4v,6.0
2024-02-27 16:11:59.689020,1709046719.6890202,-26.85546875,-37.109375,-34.1796875,-30.2734375,-1.0,0.0,0.0,0.0,9.m4v,6.0
2024-02-27 16:11:59.692926,1709046719.6929257,-53.22265625,-35.15625,-33.69140625,-27.34375,-1.0,0.0,0.0,0.0,9.m4v,6.0
2024-02-27 16:11:59.696831,1709046719.6968317,-35.64453125,-33.69140625,-29.296875,-24.4140625,-1.0,0.0,0.0,0.0,9.m4v,6.0
2024-02-27 16:11:59.700737,1709046719.700737,-12.20703125,-35.64453125,-28.3203125,-25.87890625,-1.0,0.0,0.0,0.0,9.m4v,6.0
2024-02-27 16:11:59.704643,1709046719.7046423,-12.20703125,-33.203125,-30.76171875,-36.62109375,-1.0,0.0,0.0,0.0,9.m4v,6.0
2024-02-27 16:11:59.708548,1709046719.7085483,-21.97265625,-22.4609375,-24.90234375,-36.62109375,-1.0,0.0,0.0,0.0,9.m4v,6.0
2024-02-27 16:11:59.712454,1709046719.7124538,-46.875,-25.87890625,-22.94921875,-33.69140625,-1.0,0.0,0.0,0.0,9.m4v,6.0
2024-02-27 16:11:59.716359,1709046719.7163594,-48.33984375,-44.43359375,-31.25,-34.66796875,-1.0,0.0,0.0,0.0,9.m4v,6.0
2024-02-27 16:11:59.720268,1709046719.7202682,-22.4609375,-47.36328125,-35.64453125,-34.66796875,-1.0,0.0,0.0,0.0,9.m4v,6.0
2024-02-27 16:11:59.724174,1709046719.724174,-12.6953125,-34.66796875,-25.87890625,-37.59765625,-1.0,0.0,0.0,0.0,9.m4v,6.0
2024-02-27 16:11:59.728080,1709046719.7280796,-25.87890625,-35.15625,-31.25,-39.55078125,-1.0,0.0,0.0,0.0,9.m4v,6.0
2024-02-27 16:11:59.731985,1709046719.731985,-59.5703125,-38.57421875,-49.31640625,-41.015625,-1.0,0.0,0.0,0.0,9.m4v,6.0
2024-02-27 16:11:59.735891,1709046719.7358906,-60.546875,-28.80859375,-39.0625,-40.52734375,-1.0,0.0,0.0,0.0,9.m4v,6.0
2024-02-27 16:11:59.739796,1709046719.7397964,-17.578125,-22.94921875,-31.25,-32.71484375,-1.0,0.0,0.0,0.0,9.m4v,6.0
2024-02-27 16:11:59.743702,1709046719.743702,-10.7421875,-29.296875,-38.57421875,-35.64453125,-1.0,0.0,0.0,0.0,9.m4v,6.0
2024-02-27 16:11:59.747607,1709046719.7476077,-37.109375,-32.2265625,-38.57421875,-40.52734375,-1.0,0.0,0.0,0.0,9.m4v,6.0
2024-02-27 16:11:59.751513,1709046719.7515132,-58.10546875,-36.1328125,-36.62109375,-39.55078125,-1.0,0.0,0.0,0.0,9.m4v,6.0
2024-02-27 16:11:59.755419,1709046719.7554188,-54.6875,-36.62109375,-31.73828125,-31.25,-1.0,0.0,0.0,0.0,9.m4v,6.0
2024-02-27 16:11:59.759324,1709046719.7593243,-22.94921875,-29.78515625,-27.83203125,-23.92578125,-1.0,0.0,0.0,0.0,9.m4v,6.0
2024-02-27 16:11:59.763230,1709046719.7632298,-7.32421875,-30.76171875,-23.92578125,-26.3671875,-1.0,0.0,0.0,0.0,9.m4v,6.0
2024-02-27 16:11:59.767138,1709046719.7671382,-18.06640625,-32.2265625,-22.4609375,-33.69140625,-1.0,0.0,0.0,0.0,9.m4v,6.0
2024-02-27 16:11:59.771044,1709046719.771044,-49.31640625,-33.69140625,-32.71484375,-39.55078125,-1.0,0.0,0.0,0.0,9.m4v,6.0
2024-02-27 16:11:59.774950,1709046719.7749496,-51.7578125,-29.296875,-34.66796875,-31.73828125,-1.0,0.0,0.0,0.0,9.m4v,6.0
2024-02-27 16:11:59.778855,1709046719.778855,-22.4609375,-20.5078125,-28.3203125,-23.4375,-1.0,0.0,0.0,0.0,9.m4v,6.0
2024-02-27 16:11:59.782761,1709046719.7827609,-19.04296875,-30.76171875,-30.76171875,-34.66796875,-1.0,0.0,0.0,0.0,9.m4v,6.0
2024-02-27 16:11:59.786666,1709046719.7866664,-9.27734375,-34.66796875,-26.3671875,-35.64453125,-1.0,0.0,0.0,0.0,9.m4v,6.0
2024-02-27 16:11:59.790572,1709046719.790572,-22.94921875,-29.78515625,-26.3671875,-34.1796875,-1.0,0.0,0.0,0.0,9.m4v,6.0
2024-02-27 16:11:59.794477,1709046719.7944777,-57.12890625,-35.64453125,-30.76171875,-32.71484375,-1.0,0.0,0.0,0.0,9.m4v,6.0
2024-02-27 16:11:59.798383,1709046719.7983832,-41.015625,-36.1328125,-30.2734375,-21.97265625,-1.0,0.0,0.0,0.0,9.m4v,6.0
2024-02-27 16:11:59.802289,1709046719.8022888,-7.32421875,-32.71484375,-25.390625,-24.4140625,-1.0,0.0,0.0,0.0,9.m4v,6.0
2024-02-27 16:11:59.806194,1709046719.8061943,-11.23046875,-39.0625,-28.3203125,-28.80859375,-1.0,0.0,0.0,0.0,9.m4v,6.0
2024-02-27 16:11:59.810100,1709046719.8101,-30.76171875,-30.2734375,-34.66796875,-26.85546875,-1.0,0.0,0.0,0.0,9.m4v,6.0
2024-02-27 16:11:59.814008,1709046719.814008,-50.29296875,-25.87890625,-31.25,-31.25,-1.0,0.0,0.0,0.0,9.m4v,6.0
2024-02-27 16:11:59.817914,1709046719.8179135,-36.62109375,-30.76171875,-36.62109375,-33.203125,-1.0,0.0,0.0,0.0,9.m4v,6.0
2024-02-27 16:11:59.821819,1709046719.8218193,-7.8125,-26.3671875,-37.59765625,-31.25,-1.0,0.0,0.0,0.0,9.m4v,6.0
2024-02-27 16:11:59.825725,1709046719.8257248,-6.8359375,-32.2265625,-25.87890625,-32.2265625,-1.0,0.0,0.0,0.0,9.m4v,6.0
2024-02-27 16:11:59.829630,1709046719.8296304,-24.90234375,-34.66796875,-24.90234375,-36.1328125,-1.0,0.0,0.0,0.0,9.m4v,6.0
2024-02-27 16:11:59.833536,1709046719.833536,-39.0625,-27.83203125,-27.34375,-36.1328125,-1.0,0.0,0.0,0.0,9.m4v,6.0
2024-02-27 16:11:59.837442,1709046719.8374417,-12.20703125,-24.90234375,-28.3203125,-23.4375,-1.0,0.0,0.0,0.0,9.m4v,6.0
2024-02-27 16:11:59.841347,1709046719.8413472,6.34765625,-28.3203125,-27.34375,-27.34375,-1.0,0.0,0.0,0.0,9.m4v,6.0
2024-02-27 16:11:59.845253,1709046719.845253,-13.671875,-33.69140625,-26.3671875,-39.55078125,-1.0,0.0,0.0,0.0,9.m4v,6.0
2024-02-27 16:11:59.849159,1709046719.8491583,-36.1328125,-36.62109375,-36.1328125,-45.41015625,-1.0,0.0,0.0,0.0,9.m4v,6.0
2024-02-27 16:11:59.853064,1709046719.853064,-56.15234375,-38.0859375,-39.55078125,-50.29296875,-1.0,0.0,0.0,0.0,9.m4v,6.0
2024-02-27 16:11:59.856970,1709046719.8569696,-39.55078125,-36.62109375,-40.0390625,-41.50390625,-1.0,0.0,0.0,0.0,9.m4v,6.0
2024-02-27 16:11:59.860880,1709046719.86088,-15.13671875,-33.69140625,-41.50390625,-35.15625,-1.0,0.0,0.0,0.0,9.m4v,6.0
2024-02-27 16:11:59.864785,1709046719.8647854,-17.08984375,-35.64453125,-35.64453125,-41.50390625,-1.0,0.0,0.0,0.0,9.m4v,6.0
2024-02-27 16:11:59.868691,1709046719.8686912,-26.3671875,-33.203125,-26.3671875,-42.48046875,-1.0,0.0,0.0,0.0,9.m4v,6.0
2024-02-27 16:11:59.872597,1709046719.8725967,-57.12890625,-32.2265625,-25.390625,-43.45703125,-1.0,0.0,0.0,0.0,9.m4v,6.0
2024-02-27 16:11:59.876502,1709046719.8765025,-63.4765625,-42.48046875,-39.55078125,-44.921875,-1.0,0.0,0.0,0.0,9.m4v,6.0
2024-02-27 16:11:59.880408,1709046719.880408,-28.80859375,-41.9921875,-37.109375,-41.9921875,-1.0,0.0,0.0,0.0,9.m4v,6.0
2024-02-27 16:11:59.884314,1709046719.8843136,-13.671875,-32.2265625,-28.80859375,-47.36328125,-1.0,0.0,0.0,0.0,9.m4v,6.0
2024-02-27 16:11:59.888219,1709046719.888219,-33.69140625,-36.62109375,-33.203125,-53.22265625,-1.0,0.0,0.0,0.0,9.m4v,6.0
2024-02-27 16:11:59.892125,1709046719.892125,-75.1953125,-42.96875,-34.66796875,-51.26953125,-1.0,0.0,0.0,0.0,9.m4v,6.0
2024-02-27 16:11:59.896030,1709046719.8960304,-65.91796875,-38.57421875,-30.2734375,-39.0625,-1.0,0.0,0.0,0.0,9.m4v,6.0
2024-02-27 16:11:59.899936,1709046719.899936,-24.4140625,-37.109375,-35.15625,-31.73828125,-1.0,0.0,0.0,0.0,9.m4v,6.0
2024-02-27 16:11:59.903841,1709046719.9038415,-11.23046875,-32.2265625,-34.1796875,-33.203125,-1.0,0.0,0.0,0.0,9.m4v,6.0
2024-02-27 16:11:59.907752,1709046719.9077516,-22.4609375,-26.3671875,-23.92578125,-31.25,-1.0,0.0,0.0,0.0,9.m4v,6.0
2024-02-27 16:11:59.911657,1709046719.911657,-50.78125,-27.34375,-28.80859375,-32.71484375,-1.0,0.0,0.0,0.0,9.m4v,6.0
2024-02-27 16:11:59.915563,1709046719.9155626,-48.33984375,-30.2734375,-36.1328125,-27.34375,-1.0,0.0,0.0,0.0,9.m4v,6.0
2024-02-27 16:11:59.919468,1709046719.9194684,-21.97265625,-32.2265625,-24.4140625,-20.01953125,-1.0,0.0,0.0,0.0,9.m4v,6.0
2024-02-27 16:11:59.923374,1709046719.923374,-6.8359375,-32.71484375,-23.4375,-25.87890625,-1.0,0.0,0.0,0.0,9.m4v,6.0
2024-02-27 16:11:59.927279,1709046719.9272797,-9.27734375,-37.109375,-33.203125,-28.80859375,-1.0,0.0,0.0,0.0,9.m4v,6.0
2024-02-27 16:11:59.931185,1709046719.9311852,-34.66796875,-34.66796875,-29.296875,-23.92578125,-1.0,0.0,0.0,0.0,9.m4v,6.0
2024-02-27 16:11:59.935091,1709046719.9350908,-53.7109375,-29.78515625,-24.4140625,-19.04296875,-1.0,0.0,0.0,0.0,9.m4v,6.0
2024-02-27 16:11:59.938996,1709046719.9389963,-40.52734375,-27.83203125,-28.80859375,-15.13671875,-1.0,0.0,0.0,0.0,9.m4v,6.0
2024-02-27 16:11:59.942902,1709046719.9429018,-20.99609375,-29.78515625,-33.203125,-22.4609375,-1.0,0.0,0.0,0.0,9.m4v,6.0
2024-02-27 16:11:59.946808,1709046719.9468076,-21.97265625,-38.57421875,-31.73828125,-28.3203125,-1.0,0.0,0.0,0.0,9.m4v,6.0
2024-02-27 16:11:59.950713,1709046719.9507132,-49.8046875,-44.921875,-40.52734375,-30.2734375,-1.0,0.0,0.0,0.0,9.m4v,6.0
2024-02-27 16:11:59.954623,1709046719.9546232,-59.08203125,-38.57421875,-39.0625,-24.90234375,-1.0,0.0,0.0,0.0,9.m4v,6.0
2024-02-27 16:11:59.958529,1709046719.9585288,-34.66796875,-33.203125,-31.25,-20.99609375,-1.0,0.0,0.0,0.0,9.m4v,6.0
2024-02-27 16:11:59.962434,1709046719.9624343,-25.390625,-39.0625,-32.2265625,-31.73828125,-1.0,0.0,0.0,0.0,9.m4v,6.0
2024-02-27 16:11:59.966340,1709046719.9663398,-24.90234375,-32.71484375,-30.76171875,-36.62109375,-1.0,0.0,0.0,0.0,9.m4v,6.0
2024-02-27 16:11:59.970246,1709046719.9702456,-49.8046875,-28.3203125,-29.296875,-36.1328125,-1.0,0.0,0.0,0.0,9.m4v,6.0
2024-02-27 16:11:59.974151,1709046719.9741511,-73.73046875,-34.1796875,-31.25,-38.57421875,-1.0,0.0,0.0,0.0,9.m4v,6.0
2024-02-27 16:11:59.978057,1709046719.978057,-54.6875,-34.66796875,-28.3203125,-33.69140625,-1.0,0.0,0.0,0.0,9.m4v,6.0
2024-02-27 16:11:59.981962,1709046719.9819624,-33.69140625,-35.15625,-25.390625,-35.64453125,-1.0,0.0,0.0,0.0,9.m4v,6.0
2024-02-27 16:11:59.985868,1709046719.985868,-41.9921875,-38.0859375,-30.2734375,-46.875,-1.0,0.0,0.0,0.0,9.m4v,6.0
2024-02-27 16:11:59.989774,1709046719.9897735,-55.17578125,-41.50390625,-29.78515625,-45.8984375,-1.0,0.0,0.0,0.0,9.m4v,6.0
2024-02-27 16:11:59.993679,1709046719.993679,-63.96484375,-36.62109375,-21.484375,-38.0859375,-1.0,0.0,0.0,0.0,9.m4v,6.0
2024-02-27 16:11:59.997585,1709046719.9975848,-50.29296875,-33.203125,-23.4375,-29.296875,-1.0,0.0,0.0,0.0,9.m4v,6.0
2024-02-27 16:12:00.001494,1709046720.001494,-28.3203125,-40.52734375,-29.78515625,-37.109375,-1.0,0.0,0.0,0.0,9.m4v,6.0
2024-02-27 16:12:00.005399,1709046720.0053997,-34.1796875,-37.59765625,-29.78515625,-44.43359375,-1.0,0.0,0.0,0.0,9.m4v,6.0
2024-02-27 16:12:00.009305,1709046720.0093052,-47.36328125,-40.0390625,-36.62109375,-42.96875,-1.0,0.0,0.0,0.0,9.m4v,6.0
2024-02-27 16:12:00.013211,1709046720.0132108,-68.359375,-41.015625,-39.0625,-42.96875,-1.0,0.0,0.0,0.0,9.m4v,6.0
2024-02-27 16:12:00.017116,1709046720.0171163,-54.19921875,-38.0859375,-36.1328125,-34.1796875,-1.0,0.0,0.0,0.0,9.m4v,6.0
2024-02-27 16:12:00.021022,1709046720.021022,-13.671875,-44.921875,-37.59765625,-29.78515625,-1.0,0.0,0.0,0.0,9.m4v,6.0
2024-02-27 16:12:00.024928,1709046720.0249276,-15.625,-39.55078125,-36.62109375,-38.57421875,-1.0,0.0,0.0,0.0,9.m4v,6.0
2024-02-27 16:12:00.028833,1709046720.0288332,-36.62109375,-36.62109375,-37.109375,-48.33984375,-1.0,0.0,0.0,0.0,9.m4v,6.0
2024-02-27 16:12:00.032739,1709046720.0327387,-60.546875,-33.203125,-36.1328125,-43.9453125,-1.0,0.0,0.0,0.0,9.m4v,6.0
2024-02-27 16:12:00.036644,1709046720.0366445,-48.828125,-22.4609375,-25.390625,-30.76171875,-1.0,0.0,0.0,0.0,9.m4v,6.0
2024-02-27 16:12:00.040550,1709046720.04055,-18.06640625,-26.85546875,-29.296875,-35.15625,-1.0,0.0,0.0,0.0,9.m4v,6.0
2024-02-27 16:12:00.044456,1709046720.0444555,-13.18359375,-34.1796875,-40.0390625,-44.43359375,-1.0,0.0,0.0,0.0,9.m4v,6.0
2024-02-27 16:12:00.048364,1709046720.0483644,-18.06640625,-40.0390625,-33.203125,-44.43359375,-1.0,0.0,0.0,0.0,9.m4v,6.0
2024-02-27 16:12:00.052270,1709046720.05227,-43.45703125,-39.0625,-33.203125,-39.55078125,-1.0,0.0,0.0,0.0,9.m4v,6.0
2024-02-27 16:12:00.056176,1709046720.0561757,-38.57421875,-31.25,-32.2265625,-28.3203125,-1.0,0.0,0.0,0.0,9.m4v,6.0
2024-02-27 16:12:00.060081,1709046720.0600812,-13.671875,-31.73828125,-33.69140625,-31.73828125,-1.0,0.0,0.0,0.0,9.m4v,6.0
2024-02-27 16:12:00.063987,1709046720.0639868,-10.25390625,-34.1796875,-38.0859375,-35.64453125,-1.0,0.0,0.0,0.0,9.m4v,6.0
2024-02-27 16:12:00.067893,1709046720.0678926,-17.578125,-27.83203125,-30.2734375,-30.2734375,-1.0,0.0,0.0,0.0,9.m4v,6.0
2024-02-27 16:12:00.071798,1709046720.071798,-38.57421875,-25.87890625,-30.2734375,-30.76171875,-1.0,0.0,0.0,0.0,9.m4v,6.0
2024-02-27 16:12:00.075704,1709046720.0757036,-44.921875,-32.71484375,-34.1796875,-34.1796875,-1.0,0.0,0.0,0.0,9.m4v,6.0
2024-02-27 16:12:00.079609,1709046720.0796094,-20.01953125,-31.73828125,-32.2265625,-30.76171875,-1.0,0.0,0.0,0.0,9.m4v,6.0
2024-02-27 16:12:00.083515,1709046720.083515,-7.8125,-31.25,-28.3203125,-37.59765625,-1.0,0.0,0.0,0.0,9.m4v,6.0
2024-02-27 16:12:00.130385,1709046720.1303854,-47.36328125,-36.1328125,-36.62109375,-43.9453125,-1.0,0.0,0.0,0.0,9.m4v,6.0
2024-02-27 16:12:00.134291,1709046720.134291,-59.08203125,-36.1328125,-33.203125,-39.0625,-1.0,0.0,0.0,0.0,9.m4v,6.0
2024-02-27 16:12:00.138196,1709046720.1381965,-44.921875,-36.1328125,-32.71484375,-37.109375,-1.0,0.0,0.0,0.0,9.m4v,6.0
2024-02-27 16:12:00.142105,1709046720.142105,-30.76171875,-32.2265625,-31.25,-36.62109375,-1.0,0.0,0.0,0.0,9.m4v,6.0
2024-02-27 16:12:00.146011,1709046720.1460109,-33.69140625,-34.1796875,-31.73828125,-42.96875,-1.0,0.0,0.0,0.0,9.m4v,6.0
2024-02-27 16:12:00.149916,1709046720.1499164,-54.19921875,-38.57421875,-42.96875,-48.828125,-1.0,0.0,0.0,0.0,9.m4v,6.0
2024-02-27 16:12:00.153822,1709046720.153822,-68.84765625,-33.69140625,-42.48046875,-44.43359375,-1.0,0.0,0.0,0.0,9.m4v,6.0
2024-02-27 16:12:00.157727,1709046720.1577277,-53.22265625,-34.66796875,-36.1328125,-38.57421875,-1.0,0.0,0.0,0.0,9.m4v,6.0
2024-02-27 16:12:00.161633,1709046720.1616333,-15.13671875,-35.64453125,-34.1796875,-35.15625,-1.0,0.0,0.0,0.0,9.m4v,6.0
2024-02-27 16:12:00.165539,1709046720.1655388,-15.13671875,-37.59765625,-35.15625,-42.96875,-1.0,0.0,0.0,0.0,9.m4v,6.0
2024-02-27 16:12:00.169444,1709046720.1694443,-46.38671875,-39.0625,-39.55078125,-46.38671875,-1.0,0.0,0.0,0.0,9.m4v,6.0
2024-02-27 16:12:00.173350,1709046720.17335,-61.5234375,-33.203125,-35.64453125,-38.0859375,-1.0,0.0,0.0,0.0,9.m4v,6.0
2024-02-27 16:12:00.177256,1709046720.1772556,-36.1328125,-31.73828125,-34.66796875,-35.64453125,-1.0,0.0,0.0,0.0,9.m4v,6.0
2024-02-27 16:12:00.181161,1709046720.1811612,-1.953125,-30.76171875,-32.2265625,-31.73828125,-1.0,0.0,0.0,0.0,9.m4v,6.0
2024-02-27 16:12:00.185067,1709046720.1850667,-11.23046875,-35.64453125,-31.25,-41.9921875,-1.0,0.0,0.0,0.0,9.m4v,6.0
2024-02-27 16:12:00.188975,1709046720.188975,-26.85546875,-41.50390625,-41.015625,-43.45703125,-1.0,0.0,0.0,0.0,9.m4v,6.0
2024-02-27 16:12:00.192881,1709046720.1928806,-37.109375,-33.69140625,-41.015625,-33.203125,-1.0,0.0,0.0,0.0,9.m4v,6.0
2024-02-27 16:12:00.196786,1709046720.1967864,-29.78515625,-20.5078125,-30.2734375,-28.3203125,-1.0,0.0,0.0,0.0,9.m4v,6.0
2024-02-27 16:12:00.200692,1709046720.200692,-7.32421875,-27.83203125,-32.71484375,-28.3203125,-1.0,0.0,0.0,0.0,9.m4v,6.0
2024-02-27 16:12:00.204597,1709046720.2045977,0.0,-33.69140625,-35.15625,-34.66796875,-1.0,0.0,0.0,0.0,9.m4v,6.0
2024-02-27 16:12:00.208503,1709046720.208503,-6.34765625,-26.3671875,-29.296875,-34.66796875,-1.0,0.0,0.0,0.0,9.m4v,6.0
2024-02-27 16:12:00.212409,1709046720.2124088,-35.15625,-21.97265625,-30.2734375,-32.2265625,-1.0,0.0,0.0,0.0,9.m4v,6.0
2024-02-27 16:12:00.216314,1709046720.2163143,-41.9921875,-31.25,-35.64453125,-29.296875,-1.0,0.0,0.0,0.0,9.m4v,6.0
2024-02-27 16:12:00.220220,1709046720.22022,-17.08984375,-39.55078125,-41.50390625,-29.296875,-1.0,0.0,0.0,0.0,9.m4v,6.0
2024-02-27 16:12:00.224126,1709046720.2241256,-5.37109375,-29.78515625,-38.57421875,-33.203125,-1.0,0.0,0.0,0.0,9.m4v,6.0
2024-02-27 16:12:00.228031,1709046720.2280312,-14.6484375,-29.296875,-31.25,-32.71484375,-1.0,0.0,0.0,0.0,9.m4v,6.0
2024-02-27 16:12:00.231937,1709046720.2319367,-44.43359375,-34.66796875,-33.69140625,-34.66796875,-1.0,0.0,0.0,0.0,9.m4v,6.0
2024-02-27 16:12:00.235847,1709046720.235847,-43.45703125,-29.296875,-40.0390625,-30.76171875,-1.0,0.0,0.0,0.0,9.m4v,6.0
2024-02-27 16:12:00.239753,1709046720.2397523,-8.30078125,-28.80859375,-32.2265625,-20.5078125,-1.0,0.0,0.0,0.0,9.m4v,6.0
2024-02-27 16:12:00.243658,1709046720.2436583,0.48828125,-31.25,-23.4375,-23.4375,-1.0,0.0,0.0,0.0,9.m4v,6.0
2024-02-27 16:12:00.247564,1709046720.2475638,-8.30078125,-26.85546875,-22.4609375,-23.4375,-1.0,0.0,0.0,0.0,9.m4v,6.0
2024-02-27 16:12:00.251469,1709046720.2514694,-40.52734375,-36.1328125,-29.296875,-27.34375,-1.0,0.0,0.0,0.0,9.m4v,6.0
2024-02-27 16:12:00.255375,1709046720.255375,-45.8984375,-44.43359375,-33.203125,-26.85546875,-1.0,0.0,0.0,0.0,9.m4v,6.0
2024-02-27 16:12:00.259281,1709046720.2592807,-12.20703125,-34.1796875,-32.2265625,-19.04296875,-1.0,0.0,0.0,0.0,9.m4v,6.0
2024-02-27 16:12:00.263186,1709046720.2631862,-8.7890625,-33.203125,-37.59765625,-33.69140625,-1.0,0.0,0.0,0.0,9.m4v,6.0
2024-02-27 16:12:00.267092,1709046720.2670918,-20.99609375,-42.48046875,-31.73828125,-42.96875,-1.0,0.0,0.0,0.0,9.m4v,6.0
2024-02-27 16:12:00.270998,1709046720.2709975,-51.26953125,-41.015625,-30.76171875,-41.9921875,-1.0,0.0,0.0,0.0,9.m4v,6.0
2024-02-27 16:12:00.274903,1709046720.274903,-73.2421875,-36.62109375,-41.50390625,-41.50390625,-1.0,0.0,0.0,0.0,9.m4v,6.0
2024-02-27 16:12:00.278809,1709046720.2788086,-46.38671875,-32.71484375,-37.59765625,-31.25,-1.0,0.0,0.0,0.0,9.m4v,6.0
2024-02-27 16:12:00.282718,1709046720.2827184,-34.1796875,-32.71484375,-38.0859375,-36.1328125,-1.0,0.0,0.0,0.0,9.m4v,6.0
2024-02-27 16:12:00.286624,1709046720.2866242,-36.1328125,-37.109375,-39.0625,-50.78125,-1.0,0.0,0.0,0.0,9.m4v,6.0
2024-02-27 16:12:00.290530,1709046720.2905295,-56.640625,-39.55078125,-36.62109375,-52.734375,-1.0,0.0,0.0,0.0,9.m4v,6.0
2024-02-27 16:12:00.294435,1709046720.2944353,-64.94140625,-36.1328125,-33.203125,-41.9921875,-1.0,0.0,0.0,0.0,9.m4v,6.0
2024-02-27 16:12:00.298341,1709046720.298341,-36.1328125,-35.15625,-33.203125,-30.76171875,-1.0,0.0,0.0,0.0,9.m4v,6.0
2024-02-27 16:12:00.302247,1709046720.3022466,-16.11328125,-36.1328125,-32.71484375,-30.2734375,-1.0,0.0,0.0,0.0,9.m4v,6.0
2024-02-27 16:12:00.306152,1709046720.306152,-23.4375,-36.1328125,-24.4140625,-36.62109375,-1.0,0.0,0.0,0.0,9.m4v,6.0
2024-02-27 16:12:00.310058,1709046720.310058,-61.5234375,-36.62109375,-25.87890625,-41.9921875,-1.0,0.0,0.0,0.0,9.m4v,6.0
2024-02-27 16:12:00.313963,1709046720.3139634,-77.1484375,-36.62109375,-32.71484375,-37.109375,-1.0,0.0,0.0,0.0,9.m4v,6.0
2024-02-27 16:12:00.317869,1709046720.317869,-47.8515625,-35.64453125,-34.66796875,-27.83203125,-1.0,0.0,0.0,0.0,9.m4v,6.0
2024-02-27 16:12:00.321774,1709046720.3217745,-29.296875,-36.1328125,-38.0859375,-31.25,-1.0,0.0,0.0,0.0,9.m4v,6.0
2024-02-27 16:12:00.325680,1709046720.3256805,-32.71484375,-40.0390625,-40.52734375,-40.0390625,-1.0,0.0,0.0,0.0,9.m4v,6.0
2024-02-27 16:12:00.329590,1709046720.3295896,-43.9453125,-36.1328125,-39.55078125,-44.43359375,-1.0,0.0,0.0,0.0,9.m4v,6.0
2024-02-27 16:12:00.333495,1709046720.3334951,-72.265625,-28.3203125,-31.73828125,-40.52734375,-1.0,0.0,0.0,0.0,9.m4v,6.0
2024-02-27 16:12:00.337401,1709046720.337401,-62.01171875,-31.25,-24.90234375,-35.15625,-1.0,0.0,0.0,0.0,9.m4v,6.0
2024-02-27 16:12:00.341306,1709046720.3413064,-21.484375,-31.25,-23.92578125,-33.203125,-1.0,0.0,0.0,0.0,9.m4v,6.0
2024-02-27 16:12:00.345212,1709046720.345212,-18.06640625,-30.2734375,-27.83203125,-37.109375,-1.0,0.0,0.0,0.0,9.m4v,6.0
2024-02-27 16:12:00.349118,1709046720.3491178,-29.78515625,-32.71484375,-28.80859375,-36.1328125,-1.0,0.0,0.0,0.0,9.m4v,6.0
2024-02-27 16:12:00.353023,1709046720.3530233,-51.7578125,-37.59765625,-31.25,-35.15625,-1.0,0.0,0.0,0.0,9.m4v,6.0
2024-02-27 16:12:00.356929,1709046720.3569288,-59.08203125,-40.52734375,-39.55078125,-34.66796875,-1.0,0.0,0.0,0.0,9.m4v,6.0
2024-02-27 16:12:00.360834,1709046720.3608344,-32.71484375,-41.50390625,-37.109375,-32.2265625,-1.0,0.0,0.0,0.0,9.m4v,6.0
2024-02-27 16:12:00.364740,1709046720.36474,-21.97265625,-40.0390625,-32.71484375,-39.0625,-1.0,0.0,0.0,0.0,9.m4v,6.0
2024-02-27 16:12:00.368646,1709046720.3686457,-40.0390625,-29.78515625,-27.83203125,-41.015625,-1.0,0.0,0.0,0.0,9.m4v,6.0
2024-02-27 16:12:00.372551,1709046720.3725512,-60.05859375,-25.390625,-28.80859375,-36.62109375,-1.0,0.0,0.0,0.0,9.m4v,6.0
2024-02-27 16:12:00.376461,1709046720.376461,-46.875,-26.3671875,-32.2265625,-31.73828125,-1.0,0.0,0.0,0.0,9.m4v,6.0
2024-02-27 16:12:00.380367,1709046720.3803666,-35.64453125,-42.96875,-30.2734375,-33.69140625,-1.0,0.0,0.0,0.0,9.m4v,6.0
2024-02-27 16:12:00.384272,1709046720.384272,-38.57421875,-45.41015625,-26.85546875,-42.96875,-1.0,0.0,0.0,0.0,9.m4v,6.0
2024-02-27 16:12:00.388178,1709046720.3881776,-29.296875,-36.62109375,-23.4375,-47.8515625,-1.0,0.0,0.0,0.0,9.m4v,6.0
2024-02-27 16:12:00.392083,1709046720.3920834,-53.22265625,-41.50390625,-31.25,-50.78125,-1.0,0.0,0.0,0.0,9.m4v,6.0
2024-02-27 16:12:00.395989,1709046720.395989,-51.7578125,-35.64453125,-31.73828125,-41.015625,-1.0,0.0,0.0,0.0,9.m4v,6.0
2024-02-27 16:12:00.399894,1709046720.3998945,-15.13671875,-28.3203125,-33.69140625,-33.69140625,-1.0,0.0,0.0,0.0,9.m4v,6.0
2024-02-27 16:12:00.403800,1709046720.4038002,-20.99609375,-41.015625,-40.52734375,-43.9453125,-1.0,0.0,0.0,0.0,9.m4v,6.0
2024-02-27 16:12:00.407706,1709046720.4077058,-41.015625,-39.55078125,-39.0625,-45.41015625,-1.0,0.0,0.0,0.0,9.m4v,6.0
2024-02-27 16:12:00.411611,1709046720.4116113,-59.08203125,-30.2734375,-40.0390625,-42.48046875,-1.0,0.0,0.0,0.0,9.m4v,6.0
2024-02-27 16:12:00.415517,1709046720.4155169,-62.98828125,-37.109375,-35.15625,-43.45703125,-1.0,0.0,0.0,0.0,9.m4v,6.0
2024-02-27 16:12:00.419423,1709046720.4194226,-36.62109375,-41.015625,-33.69140625,-35.64453125,-1.0,0.0,0.0,0.0,9.m4v,6.0
2024-02-27 16:12:00.423332,1709046720.4233315,-17.08984375,-41.015625,-34.66796875,-36.62109375,-1.0,0.0,0.0,0.0,9.m4v,6.0
2024-02-27 16:12:00.427237,1709046720.4272373,-28.3203125,-34.66796875,-28.80859375,-46.875,-1.0,0.0,0.0,0.0,9.m4v,6.0
2024-02-27 16:12:00.431143,1709046720.431143,-61.03515625,-28.80859375,-24.90234375,-37.59765625,-1.0,0.0,0.0,0.0,9.m4v,6.0
2024-02-27 16:12:00.435049,1709046720.4350486,-62.98828125,-37.109375,-33.203125,-28.3203125,-1.0,0.0,0.0,0.0,9.m4v,6.0
2024-02-27 16:12:00.438954,1709046720.438954,-30.76171875,-40.52734375,-41.9921875,-30.76171875,-1.0,0.0,0.0,0.0,9.m4v,6.0
2024-02-27 16:12:00.442860,1709046720.44286,-9.27734375,-38.0859375,-37.59765625,-30.2734375,-1.0,0.0,0.0,0.0,9.m4v,6.0
2024-02-27 16:12:00.446765,1709046720.4467654,-10.7421875,-38.0859375,-36.62109375,-34.1796875,-1.0,0.0,0.0,0.0,9.m4v,6.0
2024-02-27 16:12:00.450671,1709046720.450671,-46.38671875,-44.43359375,-37.59765625,-42.48046875,-1.0,0.0,0.0,0.0,9.m4v,6.0
2024-02-27 16:12:00.454576,1709046720.4545765,-66.40625,-42.96875,-33.203125,-38.0859375,-1.0,0.0,0.0,0.0,9.m4v,6.0
2024-02-27 16:12:00.458482,1709046720.4584825,-38.0859375,-30.76171875,-34.66796875,-32.71484375,-1.0,0.0,0.0,0.0,9.m4v,6.0
2024-02-27 16:12:00.462388,1709046720.4623878,-10.7421875,-34.66796875,-34.66796875,-37.109375,-1.0,0.0,0.0,0.0,9.m4v,6.0
2024-02-27 16:12:00.466293,1709046720.466293,-14.6484375,-37.59765625,-33.203125,-44.921875,-1.0,0.0,0.0,0.0,9.m4v,6.0
2024-02-27 16:12:00.470202,1709046720.4702022,-40.0390625,-31.73828125,-34.1796875,-46.38671875,-1.0,0.0,0.0,0.0,9.m4v,6.0
2024-02-27 16:12:00.474108,1709046720.474108,-56.640625,-35.15625,-29.296875,-34.1796875,-1.0,0.0,0.0,0.0,9.m4v,6.0
2024-02-27 16:12:00.478014,1709046720.4780135,-42.96875,-37.59765625,-37.59765625,-28.3203125,-1.0,0.0,0.0,0.0,9.m4v,6.0
2024-02-27 16:12:00.481919,1709046720.481919,-28.3203125,-42.96875,-45.41015625,-35.15625,-1.0,0.0,0.0,0.0,9.m4v,6.0
2024-02-27 16:12:00.485825,1709046720.4858246,-24.90234375,-45.8984375,-41.50390625,-41.50390625,-1.0,0.0,0.0,0.0,9.m4v,6.0
2024-02-27 16:12:00.489730,1709046720.4897304,-38.0859375,-42.96875,-41.015625,-45.41015625,-1.0,0.0,0.0,0.0,9.m4v,6.0
2024-02-27 16:12:00.493636,1709046720.493636,-49.31640625,-41.015625,-40.0390625,-36.62109375,-1.0,0.0,0.0,0.0,9.m4v,6.0
2024-02-27 16:12:00.497541,1709046720.4975414,-25.390625,-36.1328125,-34.66796875,-24.90234375,-1.0,0.0,0.0,0.0,9.m4v,6.0
2024-02-27 16:12:00.501447,1709046720.5014472,-9.27734375,-37.109375,-31.25,-26.3671875,-1.0,0.0,0.0,0.0,9.m4v,6.0
2024-02-27 16:12:00.505353,1709046720.5053527,-11.71875,-38.0859375,-23.92578125,-25.390625,-1.0,0.0,0.0,0.0,9.m4v,6.0
2024-02-27 16:12:00.509258,1709046720.5092585,-30.2734375,-34.1796875,-28.80859375,-30.2734375,-1.0,0.0,0.0,0.0,9.m4v,6.0
2024-02-27 16:12:00.513164,1709046720.5131638,-54.6875,-28.80859375,-33.203125,-29.296875,-1.0,0.0,0.0,0.0,9.m4v,6.0
2024-02-27 16:12:00.517072,1709046720.5170724,-39.55078125,-36.62109375,-27.34375,-21.484375,-1.0,0.0,0.0,0.0,9.m4v,6.0
2024-02-27 16:12:00.520978,1709046720.520978,-16.6015625,-43.45703125,-32.2265625,-20.99609375,-1.0,0.0,0.0,0.0,9.m4v,6.0
2024-02-27 16:12:00.751428,1709046720.751428,-42.96875,-41.015625,-43.45703125,-27.34375,-1.0,0.0,0.0,0.0,9.m4v,6.0
2024-02-27 16:12:00.759239,1709046720.759239,-19.53125,-20.01953125,-30.2734375,-10.25390625,-1.0,0.0,0.0,0.0,9.m4v,6.0
2024-02-27 16:12:00.763144,1709046720.7631445,-0.9765625,-23.92578125,-30.2734375,-22.4609375,-1.0,0.0,0.0,0.0,9.m4v,6.0
2024-02-27 16:12:00.770956,1709046720.7709558,-20.01953125,-33.203125,-30.76171875,-27.34375,-1.0,0.0,0.0,0.0,9.m4v,6.0
2024-02-27 16:12:00.774861,1709046720.774861,-32.71484375,-34.1796875,-35.64453125,-21.97265625,-1.0,0.0,0.0,0.0,9.m4v,6.0
2024-02-27 16:12:00.782673,1709046720.7826726,-2.44140625,-34.1796875,-45.41015625,-24.90234375,-1.0,0.0,0.0,0.0,9.m4v,6.0
2024-02-27 16:12:00.786578,1709046720.7865782,-10.25390625,-31.73828125,-38.57421875,-40.52734375,-1.0,0.0,0.0,0.0,9.m4v,6.0
2024-02-27 16:12:00.794389,1709046720.7943895,-51.26953125,-34.1796875,-37.109375,-41.015625,-1.0,0.0,0.0,0.0,9.m4v,6.0
2024-02-27 16:12:00.798299,1709046720.7982986,-21.484375,-31.73828125,-34.66796875,-34.1796875,-1.0,0.0,0.0,0.0,9.m4v,6.0
2024-02-27 16:12:00.806110,1709046720.8061097,-26.85546875,-35.64453125,-37.59765625,-41.9921875,-1.0,0.0,0.0,0.0,9.m4v,6.0
2024-02-27 16:12:00.810015,1709046720.8100152,-49.8046875,-30.76171875,-41.50390625,-43.9453125,-1.0,0.0,0.0,0.0,9.m4v,6.0
2024-02-27 16:12:00.817827,1709046720.8178265,-32.71484375,-33.69140625,-39.55078125,-34.1796875,-1.0,0.0,0.0,0.0,9.m4v,6.0
2024-02-27 16:12:00.821732,1709046720.821732,-1.953125,-31.25,-46.38671875,-31.73828125,-1.0,0.0,0.0,0.0,9.m4v,6.0
2024-02-27 16:12:00.829543,1709046720.8295434,-42.48046875,-39.55078125,-34.1796875,-47.8515625,-1.0,0.0,0.0,0.0,9.m4v,6.0
2024-02-27 16:12:00.833449,1709046720.833449,-57.6171875,-33.69140625,-35.64453125,-40.0390625,-1.0,0.0,0.0,0.0,9.m4v,6.0
2024-02-27 16:12:00.841260,1709046720.8412602,-17.08984375,-33.203125,-35.64453125,-38.0859375,-1.0,0.0,0.0,0.0,9.m4v,6.0
2024-02-27 16:12:00.845169,1709046720.8451688,-13.18359375,-30.2734375,-40.0390625,-39.0625,-1.0,0.0,0.0,0.0,9.m4v,6.0
2024-02-27 16:12:00.852980,1709046720.85298,-62.01171875,-27.34375,-26.85546875,-39.0625,-1.0,0.0,0.0,0.0,9.m4v,6.0
2024-02-27 16:12:00.856886,1709046720.8568857,-48.828125,-24.90234375,-29.78515625,-31.25,-1.0,0.0,0.0,0.0,9.m4v,6.0
2024-02-27 16:12:00.864697,1709046720.864697,-12.20703125,-28.80859375,-32.2265625,-34.1796875,-1.0,0.0,0.0,0.0,9.m4v,6.0
2024-02-27 16:12:00.868603,1709046720.8686025,-30.76171875,-34.1796875,-31.73828125,-40.52734375,-1.0,0.0,0.0,0.0,9.m4v,6.0
2024-02-27 16:12:00.876414,1709046720.8764138,-62.5,-34.1796875,-32.71484375,-40.52734375,-1.0,0.0,0.0,0.0,9.m4v,6.0
2024-02-27 16:12:00.880319,1709046720.8803194,-30.2734375,-30.76171875,-33.203125,-41.50390625,-1.0,0.0,0.0,0.0,9.m4v,6.0
2024-02-27 16:12:00.888131,1709046720.888131,-29.78515625,-39.0625,-34.1796875,-51.26953125,-1.0,0.0,0.0,0.0,9.m4v,6.0
2024-02-27 16:12:00.892039,1709046720.892039,-54.19921875,-34.1796875,-30.2734375,-44.921875,-1.0,0.0,0.0,0.0,9.m4v,6.0
2024-02-27 16:12:00.899850,1709046720.8998504,-36.62109375,-37.109375,-32.71484375,-30.2734375,-1.0,0.0,0.0,0.0,9.m4v,6.0
2024-02-27 16:12:00.903756,1709046720.903756,-21.484375,-38.0859375,-38.57421875,-38.0859375,-1.0,0.0,0.0,0.0,9.m4v,6.0
2024-02-27 16:12:00.911567,1709046720.9115672,-29.296875,-30.76171875,-26.85546875,-31.73828125,-1.0,0.0,0.0,0.0,9.m4v,6.0
2024-02-27 16:12:00.915473,1709046720.9154727,-41.9921875,-37.59765625,-29.296875,-25.87890625,-1.0,0.0,0.0,0.0,9.m4v,6.0
2024-02-27 16:12:00.970154,1709046720.9701538,-36.1328125,-35.64453125,-31.73828125,-37.59765625,-1.0,0.0,0.0,0.0,9.m4v,6.0
2024-02-27 16:12:00.974060,1709046720.9740596,-56.15234375,-32.2265625,-28.80859375,-35.64453125,-1.0,0.0,0.0,0.0,9.m4v,6.0
2024-02-27 16:12:00.977965,1709046720.977965,-39.55078125,-33.203125,-36.62109375,-29.296875,-1.0,0.0,0.0,0.0,9.m4v,6.0
2024-02-27 16:12:00.981871,1709046720.981871,-17.578125,-36.1328125,-41.50390625,-30.76171875,-1.0,0.0,0.0,0.0,9.m4v,6.0
2024-02-27 16:12:00.985779,1709046720.985779,-21.484375,-41.015625,-37.59765625,-41.015625,-1.0,0.0,0.0,0.0,9.m4v,6.0
2024-02-27 16:12:00.989685,1709046720.9896848,-41.9921875,-36.62109375,-33.69140625,-42.96875,-1.0,0.0,0.0,0.0,9.m4v,6.0
2024-02-27 16:12:00.993590,1709046720.9935904,-63.4765625,-30.2734375,-34.66796875,-36.62109375,-1.0,0.0,0.0,0.0,9.m4v,6.0
2024-02-27 16:12:00.997496,1709046720.997496,-53.22265625,-34.1796875,-35.15625,-32.2265625,-1.0,0.0,0.0,0.0,9.m4v,6.0
2024-02-27 16:12:01.001401,1709046721.0014014,-24.90234375,-39.0625,-32.71484375,-29.78515625,-1.0,0.0,0.0,0.0,9.m4v,6.0
2024-02-27 16:12:01.005307,1709046721.0053072,-26.85546875,-43.9453125,-30.2734375,-32.71484375,-1.0,0.0,0.0,0.0,9.m4v,6.0
2024-02-27 16:12:01.009213,1709046721.0092127,-47.8515625,-46.875,-35.15625,-38.57421875,-1.0,0.0,0.0,0.0,9.m4v,6.0
2024-02-27 16:12:01.013118,1709046721.0131185,-65.91796875,-42.48046875,-36.1328125,-31.25,-1.0,0.0,0.0,0.0,9.m4v,6.0
2024-02-27 16:12:01.017024,1709046721.017024,-52.734375,-35.15625,-35.15625,-23.92578125,-1.0,0.0,0.0,0.0,9.m4v,6.0
2024-02-27 16:12:01.020930,1709046721.0209296,-22.4609375,-35.15625,-37.59765625,-27.34375,-1.0,0.0,0.0,0.0,9.m4v,6.0
2024-02-27 16:12:01.024835,1709046721.024835,-24.90234375,-37.59765625,-32.71484375,-38.57421875,-1.0,0.0,0.0,0.0,9.m4v,6.0
2024-02-27 16:12:01.028741,1709046721.0287406,-40.52734375,-29.78515625,-25.87890625,-36.62109375,-1.0,0.0,0.0,0.0,9.m4v,6.0
2024-02-27 16:12:01.032651,1709046721.032651,-68.359375,-29.296875,-27.83203125,-35.15625,-1.0,0.0,0.0,0.0,9.m4v,6.0
2024-02-27 16:12:01.036556,1709046721.0365565,-67.3828125,-36.62109375,-33.203125,-38.57421875,-1.0,0.0,0.0,0.0,9.m4v,6.0
2024-02-27 16:12:01.040462,1709046721.0404625,-32.2265625,-39.0625,-34.1796875,-36.62109375,-1.0,0.0,0.0,0.0,9.m4v,6.0
2024-02-27 16:12:01.044368,1709046721.0443678,-32.71484375,-39.55078125,-33.203125,-44.921875,-1.0,0.0,0.0,0.0,9.m4v,6.0
2024-02-27 16:12:01.048273,1709046721.048273,-41.015625,-38.57421875,-30.2734375,-44.921875,-1.0,0.0,0.0,0.0,9.m4v,6.0
2024-02-27 16:12:01.052179,1709046721.0521789,-59.5703125,-32.2265625,-26.85546875,-40.0390625,-1.0,0.0,0.0,0.0,9.m4v,6.0
2024-02-27 16:12:01.056085,1709046721.0560846,-64.94140625,-25.390625,-27.83203125,-35.64453125,-1.0,0.0,0.0,0.0,9.m4v,6.0
2024-02-27 16:12:01.059990,1709046721.0599902,-31.25,-29.78515625,-30.76171875,-35.15625,-1.0,0.0,0.0,0.0,9.m4v,6.0
2024-02-27 16:12:01.063896,1709046721.0638957,-18.06640625,-34.66796875,-33.69140625,-42.96875,-1.0,0.0,0.0,0.0,9.m4v,6.0
2024-02-27 16:12:01.067801,1709046721.0678017,-27.34375,-33.69140625,-32.2265625,-44.921875,-1.0,0.0,0.0,0.0,9.m4v,6.0
2024-02-27 16:12:01.071707,1709046721.071707,-55.6640625,-38.57421875,-26.3671875,-44.43359375,-1.0,0.0,0.0,0.0,9.m4v,6.0
2024-02-27 16:12:01.075613,1709046721.0756123,-69.82421875,-44.43359375,-29.78515625,-43.45703125,-1.0,0.0,0.0,0.0,9.m4v,6.0
2024-02-27 16:12:01.079522,1709046721.079522,-39.55078125,-47.36328125,-37.59765625,-34.1796875,-1.0,0.0,0.0,0.0,9.m4v,6.0
2024-02-27 16:12:01.083428,1709046721.0834277,-25.87890625,-40.0390625,-35.15625,-33.203125,-1.0,0.0,0.0,0.0,9.m4v,6.0
2024-02-27 16:12:01.087333,1709046721.0873332,-37.109375,-35.64453125,-29.296875,-42.48046875,-1.0,0.0,0.0,0.0,9.m4v,6.0
2024-02-27 16:12:01.091239,1709046721.091239,-42.48046875,-37.59765625,-31.73828125,-42.96875,-1.0,0.0,0.0,0.0,9.m4v,6.0
2024-02-27 16:12:01.095145,1709046721.0951445,-41.9921875,-26.85546875,-27.34375,-31.25,-1.0,0.0,0.0,0.0,9.m4v,6.0
2024-02-27 16:12:01.099050,1709046721.09905,-22.94921875,-27.83203125,-24.4140625,-24.4140625,-1.0,0.0,0.0,0.0,9.m4v,6.0
2024-02-27 16:12:02.102866,1709046722.102866,-4.39453125,-25.390625,-33.203125,-28.3203125,-1.0,0.0,0.0,0.0,9.m4v,6.0
2024-02-27 16:12:02.106772,1709046722.1067717,-18.06640625,-33.203125,-36.1328125,-38.57421875,-1.0,0.0,0.0,0.0,9.m4v,6.0
2024-02-27 16:12:02.110682,1709046722.110682,-44.921875,-31.25,-33.69140625,-36.1328125,-1.0,0.0,0.0,0.0,9.m4v,6.0
2024-02-27 16:12:02.114588,1709046722.1145875,-64.94140625,-26.3671875,-33.203125,-30.76171875,-1.0,0.0,0.0,0.0,9.m4v,6.0
2024-02-27 16:12:02.118493,1709046722.1184933,-42.96875,-31.73828125,-31.73828125,-24.4140625,-1.0,0.0,0.0,0.0,9.m4v,6.0
2024-02-27 16:12:02.122399,1709046722.1223989,-15.13671875,-40.52734375,-33.203125,-27.34375,-1.0,0.0,0.0,0.0,9.m4v,6.0
2024-02-27 16:12:02.126304,1709046722.1263044,-18.06640625,-35.64453125,-35.15625,-34.1796875,-1.0,0.0,0.0,0.0,9.m4v,6.0
2024-02-27 16:12:02.130210,1709046722.13021,-35.15625,-34.66796875,-36.62109375,-31.73828125,-1.0,0.0,0.0,0.0,9.m4v,6.0
2024-02-27 16:12:02.134116,1709046722.1341157,-59.5703125,-37.109375,-38.0859375,-22.4609375,-1.0,0.0,0.0,0.0,9.m4v,6.0
2024-02-27 16:12:02.138021,1709046722.1380212,-43.9453125,-27.34375,-37.59765625,-17.08984375,-1.0,0.0,0.0,0.0,9.m4v,6.0
2024-02-27 16:12:02.587202,1709046722.587202,-24.4140625,-35.64453125,-36.62109375,-41.015625,-1.0,0.0,0.0,0.0,9.m4v,6.0
2024-02-27 16:12:02.591108,1709046722.5911076,-52.734375,-36.62109375,-38.57421875,-42.96875,-1.0,0.0,0.0,0.0,9.m4v,6.0
2024-02-27 16:12:02.595013,1709046722.5950131,-66.40625,-37.109375,-41.015625,-41.50390625,-1.0,0.0,0.0,0.0,9.m4v,6.0
2024-02-27 16:12:02.598919,1709046722.598919,-23.92578125,-28.80859375,-37.109375,-32.2265625,-1.0,0.0,0.0,0.0,9.m4v,6.0
2024-02-27 16:12:02.602824,1709046722.6028244,12.20703125,-24.90234375,-32.71484375,-23.4375,-1.0,0.0,0.0,0.0,9.m4v,6.0
2024-02-27 16:12:02.606730,1709046722.60673,-11.71875,-31.25,-36.1328125,-38.57421875,-1.0,0.0,0.0,0.0,9.m4v,6.0
2024-02-27 16:12:02.610636,1709046722.6106358,-52.24609375,-31.73828125,-35.64453125,-44.921875,-1.0,0.0,0.0,0.0,9.m4v,6.0
2024-02-27 16:12:02.614541,1709046722.6145413,-57.6171875,-32.71484375,-27.83203125,-32.2265625,-1.0,0.0,0.0,0.0,9.m4v,6.0
2024-02-27 16:12:02.618447,1709046722.6184468,-23.92578125,-35.15625,-22.94921875,-29.296875,-1.0,0.0,0.0,0.0,9.m4v,6.0
2024-02-27 16:12:02.622353,1709046722.6223526,-1.953125,-31.73828125,-30.2734375,-34.1796875,-1.0,0.0,0.0,0.0,9.m4v,6.0
2024-02-27 16:12:02.626262,1709046722.626262,-11.71875,-30.76171875,-43.9453125,-40.0390625,-1.0,0.0,0.0,0.0,9.m4v,6.0
2024-02-27 16:12:02.630167,1709046722.6301675,-30.2734375,-31.73828125,-41.50390625,-40.0390625,-1.0,0.0,0.0,0.0,9.m4v,6.0
2024-02-27 16:12:02.634073,1709046722.634073,-44.43359375,-36.62109375,-32.71484375,-32.2265625,-1.0,0.0,0.0,0.0,9.m4v,6.0
2024-02-27 16:12:02.637979,1709046722.6379788,-36.1328125,-38.0859375,-35.15625,-31.73828125,-1.0,0.0,0.0,0.0,9.m4v,6.0
2024-02-27 16:12:02.641884,1709046722.6418843,-11.23046875,-31.73828125,-37.59765625,-35.15625,-1.0,0.0,0.0,0.0,9.m4v,6.0
2024-02-27 16:12:02.645790,1709046722.64579,-0.48828125,-30.2734375,-30.76171875,-36.1328125,-1.0,0.0,0.0,0.0,9.m4v,6.0
2024-02-27 16:12:02.649695,1709046722.6496954,-24.4140625,-28.80859375,-33.69140625,-35.15625,-1.0,0.0,0.0,0.0,9.m4v,6.0
2024-02-27 16:12:02.653601,1709046722.6536012,-62.5,-33.203125,-36.62109375,-39.0625,-1.0,0.0,0.0,0.0,9.m4v,6.0
2024-02-27 16:12:02.657507,1709046722.6575067,-43.9453125,-32.2265625,-27.34375,-36.62109375,-1.0,0.0,0.0,0.0,9.m4v,6.0
2024-02-27 16:12:02.661412,1709046722.6614122,-24.90234375,-26.85546875,-28.3203125,-28.3203125,-1.0,0.0,0.0,0.0,9.m4v,6.0
2024-02-27 16:12:02.665318,1709046722.665318,-31.25,-32.71484375,-35.64453125,-33.69140625,-1.0,0.0,0.0,0.0,9.m4v,6.0
2024-02-27 16:12:02.669224,1709046722.6692235,-27.34375,-39.0625,-37.59765625,-37.109375,-1.0,0.0,0.0,0.0,9.m4v,6.0
2024-02-27 16:12:02.673133,1709046722.673133,-60.546875,-41.015625,-36.62109375,-43.9453125,-1.0,0.0,0.0,0.0,9.m4v,6.0
2024-02-27 16:12:02.677038,1709046722.6770382,-67.3828125,-40.52734375,-34.66796875,-42.96875,-1.0,0.0,0.0,0.0,9.m4v,6.0
2024-02-27 16:12:02.680944,1709046722.680944,-21.97265625,-36.1328125,-30.76171875,-28.3203125,-1.0,0.0,0.0,0.0,9.m4v,6.0
2024-02-27 16:12:02.684850,1709046722.6848495,-8.30078125,-32.71484375,-28.80859375,-28.3203125,-1.0,0.0,0.0,0.0,9.m4v,6.0
2024-02-27 16:12:02.688755,1709046722.688755,-29.296875,-32.71484375,-29.296875,-36.1328125,-1.0,0.0,0.0,0.0,9.m4v,6.0
2024-02-27 16:12:02.692661,1709046722.6926608,-55.17578125,-33.69140625,-34.66796875,-34.66796875,-1.0,0.0,0.0,0.0,9.m4v,6.0
2024-02-27 16:12:02.696566,1709046722.6965663,-53.7109375,-39.55078125,-33.69140625,-32.2265625,-1.0,0.0,0.0,0.0,9.m4v,6.0
2024-02-27 16:12:02.700472,1709046722.700472,-35.64453125,-40.0390625,-31.73828125,-33.69140625,-1.0,0.0,0.0,0.0,9.m4v,6.0
2024-02-27 16:12:02.704377,1709046722.7043774,-26.3671875,-31.73828125,-27.83203125,-34.66796875,-1.0,0.0,0.0,0.0,9.m4v,6.0
2024-02-27 16:12:02.708283,1709046722.7082832,-34.66796875,-32.71484375,-33.203125,-40.52734375,-1.0,0.0,0.0,0.0,9.m4v,6.0
2024-02-27 16:12:02.712189,1709046722.7121887,-63.4765625,-36.62109375,-41.015625,-41.015625,-1.0,0.0,0.0,0.0,9.m4v,6.0
2024-02-27 16:12:02.716094,1709046722.7160945,-64.453125,-33.203125,-39.0625,-30.76171875,-1.0,0.0,0.0,0.0,9.m4v,6.0
2024-02-27 16:12:02.720004,1709046722.7200036,-33.203125,-30.2734375,-33.203125,-25.390625,-1.0,0.0,0.0,0.0,9.m4v,6.0
2024-02-27 16:12:02.723909,1709046722.7239091,-12.20703125,-29.78515625,-29.78515625,-29.296875,-1.0,0.0,0.0,0.0,9.m4v,6.0
2024-02-27 16:12:02.727815,1709046722.727815,-24.90234375,-27.34375,-33.69140625,-38.57421875,-1.0,0.0,0.0,0.0,9.m4v,6.0
2024-02-27 16:12:02.731720,1709046722.7317202,-43.9453125,-26.85546875,-33.69140625,-39.0625,-1.0,0.0,0.0,0.0,9.m4v,6.0
2024-02-27 16:12:02.735626,1709046722.735626,-50.29296875,-32.2265625,-35.15625,-32.2265625,-1.0,0.0,0.0,0.0,9.m4v,6.0
2024-02-27 16:12:02.739532,1709046722.7395315,-18.5546875,-30.2734375,-33.203125,-24.90234375,-1.0,0.0,0.0,0.0,9.m4v,6.0
2024-02-27 16:12:02.743437,1709046722.743437,9.27734375,-23.92578125,-29.296875,-26.3671875,-1.0,0.0,0.0,0.0,9.m4v,6.0
2024-02-27 16:12:02.747343,1709046722.7473428,-12.6953125,-36.1328125,-30.76171875,-38.0859375,-1.0,0.0,0.0,0.0,9.m4v,6.0
2024-02-27 16:12:02.751248,1709046722.7512484,-44.921875,-37.59765625,-31.25,-38.57421875,-1.0,0.0,0.0,0.0,9.m4v,6.0
2024-02-27 16:12:02.755154,1709046722.755154,-53.7109375,-27.34375,-31.73828125,-37.59765625,-1.0,0.0,0.0,0.0,9.m4v,6.0
2024-02-27 16:12:02.759059,1709046722.7590594,-33.203125,-30.76171875,-34.1796875,-36.62109375,-1.0,0.0,0.0,0.0,9.m4v,6.0
2024-02-27 16:12:02.762965,1709046722.7629652,-16.11328125,-22.94921875,-29.78515625,-25.87890625,-1.0,0.0,0.0,0.0,9.m4v,6.0
2024-02-27 16:12:02.766874,1709046722.7668736,-22.94921875,-21.97265625,-29.296875,-26.85546875,-1.0,0.0,0.0,0.0,9.m4v,6.0
2024-02-27 16:12:02.770779,1709046722.7707791,-41.50390625,-33.203125,-34.1796875,-33.69140625,-1.0,0.0,0.0,0.0,9.m4v,6.0
2024-02-27 16:12:02.774685,1709046722.774685,-47.8515625,-28.80859375,-35.15625,-28.3203125,-1.0,0.0,0.0,0.0,9.m4v,6.0
2024-02-27 16:12:02.778590,1709046722.7785904,-21.97265625,-29.78515625,-35.15625,-24.4140625,-1.0,0.0,0.0,0.0,9.m4v,6.0
2024-02-27 16:12:02.782496,1709046722.782496,-1.953125,-30.2734375,-28.80859375,-21.484375,-1.0,0.0,0.0,0.0,9.m4v,6.0
2024-02-27 16:12:02.786402,1709046722.7864015,-1.953125,-29.78515625,-26.85546875,-28.80859375,-1.0,0.0,0.0,0.0,9.m4v,6.0
2024-02-27 16:12:02.790307,1709046722.7903073,-30.76171875,-36.62109375,-34.66796875,-42.48046875,-1.0,0.0,0.0,0.0,9.m4v,6.0
2024-02-27 16:12:02.794213,1709046722.7942128,-50.78125,-29.78515625,-35.15625,-37.59765625,-1.0,0.0,0.0,0.0,9.m4v,6.0
2024-02-27 16:12:02.798118,1709046722.7981184,-23.92578125,-23.92578125,-30.76171875,-25.390625,-1.0,0.0,0.0,0.0,9.m4v,6.0
2024-02-27 16:12:02.802024,1709046722.802024,-1.953125,-30.76171875,-37.109375,-27.34375,-1.0,0.0,0.0,0.0,9.m4v,6.0
2024-02-27 16:12:02.805930,1709046722.8059297,-10.25390625,-32.71484375,-40.0390625,-37.109375,-1.0,0.0,0.0,0.0,9.m4v,6.0
2024-02-27 16:12:02.809835,1709046722.8098352,-45.41015625,-25.390625,-35.15625,-38.57421875,-1.0,0.0,0.0,0.0,9.m4v,6.0
2024-02-27 16:12:02.813744,1709046722.8137436,-69.82421875,-22.4609375,-29.296875,-35.15625,-1.0,0.0,0.0,0.0,9.m4v,6.0
2024-02-27 16:12:02.817649,1709046722.8176491,-39.55078125,-30.2734375,-27.34375,-30.76171875,-1.0,0.0,0.0,0.0,9.m4v,6.0
2024-02-27 16:12:02.821555,1709046722.821555,-12.20703125,-25.87890625,-32.2265625,-27.83203125,-1.0,0.0,0.0,0.0,9.m4v,6.0
2024-02-27 16:12:02.825460,1709046722.8254604,-13.671875,-25.390625,-37.59765625,-28.80859375,-1.0,0.0,0.0,0.0,9.m4v,6.0
2024-02-27 16:12:02.829366,1709046722.829366,-28.3203125,-36.1328125,-37.59765625,-34.1796875,-1.0,0.0,0.0,0.0,9.m4v,6.0
2024-02-27 16:12:02.833272,1709046722.8332715,-45.8984375,-39.0625,-29.296875,-33.203125,-1.0,0.0,0.0,0.0,9.m4v,6.0
2024-02-27 16:12:02.837177,1709046722.8371773,-40.52734375,-38.57421875,-33.69140625,-26.3671875,-1.0,0.0,0.0,0.0,9.m4v,6.0
2024-02-27 16:12:02.841083,1709046722.8410828,-22.94921875,-34.66796875,-37.59765625,-23.4375,-1.0,0.0,0.0,0.0,9.m4v,6.0
2024-02-27 16:12:02.844988,1709046722.8449883,-16.6015625,-32.2265625,-31.73828125,-26.85546875,-1.0,0.0,0.0,0.0,9.m4v,6.0
2024-02-27 16:12:02.848894,1709046722.848894,-34.1796875,-33.69140625,-30.2734375,-29.296875,-1.0,0.0,0.0,0.0,9.m4v,6.0
2024-02-27 16:12:02.852800,1709046722.8527997,-63.4765625,-26.3671875,-31.73828125,-24.90234375,-1.0,0.0,0.0,0.0,9.m4v,6.0
2024-02-27 16:12:02.856705,1709046722.8567052,-58.10546875,-25.390625,-30.2734375,-20.01953125,-1.0,0.0,0.0,0.0,9.m4v,6.0
2024-02-27 16:12:02.860615,1709046722.8606155,-24.90234375,-40.0390625,-27.34375,-14.16015625,-1.0,0.0,0.0,0.0,9.m4v,6.0
2024-02-27 16:12:02.864521,1709046722.864521,-17.08984375,-47.8515625,-31.73828125,-21.97265625,-1.0,0.0,0.0,0.0,9.m4v,6.0
2024-02-27 16:12:02.868427,1709046722.8684266,-34.66796875,-42.48046875,-32.71484375,-30.76171875,-1.0,0.0,0.0,0.0,9.m4v,6.0
2024-02-27 16:12:02.872332,1709046722.872332,-54.6875,-38.57421875,-28.3203125,-26.3671875,-1.0,0.0,0.0,0.0,9.m4v,6.0
2024-02-27 16:12:02.876238,1709046722.876238,-52.734375,-39.0625,-27.83203125,-23.4375,-1.0,0.0,0.0,0.0,9.m4v,6.0
2024-02-27 16:12:02.880143,1709046722.8801434,-19.04296875,-27.83203125,-27.83203125,-20.01953125,-1.0,0.0,0.0,0.0,9.m4v,6.0
2024-02-27 16:12:02.884049,1709046722.884049,-7.32421875,-33.69140625,-30.76171875,-20.01953125,-1.0,0.0,0.0,0.0,9.m4v,6.0
2024-02-27 16:12:02.887955,1709046722.8879547,-22.94921875,-42.48046875,-33.203125,-23.92578125,-1.0,0.0,0.0,0.0,9.m4v,6.0
2024-02-27 16:12:02.891860,1709046722.8918602,-54.19921875,-32.2265625,-30.2734375,-22.94921875,-1.0,0.0,0.0,0.0,9.m4v,6.0
2024-02-27 16:12:02.895766,1709046722.8957658,-60.546875,-30.76171875,-26.85546875,-21.484375,-1.0,0.0,0.0,0.0,9.m4v,6.0
2024-02-27 16:12:02.899672,1709046722.8996716,-23.4375,-38.0859375,-27.83203125,-19.53125,-1.0,0.0,0.0,0.0,9.m4v,6.0
2024-02-27 16:12:02.903577,1709046722.903577,-9.765625,-40.0390625,-27.83203125,-25.390625,-1.0,0.0,0.0,0.0,9.m4v,6.0
2024-02-27 16:12:02.907487,1709046722.9074872,-19.53125,-36.1328125,-28.3203125,-32.71484375,-1.0,0.0,0.0,0.0,9.m4v,6.0
2024-02-27 16:12:02.911393,1709046722.9113927,-42.48046875,-31.73828125,-32.71484375,-33.69140625,-1.0,0.0,0.0,0.0,9.m4v,6.0
2024-02-27 16:12:02.915298,1709046722.9152982,-52.24609375,-38.57421875,-38.0859375,-30.2734375,-1.0,0.0,0.0,0.0,9.m4v,6.0
2024-02-27 16:12:02.919204,1709046722.919204,-32.2265625,-46.38671875,-43.9453125,-32.71484375,-1.0,0.0,0.0,0.0,9.m4v,6.0
2024-02-27 16:12:02.923110,1709046722.9231095,-12.20703125,-42.96875,-44.43359375,-33.203125,-1.0,0.0,0.0,0.0,9.m4v,6.0
2024-02-27 16:12:02.927015,1709046722.927015,-12.20703125,-43.9453125,-40.0390625,-35.64453125,-1.0,0.0,0.0,0.0,9.m4v,6.0
2024-02-27 16:12:02.930921,1709046722.9309208,-29.296875,-41.9921875,-28.80859375,-40.0390625,-1.0,0.0,0.0,0.0,9.m4v,6.0
2024-02-27 16:12:02.934826,1709046722.9348264,-53.22265625,-34.66796875,-34.1796875,-36.1328125,-1.0,0.0,0.0,0.0,9.m4v,6.0
2024-02-27 16:12:02.938732,1709046722.938732,-51.26953125,-34.66796875,-40.52734375,-34.66796875,-1.0,0.0,0.0,0.0,9.m4v,6.0
2024-02-27 16:12:02.942638,1709046722.9426377,-30.76171875,-37.109375,-40.0390625,-41.015625,-1.0,0.0,0.0,0.0,9.m4v,6.0
2024-02-27 16:12:02.946543,1709046722.9465432,-15.13671875,-32.71484375,-41.015625,-43.45703125,-1.0,0.0,0.0,0.0,9.m4v,6.0
2024-02-27 16:12:02.950449,1709046722.9504488,-31.73828125,-33.203125,-44.43359375,-38.57421875,-1.0,0.0,0.0,0.0,9.m4v,6.0
2024-02-27 16:12:02.954358,1709046722.9543583,-54.6875,-35.64453125,-43.9453125,-33.69140625,-1.0,0.0,0.0,0.0,9.m4v,6.0
2024-02-27 16:12:02.958264,1709046722.958264,-26.85546875,-32.2265625,-38.0859375,-24.90234375,-1.0,0.0,0.0,0.0,9.m4v,6.0
2024-02-27 16:12:02.962170,1709046722.9621696,-11.23046875,-35.64453125,-40.52734375,-27.83203125,-1.0,0.0,0.0,0.0,9.m4v,6.0
2024-02-27 16:12:02.966075,1709046722.9660752,-9.27734375,-31.25,-33.203125,-30.76171875,-1.0,0.0,0.0,0.0,9.m4v,6.0
2024-02-27 16:12:02.969981,1709046722.9699807,-20.99609375,-30.2734375,-21.484375,-30.76171875,-1.0,0.0,0.0,0.0,9.m4v,6.0
2024-02-27 16:12:02.973886,1709046722.9738865,-56.15234375,-42.48046875,-28.3203125,-35.15625,-1.0,0.0,0.0,0.0,9.m4v,6.0
2024-02-27 16:12:02.977792,1709046722.977792,-58.59375,-48.33984375,-42.48046875,-36.1328125,-1.0,0.0,0.0,0.0,9.m4v,6.0
2024-02-27 16:12:02.981698,1709046722.9816976,-44.43359375,-53.7109375,-43.45703125,-34.1796875,-1.0,0.0,0.0,0.0,9.m4v,6.0
2024-02-27 16:12:02.985603,1709046722.985603,-44.921875,-48.33984375,-36.62109375,-41.015625,-1.0,0.0,0.0,0.0,9.m4v,6.0
2024-02-27 16:12:02.989509,1709046722.9895089,-47.36328125,-39.55078125,-32.2265625,-37.109375,-1.0,0.0,0.0,0.0,9.m4v,6.0
2024-02-27 16:12:02.993414,1709046722.9934144,-68.359375,-41.50390625,-32.71484375,-34.1796875,-1.0,0.0,0.0,0.0,9.m4v,6.0
2024-02-27 16:12:02.997320,1709046722.9973202,-54.6875,-42.48046875,-30.76171875,-31.73828125,-1.0,0.0,0.0,0.0,9.m4v,6.0
2024-02-27 16:12:03.001230,1709046723.0012295,-23.92578125,-44.43359375,-36.1328125,-27.83203125,-1.0,0.0,0.0,0.0,9.m4v,6.0
2024-02-27 16:12:03.005135,1709046723.005135,-22.94921875,-41.50390625,-40.0390625,-38.57421875,-1.0,0.0,0.0,0.0,9.m4v,6.0
2024-02-27 16:12:03.009041,1709046723.0090406,-34.1796875,-34.1796875,-34.1796875,-39.55078125,-1.0,0.0,0.0,0.0,9.m4v,6.0
2024-02-27 16:12:03.012946,1709046723.0129464,-62.01171875,-34.1796875,-29.78515625,-37.109375,-1.0,0.0,0.0,0.0,9.m4v,6.0
2024-02-27 16:12:03.016852,1709046723.016852,-56.640625,-39.0625,-31.25,-33.69140625,-1.0,0.0,0.0,0.0,9.m4v,6.0
2024-02-27 16:12:03.020757,1709046723.0207574,-21.484375,-43.45703125,-28.80859375,-27.34375,-1.0,0.0,0.0,0.0,9.m4v,6.0
2024-02-27 16:12:03.024663,1709046723.0246632,-8.30078125,-33.203125,-20.5078125,-34.66796875,-1.0,0.0,0.0,0.0,9.m4v,6.0
2024-02-27 16:12:03.028569,1709046723.0285687,-23.92578125,-29.296875,-21.484375,-44.921875,-1.0,0.0,0.0,0.0,9.m4v,6.0
2024-02-27 16:12:03.032474,1709046723.0324745,-51.7578125,-32.2265625,-26.85546875,-41.9921875,-1.0,0.0,0.0,0.0,9.m4v,6.0
2024-02-27 16:12:03.036380,1709046723.03638,-35.15625,-29.296875,-19.04296875,-35.15625,-1.0,0.0,0.0,0.0,9.m4v,6.0
2024-02-27 16:12:03.040286,1709046723.0402856,1.46484375,-34.66796875,-25.390625,-33.203125,-1.0,0.0,0.0,0.0,9.m4v,6.0
2024-02-27 16:12:03.052006,1709046723.0520058,-36.62109375,-34.1796875,-45.8984375,-45.8984375,-1.0,0.0,0.0,0.0,9.m4v,6.0
2024-02-27 16:12:03.063723,1709046723.0637226,-16.11328125,-24.90234375,-33.69140625,-35.64453125,-1.0,0.0,0.0,0.0,9.m4v,6.0
2024-02-27 16:12:03.075439,1709046723.0754397,-41.9921875,-34.66796875,-23.92578125,-26.85546875,-1.0,0.0,0.0,0.0,9.m4v,6.0
2024-02-27 16:12:03.087156,1709046723.0871563,-6.8359375,-27.34375,-36.1328125,-35.15625,-1.0,0.0,0.0,0.0,9.m4v,6.0
2024-02-27 16:12:03.098876,1709046723.0988762,-36.1328125,-34.66796875,-30.76171875,-29.78515625,-1.0,0.0,0.0,0.0,9.m4v,6.0
2024-02-27 16:12:03.110593,1709046723.110593,-36.1328125,-36.62109375,-28.80859375,-44.921875,-1.0,0.0,0.0,0.0,9.m4v,6.0
2024-02-27 16:12:03.122310,1709046723.12231,-24.90234375,-29.296875,-35.15625,-45.41015625,-1.0,0.0,0.0,0.0,9.m4v,6.0
2024-02-27 16:12:03.134027,1709046723.1340268,-53.7109375,-33.203125,-41.9921875,-44.921875,-1.0,0.0,0.0,0.0,9.m4v,6.0
2024-02-27 16:12:03.145747,1709046723.1457467,-16.6015625,-38.57421875,-39.0625,-41.50390625,-1.0,0.0,0.0,0.0,9.m4v,6.0
2024-02-27 16:12:03.157464,1709046723.1574636,-46.38671875,-34.66796875,-30.2734375,-24.90234375,-1.0,0.0,0.0,0.0,9.m4v,6.0
2024-02-27 16:12:03.563676,1709046723.5636764,-10.7421875,-41.50390625,-41.9921875,-35.64453125,-1.0,0.0,0.0,0.0,9.m4v,6.0
2024-02-27 16:12:03.567582,1709046723.567582,-15.13671875,-40.52734375,-41.9921875,-37.109375,-1.0,0.0,0.0,0.0,9.m4v,6.0
2024-02-27 16:12:03.571488,1709046723.5714877,-37.109375,-41.50390625,-41.015625,-39.55078125,-1.0,0.0,0.0,0.0,9.m4v,6.0
2024-02-27 16:12:03.575393,1709046723.5753932,-50.29296875,-33.69140625,-38.57421875,-36.1328125,-1.0,0.0,0.0,0.0,9.m4v,6.0
2024-02-27 16:12:03.579299,1709046723.579299,-39.55078125,-34.1796875,-31.25,-24.4140625,-1.0,0.0,0.0,0.0,9.m4v,6.0
2024-02-27 16:12:03.583205,1709046723.5832045,-18.5546875,-34.66796875,-30.76171875,-27.83203125,-1.0,0.0,0.0,0.0,9.m4v,6.0
2024-02-27 16:12:03.587110,1709046723.58711,-13.671875,-36.62109375,-32.71484375,-34.66796875,-1.0,0.0,0.0,0.0,9.m4v,6.0
2024-02-27 16:12:03.591016,1709046723.5910156,-49.31640625,-33.69140625,-35.64453125,-43.9453125,-1.0,0.0,0.0,0.0,9.m4v,6.0
2024-02-27 16:12:03.594921,1709046723.5949214,-70.3125,-32.2265625,-36.1328125,-43.9453125,-1.0,0.0,0.0,0.0,9.m4v,6.0
2024-02-27 16:12:03.598827,1709046723.598827,-51.7578125,-41.015625,-33.203125,-37.109375,-1.0,0.0,0.0,0.0,9.m4v,6.0
2024-02-27 16:12:03.602732,1709046723.6027324,-28.3203125,-41.9921875,-34.1796875,-42.96875,-1.0,0.0,0.0,0.0,9.m4v,6.0
2024-02-27 16:12:03.606638,1709046723.6066382,-25.390625,-38.57421875,-41.015625,-52.24609375,-1.0,0.0,0.0,0.0,9.m4v,6.0
2024-02-27 16:12:03.610546,1709046723.610546,-45.41015625,-38.0859375,-40.0390625,-47.8515625,-1.0,0.0,0.0,0.0,9.m4v,6.0
2024-02-27 16:12:03.614452,1709046723.614452,-57.12890625,-35.64453125,-36.62109375,-39.55078125,-1.0,0.0,0.0,0.0,9.m4v,6.0
2024-02-27 16:12:03.618357,1709046723.6183574,-42.48046875,-40.52734375,-39.55078125,-39.0625,-1.0,0.0,0.0,0.0,9.m4v,6.0
2024-02-27 16:12:03.622263,1709046723.622263,-22.4609375,-38.57421875,-38.0859375,-38.0859375,-1.0,0.0,0.0,0.0,9.m4v,6.0
2024-02-27 16:12:03.626168,1709046723.6261685,-14.16015625,-36.1328125,-32.2265625,-43.45703125,-1.0,0.0,0.0,0.0,9.m4v,6.0
2024-02-27 16:12:03.630074,1709046723.6300745,-31.25,-37.59765625,-32.71484375,-41.9921875,-1.0,0.0,0.0,0.0,9.m4v,6.0
2024-02-27 16:12:03.633980,1709046723.6339798,-58.10546875,-36.62109375,-36.62109375,-40.0390625,-1.0,0.0,0.0,0.0,9.m4v,6.0
2024-02-27 16:12:03.637885,1709046723.637885,-48.828125,-38.0859375,-41.50390625,-36.1328125,-1.0,0.0,0.0,0.0,9.m4v,6.0
2024-02-27 16:12:03.641791,1709046723.641791,-29.78515625,-39.0625,-39.0625,-37.109375,-1.0,0.0,0.0,0.0,9.m4v,6.0
2024-02-27 16:12:03.645697,1709046723.6456966,-31.25,-37.109375,-31.73828125,-45.8984375,-1.0,0.0,0.0,0.0,9.m4v,6.0
2024-02-27 16:12:03.649602,1709046723.6496022,-51.26953125,-42.48046875,-30.76171875,-41.015625,-1.0,0.0,0.0,0.0,9.m4v,6.0
2024-02-27 16:12:03.653508,1709046723.6535077,-72.265625,-38.0859375,-28.3203125,-34.1796875,-1.0,0.0,0.0,0.0,9.m4v,6.0
2024-02-27 16:12:03.657418,1709046723.657418,-55.6640625,-36.1328125,-33.203125,-33.69140625,-1.0,0.0,0.0,0.0,9.m4v,6.0
2024-02-27 16:12:03.661324,1709046723.6613235,-33.69140625,-37.59765625,-36.62109375,-38.0859375,-1.0,0.0,0.0,0.0,9.m4v,6.0
2024-02-27 16:12:03.665229,1709046723.665229,-35.64453125,-38.0859375,-36.1328125,-40.0390625,-1.0,0.0,0.0,0.0,9.m4v,6.0
2024-02-27 16:12:03.669135,1709046723.6691349,-56.15234375,-41.015625,-34.66796875,-35.64453125,-1.0,0.0,0.0,0.0,9.m4v,6.0
2024-02-27 16:12:03.673040,1709046723.6730404,-74.21875,-37.59765625,-31.73828125,-38.0859375,-1.0,0.0,0.0,0.0,9.m4v,6.0
2024-02-27 16:12:03.676946,1709046723.676946,-45.8984375,-40.0390625,-30.2734375,-33.203125,-1.0,0.0,0.0,0.0,9.m4v,6.0
2024-02-27 16:12:03.680852,1709046723.6808517,-9.27734375,-35.64453125,-36.62109375,-26.85546875,-1.0,0.0,0.0,0.0,9.m4v,6.0
2024-02-27 16:12:03.684757,1709046723.6847572,-2.44140625,-31.73828125,-36.62109375,-36.1328125,-1.0,0.0,0.0,0.0,9.m4v,6.0
2024-02-27 16:12:03.688663,1709046723.6886628,-18.5546875,-34.1796875,-27.34375,-39.55078125,-1.0,0.0,0.0,0.0,9.m4v,6.0
2024-02-27 16:12:03.692569,1709046723.6925683,-53.7109375,-36.1328125,-30.2734375,-34.66796875,-1.0,0.0,0.0,0.0,9.m4v,6.0
2024-02-27 16:12:03.696474,1709046723.696474,-57.12890625,-29.296875,-34.66796875,-29.296875,-1.0,0.0,0.0,0.0,9.m4v,6.0
2024-02-27 16:12:03.700380,1709046723.7003796,-27.83203125,-26.85546875,-31.25,-28.80859375,-1.0,0.0,0.0,0.0,9.m4v,6.0
2024-02-27 16:12:03.704289,1709046723.7042892,-15.13671875,-37.109375,-34.1796875,-36.1328125,-1.0,0.0,0.0,0.0,9.m4v,6.0
2024-02-27 16:12:03.708195,1709046723.7081947,-24.4140625,-32.71484375,-36.1328125,-39.55078125,-1.0,0.0,0.0,0.0,9.m4v,6.0
2024-02-27 16:12:03.712100,1709046723.7121005,-55.17578125,-21.484375,-30.2734375,-32.71484375,-1.0,0.0,0.0,0.0,9.m4v,6.0
2024-02-27 16:12:03.716006,1709046723.716006,-71.77734375,-29.296875,-29.296875,-29.296875,-1.0,0.0,0.0,0.0,9.m4v,6.0
2024-02-27 16:12:03.719912,1709046723.7199116,-40.0390625,-32.2265625,-36.62109375,-29.296875,-1.0,0.0,0.0,0.0,9.m4v,6.0
2024-02-27 16:12:03.723817,1709046723.723817,-12.6953125,-31.25,-35.64453125,-33.69140625,-1.0,0.0,0.0,0.0,9.m4v,6.0
2024-02-27 16:12:03.727723,1709046723.7277226,-16.11328125,-35.15625,-26.85546875,-35.15625,-1.0,0.0,0.0,0.0,9.m4v,6.0
2024-02-27 16:12:03.731628,1709046723.7316284,-45.8984375,-37.59765625,-25.87890625,-31.73828125,-1.0,0.0,0.0,0.0,9.m4v,6.0
2024-02-27 16:12:03.735534,1709046723.735534,-52.24609375,-35.15625,-24.4140625,-20.5078125,-1.0,0.0,0.0,0.0,9.m4v,6.0
2024-02-27 16:12:03.739439,1709046723.7394395,-26.85546875,-34.66796875,-22.4609375,-16.11328125,-1.0,0.0,0.0,0.0,9.m4v,6.0
2024-02-27 16:12:03.743345,1709046723.7433453,-8.7890625,-33.203125,-23.92578125,-20.99609375,-1.0,0.0,0.0,0.0,9.m4v,6.0
2024-02-27 16:12:03.747251,1709046723.7472508,-7.32421875,-32.71484375,-22.94921875,-23.92578125,-1.0,0.0,0.0,0.0,9.m4v,6.0
2024-02-27 16:12:03.751160,1709046723.75116,-37.59765625,-35.15625,-25.87890625,-30.2734375,-1.0,0.0,0.0,0.0,9.m4v,6.0
2024-02-27 16:12:03.755066,1709046723.755066,-62.5,-32.2265625,-32.2265625,-26.85546875,-1.0,0.0,0.0,0.0,9.m4v,6.0
2024-02-27 16:12:03.758971,1709046723.7589717,-21.484375,-22.94921875,-32.71484375,-10.7421875,-1.0,0.0,0.0,0.0,9.m4v,6.0
2024-02-27 16:12:03.762877,1709046723.762877,5.37109375,-23.4375,-27.34375,-16.11328125,-1.0,0.0,0.0,0.0,9.m4v,6.0
2024-02-27 16:12:03.766783,1709046723.7667823,-7.8125,-33.203125,-35.64453125,-32.2265625,-1.0,0.0,0.0,0.0,9.m4v,6.0
2024-02-27 16:12:03.770688,1709046723.7706883,-25.390625,-30.76171875,-42.96875,-31.73828125,-1.0,0.0,0.0,0.0,9.m4v,6.0
2024-02-27 16:12:03.774594,1709046723.7745938,-43.9453125,-23.4375,-34.66796875,-22.94921875,-1.0,0.0,0.0,0.0,9.m4v,6.0
2024-02-27 16:12:03.778499,1709046723.7784994,-44.921875,-25.87890625,-35.64453125,-25.87890625,-1.0,0.0,0.0,0.0,9.m4v,6.0
2024-02-27 16:12:03.782405,1709046723.7824051,-21.97265625,-34.1796875,-41.015625,-30.2734375,-1.0,0.0,0.0,0.0,9.m4v,6.0
2024-02-27 16:12:03.786311,1709046723.786311,-15.13671875,-32.71484375,-31.73828125,-31.73828125,-1.0,0.0,0.0,0.0,9.m4v,6.0
2024-02-27 16:12:03.790216,1709046723.7902162,-42.96875,-32.71484375,-25.87890625,-34.66796875,-1.0,0.0,0.0,0.0,9.m4v,6.0
2024-02-27 16:12:03.794122,1709046723.7941215,-68.84765625,-34.1796875,-38.0859375,-32.71484375,-1.0,0.0,0.0,0.0,9.m4v,6.0
2024-02-27 16:12:03.798031,1709046723.798031,-51.7578125,-39.55078125,-43.9453125,-33.69140625,-1.0,0.0,0.0,0.0,9.m4v,6.0
2024-02-27 16:12:03.801937,1709046723.8019369,-27.83203125,-40.52734375,-38.57421875,-31.73828125,-1.0,0.0,0.0,0.0,9.m4v,6.0
2024-02-27 16:12:03.805842,1709046723.8058424,-25.87890625,-39.0625,-35.15625,-30.76171875,-1.0,0.0,0.0,0.0,9.m4v,6.0
2024-02-27 16:12:03.809748,1709046723.809748,-39.55078125,-36.62109375,-39.0625,-37.59765625,-1.0,0.0,0.0,0.0,9.m4v,6.0
2024-02-27 16:12:03.813654,1709046723.8136537,-58.10546875,-27.34375,-31.73828125,-32.71484375,-1.0,0.0,0.0,0.0,9.m4v,6.0
2024-02-27 16:12:03.817559,1709046723.8175592,-41.015625,-31.25,-27.83203125,-22.94921875,-1.0,0.0,0.0,0.0,9.m4v,6.0
2024-02-27 16:12:03.821465,1709046723.8214648,-16.11328125,-34.66796875,-34.66796875,-23.4375,-1.0,0.0,0.0,0.0,9.m4v,6.0
2024-02-27 16:12:03.825371,1709046723.8253706,-20.01953125,-41.015625,-37.109375,-31.25,-1.0,0.0,0.0,0.0,9.m4v,6.0
2024-02-27 16:12:03.829276,1709046723.829276,-44.921875,-39.0625,-38.0859375,-38.57421875,-1.0,0.0,0.0,0.0,9.m4v,6.0
2024-02-27 16:12:03.833182,1709046723.8331816,-70.3125,-34.1796875,-33.203125,-31.25,-1.0,0.0,0.0,0.0,9.m4v,6.0
2024-02-27 16:12:03.837087,1709046723.8370872,-56.15234375,-42.48046875,-32.71484375,-20.01953125,-1.0,0.0,0.0,0.0,9.m4v,6.0
2024-02-27 16:12:03.840993,1709046723.840993,-36.62109375,-41.9921875,-36.62109375,-20.99609375,-1.0,0.0,0.0,0.0,9.m4v,6.0
2024-02-27 16:12:03.844902,1709046723.8449018,-34.1796875,-40.52734375,-33.69140625,-27.34375,-1.0,0.0,0.0,0.0,9.m4v,6.0
2024-02-27 16:12:03.848807,1709046723.848807,-32.71484375,-39.0625,-30.76171875,-33.203125,-1.0,0.0,0.0,0.0,9.m4v,6.0
2024-02-27 16:12:03.852713,1709046723.8527129,-58.59375,-35.15625,-31.25,-32.2265625,-1.0,0.0,0.0,0.0,9.m4v,6.0
2024-02-27 16:12:03.856619,1709046723.8566186,-62.98828125,-36.1328125,-30.76171875,-28.80859375,-1.0,0.0,0.0,0.0,9.m4v,6.0
2024-02-27 16:12:03.860524,1709046723.8605242,-38.57421875,-39.55078125,-37.59765625,-31.25,-1.0,0.0,0.0,0.0,9.m4v,6.0
2024-02-27 16:12:03.864430,1709046723.8644297,-27.34375,-40.0390625,-41.9921875,-39.55078125,-1.0,0.0,0.0,0.0,9.m4v,6.0
2024-02-27 16:12:03.868335,1709046723.8683355,-35.64453125,-38.0859375,-47.36328125,-42.48046875,-1.0,0.0,0.0,0.0,9.m4v,6.0
2024-02-27 16:12:03.872241,1709046723.872241,-67.87109375,-35.64453125,-54.19921875,-44.43359375,-1.0,0.0,0.0,0.0,9.m4v,6.0
2024-02-27 16:12:03.876147,1709046723.8761466,-74.21875,-40.52734375,-44.921875,-41.9921875,-1.0,0.0,0.0,0.0,9.m4v,6.0
2024-02-27 16:12:03.880052,1709046723.880052,-44.43359375,-39.55078125,-37.109375,-37.59765625,-1.0,0.0,0.0,0.0,9.m4v,6.0
2024-02-27 16:12:03.883958,1709046723.883958,-29.296875,-31.73828125,-36.1328125,-36.62109375,-1.0,0.0,0.0,0.0,9.m4v,6.0
2024-02-27 16:12:03.887863,1709046723.8878634,-40.0390625,-36.62109375,-37.59765625,-44.43359375,-1.0,0.0,0.0,0.0,9.m4v,6.0
2024-02-27 16:12:03.891772,1709046723.8917718,-52.734375,-34.1796875,-36.1328125,-43.9453125,-1.0,0.0,0.0,0.0,9.m4v,6.0
2024-02-27 16:12:03.895677,1709046723.895677,-56.640625,-34.66796875,-36.62109375,-39.55078125,-1.0,0.0,0.0,0.0,9.m4v,6.0
2024-02-27 16:12:03.899583,1709046723.899583,-40.52734375,-40.52734375,-42.96875,-38.57421875,-1.0,0.0,0.0,0.0,9.m4v,6.0
2024-02-27 16:12:03.903489,1709046723.9034886,-33.203125,-40.0390625,-44.921875,-39.0625,-1.0,0.0,0.0,0.0,9.m4v,6.0
2024-02-27 16:12:03.907394,1709046723.9073942,-40.52734375,-43.9453125,-38.0859375,-37.59765625,-1.0,0.0,0.0,0.0,9.m4v,6.0
2024-02-27 16:12:03.911300,1709046723.9113,-44.43359375,-39.0625,-39.0625,-32.2265625,-1.0,0.0,0.0,0.0,9.m4v,6.0
2024-02-27 16:12:03.915205,1709046723.9152057,-54.19921875,-35.64453125,-41.015625,-28.80859375,-1.0,0.0,0.0,0.0,9.m4v,6.0
2024-02-27 16:12:03.919111,1709046723.919111,-50.78125,-38.57421875,-41.50390625,-35.64453125,-1.0,0.0,0.0,0.0,9.m4v,6.0
2024-02-27 16:12:03.923017,1709046723.9230168,-30.76171875,-36.62109375,-40.0390625,-45.8984375,-1.0,0.0,0.0,0.0,9.m4v,6.0
2024-02-27 16:12:03.926922,1709046723.9269223,-28.3203125,-34.66796875,-34.1796875,-46.38671875,-1.0,0.0,0.0,0.0,9.m4v,6.0
2024-02-27 16:12:03.930828,1709046723.930828,-49.8046875,-28.3203125,-33.203125,-45.8984375,-1.0,0.0,0.0,0.0,9.m4v,6.0
2024-02-27 16:12:03.934733,1709046723.9347334,-72.75390625,-31.25,-30.2734375,-46.875,-1.0,0.0,0.0,0.0,9.m4v,6.0
2024-02-27 16:12:03.938641,1709046723.9386413,-60.05859375,-34.1796875,-31.73828125,-41.50390625,-1.0,0.0,0.0,0.0,9.m4v,6.0
2024-02-27 16:12:03.942547,1709046723.942547,-29.296875,-32.71484375,-37.109375,-36.1328125,-1.0,0.0,0.0,0.0,9.m4v,6.0
2024-02-27 16:12:03.946453,1709046723.9464526,-19.04296875,-29.78515625,-38.57421875,-37.59765625,-1.0,0.0,0.0,0.0,9.m4v,6.0
2024-02-27 16:12:03.950358,1709046723.9503582,-31.73828125,-28.3203125,-35.15625,-37.109375,-1.0,0.0,0.0,0.0,9.m4v,6.0
2024-02-27 16:12:03.954264,1709046723.954264,-55.6640625,-27.83203125,-31.73828125,-37.109375,-1.0,0.0,0.0,0.0,9.m4v,6.0
2024-02-27 16:12:03.958169,1709046723.9581697,-38.0859375,-24.90234375,-33.203125,-34.1796875,-1.0,0.0,0.0,0.0,9.m4v,6.0
2024-02-27 16:12:03.962075,1709046723.962075,0.0,-29.296875,-34.66796875,-23.92578125,-1.0,0.0,0.0,0.0,9.m4v,6.0
2024-02-27 16:12:03.965981,1709046723.9659803,-1.46484375,-26.3671875,-33.203125,-24.4140625,-1.0,0.0,0.0,0.0,9.m4v,6.0
2024-02-27 16:12:03.969886,1709046723.9698863,-28.3203125,-20.01953125,-31.25,-31.25,-1.0,0.0,0.0,0.0,9.m4v,6.0
2024-02-27 16:12:03.973792,1709046723.9737918,-54.19921875,-20.5078125,-31.25,-33.203125,-1.0,0.0,0.0,0.0,9.m4v,6.0
2024-02-27 16:12:03.977697,1709046723.9776974,-43.45703125,-30.2734375,-35.15625,-31.73828125,-1.0,0.0,0.0,0.0,9.m4v,6.0
2024-02-27 16:12:03.981603,1709046723.9816031,-17.578125,-38.57421875,-34.66796875,-27.83203125,-1.0,0.0,0.0,0.0,9.m4v,6.0
2024-02-27 16:12:03.985511,1709046723.9855113,-23.4375,-33.69140625,-30.2734375,-33.69140625,-1.0,0.0,0.0,0.0,9.m4v,6.0
2024-02-27 16:12:03.989417,1709046723.9894168,-35.15625,-24.90234375,-32.2265625,-37.109375,-1.0,0.0,0.0,0.0,9.m4v,6.0
2024-02-27 16:12:03.993322,1709046723.9933224,-46.875,-26.85546875,-28.3203125,-32.2265625,-1.0,0.0,0.0,0.0,9.m4v,6.0
2024-02-27 16:12:03.997228,1709046723.997228,-41.50390625,-28.3203125,-26.3671875,-32.2265625,-1.0,0.0,0.0,0.0,9.m4v,6.0
2024-02-27 16:12:04.001134,1709046724.0011337,-20.01953125,-25.390625,-36.62109375,-33.203125,-1.0,0.0,0.0,0.0,9.m4v,6.0
2024-02-27 16:12:04.005039,1709046724.0050392,-13.18359375,-31.73828125,-40.0390625,-40.0390625,-1.0,0.0,0.0,0.0,9.m4v,6.0
2024-02-27 16:12:04.008945,1709046724.008945,-31.25,-33.69140625,-35.15625,-44.43359375,-1.0,0.0,0.0,0.0,9.m4v,6.0
2024-02-27 16:12:04.012851,1709046724.0128503,-54.19921875,-29.296875,-33.203125,-42.48046875,-1.0,0.0,0.0,0.0,9.m4v,6.0
2024-02-27 16:12:04.016756,1709046724.016756,-52.24609375,-36.1328125,-35.15625,-40.0390625,-1.0,0.0,0.0,0.0,9.m4v,6.0
2024-02-27 16:12:04.020662,1709046724.0206618,-28.3203125,-44.43359375,-38.0859375,-35.15625,-1.0,0.0,0.0,0.0,9.m4v,6.0
2024-02-27 16:12:04.024567,1709046724.0245674,-15.625,-44.921875,-43.9453125,-37.59765625,-1.0,0.0,0.0,0.0,9.m4v,6.0
2024-02-27 16:12:04.028473,1709046724.028473,-28.80859375,-41.015625,-37.59765625,-36.1328125,-1.0,0.0,0.0,0.0,9.m4v,6.0
2024-02-27 16:12:04.032383,1709046724.0323827,-62.98828125,-42.48046875,-34.66796875,-35.15625,-1.0,0.0,0.0,0.0,9.m4v,6.0
2024-02-27 16:12:04.036288,1709046724.0362885,-58.59375,-42.48046875,-39.0625,-33.203125,-1.0,0.0,0.0,0.0,9.m4v,6.0
2024-02-27 16:12:04.040194,1709046724.040194,-20.99609375,-39.0625,-40.0390625,-22.4609375,-1.0,0.0,0.0,0.0,9.m4v,6.0
2024-02-27 16:12:04.044100,1709046724.0440996,-8.30078125,-33.69140625,-37.109375,-22.94921875,-1.0,0.0,0.0,0.0,9.m4v,6.0
2024-02-27 16:12:04.048005,1709046724.048005,-25.87890625,-37.59765625,-39.55078125,-37.109375,-1.0,0.0,0.0,0.0,9.m4v,6.0
2024-02-27 16:12:04.051911,1709046724.0519109,-49.31640625,-47.36328125,-43.9453125,-42.96875,-1.0,0.0,0.0,0.0,9.m4v,6.0
2024-02-27 16:12:04.055816,1709046724.0558164,-52.24609375,-39.0625,-35.64453125,-33.69140625,-1.0,0.0,0.0,0.0,9.m4v,6.0
2024-02-27 16:12:04.059722,1709046724.059722,-32.2265625,-36.1328125,-25.390625,-30.2734375,-1.0,0.0,0.0,0.0,9.m4v,6.0
2024-02-27 16:12:04.063628,1709046724.0636275,-17.08984375,-38.0859375,-29.296875,-37.59765625,-1.0,0.0,0.0,0.0,9.m4v,6.0
2024-02-27 16:12:04.067533,1709046724.0675333,-23.4375,-39.0625,-41.50390625,-42.48046875,-1.0,0.0,0.0,0.0,9.m4v,6.0
2024-02-27 16:12:04.071439,1709046724.0714388,-43.45703125,-40.52734375,-37.109375,-43.9453125,-1.0,0.0,0.0,0.0,9.m4v,6.0
2024-02-27 16:12:04.075344,1709046724.0753443,-53.22265625,-32.2265625,-31.25,-42.48046875,-1.0,0.0,0.0,0.0,9.m4v,6.0
2024-02-27 16:12:04.079254,1709046724.079254,-38.0859375,-26.3671875,-30.76171875,-34.66796875,-1.0,0.0,0.0,0.0,9.m4v,6.0
2024-02-27 16:12:04.083159,1709046724.0831594,-15.625,-28.80859375,-37.59765625,-41.015625,-1.0,0.0,0.0,0.0,9.m4v,6.0
2024-02-27 16:12:04.087065,1709046724.0870652,-10.25390625,-30.2734375,-44.43359375,-52.24609375,-1.0,0.0,0.0,0.0,9.m4v,6.0
2024-02-27 16:12:04.090971,1709046724.0909708,-29.78515625,-37.109375,-41.015625,-48.828125,-1.0,0.0,0.0,0.0,9.m4v,6.0
2024-02-27 16:12:04.094876,1709046724.0948763,-50.78125,-41.015625,-35.64453125,-41.9921875,-1.0,0.0,0.0,0.0,9.m4v,6.0
2024-02-27 16:12:04.098782,1709046724.098782,-22.94921875,-36.62109375,-30.76171875,-34.66796875,-1.0,0.0,0.0,0.0,9.m4v,6.0
2024-02-27 16:12:04.102688,1709046724.1026876,12.20703125,-30.76171875,-26.85546875,-32.2265625,-1.0,0.0,0.0,0.0,9.m4v,6.0
2024-02-27 16:12:04.106593,1709046724.1065931,7.8125,-27.83203125,-26.85546875,-37.109375,-1.0,0.0,0.0,0.0,9.m4v,6.0
2024-02-27 16:12:04.110499,1709046724.110499,-24.90234375,-30.76171875,-26.85546875,-44.921875,-1.0,0.0,0.0,0.0,9.m4v,6.0
2024-02-27 16:12:04.114404,1709046724.1144044,-47.36328125,-27.83203125,-25.87890625,-42.48046875,-1.0,0.0,0.0,0.0,9.m4v,6.0
2024-02-27 16:12:04.118310,1709046724.11831,-30.2734375,-29.78515625,-26.3671875,-37.109375,-1.0,0.0,0.0,0.0,9.m4v,6.0
2024-02-27 16:12:04.122216,1709046724.1222155,-7.8125,-31.73828125,-24.90234375,-36.62109375,-1.0,0.0,0.0,0.0,9.m4v,6.0
2024-02-27 16:12:04.126125,1709046724.1261249,-12.6953125,-28.3203125,-23.92578125,-37.59765625,-1.0,0.0,0.0,0.0,9.m4v,6.0
2024-02-27 16:12:04.130030,1709046724.1300304,-32.71484375,-32.2265625,-30.2734375,-46.875,-1.0,0.0,0.0,0.0,9.m4v,6.0
2024-02-27 16:12:04.133936,1709046724.1339362,-49.31640625,-33.203125,-39.55078125,-45.8984375,-1.0,0.0,0.0,0.0,9.m4v,6.0
2024-02-27 16:12:04.137842,1709046724.1378417,-39.55078125,-35.64453125,-33.69140625,-35.15625,-1.0,0.0,0.0,0.0,9.m4v,6.0
2024-02-27 16:12:04.141747,1709046724.1417472,-13.671875,-36.1328125,-29.296875,-33.203125,-1.0,0.0,0.0,0.0,9.m4v,6.0
2024-02-27 16:12:04.145653,1709046724.145653,0.9765625,-30.2734375,-28.80859375,-36.1328125,-1.0,0.0,0.0,0.0,9.m4v,6.0
2024-02-27 16:12:04.149559,1709046724.1495583,-14.6484375,-29.78515625,-28.3203125,-38.0859375,-1.0,0.0,0.0,0.0,9.m4v,6.0
2024-02-27 16:12:04.153464,1709046724.153464,-53.7109375,-33.69140625,-31.73828125,-41.015625,-1.0,0.0,0.0,0.0,9.m4v,6.0
2024-02-27 16:12:04.157370,1709046724.15737,-50.29296875,-37.59765625,-31.25,-34.66796875,-1.0,0.0,0.0,0.0,9.m4v,6.0
2024-02-27 16:12:04.161275,1709046724.1612754,-18.06640625,-34.66796875,-26.3671875,-26.85546875,-1.0,0.0,0.0,0.0,9.m4v,6.0
2024-02-27 16:12:04.165181,1709046724.165181,-26.3671875,-27.83203125,-34.1796875,-38.57421875,-1.0,0.0,0.0,0.0,9.m4v,6.0
2024-02-27 16:12:04.169086,1709046724.1690865,-45.8984375,-37.109375,-37.109375,-47.8515625,-1.0,0.0,0.0,0.0,9.m4v,6.0
2024-02-27 16:12:04.172996,1709046724.1729956,-56.15234375,-45.8984375,-37.59765625,-47.36328125,-1.0,0.0,0.0,0.0,9.m4v,6.0
2024-02-27 16:12:04.176901,1709046724.176901,-52.24609375,-41.50390625,-39.55078125,-44.921875,-1.0,0.0,0.0,0.0,9.m4v,6.0
2024-02-27 16:12:04.180807,1709046724.1808066,-19.53125,-39.0625,-34.1796875,-42.48046875,-1.0,0.0,0.0,0.0,9.m4v,6.0
2024-02-27 16:12:04.184712,1709046724.1847124,0.48828125,-34.66796875,-32.2265625,-43.45703125,-1.0,0.0,0.0,0.0,9.m4v,6.0
2024-02-27 16:12:04.188618,1709046724.188618,-16.11328125,-30.2734375,-29.78515625,-46.38671875,-1.0,0.0,0.0,0.0,9.m4v,6.0
2024-02-27 16:12:04.192523,1709046724.1925237,-41.50390625,-31.73828125,-27.83203125,-41.9921875,-1.0,0.0,0.0,0.0,9.m4v,6.0
2024-02-27 16:12:04.196429,1709046724.1964293,-45.8984375,-41.015625,-36.62109375,-31.25,-1.0,0.0,0.0,0.0,9.m4v,6.0
2024-02-27 16:12:04.200335,1709046724.2003348,-37.59765625,-36.62109375,-43.45703125,-28.80859375,-1.0,0.0,0.0,0.0,9.m4v,6.0
2024-02-27 16:12:04.204240,1709046724.2042403,-25.390625,-27.34375,-30.76171875,-24.90234375,-1.0,0.0,0.0,0.0,9.m4v,6.0
2024-02-27 16:12:04.208146,1709046724.208146,-25.87890625,-30.76171875,-28.3203125,-30.2734375,-1.0,0.0,0.0,0.0,9.m4v,6.0
2024-02-27 16:12:04.212052,1709046724.2120516,-54.19921875,-29.296875,-35.15625,-32.71484375,-1.0,0.0,0.0,0.0,9.m4v,6.0
2024-02-27 16:12:04.215957,1709046724.2159572,-60.05859375,-28.3203125,-38.0859375,-23.92578125,-1.0,0.0,0.0,0.0,9.m4v,6.0
2024-02-27 16:12:04.219866,1709046724.219866,-27.34375,-34.66796875,-36.62109375,-21.484375,-1.0,0.0,0.0,0.0,9.m4v,6.0
2024-02-27 16:12:04.223772,1709046724.2237718,-12.6953125,-36.62109375,-37.109375,-28.80859375,-1.0,0.0,0.0,0.0,9.m4v,6.0
2024-02-27 16:12:04.227677,1709046724.227677,-23.92578125,-28.3203125,-37.109375,-39.55078125,-1.0,0.0,0.0,0.0,9.m4v,6.0
2024-02-27 16:12:04.231583,1709046724.2315829,-45.41015625,-29.296875,-32.2265625,-35.64453125,-1.0,0.0,0.0,0.0,9.m4v,6.0
2024-02-27 16:12:04.235489,1709046724.235489,-46.875,-34.1796875,-33.203125,-27.34375,-1.0,0.0,0.0,0.0,9.m4v,6.0
2024-02-27 16:12:04.239394,1709046724.2393942,-14.16015625,-27.83203125,-29.78515625,-22.4609375,-1.0,0.0,0.0,0.0,9.m4v,6.0
2024-02-27 16:12:04.243300,1709046724.2432995,1.46484375,-27.83203125,-28.80859375,-21.484375,-1.0,0.0,0.0,0.0,9.m4v,6.0
2024-02-27 16:12:04.247205,1709046724.2472053,-15.13671875,-38.57421875,-24.4140625,-28.80859375,-1.0,0.0,0.0,0.0,9.m4v,6.0
2024-02-27 16:12:04.251111,1709046724.251111,-42.48046875,-40.52734375,-25.390625,-35.64453125,-1.0,0.0,0.0,0.0,9.m4v,6.0
2024-02-27 16:12:04.255017,1709046724.2550166,-67.87109375,-41.50390625,-38.57421875,-37.59765625,-1.0,0.0,0.0,0.0,9.m4v,6.0
2024-02-27 16:12:04.258922,1709046724.258922,-41.015625,-39.0625,-37.59765625,-29.296875,-1.0,0.0,0.0,0.0,9.m4v,6.0
2024-02-27 16:12:04.262828,1709046724.262828,-11.71875,-33.203125,-34.1796875,-25.390625,-1.0,0.0,0.0,0.0,9.m4v,6.0
2024-02-27 16:12:04.266737,1709046724.2667365,-26.3671875,-38.57421875,-28.80859375,-30.2734375,-1.0,0.0,0.0,0.0,9.m4v,6.0
2024-02-27 16:12:04.270642,1709046724.270642,-43.45703125,-39.55078125,-23.4375,-37.109375,-1.0,0.0,0.0,0.0,9.m4v,6.0
2024-02-27 16:12:04.274548,1709046724.2745476,-61.03515625,-34.1796875,-25.87890625,-38.0859375,-1.0,0.0,0.0,0.0,9.m4v,6.0
2024-02-27 16:12:04.278453,1709046724.2784534,-41.015625,-34.1796875,-26.85546875,-21.97265625,-1.0,0.0,0.0,0.0,9.m4v,6.0
2024-02-27 16:12:04.282359,1709046724.282359,-5.859375,-33.203125,-28.3203125,-16.6015625,-1.0,0.0,0.0,0.0,9.m4v,6.0
2024-02-27 16:12:04.286264,1709046724.2862644,-6.34765625,-32.71484375,-31.25,-27.83203125,-1.0,0.0,0.0,0.0,9.m4v,6.0
2024-02-27 16:12:04.290170,1709046724.2901702,-28.80859375,-36.1328125,-18.5546875,-33.203125,-1.0,0.0,0.0,0.0,9.m4v,6.0
2024-02-27 16:12:04.294076,1709046724.2940755,-60.05859375,-38.57421875,-17.08984375,-36.1328125,-1.0,0.0,0.0,0.0,9.m4v,6.0
2024-02-27 16:12:04.297981,1709046724.2979813,-48.828125,-42.48046875,-36.1328125,-35.64453125,-1.0,0.0,0.0,0.0,9.m4v,6.0
2024-02-27 16:12:04.301887,1709046724.301887,-14.6484375,-45.41015625,-46.38671875,-35.64453125,-1.0,0.0,0.0,0.0,9.m4v,6.0
2024-02-27 16:12:04.305793,1709046724.3057926,-6.34765625,-36.1328125,-40.52734375,-41.9921875,-1.0,0.0,0.0,0.0,9.m4v,6.0
2024-02-27 16:12:04.309698,1709046724.309698,-18.5546875,-30.76171875,-34.1796875,-42.48046875,-1.0,0.0,0.0,0.0,9.m4v,6.0
2024-02-27 16:12:04.313607,1709046724.3136067,-50.29296875,-29.78515625,-34.66796875,-36.1328125,-1.0,0.0,0.0,0.0,9.m4v,6.0
2024-02-27 16:12:04.317512,1709046724.3175125,-50.29296875,-25.87890625,-33.69140625,-24.90234375,-1.0,0.0,0.0,0.0,9.m4v,6.0
2024-02-27 16:12:04.321418,1709046724.3214178,-20.5078125,-30.2734375,-38.57421875,-24.4140625,-1.0,0.0,0.0,0.0,9.m4v,6.0
2024-02-27 16:12:04.325323,1709046724.325323,-12.20703125,-39.0625,-32.71484375,-34.1796875,-1.0,0.0,0.0,0.0,9.m4v,6.0
2024-02-27 16:12:04.329229,1709046724.329229,-25.390625,-38.0859375,-25.87890625,-38.0859375,-1.0,0.0,0.0,0.0,9.m4v,6.0
2024-02-27 16:12:04.333135,1709046724.333135,-54.19921875,-37.109375,-31.25,-38.0859375,-1.0,0.0,0.0,0.0,9.m4v,6.0
2024-02-27 16:12:04.337040,1709046724.3370402,-60.05859375,-42.48046875,-37.59765625,-31.73828125,-1.0,0.0,0.0,0.0,9.m4v,6.0
2024-02-27 16:12:04.340946,1709046724.340946,-31.25,-41.9921875,-41.9921875,-29.296875,-1.0,0.0,0.0,0.0,9.m4v,6.0
2024-02-27 16:12:04.344851,1709046724.3448515,-20.01953125,-39.55078125,-50.29296875,-40.52734375,-1.0,0.0,0.0,0.0,9.m4v,6.0
2024-02-27 16:12:04.348757,1709046724.348757,-29.296875,-35.15625,-45.8984375,-42.96875,-1.0,0.0,0.0,0.0,9.m4v,6.0
2024-02-27 16:12:04.352663,1709046724.3526628,-40.0390625,-24.4140625,-23.4375,-32.71484375,-1.0,0.0,0.0,0.0,9.m4v,6.0
2024-02-27 16:12:04.356568,1709046724.3565683,-48.828125,-22.94921875,-22.94921875,-28.80859375,-1.0,0.0,0.0,0.0,9.m4v,6.0
2024-02-27 16:12:04.360479,1709046724.3604786,-31.73828125,-23.92578125,-30.2734375,-32.2265625,-1.0,0.0,0.0,0.0,9.m4v,6.0
2024-02-27 16:12:04.368290,1709046724.3682897,-13.671875,-31.73828125,-26.3671875,-31.73828125,-1.0,0.0,0.0,0.0,9.m4v,6.0
2024-02-27 16:12:04.376101,1709046724.376101,-54.6875,-32.2265625,-27.83203125,-27.83203125,-1.0,0.0,0.0,0.0,9.m4v,6.0
2024-02-27 16:12:04.383912,1709046724.383912,10.7421875,-28.80859375,-33.203125,-27.34375,-1.0,0.0,0.0,0.0,9.m4v,6.0
2024-02-27 16:12:04.594837,1709046724.5948372,-62.5,-39.55078125,-40.52734375,-52.734375,-1.0,0.0,0.0,0.0,9.m4v,6.0
2024-02-27 16:12:04.598743,1709046724.5987427,-42.96875,-37.59765625,-35.15625,-45.8984375,-1.0,0.0,0.0,0.0,9.m4v,6.0
2024-02-27 16:12:04.602648,1709046724.6026485,-20.99609375,-34.1796875,-45.41015625,-51.7578125,-1.0,0.0,0.0,0.0,9.m4v,6.0
2024-02-27 16:12:04.606554,1709046724.606554,-35.64453125,-40.0390625,-48.828125,-63.96484375,-1.0,0.0,0.0,0.0,9.m4v,6.0
2024-02-27 16:12:04.610460,1709046724.6104596,-56.640625,-39.55078125,-43.9453125,-60.05859375,-1.0,0.0,0.0,0.0,9.m4v,6.0
2024-02-27 16:12:04.614365,1709046724.614365,-57.6171875,-38.0859375,-41.50390625,-48.33984375,-1.0,0.0,0.0,0.0,9.m4v,6.0
2024-02-27 16:12:04.618271,1709046724.6182709,-44.921875,-41.9921875,-41.015625,-43.45703125,-1.0,0.0,0.0,0.0,9.m4v,6.0
2024-02-27 16:12:04.622176,1709046724.6221764,-38.57421875,-37.109375,-38.0859375,-44.43359375,-1.0,0.0,0.0,0.0,9.m4v,6.0
2024-02-27 16:12:04.626082,1709046724.626082,-34.66796875,-37.109375,-35.15625,-47.8515625,-1.0,0.0,0.0,0.0,9.m4v,6.0
2024-02-27 16:12:04.633893,1709046724.6338933,-68.84765625,-22.4609375,-36.1328125,-38.57421875,-1.0,0.0,0.0,0.0,9.m4v,6.0
2024-02-27 16:12:04.645613,1709046724.645613,-18.5546875,-39.0625,-36.62109375,-38.0859375,-1.0,0.0,0.0,0.0,9.m4v,6.0
2024-02-27 16:12:04.653424,1709046724.6534245,-52.24609375,-39.55078125,-24.90234375,-33.203125,-1.0,0.0,0.0,0.0,9.m4v,6.0
2024-02-27 16:12:04.665141,1709046724.665141,-9.765625,-36.1328125,-29.296875,-23.4375,-1.0,0.0,0.0,0.0,9.m4v,6.0
2024-02-27 16:12:04.672952,1709046724.6729522,-59.08203125,-25.87890625,-33.203125,-30.76171875,-1.0,0.0,0.0,0.0,9.m4v,6.0
2024-02-27 16:12:04.993238,1709046724.9932382,-58.59375,-35.15625,-23.92578125,-32.71484375,-1.0,0.0,0.0,0.0,9.m4v,6.0
2024-02-27 16:12:04.997144,1709046724.997144,-84.47265625,-41.50390625,-31.25,-34.1796875,-1.0,0.0,0.0,0.0,9.m4v,6.0
2024-02-27 16:12:05.001050,1709046725.0010495,-37.59765625,-38.0859375,-28.3203125,-29.78515625,-1.0,0.0,0.0,0.0,9.m4v,6.0
2024-02-27 16:12:05.004955,1709046725.004955,-23.4375,-36.1328125,-31.25,-34.66796875,-1.0,0.0,0.0,0.0,9.m4v,6.0
2024-02-27 16:12:05.008861,1709046725.0088608,-46.875,-37.109375,-30.2734375,-38.0859375,-1.0,0.0,0.0,0.0,9.m4v,6.0
2024-02-27 16:12:05.012766,1709046725.0127664,-69.3359375,-38.0859375,-26.85546875,-35.15625,-1.0,0.0,0.0,0.0,9.m4v,6.0
2024-02-27 16:12:05.016675,1709046725.0166745,-62.98828125,-37.59765625,-26.85546875,-28.3203125,-1.0,0.0,0.0,0.0,9.m4v,6.0
2024-02-27 16:12:05.020580,1709046725.02058,-31.25,-33.69140625,-28.3203125,-19.53125,-1.0,0.0,0.0,0.0,9.m4v,6.0
2024-02-27 16:12:05.024486,1709046725.0244858,-19.04296875,-31.25,-33.69140625,-20.5078125,-1.0,0.0,0.0,0.0,9.m4v,6.0
2024-02-27 16:12:05.028391,1709046725.0283914,-36.1328125,-32.71484375,-32.71484375,-33.203125,-1.0,0.0,0.0,0.0,9.m4v,6.0
2024-02-27 16:12:05.032297,1709046725.032297,-66.40625,-38.0859375,-30.2734375,-36.1328125,-1.0,0.0,0.0,0.0,9.m4v,6.0
2024-02-27 16:12:05.036203,1709046725.036203,-57.12890625,-35.15625,-24.90234375,-27.83203125,-1.0,0.0,0.0,0.0,9.m4v,6.0
2024-02-27 16:12:05.040108,1709046725.0401082,-31.25,-39.0625,-27.34375,-28.3203125,-1.0,0.0,0.0,0.0,9.m4v,6.0
2024-02-27 16:12:05.044014,1709046725.0440135,-37.59765625,-50.78125,-35.64453125,-39.55078125,-1.0,0.0,0.0,0.0,9.m4v,6.0
2024-02-27 16:12:05.047920,1709046725.0479195,-44.921875,-43.45703125,-28.80859375,-44.43359375,-1.0,0.0,0.0,0.0,9.m4v,6.0
2024-02-27 16:12:05.051825,1709046725.051825,-48.828125,-34.1796875,-26.3671875,-38.57421875,-1.0,0.0,0.0,0.0,9.m4v,6.0
2024-02-27 16:12:05.055731,1709046725.0557306,-52.24609375,-36.62109375,-32.71484375,-28.3203125,-1.0,0.0,0.0,0.0,9.m4v,6.0
2024-02-27 16:12:05.059636,1709046725.059636,-22.94921875,-32.2265625,-34.66796875,-24.4140625,-1.0,0.0,0.0,0.0,9.m4v,6.0
2024-02-27 16:12:05.063545,1709046725.0635448,-7.8125,-30.76171875,-34.1796875,-28.3203125,-1.0,0.0,0.0,0.0,9.m4v,6.0
2024-02-27 16:12:05.067450,1709046725.0674503,-24.90234375,-29.78515625,-33.69140625,-33.69140625,-1.0,0.0,0.0,0.0,9.m4v,6.0
2024-02-27 16:12:05.071356,1709046725.071356,-49.31640625,-27.83203125,-31.25,-38.0859375,-1.0,0.0,0.0,0.0,9.m4v,6.0
2024-02-27 16:12:05.075262,1709046725.0752616,-67.3828125,-35.64453125,-35.15625,-32.2265625,-1.0,0.0,0.0,0.0,9.m4v,6.0
2024-02-27 16:12:05.079167,1709046725.0791671,-39.0625,-35.64453125,-33.69140625,-26.3671875,-1.0,0.0,0.0,0.0,9.m4v,6.0
2024-02-27 16:12:05.083073,1709046725.083073,-6.8359375,-33.203125,-28.3203125,-30.76171875,-1.0,0.0,0.0,0.0,9.m4v,6.0
2024-02-27 16:12:05.086978,1709046725.0869784,-16.11328125,-37.59765625,-31.25,-34.66796875,-1.0,0.0,0.0,0.0,9.m4v,6.0
2024-02-27 16:12:05.090884,1709046725.090884,-43.45703125,-37.59765625,-33.203125,-41.015625,-1.0,0.0,0.0,0.0,9.m4v,6.0
2024-02-27 16:12:05.094790,1709046725.0947895,-61.03515625,-34.1796875,-36.1328125,-36.1328125,-1.0,0.0,0.0,0.0,9.m4v,6.0
2024-02-27 16:12:05.098695,1709046725.0986953,-43.9453125,-31.25,-37.59765625,-28.80859375,-1.0,0.0,0.0,0.0,9.m4v,6.0
2024-02-27 16:12:05.102601,1709046725.1026008,-21.97265625,-25.390625,-34.1796875,-27.34375,-1.0,0.0,0.0,0.0,9.m4v,6.0
2024-02-27 16:12:05.106506,1709046725.1065063,-15.625,-23.4375,-28.80859375,-25.87890625,-1.0,0.0,0.0,0.0,9.m4v,6.0
2024-02-27 16:12:05.110415,1709046725.1104145,-31.25,-32.71484375,-31.25,-30.76171875,-1.0,0.0,0.0,0.0,9.m4v,6.0
2024-02-27 16:12:05.114320,1709046725.11432,-56.15234375,-33.69140625,-30.76171875,-31.73828125,-1.0,0.0,0.0,0.0,9.m4v,6.0
2024-02-27 16:12:05.149471,1709046725.1494706,-18.06640625,-30.2734375,-36.1328125,-40.0390625,-1.0,0.0,0.0,0.0,9.m4v,6.0
2024-02-27 16:12:05.153376,1709046725.153376,-38.0859375,-31.25,-28.3203125,-39.0625,-1.0,0.0,0.0,0.0,9.m4v,6.0
2024-02-27 16:12:05.157286,1709046725.157286,-37.59765625,-24.90234375,-27.83203125,-33.203125,-1.0,0.0,0.0,0.0,9.m4v,6.0
2024-02-27 16:12:05.161191,1709046725.1611917,-13.671875,-28.3203125,-27.83203125,-26.3671875,-1.0,0.0,0.0,0.0,9.m4v,6.0
2024-02-27 16:12:05.165097,1709046725.1650972,-6.34765625,-30.76171875,-30.76171875,-37.109375,-1.0,0.0,0.0,0.0,9.m4v,6.0
2024-02-27 16:12:05.169003,1709046725.1690028,-20.5078125,-30.76171875,-32.71484375,-41.015625,-1.0,0.0,0.0,0.0,9.m4v,6.0
2024-02-27 16:12:05.172908,1709046725.1729083,-38.0859375,-29.296875,-21.484375,-32.71484375,-1.0,0.0,0.0,0.0,9.m4v,6.0
2024-02-27 16:12:05.176814,1709046725.176814,-41.50390625,-35.15625,-34.66796875,-34.1796875,-1.0,0.0,0.0,0.0,9.m4v,6.0
2024-02-27 16:12:05.180720,1709046725.1807196,-16.11328125,-31.25,-43.45703125,-30.2734375,-1.0,0.0,0.0,0.0,9.m4v,6.0
2024-02-27 16:12:05.184625,1709046725.1846251,-10.7421875,-26.85546875,-33.69140625,-35.64453125,-1.0,0.0,0.0,0.0,9.m4v,6.0
2024-02-27 16:12:05.188531,1709046725.188531,-22.4609375,-23.92578125,-32.2265625,-37.59765625,-1.0,0.0,0.0,0.0,9.m4v,6.0
2024-02-27 16:12:05.192436,1709046725.1924365,-38.0859375,-27.34375,-31.25,-31.25,-1.0,0.0,0.0,0.0,9.m4v,6.0
2024-02-27 16:12:05.196342,1709046725.196342,-44.921875,-28.80859375,-38.57421875,-31.73828125,-1.0,0.0,0.0,0.0,9.m4v,6.0
2024-02-27 16:12:05.200248,1709046725.2002475,-23.4375,-25.87890625,-43.9453125,-34.66796875,-1.0,0.0,0.0,0.0,9.m4v,6.0
2024-02-27 16:12:05.204157,1709046725.204157,-6.8359375,-28.80859375,-32.2265625,-32.71484375,-1.0,0.0,0.0,0.0,9.m4v,6.0
2024-02-27 16:12:05.208063,1709046725.208063,-9.765625,-30.76171875,-27.34375,-28.3203125,-1.0,0.0,0.0,0.0,9.m4v,6.0
2024-02-27 16:12:05.211968,1709046725.2119684,-39.0625,-34.66796875,-34.1796875,-29.296875,-1.0,0.0,0.0,0.0,9.m4v,6.0
2024-02-27 16:12:05.215874,1709046725.215874,-63.96484375,-35.15625,-35.15625,-28.80859375,-1.0,0.0,0.0,0.0,9.m4v,6.0
2024-02-27 16:12:05.219780,1709046725.2197795,-41.50390625,-30.76171875,-33.203125,-25.390625,-1.0,0.0,0.0,0.0,9.m4v,6.0
2024-02-27 16:12:05.223685,1709046725.2236853,-14.16015625,-25.390625,-33.203125,-29.296875,-1.0,0.0,0.0,0.0,9.m4v,6.0
2024-02-27 16:12:05.227591,1709046725.2275908,-14.6484375,-24.90234375,-34.1796875,-35.15625,-1.0,0.0,0.0,0.0,9.m4v,6.0
2024-02-27 16:12:05.231496,1709046725.2314963,-33.203125,-31.73828125,-37.59765625,-36.1328125,-1.0,0.0,0.0,0.0,9.m4v,6.0
2024-02-27 16:12:05.235402,1709046725.235402,-51.26953125,-43.45703125,-32.2265625,-37.109375,-1.0,0.0,0.0,0.0,9.m4v,6.0
2024-02-27 16:12:05.239308,1709046725.2393076,-24.4140625,-46.38671875,-31.25,-32.71484375,-1.0,0.0,0.0,0.0,9.m4v,6.0
2024-02-27 16:12:05.243213,1709046725.2432132,-3.90625,-42.96875,-43.45703125,-34.1796875,-1.0,0.0,0.0,0.0,9.m4v,6.0
2024-02-27 16:12:05.247119,1709046725.247119,-18.06640625,-38.0859375,-40.0390625,-41.9921875,-1.0,0.0,0.0,0.0,9.m4v,6.0
2024-02-27 16:12:05.251028,1709046725.251028,-36.62109375,-35.15625,-32.2265625,-45.41015625,-1.0,0.0,0.0,0.0,9.m4v,6.0
2024-02-27 16:12:05.254934,1709046725.2549338,-54.19921875,-35.15625,-33.203125,-37.59765625,-1.0,0.0,0.0,0.0,9.m4v,6.0
2024-02-27 16:12:05.258839,1709046725.2588394,-29.78515625,-33.69140625,-32.71484375,-27.34375,-1.0,0.0,0.0,0.0,9.m4v,6.0
2024-02-27 16:12:05.262745,1709046725.262745,-7.8125,-32.71484375,-31.25,-31.73828125,-1.0,0.0,0.0,0.0,9.m4v,6.0
2024-02-27 16:12:05.266651,1709046725.266651,-17.08984375,-31.25,-41.50390625,-41.015625,-1.0,0.0,0.0,0.0,9.m4v,6.0
2024-02-27 16:12:05.270556,1709046725.2705562,-32.71484375,-41.50390625,-44.43359375,-49.31640625,-1.0,0.0,0.0,0.0,9.m4v,6.0
2024-02-27 16:12:05.274462,1709046725.2744615,-52.734375,-47.36328125,-40.52734375,-47.8515625,-1.0,0.0,0.0,0.0,9.m4v,6.0
2024-02-27 16:12:05.278368,1709046725.2783675,-43.45703125,-41.50390625,-39.55078125,-36.1328125,-1.0,0.0,0.0,0.0,9.m4v,6.0
2024-02-27 16:12:05.282273,1709046725.282273,-12.6953125,-41.015625,-42.48046875,-35.64453125,-1.0,0.0,0.0,0.0,9.m4v,6.0
2024-02-27 16:12:05.286179,1709046725.2861786,-3.90625,-41.50390625,-43.45703125,-43.45703125,-1.0,0.0,0.0,0.0,9.m4v,6.0
2024-02-27 16:12:05.290084,1709046725.290084,-18.5546875,-33.203125,-34.1796875,-40.52734375,-1.0,0.0,0.0,0.0,9.m4v,6.0
2024-02-27 16:12:05.293990,1709046725.29399,-47.36328125,-27.34375,-34.1796875,-38.0859375,-1.0,0.0,0.0,0.0,9.m4v,6.0
2024-02-27 16:12:05.297899,1709046725.297899,-35.64453125,-22.4609375,-39.55078125,-34.1796875,-1.0,0.0,0.0,0.0,9.m4v,6.0
2024-02-27 16:12:05.301805,1709046725.3018048,5.859375,-24.90234375,-37.59765625,-31.25,-1.0,0.0,0.0,0.0,9.m4v,6.0
2024-02-27 16:12:05.305710,1709046725.3057103,14.16015625,-30.2734375,-29.78515625,-30.76171875,-1.0,0.0,0.0,0.0,9.m4v,6.0
2024-02-27 16:12:05.309616,1709046725.309616,-7.32421875,-35.64453125,-33.69140625,-37.109375,-1.0,0.0,0.0,0.0,9.m4v,6.0
2024-02-27 16:12:05.313521,1709046725.3135214,-35.64453125,-37.109375,-38.0859375,-38.57421875,-1.0,0.0,0.0,0.0,9.m4v,6.0
2024-02-27 16:12:05.317427,1709046725.3174272,-31.73828125,-34.1796875,-35.64453125,-34.1796875,-1.0,0.0,0.0,0.0,9.m4v,6.0
2024-02-27 16:12:05.321333,1709046725.3213327,-5.859375,-29.78515625,-37.109375,-31.25,-1.0,0.0,0.0,0.0,9.m4v,6.0
2024-02-27 16:12:05.325238,1709046725.3252382,-7.32421875,-26.85546875,-38.57421875,-31.25,-1.0,0.0,0.0,0.0,9.m4v,6.0
2024-02-27 16:12:05.329144,1709046725.329144,-25.390625,-24.90234375,-41.015625,-35.15625,-1.0,0.0,0.0,0.0,9.m4v,6.0
2024-02-27 16:12:05.333050,1709046725.3330495,-41.50390625,-20.99609375,-39.0625,-34.66796875,-1.0,0.0,0.0,0.0,9.m4v,6.0
2024-02-27 16:12:05.872061,1709046725.8720603,-48.828125,-37.109375,-40.0390625,-31.73828125,-1.0,0.0,0.0,0.0,9.m4v,6.0
2024-02-27 16:12:05.875966,1709046725.875966,-48.828125,-31.25,-30.76171875,-25.390625,-1.0,0.0,0.0,0.0,9.m4v,6.0
2024-02-27 16:12:05.879872,1709046725.8798716,-15.625,-34.66796875,-32.71484375,-15.13671875,-1.0,0.0,0.0,0.0,9.m4v,6.0
2024-02-27 16:12:05.883777,1709046725.8837774,8.30078125,-37.59765625,-35.64453125,-12.6953125,-1.0,0.0,0.0,0.0,9.m4v,6.0
2024-02-27 16:12:06.118132,1709046726.118132,-44.921875,-24.90234375,-30.76171875,-21.97265625,-1.0,0.0,0.0,0.0,9.m4v,6.0
2024-02-27 16:12:06.122038,1709046726.1220376,-27.83203125,-34.66796875,-29.296875,-21.484375,-1.0,0.0,0.0,0.0,9.m4v,6.0
2024-02-27 16:12:06.125943,1709046726.1259432,-23.4375,-42.48046875,-28.80859375,-26.85546875,-1.0,0.0,0.0,0.0,9.m4v,6.0
2024-02-27 16:12:06.129849,1709046726.1298487,-22.94921875,-34.66796875,-26.3671875,-22.94921875,-1.0,0.0,0.0,0.0,9.m4v,6.0
2024-02-27 16:12:06.133754,1709046726.1337545,-53.7109375,-30.2734375,-25.390625,-27.83203125,-1.0,0.0,0.0,0.0,9.m4v,6.0
2024-02-27 16:12:06.137660,1709046726.13766,-59.08203125,-32.2265625,-27.34375,-33.69140625,-1.0,0.0,0.0,0.0,9.m4v,6.0
2024-02-27 16:12:06.141569,1709046726.141569,-21.484375,-25.390625,-29.296875,-31.73828125,-1.0,0.0,0.0,0.0,9.m4v,6.0
2024-02-27 16:12:06.145474,1709046726.1454744,-14.16015625,-26.3671875,-31.25,-35.64453125,-1.0,0.0,0.0,0.0,9.m4v,6.0
2024-02-27 16:12:06.149380,1709046726.14938,-34.66796875,-34.1796875,-31.25,-44.43359375,-1.0,0.0,0.0,0.0,9.m4v,6.0
2024-02-27 16:12:06.153286,1709046726.1532855,-61.03515625,-35.15625,-28.80859375,-47.8515625,-1.0,0.0,0.0,0.0,9.m4v,6.0
2024-02-27 16:12:06.157191,1709046726.1571913,-56.640625,-28.80859375,-24.4140625,-40.0390625,-1.0,0.0,0.0,0.0,9.m4v,6.0
2024-02-27 16:12:06.161097,1709046726.1610968,-12.20703125,-19.04296875,-21.97265625,-31.25,-1.0,0.0,0.0,0.0,9.m4v,6.0
2024-02-27 16:12:06.165002,1709046726.1650023,-3.90625,-26.3671875,-28.80859375,-35.64453125,-1.0,0.0,0.0,0.0,9.m4v,6.0
2024-02-27 16:12:06.168908,1709046726.168908,-30.76171875,-31.25,-29.296875,-36.1328125,-1.0,0.0,0.0,0.0,9.m4v,6.0
2024-02-27 16:12:06.172814,1709046726.1728137,-48.828125,-27.34375,-24.4140625,-28.80859375,-1.0,0.0,0.0,0.0,9.m4v,6.0
2024-02-27 16:12:06.176719,1709046726.1767192,-67.87109375,-34.1796875,-33.69140625,-30.2734375,-1.0,0.0,0.0,0.0,9.m4v,6.0
2024-02-27 16:12:06.180625,1709046726.1806247,-61.03515625,-34.1796875,-38.57421875,-37.59765625,-1.0,0.0,0.0,0.0,9.m4v,6.0
2024-02-27 16:12:06.184530,1709046726.1845305,-32.2265625,-30.2734375,-35.15625,-41.50390625,-1.0,0.0,0.0,0.0,9.m4v,6.0
2024-02-27 16:12:06.188438,1709046726.1884384,-29.78515625,-28.80859375,-36.62109375,-44.921875,-1.0,0.0,0.0,0.0,9.m4v,6.0
2024-02-27 16:12:06.192344,1709046726.192344,-59.08203125,-26.85546875,-35.64453125,-47.8515625,-1.0,0.0,0.0,0.0,9.m4v,6.0
2024-02-27 16:12:06.196249,1709046726.1962495,-75.1953125,-33.203125,-37.59765625,-41.9921875,-1.0,0.0,0.0,0.0,9.m4v,6.0
2024-02-27 16:12:06.200155,1709046726.2001553,-42.96875,-39.0625,-34.1796875,-31.25,-1.0,0.0,0.0,0.0,9.m4v,6.0
2024-02-27 16:12:06.204061,1709046726.2040608,-21.97265625,-35.15625,-29.296875,-33.69140625,-1.0,0.0,0.0,0.0,9.m4v,6.0
2024-02-27 16:12:06.207966,1709046726.2079663,-34.66796875,-28.3203125,-34.1796875,-43.45703125,-1.0,0.0,0.0,0.0,9.m4v,6.0
2024-02-27 16:12:06.239218,1709046726.239218,-44.43359375,-35.64453125,-29.78515625,-36.1328125,-1.0,0.0,0.0,0.0,9.m4v,6.0
2024-02-27 16:12:06.243124,1709046726.2431235,-20.5078125,-39.55078125,-28.3203125,-34.1796875,-1.0,0.0,0.0,0.0,9.m4v,6.0
2024-02-27 16:12:06.247029,1709046726.2470293,-34.66796875,-36.1328125,-29.78515625,-42.48046875,-1.0,0.0,0.0,0.0,9.m4v,6.0
2024-02-27 16:12:06.250935,1709046726.2509348,-46.875,-29.296875,-35.64453125,-42.96875,-1.0,0.0,0.0,0.0,9.m4v,6.0
2024-02-27 16:12:06.254840,1709046726.2548404,-48.828125,-28.80859375,-39.0625,-34.66796875,-1.0,0.0,0.0,0.0,9.m4v,6.0
2024-02-27 16:12:06.258746,1709046726.258746,-30.76171875,-36.1328125,-37.109375,-29.296875,-1.0,0.0,0.0,0.0,9.m4v,6.0
2024-02-27 16:12:06.262652,1709046726.2626517,-14.16015625,-34.1796875,-33.69140625,-32.2265625,-1.0,0.0,0.0,0.0,9.m4v,6.0
2024-02-27 16:12:06.266557,1709046726.2665572,-15.13671875,-25.87890625,-31.25,-39.0625,-1.0,0.0,0.0,0.0,9.m4v,6.0
2024-02-27 16:12:06.270463,1709046726.2704628,-24.90234375,-25.390625,-29.78515625,-35.64453125,-1.0,0.0,0.0,0.0,9.m4v,6.0
2024-02-27 16:12:06.274369,1709046726.2743683,-50.78125,-29.78515625,-28.3203125,-28.3203125,-1.0,0.0,0.0,0.0,9.m4v,6.0
2024-02-27 16:12:06.278274,1709046726.278274,-42.96875,-36.62109375,-29.78515625,-25.87890625,-1.0,0.0,0.0,0.0,9.m4v,6.0
2024-02-27 16:12:06.282184,1709046726.282184,-20.99609375,-34.66796875,-34.66796875,-29.296875,-1.0,0.0,0.0,0.0,9.m4v,6.0
2024-02-27 16:12:06.286089,1709046726.2860894,-13.671875,-25.87890625,-33.69140625,-30.2734375,-1.0,0.0,0.0,0.0,9.m4v,6.0
2024-02-27 16:12:06.289995,1709046726.2899952,-16.6015625,-27.34375,-33.69140625,-32.2265625,-1.0,0.0,0.0,0.0,9.m4v,6.0
2024-02-27 16:12:06.293901,1709046726.2939007,-40.0390625,-30.2734375,-41.50390625,-36.62109375,-1.0,0.0,0.0,0.0,9.m4v,6.0
2024-02-27 16:12:06.297806,1709046726.2978065,-28.80859375,-25.87890625,-35.64453125,-26.85546875,-1.0,0.0,0.0,0.0,9.m4v,6.0
2024-02-27 16:12:06.301712,1709046726.301712,6.34765625,-27.34375,-29.78515625,-22.4609375,-1.0,0.0,0.0,0.0,9.m4v,6.0
2024-02-27 16:12:06.305618,1709046726.3056176,7.8125,-27.34375,-33.203125,-30.76171875,-1.0,0.0,0.0,0.0,9.m4v,6.0
2024-02-27 16:12:06.309523,1709046726.309523,-16.11328125,-23.4375,-34.66796875,-37.109375,-1.0,0.0,0.0,0.0,9.m4v,6.0
2024-02-27 16:12:06.649336,1709046726.6493356,-48.33984375,-29.78515625,-38.57421875,-49.8046875,-1.0,0.0,0.0,0.0,9.m4v,6.0
2024-02-27 16:12:06.653241,1709046726.6532412,-70.80078125,-37.109375,-36.62109375,-44.921875,-1.0,0.0,0.0,0.0,9.m4v,6.0
2024-02-27 16:12:06.657151,1709046726.657151,-57.6171875,-34.1796875,-34.1796875,-32.2265625,-1.0,0.0,0.0,0.0,9.m4v,6.0
2024-02-27 16:12:06.661057,1709046726.6610568,-31.25,-29.78515625,-40.52734375,-30.2734375,-1.0,0.0,0.0,0.0,9.m4v,6.0
2024-02-27 16:12:06.664962,1709046726.6649623,-15.13671875,-33.203125,-41.50390625,-31.25,-1.0,0.0,0.0,0.0,9.m4v,6.0
2024-02-27 16:12:06.668868,1709046726.6688678,-24.90234375,-36.1328125,-33.203125,-36.1328125,-1.0,0.0,0.0,0.0,9.m4v,6.0
2024-02-27 16:12:06.672774,1709046726.6727736,-51.7578125,-32.71484375,-27.83203125,-36.1328125,-1.0,0.0,0.0,0.0,9.m4v,6.0
2024-02-27 16:12:06.676679,1709046726.6766791,-62.5,-30.2734375,-32.71484375,-32.2265625,-1.0,0.0,0.0,0.0,9.m4v,6.0
2024-02-27 16:12:06.680585,1709046726.680585,-40.52734375,-38.57421875,-37.59765625,-33.203125,-1.0,0.0,0.0,0.0,9.m4v,6.0
2024-02-27 16:12:06.684490,1709046726.6844902,-23.4375,-39.0625,-36.1328125,-34.1796875,-1.0,0.0,0.0,0.0,9.m4v,6.0
2024-02-27 16:12:06.688396,1709046726.688396,-37.59765625,-37.109375,-34.66796875,-32.71484375,-1.0,0.0,0.0,0.0,9.m4v,6.0
2024-02-27 16:12:06.692302,1709046726.6923015,-62.98828125,-41.50390625,-32.71484375,-32.2265625,-1.0,0.0,0.0,0.0,9.m4v,6.0
2024-02-27 16:12:06.696207,1709046726.696207,-65.4296875,-37.59765625,-32.71484375,-31.25,-1.0,0.0,0.0,0.0,9.m4v,6.0
2024-02-27 16:12:06.700113,1709046726.7001128,-34.1796875,-36.62109375,-28.80859375,-28.3203125,-1.0,0.0,0.0,0.0,9.m4v,6.0
2024-02-27 16:12:06.704022,1709046726.7040224,-16.11328125,-42.48046875,-26.3671875,-34.1796875,-1.0,0.0,0.0,0.0,9.m4v,6.0
2024-02-27 16:12:06.707928,1709046726.707928,-26.3671875,-42.48046875,-34.66796875,-45.41015625,-1.0,0.0,0.0,0.0,9.m4v,6.0
2024-02-27 16:12:06.711833,1709046726.7118337,-49.31640625,-38.0859375,-36.1328125,-42.48046875,-1.0,0.0,0.0,0.0,9.m4v,6.0
2024-02-27 16:12:06.715739,1709046726.7157393,-64.94140625,-37.59765625,-33.203125,-37.59765625,-1.0,0.0,0.0,0.0,9.m4v,6.0
2024-02-27 16:12:06.719645,1709046726.7196448,-37.59765625,-28.80859375,-34.66796875,-27.83203125,-1.0,0.0,0.0,0.0,9.m4v,6.0
2024-02-27 16:12:06.723550,1709046726.7235503,-14.16015625,-26.85546875,-38.0859375,-32.2265625,-1.0,0.0,0.0,0.0,9.m4v,6.0
2024-02-27 16:12:06.727456,1709046726.727456,-34.1796875,-39.0625,-46.38671875,-54.19921875,-1.0,0.0,0.0,0.0,9.m4v,6.0
2024-02-27 16:12:06.731362,1709046726.7313616,-59.5703125,-40.0390625,-47.36328125,-51.26953125,-1.0,0.0,0.0,0.0,9.m4v,6.0
2024-02-27 16:12:06.735267,1709046726.7352672,-81.54296875,-33.69140625,-42.48046875,-42.96875,-1.0,0.0,0.0,0.0,9.m4v,6.0
2024-02-27 16:12:06.739173,1709046726.7391727,-59.08203125,-35.15625,-41.015625,-40.0390625,-1.0,0.0,0.0,0.0,9.m4v,6.0
2024-02-27 16:12:06.743078,1709046726.7430785,-11.71875,-40.52734375,-34.66796875,-33.203125,-1.0,0.0,0.0,0.0,9.m4v,6.0
2024-02-27 16:12:06.746984,1709046726.746984,-11.71875,-40.52734375,-29.78515625,-37.59765625,-1.0,0.0,0.0,0.0,9.m4v,6.0
2024-02-27 16:12:06.750893,1709046726.7508934,-39.0625,-41.50390625,-30.76171875,-39.55078125,-1.0,0.0,0.0,0.0,9.m4v,6.0
2024-02-27 16:12:06.754799,1709046726.754799,-63.96484375,-42.96875,-30.76171875,-34.1796875,-1.0,0.0,0.0,0.0,9.m4v,6.0
2024-02-27 16:12:06.758705,1709046726.758705,-57.6171875,-36.1328125,-31.25,-33.69140625,-1.0,0.0,0.0,0.0,9.m4v,6.0
2024-02-27 16:12:06.762610,1709046726.7626102,-25.87890625,-27.83203125,-33.69140625,-31.73828125,-1.0,0.0,0.0,0.0,9.m4v,6.0
2024-02-27 16:12:06.766516,1709046726.7665155,-15.13671875,-26.85546875,-29.296875,-36.62109375,-1.0,0.0,0.0,0.0,9.m4v,6.0
2024-02-27 16:12:06.770421,1709046726.7704213,-28.80859375,-27.34375,-25.390625,-36.1328125,-1.0,0.0,0.0,0.0,9.m4v,6.0
2024-02-27 16:12:06.774327,1709046726.774327,-58.59375,-29.78515625,-27.83203125,-30.76171875,-1.0,0.0,0.0,0.0,9.m4v,6.0
2024-02-27 16:12:06.778233,1709046726.7782326,-48.828125,-27.83203125,-26.3671875,-25.390625,-1.0,0.0,0.0,0.0,9.m4v,6.0
2024-02-27 16:12:06.782138,1709046726.782138,-21.484375,-26.85546875,-29.296875,-22.94921875,-1.0,0.0,0.0,0.0,9.m4v,6.0
2024-02-27 16:12:06.786044,1709046726.786044,-12.6953125,-27.34375,-25.87890625,-27.83203125,-1.0,0.0,0.0,0.0,9.m4v,6.0
2024-02-27 16:12:06.789949,1709046726.7899494,-22.4609375,-32.71484375,-31.25,-36.62109375,-1.0,0.0,0.0,0.0,9.m4v,6.0
2024-02-27 16:12:06.793855,1709046726.793855,-54.19921875,-43.9453125,-43.45703125,-42.48046875,-1.0,0.0,0.0,0.0,9.m4v,6.0
2024-02-27 16:12:06.797764,1709046726.7977643,-50.29296875,-42.48046875,-39.55078125,-35.64453125,-1.0,0.0,0.0,0.0,9.m4v,6.0
2024-02-27 16:12:06.801670,1709046726.8016698,-14.6484375,-35.15625,-36.1328125,-26.3671875,-1.0,0.0,0.0,0.0,9.m4v,6.0
2024-02-27 16:12:06.805576,1709046726.8055756,-13.671875,-33.203125,-40.0390625,-33.69140625,-1.0,0.0,0.0,0.0,9.m4v,6.0
2024-02-27 16:12:06.809481,1709046726.8094811,-35.64453125,-28.80859375,-34.66796875,-38.57421875,-1.0,0.0,0.0,0.0,9.m4v,6.0
2024-02-27 16:12:06.813387,1709046726.813387,-62.98828125,-22.94921875,-27.83203125,-36.62109375,-1.0,0.0,0.0,0.0,9.m4v,6.0
2024-02-27 16:12:06.817292,1709046726.8172922,-48.828125,-27.83203125,-27.83203125,-36.62109375,-1.0,0.0,0.0,0.0,9.m4v,6.0
2024-02-27 16:12:06.821198,1709046726.821198,-11.23046875,-31.73828125,-30.76171875,-36.1328125,-1.0,0.0,0.0,0.0,9.m4v,6.0
2024-02-27 16:12:06.825104,1709046726.8251035,-12.20703125,-32.2265625,-31.25,-37.109375,-1.0,0.0,0.0,0.0,9.m4v,6.0
2024-02-27 16:12:06.829009,1709046726.829009,-30.2734375,-34.66796875,-31.73828125,-42.48046875,-1.0,0.0,0.0,0.0,9.m4v,6.0
2024-02-27 16:12:06.832915,1709046726.8329148,-48.33984375,-29.78515625,-35.64453125,-40.0390625,-1.0,0.0,0.0,0.0,9.m4v,6.0
2024-02-27 16:12:06.836820,1709046726.8368204,-49.8046875,-32.2265625,-37.59765625,-36.1328125,-1.0,0.0,0.0,0.0,9.m4v,6.0
2024-02-27 16:12:06.840726,1709046726.840726,-17.578125,-33.69140625,-34.1796875,-30.2734375,-1.0,0.0,0.0,0.0,9.m4v,6.0
2024-02-27 16:12:06.844635,1709046726.8446343,-8.30078125,-31.73828125,-33.203125,-27.83203125,-1.0,0.0,0.0,0.0,9.m4v,6.0
2024-02-27 16:12:06.848540,1709046726.8485403,-26.85546875,-33.69140625,-37.109375,-30.76171875,-1.0,0.0,0.0,0.0,9.m4v,6.0
2024-02-27 16:12:06.852446,1709046726.8524458,-37.109375,-32.71484375,-32.71484375,-29.296875,-1.0,0.0,0.0,0.0,9.m4v,6.0
2024-02-27 16:12:06.856351,1709046726.8563514,-54.6875,-34.1796875,-30.76171875,-26.3671875,-1.0,0.0,0.0,0.0,9.m4v,6.0
2024-02-27 16:12:06.860257,1709046726.8602571,-30.76171875,-31.73828125,-31.73828125,-22.4609375,-1.0,0.0,0.0,0.0,9.m4v,6.0
2024-02-27 16:12:06.864163,1709046726.8641627,0.48828125,-26.3671875,-25.87890625,-28.80859375,-1.0,0.0,0.0,0.0,9.m4v,6.0
2024-02-27 16:12:06.868068,1709046726.8680682,-10.7421875,-28.80859375,-23.4375,-32.2265625,-1.0,0.0,0.0,0.0,9.m4v,6.0
2024-02-27 16:12:06.871974,1709046726.871974,-39.0625,-34.1796875,-29.78515625,-35.64453125,-1.0,0.0,0.0,0.0,9.m4v,6.0
2024-02-27 16:12:06.875880,1709046726.8758795,-69.82421875,-36.62109375,-37.59765625,-39.0625,-1.0,0.0,0.0,0.0,9.m4v,6.0
2024-02-27 16:12:06.879785,1709046726.879785,-50.78125,-33.69140625,-41.015625,-31.73828125,-1.0,0.0,0.0,0.0,9.m4v,6.0
2024-02-27 16:12:06.883691,1709046726.8836906,-5.859375,-31.25,-34.66796875,-28.80859375,-1.0,0.0,0.0,0.0,9.m4v,6.0
2024-02-27 16:12:06.887596,1709046726.8875964,-14.16015625,-34.66796875,-31.73828125,-35.64453125,-1.0,0.0,0.0,0.0,9.m4v,6.0
2024-02-27 16:12:06.891505,1709046726.8915048,-42.48046875,-37.59765625,-40.52734375,-40.0390625,-1.0,0.0,0.0,0.0,9.m4v,6.0
2024-02-27 16:12:06.895410,1709046726.8954103,-59.08203125,-32.71484375,-43.9453125,-40.52734375,-1.0,0.0,0.0,0.0,9.m4v,6.0
2024-02-27 16:12:06.899316,1709046726.899316,-42.48046875,-28.80859375,-35.15625,-35.15625,-1.0,0.0,0.0,0.0,9.m4v,6.0
2024-02-27 16:12:06.903222,1709046726.9032216,-20.01953125,-27.83203125,-30.2734375,-34.66796875,-1.0,0.0,0.0,0.0,9.m4v,6.0
2024-02-27 16:12:06.907127,1709046726.9071271,-20.01953125,-28.3203125,-33.69140625,-39.0625,-1.0,0.0,0.0,0.0,9.m4v,6.0
2024-02-27 16:12:06.911033,1709046726.911033,-27.83203125,-30.2734375,-36.1328125,-37.59765625,-1.0,0.0,0.0,0.0,9.m4v,6.0
2024-02-27 16:12:06.914938,1709046726.9149384,-47.36328125,-35.15625,-34.66796875,-35.15625,-1.0,0.0,0.0,0.0,9.m4v,6.0
