Timestamp,Timestamp_UNIX,TP9,AF7,AF8,TP10,Valence,Arousal,Dominace,Viewed,Video,Participant
2024-02-27 09:44:35.037149,1709023475.0371487,10.25390625,-26.85546875,-7.32421875,-11.23046875,-1.0,1.0,-1.0,0.0,6.m4v,1.0
2024-02-27 09:44:35.041054,1709023475.0410545,-31.25,-27.83203125,-48.33984375,-20.5078125,-1.0,1.0,-1.0,0.0,6.m4v,1.0
2024-02-27 09:44:35.044960,1709023475.0449605,-27.83203125,-28.3203125,-44.921875,-12.6953125,-1.0,1.0,-1.0,0.0,6.m4v,1.0
2024-02-27 09:44:35.615237,1709023475.6152377,-122.0703125,-39.55078125,-38.0859375,-54.6875,-1.0,1.0,-1.0,0.0,6.m4v,1.0
2024-02-27 09:44:35.619143,1709023475.6191435,-129.39453125,-41.015625,-34.1796875,-55.6640625,-1.0,1.0,-1.0,0.0,6.m4v,1.0
2024-02-27 09:44:35.623049,1709023475.6230493,-130.859375,-49.31640625,-30.2734375,-52.24609375,-1.0,1.0,-1.0,0.0,6.m4v,1.0
2024-02-27 09:44:35.626955,1709023475.626955,-124.0234375,-41.50390625,-52.734375,-61.03515625,-1.0,1.0,-1.0,0.0,6.m4v,1.0
2024-02-27 09:44:35.630861,1709023475.6308608,-106.4453125,-16.11328125,-49.31640625,-58.59375,-1.0,1.0,-1.0,0.0,6.m4v,1.0
2024-02-27 09:44:35.634767,1709023475.6347668,-97.16796875,-3.90625,-31.25,-55.17578125,-1.0,1.0,-1.0,0.0,6.m4v,1.0
2024-02-27 09:44:35.638673,1709023475.6386726,-121.09375,-30.2734375,-29.296875,-54.19921875,-1.0,1.0,-1.0,0.0,6.m4v,1.0
2024-02-27 09:44:35.642578,1709023475.6425784,-151.85546875,-63.96484375,-33.69140625,-82.51953125,-1.0,1.0,-1.0,0.0,6.m4v,1.0
2024-02-27 09:44:35.646484,1709023475.646484,-119.62890625,-49.31640625,-12.20703125,-72.265625,-1.0,1.0,-1.0,0.0,6.m4v,1.0
2024-02-27 09:44:35.650390,1709023475.65039,-86.9140625,-19.53125,-10.25390625,-28.3203125,-1.0,1.0,-1.0,0.0,6.m4v,1.0
2024-02-27 09:44:35.654296,1709023475.654296,-102.5390625,-33.69140625,-35.15625,-39.0625,-1.0,1.0,-1.0,0.0,6.m4v,1.0
2024-02-27 09:44:35.658202,1709023475.6582017,-111.328125,-53.7109375,-36.62109375,-57.12890625,-1.0,1.0,-1.0,0.0,6.m4v,1.0
2024-02-27 09:44:35.662109,1709023475.6621091,-110.83984375,-49.31640625,-40.52734375,-73.73046875,-1.0,1.0,-1.0,0.0,6.m4v,1.0
2024-02-27 09:44:35.666015,1709023475.666015,-111.81640625,-33.69140625,-32.71484375,-68.84765625,-1.0,1.0,-1.0,0.0,6.m4v,1.0
2024-02-27 09:44:35.669921,1709023475.6699207,-91.796875,-17.08984375,-16.6015625,-34.66796875,-1.0,1.0,-1.0,0.0,6.m4v,1.0
2024-02-27 09:44:35.673826,1709023475.6738265,-61.03515625,-13.671875,-5.859375,-29.296875,-1.0,1.0,-1.0,0.0,6.m4v,1.0
2024-02-27 09:44:35.677732,1709023475.6777325,-61.03515625,-19.04296875,-16.11328125,-39.0625,-1.0,1.0,-1.0,0.0,6.m4v,1.0
2024-02-27 09:44:35.681638,1709023475.6816382,-75.1953125,-36.1328125,-37.109375,-45.41015625,-1.0,1.0,-1.0,0.0,6.m4v,1.0
2024-02-27 09:44:35.693356,1709023475.6933558,-58.59375,-50.78125,-49.31640625,-40.0390625,-1.0,1.0,-1.0,0.0,6.m4v,1.0
2024-02-27 09:44:35.701167,1709023475.701167,-41.50390625,-51.7578125,-35.64453125,-35.15625,-1.0,1.0,-1.0,0.0,6.m4v,1.0
2024-02-27 09:44:35.712886,1709023475.712886,-10.7421875,-31.73828125,-20.01953125,-29.78515625,-1.0,1.0,-1.0,0.0,6.m4v,1.0
2024-02-27 09:44:35.810536,1709023475.8105364,37.59765625,-41.015625,-25.390625,-35.64453125,-1.0,1.0,-1.0,0.0,6.m4v,1.0
2024-02-27 09:44:35.826160,1709023475.8261597,8.7890625,-52.24609375,-52.734375,-42.96875,-1.0,1.0,-1.0,0.0,6.m4v,1.0
2024-02-27 09:44:35.861314,1709023475.8613143,-23.92578125,-11.71875,-28.3203125,-39.55078125,-1.0,1.0,-1.0,0.0,6.m4v,1.0
2024-02-27 09:44:35.876938,1709023475.8769376,-22.4609375,-17.08984375,-37.59765625,-34.66796875,-1.0,1.0,-1.0,0.0,6.m4v,1.0
2024-02-27 09:44:35.892561,1709023475.892561,-55.17578125,-36.62109375,-13.18359375,-51.26953125,-1.0,1.0,-1.0,0.0,6.m4v,1.0
2024-02-27 09:44:35.908186,1709023475.9081862,-41.015625,-14.6484375,-37.59765625,-27.83203125,-1.0,1.0,-1.0,0.0,6.m4v,1.0
2024-02-27 09:44:35.923809,1709023475.9238093,-30.76171875,-45.8984375,-6.34765625,-9.765625,-1.0,1.0,-1.0,0.0,6.m4v,1.0
2024-02-27 09:44:35.931621,1709023475.931621,-121.58203125,-76.66015625,-53.7109375,-92.28515625,-1.0,1.0,-1.0,0.0,6.m4v,1.0
2024-02-27 09:44:35.935527,1709023475.9355268,-99.12109375,-45.8984375,-49.8046875,-74.70703125,-1.0,1.0,-1.0,0.0,6.m4v,1.0
2024-02-27 09:44:35.939433,1709023475.9394326,-104.98046875,-38.57421875,-44.921875,-79.1015625,-1.0,1.0,-1.0,0.0,6.m4v,1.0
2024-02-27 09:44:35.943340,1709023475.9433403,-89.84375,-34.1796875,-35.15625,-58.10546875,-1.0,1.0,-1.0,0.0,6.m4v,1.0
2024-02-27 09:44:35.947246,1709023475.947246,-58.10546875,-20.99609375,-34.1796875,-21.484375,-1.0,1.0,-1.0,0.0,6.m4v,1.0
2024-02-27 09:44:35.951152,1709023475.951152,-33.203125,-13.18359375,-29.296875,-19.04296875,-1.0,1.0,-1.0,0.0,6.m4v,1.0
2024-02-27 09:44:35.955058,1709023475.955058,-4.8828125,3.90625,-13.18359375,-12.6953125,-1.0,1.0,-1.0,0.0,6.m4v,1.0
2024-02-27 09:44:36.025364,1709023476.0253644,-80.56640625,-7.8125,-11.71875,-18.06640625,-1.0,1.0,-1.0,0.0,6.m4v,1.0
2024-02-27 09:44:36.029270,1709023476.0292702,-75.1953125,5.859375,0.9765625,-7.8125,-1.0,1.0,-1.0,0.0,6.m4v,1.0
2024-02-27 09:44:36.033176,1709023476.033176,-118.65234375,-29.78515625,-28.3203125,-66.89453125,-1.0,1.0,-1.0,0.0,6.m4v,1.0
2024-02-27 09:44:36.037083,1709023476.0370834,-149.90234375,-41.9921875,-44.43359375,-83.984375,-1.0,1.0,-1.0,0.0,6.m4v,1.0
2024-02-27 09:44:36.040989,1709023476.0409894,-136.71875,-38.0859375,-48.828125,-76.66015625,-1.0,1.0,-1.0,0.0,6.m4v,1.0
2024-02-27 09:44:36.044895,1709023476.0448952,-99.12109375,-40.0390625,-68.84765625,-60.05859375,-1.0,1.0,-1.0,0.0,6.m4v,1.0
2024-02-27 09:44:36.048801,1709023476.048801,-51.7578125,-30.76171875,-45.41015625,-12.20703125,-1.0,1.0,-1.0,0.0,6.m4v,1.0
2024-02-27 09:44:36.052707,1709023476.0527067,-79.1015625,-38.57421875,-39.55078125,-33.69140625,-1.0,1.0,-1.0,0.0,6.m4v,1.0
2024-02-27 09:44:36.158168,1709023476.1581676,-17.08984375,-4.8828125,-28.3203125,-16.6015625,-1.0,1.0,-1.0,0.0,6.m4v,1.0
2024-02-27 09:44:36.162074,1709023476.1620736,-44.43359375,-62.98828125,-51.26953125,-39.0625,-1.0,1.0,-1.0,0.0,6.m4v,1.0
2024-02-27 09:44:36.165979,1709023476.1659794,-28.3203125,-63.96484375,-40.0390625,-40.0390625,-1.0,1.0,-1.0,0.0,6.m4v,1.0
2024-02-27 09:44:36.169885,1709023476.1698852,-4.8828125,-43.45703125,-20.5078125,-26.3671875,-1.0,1.0,-1.0,0.0,6.m4v,1.0
2024-02-27 09:44:36.173791,1709023476.173791,-25.390625,-51.26953125,-37.109375,-41.015625,-1.0,1.0,-1.0,0.0,6.m4v,1.0
2024-02-27 09:44:36.177699,1709023476.177699,-26.85546875,-43.9453125,-40.0390625,-52.24609375,-1.0,1.0,-1.0,0.0,6.m4v,1.0
2024-02-27 09:44:36.181605,1709023476.1816049,-24.90234375,-33.203125,-34.66796875,-25.87890625,-1.0,1.0,-1.0,0.0,6.m4v,1.0
2024-02-27 09:44:36.185511,1709023476.1855106,-13.18359375,-16.11328125,-25.87890625,-3.41796875,-1.0,1.0,-1.0,0.0,6.m4v,1.0
2024-02-27 09:44:36.189416,1709023476.1894164,-0.9765625,-21.484375,-27.34375,-21.484375,-1.0,1.0,-1.0,0.0,6.m4v,1.0
2024-02-27 09:44:36.193322,1709023476.1933224,10.25390625,-14.6484375,-24.90234375,-27.34375,-1.0,1.0,-1.0,0.0,6.m4v,1.0
2024-02-27 09:44:36.197228,1709023476.1972282,22.4609375,5.37109375,-25.87890625,-16.6015625,-1.0,1.0,-1.0,0.0,6.m4v,1.0
2024-02-27 09:44:36.201134,1709023476.201134,15.625,-6.8359375,-32.2265625,-14.16015625,-1.0,1.0,-1.0,0.0,6.m4v,1.0
2024-02-27 09:44:36.205040,1709023476.2050395,34.66796875,-24.90234375,-15.625,-0.48828125,-1.0,1.0,-1.0,0.0,6.m4v,1.0
2024-02-27 09:44:36.208946,1709023476.2089458,20.99609375,-65.4296875,-19.04296875,-25.390625,-1.0,1.0,-1.0,0.0,6.m4v,1.0
2024-02-27 09:44:36.212852,1709023476.2128515,28.3203125,-84.9609375,-22.4609375,-49.31640625,-1.0,1.0,-1.0,0.0,6.m4v,1.0
2024-02-27 09:44:36.216757,1709023476.2167573,49.8046875,-50.78125,-19.53125,-15.13671875,-1.0,1.0,-1.0,0.0,6.m4v,1.0
2024-02-27 09:44:36.220663,1709023476.220663,35.64453125,-20.5078125,-54.6875,-5.37109375,-1.0,1.0,-1.0,0.0,6.m4v,1.0
2024-02-27 09:44:36.306596,1709023476.3065956,22.4609375,-22.94921875,-26.85546875,-13.18359375,-1.0,1.0,-1.0,0.0,6.m4v,1.0
2024-02-27 09:44:36.310501,1709023476.310501,41.50390625,-8.7890625,-24.4140625,-7.8125,-1.0,1.0,-1.0,0.0,6.m4v,1.0
2024-02-27 09:44:36.314407,1709023476.314407,37.59765625,-7.32421875,-22.4609375,-25.390625,-1.0,1.0,-1.0,0.0,6.m4v,1.0
2024-02-27 09:44:36.318315,1709023476.3183148,30.76171875,-4.8828125,-16.6015625,-8.30078125,-1.0,1.0,-1.0,0.0,6.m4v,1.0
2024-02-27 09:44:36.322221,1709023476.3222206,37.109375,-13.671875,-30.2734375,9.765625,-1.0,1.0,-1.0,0.0,6.m4v,1.0
2024-02-27 09:44:36.326126,1709023476.3261263,19.04296875,-39.0625,-51.26953125,-10.25390625,-1.0,1.0,-1.0,0.0,6.m4v,1.0
2024-02-27 09:44:36.330032,1709023476.330032,10.7421875,-47.36328125,-48.828125,-25.87890625,-1.0,1.0,-1.0,0.0,6.m4v,1.0
2024-02-27 09:44:36.333938,1709023476.333938,20.99609375,-43.9453125,-34.66796875,-26.3671875,-1.0,1.0,-1.0,0.0,6.m4v,1.0
2024-02-27 09:44:36.349561,1709023476.3495617,-14.6484375,-39.0625,-53.7109375,-35.64453125,-1.0,1.0,-1.0,0.0,6.m4v,1.0
2024-02-27 09:44:36.353467,1709023476.3534672,0.48828125,-14.16015625,-28.3203125,-47.8515625,-1.0,1.0,-1.0,0.0,6.m4v,1.0
2024-02-27 09:44:36.357373,1709023476.357373,1.46484375,-10.25390625,-20.5078125,-18.5546875,-1.0,1.0,-1.0,0.0,6.m4v,1.0
2024-02-27 09:44:36.361279,1709023476.3612788,-30.76171875,-46.875,-25.87890625,-35.15625,-1.0,1.0,-1.0,0.0,6.m4v,1.0
2024-02-27 09:44:36.365186,1709023476.3651865,-24.4140625,-46.38671875,-17.578125,-38.0859375,-1.0,1.0,-1.0,0.0,6.m4v,1.0
2024-02-27 09:44:36.369092,1709023476.3690922,-19.53125,-44.921875,-33.203125,-19.53125,-1.0,1.0,-1.0,0.0,6.m4v,1.0
2024-02-27 09:44:36.372998,1709023476.372998,-33.203125,-52.734375,-64.453125,-34.1796875,-1.0,1.0,-1.0,0.0,6.m4v,1.0
2024-02-27 09:44:36.376904,1709023476.3769038,-36.62109375,-46.38671875,-46.875,-32.71484375,-1.0,1.0,-1.0,0.0,6.m4v,1.0
2024-02-27 09:44:36.380810,1709023476.3808095,-32.2265625,-27.83203125,-21.97265625,-7.8125,-1.0,1.0,-1.0,0.0,6.m4v,1.0
2024-02-27 09:44:36.384716,1709023476.3847156,-36.62109375,-20.01953125,-31.73828125,-37.109375,-1.0,1.0,-1.0,0.0,6.m4v,1.0
2024-02-27 09:44:36.388621,1709023476.388621,-61.5234375,-37.109375,-41.50390625,-76.66015625,-1.0,1.0,-1.0,0.0,6.m4v,1.0
2024-02-27 09:44:36.392527,1709023476.392527,-76.171875,-44.921875,-28.80859375,-66.40625,-1.0,1.0,-1.0,0.0,6.m4v,1.0
2024-02-27 09:44:36.396433,1709023476.3964329,-62.98828125,-29.296875,-17.08984375,-27.83203125,-1.0,1.0,-1.0,0.0,6.m4v,1.0
2024-02-27 09:44:36.400339,1709023476.400339,-96.6796875,-42.48046875,-44.43359375,-50.29296875,-1.0,1.0,-1.0,0.0,6.m4v,1.0
2024-02-27 09:44:36.404245,1709023476.404245,-102.05078125,-31.73828125,-39.0625,-69.3359375,-1.0,1.0,-1.0,0.0,6.m4v,1.0
2024-02-27 09:44:36.408150,1709023476.4081504,-81.54296875,-23.92578125,-34.1796875,-58.59375,-1.0,1.0,-1.0,0.0,6.m4v,1.0
2024-02-27 09:44:36.412058,1709023476.412058,-77.1484375,-46.38671875,-48.33984375,-53.7109375,-1.0,1.0,-1.0,0.0,6.m4v,1.0
2024-02-27 09:44:36.415964,1709023476.4159636,-55.6640625,-47.8515625,-35.64453125,-27.34375,-1.0,1.0,-1.0,0.0,6.m4v,1.0
2024-02-27 09:44:36.548766,1709023476.5487657,0.0,-8.30078125,-19.53125,-11.71875,-1.0,1.0,-1.0,0.0,6.m4v,1.0
2024-02-27 09:44:36.552674,1709023476.5526736,-14.6484375,-39.55078125,-41.9921875,-12.6953125,-1.0,1.0,-1.0,0.0,6.m4v,1.0
2024-02-27 09:44:36.560485,1709023476.5604854,-68.84765625,-70.3125,-46.875,-55.6640625,-1.0,1.0,-1.0,0.0,6.m4v,1.0
2024-02-27 09:44:36.701101,1709023476.701101,-17.08984375,-15.625,-49.31640625,-26.3671875,-1.0,1.0,-1.0,0.0,6.m4v,1.0
2024-02-27 09:44:36.708913,1709023476.7089126,10.7421875,1.46484375,-41.50390625,-18.5546875,-1.0,1.0,-1.0,0.0,6.m4v,1.0
2024-02-27 09:44:36.712818,1709023476.7128184,-31.25,-35.64453125,-56.640625,-54.19921875,-1.0,1.0,-1.0,0.0,6.m4v,1.0
2024-02-27 09:44:36.720630,1709023476.7206302,-36.62109375,-42.48046875,-29.78515625,-31.73828125,-1.0,1.0,-1.0,0.0,6.m4v,1.0
2024-02-27 09:44:36.728442,1709023476.7284417,-22.94921875,-38.57421875,-13.18359375,-34.1796875,-1.0,1.0,-1.0,0.0,6.m4v,1.0
2024-02-27 09:44:36.732347,1709023476.7323475,-7.32421875,-25.87890625,-8.30078125,-24.90234375,-1.0,1.0,-1.0,0.0,6.m4v,1.0
2024-02-27 09:44:36.740161,1709023476.740161,-36.62109375,-38.57421875,-26.85546875,-17.578125,-1.0,1.0,-1.0,0.0,6.m4v,1.0
2024-02-27 09:44:36.744067,1709023476.7440667,-38.57421875,-12.20703125,-42.96875,-24.4140625,-1.0,1.0,-1.0,0.0,6.m4v,1.0
2024-02-27 09:44:36.751878,1709023476.7518785,-26.85546875,-21.484375,-57.6171875,-14.6484375,-1.0,1.0,-1.0,0.0,6.m4v,1.0
2024-02-27 09:44:36.755784,1709023476.7557845,-59.5703125,-34.1796875,-69.82421875,-43.9453125,-1.0,1.0,-1.0,0.0,6.m4v,1.0
2024-02-27 09:44:36.759690,1709023476.75969,-38.0859375,-26.3671875,-48.828125,-39.0625,-1.0,1.0,-1.0,0.0,6.m4v,1.0
2024-02-27 09:44:36.767502,1709023476.7675016,-46.875,-48.828125,-34.1796875,-38.0859375,-1.0,1.0,-1.0,0.0,6.m4v,1.0
2024-02-27 09:44:36.775313,1709023476.7753134,-37.109375,-32.2265625,-18.5546875,-40.0390625,-1.0,1.0,-1.0,0.0,6.m4v,1.0
2024-02-27 09:44:36.783125,1709023476.783125,-51.7578125,-45.8984375,-14.6484375,-18.5546875,-1.0,1.0,-1.0,0.0,6.m4v,1.0
2024-02-27 09:44:36.790938,1709023476.790938,-31.73828125,-41.50390625,-48.33984375,-35.64453125,-1.0,1.0,-1.0,0.0,6.m4v,1.0
2024-02-27 09:44:36.798750,1709023476.79875,-70.3125,-41.9921875,-57.12890625,-57.12890625,-1.0,1.0,-1.0,0.0,6.m4v,1.0
2024-02-27 09:44:36.806561,1709023476.8065617,-40.52734375,-29.296875,-41.015625,-27.83203125,-1.0,1.0,-1.0,0.0,6.m4v,1.0
2024-02-27 09:44:36.857339,1709023476.857339,-13.18359375,-24.90234375,-50.78125,-22.94921875,-1.0,1.0,-1.0,0.0,6.m4v,1.0
2024-02-27 09:44:37.029204,1709023477.0292037,5.859375,-28.3203125,-20.01953125,-21.484375,-1.0,1.0,-1.0,0.0,6.m4v,1.0
2024-02-27 09:44:37.033109,1709023477.0331094,2.9296875,-42.48046875,-31.73828125,-26.3671875,-1.0,1.0,-1.0,0.0,6.m4v,1.0
2024-02-27 09:44:37.037015,1709023477.0370152,-7.32421875,-36.62109375,-55.17578125,-26.85546875,-1.0,1.0,-1.0,0.0,6.m4v,1.0
2024-02-27 09:44:37.040921,1709023477.0409212,-22.4609375,-35.64453125,-55.17578125,-35.15625,-1.0,1.0,-1.0,0.0,6.m4v,1.0
2024-02-27 09:44:37.044827,1709023477.044827,-22.94921875,-41.9921875,-37.109375,-49.31640625,-1.0,1.0,-1.0,0.0,6.m4v,1.0
2024-02-27 09:44:37.048733,1709023477.0487328,-15.13671875,-45.41015625,-45.41015625,-59.08203125,-1.0,1.0,-1.0,0.0,6.m4v,1.0
2024-02-27 09:44:37.052639,1709023477.0526383,2.9296875,-40.52734375,-41.9921875,-43.9453125,-1.0,1.0,-1.0,0.0,6.m4v,1.0
2024-02-27 09:44:37.056545,1709023477.0565443,-5.37109375,-40.0390625,-40.0390625,-40.0390625,-1.0,1.0,-1.0,0.0,6.m4v,1.0
2024-02-27 09:44:37.060450,1709023477.0604503,-15.13671875,-43.9453125,-51.26953125,-36.62109375,-1.0,1.0,-1.0,0.0,6.m4v,1.0
2024-02-27 09:44:37.064356,1709023477.064356,13.671875,-24.4140625,-12.6953125,-7.8125,-1.0,1.0,-1.0,0.0,6.m4v,1.0
2024-02-27 09:44:37.361214,1709023477.3612142,-6.34765625,-10.7421875,-18.5546875,6.8359375,-1.0,1.0,-1.0,0.0,6.m4v,1.0
2024-02-27 09:44:37.365120,1709023477.36512,-7.8125,-8.30078125,-28.80859375,-10.25390625,-1.0,1.0,-1.0,0.0,6.m4v,1.0
2024-02-27 09:44:37.369026,1709023477.3690257,-35.15625,-19.53125,-50.78125,-54.6875,-1.0,1.0,-1.0,0.0,6.m4v,1.0
2024-02-27 09:44:37.372931,1709023477.3729317,-39.55078125,-48.828125,-61.5234375,-64.94140625,-1.0,1.0,-1.0,0.0,6.m4v,1.0
2024-02-27 09:44:37.376837,1709023477.3768373,-27.83203125,-56.640625,-48.828125,-42.96875,-1.0,1.0,-1.0,0.0,6.m4v,1.0
2024-02-27 09:44:37.380743,1709023477.3807433,-47.36328125,-51.7578125,-59.5703125,-37.109375,-1.0,1.0,-1.0,0.0,6.m4v,1.0
2024-02-27 09:44:37.490112,1709023477.4901118,10.25390625,-2.44140625,-19.04296875,-5.859375,-1.0,1.0,-1.0,0.0,6.m4v,1.0
2024-02-27 09:44:37.497923,1709023477.4979234,9.27734375,-29.296875,-9.27734375,20.5078125,-1.0,1.0,-1.0,0.0,6.m4v,1.0
2024-02-27 09:44:37.599478,1709023477.599478,-81.0546875,-64.453125,-58.59375,-69.3359375,-1.0,1.0,-1.0,0.0,6.m4v,1.0
2024-02-27 09:44:37.599478,1709023477.599478,-81.0546875,-64.453125,-58.59375,-69.3359375,-1.0,1.0,-1.0,0.0,6.m4v,1.0
2024-02-27 09:44:37.607290,1709023477.6072896,-18.06640625,-23.92578125,-40.0390625,-16.6015625,-1.0,1.0,-1.0,0.0,6.m4v,1.0
2024-02-27 09:44:37.607290,1709023477.6072896,-18.06640625,-23.92578125,-40.0390625,-16.6015625,-1.0,1.0,-1.0,0.0,6.m4v,1.0
2024-02-27 09:44:37.615101,1709023477.615101,-18.5546875,-16.11328125,-30.76171875,-18.5546875,-1.0,1.0,-1.0,0.0,6.m4v,1.0
2024-02-27 09:44:37.615101,1709023477.615101,-18.5546875,-16.11328125,-30.76171875,-18.5546875,-1.0,1.0,-1.0,0.0,6.m4v,1.0
2024-02-27 09:44:37.622913,1709023477.622913,-27.34375,-40.52734375,-43.45703125,-36.62109375,-1.0,1.0,-1.0,0.0,6.m4v,1.0
2024-02-27 09:44:37.622913,1709023477.622913,-27.34375,-40.52734375,-43.45703125,-36.62109375,-1.0,1.0,-1.0,0.0,6.m4v,1.0
2024-02-27 09:44:37.720563,1709023477.7205632,-25.390625,-43.9453125,-42.96875,-47.36328125,-1.0,1.0,-1.0,0.0,6.m4v,1.0
2024-02-27 09:44:37.736188,1709023477.7361884,-19.53125,-44.921875,-42.96875,-25.87890625,-1.0,1.0,-1.0,0.0,6.m4v,1.0
2024-02-27 09:44:37.744000,1709023477.7440002,-32.2265625,-11.23046875,-40.0390625,-39.55078125,-1.0,1.0,-1.0,0.0,6.m4v,1.0
2024-02-27 09:44:37.759624,1709023477.7596235,-19.04296875,-27.34375,-24.4140625,-30.2734375,-1.0,1.0,-1.0,0.0,6.m4v,1.0
2024-02-27 09:44:37.767435,1709023477.767435,-49.31640625,-41.015625,-38.57421875,-69.3359375,-1.0,1.0,-1.0,0.0,6.m4v,1.0
2024-02-27 09:44:37.783060,1709023477.7830603,-19.04296875,-40.0390625,-45.8984375,-17.08984375,-1.0,1.0,-1.0,0.0,6.m4v,1.0
2024-02-27 09:44:37.943204,1709023477.9432044,-29.296875,-39.0625,-31.73828125,-29.78515625,-1.0,1.0,-1.0,0.0,6.m4v,1.0
2024-02-27 09:44:37.947110,1709023477.9471102,-23.92578125,-15.625,-30.2734375,-38.0859375,-1.0,1.0,-1.0,0.0,6.m4v,1.0
2024-02-27 09:44:37.951016,1709023477.9510162,-35.15625,-29.296875,-42.48046875,-47.36328125,-1.0,1.0,-1.0,0.0,6.m4v,1.0
2024-02-27 09:44:37.954922,1709023477.954922,-36.1328125,-40.52734375,-45.8984375,-43.45703125,-1.0,1.0,-1.0,0.0,6.m4v,1.0
2024-02-27 09:44:38.177565,1709023478.177565,-36.62109375,-41.015625,-27.83203125,-34.1796875,-1.0,1.0,-1.0,0.0,6.m4v,1.0
2024-02-27 09:44:38.181471,1709023478.181471,-45.8984375,-51.26953125,-26.85546875,-34.66796875,-1.0,1.0,-1.0,0.0,6.m4v,1.0
2024-02-27 09:44:38.185377,1709023478.185377,-54.6875,-51.26953125,-29.78515625,-39.0625,-1.0,1.0,-1.0,0.0,6.m4v,1.0
2024-02-27 09:44:38.189283,1709023478.189283,-28.3203125,-17.578125,-36.62109375,-24.4140625,-1.0,1.0,-1.0,0.0,6.m4v,1.0
2024-02-27 09:44:38.193190,1709023478.19319,-26.3671875,-0.9765625,-42.48046875,-30.2734375,-1.0,1.0,-1.0,0.0,6.m4v,1.0
2024-02-27 09:44:38.197096,1709023478.197096,-53.22265625,-19.04296875,-47.8515625,-33.203125,-1.0,1.0,-1.0,0.0,6.m4v,1.0
2024-02-27 09:44:38.201002,1709023478.201002,-39.0625,-13.671875,-35.15625,-13.18359375,-1.0,1.0,-1.0,0.0,6.m4v,1.0
2024-02-27 09:44:38.204908,1709023478.2049077,-8.7890625,-14.6484375,-17.578125,-27.83203125,-1.0,1.0,-1.0,0.0,6.m4v,1.0
2024-02-27 09:44:38.208813,1709023478.2088134,-25.87890625,-40.0390625,-26.85546875,-54.6875,-1.0,1.0,-1.0,0.0,6.m4v,1.0
2024-02-27 09:44:38.212719,1709023478.2127194,-57.12890625,-45.8984375,-42.96875,-65.4296875,-1.0,1.0,-1.0,0.0,6.m4v,1.0
2024-02-27 09:44:38.216625,1709023478.2166252,-63.4765625,-43.45703125,-43.45703125,-57.12890625,-1.0,1.0,-1.0,0.0,6.m4v,1.0
2024-02-27 09:44:38.220531,1709023478.220531,-25.87890625,-39.55078125,-39.55078125,-18.5546875,-1.0,1.0,-1.0,0.0,6.m4v,1.0
2024-02-27 09:44:38.224437,1709023478.2244368,-9.27734375,-38.57421875,-43.9453125,-9.27734375,-1.0,1.0,-1.0,0.0,6.m4v,1.0
2024-02-27 09:44:38.228343,1709023478.2283428,-34.66796875,-26.3671875,-32.71484375,-33.203125,-1.0,1.0,-1.0,0.0,6.m4v,1.0
2024-02-27 09:44:38.232249,1709023478.2322483,-38.0859375,-19.04296875,-27.83203125,-36.62109375,-1.0,1.0,-1.0,0.0,6.m4v,1.0
2024-02-27 09:44:38.236154,1709023478.2361543,-32.71484375,-11.71875,-21.97265625,-30.76171875,-1.0,1.0,-1.0,0.0,6.m4v,1.0
2024-02-27 09:44:38.712685,1709023478.712685,-55.6640625,-12.20703125,-44.921875,-38.57421875,-1.0,1.0,-1.0,0.0,6.m4v,1.0
2024-02-27 09:44:38.716591,1709023478.7165911,-80.078125,-31.25,-49.31640625,-36.1328125,-1.0,1.0,-1.0,0.0,6.m4v,1.0
2024-02-27 09:44:38.724403,1709023478.724403,-56.640625,-18.5546875,-22.94921875,-31.73828125,-1.0,1.0,-1.0,0.0,6.m4v,1.0
2024-02-27 09:44:38.732214,1709023478.7322142,-59.5703125,-38.0859375,-35.64453125,-48.33984375,-1.0,1.0,-1.0,0.0,6.m4v,1.0
2024-02-27 09:44:38.740026,1709023478.740026,-52.24609375,-38.57421875,-19.53125,-32.2265625,-1.0,1.0,-1.0,0.0,6.m4v,1.0
2024-02-27 09:44:38.751744,1709023478.7517436,-83.49609375,-30.76171875,-38.0859375,-49.8046875,-1.0,1.0,-1.0,0.0,6.m4v,1.0
2024-02-27 09:44:38.759557,1709023478.7595575,-71.2890625,-38.0859375,-34.1796875,-50.78125,-1.0,1.0,-1.0,0.0,6.m4v,1.0
2024-02-27 09:44:38.767369,1709023478.767369,-77.1484375,-27.34375,-46.875,-46.875,-1.0,1.0,-1.0,0.0,6.m4v,1.0
2024-02-27 09:44:38.779087,1709023478.7790866,-50.29296875,-19.04296875,-18.5546875,-49.8046875,-1.0,1.0,-1.0,0.0,6.m4v,1.0
2024-02-27 09:44:39.040788,1709023479.0407884,-23.92578125,-25.87890625,-41.9921875,-13.671875,-1.0,1.0,-1.0,0.0,6.m4v,1.0
2024-02-27 09:44:39.044694,1709023479.0446942,-2.9296875,-18.06640625,-17.08984375,-19.53125,-1.0,1.0,-1.0,0.0,6.m4v,1.0
2024-02-27 09:44:39.048600,1709023479.0486002,-2.44140625,-24.4140625,-26.3671875,-33.69140625,-1.0,1.0,-1.0,0.0,6.m4v,1.0
2024-02-27 09:44:39.052506,1709023479.052506,-8.30078125,-44.921875,-61.5234375,-28.80859375,-1.0,1.0,-1.0,0.0,6.m4v,1.0
2024-02-27 09:44:39.056412,1709023479.0564115,-20.01953125,-62.5,-61.5234375,-27.83203125,-1.0,1.0,-1.0,0.0,6.m4v,1.0
2024-02-27 09:44:39.060318,1709023479.0603175,-36.62109375,-50.29296875,-55.6640625,-30.76171875,-1.0,1.0,-1.0,0.0,6.m4v,1.0
2024-02-27 09:44:39.064223,1709023479.0642233,-25.87890625,-30.76171875,-43.9453125,-21.97265625,-1.0,1.0,-1.0,0.0,6.m4v,1.0
2024-02-27 09:44:39.068129,1709023479.0681293,-0.48828125,-13.671875,-12.6953125,-25.390625,-1.0,1.0,-1.0,0.0,6.m4v,1.0
2024-02-27 09:44:39.072035,1709023479.072035,-12.6953125,-21.484375,-7.8125,-35.64453125,-1.0,1.0,-1.0,0.0,6.m4v,1.0
2024-02-27 09:44:39.075941,1709023479.0759408,-40.0390625,-35.15625,-23.4375,-40.52734375,-1.0,1.0,-1.0,0.0,6.m4v,1.0
2024-02-27 09:44:39.079847,1709023479.0798466,-47.36328125,-45.41015625,-44.43359375,-47.36328125,-1.0,1.0,-1.0,0.0,6.m4v,1.0
2024-02-27 09:44:39.083754,1709023479.0837538,-35.64453125,-49.31640625,-45.8984375,-44.43359375,-1.0,1.0,-1.0,0.0,6.m4v,1.0
2024-02-27 09:44:39.087660,1709023479.0876598,-11.71875,-35.64453125,-32.2265625,-25.390625,-1.0,1.0,-1.0,0.0,6.m4v,1.0
2024-02-27 09:44:39.091566,1709023479.0915656,1.953125,-50.78125,-27.34375,9.27734375,-1.0,1.0,-1.0,0.0,6.m4v,1.0
2024-02-27 09:44:39.095471,1709023479.0954714,6.8359375,-46.875,-20.5078125,17.578125,-1.0,1.0,-1.0,0.0,6.m4v,1.0
2024-02-27 09:44:39.099377,1709023479.0993772,0.0,-24.90234375,-19.04296875,-5.37109375,-1.0,1.0,-1.0,0.0,6.m4v,1.0
2024-02-27 09:44:39.103283,1709023479.1032832,-35.15625,-38.0859375,-36.62109375,-37.109375,-1.0,1.0,-1.0,0.0,6.m4v,1.0
2024-02-27 09:44:39.107189,1709023479.107189,-51.26953125,-39.0625,-48.33984375,-56.640625,-1.0,1.0,-1.0,0.0,6.m4v,1.0
2024-02-27 09:44:39.111095,1709023479.1110947,-40.0390625,-33.203125,-40.52734375,-37.109375,-1.0,1.0,-1.0,0.0,6.m4v,1.0
2024-02-27 09:44:39.115000,1709023479.1150005,-33.69140625,-36.62109375,-31.25,-43.45703125,-1.0,1.0,-1.0,0.0,6.m4v,1.0
2024-02-27 09:44:39.118906,1709023479.1189065,-24.4140625,-34.1796875,-29.296875,-43.45703125,-1.0,1.0,-1.0,0.0,6.m4v,1.0
2024-02-27 09:44:39.122812,1709023479.1228125,0.9765625,-8.30078125,-32.71484375,9.27734375,-1.0,1.0,-1.0,0.0,6.m4v,1.0
2024-02-27 09:44:39.126718,1709023479.126718,-2.44140625,-6.34765625,-54.6875,-4.8828125,-1.0,1.0,-1.0,0.0,6.m4v,1.0
2024-02-27 09:44:39.130626,1709023479.1306262,-4.39453125,-26.3671875,-46.875,-41.015625,-1.0,1.0,-1.0,0.0,6.m4v,1.0
2024-02-27 09:44:39.134532,1709023479.134532,-11.23046875,-44.43359375,-27.83203125,-36.1328125,-1.0,1.0,-1.0,0.0,6.m4v,1.0
2024-02-27 09:44:39.138438,1709023479.1384375,-46.875,-62.5,-30.76171875,-29.296875,-1.0,1.0,-1.0,0.0,6.m4v,1.0
2024-02-27 09:44:39.142344,1709023479.1423438,-26.85546875,-51.26953125,-17.08984375,-3.41796875,-1.0,1.0,-1.0,0.0,6.m4v,1.0
2024-02-27 09:44:39.146250,1709023479.1462495,4.39453125,-43.45703125,-8.30078125,4.39453125,-1.0,1.0,-1.0,0.0,6.m4v,1.0
2024-02-27 09:44:39.150155,1709023479.1501553,-0.9765625,-37.59765625,-8.30078125,-20.01953125,-1.0,1.0,-1.0,0.0,6.m4v,1.0
2024-02-27 09:44:39.154061,1709023479.154061,-43.9453125,-32.2265625,-39.0625,-45.41015625,-1.0,1.0,-1.0,0.0,6.m4v,1.0
2024-02-27 09:44:39.157967,1709023479.157967,-62.5,-31.73828125,-52.24609375,-50.29296875,-1.0,1.0,-1.0,0.0,6.m4v,1.0
2024-02-27 09:44:39.161873,1709023479.1618729,-39.55078125,-13.18359375,-33.69140625,-39.0625,-1.0,1.0,-1.0,0.0,6.m4v,1.0
2024-02-27 09:44:39.165779,1709023479.1657786,-14.6484375,-6.34765625,-27.34375,-31.73828125,-1.0,1.0,-1.0,0.0,6.m4v,1.0
2024-02-27 09:44:39.224370,1709023479.2243705,0.0,-40.0390625,-76.66015625,-48.33984375,-1.0,1.0,-1.0,0.0,6.m4v,1.0
2024-02-27 09:44:39.228276,1709023479.2282765,23.4375,-15.625,-59.5703125,-10.25390625,-1.0,1.0,-1.0,0.0,6.m4v,1.0
2024-02-27 09:44:39.232182,1709023479.232182,20.99609375,-12.20703125,-43.9453125,-2.44140625,-1.0,1.0,-1.0,0.0,6.m4v,1.0
2024-02-27 09:44:39.236088,1709023479.2360878,-18.5546875,-50.29296875,-59.08203125,-48.33984375,-1.0,1.0,-1.0,0.0,6.m4v,1.0
2024-02-27 09:44:39.239994,1709023479.2399938,-10.7421875,-40.0390625,-41.015625,-36.62109375,-1.0,1.0,-1.0,0.0,6.m4v,1.0
2024-02-27 09:44:39.243900,1709023479.2438996,0.0,-28.3203125,-30.2734375,-13.18359375,-1.0,1.0,-1.0,0.0,6.m4v,1.0
2024-02-27 09:44:39.247805,1709023479.2478054,-11.71875,-65.4296875,-30.76171875,-40.52734375,-1.0,1.0,-1.0,0.0,6.m4v,1.0
2024-02-27 09:44:39.251711,1709023479.2517111,-11.23046875,-60.05859375,-25.87890625,-62.98828125,-1.0,1.0,-1.0,0.0,6.m4v,1.0
2024-02-27 09:44:39.255617,1709023479.2556171,-8.7890625,-29.78515625,-23.92578125,-45.41015625,-1.0,1.0,-1.0,0.0,6.m4v,1.0
2024-02-27 09:44:39.259523,1709023479.259523,1.953125,-30.2734375,-24.4140625,-24.4140625,-1.0,1.0,-1.0,0.0,6.m4v,1.0
2024-02-27 09:44:39.263429,1709023479.2634287,16.6015625,-31.73828125,-28.80859375,-7.32421875,-1.0,1.0,-1.0,0.0,6.m4v,1.0
2024-02-27 09:44:39.790739,1709023479.7907388,-107.91015625,-39.55078125,-21.484375,-59.5703125,-1.0,1.0,-1.0,0.0,6.m4v,1.0
2024-02-27 09:44:39.794645,1709023479.7946446,-120.1171875,-40.0390625,-34.1796875,-60.05859375,-1.0,1.0,-1.0,0.0,6.m4v,1.0
2024-02-27 09:44:39.798550,1709023479.7985504,-136.23046875,-48.828125,-49.8046875,-85.44921875,-1.0,1.0,-1.0,0.0,6.m4v,1.0
2024-02-27 09:44:39.802456,1709023479.802456,-148.92578125,-55.17578125,-48.828125,-91.30859375,-1.0,1.0,-1.0,0.0,6.m4v,1.0
2024-02-27 09:44:39.810268,1709023479.810268,-108.3984375,-47.8515625,-29.78515625,-63.4765625,-1.0,1.0,-1.0,0.0,6.m4v,1.0
2024-02-27 09:44:39.814174,1709023479.8141737,-76.66015625,-23.92578125,-31.25,-20.5078125,-1.0,1.0,-1.0,0.0,6.m4v,1.0
2024-02-27 09:44:39.818079,1709023479.8180797,-74.70703125,-0.9765625,-35.15625,-25.87890625,-1.0,1.0,-1.0,0.0,6.m4v,1.0
2024-02-27 09:44:39.825891,1709023479.8258913,-104.98046875,-35.64453125,-28.80859375,-77.63671875,-1.0,1.0,-1.0,0.0,6.m4v,1.0
2024-02-27 09:44:39.829797,1709023479.829797,-104.98046875,-28.3203125,-5.859375,-57.6171875,-1.0,1.0,-1.0,0.0,6.m4v,1.0
2024-02-27 09:44:39.837610,1709023479.8376102,-103.515625,-38.0859375,-29.78515625,-70.80078125,-1.0,1.0,-1.0,0.0,6.m4v,1.0
2024-02-27 09:44:39.841516,1709023479.841516,-83.984375,-36.62109375,-24.90234375,-62.01171875,-1.0,1.0,-1.0,0.0,6.m4v,1.0
2024-02-27 09:44:39.845422,1709023479.845422,-97.65625,-40.52734375,-31.73828125,-59.5703125,-1.0,1.0,-1.0,0.0,6.m4v,1.0
2024-02-27 09:44:39.849328,1709023479.8493278,-104.4921875,-43.9453125,-39.0625,-53.22265625,-1.0,1.0,-1.0,0.0,6.m4v,1.0
2024-02-27 09:44:39.857139,1709023479.857139,-50.78125,-31.25,-34.1796875,-6.8359375,-1.0,1.0,-1.0,0.0,6.m4v,1.0
2024-02-27 09:44:39.861045,1709023479.8610451,-86.9140625,-39.55078125,-33.203125,-38.0859375,-1.0,1.0,-1.0,0.0,6.m4v,1.0
2024-02-27 09:44:39.868857,1709023479.868857,-106.93359375,-18.5546875,1.46484375,-58.10546875,-1.0,1.0,-1.0,0.0,6.m4v,1.0
2024-02-27 09:44:39.872763,1709023479.872763,-110.83984375,2.9296875,-4.8828125,-70.80078125,-1.0,1.0,-1.0,0.0,6.m4v,1.0
2024-02-27 09:44:39.876668,1709023479.8766685,-147.4609375,-18.5546875,-36.62109375,-100.09765625,-1.0,1.0,-1.0,0.0,6.m4v,1.0
2024-02-27 09:44:39.884483,1709023479.8844826,-94.23828125,-26.3671875,-52.734375,-74.70703125,-1.0,1.0,-1.0,0.0,6.m4v,1.0
2024-02-27 09:44:39.888388,1709023479.8883884,-82.51953125,-35.64453125,-43.9453125,-61.03515625,-1.0,1.0,-1.0,0.0,6.m4v,1.0
2024-02-27 09:44:39.896200,1709023479.8962,-79.58984375,-39.0625,-46.875,-27.83203125,-1.0,1.0,-1.0,0.0,6.m4v,1.0
2024-02-27 09:44:39.900106,1709023479.900106,-79.1015625,-30.2734375,-61.03515625,-33.203125,-1.0,1.0,-1.0,0.0,6.m4v,1.0
2024-02-27 09:44:39.904012,1709023479.9040115,-73.73046875,-6.34765625,-24.90234375,-48.828125,-1.0,1.0,-1.0,0.0,6.m4v,1.0
2024-02-27 09:44:39.907917,1709023479.9079175,-58.59375,3.41796875,-10.25390625,-30.76171875,-1.0,1.0,-1.0,0.0,6.m4v,1.0
2024-02-27 09:44:39.915729,1709023479.9157293,-100.09765625,-38.57421875,-46.875,-88.37890625,-1.0,1.0,-1.0,0.0,6.m4v,1.0
2024-02-27 09:44:39.923541,1709023479.9235408,-43.45703125,-50.78125,-48.828125,-58.10546875,-1.0,1.0,-1.0,0.0,6.m4v,1.0
2024-02-27 09:44:39.927449,1709023479.9274487,-9.765625,-37.59765625,-35.15625,-29.78515625,-1.0,1.0,-1.0,0.0,6.m4v,1.0
2024-02-27 09:44:39.935261,1709023479.9352603,40.0390625,-21.97265625,-10.7421875,19.04296875,-1.0,1.0,-1.0,0.0,6.m4v,1.0
2024-02-27 09:44:39.943072,1709023479.943072,33.203125,-17.578125,-12.6953125,11.23046875,-1.0,1.0,-1.0,0.0,6.m4v,1.0
2024-02-27 09:44:39.946978,1709023479.946978,54.19921875,13.18359375,-22.4609375,16.6015625,-1.0,1.0,-1.0,0.0,6.m4v,1.0
2024-02-27 09:44:39.954790,1709023479.9547896,49.8046875,-32.2265625,-29.78515625,-17.08984375,-1.0,1.0,-1.0,0.0,6.m4v,1.0
2024-02-27 09:44:39.962601,1709023479.9626012,73.73046875,-28.3203125,-44.921875,-16.11328125,-1.0,1.0,-1.0,0.0,6.m4v,1.0
2024-02-27 09:44:39.966507,1709023479.9665072,96.6796875,-35.64453125,-48.828125,-15.13671875,-1.0,1.0,-1.0,0.0,6.m4v,1.0
2024-02-27 09:44:39.974321,1709023479.974321,89.35546875,-38.0859375,-36.62109375,-7.8125,-1.0,1.0,-1.0,0.0,6.m4v,1.0
2024-02-27 09:44:39.978227,1709023479.978227,96.19140625,-29.296875,-41.015625,-16.6015625,-1.0,1.0,-1.0,0.0,6.m4v,1.0
2024-02-27 09:44:39.982132,1709023479.9821324,106.93359375,-11.71875,-20.5078125,-4.8828125,-1.0,1.0,-1.0,0.0,6.m4v,1.0
2024-02-27 09:44:39.986038,1709023479.9860384,131.8359375,-12.6953125,-2.44140625,29.78515625,-1.0,1.0,-1.0,0.0,6.m4v,1.0
2024-02-27 09:44:39.989944,1709023479.9899442,115.234375,-32.2265625,-28.3203125,10.25390625,-1.0,1.0,-1.0,0.0,6.m4v,1.0
2024-02-27 09:44:39.993850,1709023479.99385,76.171875,-41.50390625,-44.921875,-28.80859375,-1.0,1.0,-1.0,0.0,6.m4v,1.0
2024-02-27 09:44:39.997756,1709023479.9977558,64.94140625,-37.59765625,-42.48046875,-24.4140625,-1.0,1.0,-1.0,0.0,6.m4v,1.0
2024-02-27 09:44:40.001662,1709023480.0016618,100.5859375,-10.25390625,-37.109375,18.06640625,-1.0,1.0,-1.0,0.0,6.m4v,1.0
2024-02-27 09:44:40.005568,1709023480.0055676,114.2578125,-8.30078125,-39.0625,38.0859375,-1.0,1.0,-1.0,0.0,6.m4v,1.0
2024-02-27 09:44:40.571936,1709023480.571936,-74.70703125,-18.06640625,-21.484375,-45.8984375,-1.0,1.0,-1.0,0.0,6.m4v,1.0
2024-02-27 09:44:40.575842,1709023480.575842,-82.03125,-42.96875,-12.20703125,-45.41015625,-1.0,1.0,-1.0,0.0,6.m4v,1.0
2024-02-27 09:44:40.579748,1709023480.5797477,-76.66015625,-69.3359375,-36.1328125,-64.453125,-1.0,1.0,-1.0,0.0,6.m4v,1.0
2024-02-27 09:44:40.583655,1709023480.5836549,-36.62109375,-40.0390625,-36.62109375,-31.73828125,-1.0,1.0,-1.0,0.0,6.m4v,1.0
2024-02-27 09:44:40.587561,1709023480.587561,-20.99609375,-24.90234375,-20.99609375,-12.6953125,-1.0,1.0,-1.0,0.0,6.m4v,1.0
2024-02-27 09:44:40.591466,1709023480.5914664,-12.20703125,-24.90234375,-24.90234375,-7.32421875,-1.0,1.0,-1.0,0.0,6.m4v,1.0
2024-02-27 09:44:40.595372,1709023480.5953724,-7.8125,-18.06640625,-26.85546875,-19.53125,-1.0,1.0,-1.0,0.0,6.m4v,1.0
2024-02-27 09:44:40.599278,1709023480.5992782,-24.90234375,-46.875,-29.78515625,-48.33984375,-1.0,1.0,-1.0,0.0,6.m4v,1.0
2024-02-27 09:44:40.603184,1709023480.603184,-8.7890625,-45.8984375,-29.296875,-38.0859375,-1.0,1.0,-1.0,0.0,6.m4v,1.0
2024-02-27 09:44:40.607090,1709023480.6070898,11.71875,-34.66796875,-28.3203125,-24.4140625,-1.0,1.0,-1.0,0.0,6.m4v,1.0
2024-02-27 09:44:40.610996,1709023480.6109958,-7.32421875,-50.29296875,-46.38671875,-29.78515625,-1.0,1.0,-1.0,0.0,6.m4v,1.0
2024-02-27 09:44:40.614902,1709023480.6149015,-15.625,-47.8515625,-42.48046875,-44.921875,-1.0,1.0,-1.0,0.0,6.m4v,1.0
2024-02-27 09:44:40.716458,1709023480.7164576,3.90625,-44.43359375,-45.41015625,-42.96875,-1.0,1.0,-1.0,0.0,6.m4v,1.0
2024-02-27 09:44:40.720363,1709023480.7203634,20.5078125,-27.34375,-17.08984375,-23.92578125,-1.0,1.0,-1.0,0.0,6.m4v,1.0
2024-02-27 09:44:40.724271,1709023480.7242713,38.57421875,-40.0390625,-33.203125,-28.3203125,-1.0,1.0,-1.0,0.0,6.m4v,1.0
2024-02-27 09:44:40.728177,1709023480.728177,52.734375,-29.296875,-24.4140625,-4.8828125,-1.0,1.0,-1.0,0.0,6.m4v,1.0
2024-02-27 09:44:40.732083,1709023480.732083,58.10546875,-14.6484375,-19.04296875,-0.9765625,-1.0,1.0,-1.0,0.0,6.m4v,1.0
2024-02-27 09:44:40.735989,1709023480.7359889,48.828125,-26.85546875,-34.1796875,-25.87890625,-1.0,1.0,-1.0,0.0,6.m4v,1.0
2024-02-27 09:44:40.739895,1709023480.7398946,55.17578125,-15.625,-20.01953125,-9.765625,-1.0,1.0,-1.0,0.0,6.m4v,1.0
2024-02-27 09:44:40.743800,1709023480.7438004,52.24609375,-20.99609375,-14.6484375,-2.9296875,-1.0,1.0,-1.0,0.0,6.m4v,1.0
2024-02-27 09:44:40.747706,1709023480.7477064,37.109375,-48.33984375,-31.73828125,-17.08984375,-1.0,1.0,-1.0,0.0,6.m4v,1.0
2024-02-27 09:44:40.751612,1709023480.7516122,33.203125,-44.43359375,-45.41015625,-37.109375,-1.0,1.0,-1.0,0.0,6.m4v,1.0
2024-02-27 09:44:40.755518,1709023480.755518,25.87890625,-37.109375,-35.64453125,-49.8046875,-1.0,1.0,-1.0,0.0,6.m4v,1.0
2024-02-27 09:44:40.759424,1709023480.7594235,24.90234375,-34.1796875,-22.4609375,-40.0390625,-1.0,1.0,-1.0,0.0,6.m4v,1.0
2024-02-27 09:44:40.763330,1709023480.7633295,53.22265625,-25.390625,-29.78515625,-13.671875,-1.0,1.0,-1.0,0.0,6.m4v,1.0
2024-02-27 09:44:40.767236,1709023480.7672355,52.734375,-31.73828125,-42.48046875,-17.578125,-1.0,1.0,-1.0,0.0,6.m4v,1.0
2024-02-27 09:44:40.771143,1709023480.7711432,78.125,-16.11328125,-35.64453125,-7.8125,-1.0,1.0,-1.0,0.0,6.m4v,1.0
2024-02-27 09:44:40.775049,1709023480.775049,95.21484375,-29.296875,-24.90234375,6.8359375,-1.0,1.0,-1.0,0.0,6.m4v,1.0
2024-02-27 09:44:40.778955,1709023480.778955,89.84375,-41.50390625,-21.97265625,19.04296875,-1.0,1.0,-1.0,0.0,6.m4v,1.0
2024-02-27 09:44:40.782861,1709023480.7828608,91.30859375,-17.578125,-20.01953125,20.5078125,-1.0,1.0,-1.0,0.0,6.m4v,1.0
2024-02-27 09:44:40.786767,1709023480.7867663,78.125,-3.90625,-14.16015625,14.6484375,-1.0,1.0,-1.0,0.0,6.m4v,1.0
2024-02-27 09:44:40.790672,1709023480.7906723,70.3125,-10.25390625,-25.390625,-11.23046875,-1.0,1.0,-1.0,0.0,6.m4v,1.0
2024-02-27 09:44:40.794578,1709023480.7945783,42.48046875,-36.62109375,-45.41015625,-59.5703125,-1.0,1.0,-1.0,0.0,6.m4v,1.0
2024-02-27 09:44:40.798484,1709023480.798484,49.31640625,-47.8515625,-41.015625,-48.828125,-1.0,1.0,-1.0,0.0,6.m4v,1.0
2024-02-27 09:44:40.802390,1709023480.80239,95.21484375,-37.109375,-34.66796875,-4.8828125,-1.0,1.0,-1.0,0.0,6.m4v,1.0
2024-02-27 09:44:40.806296,1709023480.8062956,114.74609375,-25.390625,-44.43359375,6.34765625,-1.0,1.0,-1.0,0.0,6.m4v,1.0
2024-02-27 09:44:40.810201,1709023480.8102014,101.5625,-18.06640625,-42.48046875,6.8359375,-1.0,1.0,-1.0,0.0,6.m4v,1.0
2024-02-27 09:44:40.814107,1709023480.8141074,83.49609375,-24.4140625,-31.73828125,0.0,-1.0,1.0,-1.0,0.0,6.m4v,1.0
2024-02-27 09:44:40.818015,1709023480.8180149,87.890625,-21.97265625,-33.203125,-15.13671875,-1.0,1.0,-1.0,0.0,6.m4v,1.0
2024-02-27 09:44:40.821921,1709023480.8219209,103.02734375,-6.8359375,-22.94921875,-7.32421875,-1.0,1.0,-1.0,0.0,6.m4v,1.0
2024-02-27 09:44:40.825827,1709023480.8258266,116.2109375,-4.39453125,-16.6015625,-9.27734375,-1.0,1.0,-1.0,0.0,6.m4v,1.0
2024-02-27 09:44:40.829732,1709023480.8297324,120.1171875,-10.25390625,-30.2734375,-2.44140625,-1.0,1.0,-1.0,0.0,6.m4v,1.0
2024-02-27 09:44:40.833638,1709023480.8336382,86.42578125,-28.80859375,-14.6484375,-13.671875,-1.0,1.0,-1.0,0.0,6.m4v,1.0
2024-02-27 09:44:40.837544,1709023480.8375442,43.9453125,-46.875,-35.15625,-63.96484375,-1.0,1.0,-1.0,0.0,6.m4v,1.0
2024-02-27 09:44:40.841450,1709023480.84145,50.29296875,-46.38671875,-44.43359375,-81.0546875,-1.0,1.0,-1.0,0.0,6.m4v,1.0
2024-02-27 09:44:40.845356,1709023480.8453555,57.12890625,-32.2265625,-21.484375,-72.75390625,-1.0,1.0,-1.0,0.0,6.m4v,1.0
2024-02-27 09:44:40.849262,1709023480.8492615,19.04296875,-22.94921875,-42.96875,-93.75,-1.0,1.0,-1.0,0.0,6.m4v,1.0
2024-02-27 09:44:40.853168,1709023480.8531675,22.94921875,-18.5546875,-41.9921875,-85.9375,-1.0,1.0,-1.0,0.0,6.m4v,1.0
2024-02-27 09:44:40.857073,1709023480.8570733,28.80859375,-40.0390625,-32.71484375,-62.01171875,-1.0,1.0,-1.0,0.0,6.m4v,1.0
2024-02-27 09:44:40.860979,1709023480.860979,6.34765625,-43.45703125,-42.48046875,-76.171875,-1.0,1.0,-1.0,0.0,6.m4v,1.0
2024-02-27 09:44:40.864887,1709023480.8648863,9.765625,-8.30078125,-50.78125,-87.40234375,-1.0,1.0,-1.0,0.0,6.m4v,1.0
2024-02-27 09:44:40.868793,1709023480.8687923,5.37109375,3.41796875,-38.57421875,-89.35546875,-1.0,1.0,-1.0,0.0,6.m4v,1.0
2024-02-27 09:44:40.872698,1709023480.8726983,5.859375,7.32421875,-8.30078125,-94.7265625,-1.0,1.0,-1.0,0.0,6.m4v,1.0
2024-02-27 09:44:40.876604,1709023480.876604,12.20703125,13.18359375,-24.90234375,-80.078125,-1.0,1.0,-1.0,0.0,6.m4v,1.0
2024-02-27 09:44:40.880510,1709023480.88051,-4.39453125,-3.90625,-48.33984375,-73.2421875,-1.0,1.0,-1.0,0.0,6.m4v,1.0
2024-02-27 09:44:40.884416,1709023480.8844156,-25.390625,-29.78515625,-19.04296875,-96.19140625,-1.0,1.0,-1.0,0.0,6.m4v,1.0
2024-02-27 09:44:40.888322,1709023480.8883216,-29.296875,-38.57421875,5.37109375,-126.46484375,-1.0,1.0,-1.0,0.0,6.m4v,1.0
2024-02-27 09:44:40.892227,1709023480.8922274,-52.734375,-45.41015625,-1.46484375,-146.484375,-1.0,1.0,-1.0,0.0,6.m4v,1.0
2024-02-27 09:44:40.896133,1709023480.8961332,-89.35546875,-44.43359375,-23.92578125,-163.0859375,-1.0,1.0,-1.0,0.0,6.m4v,1.0
2024-02-27 09:44:40.900039,1709023480.900039,-97.65625,-44.43359375,-31.25,-153.80859375,-1.0,1.0,-1.0,0.0,6.m4v,1.0
2024-02-27 09:44:40.903945,1709023480.903945,-76.171875,-34.1796875,-27.83203125,-136.71875,-1.0,1.0,-1.0,0.0,6.m4v,1.0
2024-02-27 09:44:40.907851,1709023480.9078507,-59.5703125,-11.23046875,-30.76171875,-153.3203125,-1.0,1.0,-1.0,0.0,6.m4v,1.0
2024-02-27 09:44:40.911758,1709023480.9117582,-41.015625,16.11328125,-24.4140625,-118.65234375,-1.0,1.0,-1.0,0.0,6.m4v,1.0
2024-02-27 09:44:40.915664,1709023480.915664,-28.80859375,41.9921875,-5.859375,-78.61328125,-1.0,1.0,-1.0,0.0,6.m4v,1.0
2024-02-27 09:44:40.919570,1709023480.9195695,-74.70703125,7.8125,-17.08984375,-122.55859375,-1.0,1.0,-1.0,0.0,6.m4v,1.0
2024-02-27 09:44:40.923476,1709023480.9234755,-78.61328125,-21.97265625,-29.78515625,-134.765625,-1.0,1.0,-1.0,0.0,6.m4v,1.0
2024-02-27 09:44:40.927382,1709023480.9273815,-32.71484375,-26.85546875,-29.296875,-98.14453125,-1.0,1.0,-1.0,0.0,6.m4v,1.0
2024-02-27 09:44:40.931287,1709023480.9312873,-64.94140625,-41.015625,-41.015625,-125.48828125,-1.0,1.0,-1.0,0.0,6.m4v,1.0
2024-02-27 09:44:40.935193,1709023480.935193,-102.05078125,-31.73828125,-46.875,-159.66796875,-1.0,1.0,-1.0,0.0,6.m4v,1.0
2024-02-27 09:44:40.939099,1709023480.9390988,-99.609375,-24.90234375,-46.875,-152.34375,-1.0,1.0,-1.0,0.0,6.m4v,1.0
2024-02-27 09:44:40.943005,1709023480.9430048,-91.796875,-9.765625,-46.38671875,-136.23046875,-1.0,1.0,-1.0,0.0,6.m4v,1.0
2024-02-27 09:44:40.946911,1709023480.9469106,-42.96875,13.18359375,-20.01953125,-103.02734375,-1.0,1.0,-1.0,0.0,6.m4v,1.0
2024-02-27 09:44:40.950816,1709023480.9508164,-39.0625,-11.23046875,-12.6953125,-69.3359375,-1.0,1.0,-1.0,0.0,6.m4v,1.0
2024-02-27 09:44:40.954722,1709023480.9547222,-80.56640625,-45.8984375,-43.45703125,-95.703125,-1.0,1.0,-1.0,0.0,6.m4v,1.0
2024-02-27 09:44:40.958629,1709023480.9586294,-62.98828125,-26.85546875,-41.9921875,-114.2578125,-1.0,1.0,-1.0,0.0,6.m4v,1.0
2024-02-27 09:44:40.962535,1709023480.9625354,-26.3671875,-1.46484375,-15.625,-60.05859375,-1.0,1.0,-1.0,0.0,6.m4v,1.0
2024-02-27 09:44:40.966441,1709023480.9664412,-18.06640625,-30.76171875,-17.08984375,-70.80078125,-1.0,1.0,-1.0,0.0,6.m4v,1.0
2024-02-27 09:44:40.974253,1709023480.9742527,-74.21875,-63.96484375,-54.6875,-84.47265625,-1.0,1.0,-1.0,0.0,6.m4v,1.0
2024-02-27 09:44:40.978159,1709023480.9781587,-56.15234375,-33.69140625,-52.24609375,-53.7109375,-1.0,1.0,-1.0,0.0,6.m4v,1.0
2024-02-27 09:44:40.982064,1709023480.9820645,-26.3671875,-22.4609375,-47.8515625,-46.38671875,-1.0,1.0,-1.0,0.0,6.m4v,1.0
2024-02-27 09:44:40.985970,1709023480.9859705,0.0,-17.08984375,-28.3203125,-27.34375,-1.0,1.0,-1.0,0.0,6.m4v,1.0
2024-02-27 09:44:40.989876,1709023480.989876,-14.6484375,-37.109375,-34.66796875,-30.76171875,-1.0,1.0,-1.0,0.0,6.m4v,1.0
2024-02-27 09:44:40.993782,1709023480.993782,-42.48046875,-59.5703125,-68.84765625,-40.0390625,-1.0,1.0,-1.0,0.0,6.m4v,1.0
2024-02-27 09:44:40.997688,1709023480.9976878,1.46484375,-27.34375,-42.96875,5.859375,-1.0,1.0,-1.0,0.0,6.m4v,1.0
2024-02-27 09:44:41.001594,1709023481.0015936,38.57421875,-13.18359375,-16.6015625,47.8515625,-1.0,1.0,-1.0,0.0,6.m4v,1.0
2024-02-27 09:44:41.005502,1709023481.0055015,-0.9765625,-46.38671875,-46.875,11.71875,-1.0,1.0,-1.0,0.0,6.m4v,1.0
2024-02-27 09:44:41.013314,1709023481.0133135,-6.34765625,-76.66015625,-45.8984375,-9.27734375,-1.0,1.0,-1.0,0.0,6.m4v,1.0
2024-02-27 09:44:41.021125,1709023481.021125,20.5078125,-36.1328125,-25.87890625,9.765625,-1.0,1.0,-1.0,0.0,6.m4v,1.0
2024-02-27 09:44:41.028937,1709023481.0289369,15.625,-44.921875,-56.15234375,11.23046875,-1.0,1.0,-1.0,0.0,6.m4v,1.0
2024-02-27 09:44:41.032843,1709023481.0328426,18.5546875,-29.78515625,-33.203125,31.25,-1.0,1.0,-1.0,0.0,6.m4v,1.0
2024-02-27 09:44:41.036748,1709023481.0367484,26.85546875,-24.90234375,-18.5546875,26.85546875,-1.0,1.0,-1.0,0.0,6.m4v,1.0
2024-02-27 09:44:41.040654,1709023481.0406542,14.6484375,-44.921875,-35.64453125,15.13671875,-1.0,1.0,-1.0,0.0,6.m4v,1.0
2024-02-27 09:44:41.044560,1709023481.04456,19.53125,-48.33984375,-46.38671875,29.296875,-1.0,1.0,-1.0,0.0,6.m4v,1.0
2024-02-27 09:44:41.048466,1709023481.048466,40.52734375,-40.52734375,-43.9453125,54.6875,-1.0,1.0,-1.0,0.0,6.m4v,1.0
2024-02-27 09:44:41.052374,1709023481.052374,39.55078125,-47.36328125,-50.29296875,70.3125,-1.0,1.0,-1.0,0.0,6.m4v,1.0
2024-02-27 09:44:41.056280,1709023481.05628,21.484375,-57.12890625,-41.9921875,58.10546875,-1.0,1.0,-1.0,0.0,6.m4v,1.0
2024-02-27 09:44:41.060186,1709023481.0601857,22.94921875,-46.875,-36.62109375,31.25,-1.0,1.0,-1.0,0.0,6.m4v,1.0
2024-02-27 09:44:41.064091,1709023481.0640914,23.4375,-38.57421875,-34.1796875,18.06640625,-1.0,1.0,-1.0,0.0,6.m4v,1.0
2024-02-27 09:44:41.067997,1709023481.0679972,12.6953125,-33.203125,-23.92578125,4.39453125,-1.0,1.0,-1.0,0.0,6.m4v,1.0
2024-02-27 09:44:41.071903,1709023481.071903,9.27734375,-24.90234375,-33.203125,20.5078125,-1.0,1.0,-1.0,0.0,6.m4v,1.0
2024-02-27 09:44:41.075809,1709023481.075809,-12.20703125,-21.97265625,-38.0859375,33.69140625,-1.0,1.0,-1.0,0.0,6.m4v,1.0
2024-02-27 09:44:41.079715,1709023481.0797148,-15.625,-39.55078125,-26.3671875,16.6015625,-1.0,1.0,-1.0,0.0,6.m4v,1.0
2024-02-27 09:44:41.083621,1709023481.0836203,-8.30078125,-76.66015625,-35.15625,8.30078125,-1.0,1.0,-1.0,0.0,6.m4v,1.0
2024-02-27 09:44:41.087526,1709023481.0875263,4.39453125,-61.03515625,-43.45703125,27.83203125,-1.0,1.0,-1.0,0.0,6.m4v,1.0
2024-02-27 09:44:41.091432,1709023481.0914323,13.671875,-28.3203125,-33.69140625,26.3671875,-1.0,1.0,-1.0,0.0,6.m4v,1.0
2024-02-27 09:44:41.095338,1709023481.095338,-9.765625,-30.2734375,-52.24609375,7.32421875,-1.0,1.0,-1.0,0.0,6.m4v,1.0
2024-02-27 09:44:41.099247,1709023481.099247,-11.23046875,-29.296875,-49.31640625,19.04296875,-1.0,1.0,-1.0,0.0,6.m4v,1.0
2024-02-27 09:44:41.103153,1709023481.103153,11.71875,-37.109375,-32.2265625,29.296875,-1.0,1.0,-1.0,0.0,6.m4v,1.0
2024-02-27 09:44:41.107059,1709023481.1070588,30.76171875,-35.64453125,-33.203125,31.73828125,-1.0,1.0,-1.0,0.0,6.m4v,1.0
2024-02-27 09:44:41.110965,1709023481.1109643,-8.30078125,-49.8046875,-36.62109375,23.4375,-1.0,1.0,-1.0,0.0,6.m4v,1.0
2024-02-27 09:44:41.114870,1709023481.1148703,-38.57421875,-52.734375,-41.015625,10.25390625,-1.0,1.0,-1.0,0.0,6.m4v,1.0
2024-02-27 09:44:41.118776,1709023481.1187763,-26.3671875,-33.203125,-40.0390625,-11.71875,-1.0,1.0,-1.0,0.0,6.m4v,1.0
2024-02-27 09:44:41.122682,1709023481.122682,-4.8828125,-30.76171875,-30.2734375,7.8125,-1.0,1.0,-1.0,0.0,6.m4v,1.0
2024-02-27 09:44:41.126588,1709023481.126588,32.71484375,-34.66796875,-10.25390625,56.640625,-1.0,1.0,-1.0,0.0,6.m4v,1.0
2024-02-27 09:44:41.130494,1709023481.1304936,37.109375,-36.1328125,-17.08984375,37.109375,-1.0,1.0,-1.0,0.0,6.m4v,1.0
2024-02-27 09:44:41.134399,1709023481.1343994,0.48828125,-33.203125,-54.19921875,-2.9296875,-1.0,1.0,-1.0,0.0,6.m4v,1.0
2024-02-27 09:44:41.138305,1709023481.1383054,-45.8984375,-46.875,-59.5703125,-13.671875,-1.0,1.0,-1.0,0.0,6.m4v,1.0
2024-02-27 09:44:41.142211,1709023481.1422112,-64.94140625,-62.01171875,-46.875,-32.2265625,-1.0,1.0,-1.0,0.0,6.m4v,1.0
2024-02-27 09:44:41.146119,1709023481.146119,-34.66796875,-46.38671875,-22.4609375,-17.08984375,-1.0,1.0,-1.0,0.0,6.m4v,1.0
2024-02-27 09:44:41.150025,1709023481.150025,-18.06640625,-30.76171875,-12.6953125,3.41796875,-1.0,1.0,-1.0,0.0,6.m4v,1.0
2024-02-27 09:44:41.153931,1709023481.153931,-26.3671875,-31.73828125,-27.83203125,-6.8359375,-1.0,1.0,-1.0,0.0,6.m4v,1.0
2024-02-27 09:44:41.157836,1709023481.1578364,-14.16015625,-24.4140625,-35.15625,2.44140625,-1.0,1.0,-1.0,0.0,6.m4v,1.0
2024-02-27 09:44:41.161742,1709023481.1617424,-3.41796875,-12.20703125,-18.5546875,24.90234375,-1.0,1.0,-1.0,0.0,6.m4v,1.0
2024-02-27 09:44:41.165648,1709023481.1656482,8.30078125,-20.5078125,3.41796875,44.43359375,-1.0,1.0,-1.0,0.0,6.m4v,1.0
2024-02-27 09:44:41.458596,1709023481.4585965,-95.21484375,-40.52734375,-12.6953125,-79.1015625,-1.0,1.0,-1.0,0.0,6.m4v,1.0
2024-02-27 09:44:41.470314,1709023481.470314,-87.40234375,-54.6875,-53.22265625,-43.9453125,-1.0,1.0,-1.0,0.0,6.m4v,1.0
2024-02-27 09:44:41.485939,1709023481.4859393,-88.8671875,-39.55078125,-51.26953125,-57.12890625,-1.0,1.0,-1.0,0.0,6.m4v,1.0
2024-02-27 09:44:41.497657,1709023481.4976568,-49.8046875,-17.08984375,4.39453125,-19.04296875,-1.0,1.0,-1.0,0.0,6.m4v,1.0
2024-02-27 09:44:41.513280,1709023481.5132802,-92.28515625,-54.6875,-41.015625,-50.29296875,-1.0,1.0,-1.0,0.0,6.m4v,1.0
2024-02-27 09:44:41.524999,1709023481.5249994,-42.48046875,-39.55078125,-14.6484375,-8.30078125,-1.0,1.0,-1.0,0.0,6.m4v,1.0
2024-02-27 09:44:41.540623,1709023481.5406227,-122.0703125,-59.08203125,-38.0859375,-83.0078125,-1.0,1.0,-1.0,0.0,6.m4v,1.0
2024-02-27 09:44:41.552340,1709023481.5523405,-82.03125,-63.4765625,-56.15234375,-34.66796875,-1.0,1.0,-1.0,0.0,6.m4v,1.0
2024-02-27 09:44:41.556246,1709023481.556246,-67.3828125,-37.109375,-44.43359375,-7.8125,-1.0,1.0,-1.0,0.0,6.m4v,1.0
2024-02-27 09:44:41.560152,1709023481.5601518,-46.875,-32.2265625,-33.69140625,4.39453125,-1.0,1.0,-1.0,0.0,6.m4v,1.0
2024-02-27 09:44:41.978093,1709023481.978093,-24.90234375,-51.26953125,-43.45703125,-50.29296875,-1.0,1.0,-1.0,0.0,6.m4v,1.0
2024-02-27 09:44:41.981998,1709023481.9819984,-44.43359375,-69.3359375,-46.38671875,-57.6171875,-1.0,1.0,-1.0,0.0,6.m4v,1.0
2024-02-27 09:44:41.985904,1709023481.9859045,-42.96875,-58.10546875,-53.22265625,-67.87109375,-1.0,1.0,-1.0,0.0,6.m4v,1.0
2024-02-27 09:44:41.989812,1709023481.989812,5.859375,-38.0859375,-26.85546875,-41.50390625,-1.0,1.0,-1.0,0.0,6.m4v,1.0
2024-02-27 09:44:41.993718,1709023481.9937177,32.71484375,-30.76171875,-5.859375,-1.953125,-1.0,1.0,-1.0,0.0,6.m4v,1.0
2024-02-27 09:44:41.997624,1709023481.9976237,-2.44140625,-39.0625,-16.6015625,4.39453125,-1.0,1.0,-1.0,0.0,6.m4v,1.0
2024-02-27 09:44:42.001529,1709023482.0015297,-2.44140625,-17.08984375,-19.53125,10.7421875,-1.0,1.0,-1.0,0.0,6.m4v,1.0
2024-02-27 09:44:42.005435,1709023482.0054352,-3.41796875,-20.5078125,-35.64453125,-23.4375,-1.0,1.0,-1.0,0.0,6.m4v,1.0
2024-02-27 09:44:42.009341,1709023482.009341,-32.71484375,-49.31640625,-47.36328125,-64.94140625,-1.0,1.0,-1.0,0.0,6.m4v,1.0
2024-02-27 09:44:42.013247,1709023482.013247,-25.87890625,-26.3671875,-23.92578125,-57.12890625,-1.0,1.0,-1.0,0.0,6.m4v,1.0
2024-02-27 09:44:42.017153,1709023482.0171528,-22.94921875,-23.92578125,-38.57421875,-45.8984375,-1.0,1.0,-1.0,0.0,6.m4v,1.0
2024-02-27 09:44:42.021059,1709023482.0210586,-20.5078125,-35.64453125,-44.921875,-37.59765625,-1.0,1.0,-1.0,0.0,6.m4v,1.0
2024-02-27 09:44:42.024964,1709023482.0249643,23.92578125,-5.859375,0.0,4.39453125,-1.0,1.0,-1.0,0.0,6.m4v,1.0
2024-02-27 09:44:42.028870,1709023482.02887,29.296875,-1.953125,5.859375,-0.9765625,-1.0,1.0,-1.0,0.0,6.m4v,1.0
2024-02-27 09:44:42.032776,1709023482.032776,-41.50390625,-63.4765625,-49.31640625,-75.1953125,-1.0,1.0,-1.0,0.0,6.m4v,1.0
2024-02-27 09:44:42.036683,1709023482.036683,-64.453125,-71.2890625,-65.91796875,-76.66015625,-1.0,1.0,-1.0,0.0,6.m4v,1.0
2024-02-27 09:44:42.040589,1709023482.040589,-1.46484375,-30.76171875,-39.0625,-15.13671875,-1.0,1.0,-1.0,0.0,6.m4v,1.0
2024-02-27 09:44:42.044495,1709023482.044495,50.29296875,-16.6015625,-18.06640625,1.46484375,-1.0,1.0,-1.0,0.0,6.m4v,1.0
2024-02-27 09:44:42.048401,1709023482.0484009,6.34765625,-42.96875,-38.0859375,-35.15625,-1.0,1.0,-1.0,0.0,6.m4v,1.0
2024-02-27 09:44:42.052307,1709023482.052307,-12.20703125,-28.80859375,-41.015625,-24.4140625,-1.0,1.0,-1.0,0.0,6.m4v,1.0
2024-02-27 09:44:42.103084,1709023482.1030838,-35.15625,-20.99609375,-53.22265625,-74.21875,-1.0,1.0,-1.0,0.0,6.m4v,1.0
2024-02-27 09:44:42.106990,1709023482.1069896,-14.16015625,-31.25,-49.8046875,-60.546875,-1.0,1.0,-1.0,0.0,6.m4v,1.0
2024-02-27 09:44:42.110896,1709023482.1108956,-5.37109375,-34.66796875,-41.50390625,-32.71484375,-1.0,1.0,-1.0,0.0,6.m4v,1.0
2024-02-27 09:44:42.114801,1709023482.1148014,-8.7890625,-32.71484375,-32.71484375,-21.484375,-1.0,1.0,-1.0,0.0,6.m4v,1.0
2024-02-27 09:44:42.118707,1709023482.1187072,45.8984375,-13.671875,-15.13671875,15.13671875,-1.0,1.0,-1.0,0.0,6.m4v,1.0
2024-02-27 09:44:42.122613,1709023482.122613,38.57421875,-39.0625,-28.80859375,4.39453125,-1.0,1.0,-1.0,0.0,6.m4v,1.0
2024-02-27 09:44:42.126519,1709023482.126519,4.8828125,-50.29296875,-34.66796875,-32.71484375,-1.0,1.0,-1.0,0.0,6.m4v,1.0
2024-02-27 09:44:42.130427,1709023482.1304271,14.16015625,-14.16015625,-36.1328125,-26.3671875,-1.0,1.0,-1.0,0.0,6.m4v,1.0
2024-02-27 09:44:42.134333,1709023482.134333,8.30078125,-6.34765625,-54.19921875,-18.5546875,-1.0,1.0,-1.0,0.0,6.m4v,1.0
2024-02-27 09:44:42.138239,1709023482.138239,26.3671875,-0.48828125,-44.921875,3.41796875,-1.0,1.0,-1.0,0.0,6.m4v,1.0
2024-02-27 09:44:42.142144,1709023482.1421444,36.1328125,-6.34765625,-24.90234375,10.25390625,-1.0,1.0,-1.0,0.0,6.m4v,1.0
2024-02-27 09:44:42.146050,1709023482.1460505,22.94921875,-16.11328125,-24.90234375,-7.8125,-1.0,1.0,-1.0,0.0,6.m4v,1.0
2024-02-27 09:44:42.149956,1709023482.1499562,0.0,-31.73828125,-43.45703125,-34.1796875,-1.0,1.0,-1.0,0.0,6.m4v,1.0
2024-02-27 09:44:42.153862,1709023482.153862,-12.20703125,-50.29296875,-36.1328125,-34.1796875,-1.0,1.0,-1.0,0.0,6.m4v,1.0
2024-02-27 09:44:42.157768,1709023482.1577678,-0.48828125,-42.96875,-23.92578125,-22.94921875,-1.0,1.0,-1.0,0.0,6.m4v,1.0
2024-02-27 09:44:42.161674,1709023482.1616738,12.20703125,-32.71484375,-27.34375,-31.73828125,-1.0,1.0,-1.0,0.0,6.m4v,1.0
2024-02-27 09:44:42.165580,1709023482.1655796,17.08984375,-41.50390625,-23.92578125,-20.5078125,-1.0,1.0,-1.0,0.0,6.m4v,1.0
2024-02-27 09:44:42.169485,1709023482.169485,21.484375,-41.015625,-32.71484375,-9.765625,-1.0,1.0,-1.0,0.0,6.m4v,1.0
2024-02-27 09:44:42.173391,1709023482.173391,13.18359375,-28.3203125,-53.7109375,-8.7890625,-1.0,1.0,-1.0,0.0,6.m4v,1.0
2024-02-27 09:44:42.177299,1709023482.1772993,22.4609375,-11.23046875,-35.15625,4.8828125,-1.0,1.0,-1.0,0.0,6.m4v,1.0
2024-02-27 09:44:42.181205,1709023482.181205,0.0,-20.5078125,-20.01953125,-16.6015625,-1.0,1.0,-1.0,0.0,6.m4v,1.0
2024-02-27 09:44:42.185111,1709023482.1851108,-21.484375,-33.203125,-44.921875,-48.33984375,-1.0,1.0,-1.0,0.0,6.m4v,1.0
2024-02-27 09:44:42.189017,1709023482.1890166,0.48828125,-20.01953125,-43.9453125,-30.76171875,-1.0,1.0,-1.0,0.0,6.m4v,1.0
2024-02-27 09:44:42.192923,1709023482.1929226,8.30078125,-21.484375,-31.25,-18.5546875,-1.0,1.0,-1.0,0.0,6.m4v,1.0
2024-02-27 09:44:42.196828,1709023482.1968284,0.9765625,-37.109375,-30.76171875,-19.53125,-1.0,1.0,-1.0,0.0,6.m4v,1.0
2024-02-27 09:44:42.200734,1709023482.200734,12.20703125,-42.48046875,-33.203125,-15.625,-1.0,1.0,-1.0,0.0,6.m4v,1.0
2024-02-27 09:44:42.204640,1709023482.20464,17.578125,-31.73828125,-28.80859375,-21.97265625,-1.0,1.0,-1.0,0.0,6.m4v,1.0
2024-02-27 09:44:42.208546,1709023482.208546,13.18359375,-19.04296875,-20.99609375,-12.20703125,-1.0,1.0,-1.0,0.0,6.m4v,1.0
2024-02-27 09:44:42.212452,1709023482.2124517,5.859375,-23.92578125,-29.78515625,-9.27734375,-1.0,1.0,-1.0,0.0,6.m4v,1.0
2024-02-27 09:44:42.216357,1709023482.2163577,-19.04296875,-52.24609375,-39.0625,-29.296875,-1.0,1.0,-1.0,0.0,6.m4v,1.0
2024-02-27 09:44:42.220263,1709023482.2202632,-10.7421875,-44.921875,-32.71484375,-25.390625,-1.0,1.0,-1.0,0.0,6.m4v,1.0
2024-02-27 09:44:42.224171,1709023482.2241714,8.7890625,-26.85546875,-19.04296875,-18.5546875,-1.0,1.0,-1.0,0.0,6.m4v,1.0
2024-02-27 09:44:42.228077,1709023482.2280772,-17.08984375,-49.8046875,-36.62109375,-49.8046875,-1.0,1.0,-1.0,0.0,6.m4v,1.0
2024-02-27 09:44:42.778821,1709023482.778821,-79.1015625,-51.26953125,-36.1328125,-49.31640625,-1.0,1.0,-1.0,0.0,6.m4v,1.0
2024-02-27 09:44:42.782727,1709023482.7827268,-74.21875,-67.3828125,-39.55078125,-45.41015625,-1.0,1.0,-1.0,0.0,6.m4v,1.0
2024-02-27 09:44:42.794446,1709023482.7944458,-55.17578125,-34.1796875,-35.64453125,-14.16015625,-1.0,1.0,-1.0,0.0,6.m4v,1.0
2024-02-27 09:44:42.806163,1709023482.8061633,-41.9921875,-35.64453125,-34.1796875,-21.97265625,-1.0,1.0,-1.0,0.0,6.m4v,1.0
2024-02-27 09:44:42.817881,1709023482.8178809,-84.47265625,-36.62109375,-32.71484375,-48.33984375,-1.0,1.0,-1.0,0.0,6.m4v,1.0
2024-02-27 09:44:42.829598,1709023482.8295982,-53.22265625,-27.34375,-25.87890625,-39.0625,-1.0,1.0,-1.0,0.0,6.m4v,1.0
2024-02-27 09:44:42.837411,1709023482.8374114,-61.5234375,-53.22265625,-62.01171875,-42.48046875,-1.0,1.0,-1.0,0.0,6.m4v,1.0
2024-02-27 09:44:42.845223,1709023482.8452232,7.8125,5.859375,13.18359375,31.25,-1.0,1.0,-1.0,0.0,6.m4v,1.0
2024-02-27 09:44:42.853035,1709023482.8530347,-71.77734375,-49.31640625,-59.08203125,-75.1953125,-1.0,1.0,-1.0,0.0,6.m4v,1.0
2024-02-27 09:44:42.860847,1709023482.8608463,-92.28515625,-60.05859375,-44.43359375,-71.2890625,-1.0,1.0,-1.0,0.0,6.m4v,1.0
2024-02-27 09:44:42.868658,1709023482.868658,-37.109375,-18.06640625,-38.57421875,-27.83203125,-1.0,1.0,-1.0,0.0,6.m4v,1.0
2024-02-27 09:44:42.876470,1709023482.87647,-23.92578125,-10.7421875,-23.92578125,-15.13671875,-1.0,1.0,-1.0,0.0,6.m4v,1.0
2024-02-27 09:44:42.884284,1709023482.8842838,-14.6484375,-9.27734375,-35.64453125,-17.08984375,-1.0,1.0,-1.0,0.0,6.m4v,1.0
2024-02-27 09:44:42.892095,1709023482.892095,-52.24609375,-62.01171875,-42.96875,-50.29296875,-1.0,1.0,-1.0,0.0,6.m4v,1.0
2024-02-27 09:44:42.899907,1709023482.899907,-72.265625,-64.94140625,-39.0625,-63.96484375,-1.0,1.0,-1.0,0.0,6.m4v,1.0
2024-02-27 09:44:42.907719,1709023482.907719,-58.10546875,-26.85546875,-31.25,-46.875,-1.0,1.0,-1.0,0.0,6.m4v,1.0
2024-02-27 09:44:42.915530,1709023482.9155304,-41.9921875,-25.390625,-42.96875,-15.13671875,-1.0,1.0,-1.0,0.0,6.m4v,1.0
2024-02-27 09:44:42.923342,1709023482.923342,14.6484375,11.23046875,9.27734375,3.90625,-1.0,1.0,-1.0,0.0,6.m4v,1.0
2024-02-27 09:44:43.142078,1709023483.1420784,-75.68359375,-52.24609375,-39.0625,-56.15234375,-1.0,1.0,-1.0,0.0,6.m4v,1.0
2024-02-27 09:44:43.145984,1709023483.1459844,-42.48046875,-28.3203125,-13.18359375,-24.90234375,-1.0,1.0,-1.0,0.0,6.m4v,1.0
2024-02-27 09:44:43.149890,1709023483.1498902,-32.71484375,-5.859375,-27.83203125,-16.6015625,-1.0,1.0,-1.0,0.0,6.m4v,1.0
2024-02-27 09:44:43.153796,1709023483.153796,-70.80078125,-35.64453125,-61.03515625,-19.04296875,-1.0,1.0,-1.0,0.0,6.m4v,1.0
2024-02-27 09:44:43.157702,1709023483.1577015,-91.30859375,-58.59375,-42.96875,-55.6640625,-1.0,1.0,-1.0,0.0,6.m4v,1.0
2024-02-27 09:44:43.161609,1709023483.1616092,-83.49609375,-39.0625,-28.3203125,-76.171875,-1.0,1.0,-1.0,0.0,6.m4v,1.0
2024-02-27 09:44:43.165515,1709023483.165515,-50.29296875,-8.7890625,-18.5546875,-52.24609375,-1.0,1.0,-1.0,0.0,6.m4v,1.0
2024-02-27 09:44:43.169421,1709023483.169421,-36.62109375,-21.484375,-24.4140625,-50.29296875,-1.0,1.0,-1.0,0.0,6.m4v,1.0
2024-02-27 09:44:43.173327,1709023483.1733267,-45.8984375,-40.52734375,-37.59765625,-37.59765625,-1.0,1.0,-1.0,0.0,6.m4v,1.0
2024-02-27 09:44:43.177233,1709023483.1772325,-36.62109375,-28.3203125,-36.62109375,-7.8125,-1.0,1.0,-1.0,0.0,6.m4v,1.0
2024-02-27 09:44:43.181138,1709023483.1811385,-38.57421875,-36.1328125,-31.73828125,-22.94921875,-1.0,1.0,-1.0,0.0,6.m4v,1.0
2024-02-27 09:44:43.185044,1709023483.1850443,-56.15234375,-47.36328125,-25.87890625,-48.33984375,-1.0,1.0,-1.0,0.0,6.m4v,1.0
2024-02-27 09:44:43.188950,1709023483.18895,-65.91796875,-43.45703125,-31.73828125,-57.12890625,-1.0,1.0,-1.0,0.0,6.m4v,1.0
2024-02-27 09:44:43.192856,1709023483.1928558,-37.59765625,-32.2265625,-11.71875,-41.015625,-1.0,1.0,-1.0,0.0,6.m4v,1.0
2024-02-27 09:44:43.196762,1709023483.1967616,-36.62109375,-43.45703125,-28.80859375,-49.31640625,-1.0,1.0,-1.0,0.0,6.m4v,1.0
2024-02-27 09:44:43.200668,1709023483.2006676,-47.36328125,-43.45703125,-64.94140625,-37.59765625,-1.0,1.0,-1.0,0.0,6.m4v,1.0
2024-02-27 09:44:43.204573,1709023483.2045734,-15.13671875,-23.92578125,-51.26953125,-8.7890625,-1.0,1.0,-1.0,0.0,6.m4v,1.0
2024-02-27 09:44:43.208481,1709023483.2084806,25.87890625,-6.34765625,-12.20703125,-11.23046875,-1.0,1.0,-1.0,0.0,6.m4v,1.0
2024-02-27 09:44:43.212386,1709023483.2123864,7.8125,-23.92578125,-11.71875,-1.953125,-1.0,1.0,-1.0,0.0,6.m4v,1.0
2024-02-27 09:44:43.216292,1709023483.216292,-42.96875,-46.38671875,-42.48046875,-23.4375,-1.0,1.0,-1.0,0.0,6.m4v,1.0
2024-02-27 09:44:43.220198,1709023483.2201982,-54.6875,-48.33984375,-38.0859375,-58.10546875,-1.0,1.0,-1.0,0.0,6.m4v,1.0
2024-02-27 09:44:43.224104,1709023483.224104,-33.203125,-31.73828125,-12.6953125,-54.19921875,-1.0,1.0,-1.0,0.0,6.m4v,1.0
2024-02-27 09:44:43.228010,1709023483.2280097,6.34765625,6.8359375,10.25390625,-24.90234375,-1.0,1.0,-1.0,0.0,6.m4v,1.0
2024-02-27 09:44:43.231915,1709023483.2319157,-11.71875,-10.25390625,-7.32421875,-40.52734375,-1.0,1.0,-1.0,0.0,6.m4v,1.0
2024-02-27 09:44:43.235821,1709023483.2358215,-35.15625,-36.62109375,-45.41015625,-35.15625,-1.0,1.0,-1.0,0.0,6.m4v,1.0
2024-02-27 09:44:43.239727,1709023483.2397273,-16.6015625,-25.390625,-37.59765625,-8.30078125,-1.0,1.0,-1.0,0.0,6.m4v,1.0
2024-02-27 09:44:43.243633,1709023483.243633,-33.203125,-28.3203125,-15.625,-33.69140625,-1.0,1.0,-1.0,0.0,6.m4v,1.0
2024-02-27 09:44:43.247539,1709023483.2475388,-50.29296875,-38.0859375,-27.83203125,-49.8046875,-1.0,1.0,-1.0,0.0,6.m4v,1.0
2024-02-27 09:44:43.251445,1709023483.2514448,-41.015625,-52.24609375,-40.0390625,-56.640625,-1.0,1.0,-1.0,0.0,6.m4v,1.0
2024-02-27 09:44:43.255352,1709023483.255352,-20.5078125,-41.015625,-34.66796875,-26.3671875,-1.0,1.0,-1.0,0.0,6.m4v,1.0
2024-02-27 09:44:43.259258,1709023483.2592578,-17.578125,-25.390625,-42.96875,-10.7421875,-1.0,1.0,-1.0,0.0,6.m4v,1.0
2024-02-27 09:44:43.263164,1709023483.2631636,-29.296875,-37.109375,-36.1328125,-29.78515625,-1.0,1.0,-1.0,0.0,6.m4v,1.0
2024-02-27 09:44:43.267070,1709023483.2670696,-24.4140625,-31.25,-14.6484375,-33.203125,-1.0,1.0,-1.0,0.0,6.m4v,1.0
2024-02-27 09:44:43.270975,1709023483.2709754,-1.46484375,-20.99609375,0.48828125,-15.13671875,-1.0,1.0,-1.0,0.0,6.m4v,1.0
2024-02-27 09:44:43.274881,1709023483.2748811,-17.578125,-21.484375,-10.25390625,-14.6484375,-1.0,1.0,-1.0,0.0,6.m4v,1.0
2024-02-27 09:44:43.278787,1709023483.278787,-51.26953125,-24.90234375,-39.55078125,-41.015625,-1.0,1.0,-1.0,0.0,6.m4v,1.0
2024-02-27 09:44:43.282693,1709023483.282693,-60.546875,-32.2265625,-61.03515625,-51.26953125,-1.0,1.0,-1.0,0.0,6.m4v,1.0
2024-02-27 09:44:43.286599,1709023483.2865987,-75.68359375,-41.50390625,-58.10546875,-60.05859375,-1.0,1.0,-1.0,0.0,6.m4v,1.0
2024-02-27 09:44:43.290504,1709023483.2905045,-67.87109375,-48.33984375,-48.828125,-47.36328125,-1.0,1.0,-1.0,0.0,6.m4v,1.0
2024-02-27 09:44:43.294410,1709023483.2944102,-33.69140625,-39.55078125,-33.203125,-7.8125,-1.0,1.0,-1.0,0.0,6.m4v,1.0
2024-02-27 09:44:43.298316,1709023483.298316,-28.80859375,-37.59765625,-34.1796875,-19.04296875,-1.0,1.0,-1.0,0.0,6.m4v,1.0
2024-02-27 09:44:43.302224,1709023483.3022242,-28.80859375,-30.76171875,-36.62109375,-37.109375,-1.0,1.0,-1.0,0.0,6.m4v,1.0
2024-02-27 09:44:43.306130,1709023483.3061302,-21.97265625,-25.390625,-27.83203125,-40.0390625,-1.0,1.0,-1.0,0.0,6.m4v,1.0
2024-02-27 09:44:43.310036,1709023483.310036,-16.11328125,-35.15625,-45.41015625,-31.25,-1.0,1.0,-1.0,0.0,6.m4v,1.0
2024-02-27 09:44:43.313942,1709023483.3139417,-12.6953125,-31.25,-60.546875,-16.6015625,-1.0,1.0,-1.0,0.0,6.m4v,1.0
2024-02-27 09:44:43.317847,1709023483.3178475,-0.48828125,-25.390625,-36.62109375,-19.04296875,-1.0,1.0,-1.0,0.0,6.m4v,1.0
2024-02-27 09:44:43.321754,1709023483.3217535,1.953125,-20.99609375,-20.99609375,-16.11328125,-1.0,1.0,-1.0,0.0,6.m4v,1.0
2024-02-27 09:44:43.325659,1709023483.3256593,-38.0859375,-45.8984375,-53.22265625,-45.8984375,-1.0,1.0,-1.0,0.0,6.m4v,1.0
2024-02-27 09:44:43.329565,1709023483.329565,-48.828125,-53.7109375,-45.41015625,-67.3828125,-1.0,1.0,-1.0,0.0,6.m4v,1.0
2024-02-27 09:44:43.333471,1709023483.3334708,-32.71484375,-31.73828125,-13.671875,-57.6171875,-1.0,1.0,-1.0,0.0,6.m4v,1.0
2024-02-27 09:44:43.337377,1709023483.3373768,-12.20703125,-24.4140625,-7.8125,-10.7421875,-1.0,1.0,-1.0,0.0,6.m4v,1.0
2024-02-27 09:44:43.341283,1709023483.3412826,-18.06640625,-35.64453125,-20.01953125,-0.48828125,-1.0,1.0,-1.0,0.0,6.m4v,1.0
2024-02-27 09:44:43.442841,1709023483.4428408,-24.90234375,-9.765625,-48.33984375,-29.296875,-1.0,1.0,-1.0,0.0,6.m4v,1.0
2024-02-27 09:44:43.446747,1709023483.4467466,8.30078125,0.48828125,-39.55078125,-14.6484375,-1.0,1.0,-1.0,0.0,6.m4v,1.0
2024-02-27 09:44:43.450652,1709023483.4506524,37.59765625,4.39453125,10.25390625,15.13671875,-1.0,1.0,-1.0,0.0,6.m4v,1.0
2024-02-27 09:44:43.458464,1709023483.458464,-75.1953125,-42.96875,-38.0859375,-88.8671875,-1.0,1.0,-1.0,0.0,6.m4v,1.0
2024-02-27 09:44:43.462370,1709023483.46237,-57.12890625,-51.7578125,-46.38671875,-56.640625,-1.0,1.0,-1.0,0.0,6.m4v,1.0
2024-02-27 09:44:43.466276,1709023483.4662757,-27.34375,-47.36328125,-56.15234375,-14.6484375,-1.0,1.0,-1.0,0.0,6.m4v,1.0
2024-02-27 09:44:43.470181,1709023483.4701817,-27.34375,-60.546875,-52.24609375,-43.45703125,-1.0,1.0,-1.0,0.0,6.m4v,1.0
2024-02-27 09:44:43.474087,1709023483.4740872,-26.3671875,-52.734375,-22.94921875,-42.48046875,-1.0,1.0,-1.0,0.0,6.m4v,1.0
2024-02-27 09:44:43.477993,1709023483.4779932,-30.76171875,-25.390625,-27.83203125,-39.0625,-1.0,1.0,-1.0,0.0,6.m4v,1.0
2024-02-27 09:44:43.481899,1709023483.481899,-23.92578125,-20.5078125,-43.9453125,-46.875,-1.0,1.0,-1.0,0.0,6.m4v,1.0
2024-02-27 09:44:43.485805,1709023483.4858048,-7.8125,-18.06640625,-53.7109375,-33.203125,-1.0,1.0,-1.0,0.0,6.m4v,1.0
2024-02-27 09:44:43.489712,1709023483.4897125,11.71875,-4.8828125,-16.6015625,-4.39453125,-1.0,1.0,-1.0,0.0,6.m4v,1.0
2024-02-27 09:44:43.493618,1709023483.4936182,-37.109375,-25.87890625,-7.8125,-34.66796875,-1.0,1.0,-1.0,0.0,6.m4v,1.0
2024-02-27 09:44:43.497524,1709023483.497524,-62.01171875,-46.875,-33.203125,-54.6875,-1.0,1.0,-1.0,0.0,6.m4v,1.0
2024-02-27 09:44:43.501430,1709023483.50143,-15.625,-26.85546875,-10.25390625,-22.4609375,-1.0,1.0,-1.0,0.0,6.m4v,1.0
2024-02-27 09:44:43.505336,1709023483.5053358,-5.859375,-37.59765625,-11.71875,-24.90234375,-1.0,1.0,-1.0,0.0,6.m4v,1.0
2024-02-27 09:44:43.509242,1709023483.5092416,-21.97265625,-55.6640625,-37.109375,-30.2734375,-1.0,1.0,-1.0,0.0,6.m4v,1.0
2024-02-27 09:44:43.513147,1709023483.5131474,-50.78125,-58.59375,-53.22265625,-43.45703125,-1.0,1.0,-1.0,0.0,6.m4v,1.0
2024-02-27 09:44:43.517053,1709023483.5170534,-54.19921875,-48.828125,-54.19921875,-40.0390625,-1.0,1.0,-1.0,0.0,6.m4v,1.0
2024-02-27 09:44:43.520959,1709023483.5209591,-35.15625,-34.1796875,-48.828125,-35.15625,-1.0,1.0,-1.0,0.0,6.m4v,1.0
2024-02-27 09:44:43.524865,1709023483.524865,-5.37109375,-14.16015625,-33.69140625,-19.53125,-1.0,1.0,-1.0,0.0,6.m4v,1.0
2024-02-27 09:44:43.528771,1709023483.5287707,21.97265625,-2.9296875,-15.13671875,1.953125,-1.0,1.0,-1.0,0.0,6.m4v,1.0
2024-02-27 09:44:43.532677,1709023483.5326767,4.39453125,-12.6953125,-28.3203125,-11.71875,-1.0,1.0,-1.0,0.0,6.m4v,1.0
2024-02-27 09:44:43.536584,1709023483.536584,-35.64453125,-24.90234375,-43.45703125,-27.34375,-1.0,1.0,-1.0,0.0,6.m4v,1.0
2024-02-27 09:44:43.540490,1709023483.5404897,-37.59765625,-36.1328125,-28.80859375,-36.1328125,-1.0,1.0,-1.0,0.0,6.m4v,1.0
2024-02-27 09:44:43.544395,1709023483.5443954,-20.5078125,-25.390625,-21.484375,-33.203125,-1.0,1.0,-1.0,0.0,6.m4v,1.0
2024-02-27 09:44:43.548301,1709023483.5483017,-13.671875,-13.671875,-26.3671875,-23.92578125,-1.0,1.0,-1.0,0.0,6.m4v,1.0
2024-02-27 09:44:43.552207,1709023483.5522072,-35.64453125,-38.0859375,-42.48046875,-24.90234375,-1.0,1.0,-1.0,0.0,6.m4v,1.0
2024-02-27 09:44:43.556113,1709023483.556113,-36.62109375,-41.50390625,-47.8515625,-25.390625,-1.0,1.0,-1.0,0.0,6.m4v,1.0
2024-02-27 09:44:43.560019,1709023483.5600188,-9.27734375,-32.71484375,-24.4140625,-7.8125,-1.0,1.0,-1.0,0.0,6.m4v,1.0
2024-02-27 09:44:43.563925,1709023483.5639248,-19.04296875,-49.31640625,-13.671875,-23.4375,-1.0,1.0,-1.0,0.0,6.m4v,1.0
2024-02-27 09:44:43.567831,1709023483.5678306,-44.921875,-60.05859375,-38.57421875,-51.7578125,-1.0,1.0,-1.0,0.0,6.m4v,1.0
2024-02-27 09:44:43.571736,1709023483.5717363,-39.0625,-44.921875,-69.3359375,-44.43359375,-1.0,1.0,-1.0,0.0,6.m4v,1.0
2024-02-27 09:44:43.575642,1709023483.575642,-30.2734375,-20.01953125,-57.12890625,-38.0859375,-1.0,1.0,-1.0,0.0,6.m4v,1.0
2024-02-27 09:44:43.579548,1709023483.579548,-40.0390625,-17.578125,-36.1328125,-45.8984375,-1.0,1.0,-1.0,0.0,6.m4v,1.0
2024-02-27 09:44:43.583455,1709023483.583455,-8.30078125,-2.9296875,-6.34765625,-16.6015625,-1.0,1.0,-1.0,0.0,6.m4v,1.0
2024-02-27 09:44:43.587361,1709023483.587361,13.671875,4.39453125,7.8125,-5.859375,-1.0,1.0,-1.0,0.0,6.m4v,1.0
2024-02-27 09:44:43.591267,1709023483.5912669,-19.53125,-24.90234375,-19.53125,-53.7109375,-1.0,1.0,-1.0,0.0,6.m4v,1.0
2024-02-27 09:44:43.595173,1709023483.5951726,-59.08203125,-47.36328125,-35.15625,-73.73046875,-1.0,1.0,-1.0,0.0,6.m4v,1.0
2024-02-27 09:44:43.599079,1709023483.599079,-58.59375,-44.43359375,-46.38671875,-58.10546875,-1.0,1.0,-1.0,0.0,6.m4v,1.0
2024-02-27 09:44:43.602984,1709023483.6029844,-36.62109375,-37.109375,-39.55078125,-34.66796875,-1.0,1.0,-1.0,0.0,6.m4v,1.0
2024-02-27 09:44:43.606890,1709023483.6068902,-21.97265625,-29.78515625,-22.94921875,0.9765625,-1.0,1.0,-1.0,0.0,6.m4v,1.0
2024-02-27 09:44:43.610796,1709023483.610796,-14.6484375,-26.3671875,-34.66796875,2.44140625,-1.0,1.0,-1.0,0.0,6.m4v,1.0
2024-02-27 09:44:43.614702,1709023483.614702,-29.78515625,-35.64453125,-53.22265625,-41.50390625,-1.0,1.0,-1.0,0.0,6.m4v,1.0
2024-02-27 09:44:43.618608,1709023483.6186078,-31.73828125,-29.78515625,-55.17578125,-30.2734375,-1.0,1.0,-1.0,0.0,6.m4v,1.0
2024-02-27 09:44:43.622514,1709023483.6225135,-39.55078125,-42.96875,-55.17578125,-30.76171875,-1.0,1.0,-1.0,0.0,6.m4v,1.0
2024-02-27 09:44:43.626419,1709023483.6264193,-38.57421875,-39.0625,-46.875,-50.29296875,-1.0,1.0,-1.0,0.0,6.m4v,1.0
2024-02-27 09:44:43.630327,1709023483.6303277,-28.80859375,-19.53125,-39.55078125,-56.640625,-1.0,1.0,-1.0,0.0,6.m4v,1.0
2024-02-27 09:44:43.634233,1709023483.6342337,-41.015625,-21.97265625,-27.34375,-68.359375,-1.0,1.0,-1.0,0.0,6.m4v,1.0
2024-02-27 09:44:43.638139,1709023483.6381392,-51.7578125,-30.2734375,-26.85546875,-60.05859375,-1.0,1.0,-1.0,0.0,6.m4v,1.0
2024-02-27 09:44:43.642045,1709023483.642045,-6.8359375,-22.4609375,-17.08984375,-30.76171875,-1.0,1.0,-1.0,0.0,6.m4v,1.0
2024-02-27 09:44:43.645951,1709023483.6459508,14.16015625,-16.11328125,-7.32421875,-13.18359375,-1.0,1.0,-1.0,0.0,6.m4v,1.0
2024-02-27 09:44:43.649857,1709023483.6498566,-14.6484375,-35.15625,-18.5546875,-12.6953125,-1.0,1.0,-1.0,0.0,6.m4v,1.0
2024-02-27 09:44:43.653763,1709023483.6537626,-22.4609375,-45.41015625,-25.87890625,-24.90234375,-1.0,1.0,-1.0,0.0,6.m4v,1.0
2024-02-27 09:44:43.657668,1709023483.6576684,-40.52734375,-29.296875,-52.24609375,-31.25,-1.0,1.0,-1.0,0.0,6.m4v,1.0
2024-02-27 09:44:43.661574,1709023483.661574,-23.92578125,-13.18359375,-52.24609375,-12.6953125,-1.0,1.0,-1.0,0.0,6.m4v,1.0
2024-02-27 09:44:43.665480,1709023483.66548,-8.7890625,-20.01953125,-17.08984375,-19.53125,-1.0,1.0,-1.0,0.0,6.m4v,1.0
2024-02-27 09:44:43.669386,1709023483.669386,-28.80859375,-39.55078125,-33.203125,-47.8515625,-1.0,1.0,-1.0,0.0,6.m4v,1.0
2024-02-27 09:44:43.673292,1709023483.6732917,-45.8984375,-35.64453125,-42.96875,-44.921875,-1.0,1.0,-1.0,0.0,6.m4v,1.0
2024-02-27 09:44:43.677200,1709023483.6771996,-49.31640625,-31.73828125,-36.1328125,-39.55078125,-1.0,1.0,-1.0,0.0,6.m4v,1.0
2024-02-27 09:44:43.681106,1709023483.6811056,-52.734375,-44.921875,-40.0390625,-47.8515625,-1.0,1.0,-1.0,0.0,6.m4v,1.0
2024-02-27 09:44:43.685011,1709023483.6850114,-46.38671875,-41.50390625,-36.1328125,-31.25,-1.0,1.0,-1.0,0.0,6.m4v,1.0
2024-02-27 09:44:43.688917,1709023483.6889172,-36.1328125,-34.66796875,-56.15234375,-25.390625,-1.0,1.0,-1.0,0.0,6.m4v,1.0
2024-02-27 09:44:43.692823,1709023483.692823,-38.0859375,-41.015625,-61.03515625,-30.76171875,-1.0,1.0,-1.0,0.0,6.m4v,1.0
2024-02-27 09:44:43.696729,1709023483.696729,-42.48046875,-51.26953125,-41.9921875,-30.76171875,-1.0,1.0,-1.0,0.0,6.m4v,1.0
2024-02-27 09:44:43.700635,1709023483.7006347,-32.2265625,-38.57421875,-23.4375,-16.6015625,-1.0,1.0,-1.0,0.0,6.m4v,1.0
2024-02-27 09:44:43.704540,1709023483.7045405,-24.90234375,-30.76171875,-14.6484375,-19.53125,-1.0,1.0,-1.0,0.0,6.m4v,1.0
2024-02-27 09:44:43.708446,1709023483.7084465,-45.41015625,-38.57421875,-41.9921875,-34.1796875,-1.0,1.0,-1.0,0.0,6.m4v,1.0
2024-02-27 09:44:43.747507,1709023483.7475069,-39.0625,-53.22265625,-20.99609375,-39.55078125,-1.0,1.0,-1.0,0.0,6.m4v,1.0
2024-02-27 09:44:43.751413,1709023483.7514126,-4.8828125,-15.625,-2.9296875,-12.6953125,-1.0,1.0,-1.0,0.0,6.m4v,1.0
2024-02-27 09:44:43.755318,1709023483.7553184,-22.4609375,-11.23046875,-9.765625,-2.9296875,-1.0,1.0,-1.0,0.0,6.m4v,1.0
2024-02-27 09:44:43.759224,1709023483.7592244,-35.15625,-25.390625,-40.52734375,-13.18359375,-1.0,1.0,-1.0,0.0,6.m4v,1.0
2024-02-27 09:44:43.763130,1709023483.7631302,-28.3203125,-20.99609375,-37.59765625,-33.69140625,-1.0,1.0,-1.0,0.0,6.m4v,1.0
2024-02-27 09:44:43.767036,1709023483.767036,-29.296875,-11.71875,-21.97265625,-31.25,-1.0,1.0,-1.0,0.0,6.m4v,1.0
2024-02-27 09:44:43.770944,1709023483.770944,-46.38671875,-30.76171875,-18.06640625,-55.6640625,-1.0,1.0,-1.0,0.0,6.m4v,1.0
2024-02-27 09:44:43.774850,1709023483.7748497,-67.87109375,-44.921875,-24.90234375,-55.6640625,-1.0,1.0,-1.0,0.0,6.m4v,1.0
2024-02-27 09:44:43.778755,1709023483.7787554,-72.75390625,-46.875,-39.0625,-47.8515625,-1.0,1.0,-1.0,0.0,6.m4v,1.0
2024-02-27 09:44:43.782661,1709023483.7826612,-60.05859375,-51.26953125,-35.15625,-62.01171875,-1.0,1.0,-1.0,0.0,6.m4v,1.0
2024-02-27 09:44:43.786567,1709023483.786567,-34.1796875,-41.50390625,-42.96875,-35.64453125,-1.0,1.0,-1.0,0.0,6.m4v,1.0
2024-02-27 09:44:43.790473,1709023483.790473,-22.4609375,-30.2734375,-52.24609375,-14.6484375,-1.0,1.0,-1.0,0.0,6.m4v,1.0
2024-02-27 09:44:43.794379,1709023483.7943788,-43.45703125,-35.15625,-28.80859375,-31.73828125,-1.0,1.0,-1.0,0.0,6.m4v,1.0
2024-02-27 09:44:43.798285,1709023483.7982843,-30.2734375,-25.87890625,-9.765625,0.48828125,-1.0,1.0,-1.0,0.0,6.m4v,1.0
2024-02-27 09:44:43.802190,1709023483.8021903,-28.80859375,-20.01953125,-29.296875,-1.953125,-1.0,1.0,-1.0,0.0,6.m4v,1.0
2024-02-27 09:44:43.806096,1709023483.8060963,-43.9453125,-24.90234375,-22.94921875,-39.0625,-1.0,1.0,-1.0,0.0,6.m4v,1.0
2024-02-27 09:44:43.810002,1709023483.810002,-44.921875,-40.52734375,-2.44140625,-42.48046875,-1.0,1.0,-1.0,0.0,6.m4v,1.0
2024-02-27 09:44:43.813908,1709023483.813908,-66.89453125,-55.6640625,-12.20703125,-48.33984375,-1.0,1.0,-1.0,0.0,6.m4v,1.0
2024-02-27 09:44:43.817816,1709023483.8178155,-87.40234375,-57.12890625,-30.76171875,-62.98828125,-1.0,1.0,-1.0,0.0,6.m4v,1.0
2024-02-27 09:44:43.821721,1709023483.8217213,-86.9140625,-46.875,-41.015625,-65.91796875,-1.0,1.0,-1.0,0.0,6.m4v,1.0
2024-02-27 09:44:43.825627,1709023483.825627,-79.1015625,-28.3203125,-53.7109375,-75.1953125,-1.0,1.0,-1.0,0.0,6.m4v,1.0
2024-02-27 09:44:43.829533,1709023483.829533,-71.77734375,-29.78515625,-48.828125,-65.91796875,-1.0,1.0,-1.0,0.0,6.m4v,1.0
2024-02-27 09:44:43.833439,1709023483.8334389,-41.9921875,-21.484375,-42.48046875,-28.3203125,-1.0,1.0,-1.0,0.0,6.m4v,1.0
2024-02-27 09:44:43.837345,1709023483.8373446,-16.11328125,0.9765625,-51.26953125,9.765625,-1.0,1.0,-1.0,0.0,6.m4v,1.0
2024-02-27 09:44:43.841250,1709023483.8412504,2.44140625,-18.06640625,-22.94921875,20.01953125,-1.0,1.0,-1.0,0.0,6.m4v,1.0
2024-02-27 09:44:43.903745,1709023483.9037454,-77.1484375,-63.4765625,-42.96875,-71.2890625,-1.0,1.0,-1.0,0.0,6.m4v,1.0
2024-02-27 09:44:43.907651,1709023483.9076514,-69.3359375,-38.57421875,-40.52734375,-71.77734375,-1.0,1.0,-1.0,0.0,6.m4v,1.0
2024-02-27 09:44:43.911559,1709023483.9115589,-50.78125,-24.4140625,-34.66796875,-45.8984375,-1.0,1.0,-1.0,0.0,6.m4v,1.0
2024-02-27 09:44:43.915465,1709023483.9154646,-34.66796875,-3.90625,-17.578125,-26.85546875,-1.0,1.0,-1.0,0.0,6.m4v,1.0
2024-02-27 09:44:43.919370,1709023483.9193704,-14.6484375,1.46484375,-8.7890625,-14.6484375,-1.0,1.0,-1.0,0.0,6.m4v,1.0
2024-02-27 09:44:43.923276,1709023483.9232764,-7.32421875,-18.5546875,-24.4140625,-22.94921875,-1.0,1.0,-1.0,0.0,6.m4v,1.0
2024-02-27 09:44:43.927182,1709023483.9271822,-24.90234375,-36.1328125,-49.31640625,-34.66796875,-1.0,1.0,-1.0,0.0,6.m4v,1.0
2024-02-27 09:44:43.931088,1709023483.931088,-33.69140625,-48.828125,-51.7578125,-14.16015625,-1.0,1.0,-1.0,0.0,6.m4v,1.0
2024-02-27 09:44:43.934994,1709023483.9349935,-54.6875,-56.640625,-42.48046875,-37.59765625,-1.0,1.0,-1.0,0.0,6.m4v,1.0
2024-02-27 09:44:43.938900,1709023483.9388998,-74.70703125,-69.3359375,-31.25,-64.94140625,-1.0,1.0,-1.0,0.0,6.m4v,1.0
2024-02-27 09:44:43.942806,1709023483.9428055,-70.3125,-73.2421875,-16.6015625,-47.36328125,-1.0,1.0,-1.0,0.0,6.m4v,1.0
2024-02-27 09:44:43.946711,1709023483.9467113,-68.84765625,-62.5,-35.64453125,-66.89453125,-1.0,1.0,-1.0,0.0,6.m4v,1.0
2024-02-27 09:44:43.950617,1709023483.950617,-40.0390625,-42.96875,-35.64453125,-61.5234375,-1.0,1.0,-1.0,0.0,6.m4v,1.0
2024-02-27 09:44:43.954523,1709023483.9545228,-29.78515625,-29.78515625,-25.390625,-47.36328125,-1.0,1.0,-1.0,0.0,6.m4v,1.0
2024-02-27 09:44:43.958430,1709023483.9584303,-42.48046875,-27.34375,-25.390625,-51.7578125,-1.0,1.0,-1.0,0.0,6.m4v,1.0
2024-02-27 09:44:43.962336,1709023483.9623363,-39.0625,-11.71875,-23.92578125,-45.41015625,-1.0,1.0,-1.0,0.0,6.m4v,1.0
2024-02-27 09:44:43.966242,1709023483.966242,-42.48046875,-27.34375,-75.1953125,-52.24609375,-1.0,1.0,-1.0,0.0,6.m4v,1.0
2024-02-27 09:44:43.970148,1709023483.9701478,-10.7421875,-13.671875,-74.70703125,-23.4375,-1.0,1.0,-1.0,0.0,6.m4v,1.0
2024-02-27 09:44:43.974054,1709023483.9740536,13.18359375,-5.37109375,-27.34375,11.23046875,-1.0,1.0,-1.0,0.0,6.m4v,1.0
2024-02-27 09:44:43.977959,1709023483.9779594,-34.66796875,-46.875,-35.15625,-18.06640625,-1.0,1.0,-1.0,0.0,6.m4v,1.0
2024-02-27 09:44:43.981865,1709023483.9818654,-94.23828125,-69.3359375,-53.7109375,-88.37890625,-1.0,1.0,-1.0,0.0,6.m4v,1.0
2024-02-27 09:44:44.028737,1709023484.0287366,-41.015625,-35.64453125,-37.59765625,-78.125,-1.0,1.0,-1.0,0.0,6.m4v,1.0
2024-02-27 09:44:44.036548,1709023484.036548,-33.69140625,-23.4375,-24.4140625,-42.96875,-1.0,1.0,-1.0,0.0,6.m4v,1.0
2024-02-27 09:44:44.044360,1709023484.0443597,-26.3671875,-31.73828125,-32.2265625,-37.109375,-1.0,1.0,-1.0,0.0,6.m4v,1.0
2024-02-27 09:44:44.059985,1709023484.0599854,22.94921875,-6.8359375,15.625,45.8984375,-1.0,1.0,-1.0,0.0,6.m4v,1.0
2024-02-27 09:44:44.075609,1709023484.0756087,-47.36328125,-42.48046875,-39.55078125,-61.5234375,-1.0,1.0,-1.0,0.0,6.m4v,1.0
2024-02-27 09:44:44.087326,1709023484.087326,-19.04296875,-28.3203125,-41.9921875,-21.97265625,-1.0,1.0,-1.0,0.0,6.m4v,1.0
2024-02-27 09:44:44.099046,1709023484.0990458,-1.953125,-18.06640625,-28.80859375,6.8359375,-1.0,1.0,-1.0,0.0,6.m4v,1.0
2024-02-27 09:44:44.110763,1709023484.1107633,-78.125,-92.28515625,-45.41015625,-71.77734375,-1.0,1.0,-1.0,0.0,6.m4v,1.0
2024-02-27 09:44:44.122481,1709023484.1224809,-30.76171875,-27.83203125,-62.01171875,-38.0859375,-1.0,1.0,-1.0,0.0,6.m4v,1.0
2024-02-27 09:44:44.134198,1709023484.1341982,-19.53125,-31.73828125,-14.6484375,-33.69140625,-1.0,1.0,-1.0,0.0,6.m4v,1.0
2024-02-27 09:44:44.145918,1709023484.145918,3.90625,0.48828125,-13.18359375,-21.97265625,-1.0,1.0,-1.0,0.0,6.m4v,1.0
2024-02-27 09:44:44.157635,1709023484.1576352,-62.5,-65.4296875,-36.62109375,-53.7109375,-1.0,1.0,-1.0,0.0,6.m4v,1.0
2024-02-27 09:44:44.485737,1709023484.485737,-26.3671875,-69.3359375,-17.578125,-50.29296875,-1.0,1.0,-1.0,0.0,6.m4v,1.0
2024-02-27 09:44:44.489643,1709023484.489643,-24.90234375,-63.4765625,-2.44140625,-60.05859375,-1.0,1.0,-1.0,0.0,6.m4v,1.0
2024-02-27 09:44:44.493549,1709023484.4935489,-29.78515625,-27.83203125,-17.08984375,-30.2734375,-1.0,1.0,-1.0,0.0,6.m4v,1.0
2024-02-27 09:44:44.497455,1709023484.4974546,-43.45703125,-27.83203125,-49.8046875,-40.0390625,-1.0,1.0,-1.0,0.0,6.m4v,1.0
2024-02-27 09:44:44.501360,1709023484.5013604,-22.4609375,-35.64453125,-47.36328125,-29.78515625,-1.0,1.0,-1.0,0.0,6.m4v,1.0
2024-02-27 09:44:44.505266,1709023484.5052664,-7.32421875,-17.578125,-41.015625,-20.5078125,-1.0,1.0,-1.0,0.0,6.m4v,1.0
2024-02-27 09:44:44.532609,1709023484.5326092,-33.69140625,-71.77734375,-14.16015625,-40.52734375,-1.0,1.0,-1.0,0.0,6.m4v,1.0
2024-02-27 09:44:44.536515,1709023484.536515,-56.15234375,-73.73046875,-40.0390625,-58.59375,-1.0,1.0,-1.0,0.0,6.m4v,1.0
2024-02-27 09:44:44.540421,1709023484.5404208,-27.83203125,-32.2265625,-49.8046875,-41.015625,-1.0,1.0,-1.0,0.0,6.m4v,1.0
2024-02-27 09:44:44.544327,1709023484.5443263,30.76171875,13.671875,-13.18359375,6.8359375,-1.0,1.0,-1.0,0.0,6.m4v,1.0
2024-02-27 09:44:44.548233,1709023484.5482326,-24.4140625,-20.01953125,-12.20703125,-28.80859375,-1.0,1.0,-1.0,0.0,6.m4v,1.0
2024-02-27 09:44:44.552138,1709023484.5521383,-66.89453125,-56.640625,-48.33984375,-53.22265625,-1.0,1.0,-1.0,0.0,6.m4v,1.0
2024-02-27 09:44:44.556044,1709023484.556044,-20.5078125,-31.73828125,-51.26953125,-5.37109375,-1.0,1.0,-1.0,0.0,6.m4v,1.0
2024-02-27 09:44:44.575575,1709023484.575575,-37.59765625,-22.94921875,-14.16015625,-50.29296875,-1.0,1.0,-1.0,0.0,6.m4v,1.0
2024-02-27 09:44:44.579481,1709023484.579481,-22.4609375,-20.5078125,-13.18359375,-40.52734375,-1.0,1.0,-1.0,0.0,6.m4v,1.0
2024-02-27 09:44:44.583387,1709023484.583387,-52.734375,-29.296875,-42.96875,-74.21875,-1.0,1.0,-1.0,0.0,6.m4v,1.0
2024-02-27 09:44:44.587293,1709023484.587293,-76.66015625,-52.734375,-82.03125,-102.05078125,-1.0,1.0,-1.0,0.0,6.m4v,1.0
2024-02-27 09:44:44.591198,1709023484.5911984,-72.265625,-32.2265625,-64.453125,-97.65625,-1.0,1.0,-1.0,0.0,6.m4v,1.0
2024-02-27 09:44:44.595104,1709023484.5951042,-59.5703125,-7.32421875,-38.57421875,-79.1015625,-1.0,1.0,-1.0,0.0,6.m4v,1.0
2024-02-27 09:44:44.735719,1709023484.735719,-49.31640625,-70.80078125,-44.43359375,-47.8515625,-1.0,1.0,-1.0,0.0,6.m4v,1.0
2024-02-27 09:44:44.739625,1709023484.7396247,-40.52734375,-76.66015625,-34.1796875,-37.59765625,-1.0,1.0,-1.0,0.0,6.m4v,1.0
2024-02-27 09:44:44.743531,1709023484.7435305,-54.19921875,-51.26953125,-44.921875,-45.8984375,-1.0,1.0,-1.0,0.0,6.m4v,1.0
2024-02-27 09:44:44.747436,1709023484.7474363,-43.45703125,-21.97265625,-44.921875,-51.26953125,-1.0,1.0,-1.0,0.0,6.m4v,1.0
2024-02-27 09:44:44.751342,1709023484.751342,-34.1796875,-2.44140625,-25.87890625,-39.55078125,-1.0,1.0,-1.0,0.0,6.m4v,1.0
2024-02-27 09:44:44.755250,1709023484.7552495,-28.80859375,4.8828125,-15.13671875,-13.671875,-1.0,1.0,-1.0,0.0,6.m4v,1.0
2024-02-27 09:44:44.759155,1709023484.7591553,-6.8359375,-3.41796875,-9.765625,11.23046875,-1.0,1.0,-1.0,0.0,6.m4v,1.0
2024-02-27 09:44:44.763061,1709023484.763061,-0.9765625,-44.43359375,-30.2734375,-1.46484375,-1.0,1.0,-1.0,0.0,6.m4v,1.0
2024-02-27 09:44:44.766967,1709023484.7669668,-4.8828125,-47.36328125,-32.2265625,-11.71875,-1.0,1.0,-1.0,0.0,6.m4v,1.0
2024-02-27 09:44:44.770873,1709023484.7708728,-34.1796875,-41.50390625,-33.69140625,-36.62109375,-1.0,1.0,-1.0,0.0,6.m4v,1.0
2024-02-27 09:44:44.774779,1709023484.7747786,-30.2734375,-36.1328125,-33.203125,-32.71484375,-1.0,1.0,-1.0,0.0,6.m4v,1.0
2024-02-27 09:44:44.778684,1709023484.7786844,-33.69140625,-24.4140625,-20.01953125,-11.23046875,-1.0,1.0,-1.0,0.0,6.m4v,1.0
2024-02-27 09:44:44.782590,1709023484.7825902,-76.171875,-59.08203125,-49.31640625,-57.12890625,-1.0,1.0,-1.0,0.0,6.m4v,1.0
2024-02-27 09:44:44.786496,1709023484.7864962,-57.6171875,-66.40625,-39.0625,-56.15234375,-1.0,1.0,-1.0,0.0,6.m4v,1.0
2024-02-27 09:44:44.790402,1709023484.790402,-43.9453125,-63.4765625,-28.80859375,-26.3671875,-1.0,1.0,-1.0,0.0,6.m4v,1.0
2024-02-27 09:44:44.794308,1709023484.7943077,-54.19921875,-44.921875,-54.6875,-32.71484375,-1.0,1.0,-1.0,0.0,6.m4v,1.0
2024-02-27 09:44:44.798213,1709023484.7982135,-37.59765625,-14.16015625,-42.48046875,-42.96875,-1.0,1.0,-1.0,0.0,6.m4v,1.0
2024-02-27 09:44:44.802122,1709023484.8021216,-16.11328125,-20.01953125,-48.828125,-39.55078125,-1.0,1.0,-1.0,0.0,6.m4v,1.0
2024-02-27 09:44:44.809933,1709023484.8099334,0.0,-26.3671875,-27.34375,-10.25390625,-1.0,1.0,-1.0,0.0,6.m4v,1.0
2024-02-27 09:44:44.809933,1709023484.8099334,0.0,-26.3671875,-27.34375,-10.25390625,-1.0,1.0,-1.0,0.0,6.m4v,1.0
2024-02-27 09:44:44.813839,1709023484.8138392,0.9765625,-22.4609375,-13.671875,12.20703125,-1.0,1.0,-1.0,0.0,6.m4v,1.0
2024-02-27 09:44:44.813839,1709023484.8138392,0.9765625,-22.4609375,-13.671875,12.20703125,-1.0,1.0,-1.0,0.0,6.m4v,1.0
2024-02-27 09:44:44.817745,1709023484.817745,-18.5546875,-24.90234375,0.9765625,3.90625,-1.0,1.0,-1.0,0.0,6.m4v,1.0
2024-02-27 09:44:44.817745,1709023484.817745,-18.5546875,-24.90234375,0.9765625,3.90625,-1.0,1.0,-1.0,0.0,6.m4v,1.0
2024-02-27 09:44:44.821651,1709023484.8216507,-6.34765625,-22.94921875,4.8828125,-8.30078125,-1.0,1.0,-1.0,0.0,6.m4v,1.0
2024-02-27 09:44:44.821651,1709023484.8216507,-6.34765625,-22.94921875,4.8828125,-8.30078125,-1.0,1.0,-1.0,0.0,6.m4v,1.0
2024-02-27 09:44:44.825557,1709023484.8255568,-32.2265625,-55.6640625,-39.0625,-40.52734375,-1.0,1.0,-1.0,0.0,6.m4v,1.0
2024-02-27 09:44:44.825557,1709023484.8255568,-32.2265625,-55.6640625,-39.0625,-40.52734375,-1.0,1.0,-1.0,0.0,6.m4v,1.0
2024-02-27 09:44:44.829463,1709023484.8294623,-71.2890625,-63.4765625,-51.7578125,-75.1953125,-1.0,1.0,-1.0,0.0,6.m4v,1.0
2024-02-27 09:44:44.829463,1709023484.8294623,-71.2890625,-63.4765625,-51.7578125,-75.1953125,-1.0,1.0,-1.0,0.0,6.m4v,1.0
2024-02-27 09:44:44.841180,1709023484.8411798,-32.2265625,-25.390625,-59.5703125,-43.9453125,-1.0,1.0,-1.0,0.0,6.m4v,1.0
2024-02-27 09:44:44.845086,1709023484.845086,-30.2734375,-29.296875,-59.5703125,-27.34375,-1.0,1.0,-1.0,0.0,6.m4v,1.0
2024-02-27 09:44:44.848994,1709023484.8489938,-8.30078125,-26.3671875,-23.92578125,17.08984375,-1.0,1.0,-1.0,0.0,6.m4v,1.0
2024-02-27 09:44:44.852900,1709023484.8528996,14.6484375,-25.87890625,-14.16015625,10.7421875,-1.0,1.0,-1.0,0.0,6.m4v,1.0
2024-02-27 09:44:44.856805,1709023484.856805,-2.44140625,-39.0625,-32.2265625,-36.1328125,-1.0,1.0,-1.0,0.0,6.m4v,1.0
2024-02-27 09:44:44.860711,1709023484.860711,-63.96484375,-55.6640625,-31.25,-61.03515625,-1.0,1.0,-1.0,0.0,6.m4v,1.0
2024-02-27 09:44:44.864617,1709023484.864617,-85.9375,-59.5703125,-37.59765625,-81.0546875,-1.0,1.0,-1.0,0.0,6.m4v,1.0
2024-02-27 09:44:44.868523,1709023484.868523,-63.4765625,-51.26953125,-35.64453125,-85.44921875,-1.0,1.0,-1.0,0.0,6.m4v,1.0
2024-02-27 09:44:44.872429,1709023484.872429,-43.9453125,-22.4609375,-23.4375,-56.640625,-1.0,1.0,-1.0,0.0,6.m4v,1.0
2024-02-27 09:44:44.876334,1709023484.8763344,-38.57421875,-13.671875,-26.3671875,-27.83203125,-1.0,1.0,-1.0,0.0,6.m4v,1.0
2024-02-27 09:44:44.880240,1709023484.8802404,-12.6953125,-33.203125,-36.62109375,-6.34765625,-1.0,1.0,-1.0,0.0,6.m4v,1.0
2024-02-27 09:44:44.884146,1709023484.8841462,20.99609375,-34.1796875,-22.4609375,4.8828125,-1.0,1.0,-1.0,0.0,6.m4v,1.0
2024-02-27 09:44:44.888052,1709023484.888052,-23.92578125,-54.6875,-34.66796875,-40.52734375,-1.0,1.0,-1.0,0.0,6.m4v,1.0
2024-02-27 09:44:44.891958,1709023484.8919578,-81.54296875,-85.9375,-67.3828125,-78.125,-1.0,1.0,-1.0,0.0,6.m4v,1.0
2024-02-27 09:44:44.895866,1709023484.8958657,-78.61328125,-75.1953125,-66.40625,-57.12890625,-1.0,1.0,-1.0,0.0,6.m4v,1.0
2024-02-27 09:44:44.899771,1709023484.8997717,-43.9453125,-37.59765625,-52.24609375,-45.41015625,-1.0,1.0,-1.0,0.0,6.m4v,1.0
2024-02-27 09:44:44.903677,1709023484.9036772,-35.64453125,-31.25,-26.85546875,-41.9921875,-1.0,1.0,-1.0,0.0,6.m4v,1.0
2024-02-27 09:44:44.907583,1709023484.907583,-21.97265625,-13.18359375,-8.7890625,10.25390625,-1.0,1.0,-1.0,0.0,6.m4v,1.0
2024-02-27 09:44:44.911489,1709023484.911489,-0.9765625,0.48828125,-3.90625,9.765625,-1.0,1.0,-1.0,0.0,6.m4v,1.0
2024-02-27 09:44:44.915395,1709023484.9153948,-10.25390625,-28.3203125,-8.30078125,-39.55078125,-1.0,1.0,-1.0,0.0,6.m4v,1.0
2024-02-27 09:44:45.032573,1709023485.0325732,-46.38671875,-33.69140625,-44.921875,-33.203125,-1.0,1.0,-1.0,0.0,6.m4v,1.0
2024-02-27 09:44:45.036481,1709023485.036481,-38.0859375,-32.2265625,-31.25,-6.34765625,-1.0,1.0,-1.0,0.0,6.m4v,1.0
2024-02-27 09:44:45.040386,1709023485.0403864,-24.4140625,-33.69140625,-10.7421875,-17.08984375,-1.0,1.0,-1.0,0.0,6.m4v,1.0
2024-02-27 09:44:45.044292,1709023485.0442922,-25.87890625,-51.26953125,-34.66796875,-35.15625,-1.0,1.0,-1.0,0.0,6.m4v,1.0
2024-02-27 09:44:45.048198,1709023485.0481982,-24.4140625,-44.43359375,-50.29296875,-34.66796875,-1.0,1.0,-1.0,0.0,6.m4v,1.0
2024-02-27 09:44:45.052104,1709023485.052104,-50.29296875,-36.1328125,-42.96875,-46.875,-1.0,1.0,-1.0,0.0,6.m4v,1.0
2024-02-27 09:44:45.056010,1709023485.0560098,-50.29296875,-20.01953125,-32.2265625,-38.0859375,-1.0,1.0,-1.0,0.0,6.m4v,1.0
2024-02-27 09:44:45.059916,1709023485.0599155,-14.6484375,-13.18359375,-13.671875,-22.4609375,-1.0,1.0,-1.0,0.0,6.m4v,1.0
2024-02-27 09:44:45.063822,1709023485.0638216,2.44140625,-15.625,0.0,-21.97265625,-1.0,1.0,-1.0,0.0,6.m4v,1.0
2024-02-27 09:44:45.067727,1709023485.067727,-9.765625,-12.6953125,-12.20703125,-29.78515625,-1.0,1.0,-1.0,0.0,6.m4v,1.0
2024-02-27 09:44:45.071633,1709023485.071633,-25.87890625,-10.25390625,-20.5078125,-24.90234375,-1.0,1.0,-1.0,0.0,6.m4v,1.0
2024-02-27 09:44:45.075539,1709023485.0755389,-39.55078125,-33.69140625,-37.109375,-35.15625,-1.0,1.0,-1.0,0.0,6.m4v,1.0
2024-02-27 09:44:45.157565,1709023485.157565,-41.9921875,-50.29296875,-36.62109375,-40.0390625,-1.0,1.0,-1.0,0.0,6.m4v,1.0
2024-02-27 09:44:45.161471,1709023485.161471,-26.3671875,-43.9453125,-41.50390625,-35.64453125,-1.0,1.0,-1.0,0.0,6.m4v,1.0
2024-02-27 09:44:45.169282,1709023485.1692824,-37.59765625,-32.71484375,-30.2734375,-37.59765625,-1.0,1.0,-1.0,0.0,6.m4v,1.0
2024-02-27 09:44:45.177096,1709023485.1770964,-49.8046875,-50.78125,-48.33984375,-36.1328125,-1.0,1.0,-1.0,0.0,6.m4v,1.0
2024-02-27 09:44:45.181002,1709023485.181002,1.46484375,-31.25,-16.11328125,-15.13671875,-1.0,1.0,-1.0,0.0,6.m4v,1.0
2024-02-27 09:44:45.188814,1709023485.188814,-23.4375,-36.1328125,-27.83203125,-15.13671875,-1.0,1.0,-1.0,0.0,6.m4v,1.0
2024-02-27 09:44:45.192720,1709023485.1927197,-61.03515625,-62.98828125,-48.33984375,-54.6875,-1.0,1.0,-1.0,0.0,6.m4v,1.0
2024-02-27 09:44:45.196625,1709023485.1966257,-51.7578125,-37.59765625,-50.29296875,-49.31640625,-1.0,1.0,-1.0,0.0,6.m4v,1.0
2024-02-27 09:44:45.200531,1709023485.2005312,-14.16015625,-18.06640625,-20.99609375,-14.6484375,-1.0,1.0,-1.0,0.0,6.m4v,1.0
2024-02-27 09:44:45.544257,1709023485.5442574,-36.1328125,-54.6875,-48.33984375,-31.25,-1.0,1.0,-1.0,0.0,6.m4v,1.0
2024-02-27 09:44:45.552071,1709023485.552071,-36.1328125,-64.94140625,-34.66796875,-53.22265625,-1.0,1.0,-1.0,0.0,6.m4v,1.0
2024-02-27 09:44:45.645816,1709023485.6458163,-16.6015625,-37.59765625,-21.97265625,-30.2734375,-1.0,1.0,-1.0,0.0,6.m4v,1.0
2024-02-27 09:44:45.653628,1709023485.653628,-8.30078125,-7.8125,-14.16015625,5.37109375,-1.0,1.0,-1.0,0.0,6.m4v,1.0
2024-02-27 09:44:45.657534,1709023485.657534,-42.96875,-24.90234375,-28.80859375,-47.36328125,-1.0,1.0,-1.0,0.0,6.m4v,1.0
2024-02-27 09:44:45.661440,1709023485.6614397,-50.78125,-39.55078125,-59.5703125,-66.40625,-1.0,1.0,-1.0,0.0,6.m4v,1.0
2024-02-27 09:44:45.665345,1709023485.6653454,-54.6875,-42.48046875,-44.921875,-48.828125,-1.0,1.0,-1.0,0.0,6.m4v,1.0
2024-02-27 09:44:45.669251,1709023485.6692512,-50.78125,-42.96875,-22.4609375,-33.69140625,-1.0,1.0,-1.0,0.0,6.m4v,1.0
2024-02-27 09:44:45.677063,1709023485.677063,-25.87890625,-32.71484375,-10.7421875,-20.01953125,-1.0,1.0,-1.0,0.0,6.m4v,1.0
2024-02-27 09:44:45.684875,1709023485.6848743,16.11328125,-17.08984375,-15.625,-13.671875,-1.0,1.0,-1.0,0.0,6.m4v,1.0
2024-02-27 09:44:45.692688,1709023485.692688,-17.578125,-43.45703125,-20.5078125,-17.578125,-1.0,1.0,-1.0,0.0,6.m4v,1.0
2024-02-27 09:44:45.700500,1709023485.7004998,-35.15625,-23.4375,-59.5703125,-46.38671875,-1.0,1.0,-1.0,0.0,6.m4v,1.0
2024-02-27 09:44:45.958293,1709023485.9582927,-13.671875,-17.08984375,-6.34765625,-21.484375,-1.0,1.0,-1.0,0.0,6.m4v,1.0
2024-02-27 09:44:45.962198,1709023485.9621985,0.0,-11.71875,-22.4609375,-13.671875,-1.0,1.0,-1.0,0.0,6.m4v,1.0
2024-02-27 09:44:45.966104,1709023485.9661045,-20.01953125,-26.3671875,-44.43359375,-29.78515625,-1.0,1.0,-1.0,0.0,6.m4v,1.0
2024-02-27 09:44:45.970010,1709023485.9700105,-59.5703125,-41.50390625,-49.31640625,-66.40625,-1.0,1.0,-1.0,0.0,6.m4v,1.0
2024-02-27 09:44:45.973918,1709023485.9739182,-96.19140625,-62.98828125,-61.03515625,-98.14453125,-1.0,1.0,-1.0,0.0,6.m4v,1.0
2024-02-27 09:44:45.977824,1709023485.977824,-79.58984375,-58.59375,-56.15234375,-74.70703125,-1.0,1.0,-1.0,0.0,6.m4v,1.0
2024-02-27 09:44:45.981730,1709023485.9817295,-21.484375,-21.97265625,-25.390625,-27.83203125,-1.0,1.0,-1.0,0.0,6.m4v,1.0
2024-02-27 09:44:45.985636,1709023485.9856355,-13.18359375,-20.01953125,-18.06640625,-37.59765625,-1.0,1.0,-1.0,0.0,6.m4v,1.0
2024-02-27 09:44:45.989542,1709023485.9895415,-32.2265625,-28.80859375,-40.52734375,-54.19921875,-1.0,1.0,-1.0,0.0,6.m4v,1.0
2024-02-27 09:44:45.993447,1709023485.9934473,-20.99609375,-2.9296875,-39.0625,-21.484375,-1.0,1.0,-1.0,0.0,6.m4v,1.0
2024-02-27 09:44:45.997353,1709023485.997353,9.27734375,2.44140625,-9.765625,6.8359375,-1.0,1.0,-1.0,0.0,6.m4v,1.0
2024-02-27 09:44:46.001259,1709023486.0012589,22.4609375,-21.484375,6.34765625,5.859375,-1.0,1.0,-1.0,0.0,6.m4v,1.0
2024-02-27 09:44:46.005165,1709023486.0051646,-1.46484375,-26.3671875,-15.13671875,-26.3671875,-1.0,1.0,-1.0,0.0,6.m4v,1.0
2024-02-27 09:44:46.009071,1709023486.0090706,-52.734375,-37.109375,-62.5,-62.98828125,-1.0,1.0,-1.0,0.0,6.m4v,1.0
2024-02-27 09:44:46.012976,1709023486.0129764,-94.23828125,-67.3828125,-69.3359375,-69.3359375,-1.0,1.0,-1.0,0.0,6.m4v,1.0
2024-02-27 09:44:46.016882,1709023486.0168822,-63.96484375,-54.19921875,-34.66796875,-63.96484375,-1.0,1.0,-1.0,0.0,6.m4v,1.0
2024-02-27 09:44:46.020790,1709023486.02079,-42.48046875,-36.1328125,-30.76171875,-64.453125,-1.0,1.0,-1.0,0.0,6.m4v,1.0
2024-02-27 09:44:46.024696,1709023486.024696,-42.96875,-47.8515625,-40.52734375,-50.29296875,-1.0,1.0,-1.0,0.0,6.m4v,1.0
2024-02-27 09:44:46.028602,1709023486.0286016,-16.11328125,-41.015625,-22.94921875,-41.9921875,-1.0,1.0,-1.0,0.0,6.m4v,1.0
2024-02-27 09:44:46.032507,1709023486.0325074,-3.90625,-13.671875,-18.06640625,-35.15625,-1.0,1.0,-1.0,0.0,6.m4v,1.0
2024-02-27 09:44:46.036413,1709023486.0364132,-19.53125,-3.41796875,-42.48046875,-28.3203125,-1.0,1.0,-1.0,0.0,6.m4v,1.0
2024-02-27 09:44:46.040319,1709023486.0403192,-8.7890625,-5.37109375,-53.7109375,-17.08984375,-1.0,1.0,-1.0,0.0,6.m4v,1.0
2024-02-27 09:44:46.044225,1709023486.044225,31.25,-5.859375,-27.34375,2.9296875,-1.0,1.0,-1.0,0.0,6.m4v,1.0
2024-02-27 09:44:46.048131,1709023486.0481308,-5.37109375,-32.2265625,-24.90234375,-16.11328125,-1.0,1.0,-1.0,0.0,6.m4v,1.0
2024-02-27 09:44:46.052037,1709023486.0520363,-39.55078125,-28.3203125,-31.25,-39.0625,-1.0,1.0,-1.0,0.0,6.m4v,1.0
2024-02-27 09:44:46.055943,1709023486.0559423,-26.3671875,-12.6953125,-47.36328125,-25.390625,-1.0,1.0,-1.0,0.0,6.m4v,1.0
2024-02-27 09:44:46.059848,1709023486.0598483,-30.2734375,-40.0390625,-44.43359375,-19.53125,-1.0,1.0,-1.0,0.0,6.m4v,1.0
2024-02-27 09:44:46.063754,1709023486.063754,-27.34375,-52.734375,-16.11328125,-43.45703125,-1.0,1.0,-1.0,0.0,6.m4v,1.0
2024-02-27 09:44:46.067662,1709023486.067662,-29.296875,-35.64453125,-12.20703125,-58.59375,-1.0,1.0,-1.0,0.0,6.m4v,1.0
2024-02-27 09:44:46.071568,1709023486.0715678,-45.8984375,-43.45703125,-28.80859375,-35.15625,-1.0,1.0,-1.0,0.0,6.m4v,1.0
2024-02-27 09:44:46.075474,1709023486.0754735,-24.4140625,-28.80859375,-41.50390625,-9.765625,-1.0,1.0,-1.0,0.0,6.m4v,1.0
2024-02-27 09:44:46.079379,1709023486.079379,0.9765625,-3.90625,-25.87890625,-22.4609375,-1.0,1.0,-1.0,0.0,6.m4v,1.0
2024-02-27 09:44:46.083285,1709023486.083285,-9.27734375,-7.32421875,-27.83203125,-38.57421875,-1.0,1.0,-1.0,0.0,6.m4v,1.0
2024-02-27 09:44:46.087191,1709023486.087191,1.953125,-9.27734375,-39.0625,-19.04296875,-1.0,1.0,-1.0,0.0,6.m4v,1.0
2024-02-27 09:44:46.091097,1709023486.0910969,-14.6484375,-30.2734375,-37.109375,-25.390625,-1.0,1.0,-1.0,0.0,6.m4v,1.0
2024-02-27 09:44:46.095003,1709023486.095003,-62.98828125,-46.875,-31.25,-56.640625,-1.0,1.0,-1.0,0.0,6.m4v,1.0
2024-02-27 09:44:46.098909,1709023486.098909,-48.33984375,-36.62109375,-16.11328125,-44.43359375,-1.0,1.0,-1.0,0.0,6.m4v,1.0
2024-02-27 09:44:46.102814,1709023486.1028144,-24.4140625,-17.08984375,-24.4140625,-6.8359375,-1.0,1.0,-1.0,0.0,6.m4v,1.0
2024-02-27 09:44:46.106720,1709023486.1067202,-30.76171875,-23.4375,-31.25,-19.53125,-1.0,1.0,-1.0,0.0,6.m4v,1.0
2024-02-27 09:44:46.110626,1709023486.110626,-28.3203125,-45.41015625,-23.92578125,-37.59765625,-1.0,1.0,-1.0,0.0,6.m4v,1.0
2024-02-27 09:44:46.114534,1709023486.1145337,-35.64453125,-55.17578125,-35.64453125,-40.52734375,-1.0,1.0,-1.0,0.0,6.m4v,1.0
2024-02-27 09:44:46.118439,1709023486.1184394,-22.94921875,-34.1796875,-44.921875,-42.96875,-1.0,1.0,-1.0,0.0,6.m4v,1.0
2024-02-27 09:44:46.122345,1709023486.1223452,-24.90234375,-33.69140625,-35.15625,-30.2734375,-1.0,1.0,-1.0,0.0,6.m4v,1.0
2024-02-27 09:44:46.126251,1709023486.1262512,-50.78125,-50.29296875,-32.2265625,-37.109375,-1.0,1.0,-1.0,0.0,6.m4v,1.0
2024-02-27 09:44:46.130157,1709023486.130157,-51.7578125,-35.15625,-21.484375,-59.5703125,-1.0,1.0,-1.0,0.0,6.m4v,1.0
2024-02-27 09:44:46.134063,1709023486.1340628,-32.2265625,-13.671875,-7.8125,-46.875,-1.0,1.0,-1.0,0.0,6.m4v,1.0
2024-02-27 09:44:46.137969,1709023486.1379683,-23.4375,-22.4609375,-24.4140625,-17.578125,-1.0,1.0,-1.0,0.0,6.m4v,1.0
2024-02-27 09:44:46.141875,1709023486.1418746,-22.4609375,-40.52734375,-40.0390625,-15.13671875,-1.0,1.0,-1.0,0.0,6.m4v,1.0
2024-02-27 09:44:46.145780,1709023486.1457803,-28.3203125,-35.64453125,-41.50390625,-24.90234375,-1.0,1.0,-1.0,0.0,6.m4v,1.0
2024-02-27 09:44:46.149686,1709023486.149686,-8.30078125,-26.85546875,-38.0859375,2.44140625,-1.0,1.0,-1.0,0.0,6.m4v,1.0
2024-02-27 09:44:46.153592,1709023486.153592,-4.39453125,-30.76171875,-36.62109375,12.20703125,-1.0,1.0,-1.0,0.0,6.m4v,1.0
2024-02-27 09:44:46.157498,1709023486.157498,-27.34375,-39.55078125,-20.5078125,-45.41015625,-1.0,1.0,-1.0,0.0,6.m4v,1.0
2024-02-27 09:44:47.169150,1709023487.1691504,-10.7421875,-53.7109375,-9.765625,8.30078125,-1.0,1.0,-1.0,0.0,6.m4v,1.0
2024-02-27 09:44:47.173056,1709023487.173056,1.46484375,-26.3671875,-8.30078125,7.8125,-1.0,1.0,-1.0,0.0,6.m4v,1.0
2024-02-27 09:44:47.462098,1709023487.462098,-47.36328125,-34.1796875,-64.94140625,-58.59375,-1.0,1.0,-1.0,0.0,6.m4v,1.0
2024-02-27 09:44:47.466004,1709023487.4660037,-51.26953125,-52.734375,-52.24609375,-50.29296875,-1.0,1.0,-1.0,0.0,6.m4v,1.0
2024-02-27 09:44:47.469909,1709023487.4699094,-14.16015625,-35.64453125,-22.4609375,-24.4140625,-1.0,1.0,-1.0,0.0,6.m4v,1.0
2024-02-27 09:44:47.473817,1709023487.473817,2.9296875,-0.48828125,13.18359375,14.6484375,-1.0,1.0,-1.0,0.0,6.m4v,1.0
2024-02-27 09:44:47.848793,1709023487.8487926,-159.66796875,-16.6015625,-29.78515625,-149.4140625,-1.0,1.0,-1.0,0.0,6.m4v,1.0
2024-02-27 09:44:47.852698,1709023487.8526983,-172.36328125,-25.87890625,-35.64453125,-175.78125,-1.0,1.0,-1.0,0.0,6.m4v,1.0
2024-02-27 09:44:47.856604,1709023487.856604,-176.26953125,-28.80859375,-23.92578125,-184.08203125,-1.0,1.0,-1.0,0.0,6.m4v,1.0
2024-02-27 09:44:47.899570,1709023487.8995702,-92.28515625,-40.52734375,-1.953125,-112.79296875,-1.0,1.0,-1.0,0.0,6.m4v,1.0
2024-02-27 09:44:47.907382,1709023487.907382,-92.7734375,-20.99609375,-56.15234375,-107.421875,-1.0,1.0,-1.0,0.0,6.m4v,1.0
2024-02-27 09:44:47.911288,1709023487.9112878,-85.9375,-19.53125,-15.625,-105.46875,-1.0,1.0,-1.0,0.0,6.m4v,1.0
2024-02-27 09:44:47.919099,1709023487.919099,-92.7734375,-17.578125,-44.43359375,-92.7734375,-1.0,1.0,-1.0,0.0,6.m4v,1.0
2024-02-27 09:44:47.926911,1709023487.926911,-56.640625,-33.69140625,-62.01171875,-72.265625,-1.0,1.0,-1.0,0.0,6.m4v,1.0
2024-02-27 09:44:47.930817,1709023487.930817,-44.43359375,-24.90234375,-52.24609375,-49.31640625,-1.0,1.0,-1.0,0.0,6.m4v,1.0
2024-02-27 09:44:47.938629,1709023487.938629,-46.38671875,-43.45703125,-55.6640625,-52.24609375,-1.0,1.0,-1.0,0.0,6.m4v,1.0
2024-02-27 09:44:47.942536,1709023487.942536,-14.16015625,-16.11328125,-61.03515625,-30.76171875,-1.0,1.0,-1.0,0.0,6.m4v,1.0
2024-02-27 09:44:47.946442,1709023487.946442,-7.32421875,-31.25,-43.45703125,-35.64453125,-1.0,1.0,-1.0,0.0,6.m4v,1.0
2024-02-27 09:44:47.950348,1709023487.950348,-33.203125,-61.5234375,-37.59765625,-54.19921875,-1.0,1.0,-1.0,0.0,6.m4v,1.0
2024-02-27 09:44:47.954254,1709023487.9542537,-47.36328125,-57.6171875,-41.50390625,-33.203125,-1.0,1.0,-1.0,0.0,6.m4v,1.0
2024-02-27 09:44:47.958159,1709023487.9581594,-25.390625,-33.69140625,-42.96875,-19.53125,-1.0,1.0,-1.0,0.0,6.m4v,1.0
2024-02-27 09:44:47.962065,1709023487.9620657,-6.34765625,-24.90234375,-40.52734375,-16.6015625,-1.0,1.0,-1.0,0.0,6.m4v,1.0
2024-02-27 09:44:47.965971,1709023487.9659712,0.9765625,-16.6015625,-41.9921875,-6.8359375,-1.0,1.0,-1.0,0.0,6.m4v,1.0
2024-02-27 09:44:47.969877,1709023487.969877,19.53125,-12.20703125,-54.19921875,2.9296875,-1.0,1.0,-1.0,0.0,6.m4v,1.0
2024-02-27 09:44:47.973783,1709023487.9737828,33.69140625,-13.671875,-48.828125,33.203125,-1.0,1.0,-1.0,0.0,6.m4v,1.0
2024-02-27 09:44:48.118304,1709023488.1183045,-29.78515625,-79.1015625,-67.87109375,-30.76171875,-1.0,1.0,-1.0,0.0,6.m4v,1.0
2024-02-27 09:44:48.130023,1709023488.130023,-14.6484375,-35.64453125,-29.78515625,-22.94921875,-1.0,1.0,-1.0,0.0,6.m4v,1.0
2024-02-27 09:44:48.141741,1709023488.1417406,14.16015625,-14.16015625,-5.859375,18.5546875,-1.0,1.0,-1.0,0.0,6.m4v,1.0
2024-02-27 09:44:48.153458,1709023488.153458,-21.484375,-50.29296875,-69.82421875,-14.16015625,-1.0,1.0,-1.0,0.0,6.m4v,1.0
2024-02-27 09:44:48.165175,1709023488.1651754,-12.20703125,-29.296875,-38.0859375,-37.109375,-1.0,1.0,-1.0,0.0,6.m4v,1.0
2024-02-27 09:44:48.176895,1709023488.1768954,3.90625,-38.0859375,-6.8359375,5.859375,-1.0,1.0,-1.0,0.0,6.m4v,1.0
2024-02-27 09:44:48.188613,1709023488.188613,2.9296875,-18.5546875,-25.87890625,0.0,-1.0,1.0,-1.0,0.0,6.m4v,1.0
2024-02-27 09:44:48.200330,1709023488.2003305,-51.26953125,-57.12890625,-57.6171875,-46.875,-1.0,1.0,-1.0,0.0,6.m4v,1.0
2024-02-27 09:44:48.212048,1709023488.2120478,-37.59765625,-44.43359375,-24.90234375,-24.90234375,-1.0,1.0,-1.0,0.0,6.m4v,1.0
2024-02-27 09:44:48.223768,1709023488.2237675,-23.92578125,-47.36328125,-13.671875,-24.90234375,-1.0,1.0,-1.0,0.0,6.m4v,1.0
2024-02-27 09:44:48.235485,1709023488.2354848,-19.53125,-55.17578125,-22.94921875,18.5546875,-1.0,1.0,-1.0,0.0,6.m4v,1.0
2024-02-27 09:44:48.247202,1709023488.2472024,-39.55078125,-53.22265625,-59.5703125,-41.50390625,-1.0,1.0,-1.0,0.0,6.m4v,1.0
2024-02-27 09:44:48.258920,1709023488.25892,-33.203125,-48.33984375,-40.52734375,-30.2734375,-1.0,1.0,-1.0,0.0,6.m4v,1.0
2024-02-27 09:44:48.270639,1709023488.2706394,-2.44140625,-43.45703125,-22.94921875,6.34765625,-1.0,1.0,-1.0,0.0,6.m4v,1.0
2024-02-27 09:44:48.282357,1709023488.2823567,-36.62109375,-11.23046875,-31.25,-43.9453125,-1.0,1.0,-1.0,0.0,6.m4v,1.0
2024-02-27 09:44:48.290169,1709023488.2901683,-38.0859375,-35.64453125,-31.25,-32.71484375,-1.0,1.0,-1.0,0.0,6.m4v,1.0
2024-02-27 09:44:48.301886,1709023488.301886,-15.625,-30.2734375,-60.05859375,-14.6484375,-1.0,1.0,-1.0,0.0,6.m4v,1.0
2024-02-27 09:44:48.309698,1709023488.3096976,-21.97265625,-27.83203125,-28.3203125,-9.765625,-1.0,1.0,-1.0,0.0,6.m4v,1.0
2024-02-27 09:44:48.321417,1709023488.3214169,-19.04296875,-37.109375,-31.25,-12.20703125,-1.0,1.0,-1.0,0.0,6.m4v,1.0
2024-02-27 09:44:48.329229,1709023488.3292286,-44.43359375,-9.27734375,-20.5078125,-38.0859375,-1.0,1.0,-1.0,0.0,6.m4v,1.0
2024-02-27 09:44:48.333134,1709023488.3331344,-48.828125,-23.4375,-27.34375,-38.0859375,-1.0,1.0,-1.0,0.0,6.m4v,1.0
2024-02-27 09:44:48.337040,1709023488.3370402,-36.1328125,-39.55078125,-34.66796875,-32.2265625,-1.0,1.0,-1.0,0.0,6.m4v,1.0
2024-02-27 09:44:48.340946,1709023488.340946,-26.3671875,-45.8984375,-39.0625,-26.3671875,-1.0,1.0,-1.0,0.0,6.m4v,1.0
2024-02-27 09:44:48.344852,1709023488.344852,-9.27734375,-35.64453125,-36.1328125,-25.390625,-1.0,1.0,-1.0,0.0,6.m4v,1.0
2024-02-27 09:44:48.348758,1709023488.3487575,-8.7890625,-18.5546875,-40.52734375,-20.5078125,-1.0,1.0,-1.0,0.0,6.m4v,1.0
2024-02-27 09:44:48.352664,1709023488.3526635,-9.27734375,-22.94921875,-16.11328125,0.9765625,-1.0,1.0,-1.0,0.0,6.m4v,1.0
2024-02-27 09:44:48.356569,1709023488.3565693,-5.859375,-39.0625,-9.765625,-13.18359375,-1.0,1.0,-1.0,0.0,6.m4v,1.0
2024-02-27 09:44:48.360475,1709023488.3604753,-12.20703125,-41.9921875,-33.69140625,-16.11328125,-1.0,1.0,-1.0,0.0,6.m4v,1.0
2024-02-27 09:44:48.364383,1709023488.3643827,-34.66796875,-41.9921875,-37.109375,-22.4609375,-1.0,1.0,-1.0,0.0,6.m4v,1.0
2024-02-27 09:44:48.368289,1709023488.3682885,-49.31640625,-22.4609375,-28.3203125,-29.78515625,-1.0,1.0,-1.0,0.0,6.m4v,1.0
2024-02-27 09:44:48.372194,1709023488.3721943,-51.26953125,-17.578125,-39.0625,-40.0390625,-1.0,1.0,-1.0,0.0,6.m4v,1.0
2024-02-27 09:44:48.376100,1709023488.3761,-38.57421875,-29.78515625,-38.57421875,-39.0625,-1.0,1.0,-1.0,0.0,6.m4v,1.0
2024-02-27 09:44:48.380006,1709023488.380006,-10.25390625,-36.62109375,-38.0859375,-30.76171875,-1.0,1.0,-1.0,0.0,6.m4v,1.0
2024-02-27 09:44:48.383912,1709023488.3839118,-18.5546875,-40.52734375,-33.203125,-36.62109375,-1.0,1.0,-1.0,0.0,6.m4v,1.0
2024-02-27 09:44:48.387818,1709023488.3878176,-30.76171875,-16.6015625,-13.671875,-19.04296875,-1.0,1.0,-1.0,0.0,6.m4v,1.0
2024-02-27 09:44:48.391723,1709023488.3917234,-26.85546875,-35.64453125,-16.11328125,-13.18359375,-1.0,1.0,-1.0,0.0,6.m4v,1.0
2024-02-27 09:44:48.395629,1709023488.3956294,-21.97265625,-46.38671875,-20.01953125,-12.6953125,-1.0,1.0,-1.0,0.0,6.m4v,1.0
2024-02-27 09:44:48.403441,1709023488.403441,-67.3828125,-55.6640625,-65.91796875,-52.734375,-1.0,1.0,-1.0,0.0,6.m4v,1.0
2024-02-27 09:44:48.415160,1709023488.4151602,-56.640625,-30.76171875,-24.4140625,-51.7578125,-1.0,1.0,-1.0,0.0,6.m4v,1.0
2024-02-27 09:44:48.422972,1709023488.4229715,-20.01953125,-29.296875,-10.7421875,-25.87890625,-1.0,1.0,-1.0,0.0,6.m4v,1.0
2024-02-27 09:44:48.434689,1709023488.4346893,-44.921875,-37.109375,-40.52734375,-30.76171875,-1.0,1.0,-1.0,0.0,6.m4v,1.0
2024-02-27 09:44:48.442501,1709023488.442501,-52.734375,-27.34375,-65.91796875,-46.875,-1.0,1.0,-1.0,0.0,6.m4v,1.0
2024-02-27 09:44:48.454218,1709023488.4542184,-10.25390625,-18.06640625,-12.20703125,-13.671875,-1.0,1.0,-1.0,0.0,6.m4v,1.0
2024-02-27 09:44:48.462032,1709023488.4620316,-19.04296875,-14.16015625,-27.83203125,-21.97265625,-1.0,1.0,-1.0,0.0,6.m4v,1.0
2024-02-27 09:44:48.473749,1709023488.473749,-23.4375,-27.83203125,-25.87890625,-20.99609375,-1.0,1.0,-1.0,0.0,6.m4v,1.0
2024-02-27 09:44:48.481561,1709023488.4815607,-30.2734375,-20.99609375,-47.36328125,-14.16015625,-1.0,1.0,-1.0,0.0,6.m4v,1.0
2024-02-27 09:44:48.501090,1709023488.5010898,-18.5546875,-37.109375,-2.9296875,-25.87890625,-1.0,1.0,-1.0,0.0,6.m4v,1.0
2024-02-27 09:44:48.614364,1709023488.6143644,-33.69140625,-12.20703125,-25.390625,-22.94921875,-1.0,1.0,-1.0,0.0,6.m4v,1.0
2024-02-27 09:44:48.618270,1709023488.6182702,-28.80859375,-38.57421875,-41.015625,-28.3203125,-1.0,1.0,-1.0,0.0,6.m4v,1.0
2024-02-27 09:44:48.622176,1709023488.6221762,-23.92578125,-41.9921875,-31.25,-30.76171875,-1.0,1.0,-1.0,0.0,6.m4v,1.0
2024-02-27 09:44:48.626082,1709023488.626082,13.18359375,-10.7421875,6.8359375,-17.578125,-1.0,1.0,-1.0,0.0,6.m4v,1.0
2024-02-27 09:44:48.629988,1709023488.6299877,-3.90625,-17.08984375,0.0,-21.484375,-1.0,1.0,-1.0,0.0,6.m4v,1.0
2024-02-27 09:44:48.633893,1709023488.6338935,-51.26953125,-47.36328125,-42.96875,-35.64453125,-1.0,1.0,-1.0,0.0,6.m4v,1.0
2024-02-27 09:44:48.637800,1709023488.6377995,-63.4765625,-64.94140625,-67.87109375,-60.546875,-1.0,1.0,-1.0,0.0,6.m4v,1.0
2024-02-27 09:44:48.641705,1709023488.6417053,-76.66015625,-57.6171875,-59.5703125,-83.49609375,-1.0,1.0,-1.0,0.0,6.m4v,1.0
2024-02-27 09:44:48.645613,1709023488.6456132,-63.96484375,-27.83203125,-44.921875,-70.3125,-1.0,1.0,-1.0,0.0,6.m4v,1.0
2024-02-27 09:44:48.649519,1709023488.649519,-38.57421875,-29.296875,-54.19921875,-40.0390625,-1.0,1.0,-1.0,0.0,6.m4v,1.0
2024-02-27 09:44:48.653425,1709023488.6534247,-11.71875,-44.43359375,-63.96484375,-12.20703125,-1.0,1.0,-1.0,0.0,6.m4v,1.0
2024-02-27 09:44:48.657331,1709023488.6573308,-4.8828125,-41.015625,-61.03515625,-13.18359375,-1.0,1.0,-1.0,0.0,6.m4v,1.0
2024-02-27 09:44:48.661237,1709023488.6612363,17.08984375,-9.765625,-25.87890625,12.20703125,-1.0,1.0,-1.0,0.0,6.m4v,1.0
2024-02-27 09:44:48.665142,1709023488.6651423,25.87890625,13.18359375,0.9765625,34.1796875,-1.0,1.0,-1.0,0.0,6.m4v,1.0
2024-02-27 09:44:48.669048,1709023488.669048,-28.80859375,-20.5078125,-6.8359375,-20.5078125,-1.0,1.0,-1.0,0.0,6.m4v,1.0
2024-02-27 09:44:48.672954,1709023488.6729538,-64.94140625,-46.875,-20.5078125,-66.89453125,-1.0,1.0,-1.0,0.0,6.m4v,1.0
2024-02-27 09:44:48.676860,1709023488.67686,-52.24609375,-31.25,-40.0390625,-64.94140625,-1.0,1.0,-1.0,0.0,6.m4v,1.0
2024-02-27 09:44:48.680766,1709023488.6807656,-45.41015625,-28.80859375,-57.6171875,-66.89453125,-1.0,1.0,-1.0,0.0,6.m4v,1.0
2024-02-27 09:44:48.684671,1709023488.6846714,-62.01171875,-59.5703125,-65.4296875,-74.70703125,-1.0,1.0,-1.0,0.0,6.m4v,1.0
2024-02-27 09:44:48.688577,1709023488.6885772,-43.45703125,-60.05859375,-48.828125,-50.29296875,-1.0,1.0,-1.0,0.0,6.m4v,1.0
2024-02-27 09:44:48.692485,1709023488.6924849,-36.62109375,-31.25,-30.2734375,-28.3203125,-1.0,1.0,-1.0,0.0,6.m4v,1.0
2024-02-27 09:44:48.696391,1709023488.6963909,-31.73828125,-23.4375,-31.25,-31.73828125,-1.0,1.0,-1.0,0.0,6.m4v,1.0
2024-02-27 09:44:48.700297,1709023488.7002966,23.92578125,3.90625,-9.765625,1.953125,-1.0,1.0,-1.0,0.0,6.m4v,1.0
2024-02-27 09:44:48.704202,1709023488.7042024,12.6953125,20.99609375,-1.46484375,15.13671875,-1.0,1.0,-1.0,0.0,6.m4v,1.0
2024-02-27 09:44:48.708108,1709023488.7081082,-39.55078125,-9.765625,-28.80859375,-27.83203125,-1.0,1.0,-1.0,0.0,6.m4v,1.0
2024-02-27 09:44:48.712014,1709023488.7120142,-42.96875,-35.15625,-32.71484375,-43.9453125,-1.0,1.0,-1.0,0.0,6.m4v,1.0
2024-02-27 09:44:48.715920,1709023488.71592,-23.4375,-34.66796875,-28.80859375,-27.34375,-1.0,1.0,-1.0,0.0,6.m4v,1.0
2024-02-27 09:44:48.719826,1709023488.7198255,-13.18359375,-32.71484375,-19.53125,-29.296875,-1.0,1.0,-1.0,0.0,6.m4v,1.0
2024-02-27 09:44:48.723732,1709023488.7237315,-39.55078125,-40.52734375,-34.1796875,-47.8515625,-1.0,1.0,-1.0,0.0,6.m4v,1.0
2024-02-27 09:44:48.727637,1709023488.7276373,-39.0625,-44.43359375,-58.59375,-42.96875,-1.0,1.0,-1.0,0.0,6.m4v,1.0
2024-02-27 09:44:48.731543,1709023488.7315433,-4.39453125,-34.1796875,-40.0390625,-0.9765625,-1.0,1.0,-1.0,0.0,6.m4v,1.0
2024-02-27 09:44:48.735449,1709023488.735449,3.90625,-17.08984375,-18.5546875,6.34765625,-1.0,1.0,-1.0,0.0,6.m4v,1.0
2024-02-27 09:44:48.739357,1709023488.7393565,-17.08984375,-26.85546875,-32.71484375,-23.4375,-1.0,1.0,-1.0,0.0,6.m4v,1.0
2024-02-27 09:44:48.743263,1709023488.7432623,-50.29296875,-37.59765625,-52.24609375,-58.10546875,-1.0,1.0,-1.0,0.0,6.m4v,1.0
2024-02-27 09:44:48.747168,1709023488.7471683,-54.6875,-31.25,-34.1796875,-54.6875,-1.0,1.0,-1.0,0.0,6.m4v,1.0
2024-02-27 09:44:48.751074,1709023488.751074,-52.24609375,-30.76171875,-36.1328125,-23.92578125,-1.0,1.0,-1.0,0.0,6.m4v,1.0
2024-02-27 09:44:48.754980,1709023488.7549798,-37.59765625,-17.578125,-38.57421875,-21.484375,-1.0,1.0,-1.0,0.0,6.m4v,1.0
2024-02-27 09:44:48.774509,1709023488.774509,-52.734375,-23.4375,-23.92578125,-50.29296875,-1.0,1.0,-1.0,0.0,6.m4v,1.0
2024-02-27 09:44:48.778415,1709023488.778415,-31.25,-32.2265625,-23.92578125,-29.296875,-1.0,1.0,-1.0,0.0,6.m4v,1.0
2024-02-27 09:44:48.782321,1709023488.7823207,-23.92578125,-25.390625,-24.90234375,-19.04296875,-1.0,1.0,-1.0,0.0,6.m4v,1.0
2024-02-27 09:44:48.786228,1709023488.7862282,-17.578125,-20.5078125,-31.25,-22.94921875,-1.0,1.0,-1.0,0.0,6.m4v,1.0
2024-02-27 09:44:48.790134,1709023488.790134,-43.45703125,-38.57421875,-44.43359375,-22.94921875,-1.0,1.0,-1.0,0.0,6.m4v,1.0
2024-02-27 09:44:48.794040,1709023488.7940395,-62.98828125,-55.6640625,-43.9453125,-44.43359375,-1.0,1.0,-1.0,0.0,6.m4v,1.0
2024-02-27 09:44:48.797945,1709023488.7979455,-18.5546875,-41.50390625,-15.625,-29.296875,-1.0,1.0,-1.0,0.0,6.m4v,1.0
2024-02-27 09:44:48.801852,1709023488.8018515,13.18359375,-20.99609375,-2.9296875,13.18359375,-1.0,1.0,-1.0,0.0,6.m4v,1.0
2024-02-27 09:44:48.805757,1709023488.8057573,2.44140625,-9.765625,-15.13671875,12.6953125,-1.0,1.0,-1.0,0.0,6.m4v,1.0
2024-02-27 09:44:48.809663,1709023488.809663,-41.9921875,-3.41796875,-33.203125,-31.25,-1.0,1.0,-1.0,0.0,6.m4v,1.0
2024-02-27 09:44:48.813569,1709023488.8135688,-45.41015625,-13.18359375,-25.87890625,-47.36328125,-1.0,1.0,-1.0,0.0,6.m4v,1.0
2024-02-27 09:44:48.817475,1709023488.8174748,-31.73828125,-30.76171875,-35.15625,-46.38671875,-1.0,1.0,-1.0,0.0,6.m4v,1.0
2024-02-27 09:44:48.821381,1709023488.8213806,-50.29296875,-44.921875,-47.36328125,-68.84765625,-1.0,1.0,-1.0,0.0,6.m4v,1.0
2024-02-27 09:44:48.825286,1709023488.8252864,-55.6640625,-46.875,-41.015625,-63.96484375,-1.0,1.0,-1.0,0.0,6.m4v,1.0
2024-02-27 09:44:48.829192,1709023488.8291922,-34.66796875,-9.765625,-57.12890625,-37.59765625,-1.0,1.0,-1.0,0.0,6.m4v,1.0
2024-02-27 09:44:48.833100,1709023488.8330996,-60.05859375,-15.13671875,-63.4765625,-67.3828125,-1.0,1.0,-1.0,0.0,6.m4v,1.0
2024-02-27 09:44:48.837005,1709023488.8370054,-73.73046875,-33.69140625,-37.109375,-92.7734375,-1.0,1.0,-1.0,0.0,6.m4v,1.0
2024-02-27 09:44:48.840911,1709023488.8409111,-36.62109375,-18.06640625,-11.23046875,-55.17578125,-1.0,1.0,-1.0,0.0,6.m4v,1.0
2024-02-27 09:44:48.844817,1709023488.8448172,-38.0859375,-33.203125,-9.765625,-65.91796875,-1.0,1.0,-1.0,0.0,6.m4v,1.0
2024-02-27 09:44:48.848723,1709023488.848723,-70.3125,-43.45703125,-30.2734375,-90.8203125,-1.0,1.0,-1.0,0.0,6.m4v,1.0
2024-02-27 09:44:48.852629,1709023488.8526287,-72.265625,-31.73828125,-59.5703125,-76.171875,-1.0,1.0,-1.0,0.0,6.m4v,1.0
2024-02-27 09:44:48.856534,1709023488.8565345,-54.19921875,-36.1328125,-61.03515625,-65.4296875,-1.0,1.0,-1.0,0.0,6.m4v,1.0
2024-02-27 09:44:48.860440,1709023488.8604405,-27.83203125,-34.1796875,-29.296875,-46.875,-1.0,1.0,-1.0,0.0,6.m4v,1.0
2024-02-27 09:44:48.864346,1709023488.8643465,15.625,-19.04296875,-6.34765625,-16.11328125,-1.0,1.0,-1.0,0.0,6.m4v,1.0
2024-02-27 09:44:48.868252,1709023488.868252,-0.48828125,-13.671875,-20.01953125,-16.11328125,-1.0,1.0,-1.0,0.0,6.m4v,1.0
2024-02-27 09:44:48.926844,1709023488.926844,-28.3203125,-3.41796875,-36.62109375,-27.34375,-1.0,1.0,-1.0,0.0,6.m4v,1.0
2024-02-27 09:44:48.930750,1709023488.93075,-41.015625,-25.390625,-50.29296875,-26.3671875,-1.0,1.0,-1.0,0.0,6.m4v,1.0
2024-02-27 09:44:48.934656,1709023488.9346557,-45.41015625,-38.0859375,-38.57421875,-36.62109375,-1.0,1.0,-1.0,0.0,6.m4v,1.0
2024-02-27 09:44:48.938562,1709023488.9385617,-37.59765625,-27.34375,-23.4375,-53.7109375,-1.0,1.0,-1.0,0.0,6.m4v,1.0
2024-02-27 09:44:48.942467,1709023488.9424677,-22.94921875,-32.2265625,-31.25,-33.203125,-1.0,1.0,-1.0,0.0,6.m4v,1.0
2024-02-27 09:44:48.946373,1709023488.9463732,1.46484375,-40.52734375,-18.5546875,-6.34765625,-1.0,1.0,-1.0,0.0,6.m4v,1.0
2024-02-27 09:44:48.950279,1709023488.950279,-2.9296875,-27.34375,-9.765625,-5.37109375,-1.0,1.0,-1.0,0.0,6.m4v,1.0
2024-02-27 09:44:48.954185,1709023488.9541848,-41.9921875,-39.55078125,-48.828125,-31.25,-1.0,1.0,-1.0,0.0,6.m4v,1.0
2024-02-27 09:44:48.958091,1709023488.9580908,-35.64453125,-64.94140625,-53.7109375,-34.66796875,-1.0,1.0,-1.0,0.0,6.m4v,1.0
2024-02-27 09:44:48.961997,1709023488.9619966,-3.41796875,-44.921875,-20.01953125,-4.8828125,-1.0,1.0,-1.0,0.0,6.m4v,1.0
2024-02-27 09:44:48.965902,1709023488.9659023,-13.671875,1.953125,-14.16015625,-10.25390625,-1.0,1.0,-1.0,0.0,6.m4v,1.0
2024-02-27 09:44:48.969808,1709023488.969808,-43.9453125,2.44140625,-24.90234375,-47.36328125,-1.0,1.0,-1.0,0.0,6.m4v,1.0
2024-02-27 09:44:48.973716,1709023488.973716,-60.546875,-26.3671875,-39.55078125,-52.24609375,-1.0,1.0,-1.0,0.0,6.m4v,1.0
2024-02-27 09:44:48.977622,1709023488.977622,-70.80078125,-48.828125,-59.08203125,-63.4765625,-1.0,1.0,-1.0,0.0,6.m4v,1.0
2024-02-27 09:44:48.981528,1709023488.9815278,-22.4609375,-29.78515625,-28.80859375,-27.83203125,-1.0,1.0,-1.0,0.0,6.m4v,1.0
2024-02-27 09:44:48.985434,1709023488.9854336,-7.32421875,-28.3203125,-21.484375,4.39453125,-1.0,1.0,-1.0,0.0,6.m4v,1.0
2024-02-27 09:44:48.989339,1709023488.9893394,-24.90234375,-41.015625,-36.62109375,-37.59765625,-1.0,1.0,-1.0,0.0,6.m4v,1.0
2024-02-27 09:44:48.993245,1709023488.9932454,-28.80859375,-28.80859375,-30.2734375,-48.828125,-1.0,1.0,-1.0,0.0,6.m4v,1.0
2024-02-27 09:44:48.997151,1709023488.9971511,-60.05859375,-41.50390625,-35.64453125,-29.78515625,-1.0,1.0,-1.0,0.0,6.m4v,1.0
2024-02-27 09:44:49.001057,1709023489.001057,-46.38671875,-49.8046875,-32.71484375,-37.109375,-1.0,1.0,-1.0,0.0,6.m4v,1.0
2024-02-27 09:44:49.004963,1709023489.0049627,-19.53125,-20.5078125,-16.6015625,-40.52734375,-1.0,1.0,-1.0,0.0,6.m4v,1.0
2024-02-27 09:44:49.008869,1709023489.0088687,-29.296875,-8.30078125,-25.87890625,-33.69140625,-1.0,1.0,-1.0,0.0,6.m4v,1.0
2024-02-27 09:44:49.012774,1709023489.0127745,-51.7578125,-31.73828125,-40.52734375,-38.57421875,-1.0,1.0,-1.0,0.0,6.m4v,1.0
2024-02-27 09:44:49.016680,1709023489.0166802,-45.8984375,-44.43359375,-28.3203125,-22.4609375,-1.0,1.0,-1.0,0.0,6.m4v,1.0
2024-02-27 09:44:49.020588,1709023489.020588,-30.2734375,-35.64453125,-26.3671875,-26.85546875,-1.0,1.0,-1.0,0.0,6.m4v,1.0
2024-02-27 09:44:49.024494,1709023489.024494,-36.1328125,-44.43359375,-45.41015625,-43.45703125,-1.0,1.0,-1.0,0.0,6.m4v,1.0
2024-02-27 09:44:49.028400,1709023489.0283997,-52.734375,-57.6171875,-59.5703125,-48.828125,-1.0,1.0,-1.0,0.0,6.m4v,1.0
2024-02-27 09:44:49.032305,1709023489.0323057,-41.9921875,-49.31640625,-62.5,-37.109375,-1.0,1.0,-1.0,0.0,6.m4v,1.0
2024-02-27 09:44:49.036211,1709023489.0362113,-7.8125,-36.1328125,-37.109375,-12.6953125,-1.0,1.0,-1.0,0.0,6.m4v,1.0
2024-02-27 09:44:49.040117,1709023489.0401173,-4.39453125,-29.78515625,-12.6953125,-29.78515625,-1.0,1.0,-1.0,0.0,6.m4v,1.0
2024-02-27 09:44:49.044023,1709023489.044023,-16.6015625,-20.99609375,-9.27734375,-37.59765625,-1.0,1.0,-1.0,0.0,6.m4v,1.0
2024-02-27 09:44:49.047929,1709023489.0479288,-44.921875,-21.97265625,-27.34375,-44.921875,-1.0,1.0,-1.0,0.0,6.m4v,1.0
2024-02-27 09:44:49.051835,1709023489.0518346,-69.82421875,-43.45703125,-52.734375,-73.2421875,-1.0,1.0,-1.0,0.0,6.m4v,1.0
2024-02-27 09:44:49.055741,1709023489.0557406,-66.89453125,-60.05859375,-60.546875,-67.3828125,-1.0,1.0,-1.0,0.0,6.m4v,1.0
2024-02-27 09:44:49.059646,1709023489.0596464,-25.390625,-41.015625,-32.71484375,-26.85546875,-1.0,1.0,-1.0,0.0,6.m4v,1.0
2024-02-27 09:44:49.063552,1709023489.063552,-0.9765625,-26.85546875,-4.39453125,-18.5546875,-1.0,1.0,-1.0,0.0,6.m4v,1.0
2024-02-27 09:44:49.067460,1709023489.0674598,-26.3671875,-31.25,-15.13671875,-42.96875,-1.0,1.0,-1.0,0.0,6.m4v,1.0
2024-02-27 09:44:49.071366,1709023489.0713658,-52.24609375,-37.59765625,-41.50390625,-36.62109375,-1.0,1.0,-1.0,0.0,6.m4v,1.0
2024-02-27 09:44:49.075272,1709023489.0752716,-53.7109375,-36.1328125,-54.6875,-18.06640625,-1.0,1.0,-1.0,0.0,6.m4v,1.0
2024-02-27 09:44:49.079177,1709023489.0791774,-23.4375,-31.73828125,-40.0390625,-4.8828125,-1.0,1.0,-1.0,0.0,6.m4v,1.0
2024-02-27 09:44:49.473680,1709023489.4736805,-81.0546875,-40.52734375,-62.98828125,-75.1953125,-1.0,1.0,-1.0,0.0,6.m4v,1.0
2024-02-27 09:44:49.477586,1709023489.4775865,-33.69140625,-23.4375,-43.45703125,-51.7578125,-1.0,1.0,-1.0,0.0,6.m4v,1.0
2024-02-27 09:44:49.481492,1709023489.481492,6.8359375,0.0,-36.1328125,-19.53125,-1.0,1.0,-1.0,0.0,6.m4v,1.0
2024-02-27 09:44:49.485398,1709023489.4853978,-6.34765625,-19.53125,-33.203125,-14.16015625,-1.0,1.0,-1.0,0.0,6.m4v,1.0
2024-02-27 09:44:49.489305,1709023489.4893055,-26.85546875,-59.5703125,-17.08984375,-32.2265625,-1.0,1.0,-1.0,0.0,6.m4v,1.0
2024-02-27 09:44:49.493212,1709023489.4932115,-4.39453125,-49.8046875,-1.953125,-22.4609375,-1.0,1.0,-1.0,0.0,6.m4v,1.0
2024-02-27 09:44:49.497117,1709023489.4971173,1.953125,-27.83203125,-49.8046875,-10.25390625,-1.0,1.0,-1.0,0.0,6.m4v,1.0
2024-02-27 09:44:49.501023,1709023489.501023,-33.69140625,-35.64453125,-79.1015625,-19.04296875,-1.0,1.0,-1.0,0.0,6.m4v,1.0
2024-02-27 09:44:49.504929,1709023489.5049288,-67.87109375,-51.26953125,-41.9921875,-82.03125,-1.0,1.0,-1.0,0.0,6.m4v,1.0
2024-02-27 09:44:49.508835,1709023489.5088348,-80.078125,-52.24609375,-26.85546875,-104.4921875,-1.0,1.0,-1.0,0.0,6.m4v,1.0
2024-02-27 09:44:49.512741,1709023489.5127406,-67.87109375,-53.22265625,-39.0625,-74.70703125,-1.0,1.0,-1.0,0.0,6.m4v,1.0
2024-02-27 09:44:49.516646,1709023489.5166464,-41.9921875,-45.8984375,-35.15625,-50.78125,-1.0,1.0,-1.0,0.0,6.m4v,1.0
2024-02-27 09:44:49.520552,1709023489.5205522,-38.57421875,-58.59375,-67.3828125,-56.640625,-1.0,1.0,-1.0,0.0,6.m4v,1.0
2024-02-27 09:44:49.524458,1709023489.5244582,-12.6953125,-36.62109375,-63.4765625,-40.0390625,-1.0,1.0,-1.0,0.0,6.m4v,1.0
2024-02-27 09:44:49.528364,1709023489.528364,30.76171875,7.8125,-7.32421875,26.3671875,-1.0,1.0,-1.0,0.0,6.m4v,1.0
2024-02-27 09:44:49.532270,1709023489.5322697,-8.7890625,-14.6484375,-22.94921875,-1.953125,-1.0,1.0,-1.0,0.0,6.m4v,1.0
2024-02-27 09:44:49.536178,1709023489.5361776,-40.0390625,-29.78515625,-20.01953125,-42.48046875,-1.0,1.0,-1.0,0.0,6.m4v,1.0
2024-02-27 09:44:49.540083,1709023489.5400834,-53.22265625,-47.36328125,-17.08984375,-54.6875,-1.0,1.0,-1.0,0.0,6.m4v,1.0
2024-02-27 09:44:49.543989,1709023489.5439892,-59.08203125,-61.5234375,-34.66796875,-67.3828125,-1.0,1.0,-1.0,0.0,6.m4v,1.0
2024-02-27 09:44:49.547895,1709023489.5478952,-8.7890625,-32.71484375,-29.296875,-16.6015625,-1.0,1.0,-1.0,0.0,6.m4v,1.0
2024-02-27 09:44:49.551801,1709023489.551801,-6.8359375,-36.1328125,-40.52734375,-3.41796875,-1.0,1.0,-1.0,0.0,6.m4v,1.0
2024-02-27 09:44:49.555707,1709023489.5557067,-37.109375,-43.9453125,-48.33984375,-48.33984375,-1.0,1.0,-1.0,0.0,6.m4v,1.0
2024-02-27 09:44:49.559613,1709023489.5596125,-5.37109375,-21.484375,-34.66796875,-20.01953125,-1.0,1.0,-1.0,0.0,6.m4v,1.0
