Timestamp,Timestamp_UNIX,TP9,AF7,AF8,TP10,Valence,Arousal,Dominace,Viewed,Video,Participant
2024-02-28 10:31:36.176226,1709112696.176226,-35.64453125,-37.59765625,-18.5546875,-95.703125,1.0,1.0,1.0,0.0,5.m4v,8.0
2024-02-28 10:31:36.180132,1709112696.1801317,-65.91796875,-66.89453125,-21.97265625,-20.5078125,1.0,1.0,1.0,0.0,5.m4v,8.0
2024-02-28 10:31:36.184037,1709112696.1840372,-36.1328125,-67.87109375,-26.3671875,-62.5,1.0,1.0,1.0,0.0,5.m4v,8.0
2024-02-28 10:31:36.187943,1709112696.187943,-39.55078125,-47.36328125,-46.875,1.46484375,1.0,1.0,1.0,0.0,5.m4v,8.0
2024-02-28 10:31:36.191852,1709112696.1918516,30.2734375,-18.5546875,-92.7734375,10.7421875,1.0,1.0,1.0,0.0,5.m4v,8.0
2024-02-28 10:31:36.195757,1709112696.1957574,19.53125,-11.23046875,-97.16796875,-58.59375,1.0,1.0,1.0,0.0,5.m4v,8.0
2024-02-28 10:31:36.199663,1709112696.1996632,-37.109375,-32.71484375,-53.7109375,-54.6875,1.0,1.0,1.0,0.0,5.m4v,8.0
2024-02-28 10:31:36.203569,1709112696.203569,7.32421875,-38.0859375,-12.20703125,-16.11328125,1.0,1.0,1.0,0.0,5.m4v,8.0
2024-02-28 10:31:36.207475,1709112696.2074747,-52.734375,-48.33984375,10.7421875,26.3671875,1.0,1.0,1.0,0.0,5.m4v,8.0
2024-02-28 10:31:36.211380,1709112696.2113802,-70.3125,-44.921875,1.953125,0.48828125,1.0,1.0,1.0,0.0,5.m4v,8.0
2024-02-28 10:31:36.215286,1709112696.215286,-62.5,-33.69140625,-12.6953125,-20.5078125,1.0,1.0,1.0,0.0,5.m4v,8.0
2024-02-28 10:31:36.219192,1709112696.2191918,8.7890625,-30.76171875,-41.015625,-38.57421875,1.0,1.0,1.0,0.0,5.m4v,8.0
2024-02-28 10:31:36.223098,1709112696.2230976,21.97265625,-39.55078125,-56.640625,-27.83203125,1.0,1.0,1.0,0.0,5.m4v,8.0
2024-02-28 10:31:36.227003,1709112696.227003,0.9765625,-42.48046875,-44.43359375,-48.33984375,1.0,1.0,1.0,0.0,5.m4v,8.0
2024-02-28 10:31:36.230909,1709112696.230909,36.62109375,-41.015625,-50.29296875,15.13671875,1.0,1.0,1.0,0.0,5.m4v,8.0
2024-02-28 10:31:36.234815,1709112696.234815,13.671875,-51.7578125,-65.4296875,106.4453125,1.0,1.0,1.0,0.0,5.m4v,8.0
2024-02-28 10:31:36.238723,1709112696.2387233,40.52734375,-50.78125,-23.4375,-2.9296875,1.0,1.0,1.0,0.0,5.m4v,8.0
2024-02-28 10:31:36.242629,1709112696.242629,31.25,-45.41015625,-1.46484375,-26.85546875,1.0,1.0,1.0,0.0,5.m4v,8.0
2024-02-28 10:31:36.246535,1709112696.2465348,-57.12890625,-41.50390625,-16.11328125,-31.73828125,1.0,1.0,1.0,0.0,5.m4v,8.0
2024-02-28 10:31:36.250441,1709112696.2504406,-41.9921875,-25.390625,0.9765625,-37.59765625,1.0,1.0,1.0,0.0,5.m4v,8.0
2024-02-28 10:31:36.254346,1709112696.2543464,-16.11328125,-20.5078125,-9.27734375,-27.83203125,1.0,1.0,1.0,0.0,5.m4v,8.0
2024-02-28 10:31:36.258252,1709112696.258252,16.6015625,-32.71484375,-37.109375,26.3671875,1.0,1.0,1.0,0.0,5.m4v,8.0
2024-02-28 10:31:36.262158,1709112696.2621577,64.453125,-34.1796875,-60.05859375,103.515625,1.0,1.0,1.0,0.0,5.m4v,8.0
2024-02-28 10:31:36.266063,1709112696.2660637,62.5,-30.2734375,-64.94140625,17.578125,1.0,1.0,1.0,0.0,5.m4v,8.0
2024-02-28 10:31:36.269969,1709112696.2699692,52.24609375,-35.64453125,-54.19921875,-23.92578125,1.0,1.0,1.0,0.0,5.m4v,8.0
2024-02-28 10:31:36.273875,1709112696.273875,54.19921875,-32.71484375,-40.52734375,33.203125,1.0,1.0,1.0,0.0,5.m4v,8.0
2024-02-28 10:31:36.277781,1709112696.2777808,-5.37109375,-34.1796875,-11.23046875,25.390625,1.0,1.0,1.0,0.0,5.m4v,8.0
2024-02-28 10:31:36.281687,1709112696.2816863,-36.1328125,-41.9921875,-29.296875,54.6875,1.0,1.0,1.0,0.0,5.m4v,8.0
2024-02-28 10:31:36.285595,1709112696.2855947,5.37109375,-33.69140625,-57.12890625,14.6484375,1.0,1.0,1.0,0.0,5.m4v,8.0
2024-02-28 10:31:36.289500,1709112696.2895005,38.0859375,-25.390625,-18.5546875,-13.671875,1.0,1.0,1.0,0.0,5.m4v,8.0
2024-02-28 10:31:36.293406,1709112696.2934062,20.5078125,-33.69140625,-17.08984375,30.2734375,1.0,1.0,1.0,0.0,5.m4v,8.0
2024-02-28 10:31:36.297312,1709112696.297312,-12.20703125,-50.78125,-61.03515625,-30.76171875,1.0,1.0,1.0,0.0,5.m4v,8.0
2024-02-28 10:31:36.301218,1709112696.3012178,83.49609375,-31.25,-64.94140625,21.97265625,1.0,1.0,1.0,0.0,5.m4v,8.0
2024-02-28 10:31:36.305124,1709112696.3051236,78.125,-17.578125,-27.34375,47.8515625,1.0,1.0,1.0,0.0,5.m4v,8.0
2024-02-28 10:31:36.309029,1709112696.309029,-41.015625,-36.1328125,9.765625,10.25390625,1.0,1.0,1.0,0.0,5.m4v,8.0
2024-02-28 10:31:36.312935,1709112696.312935,-50.29296875,-47.36328125,3.90625,2.44140625,1.0,1.0,1.0,0.0,5.m4v,8.0
2024-02-28 10:31:36.316841,1709112696.3168406,-22.4609375,-47.36328125,-25.390625,-78.125,1.0,1.0,1.0,0.0,5.m4v,8.0
2024-02-28 10:31:36.320746,1709112696.3207464,1.953125,-30.76171875,-29.296875,-67.87109375,1.0,1.0,1.0,0.0,5.m4v,8.0
2024-02-28 10:31:36.324652,1709112696.3246522,-6.34765625,-26.3671875,-12.20703125,40.52734375,1.0,1.0,1.0,0.0,5.m4v,8.0
2024-02-28 10:31:36.328558,1709112696.328558,-3.90625,-28.80859375,-25.390625,15.625,1.0,1.0,1.0,0.0,5.m4v,8.0
2024-02-28 10:31:36.332466,1709112696.332466,21.484375,-22.94921875,-72.265625,-30.76171875,1.0,1.0,1.0,0.0,5.m4v,8.0
2024-02-28 10:31:36.336372,1709112696.336372,-35.15625,-31.73828125,-93.26171875,-8.7890625,1.0,1.0,1.0,0.0,5.m4v,8.0
2024-02-28 10:31:36.340278,1709112696.3402777,-48.828125,-45.41015625,-41.50390625,-31.25,1.0,1.0,1.0,0.0,5.m4v,8.0
2024-02-28 10:31:36.344183,1709112696.3441834,-15.13671875,-51.26953125,2.44140625,-27.34375,1.0,1.0,1.0,0.0,5.m4v,8.0
2024-02-28 10:31:36.348089,1709112696.3480892,-52.24609375,-52.24609375,9.765625,9.765625,1.0,1.0,1.0,0.0,5.m4v,8.0
2024-02-28 10:31:36.351995,1709112696.351995,-67.3828125,-45.8984375,-11.23046875,-58.59375,1.0,1.0,1.0,0.0,5.m4v,8.0
2024-02-28 10:31:36.355901,1709112696.3559008,9.27734375,-37.59765625,-30.2734375,-20.99609375,1.0,1.0,1.0,0.0,5.m4v,8.0
2024-02-28 10:31:36.359806,1709112696.3598063,12.6953125,-51.7578125,-20.5078125,-11.71875,1.0,1.0,1.0,0.0,5.m4v,8.0
2024-02-28 10:31:36.363712,1709112696.363712,-90.8203125,-62.01171875,-31.25,-61.03515625,1.0,1.0,1.0,0.0,5.m4v,8.0
2024-02-28 10:31:36.367618,1709112696.3676178,-97.65625,-31.73828125,-49.31640625,-44.43359375,1.0,1.0,1.0,0.0,5.m4v,8.0
2024-02-28 10:31:36.371524,1709112696.3715236,-84.9609375,-18.5546875,-54.19921875,-64.94140625,1.0,1.0,1.0,0.0,5.m4v,8.0
2024-02-28 10:31:36.375429,1709112696.3754294,-16.11328125,-31.25,-90.33203125,-121.58203125,1.0,1.0,1.0,0.0,5.m4v,8.0
2024-02-28 10:31:36.379337,1709112696.3793373,-34.1796875,-46.875,-89.35546875,-50.29296875,1.0,1.0,1.0,0.0,5.m4v,8.0
2024-02-28 10:31:36.383243,1709112696.383243,-130.37109375,-59.5703125,-23.4375,-20.99609375,1.0,1.0,1.0,0.0,5.m4v,8.0
2024-02-28 10:31:36.387149,1709112696.3871489,-68.359375,-38.0859375,-20.99609375,-87.40234375,1.0,1.0,1.0,0.0,5.m4v,8.0
2024-02-28 10:31:36.391055,1709112696.3910546,-71.77734375,-22.4609375,-37.59765625,-56.640625,1.0,1.0,1.0,0.0,5.m4v,8.0
2024-02-28 10:31:36.394960,1709112696.3949602,-107.91015625,-27.83203125,-19.04296875,-7.32421875,1.0,1.0,1.0,0.0,5.m4v,8.0
2024-02-28 10:31:36.398866,1709112696.398866,-43.45703125,-25.87890625,-6.34765625,-22.4609375,1.0,1.0,1.0,0.0,5.m4v,8.0
2024-02-28 10:31:36.539480,1709112696.5394795,12.6953125,-48.33984375,-54.6875,41.50390625,1.0,1.0,1.0,0.0,5.m4v,8.0
2024-02-28 10:31:36.543386,1709112696.5433855,-48.828125,-37.59765625,-69.3359375,14.16015625,1.0,1.0,1.0,0.0,5.m4v,8.0
2024-02-28 10:31:36.547291,1709112696.5472913,-2.9296875,-27.83203125,-41.9921875,-24.90234375,1.0,1.0,1.0,0.0,5.m4v,8.0
2024-02-28 10:31:36.551197,1709112696.551197,-34.1796875,-36.1328125,-12.20703125,-49.8046875,1.0,1.0,1.0,0.0,5.m4v,8.0
2024-02-28 10:31:36.555103,1709112696.5551026,-44.921875,-25.87890625,-6.8359375,-25.390625,1.0,1.0,1.0,0.0,5.m4v,8.0
2024-02-28 10:31:36.559008,1709112696.5590084,16.6015625,-20.99609375,-18.06640625,-6.8359375,1.0,1.0,1.0,0.0,5.m4v,8.0
2024-02-28 10:31:36.562914,1709112696.562914,13.671875,-39.55078125,-15.13671875,32.71484375,1.0,1.0,1.0,0.0,5.m4v,8.0
2024-02-28 10:31:36.566823,1709112696.5668228,10.7421875,-56.15234375,-52.24609375,28.80859375,1.0,1.0,1.0,0.0,5.m4v,8.0
2024-02-28 10:31:36.812897,1709112696.8128967,-145.5078125,-50.29296875,-42.48046875,-148.92578125,1.0,1.0,1.0,0.0,5.m4v,8.0
2024-02-28 10:31:36.816803,1709112696.8168025,-95.21484375,-26.85546875,-52.734375,-139.16015625,1.0,1.0,1.0,0.0,5.m4v,8.0
2024-02-28 10:31:36.820708,1709112696.8207085,-86.42578125,-15.625,-22.94921875,-9.27734375,1.0,1.0,1.0,0.0,5.m4v,8.0
2024-02-28 10:31:36.824614,1709112696.824614,-73.73046875,-15.13671875,-24.4140625,-25.87890625,1.0,1.0,1.0,0.0,5.m4v,8.0
2024-02-28 10:31:36.828520,1709112696.8285198,-66.89453125,-14.16015625,-33.203125,-151.3671875,1.0,1.0,1.0,0.0,5.m4v,8.0
2024-02-28 10:31:36.832425,1709112696.8324254,-40.0390625,-17.08984375,-28.3203125,-21.97265625,1.0,1.0,1.0,0.0,5.m4v,8.0
2024-02-28 10:31:36.836331,1709112696.8363311,-41.015625,-25.390625,-37.59765625,10.25390625,1.0,1.0,1.0,0.0,5.m4v,8.0
2024-02-28 10:31:36.840237,1709112696.840237,-8.30078125,-26.3671875,-36.1328125,-98.6328125,1.0,1.0,1.0,0.0,5.m4v,8.0
2024-02-28 10:31:36.844143,1709112696.844143,9.765625,-24.90234375,-45.41015625,-88.8671875,1.0,1.0,1.0,0.0,5.m4v,8.0
2024-02-28 10:31:36.848050,1709112696.8480504,-72.265625,-41.9921875,-47.36328125,-31.73828125,1.0,1.0,1.0,0.0,5.m4v,8.0
2024-02-28 10:31:36.851956,1709112696.851956,13.671875,-46.38671875,-51.7578125,-53.22265625,1.0,1.0,1.0,0.0,5.m4v,8.0
2024-02-28 10:31:36.855862,1709112696.855862,32.2265625,-40.0390625,-31.73828125,59.08203125,1.0,1.0,1.0,0.0,5.m4v,8.0
2024-02-28 10:31:36.859768,1709112696.8597677,-26.85546875,-34.66796875,-8.7890625,56.640625,1.0,1.0,1.0,0.0,5.m4v,8.0
2024-02-28 10:31:36.863673,1709112696.8636732,21.484375,-21.97265625,-30.76171875,-90.33203125,1.0,1.0,1.0,0.0,5.m4v,8.0
2024-02-28 10:31:36.867579,1709112696.867579,34.66796875,-27.83203125,-33.203125,-12.20703125,1.0,1.0,1.0,0.0,5.m4v,8.0
2024-02-28 10:31:36.871485,1709112696.8714848,-49.31640625,-41.9921875,-29.78515625,17.08984375,1.0,1.0,1.0,0.0,5.m4v,8.0
2024-02-28 10:31:36.875391,1709112696.8753903,-36.1328125,-31.25,-54.19921875,-16.11328125,1.0,1.0,1.0,0.0,5.m4v,8.0
2024-02-28 10:31:36.879296,1709112696.8792963,23.4375,-17.578125,-51.7578125,-17.578125,1.0,1.0,1.0,0.0,5.m4v,8.0
2024-02-28 10:31:36.883202,1709112696.883202,-20.5078125,-25.390625,-35.64453125,-50.78125,1.0,1.0,1.0,0.0,5.m4v,8.0
2024-02-28 10:31:36.887108,1709112696.8871078,10.25390625,-39.0625,-25.87890625,-53.7109375,1.0,1.0,1.0,0.0,5.m4v,8.0
2024-02-28 10:31:36.891013,1709112696.8910134,14.16015625,-43.45703125,-30.76171875,14.16015625,1.0,1.0,1.0,0.0,5.m4v,8.0
2024-02-28 10:31:36.894922,1709112696.8949225,1.46484375,-20.01953125,-47.8515625,42.48046875,1.0,1.0,1.0,0.0,5.m4v,8.0
2024-02-28 10:31:36.898828,1709112696.898828,31.73828125,-20.01953125,-44.921875,0.9765625,1.0,1.0,1.0,0.0,5.m4v,8.0
2024-02-28 10:31:36.902734,1709112696.9027338,-23.4375,-61.5234375,-28.3203125,-38.0859375,1.0,1.0,1.0,0.0,5.m4v,8.0
2024-02-28 10:31:36.906640,1709112696.9066396,-106.4453125,-72.265625,-0.9765625,-62.98828125,1.0,1.0,1.0,0.0,5.m4v,8.0
2024-02-28 10:31:36.910545,1709112696.910545,-54.6875,-42.48046875,1.953125,-24.4140625,1.0,1.0,1.0,0.0,5.m4v,8.0
2024-02-28 10:31:36.914451,1709112696.9144511,-8.7890625,-23.92578125,-33.69140625,-57.6171875,1.0,1.0,1.0,0.0,5.m4v,8.0
2024-02-28 10:31:36.922262,1709112696.9222624,56.15234375,-22.94921875,-18.5546875,103.02734375,1.0,1.0,1.0,0.0,5.m4v,8.0
2024-02-28 10:31:36.930074,1709112696.930074,35.15625,-65.91796875,-83.984375,-30.76171875,1.0,1.0,1.0,0.0,5.m4v,8.0
2024-02-28 10:31:36.937886,1709112696.9378855,-4.39453125,-34.1796875,-27.34375,43.45703125,1.0,1.0,1.0,0.0,5.m4v,8.0
2024-02-28 10:31:36.945700,1709112696.9457,41.015625,-17.578125,-24.4140625,-38.0859375,1.0,1.0,1.0,0.0,5.m4v,8.0
2024-02-28 10:31:37.105843,1709112697.1058428,-83.49609375,-26.3671875,-38.57421875,-141.11328125,1.0,1.0,1.0,0.0,5.m4v,8.0
2024-02-28 10:31:37.109749,1709112697.1097486,-94.23828125,-25.390625,-31.73828125,-152.83203125,1.0,1.0,1.0,0.0,5.m4v,8.0
2024-02-28 10:31:37.113654,1709112697.1136544,-8.30078125,-4.8828125,-27.34375,-93.75,1.0,1.0,1.0,0.0,5.m4v,8.0
2024-02-28 10:31:37.117560,1709112697.11756,-69.3359375,-13.671875,-44.921875,-44.43359375,1.0,1.0,1.0,0.0,5.m4v,8.0
2024-02-28 10:31:37.121466,1709112697.1214657,-193.359375,-35.15625,-27.34375,-62.98828125,1.0,1.0,1.0,0.0,5.m4v,8.0
2024-02-28 10:31:37.125371,1709112697.1253717,-152.83203125,-41.015625,-10.25390625,-120.1171875,1.0,1.0,1.0,0.0,5.m4v,8.0
2024-02-28 10:31:37.129280,1709112697.1292796,-54.19921875,-48.33984375,-27.83203125,-164.55078125,1.0,1.0,1.0,0.0,5.m4v,8.0
2024-02-28 10:31:37.133185,1709112697.1331854,-108.3984375,-57.6171875,-52.734375,-77.1484375,1.0,1.0,1.0,0.0,5.m4v,8.0
2024-02-28 10:31:37.137091,1709112697.1370912,-132.8125,-53.7109375,-62.5,-43.45703125,1.0,1.0,1.0,0.0,5.m4v,8.0
2024-02-28 10:31:37.140997,1709112697.140997,-88.8671875,-53.22265625,-33.203125,-104.4921875,1.0,1.0,1.0,0.0,5.m4v,8.0
2024-02-28 10:31:37.144902,1709112697.1449025,-88.37890625,-66.40625,-13.671875,-88.37890625,1.0,1.0,1.0,0.0,5.m4v,8.0
2024-02-28 10:31:37.148808,1709112697.1488082,-83.0078125,-53.7109375,-24.4140625,-77.1484375,1.0,1.0,1.0,0.0,5.m4v,8.0
2024-02-28 10:31:37.152714,1709112697.152714,-127.9296875,-30.2734375,-51.26953125,-36.62109375,1.0,1.0,1.0,0.0,5.m4v,8.0
2024-02-28 10:31:37.156620,1709112697.1566198,-45.8984375,-32.2265625,-53.22265625,-45.41015625,1.0,1.0,1.0,0.0,5.m4v,8.0
2024-02-28 10:31:37.160526,1709112697.1605256,-22.94921875,-55.17578125,-34.66796875,-98.14453125,1.0,1.0,1.0,0.0,5.m4v,8.0
2024-02-28 10:31:37.164431,1709112697.164431,-78.61328125,-53.7109375,-24.90234375,-109.86328125,1.0,1.0,1.0,0.0,5.m4v,8.0
2024-02-28 10:31:37.168337,1709112697.168337,-50.78125,-33.203125,-18.5546875,-59.5703125,1.0,1.0,1.0,0.0,5.m4v,8.0
2024-02-28 10:31:37.172243,1709112697.1722429,12.20703125,-32.2265625,-15.13671875,2.9296875,1.0,1.0,1.0,0.0,5.m4v,8.0
2024-02-28 10:31:37.176151,1709112697.1761506,-26.3671875,-44.43359375,-23.4375,-8.30078125,1.0,1.0,1.0,0.0,5.m4v,8.0
2024-02-28 10:31:37.180056,1709112697.1800563,-77.63671875,-48.828125,-31.73828125,-54.19921875,1.0,1.0,1.0,0.0,5.m4v,8.0
2024-02-28 10:31:37.183962,1709112697.183962,-52.734375,-50.78125,-36.62109375,-52.24609375,1.0,1.0,1.0,0.0,5.m4v,8.0
2024-02-28 10:31:37.187868,1709112697.187868,-51.26953125,-47.8515625,-62.98828125,-36.62109375,1.0,1.0,1.0,0.0,5.m4v,8.0
2024-02-28 10:31:37.191773,1709112697.1917734,-20.99609375,-27.83203125,-76.171875,18.06640625,1.0,1.0,1.0,0.0,5.m4v,8.0
2024-02-28 10:31:37.195679,1709112697.1956792,-5.37109375,-28.3203125,-45.8984375,-28.3203125,1.0,1.0,1.0,0.0,5.m4v,8.0
2024-02-28 10:31:37.199585,1709112697.199585,-38.0859375,-40.0390625,-12.20703125,-79.1015625,1.0,1.0,1.0,0.0,5.m4v,8.0
2024-02-28 10:31:37.203491,1709112697.2034907,-4.8828125,-41.015625,-25.87890625,-60.546875,1.0,1.0,1.0,0.0,5.m4v,8.0
2024-02-28 10:31:37.207397,1709112697.2073965,5.37109375,-48.33984375,-46.875,9.27734375,1.0,1.0,1.0,0.0,5.m4v,8.0
2024-02-28 10:31:37.211302,1709112697.2113025,-43.45703125,-45.8984375,-15.625,79.1015625,1.0,1.0,1.0,0.0,5.m4v,8.0
2024-02-28 10:31:37.215208,1709112697.215208,-61.03515625,-32.2265625,-0.48828125,-56.15234375,1.0,1.0,1.0,0.0,5.m4v,8.0
2024-02-28 10:31:37.219114,1709112697.2191136,8.7890625,-20.5078125,-28.80859375,-105.46875,1.0,1.0,1.0,0.0,5.m4v,8.0
2024-02-28 10:31:37.223021,1709112697.2230213,6.8359375,-18.5546875,-74.21875,-61.03515625,1.0,1.0,1.0,0.0,5.m4v,8.0
2024-02-28 10:31:37.226927,1709112697.226927,-68.84765625,-36.62109375,-48.33984375,-45.41015625,1.0,1.0,1.0,0.0,5.m4v,8.0
2024-02-28 10:31:37.230833,1709112697.2308328,-45.8984375,-47.8515625,-9.27734375,25.390625,1.0,1.0,1.0,0.0,5.m4v,8.0
2024-02-28 10:31:37.234739,1709112697.2347386,20.5078125,-29.78515625,-52.24609375,73.2421875,1.0,1.0,1.0,0.0,5.m4v,8.0
2024-02-28 10:31:37.238644,1709112697.238644,58.59375,-36.62109375,-49.8046875,8.7890625,1.0,1.0,1.0,0.0,5.m4v,8.0
2024-02-28 10:31:37.242550,1709112697.24255,-39.0625,-62.98828125,-5.859375,-62.98828125,1.0,1.0,1.0,0.0,5.m4v,8.0
2024-02-28 10:31:37.246456,1709112697.2464557,-38.57421875,-43.9453125,-22.94921875,-92.7734375,1.0,1.0,1.0,0.0,5.m4v,8.0
2024-02-28 10:31:37.250361,1709112697.2503614,17.08984375,-19.04296875,-43.45703125,11.71875,1.0,1.0,1.0,0.0,5.m4v,8.0
2024-02-28 10:31:37.254267,1709112697.2542672,-51.26953125,-21.484375,-43.45703125,79.1015625,1.0,1.0,1.0,0.0,5.m4v,8.0
2024-02-28 10:31:37.258173,1709112697.258173,-100.09765625,-38.0859375,-48.33984375,-62.01171875,1.0,1.0,1.0,0.0,5.m4v,8.0
2024-02-28 10:31:37.262079,1709112697.2620788,-16.6015625,-50.29296875,-32.2265625,-106.4453125,1.0,1.0,1.0,0.0,5.m4v,8.0
2024-02-28 10:31:37.265984,1709112697.2659843,44.43359375,-40.52734375,-24.90234375,-8.30078125,1.0,1.0,1.0,0.0,5.m4v,8.0
2024-02-28 10:31:37.269893,1709112697.2698932,5.859375,-34.1796875,-11.23046875,19.53125,1.0,1.0,1.0,0.0,5.m4v,8.0
2024-02-28 10:31:37.273799,1709112697.273799,-24.4140625,-36.62109375,-20.01953125,17.578125,1.0,1.0,1.0,0.0,5.m4v,8.0
2024-02-28 10:31:37.277705,1709112697.2777047,10.7421875,-36.62109375,-50.78125,40.0390625,1.0,1.0,1.0,0.0,5.m4v,8.0
2024-02-28 10:31:37.281610,1709112697.2816105,22.4609375,-27.83203125,-54.6875,-38.0859375,1.0,1.0,1.0,0.0,5.m4v,8.0
2024-02-28 10:31:37.285516,1709112697.2855165,46.38671875,-20.01953125,-48.33984375,9.27734375,1.0,1.0,1.0,0.0,5.m4v,8.0
2024-02-28 10:31:37.289422,1709112697.289422,103.515625,-37.109375,-51.7578125,83.49609375,1.0,1.0,1.0,0.0,5.m4v,8.0
2024-02-28 10:31:37.293328,1709112697.2933276,48.33984375,-41.50390625,-40.52734375,69.3359375,1.0,1.0,1.0,0.0,5.m4v,8.0
2024-02-28 10:31:37.297233,1709112697.297233,17.08984375,-56.640625,14.16015625,3.90625,1.0,1.0,1.0,0.0,5.m4v,8.0
2024-02-28 10:31:37.301139,1709112697.301139,27.34375,-74.21875,-12.20703125,-32.71484375,1.0,1.0,1.0,0.0,5.m4v,8.0
2024-02-28 10:31:37.351917,1709112697.3519168,20.99609375,-64.453125,-66.89453125,-10.7421875,1.0,1.0,1.0,0.0,5.m4v,8.0
2024-02-28 10:31:37.355823,1709112697.3558226,-38.57421875,-56.15234375,-80.078125,18.5546875,1.0,1.0,1.0,0.0,5.m4v,8.0
2024-02-28 10:31:37.359728,1709112697.3597283,-40.52734375,-38.57421875,-31.25,14.6484375,1.0,1.0,1.0,0.0,5.m4v,8.0
2024-02-28 10:31:37.363637,1709112697.3636367,25.87890625,-47.36328125,1.46484375,-38.0859375,1.0,1.0,1.0,0.0,5.m4v,8.0
2024-02-28 10:31:37.367543,1709112697.3675425,-17.578125,-37.109375,0.0,-37.109375,1.0,1.0,1.0,0.0,5.m4v,8.0
2024-02-28 10:31:37.371448,1709112697.3714485,-77.1484375,-7.32421875,-30.76171875,-94.23828125,1.0,1.0,1.0,0.0,5.m4v,8.0
2024-02-28 10:31:37.375354,1709112697.375354,4.8828125,7.8125,-59.5703125,-22.4609375,1.0,1.0,1.0,0.0,5.m4v,8.0
2024-02-28 10:31:37.379260,1709112697.3792598,-8.7890625,-19.04296875,-43.45703125,-18.5546875,1.0,1.0,1.0,0.0,5.m4v,8.0
2024-02-28 10:31:37.383166,1709112697.3831656,-76.66015625,-58.10546875,-44.43359375,-44.43359375,1.0,1.0,1.0,0.0,5.m4v,8.0
2024-02-28 10:31:37.387071,1709112697.3870711,-75.68359375,-65.91796875,-58.10546875,-46.875,1.0,1.0,1.0,0.0,5.m4v,8.0
2024-02-28 10:31:37.390977,1709112697.390977,-29.78515625,-65.4296875,-52.24609375,-27.34375,1.0,1.0,1.0,0.0,5.m4v,8.0
2024-02-28 10:31:37.394883,1709112697.394883,29.78515625,-51.26953125,-76.171875,0.48828125,1.0,1.0,1.0,0.0,5.m4v,8.0
2024-02-28 10:31:37.398788,1709112697.3987885,-62.5,-20.5078125,-58.59375,-74.21875,1.0,1.0,1.0,0.0,5.m4v,8.0
2024-02-28 10:31:37.402694,1709112697.4026942,-88.37890625,-20.99609375,-5.859375,-136.23046875,1.0,1.0,1.0,0.0,5.m4v,8.0
2024-02-28 10:31:37.406600,1709112697.4066,-4.39453125,-24.4140625,8.30078125,-57.12890625,1.0,1.0,1.0,0.0,5.m4v,8.0
2024-02-28 10:31:37.410510,1709112697.4105096,-36.62109375,-22.94921875,-34.1796875,34.66796875,1.0,1.0,1.0,0.0,5.m4v,8.0
2024-02-28 10:31:37.414415,1709112697.4144154,-118.65234375,-37.59765625,-75.1953125,-52.734375,1.0,1.0,1.0,0.0,5.m4v,8.0
2024-02-28 10:31:37.418321,1709112697.4183211,-116.2109375,-43.9453125,-45.41015625,-98.14453125,1.0,1.0,1.0,0.0,5.m4v,8.0
2024-02-28 10:31:37.422227,1709112697.422227,-38.0859375,-44.43359375,-29.78515625,-74.70703125,1.0,1.0,1.0,0.0,5.m4v,8.0
2024-02-28 10:31:37.426133,1709112697.426133,-23.4375,-57.6171875,-21.484375,-62.98828125,1.0,1.0,1.0,0.0,5.m4v,8.0
2024-02-28 10:31:37.508158,1709112697.5081575,-21.97265625,-37.59765625,-30.76171875,-69.82421875,1.0,1.0,1.0,0.0,5.m4v,8.0
2024-02-28 10:31:37.515969,1709112697.5159693,-102.05078125,-41.50390625,-38.57421875,-113.28125,1.0,1.0,1.0,0.0,5.m4v,8.0
2024-02-28 10:31:37.523781,1709112697.5237806,-86.42578125,-44.921875,3.90625,-31.25,1.0,1.0,1.0,0.0,5.m4v,8.0
2024-02-28 10:31:37.531592,1709112697.531592,-15.625,-11.23046875,-94.7265625,-87.890625,1.0,1.0,1.0,0.0,5.m4v,8.0
2024-02-28 10:31:37.539404,1709112697.5394037,-214.35546875,-54.6875,8.7890625,-148.4375,1.0,1.0,1.0,0.0,5.m4v,8.0
2024-02-28 10:31:37.793292,1709112697.793292,-14.16015625,-25.87890625,-21.97265625,-56.640625,1.0,1.0,1.0,0.0,5.m4v,8.0
2024-02-28 10:31:37.801104,1709112697.8011036,6.8359375,-37.59765625,-28.3203125,-38.57421875,1.0,1.0,1.0,0.0,5.m4v,8.0
2024-02-28 10:31:37.805009,1709112697.8050094,18.06640625,-34.1796875,-27.83203125,49.8046875,1.0,1.0,1.0,0.0,5.m4v,8.0
2024-02-28 10:31:37.808915,1709112697.808915,-14.16015625,-28.3203125,-25.87890625,77.1484375,1.0,1.0,1.0,0.0,5.m4v,8.0
2024-02-28 10:31:37.812821,1709112697.812821,-46.875,-31.25,-30.76171875,-66.40625,1.0,1.0,1.0,0.0,5.m4v,8.0
2024-02-28 10:31:37.816726,1709112697.8167264,-44.43359375,-30.76171875,-61.5234375,-56.640625,1.0,1.0,1.0,0.0,5.m4v,8.0
2024-02-28 10:31:37.820632,1709112697.8206322,-38.57421875,-28.3203125,-49.31640625,-47.36328125,1.0,1.0,1.0,0.0,5.m4v,8.0
2024-02-28 10:31:37.824538,1709112697.824538,-9.765625,-49.8046875,-10.25390625,-79.1015625,1.0,1.0,1.0,0.0,5.m4v,8.0
2024-02-28 10:31:37.828444,1709112697.8284438,-19.53125,-46.875,-32.2265625,-40.0390625,1.0,1.0,1.0,0.0,5.m4v,8.0
2024-02-28 10:31:37.832352,1709112697.8323524,-46.875,-18.5546875,-56.640625,-29.296875,1.0,1.0,1.0,0.0,5.m4v,8.0
2024-02-28 10:31:37.836258,1709112697.8362582,-40.52734375,-16.6015625,-32.2265625,-25.87890625,1.0,1.0,1.0,0.0,5.m4v,8.0
2024-02-28 10:31:37.840164,1709112697.8401637,-70.80078125,-25.390625,-7.8125,-39.0625,1.0,1.0,1.0,0.0,5.m4v,8.0
2024-02-28 10:31:37.844069,1709112697.8440695,-73.2421875,-15.625,-29.296875,-52.24609375,1.0,1.0,1.0,0.0,5.m4v,8.0
2024-02-28 10:31:37.847975,1709112697.8479753,-54.19921875,4.39453125,-58.10546875,-78.125,1.0,1.0,1.0,0.0,5.m4v,8.0
2024-02-28 10:31:37.851881,1709112697.851881,-81.54296875,6.34765625,-40.52734375,-120.1171875,1.0,1.0,1.0,0.0,5.m4v,8.0
2024-02-28 10:31:37.855787,1709112697.8557868,-130.37109375,-16.11328125,-14.16015625,-100.09765625,1.0,1.0,1.0,0.0,5.m4v,8.0
2024-02-28 10:31:37.859693,1709112697.8596926,-99.609375,-19.53125,-18.5546875,-105.46875,1.0,1.0,1.0,0.0,5.m4v,8.0
2024-02-28 10:31:37.863598,1709112697.8635983,-85.44921875,-3.90625,-41.015625,-122.0703125,1.0,1.0,1.0,0.0,5.m4v,8.0
2024-02-28 10:31:37.867504,1709112697.867504,-130.37109375,7.8125,-10.25390625,-145.5078125,1.0,1.0,1.0,0.0,5.m4v,8.0
2024-02-28 10:31:37.871410,1709112697.8714097,-153.80859375,8.30078125,19.04296875,-136.23046875,1.0,1.0,1.0,0.0,5.m4v,8.0
2024-02-28 10:31:37.875315,1709112697.8753154,-152.34375,-0.9765625,-17.578125,-72.75390625,1.0,1.0,1.0,0.0,5.m4v,8.0
2024-02-28 10:31:37.879224,1709112697.8792236,-115.72265625,-14.16015625,-46.38671875,-105.95703125,1.0,1.0,1.0,0.0,5.m4v,8.0
2024-02-28 10:31:37.883129,1709112697.8831294,-93.26171875,-16.6015625,-47.8515625,-124.51171875,1.0,1.0,1.0,0.0,5.m4v,8.0
2024-02-28 10:31:37.887035,1709112697.8870351,-88.8671875,-10.7421875,-30.2734375,-129.8828125,1.0,1.0,1.0,0.0,5.m4v,8.0
2024-02-28 10:31:37.890941,1709112697.890941,-115.234375,-18.06640625,-6.34765625,-124.51171875,1.0,1.0,1.0,0.0,5.m4v,8.0
2024-02-28 10:31:37.894846,1709112697.8948464,-135.7421875,-25.87890625,-23.92578125,-93.26171875,1.0,1.0,1.0,0.0,5.m4v,8.0
2024-02-28 10:31:37.898752,1709112697.8987522,-123.53515625,-33.69140625,-29.78515625,-119.62890625,1.0,1.0,1.0,0.0,5.m4v,8.0
2024-02-28 10:31:37.902658,1709112697.902658,-87.890625,-23.92578125,-34.1796875,-72.265625,1.0,1.0,1.0,0.0,5.m4v,8.0
2024-02-28 10:31:37.906564,1709112697.9065638,-37.59765625,-20.99609375,-83.0078125,-49.31640625,1.0,1.0,1.0,0.0,5.m4v,8.0
2024-02-28 10:31:37.910470,1709112697.9104695,-89.84375,-39.0625,-79.58984375,-120.60546875,1.0,1.0,1.0,0.0,5.m4v,8.0
2024-02-28 10:31:37.914375,1709112697.9143753,-117.67578125,-37.59765625,-31.25,-131.34765625,1.0,1.0,1.0,0.0,5.m4v,8.0
2024-02-28 10:31:37.918281,1709112697.918281,-83.984375,-35.15625,-12.20703125,-117.67578125,1.0,1.0,1.0,0.0,5.m4v,8.0
2024-02-28 10:31:37.922187,1709112697.9221869,-111.81640625,-42.48046875,-2.9296875,-139.16015625,1.0,1.0,1.0,0.0,5.m4v,8.0
2024-02-28 10:31:37.926095,1709112697.9260943,-102.5390625,-63.4765625,4.8828125,-54.6875,1.0,1.0,1.0,0.0,5.m4v,8.0
2024-02-28 10:31:37.930000,1709112697.9300003,-55.17578125,-53.22265625,-14.6484375,9.27734375,1.0,1.0,1.0,0.0,5.m4v,8.0
2024-02-28 10:31:37.933906,1709112697.933906,-87.890625,-15.13671875,-55.17578125,-93.75,1.0,1.0,1.0,0.0,5.m4v,8.0
2024-02-28 10:31:37.937812,1709112697.9378116,-95.21484375,-12.6953125,-42.48046875,-116.69921875,1.0,1.0,1.0,0.0,5.m4v,8.0
2024-02-28 10:31:37.941717,1709112697.9417174,-96.6796875,-30.2734375,-30.76171875,-84.9609375,1.0,1.0,1.0,0.0,5.m4v,8.0
2024-02-28 10:31:37.945623,1709112697.9456232,-94.23828125,-52.24609375,-68.84765625,-97.16796875,1.0,1.0,1.0,0.0,5.m4v,8.0
2024-02-28 10:31:37.949529,1709112697.949529,-66.89453125,-68.359375,-62.98828125,-114.74609375,1.0,1.0,1.0,0.0,5.m4v,8.0
2024-02-28 10:31:37.953435,1709112697.9534347,-73.2421875,-68.359375,-34.66796875,-102.05078125,1.0,1.0,1.0,0.0,5.m4v,8.0
2024-02-28 10:31:37.957340,1709112697.9573405,-76.66015625,-66.40625,-61.03515625,-28.3203125,1.0,1.0,1.0,0.0,5.m4v,8.0
2024-02-28 10:31:37.961246,1709112697.9612465,-120.1171875,-50.78125,-38.0859375,-69.3359375,1.0,1.0,1.0,0.0,5.m4v,8.0
2024-02-28 10:31:37.965152,1709112697.965152,-132.32421875,-35.15625,-7.8125,-127.9296875,1.0,1.0,1.0,0.0,5.m4v,8.0
2024-02-28 10:31:37.969058,1709112697.9690576,-95.703125,-39.0625,-23.4375,-115.72265625,1.0,1.0,1.0,0.0,5.m4v,8.0
2024-02-28 10:31:37.972965,1709112697.9729657,-77.63671875,-50.29296875,-27.83203125,-89.35546875,1.0,1.0,1.0,0.0,5.m4v,8.0
2024-02-28 10:31:37.976871,1709112697.9768713,-55.17578125,-62.5,-62.98828125,-20.99609375,1.0,1.0,1.0,0.0,5.m4v,8.0
2024-02-28 10:31:37.980777,1709112697.9807768,-22.4609375,-73.2421875,-97.16796875,15.625,1.0,1.0,1.0,0.0,5.m4v,8.0
2024-02-28 10:31:37.984683,1709112697.9846826,-41.015625,-50.78125,-41.50390625,-43.45703125,1.0,1.0,1.0,0.0,5.m4v,8.0
2024-02-28 10:31:37.988588,1709112697.9885883,-73.2421875,-16.6015625,-2.9296875,-106.4453125,1.0,1.0,1.0,0.0,5.m4v,8.0
2024-02-28 10:31:37.992494,1709112697.992494,-54.19921875,-26.85546875,-30.76171875,-87.890625,1.0,1.0,1.0,0.0,5.m4v,8.0
2024-02-28 10:31:38.019837,1709112698.0198374,38.0859375,-41.9921875,-47.36328125,17.08984375,1.0,1.0,1.0,0.0,5.m4v,8.0
2024-02-28 10:31:38.023743,1709112698.0237432,6.8359375,-41.50390625,-31.73828125,-13.18359375,1.0,1.0,1.0,0.0,5.m4v,8.0
2024-02-28 10:31:38.027649,1709112698.027649,11.23046875,-43.9453125,-37.109375,-41.9921875,1.0,1.0,1.0,0.0,5.m4v,8.0
2024-02-28 10:31:38.031555,1709112698.0315547,-1.46484375,-56.640625,-36.1328125,-0.9765625,1.0,1.0,1.0,0.0,5.m4v,8.0
2024-02-28 10:31:38.035460,1709112698.0354602,-11.23046875,-48.33984375,-57.12890625,15.625,1.0,1.0,1.0,0.0,5.m4v,8.0
2024-02-28 10:31:38.039366,1709112698.039366,20.99609375,-41.015625,-70.80078125,44.921875,1.0,1.0,1.0,0.0,5.m4v,8.0
2024-02-28 10:31:38.043272,1709112698.0432718,-5.859375,-46.38671875,-28.3203125,16.11328125,1.0,1.0,1.0,0.0,5.m4v,8.0
2024-02-28 10:31:38.047178,1709112698.0471776,-37.109375,-32.71484375,-28.80859375,-19.53125,1.0,1.0,1.0,0.0,5.m4v,8.0
2024-02-28 10:31:38.051083,1709112698.051083,-0.9765625,-29.78515625,-54.19921875,-5.37109375,1.0,1.0,1.0,0.0,5.m4v,8.0
2024-02-28 10:31:38.054989,1709112698.054989,44.43359375,-36.1328125,-27.83203125,17.578125,1.0,1.0,1.0,0.0,5.m4v,8.0
2024-02-28 10:31:38.058895,1709112698.0588949,20.01953125,-34.66796875,1.953125,-32.71484375,1.0,1.0,1.0,0.0,5.m4v,8.0
2024-02-28 10:31:38.062800,1709112698.0628004,-22.94921875,-41.9921875,-27.83203125,-30.76171875,1.0,1.0,1.0,0.0,5.m4v,8.0
2024-02-28 10:31:38.066709,1709112698.0667093,-9.765625,-36.1328125,-45.8984375,-6.8359375,1.0,1.0,1.0,0.0,5.m4v,8.0
2024-02-28 10:31:38.070615,1709112698.0706148,-31.73828125,-29.78515625,-12.6953125,-69.82421875,1.0,1.0,1.0,0.0,5.m4v,8.0
2024-02-28 10:31:38.074521,1709112698.0745206,-51.26953125,-39.0625,-9.27734375,-105.46875,1.0,1.0,1.0,0.0,5.m4v,8.0
2024-02-28 10:31:38.078426,1709112698.0784264,-20.99609375,-48.828125,-7.32421875,-4.39453125,1.0,1.0,1.0,0.0,5.m4v,8.0
2024-02-28 10:31:38.082332,1709112698.082332,6.34765625,-46.875,-41.9921875,53.22265625,1.0,1.0,1.0,0.0,5.m4v,8.0
2024-02-28 10:31:38.086238,1709112698.086238,3.41796875,-38.57421875,-63.4765625,-15.13671875,1.0,1.0,1.0,0.0,5.m4v,8.0
2024-02-28 10:31:38.090144,1709112698.0901437,-10.7421875,-40.0390625,-30.2734375,-21.97265625,1.0,1.0,1.0,0.0,5.m4v,8.0
2024-02-28 10:31:38.094049,1709112698.0940497,0.0,-43.9453125,-24.90234375,-33.69140625,1.0,1.0,1.0,0.0,5.m4v,8.0
2024-02-28 10:31:38.097955,1709112698.097955,-23.4375,-49.31640625,-57.12890625,-21.484375,1.0,1.0,1.0,0.0,5.m4v,8.0
2024-02-28 10:31:38.101861,1709112698.1018608,-2.44140625,-47.8515625,-78.125,44.43359375,1.0,1.0,1.0,0.0,5.m4v,8.0
2024-02-28 10:31:38.105767,1709112698.1057663,1.46484375,-61.03515625,-51.7578125,11.23046875,1.0,1.0,1.0,0.0,5.m4v,8.0
2024-02-28 10:31:38.109672,1709112698.1096723,-22.94921875,-68.84765625,-18.06640625,-60.05859375,1.0,1.0,1.0,0.0,5.m4v,8.0
2024-02-28 10:31:38.113582,1709112698.113582,-23.92578125,-48.33984375,-22.94921875,-62.01171875,1.0,1.0,1.0,0.0,5.m4v,8.0
2024-02-28 10:31:38.117488,1709112698.117488,-0.48828125,-43.45703125,-38.0859375,52.24609375,1.0,1.0,1.0,0.0,5.m4v,8.0
2024-02-28 10:31:38.121394,1709112698.1213937,27.34375,-38.57421875,-41.9921875,82.03125,1.0,1.0,1.0,0.0,5.m4v,8.0
2024-02-28 10:31:38.125299,1709112698.1252997,17.08984375,-26.85546875,-55.17578125,-63.96484375,1.0,1.0,1.0,0.0,5.m4v,8.0
2024-02-28 10:31:38.129205,1709112698.1292052,-41.9921875,-27.83203125,-52.24609375,-77.63671875,1.0,1.0,1.0,0.0,5.m4v,8.0
2024-02-28 10:31:38.148734,1709112698.148734,-63.96484375,-23.92578125,-13.671875,-54.6875,1.0,1.0,1.0,0.0,5.m4v,8.0
2024-02-28 10:31:38.156545,1709112698.1565454,22.94921875,-37.109375,-20.01953125,-22.94921875,1.0,1.0,1.0,0.0,5.m4v,8.0
2024-02-28 10:31:38.160454,1709112698.1604538,-83.984375,-42.96875,-35.64453125,-26.85546875,1.0,1.0,1.0,0.0,5.m4v,8.0
2024-02-28 10:31:38.304979,1709112698.3049788,-63.96484375,-38.0859375,-9.765625,-57.6171875,1.0,1.0,1.0,0.0,5.m4v,8.0
2024-02-28 10:31:38.316696,1709112698.316696,-24.90234375,-46.38671875,-51.7578125,-40.0390625,1.0,1.0,1.0,0.0,5.m4v,8.0
2024-02-28 10:31:38.328413,1709112698.3284132,-48.33984375,-38.0859375,-41.9921875,-122.0703125,1.0,1.0,1.0,0.0,5.m4v,8.0
2024-02-28 10:31:38.340130,1709112698.3401303,-85.9375,-35.64453125,-50.78125,-57.6171875,1.0,1.0,1.0,0.0,5.m4v,8.0
2024-02-28 10:31:38.351850,1709112698.3518498,-80.078125,-18.5546875,-78.125,-63.4765625,1.0,1.0,1.0,0.0,5.m4v,8.0
2024-02-28 10:31:38.363567,1709112698.3635669,-114.74609375,-59.08203125,-17.08984375,-86.42578125,1.0,1.0,1.0,0.0,5.m4v,8.0
2024-02-28 10:31:38.394816,1709112698.3948162,-108.88671875,-29.78515625,2.44140625,-192.87109375,1.0,1.0,1.0,0.0,5.m4v,8.0
2024-02-28 10:31:38.398722,1709112698.398722,-91.30859375,-22.94921875,-16.6015625,-130.859375,1.0,1.0,1.0,0.0,5.m4v,8.0
2024-02-28 10:31:38.402627,1709112698.4026277,-85.9375,-29.296875,-25.87890625,-99.12109375,1.0,1.0,1.0,0.0,5.m4v,8.0
2024-02-28 10:31:38.406533,1709112698.4065332,-89.84375,-47.8515625,-31.25,-87.890625,1.0,1.0,1.0,0.0,5.m4v,8.0
2024-02-28 10:31:38.410439,1709112698.410439,-76.66015625,-44.921875,-36.62109375,-19.04296875,1.0,1.0,1.0,0.0,5.m4v,8.0
2024-02-28 10:31:38.414345,1709112698.4143448,-102.05078125,-24.4140625,-62.01171875,-94.7265625,1.0,1.0,1.0,0.0,5.m4v,8.0
2024-02-28 10:31:38.418251,1709112698.4182506,-125.9765625,-36.1328125,-65.91796875,-138.671875,1.0,1.0,1.0,0.0,5.m4v,8.0
2024-02-28 10:31:38.422156,1709112698.4221563,-130.859375,-46.875,-69.82421875,-57.12890625,1.0,1.0,1.0,0.0,5.m4v,8.0
2024-02-28 10:31:38.426062,1709112698.426062,-125.0,-38.57421875,-89.35546875,-106.4453125,1.0,1.0,1.0,0.0,5.m4v,8.0
2024-02-28 10:31:38.429968,1709112698.4299676,-118.1640625,-34.1796875,-36.1328125,-154.296875,1.0,1.0,1.0,0.0,5.m4v,8.0
2024-02-28 10:31:38.433873,1709112698.4338734,-100.5859375,-35.15625,4.8828125,-173.33984375,1.0,1.0,1.0,0.0,5.m4v,8.0
2024-02-28 10:31:38.437779,1709112698.4377792,-104.4921875,-33.203125,1.953125,-115.234375,1.0,1.0,1.0,0.0,5.m4v,8.0
2024-02-28 10:31:38.441692,1709112698.4416924,-104.98046875,-34.66796875,-18.5546875,-98.14453125,1.0,1.0,1.0,0.0,5.m4v,8.0
2024-02-28 10:31:38.445598,1709112698.445598,-115.72265625,-33.69140625,-58.10546875,-120.1171875,1.0,1.0,1.0,0.0,5.m4v,8.0
2024-02-28 10:31:38.699495,1709112698.699495,-13.18359375,-17.08984375,-52.734375,-13.18359375,1.0,1.0,1.0,0.0,5.m4v,8.0
2024-02-28 10:31:38.703401,1709112698.7034009,-99.609375,-14.6484375,-48.33984375,-9.765625,1.0,1.0,1.0,0.0,5.m4v,8.0
2024-02-28 10:31:38.707307,1709112698.7073066,-70.80078125,-23.4375,-66.89453125,-85.9375,1.0,1.0,1.0,0.0,5.m4v,8.0
2024-02-28 10:31:38.711212,1709112698.7112124,-39.55078125,-33.69140625,-70.80078125,-85.44921875,1.0,1.0,1.0,0.0,5.m4v,8.0
2024-02-28 10:31:38.715118,1709112698.7151182,-42.48046875,-51.26953125,-47.8515625,-59.5703125,1.0,1.0,1.0,0.0,5.m4v,8.0
2024-02-28 10:31:38.761990,1709112698.7619903,-28.3203125,-53.7109375,-8.30078125,-16.11328125,1.0,1.0,1.0,0.0,5.m4v,8.0
2024-02-28 10:31:38.765896,1709112698.7658958,-8.30078125,-56.15234375,-27.83203125,-5.37109375,1.0,1.0,1.0,0.0,5.m4v,8.0
2024-02-28 10:31:38.769804,1709112698.7698038,2.9296875,-19.53125,-41.50390625,-51.26953125,1.0,1.0,1.0,0.0,5.m4v,8.0
2024-02-28 10:31:38.773709,1709112698.7737093,-19.53125,-2.9296875,-39.0625,12.6953125,1.0,1.0,1.0,0.0,5.m4v,8.0
2024-02-28 10:31:38.777615,1709112698.777615,-55.17578125,-17.578125,-45.8984375,52.734375,1.0,1.0,1.0,0.0,5.m4v,8.0
2024-02-28 10:31:38.781521,1709112698.7815208,-14.6484375,-15.13671875,-65.4296875,-34.1796875,1.0,1.0,1.0,0.0,5.m4v,8.0
2024-02-28 10:31:38.785427,1709112698.7854266,-12.6953125,-15.625,-32.71484375,-74.70703125,1.0,1.0,1.0,0.0,5.m4v,8.0
2024-02-28 10:31:38.789332,1709112698.7893324,7.8125,-27.34375,-2.9296875,-64.453125,1.0,1.0,1.0,0.0,5.m4v,8.0
2024-02-28 10:31:38.793238,1709112698.7932382,-8.30078125,-39.0625,-14.6484375,-16.6015625,1.0,1.0,1.0,0.0,5.m4v,8.0
2024-02-28 10:31:38.797144,1709112698.797144,-59.08203125,-44.921875,-12.20703125,1.953125,1.0,1.0,1.0,0.0,5.m4v,8.0
2024-02-28 10:31:38.801049,1709112698.8010497,-17.578125,-41.9921875,-15.625,-0.48828125,1.0,1.0,1.0,0.0,5.m4v,8.0
2024-02-28 10:31:38.804955,1709112698.8049552,29.78515625,-53.22265625,-40.0390625,-0.48828125,1.0,1.0,1.0,0.0,5.m4v,8.0
2024-02-28 10:31:38.808861,1709112698.808861,22.4609375,-48.828125,-56.15234375,-37.59765625,1.0,1.0,1.0,0.0,5.m4v,8.0
2024-02-28 10:31:38.812767,1709112698.8127668,-38.0859375,-41.50390625,-52.734375,-15.13671875,1.0,1.0,1.0,0.0,5.m4v,8.0
2024-02-28 10:31:38.816675,1709112698.8166754,-53.7109375,-34.66796875,-56.15234375,23.92578125,1.0,1.0,1.0,0.0,5.m4v,8.0
2024-02-28 10:31:38.820581,1709112698.8205812,-30.76171875,-16.6015625,-41.50390625,23.4375,1.0,1.0,1.0,0.0,5.m4v,8.0
2024-02-28 10:31:38.824487,1709112698.824487,2.44140625,-17.578125,-20.5078125,-3.90625,1.0,1.0,1.0,0.0,5.m4v,8.0
2024-02-28 10:31:38.828393,1709112698.8283927,11.23046875,-20.01953125,-39.55078125,-61.03515625,1.0,1.0,1.0,0.0,5.m4v,8.0
2024-02-28 10:31:38.832299,1709112698.8322985,16.11328125,-16.6015625,-39.0625,-58.10546875,1.0,1.0,1.0,0.0,5.m4v,8.0
2024-02-28 10:31:38.836204,1709112698.8362043,-32.71484375,-33.203125,-31.73828125,5.37109375,1.0,1.0,1.0,0.0,5.m4v,8.0
2024-02-28 10:31:38.898700,1709112698.8987002,-15.13671875,-33.69140625,-53.7109375,-37.109375,1.0,1.0,1.0,0.0,5.m4v,8.0
2024-02-28 10:31:38.902606,1709112698.902606,-34.66796875,-42.48046875,-44.921875,-63.96484375,1.0,1.0,1.0,0.0,5.m4v,8.0
2024-02-28 10:31:38.906512,1709112698.9065118,-20.99609375,-34.66796875,-16.11328125,-98.14453125,1.0,1.0,1.0,0.0,5.m4v,8.0
2024-02-28 10:31:38.910420,1709112698.91042,-39.0625,-33.69140625,-18.5546875,-37.59765625,1.0,1.0,1.0,0.0,5.m4v,8.0
2024-02-28 10:31:38.914326,1709112698.9143257,-93.75,-51.7578125,-27.34375,-22.4609375,1.0,1.0,1.0,0.0,5.m4v,8.0
2024-02-28 10:31:38.918231,1709112698.9182315,-67.87109375,-47.36328125,-18.06640625,-88.8671875,1.0,1.0,1.0,0.0,5.m4v,8.0
2024-02-28 10:31:38.922137,1709112698.9221373,-58.10546875,-31.73828125,-26.85546875,-45.41015625,1.0,1.0,1.0,0.0,5.m4v,8.0
2024-02-28 10:31:38.926043,1709112698.926043,-60.05859375,-28.80859375,-61.5234375,-12.6953125,1.0,1.0,1.0,0.0,5.m4v,8.0
2024-02-28 10:31:38.929949,1709112698.9299488,-40.0390625,-24.4140625,-48.33984375,-59.08203125,1.0,1.0,1.0,0.0,5.m4v,8.0
2024-02-28 10:31:38.933854,1709112698.9338543,-64.94140625,-23.92578125,-31.25,-96.6796875,1.0,1.0,1.0,0.0,5.m4v,8.0
2024-02-28 10:31:38.937760,1709112698.93776,-85.9375,-31.25,-26.3671875,-104.00390625,1.0,1.0,1.0,0.0,5.m4v,8.0
2024-02-28 10:31:38.941666,1709112698.941666,-47.8515625,-42.48046875,-10.25390625,-125.0,1.0,1.0,1.0,0.0,5.m4v,8.0
2024-02-28 10:31:38.945572,1709112698.9455717,-47.36328125,-47.8515625,-33.69140625,-55.17578125,1.0,1.0,1.0,0.0,5.m4v,8.0
2024-02-28 10:31:38.949477,1709112698.9494774,-108.3984375,-50.29296875,-44.43359375,17.578125,1.0,1.0,1.0,0.0,5.m4v,8.0
2024-02-28 10:31:38.953383,1709112698.9533832,-70.3125,-33.69140625,-31.73828125,-66.89453125,1.0,1.0,1.0,0.0,5.m4v,8.0
2024-02-28 10:31:38.957293,1709112698.9572928,-70.80078125,-22.4609375,-35.15625,-116.2109375,1.0,1.0,1.0,0.0,5.m4v,8.0
2024-02-28 10:31:38.961198,1709112698.9611983,-131.34765625,-38.57421875,-35.15625,-112.3046875,1.0,1.0,1.0,0.0,5.m4v,8.0
2024-02-28 10:31:38.965104,1709112698.965104,-120.1171875,-43.45703125,-36.1328125,-117.1875,1.0,1.0,1.0,0.0,5.m4v,8.0
2024-02-28 10:31:38.969010,1709112698.96901,-101.5625,-34.66796875,-31.25,-117.1875,1.0,1.0,1.0,0.0,5.m4v,8.0
2024-02-28 10:31:38.972916,1709112698.9729156,-111.81640625,-29.296875,-21.97265625,-122.0703125,1.0,1.0,1.0,0.0,5.m4v,8.0
2024-02-28 10:31:38.976821,1709112698.9768214,-96.6796875,-13.671875,-48.828125,-73.73046875,1.0,1.0,1.0,0.0,5.m4v,8.0
2024-02-28 10:31:38.980727,1709112698.9807272,-58.10546875,-13.671875,-85.9375,-32.2265625,1.0,1.0,1.0,0.0,5.m4v,8.0
2024-02-28 10:31:38.984633,1709112698.984633,-77.63671875,-50.78125,-72.265625,-97.16796875,1.0,1.0,1.0,0.0,5.m4v,8.0
2024-02-28 10:31:39.004167,1709112699.0041666,-84.47265625,-44.43359375,-17.08984375,-107.421875,1.0,1.0,1.0,0.0,5.m4v,8.0
2024-02-28 10:31:39.008072,1709112699.0080724,-84.9609375,-34.1796875,-33.203125,-86.9140625,1.0,1.0,1.0,0.0,5.m4v,8.0
2024-02-28 10:31:39.011978,1709112699.011978,-93.26171875,-20.5078125,-71.77734375,-15.625,1.0,1.0,1.0,0.0,5.m4v,8.0
2024-02-28 10:31:39.015884,1709112699.0158837,-66.89453125,-12.20703125,-91.796875,6.34765625,1.0,1.0,1.0,0.0,5.m4v,8.0
2024-02-28 10:31:39.019789,1709112699.0197897,-6.8359375,-18.5546875,-55.6640625,-44.43359375,1.0,1.0,1.0,0.0,5.m4v,8.0
2024-02-28 10:31:39.023695,1709112699.0236952,-20.5078125,-39.55078125,-19.53125,-33.69140625,1.0,1.0,1.0,0.0,5.m4v,8.0
2024-02-28 10:31:39.027601,1709112699.027601,-75.68359375,-51.26953125,-6.8359375,-83.49609375,1.0,1.0,1.0,0.0,5.m4v,8.0
2024-02-28 10:31:39.031507,1709112699.0315068,-50.78125,-46.38671875,-9.27734375,-118.1640625,1.0,1.0,1.0,0.0,5.m4v,8.0
2024-02-28 10:31:39.035413,1709112699.0354123,-26.3671875,-38.0859375,-36.1328125,-87.890625,1.0,1.0,1.0,0.0,5.m4v,8.0
2024-02-28 10:31:39.039318,1709112699.0393183,-59.5703125,-43.9453125,-45.41015625,-65.4296875,1.0,1.0,1.0,0.0,5.m4v,8.0
2024-02-28 10:31:39.043224,1709112699.043224,-78.125,-50.78125,-35.15625,-38.57421875,1.0,1.0,1.0,0.0,5.m4v,8.0
2024-02-28 10:31:39.047130,1709112699.0471296,-24.4140625,-17.578125,-80.56640625,44.43359375,1.0,1.0,1.0,0.0,5.m4v,8.0
2024-02-28 10:31:39.051040,1709112699.05104,14.16015625,-9.27734375,-84.9609375,86.9140625,1.0,1.0,1.0,0.0,5.m4v,8.0
2024-02-28 10:31:39.054946,1709112699.0549457,-20.5078125,-53.22265625,-24.90234375,-36.1328125,1.0,1.0,1.0,0.0,5.m4v,8.0
2024-02-28 10:31:39.058851,1709112699.0588517,-48.828125,-48.33984375,-5.859375,-122.0703125,1.0,1.0,1.0,0.0,5.m4v,8.0
2024-02-28 10:31:39.062757,1709112699.0627573,-48.33984375,-24.90234375,-18.5546875,-87.890625,1.0,1.0,1.0,0.0,5.m4v,8.0
2024-02-28 10:31:39.066663,1709112699.066663,-36.62109375,-31.73828125,-16.11328125,-56.640625,1.0,1.0,1.0,0.0,5.m4v,8.0
2024-02-28 10:31:39.070569,1709112699.0705686,-33.203125,-28.80859375,-13.671875,-55.17578125,1.0,1.0,1.0,0.0,5.m4v,8.0
2024-02-28 10:31:39.074474,1709112699.0744743,-29.78515625,-21.484375,-27.83203125,-45.41015625,1.0,1.0,1.0,0.0,5.m4v,8.0
2024-02-28 10:31:39.078380,1709112699.07838,-37.109375,-19.53125,-42.48046875,-20.5078125,1.0,1.0,1.0,0.0,5.m4v,8.0
2024-02-28 10:31:39.082286,1709112699.082286,17.08984375,-19.04296875,-75.68359375,39.55078125,1.0,1.0,1.0,0.0,5.m4v,8.0
2024-02-28 10:31:39.086192,1709112699.0861917,27.34375,-32.71484375,-106.4453125,73.2421875,1.0,1.0,1.0,0.0,5.m4v,8.0
2024-02-28 10:31:39.090097,1709112699.0900974,-12.20703125,-43.45703125,-53.22265625,-3.41796875,1.0,1.0,1.0,0.0,5.m4v,8.0
2024-02-28 10:31:39.094003,1709112699.0940032,-38.57421875,-51.7578125,6.34765625,-43.9453125,1.0,1.0,1.0,0.0,5.m4v,8.0
2024-02-28 10:31:39.097914,1709112699.0979135,-62.01171875,-56.15234375,-5.37109375,-25.87890625,1.0,1.0,1.0,0.0,5.m4v,8.0
2024-02-28 10:31:39.101819,1709112699.1018193,-41.9921875,-52.734375,-34.66796875,-55.6640625,1.0,1.0,1.0,0.0,5.m4v,8.0
2024-02-28 10:31:39.105725,1709112699.105725,-30.2734375,-39.55078125,-58.10546875,-33.203125,1.0,1.0,1.0,0.0,5.m4v,8.0
2024-02-28 10:31:39.109631,1709112699.1096308,-25.390625,-40.0390625,-45.8984375,-18.5546875,1.0,1.0,1.0,0.0,5.m4v,8.0
2024-02-28 10:31:39.113536,1709112699.1135364,-9.765625,-62.98828125,-16.6015625,17.578125,1.0,1.0,1.0,0.0,5.m4v,8.0
2024-02-28 10:31:39.117442,1709112699.117442,10.7421875,-44.921875,-29.78515625,48.33984375,1.0,1.0,1.0,0.0,5.m4v,8.0
2024-02-28 10:31:39.121348,1709112699.121348,-8.7890625,-20.99609375,-53.7109375,-44.921875,1.0,1.0,1.0,0.0,5.m4v,8.0
2024-02-28 10:31:39.125254,1709112699.1252537,-31.73828125,-41.50390625,-40.52734375,-94.23828125,1.0,1.0,1.0,0.0,5.m4v,8.0
2024-02-28 10:31:39.129159,1709112699.1291597,-54.6875,-50.78125,-18.5546875,-79.1015625,1.0,1.0,1.0,0.0,5.m4v,8.0
2024-02-28 10:31:39.133065,1709112699.1330652,-63.4765625,-51.26953125,-7.32421875,-56.640625,1.0,1.0,1.0,0.0,5.m4v,8.0
2024-02-28 10:31:39.136971,1709112699.136971,-39.55078125,-45.8984375,-34.1796875,-47.36328125,1.0,1.0,1.0,0.0,5.m4v,8.0
2024-02-28 10:31:39.140877,1709112699.1408768,-30.76171875,-26.3671875,-41.015625,-16.11328125,1.0,1.0,1.0,0.0,5.m4v,8.0
2024-02-28 10:31:39.144786,1709112699.1447856,27.34375,-29.296875,-39.0625,38.0859375,1.0,1.0,1.0,0.0,5.m4v,8.0
2024-02-28 10:31:39.148691,1709112699.1486914,36.1328125,-28.80859375,-70.3125,53.7109375,1.0,1.0,1.0,0.0,5.m4v,8.0
2024-02-28 10:31:39.152597,1709112699.1525972,-46.38671875,-35.64453125,-48.33984375,13.18359375,1.0,1.0,1.0,0.0,5.m4v,8.0
2024-02-28 10:31:39.156503,1709112699.1565027,-62.98828125,-62.5,-15.13671875,-72.75390625,1.0,1.0,1.0,0.0,5.m4v,8.0
2024-02-28 10:31:39.160408,1709112699.1604085,-40.0390625,-62.01171875,-12.6953125,-67.87109375,1.0,1.0,1.0,0.0,5.m4v,8.0
2024-02-28 10:31:39.164314,1709112699.1643145,-47.8515625,-42.48046875,-28.3203125,-47.36328125,1.0,1.0,1.0,0.0,5.m4v,8.0
2024-02-28 10:31:39.168220,1709112699.16822,-76.171875,-33.203125,-22.94921875,-95.703125,1.0,1.0,1.0,0.0,5.m4v,8.0
2024-02-28 10:31:39.172126,1709112699.1721258,-55.17578125,-23.4375,-32.71484375,-49.31640625,1.0,1.0,1.0,0.0,5.m4v,8.0
2024-02-28 10:31:39.176032,1709112699.1760316,-26.85546875,-17.08984375,-50.29296875,33.203125,1.0,1.0,1.0,0.0,5.m4v,8.0
2024-02-28 10:31:39.179937,1709112699.1799374,-30.2734375,-17.08984375,-41.50390625,27.34375,1.0,1.0,1.0,0.0,5.m4v,8.0
2024-02-28 10:31:39.183843,1709112699.183843,-0.48828125,-9.765625,-50.29296875,-35.64453125,1.0,1.0,1.0,0.0,5.m4v,8.0
2024-02-28 10:31:39.187749,1709112699.187749,-55.17578125,-25.87890625,-23.4375,-84.9609375,1.0,1.0,1.0,0.0,5.m4v,8.0
2024-02-28 10:31:39.191657,1709112699.1916573,-85.44921875,-48.828125,0.9765625,-87.890625,1.0,1.0,1.0,0.0,5.m4v,8.0
2024-02-28 10:31:39.195563,1709112699.195563,-49.31640625,-63.4765625,-14.16015625,-77.63671875,1.0,1.0,1.0,0.0,5.m4v,8.0
2024-02-28 10:31:39.199469,1709112699.1994689,-47.8515625,-59.08203125,-19.04296875,-77.63671875,1.0,1.0,1.0,0.0,5.m4v,8.0
2024-02-28 10:31:39.203375,1709112699.2033746,-55.17578125,-48.33984375,-39.0625,-74.21875,1.0,1.0,1.0,0.0,5.m4v,8.0
2024-02-28 10:31:39.207280,1709112699.2072804,-46.875,-41.50390625,-62.5,-74.21875,1.0,1.0,1.0,0.0,5.m4v,8.0
2024-02-28 10:31:39.211186,1709112699.2111862,-46.38671875,-28.3203125,-37.59765625,-11.71875,1.0,1.0,1.0,0.0,5.m4v,8.0
2024-02-28 10:31:39.215092,1709112699.215092,-32.2265625,-30.2734375,-48.828125,53.7109375,1.0,1.0,1.0,0.0,5.m4v,8.0
2024-02-28 10:31:39.222903,1709112699.2229033,-74.21875,-28.80859375,-27.34375,-119.62890625,1.0,1.0,1.0,0.0,5.m4v,8.0
2024-02-28 10:31:39.226809,1709112699.226809,-90.8203125,-27.83203125,-15.625,-65.4296875,1.0,1.0,1.0,0.0,5.m4v,8.0
2024-02-28 10:31:39.230715,1709112699.2307148,-93.75,-38.57421875,-34.1796875,-91.30859375,1.0,1.0,1.0,0.0,5.m4v,8.0
2024-02-28 10:31:39.234621,1709112699.2346206,-80.56640625,-35.64453125,-51.26953125,-70.3125,1.0,1.0,1.0,0.0,5.m4v,8.0
2024-02-28 10:31:39.238529,1709112699.238529,-49.8046875,-32.71484375,-44.43359375,-58.10546875,1.0,1.0,1.0,0.0,5.m4v,8.0
2024-02-28 10:31:39.242435,1709112699.2424347,-67.87109375,-41.015625,-18.5546875,-101.5625,1.0,1.0,1.0,0.0,5.m4v,8.0
2024-02-28 10:31:39.246341,1709112699.2463405,-75.1953125,-44.43359375,-12.6953125,-85.44921875,1.0,1.0,1.0,0.0,5.m4v,8.0
2024-02-28 10:31:39.250246,1709112699.2502463,-68.84765625,-47.8515625,-29.78515625,-76.171875,1.0,1.0,1.0,0.0,5.m4v,8.0
2024-02-28 10:31:39.254152,1709112699.254152,-104.00390625,-55.17578125,-45.41015625,-90.8203125,1.0,1.0,1.0,0.0,5.m4v,8.0
2024-02-28 10:31:39.258058,1709112699.2580578,-89.84375,-51.7578125,-44.43359375,-86.42578125,1.0,1.0,1.0,0.0,5.m4v,8.0
2024-02-28 10:31:39.261964,1709112699.2619636,-75.68359375,-44.921875,-36.1328125,-56.15234375,1.0,1.0,1.0,0.0,5.m4v,8.0
2024-02-28 10:31:39.265869,1709112699.2658691,-58.59375,-28.3203125,-54.6875,22.94921875,1.0,1.0,1.0,0.0,5.m4v,8.0
2024-02-28 10:31:39.269775,1709112699.269775,-72.75390625,-23.4375,-66.40625,-9.27734375,1.0,1.0,1.0,0.0,5.m4v,8.0
2024-02-28 10:31:39.273681,1709112699.2736807,-81.54296875,-31.73828125,-30.76171875,-126.953125,1.0,1.0,1.0,0.0,5.m4v,8.0
2024-02-28 10:31:39.277586,1709112699.2775865,-82.03125,-33.69140625,-10.7421875,-161.1328125,1.0,1.0,1.0,0.0,5.m4v,8.0
2024-02-28 10:31:39.281492,1709112699.2814922,-127.9296875,-38.0859375,-19.04296875,-168.45703125,1.0,1.0,1.0,0.0,5.m4v,8.0
2024-02-28 10:31:39.285401,1709112699.2854006,-122.0703125,-43.45703125,-20.99609375,-138.671875,1.0,1.0,1.0,0.0,5.m4v,8.0
2024-02-28 10:31:39.293212,1709112699.293212,-97.16796875,-40.52734375,-57.6171875,-74.21875,1.0,1.0,1.0,0.0,5.m4v,8.0
2024-02-28 10:31:39.301023,1709112699.3010235,-79.1015625,-38.0859375,-35.15625,-7.32421875,1.0,1.0,1.0,0.0,5.m4v,8.0
2024-02-28 10:31:39.308835,1709112699.308835,-44.43359375,-40.0390625,-25.87890625,-127.44140625,1.0,1.0,1.0,0.0,5.m4v,8.0
2024-02-28 10:31:39.316647,1709112699.3166466,-86.42578125,-34.1796875,-12.20703125,-140.13671875,1.0,1.0,1.0,0.0,5.m4v,8.0
2024-02-28 10:31:39.402577,1709112699.4025774,-13.18359375,-29.296875,-63.96484375,-88.8671875,1.0,1.0,1.0,0.0,5.m4v,8.0
2024-02-28 10:31:39.410389,1709112699.410389,-56.640625,-35.64453125,-23.92578125,-58.59375,1.0,1.0,1.0,0.0,5.m4v,8.0
2024-02-28 10:31:39.418200,1709112699.4182005,-71.77734375,-48.828125,-19.53125,-74.70703125,1.0,1.0,1.0,0.0,5.m4v,8.0
2024-02-28 10:31:39.422106,1709112699.422106,-54.19921875,-32.2265625,-21.484375,-65.4296875,1.0,1.0,1.0,0.0,5.m4v,8.0
2024-02-28 10:31:39.429920,1709112699.4299195,-37.109375,-35.15625,-26.3671875,-10.25390625,1.0,1.0,1.0,0.0,5.m4v,8.0
2024-02-28 10:31:39.433825,1709112699.4338255,-20.5078125,-33.69140625,-44.43359375,-3.41796875,1.0,1.0,1.0,0.0,5.m4v,8.0
2024-02-28 10:31:39.441637,1709112699.4416368,-25.87890625,-32.71484375,-39.0625,-6.34765625,1.0,1.0,1.0,0.0,5.m4v,8.0
2024-02-28 10:31:39.445543,1709112699.4455426,-70.80078125,-37.109375,-48.828125,-8.7890625,1.0,1.0,1.0,0.0,5.m4v,8.0
2024-02-28 10:31:39.453354,1709112699.453354,-44.43359375,-55.17578125,-19.04296875,0.9765625,1.0,1.0,1.0,0.0,5.m4v,8.0
2024-02-28 10:31:39.461166,1709112699.4611657,-2.44140625,-46.38671875,-50.78125,14.6484375,1.0,1.0,1.0,0.0,5.m4v,8.0
2024-02-28 10:31:39.468977,1709112699.468977,-62.5,-8.7890625,-16.6015625,-125.48828125,1.0,1.0,1.0,0.0,5.m4v,8.0
2024-02-28 10:31:39.476791,1709112699.476791,-49.31640625,-23.4375,-10.25390625,-70.80078125,1.0,1.0,1.0,0.0,5.m4v,8.0
2024-02-28 10:31:39.484602,1709112699.484602,-44.43359375,-31.73828125,-22.94921875,-49.8046875,1.0,1.0,1.0,0.0,5.m4v,8.0
2024-02-28 10:31:39.492414,1709112699.4924135,-4.8828125,-38.0859375,-75.1953125,-5.859375,1.0,1.0,1.0,0.0,5.m4v,8.0
2024-02-28 10:31:39.500225,1709112699.500225,-52.24609375,-54.19921875,-39.55078125,-46.38671875,1.0,1.0,1.0,0.0,5.m4v,8.0
2024-02-28 10:31:39.508037,1709112699.5080366,-50.29296875,-58.10546875,11.71875,-52.734375,1.0,1.0,1.0,0.0,5.m4v,8.0
2024-02-28 10:31:39.586157,1709112699.586157,-53.7109375,-38.0859375,-50.78125,-30.76171875,1.0,1.0,1.0,0.0,5.m4v,8.0
2024-02-28 10:31:39.590063,1709112699.590063,-44.43359375,-37.59765625,-43.45703125,-41.015625,1.0,1.0,1.0,0.0,5.m4v,8.0
2024-02-28 10:31:39.593969,1709112699.5939689,-4.8828125,-37.59765625,-18.5546875,-23.92578125,1.0,1.0,1.0,0.0,5.m4v,8.0
2024-02-28 10:31:39.597874,1709112699.5978744,-29.78515625,-51.7578125,-9.27734375,18.06640625,1.0,1.0,1.0,0.0,5.m4v,8.0
2024-02-28 10:31:39.601780,1709112699.6017802,-78.125,-46.875,-31.25,-53.22265625,1.0,1.0,1.0,0.0,5.m4v,8.0
2024-02-28 10:31:39.605686,1709112699.605686,-86.9140625,-39.0625,-48.828125,-55.17578125,1.0,1.0,1.0,0.0,5.m4v,8.0
2024-02-28 10:31:39.609592,1709112699.6095915,-67.87109375,-35.15625,-40.52734375,8.7890625,1.0,1.0,1.0,0.0,5.m4v,8.0
2024-02-28 10:31:39.613500,1709112699.6135,-37.109375,-26.3671875,-27.34375,-93.26171875,1.0,1.0,1.0,0.0,5.m4v,8.0
2024-02-28 10:31:39.617406,1709112699.617406,-63.4765625,-34.66796875,-38.0859375,-99.12109375,1.0,1.0,1.0,0.0,5.m4v,8.0
2024-02-28 10:31:39.621312,1709112699.6213117,-66.40625,-40.0390625,-43.45703125,-49.31640625,1.0,1.0,1.0,0.0,5.m4v,8.0
2024-02-28 10:31:39.625217,1709112699.6252174,-40.52734375,-36.62109375,-31.25,-55.17578125,1.0,1.0,1.0,0.0,5.m4v,8.0
2024-02-28 10:31:39.629123,1709112699.6291232,-34.66796875,-47.36328125,-32.2265625,-41.015625,1.0,1.0,1.0,0.0,5.m4v,8.0
2024-02-28 10:31:39.633029,1709112699.633029,-3.90625,-44.43359375,-39.55078125,-5.859375,1.0,1.0,1.0,0.0,5.m4v,8.0
2024-02-28 10:31:39.636935,1709112699.6369348,5.37109375,-37.109375,-41.50390625,-10.25390625,1.0,1.0,1.0,0.0,5.m4v,8.0
2024-02-28 10:31:39.640841,1709112699.6408403,-69.3359375,-48.828125,-37.59765625,-4.8828125,1.0,1.0,1.0,0.0,5.m4v,8.0
2024-02-28 10:31:39.644746,1709112699.644746,-74.21875,-49.31640625,-23.92578125,-22.94921875,1.0,1.0,1.0,0.0,5.m4v,8.0
2024-02-28 10:31:39.648652,1709112699.6486518,-33.69140625,-40.0390625,-32.71484375,-139.6484375,1.0,1.0,1.0,0.0,5.m4v,8.0
2024-02-28 10:31:39.652558,1709112699.6525576,-94.23828125,-36.62109375,-41.9921875,-110.83984375,1.0,1.0,1.0,0.0,5.m4v,8.0
2024-02-28 10:31:39.656463,1709112699.6564634,-93.75,-32.71484375,-36.1328125,-43.45703125,1.0,1.0,1.0,0.0,5.m4v,8.0
2024-02-28 10:31:39.660372,1709112699.6603718,-47.36328125,-38.57421875,-44.43359375,-50.78125,1.0,1.0,1.0,0.0,5.m4v,8.0
2024-02-28 10:31:39.664278,1709112699.6642776,-16.6015625,-38.0859375,-61.5234375,-52.734375,1.0,1.0,1.0,0.0,5.m4v,8.0
2024-02-28 10:31:39.668183,1709112699.668183,-28.80859375,-25.390625,-74.21875,32.71484375,1.0,1.0,1.0,0.0,5.m4v,8.0
2024-02-28 10:31:39.672089,1709112699.6720889,6.34765625,-14.6484375,-89.35546875,16.11328125,1.0,1.0,1.0,0.0,5.m4v,8.0
2024-02-28 10:31:39.675995,1709112699.6759946,43.9453125,-16.6015625,-83.0078125,-107.421875,1.0,1.0,1.0,0.0,5.m4v,8.0
2024-02-28 10:31:39.679900,1709112699.6799004,-14.6484375,-31.25,-55.17578125,-85.9375,1.0,1.0,1.0,0.0,5.m4v,8.0
2024-02-28 10:31:39.683806,1709112699.6838062,-32.2265625,-25.87890625,-40.52734375,-45.41015625,1.0,1.0,1.0,0.0,5.m4v,8.0
2024-02-28 10:31:39.687712,1709112699.687712,-24.90234375,-30.2734375,-35.64453125,-12.6953125,1.0,1.0,1.0,0.0,5.m4v,8.0
2024-02-28 10:31:39.691618,1709112699.6916175,-13.671875,-46.875,-47.8515625,23.92578125,1.0,1.0,1.0,0.0,5.m4v,8.0
2024-02-28 10:31:39.695524,1709112699.6955235,2.9296875,-29.296875,-39.55078125,-25.87890625,1.0,1.0,1.0,0.0,5.m4v,8.0
2024-02-28 10:31:39.699429,1709112699.699429,-37.109375,-18.06640625,-25.87890625,-94.23828125,1.0,1.0,1.0,0.0,5.m4v,8.0
2024-02-28 10:31:39.703335,1709112699.7033348,-39.0625,-28.3203125,-23.4375,-62.5,1.0,1.0,1.0,0.0,5.m4v,8.0
2024-02-28 10:31:39.707243,1709112699.707243,25.87890625,-25.87890625,-31.73828125,-13.671875,1.0,1.0,1.0,0.0,5.m4v,8.0
2024-02-28 10:31:39.711149,1709112699.7111487,37.59765625,-10.7421875,-60.05859375,-44.921875,1.0,1.0,1.0,0.0,5.m4v,8.0
2024-02-28 10:31:39.715055,1709112699.7150545,-8.7890625,-9.765625,-92.7734375,-8.30078125,1.0,1.0,1.0,0.0,5.m4v,8.0
2024-02-28 10:31:39.718960,1709112699.7189603,-48.828125,-26.85546875,-76.171875,-3.90625,1.0,1.0,1.0,0.0,5.m4v,8.0
2024-02-28 10:31:39.722866,1709112699.722866,-33.203125,-33.203125,-17.578125,-26.85546875,1.0,1.0,1.0,0.0,5.m4v,8.0
2024-02-28 10:31:39.726772,1709112699.7267716,-26.85546875,-36.62109375,-16.6015625,-39.0625,1.0,1.0,1.0,0.0,5.m4v,8.0
2024-02-28 10:31:39.730677,1709112699.7306774,-2.44140625,-33.69140625,-26.85546875,-60.546875,1.0,1.0,1.0,0.0,5.m4v,8.0
2024-02-28 10:31:39.734583,1709112699.7345831,51.26953125,-21.484375,-27.34375,23.4375,1.0,1.0,1.0,0.0,5.m4v,8.0
2024-02-28 10:31:39.738489,1709112699.738489,-7.8125,-31.25,-40.52734375,-14.6484375,1.0,1.0,1.0,0.0,5.m4v,8.0
2024-02-28 10:31:39.742395,1709112699.7423947,-51.26953125,-39.0625,-40.52734375,-63.4765625,1.0,1.0,1.0,0.0,5.m4v,8.0
2024-02-28 10:31:39.746300,1709112699.7463005,0.0,-41.015625,-44.43359375,-31.73828125,1.0,1.0,1.0,0.0,5.m4v,8.0
2024-02-28 10:31:39.750206,1709112699.7502062,-4.8828125,-34.66796875,-48.828125,3.41796875,1.0,1.0,1.0,0.0,5.m4v,8.0
2024-02-28 10:31:39.754114,1709112699.7541142,-39.55078125,-31.73828125,-45.41015625,34.66796875,1.0,1.0,1.0,0.0,5.m4v,8.0
2024-02-28 10:31:39.758020,1709112699.75802,-2.44140625,-39.0625,-55.17578125,-42.96875,1.0,1.0,1.0,0.0,5.m4v,8.0
2024-02-28 10:31:39.761925,1709112699.7619257,2.44140625,-34.1796875,-58.10546875,-62.01171875,1.0,1.0,1.0,0.0,5.m4v,8.0
2024-02-28 10:31:39.765831,1709112699.7658312,-30.2734375,-26.85546875,-50.78125,-21.484375,1.0,1.0,1.0,0.0,5.m4v,8.0
2024-02-28 10:31:39.769737,1709112699.769737,23.92578125,-28.3203125,-82.03125,-7.32421875,1.0,1.0,1.0,0.0,5.m4v,8.0
2024-02-28 10:31:39.773643,1709112699.7736428,25.87890625,-37.59765625,-67.3828125,28.3203125,1.0,1.0,1.0,0.0,5.m4v,8.0
2024-02-28 10:31:39.777549,1709112699.7775486,-67.87109375,-47.36328125,-4.39453125,-23.4375,1.0,1.0,1.0,0.0,5.m4v,8.0
2024-02-28 10:31:39.781454,1709112699.7814543,-74.70703125,-47.8515625,-8.30078125,-93.26171875,1.0,1.0,1.0,0.0,5.m4v,8.0
2024-02-28 10:31:39.785360,1709112699.78536,-42.96875,-34.1796875,-38.57421875,-76.171875,1.0,1.0,1.0,0.0,5.m4v,8.0
2024-02-28 10:31:40.000187,1709112700.0001872,-78.61328125,-39.0625,-40.52734375,-41.015625,1.0,1.0,1.0,0.0,5.m4v,8.0
2024-02-28 10:31:40.004093,1709112700.004093,-62.5,-44.43359375,-35.15625,-1.46484375,1.0,1.0,1.0,0.0,5.m4v,8.0
2024-02-28 10:31:40.007999,1709112700.0079987,-20.99609375,-38.57421875,-65.4296875,-21.484375,1.0,1.0,1.0,0.0,5.m4v,8.0
2024-02-28 10:31:40.011904,1709112700.0119045,-48.828125,-41.50390625,-72.265625,-99.609375,1.0,1.0,1.0,0.0,5.m4v,8.0
2024-02-28 10:31:40.015810,1709112700.0158105,-66.40625,-55.6640625,-21.97265625,-87.890625,1.0,1.0,1.0,0.0,5.m4v,8.0
2024-02-28 10:31:40.019716,1709112700.0197158,-42.96875,-62.5,-14.6484375,-33.69140625,1.0,1.0,1.0,0.0,5.m4v,8.0
2024-02-28 10:31:40.023622,1709112700.0236216,18.5546875,-79.1015625,-20.01953125,2.9296875,1.0,1.0,1.0,0.0,5.m4v,8.0
2024-02-28 10:31:40.027527,1709112700.027527,12.6953125,-83.984375,-15.625,2.9296875,1.0,1.0,1.0,0.0,5.m4v,8.0
2024-02-28 10:31:40.031433,1709112700.031433,-68.359375,-57.6171875,-66.89453125,-26.85546875,1.0,1.0,1.0,0.0,5.m4v,8.0
2024-02-28 10:31:40.035342,1709112700.0353415,-52.734375,-34.66796875,-83.984375,-41.015625,1.0,1.0,1.0,0.0,5.m4v,8.0
2024-02-28 10:31:40.039247,1709112700.0392473,-26.85546875,-31.73828125,-34.1796875,-25.87890625,1.0,1.0,1.0,0.0,5.m4v,8.0
2024-02-28 10:31:40.043153,1709112700.0431528,-2.9296875,-32.71484375,-15.13671875,-5.37109375,1.0,1.0,1.0,0.0,5.m4v,8.0
2024-02-28 10:31:40.047059,1709112700.0470586,12.20703125,-36.1328125,-22.94921875,35.64453125,1.0,1.0,1.0,0.0,5.m4v,8.0
2024-02-28 10:31:40.050964,1709112700.0509644,12.20703125,-47.36328125,-31.73828125,15.625,1.0,1.0,1.0,0.0,5.m4v,8.0
2024-02-28 10:31:40.054870,1709112700.05487,19.04296875,-35.15625,-41.50390625,-7.32421875,1.0,1.0,1.0,0.0,5.m4v,8.0
2024-02-28 10:31:40.058776,1709112700.058776,-21.97265625,-33.69140625,-35.64453125,-31.25,1.0,1.0,1.0,0.0,5.m4v,8.0
2024-02-28 10:31:40.062682,1709112700.0626817,-49.31640625,-66.40625,-22.4609375,-32.2265625,1.0,1.0,1.0,0.0,5.m4v,8.0
2024-02-28 10:31:40.066587,1709112700.0665874,-4.8828125,-64.94140625,-42.96875,-6.8359375,1.0,1.0,1.0,0.0,5.m4v,8.0
2024-02-28 10:31:40.070493,1709112700.070493,8.30078125,-38.57421875,-61.03515625,-20.99609375,1.0,1.0,1.0,0.0,5.m4v,8.0
2024-02-28 10:31:40.074399,1709112700.0743988,-6.34765625,-36.1328125,-43.45703125,41.9921875,1.0,1.0,1.0,0.0,5.m4v,8.0
2024-02-28 10:31:40.078305,1709112700.0783043,12.20703125,-41.50390625,-39.0625,76.171875,1.0,1.0,1.0,0.0,5.m4v,8.0
2024-02-28 10:31:40.082213,1709112700.0822127,-13.18359375,-55.17578125,-30.76171875,-35.64453125,1.0,1.0,1.0,0.0,5.m4v,8.0
2024-02-28 10:31:40.086118,1709112700.0861185,-19.04296875,-55.6640625,-34.1796875,-62.01171875,1.0,1.0,1.0,0.0,5.m4v,8.0
2024-02-28 10:31:40.090024,1709112700.0900242,-25.87890625,-44.43359375,-42.48046875,-19.04296875,1.0,1.0,1.0,0.0,5.m4v,8.0
2024-02-28 10:31:40.093930,1709112700.09393,-27.83203125,-44.43359375,-27.34375,-7.32421875,1.0,1.0,1.0,0.0,5.m4v,8.0
2024-02-28 10:31:40.097836,1709112700.0978358,-16.6015625,-40.52734375,-36.1328125,19.04296875,1.0,1.0,1.0,0.0,5.m4v,8.0
2024-02-28 10:31:40.101742,1709112700.1017416,5.859375,-39.0625,-40.52734375,18.5546875,1.0,1.0,1.0,0.0,5.m4v,8.0
2024-02-28 10:31:40.105647,1709112700.105647,13.18359375,-47.8515625,-27.34375,2.9296875,1.0,1.0,1.0,0.0,5.m4v,8.0
2024-02-28 10:31:40.109553,1709112700.1095529,25.390625,-47.36328125,-17.08984375,-4.39453125,1.0,1.0,1.0,0.0,5.m4v,8.0
2024-02-28 10:31:40.113459,1709112700.1134586,-1.953125,-31.25,-33.69140625,32.2265625,1.0,1.0,1.0,0.0,5.m4v,8.0
2024-02-28 10:31:40.117364,1709112700.1173644,-66.40625,-20.5078125,-57.12890625,14.16015625,1.0,1.0,1.0,0.0,5.m4v,8.0
2024-02-28 10:31:40.324381,1709112700.324381,-41.9921875,-58.10546875,-32.71484375,12.20703125,1.0,1.0,1.0,0.0,5.m4v,8.0
2024-02-28 10:31:40.332192,1709112700.3321924,-40.0390625,-26.3671875,-22.4609375,-69.82421875,1.0,1.0,1.0,0.0,5.m4v,8.0
2024-02-28 10:31:40.340004,1709112700.340004,-55.17578125,-20.01953125,-30.2734375,-44.43359375,1.0,1.0,1.0,0.0,5.m4v,8.0
2024-02-28 10:31:40.347816,1709112700.3478155,-51.7578125,-23.4375,-49.8046875,-58.59375,1.0,1.0,1.0,0.0,5.m4v,8.0
2024-02-28 10:31:40.355627,1709112700.355627,-70.3125,-33.69140625,-22.4609375,-31.25,1.0,1.0,1.0,0.0,5.m4v,8.0
2024-02-28 10:31:40.625139,1709112700.6251383,-37.109375,-15.625,-26.85546875,-23.4375,1.0,1.0,1.0,0.0,5.m4v,8.0
2024-02-28 10:31:40.632950,1709112700.63295,-43.9453125,-28.3203125,-23.4375,-41.015625,1.0,1.0,1.0,0.0,5.m4v,8.0
2024-02-28 10:31:40.640762,1709112700.6407616,-38.57421875,-39.0625,-34.1796875,-56.15234375,1.0,1.0,1.0,0.0,5.m4v,8.0
2024-02-28 10:31:40.648576,1709112700.648576,-27.83203125,-41.9921875,-41.9921875,-44.921875,1.0,1.0,1.0,0.0,5.m4v,8.0
2024-02-28 10:31:40.672010,1709112700.6720104,-23.4375,-22.94921875,-49.31640625,-70.3125,1.0,1.0,1.0,0.0,5.m4v,8.0
2024-02-28 10:31:40.675916,1709112700.6759162,-45.41015625,-32.71484375,-40.0390625,-57.12890625,1.0,1.0,1.0,0.0,5.m4v,8.0
2024-02-28 10:31:40.679822,1709112700.679822,-39.55078125,-39.55078125,-20.01953125,-5.859375,1.0,1.0,1.0,0.0,5.m4v,8.0
2024-02-28 10:31:40.683728,1709112700.6837275,-28.80859375,-38.0859375,-22.94921875,35.64453125,1.0,1.0,1.0,0.0,5.m4v,8.0
2024-02-28 10:31:40.687634,1709112700.6876335,-29.296875,-27.83203125,-29.296875,-59.5703125,1.0,1.0,1.0,0.0,5.m4v,8.0
2024-02-28 10:31:40.691542,1709112700.691542,-16.6015625,-34.1796875,-20.5078125,-67.3828125,1.0,1.0,1.0,0.0,5.m4v,8.0
2024-02-28 10:31:40.695448,1709112700.695448,-24.4140625,-43.45703125,-38.57421875,-44.921875,1.0,1.0,1.0,0.0,5.m4v,8.0
2024-02-28 10:31:40.699354,1709112700.6993537,-12.20703125,-44.43359375,-38.57421875,-41.9921875,1.0,1.0,1.0,0.0,5.m4v,8.0
2024-02-28 10:31:40.703259,1709112700.7032597,7.8125,-45.41015625,-25.87890625,25.390625,1.0,1.0,1.0,0.0,5.m4v,8.0
2024-02-28 10:31:40.707165,1709112700.7071652,-6.34765625,-35.15625,-36.62109375,33.69140625,1.0,1.0,1.0,0.0,5.m4v,8.0
2024-02-28 10:31:40.711071,1709112700.7110708,-31.25,-24.4140625,-62.01171875,-29.78515625,1.0,1.0,1.0,0.0,5.m4v,8.0
2024-02-28 10:31:40.714977,1709112700.7149763,-26.85546875,-29.296875,-75.1953125,-5.37109375,1.0,1.0,1.0,0.0,5.m4v,8.0
2024-02-28 10:31:40.718882,1709112700.7188823,-18.06640625,-32.71484375,-42.96875,45.41015625,1.0,1.0,1.0,0.0,5.m4v,8.0
2024-02-28 10:31:40.722788,1709112700.722788,-18.5546875,-33.203125,-18.06640625,-47.36328125,1.0,1.0,1.0,0.0,5.m4v,8.0
2024-02-28 10:31:40.726694,1709112700.726694,-7.8125,-40.52734375,-10.25390625,-65.4296875,1.0,1.0,1.0,0.0,5.m4v,8.0
2024-02-28 10:31:40.730600,1709112700.7305996,-20.5078125,-34.66796875,-7.32421875,-43.45703125,1.0,1.0,1.0,0.0,5.m4v,8.0
2024-02-28 10:31:40.734505,1709112700.7345054,-37.109375,-30.2734375,-18.06640625,-39.55078125,1.0,1.0,1.0,0.0,5.m4v,8.0
2024-02-28 10:31:40.738414,1709112700.7384138,3.41796875,-38.0859375,-31.25,15.13671875,1.0,1.0,1.0,0.0,5.m4v,8.0
2024-02-28 10:31:40.859497,1709112700.8594968,-31.25,-31.73828125,-55.17578125,-4.8828125,1.0,1.0,1.0,0.0,5.m4v,8.0
2024-02-28 10:31:40.863403,1709112700.8634026,-27.83203125,-33.203125,-79.58984375,-52.24609375,1.0,1.0,1.0,0.0,5.m4v,8.0
2024-02-28 10:31:40.867308,1709112700.867308,-57.12890625,-32.2265625,-35.15625,-53.7109375,1.0,1.0,1.0,0.0,5.m4v,8.0
2024-02-28 10:31:40.871214,1709112700.871214,-60.546875,-47.36328125,-9.765625,-28.3203125,1.0,1.0,1.0,0.0,5.m4v,8.0
2024-02-28 10:31:40.875120,1709112700.8751197,-39.55078125,-32.2265625,-17.08984375,-40.0390625,1.0,1.0,1.0,0.0,5.m4v,8.0
2024-02-28 10:31:40.879028,1709112700.8790283,-37.109375,-17.578125,-47.8515625,-75.68359375,1.0,1.0,1.0,0.0,5.m4v,8.0
2024-02-28 10:31:40.882934,1709112700.882934,-32.2265625,-20.99609375,-69.82421875,-51.26953125,1.0,1.0,1.0,0.0,5.m4v,8.0
2024-02-28 10:31:40.886840,1709112700.88684,-39.0625,-35.64453125,-71.2890625,-14.16015625,1.0,1.0,1.0,0.0,5.m4v,8.0
2024-02-28 10:31:40.890746,1709112700.8907456,-34.1796875,-44.43359375,-63.96484375,-62.01171875,1.0,1.0,1.0,0.0,5.m4v,8.0
2024-02-28 10:31:40.941522,1709112700.9415224,-73.73046875,-64.94140625,17.578125,-125.48828125,1.0,1.0,1.0,0.0,5.m4v,8.0
2024-02-28 10:31:40.945428,1709112700.945428,-82.03125,-41.015625,-7.32421875,-94.7265625,1.0,1.0,1.0,0.0,5.m4v,8.0
2024-02-28 10:31:40.949334,1709112700.9493337,-73.2421875,-20.99609375,-50.29296875,-88.37890625,1.0,1.0,1.0,0.0,5.m4v,8.0
2024-02-28 10:31:40.953239,1709112700.9532394,-72.75390625,-31.73828125,-52.734375,-80.078125,1.0,1.0,1.0,0.0,5.m4v,8.0
2024-02-28 10:31:40.992299,1709112700.9922988,-59.5703125,-51.26953125,-70.80078125,-25.390625,1.0,1.0,1.0,0.0,5.m4v,8.0
2024-02-28 10:31:40.996205,1709112700.9962046,-50.78125,-40.52734375,-86.42578125,-48.33984375,1.0,1.0,1.0,0.0,5.m4v,8.0
2024-02-28 10:31:41.000110,1709112701.0001104,-61.5234375,-20.99609375,-47.8515625,-86.42578125,1.0,1.0,1.0,0.0,5.m4v,8.0
2024-02-28 10:31:41.004016,1709112701.0040162,-91.796875,-26.3671875,-19.53125,-103.515625,1.0,1.0,1.0,0.0,5.m4v,8.0
2024-02-28 10:31:41.007922,1709112701.007922,-119.62890625,-42.96875,-31.25,-114.2578125,1.0,1.0,1.0,0.0,5.m4v,8.0
2024-02-28 10:31:41.011828,1709112701.0118277,-133.30078125,-54.6875,-52.734375,-96.19140625,1.0,1.0,1.0,0.0,5.m4v,8.0
2024-02-28 10:31:41.015733,1709112701.0157332,-117.67578125,-50.78125,-37.59765625,-110.83984375,1.0,1.0,1.0,0.0,5.m4v,8.0
2024-02-28 10:31:41.019641,1709112701.019641,-101.07421875,-43.45703125,-22.94921875,-139.16015625,1.0,1.0,1.0,0.0,5.m4v,8.0
2024-02-28 10:31:41.023546,1709112701.0235465,-104.4921875,-41.015625,-26.85546875,-160.64453125,1.0,1.0,1.0,0.0,5.m4v,8.0
2024-02-28 10:31:41.027452,1709112701.0274522,-101.07421875,-36.1328125,-20.99609375,-145.01953125,1.0,1.0,1.0,0.0,5.m4v,8.0
2024-02-28 10:31:41.031358,1709112701.031358,-110.83984375,-33.69140625,-24.4140625,-132.8125,1.0,1.0,1.0,0.0,5.m4v,8.0
2024-02-28 10:31:41.035264,1709112701.0352638,-116.2109375,-32.71484375,-39.55078125,-63.96484375,1.0,1.0,1.0,0.0,5.m4v,8.0
2024-02-28 10:31:41.039170,1709112701.0391695,-99.609375,-34.66796875,-54.19921875,-63.4765625,1.0,1.0,1.0,0.0,5.m4v,8.0
2024-02-28 10:31:41.043075,1709112701.043075,-103.02734375,-42.96875,-46.38671875,-104.98046875,1.0,1.0,1.0,0.0,5.m4v,8.0
2024-02-28 10:31:41.046981,1709112701.046981,-49.8046875,-46.875,-33.69140625,-60.05859375,1.0,1.0,1.0,0.0,5.m4v,8.0
2024-02-28 10:31:41.050887,1709112701.0508869,-32.71484375,-43.9453125,-35.15625,-74.70703125,1.0,1.0,1.0,0.0,5.m4v,8.0
2024-02-28 10:31:41.054792,1709112701.0547924,-102.05078125,-43.45703125,-41.9921875,-85.9375,1.0,1.0,1.0,0.0,5.m4v,8.0
2024-02-28 10:31:41.058698,1709112701.0586982,-83.984375,-37.109375,-50.78125,-74.21875,1.0,1.0,1.0,0.0,5.m4v,8.0
2024-02-28 10:31:41.062604,1709112701.062604,-62.01171875,-34.66796875,-29.78515625,-4.8828125,1.0,1.0,1.0,0.0,5.m4v,8.0
2024-02-28 10:31:41.066513,1709112701.0665126,-31.73828125,-32.71484375,-22.4609375,0.0,1.0,1.0,1.0,0.0,5.m4v,8.0
2024-02-28 10:31:41.070418,1709112701.0704184,16.11328125,-31.25,-42.48046875,-80.56640625,1.0,1.0,1.0,0.0,5.m4v,8.0
2024-02-28 10:31:41.074324,1709112701.074324,-1.46484375,-30.2734375,-44.921875,-103.515625,1.0,1.0,1.0,0.0,5.m4v,8.0
2024-02-28 10:31:41.078230,1709112701.07823,-40.52734375,-28.80859375,-54.6875,-70.3125,1.0,1.0,1.0,0.0,5.m4v,8.0
2024-02-28 10:31:41.082136,1709112701.0821357,-70.80078125,-39.55078125,-42.48046875,-46.38671875,1.0,1.0,1.0,0.0,5.m4v,8.0
2024-02-28 10:31:41.086041,1709112701.0860417,-47.36328125,-46.875,-28.3203125,-16.11328125,1.0,1.0,1.0,0.0,5.m4v,8.0
2024-02-28 10:31:41.089947,1709112701.089947,-20.01953125,-44.43359375,-44.921875,-1.46484375,1.0,1.0,1.0,0.0,5.m4v,8.0
2024-02-28 10:31:41.093853,1709112701.0938528,-25.87890625,-40.52734375,-35.15625,-0.9765625,1.0,1.0,1.0,0.0,5.m4v,8.0
2024-02-28 10:31:41.097759,1709112701.0977583,-13.671875,-35.15625,-25.87890625,-2.9296875,1.0,1.0,1.0,0.0,5.m4v,8.0
2024-02-28 10:31:41.101664,1709112701.1016643,-8.7890625,-40.0390625,-49.8046875,-53.22265625,1.0,1.0,1.0,0.0,5.m4v,8.0
2024-02-28 10:31:41.105570,1709112701.10557,-25.390625,-51.26953125,-35.15625,-91.796875,1.0,1.0,1.0,0.0,5.m4v,8.0
2024-02-28 10:31:41.109476,1709112701.109476,-46.875,-56.15234375,-25.87890625,-68.84765625,1.0,1.0,1.0,0.0,5.m4v,8.0
2024-02-28 10:31:41.113384,1709112701.1133842,-14.6484375,-57.12890625,-47.8515625,-23.4375,1.0,1.0,1.0,0.0,5.m4v,8.0
2024-02-28 10:31:41.117290,1709112701.11729,-20.01953125,-58.59375,-49.31640625,-11.71875,1.0,1.0,1.0,0.0,5.m4v,8.0
2024-02-28 10:31:41.121196,1709112701.1211958,-61.5234375,-33.69140625,-41.50390625,-36.1328125,1.0,1.0,1.0,0.0,5.m4v,8.0
2024-02-28 10:31:41.125102,1709112701.1251016,-20.99609375,-6.8359375,-38.0859375,-36.62109375,1.0,1.0,1.0,0.0,5.m4v,8.0
2024-02-28 10:31:41.129007,1709112701.129007,-15.13671875,-16.6015625,-25.87890625,-39.0625,1.0,1.0,1.0,0.0,5.m4v,8.0
2024-02-28 10:31:41.132913,1709112701.1329129,-23.92578125,-30.2734375,-16.6015625,-53.22265625,1.0,1.0,1.0,0.0,5.m4v,8.0
2024-02-28 10:31:41.136819,1709112701.1368186,-28.80859375,-36.1328125,-23.4375,-21.97265625,1.0,1.0,1.0,0.0,5.m4v,8.0
2024-02-28 10:31:41.140724,1709112701.1407244,-31.73828125,-34.1796875,-42.96875,-3.90625,1.0,1.0,1.0,0.0,5.m4v,8.0
2024-02-28 10:31:41.144630,1709112701.1446302,10.7421875,-23.92578125,-59.08203125,-8.30078125,1.0,1.0,1.0,0.0,5.m4v,8.0
2024-02-28 10:31:41.148536,1709112701.148536,33.69140625,-15.625,-73.73046875,18.5546875,1.0,1.0,1.0,0.0,5.m4v,8.0
2024-02-28 10:31:41.152442,1709112701.1524415,1.953125,-32.71484375,-57.12890625,36.62109375,1.0,1.0,1.0,0.0,5.m4v,8.0
2024-02-28 10:31:41.156348,1709112701.1563475,-24.4140625,-45.41015625,-41.50390625,14.6484375,1.0,1.0,1.0,0.0,5.m4v,8.0
2024-02-28 10:31:41.160256,1709112701.1602557,-17.578125,-44.921875,-25.87890625,-30.76171875,1.0,1.0,1.0,0.0,5.m4v,8.0
2024-02-28 10:31:41.164161,1709112701.1641614,6.8359375,-49.8046875,-8.7890625,-28.80859375,1.0,1.0,1.0,0.0,5.m4v,8.0
2024-02-28 10:31:41.168067,1709112701.1680672,19.53125,-45.41015625,-22.4609375,-10.25390625,1.0,1.0,1.0,0.0,5.m4v,8.0
2024-02-28 10:31:41.171973,1709112701.171973,18.5546875,-28.3203125,-23.4375,-13.18359375,1.0,1.0,1.0,0.0,5.m4v,8.0
2024-02-28 10:31:41.175879,1709112701.1758788,15.625,-20.99609375,-20.5078125,-7.8125,1.0,1.0,1.0,0.0,5.m4v,8.0
2024-02-28 10:31:41.179785,1709112701.1797843,14.16015625,-27.34375,-41.015625,1.953125,1.0,1.0,1.0,0.0,5.m4v,8.0
2024-02-28 10:31:41.183690,1709112701.18369,18.06640625,-25.87890625,-54.6875,31.25,1.0,1.0,1.0,0.0,5.m4v,8.0
2024-02-28 10:31:41.187596,1709112701.1875958,15.13671875,-18.5546875,-35.64453125,99.609375,1.0,1.0,1.0,0.0,5.m4v,8.0
2024-02-28 10:31:41.191502,1709112701.1915016,46.875,-18.5546875,-58.10546875,107.91015625,1.0,1.0,1.0,0.0,5.m4v,8.0
2024-02-28 10:31:41.195407,1709112701.1954074,64.453125,-23.92578125,-76.171875,8.7890625,1.0,1.0,1.0,0.0,5.m4v,8.0
2024-02-28 10:31:41.199313,1709112701.1993132,15.13671875,-32.2265625,-25.87890625,-37.59765625,1.0,1.0,1.0,0.0,5.m4v,8.0
2024-02-28 10:31:41.203219,1709112701.203219,-18.06640625,-41.015625,7.8125,-15.13671875,1.0,1.0,1.0,0.0,5.m4v,8.0
2024-02-28 10:31:41.207127,1709112701.207127,-12.20703125,-49.31640625,-14.6484375,-18.5546875,1.0,1.0,1.0,0.0,5.m4v,8.0
2024-02-28 10:31:41.211033,1709112701.2110329,-14.6484375,-51.7578125,-29.296875,7.32421875,1.0,1.0,1.0,0.0,5.m4v,8.0
2024-02-28 10:31:41.214938,1709112701.2149384,-14.6484375,-43.9453125,-39.55078125,60.05859375,1.0,1.0,1.0,0.0,5.m4v,8.0
2024-02-28 10:31:41.218844,1709112701.2188442,38.57421875,-19.04296875,-47.36328125,54.6875,1.0,1.0,1.0,0.0,5.m4v,8.0
2024-02-28 10:31:41.222750,1709112701.22275,21.484375,-22.94921875,-41.015625,-3.90625,1.0,1.0,1.0,0.0,5.m4v,8.0
2024-02-28 10:31:41.226656,1709112701.2266555,-32.71484375,-38.57421875,-45.8984375,-34.1796875,1.0,1.0,1.0,0.0,5.m4v,8.0
2024-02-28 10:31:41.230561,1709112701.2305615,-31.25,-33.69140625,-35.64453125,1.46484375,1.0,1.0,1.0,0.0,5.m4v,8.0
2024-02-28 10:31:41.234467,1709112701.2344673,-26.3671875,-30.76171875,-33.203125,-37.109375,1.0,1.0,1.0,0.0,5.m4v,8.0
2024-02-28 10:31:41.238373,1709112701.238373,-29.296875,-37.109375,-28.80859375,-43.9453125,1.0,1.0,1.0,0.0,5.m4v,8.0
2024-02-28 10:31:41.242279,1709112701.2422786,-12.6953125,-36.1328125,-25.87890625,-14.16015625,1.0,1.0,1.0,0.0,5.m4v,8.0
2024-02-28 10:31:41.246184,1709112701.2461843,-18.06640625,-31.25,-55.6640625,-28.3203125,1.0,1.0,1.0,0.0,5.m4v,8.0
2024-02-28 10:31:41.250090,1709112701.25009,-45.41015625,-28.3203125,-60.546875,-43.9453125,1.0,1.0,1.0,0.0,5.m4v,8.0
2024-02-28 10:31:41.253998,1709112701.253998,-35.64453125,-31.25,-36.62109375,-21.97265625,1.0,1.0,1.0,0.0,5.m4v,8.0
2024-02-28 10:31:41.257904,1709112701.2579038,-14.6484375,-44.43359375,-32.71484375,59.5703125,1.0,1.0,1.0,0.0,5.m4v,8.0
2024-02-28 10:31:41.687556,1709112701.687556,-3.41796875,-32.2265625,-45.41015625,19.53125,1.0,1.0,1.0,0.0,5.m4v,8.0
2024-02-28 10:31:41.691462,1709112701.6914618,11.23046875,-21.97265625,-29.78515625,7.32421875,1.0,1.0,1.0,0.0,5.m4v,8.0
2024-02-28 10:31:41.695368,1709112701.6953676,-37.109375,-41.9921875,-34.66796875,6.8359375,1.0,1.0,1.0,0.0,5.m4v,8.0
2024-02-28 10:31:41.699273,1709112701.699273,-56.15234375,-43.9453125,-43.9453125,-40.52734375,1.0,1.0,1.0,0.0,5.m4v,8.0
2024-02-28 10:31:41.703179,1709112701.7031791,-25.390625,-31.25,-47.36328125,-58.59375,1.0,1.0,1.0,0.0,5.m4v,8.0
2024-02-28 10:31:41.707085,1709112701.707085,-16.6015625,-22.94921875,-37.109375,-42.48046875,1.0,1.0,1.0,0.0,5.m4v,8.0
2024-02-28 10:31:41.710991,1709112701.710991,-23.4375,-28.3203125,-33.203125,-12.20703125,1.0,1.0,1.0,0.0,5.m4v,8.0
2024-02-28 10:31:41.714896,1709112701.7148964,-13.18359375,-37.109375,-49.31640625,14.16015625,1.0,1.0,1.0,0.0,5.m4v,8.0
2024-02-28 10:31:41.718802,1709112701.718802,-28.80859375,-30.76171875,-59.08203125,-0.9765625,1.0,1.0,1.0,0.0,5.m4v,8.0
2024-02-28 10:31:41.722710,1709112701.7227097,-43.45703125,-22.94921875,-25.390625,-5.859375,1.0,1.0,1.0,0.0,5.m4v,8.0
2024-02-28 10:31:41.726615,1709112701.7266154,-28.3203125,-32.71484375,-6.34765625,-21.97265625,1.0,1.0,1.0,0.0,5.m4v,8.0
2024-02-28 10:31:41.730521,1709112701.7305212,-50.78125,-60.05859375,-21.484375,-53.22265625,1.0,1.0,1.0,0.0,5.m4v,8.0
2024-02-28 10:31:41.734427,1709112701.734427,-60.546875,-62.5,-24.90234375,-60.05859375,1.0,1.0,1.0,0.0,5.m4v,8.0
2024-02-28 10:31:41.738333,1709112701.7383327,-60.05859375,-40.52734375,-31.73828125,-55.6640625,1.0,1.0,1.0,0.0,5.m4v,8.0
2024-02-28 10:31:41.742238,1709112701.7422383,-55.6640625,-25.87890625,-53.7109375,-39.55078125,1.0,1.0,1.0,0.0,5.m4v,8.0
2024-02-28 10:31:41.746144,1709112701.746144,-43.9453125,-20.99609375,-66.40625,-46.38671875,1.0,1.0,1.0,0.0,5.m4v,8.0
2024-02-28 10:31:41.750050,1709112701.7500498,-49.8046875,-19.04296875,-51.26953125,-75.68359375,1.0,1.0,1.0,0.0,5.m4v,8.0
2024-02-28 10:31:41.753956,1709112701.7539556,-43.45703125,-14.16015625,-54.19921875,-60.05859375,1.0,1.0,1.0,0.0,5.m4v,8.0
2024-02-28 10:31:41.757861,1709112701.7578614,-23.92578125,-17.578125,-71.2890625,-12.20703125,1.0,1.0,1.0,0.0,5.m4v,8.0
2024-02-28 10:31:41.761767,1709112701.7617671,-16.11328125,-30.2734375,-65.4296875,-15.13671875,1.0,1.0,1.0,0.0,5.m4v,8.0
2024-02-28 10:31:41.765673,1709112701.765673,-23.92578125,-31.73828125,-50.29296875,-32.71484375,1.0,1.0,1.0,0.0,5.m4v,8.0
2024-02-28 10:31:41.769582,1709112701.7695818,-42.48046875,-34.66796875,-17.08984375,-35.64453125,1.0,1.0,1.0,0.0,5.m4v,8.0
2024-02-28 10:31:41.773487,1709112701.773487,-50.78125,-38.0859375,-20.99609375,-28.80859375,1.0,1.0,1.0,0.0,5.m4v,8.0
2024-02-28 10:31:41.777393,1709112701.777393,-29.78515625,-25.390625,-39.55078125,-30.2734375,1.0,1.0,1.0,0.0,5.m4v,8.0
2024-02-28 10:31:41.781299,1709112701.7812989,-4.39453125,-29.296875,-34.66796875,-44.921875,1.0,1.0,1.0,0.0,5.m4v,8.0
2024-02-28 10:31:41.785205,1709112701.7852046,-3.41796875,-39.0625,-36.62109375,-47.8515625,1.0,1.0,1.0,0.0,5.m4v,8.0
2024-02-28 10:31:41.789110,1709112701.7891104,-19.04296875,-36.62109375,-49.31640625,-28.3203125,1.0,1.0,1.0,0.0,5.m4v,8.0
2024-02-28 10:31:41.793016,1709112701.7930162,-25.87890625,-24.90234375,-67.87109375,2.9296875,1.0,1.0,1.0,0.0,5.m4v,8.0
2024-02-28 10:31:41.796922,1709112701.796922,-35.64453125,-20.01953125,-56.640625,-35.15625,1.0,1.0,1.0,0.0,5.m4v,8.0
2024-02-28 10:31:41.800828,1709112701.8008275,-27.34375,-31.25,-35.15625,-7.32421875,1.0,1.0,1.0,0.0,5.m4v,8.0
2024-02-28 10:31:41.804733,1709112701.8047333,-10.7421875,-37.109375,-14.16015625,-10.25390625,1.0,1.0,1.0,0.0,5.m4v,8.0
2024-02-28 10:31:41.808639,1709112701.808639,-2.9296875,-34.1796875,-1.46484375,-52.734375,1.0,1.0,1.0,0.0,5.m4v,8.0
2024-02-28 10:31:41.812545,1709112701.8125448,-24.90234375,-28.3203125,-17.08984375,-18.06640625,1.0,1.0,1.0,0.0,5.m4v,8.0
2024-02-28 10:31:41.816453,1709112701.8164537,-40.52734375,-26.3671875,-22.4609375,-20.5078125,1.0,1.0,1.0,0.0,5.m4v,8.0
2024-02-28 10:31:41.820359,1709112701.8203592,-20.01953125,-37.109375,-18.06640625,-52.734375,1.0,1.0,1.0,0.0,5.m4v,8.0
2024-02-28 10:31:41.824265,1709112701.824265,-12.6953125,-45.8984375,-34.66796875,-53.22265625,1.0,1.0,1.0,0.0,5.m4v,8.0
2024-02-28 10:31:41.828171,1709112701.8281708,4.39453125,-44.43359375,-45.8984375,-12.20703125,1.0,1.0,1.0,0.0,5.m4v,8.0
2024-02-28 10:31:41.832077,1709112701.8320763,4.39453125,-35.64453125,-55.6640625,17.08984375,1.0,1.0,1.0,0.0,5.m4v,8.0
2024-02-28 10:31:41.835982,1709112701.8359823,-7.32421875,-28.3203125,-72.265625,39.55078125,1.0,1.0,1.0,0.0,5.m4v,8.0
2024-02-28 10:31:41.839888,1709112701.839888,-4.39453125,-29.78515625,-61.5234375,14.6484375,1.0,1.0,1.0,0.0,5.m4v,8.0
2024-02-28 10:31:41.843794,1709112701.8437936,-17.08984375,-37.109375,-37.59765625,-21.97265625,1.0,1.0,1.0,0.0,5.m4v,8.0
2024-02-28 10:31:41.847699,1709112701.8476994,-8.30078125,-38.57421875,-33.203125,-20.01953125,1.0,1.0,1.0,0.0,5.m4v,8.0
2024-02-28 10:31:41.851605,1709112701.8516052,-20.01953125,-39.55078125,-12.6953125,-54.6875,1.0,1.0,1.0,0.0,5.m4v,8.0
2024-02-28 10:31:41.855511,1709112701.855511,-32.2265625,-38.57421875,-11.23046875,-13.18359375,1.0,1.0,1.0,0.0,5.m4v,8.0
2024-02-28 10:31:41.859417,1709112701.8594167,-17.08984375,-39.55078125,-59.08203125,-1.953125,1.0,1.0,1.0,0.0,5.m4v,8.0
2024-02-28 10:31:41.863325,1709112701.863325,-21.484375,-42.48046875,-41.9921875,-26.85546875,1.0,1.0,1.0,0.0,5.m4v,8.0
2024-02-28 10:31:41.867231,1709112701.867231,-31.25,-31.25,-6.34765625,-21.97265625,1.0,1.0,1.0,0.0,5.m4v,8.0
2024-02-28 10:31:41.871137,1709112701.871137,-36.1328125,-33.69140625,-33.203125,-68.359375,1.0,1.0,1.0,0.0,5.m4v,8.0
2024-02-28 10:31:41.875042,1709112701.8750424,-41.50390625,-37.59765625,-49.31640625,-64.453125,1.0,1.0,1.0,0.0,5.m4v,8.0
2024-02-28 10:31:41.878948,1709112701.8789482,-58.59375,-46.38671875,-37.59765625,-63.4765625,1.0,1.0,1.0,0.0,5.m4v,8.0
2024-02-28 10:31:41.882854,1709112701.8828535,-56.640625,-51.7578125,-34.66796875,-55.6640625,1.0,1.0,1.0,0.0,5.m4v,8.0
2024-02-28 10:31:41.886760,1709112701.8867595,-44.921875,-39.0625,-40.0390625,-47.36328125,1.0,1.0,1.0,0.0,5.m4v,8.0
2024-02-28 10:31:41.890665,1709112701.8906653,-52.734375,-31.25,-41.50390625,-56.640625,1.0,1.0,1.0,0.0,5.m4v,8.0
2024-02-28 10:31:41.894571,1709112701.894571,-53.7109375,-32.71484375,-38.0859375,-51.7578125,1.0,1.0,1.0,0.0,5.m4v,8.0
2024-02-28 10:31:41.898477,1709112701.8984768,-60.05859375,-30.76171875,-33.203125,-34.1796875,1.0,1.0,1.0,0.0,5.m4v,8.0
2024-02-28 10:31:41.902383,1709112701.9023826,-66.89453125,-26.85546875,-57.12890625,-46.38671875,1.0,1.0,1.0,0.0,5.m4v,8.0
2024-02-28 10:31:41.906288,1709112701.9062884,-63.4765625,-29.78515625,-72.265625,-42.48046875,1.0,1.0,1.0,0.0,5.m4v,8.0
2024-02-28 10:31:41.910197,1709112701.9101963,-38.0859375,-31.73828125,-36.1328125,16.11328125,1.0,1.0,1.0,0.0,5.m4v,8.0
2024-02-28 10:31:41.914102,1709112701.9141023,-43.45703125,-39.55078125,-20.99609375,-21.97265625,1.0,1.0,1.0,0.0,5.m4v,8.0
2024-02-28 10:31:41.918008,1709112701.918008,-83.0078125,-49.31640625,-45.41015625,-86.9140625,1.0,1.0,1.0,0.0,5.m4v,8.0
2024-02-28 10:31:41.921914,1709112701.921914,-75.1953125,-43.45703125,-57.6171875,-101.07421875,1.0,1.0,1.0,0.0,5.m4v,8.0
2024-02-28 10:31:41.925820,1709112701.9258196,-62.5,-37.59765625,-42.48046875,-88.37890625,1.0,1.0,1.0,0.0,5.m4v,8.0
2024-02-28 10:31:41.929725,1709112701.9297254,-53.7109375,-49.31640625,-22.4609375,-75.1953125,1.0,1.0,1.0,0.0,5.m4v,8.0
2024-02-28 10:31:41.933631,1709112701.9336312,-60.546875,-35.64453125,-27.83203125,-74.70703125,1.0,1.0,1.0,0.0,5.m4v,8.0
2024-02-28 10:31:41.937537,1709112701.9375367,-79.58984375,-14.6484375,-44.43359375,-53.22265625,1.0,1.0,1.0,0.0,5.m4v,8.0
2024-02-28 10:31:41.941442,1709112701.9414425,-71.77734375,-21.484375,-32.71484375,-44.921875,1.0,1.0,1.0,0.0,5.m4v,8.0
2024-02-28 10:31:41.945348,1709112701.9453485,-63.96484375,-26.3671875,-17.578125,-55.17578125,1.0,1.0,1.0,0.0,5.m4v,8.0
2024-02-28 10:31:41.949254,1709112701.949254,-62.98828125,-25.390625,-13.18359375,-59.5703125,1.0,1.0,1.0,0.0,5.m4v,8.0
2024-02-28 10:31:41.953160,1709112701.9531598,-48.828125,-31.25,-26.3671875,-78.61328125,1.0,1.0,1.0,0.0,5.m4v,8.0
2024-02-28 10:31:41.957068,1709112701.9570675,-53.7109375,-35.64453125,-37.109375,-81.0546875,1.0,1.0,1.0,0.0,5.m4v,8.0
2024-02-28 10:31:41.960974,1709112701.9609735,-74.21875,-30.76171875,-25.87890625,-21.97265625,1.0,1.0,1.0,0.0,5.m4v,8.0
2024-02-28 10:31:41.964879,1709112701.9648793,-63.96484375,-38.57421875,-33.69140625,9.765625,1.0,1.0,1.0,0.0,5.m4v,8.0
2024-02-28 10:31:41.968785,1709112701.968785,-53.7109375,-41.015625,-61.03515625,-34.66796875,1.0,1.0,1.0,0.0,5.m4v,8.0
2024-02-28 10:31:41.972691,1709112701.9726908,-63.96484375,-29.296875,-65.4296875,-100.5859375,1.0,1.0,1.0,0.0,5.m4v,8.0
2024-02-28 10:31:41.976597,1709112701.9765966,-66.89453125,-28.3203125,-28.3203125,-84.9609375,1.0,1.0,1.0,0.0,5.m4v,8.0
2024-02-28 10:31:41.980502,1709112701.980502,-45.41015625,-30.2734375,-4.8828125,-79.58984375,1.0,1.0,1.0,0.0,5.m4v,8.0
2024-02-28 10:31:42.023468,1709112702.0234678,-74.70703125,-35.15625,-30.76171875,-49.8046875,1.0,1.0,1.0,0.0,5.m4v,8.0
2024-02-28 10:31:42.027374,1709112702.0273736,-64.453125,-37.59765625,-41.9921875,-53.22265625,1.0,1.0,1.0,0.0,5.m4v,8.0
2024-02-28 10:31:42.031279,1709112702.031279,-62.5,-37.109375,-28.80859375,-100.09765625,1.0,1.0,1.0,0.0,5.m4v,8.0
2024-02-28 10:31:42.035185,1709112702.0351849,-70.80078125,-27.83203125,-15.13671875,-96.6796875,1.0,1.0,1.0,0.0,5.m4v,8.0
2024-02-28 10:31:42.039091,1709112702.0390906,-78.61328125,-26.85546875,-32.2265625,-84.47265625,1.0,1.0,1.0,0.0,5.m4v,8.0
2024-02-28 10:31:42.042996,1709112702.0429964,-78.61328125,-32.71484375,-40.52734375,-54.19921875,1.0,1.0,1.0,0.0,5.m4v,8.0
2024-02-28 10:31:42.046902,1709112702.0469022,-66.89453125,-29.296875,-51.26953125,-28.3203125,1.0,1.0,1.0,0.0,5.m4v,8.0
2024-02-28 10:31:42.050810,1709112702.0508103,-57.6171875,-29.296875,-52.24609375,-38.57421875,1.0,1.0,1.0,0.0,5.m4v,8.0
2024-02-28 10:31:42.054716,1709112702.054716,-54.19921875,-40.52734375,-28.3203125,-78.61328125,1.0,1.0,1.0,0.0,5.m4v,8.0
2024-02-28 10:31:42.058622,1709112702.0586216,-92.7734375,-39.55078125,-22.4609375,-96.6796875,1.0,1.0,1.0,0.0,5.m4v,8.0
2024-02-28 10:31:42.062527,1709112702.0625274,-101.5625,-33.203125,-46.38671875,-58.10546875,1.0,1.0,1.0,0.0,5.m4v,8.0
2024-02-28 10:31:42.066433,1709112702.0664332,-56.15234375,-25.390625,-62.98828125,-61.5234375,1.0,1.0,1.0,0.0,5.m4v,8.0
2024-02-28 10:31:42.070339,1709112702.070339,-47.8515625,-28.3203125,-34.1796875,-85.9375,1.0,1.0,1.0,0.0,5.m4v,8.0
2024-02-28 10:31:42.074245,1709112702.0742447,-72.75390625,-36.62109375,-36.62109375,-74.70703125,1.0,1.0,1.0,0.0,5.m4v,8.0
2024-02-28 10:31:42.078151,1709112702.0781505,-100.09765625,-36.62109375,-39.55078125,-109.375,1.0,1.0,1.0,0.0,5.m4v,8.0
2024-02-28 10:31:42.082056,1709112702.0820563,-101.07421875,-27.83203125,-18.06640625,-125.0,1.0,1.0,1.0,0.0,5.m4v,8.0
2024-02-28 10:31:42.085962,1709112702.0859618,-108.88671875,-26.3671875,-21.97265625,-116.69921875,1.0,1.0,1.0,0.0,5.m4v,8.0
2024-02-28 10:31:42.089868,1709112702.0898676,-125.9765625,-53.7109375,-45.8984375,-125.48828125,1.0,1.0,1.0,0.0,5.m4v,8.0
2024-02-28 10:31:42.093773,1709112702.0937734,-103.02734375,-50.29296875,-62.01171875,-88.37890625,1.0,1.0,1.0,0.0,5.m4v,8.0
2024-02-28 10:31:42.097681,1709112702.097681,-95.21484375,-12.6953125,-30.76171875,-74.70703125,1.0,1.0,1.0,0.0,5.m4v,8.0
2024-02-28 10:31:42.101587,1709112702.1015868,-125.48828125,-19.04296875,1.46484375,-103.515625,1.0,1.0,1.0,0.0,5.m4v,8.0
2024-02-28 10:31:42.105493,1709112702.1054926,-144.04296875,-45.41015625,1.46484375,-127.44140625,1.0,1.0,1.0,0.0,5.m4v,8.0
2024-02-28 10:31:42.109398,1709112702.1093984,-128.41796875,-56.15234375,-18.06640625,-153.80859375,1.0,1.0,1.0,0.0,5.m4v,8.0
2024-02-28 10:31:42.113304,1709112702.113304,-98.14453125,-39.55078125,-21.97265625,-129.8828125,1.0,1.0,1.0,0.0,5.m4v,8.0
2024-02-28 10:31:42.117210,1709112702.1172097,-55.17578125,-16.11328125,-59.5703125,-82.51953125,1.0,1.0,1.0,0.0,5.m4v,8.0
2024-02-28 10:31:42.121115,1709112702.1211154,-46.875,-17.578125,-90.8203125,-54.6875,1.0,1.0,1.0,0.0,5.m4v,8.0
2024-02-28 10:31:42.125021,1709112702.1250212,-59.08203125,-31.73828125,-35.64453125,-23.4375,1.0,1.0,1.0,0.0,5.m4v,8.0
2024-02-28 10:31:42.128927,1709112702.128927,-38.0859375,-31.73828125,-26.85546875,-22.94921875,1.0,1.0,1.0,0.0,5.m4v,8.0
2024-02-28 10:31:42.132833,1709112702.1328328,-22.4609375,-30.76171875,-40.52734375,-13.18359375,1.0,1.0,1.0,0.0,5.m4v,8.0
2024-02-28 10:31:42.136739,1709112702.1367383,-23.4375,-44.43359375,-9.27734375,-38.0859375,1.0,1.0,1.0,0.0,5.m4v,8.0
2024-02-28 10:31:42.140644,1709112702.140644,-28.3203125,-54.19921875,-0.9765625,-62.01171875,1.0,1.0,1.0,0.0,5.m4v,8.0
2024-02-28 10:31:42.144553,1709112702.144553,-30.2734375,-45.41015625,-9.27734375,-48.33984375,1.0,1.0,1.0,0.0,5.m4v,8.0
2024-02-28 10:31:42.148459,1709112702.1484587,-11.23046875,-33.69140625,-18.06640625,-32.71484375,1.0,1.0,1.0,0.0,5.m4v,8.0
2024-02-28 10:31:42.152364,1709112702.1523645,-7.8125,-30.76171875,-37.109375,-21.484375,1.0,1.0,1.0,0.0,5.m4v,8.0
2024-02-28 10:31:42.289074,1709112702.2890737,28.3203125,-26.85546875,-37.109375,10.25390625,1.0,1.0,1.0,0.0,5.m4v,8.0
2024-02-28 10:31:42.292979,1709112702.2929797,-11.23046875,-42.48046875,-52.734375,-8.7890625,1.0,1.0,1.0,0.0,5.m4v,8.0
2024-02-28 10:31:42.296885,1709112702.2968853,-20.5078125,-45.8984375,-43.9453125,-15.13671875,1.0,1.0,1.0,0.0,5.m4v,8.0
2024-02-28 10:31:42.300791,1709112702.300791,-10.25390625,-39.0625,-44.43359375,-6.34765625,1.0,1.0,1.0,0.0,5.m4v,8.0
2024-02-28 10:31:42.304697,1709112702.3046968,-8.7890625,-27.83203125,-43.45703125,-0.9765625,1.0,1.0,1.0,0.0,5.m4v,8.0
2024-02-28 10:31:42.308603,1709112702.3086026,5.859375,-19.04296875,-46.38671875,-6.34765625,1.0,1.0,1.0,0.0,5.m4v,8.0
2024-02-28 10:31:42.312508,1709112702.312508,6.34765625,-38.0859375,-51.7578125,17.08984375,1.0,1.0,1.0,0.0,5.m4v,8.0
2024-02-28 10:31:42.316414,1709112702.316414,-14.16015625,-45.41015625,-44.43359375,-8.7890625,1.0,1.0,1.0,0.0,5.m4v,8.0
2024-02-28 10:31:42.320320,1709112702.3203197,-3.90625,-25.390625,-40.52734375,-39.55078125,1.0,1.0,1.0,0.0,5.m4v,8.0
2024-02-28 10:31:42.367191,1709112702.367191,-41.50390625,-33.203125,-43.9453125,-19.53125,1.0,1.0,1.0,0.0,5.m4v,8.0
2024-02-28 10:31:42.371097,1709112702.3710968,-50.78125,-25.390625,-60.546875,-21.97265625,1.0,1.0,1.0,0.0,5.m4v,8.0
2024-02-28 10:31:42.375002,1709112702.3750024,-21.484375,-21.484375,-50.29296875,-0.48828125,1.0,1.0,1.0,0.0,5.m4v,8.0
2024-02-28 10:31:42.378911,1709112702.3789103,-23.4375,-10.25390625,-39.0625,-13.18359375,1.0,1.0,1.0,0.0,5.m4v,8.0
2024-02-28 10:31:42.382816,1709112702.382816,-22.94921875,-16.11328125,-27.83203125,-18.06640625,1.0,1.0,1.0,0.0,5.m4v,8.0
2024-02-28 10:31:42.386722,1709112702.3867218,-39.55078125,-26.85546875,-24.4140625,-25.390625,1.0,1.0,1.0,0.0,5.m4v,8.0
2024-02-28 10:31:42.390628,1709112702.3906276,-64.94140625,-36.62109375,-33.69140625,-58.10546875,1.0,1.0,1.0,0.0,5.m4v,8.0
2024-02-28 10:31:42.394533,1709112702.3945334,-42.96875,-32.71484375,-21.484375,-23.4375,1.0,1.0,1.0,0.0,5.m4v,8.0
2024-02-28 10:31:42.398439,1709112702.3984392,-25.390625,-29.78515625,-17.578125,-46.38671875,1.0,1.0,1.0,0.0,5.m4v,8.0
2024-02-28 10:31:42.402345,1709112702.402345,-43.9453125,-38.0859375,-28.3203125,-48.828125,1.0,1.0,1.0,0.0,5.m4v,8.0
2024-02-28 10:31:42.406251,1709112702.4062507,-67.87109375,-48.828125,-42.48046875,-56.15234375,1.0,1.0,1.0,0.0,5.m4v,8.0
2024-02-28 10:31:42.410156,1709112702.4101565,-70.80078125,-48.33984375,-57.12890625,-97.65625,1.0,1.0,1.0,0.0,5.m4v,8.0
2024-02-28 10:31:42.414062,1709112702.414062,-54.6875,-35.64453125,-59.08203125,-45.41015625,1.0,1.0,1.0,0.0,5.m4v,8.0
2024-02-28 10:31:42.417968,1709112702.4179678,-46.38671875,-50.29296875,-31.73828125,-21.97265625,1.0,1.0,1.0,0.0,5.m4v,8.0
2024-02-28 10:31:42.421874,1709112702.4218736,-37.109375,-53.7109375,-17.578125,-38.0859375,1.0,1.0,1.0,0.0,5.m4v,8.0
2024-02-28 10:31:42.425781,1709112702.4257815,-44.921875,-22.4609375,-45.41015625,-35.64453125,1.0,1.0,1.0,0.0,5.m4v,8.0
2024-02-28 10:31:42.429687,1709112702.4296873,-59.08203125,-12.6953125,-67.87109375,-44.43359375,1.0,1.0,1.0,0.0,5.m4v,8.0
2024-02-28 10:31:42.433593,1709112702.4335928,-83.49609375,-28.80859375,-33.203125,-79.58984375,1.0,1.0,1.0,0.0,5.m4v,8.0
2024-02-28 10:31:42.437499,1709112702.4374986,-83.984375,-40.52734375,-5.37109375,-94.23828125,1.0,1.0,1.0,0.0,5.m4v,8.0
2024-02-28 10:31:42.441404,1709112702.4414043,-60.546875,-43.45703125,2.9296875,-80.078125,1.0,1.0,1.0,0.0,5.m4v,8.0
2024-02-28 10:31:42.445310,1709112702.44531,-89.84375,-37.59765625,1.46484375,-77.1484375,1.0,1.0,1.0,0.0,5.m4v,8.0
2024-02-28 10:31:42.449216,1709112702.449216,-101.5625,-39.55078125,-34.66796875,-89.84375,1.0,1.0,1.0,0.0,5.m4v,8.0
2024-02-28 10:31:42.453122,1709112702.4531217,-78.61328125,-46.875,-43.9453125,-74.70703125,1.0,1.0,1.0,0.0,5.m4v,8.0
2024-02-28 10:31:42.457027,1709112702.4570274,-82.51953125,-42.48046875,-22.94921875,-52.24609375,1.0,1.0,1.0,0.0,5.m4v,8.0
2024-02-28 10:31:42.460933,1709112702.460933,-84.9609375,-36.62109375,-16.6015625,-65.4296875,1.0,1.0,1.0,0.0,5.m4v,8.0
2024-02-28 10:31:42.464839,1709112702.4648387,-58.10546875,-48.828125,-25.87890625,-67.3828125,1.0,1.0,1.0,0.0,5.m4v,8.0
2024-02-28 10:31:42.468745,1709112702.4687445,-58.10546875,-56.640625,-31.73828125,-58.10546875,1.0,1.0,1.0,0.0,5.m4v,8.0
2024-02-28 10:31:42.472652,1709112702.4726524,-76.66015625,-33.69140625,-34.1796875,-84.47265625,1.0,1.0,1.0,0.0,5.m4v,8.0
2024-02-28 10:31:42.476558,1709112702.476558,-82.03125,-26.85546875,-51.7578125,-63.4765625,1.0,1.0,1.0,0.0,5.m4v,8.0
2024-02-28 10:31:42.480464,1709112702.4804635,-77.1484375,-36.62109375,-58.59375,-20.99609375,1.0,1.0,1.0,0.0,5.m4v,8.0
2024-02-28 10:31:42.484370,1709112702.4843695,-69.3359375,-40.0390625,-25.87890625,-51.26953125,1.0,1.0,1.0,0.0,5.m4v,8.0
2024-02-28 10:31:42.488275,1709112702.4882753,-65.4296875,-39.55078125,0.48828125,-47.8515625,1.0,1.0,1.0,0.0,5.m4v,8.0
2024-02-28 10:31:42.492181,1709112702.492181,-48.33984375,-31.73828125,-4.39453125,-21.484375,1.0,1.0,1.0,0.0,5.m4v,8.0
2024-02-28 10:31:42.496087,1709112702.4960868,-68.84765625,-30.76171875,-29.78515625,-42.48046875,1.0,1.0,1.0,0.0,5.m4v,8.0
2024-02-28 10:31:42.499993,1709112702.4999926,-74.21875,-31.73828125,-45.41015625,-74.70703125,1.0,1.0,1.0,0.0,5.m4v,8.0
2024-02-28 10:31:42.503898,1709112702.5038984,-65.91796875,-23.92578125,-34.66796875,-71.2890625,1.0,1.0,1.0,0.0,5.m4v,8.0
2024-02-28 10:31:42.507804,1709112702.507804,-57.12890625,-25.87890625,-29.296875,-59.5703125,1.0,1.0,1.0,0.0,5.m4v,8.0
2024-02-28 10:31:42.511710,1709112702.5117097,-47.36328125,-34.66796875,-59.5703125,-61.03515625,1.0,1.0,1.0,0.0,5.m4v,8.0
2024-02-28 10:31:42.515615,1709112702.5156157,-66.40625,-39.55078125,-62.01171875,-70.3125,1.0,1.0,1.0,0.0,5.m4v,8.0
2024-02-28 10:31:42.523430,1709112702.52343,-55.17578125,-43.45703125,-12.6953125,-43.9453125,1.0,1.0,1.0,0.0,5.m4v,8.0
2024-02-28 10:31:42.531242,1709112702.5312417,-41.50390625,-45.8984375,-19.53125,-21.484375,1.0,1.0,1.0,0.0,5.m4v,8.0
2024-02-28 10:31:42.539053,1709112702.539053,-40.0390625,-19.53125,-67.3828125,-43.9453125,1.0,1.0,1.0,0.0,5.m4v,8.0
2024-02-28 10:31:42.546865,1709112702.5468645,-30.2734375,-23.4375,-22.4609375,-38.0859375,1.0,1.0,1.0,0.0,5.m4v,8.0
2024-02-28 10:31:42.769505,1709112702.769505,-60.546875,-44.921875,-31.25,-82.03125,1.0,1.0,1.0,0.0,5.m4v,8.0
2024-02-28 10:31:42.773411,1709112702.7734108,-82.51953125,-40.0390625,-12.6953125,-54.19921875,1.0,1.0,1.0,0.0,5.m4v,8.0
2024-02-28 10:31:42.777317,1709112702.7773166,-71.2890625,-38.0859375,-19.04296875,-69.3359375,1.0,1.0,1.0,0.0,5.m4v,8.0
2024-02-28 10:31:42.781222,1709112702.7812223,-50.29296875,-41.015625,-27.83203125,-65.4296875,1.0,1.0,1.0,0.0,5.m4v,8.0
2024-02-28 10:31:42.785128,1709112702.785128,-69.82421875,-46.875,-50.78125,-52.734375,1.0,1.0,1.0,0.0,5.m4v,8.0
2024-02-28 10:31:42.789034,1709112702.789034,-75.1953125,-38.0859375,-55.17578125,-57.12890625,1.0,1.0,1.0,0.0,5.m4v,8.0
2024-02-28 10:31:42.792939,1709112702.7929394,-49.31640625,-28.80859375,-40.0390625,-73.2421875,1.0,1.0,1.0,0.0,5.m4v,8.0
2024-02-28 10:31:42.796845,1709112702.7968452,-54.19921875,-38.57421875,-32.71484375,-42.48046875,1.0,1.0,1.0,0.0,5.m4v,8.0
2024-02-28 10:31:42.800753,1709112702.800753,-67.87109375,-33.203125,-23.4375,-37.109375,1.0,1.0,1.0,0.0,5.m4v,8.0
2024-02-28 10:31:42.804659,1709112702.804659,-73.73046875,-20.99609375,-16.11328125,-67.87109375,1.0,1.0,1.0,0.0,5.m4v,8.0
2024-02-28 10:31:42.808565,1709112702.808565,-63.96484375,-26.3671875,-18.5546875,-39.0625,1.0,1.0,1.0,0.0,5.m4v,8.0
2024-02-28 10:31:42.812470,1709112702.8124704,-30.76171875,-33.69140625,-40.0390625,-66.89453125,1.0,1.0,1.0,0.0,5.m4v,8.0
2024-02-28 10:31:42.816376,1709112702.816376,-39.0625,-30.2734375,-53.7109375,-86.9140625,1.0,1.0,1.0,0.0,5.m4v,8.0
2024-02-28 10:31:42.820282,1709112702.8202815,-56.15234375,-31.73828125,-44.921875,-63.96484375,1.0,1.0,1.0,0.0,5.m4v,8.0
2024-02-28 10:31:42.824188,1709112702.8241875,-63.4765625,-33.203125,-35.64453125,-46.875,1.0,1.0,1.0,0.0,5.m4v,8.0
2024-02-28 10:31:42.828093,1709112702.8280933,-97.16796875,-30.2734375,-25.390625,-56.15234375,1.0,1.0,1.0,0.0,5.m4v,8.0
2024-02-28 10:31:42.831999,1709112702.831999,-105.46875,-28.80859375,-20.5078125,-92.28515625,1.0,1.0,1.0,0.0,5.m4v,8.0
2024-02-28 10:31:42.835905,1709112702.8359048,-82.03125,-36.1328125,-24.90234375,-79.58984375,1.0,1.0,1.0,0.0,5.m4v,8.0
2024-02-28 10:31:42.839811,1709112702.8398106,-73.73046875,-48.33984375,-22.94921875,-41.50390625,1.0,1.0,1.0,0.0,5.m4v,8.0
2024-02-28 10:31:42.843716,1709112702.8437164,-73.2421875,-41.9921875,-28.3203125,-53.22265625,1.0,1.0,1.0,0.0,5.m4v,8.0
2024-02-28 10:31:42.847624,1709112702.8476238,-63.96484375,-28.80859375,-49.31640625,-45.41015625,1.0,1.0,1.0,0.0,5.m4v,8.0
2024-02-28 10:31:42.851530,1709112702.8515296,-88.8671875,-31.25,-55.6640625,-46.875,1.0,1.0,1.0,0.0,5.m4v,8.0
2024-02-28 10:31:42.855435,1709112702.8554354,-113.28125,-43.9453125,-30.2734375,-136.23046875,1.0,1.0,1.0,0.0,5.m4v,8.0
2024-02-28 10:31:42.859341,1709112702.8593411,-108.3984375,-48.828125,-19.53125,-134.765625,1.0,1.0,1.0,0.0,5.m4v,8.0
2024-02-28 10:31:42.863247,1709112702.863247,-127.9296875,-38.0859375,-38.0859375,-95.703125,1.0,1.0,1.0,0.0,5.m4v,8.0
2024-02-28 10:31:42.867152,1709112702.8671525,-138.671875,-44.43359375,-56.640625,-111.328125,1.0,1.0,1.0,0.0,5.m4v,8.0
2024-02-28 10:31:42.871058,1709112702.8710582,-129.39453125,-52.24609375,-48.33984375,-132.32421875,1.0,1.0,1.0,0.0,5.m4v,8.0
2024-02-28 10:31:42.874964,1709112702.874964,-125.48828125,-27.83203125,-16.6015625,-133.30078125,1.0,1.0,1.0,0.0,5.m4v,8.0
2024-02-28 10:31:42.878870,1709112702.8788698,-121.09375,-14.16015625,-11.23046875,-109.86328125,1.0,1.0,1.0,0.0,5.m4v,8.0
2024-02-28 10:31:42.882776,1709112702.8827755,-113.76953125,-24.90234375,-25.390625,-83.49609375,1.0,1.0,1.0,0.0,5.m4v,8.0
2024-02-28 10:31:42.886681,1709112702.8866813,-98.14453125,-33.203125,-21.484375,-50.29296875,1.0,1.0,1.0,0.0,5.m4v,8.0
2024-02-28 10:31:42.890587,1709112702.890587,-51.7578125,-30.76171875,-17.08984375,-63.96484375,1.0,1.0,1.0,0.0,5.m4v,8.0
2024-02-28 10:31:42.894495,1709112702.8944943,-34.66796875,-26.85546875,-30.2734375,-86.42578125,1.0,1.0,1.0,0.0,5.m4v,8.0
2024-02-28 10:31:42.898400,1709112702.8984003,-49.8046875,-39.55078125,-59.08203125,-19.04296875,1.0,1.0,1.0,0.0,5.m4v,8.0
2024-02-28 10:31:42.902306,1709112702.902306,-38.57421875,-51.26953125,-51.7578125,-49.8046875,1.0,1.0,1.0,0.0,5.m4v,8.0
2024-02-28 10:31:42.906212,1709112702.906212,-39.55078125,-41.50390625,-27.83203125,-103.02734375,1.0,1.0,1.0,0.0,5.m4v,8.0
2024-02-28 10:31:42.910118,1709112702.9101176,-20.01953125,-24.90234375,-36.1328125,2.44140625,1.0,1.0,1.0,0.0,5.m4v,8.0
2024-02-28 10:31:42.914023,1709112702.9140234,-14.16015625,-22.4609375,-42.96875,7.8125,1.0,1.0,1.0,0.0,5.m4v,8.0
2024-02-28 10:31:42.917929,1709112702.9179292,-42.48046875,-33.203125,-30.2734375,-71.2890625,1.0,1.0,1.0,0.0,5.m4v,8.0
2024-02-28 10:31:42.921835,1709112702.9218347,-30.2734375,-39.55078125,-25.87890625,-30.76171875,1.0,1.0,1.0,0.0,5.m4v,8.0
2024-02-28 10:31:42.925740,1709112702.9257405,5.859375,-36.1328125,-20.01953125,-23.4375,1.0,1.0,1.0,0.0,5.m4v,8.0
2024-02-28 10:31:42.929646,1709112702.9296465,-6.34765625,-40.52734375,-13.671875,-28.3203125,1.0,1.0,1.0,0.0,5.m4v,8.0
2024-02-28 10:31:43.089792,1709112703.0897925,-16.11328125,-32.71484375,-28.3203125,-2.44140625,1.0,1.0,1.0,0.0,5.m4v,8.0
2024-02-28 10:31:43.089792,1709112703.0897925,-16.11328125,-32.71484375,-28.3203125,-2.44140625,1.0,1.0,1.0,0.0,5.m4v,8.0
2024-02-28 10:31:43.093698,1709112703.0936985,-21.484375,-12.6953125,-29.78515625,-33.203125,1.0,1.0,1.0,0.0,5.m4v,8.0
2024-02-28 10:31:43.093698,1709112703.0936985,-21.484375,-12.6953125,-29.78515625,-33.203125,1.0,1.0,1.0,0.0,5.m4v,8.0
2024-02-28 10:31:43.097604,1709112703.097604,-10.7421875,-33.203125,-6.34765625,-39.0625,1.0,1.0,1.0,0.0,5.m4v,8.0
2024-02-28 10:31:43.097604,1709112703.097604,-10.7421875,-33.203125,-6.34765625,-39.0625,1.0,1.0,1.0,0.0,5.m4v,8.0
2024-02-28 10:31:43.101510,1709112703.1015096,-30.76171875,-54.19921875,-17.08984375,-46.38671875,1.0,1.0,1.0,0.0,5.m4v,8.0
2024-02-28 10:31:43.101510,1709112703.1015096,-30.76171875,-54.19921875,-17.08984375,-46.38671875,1.0,1.0,1.0,0.0,5.m4v,8.0
2024-02-28 10:31:43.105415,1709112703.105415,-39.0625,-32.71484375,-43.45703125,-23.4375,1.0,1.0,1.0,0.0,5.m4v,8.0
2024-02-28 10:31:43.105415,1709112703.105415,-39.0625,-32.71484375,-43.45703125,-23.4375,1.0,1.0,1.0,0.0,5.m4v,8.0
2024-02-28 10:31:43.109321,1709112703.109321,-28.80859375,-20.99609375,-18.06640625,0.0,1.0,1.0,1.0,0.0,5.m4v,8.0
2024-02-28 10:31:43.109321,1709112703.109321,-28.80859375,-20.99609375,-18.06640625,0.0,1.0,1.0,1.0,0.0,5.m4v,8.0
2024-02-28 10:31:43.113227,1709112703.113227,-27.83203125,-23.4375,-3.90625,-43.9453125,1.0,1.0,1.0,0.0,5.m4v,8.0
2024-02-28 10:31:43.113227,1709112703.113227,-27.83203125,-23.4375,-3.90625,-43.9453125,1.0,1.0,1.0,0.0,5.m4v,8.0
2024-02-28 10:31:43.117133,1709112703.117133,-35.15625,-24.90234375,-14.16015625,-15.625,1.0,1.0,1.0,0.0,5.m4v,8.0
2024-02-28 10:31:43.117133,1709112703.117133,-35.15625,-24.90234375,-14.16015625,-15.625,1.0,1.0,1.0,0.0,5.m4v,8.0
2024-02-28 10:31:43.121038,1709112703.1210384,-49.8046875,-35.15625,-29.296875,-20.5078125,1.0,1.0,1.0,0.0,5.m4v,8.0
2024-02-28 10:31:43.121038,1709112703.1210384,-49.8046875,-35.15625,-29.296875,-20.5078125,1.0,1.0,1.0,0.0,5.m4v,8.0
2024-02-28 10:31:43.124944,1709112703.1249442,-36.1328125,-35.15625,-35.64453125,-83.49609375,1.0,1.0,1.0,0.0,5.m4v,8.0
2024-02-28 10:31:43.124944,1709112703.1249442,-36.1328125,-35.15625,-35.64453125,-83.49609375,1.0,1.0,1.0,0.0,5.m4v,8.0
2024-02-28 10:31:43.136664,1709112703.1366637,-51.7578125,-34.1796875,-67.3828125,-19.04296875,1.0,1.0,1.0,0.0,5.m4v,8.0
2024-02-28 10:31:43.140569,1709112703.1405694,-34.66796875,-31.25,-73.73046875,-7.32421875,1.0,1.0,1.0,0.0,5.m4v,8.0
2024-02-28 10:31:43.144475,1709112703.1444752,-33.203125,-34.66796875,-29.78515625,-44.921875,1.0,1.0,1.0,0.0,5.m4v,8.0
2024-02-28 10:31:43.148381,1709112703.148381,-31.25,-27.83203125,-29.296875,-44.43359375,1.0,1.0,1.0,0.0,5.m4v,8.0
2024-02-28 10:31:43.152287,1709112703.1522868,-59.08203125,-37.109375,-49.31640625,-77.63671875,1.0,1.0,1.0,0.0,5.m4v,8.0
2024-02-28 10:31:43.156192,1709112703.1561923,-81.0546875,-46.875,-24.90234375,-93.26171875,1.0,1.0,1.0,0.0,5.m4v,8.0
2024-02-28 10:31:43.160098,1709112703.160098,-77.63671875,-37.59765625,-6.34765625,-88.8671875,1.0,1.0,1.0,0.0,5.m4v,8.0
2024-02-28 10:31:43.164004,1709112703.1640038,-66.40625,-32.2265625,-24.4140625,-54.19921875,1.0,1.0,1.0,0.0,5.m4v,8.0
2024-02-28 10:31:43.167910,1709112703.1679096,-46.875,-27.34375,-23.92578125,-31.25,1.0,1.0,1.0,0.0,5.m4v,8.0
2024-02-28 10:31:43.171815,1709112703.1718154,-40.52734375,-31.73828125,-29.78515625,-47.8515625,1.0,1.0,1.0,0.0,5.m4v,8.0
2024-02-28 10:31:43.175723,1709112703.175723,-56.15234375,-44.43359375,-55.17578125,-61.03515625,1.0,1.0,1.0,0.0,5.m4v,8.0
2024-02-28 10:31:43.179629,1709112703.1796288,-85.9375,-49.31640625,-34.1796875,-76.66015625,1.0,1.0,1.0,0.0,5.m4v,8.0
2024-02-28 10:31:43.183535,1709112703.1835346,-87.40234375,-47.36328125,-7.32421875,-94.23828125,1.0,1.0,1.0,0.0,5.m4v,8.0
2024-02-28 10:31:43.187440,1709112703.1874404,-79.58984375,-39.55078125,-8.7890625,-83.984375,1.0,1.0,1.0,0.0,5.m4v,8.0
2024-02-28 10:31:43.191346,1709112703.1913462,-88.8671875,-20.5078125,-24.4140625,-91.796875,1.0,1.0,1.0,0.0,5.m4v,8.0
2024-02-28 10:31:43.195252,1709112703.1952517,-90.8203125,-18.06640625,-44.921875,-79.58984375,1.0,1.0,1.0,0.0,5.m4v,8.0
2024-02-28 10:31:43.199157,1709112703.1991577,-79.58984375,-34.66796875,-47.36328125,-13.18359375,1.0,1.0,1.0,0.0,5.m4v,8.0
2024-02-28 10:31:43.203063,1709112703.2030632,-67.3828125,-25.87890625,-61.5234375,-47.36328125,1.0,1.0,1.0,0.0,5.m4v,8.0
2024-02-28 10:31:43.206969,1709112703.206969,-71.2890625,-29.296875,-50.29296875,-120.1171875,1.0,1.0,1.0,0.0,5.m4v,8.0
2024-02-28 10:31:43.210875,1709112703.2108748,-74.21875,-41.9921875,-17.578125,-125.9765625,1.0,1.0,1.0,0.0,5.m4v,8.0
2024-02-28 10:31:43.214781,1709112703.2147806,-86.9140625,-31.25,-6.34765625,-105.95703125,1.0,1.0,1.0,0.0,5.m4v,8.0
2024-02-28 10:31:43.218686,1709112703.2186863,-86.42578125,-35.15625,-12.20703125,-95.21484375,1.0,1.0,1.0,0.0,5.m4v,8.0
2024-02-28 10:31:43.222594,1709112703.222594,-71.77734375,-43.45703125,-33.69140625,-85.9375,1.0,1.0,1.0,0.0,5.m4v,8.0
2024-02-28 10:31:43.226500,1709112703.2264996,-88.8671875,-39.0625,-52.24609375,-38.0859375,1.0,1.0,1.0,0.0,5.m4v,8.0
2024-02-28 10:31:43.230405,1709112703.230405,-93.75,-37.109375,-46.875,-15.13671875,1.0,1.0,1.0,0.0,5.m4v,8.0
2024-02-28 10:31:43.234311,1709112703.234311,-69.3359375,-41.50390625,-41.50390625,-68.359375,1.0,1.0,1.0,0.0,5.m4v,8.0
2024-02-28 10:31:43.238217,1709112703.2382169,-76.66015625,-32.2265625,-45.8984375,-101.5625,1.0,1.0,1.0,0.0,5.m4v,8.0
2024-02-28 10:31:43.242123,1709112703.242123,-93.75,-22.4609375,-37.59765625,-126.46484375,1.0,1.0,1.0,0.0,5.m4v,8.0
2024-02-28 10:31:43.246028,1709112703.2460284,-80.56640625,-32.71484375,-42.48046875,-118.65234375,1.0,1.0,1.0,0.0,5.m4v,8.0
2024-02-28 10:31:43.249934,1709112703.2499342,-61.03515625,-43.45703125,-32.2265625,-64.94140625,1.0,1.0,1.0,0.0,5.m4v,8.0
2024-02-28 10:31:43.253840,1709112703.2538395,-58.59375,-48.33984375,-17.578125,-53.7109375,1.0,1.0,1.0,0.0,5.m4v,8.0
2024-02-28 10:31:43.257746,1709112703.2577455,-46.38671875,-37.59765625,-20.5078125,-15.625,1.0,1.0,1.0,0.0,5.m4v,8.0
2024-02-28 10:31:43.261651,1709112703.2616513,-47.8515625,-27.83203125,-37.109375,20.01953125,1.0,1.0,1.0,0.0,5.m4v,8.0
2024-02-28 10:31:43.265557,1709112703.265557,-39.0625,-30.2734375,-60.05859375,-31.25,1.0,1.0,1.0,0.0,5.m4v,8.0
2024-02-28 10:31:43.269464,1709112703.2694645,-36.1328125,-26.85546875,-71.2890625,-54.19921875,1.0,1.0,1.0,0.0,5.m4v,8.0
2024-02-28 10:31:43.273370,1709112703.2733705,-39.0625,-30.76171875,-40.0390625,-34.1796875,1.0,1.0,1.0,0.0,5.m4v,8.0
2024-02-28 10:31:43.277276,1709112703.277276,-44.43359375,-26.85546875,-2.44140625,-75.68359375,1.0,1.0,1.0,0.0,5.m4v,8.0
2024-02-28 10:31:43.281182,1709112703.2811818,-57.12890625,-20.01953125,-0.9765625,-95.703125,1.0,1.0,1.0,0.0,5.m4v,8.0
2024-02-28 10:31:43.285087,1709112703.285087,-40.52734375,-22.4609375,-18.5546875,-66.40625,1.0,1.0,1.0,0.0,5.m4v,8.0
2024-02-28 10:31:43.288993,1709112703.2889931,-21.97265625,-29.296875,-44.921875,-35.15625,1.0,1.0,1.0,0.0,5.m4v,8.0
2024-02-28 10:31:43.292899,1709112703.292899,-16.6015625,-41.50390625,-40.52734375,-9.27734375,1.0,1.0,1.0,0.0,5.m4v,8.0
2024-02-28 10:31:43.296805,1709112703.296805,-8.30078125,-41.9921875,-26.3671875,-3.41796875,1.0,1.0,1.0,0.0,5.m4v,8.0
2024-02-28 10:31:43.300710,1709112703.3007104,-14.6484375,-22.4609375,-22.94921875,4.39453125,1.0,1.0,1.0,0.0,5.m4v,8.0
2024-02-28 10:31:43.304616,1709112703.3046162,-33.69140625,-23.92578125,-46.875,-55.17578125,1.0,1.0,1.0,0.0,5.m4v,8.0
2024-02-28 10:31:43.308522,1709112703.308522,-45.8984375,-39.0625,-72.75390625,-63.96484375,1.0,1.0,1.0,0.0,5.m4v,8.0
2024-02-28 10:31:43.312428,1709112703.3124278,-48.33984375,-43.45703125,-39.55078125,-48.828125,1.0,1.0,1.0,0.0,5.m4v,8.0
2024-02-28 10:31:43.316336,1709112703.3163364,-36.62109375,-36.1328125,-13.671875,-59.5703125,1.0,1.0,1.0,0.0,5.m4v,8.0
2024-02-28 10:31:43.320242,1709112703.3202422,-31.73828125,-22.4609375,-24.90234375,-68.359375,1.0,1.0,1.0,0.0,5.m4v,8.0
2024-02-28 10:31:43.328053,1709112703.3280537,-5.37109375,-21.484375,-28.80859375,16.6015625,1.0,1.0,1.0,0.0,5.m4v,8.0
2024-02-28 10:31:43.335865,1709112703.335865,3.41796875,-29.296875,-23.4375,-22.4609375,1.0,1.0,1.0,0.0,5.m4v,8.0
2024-02-28 10:31:43.343677,1709112703.3436766,-16.6015625,-20.99609375,-41.015625,83.49609375,1.0,1.0,1.0,0.0,5.m4v,8.0
2024-02-28 10:31:43.351488,1709112703.351488,-1.46484375,-34.1796875,-43.9453125,-55.6640625,1.0,1.0,1.0,0.0,5.m4v,8.0
2024-02-28 10:31:43.359299,1709112703.3592994,5.859375,-37.109375,-38.57421875,4.39453125,1.0,1.0,1.0,0.0,5.m4v,8.0
2024-02-28 10:31:43.367114,1709112703.3671138,-7.32421875,-25.87890625,-23.4375,18.5546875,1.0,1.0,1.0,0.0,5.m4v,8.0
2024-02-28 10:31:43.374925,1709112703.3749251,40.0390625,-16.6015625,-46.875,25.87890625,1.0,1.0,1.0,0.0,5.m4v,8.0
2024-02-28 10:31:43.378831,1709112703.378831,8.30078125,-21.97265625,-59.5703125,-27.34375,1.0,1.0,1.0,0.0,5.m4v,8.0
2024-02-28 10:31:43.382737,1709112703.3827367,-9.27734375,-22.94921875,-33.69140625,-33.203125,1.0,1.0,1.0,0.0,5.m4v,8.0
2024-02-28 10:31:43.386642,1709112703.3866425,-0.48828125,-27.83203125,-13.671875,-9.27734375,1.0,1.0,1.0,0.0,5.m4v,8.0
2024-02-28 10:31:43.390548,1709112703.3905482,-8.7890625,-20.99609375,-10.25390625,-10.25390625,1.0,1.0,1.0,0.0,5.m4v,8.0
2024-02-28 10:31:43.394454,1709112703.394454,12.20703125,-12.20703125,-4.8828125,-5.37109375,1.0,1.0,1.0,0.0,5.m4v,8.0
2024-02-28 10:31:43.398360,1709112703.3983598,3.90625,-25.87890625,-11.23046875,-20.01953125,1.0,1.0,1.0,0.0,5.m4v,8.0
2024-02-28 10:31:43.402265,1709112703.4022653,-0.9765625,-37.59765625,-21.484375,-17.578125,1.0,1.0,1.0,0.0,5.m4v,8.0
2024-02-28 10:31:43.406171,1709112703.406171,26.3671875,-45.41015625,-37.59765625,19.04296875,1.0,1.0,1.0,0.0,5.m4v,8.0
2024-02-28 10:31:43.410079,1709112703.4100797,17.08984375,-48.33984375,-37.59765625,39.0625,1.0,1.0,1.0,0.0,5.m4v,8.0
2024-02-28 10:31:43.413985,1709112703.4139853,5.859375,-33.69140625,-32.71484375,24.4140625,1.0,1.0,1.0,0.0,5.m4v,8.0
2024-02-28 10:31:43.417891,1709112703.417891,25.87890625,-20.5078125,-62.5,31.73828125,1.0,1.0,1.0,0.0,5.m4v,8.0
2024-02-28 10:31:43.421797,1709112703.4217968,12.6953125,-10.25390625,-67.3828125,44.43359375,1.0,1.0,1.0,0.0,5.m4v,8.0
2024-02-28 10:31:43.425702,1709112703.4257023,-7.8125,-1.953125,-37.109375,7.8125,1.0,1.0,1.0,0.0,5.m4v,8.0
2024-02-28 10:31:43.429608,1709112703.429608,1.953125,-13.18359375,-33.69140625,-13.671875,1.0,1.0,1.0,0.0,5.m4v,8.0
2024-02-28 10:31:43.757708,1709112703.757708,-20.01953125,-32.71484375,-37.109375,-53.7109375,1.0,1.0,1.0,0.0,5.m4v,8.0
2024-02-28 10:31:43.765519,1709112703.7655194,-23.92578125,-36.1328125,-30.2734375,-41.50390625,1.0,1.0,1.0,0.0,5.m4v,8.0
2024-02-28 10:31:43.773331,1709112703.773331,-23.92578125,-10.25390625,-22.4609375,3.90625,1.0,1.0,1.0,0.0,5.m4v,8.0
2024-02-28 10:31:43.781142,1709112703.7811425,-26.3671875,-26.85546875,-51.26953125,-34.66796875,1.0,1.0,1.0,0.0,5.m4v,8.0
2024-02-28 10:31:43.788956,1709112703.7889564,-15.13671875,-40.52734375,-37.109375,-64.453125,1.0,1.0,1.0,0.0,5.m4v,8.0
2024-02-28 10:31:43.796768,1709112703.796768,-13.671875,-18.06640625,-28.3203125,3.41796875,1.0,1.0,1.0,0.0,5.m4v,8.0
2024-02-28 10:31:43.804579,1709112703.8045795,-29.296875,-29.296875,-61.03515625,-38.0859375,1.0,1.0,1.0,0.0,5.m4v,8.0
2024-02-28 10:31:43.812391,1709112703.812391,-38.0859375,-34.66796875,-13.671875,-28.80859375,1.0,1.0,1.0,0.0,5.m4v,8.0
2024-02-28 10:31:43.820202,1709112703.8202024,-20.01953125,-25.390625,-69.82421875,-23.4375,1.0,1.0,1.0,0.0,5.m4v,8.0
2024-02-28 10:31:43.828014,1709112703.828014,-53.22265625,-41.015625,-7.8125,-33.69140625,1.0,1.0,1.0,0.0,5.m4v,8.0
2024-02-28 10:31:43.835828,1709112703.8358278,-38.57421875,-38.0859375,-10.25390625,-54.6875,1.0,1.0,1.0,0.0,5.m4v,8.0
2024-02-28 10:31:43.843639,1709112703.8436394,-63.4765625,-36.1328125,-14.6484375,-27.83203125,1.0,1.0,1.0,0.0,5.m4v,8.0
2024-02-28 10:31:43.847545,1709112703.847545,-53.7109375,-39.0625,-10.7421875,-37.59765625,1.0,1.0,1.0,0.0,5.m4v,8.0
2024-02-28 10:31:43.855356,1709112703.8553565,-44.43359375,-29.296875,-30.76171875,-58.10546875,1.0,1.0,1.0,0.0,5.m4v,8.0
2024-02-28 10:31:43.859262,1709112703.8592622,-41.9921875,-28.80859375,-29.296875,-23.4375,1.0,1.0,1.0,0.0,5.m4v,8.0
2024-02-28 10:31:43.867074,1709112703.8670738,-37.59765625,-20.01953125,-43.45703125,-44.43359375,1.0,1.0,1.0,0.0,5.m4v,8.0
2024-02-28 10:31:43.870980,1709112703.8709795,-4.39453125,-16.11328125,-66.40625,-23.4375,1.0,1.0,1.0,0.0,5.m4v,8.0
2024-02-28 10:31:43.878793,1709112703.8787932,-38.57421875,-35.15625,-37.109375,-20.01953125,1.0,1.0,1.0,0.0,5.m4v,8.0
2024-02-28 10:31:43.882699,1709112703.882699,-38.57421875,-48.33984375,-12.6953125,-18.5546875,1.0,1.0,1.0,0.0,5.m4v,8.0
2024-02-28 10:31:43.890510,1709112703.8905103,-34.66796875,-24.4140625,0.9765625,-47.8515625,1.0,1.0,1.0,0.0,5.m4v,8.0
2024-02-28 10:31:43.894416,1709112703.894416,-29.78515625,-29.296875,-3.41796875,-40.0390625,1.0,1.0,1.0,0.0,5.m4v,8.0
2024-02-28 10:31:43.902228,1709112703.9022276,-29.296875,-19.04296875,-35.64453125,-41.50390625,1.0,1.0,1.0,0.0,5.m4v,8.0
2024-02-28 10:31:43.906133,1709112703.9061334,-39.55078125,-34.1796875,-47.36328125,-38.0859375,1.0,1.0,1.0,0.0,5.m4v,8.0
2024-02-28 10:31:43.913945,1709112703.913945,-18.5546875,-19.04296875,-50.29296875,-40.0390625,1.0,1.0,1.0,0.0,5.m4v,8.0
2024-02-28 10:31:44.003781,1709112704.0037813,-40.52734375,-10.7421875,-28.3203125,-41.9921875,1.0,1.0,1.0,0.0,5.m4v,8.0
2024-02-28 10:31:44.007687,1709112704.007687,-24.4140625,-19.53125,-29.296875,-8.7890625,1.0,1.0,1.0,0.0,5.m4v,8.0
2024-02-28 10:31:44.011593,1709112704.0115929,-23.4375,-24.4140625,-7.8125,-18.5546875,1.0,1.0,1.0,0.0,5.m4v,8.0
2024-02-28 10:31:44.015499,1709112704.0154986,-66.89453125,-26.85546875,-18.5546875,-63.96484375,1.0,1.0,1.0,0.0,5.m4v,8.0
2024-02-28 10:31:44.019406,1709112704.019406,-78.125,-39.55078125,-28.80859375,-70.80078125,1.0,1.0,1.0,0.0,5.m4v,8.0
2024-02-28 10:31:44.023312,1709112704.0233116,-52.734375,-48.33984375,-31.25,-52.24609375,1.0,1.0,1.0,0.0,5.m4v,8.0
2024-02-28 10:31:44.027217,1709112704.0272174,-24.4140625,-46.875,-38.0859375,-24.90234375,1.0,1.0,1.0,0.0,5.m4v,8.0
2024-02-28 10:31:44.031123,1709112704.0311232,-28.80859375,-51.7578125,-50.78125,-35.15625,1.0,1.0,1.0,0.0,5.m4v,8.0
2024-02-28 10:31:44.035029,1709112704.035029,-32.71484375,-35.15625,-52.734375,-62.5,1.0,1.0,1.0,0.0,5.m4v,8.0
2024-02-28 10:31:44.038935,1709112704.0389347,-26.85546875,-23.92578125,-35.64453125,-32.2265625,1.0,1.0,1.0,0.0,5.m4v,8.0
2024-02-28 10:31:44.042840,1709112704.0428405,-52.734375,-35.15625,-20.5078125,-47.8515625,1.0,1.0,1.0,0.0,5.m4v,8.0
2024-02-28 10:31:44.046746,1709112704.0467465,-63.96484375,-38.0859375,-19.53125,-65.91796875,1.0,1.0,1.0,0.0,5.m4v,8.0
2024-02-28 10:31:44.050652,1709112704.050652,-47.36328125,-32.2265625,-41.015625,-41.9921875,1.0,1.0,1.0,0.0,5.m4v,8.0
2024-02-28 10:31:44.054558,1709112704.0545576,-38.0859375,-31.25,-64.94140625,-37.109375,1.0,1.0,1.0,0.0,5.m4v,8.0
2024-02-28 10:31:44.058463,1709112704.058463,-24.90234375,-19.53125,-51.7578125,-25.87890625,1.0,1.0,1.0,0.0,5.m4v,8.0
2024-02-28 10:31:44.132678,1709112704.1326785,-40.52734375,-24.90234375,-22.94921875,-61.5234375,1.0,1.0,1.0,0.0,5.m4v,8.0
2024-02-28 10:31:44.140490,1709112704.1404896,-52.24609375,-34.1796875,-67.3828125,-34.1796875,1.0,1.0,1.0,0.0,5.m4v,8.0
2024-02-28 10:31:44.148301,1709112704.1483011,-39.0625,-23.92578125,-41.9921875,31.25,1.0,1.0,1.0,0.0,5.m4v,8.0
2024-02-28 10:31:44.156113,1709112704.156113,-33.69140625,-20.99609375,-14.16015625,-105.46875,1.0,1.0,1.0,0.0,5.m4v,8.0
2024-02-28 10:31:44.163927,1709112704.1639266,-57.6171875,-20.01953125,-28.80859375,-24.90234375,1.0,1.0,1.0,0.0,5.m4v,8.0
2024-02-28 10:31:44.171738,1709112704.171738,-26.3671875,-36.62109375,-48.828125,-54.19921875,1.0,1.0,1.0,0.0,5.m4v,8.0
2024-02-28 10:31:44.179550,1709112704.1795497,-20.99609375,-27.34375,-38.57421875,20.01953125,1.0,1.0,1.0,0.0,5.m4v,8.0
2024-02-28 10:31:44.187361,1709112704.1873612,-41.50390625,-38.0859375,-17.578125,-64.94140625,1.0,1.0,1.0,0.0,5.m4v,8.0
2024-02-28 10:31:44.187361,1709112704.1873612,-41.50390625,-38.0859375,-17.578125,-64.94140625,1.0,1.0,1.0,0.0,5.m4v,8.0
2024-02-28 10:31:44.187361,1709112704.1873612,-41.50390625,-38.0859375,-17.578125,-64.94140625,1.0,1.0,1.0,0.0,5.m4v,8.0
2024-02-28 10:31:44.195173,1709112704.1951723,-55.17578125,-19.53125,-11.71875,-60.546875,1.0,1.0,1.0,0.0,5.m4v,8.0
2024-02-28 10:31:44.195173,1709112704.1951723,-55.17578125,-19.53125,-11.71875,-60.546875,1.0,1.0,1.0,0.0,5.m4v,8.0
2024-02-28 10:31:44.195173,1709112704.1951723,-55.17578125,-19.53125,-11.71875,-60.546875,1.0,1.0,1.0,0.0,5.m4v,8.0
2024-02-28 10:31:44.202984,1709112704.202984,-39.0625,-19.04296875,-42.96875,10.25390625,1.0,1.0,1.0,0.0,5.m4v,8.0
2024-02-28 10:31:44.202984,1709112704.202984,-39.0625,-19.04296875,-42.96875,10.25390625,1.0,1.0,1.0,0.0,5.m4v,8.0
2024-02-28 10:31:44.202984,1709112704.202984,-39.0625,-19.04296875,-42.96875,10.25390625,1.0,1.0,1.0,0.0,5.m4v,8.0
2024-02-28 10:31:44.210798,1709112704.210798,-33.69140625,-30.2734375,-42.48046875,-88.8671875,1.0,1.0,1.0,0.0,5.m4v,8.0
2024-02-28 10:31:44.210798,1709112704.210798,-33.69140625,-30.2734375,-42.48046875,-88.8671875,1.0,1.0,1.0,0.0,5.m4v,8.0
2024-02-28 10:31:44.210798,1709112704.210798,-33.69140625,-30.2734375,-42.48046875,-88.8671875,1.0,1.0,1.0,0.0,5.m4v,8.0
2024-02-28 10:31:44.214704,1709112704.2147038,-23.92578125,-25.390625,-26.3671875,-70.80078125,1.0,1.0,1.0,0.0,5.m4v,8.0
2024-02-28 10:31:44.214704,1709112704.2147038,-23.92578125,-25.390625,-26.3671875,-70.80078125,1.0,1.0,1.0,0.0,5.m4v,8.0
2024-02-28 10:31:44.214704,1709112704.2147038,-23.92578125,-25.390625,-26.3671875,-70.80078125,1.0,1.0,1.0,0.0,5.m4v,8.0
2024-02-28 10:31:44.218610,1709112704.2186096,-53.7109375,-34.66796875,-35.15625,-22.94921875,1.0,1.0,1.0,0.0,5.m4v,8.0
2024-02-28 10:31:44.218610,1709112704.2186096,-53.7109375,-34.66796875,-35.15625,-22.94921875,1.0,1.0,1.0,0.0,5.m4v,8.0
2024-02-28 10:31:44.218610,1709112704.2186096,-53.7109375,-34.66796875,-35.15625,-22.94921875,1.0,1.0,1.0,0.0,5.m4v,8.0
2024-02-28 10:31:44.222515,1709112704.222515,-20.01953125,-45.8984375,-69.3359375,-45.41015625,1.0,1.0,1.0,0.0,5.m4v,8.0
2024-02-28 10:31:44.222515,1709112704.222515,-20.01953125,-45.8984375,-69.3359375,-45.41015625,1.0,1.0,1.0,0.0,5.m4v,8.0
2024-02-28 10:31:44.222515,1709112704.222515,-20.01953125,-45.8984375,-69.3359375,-45.41015625,1.0,1.0,1.0,0.0,5.m4v,8.0
2024-02-28 10:31:44.226421,1709112704.226421,6.34765625,-57.6171875,-66.89453125,-22.94921875,1.0,1.0,1.0,0.0,5.m4v,8.0
2024-02-28 10:31:44.226421,1709112704.226421,6.34765625,-57.6171875,-66.89453125,-22.94921875,1.0,1.0,1.0,0.0,5.m4v,8.0
2024-02-28 10:31:44.226421,1709112704.226421,6.34765625,-57.6171875,-66.89453125,-22.94921875,1.0,1.0,1.0,0.0,5.m4v,8.0
2024-02-28 10:31:44.230327,1709112704.230327,-37.109375,-49.8046875,-38.57421875,-30.76171875,1.0,1.0,1.0,0.0,5.m4v,8.0
2024-02-28 10:31:44.230327,1709112704.230327,-37.109375,-49.8046875,-38.57421875,-30.76171875,1.0,1.0,1.0,0.0,5.m4v,8.0
2024-02-28 10:31:44.230327,1709112704.230327,-37.109375,-49.8046875,-38.57421875,-30.76171875,1.0,1.0,1.0,0.0,5.m4v,8.0
2024-02-28 10:31:44.234232,1709112704.2342324,-52.24609375,-21.484375,-46.38671875,-31.73828125,1.0,1.0,1.0,0.0,5.m4v,8.0
2024-02-28 10:31:44.234232,1709112704.2342324,-52.24609375,-21.484375,-46.38671875,-31.73828125,1.0,1.0,1.0,0.0,5.m4v,8.0
2024-02-28 10:31:44.234232,1709112704.2342324,-52.24609375,-21.484375,-46.38671875,-31.73828125,1.0,1.0,1.0,0.0,5.m4v,8.0
2024-02-28 10:31:44.238138,1709112704.2381382,-52.734375,-7.8125,-60.05859375,-9.27734375,1.0,1.0,1.0,0.0,5.m4v,8.0
2024-02-28 10:31:44.238138,1709112704.2381382,-52.734375,-7.8125,-60.05859375,-9.27734375,1.0,1.0,1.0,0.0,5.m4v,8.0
2024-02-28 10:31:44.238138,1709112704.2381382,-52.734375,-7.8125,-60.05859375,-9.27734375,1.0,1.0,1.0,0.0,5.m4v,8.0
2024-02-28 10:31:44.242044,1709112704.242044,-44.921875,-7.8125,-37.59765625,-43.45703125,1.0,1.0,1.0,0.0,5.m4v,8.0
2024-02-28 10:31:44.242044,1709112704.242044,-44.921875,-7.8125,-37.59765625,-43.45703125,1.0,1.0,1.0,0.0,5.m4v,8.0
2024-02-28 10:31:44.242044,1709112704.242044,-44.921875,-7.8125,-37.59765625,-43.45703125,1.0,1.0,1.0,0.0,5.m4v,8.0
2024-02-28 10:31:44.245950,1709112704.2459495,-44.43359375,-21.484375,-7.32421875,-68.359375,1.0,1.0,1.0,0.0,5.m4v,8.0
2024-02-28 10:31:44.245950,1709112704.2459495,-44.43359375,-21.484375,-7.32421875,-68.359375,1.0,1.0,1.0,0.0,5.m4v,8.0
2024-02-28 10:31:44.245950,1709112704.2459495,-44.43359375,-21.484375,-7.32421875,-68.359375,1.0,1.0,1.0,0.0,5.m4v,8.0
2024-02-28 10:31:44.249856,1709112704.2498555,-39.55078125,-37.59765625,-10.25390625,-89.84375,1.0,1.0,1.0,0.0,5.m4v,8.0
2024-02-28 10:31:44.253763,1709112704.2537634,-41.9921875,-37.59765625,-16.6015625,-57.12890625,1.0,1.0,1.0,0.0,5.m4v,8.0
2024-02-28 10:31:44.257669,1709112704.2576692,-42.96875,-31.73828125,-9.27734375,-34.66796875,1.0,1.0,1.0,0.0,5.m4v,8.0
2024-02-28 10:31:44.261575,1709112704.261575,-28.3203125,-34.66796875,-32.2265625,-23.92578125,1.0,1.0,1.0,0.0,5.m4v,8.0
2024-02-28 10:31:44.265481,1709112704.2654808,-24.4140625,-24.90234375,-48.828125,-7.8125,1.0,1.0,1.0,0.0,5.m4v,8.0
2024-02-28 10:31:44.269387,1709112704.2693863,-24.90234375,-5.859375,-46.38671875,-11.71875,1.0,1.0,1.0,0.0,5.m4v,8.0
2024-02-28 10:31:44.273292,1709112704.2732923,-4.39453125,-7.8125,-49.8046875,-19.04296875,1.0,1.0,1.0,0.0,5.m4v,8.0
2024-02-28 10:31:44.277198,1709112704.2771978,-28.3203125,-27.34375,-30.76171875,-47.36328125,1.0,1.0,1.0,0.0,5.m4v,8.0
2024-02-28 10:31:44.281104,1709112704.2811036,-53.7109375,-40.0390625,-21.484375,-52.734375,1.0,1.0,1.0,0.0,5.m4v,8.0
2024-02-28 10:31:44.285009,1709112704.2850094,-39.55078125,-36.62109375,-36.62109375,-25.390625,1.0,1.0,1.0,0.0,5.m4v,8.0
2024-02-28 10:31:44.288915,1709112704.2889152,-50.29296875,-34.66796875,-44.43359375,-29.296875,1.0,1.0,1.0,0.0,5.m4v,8.0
2024-02-28 10:31:44.292821,1709112704.292821,-43.9453125,-39.0625,-34.66796875,-42.48046875,1.0,1.0,1.0,0.0,5.m4v,8.0
2024-02-28 10:31:44.296727,1709112704.2967267,-25.390625,-38.57421875,-25.390625,-33.69140625,1.0,1.0,1.0,0.0,5.m4v,8.0
2024-02-28 10:31:44.300634,1709112704.3006344,-26.85546875,-24.4140625,-25.87890625,-13.18359375,1.0,1.0,1.0,0.0,5.m4v,8.0
2024-02-28 10:31:44.304540,1709112704.3045402,-32.71484375,-26.3671875,-45.8984375,-7.32421875,1.0,1.0,1.0,0.0,5.m4v,8.0
2024-02-28 10:31:44.308446,1709112704.308446,-41.50390625,-37.109375,-49.8046875,-12.20703125,1.0,1.0,1.0,0.0,5.m4v,8.0
2024-02-28 10:31:44.312352,1709112704.3123517,-44.43359375,-33.69140625,-20.99609375,-60.546875,1.0,1.0,1.0,0.0,5.m4v,8.0
2024-02-28 10:31:44.316257,1709112704.3162577,-41.9921875,-29.78515625,-3.41796875,-76.66015625,1.0,1.0,1.0,0.0,5.m4v,8.0
2024-02-28 10:31:44.320163,1709112704.3201632,-33.69140625,-42.48046875,-11.71875,-43.45703125,1.0,1.0,1.0,0.0,5.m4v,8.0
2024-02-28 10:31:44.824031,1709112704.8240309,-25.390625,-34.66796875,-33.203125,-6.34765625,1.0,1.0,1.0,0.0,5.m4v,8.0
