Timestamp,Timestamp_UNIX,TP9,AF7,AF8,TP10,Valence,Arousal,Dominace,Viewed,Video,Participant
2024-02-28 11:55:51.396402,1709117751.3964016,-38.0859375,-39.0625,-35.15625,-42.48046875,-1.0,1.0,-1.0,0.0,8.m4v,9.0
2024-02-28 11:55:51.400307,1709117751.4003067,-23.92578125,-32.2265625,-39.0625,-34.1796875,-1.0,1.0,-1.0,0.0,8.m4v,9.0
2024-02-28 11:55:51.404212,1709117751.404212,-15.13671875,-30.2734375,-41.015625,-26.3671875,-1.0,1.0,-1.0,0.0,8.m4v,9.0
2024-02-28 11:55:51.408117,1709117751.408117,-13.18359375,-37.109375,-39.0625,-29.78515625,-1.0,1.0,-1.0,0.0,8.m4v,9.0
2024-02-28 11:55:51.412022,1709117751.4120224,-24.90234375,-35.15625,-29.78515625,-32.2265625,-1.0,1.0,-1.0,0.0,8.m4v,9.0
2024-02-28 11:55:51.415927,1709117751.4159274,-36.62109375,-19.04296875,-23.92578125,-55.6640625,-1.0,1.0,-1.0,0.0,8.m4v,9.0
2024-02-28 11:55:51.419833,1709117751.4198327,-43.45703125,-14.6484375,-31.73828125,-59.08203125,-1.0,1.0,-1.0,0.0,8.m4v,9.0
2024-02-28 11:55:51.423738,1709117751.4237378,-43.9453125,-35.64453125,-42.96875,-35.64453125,-1.0,1.0,-1.0,0.0,8.m4v,9.0
2024-02-28 11:55:51.427643,1709117751.427643,-33.203125,-36.62109375,-41.9921875,-29.78515625,-1.0,1.0,-1.0,0.0,8.m4v,9.0
2024-02-28 11:55:51.431548,1709117751.431548,-32.2265625,-24.4140625,-42.96875,-32.2265625,-1.0,1.0,-1.0,0.0,8.m4v,9.0
2024-02-28 11:55:51.435453,1709117751.4354534,-31.73828125,-25.87890625,-28.80859375,-27.34375,-1.0,1.0,-1.0,0.0,8.m4v,9.0
2024-02-28 11:55:51.439359,1709117751.4393587,-25.87890625,-22.4609375,-16.6015625,-22.94921875,-1.0,1.0,-1.0,0.0,8.m4v,9.0
2024-02-28 11:55:51.443272,1709117751.443272,-30.2734375,-17.08984375,-20.01953125,-29.78515625,-1.0,1.0,-1.0,0.0,8.m4v,9.0
2024-02-28 11:55:51.447177,1709117751.447177,-35.15625,-27.83203125,-18.5546875,-39.55078125,-1.0,1.0,-1.0,0.0,8.m4v,9.0
2024-02-28 11:55:51.451082,1709117751.4510822,-42.96875,-39.0625,-33.69140625,-53.7109375,-1.0,1.0,-1.0,0.0,8.m4v,9.0
2024-02-28 11:55:51.454987,1709117751.4549873,-34.66796875,-41.9921875,-43.9453125,-47.36328125,-1.0,1.0,-1.0,0.0,8.m4v,9.0
2024-02-28 11:55:51.458893,1709117751.4588926,-19.53125,-47.36328125,-35.15625,-35.15625,-1.0,1.0,-1.0,0.0,8.m4v,9.0
2024-02-28 11:55:51.462798,1709117751.462798,-10.25390625,-40.0390625,-35.15625,-37.59765625,-1.0,1.0,-1.0,0.0,8.m4v,9.0
2024-02-28 11:55:51.466703,1709117751.466703,-13.671875,-27.34375,-30.76171875,-33.69140625,-1.0,1.0,-1.0,0.0,8.m4v,9.0
2024-02-28 11:55:51.470608,1709117751.4706082,-26.3671875,-25.87890625,-29.78515625,-36.62109375,-1.0,1.0,-1.0,0.0,8.m4v,9.0
2024-02-28 11:55:51.474513,1709117751.4745133,-21.484375,-23.4375,-46.38671875,-29.296875,-1.0,1.0,-1.0,0.0,8.m4v,9.0
2024-02-28 11:55:51.478419,1709117751.4784186,-15.13671875,-25.390625,-54.6875,-22.94921875,-1.0,1.0,-1.0,0.0,8.m4v,9.0
2024-02-28 11:55:51.482324,1709117751.4823236,-22.94921875,-33.69140625,-39.55078125,-28.3203125,-1.0,1.0,-1.0,0.0,8.m4v,9.0
2024-02-28 11:55:51.486229,1709117751.486229,-25.390625,-33.69140625,-21.484375,-22.4609375,-1.0,1.0,-1.0,0.0,8.m4v,9.0
2024-02-28 11:55:51.490140,1709117751.4901402,-36.62109375,-31.25,-21.97265625,-30.2734375,-1.0,1.0,-1.0,0.0,8.m4v,9.0
2024-02-28 11:55:51.494045,1709117751.4940453,-33.69140625,-29.78515625,-26.3671875,-41.9921875,-1.0,1.0,-1.0,0.0,8.m4v,9.0
2024-02-28 11:55:51.497951,1709117751.4979506,-24.90234375,-24.4140625,-28.80859375,-36.62109375,-1.0,1.0,-1.0,0.0,8.m4v,9.0
2024-02-28 11:55:51.501856,1709117751.5018556,-37.59765625,-33.203125,-28.3203125,-49.8046875,-1.0,1.0,-1.0,0.0,8.m4v,9.0
2024-02-28 11:55:51.505761,1709117751.505761,-35.15625,-38.57421875,-20.99609375,-36.1328125,-1.0,1.0,-1.0,0.0,8.m4v,9.0
2024-02-28 11:55:51.509666,1709117751.5096662,-37.109375,-39.0625,-35.64453125,-20.5078125,-1.0,1.0,-1.0,0.0,8.m4v,9.0
2024-02-28 11:55:51.513571,1709117751.5135713,-45.8984375,-49.31640625,-45.8984375,-37.59765625,-1.0,1.0,-1.0,0.0,8.m4v,9.0
2024-02-28 11:55:51.517477,1709117751.5174766,-36.62109375,-40.0390625,-36.1328125,-38.57421875,-1.0,1.0,-1.0,0.0,8.m4v,9.0
2024-02-28 11:55:51.521382,1709117751.5213816,-33.69140625,-27.34375,-33.69140625,-31.25,-1.0,1.0,-1.0,0.0,8.m4v,9.0
2024-02-28 11:55:51.525287,1709117751.525287,-38.57421875,-33.203125,-44.43359375,-35.15625,-1.0,1.0,-1.0,0.0,8.m4v,9.0
2024-02-28 11:55:51.529192,1709117751.529192,-43.45703125,-32.71484375,-34.1796875,-36.62109375,-1.0,1.0,-1.0,0.0,8.m4v,9.0
2024-02-28 11:55:51.533097,1709117751.5330973,-44.921875,-30.2734375,-22.94921875,-31.73828125,-1.0,1.0,-1.0,0.0,8.m4v,9.0
2024-02-28 11:55:51.537013,1709117751.5370128,-33.69140625,-28.3203125,-29.78515625,-32.2265625,-1.0,1.0,-1.0,0.0,8.m4v,9.0
2024-02-28 11:55:51.540918,1709117751.540918,-39.0625,-33.69140625,-33.69140625,-31.73828125,-1.0,1.0,-1.0,0.0,8.m4v,9.0
2024-02-28 11:55:51.544823,1709117751.5448232,-41.015625,-38.57421875,-40.0390625,-24.4140625,-1.0,1.0,-1.0,0.0,8.m4v,9.0
2024-02-28 11:55:51.548728,1709117751.5487282,-29.78515625,-37.59765625,-36.62109375,-28.80859375,-1.0,1.0,-1.0,0.0,8.m4v,9.0
2024-02-28 11:55:51.552634,1709117751.5526335,-38.0859375,-37.109375,-23.92578125,-40.52734375,-1.0,1.0,-1.0,0.0,8.m4v,9.0
2024-02-28 11:55:51.556539,1709117751.5565386,-49.8046875,-27.83203125,-26.85546875,-43.45703125,-1.0,1.0,-1.0,0.0,8.m4v,9.0
2024-02-28 11:55:51.560444,1709117751.560444,-53.22265625,-18.06640625,-25.87890625,-48.33984375,-1.0,1.0,-1.0,0.0,8.m4v,9.0
2024-02-28 11:55:51.564349,1709117751.564349,-42.48046875,-22.94921875,-14.6484375,-46.875,-1.0,1.0,-1.0,0.0,8.m4v,9.0
2024-02-28 11:55:51.568254,1709117751.5682542,-43.45703125,-35.64453125,-28.80859375,-35.64453125,-1.0,1.0,-1.0,0.0,8.m4v,9.0
2024-02-28 11:55:51.572159,1709117751.5721593,-45.8984375,-36.62109375,-45.8984375,-39.55078125,-1.0,1.0,-1.0,0.0,8.m4v,9.0
2024-02-28 11:55:51.576065,1709117751.5760646,-39.55078125,-29.78515625,-40.52734375,-36.1328125,-1.0,1.0,-1.0,0.0,8.m4v,9.0
2024-02-28 11:55:51.579970,1709117751.57997,-34.66796875,-20.99609375,-28.3203125,-36.1328125,-1.0,1.0,-1.0,0.0,8.m4v,9.0
2024-02-28 11:55:51.583885,1709117751.583885,-32.71484375,-14.6484375,-26.3671875,-45.8984375,-1.0,1.0,-1.0,0.0,8.m4v,9.0
2024-02-28 11:55:51.587790,1709117751.58779,-34.66796875,-26.3671875,-27.83203125,-34.66796875,-1.0,1.0,-1.0,0.0,8.m4v,9.0
2024-02-28 11:55:51.591695,1709117751.5916953,-33.69140625,-47.36328125,-30.76171875,-25.390625,-1.0,1.0,-1.0,0.0,8.m4v,9.0
2024-02-28 11:55:51.595600,1709117751.5956004,-28.3203125,-45.41015625,-29.78515625,-35.64453125,-1.0,1.0,-1.0,0.0,8.m4v,9.0
2024-02-28 11:55:51.599506,1709117751.5995057,-39.55078125,-39.55078125,-37.109375,-46.38671875,-1.0,1.0,-1.0,0.0,8.m4v,9.0
2024-02-28 11:55:51.603411,1709117751.6034107,-48.33984375,-26.85546875,-47.8515625,-43.45703125,-1.0,1.0,-1.0,0.0,8.m4v,9.0
2024-02-28 11:55:51.607316,1709117751.607316,-46.38671875,-21.97265625,-38.57421875,-38.0859375,-1.0,1.0,-1.0,0.0,8.m4v,9.0
2024-02-28 11:55:51.611221,1709117751.611221,-38.0859375,-33.69140625,-20.5078125,-31.25,-1.0,1.0,-1.0,0.0,8.m4v,9.0
2024-02-28 11:55:51.615126,1709117751.6151264,-33.69140625,-40.0390625,-30.76171875,-23.4375,-1.0,1.0,-1.0,0.0,8.m4v,9.0
2024-02-28 11:55:51.619031,1709117751.6190314,-37.59765625,-48.828125,-43.9453125,-31.73828125,-1.0,1.0,-1.0,0.0,8.m4v,9.0
2024-02-28 11:55:51.622937,1709117751.6229367,-32.2265625,-41.015625,-35.15625,-32.2265625,-1.0,1.0,-1.0,0.0,8.m4v,9.0
2024-02-28 11:55:51.626842,1709117751.6268418,-21.97265625,-32.71484375,-34.66796875,-20.99609375,-1.0,1.0,-1.0,0.0,8.m4v,9.0
2024-02-28 11:55:51.630757,1709117751.6307566,-29.296875,-33.203125,-35.64453125,-26.3671875,-1.0,1.0,-1.0,0.0,8.m4v,9.0
2024-02-28 11:55:51.634662,1709117751.6346617,-41.9921875,-30.2734375,-30.76171875,-36.62109375,-1.0,1.0,-1.0,0.0,8.m4v,9.0
2024-02-28 11:55:51.638567,1709117751.638567,-41.015625,-26.85546875,-31.25,-40.52734375,-1.0,1.0,-1.0,0.0,8.m4v,9.0
2024-02-28 11:55:51.642472,1709117751.642472,-42.96875,-29.78515625,-36.1328125,-41.50390625,-1.0,1.0,-1.0,0.0,8.m4v,9.0
2024-02-28 11:55:51.646377,1709117751.646377,-39.0625,-25.390625,-37.59765625,-36.1328125,-1.0,1.0,-1.0,0.0,8.m4v,9.0
2024-02-28 11:55:51.650282,1709117751.6502824,-34.66796875,-23.4375,-37.109375,-28.80859375,-1.0,1.0,-1.0,0.0,8.m4v,9.0
2024-02-28 11:55:51.654188,1709117751.6541877,-34.66796875,-39.55078125,-37.59765625,-38.0859375,-1.0,1.0,-1.0,0.0,8.m4v,9.0
2024-02-28 11:55:51.658093,1709117751.6580927,-35.15625,-44.43359375,-23.4375,-40.0390625,-1.0,1.0,-1.0,0.0,8.m4v,9.0
2024-02-28 11:55:51.661998,1709117751.661998,-37.59765625,-43.45703125,-27.83203125,-20.5078125,-1.0,1.0,-1.0,0.0,8.m4v,9.0
2024-02-28 11:55:51.665903,1709117751.665903,-30.76171875,-43.45703125,-40.52734375,-21.484375,-1.0,1.0,-1.0,0.0,8.m4v,9.0
2024-02-28 11:55:51.669808,1709117751.6698084,-35.64453125,-39.0625,-37.109375,-33.69140625,-1.0,1.0,-1.0,0.0,8.m4v,9.0
2024-02-28 11:55:51.673714,1709117751.6737137,-36.1328125,-33.69140625,-33.69140625,-34.66796875,-1.0,1.0,-1.0,0.0,8.m4v,9.0
2024-02-28 11:55:51.677628,1709117751.6776285,-23.4375,-25.87890625,-22.94921875,-31.25,-1.0,1.0,-1.0,0.0,8.m4v,9.0
2024-02-28 11:55:51.681533,1709117751.681533,-23.4375,-27.34375,-18.5546875,-31.25,-1.0,1.0,-1.0,0.0,8.m4v,9.0
2024-02-28 11:55:51.685439,1709117751.6854386,-43.45703125,-33.69140625,-27.83203125,-30.76171875,-1.0,1.0,-1.0,0.0,8.m4v,9.0
2024-02-28 11:55:51.689344,1709117751.6893437,-47.36328125,-40.52734375,-31.25,-37.59765625,-1.0,1.0,-1.0,0.0,8.m4v,9.0
2024-02-28 11:55:51.693249,1709117751.693249,-31.25,-33.203125,-21.484375,-38.57421875,-1.0,1.0,-1.0,0.0,8.m4v,9.0
2024-02-28 11:55:51.697154,1709117751.697154,-28.3203125,-18.5546875,-24.4140625,-33.69140625,-1.0,1.0,-1.0,0.0,8.m4v,9.0
2024-02-28 11:55:51.701059,1709117751.701059,-26.3671875,-14.6484375,-26.3671875,-32.2265625,-1.0,1.0,-1.0,0.0,8.m4v,9.0
2024-02-28 11:55:51.704964,1709117751.7049644,-31.25,-19.04296875,-25.390625,-25.390625,-1.0,1.0,-1.0,0.0,8.m4v,9.0
2024-02-28 11:55:51.708870,1709117751.7088697,-44.921875,-38.0859375,-43.9453125,-42.48046875,-1.0,1.0,-1.0,0.0,8.m4v,9.0
2024-02-28 11:55:51.712775,1709117751.7127748,-31.25,-40.52734375,-36.62109375,-41.50390625,-1.0,1.0,-1.0,0.0,8.m4v,9.0
2024-02-28 11:55:51.716680,1709117751.71668,-35.64453125,-24.90234375,-19.04296875,-28.3203125,-1.0,1.0,-1.0,0.0,8.m4v,9.0
2024-02-28 11:55:51.720585,1709117751.720585,-43.45703125,-26.3671875,-29.78515625,-30.76171875,-1.0,1.0,-1.0,0.0,8.m4v,9.0
2024-02-28 11:55:51.724498,1709117751.7244985,-33.203125,-38.0859375,-40.52734375,-27.83203125,-1.0,1.0,-1.0,0.0,8.m4v,9.0
2024-02-28 11:55:51.728403,1709117751.728403,-35.64453125,-42.96875,-35.15625,-32.2265625,-1.0,1.0,-1.0,0.0,8.m4v,9.0
2024-02-28 11:55:51.732309,1709117751.7323086,-42.48046875,-44.921875,-24.4140625,-41.50390625,-1.0,1.0,-1.0,0.0,8.m4v,9.0
2024-02-28 11:55:51.736214,1709117751.7362137,-40.0390625,-38.57421875,-20.01953125,-40.52734375,-1.0,1.0,-1.0,0.0,8.m4v,9.0
2024-02-28 11:55:51.740119,1709117751.740119,-31.73828125,-20.01953125,-23.92578125,-34.1796875,-1.0,1.0,-1.0,0.0,8.m4v,9.0
2024-02-28 11:55:51.744024,1709117751.744024,-35.15625,-16.11328125,-33.203125,-33.69140625,-1.0,1.0,-1.0,0.0,8.m4v,9.0
2024-02-28 11:55:51.747929,1709117751.747929,-35.64453125,-24.4140625,-29.78515625,-26.3671875,-1.0,1.0,-1.0,0.0,8.m4v,9.0
2024-02-28 11:55:51.751834,1709117751.7518344,-33.69140625,-32.71484375,-24.4140625,-37.109375,-1.0,1.0,-1.0,0.0,8.m4v,9.0
2024-02-28 11:55:51.755740,1709117751.7557397,-37.59765625,-27.83203125,-31.25,-50.78125,-1.0,1.0,-1.0,0.0,8.m4v,9.0
2024-02-28 11:55:51.759645,1709117751.7596447,-47.8515625,-27.83203125,-37.59765625,-43.9453125,-1.0,1.0,-1.0,0.0,8.m4v,9.0
2024-02-28 11:55:51.763550,1709117751.76355,-50.78125,-39.0625,-42.48046875,-46.875,-1.0,1.0,-1.0,0.0,8.m4v,9.0
2024-02-28 11:55:51.767455,1709117751.767455,-36.1328125,-32.71484375,-33.69140625,-42.48046875,-1.0,1.0,-1.0,0.0,8.m4v,9.0
2024-02-28 11:55:51.771368,1709117751.771368,-45.41015625,-23.4375,-27.34375,-28.80859375,-1.0,1.0,-1.0,0.0,8.m4v,9.0
2024-02-28 11:55:51.775273,1709117751.775273,-41.9921875,-33.203125,-37.59765625,-35.15625,-1.0,1.0,-1.0,0.0,8.m4v,9.0
2024-02-28 11:55:51.779178,1709117751.7791784,-36.62109375,-48.33984375,-42.48046875,-39.0625,-1.0,1.0,-1.0,0.0,8.m4v,9.0
2024-02-28 11:55:51.783084,1709117751.7830837,-46.875,-56.15234375,-32.71484375,-41.50390625,-1.0,1.0,-1.0,0.0,8.m4v,9.0
2024-02-28 11:55:51.786989,1709117751.7869887,-39.55078125,-44.43359375,-20.5078125,-37.109375,-1.0,1.0,-1.0,0.0,8.m4v,9.0
2024-02-28 11:55:51.790894,1709117751.790894,-29.78515625,-20.01953125,-23.92578125,-30.76171875,-1.0,1.0,-1.0,0.0,8.m4v,9.0
2024-02-28 11:55:51.794799,1709117751.794799,-28.3203125,-20.99609375,-41.015625,-35.64453125,-1.0,1.0,-1.0,0.0,8.m4v,9.0
2024-02-28 11:55:51.798704,1709117751.7987044,-36.1328125,-41.015625,-51.26953125,-34.66796875,-1.0,1.0,-1.0,0.0,8.m4v,9.0
2024-02-28 11:55:51.802609,1709117751.8026094,-43.9453125,-48.828125,-56.15234375,-38.0859375,-1.0,1.0,-1.0,0.0,8.m4v,9.0
2024-02-28 11:55:51.806515,1709117751.8065147,-40.52734375,-44.921875,-48.828125,-35.15625,-1.0,1.0,-1.0,0.0,8.m4v,9.0
2024-02-28 11:55:51.810420,1709117751.81042,-34.1796875,-34.1796875,-49.8046875,-36.1328125,-1.0,1.0,-1.0,0.0,8.m4v,9.0
2024-02-28 11:55:51.814325,1709117751.814325,-44.43359375,-24.4140625,-51.7578125,-48.33984375,-1.0,1.0,-1.0,0.0,8.m4v,9.0
2024-02-28 11:55:51.818237,1709117751.818237,-43.9453125,-17.08984375,-33.203125,-47.8515625,-1.0,1.0,-1.0,0.0,8.m4v,9.0
2024-02-28 11:55:51.822142,1709117751.8221424,-34.1796875,-19.53125,-14.16015625,-28.80859375,-1.0,1.0,-1.0,0.0,8.m4v,9.0
2024-02-28 11:55:51.826047,1709117751.8260474,-36.1328125,-33.203125,-11.23046875,-22.4609375,-1.0,1.0,-1.0,0.0,8.m4v,9.0
2024-02-28 11:55:51.829953,1709117751.8299527,-29.78515625,-43.9453125,-18.06640625,-27.83203125,-1.0,1.0,-1.0,0.0,8.m4v,9.0
2024-02-28 11:55:51.833858,1709117751.8338578,-35.64453125,-38.0859375,-39.0625,-35.64453125,-1.0,1.0,-1.0,0.0,8.m4v,9.0
2024-02-28 11:55:51.837763,1709117751.837763,-28.3203125,-23.4375,-40.52734375,-34.66796875,-1.0,1.0,-1.0,0.0,8.m4v,9.0
2024-02-28 11:55:51.841668,1709117751.841668,-21.97265625,-26.85546875,-31.25,-24.90234375,-1.0,1.0,-1.0,0.0,8.m4v,9.0
2024-02-28 11:55:51.845573,1709117751.8455734,-31.25,-37.59765625,-34.1796875,-27.83203125,-1.0,1.0,-1.0,0.0,8.m4v,9.0
2024-02-28 11:55:51.849478,1709117751.8494785,-16.6015625,-34.66796875,-25.87890625,-22.94921875,-1.0,1.0,-1.0,0.0,8.m4v,9.0
2024-02-28 11:55:51.853384,1709117751.8533838,-19.53125,-30.76171875,-26.85546875,-30.2734375,-1.0,1.0,-1.0,0.0,8.m4v,9.0
2024-02-28 11:55:51.857289,1709117751.8572888,-31.25,-30.76171875,-46.38671875,-43.45703125,-1.0,1.0,-1.0,0.0,8.m4v,9.0
2024-02-28 11:55:51.861194,1709117751.861194,-33.69140625,-30.2734375,-59.5703125,-38.57421875,-1.0,1.0,-1.0,0.0,8.m4v,9.0
2024-02-28 11:55:51.865106,1709117751.8651056,-37.59765625,-31.25,-40.0390625,-33.203125,-1.0,1.0,-1.0,0.0,8.m4v,9.0
2024-02-28 11:55:51.869011,1709117751.869011,-25.87890625,-33.203125,-25.390625,-29.296875,-1.0,1.0,-1.0,0.0,8.m4v,9.0
2024-02-28 11:55:51.872916,1709117751.872916,-22.4609375,-40.52734375,-28.80859375,-40.52734375,-1.0,1.0,-1.0,0.0,8.m4v,9.0
2024-02-28 11:55:51.876821,1709117751.8768213,-27.34375,-45.8984375,-37.109375,-38.0859375,-1.0,1.0,-1.0,0.0,8.m4v,9.0
2024-02-28 11:55:51.880726,1709117751.8807263,-19.53125,-29.78515625,-39.0625,-19.53125,-1.0,1.0,-1.0,0.0,8.m4v,9.0
2024-02-28 11:55:51.884632,1709117751.8846316,-13.18359375,-5.859375,-23.4375,-18.5546875,-1.0,1.0,-1.0,0.0,8.m4v,9.0
2024-02-28 11:55:51.888537,1709117751.888537,-18.5546875,-12.6953125,-31.25,-30.2734375,-1.0,1.0,-1.0,0.0,8.m4v,9.0
2024-02-28 11:55:51.892442,1709117751.892442,-29.78515625,-43.9453125,-49.31640625,-45.8984375,-1.0,1.0,-1.0,0.0,8.m4v,9.0
2024-02-28 11:55:51.896347,1709117751.8963473,-30.76171875,-51.26953125,-34.66796875,-42.48046875,-1.0,1.0,-1.0,0.0,8.m4v,9.0
2024-02-28 11:55:51.900252,1709117751.9002523,-20.5078125,-40.0390625,-16.6015625,-41.015625,-1.0,1.0,-1.0,0.0,8.m4v,9.0
2024-02-28 11:55:51.904158,1709117751.9041576,-26.3671875,-28.3203125,-13.671875,-44.43359375,-1.0,1.0,-1.0,0.0,8.m4v,9.0
2024-02-28 11:55:51.908063,1709117751.9080627,-33.69140625,-11.23046875,-31.73828125,-38.0859375,-1.0,1.0,-1.0,0.0,8.m4v,9.0
2024-02-28 11:55:51.911978,1709117751.9119782,-47.36328125,-18.5546875,-44.921875,-40.0390625,-1.0,1.0,-1.0,0.0,8.m4v,9.0
2024-02-28 11:55:51.915884,1709117751.9158835,-31.25,-31.25,-32.2265625,-35.64453125,-1.0,1.0,-1.0,0.0,8.m4v,9.0
2024-02-28 11:55:51.919789,1709117751.9197886,-24.90234375,-41.015625,-35.15625,-40.0390625,-1.0,1.0,-1.0,0.0,8.m4v,9.0
2024-02-28 11:55:51.923694,1709117751.923694,-48.828125,-57.6171875,-41.50390625,-58.10546875,-1.0,1.0,-1.0,0.0,8.m4v,9.0
2024-02-28 11:55:51.927599,1709117751.927599,-41.9921875,-52.24609375,-31.73828125,-45.41015625,-1.0,1.0,-1.0,0.0,8.m4v,9.0
2024-02-28 11:55:51.931504,1709117751.9315042,-37.59765625,-37.109375,-32.2265625,-31.25,-1.0,1.0,-1.0,0.0,8.m4v,9.0
2024-02-28 11:55:51.935409,1709117751.9354093,-42.48046875,-26.85546875,-30.2734375,-34.66796875,-1.0,1.0,-1.0,0.0,8.m4v,9.0
2024-02-28 11:55:51.939315,1709117751.9393146,-34.1796875,-15.13671875,-19.53125,-32.2265625,-1.0,1.0,-1.0,0.0,8.m4v,9.0
2024-02-28 11:55:51.943220,1709117751.9432197,-37.109375,-23.4375,-27.34375,-43.45703125,-1.0,1.0,-1.0,0.0,8.m4v,9.0
2024-02-28 11:55:51.947125,1709117751.947125,-41.50390625,-38.57421875,-31.73828125,-45.41015625,-1.0,1.0,-1.0,0.0,8.m4v,9.0
2024-02-28 11:55:51.951030,1709117751.95103,-36.1328125,-41.9921875,-16.6015625,-36.1328125,-1.0,1.0,-1.0,0.0,8.m4v,9.0
2024-02-28 11:55:51.954935,1709117751.9549353,-29.296875,-38.0859375,-29.296875,-37.109375,-1.0,1.0,-1.0,0.0,8.m4v,9.0
2024-02-28 11:55:51.958850,1709117751.95885,-30.2734375,-37.109375,-39.55078125,-32.2265625,-1.0,1.0,-1.0,0.0,8.m4v,9.0
2024-02-28 11:55:51.962755,1709117751.9627554,-37.59765625,-37.109375,-34.66796875,-37.109375,-1.0,1.0,-1.0,0.0,8.m4v,9.0
2024-02-28 11:55:51.966660,1709117751.9666605,-35.15625,-27.83203125,-36.1328125,-42.96875,-1.0,1.0,-1.0,0.0,8.m4v,9.0
2024-02-28 11:55:51.970566,1709117751.9705658,-33.203125,-14.6484375,-37.109375,-41.015625,-1.0,1.0,-1.0,0.0,8.m4v,9.0
2024-02-28 11:55:51.974471,1709117751.9744709,-44.43359375,-15.625,-47.36328125,-43.9453125,-1.0,1.0,-1.0,0.0,8.m4v,9.0
2024-02-28 11:55:51.978376,1709117751.9783762,-45.41015625,-37.109375,-44.43359375,-55.6640625,-1.0,1.0,-1.0,0.0,8.m4v,9.0
2024-02-28 11:55:52.427558,1709117752.427558,-30.2734375,-29.296875,-29.78515625,-31.25,-1.0,1.0,-1.0,0.0,8.m4v,9.0
2024-02-28 11:55:52.431463,1709117752.431463,-23.4375,-31.25,-22.94921875,-29.296875,-1.0,1.0,-1.0,0.0,8.m4v,9.0
2024-02-28 11:55:52.435368,1709117752.4353683,-21.484375,-24.4140625,-26.3671875,-41.9921875,-1.0,1.0,-1.0,0.0,8.m4v,9.0
2024-02-28 11:55:52.439273,1709117752.4392734,-39.0625,-29.296875,-52.734375,-40.52734375,-1.0,1.0,-1.0,0.0,8.m4v,9.0
2024-02-28 11:55:52.443179,1709117752.443179,-34.66796875,-33.203125,-42.48046875,-33.203125,-1.0,1.0,-1.0,0.0,8.m4v,9.0
2024-02-28 11:55:52.447084,1709117752.4470837,-18.5546875,-35.64453125,-18.5546875,-33.69140625,-1.0,1.0,-1.0,0.0,8.m4v,9.0
2024-02-28 11:55:52.450989,1709117752.450989,-26.3671875,-28.80859375,-18.06640625,-32.2265625,-1.0,1.0,-1.0,0.0,8.m4v,9.0
2024-02-28 11:55:52.454894,1709117752.454894,-24.4140625,-20.99609375,-19.04296875,-28.3203125,-1.0,1.0,-1.0,0.0,8.m4v,9.0
2024-02-28 11:55:52.458799,1709117752.4587994,-21.97265625,-28.3203125,-20.01953125,-30.76171875,-1.0,1.0,-1.0,0.0,8.m4v,9.0
2024-02-28 11:55:52.462704,1709117752.4627044,-36.62109375,-40.52734375,-34.66796875,-40.52734375,-1.0,1.0,-1.0,0.0,8.m4v,9.0
2024-02-28 11:55:52.466610,1709117752.4666097,-40.52734375,-44.921875,-45.8984375,-42.48046875,-1.0,1.0,-1.0,0.0,8.m4v,9.0
2024-02-28 11:55:52.470515,1709117752.4705148,-31.25,-40.0390625,-40.0390625,-41.015625,-1.0,1.0,-1.0,0.0,8.m4v,9.0
2024-02-28 11:55:52.474428,1709117752.4744282,-35.64453125,-28.80859375,-33.69140625,-38.0859375,-1.0,1.0,-1.0,0.0,8.m4v,9.0
2024-02-28 11:55:52.478333,1709117752.4783337,-35.64453125,-15.13671875,-22.94921875,-35.15625,-1.0,1.0,-1.0,0.0,8.m4v,9.0
2024-02-28 11:55:52.482239,1709117752.4822383,-21.484375,-6.34765625,-18.06640625,-21.484375,-1.0,1.0,-1.0,0.0,8.m4v,9.0
2024-02-28 11:55:52.486144,1709117752.4861438,-30.76171875,-8.7890625,-28.80859375,-30.2734375,-1.0,1.0,-1.0,0.0,8.m4v,9.0
2024-02-28 11:55:52.490049,1709117752.490049,-44.921875,-9.765625,-38.0859375,-28.3203125,-1.0,1.0,-1.0,0.0,8.m4v,9.0
2024-02-28 11:55:52.493954,1709117752.4939542,-29.78515625,-24.4140625,-43.9453125,-30.2734375,-1.0,1.0,-1.0,0.0,8.m4v,9.0
2024-02-28 11:55:52.497859,1709117752.4978592,-31.25,-42.48046875,-44.43359375,-52.24609375,-1.0,1.0,-1.0,0.0,8.m4v,9.0
2024-02-28 11:55:52.501765,1709117752.5017643,-41.9921875,-42.96875,-32.2265625,-41.015625,-1.0,1.0,-1.0,0.0,8.m4v,9.0
2024-02-28 11:55:52.505670,1709117752.5056696,-37.59765625,-37.59765625,-26.85546875,-30.2734375,-1.0,1.0,-1.0,0.0,8.m4v,9.0
2024-02-28 11:55:52.509575,1709117752.509575,-42.48046875,-30.2734375,-36.1328125,-32.71484375,-1.0,1.0,-1.0,0.0,8.m4v,9.0
2024-02-28 11:55:52.513480,1709117752.51348,-41.9921875,-26.85546875,-37.59765625,-41.50390625,-1.0,1.0,-1.0,0.0,8.m4v,9.0
2024-02-28 11:55:52.517385,1709117752.5173852,-38.0859375,-32.2265625,-26.85546875,-39.0625,-1.0,1.0,-1.0,0.0,8.m4v,9.0
2024-02-28 11:55:52.521298,1709117752.5212982,-36.1328125,-33.69140625,-26.85546875,-42.96875,-1.0,1.0,-1.0,0.0,8.m4v,9.0
2024-02-28 11:55:52.525203,1709117752.5252037,-41.9921875,-22.94921875,-30.76171875,-42.96875,-1.0,1.0,-1.0,0.0,8.m4v,9.0
2024-02-28 11:55:52.529109,1709117752.5291088,-42.96875,-25.390625,-29.78515625,-24.90234375,-1.0,1.0,-1.0,0.0,8.m4v,9.0
2024-02-28 11:55:52.533014,1709117752.5330138,-25.87890625,-30.76171875,-31.73828125,-15.625,-1.0,1.0,-1.0,0.0,8.m4v,9.0
2024-02-28 11:55:52.536919,1709117752.536919,-30.76171875,-24.4140625,-34.1796875,-31.25,-1.0,1.0,-1.0,0.0,8.m4v,9.0
2024-02-28 11:55:52.540824,1709117752.5408242,-38.0859375,-28.80859375,-34.66796875,-40.0390625,-1.0,1.0,-1.0,0.0,8.m4v,9.0
2024-02-28 11:55:52.544729,1709117752.5447297,-37.59765625,-41.015625,-45.41015625,-33.69140625,-1.0,1.0,-1.0,0.0,8.m4v,9.0
2024-02-28 11:55:52.548635,1709117752.5486343,-50.78125,-42.48046875,-56.640625,-40.0390625,-1.0,1.0,-1.0,0.0,8.m4v,9.0
2024-02-28 11:55:52.552540,1709117752.5525398,-42.96875,-36.62109375,-45.8984375,-38.57421875,-1.0,1.0,-1.0,0.0,8.m4v,9.0
2024-02-28 11:55:52.556445,1709117752.556445,-17.08984375,-21.97265625,-29.78515625,-29.296875,-1.0,1.0,-1.0,0.0,8.m4v,9.0
2024-02-28 11:55:52.560350,1709117752.5603502,-24.4140625,-15.13671875,-31.25,-39.0625,-1.0,1.0,-1.0,0.0,8.m4v,9.0
2024-02-28 11:55:52.564255,1709117752.5642552,-37.59765625,-27.34375,-32.2265625,-41.015625,-1.0,1.0,-1.0,0.0,8.m4v,9.0
2024-02-28 11:55:52.568167,1709117752.568167,-37.59765625,-40.52734375,-29.296875,-36.62109375,-1.0,1.0,-1.0,0.0,8.m4v,9.0
2024-02-28 11:55:52.572072,1709117752.572072,-33.69140625,-41.50390625,-15.625,-39.0625,-1.0,1.0,-1.0,0.0,8.m4v,9.0
2024-02-28 11:55:52.575977,1709117752.575977,-34.66796875,-42.96875,-9.27734375,-39.55078125,-1.0,1.0,-1.0,0.0,8.m4v,9.0
2024-02-28 11:55:52.579882,1709117752.5798824,-28.80859375,-43.9453125,-21.484375,-42.96875,-1.0,1.0,-1.0,0.0,8.m4v,9.0
2024-02-28 11:55:52.583788,1709117752.5837877,-29.296875,-37.59765625,-28.3203125,-38.57421875,-1.0,1.0,-1.0,0.0,8.m4v,9.0
2024-02-28 11:55:52.587693,1709117752.587693,-27.83203125,-27.83203125,-21.484375,-27.83203125,-1.0,1.0,-1.0,0.0,8.m4v,9.0
2024-02-28 11:55:52.591598,1709117752.591598,-24.4140625,-33.203125,-27.83203125,-36.62109375,-1.0,1.0,-1.0,0.0,8.m4v,9.0
2024-02-28 11:55:52.595503,1709117752.595503,-29.296875,-41.9921875,-53.22265625,-47.36328125,-1.0,1.0,-1.0,0.0,8.m4v,9.0
2024-02-28 11:55:52.599408,1709117752.5994084,-25.390625,-33.203125,-56.15234375,-40.0390625,-1.0,1.0,-1.0,0.0,8.m4v,9.0
2024-02-28 11:55:52.603314,1709117752.6033137,-35.64453125,-21.484375,-41.50390625,-38.0859375,-1.0,1.0,-1.0,0.0,8.m4v,9.0
2024-02-28 11:55:52.607219,1709117752.6072187,-29.296875,-19.53125,-35.64453125,-28.3203125,-1.0,1.0,-1.0,0.0,8.m4v,9.0
2024-02-28 11:55:52.611124,1709117752.611124,-20.01953125,-28.80859375,-32.71484375,-20.99609375,-1.0,1.0,-1.0,0.0,8.m4v,9.0
2024-02-28 11:55:52.615035,1709117752.6150353,-30.2734375,-28.80859375,-31.73828125,-28.80859375,-1.0,1.0,-1.0,0.0,8.m4v,9.0
2024-02-28 11:55:52.618940,1709117752.6189404,-32.2265625,-31.25,-27.83203125,-29.296875,-1.0,1.0,-1.0,0.0,8.m4v,9.0
2024-02-28 11:55:52.622846,1709117752.6228456,-40.52734375,-38.0859375,-29.78515625,-27.83203125,-1.0,1.0,-1.0,0.0,8.m4v,9.0
2024-02-28 11:55:52.626751,1709117752.626751,-37.109375,-46.38671875,-38.57421875,-28.80859375,-1.0,1.0,-1.0,0.0,8.m4v,9.0
2024-02-28 11:55:52.630656,1709117752.630656,-32.71484375,-51.7578125,-32.2265625,-35.15625,-1.0,1.0,-1.0,0.0,8.m4v,9.0
2024-02-28 11:55:52.634561,1709117752.6345613,-42.96875,-42.48046875,-28.80859375,-37.109375,-1.0,1.0,-1.0,0.0,8.m4v,9.0
2024-02-28 11:55:52.638466,1709117752.6384664,-42.48046875,-32.2265625,-23.4375,-31.25,-1.0,1.0,-1.0,0.0,8.m4v,9.0
2024-02-28 11:55:52.642372,1709117752.6423717,-40.0390625,-33.203125,-25.390625,-38.57421875,-1.0,1.0,-1.0,0.0,8.m4v,9.0
2024-02-28 11:55:52.646277,1709117752.6462767,-42.48046875,-35.15625,-56.15234375,-43.45703125,-1.0,1.0,-1.0,0.0,8.m4v,9.0
2024-02-28 11:55:52.650182,1709117752.650182,-39.55078125,-35.64453125,-66.40625,-37.59765625,-1.0,1.0,-1.0,0.0,8.m4v,9.0
2024-02-28 11:55:52.654087,1709117752.654087,-32.2265625,-29.78515625,-35.64453125,-36.1328125,-1.0,1.0,-1.0,0.0,8.m4v,9.0
2024-02-28 11:55:52.657992,1709117752.6579924,-49.8046875,-35.64453125,-7.8125,-47.36328125,-1.0,1.0,-1.0,0.0,8.m4v,9.0
2024-02-28 11:55:52.661908,1709117752.661908,-54.6875,-49.8046875,-16.11328125,-40.52734375,-1.0,1.0,-1.0,0.0,8.m4v,9.0
2024-02-28 11:55:52.665813,1709117752.6658134,-41.015625,-43.45703125,-35.15625,-27.34375,-1.0,1.0,-1.0,0.0,8.m4v,9.0
2024-02-28 11:55:52.669719,1709117752.6697185,-49.31640625,-34.1796875,-35.64453125,-40.52734375,-1.0,1.0,-1.0,0.0,8.m4v,9.0
2024-02-28 11:55:52.673624,1709117752.6736238,-42.96875,-35.15625,-32.71484375,-49.31640625,-1.0,1.0,-1.0,0.0,8.m4v,9.0
2024-02-28 11:55:52.677529,1709117752.6775289,-33.69140625,-36.1328125,-32.71484375,-40.0390625,-1.0,1.0,-1.0,0.0,8.m4v,9.0
2024-02-28 11:55:52.681434,1709117752.6814342,-33.203125,-28.80859375,-31.25,-34.66796875,-1.0,1.0,-1.0,0.0,8.m4v,9.0
2024-02-28 11:55:52.685339,1709117752.6853392,-29.296875,-28.3203125,-36.62109375,-36.62109375,-1.0,1.0,-1.0,0.0,8.m4v,9.0
2024-02-28 11:55:52.689245,1709117752.6892445,-23.4375,-21.97265625,-31.25,-25.87890625,-1.0,1.0,-1.0,0.0,8.m4v,9.0
2024-02-28 11:55:52.693150,1709117752.6931498,-20.5078125,-24.4140625,-23.92578125,-21.97265625,-1.0,1.0,-1.0,0.0,8.m4v,9.0
2024-02-28 11:55:52.697055,1709117752.6970549,-21.97265625,-32.71484375,-31.73828125,-34.66796875,-1.0,1.0,-1.0,0.0,8.m4v,9.0
2024-02-28 11:55:52.700960,1709117752.7009602,-34.1796875,-30.2734375,-37.109375,-40.0390625,-1.0,1.0,-1.0,0.0,8.m4v,9.0
2024-02-28 11:55:52.704865,1709117752.7048652,-44.43359375,-29.78515625,-45.41015625,-43.9453125,-1.0,1.0,-1.0,0.0,8.m4v,9.0
2024-02-28 11:55:52.708781,1709117752.7087803,-47.8515625,-32.2265625,-40.0390625,-38.57421875,-1.0,1.0,-1.0,0.0,8.m4v,9.0
2024-02-28 11:55:52.712686,1709117752.7126856,-51.7578125,-34.66796875,-38.0859375,-44.921875,-1.0,1.0,-1.0,0.0,8.m4v,9.0
2024-02-28 11:55:52.716591,1709117752.716591,-33.69140625,-21.484375,-37.59765625,-50.78125,-1.0,1.0,-1.0,0.0,8.m4v,9.0
2024-02-28 11:55:52.720496,1709117752.720496,-28.3203125,-13.18359375,-24.90234375,-31.73828125,-1.0,1.0,-1.0,0.0,8.m4v,9.0
2024-02-28 11:55:52.724401,1709117752.7244012,-27.34375,-12.6953125,-23.92578125,-26.85546875,-1.0,1.0,-1.0,0.0,8.m4v,9.0
2024-02-28 11:55:52.728307,1709117752.7283063,-24.90234375,-6.34765625,-25.87890625,-33.203125,-1.0,1.0,-1.0,0.0,8.m4v,9.0
2024-02-28 11:55:52.732212,1709117752.7322116,-41.015625,-20.5078125,-33.69140625,-41.50390625,-1.0,1.0,-1.0,0.0,8.m4v,9.0
2024-02-28 11:55:52.736117,1709117752.736117,-38.0859375,-43.45703125,-44.43359375,-43.9453125,-1.0,1.0,-1.0,0.0,8.m4v,9.0
2024-02-28 11:55:52.740022,1709117752.740022,-24.4140625,-47.8515625,-36.1328125,-43.45703125,-1.0,1.0,-1.0,0.0,8.m4v,9.0
2024-02-28 11:55:52.743927,1709117752.7439272,-37.109375,-55.17578125,-35.15625,-50.78125,-1.0,1.0,-1.0,0.0,8.m4v,9.0
2024-02-28 11:55:52.747832,1709117752.7478323,-39.0625,-45.8984375,-35.64453125,-41.50390625,-1.0,1.0,-1.0,0.0,8.m4v,9.0
2024-02-28 11:55:52.751738,1709117752.7517376,-29.296875,-33.203125,-29.296875,-32.71484375,-1.0,1.0,-1.0,0.0,8.m4v,9.0
2024-02-28 11:55:52.755653,1709117752.7556531,-31.25,-35.15625,-22.4609375,-41.015625,-1.0,1.0,-1.0,0.0,8.m4v,9.0
2024-02-28 11:55:52.759558,1709117752.7595582,-35.64453125,-31.73828125,-20.5078125,-43.9453125,-1.0,1.0,-1.0,0.0,8.m4v,9.0
2024-02-28 11:55:52.763463,1709117752.7634635,-52.24609375,-25.390625,-34.66796875,-41.015625,-1.0,1.0,-1.0,0.0,8.m4v,9.0
2024-02-28 11:55:52.767369,1709117752.7673686,-51.7578125,-18.06640625,-43.45703125,-33.203125,-1.0,1.0,-1.0,0.0,8.m4v,9.0
2024-02-28 11:55:52.771274,1709117752.771274,-46.38671875,-15.13671875,-36.62109375,-36.62109375,-1.0,1.0,-1.0,0.0,8.m4v,9.0
2024-02-28 11:55:52.775179,1709117752.7751791,-42.48046875,-18.06640625,-19.04296875,-39.55078125,-1.0,1.0,-1.0,0.0,8.m4v,9.0
2024-02-28 11:55:52.779084,1709117752.7790842,-43.9453125,-33.203125,-28.80859375,-24.90234375,-1.0,1.0,-1.0,0.0,8.m4v,9.0
2024-02-28 11:55:52.782990,1709117752.7829895,-49.8046875,-45.41015625,-38.57421875,-24.90234375,-1.0,1.0,-1.0,0.0,8.m4v,9.0
2024-02-28 11:55:52.786895,1709117752.7868946,-49.8046875,-40.0390625,-26.3671875,-35.15625,-1.0,1.0,-1.0,0.0,8.m4v,9.0
2024-02-28 11:55:52.790800,1709117752.7908,-43.45703125,-27.83203125,-24.4140625,-41.9921875,-1.0,1.0,-1.0,0.0,8.m4v,9.0
2024-02-28 11:55:52.794705,1709117752.794705,-43.45703125,-18.5546875,-23.4375,-35.64453125,-1.0,1.0,-1.0,0.0,8.m4v,9.0
2024-02-28 11:55:52.798610,1709117752.7986102,-37.59765625,-33.69140625,-26.85546875,-30.76171875,-1.0,1.0,-1.0,0.0,8.m4v,9.0
2024-02-28 11:55:52.802524,1709117752.802524,-25.390625,-40.52734375,-26.85546875,-21.97265625,-1.0,1.0,-1.0,0.0,8.m4v,9.0
2024-02-28 11:55:52.806429,1709117752.806429,-34.66796875,-34.1796875,-28.3203125,-20.5078125,-1.0,1.0,-1.0,0.0,8.m4v,9.0
2024-02-28 11:55:52.810334,1709117752.8103342,-41.9921875,-29.78515625,-31.73828125,-27.34375,-1.0,1.0,-1.0,0.0,8.m4v,9.0
2024-02-28 11:55:52.814239,1709117752.8142393,-43.45703125,-44.921875,-35.64453125,-36.62109375,-1.0,1.0,-1.0,0.0,8.m4v,9.0
2024-02-28 11:55:52.818145,1709117752.8181446,-28.80859375,-57.12890625,-36.1328125,-36.62109375,-1.0,1.0,-1.0,0.0,8.m4v,9.0
2024-02-28 11:55:52.822050,1709117752.82205,-26.85546875,-34.66796875,-37.59765625,-27.83203125,-1.0,1.0,-1.0,0.0,8.m4v,9.0
2024-02-28 11:55:52.825955,1709117752.825955,-44.43359375,-20.99609375,-35.15625,-51.26953125,-1.0,1.0,-1.0,0.0,8.m4v,9.0
2024-02-28 11:55:52.829860,1709117752.8298602,-47.8515625,-28.80859375,-23.4375,-47.36328125,-1.0,1.0,-1.0,0.0,8.m4v,9.0
2024-02-28 11:55:52.833765,1709117752.8337653,-31.25,-32.2265625,-21.484375,-14.6484375,-1.0,1.0,-1.0,0.0,8.m4v,9.0
2024-02-28 11:55:52.837671,1709117752.8376706,-27.34375,-32.71484375,-27.83203125,-25.390625,-1.0,1.0,-1.0,0.0,8.m4v,9.0
2024-02-28 11:55:52.841576,1709117752.8415756,-37.109375,-37.59765625,-35.15625,-34.66796875,-1.0,1.0,-1.0,0.0,8.m4v,9.0
2024-02-28 11:55:52.845481,1709117752.845481,-39.0625,-33.203125,-35.64453125,-33.69140625,-1.0,1.0,-1.0,0.0,8.m4v,9.0
2024-02-28 11:55:52.849394,1709117752.8493938,-44.921875,-34.1796875,-37.109375,-47.8515625,-1.0,1.0,-1.0,0.0,8.m4v,9.0
2024-02-28 11:55:52.853299,1709117752.853299,-41.015625,-26.3671875,-31.73828125,-40.0390625,-1.0,1.0,-1.0,0.0,8.m4v,9.0
2024-02-28 11:55:52.857204,1709117752.8572042,-42.48046875,-13.671875,-22.94921875,-31.25,-1.0,1.0,-1.0,0.0,8.m4v,9.0
2024-02-28 11:55:52.861109,1709117752.8611095,-41.9921875,-26.85546875,-31.73828125,-31.73828125,-1.0,1.0,-1.0,0.0,8.m4v,9.0
2024-02-28 11:55:52.865015,1709117752.8650146,-37.59765625,-43.45703125,-38.0859375,-29.78515625,-1.0,1.0,-1.0,0.0,8.m4v,9.0
2024-02-28 11:55:52.868920,1709117752.8689198,-41.50390625,-37.109375,-40.0390625,-33.69140625,-1.0,1.0,-1.0,0.0,8.m4v,9.0
2024-02-28 11:55:52.872825,1709117752.872825,-37.109375,-42.48046875,-42.96875,-46.38671875,-1.0,1.0,-1.0,0.0,8.m4v,9.0
2024-02-28 11:55:52.876730,1709117752.8767302,-31.25,-56.15234375,-29.78515625,-52.734375,-1.0,1.0,-1.0,0.0,8.m4v,9.0
2024-02-28 11:55:52.880635,1709117752.8806353,-31.73828125,-47.36328125,-23.4375,-37.59765625,-1.0,1.0,-1.0,0.0,8.m4v,9.0
2024-02-28 11:55:52.884541,1709117752.8845406,-41.015625,-31.25,-31.25,-26.3671875,-1.0,1.0,-1.0,0.0,8.m4v,9.0
2024-02-28 11:55:52.888446,1709117752.8884456,-32.71484375,-15.625,-29.78515625,-26.3671875,-1.0,1.0,-1.0,0.0,8.m4v,9.0
2024-02-28 11:55:52.892351,1709117752.892351,-24.4140625,-3.90625,-29.78515625,-32.2265625,-1.0,1.0,-1.0,0.0,8.m4v,9.0
2024-02-28 11:55:52.896264,1709117752.8962636,-37.59765625,-16.6015625,-49.8046875,-39.0625,-1.0,1.0,-1.0,0.0,8.m4v,9.0
2024-02-28 11:55:52.900169,1709117752.900169,-39.55078125,-31.25,-47.8515625,-40.52734375,-1.0,1.0,-1.0,0.0,8.m4v,9.0
2024-02-28 11:55:52.904074,1709117752.904074,-38.57421875,-33.69140625,-32.71484375,-41.50390625,-1.0,1.0,-1.0,0.0,8.m4v,9.0
2024-02-28 11:55:52.907979,1709117752.907979,-38.57421875,-33.69140625,-31.73828125,-33.203125,-1.0,1.0,-1.0,0.0,8.m4v,9.0
2024-02-28 11:55:52.911884,1709117752.9118843,-37.59765625,-31.25,-26.3671875,-29.78515625,-1.0,1.0,-1.0,0.0,8.m4v,9.0
2024-02-28 11:55:52.915789,1709117752.9157894,-55.17578125,-40.0390625,-31.73828125,-43.9453125,-1.0,1.0,-1.0,0.0,8.m4v,9.0
2024-02-28 11:55:52.919695,1709117752.919695,-52.24609375,-41.9921875,-38.0859375,-46.38671875,-1.0,1.0,-1.0,0.0,8.m4v,9.0
2024-02-28 11:55:52.923600,1709117752.9235995,-35.64453125,-42.48046875,-26.85546875,-46.875,-1.0,1.0,-1.0,0.0,8.m4v,9.0
2024-02-28 11:55:52.927505,1709117752.927505,-36.1328125,-43.9453125,-21.484375,-59.08203125,-1.0,1.0,-1.0,0.0,8.m4v,9.0
2024-02-28 11:55:52.931410,1709117752.93141,-41.015625,-39.55078125,-39.0625,-49.8046875,-1.0,1.0,-1.0,0.0,8.m4v,9.0
2024-02-28 11:55:52.935315,1709117752.9353154,-51.7578125,-37.59765625,-60.546875,-42.96875,-1.0,1.0,-1.0,0.0,8.m4v,9.0
2024-02-28 11:55:52.939221,1709117752.939221,-58.10546875,-41.50390625,-53.22265625,-54.19921875,-1.0,1.0,-1.0,0.0,8.m4v,9.0
2024-02-28 11:55:52.943133,1709117752.9431334,-59.5703125,-35.64453125,-32.2265625,-44.921875,-1.0,1.0,-1.0,0.0,8.m4v,9.0
2024-02-28 11:55:52.947039,1709117752.947039,-43.9453125,-27.83203125,-22.4609375,-37.109375,-1.0,1.0,-1.0,0.0,8.m4v,9.0
2024-02-28 11:55:52.950944,1709117752.9509437,-35.64453125,-42.96875,-15.625,-39.0625,-1.0,1.0,-1.0,0.0,8.m4v,9.0
2024-02-28 11:55:52.954849,1709117752.954849,-33.69140625,-41.9921875,-10.25390625,-31.25,-1.0,1.0,-1.0,0.0,8.m4v,9.0
2024-02-28 11:55:52.958754,1709117752.958754,-27.83203125,-21.484375,-12.20703125,-26.85546875,-1.0,1.0,-1.0,0.0,8.m4v,9.0
2024-02-28 11:55:52.962659,1709117752.9626594,-29.78515625,-10.25390625,-25.87890625,-24.90234375,-1.0,1.0,-1.0,0.0,8.m4v,9.0
2024-02-28 11:55:52.966564,1709117752.9665644,-31.73828125,-23.4375,-45.8984375,-34.66796875,-1.0,1.0,-1.0,0.0,8.m4v,9.0
2024-02-28 11:55:52.970470,1709117752.9704697,-33.69140625,-45.41015625,-35.64453125,-41.50390625,-1.0,1.0,-1.0,0.0,8.m4v,9.0
2024-02-28 11:55:52.974375,1709117752.9743748,-43.45703125,-41.015625,-24.90234375,-37.59765625,-1.0,1.0,-1.0,0.0,8.m4v,9.0
2024-02-28 11:55:52.978280,1709117752.97828,-36.62109375,-28.80859375,-33.69140625,-32.71484375,-1.0,1.0,-1.0,0.0,8.m4v,9.0
2024-02-28 11:55:52.982185,1709117752.9821854,-35.64453125,-37.109375,-40.0390625,-41.015625,-1.0,1.0,-1.0,0.0,8.m4v,9.0
2024-02-28 11:55:52.986090,1709117752.9860904,-60.05859375,-49.31640625,-47.8515625,-64.453125,-1.0,1.0,-1.0,0.0,8.m4v,9.0
2024-02-28 11:55:52.990002,1709117752.9900017,-58.10546875,-45.8984375,-45.41015625,-48.828125,-1.0,1.0,-1.0,0.0,8.m4v,9.0
2024-02-28 11:55:52.993907,1709117752.9939067,-42.96875,-28.3203125,-47.8515625,-39.0625,-1.0,1.0,-1.0,0.0,8.m4v,9.0
2024-02-28 11:55:52.997812,1709117752.997812,-47.36328125,-17.08984375,-53.22265625,-51.26953125,-1.0,1.0,-1.0,0.0,8.m4v,9.0
2024-02-28 11:55:53.001717,1709117753.001717,-56.15234375,-32.71484375,-42.48046875,-46.875,-1.0,1.0,-1.0,0.0,8.m4v,9.0
2024-02-28 11:55:53.005622,1709117753.0056224,-52.734375,-41.015625,-23.92578125,-30.2734375,-1.0,1.0,-1.0,0.0,8.m4v,9.0
2024-02-28 11:55:53.009527,1709117753.0095274,-36.1328125,-24.4140625,-22.94921875,-27.34375,-1.0,1.0,-1.0,0.0,8.m4v,9.0
2024-02-28 11:55:53.411845,1709117753.4118454,-34.66796875,-29.78515625,-30.2734375,-39.55078125,-1.0,1.0,-1.0,0.0,8.m4v,9.0
2024-02-28 11:55:53.415751,1709117753.4157507,-42.48046875,-23.92578125,-20.5078125,-34.66796875,-1.0,1.0,-1.0,0.0,8.m4v,9.0
2024-02-28 11:55:53.419656,1709117753.4196558,-52.24609375,-40.0390625,-26.3671875,-37.59765625,-1.0,1.0,-1.0,0.0,8.m4v,9.0
2024-02-28 11:55:53.423561,1709117753.423561,-46.875,-38.57421875,-39.55078125,-38.57421875,-1.0,1.0,-1.0,0.0,8.m4v,9.0
2024-02-28 11:55:53.427466,1709117753.4274662,-43.45703125,-26.85546875,-41.50390625,-37.109375,-1.0,1.0,-1.0,0.0,8.m4v,9.0
2024-02-28 11:55:53.431371,1709117753.4313717,-41.015625,-15.13671875,-36.62109375,-41.9921875,-1.0,1.0,-1.0,0.0,8.m4v,9.0
2024-02-28 11:55:53.435277,1709117753.4352767,-34.66796875,-20.01953125,-28.3203125,-54.19921875,-1.0,1.0,-1.0,0.0,8.m4v,9.0
2024-02-28 11:55:53.439182,1709117753.4391818,-27.34375,-29.296875,-24.4140625,-39.0625,-1.0,1.0,-1.0,0.0,8.m4v,9.0
2024-02-28 11:55:53.443087,1709117753.443087,-41.50390625,-34.66796875,-35.15625,-36.62109375,-1.0,1.0,-1.0,0.0,8.m4v,9.0
2024-02-28 11:55:53.446992,1709117753.4469922,-42.48046875,-25.87890625,-34.1796875,-35.64453125,-1.0,1.0,-1.0,0.0,8.m4v,9.0
2024-02-28 11:55:53.450897,1709117753.4508977,-24.90234375,-17.578125,-25.390625,-22.94921875,-1.0,1.0,-1.0,0.0,8.m4v,9.0
2024-02-28 11:55:53.454803,1709117753.4548025,-35.15625,-40.52734375,-34.1796875,-33.203125,-1.0,1.0,-1.0,0.0,8.m4v,9.0
2024-02-28 11:55:53.458718,1709117753.4587178,-41.9921875,-59.08203125,-40.52734375,-38.57421875,-1.0,1.0,-1.0,0.0,8.m4v,9.0
2024-02-28 11:55:53.462623,1709117753.4626231,-47.8515625,-49.8046875,-41.50390625,-41.50390625,-1.0,1.0,-1.0,0.0,8.m4v,9.0
2024-02-28 11:55:53.466528,1709117753.4665282,-44.921875,-25.87890625,-35.15625,-44.43359375,-1.0,1.0,-1.0,0.0,8.m4v,9.0
2024-02-28 11:55:53.470433,1709117753.4704337,-34.1796875,-18.06640625,-26.85546875,-44.43359375,-1.0,1.0,-1.0,0.0,8.m4v,9.0
2024-02-28 11:55:53.474339,1709117753.4743383,-34.1796875,-27.83203125,-33.69140625,-37.109375,-1.0,1.0,-1.0,0.0,8.m4v,9.0
2024-02-28 11:55:53.478244,1709117753.4782438,-56.15234375,-37.59765625,-45.8984375,-54.19921875,-1.0,1.0,-1.0,0.0,8.m4v,9.0
2024-02-28 11:55:53.482149,1709117753.482149,-54.19921875,-36.1328125,-43.45703125,-52.24609375,-1.0,1.0,-1.0,0.0,8.m4v,9.0
2024-02-28 11:55:53.486054,1709117753.4860542,-46.875,-36.1328125,-44.921875,-35.15625,-1.0,1.0,-1.0,0.0,8.m4v,9.0
2024-02-28 11:55:53.489959,1709117753.4899592,-47.36328125,-44.921875,-42.48046875,-42.48046875,-1.0,1.0,-1.0,0.0,8.m4v,9.0
2024-02-28 11:55:53.493865,1709117753.4938643,-46.38671875,-43.45703125,-32.71484375,-51.26953125,-1.0,1.0,-1.0,0.0,8.m4v,9.0
2024-02-28 11:55:53.497770,1709117753.4977698,-41.9921875,-30.2734375,-25.390625,-45.8984375,-1.0,1.0,-1.0,0.0,8.m4v,9.0
2024-02-28 11:55:53.501675,1709117753.501675,-42.96875,-35.15625,-25.390625,-35.64453125,-1.0,1.0,-1.0,0.0,8.m4v,9.0
2024-02-28 11:55:53.505589,1709117753.5055892,-43.45703125,-38.0859375,-8.7890625,-29.296875,-1.0,1.0,-1.0,0.0,8.m4v,9.0
2024-02-28 11:55:53.509494,1709117753.5094943,-39.55078125,-31.25,-10.25390625,-37.59765625,-1.0,1.0,-1.0,0.0,8.m4v,9.0
2024-02-28 11:55:53.513400,1709117753.5133996,-46.38671875,-25.390625,-40.0390625,-50.29296875,-1.0,1.0,-1.0,0.0,8.m4v,9.0
2024-02-28 11:55:53.517305,1709117753.517305,-51.7578125,-27.83203125,-45.8984375,-46.875,-1.0,1.0,-1.0,0.0,8.m4v,9.0
2024-02-28 11:55:53.521210,1709117753.52121,-55.6640625,-43.9453125,-48.828125,-47.8515625,-1.0,1.0,-1.0,0.0,8.m4v,9.0
2024-02-28 11:55:53.525115,1709117753.5251153,-59.08203125,-47.36328125,-40.52734375,-52.24609375,-1.0,1.0,-1.0,0.0,8.m4v,9.0
2024-02-28 11:55:53.529020,1709117753.5290203,-61.03515625,-29.296875,-20.01953125,-46.875,-1.0,1.0,-1.0,0.0,8.m4v,9.0
2024-02-28 11:55:53.532926,1709117753.5329256,-46.38671875,-21.97265625,-20.5078125,-54.19921875,-1.0,1.0,-1.0,0.0,8.m4v,9.0
2024-02-28 11:55:53.536831,1709117753.536831,-40.52734375,-28.3203125,-36.1328125,-51.7578125,-1.0,1.0,-1.0,0.0,8.m4v,9.0
2024-02-28 11:55:53.540736,1709117753.540736,-46.875,-35.15625,-35.64453125,-35.64453125,-1.0,1.0,-1.0,0.0,8.m4v,9.0
2024-02-28 11:55:53.544641,1709117753.544641,-41.50390625,-32.2265625,-24.90234375,-31.25,-1.0,1.0,-1.0,0.0,8.m4v,9.0
2024-02-28 11:55:53.548546,1709117753.5485463,-28.3203125,-31.25,-14.6484375,-25.87890625,-1.0,1.0,-1.0,0.0,8.m4v,9.0
2024-02-28 11:55:53.552460,1709117753.5524602,-27.34375,-36.1328125,-23.4375,-16.11328125,-1.0,1.0,-1.0,0.0,8.m4v,9.0
2024-02-28 11:55:53.556365,1709117753.5563655,-31.25,-30.2734375,-35.15625,-21.484375,-1.0,1.0,-1.0,0.0,8.m4v,9.0
2024-02-28 11:55:53.560271,1709117753.5602703,-40.52734375,-20.99609375,-42.96875,-32.71484375,-1.0,1.0,-1.0,0.0,8.m4v,9.0
2024-02-28 11:55:53.564176,1709117753.5641758,-37.59765625,-12.6953125,-42.48046875,-25.87890625,-1.0,1.0,-1.0,0.0,8.m4v,9.0
2024-02-28 11:55:53.568081,1709117753.5680811,-34.1796875,-20.01953125,-30.76171875,-27.83203125,-1.0,1.0,-1.0,0.0,8.m4v,9.0
2024-02-28 11:55:53.571986,1709117753.5719862,-38.0859375,-31.73828125,-27.34375,-36.1328125,-1.0,1.0,-1.0,0.0,8.m4v,9.0
2024-02-28 11:55:53.575891,1709117753.5758915,-28.80859375,-42.96875,-38.57421875,-29.296875,-1.0,1.0,-1.0,0.0,8.m4v,9.0
2024-02-28 11:55:53.579797,1709117753.5797966,-25.390625,-55.17578125,-43.45703125,-24.90234375,-1.0,1.0,-1.0,0.0,8.m4v,9.0
2024-02-28 11:55:53.583702,1709117753.5837018,-41.015625,-46.38671875,-26.85546875,-42.48046875,-1.0,1.0,-1.0,0.0,8.m4v,9.0
2024-02-28 11:55:53.587607,1709117753.587607,-48.33984375,-33.203125,-16.6015625,-50.29296875,-1.0,1.0,-1.0,0.0,8.m4v,9.0
2024-02-28 11:55:53.591512,1709117753.5915122,-49.8046875,-25.87890625,-14.16015625,-39.0625,-1.0,1.0,-1.0,0.0,8.m4v,9.0
2024-02-28 11:55:53.595417,1709117753.5954173,-50.29296875,-14.6484375,-19.04296875,-35.64453125,-1.0,1.0,-1.0,0.0,8.m4v,9.0
2024-02-28 11:55:53.599331,1709117753.5993314,-51.26953125,-27.34375,-34.66796875,-38.0859375,-1.0,1.0,-1.0,0.0,8.m4v,9.0
2024-02-28 11:55:53.603236,1709117753.6032364,-53.22265625,-38.57421875,-33.203125,-42.48046875,-1.0,1.0,-1.0,0.0,8.m4v,9.0
2024-02-28 11:55:53.607142,1709117753.6071415,-47.36328125,-33.69140625,-28.80859375,-36.1328125,-1.0,1.0,-1.0,0.0,8.m4v,9.0
2024-02-28 11:55:53.611047,1709117753.6110468,-34.1796875,-37.109375,-20.01953125,-28.3203125,-1.0,1.0,-1.0,0.0,8.m4v,9.0
2024-02-28 11:55:53.614952,1709117753.614952,-29.78515625,-42.96875,-23.92578125,-24.90234375,-1.0,1.0,-1.0,0.0,8.m4v,9.0
2024-02-28 11:55:53.618857,1709117753.6188571,-31.73828125,-31.25,-51.7578125,-23.92578125,-1.0,1.0,-1.0,0.0,8.m4v,9.0
2024-02-28 11:55:53.622762,1709117753.6227624,-28.3203125,-22.94921875,-54.19921875,-29.78515625,-1.0,1.0,-1.0,0.0,8.m4v,9.0
2024-02-28 11:55:53.626668,1709117753.6266675,-38.57421875,-36.1328125,-45.41015625,-45.41015625,-1.0,1.0,-1.0,0.0,8.m4v,9.0
2024-02-28 11:55:53.630573,1709117753.6305728,-38.0859375,-33.203125,-46.875,-44.43359375,-1.0,1.0,-1.0,0.0,8.m4v,9.0
2024-02-28 11:55:53.634478,1709117753.634478,-40.52734375,-11.23046875,-44.43359375,-40.0390625,-1.0,1.0,-1.0,0.0,8.m4v,9.0
2024-02-28 11:55:53.638383,1709117753.6383832,-44.43359375,0.48828125,-31.73828125,-34.66796875,-1.0,1.0,-1.0,0.0,8.m4v,9.0
2024-02-28 11:55:53.642288,1709117753.6422884,-27.34375,-8.30078125,-23.4375,-24.90234375,-1.0,1.0,-1.0,0.0,8.m4v,9.0
2024-02-28 11:55:53.646201,1709117753.646201,-28.3203125,-22.94921875,-27.34375,-30.2734375,-1.0,1.0,-1.0,0.0,8.m4v,9.0
2024-02-28 11:55:53.650106,1709117753.6501062,-32.2265625,-24.90234375,-25.390625,-36.1328125,-1.0,1.0,-1.0,0.0,8.m4v,9.0
2024-02-28 11:55:53.654011,1709117753.6540112,-38.57421875,-24.4140625,-27.83203125,-42.48046875,-1.0,1.0,-1.0,0.0,8.m4v,9.0
2024-02-28 11:55:53.657917,1709117753.6579163,-36.62109375,-37.59765625,-33.203125,-35.15625,-1.0,1.0,-1.0,0.0,8.m4v,9.0
2024-02-28 11:55:53.661822,1709117753.6618216,-35.15625,-55.6640625,-38.0859375,-24.4140625,-1.0,1.0,-1.0,0.0,8.m4v,9.0
2024-02-28 11:55:53.665727,1709117753.665727,-24.4140625,-45.8984375,-37.109375,-27.34375,-1.0,1.0,-1.0,0.0,8.m4v,9.0
2024-02-28 11:55:53.669632,1709117753.669632,-22.94921875,-30.76171875,-39.0625,-33.203125,-1.0,1.0,-1.0,0.0,8.m4v,9.0
2024-02-28 11:55:53.673537,1709117753.6735373,-38.0859375,-36.62109375,-46.38671875,-43.9453125,-1.0,1.0,-1.0,0.0,8.m4v,9.0
2024-02-28 11:55:53.677443,1709117753.6774426,-30.76171875,-37.109375,-42.96875,-48.828125,-1.0,1.0,-1.0,0.0,8.m4v,9.0
2024-02-28 11:55:53.681348,1709117753.6813476,-29.296875,-35.15625,-35.64453125,-36.1328125,-1.0,1.0,-1.0,0.0,8.m4v,9.0
2024-02-28 11:55:53.685253,1709117753.685253,-38.0859375,-33.203125,-42.48046875,-34.66796875,-1.0,1.0,-1.0,0.0,8.m4v,9.0
2024-02-28 11:55:53.689158,1709117753.689158,-31.73828125,-34.1796875,-46.875,-34.66796875,-1.0,1.0,-1.0,0.0,8.m4v,9.0
2024-02-28 11:55:53.693070,1709117753.6930697,-20.01953125,-46.38671875,-43.45703125,-27.83203125,-1.0,1.0,-1.0,0.0,8.m4v,9.0
2024-02-28 11:55:53.696975,1709117753.696975,-18.5546875,-34.1796875,-35.15625,-26.3671875,-1.0,1.0,-1.0,0.0,8.m4v,9.0
2024-02-28 11:55:53.700880,1709117753.70088,-20.5078125,-17.08984375,-19.53125,-28.80859375,-1.0,1.0,-1.0,0.0,8.m4v,9.0
2024-02-28 11:55:53.704785,1709117753.704785,-22.94921875,-12.6953125,-18.5546875,-24.90234375,-1.0,1.0,-1.0,0.0,8.m4v,9.0
2024-02-28 11:55:53.708690,1709117753.7086904,-33.203125,-10.7421875,-37.109375,-35.15625,-1.0,1.0,-1.0,0.0,8.m4v,9.0
2024-02-28 11:55:53.712596,1709117753.7125957,-40.52734375,-28.80859375,-42.48046875,-46.38671875,-1.0,1.0,-1.0,0.0,8.m4v,9.0
2024-02-28 11:55:53.716501,1709117753.7165008,-30.76171875,-34.1796875,-33.69140625,-21.97265625,-1.0,1.0,-1.0,0.0,8.m4v,9.0
2024-02-28 11:55:53.720406,1709117753.720406,-28.3203125,-21.484375,-30.76171875,-18.06640625,-1.0,1.0,-1.0,0.0,8.m4v,9.0
2024-02-28 11:55:53.724311,1709117753.724311,-40.52734375,-25.87890625,-38.0859375,-40.52734375,-1.0,1.0,-1.0,0.0,8.m4v,9.0
2024-02-28 11:55:53.728216,1709117753.7282164,-41.9921875,-37.109375,-40.52734375,-47.36328125,-1.0,1.0,-1.0,0.0,8.m4v,9.0
2024-02-28 11:55:53.732122,1709117753.7321217,-29.78515625,-36.62109375,-29.296875,-34.66796875,-1.0,1.0,-1.0,0.0,8.m4v,9.0
2024-02-28 11:55:53.736027,1709117753.7360268,-22.94921875,-27.83203125,-20.99609375,-23.4375,-1.0,1.0,-1.0,0.0,8.m4v,9.0
2024-02-28 11:55:53.739938,1709117753.739938,-37.59765625,-29.78515625,-25.390625,-31.73828125,-1.0,1.0,-1.0,0.0,8.m4v,9.0
2024-02-28 11:55:53.743843,1709117753.743843,-33.203125,-34.66796875,-39.0625,-29.78515625,-1.0,1.0,-1.0,0.0,8.m4v,9.0
2024-02-28 11:55:53.747748,1709117753.7477484,-19.53125,-25.87890625,-40.0390625,-26.3671875,-1.0,1.0,-1.0,0.0,8.m4v,9.0
2024-02-28 11:55:53.751654,1709117753.7516537,-29.78515625,-16.11328125,-40.52734375,-37.109375,-1.0,1.0,-1.0,0.0,8.m4v,9.0
2024-02-28 11:55:53.755559,1709117753.7555587,-34.1796875,-18.06640625,-41.50390625,-32.71484375,-1.0,1.0,-1.0,0.0,8.m4v,9.0
2024-02-28 11:55:53.759464,1709117753.759464,-27.83203125,-23.4375,-31.25,-21.97265625,-1.0,1.0,-1.0,0.0,8.m4v,9.0
2024-02-28 11:55:53.763369,1709117753.763369,-22.4609375,-24.90234375,-21.484375,-26.85546875,-1.0,1.0,-1.0,0.0,8.m4v,9.0
2024-02-28 11:55:53.767274,1709117753.7672744,-22.4609375,-18.5546875,-30.2734375,-19.04296875,-1.0,1.0,-1.0,0.0,8.m4v,9.0
2024-02-28 11:55:53.771179,1709117753.7711794,-26.85546875,-26.3671875,-43.45703125,-17.08984375,-1.0,1.0,-1.0,0.0,8.m4v,9.0
2024-02-28 11:55:53.775085,1709117753.7750847,-29.296875,-31.25,-46.875,-22.94921875,-1.0,1.0,-1.0,0.0,8.m4v,9.0
2024-02-28 11:55:53.778990,1709117753.7789898,-29.78515625,-30.76171875,-49.31640625,-27.34375,-1.0,1.0,-1.0,0.0,8.m4v,9.0
2024-02-28 11:55:53.782895,1709117753.782895,-42.48046875,-46.875,-36.62109375,-39.55078125,-1.0,1.0,-1.0,0.0,8.m4v,9.0
2024-02-28 11:55:53.786811,1709117753.7868114,-46.38671875,-57.6171875,-26.85546875,-43.9453125,-1.0,1.0,-1.0,0.0,8.m4v,9.0
2024-02-28 11:55:53.790716,1709117753.7907164,-43.9453125,-56.640625,-28.3203125,-32.71484375,-1.0,1.0,-1.0,0.0,8.m4v,9.0
2024-02-28 11:55:53.794622,1709117753.7946217,-38.57421875,-41.50390625,-28.3203125,-19.53125,-1.0,1.0,-1.0,0.0,8.m4v,9.0
2024-02-28 11:55:53.798527,1709117753.7985268,-31.73828125,-33.203125,-34.1796875,-23.4375,-1.0,1.0,-1.0,0.0,8.m4v,9.0
2024-02-28 11:55:53.802432,1709117753.802432,-51.26953125,-35.15625,-27.83203125,-28.80859375,-1.0,1.0,-1.0,0.0,8.m4v,9.0
2024-02-28 11:55:53.806337,1709117753.806337,-52.24609375,-27.83203125,-16.6015625,-25.390625,-1.0,1.0,-1.0,0.0,8.m4v,9.0
2024-02-28 11:55:53.810242,1709117753.8102424,-48.33984375,-24.90234375,-20.5078125,-28.80859375,-1.0,1.0,-1.0,0.0,8.m4v,9.0
2024-02-28 11:55:53.814147,1709117753.8141477,-45.8984375,-32.71484375,-27.83203125,-44.43359375,-1.0,1.0,-1.0,0.0,8.m4v,9.0
2024-02-28 11:55:53.818053,1709117753.8180528,-44.921875,-46.38671875,-44.43359375,-45.8984375,-1.0,1.0,-1.0,0.0,8.m4v,9.0
2024-02-28 11:55:53.821958,1709117753.821958,-53.22265625,-46.38671875,-46.38671875,-34.66796875,-1.0,1.0,-1.0,0.0,8.m4v,9.0
2024-02-28 11:55:53.825863,1709117753.8258631,-56.15234375,-41.015625,-45.41015625,-47.36328125,-1.0,1.0,-1.0,0.0,8.m4v,9.0
2024-02-28 11:55:53.829768,1709117753.8297684,-52.734375,-35.64453125,-39.55078125,-45.8984375,-1.0,1.0,-1.0,0.0,8.m4v,9.0
2024-02-28 11:55:53.833684,1709117753.8336842,-41.015625,-28.3203125,-27.34375,-30.76171875,-1.0,1.0,-1.0,0.0,8.m4v,9.0
2024-02-28 11:55:53.837589,1709117753.8375893,-53.22265625,-33.69140625,-18.06640625,-41.9921875,-1.0,1.0,-1.0,0.0,8.m4v,9.0
2024-02-28 11:55:53.841495,1709117753.8414946,-62.5,-29.78515625,-23.4375,-46.38671875,-1.0,1.0,-1.0,0.0,8.m4v,9.0
2024-02-28 11:55:53.845400,1709117753.8453996,-41.9921875,-24.90234375,-41.50390625,-47.36328125,-1.0,1.0,-1.0,0.0,8.m4v,9.0
2024-02-28 11:55:53.849305,1709117753.849305,-32.2265625,-23.4375,-37.59765625,-35.64453125,-1.0,1.0,-1.0,0.0,8.m4v,9.0
2024-02-28 11:55:53.853210,1709117753.8532102,-37.59765625,-32.2265625,-27.34375,-35.15625,-1.0,1.0,-1.0,0.0,8.m4v,9.0
2024-02-28 11:55:53.857115,1709117753.8571153,-45.41015625,-41.50390625,-21.484375,-39.0625,-1.0,1.0,-1.0,0.0,8.m4v,9.0
2024-02-28 11:55:53.861021,1709117753.8610206,-46.875,-34.66796875,-21.97265625,-29.78515625,-1.0,1.0,-1.0,0.0,8.m4v,9.0
2024-02-28 11:55:53.864926,1709117753.8649256,-39.0625,-25.87890625,-14.16015625,-33.69140625,-1.0,1.0,-1.0,0.0,8.m4v,9.0
2024-02-28 11:55:53.868831,1709117753.868831,-38.0859375,-16.6015625,-10.7421875,-36.62109375,-1.0,1.0,-1.0,0.0,8.m4v,9.0
2024-02-28 11:55:53.872736,1709117753.872736,-40.52734375,-22.94921875,-34.66796875,-36.1328125,-1.0,1.0,-1.0,0.0,8.m4v,9.0
2024-02-28 11:55:53.876641,1709117753.8766413,-40.0390625,-36.1328125,-34.66796875,-44.43359375,-1.0,1.0,-1.0,0.0,8.m4v,9.0
2024-02-28 11:55:53.880555,1709117753.8805554,-43.45703125,-36.62109375,-36.62109375,-52.734375,-1.0,1.0,-1.0,0.0,8.m4v,9.0
2024-02-28 11:55:53.884461,1709117753.8844607,-44.43359375,-29.78515625,-43.45703125,-38.57421875,-1.0,1.0,-1.0,0.0,8.m4v,9.0
2024-02-28 11:55:53.888366,1709117753.8883655,-39.55078125,-21.97265625,-28.3203125,-32.2265625,-1.0,1.0,-1.0,0.0,8.m4v,9.0
2024-02-28 11:55:53.892271,1709117753.892271,-37.59765625,-23.4375,-22.94921875,-31.73828125,-1.0,1.0,-1.0,0.0,8.m4v,9.0
2024-02-28 11:55:53.896176,1709117753.8961763,-32.71484375,-25.390625,-25.87890625,-29.78515625,-1.0,1.0,-1.0,0.0,8.m4v,9.0
2024-02-28 11:55:53.900081,1709117753.9000814,-43.45703125,-19.04296875,-26.3671875,-37.109375,-1.0,1.0,-1.0,0.0,8.m4v,9.0
2024-02-28 11:55:53.903987,1709117753.9039867,-37.109375,-19.04296875,-24.90234375,-33.203125,-1.0,1.0,-1.0,0.0,8.m4v,9.0
2024-02-28 11:55:53.907892,1709117753.9078918,-27.83203125,-22.94921875,-28.80859375,-35.15625,-1.0,1.0,-1.0,0.0,8.m4v,9.0
2024-02-28 11:55:53.911797,1709117753.911797,-39.55078125,-36.1328125,-34.66796875,-41.015625,-1.0,1.0,-1.0,0.0,8.m4v,9.0
2024-02-28 11:55:53.915702,1709117753.915702,-35.64453125,-53.7109375,-32.2265625,-40.52734375,-1.0,1.0,-1.0,0.0,8.m4v,9.0
2024-02-28 11:55:53.919607,1709117753.9196074,-35.64453125,-48.33984375,-33.203125,-36.1328125,-1.0,1.0,-1.0,0.0,8.m4v,9.0
2024-02-28 11:55:53.923512,1709117753.9235125,-40.0390625,-32.2265625,-35.15625,-32.2265625,-1.0,1.0,-1.0,0.0,8.m4v,9.0
2024-02-28 11:55:53.927427,1709117753.9274268,-28.80859375,-19.53125,-22.94921875,-22.4609375,-1.0,1.0,-1.0,0.0,8.m4v,9.0
2024-02-28 11:55:53.931332,1709117753.931332,-39.55078125,-16.11328125,-30.76171875,-37.59765625,-1.0,1.0,-1.0,0.0,8.m4v,9.0
2024-02-28 11:55:53.935237,1709117753.9352372,-55.17578125,-25.87890625,-46.875,-53.7109375,-1.0,1.0,-1.0,0.0,8.m4v,9.0
2024-02-28 11:55:53.939142,1709117753.9391425,-51.7578125,-34.66796875,-48.828125,-47.36328125,-1.0,1.0,-1.0,0.0,8.m4v,9.0
2024-02-28 11:55:53.943048,1709117753.9430478,-43.9453125,-37.59765625,-47.36328125,-45.8984375,-1.0,1.0,-1.0,0.0,8.m4v,9.0
2024-02-28 11:55:53.946953,1709117753.9469528,-47.8515625,-31.73828125,-39.55078125,-45.41015625,-1.0,1.0,-1.0,0.0,8.m4v,9.0
2024-02-28 11:55:53.950858,1709117753.950858,-44.43359375,-22.94921875,-35.64453125,-39.55078125,-1.0,1.0,-1.0,0.0,8.m4v,9.0
2024-02-28 11:55:53.954763,1709117753.9547632,-41.9921875,-19.04296875,-41.015625,-35.64453125,-1.0,1.0,-1.0,0.0,8.m4v,9.0
2024-02-28 11:55:53.958668,1709117753.9586685,-41.015625,-23.92578125,-35.64453125,-37.109375,-1.0,1.0,-1.0,0.0,8.m4v,9.0
2024-02-28 11:55:53.962574,1709117753.9625735,-24.4140625,-26.3671875,-34.1796875,-32.2265625,-1.0,1.0,-1.0,0.0,8.m4v,9.0
2024-02-28 11:55:53.966479,1709117753.9664788,-31.25,-31.25,-43.9453125,-35.15625,-1.0,1.0,-1.0,0.0,8.m4v,9.0
2024-02-28 11:55:53.970384,1709117753.970384,-31.73828125,-38.57421875,-33.203125,-31.73828125,-1.0,1.0,-1.0,0.0,8.m4v,9.0
2024-02-28 11:55:53.974298,1709117753.974298,-20.5078125,-38.57421875,-17.578125,-26.3671875,-1.0,1.0,-1.0,0.0,8.m4v,9.0
2024-02-28 11:55:53.978203,1709117753.978203,-21.484375,-29.78515625,-14.6484375,-30.76171875,-1.0,1.0,-1.0,0.0,8.m4v,9.0
2024-02-28 11:55:53.982108,1709117753.9821084,-29.78515625,-17.578125,-34.1796875,-32.2265625,-1.0,1.0,-1.0,0.0,8.m4v,9.0
2024-02-28 11:55:53.986013,1709117753.9860134,-32.2265625,-14.6484375,-41.50390625,-27.34375,-1.0,1.0,-1.0,0.0,8.m4v,9.0
2024-02-28 11:55:53.989919,1709117753.9899187,-31.73828125,-34.1796875,-32.71484375,-26.85546875,-1.0,1.0,-1.0,0.0,8.m4v,9.0
2024-02-28 11:55:53.993824,1709117753.9938238,-45.41015625,-45.41015625,-33.203125,-32.71484375,-1.0,1.0,-1.0,0.0,8.m4v,9.0
2024-02-28 11:55:54.443003,1709117754.4430027,-56.640625,-46.38671875,-23.92578125,-52.24609375,-1.0,1.0,-1.0,0.0,8.m4v,9.0
2024-02-28 11:55:54.446908,1709117754.446908,-51.7578125,-57.6171875,-13.18359375,-44.921875,-1.0,1.0,-1.0,0.0,8.m4v,9.0
2024-02-28 11:55:54.450813,1709117754.450813,-49.8046875,-53.22265625,-10.7421875,-40.0390625,-1.0,1.0,-1.0,0.0,8.m4v,9.0
2024-02-28 11:55:54.454718,1709117754.4547184,-42.96875,-47.8515625,-13.18359375,-35.15625,-1.0,1.0,-1.0,0.0,8.m4v,9.0
2024-02-28 11:55:54.458623,1709117754.4586234,-38.57421875,-45.8984375,-15.13671875,-37.109375,-1.0,1.0,-1.0,0.0,8.m4v,9.0
2024-02-28 11:55:54.462529,1709117754.4625287,-41.50390625,-29.78515625,-8.7890625,-41.9921875,-1.0,1.0,-1.0,0.0,8.m4v,9.0
2024-02-28 11:55:54.466434,1709117754.4664338,-48.828125,-32.2265625,-16.6015625,-52.24609375,-1.0,1.0,-1.0,0.0,8.m4v,9.0
2024-02-28 11:55:54.470339,1709117754.470339,-43.9453125,-31.73828125,-22.4609375,-34.1796875,-1.0,1.0,-1.0,0.0,8.m4v,9.0
2024-02-28 11:55:54.474244,1709117754.474244,-27.83203125,-21.97265625,-14.16015625,-22.4609375,-1.0,1.0,-1.0,0.0,8.m4v,9.0
2024-02-28 11:55:54.478149,1709117754.4781494,-21.97265625,-15.625,-18.06640625,-31.73828125,-1.0,1.0,-1.0,0.0,8.m4v,9.0
2024-02-28 11:55:54.482055,1709117754.4820547,-32.2265625,-15.625,-22.4609375,-30.76171875,-1.0,1.0,-1.0,0.0,8.m4v,9.0
2024-02-28 11:55:54.485960,1709117754.4859598,-26.3671875,-36.1328125,-17.08984375,-30.76171875,-1.0,1.0,-1.0,0.0,8.m4v,9.0
2024-02-28 11:55:54.489876,1709117754.489876,-24.90234375,-44.43359375,-16.6015625,-40.52734375,-1.0,1.0,-1.0,0.0,8.m4v,9.0
2024-02-28 11:55:54.493781,1709117754.493781,-20.99609375,-42.96875,-18.06640625,-44.43359375,-1.0,1.0,-1.0,0.0,8.m4v,9.0
2024-02-28 11:55:54.497686,1709117754.4976864,-17.578125,-41.50390625,-18.5546875,-36.62109375,-1.0,1.0,-1.0,0.0,8.m4v,9.0
2024-02-28 11:55:54.501591,1709117754.5015914,-26.85546875,-34.66796875,-22.94921875,-34.66796875,-1.0,1.0,-1.0,0.0,8.m4v,9.0
2024-02-28 11:55:54.505497,1709117754.5054967,-12.20703125,-18.06640625,-9.27734375,-27.83203125,-1.0,1.0,-1.0,0.0,8.m4v,9.0
2024-02-28 11:55:54.509402,1709117754.5094018,-18.06640625,-11.23046875,-2.9296875,-27.83203125,-1.0,1.0,-1.0,0.0,8.m4v,9.0
2024-02-28 11:55:54.513307,1709117754.513307,-38.0859375,-13.671875,-16.11328125,-37.59765625,-1.0,1.0,-1.0,0.0,8.m4v,9.0
2024-02-28 11:55:54.517212,1709117754.5172124,-31.25,-22.94921875,-8.30078125,-39.55078125,-1.0,1.0,-1.0,0.0,8.m4v,9.0
2024-02-28 11:55:54.521117,1709117754.5211174,-39.0625,-39.55078125,-6.34765625,-44.921875,-1.0,1.0,-1.0,0.0,8.m4v,9.0
2024-02-28 11:55:54.525023,1709117754.5250227,-50.78125,-53.7109375,-22.94921875,-41.9921875,-1.0,1.0,-1.0,0.0,8.m4v,9.0
2024-02-28 11:55:54.528928,1709117754.5289278,-40.0390625,-49.8046875,-23.4375,-35.64453125,-1.0,1.0,-1.0,0.0,8.m4v,9.0
2024-02-28 11:55:54.532833,1709117754.532833,-29.78515625,-41.9921875,-12.6953125,-36.62109375,-1.0,1.0,-1.0,0.0,8.m4v,9.0
2024-02-28 11:55:54.536749,1709117754.536749,-26.85546875,-42.48046875,-7.32421875,-38.57421875,-1.0,1.0,-1.0,0.0,8.m4v,9.0
2024-02-28 11:55:54.540654,1709117754.540654,-34.66796875,-36.62109375,1.46484375,-38.0859375,-1.0,1.0,-1.0,0.0,8.m4v,9.0
2024-02-28 11:55:54.544559,1709117754.5445592,-45.41015625,-31.25,-6.8359375,-42.48046875,-1.0,1.0,-1.0,0.0,8.m4v,9.0
2024-02-28 11:55:54.548464,1709117754.5484643,-51.7578125,-24.90234375,-20.99609375,-46.875,-1.0,1.0,-1.0,0.0,8.m4v,9.0
2024-02-28 11:55:54.552370,1709117754.5523696,-39.0625,-16.6015625,-12.20703125,-35.15625,-1.0,1.0,-1.0,0.0,8.m4v,9.0
2024-02-28 11:55:54.556275,1709117754.556275,-23.92578125,-20.99609375,-10.7421875,-37.59765625,-1.0,1.0,-1.0,0.0,8.m4v,9.0
2024-02-28 11:55:54.560180,1709117754.56018,-34.66796875,-47.36328125,-15.625,-45.41015625,-1.0,1.0,-1.0,0.0,8.m4v,9.0
2024-02-28 11:55:54.564085,1709117754.5640852,-36.1328125,-59.08203125,-16.6015625,-35.64453125,-1.0,1.0,-1.0,0.0,8.m4v,9.0
2024-02-28 11:55:54.567990,1709117754.5679903,-35.64453125,-43.45703125,-11.71875,-35.64453125,-1.0,1.0,-1.0,0.0,8.m4v,9.0
2024-02-28 11:55:54.571896,1709117754.5718956,-43.45703125,-29.296875,-11.71875,-28.80859375,-1.0,1.0,-1.0,0.0,8.m4v,9.0
2024-02-28 11:55:54.575801,1709117754.575801,-36.1328125,-28.80859375,-23.4375,-32.71484375,-1.0,1.0,-1.0,0.0,8.m4v,9.0
2024-02-28 11:55:54.579706,1709117754.579706,-24.4140625,-34.66796875,-23.4375,-46.38671875,-1.0,1.0,-1.0,0.0,8.m4v,9.0
2024-02-28 11:55:54.583621,1709117754.5836208,-30.76171875,-33.69140625,-14.6484375,-41.9921875,-1.0,1.0,-1.0,0.0,8.m4v,9.0
2024-02-28 11:55:54.587526,1709117754.5875258,-37.109375,-30.2734375,-21.484375,-39.55078125,-1.0,1.0,-1.0,0.0,8.m4v,9.0
2024-02-28 11:55:54.591431,1709117754.5914311,-28.80859375,-28.3203125,-25.390625,-38.0859375,-1.0,1.0,-1.0,0.0,8.m4v,9.0
2024-02-28 11:55:54.595336,1709117754.5953364,-37.59765625,-28.80859375,-17.08984375,-42.48046875,-1.0,1.0,-1.0,0.0,8.m4v,9.0
2024-02-28 11:55:54.599241,1709117754.5992415,-37.109375,-30.2734375,-1.953125,-38.0859375,-1.0,1.0,-1.0,0.0,8.m4v,9.0
2024-02-28 11:55:54.603147,1709117754.6031468,-23.92578125,-29.78515625,-6.34765625,-18.5546875,-1.0,1.0,-1.0,0.0,8.m4v,9.0
2024-02-28 11:55:54.607052,1709117754.6070518,-15.13671875,-24.90234375,-20.5078125,-21.484375,-1.0,1.0,-1.0,0.0,8.m4v,9.0
2024-02-28 11:55:54.610957,1709117754.6109571,-23.92578125,-27.34375,-25.390625,-29.78515625,-1.0,1.0,-1.0,0.0,8.m4v,9.0
2024-02-28 11:55:54.614862,1709117754.6148622,-30.2734375,-43.9453125,-23.4375,-21.97265625,-1.0,1.0,-1.0,0.0,8.m4v,9.0
2024-02-28 11:55:54.618767,1709117754.6187675,-28.3203125,-47.36328125,-14.16015625,-26.3671875,-1.0,1.0,-1.0,0.0,8.m4v,9.0
2024-02-28 11:55:54.622673,1709117754.6226726,-38.57421875,-41.015625,-18.06640625,-25.87890625,-1.0,1.0,-1.0,0.0,8.m4v,9.0
2024-02-28 11:55:54.626578,1709117754.626578,-41.015625,-37.109375,-18.06640625,-19.53125,-1.0,1.0,-1.0,0.0,8.m4v,9.0
2024-02-28 11:55:54.630493,1709117754.6304932,-39.0625,-37.59765625,-15.13671875,-29.296875,-1.0,1.0,-1.0,0.0,8.m4v,9.0
2024-02-28 11:55:54.634398,1709117754.6343982,-34.66796875,-34.1796875,-14.16015625,-44.921875,-1.0,1.0,-1.0,0.0,8.m4v,9.0
2024-02-28 11:55:54.638304,1709117754.6383035,-37.59765625,-24.90234375,-16.6015625,-49.8046875,-1.0,1.0,-1.0,0.0,8.m4v,9.0
2024-02-28 11:55:54.642209,1709117754.6422086,-41.9921875,-20.01953125,-14.6484375,-42.96875,-1.0,1.0,-1.0,0.0,8.m4v,9.0
2024-02-28 11:55:54.646114,1709117754.646114,-40.0390625,-30.76171875,-10.7421875,-36.62109375,-1.0,1.0,-1.0,0.0,8.m4v,9.0
2024-02-28 11:55:54.650019,1709117754.650019,-45.41015625,-38.0859375,-30.76171875,-51.26953125,-1.0,1.0,-1.0,0.0,8.m4v,9.0
2024-02-28 11:55:54.653924,1709117754.6539242,-49.8046875,-24.90234375,-37.59765625,-56.640625,-1.0,1.0,-1.0,0.0,8.m4v,9.0
2024-02-28 11:55:54.657830,1709117754.6578295,-54.19921875,-37.59765625,-35.64453125,-52.734375,-1.0,1.0,-1.0,0.0,8.m4v,9.0
2024-02-28 11:55:54.661735,1709117754.6617346,-52.734375,-43.45703125,-27.83203125,-53.7109375,-1.0,1.0,-1.0,0.0,8.m4v,9.0
2024-02-28 11:55:54.665640,1709117754.66564,-52.24609375,-28.3203125,-19.53125,-60.546875,-1.0,1.0,-1.0,0.0,8.m4v,9.0
2024-02-28 11:55:54.669545,1709117754.669545,-48.33984375,-20.5078125,-14.6484375,-44.921875,-1.0,1.0,-1.0,0.0,8.m4v,9.0
2024-02-28 11:55:54.673450,1709117754.6734502,-41.9921875,-22.4609375,-13.18359375,-33.69140625,-1.0,1.0,-1.0,0.0,8.m4v,9.0
2024-02-28 11:55:54.677365,1709117754.6773646,-46.38671875,-28.3203125,-29.296875,-36.62109375,-1.0,1.0,-1.0,0.0,8.m4v,9.0
2024-02-28 11:55:54.681270,1709117754.6812696,-35.15625,-21.97265625,-40.0390625,-30.76171875,-1.0,1.0,-1.0,0.0,8.m4v,9.0
2024-02-28 11:55:54.685175,1709117754.685175,-38.0859375,-23.4375,-28.3203125,-29.296875,-1.0,1.0,-1.0,0.0,8.m4v,9.0
2024-02-28 11:55:54.689080,1709117754.6890802,-49.8046875,-33.203125,-18.06640625,-25.87890625,-1.0,1.0,-1.0,0.0,8.m4v,9.0
2024-02-28 11:55:54.692985,1709117754.6929853,-42.96875,-39.0625,-14.16015625,-39.0625,-1.0,1.0,-1.0,0.0,8.m4v,9.0
2024-02-28 11:55:54.696891,1709117754.6968906,-32.2265625,-35.64453125,-6.34765625,-40.0390625,-1.0,1.0,-1.0,0.0,8.m4v,9.0
2024-02-28 11:55:54.700796,1709117754.7007957,-25.390625,-32.2265625,-8.30078125,-21.97265625,-1.0,1.0,-1.0,0.0,8.m4v,9.0
2024-02-28 11:55:54.704701,1709117754.704701,-41.9921875,-41.9921875,-28.80859375,-31.73828125,-1.0,1.0,-1.0,0.0,8.m4v,9.0
2024-02-28 11:55:54.708606,1709117754.708606,-49.8046875,-49.31640625,-24.4140625,-48.33984375,-1.0,1.0,-1.0,0.0,8.m4v,9.0
2024-02-28 11:55:54.712511,1709117754.7125113,-40.0390625,-43.9453125,-26.85546875,-45.41015625,-1.0,1.0,-1.0,0.0,8.m4v,9.0
2024-02-28 11:55:54.716416,1709117754.7164164,-40.0390625,-29.78515625,-40.52734375,-36.62109375,-1.0,1.0,-1.0,0.0,8.m4v,9.0
2024-02-28 11:55:54.720322,1709117754.7203217,-47.8515625,-21.484375,-28.3203125,-37.59765625,-1.0,1.0,-1.0,0.0,8.m4v,9.0
2024-02-28 11:55:54.724235,1709117754.7242353,-47.8515625,-19.04296875,-17.08984375,-42.96875,-1.0,1.0,-1.0,0.0,8.m4v,9.0
2024-02-28 11:55:54.728141,1709117754.7281406,-31.25,-23.4375,-20.99609375,-37.59765625,-1.0,1.0,-1.0,0.0,8.m4v,9.0
2024-02-28 11:55:54.732046,1709117754.7320457,-31.25,-47.8515625,-34.66796875,-31.73828125,-1.0,1.0,-1.0,0.0,8.m4v,9.0
2024-02-28 11:55:54.735951,1709117754.735951,-37.109375,-78.61328125,-27.83203125,-32.71484375,-1.0,1.0,-1.0,0.0,8.m4v,9.0
2024-02-28 11:55:54.739856,1709117754.739856,-33.69140625,-61.5234375,-12.6953125,-34.1796875,-1.0,1.0,-1.0,0.0,8.m4v,9.0
2024-02-28 11:55:54.743761,1709117754.7437613,-32.71484375,-25.390625,-19.53125,-42.48046875,-1.0,1.0,-1.0,0.0,8.m4v,9.0
2024-02-28 11:55:54.747667,1709117754.7476666,-36.1328125,-11.71875,-34.66796875,-40.0390625,-1.0,1.0,-1.0,0.0,8.m4v,9.0
2024-02-28 11:55:54.751572,1709117754.7515717,-39.55078125,-18.06640625,-32.71484375,-27.34375,-1.0,1.0,-1.0,0.0,8.m4v,9.0
2024-02-28 11:55:54.755477,1709117754.755477,-43.45703125,-30.76171875,-21.97265625,-33.203125,-1.0,1.0,-1.0,0.0,8.m4v,9.0
2024-02-28 11:55:54.759382,1709117754.759382,-37.109375,-33.203125,-24.90234375,-33.69140625,-1.0,1.0,-1.0,0.0,8.m4v,9.0
2024-02-28 11:55:54.763287,1709117754.7632873,-40.0390625,-38.57421875,-28.80859375,-33.203125,-1.0,1.0,-1.0,0.0,8.m4v,9.0
2024-02-28 11:55:54.767192,1709117754.7671924,-55.17578125,-44.43359375,-21.97265625,-39.0625,-1.0,1.0,-1.0,0.0,8.m4v,9.0
2024-02-28 11:55:54.771105,1709117754.7711048,-48.33984375,-41.9921875,-22.4609375,-33.203125,-1.0,1.0,-1.0,0.0,8.m4v,9.0
2024-02-28 11:55:54.775010,1709117754.77501,-52.24609375,-49.8046875,-25.87890625,-23.4375,-1.0,1.0,-1.0,0.0,8.m4v,9.0
2024-02-28 11:55:54.778915,1709117754.7789152,-54.19921875,-51.7578125,-21.97265625,-17.08984375,-1.0,1.0,-1.0,0.0,8.m4v,9.0
2024-02-28 11:55:54.782820,1709117754.7828202,-47.36328125,-53.7109375,-12.20703125,-28.3203125,-1.0,1.0,-1.0,0.0,8.m4v,9.0
2024-02-28 11:55:54.786726,1709117754.7867255,-48.33984375,-61.5234375,7.32421875,-38.0859375,-1.0,1.0,-1.0,0.0,8.m4v,9.0
2024-02-28 11:55:54.790631,1709117754.7906306,-43.45703125,-56.15234375,10.25390625,-35.64453125,-1.0,1.0,-1.0,0.0,8.m4v,9.0
2024-02-28 11:55:54.794536,1709117754.794536,-38.0859375,-49.8046875,-10.25390625,-37.59765625,-1.0,1.0,-1.0,0.0,8.m4v,9.0
2024-02-28 11:55:54.798441,1709117754.798441,-23.92578125,-40.52734375,-9.765625,-37.59765625,-1.0,1.0,-1.0,0.0,8.m4v,9.0
2024-02-28 11:55:54.802346,1709117754.8023462,-21.97265625,-41.9921875,-8.7890625,-23.4375,-1.0,1.0,-1.0,0.0,8.m4v,9.0
2024-02-28 11:55:54.806252,1709117754.8062515,-47.8515625,-58.10546875,-27.83203125,-26.3671875,-1.0,1.0,-1.0,0.0,8.m4v,9.0
2024-02-28 11:55:54.810157,1709117754.8101566,-46.875,-55.17578125,-37.59765625,-40.52734375,-1.0,1.0,-1.0,0.0,8.m4v,9.0
2024-02-28 11:55:54.814062,1709117754.814062,-49.8046875,-49.31640625,-23.92578125,-40.52734375,-1.0,1.0,-1.0,0.0,8.m4v,9.0
2024-02-28 11:55:54.817974,1709117754.817974,-56.640625,-56.15234375,-17.08984375,-51.26953125,-1.0,1.0,-1.0,0.0,8.m4v,9.0
2024-02-28 11:55:54.821879,1709117754.8218791,-52.24609375,-57.12890625,-3.90625,-43.45703125,-1.0,1.0,-1.0,0.0,8.m4v,9.0
2024-02-28 11:55:54.825784,1709117754.8257844,-49.8046875,-50.29296875,2.44140625,-31.25,-1.0,1.0,-1.0,0.0,8.m4v,9.0
2024-02-28 11:55:54.829690,1709117754.8296895,-39.0625,-47.8515625,-14.16015625,-38.0859375,-1.0,1.0,-1.0,0.0,8.m4v,9.0
2024-02-28 11:55:54.833595,1709117754.8335948,-31.73828125,-38.57421875,-23.4375,-39.55078125,-1.0,1.0,-1.0,0.0,8.m4v,9.0
2024-02-28 11:55:54.837500,1709117754.8375,-42.48046875,-32.2265625,-20.01953125,-41.50390625,-1.0,1.0,-1.0,0.0,8.m4v,9.0
2024-02-28 11:55:54.841405,1709117754.8414052,-54.19921875,-38.57421875,-23.4375,-41.50390625,-1.0,1.0,-1.0,0.0,8.m4v,9.0
2024-02-28 11:55:54.845310,1709117754.8453102,-46.875,-53.22265625,-23.92578125,-46.875,-1.0,1.0,-1.0,0.0,8.m4v,9.0
2024-02-28 11:55:54.849216,1709117754.8492155,-34.1796875,-48.828125,-14.6484375,-35.64453125,-1.0,1.0,-1.0,0.0,8.m4v,9.0
2024-02-28 11:55:54.853121,1709117754.8531206,-36.1328125,-41.50390625,-28.80859375,-37.109375,-1.0,1.0,-1.0,0.0,8.m4v,9.0
2024-02-28 11:55:54.857026,1709117754.857026,-40.0390625,-40.0390625,-43.45703125,-51.26953125,-1.0,1.0,-1.0,0.0,8.m4v,9.0
2024-02-28 11:55:54.860931,1709117754.8609312,-28.80859375,-22.94921875,-37.59765625,-39.55078125,-1.0,1.0,-1.0,0.0,8.m4v,9.0
2024-02-28 11:55:54.864843,1709117754.8648431,-37.59765625,-15.13671875,-21.484375,-26.85546875,-1.0,1.0,-1.0,0.0,8.m4v,9.0
2024-02-28 11:55:54.868748,1709117754.8687482,-40.0390625,-23.4375,-18.5546875,-27.83203125,-1.0,1.0,-1.0,0.0,8.m4v,9.0
2024-02-28 11:55:54.872653,1709117754.8726535,-17.578125,-29.78515625,-9.765625,-31.73828125,-1.0,1.0,-1.0,0.0,8.m4v,9.0
2024-02-28 11:55:54.876559,1709117754.8765583,-23.4375,-16.6015625,-9.765625,-26.85546875,-1.0,1.0,-1.0,0.0,8.m4v,9.0
2024-02-28 11:55:54.880464,1709117754.8804638,-36.1328125,-12.6953125,-30.2734375,-31.73828125,-1.0,1.0,-1.0,0.0,8.m4v,9.0
2024-02-28 11:55:54.884369,1709117754.884369,-36.62109375,-20.5078125,-22.4609375,-33.203125,-1.0,1.0,-1.0,0.0,8.m4v,9.0
2024-02-28 11:55:54.888274,1709117754.8882742,-31.73828125,-27.83203125,-17.08984375,-26.85546875,-1.0,1.0,-1.0,0.0,8.m4v,9.0
2024-02-28 11:55:54.892179,1709117754.8921793,-33.69140625,-41.50390625,-27.83203125,-38.0859375,-1.0,1.0,-1.0,0.0,8.m4v,9.0
2024-02-28 11:55:54.896085,1709117754.8960843,-30.76171875,-41.015625,-23.92578125,-51.26953125,-1.0,1.0,-1.0,0.0,8.m4v,9.0
2024-02-28 11:55:54.899990,1709117754.8999898,-36.1328125,-41.50390625,-20.5078125,-52.734375,-1.0,1.0,-1.0,0.0,8.m4v,9.0
2024-02-28 11:55:54.903895,1709117754.903895,-42.96875,-42.48046875,-21.97265625,-35.15625,-1.0,1.0,-1.0,0.0,8.m4v,9.0
2024-02-28 11:55:54.907800,1709117754.9078002,-37.59765625,-34.1796875,-28.3203125,-26.85546875,-1.0,1.0,-1.0,0.0,8.m4v,9.0
2024-02-28 11:55:54.911716,1709117754.9117155,-39.55078125,-29.296875,-34.66796875,-28.80859375,-1.0,1.0,-1.0,0.0,8.m4v,9.0
2024-02-28 11:55:54.915621,1709117754.9156208,-30.76171875,-30.2734375,-28.3203125,-19.53125,-1.0,1.0,-1.0,0.0,8.m4v,9.0
2024-02-28 11:55:54.919526,1709117754.919526,-17.08984375,-33.69140625,-24.90234375,-25.87890625,-1.0,1.0,-1.0,0.0,8.m4v,9.0
2024-02-28 11:55:54.923431,1709117754.9234312,-20.01953125,-39.55078125,-31.73828125,-41.50390625,-1.0,1.0,-1.0,0.0,8.m4v,9.0
2024-02-28 11:55:54.927336,1709117754.9273365,-24.90234375,-40.0390625,-31.73828125,-38.57421875,-1.0,1.0,-1.0,0.0,8.m4v,9.0
2024-02-28 11:55:54.931242,1709117754.9312415,-27.83203125,-30.76171875,-24.90234375,-34.66796875,-1.0,1.0,-1.0,0.0,8.m4v,9.0
2024-02-28 11:55:54.935147,1709117754.9351468,-18.5546875,-31.73828125,-26.85546875,-54.19921875,-1.0,1.0,-1.0,0.0,8.m4v,9.0
2024-02-28 11:55:54.939052,1709117754.939052,-18.06640625,-39.55078125,-40.52734375,-54.19921875,-1.0,1.0,-1.0,0.0,8.m4v,9.0
2024-02-28 11:55:54.942957,1709117754.9429572,-40.0390625,-30.2734375,-43.9453125,-29.78515625,-1.0,1.0,-1.0,0.0,8.m4v,9.0
2024-02-28 11:55:54.946862,1709117754.9468625,-37.59765625,-27.34375,-29.296875,-29.296875,-1.0,1.0,-1.0,0.0,8.m4v,9.0
2024-02-28 11:55:54.950768,1709117754.9507675,-35.15625,-32.71484375,-30.76171875,-31.73828125,-1.0,1.0,-1.0,0.0,8.m4v,9.0
2024-02-28 11:55:54.954673,1709117754.9546728,-51.26953125,-34.1796875,-47.8515625,-41.015625,-1.0,1.0,-1.0,0.0,8.m4v,9.0
2024-02-28 11:55:54.958588,1709117754.9585876,-46.875,-30.76171875,-44.43359375,-47.8515625,-1.0,1.0,-1.0,0.0,8.m4v,9.0
2024-02-28 11:55:54.962493,1709117754.962493,-44.921875,-32.71484375,-29.296875,-40.52734375,-1.0,1.0,-1.0,0.0,8.m4v,9.0
2024-02-28 11:55:54.966398,1709117754.966398,-50.78125,-43.45703125,-20.5078125,-33.69140625,-1.0,1.0,-1.0,0.0,8.m4v,9.0
2024-02-28 11:55:54.970303,1709117754.9703033,-42.48046875,-39.55078125,-18.5546875,-29.296875,-1.0,1.0,-1.0,0.0,8.m4v,9.0
2024-02-28 11:55:54.974208,1709117754.9742084,-36.1328125,-36.1328125,-29.78515625,-42.96875,-1.0,1.0,-1.0,0.0,8.m4v,9.0
2024-02-28 11:55:54.978114,1709117754.9781137,-41.9921875,-42.96875,-29.296875,-43.45703125,-1.0,1.0,-1.0,0.0,8.m4v,9.0
2024-02-28 11:55:54.982019,1709117754.9820187,-41.015625,-42.96875,-29.78515625,-27.83203125,-1.0,1.0,-1.0,0.0,8.m4v,9.0
2024-02-28 11:55:54.985924,1709117754.985924,-44.43359375,-44.921875,-44.921875,-33.203125,-1.0,1.0,-1.0,0.0,8.m4v,9.0
2024-02-28 11:55:54.989829,1709117754.989829,-51.26953125,-40.52734375,-42.96875,-43.9453125,-1.0,1.0,-1.0,0.0,8.m4v,9.0
2024-02-28 11:55:54.993734,1709117754.9937344,-54.6875,-38.57421875,-24.4140625,-40.52734375,-1.0,1.0,-1.0,0.0,8.m4v,9.0
2024-02-28 11:55:54.997640,1709117754.9976397,-47.8515625,-44.921875,-21.484375,-39.55078125,-1.0,1.0,-1.0,0.0,8.m4v,9.0
2024-02-28 11:55:55.001545,1709117755.0015447,-43.45703125,-35.15625,-26.3671875,-43.45703125,-1.0,1.0,-1.0,0.0,8.m4v,9.0
2024-02-28 11:55:55.005459,1709117755.005459,-41.50390625,-24.4140625,-30.2734375,-36.62109375,-1.0,1.0,-1.0,0.0,8.m4v,9.0
2024-02-28 11:55:55.009364,1709117755.009364,-41.9921875,-27.83203125,-23.92578125,-30.76171875,-1.0,1.0,-1.0,0.0,8.m4v,9.0
2024-02-28 11:55:55.013269,1709117755.0132694,-35.15625,-36.1328125,-20.99609375,-33.69140625,-1.0,1.0,-1.0,0.0,8.m4v,9.0
2024-02-28 11:55:55.017174,1709117755.0171745,-45.41015625,-42.48046875,-42.96875,-35.64453125,-1.0,1.0,-1.0,0.0,8.m4v,9.0
2024-02-28 11:55:55.021080,1709117755.0210798,-65.4296875,-39.0625,-53.7109375,-40.0390625,-1.0,1.0,-1.0,0.0,8.m4v,9.0
2024-02-28 11:55:55.024985,1709117755.0249848,-49.31640625,-28.80859375,-53.22265625,-42.96875,-1.0,1.0,-1.0,0.0,8.m4v,9.0
2024-02-28 11:55:55.474173,1709117755.4741728,-32.71484375,-30.2734375,-39.0625,-37.109375,-1.0,1.0,-1.0,0.0,8.m4v,9.0
2024-02-28 11:55:55.478078,1709117755.478078,-27.83203125,-23.92578125,-46.875,-38.0859375,-1.0,1.0,-1.0,0.0,8.m4v,9.0
2024-02-28 11:55:55.481983,1709117755.4819832,-27.83203125,-17.08984375,-43.45703125,-35.64453125,-1.0,1.0,-1.0,0.0,8.m4v,9.0
2024-02-28 11:55:55.485888,1709117755.4858882,-37.109375,-19.53125,-30.2734375,-37.109375,-1.0,1.0,-1.0,0.0,8.m4v,9.0
2024-02-28 11:55:55.489794,1709117755.4897935,-41.015625,-20.99609375,-16.6015625,-42.96875,-1.0,1.0,-1.0,0.0,8.m4v,9.0
2024-02-28 11:55:55.493699,1709117755.4936986,-37.109375,-25.390625,-14.6484375,-49.31640625,-1.0,1.0,-1.0,0.0,8.m4v,9.0
2024-02-28 11:55:55.497604,1709117755.497604,-43.45703125,-33.203125,-18.5546875,-45.41015625,-1.0,1.0,-1.0,0.0,8.m4v,9.0
2024-02-28 11:55:55.501509,1709117755.5015092,-47.36328125,-38.57421875,-23.92578125,-41.50390625,-1.0,1.0,-1.0,0.0,8.m4v,9.0
2024-02-28 11:55:55.505414,1709117755.5054142,-42.96875,-46.875,-33.69140625,-32.71484375,-1.0,1.0,-1.0,0.0,8.m4v,9.0
2024-02-28 11:55:55.509320,1709117755.5093195,-38.0859375,-46.38671875,-43.45703125,-43.9453125,-1.0,1.0,-1.0,0.0,8.m4v,9.0
2024-02-28 11:55:55.513225,1709117755.5132246,-39.0625,-30.76171875,-46.875,-42.96875,-1.0,1.0,-1.0,0.0,8.m4v,9.0
2024-02-28 11:55:55.517130,1709117755.51713,-41.50390625,-24.4140625,-38.0859375,-37.59765625,-1.0,1.0,-1.0,0.0,8.m4v,9.0
2024-02-28 11:55:55.521043,1709117755.521043,-40.52734375,-29.78515625,-37.109375,-37.109375,-1.0,1.0,-1.0,0.0,8.m4v,9.0
2024-02-28 11:55:55.524948,1709117755.5249484,-37.109375,-30.2734375,-39.55078125,-33.203125,-1.0,1.0,-1.0,0.0,8.m4v,9.0
2024-02-28 11:55:55.528853,1709117755.5288534,-42.96875,-37.109375,-31.73828125,-32.2265625,-1.0,1.0,-1.0,0.0,8.m4v,9.0
2024-02-28 11:55:55.532759,1709117755.5327587,-34.1796875,-40.52734375,-21.97265625,-32.71484375,-1.0,1.0,-1.0,0.0,8.m4v,9.0
2024-02-28 11:55:55.536664,1709117755.5366638,-36.1328125,-46.38671875,-22.94921875,-39.55078125,-1.0,1.0,-1.0,0.0,8.m4v,9.0
2024-02-28 11:55:55.540569,1709117755.540569,-49.8046875,-47.8515625,-29.78515625,-35.64453125,-1.0,1.0,-1.0,0.0,8.m4v,9.0
2024-02-28 11:55:55.544474,1709117755.544474,-41.015625,-43.9453125,-35.15625,-38.57421875,-1.0,1.0,-1.0,0.0,8.m4v,9.0
2024-02-28 11:55:55.548379,1709117755.5483794,-36.1328125,-49.31640625,-41.50390625,-45.41015625,-1.0,1.0,-1.0,0.0,8.m4v,9.0
2024-02-28 11:55:55.552285,1709117755.5522847,-32.71484375,-41.50390625,-36.62109375,-41.50390625,-1.0,1.0,-1.0,0.0,8.m4v,9.0
2024-02-28 11:55:55.556190,1709117755.5561898,-29.296875,-27.83203125,-31.73828125,-35.64453125,-1.0,1.0,-1.0,0.0,8.m4v,9.0
2024-02-28 11:55:55.560095,1709117755.560095,-30.2734375,-30.2734375,-28.80859375,-30.2734375,-1.0,1.0,-1.0,0.0,8.m4v,9.0
2024-02-28 11:55:55.564000,1709117755.564,-34.1796875,-40.0390625,-32.71484375,-36.1328125,-1.0,1.0,-1.0,0.0,8.m4v,9.0
2024-02-28 11:55:55.567912,1709117755.567912,-31.73828125,-31.73828125,-35.64453125,-45.8984375,-1.0,1.0,-1.0,0.0,8.m4v,9.0
2024-02-28 11:55:55.571817,1709117755.5718174,-41.50390625,-21.97265625,-34.1796875,-40.0390625,-1.0,1.0,-1.0,0.0,8.m4v,9.0
2024-02-28 11:55:55.575722,1709117755.5757225,-49.31640625,-32.71484375,-40.0390625,-36.62109375,-1.0,1.0,-1.0,0.0,8.m4v,9.0
2024-02-28 11:55:55.579628,1709117755.5796278,-47.36328125,-39.0625,-46.875,-39.55078125,-1.0,1.0,-1.0,0.0,8.m4v,9.0
2024-02-28 11:55:55.583533,1709117755.5835328,-39.55078125,-41.9921875,-35.15625,-35.64453125,-1.0,1.0,-1.0,0.0,8.m4v,9.0
2024-02-28 11:55:55.587438,1709117755.587438,-37.109375,-36.62109375,-21.97265625,-35.64453125,-1.0,1.0,-1.0,0.0,8.m4v,9.0
2024-02-28 11:55:55.591343,1709117755.5913432,-34.66796875,-37.109375,-25.87890625,-30.76171875,-1.0,1.0,-1.0,0.0,8.m4v,9.0
2024-02-28 11:55:55.595248,1709117755.5952485,-38.57421875,-45.41015625,-26.85546875,-23.92578125,-1.0,1.0,-1.0,0.0,8.m4v,9.0
2024-02-28 11:55:55.599154,1709117755.5991538,-44.43359375,-46.38671875,-23.92578125,-27.83203125,-1.0,1.0,-1.0,0.0,8.m4v,9.0
2024-02-28 11:55:55.603059,1709117755.6030588,-39.0625,-51.26953125,-26.85546875,-29.78515625,-1.0,1.0,-1.0,0.0,8.m4v,9.0
2024-02-28 11:55:55.606964,1709117755.606964,-45.8984375,-52.734375,-28.3203125,-36.1328125,-1.0,1.0,-1.0,0.0,8.m4v,9.0
2024-02-28 11:55:55.610869,1709117755.6108692,-45.41015625,-48.33984375,-33.203125,-45.8984375,-1.0,1.0,-1.0,0.0,8.m4v,9.0
2024-02-28 11:55:55.614780,1709117755.6147802,-42.96875,-46.38671875,-43.45703125,-45.41015625,-1.0,1.0,-1.0,0.0,8.m4v,9.0
2024-02-28 11:55:55.618685,1709117755.6186855,-38.0859375,-35.64453125,-43.9453125,-50.29296875,-1.0,1.0,-1.0,0.0,8.m4v,9.0
2024-02-28 11:55:55.622591,1709117755.6225903,-39.55078125,-23.4375,-40.0390625,-48.33984375,-1.0,1.0,-1.0,0.0,8.m4v,9.0
2024-02-28 11:55:55.626496,1709117755.6264958,-51.26953125,-28.3203125,-54.19921875,-34.1796875,-1.0,1.0,-1.0,0.0,8.m4v,9.0
2024-02-28 11:55:55.630401,1709117755.630401,-47.8515625,-22.4609375,-47.8515625,-30.2734375,-1.0,1.0,-1.0,0.0,8.m4v,9.0
2024-02-28 11:55:55.634306,1709117755.6343062,-34.1796875,-13.671875,-33.203125,-25.87890625,-1.0,1.0,-1.0,0.0,8.m4v,9.0
2024-02-28 11:55:55.638211,1709117755.6382113,-27.83203125,-17.08984375,-33.203125,-33.69140625,-1.0,1.0,-1.0,0.0,8.m4v,9.0
2024-02-28 11:55:55.642117,1709117755.6421163,-30.2734375,-26.3671875,-30.2734375,-37.109375,-1.0,1.0,-1.0,0.0,8.m4v,9.0
2024-02-28 11:55:55.646022,1709117755.6460218,-37.109375,-35.15625,-28.80859375,-31.25,-1.0,1.0,-1.0,0.0,8.m4v,9.0
2024-02-28 11:55:55.649927,1709117755.649927,-38.57421875,-36.1328125,-37.59765625,-43.45703125,-1.0,1.0,-1.0,0.0,8.m4v,9.0
2024-02-28 11:55:55.653832,1709117755.6538322,-53.7109375,-40.52734375,-42.48046875,-70.3125,-1.0,1.0,-1.0,0.0,8.m4v,9.0
2024-02-28 11:55:55.657737,1709117755.6577373,-66.40625,-40.0390625,-38.57421875,-79.1015625,-1.0,1.0,-1.0,0.0,8.m4v,9.0
2024-02-28 11:55:55.661654,1709117755.6616535,-87.890625,-45.41015625,-48.33984375,-94.7265625,-1.0,1.0,-1.0,0.0,8.m4v,9.0
2024-02-28 11:55:55.665559,1709117755.6655586,-109.375,-47.8515625,-49.8046875,-121.58203125,-1.0,1.0,-1.0,0.0,8.m4v,9.0
2024-02-28 11:55:55.669464,1709117755.669464,-115.234375,-42.96875,-50.78125,-133.30078125,-1.0,1.0,-1.0,0.0,8.m4v,9.0
2024-02-28 11:55:55.673369,1709117755.6733692,-123.53515625,-47.36328125,-50.29296875,-134.765625,-1.0,1.0,-1.0,0.0,8.m4v,9.0
2024-02-28 11:55:55.677274,1709117755.6772742,-146.97265625,-48.828125,-45.41015625,-155.2734375,-1.0,1.0,-1.0,0.0,8.m4v,9.0
2024-02-28 11:55:55.681180,1709117755.6811795,-172.8515625,-49.31640625,-52.734375,-176.7578125,-1.0,1.0,-1.0,0.0,8.m4v,9.0
2024-02-28 11:55:55.685085,1709117755.6850846,-180.17578125,-53.22265625,-56.640625,-187.01171875,-1.0,1.0,-1.0,0.0,8.m4v,9.0
2024-02-28 11:55:55.688990,1709117755.68899,-188.4765625,-59.08203125,-57.12890625,-190.4296875,-1.0,1.0,-1.0,0.0,8.m4v,9.0
2024-02-28 11:55:55.692895,1709117755.692895,-208.984375,-62.98828125,-72.265625,-208.49609375,-1.0,1.0,-1.0,0.0,8.m4v,9.0
2024-02-28 11:55:55.696800,1709117755.6968002,-226.5625,-65.4296875,-75.68359375,-227.5390625,-1.0,1.0,-1.0,0.0,8.m4v,9.0
2024-02-28 11:55:55.700706,1709117755.7007055,-215.8203125,-61.03515625,-60.546875,-219.23828125,-1.0,1.0,-1.0,0.0,8.m4v,9.0
2024-02-28 11:55:55.704611,1709117755.7046106,-229.4921875,-60.546875,-77.63671875,-230.46875,-1.0,1.0,-1.0,0.0,8.m4v,9.0
2024-02-28 11:55:55.708526,1709117755.708526,-240.72265625,-74.21875,-113.28125,-242.67578125,-1.0,1.0,-1.0,0.0,8.m4v,9.0
2024-02-28 11:55:55.712431,1709117755.7124312,-254.39453125,-72.75390625,-111.81640625,-257.8125,-1.0,1.0,-1.0,0.0,8.m4v,9.0
2024-02-28 11:55:55.716336,1709117755.7163365,-270.99609375,-60.05859375,-64.453125,-271.484375,-1.0,1.0,-1.0,0.0,8.m4v,9.0
2024-02-28 11:55:55.720242,1709117755.7202415,-268.06640625,-73.2421875,-41.9921875,-267.578125,-1.0,1.0,-1.0,0.0,8.m4v,9.0
2024-02-28 11:55:55.724147,1709117755.7241466,-273.92578125,-81.54296875,-52.24609375,-270.99609375,-1.0,1.0,-1.0,0.0,8.m4v,9.0
2024-02-28 11:55:55.728052,1709117755.728052,-269.04296875,-57.12890625,-62.5,-283.203125,-1.0,1.0,-1.0,0.0,8.m4v,9.0
2024-02-28 11:55:55.731957,1709117755.731957,-263.18359375,-53.22265625,-76.171875,-277.34375,-1.0,1.0,-1.0,0.0,8.m4v,9.0
2024-02-28 11:55:55.735862,1709117755.7358625,-260.7421875,-67.87109375,-79.1015625,-259.27734375,-1.0,1.0,-1.0,0.0,8.m4v,9.0
2024-02-28 11:55:55.739768,1709117755.7397676,-255.37109375,-57.12890625,-81.54296875,-262.6953125,-1.0,1.0,-1.0,0.0,8.m4v,9.0
2024-02-28 11:55:55.743673,1709117755.7436726,-273.92578125,-50.29296875,-91.30859375,-270.01953125,-1.0,1.0,-1.0,0.0,8.m4v,9.0
2024-02-28 11:55:55.747578,1709117755.747578,-268.5546875,-45.41015625,-76.66015625,-260.25390625,-1.0,1.0,-1.0,0.0,8.m4v,9.0
2024-02-28 11:55:55.751483,1709117755.751483,-236.81640625,-37.109375,-67.3828125,-244.62890625,-1.0,1.0,-1.0,0.0,8.m4v,9.0
2024-02-28 11:55:55.755398,1709117755.755398,-219.7265625,-62.98828125,-60.546875,-228.02734375,-1.0,1.0,-1.0,0.0,8.m4v,9.0
2024-02-28 11:55:55.759303,1709117755.759303,-219.23828125,-76.66015625,-42.96875,-232.421875,-1.0,1.0,-1.0,0.0,8.m4v,9.0
2024-02-28 11:55:55.763208,1709117755.7632084,-208.0078125,-53.22265625,-54.6875,-225.5859375,-1.0,1.0,-1.0,0.0,8.m4v,9.0
2024-02-28 11:55:55.767114,1709117755.7671137,-193.359375,-48.828125,-82.51953125,-200.68359375,-1.0,1.0,-1.0,0.0,8.m4v,9.0
2024-02-28 11:55:55.771019,1709117755.7710187,-195.3125,-49.31640625,-91.796875,-209.47265625,-1.0,1.0,-1.0,0.0,8.m4v,9.0
2024-02-28 11:55:55.774924,1709117755.774924,-177.734375,-36.1328125,-77.63671875,-200.68359375,-1.0,1.0,-1.0,0.0,8.m4v,9.0
2024-02-28 11:55:55.778829,1709117755.778829,-155.2734375,-33.69140625,-59.08203125,-162.109375,-1.0,1.0,-1.0,0.0,8.m4v,9.0
2024-02-28 11:55:55.782734,1709117755.7827344,-152.34375,-62.5,-41.9921875,-153.80859375,-1.0,1.0,-1.0,0.0,8.m4v,9.0
2024-02-28 11:55:55.786639,1709117755.7866397,-139.16015625,-66.89453125,-25.390625,-134.27734375,-1.0,1.0,-1.0,0.0,8.m4v,9.0
2024-02-28 11:55:55.790545,1709117755.7905447,-114.2578125,-45.41015625,-22.4609375,-107.421875,-1.0,1.0,-1.0,0.0,8.m4v,9.0
2024-02-28 11:55:55.794450,1709117755.79445,-104.00390625,-31.25,-27.34375,-98.6328125,-1.0,1.0,-1.0,0.0,8.m4v,9.0
2024-02-28 11:55:55.798355,1709117755.798355,-92.28515625,-28.80859375,-31.73828125,-94.23828125,-1.0,1.0,-1.0,0.0,8.m4v,9.0
2024-02-28 11:55:55.802269,1709117755.8022687,-74.70703125,-42.48046875,-27.34375,-89.84375,-1.0,1.0,-1.0,0.0,8.m4v,9.0
2024-02-28 11:55:55.806174,1709117755.8061738,-66.40625,-41.9921875,-39.55078125,-73.2421875,-1.0,1.0,-1.0,0.0,8.m4v,9.0
2024-02-28 11:55:55.810079,1709117755.810079,-57.12890625,-29.296875,-47.36328125,-45.8984375,-1.0,1.0,-1.0,0.0,8.m4v,9.0
2024-02-28 11:55:55.813984,1709117755.8139842,-43.45703125,-20.99609375,-41.015625,-40.0390625,-1.0,1.0,-1.0,0.0,8.m4v,9.0
2024-02-28 11:55:55.817889,1709117755.8178897,-31.73828125,-21.484375,-22.4609375,-39.0625,-1.0,1.0,-1.0,0.0,8.m4v,9.0
2024-02-28 11:55:55.821795,1709117755.8217947,-26.85546875,-33.69140625,-10.25390625,-33.69140625,-1.0,1.0,-1.0,0.0,8.m4v,9.0
2024-02-28 11:55:55.825700,1709117755.8256998,-11.23046875,-30.76171875,-17.578125,-15.13671875,-1.0,1.0,-1.0,0.0,8.m4v,9.0
2024-02-28 11:55:55.829605,1709117755.829605,-1.46484375,-33.69140625,-11.23046875,7.8125,-1.0,1.0,-1.0,0.0,8.m4v,9.0
2024-02-28 11:55:55.833510,1709117755.8335102,5.37109375,-38.57421875,-5.859375,0.48828125,-1.0,1.0,-1.0,0.0,8.m4v,9.0
2024-02-28 11:55:55.837415,1709117755.8374157,12.20703125,-37.59765625,-10.25390625,6.8359375,-1.0,1.0,-1.0,0.0,8.m4v,9.0
2024-02-28 11:55:55.841321,1709117755.8413205,13.18359375,-55.17578125,-8.7890625,27.83203125,-1.0,1.0,-1.0,0.0,8.m4v,9.0
2024-02-28 11:55:55.845226,1709117755.8452258,26.85546875,-50.29296875,-5.37109375,34.1796875,-1.0,1.0,-1.0,0.0,8.m4v,9.0
2024-02-28 11:55:55.849139,1709117755.8491387,36.62109375,-13.671875,1.953125,36.1328125,-1.0,1.0,-1.0,0.0,8.m4v,9.0
2024-02-28 11:55:55.853044,1709117755.853044,35.64453125,10.25390625,-0.9765625,33.203125,-1.0,1.0,-1.0,0.0,8.m4v,9.0
2024-02-28 11:55:55.856949,1709117755.856949,40.52734375,5.859375,-8.7890625,34.66796875,-1.0,1.0,-1.0,0.0,8.m4v,9.0
2024-02-28 11:55:55.860854,1709117755.8608544,41.9921875,-14.16015625,-14.6484375,37.109375,-1.0,1.0,-1.0,0.0,8.m4v,9.0
2024-02-28 11:55:55.864760,1709117755.8647597,35.15625,-27.83203125,-15.625,37.109375,-1.0,1.0,-1.0,0.0,8.m4v,9.0
2024-02-28 11:55:55.868665,1709117755.8686647,29.296875,-19.53125,-19.53125,25.390625,-1.0,1.0,-1.0,0.0,8.m4v,9.0
2024-02-28 11:55:55.872570,1709117755.87257,27.83203125,-9.27734375,-22.4609375,20.01953125,-1.0,1.0,-1.0,0.0,8.m4v,9.0
2024-02-28 11:55:55.876475,1709117755.876475,43.45703125,-11.23046875,-13.18359375,33.69140625,-1.0,1.0,-1.0,0.0,8.m4v,9.0
2024-02-28 11:55:55.880380,1709117755.8803804,36.62109375,-19.53125,-13.671875,29.78515625,-1.0,1.0,-1.0,0.0,8.m4v,9.0
2024-02-28 11:55:55.884285,1709117755.8842854,18.5546875,-32.71484375,-18.06640625,25.390625,-1.0,1.0,-1.0,0.0,8.m4v,9.0
2024-02-28 11:55:55.888191,1709117755.8881907,20.5078125,-39.0625,-20.5078125,29.78515625,-1.0,1.0,-1.0,0.0,8.m4v,9.0
2024-02-28 11:55:55.892096,1709117755.8920958,29.78515625,-29.78515625,-20.5078125,27.34375,-1.0,1.0,-1.0,0.0,8.m4v,9.0
2024-02-28 11:55:55.896009,1709117755.8960092,40.52734375,-16.6015625,-5.859375,31.73828125,-1.0,1.0,-1.0,0.0,8.m4v,9.0
2024-02-28 11:55:55.899915,1709117755.8999145,39.55078125,-22.94921875,6.34765625,31.25,-1.0,1.0,-1.0,0.0,8.m4v,9.0
2024-02-28 11:55:55.903820,1709117755.9038196,40.52734375,-30.2734375,-9.27734375,23.4375,-1.0,1.0,-1.0,0.0,8.m4v,9.0
2024-02-28 11:55:55.907725,1709117755.9077249,36.1328125,-24.90234375,-26.3671875,13.671875,-1.0,1.0,-1.0,0.0,8.m4v,9.0
2024-02-28 11:55:55.911630,1709117755.91163,34.66796875,-24.4140625,-24.90234375,17.578125,-1.0,1.0,-1.0,0.0,8.m4v,9.0
2024-02-28 11:55:55.915535,1709117755.9155352,39.0625,-26.3671875,-19.04296875,34.66796875,-1.0,1.0,-1.0,0.0,8.m4v,9.0
2024-02-28 11:55:55.919440,1709117755.9194405,33.203125,-35.15625,-31.25,26.85546875,-1.0,1.0,-1.0,0.0,8.m4v,9.0
2024-02-28 11:55:55.923346,1709117755.9233456,21.484375,-39.0625,-31.73828125,10.7421875,-1.0,1.0,-1.0,0.0,8.m4v,9.0
2024-02-28 11:55:55.927251,1709117755.9272509,27.34375,-20.01953125,-17.578125,10.25390625,-1.0,1.0,-1.0,0.0,8.m4v,9.0
2024-02-28 11:55:55.931156,1709117755.931156,33.69140625,-14.6484375,-10.7421875,14.16015625,-1.0,1.0,-1.0,0.0,8.m4v,9.0
2024-02-28 11:55:55.935061,1709117755.9350612,23.92578125,-27.34375,-15.625,11.71875,-1.0,1.0,-1.0,0.0,8.m4v,9.0
2024-02-28 11:55:55.938966,1709117755.9389665,20.99609375,-21.97265625,-16.6015625,14.16015625,-1.0,1.0,-1.0,0.0,8.m4v,9.0
2024-02-28 11:55:55.942879,1709117755.9428787,23.92578125,-19.04296875,-20.5078125,11.71875,-1.0,1.0,-1.0,0.0,8.m4v,9.0
2024-02-28 11:55:55.946784,1709117755.946784,21.97265625,-31.73828125,-23.4375,3.41796875,-1.0,1.0,-1.0,0.0,8.m4v,9.0
2024-02-28 11:55:55.950689,1709117755.950689,11.71875,-35.15625,-22.94921875,-8.7890625,-1.0,1.0,-1.0,0.0,8.m4v,9.0
2024-02-28 11:55:55.954594,1709117755.9545944,8.7890625,-30.76171875,-30.76171875,-7.32421875,-1.0,1.0,-1.0,0.0,8.m4v,9.0
2024-02-28 11:55:55.958499,1709117755.9584994,14.16015625,-25.87890625,-30.2734375,0.0,-1.0,1.0,-1.0,0.0,8.m4v,9.0
2024-02-28 11:55:55.962405,1709117755.9624047,10.7421875,-29.78515625,-20.99609375,3.90625,-1.0,1.0,-1.0,0.0,8.m4v,9.0
2024-02-28 11:55:55.966310,1709117755.96631,18.06640625,-33.69140625,-27.34375,10.25390625,-1.0,1.0,-1.0,0.0,8.m4v,9.0
2024-02-28 11:55:55.970215,1709117755.970215,4.39453125,-29.78515625,-30.2734375,6.34765625,-1.0,1.0,-1.0,0.0,8.m4v,9.0
2024-02-28 11:55:55.974120,1709117755.9741204,1.46484375,-22.4609375,-22.94921875,-1.953125,-1.0,1.0,-1.0,0.0,8.m4v,9.0
2024-02-28 11:55:55.978025,1709117755.9780254,28.3203125,-25.87890625,-14.16015625,-2.44140625,-1.0,1.0,-1.0,0.0,8.m4v,9.0
2024-02-28 11:55:55.981931,1709117755.9819307,21.97265625,-25.390625,-15.625,4.39453125,-1.0,1.0,-1.0,0.0,8.m4v,9.0
2024-02-28 11:55:55.985836,1709117755.9858358,10.7421875,-15.13671875,-24.90234375,0.0,-1.0,1.0,-1.0,0.0,8.m4v,9.0
2024-02-28 11:55:55.989747,1709117755.9897468,2.44140625,-14.16015625,-37.59765625,-7.32421875,-1.0,1.0,-1.0,0.0,8.m4v,9.0
2024-02-28 11:55:55.993652,1709117755.993652,3.90625,-24.90234375,-42.48046875,-9.27734375,-1.0,1.0,-1.0,0.0,8.m4v,9.0
2024-02-28 11:55:55.997557,1709117755.9975572,6.8359375,-34.66796875,-28.3203125,-11.23046875,-1.0,1.0,-1.0,0.0,8.m4v,9.0
2024-02-28 11:55:56.001462,1709117756.0014622,14.16015625,-37.59765625,-29.296875,-6.34765625,-1.0,1.0,-1.0,0.0,8.m4v,9.0
2024-02-28 11:55:56.005368,1709117756.0053675,10.7421875,-34.66796875,-31.25,-12.6953125,-1.0,1.0,-1.0,0.0,8.m4v,9.0
2024-02-28 11:55:56.009273,1709117756.0092728,12.6953125,-17.578125,-16.11328125,-18.06640625,-1.0,1.0,-1.0,0.0,8.m4v,9.0
2024-02-28 11:55:56.013178,1709117756.013178,29.296875,-8.7890625,-22.94921875,-6.34765625,-1.0,1.0,-1.0,0.0,8.m4v,9.0
2024-02-28 11:55:56.017083,1709117756.0170832,15.625,-20.99609375,-42.48046875,-1.953125,-1.0,1.0,-1.0,0.0,8.m4v,9.0
2024-02-28 11:55:56.020988,1709117756.0209882,2.44140625,-42.48046875,-50.29296875,-10.7421875,-1.0,1.0,-1.0,0.0,8.m4v,9.0
2024-02-28 11:55:56.024894,1709117756.0248935,3.90625,-38.0859375,-38.0859375,-5.37109375,-1.0,1.0,-1.0,0.0,8.m4v,9.0
2024-02-28 11:55:56.028799,1709117756.0287986,-0.9765625,-27.83203125,-32.71484375,-12.20703125,-1.0,1.0,-1.0,0.0,8.m4v,9.0
2024-02-28 11:55:56.032704,1709117756.032704,-1.46484375,-20.01953125,-32.71484375,-21.484375,-1.0,1.0,-1.0,0.0,8.m4v,9.0
2024-02-28 11:55:56.036619,1709117756.0366194,-6.8359375,-12.20703125,-22.94921875,-18.06640625,-1.0,1.0,-1.0,0.0,8.m4v,9.0
2024-02-28 11:55:56.040525,1709117756.0405247,-10.7421875,-30.2734375,-19.04296875,-17.08984375,-1.0,1.0,-1.0,0.0,8.m4v,9.0
2024-02-28 11:55:56.044430,1709117756.0444298,-14.16015625,-43.45703125,-39.55078125,-11.71875,-1.0,1.0,-1.0,0.0,8.m4v,9.0
2024-02-28 11:55:56.048335,1709117756.048335,-15.625,-39.0625,-48.33984375,-15.625,-1.0,1.0,-1.0,0.0,8.m4v,9.0
2024-02-28 11:55:56.052240,1709117756.05224,-16.6015625,-31.25,-26.3671875,-30.76171875,-1.0,1.0,-1.0,0.0,8.m4v,9.0
2024-02-28 11:55:56.056145,1709117756.0561454,-17.08984375,-26.85546875,-28.80859375,-42.96875,-1.0,1.0,-1.0,0.0,8.m4v,9.0
2024-02-28 11:55:56.458458,1709117756.458458,-44.921875,-52.24609375,-35.15625,-32.71484375,-1.0,1.0,-1.0,0.0,8.m4v,9.0
2024-02-28 11:55:56.462363,1709117756.4623632,-36.1328125,-35.64453125,-32.2265625,-31.73828125,-1.0,1.0,-1.0,0.0,8.m4v,9.0
2024-02-28 11:55:56.466268,1709117756.4662683,-37.109375,-19.04296875,-40.52734375,-35.15625,-1.0,1.0,-1.0,0.0,8.m4v,9.0
2024-02-28 11:55:56.470174,1709117756.4701736,-38.57421875,-26.3671875,-41.50390625,-33.69140625,-1.0,1.0,-1.0,0.0,8.m4v,9.0
2024-02-28 11:55:56.474079,1709117756.474079,-40.52734375,-42.48046875,-46.38671875,-40.0390625,-1.0,1.0,-1.0,0.0,8.m4v,9.0
2024-02-28 11:55:56.477984,1709117756.477984,-54.6875,-52.734375,-47.36328125,-42.96875,-1.0,1.0,-1.0,0.0,8.m4v,9.0
2024-02-28 11:55:56.481889,1709117756.4818892,-62.01171875,-39.0625,-32.2265625,-37.59765625,-1.0,1.0,-1.0,0.0,8.m4v,9.0
2024-02-28 11:55:56.485794,1709117756.4857943,-41.9921875,-18.5546875,-30.2734375,-37.109375,-1.0,1.0,-1.0,0.0,8.m4v,9.0
2024-02-28 11:55:56.489700,1709117756.4896996,-37.59765625,-21.97265625,-33.203125,-27.83203125,-1.0,1.0,-1.0,0.0,8.m4v,9.0
2024-02-28 11:55:56.493605,1709117756.493605,-52.734375,-26.85546875,-30.2734375,-32.71484375,-1.0,1.0,-1.0,0.0,8.m4v,9.0
2024-02-28 11:55:56.497510,1709117756.49751,-41.015625,-21.97265625,-26.3671875,-45.8984375,-1.0,1.0,-1.0,0.0,8.m4v,9.0
2024-02-28 11:55:56.501415,1709117756.501415,-34.1796875,-38.0859375,-21.97265625,-34.1796875,-1.0,1.0,-1.0,0.0,8.m4v,9.0
2024-02-28 11:55:56.505329,1709117756.5053294,-47.36328125,-51.7578125,-25.390625,-23.92578125,-1.0,1.0,-1.0,0.0,8.m4v,9.0
2024-02-28 11:55:56.509234,1709117756.5092344,-53.22265625,-57.12890625,-29.78515625,-38.0859375,-1.0,1.0,-1.0,0.0,8.m4v,9.0
2024-02-28 11:55:56.513140,1709117756.5131395,-53.22265625,-52.24609375,-41.9921875,-46.875,-1.0,1.0,-1.0,0.0,8.m4v,9.0
2024-02-28 11:55:56.517045,1709117756.517045,-53.22265625,-35.15625,-47.8515625,-41.015625,-1.0,1.0,-1.0,0.0,8.m4v,9.0
2024-02-28 11:55:56.520950,1709117756.52095,-44.921875,-19.53125,-33.203125,-30.76171875,-1.0,1.0,-1.0,0.0,8.m4v,9.0
2024-02-28 11:55:56.524855,1709117756.5248554,-40.52734375,-19.53125,-28.80859375,-24.90234375,-1.0,1.0,-1.0,0.0,8.m4v,9.0
2024-02-28 11:55:56.528760,1709117756.5287604,-37.109375,-25.87890625,-31.25,-31.73828125,-1.0,1.0,-1.0,0.0,8.m4v,9.0
2024-02-28 11:55:56.532666,1709117756.5326655,-30.2734375,-14.6484375,-21.484375,-25.87890625,-1.0,1.0,-1.0,0.0,8.m4v,9.0
2024-02-28 11:55:56.536571,1709117756.5365708,-32.2265625,-12.6953125,-22.94921875,-28.3203125,-1.0,1.0,-1.0,0.0,8.m4v,9.0
2024-02-28 11:55:56.540476,1709117756.540476,-31.73828125,-24.90234375,-36.62109375,-27.83203125,-1.0,1.0,-1.0,0.0,8.m4v,9.0
2024-02-28 11:55:56.544381,1709117756.5443814,-20.99609375,-27.83203125,-32.2265625,-8.7890625,-1.0,1.0,-1.0,0.0,8.m4v,9.0
2024-02-28 11:55:56.548286,1709117756.5482864,-34.66796875,-37.109375,-27.34375,-20.01953125,-1.0,1.0,-1.0,0.0,8.m4v,9.0
2024-02-28 11:55:56.552200,1709117756.5522003,-54.19921875,-41.9921875,-40.0390625,-40.0390625,-1.0,1.0,-1.0,0.0,8.m4v,9.0
2024-02-28 11:55:56.556106,1709117756.5561056,-34.66796875,-32.71484375,-32.71484375,-41.015625,-1.0,1.0,-1.0,0.0,8.m4v,9.0
2024-02-28 11:55:56.560011,1709117756.560011,-31.73828125,-30.2734375,-13.18359375,-40.0390625,-1.0,1.0,-1.0,0.0,8.m4v,9.0
2024-02-28 11:55:56.563916,1709117756.563916,-46.38671875,-36.1328125,-24.4140625,-27.34375,-1.0,1.0,-1.0,0.0,8.m4v,9.0
2024-02-28 11:55:56.567821,1709117756.5678213,-46.38671875,-45.8984375,-33.203125,-32.2265625,-1.0,1.0,-1.0,0.0,8.m4v,9.0
2024-02-28 11:55:56.571726,1709117756.5717263,-41.50390625,-43.45703125,-34.66796875,-39.55078125,-1.0,1.0,-1.0,0.0,8.m4v,9.0
2024-02-28 11:55:56.575632,1709117756.5756316,-36.1328125,-34.66796875,-39.0625,-35.15625,-1.0,1.0,-1.0,0.0,8.m4v,9.0
2024-02-28 11:55:56.579537,1709117756.579537,-30.76171875,-25.390625,-23.4375,-33.69140625,-1.0,1.0,-1.0,0.0,8.m4v,9.0
2024-02-28 11:55:56.583442,1709117756.583442,-43.9453125,-27.34375,-23.92578125,-27.83203125,-1.0,1.0,-1.0,0.0,8.m4v,9.0
2024-02-28 11:55:56.587347,1709117756.587347,-48.828125,-46.38671875,-32.71484375,-34.1796875,-1.0,1.0,-1.0,0.0,8.m4v,9.0
2024-02-28 11:55:56.591252,1709117756.5912523,-34.66796875,-41.9921875,-31.25,-43.9453125,-1.0,1.0,-1.0,0.0,8.m4v,9.0
2024-02-28 11:55:56.595158,1709117756.5951576,-36.1328125,-35.64453125,-33.69140625,-44.43359375,-1.0,1.0,-1.0,0.0,8.m4v,9.0
2024-02-28 11:55:56.599071,1709117756.5990713,-36.62109375,-37.109375,-33.203125,-42.96875,-1.0,1.0,-1.0,0.0,8.m4v,9.0
2024-02-28 11:55:56.602977,1709117756.6029766,-35.64453125,-38.0859375,-41.9921875,-50.78125,-1.0,1.0,-1.0,0.0,8.m4v,9.0
2024-02-28 11:55:56.606882,1709117756.6068816,-37.59765625,-37.59765625,-48.33984375,-44.921875,-1.0,1.0,-1.0,0.0,8.m4v,9.0
2024-02-28 11:55:56.610787,1709117756.610787,-29.78515625,-32.71484375,-35.64453125,-28.3203125,-1.0,1.0,-1.0,0.0,8.m4v,9.0
2024-02-28 11:55:56.614692,1709117756.6146922,-21.97265625,-35.64453125,-37.109375,-34.1796875,-1.0,1.0,-1.0,0.0,8.m4v,9.0
2024-02-28 11:55:56.618597,1709117756.6185973,-29.296875,-36.1328125,-35.15625,-41.9921875,-1.0,1.0,-1.0,0.0,8.m4v,9.0
2024-02-28 11:55:56.622503,1709117756.6225026,-25.87890625,-40.0390625,-26.85546875,-35.64453125,-1.0,1.0,-1.0,0.0,8.m4v,9.0
2024-02-28 11:55:56.626408,1709117756.6264076,-23.92578125,-41.015625,-25.390625,-26.3671875,-1.0,1.0,-1.0,0.0,8.m4v,9.0
2024-02-28 11:55:56.630313,1709117756.630313,-29.296875,-30.76171875,-29.296875,-25.390625,-1.0,1.0,-1.0,0.0,8.m4v,9.0
2024-02-28 11:55:56.634218,1709117756.634218,-34.1796875,-30.76171875,-38.57421875,-37.109375,-1.0,1.0,-1.0,0.0,8.m4v,9.0
2024-02-28 11:55:56.638123,1709117756.6381233,-42.48046875,-42.48046875,-29.296875,-38.0859375,-1.0,1.0,-1.0,0.0,8.m4v,9.0
2024-02-28 11:55:56.642029,1709117756.6420286,-48.33984375,-42.96875,-24.90234375,-32.71484375,-1.0,1.0,-1.0,0.0,8.m4v,9.0
2024-02-28 11:55:56.645941,1709117756.6459408,-41.9921875,-25.87890625,-29.296875,-32.2265625,-1.0,1.0,-1.0,0.0,8.m4v,9.0
2024-02-28 11:55:56.649846,1709117756.649846,-29.296875,-26.3671875,-42.96875,-36.1328125,-1.0,1.0,-1.0,0.0,8.m4v,9.0
2024-02-28 11:55:56.653751,1709117756.6537511,-21.97265625,-30.2734375,-43.45703125,-26.85546875,-1.0,1.0,-1.0,0.0,8.m4v,9.0
2024-02-28 11:55:56.657656,1709117756.6576564,-30.2734375,-39.55078125,-44.921875,-33.203125,-1.0,1.0,-1.0,0.0,8.m4v,9.0
2024-02-28 11:55:56.661561,1709117756.6615615,-44.921875,-50.78125,-59.08203125,-49.8046875,-1.0,1.0,-1.0,0.0,8.m4v,9.0
2024-02-28 11:55:56.665467,1709117756.6654668,-45.41015625,-41.50390625,-41.9921875,-42.48046875,-1.0,1.0,-1.0,0.0,8.m4v,9.0
2024-02-28 11:55:56.669372,1709117756.6693718,-46.38671875,-46.38671875,-25.87890625,-36.1328125,-1.0,1.0,-1.0,0.0,8.m4v,9.0
2024-02-28 11:55:56.673277,1709117756.6732771,-43.45703125,-49.31640625,-15.13671875,-31.73828125,-1.0,1.0,-1.0,0.0,8.m4v,9.0
2024-02-28 11:55:56.677182,1709117756.6771824,-32.2265625,-40.52734375,-11.23046875,-40.52734375,-1.0,1.0,-1.0,0.0,8.m4v,9.0
2024-02-28 11:55:56.681087,1709117756.6810875,-39.0625,-37.59765625,-31.73828125,-55.6640625,-1.0,1.0,-1.0,0.0,8.m4v,9.0
2024-02-28 11:55:56.684993,1709117756.6849928,-41.9921875,-28.3203125,-31.25,-41.50390625,-1.0,1.0,-1.0,0.0,8.m4v,9.0
2024-02-28 11:55:56.688898,1709117756.6888978,-37.109375,-27.83203125,-31.25,-35.15625,-1.0,1.0,-1.0,0.0,8.m4v,9.0
2024-02-28 11:55:56.692810,1709117756.6928096,-44.921875,-40.0390625,-46.38671875,-40.52734375,-1.0,1.0,-1.0,0.0,8.m4v,9.0
2024-02-28 11:55:56.696715,1709117756.6967149,-42.48046875,-40.52734375,-36.62109375,-39.55078125,-1.0,1.0,-1.0,0.0,8.m4v,9.0
2024-02-28 11:55:56.700620,1709117756.70062,-33.203125,-34.66796875,-21.484375,-40.0390625,-1.0,1.0,-1.0,0.0,8.m4v,9.0
2024-02-28 11:55:56.704525,1709117756.7045252,-29.78515625,-25.87890625,-44.921875,-36.62109375,-1.0,1.0,-1.0,0.0,8.m4v,9.0
2024-02-28 11:55:56.708430,1709117756.7084303,-33.69140625,-20.99609375,-55.6640625,-33.203125,-1.0,1.0,-1.0,0.0,8.m4v,9.0
2024-02-28 11:55:56.712336,1709117756.7123356,-30.76171875,-24.4140625,-41.015625,-44.43359375,-1.0,1.0,-1.0,0.0,8.m4v,9.0
2024-02-28 11:55:56.716241,1709117756.7162406,-33.69140625,-34.66796875,-22.94921875,-45.8984375,-1.0,1.0,-1.0,0.0,8.m4v,9.0
2024-02-28 11:55:56.720146,1709117756.720146,-57.12890625,-42.48046875,-19.04296875,-35.64453125,-1.0,1.0,-1.0,0.0,8.m4v,9.0
2024-02-28 11:55:56.724051,1709117756.7240512,-62.01171875,-45.41015625,-32.71484375,-37.109375,-1.0,1.0,-1.0,0.0,8.m4v,9.0
2024-02-28 11:55:56.727956,1709117756.7279563,-27.83203125,-42.96875,-24.4140625,-45.41015625,-1.0,1.0,-1.0,0.0,8.m4v,9.0
2024-02-28 11:55:56.731862,1709117756.7318616,-32.71484375,-29.78515625,-21.97265625,-41.50390625,-1.0,1.0,-1.0,0.0,8.m4v,9.0
2024-02-28 11:55:56.735767,1709117756.7357666,-47.36328125,-19.04296875,-25.87890625,-33.203125,-1.0,1.0,-1.0,0.0,8.m4v,9.0
2024-02-28 11:55:56.739678,1709117756.739678,-41.50390625,-27.83203125,-34.1796875,-37.109375,-1.0,1.0,-1.0,0.0,8.m4v,9.0
2024-02-28 11:55:56.743583,1709117756.7435832,-42.96875,-37.109375,-35.64453125,-32.2265625,-1.0,1.0,-1.0,0.0,8.m4v,9.0
2024-02-28 11:55:56.747488,1709117756.7474885,-43.45703125,-22.94921875,-47.36328125,-33.69140625,-1.0,1.0,-1.0,0.0,8.m4v,9.0
2024-02-28 11:55:56.751394,1709117756.7513936,-41.9921875,-18.5546875,-46.38671875,-41.9921875,-1.0,1.0,-1.0,0.0,8.m4v,9.0
2024-02-28 11:55:56.755299,1709117756.7552989,-44.921875,-27.83203125,-26.85546875,-43.9453125,-1.0,1.0,-1.0,0.0,8.m4v,9.0
2024-02-28 11:55:56.759204,1709117756.759204,-51.26953125,-15.13671875,-29.296875,-35.15625,-1.0,1.0,-1.0,0.0,8.m4v,9.0
2024-02-28 11:55:56.763109,1709117756.7631092,-42.48046875,-21.484375,-33.203125,-31.25,-1.0,1.0,-1.0,0.0,8.m4v,9.0
2024-02-28 11:55:56.767014,1709117756.7670145,-35.64453125,-39.0625,-35.64453125,-32.2265625,-1.0,1.0,-1.0,0.0,8.m4v,9.0
2024-02-28 11:55:56.770920,1709117756.7709196,-34.1796875,-29.78515625,-38.0859375,-27.34375,-1.0,1.0,-1.0,0.0,8.m4v,9.0
2024-02-28 11:55:56.774825,1709117756.7748249,-29.78515625,-24.90234375,-38.57421875,-30.2734375,-1.0,1.0,-1.0,0.0,8.m4v,9.0
2024-02-28 11:55:56.778730,1709117756.77873,-41.015625,-32.71484375,-29.296875,-30.76171875,-1.0,1.0,-1.0,0.0,8.m4v,9.0
2024-02-28 11:55:56.782635,1709117756.7826352,-45.8984375,-40.52734375,-19.53125,-25.390625,-1.0,1.0,-1.0,0.0,8.m4v,9.0
2024-02-28 11:55:56.786551,1709117756.786551,-35.64453125,-38.57421875,-23.92578125,-35.15625,-1.0,1.0,-1.0,0.0,8.m4v,9.0
2024-02-28 11:55:56.790456,1709117756.790456,-39.0625,-29.296875,-27.34375,-60.546875,-1.0,1.0,-1.0,0.0,8.m4v,9.0
2024-02-28 11:55:56.794361,1709117756.7943614,-35.64453125,-31.73828125,-37.109375,-42.96875,-1.0,1.0,-1.0,0.0,8.m4v,9.0
2024-02-28 11:55:56.798266,1709117756.7982664,-37.59765625,-37.109375,-43.9453125,-29.296875,-1.0,1.0,-1.0,0.0,8.m4v,9.0
2024-02-28 11:55:56.802172,1709117756.8021717,-41.50390625,-11.71875,-27.83203125,-38.57421875,-1.0,1.0,-1.0,0.0,8.m4v,9.0
2024-02-28 11:55:56.806077,1709117756.806077,-37.59765625,1.953125,-24.90234375,-37.109375,-1.0,1.0,-1.0,0.0,8.m4v,9.0
2024-02-28 11:55:56.809982,1709117756.809982,-36.1328125,-1.46484375,-34.1796875,-39.55078125,-1.0,1.0,-1.0,0.0,8.m4v,9.0
2024-02-28 11:55:56.813887,1709117756.8138874,-44.921875,-12.6953125,-38.0859375,-41.015625,-1.0,1.0,-1.0,0.0,8.m4v,9.0
2024-02-28 11:55:56.817792,1709117756.8177924,-33.203125,-29.78515625,-29.296875,-40.0390625,-1.0,1.0,-1.0,0.0,8.m4v,9.0
2024-02-28 11:55:56.821698,1709117756.8216977,-42.48046875,-57.12890625,-20.01953125,-40.0390625,-1.0,1.0,-1.0,0.0,8.m4v,9.0
2024-02-28 11:55:56.825603,1709117756.8256028,-49.31640625,-63.96484375,-25.390625,-37.109375,-1.0,1.0,-1.0,0.0,8.m4v,9.0
2024-02-28 11:55:56.829508,1709117756.829508,-29.296875,-45.8984375,-41.50390625,-38.0859375,-1.0,1.0,-1.0,0.0,8.m4v,9.0
2024-02-28 11:55:56.833423,1709117756.8334234,-30.76171875,-19.04296875,-46.875,-41.9921875,-1.0,1.0,-1.0,0.0,8.m4v,9.0
2024-02-28 11:55:56.837328,1709117756.8373284,-16.11328125,4.39453125,-39.0625,-25.390625,-1.0,1.0,-1.0,0.0,8.m4v,9.0
2024-02-28 11:55:56.841234,1709117756.8412335,-23.92578125,-12.20703125,-39.55078125,-32.2265625,-1.0,1.0,-1.0,0.0,8.m4v,9.0
2024-02-28 11:55:56.845139,1709117756.845139,-48.828125,-34.66796875,-44.43359375,-45.41015625,-1.0,1.0,-1.0,0.0,8.m4v,9.0
2024-02-28 11:55:56.849044,1709117756.849044,-44.43359375,-40.0390625,-31.73828125,-27.34375,-1.0,1.0,-1.0,0.0,8.m4v,9.0
2024-02-28 11:55:56.852949,1709117756.8529494,-37.109375,-28.3203125,-28.80859375,-26.3671875,-1.0,1.0,-1.0,0.0,8.m4v,9.0
2024-02-28 11:55:56.856854,1709117756.8568544,-40.52734375,-24.4140625,-41.9921875,-36.62109375,-1.0,1.0,-1.0,0.0,8.m4v,9.0
2024-02-28 11:55:56.860760,1709117756.8607595,-41.50390625,-32.71484375,-37.59765625,-38.57421875,-1.0,1.0,-1.0,0.0,8.m4v,9.0
2024-02-28 11:55:56.864665,1709117756.8646648,-39.55078125,-30.76171875,-30.2734375,-34.66796875,-1.0,1.0,-1.0,0.0,8.m4v,9.0
2024-02-28 11:55:56.868570,1709117756.86857,-47.8515625,-36.1328125,-19.04296875,-36.62109375,-1.0,1.0,-1.0,0.0,8.m4v,9.0
2024-02-28 11:55:56.872475,1709117756.8724754,-46.875,-34.1796875,-37.59765625,-42.96875,-1.0,1.0,-1.0,0.0,8.m4v,9.0
2024-02-28 11:55:56.876380,1709117756.8763804,-18.5546875,-21.484375,-47.36328125,-33.203125,-1.0,1.0,-1.0,0.0,8.m4v,9.0
2024-02-28 11:55:56.880295,1709117756.8802948,-24.90234375,-25.390625,-24.90234375,-35.15625,-1.0,1.0,-1.0,0.0,8.m4v,9.0
2024-02-28 11:55:56.884200,1709117756.8842,-38.57421875,-36.62109375,-25.390625,-46.38671875,-1.0,1.0,-1.0,0.0,8.m4v,9.0
2024-02-28 11:55:56.888105,1709117756.8881052,-41.50390625,-29.78515625,-34.66796875,-55.17578125,-1.0,1.0,-1.0,0.0,8.m4v,9.0
2024-02-28 11:55:56.892010,1709117756.8920102,-31.73828125,-18.06640625,-39.0625,-53.22265625,-1.0,1.0,-1.0,0.0,8.m4v,9.0
2024-02-28 11:55:56.895916,1709117756.8959155,-28.3203125,-15.625,-44.921875,-45.41015625,-1.0,1.0,-1.0,0.0,8.m4v,9.0
2024-02-28 11:55:56.899821,1709117756.8998206,-50.29296875,-34.1796875,-52.734375,-50.78125,-1.0,1.0,-1.0,0.0,8.m4v,9.0
2024-02-28 11:55:56.903726,1709117756.903726,-43.9453125,-39.55078125,-46.38671875,-53.7109375,-1.0,1.0,-1.0,0.0,8.m4v,9.0
2024-02-28 11:55:56.907631,1709117756.9076312,-32.2265625,-33.69140625,-30.2734375,-42.96875,-1.0,1.0,-1.0,0.0,8.m4v,9.0
2024-02-28 11:55:56.911536,1709117756.9115362,-37.109375,-41.015625,-21.484375,-28.3203125,-1.0,1.0,-1.0,0.0,8.m4v,9.0
2024-02-28 11:55:56.915442,1709117756.9154415,-31.25,-32.71484375,-17.578125,-28.3203125,-1.0,1.0,-1.0,0.0,8.m4v,9.0
2024-02-28 11:55:56.919347,1709117756.9193466,-35.64453125,-20.01953125,-13.18359375,-30.76171875,-1.0,1.0,-1.0,0.0,8.m4v,9.0
2024-02-28 11:55:56.923252,1709117756.923252,-32.2265625,-15.625,-16.11328125,-32.2265625,-1.0,1.0,-1.0,0.0,8.m4v,9.0
2024-02-28 11:55:56.927166,1709117756.9271655,-13.18359375,-20.5078125,-36.62109375,-35.15625,-1.0,1.0,-1.0,0.0,8.m4v,9.0
2024-02-28 11:55:56.931071,1709117756.9310706,-24.90234375,-38.57421875,-52.24609375,-46.38671875,-1.0,1.0,-1.0,0.0,8.m4v,9.0
2024-02-28 11:55:56.934976,1709117756.934976,-37.59765625,-35.15625,-52.734375,-47.36328125,-1.0,1.0,-1.0,0.0,8.m4v,9.0
2024-02-28 11:55:56.938881,1709117756.938881,-38.57421875,-15.13671875,-49.8046875,-39.55078125,-1.0,1.0,-1.0,0.0,8.m4v,9.0
2024-02-28 11:55:56.942786,1709117756.9427862,-39.0625,-26.85546875,-44.43359375,-40.0390625,-1.0,1.0,-1.0,0.0,8.m4v,9.0
2024-02-28 11:55:56.946691,1709117756.9466913,-34.1796875,-39.55078125,-46.875,-37.59765625,-1.0,1.0,-1.0,0.0,8.m4v,9.0
2024-02-28 11:55:56.950597,1709117756.9505966,-34.1796875,-28.3203125,-56.640625,-33.203125,-1.0,1.0,-1.0,0.0,8.m4v,9.0
2024-02-28 11:55:56.954502,1709117756.954502,-35.15625,-19.53125,-48.33984375,-34.1796875,-1.0,1.0,-1.0,0.0,8.m4v,9.0
2024-02-28 11:55:56.958407,1709117756.958407,-33.203125,-19.53125,-34.66796875,-38.57421875,-1.0,1.0,-1.0,0.0,8.m4v,9.0
2024-02-28 11:55:56.962312,1709117756.9623122,-44.43359375,-23.4375,-27.34375,-40.0390625,-1.0,1.0,-1.0,0.0,8.m4v,9.0
2024-02-28 11:55:56.966217,1709117756.9662173,-42.96875,-31.73828125,-17.578125,-32.2265625,-1.0,1.0,-1.0,0.0,8.m4v,9.0
2024-02-28 11:55:56.970123,1709117756.9701226,-26.3671875,-39.55078125,-22.4609375,-27.83203125,-1.0,1.0,-1.0,0.0,8.m4v,9.0
2024-02-28 11:55:56.974036,1709117756.974036,-20.99609375,-42.96875,-29.78515625,-30.2734375,-1.0,1.0,-1.0,0.0,8.m4v,9.0
2024-02-28 11:55:56.977941,1709117756.977941,-36.62109375,-40.52734375,-25.390625,-31.73828125,-1.0,1.0,-1.0,0.0,8.m4v,9.0
2024-02-28 11:55:56.981846,1709117756.9818463,-48.828125,-40.0390625,-36.62109375,-42.48046875,-1.0,1.0,-1.0,0.0,8.m4v,9.0
2024-02-28 11:55:56.985751,1709117756.9857514,-46.875,-40.0390625,-45.8984375,-35.64453125,-1.0,1.0,-1.0,0.0,8.m4v,9.0
2024-02-28 11:55:56.989657,1709117756.9896567,-50.78125,-33.69140625,-41.9921875,-24.90234375,-1.0,1.0,-1.0,0.0,8.m4v,9.0
2024-02-28 11:55:56.993562,1709117756.9935615,-42.96875,-27.34375,-36.1328125,-35.64453125,-1.0,1.0,-1.0,0.0,8.m4v,9.0
2024-02-28 11:55:56.997467,1709117756.997467,-42.96875,-32.71484375,-50.78125,-41.015625,-1.0,1.0,-1.0,0.0,8.m4v,9.0
2024-02-28 11:55:57.001372,1709117757.0013723,-48.828125,-36.62109375,-63.96484375,-38.57421875,-1.0,1.0,-1.0,0.0,8.m4v,9.0
2024-02-28 11:55:57.005277,1709117757.0052774,-39.0625,-26.3671875,-41.9921875,-29.78515625,-1.0,1.0,-1.0,0.0,8.m4v,9.0
2024-02-28 11:55:57.009183,1709117757.0091827,-30.2734375,-20.99609375,-23.92578125,-27.83203125,-1.0,1.0,-1.0,0.0,8.m4v,9.0
2024-02-28 11:55:57.013088,1709117757.0130875,-33.203125,-29.78515625,-24.90234375,-35.64453125,-1.0,1.0,-1.0,0.0,8.m4v,9.0
2024-02-28 11:55:57.016993,1709117757.016993,-41.015625,-44.921875,-34.66796875,-39.55078125,-1.0,1.0,-1.0,0.0,8.m4v,9.0
2024-02-28 11:55:57.020911,1709117757.0209107,-45.8984375,-50.78125,-36.62109375,-34.1796875,-1.0,1.0,-1.0,0.0,8.m4v,9.0
2024-02-28 11:55:57.024816,1709117757.024816,-51.26953125,-42.96875,-26.3671875,-31.25,-1.0,1.0,-1.0,0.0,8.m4v,9.0
2024-02-28 11:55:57.028721,1709117757.028721,-49.31640625,-33.69140625,-11.23046875,-24.90234375,-1.0,1.0,-1.0,0.0,8.m4v,9.0
2024-02-28 11:55:57.032626,1709117757.0326264,-50.29296875,-36.62109375,-21.484375,-35.15625,-1.0,1.0,-1.0,0.0,8.m4v,9.0
2024-02-28 11:55:57.036532,1709117757.0365317,-48.828125,-36.62109375,-31.73828125,-26.3671875,-1.0,1.0,-1.0,0.0,8.m4v,9.0
2024-02-28 11:55:57.040437,1709117757.0404367,-38.0859375,-36.1328125,-24.90234375,-9.765625,-1.0,1.0,-1.0,0.0,8.m4v,9.0
2024-02-28 11:55:57.489614,1709117757.4896145,-39.0625,-30.76171875,-19.04296875,-27.34375,-1.0,1.0,-1.0,0.0,8.m4v,9.0
2024-02-28 11:55:57.493520,1709117757.4935198,-44.921875,-46.875,-31.25,-32.71484375,-1.0,1.0,-1.0,0.0,8.m4v,9.0
2024-02-28 11:55:57.497425,1709117757.4974248,-45.41015625,-49.8046875,-34.1796875,-34.66796875,-1.0,1.0,-1.0,0.0,8.m4v,9.0
2024-02-28 11:55:57.501330,1709117757.50133,-43.45703125,-38.57421875,-26.85546875,-32.71484375,-1.0,1.0,-1.0,0.0,8.m4v,9.0
2024-02-28 11:55:57.505235,1709117757.5052352,-53.22265625,-32.71484375,-32.71484375,-37.109375,-1.0,1.0,-1.0,0.0,8.m4v,9.0
2024-02-28 11:55:57.509140,1709117757.5091405,-50.78125,-23.4375,-40.52734375,-34.1796875,-1.0,1.0,-1.0,0.0,8.m4v,9.0
2024-02-28 11:55:57.513046,1709117757.5130458,-50.78125,-40.52734375,-52.734375,-41.50390625,-1.0,1.0,-1.0,0.0,8.m4v,9.0
2024-02-28 11:55:57.516951,1709117757.5169508,-52.734375,-52.24609375,-53.7109375,-53.22265625,-1.0,1.0,-1.0,0.0,8.m4v,9.0
2024-02-28 11:55:57.520856,1709117757.520856,-51.7578125,-43.45703125,-40.0390625,-44.43359375,-1.0,1.0,-1.0,0.0,8.m4v,9.0
2024-02-28 11:55:57.524761,1709117757.5247612,-55.17578125,-37.59765625,-42.96875,-44.921875,-1.0,1.0,-1.0,0.0,8.m4v,9.0
2024-02-28 11:55:57.528666,1709117757.5286665,-48.828125,-23.92578125,-37.109375,-43.45703125,-1.0,1.0,-1.0,0.0,8.m4v,9.0
2024-02-28 11:55:57.532572,1709117757.5325716,-36.62109375,-21.484375,-25.87890625,-22.94921875,-1.0,1.0,-1.0,0.0,8.m4v,9.0
2024-02-28 11:55:57.536487,1709117757.536487,-31.25,-20.01953125,-26.85546875,-28.3203125,-1.0,1.0,-1.0,0.0,8.m4v,9.0
2024-02-28 11:55:57.540392,1709117757.5403924,-45.8984375,-26.3671875,-33.203125,-28.3203125,-1.0,1.0,-1.0,0.0,8.m4v,9.0
2024-02-28 11:55:57.544298,1709117757.5442977,-55.6640625,-44.43359375,-36.1328125,-23.4375,-1.0,1.0,-1.0,0.0,8.m4v,9.0
2024-02-28 11:55:57.548203,1709117757.5482028,-50.78125,-44.43359375,-41.50390625,-34.66796875,-1.0,1.0,-1.0,0.0,8.m4v,9.0
2024-02-28 11:55:57.552108,1709117757.552108,-38.0859375,-36.62109375,-37.109375,-40.0390625,-1.0,1.0,-1.0,0.0,8.m4v,9.0
2024-02-28 11:55:57.556013,1709117757.556013,-38.57421875,-26.3671875,-21.97265625,-38.57421875,-1.0,1.0,-1.0,0.0,8.m4v,9.0
2024-02-28 11:55:57.559918,1709117757.5599184,-44.43359375,-22.94921875,-22.94921875,-35.64453125,-1.0,1.0,-1.0,0.0,8.m4v,9.0
2024-02-28 11:55:57.563823,1709117757.5638237,-34.66796875,-25.390625,-34.1796875,-29.78515625,-1.0,1.0,-1.0,0.0,8.m4v,9.0
2024-02-28 11:55:57.567729,1709117757.5677288,-40.52734375,-30.76171875,-38.57421875,-25.390625,-1.0,1.0,-1.0,0.0,8.m4v,9.0
2024-02-28 11:55:57.571634,1709117757.571634,-46.38671875,-36.62109375,-33.203125,-29.296875,-1.0,1.0,-1.0,0.0,8.m4v,9.0
2024-02-28 11:55:57.575539,1709117757.575539,-37.109375,-29.78515625,-21.484375,-30.2734375,-1.0,1.0,-1.0,0.0,8.m4v,9.0
2024-02-28 11:55:57.579444,1709117757.5794444,-32.2265625,-23.92578125,-28.80859375,-33.69140625,-1.0,1.0,-1.0,0.0,8.m4v,9.0
2024-02-28 11:55:57.583360,1709117757.5833597,-37.109375,-30.2734375,-44.43359375,-38.57421875,-1.0,1.0,-1.0,0.0,8.m4v,9.0
2024-02-28 11:55:57.587265,1709117757.5872648,-53.7109375,-40.0390625,-46.38671875,-39.0625,-1.0,1.0,-1.0,0.0,8.m4v,9.0
2024-02-28 11:55:57.591170,1709117757.59117,-49.8046875,-38.0859375,-35.64453125,-39.0625,-1.0,1.0,-1.0,0.0,8.m4v,9.0
2024-02-28 11:55:57.595075,1709117757.5950751,-39.55078125,-30.76171875,-27.83203125,-36.1328125,-1.0,1.0,-1.0,0.0,8.m4v,9.0
2024-02-28 11:55:57.598980,1709117757.5989804,-41.015625,-28.3203125,-34.1796875,-31.25,-1.0,1.0,-1.0,0.0,8.m4v,9.0
2024-02-28 11:55:57.602886,1709117757.6028855,-53.22265625,-38.0859375,-35.15625,-33.69140625,-1.0,1.0,-1.0,0.0,8.m4v,9.0
2024-02-28 11:55:57.606791,1709117757.6067908,-43.45703125,-47.8515625,-17.08984375,-20.5078125,-1.0,1.0,-1.0,0.0,8.m4v,9.0
2024-02-28 11:55:57.610696,1709117757.610696,-32.2265625,-38.57421875,-11.71875,-16.6015625,-1.0,1.0,-1.0,0.0,8.m4v,9.0
2024-02-28 11:55:57.614601,1709117757.6146011,-32.2265625,-33.69140625,-13.671875,-16.11328125,-1.0,1.0,-1.0,0.0,8.m4v,9.0
2024-02-28 11:55:57.618506,1709117757.6185064,-36.62109375,-33.203125,-27.83203125,-20.5078125,-1.0,1.0,-1.0,0.0,8.m4v,9.0
2024-02-28 11:55:57.622412,1709117757.6224115,-42.48046875,-27.34375,-44.921875,-34.1796875,-1.0,1.0,-1.0,0.0,8.m4v,9.0
2024-02-28 11:55:57.626317,1709117757.6263168,-41.015625,-30.76171875,-40.52734375,-42.48046875,-1.0,1.0,-1.0,0.0,8.m4v,9.0
2024-02-28 11:55:57.630231,1709117757.6302314,-49.31640625,-46.38671875,-31.25,-35.15625,-1.0,1.0,-1.0,0.0,8.m4v,9.0
2024-02-28 11:55:57.634137,1709117757.634137,-56.15234375,-49.8046875,-26.85546875,-39.55078125,-1.0,1.0,-1.0,0.0,8.m4v,9.0
2024-02-28 11:55:57.638042,1709117757.6380415,-39.55078125,-51.7578125,-23.4375,-43.9453125,-1.0,1.0,-1.0,0.0,8.m4v,9.0
2024-02-28 11:55:57.641947,1709117757.641947,-25.390625,-43.9453125,-21.97265625,-33.69140625,-1.0,1.0,-1.0,0.0,8.m4v,9.0
2024-02-28 11:55:57.645852,1709117757.6458523,-28.80859375,-37.59765625,-24.90234375,-34.66796875,-1.0,1.0,-1.0,0.0,8.m4v,9.0
2024-02-28 11:55:57.649757,1709117757.6497574,-23.4375,-27.83203125,-12.6953125,-25.390625,-1.0,1.0,-1.0,0.0,8.m4v,9.0
2024-02-28 11:55:57.653663,1709117757.6536627,-20.01953125,-18.06640625,-15.625,-21.97265625,-1.0,1.0,-1.0,0.0,8.m4v,9.0
2024-02-28 11:55:57.657568,1709117757.6575675,-24.4140625,-19.53125,-35.64453125,-27.34375,-1.0,1.0,-1.0,0.0,8.m4v,9.0
2024-02-28 11:55:57.661473,1709117757.661473,-32.2265625,-24.90234375,-41.015625,-34.1796875,-1.0,1.0,-1.0,0.0,8.m4v,9.0
2024-02-28 11:55:57.665378,1709117757.665378,-37.109375,-31.25,-22.4609375,-36.62109375,-1.0,1.0,-1.0,0.0,8.m4v,9.0
2024-02-28 11:55:57.669283,1709117757.6692834,-36.62109375,-29.78515625,-24.4140625,-31.73828125,-1.0,1.0,-1.0,0.0,8.m4v,9.0
2024-02-28 11:55:57.673189,1709117757.6731887,-44.43359375,-31.73828125,-45.8984375,-45.41015625,-1.0,1.0,-1.0,0.0,8.m4v,9.0
2024-02-28 11:55:57.677103,1709117757.677103,-32.71484375,-33.69140625,-37.109375,-45.8984375,-1.0,1.0,-1.0,0.0,8.m4v,9.0
2024-02-28 11:55:57.681008,1709117757.6810083,-32.2265625,-33.69140625,-27.34375,-26.85546875,-1.0,1.0,-1.0,0.0,8.m4v,9.0
2024-02-28 11:55:57.684914,1709117757.6849136,-30.2734375,-38.0859375,-25.390625,-22.94921875,-1.0,1.0,-1.0,0.0,8.m4v,9.0
2024-02-28 11:55:57.688819,1709117757.6888187,-15.625,-32.2265625,-25.87890625,-26.3671875,-1.0,1.0,-1.0,0.0,8.m4v,9.0
2024-02-28 11:55:57.692724,1709117757.692724,-20.5078125,-29.296875,-30.76171875,-31.25,-1.0,1.0,-1.0,0.0,8.m4v,9.0
2024-02-28 11:55:57.696629,1709117757.696629,-25.87890625,-26.85546875,-28.80859375,-33.69140625,-1.0,1.0,-1.0,0.0,8.m4v,9.0
2024-02-28 11:55:57.700534,1709117757.7005343,-35.15625,-21.484375,-21.484375,-35.64453125,-1.0,1.0,-1.0,0.0,8.m4v,9.0
2024-02-28 11:55:57.704439,1709117757.7044394,-52.734375,-45.8984375,-24.4140625,-43.45703125,-1.0,1.0,-1.0,0.0,8.m4v,9.0
2024-02-28 11:55:57.708345,1709117757.7083447,-51.7578125,-64.94140625,-42.96875,-45.41015625,-1.0,1.0,-1.0,0.0,8.m4v,9.0
2024-02-28 11:55:57.712250,1709117757.71225,-35.64453125,-44.921875,-42.48046875,-48.33984375,-1.0,1.0,-1.0,0.0,8.m4v,9.0
2024-02-28 11:55:57.716155,1709117757.716155,-33.203125,-15.625,-34.66796875,-44.43359375,-1.0,1.0,-1.0,0.0,8.m4v,9.0
2024-02-28 11:55:57.720060,1709117757.7200603,-29.78515625,-14.16015625,-29.296875,-37.59765625,-1.0,1.0,-1.0,0.0,8.m4v,9.0
2024-02-28 11:55:57.723974,1709117757.723974,-37.59765625,-31.73828125,-25.87890625,-34.1796875,-1.0,1.0,-1.0,0.0,8.m4v,9.0
2024-02-28 11:55:57.727879,1709117757.727879,-43.9453125,-39.0625,-20.01953125,-37.109375,-1.0,1.0,-1.0,0.0,8.m4v,9.0
2024-02-28 11:55:57.731784,1709117757.7317843,-40.52734375,-43.45703125,-29.296875,-41.015625,-1.0,1.0,-1.0,0.0,8.m4v,9.0
2024-02-28 11:55:57.735690,1709117757.7356896,-37.59765625,-42.96875,-34.1796875,-39.0625,-1.0,1.0,-1.0,0.0,8.m4v,9.0
2024-02-28 11:55:57.739595,1709117757.7395947,-44.921875,-32.71484375,-36.62109375,-41.50390625,-1.0,1.0,-1.0,0.0,8.m4v,9.0
2024-02-28 11:55:57.743500,1709117757.7435,-33.203125,-35.15625,-43.9453125,-21.97265625,-1.0,1.0,-1.0,0.0,8.m4v,9.0
2024-02-28 11:55:57.747405,1709117757.747405,-13.671875,-38.57421875,-28.3203125,-25.87890625,-1.0,1.0,-1.0,0.0,8.m4v,9.0
2024-02-28 11:55:57.751310,1709117757.7513103,-17.08984375,-34.66796875,-24.4140625,-37.59765625,-1.0,1.0,-1.0,0.0,8.m4v,9.0
2024-02-28 11:55:57.755215,1709117757.7552154,-21.484375,-26.85546875,-41.015625,-32.2265625,-1.0,1.0,-1.0,0.0,8.m4v,9.0
2024-02-28 11:55:57.759121,1709117757.7591207,-23.92578125,-23.92578125,-42.48046875,-32.71484375,-1.0,1.0,-1.0,0.0,8.m4v,9.0
2024-02-28 11:55:57.763026,1709117757.763026,-32.71484375,-35.15625,-35.64453125,-30.2734375,-1.0,1.0,-1.0,0.0,8.m4v,9.0
2024-02-28 11:55:57.766931,1709117757.766931,-42.96875,-41.015625,-38.57421875,-33.69140625,-1.0,1.0,-1.0,0.0,8.m4v,9.0
2024-02-28 11:55:57.770844,1709117757.7708435,-40.52734375,-51.7578125,-35.15625,-46.38671875,-1.0,1.0,-1.0,0.0,8.m4v,9.0
2024-02-28 11:55:57.774749,1709117757.7747486,-23.92578125,-42.48046875,-25.390625,-34.66796875,-1.0,1.0,-1.0,0.0,8.m4v,9.0
2024-02-28 11:55:57.778654,1709117757.778654,-34.1796875,-33.203125,-24.90234375,-28.80859375,-1.0,1.0,-1.0,0.0,8.m4v,9.0
2024-02-28 11:55:57.782559,1709117757.782559,-47.8515625,-38.0859375,-29.296875,-41.50390625,-1.0,1.0,-1.0,0.0,8.m4v,9.0
2024-02-28 11:55:57.786464,1709117757.7864642,-39.55078125,-22.94921875,-21.484375,-27.34375,-1.0,1.0,-1.0,0.0,8.m4v,9.0
2024-02-28 11:55:57.790370,1709117757.7903695,-37.59765625,-20.5078125,-20.99609375,-25.390625,-1.0,1.0,-1.0,0.0,8.m4v,9.0
2024-02-28 11:55:57.794275,1709117757.7942746,-41.50390625,-30.2734375,-23.92578125,-39.55078125,-1.0,1.0,-1.0,0.0,8.m4v,9.0
2024-02-28 11:55:57.798180,1709117757.79818,-50.78125,-34.66796875,-39.55078125,-40.52734375,-1.0,1.0,-1.0,0.0,8.m4v,9.0
2024-02-28 11:55:57.802085,1709117757.802085,-43.45703125,-43.9453125,-44.921875,-45.41015625,-1.0,1.0,-1.0,0.0,8.m4v,9.0
2024-02-28 11:55:57.805990,1709117757.8059902,-44.43359375,-47.8515625,-24.90234375,-43.9453125,-1.0,1.0,-1.0,0.0,8.m4v,9.0
2024-02-28 11:55:57.809896,1709117757.8098955,-54.6875,-34.66796875,-45.8984375,-37.109375,-1.0,1.0,-1.0,0.0,8.m4v,9.0
2024-02-28 11:55:57.813801,1709117757.8138006,-38.57421875,-32.71484375,-57.12890625,-35.64453125,-1.0,1.0,-1.0,0.0,8.m4v,9.0
2024-02-28 11:55:57.817713,1709117757.817713,-31.73828125,-36.1328125,-46.875,-32.2265625,-1.0,1.0,-1.0,0.0,8.m4v,9.0
