Timestamp,Timestamp_UNIX,TP9,AF7,AF8,TP10,Valence,Arousal,Dominace,Viewed,Video,Participant
2024-02-27 11:17:59.002418,1709029079.0024176,-24.90234375,-34.66796875,-54.6875,-51.7578125,0.0,0.0,0.0,0.0,2.m4v,3.0
2024-02-27 11:17:59.006326,1709029079.0063262,-16.11328125,-20.99609375,-34.1796875,-46.38671875,0.0,0.0,0.0,0.0,2.m4v,3.0
2024-02-27 11:17:59.010232,1709029079.0102315,-14.6484375,-4.8828125,-16.6015625,-24.4140625,0.0,0.0,0.0,0.0,2.m4v,3.0
2024-02-27 11:17:59.014138,1709029079.0141375,-18.5546875,-1.953125,-26.3671875,-13.671875,0.0,0.0,0.0,0.0,2.m4v,3.0
2024-02-27 11:17:59.018043,1709029079.018043,-20.01953125,-6.34765625,-41.9921875,-7.8125,0.0,0.0,0.0,0.0,2.m4v,3.0
2024-02-27 11:17:59.021949,1709029079.0219486,-25.390625,-17.08984375,-35.15625,-23.92578125,0.0,0.0,0.0,0.0,2.m4v,3.0
2024-02-27 11:17:59.025854,1709029079.0258543,-30.2734375,-22.94921875,-31.73828125,-41.50390625,0.0,0.0,0.0,0.0,2.m4v,3.0
2024-02-27 11:17:59.029760,1709029079.02976,-35.15625,-28.80859375,-32.2265625,-38.0859375,0.0,0.0,0.0,0.0,2.m4v,3.0
2024-02-27 11:17:59.033665,1709029079.0336654,-41.9921875,-44.43359375,-43.9453125,-27.34375,0.0,0.0,0.0,0.0,2.m4v,3.0
2024-02-27 11:17:59.037571,1709029079.0375712,-28.80859375,-20.5078125,-48.33984375,-12.20703125,0.0,0.0,0.0,0.0,2.m4v,3.0
2024-02-27 11:17:59.041477,1709029079.0414767,-26.3671875,-11.23046875,-39.55078125,-32.2265625,0.0,0.0,0.0,0.0,2.m4v,3.0
2024-02-27 11:17:59.045382,1709029079.0453825,-38.57421875,-39.55078125,-25.87890625,-62.5,0.0,0.0,0.0,0.0,2.m4v,3.0
2024-02-27 11:17:59.049288,1709029079.049288,-38.57421875,-34.1796875,-15.13671875,-64.94140625,0.0,0.0,0.0,0.0,2.m4v,3.0
2024-02-27 11:17:59.053196,1709029079.0531964,-40.0390625,-18.5546875,-23.92578125,-44.43359375,0.0,0.0,0.0,0.0,2.m4v,3.0
2024-02-27 11:17:59.057102,1709029079.0571022,-40.0390625,-26.85546875,-23.92578125,-21.97265625,0.0,0.0,0.0,0.0,2.m4v,3.0
2024-02-27 11:17:59.061008,1709029079.0610075,-33.203125,-30.76171875,-18.06640625,-38.57421875,0.0,0.0,0.0,0.0,2.m4v,3.0
2024-02-27 11:17:59.064914,1709029079.0649135,-32.71484375,-25.390625,-31.73828125,-59.08203125,0.0,0.0,0.0,0.0,2.m4v,3.0
2024-02-27 11:17:59.068819,1709029079.068819,-29.78515625,-20.5078125,-49.8046875,-53.22265625,0.0,0.0,0.0,0.0,2.m4v,3.0
2024-02-27 11:17:59.072725,1709029079.0727246,-19.53125,0.0,-29.78515625,-8.7890625,0.0,0.0,0.0,0.0,2.m4v,3.0
2024-02-27 11:17:59.076630,1709029079.0766304,-27.83203125,-2.9296875,-12.6953125,8.7890625,0.0,0.0,0.0,0.0,2.m4v,3.0
2024-02-27 11:17:59.080536,1709029079.080536,-35.64453125,-26.85546875,-19.04296875,-21.484375,0.0,0.0,0.0,0.0,2.m4v,3.0
2024-02-27 11:17:59.084441,1709029079.0844414,-26.85546875,-33.203125,-22.94921875,-44.43359375,0.0,0.0,0.0,0.0,2.m4v,3.0
2024-02-27 11:17:59.088347,1709029079.0883472,-27.34375,-40.52734375,-37.59765625,-58.59375,0.0,0.0,0.0,0.0,2.m4v,3.0
2024-02-27 11:17:59.092253,1709029079.0922527,-43.9453125,-48.828125,-41.9921875,-44.921875,0.0,0.0,0.0,0.0,2.m4v,3.0
2024-02-27 11:17:59.096159,1709029079.0961585,-35.64453125,-40.0390625,-24.4140625,-17.578125,0.0,0.0,0.0,0.0,2.m4v,3.0
2024-02-27 11:17:59.100066,1709029079.1000664,-26.3671875,-34.66796875,-25.390625,-32.2265625,0.0,0.0,0.0,0.0,2.m4v,3.0
2024-02-27 11:17:59.103972,1709029079.1039722,-41.015625,-30.2734375,-38.57421875,-66.40625,0.0,0.0,0.0,0.0,2.m4v,3.0
2024-02-27 11:17:59.107878,1709029079.1078775,-53.7109375,-26.3671875,-45.8984375,-73.2421875,0.0,0.0,0.0,0.0,2.m4v,3.0
2024-02-27 11:17:59.111783,1709029079.1117833,-60.546875,-36.62109375,-40.52734375,-60.05859375,0.0,0.0,0.0,0.0,2.m4v,3.0
2024-02-27 11:17:59.115689,1709029079.115689,-46.875,-32.2265625,-25.390625,-27.83203125,0.0,0.0,0.0,0.0,2.m4v,3.0
2024-02-27 11:17:59.119595,1709029079.1195946,-31.25,-2.44140625,-21.97265625,-18.06640625,0.0,0.0,0.0,0.0,2.m4v,3.0
2024-02-27 11:17:59.123500,1709029079.1235003,-40.52734375,-27.83203125,-30.76171875,-58.59375,0.0,0.0,0.0,0.0,2.m4v,3.0
2024-02-27 11:17:59.127406,1709029079.127406,-38.0859375,-56.640625,-32.2265625,-68.84765625,0.0,0.0,0.0,0.0,2.m4v,3.0
2024-02-27 11:17:59.131311,1709029079.1313114,-37.109375,-36.62109375,-25.390625,-42.48046875,0.0,0.0,0.0,0.0,2.m4v,3.0
2024-02-27 11:17:59.135217,1709029079.1352172,-50.78125,-33.203125,-29.78515625,-27.34375,0.0,0.0,0.0,0.0,2.m4v,3.0
2024-02-27 11:17:59.139123,1709029079.1391227,-38.57421875,-20.01953125,-24.4140625,-20.01953125,0.0,0.0,0.0,0.0,2.m4v,3.0
2024-02-27 11:17:59.143028,1709029079.1430285,-24.4140625,-28.3203125,-12.6953125,-41.9921875,0.0,0.0,0.0,0.0,2.m4v,3.0
2024-02-27 11:17:59.146937,1709029079.146937,-42.96875,-60.05859375,-18.5546875,-72.75390625,0.0,0.0,0.0,0.0,2.m4v,3.0
2024-02-27 11:17:59.150842,1709029079.1508422,-60.05859375,-54.6875,-26.85546875,-60.05859375,0.0,0.0,0.0,0.0,2.m4v,3.0
2024-02-27 11:17:59.154748,1709029079.1547475,-46.38671875,-29.296875,-36.1328125,-22.4609375,0.0,0.0,0.0,0.0,2.m4v,3.0
2024-02-27 11:17:59.158653,1709029079.1586535,-38.0859375,-35.64453125,-50.29296875,-27.83203125,0.0,0.0,0.0,0.0,2.m4v,3.0
2024-02-27 11:17:59.162559,1709029079.162559,-33.69140625,-36.62109375,-42.48046875,-38.57421875,0.0,0.0,0.0,0.0,2.m4v,3.0
2024-02-27 11:17:59.166465,1709029079.1664648,-34.66796875,-19.04296875,-21.97265625,-34.1796875,0.0,0.0,0.0,0.0,2.m4v,3.0
2024-02-27 11:17:59.170370,1709029079.1703703,-42.96875,-33.203125,-32.2265625,-40.52734375,0.0,0.0,0.0,0.0,2.m4v,3.0
2024-02-27 11:17:59.174276,1709029079.174276,-41.50390625,-56.15234375,-34.66796875,-31.25,0.0,0.0,0.0,0.0,2.m4v,3.0
2024-02-27 11:17:59.178182,1709029079.1781816,-31.73828125,-41.9921875,-26.3671875,-5.859375,0.0,0.0,0.0,0.0,2.m4v,3.0
2024-02-27 11:17:59.182087,1709029079.1820872,-35.64453125,-40.52734375,-36.1328125,-20.99609375,0.0,0.0,0.0,0.0,2.m4v,3.0
2024-02-27 11:17:59.185993,1709029079.1859927,-49.8046875,-43.45703125,-32.2265625,-49.31640625,0.0,0.0,0.0,0.0,2.m4v,3.0
2024-02-27 11:17:59.189898,1709029079.1898985,-53.7109375,-39.55078125,-32.71484375,-39.0625,0.0,0.0,0.0,0.0,2.m4v,3.0
2024-02-27 11:17:59.193810,1709029079.19381,-46.38671875,-43.9453125,-47.8515625,-18.06640625,0.0,0.0,0.0,0.0,2.m4v,3.0
2024-02-27 11:17:59.197716,1709029079.1977155,-41.9921875,-32.2265625,-46.875,-14.6484375,0.0,0.0,0.0,0.0,2.m4v,3.0
2024-02-27 11:17:59.201621,1709029079.201621,-44.43359375,-42.48046875,-40.0390625,-37.59765625,0.0,0.0,0.0,0.0,2.m4v,3.0
2024-02-27 11:17:59.205527,1709029079.2055268,-43.45703125,-59.08203125,-36.62109375,-62.98828125,0.0,0.0,0.0,0.0,2.m4v,3.0
2024-02-27 11:17:59.209432,1709029079.2094324,-29.296875,-47.8515625,-17.08984375,-42.96875,0.0,0.0,0.0,0.0,2.m4v,3.0
2024-02-27 11:17:59.213338,1709029079.213338,-30.2734375,-27.83203125,-11.71875,-5.859375,0.0,0.0,0.0,0.0,2.m4v,3.0
2024-02-27 11:17:59.217244,1709029079.2172437,-31.73828125,-27.83203125,-19.53125,4.39453125,0.0,0.0,0.0,0.0,2.m4v,3.0
2024-02-27 11:17:59.221149,1709029079.2211492,-27.34375,-28.80859375,-30.76171875,-9.765625,0.0,0.0,0.0,0.0,2.m4v,3.0
2024-02-27 11:17:59.225055,1709029079.225055,-32.2265625,-31.25,-41.015625,-34.1796875,0.0,0.0,0.0,0.0,2.m4v,3.0
2024-02-27 11:17:59.228961,1709029079.2289605,-41.015625,-50.78125,-39.0625,-49.31640625,0.0,0.0,0.0,0.0,2.m4v,3.0
2024-02-27 11:17:59.232866,1709029079.232866,-39.0625,-54.6875,-38.0859375,-34.1796875,0.0,0.0,0.0,0.0,2.m4v,3.0
2024-02-27 11:17:59.236772,1709029079.2367718,-27.83203125,-36.62109375,-50.29296875,-11.71875,0.0,0.0,0.0,0.0,2.m4v,3.0
2024-02-27 11:17:59.240682,1709029079.240682,-16.6015625,-19.53125,-69.82421875,-17.08984375,0.0,0.0,0.0,0.0,2.m4v,3.0
2024-02-27 11:17:59.244588,1709029079.244588,-17.08984375,-30.76171875,-40.52734375,-36.62109375,0.0,0.0,0.0,0.0,2.m4v,3.0
2024-02-27 11:17:59.248493,1709029079.2484934,-26.85546875,-40.52734375,-3.41796875,-39.55078125,0.0,0.0,0.0,0.0,2.m4v,3.0
2024-02-27 11:17:59.252399,1709029079.252399,-30.76171875,-30.2734375,1.46484375,-18.5546875,0.0,0.0,0.0,0.0,2.m4v,3.0
2024-02-27 11:17:59.256305,1709029079.2563047,-31.25,-16.11328125,-5.859375,-0.48828125,0.0,0.0,0.0,0.0,2.m4v,3.0
2024-02-27 11:17:59.260210,1709029079.2602105,-30.76171875,-4.8828125,-20.99609375,-13.18359375,0.0,0.0,0.0,0.0,2.m4v,3.0
2024-02-27 11:17:59.264116,1709029079.2641158,-29.78515625,-25.390625,-32.71484375,-39.0625,0.0,0.0,0.0,0.0,2.m4v,3.0
2024-02-27 11:17:59.268022,1709029079.2680216,-39.0625,-49.31640625,-41.015625,-57.12890625,0.0,0.0,0.0,0.0,2.m4v,3.0
2024-02-27 11:17:59.271927,1709029079.271927,-49.31640625,-39.55078125,-40.0390625,-36.1328125,0.0,0.0,0.0,0.0,2.m4v,3.0
2024-02-27 11:17:59.275833,1709029079.275833,-36.62109375,-35.15625,-47.36328125,-8.7890625,0.0,0.0,0.0,0.0,2.m4v,3.0
2024-02-27 11:17:59.279738,1709029079.2797384,-19.53125,-22.94921875,-48.828125,-15.625,0.0,0.0,0.0,0.0,2.m4v,3.0
2024-02-27 11:17:59.283644,1709029079.283644,-22.4609375,-16.6015625,-36.1328125,-40.52734375,0.0,0.0,0.0,0.0,2.m4v,3.0
2024-02-27 11:17:59.287554,1709029079.2875535,-36.1328125,-36.62109375,-36.1328125,-53.7109375,0.0,0.0,0.0,0.0,2.m4v,3.0
2024-02-27 11:17:59.291459,1709029079.291459,-40.0390625,-22.4609375,-29.296875,-29.296875,0.0,0.0,0.0,0.0,2.m4v,3.0
2024-02-27 11:17:59.295365,1709029079.2953649,-26.85546875,6.34765625,-11.71875,5.859375,0.0,0.0,0.0,0.0,2.m4v,3.0
2024-02-27 11:17:59.299270,1709029079.2992704,-12.20703125,-4.39453125,-5.859375,-10.25390625,0.0,0.0,0.0,0.0,2.m4v,3.0
2024-02-27 11:17:59.303176,1709029079.3031762,-14.16015625,-17.08984375,-14.16015625,-44.921875,0.0,0.0,0.0,0.0,2.m4v,3.0
2024-02-27 11:17:59.307082,1709029079.3070817,-23.92578125,-3.90625,-26.3671875,-46.875,0.0,0.0,0.0,0.0,2.m4v,3.0
2024-02-27 11:17:59.310987,1709029079.3109877,-43.45703125,-20.01953125,-36.62109375,-40.52734375,0.0,0.0,0.0,0.0,2.m4v,3.0
2024-02-27 11:17:59.314893,1709029079.314893,-41.9921875,-34.1796875,-26.3671875,-16.6015625,0.0,0.0,0.0,0.0,2.m4v,3.0
2024-02-27 11:17:59.318799,1709029079.3187983,-16.6015625,-8.30078125,-8.30078125,4.8828125,0.0,0.0,0.0,0.0,2.m4v,3.0
2024-02-27 11:17:59.322704,1709029079.3227043,-19.04296875,-21.484375,-30.76171875,-34.1796875,0.0,0.0,0.0,0.0,2.m4v,3.0
2024-02-27 11:17:59.326610,1709029079.3266098,-25.87890625,-28.80859375,-43.45703125,-58.59375,0.0,0.0,0.0,0.0,2.m4v,3.0
2024-02-27 11:17:59.330515,1709029079.3305154,-24.4140625,-18.06640625,-20.99609375,-31.73828125,0.0,0.0,0.0,0.0,2.m4v,3.0
2024-02-27 11:17:59.334425,1709029079.334425,-32.2265625,-20.01953125,-17.08984375,-12.6953125,0.0,0.0,0.0,0.0,2.m4v,3.0
2024-02-27 11:17:59.338331,1709029079.3383305,-30.76171875,-16.11328125,-18.06640625,-11.71875,0.0,0.0,0.0,0.0,2.m4v,3.0
2024-02-27 11:17:59.342236,1709029079.342236,-19.53125,-15.625,-26.85546875,-32.71484375,0.0,0.0,0.0,0.0,2.m4v,3.0
2024-02-27 11:17:59.346142,1709029079.3461418,-13.18359375,-5.37109375,-37.59765625,-31.25,0.0,0.0,0.0,0.0,2.m4v,3.0
2024-02-27 11:17:59.350047,1709029079.350047,-28.3203125,-9.27734375,-41.50390625,-23.4375,0.0,0.0,0.0,0.0,2.m4v,3.0
2024-02-27 11:17:59.353953,1709029079.353953,-48.828125,-20.99609375,-41.015625,-17.578125,0.0,0.0,0.0,0.0,2.m4v,3.0
2024-02-27 11:17:59.357859,1709029079.357859,-50.78125,-42.96875,-44.921875,-18.5546875,0.0,0.0,0.0,0.0,2.m4v,3.0
2024-02-27 11:17:59.361764,1709029079.3617642,-50.29296875,-64.453125,-48.33984375,-42.48046875,0.0,0.0,0.0,0.0,2.m4v,3.0
2024-02-27 11:17:59.365670,1709029079.36567,-48.33984375,-48.828125,-48.33984375,-64.94140625,0.0,0.0,0.0,0.0,2.m4v,3.0
2024-02-27 11:17:59.369576,1709029079.3695755,-42.48046875,-29.78515625,-49.8046875,-47.8515625,0.0,0.0,0.0,0.0,2.m4v,3.0
2024-02-27 11:17:59.373481,1709029079.373481,-29.296875,-15.13671875,-34.66796875,-11.23046875,0.0,0.0,0.0,0.0,2.m4v,3.0
2024-02-27 11:17:59.377387,1709029079.3773868,-18.06640625,-3.90625,-25.87890625,-1.46484375,0.0,0.0,0.0,0.0,2.m4v,3.0
2024-02-27 11:17:59.381296,1709029079.3812962,-16.11328125,-27.34375,-31.25,-22.94921875,0.0,0.0,0.0,0.0,2.m4v,3.0
2024-02-27 11:17:59.385202,1709029079.3852017,-21.97265625,-70.3125,-41.9921875,-46.875,0.0,0.0,0.0,0.0,2.m4v,3.0
2024-02-27 11:17:59.389107,1709029079.3891072,-30.76171875,-65.4296875,-42.96875,-36.62109375,0.0,0.0,0.0,0.0,2.m4v,3.0
2024-02-27 11:17:59.393013,1709029079.393013,-40.0390625,-34.66796875,-39.55078125,-18.5546875,0.0,0.0,0.0,0.0,2.m4v,3.0
2024-02-27 11:17:59.396919,1709029079.3969183,-37.109375,-19.04296875,-43.45703125,-7.32421875,0.0,0.0,0.0,0.0,2.m4v,3.0
2024-02-27 11:17:59.400824,1709029079.4008243,-31.73828125,10.25390625,-55.17578125,-6.34765625,0.0,0.0,0.0,0.0,2.m4v,3.0
2024-02-27 11:17:59.408635,1709029079.4086354,-47.8515625,-38.0859375,-36.1328125,-56.640625,0.0,0.0,0.0,0.0,2.m4v,3.0
2024-02-27 11:17:59.416447,1709029079.4164467,-30.76171875,-52.734375,-24.90234375,-12.20703125,0.0,0.0,0.0,0.0,2.m4v,3.0
2024-02-27 11:17:59.424258,1709029079.424258,-30.76171875,-37.59765625,-37.109375,-49.8046875,0.0,0.0,0.0,0.0,2.m4v,3.0
2024-02-27 11:17:59.432072,1709029079.4320722,-21.97265625,-16.11328125,-25.87890625,-28.80859375,0.0,0.0,0.0,0.0,2.m4v,3.0
2024-02-27 11:17:59.439883,1709029079.4398832,-25.390625,-12.20703125,-29.296875,-14.6484375,0.0,0.0,0.0,0.0,2.m4v,3.0
2024-02-27 11:17:59.447695,1709029079.4476943,-30.2734375,-9.765625,-26.85546875,-38.57421875,0.0,0.0,0.0,0.0,2.m4v,3.0
2024-02-27 11:17:59.455506,1709029079.4555058,-50.29296875,-35.64453125,-12.6953125,-8.30078125,0.0,0.0,0.0,0.0,2.m4v,3.0
2024-02-27 11:17:59.463317,1709029079.4633172,-50.29296875,-31.25,-21.97265625,-56.640625,0.0,0.0,0.0,0.0,2.m4v,3.0
2024-02-27 11:17:59.471128,1709029079.4711282,-68.359375,-40.0390625,-24.4140625,-54.19921875,0.0,0.0,0.0,0.0,2.m4v,3.0
2024-02-27 11:17:59.478942,1709029079.4789422,-46.38671875,-24.4140625,-12.20703125,-22.94921875,0.0,0.0,0.0,0.0,2.m4v,3.0
2024-02-27 11:17:59.486753,1709029079.4867532,-85.44921875,-24.90234375,-31.73828125,-98.14453125,0.0,0.0,0.0,0.0,2.m4v,3.0
2024-02-27 11:17:59.494565,1709029079.4945643,-83.0078125,-4.39453125,-20.5078125,-62.98828125,0.0,0.0,0.0,0.0,2.m4v,3.0
2024-02-27 11:17:59.830482,1709029079.8304822,-40.0390625,-50.78125,-21.484375,-24.90234375,0.0,0.0,0.0,0.0,2.m4v,3.0
2024-02-27 11:17:59.838293,1709029079.8382933,-24.4140625,-29.78515625,-24.4140625,-8.7890625,0.0,0.0,0.0,0.0,2.m4v,3.0
2024-02-27 11:17:59.846105,1709029079.8461046,-30.76171875,-39.55078125,-37.109375,-31.25,0.0,0.0,0.0,0.0,2.m4v,3.0
2024-02-27 11:17:59.853918,1709029079.8539183,-38.57421875,-32.2265625,-43.9453125,-15.625,0.0,0.0,0.0,0.0,2.m4v,3.0
2024-02-27 11:17:59.861730,1709029079.8617296,-17.578125,-21.97265625,-33.69140625,-10.7421875,0.0,0.0,0.0,0.0,2.m4v,3.0
2024-02-27 11:17:59.869541,1709029079.869541,-40.0390625,-19.53125,-42.96875,-39.55078125,0.0,0.0,0.0,0.0,2.m4v,3.0
2024-02-27 11:17:59.877352,1709029079.877352,-30.76171875,-51.26953125,-26.3671875,-18.5546875,0.0,0.0,0.0,0.0,2.m4v,3.0
2024-02-27 11:17:59.885163,1709029079.8851633,-25.390625,-36.1328125,-34.1796875,-45.8984375,0.0,0.0,0.0,0.0,2.m4v,3.0
2024-02-27 11:17:59.892975,1709029079.8929746,-32.71484375,-20.99609375,-29.78515625,-21.484375,0.0,0.0,0.0,0.0,2.m4v,3.0
2024-02-27 11:17:59.900788,1709029079.9007876,-36.1328125,-26.85546875,-52.734375,-36.1328125,0.0,0.0,0.0,0.0,2.m4v,3.0
2024-02-27 11:17:59.900788,1709029079.9007876,-36.1328125,-26.85546875,-52.734375,-36.1328125,0.0,0.0,0.0,0.0,2.m4v,3.0
2024-02-27 11:17:59.908599,1709029079.908599,-40.0390625,-33.69140625,-36.1328125,-58.10546875,0.0,0.0,0.0,0.0,2.m4v,3.0
2024-02-27 11:17:59.908599,1709029079.908599,-40.0390625,-33.69140625,-36.1328125,-58.10546875,0.0,0.0,0.0,0.0,2.m4v,3.0
2024-02-27 11:17:59.916410,1709029079.9164102,-33.203125,-15.625,-20.5078125,-0.9765625,0.0,0.0,0.0,0.0,2.m4v,3.0
2024-02-27 11:17:59.916410,1709029079.9164102,-33.203125,-15.625,-20.5078125,-0.9765625,0.0,0.0,0.0,0.0,2.m4v,3.0
2024-02-27 11:17:59.924221,1709029079.9242213,-36.62109375,-18.5546875,-38.0859375,-41.50390625,0.0,0.0,0.0,0.0,2.m4v,3.0
2024-02-27 11:17:59.924221,1709029079.9242213,-36.62109375,-18.5546875,-38.0859375,-41.50390625,0.0,0.0,0.0,0.0,2.m4v,3.0
2024-02-27 11:17:59.932033,1709029079.9320326,-21.97265625,-37.59765625,-27.83203125,-22.4609375,0.0,0.0,0.0,0.0,2.m4v,3.0
2024-02-27 11:17:59.932033,1709029079.9320326,-21.97265625,-37.59765625,-27.83203125,-22.4609375,0.0,0.0,0.0,0.0,2.m4v,3.0
2024-02-27 11:17:59.939844,1709029079.939844,-27.34375,-2.44140625,-43.9453125,-18.5546875,0.0,0.0,0.0,0.0,2.m4v,3.0
2024-02-27 11:17:59.939844,1709029079.939844,-27.34375,-2.44140625,-43.9453125,-18.5546875,0.0,0.0,0.0,0.0,2.m4v,3.0
2024-02-27 11:17:59.947660,1709029079.9476602,-28.80859375,-22.94921875,-28.3203125,-41.015625,0.0,0.0,0.0,0.0,2.m4v,3.0
2024-02-27 11:17:59.947660,1709029079.9476602,-28.80859375,-22.94921875,-28.3203125,-41.015625,0.0,0.0,0.0,0.0,2.m4v,3.0
2024-02-27 11:17:59.955472,1709029079.9554715,-24.90234375,-6.8359375,-31.73828125,0.48828125,0.0,0.0,0.0,0.0,2.m4v,3.0
2024-02-27 11:17:59.955472,1709029079.9554715,-24.90234375,-6.8359375,-31.73828125,0.48828125,0.0,0.0,0.0,0.0,2.m4v,3.0
2024-02-27 11:17:59.963283,1709029079.9632828,-28.80859375,-12.20703125,-37.109375,-28.3203125,0.0,0.0,0.0,0.0,2.m4v,3.0
2024-02-27 11:17:59.963283,1709029079.9632828,-28.80859375,-12.20703125,-37.109375,-28.3203125,0.0,0.0,0.0,0.0,2.m4v,3.0
2024-02-27 11:17:59.971094,1709029079.971094,-29.78515625,-47.36328125,-20.99609375,-21.484375,0.0,0.0,0.0,0.0,2.m4v,3.0
2024-02-27 11:17:59.971094,1709029079.971094,-29.78515625,-47.36328125,-20.99609375,-21.484375,0.0,0.0,0.0,0.0,2.m4v,3.0
2024-02-27 11:17:59.978905,1709029079.9789052,-21.97265625,-13.671875,-26.85546875,-13.18359375,0.0,0.0,0.0,0.0,2.m4v,3.0
2024-02-27 11:17:59.978905,1709029079.9789052,-21.97265625,-13.671875,-26.85546875,-13.18359375,0.0,0.0,0.0,0.0,2.m4v,3.0
2024-02-27 11:17:59.986717,1709029079.9867165,-41.015625,-50.78125,-45.41015625,-60.546875,0.0,0.0,0.0,0.0,2.m4v,3.0
2024-02-27 11:17:59.986717,1709029079.9867165,-41.015625,-50.78125,-45.41015625,-60.546875,0.0,0.0,0.0,0.0,2.m4v,3.0
2024-02-27 11:17:59.994532,1709029079.9945323,-46.38671875,-10.25390625,-36.62109375,-27.34375,0.0,0.0,0.0,0.0,2.m4v,3.0
2024-02-27 11:17:59.994532,1709029079.9945323,-46.38671875,-10.25390625,-36.62109375,-27.34375,0.0,0.0,0.0,0.0,2.m4v,3.0
2024-02-27 11:18:00.002344,1709029080.0023437,-36.1328125,-30.76171875,-44.43359375,-54.6875,0.0,0.0,0.0,0.0,2.m4v,3.0
2024-02-27 11:18:00.002344,1709029080.0023437,-36.1328125,-30.76171875,-44.43359375,-54.6875,0.0,0.0,0.0,0.0,2.m4v,3.0
2024-02-27 11:18:00.010155,1709029080.010155,-32.71484375,-5.859375,-32.2265625,-39.55078125,0.0,0.0,0.0,0.0,2.m4v,3.0
2024-02-27 11:18:00.010155,1709029080.010155,-32.71484375,-5.859375,-32.2265625,-39.55078125,0.0,0.0,0.0,0.0,2.m4v,3.0
2024-02-27 11:18:00.017966,1709029080.017966,-40.52734375,-38.0859375,-53.7109375,-24.90234375,0.0,0.0,0.0,0.0,2.m4v,3.0
2024-02-27 11:18:00.017966,1709029080.017966,-40.52734375,-38.0859375,-53.7109375,-24.90234375,0.0,0.0,0.0,0.0,2.m4v,3.0
2024-02-27 11:18:00.025777,1709029080.025777,-21.97265625,-26.3671875,-30.2734375,-35.64453125,0.0,0.0,0.0,0.0,2.m4v,3.0
2024-02-27 11:18:00.025777,1709029080.025777,-21.97265625,-26.3671875,-30.2734375,-35.64453125,0.0,0.0,0.0,0.0,2.m4v,3.0
2024-02-27 11:18:00.033589,1709029080.0335886,-20.01953125,-51.7578125,-28.80859375,-11.23046875,0.0,0.0,0.0,0.0,2.m4v,3.0
2024-02-27 11:18:00.033589,1709029080.0335886,-20.01953125,-51.7578125,-28.80859375,-11.23046875,0.0,0.0,0.0,0.0,2.m4v,3.0
2024-02-27 11:18:00.041404,1709029080.0414045,-29.296875,-29.78515625,-45.41015625,-44.921875,0.0,0.0,0.0,0.0,2.m4v,3.0
2024-02-27 11:18:00.041404,1709029080.0414045,-29.296875,-29.78515625,-45.41015625,-44.921875,0.0,0.0,0.0,0.0,2.m4v,3.0
2024-02-27 11:18:00.049216,1709029080.0492158,-38.0859375,-39.55078125,-33.203125,-52.734375,0.0,0.0,0.0,0.0,2.m4v,3.0
2024-02-27 11:18:00.049216,1709029080.0492158,-38.0859375,-39.55078125,-33.203125,-52.734375,0.0,0.0,0.0,0.0,2.m4v,3.0
2024-02-27 11:18:00.057027,1709029080.0570269,-40.0390625,-14.16015625,-44.43359375,-17.578125,0.0,0.0,0.0,0.0,2.m4v,3.0
2024-02-27 11:18:00.057027,1709029080.0570269,-40.0390625,-14.16015625,-44.43359375,-17.578125,0.0,0.0,0.0,0.0,2.m4v,3.0
2024-02-27 11:18:00.064838,1709029080.0648382,-23.4375,-50.78125,-24.90234375,-44.921875,0.0,0.0,0.0,0.0,2.m4v,3.0
2024-02-27 11:18:00.064838,1709029080.0648382,-23.4375,-50.78125,-24.90234375,-44.921875,0.0,0.0,0.0,0.0,2.m4v,3.0
2024-02-27 11:18:00.072649,1709029080.0726497,-28.3203125,-41.50390625,-33.69140625,-17.578125,0.0,0.0,0.0,0.0,2.m4v,3.0
2024-02-27 11:18:00.072649,1709029080.0726497,-28.3203125,-41.50390625,-33.69140625,-17.578125,0.0,0.0,0.0,0.0,2.m4v,3.0
2024-02-27 11:18:00.080461,1709029080.0804608,-31.73828125,-25.390625,-59.08203125,-31.25,0.0,0.0,0.0,0.0,2.m4v,3.0
2024-02-27 11:18:00.080461,1709029080.0804608,-31.73828125,-25.390625,-59.08203125,-31.25,0.0,0.0,0.0,0.0,2.m4v,3.0
2024-02-27 11:18:00.088276,1709029080.0882757,-42.48046875,-27.34375,-33.69140625,-46.875,0.0,0.0,0.0,0.0,2.m4v,3.0
2024-02-27 11:18:00.088276,1709029080.0882757,-42.48046875,-27.34375,-33.69140625,-46.875,0.0,0.0,0.0,0.0,2.m4v,3.0
2024-02-27 11:18:00.096087,1709029080.096087,-55.6640625,-27.83203125,-37.109375,-28.3203125,0.0,0.0,0.0,0.0,2.m4v,3.0
2024-02-27 11:18:00.096087,1709029080.096087,-55.6640625,-27.83203125,-37.109375,-28.3203125,0.0,0.0,0.0,0.0,2.m4v,3.0
2024-02-27 11:18:00.103898,1709029080.1038983,-36.1328125,-21.97265625,-16.11328125,-49.8046875,0.0,0.0,0.0,0.0,2.m4v,3.0
2024-02-27 11:18:00.103898,1709029080.1038983,-36.1328125,-21.97265625,-16.11328125,-49.8046875,0.0,0.0,0.0,0.0,2.m4v,3.0
2024-02-27 11:18:00.111709,1709029080.1117094,-33.69140625,-64.453125,-23.4375,-45.8984375,0.0,0.0,0.0,0.0,2.m4v,3.0
2024-02-27 11:18:00.111709,1709029080.1117094,-33.69140625,-64.453125,-23.4375,-45.8984375,0.0,0.0,0.0,0.0,2.m4v,3.0
2024-02-27 11:18:00.119521,1709029080.119521,-25.87890625,-18.06640625,-24.90234375,-14.16015625,0.0,0.0,0.0,0.0,2.m4v,3.0
2024-02-27 11:18:00.119521,1709029080.119521,-25.87890625,-18.06640625,-24.90234375,-14.16015625,0.0,0.0,0.0,0.0,2.m4v,3.0
2024-02-27 11:18:00.127332,1709029080.127332,-39.0625,-35.15625,-45.8984375,-57.6171875,0.0,0.0,0.0,0.0,2.m4v,3.0
2024-02-27 11:18:00.127332,1709029080.127332,-39.0625,-35.15625,-45.8984375,-57.6171875,0.0,0.0,0.0,0.0,2.m4v,3.0
2024-02-27 11:18:00.135147,1709029080.1351466,-52.734375,-27.34375,-29.296875,-19.04296875,0.0,0.0,0.0,0.0,2.m4v,3.0
2024-02-27 11:18:00.135147,1709029080.1351466,-52.734375,-27.34375,-29.296875,-19.04296875,0.0,0.0,0.0,0.0,2.m4v,3.0
2024-02-27 11:18:00.142958,1709029080.1429577,-36.1328125,-31.73828125,-48.828125,-44.921875,0.0,0.0,0.0,0.0,2.m4v,3.0
2024-02-27 11:18:00.142958,1709029080.1429577,-36.1328125,-31.73828125,-48.828125,-44.921875,0.0,0.0,0.0,0.0,2.m4v,3.0
2024-02-27 11:18:00.150769,1709029080.150769,-25.390625,-9.765625,-12.20703125,-40.52734375,0.0,0.0,0.0,0.0,2.m4v,3.0
2024-02-27 11:18:00.150769,1709029080.150769,-25.390625,-9.765625,-12.20703125,-40.52734375,0.0,0.0,0.0,0.0,2.m4v,3.0
2024-02-27 11:18:00.158580,1709029080.1585803,-31.25,-4.39453125,-24.90234375,-24.90234375,0.0,0.0,0.0,0.0,2.m4v,3.0
2024-02-27 11:18:00.158580,1709029080.1585803,-31.25,-4.39453125,-24.90234375,-24.90234375,0.0,0.0,0.0,0.0,2.m4v,3.0
2024-02-27 11:18:00.166392,1709029080.1663916,-45.41015625,-34.1796875,-36.62109375,-73.2421875,0.0,0.0,0.0,0.0,2.m4v,3.0
2024-02-27 11:18:00.166392,1709029080.1663916,-45.41015625,-34.1796875,-36.62109375,-73.2421875,0.0,0.0,0.0,0.0,2.m4v,3.0
2024-02-27 11:18:00.174203,1709029080.174203,-56.15234375,-48.33984375,-28.3203125,-30.2734375,0.0,0.0,0.0,0.0,2.m4v,3.0
2024-02-27 11:18:00.174203,1709029080.174203,-56.15234375,-48.33984375,-28.3203125,-30.2734375,0.0,0.0,0.0,0.0,2.m4v,3.0
2024-02-27 11:18:00.182017,1709029080.182017,-40.0390625,-45.8984375,-51.7578125,-49.8046875,0.0,0.0,0.0,0.0,2.m4v,3.0
2024-02-27 11:18:00.182017,1709029080.182017,-40.0390625,-45.8984375,-51.7578125,-49.8046875,0.0,0.0,0.0,0.0,2.m4v,3.0
2024-02-27 11:18:00.189828,1709029080.1898284,-48.828125,-43.9453125,-31.73828125,-47.8515625,0.0,0.0,0.0,0.0,2.m4v,3.0
2024-02-27 11:18:00.189828,1709029080.1898284,-48.828125,-43.9453125,-31.73828125,-47.8515625,0.0,0.0,0.0,0.0,2.m4v,3.0
2024-02-27 11:18:00.197639,1709029080.1976397,-37.59765625,-23.92578125,-38.57421875,-4.39453125,0.0,0.0,0.0,0.0,2.m4v,3.0
2024-02-27 11:18:00.197639,1709029080.1976397,-37.59765625,-23.92578125,-38.57421875,-4.39453125,0.0,0.0,0.0,0.0,2.m4v,3.0
2024-02-27 11:18:00.205451,1709029080.2054508,-40.0390625,-35.64453125,-39.0625,-54.6875,0.0,0.0,0.0,0.0,2.m4v,3.0
2024-02-27 11:18:00.205451,1709029080.2054508,-40.0390625,-35.64453125,-39.0625,-54.6875,0.0,0.0,0.0,0.0,2.m4v,3.0
2024-02-27 11:18:00.213262,1709029080.213262,-43.9453125,-39.0625,-24.90234375,-33.69140625,0.0,0.0,0.0,0.0,2.m4v,3.0
2024-02-27 11:18:00.213262,1709029080.213262,-43.9453125,-39.0625,-24.90234375,-33.69140625,0.0,0.0,0.0,0.0,2.m4v,3.0
2024-02-27 11:18:00.221073,1709029080.2210734,-34.66796875,-26.3671875,-28.3203125,-25.390625,0.0,0.0,0.0,0.0,2.m4v,3.0
2024-02-27 11:18:00.221073,1709029080.2210734,-34.66796875,-26.3671875,-28.3203125,-25.390625,0.0,0.0,0.0,0.0,2.m4v,3.0
2024-02-27 11:18:00.228887,1709029080.228887,-28.80859375,-44.43359375,-18.5546875,-41.015625,0.0,0.0,0.0,0.0,2.m4v,3.0
2024-02-27 11:18:00.228887,1709029080.228887,-28.80859375,-44.43359375,-18.5546875,-41.015625,0.0,0.0,0.0,0.0,2.m4v,3.0
2024-02-27 11:18:00.236699,1709029080.2366986,-29.78515625,-33.69140625,-39.0625,-13.18359375,0.0,0.0,0.0,0.0,2.m4v,3.0
2024-02-27 11:18:00.236699,1709029080.2366986,-29.78515625,-33.69140625,-39.0625,-13.18359375,0.0,0.0,0.0,0.0,2.m4v,3.0
2024-02-27 11:18:00.244510,1709029080.24451,-32.2265625,-38.0859375,-32.71484375,-55.6640625,0.0,0.0,0.0,0.0,2.m4v,3.0
2024-02-27 11:18:00.244510,1709029080.24451,-32.2265625,-38.0859375,-32.71484375,-55.6640625,0.0,0.0,0.0,0.0,2.m4v,3.0
2024-02-27 11:18:00.252321,1709029080.252321,-35.15625,-48.828125,-14.16015625,-33.69140625,0.0,0.0,0.0,0.0,2.m4v,3.0
2024-02-27 11:18:00.252321,1709029080.252321,-35.15625,-48.828125,-14.16015625,-33.69140625,0.0,0.0,0.0,0.0,2.m4v,3.0
2024-02-27 11:18:00.275757,1709029080.2757568,-22.4609375,-19.53125,-29.296875,-8.7890625,0.0,0.0,0.0,0.0,2.m4v,3.0
2024-02-27 11:18:00.279662,1709029080.2796624,-18.5546875,-27.34375,-41.9921875,-13.671875,0.0,0.0,0.0,0.0,2.m4v,3.0
2024-02-27 11:18:00.283568,1709029080.283568,-11.23046875,-30.76171875,-41.50390625,-45.8984375,0.0,0.0,0.0,0.0,2.m4v,3.0
2024-02-27 11:18:00.287474,1709029080.2874737,-24.90234375,-30.2734375,-34.66796875,-58.59375,0.0,0.0,0.0,0.0,2.m4v,3.0
2024-02-27 11:18:00.291379,1709029080.2913797,-47.8515625,-24.4140625,-30.2734375,-38.57421875,0.0,0.0,0.0,0.0,2.m4v,3.0
2024-02-27 11:18:00.295285,1709029080.295285,-51.26953125,-42.48046875,-31.25,-17.08984375,0.0,0.0,0.0,0.0,2.m4v,3.0
2024-02-27 11:18:00.299191,1709029080.2991903,-42.96875,-73.2421875,-41.50390625,-31.73828125,0.0,0.0,0.0,0.0,2.m4v,3.0
2024-02-27 11:18:00.303096,1709029080.3030963,-51.26953125,-70.80078125,-48.828125,-62.5,0.0,0.0,0.0,0.0,2.m4v,3.0
2024-02-27 11:18:00.307002,1709029080.3070018,-55.6640625,-41.9921875,-29.296875,-60.05859375,0.0,0.0,0.0,0.0,2.m4v,3.0
2024-02-27 11:18:00.310907,1709029080.3109074,-46.38671875,-24.90234375,-19.04296875,-40.0390625,0.0,0.0,0.0,0.0,2.m4v,3.0
2024-02-27 11:18:00.314813,1709029080.3148131,-45.41015625,-27.83203125,-25.87890625,-26.3671875,0.0,0.0,0.0,0.0,2.m4v,3.0
2024-02-27 11:18:00.318724,1709029080.3187237,-38.57421875,-25.87890625,-22.94921875,-11.71875,0.0,0.0,0.0,0.0,2.m4v,3.0
2024-02-27 11:18:00.322629,1709029080.3226297,-35.15625,-29.78515625,-28.3203125,-32.71484375,0.0,0.0,0.0,0.0,2.m4v,3.0
2024-02-27 11:18:00.326535,1709029080.326535,-36.1328125,-44.43359375,-29.296875,-65.91796875,0.0,0.0,0.0,0.0,2.m4v,3.0
2024-02-27 11:18:00.330441,1709029080.3304408,-36.62109375,-37.59765625,-27.83203125,-47.8515625,0.0,0.0,0.0,0.0,2.m4v,3.0
2024-02-27 11:18:00.334346,1709029080.3343463,-43.9453125,-28.80859375,-41.015625,-15.625,0.0,0.0,0.0,0.0,2.m4v,3.0
2024-02-27 11:18:00.338252,1709029080.3382518,-42.48046875,-26.3671875,-51.26953125,-15.13671875,0.0,0.0,0.0,0.0,2.m4v,3.0
2024-02-27 11:18:00.342158,1709029080.3421576,-44.43359375,-30.2734375,-47.36328125,-42.96875,0.0,0.0,0.0,0.0,2.m4v,3.0
2024-02-27 11:18:00.346063,1709029080.3460631,-55.6640625,-50.29296875,-41.50390625,-67.87109375,0.0,0.0,0.0,0.0,2.m4v,3.0
2024-02-27 11:18:00.349969,1709029080.349969,-58.10546875,-56.15234375,-43.45703125,-69.3359375,0.0,0.0,0.0,0.0,2.m4v,3.0
2024-02-27 11:18:00.353874,1709029080.3538744,-56.640625,-46.38671875,-36.62109375,-48.33984375,0.0,0.0,0.0,0.0,2.m4v,3.0
2024-02-27 11:18:00.357780,1709029080.35778,-54.6875,-23.92578125,-26.3671875,-32.71484375,0.0,0.0,0.0,0.0,2.m4v,3.0
2024-02-27 11:18:00.361686,1709029080.3616858,-45.8984375,-9.765625,-19.04296875,-36.1328125,0.0,0.0,0.0,0.0,2.m4v,3.0
2024-02-27 11:18:00.365596,1709029080.365596,-41.015625,-8.30078125,-20.99609375,-48.828125,0.0,0.0,0.0,0.0,2.m4v,3.0
2024-02-27 11:18:00.369502,1709029080.3695016,-41.9921875,-14.16015625,-26.3671875,-46.875,0.0,0.0,0.0,0.0,2.m4v,3.0
2024-02-27 11:18:00.373407,1709029080.3734071,-39.55078125,-50.78125,-27.83203125,-21.484375,0.0,0.0,0.0,0.0,2.m4v,3.0
2024-02-27 11:18:00.377313,1709029080.377313,-42.96875,-90.8203125,-44.921875,-16.11328125,0.0,0.0,0.0,0.0,2.m4v,3.0
2024-02-27 11:18:00.381218,1709029080.3812184,-46.875,-103.02734375,-58.59375,-36.62109375,0.0,0.0,0.0,0.0,2.m4v,3.0
2024-02-27 11:18:00.385124,1709029080.3851242,-37.59765625,-90.8203125,-30.76171875,-47.36328125,0.0,0.0,0.0,0.0,2.m4v,3.0
2024-02-27 11:18:00.389030,1709029080.3890295,-41.50390625,-93.75,-16.11328125,-42.48046875,0.0,0.0,0.0,0.0,2.m4v,3.0
2024-02-27 11:18:00.392935,1709029080.3929353,-41.9921875,-109.86328125,-24.90234375,-27.83203125,0.0,0.0,0.0,0.0,2.m4v,3.0
2024-02-27 11:18:00.396841,1709029080.396841,-36.62109375,-95.21484375,-11.23046875,-19.53125,0.0,0.0,0.0,0.0,2.m4v,3.0
2024-02-27 11:18:00.400747,1709029080.4007466,-41.50390625,-82.51953125,-14.6484375,-38.0859375,0.0,0.0,0.0,0.0,2.m4v,3.0
2024-02-27 11:18:00.404652,1709029080.404652,-36.62109375,-89.84375,-28.80859375,-56.15234375,0.0,0.0,0.0,0.0,2.m4v,3.0
2024-02-27 11:18:00.408558,1709029080.408558,-42.48046875,-90.33203125,-30.2734375,-55.6640625,0.0,0.0,0.0,0.0,2.m4v,3.0
2024-02-27 11:18:00.412468,1709029080.4124677,-56.15234375,-83.0078125,-34.66796875,-41.015625,0.0,0.0,0.0,0.0,2.m4v,3.0
2024-02-27 11:18:00.416373,1709029080.4163733,-52.24609375,-74.70703125,-42.48046875,-26.3671875,0.0,0.0,0.0,0.0,2.m4v,3.0
2024-02-27 11:18:00.420279,1709029080.420279,-32.2265625,-72.265625,-31.25,-32.71484375,0.0,0.0,0.0,0.0,2.m4v,3.0
2024-02-27 11:18:00.424185,1709029080.4241846,-29.296875,-80.078125,-25.87890625,-42.48046875,0.0,0.0,0.0,0.0,2.m4v,3.0
2024-02-27 11:18:00.428090,1709029080.42809,-41.50390625,-68.84765625,-32.71484375,-38.57421875,0.0,0.0,0.0,0.0,2.m4v,3.0
2024-02-27 11:18:00.431996,1709029080.431996,-41.50390625,-32.2265625,-31.73828125,-22.94921875,0.0,0.0,0.0,0.0,2.m4v,3.0
2024-02-27 11:18:00.435901,1709029080.4359014,-39.0625,-18.5546875,-45.8984375,-12.20703125,0.0,0.0,0.0,0.0,2.m4v,3.0
2024-02-27 11:18:00.439807,1709029080.439807,-31.73828125,-34.66796875,-50.29296875,-33.69140625,0.0,0.0,0.0,0.0,2.m4v,3.0
2024-02-27 11:18:00.443713,1709029080.4437127,-29.78515625,-52.734375,-38.57421875,-59.08203125,0.0,0.0,0.0,0.0,2.m4v,3.0
2024-02-27 11:18:00.447618,1709029080.4476182,-39.0625,-59.08203125,-33.203125,-59.5703125,0.0,0.0,0.0,0.0,2.m4v,3.0
2024-02-27 11:18:00.451524,1709029080.451524,-38.0859375,-41.9921875,-28.80859375,-40.0390625,0.0,0.0,0.0,0.0,2.m4v,3.0
2024-02-27 11:18:00.455430,1709029080.4554296,-33.69140625,-26.85546875,-20.99609375,-13.18359375,0.0,0.0,0.0,0.0,2.m4v,3.0
2024-02-27 11:18:00.459339,1709029080.4593394,-37.59765625,-24.4140625,-18.5546875,-16.6015625,0.0,0.0,0.0,0.0,2.m4v,3.0
2024-02-27 11:18:00.463245,1709029080.463245,-38.57421875,-43.45703125,-20.99609375,-50.78125,0.0,0.0,0.0,0.0,2.m4v,3.0
2024-02-27 11:18:00.467151,1709029080.4671507,-41.015625,-51.7578125,-35.15625,-63.4765625,0.0,0.0,0.0,0.0,2.m4v,3.0
2024-02-27 11:18:00.471056,1709029080.4710562,-52.24609375,-38.57421875,-43.45703125,-46.38671875,0.0,0.0,0.0,0.0,2.m4v,3.0
2024-02-27 11:18:00.474962,1709029080.474962,-40.52734375,-42.48046875,-31.73828125,-20.5078125,0.0,0.0,0.0,0.0,2.m4v,3.0
2024-02-27 11:18:00.478868,1709029080.4788675,-21.484375,-37.109375,-23.92578125,-5.859375,0.0,0.0,0.0,0.0,2.m4v,3.0
2024-02-27 11:18:00.935862,1709029080.9358618,-33.69140625,-11.71875,-36.1328125,-8.30078125,0.0,0.0,0.0,0.0,2.m4v,3.0
2024-02-27 11:18:00.947579,1709029080.947579,-37.59765625,-9.27734375,-40.0390625,-39.55078125,0.0,0.0,0.0,0.0,2.m4v,3.0
2024-02-27 11:18:00.959296,1709029080.9592955,-42.96875,-16.11328125,-39.55078125,-28.3203125,0.0,0.0,0.0,0.0,2.m4v,3.0
2024-02-27 11:18:00.971012,1709029080.9710124,-47.36328125,-21.97265625,-39.55078125,-37.109375,0.0,0.0,0.0,0.0,2.m4v,3.0
2024-02-27 11:18:00.982732,1709029080.9827318,-27.34375,-25.87890625,-28.3203125,-37.109375,0.0,0.0,0.0,0.0,2.m4v,3.0
2024-02-27 11:18:00.994449,1709029080.994449,-23.4375,2.44140625,-15.625,15.625,0.0,0.0,0.0,0.0,2.m4v,3.0
2024-02-27 11:18:01.006166,1709029081.0061655,-42.48046875,-30.76171875,-37.109375,-56.640625,0.0,0.0,0.0,0.0,2.m4v,3.0
2024-02-27 11:18:01.017882,1709029081.0178823,-31.73828125,-19.53125,-46.875,-6.34765625,0.0,0.0,0.0,0.0,2.m4v,3.0
2024-02-27 11:18:01.029601,1709029081.029601,-24.90234375,-40.52734375,-38.57421875,-25.390625,0.0,0.0,0.0,0.0,2.m4v,3.0
2024-02-27 11:18:01.041318,1709029081.041318,-18.5546875,12.6953125,-36.1328125,-26.85546875,0.0,0.0,0.0,0.0,2.m4v,3.0
2024-02-27 11:18:01.053035,1709029081.0530348,-54.6875,-32.71484375,-34.1796875,-34.1796875,0.0,0.0,0.0,0.0,2.m4v,3.0
2024-02-27 11:18:01.064752,1709029081.0647516,-41.50390625,-33.69140625,-38.0859375,-62.98828125,0.0,0.0,0.0,0.0,2.m4v,3.0
2024-02-27 11:18:01.076474,1709029081.0764737,-38.57421875,-19.04296875,-43.9453125,-30.2734375,0.0,0.0,0.0,0.0,2.m4v,3.0
2024-02-27 11:18:01.088191,1709029081.0881906,-18.5546875,-13.18359375,-32.71484375,-26.85546875,0.0,0.0,0.0,0.0,2.m4v,3.0
2024-02-27 11:18:01.099907,1709029081.0999074,-50.29296875,-36.62109375,-36.1328125,-30.76171875,0.0,0.0,0.0,0.0,2.m4v,3.0
2024-02-27 11:18:01.111624,1709029081.1116242,-58.10546875,-29.296875,-23.92578125,-46.875,0.0,0.0,0.0,0.0,2.m4v,3.0
2024-02-27 11:18:01.123346,1709029081.123346,-24.4140625,-24.4140625,-30.2734375,-30.76171875,0.0,0.0,0.0,0.0,2.m4v,3.0
2024-02-27 11:18:01.135063,1709029081.135063,-41.9921875,-24.90234375,-40.0390625,-28.80859375,0.0,0.0,0.0,0.0,2.m4v,3.0
2024-02-27 11:18:01.146780,1709029081.14678,-34.66796875,-27.34375,-19.04296875,-62.5,0.0,0.0,0.0,0.0,2.m4v,3.0
2024-02-27 11:18:01.158497,1709029081.1584969,-27.34375,-23.4375,-29.296875,-10.25390625,0.0,0.0,0.0,0.0,2.m4v,3.0
2024-02-27 11:18:01.158497,1709029081.1584969,-27.34375,-23.4375,-29.296875,-10.25390625,0.0,0.0,0.0,0.0,2.m4v,3.0
2024-02-27 11:18:01.170218,1709029081.1702178,-27.83203125,-16.6015625,-41.015625,-43.9453125,0.0,0.0,0.0,0.0,2.m4v,3.0
2024-02-27 11:18:01.170218,1709029081.1702178,-27.83203125,-16.6015625,-41.015625,-43.9453125,0.0,0.0,0.0,0.0,2.m4v,3.0
2024-02-27 11:18:01.181935,1709029081.1819348,-37.109375,14.16015625,-21.97265625,-32.71484375,0.0,0.0,0.0,0.0,2.m4v,3.0
2024-02-27 11:18:01.181935,1709029081.1819348,-37.109375,14.16015625,-21.97265625,-32.71484375,0.0,0.0,0.0,0.0,2.m4v,3.0
2024-02-27 11:18:01.193652,1709029081.1936517,-61.5234375,-32.2265625,-25.390625,-39.0625,0.0,0.0,0.0,0.0,2.m4v,3.0
2024-02-27 11:18:01.193652,1709029081.1936517,-61.5234375,-32.2265625,-25.390625,-39.0625,0.0,0.0,0.0,0.0,2.m4v,3.0
2024-02-27 11:18:01.205369,1709029081.2053685,-22.4609375,-22.4609375,-15.13671875,-33.69140625,0.0,0.0,0.0,0.0,2.m4v,3.0
2024-02-27 11:18:01.205369,1709029081.2053685,-22.4609375,-22.4609375,-15.13671875,-33.69140625,0.0,0.0,0.0,0.0,2.m4v,3.0
2024-02-27 11:18:01.217089,1709029081.2170892,-52.24609375,-6.8359375,-27.34375,-36.62109375,0.0,0.0,0.0,0.0,2.m4v,3.0
2024-02-27 11:18:01.217089,1709029081.2170892,-52.24609375,-6.8359375,-27.34375,-36.62109375,0.0,0.0,0.0,0.0,2.m4v,3.0
2024-02-27 11:18:01.228806,1709029081.228806,-37.109375,-1.953125,-44.921875,-41.50390625,0.0,0.0,0.0,0.0,2.m4v,3.0
2024-02-27 11:18:01.228806,1709029081.228806,-37.109375,-1.953125,-44.921875,-41.50390625,0.0,0.0,0.0,0.0,2.m4v,3.0
2024-02-27 11:18:01.240523,1709029081.2405229,-35.64453125,9.27734375,-30.76171875,-44.921875,0.0,0.0,0.0,0.0,2.m4v,3.0
2024-02-27 11:18:01.240523,1709029081.2405229,-35.64453125,9.27734375,-30.76171875,-44.921875,0.0,0.0,0.0,0.0,2.m4v,3.0
2024-02-27 11:18:01.252240,1709029081.2522397,-27.34375,1.953125,-31.73828125,-20.5078125,0.0,0.0,0.0,0.0,2.m4v,3.0
2024-02-27 11:18:01.252240,1709029081.2522397,-27.34375,1.953125,-31.73828125,-20.5078125,0.0,0.0,0.0,0.0,2.m4v,3.0
2024-02-27 11:18:01.263960,1709029081.26396,-17.08984375,-21.484375,-35.15625,-45.41015625,0.0,0.0,0.0,0.0,2.m4v,3.0
2024-02-27 11:18:01.263960,1709029081.26396,-17.08984375,-21.484375,-35.15625,-45.41015625,0.0,0.0,0.0,0.0,2.m4v,3.0
2024-02-27 11:18:01.275677,1709029081.275677,-24.4140625,26.85546875,-42.48046875,-4.39453125,0.0,0.0,0.0,0.0,2.m4v,3.0
2024-02-27 11:18:01.275677,1709029081.275677,-24.4140625,26.85546875,-42.48046875,-4.39453125,0.0,0.0,0.0,0.0,2.m4v,3.0
2024-02-27 11:18:01.287394,1709029081.2873938,-15.13671875,-29.78515625,-36.1328125,-45.41015625,0.0,0.0,0.0,0.0,2.m4v,3.0
2024-02-27 11:18:01.287394,1709029081.2873938,-15.13671875,-29.78515625,-36.1328125,-45.41015625,0.0,0.0,0.0,0.0,2.m4v,3.0
2024-02-27 11:18:01.299111,1709029081.299111,-26.3671875,2.9296875,-29.78515625,5.859375,0.0,0.0,0.0,0.0,2.m4v,3.0
2024-02-27 11:18:01.299111,1709029081.299111,-26.3671875,2.9296875,-29.78515625,5.859375,0.0,0.0,0.0,0.0,2.m4v,3.0
2024-02-27 11:18:01.310831,1709029081.3108308,-25.87890625,-19.53125,-27.83203125,-15.13671875,0.0,0.0,0.0,0.0,2.m4v,3.0
2024-02-27 11:18:01.310831,1709029081.3108308,-25.87890625,-19.53125,-27.83203125,-15.13671875,0.0,0.0,0.0,0.0,2.m4v,3.0
2024-02-27 11:18:01.322548,1709029081.3225477,14.16015625,18.06640625,-26.85546875,-4.39453125,0.0,0.0,0.0,0.0,2.m4v,3.0
2024-02-27 11:18:01.322548,1709029081.3225477,14.16015625,18.06640625,-26.85546875,-4.39453125,0.0,0.0,0.0,0.0,2.m4v,3.0
2024-02-27 11:18:01.334265,1709029081.3342645,-36.1328125,-35.64453125,-46.38671875,-28.3203125,0.0,0.0,0.0,0.0,2.m4v,3.0
2024-02-27 11:18:01.334265,1709029081.3342645,-36.1328125,-35.64453125,-46.38671875,-28.3203125,0.0,0.0,0.0,0.0,2.m4v,3.0
2024-02-27 11:18:01.345981,1709029081.3459814,-30.76171875,-31.73828125,-20.01953125,-48.828125,0.0,0.0,0.0,0.0,2.m4v,3.0
2024-02-27 11:18:01.345981,1709029081.3459814,-30.76171875,-31.73828125,-20.01953125,-48.828125,0.0,0.0,0.0,0.0,2.m4v,3.0
2024-02-27 11:18:01.357701,1709029081.3577008,-38.57421875,-4.8828125,-30.76171875,-12.6953125,0.0,0.0,0.0,0.0,2.m4v,3.0
2024-02-27 11:18:01.357701,1709029081.3577008,-38.57421875,-4.8828125,-30.76171875,-12.6953125,0.0,0.0,0.0,0.0,2.m4v,3.0
2024-02-27 11:18:01.369418,1709029081.3694177,-65.91796875,-22.94921875,-39.0625,-84.9609375,0.0,0.0,0.0,0.0,2.m4v,3.0
2024-02-27 11:18:01.369418,1709029081.3694177,-65.91796875,-22.94921875,-39.0625,-84.9609375,0.0,0.0,0.0,0.0,2.m4v,3.0
2024-02-27 11:18:01.381135,1709029081.3811347,-35.15625,-37.59765625,-48.828125,-46.875,0.0,0.0,0.0,0.0,2.m4v,3.0
2024-02-27 11:18:01.381135,1709029081.3811347,-35.15625,-37.59765625,-48.828125,-46.875,0.0,0.0,0.0,0.0,2.m4v,3.0
2024-02-27 11:18:01.392852,1709029081.3928516,-25.390625,-21.484375,-7.8125,-24.4140625,0.0,0.0,0.0,0.0,2.m4v,3.0
2024-02-27 11:18:01.392852,1709029081.3928516,-25.390625,-21.484375,-7.8125,-24.4140625,0.0,0.0,0.0,0.0,2.m4v,3.0
2024-02-27 11:18:01.404574,1709029081.404574,-24.90234375,-18.5546875,-27.83203125,-41.015625,0.0,0.0,0.0,0.0,2.m4v,3.0
2024-02-27 11:18:01.404574,1709029081.404574,-24.90234375,-18.5546875,-27.83203125,-41.015625,0.0,0.0,0.0,0.0,2.m4v,3.0
2024-02-27 11:18:01.416291,1709029081.4162908,-33.203125,-11.71875,-44.43359375,-8.30078125,0.0,0.0,0.0,0.0,2.m4v,3.0
2024-02-27 11:18:01.416291,1709029081.4162908,-33.203125,-11.71875,-44.43359375,-8.30078125,0.0,0.0,0.0,0.0,2.m4v,3.0
2024-02-27 11:18:01.428008,1709029081.4280076,-41.015625,-30.76171875,-19.53125,-52.24609375,0.0,0.0,0.0,0.0,2.m4v,3.0
2024-02-27 11:18:01.428008,1709029081.4280076,-41.015625,-30.76171875,-19.53125,-52.24609375,0.0,0.0,0.0,0.0,2.m4v,3.0
2024-02-27 11:18:01.435819,1709029081.435819,-36.62109375,-33.203125,-38.57421875,0.48828125,0.0,0.0,0.0,0.0,2.m4v,3.0
2024-02-27 11:18:01.439724,1709029081.4397244,-33.203125,-25.87890625,-33.69140625,-6.8359375,0.0,0.0,0.0,0.0,2.m4v,3.0
2024-02-27 11:18:01.443635,1709029081.4436352,-28.80859375,-12.6953125,-23.92578125,-29.296875,0.0,0.0,0.0,0.0,2.m4v,3.0
2024-02-27 11:18:01.447541,1709029081.447541,-39.55078125,-17.08984375,-27.83203125,-46.875,0.0,0.0,0.0,0.0,2.m4v,3.0
2024-02-27 11:18:01.451447,1709029081.4514463,-48.33984375,-27.34375,-35.64453125,-42.48046875,0.0,0.0,0.0,0.0,2.m4v,3.0
2024-02-27 11:18:01.455352,1709029081.455352,-38.57421875,-27.34375,-40.0390625,-21.97265625,0.0,0.0,0.0,0.0,2.m4v,3.0
2024-02-27 11:18:01.459258,1709029081.4592578,-40.52734375,-32.2265625,-48.828125,-26.85546875,0.0,0.0,0.0,0.0,2.m4v,3.0
2024-02-27 11:18:01.463163,1709029081.4631634,-43.9453125,-30.76171875,-38.0859375,-44.43359375,0.0,0.0,0.0,0.0,2.m4v,3.0
2024-02-27 11:18:01.467069,1709029081.467069,-45.41015625,-10.7421875,-22.94921875,-54.19921875,0.0,0.0,0.0,0.0,2.m4v,3.0
2024-02-27 11:18:01.470975,1709029081.4709747,-53.22265625,-10.7421875,-31.25,-55.17578125,0.0,0.0,0.0,0.0,2.m4v,3.0
2024-02-27 11:18:01.474880,1709029081.4748802,-41.015625,-12.20703125,-45.41015625,-24.4140625,0.0,0.0,0.0,0.0,2.m4v,3.0
2024-02-27 11:18:01.478786,1709029081.478786,-27.34375,-16.11328125,-33.203125,-9.765625,0.0,0.0,0.0,0.0,2.m4v,3.0
2024-02-27 11:18:01.482692,1709029081.4826915,-33.203125,-28.80859375,-27.83203125,-37.109375,0.0,0.0,0.0,0.0,2.m4v,3.0
2024-02-27 11:18:01.486597,1709029081.486597,-46.38671875,-25.87890625,-30.2734375,-59.5703125,0.0,0.0,0.0,0.0,2.m4v,3.0
2024-02-27 11:18:01.490507,1709029081.4905074,-52.24609375,-11.71875,-27.83203125,-60.546875,0.0,0.0,0.0,0.0,2.m4v,3.0
2024-02-27 11:18:01.494413,1709029081.494413,-45.41015625,-3.41796875,-26.85546875,-31.73828125,0.0,0.0,0.0,0.0,2.m4v,3.0
2024-02-27 11:18:01.498319,1709029081.498319,-40.52734375,4.8828125,-30.76171875,-27.83203125,0.0,0.0,0.0,0.0,2.m4v,3.0
2024-02-27 11:18:01.502224,1709029081.5022242,-56.15234375,-16.6015625,-43.45703125,-70.80078125,0.0,0.0,0.0,0.0,2.m4v,3.0
2024-02-27 11:18:01.506130,1709029081.5061295,-62.5,-25.87890625,-37.109375,-80.56640625,0.0,0.0,0.0,0.0,2.m4v,3.0
2024-02-27 11:18:01.510036,1709029081.5100355,-74.21875,-2.9296875,-32.71484375,-67.3828125,0.0,0.0,0.0,0.0,2.m4v,3.0
2024-02-27 11:18:01.959221,1709029081.9592206,-12.6953125,-21.97265625,-18.5546875,-7.8125,0.0,0.0,0.0,0.0,2.m4v,3.0
2024-02-27 11:18:01.963126,1709029081.9631262,-27.83203125,-20.5078125,-15.625,-41.50390625,0.0,0.0,0.0,0.0,2.m4v,3.0
2024-02-27 11:18:01.967032,1709029081.967032,-45.41015625,-25.390625,-21.484375,-53.22265625,0.0,0.0,0.0,0.0,2.m4v,3.0
2024-02-27 11:18:01.970937,1709029081.9709375,-39.0625,-19.04296875,-25.87890625,-28.80859375,0.0,0.0,0.0,0.0,2.m4v,3.0
2024-02-27 11:18:01.974843,1709029081.974843,-32.2265625,-22.4609375,-27.34375,-11.71875,0.0,0.0,0.0,0.0,2.m4v,3.0
2024-02-27 11:18:01.978749,1709029081.9787488,-25.390625,-11.71875,-25.87890625,-7.32421875,0.0,0.0,0.0,0.0,2.m4v,3.0
2024-02-27 11:18:01.982654,1709029081.9826543,-24.4140625,-11.23046875,-40.52734375,-24.4140625,0.0,0.0,0.0,0.0,2.m4v,3.0
2024-02-27 11:18:01.986560,1709029081.98656,-29.78515625,-39.55078125,-46.38671875,-44.921875,0.0,0.0,0.0,0.0,2.m4v,3.0
2024-02-27 11:18:01.990466,1709029081.9904656,-33.69140625,-32.2265625,-38.0859375,-36.62109375,0.0,0.0,0.0,0.0,2.m4v,3.0
2024-02-27 11:18:01.994371,1709029081.9943712,-26.85546875,-24.90234375,-25.390625,-10.7421875,0.0,0.0,0.0,0.0,2.m4v,3.0
2024-02-27 11:18:01.998277,1709029081.998277,-19.53125,-31.25,-22.94921875,-1.953125,0.0,0.0,0.0,0.0,2.m4v,3.0
2024-02-27 11:18:02.002182,1709029082.0021825,-20.99609375,-26.85546875,-31.73828125,-31.73828125,0.0,0.0,0.0,0.0,2.m4v,3.0
2024-02-27 11:18:02.006092,1709029082.0060916,-19.53125,-19.04296875,-22.94921875,-49.8046875,0.0,0.0,0.0,0.0,2.m4v,3.0
2024-02-27 11:18:02.009997,1709029082.0099971,-22.4609375,-18.5546875,-13.671875,-31.25,0.0,0.0,0.0,0.0,2.m4v,3.0
2024-02-27 11:18:02.013903,1709029082.013903,-44.43359375,-20.99609375,-17.578125,-25.87890625,0.0,0.0,0.0,0.0,2.m4v,3.0
2024-02-27 11:18:02.017808,1709029082.0178084,-59.5703125,-22.4609375,-27.34375,-35.64453125,0.0,0.0,0.0,0.0,2.m4v,3.0
2024-02-27 11:18:02.021714,1709029082.021714,-50.29296875,-16.6015625,-31.25,-35.15625,0.0,0.0,0.0,0.0,2.m4v,3.0
2024-02-27 11:18:02.021714,1709029082.021714,-50.29296875,-16.6015625,-31.25,-35.15625,0.0,0.0,0.0,0.0,2.m4v,3.0
2024-02-27 11:18:02.025620,1709029082.0256195,-48.828125,-19.53125,-30.2734375,-43.45703125,0.0,0.0,0.0,0.0,2.m4v,3.0
2024-02-27 11:18:02.025620,1709029082.0256195,-48.828125,-19.53125,-30.2734375,-43.45703125,0.0,0.0,0.0,0.0,2.m4v,3.0
2024-02-27 11:18:02.029525,1709029082.0295253,-61.03515625,-41.015625,-33.203125,-50.29296875,0.0,0.0,0.0,0.0,2.m4v,3.0
2024-02-27 11:18:02.029525,1709029082.0295253,-61.03515625,-41.015625,-33.203125,-50.29296875,0.0,0.0,0.0,0.0,2.m4v,3.0
2024-02-27 11:18:02.033431,1709029082.0334308,-47.36328125,-57.6171875,-42.96875,-27.83203125,0.0,0.0,0.0,0.0,2.m4v,3.0
2024-02-27 11:18:02.033431,1709029082.0334308,-47.36328125,-57.6171875,-42.96875,-27.83203125,0.0,0.0,0.0,0.0,2.m4v,3.0
2024-02-27 11:18:02.037337,1709029082.0373366,-32.2265625,-47.8515625,-46.875,-17.08984375,0.0,0.0,0.0,0.0,2.m4v,3.0
2024-02-27 11:18:02.037337,1709029082.0373366,-32.2265625,-47.8515625,-46.875,-17.08984375,0.0,0.0,0.0,0.0,2.m4v,3.0
2024-02-27 11:18:02.041242,1709029082.041242,-23.4375,-42.96875,-24.90234375,-28.80859375,0.0,0.0,0.0,0.0,2.m4v,3.0
2024-02-27 11:18:02.041242,1709029082.041242,-23.4375,-42.96875,-24.90234375,-28.80859375,0.0,0.0,0.0,0.0,2.m4v,3.0
2024-02-27 11:18:02.045148,1709029082.045148,-10.7421875,-41.015625,-8.30078125,-38.0859375,0.0,0.0,0.0,0.0,2.m4v,3.0
2024-02-27 11:18:02.045148,1709029082.045148,-10.7421875,-41.015625,-8.30078125,-38.0859375,0.0,0.0,0.0,0.0,2.m4v,3.0
2024-02-27 11:18:02.049053,1709029082.0490534,-27.34375,-27.83203125,-23.4375,-43.45703125,0.0,0.0,0.0,0.0,2.m4v,3.0
2024-02-27 11:18:02.049053,1709029082.0490534,-27.34375,-27.83203125,-23.4375,-43.45703125,0.0,0.0,0.0,0.0,2.m4v,3.0
2024-02-27 11:18:02.052962,1709029082.052962,-39.0625,-28.80859375,-29.296875,-21.484375,0.0,0.0,0.0,0.0,2.m4v,3.0
2024-02-27 11:18:02.052962,1709029082.052962,-39.0625,-28.80859375,-29.296875,-21.484375,0.0,0.0,0.0,0.0,2.m4v,3.0
2024-02-27 11:18:02.056868,1709029082.0568676,-28.3203125,-31.73828125,-27.83203125,-4.8828125,0.0,0.0,0.0,0.0,2.m4v,3.0
2024-02-27 11:18:02.056868,1709029082.0568676,-28.3203125,-31.73828125,-27.83203125,-4.8828125,0.0,0.0,0.0,0.0,2.m4v,3.0
2024-02-27 11:18:02.060773,1709029082.0607734,-28.80859375,-18.5546875,-30.76171875,-19.04296875,0.0,0.0,0.0,0.0,2.m4v,3.0
2024-02-27 11:18:02.060773,1709029082.0607734,-28.80859375,-18.5546875,-30.76171875,-19.04296875,0.0,0.0,0.0,0.0,2.m4v,3.0
2024-02-27 11:18:02.064679,1709029082.064679,-24.90234375,-9.765625,-23.92578125,-25.87890625,0.0,0.0,0.0,0.0,2.m4v,3.0
2024-02-27 11:18:02.064679,1709029082.064679,-24.90234375,-9.765625,-23.92578125,-25.87890625,0.0,0.0,0.0,0.0,2.m4v,3.0
2024-02-27 11:18:02.068585,1709029082.068585,-34.66796875,-21.97265625,-25.390625,-36.1328125,0.0,0.0,0.0,0.0,2.m4v,3.0
2024-02-27 11:18:02.068585,1709029082.068585,-34.66796875,-21.97265625,-25.390625,-36.1328125,0.0,0.0,0.0,0.0,2.m4v,3.0
2024-02-27 11:18:02.072490,1709029082.0724902,-42.96875,-11.71875,-28.80859375,-24.90234375,0.0,0.0,0.0,0.0,2.m4v,3.0
2024-02-27 11:18:02.072490,1709029082.0724902,-42.96875,-11.71875,-28.80859375,-24.90234375,0.0,0.0,0.0,0.0,2.m4v,3.0
2024-02-27 11:18:02.076396,1709029082.0763958,-33.203125,4.8828125,-48.33984375,0.9765625,0.0,0.0,0.0,0.0,2.m4v,3.0
2024-02-27 11:18:02.076396,1709029082.0763958,-33.203125,4.8828125,-48.33984375,0.9765625,0.0,0.0,0.0,0.0,2.m4v,3.0
2024-02-27 11:18:02.080302,1709029082.0803015,-17.578125,-20.01953125,-50.29296875,-12.20703125,0.0,0.0,0.0,0.0,2.m4v,3.0
2024-02-27 11:18:02.080302,1709029082.0803015,-17.578125,-20.01953125,-50.29296875,-12.20703125,0.0,0.0,0.0,0.0,2.m4v,3.0
2024-02-27 11:18:02.084207,1709029082.084207,-15.13671875,-43.45703125,-17.08984375,-43.9453125,0.0,0.0,0.0,0.0,2.m4v,3.0
2024-02-27 11:18:02.084207,1709029082.084207,-15.13671875,-43.45703125,-17.08984375,-43.9453125,0.0,0.0,0.0,0.0,2.m4v,3.0
2024-02-27 11:18:02.088113,1709029082.0881128,-39.0625,-37.59765625,-8.30078125,-54.6875,0.0,0.0,0.0,0.0,2.m4v,3.0
2024-02-27 11:18:02.088113,1709029082.0881128,-39.0625,-37.59765625,-8.30078125,-54.6875,0.0,0.0,0.0,0.0,2.m4v,3.0
2024-02-27 11:18:02.092018,1709029082.0920184,-50.29296875,-33.203125,-23.4375,-33.203125,0.0,0.0,0.0,0.0,2.m4v,3.0
2024-02-27 11:18:02.092018,1709029082.0920184,-50.29296875,-33.203125,-23.4375,-33.203125,0.0,0.0,0.0,0.0,2.m4v,3.0
2024-02-27 11:18:02.095924,1709029082.095924,-37.109375,-25.390625,-27.83203125,-7.32421875,0.0,0.0,0.0,0.0,2.m4v,3.0
2024-02-27 11:18:02.095924,1709029082.095924,-37.109375,-25.390625,-27.83203125,-7.32421875,0.0,0.0,0.0,0.0,2.m4v,3.0
2024-02-27 11:18:02.099832,1709029082.099832,-26.85546875,-12.20703125,-21.484375,-19.04296875,0.0,0.0,0.0,0.0,2.m4v,3.0
2024-02-27 11:18:02.099832,1709029082.099832,-26.85546875,-12.20703125,-21.484375,-19.04296875,0.0,0.0,0.0,0.0,2.m4v,3.0
2024-02-27 11:18:02.103738,1709029082.1037378,-22.94921875,-14.6484375,-19.53125,-36.62109375,0.0,0.0,0.0,0.0,2.m4v,3.0
2024-02-27 11:18:02.103738,1709029082.1037378,-22.94921875,-14.6484375,-19.53125,-36.62109375,0.0,0.0,0.0,0.0,2.m4v,3.0
2024-02-27 11:18:02.107643,1709029082.1076434,-29.296875,-24.4140625,-31.73828125,-39.0625,0.0,0.0,0.0,0.0,2.m4v,3.0
2024-02-27 11:18:02.107643,1709029082.1076434,-29.296875,-24.4140625,-31.73828125,-39.0625,0.0,0.0,0.0,0.0,2.m4v,3.0
2024-02-27 11:18:02.111549,1709029082.1115491,-37.59765625,-28.80859375,-39.0625,-31.73828125,0.0,0.0,0.0,0.0,2.m4v,3.0
2024-02-27 11:18:02.111549,1709029082.1115491,-37.59765625,-28.80859375,-39.0625,-31.73828125,0.0,0.0,0.0,0.0,2.m4v,3.0
2024-02-27 11:18:02.115455,1709029082.115455,-33.69140625,-28.80859375,-26.85546875,-12.6953125,0.0,0.0,0.0,0.0,2.m4v,3.0
2024-02-27 11:18:02.115455,1709029082.115455,-33.69140625,-28.80859375,-26.85546875,-12.6953125,0.0,0.0,0.0,0.0,2.m4v,3.0
2024-02-27 11:18:02.119360,1709029082.1193602,-22.4609375,-1.46484375,-30.76171875,-8.7890625,0.0,0.0,0.0,0.0,2.m4v,3.0
2024-02-27 11:18:02.119360,1709029082.1193602,-22.4609375,-1.46484375,-30.76171875,-8.7890625,0.0,0.0,0.0,0.0,2.m4v,3.0
2024-02-27 11:18:02.123266,1709029082.123266,-21.484375,3.41796875,-41.9921875,-37.59765625,0.0,0.0,0.0,0.0,2.m4v,3.0
2024-02-27 11:18:02.123266,1709029082.123266,-21.484375,3.41796875,-41.9921875,-37.59765625,0.0,0.0,0.0,0.0,2.m4v,3.0
2024-02-27 11:18:02.127172,1709029082.1271715,-27.83203125,-30.2734375,-41.9921875,-56.15234375,0.0,0.0,0.0,0.0,2.m4v,3.0
2024-02-27 11:18:02.127172,1709029082.1271715,-27.83203125,-30.2734375,-41.9921875,-56.15234375,0.0,0.0,0.0,0.0,2.m4v,3.0
2024-02-27 11:18:02.131077,1709029082.131077,-28.80859375,-22.4609375,-44.921875,-37.109375,0.0,0.0,0.0,0.0,2.m4v,3.0
2024-02-27 11:18:02.131077,1709029082.131077,-28.80859375,-22.4609375,-44.921875,-37.109375,0.0,0.0,0.0,0.0,2.m4v,3.0
2024-02-27 11:18:02.134983,1709029082.1349828,-33.203125,-1.953125,-38.0859375,-19.53125,0.0,0.0,0.0,0.0,2.m4v,3.0
2024-02-27 11:18:02.134983,1709029082.1349828,-33.203125,-1.953125,-38.0859375,-19.53125,0.0,0.0,0.0,0.0,2.m4v,3.0
2024-02-27 11:18:02.138888,1709029082.1388884,-40.0390625,7.32421875,-21.484375,-20.5078125,0.0,0.0,0.0,0.0,2.m4v,3.0
2024-02-27 11:18:02.138888,1709029082.1388884,-40.0390625,7.32421875,-21.484375,-20.5078125,0.0,0.0,0.0,0.0,2.m4v,3.0
2024-02-27 11:18:02.142794,1709029082.142794,-39.0625,13.18359375,-7.32421875,-34.1796875,0.0,0.0,0.0,0.0,2.m4v,3.0
2024-02-27 11:18:02.142794,1709029082.142794,-39.0625,13.18359375,-7.32421875,-34.1796875,0.0,0.0,0.0,0.0,2.m4v,3.0
2024-02-27 11:18:02.146702,1709029082.1467023,-46.875,1.46484375,-11.23046875,-41.015625,0.0,0.0,0.0,0.0,2.m4v,3.0
2024-02-27 11:18:02.146702,1709029082.1467023,-46.875,1.46484375,-11.23046875,-41.015625,0.0,0.0,0.0,0.0,2.m4v,3.0
2024-02-27 11:18:02.150608,1709029082.1506078,-62.01171875,-13.18359375,-27.34375,-39.55078125,0.0,0.0,0.0,0.0,2.m4v,3.0
2024-02-27 11:18:02.150608,1709029082.1506078,-62.01171875,-13.18359375,-27.34375,-39.55078125,0.0,0.0,0.0,0.0,2.m4v,3.0
2024-02-27 11:18:02.154513,1709029082.1545134,-55.6640625,-13.18359375,-42.96875,-32.2265625,0.0,0.0,0.0,0.0,2.m4v,3.0
2024-02-27 11:18:02.154513,1709029082.1545134,-55.6640625,-13.18359375,-42.96875,-32.2265625,0.0,0.0,0.0,0.0,2.m4v,3.0
2024-02-27 11:18:02.158419,1709029082.1584191,-30.76171875,-13.671875,-42.48046875,-20.99609375,0.0,0.0,0.0,0.0,2.m4v,3.0
2024-02-27 11:18:02.158419,1709029082.1584191,-30.76171875,-13.671875,-42.48046875,-20.99609375,0.0,0.0,0.0,0.0,2.m4v,3.0
2024-02-27 11:18:02.162325,1709029082.162325,-21.97265625,-26.3671875,-36.1328125,-21.97265625,0.0,0.0,0.0,0.0,2.m4v,3.0
2024-02-27 11:18:02.162325,1709029082.162325,-21.97265625,-26.3671875,-36.1328125,-21.97265625,0.0,0.0,0.0,0.0,2.m4v,3.0
2024-02-27 11:18:02.166230,1709029082.1662304,-43.9453125,-8.30078125,-47.8515625,-48.828125,0.0,0.0,0.0,0.0,2.m4v,3.0
2024-02-27 11:18:02.166230,1709029082.1662304,-43.9453125,-8.30078125,-47.8515625,-48.828125,0.0,0.0,0.0,0.0,2.m4v,3.0
2024-02-27 11:18:02.170136,1709029082.170136,-75.1953125,-5.859375,-45.41015625,-64.94140625,0.0,0.0,0.0,0.0,2.m4v,3.0
2024-02-27 11:18:02.170136,1709029082.170136,-75.1953125,-5.859375,-45.41015625,-64.94140625,0.0,0.0,0.0,0.0,2.m4v,3.0
2024-02-27 11:18:02.174042,1709029082.1740415,-77.63671875,-23.92578125,-26.3671875,-37.59765625,0.0,0.0,0.0,0.0,2.m4v,3.0
2024-02-27 11:18:02.174042,1709029082.1740415,-77.63671875,-23.92578125,-26.3671875,-37.59765625,0.0,0.0,0.0,0.0,2.m4v,3.0
2024-02-27 11:18:02.177947,1709029082.1779473,-52.24609375,-15.625,-8.7890625,-19.04296875,0.0,0.0,0.0,0.0,2.m4v,3.0
2024-02-27 11:18:02.177947,1709029082.1779473,-52.24609375,-15.625,-8.7890625,-19.04296875,0.0,0.0,0.0,0.0,2.m4v,3.0
2024-02-27 11:18:02.181853,1709029082.1818528,-41.015625,-11.71875,-11.71875,-32.2265625,0.0,0.0,0.0,0.0,2.m4v,3.0
2024-02-27 11:18:02.181853,1709029082.1818528,-41.015625,-11.71875,-11.71875,-32.2265625,0.0,0.0,0.0,0.0,2.m4v,3.0
2024-02-27 11:18:02.185759,1709029082.1857586,-65.4296875,-17.578125,-25.390625,-58.59375,0.0,0.0,0.0,0.0,2.m4v,3.0
2024-02-27 11:18:02.185759,1709029082.1857586,-65.4296875,-17.578125,-25.390625,-58.59375,0.0,0.0,0.0,0.0,2.m4v,3.0
2024-02-27 11:18:02.189664,1709029082.189664,-74.70703125,-17.08984375,-28.3203125,-52.24609375,0.0,0.0,0.0,0.0,2.m4v,3.0
2024-02-27 11:18:02.189664,1709029082.189664,-74.70703125,-17.08984375,-28.3203125,-52.24609375,0.0,0.0,0.0,0.0,2.m4v,3.0
2024-02-27 11:18:02.193575,1709029082.193575,-62.98828125,-21.484375,-24.90234375,-20.01953125,0.0,0.0,0.0,0.0,2.m4v,3.0
2024-02-27 11:18:02.193575,1709029082.193575,-62.98828125,-21.484375,-24.90234375,-20.01953125,0.0,0.0,0.0,0.0,2.m4v,3.0
2024-02-27 11:18:02.197480,1709029082.1974804,-50.78125,-13.671875,-16.6015625,-11.23046875,0.0,0.0,0.0,0.0,2.m4v,3.0
2024-02-27 11:18:02.197480,1709029082.1974804,-50.78125,-13.671875,-16.6015625,-11.23046875,0.0,0.0,0.0,0.0,2.m4v,3.0
2024-02-27 11:18:02.201386,1709029082.2013862,-41.9921875,-2.44140625,-20.5078125,-28.80859375,0.0,0.0,0.0,0.0,2.m4v,3.0
2024-02-27 11:18:02.201386,1709029082.2013862,-41.9921875,-2.44140625,-20.5078125,-28.80859375,0.0,0.0,0.0,0.0,2.m4v,3.0
2024-02-27 11:18:02.205292,1709029082.2052915,-41.9921875,-15.625,-27.34375,-48.828125,0.0,0.0,0.0,0.0,2.m4v,3.0
2024-02-27 11:18:02.205292,1709029082.2052915,-41.9921875,-15.625,-27.34375,-48.828125,0.0,0.0,0.0,0.0,2.m4v,3.0
2024-02-27 11:18:02.209197,1709029082.2091973,-44.921875,-21.484375,-15.13671875,-47.36328125,0.0,0.0,0.0,0.0,2.m4v,3.0
2024-02-27 11:18:02.209197,1709029082.2091973,-44.921875,-21.484375,-15.13671875,-47.36328125,0.0,0.0,0.0,0.0,2.m4v,3.0
2024-02-27 11:18:02.213103,1709029082.213103,-43.45703125,1.46484375,-17.08984375,-25.390625,0.0,0.0,0.0,0.0,2.m4v,3.0
2024-02-27 11:18:02.213103,1709029082.213103,-43.45703125,1.46484375,-17.08984375,-25.390625,0.0,0.0,0.0,0.0,2.m4v,3.0
2024-02-27 11:18:02.217009,1709029082.2170086,-43.45703125,9.765625,-24.90234375,-24.90234375,0.0,0.0,0.0,0.0,2.m4v,3.0
2024-02-27 11:18:02.217009,1709029082.2170086,-43.45703125,9.765625,-24.90234375,-24.90234375,0.0,0.0,0.0,0.0,2.m4v,3.0
2024-02-27 11:18:02.220914,1709029082.2209144,-40.0390625,-12.20703125,-18.06640625,-56.640625,0.0,0.0,0.0,0.0,2.m4v,3.0
2024-02-27 11:18:02.220914,1709029082.2209144,-40.0390625,-12.20703125,-18.06640625,-56.640625,0.0,0.0,0.0,0.0,2.m4v,3.0
2024-02-27 11:18:02.224820,1709029082.22482,-37.59765625,-6.8359375,-27.34375,-69.3359375,0.0,0.0,0.0,0.0,2.m4v,3.0
2024-02-27 11:18:02.224820,1709029082.22482,-37.59765625,-6.8359375,-27.34375,-69.3359375,0.0,0.0,0.0,0.0,2.m4v,3.0
2024-02-27 11:18:02.228725,1709029082.2287254,-51.7578125,9.27734375,-28.3203125,-54.6875,0.0,0.0,0.0,0.0,2.m4v,3.0
2024-02-27 11:18:02.228725,1709029082.2287254,-51.7578125,9.27734375,-28.3203125,-54.6875,0.0,0.0,0.0,0.0,2.m4v,3.0
2024-02-27 11:18:02.232631,1709029082.2326312,-57.12890625,0.48828125,-22.4609375,-26.3671875,0.0,0.0,0.0,0.0,2.m4v,3.0
2024-02-27 11:18:02.232631,1709029082.2326312,-57.12890625,0.48828125,-22.4609375,-26.3671875,0.0,0.0,0.0,0.0,2.m4v,3.0
2024-02-27 11:18:02.236537,1709029082.2365367,-42.48046875,9.27734375,-28.3203125,-9.765625,0.0,0.0,0.0,0.0,2.m4v,3.0
2024-02-27 11:18:02.236537,1709029082.2365367,-42.48046875,9.27734375,-28.3203125,-9.765625,0.0,0.0,0.0,0.0,2.m4v,3.0
2024-02-27 11:18:02.240447,1709029082.240447,-38.0859375,11.23046875,-22.94921875,-33.69140625,0.0,0.0,0.0,0.0,2.m4v,3.0
2024-02-27 11:18:02.240447,1709029082.240447,-38.0859375,11.23046875,-22.94921875,-33.69140625,0.0,0.0,0.0,0.0,2.m4v,3.0
2024-02-27 11:18:02.662288,1709029082.6622882,-50.78125,-54.6875,-26.85546875,-46.38671875,0.0,0.0,0.0,0.0,2.m4v,3.0
2024-02-27 11:18:02.674005,1709029082.674005,-34.66796875,-18.06640625,-21.484375,-13.18359375,0.0,0.0,0.0,0.0,2.m4v,3.0
2024-02-27 11:18:02.685722,1709029082.685722,-32.2265625,-35.64453125,-39.0625,-35.15625,0.0,0.0,0.0,0.0,2.m4v,3.0
2024-02-27 11:18:02.693533,1709029082.6935332,-29.78515625,-56.15234375,-37.59765625,-20.99609375,0.0,0.0,0.0,0.0,2.m4v,3.0
2024-02-27 11:18:02.705250,1709029082.70525,-10.25390625,-27.34375,-28.3203125,-58.59375,0.0,0.0,0.0,0.0,2.m4v,3.0
2024-02-27 11:18:02.990386,1709029082.9903862,-59.5703125,-30.76171875,-43.45703125,-72.265625,0.0,0.0,0.0,0.0,2.m4v,3.0
2024-02-27 11:18:02.994292,1709029082.9942918,-80.078125,-20.5078125,-41.50390625,-75.1953125,0.0,0.0,0.0,0.0,2.m4v,3.0
2024-02-27 11:18:02.998197,1709029082.9981973,-78.125,-24.90234375,-37.109375,-74.21875,0.0,0.0,0.0,0.0,2.m4v,3.0
2024-02-27 11:18:03.002103,1709029083.002103,-74.21875,-17.08984375,-37.59765625,-86.42578125,0.0,0.0,0.0,0.0,2.m4v,3.0
2024-02-27 11:18:03.006009,1709029083.0060086,-88.37890625,-0.9765625,-40.52734375,-109.375,0.0,0.0,0.0,0.0,2.m4v,3.0
2024-02-27 11:18:03.009914,1709029083.0099142,-80.078125,20.01953125,-38.0859375,-89.35546875,0.0,0.0,0.0,0.0,2.m4v,3.0
2024-02-27 11:18:03.013820,1709029083.01382,-67.87109375,10.7421875,-41.015625,-66.40625,0.0,0.0,0.0,0.0,2.m4v,3.0
2024-02-27 11:18:03.017725,1709029083.0177257,-83.0078125,-13.671875,-43.45703125,-90.33203125,0.0,0.0,0.0,0.0,2.m4v,3.0
2024-02-27 11:18:03.021631,1709029083.0216312,-91.30859375,-8.30078125,-47.36328125,-121.58203125,0.0,0.0,0.0,0.0,2.m4v,3.0
2024-02-27 11:18:03.025537,1709029083.0255368,-89.84375,6.34765625,-63.96484375,-126.46484375,0.0,0.0,0.0,0.0,2.m4v,3.0
2024-02-27 11:18:03.029442,1709029083.0294423,-101.07421875,18.5546875,-51.26953125,-121.58203125,0.0,0.0,0.0,0.0,2.m4v,3.0
2024-02-27 11:18:03.033348,1709029083.033348,-94.7265625,33.203125,-37.59765625,-94.7265625,0.0,0.0,0.0,0.0,2.m4v,3.0
2024-02-27 11:18:03.037258,1709029083.0372584,-93.26171875,43.45703125,-59.08203125,-85.9375,0.0,0.0,0.0,0.0,2.m4v,3.0
2024-02-27 11:18:03.041164,1709029083.041164,-87.40234375,42.96875,-72.75390625,-105.46875,0.0,0.0,0.0,0.0,2.m4v,3.0
2024-02-27 11:18:03.045069,1709029083.0450697,-74.70703125,21.484375,-67.87109375,-118.65234375,0.0,0.0,0.0,0.0,2.m4v,3.0
2024-02-27 11:18:03.048975,1709029083.0489752,-91.796875,27.34375,-64.453125,-125.0,0.0,0.0,0.0,0.0,2.m4v,3.0
2024-02-27 11:18:03.052881,1709029083.0528808,-98.14453125,38.0859375,-61.5234375,-120.1171875,0.0,0.0,0.0,0.0,2.m4v,3.0
2024-02-27 11:18:03.056787,1709029083.0567863,-90.8203125,53.22265625,-54.6875,-115.234375,0.0,0.0,0.0,0.0,2.m4v,3.0
2024-02-27 11:18:03.060692,1709029083.060692,-89.84375,67.87109375,-58.10546875,-124.0234375,0.0,0.0,0.0,0.0,2.m4v,3.0
2024-02-27 11:18:03.064598,1709029083.0645976,-93.75,52.24609375,-66.40625,-147.94921875,0.0,0.0,0.0,0.0,2.m4v,3.0
2024-02-27 11:18:03.068503,1709029083.0685034,-98.6328125,37.59765625,-59.08203125,-149.90234375,0.0,0.0,0.0,0.0,2.m4v,3.0
2024-02-27 11:18:03.072409,1709029083.072409,-92.28515625,34.1796875,-62.5,-119.140625,0.0,0.0,0.0,0.0,2.m4v,3.0
2024-02-27 11:18:03.076315,1709029083.0763147,-93.26171875,37.59765625,-82.51953125,-102.5390625,0.0,0.0,0.0,0.0,2.m4v,3.0
2024-02-27 11:18:03.080220,1709029083.0802202,-108.88671875,34.1796875,-74.21875,-127.9296875,0.0,0.0,0.0,0.0,2.m4v,3.0
2024-02-27 11:18:03.084130,1709029083.0841296,-104.4921875,35.15625,-56.640625,-132.32421875,0.0,0.0,0.0,0.0,2.m4v,3.0
2024-02-27 11:18:03.088035,1709029083.088035,-96.6796875,29.78515625,-52.24609375,-109.375,0.0,0.0,0.0,0.0,2.m4v,3.0
2024-02-27 11:18:03.091941,1709029083.0919409,-89.35546875,9.27734375,-51.26953125,-77.63671875,0.0,0.0,0.0,0.0,2.m4v,3.0
2024-02-27 11:18:03.095846,1709029083.0958464,-71.2890625,8.30078125,-44.43359375,-44.43359375,0.0,0.0,0.0,0.0,2.m4v,3.0
2024-02-27 11:18:03.099752,1709029083.0997522,-79.1015625,19.53125,-61.03515625,-71.2890625,0.0,0.0,0.0,0.0,2.m4v,3.0
2024-02-27 11:18:03.103658,1709029083.1036575,-80.56640625,23.92578125,-78.61328125,-90.8203125,0.0,0.0,0.0,0.0,2.m4v,3.0
2024-02-27 11:18:03.107563,1709029083.1075635,-75.68359375,-8.7890625,-55.17578125,-79.58984375,0.0,0.0,0.0,0.0,2.m4v,3.0
2024-02-27 11:18:03.111469,1709029083.111469,-82.51953125,-47.8515625,-34.1796875,-64.94140625,0.0,0.0,0.0,0.0,2.m4v,3.0
2024-02-27 11:18:03.115375,1709029083.1153746,-71.77734375,-34.1796875,-25.87890625,-33.69140625,0.0,0.0,0.0,0.0,2.m4v,3.0
2024-02-27 11:18:03.119280,1709029083.1192803,-67.3828125,-24.90234375,-33.203125,-48.828125,0.0,0.0,0.0,0.0,2.m4v,3.0
2024-02-27 11:18:03.123186,1709029083.123186,-62.01171875,-37.109375,-50.78125,-65.91796875,0.0,0.0,0.0,0.0,2.m4v,3.0
2024-02-27 11:18:03.127091,1709029083.1270914,-37.59765625,-43.9453125,-56.15234375,-48.33984375,0.0,0.0,0.0,0.0,2.m4v,3.0
2024-02-27 11:18:03.131001,1709029083.1310005,-36.62109375,-57.12890625,-36.62109375,-32.2265625,0.0,0.0,0.0,0.0,2.m4v,3.0
2024-02-27 11:18:03.134906,1709029083.1349063,-42.96875,-74.21875,-13.18359375,-19.04296875,0.0,0.0,0.0,0.0,2.m4v,3.0
2024-02-27 11:18:03.138812,1709029083.1388118,-19.53125,-77.1484375,-19.04296875,-8.7890625,0.0,0.0,0.0,0.0,2.m4v,3.0
2024-02-27 11:18:03.142717,1709029083.1427174,-7.32421875,-82.51953125,-35.64453125,-19.53125,0.0,0.0,0.0,0.0,2.m4v,3.0
2024-02-27 11:18:03.146623,1709029083.1466231,-7.8125,-72.75390625,-22.4609375,-26.3671875,0.0,0.0,0.0,0.0,2.m4v,3.0
2024-02-27 11:18:03.150529,1709029083.150529,-4.8828125,-52.24609375,1.46484375,-5.859375,0.0,0.0,0.0,0.0,2.m4v,3.0
2024-02-27 11:18:03.154434,1709029083.1544344,-5.37109375,-68.359375,0.48828125,17.08984375,0.0,0.0,0.0,0.0,2.m4v,3.0
2024-02-27 11:18:03.158340,1709029083.15834,-5.859375,-86.42578125,-9.27734375,14.6484375,0.0,0.0,0.0,0.0,2.m4v,3.0
2024-02-27 11:18:03.162246,1709029083.1622455,-2.9296875,-77.1484375,-20.99609375,3.90625,0.0,0.0,0.0,0.0,2.m4v,3.0
2024-02-27 11:18:03.166151,1709029083.1661513,3.41796875,-96.19140625,-26.85546875,3.90625,0.0,0.0,0.0,0.0,2.m4v,3.0
2024-02-27 11:18:03.170057,1709029083.1700568,8.7890625,-103.02734375,-20.99609375,18.06640625,0.0,0.0,0.0,0.0,2.m4v,3.0
2024-02-27 11:18:03.173963,1709029083.1739626,10.7421875,-90.8203125,-18.5546875,41.50390625,0.0,0.0,0.0,0.0,2.m4v,3.0
2024-02-27 11:18:03.177871,1709029083.1778712,15.13671875,-71.77734375,-18.5546875,41.50390625,0.0,0.0,0.0,0.0,2.m4v,3.0
2024-02-27 11:18:03.181777,1709029083.1817768,7.8125,-61.5234375,-25.87890625,15.13671875,0.0,0.0,0.0,0.0,2.m4v,3.0
2024-02-27 11:18:03.185682,1709029083.1856823,5.859375,-69.82421875,-28.3203125,-0.48828125,0.0,0.0,0.0,0.0,2.m4v,3.0
2024-02-27 11:18:03.189588,1709029083.189588,6.8359375,-76.66015625,-38.57421875,9.765625,0.0,0.0,0.0,0.0,2.m4v,3.0
2024-02-27 11:18:03.193494,1709029083.1934936,3.90625,-77.63671875,-34.66796875,26.3671875,0.0,0.0,0.0,0.0,2.m4v,3.0
2024-02-27 11:18:03.197399,1709029083.1973991,8.7890625,-60.546875,-16.11328125,30.2734375,0.0,0.0,0.0,0.0,2.m4v,3.0
2024-02-27 11:18:03.201305,1709029083.201305,21.97265625,-38.57421875,-12.20703125,20.5078125,0.0,0.0,0.0,0.0,2.m4v,3.0
2024-02-27 11:18:03.205210,1709029083.2052104,29.296875,-51.7578125,-17.578125,1.46484375,0.0,0.0,0.0,0.0,2.m4v,3.0
2024-02-27 11:18:03.209116,1709029083.2091162,14.16015625,-75.68359375,-14.16015625,-3.41796875,0.0,0.0,0.0,0.0,2.m4v,3.0
2024-02-27 11:18:03.213022,1709029083.2130218,1.953125,-81.54296875,-17.578125,14.6484375,0.0,0.0,0.0,0.0,2.m4v,3.0
2024-02-27 11:18:03.216927,1709029083.2169273,13.18359375,-72.265625,-17.578125,27.34375,0.0,0.0,0.0,0.0,2.m4v,3.0
2024-02-27 11:18:03.220833,1709029083.220833,19.53125,-37.59765625,-19.04296875,24.90234375,0.0,0.0,0.0,0.0,2.m4v,3.0
2024-02-27 11:18:03.224741,1709029083.2247417,14.16015625,-35.64453125,-36.1328125,1.953125,0.0,0.0,0.0,0.0,2.m4v,3.0
2024-02-27 11:18:03.228647,1709029083.2286472,7.8125,-52.734375,-42.96875,-5.859375,0.0,0.0,0.0,0.0,2.m4v,3.0
2024-02-27 11:18:03.232553,1709029083.2325528,13.18359375,-37.59765625,-27.83203125,27.34375,0.0,0.0,0.0,0.0,2.m4v,3.0
2024-02-27 11:18:03.236459,1709029083.2364583,21.484375,-20.99609375,-7.8125,43.45703125,0.0,0.0,0.0,0.0,2.m4v,3.0
2024-02-27 11:18:03.240364,1709029083.240364,32.2265625,-25.87890625,-1.46484375,29.296875,0.0,0.0,0.0,0.0,2.m4v,3.0
2024-02-27 11:18:03.244270,1709029083.2442696,20.5078125,-30.76171875,-12.20703125,5.859375,0.0,0.0,0.0,0.0,2.m4v,3.0
2024-02-27 11:18:03.248175,1709029083.2481754,-5.37109375,-41.50390625,-26.85546875,-9.27734375,0.0,0.0,0.0,0.0,2.m4v,3.0
2024-02-27 11:18:03.252081,1709029083.252081,-1.953125,-55.17578125,-30.2734375,3.90625,0.0,0.0,0.0,0.0,2.m4v,3.0
2024-02-27 11:18:03.255986,1709029083.2559865,7.32421875,-49.31640625,-24.90234375,21.97265625,0.0,0.0,0.0,0.0,2.m4v,3.0
2024-02-27 11:18:03.259892,1709029083.2598922,9.765625,-33.203125,-25.390625,12.6953125,0.0,0.0,0.0,0.0,2.m4v,3.0
2024-02-27 11:18:03.263798,1709029083.2637978,12.20703125,-29.78515625,-21.97265625,-3.90625,0.0,0.0,0.0,0.0,2.m4v,3.0
2024-02-27 11:18:03.267704,1709029083.2677035,3.90625,-46.38671875,-22.4609375,-10.7421875,0.0,0.0,0.0,0.0,2.m4v,3.0
2024-02-27 11:18:03.271611,1709029083.271611,2.44140625,-47.8515625,-20.01953125,4.39453125,0.0,0.0,0.0,0.0,2.m4v,3.0
2024-02-27 11:18:03.275517,1709029083.2755165,-6.8359375,-42.96875,-20.5078125,7.8125,0.0,0.0,0.0,0.0,2.m4v,3.0
2024-02-27 11:18:03.279422,1709029083.2794223,-11.23046875,-33.69140625,-29.78515625,-4.39453125,0.0,0.0,0.0,0.0,2.m4v,3.0
2024-02-27 11:18:03.283328,1709029083.2833278,4.8828125,-37.59765625,-20.5078125,-7.32421875,0.0,0.0,0.0,0.0,2.m4v,3.0
2024-02-27 11:18:03.287233,1709029083.2872334,3.90625,-53.7109375,-8.30078125,-4.8828125,0.0,0.0,0.0,0.0,2.m4v,3.0
2024-02-27 11:18:03.291139,1709029083.2911391,-3.90625,-47.36328125,-11.23046875,15.625,0.0,0.0,0.0,0.0,2.m4v,3.0
2024-02-27 11:18:03.295045,1709029083.295045,-3.90625,-32.71484375,-30.76171875,33.69140625,0.0,0.0,0.0,0.0,2.m4v,3.0
2024-02-27 11:18:03.295045,1709029083.295045,-3.90625,-32.71484375,-30.76171875,33.69140625,0.0,0.0,0.0,0.0,2.m4v,3.0
2024-02-27 11:18:03.298950,1709029083.2989502,1.953125,-49.31640625,-36.1328125,10.7421875,0.0,0.0,0.0,0.0,2.m4v,3.0
2024-02-27 11:18:03.298950,1709029083.2989502,1.953125,-49.31640625,-36.1328125,10.7421875,0.0,0.0,0.0,0.0,2.m4v,3.0
2024-02-27 11:18:03.302856,1709029083.302856,14.16015625,-53.22265625,-30.76171875,-12.20703125,0.0,0.0,0.0,0.0,2.m4v,3.0
2024-02-27 11:18:03.302856,1709029083.302856,14.16015625,-53.22265625,-30.76171875,-12.20703125,0.0,0.0,0.0,0.0,2.m4v,3.0
2024-02-27 11:18:03.306762,1709029083.3067615,3.41796875,-33.69140625,-24.90234375,-8.30078125,0.0,0.0,0.0,0.0,2.m4v,3.0
2024-02-27 11:18:03.306762,1709029083.3067615,3.41796875,-33.69140625,-24.90234375,-8.30078125,0.0,0.0,0.0,0.0,2.m4v,3.0
2024-02-27 11:18:03.310667,1709029083.3106673,-18.06640625,-40.52734375,-26.85546875,0.0,0.0,0.0,0.0,0.0,2.m4v,3.0
2024-02-27 11:18:03.310667,1709029083.3106673,-18.06640625,-40.52734375,-26.85546875,0.0,0.0,0.0,0.0,0.0,2.m4v,3.0
2024-02-27 11:18:03.314573,1709029083.3145728,-20.01953125,-55.17578125,-32.71484375,21.97265625,0.0,0.0,0.0,0.0,2.m4v,3.0
2024-02-27 11:18:03.314573,1709029083.3145728,-20.01953125,-55.17578125,-32.71484375,21.97265625,0.0,0.0,0.0,0.0,2.m4v,3.0
2024-02-27 11:18:03.318484,1709029083.3184836,-12.20703125,-53.7109375,-43.45703125,18.06640625,0.0,0.0,0.0,0.0,2.m4v,3.0
2024-02-27 11:18:03.318484,1709029083.3184836,-12.20703125,-53.7109375,-43.45703125,18.06640625,0.0,0.0,0.0,0.0,2.m4v,3.0
2024-02-27 11:18:03.322389,1709029083.3223891,-19.04296875,-41.015625,-43.45703125,-22.94921875,0.0,0.0,0.0,0.0,2.m4v,3.0
2024-02-27 11:18:03.322389,1709029083.3223891,-19.04296875,-41.015625,-43.45703125,-22.94921875,0.0,0.0,0.0,0.0,2.m4v,3.0
2024-02-27 11:18:03.326295,1709029083.326295,-26.3671875,-31.25,-29.78515625,-33.69140625,0.0,0.0,0.0,0.0,2.m4v,3.0
2024-02-27 11:18:03.326295,1709029083.326295,-26.3671875,-31.25,-29.78515625,-33.69140625,0.0,0.0,0.0,0.0,2.m4v,3.0
2024-02-27 11:18:03.330200,1709029083.3302004,-21.484375,-16.11328125,-30.76171875,-5.859375,0.0,0.0,0.0,0.0,2.m4v,3.0
2024-02-27 11:18:03.330200,1709029083.3302004,-21.484375,-16.11328125,-30.76171875,-5.859375,0.0,0.0,0.0,0.0,2.m4v,3.0
2024-02-27 11:18:03.334106,1709029083.334106,-16.6015625,-15.13671875,-33.203125,14.6484375,0.0,0.0,0.0,0.0,2.m4v,3.0
2024-02-27 11:18:03.334106,1709029083.334106,-16.6015625,-15.13671875,-33.203125,14.6484375,0.0,0.0,0.0,0.0,2.m4v,3.0
2024-02-27 11:18:03.338012,1709029083.3380115,-19.53125,-15.625,-31.25,7.8125,0.0,0.0,0.0,0.0,2.m4v,3.0
2024-02-27 11:18:03.338012,1709029083.3380115,-19.53125,-15.625,-31.25,7.8125,0.0,0.0,0.0,0.0,2.m4v,3.0
2024-02-27 11:18:03.341917,1709029083.3419173,-22.4609375,-22.94921875,-27.34375,-12.20703125,0.0,0.0,0.0,0.0,2.m4v,3.0
2024-02-27 11:18:03.341917,1709029083.3419173,-22.4609375,-22.94921875,-27.34375,-12.20703125,0.0,0.0,0.0,0.0,2.m4v,3.0
2024-02-27 11:18:03.345823,1709029083.3458228,-25.87890625,-55.6640625,-16.11328125,-25.87890625,0.0,0.0,0.0,0.0,2.m4v,3.0
2024-02-27 11:18:03.345823,1709029083.3458228,-25.87890625,-55.6640625,-16.11328125,-25.87890625,0.0,0.0,0.0,0.0,2.m4v,3.0
2024-02-27 11:18:03.349729,1709029083.3497286,-22.4609375,-79.1015625,-20.99609375,-23.4375,0.0,0.0,0.0,0.0,2.m4v,3.0
2024-02-27 11:18:03.349729,1709029083.3497286,-22.4609375,-79.1015625,-20.99609375,-23.4375,0.0,0.0,0.0,0.0,2.m4v,3.0
2024-02-27 11:18:03.353634,1709029083.353634,-17.08984375,-78.61328125,-21.97265625,5.37109375,0.0,0.0,0.0,0.0,2.m4v,3.0
2024-02-27 11:18:03.353634,1709029083.353634,-17.08984375,-78.61328125,-21.97265625,5.37109375,0.0,0.0,0.0,0.0,2.m4v,3.0
2024-02-27 11:18:03.357540,1709029083.35754,-25.390625,-58.59375,-32.71484375,4.8828125,0.0,0.0,0.0,0.0,2.m4v,3.0
2024-02-27 11:18:03.357540,1709029083.35754,-25.390625,-58.59375,-32.71484375,4.8828125,0.0,0.0,0.0,0.0,2.m4v,3.0
2024-02-27 11:18:03.361445,1709029083.3614454,-37.59765625,-43.9453125,-46.875,-28.80859375,0.0,0.0,0.0,0.0,2.m4v,3.0
2024-02-27 11:18:03.361445,1709029083.3614454,-37.59765625,-43.9453125,-46.875,-28.80859375,0.0,0.0,0.0,0.0,2.m4v,3.0
2024-02-27 11:18:03.365355,1709029083.3653555,-39.55078125,-41.9921875,-36.1328125,-47.8515625,0.0,0.0,0.0,0.0,2.m4v,3.0
2024-02-27 11:18:03.365355,1709029083.3653555,-39.55078125,-41.9921875,-36.1328125,-47.8515625,0.0,0.0,0.0,0.0,2.m4v,3.0
2024-02-27 11:18:03.369261,1709029083.369261,-46.875,-43.9453125,-36.1328125,-47.36328125,0.0,0.0,0.0,0.0,2.m4v,3.0
2024-02-27 11:18:03.369261,1709029083.369261,-46.875,-43.9453125,-36.1328125,-47.36328125,0.0,0.0,0.0,0.0,2.m4v,3.0
2024-02-27 11:18:03.373167,1709029083.3731666,-46.875,-41.015625,-40.52734375,-20.99609375,0.0,0.0,0.0,0.0,2.m4v,3.0
2024-02-27 11:18:03.373167,1709029083.3731666,-46.875,-41.015625,-40.52734375,-20.99609375,0.0,0.0,0.0,0.0,2.m4v,3.0
2024-02-27 11:18:03.377072,1709029083.3770723,-35.15625,-37.59765625,-40.52734375,-0.48828125,0.0,0.0,0.0,0.0,2.m4v,3.0
2024-02-27 11:18:03.377072,1709029083.3770723,-35.15625,-37.59765625,-40.52734375,-0.48828125,0.0,0.0,0.0,0.0,2.m4v,3.0
2024-02-27 11:18:03.380978,1709029083.380978,-20.01953125,-41.9921875,-36.1328125,-9.765625,0.0,0.0,0.0,0.0,2.m4v,3.0
2024-02-27 11:18:03.380978,1709029083.380978,-20.01953125,-41.9921875,-36.1328125,-9.765625,0.0,0.0,0.0,0.0,2.m4v,3.0
2024-02-27 11:18:03.384883,1709029083.3848834,-5.37109375,-40.0390625,-20.99609375,-17.578125,0.0,0.0,0.0,0.0,2.m4v,3.0
2024-02-27 11:18:03.384883,1709029083.3848834,-5.37109375,-40.0390625,-20.99609375,-17.578125,0.0,0.0,0.0,0.0,2.m4v,3.0
2024-02-27 11:18:03.388789,1709029083.3887892,-22.4609375,-56.15234375,-17.08984375,-35.64453125,0.0,0.0,0.0,0.0,2.m4v,3.0
2024-02-27 11:18:03.388789,1709029083.3887892,-22.4609375,-56.15234375,-17.08984375,-35.64453125,0.0,0.0,0.0,0.0,2.m4v,3.0
2024-02-27 11:18:03.392695,1709029083.3926947,-39.0625,-73.2421875,-18.5546875,-34.66796875,0.0,0.0,0.0,0.0,2.m4v,3.0
2024-02-27 11:18:03.392695,1709029083.3926947,-39.0625,-73.2421875,-18.5546875,-34.66796875,0.0,0.0,0.0,0.0,2.m4v,3.0
2024-02-27 11:18:03.396600,1709029083.3966005,-28.80859375,-58.10546875,-30.2734375,-5.859375,0.0,0.0,0.0,0.0,2.m4v,3.0
2024-02-27 11:18:03.396600,1709029083.3966005,-28.80859375,-58.10546875,-30.2734375,-5.859375,0.0,0.0,0.0,0.0,2.m4v,3.0
2024-02-27 11:18:03.400506,1709029083.400506,-12.20703125,-43.45703125,-32.71484375,-11.23046875,0.0,0.0,0.0,0.0,2.m4v,3.0
2024-02-27 11:18:03.400506,1709029083.400506,-12.20703125,-43.45703125,-32.71484375,-11.23046875,0.0,0.0,0.0,0.0,2.m4v,3.0
2024-02-27 11:18:03.404412,1709029083.4044116,-18.06640625,-52.24609375,-28.3203125,-43.9453125,0.0,0.0,0.0,0.0,2.m4v,3.0
2024-02-27 11:18:03.404412,1709029083.4044116,-18.06640625,-52.24609375,-28.3203125,-43.9453125,0.0,0.0,0.0,0.0,2.m4v,3.0
2024-02-27 11:18:03.408317,1709029083.408317,-41.015625,-64.453125,-35.64453125,-49.8046875,0.0,0.0,0.0,0.0,2.m4v,3.0
2024-02-27 11:18:03.408317,1709029083.408317,-41.015625,-64.453125,-35.64453125,-49.8046875,0.0,0.0,0.0,0.0,2.m4v,3.0
2024-02-27 11:18:03.412227,1709029083.4122272,-46.38671875,-64.453125,-39.0625,-22.4609375,0.0,0.0,0.0,0.0,2.m4v,3.0
2024-02-27 11:18:03.412227,1709029083.4122272,-46.38671875,-64.453125,-39.0625,-22.4609375,0.0,0.0,0.0,0.0,2.m4v,3.0
2024-02-27 11:18:03.416133,1709029083.4161327,-36.1328125,-62.98828125,-33.203125,0.9765625,0.0,0.0,0.0,0.0,2.m4v,3.0
2024-02-27 11:18:03.416133,1709029083.4161327,-36.1328125,-62.98828125,-33.203125,0.9765625,0.0,0.0,0.0,0.0,2.m4v,3.0
2024-02-27 11:18:03.420038,1709029083.4200385,-20.01953125,-58.10546875,-32.71484375,-13.671875,0.0,0.0,0.0,0.0,2.m4v,3.0
2024-02-27 11:18:03.420038,1709029083.4200385,-20.01953125,-58.10546875,-32.71484375,-13.671875,0.0,0.0,0.0,0.0,2.m4v,3.0
2024-02-27 11:18:03.423944,1709029083.423944,-9.765625,-39.0625,-19.53125,-30.76171875,0.0,0.0,0.0,0.0,2.m4v,3.0
2024-02-27 11:18:03.423944,1709029083.423944,-9.765625,-39.0625,-19.53125,-30.76171875,0.0,0.0,0.0,0.0,2.m4v,3.0
2024-02-27 11:18:03.427850,1709029083.4278495,-21.97265625,-35.15625,-11.23046875,-40.0390625,0.0,0.0,0.0,0.0,2.m4v,3.0
2024-02-27 11:18:03.427850,1709029083.4278495,-21.97265625,-35.15625,-11.23046875,-40.0390625,0.0,0.0,0.0,0.0,2.m4v,3.0
2024-02-27 11:18:03.431755,1709029083.4317553,-32.2265625,-21.97265625,-21.97265625,-24.90234375,0.0,0.0,0.0,0.0,2.m4v,3.0
2024-02-27 11:18:03.431755,1709029083.4317553,-32.2265625,-21.97265625,-21.97265625,-24.90234375,0.0,0.0,0.0,0.0,2.m4v,3.0
2024-02-27 11:18:03.435661,1709029083.4356608,-33.203125,-27.34375,-23.4375,-4.39453125,0.0,0.0,0.0,0.0,2.m4v,3.0
2024-02-27 11:18:03.435661,1709029083.4356608,-33.203125,-27.34375,-23.4375,-4.39453125,0.0,0.0,0.0,0.0,2.m4v,3.0
2024-02-27 11:18:03.439567,1709029083.4395666,-34.66796875,-53.7109375,-16.11328125,-28.80859375,0.0,0.0,0.0,0.0,2.m4v,3.0
2024-02-27 11:18:03.439567,1709029083.4395666,-34.66796875,-53.7109375,-16.11328125,-28.80859375,0.0,0.0,0.0,0.0,2.m4v,3.0
2024-02-27 11:18:03.443472,1709029083.443472,-38.57421875,-57.12890625,-19.53125,-53.7109375,0.0,0.0,0.0,0.0,2.m4v,3.0
2024-02-27 11:18:03.443472,1709029083.443472,-38.57421875,-57.12890625,-19.53125,-53.7109375,0.0,0.0,0.0,0.0,2.m4v,3.0
2024-02-27 11:18:03.447378,1709029083.4473777,-48.828125,-61.5234375,-20.01953125,-51.7578125,0.0,0.0,0.0,0.0,2.m4v,3.0
2024-02-27 11:18:03.447378,1709029083.4473777,-48.828125,-61.5234375,-20.01953125,-51.7578125,0.0,0.0,0.0,0.0,2.m4v,3.0
2024-02-27 11:18:03.451283,1709029083.4512837,-42.48046875,-55.17578125,-6.34765625,-23.4375,0.0,0.0,0.0,0.0,2.m4v,3.0
2024-02-27 11:18:03.451283,1709029083.4512837,-42.48046875,-55.17578125,-6.34765625,-23.4375,0.0,0.0,0.0,0.0,2.m4v,3.0
2024-02-27 11:18:03.455189,1709029083.455189,-22.4609375,-48.828125,-20.99609375,0.9765625,0.0,0.0,0.0,0.0,2.m4v,3.0
2024-02-27 11:18:03.455189,1709029083.455189,-22.4609375,-48.828125,-20.99609375,0.9765625,0.0,0.0,0.0,0.0,2.m4v,3.0
2024-02-27 11:18:03.459099,1709029083.4590988,-18.06640625,-41.50390625,-32.71484375,-12.6953125,0.0,0.0,0.0,0.0,2.m4v,3.0
2024-02-27 11:18:03.459099,1709029083.4590988,-18.06640625,-41.50390625,-32.71484375,-12.6953125,0.0,0.0,0.0,0.0,2.m4v,3.0
2024-02-27 11:18:03.463005,1709029083.4630046,-24.4140625,-40.52734375,-22.94921875,-43.9453125,0.0,0.0,0.0,0.0,2.m4v,3.0
2024-02-27 11:18:03.463005,1709029083.4630046,-24.4140625,-40.52734375,-22.94921875,-43.9453125,0.0,0.0,0.0,0.0,2.m4v,3.0
2024-02-27 11:18:03.466910,1709029083.46691,-43.9453125,-46.38671875,-13.671875,-65.4296875,0.0,0.0,0.0,0.0,2.m4v,3.0
2024-02-27 11:18:03.466910,1709029083.46691,-43.9453125,-46.38671875,-13.671875,-65.4296875,0.0,0.0,0.0,0.0,2.m4v,3.0
2024-02-27 11:18:03.470816,1709029083.4708157,-63.96484375,-36.62109375,-14.6484375,-61.5234375,0.0,0.0,0.0,0.0,2.m4v,3.0
2024-02-27 11:18:03.470816,1709029083.4708157,-63.96484375,-36.62109375,-14.6484375,-61.5234375,0.0,0.0,0.0,0.0,2.m4v,3.0
2024-02-27 11:18:03.474721,1709029083.4747214,-56.15234375,-38.0859375,-18.5546875,-34.66796875,0.0,0.0,0.0,0.0,2.m4v,3.0
2024-02-27 11:18:03.474721,1709029083.4747214,-56.15234375,-38.0859375,-18.5546875,-34.66796875,0.0,0.0,0.0,0.0,2.m4v,3.0
2024-02-27 11:18:03.478627,1709029083.478627,-41.9921875,-26.3671875,-15.13671875,-20.99609375,0.0,0.0,0.0,0.0,2.m4v,3.0
2024-02-27 11:18:03.478627,1709029083.478627,-41.9921875,-26.3671875,-15.13671875,-20.99609375,0.0,0.0,0.0,0.0,2.m4v,3.0
2024-02-27 11:18:03.482533,1709029083.4825327,-33.69140625,-22.4609375,-19.04296875,-38.0859375,0.0,0.0,0.0,0.0,2.m4v,3.0
2024-02-27 11:18:03.482533,1709029083.4825327,-33.69140625,-22.4609375,-19.04296875,-38.0859375,0.0,0.0,0.0,0.0,2.m4v,3.0
2024-02-27 11:18:03.486438,1709029083.4864385,-35.15625,-46.875,-24.4140625,-50.29296875,0.0,0.0,0.0,0.0,2.m4v,3.0
2024-02-27 11:18:03.486438,1709029083.4864385,-35.15625,-46.875,-24.4140625,-50.29296875,0.0,0.0,0.0,0.0,2.m4v,3.0
2024-02-27 11:18:03.490344,1709029083.4903438,-41.015625,-50.29296875,-28.80859375,-32.2265625,0.0,0.0,0.0,0.0,2.m4v,3.0
2024-02-27 11:18:03.490344,1709029083.4903438,-41.015625,-50.29296875,-28.80859375,-32.2265625,0.0,0.0,0.0,0.0,2.m4v,3.0
2024-02-27 11:18:03.494250,1709029083.4942496,-34.66796875,-38.0859375,-40.0390625,-6.34765625,0.0,0.0,0.0,0.0,2.m4v,3.0
2024-02-27 11:18:03.494250,1709029083.4942496,-34.66796875,-38.0859375,-40.0390625,-6.34765625,0.0,0.0,0.0,0.0,2.m4v,3.0
2024-02-27 11:18:03.498155,1709029083.498155,-26.85546875,-33.203125,-55.6640625,-7.8125,0.0,0.0,0.0,0.0,2.m4v,3.0
2024-02-27 11:18:03.498155,1709029083.498155,-26.85546875,-33.203125,-55.6640625,-7.8125,0.0,0.0,0.0,0.0,2.m4v,3.0
2024-02-27 11:18:03.502061,1709029083.502061,-31.73828125,-36.62109375,-52.24609375,-31.73828125,0.0,0.0,0.0,0.0,2.m4v,3.0
2024-02-27 11:18:03.502061,1709029083.502061,-31.73828125,-36.62109375,-52.24609375,-31.73828125,0.0,0.0,0.0,0.0,2.m4v,3.0
2024-02-27 11:18:03.505970,1709029083.5059698,-25.390625,-32.71484375,-19.53125,-38.57421875,0.0,0.0,0.0,0.0,2.m4v,3.0
2024-02-27 11:18:03.505970,1709029083.5059698,-25.390625,-32.71484375,-19.53125,-38.57421875,0.0,0.0,0.0,0.0,2.m4v,3.0
2024-02-27 11:18:03.509876,1709029083.5098755,-23.4375,-37.59765625,-4.39453125,-30.2734375,0.0,0.0,0.0,0.0,2.m4v,3.0
2024-02-27 11:18:03.509876,1709029083.5098755,-23.4375,-37.59765625,-4.39453125,-30.2734375,0.0,0.0,0.0,0.0,2.m4v,3.0
2024-02-27 11:18:03.513781,1709029083.513781,-33.203125,-49.8046875,-14.16015625,-16.6015625,0.0,0.0,0.0,0.0,2.m4v,3.0
2024-02-27 11:18:03.513781,1709029083.513781,-33.203125,-49.8046875,-14.16015625,-16.6015625,0.0,0.0,0.0,0.0,2.m4v,3.0
2024-02-27 11:18:03.517687,1709029083.5176866,-34.1796875,-36.1328125,-20.01953125,-3.90625,0.0,0.0,0.0,0.0,2.m4v,3.0
2024-02-27 11:18:03.517687,1709029083.5176866,-34.1796875,-36.1328125,-20.01953125,-3.90625,0.0,0.0,0.0,0.0,2.m4v,3.0
2024-02-27 11:18:03.521592,1709029083.5215924,-29.78515625,-19.53125,-21.97265625,-22.4609375,0.0,0.0,0.0,0.0,2.m4v,3.0
2024-02-27 11:18:03.521592,1709029083.5215924,-29.78515625,-19.53125,-21.97265625,-22.4609375,0.0,0.0,0.0,0.0,2.m4v,3.0
2024-02-27 11:18:03.525498,1709029083.525498,-32.71484375,-27.34375,-22.4609375,-48.33984375,0.0,0.0,0.0,0.0,2.m4v,3.0
2024-02-27 11:18:03.525498,1709029083.525498,-32.71484375,-27.34375,-22.4609375,-48.33984375,0.0,0.0,0.0,0.0,2.m4v,3.0
2024-02-27 11:18:03.529403,1709029083.5294034,-49.8046875,-49.31640625,-21.484375,-55.17578125,0.0,0.0,0.0,0.0,2.m4v,3.0
2024-02-27 11:18:03.529403,1709029083.5294034,-49.8046875,-49.31640625,-21.484375,-55.17578125,0.0,0.0,0.0,0.0,2.m4v,3.0
2024-02-27 11:18:03.533309,1709029083.5333092,-61.03515625,-68.359375,-30.76171875,-48.828125,0.0,0.0,0.0,0.0,2.m4v,3.0
2024-02-27 11:18:03.537215,1709029083.5372148,-47.8515625,-49.8046875,-44.921875,-40.0390625,0.0,0.0,0.0,0.0,2.m4v,3.0
2024-02-27 11:18:03.541121,1709029083.5411203,-42.96875,-40.0390625,-40.0390625,-56.15234375,0.0,0.0,0.0,0.0,2.m4v,3.0
2024-02-27 11:18:03.545026,1709029083.545026,-35.64453125,-39.0625,-30.2734375,-62.5,0.0,0.0,0.0,0.0,2.m4v,3.0
2024-02-27 11:18:03.548932,1709029083.5489316,-37.59765625,-37.109375,-22.94921875,-50.29296875,0.0,0.0,0.0,0.0,2.m4v,3.0
2024-02-27 11:18:03.552840,1709029083.5528402,-48.828125,-44.921875,-25.87890625,-28.80859375,0.0,0.0,0.0,0.0,2.m4v,3.0
2024-02-27 11:18:03.556746,1709029083.556746,-45.8984375,-40.0390625,-28.3203125,-19.04296875,0.0,0.0,0.0,0.0,2.m4v,3.0
2024-02-27 11:18:03.560652,1709029083.5606515,-44.921875,-38.57421875,-34.66796875,-42.96875,0.0,0.0,0.0,0.0,2.m4v,3.0
2024-02-27 11:18:03.564557,1709029083.564557,-49.31640625,-35.15625,-35.64453125,-58.10546875,0.0,0.0,0.0,0.0,2.m4v,3.0
2024-02-27 11:18:03.568463,1709029083.5684628,-58.10546875,-40.0390625,-36.62109375,-58.10546875,0.0,0.0,0.0,0.0,2.m4v,3.0
2024-02-27 11:18:03.572368,1709029083.5723684,-48.33984375,-35.64453125,-39.0625,-24.90234375,0.0,0.0,0.0,0.0,2.m4v,3.0
2024-02-27 11:18:04.166072,1709029084.166072,-32.71484375,-45.41015625,-41.015625,-55.17578125,0.0,0.0,0.0,0.0,2.m4v,3.0
2024-02-27 11:18:04.169978,1709029084.1699777,-25.390625,-49.31640625,-40.0390625,-34.66796875,0.0,0.0,0.0,0.0,2.m4v,3.0
2024-02-27 11:18:04.173883,1709029084.1738834,-27.83203125,-35.64453125,-49.8046875,-12.20703125,0.0,0.0,0.0,0.0,2.m4v,3.0
2024-02-27 11:18:04.177789,1709029084.177789,-26.85546875,-25.87890625,-48.828125,-20.5078125,0.0,0.0,0.0,0.0,2.m4v,3.0
2024-02-27 11:18:04.181695,1709029084.1816945,-18.5546875,-30.2734375,-49.31640625,-35.64453125,0.0,0.0,0.0,0.0,2.m4v,3.0
2024-02-27 11:18:04.185600,1709029084.1856005,-22.4609375,-42.96875,-38.0859375,-38.57421875,0.0,0.0,0.0,0.0,2.m4v,3.0
2024-02-27 11:18:04.189506,1709029084.1895058,-29.78515625,-55.6640625,-35.64453125,-46.875,0.0,0.0,0.0,0.0,2.m4v,3.0
2024-02-27 11:18:04.193412,1709029084.1934116,-39.55078125,-50.78125,-46.875,-33.69140625,0.0,0.0,0.0,0.0,2.m4v,3.0
2024-02-27 11:18:04.197317,1709029084.1973171,-45.8984375,-57.12890625,-35.64453125,-19.04296875,0.0,0.0,0.0,0.0,2.m4v,3.0
2024-02-27 11:18:04.201223,1709029084.201223,-36.1328125,-56.640625,-20.99609375,-36.1328125,0.0,0.0,0.0,0.0,2.m4v,3.0
2024-02-27 11:18:04.205128,1709029084.2051284,-31.73828125,-50.29296875,-24.4140625,-59.08203125,0.0,0.0,0.0,0.0,2.m4v,3.0
2024-02-27 11:18:04.209038,1709029084.2090378,-42.96875,-62.01171875,-32.2265625,-59.5703125,0.0,0.0,0.0,0.0,2.m4v,3.0
2024-02-27 11:18:04.212944,1709029084.2129436,-39.55078125,-50.78125,-34.66796875,-30.76171875,0.0,0.0,0.0,0.0,2.m4v,3.0
2024-02-27 11:18:04.216849,1709029084.216849,-30.76171875,-34.66796875,-28.3203125,-15.13671875,0.0,0.0,0.0,0.0,2.m4v,3.0
2024-02-27 11:18:04.220755,1709029084.2207546,-33.203125,-39.55078125,-40.52734375,-36.62109375,0.0,0.0,0.0,0.0,2.m4v,3.0
2024-02-27 11:18:04.224660,1709029084.2246604,-37.59765625,-44.43359375,-66.89453125,-59.08203125,0.0,0.0,0.0,0.0,2.m4v,3.0
2024-02-27 11:18:04.228566,1709029084.228566,-30.76171875,-31.25,-41.9921875,-37.59765625,0.0,0.0,0.0,0.0,2.m4v,3.0
2024-02-27 11:18:04.232471,1709029084.2324717,-27.83203125,-29.296875,-28.3203125,3.41796875,0.0,0.0,0.0,0.0,2.m4v,3.0
2024-02-27 11:18:04.236377,1709029084.2363772,-32.71484375,-45.8984375,-40.52734375,-1.953125,0.0,0.0,0.0,0.0,2.m4v,3.0
2024-02-27 11:18:04.240283,1709029084.2402828,-32.2265625,-29.78515625,-40.0390625,-23.92578125,0.0,0.0,0.0,0.0,2.m4v,3.0
2024-02-27 11:18:04.244189,1709029084.2441883,-36.1328125,-30.2734375,-34.66796875,-42.48046875,0.0,0.0,0.0,0.0,2.m4v,3.0
2024-02-27 11:18:04.248094,1709029084.248094,-35.64453125,-46.875,-20.01953125,-42.48046875,0.0,0.0,0.0,0.0,2.m4v,3.0
2024-02-27 11:18:04.252000,1709029084.2519996,-32.2265625,-21.97265625,-17.08984375,-11.71875,0.0,0.0,0.0,0.0,2.m4v,3.0
2024-02-27 11:18:04.255909,1709029084.2559087,-33.69140625,-24.90234375,-38.0859375,0.0,0.0,0.0,0.0,0.0,2.m4v,3.0
2024-02-27 11:18:04.259814,1709029084.2598145,-38.57421875,-39.55078125,-44.921875,-15.13671875,0.0,0.0,0.0,0.0,2.m4v,3.0
2024-02-27 11:18:04.263720,1709029084.26372,-29.78515625,-47.36328125,-37.59765625,-39.0625,0.0,0.0,0.0,0.0,2.m4v,3.0
2024-02-27 11:18:04.267626,1709029084.2676256,-25.87890625,-47.8515625,-40.52734375,-53.22265625,0.0,0.0,0.0,0.0,2.m4v,3.0
2024-02-27 11:18:04.271531,1709029084.271531,-40.52734375,-38.0859375,-51.7578125,-29.78515625,0.0,0.0,0.0,0.0,2.m4v,3.0
2024-02-27 11:18:04.275437,1709029084.2754369,-39.0625,-32.2265625,-36.62109375,0.48828125,0.0,0.0,0.0,0.0,2.m4v,3.0
2024-02-27 11:18:04.279342,1709029084.2793424,-27.34375,-41.50390625,-23.4375,-14.16015625,0.0,0.0,0.0,0.0,2.m4v,3.0
2024-02-27 11:18:04.283248,1709029084.2832482,-30.2734375,-56.15234375,-24.90234375,-56.15234375,0.0,0.0,0.0,0.0,2.m4v,3.0
2024-02-27 11:18:04.287154,1709029084.2871535,-43.9453125,-53.22265625,-25.390625,-61.5234375,0.0,0.0,0.0,0.0,2.m4v,3.0
2024-02-27 11:18:04.291059,1709029084.2910593,-50.29296875,-31.25,-27.34375,-30.76171875,0.0,0.0,0.0,0.0,2.m4v,3.0
2024-02-27 11:18:04.294965,1709029084.294965,-41.9921875,-20.5078125,-30.2734375,-13.18359375,0.0,0.0,0.0,0.0,2.m4v,3.0
2024-02-27 11:18:04.298871,1709029084.2988706,-27.83203125,-20.01953125,-36.62109375,-22.94921875,0.0,0.0,0.0,0.0,2.m4v,3.0
2024-02-27 11:18:04.302780,1709029084.3027797,-27.83203125,-2.9296875,-25.390625,-33.69140625,0.0,0.0,0.0,0.0,2.m4v,3.0
2024-02-27 11:18:04.306685,1709029084.3066852,-38.57421875,-22.4609375,-16.11328125,-45.8984375,0.0,0.0,0.0,0.0,2.m4v,3.0
2024-02-27 11:18:04.310591,1709029084.3105907,-50.29296875,-50.78125,-24.90234375,-35.64453125,0.0,0.0,0.0,0.0,2.m4v,3.0
2024-02-27 11:18:04.314497,1709029084.3144965,-51.7578125,-45.8984375,-33.203125,-12.6953125,0.0,0.0,0.0,0.0,2.m4v,3.0
2024-02-27 11:18:04.318402,1709029084.318402,-44.921875,-48.828125,-31.73828125,-23.92578125,0.0,0.0,0.0,0.0,2.m4v,3.0
2024-02-27 11:18:04.322308,1709029084.3223078,-33.69140625,-32.2265625,-28.80859375,-38.0859375,0.0,0.0,0.0,0.0,2.m4v,3.0
2024-02-27 11:18:04.326213,1709029084.3262134,-30.76171875,-15.625,-21.484375,-35.15625,0.0,0.0,0.0,0.0,2.m4v,3.0
2024-02-27 11:18:04.330119,1709029084.330119,-33.69140625,-34.1796875,-18.5546875,-28.80859375,0.0,0.0,0.0,0.0,2.m4v,3.0
2024-02-27 11:18:04.334025,1709029084.334025,-20.01953125,-47.8515625,-17.578125,-11.23046875,0.0,0.0,0.0,0.0,2.m4v,3.0
2024-02-27 11:18:04.337930,1709029084.3379302,-20.01953125,-45.41015625,-40.52734375,-14.16015625,0.0,0.0,0.0,0.0,2.m4v,3.0
2024-02-27 11:18:04.341836,1709029084.341836,-37.109375,-42.96875,-50.29296875,-35.15625,0.0,0.0,0.0,0.0,2.m4v,3.0
2024-02-27 11:18:04.345742,1709029084.3457415,-35.64453125,-38.57421875,-31.73828125,-41.9921875,0.0,0.0,0.0,0.0,2.m4v,3.0
2024-02-27 11:18:04.349649,1709029084.3496494,-33.69140625,-29.78515625,-32.71484375,-41.015625,0.0,0.0,0.0,0.0,2.m4v,3.0
2024-02-27 11:18:04.353555,1709029084.353555,-29.296875,-35.15625,-43.45703125,-33.203125,0.0,0.0,0.0,0.0,2.m4v,3.0
2024-02-27 11:18:04.357461,1709029084.3574607,-28.80859375,-39.0625,-41.9921875,-33.203125,0.0,0.0,0.0,0.0,2.m4v,3.0
2024-02-27 11:18:04.361366,1709029084.3613665,-29.296875,-26.85546875,-43.9453125,-42.48046875,0.0,0.0,0.0,0.0,2.m4v,3.0
2024-02-27 11:18:04.365272,1709029084.365272,-29.78515625,-43.9453125,-37.109375,-58.10546875,0.0,0.0,0.0,0.0,2.m4v,3.0
2024-02-27 11:18:04.369178,1709029084.3691776,-33.203125,-46.38671875,-26.85546875,-44.43359375,0.0,0.0,0.0,0.0,2.m4v,3.0
2024-02-27 11:18:04.373083,1709029084.373083,-36.1328125,-31.73828125,-30.2734375,-4.39453125,0.0,0.0,0.0,0.0,2.m4v,3.0
2024-02-27 11:18:04.376989,1709029084.376989,-26.3671875,-48.33984375,-42.96875,-10.7421875,0.0,0.0,0.0,0.0,2.m4v,3.0
2024-02-27 11:18:04.380894,1709029084.3808944,-19.53125,-43.45703125,-47.8515625,-40.0390625,0.0,0.0,0.0,0.0,2.m4v,3.0
2024-02-27 11:18:04.384800,1709029084.3848,-24.4140625,-33.69140625,-36.62109375,-42.96875,0.0,0.0,0.0,0.0,2.m4v,3.0
2024-02-27 11:18:04.388706,1709029084.3887055,-33.203125,-35.64453125,-22.4609375,-38.57421875,0.0,0.0,0.0,0.0,2.m4v,3.0
2024-02-27 11:18:04.392611,1709029084.3926113,-29.78515625,-25.87890625,-31.73828125,-22.4609375,0.0,0.0,0.0,0.0,2.m4v,3.0
2024-02-27 11:18:04.396519,1709029084.3965194,-23.4375,-34.1796875,-41.9921875,-18.06640625,0.0,0.0,0.0,0.0,2.m4v,3.0
2024-02-27 11:18:04.400425,1709029084.400425,-23.92578125,-48.33984375,-37.109375,-45.8984375,0.0,0.0,0.0,0.0,2.m4v,3.0
2024-02-27 11:18:04.404331,1709029084.4043307,1.953125,-33.203125,-27.83203125,-41.015625,0.0,0.0,0.0,0.0,2.m4v,3.0
2024-02-27 11:18:04.408236,1709029084.4082365,-10.25390625,-40.0390625,-42.48046875,-29.78515625,0.0,0.0,0.0,0.0,2.m4v,3.0
2024-02-27 11:18:04.412142,1709029084.4121418,-55.6640625,-51.26953125,-44.43359375,-30.76171875,0.0,0.0,0.0,0.0,2.m4v,3.0
2024-02-27 11:18:04.416048,1709029084.4160476,-59.08203125,-17.08984375,-29.78515625,-12.20703125,0.0,0.0,0.0,0.0,2.m4v,3.0
2024-02-27 11:18:04.419953,1709029084.419953,-47.8515625,-8.7890625,-29.296875,-17.578125,0.0,0.0,0.0,0.0,2.m4v,3.0
2024-02-27 11:18:04.423859,1709029084.423859,-42.96875,-46.38671875,-32.71484375,-49.8046875,0.0,0.0,0.0,0.0,2.m4v,3.0
2024-02-27 11:18:04.427764,1709029084.4277644,-45.8984375,-75.68359375,-34.66796875,-62.98828125,0.0,0.0,0.0,0.0,2.m4v,3.0
2024-02-27 11:18:04.431670,1709029084.43167,-44.921875,-67.3828125,-31.73828125,-36.62109375,0.0,0.0,0.0,0.0,2.m4v,3.0
2024-02-27 11:18:04.435576,1709029084.4355755,-28.3203125,-44.921875,-22.4609375,-11.23046875,0.0,0.0,0.0,0.0,2.m4v,3.0
2024-02-27 11:18:04.439481,1709029084.4394813,-24.4140625,-40.52734375,-25.87890625,-32.71484375,0.0,0.0,0.0,0.0,2.m4v,3.0
2024-02-27 11:18:04.443392,1709029084.4433916,-37.109375,-35.64453125,-32.71484375,-60.546875,0.0,0.0,0.0,0.0,2.m4v,3.0
2024-02-27 11:18:04.447297,1709029084.447297,-38.57421875,-27.83203125,-29.78515625,-59.08203125,0.0,0.0,0.0,0.0,2.m4v,3.0
2024-02-27 11:18:04.451203,1709029084.4512029,-30.76171875,-24.4140625,-36.62109375,-25.87890625,0.0,0.0,0.0,0.0,2.m4v,3.0
2024-02-27 11:18:04.455109,1709029084.4551086,-20.99609375,-34.1796875,-41.015625,6.8359375,0.0,0.0,0.0,0.0,2.m4v,3.0
2024-02-27 11:18:04.459014,1709029084.4590142,-20.99609375,-47.36328125,-42.48046875,-13.18359375,0.0,0.0,0.0,0.0,2.m4v,3.0
2024-02-27 11:18:04.462920,1709029084.4629197,-22.94921875,-24.90234375,-27.83203125,-34.1796875,0.0,0.0,0.0,0.0,2.m4v,3.0
2024-02-27 11:18:04.466825,1709029084.4668255,-20.01953125,-19.53125,-21.97265625,-34.1796875,0.0,0.0,0.0,0.0,2.m4v,3.0
2024-02-27 11:18:04.470731,1709029084.470731,-34.66796875,-39.55078125,-27.83203125,-35.64453125,0.0,0.0,0.0,0.0,2.m4v,3.0
2024-02-27 11:18:04.474637,1709029084.4746368,-48.828125,-37.59765625,-32.71484375,-20.5078125,0.0,0.0,0.0,0.0,2.m4v,3.0
2024-02-27 11:18:04.478542,1709029084.4785423,-48.828125,-37.109375,-35.64453125,-23.4375,0.0,0.0,0.0,0.0,2.m4v,3.0
2024-02-27 11:18:04.482448,1709029084.482448,-41.015625,-35.64453125,-27.34375,-47.8515625,0.0,0.0,0.0,0.0,2.m4v,3.0
2024-02-27 11:18:04.486354,1709029084.4863536,-32.2265625,-40.0390625,-21.484375,-58.59375,0.0,0.0,0.0,0.0,2.m4v,3.0
2024-02-27 11:18:04.490264,1709029084.490264,-31.73828125,-38.0859375,-18.06640625,-38.0859375,0.0,0.0,0.0,0.0,2.m4v,3.0
2024-02-27 11:18:04.494169,1709029084.4941697,-35.64453125,-36.62109375,-34.66796875,-16.6015625,0.0,0.0,0.0,0.0,2.m4v,3.0
2024-02-27 11:18:04.498075,1709029084.498075,-30.76171875,-35.15625,-23.92578125,-22.4609375,0.0,0.0,0.0,0.0,2.m4v,3.0
2024-02-27 11:18:04.501981,1709029084.5019808,-37.109375,-33.203125,-14.16015625,-54.19921875,0.0,0.0,0.0,0.0,2.m4v,3.0
2024-02-27 11:18:04.505886,1709029084.5058863,-53.7109375,-37.109375,-27.34375,-77.63671875,0.0,0.0,0.0,0.0,2.m4v,3.0
2024-02-27 11:18:04.509792,1709029084.509792,-49.31640625,-26.85546875,-22.4609375,-53.22265625,0.0,0.0,0.0,0.0,2.m4v,3.0
2024-02-27 11:18:04.513698,1709029084.5136976,-42.96875,-34.1796875,-24.4140625,-18.5546875,0.0,0.0,0.0,0.0,2.m4v,3.0
2024-02-27 11:18:04.517603,1709029084.5176032,-55.6640625,-58.59375,-45.8984375,-33.69140625,0.0,0.0,0.0,0.0,2.m4v,3.0
2024-02-27 11:18:04.521509,1709029084.521509,-61.03515625,-56.640625,-47.36328125,-60.05859375,0.0,0.0,0.0,0.0,2.m4v,3.0
2024-02-27 11:18:04.525414,1709029084.5254145,-55.6640625,-62.01171875,-41.50390625,-75.68359375,0.0,0.0,0.0,0.0,2.m4v,3.0
2024-02-27 11:18:04.529320,1709029084.52932,-52.24609375,-55.6640625,-36.62109375,-67.3828125,0.0,0.0,0.0,0.0,2.m4v,3.0
2024-02-27 11:18:04.533226,1709029084.5332258,-53.22265625,-41.015625,-45.8984375,-38.0859375,0.0,0.0,0.0,0.0,2.m4v,3.0
2024-02-27 11:18:04.537136,1709029084.537136,-47.8515625,-44.43359375,-57.6171875,-24.90234375,0.0,0.0,0.0,0.0,2.m4v,3.0
2024-02-27 11:18:04.541042,1709029084.5410416,-38.0859375,-39.55078125,-54.19921875,-35.15625,0.0,0.0,0.0,0.0,2.m4v,3.0
2024-02-27 11:18:04.544947,1709029084.5449471,-31.73828125,-43.9453125,-41.50390625,-51.26953125,0.0,0.0,0.0,0.0,2.m4v,3.0
2024-02-27 11:18:04.548853,1709029084.548853,-29.296875,-70.3125,-27.83203125,-47.36328125,0.0,0.0,0.0,0.0,2.m4v,3.0
2024-02-27 11:18:04.552758,1709029084.5527585,-38.57421875,-67.87109375,-34.1796875,-18.5546875,0.0,0.0,0.0,0.0,2.m4v,3.0
2024-02-27 11:18:04.556664,1709029084.5566642,-43.45703125,-32.2265625,-37.59765625,-7.8125,0.0,0.0,0.0,0.0,2.m4v,3.0
2024-02-27 11:18:04.962883,1709029084.9628828,-37.59765625,-48.33984375,-49.8046875,-56.640625,0.0,0.0,0.0,0.0,2.m4v,3.0
2024-02-27 11:18:04.970694,1709029084.970694,-34.66796875,-40.52734375,-56.15234375,-36.62109375,0.0,0.0,0.0,0.0,2.m4v,3.0
2024-02-27 11:18:04.978505,1709029084.9785054,-23.4375,-18.5546875,-32.2265625,-16.6015625,0.0,0.0,0.0,0.0,2.m4v,3.0
2024-02-27 11:18:04.986316,1709029084.9863164,-29.78515625,-53.22265625,-17.08984375,-49.8046875,0.0,0.0,0.0,0.0,2.m4v,3.0
2024-02-27 11:18:04.994128,1709029084.9941278,-43.9453125,-44.921875,-20.01953125,-23.92578125,0.0,0.0,0.0,0.0,2.m4v,3.0
2024-02-27 11:18:05.001939,1709029085.001939,-16.11328125,-42.48046875,-32.2265625,-39.0625,0.0,0.0,0.0,0.0,2.m4v,3.0
2024-02-27 11:18:05.009760,1709029085.0097604,-51.7578125,-26.3671875,-38.0859375,-43.9453125,0.0,0.0,0.0,0.0,2.m4v,3.0
2024-02-27 11:18:05.017572,1709029085.0175717,-48.33984375,-35.15625,-25.87890625,-15.625,0.0,0.0,0.0,0.0,2.m4v,3.0
2024-02-27 11:18:05.025383,1709029085.025383,-50.78125,-26.3671875,-41.50390625,-50.78125,0.0,0.0,0.0,0.0,2.m4v,3.0
2024-02-27 11:18:05.033194,1709029085.0331943,-46.38671875,-50.78125,-38.57421875,-27.34375,0.0,0.0,0.0,0.0,2.m4v,3.0
2024-02-27 11:18:05.041006,1709029085.0410056,-39.55078125,-57.12890625,-35.64453125,-44.43359375,0.0,0.0,0.0,0.0,2.m4v,3.0
2024-02-27 11:18:05.048817,1709029085.0488167,-46.875,-28.3203125,-46.875,-68.359375,0.0,0.0,0.0,0.0,2.m4v,3.0
2024-02-27 11:18:05.056634,1709029085.0566344,-21.97265625,-38.57421875,-20.99609375,-15.625,0.0,0.0,0.0,0.0,2.m4v,3.0
2024-02-27 11:18:05.064446,1709029085.0644455,-40.52734375,-32.2265625,-45.41015625,-66.40625,0.0,0.0,0.0,0.0,2.m4v,3.0
2024-02-27 11:18:05.072257,1709029085.0722568,-33.69140625,-30.76171875,-25.390625,-26.85546875,0.0,0.0,0.0,0.0,2.m4v,3.0
2024-02-27 11:18:05.080068,1709029085.080068,-31.73828125,-47.8515625,-37.59765625,-29.296875,0.0,0.0,0.0,0.0,2.m4v,3.0
2024-02-27 11:18:05.087879,1709029085.0878794,-29.78515625,-21.484375,-46.38671875,-45.8984375,0.0,0.0,0.0,0.0,2.m4v,3.0
2024-02-27 11:18:05.095691,1709029085.0956907,-45.8984375,-27.83203125,-31.73828125,-32.2265625,0.0,0.0,0.0,0.0,2.m4v,3.0
2024-02-27 11:18:05.103504,1709029085.1035044,-42.48046875,-24.90234375,-17.08984375,-61.5234375,0.0,0.0,0.0,0.0,2.m4v,3.0
2024-02-27 11:18:05.111316,1709029085.1113155,-42.48046875,-42.96875,-25.87890625,-40.0390625,0.0,0.0,0.0,0.0,2.m4v,3.0
2024-02-27 11:18:05.119127,1709029085.119127,-25.390625,-25.87890625,-13.671875,-10.7421875,0.0,0.0,0.0,0.0,2.m4v,3.0
2024-02-27 11:18:05.126938,1709029085.1269383,-20.01953125,-40.52734375,-20.01953125,-36.62109375,0.0,0.0,0.0,0.0,2.m4v,3.0
2024-02-27 11:18:05.134750,1709029085.1347497,-57.12890625,-26.3671875,-50.78125,-37.109375,0.0,0.0,0.0,0.0,2.m4v,3.0
2024-02-27 11:18:05.142561,1709029085.1425607,-38.57421875,-19.04296875,-26.85546875,-56.15234375,0.0,0.0,0.0,0.0,2.m4v,3.0
2024-02-27 11:18:05.150375,1709029085.150375,-49.8046875,-39.55078125,-33.203125,-48.33984375,0.0,0.0,0.0,0.0,2.m4v,3.0
2024-02-27 11:18:05.158186,1709029085.158186,-23.4375,-49.31640625,-31.25,-18.5546875,0.0,0.0,0.0,0.0,2.m4v,3.0
2024-02-27 11:18:05.165997,1709029085.165997,-20.01953125,-4.39453125,-20.99609375,-36.1328125,0.0,0.0,0.0,0.0,2.m4v,3.0
2024-02-27 11:18:05.173808,1709029085.1738083,-36.62109375,-39.55078125,-31.25,-26.85546875,0.0,0.0,0.0,0.0,2.m4v,3.0
2024-02-27 11:18:05.181620,1709029085.1816196,-31.25,-38.0859375,-37.59765625,-41.015625,0.0,0.0,0.0,0.0,2.m4v,3.0
2024-02-27 11:18:05.189431,1709029085.189431,-35.64453125,-24.4140625,-27.83203125,-51.26953125,0.0,0.0,0.0,0.0,2.m4v,3.0
2024-02-27 11:18:05.197247,1709029085.1972473,-23.92578125,-15.625,-29.296875,-17.08984375,0.0,0.0,0.0,0.0,2.m4v,3.0
2024-02-27 11:18:05.205059,1709029085.2050586,-27.83203125,-27.83203125,-31.25,-49.31640625,0.0,0.0,0.0,0.0,2.m4v,3.0
2024-02-27 11:18:05.212870,1709029085.21287,-28.80859375,-15.625,-31.25,-14.16015625,0.0,0.0,0.0,0.0,2.m4v,3.0
2024-02-27 11:18:05.224587,1709029085.2245867,-29.296875,-41.9921875,-32.2265625,-70.3125,0.0,0.0,0.0,0.0,2.m4v,3.0
2024-02-27 11:18:05.236304,1709029085.2363036,-16.11328125,-21.484375,-24.90234375,-15.13671875,0.0,0.0,0.0,0.0,2.m4v,3.0
2024-02-27 11:18:05.248025,1709029085.2480252,-18.5546875,-37.59765625,-19.04296875,-56.15234375,0.0,0.0,0.0,0.0,2.m4v,3.0
2024-02-27 11:18:05.259742,1709029085.259742,-32.71484375,-13.18359375,-26.85546875,-26.85546875,0.0,0.0,0.0,0.0,2.m4v,3.0
2024-02-27 11:18:05.271459,1709029085.2714589,-41.015625,-51.7578125,-51.26953125,-47.8515625,0.0,0.0,0.0,0.0,2.m4v,3.0
2024-02-27 11:18:05.283176,1709029085.2831757,-39.0625,-49.31640625,-34.1796875,-68.359375,0.0,0.0,0.0,0.0,2.m4v,3.0
2024-02-27 11:18:05.294897,1709029085.294897,-42.96875,-17.08984375,-46.875,-7.8125,0.0,0.0,0.0,0.0,2.m4v,3.0
2024-02-27 11:18:05.306614,1709029085.306614,-31.73828125,-10.7421875,-41.50390625,-21.97265625,0.0,0.0,0.0,0.0,2.m4v,3.0
2024-02-27 11:18:05.318331,1709029085.3183308,-7.8125,-49.8046875,-27.34375,5.37109375,0.0,0.0,0.0,0.0,2.m4v,3.0
2024-02-27 11:18:05.330048,1709029085.3300476,-18.5546875,-40.52734375,-22.4609375,-37.109375,0.0,0.0,0.0,0.0,2.m4v,3.0
2024-02-27 11:18:05.341769,1709029085.3417685,-20.99609375,-38.0859375,-34.1796875,-58.10546875,0.0,0.0,0.0,0.0,2.m4v,3.0
2024-02-27 11:18:05.341769,1709029085.3417685,-20.99609375,-38.0859375,-34.1796875,-58.10546875,0.0,0.0,0.0,0.0,2.m4v,3.0
2024-02-27 11:18:05.353485,1709029085.353485,-35.64453125,-25.390625,-45.8984375,-20.99609375,0.0,0.0,0.0,0.0,2.m4v,3.0
2024-02-27 11:18:05.353485,1709029085.353485,-35.64453125,-25.390625,-45.8984375,-20.99609375,0.0,0.0,0.0,0.0,2.m4v,3.0
2024-02-27 11:18:05.365202,1709029085.3652022,-35.64453125,-64.94140625,-42.48046875,-59.08203125,0.0,0.0,0.0,0.0,2.m4v,3.0
2024-02-27 11:18:05.365202,1709029085.3652022,-35.64453125,-64.94140625,-42.48046875,-59.08203125,0.0,0.0,0.0,0.0,2.m4v,3.0
2024-02-27 11:18:05.376919,1709029085.376919,-36.62109375,-34.66796875,-31.25,-15.13671875,0.0,0.0,0.0,0.0,2.m4v,3.0
2024-02-27 11:18:05.376919,1709029085.376919,-36.62109375,-34.66796875,-31.25,-15.13671875,0.0,0.0,0.0,0.0,2.m4v,3.0
2024-02-27 11:18:05.384734,1709029085.3847344,-14.16015625,-16.6015625,-20.99609375,-30.2734375,0.0,0.0,0.0,0.0,2.m4v,3.0
2024-02-27 11:18:05.384734,1709029085.3847344,-14.16015625,-16.6015625,-20.99609375,-30.2734375,0.0,0.0,0.0,0.0,2.m4v,3.0
2024-02-27 11:18:05.396451,1709029085.3964512,-63.4765625,-19.04296875,-33.69140625,-27.34375,0.0,0.0,0.0,0.0,2.m4v,3.0
2024-02-27 11:18:05.396451,1709029085.3964512,-63.4765625,-19.04296875,-33.69140625,-27.34375,0.0,0.0,0.0,0.0,2.m4v,3.0
2024-02-27 11:18:05.404263,1709029085.4042623,-47.8515625,-3.90625,-32.71484375,-61.5234375,0.0,0.0,0.0,0.0,2.m4v,3.0
2024-02-27 11:18:05.404263,1709029085.4042623,-47.8515625,-3.90625,-32.71484375,-61.5234375,0.0,0.0,0.0,0.0,2.m4v,3.0
2024-02-27 11:18:05.415979,1709029085.4159794,-26.3671875,-47.36328125,-47.36328125,-50.29296875,0.0,0.0,0.0,0.0,2.m4v,3.0
2024-02-27 11:18:05.415979,1709029085.4159794,-26.3671875,-47.36328125,-47.36328125,-50.29296875,0.0,0.0,0.0,0.0,2.m4v,3.0
2024-02-27 11:18:05.423791,1709029085.4237907,-16.11328125,-25.87890625,-35.64453125,-48.828125,0.0,0.0,0.0,0.0,2.m4v,3.0
2024-02-27 11:18:05.423791,1709029085.4237907,-16.11328125,-25.87890625,-35.64453125,-48.828125,0.0,0.0,0.0,0.0,2.m4v,3.0
2024-02-27 11:18:05.435510,1709029085.4355102,-43.9453125,-34.66796875,-26.3671875,-2.9296875,0.0,0.0,0.0,0.0,2.m4v,3.0
2024-02-27 11:18:05.435510,1709029085.4355102,-43.9453125,-34.66796875,-26.3671875,-2.9296875,0.0,0.0,0.0,0.0,2.m4v,3.0
2024-02-27 11:18:05.443321,1709029085.4433217,-43.45703125,-32.2265625,-20.5078125,-30.2734375,0.0,0.0,0.0,0.0,2.m4v,3.0
2024-02-27 11:18:05.443321,1709029085.4433217,-43.45703125,-32.2265625,-20.5078125,-30.2734375,0.0,0.0,0.0,0.0,2.m4v,3.0
2024-02-27 11:18:05.455038,1709029085.4550383,-42.48046875,-31.25,-43.45703125,-5.859375,0.0,0.0,0.0,0.0,2.m4v,3.0
2024-02-27 11:18:05.455038,1709029085.4550383,-42.48046875,-31.25,-43.45703125,-5.859375,0.0,0.0,0.0,0.0,2.m4v,3.0
2024-02-27 11:18:05.462850,1709029085.4628496,-31.25,-24.90234375,-47.36328125,-38.57421875,0.0,0.0,0.0,0.0,2.m4v,3.0
2024-02-27 11:18:05.462850,1709029085.4628496,-31.25,-24.90234375,-47.36328125,-38.57421875,0.0,0.0,0.0,0.0,2.m4v,3.0
2024-02-27 11:18:05.474569,1709029085.474569,-21.97265625,-18.5546875,-24.4140625,-1.46484375,0.0,0.0,0.0,0.0,2.m4v,3.0
2024-02-27 11:18:05.474569,1709029085.474569,-21.97265625,-18.5546875,-24.4140625,-1.46484375,0.0,0.0,0.0,0.0,2.m4v,3.0
2024-02-27 11:18:05.482380,1709029085.4823804,-34.1796875,-35.15625,-36.62109375,-57.6171875,0.0,0.0,0.0,0.0,2.m4v,3.0
2024-02-27 11:18:05.482380,1709029085.4823804,-34.1796875,-35.15625,-36.62109375,-57.6171875,0.0,0.0,0.0,0.0,2.m4v,3.0
2024-02-27 11:18:05.494097,1709029085.4940972,-41.50390625,7.8125,-39.55078125,-24.90234375,0.0,0.0,0.0,0.0,2.m4v,3.0
2024-02-27 11:18:05.494097,1709029085.4940972,-41.50390625,7.8125,-39.55078125,-24.90234375,0.0,0.0,0.0,0.0,2.m4v,3.0
2024-02-27 11:18:05.501909,1709029085.5019083,-22.4609375,-20.5078125,-40.0390625,-41.50390625,0.0,0.0,0.0,0.0,2.m4v,3.0
2024-02-27 11:18:05.501909,1709029085.5019083,-22.4609375,-20.5078125,-40.0390625,-41.50390625,0.0,0.0,0.0,0.0,2.m4v,3.0
2024-02-27 11:18:05.513625,1709029085.5136254,-26.3671875,-58.10546875,-28.3203125,-22.94921875,0.0,0.0,0.0,0.0,2.m4v,3.0
2024-02-27 11:18:05.513625,1709029085.5136254,-26.3671875,-58.10546875,-28.3203125,-22.94921875,0.0,0.0,0.0,0.0,2.m4v,3.0
2024-02-27 11:18:05.990155,1709029085.9901547,-35.64453125,-43.45703125,-32.2265625,-27.83203125,0.0,0.0,0.0,0.0,2.m4v,3.0
2024-02-27 11:18:05.994060,1709029085.9940605,-27.83203125,-36.1328125,-26.85546875,0.48828125,0.0,0.0,0.0,0.0,2.m4v,3.0
2024-02-27 11:18:05.997966,1709029085.997966,-20.99609375,-28.80859375,-29.78515625,-3.90625,0.0,0.0,0.0,0.0,2.m4v,3.0
2024-02-27 11:18:06.001872,1709029086.0018716,-31.73828125,-41.015625,-52.734375,-43.45703125,0.0,0.0,0.0,0.0,2.m4v,3.0
2024-02-27 11:18:06.005777,1709029086.0057774,-49.8046875,-58.10546875,-46.38671875,-59.5703125,0.0,0.0,0.0,0.0,2.m4v,3.0
2024-02-27 11:18:06.009683,1709029086.009683,-52.734375,-38.57421875,-29.296875,-36.62109375,0.0,0.0,0.0,0.0,2.m4v,3.0
2024-02-27 11:18:06.013588,1709029086.0135884,-30.76171875,-24.90234375,-18.5546875,-1.46484375,0.0,0.0,0.0,0.0,2.m4v,3.0
2024-02-27 11:18:06.017494,1709029086.0174942,-21.97265625,-38.57421875,-9.765625,-6.34765625,0.0,0.0,0.0,0.0,2.m4v,3.0
2024-02-27 11:18:06.021400,1709029086.0213995,-32.71484375,-42.48046875,-16.11328125,-37.59765625,0.0,0.0,0.0,0.0,2.m4v,3.0
2024-02-27 11:18:06.025306,1709029086.0253055,-33.69140625,-48.33984375,-24.4140625,-62.01171875,0.0,0.0,0.0,0.0,2.m4v,3.0
2024-02-27 11:18:06.029211,1709029086.029211,-28.3203125,-43.9453125,-14.6484375,-51.26953125,0.0,0.0,0.0,0.0,2.m4v,3.0
2024-02-27 11:18:06.033117,1709029086.0331166,-39.55078125,-35.15625,-19.53125,-25.87890625,0.0,0.0,0.0,0.0,2.m4v,3.0
2024-02-27 11:18:06.037027,1709029086.037027,-43.45703125,-36.62109375,-38.57421875,-33.203125,0.0,0.0,0.0,0.0,2.m4v,3.0
2024-02-27 11:18:06.040932,1709029086.0409324,-25.87890625,-22.4609375,-26.3671875,-39.0625,0.0,0.0,0.0,0.0,2.m4v,3.0
2024-02-27 11:18:06.044838,1709029086.0448382,-26.3671875,-17.578125,-25.87890625,-32.71484375,0.0,0.0,0.0,0.0,2.m4v,3.0
2024-02-27 11:18:06.048744,1709029086.0487435,-37.109375,-37.59765625,-42.48046875,-30.76171875,0.0,0.0,0.0,0.0,2.m4v,3.0
2024-02-27 11:18:06.052649,1709029086.0526493,-34.66796875,-47.36328125,-45.41015625,-7.32421875,0.0,0.0,0.0,0.0,2.m4v,3.0
2024-02-27 11:18:06.056555,1709029086.056555,-23.92578125,-20.99609375,-36.1328125,18.5546875,0.0,0.0,0.0,0.0,2.m4v,3.0
2024-02-27 11:18:06.060461,1709029086.0604606,-17.578125,-12.20703125,-20.99609375,0.48828125,0.0,0.0,0.0,0.0,2.m4v,3.0
2024-02-27 11:18:06.064366,1709029086.0643663,-22.4609375,-42.48046875,-25.390625,-36.62109375,0.0,0.0,0.0,0.0,2.m4v,3.0
2024-02-27 11:18:06.068272,1709029086.068272,-33.203125,-47.36328125,-27.83203125,-50.78125,0.0,0.0,0.0,0.0,2.m4v,3.0
2024-02-27 11:18:06.072177,1709029086.0721774,-41.9921875,-43.45703125,-30.2734375,-34.1796875,0.0,0.0,0.0,0.0,2.m4v,3.0
2024-02-27 11:18:06.076083,1709029086.0760832,-36.62109375,-34.1796875,-37.59765625,-20.01953125,0.0,0.0,0.0,0.0,2.m4v,3.0
2024-02-27 11:18:06.079989,1709029086.0799887,-25.390625,-27.83203125,-32.71484375,-39.55078125,0.0,0.0,0.0,0.0,2.m4v,3.0
2024-02-27 11:18:06.083898,1709029086.0838983,-30.76171875,-34.1796875,-26.85546875,-57.12890625,0.0,0.0,0.0,0.0,2.m4v,3.0
2024-02-27 11:18:06.087804,1709029086.0878038,-46.38671875,-34.1796875,-35.15625,-56.15234375,0.0,0.0,0.0,0.0,2.m4v,3.0
2024-02-27 11:18:06.091709,1709029086.0917094,-34.1796875,-24.4140625,-32.71484375,-25.87890625,0.0,0.0,0.0,0.0,2.m4v,3.0
2024-02-27 11:18:06.095615,1709029086.0956151,-8.30078125,-30.2734375,-27.83203125,-6.8359375,0.0,0.0,0.0,0.0,2.m4v,3.0
2024-02-27 11:18:06.099521,1709029086.0995207,-9.27734375,-34.1796875,-41.9921875,-27.83203125,0.0,0.0,0.0,0.0,2.m4v,3.0
2024-02-27 11:18:06.103426,1709029086.1034262,-19.53125,-11.23046875,-29.78515625,-41.015625,0.0,0.0,0.0,0.0,2.m4v,3.0
2024-02-27 11:18:06.107332,1709029086.107332,-40.0390625,-19.04296875,-17.08984375,-42.96875,0.0,0.0,0.0,0.0,2.m4v,3.0
2024-02-27 11:18:06.111238,1709029086.1112375,-51.26953125,-53.7109375,-21.484375,-31.25,0.0,0.0,0.0,0.0,2.m4v,3.0
2024-02-27 11:18:06.115143,1709029086.1151433,-45.41015625,-42.96875,-25.390625,-15.13671875,0.0,0.0,0.0,0.0,2.m4v,3.0
2024-02-27 11:18:06.119049,1709029086.1190488,-38.57421875,-21.97265625,-25.87890625,-27.83203125,0.0,0.0,0.0,0.0,2.m4v,3.0
2024-02-27 11:18:06.122954,1709029086.1229544,-35.15625,-31.25,-35.64453125,-48.33984375,0.0,0.0,0.0,0.0,2.m4v,3.0
2024-02-27 11:18:06.126860,1709029086.12686,-38.57421875,-43.9453125,-44.43359375,-52.734375,0.0,0.0,0.0,0.0,2.m4v,3.0
2024-02-27 11:18:06.130769,1709029086.130769,-28.3203125,-32.71484375,-26.85546875,-22.4609375,0.0,0.0,0.0,0.0,2.m4v,3.0
2024-02-27 11:18:06.134675,1709029086.1346743,-13.18359375,-17.578125,-12.20703125,10.25390625,0.0,0.0,0.0,0.0,2.m4v,3.0
2024-02-27 11:18:06.138580,1709029086.1385803,-15.625,-21.484375,-20.5078125,-10.25390625,0.0,0.0,0.0,0.0,2.m4v,3.0
2024-02-27 11:18:06.142486,1709029086.142486,-23.92578125,-24.4140625,-23.92578125,-41.9921875,0.0,0.0,0.0,0.0,2.m4v,3.0
2024-02-27 11:18:06.146392,1709029086.1463916,-33.203125,-34.1796875,-31.25,-53.22265625,0.0,0.0,0.0,0.0,2.m4v,3.0
2024-02-27 11:18:06.150297,1709029086.1502972,-45.41015625,-26.3671875,-43.45703125,-40.52734375,0.0,0.0,0.0,0.0,2.m4v,3.0
2024-02-27 11:18:06.154203,1709029086.1542027,-47.8515625,-19.53125,-41.50390625,-17.08984375,0.0,0.0,0.0,0.0,2.m4v,3.0
2024-02-27 11:18:06.158108,1709029086.1581085,-46.875,-40.52734375,-29.296875,-33.69140625,0.0,0.0,0.0,0.0,2.m4v,3.0
2024-02-27 11:18:06.162014,1709029086.162014,-48.828125,-32.71484375,-16.6015625,-53.22265625,0.0,0.0,0.0,0.0,2.m4v,3.0
2024-02-27 11:18:06.165920,1709029086.1659198,-56.15234375,-39.55078125,-22.4609375,-64.94140625,0.0,0.0,0.0,0.0,2.m4v,3.0
2024-02-27 11:18:06.169825,1709029086.1698253,-51.26953125,-51.26953125,-30.2734375,-52.734375,0.0,0.0,0.0,0.0,2.m4v,3.0
2024-02-27 11:18:06.173731,1709029086.1737309,-39.55078125,-30.76171875,-31.73828125,-20.01953125,0.0,0.0,0.0,0.0,2.m4v,3.0
2024-02-27 11:18:06.177639,1709029086.1776395,-24.4140625,-18.5546875,-17.08984375,-22.4609375,0.0,0.0,0.0,0.0,2.m4v,3.0
2024-02-27 11:18:06.423719,1709029086.423719,-32.2265625,-26.85546875,-19.04296875,-64.94140625,0.0,0.0,0.0,0.0,2.m4v,3.0
2024-02-27 11:18:06.423719,1709029086.423719,-32.2265625,-26.85546875,-19.04296875,-64.94140625,0.0,0.0,0.0,0.0,2.m4v,3.0
2024-02-27 11:18:06.431530,1709029086.43153,-34.1796875,-30.2734375,-22.4609375,-18.5546875,0.0,0.0,0.0,0.0,2.m4v,3.0
2024-02-27 11:18:06.431530,1709029086.43153,-34.1796875,-30.2734375,-22.4609375,-18.5546875,0.0,0.0,0.0,0.0,2.m4v,3.0
2024-02-27 11:18:06.439341,1709029086.4393413,-18.5546875,-27.34375,-34.66796875,-33.69140625,0.0,0.0,0.0,0.0,2.m4v,3.0
2024-02-27 11:18:06.439341,1709029086.4393413,-18.5546875,-27.34375,-34.66796875,-33.69140625,0.0,0.0,0.0,0.0,2.m4v,3.0
2024-02-27 11:18:06.447153,1709029086.4471526,-39.0625,-32.71484375,-26.85546875,-63.96484375,0.0,0.0,0.0,0.0,2.m4v,3.0
2024-02-27 11:18:06.447153,1709029086.4471526,-39.0625,-32.71484375,-26.85546875,-63.96484375,0.0,0.0,0.0,0.0,2.m4v,3.0
2024-02-27 11:18:06.454964,1709029086.454964,-35.15625,-22.94921875,-22.94921875,-16.11328125,0.0,0.0,0.0,0.0,2.m4v,3.0
2024-02-27 11:18:06.454964,1709029086.454964,-35.15625,-22.94921875,-22.94921875,-16.11328125,0.0,0.0,0.0,0.0,2.m4v,3.0
2024-02-27 11:18:06.462779,1709029086.4627793,-21.97265625,-16.11328125,-31.25,-40.52734375,0.0,0.0,0.0,0.0,2.m4v,3.0
2024-02-27 11:18:06.462779,1709029086.4627793,-21.97265625,-16.11328125,-31.25,-40.52734375,0.0,0.0,0.0,0.0,2.m4v,3.0
2024-02-27 11:18:06.470591,1709029086.4705906,-31.73828125,-63.4765625,-25.87890625,-39.0625,0.0,0.0,0.0,0.0,2.m4v,3.0
2024-02-27 11:18:06.470591,1709029086.4705906,-31.73828125,-63.4765625,-25.87890625,-39.0625,0.0,0.0,0.0,0.0,2.m4v,3.0
2024-02-27 11:18:06.478402,1709029086.478402,-26.85546875,-19.53125,-24.4140625,-15.13671875,0.0,0.0,0.0,0.0,2.m4v,3.0
2024-02-27 11:18:06.478402,1709029086.478402,-26.85546875,-19.53125,-24.4140625,-15.13671875,0.0,0.0,0.0,0.0,2.m4v,3.0
2024-02-27 11:18:06.486213,1709029086.4862132,-23.92578125,-49.8046875,-49.31640625,-43.9453125,0.0,0.0,0.0,0.0,2.m4v,3.0
2024-02-27 11:18:06.486213,1709029086.4862132,-23.92578125,-49.8046875,-49.31640625,-43.9453125,0.0,0.0,0.0,0.0,2.m4v,3.0
2024-02-27 11:18:06.494025,1709029086.4940245,-44.921875,-36.62109375,-21.484375,-39.55078125,0.0,0.0,0.0,0.0,2.m4v,3.0
2024-02-27 11:18:06.494025,1709029086.4940245,-44.921875,-36.62109375,-21.484375,-39.55078125,0.0,0.0,0.0,0.0,2.m4v,3.0
2024-02-27 11:18:06.501836,1709029086.5018356,-37.109375,-29.296875,-26.3671875,-50.78125,0.0,0.0,0.0,0.0,2.m4v,3.0
2024-02-27 11:18:06.501836,1709029086.5018356,-37.109375,-29.296875,-26.3671875,-50.78125,0.0,0.0,0.0,0.0,2.m4v,3.0
2024-02-27 11:18:06.509650,1709029086.50965,-51.26953125,-55.17578125,-41.9921875,-39.55078125,0.0,0.0,0.0,0.0,2.m4v,3.0
2024-02-27 11:18:06.509650,1709029086.50965,-51.26953125,-55.17578125,-41.9921875,-39.55078125,0.0,0.0,0.0,0.0,2.m4v,3.0
2024-02-27 11:18:06.517461,1709029086.5174613,-31.25,-30.2734375,-18.5546875,-0.9765625,0.0,0.0,0.0,0.0,2.m4v,3.0
2024-02-27 11:18:06.517461,1709029086.5174613,-31.25,-30.2734375,-18.5546875,-0.9765625,0.0,0.0,0.0,0.0,2.m4v,3.0
2024-02-27 11:18:06.525273,1709029086.5252726,-0.9765625,-13.18359375,-33.203125,-5.37109375,0.0,0.0,0.0,0.0,2.m4v,3.0
2024-02-27 11:18:06.525273,1709029086.5252726,-0.9765625,-13.18359375,-33.203125,-5.37109375,0.0,0.0,0.0,0.0,2.m4v,3.0
2024-02-27 11:18:06.533084,1709029086.5330837,-46.875,-42.48046875,-29.296875,-40.52734375,0.0,0.0,0.0,0.0,2.m4v,3.0
2024-02-27 11:18:06.533084,1709029086.5330837,-46.875,-42.48046875,-29.296875,-40.52734375,0.0,0.0,0.0,0.0,2.m4v,3.0
2024-02-27 11:18:06.540895,1709029086.540895,-6.34765625,-39.0625,-16.11328125,-41.015625,0.0,0.0,0.0,0.0,2.m4v,3.0
2024-02-27 11:18:06.540895,1709029086.540895,-6.34765625,-39.0625,-16.11328125,-41.015625,0.0,0.0,0.0,0.0,2.m4v,3.0
2024-02-27 11:18:06.548706,1709029086.5487063,-44.921875,-45.41015625,-40.52734375,-54.19921875,0.0,0.0,0.0,0.0,2.m4v,3.0
2024-02-27 11:18:06.548706,1709029086.5487063,-44.921875,-45.41015625,-40.52734375,-54.19921875,0.0,0.0,0.0,0.0,2.m4v,3.0
2024-02-27 11:18:06.556520,1709029086.5565205,-40.0390625,-41.50390625,-37.109375,-15.625,0.0,0.0,0.0,0.0,2.m4v,3.0
2024-02-27 11:18:06.556520,1709029086.5565205,-40.0390625,-41.50390625,-37.109375,-15.625,0.0,0.0,0.0,0.0,2.m4v,3.0
2024-02-27 11:18:06.564332,1709029086.5643318,-26.85546875,-36.1328125,-41.9921875,-44.43359375,0.0,0.0,0.0,0.0,2.m4v,3.0
2024-02-27 11:18:06.564332,1709029086.5643318,-26.85546875,-36.1328125,-41.9921875,-44.43359375,0.0,0.0,0.0,0.0,2.m4v,3.0
2024-02-27 11:18:06.572143,1709029086.572143,-29.296875,-24.4140625,-31.73828125,-6.8359375,0.0,0.0,0.0,0.0,2.m4v,3.0
2024-02-27 11:18:06.572143,1709029086.572143,-29.296875,-24.4140625,-31.73828125,-6.8359375,0.0,0.0,0.0,0.0,2.m4v,3.0
2024-02-27 11:18:06.579954,1709029086.5799544,-39.0625,-46.875,-28.80859375,-38.57421875,0.0,0.0,0.0,0.0,2.m4v,3.0
2024-02-27 11:18:06.587765,1709029086.5877657,-35.15625,-51.26953125,-20.5078125,-46.875,0.0,0.0,0.0,0.0,2.m4v,3.0
2024-02-27 11:18:06.595577,1709029086.5955768,-64.94140625,-46.38671875,-35.64453125,-34.66796875,0.0,0.0,0.0,0.0,2.m4v,3.0
2024-02-27 11:18:06.603391,1709029086.6033907,-47.36328125,-31.25,-28.3203125,-53.22265625,0.0,0.0,0.0,0.0,2.m4v,3.0
2024-02-27 11:18:06.611202,1709029086.6112018,-41.50390625,-39.55078125,-24.90234375,-21.97265625,0.0,0.0,0.0,0.0,2.m4v,3.0
2024-02-27 11:18:06.619013,1709029086.619013,-33.69140625,-19.04296875,-28.3203125,-31.73828125,0.0,0.0,0.0,0.0,2.m4v,3.0
2024-02-27 11:18:06.626824,1709029086.6268244,-31.25,-51.7578125,-40.52734375,-62.01171875,0.0,0.0,0.0,0.0,2.m4v,3.0
2024-02-27 11:18:06.634636,1709029086.6346357,-37.109375,-40.52734375,-33.69140625,-17.578125,0.0,0.0,0.0,0.0,2.m4v,3.0
2024-02-27 11:18:06.642447,1709029086.642447,-39.55078125,-33.69140625,-30.2734375,-50.78125,0.0,0.0,0.0,0.0,2.m4v,3.0
2024-02-27 11:18:06.650261,1709029086.6502607,-48.828125,-33.69140625,-36.1328125,-33.203125,0.0,0.0,0.0,0.0,2.m4v,3.0
2024-02-27 11:18:06.658072,1709029086.658072,-38.57421875,-47.8515625,-49.31640625,-25.87890625,0.0,0.0,0.0,0.0,2.m4v,3.0
2024-02-27 11:18:06.665883,1709029086.6658833,-47.8515625,-25.87890625,-13.671875,-62.5,0.0,0.0,0.0,0.0,2.m4v,3.0
2024-02-27 11:18:06.673695,1709029086.6736946,-44.43359375,-42.48046875,-27.34375,-24.4140625,0.0,0.0,0.0,0.0,2.m4v,3.0
2024-02-27 11:18:06.681506,1709029086.6815057,-28.3203125,-43.9453125,-32.2265625,-50.78125,0.0,0.0,0.0,0.0,2.m4v,3.0
2024-02-27 11:18:06.689317,1709029086.689317,-34.66796875,-29.78515625,-41.015625,-41.50390625,0.0,0.0,0.0,0.0,2.m4v,3.0
2024-02-27 11:18:06.697134,1709029086.6971335,-24.90234375,-36.1328125,-50.29296875,-26.85546875,0.0,0.0,0.0,0.0,2.m4v,3.0
2024-02-27 11:18:06.704945,1709029086.7049446,-23.4375,-33.69140625,-36.62109375,-68.359375,0.0,0.0,0.0,0.0,2.m4v,3.0
2024-02-27 11:18:06.712756,1709029086.712756,-51.26953125,-27.34375,-38.0859375,-26.3671875,0.0,0.0,0.0,0.0,2.m4v,3.0
2024-02-27 11:18:06.720567,1709029086.7205672,-35.15625,-48.33984375,-43.45703125,-35.15625,0.0,0.0,0.0,0.0,2.m4v,3.0
2024-02-27 11:18:06.728379,1709029086.7283783,-62.98828125,-47.8515625,-21.484375,-46.875,0.0,0.0,0.0,0.0,2.m4v,3.0
2024-02-27 11:18:06.736190,1709029086.7361898,-52.734375,-45.41015625,-23.92578125,-25.87890625,0.0,0.0,0.0,0.0,2.m4v,3.0
2024-02-27 11:18:06.744006,1709029086.7440057,-35.64453125,-28.3203125,-34.66796875,-50.78125,0.0,0.0,0.0,0.0,2.m4v,3.0
2024-02-27 11:18:06.751817,1709029086.751817,-48.33984375,-32.71484375,-40.52734375,-34.1796875,0.0,0.0,0.0,0.0,2.m4v,3.0
2024-02-27 11:18:06.759628,1709029086.7596283,-20.99609375,-24.4140625,-32.2265625,-37.109375,0.0,0.0,0.0,0.0,2.m4v,3.0
2024-02-27 11:18:06.767439,1709029086.7674394,-32.2265625,-28.80859375,-48.828125,-44.921875,0.0,0.0,0.0,0.0,2.m4v,3.0
2024-02-27 11:18:06.775251,1709029086.775251,-26.85546875,-38.0859375,-25.87890625,-17.578125,0.0,0.0,0.0,0.0,2.m4v,3.0
2024-02-27 11:18:06.783062,1709029086.783062,-45.41015625,-42.48046875,-45.41015625,-53.7109375,0.0,0.0,0.0,0.0,2.m4v,3.0
2024-02-27 11:18:06.790877,1709029086.790877,-58.10546875,-51.26953125,-19.53125,-40.0390625,0.0,0.0,0.0,0.0,2.m4v,3.0
2024-02-27 11:18:06.798689,1709029086.798689,-42.96875,-26.85546875,-28.80859375,-10.7421875,0.0,0.0,0.0,0.0,2.m4v,3.0
2024-02-27 11:18:06.806500,1709029086.8065,-51.7578125,-31.25,-30.76171875,-39.55078125,0.0,0.0,0.0,0.0,2.m4v,3.0
2024-02-27 11:18:06.814311,1709029086.8143113,-41.50390625,-22.94921875,-41.9921875,-9.27734375,0.0,0.0,0.0,0.0,2.m4v,3.0
2024-02-27 11:18:06.822123,1709029086.8221226,-31.25,-39.55078125,-26.3671875,-56.640625,0.0,0.0,0.0,0.0,2.m4v,3.0
2024-02-27 11:18:06.829934,1709029086.8299336,-19.53125,-36.1328125,-41.50390625,-15.13671875,0.0,0.0,0.0,0.0,2.m4v,3.0
