Timestamp,Timestamp_UNIX,TP9,AF7,AF8,TP10,Valence,Arousal,Dominace,Viewed,Video,Participant
2024-02-28 11:20:40.005436,1709115640.005436,-35.64453125,-23.4375,-30.2734375,-31.73828125,1.0,1.0,0.0,0.0,2.m4v,9.0
2024-02-28 11:20:40.013248,1709115640.0132475,-33.69140625,-31.25,-53.7109375,-30.2734375,1.0,1.0,0.0,0.0,2.m4v,9.0
2024-02-28 11:20:40.021060,1709115640.0210595,-33.69140625,-46.38671875,-20.99609375,-25.390625,1.0,1.0,0.0,0.0,2.m4v,9.0
2024-02-28 11:20:40.028872,1709115640.028872,-33.69140625,-24.4140625,-17.08984375,-35.64453125,1.0,1.0,0.0,0.0,2.m4v,9.0
2024-02-28 11:20:40.036684,1709115640.0366838,-41.50390625,-28.3203125,-41.015625,-20.5078125,1.0,1.0,0.0,0.0,2.m4v,9.0
2024-02-28 11:20:40.044496,1709115640.0444956,-45.8984375,-13.671875,-34.66796875,-29.296875,1.0,1.0,0.0,0.0,2.m4v,9.0
2024-02-28 11:20:40.052307,1709115640.0523074,-39.0625,-27.83203125,-25.390625,-36.1328125,1.0,1.0,0.0,0.0,2.m4v,9.0
2024-02-28 11:20:40.060119,1709115640.0601192,-40.52734375,-36.1328125,-33.69140625,-37.109375,1.0,1.0,0.0,0.0,2.m4v,9.0
2024-02-28 11:20:40.067931,1709115640.067931,-41.9921875,-40.52734375,-26.85546875,-35.64453125,1.0,1.0,0.0,0.0,2.m4v,9.0
2024-02-28 11:20:40.075742,1709115640.075742,-30.76171875,-33.69140625,-25.87890625,-32.71484375,1.0,1.0,0.0,0.0,2.m4v,9.0
2024-02-28 11:20:40.083554,1709115640.0835538,-27.34375,-33.203125,-34.1796875,-35.15625,1.0,1.0,0.0,0.0,2.m4v,9.0
2024-02-28 11:20:40.091366,1709115640.0913656,-25.87890625,-24.90234375,-32.2265625,-33.69140625,1.0,1.0,0.0,0.0,2.m4v,9.0
2024-02-28 11:20:40.099177,1709115640.0991774,-36.62109375,-15.13671875,-49.31640625,-26.3671875,1.0,1.0,0.0,0.0,2.m4v,9.0
2024-02-28 11:20:40.106989,1709115640.1069891,-51.7578125,-42.48046875,-27.83203125,-47.8515625,1.0,1.0,0.0,0.0,2.m4v,9.0
2024-02-28 11:20:40.114801,1709115640.114801,-29.78515625,-20.5078125,-12.6953125,-31.25,1.0,1.0,0.0,0.0,2.m4v,9.0
2024-02-28 11:20:40.122616,1709115640.1226156,-36.62109375,-33.203125,-30.2734375,-39.55078125,1.0,1.0,0.0,0.0,2.m4v,9.0
2024-02-28 11:20:40.130427,1709115640.1304274,-23.92578125,-12.20703125,-28.3203125,-35.64453125,1.0,1.0,0.0,0.0,2.m4v,9.0
2024-02-28 11:20:40.138239,1709115640.1382391,-31.73828125,-27.34375,-33.69140625,-37.109375,1.0,1.0,0.0,0.0,2.m4v,9.0
2024-02-28 11:20:40.146051,1709115640.146051,-46.875,-38.57421875,-30.76171875,-36.62109375,1.0,1.0,0.0,0.0,2.m4v,9.0
2024-02-28 11:20:40.153863,1709115640.1538627,-52.734375,-29.78515625,-42.96875,-54.19921875,1.0,1.0,0.0,0.0,2.m4v,9.0
2024-02-28 11:20:40.161674,1709115640.1616745,-28.3203125,-34.66796875,-44.921875,-50.78125,1.0,1.0,0.0,0.0,2.m4v,9.0
2024-02-28 11:20:40.169489,1709115640.169489,-46.875,-34.1796875,-23.92578125,-49.8046875,1.0,1.0,0.0,0.0,2.m4v,9.0
2024-02-28 11:20:40.177301,1709115640.1773007,-29.296875,-36.1328125,-22.94921875,-35.15625,1.0,1.0,0.0,0.0,2.m4v,9.0
2024-02-28 11:20:40.185112,1709115640.1851125,-24.90234375,-30.2734375,-21.97265625,-45.8984375,1.0,1.0,0.0,0.0,2.m4v,9.0
2024-02-28 11:20:40.192924,1709115640.1929245,-33.203125,-33.69140625,-26.3671875,-42.96875,1.0,1.0,0.0,0.0,2.m4v,9.0
2024-02-28 11:20:40.200736,1709115640.200736,-23.92578125,-51.26953125,-28.80859375,-34.66796875,1.0,1.0,0.0,0.0,2.m4v,9.0
2024-02-28 11:20:40.208548,1709115640.2085478,-48.33984375,-27.83203125,-28.3203125,-32.2265625,1.0,1.0,0.0,0.0,2.m4v,9.0
2024-02-28 11:20:40.216362,1709115640.2163618,-37.59765625,-34.1796875,-29.296875,-39.0625,1.0,1.0,0.0,0.0,2.m4v,9.0
2024-02-28 11:20:40.216362,1709115640.2163618,-37.59765625,-34.1796875,-29.296875,-39.0625,1.0,1.0,0.0,0.0,2.m4v,9.0
2024-02-28 11:20:40.224174,1709115640.2241735,-43.9453125,-27.83203125,-26.3671875,-50.29296875,1.0,1.0,0.0,0.0,2.m4v,9.0
2024-02-28 11:20:40.224174,1709115640.2241735,-43.9453125,-27.83203125,-26.3671875,-50.29296875,1.0,1.0,0.0,0.0,2.m4v,9.0
2024-02-28 11:20:40.231985,1709115640.231985,-38.57421875,-32.2265625,-42.48046875,-33.203125,1.0,1.0,0.0,0.0,2.m4v,9.0
2024-02-28 11:20:40.231985,1709115640.231985,-38.57421875,-32.2265625,-42.48046875,-33.203125,1.0,1.0,0.0,0.0,2.m4v,9.0
2024-02-28 11:20:40.239797,1709115640.239797,-46.38671875,-41.015625,-24.90234375,-44.921875,1.0,1.0,0.0,0.0,2.m4v,9.0
2024-02-28 11:20:40.247609,1709115640.247609,-40.52734375,-28.80859375,-22.4609375,-37.109375,1.0,1.0,0.0,0.0,2.m4v,9.0
2024-02-28 11:20:40.255421,1709115640.2554207,-32.71484375,-33.203125,-27.83203125,-27.34375,1.0,1.0,0.0,0.0,2.m4v,9.0
2024-02-28 11:20:40.263234,1709115640.263234,-39.55078125,-48.33984375,-31.73828125,-41.9921875,1.0,1.0,0.0,0.0,2.m4v,9.0
2024-02-28 11:20:40.271046,1709115640.2710457,-47.36328125,-53.22265625,-42.48046875,-39.55078125,1.0,1.0,0.0,0.0,2.m4v,9.0
2024-02-28 11:20:40.278857,1709115640.2788577,-40.0390625,-21.97265625,-48.33984375,-43.45703125,1.0,1.0,0.0,0.0,2.m4v,9.0
2024-02-28 11:20:40.290575,1709115640.2905753,-64.94140625,-34.1796875,-48.33984375,-51.26953125,1.0,1.0,0.0,0.0,2.m4v,9.0
2024-02-28 11:20:40.302293,1709115640.3022928,-38.0859375,-40.0390625,-33.69140625,-34.1796875,1.0,1.0,0.0,0.0,2.m4v,9.0
2024-02-28 11:20:40.314012,1709115640.3140116,-37.59765625,-28.80859375,-35.64453125,-41.50390625,1.0,1.0,0.0,0.0,2.m4v,9.0
2024-02-28 11:20:40.325729,1709115640.3257291,-29.78515625,-18.5546875,-21.484375,-39.0625,1.0,1.0,0.0,0.0,2.m4v,9.0
2024-02-28 11:20:40.337447,1709115640.337447,-43.9453125,-37.109375,-22.4609375,-34.1796875,1.0,1.0,0.0,0.0,2.m4v,9.0
2024-02-28 11:20:40.349164,1709115640.3491645,-40.0390625,-31.73828125,-37.109375,-32.71484375,1.0,1.0,0.0,0.0,2.m4v,9.0
2024-02-28 11:20:40.360883,1709115640.3608828,-25.87890625,-24.4140625,-24.90234375,-35.15625,1.0,1.0,0.0,0.0,2.m4v,9.0
2024-02-28 11:20:40.372600,1709115640.3726003,-29.296875,-37.59765625,-23.92578125,-23.92578125,1.0,1.0,0.0,0.0,2.m4v,9.0
2024-02-28 11:20:40.384318,1709115640.384318,-39.0625,-22.4609375,-29.296875,-33.69140625,1.0,1.0,0.0,0.0,2.m4v,9.0
2024-02-28 11:20:40.396036,1709115640.3960357,-32.71484375,-19.04296875,-27.83203125,-34.1796875,1.0,1.0,0.0,0.0,2.m4v,9.0
2024-02-28 11:20:40.407754,1709115640.4077537,-39.55078125,-35.15625,-36.1328125,-36.62109375,1.0,1.0,0.0,0.0,2.m4v,9.0
2024-02-28 11:20:40.419471,1709115640.4194713,-47.36328125,-55.17578125,-25.87890625,-39.0625,1.0,1.0,0.0,0.0,2.m4v,9.0
2024-02-28 11:20:40.431189,1709115640.431189,-48.33984375,-29.78515625,-40.52734375,-43.9453125,1.0,1.0,0.0,0.0,2.m4v,9.0
2024-02-28 11:20:40.681177,1709115640.681177,-35.15625,-37.109375,-39.0625,-28.80859375,1.0,1.0,0.0,0.0,2.m4v,9.0
2024-02-28 11:20:40.685083,1709115640.685083,-36.62109375,-31.25,-42.96875,-33.69140625,1.0,1.0,0.0,0.0,2.m4v,9.0
2024-02-28 11:20:40.688988,1709115640.6889884,-41.9921875,-18.06640625,-32.2265625,-36.1328125,1.0,1.0,0.0,0.0,2.m4v,9.0
2024-02-28 11:20:40.692894,1709115640.6928945,-21.484375,-21.484375,-21.484375,-41.9921875,1.0,1.0,0.0,0.0,2.m4v,9.0
2024-02-28 11:20:40.696800,1709115640.6968002,-25.87890625,-40.52734375,-20.99609375,-35.15625,1.0,1.0,0.0,0.0,2.m4v,9.0
2024-02-28 11:20:40.700706,1709115640.7007062,-41.50390625,-34.66796875,-19.04296875,-34.1796875,1.0,1.0,0.0,0.0,2.m4v,9.0
2024-02-28 11:20:40.704612,1709115640.704612,-40.0390625,-28.80859375,-22.94921875,-42.96875,1.0,1.0,0.0,0.0,2.m4v,9.0
2024-02-28 11:20:40.708518,1709115640.708518,-46.38671875,-24.90234375,-33.203125,-40.0390625,1.0,1.0,0.0,0.0,2.m4v,9.0
2024-02-28 11:20:40.712424,1709115640.7124238,-41.50390625,-7.32421875,-41.015625,-34.66796875,1.0,1.0,0.0,0.0,2.m4v,9.0
2024-02-28 11:20:40.716330,1709115640.7163298,-32.71484375,-5.859375,-43.45703125,-37.109375,1.0,1.0,0.0,0.0,2.m4v,9.0
2024-02-28 11:20:40.720236,1709115640.7202356,-34.66796875,-16.11328125,-36.1328125,-39.0625,1.0,1.0,0.0,0.0,2.m4v,9.0
2024-02-28 11:20:40.724142,1709115640.7241416,-37.59765625,-26.85546875,-31.25,-39.0625,1.0,1.0,0.0,0.0,2.m4v,9.0
2024-02-28 11:20:40.728048,1709115640.7280478,-28.80859375,-22.94921875,-36.1328125,-35.64453125,1.0,1.0,0.0,0.0,2.m4v,9.0
2024-02-28 11:20:40.731954,1709115640.7319536,-27.83203125,-27.34375,-35.64453125,-34.1796875,1.0,1.0,0.0,0.0,2.m4v,9.0
2024-02-28 11:20:40.735860,1709115640.7358596,-29.78515625,-42.96875,-30.76171875,-37.109375,1.0,1.0,0.0,0.0,2.m4v,9.0
2024-02-28 11:20:40.739765,1709115640.7397654,-27.34375,-44.921875,-24.4140625,-35.64453125,1.0,1.0,0.0,0.0,2.m4v,9.0
2024-02-28 11:20:40.743671,1709115640.7436714,-36.62109375,-44.921875,-29.78515625,-35.64453125,1.0,1.0,0.0,0.0,2.m4v,9.0
2024-02-28 11:20:40.747577,1709115640.7475772,-34.66796875,-17.578125,-33.203125,-33.69140625,1.0,1.0,0.0,0.0,2.m4v,9.0
2024-02-28 11:20:40.751483,1709115640.7514832,-22.4609375,-5.37109375,-27.34375,-25.390625,1.0,1.0,0.0,0.0,2.m4v,9.0
2024-02-28 11:20:40.755389,1709115640.755389,-48.33984375,-36.62109375,-37.109375,-39.0625,1.0,1.0,0.0,0.0,2.m4v,9.0
2024-02-28 11:20:40.759295,1709115640.759295,-56.15234375,-43.9453125,-39.0625,-49.8046875,1.0,1.0,0.0,0.0,2.m4v,9.0
2024-02-28 11:20:40.763201,1709115640.7632008,-19.04296875,-37.59765625,-20.99609375,-38.0859375,1.0,1.0,0.0,0.0,2.m4v,9.0
2024-02-28 11:20:40.767107,1709115640.7671068,-41.015625,-30.76171875,-20.5078125,-29.296875,1.0,1.0,0.0,0.0,2.m4v,9.0
2024-02-28 11:20:40.771013,1709115640.7710123,-64.453125,-26.3671875,-30.2734375,-36.62109375,1.0,1.0,0.0,0.0,2.m4v,9.0
2024-02-28 11:20:40.774919,1709115640.7749186,-43.45703125,-30.76171875,-29.78515625,-40.0390625,1.0,1.0,0.0,0.0,2.m4v,9.0
2024-02-28 11:20:40.778824,1709115640.7788243,-41.015625,-31.25,-34.66796875,-43.45703125,1.0,1.0,0.0,0.0,2.m4v,9.0
2024-02-28 11:20:40.782730,1709115640.7827303,-39.0625,-23.92578125,-32.71484375,-45.41015625,1.0,1.0,0.0,0.0,2.m4v,9.0
2024-02-28 11:20:40.786636,1709115640.786636,-32.71484375,-28.3203125,-40.52734375,-40.0390625,1.0,1.0,0.0,0.0,2.m4v,9.0
2024-02-28 11:20:40.790542,1709115640.790542,-24.90234375,-44.43359375,-47.8515625,-44.43359375,1.0,1.0,0.0,0.0,2.m4v,9.0
2024-02-28 11:20:40.794448,1709115640.794448,-11.71875,-36.1328125,-25.390625,-40.52734375,1.0,1.0,0.0,0.0,2.m4v,9.0
2024-02-28 11:20:40.798354,1709115640.798354,-21.97265625,-40.0390625,-24.90234375,-37.109375,1.0,1.0,0.0,0.0,2.m4v,9.0
2024-02-28 11:20:40.802260,1709115640.8022597,-35.15625,-46.875,-31.25,-38.0859375,1.0,1.0,0.0,0.0,2.m4v,9.0
2024-02-28 11:20:40.806166,1709115640.8061657,-29.78515625,-39.55078125,-18.06640625,-34.66796875,1.0,1.0,0.0,0.0,2.m4v,9.0
2024-02-28 11:20:40.810071,1709115640.8100717,-33.69140625,-41.015625,-25.87890625,-35.64453125,1.0,1.0,0.0,0.0,2.m4v,9.0
2024-02-28 11:20:40.813977,1709115640.8139777,-27.83203125,-30.76171875,-29.78515625,-36.1328125,1.0,1.0,0.0,0.0,2.m4v,9.0
2024-02-28 11:20:40.817883,1709115640.8178833,-24.90234375,-28.3203125,-34.1796875,-38.57421875,1.0,1.0,0.0,0.0,2.m4v,9.0
2024-02-28 11:20:40.821793,1709115640.8217926,-28.80859375,-34.1796875,-46.875,-43.9453125,1.0,1.0,0.0,0.0,2.m4v,9.0
2024-02-28 11:20:40.825699,1709115640.8256986,-22.94921875,-25.390625,-32.2265625,-29.78515625,1.0,1.0,0.0,0.0,2.m4v,9.0
2024-02-28 11:20:40.829604,1709115640.8296044,-32.2265625,-27.34375,-24.4140625,-31.25,1.0,1.0,0.0,0.0,2.m4v,9.0
2024-02-28 11:20:40.833510,1709115640.8335104,-35.64453125,-35.15625,-34.66796875,-39.0625,1.0,1.0,0.0,0.0,2.m4v,9.0
2024-02-28 11:20:40.837416,1709115640.8374162,-26.3671875,-41.9921875,-41.9921875,-35.64453125,1.0,1.0,0.0,0.0,2.m4v,9.0
2024-02-28 11:20:40.841322,1709115640.8413222,-21.484375,-38.57421875,-37.109375,-38.57421875,1.0,1.0,0.0,0.0,2.m4v,9.0
2024-02-28 11:20:40.845228,1709115640.845228,-26.85546875,-27.83203125,-25.87890625,-37.59765625,1.0,1.0,0.0,0.0,2.m4v,9.0
2024-02-28 11:20:40.849134,1709115640.849134,-35.64453125,-14.6484375,-26.3671875,-40.0390625,1.0,1.0,0.0,0.0,2.m4v,9.0
2024-02-28 11:20:40.853040,1709115640.8530395,-8.7890625,-5.859375,-33.69140625,-41.50390625,1.0,1.0,0.0,0.0,2.m4v,9.0
2024-02-28 11:20:40.856946,1709115640.8569458,0.9765625,-21.97265625,-27.34375,-34.1796875,1.0,1.0,0.0,0.0,2.m4v,9.0
2024-02-28 11:20:40.860852,1709115640.8608515,-30.2734375,-41.015625,-25.87890625,-19.53125,1.0,1.0,0.0,0.0,2.m4v,9.0
2024-02-28 11:20:40.864758,1709115640.8647575,-38.57421875,-44.43359375,-35.64453125,-23.92578125,1.0,1.0,0.0,0.0,2.m4v,9.0
2024-02-28 11:20:40.868663,1709115640.8686628,-36.1328125,-28.80859375,-29.78515625,-33.203125,1.0,1.0,0.0,0.0,2.m4v,9.0
2024-02-28 11:20:40.872569,1709115640.8725688,-28.3203125,-32.71484375,-25.390625,-21.97265625,1.0,1.0,0.0,0.0,2.m4v,9.0
2024-02-28 11:20:40.876475,1709115640.8764746,-31.25,-42.48046875,-29.296875,-25.87890625,1.0,1.0,0.0,0.0,2.m4v,9.0
2024-02-28 11:20:40.880381,1709115640.8803806,-27.34375,-25.390625,-21.484375,-32.71484375,1.0,1.0,0.0,0.0,2.m4v,9.0
2024-02-28 11:20:40.884286,1709115640.8842864,-26.85546875,-15.13671875,-24.4140625,-30.2734375,1.0,1.0,0.0,0.0,2.m4v,9.0
2024-02-28 11:20:40.888192,1709115640.8881924,-30.2734375,-22.4609375,-45.8984375,-33.69140625,1.0,1.0,0.0,0.0,2.m4v,9.0
2024-02-28 11:20:40.892098,1709115640.8920982,-14.16015625,-36.1328125,-48.828125,-34.1796875,1.0,1.0,0.0,0.0,2.m4v,9.0
2024-02-28 11:20:40.896004,1709115640.8960042,-15.13671875,-31.25,-28.3203125,-30.2734375,1.0,1.0,0.0,0.0,2.m4v,9.0
2024-02-28 11:20:40.899910,1709115640.89991,-15.13671875,-30.2734375,-19.53125,-31.25,1.0,1.0,0.0,0.0,2.m4v,9.0
2024-02-28 11:20:40.903816,1709115640.903816,-27.34375,-35.64453125,-23.4375,-32.71484375,1.0,1.0,0.0,0.0,2.m4v,9.0
2024-02-28 11:20:40.907722,1709115640.9077218,-43.45703125,-32.71484375,-22.94921875,-29.296875,1.0,1.0,0.0,0.0,2.m4v,9.0
2024-02-28 11:20:40.911628,1709115640.9116278,-33.203125,-36.62109375,-23.92578125,-30.2734375,1.0,1.0,0.0,0.0,2.m4v,9.0
2024-02-28 11:20:40.915536,1709115640.9155362,-28.80859375,-31.25,-32.2265625,-37.59765625,1.0,1.0,0.0,0.0,2.m4v,9.0
2024-02-28 11:20:40.919442,1709115640.919442,-23.4375,-31.25,-41.50390625,-34.66796875,1.0,1.0,0.0,0.0,2.m4v,9.0
2024-02-28 11:20:40.923348,1709115640.923348,-14.6484375,-43.45703125,-46.38671875,-22.4609375,1.0,1.0,0.0,0.0,2.m4v,9.0
2024-02-28 11:20:40.927254,1709115640.9272535,-24.90234375,-35.64453125,-36.1328125,-26.3671875,1.0,1.0,0.0,0.0,2.m4v,9.0
2024-02-28 11:20:40.931160,1709115640.9311595,-35.64453125,-33.203125,-30.76171875,-21.97265625,1.0,1.0,0.0,0.0,2.m4v,9.0
2024-02-28 11:20:40.935066,1709115640.9350655,-30.2734375,-47.8515625,-39.0625,-28.3203125,1.0,1.0,0.0,0.0,2.m4v,9.0
2024-02-28 11:20:40.938972,1709115640.9389715,-26.3671875,-57.12890625,-41.9921875,-35.15625,1.0,1.0,0.0,0.0,2.m4v,9.0
2024-02-28 11:20:40.942877,1709115640.9428773,-25.390625,-47.36328125,-38.57421875,-29.78515625,1.0,1.0,0.0,0.0,2.m4v,9.0
2024-02-28 11:20:40.946783,1709115640.9467833,-32.2265625,-27.83203125,-37.59765625,-31.73828125,1.0,1.0,0.0,0.0,2.m4v,9.0
2024-02-28 11:20:40.950689,1709115640.950689,-29.296875,-25.87890625,-29.296875,-36.1328125,1.0,1.0,0.0,0.0,2.m4v,9.0
2024-02-28 11:20:40.954595,1709115640.954595,-24.90234375,-21.97265625,-36.1328125,-42.48046875,1.0,1.0,0.0,0.0,2.m4v,9.0
2024-02-28 11:20:40.958501,1709115640.9585009,-36.1328125,-20.01953125,-44.43359375,-41.015625,1.0,1.0,0.0,0.0,2.m4v,9.0
2024-02-28 11:20:40.962409,1709115640.9624088,-39.0625,-34.1796875,-39.55078125,-38.57421875,1.0,1.0,0.0,0.0,2.m4v,9.0
2024-02-28 11:20:40.966315,1709115640.9663148,-40.0390625,-53.7109375,-32.2265625,-37.109375,1.0,1.0,0.0,0.0,2.m4v,9.0
2024-02-28 11:20:40.970221,1709115640.9702206,-40.52734375,-57.6171875,-28.80859375,-36.62109375,1.0,1.0,0.0,0.0,2.m4v,9.0
2024-02-28 11:20:40.974127,1709115640.9741266,-38.0859375,-32.71484375,-31.73828125,-29.296875,1.0,1.0,0.0,0.0,2.m4v,9.0
2024-02-28 11:20:40.978032,1709115640.9780324,-18.06640625,-6.8359375,-34.1796875,-17.08984375,1.0,1.0,0.0,0.0,2.m4v,9.0
2024-02-28 11:20:40.981938,1709115640.9819384,-21.484375,-6.34765625,-29.78515625,-22.94921875,1.0,1.0,0.0,0.0,2.m4v,9.0
2024-02-28 11:20:40.985844,1709115640.985844,-42.48046875,-16.11328125,-29.296875,-36.62109375,1.0,1.0,0.0,0.0,2.m4v,9.0
2024-02-28 11:20:40.989750,1709115640.98975,-48.33984375,-22.4609375,-40.52734375,-39.55078125,1.0,1.0,0.0,0.0,2.m4v,9.0
2024-02-28 11:20:40.993656,1709115640.993656,-42.48046875,-39.55078125,-37.109375,-31.73828125,1.0,1.0,0.0,0.0,2.m4v,9.0
2024-02-28 11:20:40.997562,1709115640.997562,-28.3203125,-30.76171875,-31.25,-23.92578125,1.0,1.0,0.0,0.0,2.m4v,9.0
2024-02-28 11:20:41.001468,1709115641.0014677,-28.80859375,-26.3671875,-35.64453125,-25.87890625,1.0,1.0,0.0,0.0,2.m4v,9.0
2024-02-28 11:20:41.005374,1709115641.0053737,-36.62109375,-43.9453125,-29.78515625,-26.85546875,1.0,1.0,0.0,0.0,2.m4v,9.0
2024-02-28 11:20:41.009281,1709115641.0092814,-30.76171875,-32.71484375,-20.5078125,-19.53125,1.0,1.0,0.0,0.0,2.m4v,9.0
2024-02-28 11:20:41.013187,1709115641.0131872,-27.83203125,-15.13671875,-28.3203125,-13.671875,1.0,1.0,0.0,0.0,2.m4v,9.0
2024-02-28 11:20:41.017093,1709115641.0170932,-32.71484375,-14.6484375,-32.71484375,-16.6015625,1.0,1.0,0.0,0.0,2.m4v,9.0
2024-02-28 11:20:41.020999,1709115641.020999,-19.04296875,-21.484375,-22.94921875,-22.4609375,1.0,1.0,0.0,0.0,2.m4v,9.0
2024-02-28 11:20:41.024905,1709115641.024905,-35.15625,-18.5546875,-17.08984375,-29.78515625,1.0,1.0,0.0,0.0,2.m4v,9.0
2024-02-28 11:20:41.024905,1709115641.024905,-35.15625,-18.5546875,-17.08984375,-29.78515625,1.0,1.0,0.0,0.0,2.m4v,9.0
2024-02-28 11:20:41.028811,1709115641.0288107,-45.8984375,-22.4609375,-20.5078125,-29.296875,1.0,1.0,0.0,0.0,2.m4v,9.0
2024-02-28 11:20:41.028811,1709115641.0288107,-45.8984375,-22.4609375,-20.5078125,-29.296875,1.0,1.0,0.0,0.0,2.m4v,9.0
2024-02-28 11:20:41.032717,1709115641.0327168,-31.25,-32.71484375,-22.4609375,-28.3203125,1.0,1.0,0.0,0.0,2.m4v,9.0
2024-02-28 11:20:41.032717,1709115641.0327168,-31.25,-32.71484375,-22.4609375,-28.3203125,1.0,1.0,0.0,0.0,2.m4v,9.0
2024-02-28 11:20:41.036623,1709115641.0366223,-28.80859375,-27.34375,-25.390625,-40.52734375,1.0,1.0,0.0,0.0,2.m4v,9.0
2024-02-28 11:20:41.036623,1709115641.0366223,-28.80859375,-27.34375,-25.390625,-40.52734375,1.0,1.0,0.0,0.0,2.m4v,9.0
2024-02-28 11:20:41.040529,1709115641.0405283,-31.73828125,-8.7890625,-41.50390625,-44.43359375,1.0,1.0,0.0,0.0,2.m4v,9.0
2024-02-28 11:20:41.040529,1709115641.0405283,-31.73828125,-8.7890625,-41.50390625,-44.43359375,1.0,1.0,0.0,0.0,2.m4v,9.0
2024-02-28 11:20:41.044434,1709115641.0444343,-29.78515625,-7.32421875,-44.921875,-43.9453125,1.0,1.0,0.0,0.0,2.m4v,9.0
2024-02-28 11:20:41.044434,1709115641.0444343,-29.78515625,-7.32421875,-44.921875,-43.9453125,1.0,1.0,0.0,0.0,2.m4v,9.0
2024-02-28 11:20:41.048340,1709115641.0483403,-40.0390625,-32.2265625,-34.1796875,-39.0625,1.0,1.0,0.0,0.0,2.m4v,9.0
2024-02-28 11:20:41.048340,1709115641.0483403,-40.0390625,-32.2265625,-34.1796875,-39.0625,1.0,1.0,0.0,0.0,2.m4v,9.0
2024-02-28 11:20:41.052246,1709115641.052246,-50.29296875,-42.48046875,-30.76171875,-32.2265625,1.0,1.0,0.0,0.0,2.m4v,9.0
2024-02-28 11:20:41.052246,1709115641.052246,-50.29296875,-42.48046875,-30.76171875,-32.2265625,1.0,1.0,0.0,0.0,2.m4v,9.0
2024-02-28 11:20:41.056153,1709115641.0561533,-34.66796875,-29.78515625,-38.0859375,-30.76171875,1.0,1.0,0.0,0.0,2.m4v,9.0
2024-02-28 11:20:41.056153,1709115641.0561533,-34.66796875,-29.78515625,-38.0859375,-30.76171875,1.0,1.0,0.0,0.0,2.m4v,9.0
2024-02-28 11:20:41.060059,1709115641.0600593,-38.0859375,-23.92578125,-41.9921875,-41.015625,1.0,1.0,0.0,0.0,2.m4v,9.0
2024-02-28 11:20:41.060059,1709115641.0600593,-38.0859375,-23.92578125,-41.9921875,-41.015625,1.0,1.0,0.0,0.0,2.m4v,9.0
2024-02-28 11:20:41.063965,1709115641.063965,-48.828125,-27.34375,-31.73828125,-40.52734375,1.0,1.0,0.0,0.0,2.m4v,9.0
2024-02-28 11:20:41.063965,1709115641.063965,-48.828125,-27.34375,-31.73828125,-40.52734375,1.0,1.0,0.0,0.0,2.m4v,9.0
2024-02-28 11:20:41.067871,1709115641.067871,-45.41015625,-38.57421875,-19.53125,-37.109375,1.0,1.0,0.0,0.0,2.m4v,9.0
2024-02-28 11:20:41.067871,1709115641.067871,-45.41015625,-38.57421875,-19.53125,-37.109375,1.0,1.0,0.0,0.0,2.m4v,9.0
2024-02-28 11:20:41.071777,1709115641.0717769,-34.66796875,-35.15625,-21.484375,-40.52734375,1.0,1.0,0.0,0.0,2.m4v,9.0
2024-02-28 11:20:41.071777,1709115641.0717769,-34.66796875,-35.15625,-21.484375,-40.52734375,1.0,1.0,0.0,0.0,2.m4v,9.0
2024-02-28 11:20:41.075683,1709115641.0756829,-20.5078125,-29.78515625,-30.76171875,-43.45703125,1.0,1.0,0.0,0.0,2.m4v,9.0
2024-02-28 11:20:41.075683,1709115641.0756829,-20.5078125,-29.78515625,-30.76171875,-43.45703125,1.0,1.0,0.0,0.0,2.m4v,9.0
2024-02-28 11:20:41.079589,1709115641.079589,-35.15625,-35.15625,-37.109375,-57.6171875,1.0,1.0,0.0,0.0,2.m4v,9.0
2024-02-28 11:20:41.079589,1709115641.079589,-35.15625,-35.15625,-37.109375,-57.6171875,1.0,1.0,0.0,0.0,2.m4v,9.0
2024-02-28 11:20:41.083495,1709115641.083495,-60.05859375,-23.92578125,-33.203125,-56.15234375,1.0,1.0,0.0,0.0,2.m4v,9.0
2024-02-28 11:20:41.083495,1709115641.083495,-60.05859375,-23.92578125,-33.203125,-56.15234375,1.0,1.0,0.0,0.0,2.m4v,9.0
2024-02-28 11:20:41.087400,1709115641.0874004,-50.78125,-13.18359375,-22.4609375,-45.8984375,1.0,1.0,0.0,0.0,2.m4v,9.0
2024-02-28 11:20:41.087400,1709115641.0874004,-50.78125,-13.18359375,-22.4609375,-45.8984375,1.0,1.0,0.0,0.0,2.m4v,9.0
2024-02-28 11:20:41.091306,1709115641.0913064,-41.015625,-11.71875,-26.85546875,-31.25,1.0,1.0,0.0,0.0,2.m4v,9.0
2024-02-28 11:20:41.091306,1709115641.0913064,-41.015625,-11.71875,-26.85546875,-31.25,1.0,1.0,0.0,0.0,2.m4v,9.0
2024-02-28 11:20:41.095212,1709115641.0952122,-47.8515625,-10.25390625,-29.296875,-26.85546875,1.0,1.0,0.0,0.0,2.m4v,9.0
2024-02-28 11:20:41.095212,1709115641.0952122,-47.8515625,-10.25390625,-29.296875,-26.85546875,1.0,1.0,0.0,0.0,2.m4v,9.0
2024-02-28 11:20:41.099118,1709115641.0991182,-30.2734375,-24.90234375,-22.4609375,-37.59765625,1.0,1.0,0.0,0.0,2.m4v,9.0
2024-02-28 11:20:41.099118,1709115641.0991182,-30.2734375,-24.90234375,-22.4609375,-37.59765625,1.0,1.0,0.0,0.0,2.m4v,9.0
2024-02-28 11:20:41.103025,1709115641.1030254,-22.4609375,-34.1796875,-24.90234375,-37.109375,1.0,1.0,0.0,0.0,2.m4v,9.0
2024-02-28 11:20:41.103025,1709115641.1030254,-22.4609375,-34.1796875,-24.90234375,-37.109375,1.0,1.0,0.0,0.0,2.m4v,9.0
2024-02-28 11:20:41.106931,1709115641.1069314,-42.96875,-20.5078125,-19.04296875,-33.69140625,1.0,1.0,0.0,0.0,2.m4v,9.0
2024-02-28 11:20:41.106931,1709115641.1069314,-42.96875,-20.5078125,-19.04296875,-33.69140625,1.0,1.0,0.0,0.0,2.m4v,9.0
2024-02-28 11:20:41.110837,1709115641.1108372,-32.71484375,-17.578125,-29.78515625,-27.34375,1.0,1.0,0.0,0.0,2.m4v,9.0
2024-02-28 11:20:41.110837,1709115641.1108372,-32.71484375,-17.578125,-29.78515625,-27.34375,1.0,1.0,0.0,0.0,2.m4v,9.0
2024-02-28 11:20:41.114743,1709115641.1147432,-31.73828125,-20.01953125,-38.57421875,-30.76171875,1.0,1.0,0.0,0.0,2.m4v,9.0
2024-02-28 11:20:41.114743,1709115641.1147432,-31.73828125,-20.01953125,-38.57421875,-30.76171875,1.0,1.0,0.0,0.0,2.m4v,9.0
2024-02-28 11:20:41.118649,1709115641.118649,-37.59765625,-20.5078125,-25.390625,-28.80859375,1.0,1.0,0.0,0.0,2.m4v,9.0
2024-02-28 11:20:41.118649,1709115641.118649,-37.59765625,-20.5078125,-25.390625,-28.80859375,1.0,1.0,0.0,0.0,2.m4v,9.0
2024-02-28 11:20:41.122555,1709115641.122555,-34.1796875,-24.4140625,-27.34375,-25.87890625,1.0,1.0,0.0,0.0,2.m4v,9.0
2024-02-28 11:20:41.122555,1709115641.122555,-34.1796875,-24.4140625,-27.34375,-25.87890625,1.0,1.0,0.0,0.0,2.m4v,9.0
2024-02-28 11:20:41.126461,1709115641.1264608,-35.64453125,-28.3203125,-38.0859375,-31.73828125,1.0,1.0,0.0,0.0,2.m4v,9.0
2024-02-28 11:20:41.126461,1709115641.1264608,-35.64453125,-28.3203125,-38.0859375,-31.73828125,1.0,1.0,0.0,0.0,2.m4v,9.0
2024-02-28 11:20:41.712364,1709115641.7123642,-28.80859375,-31.25,-28.3203125,-23.92578125,1.0,1.0,0.0,0.0,2.m4v,9.0
2024-02-28 11:20:41.716270,1709115641.71627,-39.0625,-38.57421875,-41.9921875,-27.83203125,1.0,1.0,0.0,0.0,2.m4v,9.0
2024-02-28 11:20:41.720176,1709115641.720176,-38.0859375,-25.390625,-53.22265625,-44.43359375,1.0,1.0,0.0,0.0,2.m4v,9.0
2024-02-28 11:20:41.724082,1709115641.7240818,-35.64453125,-15.625,-45.41015625,-47.8515625,1.0,1.0,0.0,0.0,2.m4v,9.0
2024-02-28 11:20:41.727988,1709115641.7279878,-42.48046875,-24.4140625,-34.1796875,-40.52734375,1.0,1.0,0.0,0.0,2.m4v,9.0
2024-02-28 11:20:41.731894,1709115641.7318935,-38.0859375,-20.01953125,-33.203125,-33.203125,1.0,1.0,0.0,0.0,2.m4v,9.0
2024-02-28 11:20:41.735800,1709115641.7357996,-28.3203125,-26.3671875,-36.62109375,-24.4140625,1.0,1.0,0.0,0.0,2.m4v,9.0
2024-02-28 11:20:41.739705,1709115641.739705,-25.390625,-42.96875,-31.25,-22.94921875,1.0,1.0,0.0,0.0,2.m4v,9.0
2024-02-28 11:20:41.743611,1709115641.743611,-27.83203125,-31.25,-36.62109375,-35.15625,1.0,1.0,0.0,0.0,2.m4v,9.0
2024-02-28 11:20:41.747517,1709115641.747517,-33.203125,-7.8125,-43.45703125,-33.69140625,1.0,1.0,0.0,0.0,2.m4v,9.0
2024-02-28 11:20:41.751423,1709115641.7514231,-30.2734375,-7.32421875,-44.43359375,-25.390625,1.0,1.0,0.0,0.0,2.m4v,9.0
2024-02-28 11:20:41.755329,1709115641.755329,-28.80859375,-22.4609375,-39.55078125,-32.2265625,1.0,1.0,0.0,0.0,2.m4v,9.0
2024-02-28 11:20:41.759236,1709115641.7592363,-30.2734375,-23.92578125,-31.73828125,-33.203125,1.0,1.0,0.0,0.0,2.m4v,9.0
2024-02-28 11:20:41.763142,1709115641.7631423,-38.57421875,-31.25,-35.15625,-35.64453125,1.0,1.0,0.0,0.0,2.m4v,9.0
2024-02-28 11:20:41.767048,1709115641.767048,-41.015625,-38.0859375,-37.109375,-26.3671875,1.0,1.0,0.0,0.0,2.m4v,9.0
2024-02-28 11:20:41.770954,1709115641.770954,-41.9921875,-26.85546875,-38.57421875,-27.34375,1.0,1.0,0.0,0.0,2.m4v,9.0
2024-02-28 11:20:41.774860,1709115641.77486,-47.8515625,-20.99609375,-41.9921875,-42.96875,1.0,1.0,0.0,0.0,2.m4v,9.0
2024-02-28 11:20:41.778766,1709115641.778766,-16.11328125,-14.6484375,-33.69140625,-39.55078125,1.0,1.0,0.0,0.0,2.m4v,9.0
2024-02-28 11:20:41.782672,1709115641.7826717,-12.20703125,-9.765625,-28.3203125,-39.55078125,1.0,1.0,0.0,0.0,2.m4v,9.0
2024-02-28 11:20:41.786578,1709115641.7865777,-53.7109375,-25.390625,-25.87890625,-35.64453125,1.0,1.0,0.0,0.0,2.m4v,9.0
2024-02-28 11:20:41.790483,1709115641.7904837,-32.2265625,-45.41015625,-26.3671875,-27.83203125,1.0,1.0,0.0,0.0,2.m4v,9.0
2024-02-28 11:20:41.794389,1709115641.7943895,-26.85546875,-40.0390625,-33.203125,-31.73828125,1.0,1.0,0.0,0.0,2.m4v,9.0
2024-02-28 11:20:41.798295,1709115641.7982953,-49.8046875,-30.2734375,-36.1328125,-40.0390625,1.0,1.0,0.0,0.0,2.m4v,9.0
2024-02-28 11:20:41.802201,1709115641.8022013,-48.828125,-34.66796875,-39.55078125,-35.15625,1.0,1.0,0.0,0.0,2.m4v,9.0
2024-02-28 11:20:41.806108,1709115641.8061082,-49.8046875,-38.57421875,-42.96875,-34.66796875,1.0,1.0,0.0,0.0,2.m4v,9.0
2024-02-28 11:20:41.810014,1709115641.8100142,-53.22265625,-29.296875,-47.8515625,-30.76171875,1.0,1.0,0.0,0.0,2.m4v,9.0
2024-02-28 11:20:41.813920,1709115641.81392,-47.36328125,-23.4375,-51.7578125,-23.4375,1.0,1.0,0.0,0.0,2.m4v,9.0
2024-02-28 11:20:41.817826,1709115641.817826,-55.6640625,-36.62109375,-42.96875,-36.62109375,1.0,1.0,0.0,0.0,2.m4v,9.0
2024-02-28 11:20:41.821732,1709115641.8217318,-36.1328125,-35.15625,-22.94921875,-40.52734375,1.0,1.0,0.0,0.0,2.m4v,9.0
2024-02-28 11:20:41.825638,1709115641.8256378,-18.5546875,-22.94921875,-15.625,-36.62109375,1.0,1.0,0.0,0.0,2.m4v,9.0
2024-02-28 11:20:41.829544,1709115641.8295436,-38.57421875,-21.97265625,-18.5546875,-35.64453125,1.0,1.0,0.0,0.0,2.m4v,9.0
2024-02-28 11:20:41.833450,1709115641.8334496,-45.41015625,-21.484375,-26.3671875,-31.73828125,1.0,1.0,0.0,0.0,2.m4v,9.0
2024-02-28 11:20:41.837355,1709115641.8373554,-39.55078125,-27.83203125,-39.0625,-29.78515625,1.0,1.0,0.0,0.0,2.m4v,9.0
2024-02-28 11:20:41.841261,1709115641.8412614,-23.4375,-29.296875,-32.71484375,-36.1328125,1.0,1.0,0.0,0.0,2.m4v,9.0
2024-02-28 11:20:41.845167,1709115641.8451672,-32.71484375,-38.0859375,-40.0390625,-46.875,1.0,1.0,0.0,0.0,2.m4v,9.0
2024-02-28 11:20:41.849073,1709115641.8490732,-41.50390625,-34.1796875,-44.43359375,-43.9453125,1.0,1.0,0.0,0.0,2.m4v,9.0
2024-02-28 11:20:41.852980,1709115641.85298,-36.1328125,-22.4609375,-31.25,-42.48046875,1.0,1.0,0.0,0.0,2.m4v,9.0
2024-02-28 11:20:41.856886,1709115641.8568857,-43.45703125,-26.85546875,-36.1328125,-40.52734375,1.0,1.0,0.0,0.0,2.m4v,9.0
2024-02-28 11:20:41.860792,1709115641.8607917,-33.69140625,-33.69140625,-44.43359375,-48.828125,1.0,1.0,0.0,0.0,2.m4v,9.0
2024-02-28 11:20:41.864697,1709115641.8646977,-25.390625,-17.578125,-47.36328125,-49.31640625,1.0,1.0,0.0,0.0,2.m4v,9.0
2024-02-28 11:20:41.868603,1709115641.8686037,-42.48046875,-18.5546875,-38.0859375,-37.59765625,1.0,1.0,0.0,0.0,2.m4v,9.0
2024-02-28 11:20:41.872509,1709115641.8725092,-38.57421875,-38.57421875,-22.94921875,-44.43359375,1.0,1.0,0.0,0.0,2.m4v,9.0
2024-02-28 11:20:41.876415,1709115641.8764153,-30.76171875,-41.015625,-21.484375,-50.78125,1.0,1.0,0.0,0.0,2.m4v,9.0
2024-02-28 11:20:41.880321,1709115641.880321,-40.0390625,-29.296875,-28.3203125,-52.734375,1.0,1.0,0.0,0.0,2.m4v,9.0
2024-02-28 11:20:41.884227,1709115641.884227,-44.43359375,-18.5546875,-29.296875,-50.78125,1.0,1.0,0.0,0.0,2.m4v,9.0
2024-02-28 11:20:41.888133,1709115641.8881328,-35.64453125,-16.11328125,-32.71484375,-44.43359375,1.0,1.0,0.0,0.0,2.m4v,9.0
2024-02-28 11:20:41.892039,1709115641.8920388,-28.80859375,-22.4609375,-37.109375,-40.52734375,1.0,1.0,0.0,0.0,2.m4v,9.0
2024-02-28 11:20:41.895945,1709115641.8959446,-27.83203125,-31.73828125,-31.25,-33.69140625,1.0,1.0,0.0,0.0,2.m4v,9.0
2024-02-28 11:20:41.899851,1709115641.8998508,-16.11328125,-36.1328125,-27.34375,-33.69140625,1.0,1.0,0.0,0.0,2.m4v,9.0
2024-02-28 11:20:41.903757,1709115641.9037569,-22.4609375,-31.25,-34.1796875,-40.0390625,1.0,1.0,0.0,0.0,2.m4v,9.0
2024-02-28 11:20:41.907663,1709115641.9076626,-42.96875,-15.625,-43.9453125,-39.0625,1.0,1.0,0.0,0.0,2.m4v,9.0
2024-02-28 11:20:41.911569,1709115641.9115686,-39.0625,-3.41796875,-35.64453125,-35.64453125,1.0,1.0,0.0,0.0,2.m4v,9.0
2024-02-28 11:20:41.915474,1709115641.9154744,-24.4140625,-15.13671875,-34.1796875,-37.109375,1.0,1.0,0.0,0.0,2.m4v,9.0
2024-02-28 11:20:41.919380,1709115641.9193804,-41.50390625,-24.90234375,-42.96875,-33.203125,1.0,1.0,0.0,0.0,2.m4v,9.0
2024-02-28 11:20:41.923286,1709115641.9232862,-35.15625,-37.59765625,-35.15625,-39.55078125,1.0,1.0,0.0,0.0,2.m4v,9.0
2024-02-28 11:20:41.927192,1709115641.9271922,-34.1796875,-49.31640625,-29.78515625,-34.1796875,1.0,1.0,0.0,0.0,2.m4v,9.0
2024-02-28 11:20:41.931098,1709115641.931098,-50.29296875,-41.50390625,-18.06640625,-23.4375,1.0,1.0,0.0,0.0,2.m4v,9.0
2024-02-28 11:20:41.935004,1709115641.935004,-45.8984375,-41.015625,-20.5078125,-37.59765625,1.0,1.0,0.0,0.0,2.m4v,9.0
2024-02-28 11:20:41.938910,1709115641.9389098,-50.29296875,-39.0625,-34.1796875,-47.8515625,1.0,1.0,0.0,0.0,2.m4v,9.0
2024-02-28 11:20:41.942816,1709115641.9428158,-42.96875,-31.25,-32.2265625,-42.96875,1.0,1.0,0.0,0.0,2.m4v,9.0
2024-02-28 11:20:41.946722,1709115641.946722,-31.25,-18.06640625,-26.85546875,-34.66796875,1.0,1.0,0.0,0.0,2.m4v,9.0
2024-02-28 11:20:41.950628,1709115641.9506278,-27.34375,-14.16015625,-22.4609375,-31.25,1.0,1.0,0.0,0.0,2.m4v,9.0
2024-02-28 11:20:41.954534,1709115641.9545338,-32.71484375,-26.3671875,-25.87890625,-26.85546875,1.0,1.0,0.0,0.0,2.m4v,9.0
2024-02-28 11:20:41.958440,1709115641.9584396,-42.48046875,-22.4609375,-37.59765625,-33.203125,1.0,1.0,0.0,0.0,2.m4v,9.0
2024-02-28 11:20:41.962346,1709115641.9623456,-22.4609375,-20.01953125,-37.109375,-42.48046875,1.0,1.0,0.0,0.0,2.m4v,9.0
2024-02-28 11:20:41.966251,1709115641.9662514,-8.30078125,-25.390625,-29.296875,-35.64453125,1.0,1.0,0.0,0.0,2.m4v,9.0
2024-02-28 11:20:41.970157,1709115641.9701574,-35.15625,-34.66796875,-21.97265625,-27.83203125,1.0,1.0,0.0,0.0,2.m4v,9.0
2024-02-28 11:20:41.974063,1709115641.9740632,-49.8046875,-39.0625,-22.4609375,-37.109375,1.0,1.0,0.0,0.0,2.m4v,9.0
2024-02-28 11:20:41.977969,1709115641.9779692,-41.9921875,-28.3203125,-33.203125,-37.59765625,1.0,1.0,0.0,0.0,2.m4v,9.0
2024-02-28 11:20:41.981875,1709115641.981875,-40.52734375,-18.5546875,-37.109375,-37.59765625,1.0,1.0,0.0,0.0,2.m4v,9.0
2024-02-28 11:20:41.985781,1709115641.985781,-47.36328125,-32.2265625,-36.1328125,-39.55078125,1.0,1.0,0.0,0.0,2.m4v,9.0
2024-02-28 11:20:41.989687,1709115641.9896867,-41.015625,-32.2265625,-22.94921875,-35.64453125,1.0,1.0,0.0,0.0,2.m4v,9.0
2024-02-28 11:20:41.993592,1709115641.9935915,-36.62109375,-20.01953125,-22.4609375,-41.015625,1.0,1.0,0.0,0.0,2.m4v,9.0
2024-02-28 11:20:41.997498,1709115641.9974976,-38.0859375,-18.06640625,-33.203125,-41.50390625,1.0,1.0,0.0,0.0,2.m4v,9.0
2024-02-28 11:20:42.001403,1709115642.001403,-32.2265625,-27.83203125,-37.59765625,-39.0625,1.0,1.0,0.0,0.0,2.m4v,9.0
2024-02-28 11:20:42.005309,1709115642.005309,-33.203125,-33.69140625,-48.33984375,-36.1328125,1.0,1.0,0.0,0.0,2.m4v,9.0
2024-02-28 11:20:42.009215,1709115642.009215,-41.50390625,-23.4375,-37.109375,-35.64453125,1.0,1.0,0.0,0.0,2.m4v,9.0
2024-02-28 11:20:42.013121,1709115642.0131211,-42.48046875,-32.2265625,-25.390625,-35.15625,1.0,1.0,0.0,0.0,2.m4v,9.0
2024-02-28 11:20:42.017027,1709115642.017027,-46.875,-47.8515625,-28.80859375,-43.45703125,1.0,1.0,0.0,0.0,2.m4v,9.0
2024-02-28 11:20:42.020933,1709115642.020933,-38.57421875,-44.43359375,-30.2734375,-53.22265625,1.0,1.0,0.0,0.0,2.m4v,9.0
2024-02-28 11:20:42.024839,1709115642.0248387,-32.2265625,-33.203125,-44.921875,-50.29296875,1.0,1.0,0.0,0.0,2.m4v,9.0
2024-02-28 11:20:42.028745,1709115642.0287447,-46.38671875,-31.25,-41.50390625,-42.96875,1.0,1.0,0.0,0.0,2.m4v,9.0
2024-02-28 11:20:42.032650,1709115642.0326505,-57.12890625,-36.62109375,-27.34375,-41.50390625,1.0,1.0,0.0,0.0,2.m4v,9.0
2024-02-28 11:20:42.036556,1709115642.0365565,-42.48046875,-41.015625,-40.0390625,-47.8515625,1.0,1.0,0.0,0.0,2.m4v,9.0
2024-02-28 11:20:42.040465,1709115642.040465,-32.71484375,-34.1796875,-49.31640625,-44.43359375,1.0,1.0,0.0,0.0,2.m4v,9.0
2024-02-28 11:20:42.044371,1709115642.044371,-53.7109375,-39.0625,-41.50390625,-40.0390625,1.0,1.0,0.0,0.0,2.m4v,9.0
2024-02-28 11:20:42.048277,1709115642.048277,-47.8515625,-50.29296875,-30.2734375,-33.69140625,1.0,1.0,0.0,0.0,2.m4v,9.0
2024-02-28 11:20:42.052183,1709115642.052183,-43.45703125,-44.43359375,-34.66796875,-34.66796875,1.0,1.0,0.0,0.0,2.m4v,9.0
2024-02-28 11:20:42.056089,1709115642.0560887,-40.0390625,-36.1328125,-33.203125,-46.38671875,1.0,1.0,0.0,0.0,2.m4v,9.0
2024-02-28 11:20:42.059994,1709115642.0599945,-33.69140625,-25.87890625,-25.87890625,-38.57421875,1.0,1.0,0.0,0.0,2.m4v,9.0
2024-02-28 11:20:42.063900,1709115642.0639005,-37.109375,-26.85546875,-32.71484375,-39.55078125,1.0,1.0,0.0,0.0,2.m4v,9.0
2024-02-28 11:20:42.067806,1709115642.0678062,-52.24609375,-32.71484375,-40.52734375,-45.8984375,1.0,1.0,0.0,0.0,2.m4v,9.0
2024-02-28 11:20:42.071712,1709115642.0717125,-63.4765625,-40.0390625,-35.15625,-40.52734375,1.0,1.0,0.0,0.0,2.m4v,9.0
2024-02-28 11:20:42.075618,1709115642.075618,-47.8515625,-39.0625,-37.109375,-41.9921875,1.0,1.0,0.0,0.0,2.m4v,9.0
2024-02-28 11:20:42.079524,1709115642.079524,-38.0859375,-31.73828125,-37.109375,-37.109375,1.0,1.0,0.0,0.0,2.m4v,9.0
2024-02-28 11:20:42.083430,1709115642.0834298,-38.57421875,-26.3671875,-38.57421875,-42.48046875,1.0,1.0,0.0,0.0,2.m4v,9.0
2024-02-28 11:20:42.087338,1709115642.0873375,-40.52734375,-20.5078125,-54.19921875,-54.6875,1.0,1.0,0.0,0.0,2.m4v,9.0
2024-02-28 11:20:42.091244,1709115642.0912435,-28.80859375,-19.53125,-33.69140625,-42.48046875,1.0,1.0,0.0,0.0,2.m4v,9.0
2024-02-28 11:20:42.095150,1709115642.0951495,-30.2734375,-21.484375,-13.671875,-37.109375,1.0,1.0,0.0,0.0,2.m4v,9.0
2024-02-28 11:20:42.099056,1709115642.0990555,-31.73828125,-31.25,-17.08984375,-48.33984375,1.0,1.0,0.0,0.0,2.m4v,9.0
2024-02-28 11:20:42.102961,1709115642.1029613,-31.73828125,-35.15625,-19.53125,-49.8046875,1.0,1.0,0.0,0.0,2.m4v,9.0
2024-02-28 11:20:42.106867,1709115642.1068673,-37.109375,-29.78515625,-14.16015625,-43.9453125,1.0,1.0,0.0,0.0,2.m4v,9.0
2024-02-28 11:20:42.110773,1709115642.110773,-28.3203125,-29.296875,-12.6953125,-34.1796875,1.0,1.0,0.0,0.0,2.m4v,9.0
2024-02-28 11:20:42.114679,1709115642.114679,-30.2734375,-27.83203125,-25.390625,-38.0859375,1.0,1.0,0.0,0.0,2.m4v,9.0
2024-02-28 11:20:42.118585,1709115642.1185849,-31.73828125,-24.90234375,-36.1328125,-34.1796875,1.0,1.0,0.0,0.0,2.m4v,9.0
2024-02-28 11:20:42.122491,1709115642.122491,-33.203125,-31.25,-38.57421875,-38.57421875,1.0,1.0,0.0,0.0,2.m4v,9.0
2024-02-28 11:20:42.126397,1709115642.126397,-40.0390625,-23.92578125,-42.48046875,-47.8515625,1.0,1.0,0.0,0.0,2.m4v,9.0
2024-02-28 11:20:42.130303,1709115642.130303,-36.62109375,-12.6953125,-35.15625,-42.48046875,1.0,1.0,0.0,0.0,2.m4v,9.0
2024-02-28 11:20:42.134210,1709115642.1342103,-27.34375,-17.578125,-33.203125,-29.296875,1.0,1.0,0.0,0.0,2.m4v,9.0
2024-02-28 11:20:42.138116,1709115642.138116,-20.5078125,-11.23046875,-46.38671875,-19.53125,1.0,1.0,0.0,0.0,2.m4v,9.0
2024-02-28 11:20:42.142022,1709115642.142022,-16.11328125,-14.16015625,-29.78515625,-25.390625,1.0,1.0,0.0,0.0,2.m4v,9.0
2024-02-28 11:20:42.145928,1709115642.145928,-37.109375,-33.203125,-16.11328125,-32.2265625,1.0,1.0,0.0,0.0,2.m4v,9.0
2024-02-28 11:20:42.149834,1709115642.149834,-59.5703125,-39.55078125,-24.4140625,-46.38671875,1.0,1.0,0.0,0.0,2.m4v,9.0
2024-02-28 11:20:42.153740,1709115642.1537397,-59.5703125,-37.109375,-28.80859375,-56.15234375,1.0,1.0,0.0,0.0,2.m4v,9.0
2024-02-28 11:20:42.157646,1709115642.1576457,-47.36328125,-25.87890625,-30.2734375,-48.828125,1.0,1.0,0.0,0.0,2.m4v,9.0
2024-02-28 11:20:42.161551,1709115642.1615517,-43.9453125,-23.4375,-36.1328125,-41.50390625,1.0,1.0,0.0,0.0,2.m4v,9.0
2024-02-28 11:20:42.161551,1709115642.1615517,-43.9453125,-23.4375,-36.1328125,-41.50390625,1.0,1.0,0.0,0.0,2.m4v,9.0
2024-02-28 11:20:42.165457,1709115642.1654575,-41.9921875,-36.62109375,-44.43359375,-54.19921875,1.0,1.0,0.0,0.0,2.m4v,9.0
2024-02-28 11:20:42.165457,1709115642.1654575,-41.9921875,-36.62109375,-44.43359375,-54.19921875,1.0,1.0,0.0,0.0,2.m4v,9.0
2024-02-28 11:20:42.169363,1709115642.1693633,-39.0625,-28.80859375,-37.109375,-45.41015625,1.0,1.0,0.0,0.0,2.m4v,9.0
2024-02-28 11:20:42.169363,1709115642.1693633,-39.0625,-28.80859375,-37.109375,-45.41015625,1.0,1.0,0.0,0.0,2.m4v,9.0
2024-02-28 11:20:42.173269,1709115642.1732693,-47.8515625,-24.4140625,-29.296875,-31.25,1.0,1.0,0.0,0.0,2.m4v,9.0
2024-02-28 11:20:42.173269,1709115642.1732693,-47.8515625,-24.4140625,-29.296875,-31.25,1.0,1.0,0.0,0.0,2.m4v,9.0
2024-02-28 11:20:42.177175,1709115642.177175,-45.41015625,-43.9453125,-31.73828125,-35.64453125,1.0,1.0,0.0,0.0,2.m4v,9.0
2024-02-28 11:20:42.177175,1709115642.177175,-45.41015625,-43.9453125,-31.73828125,-35.64453125,1.0,1.0,0.0,0.0,2.m4v,9.0
2024-02-28 11:20:42.181082,1709115642.181082,-43.45703125,-57.6171875,-30.2734375,-33.69140625,1.0,1.0,0.0,0.0,2.m4v,9.0
2024-02-28 11:20:42.181082,1709115642.181082,-43.45703125,-57.6171875,-30.2734375,-33.69140625,1.0,1.0,0.0,0.0,2.m4v,9.0
2024-02-28 11:20:42.184988,1709115642.1849878,-42.96875,-55.6640625,-41.50390625,-41.015625,1.0,1.0,0.0,0.0,2.m4v,9.0
2024-02-28 11:20:42.184988,1709115642.1849878,-42.96875,-55.6640625,-41.50390625,-41.015625,1.0,1.0,0.0,0.0,2.m4v,9.0
2024-02-28 11:20:42.188894,1709115642.1888938,-50.78125,-35.64453125,-49.31640625,-39.0625,1.0,1.0,0.0,0.0,2.m4v,9.0
2024-02-28 11:20:42.188894,1709115642.1888938,-50.78125,-35.64453125,-49.31640625,-39.0625,1.0,1.0,0.0,0.0,2.m4v,9.0
2024-02-28 11:20:42.192800,1709115642.1927996,-39.0625,-14.6484375,-40.52734375,-33.69140625,1.0,1.0,0.0,0.0,2.m4v,9.0
2024-02-28 11:20:42.192800,1709115642.1927996,-39.0625,-14.6484375,-40.52734375,-33.69140625,1.0,1.0,0.0,0.0,2.m4v,9.0
2024-02-28 11:20:42.196706,1709115642.1967056,-31.73828125,-20.99609375,-31.25,-41.015625,1.0,1.0,0.0,0.0,2.m4v,9.0
2024-02-28 11:20:42.196706,1709115642.1967056,-31.73828125,-20.99609375,-31.25,-41.015625,1.0,1.0,0.0,0.0,2.m4v,9.0
2024-02-28 11:20:42.200611,1709115642.2006114,-39.0625,-30.76171875,-33.203125,-44.921875,1.0,1.0,0.0,0.0,2.m4v,9.0
2024-02-28 11:20:42.200611,1709115642.2006114,-39.0625,-30.76171875,-33.203125,-44.921875,1.0,1.0,0.0,0.0,2.m4v,9.0
2024-02-28 11:20:42.204517,1709115642.2045174,-44.921875,-27.83203125,-43.45703125,-45.41015625,1.0,1.0,0.0,0.0,2.m4v,9.0
2024-02-28 11:20:42.204517,1709115642.2045174,-44.921875,-27.83203125,-43.45703125,-45.41015625,1.0,1.0,0.0,0.0,2.m4v,9.0
2024-02-28 11:20:42.208423,1709115642.2084231,-48.828125,-24.4140625,-42.48046875,-43.9453125,1.0,1.0,0.0,0.0,2.m4v,9.0
2024-02-28 11:20:42.208423,1709115642.2084231,-48.828125,-24.4140625,-42.48046875,-43.9453125,1.0,1.0,0.0,0.0,2.m4v,9.0
2024-02-28 11:20:42.212329,1709115642.2123291,-40.52734375,-31.25,-32.71484375,-37.109375,1.0,1.0,0.0,0.0,2.m4v,9.0
2024-02-28 11:20:42.212329,1709115642.2123291,-40.52734375,-31.25,-32.71484375,-37.109375,1.0,1.0,0.0,0.0,2.m4v,9.0
2024-02-28 11:20:42.216235,1709115642.216235,-40.52734375,-30.76171875,-33.69140625,-42.48046875,1.0,1.0,0.0,0.0,2.m4v,9.0
2024-02-28 11:20:42.216235,1709115642.216235,-40.52734375,-30.76171875,-33.69140625,-42.48046875,1.0,1.0,0.0,0.0,2.m4v,9.0
2024-02-28 11:20:42.220141,1709115642.220141,-37.59765625,-27.34375,-48.828125,-47.8515625,1.0,1.0,0.0,0.0,2.m4v,9.0
2024-02-28 11:20:42.220141,1709115642.220141,-37.59765625,-27.34375,-48.828125,-47.8515625,1.0,1.0,0.0,0.0,2.m4v,9.0
2024-02-28 11:20:42.224047,1709115642.2240467,-43.9453125,-36.62109375,-38.0859375,-38.57421875,1.0,1.0,0.0,0.0,2.m4v,9.0
2024-02-28 11:20:42.224047,1709115642.2240467,-43.9453125,-36.62109375,-38.0859375,-38.57421875,1.0,1.0,0.0,0.0,2.m4v,9.0
2024-02-28 11:20:42.227953,1709115642.2279532,-62.5,-39.55078125,-28.80859375,-32.71484375,1.0,1.0,0.0,0.0,2.m4v,9.0
2024-02-28 11:20:42.227953,1709115642.2279532,-62.5,-39.55078125,-28.80859375,-32.71484375,1.0,1.0,0.0,0.0,2.m4v,9.0
2024-02-28 11:20:42.231859,1709115642.231859,-60.546875,-36.1328125,-30.76171875,-37.109375,1.0,1.0,0.0,0.0,2.m4v,9.0
2024-02-28 11:20:42.231859,1709115642.231859,-60.546875,-36.1328125,-30.76171875,-37.109375,1.0,1.0,0.0,0.0,2.m4v,9.0
2024-02-28 11:20:42.235765,1709115642.235765,-40.0390625,-26.85546875,-22.94921875,-32.2265625,1.0,1.0,0.0,0.0,2.m4v,9.0
2024-02-28 11:20:42.235765,1709115642.235765,-40.0390625,-26.85546875,-22.94921875,-32.2265625,1.0,1.0,0.0,0.0,2.m4v,9.0
2024-02-28 11:20:42.239671,1709115642.2396708,-30.2734375,-24.90234375,-20.5078125,-34.66796875,1.0,1.0,0.0,0.0,2.m4v,9.0
2024-02-28 11:20:42.239671,1709115642.2396708,-30.2734375,-24.90234375,-20.5078125,-34.66796875,1.0,1.0,0.0,0.0,2.m4v,9.0
2024-02-28 11:20:42.243577,1709115642.2435768,-33.69140625,-30.2734375,-31.25,-34.1796875,1.0,1.0,0.0,0.0,2.m4v,9.0
2024-02-28 11:20:42.243577,1709115642.2435768,-33.69140625,-30.2734375,-31.25,-34.1796875,1.0,1.0,0.0,0.0,2.m4v,9.0
2024-02-28 11:20:42.247483,1709115642.2474823,-20.99609375,-36.62109375,-37.109375,-27.34375,1.0,1.0,0.0,0.0,2.m4v,9.0
2024-02-28 11:20:42.247483,1709115642.2474823,-20.99609375,-36.62109375,-37.109375,-27.34375,1.0,1.0,0.0,0.0,2.m4v,9.0
2024-02-28 11:20:42.251389,1709115642.2513883,-15.625,-52.734375,-29.296875,-29.296875,1.0,1.0,0.0,0.0,2.m4v,9.0
2024-02-28 11:20:42.251389,1709115642.2513883,-15.625,-52.734375,-29.296875,-29.296875,1.0,1.0,0.0,0.0,2.m4v,9.0
2024-02-28 11:20:42.255294,1709115642.2552943,-25.390625,-41.9921875,-29.296875,-28.80859375,1.0,1.0,0.0,0.0,2.m4v,9.0
2024-02-28 11:20:42.255294,1709115642.2552943,-25.390625,-41.9921875,-29.296875,-28.80859375,1.0,1.0,0.0,0.0,2.m4v,9.0
2024-02-28 11:20:42.259200,1709115642.2592003,-37.59765625,-27.34375,-34.1796875,-41.015625,1.0,1.0,0.0,0.0,2.m4v,9.0
2024-02-28 11:20:42.259200,1709115642.2592003,-37.59765625,-27.34375,-34.1796875,-41.015625,1.0,1.0,0.0,0.0,2.m4v,9.0
2024-02-28 11:20:42.263106,1709115642.263106,-41.50390625,-37.109375,-32.2265625,-40.52734375,1.0,1.0,0.0,0.0,2.m4v,9.0
2024-02-28 11:20:42.263106,1709115642.263106,-41.50390625,-37.109375,-32.2265625,-40.52734375,1.0,1.0,0.0,0.0,2.m4v,9.0
2024-02-28 11:20:42.267012,1709115642.267012,-38.0859375,-33.69140625,-32.71484375,-29.78515625,1.0,1.0,0.0,0.0,2.m4v,9.0
2024-02-28 11:20:42.267012,1709115642.267012,-38.0859375,-33.69140625,-32.71484375,-29.78515625,1.0,1.0,0.0,0.0,2.m4v,9.0
2024-02-28 11:20:42.270918,1709115642.270918,-48.33984375,-32.2265625,-32.71484375,-35.15625,1.0,1.0,0.0,0.0,2.m4v,9.0
2024-02-28 11:20:42.270918,1709115642.270918,-48.33984375,-32.2265625,-32.71484375,-35.15625,1.0,1.0,0.0,0.0,2.m4v,9.0
2024-02-28 11:20:42.274824,1709115642.274824,-43.45703125,-21.484375,-38.57421875,-39.0625,1.0,1.0,0.0,0.0,2.m4v,9.0
2024-02-28 11:20:42.274824,1709115642.274824,-43.45703125,-21.484375,-38.57421875,-39.0625,1.0,1.0,0.0,0.0,2.m4v,9.0
2024-02-28 11:20:42.278730,1709115642.27873,-36.62109375,-11.23046875,-45.8984375,-42.96875,1.0,1.0,0.0,0.0,2.m4v,9.0
2024-02-28 11:20:42.278730,1709115642.27873,-36.62109375,-11.23046875,-45.8984375,-42.96875,1.0,1.0,0.0,0.0,2.m4v,9.0
2024-02-28 11:20:42.282636,1709115642.2826357,-41.50390625,-18.06640625,-41.50390625,-48.828125,1.0,1.0,0.0,0.0,2.m4v,9.0
2024-02-28 11:20:42.282636,1709115642.2826357,-41.50390625,-18.06640625,-41.50390625,-48.828125,1.0,1.0,0.0,0.0,2.m4v,9.0
2024-02-28 11:20:42.286542,1709115642.2865417,-44.43359375,-20.99609375,-39.55078125,-41.9921875,1.0,1.0,0.0,0.0,2.m4v,9.0
2024-02-28 11:20:42.286542,1709115642.2865417,-44.43359375,-20.99609375,-39.55078125,-41.9921875,1.0,1.0,0.0,0.0,2.m4v,9.0
2024-02-28 11:20:42.290447,1709115642.2904477,-44.921875,-33.69140625,-32.71484375,-36.1328125,1.0,1.0,0.0,0.0,2.m4v,9.0
2024-02-28 11:20:42.290447,1709115642.2904477,-44.921875,-33.69140625,-32.71484375,-36.1328125,1.0,1.0,0.0,0.0,2.m4v,9.0
2024-02-28 11:20:42.294353,1709115642.2943535,-34.66796875,-42.48046875,-30.76171875,-37.59765625,1.0,1.0,0.0,0.0,2.m4v,9.0
2024-02-28 11:20:42.294353,1709115642.2943535,-34.66796875,-42.48046875,-30.76171875,-37.59765625,1.0,1.0,0.0,0.0,2.m4v,9.0
2024-02-28 11:20:42.298259,1709115642.2982593,-24.4140625,-33.69140625,-48.828125,-37.59765625,1.0,1.0,0.0,0.0,2.m4v,9.0
2024-02-28 11:20:42.302165,1709115642.3021653,-32.2265625,-33.69140625,-69.3359375,-39.55078125,1.0,1.0,0.0,0.0,2.m4v,9.0
2024-02-28 11:20:42.306071,1709115642.306071,-33.69140625,-25.390625,-61.5234375,-39.0625,1.0,1.0,0.0,0.0,2.m4v,9.0
2024-02-28 11:20:42.309977,1709115642.309977,-15.625,-15.625,-40.0390625,-36.62109375,1.0,1.0,0.0,0.0,2.m4v,9.0
2024-02-28 11:20:42.313883,1709115642.3138828,-24.90234375,-29.78515625,-31.25,-38.57421875,1.0,1.0,0.0,0.0,2.m4v,9.0
2024-02-28 11:20:42.317789,1709115642.3177888,-44.921875,-44.43359375,-27.34375,-37.59765625,1.0,1.0,0.0,0.0,2.m4v,9.0
2024-02-28 11:20:42.321695,1709115642.3216949,-47.36328125,-37.59765625,-21.484375,-44.921875,1.0,1.0,0.0,0.0,2.m4v,9.0
2024-02-28 11:20:42.325601,1709115642.3256006,-41.50390625,-25.390625,-22.4609375,-43.9453125,1.0,1.0,0.0,0.0,2.m4v,9.0
2024-02-28 11:20:42.329507,1709115642.3295066,-32.71484375,-19.04296875,-39.55078125,-35.64453125,1.0,1.0,0.0,0.0,2.m4v,9.0
2024-02-28 11:20:42.333412,1709115642.3334124,-36.1328125,-23.92578125,-45.8984375,-38.0859375,1.0,1.0,0.0,0.0,2.m4v,9.0
2024-02-28 11:20:42.337318,1709115642.3373184,-26.3671875,-44.921875,-41.015625,-31.73828125,1.0,1.0,0.0,0.0,2.m4v,9.0
2024-02-28 11:20:42.341224,1709115642.3412242,-18.5546875,-39.0625,-45.41015625,-28.80859375,1.0,1.0,0.0,0.0,2.m4v,9.0
2024-02-28 11:20:42.345130,1709115642.3451302,-40.0390625,-35.64453125,-49.31640625,-41.9921875,1.0,1.0,0.0,0.0,2.m4v,9.0
2024-02-28 11:20:42.349036,1709115642.349036,-48.33984375,-42.96875,-29.296875,-46.38671875,1.0,1.0,0.0,0.0,2.m4v,9.0
2024-02-28 11:20:42.352942,1709115642.352942,-45.8984375,-39.55078125,-24.4140625,-41.9921875,1.0,1.0,0.0,0.0,2.m4v,9.0
2024-02-28 11:20:42.356848,1709115642.3568478,-43.9453125,-39.0625,-47.36328125,-36.62109375,1.0,1.0,0.0,0.0,2.m4v,9.0
2024-02-28 11:20:42.360754,1709115642.3607538,-39.55078125,-35.64453125,-38.0859375,-35.15625,1.0,1.0,0.0,0.0,2.m4v,9.0
2024-02-28 11:20:42.364660,1709115642.3646595,-39.55078125,-27.83203125,-29.296875,-35.64453125,1.0,1.0,0.0,0.0,2.m4v,9.0
2024-02-28 11:20:42.368565,1709115642.368565,-43.45703125,-31.25,-28.80859375,-32.71484375,1.0,1.0,0.0,0.0,2.m4v,9.0
2024-02-28 11:20:42.372471,1709115642.372471,-38.0859375,-40.0390625,-25.87890625,-35.64453125,1.0,1.0,0.0,0.0,2.m4v,9.0
2024-02-28 11:20:42.376377,1709115642.376377,-25.87890625,-34.66796875,-30.2734375,-35.64453125,1.0,1.0,0.0,0.0,2.m4v,9.0
2024-02-28 11:20:42.380283,1709115642.380283,-30.76171875,-27.34375,-35.64453125,-39.0625,1.0,1.0,0.0,0.0,2.m4v,9.0
2024-02-28 11:20:42.384189,1709115642.384189,-37.109375,-29.296875,-38.57421875,-37.59765625,1.0,1.0,0.0,0.0,2.m4v,9.0
2024-02-28 11:20:42.388095,1709115642.388095,-33.69140625,-37.59765625,-36.62109375,-31.73828125,1.0,1.0,0.0,0.0,2.m4v,9.0
2024-02-28 11:20:42.392001,1709115642.392001,-36.1328125,-40.0390625,-38.0859375,-28.3203125,1.0,1.0,0.0,0.0,2.m4v,9.0
2024-02-28 11:20:42.395907,1709115642.3959067,-42.48046875,-21.484375,-24.4140625,-24.4140625,1.0,1.0,0.0,0.0,2.m4v,9.0
2024-02-28 11:20:42.399812,1709115642.3998125,-44.921875,-22.4609375,-24.4140625,-28.80859375,1.0,1.0,0.0,0.0,2.m4v,9.0
2024-02-28 11:20:42.403718,1709115642.4037185,-45.41015625,-50.78125,-32.2265625,-28.3203125,1.0,1.0,0.0,0.0,2.m4v,9.0
2024-02-28 11:20:42.407624,1709115642.4076242,-52.24609375,-46.875,-35.15625,-25.87890625,1.0,1.0,0.0,0.0,2.m4v,9.0
2024-02-28 11:20:42.411530,1709115642.4115305,-47.8515625,-18.06640625,-31.25,-23.4375,1.0,1.0,0.0,0.0,2.m4v,9.0
2024-02-28 11:20:42.415439,1709115642.415439,-35.15625,-16.11328125,-26.3671875,-22.4609375,1.0,1.0,0.0,0.0,2.m4v,9.0
2024-02-28 11:20:42.419344,1709115642.4193444,-41.015625,-31.25,-38.0859375,-31.25,1.0,1.0,0.0,0.0,2.m4v,9.0
2024-02-28 11:20:42.423250,1709115642.4232504,-44.43359375,-40.52734375,-35.64453125,-28.80859375,1.0,1.0,0.0,0.0,2.m4v,9.0
2024-02-28 11:20:42.427156,1709115642.4271562,-38.57421875,-49.8046875,-29.296875,-22.94921875,1.0,1.0,0.0,0.0,2.m4v,9.0
2024-02-28 11:20:42.431062,1709115642.4310622,-41.50390625,-54.19921875,-35.15625,-25.87890625,1.0,1.0,0.0,0.0,2.m4v,9.0
2024-02-28 11:20:42.434968,1709115642.434968,-48.33984375,-37.59765625,-29.78515625,-32.71484375,1.0,1.0,0.0,0.0,2.m4v,9.0
2024-02-28 11:20:42.438874,1709115642.438874,-53.7109375,-30.2734375,-27.83203125,-40.0390625,1.0,1.0,0.0,0.0,2.m4v,9.0
2024-02-28 11:20:42.442780,1709115642.4427798,-54.19921875,-33.69140625,-28.3203125,-39.55078125,1.0,1.0,0.0,0.0,2.m4v,9.0
2024-02-28 11:20:42.446686,1709115642.4466858,-54.6875,-29.78515625,-38.57421875,-32.71484375,1.0,1.0,0.0,0.0,2.m4v,9.0
2024-02-28 11:20:42.450592,1709115642.4505916,-59.5703125,-34.1796875,-46.875,-30.2734375,1.0,1.0,0.0,0.0,2.m4v,9.0
2024-02-28 11:20:42.454498,1709115642.4544976,-47.36328125,-36.1328125,-37.59765625,-28.80859375,1.0,1.0,0.0,0.0,2.m4v,9.0
2024-02-28 11:20:42.458403,1709115642.458403,-38.0859375,-28.80859375,-26.85546875,-22.4609375,1.0,1.0,0.0,0.0,2.m4v,9.0
2024-02-28 11:20:42.462311,1709115642.4623113,-41.015625,-25.390625,-14.6484375,-20.5078125,1.0,1.0,0.0,0.0,2.m4v,9.0
2024-02-28 11:20:42.466217,1709115642.4662173,-36.1328125,-29.78515625,-21.484375,-29.296875,1.0,1.0,0.0,0.0,2.m4v,9.0
2024-02-28 11:20:42.470123,1709115642.470123,-37.59765625,-36.62109375,-40.0390625,-37.109375,1.0,1.0,0.0,0.0,2.m4v,9.0
2024-02-28 11:20:42.474029,1709115642.474029,-41.9921875,-41.015625,-46.38671875,-45.41015625,1.0,1.0,0.0,0.0,2.m4v,9.0
2024-02-28 11:20:42.477935,1709115642.4779348,-31.25,-32.71484375,-46.38671875,-48.33984375,1.0,1.0,0.0,0.0,2.m4v,9.0
2024-02-28 11:20:42.481841,1709115642.4818408,-34.66796875,-25.87890625,-32.71484375,-40.52734375,1.0,1.0,0.0,0.0,2.m4v,9.0
2024-02-28 11:20:42.485747,1709115642.4857466,-52.734375,-33.203125,-21.484375,-41.9921875,1.0,1.0,0.0,0.0,2.m4v,9.0
2024-02-28 11:20:42.489653,1709115642.4896526,-50.29296875,-37.59765625,-40.0390625,-42.96875,1.0,1.0,0.0,0.0,2.m4v,9.0
2024-02-28 11:20:42.493558,1709115642.4935584,-33.69140625,-37.59765625,-46.38671875,-34.66796875,1.0,1.0,0.0,0.0,2.m4v,9.0
2024-02-28 11:20:42.497464,1709115642.4974644,-28.3203125,-31.73828125,-33.203125,-32.2265625,1.0,1.0,0.0,0.0,2.m4v,9.0
2024-02-28 11:20:42.501370,1709115642.5013702,-41.015625,-32.2265625,-29.78515625,-36.62109375,1.0,1.0,0.0,0.0,2.m4v,9.0
2024-02-28 11:20:42.505276,1709115642.5052762,-61.03515625,-30.76171875,-30.2734375,-43.45703125,1.0,1.0,0.0,0.0,2.m4v,9.0
2024-02-28 11:20:42.509184,1709115642.5091836,-65.91796875,-31.73828125,-29.296875,-39.55078125,1.0,1.0,0.0,0.0,2.m4v,9.0
2024-02-28 11:20:42.513090,1709115642.5130897,-52.734375,-31.73828125,-29.296875,-30.76171875,1.0,1.0,0.0,0.0,2.m4v,9.0
2024-02-28 11:20:42.516995,1709115642.5169954,-33.69140625,-29.78515625,-33.69140625,-23.4375,1.0,1.0,0.0,0.0,2.m4v,9.0
2024-02-28 11:20:42.520901,1709115642.5209014,-38.0859375,-33.203125,-38.57421875,-25.87890625,1.0,1.0,0.0,0.0,2.m4v,9.0
2024-02-28 11:20:42.524807,1709115642.5248072,-54.19921875,-40.52734375,-44.921875,-35.15625,1.0,1.0,0.0,0.0,2.m4v,9.0
2024-02-28 11:20:42.528713,1709115642.5287132,-56.15234375,-49.8046875,-42.96875,-32.71484375,1.0,1.0,0.0,0.0,2.m4v,9.0
2024-02-28 11:20:42.532619,1709115642.532619,-45.8984375,-53.22265625,-42.48046875,-31.25,1.0,1.0,0.0,0.0,2.m4v,9.0
2024-02-28 11:20:42.536525,1709115642.536525,-39.0625,-59.5703125,-40.0390625,-38.57421875,1.0,1.0,0.0,0.0,2.m4v,9.0
2024-02-28 11:20:42.540431,1709115642.5404308,-42.96875,-50.78125,-33.69140625,-39.0625,1.0,1.0,0.0,0.0,2.m4v,9.0
2024-02-28 11:20:42.544337,1709115642.5443368,-45.8984375,-48.33984375,-29.296875,-37.59765625,1.0,1.0,0.0,0.0,2.m4v,9.0
2024-02-28 11:20:42.548243,1709115642.5482426,-53.7109375,-51.26953125,-32.2265625,-47.36328125,1.0,1.0,0.0,0.0,2.m4v,9.0
2024-02-28 11:20:42.552149,1709115642.5521486,-46.875,-46.38671875,-40.0390625,-42.48046875,1.0,1.0,0.0,0.0,2.m4v,9.0
2024-02-28 11:20:43.005248,1709115643.005248,-39.55078125,-27.34375,-32.71484375,-21.484375,1.0,1.0,0.0,0.0,2.m4v,9.0
2024-02-28 11:20:43.009154,1709115643.009154,-33.69140625,-14.16015625,-28.80859375,-6.8359375,1.0,1.0,0.0,0.0,2.m4v,9.0
2024-02-28 11:20:43.013060,1709115643.01306,-38.0859375,-17.578125,-28.3203125,-20.99609375,1.0,1.0,0.0,0.0,2.m4v,9.0
2024-02-28 11:20:43.016966,1709115643.016966,-49.31640625,-25.390625,-28.3203125,-38.57421875,1.0,1.0,0.0,0.0,2.m4v,9.0
2024-02-28 11:20:43.020872,1709115643.0208716,-54.19921875,-26.85546875,-32.2265625,-41.9921875,1.0,1.0,0.0,0.0,2.m4v,9.0
2024-02-28 11:20:43.024779,1709115643.0247786,-60.546875,-27.34375,-33.203125,-47.36328125,1.0,1.0,0.0,0.0,2.m4v,9.0
2024-02-28 11:20:43.028684,1709115643.0286844,-59.08203125,-23.92578125,-32.71484375,-54.19921875,1.0,1.0,0.0,0.0,2.m4v,9.0
2024-02-28 11:20:43.032590,1709115643.0325904,-60.546875,-31.25,-36.1328125,-62.98828125,1.0,1.0,0.0,0.0,2.m4v,9.0
2024-02-28 11:20:43.036496,1709115643.0364962,-63.4765625,-37.59765625,-40.0390625,-65.4296875,1.0,1.0,0.0,0.0,2.m4v,9.0
2024-02-28 11:20:43.040402,1709115643.0404022,-75.1953125,-39.55078125,-38.0859375,-74.21875,1.0,1.0,0.0,0.0,2.m4v,9.0
2024-02-28 11:20:43.044308,1709115643.044308,-89.35546875,-33.69140625,-36.1328125,-89.84375,1.0,1.0,0.0,0.0,2.m4v,9.0
2024-02-28 11:20:43.048214,1709115643.048214,-90.8203125,-28.80859375,-39.0625,-89.35546875,1.0,1.0,0.0,0.0,2.m4v,9.0
2024-02-28 11:20:43.052120,1709115643.0521195,-101.5625,-40.0390625,-44.921875,-97.65625,1.0,1.0,0.0,0.0,2.m4v,9.0
2024-02-28 11:20:43.056026,1709115643.0560255,-108.88671875,-41.50390625,-44.921875,-109.86328125,1.0,1.0,0.0,0.0,2.m4v,9.0
2024-02-28 11:20:43.059932,1709115643.0599315,-112.79296875,-35.15625,-46.875,-115.72265625,1.0,1.0,0.0,0.0,2.m4v,9.0
2024-02-28 11:20:43.063838,1709115643.0638375,-123.53515625,-38.57421875,-49.8046875,-129.39453125,1.0,1.0,0.0,0.0,2.m4v,9.0
2024-02-28 11:20:43.067743,1709115643.0677433,-135.25390625,-38.57421875,-42.48046875,-132.32421875,1.0,1.0,0.0,0.0,2.m4v,9.0
2024-02-28 11:20:43.071649,1709115643.0716488,-144.53125,-36.62109375,-46.38671875,-132.32421875,1.0,1.0,0.0,0.0,2.m4v,9.0
2024-02-28 11:20:43.075555,1709115643.0755546,-146.97265625,-34.66796875,-52.734375,-147.4609375,1.0,1.0,0.0,0.0,2.m4v,9.0
2024-02-28 11:20:43.079461,1709115643.0794606,-135.7421875,-34.66796875,-55.17578125,-157.71484375,1.0,1.0,0.0,0.0,2.m4v,9.0
2024-02-28 11:20:43.083366,1709115643.0833664,-157.2265625,-41.9921875,-57.6171875,-170.8984375,1.0,1.0,0.0,0.0,2.m4v,9.0
2024-02-28 11:20:43.087272,1709115643.0872724,-184.5703125,-45.8984375,-53.22265625,-171.875,1.0,1.0,0.0,0.0,2.m4v,9.0
2024-02-28 11:20:43.091178,1709115643.0911782,-182.6171875,-40.52734375,-52.24609375,-172.8515625,1.0,1.0,0.0,0.0,2.m4v,9.0
2024-02-28 11:20:43.095084,1709115643.0950842,-187.5,-45.41015625,-61.5234375,-184.08203125,1.0,1.0,0.0,0.0,2.m4v,9.0
2024-02-28 11:20:43.098990,1709115643.09899,-191.40625,-53.7109375,-62.98828125,-192.3828125,1.0,1.0,0.0,0.0,2.m4v,9.0
2024-02-28 11:20:43.102896,1709115643.102896,-191.89453125,-48.828125,-62.01171875,-199.70703125,1.0,1.0,0.0,0.0,2.m4v,9.0
2024-02-28 11:20:43.106802,1709115643.1068015,-183.59375,-41.50390625,-63.4765625,-192.87109375,1.0,1.0,0.0,0.0,2.m4v,9.0
2024-02-28 11:20:43.110708,1709115643.1107078,-186.03515625,-39.0625,-55.17578125,-195.3125,1.0,1.0,0.0,0.0,2.m4v,9.0
2024-02-28 11:20:43.114614,1709115643.1146135,-197.75390625,-45.41015625,-55.17578125,-202.1484375,1.0,1.0,0.0,0.0,2.m4v,9.0
2024-02-28 11:20:43.118522,1709115643.1185224,-185.05859375,-48.828125,-54.6875,-196.2890625,1.0,1.0,0.0,0.0,2.m4v,9.0
2024-02-28 11:20:43.122428,1709115643.1224284,-181.15234375,-38.0859375,-45.41015625,-196.2890625,1.0,1.0,0.0,0.0,2.m4v,9.0
2024-02-28 11:20:43.126334,1709115643.1263342,-176.26953125,-52.734375,-60.05859375,-192.87109375,1.0,1.0,0.0,0.0,2.m4v,9.0
2024-02-28 11:20:43.130240,1709115643.1302402,-168.9453125,-67.87109375,-84.47265625,-173.828125,1.0,1.0,0.0,0.0,2.m4v,9.0
2024-02-28 11:20:43.134146,1709115643.134146,-170.8984375,-60.05859375,-61.03515625,-159.66796875,1.0,1.0,0.0,0.0,2.m4v,9.0
2024-02-28 11:20:43.138052,1709115643.138052,-151.3671875,-43.45703125,-41.9921875,-157.2265625,1.0,1.0,0.0,0.0,2.m4v,9.0
2024-02-28 11:20:43.141958,1709115643.1419578,-140.625,-24.4140625,-50.78125,-153.80859375,1.0,1.0,0.0,0.0,2.m4v,9.0
2024-02-28 11:20:43.145864,1709115643.1458638,-138.18359375,-19.04296875,-42.48046875,-140.13671875,1.0,1.0,0.0,0.0,2.m4v,9.0
2024-02-28 11:20:43.149770,1709115643.1497695,-129.39453125,-27.34375,-43.45703125,-122.0703125,1.0,1.0,0.0,0.0,2.m4v,9.0
2024-02-28 11:20:43.153676,1709115643.1536756,-112.3046875,-35.64453125,-52.24609375,-107.91015625,1.0,1.0,0.0,0.0,2.m4v,9.0
2024-02-28 11:20:43.157581,1709115643.157581,-91.30859375,-32.71484375,-34.1796875,-93.26171875,1.0,1.0,0.0,0.0,2.m4v,9.0
2024-02-28 11:20:43.161487,1709115643.161487,-78.125,-26.3671875,-31.73828125,-81.54296875,1.0,1.0,0.0,0.0,2.m4v,9.0
2024-02-28 11:20:43.165396,1709115643.1653955,-41.9921875,-37.59765625,-37.59765625,-65.4296875,1.0,1.0,0.0,0.0,2.m4v,9.0
2024-02-28 11:20:43.169302,1709115643.1693015,-22.94921875,-40.52734375,-22.94921875,-47.8515625,1.0,1.0,0.0,0.0,2.m4v,9.0
2024-02-28 11:20:43.173208,1709115643.1732075,-42.48046875,-37.59765625,-22.94921875,-32.2265625,1.0,1.0,0.0,0.0,2.m4v,9.0
2024-02-28 11:20:43.177113,1709115643.1771133,-23.4375,-44.43359375,-28.80859375,-24.90234375,1.0,1.0,0.0,0.0,2.m4v,9.0
2024-02-28 11:20:43.181019,1709115643.1810193,-2.44140625,-41.50390625,-26.85546875,-20.5078125,1.0,1.0,0.0,0.0,2.m4v,9.0
2024-02-28 11:20:43.184925,1709115643.184925,-15.13671875,-35.64453125,-19.04296875,-11.23046875,1.0,1.0,0.0,0.0,2.m4v,9.0
2024-02-28 11:20:43.188831,1709115643.188831,-11.23046875,-38.57421875,-22.4609375,-2.9296875,1.0,1.0,0.0,0.0,2.m4v,9.0
2024-02-28 11:20:43.192737,1709115643.1927369,18.5546875,-50.78125,-29.78515625,10.25390625,1.0,1.0,0.0,0.0,2.m4v,9.0
2024-02-28 11:20:43.196643,1709115643.1966429,19.53125,-51.26953125,-27.83203125,15.13671875,1.0,1.0,0.0,0.0,2.m4v,9.0
2024-02-28 11:20:43.200549,1709115643.2005486,18.06640625,-41.015625,-16.6015625,22.94921875,1.0,1.0,0.0,0.0,2.m4v,9.0
2024-02-28 11:20:43.204455,1709115643.204455,37.109375,-44.43359375,-16.11328125,30.76171875,1.0,1.0,0.0,0.0,2.m4v,9.0
2024-02-28 11:20:43.208360,1709115643.2083604,34.1796875,-40.52734375,-19.53125,35.64453125,1.0,1.0,0.0,0.0,2.m4v,9.0
2024-02-28 11:20:43.212269,1709115643.2122693,36.62109375,-23.4375,-20.99609375,41.9921875,1.0,1.0,0.0,0.0,2.m4v,9.0
2024-02-28 11:20:43.216175,1709115643.216175,23.4375,-24.4140625,-23.92578125,29.78515625,1.0,1.0,0.0,0.0,2.m4v,9.0
2024-02-28 11:20:43.220081,1709115643.220081,24.90234375,-34.1796875,-16.6015625,30.76171875,1.0,1.0,0.0,0.0,2.m4v,9.0
2024-02-28 11:20:43.223987,1709115643.2239869,34.66796875,-33.203125,-14.6484375,48.828125,1.0,1.0,0.0,0.0,2.m4v,9.0
2024-02-28 11:20:43.227893,1709115643.2278929,28.3203125,-35.15625,-20.01953125,52.24609375,1.0,1.0,0.0,0.0,2.m4v,9.0
2024-02-28 11:20:43.231799,1709115643.2317986,33.69140625,-48.828125,-21.484375,47.36328125,1.0,1.0,0.0,0.0,2.m4v,9.0
2024-02-28 11:20:43.235705,1709115643.235705,39.0625,-43.45703125,-22.94921875,41.50390625,1.0,1.0,0.0,0.0,2.m4v,9.0
2024-02-28 11:20:43.239610,1709115643.2396104,40.52734375,-27.83203125,-31.73828125,38.57421875,1.0,1.0,0.0,0.0,2.m4v,9.0
2024-02-28 11:20:43.243516,1709115643.2435164,37.59765625,-36.1328125,-43.45703125,33.69140625,1.0,1.0,0.0,0.0,2.m4v,9.0
2024-02-28 11:20:43.247422,1709115643.2474222,31.73828125,-36.62109375,-38.57421875,36.62109375,1.0,1.0,0.0,0.0,2.m4v,9.0
2024-02-28 11:20:43.251328,1709115643.2513282,45.8984375,-25.87890625,-24.4140625,41.50390625,1.0,1.0,0.0,0.0,2.m4v,9.0
2024-02-28 11:20:43.255234,1709115643.255234,44.43359375,-23.92578125,-17.08984375,39.55078125,1.0,1.0,0.0,0.0,2.m4v,9.0
2024-02-28 11:20:43.259141,1709115643.2591414,29.78515625,-25.87890625,-6.8359375,41.015625,1.0,1.0,0.0,0.0,2.m4v,9.0
2024-02-28 11:20:43.263047,1709115643.2630477,41.50390625,-22.94921875,-1.46484375,40.0390625,1.0,1.0,0.0,0.0,2.m4v,9.0
2024-02-28 11:20:43.266953,1709115643.2669532,41.50390625,-13.671875,-14.16015625,38.0859375,1.0,1.0,0.0,0.0,2.m4v,9.0
2024-02-28 11:20:43.270859,1709115643.2708592,38.57421875,-12.20703125,-27.34375,35.64453125,1.0,1.0,0.0,0.0,2.m4v,9.0
2024-02-28 11:20:43.274765,1709115643.274765,54.19921875,-24.90234375,-25.390625,29.78515625,1.0,1.0,0.0,0.0,2.m4v,9.0
2024-02-28 11:20:43.278671,1709115643.278671,56.15234375,-26.3671875,-25.390625,26.3671875,1.0,1.0,0.0,0.0,2.m4v,9.0
2024-02-28 11:20:43.591148,1709115643.591148,-42.96875,-41.9921875,-44.43359375,-29.78515625,1.0,1.0,0.0,0.0,2.m4v,9.0
2024-02-28 11:20:43.595054,1709115643.595054,-40.52734375,-41.50390625,-30.2734375,-32.2265625,1.0,1.0,0.0,0.0,2.m4v,9.0
2024-02-28 11:20:43.598960,1709115643.59896,-35.15625,-41.9921875,-25.390625,-35.64453125,1.0,1.0,0.0,0.0,2.m4v,9.0
2024-02-28 11:20:43.602866,1709115643.6028657,-38.57421875,-34.1796875,-23.92578125,-33.69140625,1.0,1.0,0.0,0.0,2.m4v,9.0
2024-02-28 11:20:43.731764,1709115643.7317636,-43.9453125,-28.3203125,-29.296875,-32.71484375,1.0,1.0,0.0,0.0,2.m4v,9.0
2024-02-28 11:20:43.739575,1709115643.7395754,-40.52734375,-45.41015625,-29.296875,-44.921875,1.0,1.0,0.0,0.0,2.m4v,9.0
2024-02-28 11:20:43.747387,1709115643.7473872,-26.85546875,-29.78515625,-23.4375,-25.390625,1.0,1.0,0.0,0.0,2.m4v,9.0
2024-02-28 11:20:43.755199,1709115643.755199,-33.203125,-25.390625,-37.59765625,-28.3203125,1.0,1.0,0.0,0.0,2.m4v,9.0
2024-02-28 11:20:43.763011,1709115643.7630107,-30.76171875,-26.3671875,-44.921875,-37.109375,1.0,1.0,0.0,0.0,2.m4v,9.0
2024-02-28 11:20:43.770823,1709115643.7708223,-35.64453125,-31.25,-43.9453125,-30.76171875,1.0,1.0,0.0,0.0,2.m4v,9.0
2024-02-28 11:20:43.778635,1709115643.7786348,-28.3203125,-39.55078125,-29.296875,-40.52734375,1.0,1.0,0.0,0.0,2.m4v,9.0
2024-02-28 11:20:43.786447,1709115643.7864466,-21.97265625,-31.73828125,-19.04296875,-34.66796875,1.0,1.0,0.0,0.0,2.m4v,9.0
2024-02-28 11:20:43.794258,1709115643.7942584,-35.64453125,-31.73828125,-27.34375,-30.2734375,1.0,1.0,0.0,0.0,2.m4v,9.0
2024-02-28 11:20:43.802070,1709115643.80207,-34.1796875,-51.26953125,-36.1328125,-41.50390625,1.0,1.0,0.0,0.0,2.m4v,9.0
2024-02-28 11:20:43.809882,1709115643.809882,-37.109375,-10.25390625,-40.52734375,-39.0625,1.0,1.0,0.0,0.0,2.m4v,9.0
2024-02-28 11:20:43.817694,1709115643.8176937,-38.0859375,-21.484375,-41.015625,-40.52734375,1.0,1.0,0.0,0.0,2.m4v,9.0
2024-02-28 11:20:43.825505,1709115643.8255053,-29.78515625,-25.87890625,-33.69140625,-37.109375,1.0,1.0,0.0,0.0,2.m4v,9.0
2024-02-28 11:20:43.833317,1709115643.833317,-36.62109375,-65.91796875,-39.55078125,-31.25,1.0,1.0,0.0,0.0,2.m4v,9.0
2024-02-28 11:20:43.841129,1709115643.8411288,-21.484375,-31.25,-29.296875,-38.0859375,1.0,1.0,0.0,0.0,2.m4v,9.0
2024-02-28 11:20:43.848941,1709115643.8489406,-46.38671875,-38.0859375,-20.99609375,-35.64453125,1.0,1.0,0.0,0.0,2.m4v,9.0
2024-02-28 11:20:43.856752,1709115643.8567524,-37.59765625,-17.578125,-32.71484375,-37.109375,1.0,1.0,0.0,0.0,2.m4v,9.0
2024-02-28 11:20:43.864564,1709115643.8645642,-43.9453125,-34.66796875,-31.73828125,-41.50390625,1.0,1.0,0.0,0.0,2.m4v,9.0
2024-02-28 11:20:43.872378,1709115643.8723776,-42.48046875,-34.1796875,-44.43359375,-37.109375,1.0,1.0,0.0,0.0,2.m4v,9.0
2024-02-28 11:20:43.880189,1709115643.8801894,-44.43359375,-43.9453125,-29.296875,-42.48046875,1.0,1.0,0.0,0.0,2.m4v,9.0
2024-02-28 11:20:43.888001,1709115643.8880012,-33.69140625,-46.38671875,-36.1328125,-40.0390625,1.0,1.0,0.0,0.0,2.m4v,9.0
2024-02-28 11:20:43.895813,1709115643.895813,-38.0859375,-27.83203125,-25.87890625,-25.390625,1.0,1.0,0.0,0.0,2.m4v,9.0
2024-02-28 11:20:43.903625,1709115643.9036248,-36.1328125,-32.2265625,-26.85546875,-42.48046875,1.0,1.0,0.0,0.0,2.m4v,9.0
2024-02-28 11:20:43.911437,1709115643.9114366,-32.71484375,-39.55078125,-38.0859375,-48.33984375,1.0,1.0,0.0,0.0,2.m4v,9.0
2024-02-28 11:20:43.919251,1709115643.9192507,-31.25,-36.1328125,-51.26953125,-36.1328125,1.0,1.0,0.0,0.0,2.m4v,9.0
2024-02-28 11:20:43.927063,1709115643.9270625,-45.41015625,-32.71484375,-19.04296875,-31.25,1.0,1.0,0.0,0.0,2.m4v,9.0
2024-02-28 11:20:43.934874,1709115643.9348743,-38.0859375,-32.2265625,-25.390625,-39.0625,1.0,1.0,0.0,0.0,2.m4v,9.0
2024-02-28 11:20:43.942686,1709115643.942686,-45.41015625,-30.2734375,-37.59765625,-37.59765625,1.0,1.0,0.0,0.0,2.m4v,9.0
2024-02-28 11:20:43.950498,1709115643.950498,-52.734375,-36.1328125,-29.296875,-36.62109375,1.0,1.0,0.0,0.0,2.m4v,9.0
2024-02-28 11:20:43.958310,1709115643.9583097,-41.015625,-26.85546875,-26.3671875,-39.55078125,1.0,1.0,0.0,0.0,2.m4v,9.0
2024-02-28 11:20:43.966128,1709115643.9661276,-37.109375,-53.7109375,-37.109375,-41.9921875,1.0,1.0,0.0,0.0,2.m4v,9.0
2024-02-28 11:20:43.973939,1709115643.9739394,-51.7578125,-41.015625,-36.1328125,-39.0625,1.0,1.0,0.0,0.0,2.m4v,9.0
2024-02-28 11:20:43.981751,1709115643.9817512,-39.0625,-28.80859375,-37.59765625,-42.96875,1.0,1.0,0.0,0.0,2.m4v,9.0
2024-02-28 11:20:43.989563,1709115643.989563,-51.26953125,-36.62109375,-20.99609375,-40.0390625,1.0,1.0,0.0,0.0,2.m4v,9.0
2024-02-28 11:20:43.997375,1709115643.9973748,-28.80859375,-14.16015625,-20.5078125,-34.1796875,1.0,1.0,0.0,0.0,2.m4v,9.0
2024-02-28 11:20:44.005187,1709115644.0051866,-36.1328125,-36.62109375,-16.11328125,-33.203125,1.0,1.0,0.0,0.0,2.m4v,9.0
2024-02-28 11:20:44.013000,1709115644.0130002,-24.4140625,-10.7421875,-39.55078125,-47.36328125,1.0,1.0,0.0,0.0,2.m4v,9.0
2024-02-28 11:20:44.020812,1709115644.020812,-48.33984375,-24.90234375,-41.015625,-37.109375,1.0,1.0,0.0,0.0,2.m4v,9.0
2024-02-28 11:20:44.028624,1709115644.0286238,-41.9921875,-48.828125,-45.41015625,-32.2265625,1.0,1.0,0.0,0.0,2.m4v,9.0
2024-02-28 11:20:44.036436,1709115644.0364356,-41.015625,-32.71484375,-27.83203125,-40.0390625,1.0,1.0,0.0,0.0,2.m4v,9.0
2024-02-28 11:20:44.044247,1709115644.0442474,-46.875,-18.5546875,-19.53125,-32.71484375,1.0,1.0,0.0,0.0,2.m4v,9.0
2024-02-28 11:20:44.052059,1709115644.0520592,-36.62109375,-28.80859375,-30.2734375,-32.2265625,1.0,1.0,0.0,0.0,2.m4v,9.0
2024-02-28 11:20:44.059872,1709115644.0598724,-37.109375,-41.015625,-33.69140625,-34.1796875,1.0,1.0,0.0,0.0,2.m4v,9.0
2024-02-28 11:20:44.067684,1709115644.0676842,-40.0390625,-29.296875,-38.57421875,-34.1796875,1.0,1.0,0.0,0.0,2.m4v,9.0
2024-02-28 11:20:44.075496,1709115644.075496,-42.48046875,-11.23046875,-32.71484375,-27.34375,1.0,1.0,0.0,0.0,2.m4v,9.0
2024-02-28 11:20:44.083308,1709115644.0833075,-36.1328125,-20.01953125,-32.71484375,-33.69140625,1.0,1.0,0.0,0.0,2.m4v,9.0
2024-02-28 11:20:44.091120,1709115644.0911195,-35.64453125,-17.08984375,-39.0625,-33.203125,1.0,1.0,0.0,0.0,2.m4v,9.0
2024-02-28 11:20:44.098931,1709115644.0989313,-44.43359375,-41.50390625,-27.83203125,-25.390625,1.0,1.0,0.0,0.0,2.m4v,9.0
2024-02-28 11:20:44.106744,1709115644.1067436,-39.0625,-19.53125,-33.203125,-32.2265625,1.0,1.0,0.0,0.0,2.m4v,9.0
2024-02-28 11:20:44.114555,1709115644.1145554,-47.36328125,-28.3203125,-32.71484375,-30.76171875,1.0,1.0,0.0,0.0,2.m4v,9.0
2024-02-28 11:20:44.122367,1709115644.1223671,-35.64453125,-37.109375,-22.94921875,-32.71484375,1.0,1.0,0.0,0.0,2.m4v,9.0
2024-02-28 11:20:44.130179,1709115644.130179,-41.50390625,-36.1328125,-42.48046875,-37.109375,1.0,1.0,0.0,0.0,2.m4v,9.0
2024-02-28 11:20:44.137991,1709115644.1379907,-43.45703125,-14.16015625,-22.94921875,-31.25,1.0,1.0,0.0,0.0,2.m4v,9.0
2024-02-28 11:20:44.145802,1709115644.1458025,-43.45703125,-39.55078125,-33.69140625,-37.109375,1.0,1.0,0.0,0.0,2.m4v,9.0
2024-02-28 11:20:44.153615,1709115644.1536143,-53.22265625,-25.87890625,-37.59765625,-38.0859375,1.0,1.0,0.0,0.0,2.m4v,9.0
2024-02-28 11:20:44.161426,1709115644.1614263,-43.45703125,-25.87890625,-15.625,-44.43359375,1.0,1.0,0.0,0.0,2.m4v,9.0
2024-02-28 11:20:44.169238,1709115644.169238,-43.45703125,-30.2734375,-22.4609375,-36.1328125,1.0,1.0,0.0,0.0,2.m4v,9.0
2024-02-28 11:20:44.177050,1709115644.17705,-41.50390625,-42.96875,-15.625,-37.59765625,1.0,1.0,0.0,0.0,2.m4v,9.0
2024-02-28 11:20:44.184862,1709115644.1848617,-43.9453125,-46.38671875,-39.55078125,-39.55078125,1.0,1.0,0.0,0.0,2.m4v,9.0
2024-02-28 11:20:44.192673,1709115644.1926734,-48.33984375,-20.5078125,-27.83203125,-33.69140625,1.0,1.0,0.0,0.0,2.m4v,9.0
2024-02-28 11:20:44.200485,1709115644.2004848,-45.8984375,-29.78515625,-33.203125,-49.31640625,1.0,1.0,0.0,0.0,2.m4v,9.0
2024-02-28 11:20:44.208297,1709115644.2082963,-47.36328125,-41.9921875,-37.109375,-44.43359375,1.0,1.0,0.0,0.0,2.m4v,9.0
2024-02-28 11:20:44.216108,1709115644.2161083,-36.1328125,-30.2734375,-14.16015625,-36.1328125,1.0,1.0,0.0,0.0,2.m4v,9.0
2024-02-28 11:20:44.223920,1709115644.22392,-37.109375,-57.12890625,-9.27734375,-35.64453125,1.0,1.0,0.0,0.0,2.m4v,9.0
2024-02-28 11:20:44.231732,1709115644.231732,-45.41015625,-12.6953125,-14.6484375,-49.31640625,1.0,1.0,0.0,0.0,2.m4v,9.0
2024-02-28 11:20:44.239544,1709115644.2395437,-33.69140625,-34.1796875,-34.1796875,-39.55078125,1.0,1.0,0.0,0.0,2.m4v,9.0
2024-02-28 11:20:44.247355,1709115644.2473552,-34.1796875,-52.24609375,-35.15625,-28.3203125,1.0,1.0,0.0,0.0,2.m4v,9.0
2024-02-28 11:20:44.255167,1709115644.255167,-32.71484375,-30.2734375,-42.96875,-29.78515625,1.0,1.0,0.0,0.0,2.m4v,9.0
2024-02-28 11:20:44.262979,1709115644.2629788,-43.9453125,-23.92578125,-23.4375,-40.0390625,1.0,1.0,0.0,0.0,2.m4v,9.0
2024-02-28 11:20:44.270791,1709115644.2707906,-41.9921875,-12.20703125,-32.71484375,-20.5078125,1.0,1.0,0.0,0.0,2.m4v,9.0
2024-02-28 11:20:44.278602,1709115644.2786024,-30.76171875,-42.48046875,-26.3671875,-51.26953125,1.0,1.0,0.0,0.0,2.m4v,9.0
2024-02-28 11:20:44.286414,1709115644.286414,-32.71484375,-36.1328125,-24.90234375,-31.25,1.0,1.0,0.0,0.0,2.m4v,9.0
2024-02-28 11:20:44.294229,1709115644.2942288,-30.76171875,-34.1796875,-38.57421875,-39.0625,1.0,1.0,0.0,0.0,2.m4v,9.0
2024-02-28 11:20:44.294229,1709115644.2942288,-30.76171875,-34.1796875,-38.57421875,-39.0625,1.0,1.0,0.0,0.0,2.m4v,9.0
2024-02-28 11:20:44.302041,1709115644.3020406,-19.04296875,-47.36328125,-37.59765625,-32.71484375,1.0,1.0,0.0,0.0,2.m4v,9.0
2024-02-28 11:20:44.302041,1709115644.3020406,-19.04296875,-47.36328125,-37.59765625,-32.71484375,1.0,1.0,0.0,0.0,2.m4v,9.0
2024-02-28 11:20:44.309852,1709115644.3098524,-36.1328125,-23.4375,-40.52734375,-25.87890625,1.0,1.0,0.0,0.0,2.m4v,9.0
2024-02-28 11:20:44.309852,1709115644.3098524,-36.1328125,-23.4375,-40.52734375,-25.87890625,1.0,1.0,0.0,0.0,2.m4v,9.0
2024-02-28 11:20:44.317664,1709115644.317664,-11.23046875,-12.20703125,-20.01953125,-33.203125,1.0,1.0,0.0,0.0,2.m4v,9.0
2024-02-28 11:20:44.325476,1709115644.325476,-44.43359375,-4.39453125,-35.15625,-43.45703125,1.0,1.0,0.0,0.0,2.m4v,9.0
2024-02-28 11:20:44.333288,1709115644.3332877,-34.66796875,-13.18359375,-39.55078125,-42.48046875,1.0,1.0,0.0,0.0,2.m4v,9.0
2024-02-28 11:20:44.341102,1709115644.3411016,-34.66796875,-19.04296875,-44.43359375,-41.50390625,1.0,1.0,0.0,0.0,2.m4v,9.0
2024-02-28 11:20:44.348913,1709115644.3489134,-29.78515625,-25.87890625,-27.34375,-31.73828125,1.0,1.0,0.0,0.0,2.m4v,9.0
2024-02-28 11:20:44.356725,1709115644.3567252,-23.4375,-51.7578125,-47.36328125,-36.62109375,1.0,1.0,0.0,0.0,2.m4v,9.0
2024-02-28 11:20:44.364537,1709115644.364537,-26.85546875,-34.1796875,-48.33984375,-38.57421875,1.0,1.0,0.0,0.0,2.m4v,9.0
2024-02-28 11:20:44.372349,1709115644.3723488,-29.78515625,-23.92578125,-43.45703125,-23.92578125,1.0,1.0,0.0,0.0,2.m4v,9.0
2024-02-28 11:20:44.380161,1709115644.3801606,-21.484375,-21.97265625,-17.08984375,-32.2265625,1.0,1.0,0.0,0.0,2.m4v,9.0
2024-02-28 11:20:44.387974,1709115644.387974,-35.64453125,-24.4140625,-29.78515625,-31.73828125,1.0,1.0,0.0,0.0,2.m4v,9.0
2024-02-28 11:20:44.759046,1709115644.7590458,-38.0859375,-34.1796875,-38.57421875,-35.64453125,1.0,1.0,0.0,0.0,2.m4v,9.0
2024-02-28 11:20:44.762952,1709115644.762952,-39.0625,-47.36328125,-31.25,-31.73828125,1.0,1.0,0.0,0.0,2.m4v,9.0
2024-02-28 11:20:44.766858,1709115644.7668576,-37.109375,-43.9453125,-23.92578125,-31.73828125,1.0,1.0,0.0,0.0,2.m4v,9.0
2024-02-28 11:20:44.770764,1709115644.7707636,-34.66796875,-31.73828125,-19.04296875,-35.15625,1.0,1.0,0.0,0.0,2.m4v,9.0
2024-02-28 11:20:44.774669,1709115644.7746694,-41.015625,-39.0625,-16.11328125,-30.2734375,1.0,1.0,0.0,0.0,2.m4v,9.0
2024-02-28 11:20:44.778575,1709115644.7785754,-43.9453125,-34.1796875,-21.484375,-25.87890625,1.0,1.0,0.0,0.0,2.m4v,9.0
2024-02-28 11:20:44.782481,1709115644.7824812,-42.48046875,-28.3203125,-23.92578125,-28.80859375,1.0,1.0,0.0,0.0,2.m4v,9.0
2024-02-28 11:20:44.786387,1709115644.7863872,-38.0859375,-34.1796875,-22.4609375,-35.15625,1.0,1.0,0.0,0.0,2.m4v,9.0
2024-02-28 11:20:44.790293,1709115644.790293,-34.66796875,-34.1796875,-21.97265625,-35.15625,1.0,1.0,0.0,0.0,2.m4v,9.0
2024-02-28 11:20:44.794199,1709115644.794199,-31.25,-30.2734375,-22.4609375,-32.2265625,1.0,1.0,0.0,0.0,2.m4v,9.0
2024-02-28 11:20:44.798105,1709115644.7981048,-27.34375,-31.73828125,-23.92578125,-26.3671875,1.0,1.0,0.0,0.0,2.m4v,9.0
2024-02-28 11:20:44.802011,1709115644.8020108,-33.69140625,-45.8984375,-31.25,-36.62109375,1.0,1.0,0.0,0.0,2.m4v,9.0
2024-02-28 11:20:44.805918,1709115644.8059175,-40.0390625,-51.7578125,-39.55078125,-47.8515625,1.0,1.0,0.0,0.0,2.m4v,9.0
2024-02-28 11:20:44.809824,1709115644.8098238,-42.96875,-32.2265625,-33.69140625,-36.1328125,1.0,1.0,0.0,0.0,2.m4v,9.0
2024-02-28 11:20:44.813730,1709115644.8137295,-44.921875,-20.5078125,-37.109375,-41.50390625,1.0,1.0,0.0,0.0,2.m4v,9.0
2024-02-28 11:20:44.817636,1709115644.8176355,-39.0625,-31.25,-44.43359375,-48.828125,1.0,1.0,0.0,0.0,2.m4v,9.0
2024-02-28 11:20:44.821541,1709115644.8215413,-37.109375,-43.45703125,-45.41015625,-43.45703125,1.0,1.0,0.0,0.0,2.m4v,9.0
2024-02-28 11:20:44.825447,1709115644.825447,-43.45703125,-29.296875,-41.50390625,-41.50390625,1.0,1.0,0.0,0.0,2.m4v,9.0
2024-02-28 11:20:44.829353,1709115644.829353,-44.43359375,-20.5078125,-33.69140625,-40.0390625,1.0,1.0,0.0,0.0,2.m4v,9.0
2024-02-28 11:20:44.833259,1709115644.833259,-41.9921875,-33.203125,-24.90234375,-35.15625,1.0,1.0,0.0,0.0,2.m4v,9.0
2024-02-28 11:20:44.837165,1709115644.8371649,-40.0390625,-35.15625,-21.97265625,-33.203125,1.0,1.0,0.0,0.0,2.m4v,9.0
2024-02-28 11:20:44.841071,1709115644.841071,-41.9921875,-25.87890625,-32.2265625,-37.109375,1.0,1.0,0.0,0.0,2.m4v,9.0
2024-02-28 11:20:44.844977,1709115644.844977,-34.66796875,-25.390625,-33.69140625,-32.71484375,1.0,1.0,0.0,0.0,2.m4v,9.0
2024-02-28 11:20:44.848883,1709115644.848883,-35.15625,-33.203125,-27.83203125,-37.109375,1.0,1.0,0.0,0.0,2.m4v,9.0
2024-02-28 11:20:44.852789,1709115644.852789,-43.45703125,-29.296875,-27.83203125,-42.96875,1.0,1.0,0.0,0.0,2.m4v,9.0
2024-02-28 11:20:44.856695,1709115644.856695,-44.43359375,-33.69140625,-22.4609375,-41.015625,1.0,1.0,0.0,0.0,2.m4v,9.0
2024-02-28 11:20:44.860601,1709115644.8606007,-49.8046875,-44.921875,-22.94921875,-45.41015625,1.0,1.0,0.0,0.0,2.m4v,9.0
2024-02-28 11:20:44.864507,1709115644.8645067,-52.24609375,-43.45703125,-38.0859375,-43.9453125,1.0,1.0,0.0,0.0,2.m4v,9.0
2024-02-28 11:20:44.868412,1709115644.8684125,-46.875,-34.1796875,-41.9921875,-41.9921875,1.0,1.0,0.0,0.0,2.m4v,9.0
2024-02-28 11:20:44.872319,1709115644.8723185,-46.38671875,-22.4609375,-37.59765625,-42.48046875,1.0,1.0,0.0,0.0,2.m4v,9.0
2024-02-28 11:20:44.876224,1709115644.8762245,-47.8515625,-22.94921875,-41.015625,-41.50390625,1.0,1.0,0.0,0.0,2.m4v,9.0
2024-02-28 11:20:44.880130,1709115644.8801303,-43.45703125,-26.85546875,-37.109375,-44.921875,1.0,1.0,0.0,0.0,2.m4v,9.0
2024-02-28 11:20:44.884036,1709115644.884036,-40.0390625,-27.34375,-27.34375,-37.109375,1.0,1.0,0.0,0.0,2.m4v,9.0
2024-02-28 11:20:44.887942,1709115644.887942,-34.1796875,-32.2265625,-21.97265625,-27.83203125,1.0,1.0,0.0,0.0,2.m4v,9.0
2024-02-28 11:20:44.891848,1709115644.891848,-38.57421875,-16.11328125,-24.90234375,-30.76171875,1.0,1.0,0.0,0.0,2.m4v,9.0
2024-02-28 11:20:44.895754,1709115644.895754,-42.96875,-22.4609375,-22.94921875,-27.34375,1.0,1.0,0.0,0.0,2.m4v,9.0
2024-02-28 11:20:44.899660,1709115644.89966,-43.9453125,-52.24609375,-18.5546875,-29.296875,1.0,1.0,0.0,0.0,2.m4v,9.0
2024-02-28 11:20:44.903566,1709115644.903566,-45.8984375,-58.59375,-22.94921875,-35.15625,1.0,1.0,0.0,0.0,2.m4v,9.0
2024-02-28 11:20:44.907472,1709115644.907472,-47.36328125,-28.80859375,-24.90234375,-34.1796875,1.0,1.0,0.0,0.0,2.m4v,9.0
2024-02-28 11:20:44.911378,1709115644.911378,-57.12890625,-16.11328125,-26.85546875,-41.9921875,1.0,1.0,0.0,0.0,2.m4v,9.0
2024-02-28 11:20:44.915284,1709115644.9152837,-51.7578125,-27.34375,-28.80859375,-39.0625,1.0,1.0,0.0,0.0,2.m4v,9.0
2024-02-28 11:20:44.919190,1709115644.9191897,-34.66796875,-37.59765625,-33.203125,-28.3203125,1.0,1.0,0.0,0.0,2.m4v,9.0
2024-02-28 11:20:44.923095,1709115644.9230957,-29.296875,-41.50390625,-34.1796875,-28.80859375,1.0,1.0,0.0,0.0,2.m4v,9.0
2024-02-28 11:20:44.927001,1709115644.9270017,-46.38671875,-28.80859375,-38.57421875,-37.59765625,1.0,1.0,0.0,0.0,2.m4v,9.0
2024-02-28 11:20:44.930907,1709115644.9309072,-55.17578125,-21.484375,-52.24609375,-37.109375,1.0,1.0,0.0,0.0,2.m4v,9.0
2024-02-28 11:20:44.934813,1709115644.9348133,-41.50390625,-19.53125,-47.8515625,-30.2734375,1.0,1.0,0.0,0.0,2.m4v,9.0
2024-02-28 11:20:44.938719,1709115644.938719,-27.34375,-12.6953125,-29.296875,-27.83203125,1.0,1.0,0.0,0.0,2.m4v,9.0
2024-02-28 11:20:44.942625,1709115644.942625,-32.71484375,-18.06640625,-25.390625,-33.203125,1.0,1.0,0.0,0.0,2.m4v,9.0
2024-02-28 11:20:44.946531,1709115644.946531,-35.15625,-26.3671875,-23.4375,-40.52734375,1.0,1.0,0.0,0.0,2.m4v,9.0
2024-02-28 11:20:44.950437,1709115644.9504368,-21.97265625,-22.4609375,-19.53125,-34.1796875,1.0,1.0,0.0,0.0,2.m4v,9.0
2024-02-28 11:20:44.954343,1709115644.9543428,-20.01953125,-20.99609375,-30.2734375,-27.83203125,1.0,1.0,0.0,0.0,2.m4v,9.0
2024-02-28 11:20:44.958249,1709115644.9582486,-27.34375,-26.3671875,-32.71484375,-30.2734375,1.0,1.0,0.0,0.0,2.m4v,9.0
2024-02-28 11:20:44.962155,1709115644.9621546,-30.2734375,-32.71484375,-26.3671875,-32.2265625,1.0,1.0,0.0,0.0,2.m4v,9.0
2024-02-28 11:20:44.966060,1709115644.9660604,-31.25,-31.25,-30.76171875,-32.2265625,1.0,1.0,0.0,0.0,2.m4v,9.0
2024-02-28 11:20:44.969966,1709115644.9699664,-34.1796875,-21.484375,-35.15625,-39.0625,1.0,1.0,0.0,0.0,2.m4v,9.0
2024-02-28 11:20:44.973872,1709115644.9738722,-34.1796875,-22.94921875,-31.25,-46.875,1.0,1.0,0.0,0.0,2.m4v,9.0
2024-02-28 11:20:44.977778,1709115644.9777782,-27.34375,-24.90234375,-38.57421875,-35.15625,1.0,1.0,0.0,0.0,2.m4v,9.0
2024-02-28 11:20:44.981684,1709115644.981684,-29.78515625,-26.3671875,-46.875,-29.296875,1.0,1.0,0.0,0.0,2.m4v,9.0
2024-02-28 11:20:44.985590,1709115644.98559,-29.296875,-24.90234375,-44.43359375,-30.76171875,1.0,1.0,0.0,0.0,2.m4v,9.0
2024-02-28 11:20:44.989496,1709115644.9894958,-18.06640625,-31.73828125,-41.015625,-21.97265625,1.0,1.0,0.0,0.0,2.m4v,9.0
2024-02-28 11:20:44.993405,1709115644.993405,-21.97265625,-46.38671875,-27.83203125,-20.01953125,1.0,1.0,0.0,0.0,2.m4v,9.0
2024-02-28 11:20:44.997311,1709115644.997311,-26.3671875,-38.57421875,-16.6015625,-25.390625,1.0,1.0,0.0,0.0,2.m4v,9.0
2024-02-28 11:20:45.001217,1709115645.001217,-28.80859375,-19.04296875,-19.53125,-27.34375,1.0,1.0,0.0,0.0,2.m4v,9.0
2024-02-28 11:20:45.005123,1709115645.005123,-38.57421875,-24.90234375,-31.73828125,-27.83203125,1.0,1.0,0.0,0.0,2.m4v,9.0
2024-02-28 11:20:45.009029,1709115645.009029,-30.2734375,-32.71484375,-33.203125,-21.484375,1.0,1.0,0.0,0.0,2.m4v,9.0
2024-02-28 11:20:45.012935,1709115645.0129347,-34.1796875,-28.80859375,-35.64453125,-27.83203125,1.0,1.0,0.0,0.0,2.m4v,9.0
2024-02-28 11:20:45.016840,1709115645.0168405,-42.96875,-37.109375,-34.66796875,-32.2265625,1.0,1.0,0.0,0.0,2.m4v,9.0
2024-02-28 11:20:45.020746,1709115645.0207465,-30.76171875,-32.2265625,-30.76171875,-26.85546875,1.0,1.0,0.0,0.0,2.m4v,9.0
2024-02-28 11:20:45.024652,1709115645.0246522,-27.83203125,-28.80859375,-37.109375,-29.296875,1.0,1.0,0.0,0.0,2.m4v,9.0
2024-02-28 11:20:45.028558,1709115645.0285585,-41.50390625,-28.80859375,-32.2265625,-36.62109375,1.0,1.0,0.0,0.0,2.m4v,9.0
2024-02-28 11:20:45.032464,1709115645.032464,-43.9453125,-33.69140625,-29.78515625,-42.48046875,1.0,1.0,0.0,0.0,2.m4v,9.0
2024-02-28 11:20:45.036370,1709115645.03637,-31.25,-41.015625,-34.66796875,-32.2265625,1.0,1.0,0.0,0.0,2.m4v,9.0
2024-02-28 11:20:45.040278,1709115645.0402784,-35.15625,-36.62109375,-36.1328125,-31.25,1.0,1.0,0.0,0.0,2.m4v,9.0
2024-02-28 11:20:45.044184,1709115645.0441844,-47.36328125,-20.99609375,-36.62109375,-42.48046875,1.0,1.0,0.0,0.0,2.m4v,9.0
2024-02-28 11:20:45.048090,1709115645.0480902,-45.41015625,-23.4375,-39.0625,-35.15625,1.0,1.0,0.0,0.0,2.m4v,9.0
2024-02-28 11:20:45.051996,1709115645.0519962,-36.62109375,-48.828125,-38.0859375,-29.78515625,1.0,1.0,0.0,0.0,2.m4v,9.0
2024-02-28 11:20:45.055902,1709115645.055902,-33.69140625,-44.43359375,-36.1328125,-35.64453125,1.0,1.0,0.0,0.0,2.m4v,9.0
2024-02-28 11:20:45.059808,1709115645.059808,-38.0859375,-21.97265625,-30.2734375,-38.57421875,1.0,1.0,0.0,0.0,2.m4v,9.0
2024-02-28 11:20:45.063714,1709115645.0637138,-45.41015625,-24.90234375,-31.73828125,-31.25,1.0,1.0,0.0,0.0,2.m4v,9.0
2024-02-28 11:20:45.075432,1709115645.0754316,-47.8515625,-44.921875,-23.92578125,-41.015625,1.0,1.0,0.0,0.0,2.m4v,9.0
2024-02-28 11:20:45.087151,1709115645.0871513,-31.73828125,-28.3203125,-26.85546875,-36.62109375,1.0,1.0,0.0,0.0,2.m4v,9.0
2024-02-28 11:20:45.094963,1709115645.094963,-12.20703125,-26.85546875,-19.53125,-35.64453125,1.0,1.0,0.0,0.0,2.m4v,9.0
2024-02-28 11:20:45.106681,1709115645.1066809,-30.2734375,-13.18359375,-32.71484375,-36.1328125,1.0,1.0,0.0,0.0,2.m4v,9.0
2024-02-28 11:20:45.118398,1709115645.1183984,-35.64453125,-23.92578125,-37.59765625,-38.0859375,1.0,1.0,0.0,0.0,2.m4v,9.0
2024-02-28 11:20:45.126210,1709115645.1262102,-26.3671875,-36.62109375,-28.80859375,-39.55078125,1.0,1.0,0.0,0.0,2.m4v,9.0
2024-02-28 11:20:45.137930,1709115645.13793,-39.0625,-27.83203125,-28.80859375,-39.55078125,1.0,1.0,0.0,0.0,2.m4v,9.0
2024-02-28 11:20:45.149647,1709115645.1496477,-45.41015625,-42.96875,-10.25390625,-51.7578125,1.0,1.0,0.0,0.0,2.m4v,9.0
2024-02-28 11:20:45.157459,1709115645.1574593,-35.64453125,-49.8046875,-40.0390625,-39.0625,1.0,1.0,0.0,0.0,2.m4v,9.0
2024-02-28 11:20:45.169177,1709115645.169177,-46.38671875,-19.04296875,-52.734375,-47.36328125,1.0,1.0,0.0,0.0,2.m4v,9.0
2024-02-28 11:20:45.176989,1709115645.1769888,-24.4140625,-42.48046875,-28.3203125,-38.57421875,1.0,1.0,0.0,0.0,2.m4v,9.0
2024-02-28 11:20:45.188708,1709115645.1887076,-36.1328125,-19.53125,-28.80859375,-33.203125,1.0,1.0,0.0,0.0,2.m4v,9.0
2024-02-28 11:20:45.200425,1709115645.2004251,-45.41015625,-43.9453125,-33.69140625,-38.57421875,1.0,1.0,0.0,0.0,2.m4v,9.0
2024-02-28 11:20:45.208237,1709115645.208237,-43.45703125,-27.34375,-31.73828125,-39.55078125,1.0,1.0,0.0,0.0,2.m4v,9.0
2024-02-28 11:20:45.219955,1709115645.2199547,-25.87890625,-41.50390625,-34.1796875,-38.57421875,1.0,1.0,0.0,0.0,2.m4v,9.0
2024-02-28 11:20:45.231673,1709115645.231673,-50.29296875,-25.87890625,-27.83203125,-37.59765625,1.0,1.0,0.0,0.0,2.m4v,9.0
2024-02-28 11:20:45.239485,1709115645.2394848,-30.76171875,-22.94921875,-35.64453125,-35.64453125,1.0,1.0,0.0,0.0,2.m4v,9.0
2024-02-28 11:20:45.251202,1709115645.2512023,-30.76171875,-28.3203125,-35.64453125,-27.83203125,1.0,1.0,0.0,0.0,2.m4v,9.0
2024-02-28 11:20:45.259014,1709115645.259014,-36.1328125,-24.90234375,-39.0625,-38.0859375,1.0,1.0,0.0,0.0,2.m4v,9.0
2024-02-28 11:20:45.270732,1709115645.270732,-22.94921875,-43.9453125,-36.62109375,-25.390625,1.0,1.0,0.0,0.0,2.m4v,9.0
2024-02-28 11:20:45.282450,1709115645.2824495,-26.85546875,-23.92578125,-18.5546875,-47.8515625,1.0,1.0,0.0,0.0,2.m4v,9.0
2024-02-28 11:20:45.290262,1709115645.2902615,-48.33984375,-35.15625,-27.83203125,-42.48046875,1.0,1.0,0.0,0.0,2.m4v,9.0
2024-02-28 11:20:45.301979,1709115645.301979,-35.15625,-12.6953125,-30.76171875,-35.64453125,1.0,1.0,0.0,0.0,2.m4v,9.0
2024-02-28 11:20:45.309791,1709115645.3097908,-22.4609375,-36.62109375,-34.1796875,-34.66796875,1.0,1.0,0.0,0.0,2.m4v,9.0
2024-02-28 11:20:45.321508,1709115645.3215082,-28.3203125,-32.2265625,-25.390625,-23.4375,1.0,1.0,0.0,0.0,2.m4v,9.0
2024-02-28 11:20:45.333226,1709115645.333226,-41.015625,-32.71484375,-49.8046875,-40.0390625,1.0,1.0,0.0,0.0,2.m4v,9.0
2024-02-28 11:20:45.341038,1709115645.3410378,-37.109375,-15.625,-35.15625,-36.62109375,1.0,1.0,0.0,0.0,2.m4v,9.0
2024-02-28 11:20:45.567587,1709115645.5675871,-37.59765625,-27.34375,-36.1328125,-27.83203125,1.0,1.0,0.0,0.0,2.m4v,9.0
2024-02-28 11:20:45.579305,1709115645.5793047,-26.3671875,-20.01953125,-24.90234375,-25.390625,1.0,1.0,0.0,0.0,2.m4v,9.0
2024-02-28 11:20:45.587116,1709115645.5871165,-36.62109375,-41.015625,-31.73828125,-28.3203125,1.0,1.0,0.0,0.0,2.m4v,9.0
2024-02-28 11:20:45.598834,1709115645.5988345,-26.85546875,-15.625,-33.203125,-37.59765625,1.0,1.0,0.0,0.0,2.m4v,9.0
2024-02-28 11:20:45.606647,1709115645.6066463,-40.0390625,-30.76171875,-33.69140625,-26.3671875,1.0,1.0,0.0,0.0,2.m4v,9.0
2024-02-28 11:20:45.618364,1709115645.6183643,-38.0859375,-20.01953125,-27.34375,-33.69140625,1.0,1.0,0.0,0.0,2.m4v,9.0
2024-02-28 11:20:45.630082,1709115645.630082,-47.36328125,-39.0625,-57.6171875,-49.8046875,1.0,1.0,0.0,0.0,2.m4v,9.0
2024-02-28 11:20:45.637894,1709115645.6378937,-38.0859375,-49.31640625,-27.34375,-41.9921875,1.0,1.0,0.0,0.0,2.m4v,9.0
2024-02-28 11:20:45.649611,1709115645.6496117,-36.62109375,-24.4140625,-36.62109375,-39.0625,1.0,1.0,0.0,0.0,2.m4v,9.0
2024-02-28 11:20:45.661329,1709115645.6613293,-14.6484375,-46.875,-32.71484375,-27.34375,1.0,1.0,0.0,0.0,2.m4v,9.0
2024-02-28 11:20:45.669141,1709115645.669141,-38.57421875,-19.53125,-36.62109375,-31.73828125,1.0,1.0,0.0,0.0,2.m4v,9.0
2024-02-28 11:20:45.680859,1709115645.6808586,-49.8046875,-33.203125,-43.45703125,-47.8515625,1.0,1.0,0.0,0.0,2.m4v,9.0
2024-02-28 11:20:45.688670,1709115645.6886704,-63.4765625,-20.5078125,-61.03515625,-56.15234375,1.0,1.0,0.0,0.0,2.m4v,9.0
2024-02-28 11:20:45.700388,1709115645.7003877,-47.8515625,-41.9921875,-35.64453125,-53.7109375,1.0,1.0,0.0,0.0,2.m4v,9.0
2024-02-28 11:20:45.712106,1709115645.7121055,-41.015625,-19.53125,-29.78515625,-43.9453125,1.0,1.0,0.0,0.0,2.m4v,9.0
2024-02-28 11:20:45.719917,1709115645.7199173,-48.33984375,-20.99609375,-44.43359375,-44.43359375,1.0,1.0,0.0,0.0,2.m4v,9.0
2024-02-28 11:20:45.731635,1709115645.7316349,-42.48046875,-35.64453125,-49.31640625,-45.8984375,1.0,1.0,0.0,0.0,2.m4v,9.0
2024-02-28 11:20:45.739447,1709115645.7394466,-40.0390625,-22.4609375,-40.52734375,-43.45703125,1.0,1.0,0.0,0.0,2.m4v,9.0
2024-02-28 11:20:45.751164,1709115645.7511635,-35.64453125,-33.69140625,-38.0859375,-24.4140625,1.0,1.0,0.0,0.0,2.m4v,9.0
2024-02-28 11:20:45.751164,1709115645.7511635,-35.64453125,-33.69140625,-38.0859375,-24.4140625,1.0,1.0,0.0,0.0,2.m4v,9.0
2024-02-28 11:20:45.762881,1709115645.7628813,-30.2734375,-29.78515625,-40.0390625,-33.69140625,1.0,1.0,0.0,0.0,2.m4v,9.0
2024-02-28 11:20:45.762881,1709115645.7628813,-30.2734375,-29.78515625,-40.0390625,-33.69140625,1.0,1.0,0.0,0.0,2.m4v,9.0
2024-02-28 11:20:45.770693,1709115645.770693,-29.296875,-42.96875,-34.66796875,-41.015625,1.0,1.0,0.0,0.0,2.m4v,9.0
2024-02-28 11:20:45.770693,1709115645.770693,-29.296875,-42.96875,-34.66796875,-41.015625,1.0,1.0,0.0,0.0,2.m4v,9.0
2024-02-28 11:20:45.782411,1709115645.7824109,-26.3671875,-25.87890625,-31.73828125,-30.76171875,1.0,1.0,0.0,0.0,2.m4v,9.0
2024-02-28 11:20:45.782411,1709115645.7824109,-26.3671875,-25.87890625,-31.73828125,-30.76171875,1.0,1.0,0.0,0.0,2.m4v,9.0
2024-02-28 11:20:45.786317,1709115645.7863166,-27.34375,-17.08984375,-41.015625,-29.296875,1.0,1.0,0.0,0.0,2.m4v,9.0
2024-02-28 11:20:45.790226,1709115645.7902255,-28.80859375,-20.99609375,-34.1796875,-38.0859375,1.0,1.0,0.0,0.0,2.m4v,9.0
2024-02-28 11:20:45.794131,1709115645.7941313,-35.64453125,-37.109375,-26.85546875,-36.1328125,1.0,1.0,0.0,0.0,2.m4v,9.0
2024-02-28 11:20:45.798037,1709115645.7980373,-38.57421875,-50.78125,-43.9453125,-33.69140625,1.0,1.0,0.0,0.0,2.m4v,9.0
2024-02-28 11:20:45.801943,1709115645.801943,-41.015625,-49.8046875,-49.31640625,-41.9921875,1.0,1.0,0.0,0.0,2.m4v,9.0
2024-02-28 11:20:45.805849,1709115645.805849,-38.0859375,-30.76171875,-36.62109375,-45.8984375,1.0,1.0,0.0,0.0,2.m4v,9.0
2024-02-28 11:20:45.809755,1709115645.8097548,-36.62109375,-29.78515625,-26.85546875,-32.2265625,1.0,1.0,0.0,0.0,2.m4v,9.0
2024-02-28 11:20:45.813661,1709115645.8136609,-37.59765625,-33.69140625,-28.3203125,-35.15625,1.0,1.0,0.0,0.0,2.m4v,9.0
2024-02-28 11:20:45.817567,1709115645.8175669,-35.15625,-27.83203125,-41.015625,-41.50390625,1.0,1.0,0.0,0.0,2.m4v,9.0
2024-02-28 11:20:45.821473,1709115645.8214726,-41.015625,-37.59765625,-54.6875,-39.55078125,1.0,1.0,0.0,0.0,2.m4v,9.0
2024-02-28 11:20:45.825379,1709115645.825379,-58.59375,-45.41015625,-48.828125,-44.43359375,1.0,1.0,0.0,0.0,2.m4v,9.0
2024-02-28 11:20:45.829284,1709115645.8292844,-57.6171875,-34.66796875,-35.64453125,-40.0390625,1.0,1.0,0.0,0.0,2.m4v,9.0
2024-02-28 11:20:45.833190,1709115645.8331904,-41.015625,-20.99609375,-34.1796875,-37.109375,1.0,1.0,0.0,0.0,2.m4v,9.0
2024-02-28 11:20:45.837098,1709115645.8370984,-40.0390625,-20.99609375,-35.64453125,-41.015625,1.0,1.0,0.0,0.0,2.m4v,9.0
2024-02-28 11:20:45.841004,1709115645.841004,-49.31640625,-29.296875,-41.015625,-47.36328125,1.0,1.0,0.0,0.0,2.m4v,9.0
2024-02-28 11:20:45.844910,1709115645.84491,-45.41015625,-36.1328125,-33.203125,-41.50390625,1.0,1.0,0.0,0.0,2.m4v,9.0
2024-02-28 11:20:45.848816,1709115645.848816,-39.0625,-36.62109375,-30.2734375,-32.2265625,1.0,1.0,0.0,0.0,2.m4v,9.0
2024-02-28 11:20:45.852722,1709115645.852722,-39.55078125,-41.015625,-41.9921875,-35.15625,1.0,1.0,0.0,0.0,2.m4v,9.0
2024-02-28 11:20:45.856628,1709115645.8566277,-36.1328125,-32.2265625,-41.9921875,-35.15625,1.0,1.0,0.0,0.0,2.m4v,9.0
2024-02-28 11:20:45.860534,1709115645.8605337,-35.15625,-31.73828125,-39.0625,-36.1328125,1.0,1.0,0.0,0.0,2.m4v,9.0
2024-02-28 11:20:45.864439,1709115645.8644395,-28.3203125,-40.0390625,-43.45703125,-32.71484375,1.0,1.0,0.0,0.0,2.m4v,9.0
2024-02-28 11:20:45.868345,1709115645.8683455,-19.53125,-27.34375,-39.55078125,-32.2265625,1.0,1.0,0.0,0.0,2.m4v,9.0
2024-02-28 11:20:45.872251,1709115645.8722513,-15.625,-19.53125,-31.25,-30.76171875,1.0,1.0,0.0,0.0,2.m4v,9.0
2024-02-28 11:20:45.876157,1709115645.8761573,-18.06640625,-23.92578125,-20.01953125,-22.94921875,1.0,1.0,0.0,0.0,2.m4v,9.0
2024-02-28 11:20:45.880063,1709115645.880063,-30.2734375,-35.64453125,-22.94921875,-27.83203125,1.0,1.0,0.0,0.0,2.m4v,9.0
2024-02-28 11:20:45.883970,1709115645.8839705,-42.48046875,-34.66796875,-27.83203125,-34.66796875,1.0,1.0,0.0,0.0,2.m4v,9.0
2024-02-28 11:20:45.887877,1709115645.8878765,-39.55078125,-22.94921875,-16.6015625,-31.73828125,1.0,1.0,0.0,0.0,2.m4v,9.0
2024-02-28 11:20:45.891782,1709115645.8917823,-37.109375,-22.4609375,-16.11328125,-34.66796875,1.0,1.0,0.0,0.0,2.m4v,9.0
2024-02-28 11:20:45.895688,1709115645.8956883,-42.96875,-36.62109375,-20.01953125,-40.0390625,1.0,1.0,0.0,0.0,2.m4v,9.0
2024-02-28 11:20:45.899594,1709115645.899594,-37.109375,-35.15625,-17.578125,-39.0625,1.0,1.0,0.0,0.0,2.m4v,9.0
2024-02-28 11:20:45.903500,1709115645.9035,-26.85546875,-17.578125,-28.3203125,-29.296875,1.0,1.0,0.0,0.0,2.m4v,9.0
2024-02-28 11:20:45.907406,1709115645.907406,-33.69140625,-21.97265625,-35.15625,-23.92578125,1.0,1.0,0.0,0.0,2.m4v,9.0
2024-02-28 11:20:45.911312,1709115645.911312,-32.71484375,-34.66796875,-29.296875,-25.87890625,1.0,1.0,0.0,0.0,2.m4v,9.0
2024-02-28 11:20:45.915218,1709115645.9152176,-28.3203125,-29.296875,-30.76171875,-20.99609375,1.0,1.0,0.0,0.0,2.m4v,9.0
2024-02-28 11:20:45.919124,1709115645.9191236,-23.4375,-24.90234375,-33.203125,-24.4140625,1.0,1.0,0.0,0.0,2.m4v,9.0
2024-02-28 11:20:45.923029,1709115645.9230294,-23.92578125,-25.87890625,-20.5078125,-30.76171875,1.0,1.0,0.0,0.0,2.m4v,9.0
2024-02-28 11:20:45.926935,1709115645.9269354,-35.15625,-34.1796875,-18.5546875,-32.71484375,1.0,1.0,0.0,0.0,2.m4v,9.0
2024-02-28 11:20:45.930843,1709115645.9308426,-42.48046875,-41.9921875,-29.296875,-36.1328125,1.0,1.0,0.0,0.0,2.m4v,9.0
2024-02-28 11:20:45.934749,1709115645.9347486,-47.36328125,-37.109375,-23.4375,-41.9921875,1.0,1.0,0.0,0.0,2.m4v,9.0
2024-02-28 11:20:45.938654,1709115645.9386544,-43.9453125,-30.76171875,-27.83203125,-42.96875,1.0,1.0,0.0,0.0,2.m4v,9.0
2024-02-28 11:20:45.942560,1709115645.9425604,-34.66796875,-18.5546875,-29.296875,-38.0859375,1.0,1.0,0.0,0.0,2.m4v,9.0
2024-02-28 11:20:45.946466,1709115645.9464662,-21.484375,-19.04296875,-33.203125,-33.69140625,1.0,1.0,0.0,0.0,2.m4v,9.0
2024-02-28 11:20:45.950372,1709115645.9503722,-28.3203125,-37.109375,-35.64453125,-39.55078125,1.0,1.0,0.0,0.0,2.m4v,9.0
2024-02-28 11:20:45.954278,1709115645.954278,-28.80859375,-30.76171875,-19.53125,-41.50390625,1.0,1.0,0.0,0.0,2.m4v,9.0
2024-02-28 11:20:45.958184,1709115645.958184,-26.3671875,-29.78515625,-14.16015625,-40.52734375,1.0,1.0,0.0,0.0,2.m4v,9.0
2024-02-28 11:20:45.962090,1709115645.9620898,-31.73828125,-49.31640625,-29.296875,-35.64453125,1.0,1.0,0.0,0.0,2.m4v,9.0
2024-02-28 11:20:45.965996,1709115645.9659958,-24.4140625,-54.19921875,-42.48046875,-32.71484375,1.0,1.0,0.0,0.0,2.m4v,9.0
2024-02-28 11:20:45.969902,1709115645.9699016,-27.83203125,-37.59765625,-41.015625,-38.57421875,1.0,1.0,0.0,0.0,2.m4v,9.0
2024-02-28 11:20:45.973808,1709115645.9738076,-32.2265625,-14.16015625,-36.1328125,-39.55078125,1.0,1.0,0.0,0.0,2.m4v,9.0
2024-02-28 11:20:45.977714,1709115645.9777143,-25.87890625,-9.765625,-33.69140625,-55.17578125,1.0,1.0,0.0,0.0,2.m4v,9.0
2024-02-28 11:20:45.981620,1709115645.98162,-28.3203125,-16.6015625,-30.2734375,-48.33984375,1.0,1.0,0.0,0.0,2.m4v,9.0
2024-02-28 11:20:45.985526,1709115645.985526,-42.48046875,-29.78515625,-31.25,-38.0859375,1.0,1.0,0.0,0.0,2.m4v,9.0
2024-02-28 11:20:45.989432,1709115645.989432,-36.62109375,-38.57421875,-34.1796875,-37.59765625,1.0,1.0,0.0,0.0,2.m4v,9.0
2024-02-28 11:20:45.993338,1709115645.993338,-26.85546875,-32.2265625,-28.80859375,-37.109375,1.0,1.0,0.0,0.0,2.m4v,9.0
2024-02-28 11:20:45.997244,1709115645.9972436,-19.04296875,-21.97265625,-30.76171875,-37.109375,1.0,1.0,0.0,0.0,2.m4v,9.0
2024-02-28 11:20:46.001150,1709115646.0011497,-17.08984375,-21.97265625,-41.50390625,-25.390625,1.0,1.0,0.0,0.0,2.m4v,9.0
2024-02-28 11:20:46.005055,1709115646.0050554,-29.78515625,-33.203125,-40.52734375,-27.83203125,1.0,1.0,0.0,0.0,2.m4v,9.0
2024-02-28 11:20:46.008961,1709115646.0089614,-30.2734375,-30.2734375,-35.15625,-37.109375,1.0,1.0,0.0,0.0,2.m4v,9.0
2024-02-28 11:20:46.012867,1709115646.0128672,-25.87890625,-20.5078125,-22.94921875,-30.2734375,1.0,1.0,0.0,0.0,2.m4v,9.0
2024-02-28 11:20:46.016773,1709115646.0167732,-29.296875,-44.921875,-18.06640625,-34.1796875,1.0,1.0,0.0,0.0,2.m4v,9.0
2024-02-28 11:20:46.020679,1709115646.020679,-34.66796875,-64.453125,-30.76171875,-43.45703125,1.0,1.0,0.0,0.0,2.m4v,9.0
2024-02-28 11:20:46.024585,1709115646.024585,-35.64453125,-52.24609375,-31.25,-41.9921875,1.0,1.0,0.0,0.0,2.m4v,9.0
2024-02-28 11:20:46.028491,1709115646.028491,-41.015625,-39.0625,-29.296875,-39.55078125,1.0,1.0,0.0,0.0,2.m4v,9.0
2024-02-28 11:20:46.032397,1709115646.0323968,-30.76171875,-23.4375,-33.69140625,-35.15625,1.0,1.0,0.0,0.0,2.m4v,9.0
2024-02-28 11:20:46.036303,1709115646.0363028,-31.25,-16.6015625,-44.921875,-40.52734375,1.0,1.0,0.0,0.0,2.m4v,9.0
2024-02-28 11:20:46.040209,1709115646.0402086,-41.50390625,-20.5078125,-39.0625,-48.828125,1.0,1.0,0.0,0.0,2.m4v,9.0
2024-02-28 11:20:46.044115,1709115646.0441146,-39.55078125,-20.5078125,-31.73828125,-42.48046875,1.0,1.0,0.0,0.0,2.m4v,9.0
2024-02-28 11:20:46.048020,1709115646.0480204,-37.59765625,-32.2265625,-27.34375,-35.64453125,1.0,1.0,0.0,0.0,2.m4v,9.0
2024-02-28 11:20:46.051926,1709115646.0519264,-24.90234375,-29.78515625,-13.18359375,-31.25,1.0,1.0,0.0,0.0,2.m4v,9.0
2024-02-28 11:20:46.055832,1709115646.055832,-22.94921875,-23.92578125,-17.08984375,-28.80859375,1.0,1.0,0.0,0.0,2.m4v,9.0
2024-02-28 11:20:46.059738,1709115646.0597382,-21.97265625,-34.66796875,-29.296875,-40.0390625,1.0,1.0,0.0,0.0,2.m4v,9.0
2024-02-28 11:20:46.063644,1709115646.063644,-30.2734375,-30.76171875,-40.52734375,-40.52734375,1.0,1.0,0.0,0.0,2.m4v,9.0
2024-02-28 11:20:46.067550,1709115646.06755,-44.921875,-27.34375,-40.0390625,-26.3671875,1.0,1.0,0.0,0.0,2.m4v,9.0
2024-02-28 11:20:46.071459,1709115646.0714593,-32.2265625,-30.2734375,-30.2734375,-23.92578125,1.0,1.0,0.0,0.0,2.m4v,9.0
2024-02-28 11:20:46.075365,1709115646.0753653,-17.08984375,-36.1328125,-29.78515625,-29.296875,1.0,1.0,0.0,0.0,2.m4v,9.0
2024-02-28 11:20:46.079271,1709115646.079271,-21.484375,-33.203125,-31.25,-32.2265625,1.0,1.0,0.0,0.0,2.m4v,9.0
2024-02-28 11:20:46.083177,1709115646.083177,-29.78515625,-41.50390625,-42.96875,-34.66796875,1.0,1.0,0.0,0.0,2.m4v,9.0
2024-02-28 11:20:46.087083,1709115646.0870829,-28.80859375,-41.9921875,-50.78125,-31.25,1.0,1.0,0.0,0.0,2.m4v,9.0
2024-02-28 11:20:46.090989,1709115646.0909889,-29.78515625,-18.06640625,-35.15625,-24.4140625,1.0,1.0,0.0,0.0,2.m4v,9.0
2024-02-28 11:20:46.094895,1709115646.0948946,-28.3203125,-13.671875,-25.87890625,-23.92578125,1.0,1.0,0.0,0.0,2.m4v,9.0
2024-02-28 11:20:46.098801,1709115646.098801,-32.2265625,-35.15625,-33.69140625,-31.25,1.0,1.0,0.0,0.0,2.m4v,9.0
2024-02-28 11:20:46.102706,1709115646.1027064,-31.73828125,-31.73828125,-31.25,-32.71484375,1.0,1.0,0.0,0.0,2.m4v,9.0
2024-02-28 11:20:46.106612,1709115646.1066124,-26.85546875,-33.69140625,-29.78515625,-30.76171875,1.0,1.0,0.0,0.0,2.m4v,9.0
2024-02-28 11:20:46.110518,1709115646.1105182,-21.97265625,-49.8046875,-30.76171875,-32.71484375,1.0,1.0,0.0,0.0,2.m4v,9.0
2024-02-28 11:20:46.114424,1709115646.1144242,-25.390625,-56.640625,-28.80859375,-40.52734375,1.0,1.0,0.0,0.0,2.m4v,9.0
2024-02-28 11:20:46.118329,1709115646.1183293,-37.59765625,-58.59375,-23.92578125,-46.875,1.0,1.0,0.0,0.0,2.m4v,9.0
2024-02-28 11:20:46.122235,1709115646.1222353,-30.76171875,-37.59765625,-31.73828125,-45.41015625,1.0,1.0,0.0,0.0,2.m4v,9.0
2024-02-28 11:20:46.126141,1709115646.126141,-33.203125,-11.71875,-44.43359375,-45.8984375,1.0,1.0,0.0,0.0,2.m4v,9.0
2024-02-28 11:20:46.130047,1709115646.130047,-41.50390625,-1.953125,-35.64453125,-40.0390625,1.0,1.0,0.0,0.0,2.m4v,9.0
2024-02-28 11:20:46.133953,1709115646.1339529,-33.203125,-13.671875,-33.203125,-29.78515625,1.0,1.0,0.0,0.0,2.m4v,9.0
2024-02-28 11:20:46.137859,1709115646.1378589,-37.59765625,-18.06640625,-35.15625,-30.2734375,1.0,1.0,0.0,0.0,2.m4v,9.0
2024-02-28 11:20:46.141765,1709115646.1417646,-40.0390625,-26.3671875,-35.15625,-32.2265625,1.0,1.0,0.0,0.0,2.m4v,9.0
2024-02-28 11:20:46.145671,1709115646.145671,-34.1796875,-40.0390625,-36.62109375,-26.3671875,1.0,1.0,0.0,0.0,2.m4v,9.0
2024-02-28 11:20:46.149576,1709115646.1495764,-28.3203125,-36.1328125,-27.34375,-26.3671875,1.0,1.0,0.0,0.0,2.m4v,9.0
2024-02-28 11:20:46.153482,1709115646.1534824,-27.34375,-34.1796875,-24.90234375,-29.296875,1.0,1.0,0.0,0.0,2.m4v,9.0
2024-02-28 11:20:46.157388,1709115646.1573882,-36.62109375,-33.203125,-18.06640625,-32.2265625,1.0,1.0,0.0,0.0,2.m4v,9.0
2024-02-28 11:20:46.161294,1709115646.1612942,-35.15625,-36.62109375,-14.16015625,-37.59765625,1.0,1.0,0.0,0.0,2.m4v,9.0
2024-02-28 11:20:46.165203,1709115646.1652026,-28.3203125,-44.43359375,-24.4140625,-33.69140625,1.0,1.0,0.0,0.0,2.m4v,9.0
2024-02-28 11:20:46.169109,1709115646.1691086,-27.83203125,-41.50390625,-27.83203125,-19.53125,1.0,1.0,0.0,0.0,2.m4v,9.0
2024-02-28 11:20:46.173014,1709115646.1730144,-25.390625,-35.15625,-32.71484375,-17.578125,1.0,1.0,0.0,0.0,2.m4v,9.0
2024-02-28 11:20:46.176920,1709115646.1769204,-31.25,-20.5078125,-34.1796875,-32.71484375,1.0,1.0,0.0,0.0,2.m4v,9.0
2024-02-28 11:20:46.180826,1709115646.1808262,-41.50390625,-11.23046875,-31.73828125,-43.9453125,1.0,1.0,0.0,0.0,2.m4v,9.0
2024-02-28 11:20:46.184732,1709115646.1847322,-38.0859375,-20.5078125,-36.62109375,-34.66796875,1.0,1.0,0.0,0.0,2.m4v,9.0
2024-02-28 11:20:46.188638,1709115646.188638,-25.390625,-27.83203125,-34.66796875,-27.83203125,1.0,1.0,0.0,0.0,2.m4v,9.0
2024-02-28 11:20:46.192544,1709115646.192544,-31.25,-33.69140625,-28.3203125,-29.78515625,1.0,1.0,0.0,0.0,2.m4v,9.0
2024-02-28 11:20:46.196450,1709115646.1964498,-33.203125,-49.8046875,-37.109375,-35.15625,1.0,1.0,0.0,0.0,2.m4v,9.0
2024-02-28 11:20:46.200356,1709115646.2003558,-28.80859375,-50.29296875,-46.38671875,-32.71484375,1.0,1.0,0.0,0.0,2.m4v,9.0
2024-02-28 11:20:46.204262,1709115646.2042615,-33.69140625,-47.8515625,-35.15625,-34.66796875,1.0,1.0,0.0,0.0,2.m4v,9.0
2024-02-28 11:20:46.208168,1709115646.2081676,-31.73828125,-41.50390625,-30.76171875,-40.0390625,1.0,1.0,0.0,0.0,2.m4v,9.0
2024-02-28 11:20:46.212076,1709115646.2120757,-21.97265625,-29.78515625,-35.64453125,-36.1328125,1.0,1.0,0.0,0.0,2.m4v,9.0
2024-02-28 11:20:46.215982,1709115646.2159815,-21.484375,-23.92578125,-52.734375,-40.0390625,1.0,1.0,0.0,0.0,2.m4v,9.0
2024-02-28 11:20:46.219887,1709115646.2198875,-33.69140625,-20.01953125,-54.6875,-41.50390625,1.0,1.0,0.0,0.0,2.m4v,9.0
2024-02-28 11:20:46.223794,1709115646.2237935,-46.875,-24.4140625,-34.1796875,-42.96875,1.0,1.0,0.0,0.0,2.m4v,9.0
2024-02-28 11:20:46.227699,1709115646.2276993,-46.38671875,-22.94921875,-27.83203125,-39.55078125,1.0,1.0,0.0,0.0,2.m4v,9.0
2024-02-28 11:20:46.231605,1709115646.2316053,-33.69140625,-22.4609375,-28.3203125,-29.296875,1.0,1.0,0.0,0.0,2.m4v,9.0
2024-02-28 11:20:46.235511,1709115646.235511,-37.59765625,-45.8984375,-26.3671875,-37.59765625,1.0,1.0,0.0,0.0,2.m4v,9.0
2024-02-28 11:20:46.239417,1709115646.239417,-37.59765625,-61.03515625,-20.5078125,-45.8984375,1.0,1.0,0.0,0.0,2.m4v,9.0
2024-02-28 11:20:46.243323,1709115646.2433228,-27.83203125,-50.29296875,-28.80859375,-35.64453125,1.0,1.0,0.0,0.0,2.m4v,9.0
2024-02-28 11:20:46.247229,1709115646.2472289,-28.3203125,-34.1796875,-31.25,-31.25,1.0,1.0,0.0,0.0,2.m4v,9.0
2024-02-28 11:20:46.251135,1709115646.2511346,-28.80859375,-15.13671875,-25.390625,-33.203125,1.0,1.0,0.0,0.0,2.m4v,9.0
2024-02-28 11:20:46.255041,1709115646.2550406,-40.52734375,-26.3671875,-42.48046875,-39.55078125,1.0,1.0,0.0,0.0,2.m4v,9.0
2024-02-28 11:20:46.258948,1709115646.258948,-46.875,-39.0625,-60.546875,-43.45703125,1.0,1.0,0.0,0.0,2.m4v,9.0
2024-02-28 11:20:46.262854,1709115646.262854,-42.48046875,-34.1796875,-53.7109375,-36.1328125,1.0,1.0,0.0,0.0,2.m4v,9.0
2024-02-28 11:20:46.266760,1709115646.26676,-49.8046875,-37.109375,-34.66796875,-39.55078125,1.0,1.0,0.0,0.0,2.m4v,9.0
2024-02-28 11:20:46.270666,1709115646.270666,-46.875,-20.01953125,-37.59765625,-43.45703125,1.0,1.0,0.0,0.0,2.m4v,9.0
2024-02-28 11:20:46.274572,1709115646.2745717,-26.85546875,-6.8359375,-44.921875,-38.57421875,1.0,1.0,0.0,0.0,2.m4v,9.0
2024-02-28 11:20:46.278478,1709115646.2784777,-35.15625,-18.5546875,-32.2265625,-41.015625,1.0,1.0,0.0,0.0,2.m4v,9.0
2024-02-28 11:20:46.282383,1709115646.2823834,-50.78125,-37.109375,-40.0390625,-47.36328125,1.0,1.0,0.0,0.0,2.m4v,9.0
2024-02-28 11:20:46.286289,1709115646.2862897,-53.22265625,-36.62109375,-49.31640625,-44.43359375,1.0,1.0,0.0,0.0,2.m4v,9.0
2024-02-28 11:20:46.290195,1709115646.2901952,-49.31640625,-26.3671875,-42.96875,-38.0859375,1.0,1.0,0.0,0.0,2.m4v,9.0
2024-02-28 11:20:46.294101,1709115646.2941012,-42.96875,-40.52734375,-42.96875,-44.921875,1.0,1.0,0.0,0.0,2.m4v,9.0
2024-02-28 11:20:46.298007,1709115646.298007,-28.80859375,-46.38671875,-30.2734375,-42.48046875,1.0,1.0,0.0,0.0,2.m4v,9.0
2024-02-28 11:20:46.301913,1709115646.301913,-29.296875,-37.59765625,-17.578125,-37.59765625,1.0,1.0,0.0,0.0,2.m4v,9.0
2024-02-28 11:20:46.305820,1709115646.30582,-41.9921875,-42.96875,-19.04296875,-29.78515625,1.0,1.0,0.0,0.0,2.m4v,9.0
2024-02-28 11:20:46.309726,1709115646.309726,-33.69140625,-48.828125,-29.78515625,-28.80859375,1.0,1.0,0.0,0.0,2.m4v,9.0
2024-02-28 11:20:46.313632,1709115646.3136318,-25.87890625,-30.76171875,-39.0625,-33.69140625,1.0,1.0,0.0,0.0,2.m4v,9.0
2024-02-28 11:20:46.317538,1709115646.3175378,-30.2734375,-18.06640625,-49.8046875,-38.0859375,1.0,1.0,0.0,0.0,2.m4v,9.0
2024-02-28 11:20:46.321444,1709115646.3214436,-42.96875,-28.3203125,-52.24609375,-43.45703125,1.0,1.0,0.0,0.0,2.m4v,9.0
2024-02-28 11:20:46.325350,1709115646.3253496,-52.24609375,-37.59765625,-40.52734375,-45.8984375,1.0,1.0,0.0,0.0,2.m4v,9.0
2024-02-28 11:20:46.372221,1709115646.372221,-31.73828125,-29.78515625,-34.1796875,-33.69140625,1.0,1.0,0.0,0.0,2.m4v,9.0
2024-02-28 11:20:46.376127,1709115646.3761268,-17.578125,-38.0859375,-15.13671875,-33.203125,1.0,1.0,0.0,0.0,2.m4v,9.0
2024-02-28 11:20:46.380033,1709115646.3800328,-18.5546875,-48.33984375,-13.18359375,-32.71484375,1.0,1.0,0.0,0.0,2.m4v,9.0
2024-02-28 11:20:46.383939,1709115646.3839386,-34.1796875,-39.55078125,-13.671875,-31.25,1.0,1.0,0.0,0.0,2.m4v,9.0
2024-02-28 11:20:46.387845,1709115646.3878446,-45.41015625,-31.25,-22.4609375,-31.73828125,1.0,1.0,0.0,0.0,2.m4v,9.0
2024-02-28 11:20:46.391750,1709115646.3917503,-36.1328125,-33.69140625,-34.66796875,-33.203125,1.0,1.0,0.0,0.0,2.m4v,9.0
2024-02-28 11:20:46.395656,1709115646.3956563,-27.34375,-26.85546875,-40.52734375,-39.0625,1.0,1.0,0.0,0.0,2.m4v,9.0
2024-02-28 11:20:46.399563,1709115646.3995628,-29.296875,-15.625,-39.55078125,-32.71484375,1.0,1.0,0.0,0.0,2.m4v,9.0
2024-02-28 11:20:46.403469,1709115646.4034686,-33.203125,-41.015625,-41.50390625,-30.76171875,1.0,1.0,0.0,0.0,2.m4v,9.0
2024-02-28 11:20:46.407375,1709115646.4073746,-29.296875,-48.828125,-33.69140625,-25.390625,1.0,1.0,0.0,0.0,2.m4v,9.0
2024-02-28 11:20:46.411280,1709115646.4112804,-22.94921875,-41.50390625,-23.4375,-25.390625,1.0,1.0,0.0,0.0,2.m4v,9.0
2024-02-28 11:20:46.415186,1709115646.4151864,-31.73828125,-51.26953125,-31.25,-36.62109375,1.0,1.0,0.0,0.0,2.m4v,9.0
2024-02-28 11:20:46.419092,1709115646.4190924,-29.296875,-36.62109375,-31.73828125,-38.0859375,1.0,1.0,0.0,0.0,2.m4v,9.0
2024-02-28 11:20:46.422998,1709115646.4229982,-22.94921875,-28.3203125,-26.85546875,-33.69140625,1.0,1.0,0.0,0.0,2.m4v,9.0
2024-02-28 11:20:46.426904,1709115646.4269042,-34.66796875,-24.4140625,-26.3671875,-32.2265625,1.0,1.0,0.0,0.0,2.m4v,9.0
2024-02-28 11:20:46.430810,1709115646.43081,-36.62109375,-18.5546875,-29.78515625,-32.71484375,1.0,1.0,0.0,0.0,2.m4v,9.0
2024-02-28 11:20:46.434716,1709115646.434716,-31.73828125,-21.97265625,-33.203125,-34.1796875,1.0,1.0,0.0,0.0,2.m4v,9.0
2024-02-28 11:20:46.438622,1709115646.4386218,-31.25,-35.15625,-31.25,-33.69140625,1.0,1.0,0.0,0.0,2.m4v,9.0
2024-02-28 11:20:46.442528,1709115646.4425278,-30.76171875,-61.03515625,-32.2265625,-37.109375,1.0,1.0,0.0,0.0,2.m4v,9.0
2024-02-28 11:20:46.446434,1709115646.4464338,-34.1796875,-57.6171875,-25.87890625,-37.109375,1.0,1.0,0.0,0.0,2.m4v,9.0
2024-02-28 11:20:46.450340,1709115646.4503398,-39.55078125,-24.4140625,-27.83203125,-32.71484375,1.0,1.0,0.0,0.0,2.m4v,9.0
2024-02-28 11:20:46.454246,1709115646.4542456,-39.55078125,-10.25390625,-29.296875,-38.0859375,1.0,1.0,0.0,0.0,2.m4v,9.0
2024-02-28 11:20:46.458152,1709115646.4581516,-37.109375,-20.01953125,-21.484375,-41.9921875,1.0,1.0,0.0,0.0,2.m4v,9.0
2024-02-28 11:20:46.462057,1709115646.4620574,-40.52734375,-37.59765625,-18.5546875,-44.43359375,1.0,1.0,0.0,0.0,2.m4v,9.0
2024-02-28 11:20:46.465963,1709115646.4659634,-43.45703125,-40.0390625,-23.4375,-41.015625,1.0,1.0,0.0,0.0,2.m4v,9.0
2024-02-28 11:20:46.469869,1709115646.4698691,-30.76171875,-29.78515625,-22.94921875,-28.80859375,1.0,1.0,0.0,0.0,2.m4v,9.0
2024-02-28 11:20:46.473775,1709115646.4737751,-21.97265625,-33.69140625,-25.390625,-35.64453125,1.0,1.0,0.0,0.0,2.m4v,9.0
2024-02-28 11:20:46.477681,1709115646.477681,-29.78515625,-31.25,-38.57421875,-36.62109375,1.0,1.0,0.0,0.0,2.m4v,9.0
2024-02-28 11:20:46.481587,1709115646.481587,-27.83203125,-23.92578125,-41.015625,-35.15625,1.0,1.0,0.0,0.0,2.m4v,9.0
2024-02-28 11:20:46.485493,1709115646.4854927,-22.4609375,-29.78515625,-29.296875,-37.109375,1.0,1.0,0.0,0.0,2.m4v,9.0
2024-02-28 11:20:46.489399,1709115646.4893987,-25.390625,-26.85546875,-33.203125,-30.76171875,1.0,1.0,0.0,0.0,2.m4v,9.0
2024-02-28 11:20:46.493304,1709115646.4933035,-24.90234375,-24.90234375,-40.52734375,-37.59765625,1.0,1.0,0.0,0.0,2.m4v,9.0
2024-02-28 11:20:46.809690,1709115646.80969,-7.8125,-25.390625,-26.85546875,-32.71484375,1.0,1.0,0.0,0.0,2.m4v,9.0
2024-02-28 11:20:46.809690,1709115646.80969,-7.8125,-25.390625,-26.85546875,-32.71484375,1.0,1.0,0.0,0.0,2.m4v,9.0
2024-02-28 11:20:46.817502,1709115646.8175018,-33.69140625,-28.80859375,-35.64453125,-23.92578125,1.0,1.0,0.0,0.0,2.m4v,9.0
2024-02-28 11:20:46.817502,1709115646.8175018,-33.69140625,-28.80859375,-35.64453125,-23.92578125,1.0,1.0,0.0,0.0,2.m4v,9.0
2024-02-28 11:20:46.825314,1709115646.8253136,-38.0859375,-34.1796875,-30.2734375,-29.296875,1.0,1.0,0.0,0.0,2.m4v,9.0
2024-02-28 11:20:46.825314,1709115646.8253136,-38.0859375,-34.1796875,-30.2734375,-29.296875,1.0,1.0,0.0,0.0,2.m4v,9.0
2024-02-28 11:20:46.833125,1709115646.8331254,-36.62109375,-30.76171875,-36.62109375,-36.1328125,1.0,1.0,0.0,0.0,2.m4v,9.0
2024-02-28 11:20:46.833125,1709115646.8331254,-36.62109375,-30.76171875,-36.62109375,-36.1328125,1.0,1.0,0.0,0.0,2.m4v,9.0
2024-02-28 11:20:46.840937,1709115646.8409371,-33.203125,-45.8984375,-52.734375,-45.8984375,1.0,1.0,0.0,0.0,2.m4v,9.0
2024-02-28 11:20:46.840937,1709115646.8409371,-33.203125,-45.8984375,-52.734375,-45.8984375,1.0,1.0,0.0,0.0,2.m4v,9.0
2024-02-28 11:20:46.848749,1709115646.848749,-46.38671875,-46.38671875,-37.109375,-40.52734375,1.0,1.0,0.0,0.0,2.m4v,9.0
2024-02-28 11:20:46.848749,1709115646.848749,-46.38671875,-46.38671875,-37.109375,-40.52734375,1.0,1.0,0.0,0.0,2.m4v,9.0
2024-02-28 11:20:46.856561,1709115646.8565607,-35.64453125,-32.2265625,-23.92578125,-40.0390625,1.0,1.0,0.0,0.0,2.m4v,9.0
2024-02-28 11:20:46.856561,1709115646.8565607,-35.64453125,-32.2265625,-23.92578125,-40.0390625,1.0,1.0,0.0,0.0,2.m4v,9.0
2024-02-28 11:20:46.864372,1709115646.8643725,-20.99609375,-26.85546875,-37.59765625,-32.2265625,1.0,1.0,0.0,0.0,2.m4v,9.0
2024-02-28 11:20:46.864372,1709115646.8643725,-20.99609375,-26.85546875,-37.59765625,-32.2265625,1.0,1.0,0.0,0.0,2.m4v,9.0
2024-02-28 11:20:46.872184,1709115646.872184,-37.109375,-53.7109375,-43.45703125,-26.3671875,1.0,1.0,0.0,0.0,2.m4v,9.0
2024-02-28 11:20:46.872184,1709115646.872184,-37.109375,-53.7109375,-43.45703125,-26.3671875,1.0,1.0,0.0,0.0,2.m4v,9.0
2024-02-28 11:20:46.879996,1709115646.8799958,-23.4375,-49.31640625,-31.73828125,-24.4140625,1.0,1.0,0.0,0.0,2.m4v,9.0
2024-02-28 11:20:46.879996,1709115646.8799958,-23.4375,-49.31640625,-31.73828125,-24.4140625,1.0,1.0,0.0,0.0,2.m4v,9.0
2024-02-28 11:20:46.887808,1709115646.8878076,-41.9921875,-15.625,-38.57421875,-35.15625,1.0,1.0,0.0,0.0,2.m4v,9.0
2024-02-28 11:20:46.887808,1709115646.8878076,-41.9921875,-15.625,-38.57421875,-35.15625,1.0,1.0,0.0,0.0,2.m4v,9.0
2024-02-28 11:20:46.895619,1709115646.8956194,-37.59765625,-28.80859375,-34.66796875,-36.1328125,1.0,1.0,0.0,0.0,2.m4v,9.0
2024-02-28 11:20:46.895619,1709115646.8956194,-37.59765625,-28.80859375,-34.66796875,-36.1328125,1.0,1.0,0.0,0.0,2.m4v,9.0
2024-02-28 11:20:46.903431,1709115646.9034312,-36.62109375,-41.015625,-28.80859375,-28.80859375,1.0,1.0,0.0,0.0,2.m4v,9.0
2024-02-28 11:20:46.903431,1709115646.9034312,-36.62109375,-41.015625,-28.80859375,-28.80859375,1.0,1.0,0.0,0.0,2.m4v,9.0
2024-02-28 11:20:46.911243,1709115646.911243,-26.3671875,-36.1328125,-25.390625,-25.390625,1.0,1.0,0.0,0.0,2.m4v,9.0
2024-02-28 11:20:46.911243,1709115646.911243,-26.3671875,-36.1328125,-25.390625,-25.390625,1.0,1.0,0.0,0.0,2.m4v,9.0
2024-02-28 11:20:46.919057,1709115646.9190574,-42.96875,-39.55078125,-41.015625,-35.15625,1.0,1.0,0.0,0.0,2.m4v,9.0
2024-02-28 11:20:46.919057,1709115646.9190574,-42.96875,-39.55078125,-41.015625,-35.15625,1.0,1.0,0.0,0.0,2.m4v,9.0
2024-02-28 11:20:46.926869,1709115646.9268692,-24.90234375,-26.85546875,-21.97265625,-36.62109375,1.0,1.0,0.0,0.0,2.m4v,9.0
2024-02-28 11:20:46.926869,1709115646.9268692,-24.90234375,-26.85546875,-21.97265625,-36.62109375,1.0,1.0,0.0,0.0,2.m4v,9.0
2024-02-28 11:20:46.934681,1709115646.934681,-26.3671875,-23.92578125,-17.578125,-15.625,1.0,1.0,0.0,0.0,2.m4v,9.0
2024-02-28 11:20:46.934681,1709115646.934681,-26.3671875,-23.92578125,-17.578125,-15.625,1.0,1.0,0.0,0.0,2.m4v,9.0
2024-02-28 11:20:46.942493,1709115646.9424927,-32.2265625,-56.15234375,-23.92578125,-38.57421875,1.0,1.0,0.0,0.0,2.m4v,9.0
2024-02-28 11:20:46.942493,1709115646.9424927,-32.2265625,-56.15234375,-23.92578125,-38.57421875,1.0,1.0,0.0,0.0,2.m4v,9.0
2024-02-28 11:20:46.950305,1709115646.9503045,-50.78125,-30.2734375,-41.015625,-36.62109375,1.0,1.0,0.0,0.0,2.m4v,9.0
2024-02-28 11:20:46.950305,1709115646.9503045,-50.78125,-30.2734375,-41.015625,-36.62109375,1.0,1.0,0.0,0.0,2.m4v,9.0
2024-02-28 11:20:46.958116,1709115646.9581163,-37.59765625,-31.25,-33.203125,-36.1328125,1.0,1.0,0.0,0.0,2.m4v,9.0
2024-02-28 11:20:46.958116,1709115646.9581163,-37.59765625,-31.25,-33.203125,-36.1328125,1.0,1.0,0.0,0.0,2.m4v,9.0
2024-02-28 11:20:46.965930,1709115646.9659302,-35.15625,-28.80859375,-22.94921875,-35.15625,1.0,1.0,0.0,0.0,2.m4v,9.0
2024-02-28 11:20:46.965930,1709115646.9659302,-35.15625,-28.80859375,-22.94921875,-35.15625,1.0,1.0,0.0,0.0,2.m4v,9.0
2024-02-28 11:20:46.973742,1709115646.973742,-37.109375,-24.4140625,-37.109375,-41.50390625,1.0,1.0,0.0,0.0,2.m4v,9.0
2024-02-28 11:20:46.973742,1709115646.973742,-37.109375,-24.4140625,-37.109375,-41.50390625,1.0,1.0,0.0,0.0,2.m4v,9.0
2024-02-28 11:20:46.981554,1709115646.9815538,-45.41015625,-28.80859375,-19.53125,-30.76171875,1.0,1.0,0.0,0.0,2.m4v,9.0
2024-02-28 11:20:46.981554,1709115646.9815538,-45.41015625,-28.80859375,-19.53125,-30.76171875,1.0,1.0,0.0,0.0,2.m4v,9.0
2024-02-28 11:20:46.985460,1709115646.9854598,-54.6875,-37.59765625,-53.22265625,-35.64453125,1.0,1.0,0.0,0.0,2.m4v,9.0
2024-02-28 11:20:46.989366,1709115646.9893656,-41.50390625,-40.52734375,-47.8515625,-32.2265625,1.0,1.0,0.0,0.0,2.m4v,9.0
2024-02-28 11:20:46.993272,1709115646.9932716,-33.69140625,-34.66796875,-34.1796875,-38.0859375,1.0,1.0,0.0,0.0,2.m4v,9.0
2024-02-28 11:20:46.997177,1709115646.9971774,-22.94921875,-39.0625,-34.1796875,-35.64453125,1.0,1.0,0.0,0.0,2.m4v,9.0
2024-02-28 11:20:47.001083,1709115647.0010834,-25.87890625,-49.31640625,-25.390625,-33.69140625,1.0,1.0,0.0,0.0,2.m4v,9.0
2024-02-28 11:20:47.004989,1709115647.0049891,-39.55078125,-50.78125,-25.390625,-43.45703125,1.0,1.0,0.0,0.0,2.m4v,9.0
2024-02-28 11:20:47.008897,1709115647.0088968,-25.390625,-39.0625,-24.4140625,-37.59765625,1.0,1.0,0.0,0.0,2.m4v,9.0
2024-02-28 11:20:47.012803,1709115647.0128026,-29.78515625,-31.25,-29.296875,-37.59765625,1.0,1.0,0.0,0.0,2.m4v,9.0
2024-02-28 11:20:47.016709,1709115647.0167086,-39.0625,-27.83203125,-30.76171875,-51.7578125,1.0,1.0,0.0,0.0,2.m4v,9.0
2024-02-28 11:20:47.020614,1709115647.0206144,-33.69140625,-19.04296875,-21.97265625,-47.8515625,1.0,1.0,0.0,0.0,2.m4v,9.0
2024-02-28 11:20:47.024520,1709115647.0245204,-36.1328125,-8.7890625,-14.16015625,-38.57421875,1.0,1.0,0.0,0.0,2.m4v,9.0
2024-02-28 11:20:47.028426,1709115647.0284262,-38.0859375,-9.765625,-28.3203125,-37.109375,1.0,1.0,0.0,0.0,2.m4v,9.0
2024-02-28 11:20:47.032332,1709115647.0323322,-45.41015625,-32.71484375,-51.7578125,-40.52734375,1.0,1.0,0.0,0.0,2.m4v,9.0
2024-02-28 11:20:47.036238,1709115647.036238,-48.33984375,-47.8515625,-36.1328125,-42.48046875,1.0,1.0,0.0,0.0,2.m4v,9.0
2024-02-28 11:20:47.040144,1709115647.040144,-37.59765625,-43.45703125,-21.484375,-35.15625,1.0,1.0,0.0,0.0,2.m4v,9.0
2024-02-28 11:20:47.044050,1709115647.0440495,-34.66796875,-38.57421875,-26.3671875,-31.25,1.0,1.0,0.0,0.0,2.m4v,9.0
2024-02-28 11:20:47.047956,1709115647.0479558,-41.9921875,-39.55078125,-25.87890625,-30.2734375,1.0,1.0,0.0,0.0,2.m4v,9.0
2024-02-28 11:20:47.051862,1709115647.0518615,-37.109375,-40.0390625,-31.73828125,-29.296875,1.0,1.0,0.0,0.0,2.m4v,9.0
2024-02-28 11:20:47.055769,1709115647.055769,-30.2734375,-27.83203125,-44.43359375,-38.57421875,1.0,1.0,0.0,0.0,2.m4v,9.0
2024-02-28 11:20:47.059675,1709115647.0596747,-33.203125,-27.83203125,-48.828125,-39.0625,1.0,1.0,0.0,0.0,2.m4v,9.0
2024-02-28 11:20:47.063581,1709115647.0635808,-44.43359375,-37.59765625,-41.50390625,-38.57421875,1.0,1.0,0.0,0.0,2.m4v,9.0
2024-02-28 11:20:47.067487,1709115647.0674863,-56.15234375,-29.296875,-34.66796875,-42.48046875,1.0,1.0,0.0,0.0,2.m4v,9.0
2024-02-28 11:20:47.071393,1709115647.0713923,-51.7578125,-29.296875,-27.34375,-39.55078125,1.0,1.0,0.0,0.0,2.m4v,9.0
2024-02-28 11:20:47.075298,1709115647.0752983,-51.26953125,-28.3203125,-18.06640625,-45.41015625,1.0,1.0,0.0,0.0,2.m4v,9.0
2024-02-28 11:20:47.079204,1709115647.0792043,-48.33984375,-27.34375,-28.80859375,-44.921875,1.0,1.0,0.0,0.0,2.m4v,9.0
2024-02-28 11:20:47.083110,1709115647.08311,-48.33984375,-42.96875,-46.38671875,-32.71484375,1.0,1.0,0.0,0.0,2.m4v,9.0
2024-02-28 11:20:47.087016,1709115647.087016,-44.921875,-63.4765625,-47.8515625,-28.3203125,1.0,1.0,0.0,0.0,2.m4v,9.0
2024-02-28 11:20:47.090922,1709115647.090922,-36.62109375,-61.03515625,-41.015625,-25.87890625,1.0,1.0,0.0,0.0,2.m4v,9.0
2024-02-28 11:20:47.094828,1709115647.094828,-37.59765625,-41.9921875,-26.3671875,-21.97265625,1.0,1.0,0.0,0.0,2.m4v,9.0
2024-02-28 11:20:47.098734,1709115647.0987337,-33.69140625,-36.62109375,-14.6484375,-30.2734375,1.0,1.0,0.0,0.0,2.m4v,9.0
2024-02-28 11:20:47.102641,1709115647.1026406,-35.15625,-34.66796875,-23.4375,-39.55078125,1.0,1.0,0.0,0.0,2.m4v,9.0
2024-02-28 11:20:47.106546,1709115647.1065464,-28.3203125,-18.5546875,-26.3671875,-35.15625,1.0,1.0,0.0,0.0,2.m4v,9.0
2024-02-28 11:20:47.110452,1709115647.1104524,-24.4140625,-15.13671875,-24.4140625,-29.296875,1.0,1.0,0.0,0.0,2.m4v,9.0
2024-02-28 11:20:47.114358,1709115647.1143582,-43.45703125,-48.33984375,-25.390625,-34.66796875,1.0,1.0,0.0,0.0,2.m4v,9.0
2024-02-28 11:20:47.118264,1709115647.1182642,-52.734375,-51.7578125,-26.85546875,-39.0625,1.0,1.0,0.0,0.0,2.m4v,9.0
2024-02-28 11:20:47.122170,1709115647.12217,-50.29296875,-33.69140625,-40.0390625,-40.52734375,1.0,1.0,0.0,0.0,2.m4v,9.0
2024-02-28 11:20:47.126076,1709115647.126076,-46.38671875,-38.57421875,-51.26953125,-39.55078125,1.0,1.0,0.0,0.0,2.m4v,9.0
2024-02-28 11:20:47.129982,1709115647.1299818,-50.78125,-39.0625,-49.8046875,-43.9453125,1.0,1.0,0.0,0.0,2.m4v,9.0
2024-02-28 11:20:47.133888,1709115647.1338878,-44.921875,-28.80859375,-36.62109375,-37.109375,1.0,1.0,0.0,0.0,2.m4v,9.0
2024-02-28 11:20:47.137794,1709115647.1377935,-34.66796875,-28.3203125,-19.04296875,-33.203125,1.0,1.0,0.0,0.0,2.m4v,9.0
2024-02-28 11:20:47.141700,1709115647.1416996,-40.52734375,-30.2734375,-11.23046875,-37.109375,1.0,1.0,0.0,0.0,2.m4v,9.0
2024-02-28 11:20:47.145605,1709115647.145605,-49.31640625,-40.0390625,-17.578125,-36.62109375,1.0,1.0,0.0,0.0,2.m4v,9.0
2024-02-28 11:20:47.149511,1709115647.149511,-46.875,-34.66796875,-20.5078125,-33.203125,1.0,1.0,0.0,0.0,2.m4v,9.0
2024-02-28 11:20:47.153417,1709115647.153417,-44.43359375,-28.3203125,-26.85546875,-34.1796875,1.0,1.0,0.0,0.0,2.m4v,9.0
2024-02-28 11:20:47.157323,1709115647.1573231,-39.0625,-41.9921875,-34.1796875,-39.55078125,1.0,1.0,0.0,0.0,2.m4v,9.0
