Timestamp,Timestamp_UNIX,TP9,AF7,AF8,TP10,Valence,Arousal,Dominace,Viewed,Video,Participant
2024-02-27 11:25:44.099195,1709029544.0991943,-29.296875,-62.01171875,-41.015625,-23.4375,1.0,0.0,1.0,1.0,3.m4v,3.0
2024-02-27 11:25:44.103100,1709029544.1031003,-33.69140625,-62.01171875,-44.43359375,-40.52734375,1.0,0.0,1.0,1.0,3.m4v,3.0
2024-02-27 11:25:44.107006,1709029544.1070058,-32.2265625,-53.22265625,-50.29296875,-48.828125,1.0,0.0,1.0,1.0,3.m4v,3.0
2024-02-27 11:25:44.110912,1709029544.1109116,-28.3203125,-28.3203125,-39.55078125,-36.62109375,1.0,0.0,1.0,1.0,3.m4v,3.0
2024-02-27 11:25:44.114817,1709029544.1148174,-36.62109375,-11.71875,-45.41015625,-18.5546875,1.0,0.0,1.0,1.0,3.m4v,3.0
2024-02-27 11:25:44.118723,1709029544.1187232,-41.9921875,5.859375,-52.24609375,-18.5546875,1.0,0.0,1.0,1.0,3.m4v,3.0
2024-02-27 11:25:44.122629,1709029544.1226287,-33.69140625,1.46484375,-30.76171875,-40.0390625,1.0,0.0,1.0,1.0,3.m4v,3.0
2024-02-27 11:25:44.126534,1709029544.1265345,-42.96875,-33.203125,-25.390625,-51.26953125,1.0,0.0,1.0,1.0,3.m4v,3.0
2024-02-27 11:25:44.130440,1709029544.1304402,-48.33984375,-46.38671875,-41.015625,-44.921875,1.0,0.0,1.0,1.0,3.m4v,3.0
2024-02-27 11:25:44.134346,1709029544.134346,-40.52734375,-41.9921875,-37.109375,-34.66796875,1.0,0.0,1.0,1.0,3.m4v,3.0
2024-02-27 11:25:44.138252,1709029544.1382518,-36.62109375,-44.43359375,-34.1796875,-25.390625,1.0,0.0,1.0,1.0,3.m4v,3.0
2024-02-27 11:25:44.142157,1709029544.1421573,-35.15625,-38.57421875,-38.0859375,-36.1328125,1.0,0.0,1.0,1.0,3.m4v,3.0
2024-02-27 11:25:44.146064,1709029544.146064,-36.1328125,-30.2734375,-36.1328125,-58.10546875,1.0,0.0,1.0,1.0,3.m4v,3.0
2024-02-27 11:25:44.149970,1709029544.1499698,-37.109375,-40.52734375,-30.2734375,-53.7109375,1.0,0.0,1.0,1.0,3.m4v,3.0
2024-02-27 11:25:44.153876,1709029544.1538756,-32.2265625,-21.97265625,-34.66796875,-30.2734375,1.0,0.0,1.0,1.0,3.m4v,3.0
2024-02-27 11:25:44.157781,1709029544.1577814,-25.390625,-19.04296875,-38.0859375,-26.85546875,1.0,0.0,1.0,1.0,3.m4v,3.0
2024-02-27 11:25:44.161687,1709029544.161687,-23.4375,-37.109375,-35.64453125,-33.69140625,1.0,0.0,1.0,1.0,3.m4v,3.0
2024-02-27 11:25:44.165593,1709029544.165593,-25.390625,-21.97265625,-42.96875,-36.1328125,1.0,0.0,1.0,1.0,3.m4v,3.0
2024-02-27 11:25:44.169498,1709029544.1694984,-26.3671875,-21.484375,-51.7578125,-35.15625,1.0,0.0,1.0,1.0,3.m4v,3.0
2024-02-27 11:25:44.173404,1709029544.1734042,-22.94921875,-50.78125,-41.9921875,-21.97265625,1.0,0.0,1.0,1.0,3.m4v,3.0
2024-02-27 11:25:44.177310,1709029544.17731,-22.94921875,-52.24609375,-29.296875,-6.34765625,1.0,0.0,1.0,1.0,3.m4v,3.0
2024-02-27 11:25:44.181216,1709029544.1812155,-31.73828125,-51.26953125,-42.96875,-25.87890625,1.0,0.0,1.0,1.0,3.m4v,3.0
2024-02-27 11:25:44.185121,1709029544.1851213,-39.55078125,-45.41015625,-40.52734375,-57.12890625,1.0,0.0,1.0,1.0,3.m4v,3.0
2024-02-27 11:25:44.189027,1709029544.189027,-43.45703125,-30.2734375,-26.3671875,-49.8046875,1.0,0.0,1.0,1.0,3.m4v,3.0
2024-02-27 11:25:44.192933,1709029544.192933,-40.52734375,-27.83203125,-20.5078125,-26.3671875,1.0,0.0,1.0,1.0,3.m4v,3.0
2024-02-27 11:25:44.196839,1709029544.196839,-34.66796875,-39.55078125,-23.92578125,-21.484375,1.0,0.0,1.0,1.0,3.m4v,3.0
2024-02-27 11:25:44.200745,1709029544.2007449,-26.3671875,-34.1796875,-29.78515625,-30.76171875,1.0,0.0,1.0,1.0,3.m4v,3.0
2024-02-27 11:25:44.204650,1709029544.2046504,-17.08984375,-11.71875,-37.59765625,-40.0390625,1.0,0.0,1.0,1.0,3.m4v,3.0
2024-02-27 11:25:44.208556,1709029544.2085562,-34.1796875,-44.921875,-36.62109375,-47.8515625,1.0,0.0,1.0,1.0,3.m4v,3.0
2024-02-27 11:25:44.212462,1709029544.212462,-44.921875,-42.48046875,-27.83203125,-30.2734375,1.0,0.0,1.0,1.0,3.m4v,3.0
2024-02-27 11:25:44.216368,1709029544.2163675,-26.3671875,-4.8828125,-37.109375,-9.27734375,1.0,0.0,1.0,1.0,3.m4v,3.0
2024-02-27 11:25:44.220273,1709029544.2202735,-25.87890625,-29.78515625,-47.8515625,-26.3671875,1.0,0.0,1.0,1.0,3.m4v,3.0
2024-02-27 11:25:44.224179,1709029544.224179,-30.2734375,-50.78125,-34.66796875,-48.828125,1.0,0.0,1.0,1.0,3.m4v,3.0
2024-02-27 11:25:44.228085,1709029544.2280848,-30.2734375,-37.59765625,-17.08984375,-56.15234375,1.0,0.0,1.0,1.0,3.m4v,3.0
2024-02-27 11:25:44.231991,1709029544.2319906,-29.78515625,-15.625,-20.5078125,-35.64453125,1.0,0.0,1.0,1.0,3.m4v,3.0
2024-02-27 11:25:44.235896,1709029544.2358963,-24.90234375,-8.7890625,-28.80859375,-12.20703125,1.0,0.0,1.0,1.0,3.m4v,3.0
2024-02-27 11:25:44.239802,1709029544.2398024,-16.6015625,-12.6953125,-28.3203125,-16.6015625,1.0,0.0,1.0,1.0,3.m4v,3.0
2024-02-27 11:25:44.243708,1709029544.243708,-18.06640625,-14.6484375,-40.0390625,-31.73828125,1.0,0.0,1.0,1.0,3.m4v,3.0
2024-02-27 11:25:44.247614,1709029544.247614,-24.4140625,-16.11328125,-47.36328125,-41.9921875,1.0,0.0,1.0,1.0,3.m4v,3.0
2024-02-27 11:25:44.251519,1709029544.2515194,-35.64453125,-20.5078125,-35.64453125,-35.15625,1.0,0.0,1.0,1.0,3.m4v,3.0
2024-02-27 11:25:44.255425,1709029544.2554252,-32.2265625,-30.2734375,-32.71484375,-21.484375,1.0,0.0,1.0,1.0,3.m4v,3.0
2024-02-27 11:25:44.259331,1709029544.259331,-20.99609375,1.953125,-48.828125,-22.4609375,1.0,0.0,1.0,1.0,3.m4v,3.0
2024-02-27 11:25:44.263237,1709029544.2632368,-28.80859375,26.3671875,-61.5234375,-40.0390625,1.0,0.0,1.0,1.0,3.m4v,3.0
2024-02-27 11:25:44.267142,1709029544.2671423,-32.2265625,-3.90625,-53.7109375,-48.828125,1.0,0.0,1.0,1.0,3.m4v,3.0
2024-02-27 11:25:44.271048,1709029544.271048,-35.64453125,-42.48046875,-37.109375,-46.38671875,1.0,0.0,1.0,1.0,3.m4v,3.0
2024-02-27 11:25:44.274954,1709029544.2749538,-41.50390625,-56.640625,-25.87890625,-37.59765625,1.0,0.0,1.0,1.0,3.m4v,3.0
2024-02-27 11:25:44.278860,1709029544.2788596,-42.48046875,-45.8984375,-24.90234375,-28.3203125,1.0,0.0,1.0,1.0,3.m4v,3.0
2024-02-27 11:25:44.282765,1709029544.2827654,-39.55078125,-39.0625,-35.64453125,-38.0859375,1.0,0.0,1.0,1.0,3.m4v,3.0
2024-02-27 11:25:44.286673,1709029544.286673,-38.57421875,-40.52734375,-28.3203125,-53.7109375,1.0,0.0,1.0,1.0,3.m4v,3.0
2024-02-27 11:25:44.290579,1709029544.2905788,-38.0859375,-38.57421875,-28.3203125,-50.29296875,1.0,0.0,1.0,1.0,3.m4v,3.0
2024-02-27 11:25:44.294485,1709029544.2944846,-36.1328125,-30.76171875,-40.52734375,-37.59765625,1.0,0.0,1.0,1.0,3.m4v,3.0
2024-02-27 11:25:44.524929,1709029544.5249286,-36.1328125,-64.453125,-25.390625,-48.33984375,1.0,0.0,1.0,1.0,3.m4v,3.0
2024-02-27 11:25:44.528834,1709029544.5288343,-47.8515625,-53.22265625,-25.390625,-48.828125,1.0,0.0,1.0,1.0,3.m4v,3.0
2024-02-27 11:25:44.532740,1709029544.53274,-57.12890625,-57.12890625,-42.48046875,-27.83203125,1.0,0.0,1.0,1.0,3.m4v,3.0
2024-02-27 11:25:44.536646,1709029544.536646,-51.7578125,-48.33984375,-52.24609375,-9.765625,1.0,0.0,1.0,1.0,3.m4v,3.0
2024-02-27 11:25:44.540551,1709029544.5405514,-36.62109375,-10.7421875,-42.96875,-25.390625,1.0,0.0,1.0,1.0,3.m4v,3.0
2024-02-27 11:25:44.544457,1709029544.5444572,-41.9921875,-7.8125,-27.83203125,-43.45703125,1.0,0.0,1.0,1.0,3.m4v,3.0
2024-02-27 11:25:44.548363,1709029544.548363,-48.828125,-46.875,-30.2734375,-49.31640625,1.0,0.0,1.0,1.0,3.m4v,3.0
2024-02-27 11:25:44.552269,1709029544.5522687,-35.64453125,-48.828125,-31.73828125,-44.43359375,1.0,0.0,1.0,1.0,3.m4v,3.0
2024-02-27 11:25:44.556175,1709029544.5561745,-33.203125,-36.62109375,-16.6015625,-28.80859375,1.0,0.0,1.0,1.0,3.m4v,3.0
2024-02-27 11:25:44.560080,1709029544.56008,-50.29296875,-33.69140625,-19.53125,-38.57421875,1.0,0.0,1.0,1.0,3.m4v,3.0
2024-02-27 11:25:44.563986,1709029544.5639858,-49.31640625,-11.71875,-20.01953125,-49.8046875,1.0,0.0,1.0,1.0,3.m4v,3.0
2024-02-27 11:25:44.567892,1709029544.5678923,-45.8984375,-28.3203125,-23.92578125,-56.15234375,1.0,0.0,1.0,1.0,3.m4v,3.0
2024-02-27 11:25:44.571798,1709029544.571798,-49.8046875,-51.7578125,-40.52734375,-41.50390625,1.0,0.0,1.0,1.0,3.m4v,3.0
2024-02-27 11:25:44.575704,1709029544.575704,-51.7578125,-54.19921875,-40.0390625,-21.484375,1.0,0.0,1.0,1.0,3.m4v,3.0
2024-02-27 11:25:44.579610,1709029544.5796096,-50.29296875,-46.38671875,-33.69140625,-34.66796875,1.0,0.0,1.0,1.0,3.m4v,3.0
2024-02-27 11:25:44.583515,1709029544.5835152,-43.9453125,-42.96875,-45.8984375,-48.828125,1.0,0.0,1.0,1.0,3.m4v,3.0
2024-02-27 11:25:44.587421,1709029544.587421,-53.22265625,-23.92578125,-32.2265625,-51.26953125,1.0,0.0,1.0,1.0,3.m4v,3.0
2024-02-27 11:25:44.591327,1709029544.5913267,-51.7578125,-28.3203125,-22.4609375,-44.43359375,1.0,0.0,1.0,1.0,3.m4v,3.0
2024-02-27 11:25:44.595232,1709029544.5952325,-50.78125,-65.4296875,-37.109375,-35.64453125,1.0,0.0,1.0,1.0,3.m4v,3.0
2024-02-27 11:25:44.599138,1709029544.599138,-56.15234375,-57.6171875,-33.203125,-37.109375,1.0,0.0,1.0,1.0,3.m4v,3.0
2024-02-27 11:25:44.603044,1709029544.6030438,-41.015625,-48.828125,-35.15625,-48.828125,1.0,0.0,1.0,1.0,3.m4v,3.0
2024-02-27 11:25:44.606950,1709029544.6069496,-28.80859375,-55.6640625,-41.015625,-52.24609375,1.0,0.0,1.0,1.0,3.m4v,3.0
2024-02-27 11:25:44.610855,1709029544.610855,-42.96875,-49.8046875,-33.69140625,-47.8515625,1.0,0.0,1.0,1.0,3.m4v,3.0
2024-02-27 11:25:44.614761,1709029544.6147614,-49.31640625,-41.50390625,-33.203125,-42.48046875,1.0,0.0,1.0,1.0,3.m4v,3.0
2024-02-27 11:25:44.618667,1709029544.6186671,-46.875,-47.8515625,-29.78515625,-40.0390625,1.0,0.0,1.0,1.0,3.m4v,3.0
2024-02-27 11:25:44.622573,1709029544.622573,-51.7578125,-37.59765625,-22.94921875,-49.31640625,1.0,0.0,1.0,1.0,3.m4v,3.0
2024-02-27 11:25:44.626478,1709029544.6264784,-38.57421875,-21.97265625,-20.99609375,-44.921875,1.0,0.0,1.0,1.0,3.m4v,3.0
2024-02-27 11:25:44.630384,1709029544.6303842,-32.2265625,-35.15625,-32.2265625,-20.99609375,1.0,0.0,1.0,1.0,3.m4v,3.0
2024-02-27 11:25:44.634290,1709029544.63429,-39.55078125,-12.6953125,-47.36328125,2.44140625,1.0,0.0,1.0,1.0,3.m4v,3.0
2024-02-27 11:25:44.638196,1709029544.6381958,-40.52734375,-29.78515625,-51.26953125,-5.859375,1.0,0.0,1.0,1.0,3.m4v,3.0
2024-02-27 11:25:44.642101,1709029544.6421013,-32.2265625,-60.05859375,-36.1328125,-34.66796875,1.0,0.0,1.0,1.0,3.m4v,3.0
2024-02-27 11:25:44.646007,1709029544.646007,-28.80859375,-60.05859375,-28.80859375,-49.31640625,1.0,0.0,1.0,1.0,3.m4v,3.0
2024-02-27 11:25:44.649913,1709029544.6499128,-33.69140625,-64.453125,-28.3203125,-41.015625,1.0,0.0,1.0,1.0,3.m4v,3.0
2024-02-27 11:25:44.653819,1709029544.6538186,-35.64453125,-68.84765625,-29.78515625,-28.3203125,1.0,0.0,1.0,1.0,3.m4v,3.0
2024-02-27 11:25:44.657724,1709029544.6577244,-32.2265625,-56.640625,-33.203125,-18.06640625,1.0,0.0,1.0,1.0,3.m4v,3.0
2024-02-27 11:25:44.661630,1709029544.6616302,-37.59765625,-55.6640625,-41.9921875,-32.2265625,1.0,0.0,1.0,1.0,3.m4v,3.0
2024-02-27 11:25:44.665536,1709029544.6655357,-42.96875,-49.31640625,-39.55078125,-52.24609375,1.0,0.0,1.0,1.0,3.m4v,3.0
2024-02-27 11:25:44.669441,1709029544.6694417,-43.9453125,-24.4140625,-29.78515625,-56.15234375,1.0,0.0,1.0,1.0,3.m4v,3.0
2024-02-27 11:25:44.673347,1709029544.6733472,-44.921875,-31.73828125,-27.83203125,-44.921875,1.0,0.0,1.0,1.0,3.m4v,3.0
2024-02-27 11:25:44.677253,1709029544.677253,-26.3671875,-25.390625,-40.0390625,-25.390625,1.0,0.0,1.0,1.0,3.m4v,3.0
2024-02-27 11:25:44.681159,1709029544.6811583,-17.08984375,-3.90625,-57.6171875,-30.2734375,1.0,0.0,1.0,1.0,3.m4v,3.0
2024-02-27 11:25:44.685064,1709029544.6850643,-34.66796875,-11.23046875,-53.22265625,-49.8046875,1.0,0.0,1.0,1.0,3.m4v,3.0
2024-02-27 11:25:44.688970,1709029544.68897,-40.52734375,-26.85546875,-36.1328125,-52.734375,1.0,0.0,1.0,1.0,3.m4v,3.0
2024-02-27 11:25:44.692876,1709029544.692876,-40.0390625,-45.41015625,-32.2265625,-39.0625,1.0,0.0,1.0,1.0,3.m4v,3.0
2024-02-27 11:25:44.696782,1709029544.6967816,-39.0625,-50.29296875,-32.71484375,-23.92578125,1.0,0.0,1.0,1.0,3.m4v,3.0
2024-02-27 11:25:44.700687,1709029544.7006872,-36.62109375,-39.0625,-23.92578125,-35.64453125,1.0,0.0,1.0,1.0,3.m4v,3.0
2024-02-27 11:25:44.704593,1709029544.704593,-40.0390625,-36.62109375,-20.5078125,-56.15234375,1.0,0.0,1.0,1.0,3.m4v,3.0
2024-02-27 11:25:44.708500,1709029544.7085004,-52.24609375,-39.55078125,-30.2734375,-56.640625,1.0,0.0,1.0,1.0,3.m4v,3.0
2024-02-27 11:25:44.712406,1709029544.7124062,-52.734375,-40.52734375,-40.0390625,-42.48046875,1.0,0.0,1.0,1.0,3.m4v,3.0
2024-02-27 11:25:44.716312,1709029544.716312,-40.52734375,-25.87890625,-47.36328125,-22.4609375,1.0,0.0,1.0,1.0,3.m4v,3.0
2024-02-27 11:25:44.720218,1709029544.7202177,-31.25,-39.55078125,-45.8984375,-21.97265625,1.0,0.0,1.0,1.0,3.m4v,3.0
2024-02-27 11:25:44.724123,1709029544.7241232,-38.57421875,-56.15234375,-43.9453125,-46.875,1.0,0.0,1.0,1.0,3.m4v,3.0
2024-02-27 11:25:44.728029,1709029544.728029,-57.6171875,-30.2734375,-44.43359375,-49.31640625,1.0,0.0,1.0,1.0,3.m4v,3.0
2024-02-27 11:25:44.731935,1709029544.7319348,-46.38671875,-38.57421875,-34.1796875,-27.34375,1.0,0.0,1.0,1.0,3.m4v,3.0
2024-02-27 11:25:44.735841,1709029544.7358406,-31.73828125,-54.19921875,-29.296875,-9.765625,1.0,0.0,1.0,1.0,3.m4v,3.0
2024-02-27 11:25:44.739746,1709029544.7397463,-42.48046875,-44.921875,-33.203125,-22.94921875,1.0,0.0,1.0,1.0,3.m4v,3.0
2024-02-27 11:25:44.743652,1709029544.743652,-45.8984375,-28.3203125,-30.2734375,-48.828125,1.0,0.0,1.0,1.0,3.m4v,3.0
2024-02-27 11:25:44.747558,1709029544.7475576,-51.26953125,-34.66796875,-28.3203125,-57.6171875,1.0,0.0,1.0,1.0,3.m4v,3.0
2024-02-27 11:25:44.751463,1709029544.7514634,-53.22265625,-48.828125,-28.80859375,-45.8984375,1.0,0.0,1.0,1.0,3.m4v,3.0
2024-02-27 11:25:44.755371,1709029544.7553706,-38.57421875,-37.109375,-30.76171875,-21.484375,1.0,0.0,1.0,1.0,3.m4v,3.0
2024-02-27 11:25:45.083460,1709029545.0834596,-24.90234375,-16.6015625,-27.34375,-40.52734375,1.0,0.0,1.0,1.0,3.m4v,3.0
2024-02-27 11:25:45.087365,1709029545.0873654,-36.1328125,-12.6953125,-28.3203125,-66.40625,1.0,0.0,1.0,1.0,3.m4v,3.0
2024-02-27 11:25:45.091271,1709029545.0912712,-49.8046875,-3.90625,-27.83203125,-43.45703125,1.0,0.0,1.0,1.0,3.m4v,3.0
2024-02-27 11:25:45.095177,1709029545.0951767,-20.5078125,-1.46484375,-43.9453125,-13.18359375,1.0,0.0,1.0,1.0,3.m4v,3.0
2024-02-27 11:25:45.099082,1709029545.0990825,-3.41796875,-10.7421875,-41.9921875,-4.39453125,1.0,0.0,1.0,1.0,3.m4v,3.0
2024-02-27 11:25:45.102988,1709029545.1029882,-28.80859375,-1.46484375,-29.78515625,-41.9921875,1.0,0.0,1.0,1.0,3.m4v,3.0
2024-02-27 11:25:45.106894,1709029545.106894,-48.828125,-6.8359375,-18.06640625,-69.3359375,1.0,0.0,1.0,1.0,3.m4v,3.0
2024-02-27 11:25:45.110800,1709029545.1107998,-50.78125,-27.83203125,-26.3671875,-45.8984375,1.0,0.0,1.0,1.0,3.m4v,3.0
2024-02-27 11:25:45.114705,1709029545.114705,-67.3828125,-54.6875,-52.734375,-39.0625,1.0,0.0,1.0,1.0,3.m4v,3.0
2024-02-27 11:25:45.118611,1709029545.118611,-81.0546875,-64.453125,-63.4765625,-39.55078125,1.0,0.0,1.0,1.0,3.m4v,3.0
2024-02-27 11:25:45.122517,1709029545.1225169,-78.125,-58.10546875,-47.36328125,-59.5703125,1.0,0.0,1.0,1.0,3.m4v,3.0
2024-02-27 11:25:45.126423,1709029545.1264226,-68.359375,-62.01171875,-19.04296875,-68.359375,1.0,0.0,1.0,1.0,3.m4v,3.0
2024-02-27 11:25:45.130330,1709029545.1303298,-74.21875,-42.48046875,-8.30078125,-44.921875,1.0,0.0,1.0,1.0,3.m4v,3.0
2024-02-27 11:25:45.134236,1709029545.1342356,-73.2421875,-26.3671875,-10.7421875,-25.390625,1.0,0.0,1.0,1.0,3.m4v,3.0
2024-02-27 11:25:45.138141,1709029545.1381414,-48.828125,-22.4609375,-19.04296875,-24.4140625,1.0,0.0,1.0,1.0,3.m4v,3.0
2024-02-27 11:25:45.142047,1709029545.142047,-49.31640625,-21.484375,-34.1796875,-46.38671875,1.0,0.0,1.0,1.0,3.m4v,3.0
2024-02-27 11:25:45.145953,1709029545.1459527,-69.82421875,-40.52734375,-25.390625,-49.8046875,1.0,0.0,1.0,1.0,3.m4v,3.0
2024-02-27 11:25:45.149858,1709029545.1498585,-74.70703125,-21.97265625,-28.80859375,-26.3671875,1.0,0.0,1.0,1.0,3.m4v,3.0
2024-02-27 11:25:45.153764,1709029545.1537642,-75.1953125,-8.7890625,-36.62109375,-24.90234375,1.0,0.0,1.0,1.0,3.m4v,3.0
2024-02-27 11:25:45.157670,1709029545.1576698,-65.91796875,-37.109375,-24.90234375,-34.66796875,1.0,0.0,1.0,1.0,3.m4v,3.0
2024-02-27 11:25:45.161576,1709029545.1615756,-55.6640625,-33.203125,-36.1328125,-59.08203125,1.0,0.0,1.0,1.0,3.m4v,3.0
2024-02-27 11:25:45.165481,1709029545.165481,-67.87109375,-40.0390625,-42.48046875,-66.40625,1.0,0.0,1.0,1.0,3.m4v,3.0
2024-02-27 11:25:45.169387,1709029545.169387,-67.87109375,-69.82421875,-27.34375,-44.921875,1.0,0.0,1.0,1.0,3.m4v,3.0
2024-02-27 11:25:45.173293,1709029545.1732929,-59.08203125,-46.38671875,-33.69140625,-54.19921875,1.0,0.0,1.0,1.0,3.m4v,3.0
2024-02-27 11:25:45.177200,1709029545.1771998,-60.546875,-31.25,-31.25,-55.17578125,1.0,0.0,1.0,1.0,3.m4v,3.0
2024-02-27 11:25:45.181106,1709029545.1811056,-62.98828125,-43.9453125,-13.671875,-30.2734375,1.0,0.0,1.0,1.0,3.m4v,3.0
2024-02-27 11:25:45.185011,1709029545.1850111,-59.5703125,-44.43359375,-21.484375,-35.64453125,1.0,0.0,1.0,1.0,3.m4v,3.0
2024-02-27 11:25:45.188917,1709029545.188917,-55.6640625,-46.38671875,-32.71484375,-53.22265625,1.0,0.0,1.0,1.0,3.m4v,3.0
2024-02-27 11:25:45.192823,1709029545.1928227,-48.33984375,-29.296875,-45.41015625,-46.38671875,1.0,0.0,1.0,1.0,3.m4v,3.0
2024-02-27 11:25:45.317812,1709029545.3178124,-24.4140625,-23.92578125,-29.296875,-43.45703125,1.0,0.0,1.0,1.0,3.m4v,3.0
2024-02-27 11:25:45.321718,1709029545.3217182,-13.671875,-41.9921875,-29.78515625,-54.19921875,1.0,0.0,1.0,1.0,3.m4v,3.0
2024-02-27 11:25:45.325624,1709029545.325624,-15.13671875,-30.76171875,-36.1328125,-40.52734375,1.0,0.0,1.0,1.0,3.m4v,3.0
2024-02-27 11:25:45.329530,1709029545.3295295,-43.9453125,-41.015625,-32.71484375,-40.0390625,1.0,0.0,1.0,1.0,3.m4v,3.0
2024-02-27 11:25:45.333435,1709029545.3334353,-74.70703125,-62.5,-24.90234375,-57.12890625,1.0,0.0,1.0,1.0,3.m4v,3.0
2024-02-27 11:25:45.337341,1709029545.337341,-80.078125,-26.3671875,-29.296875,-40.0390625,1.0,0.0,1.0,1.0,3.m4v,3.0
2024-02-27 11:25:45.341247,1709029545.3412468,-62.98828125,-15.625,-36.1328125,-34.1796875,1.0,0.0,1.0,1.0,3.m4v,3.0
2024-02-27 11:25:45.345153,1709029545.3451526,-58.59375,-42.96875,-39.0625,-57.6171875,1.0,0.0,1.0,1.0,3.m4v,3.0
2024-02-27 11:25:45.349058,1709029545.3490582,-72.75390625,-55.6640625,-30.76171875,-71.2890625,1.0,0.0,1.0,1.0,3.m4v,3.0
2024-02-27 11:25:45.352964,1709029545.352964,-64.94140625,-48.828125,-28.80859375,-54.6875,1.0,0.0,1.0,1.0,3.m4v,3.0
2024-02-27 11:25:45.356870,1709029545.3568697,-49.31640625,-46.875,-44.43359375,-44.921875,1.0,0.0,1.0,1.0,3.m4v,3.0
2024-02-27 11:25:45.360775,1709029545.3607757,-54.6875,-54.19921875,-50.29296875,-48.828125,1.0,0.0,1.0,1.0,3.m4v,3.0
2024-02-27 11:25:45.364683,1709029545.3646834,-63.4765625,-53.22265625,-41.9921875,-66.89453125,1.0,0.0,1.0,1.0,3.m4v,3.0
2024-02-27 11:25:45.368589,1709029545.3685892,-55.6640625,-54.19921875,-40.0390625,-81.0546875,1.0,0.0,1.0,1.0,3.m4v,3.0
2024-02-27 11:25:45.372495,1709029545.372495,-40.52734375,-41.9921875,-28.3203125,-44.43359375,1.0,0.0,1.0,1.0,3.m4v,3.0
2024-02-27 11:25:45.376401,1709029545.3764007,-56.15234375,-37.109375,-32.71484375,-31.25,1.0,0.0,1.0,1.0,3.m4v,3.0
2024-02-27 11:25:45.380306,1709029545.3803062,-51.26953125,-44.921875,-36.1328125,-56.15234375,1.0,0.0,1.0,1.0,3.m4v,3.0
2024-02-27 11:25:45.384212,1709029545.384212,-22.94921875,-20.01953125,-27.34375,-46.875,1.0,0.0,1.0,1.0,3.m4v,3.0
2024-02-27 11:25:45.388118,1709029545.3881178,-24.90234375,-35.15625,-44.43359375,-37.59765625,1.0,0.0,1.0,1.0,3.m4v,3.0
2024-02-27 11:25:45.392024,1709029545.3920236,-18.5546875,-62.5,-58.10546875,-28.80859375,1.0,0.0,1.0,1.0,3.m4v,3.0
2024-02-27 11:25:45.395929,1709029545.395929,-25.390625,-49.8046875,-36.1328125,-12.20703125,1.0,0.0,1.0,1.0,3.m4v,3.0
2024-02-27 11:25:45.399835,1709029545.3998349,-37.59765625,-43.9453125,-30.2734375,-26.85546875,1.0,0.0,1.0,1.0,3.m4v,3.0
2024-02-27 11:25:45.403741,1709029545.4037406,-17.578125,-25.390625,-36.62109375,-35.15625,1.0,0.0,1.0,1.0,3.m4v,3.0
2024-02-27 11:25:45.407646,1709029545.4076464,-22.94921875,-37.59765625,-30.76171875,-35.64453125,1.0,0.0,1.0,1.0,3.m4v,3.0
2024-02-27 11:25:45.411554,1709029545.4115536,-50.78125,-62.01171875,-26.85546875,-40.52734375,1.0,0.0,1.0,1.0,3.m4v,3.0
2024-02-27 11:25:45.415459,1709029545.4154594,-25.390625,-48.828125,-30.76171875,-37.109375,1.0,0.0,1.0,1.0,3.m4v,3.0
2024-02-27 11:25:45.419365,1709029545.4193652,-19.04296875,-34.66796875,-41.015625,-50.29296875,1.0,0.0,1.0,1.0,3.m4v,3.0
2024-02-27 11:25:45.423271,1709029545.4232707,-39.55078125,-36.1328125,-44.921875,-69.3359375,1.0,0.0,1.0,1.0,3.m4v,3.0
2024-02-27 11:25:45.427176,1709029545.4271765,-44.921875,-44.921875,-32.71484375,-67.87109375,1.0,0.0,1.0,1.0,3.m4v,3.0
2024-02-27 11:25:45.431082,1709029545.4310822,-48.33984375,-24.90234375,-22.4609375,-47.36328125,1.0,0.0,1.0,1.0,3.m4v,3.0
2024-02-27 11:25:45.434988,1709029545.434988,-23.4375,-10.7421875,-22.4609375,-3.41796875,1.0,0.0,1.0,1.0,3.m4v,3.0
2024-02-27 11:25:45.438894,1709029545.4388938,-2.9296875,-43.45703125,-33.203125,9.765625,1.0,0.0,1.0,1.0,3.m4v,3.0
2024-02-27 11:25:45.442799,1709029545.442799,-9.27734375,-54.6875,-43.9453125,-20.99609375,1.0,0.0,1.0,1.0,3.m4v,3.0
2024-02-27 11:25:45.446705,1709029545.446705,-27.83203125,-53.22265625,-33.203125,-43.9453125,1.0,0.0,1.0,1.0,3.m4v,3.0
2024-02-27 11:25:45.450611,1709029545.4506109,-45.41015625,-55.6640625,-29.296875,-49.8046875,1.0,0.0,1.0,1.0,3.m4v,3.0
2024-02-27 11:25:45.454517,1709029545.4545166,-13.18359375,-29.78515625,-41.015625,-36.1328125,1.0,0.0,1.0,1.0,3.m4v,3.0
2024-02-27 11:25:45.458424,1709029545.458424,14.6484375,-20.99609375,-34.1796875,-29.78515625,1.0,0.0,1.0,1.0,3.m4v,3.0
2024-02-27 11:25:45.462330,1709029545.46233,-3.90625,-39.0625,-22.4609375,-34.1796875,1.0,0.0,1.0,1.0,3.m4v,3.0
2024-02-27 11:25:45.466236,1709029545.4662356,-41.015625,-41.015625,-30.2734375,-57.6171875,1.0,0.0,1.0,1.0,3.m4v,3.0
2024-02-27 11:25:45.470141,1709029545.4701412,-48.828125,-53.22265625,-45.8984375,-72.265625,1.0,0.0,1.0,1.0,3.m4v,3.0
2024-02-27 11:25:45.474047,1709029545.474047,-33.69140625,-48.33984375,-42.96875,-39.0625,1.0,0.0,1.0,1.0,3.m4v,3.0
2024-02-27 11:25:45.477953,1709029545.4779527,-30.76171875,-3.41796875,-45.8984375,-31.73828125,1.0,0.0,1.0,1.0,3.m4v,3.0
2024-02-27 11:25:45.481858,1709029545.4818585,-46.875,-11.23046875,-49.31640625,-58.10546875,1.0,0.0,1.0,1.0,3.m4v,3.0
2024-02-27 11:25:45.485764,1709029545.4857645,-75.68359375,-72.75390625,-23.92578125,-65.91796875,1.0,0.0,1.0,1.0,3.m4v,3.0
2024-02-27 11:25:45.489670,1709029545.4896698,-63.96484375,-66.89453125,-12.6953125,-43.9453125,1.0,0.0,1.0,1.0,3.m4v,3.0
2024-02-27 11:25:45.493576,1709029545.4935756,-47.36328125,-36.62109375,-28.80859375,-32.71484375,1.0,0.0,1.0,1.0,3.m4v,3.0
2024-02-27 11:25:45.497481,1709029545.497481,-38.0859375,-30.2734375,-36.1328125,-31.73828125,1.0,0.0,1.0,1.0,3.m4v,3.0
2024-02-27 11:25:45.501387,1709029545.5013871,-38.0859375,-43.9453125,-30.76171875,-25.87890625,1.0,0.0,1.0,1.0,3.m4v,3.0
2024-02-27 11:25:45.505294,1709029545.5052943,-54.6875,-41.50390625,-33.69140625,-64.94140625,1.0,0.0,1.0,1.0,3.m4v,3.0
2024-02-27 11:25:45.509200,1709029545.5092,-36.1328125,-13.671875,-49.31640625,-87.890625,1.0,0.0,1.0,1.0,3.m4v,3.0
2024-02-27 11:25:45.513106,1709029545.5131056,-21.97265625,-5.37109375,-51.7578125,-45.8984375,1.0,0.0,1.0,1.0,3.m4v,3.0
2024-02-27 11:25:45.517011,1709029545.5170114,-51.26953125,-18.06640625,-39.55078125,-42.96875,1.0,0.0,1.0,1.0,3.m4v,3.0
2024-02-27 11:25:45.520917,1709029545.5209172,-58.59375,-18.06640625,-40.52734375,-82.03125,1.0,0.0,1.0,1.0,3.m4v,3.0
2024-02-27 11:25:45.524823,1709029545.524823,-43.9453125,1.953125,-45.41015625,-99.12109375,1.0,0.0,1.0,1.0,3.m4v,3.0
2024-02-27 11:25:45.528728,1709029545.5287285,-56.640625,1.46484375,-37.59765625,-103.515625,1.0,0.0,1.0,1.0,3.m4v,3.0
2024-02-27 11:25:45.532634,1709029545.5326345,-65.4296875,-10.25390625,-35.15625,-65.91796875,1.0,0.0,1.0,1.0,3.m4v,3.0
2024-02-27 11:25:45.536540,1709029545.53654,-73.2421875,-39.55078125,-33.69140625,-63.96484375,1.0,0.0,1.0,1.0,3.m4v,3.0
2024-02-27 11:25:45.540446,1709029545.5404458,-77.63671875,-62.98828125,-26.3671875,-86.9140625,1.0,0.0,1.0,1.0,3.m4v,3.0
2024-02-27 11:25:45.544352,1709029545.5443516,-78.61328125,-40.0390625,-26.3671875,-83.984375,1.0,0.0,1.0,1.0,3.m4v,3.0
2024-02-27 11:25:45.548257,1709029545.548257,-82.51953125,-29.296875,-36.62109375,-76.66015625,1.0,0.0,1.0,1.0,3.m4v,3.0
2024-02-27 11:25:45.552164,1709029545.5521643,-71.2890625,-41.015625,-27.83203125,-69.3359375,1.0,0.0,1.0,1.0,3.m4v,3.0
2024-02-27 11:25:45.556070,1709029545.55607,-49.31640625,-36.62109375,-28.80859375,-61.03515625,1.0,0.0,1.0,1.0,3.m4v,3.0
2024-02-27 11:25:45.559976,1709029545.5599756,-55.6640625,-25.87890625,-52.24609375,-99.609375,1.0,0.0,1.0,1.0,3.m4v,3.0
2024-02-27 11:25:45.563881,1709029545.5638814,-64.453125,-23.4375,-53.7109375,-141.11328125,1.0,0.0,1.0,1.0,3.m4v,3.0
2024-02-27 11:25:45.567787,1709029545.5677872,-78.125,-38.0859375,-42.48046875,-142.578125,1.0,0.0,1.0,1.0,3.m4v,3.0
2024-02-27 11:25:45.571693,1709029545.571693,-80.56640625,-14.16015625,-41.015625,-148.4375,1.0,0.0,1.0,1.0,3.m4v,3.0
2024-02-27 11:25:45.575598,1709029545.5755985,-79.58984375,-15.13671875,-26.3671875,-123.53515625,1.0,0.0,1.0,1.0,3.m4v,3.0
2024-02-27 11:25:45.579504,1709029545.5795045,-53.7109375,-35.64453125,-31.25,-121.09375,1.0,0.0,1.0,1.0,3.m4v,3.0
2024-02-27 11:25:45.583410,1709029545.58341,-30.2734375,-28.3203125,-48.828125,-176.26953125,1.0,0.0,1.0,1.0,3.m4v,3.0
2024-02-27 11:25:45.587316,1709029545.5873158,-48.33984375,-39.0625,-49.8046875,-176.26953125,1.0,0.0,1.0,1.0,3.m4v,3.0
2024-02-27 11:25:45.591221,1709029545.591221,-36.62109375,-29.296875,-49.31640625,-113.76953125,1.0,0.0,1.0,1.0,3.m4v,3.0
2024-02-27 11:25:45.595127,1709029545.595127,-29.78515625,-12.6953125,-41.50390625,-93.26171875,1.0,0.0,1.0,1.0,3.m4v,3.0
2024-02-27 11:25:45.599034,1709029545.599034,-38.57421875,-22.94921875,-46.875,-130.37109375,1.0,0.0,1.0,1.0,3.m4v,3.0
2024-02-27 11:25:45.602940,1709029545.6029396,-36.1328125,-26.3671875,-50.29296875,-155.2734375,1.0,0.0,1.0,1.0,3.m4v,3.0
2024-02-27 11:25:45.606845,1709029545.6068454,-25.390625,-17.578125,-39.0625,-144.04296875,1.0,0.0,1.0,1.0,3.m4v,3.0
2024-02-27 11:25:45.610751,1709029545.6107512,-11.23046875,-10.25390625,-43.45703125,-134.27734375,1.0,0.0,1.0,1.0,3.m4v,3.0
2024-02-27 11:25:45.614657,1709029545.614657,12.6953125,0.0,-43.9453125,-120.1171875,1.0,0.0,1.0,1.0,3.m4v,3.0
2024-02-27 11:25:45.618562,1709029545.6185625,-10.25390625,27.34375,-38.57421875,-119.140625,1.0,0.0,1.0,1.0,3.m4v,3.0
2024-02-27 11:25:45.622468,1709029545.6224682,-15.13671875,20.5078125,-38.57421875,-136.71875,1.0,0.0,1.0,1.0,3.m4v,3.0
2024-02-27 11:25:45.626374,1709029545.626374,-12.6953125,-7.8125,-47.8515625,-169.921875,1.0,0.0,1.0,1.0,3.m4v,3.0
2024-02-27 11:25:45.630280,1709029545.6302798,-24.4140625,-2.9296875,-52.24609375,-195.3125,1.0,0.0,1.0,1.0,3.m4v,3.0
2024-02-27 11:25:45.634186,1709029545.6341856,-6.34765625,8.30078125,-38.57421875,-145.01953125,1.0,0.0,1.0,1.0,3.m4v,3.0
2024-02-27 11:25:45.638091,1709029545.638091,9.765625,12.20703125,-35.64453125,-152.83203125,1.0,0.0,1.0,1.0,3.m4v,3.0
2024-02-27 11:25:45.641997,1709029545.6419969,21.97265625,9.765625,-44.43359375,-182.12890625,1.0,0.0,1.0,1.0,3.m4v,3.0
2024-02-27 11:25:45.645904,1709029545.6459036,31.73828125,1.953125,-39.0625,-160.15625,1.0,0.0,1.0,1.0,3.m4v,3.0
2024-02-27 11:25:45.649809,1709029545.6498094,3.90625,-12.6953125,-26.3671875,-161.1328125,1.0,0.0,1.0,1.0,3.m4v,3.0
2024-02-27 11:25:45.653715,1709029545.6537151,-11.23046875,-5.859375,-29.296875,-157.71484375,1.0,0.0,1.0,1.0,3.m4v,3.0
2024-02-27 11:25:45.657621,1709029545.657621,-1.46484375,-3.41796875,-41.9921875,-143.06640625,1.0,0.0,1.0,1.0,3.m4v,3.0
2024-02-27 11:25:45.661526,1709029545.6615264,11.23046875,-5.859375,-34.66796875,-147.4609375,1.0,0.0,1.0,1.0,3.m4v,3.0
2024-02-27 11:25:45.665432,1709029545.6654322,22.4609375,24.4140625,-21.484375,-169.43359375,1.0,0.0,1.0,1.0,3.m4v,3.0
2024-02-27 11:25:45.669338,1709029545.669338,20.5078125,17.08984375,-24.90234375,-162.59765625,1.0,0.0,1.0,1.0,3.m4v,3.0
2024-02-27 11:25:45.677150,1709029545.6771495,8.7890625,-30.76171875,-33.203125,-117.67578125,1.0,0.0,1.0,1.0,3.m4v,3.0
2024-02-27 11:25:45.681055,1709029545.681055,14.16015625,-20.99609375,-26.85546875,-132.32421875,1.0,0.0,1.0,1.0,3.m4v,3.0
2024-02-27 11:25:45.688867,1709029545.6888666,20.01953125,-9.27734375,-42.96875,-166.9921875,1.0,0.0,1.0,1.0,3.m4v,3.0
2024-02-27 11:25:45.692773,1709029545.6927729,26.85546875,-7.8125,-38.0859375,-123.53515625,1.0,0.0,1.0,1.0,3.m4v,3.0
2024-02-27 11:25:45.700584,1709029545.7005844,16.11328125,-10.25390625,-15.625,-110.3515625,1.0,0.0,1.0,1.0,3.m4v,3.0
2024-02-27 11:25:45.915403,1709029545.915403,70.80078125,-42.96875,76.171875,151.85546875,1.0,0.0,1.0,1.0,3.m4v,3.0
2024-02-27 11:25:45.919309,1709029545.919309,85.44921875,-36.1328125,70.3125,142.08984375,1.0,0.0,1.0,1.0,3.m4v,3.0
2024-02-27 11:25:45.923214,1709029545.9232144,77.1484375,-46.875,59.08203125,152.34375,1.0,0.0,1.0,1.0,3.m4v,3.0
2024-02-27 11:25:45.927121,1709029545.9271214,77.63671875,-54.19921875,55.17578125,152.83203125,1.0,0.0,1.0,1.0,3.m4v,3.0
2024-02-27 11:25:45.931027,1709029545.9310272,84.9609375,-53.22265625,48.828125,149.4140625,1.0,0.0,1.0,1.0,3.m4v,3.0
2024-02-27 11:25:45.934933,1709029545.934933,84.47265625,-35.64453125,48.33984375,181.640625,1.0,0.0,1.0,1.0,3.m4v,3.0
2024-02-27 11:25:45.938839,1709029545.9388387,79.58984375,-33.69140625,54.6875,178.22265625,1.0,0.0,1.0,1.0,3.m4v,3.0
2024-02-27 11:25:45.942744,1709029545.9427445,64.94140625,-49.31640625,66.89453125,166.50390625,1.0,0.0,1.0,1.0,3.m4v,3.0
2024-02-27 11:25:45.946650,1709029545.94665,58.59375,-42.96875,70.80078125,177.24609375,1.0,0.0,1.0,1.0,3.m4v,3.0
2024-02-27 11:25:45.950556,1709029545.9505558,64.94140625,-34.66796875,74.21875,175.78125,1.0,0.0,1.0,1.0,3.m4v,3.0
2024-02-27 11:25:45.954462,1709029545.9544616,57.6171875,-61.5234375,66.89453125,177.24609375,1.0,0.0,1.0,1.0,3.m4v,3.0
2024-02-27 11:25:45.958367,1709029545.958367,50.78125,-92.7734375,32.2265625,174.31640625,1.0,0.0,1.0,1.0,3.m4v,3.0
2024-02-27 11:25:45.962273,1709029545.962273,46.38671875,-91.30859375,27.83203125,156.73828125,1.0,0.0,1.0,1.0,3.m4v,3.0
2024-02-27 11:25:45.966179,1709029545.966179,52.24609375,-63.96484375,38.0859375,165.0390625,1.0,0.0,1.0,1.0,3.m4v,3.0
2024-02-27 11:25:45.970084,1709029545.9700844,65.91796875,-52.24609375,43.9453125,180.6640625,1.0,0.0,1.0,1.0,3.m4v,3.0
2024-02-27 11:25:45.973991,1709029545.9739914,47.36328125,-66.89453125,51.26953125,208.0078125,1.0,0.0,1.0,1.0,3.m4v,3.0
2024-02-27 11:25:45.977897,1709029545.977897,50.78125,-62.5,43.9453125,195.3125,1.0,0.0,1.0,1.0,3.m4v,3.0
2024-02-27 11:25:45.981803,1709029545.9818027,66.89453125,-53.22265625,46.38671875,184.5703125,1.0,0.0,1.0,1.0,3.m4v,3.0
2024-02-27 11:25:45.985708,1709029545.9857085,65.4296875,-54.6875,46.38671875,193.84765625,1.0,0.0,1.0,1.0,3.m4v,3.0
2024-02-27 11:25:45.989614,1709029545.9896142,51.26953125,-59.08203125,43.45703125,187.01171875,1.0,0.0,1.0,1.0,3.m4v,3.0
2024-02-27 11:25:45.993520,1709029545.9935198,48.828125,-42.48046875,50.29296875,181.15234375,1.0,0.0,1.0,1.0,3.m4v,3.0
2024-02-27 11:25:45.997426,1709029545.9974256,57.12890625,-37.109375,60.546875,192.87109375,1.0,0.0,1.0,1.0,3.m4v,3.0
2024-02-27 11:25:46.001331,1709029546.001331,55.6640625,-73.2421875,71.2890625,187.5,1.0,0.0,1.0,1.0,3.m4v,3.0
2024-02-27 11:25:46.005237,1709029546.005237,39.55078125,-85.9375,77.63671875,181.640625,1.0,0.0,1.0,1.0,3.m4v,3.0
2024-02-27 11:25:46.009143,1709029546.0091429,38.0859375,-93.75,83.0078125,189.94140625,1.0,0.0,1.0,1.0,3.m4v,3.0
2024-02-27 11:25:46.013048,1709029546.0130484,66.40625,-80.078125,80.56640625,199.70703125,1.0,0.0,1.0,1.0,3.m4v,3.0
2024-02-27 11:25:46.016954,1709029546.0169542,48.828125,-62.98828125,81.54296875,194.82421875,1.0,0.0,1.0,1.0,3.m4v,3.0
2024-02-27 11:25:46.020861,1709029546.020861,58.10546875,-56.640625,87.40234375,183.59375,1.0,0.0,1.0,1.0,3.m4v,3.0
2024-02-27 11:25:46.024766,1709029546.0247664,57.6171875,-51.7578125,73.73046875,171.38671875,1.0,0.0,1.0,1.0,3.m4v,3.0
2024-02-27 11:25:46.028672,1709029546.0286722,27.83203125,-62.01171875,62.98828125,181.640625,1.0,0.0,1.0,1.0,3.m4v,3.0
2024-02-27 11:25:46.032578,1709029546.032578,41.50390625,-52.24609375,62.98828125,195.80078125,1.0,0.0,1.0,1.0,3.m4v,3.0
2024-02-27 11:25:46.036484,1709029546.0364835,65.4296875,-42.48046875,68.359375,215.8203125,1.0,0.0,1.0,1.0,3.m4v,3.0
2024-02-27 11:25:46.040389,1709029546.0403893,73.73046875,-31.73828125,59.08203125,202.1484375,1.0,0.0,1.0,1.0,3.m4v,3.0
2024-02-27 11:25:46.044295,1709029546.044295,54.6875,-32.2265625,52.24609375,174.8046875,1.0,0.0,1.0,1.0,3.m4v,3.0
2024-02-27 11:25:46.048201,1709029546.0482008,51.7578125,-71.77734375,51.7578125,179.19921875,1.0,0.0,1.0,1.0,3.m4v,3.0
2024-02-27 11:25:46.052107,1709029546.0521066,50.29296875,-73.73046875,55.6640625,197.265625,1.0,0.0,1.0,1.0,3.m4v,3.0
2024-02-27 11:25:46.056012,1709029546.0560122,65.4296875,-50.78125,46.875,205.078125,1.0,0.0,1.0,1.0,3.m4v,3.0
2024-02-27 11:25:46.059918,1709029546.059918,71.2890625,-55.17578125,40.52734375,195.3125,1.0,0.0,1.0,1.0,3.m4v,3.0
2024-02-27 11:25:46.063824,1709029546.0638237,56.640625,-53.7109375,42.96875,168.45703125,1.0,0.0,1.0,1.0,3.m4v,3.0
2024-02-27 11:25:46.067730,1709029546.0677304,58.59375,-47.8515625,23.4375,143.06640625,1.0,0.0,1.0,1.0,3.m4v,3.0
2024-02-27 11:25:46.071636,1709029546.071636,60.546875,-62.01171875,15.625,165.0390625,1.0,0.0,1.0,1.0,3.m4v,3.0
2024-02-27 11:25:46.075542,1709029546.0755415,61.03515625,-45.8984375,16.11328125,191.40625,1.0,0.0,1.0,1.0,3.m4v,3.0
2024-02-27 11:25:46.079448,1709029546.0794475,45.8984375,-37.109375,22.4609375,189.453125,1.0,0.0,1.0,1.0,3.m4v,3.0
2024-02-27 11:25:46.083353,1709029546.0833533,58.59375,-41.9921875,25.390625,184.5703125,1.0,0.0,1.0,1.0,3.m4v,3.0
2024-02-27 11:25:46.087259,1709029546.0872588,68.84765625,-22.4609375,21.97265625,170.41015625,1.0,0.0,1.0,1.0,3.m4v,3.0
2024-02-27 11:25:46.091165,1709029546.0911646,57.6171875,-22.94921875,17.578125,185.05859375,1.0,0.0,1.0,1.0,3.m4v,3.0
2024-02-27 11:25:46.095070,1709029546.0950704,41.9921875,-55.17578125,12.6953125,177.734375,1.0,0.0,1.0,1.0,3.m4v,3.0
2024-02-27 11:25:46.266926,1709029546.2669258,-41.015625,-10.25390625,-45.8984375,39.55078125,1.0,0.0,1.0,1.0,3.m4v,3.0
2024-02-27 11:25:46.270832,1709029546.2708316,-38.57421875,-7.8125,-20.01953125,66.89453125,1.0,0.0,1.0,1.0,3.m4v,3.0
2024-02-27 11:25:46.274737,1709029546.2747374,-34.1796875,28.80859375,-8.30078125,115.234375,1.0,0.0,1.0,1.0,3.m4v,3.0
2024-02-27 11:25:46.278643,1709029546.278643,-19.04296875,18.5546875,-8.7890625,130.37109375,1.0,0.0,1.0,1.0,3.m4v,3.0
2024-02-27 11:25:46.282549,1709029546.282549,-7.32421875,-22.4609375,-18.06640625,96.19140625,1.0,0.0,1.0,1.0,3.m4v,3.0
2024-02-27 11:25:46.286454,1709029546.2864544,14.6484375,-21.97265625,-19.04296875,80.078125,1.0,0.0,1.0,1.0,3.m4v,3.0
2024-02-27 11:25:46.290360,1709029546.2903602,20.99609375,-12.6953125,-26.3671875,97.16796875,1.0,0.0,1.0,1.0,3.m4v,3.0
2024-02-27 11:25:46.294266,1709029546.294266,9.27734375,-10.7421875,-29.78515625,121.09375,1.0,0.0,1.0,1.0,3.m4v,3.0
2024-02-27 11:25:46.298172,1709029546.2981715,20.99609375,-12.6953125,-15.13671875,132.8125,1.0,0.0,1.0,1.0,3.m4v,3.0
2024-02-27 11:25:46.302079,1709029546.302079,49.31640625,-8.7890625,-5.37109375,126.953125,1.0,0.0,1.0,1.0,3.m4v,3.0
2024-02-27 11:25:46.305984,1709029546.3059845,75.1953125,10.25390625,-23.92578125,105.95703125,1.0,0.0,1.0,1.0,3.m4v,3.0
2024-02-27 11:25:46.309890,1709029546.3098905,51.7578125,-1.46484375,-30.2734375,121.09375,1.0,0.0,1.0,1.0,3.m4v,3.0
2024-02-27 11:25:46.313796,1709029546.313796,40.52734375,-10.7421875,-23.4375,142.08984375,1.0,0.0,1.0,1.0,3.m4v,3.0
2024-02-27 11:25:46.317702,1709029546.3177018,61.03515625,-10.7421875,-18.06640625,137.6953125,1.0,0.0,1.0,1.0,3.m4v,3.0
2024-02-27 11:25:46.321607,1709029546.3216074,66.40625,2.44140625,-16.11328125,136.71875,1.0,0.0,1.0,1.0,3.m4v,3.0
2024-02-27 11:25:46.325513,1709029546.3255131,54.6875,-0.9765625,-24.4140625,113.28125,1.0,0.0,1.0,1.0,3.m4v,3.0
2024-02-27 11:25:46.329419,1709029546.329419,63.96484375,-24.4140625,-36.1328125,111.81640625,1.0,0.0,1.0,1.0,3.m4v,3.0
2024-02-27 11:25:46.333325,1709029546.333325,58.59375,-30.2734375,-35.64453125,159.66796875,1.0,0.0,1.0,1.0,3.m4v,3.0
2024-02-27 11:25:46.337230,1709029546.3372304,92.7734375,-26.3671875,-61.03515625,186.03515625,1.0,0.0,1.0,1.0,3.m4v,3.0
2024-02-27 11:25:46.341136,1709029546.341136,114.2578125,-31.25,-68.359375,148.4375,1.0,0.0,1.0,1.0,3.m4v,3.0
2024-02-27 11:25:46.345042,1709029546.3450418,52.24609375,-32.2265625,-21.97265625,110.3515625,1.0,0.0,1.0,1.0,3.m4v,3.0
2024-02-27 11:25:46.348948,1709029546.3489485,37.109375,-33.69140625,4.39453125,120.1171875,1.0,0.0,1.0,1.0,3.m4v,3.0
2024-02-27 11:25:46.352854,1709029546.3528545,48.828125,-22.4609375,-1.953125,143.5546875,1.0,0.0,1.0,1.0,3.m4v,3.0
2024-02-27 11:25:46.356760,1709029546.35676,58.59375,-36.1328125,0.48828125,158.203125,1.0,0.0,1.0,1.0,3.m4v,3.0
2024-02-27 11:25:46.360666,1709029546.3606658,61.03515625,-57.6171875,-8.30078125,140.625,1.0,0.0,1.0,1.0,3.m4v,3.0
2024-02-27 11:25:46.364572,1709029546.3645716,37.109375,-26.3671875,-13.671875,115.234375,1.0,0.0,1.0,1.0,3.m4v,3.0
2024-02-27 11:25:46.368477,1709029546.368477,40.0390625,3.41796875,-23.92578125,125.48828125,1.0,0.0,1.0,1.0,3.m4v,3.0
2024-02-27 11:25:46.372383,1709029546.3723829,51.26953125,-6.34765625,-22.4609375,152.83203125,1.0,0.0,1.0,1.0,3.m4v,3.0
2024-02-27 11:25:46.376289,1709029546.376289,44.43359375,-47.36328125,-5.37109375,127.44140625,1.0,0.0,1.0,1.0,3.m4v,3.0
2024-02-27 11:25:46.380194,1709029546.3801944,47.36328125,-61.03515625,-4.39453125,110.3515625,1.0,0.0,1.0,1.0,3.m4v,3.0
2024-02-27 11:25:46.384100,1709029546.3841,77.1484375,-42.96875,-18.5546875,117.67578125,1.0,0.0,1.0,1.0,3.m4v,3.0
2024-02-27 11:25:46.388006,1709029546.3880055,88.8671875,-38.0859375,-26.3671875,117.1875,1.0,0.0,1.0,1.0,3.m4v,3.0
2024-02-27 11:25:46.391912,1709029546.3919115,70.80078125,-44.43359375,-14.16015625,128.90625,1.0,0.0,1.0,1.0,3.m4v,3.0
2024-02-27 11:25:46.395818,1709029546.395818,77.1484375,-38.57421875,-7.8125,145.01953125,1.0,0.0,1.0,1.0,3.m4v,3.0
2024-02-27 11:25:46.399724,1709029546.3997235,84.9609375,-32.71484375,-19.04296875,124.51171875,1.0,0.0,1.0,1.0,3.m4v,3.0
2024-02-27 11:25:46.403629,1709029546.4036293,75.1953125,-38.0859375,-20.99609375,105.46875,1.0,0.0,1.0,1.0,3.m4v,3.0
2024-02-27 11:25:46.407535,1709029546.407535,72.75390625,-43.9453125,-20.01953125,106.4453125,1.0,0.0,1.0,1.0,3.m4v,3.0
2024-02-27 11:25:46.411441,1709029546.4114408,51.7578125,-37.59765625,-18.06640625,130.859375,1.0,0.0,1.0,1.0,3.m4v,3.0
2024-02-27 11:25:46.415347,1709029546.4153466,41.015625,-17.08984375,-19.53125,128.90625,1.0,0.0,1.0,1.0,3.m4v,3.0
2024-02-27 11:25:46.419252,1709029546.4192522,54.19921875,-29.78515625,-22.94921875,109.86328125,1.0,0.0,1.0,1.0,3.m4v,3.0
2024-02-27 11:25:46.423158,1709029546.423158,69.3359375,-41.9921875,-22.94921875,102.05078125,1.0,0.0,1.0,1.0,3.m4v,3.0
2024-02-27 11:25:46.427064,1709029546.4270637,52.24609375,-28.3203125,-30.76171875,98.14453125,1.0,0.0,1.0,1.0,3.m4v,3.0
2024-02-27 11:25:46.430969,1709029546.4309697,40.52734375,-48.828125,-28.80859375,102.05078125,1.0,0.0,1.0,1.0,3.m4v,3.0
2024-02-27 11:25:46.434875,1709029546.434875,66.40625,-42.48046875,-25.390625,116.69921875,1.0,0.0,1.0,1.0,3.m4v,3.0
2024-02-27 11:25:46.438781,1709029546.4387808,73.73046875,-23.92578125,-31.25,122.0703125,1.0,0.0,1.0,1.0,3.m4v,3.0
2024-02-27 11:25:46.442687,1709029546.442687,67.3828125,-26.3671875,-40.0390625,102.05078125,1.0,0.0,1.0,1.0,3.m4v,3.0
2024-02-27 11:25:46.446593,1709029546.4465928,55.6640625,-36.62109375,-38.57421875,81.0546875,1.0,0.0,1.0,1.0,3.m4v,3.0
2024-02-27 11:25:46.450499,1709029546.4504986,46.875,-32.71484375,-25.87890625,100.5859375,1.0,0.0,1.0,1.0,3.m4v,3.0
2024-02-27 11:25:46.454404,1709029546.4544044,75.68359375,-20.99609375,-25.390625,117.67578125,1.0,0.0,1.0,1.0,3.m4v,3.0
2024-02-27 11:25:46.458310,1709029546.45831,67.87109375,-31.25,-24.90234375,118.65234375,1.0,0.0,1.0,1.0,3.m4v,3.0
2024-02-27 11:25:46.462216,1709029546.4622157,41.50390625,-21.97265625,-22.4609375,106.4453125,1.0,0.0,1.0,1.0,3.m4v,3.0
2024-02-27 11:25:46.466121,1709029546.4661214,65.4296875,-28.80859375,-40.0390625,71.77734375,1.0,0.0,1.0,1.0,3.m4v,3.0
2024-02-27 11:25:46.470027,1709029546.4700272,63.96484375,-53.22265625,-40.52734375,83.49609375,1.0,0.0,1.0,1.0,3.m4v,3.0
2024-02-27 11:25:46.473933,1709029546.473933,61.03515625,-36.62109375,-23.92578125,118.65234375,1.0,0.0,1.0,1.0,3.m4v,3.0
2024-02-27 11:25:46.477839,1709029546.4778385,64.94140625,-22.4609375,-27.34375,99.12109375,1.0,0.0,1.0,1.0,3.m4v,3.0
2024-02-27 11:25:46.481744,1709029546.4817443,39.55078125,-19.53125,-20.99609375,76.66015625,1.0,0.0,1.0,1.0,3.m4v,3.0
2024-02-27 11:25:46.485650,1709029546.48565,29.78515625,-18.06640625,-9.765625,88.37890625,1.0,0.0,1.0,1.0,3.m4v,3.0
2024-02-27 11:25:46.489556,1709029546.4895563,41.015625,-39.55078125,-16.6015625,109.375,1.0,0.0,1.0,1.0,3.m4v,3.0
2024-02-27 11:25:46.493462,1709029546.493462,43.9453125,-43.45703125,-20.5078125,101.5625,1.0,0.0,1.0,1.0,3.m4v,3.0
2024-02-27 11:25:46.497368,1709029546.497368,30.76171875,-46.875,-15.13671875,97.65625,1.0,0.0,1.0,1.0,3.m4v,3.0
2024-02-27 11:25:46.501273,1709029546.5012734,37.59765625,-52.734375,-20.5078125,95.21484375,1.0,0.0,1.0,1.0,3.m4v,3.0
2024-02-27 11:25:46.505179,1709029546.5051792,48.828125,-44.921875,-31.73828125,81.0546875,1.0,0.0,1.0,1.0,3.m4v,3.0
2024-02-27 11:25:46.509085,1709029546.509085,41.9921875,-24.4140625,-25.87890625,92.7734375,1.0,0.0,1.0,1.0,3.m4v,3.0
2024-02-27 11:25:46.512991,1709029546.5129907,41.50390625,-35.15625,-21.97265625,91.30859375,1.0,0.0,1.0,1.0,3.m4v,3.0
2024-02-27 11:25:46.516896,1709029546.5168965,48.828125,-62.01171875,-29.296875,93.26171875,1.0,0.0,1.0,1.0,3.m4v,3.0
2024-02-27 11:25:46.520802,1709029546.520802,56.15234375,-62.5,-22.4609375,121.09375,1.0,0.0,1.0,1.0,3.m4v,3.0
2024-02-27 11:25:46.524708,1709029546.5247078,52.24609375,-43.9453125,-32.2265625,74.70703125,1.0,0.0,1.0,1.0,3.m4v,3.0
2024-02-27 11:25:46.528614,1709029546.5286136,35.15625,-32.71484375,-51.26953125,37.59765625,1.0,0.0,1.0,1.0,3.m4v,3.0
2024-02-27 11:25:46.532519,1709029546.532519,32.71484375,-48.828125,-37.59765625,79.58984375,1.0,0.0,1.0,1.0,3.m4v,3.0
2024-02-27 11:25:46.536425,1709029546.536425,17.578125,-59.08203125,-9.27734375,101.5625,1.0,0.0,1.0,1.0,3.m4v,3.0
2024-02-27 11:25:46.540331,1709029546.5403306,-17.08984375,-62.01171875,-17.578125,46.875,1.0,0.0,1.0,1.0,3.m4v,3.0
2024-02-27 11:25:46.544236,1709029546.5442364,0.9765625,-41.015625,-34.1796875,21.97265625,1.0,0.0,1.0,1.0,3.m4v,3.0
2024-02-27 11:25:46.548142,1709029546.5481422,45.8984375,-26.3671875,-27.83203125,54.19921875,1.0,0.0,1.0,1.0,3.m4v,3.0
2024-02-27 11:25:46.552048,1709029546.552048,25.390625,-34.66796875,-14.6484375,58.59375,1.0,0.0,1.0,1.0,3.m4v,3.0
2024-02-27 11:25:46.555954,1709029546.5559535,9.27734375,-19.04296875,-13.671875,63.96484375,1.0,0.0,1.0,1.0,3.m4v,3.0
2024-02-27 11:25:46.559859,1709029546.5598593,29.296875,-14.16015625,-30.2734375,50.78125,1.0,0.0,1.0,1.0,3.m4v,3.0
2024-02-27 11:25:46.563765,1709029546.563765,23.92578125,-52.734375,-26.3671875,21.484375,1.0,0.0,1.0,1.0,3.m4v,3.0
2024-02-27 11:25:46.567671,1709029546.5676708,-5.859375,-78.61328125,-18.06640625,21.484375,1.0,0.0,1.0,1.0,3.m4v,3.0
2024-02-27 11:25:46.571577,1709029546.5715766,-7.32421875,-70.80078125,-15.13671875,47.8515625,1.0,0.0,1.0,1.0,3.m4v,3.0
2024-02-27 11:25:46.575482,1709029546.575482,12.20703125,-51.26953125,-19.53125,78.61328125,1.0,0.0,1.0,1.0,3.m4v,3.0
2024-02-27 11:25:46.579388,1709029546.579388,31.25,-23.92578125,-36.1328125,44.921875,1.0,0.0,1.0,1.0,3.m4v,3.0
2024-02-27 11:25:46.583296,1709029546.5832956,19.53125,-41.015625,-34.66796875,18.06640625,1.0,0.0,1.0,1.0,3.m4v,3.0
2024-02-27 11:25:46.587201,1709029546.587201,7.8125,-67.3828125,-28.3203125,36.62109375,1.0,0.0,1.0,1.0,3.m4v,3.0
2024-02-27 11:25:46.591107,1709029546.591107,16.11328125,-54.19921875,-30.2734375,35.15625,1.0,0.0,1.0,1.0,3.m4v,3.0
2024-02-27 11:25:46.595013,1709029546.595013,29.78515625,-30.2734375,-39.0625,45.8984375,1.0,0.0,1.0,1.0,3.m4v,3.0
2024-02-27 11:25:46.598918,1709029546.5989184,45.41015625,-26.3671875,-53.22265625,48.33984375,1.0,0.0,1.0,1.0,3.m4v,3.0
2024-02-27 11:25:46.602824,1709029546.6028242,23.92578125,-32.2265625,-37.109375,35.64453125,1.0,0.0,1.0,1.0,3.m4v,3.0
2024-02-27 11:25:46.606730,1709029546.6067295,1.46484375,-26.85546875,-14.16015625,24.4140625,1.0,0.0,1.0,1.0,3.m4v,3.0
2024-02-27 11:25:46.610636,1709029546.6106355,16.11328125,-36.62109375,-15.625,26.3671875,1.0,0.0,1.0,1.0,3.m4v,3.0
2024-02-27 11:25:46.614541,1709029546.6145413,30.76171875,-47.8515625,-16.11328125,54.19921875,1.0,0.0,1.0,1.0,3.m4v,3.0
2024-02-27 11:25:46.618447,1709029546.618447,7.8125,-41.9921875,-24.90234375,52.734375,1.0,0.0,1.0,1.0,3.m4v,3.0
2024-02-27 11:25:46.622353,1709029546.6223526,4.39453125,-41.9921875,-42.96875,6.8359375,1.0,0.0,1.0,1.0,3.m4v,3.0
2024-02-27 11:25:46.665317,1709029546.6653173,33.69140625,-13.18359375,-42.48046875,29.78515625,1.0,0.0,1.0,1.0,3.m4v,3.0
2024-02-27 11:25:46.669223,1709029546.669223,27.83203125,-34.1796875,-36.1328125,31.25,1.0,0.0,1.0,1.0,3.m4v,3.0
2024-02-27 11:25:46.673129,1709029546.6731288,37.59765625,-43.45703125,-32.71484375,31.73828125,1.0,0.0,1.0,1.0,3.m4v,3.0
2024-02-27 11:25:46.677036,1709029546.6770358,37.59765625,-40.0390625,-26.85546875,39.55078125,1.0,0.0,1.0,1.0,3.m4v,3.0
2024-02-27 11:25:46.680942,1709029546.6809416,3.41796875,-48.828125,-23.4375,29.78515625,1.0,0.0,1.0,1.0,3.m4v,3.0
2024-02-27 11:25:46.684847,1709029546.6848474,11.71875,-31.25,-28.3203125,20.5078125,1.0,0.0,1.0,1.0,3.m4v,3.0
2024-02-27 11:25:46.688753,1709029546.6887531,31.25,-20.01953125,-31.73828125,23.92578125,1.0,0.0,1.0,1.0,3.m4v,3.0
2024-02-27 11:25:46.692659,1709029546.692659,19.53125,-24.4140625,-35.64453125,31.25,1.0,0.0,1.0,1.0,3.m4v,3.0
2024-02-27 11:25:46.696564,1709029546.6965644,22.4609375,-5.859375,-25.390625,56.15234375,1.0,0.0,1.0,1.0,3.m4v,3.0
2024-02-27 11:25:46.762963,1709029546.762963,27.83203125,-34.66796875,-33.203125,-12.20703125,1.0,0.0,1.0,1.0,3.m4v,3.0
2024-02-27 11:25:47.098863,1709029547.0988634,-82.03125,-48.33984375,-32.2265625,-24.90234375,1.0,0.0,1.0,1.0,3.m4v,3.0
2024-02-27 11:25:47.102769,1709029547.1027691,-68.84765625,-59.08203125,-26.85546875,-51.26953125,1.0,0.0,1.0,1.0,3.m4v,3.0
2024-02-27 11:25:47.106675,1709029547.106675,-53.7109375,-66.89453125,-17.08984375,-41.9921875,1.0,0.0,1.0,1.0,3.m4v,3.0
2024-02-27 11:25:47.110580,1709029547.1105804,-64.94140625,-51.7578125,-20.01953125,-22.4609375,1.0,0.0,1.0,1.0,3.m4v,3.0
2024-02-27 11:25:47.114486,1709029547.1144862,-69.3359375,-32.2265625,-29.78515625,-25.390625,1.0,0.0,1.0,1.0,3.m4v,3.0
2024-02-27 11:25:47.118392,1709029547.118392,-50.78125,-5.37109375,-32.2265625,-25.390625,1.0,0.0,1.0,1.0,3.m4v,3.0
2024-02-27 11:25:47.122298,1709029547.1222975,-45.41015625,-21.484375,-14.16015625,-8.30078125,1.0,0.0,1.0,1.0,3.m4v,3.0
2024-02-27 11:25:47.126203,1709029547.1262033,-52.24609375,-61.03515625,0.0,4.39453125,1.0,0.0,1.0,1.0,3.m4v,3.0
2024-02-27 11:25:47.130109,1709029547.130109,-71.77734375,-74.21875,-12.20703125,-10.7421875,1.0,0.0,1.0,1.0,3.m4v,3.0
2024-02-27 11:25:47.134015,1709029547.1340148,-76.66015625,-63.96484375,-24.4140625,-28.3203125,1.0,0.0,1.0,1.0,3.m4v,3.0
2024-02-27 11:25:47.137921,1709029547.1379206,-38.0859375,-44.43359375,-24.4140625,-9.27734375,1.0,0.0,1.0,1.0,3.m4v,3.0
2024-02-27 11:25:47.141826,1709029547.1418262,-26.85546875,-36.1328125,-28.80859375,-12.6953125,1.0,0.0,1.0,1.0,3.m4v,3.0
2024-02-27 11:25:47.145733,1709029547.145733,-50.78125,-27.83203125,-34.66796875,-19.53125,1.0,0.0,1.0,1.0,3.m4v,3.0
2024-02-27 11:25:47.149639,1709029547.149639,-54.19921875,-44.43359375,-29.78515625,-18.06640625,1.0,0.0,1.0,1.0,3.m4v,3.0
2024-02-27 11:25:47.153544,1709029547.1535444,-62.01171875,-54.6875,-11.23046875,-1.953125,1.0,0.0,1.0,1.0,3.m4v,3.0
2024-02-27 11:25:47.157450,1709029547.1574502,-63.96484375,-47.8515625,-1.46484375,9.765625,1.0,0.0,1.0,1.0,3.m4v,3.0
2024-02-27 11:25:47.161356,1709029547.161356,-71.77734375,-52.734375,-15.625,-12.6953125,1.0,0.0,1.0,1.0,3.m4v,3.0
2024-02-27 11:25:47.165262,1709029547.1652615,-71.2890625,-33.203125,-24.90234375,-32.71484375,1.0,0.0,1.0,1.0,3.m4v,3.0
2024-02-27 11:25:47.169168,1709029547.1691675,-64.94140625,-23.92578125,-25.87890625,-42.48046875,1.0,0.0,1.0,1.0,3.m4v,3.0
2024-02-27 11:25:47.173073,1709029547.173073,-44.43359375,-45.8984375,-14.6484375,-6.8359375,1.0,0.0,1.0,1.0,3.m4v,3.0
2024-02-27 11:25:47.176979,1709029547.1769788,-38.57421875,-38.0859375,-20.01953125,25.87890625,1.0,0.0,1.0,1.0,3.m4v,3.0
2024-02-27 11:25:47.180885,1709029547.1808846,-53.7109375,-40.0390625,-28.80859375,-2.9296875,1.0,0.0,1.0,1.0,3.m4v,3.0
2024-02-27 11:25:47.184790,1709029547.1847904,-38.0859375,-48.828125,-22.94921875,-15.625,1.0,0.0,1.0,1.0,3.m4v,3.0
2024-02-27 11:25:47.188696,1709029547.188696,-38.0859375,-48.828125,-21.97265625,-11.23046875,1.0,0.0,1.0,1.0,3.m4v,3.0
2024-02-27 11:25:47.192602,1709029547.1926024,-54.6875,-40.52734375,-6.8359375,5.859375,1.0,0.0,1.0,1.0,3.m4v,3.0
2024-02-27 11:25:47.196508,1709029547.1965082,-44.43359375,-38.57421875,-1.46484375,23.92578125,1.0,0.0,1.0,1.0,3.m4v,3.0
2024-02-27 11:25:47.200414,1709029547.2004137,-39.0625,-36.62109375,-20.5078125,1.953125,1.0,0.0,1.0,1.0,3.m4v,3.0
2024-02-27 11:25:47.204319,1709029547.2043197,-48.828125,-22.4609375,-24.90234375,-13.18359375,1.0,0.0,1.0,1.0,3.m4v,3.0
2024-02-27 11:25:47.208225,1709029547.2082253,-62.98828125,-33.69140625,-24.90234375,-21.97265625,1.0,0.0,1.0,1.0,3.m4v,3.0
2024-02-27 11:25:47.212131,1709029547.212131,-60.05859375,-17.08984375,-17.08984375,20.99609375,1.0,0.0,1.0,1.0,3.m4v,3.0
2024-02-27 11:25:47.216037,1709029547.2160366,-42.48046875,4.8828125,-19.04296875,63.4765625,1.0,0.0,1.0,1.0,3.m4v,3.0
2024-02-27 11:25:47.219942,1709029547.2199423,-56.640625,-39.0625,-42.96875,13.18359375,1.0,0.0,1.0,1.0,3.m4v,3.0
2024-02-27 11:25:47.223848,1709029547.223848,-69.3359375,-70.80078125,-38.57421875,-20.01953125,1.0,0.0,1.0,1.0,3.m4v,3.0
2024-02-27 11:25:47.227754,1709029547.227754,-54.19921875,-53.7109375,-24.4140625,-8.7890625,1.0,0.0,1.0,1.0,3.m4v,3.0
2024-02-27 11:25:47.231660,1709029547.2316597,-60.05859375,-47.8515625,-10.7421875,6.8359375,1.0,0.0,1.0,1.0,3.m4v,3.0
2024-02-27 11:25:47.235565,1709029547.2355652,-53.7109375,-48.33984375,-12.20703125,24.90234375,1.0,0.0,1.0,1.0,3.m4v,3.0
2024-02-27 11:25:47.239471,1709029547.2394714,-36.62109375,-38.0859375,-27.34375,17.578125,1.0,0.0,1.0,1.0,3.m4v,3.0
2024-02-27 11:25:47.243377,1709029547.2433772,-57.6171875,-49.31640625,-21.97265625,-6.8359375,1.0,0.0,1.0,1.0,3.m4v,3.0
2024-02-27 11:25:47.247283,1709029547.2472827,-73.73046875,-53.22265625,-24.4140625,-23.92578125,1.0,0.0,1.0,1.0,3.m4v,3.0
2024-02-27 11:25:47.251189,1709029547.2511885,-51.26953125,-36.62109375,-20.99609375,8.30078125,1.0,0.0,1.0,1.0,3.m4v,3.0
2024-02-27 11:25:47.255094,1709029547.2550943,-35.15625,-25.87890625,-15.13671875,43.45703125,1.0,0.0,1.0,1.0,3.m4v,3.0
2024-02-27 11:25:47.259000,1709029547.259,-32.2265625,-13.671875,-18.06640625,29.296875,1.0,0.0,1.0,1.0,3.m4v,3.0
2024-02-27 11:25:47.262906,1709029547.2629058,-41.9921875,-20.5078125,-20.5078125,17.08984375,1.0,0.0,1.0,1.0,3.m4v,3.0
2024-02-27 11:25:47.266811,1709029547.2668114,-39.55078125,-41.50390625,-22.4609375,19.04296875,1.0,0.0,1.0,1.0,3.m4v,3.0
2024-02-27 11:25:47.270717,1709029547.2707171,-28.80859375,-42.48046875,-16.6015625,26.85546875,1.0,0.0,1.0,1.0,3.m4v,3.0
2024-02-27 11:25:47.321491,1709029547.3214917,-15.625,-20.99609375,-51.26953125,21.484375,1.0,0.0,1.0,1.0,3.m4v,3.0
2024-02-27 11:25:47.325397,1709029547.3253973,-12.20703125,-5.859375,-48.33984375,-19.04296875,1.0,0.0,1.0,1.0,3.m4v,3.0
2024-02-27 11:25:47.329303,1709029547.329303,-19.53125,-17.578125,-29.78515625,19.53125,1.0,0.0,1.0,1.0,3.m4v,3.0
2024-02-27 11:25:47.333210,1709029547.3332105,-31.73828125,-37.59765625,-22.4609375,32.2265625,1.0,0.0,1.0,1.0,3.m4v,3.0
2024-02-27 11:25:47.337116,1709029547.3371162,-33.69140625,-37.59765625,-28.3203125,8.7890625,1.0,0.0,1.0,1.0,3.m4v,3.0
2024-02-27 11:25:47.341022,1709029547.341022,-19.53125,-27.34375,-39.55078125,8.30078125,1.0,0.0,1.0,1.0,3.m4v,3.0
2024-02-27 11:25:47.344928,1709029547.3449278,-13.18359375,-22.4609375,-39.0625,28.80859375,1.0,0.0,1.0,1.0,3.m4v,3.0
2024-02-27 11:25:47.348833,1709029547.348833,-21.484375,-16.11328125,-40.52734375,22.94921875,1.0,0.0,1.0,1.0,3.m4v,3.0
2024-02-27 11:25:47.352739,1709029547.352739,-2.44140625,23.4375,-40.0390625,39.55078125,1.0,0.0,1.0,1.0,3.m4v,3.0
2024-02-27 11:25:47.356645,1709029547.3566449,-4.8828125,17.578125,-29.78515625,53.7109375,1.0,0.0,1.0,1.0,3.m4v,3.0
2024-02-27 11:25:47.360551,1709029547.3605506,-20.99609375,-19.04296875,-33.203125,31.25,1.0,0.0,1.0,1.0,3.m4v,3.0
2024-02-27 11:25:47.364456,1709029547.3644564,-7.32421875,-17.08984375,-45.41015625,-2.9296875,1.0,0.0,1.0,1.0,3.m4v,3.0
2024-02-27 11:25:47.368362,1709029547.368362,-13.18359375,-8.30078125,-51.7578125,-2.9296875,1.0,0.0,1.0,1.0,3.m4v,3.0
2024-02-27 11:25:47.372268,1709029547.3722675,-16.6015625,-13.671875,-38.57421875,20.5078125,1.0,0.0,1.0,1.0,3.m4v,3.0
2024-02-27 11:25:47.376173,1709029547.3761735,-9.765625,-13.18359375,-27.83203125,39.55078125,1.0,0.0,1.0,1.0,3.m4v,3.0
2024-02-27 11:25:47.380081,1709029547.380081,-7.8125,-5.37109375,-38.57421875,32.71484375,1.0,0.0,1.0,1.0,3.m4v,3.0
2024-02-27 11:25:47.383987,1709029547.3839867,0.0,9.765625,-38.0859375,29.78515625,1.0,0.0,1.0,1.0,3.m4v,3.0
2024-02-27 11:25:47.387892,1709029547.3878925,-13.671875,6.8359375,-43.45703125,19.53125,1.0,0.0,1.0,1.0,3.m4v,3.0
2024-02-27 11:25:47.391798,1709029547.3917985,-3.90625,-4.8828125,-54.19921875,11.71875,1.0,0.0,1.0,1.0,3.m4v,3.0
2024-02-27 11:25:47.395704,1709029547.3957038,-16.6015625,0.9765625,-41.9921875,20.99609375,1.0,0.0,1.0,1.0,3.m4v,3.0
2024-02-27 11:25:47.399610,1709029547.3996096,-0.9765625,22.4609375,-42.48046875,39.0625,1.0,0.0,1.0,1.0,3.m4v,3.0
2024-02-27 11:25:47.403515,1709029547.403515,-0.9765625,10.25390625,-46.38671875,29.296875,1.0,0.0,1.0,1.0,3.m4v,3.0
2024-02-27 11:25:47.407421,1709029547.407421,-17.08984375,-10.7421875,-51.7578125,-17.578125,1.0,0.0,1.0,1.0,3.m4v,3.0
2024-02-27 11:25:47.411327,1709029547.4113266,-8.30078125,3.41796875,-55.17578125,-25.390625,1.0,0.0,1.0,1.0,3.m4v,3.0
2024-02-27 11:25:47.415232,1709029547.4152324,-45.8984375,-8.7890625,-41.015625,11.23046875,1.0,0.0,1.0,1.0,3.m4v,3.0
2024-02-27 11:25:47.419138,1709029547.4191382,-23.4375,-0.48828125,-35.15625,25.390625,1.0,0.0,1.0,1.0,3.m4v,3.0
2024-02-27 11:25:47.423044,1709029547.423044,-17.08984375,16.6015625,-42.48046875,14.16015625,1.0,0.0,1.0,1.0,3.m4v,3.0
2024-02-27 11:25:47.426951,1709029547.4269512,-13.18359375,3.41796875,-53.22265625,-14.6484375,1.0,0.0,1.0,1.0,3.m4v,3.0
2024-02-27 11:25:47.430857,1709029547.4308567,-17.578125,-4.39453125,-39.55078125,11.71875,1.0,0.0,1.0,1.0,3.m4v,3.0
2024-02-27 11:25:47.434762,1709029547.4347625,-22.4609375,10.25390625,-33.69140625,41.50390625,1.0,0.0,1.0,1.0,3.m4v,3.0
2024-02-27 11:25:47.438668,1709029547.4386685,-2.44140625,11.23046875,-40.0390625,21.484375,1.0,0.0,1.0,1.0,3.m4v,3.0
2024-02-27 11:25:47.442574,1709029547.442574,-3.90625,0.0,-35.64453125,9.765625,1.0,0.0,1.0,1.0,3.m4v,3.0
2024-02-27 11:25:47.446480,1709029547.4464796,-6.34765625,17.578125,-44.921875,10.25390625,1.0,0.0,1.0,1.0,3.m4v,3.0
2024-02-27 11:25:47.450385,1709029547.450385,-9.27734375,15.13671875,-34.1796875,31.73828125,1.0,0.0,1.0,1.0,3.m4v,3.0
2024-02-27 11:25:47.454291,1709029547.454291,3.90625,-8.7890625,-24.90234375,33.203125,1.0,0.0,1.0,1.0,3.m4v,3.0
2024-02-27 11:25:47.458197,1709029547.4581969,-5.37109375,-12.6953125,-47.36328125,16.11328125,1.0,0.0,1.0,1.0,3.m4v,3.0
2024-02-27 11:25:47.462103,1709029547.462103,-26.85546875,-5.859375,-59.08203125,-11.71875,1.0,0.0,1.0,1.0,3.m4v,3.0
2024-02-27 11:25:47.466008,1709029547.4660082,-7.32421875,1.953125,-42.96875,-2.9296875,1.0,0.0,1.0,1.0,3.m4v,3.0
2024-02-27 11:25:47.469914,1709029547.469914,5.859375,0.48828125,-44.43359375,0.0,1.0,0.0,1.0,1.0,3.m4v,3.0
2024-02-27 11:25:47.473821,1709029547.473821,-23.4375,1.46484375,-49.8046875,-8.7890625,1.0,0.0,1.0,1.0,3.m4v,3.0
2024-02-27 11:25:47.477726,1709029547.4777265,-41.50390625,3.90625,-36.62109375,1.953125,1.0,0.0,1.0,1.0,3.m4v,3.0
2024-02-27 11:25:47.481632,1709029547.4816322,-52.24609375,-9.27734375,-48.33984375,-30.76171875,1.0,0.0,1.0,1.0,3.m4v,3.0
2024-02-27 11:25:47.485538,1709029547.485538,-33.69140625,-18.5546875,-53.7109375,-43.45703125,1.0,0.0,1.0,1.0,3.m4v,3.0
2024-02-27 11:25:47.489444,1709029547.4894438,-15.625,-13.671875,-41.9921875,-8.30078125,1.0,0.0,1.0,1.0,3.m4v,3.0
2024-02-27 11:25:47.493350,1709029547.4933496,-43.9453125,10.7421875,-21.484375,41.015625,1.0,0.0,1.0,1.0,3.m4v,3.0
2024-02-27 11:25:47.497255,1709029547.497255,-44.43359375,11.23046875,-27.34375,33.69140625,1.0,0.0,1.0,1.0,3.m4v,3.0
2024-02-27 11:25:47.501161,1709029547.5011609,-3.41796875,-30.2734375,-37.59765625,12.20703125,1.0,0.0,1.0,1.0,3.m4v,3.0
2024-02-27 11:25:47.505067,1709029547.5050666,20.01953125,-37.59765625,-25.87890625,17.08984375,1.0,0.0,1.0,1.0,3.m4v,3.0
2024-02-27 11:25:47.508972,1709029547.5089724,7.8125,-26.3671875,-35.15625,23.4375,1.0,0.0,1.0,1.0,3.m4v,3.0
2024-02-27 11:25:47.512878,1709029547.512878,-1.953125,-9.27734375,-50.78125,46.875,1.0,0.0,1.0,1.0,3.m4v,3.0
2024-02-27 11:25:47.516784,1709029547.5167837,-15.13671875,-20.01953125,-39.55078125,38.57421875,1.0,0.0,1.0,1.0,3.m4v,3.0
2024-02-27 11:25:47.520690,1709029547.5206904,-4.39453125,-25.87890625,-29.296875,21.484375,1.0,0.0,1.0,1.0,3.m4v,3.0
2024-02-27 11:25:47.524596,1709029547.524596,20.01953125,-7.8125,-29.296875,31.73828125,1.0,0.0,1.0,1.0,3.m4v,3.0
2024-02-27 11:25:47.528502,1709029547.5285015,13.18359375,-6.34765625,-31.73828125,42.48046875,1.0,0.0,1.0,1.0,3.m4v,3.0
2024-02-27 11:25:47.532408,1709029547.5324075,6.34765625,-3.90625,-27.83203125,59.5703125,1.0,0.0,1.0,1.0,3.m4v,3.0
2024-02-27 11:25:47.536313,1709029547.5363133,33.203125,-19.53125,-20.01953125,69.82421875,1.0,0.0,1.0,1.0,3.m4v,3.0
2024-02-27 11:25:47.540219,1709029547.5402188,63.4765625,-14.16015625,-45.8984375,63.4765625,1.0,0.0,1.0,1.0,3.m4v,3.0
2024-02-27 11:25:47.544125,1709029547.5441246,36.1328125,-9.765625,-61.03515625,47.8515625,1.0,0.0,1.0,1.0,3.m4v,3.0
2024-02-27 11:25:47.548030,1709029547.5480304,23.92578125,-28.80859375,-46.38671875,48.33984375,1.0,0.0,1.0,1.0,3.m4v,3.0
2024-02-27 11:25:47.551936,1709029547.551936,33.69140625,-29.296875,-21.484375,47.8515625,1.0,0.0,1.0,1.0,3.m4v,3.0
2024-02-27 11:25:47.555842,1709029547.555842,8.30078125,-31.25,-14.16015625,37.109375,1.0,0.0,1.0,1.0,3.m4v,3.0
2024-02-27 11:25:47.559747,1709029547.5597477,2.44140625,-45.8984375,-8.7890625,65.91796875,1.0,0.0,1.0,1.0,3.m4v,3.0
2024-02-27 11:25:47.563653,1709029547.5636532,-4.8828125,-46.38671875,-5.859375,62.98828125,1.0,0.0,1.0,1.0,3.m4v,3.0
2024-02-27 11:25:47.567560,1709029547.56756,4.39453125,-34.1796875,-20.99609375,21.97265625,1.0,0.0,1.0,1.0,3.m4v,3.0
2024-02-27 11:25:47.571465,1709029547.5714655,-0.48828125,-45.8984375,-28.80859375,20.99609375,1.0,0.0,1.0,1.0,3.m4v,3.0
2024-02-27 11:25:47.575371,1709029547.5753713,16.11328125,-41.9921875,-31.25,55.17578125,1.0,0.0,1.0,1.0,3.m4v,3.0
2024-02-27 11:25:47.579277,1709029547.579277,35.15625,-36.62109375,-41.50390625,58.10546875,1.0,0.0,1.0,1.0,3.m4v,3.0
2024-02-27 11:25:47.583183,1709029547.5831828,33.203125,-43.45703125,-35.64453125,46.38671875,1.0,0.0,1.0,1.0,3.m4v,3.0
2024-02-27 11:25:47.587088,1709029547.5870883,58.10546875,-20.99609375,-27.83203125,63.96484375,1.0,0.0,1.0,1.0,3.m4v,3.0
2024-02-27 11:25:47.590994,1709029547.590994,65.91796875,-16.6015625,-35.64453125,60.546875,1.0,0.0,1.0,1.0,3.m4v,3.0
2024-02-27 11:25:47.594900,1709029547.5949,58.10546875,-45.8984375,-40.0390625,67.87109375,1.0,0.0,1.0,1.0,3.m4v,3.0
2024-02-27 11:25:47.598806,1709029547.5988057,50.78125,-62.98828125,-21.484375,103.02734375,1.0,0.0,1.0,1.0,3.m4v,3.0
2024-02-27 11:25:47.602711,1709029547.6027114,63.96484375,-79.1015625,-24.4140625,82.03125,1.0,0.0,1.0,1.0,3.m4v,3.0
2024-02-27 11:25:47.606617,1709029547.606617,76.171875,-53.7109375,-39.0625,64.94140625,1.0,0.0,1.0,1.0,3.m4v,3.0
2024-02-27 11:25:47.610523,1709029547.6105227,77.63671875,-57.6171875,-31.25,94.23828125,1.0,0.0,1.0,1.0,3.m4v,3.0
2024-02-27 11:25:47.614429,1709029547.614429,81.54296875,-85.44921875,-22.4609375,105.95703125,1.0,0.0,1.0,1.0,3.m4v,3.0
2024-02-27 11:25:47.618335,1709029547.6183343,51.7578125,-45.41015625,-29.78515625,91.30859375,1.0,0.0,1.0,1.0,3.m4v,3.0
2024-02-27 11:25:47.622240,1709029547.6222403,30.76171875,-38.0859375,-33.203125,76.171875,1.0,0.0,1.0,1.0,3.m4v,3.0
2024-02-27 11:25:47.626146,1709029547.626146,23.92578125,-48.828125,-19.04296875,88.8671875,1.0,0.0,1.0,1.0,3.m4v,3.0
2024-02-27 11:25:47.630052,1709029547.630052,37.109375,-32.2265625,-28.3203125,76.66015625,1.0,0.0,1.0,1.0,3.m4v,3.0
2024-02-27 11:25:47.633957,1709029547.6339574,58.59375,-17.578125,-32.71484375,93.75,1.0,0.0,1.0,1.0,3.m4v,3.0
2024-02-27 11:25:47.637863,1709029547.6378632,57.12890625,-3.90625,-28.3203125,112.79296875,1.0,0.0,1.0,1.0,3.m4v,3.0
2024-02-27 11:25:47.641769,1709029547.641769,55.6640625,-27.34375,-34.1796875,88.37890625,1.0,0.0,1.0,1.0,3.m4v,3.0
2024-02-27 11:25:47.645675,1709029547.6456747,29.78515625,-56.15234375,-33.203125,63.4765625,1.0,0.0,1.0,1.0,3.m4v,3.0
2024-02-27 11:25:47.649580,1709029547.6495805,7.32421875,-47.36328125,-24.90234375,59.5703125,1.0,0.0,1.0,1.0,3.m4v,3.0
2024-02-27 11:25:47.653486,1709029547.653486,19.04296875,-40.52734375,-13.18359375,71.77734375,1.0,0.0,1.0,1.0,3.m4v,3.0
2024-02-27 11:25:47.657392,1709029547.6573918,39.55078125,-57.12890625,-3.41796875,97.16796875,1.0,0.0,1.0,1.0,3.m4v,3.0
2024-02-27 11:25:47.661298,1709029547.6612976,81.54296875,-48.828125,-20.01953125,71.2890625,1.0,0.0,1.0,1.0,3.m4v,3.0
2024-02-27 11:25:47.665203,1709029547.665203,74.70703125,-36.62109375,-24.4140625,41.015625,1.0,0.0,1.0,1.0,3.m4v,3.0
2024-02-27 11:25:47.669109,1709029547.669109,38.57421875,-22.94921875,-15.13671875,36.1328125,1.0,0.0,1.0,1.0,3.m4v,3.0
2024-02-27 11:25:47.673015,1709029547.6730149,38.57421875,-4.8828125,-26.85546875,44.921875,1.0,0.0,1.0,1.0,3.m4v,3.0
2024-02-27 11:25:47.676920,1709029547.6769204,36.1328125,-17.08984375,-28.80859375,62.98828125,1.0,0.0,1.0,1.0,3.m4v,3.0
2024-02-27 11:25:47.680826,1709029547.6808262,49.31640625,-8.7890625,-22.4609375,31.73828125,1.0,0.0,1.0,1.0,3.m4v,3.0
2024-02-27 11:25:47.692543,1709029547.6925433,20.99609375,-57.6171875,-17.578125,56.640625,1.0,0.0,1.0,1.0,3.m4v,3.0
2024-02-27 11:25:47.696449,1709029547.696449,38.0859375,-51.7578125,-10.7421875,70.3125,1.0,0.0,1.0,1.0,3.m4v,3.0
2024-02-27 11:25:47.700355,1709029547.7003548,82.03125,-34.66796875,-23.92578125,70.3125,1.0,0.0,1.0,1.0,3.m4v,3.0
2024-02-27 11:25:47.704261,1709029547.7042606,50.78125,-50.78125,-25.87890625,67.87109375,1.0,0.0,1.0,1.0,3.m4v,3.0
2024-02-27 11:25:47.708168,1709029547.708168,25.87890625,-53.22265625,-27.83203125,53.22265625,1.0,0.0,1.0,1.0,3.m4v,3.0
2024-02-27 11:25:47.712074,1709029547.7120738,52.734375,-35.64453125,-25.390625,71.77734375,1.0,0.0,1.0,1.0,3.m4v,3.0
2024-02-27 11:25:47.715980,1709029547.7159796,27.34375,-37.59765625,-20.01953125,99.609375,1.0,0.0,1.0,1.0,3.m4v,3.0
2024-02-27 11:25:47.719885,1709029547.719885,13.18359375,-47.36328125,-20.99609375,85.44921875,1.0,0.0,1.0,1.0,3.m4v,3.0
2024-02-27 11:25:47.723791,1709029547.723791,35.15625,-40.52734375,-31.25,57.12890625,1.0,0.0,1.0,1.0,3.m4v,3.0
2024-02-27 11:25:47.727697,1709029547.727697,30.76171875,-15.13671875,-24.90234375,61.5234375,1.0,0.0,1.0,1.0,3.m4v,3.0
2024-02-27 11:25:47.731602,1709029547.7316024,31.25,-29.78515625,-25.390625,86.42578125,1.0,0.0,1.0,1.0,3.m4v,3.0
2024-02-27 11:25:47.735508,1709029547.7355082,43.9453125,-59.08203125,-23.4375,93.75,1.0,0.0,1.0,1.0,3.m4v,3.0
2024-02-27 11:25:47.739414,1709029547.7394135,41.9921875,-66.89453125,-29.296875,69.3359375,1.0,0.0,1.0,1.0,3.m4v,3.0
2024-02-27 11:25:47.743320,1709029547.7433195,57.12890625,-56.640625,-39.0625,52.734375,1.0,0.0,1.0,1.0,3.m4v,3.0
2024-02-27 11:25:47.747225,1709029547.7472253,29.296875,-51.26953125,-23.4375,47.8515625,1.0,0.0,1.0,1.0,3.m4v,3.0
2024-02-27 11:25:47.751131,1709029547.751131,13.671875,-56.640625,-17.578125,56.15234375,1.0,0.0,1.0,1.0,3.m4v,3.0
2024-02-27 11:25:47.755038,1709029547.7550385,23.4375,-51.7578125,-25.390625,59.5703125,1.0,0.0,1.0,1.0,3.m4v,3.0
2024-02-27 11:25:47.758944,1709029547.758944,13.18359375,-46.38671875,-33.69140625,40.52734375,1.0,0.0,1.0,1.0,3.m4v,3.0
2024-02-27 11:25:47.762850,1709029547.7628498,-1.46484375,-42.48046875,-31.73828125,23.4375,1.0,0.0,1.0,1.0,3.m4v,3.0
2024-02-27 11:25:47.766756,1709029547.7667556,3.90625,-50.29296875,-24.4140625,17.578125,1.0,0.0,1.0,1.0,3.m4v,3.0
2024-02-27 11:25:47.770661,1709029547.770661,0.48828125,-55.17578125,-23.4375,43.9453125,1.0,0.0,1.0,1.0,3.m4v,3.0
2024-02-27 11:25:47.774567,1709029547.774567,-6.8359375,-22.4609375,-19.53125,81.54296875,1.0,0.0,1.0,1.0,3.m4v,3.0
2024-02-27 11:25:47.778473,1709029547.778473,10.7421875,-30.2734375,-20.99609375,61.03515625,1.0,0.0,1.0,1.0,3.m4v,3.0
2024-02-27 11:25:47.782378,1709029547.7823784,11.71875,-77.1484375,-30.76171875,0.0,1.0,0.0,1.0,1.0,3.m4v,3.0
2024-02-27 11:25:47.786284,1709029547.786284,-5.37109375,-83.984375,-35.15625,-13.18359375,1.0,0.0,1.0,1.0,3.m4v,3.0
2024-02-27 11:25:47.790190,1709029547.7901895,-22.4609375,-80.56640625,-28.80859375,20.01953125,1.0,0.0,1.0,1.0,3.m4v,3.0
2024-02-27 11:25:47.794096,1709029547.7940955,4.8828125,-59.5703125,-24.4140625,40.52734375,1.0,0.0,1.0,1.0,3.m4v,3.0
2024-02-27 11:25:47.798001,1709029547.7980013,22.4609375,-46.38671875,-29.78515625,45.41015625,1.0,0.0,1.0,1.0,3.m4v,3.0
2024-02-27 11:25:47.801909,1709029547.8019087,-12.20703125,-54.19921875,-30.2734375,7.8125,1.0,0.0,1.0,1.0,3.m4v,3.0
2024-02-27 11:25:47.805814,1709029547.8058145,-9.27734375,-44.921875,-32.71484375,-11.71875,1.0,0.0,1.0,1.0,3.m4v,3.0
2024-02-27 11:25:47.809720,1709029547.80972,20.01953125,-32.2265625,-31.25,5.859375,1.0,0.0,1.0,1.0,3.m4v,3.0
2024-02-27 11:25:47.813626,1709029547.8136258,5.37109375,-32.71484375,-21.97265625,25.390625,1.0,0.0,1.0,1.0,3.m4v,3.0
2024-02-27 11:25:47.817532,1709029547.8175316,0.0,-20.99609375,-35.64453125,8.30078125,1.0,0.0,1.0,1.0,3.m4v,3.0
2024-02-27 11:25:47.821437,1709029547.8214371,20.99609375,-0.48828125,-23.92578125,19.04296875,1.0,0.0,1.0,1.0,3.m4v,3.0
2024-02-27 11:25:47.825343,1709029547.825343,17.08984375,-12.20703125,-16.11328125,11.23046875,1.0,0.0,1.0,1.0,3.m4v,3.0
2024-02-27 11:25:47.829249,1709029547.829249,16.6015625,-45.8984375,-30.76171875,-4.39453125,1.0,0.0,1.0,1.0,3.m4v,3.0
2024-02-27 11:25:47.833154,1709029547.8331544,1.46484375,-40.0390625,-31.73828125,19.04296875,1.0,0.0,1.0,1.0,3.m4v,3.0
2024-02-27 11:25:47.837060,1709029547.8370602,-0.48828125,-21.97265625,-27.83203125,13.18359375,1.0,0.0,1.0,1.0,3.m4v,3.0
2024-02-27 11:25:47.840966,1709029547.8409655,-1.46484375,-16.6015625,-27.83203125,-5.859375,1.0,0.0,1.0,1.0,3.m4v,3.0
2024-02-27 11:25:48.360438,1709029548.360438,-6.34765625,-36.1328125,-7.32421875,-17.578125,1.0,0.0,1.0,1.0,3.m4v,3.0
2024-02-27 11:25:48.364344,1709029548.364344,-37.109375,-41.015625,0.9765625,-42.48046875,1.0,0.0,1.0,1.0,3.m4v,3.0
2024-02-27 11:25:48.368250,1709029548.3682497,-37.59765625,-34.1796875,15.625,-46.38671875,1.0,0.0,1.0,1.0,3.m4v,3.0
2024-02-27 11:25:48.372155,1709029548.3721554,-31.73828125,-13.18359375,20.01953125,-45.41015625,1.0,0.0,1.0,1.0,3.m4v,3.0
2024-02-27 11:25:48.376061,1709029548.3760612,-6.34765625,-11.23046875,14.16015625,-17.08984375,1.0,0.0,1.0,1.0,3.m4v,3.0
2024-02-27 11:25:48.379967,1709029548.379967,-27.34375,-23.92578125,27.34375,-2.44140625,1.0,0.0,1.0,1.0,3.m4v,3.0
2024-02-27 11:25:48.383873,1709029548.3838725,-27.83203125,2.44140625,22.4609375,-41.9921875,1.0,0.0,1.0,1.0,3.m4v,3.0
2024-02-27 11:25:48.387778,1709029548.3877783,-9.765625,9.27734375,3.90625,-69.82421875,1.0,0.0,1.0,1.0,3.m4v,3.0
2024-02-27 11:25:48.391684,1709029548.391684,-35.15625,-14.16015625,9.765625,-42.96875,1.0,0.0,1.0,1.0,3.m4v,3.0
2024-02-27 11:25:48.395590,1709029548.3955898,-20.5078125,-18.06640625,20.5078125,-5.37109375,1.0,0.0,1.0,1.0,3.m4v,3.0
2024-02-27 11:25:48.399495,1709029548.3994954,-19.04296875,-18.06640625,13.671875,-14.16015625,1.0,0.0,1.0,1.0,3.m4v,3.0
2024-02-27 11:25:48.403401,1709029548.4034011,-20.01953125,-9.765625,1.46484375,-35.15625,1.0,0.0,1.0,1.0,3.m4v,3.0
2024-02-27 11:25:48.407307,1709029548.407307,-19.04296875,-3.90625,16.11328125,-25.87890625,1.0,0.0,1.0,1.0,3.m4v,3.0
2024-02-27 11:25:48.411213,1709029548.411213,-22.94921875,-27.83203125,26.3671875,-21.484375,1.0,0.0,1.0,1.0,3.m4v,3.0
2024-02-27 11:25:48.415119,1709029548.4151187,-17.08984375,-20.01953125,19.04296875,-26.3671875,1.0,0.0,1.0,1.0,3.m4v,3.0
2024-02-27 11:25:48.419024,1709029548.4190245,-29.78515625,-9.765625,7.32421875,-34.1796875,1.0,0.0,1.0,1.0,3.m4v,3.0
2024-02-27 11:25:48.422930,1709029548.4229302,-35.15625,-32.2265625,7.32421875,-52.734375,1.0,0.0,1.0,1.0,3.m4v,3.0
2024-02-27 11:25:48.426836,1709029548.4268358,-35.15625,-28.80859375,3.90625,-63.4765625,1.0,0.0,1.0,1.0,3.m4v,3.0
2024-02-27 11:25:48.430742,1709029548.4307415,-26.85546875,15.625,2.44140625,-48.33984375,1.0,0.0,1.0,1.0,3.m4v,3.0
2024-02-27 11:25:48.434647,1709029548.434647,-24.4140625,5.859375,13.671875,-28.80859375,1.0,0.0,1.0,1.0,3.m4v,3.0
2024-02-27 11:25:48.438553,1709029548.438553,-33.203125,-33.203125,4.39453125,-37.109375,1.0,0.0,1.0,1.0,3.m4v,3.0
2024-02-27 11:25:48.442459,1709029548.4424589,-20.99609375,-43.45703125,-0.48828125,-53.7109375,1.0,0.0,1.0,1.0,3.m4v,3.0
2024-02-27 11:25:48.446364,1709029548.4463644,-22.94921875,-47.36328125,5.859375,-47.8515625,1.0,0.0,1.0,1.0,3.m4v,3.0
2024-02-27 11:25:48.450270,1709029548.4502702,-43.45703125,-36.1328125,2.9296875,-53.22265625,1.0,0.0,1.0,1.0,3.m4v,3.0
2024-02-27 11:25:48.454176,1709029548.454176,-29.296875,-23.92578125,3.90625,-41.015625,1.0,0.0,1.0,1.0,3.m4v,3.0
2024-02-27 11:25:48.458086,1709029548.4580855,-17.578125,-35.15625,6.34765625,-21.97265625,1.0,0.0,1.0,1.0,3.m4v,3.0
2024-02-27 11:25:48.461991,1709029548.4619913,-16.6015625,-43.9453125,0.48828125,-31.73828125,1.0,0.0,1.0,1.0,3.m4v,3.0
2024-02-27 11:25:48.465897,1709029548.4658968,-17.578125,-16.6015625,-2.9296875,-36.1328125,1.0,0.0,1.0,1.0,3.m4v,3.0
2024-02-27 11:25:48.469803,1709029548.4698026,-13.18359375,-24.4140625,5.859375,-29.296875,1.0,0.0,1.0,1.0,3.m4v,3.0
2024-02-27 11:25:48.473708,1709029548.4737084,-21.97265625,-52.24609375,5.859375,-19.53125,1.0,0.0,1.0,1.0,3.m4v,3.0
2024-02-27 11:25:48.477614,1709029548.4776142,-30.76171875,-24.4140625,-15.13671875,-23.4375,1.0,0.0,1.0,1.0,3.m4v,3.0
2024-02-27 11:25:48.481520,1709029548.48152,-25.390625,-18.06640625,-13.18359375,-25.390625,1.0,0.0,1.0,1.0,3.m4v,3.0
2024-02-27 11:25:48.485425,1709029548.4854257,-32.71484375,-58.10546875,9.765625,-25.87890625,1.0,0.0,1.0,1.0,3.m4v,3.0
2024-02-27 11:25:48.489331,1709029548.4893312,-41.015625,-66.40625,14.16015625,-27.34375,1.0,0.0,1.0,1.0,3.m4v,3.0
2024-02-27 11:25:48.493237,1709029548.493237,-27.83203125,-51.7578125,2.9296875,-27.83203125,1.0,0.0,1.0,1.0,3.m4v,3.0
2024-02-27 11:25:48.497143,1709029548.4971428,-5.37109375,-40.0390625,-7.8125,0.48828125,1.0,0.0,1.0,1.0,3.m4v,3.0
2024-02-27 11:25:48.501048,1709029548.5010483,-9.765625,-40.52734375,-4.39453125,-4.39453125,1.0,0.0,1.0,1.0,3.m4v,3.0
2024-02-27 11:25:48.504956,1709029548.5049558,-20.01953125,-44.43359375,0.48828125,-30.76171875,1.0,0.0,1.0,1.0,3.m4v,3.0
2024-02-27 11:25:48.508862,1709029548.5088615,-33.203125,-44.43359375,-1.46484375,-38.57421875,1.0,0.0,1.0,1.0,3.m4v,3.0
2024-02-27 11:25:48.512767,1709029548.512767,-20.99609375,-38.0859375,-8.7890625,-40.0390625,1.0,0.0,1.0,1.0,3.m4v,3.0
2024-02-27 11:25:48.516673,1709029548.5166728,-21.97265625,-25.87890625,-8.7890625,-32.2265625,1.0,0.0,1.0,1.0,3.m4v,3.0
2024-02-27 11:25:48.520579,1709029548.5205786,-42.96875,-25.87890625,-4.8828125,-34.1796875,1.0,0.0,1.0,1.0,3.m4v,3.0
2024-02-27 11:25:48.524484,1709029548.5244844,-3.90625,-11.71875,-8.7890625,-49.31640625,1.0,0.0,1.0,1.0,3.m4v,3.0
2024-02-27 11:25:48.528390,1709029548.5283902,-30.2734375,-0.9765625,-1.953125,-28.3203125,1.0,0.0,1.0,1.0,3.m4v,3.0
2024-02-27 11:25:48.532296,1709029548.5322957,-49.8046875,-12.20703125,-5.859375,-22.4609375,1.0,0.0,1.0,1.0,3.m4v,3.0
2024-02-27 11:25:48.536201,1709029548.5362017,-24.90234375,-18.5546875,-13.18359375,-18.06640625,1.0,0.0,1.0,1.0,3.m4v,3.0
2024-02-27 11:25:48.540107,1709029548.5401073,-28.3203125,-41.015625,-2.9296875,-14.16015625,1.0,0.0,1.0,1.0,3.m4v,3.0
2024-02-27 11:25:48.544013,1709029548.544013,-26.3671875,-46.38671875,-6.34765625,-29.78515625,1.0,0.0,1.0,1.0,3.m4v,3.0
2024-02-27 11:25:48.547919,1709029548.5479188,-16.11328125,-20.01953125,-13.671875,-39.55078125,1.0,0.0,1.0,1.0,3.m4v,3.0
2024-02-27 11:25:48.551826,1709029548.5518258,-12.20703125,-17.08984375,-7.8125,-19.53125,1.0,0.0,1.0,1.0,3.m4v,3.0
2024-02-27 11:25:48.555732,1709029548.5557315,-29.296875,-34.1796875,-1.953125,20.01953125,1.0,0.0,1.0,1.0,3.m4v,3.0
2024-02-27 11:25:48.559637,1709029548.5596373,-32.71484375,-38.0859375,-9.765625,17.578125,1.0,0.0,1.0,1.0,3.m4v,3.0
2024-02-27 11:25:48.563543,1709029548.5635428,-28.80859375,-34.1796875,-20.99609375,-38.57421875,1.0,0.0,1.0,1.0,3.m4v,3.0
2024-02-27 11:25:48.567449,1709029548.5674486,-25.390625,-33.69140625,-18.06640625,-53.7109375,1.0,0.0,1.0,1.0,3.m4v,3.0
2024-02-27 11:25:48.571354,1709029548.5713544,0.48828125,3.41796875,-19.53125,-26.3671875,1.0,0.0,1.0,1.0,3.m4v,3.0
2024-02-27 11:25:48.575260,1709029548.5752602,-10.25390625,0.9765625,-19.04296875,-10.7421875,1.0,0.0,1.0,1.0,3.m4v,3.0
2024-02-27 11:25:48.579166,1709029548.579166,-22.94921875,-44.921875,-14.16015625,-25.390625,1.0,0.0,1.0,1.0,3.m4v,3.0
2024-02-27 11:25:48.583071,1709029548.5830717,-35.15625,-52.734375,-19.04296875,-53.7109375,1.0,0.0,1.0,1.0,3.m4v,3.0
2024-02-27 11:25:48.586977,1709029548.5869772,-46.38671875,-35.15625,-19.53125,-48.828125,1.0,0.0,1.0,1.0,3.m4v,3.0
2024-02-27 11:25:48.590883,1709029548.590883,-31.73828125,-44.921875,-12.20703125,-26.85546875,1.0,0.0,1.0,1.0,3.m4v,3.0
2024-02-27 11:25:48.594789,1709029548.5947888,-19.53125,-41.50390625,-19.04296875,-11.71875,1.0,0.0,1.0,1.0,3.m4v,3.0
2024-02-27 11:25:48.598696,1709029548.5986955,-31.73828125,-26.3671875,-26.85546875,-11.23046875,1.0,0.0,1.0,1.0,3.m4v,3.0
2024-02-27 11:25:48.602601,1709029548.6026013,-21.484375,-40.52734375,-11.23046875,-4.39453125,1.0,0.0,1.0,1.0,3.m4v,3.0
2024-02-27 11:25:48.606507,1709029548.606507,-28.80859375,-45.8984375,-4.39453125,-7.8125,1.0,0.0,1.0,1.0,3.m4v,3.0
2024-02-27 11:25:48.610413,1709029548.6104128,-29.296875,-29.78515625,-17.08984375,-14.6484375,1.0,0.0,1.0,1.0,3.m4v,3.0
2024-02-27 11:25:48.614319,1709029548.6143186,-7.32421875,-13.18359375,-31.25,-12.20703125,1.0,0.0,1.0,1.0,3.m4v,3.0
2024-02-27 11:25:48.618224,1709029548.618224,-34.1796875,-7.8125,-22.4609375,-18.06640625,1.0,0.0,1.0,1.0,3.m4v,3.0
2024-02-27 11:25:48.622130,1709029548.62213,-39.55078125,-35.15625,-10.7421875,-27.83203125,1.0,0.0,1.0,1.0,3.m4v,3.0
2024-02-27 11:25:48.626036,1709029548.6260357,-19.04296875,-52.24609375,-18.06640625,-37.59765625,1.0,0.0,1.0,1.0,3.m4v,3.0
2024-02-27 11:25:48.629941,1709029548.6299417,-40.52734375,-46.38671875,-23.92578125,-26.85546875,1.0,0.0,1.0,1.0,3.m4v,3.0
2024-02-27 11:25:48.633847,1709029548.633847,-29.78515625,-39.55078125,-15.625,-29.78515625,1.0,0.0,1.0,1.0,3.m4v,3.0
2024-02-27 11:25:48.637753,1709029548.6377528,-13.671875,-37.59765625,-17.08984375,-34.1796875,1.0,0.0,1.0,1.0,3.m4v,3.0
2024-02-27 11:25:48.641659,1709029548.6416583,-46.875,-45.41015625,-15.13671875,-37.59765625,1.0,0.0,1.0,1.0,3.m4v,3.0
2024-02-27 11:25:48.645566,1709029548.6455655,-30.2734375,-29.78515625,-10.7421875,-57.12890625,1.0,0.0,1.0,1.0,3.m4v,3.0
2024-02-27 11:25:48.649471,1709029548.649471,-1.46484375,-9.27734375,-23.92578125,-47.8515625,1.0,0.0,1.0,1.0,3.m4v,3.0
2024-02-27 11:25:48.653377,1709029548.6533768,-7.8125,-18.5546875,-32.71484375,-37.109375,1.0,0.0,1.0,1.0,3.m4v,3.0
2024-02-27 11:25:48.657283,1709029548.6572826,-1.46484375,-28.80859375,-26.3671875,-25.390625,1.0,0.0,1.0,1.0,3.m4v,3.0
2024-02-27 11:25:48.661188,1709029548.6611884,-8.30078125,-29.296875,-14.16015625,-24.90234375,1.0,0.0,1.0,1.0,3.m4v,3.0
2024-02-27 11:25:48.665094,1709029548.665094,-27.83203125,-4.39453125,-15.625,-48.33984375,1.0,0.0,1.0,1.0,3.m4v,3.0
2024-02-27 11:25:48.669000,1709029548.6689997,-12.20703125,-0.48828125,-13.671875,-39.55078125,1.0,0.0,1.0,1.0,3.m4v,3.0
2024-02-27 11:25:48.672905,1709029548.6729054,8.7890625,-26.85546875,-16.11328125,-10.7421875,1.0,0.0,1.0,1.0,3.m4v,3.0
2024-02-27 11:25:48.676811,1709029548.6768112,-19.53125,-28.80859375,-4.8828125,-1.953125,1.0,0.0,1.0,1.0,3.m4v,3.0
2024-02-27 11:25:48.680717,1709029548.680717,-16.11328125,-39.0625,-0.48828125,-27.83203125,1.0,0.0,1.0,1.0,3.m4v,3.0
2024-02-27 11:25:48.684623,1709029548.6846223,-18.5546875,-30.2734375,-17.578125,-42.48046875,1.0,0.0,1.0,1.0,3.m4v,3.0
2024-02-27 11:25:48.688528,1709029548.6885283,-20.01953125,1.46484375,-14.6484375,-30.2734375,1.0,0.0,1.0,1.0,3.m4v,3.0
2024-02-27 11:25:48.692435,1709029548.6924348,-3.90625,-13.18359375,-6.8359375,-26.3671875,1.0,0.0,1.0,1.0,3.m4v,3.0
2024-02-27 11:25:48.696340,1709029548.6963403,-17.08984375,-23.92578125,-6.8359375,-12.6953125,1.0,0.0,1.0,1.0,3.m4v,3.0
2024-02-27 11:25:48.700246,1709029548.700246,-33.203125,-33.203125,-7.32421875,-35.15625,1.0,0.0,1.0,1.0,3.m4v,3.0
2024-02-27 11:25:48.704152,1709029548.704152,-22.94921875,-45.41015625,-15.13671875,-61.03515625,1.0,0.0,1.0,1.0,3.m4v,3.0
2024-02-27 11:25:48.708058,1709029548.7080576,-21.97265625,-17.578125,-16.6015625,-56.640625,1.0,0.0,1.0,1.0,3.m4v,3.0
2024-02-27 11:25:48.711963,1709029548.7119634,-20.5078125,10.25390625,-8.30078125,-41.015625,1.0,0.0,1.0,1.0,3.m4v,3.0
2024-02-27 11:25:48.715869,1709029548.715869,-10.7421875,-8.30078125,-11.23046875,-3.41796875,1.0,0.0,1.0,1.0,3.m4v,3.0
2024-02-27 11:25:48.719775,1709029548.7197747,-23.92578125,-50.29296875,-9.27734375,-38.57421875,1.0,0.0,1.0,1.0,3.m4v,3.0
2024-02-27 11:25:48.723680,1709029548.7236805,-40.52734375,-58.59375,-4.39453125,-60.05859375,1.0,0.0,1.0,1.0,3.m4v,3.0
2024-02-27 11:25:48.727586,1709029548.7275865,-42.96875,-47.36328125,-8.7890625,-52.734375,1.0,0.0,1.0,1.0,3.m4v,3.0
2024-02-27 11:25:48.731492,1709029548.7314918,-37.109375,-29.78515625,-10.7421875,-24.90234375,1.0,0.0,1.0,1.0,3.m4v,3.0
2024-02-27 11:25:48.735398,1709029548.7353976,-30.2734375,-25.390625,-0.9765625,7.8125,1.0,0.0,1.0,1.0,3.m4v,3.0
2024-02-27 11:25:48.739304,1709029548.7393038,-24.90234375,-37.109375,3.41796875,-2.44140625,1.0,0.0,1.0,1.0,3.m4v,3.0
2024-02-27 11:25:48.743209,1709029548.7432094,-37.59765625,-48.33984375,-9.765625,-14.6484375,1.0,0.0,1.0,1.0,3.m4v,3.0
2024-02-27 11:25:48.747115,1709029548.7471151,-55.6640625,-42.48046875,-18.06640625,-37.109375,1.0,0.0,1.0,1.0,3.m4v,3.0
2024-02-27 11:25:48.751021,1709029548.751021,-37.109375,-34.1796875,-14.16015625,-40.0390625,1.0,0.0,1.0,1.0,3.m4v,3.0
2024-02-27 11:25:48.754927,1709029548.7549267,-17.08984375,-34.66796875,-14.16015625,3.90625,1.0,0.0,1.0,1.0,3.m4v,3.0
2024-02-27 11:25:48.758832,1709029548.7588322,-9.765625,-11.23046875,-18.5546875,7.8125,1.0,0.0,1.0,1.0,3.m4v,3.0
2024-02-27 11:25:49.043959,1709029549.0439594,-33.203125,23.4375,-23.4375,-37.109375,1.0,0.0,1.0,1.0,3.m4v,3.0
2024-02-27 11:25:49.051771,1709029549.0517707,-62.5,-18.06640625,-22.4609375,-41.9921875,1.0,0.0,1.0,1.0,3.m4v,3.0
2024-02-27 11:25:49.059582,1709029549.0595822,-67.87109375,-3.41796875,-16.6015625,-65.91796875,1.0,0.0,1.0,1.0,3.m4v,3.0
2024-02-27 11:25:49.067396,1709029549.0673962,-33.69140625,-22.94921875,-34.1796875,-30.76171875,1.0,0.0,1.0,1.0,3.m4v,3.0
2024-02-27 11:25:49.075208,1709029549.0752077,-58.59375,-32.2265625,-17.578125,-64.453125,1.0,0.0,1.0,1.0,3.m4v,3.0
2024-02-27 11:25:49.083019,1709029549.083019,-78.61328125,-13.671875,-20.5078125,-42.96875,1.0,0.0,1.0,1.0,3.m4v,3.0
2024-02-27 11:25:49.090831,1709029549.0908306,-48.33984375,-6.34765625,-28.80859375,-36.1328125,1.0,0.0,1.0,1.0,3.m4v,3.0
2024-02-27 11:25:49.098642,1709029549.098642,-62.5,-36.1328125,-20.5078125,-55.17578125,1.0,0.0,1.0,1.0,3.m4v,3.0
2024-02-27 11:25:49.106453,1709029549.1064534,-63.4765625,-19.04296875,-22.4609375,-51.7578125,1.0,0.0,1.0,1.0,3.m4v,3.0
2024-02-27 11:25:49.114267,1709029549.114267,-86.9140625,-36.62109375,-24.90234375,-54.19921875,1.0,0.0,1.0,1.0,3.m4v,3.0
2024-02-27 11:25:49.122079,1709029549.122079,-112.79296875,-35.64453125,-27.34375,-103.02734375,1.0,0.0,1.0,1.0,3.m4v,3.0
2024-02-27 11:25:49.129890,1709029549.1298902,-79.58984375,-45.8984375,-35.15625,-75.68359375,1.0,0.0,1.0,1.0,3.m4v,3.0
2024-02-27 11:25:49.137702,1709029549.1377015,-89.35546875,-20.99609375,-47.8515625,-80.56640625,1.0,0.0,1.0,1.0,3.m4v,3.0
2024-02-27 11:25:49.145513,1709029549.1455133,-79.1015625,-67.3828125,-25.87890625,-65.4296875,1.0,0.0,1.0,1.0,3.m4v,3.0
2024-02-27 11:25:49.153325,1709029549.1533246,-74.21875,-19.04296875,-20.5078125,-66.40625,1.0,0.0,1.0,1.0,3.m4v,3.0
2024-02-27 11:25:49.161138,1709029549.161138,-65.4296875,-26.85546875,-29.296875,-82.03125,1.0,0.0,1.0,1.0,3.m4v,3.0
2024-02-27 11:25:49.168949,1709029549.1689494,-72.75390625,-20.99609375,-19.53125,-45.8984375,1.0,0.0,1.0,1.0,3.m4v,3.0
2024-02-27 11:25:49.176761,1709029549.176761,-60.05859375,-29.296875,-27.83203125,-91.30859375,1.0,0.0,1.0,1.0,3.m4v,3.0
2024-02-27 11:25:49.184572,1709029549.1845722,-72.75390625,-9.27734375,-30.76171875,-73.73046875,1.0,0.0,1.0,1.0,3.m4v,3.0
2024-02-27 11:25:49.192384,1709029549.1923838,-41.50390625,-71.2890625,-24.4140625,-40.52734375,1.0,0.0,1.0,1.0,3.m4v,3.0
2024-02-27 11:25:49.200195,1709029549.200195,-62.98828125,-22.4609375,-20.99609375,-55.17578125,1.0,0.0,1.0,1.0,3.m4v,3.0
2024-02-27 11:25:49.208009,1709029549.2080083,-47.8515625,-25.87890625,-16.11328125,-48.33984375,1.0,0.0,1.0,1.0,3.m4v,3.0
2024-02-27 11:25:49.215820,1709029549.2158198,-30.76171875,-17.08984375,-27.83203125,-57.12890625,1.0,0.0,1.0,1.0,3.m4v,3.0
2024-02-27 11:25:49.223631,1709029549.2236314,-72.265625,-24.4140625,-24.90234375,-59.08203125,1.0,0.0,1.0,1.0,3.m4v,3.0
2024-02-27 11:25:49.231443,1709029549.2314427,-29.78515625,-18.06640625,-24.4140625,-21.484375,1.0,0.0,1.0,1.0,3.m4v,3.0
2024-02-27 11:25:49.239254,1709029549.2392542,-37.59765625,-27.83203125,-28.80859375,-86.42578125,1.0,0.0,1.0,1.0,3.m4v,3.0
2024-02-27 11:25:49.247066,1709029549.2470658,-50.29296875,-35.15625,-31.25,-48.828125,1.0,0.0,1.0,1.0,3.m4v,3.0
2024-02-27 11:25:49.254879,1709029549.2548788,-27.83203125,-36.1328125,-33.69140625,-43.45703125,1.0,0.0,1.0,1.0,3.m4v,3.0
2024-02-27 11:25:49.262690,1709029549.26269,-13.18359375,-33.203125,-33.203125,-42.48046875,1.0,0.0,1.0,1.0,3.m4v,3.0
2024-02-27 11:25:49.270502,1709029549.2705016,-28.3203125,-23.92578125,-19.04296875,-13.671875,1.0,0.0,1.0,1.0,3.m4v,3.0
2024-02-27 11:25:49.278313,1709029549.2783132,-18.06640625,-15.625,-28.80859375,-34.1796875,1.0,0.0,1.0,1.0,3.m4v,3.0
2024-02-27 11:25:49.286124,1709029549.2861245,-42.48046875,-36.62109375,-26.85546875,3.41796875,1.0,0.0,1.0,1.0,3.m4v,3.0
2024-02-27 11:25:49.293936,1709029549.293936,-0.48828125,-33.69140625,-26.3671875,-75.1953125,1.0,0.0,1.0,1.0,3.m4v,3.0
2024-02-27 11:25:49.301749,1709029549.301749,-23.92578125,-26.85546875,-37.109375,-32.2265625,1.0,0.0,1.0,1.0,3.m4v,3.0
2024-02-27 11:25:49.309561,1709029549.3095603,18.06640625,-34.66796875,-25.390625,-1.953125,1.0,0.0,1.0,1.0,3.m4v,3.0
2024-02-27 11:25:49.317372,1709029549.317372,8.7890625,-33.69140625,-26.85546875,-19.53125,1.0,0.0,1.0,1.0,3.m4v,3.0
2024-02-27 11:25:49.325183,1709029549.3251834,-29.78515625,2.44140625,-42.48046875,-6.34765625,1.0,0.0,1.0,1.0,3.m4v,3.0
2024-02-27 11:25:49.332995,1709029549.332995,-23.4375,-49.31640625,-26.85546875,-8.30078125,1.0,0.0,1.0,1.0,3.m4v,3.0
2024-02-27 11:25:49.340806,1709029549.3408062,-17.08984375,-35.64453125,-42.96875,-43.9453125,1.0,0.0,1.0,1.0,3.m4v,3.0
2024-02-27 11:25:49.348621,1709029549.348621,-52.24609375,-37.59765625,-7.8125,27.83203125,1.0,0.0,1.0,1.0,3.m4v,3.0
2024-02-27 11:25:49.356432,1709029549.3564322,-18.5546875,-45.41015625,-17.08984375,-29.78515625,1.0,0.0,1.0,1.0,3.m4v,3.0
2024-02-27 11:25:49.364244,1709029549.3642435,14.16015625,-13.18359375,-29.78515625,27.34375,1.0,0.0,1.0,1.0,3.m4v,3.0
2024-02-27 11:25:49.372055,1709029549.372055,2.9296875,-16.6015625,-30.76171875,-27.83203125,1.0,0.0,1.0,1.0,3.m4v,3.0
2024-02-27 11:25:49.379867,1709029549.3798666,9.765625,-47.8515625,-25.390625,-63.4765625,1.0,0.0,1.0,1.0,3.m4v,3.0
2024-02-27 11:25:49.387678,1709029549.387678,18.06640625,-32.2265625,-34.1796875,-37.109375,1.0,0.0,1.0,1.0,3.m4v,3.0
2024-02-27 11:25:49.395492,1709029549.3954923,30.76171875,-49.8046875,-34.1796875,-35.15625,1.0,0.0,1.0,1.0,3.m4v,3.0
2024-02-27 11:25:49.403304,1709029549.403304,-14.6484375,-37.109375,-34.66796875,-19.53125,1.0,0.0,1.0,1.0,3.m4v,3.0
2024-02-27 11:25:49.411115,1709029549.4111152,33.203125,-33.203125,-54.19921875,-31.25,1.0,0.0,1.0,1.0,3.m4v,3.0
2024-02-27 11:25:49.418927,1709029549.4189267,-8.30078125,-20.99609375,-23.92578125,-30.2734375,1.0,0.0,1.0,1.0,3.m4v,3.0
2024-02-27 11:25:49.426738,1709029549.4267385,-10.25390625,-55.6640625,-24.4140625,-20.99609375,1.0,0.0,1.0,1.0,3.m4v,3.0
2024-02-27 11:25:49.434550,1709029549.4345496,-9.27734375,-67.87109375,-44.921875,-82.51953125,1.0,0.0,1.0,1.0,3.m4v,3.0
2024-02-27 11:25:49.442364,1709029549.4423635,42.96875,-51.7578125,-19.04296875,4.39453125,1.0,0.0,1.0,1.0,3.m4v,3.0
2024-02-27 11:25:49.450175,1709029549.4501753,2.9296875,-43.45703125,-38.57421875,-68.84765625,1.0,0.0,1.0,1.0,3.m4v,3.0
2024-02-27 11:25:49.457987,1709029549.4579866,-19.04296875,-59.5703125,-42.96875,-63.96484375,1.0,0.0,1.0,1.0,3.m4v,3.0
2024-02-27 11:25:49.465798,1709029549.465798,-10.25390625,-25.87890625,-45.8984375,-47.8515625,1.0,0.0,1.0,1.0,3.m4v,3.0
2024-02-27 11:25:49.473610,1709029549.4736097,18.06640625,-64.453125,-40.52734375,-53.7109375,1.0,0.0,1.0,1.0,3.m4v,3.0
2024-02-27 11:25:49.481421,1709029549.481421,-9.765625,-74.70703125,-36.1328125,-71.77734375,1.0,0.0,1.0,1.0,3.m4v,3.0
2024-02-27 11:25:49.489235,1709029549.4892352,5.37109375,-72.75390625,-29.78515625,-18.5546875,1.0,0.0,1.0,1.0,3.m4v,3.0
2024-02-27 11:25:49.497046,1709029549.4970465,8.7890625,-60.05859375,-39.0625,-29.296875,1.0,0.0,1.0,1.0,3.m4v,3.0
2024-02-27 11:25:49.504858,1709029549.504858,-25.390625,-59.08203125,-44.921875,-54.19921875,1.0,0.0,1.0,1.0,3.m4v,3.0
2024-02-27 11:25:49.512669,1709029549.512669,31.73828125,-42.48046875,-51.26953125,-34.66796875,1.0,0.0,1.0,1.0,3.m4v,3.0
2024-02-27 11:25:49.520481,1709029549.5204809,17.578125,-72.265625,-51.7578125,-26.85546875,1.0,0.0,1.0,1.0,3.m4v,3.0
2024-02-27 11:25:49.528292,1709029549.5282922,-11.71875,-65.4296875,-41.9921875,-58.10546875,1.0,0.0,1.0,1.0,3.m4v,3.0
2024-02-27 11:25:49.536108,1709029549.5361078,4.8828125,-44.43359375,-36.62109375,-61.03515625,1.0,0.0,1.0,1.0,3.m4v,3.0
2024-02-27 11:25:49.543919,1709029549.543919,22.4609375,-53.22265625,-36.1328125,-39.0625,1.0,0.0,1.0,1.0,3.m4v,3.0
2024-02-27 11:25:49.551731,1709029549.5517306,-2.9296875,-51.7578125,-46.875,-71.77734375,1.0,0.0,1.0,1.0,3.m4v,3.0
2024-02-27 11:25:49.559542,1709029549.559542,14.6484375,-49.31640625,-36.1328125,-62.98828125,1.0,0.0,1.0,1.0,3.m4v,3.0
2024-02-27 11:25:49.567353,1709029549.5673535,18.06640625,-59.5703125,-39.0625,-22.4609375,1.0,0.0,1.0,1.0,3.m4v,3.0
2024-02-27 11:25:49.575165,1709029549.575165,20.5078125,-32.2265625,-48.828125,-41.50390625,1.0,0.0,1.0,1.0,3.m4v,3.0
2024-02-27 11:25:49.582978,1709029549.5829782,30.76171875,-25.390625,-30.76171875,10.25390625,1.0,0.0,1.0,1.0,3.m4v,3.0
2024-02-27 11:25:49.590790,1709029549.5907898,10.25390625,-28.80859375,-36.62109375,-8.7890625,1.0,0.0,1.0,1.0,3.m4v,3.0
2024-02-27 11:25:49.598601,1709029549.598601,17.578125,-22.94921875,-37.59765625,-47.36328125,1.0,0.0,1.0,1.0,3.m4v,3.0
2024-02-27 11:25:49.602507,1709029549.6025069,19.04296875,5.37109375,-46.38671875,-54.19921875,1.0,0.0,1.0,1.0,3.m4v,3.0
2024-02-27 11:25:49.606413,1709029549.6064126,24.90234375,0.0,-44.921875,-18.5546875,1.0,0.0,1.0,1.0,3.m4v,3.0
2024-02-27 11:25:49.610318,1709029549.6103184,34.1796875,-34.66796875,-33.203125,3.90625,1.0,0.0,1.0,1.0,3.m4v,3.0
2024-02-27 11:25:49.614224,1709029549.614224,20.01953125,-53.7109375,-36.62109375,-21.97265625,1.0,0.0,1.0,1.0,3.m4v,3.0
2024-02-27 11:25:49.618130,1709029549.6181295,19.53125,-46.875,-41.015625,-41.9921875,1.0,0.0,1.0,1.0,3.m4v,3.0
2024-02-27 11:25:49.622036,1709029549.6220355,41.015625,-23.4375,-33.203125,-41.50390625,1.0,0.0,1.0,1.0,3.m4v,3.0
2024-02-27 11:25:49.625941,1709029549.6259413,6.8359375,-35.15625,-33.203125,-16.11328125,1.0,0.0,1.0,1.0,3.m4v,3.0
2024-02-27 11:25:49.696249,1709029549.696249,26.85546875,-59.08203125,-40.0390625,-63.96484375,1.0,0.0,1.0,1.0,3.m4v,3.0
2024-02-27 11:25:49.700155,1709029549.7001548,-14.6484375,-38.0859375,-31.25,-62.01171875,1.0,0.0,1.0,1.0,3.m4v,3.0
2024-02-27 11:25:49.704061,1709029549.7040606,-4.8828125,-62.98828125,-16.6015625,-51.7578125,1.0,0.0,1.0,1.0,3.m4v,3.0
2024-02-27 11:25:49.707966,1709029549.7079663,7.32421875,-51.7578125,-19.53125,-18.5546875,1.0,0.0,1.0,1.0,3.m4v,3.0
2024-02-27 11:25:49.711872,1709029549.711872,-10.25390625,-53.22265625,-24.90234375,-62.01171875,1.0,0.0,1.0,1.0,3.m4v,3.0
2024-02-27 11:25:49.715778,1709029549.7157776,4.8828125,-81.54296875,-27.83203125,-98.14453125,1.0,0.0,1.0,1.0,3.m4v,3.0
2024-02-27 11:25:49.719683,1709029549.7196834,38.57421875,-73.73046875,-47.8515625,-69.82421875,1.0,0.0,1.0,1.0,3.m4v,3.0
2024-02-27 11:25:49.723591,1709029549.7235906,25.87890625,-84.47265625,-58.10546875,-37.59765625,1.0,0.0,1.0,1.0,3.m4v,3.0
2024-02-27 11:25:49.727496,1709029549.7274964,1.953125,-86.42578125,-49.31640625,-38.0859375,1.0,0.0,1.0,1.0,3.m4v,3.0
2024-02-27 11:25:49.731402,1709029549.7314022,-1.953125,-70.3125,-55.17578125,-41.50390625,1.0,0.0,1.0,1.0,3.m4v,3.0
2024-02-27 11:25:49.735308,1709029549.7353077,25.390625,-85.44921875,-90.33203125,-31.25,1.0,0.0,1.0,1.0,3.m4v,3.0
2024-02-27 11:25:49.739213,1709029549.7392137,10.7421875,-112.3046875,-117.67578125,-68.359375,1.0,0.0,1.0,1.0,3.m4v,3.0
2024-02-27 11:25:49.743119,1709029549.7431192,3.90625,-91.796875,-88.8671875,-68.359375,1.0,0.0,1.0,1.0,3.m4v,3.0
2024-02-27 11:25:49.789990,1709029549.7899904,-7.8125,-45.41015625,-107.421875,-64.453125,1.0,0.0,1.0,1.0,3.m4v,3.0
2024-02-27 11:25:49.793896,1709029549.7938962,-15.13671875,-76.66015625,-111.81640625,-92.28515625,1.0,0.0,1.0,1.0,3.m4v,3.0
2024-02-27 11:25:49.797802,1709029549.797802,-6.34765625,-96.19140625,-122.0703125,-93.26171875,1.0,0.0,1.0,1.0,3.m4v,3.0
2024-02-27 11:25:49.801708,1709029549.8017075,-7.32421875,-88.8671875,-143.06640625,-93.75,1.0,0.0,1.0,1.0,3.m4v,3.0
2024-02-27 11:25:49.805614,1709029549.8056135,15.625,-84.9609375,-156.25,-61.5234375,1.0,0.0,1.0,1.0,3.m4v,3.0
2024-02-27 11:25:49.809519,1709029549.809519,24.4140625,-78.61328125,-155.76171875,-35.64453125,1.0,0.0,1.0,1.0,3.m4v,3.0
2024-02-27 11:25:49.813425,1709029549.8134248,35.64453125,-69.82421875,-170.41015625,-36.1328125,1.0,0.0,1.0,1.0,3.m4v,3.0
2024-02-27 11:25:49.817333,1709029549.8173332,38.57421875,-58.10546875,-190.91796875,-62.01171875,1.0,0.0,1.0,1.0,3.m4v,3.0
2024-02-27 11:25:49.821239,1709029549.8212388,10.7421875,-62.01171875,-196.77734375,-79.58984375,1.0,0.0,1.0,1.0,3.m4v,3.0
2024-02-27 11:25:49.825145,1709029549.8251443,14.6484375,-46.875,-205.078125,-35.64453125,1.0,0.0,1.0,1.0,3.m4v,3.0
2024-02-27 11:25:49.829050,1709029549.8290503,26.3671875,-41.9921875,-203.61328125,-57.6171875,1.0,0.0,1.0,1.0,3.m4v,3.0
2024-02-27 11:25:49.832956,1709029549.832956,14.16015625,-49.31640625,-196.2890625,-92.7734375,1.0,0.0,1.0,1.0,3.m4v,3.0
2024-02-27 11:25:49.836862,1709029549.8368618,1.46484375,-24.4140625,-200.68359375,-81.54296875,1.0,0.0,1.0,1.0,3.m4v,3.0
2024-02-27 11:25:49.840767,1709029549.8407674,3.90625,-29.78515625,-201.171875,-72.75390625,1.0,0.0,1.0,1.0,3.m4v,3.0
2024-02-27 11:25:49.844673,1709029549.8446732,16.11328125,-70.3125,-194.3359375,-42.96875,1.0,0.0,1.0,1.0,3.m4v,3.0
2024-02-27 11:25:49.848579,1709029549.848579,-0.48828125,-86.42578125,-203.125,-69.3359375,1.0,0.0,1.0,1.0,3.m4v,3.0
2024-02-27 11:25:49.852485,1709029549.8524847,-7.32421875,-70.3125,-206.0546875,-98.6328125,1.0,0.0,1.0,1.0,3.m4v,3.0
2024-02-27 11:25:49.856390,1709029549.8563902,2.9296875,-57.12890625,-196.2890625,-89.35546875,1.0,0.0,1.0,1.0,3.m4v,3.0
2024-02-27 11:25:49.860296,1709029549.860296,9.765625,-49.31640625,-188.4765625,-60.546875,1.0,0.0,1.0,1.0,3.m4v,3.0
2024-02-27 11:25:49.864204,1709029549.8642042,27.34375,-43.45703125,-175.29296875,-37.109375,1.0,0.0,1.0,1.0,3.m4v,3.0
2024-02-27 11:25:49.868110,1709029549.86811,17.578125,-52.24609375,-154.78515625,-33.69140625,1.0,0.0,1.0,1.0,3.m4v,3.0
2024-02-27 11:25:49.872015,1709029549.8720157,-4.8828125,-56.15234375,-150.87890625,-49.8046875,1.0,0.0,1.0,1.0,3.m4v,3.0
2024-02-27 11:25:49.875921,1709029549.8759212,2.9296875,-65.91796875,-151.3671875,-56.640625,1.0,0.0,1.0,1.0,3.m4v,3.0
2024-02-27 11:25:49.879827,1709029549.879827,13.18359375,-76.66015625,-145.5078125,-51.26953125,1.0,0.0,1.0,1.0,3.m4v,3.0
2024-02-27 11:25:49.883733,1709029549.8837328,10.7421875,-49.8046875,-152.83203125,-53.22265625,1.0,0.0,1.0,1.0,3.m4v,3.0
2024-02-27 11:25:49.887639,1709029549.8876386,4.8828125,-54.6875,-180.6640625,-39.55078125,1.0,0.0,1.0,1.0,3.m4v,3.0
2024-02-27 11:25:49.891544,1709029549.891544,23.4375,-82.51953125,-168.9453125,-18.5546875,1.0,0.0,1.0,1.0,3.m4v,3.0
2024-02-27 11:25:49.895450,1709029549.89545,20.99609375,-86.9140625,-139.6484375,-44.43359375,1.0,0.0,1.0,1.0,3.m4v,3.0
2024-02-27 11:25:49.899356,1709029549.8993556,20.01953125,-49.8046875,-132.8125,-44.43359375,1.0,0.0,1.0,1.0,3.m4v,3.0
2024-02-27 11:25:49.903261,1709029549.9032614,14.16015625,-52.734375,-116.69921875,1.953125,1.0,0.0,1.0,1.0,3.m4v,3.0
2024-02-27 11:25:49.907167,1709029549.907167,20.99609375,-69.82421875,-111.328125,5.859375,1.0,0.0,1.0,1.0,3.m4v,3.0
2024-02-27 11:25:49.911075,1709029549.9110749,59.08203125,-56.640625,-119.62890625,-40.0390625,1.0,0.0,1.0,1.0,3.m4v,3.0
2024-02-27 11:25:49.914981,1709029549.9149806,44.921875,-62.01171875,-104.4921875,-33.203125,1.0,0.0,1.0,1.0,3.m4v,3.0
2024-02-27 11:25:49.918886,1709029549.9188864,13.671875,-65.91796875,-86.9140625,-19.53125,1.0,0.0,1.0,1.0,3.m4v,3.0
2024-02-27 11:25:49.922792,1709029549.9227922,8.7890625,-70.3125,-87.40234375,-24.4140625,1.0,0.0,1.0,1.0,3.m4v,3.0
2024-02-27 11:25:49.926698,1709029549.926698,36.62109375,-62.5,-113.76953125,-22.4609375,1.0,0.0,1.0,1.0,3.m4v,3.0
2024-02-27 11:25:49.930604,1709029549.9306035,56.15234375,-20.99609375,-116.2109375,-9.765625,1.0,0.0,1.0,1.0,3.m4v,3.0
2024-02-27 11:25:49.934509,1709029549.9345093,26.85546875,-17.08984375,-96.19140625,-5.37109375,1.0,0.0,1.0,1.0,3.m4v,3.0
2024-02-27 11:25:49.938415,1709029549.938415,-19.53125,-67.87109375,-91.30859375,-32.2265625,1.0,0.0,1.0,1.0,3.m4v,3.0
2024-02-27 11:25:49.942321,1709029549.9423208,-7.32421875,-66.40625,-96.19140625,-25.390625,1.0,0.0,1.0,1.0,3.m4v,3.0
2024-02-27 11:25:49.946227,1709029549.9462266,25.390625,-37.109375,-98.14453125,-9.27734375,1.0,0.0,1.0,1.0,3.m4v,3.0
2024-02-27 11:25:49.950132,1709029549.950132,11.23046875,-30.2734375,-95.21484375,-4.8828125,1.0,0.0,1.0,1.0,3.m4v,3.0
2024-02-27 11:25:49.954038,1709029549.954038,4.8828125,-25.390625,-96.19140625,-3.41796875,1.0,0.0,1.0,1.0,3.m4v,3.0
2024-02-27 11:25:49.957946,1709029549.9579458,25.87890625,-18.06640625,-89.35546875,-21.97265625,1.0,0.0,1.0,1.0,3.m4v,3.0
2024-02-27 11:25:50.192299,1709029550.192299,54.19921875,-10.25390625,-62.5,-22.94921875,1.0,0.0,1.0,1.0,3.m4v,3.0
2024-02-27 11:25:50.196205,1709029550.196205,41.015625,-9.27734375,-83.984375,-23.92578125,1.0,0.0,1.0,1.0,3.m4v,3.0
2024-02-27 11:25:50.200110,1709029550.2001104,15.625,-13.671875,-96.19140625,-43.9453125,1.0,0.0,1.0,1.0,3.m4v,3.0
2024-02-27 11:25:50.204016,1709029550.2040162,36.62109375,-30.76171875,-116.2109375,-24.90234375,1.0,0.0,1.0,1.0,3.m4v,3.0
2024-02-27 11:25:50.207922,1709029550.2079215,64.94140625,-35.15625,-116.2109375,-2.9296875,1.0,0.0,1.0,1.0,3.m4v,3.0
2024-02-27 11:25:50.211828,1709029550.2118275,28.3203125,2.44140625,-89.84375,-4.39453125,1.0,0.0,1.0,1.0,3.m4v,3.0
2024-02-27 11:25:50.215733,1709029550.2157333,9.27734375,5.859375,-82.03125,-10.7421875,1.0,0.0,1.0,1.0,3.m4v,3.0
2024-02-27 11:25:50.219639,1709029550.219639,41.9921875,-24.90234375,-89.84375,-39.0625,1.0,0.0,1.0,1.0,3.m4v,3.0
2024-02-27 11:25:50.223545,1709029550.2235448,67.87109375,-27.83203125,-105.46875,-25.87890625,1.0,0.0,1.0,1.0,3.m4v,3.0
2024-02-27 11:25:50.227450,1709029550.2274504,35.64453125,-12.20703125,-109.375,11.71875,1.0,0.0,1.0,1.0,3.m4v,3.0
2024-02-27 11:25:50.231356,1709029550.231356,2.9296875,0.48828125,-86.9140625,14.6484375,1.0,0.0,1.0,1.0,3.m4v,3.0
2024-02-27 11:25:50.235262,1709029550.235262,12.6953125,-1.46484375,-86.9140625,-22.4609375,1.0,0.0,1.0,1.0,3.m4v,3.0
2024-02-27 11:25:50.239170,1709029550.2391698,10.7421875,-9.765625,-109.86328125,-53.7109375,1.0,0.0,1.0,1.0,3.m4v,3.0
2024-02-27 11:25:50.243076,1709029550.2430756,12.20703125,-14.16015625,-102.05078125,-25.390625,1.0,0.0,1.0,1.0,3.m4v,3.0
2024-02-27 11:25:50.246981,1709029550.2469811,32.2265625,7.8125,-78.125,6.34765625,1.0,0.0,1.0,1.0,3.m4v,3.0
2024-02-27 11:25:50.250887,1709029550.250887,47.36328125,33.203125,-88.8671875,32.71484375,1.0,0.0,1.0,1.0,3.m4v,3.0
2024-02-27 11:25:50.254793,1709029550.2547927,21.97265625,36.1328125,-118.1640625,17.08984375,1.0,0.0,1.0,1.0,3.m4v,3.0
2024-02-27 11:25:50.258698,1709029550.2586985,12.6953125,47.8515625,-111.328125,-4.8828125,1.0,0.0,1.0,1.0,3.m4v,3.0
2024-02-27 11:25:50.262604,1709029550.262604,-2.9296875,51.26953125,-56.640625,17.578125,1.0,0.0,1.0,1.0,3.m4v,3.0
2024-02-27 11:25:50.266510,1709029550.2665098,-5.859375,42.48046875,-52.24609375,-14.6484375,1.0,0.0,1.0,1.0,3.m4v,3.0
2024-02-27 11:25:50.270416,1709029550.2704155,12.20703125,20.01953125,-88.37890625,-57.6171875,1.0,0.0,1.0,1.0,3.m4v,3.0
2024-02-27 11:25:50.274321,1709029550.2743213,11.23046875,5.37109375,-75.68359375,-42.48046875,1.0,0.0,1.0,1.0,3.m4v,3.0
2024-02-27 11:25:50.278227,1709029550.278227,16.6015625,20.01953125,-83.49609375,-43.9453125,1.0,0.0,1.0,1.0,3.m4v,3.0
2024-02-27 11:25:50.282133,1709029550.2821326,32.71484375,22.94921875,-76.66015625,-54.19921875,1.0,0.0,1.0,1.0,3.m4v,3.0
2024-02-27 11:25:50.286041,1709029550.2860403,8.30078125,40.0390625,-43.9453125,-33.203125,1.0,0.0,1.0,1.0,3.m4v,3.0
2024-02-27 11:25:50.289946,1709029550.2899463,-11.23046875,54.6875,-47.8515625,-32.71484375,1.0,0.0,1.0,1.0,3.m4v,3.0
2024-02-27 11:25:50.293852,1709029550.293852,-3.41796875,47.8515625,-59.08203125,-62.5,1.0,0.0,1.0,1.0,3.m4v,3.0
2024-02-27 11:25:50.297758,1709029550.2977576,22.4609375,41.50390625,-76.66015625,-73.73046875,1.0,0.0,1.0,1.0,3.m4v,3.0
2024-02-27 11:25:50.301663,1709029550.3016634,15.625,24.4140625,-108.3984375,-71.77734375,1.0,0.0,1.0,1.0,3.m4v,3.0
2024-02-27 11:25:50.305569,1709029550.3055692,-6.34765625,49.8046875,-92.28515625,-34.1796875,1.0,0.0,1.0,1.0,3.m4v,3.0
2024-02-27 11:25:50.309475,1709029550.309475,6.8359375,57.6171875,-49.8046875,-28.3203125,1.0,0.0,1.0,1.0,3.m4v,3.0
2024-02-27 11:25:50.313381,1709029550.3133807,-2.44140625,-6.8359375,-35.64453125,-62.98828125,1.0,0.0,1.0,1.0,3.m4v,3.0
2024-02-27 11:25:50.317286,1709029550.3172865,6.8359375,-24.4140625,-63.96484375,-32.2265625,1.0,0.0,1.0,1.0,3.m4v,3.0
2024-02-27 11:25:50.321192,1709029550.321192,20.5078125,-16.6015625,-98.14453125,-62.5,1.0,0.0,1.0,1.0,3.m4v,3.0
2024-02-27 11:25:50.325098,1709029550.3250978,-1.953125,-21.97265625,-65.4296875,-62.01171875,1.0,0.0,1.0,1.0,3.m4v,3.0
2024-02-27 11:25:50.329004,1709029550.3290036,-17.578125,-4.39453125,-34.1796875,-43.45703125,1.0,0.0,1.0,1.0,3.m4v,3.0
2024-02-27 11:25:50.332911,1709029550.332911,8.7890625,10.25390625,-33.203125,-71.77734375,1.0,0.0,1.0,1.0,3.m4v,3.0
2024-02-27 11:25:50.336817,1709029550.3368168,35.64453125,6.34765625,-39.0625,-75.68359375,1.0,0.0,1.0,1.0,3.m4v,3.0
2024-02-27 11:25:50.340723,1709029550.3407226,4.39453125,0.48828125,-49.31640625,-54.19921875,1.0,0.0,1.0,1.0,3.m4v,3.0
2024-02-27 11:25:50.344628,1709029550.3446283,3.41796875,-2.44140625,-54.19921875,-53.7109375,1.0,0.0,1.0,1.0,3.m4v,3.0
2024-02-27 11:25:50.348534,1709029550.348534,24.4140625,-8.30078125,-62.5,-68.359375,1.0,0.0,1.0,1.0,3.m4v,3.0
2024-02-27 11:25:50.352440,1709029550.3524396,12.6953125,4.8828125,-65.4296875,-83.984375,1.0,0.0,1.0,1.0,3.m4v,3.0
2024-02-27 11:25:50.356345,1709029550.3563454,6.34765625,15.625,-56.640625,-80.56640625,1.0,0.0,1.0,1.0,3.m4v,3.0
2024-02-27 11:25:50.360251,1709029550.3602512,38.0859375,-26.85546875,-64.453125,-93.75,1.0,0.0,1.0,1.0,3.m4v,3.0
2024-02-27 11:25:50.364157,1709029550.364157,3.90625,-56.15234375,-67.87109375,-86.9140625,1.0,0.0,1.0,1.0,3.m4v,3.0
2024-02-27 11:25:50.368062,1709029550.3680625,-21.484375,-37.109375,-57.6171875,-55.17578125,1.0,0.0,1.0,1.0,3.m4v,3.0
2024-02-27 11:25:50.371968,1709029550.3719685,14.6484375,-17.578125,-73.73046875,-63.4765625,1.0,0.0,1.0,1.0,3.m4v,3.0
2024-02-27 11:25:50.375874,1709029550.375874,17.578125,-5.37109375,-89.35546875,-64.94140625,1.0,0.0,1.0,1.0,3.m4v,3.0
2024-02-27 11:25:50.379782,1709029550.3797815,-0.48828125,7.32421875,-77.63671875,-67.3828125,1.0,0.0,1.0,1.0,3.m4v,3.0
2024-02-27 11:25:50.383687,1709029550.3836873,-19.53125,-16.11328125,-59.5703125,-55.17578125,1.0,0.0,1.0,1.0,3.m4v,3.0
2024-02-27 11:25:50.387593,1709029550.387593,-20.99609375,-26.85546875,-47.8515625,-40.0390625,1.0,0.0,1.0,1.0,3.m4v,3.0
2024-02-27 11:25:50.391499,1709029550.3914988,-18.06640625,-18.06640625,-35.64453125,-28.3203125,1.0,0.0,1.0,1.0,3.m4v,3.0
2024-02-27 11:25:50.395405,1709029550.3954046,-13.18359375,-31.25,-37.59765625,-43.45703125,1.0,0.0,1.0,1.0,3.m4v,3.0
2024-02-27 11:25:50.399310,1709029550.3993104,-26.3671875,-17.578125,-48.828125,-82.51953125,1.0,0.0,1.0,1.0,3.m4v,3.0
2024-02-27 11:25:50.403216,1709029550.403216,-27.34375,-10.7421875,-51.7578125,-58.59375,1.0,0.0,1.0,1.0,3.m4v,3.0
2024-02-27 11:25:50.407122,1709029550.4071217,-9.765625,-42.48046875,-60.05859375,-38.0859375,1.0,0.0,1.0,1.0,3.m4v,3.0
2024-02-27 11:25:50.411027,1709029550.4110274,-29.78515625,-63.96484375,-53.22265625,-46.875,1.0,0.0,1.0,1.0,3.m4v,3.0
2024-02-27 11:25:50.414933,1709029550.4149332,-20.01953125,-56.15234375,-48.828125,-61.5234375,1.0,0.0,1.0,1.0,3.m4v,3.0
2024-02-27 11:25:50.418839,1709029550.4188387,4.39453125,-45.41015625,-78.125,-69.82421875,1.0,0.0,1.0,1.0,3.m4v,3.0
2024-02-27 11:25:50.422745,1709029550.4227445,-20.01953125,-58.10546875,-99.12109375,-39.0625,1.0,0.0,1.0,1.0,3.m4v,3.0
2024-02-27 11:25:50.426651,1709029550.4266517,-9.27734375,-52.734375,-75.68359375,-3.41796875,1.0,0.0,1.0,1.0,3.m4v,3.0
2024-02-27 11:25:50.430557,1709029550.4305573,-6.8359375,-54.19921875,-43.9453125,-26.3671875,1.0,0.0,1.0,1.0,3.m4v,3.0
2024-02-27 11:25:50.434463,1709029550.434463,-17.578125,-68.84765625,-35.15625,-68.84765625,1.0,0.0,1.0,1.0,3.m4v,3.0
2024-02-27 11:25:50.438369,1709029550.4383688,-14.16015625,-72.75390625,-47.36328125,-90.33203125,1.0,0.0,1.0,1.0,3.m4v,3.0
2024-02-27 11:25:50.442275,1709029550.4422746,5.859375,-70.80078125,-56.15234375,-78.61328125,1.0,0.0,1.0,1.0,3.m4v,3.0
2024-02-27 11:25:50.446180,1709029550.44618,-4.8828125,-58.59375,-49.31640625,-47.8515625,1.0,0.0,1.0,1.0,3.m4v,3.0
2024-02-27 11:25:50.450086,1709029550.450086,-27.83203125,-73.73046875,-40.0390625,-41.015625,1.0,0.0,1.0,1.0,3.m4v,3.0
2024-02-27 11:25:50.453992,1709029550.4539917,0.48828125,-108.88671875,-42.96875,-48.828125,1.0,0.0,1.0,1.0,3.m4v,3.0
2024-02-27 11:25:50.477428,1709029550.4774282,-1.953125,-53.7109375,-44.921875,-44.43359375,1.0,0.0,1.0,1.0,3.m4v,3.0
2024-02-27 11:25:50.481334,1709029550.481334,0.0,-66.89453125,-44.43359375,-52.734375,1.0,0.0,1.0,1.0,3.m4v,3.0
2024-02-27 11:25:50.485240,1709029550.4852395,15.13671875,-62.98828125,-60.546875,-58.10546875,1.0,0.0,1.0,1.0,3.m4v,3.0
2024-02-27 11:25:50.489146,1709029550.4891455,8.30078125,-70.3125,-72.75390625,-56.15234375,1.0,0.0,1.0,1.0,3.m4v,3.0
2024-02-27 11:25:50.493051,1709029550.4930513,8.30078125,-44.43359375,-64.453125,-50.78125,1.0,0.0,1.0,1.0,3.m4v,3.0
2024-02-27 11:25:50.496957,1709029550.4969568,15.625,-41.9921875,-44.921875,-40.52734375,1.0,0.0,1.0,1.0,3.m4v,3.0
2024-02-27 11:25:50.500863,1709029550.5008626,9.27734375,-71.77734375,-30.76171875,-51.26953125,1.0,0.0,1.0,1.0,3.m4v,3.0
2024-02-27 11:25:50.504768,1709029550.5047684,10.7421875,-70.80078125,-39.0625,-73.73046875,1.0,0.0,1.0,1.0,3.m4v,3.0
2024-02-27 11:25:50.508674,1709029550.508674,29.78515625,-72.75390625,-46.38671875,-60.05859375,1.0,0.0,1.0,1.0,3.m4v,3.0
2024-02-27 11:25:50.512580,1709029550.5125797,14.16015625,-86.9140625,-41.015625,-62.98828125,1.0,0.0,1.0,1.0,3.m4v,3.0
2024-02-27 11:25:50.516485,1709029550.5164857,-11.23046875,-99.12109375,-40.52734375,-64.94140625,1.0,0.0,1.0,1.0,3.m4v,3.0
2024-02-27 11:25:50.520394,1709029550.520394,-17.578125,-97.65625,-72.75390625,-49.31640625,1.0,0.0,1.0,1.0,3.m4v,3.0
2024-02-27 11:25:50.524300,1709029550.5243,-6.8359375,-74.70703125,-86.9140625,-60.05859375,1.0,0.0,1.0,1.0,3.m4v,3.0
2024-02-27 11:25:50.528205,1709029550.5282054,6.34765625,-60.546875,-46.875,-34.66796875,1.0,0.0,1.0,1.0,3.m4v,3.0
2024-02-27 11:25:50.532111,1709029550.5321112,11.71875,-66.40625,-28.3203125,-14.16015625,1.0,0.0,1.0,1.0,3.m4v,3.0
2024-02-27 11:25:50.536017,1709029550.536017,0.0,-76.66015625,-39.0625,-55.17578125,1.0,0.0,1.0,1.0,3.m4v,3.0
2024-02-27 11:25:50.539923,1709029550.5399227,0.48828125,-57.6171875,-35.15625,-62.98828125,1.0,0.0,1.0,1.0,3.m4v,3.0
2024-02-27 11:25:50.543828,1709029550.5438285,4.8828125,-52.24609375,-37.109375,-57.12890625,1.0,0.0,1.0,1.0,3.m4v,3.0
2024-02-27 11:25:50.547734,1709029550.547734,-8.7890625,-68.84765625,-43.45703125,-51.26953125,1.0,0.0,1.0,1.0,3.m4v,3.0
2024-02-27 11:25:50.551640,1709029550.5516398,2.44140625,-65.4296875,-35.64453125,-38.0859375,1.0,0.0,1.0,1.0,3.m4v,3.0
2024-02-27 11:25:50.555546,1709029550.5555456,-12.6953125,-66.40625,-39.55078125,-60.05859375,1.0,0.0,1.0,1.0,3.m4v,3.0
2024-02-27 11:25:50.559451,1709029550.559451,-33.69140625,-54.19921875,-51.7578125,-101.07421875,1.0,0.0,1.0,1.0,3.m4v,3.0
2024-02-27 11:25:50.563357,1709029550.5633569,-16.11328125,-59.08203125,-57.6171875,-98.6328125,1.0,0.0,1.0,1.0,3.m4v,3.0
2024-02-27 11:25:50.567266,1709029550.5672655,15.13671875,-78.61328125,-50.29296875,-54.6875,1.0,0.0,1.0,1.0,3.m4v,3.0
2024-02-27 11:25:50.571171,1709029550.5711713,17.578125,-71.2890625,-40.0390625,-44.921875,1.0,0.0,1.0,1.0,3.m4v,3.0
2024-02-27 11:25:50.575077,1709029550.575077,9.27734375,-47.36328125,-56.15234375,-46.875,1.0,0.0,1.0,1.0,3.m4v,3.0
2024-02-27 11:25:50.578983,1709029550.5789828,-1.953125,-40.0390625,-54.6875,-40.52734375,1.0,0.0,1.0,1.0,3.m4v,3.0
2024-02-27 11:25:50.582888,1709029550.5828884,-4.39453125,-47.36328125,-44.43359375,-42.96875,1.0,0.0,1.0,1.0,3.m4v,3.0
2024-02-27 11:25:50.586794,1709029550.586794,2.44140625,-21.484375,-48.828125,-31.73828125,1.0,0.0,1.0,1.0,3.m4v,3.0
2024-02-27 11:25:50.590700,1709029550.5907,-1.953125,-9.765625,-42.48046875,-31.25,1.0,0.0,1.0,1.0,3.m4v,3.0
2024-02-27 11:25:50.594606,1709029550.5946057,13.671875,-48.828125,-28.80859375,-33.69140625,1.0,0.0,1.0,1.0,3.m4v,3.0
2024-02-27 11:25:50.598511,1709029550.5985117,15.13671875,-67.87109375,-35.64453125,-45.8984375,1.0,0.0,1.0,1.0,3.m4v,3.0
2024-02-27 11:25:50.602417,1709029550.602417,-7.32421875,-91.796875,-44.43359375,-55.6640625,1.0,0.0,1.0,1.0,3.m4v,3.0
2024-02-27 11:25:50.606323,1709029550.6063228,-4.39453125,-79.1015625,-37.59765625,-30.2734375,1.0,0.0,1.0,1.0,3.m4v,3.0
2024-02-27 11:25:50.610229,1709029550.6102283,15.625,-49.31640625,-51.26953125,-13.671875,1.0,0.0,1.0,1.0,3.m4v,3.0
2024-02-27 11:25:50.614136,1709029550.6141365,3.90625,-52.734375,-61.5234375,-30.76171875,1.0,0.0,1.0,1.0,3.m4v,3.0
2024-02-27 11:25:50.618042,1709029550.6180422,12.20703125,-34.1796875,-41.015625,-41.015625,1.0,0.0,1.0,1.0,3.m4v,3.0
2024-02-27 11:25:50.621948,1709029550.621948,26.3671875,-22.94921875,-25.87890625,-43.45703125,1.0,0.0,1.0,1.0,3.m4v,3.0
2024-02-27 11:25:50.801618,1709029550.801618,-45.8984375,-37.59765625,-36.1328125,-97.65625,1.0,0.0,1.0,1.0,3.m4v,3.0
2024-02-27 11:25:50.805524,1709029550.805524,-21.484375,-51.7578125,-47.8515625,-95.21484375,1.0,0.0,1.0,1.0,3.m4v,3.0
2024-02-27 11:25:50.809430,1709029550.8094296,0.9765625,-28.80859375,-77.63671875,-70.3125,1.0,0.0,1.0,1.0,3.m4v,3.0
2024-02-27 11:25:50.813335,1709029550.8133354,-15.625,-31.25,-65.4296875,-101.5625,1.0,0.0,1.0,1.0,3.m4v,3.0
2024-02-27 11:25:50.817241,1709029550.817241,-21.97265625,-42.48046875,-33.203125,-134.765625,1.0,0.0,1.0,1.0,3.m4v,3.0
2024-02-27 11:25:50.821147,1709029550.8211467,-27.83203125,-19.04296875,-20.5078125,-126.46484375,1.0,0.0,1.0,1.0,3.m4v,3.0
2024-02-27 11:25:50.825052,1709029550.8250525,-30.2734375,-35.15625,-30.76171875,-121.58203125,1.0,0.0,1.0,1.0,3.m4v,3.0
2024-02-27 11:25:50.828958,1709029550.8289585,-23.4375,-69.82421875,-31.25,-104.00390625,1.0,0.0,1.0,1.0,3.m4v,3.0
2024-02-27 11:25:50.832864,1709029550.8328638,-14.6484375,-61.5234375,-36.62109375,-125.48828125,1.0,0.0,1.0,1.0,3.m4v,3.0
2024-02-27 11:25:50.836770,1709029550.8367696,-12.6953125,-52.24609375,-39.55078125,-143.5546875,1.0,0.0,1.0,1.0,3.m4v,3.0
2024-02-27 11:25:50.840675,1709029550.8406754,-41.015625,-51.7578125,-41.50390625,-147.94921875,1.0,0.0,1.0,1.0,3.m4v,3.0
2024-02-27 11:25:50.844581,1709029550.8445811,-61.5234375,-56.640625,-55.17578125,-156.73828125,1.0,0.0,1.0,1.0,3.m4v,3.0
2024-02-27 11:25:50.848488,1709029550.848488,-50.78125,-59.5703125,-41.50390625,-124.0234375,1.0,0.0,1.0,1.0,3.m4v,3.0
2024-02-27 11:25:50.981288,1709029550.981288,-83.984375,-9.765625,-25.87890625,-128.90625,1.0,0.0,1.0,1.0,3.m4v,3.0
2024-02-27 11:25:50.989102,1709029550.9891016,-74.70703125,-29.78515625,-34.1796875,-111.81640625,1.0,0.0,1.0,1.0,3.m4v,3.0
2024-02-27 11:25:50.996913,1709029550.9969132,-63.4765625,-32.71484375,-50.29296875,-113.76953125,1.0,0.0,1.0,1.0,3.m4v,3.0
2024-02-27 11:25:51.004725,1709029551.0047245,-51.7578125,-46.38671875,-32.71484375,-89.35546875,1.0,0.0,1.0,1.0,3.m4v,3.0
2024-02-27 11:25:51.012536,1709029551.012536,-58.59375,-6.8359375,-27.34375,-77.1484375,1.0,0.0,1.0,1.0,3.m4v,3.0
2024-02-27 11:25:51.020347,1709029551.0203474,-75.1953125,-68.84765625,-28.3203125,-109.86328125,1.0,0.0,1.0,1.0,3.m4v,3.0
2024-02-27 11:25:51.028159,1709029551.028159,-55.17578125,-48.828125,-42.96875,-64.453125,1.0,0.0,1.0,1.0,3.m4v,3.0
2024-02-27 11:25:51.035973,1709029551.0359726,-65.91796875,-52.24609375,-40.52734375,-104.00390625,1.0,0.0,1.0,1.0,3.m4v,3.0
2024-02-27 11:25:51.043784,1709029551.043784,-70.3125,-46.38671875,-42.48046875,-85.9375,1.0,0.0,1.0,1.0,3.m4v,3.0
2024-02-27 11:25:51.051596,1709029551.0515957,-65.4296875,-49.31640625,-38.57421875,-83.984375,1.0,0.0,1.0,1.0,3.m4v,3.0
2024-02-27 11:25:51.059407,1709029551.059407,-65.91796875,-19.53125,-25.87890625,-89.35546875,1.0,0.0,1.0,1.0,3.m4v,3.0
2024-02-27 11:25:51.067219,1709029551.0672183,-64.94140625,-68.359375,-32.2265625,-82.03125,1.0,0.0,1.0,1.0,3.m4v,3.0
2024-02-27 11:25:51.075030,1709029551.07503,-90.33203125,-54.6875,-48.828125,-74.70703125,1.0,0.0,1.0,1.0,3.m4v,3.0
2024-02-27 11:25:51.176584,1709029551.1765835,-92.28515625,-10.25390625,-38.57421875,-83.49609375,1.0,0.0,1.0,1.0,3.m4v,3.0
2024-02-27 11:25:51.180489,1709029551.1804893,-84.9609375,-16.6015625,-31.73828125,-64.453125,1.0,0.0,1.0,1.0,3.m4v,3.0
2024-02-27 11:25:51.184395,1709029551.184395,-85.9375,-25.87890625,-39.0625,-50.78125,1.0,0.0,1.0,1.0,3.m4v,3.0
2024-02-27 11:25:51.188301,1709029551.1883006,-90.8203125,-11.23046875,-43.9453125,-40.0390625,1.0,0.0,1.0,1.0,3.m4v,3.0
2024-02-27 11:25:51.192206,1709029551.1922064,-90.8203125,-2.44140625,-29.78515625,-56.640625,1.0,0.0,1.0,1.0,3.m4v,3.0
2024-02-27 11:25:51.196112,1709029551.1961122,-96.6796875,5.859375,-20.99609375,-68.84765625,1.0,0.0,1.0,1.0,3.m4v,3.0
2024-02-27 11:25:51.200018,1709029551.200018,-106.4453125,-4.8828125,-35.64453125,-89.84375,1.0,0.0,1.0,1.0,3.m4v,3.0
2024-02-27 11:25:51.203924,1709029551.2039237,-100.5859375,-37.59765625,-34.66796875,-70.80078125,1.0,0.0,1.0,1.0,3.m4v,3.0
2024-02-27 11:25:51.207829,1709029551.2078292,-95.21484375,-39.0625,-18.06640625,-40.0390625,1.0,0.0,1.0,1.0,3.m4v,3.0
2024-02-27 11:25:51.211735,1709029551.211735,-94.23828125,-27.34375,-36.62109375,-57.12890625,1.0,0.0,1.0,1.0,3.m4v,3.0
2024-02-27 11:25:51.215641,1709029551.2156408,-103.02734375,-12.6953125,-47.8515625,-73.2421875,1.0,0.0,1.0,1.0,3.m4v,3.0
2024-02-27 11:25:51.219547,1709029551.2195466,-112.79296875,12.6953125,-27.34375,-71.77734375,1.0,0.0,1.0,1.0,3.m4v,3.0
2024-02-27 11:25:51.223454,1709029551.2234535,-104.00390625,19.04296875,-19.04296875,-65.91796875,1.0,0.0,1.0,1.0,3.m4v,3.0
2024-02-27 11:25:51.227359,1709029551.2273593,-99.12109375,-2.44140625,-21.97265625,-55.17578125,1.0,0.0,1.0,1.0,3.m4v,3.0
2024-02-27 11:25:51.231265,1709029551.2312648,-105.95703125,-10.25390625,-27.34375,-43.9453125,1.0,0.0,1.0,1.0,3.m4v,3.0
2024-02-27 11:25:51.235171,1709029551.2351706,-105.46875,-2.9296875,-23.92578125,-32.71484375,1.0,0.0,1.0,1.0,3.m4v,3.0
2024-02-27 11:25:51.239076,1709029551.2390764,-99.12109375,0.0,-26.85546875,-43.9453125,1.0,0.0,1.0,1.0,3.m4v,3.0
2024-02-27 11:25:51.242982,1709029551.242982,-102.5390625,12.20703125,-33.69140625,-41.50390625,1.0,0.0,1.0,1.0,3.m4v,3.0
2024-02-27 11:25:51.246888,1709029551.246888,-103.515625,18.5546875,-40.0390625,-22.4609375,1.0,0.0,1.0,1.0,3.m4v,3.0
2024-02-27 11:25:51.250793,1709029551.2507937,-91.796875,-10.7421875,-41.50390625,-25.390625,1.0,0.0,1.0,1.0,3.m4v,3.0
2024-02-27 11:25:51.254699,1709029551.2546992,-78.125,-18.06640625,-33.69140625,-19.53125,1.0,0.0,1.0,1.0,3.m4v,3.0
2024-02-27 11:25:51.258605,1709029551.258605,-80.078125,-7.8125,-28.80859375,-23.4375,1.0,0.0,1.0,1.0,3.m4v,3.0
2024-02-27 11:25:51.262511,1709029551.2625108,-104.00390625,-19.04296875,-23.4375,-29.78515625,1.0,0.0,1.0,1.0,3.m4v,3.0
2024-02-27 11:25:51.266417,1709029551.2664163,-98.14453125,-25.390625,-24.4140625,-15.13671875,1.0,0.0,1.0,1.0,3.m4v,3.0
2024-02-27 11:25:51.270325,1709029551.270325,-84.47265625,-16.11328125,-40.52734375,-13.18359375,1.0,0.0,1.0,1.0,3.m4v,3.0
2024-02-27 11:25:51.274231,1709029551.2742307,-72.75390625,-12.20703125,-54.19921875,-30.2734375,1.0,0.0,1.0,1.0,3.m4v,3.0
2024-02-27 11:25:51.278136,1709029551.2781365,-62.98828125,-4.39453125,-43.45703125,-35.15625,1.0,0.0,1.0,1.0,3.m4v,3.0
2024-02-27 11:25:51.282042,1709029551.2820425,-78.61328125,-2.9296875,-27.34375,-30.76171875,1.0,0.0,1.0,1.0,3.m4v,3.0
2024-02-27 11:25:51.285948,1709029551.2859478,-83.984375,-17.08984375,-28.3203125,-28.3203125,1.0,0.0,1.0,1.0,3.m4v,3.0
2024-02-27 11:25:51.289854,1709029551.2898536,-66.89453125,9.27734375,-36.1328125,-17.08984375,1.0,0.0,1.0,1.0,3.m4v,3.0
2024-02-27 11:25:51.293759,1709029551.293759,-70.80078125,2.9296875,-46.875,-41.015625,1.0,0.0,1.0,1.0,3.m4v,3.0
2024-02-27 11:25:51.297665,1709029551.297665,-85.44921875,-43.9453125,-38.0859375,-53.7109375,1.0,0.0,1.0,1.0,3.m4v,3.0
2024-02-27 11:25:51.301571,1709029551.301571,-74.70703125,-51.7578125,-20.99609375,-30.76171875,1.0,0.0,1.0,1.0,3.m4v,3.0
2024-02-27 11:25:51.305476,1709029551.3054764,-71.2890625,-30.76171875,-26.3671875,-21.97265625,1.0,0.0,1.0,1.0,3.m4v,3.0
2024-02-27 11:25:51.309382,1709029551.3093822,-94.7265625,-30.76171875,-27.83203125,-15.625,1.0,0.0,1.0,1.0,3.m4v,3.0
2024-02-27 11:25:51.313288,1709029551.313288,-96.19140625,-34.66796875,-28.3203125,-20.99609375,1.0,0.0,1.0,1.0,3.m4v,3.0
2024-02-27 11:25:51.317196,1709029551.3171964,-97.16796875,-22.4609375,-36.62109375,-30.76171875,1.0,0.0,1.0,1.0,3.m4v,3.0
2024-02-27 11:25:51.321102,1709029551.321102,-103.515625,-26.85546875,-35.64453125,-39.55078125,1.0,0.0,1.0,1.0,3.m4v,3.0
2024-02-27 11:25:51.325008,1709029551.3250077,-96.19140625,-19.04296875,-37.59765625,-22.4609375,1.0,0.0,1.0,1.0,3.m4v,3.0
2024-02-27 11:25:51.328913,1709029551.3289137,-95.703125,-19.53125,-40.52734375,-6.34765625,1.0,0.0,1.0,1.0,3.m4v,3.0
2024-02-27 11:25:51.332819,1709029551.3328192,-94.23828125,-33.69140625,-38.0859375,-28.80859375,1.0,0.0,1.0,1.0,3.m4v,3.0
2024-02-27 11:25:51.336725,1709029551.336725,-88.37890625,-10.7421875,-30.76171875,-38.57421875,1.0,0.0,1.0,1.0,3.m4v,3.0
2024-02-27 11:25:51.340631,1709029551.3406303,-96.6796875,-9.27734375,-32.2265625,-40.0390625,1.0,0.0,1.0,1.0,3.m4v,3.0
2024-02-27 11:25:51.344536,1709029551.3445363,-94.7265625,-35.64453125,-38.57421875,-48.828125,1.0,0.0,1.0,1.0,3.m4v,3.0
2024-02-27 11:25:51.348442,1709029551.348442,-86.42578125,-41.015625,-39.0625,-46.875,1.0,0.0,1.0,1.0,3.m4v,3.0
2024-02-27 11:25:51.352348,1709029551.352348,-93.26171875,-41.015625,-40.52734375,-51.26953125,1.0,0.0,1.0,1.0,3.m4v,3.0
2024-02-27 11:25:51.356254,1709029551.3562536,-90.33203125,-35.64453125,-42.96875,-73.2421875,1.0,0.0,1.0,1.0,3.m4v,3.0
2024-02-27 11:25:51.360159,1709029551.3601592,-96.6796875,-39.0625,-32.2265625,-77.1484375,1.0,0.0,1.0,1.0,3.m4v,3.0
2024-02-27 11:25:51.364067,1709029551.3640673,-107.421875,-51.7578125,-24.90234375,-61.5234375,1.0,0.0,1.0,1.0,3.m4v,3.0
2024-02-27 11:25:51.367973,1709029551.367973,-92.7734375,-43.45703125,-32.71484375,-45.41015625,1.0,0.0,1.0,1.0,3.m4v,3.0
2024-02-27 11:25:51.371879,1709029551.3718789,-77.63671875,-32.71484375,-29.78515625,-41.015625,1.0,0.0,1.0,1.0,3.m4v,3.0
2024-02-27 11:25:51.375784,1709029551.3757844,-75.68359375,-41.50390625,-29.78515625,-67.3828125,1.0,0.0,1.0,1.0,3.m4v,3.0
2024-02-27 11:25:51.379690,1709029551.3796902,-101.07421875,-53.22265625,-33.203125,-82.03125,1.0,0.0,1.0,1.0,3.m4v,3.0
2024-02-27 11:25:51.383596,1709029551.383596,-108.88671875,-24.4140625,-34.66796875,-64.94140625,1.0,0.0,1.0,1.0,3.m4v,3.0
2024-02-27 11:25:51.387502,1709029551.3875017,-94.23828125,-17.578125,-47.8515625,-49.31640625,1.0,0.0,1.0,1.0,3.m4v,3.0
2024-02-27 11:25:51.391407,1709029551.3914073,-85.9375,-46.38671875,-53.7109375,-65.4296875,1.0,0.0,1.0,1.0,3.m4v,3.0
2024-02-27 11:25:51.395313,1709029551.395313,-87.890625,-54.19921875,-34.1796875,-80.56640625,1.0,0.0,1.0,1.0,3.m4v,3.0
2024-02-27 11:25:51.399219,1709029551.3992188,-95.21484375,-41.9921875,-20.99609375,-69.3359375,1.0,0.0,1.0,1.0,3.m4v,3.0
2024-02-27 11:25:51.403125,1709029551.4031246,-95.21484375,-40.52734375,-27.83203125,-71.2890625,1.0,0.0,1.0,1.0,3.m4v,3.0
2024-02-27 11:25:51.407030,1709029551.4070303,-81.54296875,-57.6171875,-33.69140625,-61.5234375,1.0,0.0,1.0,1.0,3.m4v,3.0
2024-02-27 11:25:51.410938,1709029551.410938,-75.68359375,-52.24609375,-42.48046875,-70.3125,1.0,0.0,1.0,1.0,3.m4v,3.0
2024-02-27 11:25:51.414844,1709029551.4148438,-72.75390625,-52.24609375,-35.15625,-80.078125,1.0,0.0,1.0,1.0,3.m4v,3.0
2024-02-27 11:25:51.418750,1709029551.4187496,-74.70703125,-58.10546875,-30.2734375,-69.82421875,1.0,0.0,1.0,1.0,3.m4v,3.0
2024-02-27 11:25:51.422655,1709029551.422655,-93.26171875,-55.17578125,-38.57421875,-69.82421875,1.0,0.0,1.0,1.0,3.m4v,3.0
2024-02-27 11:25:51.426561,1709029551.4265609,-96.6796875,-46.875,-46.875,-60.05859375,1.0,0.0,1.0,1.0,3.m4v,3.0
2024-02-27 11:25:51.430467,1709029551.430467,-75.68359375,-18.5546875,-58.59375,-58.10546875,1.0,0.0,1.0,1.0,3.m4v,3.0
2024-02-27 11:25:51.434372,1709029551.4343724,-86.9140625,-20.5078125,-43.45703125,-70.3125,1.0,0.0,1.0,1.0,3.m4v,3.0
2024-02-27 11:25:51.438278,1709029551.4382782,-104.98046875,-55.6640625,-20.01953125,-87.40234375,1.0,0.0,1.0,1.0,3.m4v,3.0
2024-02-27 11:25:51.442184,1709029551.4421835,-110.83984375,-68.359375,-28.80859375,-99.12109375,1.0,0.0,1.0,1.0,3.m4v,3.0
2024-02-27 11:25:51.446090,1709029551.4460895,-113.28125,-69.3359375,-26.3671875,-75.1953125,1.0,0.0,1.0,1.0,3.m4v,3.0
2024-02-27 11:25:51.449995,1709029551.4499953,-105.46875,-53.22265625,-19.04296875,-73.73046875,1.0,0.0,1.0,1.0,3.m4v,3.0
2024-02-27 11:25:51.453901,1709029551.453901,-85.9375,-44.43359375,-21.97265625,-91.796875,1.0,0.0,1.0,1.0,3.m4v,3.0
2024-02-27 11:25:51.457810,1709029551.4578104,-96.6796875,-50.29296875,-26.85546875,-91.30859375,1.0,0.0,1.0,1.0,3.m4v,3.0
2024-02-27 11:25:51.461716,1709029551.4617162,-118.1640625,-41.9921875,-46.875,-91.30859375,1.0,0.0,1.0,1.0,3.m4v,3.0
2024-02-27 11:25:51.465622,1709029551.465622,-103.515625,-61.5234375,-46.38671875,-83.984375,1.0,0.0,1.0,1.0,3.m4v,3.0
2024-02-27 11:25:51.469528,1709029551.4695275,-106.4453125,-74.21875,-37.59765625,-90.33203125,1.0,0.0,1.0,1.0,3.m4v,3.0
