Timestamp,Timestamp_UNIX,TP9,AF7,AF8,TP10,Valence,Arousal,Dominace,Viewed,Video,Participant
2024-02-27 09:18:14.373982,1709021894.3739824,-16.6015625,-27.34375,-20.5078125,-44.43359375,1.0,1.0,1.0,0.0,1.m4v,1.0
2024-02-27 09:18:14.377888,1709021894.3778875,5.859375,-33.69140625,-19.53125,-24.4140625,1.0,1.0,1.0,0.0,1.m4v,1.0
2024-02-27 09:18:14.381793,1709021894.3817933,-6.8359375,-25.390625,-12.20703125,-27.83203125,1.0,1.0,1.0,0.0,1.m4v,1.0
2024-02-27 09:18:14.385699,1709021894.3856988,-27.83203125,-24.4140625,-13.671875,-23.92578125,1.0,1.0,1.0,0.0,1.m4v,1.0
2024-02-27 09:18:14.389604,1709021894.3896043,-20.5078125,-34.66796875,-34.66796875,-24.4140625,1.0,1.0,1.0,0.0,1.m4v,1.0
2024-02-27 09:18:14.393510,1709021894.39351,-20.5078125,-36.62109375,-57.6171875,-40.52734375,1.0,1.0,1.0,0.0,1.m4v,1.0
2024-02-27 09:18:14.397415,1709021894.3974154,-26.85546875,-37.109375,-42.96875,-45.8984375,1.0,1.0,1.0,0.0,1.m4v,1.0
2024-02-27 09:18:14.401321,1709021894.401321,-41.50390625,-37.109375,-10.25390625,-35.64453125,1.0,1.0,1.0,0.0,1.m4v,1.0
2024-02-27 09:18:14.405226,1709021894.4052265,-67.3828125,-44.921875,-32.71484375,-45.41015625,1.0,1.0,1.0,0.0,1.m4v,1.0
2024-02-27 09:18:14.409132,1709021894.409132,-42.96875,-39.0625,-30.2734375,-44.921875,1.0,1.0,1.0,0.0,1.m4v,1.0
2024-02-27 09:18:14.413038,1709021894.4130375,0.9765625,-21.97265625,-15.625,-28.80859375,1.0,1.0,1.0,0.0,1.m4v,1.0
2024-02-27 09:18:14.416943,1709021894.4169428,9.765625,-30.76171875,-15.625,-21.97265625,1.0,1.0,1.0,0.0,1.m4v,1.0
2024-02-27 09:18:14.420858,1709021894.4208577,-25.390625,-26.85546875,-21.484375,-33.69140625,1.0,1.0,1.0,0.0,1.m4v,1.0
2024-02-27 09:18:14.424763,1709021894.4247632,-33.69140625,-14.6484375,-35.15625,-33.203125,1.0,1.0,1.0,0.0,1.m4v,1.0
2024-02-27 09:18:14.428669,1709021894.4286687,1.953125,-19.53125,-23.4375,-7.8125,1.0,1.0,1.0,0.0,1.m4v,1.0
2024-02-27 09:18:14.432574,1709021894.4325745,18.5546875,-20.01953125,-20.01953125,-13.671875,1.0,1.0,1.0,0.0,1.m4v,1.0
2024-02-27 09:18:14.436480,1709021894.4364798,18.06640625,-9.765625,-24.4140625,-12.20703125,1.0,1.0,1.0,0.0,1.m4v,1.0
2024-02-27 09:18:14.440385,1709021894.440385,5.37109375,-12.6953125,-16.6015625,6.8359375,1.0,1.0,1.0,0.0,1.m4v,1.0
2024-02-27 09:18:14.444291,1709021894.4442909,-21.97265625,-29.78515625,-5.37109375,-20.99609375,1.0,1.0,1.0,0.0,1.m4v,1.0
2024-02-27 09:18:14.448196,1709021894.4481964,-29.78515625,-50.29296875,-15.625,-44.921875,1.0,1.0,1.0,0.0,1.m4v,1.0
2024-02-27 09:18:14.452102,1709021894.4521017,-19.04296875,-53.7109375,-25.87890625,-34.1796875,1.0,1.0,1.0,0.0,1.m4v,1.0
2024-02-27 09:18:14.456007,1709021894.4560072,-28.3203125,-26.85546875,-31.73828125,-27.83203125,1.0,1.0,1.0,0.0,1.m4v,1.0
2024-02-27 09:18:14.459913,1709021894.4599128,-28.3203125,-3.90625,-27.83203125,-24.4140625,1.0,1.0,1.0,0.0,1.m4v,1.0
2024-02-27 09:18:14.463818,1709021894.4638183,-22.94921875,-30.76171875,-23.4375,-28.80859375,1.0,1.0,1.0,0.0,1.m4v,1.0
2024-02-27 09:18:14.467732,1709021894.467732,-13.18359375,-38.0859375,-28.80859375,-29.296875,1.0,1.0,1.0,0.0,1.m4v,1.0
2024-02-27 09:18:14.471637,1709021894.4716375,1.46484375,-13.671875,-21.484375,-20.99609375,1.0,1.0,1.0,0.0,1.m4v,1.0
2024-02-27 09:18:14.475543,1709021894.475543,2.9296875,-20.99609375,-22.94921875,-14.6484375,1.0,1.0,1.0,0.0,1.m4v,1.0
2024-02-27 09:18:14.479449,1709021894.4794486,-10.25390625,-23.4375,-20.99609375,-11.23046875,1.0,1.0,1.0,0.0,1.m4v,1.0
2024-02-27 09:18:14.483354,1709021894.483354,-32.71484375,-31.25,-3.90625,-25.87890625,1.0,1.0,1.0,0.0,1.m4v,1.0
2024-02-27 09:18:14.487260,1709021894.4872596,-30.2734375,-55.17578125,-11.23046875,-41.9921875,1.0,1.0,1.0,0.0,1.m4v,1.0
2024-02-27 09:18:14.491165,1709021894.4911652,6.8359375,-42.48046875,-32.2265625,-8.30078125,1.0,1.0,1.0,0.0,1.m4v,1.0
2024-02-27 09:18:14.495071,1709021894.4950707,16.11328125,-21.97265625,-31.73828125,1.953125,1.0,1.0,1.0,0.0,1.m4v,1.0
2024-02-27 09:18:14.498976,1709021894.4989762,-29.78515625,-23.4375,-16.6015625,-46.38671875,1.0,1.0,1.0,0.0,1.m4v,1.0
2024-02-27 09:18:14.502882,1709021894.5028815,-62.5,-17.08984375,-4.39453125,-47.8515625,1.0,1.0,1.0,0.0,1.m4v,1.0
2024-02-27 09:18:14.506787,1709021894.506787,-42.48046875,-8.30078125,-8.7890625,-33.203125,1.0,1.0,1.0,0.0,1.m4v,1.0
2024-02-27 09:18:14.510693,1709021894.5106926,9.765625,-4.8828125,-12.6953125,-15.13671875,1.0,1.0,1.0,0.0,1.m4v,1.0
2024-02-27 09:18:14.514606,1709021894.5146058,11.23046875,-19.04296875,-24.4140625,-17.08984375,1.0,1.0,1.0,0.0,1.m4v,1.0
2024-02-27 09:18:14.518511,1709021894.5185113,-66.89453125,-56.640625,-48.33984375,-63.4765625,1.0,1.0,1.0,0.0,1.m4v,1.0
2024-02-27 09:18:14.522417,1709021894.5224168,-87.890625,-41.9921875,-40.0390625,-49.31640625,1.0,1.0,1.0,0.0,1.m4v,1.0
2024-02-27 09:18:14.526322,1709021894.5263224,-48.33984375,-15.625,-40.0390625,-41.50390625,1.0,1.0,1.0,0.0,1.m4v,1.0
2024-02-27 09:18:14.530228,1709021894.530228,-21.484375,-23.92578125,-48.33984375,-50.29296875,1.0,1.0,1.0,0.0,1.m4v,1.0
2024-02-27 09:18:14.534133,1709021894.5341334,-2.9296875,-42.96875,-28.80859375,-20.5078125,1.0,1.0,1.0,0.0,1.m4v,1.0
2024-02-27 09:18:14.538039,1709021894.538039,-12.6953125,-37.109375,-3.41796875,-20.01953125,1.0,1.0,1.0,0.0,1.m4v,1.0
2024-02-27 09:18:14.541945,1709021894.5419445,-20.01953125,-10.25390625,4.8828125,-38.0859375,1.0,1.0,1.0,0.0,1.m4v,1.0
2024-02-27 09:18:14.545850,1709021894.5458498,-14.6484375,-13.671875,-3.90625,-27.83203125,1.0,1.0,1.0,0.0,1.m4v,1.0
2024-02-27 09:18:14.549755,1709021894.549755,-25.390625,-35.15625,-22.94921875,-21.97265625,1.0,1.0,1.0,0.0,1.m4v,1.0
2024-02-27 09:18:14.553661,1709021894.5536609,-41.50390625,-62.5,-43.9453125,-42.48046875,1.0,1.0,1.0,0.0,1.m4v,1.0
2024-02-27 09:18:14.557566,1709021894.5575664,-27.83203125,-61.03515625,-58.59375,-36.1328125,1.0,1.0,1.0,0.0,1.m4v,1.0
2024-02-27 09:18:14.561479,1709021894.561479,-31.25,-29.78515625,-59.08203125,-34.1796875,1.0,1.0,1.0,0.0,1.m4v,1.0
2024-02-27 09:18:14.565385,1709021894.5653846,-50.78125,-14.16015625,-34.66796875,-45.8984375,1.0,1.0,1.0,0.0,1.m4v,1.0
2024-02-27 09:18:14.569290,1709021894.5692902,-30.2734375,-8.7890625,-10.7421875,-39.55078125,1.0,1.0,1.0,0.0,1.m4v,1.0
2024-02-27 09:18:14.573196,1709021894.5731957,9.765625,-6.34765625,2.9296875,-17.578125,1.0,1.0,1.0,0.0,1.m4v,1.0
2024-02-27 09:18:14.577101,1709021894.577101,7.32421875,-14.16015625,-0.9765625,-11.23046875,1.0,1.0,1.0,0.0,1.m4v,1.0
2024-02-27 09:18:14.581007,1709021894.5810063,-39.0625,-26.3671875,-12.20703125,-33.69140625,1.0,1.0,1.0,0.0,1.m4v,1.0
2024-02-27 09:18:14.584912,1709021894.584912,-19.53125,-23.4375,-14.16015625,-26.85546875,1.0,1.0,1.0,0.0,1.m4v,1.0
2024-02-27 09:18:14.588818,1709021894.5888176,-7.8125,-37.109375,-40.0390625,-20.01953125,1.0,1.0,1.0,0.0,1.m4v,1.0
2024-02-27 09:18:14.592723,1709021894.5927231,-20.5078125,-39.0625,-40.52734375,-41.9921875,1.0,1.0,1.0,0.0,1.m4v,1.0
2024-02-27 09:18:14.596629,1709021894.596629,-25.390625,-30.76171875,-25.390625,-62.01171875,1.0,1.0,1.0,0.0,1.m4v,1.0
2024-02-27 09:18:14.600534,1709021894.6005342,-62.5,-33.69140625,-28.80859375,-58.10546875,1.0,1.0,1.0,0.0,1.m4v,1.0
2024-02-27 09:18:14.604440,1709021894.6044395,-55.6640625,-23.4375,-26.85546875,-28.80859375,1.0,1.0,1.0,0.0,1.m4v,1.0
2024-02-27 09:18:14.608356,1709021894.6083565,-14.6484375,-23.4375,-26.85546875,-25.390625,1.0,1.0,1.0,0.0,1.m4v,1.0
2024-02-27 09:18:14.612262,1709021894.6122618,-5.37109375,-35.15625,-16.11328125,-33.203125,1.0,1.0,1.0,0.0,1.m4v,1.0
2024-02-27 09:18:14.616167,1709021894.6161673,-20.99609375,-29.78515625,-31.25,-16.6015625,1.0,1.0,1.0,0.0,1.m4v,1.0
2024-02-27 09:18:14.620073,1709021894.6200728,-18.5546875,-21.97265625,-42.96875,-12.20703125,1.0,1.0,1.0,0.0,1.m4v,1.0
2024-02-27 09:18:14.623978,1709021894.6239784,-18.06640625,-26.85546875,-23.92578125,-23.92578125,1.0,1.0,1.0,0.0,1.m4v,1.0
2024-02-27 09:18:14.627884,1709021894.627884,-19.04296875,-20.5078125,-20.01953125,-12.20703125,1.0,1.0,1.0,0.0,1.m4v,1.0
2024-02-27 09:18:14.631789,1709021894.6317894,-19.04296875,-21.484375,-32.2265625,-33.69140625,1.0,1.0,1.0,0.0,1.m4v,1.0
2024-02-27 09:18:14.635695,1709021894.635695,-23.92578125,-30.76171875,-48.33984375,-48.33984375,1.0,1.0,1.0,0.0,1.m4v,1.0
2024-02-27 09:18:14.639601,1709021894.6396005,-38.0859375,-28.80859375,-51.26953125,-42.48046875,1.0,1.0,1.0,0.0,1.m4v,1.0
2024-02-27 09:18:14.643506,1709021894.643506,-35.64453125,-29.78515625,-22.94921875,-45.41015625,1.0,1.0,1.0,0.0,1.m4v,1.0
2024-02-27 09:18:14.647412,1709021894.6474116,-23.92578125,-38.57421875,11.23046875,-32.71484375,1.0,1.0,1.0,0.0,1.m4v,1.0
2024-02-27 09:18:14.651317,1709021894.651317,-9.27734375,-34.66796875,7.32421875,-20.01953125,1.0,1.0,1.0,0.0,1.m4v,1.0
2024-02-27 09:18:14.655228,1709021894.6552284,-0.9765625,-31.73828125,-24.90234375,-12.20703125,1.0,1.0,1.0,0.0,1.m4v,1.0
2024-02-27 09:18:14.659134,1709021894.659134,-34.66796875,-40.52734375,-41.9921875,-21.97265625,1.0,1.0,1.0,0.0,1.m4v,1.0
2024-02-27 09:18:14.663039,1709021894.6630394,-48.33984375,-21.97265625,-40.0390625,-24.4140625,1.0,1.0,1.0,0.0,1.m4v,1.0
2024-02-27 09:18:14.666945,1709021894.666945,-7.8125,4.8828125,-2.44140625,-5.37109375,1.0,1.0,1.0,0.0,1.m4v,1.0
2024-02-27 09:18:14.670851,1709021894.6708505,-6.8359375,-20.5078125,-0.9765625,-21.97265625,1.0,1.0,1.0,0.0,1.m4v,1.0
2024-02-27 09:18:14.674756,1709021894.674756,-16.11328125,-37.59765625,-41.015625,-49.31640625,1.0,1.0,1.0,0.0,1.m4v,1.0
2024-02-27 09:18:14.678662,1709021894.6786616,-35.15625,-42.96875,-60.546875,-49.31640625,1.0,1.0,1.0,0.0,1.m4v,1.0
2024-02-27 09:18:14.682567,1709021894.6825671,-62.01171875,-45.41015625,-50.78125,-28.3203125,1.0,1.0,1.0,0.0,1.m4v,1.0
2024-02-27 09:18:14.686473,1709021894.686473,-20.01953125,-24.90234375,-15.13671875,10.7421875,1.0,1.0,1.0,0.0,1.m4v,1.0
2024-02-27 09:18:14.690378,1709021894.6903782,6.8359375,-19.04296875,-1.46484375,0.0,1.0,1.0,1.0,0.0,1.m4v,1.0
2024-02-27 09:18:14.694283,1709021894.6942835,-31.73828125,-43.45703125,-14.6484375,-54.6875,1.0,1.0,1.0,0.0,1.m4v,1.0
2024-02-27 09:18:14.698189,1709021894.698189,-54.6875,-46.875,-28.3203125,-62.98828125,1.0,1.0,1.0,0.0,1.m4v,1.0
2024-02-27 09:18:14.702100,1709021894.7021005,-59.5703125,-20.5078125,-12.20703125,-31.73828125,1.0,1.0,1.0,0.0,1.m4v,1.0
2024-02-27 09:18:14.706006,1709021894.7060058,-37.109375,-9.27734375,7.8125,-7.32421875,1.0,1.0,1.0,0.0,1.m4v,1.0
2024-02-27 09:18:14.709911,1709021894.709911,-7.32421875,-10.25390625,-15.625,-3.41796875,1.0,1.0,1.0,0.0,1.m4v,1.0
2024-02-27 09:18:14.713817,1709021894.7138166,-30.76171875,-27.83203125,-39.55078125,-32.71484375,1.0,1.0,1.0,0.0,1.m4v,1.0
2024-02-27 09:18:14.717722,1709021894.7177222,-28.3203125,-41.50390625,-35.64453125,-31.73828125,1.0,1.0,1.0,0.0,1.m4v,1.0
2024-02-27 09:18:14.721628,1709021894.7216277,-26.85546875,-34.1796875,-27.34375,-26.85546875,1.0,1.0,1.0,0.0,1.m4v,1.0
2024-02-27 09:18:14.725533,1709021894.7255332,-57.6171875,-27.83203125,-26.3671875,-41.015625,1.0,1.0,1.0,0.0,1.m4v,1.0
2024-02-27 09:18:14.729439,1709021894.7294388,-29.296875,-12.20703125,-14.6484375,-11.23046875,1.0,1.0,1.0,0.0,1.m4v,1.0
2024-02-27 09:18:14.733344,1709021894.7333443,-13.18359375,-14.6484375,-15.13671875,-11.71875,1.0,1.0,1.0,0.0,1.m4v,1.0
2024-02-27 09:18:14.737250,1709021894.73725,-30.76171875,-32.71484375,-38.0859375,-42.96875,1.0,1.0,1.0,0.0,1.m4v,1.0
2024-02-27 09:18:14.741155,1709021894.7411554,-54.6875,-26.3671875,-28.80859375,-51.7578125,1.0,1.0,1.0,0.0,1.m4v,1.0
2024-02-27 09:18:14.745061,1709021894.745061,-51.26953125,-27.34375,-26.3671875,-22.4609375,1.0,1.0,1.0,0.0,1.m4v,1.0
2024-02-27 09:18:14.748971,1709021894.748971,5.37109375,-10.7421875,-14.16015625,-4.39453125,1.0,1.0,1.0,0.0,1.m4v,1.0
2024-02-27 09:18:14.752876,1709021894.7528763,13.671875,-10.7421875,17.08984375,-22.94921875,1.0,1.0,1.0,0.0,1.m4v,1.0
2024-02-27 09:18:14.756782,1709021894.7567818,-26.3671875,-47.8515625,-5.37109375,-38.57421875,1.0,1.0,1.0,0.0,1.m4v,1.0
2024-02-27 09:18:14.760687,1709021894.7606874,-63.4765625,-38.57421875,-33.203125,-36.62109375,1.0,1.0,1.0,0.0,1.m4v,1.0
2024-02-27 09:18:14.764593,1709021894.764593,-57.12890625,-16.11328125,-25.87890625,-16.11328125,1.0,1.0,1.0,0.0,1.m4v,1.0
2024-02-27 09:18:14.768498,1709021894.7684984,-27.83203125,-34.66796875,-21.484375,-15.13671875,1.0,1.0,1.0,0.0,1.m4v,1.0
2024-02-27 09:18:14.772404,1709021894.772404,-4.39453125,-41.015625,-7.8125,-32.71484375,1.0,1.0,1.0,0.0,1.m4v,1.0
2024-02-27 09:18:14.776309,1709021894.7763095,-21.484375,-45.8984375,-16.6015625,-42.48046875,1.0,1.0,1.0,0.0,1.m4v,1.0
2024-02-27 09:18:14.780215,1709021894.780215,-52.734375,-47.8515625,-45.8984375,-32.71484375,1.0,1.0,1.0,0.0,1.m4v,1.0
2024-02-27 09:18:14.784121,1709021894.7841206,-30.76171875,-23.4375,-41.015625,-2.44140625,1.0,1.0,1.0,0.0,1.m4v,1.0
2024-02-27 09:18:14.788026,1709021894.788026,0.0,-4.8828125,-5.37109375,10.7421875,1.0,1.0,1.0,0.0,1.m4v,1.0
2024-02-27 09:18:14.791931,1709021894.7919314,-2.9296875,-13.671875,0.0,-21.97265625,1.0,1.0,1.0,0.0,1.m4v,1.0
2024-02-27 09:18:14.795845,1709021894.7958453,-39.55078125,-37.109375,-32.2265625,-51.7578125,1.0,1.0,1.0,0.0,1.m4v,1.0
2024-02-27 09:18:14.799751,1709021894.7997508,-80.078125,-40.52734375,-50.29296875,-62.01171875,1.0,1.0,1.0,0.0,1.m4v,1.0
2024-02-27 09:18:14.803656,1709021894.8036563,-70.3125,-13.671875,-26.3671875,-32.2265625,1.0,1.0,1.0,0.0,1.m4v,1.0
2024-02-27 09:18:14.807562,1709021894.807562,-40.0390625,-28.80859375,-17.08984375,-28.80859375,1.0,1.0,1.0,0.0,1.m4v,1.0
2024-02-27 09:18:14.811467,1709021894.8114674,-31.25,-58.10546875,-34.1796875,-40.0390625,1.0,1.0,1.0,0.0,1.m4v,1.0
2024-02-27 09:18:14.815373,1709021894.815373,-5.859375,-37.109375,-25.87890625,-12.6953125,1.0,1.0,1.0,0.0,1.m4v,1.0
2024-02-27 09:18:14.819278,1709021894.8192785,-10.25390625,-28.80859375,-19.04296875,-8.7890625,1.0,1.0,1.0,0.0,1.m4v,1.0
2024-02-27 09:18:14.823184,1709021894.823184,-40.52734375,-15.625,-5.37109375,-18.06640625,1.0,1.0,1.0,0.0,1.m4v,1.0
2024-02-27 09:18:14.827090,1709021894.8270895,-25.87890625,-7.8125,-13.18359375,-25.390625,1.0,1.0,1.0,0.0,1.m4v,1.0
2024-02-27 09:18:14.830995,1709021894.8309948,-29.296875,-31.25,-43.9453125,-44.43359375,1.0,1.0,1.0,0.0,1.m4v,1.0
2024-02-27 09:18:14.834900,1709021894.8349004,-26.85546875,-20.99609375,-57.12890625,-42.96875,1.0,1.0,1.0,0.0,1.m4v,1.0
2024-02-27 09:18:14.838806,1709021894.838806,-18.5546875,-10.25390625,-24.4140625,-40.0390625,1.0,1.0,1.0,0.0,1.m4v,1.0
2024-02-27 09:18:14.842720,1709021894.8427196,-48.828125,-19.53125,-14.6484375,-36.62109375,1.0,1.0,1.0,0.0,1.m4v,1.0
2024-02-27 09:18:14.846625,1709021894.846625,-65.91796875,-26.85546875,-30.76171875,-30.76171875,1.0,1.0,1.0,0.0,1.m4v,1.0
2024-02-27 09:18:14.850531,1709021894.8505306,-47.8515625,-36.1328125,-8.30078125,-35.64453125,1.0,1.0,1.0,0.0,1.m4v,1.0
2024-02-27 09:18:14.854436,1709021894.8544362,-37.59765625,-46.875,-9.27734375,-51.26953125,1.0,1.0,1.0,0.0,1.m4v,1.0
2024-02-27 09:18:14.858342,1709021894.8583417,-37.59765625,-35.15625,-20.01953125,-55.17578125,1.0,1.0,1.0,0.0,1.m4v,1.0
2024-02-27 09:18:14.862247,1709021894.8622472,-46.875,-19.53125,-7.32421875,-30.2734375,1.0,1.0,1.0,0.0,1.m4v,1.0
2024-02-27 09:18:14.866153,1709021894.8661528,-51.26953125,-21.97265625,-33.203125,-24.90234375,1.0,1.0,1.0,0.0,1.m4v,1.0
2024-02-27 09:18:14.870058,1709021894.8700583,-38.57421875,-37.59765625,-64.94140625,-36.1328125,1.0,1.0,1.0,0.0,1.m4v,1.0
2024-02-27 09:18:14.873964,1709021894.8739638,-19.53125,-43.45703125,-48.828125,-22.4609375,1.0,1.0,1.0,0.0,1.m4v,1.0
2024-02-27 09:18:14.877869,1709021894.8778691,-26.85546875,-25.390625,-28.3203125,-18.5546875,1.0,1.0,1.0,0.0,1.m4v,1.0
2024-02-27 09:18:14.881775,1709021894.881775,-59.08203125,-16.6015625,-26.85546875,-28.3203125,1.0,1.0,1.0,0.0,1.m4v,1.0
2024-02-27 09:18:14.885680,1709021894.8856802,-61.5234375,-23.92578125,-18.06640625,-15.625,1.0,1.0,1.0,0.0,1.m4v,1.0
2024-02-27 09:18:14.889593,1709021894.8895934,-30.76171875,-42.96875,13.671875,-8.7890625,1.0,1.0,1.0,0.0,1.m4v,1.0
2024-02-27 09:18:14.893499,1709021894.893499,-27.34375,-71.77734375,0.9765625,-23.92578125,1.0,1.0,1.0,0.0,1.m4v,1.0
2024-02-27 09:18:14.897404,1709021894.8974044,-32.2265625,-55.17578125,-41.50390625,-30.2734375,1.0,1.0,1.0,0.0,1.m4v,1.0
2024-02-27 09:18:14.901310,1709021894.90131,-61.03515625,-12.6953125,-49.31640625,-52.734375,1.0,1.0,1.0,0.0,1.m4v,1.0
2024-02-27 09:18:14.905216,1709021894.9052155,-67.3828125,1.953125,-28.3203125,-50.78125,1.0,1.0,1.0,0.0,1.m4v,1.0
2024-02-27 09:18:14.909121,1709021894.9091208,-27.83203125,-4.8828125,-23.92578125,-37.109375,1.0,1.0,1.0,0.0,1.m4v,1.0
2024-02-27 09:18:14.913026,1709021894.9130263,-20.01953125,-16.6015625,-38.0859375,-51.26953125,1.0,1.0,1.0,0.0,1.m4v,1.0
2024-02-27 09:18:14.916932,1709021894.916932,-19.04296875,-23.4375,-45.41015625,-31.25,1.0,1.0,1.0,0.0,1.m4v,1.0
2024-02-27 09:18:14.920837,1709021894.9208374,-33.203125,-23.4375,-36.62109375,-15.13671875,1.0,1.0,1.0,0.0,1.m4v,1.0
2024-02-27 09:18:14.924743,1709021894.924743,-39.0625,-16.6015625,-22.4609375,-37.59765625,1.0,1.0,1.0,0.0,1.m4v,1.0
2024-02-27 09:18:14.928648,1709021894.9286485,-21.97265625,-21.97265625,-19.04296875,-33.69140625,1.0,1.0,1.0,0.0,1.m4v,1.0
2024-02-27 09:18:14.932554,1709021894.932554,-24.4140625,-41.50390625,-41.015625,-31.25,1.0,1.0,1.0,0.0,1.m4v,1.0
2024-02-27 09:18:14.936467,1709021894.9364667,-47.36328125,-46.875,-49.31640625,-44.43359375,1.0,1.0,1.0,0.0,1.m4v,1.0
2024-02-27 09:18:14.940372,1709021894.9403722,-50.29296875,-26.3671875,-44.921875,-22.4609375,1.0,1.0,1.0,0.0,1.m4v,1.0
2024-02-27 09:18:14.944278,1709021894.9442775,-13.671875,-0.9765625,-50.78125,0.48828125,1.0,1.0,1.0,0.0,1.m4v,1.0
2024-02-27 09:18:14.948183,1709021894.948183,-5.859375,-7.32421875,-42.96875,-19.53125,1.0,1.0,1.0,0.0,1.m4v,1.0
2024-02-27 09:18:14.952089,1709021894.9520886,0.48828125,-29.296875,-21.97265625,-22.94921875,1.0,1.0,1.0,0.0,1.m4v,1.0
2024-02-27 09:18:14.955994,1709021894.955994,11.71875,-21.97265625,-3.90625,-20.01953125,1.0,1.0,1.0,0.0,1.m4v,1.0
2024-02-27 09:18:15.405211,1709021895.4052114,-23.4375,-25.87890625,-0.9765625,-6.34765625,1.0,1.0,1.0,0.0,1.m4v,1.0
2024-02-27 09:18:15.409117,1709021895.409117,15.13671875,-4.39453125,-11.23046875,-0.48828125,1.0,1.0,1.0,0.0,1.m4v,1.0
2024-02-27 09:18:15.413023,1709021895.4130225,20.01953125,-19.53125,-33.69140625,-3.90625,1.0,1.0,1.0,0.0,1.m4v,1.0
2024-02-27 09:18:15.416928,1709021895.416928,-18.5546875,-47.36328125,-12.6953125,-44.43359375,1.0,1.0,1.0,0.0,1.m4v,1.0
2024-02-27 09:18:15.420834,1709021895.4208336,-62.01171875,-62.5,-22.4609375,-73.73046875,1.0,1.0,1.0,0.0,1.m4v,1.0
2024-02-27 09:18:15.424739,1709021895.4247391,-53.22265625,-41.9921875,-48.828125,-26.3671875,1.0,1.0,1.0,0.0,1.m4v,1.0
2024-02-27 09:18:15.428645,1709021895.428645,-6.34765625,-21.97265625,-30.2734375,-24.4140625,1.0,1.0,1.0,0.0,1.m4v,1.0
2024-02-27 09:18:15.432550,1709021895.4325502,9.765625,-18.06640625,-11.71875,-40.52734375,1.0,1.0,1.0,0.0,1.m4v,1.0
2024-02-27 09:18:15.436456,1709021895.4364555,-9.765625,-16.11328125,-32.71484375,-24.4140625,1.0,1.0,1.0,0.0,1.m4v,1.0
2024-02-27 09:18:15.440361,1709021895.440361,-6.8359375,-20.01953125,-29.78515625,-21.484375,1.0,1.0,1.0,0.0,1.m4v,1.0
2024-02-27 09:18:15.444267,1709021895.4442666,-34.66796875,-34.1796875,-31.25,-37.59765625,1.0,1.0,1.0,0.0,1.m4v,1.0
2024-02-27 09:18:15.448172,1709021895.448172,-31.25,-34.66796875,-30.2734375,-40.0390625,1.0,1.0,1.0,0.0,1.m4v,1.0
2024-02-27 09:18:15.452083,1709021895.452083,-14.16015625,-35.64453125,-25.87890625,-42.48046875,1.0,1.0,1.0,0.0,1.m4v,1.0
2024-02-27 09:18:15.455989,1709021895.4559886,-11.71875,-41.9921875,-32.71484375,-35.15625,1.0,1.0,1.0,0.0,1.m4v,1.0
2024-02-27 09:18:15.459894,1709021895.459894,-7.8125,-20.5078125,-11.23046875,-20.01953125,1.0,1.0,1.0,0.0,1.m4v,1.0
2024-02-27 09:18:15.463799,1709021895.4637997,-27.34375,-10.7421875,-5.859375,-25.390625,1.0,1.0,1.0,0.0,1.m4v,1.0
2024-02-27 09:18:15.467705,1709021895.467705,-7.32421875,-24.90234375,-18.5546875,-0.9765625,1.0,1.0,1.0,0.0,1.m4v,1.0
2024-02-27 09:18:15.471611,1709021895.4716103,61.5234375,-11.23046875,-8.30078125,26.3671875,1.0,1.0,1.0,0.0,1.m4v,1.0
2024-02-27 09:18:15.475516,1709021895.475516,51.26953125,-20.5078125,-24.90234375,1.953125,1.0,1.0,1.0,0.0,1.m4v,1.0
2024-02-27 09:18:15.479422,1709021895.4794216,-31.25,-50.78125,-57.12890625,-15.13671875,1.0,1.0,1.0,0.0,1.m4v,1.0
2024-02-27 09:18:15.483327,1709021895.4833272,-52.734375,-34.66796875,-39.0625,-35.15625,1.0,1.0,1.0,0.0,1.m4v,1.0
2024-02-27 09:18:15.487233,1709021895.4872327,-32.2265625,-24.90234375,-18.06640625,-51.7578125,1.0,1.0,1.0,0.0,1.m4v,1.0
2024-02-27 09:18:15.491138,1709021895.4911382,-21.97265625,-39.0625,-14.16015625,-39.0625,1.0,1.0,1.0,0.0,1.m4v,1.0
2024-02-27 09:18:15.495044,1709021895.4950438,-12.20703125,-40.52734375,-27.83203125,-36.1328125,1.0,1.0,1.0,0.0,1.m4v,1.0
2024-02-27 09:18:15.498959,1709021895.4989586,-0.9765625,-35.64453125,-19.04296875,-29.78515625,1.0,1.0,1.0,0.0,1.m4v,1.0
2024-02-27 09:18:15.502864,1709021895.502864,-2.44140625,-28.3203125,-12.6953125,-16.6015625,1.0,1.0,1.0,0.0,1.m4v,1.0
2024-02-27 09:18:15.506769,1709021895.5067694,11.23046875,-14.6484375,-2.9296875,13.18359375,1.0,1.0,1.0,0.0,1.m4v,1.0
2024-02-27 09:18:15.510675,1709021895.510675,41.015625,-16.6015625,10.25390625,15.13671875,1.0,1.0,1.0,0.0,1.m4v,1.0
2024-02-27 09:18:15.514580,1709021895.5145805,18.06640625,-34.1796875,-30.2734375,-31.25,1.0,1.0,1.0,0.0,1.m4v,1.0
2024-02-27 09:18:15.518486,1709021895.518486,-9.765625,-30.2734375,-68.359375,-36.62109375,1.0,1.0,1.0,0.0,1.m4v,1.0
2024-02-27 09:18:15.522392,1709021895.5223916,-10.25390625,-12.6953125,-39.0625,-22.4609375,1.0,1.0,1.0,0.0,1.m4v,1.0
2024-02-27 09:18:15.526297,1709021895.526297,-39.55078125,-22.94921875,-19.53125,-32.2265625,1.0,1.0,1.0,0.0,1.m4v,1.0
2024-02-27 09:18:15.530203,1709021895.5302026,-38.0859375,-35.64453125,-26.85546875,-30.76171875,1.0,1.0,1.0,0.0,1.m4v,1.0
2024-02-27 09:18:15.534108,1709021895.5341082,-5.37109375,-39.55078125,-19.53125,-39.0625,1.0,1.0,1.0,0.0,1.m4v,1.0
2024-02-27 09:18:15.538014,1709021895.5380137,-12.6953125,-28.80859375,-16.11328125,-44.43359375,1.0,1.0,1.0,0.0,1.m4v,1.0
2024-02-27 09:18:15.541919,1709021895.5419192,-30.2734375,-18.5546875,-14.6484375,-30.76171875,1.0,1.0,1.0,0.0,1.m4v,1.0
2024-02-27 09:18:15.545833,1709021895.545833,-12.6953125,-16.6015625,-13.18359375,-3.90625,1.0,1.0,1.0,0.0,1.m4v,1.0
2024-02-27 09:18:15.549739,1709021895.549739,8.30078125,-26.3671875,-32.2265625,-1.953125,1.0,1.0,1.0,0.0,1.m4v,1.0
2024-02-27 09:18:15.553644,1709021895.5536444,4.39453125,-37.109375,-46.38671875,-32.2265625,1.0,1.0,1.0,0.0,1.m4v,1.0
2024-02-27 09:18:15.557550,1709021895.55755,-2.9296875,-36.62109375,-35.15625,-40.52734375,1.0,1.0,1.0,0.0,1.m4v,1.0
2024-02-27 09:18:15.561455,1709021895.5614555,-37.59765625,-36.62109375,-27.83203125,-51.7578125,1.0,1.0,1.0,0.0,1.m4v,1.0
2024-02-27 09:18:15.565361,1709021895.565361,-49.8046875,-31.73828125,-14.6484375,-41.015625,1.0,1.0,1.0,0.0,1.m4v,1.0
2024-02-27 09:18:15.569267,1709021895.5692666,11.23046875,-26.85546875,-5.37109375,-11.23046875,1.0,1.0,1.0,0.0,1.m4v,1.0
2024-02-27 09:18:15.573172,1709021895.573172,8.7890625,-37.59765625,-16.11328125,-29.78515625,1.0,1.0,1.0,0.0,1.m4v,1.0
2024-02-27 09:18:15.577078,1709021895.5770776,-34.1796875,-32.2265625,-26.3671875,-62.98828125,1.0,1.0,1.0,0.0,1.m4v,1.0
2024-02-27 09:18:15.580983,1709021895.5809832,-32.2265625,-12.6953125,-42.96875,-44.921875,1.0,1.0,1.0,0.0,1.m4v,1.0
2024-02-27 09:18:15.584888,1709021895.5848885,-20.99609375,-11.23046875,-30.76171875,-26.85546875,1.0,1.0,1.0,0.0,1.m4v,1.0
2024-02-27 09:18:15.588794,1709021895.588794,-13.18359375,-29.296875,-16.11328125,-29.296875,1.0,1.0,1.0,0.0,1.m4v,1.0
2024-02-27 09:18:15.592708,1709021895.592708,-12.20703125,-42.96875,-17.578125,-25.390625,1.0,1.0,1.0,0.0,1.m4v,1.0
2024-02-27 09:18:15.596613,1709021895.5966134,-18.06640625,-46.38671875,-21.484375,-51.26953125,1.0,1.0,1.0,0.0,1.m4v,1.0
2024-02-27 09:18:15.600519,1709021895.600519,-22.94921875,-41.015625,-31.73828125,-52.734375,1.0,1.0,1.0,0.0,1.m4v,1.0
2024-02-27 09:18:15.604424,1709021895.6044245,-28.3203125,-20.5078125,-28.80859375,-8.30078125,1.0,1.0,1.0,0.0,1.m4v,1.0
2024-02-27 09:18:15.608330,1709021895.6083298,-15.625,-9.27734375,-15.625,-8.30078125,1.0,1.0,1.0,0.0,1.m4v,1.0
2024-02-27 09:18:15.612235,1709021895.6122353,-15.13671875,-17.578125,-18.5546875,-53.22265625,1.0,1.0,1.0,0.0,1.m4v,1.0
2024-02-27 09:18:15.616141,1709021895.6161408,-19.04296875,-22.4609375,-26.85546875,-57.12890625,1.0,1.0,1.0,0.0,1.m4v,1.0
2024-02-27 09:18:15.620046,1709021895.6200464,-34.66796875,-20.5078125,-30.76171875,-44.43359375,1.0,1.0,1.0,0.0,1.m4v,1.0
2024-02-27 09:18:15.623952,1709021895.623952,-41.015625,-20.99609375,-20.99609375,-22.4609375,1.0,1.0,1.0,0.0,1.m4v,1.0
2024-02-27 09:18:15.627857,1709021895.6278574,-26.85546875,-31.25,-25.87890625,-14.6484375,1.0,1.0,1.0,0.0,1.m4v,1.0
2024-02-27 09:18:15.631763,1709021895.631763,-22.94921875,-33.203125,-32.2265625,-37.109375,1.0,1.0,1.0,0.0,1.m4v,1.0
2024-02-27 09:18:15.635669,1709021895.6356685,-20.01953125,-30.2734375,-28.3203125,-37.109375,1.0,1.0,1.0,0.0,1.m4v,1.0
2024-02-27 09:18:15.639582,1709021895.6395817,-14.16015625,-35.15625,-22.4609375,-6.8359375,1.0,1.0,1.0,0.0,1.m4v,1.0
2024-02-27 09:18:15.643487,1709021895.6434872,-42.96875,-39.0625,-25.390625,-16.6015625,1.0,1.0,1.0,0.0,1.m4v,1.0
2024-02-27 09:18:15.647393,1709021895.6473927,-42.48046875,-20.5078125,-28.3203125,-35.15625,1.0,1.0,1.0,0.0,1.m4v,1.0
2024-02-27 09:18:15.651298,1709021895.6512983,-27.83203125,-26.85546875,-3.90625,-30.2734375,1.0,1.0,1.0,0.0,1.m4v,1.0
2024-02-27 09:18:15.655204,1709021895.6552038,-50.29296875,-53.7109375,-18.06640625,-61.03515625,1.0,1.0,1.0,0.0,1.m4v,1.0
2024-02-27 09:18:15.659109,1709021895.659109,-48.33984375,-34.66796875,-30.2734375,-62.5,1.0,1.0,1.0,0.0,1.m4v,1.0
2024-02-27 09:18:15.663015,1709021895.663015,-45.41015625,-4.8828125,-6.34765625,-20.5078125,1.0,1.0,1.0,0.0,1.m4v,1.0
2024-02-27 09:18:15.666920,1709021895.6669202,-42.96875,-5.37109375,-29.296875,2.9296875,1.0,1.0,1.0,0.0,1.m4v,1.0
2024-02-27 09:18:15.670826,1709021895.6708255,-16.11328125,-14.16015625,-46.38671875,0.9765625,1.0,1.0,1.0,0.0,1.m4v,1.0
2024-02-27 09:18:15.674731,1709021895.6747313,-16.11328125,-33.203125,-36.62109375,-19.04296875,1.0,1.0,1.0,0.0,1.m4v,1.0
2024-02-27 09:18:15.678637,1709021895.6786368,-61.5234375,-46.38671875,-47.8515625,-47.8515625,1.0,1.0,1.0,0.0,1.m4v,1.0
2024-02-27 09:18:15.682542,1709021895.6825423,-86.42578125,-35.64453125,-26.3671875,-41.9921875,1.0,1.0,1.0,0.0,1.m4v,1.0
2024-02-27 09:18:15.686455,1709021895.6864548,-79.58984375,-36.1328125,-14.16015625,-21.97265625,1.0,1.0,1.0,0.0,1.m4v,1.0
2024-02-27 09:18:15.690360,1709021895.6903603,-51.7578125,-33.203125,-30.2734375,-32.2265625,1.0,1.0,1.0,0.0,1.m4v,1.0
2024-02-27 09:18:15.694266,1709021895.6942658,-21.484375,-30.76171875,-20.01953125,-30.76171875,1.0,1.0,1.0,0.0,1.m4v,1.0
2024-02-27 09:18:15.698171,1709021895.6981714,-20.01953125,-32.2265625,0.0,-23.92578125,1.0,1.0,1.0,0.0,1.m4v,1.0
2024-02-27 09:18:15.702077,1709021895.702077,-70.80078125,-27.34375,-18.5546875,-39.0625,1.0,1.0,1.0,0.0,1.m4v,1.0
2024-02-27 09:18:15.705982,1709021895.7059824,-83.984375,-20.01953125,-46.38671875,-49.8046875,1.0,1.0,1.0,0.0,1.m4v,1.0
2024-02-27 09:18:15.709888,1709021895.709888,-42.96875,0.48828125,-48.828125,-29.78515625,1.0,1.0,1.0,0.0,1.m4v,1.0
2024-02-27 09:18:15.713794,1709021895.7137935,-22.94921875,-3.90625,-32.71484375,-19.04296875,1.0,1.0,1.0,0.0,1.m4v,1.0
2024-02-27 09:18:15.717699,1709021895.717699,-41.015625,-30.2734375,-21.97265625,-41.015625,1.0,1.0,1.0,0.0,1.m4v,1.0
2024-02-27 09:18:15.721605,1709021895.7216046,-79.58984375,-40.52734375,-35.64453125,-57.12890625,1.0,1.0,1.0,0.0,1.m4v,1.0
2024-02-27 09:18:15.725510,1709021895.72551,-77.1484375,-33.203125,-56.15234375,-32.71484375,1.0,1.0,1.0,0.0,1.m4v,1.0
2024-02-27 09:18:15.729415,1709021895.7294154,-56.15234375,-23.4375,-41.015625,-10.7421875,1.0,1.0,1.0,0.0,1.m4v,1.0
2024-02-27 09:18:15.733328,1709021895.7333276,-38.57421875,-24.90234375,-17.578125,-32.2265625,1.0,1.0,1.0,0.0,1.m4v,1.0
2024-02-27 09:18:15.737233,1709021895.7372332,-20.01953125,-21.97265625,-19.53125,-26.85546875,1.0,1.0,1.0,0.0,1.m4v,1.0
2024-02-27 09:18:15.741139,1709021895.7411387,-53.22265625,-31.25,-28.3203125,-33.69140625,1.0,1.0,1.0,0.0,1.m4v,1.0
2024-02-27 09:18:15.745044,1709021895.745044,-72.265625,-45.41015625,-10.7421875,-42.96875,1.0,1.0,1.0,0.0,1.m4v,1.0
2024-02-27 09:18:15.748950,1709021895.7489495,-33.69140625,-43.45703125,1.953125,-33.203125,1.0,1.0,1.0,0.0,1.m4v,1.0
2024-02-27 09:18:15.752855,1709021895.752855,-21.484375,-26.3671875,-11.71875,-31.73828125,1.0,1.0,1.0,0.0,1.m4v,1.0
2024-02-27 09:18:15.756761,1709021895.7567606,-37.109375,-28.3203125,-31.73828125,-37.109375,1.0,1.0,1.0,0.0,1.m4v,1.0
2024-02-27 09:18:15.760666,1709021895.760666,-63.96484375,-24.90234375,-40.52734375,-43.9453125,1.0,1.0,1.0,0.0,1.m4v,1.0
2024-02-27 09:18:15.764572,1709021895.7645717,-76.66015625,-16.6015625,-38.57421875,-40.0390625,1.0,1.0,1.0,0.0,1.m4v,1.0
2024-02-27 09:18:15.768477,1709021895.7684772,-45.8984375,-15.13671875,-49.31640625,-30.2734375,1.0,1.0,1.0,0.0,1.m4v,1.0
2024-02-27 09:18:15.772383,1709021895.7723827,-8.30078125,-17.578125,-41.9921875,-16.6015625,1.0,1.0,1.0,0.0,1.m4v,1.0
2024-02-27 09:18:15.776288,1709021895.7762885,4.8828125,-21.97265625,-24.90234375,0.9765625,1.0,1.0,1.0,0.0,1.m4v,1.0
2024-02-27 09:18:15.780199,1709021895.780199,-21.484375,-19.53125,-33.69140625,-31.73828125,1.0,1.0,1.0,0.0,1.m4v,1.0
2024-02-27 09:18:15.784105,1709021895.7841046,-36.62109375,-20.5078125,-28.3203125,-51.7578125,1.0,1.0,1.0,0.0,1.m4v,1.0
2024-02-27 09:18:15.788010,1709021895.78801,-7.8125,-19.53125,-2.9296875,-12.6953125,1.0,1.0,1.0,0.0,1.m4v,1.0
2024-02-27 09:18:15.791916,1709021895.7919157,3.90625,-39.0625,-5.37109375,-8.7890625,1.0,1.0,1.0,0.0,1.m4v,1.0
2024-02-27 09:18:15.795821,1709021895.7958212,-7.32421875,-46.38671875,-12.6953125,-39.0625,1.0,1.0,1.0,0.0,1.m4v,1.0
2024-02-27 09:18:15.799727,1709021895.7997267,-22.94921875,-27.34375,-17.578125,-41.50390625,1.0,1.0,1.0,0.0,1.m4v,1.0
2024-02-27 09:18:15.803632,1709021895.8036325,-48.33984375,-30.76171875,-31.25,-23.92578125,1.0,1.0,1.0,0.0,1.m4v,1.0
2024-02-27 09:18:15.807538,1709021895.8075376,-44.43359375,-30.2734375,-44.921875,-31.73828125,1.0,1.0,1.0,0.0,1.m4v,1.0
2024-02-27 09:18:15.811443,1709021895.811443,-17.08984375,-16.11328125,-35.64453125,-55.17578125,1.0,1.0,1.0,0.0,1.m4v,1.0
2024-02-27 09:18:15.815349,1709021895.8153486,-0.9765625,-16.11328125,-23.92578125,-40.0390625,1.0,1.0,1.0,0.0,1.m4v,1.0
2024-02-27 09:18:15.819254,1709021895.8192542,-2.44140625,-12.6953125,-15.625,-11.23046875,1.0,1.0,1.0,0.0,1.m4v,1.0
2024-02-27 09:18:15.823160,1709021895.8231597,-3.41796875,-5.37109375,-2.9296875,12.6953125,1.0,1.0,1.0,0.0,1.m4v,1.0
2024-02-27 09:18:15.827070,1709021895.8270705,-1.953125,-18.06640625,-19.04296875,6.8359375,1.0,1.0,1.0,0.0,1.m4v,1.0
2024-02-27 09:18:15.830976,1709021895.830976,-12.20703125,-34.66796875,-44.921875,-39.0625,1.0,1.0,1.0,0.0,1.m4v,1.0
2024-02-27 09:18:15.834882,1709021895.8348815,-18.06640625,-45.8984375,-49.8046875,-61.03515625,1.0,1.0,1.0,0.0,1.m4v,1.0
2024-02-27 09:18:15.838787,1709021895.838787,-21.484375,-40.52734375,-34.1796875,-45.8984375,1.0,1.0,1.0,0.0,1.m4v,1.0
2024-02-27 09:18:15.842693,1709021895.8426926,-52.734375,-40.52734375,-37.109375,-44.921875,1.0,1.0,1.0,0.0,1.m4v,1.0
2024-02-27 09:18:15.846598,1709021895.846598,-72.265625,-43.45703125,-42.96875,-49.8046875,1.0,1.0,1.0,0.0,1.m4v,1.0
2024-02-27 09:18:15.850504,1709021895.8505037,-24.4140625,-15.13671875,-17.578125,-41.9921875,1.0,1.0,1.0,0.0,1.m4v,1.0
2024-02-27 09:18:15.854409,1709021895.854409,18.5546875,5.859375,8.7890625,-36.1328125,1.0,1.0,1.0,0.0,1.m4v,1.0
2024-02-27 09:18:15.858315,1709021895.8583145,-12.20703125,-20.5078125,1.953125,-24.90234375,1.0,1.0,1.0,0.0,1.m4v,1.0
2024-02-27 09:18:15.862220,1709021895.86222,-43.45703125,-24.4140625,-17.08984375,-18.06640625,1.0,1.0,1.0,0.0,1.m4v,1.0
2024-02-27 09:18:15.866126,1709021895.8661256,-51.7578125,-29.296875,-45.8984375,-31.25,1.0,1.0,1.0,0.0,1.m4v,1.0
2024-02-27 09:18:15.870031,1709021895.870031,-37.59765625,-51.7578125,-69.3359375,-34.1796875,1.0,1.0,1.0,0.0,1.m4v,1.0
2024-02-27 09:18:15.873941,1709021895.8739412,2.9296875,-44.43359375,-38.57421875,-42.48046875,1.0,1.0,1.0,0.0,1.m4v,1.0
2024-02-27 09:18:15.877847,1709021895.8778467,-16.11328125,-46.38671875,-34.1796875,-51.26953125,1.0,1.0,1.0,0.0,1.m4v,1.0
2024-02-27 09:18:15.881752,1709021895.8817525,-49.31640625,-49.8046875,-40.0390625,-41.015625,1.0,1.0,1.0,0.0,1.m4v,1.0
2024-02-27 09:18:15.885658,1709021895.8856578,-45.41015625,-55.6640625,-18.5546875,-42.96875,1.0,1.0,1.0,0.0,1.m4v,1.0
2024-02-27 09:18:15.889563,1709021895.889563,-27.83203125,-44.43359375,-31.73828125,-46.875,1.0,1.0,1.0,0.0,1.m4v,1.0
2024-02-27 09:18:15.893469,1709021895.8934689,-0.9765625,-22.94921875,-46.875,-30.76171875,1.0,1.0,1.0,0.0,1.m4v,1.0
2024-02-27 09:18:15.897374,1709021895.8973744,4.8828125,-13.18359375,-13.18359375,-16.6015625,1.0,1.0,1.0,0.0,1.m4v,1.0
2024-02-27 09:18:15.901280,1709021895.90128,-32.71484375,-0.9765625,-7.32421875,-25.87890625,1.0,1.0,1.0,0.0,1.m4v,1.0
2024-02-27 09:18:15.905185,1709021895.9051857,-47.8515625,4.39453125,-19.53125,-40.0390625,1.0,1.0,1.0,0.0,1.m4v,1.0
2024-02-27 09:18:15.909091,1709021895.909091,-25.390625,-8.7890625,-21.97265625,-38.0859375,1.0,1.0,1.0,0.0,1.m4v,1.0
2024-02-27 09:18:15.912997,1709021895.9129963,-26.3671875,-44.43359375,-44.921875,-41.9921875,1.0,1.0,1.0,0.0,1.m4v,1.0
2024-02-27 09:18:15.916902,1709021895.9169018,-24.90234375,-64.94140625,-53.22265625,-53.7109375,1.0,1.0,1.0,0.0,1.m4v,1.0
2024-02-27 09:18:15.920816,1709021895.9208162,-1.953125,-46.38671875,-11.23046875,-27.83203125,1.0,1.0,1.0,0.0,1.m4v,1.0
2024-02-27 09:18:15.924722,1709021895.9247217,-11.23046875,-33.69140625,-15.625,-19.04296875,1.0,1.0,1.0,0.0,1.m4v,1.0
2024-02-27 09:18:15.928627,1709021895.9286273,-42.96875,-50.78125,-42.48046875,-46.875,1.0,1.0,1.0,0.0,1.m4v,1.0
2024-02-27 09:18:15.932533,1709021895.9325328,-29.296875,-50.78125,-29.78515625,-41.9921875,1.0,1.0,1.0,0.0,1.m4v,1.0
2024-02-27 09:18:15.936438,1709021895.9364383,7.8125,-22.94921875,-0.48828125,-12.20703125,1.0,1.0,1.0,0.0,1.m4v,1.0
2024-02-27 09:18:15.940344,1709021895.940344,-8.30078125,-18.06640625,-21.484375,-21.97265625,1.0,1.0,1.0,0.0,1.m4v,1.0
2024-02-27 09:18:15.944249,1709021895.9442494,-30.76171875,-9.765625,-38.57421875,-34.1796875,1.0,1.0,1.0,0.0,1.m4v,1.0
2024-02-27 09:18:15.948155,1709021895.948155,-22.94921875,-4.39453125,-26.3671875,-30.2734375,1.0,1.0,1.0,0.0,1.m4v,1.0
2024-02-27 09:18:15.952060,1709021895.9520602,-5.37109375,-6.8359375,-16.11328125,-25.390625,1.0,1.0,1.0,0.0,1.m4v,1.0
2024-02-27 09:18:15.955966,1709021895.9559658,0.48828125,-8.7890625,-32.71484375,-32.2265625,1.0,1.0,1.0,0.0,1.m4v,1.0
2024-02-27 09:18:15.959871,1709021895.9598713,-29.296875,-29.296875,-44.921875,-33.203125,1.0,1.0,1.0,0.0,1.m4v,1.0
2024-02-27 09:18:15.963777,1709021895.9637768,-40.52734375,-29.296875,-17.08984375,-22.4609375,1.0,1.0,1.0,0.0,1.m4v,1.0
2024-02-27 09:18:15.967691,1709021895.9676907,-35.15625,-29.78515625,-13.671875,-48.828125,1.0,1.0,1.0,0.0,1.m4v,1.0
2024-02-27 09:18:15.971596,1709021895.971596,-30.2734375,-39.0625,-14.6484375,-50.29296875,1.0,1.0,1.0,0.0,1.m4v,1.0
2024-02-27 09:18:15.975502,1709021895.9755015,-25.87890625,-37.109375,-15.13671875,-26.85546875,1.0,1.0,1.0,0.0,1.m4v,1.0
2024-02-27 09:18:15.979407,1709021895.979407,-30.2734375,-20.99609375,-19.04296875,-29.296875,1.0,1.0,1.0,0.0,1.m4v,1.0
2024-02-27 09:18:15.983313,1709021895.9833126,-50.29296875,-32.71484375,-23.92578125,-40.0390625,1.0,1.0,1.0,0.0,1.m4v,1.0
2024-02-27 09:18:15.987218,1709021895.987218,-38.57421875,-29.78515625,-23.92578125,-29.78515625,1.0,1.0,1.0,0.0,1.m4v,1.0
2024-02-27 09:18:16.436426,1709021896.4364262,-25.87890625,-23.4375,-39.55078125,-34.1796875,1.0,1.0,1.0,0.0,1.m4v,1.0
2024-02-27 09:18:16.440331,1709021896.4403317,-49.8046875,-13.18359375,-40.52734375,-33.203125,1.0,1.0,1.0,0.0,1.m4v,1.0
2024-02-27 09:18:16.444237,1709021896.444237,-68.359375,-37.59765625,-42.48046875,-37.59765625,1.0,1.0,1.0,0.0,1.m4v,1.0
2024-02-27 09:18:16.448143,1709021896.4481423,-47.36328125,-49.31640625,-44.43359375,-26.85546875,1.0,1.0,1.0,0.0,1.m4v,1.0
2024-02-27 09:18:16.452048,1709021896.452048,-21.484375,-26.3671875,-45.8984375,-31.73828125,1.0,1.0,1.0,0.0,1.m4v,1.0
2024-02-27 09:18:16.455954,1709021896.4559536,-10.25390625,-12.20703125,-29.78515625,-41.50390625,1.0,1.0,1.0,0.0,1.m4v,1.0
2024-02-27 09:18:16.459859,1709021896.4598591,-11.71875,-29.78515625,-18.5546875,-18.5546875,1.0,1.0,1.0,0.0,1.m4v,1.0
2024-02-27 09:18:16.463765,1709021896.463765,-23.92578125,-47.36328125,-11.71875,8.30078125,1.0,1.0,1.0,0.0,1.m4v,1.0
2024-02-27 09:18:16.467670,1709021896.4676702,9.27734375,-11.23046875,2.9296875,7.8125,1.0,1.0,1.0,0.0,1.m4v,1.0
2024-02-27 09:18:16.471576,1709021896.4715755,-1.46484375,-2.9296875,-20.5078125,-11.23046875,1.0,1.0,1.0,0.0,1.m4v,1.0
2024-02-27 09:18:16.475481,1709021896.4754813,-45.8984375,-24.4140625,-43.45703125,-34.1796875,1.0,1.0,1.0,0.0,1.m4v,1.0
2024-02-27 09:18:16.479387,1709021896.4793868,-59.5703125,-24.90234375,-26.3671875,-49.8046875,1.0,1.0,1.0,0.0,1.m4v,1.0
2024-02-27 09:18:16.483303,1709021896.4833033,-70.80078125,-27.83203125,-27.34375,-56.15234375,1.0,1.0,1.0,0.0,1.m4v,1.0
2024-02-27 09:18:16.487209,1709021896.4872088,-50.78125,-24.4140625,-48.828125,-41.9921875,1.0,1.0,1.0,0.0,1.m4v,1.0
2024-02-27 09:18:16.491114,1709021896.491114,-17.578125,-12.6953125,-47.36328125,-20.01953125,1.0,1.0,1.0,0.0,1.m4v,1.0
2024-02-27 09:18:16.495020,1709021896.4950197,17.08984375,-18.06640625,-21.484375,-9.765625,1.0,1.0,1.0,0.0,1.m4v,1.0
2024-02-27 09:18:16.498925,1709021896.4989252,12.6953125,-32.71484375,-0.48828125,-24.90234375,1.0,1.0,1.0,0.0,1.m4v,1.0
2024-02-27 09:18:16.502831,1709021896.5028307,-7.32421875,-25.87890625,-19.53125,-10.25390625,1.0,1.0,1.0,0.0,1.m4v,1.0
2024-02-27 09:18:16.506736,1709021896.5067365,-14.6484375,-25.87890625,-42.48046875,-20.99609375,1.0,1.0,1.0,0.0,1.m4v,1.0
2024-02-27 09:18:16.510642,1709021896.5106418,-29.296875,-45.41015625,-22.94921875,-58.59375,1.0,1.0,1.0,0.0,1.m4v,1.0
2024-02-27 09:18:16.514547,1709021896.514547,-46.875,-58.10546875,-0.48828125,-70.3125,1.0,1.0,1.0,0.0,1.m4v,1.0
2024-02-27 09:18:16.518453,1709021896.518453,-43.45703125,-32.71484375,-17.08984375,-66.89453125,1.0,1.0,1.0,0.0,1.m4v,1.0
2024-02-27 09:18:16.522358,1709021896.5223584,-44.43359375,-7.32421875,-35.15625,-45.8984375,1.0,1.0,1.0,0.0,1.m4v,1.0
2024-02-27 09:18:16.526264,1709021896.526264,-43.9453125,-25.390625,-31.73828125,-35.15625,1.0,1.0,1.0,0.0,1.m4v,1.0
2024-02-27 09:18:16.530176,1709021896.5301757,-30.76171875,-48.828125,-50.29296875,-44.921875,1.0,1.0,1.0,0.0,1.m4v,1.0
2024-02-27 09:18:16.534081,1709021896.534081,-4.39453125,-31.73828125,-48.828125,-36.1328125,1.0,1.0,1.0,0.0,1.m4v,1.0
2024-02-27 09:18:16.537987,1709021896.5379865,14.6484375,-5.859375,-14.6484375,-20.01953125,1.0,1.0,1.0,0.0,1.m4v,1.0
2024-02-27 09:18:16.541892,1709021896.541892,0.0,-11.23046875,-3.90625,12.6953125,1.0,1.0,1.0,0.0,1.m4v,1.0
2024-02-27 09:18:16.545798,1709021896.5457976,-22.4609375,-35.64453125,-27.34375,-1.46484375,1.0,1.0,1.0,0.0,1.m4v,1.0
2024-02-27 09:18:16.549703,1709021896.5497031,-21.484375,-35.64453125,-44.921875,-48.33984375,1.0,1.0,1.0,0.0,1.m4v,1.0
2024-02-27 09:18:16.553609,1709021896.553609,2.9296875,-25.87890625,-33.203125,-39.0625,1.0,1.0,1.0,0.0,1.m4v,1.0
2024-02-27 09:18:16.557514,1709021896.5575142,14.6484375,-27.83203125,-17.08984375,-18.06640625,1.0,1.0,1.0,0.0,1.m4v,1.0
2024-02-27 09:18:16.561420,1709021896.5614195,-44.43359375,-34.1796875,-36.1328125,-39.55078125,1.0,1.0,1.0,0.0,1.m4v,1.0
2024-02-27 09:18:16.565325,1709021896.5653253,-54.6875,-36.62109375,-39.55078125,-48.33984375,1.0,1.0,1.0,0.0,1.m4v,1.0
2024-02-27 09:18:16.569231,1709021896.5692308,-2.44140625,-25.390625,-17.578125,-28.80859375,1.0,1.0,1.0,0.0,1.m4v,1.0
2024-02-27 09:18:16.573136,1709021896.5731363,-14.16015625,-17.08984375,-32.2265625,-29.78515625,1.0,1.0,1.0,0.0,1.m4v,1.0
2024-02-27 09:18:16.577047,1709021896.577047,-23.92578125,-8.30078125,-30.76171875,-32.71484375,1.0,1.0,1.0,0.0,1.m4v,1.0
2024-02-27 09:18:16.580953,1709021896.5809526,-31.73828125,-7.32421875,-8.7890625,-32.71484375,1.0,1.0,1.0,0.0,1.m4v,1.0
2024-02-27 09:18:16.584858,1709021896.5848582,-43.45703125,-19.53125,-5.37109375,-24.90234375,1.0,1.0,1.0,0.0,1.m4v,1.0
2024-02-27 09:18:16.588763,1709021896.5887637,-36.1328125,-29.296875,-17.08984375,-31.25,1.0,1.0,1.0,0.0,1.m4v,1.0
2024-02-27 09:18:16.592669,1709021896.592669,-31.73828125,-49.31640625,-47.36328125,-41.50390625,1.0,1.0,1.0,0.0,1.m4v,1.0
2024-02-27 09:18:16.596575,1709021896.5965743,-23.4375,-38.57421875,-44.43359375,-50.29296875,1.0,1.0,1.0,0.0,1.m4v,1.0
2024-02-27 09:18:16.600480,1709021896.60048,-22.4609375,-15.625,-21.97265625,-39.55078125,1.0,1.0,1.0,0.0,1.m4v,1.0
2024-02-27 09:18:16.604386,1709021896.6043856,-55.6640625,-37.59765625,-33.203125,-21.484375,1.0,1.0,1.0,0.0,1.m4v,1.0
2024-02-27 09:18:16.608291,1709021896.6082911,-32.71484375,-31.73828125,-28.80859375,-16.11328125,1.0,1.0,1.0,0.0,1.m4v,1.0
2024-02-27 09:18:16.612197,1709021896.6121967,5.37109375,-6.34765625,-8.30078125,-23.92578125,1.0,1.0,1.0,0.0,1.m4v,1.0
2024-02-27 09:18:16.616102,1709021896.6161022,-19.53125,-18.06640625,-31.73828125,-54.6875,1.0,1.0,1.0,0.0,1.m4v,1.0
2024-02-27 09:18:16.620008,1709021896.6200078,-14.6484375,-25.87890625,-30.76171875,-41.50390625,1.0,1.0,1.0,0.0,1.m4v,1.0
2024-02-27 09:18:16.623923,1709021896.6239226,-29.296875,-25.87890625,-6.8359375,-17.08984375,1.0,1.0,1.0,0.0,1.m4v,1.0
2024-02-27 09:18:16.627828,1709021896.627828,-68.359375,-41.9921875,-33.203125,-49.31640625,1.0,1.0,1.0,0.0,1.m4v,1.0
2024-02-27 09:18:16.631734,1709021896.6317337,-58.10546875,-38.0859375,-50.78125,-56.15234375,1.0,1.0,1.0,0.0,1.m4v,1.0
2024-02-27 09:18:16.635639,1709021896.6356392,-19.04296875,-19.53125,-20.5078125,-24.90234375,1.0,1.0,1.0,0.0,1.m4v,1.0
2024-02-27 09:18:16.639544,1709021896.6395445,-23.92578125,-12.20703125,-2.9296875,-14.6484375,1.0,1.0,1.0,0.0,1.m4v,1.0
2024-02-27 09:18:16.643450,1709021896.64345,-39.55078125,-17.08984375,-21.97265625,-18.06640625,1.0,1.0,1.0,0.0,1.m4v,1.0
2024-02-27 09:18:16.647356,1709021896.6473556,-48.33984375,-36.1328125,-38.57421875,-35.15625,1.0,1.0,1.0,0.0,1.m4v,1.0
2024-02-27 09:18:16.651261,1709021896.651261,-38.57421875,-44.921875,-20.5078125,-42.48046875,1.0,1.0,1.0,0.0,1.m4v,1.0
2024-02-27 09:18:16.655167,1709021896.6551666,-34.66796875,-48.33984375,-34.1796875,-49.31640625,1.0,1.0,1.0,0.0,1.m4v,1.0
2024-02-27 09:18:16.659072,1709021896.6590722,-49.31640625,-51.7578125,-43.45703125,-55.17578125,1.0,1.0,1.0,0.0,1.m4v,1.0
2024-02-27 09:18:16.662978,1709021896.6629777,-43.9453125,-32.2265625,-14.6484375,-36.1328125,1.0,1.0,1.0,0.0,1.m4v,1.0
2024-02-27 09:18:16.666883,1709021896.6668832,-17.08984375,-4.8828125,-17.578125,-5.859375,1.0,1.0,1.0,0.0,1.m4v,1.0
2024-02-27 09:18:16.670797,1709021896.670797,-13.18359375,-17.08984375,-26.3671875,-18.5546875,1.0,1.0,1.0,0.0,1.m4v,1.0
2024-02-27 09:18:16.674703,1709021896.674703,-29.296875,-33.69140625,-37.59765625,-54.19921875,1.0,1.0,1.0,0.0,1.m4v,1.0
2024-02-27 09:18:16.678608,1709021896.6786084,-21.484375,-21.484375,-27.34375,-31.25,1.0,1.0,1.0,0.0,1.m4v,1.0
2024-02-27 09:18:16.682514,1709021896.682514,-36.1328125,-27.83203125,-12.20703125,-9.27734375,1.0,1.0,1.0,0.0,1.m4v,1.0
2024-02-27 09:18:16.686419,1709021896.6864195,-32.71484375,-23.92578125,-16.6015625,-21.97265625,1.0,1.0,1.0,0.0,1.m4v,1.0
2024-02-27 09:18:16.690325,1709021896.690325,-35.15625,-55.17578125,-48.828125,-51.26953125,1.0,1.0,1.0,0.0,1.m4v,1.0
2024-02-27 09:18:16.694231,1709021896.6942306,-36.1328125,-66.40625,-44.43359375,-56.15234375,1.0,1.0,1.0,0.0,1.m4v,1.0
2024-02-27 09:18:16.698136,1709021896.698136,-24.90234375,-45.41015625,-8.7890625,-38.0859375,1.0,1.0,1.0,0.0,1.m4v,1.0
2024-02-27 09:18:16.702042,1709021896.7020416,-41.50390625,-38.57421875,-5.37109375,-37.59765625,1.0,1.0,1.0,0.0,1.m4v,1.0
2024-02-27 09:18:16.705947,1709021896.7059472,-33.69140625,-7.8125,-28.3203125,-27.83203125,1.0,1.0,1.0,0.0,1.m4v,1.0
2024-02-27 09:18:16.709853,1709021896.7098527,-9.765625,-1.46484375,-34.1796875,-20.01953125,1.0,1.0,1.0,0.0,1.m4v,1.0
2024-02-27 09:18:16.713758,1709021896.713758,-29.78515625,-24.90234375,-37.59765625,-41.50390625,1.0,1.0,1.0,0.0,1.m4v,1.0
2024-02-27 09:18:16.717672,1709021896.717672,-33.203125,-16.11328125,-24.4140625,-47.36328125,1.0,1.0,1.0,0.0,1.m4v,1.0
2024-02-27 09:18:16.721577,1709021896.7215774,-9.27734375,-4.8828125,12.6953125,-12.20703125,1.0,1.0,1.0,0.0,1.m4v,1.0
2024-02-27 09:18:16.725483,1709021896.7254827,-23.4375,-5.859375,11.71875,11.71875,1.0,1.0,1.0,0.0,1.m4v,1.0
2024-02-27 09:18:16.729388,1709021896.7293882,-48.33984375,-36.1328125,-26.85546875,-20.99609375,1.0,1.0,1.0,0.0,1.m4v,1.0
2024-02-27 09:18:16.733294,1709021896.7332938,-51.7578125,-60.05859375,-54.6875,-63.96484375,1.0,1.0,1.0,0.0,1.m4v,1.0
2024-02-27 09:18:16.737199,1709021896.7371993,-47.8515625,-51.26953125,-37.59765625,-72.265625,1.0,1.0,1.0,0.0,1.m4v,1.0
2024-02-27 09:18:16.741105,1709021896.7411048,-52.24609375,-40.0390625,-15.13671875,-50.29296875,1.0,1.0,1.0,0.0,1.m4v,1.0
2024-02-27 09:18:16.745010,1709021896.7450104,-52.734375,-27.83203125,-13.18359375,-38.57421875,1.0,1.0,1.0,0.0,1.m4v,1.0
2024-02-27 09:18:16.748916,1709021896.748916,-54.19921875,-25.390625,-31.73828125,-46.875,1.0,1.0,1.0,0.0,1.m4v,1.0
2024-02-27 09:18:16.752821,1709021896.7528214,-31.25,-38.57421875,-28.3203125,-37.59765625,1.0,1.0,1.0,0.0,1.m4v,1.0
2024-02-27 09:18:16.756727,1709021896.756727,-0.9765625,-32.71484375,-25.87890625,-10.7421875,1.0,1.0,1.0,0.0,1.m4v,1.0
2024-02-27 09:18:16.760633,1709021896.7606325,-13.18359375,-7.32421875,-28.80859375,-13.671875,1.0,1.0,1.0,0.0,1.m4v,1.0
2024-02-27 09:18:16.764546,1709021896.7645457,-36.1328125,-17.578125,-17.08984375,-23.4375,1.0,1.0,1.0,0.0,1.m4v,1.0
2024-02-27 09:18:16.768451,1709021896.7684512,-37.59765625,-40.0390625,-26.85546875,-34.66796875,1.0,1.0,1.0,0.0,1.m4v,1.0
2024-02-27 09:18:16.772357,1709021896.7723565,-25.87890625,-43.9453125,-47.8515625,-42.96875,1.0,1.0,1.0,0.0,1.m4v,1.0
2024-02-27 09:18:16.776262,1709021896.776262,-20.5078125,-34.66796875,-36.1328125,-43.45703125,1.0,1.0,1.0,0.0,1.m4v,1.0
2024-02-27 09:18:16.780168,1709021896.7801676,-31.73828125,-23.4375,-27.34375,-52.734375,1.0,1.0,1.0,0.0,1.m4v,1.0
2024-02-27 09:18:16.784073,1709021896.784073,-50.29296875,-35.15625,-32.2265625,-54.19921875,1.0,1.0,1.0,0.0,1.m4v,1.0
2024-02-27 09:18:16.787979,1709021896.7879786,-37.59765625,-47.36328125,-27.83203125,-49.31640625,1.0,1.0,1.0,0.0,1.m4v,1.0
2024-02-27 09:18:16.791884,1709021896.7918842,-6.34765625,-30.76171875,-31.73828125,-29.296875,1.0,1.0,1.0,0.0,1.m4v,1.0
2024-02-27 09:18:16.795790,1709021896.7957897,14.16015625,-9.27734375,-32.71484375,-12.20703125,1.0,1.0,1.0,0.0,1.m4v,1.0
2024-02-27 09:18:16.799695,1709021896.7996953,-2.44140625,-5.37109375,-18.5546875,-11.71875,1.0,1.0,1.0,0.0,1.m4v,1.0
2024-02-27 09:18:16.803601,1709021896.8036008,-25.87890625,-18.06640625,-9.27734375,-4.39453125,1.0,1.0,1.0,0.0,1.m4v,1.0
2024-02-27 09:18:16.807506,1709021896.8075063,-28.80859375,-36.62109375,-18.5546875,-16.11328125,1.0,1.0,1.0,0.0,1.m4v,1.0
2024-02-27 09:18:16.811419,1709021896.8114188,-17.08984375,-42.96875,-25.87890625,-33.69140625,1.0,1.0,1.0,0.0,1.m4v,1.0
2024-02-27 09:18:16.815324,1709021896.8153243,-17.578125,-41.9921875,-28.80859375,-44.43359375,1.0,1.0,1.0,0.0,1.m4v,1.0
2024-02-27 09:18:16.819230,1709021896.8192298,-53.22265625,-49.8046875,-41.9921875,-60.546875,1.0,1.0,1.0,0.0,1.m4v,1.0
2024-02-27 09:18:16.823135,1709021896.8231354,-69.82421875,-37.109375,-41.50390625,-50.78125,1.0,1.0,1.0,0.0,1.m4v,1.0
2024-02-27 09:18:16.827041,1709021896.827041,-56.640625,-28.80859375,-42.96875,-44.43359375,1.0,1.0,1.0,0.0,1.m4v,1.0
2024-02-27 09:18:16.830946,1709021896.8309464,-9.765625,-25.390625,-29.78515625,-43.9453125,1.0,1.0,1.0,0.0,1.m4v,1.0
2024-02-27 09:18:16.834852,1709021896.834852,19.53125,-14.6484375,-10.25390625,-32.71484375,1.0,1.0,1.0,0.0,1.m4v,1.0
2024-02-27 09:18:16.838757,1709021896.8387573,-29.78515625,-24.4140625,-23.4375,-39.0625,1.0,1.0,1.0,0.0,1.m4v,1.0
2024-02-27 09:18:16.842663,1709021896.8426628,-61.5234375,-22.94921875,-38.57421875,-39.0625,1.0,1.0,1.0,0.0,1.m4v,1.0
2024-02-27 09:18:16.846568,1709021896.8465683,-23.4375,-24.90234375,-30.2734375,-11.23046875,1.0,1.0,1.0,0.0,1.m4v,1.0
2024-02-27 09:18:16.850474,1709021896.850474,5.37109375,-32.2265625,-26.85546875,10.7421875,1.0,1.0,1.0,0.0,1.m4v,1.0
2024-02-27 09:18:16.854379,1709021896.8543794,-8.30078125,-30.76171875,-36.62109375,0.9765625,1.0,1.0,1.0,0.0,1.m4v,1.0
2024-02-27 09:18:16.858291,1709021896.8582914,-24.90234375,-38.0859375,-18.5546875,-36.62109375,1.0,1.0,1.0,0.0,1.m4v,1.0
2024-02-27 09:18:16.862197,1709021896.862197,-41.50390625,-34.1796875,-18.5546875,-47.8515625,1.0,1.0,1.0,0.0,1.m4v,1.0
2024-02-27 09:18:16.866102,1709021896.8661025,-41.9921875,-20.01953125,-36.1328125,-32.2265625,1.0,1.0,1.0,0.0,1.m4v,1.0
2024-02-27 09:18:16.870008,1709021896.8700078,2.9296875,-2.44140625,-22.4609375,-25.390625,1.0,1.0,1.0,0.0,1.m4v,1.0
2024-02-27 09:18:16.873913,1709021896.8739133,-2.44140625,-14.6484375,-15.13671875,-20.99609375,1.0,1.0,1.0,0.0,1.m4v,1.0
2024-02-27 09:18:16.877819,1709021896.8778188,-37.59765625,-36.62109375,-32.2265625,-43.45703125,1.0,1.0,1.0,0.0,1.m4v,1.0
2024-02-27 09:18:16.881724,1709021896.8817244,-76.171875,-61.03515625,-40.0390625,-70.3125,1.0,1.0,1.0,0.0,1.m4v,1.0
2024-02-27 09:18:16.885630,1709021896.88563,-73.2421875,-54.6875,-29.296875,-46.38671875,1.0,1.0,1.0,0.0,1.m4v,1.0
2024-02-27 09:18:16.889535,1709021896.8895354,-34.1796875,-24.90234375,-23.4375,-32.2265625,1.0,1.0,1.0,0.0,1.m4v,1.0
2024-02-27 09:18:16.893441,1709021896.893441,-0.9765625,0.0,10.25390625,-31.73828125,1.0,1.0,1.0,0.0,1.m4v,1.0
2024-02-27 09:18:16.897346,1709021896.8973465,6.8359375,5.859375,8.30078125,-16.6015625,1.0,1.0,1.0,0.0,1.m4v,1.0
2024-02-27 09:18:16.901252,1709021896.901252,-39.55078125,-24.90234375,-30.2734375,-27.34375,1.0,1.0,1.0,0.0,1.m4v,1.0
2024-02-27 09:18:16.905163,1709021896.9051633,-61.03515625,-44.43359375,-20.5078125,-25.390625,1.0,1.0,1.0,0.0,1.m4v,1.0
2024-02-27 09:18:16.909069,1709021896.9090688,-46.38671875,-60.546875,-22.4609375,-11.71875,1.0,1.0,1.0,0.0,1.m4v,1.0
2024-02-27 09:18:16.912974,1709021896.9129744,-25.87890625,-48.828125,-38.57421875,-42.96875,1.0,1.0,1.0,0.0,1.m4v,1.0
2024-02-27 09:18:16.916880,1709021896.91688,-41.015625,-27.34375,-42.96875,-69.3359375,1.0,1.0,1.0,0.0,1.m4v,1.0
2024-02-27 09:18:16.920785,1709021896.9207854,-62.5,-40.52734375,-34.66796875,-64.453125,1.0,1.0,1.0,0.0,1.m4v,1.0
2024-02-27 09:18:16.924691,1709021896.924691,-40.0390625,-48.33984375,-20.99609375,-47.36328125,1.0,1.0,1.0,0.0,1.m4v,1.0
2024-02-27 09:18:16.928596,1709021896.9285965,-12.6953125,-18.06640625,-6.34765625,-22.4609375,1.0,1.0,1.0,0.0,1.m4v,1.0
2024-02-27 09:18:16.932502,1709021896.932502,-0.48828125,-2.9296875,-7.32421875,-17.08984375,1.0,1.0,1.0,0.0,1.m4v,1.0
2024-02-27 09:18:16.936408,1709021896.9364076,-3.41796875,-14.6484375,-22.4609375,-28.3203125,1.0,1.0,1.0,0.0,1.m4v,1.0
2024-02-27 09:18:16.940313,1709021896.940313,-48.33984375,-24.90234375,-46.38671875,-44.43359375,1.0,1.0,1.0,0.0,1.m4v,1.0
2024-02-27 09:18:16.944219,1709021896.9442186,-63.96484375,-16.11328125,-43.45703125,-33.203125,1.0,1.0,1.0,0.0,1.m4v,1.0
2024-02-27 09:18:16.948124,1709021896.948124,-9.765625,-28.80859375,-27.83203125,-12.6953125,1.0,1.0,1.0,0.0,1.m4v,1.0
2024-02-27 09:18:16.952035,1709021896.9520347,7.8125,-53.7109375,-27.34375,-17.08984375,1.0,1.0,1.0,0.0,1.m4v,1.0
2024-02-27 09:18:16.955940,1709021896.9559402,-20.99609375,-50.29296875,-31.25,-41.50390625,1.0,1.0,1.0,0.0,1.m4v,1.0
2024-02-27 09:18:16.959846,1709021896.9598458,-30.76171875,-36.62109375,-20.5078125,-51.7578125,1.0,1.0,1.0,0.0,1.m4v,1.0
2024-02-27 09:18:16.963751,1709021896.9637513,-30.76171875,-32.71484375,-13.18359375,-41.9921875,1.0,1.0,1.0,0.0,1.m4v,1.0
2024-02-27 09:18:16.967657,1709021896.9676569,-20.99609375,-33.203125,-31.73828125,-28.80859375,1.0,1.0,1.0,0.0,1.m4v,1.0
2024-02-27 09:18:16.971562,1709021896.9715624,6.8359375,-15.625,-29.78515625,-19.53125,1.0,1.0,1.0,0.0,1.m4v,1.0
2024-02-27 09:18:16.975468,1709021896.975468,7.32421875,-9.27734375,-16.11328125,-33.203125,1.0,1.0,1.0,0.0,1.m4v,1.0
2024-02-27 09:18:16.979373,1709021896.9793737,-22.94921875,-30.2734375,-14.6484375,-38.0859375,1.0,1.0,1.0,0.0,1.m4v,1.0
2024-02-27 09:18:16.983279,1709021896.9832788,-10.7421875,-24.4140625,-9.765625,1.953125,1.0,1.0,1.0,0.0,1.m4v,1.0
2024-02-27 09:18:16.987184,1709021896.9871843,-11.23046875,-35.15625,-17.578125,-5.859375,1.0,1.0,1.0,0.0,1.m4v,1.0
2024-02-27 09:18:16.991090,1709021896.9910898,-47.8515625,-48.33984375,-40.52734375,-53.22265625,1.0,1.0,1.0,0.0,1.m4v,1.0
2024-02-27 09:18:16.994995,1709021896.9949954,-35.15625,-32.71484375,-41.015625,-41.9921875,1.0,1.0,1.0,0.0,1.m4v,1.0
2024-02-27 09:18:16.998906,1709021896.998906,-46.38671875,-35.64453125,-26.3671875,-41.015625,1.0,1.0,1.0,0.0,1.m4v,1.0
2024-02-27 09:18:17.002811,1709021897.0028114,-80.078125,-31.25,-11.23046875,-60.05859375,1.0,1.0,1.0,0.0,1.m4v,1.0
2024-02-27 09:18:17.006717,1709021897.006717,-61.03515625,-22.94921875,-14.16015625,-38.0859375,1.0,1.0,1.0,0.0,1.m4v,1.0
2024-02-27 09:18:17.010623,1709021897.0106225,-34.66796875,-32.2265625,-31.25,-22.4609375,1.0,1.0,1.0,0.0,1.m4v,1.0
2024-02-27 09:18:17.014528,1709021897.014528,-42.96875,-38.0859375,-30.2734375,-33.203125,1.0,1.0,1.0,0.0,1.m4v,1.0
2024-02-27 09:18:17.018434,1709021897.0184336,-41.50390625,-41.9921875,-13.671875,-39.0625,1.0,1.0,1.0,0.0,1.m4v,1.0
2024-02-27 09:18:17.420774,1709021897.420774,-167.96875,-42.48046875,-27.34375,-172.36328125,1.0,1.0,1.0,0.0,1.m4v,1.0
2024-02-27 09:18:17.424680,1709021897.4246795,-161.62109375,0.0,-16.11328125,-160.15625,1.0,1.0,1.0,0.0,1.m4v,1.0
2024-02-27 09:18:17.428585,1709021897.428585,-140.13671875,22.94921875,-17.578125,-144.04296875,1.0,1.0,1.0,0.0,1.m4v,1.0
2024-02-27 09:18:17.432491,1709021897.4324906,-141.6015625,23.4375,-5.859375,-154.78515625,1.0,1.0,1.0,0.0,1.m4v,1.0
2024-02-27 09:18:17.436396,1709021897.436396,-139.16015625,20.99609375,13.18359375,-164.55078125,1.0,1.0,1.0,0.0,1.m4v,1.0
2024-02-27 09:18:17.440302,1709021897.4403017,-154.296875,13.671875,-7.32421875,-169.43359375,1.0,1.0,1.0,0.0,1.m4v,1.0
2024-02-27 09:18:17.444207,1709021897.4442072,-172.8515625,31.73828125,-17.08984375,-158.203125,1.0,1.0,1.0,0.0,1.m4v,1.0
2024-02-27 09:18:17.448113,1709021897.4481127,-160.64453125,31.25,-1.953125,-164.0625,1.0,1.0,1.0,0.0,1.m4v,1.0
2024-02-27 09:18:17.452018,1709021897.4520185,-158.69140625,-1.46484375,-24.4140625,-182.6171875,1.0,1.0,1.0,0.0,1.m4v,1.0
2024-02-27 09:18:17.455924,1709021897.4559238,-153.3203125,-33.69140625,-25.390625,-176.7578125,1.0,1.0,1.0,0.0,1.m4v,1.0
2024-02-27 09:18:17.459829,1709021897.459829,-169.43359375,-40.52734375,0.9765625,-185.546875,1.0,1.0,1.0,0.0,1.m4v,1.0
2024-02-27 09:18:17.463735,1709021897.4637349,-171.38671875,-17.08984375,4.8828125,-176.7578125,1.0,1.0,1.0,0.0,1.m4v,1.0
2024-02-27 09:18:17.467649,1709021897.4676485,-140.13671875,9.27734375,-14.6484375,-155.76171875,1.0,1.0,1.0,0.0,1.m4v,1.0
2024-02-27 09:18:17.471554,1709021897.471554,-131.8359375,20.99609375,-25.390625,-146.484375,1.0,1.0,1.0,0.0,1.m4v,1.0
2024-02-27 09:18:17.475460,1709021897.4754596,-149.4140625,10.25390625,-32.2265625,-170.8984375,1.0,1.0,1.0,0.0,1.m4v,1.0
2024-02-27 09:18:17.479365,1709021897.479365,-151.3671875,8.30078125,-21.484375,-160.15625,1.0,1.0,1.0,0.0,1.m4v,1.0
2024-02-27 09:18:17.483271,1709021897.4832706,-140.625,-6.34765625,-7.8125,-143.06640625,1.0,1.0,1.0,0.0,1.m4v,1.0
2024-02-27 09:18:17.487176,1709021897.4871762,-147.4609375,-40.0390625,-17.08984375,-156.73828125,1.0,1.0,1.0,0.0,1.m4v,1.0
2024-02-27 09:18:17.491082,1709021897.4910817,-138.671875,-27.34375,-38.57421875,-149.4140625,1.0,1.0,1.0,0.0,1.m4v,1.0
2024-02-27 09:18:17.494987,1709021897.4949872,-107.91015625,-13.18359375,-37.109375,-130.37109375,1.0,1.0,1.0,0.0,1.m4v,1.0
2024-02-27 09:18:17.498893,1709021897.4988923,-98.14453125,-25.87890625,-18.5546875,-108.88671875,1.0,1.0,1.0,0.0,1.m4v,1.0
2024-02-27 09:18:17.502798,1709021897.502798,-122.0703125,-32.71484375,-34.66796875,-107.421875,1.0,1.0,1.0,0.0,1.m4v,1.0
2024-02-27 09:18:17.506704,1709021897.5067036,-112.79296875,-25.87890625,-48.33984375,-98.14453125,1.0,1.0,1.0,0.0,1.m4v,1.0
2024-02-27 09:18:17.510609,1709021897.5106091,-72.265625,-27.83203125,-60.05859375,-81.0546875,1.0,1.0,1.0,0.0,1.m4v,1.0
2024-02-27 09:18:17.514523,1709021897.5145226,-41.015625,-37.109375,-50.29296875,-76.66015625,1.0,1.0,1.0,0.0,1.m4v,1.0
2024-02-27 09:18:17.518428,1709021897.518428,-38.0859375,-39.55078125,-33.69140625,-55.17578125,1.0,1.0,1.0,0.0,1.m4v,1.0
2024-02-27 09:18:17.522334,1709021897.5223336,-57.12890625,-33.69140625,-18.5546875,-39.0625,1.0,1.0,1.0,0.0,1.m4v,1.0
2024-02-27 09:18:17.526239,1709021897.5262392,-62.01171875,-46.875,-24.90234375,-60.05859375,1.0,1.0,1.0,0.0,1.m4v,1.0
2024-02-27 09:18:17.530145,1709021897.5301447,-39.55078125,-44.43359375,-56.15234375,-42.96875,1.0,1.0,1.0,0.0,1.m4v,1.0
2024-02-27 09:18:17.534050,1709021897.5340502,-18.5546875,-34.1796875,-61.5234375,-24.90234375,1.0,1.0,1.0,0.0,1.m4v,1.0
2024-02-27 09:18:17.537956,1709021897.5379558,-26.3671875,-49.31640625,-46.875,-42.48046875,1.0,1.0,1.0,0.0,1.m4v,1.0
2024-02-27 09:18:17.541861,1709021897.5418613,-34.66796875,-46.875,-25.390625,-22.4609375,1.0,1.0,1.0,0.0,1.m4v,1.0
2024-02-27 09:18:17.545767,1709021897.5457668,-16.6015625,-38.57421875,-34.1796875,9.765625,1.0,1.0,1.0,0.0,1.m4v,1.0
2024-02-27 09:18:17.549672,1709021897.549672,16.11328125,-40.0390625,-52.24609375,18.5546875,1.0,1.0,1.0,0.0,1.m4v,1.0
2024-02-27 09:18:17.553578,1709021897.5535777,46.875,-45.41015625,-43.9453125,23.92578125,1.0,1.0,1.0,0.0,1.m4v,1.0
2024-02-27 09:18:17.557483,1709021897.5574832,25.390625,-48.33984375,-37.59765625,7.8125,1.0,1.0,1.0,0.0,1.m4v,1.0
2024-02-27 09:18:17.561396,1709021897.561396,-8.30078125,-45.41015625,-30.2734375,12.6953125,1.0,1.0,1.0,0.0,1.m4v,1.0
2024-02-27 09:18:17.565302,1709021897.5653017,6.34765625,-43.45703125,-26.85546875,16.6015625,1.0,1.0,1.0,0.0,1.m4v,1.0
2024-02-27 09:18:17.569207,1709021897.5692072,12.6953125,-56.15234375,-47.8515625,-12.6953125,1.0,1.0,1.0,0.0,1.m4v,1.0
2024-02-27 09:18:17.573113,1709021897.5731127,18.06640625,-44.921875,-19.04296875,-19.53125,1.0,1.0,1.0,0.0,1.m4v,1.0
2024-02-27 09:18:17.577018,1709021897.5770185,47.36328125,-14.16015625,12.6953125,16.6015625,1.0,1.0,1.0,0.0,1.m4v,1.0
2024-02-27 09:18:17.580924,1709021897.5809236,45.41015625,-11.23046875,-24.90234375,40.0390625,1.0,1.0,1.0,0.0,1.m4v,1.0
2024-02-27 09:18:17.584829,1709021897.584829,23.4375,-30.2734375,-40.52734375,15.13671875,1.0,1.0,1.0,0.0,1.m4v,1.0
2024-02-27 09:18:17.588735,1709021897.5887346,25.87890625,-47.36328125,-30.76171875,20.5078125,1.0,1.0,1.0,0.0,1.m4v,1.0
2024-02-27 09:18:17.592640,1709021897.5926402,38.57421875,-46.875,-32.71484375,44.43359375,1.0,1.0,1.0,0.0,1.m4v,1.0
2024-02-27 09:18:17.596546,1709021897.5965457,55.17578125,-33.203125,-11.23046875,42.96875,1.0,1.0,1.0,0.0,1.m4v,1.0
2024-02-27 09:18:17.600451,1709021897.6004512,37.59765625,-41.50390625,-21.97265625,33.203125,1.0,1.0,1.0,0.0,1.m4v,1.0
2024-02-27 09:18:17.604357,1709021897.6043568,14.6484375,-54.19921875,-35.64453125,30.76171875,1.0,1.0,1.0,0.0,1.m4v,1.0
2024-02-27 09:18:17.608273,1709021897.6082733,44.921875,-43.45703125,-5.37109375,47.36328125,1.0,1.0,1.0,0.0,1.m4v,1.0
2024-02-27 09:18:17.612179,1709021897.6121788,63.96484375,-43.9453125,-7.32421875,55.17578125,1.0,1.0,1.0,0.0,1.m4v,1.0
2024-02-27 09:18:17.616084,1709021897.6160843,55.6640625,-42.96875,-12.20703125,50.29296875,1.0,1.0,1.0,0.0,1.m4v,1.0
2024-02-27 09:18:17.619990,1709021897.61999,33.203125,-39.55078125,-17.08984375,39.55078125,1.0,1.0,1.0,0.0,1.m4v,1.0
2024-02-27 09:18:17.623895,1709021897.6238954,20.01953125,-34.1796875,-21.484375,41.50390625,1.0,1.0,1.0,0.0,1.m4v,1.0
2024-02-27 09:18:17.627801,1709021897.627801,41.015625,-41.015625,-21.484375,51.26953125,1.0,1.0,1.0,0.0,1.m4v,1.0
2024-02-27 09:18:17.631706,1709021897.6317062,89.84375,-28.80859375,-39.55078125,71.2890625,1.0,1.0,1.0,0.0,1.m4v,1.0
2024-02-27 09:18:17.635612,1709021897.6356118,73.2421875,-41.015625,-42.48046875,51.7578125,1.0,1.0,1.0,0.0,1.m4v,1.0
2024-02-27 09:18:17.639517,1709021897.6395173,10.7421875,-60.546875,-31.73828125,8.7890625,1.0,1.0,1.0,0.0,1.m4v,1.0
2024-02-27 09:18:17.643423,1709021897.6434228,-20.5078125,-48.828125,-24.4140625,-1.953125,1.0,1.0,1.0,0.0,1.m4v,1.0
2024-02-27 09:18:17.647328,1709021897.6473284,34.66796875,-21.484375,-7.8125,39.55078125,1.0,1.0,1.0,0.0,1.m4v,1.0
2024-02-27 09:18:17.651234,1709021897.651234,75.1953125,-10.25390625,-9.27734375,66.40625,1.0,1.0,1.0,0.0,1.m4v,1.0
2024-02-27 09:18:17.655146,1709021897.6551456,43.9453125,-35.15625,-33.203125,24.4140625,1.0,1.0,1.0,0.0,1.m4v,1.0
2024-02-27 09:18:17.659051,1709021897.6590512,18.5546875,-52.734375,-28.80859375,16.6015625,1.0,1.0,1.0,0.0,1.m4v,1.0
2024-02-27 09:18:17.662956,1709021897.6629565,-2.9296875,-48.33984375,-12.6953125,41.50390625,1.0,1.0,1.0,0.0,1.m4v,1.0
2024-02-27 09:18:17.666862,1709021897.666862,14.16015625,-50.29296875,-40.52734375,52.24609375,1.0,1.0,1.0,0.0,1.m4v,1.0
2024-02-27 09:18:17.670768,1709021897.6707675,41.50390625,-71.2890625,-41.9921875,36.1328125,1.0,1.0,1.0,0.0,1.m4v,1.0
2024-02-27 09:18:17.674673,1709021897.674673,38.57421875,-69.3359375,-4.39453125,18.5546875,1.0,1.0,1.0,0.0,1.m4v,1.0
2024-02-27 09:18:17.678579,1709021897.6785786,31.25,-34.1796875,-6.34765625,13.671875,1.0,1.0,1.0,0.0,1.m4v,1.0
2024-02-27 09:18:17.682484,1709021897.682484,-2.9296875,-20.99609375,-22.94921875,12.6953125,1.0,1.0,1.0,0.0,1.m4v,1.0
2024-02-27 09:18:17.686390,1709021897.6863897,-16.11328125,-12.6953125,-11.23046875,32.2265625,1.0,1.0,1.0,0.0,1.m4v,1.0
2024-02-27 09:18:17.690295,1709021897.6902952,-7.8125,-28.3203125,-23.4375,20.5078125,1.0,1.0,1.0,0.0,1.m4v,1.0
2024-02-27 09:18:17.694201,1709021897.6942008,6.34765625,-55.6640625,-35.15625,3.41796875,1.0,1.0,1.0,0.0,1.m4v,1.0
2024-02-27 09:18:17.698106,1709021897.6981063,14.6484375,-44.43359375,-29.78515625,19.04296875,1.0,1.0,1.0,0.0,1.m4v,1.0
2024-02-27 09:18:17.702017,1709021897.7020168,-12.20703125,-42.48046875,-18.5546875,23.92578125,1.0,1.0,1.0,0.0,1.m4v,1.0
2024-02-27 09:18:17.705922,1709021897.7059224,-14.16015625,-48.828125,-20.5078125,48.33984375,1.0,1.0,1.0,0.0,1.m4v,1.0
2024-02-27 09:18:17.709828,1709021897.709828,28.80859375,-25.87890625,-17.578125,57.6171875,1.0,1.0,1.0,0.0,1.m4v,1.0
2024-02-27 09:18:17.713733,1709021897.7137334,38.57421875,-28.80859375,-13.18359375,13.671875,1.0,1.0,1.0,0.0,1.m4v,1.0
2024-02-27 09:18:17.717639,1709021897.717639,-14.6484375,-56.15234375,-39.0625,-21.97265625,1.0,1.0,1.0,0.0,1.m4v,1.0
2024-02-27 09:18:17.721545,1709021897.7215445,-56.640625,-41.015625,-44.921875,-37.59765625,1.0,1.0,1.0,0.0,1.m4v,1.0
2024-02-27 09:18:17.725450,1709021897.72545,-53.22265625,-38.0859375,-46.875,-26.3671875,1.0,1.0,1.0,0.0,1.m4v,1.0
2024-02-27 09:18:17.729356,1709021897.7293556,0.48828125,-43.45703125,-25.390625,18.5546875,1.0,1.0,1.0,0.0,1.m4v,1.0
2024-02-27 09:18:17.733261,1709021897.7332609,12.6953125,-30.76171875,-7.8125,13.671875,1.0,1.0,1.0,0.0,1.m4v,1.0
2024-02-27 09:18:17.737166,1709021897.7371664,-20.01953125,-40.0390625,-7.32421875,-33.69140625,1.0,1.0,1.0,0.0,1.m4v,1.0
2024-02-27 09:18:17.741072,1709021897.741072,-37.59765625,-28.80859375,-9.765625,-36.1328125,1.0,1.0,1.0,0.0,1.m4v,1.0
2024-02-27 09:18:17.744977,1709021897.7449777,-60.05859375,-14.16015625,-33.69140625,-19.53125,1.0,1.0,1.0,0.0,1.m4v,1.0
2024-02-27 09:18:17.748888,1709021897.7488875,-41.015625,-20.01953125,-46.875,-13.671875,1.0,1.0,1.0,0.0,1.m4v,1.0
2024-02-27 09:18:17.752793,1709021897.752793,9.27734375,-16.11328125,-37.109375,11.71875,1.0,1.0,1.0,0.0,1.m4v,1.0
2024-02-27 09:18:17.756699,1709021897.7566986,15.13671875,-32.2265625,-32.71484375,14.6484375,1.0,1.0,1.0,0.0,1.m4v,1.0
2024-02-27 09:18:17.760604,1709021897.760604,-30.76171875,-50.29296875,-22.94921875,-9.27734375,1.0,1.0,1.0,0.0,1.m4v,1.0
2024-02-27 09:18:17.764510,1709021897.7645097,-58.10546875,-50.29296875,-8.7890625,-13.671875,1.0,1.0,1.0,0.0,1.m4v,1.0
2024-02-27 09:18:17.768415,1709021897.7684152,-27.83203125,-34.1796875,-20.99609375,-10.7421875,1.0,1.0,1.0,0.0,1.m4v,1.0
2024-02-27 09:18:17.772321,1709021897.7723207,14.6484375,-16.11328125,-25.390625,19.04296875,1.0,1.0,1.0,0.0,1.m4v,1.0
2024-02-27 09:18:17.776226,1709021897.7762263,15.13671875,-24.4140625,-5.859375,10.7421875,1.0,1.0,1.0,0.0,1.m4v,1.0
2024-02-27 09:18:17.780132,1709021897.7801318,-6.8359375,-22.94921875,-4.8828125,-0.48828125,1.0,1.0,1.0,0.0,1.m4v,1.0
2024-02-27 09:18:17.784037,1709021897.784037,-37.109375,-11.71875,-31.73828125,-4.8828125,1.0,1.0,1.0,0.0,1.m4v,1.0
2024-02-27 09:18:17.787943,1709021897.7879426,-55.17578125,-18.5546875,-49.8046875,-31.73828125,1.0,1.0,1.0,0.0,1.m4v,1.0
2024-02-27 09:18:17.791848,1709021897.7918482,-49.31640625,-41.9921875,-49.8046875,-37.59765625,1.0,1.0,1.0,0.0,1.m4v,1.0
2024-02-27 09:18:17.795763,1709021897.7957623,-44.43359375,-62.01171875,-42.96875,-37.59765625,1.0,1.0,1.0,0.0,1.m4v,1.0
2024-02-27 09:18:17.799668,1709021897.799668,-43.45703125,-41.9921875,-38.0859375,-13.18359375,1.0,1.0,1.0,0.0,1.m4v,1.0
2024-02-27 09:18:17.803573,1709021897.8035734,-57.6171875,-21.97265625,-36.62109375,-18.5546875,1.0,1.0,1.0,0.0,1.m4v,1.0
2024-02-27 09:18:17.807479,1709021897.807479,-40.0390625,-15.625,-6.8359375,-32.2265625,1.0,1.0,1.0,0.0,1.m4v,1.0
2024-02-27 09:18:17.811384,1709021897.8113844,1.953125,-8.30078125,19.53125,-6.8359375,1.0,1.0,1.0,0.0,1.m4v,1.0
2024-02-27 09:18:17.815290,1709021897.81529,36.62109375,-1.953125,-3.41796875,4.8828125,1.0,1.0,1.0,0.0,1.m4v,1.0
2024-02-27 09:18:17.819196,1709021897.8191955,1.953125,-24.4140625,-29.296875,-25.390625,1.0,1.0,1.0,0.0,1.m4v,1.0
2024-02-27 09:18:17.823101,1709021897.823101,-64.453125,-33.69140625,-20.01953125,-41.015625,1.0,1.0,1.0,0.0,1.m4v,1.0
2024-02-27 09:18:17.827007,1709021897.8270066,-43.45703125,-13.671875,-39.55078125,-19.53125,1.0,1.0,1.0,0.0,1.m4v,1.0
2024-02-27 09:18:17.830912,1709021897.830912,-4.39453125,-17.08984375,-55.6640625,-12.20703125,1.0,1.0,1.0,0.0,1.m4v,1.0
2024-02-27 09:18:17.834818,1709021897.8348176,5.859375,-30.76171875,-34.66796875,-17.578125,1.0,1.0,1.0,0.0,1.m4v,1.0
2024-02-27 09:18:17.838723,1709021897.8387232,-13.18359375,-44.43359375,-46.875,-17.578125,1.0,1.0,1.0,0.0,1.m4v,1.0
2024-02-27 09:18:17.842637,1709021897.8426368,-50.78125,-38.57421875,-39.55078125,-15.625,1.0,1.0,1.0,0.0,1.m4v,1.0
2024-02-27 09:18:17.846542,1709021897.8465424,-62.98828125,-26.3671875,-9.765625,-37.109375,1.0,1.0,1.0,0.0,1.m4v,1.0
2024-02-27 09:18:17.850448,1709021897.850448,-27.83203125,-20.5078125,-1.953125,-32.71484375,1.0,1.0,1.0,0.0,1.m4v,1.0
2024-02-27 09:18:17.854353,1709021897.8543534,32.71484375,-10.7421875,7.32421875,-3.90625,1.0,1.0,1.0,0.0,1.m4v,1.0
2024-02-27 09:18:17.858259,1709021897.858259,32.71484375,-7.32421875,6.34765625,-2.9296875,1.0,1.0,1.0,0.0,1.m4v,1.0
2024-02-27 09:18:17.862164,1709021897.8621645,-18.06640625,-11.71875,-15.625,-23.92578125,1.0,1.0,1.0,0.0,1.m4v,1.0
2024-02-27 09:18:17.866070,1709021897.8660698,-38.0859375,-37.109375,-39.0625,-40.52734375,1.0,1.0,1.0,0.0,1.m4v,1.0
2024-02-27 09:18:17.869975,1709021897.869975,-18.5546875,-46.38671875,-50.29296875,-35.15625,1.0,1.0,1.0,0.0,1.m4v,1.0
2024-02-27 09:18:17.873881,1709021897.8738809,-5.37109375,-30.2734375,-45.8984375,-32.2265625,1.0,1.0,1.0,0.0,1.m4v,1.0
2024-02-27 09:18:17.877786,1709021897.8777864,-12.20703125,-16.6015625,-39.0625,-32.2265625,1.0,1.0,1.0,0.0,1.m4v,1.0
2024-02-27 09:18:17.881692,1709021897.881692,-30.2734375,-4.39453125,-13.671875,-17.08984375,1.0,1.0,1.0,0.0,1.m4v,1.0
2024-02-27 09:18:17.885597,1709021897.8855977,-24.90234375,-18.06640625,6.8359375,-16.11328125,1.0,1.0,1.0,0.0,1.m4v,1.0
2024-02-27 09:18:17.889511,1709021897.8895109,-19.53125,-37.59765625,-7.32421875,-24.4140625,1.0,1.0,1.0,0.0,1.m4v,1.0
2024-02-27 09:18:17.893416,1709021897.8934164,-9.27734375,-48.33984375,-7.32421875,-30.76171875,1.0,1.0,1.0,0.0,1.m4v,1.0
2024-02-27 09:18:17.897322,1709021897.8973217,7.8125,-43.45703125,-26.85546875,-27.34375,1.0,1.0,1.0,0.0,1.m4v,1.0
2024-02-27 09:18:17.901227,1709021897.9012272,-30.2734375,-29.296875,-41.50390625,-31.73828125,1.0,1.0,1.0,0.0,1.m4v,1.0
2024-02-27 09:18:17.905133,1709021897.9051328,-55.6640625,-32.2265625,-28.3203125,-36.1328125,1.0,1.0,1.0,0.0,1.m4v,1.0
2024-02-27 09:18:17.909038,1709021897.9090383,-30.2734375,-20.99609375,-26.85546875,-40.0390625,1.0,1.0,1.0,0.0,1.m4v,1.0
2024-02-27 09:18:17.912944,1709021897.9129438,-6.8359375,-10.7421875,-50.78125,-44.921875,1.0,1.0,1.0,0.0,1.m4v,1.0
2024-02-27 09:18:17.916849,1709021897.9168494,8.7890625,-5.37109375,-43.9453125,-28.80859375,1.0,1.0,1.0,0.0,1.m4v,1.0
2024-02-27 09:18:17.920755,1709021897.920755,5.859375,-4.8828125,-21.97265625,-18.06640625,1.0,1.0,1.0,0.0,1.m4v,1.0
2024-02-27 09:18:17.924660,1709021897.9246604,-16.11328125,-18.5546875,-7.32421875,0.48828125,1.0,1.0,1.0,0.0,1.m4v,1.0
2024-02-27 09:18:17.928566,1709021897.928566,-18.06640625,-26.3671875,-5.37109375,-14.6484375,1.0,1.0,1.0,0.0,1.m4v,1.0
2024-02-27 09:18:17.932472,1709021897.9324715,-12.6953125,-51.7578125,-28.3203125,-44.43359375,1.0,1.0,1.0,0.0,1.m4v,1.0
2024-02-27 09:18:17.936384,1709021897.936384,-21.484375,-60.05859375,-41.015625,-30.76171875,1.0,1.0,1.0,0.0,1.m4v,1.0
2024-02-27 09:18:17.940289,1709021897.9402895,-39.0625,-32.2265625,-24.90234375,-27.83203125,1.0,1.0,1.0,0.0,1.m4v,1.0
2024-02-27 09:18:17.944195,1709021897.944195,-64.453125,-18.5546875,-27.83203125,-41.50390625,1.0,1.0,1.0,0.0,1.m4v,1.0
2024-02-27 09:18:17.948101,1709021897.9481006,-59.08203125,-25.87890625,-48.828125,-53.7109375,1.0,1.0,1.0,0.0,1.m4v,1.0
2024-02-27 09:18:17.952006,1709021897.952006,-25.87890625,-28.3203125,-51.26953125,-42.96875,1.0,1.0,1.0,0.0,1.m4v,1.0
2024-02-27 09:18:17.955912,1709021897.9559116,-4.8828125,-21.97265625,-37.59765625,-24.90234375,1.0,1.0,1.0,0.0,1.m4v,1.0
2024-02-27 09:18:17.959817,1709021897.9598172,-16.11328125,-22.4609375,-20.99609375,-22.4609375,1.0,1.0,1.0,0.0,1.m4v,1.0
2024-02-27 09:18:17.963722,1709021897.9637225,-36.1328125,-33.203125,-17.578125,-28.3203125,1.0,1.0,1.0,0.0,1.m4v,1.0
2024-02-27 09:18:17.967628,1709021897.967628,-32.71484375,-36.1328125,-21.484375,-25.87890625,1.0,1.0,1.0,0.0,1.m4v,1.0
2024-02-27 09:18:17.971534,1709021897.9715335,1.953125,-18.5546875,-12.20703125,-8.7890625,1.0,1.0,1.0,0.0,1.m4v,1.0
2024-02-27 09:18:17.975439,1709021897.975439,28.80859375,-34.1796875,0.48828125,-9.765625,1.0,1.0,1.0,0.0,1.m4v,1.0
2024-02-27 09:18:17.979345,1709021897.9793446,-16.11328125,-57.6171875,-26.85546875,-43.9453125,1.0,1.0,1.0,0.0,1.m4v,1.0
2024-02-27 09:18:17.983257,1709021897.9832566,-54.19921875,-30.2734375,-51.7578125,-38.0859375,1.0,1.0,1.0,0.0,1.m4v,1.0
2024-02-27 09:18:17.987162,1709021897.987162,-35.15625,-5.859375,-39.55078125,-13.671875,1.0,1.0,1.0,0.0,1.m4v,1.0
2024-02-27 09:18:17.991068,1709021897.9910676,-27.34375,-21.484375,-27.83203125,-39.0625,1.0,1.0,1.0,0.0,1.m4v,1.0
2024-02-27 09:18:17.994973,1709021897.9949732,-40.52734375,-31.25,-20.5078125,-53.7109375,1.0,1.0,1.0,0.0,1.m4v,1.0
2024-02-27 09:18:17.998879,1709021897.9988787,-54.19921875,-29.78515625,0.0,-56.15234375,1.0,1.0,1.0,0.0,1.m4v,1.0
2024-02-27 09:18:18.002784,1709021898.0027845,-29.78515625,-11.71875,12.6953125,-42.48046875,1.0,1.0,1.0,0.0,1.m4v,1.0
2024-02-27 09:18:18.451996,1709021898.4519963,25.87890625,-53.22265625,-36.62109375,40.52734375,1.0,1.0,1.0,0.0,1.m4v,1.0
2024-02-27 09:18:18.455902,1709021898.455902,50.29296875,-43.45703125,-40.0390625,52.734375,1.0,1.0,1.0,0.0,1.m4v,1.0
2024-02-27 09:18:18.459807,1709021898.4598074,51.7578125,-32.71484375,-18.5546875,59.5703125,1.0,1.0,1.0,0.0,1.m4v,1.0
2024-02-27 09:18:18.463713,1709021898.463713,60.546875,-10.7421875,-19.53125,95.21484375,1.0,1.0,1.0,0.0,1.m4v,1.0
2024-02-27 09:18:18.467618,1709021898.4676185,63.96484375,-16.11328125,-41.50390625,116.2109375,1.0,1.0,1.0,0.0,1.m4v,1.0
2024-02-27 09:18:18.471524,1709021898.471524,58.59375,-49.31640625,-30.2734375,70.80078125,1.0,1.0,1.0,0.0,1.m4v,1.0
2024-02-27 09:18:18.475430,1709021898.4754295,31.25,-70.80078125,-22.4609375,25.390625,1.0,1.0,1.0,0.0,1.m4v,1.0
2024-02-27 09:18:18.479335,1709021898.479335,1.46484375,-73.2421875,-35.15625,22.94921875,1.0,1.0,1.0,0.0,1.m4v,1.0
2024-02-27 09:18:18.483241,1709021898.4832406,2.9296875,-65.91796875,-38.0859375,43.9453125,1.0,1.0,1.0,0.0,1.m4v,1.0
2024-02-27 09:18:18.487146,1709021898.487146,24.4140625,-51.7578125,-19.04296875,51.26953125,1.0,1.0,1.0,0.0,1.m4v,1.0
2024-02-27 09:18:18.491051,1709021898.4910514,61.03515625,-25.390625,-30.2734375,53.22265625,1.0,1.0,1.0,0.0,1.m4v,1.0
2024-02-27 09:18:18.494957,1709021898.494957,98.14453125,-16.11328125,-40.0390625,71.77734375,1.0,1.0,1.0,0.0,1.m4v,1.0
2024-02-27 09:18:18.498868,1709021898.4988675,86.42578125,-23.92578125,-14.6484375,62.98828125,1.0,1.0,1.0,0.0,1.m4v,1.0
2024-02-27 09:18:18.502773,1709021898.502773,16.11328125,-39.55078125,-25.87890625,27.83203125,1.0,1.0,1.0,0.0,1.m4v,1.0
2024-02-27 09:18:18.506679,1709021898.5066786,4.8828125,-39.0625,-35.64453125,21.484375,1.0,1.0,1.0,0.0,1.m4v,1.0
2024-02-27 09:18:18.510584,1709021898.510584,25.390625,-35.64453125,-33.203125,33.203125,1.0,1.0,1.0,0.0,1.m4v,1.0
2024-02-27 09:18:18.514490,1709021898.5144897,57.6171875,-41.015625,-7.8125,69.3359375,1.0,1.0,1.0,0.0,1.m4v,1.0
2024-02-27 09:18:18.518395,1709021898.5183952,70.3125,-36.1328125,4.39453125,60.546875,1.0,1.0,1.0,0.0,1.m4v,1.0
2024-02-27 09:18:18.522301,1709021898.5223007,33.69140625,-30.76171875,-25.87890625,40.0390625,1.0,1.0,1.0,0.0,1.m4v,1.0
2024-02-27 09:18:18.526206,1709021898.5262065,28.3203125,-28.3203125,-38.0859375,45.8984375,1.0,1.0,1.0,0.0,1.m4v,1.0
2024-02-27 09:18:18.530112,1709021898.5301116,41.50390625,-26.3671875,-29.296875,44.921875,1.0,1.0,1.0,0.0,1.m4v,1.0
2024-02-27 09:18:18.534017,1709021898.534017,39.0625,-37.109375,-43.9453125,41.9921875,1.0,1.0,1.0,0.0,1.m4v,1.0
2024-02-27 09:18:18.537923,1709021898.5379226,40.0390625,-43.45703125,-21.484375,31.25,1.0,1.0,1.0,0.0,1.m4v,1.0
2024-02-27 09:18:18.541828,1709021898.5418282,30.2734375,-37.109375,-4.8828125,28.3203125,1.0,1.0,1.0,0.0,1.m4v,1.0
2024-02-27 09:18:18.545742,1709021898.5457425,-4.8828125,-31.25,-42.48046875,24.90234375,1.0,1.0,1.0,0.0,1.m4v,1.0
2024-02-27 09:18:18.549648,1709021898.5496478,9.27734375,-36.62109375,-39.55078125,26.3671875,1.0,1.0,1.0,0.0,1.m4v,1.0
2024-02-27 09:18:18.553553,1709021898.553553,11.23046875,-50.78125,-35.64453125,2.44140625,1.0,1.0,1.0,0.0,1.m4v,1.0
2024-02-27 09:18:18.557459,1709021898.5574589,16.11328125,-41.50390625,-31.25,9.765625,1.0,1.0,1.0,0.0,1.m4v,1.0
2024-02-27 09:18:18.561364,1709021898.5613644,36.1328125,-32.2265625,-7.8125,42.96875,1.0,1.0,1.0,0.0,1.m4v,1.0
2024-02-27 09:18:18.565270,1709021898.56527,18.06640625,-22.4609375,-27.34375,25.87890625,1.0,1.0,1.0,0.0,1.m4v,1.0
2024-02-27 09:18:18.569175,1709021898.5691755,36.62109375,-4.8828125,-34.66796875,24.4140625,1.0,1.0,1.0,0.0,1.m4v,1.0
2024-02-27 09:18:18.573081,1709021898.573081,58.59375,-16.6015625,-32.2265625,35.64453125,1.0,1.0,1.0,0.0,1.m4v,1.0
2024-02-27 09:18:18.576987,1709021898.5769866,36.1328125,-26.3671875,-18.5546875,23.92578125,1.0,1.0,1.0,0.0,1.m4v,1.0
2024-02-27 09:18:18.580892,1709021898.580892,-2.9296875,-32.2265625,-14.16015625,13.671875,1.0,1.0,1.0,0.0,1.m4v,1.0
2024-02-27 09:18:18.584798,1709021898.5847976,-28.80859375,-59.08203125,-28.80859375,5.37109375,1.0,1.0,1.0,0.0,1.m4v,1.0
2024-02-27 09:18:18.588703,1709021898.5887032,-11.71875,-68.84765625,-35.64453125,0.48828125,1.0,1.0,1.0,0.0,1.m4v,1.0
2024-02-27 09:18:18.592617,1709021898.592617,21.97265625,-44.921875,-25.390625,5.859375,1.0,1.0,1.0,0.0,1.m4v,1.0
2024-02-27 09:18:18.596523,1709021898.5965226,30.76171875,-35.64453125,-35.64453125,13.18359375,1.0,1.0,1.0,0.0,1.m4v,1.0
2024-02-27 09:18:18.600428,1709021898.600428,10.25390625,-27.34375,-23.92578125,22.4609375,1.0,1.0,1.0,0.0,1.m4v,1.0
2024-02-27 09:18:18.604334,1709021898.6043336,-0.48828125,-6.8359375,0.48828125,23.4375,1.0,1.0,1.0,0.0,1.m4v,1.0
2024-02-27 09:18:18.608239,1709021898.608239,20.99609375,-6.8359375,-6.34765625,30.2734375,1.0,1.0,1.0,0.0,1.m4v,1.0
2024-02-27 09:18:18.612144,1709021898.6121445,30.2734375,-27.83203125,-18.5546875,13.671875,1.0,1.0,1.0,0.0,1.m4v,1.0
2024-02-27 09:18:18.616050,1709021898.61605,14.16015625,-41.9921875,-35.64453125,-8.7890625,1.0,1.0,1.0,0.0,1.m4v,1.0
2024-02-27 09:18:18.619956,1709021898.6199555,9.765625,-19.53125,-37.109375,1.953125,1.0,1.0,1.0,0.0,1.m4v,1.0
2024-02-27 09:18:18.623861,1709021898.623861,-3.41796875,-5.859375,-28.80859375,2.44140625,1.0,1.0,1.0,0.0,1.m4v,1.0
2024-02-27 09:18:18.627767,1709021898.6277666,9.27734375,-19.53125,-15.625,21.97265625,1.0,1.0,1.0,0.0,1.m4v,1.0
2024-02-27 09:18:18.631672,1709021898.631672,13.18359375,-49.31640625,-18.06640625,8.30078125,1.0,1.0,1.0,0.0,1.m4v,1.0
2024-02-27 09:18:18.635578,1709021898.6355777,-15.625,-81.54296875,-24.90234375,-37.59765625,1.0,1.0,1.0,0.0,1.m4v,1.0
2024-02-27 09:18:18.639491,1709021898.6394906,-27.34375,-78.125,-20.5078125,-32.71484375,1.0,1.0,1.0,0.0,1.m4v,1.0
2024-02-27 09:18:18.643396,1709021898.643396,-29.296875,-52.734375,-28.3203125,-9.27734375,1.0,1.0,1.0,0.0,1.m4v,1.0
2024-02-27 09:18:18.647302,1709021898.6473017,-16.6015625,-21.97265625,-26.3671875,1.953125,1.0,1.0,1.0,0.0,1.m4v,1.0
2024-02-27 09:18:18.651207,1709021898.6512072,14.16015625,-4.8828125,-25.87890625,8.30078125,1.0,1.0,1.0,0.0,1.m4v,1.0
2024-02-27 09:18:18.655113,1709021898.6551127,28.3203125,-23.92578125,-35.64453125,13.18359375,1.0,1.0,1.0,0.0,1.m4v,1.0
2024-02-27 09:18:18.659018,1709021898.6590185,54.19921875,-20.99609375,-22.4609375,52.734375,1.0,1.0,1.0,0.0,1.m4v,1.0
2024-02-27 09:18:18.662924,1709021898.6629238,54.6875,5.859375,-12.6953125,72.265625,1.0,1.0,1.0,0.0,1.m4v,1.0
2024-02-27 09:18:18.666829,1709021898.666829,-2.44140625,12.20703125,-15.13671875,25.390625,1.0,1.0,1.0,0.0,1.m4v,1.0
2024-02-27 09:18:18.670735,1709021898.670735,-14.16015625,-0.48828125,-3.90625,-16.6015625,1.0,1.0,1.0,0.0,1.m4v,1.0
2024-02-27 09:18:18.674640,1709021898.6746404,-13.671875,-20.5078125,-10.7421875,-59.08203125,1.0,1.0,1.0,0.0,1.m4v,1.0
2024-02-27 09:18:18.678546,1709021898.678546,-47.8515625,-33.203125,-24.4140625,-87.890625,1.0,1.0,1.0,0.0,1.m4v,1.0
2024-02-27 09:18:18.682451,1709021898.6824515,-88.37890625,-43.9453125,-30.2734375,-96.6796875,1.0,1.0,1.0,0.0,1.m4v,1.0
2024-02-27 09:18:18.686364,1709021898.686364,-96.19140625,-34.66796875,-47.8515625,-82.51953125,1.0,1.0,1.0,0.0,1.m4v,1.0
2024-02-27 09:18:18.690269,1709021898.6902697,-69.82421875,-23.92578125,-40.52734375,-76.66015625,1.0,1.0,1.0,0.0,1.m4v,1.0
2024-02-27 09:18:18.694175,1709021898.694175,-62.98828125,-30.76171875,-36.1328125,-82.51953125,1.0,1.0,1.0,0.0,1.m4v,1.0
2024-02-27 09:18:18.698080,1709021898.6980803,-87.890625,-36.1328125,-60.05859375,-73.2421875,1.0,1.0,1.0,0.0,1.m4v,1.0
2024-02-27 09:18:18.701986,1709021898.7019858,-113.76953125,-32.2265625,-68.84765625,-83.49609375,1.0,1.0,1.0,0.0,1.m4v,1.0
2024-02-27 09:18:18.705891,1709021898.7058914,-110.3515625,-15.625,-31.73828125,-91.30859375,1.0,1.0,1.0,0.0,1.m4v,1.0
2024-02-27 09:18:18.709797,1709021898.709797,-53.7109375,-5.37109375,-0.48828125,-66.40625,1.0,1.0,1.0,0.0,1.m4v,1.0
2024-02-27 09:18:18.713702,1709021898.7137024,-13.671875,-24.90234375,-3.41796875,-41.50390625,1.0,1.0,1.0,0.0,1.m4v,1.0
2024-02-27 09:18:18.717608,1709021898.717608,-46.38671875,-47.36328125,-21.484375,-59.08203125,1.0,1.0,1.0,0.0,1.m4v,1.0
2024-02-27 09:18:18.721514,1709021898.7215135,-79.1015625,-33.69140625,-30.2734375,-66.89453125,1.0,1.0,1.0,0.0,1.m4v,1.0
2024-02-27 09:18:18.725419,1709021898.725419,-73.73046875,-6.8359375,-29.78515625,-32.71484375,1.0,1.0,1.0,0.0,1.m4v,1.0
2024-02-27 09:18:18.729325,1709021898.7293246,-47.36328125,-22.94921875,-48.828125,-37.109375,1.0,1.0,1.0,0.0,1.m4v,1.0
2024-02-27 09:18:18.733237,1709021898.733237,-22.4609375,-44.921875,-52.734375,-40.52734375,1.0,1.0,1.0,0.0,1.m4v,1.0
2024-02-27 09:18:18.737143,1709021898.7371426,-29.78515625,-37.109375,-23.92578125,-35.15625,1.0,1.0,1.0,0.0,1.m4v,1.0
2024-02-27 09:18:18.741048,1709021898.741048,-67.3828125,-28.3203125,-20.01953125,-38.0859375,1.0,1.0,1.0,0.0,1.m4v,1.0
2024-02-27 09:18:18.744954,1709021898.7449536,-71.2890625,-29.78515625,-31.25,-18.06640625,1.0,1.0,1.0,0.0,1.m4v,1.0
2024-02-27 09:18:18.748859,1709021898.7488592,-58.59375,-33.203125,-35.15625,-18.06640625,1.0,1.0,1.0,0.0,1.m4v,1.0
2024-02-27 09:18:18.752765,1709021898.7527647,-22.4609375,-5.859375,-26.3671875,-19.53125,1.0,1.0,1.0,0.0,1.m4v,1.0
2024-02-27 09:18:18.756670,1709021898.75667,-22.4609375,0.9765625,-14.6484375,-19.04296875,1.0,1.0,1.0,0.0,1.m4v,1.0
2024-02-27 09:18:18.760576,1709021898.7605755,-79.1015625,-45.8984375,-34.1796875,-44.43359375,1.0,1.0,1.0,0.0,1.m4v,1.0
2024-02-27 09:18:18.764481,1709021898.764481,-81.54296875,-54.6875,-52.734375,-46.875,1.0,1.0,1.0,0.0,1.m4v,1.0
2024-02-27 09:18:18.768387,1709021898.7683866,-33.69140625,-39.0625,-28.80859375,-12.20703125,1.0,1.0,1.0,0.0,1.m4v,1.0
2024-02-27 09:18:18.772292,1709021898.772292,-8.7890625,-36.62109375,-14.6484375,-11.23046875,1.0,1.0,1.0,0.0,1.m4v,1.0
2024-02-27 09:18:18.776198,1709021898.7761977,-14.6484375,-18.06640625,-1.46484375,-19.04296875,1.0,1.0,1.0,0.0,1.m4v,1.0
2024-02-27 09:18:18.780109,1709021898.780109,-52.24609375,-22.4609375,-26.85546875,-50.29296875,1.0,1.0,1.0,0.0,1.m4v,1.0
2024-02-27 09:18:18.784014,1709021898.7840145,-83.984375,-36.1328125,-32.2265625,-57.6171875,1.0,1.0,1.0,0.0,1.m4v,1.0
2024-02-27 09:18:18.787920,1709021898.78792,-23.4375,-8.30078125,-6.8359375,-1.953125,1.0,1.0,1.0,0.0,1.m4v,1.0
2024-02-27 09:18:18.791826,1709021898.7918255,4.8828125,-9.27734375,-32.71484375,-1.953125,1.0,1.0,1.0,0.0,1.m4v,1.0
2024-02-27 09:18:18.795731,1709021898.795731,-51.7578125,-40.52734375,-46.875,-42.48046875,1.0,1.0,1.0,0.0,1.m4v,1.0
2024-02-27 09:18:18.799637,1709021898.7996366,-53.22265625,-38.0859375,-12.20703125,-48.33984375,1.0,1.0,1.0,0.0,1.m4v,1.0
2024-02-27 09:18:18.803542,1709021898.803542,-48.828125,-31.25,-13.671875,-38.0859375,1.0,1.0,1.0,0.0,1.m4v,1.0
2024-02-27 09:18:18.807448,1709021898.8074477,-42.96875,-46.38671875,-19.04296875,-16.11328125,1.0,1.0,1.0,0.0,1.m4v,1.0
2024-02-27 09:18:18.811353,1709021898.8113532,-6.34765625,-38.0859375,-15.13671875,-2.44140625,1.0,1.0,1.0,0.0,1.m4v,1.0
2024-02-27 09:18:18.815259,1709021898.8152587,5.37109375,-8.30078125,-29.78515625,0.48828125,1.0,1.0,1.0,0.0,1.m4v,1.0
2024-02-27 09:18:18.819164,1709021898.8191645,5.859375,-6.8359375,-28.3203125,-14.16015625,1.0,1.0,1.0,0.0,1.m4v,1.0
2024-02-27 09:18:18.823070,1709021898.8230698,-8.30078125,-21.484375,-35.64453125,-24.4140625,1.0,1.0,1.0,0.0,1.m4v,1.0
2024-02-27 09:18:18.826981,1709021898.8269806,-14.6484375,-34.1796875,-38.0859375,-18.06640625,1.0,1.0,1.0,0.0,1.m4v,1.0
2024-02-27 09:18:18.830886,1709021898.830886,-8.30078125,-48.33984375,-18.06640625,-8.30078125,1.0,1.0,1.0,0.0,1.m4v,1.0
2024-02-27 09:18:18.834792,1709021898.8347917,-8.7890625,-52.734375,-5.859375,-24.4140625,1.0,1.0,1.0,0.0,1.m4v,1.0
2024-02-27 09:18:18.838697,1709021898.8386972,-24.4140625,-43.45703125,-13.18359375,-57.12890625,1.0,1.0,1.0,0.0,1.m4v,1.0
2024-02-27 09:18:18.842603,1709021898.8426027,-62.98828125,-38.0859375,-17.08984375,-58.59375,1.0,1.0,1.0,0.0,1.m4v,1.0
2024-02-27 09:18:18.846508,1709021898.8465085,-14.6484375,-10.7421875,0.9765625,-21.484375,1.0,1.0,1.0,0.0,1.m4v,1.0
2024-02-27 09:18:18.850414,1709021898.8504136,37.59765625,-2.9296875,-19.53125,-3.41796875,1.0,1.0,1.0,0.0,1.m4v,1.0
2024-02-27 09:18:18.854319,1709021898.854319,6.34765625,-16.11328125,-57.12890625,-16.11328125,1.0,1.0,1.0,0.0,1.m4v,1.0
2024-02-27 09:18:18.858225,1709021898.8582246,-2.44140625,-26.85546875,-51.7578125,-8.30078125,1.0,1.0,1.0,0.0,1.m4v,1.0
2024-02-27 09:18:18.862130,1709021898.8621302,-13.18359375,-42.96875,-20.99609375,-15.625,1.0,1.0,1.0,0.0,1.m4v,1.0
2024-02-27 09:18:18.866036,1709021898.8660357,-45.41015625,-48.33984375,-13.18359375,-57.6171875,1.0,1.0,1.0,0.0,1.m4v,1.0
2024-02-27 09:18:18.869941,1709021898.8699412,-37.109375,-46.875,-14.16015625,-55.6640625,1.0,1.0,1.0,0.0,1.m4v,1.0
2024-02-27 09:18:18.873852,1709021898.8738515,0.48828125,-41.015625,-8.7890625,-22.4609375,1.0,1.0,1.0,0.0,1.m4v,1.0
2024-02-27 09:18:18.877757,1709021898.877757,23.4375,-20.5078125,-10.25390625,-11.23046875,1.0,1.0,1.0,0.0,1.m4v,1.0
2024-02-27 09:18:18.881662,1709021898.8816624,-13.671875,-3.41796875,-18.06640625,-32.71484375,1.0,1.0,1.0,0.0,1.m4v,1.0
2024-02-27 09:18:18.885568,1709021898.885568,-36.62109375,-4.39453125,-20.99609375,-39.55078125,1.0,1.0,1.0,0.0,1.m4v,1.0
2024-02-27 09:18:18.889473,1709021898.8894734,11.23046875,-9.27734375,-3.90625,-12.20703125,1.0,1.0,1.0,0.0,1.m4v,1.0
2024-02-27 09:18:18.893379,1709021898.893379,36.1328125,-28.80859375,-1.46484375,-10.7421875,1.0,1.0,1.0,0.0,1.m4v,1.0
2024-02-27 09:18:18.897285,1709021898.8972845,14.6484375,-52.24609375,-21.484375,-27.34375,1.0,1.0,1.0,0.0,1.m4v,1.0
2024-02-27 09:18:18.901190,1709021898.90119,-31.73828125,-77.63671875,-50.78125,-35.15625,1.0,1.0,1.0,0.0,1.m4v,1.0
2024-02-27 09:18:18.905096,1709021898.9050956,-32.2265625,-54.6875,-49.8046875,-12.20703125,1.0,1.0,1.0,0.0,1.m4v,1.0
2024-02-27 09:18:18.909001,1709021898.909001,-2.9296875,-18.5546875,-29.296875,-7.8125,1.0,1.0,1.0,0.0,1.m4v,1.0
2024-02-27 09:18:18.912907,1709021898.9129066,-0.48828125,-17.578125,-36.62109375,-34.1796875,1.0,1.0,1.0,0.0,1.m4v,1.0
2024-02-27 09:18:18.916812,1709021898.9168122,27.34375,-6.34765625,-15.625,-14.16015625,1.0,1.0,1.0,0.0,1.m4v,1.0
2024-02-27 09:18:18.920726,1709021898.9207263,17.08984375,-8.30078125,-3.41796875,3.90625,1.0,1.0,1.0,0.0,1.m4v,1.0
2024-02-27 09:18:18.924632,1709021898.9246318,-14.16015625,-14.16015625,-7.32421875,-10.7421875,1.0,1.0,1.0,0.0,1.m4v,1.0
2024-02-27 09:18:18.928537,1709021898.9285374,18.06640625,-28.80859375,5.859375,-12.20703125,1.0,1.0,1.0,0.0,1.m4v,1.0
2024-02-27 09:18:18.932443,1709021898.932443,28.80859375,-40.0390625,-2.44140625,-27.83203125,1.0,1.0,1.0,0.0,1.m4v,1.0
2024-02-27 09:18:18.936348,1709021898.9363484,-20.99609375,-35.64453125,-34.66796875,-52.24609375,1.0,1.0,1.0,0.0,1.m4v,1.0
2024-02-27 09:18:18.940254,1709021898.940254,-38.0859375,-43.45703125,-36.1328125,-61.5234375,1.0,1.0,1.0,0.0,1.m4v,1.0
2024-02-27 09:18:18.944160,1709021898.9441595,-24.4140625,-48.33984375,-26.3671875,-47.8515625,1.0,1.0,1.0,0.0,1.m4v,1.0
2024-02-27 09:18:18.948065,1709021898.948065,-12.20703125,-39.0625,-39.55078125,-10.7421875,1.0,1.0,1.0,0.0,1.m4v,1.0
2024-02-27 09:18:18.951971,1709021898.9519706,7.8125,-17.08984375,-31.25,-5.37109375,1.0,1.0,1.0,0.0,1.m4v,1.0
2024-02-27 09:18:18.955876,1709021898.955876,16.11328125,-12.6953125,-37.109375,-30.76171875,1.0,1.0,1.0,0.0,1.m4v,1.0
2024-02-27 09:18:18.959782,1709021898.9597816,1.46484375,-16.11328125,-25.87890625,-8.30078125,1.0,1.0,1.0,0.0,1.m4v,1.0
2024-02-27 09:18:18.963687,1709021898.9636872,-7.8125,-21.484375,5.37109375,-0.9765625,1.0,1.0,1.0,0.0,1.m4v,1.0
2024-02-27 09:18:18.967601,1709021898.967601,-14.16015625,-38.0859375,-24.4140625,-29.296875,1.0,1.0,1.0,0.0,1.m4v,1.0
2024-02-27 09:18:18.971507,1709021898.9715066,-3.41796875,-41.50390625,-40.0390625,-40.52734375,1.0,1.0,1.0,0.0,1.m4v,1.0
2024-02-27 09:18:18.975412,1709021898.975412,0.0,-36.62109375,-23.92578125,-51.26953125,1.0,1.0,1.0,0.0,1.m4v,1.0
2024-02-27 09:18:18.979318,1709021898.9793177,-17.08984375,-35.64453125,-17.578125,-53.22265625,1.0,1.0,1.0,0.0,1.m4v,1.0
2024-02-27 09:18:18.983223,1709021898.983223,-15.625,-17.08984375,-6.8359375,-33.69140625,1.0,1.0,1.0,0.0,1.m4v,1.0
2024-02-27 09:18:18.987128,1709021898.9871285,9.27734375,-15.625,-20.5078125,-22.94921875,1.0,1.0,1.0,0.0,1.m4v,1.0
2024-02-27 09:18:18.991034,1709021898.991034,31.25,-20.99609375,-32.2265625,-14.6484375,1.0,1.0,1.0,0.0,1.m4v,1.0
2024-02-27 09:18:18.994940,1709021898.9949396,35.15625,2.9296875,-17.578125,6.34765625,1.0,1.0,1.0,0.0,1.m4v,1.0
2024-02-27 09:18:18.998845,1709021898.998845,29.78515625,-5.859375,-25.87890625,19.53125,1.0,1.0,1.0,0.0,1.m4v,1.0
2024-02-27 09:18:19.002751,1709021899.0027506,-8.7890625,-38.57421875,-32.2265625,-8.30078125,1.0,1.0,1.0,0.0,1.m4v,1.0
2024-02-27 09:18:19.006656,1709021899.0066562,-25.87890625,-35.15625,-22.4609375,-26.85546875,1.0,1.0,1.0,0.0,1.m4v,1.0
2024-02-27 09:18:19.010562,1709021899.0105617,15.13671875,-14.6484375,-7.8125,-12.6953125,1.0,1.0,1.0,0.0,1.m4v,1.0
2024-02-27 09:18:19.014475,1709021899.0144746,32.2265625,-26.85546875,-5.859375,-11.71875,1.0,1.0,1.0,0.0,1.m4v,1.0
2024-02-27 09:18:19.018380,1709021899.0183802,0.9765625,-48.33984375,-30.2734375,-41.015625,1.0,1.0,1.0,0.0,1.m4v,1.0
2024-02-27 09:18:19.022286,1709021899.0222857,-29.296875,-41.50390625,-41.9921875,-33.203125,1.0,1.0,1.0,0.0,1.m4v,1.0
2024-02-27 09:18:19.026191,1709021899.0261912,-6.8359375,-22.4609375,-31.73828125,-10.25390625,1.0,1.0,1.0,0.0,1.m4v,1.0
2024-02-27 09:18:19.030097,1709021899.0300968,36.1328125,-14.16015625,-24.4140625,-18.5546875,1.0,1.0,1.0,0.0,1.m4v,1.0
2024-02-27 09:18:19.034002,1709021899.0340023,18.06640625,-34.1796875,-20.99609375,-23.92578125,1.0,1.0,1.0,0.0,1.m4v,1.0
2024-02-27 09:18:19.444147,1709021899.4441469,-29.296875,-5.859375,-6.34765625,-7.32421875,1.0,1.0,1.0,0.0,1.m4v,1.0
2024-02-27 09:18:19.448052,1709021899.4480524,27.34375,28.80859375,3.41796875,24.90234375,1.0,1.0,1.0,0.0,1.m4v,1.0
2024-02-27 09:18:19.451958,1709021899.451958,17.08984375,14.16015625,-31.73828125,-2.9296875,1.0,1.0,1.0,0.0,1.m4v,1.0
2024-02-27 09:18:19.455863,1709021899.4558637,-27.83203125,-22.4609375,-51.26953125,-34.66796875,1.0,1.0,1.0,0.0,1.m4v,1.0
2024-02-27 09:18:19.459769,1709021899.459769,-42.96875,-33.203125,-33.203125,-62.01171875,1.0,1.0,1.0,0.0,1.m4v,1.0
2024-02-27 09:18:19.463675,1709021899.4636743,-70.80078125,-53.22265625,-22.4609375,-55.6640625,1.0,1.0,1.0,0.0,1.m4v,1.0
2024-02-27 09:18:19.467580,1709021899.46758,-78.61328125,-72.75390625,-25.87890625,-34.1796875,1.0,1.0,1.0,0.0,1.m4v,1.0
2024-02-27 09:18:19.471486,1709021899.4714856,-35.64453125,-58.59375,-26.3671875,-36.1328125,1.0,1.0,1.0,0.0,1.m4v,1.0
2024-02-27 09:18:19.475391,1709021899.4753911,-6.34765625,-37.109375,-20.01953125,-25.390625,1.0,1.0,1.0,0.0,1.m4v,1.0
2024-02-27 09:18:19.479297,1709021899.4792967,-43.9453125,-26.3671875,-17.08984375,-17.578125,1.0,1.0,1.0,0.0,1.m4v,1.0
2024-02-27 09:18:19.483209,1709021899.483209,-65.91796875,-25.390625,-10.7421875,-36.1328125,1.0,1.0,1.0,0.0,1.m4v,1.0
2024-02-27 09:18:19.487114,1709021899.4871142,-32.71484375,-14.16015625,-5.37109375,-11.71875,1.0,1.0,1.0,0.0,1.m4v,1.0
2024-02-27 09:18:19.491019,1709021899.4910195,-18.5546875,-19.53125,-14.6484375,-20.99609375,1.0,1.0,1.0,0.0,1.m4v,1.0
2024-02-27 09:18:19.494925,1709021899.494925,-37.109375,-22.94921875,-31.25,-61.03515625,1.0,1.0,1.0,0.0,1.m4v,1.0
2024-02-27 09:18:19.498831,1709021899.4988306,-30.2734375,-7.32421875,-19.04296875,-35.64453125,1.0,1.0,1.0,0.0,1.m4v,1.0
2024-02-27 09:18:19.502736,1709021899.502736,-22.4609375,4.39453125,-11.71875,-9.27734375,1.0,1.0,1.0,0.0,1.m4v,1.0
2024-02-27 09:18:19.506642,1709021899.5066416,-29.78515625,-13.671875,-31.73828125,-20.01953125,1.0,1.0,1.0,0.0,1.m4v,1.0
2024-02-27 09:18:19.510547,1709021899.5105472,-17.08984375,-41.9921875,-44.921875,-32.2265625,1.0,1.0,1.0,0.0,1.m4v,1.0
2024-02-27 09:18:19.514453,1709021899.5144527,-3.90625,-48.33984375,-20.01953125,-30.2734375,1.0,1.0,1.0,0.0,1.m4v,1.0
2024-02-27 09:18:19.518358,1709021899.5183582,-15.13671875,-49.8046875,4.39453125,-22.94921875,1.0,1.0,1.0,0.0,1.m4v,1.0
2024-02-27 09:18:19.522264,1709021899.5222638,-48.828125,-51.26953125,-20.5078125,-20.99609375,1.0,1.0,1.0,0.0,1.m4v,1.0
2024-02-27 09:18:19.526169,1709021899.5261693,-59.08203125,-54.6875,-42.96875,-13.18359375,1.0,1.0,1.0,0.0,1.m4v,1.0
2024-02-27 09:18:19.530080,1709021899.5300803,-9.765625,-26.85546875,-17.578125,-3.90625,1.0,1.0,1.0,0.0,1.m4v,1.0
2024-02-27 09:18:19.533986,1709021899.533986,1.46484375,-12.6953125,-18.5546875,-21.97265625,1.0,1.0,1.0,0.0,1.m4v,1.0
2024-02-27 09:18:19.537891,1709021899.5378914,-1.953125,-12.20703125,-32.71484375,-18.06640625,1.0,1.0,1.0,0.0,1.m4v,1.0
2024-02-27 09:18:19.541797,1709021899.541797,-36.62109375,-20.99609375,-34.66796875,-21.97265625,1.0,1.0,1.0,0.0,1.m4v,1.0
2024-02-27 09:18:19.545702,1709021899.5457022,-70.3125,-29.78515625,-50.78125,-37.59765625,1.0,1.0,1.0,0.0,1.m4v,1.0
2024-02-27 09:18:19.549608,1709021899.5496078,-29.78515625,-30.2734375,-31.25,-16.11328125,1.0,1.0,1.0,0.0,1.m4v,1.0
2024-02-27 09:18:19.553513,1709021899.5535133,-17.578125,-54.6875,-9.27734375,-26.85546875,1.0,1.0,1.0,0.0,1.m4v,1.0
2024-02-27 09:18:19.557419,1709021899.5574188,-35.15625,-57.12890625,-8.30078125,-50.78125,1.0,1.0,1.0,0.0,1.m4v,1.0
2024-02-27 09:18:19.561324,1709021899.5613244,-60.546875,-53.7109375,-16.6015625,-50.78125,1.0,1.0,1.0,0.0,1.m4v,1.0
2024-02-27 09:18:19.565230,1709021899.56523,-51.7578125,-38.57421875,-14.16015625,-47.8515625,1.0,1.0,1.0,0.0,1.m4v,1.0
2024-02-27 09:18:19.569135,1709021899.5691354,-27.34375,-19.53125,-20.99609375,-46.38671875,1.0,1.0,1.0,0.0,1.m4v,1.0
2024-02-27 09:18:19.573041,1709021899.573041,-23.4375,-14.6484375,-38.0859375,-39.0625,1.0,1.0,1.0,0.0,1.m4v,1.0
2024-02-27 09:18:19.576952,1709021899.576952,-20.99609375,-10.7421875,-42.96875,-39.55078125,1.0,1.0,1.0,0.0,1.m4v,1.0
2024-02-27 09:18:19.580858,1709021899.5808575,-23.4375,-4.8828125,-51.7578125,-17.08984375,1.0,1.0,1.0,0.0,1.m4v,1.0
2024-02-27 09:18:19.584763,1709021899.584763,-8.30078125,-11.71875,-50.78125,29.296875,1.0,1.0,1.0,0.0,1.m4v,1.0
2024-02-27 09:18:19.588669,1709021899.5886686,-9.765625,-55.17578125,-29.296875,8.7890625,1.0,1.0,1.0,0.0,1.m4v,1.0
2024-02-27 09:18:19.592574,1709021899.592574,-37.59765625,-77.63671875,-17.578125,-46.875,1.0,1.0,1.0,0.0,1.m4v,1.0
2024-02-27 09:18:19.596480,1709021899.5964797,-42.96875,-50.29296875,-17.578125,-51.7578125,1.0,1.0,1.0,0.0,1.m4v,1.0
2024-02-27 09:18:19.600385,1709021899.6003852,-42.48046875,-27.83203125,-21.484375,-38.57421875,1.0,1.0,1.0,0.0,1.m4v,1.0
2024-02-27 09:18:19.604291,1709021899.6042907,-48.828125,-27.83203125,-9.765625,-29.296875,1.0,1.0,1.0,0.0,1.m4v,1.0
2024-02-27 09:18:19.608196,1709021899.608196,-46.38671875,-27.83203125,-9.765625,-41.015625,1.0,1.0,1.0,0.0,1.m4v,1.0
2024-02-27 09:18:19.612102,1709021899.6121016,-35.64453125,-18.06640625,-20.01953125,-57.6171875,1.0,1.0,1.0,0.0,1.m4v,1.0
2024-02-27 09:18:19.616007,1709021899.616007,-5.859375,-11.71875,-38.0859375,-43.45703125,1.0,1.0,1.0,0.0,1.m4v,1.0
2024-02-27 09:18:19.619913,1709021899.6199126,6.8359375,-2.44140625,-65.91796875,-7.8125,1.0,1.0,1.0,0.0,1.m4v,1.0
2024-02-27 09:18:19.623827,1709021899.6238277,-23.4375,-11.71875,-62.01171875,4.39453125,1.0,1.0,1.0,0.0,1.m4v,1.0
2024-02-27 09:18:19.627733,1709021899.6277328,-25.87890625,-35.64453125,-36.1328125,-26.85546875,1.0,1.0,1.0,0.0,1.m4v,1.0
2024-02-27 09:18:19.631638,1709021899.6316383,-19.04296875,-47.8515625,-17.08984375,-41.015625,1.0,1.0,1.0,0.0,1.m4v,1.0
2024-02-27 09:18:19.635544,1709021899.6355438,-31.73828125,-59.5703125,-10.25390625,-32.71484375,1.0,1.0,1.0,0.0,1.m4v,1.0
2024-02-27 09:18:19.639449,1709021899.6394494,-42.48046875,-63.4765625,-24.90234375,-52.24609375,1.0,1.0,1.0,0.0,1.m4v,1.0
2024-02-27 09:18:19.643355,1709021899.643355,-55.6640625,-33.69140625,-26.3671875,-55.6640625,1.0,1.0,1.0,0.0,1.m4v,1.0
2024-02-27 09:18:19.647260,1709021899.6472604,-27.83203125,0.48828125,-11.71875,-33.69140625,1.0,1.0,1.0,0.0,1.m4v,1.0
2024-02-27 09:18:19.651166,1709021899.651166,-8.30078125,4.39453125,-15.625,-20.99609375,1.0,1.0,1.0,0.0,1.m4v,1.0
2024-02-27 09:18:19.655071,1709021899.6550715,13.18359375,15.13671875,6.34765625,15.625,1.0,1.0,1.0,0.0,1.m4v,1.0
2024-02-27 09:18:19.658977,1709021899.658977,-10.25390625,-10.25390625,-9.27734375,-4.8828125,1.0,1.0,1.0,0.0,1.m4v,1.0
2024-02-27 09:18:19.662883,1709021899.6628826,-63.96484375,-39.55078125,-54.6875,-41.9921875,1.0,1.0,1.0,0.0,1.m4v,1.0
2024-02-27 09:18:19.666788,1709021899.666788,-45.8984375,-24.90234375,-62.5,-13.18359375,1.0,1.0,1.0,0.0,1.m4v,1.0
2024-02-27 09:18:19.670703,1709021899.670703,-13.671875,-21.484375,-29.296875,-7.32421875,1.0,1.0,1.0,0.0,1.m4v,1.0
2024-02-27 09:18:19.674608,1709021899.6746085,-16.11328125,-39.55078125,-5.37109375,-26.3671875,1.0,1.0,1.0,0.0,1.m4v,1.0
2024-02-27 09:18:19.678514,1709021899.678514,-30.2734375,-32.2265625,-8.7890625,-16.11328125,1.0,1.0,1.0,0.0,1.m4v,1.0
2024-02-27 09:18:19.682419,1709021899.6824193,-58.10546875,-21.97265625,2.9296875,-13.18359375,1.0,1.0,1.0,0.0,1.m4v,1.0
2024-02-27 09:18:19.686325,1709021899.6863248,-60.05859375,-35.64453125,4.39453125,-35.15625,1.0,1.0,1.0,0.0,1.m4v,1.0
2024-02-27 09:18:19.690230,1709021899.6902304,-41.015625,-43.9453125,-29.296875,-41.9921875,1.0,1.0,1.0,0.0,1.m4v,1.0
2024-02-27 09:18:19.694136,1709021899.694136,-28.80859375,-26.3671875,-49.31640625,-32.2265625,1.0,1.0,1.0,0.0,1.m4v,1.0
2024-02-27 09:18:19.698041,1709021899.6980414,-22.94921875,-7.8125,-32.71484375,-32.71484375,1.0,1.0,1.0,0.0,1.m4v,1.0
2024-02-27 09:18:19.701947,1709021899.701947,-40.52734375,-6.34765625,-5.859375,-10.25390625,1.0,1.0,1.0,0.0,1.m4v,1.0
2024-02-27 09:18:19.705853,1709021899.7058525,-35.64453125,-30.76171875,-35.64453125,0.0,1.0,1.0,1.0,0.0,1.m4v,1.0
2024-02-27 09:18:19.709758,1709021899.709758,-27.83203125,-42.96875,-69.3359375,-22.94921875,1.0,1.0,1.0,0.0,1.m4v,1.0
2024-02-27 09:18:19.713664,1709021899.7136636,-18.5546875,-28.3203125,-36.1328125,-40.0390625,1.0,1.0,1.0,0.0,1.m4v,1.0
2024-02-27 09:18:19.717577,1709021899.7175772,-14.16015625,-16.6015625,0.0,-32.71484375,1.0,1.0,1.0,0.0,1.m4v,1.0
2024-02-27 09:18:19.721483,1709021899.7214828,-58.10546875,-31.73828125,-8.7890625,-22.94921875,1.0,1.0,1.0,0.0,1.m4v,1.0
2024-02-27 09:18:19.725388,1709021899.7253883,-93.75,-42.96875,-24.4140625,-52.24609375,1.0,1.0,1.0,0.0,1.m4v,1.0
2024-02-27 09:18:19.729294,1709021899.7292938,-73.2421875,-25.87890625,-25.87890625,-58.59375,1.0,1.0,1.0,0.0,1.m4v,1.0
2024-02-27 09:18:19.733199,1709021899.7331994,-38.0859375,-20.5078125,-23.4375,-32.2265625,1.0,1.0,1.0,0.0,1.m4v,1.0
2024-02-27 09:18:19.737105,1709021899.737105,-20.01953125,-13.671875,-20.5078125,-22.4609375,1.0,1.0,1.0,0.0,1.m4v,1.0
2024-02-27 09:18:19.741010,1709021899.7410102,-41.015625,-13.671875,-53.7109375,-30.2734375,1.0,1.0,1.0,0.0,1.m4v,1.0
2024-02-27 09:18:19.744916,1709021899.7449155,-53.7109375,-37.59765625,-60.546875,-12.6953125,1.0,1.0,1.0,0.0,1.m4v,1.0
2024-02-27 09:18:19.748821,1709021899.7488213,0.0,-41.50390625,-30.2734375,22.94921875,1.0,1.0,1.0,0.0,1.m4v,1.0
2024-02-27 09:18:19.752727,1709021899.7527268,3.90625,-44.43359375,-17.578125,-18.06640625,1.0,1.0,1.0,0.0,1.m4v,1.0
2024-02-27 09:18:19.756632,1709021899.7566323,-53.7109375,-41.50390625,-23.4375,-59.5703125,1.0,1.0,1.0,0.0,1.m4v,1.0
2024-02-27 09:18:19.760538,1709021899.760538,-62.98828125,-20.01953125,-12.6953125,-44.921875,1.0,1.0,1.0,0.0,1.m4v,1.0
2024-02-27 09:18:19.764451,1709021899.764451,-81.0546875,-20.01953125,-9.27734375,-45.41015625,1.0,1.0,1.0,0.0,1.m4v,1.0
2024-02-27 09:18:19.768357,1709021899.7683566,-61.5234375,-30.2734375,-21.97265625,-32.2265625,1.0,1.0,1.0,0.0,1.m4v,1.0
2024-02-27 09:18:19.772262,1709021899.772262,-27.34375,-23.92578125,-40.0390625,-26.3671875,1.0,1.0,1.0,0.0,1.m4v,1.0
2024-02-27 09:18:19.776167,1709021899.7761674,-20.99609375,-19.04296875,-39.0625,-32.71484375,1.0,1.0,1.0,0.0,1.m4v,1.0
2024-02-27 09:18:19.780073,1709021899.780073,-22.4609375,-25.390625,-8.30078125,-18.5546875,1.0,1.0,1.0,0.0,1.m4v,1.0
2024-02-27 09:18:19.783978,1709021899.7839785,-82.51953125,-40.0390625,-36.1328125,-52.24609375,1.0,1.0,1.0,0.0,1.m4v,1.0
2024-02-27 09:18:19.787884,1709021899.787884,-73.73046875,-39.55078125,-45.8984375,-58.10546875,1.0,1.0,1.0,0.0,1.m4v,1.0
2024-02-27 09:18:19.791790,1709021899.7917895,-35.15625,-41.9921875,-29.78515625,-34.66796875,1.0,1.0,1.0,0.0,1.m4v,1.0
2024-02-27 09:18:19.795695,1709021899.795695,-50.78125,-38.57421875,-33.69140625,-43.9453125,1.0,1.0,1.0,0.0,1.m4v,1.0
2024-02-27 09:18:19.799601,1709021899.7996006,-46.38671875,-8.7890625,-23.92578125,-22.94921875,1.0,1.0,1.0,0.0,1.m4v,1.0
2024-02-27 09:18:19.803506,1709021899.803506,-49.8046875,-0.9765625,-20.5078125,2.9296875,1.0,1.0,1.0,0.0,1.m4v,1.0
2024-02-27 09:18:19.807412,1709021899.8074117,-59.5703125,-43.45703125,-23.92578125,-22.4609375,1.0,1.0,1.0,0.0,1.m4v,1.0
2024-02-27 09:18:19.811324,1709021899.8113244,-42.96875,-48.33984375,-28.3203125,-41.50390625,1.0,1.0,1.0,0.0,1.m4v,1.0
2024-02-27 09:18:19.815230,1709021899.81523,-44.43359375,-16.11328125,-34.66796875,-31.73828125,1.0,1.0,1.0,0.0,1.m4v,1.0
2024-02-27 09:18:19.819135,1709021899.8191354,-44.43359375,-9.27734375,-16.6015625,-28.3203125,1.0,1.0,1.0,0.0,1.m4v,1.0
2024-02-27 09:18:19.823041,1709021899.823041,-93.26171875,-40.0390625,-21.484375,-41.50390625,1.0,1.0,1.0,0.0,1.m4v,1.0
2024-02-27 09:18:19.826946,1709021899.8269465,-136.71875,-53.7109375,-40.52734375,-58.10546875,1.0,1.0,1.0,0.0,1.m4v,1.0
2024-02-27 09:18:19.830852,1709021899.830852,-102.5390625,-39.0625,-40.52734375,-54.6875,1.0,1.0,1.0,0.0,1.m4v,1.0
2024-02-27 09:18:19.834758,1709021899.8347576,-62.01171875,-18.5546875,-37.109375,-25.87890625,1.0,1.0,1.0,0.0,1.m4v,1.0
2024-02-27 09:18:19.838663,1709021899.838663,-57.12890625,-11.23046875,-27.34375,-19.53125,1.0,1.0,1.0,0.0,1.m4v,1.0
2024-02-27 09:18:19.842568,1709021899.8425684,-82.51953125,-13.671875,-25.390625,-26.85546875,1.0,1.0,1.0,0.0,1.m4v,1.0
2024-02-27 09:18:19.846474,1709021899.846474,-106.4453125,-20.01953125,-29.78515625,-32.2265625,1.0,1.0,1.0,0.0,1.m4v,1.0
2024-02-27 09:18:19.850379,1709021899.8503797,-89.35546875,-19.04296875,-18.06640625,-28.80859375,1.0,1.0,1.0,0.0,1.m4v,1.0
2024-02-27 09:18:19.854285,1709021899.854285,-62.01171875,-30.76171875,-8.30078125,-25.87890625,1.0,1.0,1.0,0.0,1.m4v,1.0
2024-02-27 09:18:19.858197,1709021899.858197,-99.609375,-71.77734375,-11.23046875,-52.734375,1.0,1.0,1.0,0.0,1.m4v,1.0
2024-02-27 09:18:19.862103,1709021899.8621025,-124.51171875,-64.94140625,-26.85546875,-67.87109375,1.0,1.0,1.0,0.0,1.m4v,1.0
2024-02-27 09:18:19.866008,1709021899.866008,-113.76953125,-37.109375,-31.73828125,-51.26953125,1.0,1.0,1.0,0.0,1.m4v,1.0
2024-02-27 09:18:19.869914,1709021899.8699136,-78.61328125,-19.04296875,-25.390625,-26.3671875,1.0,1.0,1.0,0.0,1.m4v,1.0
2024-02-27 09:18:19.873819,1709021899.873819,-69.3359375,-6.34765625,-28.3203125,-12.6953125,1.0,1.0,1.0,0.0,1.m4v,1.0
2024-02-27 09:18:19.877725,1709021899.8777246,-83.49609375,-10.7421875,-41.015625,-28.3203125,1.0,1.0,1.0,0.0,1.m4v,1.0
2024-02-27 09:18:19.881630,1709021899.8816302,-77.1484375,-13.18359375,-52.24609375,-36.62109375,1.0,1.0,1.0,0.0,1.m4v,1.0
2024-02-27 09:18:19.885536,1709021899.8855357,-92.28515625,-19.53125,-46.38671875,-21.97265625,1.0,1.0,1.0,0.0,1.m4v,1.0
2024-02-27 09:18:19.889441,1709021899.889441,-113.76953125,-40.0390625,-38.57421875,-47.8515625,1.0,1.0,1.0,0.0,1.m4v,1.0
2024-02-27 09:18:19.893347,1709021899.8933463,-108.3984375,-36.62109375,-31.25,-65.4296875,1.0,1.0,1.0,0.0,1.m4v,1.0
2024-02-27 09:18:19.897252,1709021899.897252,-98.6328125,-16.11328125,-23.4375,-50.78125,1.0,1.0,1.0,0.0,1.m4v,1.0
2024-02-27 09:18:19.901158,1709021899.9011576,-91.796875,-34.66796875,-19.04296875,-36.1328125,1.0,1.0,1.0,0.0,1.m4v,1.0
2024-02-27 09:18:19.905069,1709021899.905069,-93.26171875,-59.5703125,-16.11328125,-36.1328125,1.0,1.0,1.0,0.0,1.m4v,1.0
2024-02-27 09:18:19.908975,1709021899.9089746,-57.12890625,-42.48046875,-8.30078125,-17.08984375,1.0,1.0,1.0,0.0,1.m4v,1.0
2024-02-27 09:18:19.912880,1709021899.9128802,-29.78515625,-10.7421875,-3.41796875,-6.34765625,1.0,1.0,1.0,0.0,1.m4v,1.0
2024-02-27 09:18:19.916786,1709021899.9167857,-34.66796875,11.23046875,-14.6484375,-20.5078125,1.0,1.0,1.0,0.0,1.m4v,1.0
2024-02-27 09:18:19.920691,1709021899.9206913,-55.17578125,-6.8359375,-39.55078125,-17.578125,1.0,1.0,1.0,0.0,1.m4v,1.0
2024-02-27 09:18:19.924597,1709021899.9245968,-85.9375,-29.296875,-62.01171875,-19.04296875,1.0,1.0,1.0,0.0,1.m4v,1.0
2024-02-27 09:18:19.928502,1709021899.928502,-87.40234375,-39.0625,-52.24609375,-53.22265625,1.0,1.0,1.0,0.0,1.m4v,1.0
2024-02-27 09:18:19.932408,1709021899.9324076,-62.5,-45.8984375,-25.390625,-52.24609375,1.0,1.0,1.0,0.0,1.m4v,1.0
2024-02-27 09:18:19.936313,1709021899.9363132,-41.015625,-51.7578125,-24.4140625,-18.06640625,1.0,1.0,1.0,0.0,1.m4v,1.0
2024-02-27 09:18:19.940219,1709021899.9402187,-57.12890625,-57.12890625,-41.015625,-38.57421875,1.0,1.0,1.0,0.0,1.m4v,1.0
2024-02-27 09:18:19.944124,1709021899.9441242,-62.01171875,-45.41015625,-20.5078125,-41.015625,1.0,1.0,1.0,0.0,1.m4v,1.0
2024-02-27 09:18:19.948030,1709021899.9480298,-45.41015625,-28.80859375,8.7890625,-22.94921875,1.0,1.0,1.0,0.0,1.m4v,1.0
2024-02-27 09:18:19.951941,1709021899.9519403,-36.1328125,-22.94921875,3.90625,-35.15625,1.0,1.0,1.0,0.0,1.m4v,1.0
2024-02-27 09:18:19.955846,1709021899.955846,-38.0859375,-11.23046875,-18.06640625,-39.0625,1.0,1.0,1.0,0.0,1.m4v,1.0
2024-02-27 09:18:19.959752,1709021899.9597516,-52.734375,-13.18359375,-36.62109375,-39.55078125,1.0,1.0,1.0,0.0,1.m4v,1.0
2024-02-27 09:18:19.963657,1709021899.9636571,-53.22265625,-23.4375,-45.41015625,-16.6015625,1.0,1.0,1.0,0.0,1.m4v,1.0
2024-02-27 09:18:19.967563,1709021899.967563,-53.7109375,-34.66796875,-41.50390625,-3.41796875,1.0,1.0,1.0,0.0,1.m4v,1.0
2024-02-27 09:18:19.971468,1709021899.9714682,-39.55078125,-37.109375,-42.96875,-37.59765625,1.0,1.0,1.0,0.0,1.m4v,1.0
2024-02-27 09:18:19.975374,1709021899.9753735,-18.06640625,-28.3203125,-23.92578125,-29.296875,1.0,1.0,1.0,0.0,1.m4v,1.0
2024-02-27 09:18:19.979279,1709021899.979279,-42.96875,-32.2265625,-18.06640625,-30.2734375,1.0,1.0,1.0,0.0,1.m4v,1.0
2024-02-27 09:18:19.983185,1709021899.9831846,-69.3359375,-32.71484375,-24.90234375,-41.9921875,1.0,1.0,1.0,0.0,1.m4v,1.0
2024-02-27 09:18:19.987090,1709021899.98709,-44.921875,-45.8984375,-12.6953125,-27.83203125,1.0,1.0,1.0,0.0,1.m4v,1.0
2024-02-27 09:18:19.990996,1709021899.9909956,-9.765625,-36.1328125,3.90625,-39.0625,1.0,1.0,1.0,0.0,1.m4v,1.0
2024-02-27 09:18:19.994901,1709021899.9949012,-12.20703125,-25.390625,1.953125,-32.71484375,1.0,1.0,1.0,0.0,1.m4v,1.0
2024-02-27 09:18:19.998812,1709021899.9988115,-17.08984375,-28.80859375,-5.37109375,-23.4375,1.0,1.0,1.0,0.0,1.m4v,1.0
2024-02-27 09:18:20.002717,1709021900.0027173,-32.71484375,-12.6953125,-29.78515625,-20.5078125,1.0,1.0,1.0,0.0,1.m4v,1.0
2024-02-27 09:18:20.006623,1709021900.0066228,-51.26953125,0.9765625,-62.5,6.34765625,1.0,1.0,1.0,0.0,1.m4v,1.0
2024-02-27 09:18:20.010528,1709021900.0105283,-31.25,-13.671875,-56.640625,-16.6015625,1.0,1.0,1.0,0.0,1.m4v,1.0
2024-02-27 09:18:20.014434,1709021900.014434,-11.23046875,-33.69140625,-23.92578125,-33.69140625,1.0,1.0,1.0,0.0,1.m4v,1.0
2024-02-27 09:18:20.018339,1709021900.0183394,16.11328125,-35.64453125,-4.39453125,-12.20703125,1.0,1.0,1.0,0.0,1.m4v,1.0
2024-02-27 09:18:20.022245,1709021900.022245,-11.23046875,-35.64453125,0.9765625,-20.99609375,1.0,1.0,1.0,0.0,1.m4v,1.0
2024-02-27 09:18:20.026150,1709021900.0261502,-58.59375,-30.76171875,12.20703125,-45.8984375,1.0,1.0,1.0,0.0,1.m4v,1.0
2024-02-27 09:18:20.467553,1709021900.467553,-30.2734375,-37.109375,-15.13671875,-23.92578125,1.0,1.0,1.0,0.0,1.m4v,1.0
2024-02-27 09:18:20.471458,1709021900.4714584,-12.20703125,-27.34375,-22.4609375,-23.92578125,1.0,1.0,1.0,0.0,1.m4v,1.0
2024-02-27 09:18:20.475364,1709021900.475364,-0.9765625,-15.625,-27.83203125,-18.06640625,1.0,1.0,1.0,0.0,1.m4v,1.0
2024-02-27 09:18:20.479270,1709021900.4792695,-5.859375,-14.16015625,-15.625,-19.04296875,1.0,1.0,1.0,0.0,1.m4v,1.0
2024-02-27 09:18:20.483175,1709021900.483175,-29.296875,-8.30078125,-30.76171875,-18.06640625,1.0,1.0,1.0,0.0,1.m4v,1.0
2024-02-27 09:18:20.487081,1709021900.4870806,-6.8359375,8.7890625,-31.25,-4.8828125,1.0,1.0,1.0,0.0,1.m4v,1.0
2024-02-27 09:18:20.490986,1709021900.490986,7.32421875,-4.39453125,-24.90234375,-8.7890625,1.0,1.0,1.0,0.0,1.m4v,1.0
2024-02-27 09:18:20.494892,1709021900.4948916,-14.16015625,-37.59765625,-53.7109375,-14.16015625,1.0,1.0,1.0,0.0,1.m4v,1.0
2024-02-27 09:18:20.498797,1709021900.4987972,-11.23046875,-26.3671875,-40.52734375,-20.5078125,1.0,1.0,1.0,0.0,1.m4v,1.0
2024-02-27 09:18:20.502703,1709021900.5027027,-42.96875,-22.4609375,-10.7421875,-32.2265625,1.0,1.0,1.0,0.0,1.m4v,1.0
2024-02-27 09:18:20.506608,1709021900.5066082,-69.82421875,-37.59765625,-11.71875,-37.109375,1.0,1.0,1.0,0.0,1.m4v,1.0
2024-02-27 09:18:20.510514,1709021900.5105135,-38.57421875,-44.921875,-12.6953125,-39.0625,1.0,1.0,1.0,0.0,1.m4v,1.0
2024-02-27 09:18:20.514431,1709021900.5144317,-35.15625,-43.45703125,-25.87890625,-43.9453125,1.0,1.0,1.0,0.0,1.m4v,1.0
2024-02-27 09:18:20.518337,1709021900.518337,-55.17578125,-21.97265625,-39.55078125,-51.7578125,1.0,1.0,1.0,0.0,1.m4v,1.0
2024-02-27 09:18:20.522243,1709021900.5222423,-50.78125,-24.90234375,-30.76171875,-51.26953125,1.0,1.0,1.0,0.0,1.m4v,1.0
2024-02-27 09:18:20.526148,1709021900.526148,-35.15625,-15.625,-20.01953125,-23.92578125,1.0,1.0,1.0,0.0,1.m4v,1.0
2024-02-27 09:18:20.530054,1709021900.5300536,-20.99609375,3.90625,-27.83203125,-19.53125,1.0,1.0,1.0,0.0,1.m4v,1.0
2024-02-27 09:18:20.533959,1709021900.5339592,-20.01953125,-25.390625,-45.8984375,-52.24609375,1.0,1.0,1.0,0.0,1.m4v,1.0
2024-02-27 09:18:20.537865,1709021900.5378647,-14.16015625,-29.296875,-46.38671875,-45.8984375,1.0,1.0,1.0,0.0,1.m4v,1.0
2024-02-27 09:18:20.541770,1709021900.54177,-35.15625,-26.85546875,-26.85546875,-23.4375,1.0,1.0,1.0,0.0,1.m4v,1.0
2024-02-27 09:18:20.545676,1709021900.5456755,-87.890625,-48.828125,-22.4609375,-38.0859375,1.0,1.0,1.0,0.0,1.m4v,1.0
2024-02-27 09:18:20.549581,1709021900.549581,-70.80078125,-37.109375,-7.32421875,-55.17578125,1.0,1.0,1.0,0.0,1.m4v,1.0
2024-02-27 09:18:20.553487,1709021900.5534866,-39.55078125,-26.3671875,-5.859375,-53.22265625,1.0,1.0,1.0,0.0,1.m4v,1.0
2024-02-27 09:18:20.557392,1709021900.557392,-45.8984375,-48.828125,-23.4375,-32.71484375,1.0,1.0,1.0,0.0,1.m4v,1.0
2024-02-27 09:18:20.561305,1709021900.5613046,-37.59765625,-28.3203125,-2.9296875,-12.6953125,1.0,1.0,1.0,0.0,1.m4v,1.0
2024-02-27 09:18:20.565210,1709021900.56521,-64.453125,-11.71875,-12.6953125,-34.66796875,1.0,1.0,1.0,0.0,1.m4v,1.0
2024-02-27 09:18:20.569116,1709021900.5691156,-82.03125,-23.4375,-44.921875,-51.7578125,1.0,1.0,1.0,0.0,1.m4v,1.0
2024-02-27 09:18:20.573021,1709021900.5730212,-57.6171875,-21.97265625,-38.57421875,-52.24609375,1.0,1.0,1.0,0.0,1.m4v,1.0
2024-02-27 09:18:20.576927,1709021900.5769267,-56.640625,-28.3203125,-41.50390625,-46.38671875,1.0,1.0,1.0,0.0,1.m4v,1.0
2024-02-27 09:18:20.580832,1709021900.5808322,-47.36328125,-17.578125,-27.83203125,-21.97265625,1.0,1.0,1.0,0.0,1.m4v,1.0
2024-02-27 09:18:20.584738,1709021900.5847378,-58.59375,-11.23046875,-6.8359375,-34.1796875,1.0,1.0,1.0,0.0,1.m4v,1.0
2024-02-27 09:18:20.588643,1709021900.5886433,-82.51953125,-47.8515625,-24.4140625,-60.05859375,1.0,1.0,1.0,0.0,1.m4v,1.0
2024-02-27 09:18:20.592549,1709021900.5925488,-67.3828125,-62.5,-37.59765625,-41.9921875,1.0,1.0,1.0,0.0,1.m4v,1.0
2024-02-27 09:18:20.596454,1709021900.5964544,-44.43359375,-32.71484375,-43.9453125,-33.69140625,1.0,1.0,1.0,0.0,1.m4v,1.0
2024-02-27 09:18:20.600360,1709021900.6003597,-39.0625,-23.4375,-37.59765625,-30.76171875,1.0,1.0,1.0,0.0,1.m4v,1.0
2024-02-27 09:18:20.604265,1709021900.6042652,-51.26953125,-28.80859375,-27.34375,-16.11328125,1.0,1.0,1.0,0.0,1.m4v,1.0
2024-02-27 09:18:20.608177,1709021900.6081772,-71.77734375,-20.99609375,-38.0859375,-24.90234375,1.0,1.0,1.0,0.0,1.m4v,1.0
2024-02-27 09:18:20.612083,1709021900.6120827,-54.6875,-9.27734375,-39.0625,-41.015625,1.0,1.0,1.0,0.0,1.m4v,1.0
2024-02-27 09:18:20.615988,1709021900.6159885,-34.66796875,-29.78515625,-49.8046875,-41.015625,1.0,1.0,1.0,0.0,1.m4v,1.0
2024-02-27 09:18:20.619894,1709021900.6198938,-57.6171875,-53.22265625,-63.4765625,-56.640625,1.0,1.0,1.0,0.0,1.m4v,1.0
2024-02-27 09:18:20.623799,1709021900.623799,-67.87109375,-37.109375,-36.1328125,-59.08203125,1.0,1.0,1.0,0.0,1.m4v,1.0
2024-02-27 09:18:20.627705,1709021900.6277049,-50.78125,-24.4140625,-19.53125,-39.0625,1.0,1.0,1.0,0.0,1.m4v,1.0
2024-02-27 09:18:20.631610,1709021900.6316104,-27.83203125,-16.11328125,-24.4140625,-29.296875,1.0,1.0,1.0,0.0,1.m4v,1.0
2024-02-27 09:18:20.635516,1709021900.635516,-3.41796875,-21.97265625,-26.3671875,-25.390625,1.0,1.0,1.0,0.0,1.m4v,1.0
2024-02-27 09:18:20.639421,1709021900.6394217,-6.34765625,-29.296875,-25.87890625,-0.48828125,1.0,1.0,1.0,0.0,1.m4v,1.0
2024-02-27 09:18:20.643327,1709021900.643327,-30.76171875,-20.5078125,-28.80859375,4.39453125,1.0,1.0,1.0,0.0,1.m4v,1.0
2024-02-27 09:18:20.647233,1709021900.6472323,-32.2265625,-43.45703125,-39.0625,-23.4375,1.0,1.0,1.0,0.0,1.m4v,1.0
2024-02-27 09:18:20.651138,1709021900.651138,-22.4609375,-40.52734375,-41.9921875,-34.1796875,1.0,1.0,1.0,0.0,1.m4v,1.0
2024-02-27 09:18:20.655054,1709021900.655054,-21.97265625,-30.2734375,-37.59765625,-38.57421875,1.0,1.0,1.0,0.0,1.m4v,1.0
2024-02-27 09:18:20.658960,1709021900.6589596,-46.875,-34.66796875,-25.390625,-45.41015625,1.0,1.0,1.0,0.0,1.m4v,1.0
2024-02-27 09:18:20.662865,1709021900.6628652,-77.1484375,-28.3203125,-7.32421875,-55.17578125,1.0,1.0,1.0,0.0,1.m4v,1.0
2024-02-27 09:18:20.666771,1709021900.6667707,-82.03125,-31.73828125,-26.3671875,-67.87109375,1.0,1.0,1.0,0.0,1.m4v,1.0
2024-02-27 09:18:20.670676,1709021900.6706762,-58.59375,-25.87890625,-42.48046875,-41.015625,1.0,1.0,1.0,0.0,1.m4v,1.0
2024-02-27 09:18:20.674582,1709021900.6745818,10.25390625,-7.32421875,-22.94921875,5.859375,1.0,1.0,1.0,0.0,1.m4v,1.0
2024-02-27 09:18:20.678487,1709021900.6784873,11.71875,-21.484375,-29.78515625,-2.9296875,1.0,1.0,1.0,0.0,1.m4v,1.0
2024-02-27 09:18:20.682393,1709021900.6823928,-24.90234375,-20.99609375,-40.0390625,-23.92578125,1.0,1.0,1.0,0.0,1.m4v,1.0
2024-02-27 09:18:20.686298,1709021900.6862984,-39.0625,-12.6953125,-54.6875,-7.8125,1.0,1.0,1.0,0.0,1.m4v,1.0
2024-02-27 09:18:20.690204,1709021900.6902037,-17.578125,-27.34375,-39.0625,-12.20703125,1.0,1.0,1.0,0.0,1.m4v,1.0
2024-02-27 09:18:20.694109,1709021900.6941092,-7.32421875,-42.96875,-21.484375,-41.9921875,1.0,1.0,1.0,0.0,1.m4v,1.0
2024-02-27 09:18:20.698015,1709021900.6980147,-36.62109375,-55.17578125,-30.2734375,-50.78125,1.0,1.0,1.0,0.0,1.m4v,1.0
2024-02-27 09:18:20.701926,1709021900.7019255,-51.7578125,-34.1796875,-30.76171875,-56.15234375,1.0,1.0,1.0,0.0,1.m4v,1.0
2024-02-27 09:18:20.705831,1709021900.705831,-60.546875,-16.6015625,-30.2734375,-55.6640625,1.0,1.0,1.0,0.0,1.m4v,1.0
2024-02-27 09:18:20.709737,1709021900.7097366,-12.20703125,-19.04296875,-27.34375,-20.99609375,1.0,1.0,1.0,0.0,1.m4v,1.0
2024-02-27 09:18:20.713642,1709021900.713642,18.5546875,-31.73828125,-25.87890625,-9.765625,1.0,1.0,1.0,0.0,1.m4v,1.0
2024-02-27 09:18:20.717548,1709021900.7175477,-23.92578125,-42.48046875,-37.59765625,-41.015625,1.0,1.0,1.0,0.0,1.m4v,1.0
2024-02-27 09:18:20.721453,1709021900.7214532,-60.05859375,-31.25,-38.57421875,-64.453125,1.0,1.0,1.0,0.0,1.m4v,1.0
2024-02-27 09:18:20.725359,1709021900.7253587,-68.359375,-29.296875,-31.25,-51.7578125,1.0,1.0,1.0,0.0,1.m4v,1.0
2024-02-27 09:18:20.729264,1709021900.7292645,-39.0625,-27.83203125,-22.4609375,-39.55078125,1.0,1.0,1.0,0.0,1.m4v,1.0
2024-02-27 09:18:20.733170,1709021900.7331698,-20.5078125,-37.109375,-32.2265625,-31.25,1.0,1.0,1.0,0.0,1.m4v,1.0
2024-02-27 09:18:20.737075,1709021900.737075,-23.4375,-47.36328125,-39.55078125,-25.87890625,1.0,1.0,1.0,0.0,1.m4v,1.0
2024-02-27 09:18:20.740981,1709021900.7409809,-26.3671875,-19.04296875,-38.57421875,-31.73828125,1.0,1.0,1.0,0.0,1.m4v,1.0
2024-02-27 09:18:20.744886,1709021900.7448864,-30.76171875,-16.11328125,-29.78515625,-19.04296875,1.0,1.0,1.0,0.0,1.m4v,1.0
2024-02-27 09:18:20.748796,1709021900.7487965,-10.25390625,-28.80859375,-6.34765625,0.0,1.0,1.0,1.0,0.0,1.m4v,1.0
2024-02-27 09:18:20.752702,1709021900.752702,-7.32421875,-23.4375,0.48828125,-15.13671875,1.0,1.0,1.0,0.0,1.m4v,1.0
2024-02-27 09:18:20.756608,1709021900.7566075,-24.4140625,-32.2265625,-18.06640625,-52.24609375,1.0,1.0,1.0,0.0,1.m4v,1.0
2024-02-27 09:18:20.760513,1709021900.760513,-41.015625,-30.2734375,-37.59765625,-53.7109375,1.0,1.0,1.0,0.0,1.m4v,1.0
2024-02-27 09:18:20.764419,1709021900.7644186,-45.41015625,-13.18359375,-34.1796875,-27.83203125,1.0,1.0,1.0,0.0,1.m4v,1.0
2024-02-27 09:18:20.768324,1709021900.768324,-19.53125,-26.85546875,-12.20703125,-14.16015625,1.0,1.0,1.0,0.0,1.m4v,1.0
2024-02-27 09:18:20.772230,1709021900.7722297,-19.53125,-47.8515625,-21.97265625,-44.921875,1.0,1.0,1.0,0.0,1.m4v,1.0
2024-02-27 09:18:20.776135,1709021900.776135,-13.18359375,-44.43359375,-40.0390625,-50.78125,1.0,1.0,1.0,0.0,1.m4v,1.0
2024-02-27 09:18:20.780041,1709021900.7800405,-2.9296875,-28.3203125,-19.04296875,-18.5546875,1.0,1.0,1.0,0.0,1.m4v,1.0
2024-02-27 09:18:20.783946,1709021900.783946,-28.80859375,-27.83203125,-15.13671875,-13.671875,1.0,1.0,1.0,0.0,1.m4v,1.0
2024-02-27 09:18:20.787852,1709021900.7878516,-25.87890625,-46.875,-34.1796875,-28.80859375,1.0,1.0,1.0,0.0,1.m4v,1.0
2024-02-27 09:18:20.791757,1709021900.791757,0.9765625,-31.25,-21.484375,-29.78515625,1.0,1.0,1.0,0.0,1.m4v,1.0
2024-02-27 09:18:20.795671,1709021900.7956712,-8.30078125,-26.3671875,-23.92578125,-33.203125,1.0,1.0,1.0,0.0,1.m4v,1.0
2024-02-27 09:18:20.799577,1709021900.7995768,-17.578125,-22.4609375,-25.390625,-45.8984375,1.0,1.0,1.0,0.0,1.m4v,1.0
2024-02-27 09:18:20.803482,1709021900.8034823,-46.875,-12.6953125,-29.296875,-50.29296875,1.0,1.0,1.0,0.0,1.m4v,1.0
2024-02-27 09:18:20.807388,1709021900.8073878,-76.66015625,-42.48046875,-52.24609375,-54.6875,1.0,1.0,1.0,0.0,1.m4v,1.0
2024-02-27 09:18:20.811293,1709021900.8112934,-32.71484375,-52.734375,-54.6875,-41.015625,1.0,1.0,1.0,0.0,1.m4v,1.0
2024-02-27 09:18:20.815199,1709021900.815199,21.484375,-29.296875,-36.1328125,-9.765625,1.0,1.0,1.0,0.0,1.m4v,1.0
2024-02-27 09:18:20.819104,1709021900.8191044,18.5546875,-15.625,-7.8125,-6.34765625,1.0,1.0,1.0,0.0,1.m4v,1.0
2024-02-27 09:18:20.823010,1709021900.82301,-31.73828125,-23.92578125,-9.765625,-37.109375,1.0,1.0,1.0,0.0,1.m4v,1.0
2024-02-27 09:18:20.826916,1709021900.8269155,-33.69140625,-34.1796875,-9.27734375,-31.73828125,1.0,1.0,1.0,0.0,1.m4v,1.0
2024-02-27 09:18:20.830821,1709021900.830821,5.859375,-26.85546875,-9.765625,-12.20703125,1.0,1.0,1.0,0.0,1.m4v,1.0
2024-02-27 09:18:20.834727,1709021900.8347266,3.41796875,-20.5078125,-30.2734375,-27.34375,1.0,1.0,1.0,0.0,1.m4v,1.0
2024-02-27 09:18:20.838632,1709021900.838632,0.9765625,-6.34765625,-22.94921875,-25.390625,1.0,1.0,1.0,0.0,1.m4v,1.0
2024-02-27 09:18:20.842546,1709021900.8425455,-5.859375,-21.97265625,-25.87890625,-15.13671875,1.0,1.0,1.0,0.0,1.m4v,1.0
2024-02-27 09:18:20.846451,1709021900.846451,-15.13671875,-50.29296875,-46.875,-14.16015625,1.0,1.0,1.0,0.0,1.m4v,1.0
2024-02-27 09:18:20.850357,1709021900.8503566,-15.13671875,-45.8984375,-36.1328125,-31.73828125,1.0,1.0,1.0,0.0,1.m4v,1.0
2024-02-27 09:18:20.854262,1709021900.854262,-28.3203125,-35.64453125,-31.25,-67.87109375,1.0,1.0,1.0,0.0,1.m4v,1.0
2024-02-27 09:18:20.858168,1709021900.8581676,-41.9921875,-29.78515625,-32.71484375,-60.05859375,1.0,1.0,1.0,0.0,1.m4v,1.0
2024-02-27 09:18:20.862073,1709021900.8620732,-32.2265625,-24.4140625,-25.390625,-25.87890625,1.0,1.0,1.0,0.0,1.m4v,1.0
2024-02-27 09:18:20.865979,1709021900.8659787,0.0,-29.296875,-11.23046875,-7.32421875,1.0,1.0,1.0,0.0,1.m4v,1.0
2024-02-27 09:18:20.869884,1709021900.8698845,5.37109375,-28.80859375,-13.671875,-14.6484375,1.0,1.0,1.0,0.0,1.m4v,1.0
2024-02-27 09:18:20.873790,1709021900.8737898,10.7421875,-12.20703125,-11.23046875,-8.7890625,1.0,1.0,1.0,0.0,1.m4v,1.0
2024-02-27 09:18:20.877695,1709021900.877695,18.5546875,6.8359375,-13.671875,-7.8125,1.0,1.0,1.0,0.0,1.m4v,1.0
2024-02-27 09:18:20.881601,1709021900.8816006,-23.92578125,1.953125,-31.73828125,-33.69140625,1.0,1.0,1.0,0.0,1.m4v,1.0
2024-02-27 09:18:20.885506,1709021900.8855062,-38.0859375,-26.3671875,-39.55078125,-24.90234375,1.0,1.0,1.0,0.0,1.m4v,1.0
2024-02-27 09:18:20.889420,1709021900.8894196,-15.13671875,-44.921875,-32.71484375,-3.41796875,1.0,1.0,1.0,0.0,1.m4v,1.0
