Timestamp,Timestamp_UNIX,TP9,AF7,AF8,TP10,Valence,Arousal,Dominace,Viewed,Video,Participant
2024-02-27 11:35:22.003224,1709030122.003224,-28.80859375,-37.59765625,-38.57421875,-25.87890625,-1.0,-1.0,1.0,1.0,5.m4v,3.0
2024-02-27 11:35:22.007128,1709030122.007128,-32.71484375,-27.83203125,-33.203125,-18.5546875,-1.0,-1.0,1.0,1.0,5.m4v,3.0
2024-02-27 11:35:22.011032,1709030122.011032,-31.25,-16.6015625,-35.15625,-15.625,-1.0,-1.0,1.0,1.0,5.m4v,3.0
2024-02-27 11:35:22.014936,1709030122.0149362,-23.92578125,-19.53125,-21.484375,-19.53125,-1.0,-1.0,1.0,1.0,5.m4v,3.0
2024-02-27 11:35:22.018840,1709030122.01884,-28.3203125,-16.11328125,-18.06640625,-30.2734375,-1.0,-1.0,1.0,1.0,5.m4v,3.0
2024-02-27 11:35:22.022744,1709030122.0227442,-33.203125,-14.6484375,-27.83203125,-26.3671875,-1.0,-1.0,1.0,1.0,5.m4v,3.0
2024-02-27 11:35:22.026648,1709030122.0266483,-34.66796875,-29.296875,-23.4375,-22.94921875,-1.0,-1.0,1.0,1.0,5.m4v,3.0
2024-02-27 11:35:22.030552,1709030122.0305524,-19.04296875,-38.0859375,-22.94921875,-23.92578125,-1.0,-1.0,1.0,1.0,5.m4v,3.0
2024-02-27 11:35:22.034456,1709030122.0344565,-16.11328125,-42.96875,-40.52734375,-39.0625,-1.0,-1.0,1.0,1.0,5.m4v,3.0
2024-02-27 11:35:22.038360,1709030122.0383604,-37.109375,-53.22265625,-51.26953125,-57.12890625,-1.0,-1.0,1.0,1.0,5.m4v,3.0
2024-02-27 11:35:22.042264,1709030122.0422645,-43.9453125,-52.24609375,-58.59375,-44.921875,-1.0,-1.0,1.0,1.0,5.m4v,3.0
2024-02-27 11:35:22.046189,1709030122.0461886,-43.9453125,-36.62109375,-58.10546875,-34.1796875,-1.0,-1.0,1.0,1.0,5.m4v,3.0
2024-02-27 11:35:22.050093,1709030122.0500927,-40.0390625,-23.4375,-33.203125,-25.390625,-1.0,-1.0,1.0,1.0,5.m4v,3.0
2024-02-27 11:35:22.053997,1709030122.0539968,-33.69140625,-26.85546875,-22.94921875,-31.25,-1.0,-1.0,1.0,1.0,5.m4v,3.0
2024-02-27 11:35:22.057901,1709030122.057901,-33.69140625,-32.2265625,-22.4609375,-51.26953125,-1.0,-1.0,1.0,1.0,5.m4v,3.0
2024-02-27 11:35:22.061805,1709030122.0618048,-39.0625,-30.2734375,-28.80859375,-48.828125,-1.0,-1.0,1.0,1.0,5.m4v,3.0
2024-02-27 11:35:22.065709,1709030122.0657089,-41.015625,-15.13671875,-43.9453125,-31.73828125,-1.0,-1.0,1.0,1.0,5.m4v,3.0
2024-02-27 11:35:22.069613,1709030122.0696127,-34.66796875,-16.6015625,-46.38671875,-30.2734375,-1.0,-1.0,1.0,1.0,5.m4v,3.0
2024-02-27 11:35:22.073517,1709030122.0735168,-36.1328125,-43.45703125,-44.43359375,-46.875,-1.0,-1.0,1.0,1.0,5.m4v,3.0
2024-02-27 11:35:22.077421,1709030122.077421,-34.66796875,-35.64453125,-37.109375,-47.36328125,-1.0,-1.0,1.0,1.0,5.m4v,3.0
2024-02-27 11:35:22.081325,1709030122.0813248,-36.62109375,-24.90234375,-29.78515625,-41.9921875,-1.0,-1.0,1.0,1.0,5.m4v,3.0
2024-02-27 11:35:22.085229,1709030122.085229,-45.8984375,-27.34375,-29.296875,-37.109375,-1.0,-1.0,1.0,1.0,5.m4v,3.0
2024-02-27 11:35:22.089133,1709030122.089133,-41.9921875,-15.13671875,-28.3203125,-32.71484375,-1.0,-1.0,1.0,1.0,5.m4v,3.0
2024-02-27 11:35:22.093056,1709030122.0930562,-41.015625,-24.4140625,-31.73828125,-44.43359375,-1.0,-1.0,1.0,1.0,5.m4v,3.0
2024-02-27 11:35:22.096960,1709030122.0969603,-38.0859375,-33.203125,-31.25,-51.26953125,-1.0,-1.0,1.0,1.0,5.m4v,3.0
2024-02-27 11:35:22.100864,1709030122.1008642,-35.15625,-27.34375,-34.66796875,-46.38671875,-1.0,-1.0,1.0,1.0,5.m4v,3.0
2024-02-27 11:35:22.104768,1709030122.1047685,-41.9921875,-27.83203125,-43.9453125,-40.52734375,-1.0,-1.0,1.0,1.0,5.m4v,3.0
2024-02-27 11:35:22.108672,1709030122.1086724,-35.15625,-35.64453125,-47.8515625,-26.85546875,-1.0,-1.0,1.0,1.0,5.m4v,3.0
2024-02-27 11:35:22.112576,1709030122.1125765,-23.92578125,-27.34375,-32.2265625,-17.08984375,-1.0,-1.0,1.0,1.0,5.m4v,3.0
2024-02-27 11:35:22.116480,1709030122.1164804,-15.625,-32.2265625,-18.06640625,-27.34375,-1.0,-1.0,1.0,1.0,5.m4v,3.0
2024-02-27 11:35:22.120384,1709030122.1203845,-14.6484375,-62.98828125,-24.90234375,-35.15625,-1.0,-1.0,1.0,1.0,5.m4v,3.0
2024-02-27 11:35:22.124289,1709030122.1242886,-37.109375,-64.94140625,-37.109375,-32.71484375,-1.0,-1.0,1.0,1.0,5.m4v,3.0
2024-02-27 11:35:22.128192,1709030122.1281924,-41.50390625,-45.41015625,-30.2734375,-28.3203125,-1.0,-1.0,1.0,1.0,5.m4v,3.0
2024-02-27 11:35:22.132097,1709030122.1320963,-29.78515625,-34.66796875,-29.296875,-32.2265625,-1.0,-1.0,1.0,1.0,5.m4v,3.0
2024-02-27 11:35:22.136001,1709030122.1360006,-32.2265625,-31.25,-40.52734375,-44.921875,-1.0,-1.0,1.0,1.0,5.m4v,3.0
2024-02-27 11:35:22.139924,1709030122.139924,-39.55078125,-33.69140625,-43.45703125,-46.875,-1.0,-1.0,1.0,1.0,5.m4v,3.0
2024-02-27 11:35:22.143828,1709030122.143828,-48.33984375,-38.57421875,-39.0625,-36.1328125,-1.0,-1.0,1.0,1.0,5.m4v,3.0
2024-02-27 11:35:22.147732,1709030122.147732,-44.43359375,-45.41015625,-31.73828125,-27.34375,-1.0,-1.0,1.0,1.0,5.m4v,3.0
2024-02-27 11:35:22.151636,1709030122.151636,-34.66796875,-41.9921875,-32.2265625,-19.53125,-1.0,-1.0,1.0,1.0,5.m4v,3.0
2024-02-27 11:35:22.155540,1709030122.1555402,-37.59765625,-51.26953125,-24.4140625,-26.85546875,-1.0,-1.0,1.0,1.0,5.m4v,3.0
2024-02-27 11:35:22.159444,1709030122.159444,-41.50390625,-52.24609375,-22.94921875,-37.59765625,-1.0,-1.0,1.0,1.0,5.m4v,3.0
2024-02-27 11:35:22.163348,1709030122.1633482,-45.41015625,-52.734375,-32.71484375,-29.296875,-1.0,-1.0,1.0,1.0,5.m4v,3.0
2024-02-27 11:35:22.167252,1709030122.1672523,-41.50390625,-69.82421875,-31.25,-19.53125,-1.0,-1.0,1.0,1.0,5.m4v,3.0
2024-02-27 11:35:22.171156,1709030122.1711562,-28.3203125,-54.6875,-31.73828125,-20.5078125,-1.0,-1.0,1.0,1.0,5.m4v,3.0
2024-02-27 11:35:22.175060,1709030122.1750605,-24.4140625,-42.48046875,-39.55078125,-29.78515625,-1.0,-1.0,1.0,1.0,5.m4v,3.0
2024-02-27 11:35:22.178964,1709030122.1789644,-25.87890625,-41.9921875,-42.96875,-34.1796875,-1.0,-1.0,1.0,1.0,5.m4v,3.0
2024-02-27 11:35:22.182868,1709030122.1828682,-36.1328125,-43.9453125,-30.76171875,-37.59765625,-1.0,-1.0,1.0,1.0,5.m4v,3.0
2024-02-27 11:35:22.186790,1709030122.1867895,-33.203125,-33.69140625,-13.18359375,-21.484375,-1.0,-1.0,1.0,1.0,5.m4v,3.0
2024-02-27 11:35:22.190694,1709030122.1906936,-27.34375,-29.78515625,-13.18359375,-12.20703125,-1.0,-1.0,1.0,1.0,5.m4v,3.0
2024-02-27 11:35:22.194597,1709030122.1945975,-39.0625,-54.6875,-30.76171875,-41.9921875,-1.0,-1.0,1.0,1.0,5.m4v,3.0
2024-02-27 11:35:22.198502,1709030122.1985016,-39.55078125,-51.26953125,-34.1796875,-53.22265625,-1.0,-1.0,1.0,1.0,5.m4v,3.0
2024-02-27 11:35:22.202406,1709030122.2024057,-46.38671875,-41.50390625,-37.59765625,-47.36328125,-1.0,-1.0,1.0,1.0,5.m4v,3.0
2024-02-27 11:35:22.206310,1709030122.2063098,-49.31640625,-35.64453125,-39.55078125,-32.71484375,-1.0,-1.0,1.0,1.0,5.m4v,3.0
2024-02-27 11:35:22.210214,1709030122.2102137,-38.57421875,-46.875,-31.25,-22.4609375,-1.0,-1.0,1.0,1.0,5.m4v,3.0
2024-02-27 11:35:22.214118,1709030122.2141178,-39.0625,-76.66015625,-42.96875,-35.15625,-1.0,-1.0,1.0,1.0,5.m4v,3.0
2024-02-27 11:35:22.218022,1709030122.218022,-41.50390625,-56.640625,-50.29296875,-41.9921875,-1.0,-1.0,1.0,1.0,5.m4v,3.0
2024-02-27 11:35:22.221926,1709030122.2219255,-36.62109375,-20.5078125,-26.3671875,-30.2734375,-1.0,-1.0,1.0,1.0,5.m4v,3.0
2024-02-27 11:35:22.225830,1709030122.2258298,-36.1328125,-14.6484375,-25.87890625,-14.16015625,-1.0,-1.0,1.0,1.0,5.m4v,3.0
2024-02-27 11:35:22.229734,1709030122.229734,-46.38671875,-39.55078125,-32.71484375,-20.99609375,-1.0,-1.0,1.0,1.0,5.m4v,3.0
2024-02-27 11:35:22.233654,1709030122.233654,-45.8984375,-54.6875,-29.78515625,-42.48046875,-1.0,-1.0,1.0,1.0,5.m4v,3.0
2024-02-27 11:35:22.237558,1709030122.237558,-42.96875,-48.828125,-37.109375,-52.734375,-1.0,-1.0,1.0,1.0,5.m4v,3.0
2024-02-27 11:35:22.241462,1709030122.241462,-56.15234375,-48.33984375,-47.36328125,-54.6875,-1.0,-1.0,1.0,1.0,5.m4v,3.0
2024-02-27 11:35:22.245366,1709030122.245366,-60.05859375,-45.8984375,-52.24609375,-47.8515625,-1.0,-1.0,1.0,1.0,5.m4v,3.0
2024-02-27 11:35:22.249270,1709030122.24927,-41.9921875,-24.90234375,-25.390625,-29.296875,-1.0,-1.0,1.0,1.0,5.m4v,3.0
2024-02-27 11:35:22.253174,1709030122.253174,-23.4375,3.90625,-0.48828125,-18.06640625,-1.0,-1.0,1.0,1.0,5.m4v,3.0
2024-02-27 11:35:22.257078,1709030122.2570782,-28.3203125,1.46484375,-19.04296875,-31.73828125,-1.0,-1.0,1.0,1.0,5.m4v,3.0
2024-02-27 11:35:22.260982,1709030122.260982,-43.9453125,-34.1796875,-43.9453125,-48.33984375,-1.0,-1.0,1.0,1.0,5.m4v,3.0
2024-02-27 11:35:22.264886,1709030122.264886,-41.015625,-49.8046875,-26.3671875,-41.50390625,-1.0,-1.0,1.0,1.0,5.m4v,3.0
2024-02-27 11:35:22.268790,1709030122.2687902,-41.50390625,-62.01171875,-22.94921875,-36.1328125,-1.0,-1.0,1.0,1.0,5.m4v,3.0
2024-02-27 11:35:22.272694,1709030122.272694,-48.33984375,-73.73046875,-33.69140625,-47.8515625,-1.0,-1.0,1.0,1.0,5.m4v,3.0
2024-02-27 11:35:22.276598,1709030122.2765982,-46.38671875,-63.96484375,-33.69140625,-56.15234375,-1.0,-1.0,1.0,1.0,5.m4v,3.0
2024-02-27 11:35:22.280526,1709030122.2805257,-38.57421875,-47.36328125,-28.3203125,-50.29296875,-1.0,-1.0,1.0,1.0,5.m4v,3.0
2024-02-27 11:35:22.284430,1709030122.2844298,-39.55078125,-45.41015625,-27.83203125,-42.48046875,-1.0,-1.0,1.0,1.0,5.m4v,3.0
2024-02-27 11:35:22.288334,1709030122.288334,-40.52734375,-43.9453125,-37.109375,-27.34375,-1.0,-1.0,1.0,1.0,5.m4v,3.0
2024-02-27 11:35:22.292238,1709030122.2922378,-32.2265625,-29.78515625,-33.203125,-26.3671875,-1.0,-1.0,1.0,1.0,5.m4v,3.0
2024-02-27 11:35:22.296142,1709030122.296142,-30.2734375,-31.73828125,-24.4140625,-42.96875,-1.0,-1.0,1.0,1.0,5.m4v,3.0
2024-02-27 11:35:22.300046,1709030122.300046,-38.57421875,-23.92578125,-25.87890625,-47.36328125,-1.0,-1.0,1.0,1.0,5.m4v,3.0
2024-02-27 11:35:22.303950,1709030122.3039498,-43.9453125,-38.57421875,-41.9921875,-47.36328125,-1.0,-1.0,1.0,1.0,5.m4v,3.0
2024-02-27 11:35:22.307854,1709030122.307854,-40.52734375,-54.6875,-53.7109375,-40.0390625,-1.0,-1.0,1.0,1.0,5.m4v,3.0
2024-02-27 11:35:22.311758,1709030122.311758,-34.66796875,-45.8984375,-46.38671875,-37.109375,-1.0,-1.0,1.0,1.0,5.m4v,3.0
2024-02-27 11:35:22.315662,1709030122.315662,-24.90234375,-48.33984375,-31.73828125,-47.8515625,-1.0,-1.0,1.0,1.0,5.m4v,3.0
2024-02-27 11:35:22.319566,1709030122.319566,-22.94921875,-29.78515625,-21.97265625,-50.78125,-1.0,-1.0,1.0,1.0,5.m4v,3.0
2024-02-27 11:35:22.323470,1709030122.32347,-26.85546875,-27.83203125,-17.08984375,-42.96875,-1.0,-1.0,1.0,1.0,5.m4v,3.0
2024-02-27 11:35:22.327396,1709030122.3273964,-31.73828125,-45.41015625,-24.90234375,-36.62109375,-1.0,-1.0,1.0,1.0,5.m4v,3.0
2024-02-27 11:35:22.331300,1709030122.3313005,-35.64453125,-56.640625,-41.9921875,-40.52734375,-1.0,-1.0,1.0,1.0,5.m4v,3.0
2024-02-27 11:35:22.335205,1709030122.3352046,-41.9921875,-64.453125,-40.0390625,-48.33984375,-1.0,-1.0,1.0,1.0,5.m4v,3.0
2024-02-27 11:35:22.339109,1709030122.3391087,-48.828125,-63.96484375,-38.0859375,-52.734375,-1.0,-1.0,1.0,1.0,5.m4v,3.0
2024-02-27 11:35:22.343013,1709030122.3430126,-49.8046875,-54.6875,-40.0390625,-46.38671875,-1.0,-1.0,1.0,1.0,5.m4v,3.0
2024-02-27 11:35:22.346917,1709030122.346917,-37.109375,-22.94921875,-38.57421875,-20.01953125,-1.0,-1.0,1.0,1.0,5.m4v,3.0
2024-02-27 11:35:22.350821,1709030122.3508208,-24.4140625,-17.578125,-35.15625,-6.34765625,-1.0,-1.0,1.0,1.0,5.m4v,3.0
2024-02-27 11:35:22.354725,1709030122.3547246,-38.57421875,-54.6875,-22.4609375,-29.78515625,-1.0,-1.0,1.0,1.0,5.m4v,3.0
2024-02-27 11:35:22.358629,1709030122.3586287,-53.22265625,-66.89453125,-28.80859375,-49.31640625,-1.0,-1.0,1.0,1.0,5.m4v,3.0
2024-02-27 11:35:22.362533,1709030122.3625329,-48.33984375,-44.43359375,-28.3203125,-43.45703125,-1.0,-1.0,1.0,1.0,5.m4v,3.0
2024-02-27 11:35:22.366437,1709030122.3664367,-37.109375,-22.4609375,-20.01953125,-36.62109375,-1.0,-1.0,1.0,1.0,5.m4v,3.0
2024-02-27 11:35:22.370341,1709030122.3703408,-44.43359375,-24.90234375,-33.69140625,-42.96875,-1.0,-1.0,1.0,1.0,5.m4v,3.0
2024-02-27 11:35:22.374267,1709030122.374267,-45.8984375,-42.48046875,-40.52734375,-47.8515625,-1.0,-1.0,1.0,1.0,5.m4v,3.0
2024-02-27 11:35:22.378171,1709030122.378171,-31.73828125,-32.71484375,-47.36328125,-43.45703125,-1.0,-1.0,1.0,1.0,5.m4v,3.0
2024-02-27 11:35:22.382075,1709030122.382075,-40.0390625,-26.3671875,-48.33984375,-45.8984375,-1.0,-1.0,1.0,1.0,5.m4v,3.0
2024-02-27 11:35:22.385979,1709030122.3859792,-45.8984375,-37.59765625,-32.71484375,-38.57421875,-1.0,-1.0,1.0,1.0,5.m4v,3.0
2024-02-27 11:35:22.389883,1709030122.389883,-38.0859375,-21.484375,-28.3203125,-24.90234375,-1.0,-1.0,1.0,1.0,5.m4v,3.0
2024-02-27 11:35:22.393787,1709030122.3937871,-26.3671875,-2.44140625,-25.87890625,-26.85546875,-1.0,-1.0,1.0,1.0,5.m4v,3.0
2024-02-27 11:35:22.397691,1709030122.3976912,-18.5546875,-9.765625,-22.94921875,-28.80859375,-1.0,-1.0,1.0,1.0,5.m4v,3.0
2024-02-27 11:35:22.401595,1709030122.4015954,-27.34375,-27.83203125,-24.90234375,-33.69140625,-1.0,-1.0,1.0,1.0,5.m4v,3.0
2024-02-27 11:35:22.405499,1709030122.4054992,-40.52734375,-40.0390625,-38.0859375,-34.66796875,-1.0,-1.0,1.0,1.0,5.m4v,3.0
2024-02-27 11:35:22.409403,1709030122.409403,-35.15625,-41.50390625,-37.59765625,-27.34375,-1.0,-1.0,1.0,1.0,5.m4v,3.0
2024-02-27 11:35:22.413307,1709030122.4133074,-25.87890625,-36.1328125,-40.52734375,-33.203125,-1.0,-1.0,1.0,1.0,5.m4v,3.0
2024-02-27 11:35:22.417211,1709030122.4172113,-33.203125,-35.64453125,-42.48046875,-40.0390625,-1.0,-1.0,1.0,1.0,5.m4v,3.0
2024-02-27 11:35:22.421136,1709030122.4211357,-44.43359375,-23.92578125,-30.2734375,-35.64453125,-1.0,-1.0,1.0,1.0,5.m4v,3.0
2024-02-27 11:35:22.425040,1709030122.4250398,-36.62109375,-18.06640625,-22.4609375,-27.83203125,-1.0,-1.0,1.0,1.0,5.m4v,3.0
2024-02-27 11:35:22.428944,1709030122.428944,-28.3203125,-14.16015625,-22.4609375,-34.66796875,-1.0,-1.0,1.0,1.0,5.m4v,3.0
2024-02-27 11:35:22.432848,1709030122.4328475,-33.69140625,-8.30078125,-26.3671875,-46.875,-1.0,-1.0,1.0,1.0,5.m4v,3.0
2024-02-27 11:35:22.436752,1709030122.4367518,-27.34375,-10.7421875,-27.83203125,-45.8984375,-1.0,-1.0,1.0,1.0,5.m4v,3.0
2024-02-27 11:35:22.440656,1709030122.440656,-23.92578125,-10.25390625,-38.0859375,-34.66796875,-1.0,-1.0,1.0,1.0,5.m4v,3.0
2024-02-27 11:35:22.444560,1709030122.4445598,-33.203125,-12.20703125,-39.0625,-26.3671875,-1.0,-1.0,1.0,1.0,5.m4v,3.0
2024-02-27 11:35:22.448464,1709030122.448464,-33.69140625,-26.3671875,-24.90234375,-22.4609375,-1.0,-1.0,1.0,1.0,5.m4v,3.0
2024-02-27 11:35:22.452368,1709030122.452368,-32.71484375,-33.69140625,-31.25,-30.76171875,-1.0,-1.0,1.0,1.0,5.m4v,3.0
2024-02-27 11:35:22.456272,1709030122.456272,-26.3671875,-32.2265625,-45.8984375,-38.0859375,-1.0,-1.0,1.0,1.0,5.m4v,3.0
2024-02-27 11:35:22.460176,1709030122.460176,-26.85546875,-29.296875,-37.109375,-41.015625,-1.0,-1.0,1.0,1.0,5.m4v,3.0
2024-02-27 11:35:22.464080,1709030122.46408,-26.85546875,-6.8359375,-21.484375,-22.4609375,-1.0,-1.0,1.0,1.0,5.m4v,3.0
2024-02-27 11:35:22.468003,1709030122.4680033,-26.85546875,-5.37109375,-39.0625,-7.8125,-1.0,-1.0,1.0,1.0,5.m4v,3.0
2024-02-27 11:35:22.471907,1709030122.4719074,-30.2734375,-31.73828125,-48.828125,-24.4140625,-1.0,-1.0,1.0,1.0,5.m4v,3.0
2024-02-27 11:35:22.475811,1709030122.4758115,-26.85546875,-35.15625,-36.1328125,-23.4375,-1.0,-1.0,1.0,1.0,5.m4v,3.0
2024-02-27 11:35:22.479715,1709030122.479715,-27.34375,-24.90234375,-28.3203125,-14.16015625,-1.0,-1.0,1.0,1.0,5.m4v,3.0
2024-02-27 11:35:22.483619,1709030122.4836197,-30.2734375,-14.6484375,-24.90234375,-23.4375,-1.0,-1.0,1.0,1.0,5.m4v,3.0
2024-02-27 11:35:22.487524,1709030122.4875236,-30.2734375,1.46484375,-31.73828125,-20.99609375,-1.0,-1.0,1.0,1.0,5.m4v,3.0
2024-02-27 11:35:22.491427,1709030122.4914274,-29.296875,-18.06640625,-28.3203125,-20.5078125,-1.0,-1.0,1.0,1.0,5.m4v,3.0
2024-02-27 11:35:22.495332,1709030122.4953315,-28.80859375,-35.64453125,-29.78515625,-39.0625,-1.0,-1.0,1.0,1.0,5.m4v,3.0
2024-02-27 11:35:22.499236,1709030122.4992356,-21.484375,-6.8359375,-30.76171875,-33.203125,-1.0,-1.0,1.0,1.0,5.m4v,3.0
2024-02-27 11:35:22.503140,1709030122.5031395,-26.3671875,-19.04296875,-24.4140625,-24.4140625,-1.0,-1.0,1.0,1.0,5.m4v,3.0
2024-02-27 11:35:22.507044,1709030122.5070436,-34.66796875,-38.57421875,-33.69140625,-32.71484375,-1.0,-1.0,1.0,1.0,5.m4v,3.0
2024-02-27 11:35:22.510948,1709030122.5109477,-16.11328125,-31.25,-26.3671875,-21.97265625,-1.0,-1.0,1.0,1.0,5.m4v,3.0
2024-02-27 11:35:22.514870,1709030122.51487,-10.25390625,-28.80859375,-12.20703125,-21.484375,-1.0,-1.0,1.0,1.0,5.m4v,3.0
2024-02-27 11:35:22.518774,1709030122.5187738,-20.01953125,-39.55078125,-25.87890625,-37.59765625,-1.0,-1.0,1.0,1.0,5.m4v,3.0
2024-02-27 11:35:22.522678,1709030122.522678,-26.85546875,-44.921875,-35.64453125,-34.66796875,-1.0,-1.0,1.0,1.0,5.m4v,3.0
2024-02-27 11:35:22.526582,1709030122.526582,-30.2734375,-32.2265625,-32.71484375,-19.53125,-1.0,-1.0,1.0,1.0,5.m4v,3.0
2024-02-27 11:35:22.530486,1709030122.530486,-21.484375,-20.01953125,-31.25,-9.765625,-1.0,-1.0,1.0,1.0,5.m4v,3.0
2024-02-27 11:35:22.534390,1709030122.53439,-19.04296875,-10.7421875,-27.34375,-18.5546875,-1.0,-1.0,1.0,1.0,5.m4v,3.0
2024-02-27 11:35:22.538294,1709030122.538294,-31.73828125,-28.3203125,-21.97265625,-39.55078125,-1.0,-1.0,1.0,1.0,5.m4v,3.0
2024-02-27 11:35:22.542198,1709030122.542198,-37.59765625,-46.875,-15.13671875,-42.96875,-1.0,-1.0,1.0,1.0,5.m4v,3.0
2024-02-27 11:35:22.546102,1709030122.546102,-27.83203125,-41.9921875,-8.30078125,-18.5546875,-1.0,-1.0,1.0,1.0,5.m4v,3.0
2024-02-27 11:35:22.550006,1709030122.5500062,-22.4609375,-32.71484375,-7.32421875,-17.578125,-1.0,-1.0,1.0,1.0,5.m4v,3.0
2024-02-27 11:35:22.553910,1709030122.5539105,-24.4140625,-31.73828125,-20.01953125,-44.43359375,-1.0,-1.0,1.0,1.0,5.m4v,3.0
2024-02-27 11:35:22.557814,1709030122.557814,-29.296875,-44.921875,-37.109375,-57.12890625,-1.0,-1.0,1.0,1.0,5.m4v,3.0
2024-02-27 11:35:22.561736,1709030122.5617363,-40.0390625,-46.875,-41.015625,-61.03515625,-1.0,-1.0,1.0,1.0,5.m4v,3.0
2024-02-27 11:35:22.565640,1709030122.5656402,-39.0625,-29.78515625,-29.78515625,-49.31640625,-1.0,-1.0,1.0,1.0,5.m4v,3.0
2024-02-27 11:35:22.569544,1709030122.5695443,-33.203125,-20.5078125,-26.85546875,-30.2734375,-1.0,-1.0,1.0,1.0,5.m4v,3.0
2024-02-27 11:35:22.573448,1709030122.5734484,-39.0625,-45.41015625,-38.57421875,-38.0859375,-1.0,-1.0,1.0,1.0,5.m4v,3.0
2024-02-27 11:35:22.577352,1709030122.5773523,-41.015625,-58.10546875,-37.59765625,-47.8515625,-1.0,-1.0,1.0,1.0,5.m4v,3.0
2024-02-27 11:35:22.581256,1709030122.5812564,-36.62109375,-33.203125,-33.69140625,-42.48046875,-1.0,-1.0,1.0,1.0,5.m4v,3.0
2024-02-27 11:35:22.585160,1709030122.5851605,-37.109375,-26.3671875,-38.57421875,-35.15625,-1.0,-1.0,1.0,1.0,5.m4v,3.0
2024-02-27 11:35:22.589064,1709030122.5890644,-39.55078125,-42.96875,-38.57421875,-35.15625,-1.0,-1.0,1.0,1.0,5.m4v,3.0
2024-02-27 11:35:22.592968,1709030122.5929685,-23.4375,-56.640625,-40.52734375,-30.2734375,-1.0,-1.0,1.0,1.0,5.m4v,3.0
2024-02-27 11:35:22.596873,1709030122.5968726,-15.13671875,-60.546875,-44.43359375,-30.76171875,-1.0,-1.0,1.0,1.0,5.m4v,3.0
2024-02-27 11:35:22.600777,1709030122.600777,-24.90234375,-41.9921875,-38.57421875,-32.2265625,-1.0,-1.0,1.0,1.0,5.m4v,3.0
2024-02-27 11:35:22.604681,1709030122.6046803,-24.90234375,-30.76171875,-33.69140625,-16.11328125,-1.0,-1.0,1.0,1.0,5.m4v,3.0
2024-02-27 11:35:22.608601,1709030122.6086009,-17.578125,-29.78515625,-27.83203125,-4.8828125,-1.0,-1.0,1.0,1.0,5.m4v,3.0
2024-02-27 11:35:22.612505,1709030122.6125047,-27.83203125,-43.45703125,-41.50390625,-20.5078125,-1.0,-1.0,1.0,1.0,5.m4v,3.0
2024-02-27 11:35:22.616409,1709030122.6164088,-38.0859375,-40.0390625,-52.734375,-42.96875,-1.0,-1.0,1.0,1.0,5.m4v,3.0
2024-02-27 11:35:22.620313,1709030122.620313,-47.8515625,-25.390625,-43.9453125,-51.7578125,-1.0,-1.0,1.0,1.0,5.m4v,3.0
2024-02-27 11:35:22.624217,1709030122.6242168,-52.734375,-44.43359375,-39.0625,-44.921875,-1.0,-1.0,1.0,1.0,5.m4v,3.0
2024-02-27 11:35:22.628121,1709030122.628121,-41.015625,-36.1328125,-37.109375,-29.296875,-1.0,-1.0,1.0,1.0,5.m4v,3.0
2024-02-27 11:35:22.632025,1709030122.632025,-37.59765625,-20.01953125,-33.203125,-19.53125,-1.0,-1.0,1.0,1.0,5.m4v,3.0
2024-02-27 11:35:22.635929,1709030122.635929,-35.15625,-39.55078125,-34.66796875,-35.64453125,-1.0,-1.0,1.0,1.0,5.m4v,3.0
2024-02-27 11:35:22.639833,1709030122.639833,-38.57421875,-52.734375,-39.0625,-51.26953125,-1.0,-1.0,1.0,1.0,5.m4v,3.0
2024-02-27 11:35:22.643737,1709030122.643737,-39.55078125,-50.78125,-36.62109375,-39.0625,-1.0,-1.0,1.0,1.0,5.m4v,3.0
2024-02-27 11:35:22.647641,1709030122.6476412,-29.296875,-40.0390625,-38.0859375,-20.01953125,-1.0,-1.0,1.0,1.0,5.m4v,3.0
2024-02-27 11:35:22.651545,1709030122.651545,-31.25,-35.15625,-36.62109375,-20.01953125,-1.0,-1.0,1.0,1.0,5.m4v,3.0
2024-02-27 11:35:22.655472,1709030122.6554725,-32.71484375,-41.015625,-25.87890625,-34.1796875,-1.0,-1.0,1.0,1.0,5.m4v,3.0
2024-02-27 11:35:22.659376,1709030122.6593764,-29.296875,-41.9921875,-31.25,-39.0625,-1.0,-1.0,1.0,1.0,5.m4v,3.0
2024-02-27 11:35:22.663280,1709030122.6632805,-36.1328125,-42.96875,-41.50390625,-34.1796875,-1.0,-1.0,1.0,1.0,5.m4v,3.0
2024-02-27 11:35:22.667185,1709030122.6671846,-32.2265625,-28.3203125,-39.55078125,-18.06640625,-1.0,-1.0,1.0,1.0,5.m4v,3.0
2024-02-27 11:35:22.671088,1709030122.6710885,-21.97265625,-22.94921875,-29.296875,-14.16015625,-1.0,-1.0,1.0,1.0,5.m4v,3.0
2024-02-27 11:35:22.674993,1709030122.6749926,-21.484375,-32.71484375,-22.94921875,-29.296875,-1.0,-1.0,1.0,1.0,5.m4v,3.0
2024-02-27 11:35:22.678897,1709030122.678897,-27.83203125,-30.76171875,-17.578125,-36.62109375,-1.0,-1.0,1.0,1.0,5.m4v,3.0
2024-02-27 11:35:22.682801,1709030122.6828003,-33.203125,-47.8515625,-14.16015625,-40.0390625,-1.0,-1.0,1.0,1.0,5.m4v,3.0
2024-02-27 11:35:22.686705,1709030122.6867046,-36.62109375,-61.5234375,-20.5078125,-37.109375,-1.0,-1.0,1.0,1.0,5.m4v,3.0
2024-02-27 11:35:22.690609,1709030122.6906087,-41.015625,-51.7578125,-36.1328125,-34.66796875,-1.0,-1.0,1.0,1.0,5.m4v,3.0
2024-02-27 11:35:22.694513,1709030122.6945126,-35.64453125,-40.52734375,-44.43359375,-36.1328125,-1.0,-1.0,1.0,1.0,5.m4v,3.0
2024-02-27 11:35:22.698417,1709030122.6984167,-23.4375,-31.25,-41.50390625,-28.80859375,-1.0,-1.0,1.0,1.0,5.m4v,3.0
2024-02-27 11:35:22.702343,1709030122.7023432,-15.13671875,-15.625,-19.04296875,-9.27734375,-1.0,-1.0,1.0,1.0,5.m4v,3.0
2024-02-27 11:35:22.706247,1709030122.706247,-22.4609375,-22.4609375,-23.4375,0.0,-1.0,-1.0,1.0,1.0,5.m4v,3.0
2024-02-27 11:35:22.710151,1709030122.7101512,-34.1796875,-45.41015625,-41.9921875,-16.6015625,-1.0,-1.0,1.0,1.0,5.m4v,3.0
2024-02-27 11:35:22.714055,1709030122.7140553,-33.203125,-37.59765625,-41.015625,-27.83203125,-1.0,-1.0,1.0,1.0,5.m4v,3.0
2024-02-27 11:35:22.717959,1709030122.7179594,-30.2734375,-33.69140625,-34.1796875,-25.390625,-1.0,-1.0,1.0,1.0,5.m4v,3.0
2024-02-27 11:35:22.721863,1709030122.7218633,-25.390625,-27.34375,-17.08984375,-20.5078125,-1.0,-1.0,1.0,1.0,5.m4v,3.0
2024-02-27 11:35:22.725767,1709030122.7257674,-23.92578125,-25.87890625,-8.30078125,-18.5546875,-1.0,-1.0,1.0,1.0,5.m4v,3.0
2024-02-27 11:35:22.729671,1709030122.7296717,-21.97265625,-39.0625,-17.08984375,-15.625,-1.0,-1.0,1.0,1.0,5.m4v,3.0
2024-02-27 11:35:22.733576,1709030122.7335756,-18.5546875,-48.828125,-26.3671875,-30.76171875,-1.0,-1.0,1.0,1.0,5.m4v,3.0
2024-02-27 11:35:22.737479,1709030122.7374794,-25.87890625,-34.1796875,-27.83203125,-40.0390625,-1.0,-1.0,1.0,1.0,5.m4v,3.0
2024-02-27 11:35:22.741384,1709030122.7413836,-30.2734375,-16.11328125,-28.80859375,-40.52734375,-1.0,-1.0,1.0,1.0,5.m4v,3.0
2024-02-27 11:35:22.745288,1709030122.7452877,-32.2265625,-42.96875,-22.4609375,-49.8046875,-1.0,-1.0,1.0,1.0,5.m4v,3.0
2024-02-27 11:35:22.749213,1709030122.749213,-40.52734375,-55.6640625,-28.3203125,-43.45703125,-1.0,-1.0,1.0,1.0,5.m4v,3.0
2024-02-27 11:35:22.753117,1709030122.753117,-47.36328125,-47.36328125,-36.62109375,-43.9453125,-1.0,-1.0,1.0,1.0,5.m4v,3.0
2024-02-27 11:35:22.757021,1709030122.757021,-55.6640625,-46.38671875,-27.34375,-61.03515625,-1.0,-1.0,1.0,1.0,5.m4v,3.0
2024-02-27 11:35:22.760925,1709030122.760925,-57.6171875,-49.31640625,-29.296875,-59.5703125,-1.0,-1.0,1.0,1.0,5.m4v,3.0
2024-02-27 11:35:22.764829,1709030122.7648292,-43.45703125,-33.69140625,-29.296875,-26.85546875,-1.0,-1.0,1.0,1.0,5.m4v,3.0
2024-02-27 11:35:22.768733,1709030122.768733,-44.921875,-0.48828125,-22.4609375,-8.30078125,-1.0,-1.0,1.0,1.0,5.m4v,3.0
2024-02-27 11:35:22.772637,1709030122.7726371,-42.48046875,-4.39453125,-24.4140625,-18.06640625,-1.0,-1.0,1.0,1.0,5.m4v,3.0
2024-02-27 11:35:22.776541,1709030122.7765412,-34.66796875,-23.92578125,-28.3203125,-25.87890625,-1.0,-1.0,1.0,1.0,5.m4v,3.0
2024-02-27 11:35:22.780445,1709030122.780445,-38.57421875,-28.80859375,-19.04296875,-35.15625,-1.0,-1.0,1.0,1.0,5.m4v,3.0
2024-02-27 11:35:22.784349,1709030122.7843492,-43.9453125,-28.3203125,-11.71875,-40.52734375,-1.0,-1.0,1.0,1.0,5.m4v,3.0
2024-02-27 11:35:22.788253,1709030122.7882533,-46.38671875,-28.3203125,-24.90234375,-40.52734375,-1.0,-1.0,1.0,1.0,5.m4v,3.0
2024-02-27 11:35:22.792157,1709030122.7921574,-38.0859375,-36.62109375,-45.41015625,-44.921875,-1.0,-1.0,1.0,1.0,5.m4v,3.0
2024-02-27 11:35:22.796083,1709030122.7960827,-36.1328125,-30.76171875,-52.24609375,-56.640625,-1.0,-1.0,1.0,1.0,5.m4v,3.0
2024-02-27 11:35:22.799987,1709030122.7999868,-39.0625,-21.484375,-35.64453125,-64.94140625,-1.0,-1.0,1.0,1.0,5.m4v,3.0
2024-02-27 11:35:22.803891,1709030122.8038907,-41.9921875,-21.484375,-20.5078125,-52.24609375,-1.0,-1.0,1.0,1.0,5.m4v,3.0
2024-02-27 11:35:22.807795,1709030122.8077948,-37.109375,-27.83203125,-20.5078125,-36.62109375,-1.0,-1.0,1.0,1.0,5.m4v,3.0
2024-02-27 11:35:22.811699,1709030122.811699,-30.2734375,-18.06640625,-29.78515625,-31.73828125,-1.0,-1.0,1.0,1.0,5.m4v,3.0
2024-02-27 11:35:22.815603,1709030122.8156028,-35.64453125,4.8828125,-36.62109375,-31.25,-1.0,-1.0,1.0,1.0,5.m4v,3.0
2024-02-27 11:35:22.819507,1709030122.819507,-43.9453125,-6.34765625,-44.921875,-30.76171875,-1.0,-1.0,1.0,1.0,5.m4v,3.0
2024-02-27 11:35:22.823411,1709030122.823411,-56.15234375,-36.62109375,-40.52734375,-27.34375,-1.0,-1.0,1.0,1.0,5.m4v,3.0
2024-02-27 11:35:22.827315,1709030122.827315,-54.6875,-47.36328125,-35.15625,-15.625,-1.0,-1.0,1.0,1.0,5.m4v,3.0
2024-02-27 11:35:22.831219,1709030122.831219,-33.203125,-45.41015625,-30.2734375,-12.20703125,-1.0,-1.0,1.0,1.0,5.m4v,3.0
2024-02-27 11:35:22.835123,1709030122.835123,-21.97265625,-41.9921875,-23.4375,-20.5078125,-1.0,-1.0,1.0,1.0,5.m4v,3.0
2024-02-27 11:35:22.839027,1709030122.8390272,-26.85546875,-35.64453125,-32.2265625,-21.484375,-1.0,-1.0,1.0,1.0,5.m4v,3.0
2024-02-27 11:35:22.842951,1709030122.8429506,-30.2734375,-23.92578125,-30.2734375,-16.6015625,-1.0,-1.0,1.0,1.0,5.m4v,3.0
2024-02-27 11:35:22.846854,1709030122.8468544,-25.390625,-24.4140625,-19.04296875,-8.30078125,-1.0,-1.0,1.0,1.0,5.m4v,3.0
2024-02-27 11:35:22.850759,1709030122.8507586,-30.2734375,-29.78515625,-28.80859375,-17.08984375,-1.0,-1.0,1.0,1.0,5.m4v,3.0
2024-02-27 11:35:22.854663,1709030122.854663,-37.59765625,-35.15625,-34.1796875,-39.55078125,-1.0,-1.0,1.0,1.0,5.m4v,3.0
2024-02-27 11:35:22.858567,1709030122.8585663,-37.109375,-38.57421875,-34.66796875,-50.29296875,-1.0,-1.0,1.0,1.0,5.m4v,3.0
2024-02-27 11:35:22.862471,1709030122.8624706,-45.41015625,-24.4140625,-37.59765625,-47.8515625,-1.0,-1.0,1.0,1.0,5.m4v,3.0
2024-02-27 11:35:22.866375,1709030122.8663747,-46.38671875,-17.578125,-27.34375,-34.1796875,-1.0,-1.0,1.0,1.0,5.m4v,3.0
2024-02-27 11:35:22.870279,1709030122.8702786,-44.921875,-37.59765625,-26.85546875,-39.55078125,-1.0,-1.0,1.0,1.0,5.m4v,3.0
2024-02-27 11:35:22.874183,1709030122.8741827,-58.10546875,-54.6875,-37.59765625,-62.01171875,-1.0,-1.0,1.0,1.0,5.m4v,3.0
2024-02-27 11:35:22.878087,1709030122.8780868,-64.94140625,-55.6640625,-41.9921875,-63.4765625,-1.0,-1.0,1.0,1.0,5.m4v,3.0
2024-02-27 11:35:22.881991,1709030122.881991,-77.63671875,-55.6640625,-45.8984375,-65.91796875,-1.0,-1.0,1.0,1.0,5.m4v,3.0
2024-02-27 11:35:22.885895,1709030122.8858948,-91.796875,-51.26953125,-44.921875,-69.3359375,-1.0,-1.0,1.0,1.0,5.m4v,3.0
2024-02-27 11:35:22.889817,1709030122.8898172,-79.58984375,-38.0859375,-44.43359375,-57.6171875,-1.0,-1.0,1.0,1.0,5.m4v,3.0
2024-02-27 11:35:22.893721,1709030122.893721,-81.0546875,-25.87890625,-44.43359375,-68.84765625,-1.0,-1.0,1.0,1.0,5.m4v,3.0
2024-02-27 11:35:22.897625,1709030122.8976252,-97.16796875,-31.25,-37.109375,-88.37890625,-1.0,-1.0,1.0,1.0,5.m4v,3.0
2024-02-27 11:35:22.901529,1709030122.9015293,-95.21484375,-36.1328125,-38.0859375,-90.8203125,-1.0,-1.0,1.0,1.0,5.m4v,3.0
2024-02-27 11:35:22.905433,1709030122.9054334,-93.75,-17.08984375,-47.8515625,-85.9375,-1.0,-1.0,1.0,1.0,5.m4v,3.0
2024-02-27 11:35:22.909337,1709030122.9093373,-92.28515625,15.625,-45.8984375,-87.40234375,-1.0,-1.0,1.0,1.0,5.m4v,3.0
2024-02-27 11:35:22.913241,1709030122.9132414,-89.35546875,1.953125,-50.78125,-104.98046875,-1.0,-1.0,1.0,1.0,5.m4v,3.0
2024-02-27 11:35:22.917145,1709030122.9171455,-85.9375,-14.16015625,-53.7109375,-124.0234375,-1.0,-1.0,1.0,1.0,5.m4v,3.0
2024-02-27 11:35:22.921049,1709030122.9210494,-90.33203125,0.9765625,-48.828125,-135.25390625,-1.0,-1.0,1.0,1.0,5.m4v,3.0
2024-02-27 11:35:22.924953,1709030122.9249537,-83.49609375,-1.953125,-48.33984375,-115.72265625,-1.0,-1.0,1.0,1.0,5.m4v,3.0
2024-02-27 11:35:22.928858,1709030122.9288576,-85.9375,-10.25390625,-63.4765625,-106.4453125,-1.0,-1.0,1.0,1.0,5.m4v,3.0
2024-02-27 11:35:22.932761,1709030122.9327614,-103.02734375,-9.765625,-80.56640625,-133.7890625,-1.0,-1.0,1.0,1.0,5.m4v,3.0
2024-02-27 11:35:22.936683,1709030122.9366832,-103.02734375,-1.953125,-76.171875,-156.73828125,-1.0,-1.0,1.0,1.0,5.m4v,3.0
2024-02-27 11:35:22.940587,1709030122.9405873,-105.46875,0.9765625,-69.82421875,-168.9453125,-1.0,-1.0,1.0,1.0,5.m4v,3.0
2024-02-27 11:35:22.944491,1709030122.9444911,-101.5625,13.671875,-74.21875,-154.78515625,-1.0,-1.0,1.0,1.0,5.m4v,3.0
2024-02-27 11:35:22.948395,1709030122.9483953,-113.28125,13.671875,-82.51953125,-145.99609375,-1.0,-1.0,1.0,1.0,5.m4v,3.0
2024-02-27 11:35:22.952299,1709030122.9522994,-135.25390625,-8.30078125,-77.1484375,-162.59765625,-1.0,-1.0,1.0,1.0,5.m4v,3.0
2024-02-27 11:35:22.956203,1709030122.9562032,-139.16015625,6.8359375,-64.453125,-169.43359375,-1.0,-1.0,1.0,1.0,5.m4v,3.0
2024-02-27 11:35:22.960107,1709030122.960107,-145.99609375,1.953125,-62.5,-169.43359375,-1.0,-1.0,1.0,1.0,5.m4v,3.0
2024-02-27 11:35:22.964011,1709030122.9640114,-149.4140625,-28.3203125,-59.08203125,-154.296875,-1.0,-1.0,1.0,1.0,5.m4v,3.0
2024-02-27 11:35:22.967915,1709030122.9679153,-143.5546875,-15.13671875,-54.6875,-137.6953125,-1.0,-1.0,1.0,1.0,5.m4v,3.0
2024-02-27 11:35:22.971819,1709030122.9718194,-134.27734375,-13.671875,-57.6171875,-140.13671875,-1.0,-1.0,1.0,1.0,5.m4v,3.0
2024-02-27 11:35:22.975724,1709030122.9757235,-119.62890625,-7.8125,-63.96484375,-148.4375,-1.0,-1.0,1.0,1.0,5.m4v,3.0
2024-02-27 11:35:22.979628,1709030122.9796276,-114.74609375,17.08984375,-70.80078125,-151.85546875,-1.0,-1.0,1.0,1.0,5.m4v,3.0
2024-02-27 11:35:22.983554,1709030122.983554,-115.72265625,8.30078125,-68.359375,-140.13671875,-1.0,-1.0,1.0,1.0,5.m4v,3.0
2024-02-27 11:35:22.987458,1709030122.987458,-98.14453125,-13.671875,-72.265625,-121.09375,-1.0,-1.0,1.0,1.0,5.m4v,3.0
2024-02-27 11:35:22.991362,1709030122.991362,-73.2421875,-16.11328125,-75.1953125,-103.515625,-1.0,-1.0,1.0,1.0,5.m4v,3.0
2024-02-27 11:35:22.995266,1709030122.995266,-64.453125,-21.484375,-57.12890625,-100.5859375,-1.0,-1.0,1.0,1.0,5.m4v,3.0
2024-02-27 11:35:22.999170,1709030122.99917,-73.73046875,-20.99609375,-42.96875,-110.83984375,-1.0,-1.0,1.0,1.0,5.m4v,3.0
2024-02-27 11:35:23.003074,1709030123.0030742,-92.7734375,-9.765625,-48.33984375,-120.1171875,-1.0,-1.0,1.0,1.0,5.m4v,3.0
2024-02-27 11:35:23.006978,1709030123.006978,-94.23828125,-25.390625,-57.12890625,-113.76953125,-1.0,-1.0,1.0,1.0,5.m4v,3.0
2024-02-27 11:35:23.010882,1709030123.010882,-75.1953125,-47.36328125,-50.78125,-103.02734375,-1.0,-1.0,1.0,1.0,5.m4v,3.0
2024-02-27 11:35:23.014786,1709030123.0147862,-73.73046875,-40.52734375,-55.6640625,-107.421875,-1.0,-1.0,1.0,1.0,5.m4v,3.0
2024-02-27 11:35:23.018690,1709030123.01869,-89.84375,-35.64453125,-56.640625,-113.76953125,-1.0,-1.0,1.0,1.0,5.m4v,3.0
2024-02-27 11:35:23.022594,1709030123.0225942,-92.7734375,-37.59765625,-46.38671875,-101.07421875,-1.0,-1.0,1.0,1.0,5.m4v,3.0
2024-02-27 11:35:23.026498,1709030123.0264983,-68.84765625,-19.04296875,-36.62109375,-63.4765625,-1.0,-1.0,1.0,1.0,5.m4v,3.0
2024-02-27 11:35:23.030426,1709030123.0304258,-49.31640625,-19.53125,-24.90234375,-48.33984375,-1.0,-1.0,1.0,1.0,5.m4v,3.0
2024-02-27 11:35:23.034330,1709030123.03433,-46.875,-41.015625,-30.2734375,-55.17578125,-1.0,-1.0,1.0,1.0,5.m4v,3.0
2024-02-27 11:35:23.038234,1709030123.038234,-48.828125,-40.52734375,-40.0390625,-51.7578125,-1.0,-1.0,1.0,1.0,5.m4v,3.0
2024-02-27 11:35:23.042138,1709030123.042138,-46.38671875,-51.26953125,-28.3203125,-41.9921875,-1.0,-1.0,1.0,1.0,5.m4v,3.0
2024-02-27 11:35:23.046042,1709030123.046042,-39.0625,-63.4765625,-15.13671875,-25.390625,-1.0,-1.0,1.0,1.0,5.m4v,3.0
2024-02-27 11:35:23.049946,1709030123.049946,-44.43359375,-46.38671875,-13.671875,-15.13671875,-1.0,-1.0,1.0,1.0,5.m4v,3.0
2024-02-27 11:35:23.053850,1709030123.0538502,-37.109375,-50.29296875,-9.765625,-11.71875,-1.0,-1.0,1.0,1.0,5.m4v,3.0
2024-02-27 11:35:23.057754,1709030123.057754,-26.85546875,-68.359375,-7.32421875,-10.25390625,-1.0,-1.0,1.0,1.0,5.m4v,3.0
2024-02-27 11:35:23.061658,1709030123.061658,-34.66796875,-66.89453125,-12.20703125,-9.27734375,-1.0,-1.0,1.0,1.0,5.m4v,3.0
2024-02-27 11:35:23.065562,1709030123.0655622,-46.875,-63.96484375,-12.6953125,2.9296875,-1.0,-1.0,1.0,1.0,5.m4v,3.0
2024-02-27 11:35:23.069466,1709030123.069466,-47.36328125,-56.15234375,-5.859375,19.04296875,-1.0,-1.0,1.0,1.0,5.m4v,3.0
2024-02-27 11:35:23.073370,1709030123.0733702,-37.109375,-59.08203125,0.48828125,20.5078125,-1.0,-1.0,1.0,1.0,5.m4v,3.0
2024-02-27 11:35:23.077297,1709030123.077297,-34.1796875,-69.82421875,-8.7890625,10.7421875,-1.0,-1.0,1.0,1.0,5.m4v,3.0
2024-02-27 11:35:23.081201,1709030123.081201,-26.3671875,-70.3125,-23.4375,5.37109375,-1.0,-1.0,1.0,1.0,5.m4v,3.0
2024-02-27 11:35:23.085105,1709030123.085105,2.9296875,-54.19921875,-16.6015625,19.53125,-1.0,-1.0,1.0,1.0,5.m4v,3.0
2024-02-27 11:35:23.089009,1709030123.089009,10.25390625,-52.734375,-4.39453125,24.4140625,-1.0,-1.0,1.0,1.0,5.m4v,3.0
2024-02-27 11:35:23.092913,1709030123.0929132,11.23046875,-54.19921875,-10.25390625,14.16015625,-1.0,-1.0,1.0,1.0,5.m4v,3.0
2024-02-27 11:35:23.096817,1709030123.096817,24.4140625,-32.71484375,-16.6015625,16.6015625,-1.0,-1.0,1.0,1.0,5.m4v,3.0
2024-02-27 11:35:23.100721,1709030123.1007211,34.66796875,-14.6484375,-2.44140625,31.73828125,-1.0,-1.0,1.0,1.0,5.m4v,3.0
2024-02-27 11:35:23.104625,1709030123.1046252,38.0859375,-28.3203125,-3.41796875,38.0859375,-1.0,-1.0,1.0,1.0,5.m4v,3.0
2024-02-27 11:35:23.108529,1709030123.108529,39.55078125,-44.921875,-8.30078125,41.015625,-1.0,-1.0,1.0,1.0,5.m4v,3.0
2024-02-27 11:35:23.112433,1709030123.1124332,39.55078125,-57.6171875,-8.30078125,38.57421875,-1.0,-1.0,1.0,1.0,5.m4v,3.0
2024-02-27 11:35:23.116337,1709030123.1163373,45.8984375,-66.89453125,-12.6953125,36.1328125,-1.0,-1.0,1.0,1.0,5.m4v,3.0
2024-02-27 11:35:23.120241,1709030123.1202414,42.96875,-47.8515625,-12.20703125,39.55078125,-1.0,-1.0,1.0,1.0,5.m4v,3.0
2024-02-27 11:35:23.124167,1709030123.1241667,13.18359375,-43.45703125,-23.92578125,45.41015625,-1.0,-1.0,1.0,1.0,5.m4v,3.0
2024-02-27 11:35:23.128071,1709030123.1280708,1.46484375,-43.9453125,-23.92578125,57.12890625,-1.0,-1.0,1.0,1.0,5.m4v,3.0
2024-02-27 11:35:23.131975,1709030123.131975,14.6484375,-28.80859375,-9.27734375,51.7578125,-1.0,-1.0,1.0,1.0,5.m4v,3.0
2024-02-27 11:35:23.135879,1709030123.1358788,26.85546875,-27.34375,-13.18359375,39.0625,-1.0,-1.0,1.0,1.0,5.m4v,3.0
2024-02-27 11:35:23.139783,1709030123.139783,22.94921875,-34.66796875,-18.5546875,29.296875,-1.0,-1.0,1.0,1.0,5.m4v,3.0
2024-02-27 11:35:23.143687,1709030123.143687,14.6484375,-27.34375,-15.13671875,34.66796875,-1.0,-1.0,1.0,1.0,5.m4v,3.0
2024-02-27 11:35:23.147591,1709030123.1475909,21.97265625,-43.45703125,-8.7890625,46.38671875,-1.0,-1.0,1.0,1.0,5.m4v,3.0
2024-02-27 11:35:23.151495,1709030123.151495,38.57421875,-61.03515625,-17.578125,46.38671875,-1.0,-1.0,1.0,1.0,5.m4v,3.0
2024-02-27 11:35:23.155399,1709030123.155399,43.45703125,-60.546875,-28.80859375,36.62109375,-1.0,-1.0,1.0,1.0,5.m4v,3.0
2024-02-27 11:35:23.159303,1709030123.1593032,28.3203125,-56.640625,-26.3671875,20.01953125,-1.0,-1.0,1.0,1.0,5.m4v,3.0
2024-02-27 11:35:23.163207,1709030123.163207,8.7890625,-56.640625,-17.578125,5.859375,-1.0,-1.0,1.0,1.0,5.m4v,3.0
2024-02-27 11:35:23.167111,1709030123.1671112,1.953125,-61.03515625,-16.6015625,4.39453125,-1.0,-1.0,1.0,1.0,5.m4v,3.0
2024-02-27 11:35:23.171035,1709030123.1710348,9.765625,-47.8515625,-16.11328125,16.6015625,-1.0,-1.0,1.0,1.0,5.m4v,3.0
2024-02-27 11:35:23.174939,1709030123.174939,12.6953125,-39.55078125,-17.578125,19.04296875,-1.0,-1.0,1.0,1.0,5.m4v,3.0
2024-02-27 11:35:23.178843,1709030123.178843,18.5546875,-31.25,-26.85546875,14.16015625,-1.0,-1.0,1.0,1.0,5.m4v,3.0
2024-02-27 11:35:23.182747,1709030123.182747,13.671875,-44.43359375,-38.57421875,14.16015625,-1.0,-1.0,1.0,1.0,5.m4v,3.0
2024-02-27 11:35:23.186651,1709030123.186651,7.32421875,-57.6171875,-31.25,18.5546875,-1.0,-1.0,1.0,1.0,5.m4v,3.0
2024-02-27 11:35:23.190555,1709030123.190555,22.94921875,-29.78515625,-22.94921875,16.11328125,-1.0,-1.0,1.0,1.0,5.m4v,3.0
2024-02-27 11:35:23.194459,1709030123.194459,22.4609375,-32.71484375,-31.25,7.32421875,-1.0,-1.0,1.0,1.0,5.m4v,3.0
2024-02-27 11:35:23.198363,1709030123.198363,9.27734375,-75.68359375,-37.59765625,-0.48828125,-1.0,-1.0,1.0,1.0,5.m4v,3.0
2024-02-27 11:35:23.202267,1709030123.2022672,4.39453125,-81.54296875,-33.69140625,-1.46484375,-1.0,-1.0,1.0,1.0,5.m4v,3.0
2024-02-27 11:35:23.206171,1709030123.2061713,3.41796875,-60.546875,-20.99609375,2.9296875,-1.0,-1.0,1.0,1.0,5.m4v,3.0
2024-02-27 11:35:23.210075,1709030123.2100751,15.625,-35.15625,-11.71875,19.53125,-1.0,-1.0,1.0,1.0,5.m4v,3.0
2024-02-27 11:35:23.213979,1709030123.2139792,14.6484375,-33.203125,-20.01953125,9.765625,-1.0,-1.0,1.0,1.0,5.m4v,3.0
2024-02-27 11:35:23.217903,1709030123.2179034,-1.46484375,-32.71484375,-32.2265625,-13.18359375,-1.0,-1.0,1.0,1.0,5.m4v,3.0
2024-02-27 11:35:23.221807,1709030123.2218077,-8.7890625,-28.3203125,-22.4609375,-7.32421875,-1.0,-1.0,1.0,1.0,5.m4v,3.0
2024-02-27 11:35:23.225711,1709030123.225711,-18.06640625,-36.1328125,-31.73828125,-3.41796875,-1.0,-1.0,1.0,1.0,5.m4v,3.0
2024-02-27 11:35:23.229615,1709030123.2296154,-14.16015625,-36.62109375,-48.828125,-7.32421875,-1.0,-1.0,1.0,1.0,5.m4v,3.0
2024-02-27 11:35:23.233520,1709030123.2335196,-6.8359375,-48.33984375,-38.0859375,-13.671875,-1.0,-1.0,1.0,1.0,5.m4v,3.0
2024-02-27 11:35:23.237424,1709030123.2374237,-1.953125,-38.57421875,-29.296875,-16.11328125,-1.0,-1.0,1.0,1.0,5.m4v,3.0
2024-02-27 11:35:23.241328,1709030123.2413275,1.953125,-18.06640625,-31.73828125,-6.8359375,-1.0,-1.0,1.0,1.0,5.m4v,3.0
2024-02-27 11:35:23.245232,1709030123.2452316,-0.48828125,-39.0625,-29.78515625,8.30078125,-1.0,-1.0,1.0,1.0,5.m4v,3.0
2024-02-27 11:35:23.249136,1709030123.2491355,-2.44140625,-61.5234375,-27.34375,7.8125,-1.0,-1.0,1.0,1.0,5.m4v,3.0
2024-02-27 11:35:23.253040,1709030123.2530398,-6.8359375,-57.6171875,-31.25,-13.671875,-1.0,-1.0,1.0,1.0,5.m4v,3.0
2024-02-27 11:35:23.256944,1709030123.2569437,-10.25390625,-51.7578125,-35.64453125,-34.66796875,-1.0,-1.0,1.0,1.0,5.m4v,3.0
2024-02-27 11:35:23.260848,1709030123.2608478,-17.08984375,-47.36328125,-32.71484375,-42.96875,-1.0,-1.0,1.0,1.0,5.m4v,3.0
2024-02-27 11:35:23.264770,1709030123.26477,-20.01953125,-44.921875,-28.80859375,-24.90234375,-1.0,-1.0,1.0,1.0,5.m4v,3.0
2024-02-27 11:35:23.268674,1709030123.268674,-13.671875,-33.203125,-39.55078125,-7.8125,-1.0,-1.0,1.0,1.0,5.m4v,3.0
2024-02-27 11:35:23.272578,1709030123.2725782,-43.9453125,-39.0625,-44.43359375,-36.1328125,-1.0,-1.0,1.0,1.0,5.m4v,3.0
2024-02-27 11:35:23.276482,1709030123.2764823,-69.82421875,-59.5703125,-32.71484375,-61.5234375,-1.0,-1.0,1.0,1.0,5.m4v,3.0
2024-02-27 11:35:23.280386,1709030123.2803862,-47.8515625,-44.921875,-22.94921875,-37.109375,-1.0,-1.0,1.0,1.0,5.m4v,3.0
2024-02-27 11:35:23.284290,1709030123.2842903,-27.34375,-15.625,-18.5546875,-8.30078125,-1.0,-1.0,1.0,1.0,5.m4v,3.0
2024-02-27 11:35:23.288194,1709030123.2881944,-29.78515625,-21.97265625,-24.4140625,0.0,-1.0,-1.0,1.0,1.0,5.m4v,3.0
2024-02-27 11:35:23.292098,1709030123.2920983,-41.015625,-66.89453125,-39.55078125,-22.4609375,-1.0,-1.0,1.0,1.0,5.m4v,3.0
2024-02-27 11:35:23.296002,1709030123.2960024,-40.0390625,-75.68359375,-48.828125,-42.48046875,-1.0,-1.0,1.0,1.0,5.m4v,3.0
2024-02-27 11:35:23.299906,1709030123.2999065,-31.25,-60.546875,-54.6875,-35.15625,-1.0,-1.0,1.0,1.0,5.m4v,3.0
2024-02-27 11:35:23.303811,1709030123.3038106,-26.3671875,-56.15234375,-37.109375,-30.2734375,-1.0,-1.0,1.0,1.0,5.m4v,3.0
2024-02-27 11:35:23.307714,1709030123.3077145,-27.34375,-43.45703125,-18.06640625,-21.97265625,-1.0,-1.0,1.0,1.0,5.m4v,3.0
2024-02-27 11:35:23.311652,1709030123.3116522,-16.11328125,-29.296875,-12.20703125,-10.7421875,-1.0,-1.0,1.0,1.0,5.m4v,3.0
2024-02-27 11:35:23.315556,1709030123.315556,-4.39453125,-27.83203125,-19.04296875,-25.390625,-1.0,-1.0,1.0,1.0,5.m4v,3.0
2024-02-27 11:35:23.319460,1709030123.3194602,-20.99609375,-37.59765625,-27.34375,-49.31640625,-1.0,-1.0,1.0,1.0,5.m4v,3.0
2024-02-27 11:35:23.323364,1709030123.3233645,-33.69140625,-34.66796875,-26.85546875,-40.52734375,-1.0,-1.0,1.0,1.0,5.m4v,3.0
2024-02-27 11:35:23.327268,1709030123.3272684,-26.3671875,-26.3671875,-32.71484375,-20.01953125,-1.0,-1.0,1.0,1.0,5.m4v,3.0
2024-02-27 11:35:23.331172,1709030123.3311722,-21.97265625,-16.11328125,-42.96875,-23.4375,-1.0,-1.0,1.0,1.0,5.m4v,3.0
2024-02-27 11:35:23.335076,1709030123.3350763,-28.3203125,-48.33984375,-52.734375,-44.921875,-1.0,-1.0,1.0,1.0,5.m4v,3.0
2024-02-27 11:35:23.338980,1709030123.3389804,-27.83203125,-56.640625,-49.31640625,-41.9921875,-1.0,-1.0,1.0,1.0,5.m4v,3.0
2024-02-27 11:35:23.342885,1709030123.3428843,-24.90234375,-29.78515625,-26.85546875,-24.4140625,-1.0,-1.0,1.0,1.0,5.m4v,3.0
2024-02-27 11:35:23.346788,1709030123.3467884,-32.71484375,-44.921875,-25.87890625,-22.4609375,-1.0,-1.0,1.0,1.0,5.m4v,3.0
2024-02-27 11:35:23.350693,1709030123.3506925,-26.85546875,-35.64453125,-31.73828125,-18.06640625,-1.0,-1.0,1.0,1.0,5.m4v,3.0
2024-02-27 11:35:23.354597,1709030123.3545966,-20.01953125,-29.78515625,-35.64453125,-22.94921875,-1.0,-1.0,1.0,1.0,5.m4v,3.0
2024-02-27 11:35:23.358525,1709030123.358525,-32.2265625,-58.10546875,-39.55078125,-36.1328125,-1.0,-1.0,1.0,1.0,5.m4v,3.0
2024-02-27 11:35:23.362429,1709030123.3624291,-42.96875,-52.734375,-44.43359375,-41.9921875,-1.0,-1.0,1.0,1.0,5.m4v,3.0
2024-02-27 11:35:23.366333,1709030123.366333,-36.1328125,-26.3671875,-54.6875,-34.66796875,-1.0,-1.0,1.0,1.0,5.m4v,3.0
2024-02-27 11:35:23.370237,1709030123.370237,-22.4609375,-23.4375,-39.0625,-21.484375,-1.0,-1.0,1.0,1.0,5.m4v,3.0
2024-02-27 11:35:23.374141,1709030123.3741412,-19.53125,-37.109375,-25.390625,-33.69140625,-1.0,-1.0,1.0,1.0,5.m4v,3.0
2024-02-27 11:35:23.378045,1709030123.378045,-20.5078125,-22.94921875,-26.85546875,-45.41015625,-1.0,-1.0,1.0,1.0,5.m4v,3.0
2024-02-27 11:35:23.381949,1709030123.3819492,-27.83203125,-17.578125,-38.0859375,-44.921875,-1.0,-1.0,1.0,1.0,5.m4v,3.0
2024-02-27 11:35:23.385853,1709030123.3858533,-34.1796875,-46.875,-45.8984375,-44.921875,-1.0,-1.0,1.0,1.0,5.m4v,3.0
2024-02-27 11:35:23.389757,1709030123.3897574,-33.69140625,-43.9453125,-34.1796875,-36.1328125,-1.0,-1.0,1.0,1.0,5.m4v,3.0
2024-02-27 11:35:23.393661,1709030123.3936613,-41.015625,-36.1328125,-35.15625,-48.33984375,-1.0,-1.0,1.0,1.0,5.m4v,3.0
2024-02-27 11:35:23.397565,1709030123.3975654,-50.29296875,-39.0625,-54.6875,-74.70703125,-1.0,-1.0,1.0,1.0,5.m4v,3.0
2024-02-27 11:35:23.401469,1709030123.4014697,-50.78125,-30.2734375,-59.08203125,-75.68359375,-1.0,-1.0,1.0,1.0,5.m4v,3.0
2024-02-27 11:35:23.405397,1709030123.4053967,-43.45703125,-28.3203125,-38.57421875,-46.38671875,-1.0,-1.0,1.0,1.0,5.m4v,3.0
2024-02-27 11:35:23.409301,1709030123.4093008,-48.33984375,-30.76171875,-32.2265625,-30.2734375,-1.0,-1.0,1.0,1.0,5.m4v,3.0
2024-02-27 11:35:23.413205,1709030123.413205,-50.29296875,-20.99609375,-31.25,-31.25,-1.0,-1.0,1.0,1.0,5.m4v,3.0
2024-02-27 11:35:23.417109,1709030123.417109,-42.48046875,-20.99609375,-34.66796875,-46.875,-1.0,-1.0,1.0,1.0,5.m4v,3.0
2024-02-27 11:35:23.421013,1709030123.4210129,-39.0625,-44.43359375,-28.80859375,-55.17578125,-1.0,-1.0,1.0,1.0,5.m4v,3.0
2024-02-27 11:35:23.424917,1709030123.424917,-41.50390625,-39.55078125,-22.94921875,-38.0859375,-1.0,-1.0,1.0,1.0,5.m4v,3.0
2024-02-27 11:35:23.428821,1709030123.428821,-41.50390625,-35.15625,-42.48046875,-30.2734375,-1.0,-1.0,1.0,1.0,5.m4v,3.0
2024-02-27 11:35:23.432725,1709030123.4327252,-35.15625,-40.0390625,-37.109375,-35.64453125,-1.0,-1.0,1.0,1.0,5.m4v,3.0
2024-02-27 11:35:23.436629,1709030123.436629,-32.2265625,-34.66796875,-25.87890625,-46.875,-1.0,-1.0,1.0,1.0,5.m4v,3.0
2024-02-27 11:35:23.440533,1709030123.4405332,-32.71484375,-43.45703125,-25.390625,-53.22265625,-1.0,-1.0,1.0,1.0,5.m4v,3.0
2024-02-27 11:35:23.444437,1709030123.4444373,-28.80859375,-35.15625,-30.2734375,-35.64453125,-1.0,-1.0,1.0,1.0,5.m4v,3.0
2024-02-27 11:35:23.448341,1709030123.4483411,-29.78515625,-22.94921875,-34.66796875,-24.4140625,-1.0,-1.0,1.0,1.0,5.m4v,3.0
2024-02-27 11:35:23.452268,1709030123.4522676,-41.015625,-28.3203125,-41.9921875,-39.0625,-1.0,-1.0,1.0,1.0,5.m4v,3.0
2024-02-27 11:35:23.456172,1709030123.4561715,-45.8984375,-39.55078125,-44.921875,-48.828125,-1.0,-1.0,1.0,1.0,5.m4v,3.0
2024-02-27 11:35:23.460076,1709030123.4600756,-43.9453125,-34.66796875,-47.36328125,-45.41015625,-1.0,-1.0,1.0,1.0,5.m4v,3.0
2024-02-27 11:35:23.463980,1709030123.4639795,-41.50390625,-28.3203125,-51.7578125,-40.52734375,-1.0,-1.0,1.0,1.0,5.m4v,3.0
2024-02-27 11:35:23.467884,1709030123.4678838,-37.109375,-32.71484375,-33.69140625,-30.76171875,-1.0,-1.0,1.0,1.0,5.m4v,3.0
2024-02-27 11:35:23.471788,1709030123.4717877,-32.71484375,-12.6953125,-29.78515625,-18.06640625,-1.0,-1.0,1.0,1.0,5.m4v,3.0
2024-02-27 11:35:23.475692,1709030123.4756918,-25.87890625,-21.97265625,-41.015625,-26.3671875,-1.0,-1.0,1.0,1.0,5.m4v,3.0
2024-02-27 11:35:23.479596,1709030123.479596,-23.4375,-45.8984375,-34.66796875,-40.52734375,-1.0,-1.0,1.0,1.0,5.m4v,3.0
2024-02-27 11:35:23.483500,1709030123.4834998,-33.203125,-39.55078125,-27.83203125,-33.69140625,-1.0,-1.0,1.0,1.0,5.m4v,3.0
2024-02-27 11:35:23.487404,1709030123.487404,-44.43359375,-31.25,-25.87890625,-23.92578125,-1.0,-1.0,1.0,1.0,5.m4v,3.0
2024-02-27 11:35:23.491308,1709030123.491308,-37.59765625,-29.296875,-24.90234375,-24.4140625,-1.0,-1.0,1.0,1.0,5.m4v,3.0
2024-02-27 11:35:23.495212,1709030123.495212,-29.78515625,-35.15625,-25.87890625,-36.62109375,-1.0,-1.0,1.0,1.0,5.m4v,3.0
2024-02-27 11:35:23.499137,1709030123.4991374,-34.1796875,-30.76171875,-26.3671875,-43.45703125,-1.0,-1.0,1.0,1.0,5.m4v,3.0
2024-02-27 11:35:23.503042,1709030123.5030415,-44.921875,-29.78515625,-38.0859375,-41.50390625,-1.0,-1.0,1.0,1.0,5.m4v,3.0
2024-02-27 11:35:23.506946,1709030123.5069456,-50.78125,-44.43359375,-49.31640625,-27.83203125,-1.0,-1.0,1.0,1.0,5.m4v,3.0
2024-02-27 11:35:23.510849,1709030123.5108497,-34.66796875,-40.0390625,-42.48046875,-14.16015625,-1.0,-1.0,1.0,1.0,5.m4v,3.0
2024-02-27 11:35:23.514754,1709030123.5147536,-38.0859375,-32.2265625,-28.80859375,-40.0390625,-1.0,-1.0,1.0,1.0,5.m4v,3.0
2024-02-27 11:35:23.518658,1709030123.5186577,-45.8984375,-20.99609375,-40.52734375,-58.10546875,-1.0,-1.0,1.0,1.0,5.m4v,3.0
2024-02-27 11:35:23.522562,1709030123.5225616,-42.96875,-10.7421875,-59.5703125,-46.875,-1.0,-1.0,1.0,1.0,5.m4v,3.0
2024-02-27 11:35:23.526466,1709030123.5264657,-50.29296875,-25.87890625,-45.41015625,-39.55078125,-1.0,-1.0,1.0,1.0,5.m4v,3.0
2024-02-27 11:35:23.530370,1709030123.5303698,-50.78125,-44.921875,-31.73828125,-38.0859375,-1.0,-1.0,1.0,1.0,5.m4v,3.0
2024-02-27 11:35:23.534274,1709030123.534274,-54.6875,-46.875,-35.64453125,-51.26953125,-1.0,-1.0,1.0,1.0,5.m4v,3.0
2024-02-27 11:35:23.538178,1709030123.5381775,-57.12890625,-32.71484375,-44.921875,-59.08203125,-1.0,-1.0,1.0,1.0,5.m4v,3.0
2024-02-27 11:35:23.542082,1709030123.5420818,-53.22265625,-32.71484375,-43.9453125,-48.828125,-1.0,-1.0,1.0,1.0,5.m4v,3.0
2024-02-27 11:35:23.546006,1709030123.5460064,-45.8984375,-47.36328125,-33.69140625,-35.64453125,-1.0,-1.0,1.0,1.0,5.m4v,3.0
2024-02-27 11:35:23.549911,1709030123.5499103,-36.62109375,-56.15234375,-42.48046875,-27.83203125,-1.0,-1.0,1.0,1.0,5.m4v,3.0
2024-02-27 11:35:23.553814,1709030123.5538144,-20.99609375,-41.9921875,-53.7109375,-34.66796875,-1.0,-1.0,1.0,1.0,5.m4v,3.0
2024-02-27 11:35:23.557719,1709030123.5577185,-33.69140625,-29.78515625,-41.015625,-46.38671875,-1.0,-1.0,1.0,1.0,5.m4v,3.0
2024-02-27 11:35:23.561623,1709030123.5616226,-58.10546875,-27.34375,-33.69140625,-55.6640625,-1.0,-1.0,1.0,1.0,5.m4v,3.0
2024-02-27 11:35:23.565527,1709030123.5655267,-49.31640625,-19.53125,-33.69140625,-43.45703125,-1.0,-1.0,1.0,1.0,5.m4v,3.0
2024-02-27 11:35:23.569431,1709030123.5694306,-43.45703125,-29.296875,-29.78515625,-23.4375,-1.0,-1.0,1.0,1.0,5.m4v,3.0
2024-02-27 11:35:23.573335,1709030123.5733347,-43.45703125,-50.29296875,-33.203125,-31.25,-1.0,-1.0,1.0,1.0,5.m4v,3.0
2024-02-27 11:35:23.577239,1709030123.5772388,-31.73828125,-35.64453125,-31.25,-41.50390625,-1.0,-1.0,1.0,1.0,5.m4v,3.0
2024-02-27 11:35:23.581143,1709030123.581143,-31.25,-18.06640625,-26.3671875,-33.203125,-1.0,-1.0,1.0,1.0,5.m4v,3.0
2024-02-27 11:35:23.585047,1709030123.5850468,-41.015625,-27.83203125,-33.203125,-23.92578125,-1.0,-1.0,1.0,1.0,5.m4v,3.0
2024-02-27 11:35:23.588951,1709030123.5889509,-40.52734375,-34.66796875,-34.1796875,-17.08984375,-1.0,-1.0,1.0,1.0,5.m4v,3.0
2024-02-27 11:35:23.592874,1709030123.592874,-34.66796875,-35.15625,-29.296875,-23.92578125,-1.0,-1.0,1.0,1.0,5.m4v,3.0
2024-02-27 11:35:23.596778,1709030123.5967782,-29.78515625,-30.76171875,-34.66796875,-35.15625,-1.0,-1.0,1.0,1.0,5.m4v,3.0
2024-02-27 11:35:23.600682,1709030123.6006825,-35.64453125,-30.2734375,-41.50390625,-45.8984375,-1.0,-1.0,1.0,1.0,5.m4v,3.0
2024-02-27 11:35:23.604586,1709030123.604586,-42.96875,-34.66796875,-29.296875,-41.50390625,-1.0,-1.0,1.0,1.0,5.m4v,3.0
2024-02-27 11:35:23.608490,1709030123.6084902,-35.64453125,-24.4140625,-22.4609375,-22.94921875,-1.0,-1.0,1.0,1.0,5.m4v,3.0
2024-02-27 11:35:23.612394,1709030123.6123943,-30.76171875,-4.8828125,-43.45703125,-24.90234375,-1.0,-1.0,1.0,1.0,5.m4v,3.0
2024-02-27 11:35:23.616298,1709030123.6162982,-38.0859375,-9.27734375,-55.17578125,-40.52734375,-1.0,-1.0,1.0,1.0,5.m4v,3.0
2024-02-27 11:35:23.620202,1709030123.6202023,-41.015625,-34.1796875,-40.0390625,-49.31640625,-1.0,-1.0,1.0,1.0,5.m4v,3.0
2024-02-27 11:35:23.624106,1709030123.6241064,-30.76171875,-31.25,-22.4609375,-36.62109375,-1.0,-1.0,1.0,1.0,5.m4v,3.0
2024-02-27 11:35:23.628011,1709030123.6280105,-26.3671875,-19.04296875,-15.13671875,-16.6015625,-1.0,-1.0,1.0,1.0,5.m4v,3.0
2024-02-27 11:35:23.631914,1709030123.6319144,-31.25,-15.625,-31.25,-21.484375,-1.0,-1.0,1.0,1.0,5.m4v,3.0
2024-02-27 11:35:23.635818,1709030123.6358185,-34.1796875,-19.53125,-41.50390625,-39.0625,-1.0,-1.0,1.0,1.0,5.m4v,3.0
2024-02-27 11:35:23.639750,1709030123.6397498,-41.9921875,-18.5546875,-28.80859375,-48.828125,-1.0,-1.0,1.0,1.0,5.m4v,3.0
2024-02-27 11:35:23.643654,1709030123.643654,-44.921875,-35.15625,-13.671875,-43.9453125,-1.0,-1.0,1.0,1.0,5.m4v,3.0
2024-02-27 11:35:23.647558,1709030123.647558,-40.0390625,-41.50390625,-21.97265625,-28.80859375,-1.0,-1.0,1.0,1.0,5.m4v,3.0
2024-02-27 11:35:23.651462,1709030123.651462,-37.109375,-30.76171875,-33.69140625,-29.296875,-1.0,-1.0,1.0,1.0,5.m4v,3.0
2024-02-27 11:35:23.655366,1709030123.655366,-41.9921875,-41.015625,-35.15625,-49.31640625,-1.0,-1.0,1.0,1.0,5.m4v,3.0
2024-02-27 11:35:23.659270,1709030123.65927,-48.828125,-27.83203125,-28.3203125,-53.22265625,-1.0,-1.0,1.0,1.0,5.m4v,3.0
2024-02-27 11:35:23.663174,1709030123.6631742,-36.62109375,-12.20703125,-26.3671875,-34.1796875,-1.0,-1.0,1.0,1.0,5.m4v,3.0
2024-02-27 11:35:23.667078,1709030123.667078,-27.83203125,-20.5078125,-36.62109375,-28.3203125,-1.0,-1.0,1.0,1.0,5.m4v,3.0
2024-02-27 11:35:23.670982,1709030123.670982,-27.34375,-18.5546875,-36.62109375,-38.0859375,-1.0,-1.0,1.0,1.0,5.m4v,3.0
2024-02-27 11:35:23.674886,1709030123.6748862,-25.87890625,-20.01953125,-35.64453125,-48.828125,-1.0,-1.0,1.0,1.0,5.m4v,3.0
2024-02-27 11:35:23.678790,1709030123.6787903,-37.109375,-34.1796875,-42.96875,-54.6875,-1.0,-1.0,1.0,1.0,5.m4v,3.0
2024-02-27 11:35:23.682694,1709030123.6826942,-48.828125,-36.62109375,-43.45703125,-53.7109375,-1.0,-1.0,1.0,1.0,5.m4v,3.0
2024-02-27 11:35:23.686615,1709030123.6866157,-48.33984375,-38.57421875,-33.69140625,-41.015625,-1.0,-1.0,1.0,1.0,5.m4v,3.0
2024-02-27 11:35:23.690519,1709030123.690519,-38.0859375,-33.69140625,-21.484375,-30.2734375,-1.0,-1.0,1.0,1.0,5.m4v,3.0
2024-02-27 11:35:23.694423,1709030123.6944234,-37.59765625,-19.04296875,-22.4609375,-41.9921875,-1.0,-1.0,1.0,1.0,5.m4v,3.0
2024-02-27 11:35:23.698328,1709030123.6983275,-42.48046875,-22.4609375,-29.78515625,-49.31640625,-1.0,-1.0,1.0,1.0,5.m4v,3.0
2024-02-27 11:35:23.702232,1709030123.7022316,-38.57421875,-18.06640625,-28.80859375,-39.0625,-1.0,-1.0,1.0,1.0,5.m4v,3.0
2024-02-27 11:35:23.706136,1709030123.7061355,-44.921875,-5.37109375,-32.71484375,-28.3203125,-1.0,-1.0,1.0,1.0,5.m4v,3.0
2024-02-27 11:35:23.710040,1709030123.7100396,-41.015625,-23.92578125,-48.33984375,-24.90234375,-1.0,-1.0,1.0,1.0,5.m4v,3.0
2024-02-27 11:35:23.713944,1709030123.7139435,-20.99609375,-41.015625,-50.29296875,-27.83203125,-1.0,-1.0,1.0,1.0,5.m4v,3.0
2024-02-27 11:35:23.717848,1709030123.7178478,-20.5078125,-22.4609375,-36.1328125,-32.71484375,-1.0,-1.0,1.0,1.0,5.m4v,3.0
2024-02-27 11:35:23.721752,1709030123.7217517,-39.0625,-43.9453125,-8.30078125,-40.52734375,-1.0,-1.0,1.0,1.0,5.m4v,3.0
2024-02-27 11:35:23.725656,1709030123.7256558,-44.921875,-52.24609375,0.9765625,-29.296875,-1.0,-1.0,1.0,1.0,5.m4v,3.0
2024-02-27 11:35:23.729560,1709030123.72956,-41.9921875,-43.45703125,-17.08984375,-23.92578125,-1.0,-1.0,1.0,1.0,5.m4v,3.0
2024-02-27 11:35:23.733481,1709030123.733481,-49.31640625,-51.7578125,-24.4140625,-39.55078125,-1.0,-1.0,1.0,1.0,5.m4v,3.0
2024-02-27 11:35:23.737385,1709030123.737385,-41.9921875,-36.1328125,-13.18359375,-36.1328125,-1.0,-1.0,1.0,1.0,5.m4v,3.0
2024-02-27 11:35:23.741289,1709030123.7412891,-34.66796875,-27.83203125,-18.5546875,-29.78515625,-1.0,-1.0,1.0,1.0,5.m4v,3.0
2024-02-27 11:35:23.745193,1709030123.745193,-33.69140625,-43.9453125,-29.78515625,-26.85546875,-1.0,-1.0,1.0,1.0,5.m4v,3.0
2024-02-27 11:35:23.749097,1709030123.749097,-26.3671875,-37.109375,-36.62109375,-11.23046875,-1.0,-1.0,1.0,1.0,5.m4v,3.0
2024-02-27 11:35:23.753001,1709030123.7530012,-24.90234375,-20.99609375,-42.96875,-14.6484375,-1.0,-1.0,1.0,1.0,5.m4v,3.0
2024-02-27 11:35:23.756905,1709030123.7569053,-34.1796875,-35.15625,-49.31640625,-33.69140625,-1.0,-1.0,1.0,1.0,5.m4v,3.0
2024-02-27 11:35:23.760809,1709030123.7608092,-40.0390625,-53.22265625,-46.38671875,-36.62109375,-1.0,-1.0,1.0,1.0,5.m4v,3.0
2024-02-27 11:35:23.764713,1709030123.7647133,-32.71484375,-47.36328125,-27.34375,-22.4609375,-1.0,-1.0,1.0,1.0,5.m4v,3.0
2024-02-27 11:35:23.768617,1709030123.7686174,-28.3203125,-37.109375,-27.34375,-16.11328125,-1.0,-1.0,1.0,1.0,5.m4v,3.0
2024-02-27 11:35:23.772521,1709030123.7725215,-23.92578125,-34.1796875,-21.484375,-28.80859375,-1.0,-1.0,1.0,1.0,5.m4v,3.0
2024-02-27 11:35:23.776425,1709030123.7764254,-24.4140625,-36.62109375,-23.4375,-44.43359375,-1.0,-1.0,1.0,1.0,5.m4v,3.0
2024-02-27 11:35:23.780352,1709030123.780352,-42.96875,-51.7578125,-41.9921875,-64.453125,-1.0,-1.0,1.0,1.0,5.m4v,3.0
2024-02-27 11:35:23.784256,1709030123.784256,-60.05859375,-61.5234375,-55.6640625,-68.84765625,-1.0,-1.0,1.0,1.0,5.m4v,3.0
2024-02-27 11:35:23.788160,1709030123.78816,-49.31640625,-42.96875,-44.43359375,-44.43359375,-1.0,-1.0,1.0,1.0,5.m4v,3.0
2024-02-27 11:35:23.792064,1709030123.7920642,-36.62109375,-33.203125,-34.1796875,-31.73828125,-1.0,-1.0,1.0,1.0,5.m4v,3.0
2024-02-27 11:35:23.795968,1709030123.7959683,-44.43359375,-45.41015625,-41.50390625,-51.7578125,-1.0,-1.0,1.0,1.0,5.m4v,3.0
2024-02-27 11:35:23.799872,1709030123.7998722,-42.48046875,-27.34375,-35.64453125,-53.7109375,-1.0,-1.0,1.0,1.0,5.m4v,3.0
2024-02-27 11:35:23.803776,1709030123.8037765,-39.55078125,-23.4375,-30.76171875,-39.55078125,-1.0,-1.0,1.0,1.0,5.m4v,3.0
2024-02-27 11:35:23.807680,1709030123.8076804,-35.64453125,-46.875,-32.71484375,-25.390625,-1.0,-1.0,1.0,1.0,5.m4v,3.0
2024-02-27 11:35:23.811584,1709030123.8115845,-25.87890625,-31.25,-35.64453125,-9.765625,-1.0,-1.0,1.0,1.0,5.m4v,3.0
2024-02-27 11:35:23.815488,1709030123.8154883,-30.2734375,-27.83203125,-37.59765625,-23.92578125,-1.0,-1.0,1.0,1.0,5.m4v,3.0
2024-02-27 11:35:23.819392,1709030123.8193924,-40.0390625,-42.48046875,-31.25,-46.38671875,-1.0,-1.0,1.0,1.0,5.m4v,3.0
2024-02-27 11:35:23.823297,1709030123.8232963,-43.9453125,-56.15234375,-30.2734375,-44.921875,-1.0,-1.0,1.0,1.0,5.m4v,3.0
2024-02-27 11:35:23.827223,1709030123.8272228,-41.50390625,-57.12890625,-35.15625,-30.2734375,-1.0,-1.0,1.0,1.0,5.m4v,3.0
2024-02-27 11:35:23.831127,1709030123.831127,-29.78515625,-43.9453125,-28.80859375,-23.92578125,-1.0,-1.0,1.0,1.0,5.m4v,3.0
2024-02-27 11:35:23.835031,1709030123.835031,-28.3203125,-40.0390625,-40.52734375,-26.3671875,-1.0,-1.0,1.0,1.0,5.m4v,3.0
2024-02-27 11:35:23.838935,1709030123.838935,-34.1796875,-42.96875,-39.55078125,-24.4140625,-1.0,-1.0,1.0,1.0,5.m4v,3.0
2024-02-27 11:35:23.842839,1709030123.842839,-34.66796875,-44.921875,-29.78515625,-27.34375,-1.0,-1.0,1.0,1.0,5.m4v,3.0
2024-02-27 11:35:23.846743,1709030123.846743,-34.66796875,-25.87890625,-32.2265625,-20.99609375,-1.0,-1.0,1.0,1.0,5.m4v,3.0
2024-02-27 11:35:23.850647,1709030123.8506472,-32.71484375,-25.390625,-21.97265625,-16.6015625,-1.0,-1.0,1.0,1.0,5.m4v,3.0
2024-02-27 11:35:23.854551,1709030123.854551,-29.78515625,-52.734375,-19.53125,-34.1796875,-1.0,-1.0,1.0,1.0,5.m4v,3.0
2024-02-27 11:35:23.858455,1709030123.8584552,-36.62109375,-62.5,-21.484375,-48.33984375,-1.0,-1.0,1.0,1.0,5.m4v,3.0
2024-02-27 11:35:23.862359,1709030123.8623593,-48.828125,-67.3828125,-29.296875,-54.6875,-1.0,-1.0,1.0,1.0,5.m4v,3.0
2024-02-27 11:35:23.866263,1709030123.8662634,-44.43359375,-53.7109375,-32.71484375,-35.15625,-1.0,-1.0,1.0,1.0,5.m4v,3.0
2024-02-27 11:35:23.870167,1709030123.8701673,-36.62109375,-26.85546875,-32.71484375,-26.3671875,-1.0,-1.0,1.0,1.0,5.m4v,3.0
2024-02-27 11:35:23.874093,1709030123.8740926,-38.57421875,-31.25,-38.0859375,-50.29296875,-1.0,-1.0,1.0,1.0,5.m4v,3.0
2024-02-27 11:35:23.877997,1709030123.8779967,-37.109375,-35.15625,-43.45703125,-53.22265625,-1.0,-1.0,1.0,1.0,5.m4v,3.0
2024-02-27 11:35:23.881901,1709030123.8819008,-39.0625,-24.90234375,-34.1796875,-44.43359375,-1.0,-1.0,1.0,1.0,5.m4v,3.0
2024-02-27 11:35:23.885805,1709030123.885805,-39.55078125,-43.9453125,-23.4375,-40.52734375,-1.0,-1.0,1.0,1.0,5.m4v,3.0
2024-02-27 11:35:23.889709,1709030123.8897088,-29.78515625,-46.875,-25.87890625,-28.3203125,-1.0,-1.0,1.0,1.0,5.m4v,3.0
2024-02-27 11:35:23.893613,1709030123.8936129,-34.66796875,-18.5546875,-40.52734375,-38.0859375,-1.0,-1.0,1.0,1.0,5.m4v,3.0
2024-02-27 11:35:23.897517,1709030123.8975167,-40.52734375,-20.5078125,-41.015625,-51.7578125,-1.0,-1.0,1.0,1.0,5.m4v,3.0
2024-02-27 11:35:23.901421,1709030123.9014208,-43.45703125,-49.31640625,-23.92578125,-48.33984375,-1.0,-1.0,1.0,1.0,5.m4v,3.0
2024-02-27 11:35:23.905325,1709030123.905325,-41.9921875,-46.38671875,-32.71484375,-35.64453125,-1.0,-1.0,1.0,1.0,5.m4v,3.0
2024-02-27 11:35:23.909229,1709030123.909229,-44.921875,-37.109375,-42.96875,-34.1796875,-1.0,-1.0,1.0,1.0,5.m4v,3.0
2024-02-27 11:35:23.913133,1709030123.913133,-47.8515625,-35.15625,-38.0859375,-44.43359375,-1.0,-1.0,1.0,1.0,5.m4v,3.0
2024-02-27 11:35:23.917037,1709030123.917037,-43.45703125,-38.57421875,-32.71484375,-47.8515625,-1.0,-1.0,1.0,1.0,5.m4v,3.0
2024-02-27 11:35:23.920961,1709030123.9209614,-44.43359375,-32.2265625,-26.85546875,-50.29296875,-1.0,-1.0,1.0,1.0,5.m4v,3.0
2024-02-27 11:35:23.924865,1709030123.9248655,-47.36328125,-27.83203125,-28.80859375,-51.26953125,-1.0,-1.0,1.0,1.0,5.m4v,3.0
2024-02-27 11:35:23.928769,1709030123.9287694,-40.0390625,-32.2265625,-26.85546875,-35.15625,-1.0,-1.0,1.0,1.0,5.m4v,3.0
2024-02-27 11:35:23.932673,1709030123.9326737,-28.80859375,-23.92578125,-34.1796875,-23.92578125,-1.0,-1.0,1.0,1.0,5.m4v,3.0
2024-02-27 11:35:23.936578,1709030123.9365776,-26.3671875,-14.6484375,-47.36328125,-41.9921875,-1.0,-1.0,1.0,1.0,5.m4v,3.0
2024-02-27 11:35:23.940482,1709030123.9404817,-34.66796875,-7.8125,-35.15625,-45.8984375,-1.0,-1.0,1.0,1.0,5.m4v,3.0
2024-02-27 11:35:23.944386,1709030123.9443855,-47.36328125,-10.7421875,-18.06640625,-45.41015625,-1.0,-1.0,1.0,1.0,5.m4v,3.0
2024-02-27 11:35:23.948290,1709030123.9482896,-48.33984375,-36.62109375,-13.671875,-34.1796875,-1.0,-1.0,1.0,1.0,5.m4v,3.0
2024-02-27 11:35:23.952194,1709030123.9521935,-34.1796875,-53.22265625,-30.76171875,-27.34375,-1.0,-1.0,1.0,1.0,5.m4v,3.0
2024-02-27 11:35:23.956098,1709030123.9560978,-32.71484375,-55.17578125,-43.45703125,-44.921875,-1.0,-1.0,1.0,1.0,5.m4v,3.0
2024-02-27 11:35:23.960002,1709030123.9600017,-40.52734375,-45.8984375,-49.31640625,-50.29296875,-1.0,-1.0,1.0,1.0,5.m4v,3.0
2024-02-27 11:35:23.963906,1709030123.9639058,-41.50390625,-41.50390625,-56.640625,-42.96875,-1.0,-1.0,1.0,1.0,5.m4v,3.0
2024-02-27 11:35:23.967829,1709030123.9678292,-41.015625,-39.0625,-47.8515625,-31.73828125,-1.0,-1.0,1.0,1.0,5.m4v,3.0
2024-02-27 11:35:23.971733,1709030123.971733,-30.2734375,-27.34375,-36.1328125,-26.3671875,-1.0,-1.0,1.0,1.0,5.m4v,3.0
2024-02-27 11:35:23.975637,1709030123.9756374,-22.4609375,-33.203125,-29.78515625,-34.1796875,-1.0,-1.0,1.0,1.0,5.m4v,3.0
2024-02-27 11:35:23.979541,1709030123.9795413,-19.53125,-35.64453125,-33.69140625,-38.57421875,-1.0,-1.0,1.0,1.0,5.m4v,3.0
2024-02-27 11:35:23.983445,1709030123.9834454,-21.97265625,-36.62109375,-41.9921875,-39.0625,-1.0,-1.0,1.0,1.0,5.m4v,3.0
2024-02-27 11:35:23.987350,1709030123.9873495,-21.97265625,-11.71875,-43.45703125,-24.4140625,-1.0,-1.0,1.0,1.0,5.m4v,3.0
2024-02-27 11:35:23.991254,1709030123.9912536,-13.671875,-10.7421875,-28.80859375,-17.578125,-1.0,-1.0,1.0,1.0,5.m4v,3.0
2024-02-27 11:35:23.995157,1709030123.9951577,-23.92578125,-50.29296875,-21.484375,-39.0625,-1.0,-1.0,1.0,1.0,5.m4v,3.0
2024-02-27 11:35:23.999062,1709030123.9990616,-38.0859375,-39.55078125,-33.203125,-48.33984375,-1.0,-1.0,1.0,1.0,5.m4v,3.0
2024-02-27 11:35:24.002966,1709030124.0029657,-39.0625,-41.50390625,-39.0625,-50.78125,-1.0,-1.0,1.0,1.0,5.m4v,3.0
2024-02-27 11:35:24.006870,1709030124.0068698,-39.55078125,-68.359375,-42.96875,-47.8515625,-1.0,-1.0,1.0,1.0,5.m4v,3.0
2024-02-27 11:35:24.010774,1709030124.0107737,-31.73828125,-64.94140625,-37.59765625,-31.73828125,-1.0,-1.0,1.0,1.0,5.m4v,3.0
2024-02-27 11:35:24.014696,1709030124.014696,-34.1796875,-49.8046875,-40.0390625,-44.921875,-1.0,-1.0,1.0,1.0,5.m4v,3.0
2024-02-27 11:35:24.018600,1709030124.0186002,-39.55078125,-35.15625,-39.55078125,-58.10546875,-1.0,-1.0,1.0,1.0,5.m4v,3.0
2024-02-27 11:35:24.022504,1709030124.0225043,-42.96875,-28.80859375,-28.3203125,-48.828125,-1.0,-1.0,1.0,1.0,5.m4v,3.0
2024-02-27 11:35:24.026408,1709030124.0264082,-49.31640625,-23.4375,-27.83203125,-38.0859375,-1.0,-1.0,1.0,1.0,5.m4v,3.0
2024-02-27 11:35:24.030312,1709030124.0303123,-43.45703125,-25.390625,-29.296875,-28.80859375,-1.0,-1.0,1.0,1.0,5.m4v,3.0
2024-02-27 11:35:24.034216,1709030124.0342164,-25.390625,-20.99609375,-30.76171875,-14.6484375,-1.0,-1.0,1.0,1.0,5.m4v,3.0
2024-02-27 11:35:24.038121,1709030124.0381205,-25.390625,-26.3671875,-40.0390625,-23.92578125,-1.0,-1.0,1.0,1.0,5.m4v,3.0
2024-02-27 11:35:24.042024,1709030124.0420244,-48.33984375,-51.26953125,-48.828125,-52.734375,-1.0,-1.0,1.0,1.0,5.m4v,3.0
2024-02-27 11:35:24.045928,1709030124.0459285,-54.6875,-56.15234375,-40.0390625,-55.17578125,-1.0,-1.0,1.0,1.0,5.m4v,3.0
2024-02-27 11:35:24.049833,1709030124.0498326,-41.9921875,-53.22265625,-40.52734375,-29.78515625,-1.0,-1.0,1.0,1.0,5.m4v,3.0
2024-02-27 11:35:24.053737,1709030124.0537367,-38.57421875,-50.78125,-49.8046875,-29.296875,-1.0,-1.0,1.0,1.0,5.m4v,3.0
2024-02-27 11:35:24.057641,1709030124.0576406,-45.8984375,-41.015625,-41.50390625,-53.7109375,-1.0,-1.0,1.0,1.0,5.m4v,3.0
2024-02-27 11:35:24.061563,1709030124.0615628,-49.8046875,-27.83203125,-40.0390625,-50.29296875,-1.0,-1.0,1.0,1.0,5.m4v,3.0
2024-02-27 11:35:24.065467,1709030124.0654666,-40.52734375,-23.92578125,-36.1328125,-28.80859375,-1.0,-1.0,1.0,1.0,5.m4v,3.0
2024-02-27 11:35:24.069371,1709030124.0693707,-33.69140625,-30.2734375,-40.52734375,-20.5078125,-1.0,-1.0,1.0,1.0,5.m4v,3.0
2024-02-27 11:35:24.073275,1709030124.0732749,-26.85546875,-43.45703125,-41.50390625,-27.83203125,-1.0,-1.0,1.0,1.0,5.m4v,3.0
2024-02-27 11:35:24.077179,1709030124.077179,-18.06640625,-54.19921875,-31.25,-31.25,-1.0,-1.0,1.0,1.0,5.m4v,3.0
2024-02-27 11:35:24.081083,1709030124.0810828,-12.20703125,-23.92578125,-30.76171875,-24.4140625,-1.0,-1.0,1.0,1.0,5.m4v,3.0
2024-02-27 11:35:24.084987,1709030124.084987,-19.04296875,-34.1796875,-48.33984375,-22.4609375,-1.0,-1.0,1.0,1.0,5.m4v,3.0
2024-02-27 11:35:24.088891,1709030124.088891,-13.18359375,-57.12890625,-58.10546875,-12.20703125,-1.0,-1.0,1.0,1.0,5.m4v,3.0
2024-02-27 11:35:24.092795,1709030124.0927951,-3.41796875,-31.25,-30.2734375,-5.37109375,-1.0,-1.0,1.0,1.0,5.m4v,3.0
2024-02-27 11:35:24.096699,1709030124.096699,-14.16015625,-22.94921875,-17.08984375,-26.3671875,-1.0,-1.0,1.0,1.0,5.m4v,3.0
2024-02-27 11:35:24.100603,1709030124.100603,-25.87890625,-31.25,-33.203125,-42.48046875,-1.0,-1.0,1.0,1.0,5.m4v,3.0
2024-02-27 11:35:24.104507,1709030124.1045072,-35.64453125,-48.33984375,-40.52734375,-37.109375,-1.0,-1.0,1.0,1.0,5.m4v,3.0
2024-02-27 11:35:24.108428,1709030124.1084275,-38.0859375,-51.26953125,-35.64453125,-21.97265625,-1.0,-1.0,1.0,1.0,5.m4v,3.0
2024-02-27 11:35:24.112331,1709030124.1123314,-35.15625,-36.1328125,-33.203125,-20.99609375,-1.0,-1.0,1.0,1.0,5.m4v,3.0
2024-02-27 11:35:24.116235,1709030124.1162355,-39.0625,-45.8984375,-41.9921875,-40.52734375,-1.0,-1.0,1.0,1.0,5.m4v,3.0
2024-02-27 11:35:24.120140,1709030124.1201396,-37.59765625,-44.921875,-47.8515625,-43.45703125,-1.0,-1.0,1.0,1.0,5.m4v,3.0
2024-02-27 11:35:24.124044,1709030124.1240437,-29.296875,-43.45703125,-30.76171875,-31.25,-1.0,-1.0,1.0,1.0,5.m4v,3.0
2024-02-27 11:35:24.127948,1709030124.1279476,-25.87890625,-32.2265625,-22.4609375,-20.5078125,-1.0,-1.0,1.0,1.0,5.m4v,3.0
2024-02-27 11:35:24.131852,1709030124.1318517,-24.90234375,-12.20703125,-42.48046875,-29.296875,-1.0,-1.0,1.0,1.0,5.m4v,3.0
2024-02-27 11:35:24.135756,1709030124.1357558,-32.2265625,-36.62109375,-50.78125,-53.22265625,-1.0,-1.0,1.0,1.0,5.m4v,3.0
2024-02-27 11:35:24.139660,1709030124.13966,-42.96875,-62.5,-46.38671875,-63.4765625,-1.0,-1.0,1.0,1.0,5.m4v,3.0
2024-02-27 11:35:24.143564,1709030124.1435635,-51.26953125,-66.40625,-46.38671875,-62.01171875,-1.0,-1.0,1.0,1.0,5.m4v,3.0
2024-02-27 11:35:24.147468,1709030124.147468,-53.22265625,-50.78125,-43.9453125,-46.38671875,-1.0,-1.0,1.0,1.0,5.m4v,3.0
2024-02-27 11:35:24.151372,1709030124.151372,-36.62109375,-29.296875,-40.0390625,-35.15625,-1.0,-1.0,1.0,1.0,5.m4v,3.0
2024-02-27 11:35:24.155299,1709030124.1552992,-26.3671875,-34.66796875,-36.62109375,-47.8515625,-1.0,-1.0,1.0,1.0,5.m4v,3.0
2024-02-27 11:35:24.159203,1709030124.1592033,-34.66796875,-38.0859375,-22.94921875,-44.921875,-1.0,-1.0,1.0,1.0,5.m4v,3.0
2024-02-27 11:35:24.163107,1709030124.1631074,-52.24609375,-36.62109375,-23.4375,-38.57421875,-1.0,-1.0,1.0,1.0,5.m4v,3.0
2024-02-27 11:35:24.167011,1709030124.1670113,-56.640625,-41.015625,-26.3671875,-34.1796875,-1.0,-1.0,1.0,1.0,5.m4v,3.0
2024-02-27 11:35:24.170915,1709030124.1709154,-44.43359375,-25.390625,-30.2734375,-20.99609375,-1.0,-1.0,1.0,1.0,5.m4v,3.0
2024-02-27 11:35:24.174819,1709030124.1748197,-41.50390625,-14.6484375,-49.31640625,-34.1796875,-1.0,-1.0,1.0,1.0,5.m4v,3.0
2024-02-27 11:35:24.178724,1709030124.1787236,-46.38671875,-29.296875,-45.8984375,-53.7109375,-1.0,-1.0,1.0,1.0,5.m4v,3.0
2024-02-27 11:35:24.182627,1709030124.1826274,-48.33984375,-34.1796875,-36.62109375,-52.734375,-1.0,-1.0,1.0,1.0,5.m4v,3.0
2024-02-27 11:35:24.186532,1709030124.1865315,-48.828125,-34.1796875,-37.59765625,-32.71484375,-1.0,-1.0,1.0,1.0,5.m4v,3.0
2024-02-27 11:35:24.190436,1709030124.1904356,-35.15625,-31.25,-26.3671875,-16.11328125,-1.0,-1.0,1.0,1.0,5.m4v,3.0
2024-02-27 11:35:24.194340,1709030124.1943395,-19.53125,-27.34375,-13.671875,-17.578125,-1.0,-1.0,1.0,1.0,5.m4v,3.0
2024-02-27 11:35:24.198244,1709030124.1982436,-20.99609375,-35.64453125,-29.78515625,-29.296875,-1.0,-1.0,1.0,1.0,5.m4v,3.0
2024-02-27 11:35:24.202170,1709030124.20217,-28.80859375,-39.0625,-41.015625,-36.62109375,-1.0,-1.0,1.0,1.0,5.m4v,3.0
2024-02-27 11:35:24.206074,1709030124.206074,-32.2265625,-38.0859375,-29.296875,-32.2265625,-1.0,-1.0,1.0,1.0,5.m4v,3.0
2024-02-27 11:35:24.209978,1709030124.209978,-19.53125,-36.62109375,-28.3203125,-19.53125,-1.0,-1.0,1.0,1.0,5.m4v,3.0
2024-02-27 11:35:24.213882,1709030124.2138822,-18.06640625,-38.57421875,-38.0859375,-25.390625,-1.0,-1.0,1.0,1.0,5.m4v,3.0
2024-02-27 11:35:24.217786,1709030124.217786,-27.34375,-32.2265625,-34.1796875,-33.203125,-1.0,-1.0,1.0,1.0,5.m4v,3.0
2024-02-27 11:35:24.221690,1709030124.2216902,-29.296875,-10.25390625,-28.80859375,-29.296875,-1.0,-1.0,1.0,1.0,5.m4v,3.0
2024-02-27 11:35:24.225594,1709030124.2255943,-34.66796875,-18.06640625,-36.1328125,-32.71484375,-1.0,-1.0,1.0,1.0,5.m4v,3.0
2024-02-27 11:35:24.229498,1709030124.2294984,-34.66796875,-41.015625,-32.71484375,-33.69140625,-1.0,-1.0,1.0,1.0,5.m4v,3.0
2024-02-27 11:35:24.233402,1709030124.2334025,-37.109375,-51.7578125,-28.80859375,-31.73828125,-1.0,-1.0,1.0,1.0,5.m4v,3.0
2024-02-27 11:35:24.237306,1709030124.2373064,-40.0390625,-46.875,-36.1328125,-35.15625,-1.0,-1.0,1.0,1.0,5.m4v,3.0
2024-02-27 11:35:24.241210,1709030124.2412105,-39.55078125,-27.83203125,-44.921875,-33.69140625,-1.0,-1.0,1.0,1.0,5.m4v,3.0
2024-02-27 11:35:24.245115,1709030124.2451146,-46.38671875,-36.1328125,-54.19921875,-34.1796875,-1.0,-1.0,1.0,1.0,5.m4v,3.0
2024-02-27 11:35:24.249039,1709030124.249039,-49.8046875,-34.66796875,-45.41015625,-30.2734375,-1.0,-1.0,1.0,1.0,5.m4v,3.0
2024-02-27 11:35:24.252943,1709030124.252943,-47.36328125,-41.50390625,-41.50390625,-39.0625,-1.0,-1.0,1.0,1.0,5.m4v,3.0
2024-02-27 11:35:24.256847,1709030124.256847,-36.62109375,-38.0859375,-49.31640625,-45.41015625,-1.0,-1.0,1.0,1.0,5.m4v,3.0
2024-02-27 11:35:24.260751,1709030124.260751,-29.296875,-23.4375,-37.109375,-42.48046875,-1.0,-1.0,1.0,1.0,5.m4v,3.0
2024-02-27 11:35:24.264655,1709030124.264655,-41.9921875,-27.34375,-34.66796875,-42.96875,-1.0,-1.0,1.0,1.0,5.m4v,3.0
2024-02-27 11:35:24.268559,1709030124.2685592,-38.57421875,-15.13671875,-37.59765625,-31.73828125,-1.0,-1.0,1.0,1.0,5.m4v,3.0
2024-02-27 11:35:24.272463,1709030124.272463,-32.71484375,-33.69140625,-29.78515625,-34.1796875,-1.0,-1.0,1.0,1.0,5.m4v,3.0
2024-02-27 11:35:24.276367,1709030124.2763672,-39.55078125,-68.84765625,-25.87890625,-41.50390625,-1.0,-1.0,1.0,1.0,5.m4v,3.0
2024-02-27 11:35:24.280271,1709030124.2802713,-45.8984375,-63.96484375,-30.2734375,-43.9453125,-1.0,-1.0,1.0,1.0,5.m4v,3.0
2024-02-27 11:35:24.284175,1709030124.2841754,-38.57421875,-36.1328125,-27.83203125,-25.87890625,-1.0,-1.0,1.0,1.0,5.m4v,3.0
2024-02-27 11:35:24.288079,1709030124.2880793,-29.296875,-24.90234375,-32.2265625,-4.39453125,-1.0,-1.0,1.0,1.0,5.m4v,3.0
2024-02-27 11:35:24.291983,1709030124.2919834,-32.2265625,-38.0859375,-38.0859375,-10.7421875,-1.0,-1.0,1.0,1.0,5.m4v,3.0
2024-02-27 11:35:24.295909,1709030124.2959092,-25.390625,-35.64453125,-28.80859375,-20.99609375,-1.0,-1.0,1.0,1.0,5.m4v,3.0
2024-02-27 11:35:24.299813,1709030124.2998133,-29.296875,-26.3671875,-35.64453125,-33.69140625,-1.0,-1.0,1.0,1.0,5.m4v,3.0
2024-02-27 11:35:24.303717,1709030124.3037171,-33.69140625,-24.90234375,-36.1328125,-28.3203125,-1.0,-1.0,1.0,1.0,5.m4v,3.0
2024-02-27 11:35:24.307621,1709030124.3076212,-17.578125,-30.76171875,-33.69140625,-0.9765625,-1.0,-1.0,1.0,1.0,5.m4v,3.0
2024-02-27 11:35:24.311525,1709030124.311525,-29.78515625,-36.62109375,-30.76171875,-14.6484375,-1.0,-1.0,1.0,1.0,5.m4v,3.0
2024-02-27 11:35:24.315429,1709030124.3154294,-44.921875,-20.01953125,-20.01953125,-42.48046875,-1.0,-1.0,1.0,1.0,5.m4v,3.0
2024-02-27 11:35:24.319333,1709030124.3193333,-42.96875,-21.97265625,-26.85546875,-57.12890625,-1.0,-1.0,1.0,1.0,5.m4v,3.0
2024-02-27 11:35:24.323237,1709030124.3232374,-49.8046875,-41.50390625,-39.0625,-61.03515625,-1.0,-1.0,1.0,1.0,5.m4v,3.0
2024-02-27 11:35:24.327142,1709030124.3271415,-55.6640625,-55.17578125,-43.45703125,-41.50390625,-1.0,-1.0,1.0,1.0,5.m4v,3.0
2024-02-27 11:35:24.331046,1709030124.3310456,-36.62109375,-50.29296875,-27.34375,-22.4609375,-1.0,-1.0,1.0,1.0,5.m4v,3.0
2024-02-27 11:35:24.334949,1709030124.3349495,-13.18359375,-27.83203125,-7.32421875,-23.4375,-1.0,-1.0,1.0,1.0,5.m4v,3.0
2024-02-27 11:35:24.338854,1709030124.3388536,-33.203125,-32.2265625,-10.25390625,-35.64453125,-1.0,-1.0,1.0,1.0,5.m4v,3.0
2024-02-27 11:35:24.342777,1709030124.3427775,-46.38671875,-38.0859375,-15.13671875,-37.109375,-1.0,-1.0,1.0,1.0,5.m4v,3.0
2024-02-27 11:35:24.346681,1709030124.3466814,-38.0859375,-39.0625,-23.4375,-30.76171875,-1.0,-1.0,1.0,1.0,5.m4v,3.0
2024-02-27 11:35:24.350585,1709030124.3505857,-42.48046875,-41.015625,-35.64453125,-31.25,-1.0,-1.0,1.0,1.0,5.m4v,3.0
2024-02-27 11:35:24.354490,1709030124.3544896,-44.43359375,-32.2265625,-41.9921875,-39.55078125,-1.0,-1.0,1.0,1.0,5.m4v,3.0
2024-02-27 11:35:24.358394,1709030124.3583937,-45.41015625,-31.25,-40.0390625,-47.36328125,-1.0,-1.0,1.0,1.0,5.m4v,3.0
2024-02-27 11:35:24.362298,1709030124.3622975,-46.38671875,-22.94921875,-36.62109375,-44.921875,-1.0,-1.0,1.0,1.0,5.m4v,3.0
2024-02-27 11:35:24.366202,1709030124.3662016,-40.0390625,-18.5546875,-28.80859375,-30.76171875,-1.0,-1.0,1.0,1.0,5.m4v,3.0
2024-02-27 11:35:24.370106,1709030124.3701055,-40.0390625,-34.66796875,-29.78515625,-24.90234375,-1.0,-1.0,1.0,1.0,5.m4v,3.0
2024-02-27 11:35:24.374010,1709030124.3740098,-44.921875,-44.921875,-37.109375,-46.38671875,-1.0,-1.0,1.0,1.0,5.m4v,3.0
2024-02-27 11:35:24.377914,1709030124.3779137,-34.1796875,-43.9453125,-38.0859375,-59.5703125,-1.0,-1.0,1.0,1.0,5.m4v,3.0
2024-02-27 11:35:24.381818,1709030124.3818178,-32.71484375,-33.69140625,-32.71484375,-53.7109375,-1.0,-1.0,1.0,1.0,5.m4v,3.0
2024-02-27 11:35:24.385722,1709030124.385722,-32.71484375,-29.78515625,-37.109375,-44.921875,-1.0,-1.0,1.0,1.0,5.m4v,3.0
2024-02-27 11:35:24.389644,1709030124.389644,-24.90234375,-33.203125,-46.875,-39.0625,-1.0,-1.0,1.0,1.0,5.m4v,3.0
2024-02-27 11:35:24.393548,1709030124.3935485,-36.62109375,-34.66796875,-51.7578125,-45.8984375,-1.0,-1.0,1.0,1.0,5.m4v,3.0
2024-02-27 11:35:24.397452,1709030124.3974524,-48.828125,-37.109375,-49.31640625,-51.7578125,-1.0,-1.0,1.0,1.0,5.m4v,3.0
2024-02-27 11:35:24.401356,1709030124.4013565,-40.0390625,-21.484375,-42.96875,-41.9921875,-1.0,-1.0,1.0,1.0,5.m4v,3.0
2024-02-27 11:35:24.405260,1709030124.4052603,-35.15625,-10.7421875,-42.48046875,-32.2265625,-1.0,-1.0,1.0,1.0,5.m4v,3.0
2024-02-27 11:35:24.409164,1709030124.4091644,-45.41015625,-10.25390625,-41.9921875,-37.109375,-1.0,-1.0,1.0,1.0,5.m4v,3.0
2024-02-27 11:35:24.413069,1709030124.4130683,-39.55078125,-14.16015625,-41.9921875,-34.66796875,-1.0,-1.0,1.0,1.0,5.m4v,3.0
2024-02-27 11:35:24.416973,1709030124.4169726,-37.109375,-33.203125,-48.33984375,-42.48046875,-1.0,-1.0,1.0,1.0,5.m4v,3.0
2024-02-27 11:35:24.420877,1709030124.4208765,-45.8984375,-42.96875,-41.9921875,-56.15234375,-1.0,-1.0,1.0,1.0,5.m4v,3.0
2024-02-27 11:35:24.424781,1709030124.4247806,-48.828125,-58.59375,-32.2265625,-52.734375,-1.0,-1.0,1.0,1.0,5.m4v,3.0
2024-02-27 11:35:24.428685,1709030124.4286847,-41.015625,-41.9921875,-34.1796875,-33.69140625,-1.0,-1.0,1.0,1.0,5.m4v,3.0
2024-02-27 11:35:24.432589,1709030124.4325888,-30.76171875,-5.859375,-40.0390625,-23.92578125,-1.0,-1.0,1.0,1.0,5.m4v,3.0
2024-02-27 11:35:24.436510,1709030124.4365098,-28.80859375,-0.9765625,-41.9921875,-37.109375,-1.0,-1.0,1.0,1.0,5.m4v,3.0
2024-02-27 11:35:24.440414,1709030124.440414,-34.1796875,-16.11328125,-24.90234375,-41.015625,-1.0,-1.0,1.0,1.0,5.m4v,3.0
2024-02-27 11:35:24.444318,1709030124.444318,-51.26953125,-30.76171875,-21.97265625,-38.57421875,-1.0,-1.0,1.0,1.0,5.m4v,3.0
2024-02-27 11:35:24.448222,1709030124.4482222,-53.22265625,-34.1796875,-25.390625,-23.4375,-1.0,-1.0,1.0,1.0,5.m4v,3.0
2024-02-27 11:35:24.452126,1709030124.452126,-42.96875,-24.4140625,-25.390625,-20.99609375,-1.0,-1.0,1.0,1.0,5.m4v,3.0
2024-02-27 11:35:24.456030,1709030124.45603,-42.48046875,-8.7890625,-42.48046875,-40.52734375,-1.0,-1.0,1.0,1.0,5.m4v,3.0
2024-02-27 11:35:24.459934,1709030124.4599342,-46.38671875,-21.97265625,-55.17578125,-55.17578125,-1.0,-1.0,1.0,1.0,5.m4v,3.0
2024-02-27 11:35:24.463838,1709030124.4638383,-42.96875,-36.1328125,-40.0390625,-52.734375,-1.0,-1.0,1.0,1.0,5.m4v,3.0
2024-02-27 11:35:24.467742,1709030124.4677422,-37.59765625,-18.06640625,-22.4609375,-32.2265625,-1.0,-1.0,1.0,1.0,5.m4v,3.0
2024-02-27 11:35:24.471646,1709030124.4716463,-35.15625,-7.32421875,-24.4140625,-27.83203125,-1.0,-1.0,1.0,1.0,5.m4v,3.0
2024-02-27 11:35:24.475550,1709030124.4755504,-41.50390625,-20.01953125,-38.57421875,-48.33984375,-1.0,-1.0,1.0,1.0,5.m4v,3.0
2024-02-27 11:35:24.479455,1709030124.4794545,-52.734375,-23.92578125,-49.8046875,-60.546875,-1.0,-1.0,1.0,1.0,5.m4v,3.0
2024-02-27 11:35:24.483376,1709030124.4833758,-60.05859375,-23.92578125,-38.0859375,-53.22265625,-1.0,-1.0,1.0,1.0,5.m4v,3.0
2024-02-27 11:35:24.487280,1709030124.4872797,-56.640625,-42.48046875,-25.87890625,-41.015625,-1.0,-1.0,1.0,1.0,5.m4v,3.0
2024-02-27 11:35:24.491184,1709030124.4911838,-47.8515625,-46.875,-29.296875,-34.66796875,-1.0,-1.0,1.0,1.0,5.m4v,3.0
2024-02-27 11:35:24.495088,1709030124.495088,-38.57421875,-37.59765625,-31.25,-46.875,-1.0,-1.0,1.0,1.0,5.m4v,3.0
2024-02-27 11:35:24.498992,1709030124.498992,-28.3203125,-27.83203125,-38.57421875,-51.26953125,-1.0,-1.0,1.0,1.0,5.m4v,3.0
2024-02-27 11:35:24.502896,1709030124.502896,-29.78515625,-22.94921875,-49.8046875,-47.36328125,-1.0,-1.0,1.0,1.0,5.m4v,3.0
2024-02-27 11:35:24.506800,1709030124.5068,-32.2265625,-19.53125,-36.62109375,-29.78515625,-1.0,-1.0,1.0,1.0,5.m4v,3.0
2024-02-27 11:35:24.510704,1709030124.510704,-35.64453125,-36.1328125,-36.1328125,-27.34375,-1.0,-1.0,1.0,1.0,5.m4v,3.0
2024-02-27 11:35:24.514608,1709030124.514608,-41.9921875,-49.31640625,-53.7109375,-43.45703125,-1.0,-1.0,1.0,1.0,5.m4v,3.0
2024-02-27 11:35:24.518512,1709030124.5185122,-44.921875,-57.12890625,-43.9453125,-49.8046875,-1.0,-1.0,1.0,1.0,5.m4v,3.0
2024-02-27 11:35:24.522416,1709030124.522416,-49.8046875,-62.01171875,-33.69140625,-51.26953125,-1.0,-1.0,1.0,1.0,5.m4v,3.0
2024-02-27 11:35:24.526320,1709030124.5263202,-42.96875,-48.33984375,-31.73828125,-32.2265625,-1.0,-1.0,1.0,1.0,5.m4v,3.0
2024-02-27 11:35:24.530256,1709030124.5302558,-22.4609375,-39.55078125,-29.78515625,-16.6015625,-1.0,-1.0,1.0,1.0,5.m4v,3.0
2024-02-27 11:35:24.534160,1709030124.5341597,-17.08984375,-56.640625,-39.0625,-31.73828125,-1.0,-1.0,1.0,1.0,5.m4v,3.0
2024-02-27 11:35:24.538064,1709030124.5380638,-24.4140625,-54.6875,-36.1328125,-42.48046875,-1.0,-1.0,1.0,1.0,5.m4v,3.0
2024-02-27 11:35:24.541968,1709030124.541968,-41.015625,-53.22265625,-27.34375,-48.828125,-1.0,-1.0,1.0,1.0,5.m4v,3.0
2024-02-27 11:35:24.545872,1709030124.545872,-43.45703125,-48.828125,-38.0859375,-38.57421875,-1.0,-1.0,1.0,1.0,5.m4v,3.0
2024-02-27 11:35:24.549776,1709030124.5497758,-38.57421875,-15.13671875,-54.6875,-28.3203125,-1.0,-1.0,1.0,1.0,5.m4v,3.0
2024-02-27 11:35:24.553680,1709030124.55368,-43.9453125,-30.2734375,-42.96875,-37.59765625,-1.0,-1.0,1.0,1.0,5.m4v,3.0
2024-02-27 11:35:24.557584,1709030124.557584,-45.41015625,-55.17578125,-26.85546875,-43.45703125,-1.0,-1.0,1.0,1.0,5.m4v,3.0
2024-02-27 11:35:24.561488,1709030124.5614882,-47.36328125,-45.8984375,-30.76171875,-42.96875,-1.0,-1.0,1.0,1.0,5.m4v,3.0
2024-02-27 11:35:24.565392,1709030124.5653925,-51.7578125,-41.50390625,-39.0625,-37.59765625,-1.0,-1.0,1.0,1.0,5.m4v,3.0
2024-02-27 11:35:24.569296,1709030124.569296,-46.875,-37.59765625,-31.73828125,-28.80859375,-1.0,-1.0,1.0,1.0,5.m4v,3.0
2024-02-27 11:35:24.573200,1709030124.5732002,-36.1328125,-37.59765625,-37.59765625,-33.203125,-1.0,-1.0,1.0,1.0,5.m4v,3.0
2024-02-27 11:35:24.577127,1709030124.5771265,-40.0390625,-45.8984375,-49.8046875,-49.31640625,-1.0,-1.0,1.0,1.0,5.m4v,3.0
2024-02-27 11:35:24.581031,1709030124.5810306,-41.50390625,-48.828125,-41.015625,-40.0390625,-1.0,-1.0,1.0,1.0,5.m4v,3.0
2024-02-27 11:35:24.584935,1709030124.5849347,-35.64453125,-50.78125,-38.0859375,-20.5078125,-1.0,-1.0,1.0,1.0,5.m4v,3.0
2024-02-27 11:35:24.588839,1709030124.5888388,-33.69140625,-36.62109375,-42.96875,-13.18359375,-1.0,-1.0,1.0,1.0,5.m4v,3.0
2024-02-27 11:35:24.592743,1709030124.5927427,-21.97265625,-9.27734375,-43.9453125,-16.11328125,-1.0,-1.0,1.0,1.0,5.m4v,3.0
2024-02-27 11:35:24.596647,1709030124.5966468,-20.99609375,-1.46484375,-33.203125,-26.85546875,-1.0,-1.0,1.0,1.0,5.m4v,3.0
2024-02-27 11:35:24.600551,1709030124.600551,-32.71484375,-16.6015625,-24.90234375,-33.69140625,-1.0,-1.0,1.0,1.0,5.m4v,3.0
2024-02-27 11:35:24.604455,1709030124.604455,-32.2265625,-51.7578125,-22.4609375,-31.25,-1.0,-1.0,1.0,1.0,5.m4v,3.0
2024-02-27 11:35:24.608359,1709030124.6083589,-30.76171875,-57.6171875,-22.4609375,-26.85546875,-1.0,-1.0,1.0,1.0,5.m4v,3.0
2024-02-27 11:35:24.612263,1709030124.612263,-38.57421875,-40.0390625,-22.94921875,-33.69140625,-1.0,-1.0,1.0,1.0,5.m4v,3.0
2024-02-27 11:35:24.616167,1709030124.616167,-46.875,-49.8046875,-23.92578125,-44.921875,-1.0,-1.0,1.0,1.0,5.m4v,3.0
2024-02-27 11:35:24.620071,1709030124.6200712,-35.64453125,-44.921875,-27.34375,-33.203125,-1.0,-1.0,1.0,1.0,5.m4v,3.0
2024-02-27 11:35:24.623996,1709030124.6239965,-22.94921875,-30.76171875,-29.78515625,-6.8359375,-1.0,-1.0,1.0,1.0,5.m4v,3.0
2024-02-27 11:35:24.627901,1709030124.6279006,-21.97265625,-20.99609375,-18.06640625,1.46484375,-1.0,-1.0,1.0,1.0,5.m4v,3.0
2024-02-27 11:35:24.631805,1709030124.6318047,-31.25,-29.78515625,-42.48046875,-27.83203125,-1.0,-1.0,1.0,1.0,5.m4v,3.0
2024-02-27 11:35:24.635709,1709030124.6357086,-35.15625,-45.8984375,-60.546875,-48.828125,-1.0,-1.0,1.0,1.0,5.m4v,3.0
2024-02-27 11:35:24.639613,1709030124.639613,-33.69140625,-43.45703125,-41.015625,-53.22265625,-1.0,-1.0,1.0,1.0,5.m4v,3.0
2024-02-27 11:35:24.643517,1709030124.6435168,-29.296875,-23.4375,-31.73828125,-34.1796875,-1.0,-1.0,1.0,1.0,5.m4v,3.0
2024-02-27 11:35:24.647421,1709030124.647421,-18.06640625,-28.80859375,-24.4140625,-18.06640625,-1.0,-1.0,1.0,1.0,5.m4v,3.0
2024-02-27 11:35:24.651325,1709030124.6513247,-22.94921875,-46.38671875,-24.90234375,-33.203125,-1.0,-1.0,1.0,1.0,5.m4v,3.0
2024-02-27 11:35:24.655229,1709030124.6552289,-36.1328125,-47.8515625,-51.26953125,-42.48046875,-1.0,-1.0,1.0,1.0,5.m4v,3.0
2024-02-27 11:35:24.659133,1709030124.659133,-41.015625,-47.36328125,-52.24609375,-45.41015625,-1.0,-1.0,1.0,1.0,5.m4v,3.0
2024-02-27 11:35:24.663037,1709030124.663037,-34.1796875,-46.38671875,-31.73828125,-45.8984375,-1.0,-1.0,1.0,1.0,5.m4v,3.0
2024-02-27 11:35:24.666941,1709030124.666941,-32.71484375,-44.921875,-31.25,-36.62109375,-1.0,-1.0,1.0,1.0,5.m4v,3.0
2024-02-27 11:35:24.670865,1709030124.6708653,-22.94921875,-30.76171875,-37.59765625,-27.83203125,-1.0,-1.0,1.0,1.0,5.m4v,3.0
2024-02-27 11:35:24.674769,1709030124.6747694,-6.34765625,-25.390625,-33.203125,-29.296875,-1.0,-1.0,1.0,1.0,5.m4v,3.0
2024-02-27 11:35:24.678674,1709030124.6786735,-7.8125,-28.80859375,-17.578125,-30.76171875,-1.0,-1.0,1.0,1.0,5.m4v,3.0
2024-02-27 11:35:24.682578,1709030124.6825776,-18.06640625,-26.85546875,-21.97265625,-34.1796875,-1.0,-1.0,1.0,1.0,5.m4v,3.0
2024-02-27 11:35:24.686481,1709030124.6864817,-28.80859375,-20.99609375,-36.62109375,-34.1796875,-1.0,-1.0,1.0,1.0,5.m4v,3.0
2024-02-27 11:35:24.690386,1709030124.6903856,-36.1328125,-19.04296875,-45.8984375,-36.62109375,-1.0,-1.0,1.0,1.0,5.m4v,3.0
2024-02-27 11:35:24.694290,1709030124.6942897,-28.80859375,-28.3203125,-54.19921875,-41.015625,-1.0,-1.0,1.0,1.0,5.m4v,3.0
2024-02-27 11:35:24.698194,1709030124.6981938,-22.94921875,-55.17578125,-45.41015625,-53.22265625,-1.0,-1.0,1.0,1.0,5.m4v,3.0
2024-02-27 11:35:24.702098,1709030124.7020977,-24.4140625,-46.38671875,-37.109375,-47.36328125,-1.0,-1.0,1.0,1.0,5.m4v,3.0
2024-02-27 11:35:24.706002,1709030124.7060018,-27.83203125,-20.99609375,-34.1796875,-29.78515625,-1.0,-1.0,1.0,1.0,5.m4v,3.0
2024-02-27 11:35:24.709906,1709030124.709906,-29.78515625,-22.94921875,-30.2734375,-26.3671875,-1.0,-1.0,1.0,1.0,5.m4v,3.0
2024-02-27 11:35:24.713810,1709030124.71381,-31.25,-27.34375,-33.69140625,-41.015625,-1.0,-1.0,1.0,1.0,5.m4v,3.0
2024-02-27 11:35:24.717734,1709030124.717734,-40.52734375,-20.99609375,-46.875,-48.828125,-1.0,-1.0,1.0,1.0,5.m4v,3.0
2024-02-27 11:35:24.721638,1709030124.7216382,-41.50390625,-14.16015625,-37.59765625,-39.55078125,-1.0,-1.0,1.0,1.0,5.m4v,3.0
2024-02-27 11:35:24.725542,1709030124.7255423,-41.9921875,-26.3671875,-35.15625,-30.76171875,-1.0,-1.0,1.0,1.0,5.m4v,3.0
2024-02-27 11:35:24.729446,1709030124.7294464,-44.43359375,-55.6640625,-52.24609375,-25.87890625,-1.0,-1.0,1.0,1.0,5.m4v,3.0
2024-02-27 11:35:24.733350,1709030124.7333505,-35.15625,-55.6640625,-44.43359375,-25.87890625,-1.0,-1.0,1.0,1.0,5.m4v,3.0
2024-02-27 11:35:24.737254,1709030124.7372544,-21.484375,-15.625,-32.2265625,-27.83203125,-1.0,-1.0,1.0,1.0,5.m4v,3.0
2024-02-27 11:35:24.741158,1709030124.7411585,-24.4140625,-7.32421875,-27.34375,-40.0390625,-1.0,-1.0,1.0,1.0,5.m4v,3.0
2024-02-27 11:35:24.745063,1709030124.7450626,-33.69140625,-34.66796875,-26.3671875,-37.109375,-1.0,-1.0,1.0,1.0,5.m4v,3.0
2024-02-27 11:35:24.748967,1709030124.7489667,-29.296875,-39.55078125,-40.52734375,-24.90234375,-1.0,-1.0,1.0,1.0,5.m4v,3.0
2024-02-27 11:35:24.752871,1709030124.7528706,-24.4140625,-32.2265625,-51.7578125,-34.1796875,-1.0,-1.0,1.0,1.0,5.m4v,3.0
2024-02-27 11:35:24.756775,1709030124.756775,-9.765625,-17.578125,-48.33984375,-38.0859375,-1.0,-1.0,1.0,1.0,5.m4v,3.0
2024-02-27 11:35:24.760679,1709030124.7606788,-5.859375,-15.625,-51.26953125,-41.9921875,-1.0,-1.0,1.0,1.0,5.m4v,3.0
2024-02-27 11:35:24.764601,1709030124.7646012,-28.3203125,-39.55078125,-37.109375,-44.43359375,-1.0,-1.0,1.0,1.0,5.m4v,3.0
2024-02-27 11:35:24.768505,1709030124.768505,-31.25,-40.52734375,-22.94921875,-28.3203125,-1.0,-1.0,1.0,1.0,5.m4v,3.0
2024-02-27 11:35:24.772409,1709030124.7724092,-20.5078125,-36.1328125,-28.3203125,-26.85546875,-1.0,-1.0,1.0,1.0,5.m4v,3.0
2024-02-27 11:35:24.776313,1709030124.7763133,-24.90234375,-41.9921875,-22.4609375,-37.59765625,-1.0,-1.0,1.0,1.0,5.m4v,3.0
2024-02-27 11:35:24.780217,1709030124.7802174,-40.52734375,-35.15625,-22.4609375,-43.9453125,-1.0,-1.0,1.0,1.0,5.m4v,3.0
2024-02-27 11:35:24.784122,1709030124.7841215,-42.96875,-27.83203125,-35.64453125,-34.1796875,-1.0,-1.0,1.0,1.0,5.m4v,3.0
2024-02-27 11:35:24.788025,1709030124.7880254,-34.66796875,-41.9921875,-31.73828125,-18.06640625,-1.0,-1.0,1.0,1.0,5.m4v,3.0
2024-02-27 11:35:24.791929,1709030124.7919295,-31.25,-41.9921875,-20.5078125,-14.16015625,-1.0,-1.0,1.0,1.0,5.m4v,3.0
2024-02-27 11:35:24.795834,1709030124.7958336,-38.57421875,-31.73828125,-22.4609375,-24.90234375,-1.0,-1.0,1.0,1.0,5.m4v,3.0
2024-02-27 11:35:24.799738,1709030124.7997377,-44.921875,-42.96875,-29.78515625,-40.52734375,-1.0,-1.0,1.0,1.0,5.m4v,3.0
2024-02-27 11:35:24.803642,1709030124.8036416,-42.96875,-38.0859375,-36.62109375,-36.1328125,-1.0,-1.0,1.0,1.0,5.m4v,3.0
2024-02-27 11:35:24.807546,1709030124.8075457,-41.015625,-27.34375,-26.85546875,-20.01953125,-1.0,-1.0,1.0,1.0,5.m4v,3.0
2024-02-27 11:35:24.811468,1709030124.8114676,-41.50390625,-35.64453125,-19.04296875,-20.99609375,-1.0,-1.0,1.0,1.0,5.m4v,3.0
2024-02-27 11:35:24.815372,1709030124.8153715,-43.45703125,-41.015625,-33.69140625,-39.55078125,-1.0,-1.0,1.0,1.0,5.m4v,3.0
2024-02-27 11:35:24.819276,1709030124.8192756,-41.9921875,-38.0859375,-39.55078125,-50.78125,-1.0,-1.0,1.0,1.0,5.m4v,3.0
2024-02-27 11:35:24.823180,1709030124.8231795,-47.8515625,-48.33984375,-32.2265625,-49.31640625,-1.0,-1.0,1.0,1.0,5.m4v,3.0
2024-02-27 11:35:24.827084,1709030124.8270838,-40.52734375,-46.875,-42.96875,-33.69140625,-1.0,-1.0,1.0,1.0,5.m4v,3.0
2024-02-27 11:35:24.830988,1709030124.830988,-27.34375,-7.8125,-42.48046875,-23.4375,-1.0,-1.0,1.0,1.0,5.m4v,3.0
2024-02-27 11:35:24.834892,1709030124.8348918,-26.85546875,0.48828125,-34.1796875,-38.57421875,-1.0,-1.0,1.0,1.0,5.m4v,3.0
2024-02-27 11:35:24.838796,1709030124.838796,-30.2734375,-24.90234375,-36.1328125,-53.22265625,-1.0,-1.0,1.0,1.0,5.m4v,3.0
2024-02-27 11:35:24.842700,1709030124.8427,-30.76171875,-28.3203125,-28.80859375,-46.38671875,-1.0,-1.0,1.0,1.0,5.m4v,3.0
2024-02-27 11:35:24.846604,1709030124.846604,-33.69140625,-34.1796875,-35.64453125,-27.83203125,-1.0,-1.0,1.0,1.0,5.m4v,3.0
2024-02-27 11:35:24.850508,1709030124.850508,-29.78515625,-27.34375,-46.875,-20.99609375,-1.0,-1.0,1.0,1.0,5.m4v,3.0
2024-02-27 11:35:24.854412,1709030124.854412,-21.484375,-27.83203125,-40.52734375,-24.90234375,-1.0,-1.0,1.0,1.0,5.m4v,3.0
2024-02-27 11:35:24.858333,1709030124.858333,-36.1328125,-34.1796875,-30.2734375,-34.1796875,-1.0,-1.0,1.0,1.0,5.m4v,3.0
2024-02-27 11:35:24.862237,1709030124.862237,-55.17578125,-41.9921875,-25.87890625,-41.9921875,-1.0,-1.0,1.0,1.0,5.m4v,3.0
2024-02-27 11:35:24.866141,1709030124.866141,-55.17578125,-47.36328125,-32.2265625,-38.57421875,-1.0,-1.0,1.0,1.0,5.m4v,3.0
2024-02-27 11:35:24.870045,1709030124.8700452,-48.33984375,-32.2265625,-28.80859375,-31.73828125,-1.0,-1.0,1.0,1.0,5.m4v,3.0
2024-02-27 11:35:24.873949,1709030124.8739493,-50.78125,-29.296875,-25.87890625,-41.9921875,-1.0,-1.0,1.0,1.0,5.m4v,3.0
2024-02-27 11:35:24.877853,1709030124.8778534,-49.31640625,-18.5546875,-28.3203125,-50.78125,-1.0,-1.0,1.0,1.0,5.m4v,3.0
2024-02-27 11:35:24.881757,1709030124.8817573,-51.7578125,-33.69140625,-26.85546875,-46.38671875,-1.0,-1.0,1.0,1.0,5.m4v,3.0
2024-02-27 11:35:24.885661,1709030124.8856614,-52.24609375,-51.26953125,-25.87890625,-41.015625,-1.0,-1.0,1.0,1.0,5.m4v,3.0
2024-02-27 11:35:24.889565,1709030124.8895657,-43.45703125,-39.55078125,-28.3203125,-30.76171875,-1.0,-1.0,1.0,1.0,5.m4v,3.0
2024-02-27 11:35:24.893470,1709030124.8934696,-52.24609375,-44.43359375,-44.921875,-35.64453125,-1.0,-1.0,1.0,1.0,5.m4v,3.0
2024-02-27 11:35:24.897373,1709030124.8973734,-62.01171875,-46.38671875,-47.8515625,-55.17578125,-1.0,-1.0,1.0,1.0,5.m4v,3.0
2024-02-27 11:35:24.901278,1709030124.9012775,-59.5703125,-37.109375,-28.3203125,-59.08203125,-1.0,-1.0,1.0,1.0,5.m4v,3.0
2024-02-27 11:35:24.905198,1709030124.905198,-52.24609375,-33.203125,-34.1796875,-43.45703125,-1.0,-1.0,1.0,1.0,5.m4v,3.0
2024-02-27 11:35:24.909102,1709030124.909102,-42.96875,-43.9453125,-48.828125,-31.73828125,-1.0,-1.0,1.0,1.0,5.m4v,3.0
2024-02-27 11:35:24.913006,1709030124.913006,-38.57421875,-54.19921875,-46.875,-34.66796875,-1.0,-1.0,1.0,1.0,5.m4v,3.0
2024-02-27 11:35:24.916910,1709030124.91691,-41.015625,-59.08203125,-43.9453125,-46.38671875,-1.0,-1.0,1.0,1.0,5.m4v,3.0
2024-02-27 11:35:24.920814,1709030124.920814,-39.55078125,-46.875,-29.78515625,-47.36328125,-1.0,-1.0,1.0,1.0,5.m4v,3.0
2024-02-27 11:35:24.924718,1709030124.924718,-31.25,-10.7421875,-21.97265625,-25.390625,-1.0,-1.0,1.0,1.0,5.m4v,3.0
2024-02-27 11:35:24.928622,1709030124.9286222,-27.83203125,-8.7890625,-33.203125,-14.6484375,-1.0,-1.0,1.0,1.0,5.m4v,3.0
2024-02-27 11:35:24.932526,1709030124.932526,-33.203125,-45.41015625,-55.17578125,-37.59765625,-1.0,-1.0,1.0,1.0,5.m4v,3.0
2024-02-27 11:35:24.936430,1709030124.9364302,-24.90234375,-48.33984375,-36.62109375,-50.78125,-1.0,-1.0,1.0,1.0,5.m4v,3.0
2024-02-27 11:35:24.940334,1709030124.9403343,-20.99609375,-41.9921875,-18.5546875,-50.29296875,-1.0,-1.0,1.0,1.0,5.m4v,3.0
2024-02-27 11:35:24.944238,1709030124.9442384,-16.6015625,-36.1328125,-26.85546875,-35.64453125,-1.0,-1.0,1.0,1.0,5.m4v,3.0
2024-02-27 11:35:24.948142,1709030124.9481423,-6.8359375,-19.53125,-25.87890625,-14.16015625,-1.0,-1.0,1.0,1.0,5.m4v,3.0
2024-02-27 11:35:24.952069,1709030124.9520686,-1.953125,-23.4375,-27.83203125,-16.6015625,-1.0,-1.0,1.0,1.0,5.m4v,3.0
2024-02-27 11:35:24.955973,1709030124.955973,7.32421875,-43.9453125,-39.0625,-29.296875,-1.0,-1.0,1.0,1.0,5.m4v,3.0
2024-02-27 11:35:24.959877,1709030124.9598768,-6.34765625,-31.73828125,-42.48046875,-24.4140625,-1.0,-1.0,1.0,1.0,5.m4v,3.0
2024-02-27 11:35:24.963781,1709030124.9637806,-32.71484375,-29.296875,-41.9921875,-21.484375,-1.0,-1.0,1.0,1.0,5.m4v,3.0
2024-02-27 11:35:24.967685,1709030124.9676847,-39.55078125,-48.33984375,-37.59765625,-11.71875,-1.0,-1.0,1.0,1.0,5.m4v,3.0
2024-02-27 11:35:24.971589,1709030124.9715889,-44.921875,-30.76171875,-18.5546875,-7.8125,-1.0,-1.0,1.0,1.0,5.m4v,3.0
2024-02-27 11:35:24.975493,1709030124.975493,-41.50390625,-20.99609375,-6.8359375,-20.01953125,-1.0,-1.0,1.0,1.0,5.m4v,3.0
2024-02-27 11:35:24.979397,1709030124.9793968,-40.52734375,-34.1796875,-12.20703125,-23.4375,-1.0,-1.0,1.0,1.0,5.m4v,3.0
2024-02-27 11:35:24.983301,1709030124.983301,-54.6875,-27.83203125,-29.296875,-18.06640625,-1.0,-1.0,1.0,1.0,5.m4v,3.0
2024-02-27 11:35:24.987205,1709030124.987205,-52.734375,-34.66796875,-33.203125,-13.18359375,-1.0,-1.0,1.0,1.0,5.m4v,3.0
2024-02-27 11:35:24.991109,1709030124.9911091,-32.2265625,-41.015625,-25.87890625,-15.625,-1.0,-1.0,1.0,1.0,5.m4v,3.0
2024-02-27 11:35:24.995013,1709030124.995013,-24.4140625,-36.1328125,-31.73828125,-27.83203125,-1.0,-1.0,1.0,1.0,5.m4v,3.0
2024-02-27 11:35:24.998938,1709030124.9989383,-35.64453125,-41.9921875,-36.62109375,-45.41015625,-1.0,-1.0,1.0,1.0,5.m4v,3.0
2024-02-27 11:35:25.002842,1709030125.0028424,-43.45703125,-47.36328125,-40.52734375,-54.19921875,-1.0,-1.0,1.0,1.0,5.m4v,3.0
2024-02-27 11:35:25.006747,1709030125.0067463,-22.94921875,-40.52734375,-41.015625,-34.66796875,-1.0,-1.0,1.0,1.0,5.m4v,3.0
2024-02-27 11:35:25.010651,1709030125.0106506,3.90625,-28.3203125,-21.97265625,-10.7421875,-1.0,-1.0,1.0,1.0,5.m4v,3.0
2024-02-27 11:35:25.014555,1709030125.0145545,-14.16015625,-7.8125,-14.6484375,-39.55078125,-1.0,-1.0,1.0,1.0,5.m4v,3.0
2024-02-27 11:35:25.018459,1709030125.0184586,-35.64453125,-3.41796875,-30.2734375,-74.70703125,-1.0,-1.0,1.0,1.0,5.m4v,3.0
2024-02-27 11:35:25.022363,1709030125.0223627,-35.15625,-20.5078125,-38.57421875,-70.3125,-1.0,-1.0,1.0,1.0,5.m4v,3.0
2024-02-27 11:35:25.026267,1709030125.0262668,-35.15625,-44.43359375,-41.50390625,-56.640625,-1.0,-1.0,1.0,1.0,5.m4v,3.0
2024-02-27 11:35:25.030171,1709030125.030171,-35.15625,-55.17578125,-38.57421875,-40.52734375,-1.0,-1.0,1.0,1.0,5.m4v,3.0
2024-02-27 11:35:25.034075,1709030125.0340748,-46.38671875,-45.8984375,-37.59765625,-51.26953125,-1.0,-1.0,1.0,1.0,5.m4v,3.0
2024-02-27 11:35:25.037979,1709030125.037979,-47.8515625,-39.0625,-35.15625,-63.96484375,-1.0,-1.0,1.0,1.0,5.m4v,3.0
2024-02-27 11:35:25.041883,1709030125.041883,-53.22265625,-35.64453125,-35.15625,-60.05859375,-1.0,-1.0,1.0,1.0,5.m4v,3.0
2024-02-27 11:35:25.045807,1709030125.0458074,-63.4765625,-31.25,-47.8515625,-49.8046875,-1.0,-1.0,1.0,1.0,5.m4v,3.0
2024-02-27 11:35:25.049711,1709030125.0497117,-60.546875,-39.55078125,-36.62109375,-40.0390625,-1.0,-1.0,1.0,1.0,5.m4v,3.0
2024-02-27 11:35:25.053615,1709030125.053615,-53.7109375,-37.59765625,-21.484375,-49.31640625,-1.0,-1.0,1.0,1.0,5.m4v,3.0
2024-02-27 11:35:25.057519,1709030125.0575194,-45.41015625,-42.96875,-22.4609375,-62.98828125,-1.0,-1.0,1.0,1.0,5.m4v,3.0
2024-02-27 11:35:25.061424,1709030125.0614235,-54.19921875,-50.29296875,-34.66796875,-61.5234375,-1.0,-1.0,1.0,1.0,5.m4v,3.0
2024-02-27 11:35:25.065328,1709030125.0653276,-56.15234375,-18.5546875,-32.2265625,-42.48046875,-1.0,-1.0,1.0,1.0,5.m4v,3.0
2024-02-27 11:35:25.069232,1709030125.0692315,-48.33984375,-4.39453125,-21.97265625,-26.85546875,-1.0,-1.0,1.0,1.0,5.m4v,3.0
2024-02-27 11:35:25.073136,1709030125.0731356,-60.05859375,-38.57421875,-38.0859375,-46.38671875,-1.0,-1.0,1.0,1.0,5.m4v,3.0
2024-02-27 11:35:25.077040,1709030125.0770397,-57.6171875,-39.0625,-40.0390625,-64.453125,-1.0,-1.0,1.0,1.0,5.m4v,3.0
2024-02-27 11:35:25.080944,1709030125.0809438,-43.9453125,-15.625,-24.4140625,-50.78125,-1.0,-1.0,1.0,1.0,5.m4v,3.0
2024-02-27 11:35:25.084848,1709030125.084848,-42.48046875,-39.0625,-35.64453125,-45.8984375,-1.0,-1.0,1.0,1.0,5.m4v,3.0
2024-02-27 11:35:25.088752,1709030125.0887518,-42.48046875,-54.19921875,-33.69140625,-41.9921875,-1.0,-1.0,1.0,1.0,5.m4v,3.0
2024-02-27 11:35:25.092675,1709030125.0926752,-38.57421875,-46.875,-27.34375,-39.55078125,-1.0,-1.0,1.0,1.0,5.m4v,3.0
2024-02-27 11:35:25.096579,1709030125.0965793,-34.66796875,-47.36328125,-47.8515625,-46.38671875,-1.0,-1.0,1.0,1.0,5.m4v,3.0
2024-02-27 11:35:25.100483,1709030125.1004834,-27.83203125,-42.48046875,-46.38671875,-39.55078125,-1.0,-1.0,1.0,1.0,5.m4v,3.0
2024-02-27 11:35:25.104387,1709030125.1043873,-17.08984375,-40.0390625,-22.4609375,-22.94921875,-1.0,-1.0,1.0,1.0,5.m4v,3.0
2024-02-27 11:35:25.108291,1709030125.1082914,-15.13671875,-45.8984375,-22.94921875,-14.16015625,-1.0,-1.0,1.0,1.0,5.m4v,3.0
2024-02-27 11:35:25.112195,1709030125.1121955,-11.71875,-25.390625,-41.50390625,-3.41796875,-1.0,-1.0,1.0,1.0,5.m4v,3.0
2024-02-27 11:35:25.116100,1709030125.1160996,-20.99609375,-20.5078125,-47.36328125,-19.04296875,-1.0,-1.0,1.0,1.0,5.m4v,3.0
2024-02-27 11:35:25.120003,1709030125.1200037,-35.64453125,-50.78125,-33.203125,-41.50390625,-1.0,-1.0,1.0,1.0,5.m4v,3.0
2024-02-27 11:35:25.123908,1709030125.1239076,-30.76171875,-44.43359375,-32.2265625,-27.34375,-1.0,-1.0,1.0,1.0,5.m4v,3.0
2024-02-27 11:35:25.127812,1709030125.1278117,-15.625,-20.01953125,-27.83203125,-1.953125,-1.0,-1.0,1.0,1.0,5.m4v,3.0
2024-02-27 11:35:25.131716,1709030125.1317158,-10.7421875,-12.20703125,-15.625,0.48828125,-1.0,-1.0,1.0,1.0,5.m4v,3.0
2024-02-27 11:35:25.135620,1709030125.1356196,-21.484375,-27.83203125,-17.08984375,-23.92578125,-1.0,-1.0,1.0,1.0,5.m4v,3.0
2024-02-27 11:35:25.139543,1709030125.139543,-30.76171875,-30.76171875,-25.87890625,-39.55078125,-1.0,-1.0,1.0,1.0,5.m4v,3.0
2024-02-27 11:35:25.143447,1709030125.1434472,-30.2734375,-26.3671875,-34.66796875,-36.1328125,-1.0,-1.0,1.0,1.0,5.m4v,3.0
2024-02-27 11:35:25.147351,1709030125.1473513,-30.76171875,-27.34375,-27.83203125,-31.25,-1.0,-1.0,1.0,1.0,5.m4v,3.0
2024-02-27 11:35:25.151255,1709030125.1512554,-37.59765625,-28.80859375,-31.25,-43.45703125,-1.0,-1.0,1.0,1.0,5.m4v,3.0
2024-02-27 11:35:25.155159,1709030125.1551592,-38.57421875,-31.25,-43.9453125,-55.6640625,-1.0,-1.0,1.0,1.0,5.m4v,3.0
2024-02-27 11:35:25.159063,1709030125.159063,-29.296875,-8.7890625,-40.52734375,-46.875,-1.0,-1.0,1.0,1.0,5.m4v,3.0
2024-02-27 11:35:25.162967,1709030125.1629674,-34.66796875,-18.5546875,-33.203125,-46.875,-1.0,-1.0,1.0,1.0,5.m4v,3.0
2024-02-27 11:35:25.166872,1709030125.1668715,-30.2734375,-35.15625,-28.80859375,-38.57421875,-1.0,-1.0,1.0,1.0,5.m4v,3.0
2024-02-27 11:35:25.170776,1709030125.1707757,-20.99609375,-29.78515625,-27.34375,-33.203125,-1.0,-1.0,1.0,1.0,5.m4v,3.0
2024-02-27 11:35:25.174680,1709030125.1746795,-27.34375,-38.0859375,-24.90234375,-51.7578125,-1.0,-1.0,1.0,1.0,5.m4v,3.0
2024-02-27 11:35:25.178584,1709030125.1785836,-30.76171875,-34.1796875,-32.2265625,-59.5703125,-1.0,-1.0,1.0,1.0,5.m4v,3.0
2024-02-27 11:35:25.182488,1709030125.1824875,-27.34375,-24.4140625,-39.0625,-53.22265625,-1.0,-1.0,1.0,1.0,5.m4v,3.0
2024-02-27 11:35:25.186409,1709030125.1864092,-23.4375,-33.203125,-34.1796875,-38.0859375,-1.0,-1.0,1.0,1.0,5.m4v,3.0
2024-02-27 11:35:25.190313,1709030125.190313,-27.34375,-35.64453125,-33.203125,-27.83203125,-1.0,-1.0,1.0,1.0,5.m4v,3.0
2024-02-27 11:35:25.194217,1709030125.1942172,-33.203125,-24.90234375,-30.76171875,-32.71484375,-1.0,-1.0,1.0,1.0,5.m4v,3.0
2024-02-27 11:35:25.198121,1709030125.1981213,-27.83203125,-10.7421875,-44.43359375,-43.45703125,-1.0,-1.0,1.0,1.0,5.m4v,3.0
2024-02-27 11:35:25.202025,1709030125.2020254,-26.85546875,-3.41796875,-59.08203125,-46.875,-1.0,-1.0,1.0,1.0,5.m4v,3.0
2024-02-27 11:35:25.205930,1709030125.2059295,-39.0625,-5.37109375,-32.2265625,-33.69140625,-1.0,-1.0,1.0,1.0,5.m4v,3.0
2024-02-27 11:35:25.209833,1709030125.2098334,-29.78515625,-10.7421875,-17.578125,-18.06640625,-1.0,-1.0,1.0,1.0,5.m4v,3.0
2024-02-27 11:35:25.213737,1709030125.2137375,-12.6953125,-35.64453125,-25.87890625,-15.13671875,-1.0,-1.0,1.0,1.0,5.m4v,3.0
2024-02-27 11:35:25.217642,1709030125.2176416,-31.73828125,-48.828125,-25.390625,-31.73828125,-1.0,-1.0,1.0,1.0,5.m4v,3.0
2024-02-27 11:35:25.221546,1709030125.2215457,-66.40625,-41.015625,-23.4375,-57.6171875,-1.0,-1.0,1.0,1.0,5.m4v,3.0
2024-02-27 11:35:25.225450,1709030125.2254496,-76.66015625,-24.90234375,-22.4609375,-51.7578125,-1.0,-1.0,1.0,1.0,5.m4v,3.0
2024-02-27 11:35:25.229354,1709030125.2293537,-66.40625,-25.87890625,-18.5546875,-34.66796875,-1.0,-1.0,1.0,1.0,5.m4v,3.0
2024-02-27 11:35:25.233273,1709030125.2332733,-58.10546875,-37.59765625,-27.83203125,-37.109375,-1.0,-1.0,1.0,1.0,5.m4v,3.0
2024-02-27 11:35:25.237177,1709030125.2371774,-54.19921875,-30.2734375,-33.69140625,-45.8984375,-1.0,-1.0,1.0,1.0,5.m4v,3.0
2024-02-27 11:35:25.241081,1709030125.2410812,-55.6640625,-33.203125,-35.15625,-41.9921875,-1.0,-1.0,1.0,1.0,5.m4v,3.0
2024-02-27 11:35:25.244985,1709030125.244985,-59.5703125,-38.0859375,-40.0390625,-39.55078125,-1.0,-1.0,1.0,1.0,5.m4v,3.0
2024-02-27 11:35:25.248889,1709030125.2488894,-55.17578125,-23.92578125,-32.71484375,-40.0390625,-1.0,-1.0,1.0,1.0,5.m4v,3.0
2024-02-27 11:35:25.252794,1709030125.2527936,-45.41015625,0.48828125,-26.3671875,-37.109375,-1.0,-1.0,1.0,1.0,5.m4v,3.0
2024-02-27 11:35:25.256697,1709030125.2566974,-38.0859375,-10.25390625,-30.76171875,-45.8984375,-1.0,-1.0,1.0,1.0,5.m4v,3.0
2024-02-27 11:35:25.260602,1709030125.2606015,-31.73828125,-24.90234375,-25.390625,-43.45703125,-1.0,-1.0,1.0,1.0,5.m4v,3.0
2024-02-27 11:35:25.264506,1709030125.2645056,-32.71484375,-40.52734375,-20.01953125,-39.0625,-1.0,-1.0,1.0,1.0,5.m4v,3.0
2024-02-27 11:35:25.268410,1709030125.2684095,-26.3671875,-51.7578125,-24.4140625,-34.1796875,-1.0,-1.0,1.0,1.0,5.m4v,3.0
2024-02-27 11:35:25.272314,1709030125.2723138,-17.578125,-27.83203125,-28.80859375,-28.80859375,-1.0,-1.0,1.0,1.0,5.m4v,3.0
2024-02-27 11:35:25.276218,1709030125.2762177,-20.99609375,-18.5546875,-34.66796875,-37.109375,-1.0,-1.0,1.0,1.0,5.m4v,3.0
2024-02-27 11:35:25.280146,1709030125.280146,-20.99609375,-34.66796875,-31.73828125,-46.875,-1.0,-1.0,1.0,1.0,5.m4v,3.0
2024-02-27 11:35:25.284050,1709030125.28405,-19.04296875,-41.50390625,-35.64453125,-36.62109375,-1.0,-1.0,1.0,1.0,5.m4v,3.0
2024-02-27 11:35:25.287954,1709030125.287954,-28.3203125,-32.71484375,-37.109375,-15.625,-1.0,-1.0,1.0,1.0,5.m4v,3.0
2024-02-27 11:35:25.291858,1709030125.2918582,-27.83203125,-32.2265625,-20.5078125,-3.41796875,-1.0,-1.0,1.0,1.0,5.m4v,3.0
2024-02-27 11:35:25.295762,1709030125.295762,-28.80859375,-49.8046875,-20.01953125,-19.53125,-1.0,-1.0,1.0,1.0,5.m4v,3.0
2024-02-27 11:35:25.299666,1709030125.2996662,-42.48046875,-35.15625,-34.1796875,-30.2734375,-1.0,-1.0,1.0,1.0,5.m4v,3.0
2024-02-27 11:35:25.303570,1709030125.3035705,-49.31640625,-26.3671875,-29.296875,-23.4375,-1.0,-1.0,1.0,1.0,5.m4v,3.0
2024-02-27 11:35:25.307474,1709030125.3074744,-44.43359375,-57.6171875,-18.5546875,-16.11328125,-1.0,-1.0,1.0,1.0,5.m4v,3.0
2024-02-27 11:35:25.311378,1709030125.3113785,-35.64453125,-45.8984375,-24.4140625,-8.30078125,-1.0,-1.0,1.0,1.0,5.m4v,3.0
2024-02-27 11:35:25.315282,1709030125.3152823,-38.0859375,-49.8046875,-28.3203125,-16.11328125,-1.0,-1.0,1.0,1.0,5.m4v,3.0
2024-02-27 11:35:25.319186,1709030125.3191864,-33.69140625,-55.17578125,-22.4609375,-21.484375,-1.0,-1.0,1.0,1.0,5.m4v,3.0
2024-02-27 11:35:25.323091,1709030125.3230906,-28.3203125,-39.0625,-17.08984375,-21.97265625,-1.0,-1.0,1.0,1.0,5.m4v,3.0
2024-02-27 11:35:25.327018,1709030125.3270178,-32.71484375,-55.17578125,-33.69140625,-23.92578125,-1.0,-1.0,1.0,1.0,5.m4v,3.0
2024-02-27 11:35:25.330922,1709030125.3309216,-18.06640625,-53.22265625,-32.71484375,-20.5078125,-1.0,-1.0,1.0,1.0,5.m4v,3.0
2024-02-27 11:35:25.334826,1709030125.3348258,-4.39453125,-26.85546875,-18.5546875,-28.80859375,-1.0,-1.0,1.0,1.0,5.m4v,3.0
2024-02-27 11:35:25.338730,1709030125.33873,-12.6953125,-23.4375,-20.99609375,-44.43359375,-1.0,-1.0,1.0,1.0,5.m4v,3.0
2024-02-27 11:35:25.342634,1709030125.342634,-20.01953125,-28.3203125,-21.97265625,-52.734375,-1.0,-1.0,1.0,1.0,5.m4v,3.0
2024-02-27 11:35:25.346538,1709030125.346538,-20.99609375,-18.06640625,-25.390625,-46.875,-1.0,-1.0,1.0,1.0,5.m4v,3.0
2024-02-27 11:35:25.350442,1709030125.350442,-21.97265625,-25.390625,-28.3203125,-38.57421875,-1.0,-1.0,1.0,1.0,5.m4v,3.0
2024-02-27 11:35:25.354346,1709030125.354346,-23.92578125,-52.24609375,-27.34375,-41.015625,-1.0,-1.0,1.0,1.0,5.m4v,3.0
2024-02-27 11:35:25.358250,1709030125.35825,-34.66796875,-66.40625,-35.15625,-46.875,-1.0,-1.0,1.0,1.0,5.m4v,3.0
2024-02-27 11:35:25.362154,1709030125.3621542,-36.62109375,-52.734375,-33.203125,-41.9921875,-1.0,-1.0,1.0,1.0,5.m4v,3.0
2024-02-27 11:35:25.366058,1709030125.366058,-37.59765625,-48.33984375,-29.78515625,-28.3203125,-1.0,-1.0,1.0,1.0,5.m4v,3.0
2024-02-27 11:35:25.369962,1709030125.3699622,-42.96875,-48.828125,-38.0859375,-21.484375,-1.0,-1.0,1.0,1.0,5.m4v,3.0
2024-02-27 11:35:25.373888,1709030125.373888,-33.203125,-26.85546875,-38.0859375,-18.06640625,-1.0,-1.0,1.0,1.0,5.m4v,3.0
2024-02-27 11:35:25.377792,1709030125.377792,-30.2734375,-26.3671875,-32.2265625,-26.85546875,-1.0,-1.0,1.0,1.0,5.m4v,3.0
2024-02-27 11:35:25.381696,1709030125.3816962,-30.76171875,-24.90234375,-23.4375,-18.5546875,-1.0,-1.0,1.0,1.0,5.m4v,3.0
2024-02-27 11:35:25.385600,1709030125.3856003,-41.50390625,-38.57421875,-34.1796875,-13.18359375,-1.0,-1.0,1.0,1.0,5.m4v,3.0
2024-02-27 11:35:25.389504,1709030125.3895042,-56.15234375,-51.7578125,-33.69140625,-15.625,-1.0,-1.0,1.0,1.0,5.m4v,3.0
2024-02-27 11:35:25.393408,1709030125.3934083,-50.78125,-31.25,-24.90234375,-20.01953125,-1.0,-1.0,1.0,1.0,5.m4v,3.0
2024-02-27 11:35:25.397312,1709030125.3973124,-43.9453125,-32.2265625,-33.203125,-31.25,-1.0,-1.0,1.0,1.0,5.m4v,3.0
2024-02-27 11:35:25.401217,1709030125.4012165,-51.26953125,-59.08203125,-37.59765625,-34.66796875,-1.0,-1.0,1.0,1.0,5.m4v,3.0
2024-02-27 11:35:25.405120,1709030125.4051204,-62.98828125,-70.3125,-55.6640625,-46.38671875,-1.0,-1.0,1.0,1.0,5.m4v,3.0
2024-02-27 11:35:25.409024,1709030125.4090245,-58.59375,-63.4765625,-48.33984375,-49.8046875,-1.0,-1.0,1.0,1.0,5.m4v,3.0
2024-02-27 11:35:25.412929,1709030125.4129286,-48.828125,-58.59375,-27.83203125,-50.29296875,-1.0,-1.0,1.0,1.0,5.m4v,3.0
2024-02-27 11:35:25.416833,1709030125.4168327,-43.45703125,-40.52734375,-26.3671875,-52.734375,-1.0,-1.0,1.0,1.0,5.m4v,3.0
2024-02-27 11:35:25.420757,1709030125.420757,-33.203125,-20.01953125,-22.94921875,-45.41015625,-1.0,-1.0,1.0,1.0,5.m4v,3.0
2024-02-27 11:35:25.424661,1709030125.4246612,-31.25,-27.83203125,-24.4140625,-44.43359375,-1.0,-1.0,1.0,1.0,5.m4v,3.0
2024-02-27 11:35:25.428565,1709030125.4285653,-25.390625,-37.59765625,-28.80859375,-32.2265625,-1.0,-1.0,1.0,1.0,5.m4v,3.0
2024-02-27 11:35:25.432469,1709030125.4324691,-16.11328125,-38.57421875,-34.66796875,-22.94921875,-1.0,-1.0,1.0,1.0,5.m4v,3.0
2024-02-27 11:35:25.436373,1709030125.4363732,-22.4609375,-38.0859375,-41.9921875,-37.59765625,-1.0,-1.0,1.0,1.0,5.m4v,3.0
2024-02-27 11:35:25.440277,1709030125.440277,-28.3203125,-34.66796875,-39.0625,-44.921875,-1.0,-1.0,1.0,1.0,5.m4v,3.0
2024-02-27 11:35:25.444181,1709030125.4441814,-35.15625,-33.69140625,-42.48046875,-40.0390625,-1.0,-1.0,1.0,1.0,5.m4v,3.0
2024-02-27 11:35:25.448086,1709030125.4480855,-42.96875,-42.48046875,-42.96875,-28.80859375,-1.0,-1.0,1.0,1.0,5.m4v,3.0
2024-02-27 11:35:25.451989,1709030125.4519894,-39.0625,-49.31640625,-25.87890625,-19.04296875,-1.0,-1.0,1.0,1.0,5.m4v,3.0
2024-02-27 11:35:25.455894,1709030125.4558935,-25.390625,-32.71484375,-14.16015625,-19.04296875,-1.0,-1.0,1.0,1.0,5.m4v,3.0
2024-02-27 11:35:25.459798,1709030125.4597976,-18.5546875,-32.2265625,-14.6484375,-18.5546875,-1.0,-1.0,1.0,1.0,5.m4v,3.0
2024-02-27 11:35:25.463702,1709030125.4637015,-29.78515625,-52.24609375,-14.6484375,-9.765625,-1.0,-1.0,1.0,1.0,5.m4v,3.0
2024-02-27 11:35:25.467625,1709030125.467625,-39.0625,-56.640625,-23.92578125,-6.8359375,-1.0,-1.0,1.0,1.0,5.m4v,3.0
2024-02-27 11:35:25.471529,1709030125.4715288,-30.76171875,-45.41015625,-29.78515625,-7.32421875,-1.0,-1.0,1.0,1.0,5.m4v,3.0
2024-02-27 11:35:25.475433,1709030125.4754329,-21.97265625,-44.43359375,-30.76171875,-22.4609375,-1.0,-1.0,1.0,1.0,5.m4v,3.0
2024-02-27 11:35:25.479337,1709030125.479337,-26.3671875,-47.8515625,-45.41015625,-36.1328125,-1.0,-1.0,1.0,1.0,5.m4v,3.0
2024-02-27 11:35:25.483241,1709030125.483241,-26.3671875,-24.4140625,-48.33984375,-29.78515625,-1.0,-1.0,1.0,1.0,5.m4v,3.0
2024-02-27 11:35:25.487145,1709030125.4871452,-20.5078125,-1.953125,-31.25,-21.484375,-1.0,-1.0,1.0,1.0,5.m4v,3.0
2024-02-27 11:35:25.491049,1709030125.491049,-22.4609375,-14.6484375,-27.83203125,-29.78515625,-1.0,-1.0,1.0,1.0,5.m4v,3.0
2024-02-27 11:35:25.494953,1709030125.4949532,-26.85546875,-37.59765625,-35.15625,-48.828125,-1.0,-1.0,1.0,1.0,5.m4v,3.0
2024-02-27 11:35:25.498857,1709030125.4988573,-26.3671875,-25.87890625,-32.71484375,-41.015625,-1.0,-1.0,1.0,1.0,5.m4v,3.0
2024-02-27 11:35:25.502761,1709030125.5027614,-34.1796875,-20.5078125,-24.90234375,-35.15625,-1.0,-1.0,1.0,1.0,5.m4v,3.0
2024-02-27 11:35:25.506665,1709030125.5066657,-36.1328125,-32.2265625,-22.4609375,-37.109375,-1.0,-1.0,1.0,1.0,5.m4v,3.0
2024-02-27 11:35:25.510569,1709030125.510569,-35.15625,-34.66796875,-31.25,-30.76171875,-1.0,-1.0,1.0,1.0,5.m4v,3.0
2024-02-27 11:35:25.514492,1709030125.514492,-39.0625,-37.59765625,-41.015625,-33.69140625,-1.0,-1.0,1.0,1.0,5.m4v,3.0
2024-02-27 11:35:25.518396,1709030125.518396,-35.64453125,-35.15625,-30.2734375,-37.109375,-1.0,-1.0,1.0,1.0,5.m4v,3.0
2024-02-27 11:35:25.522300,1709030125.5223002,-43.45703125,-31.73828125,-40.52734375,-39.0625,-1.0,-1.0,1.0,1.0,5.m4v,3.0
2024-02-27 11:35:25.526204,1709030125.5262043,-48.33984375,-21.97265625,-54.6875,-32.2265625,-1.0,-1.0,1.0,1.0,5.m4v,3.0
2024-02-27 11:35:25.530108,1709030125.5301082,-24.4140625,-25.390625,-30.76171875,-19.53125,-1.0,-1.0,1.0,1.0,5.m4v,3.0
2024-02-27 11:35:25.534012,1709030125.5340123,-6.34765625,-14.16015625,-13.18359375,-12.20703125,-1.0,-1.0,1.0,1.0,5.m4v,3.0
2024-02-27 11:35:25.537916,1709030125.5379164,-20.99609375,-14.16015625,-22.94921875,-15.625,-1.0,-1.0,1.0,1.0,5.m4v,3.0
2024-02-27 11:35:25.541821,1709030125.5418203,-40.52734375,-48.33984375,-33.203125,-37.59765625,-1.0,-1.0,1.0,1.0,5.m4v,3.0
2024-02-27 11:35:25.545724,1709030125.5457244,-50.29296875,-48.33984375,-35.15625,-41.50390625,-1.0,-1.0,1.0,1.0,5.m4v,3.0
2024-02-27 11:35:25.549628,1709030125.5496285,-46.38671875,-33.69140625,-33.69140625,-18.5546875,-1.0,-1.0,1.0,1.0,5.m4v,3.0
2024-02-27 11:35:25.553533,1709030125.5535326,-35.15625,-30.76171875,-38.0859375,-18.5546875,-1.0,-1.0,1.0,1.0,5.m4v,3.0
2024-02-27 11:35:25.557437,1709030125.5574367,-35.15625,-34.66796875,-47.8515625,-44.43359375,-1.0,-1.0,1.0,1.0,5.m4v,3.0
2024-02-27 11:35:25.561359,1709030125.5613594,-41.50390625,-26.3671875,-38.0859375,-51.7578125,-1.0,-1.0,1.0,1.0,5.m4v,3.0
2024-02-27 11:35:25.565263,1709030125.5652633,-47.36328125,-33.69140625,-23.92578125,-44.921875,-1.0,-1.0,1.0,1.0,5.m4v,3.0
2024-02-27 11:35:25.569167,1709030125.5691674,-41.50390625,-46.875,-27.83203125,-35.64453125,-1.0,-1.0,1.0,1.0,5.m4v,3.0
2024-02-27 11:35:25.573071,1709030125.5730717,-32.2265625,-33.69140625,-31.25,-30.76171875,-1.0,-1.0,1.0,1.0,5.m4v,3.0
2024-02-27 11:35:25.576976,1709030125.5769756,-38.57421875,-39.0625,-25.390625,-45.41015625,-1.0,-1.0,1.0,1.0,5.m4v,3.0
2024-02-27 11:35:25.580879,1709030125.5808794,-45.41015625,-26.85546875,-13.18359375,-45.41015625,-1.0,-1.0,1.0,1.0,5.m4v,3.0
2024-02-27 11:35:25.584784,1709030125.5847836,-50.29296875,-8.30078125,-20.99609375,-35.64453125,-1.0,-1.0,1.0,1.0,5.m4v,3.0
2024-02-27 11:35:25.588688,1709030125.5886877,-42.96875,-27.83203125,-28.3203125,-26.85546875,-1.0,-1.0,1.0,1.0,5.m4v,3.0
2024-02-27 11:35:25.592592,1709030125.5925918,-28.3203125,-30.2734375,-30.2734375,-16.6015625,-1.0,-1.0,1.0,1.0,5.m4v,3.0
2024-02-27 11:35:25.596496,1709030125.596496,-25.87890625,-30.76171875,-35.64453125,-26.3671875,-1.0,-1.0,1.0,1.0,5.m4v,3.0
2024-02-27 11:35:25.600400,1709030125.6003995,-24.90234375,-42.48046875,-22.4609375,-31.25,-1.0,-1.0,1.0,1.0,5.m4v,3.0
2024-02-27 11:35:25.604304,1709030125.6043038,-39.0625,-45.8984375,-40.0390625,-30.2734375,-1.0,-1.0,1.0,1.0,5.m4v,3.0
2024-02-27 11:35:25.608224,1709030125.608224,-50.78125,-44.43359375,-54.19921875,-26.85546875,-1.0,-1.0,1.0,1.0,5.m4v,3.0
2024-02-27 11:35:25.612128,1709030125.612128,-40.52734375,-36.1328125,-30.76171875,-26.3671875,-1.0,-1.0,1.0,1.0,5.m4v,3.0
2024-02-27 11:35:25.616032,1709030125.616032,-29.296875,-33.69140625,-13.18359375,-34.1796875,-1.0,-1.0,1.0,1.0,5.m4v,3.0
2024-02-27 11:35:25.619936,1709030125.6199362,-35.15625,-31.73828125,-18.5546875,-33.203125,-1.0,-1.0,1.0,1.0,5.m4v,3.0
2024-02-27 11:35:25.623840,1709030125.6238403,-45.8984375,-32.71484375,-31.25,-36.1328125,-1.0,-1.0,1.0,1.0,5.m4v,3.0
2024-02-27 11:35:25.627744,1709030125.6277442,-36.1328125,-18.06640625,-28.3203125,-13.671875,-1.0,-1.0,1.0,1.0,5.m4v,3.0
2024-02-27 11:35:25.631648,1709030125.6316483,-30.76171875,-26.3671875,-27.83203125,-5.859375,-1.0,-1.0,1.0,1.0,5.m4v,3.0
2024-02-27 11:35:25.635552,1709030125.6355524,-35.15625,-60.05859375,-37.109375,-33.69140625,-1.0,-1.0,1.0,1.0,5.m4v,3.0
2024-02-27 11:35:25.639457,1709030125.6394565,-34.66796875,-56.640625,-34.1796875,-43.9453125,-1.0,-1.0,1.0,1.0,5.m4v,3.0
2024-02-27 11:35:25.643360,1709030125.6433604,-40.52734375,-50.29296875,-29.78515625,-36.62109375,-1.0,-1.0,1.0,1.0,5.m4v,3.0
2024-02-27 11:35:25.647264,1709030125.6472645,-48.828125,-41.9921875,-41.015625,-28.80859375,-1.0,-1.0,1.0,1.0,5.m4v,3.0
2024-02-27 11:35:25.651169,1709030125.6511686,-49.31640625,-40.52734375,-37.59765625,-32.71484375,-1.0,-1.0,1.0,1.0,5.m4v,3.0
2024-02-27 11:35:25.655096,1709030125.655096,-41.50390625,-53.7109375,-28.3203125,-45.41015625,-1.0,-1.0,1.0,1.0,5.m4v,3.0
2024-02-27 11:35:25.659000,1709030125.6590002,-34.1796875,-51.26953125,-34.66796875,-46.875,-1.0,-1.0,1.0,1.0,5.m4v,3.0
2024-02-27 11:35:25.662904,1709030125.6629045,-45.8984375,-36.1328125,-42.96875,-44.921875,-1.0,-1.0,1.0,1.0,5.m4v,3.0
2024-02-27 11:35:25.666808,1709030125.666808,-51.7578125,-33.69140625,-40.52734375,-40.0390625,-1.0,-1.0,1.0,1.0,5.m4v,3.0
2024-02-27 11:35:25.670712,1709030125.6707122,-48.33984375,-37.109375,-44.43359375,-44.43359375,-1.0,-1.0,1.0,1.0,5.m4v,3.0
2024-02-27 11:35:25.674616,1709030125.6746163,-44.921875,-17.578125,-46.38671875,-55.6640625,-1.0,-1.0,1.0,1.0,5.m4v,3.0
2024-02-27 11:35:25.678520,1709030125.6785204,-37.59765625,-1.953125,-40.52734375,-60.05859375,-1.0,-1.0,1.0,1.0,5.m4v,3.0
2024-02-27 11:35:25.682424,1709030125.6824243,-38.57421875,-22.4609375,-32.71484375,-61.03515625,-1.0,-1.0,1.0,1.0,5.m4v,3.0
2024-02-27 11:35:25.686328,1709030125.6863284,-44.921875,-49.31640625,-34.1796875,-53.7109375,-1.0,-1.0,1.0,1.0,5.m4v,3.0
2024-02-27 11:35:25.690233,1709030125.6902325,-36.62109375,-46.38671875,-32.71484375,-32.2265625,-1.0,-1.0,1.0,1.0,5.m4v,3.0
2024-02-27 11:35:25.694137,1709030125.6941366,-31.25,-44.43359375,-29.78515625,-30.76171875,-1.0,-1.0,1.0,1.0,5.m4v,3.0
2024-02-27 11:35:25.698041,1709030125.6980407,-36.1328125,-52.734375,-33.203125,-46.38671875,-1.0,-1.0,1.0,1.0,5.m4v,3.0
2024-02-27 11:35:25.701967,1709030125.7019668,-39.55078125,-51.26953125,-28.80859375,-42.48046875,-1.0,-1.0,1.0,1.0,5.m4v,3.0
2024-02-27 11:35:25.705871,1709030125.7058709,-43.9453125,-33.203125,-37.109375,-27.83203125,-1.0,-1.0,1.0,1.0,5.m4v,3.0
2024-02-27 11:35:25.709775,1709030125.709775,-39.0625,-19.04296875,-38.57421875,-11.23046875,-1.0,-1.0,1.0,1.0,5.m4v,3.0
2024-02-27 11:35:25.713679,1709030125.7136788,-24.4140625,-15.13671875,-22.94921875,0.0,-1.0,-1.0,1.0,1.0,5.m4v,3.0
2024-02-27 11:35:25.717583,1709030125.717583,-15.625,-16.6015625,-23.92578125,-15.13671875,-1.0,-1.0,1.0,1.0,5.m4v,3.0
2024-02-27 11:35:25.721487,1709030125.721487,-22.94921875,-18.5546875,-38.0859375,-21.484375,-1.0,-1.0,1.0,1.0,5.m4v,3.0
2024-02-27 11:35:25.725391,1709030125.7253911,-28.80859375,-25.390625,-41.50390625,-14.16015625,-1.0,-1.0,1.0,1.0,5.m4v,3.0
2024-02-27 11:35:25.729295,1709030125.7292953,-24.4140625,-33.203125,-34.1796875,-10.7421875,-1.0,-1.0,1.0,1.0,5.m4v,3.0
2024-02-27 11:35:25.733199,1709030125.7331991,-22.94921875,-41.015625,-39.0625,-19.53125,-1.0,-1.0,1.0,1.0,5.m4v,3.0
2024-02-27 11:35:25.737103,1709030125.7371032,-25.87890625,-47.36328125,-45.8984375,-38.0859375,-1.0,-1.0,1.0,1.0,5.m4v,3.0
2024-02-27 11:35:25.741007,1709030125.741007,-27.34375,-36.62109375,-47.8515625,-49.8046875,-1.0,-1.0,1.0,1.0,5.m4v,3.0
2024-02-27 11:35:25.744911,1709030125.7449114,-12.6953125,-38.0859375,-34.1796875,-29.78515625,-1.0,-1.0,1.0,1.0,5.m4v,3.0
2024-02-27 11:35:25.748837,1709030125.7488368,-6.8359375,-49.8046875,-25.390625,-11.71875,-1.0,-1.0,1.0,1.0,5.m4v,3.0
2024-02-27 11:35:25.752741,1709030125.7527409,-31.25,-33.69140625,-28.3203125,-33.69140625,-1.0,-1.0,1.0,1.0,5.m4v,3.0
2024-02-27 11:35:25.756645,1709030125.7566447,-35.64453125,-10.7421875,-20.99609375,-41.015625,-1.0,-1.0,1.0,1.0,5.m4v,3.0
2024-02-27 11:35:25.760549,1709030125.7605488,-42.96875,-16.6015625,-31.73828125,-44.43359375,-1.0,-1.0,1.0,1.0,5.m4v,3.0
2024-02-27 11:35:25.764453,1709030125.764453,-64.94140625,-27.34375,-51.7578125,-50.78125,-1.0,-1.0,1.0,1.0,5.m4v,3.0
2024-02-27 11:35:25.768357,1709030125.768357,-63.96484375,-20.01953125,-42.48046875,-30.76171875,-1.0,-1.0,1.0,1.0,5.m4v,3.0
2024-02-27 11:35:25.772261,1709030125.7722611,-57.12890625,-44.43359375,-38.0859375,-27.83203125,-1.0,-1.0,1.0,1.0,5.m4v,3.0
2024-02-27 11:35:25.776165,1709030125.776165,-52.24609375,-84.47265625,-42.96875,-41.50390625,-1.0,-1.0,1.0,1.0,5.m4v,3.0
2024-02-27 11:35:25.780069,1709030125.780069,-44.921875,-78.125,-20.99609375,-34.1796875,-1.0,-1.0,1.0,1.0,5.m4v,3.0
2024-02-27 11:35:25.783973,1709030125.7839732,-48.828125,-53.22265625,-11.23046875,-29.296875,-1.0,-1.0,1.0,1.0,5.m4v,3.0
2024-02-27 11:35:25.787877,1709030125.787877,-48.828125,-17.08984375,-20.5078125,-20.99609375,-1.0,-1.0,1.0,1.0,5.m4v,3.0
2024-02-27 11:35:25.791781,1709030125.7917814,-29.78515625,-0.9765625,-28.80859375,-18.06640625,-1.0,-1.0,1.0,1.0,5.m4v,3.0
2024-02-27 11:35:25.795707,1709030125.7957065,-25.87890625,-30.76171875,-34.66796875,-39.55078125,-1.0,-1.0,1.0,1.0,5.m4v,3.0
2024-02-27 11:35:25.799611,1709030125.7996106,-35.64453125,-51.26953125,-52.24609375,-60.05859375,-1.0,-1.0,1.0,1.0,5.m4v,3.0
2024-02-27 11:35:25.803515,1709030125.8035147,-25.87890625,-42.48046875,-46.38671875,-54.19921875,-1.0,-1.0,1.0,1.0,5.m4v,3.0
2024-02-27 11:35:25.807419,1709030125.8074186,-27.83203125,-49.31640625,-30.2734375,-45.41015625,-1.0,-1.0,1.0,1.0,5.m4v,3.0
2024-02-27 11:35:25.811323,1709030125.8113227,-39.55078125,-52.24609375,-36.1328125,-39.0625,-1.0,-1.0,1.0,1.0,5.m4v,3.0
2024-02-27 11:35:25.815227,1709030125.8152268,-36.62109375,-40.0390625,-35.15625,-34.1796875,-1.0,-1.0,1.0,1.0,5.m4v,3.0
2024-02-27 11:35:25.819131,1709030125.819131,-41.50390625,-37.59765625,-27.34375,-48.33984375,-1.0,-1.0,1.0,1.0,5.m4v,3.0
2024-02-27 11:35:25.823035,1709030125.823035,-53.7109375,-38.57421875,-21.97265625,-50.29296875,-1.0,-1.0,1.0,1.0,5.m4v,3.0
2024-02-27 11:35:25.826939,1709030125.8269389,-61.03515625,-40.0390625,-31.25,-35.64453125,-1.0,-1.0,1.0,1.0,5.m4v,3.0
2024-02-27 11:35:25.830843,1709030125.830843,-51.26953125,-37.109375,-27.34375,-23.92578125,-1.0,-1.0,1.0,1.0,5.m4v,3.0
2024-02-27 11:35:25.834747,1709030125.834747,-46.38671875,-25.390625,-16.6015625,-26.85546875,-1.0,-1.0,1.0,1.0,5.m4v,3.0
2024-02-27 11:35:25.838651,1709030125.8386512,-52.24609375,-37.59765625,-23.92578125,-37.59765625,-1.0,-1.0,1.0,1.0,5.m4v,3.0
2024-02-27 11:35:25.842574,1709030125.842574,-47.36328125,-37.59765625,-39.0625,-29.296875,-1.0,-1.0,1.0,1.0,5.m4v,3.0
2024-02-27 11:35:25.846478,1709030125.8464775,-36.1328125,-27.34375,-41.015625,-12.20703125,-1.0,-1.0,1.0,1.0,5.m4v,3.0
2024-02-27 11:35:25.850382,1709030125.850382,-22.4609375,-32.71484375,-20.99609375,-1.953125,-1.0,-1.0,1.0,1.0,5.m4v,3.0
