Timestamp,Timestamp_UNIX,TP9,AF7,AF8,TP10,Valence,Arousal,Dominace,Viewed,Video,Participant
2024-02-27 11:54:40.074533,1709031280.0745325,-35.64453125,-58.10546875,-15.625,-26.3671875,-1.0,1.0,-1.0,0.0,8.m4v,3.0
2024-02-27 11:54:40.074533,1709031280.0745325,-35.64453125,-58.10546875,-15.625,-26.3671875,-1.0,1.0,-1.0,0.0,8.m4v,3.0
2024-02-27 11:54:40.078438,1709031280.078438,-31.73828125,-28.80859375,-17.08984375,-15.625,-1.0,1.0,-1.0,0.0,8.m4v,3.0
2024-02-27 11:54:40.078438,1709031280.078438,-31.73828125,-28.80859375,-17.08984375,-15.625,-1.0,1.0,-1.0,0.0,8.m4v,3.0
2024-02-27 11:54:40.082344,1709031280.0823438,-25.87890625,-14.16015625,-25.390625,-17.08984375,-1.0,1.0,-1.0,0.0,8.m4v,3.0
2024-02-27 11:54:40.086249,1709031280.0862494,-28.80859375,-32.71484375,-30.2734375,-39.55078125,-1.0,1.0,-1.0,0.0,8.m4v,3.0
2024-02-27 11:54:40.090155,1709031280.090155,-45.8984375,-29.296875,-36.62109375,-58.10546875,-1.0,1.0,-1.0,0.0,8.m4v,3.0
2024-02-27 11:54:40.094061,1709031280.094061,-45.8984375,-19.04296875,-43.45703125,-40.52734375,-1.0,1.0,-1.0,0.0,8.m4v,3.0
2024-02-27 11:54:40.097966,1709031280.0979662,-44.921875,-24.90234375,-30.76171875,-22.94921875,-1.0,1.0,-1.0,0.0,8.m4v,3.0
2024-02-27 11:54:40.101872,1709031280.101872,-53.22265625,-49.8046875,-20.01953125,-27.34375,-1.0,1.0,-1.0,0.0,8.m4v,3.0
2024-02-27 11:54:40.105783,1709031280.1057825,-51.26953125,-61.03515625,-17.578125,-37.59765625,-1.0,1.0,-1.0,0.0,8.m4v,3.0
2024-02-27 11:54:40.109688,1709031280.109688,-46.875,-66.40625,-21.97265625,-45.41015625,-1.0,1.0,-1.0,0.0,8.m4v,3.0
2024-02-27 11:54:40.113594,1709031280.1135938,-44.43359375,-54.6875,-35.15625,-41.50390625,-1.0,1.0,-1.0,0.0,8.m4v,3.0
2024-02-27 11:54:40.117499,1709031280.1174994,-48.33984375,-12.20703125,-41.015625,-28.80859375,-1.0,1.0,-1.0,0.0,8.m4v,3.0
2024-02-27 11:54:40.121405,1709031280.121405,-52.24609375,-21.484375,-50.29296875,-28.80859375,-1.0,1.0,-1.0,0.0,8.m4v,3.0
2024-02-27 11:54:40.125311,1709031280.125311,-40.52734375,-21.484375,-43.9453125,-39.0625,-1.0,1.0,-1.0,0.0,8.m4v,3.0
2024-02-27 11:54:40.129216,1709031280.1292162,-33.203125,-21.484375,-25.87890625,-49.8046875,-1.0,1.0,-1.0,0.0,8.m4v,3.0
2024-02-27 11:54:40.133122,1709031280.1331215,-36.62109375,-46.38671875,-31.73828125,-50.78125,-1.0,1.0,-1.0,0.0,8.m4v,3.0
2024-02-27 11:54:40.137028,1709031280.1370275,-33.203125,-38.0859375,-37.109375,-39.0625,-1.0,1.0,-1.0,0.0,8.m4v,3.0
2024-02-27 11:54:40.140933,1709031280.140933,-33.69140625,-34.1796875,-30.76171875,-31.25,-1.0,1.0,-1.0,0.0,8.m4v,3.0
2024-02-27 11:54:40.144839,1709031280.1448386,-40.0390625,-39.0625,-33.203125,-41.015625,-1.0,1.0,-1.0,0.0,8.m4v,3.0
2024-02-27 11:54:40.148744,1709031280.1487443,-38.0859375,-27.83203125,-39.0625,-53.7109375,-1.0,1.0,-1.0,0.0,8.m4v,3.0
2024-02-27 11:54:40.152655,1709031280.1526546,-35.15625,-16.6015625,-44.43359375,-51.26953125,-1.0,1.0,-1.0,0.0,8.m4v,3.0
2024-02-27 11:54:40.156560,1709031280.1565604,-36.1328125,-26.85546875,-41.9921875,-34.1796875,-1.0,1.0,-1.0,0.0,8.m4v,3.0
2024-02-27 11:54:40.160466,1709031280.160466,-26.3671875,-34.1796875,-36.1328125,-15.625,-1.0,1.0,-1.0,0.0,8.m4v,3.0
2024-02-27 11:54:40.164371,1709031280.1643715,-23.4375,-19.53125,-43.9453125,-20.99609375,-1.0,1.0,-1.0,0.0,8.m4v,3.0
2024-02-27 11:54:40.168277,1709031280.1682773,-30.2734375,-7.32421875,-63.96484375,-36.1328125,-1.0,1.0,-1.0,0.0,8.m4v,3.0
2024-02-27 11:54:40.172183,1709031280.1721828,-29.78515625,-13.18359375,-32.71484375,-33.203125,-1.0,1.0,-1.0,0.0,8.m4v,3.0
2024-02-27 11:54:40.176088,1709031280.1760883,-49.8046875,-39.55078125,-6.8359375,-29.296875,-1.0,1.0,-1.0,0.0,8.m4v,3.0
2024-02-27 11:54:40.179994,1709031280.179994,-83.0078125,-51.26953125,-17.578125,-33.203125,-1.0,1.0,-1.0,0.0,8.m4v,3.0
2024-02-27 11:54:40.183900,1709031280.1838996,-75.68359375,-26.3671875,-15.625,-34.66796875,-1.0,1.0,-1.0,0.0,8.m4v,3.0
2024-02-27 11:54:40.187805,1709031280.1878054,-46.875,-18.06640625,-17.578125,-30.76171875,-1.0,1.0,-1.0,0.0,8.m4v,3.0
2024-02-27 11:54:40.191711,1709031280.191711,-50.29296875,-40.52734375,-54.19921875,-42.48046875,-1.0,1.0,-1.0,0.0,8.m4v,3.0
2024-02-27 11:54:40.195616,1709031280.1956165,-61.5234375,-48.828125,-63.96484375,-46.38671875,-1.0,1.0,-1.0,0.0,8.m4v,3.0
2024-02-27 11:54:40.195616,1709031280.1956165,-61.5234375,-48.828125,-63.96484375,-46.38671875,-1.0,1.0,-1.0,0.0,8.m4v,3.0
2024-02-27 11:54:40.199527,1709031280.1995268,-47.8515625,-32.2265625,-44.921875,-31.73828125,-1.0,1.0,-1.0,0.0,8.m4v,3.0
2024-02-27 11:54:40.199527,1709031280.1995268,-47.8515625,-32.2265625,-44.921875,-31.73828125,-1.0,1.0,-1.0,0.0,8.m4v,3.0
2024-02-27 11:54:40.203433,1709031280.2034326,-33.69140625,-30.76171875,-35.64453125,-32.71484375,-1.0,1.0,-1.0,0.0,8.m4v,3.0
2024-02-27 11:54:40.203433,1709031280.2034326,-33.69140625,-30.76171875,-35.64453125,-32.71484375,-1.0,1.0,-1.0,0.0,8.m4v,3.0
2024-02-27 11:54:40.207338,1709031280.207338,-16.6015625,-43.45703125,-38.0859375,-42.96875,-1.0,1.0,-1.0,0.0,8.m4v,3.0
2024-02-27 11:54:40.207338,1709031280.207338,-16.6015625,-43.45703125,-38.0859375,-42.96875,-1.0,1.0,-1.0,0.0,8.m4v,3.0
2024-02-27 11:54:40.211244,1709031280.2112436,-22.94921875,-41.9921875,-48.828125,-45.8984375,-1.0,1.0,-1.0,0.0,8.m4v,3.0
2024-02-27 11:54:40.211244,1709031280.2112436,-22.94921875,-41.9921875,-48.828125,-45.8984375,-1.0,1.0,-1.0,0.0,8.m4v,3.0
2024-02-27 11:54:40.215149,1709031280.2151494,-28.3203125,-13.18359375,-37.59765625,-32.2265625,-1.0,1.0,-1.0,0.0,8.m4v,3.0
2024-02-27 11:54:40.215149,1709031280.2151494,-28.3203125,-13.18359375,-37.59765625,-32.2265625,-1.0,1.0,-1.0,0.0,8.m4v,3.0
2024-02-27 11:54:40.219055,1709031280.219055,-12.6953125,23.4375,-20.99609375,-4.39453125,-1.0,1.0,-1.0,0.0,8.m4v,3.0
2024-02-27 11:54:40.219055,1709031280.219055,-12.6953125,23.4375,-20.99609375,-4.39453125,-1.0,1.0,-1.0,0.0,8.m4v,3.0
2024-02-27 11:54:40.222960,1709031280.2229605,-12.20703125,-6.8359375,-43.45703125,-17.578125,-1.0,1.0,-1.0,0.0,8.m4v,3.0
2024-02-27 11:54:40.222960,1709031280.2229605,-12.20703125,-6.8359375,-43.45703125,-17.578125,-1.0,1.0,-1.0,0.0,8.m4v,3.0
2024-02-27 11:54:40.226866,1709031280.2268662,-12.20703125,-35.64453125,-41.50390625,-52.734375,-1.0,1.0,-1.0,0.0,8.m4v,3.0
2024-02-27 11:54:40.226866,1709031280.2268662,-12.20703125,-35.64453125,-41.50390625,-52.734375,-1.0,1.0,-1.0,0.0,8.m4v,3.0
2024-02-27 11:54:40.230772,1709031280.2307718,-15.13671875,-39.55078125,-21.97265625,-54.19921875,-1.0,1.0,-1.0,0.0,8.m4v,3.0
2024-02-27 11:54:40.230772,1709031280.2307718,-15.13671875,-39.55078125,-21.97265625,-54.19921875,-1.0,1.0,-1.0,0.0,8.m4v,3.0
2024-02-27 11:54:40.234677,1709031280.2346773,-25.390625,-54.19921875,-26.85546875,-46.875,-1.0,1.0,-1.0,0.0,8.m4v,3.0
2024-02-27 11:54:40.234677,1709031280.2346773,-25.390625,-54.19921875,-26.85546875,-46.875,-1.0,1.0,-1.0,0.0,8.m4v,3.0
2024-02-27 11:54:40.238583,1709031280.238583,-33.69140625,-54.6875,-40.0390625,-56.640625,-1.0,1.0,-1.0,0.0,8.m4v,3.0
2024-02-27 11:54:40.238583,1709031280.238583,-33.69140625,-54.6875,-40.0390625,-56.640625,-1.0,1.0,-1.0,0.0,8.m4v,3.0
2024-02-27 11:54:40.242489,1709031280.2424886,-40.52734375,-45.8984375,-46.38671875,-65.4296875,-1.0,1.0,-1.0,0.0,8.m4v,3.0
2024-02-27 11:54:40.242489,1709031280.2424886,-40.52734375,-45.8984375,-46.38671875,-65.4296875,-1.0,1.0,-1.0,0.0,8.m4v,3.0
2024-02-27 11:54:40.246399,1709031280.2463987,-43.45703125,-45.8984375,-37.109375,-79.58984375,-1.0,1.0,-1.0,0.0,8.m4v,3.0
2024-02-27 11:54:40.496379,1709031280.4963794,-42.48046875,-39.55078125,-29.78515625,-37.59765625,-1.0,1.0,-1.0,0.0,8.m4v,3.0
2024-02-27 11:54:40.500285,1709031280.5002851,-32.2265625,-16.6015625,-27.34375,-29.296875,-1.0,1.0,-1.0,0.0,8.m4v,3.0
2024-02-27 11:54:40.504191,1709031280.5041907,-34.1796875,-29.78515625,-34.1796875,-46.875,-1.0,1.0,-1.0,0.0,8.m4v,3.0
2024-02-27 11:54:40.508096,1709031280.5080962,-45.41015625,-61.5234375,-48.33984375,-60.05859375,-1.0,1.0,-1.0,0.0,8.m4v,3.0
2024-02-27 11:54:40.512002,1709031280.512002,-41.015625,-53.7109375,-31.73828125,-41.9921875,-1.0,1.0,-1.0,0.0,8.m4v,3.0
2024-02-27 11:54:40.515908,1709031280.5159075,-33.203125,-33.69140625,-18.5546875,-22.94921875,-1.0,1.0,-1.0,0.0,8.m4v,3.0
2024-02-27 11:54:40.519813,1709031280.519813,-37.109375,-25.87890625,-20.99609375,-22.94921875,-1.0,1.0,-1.0,0.0,8.m4v,3.0
2024-02-27 11:54:40.523719,1709031280.5237188,-45.41015625,-24.4140625,-33.203125,-36.62109375,-1.0,1.0,-1.0,0.0,8.m4v,3.0
2024-02-27 11:54:40.527629,1709031280.5276291,-47.36328125,-19.53125,-35.15625,-41.50390625,-1.0,1.0,-1.0,0.0,8.m4v,3.0
2024-02-27 11:54:40.531535,1709031280.531535,-52.24609375,-38.0859375,-38.0859375,-37.59765625,-1.0,1.0,-1.0,0.0,8.m4v,3.0
2024-02-27 11:54:40.535440,1709031280.5354404,-45.41015625,-45.41015625,-48.828125,-27.34375,-1.0,1.0,-1.0,0.0,8.m4v,3.0
2024-02-27 11:54:40.539346,1709031280.5393462,-35.15625,-46.38671875,-32.2265625,-18.5546875,-1.0,1.0,-1.0,0.0,8.m4v,3.0
2024-02-27 11:54:40.543252,1709031280.5432518,-16.11328125,-35.15625,-14.16015625,-8.7890625,-1.0,1.0,-1.0,0.0,8.m4v,3.0
2024-02-27 11:54:40.547157,1709031280.5471573,-4.8828125,-3.90625,-33.203125,-7.32421875,-1.0,1.0,-1.0,0.0,8.m4v,3.0
2024-02-27 11:54:40.551063,1709031280.551063,-33.203125,-27.34375,-37.109375,-30.76171875,-1.0,1.0,-1.0,0.0,8.m4v,3.0
2024-02-27 11:54:40.554969,1709031280.5549686,-53.7109375,-60.546875,-20.01953125,-38.57421875,-1.0,1.0,-1.0,0.0,8.m4v,3.0
2024-02-27 11:54:40.558874,1709031280.558874,-53.7109375,-58.10546875,-28.80859375,-30.2734375,-1.0,1.0,-1.0,0.0,8.m4v,3.0
2024-02-27 11:54:40.562780,1709031280.56278,-45.41015625,-47.8515625,-30.76171875,-29.296875,-1.0,1.0,-1.0,0.0,8.m4v,3.0
2024-02-27 11:54:40.566685,1709031280.5666854,-33.69140625,-44.921875,-35.64453125,-31.73828125,-1.0,1.0,-1.0,0.0,8.m4v,3.0
2024-02-27 11:54:40.566685,1709031280.5666854,-33.69140625,-44.921875,-35.64453125,-31.73828125,-1.0,1.0,-1.0,0.0,8.m4v,3.0
2024-02-27 11:54:40.570591,1709031280.570591,-29.296875,-31.73828125,-40.0390625,-21.484375,-1.0,1.0,-1.0,0.0,8.m4v,3.0
2024-02-27 11:54:40.570591,1709031280.570591,-29.296875,-31.73828125,-40.0390625,-21.484375,-1.0,1.0,-1.0,0.0,8.m4v,3.0
2024-02-27 11:54:40.574501,1709031280.5745013,-38.0859375,-24.90234375,-31.73828125,-12.6953125,-1.0,1.0,-1.0,0.0,8.m4v,3.0
2024-02-27 11:54:40.574501,1709031280.5745013,-38.0859375,-24.90234375,-31.73828125,-12.6953125,-1.0,1.0,-1.0,0.0,8.m4v,3.0
2024-02-27 11:54:40.578407,1709031280.578407,-31.25,-26.85546875,-27.83203125,-9.765625,-1.0,1.0,-1.0,0.0,8.m4v,3.0
2024-02-27 11:54:40.578407,1709031280.578407,-31.25,-26.85546875,-27.83203125,-9.765625,-1.0,1.0,-1.0,0.0,8.m4v,3.0
2024-02-27 11:54:40.582313,1709031280.5823126,-9.27734375,-21.97265625,-29.296875,-13.671875,-1.0,1.0,-1.0,0.0,8.m4v,3.0
2024-02-27 11:54:40.582313,1709031280.5823126,-9.27734375,-21.97265625,-29.296875,-13.671875,-1.0,1.0,-1.0,0.0,8.m4v,3.0
2024-02-27 11:54:40.586218,1709031280.586218,-12.20703125,-14.6484375,-32.71484375,-29.78515625,-1.0,1.0,-1.0,0.0,8.m4v,3.0
2024-02-27 11:54:40.590124,1709031280.590124,-38.0859375,-21.97265625,-34.1796875,-33.203125,-1.0,1.0,-1.0,0.0,8.m4v,3.0
2024-02-27 11:54:40.594029,1709031280.5940294,-47.36328125,-22.94921875,-34.66796875,-16.6015625,-1.0,1.0,-1.0,0.0,8.m4v,3.0
2024-02-27 11:54:40.597935,1709031280.5979352,-34.66796875,-23.92578125,-32.2265625,2.44140625,-1.0,1.0,-1.0,0.0,8.m4v,3.0
2024-02-27 11:54:40.601841,1709031280.6018407,-32.2265625,-40.0390625,-34.66796875,-0.48828125,-1.0,1.0,-1.0,0.0,8.m4v,3.0
2024-02-27 11:54:40.605746,1709031280.6057465,-39.0625,-50.29296875,-35.64453125,-18.06640625,-1.0,1.0,-1.0,0.0,8.m4v,3.0
2024-02-27 11:54:40.609652,1709031280.609652,-35.64453125,-65.4296875,-36.62109375,-22.94921875,-1.0,1.0,-1.0,0.0,8.m4v,3.0
2024-02-27 11:54:40.613558,1709031280.6135576,-30.2734375,-54.6875,-34.66796875,-17.578125,-1.0,1.0,-1.0,0.0,8.m4v,3.0
2024-02-27 11:54:40.617463,1709031280.617463,-32.2265625,-31.73828125,-24.90234375,-5.859375,-1.0,1.0,-1.0,0.0,8.m4v,3.0
2024-02-27 11:54:40.621373,1709031280.6213734,-42.48046875,-27.34375,-29.78515625,-12.20703125,-1.0,1.0,-1.0,0.0,8.m4v,3.0
2024-02-27 11:54:40.625279,1709031280.625279,-39.0625,-22.94921875,-42.96875,-31.73828125,-1.0,1.0,-1.0,0.0,8.m4v,3.0
2024-02-27 11:54:40.629184,1709031280.6291845,-38.57421875,-24.4140625,-61.5234375,-48.33984375,-1.0,1.0,-1.0,0.0,8.m4v,3.0
2024-02-27 11:54:40.636996,1709031280.6369958,-39.55078125,-26.85546875,-43.9453125,-18.06640625,-1.0,1.0,-1.0,0.0,8.m4v,3.0
2024-02-27 11:54:40.640901,1709031280.640901,-29.296875,-28.3203125,-15.13671875,-5.859375,-1.0,1.0,-1.0,0.0,8.m4v,3.0
2024-02-27 11:54:40.644807,1709031280.644807,-20.5078125,-38.57421875,-11.23046875,-15.625,-1.0,1.0,-1.0,0.0,8.m4v,3.0
2024-02-27 11:54:40.648713,1709031280.6487126,-32.71484375,-48.33984375,-21.484375,-29.296875,-1.0,1.0,-1.0,0.0,8.m4v,3.0
2024-02-27 11:54:40.652618,1709031280.6526184,-32.71484375,-30.76171875,-15.13671875,-24.4140625,-1.0,1.0,-1.0,0.0,8.m4v,3.0
2024-02-27 11:54:40.656524,1709031280.656524,-29.78515625,-21.484375,-16.6015625,-11.71875,-1.0,1.0,-1.0,0.0,8.m4v,3.0
2024-02-27 11:54:40.660429,1709031280.6604297,-44.921875,-26.85546875,-35.64453125,-20.01953125,-1.0,1.0,-1.0,0.0,8.m4v,3.0
2024-02-27 11:54:40.664335,1709031280.6643353,-42.48046875,-40.0390625,-63.96484375,-35.64453125,-1.0,1.0,-1.0,0.0,8.m4v,3.0
2024-02-27 11:54:40.668245,1709031280.668245,-30.2734375,-46.875,-70.80078125,-46.38671875,-1.0,1.0,-1.0,0.0,8.m4v,3.0
2024-02-27 11:54:40.672151,1709031280.6721506,-14.16015625,-30.2734375,-38.0859375,-30.76171875,-1.0,1.0,-1.0,0.0,8.m4v,3.0
2024-02-27 11:54:40.676056,1709031280.6760564,-14.6484375,-17.578125,-25.390625,-4.8828125,-1.0,1.0,-1.0,0.0,8.m4v,3.0
2024-02-27 11:54:40.679962,1709031280.679962,-28.80859375,-29.78515625,-29.296875,-15.625,-1.0,1.0,-1.0,0.0,8.m4v,3.0
2024-02-27 11:54:40.683867,1709031280.6838677,-37.109375,-33.69140625,-26.85546875,-30.2734375,-1.0,1.0,-1.0,0.0,8.m4v,3.0
2024-02-27 11:54:40.687773,1709031280.6877732,-33.69140625,-13.18359375,-30.2734375,-26.3671875,-1.0,1.0,-1.0,0.0,8.m4v,3.0
2024-02-27 11:54:40.691679,1709031280.6916788,-35.64453125,-26.85546875,-40.52734375,-30.76171875,-1.0,1.0,-1.0,0.0,8.m4v,3.0
2024-02-27 11:54:40.695585,1709031280.6955843,-48.828125,-45.8984375,-50.78125,-34.66796875,-1.0,1.0,-1.0,0.0,8.m4v,3.0
2024-02-27 11:54:40.699490,1709031280.69949,-35.64453125,-39.55078125,-32.2265625,-20.01953125,-1.0,1.0,-1.0,0.0,8.m4v,3.0
2024-02-27 11:54:40.703396,1709031280.7033956,-12.20703125,-31.25,-18.06640625,-13.18359375,-1.0,1.0,-1.0,0.0,8.m4v,3.0
2024-02-27 11:54:40.707301,1709031280.7073014,-18.5546875,-15.625,-44.921875,-24.90234375,-1.0,1.0,-1.0,0.0,8.m4v,3.0
2024-02-27 11:54:40.711207,1709031280.711207,-35.15625,-38.57421875,-56.640625,-36.62109375,-1.0,1.0,-1.0,0.0,8.m4v,3.0
2024-02-27 11:54:40.715117,1709031280.7151167,-26.85546875,-55.6640625,-42.96875,-20.99609375,-1.0,1.0,-1.0,0.0,8.m4v,3.0
2024-02-27 11:54:40.719022,1709031280.7190225,-24.4140625,-47.36328125,-42.48046875,-15.625,-1.0,1.0,-1.0,0.0,8.m4v,3.0
2024-02-27 11:54:40.722928,1709031280.7229278,-39.55078125,-45.41015625,-42.96875,-38.0859375,-1.0,1.0,-1.0,0.0,8.m4v,3.0
2024-02-27 11:54:40.726834,1709031280.7268336,-53.22265625,-41.50390625,-33.203125,-58.59375,-1.0,1.0,-1.0,0.0,8.m4v,3.0
2024-02-27 11:54:40.730739,1709031280.730739,-58.59375,-28.3203125,-30.76171875,-53.22265625,-1.0,1.0,-1.0,0.0,8.m4v,3.0
2024-02-27 11:54:40.734645,1709031280.734645,-56.15234375,-2.44140625,-33.69140625,-28.3203125,-1.0,1.0,-1.0,0.0,8.m4v,3.0
2024-02-27 11:54:40.738550,1709031280.7385504,-48.33984375,-13.671875,-23.92578125,-21.97265625,-1.0,1.0,-1.0,0.0,8.m4v,3.0
2024-02-27 11:54:40.742456,1709031280.742456,-37.109375,-41.9921875,-13.18359375,-42.96875,-1.0,1.0,-1.0,0.0,8.m4v,3.0
2024-02-27 11:54:40.746361,1709031280.7463615,-36.1328125,-55.6640625,-20.99609375,-59.08203125,-1.0,1.0,-1.0,0.0,8.m4v,3.0
2024-02-27 11:54:40.750267,1709031280.7502673,-46.875,-56.15234375,-33.203125,-63.4765625,-1.0,1.0,-1.0,0.0,8.m4v,3.0
2024-02-27 11:54:40.754173,1709031280.7541728,-54.19921875,-44.43359375,-35.64453125,-60.05859375,-1.0,1.0,-1.0,0.0,8.m4v,3.0
2024-02-27 11:54:40.758079,1709031280.7580786,-47.8515625,-19.04296875,-32.2265625,-43.45703125,-1.0,1.0,-1.0,0.0,8.m4v,3.0
2024-02-27 11:54:40.761988,1709031280.7619882,-23.4375,5.859375,-27.83203125,-27.34375,-1.0,1.0,-1.0,0.0,8.m4v,3.0
2024-02-27 11:54:40.765894,1709031280.7658937,-17.578125,-4.8828125,-30.76171875,-28.3203125,-1.0,1.0,-1.0,0.0,8.m4v,3.0
2024-02-27 11:54:40.769799,1709031280.7697997,-28.3203125,-31.73828125,-56.640625,-41.9921875,-1.0,1.0,-1.0,0.0,8.m4v,3.0
2024-02-27 11:54:40.773705,1709031280.773705,-29.78515625,-59.5703125,-57.12890625,-46.875,-1.0,1.0,-1.0,0.0,8.m4v,3.0
2024-02-27 11:54:40.777611,1709031280.7776103,-33.69140625,-50.29296875,-19.04296875,-39.0625,-1.0,1.0,-1.0,0.0,8.m4v,3.0
2024-02-27 11:54:40.781516,1709031280.7815163,-49.8046875,-17.08984375,-17.578125,-42.48046875,-1.0,1.0,-1.0,0.0,8.m4v,3.0
2024-02-27 11:54:40.785422,1709031280.7854218,-60.05859375,-22.94921875,-26.3671875,-56.15234375,-1.0,1.0,-1.0,0.0,8.m4v,3.0
2024-02-27 11:54:40.789328,1709031280.7893276,-44.921875,-19.04296875,-22.4609375,-44.921875,-1.0,1.0,-1.0,0.0,8.m4v,3.0
2024-02-27 11:54:40.793233,1709031280.7932332,-39.0625,-19.53125,-27.34375,-38.0859375,-1.0,1.0,-1.0,0.0,8.m4v,3.0
2024-02-27 11:54:40.797139,1709031280.7971387,-48.33984375,-31.25,-29.296875,-34.66796875,-1.0,1.0,-1.0,0.0,8.m4v,3.0
2024-02-27 11:54:40.801044,1709031280.8010445,-44.43359375,-36.1328125,-36.1328125,-32.71484375,-1.0,1.0,-1.0,0.0,8.m4v,3.0
2024-02-27 11:54:40.804950,1709031280.80495,-21.484375,-24.4140625,-44.43359375,-29.78515625,-1.0,1.0,-1.0,0.0,8.m4v,3.0
2024-02-27 11:54:40.808859,1709031280.808859,-26.85546875,-16.6015625,-38.0859375,-30.76171875,-1.0,1.0,-1.0,0.0,8.m4v,3.0
2024-02-27 11:54:40.812765,1709031280.812765,-54.6875,-32.71484375,-42.96875,-45.41015625,-1.0,1.0,-1.0,0.0,8.m4v,3.0
2024-02-27 11:54:40.816670,1709031280.8166704,-57.6171875,-35.15625,-43.45703125,-40.52734375,-1.0,1.0,-1.0,0.0,8.m4v,3.0
2024-02-27 11:54:40.820576,1709031280.8205762,-37.109375,-19.53125,-26.3671875,-21.97265625,-1.0,1.0,-1.0,0.0,8.m4v,3.0
2024-02-27 11:54:40.824482,1709031280.8244815,-29.78515625,-25.87890625,-24.90234375,-37.59765625,-1.0,1.0,-1.0,0.0,8.m4v,3.0
2024-02-27 11:54:40.828387,1709031280.8283873,-40.0390625,-17.578125,-38.0859375,-51.7578125,-1.0,1.0,-1.0,0.0,8.m4v,3.0
2024-02-27 11:54:40.832293,1709031280.832293,-48.33984375,-17.08984375,-40.0390625,-34.1796875,-1.0,1.0,-1.0,0.0,8.m4v,3.0
2024-02-27 11:54:40.836199,1709031280.8361986,-46.875,-57.12890625,-25.87890625,-30.2734375,-1.0,1.0,-1.0,0.0,8.m4v,3.0
2024-02-27 11:54:40.840104,1709031280.840104,-36.62109375,-60.05859375,-17.578125,-32.71484375,-1.0,1.0,-1.0,0.0,8.m4v,3.0
2024-02-27 11:54:40.844010,1709031280.84401,-40.0390625,-31.73828125,-43.9453125,-48.33984375,-1.0,1.0,-1.0,0.0,8.m4v,3.0
2024-02-27 11:54:40.847915,1709031280.8479154,-44.921875,-29.296875,-52.734375,-54.6875,-1.0,1.0,-1.0,0.0,8.m4v,3.0
2024-02-27 11:54:40.851821,1709031280.8518212,-53.22265625,-49.8046875,-33.203125,-34.1796875,-1.0,1.0,-1.0,0.0,8.m4v,3.0
2024-02-27 11:54:40.855732,1709031280.8557315,-47.36328125,-47.36328125,-19.53125,-22.94921875,-1.0,1.0,-1.0,0.0,8.m4v,3.0
2024-02-27 11:54:40.859637,1709031280.8596373,-33.69140625,-23.92578125,-26.85546875,-29.296875,-1.0,1.0,-1.0,0.0,8.m4v,3.0
2024-02-27 11:54:40.863543,1709031280.863543,-32.2265625,-13.18359375,-33.69140625,-42.48046875,-1.0,1.0,-1.0,0.0,8.m4v,3.0
2024-02-27 11:54:40.867449,1709031280.8674486,-39.0625,-29.78515625,-41.015625,-61.03515625,-1.0,1.0,-1.0,0.0,8.m4v,3.0
2024-02-27 11:54:40.871354,1709031280.871354,-38.0859375,-43.9453125,-26.85546875,-58.10546875,-1.0,1.0,-1.0,0.0,8.m4v,3.0
2024-02-27 11:54:40.871354,1709031280.871354,-38.0859375,-43.9453125,-26.85546875,-58.10546875,-1.0,1.0,-1.0,0.0,8.m4v,3.0
2024-02-27 11:54:40.875260,1709031280.87526,-41.9921875,-23.4375,-10.25390625,-36.62109375,-1.0,1.0,-1.0,0.0,8.m4v,3.0
2024-02-27 11:54:40.875260,1709031280.87526,-41.9921875,-23.4375,-10.25390625,-36.62109375,-1.0,1.0,-1.0,0.0,8.m4v,3.0
2024-02-27 11:54:40.879165,1709031280.8791654,-45.8984375,-20.5078125,-29.78515625,-32.2265625,-1.0,1.0,-1.0,0.0,8.m4v,3.0
2024-02-27 11:54:40.879165,1709031280.8791654,-45.8984375,-20.5078125,-29.78515625,-32.2265625,-1.0,1.0,-1.0,0.0,8.m4v,3.0
2024-02-27 11:54:40.883071,1709031280.883071,-47.36328125,-51.7578125,-37.59765625,-43.9453125,-1.0,1.0,-1.0,0.0,8.m4v,3.0
2024-02-27 11:54:40.883071,1709031280.883071,-47.36328125,-51.7578125,-37.59765625,-43.9453125,-1.0,1.0,-1.0,0.0,8.m4v,3.0
2024-02-27 11:54:40.886977,1709031280.8869767,-56.640625,-44.921875,-39.55078125,-53.7109375,-1.0,1.0,-1.0,0.0,8.m4v,3.0
2024-02-27 11:54:40.886977,1709031280.8869767,-56.640625,-44.921875,-39.55078125,-53.7109375,-1.0,1.0,-1.0,0.0,8.m4v,3.0
2024-02-27 11:54:40.890882,1709031280.8908825,-51.7578125,-31.73828125,-36.62109375,-47.8515625,-1.0,1.0,-1.0,0.0,8.m4v,3.0
2024-02-27 11:54:40.890882,1709031280.8908825,-51.7578125,-31.73828125,-36.62109375,-47.8515625,-1.0,1.0,-1.0,0.0,8.m4v,3.0
2024-02-27 11:54:40.894788,1709031280.894788,-51.26953125,-35.15625,-36.1328125,-45.41015625,-1.0,1.0,-1.0,0.0,8.m4v,3.0
2024-02-27 11:54:40.894788,1709031280.894788,-51.26953125,-35.15625,-36.1328125,-45.41015625,-1.0,1.0,-1.0,0.0,8.m4v,3.0
2024-02-27 11:54:40.898694,1709031280.8986936,-52.734375,-28.3203125,-40.0390625,-38.0859375,-1.0,1.0,-1.0,0.0,8.m4v,3.0
2024-02-27 11:54:40.898694,1709031280.8986936,-52.734375,-28.3203125,-40.0390625,-38.0859375,-1.0,1.0,-1.0,0.0,8.m4v,3.0
2024-02-27 11:54:41.484596,1709031281.4845958,-25.87890625,-30.76171875,-56.640625,-35.15625,-1.0,1.0,-1.0,0.0,8.m4v,3.0
2024-02-27 11:54:41.488501,1709031281.4885013,-37.59765625,-29.296875,-55.6640625,-40.52734375,-1.0,1.0,-1.0,0.0,8.m4v,3.0
2024-02-27 11:54:41.492407,1709031281.492407,-43.9453125,-48.828125,-35.64453125,-42.96875,-1.0,1.0,-1.0,0.0,8.m4v,3.0
2024-02-27 11:54:41.496313,1709031281.4963126,-47.8515625,-62.98828125,-26.3671875,-32.71484375,-1.0,1.0,-1.0,0.0,8.m4v,3.0
2024-02-27 11:54:41.500218,1709031281.5002184,-56.15234375,-47.8515625,-15.625,-33.203125,-1.0,1.0,-1.0,0.0,8.m4v,3.0
2024-02-27 11:54:41.504124,1709031281.504124,-61.5234375,-26.85546875,-12.20703125,-39.0625,-1.0,1.0,-1.0,0.0,8.m4v,3.0
2024-02-27 11:54:41.508029,1709031281.5080297,-62.98828125,-37.109375,-25.390625,-41.9921875,-1.0,1.0,-1.0,0.0,8.m4v,3.0
2024-02-27 11:54:41.511939,1709031281.511939,-69.82421875,-52.734375,-39.0625,-42.48046875,-1.0,1.0,-1.0,0.0,8.m4v,3.0
2024-02-27 11:54:41.515845,1709031281.5158446,-73.73046875,-45.8984375,-55.17578125,-35.64453125,-1.0,1.0,-1.0,0.0,8.m4v,3.0
2024-02-27 11:54:41.519750,1709031281.5197504,-58.59375,-33.69140625,-42.96875,-24.4140625,-1.0,1.0,-1.0,0.0,8.m4v,3.0
2024-02-27 11:54:41.523656,1709031281.523656,-43.9453125,-22.4609375,-15.625,-21.97265625,-1.0,1.0,-1.0,0.0,8.m4v,3.0
2024-02-27 11:54:41.527561,1709031281.5275614,-41.50390625,-21.97265625,-25.87890625,-31.73828125,-1.0,1.0,-1.0,0.0,8.m4v,3.0
2024-02-27 11:54:41.531467,1709031281.5314672,-46.875,-20.01953125,-44.921875,-38.0859375,-1.0,1.0,-1.0,0.0,8.m4v,3.0
2024-02-27 11:54:41.535373,1709031281.5353727,-56.15234375,-26.85546875,-37.59765625,-29.78515625,-1.0,1.0,-1.0,0.0,8.m4v,3.0
2024-02-27 11:54:41.539278,1709031281.5392785,-52.734375,-39.0625,-28.3203125,-31.73828125,-1.0,1.0,-1.0,0.0,8.m4v,3.0
2024-02-27 11:54:41.543184,1709031281.543184,-41.015625,-39.55078125,-39.0625,-40.0390625,-1.0,1.0,-1.0,0.0,8.m4v,3.0
2024-02-27 11:54:41.547090,1709031281.5470896,-36.1328125,-38.0859375,-51.26953125,-39.0625,-1.0,1.0,-1.0,0.0,8.m4v,3.0
2024-02-27 11:54:41.550995,1709031281.550995,-36.62109375,-30.76171875,-42.48046875,-38.0859375,-1.0,1.0,-1.0,0.0,8.m4v,3.0
2024-02-27 11:54:41.554901,1709031281.554901,-36.1328125,-35.15625,-22.94921875,-35.64453125,-1.0,1.0,-1.0,0.0,8.m4v,3.0
2024-02-27 11:54:41.558812,1709031281.5588117,-28.3203125,-39.0625,-15.13671875,-32.2265625,-1.0,1.0,-1.0,0.0,8.m4v,3.0
2024-02-27 11:54:41.562717,1709031281.5627172,-24.90234375,-49.8046875,-34.66796875,-37.109375,-1.0,1.0,-1.0,0.0,8.m4v,3.0
2024-02-27 11:54:41.566623,1709031281.566623,-21.484375,-50.29296875,-36.1328125,-40.0390625,-1.0,1.0,-1.0,0.0,8.m4v,3.0
2024-02-27 11:54:41.570529,1709031281.5705285,-31.73828125,-41.015625,-38.57421875,-48.828125,-1.0,1.0,-1.0,0.0,8.m4v,3.0
2024-02-27 11:54:41.574434,1709031281.5744345,-32.2265625,-23.92578125,-50.29296875,-38.57421875,-1.0,1.0,-1.0,0.0,8.m4v,3.0
2024-02-27 11:54:41.578340,1709031281.5783398,-13.18359375,-3.41796875,-48.33984375,-6.8359375,-1.0,1.0,-1.0,0.0,8.m4v,3.0
2024-02-27 11:54:41.582245,1709031281.582245,-13.18359375,-22.94921875,-30.2734375,-8.7890625,-1.0,1.0,-1.0,0.0,8.m4v,3.0
2024-02-27 11:54:41.586151,1709031281.5861511,-19.53125,-43.45703125,-16.6015625,-38.0859375,-1.0,1.0,-1.0,0.0,8.m4v,3.0
2024-02-27 11:54:41.590057,1709031281.590057,-16.6015625,-33.203125,-16.6015625,-42.96875,-1.0,1.0,-1.0,0.0,8.m4v,3.0
2024-02-27 11:54:41.593962,1709031281.5939622,-16.11328125,-33.203125,-4.8828125,-18.06640625,-1.0,1.0,-1.0,0.0,8.m4v,3.0
2024-02-27 11:54:41.597868,1709031281.597868,-20.01953125,-34.66796875,-20.01953125,-10.25390625,-1.0,1.0,-1.0,0.0,8.m4v,3.0
2024-02-27 11:54:41.601774,1709031281.6017735,-27.34375,-29.296875,-42.96875,-26.85546875,-1.0,1.0,-1.0,0.0,8.m4v,3.0
2024-02-27 11:54:41.605684,1709031281.605684,-36.62109375,-30.76171875,-46.875,-37.109375,-1.0,1.0,-1.0,0.0,8.m4v,3.0
2024-02-27 11:54:41.609590,1709031281.6095898,-46.875,-35.15625,-49.31640625,-44.43359375,-1.0,1.0,-1.0,0.0,8.m4v,3.0
2024-02-27 11:54:41.613495,1709031281.613495,-49.8046875,-35.64453125,-41.015625,-33.69140625,-1.0,1.0,-1.0,0.0,8.m4v,3.0
2024-02-27 11:54:41.617401,1709031281.6174011,-41.015625,-27.34375,-45.8984375,-14.6484375,-1.0,1.0,-1.0,0.0,8.m4v,3.0
2024-02-27 11:54:41.621307,1709031281.621307,-27.83203125,-21.484375,-43.45703125,-18.06640625,-1.0,1.0,-1.0,0.0,8.m4v,3.0
2024-02-27 11:54:41.625212,1709031281.6252122,-28.80859375,-19.04296875,-21.484375,-40.52734375,-1.0,1.0,-1.0,0.0,8.m4v,3.0
2024-02-27 11:54:41.629118,1709031281.629118,-38.0859375,-11.71875,-3.41796875,-36.1328125,-1.0,1.0,-1.0,0.0,8.m4v,3.0
2024-02-27 11:54:41.633024,1709031281.6330235,-56.640625,-33.203125,-17.578125,-30.2734375,-1.0,1.0,-1.0,0.0,8.m4v,3.0
2024-02-27 11:54:41.636929,1709031281.636929,-62.01171875,-69.82421875,-38.57421875,-41.50390625,-1.0,1.0,-1.0,0.0,8.m4v,3.0
2024-02-27 11:54:41.640835,1709031281.6408348,-44.43359375,-73.2421875,-42.48046875,-38.57421875,-1.0,1.0,-1.0,0.0,8.m4v,3.0
2024-02-27 11:54:41.644740,1709031281.6447403,-28.3203125,-41.50390625,-52.734375,-34.66796875,-1.0,1.0,-1.0,0.0,8.m4v,3.0
2024-02-27 11:54:41.648646,1709031281.648646,-19.53125,-21.97265625,-61.03515625,-39.0625,-1.0,1.0,-1.0,0.0,8.m4v,3.0
2024-02-27 11:54:41.652556,1709031281.6525564,-22.4609375,-20.99609375,-42.96875,-41.9921875,-1.0,1.0,-1.0,0.0,8.m4v,3.0
2024-02-27 11:54:41.656462,1709031281.6564622,-25.87890625,-20.5078125,-25.390625,-33.203125,-1.0,1.0,-1.0,0.0,8.m4v,3.0
2024-02-27 11:54:41.660368,1709031281.6603675,-20.99609375,-23.4375,-25.390625,-26.3671875,-1.0,1.0,-1.0,0.0,8.m4v,3.0
2024-02-27 11:54:41.664273,1709031281.6642733,-7.32421875,-12.20703125,-19.53125,-34.66796875,-1.0,1.0,-1.0,0.0,8.m4v,3.0
2024-02-27 11:54:41.668179,1709031281.668179,-6.8359375,-9.765625,-24.90234375,-56.15234375,-1.0,1.0,-1.0,0.0,8.m4v,3.0
2024-02-27 11:54:41.672085,1709031281.6720846,-22.94921875,-14.6484375,-44.43359375,-60.546875,-1.0,1.0,-1.0,0.0,8.m4v,3.0
2024-02-27 11:54:41.703334,1709031281.703334,-54.19921875,-45.8984375,-53.22265625,-31.73828125,-1.0,1.0,-1.0,0.0,8.m4v,3.0
2024-02-27 11:54:41.707240,1709031281.70724,-54.19921875,-46.875,-59.08203125,-47.8515625,-1.0,1.0,-1.0,0.0,8.m4v,3.0
2024-02-27 11:54:41.711145,1709031281.7111454,-49.8046875,-42.96875,-37.59765625,-47.36328125,-1.0,1.0,-1.0,0.0,8.m4v,3.0
2024-02-27 11:54:41.715051,1709031281.715051,-55.17578125,-20.99609375,-38.0859375,-28.80859375,-1.0,1.0,-1.0,0.0,8.m4v,3.0
2024-02-27 11:54:41.718957,1709031281.7189567,-53.7109375,3.41796875,-40.52734375,-14.6484375,-1.0,1.0,-1.0,0.0,8.m4v,3.0
2024-02-27 11:54:41.722862,1709031281.7228622,-45.8984375,-19.04296875,-20.99609375,-27.83203125,-1.0,1.0,-1.0,0.0,8.m4v,3.0
2024-02-27 11:54:41.726768,1709031281.726768,-56.640625,-46.38671875,-29.296875,-49.31640625,-1.0,1.0,-1.0,0.0,8.m4v,3.0
2024-02-27 11:54:41.730674,1709031281.7306736,-57.12890625,-42.48046875,-37.109375,-53.7109375,-1.0,1.0,-1.0,0.0,8.m4v,3.0
2024-02-27 11:54:41.734579,1709031281.734579,-42.48046875,-42.48046875,-40.0390625,-52.734375,-1.0,1.0,-1.0,0.0,8.m4v,3.0
2024-02-27 11:54:41.738485,1709031281.7384849,-39.0625,-38.0859375,-41.9921875,-45.8984375,-1.0,1.0,-1.0,0.0,8.m4v,3.0
2024-02-27 11:54:41.742390,1709031281.7423904,-33.203125,-25.87890625,-30.2734375,-38.57421875,-1.0,1.0,-1.0,0.0,8.m4v,3.0
2024-02-27 11:54:41.746300,1709031281.7463005,-18.06640625,-14.16015625,-30.76171875,-35.15625,-1.0,1.0,-1.0,0.0,8.m4v,3.0
2024-02-27 11:54:41.750206,1709031281.7502062,-28.80859375,-5.859375,-36.62109375,-32.71484375,-1.0,1.0,-1.0,0.0,8.m4v,3.0
2024-02-27 11:54:41.754112,1709031281.7541118,-35.64453125,-10.25390625,-36.62109375,-16.11328125,-1.0,1.0,-1.0,0.0,8.m4v,3.0
2024-02-27 11:54:41.758017,1709031281.7580173,-28.80859375,-19.04296875,-25.390625,1.953125,-1.0,1.0,-1.0,0.0,8.m4v,3.0
2024-02-27 11:54:41.851761,1709031281.8517606,-47.36328125,-35.15625,-26.85546875,-46.875,-1.0,1.0,-1.0,0.0,8.m4v,3.0
2024-02-27 11:54:41.855666,1709031281.8556664,-36.62109375,-37.59765625,-24.90234375,-29.296875,-1.0,1.0,-1.0,0.0,8.m4v,3.0
2024-02-27 11:54:41.859572,1709031281.859572,-16.11328125,-14.16015625,-21.97265625,-12.6953125,-1.0,1.0,-1.0,0.0,8.m4v,3.0
2024-02-27 11:54:41.863477,1709031281.8634777,-13.18359375,-1.46484375,-23.4375,-19.04296875,-1.0,1.0,-1.0,0.0,8.m4v,3.0
2024-02-27 11:54:41.867383,1709031281.8673832,-20.5078125,-36.62109375,-27.34375,-39.55078125,-1.0,1.0,-1.0,0.0,8.m4v,3.0
2024-02-27 11:54:41.871289,1709031281.8712888,-28.3203125,-60.546875,-19.53125,-45.41015625,-1.0,1.0,-1.0,0.0,8.m4v,3.0
2024-02-27 11:54:41.875194,1709031281.8751943,-50.29296875,-41.015625,-15.13671875,-32.71484375,-1.0,1.0,-1.0,0.0,8.m4v,3.0
2024-02-27 11:54:41.879100,1709031281.8791,-60.546875,-23.4375,-28.80859375,-29.296875,-1.0,1.0,-1.0,0.0,8.m4v,3.0
2024-02-27 11:54:41.883006,1709031281.8830056,-45.8984375,-25.390625,-20.01953125,-33.203125,-1.0,1.0,-1.0,0.0,8.m4v,3.0
2024-02-27 11:54:41.886915,1709031281.8869152,-37.109375,-27.34375,-16.11328125,-35.15625,-1.0,1.0,-1.0,0.0,8.m4v,3.0
2024-02-27 11:54:41.890821,1709031281.8908207,-40.0390625,-33.69140625,-29.78515625,-31.73828125,-1.0,1.0,-1.0,0.0,8.m4v,3.0
2024-02-27 11:54:41.894727,1709031281.8947265,-39.55078125,-26.3671875,-25.87890625,-18.06640625,-1.0,1.0,-1.0,0.0,8.m4v,3.0
2024-02-27 11:54:41.898632,1709031281.898632,-38.0859375,-19.04296875,-22.94921875,-10.25390625,-1.0,1.0,-1.0,0.0,8.m4v,3.0
2024-02-27 11:54:41.902538,1709031281.9025376,-40.0390625,-27.83203125,-51.26953125,-21.484375,-1.0,1.0,-1.0,0.0,8.m4v,3.0
2024-02-27 11:54:41.906443,1709031281.9064434,-44.43359375,-22.94921875,-62.5,-33.69140625,-1.0,1.0,-1.0,0.0,8.m4v,3.0
2024-02-27 11:54:41.910349,1709031281.910349,-45.41015625,-21.97265625,-39.55078125,-39.0625,-1.0,1.0,-1.0,0.0,8.m4v,3.0
2024-02-27 11:54:41.914254,1709031281.9142544,-46.38671875,-47.36328125,-22.94921875,-33.69140625,-1.0,1.0,-1.0,0.0,8.m4v,3.0
2024-02-27 11:54:41.918160,1709031281.9181602,-42.96875,-62.5,-15.13671875,-24.4140625,-1.0,1.0,-1.0,0.0,8.m4v,3.0
2024-02-27 11:54:41.922066,1709031281.9220655,-45.8984375,-39.0625,-17.578125,-34.1796875,-1.0,1.0,-1.0,0.0,8.m4v,3.0
2024-02-27 11:54:41.925971,1709031281.9259713,-40.52734375,-13.671875,-10.25390625,-41.015625,-1.0,1.0,-1.0,0.0,8.m4v,3.0
2024-02-27 11:54:41.929877,1709031281.929877,-32.71484375,-20.99609375,-12.6953125,-43.45703125,-1.0,1.0,-1.0,0.0,8.m4v,3.0
2024-02-27 11:54:41.933786,1709031281.9337864,-38.0859375,-26.85546875,-48.828125,-41.9921875,-1.0,1.0,-1.0,0.0,8.m4v,3.0
2024-02-27 11:54:41.937692,1709031281.937692,-27.34375,-17.08984375,-55.6640625,-29.296875,-1.0,1.0,-1.0,0.0,8.m4v,3.0
2024-02-27 11:54:41.941597,1709031281.9415977,-20.01953125,-22.4609375,-48.828125,-27.34375,-1.0,1.0,-1.0,0.0,8.m4v,3.0
2024-02-27 11:54:41.945503,1709031281.9455032,-11.71875,-26.3671875,-44.921875,-39.0625,-1.0,1.0,-1.0,0.0,8.m4v,3.0
2024-02-27 11:54:41.949409,1709031281.9494088,-9.27734375,-32.71484375,-29.78515625,-50.29296875,-1.0,1.0,-1.0,0.0,8.m4v,3.0
2024-02-27 11:54:41.953315,1709031281.9533143,-32.2265625,-34.1796875,-30.2734375,-47.36328125,-1.0,1.0,-1.0,0.0,8.m4v,3.0
2024-02-27 11:54:41.957220,1709031281.95722,-40.52734375,-35.64453125,-29.78515625,-28.3203125,-1.0,1.0,-1.0,0.0,8.m4v,3.0
2024-02-27 11:54:41.961126,1709031281.9611256,-32.71484375,-37.59765625,-43.45703125,-29.296875,-1.0,1.0,-1.0,0.0,8.m4v,3.0
2024-02-27 11:54:41.965031,1709031281.9650314,-39.0625,-30.76171875,-49.31640625,-53.22265625,-1.0,1.0,-1.0,0.0,8.m4v,3.0
2024-02-27 11:54:41.968937,1709031281.968937,-46.38671875,-32.2265625,-44.43359375,-58.59375,-1.0,1.0,-1.0,0.0,8.m4v,3.0
2024-02-27 11:54:41.972842,1709031281.9728425,-36.1328125,-46.875,-39.55078125,-43.9453125,-1.0,1.0,-1.0,0.0,8.m4v,3.0
2024-02-27 11:54:41.976748,1709031281.9767482,-30.76171875,-37.59765625,-31.25,-23.4375,-1.0,1.0,-1.0,0.0,8.m4v,3.0
2024-02-27 11:54:41.980660,1709031281.9806604,-34.1796875,-30.2734375,-35.64453125,-20.99609375,-1.0,1.0,-1.0,0.0,8.m4v,3.0
2024-02-27 11:54:41.984566,1709031281.984566,-34.66796875,-38.0859375,-31.73828125,-31.73828125,-1.0,1.0,-1.0,0.0,8.m4v,3.0
2024-02-27 11:54:41.988472,1709031281.9884715,-28.3203125,-41.015625,-27.34375,-21.484375,-1.0,1.0,-1.0,0.0,8.m4v,3.0
2024-02-27 11:54:41.992377,1709031281.9923773,-20.01953125,-56.15234375,-43.45703125,-13.18359375,-1.0,1.0,-1.0,0.0,8.m4v,3.0
2024-02-27 11:54:41.996283,1709031281.9962828,-16.6015625,-52.24609375,-30.76171875,-9.765625,-1.0,1.0,-1.0,0.0,8.m4v,3.0
2024-02-27 11:54:42.000188,1709031282.0001884,-15.625,-25.390625,-8.7890625,-15.13671875,-1.0,1.0,-1.0,0.0,8.m4v,3.0
2024-02-27 11:54:42.004094,1709031282.004094,-21.97265625,-37.109375,-28.80859375,-42.48046875,-1.0,1.0,-1.0,0.0,8.m4v,3.0
2024-02-27 11:54:42.008000,1709031282.0079997,-30.2734375,-52.24609375,-49.31640625,-56.15234375,-1.0,1.0,-1.0,0.0,8.m4v,3.0
2024-02-27 11:54:42.011905,1709031282.0119052,-30.76171875,-43.45703125,-33.203125,-42.96875,-1.0,1.0,-1.0,0.0,8.m4v,3.0
2024-02-27 11:54:42.015811,1709031282.015811,-28.3203125,-39.0625,-18.06640625,-19.53125,-1.0,1.0,-1.0,0.0,8.m4v,3.0
2024-02-27 11:54:42.019717,1709031282.0197165,-24.4140625,-45.41015625,-34.1796875,-8.7890625,-1.0,1.0,-1.0,0.0,8.m4v,3.0
2024-02-27 11:54:42.023622,1709031282.0236225,-26.3671875,-64.453125,-47.36328125,-16.6015625,-1.0,1.0,-1.0,0.0,8.m4v,3.0
2024-02-27 11:54:42.027533,1709031282.0275326,-24.90234375,-49.31640625,-30.2734375,-27.34375,-1.0,1.0,-1.0,0.0,8.m4v,3.0
2024-02-27 11:54:42.031438,1709031282.0314384,-18.5546875,-35.15625,-25.87890625,-35.64453125,-1.0,1.0,-1.0,0.0,8.m4v,3.0
2024-02-27 11:54:42.039249,1709031282.0392494,-13.671875,-28.80859375,-22.94921875,-17.08984375,-1.0,1.0,-1.0,0.0,8.m4v,3.0
2024-02-27 11:54:42.043155,1709031282.0431552,-7.8125,-23.4375,-20.5078125,-20.99609375,-1.0,1.0,-1.0,0.0,8.m4v,3.0
2024-02-27 11:54:42.050966,1709031282.0509665,-20.99609375,-30.76171875,-35.15625,-34.66796875,-1.0,1.0,-1.0,0.0,8.m4v,3.0
2024-02-27 11:54:42.058778,1709031282.0587776,-41.015625,-36.62109375,-45.41015625,-24.90234375,-1.0,1.0,-1.0,0.0,8.m4v,3.0
2024-02-27 11:54:42.062683,1709031282.062683,-39.0625,-43.9453125,-22.94921875,-29.296875,-1.0,1.0,-1.0,0.0,8.m4v,3.0
2024-02-27 11:54:42.070494,1709031282.0704944,-36.1328125,-35.64453125,-34.66796875,-51.26953125,-1.0,1.0,-1.0,0.0,8.m4v,3.0
2024-02-27 11:54:42.074405,1709031282.0744047,-23.92578125,-34.1796875,-28.3203125,-36.62109375,-1.0,1.0,-1.0,0.0,8.m4v,3.0
2024-02-27 11:54:42.078310,1709031282.0783105,-32.2265625,-41.50390625,-47.8515625,-29.296875,-1.0,1.0,-1.0,0.0,8.m4v,3.0
2024-02-27 11:54:42.082216,1709031282.082216,-25.87890625,-30.76171875,-60.05859375,-34.66796875,-1.0,1.0,-1.0,0.0,8.m4v,3.0
2024-02-27 11:54:42.086122,1709031282.0861216,-20.99609375,-29.78515625,-30.76171875,-44.921875,-1.0,1.0,-1.0,0.0,8.m4v,3.0
2024-02-27 11:54:42.090027,1709031282.090027,-36.62109375,-35.64453125,-20.5078125,-43.45703125,-1.0,1.0,-1.0,0.0,8.m4v,3.0
2024-02-27 11:54:42.093933,1709031282.0939329,-32.2265625,-10.7421875,-19.53125,-20.99609375,-1.0,1.0,-1.0,0.0,8.m4v,3.0
2024-02-27 11:54:42.097838,1709031282.0978384,-21.484375,-18.06640625,-26.85546875,-8.30078125,-1.0,1.0,-1.0,0.0,8.m4v,3.0
2024-02-27 11:54:42.109555,1709031282.1095552,-36.62109375,-45.41015625,-31.25,-40.0390625,-1.0,1.0,-1.0,0.0,8.m4v,3.0
2024-02-27 11:54:42.117367,1709031282.1173666,-21.97265625,-14.6484375,-34.1796875,5.37109375,-1.0,1.0,-1.0,0.0,8.m4v,3.0
2024-02-27 11:54:42.125182,1709031282.1251824,-26.85546875,-32.2265625,-35.15625,-38.0859375,-1.0,1.0,-1.0,0.0,8.m4v,3.0
2024-02-27 11:54:42.132993,1709031282.1329937,-10.25390625,-32.2265625,-15.625,-21.484375,-1.0,1.0,-1.0,0.0,8.m4v,3.0
2024-02-27 11:54:42.140805,1709031282.1408048,-20.01953125,-8.7890625,-27.83203125,-11.71875,-1.0,1.0,-1.0,0.0,8.m4v,3.0
2024-02-27 11:54:42.543123,1709031282.543123,-24.4140625,-38.0859375,-36.1328125,-34.1796875,-1.0,1.0,-1.0,0.0,8.m4v,3.0
2024-02-27 11:54:42.547029,1709031282.5470283,-34.1796875,-48.828125,-32.71484375,-40.52734375,-1.0,1.0,-1.0,0.0,8.m4v,3.0
2024-02-27 11:54:42.550934,1709031282.550934,-35.64453125,-43.9453125,-42.48046875,-32.71484375,-1.0,1.0,-1.0,0.0,8.m4v,3.0
2024-02-27 11:54:42.554840,1709031282.5548398,-42.96875,-34.1796875,-56.640625,-27.34375,-1.0,1.0,-1.0,0.0,8.m4v,3.0
2024-02-27 11:54:42.558745,1709031282.5587454,-46.38671875,-20.01953125,-45.8984375,-28.3203125,-1.0,1.0,-1.0,0.0,8.m4v,3.0
2024-02-27 11:54:42.562651,1709031282.5626512,-42.48046875,-20.5078125,-25.87890625,-33.69140625,-1.0,1.0,-1.0,0.0,8.m4v,3.0
2024-02-27 11:54:42.566557,1709031282.5665567,-28.3203125,-24.4140625,-16.11328125,-41.50390625,-1.0,1.0,-1.0,0.0,8.m4v,3.0
2024-02-27 11:54:42.570462,1709031282.5704622,-25.390625,-29.296875,-27.34375,-45.8984375,-1.0,1.0,-1.0,0.0,8.m4v,3.0
2024-02-27 11:54:42.574368,1709031282.574368,-41.50390625,-53.7109375,-46.38671875,-40.0390625,-1.0,1.0,-1.0,0.0,8.m4v,3.0
2024-02-27 11:54:42.578274,1709031282.5782735,-40.52734375,-53.22265625,-36.62109375,-26.85546875,-1.0,1.0,-1.0,0.0,8.m4v,3.0
2024-02-27 11:54:42.582179,1709031282.582179,-28.3203125,-47.36328125,-25.87890625,-31.25,-1.0,1.0,-1.0,0.0,8.m4v,3.0
2024-02-27 11:54:42.586085,1709031282.5860848,-32.71484375,-43.45703125,-40.0390625,-41.015625,-1.0,1.0,-1.0,0.0,8.m4v,3.0
2024-02-27 11:54:42.589996,1709031282.5899956,-37.109375,-19.04296875,-52.734375,-32.71484375,-1.0,1.0,-1.0,0.0,8.m4v,3.0
2024-02-27 11:54:42.593901,1709031282.5939012,-29.78515625,-20.99609375,-49.31640625,-27.34375,-1.0,1.0,-1.0,0.0,8.m4v,3.0
2024-02-27 11:54:42.597807,1709031282.597807,-19.53125,-36.62109375,-49.8046875,-21.97265625,-1.0,1.0,-1.0,0.0,8.m4v,3.0
2024-02-27 11:54:42.601712,1709031282.6017125,-16.11328125,-37.109375,-36.1328125,-21.484375,-1.0,1.0,-1.0,0.0,8.m4v,3.0
2024-02-27 11:54:42.605618,1709031282.605618,-27.34375,-34.1796875,-28.80859375,-37.59765625,-1.0,1.0,-1.0,0.0,8.m4v,3.0
2024-02-27 11:54:42.609524,1709031282.6095238,-33.69140625,-18.06640625,-26.85546875,-40.52734375,-1.0,1.0,-1.0,0.0,8.m4v,3.0
2024-02-27 11:54:42.613429,1709031282.6134293,-29.296875,-18.5546875,-35.15625,-23.4375,-1.0,1.0,-1.0,0.0,8.m4v,3.0
2024-02-27 11:54:42.617335,1709031282.6173348,-24.90234375,-21.97265625,-53.7109375,-16.11328125,-1.0,1.0,-1.0,0.0,8.m4v,3.0
2024-02-27 11:54:42.621241,1709031282.6212406,-24.4140625,-31.73828125,-50.78125,-19.53125,-1.0,1.0,-1.0,0.0,8.m4v,3.0
2024-02-27 11:54:42.625146,1709031282.6251462,-37.59765625,-40.0390625,-44.43359375,-33.203125,-1.0,1.0,-1.0,0.0,8.m4v,3.0
2024-02-27 11:54:42.629052,1709031282.6290517,-48.828125,-33.203125,-44.921875,-47.8515625,-1.0,1.0,-1.0,0.0,8.m4v,3.0
2024-02-27 11:54:42.632957,1709031282.6329577,-38.57421875,-38.0859375,-25.390625,-44.43359375,-1.0,1.0,-1.0,0.0,8.m4v,3.0
2024-02-27 11:54:42.636867,1709031282.6368668,-26.85546875,-29.296875,-7.8125,-28.3203125,-1.0,1.0,-1.0,0.0,8.m4v,3.0
2024-02-27 11:54:42.640773,1709031282.6407726,-30.2734375,-17.08984375,-22.4609375,-27.34375,-1.0,1.0,-1.0,0.0,8.m4v,3.0
2024-02-27 11:54:42.644678,1709031282.644678,-39.55078125,-29.296875,-37.109375,-42.48046875,-1.0,1.0,-1.0,0.0,8.m4v,3.0
2024-02-27 11:54:42.648584,1709031282.648584,-47.36328125,-32.71484375,-37.59765625,-51.7578125,-1.0,1.0,-1.0,0.0,8.m4v,3.0
2024-02-27 11:54:42.652489,1709031282.6524894,-57.6171875,-24.90234375,-42.96875,-45.41015625,-1.0,1.0,-1.0,0.0,8.m4v,3.0
2024-02-27 11:54:42.656395,1709031282.656395,-53.22265625,-29.78515625,-26.3671875,-32.2265625,-1.0,1.0,-1.0,0.0,8.m4v,3.0
2024-02-27 11:54:42.660301,1709031282.6603007,-38.57421875,-31.25,-34.66796875,-22.4609375,-1.0,1.0,-1.0,0.0,8.m4v,3.0
2024-02-27 11:54:42.664206,1709031282.6642065,-30.2734375,-44.921875,-44.921875,-30.76171875,-1.0,1.0,-1.0,0.0,8.m4v,3.0
2024-02-27 11:54:42.668112,1709031282.6681118,-32.71484375,-61.03515625,-24.90234375,-45.8984375,-1.0,1.0,-1.0,0.0,8.m4v,3.0
2024-02-27 11:54:42.672018,1709031282.6720176,-42.48046875,-41.50390625,-25.390625,-39.55078125,-1.0,1.0,-1.0,0.0,8.m4v,3.0
2024-02-27 11:54:42.675923,1709031282.675923,-25.87890625,-13.18359375,-13.671875,-19.53125,-1.0,1.0,-1.0,0.0,8.m4v,3.0
2024-02-27 11:54:43.058713,1709031283.058713,-34.1796875,-22.4609375,-33.203125,-22.94921875,-1.0,1.0,-1.0,0.0,8.m4v,3.0
2024-02-27 11:54:43.070430,1709031283.0704298,-14.6484375,-37.109375,-36.62109375,-43.45703125,-1.0,1.0,-1.0,0.0,8.m4v,3.0
2024-02-27 11:54:43.082147,1709031283.0821466,-44.43359375,-7.32421875,-18.5546875,-15.625,-1.0,1.0,-1.0,0.0,8.m4v,3.0
2024-02-27 11:54:43.093863,1709031283.0938635,-34.1796875,-20.5078125,-34.1796875,-7.32421875,-1.0,1.0,-1.0,0.0,8.m4v,3.0
2024-02-27 11:54:43.105585,1709031283.105585,-36.62109375,-26.3671875,-31.73828125,-23.92578125,-1.0,1.0,-1.0,0.0,8.m4v,3.0
2024-02-27 11:54:43.117302,1709031283.1173022,-39.0625,-49.31640625,-33.69140625,-19.53125,-1.0,1.0,-1.0,0.0,8.m4v,3.0
2024-02-27 11:54:43.199330,1709031283.19933,-26.85546875,-32.2265625,-29.296875,-19.53125,-1.0,1.0,-1.0,0.0,8.m4v,3.0
2024-02-27 11:54:43.211047,1709031283.2110467,-40.52734375,-43.9453125,-35.15625,-40.0390625,-1.0,1.0,-1.0,0.0,8.m4v,3.0
2024-02-27 11:54:43.222764,1709031283.2227635,-25.87890625,-41.9921875,-34.1796875,-29.296875,-1.0,1.0,-1.0,0.0,8.m4v,3.0
2024-02-27 11:54:43.234480,1709031283.2344804,-28.80859375,-57.12890625,-36.1328125,-35.64453125,-1.0,1.0,-1.0,0.0,8.m4v,3.0
2024-02-27 11:54:43.246202,1709031283.2462018,-49.31640625,-47.36328125,-30.76171875,-61.03515625,-1.0,1.0,-1.0,0.0,8.m4v,3.0
2024-02-27 11:54:43.257919,1709031283.2579186,-19.04296875,-17.08984375,-28.80859375,-25.87890625,-1.0,1.0,-1.0,0.0,8.m4v,3.0
2024-02-27 11:54:43.269635,1709031283.2696354,-31.73828125,-11.23046875,-29.78515625,-42.96875,-1.0,1.0,-1.0,0.0,8.m4v,3.0
2024-02-27 11:54:43.281352,1709031283.2813523,-19.04296875,-52.24609375,-47.36328125,-15.13671875,-1.0,1.0,-1.0,0.0,8.m4v,3.0
2024-02-27 11:54:43.296979,1709031283.2969792,-42.96875,-26.3671875,-30.2734375,-32.2265625,-1.0,1.0,-1.0,0.0,8.m4v,3.0
2024-02-27 11:54:43.308696,1709031283.308696,-56.15234375,-28.80859375,-41.50390625,-52.734375,-1.0,1.0,-1.0,0.0,8.m4v,3.0
2024-02-27 11:54:43.316507,1709031283.316507,-31.25,-23.92578125,-18.06640625,-22.4609375,-1.0,1.0,-1.0,0.0,8.m4v,3.0
2024-02-27 11:54:43.332130,1709031283.3321297,-30.2734375,-31.73828125,-36.1328125,-49.31640625,-1.0,1.0,-1.0,0.0,8.m4v,3.0
2024-02-27 11:54:43.347756,1709031283.3477564,-33.203125,-7.8125,-53.22265625,-52.734375,-1.0,1.0,-1.0,0.0,8.m4v,3.0
2024-02-27 11:54:43.363379,1709031283.3633788,-34.66796875,-32.71484375,-46.38671875,-25.390625,-1.0,1.0,-1.0,0.0,8.m4v,3.0
2024-02-27 11:54:43.379001,1709031283.3790014,-39.55078125,-46.38671875,-27.83203125,-30.2734375,-1.0,1.0,-1.0,0.0,8.m4v,3.0
2024-02-27 11:54:43.472744,1709031283.472744,-34.66796875,-40.52734375,-38.0859375,-11.23046875,-1.0,1.0,-1.0,0.0,8.m4v,3.0
2024-02-27 11:54:43.476650,1709031283.4766495,-32.71484375,-42.96875,-29.78515625,-4.8828125,-1.0,1.0,-1.0,0.0,8.m4v,3.0
2024-02-27 11:54:43.480561,1709031283.4805615,-30.76171875,-33.69140625,-37.59765625,-18.06640625,-1.0,1.0,-1.0,0.0,8.m4v,3.0
2024-02-27 11:54:43.484467,1709031283.484467,-31.73828125,-34.66796875,-53.7109375,-37.59765625,-1.0,1.0,-1.0,0.0,8.m4v,3.0
2024-02-27 11:54:43.488373,1709031283.4883728,-43.9453125,-29.296875,-43.9453125,-46.38671875,-1.0,1.0,-1.0,0.0,8.m4v,3.0
2024-02-27 11:54:43.492278,1709031283.4922783,-48.33984375,-19.04296875,-37.109375,-40.52734375,-1.0,1.0,-1.0,0.0,8.m4v,3.0
2024-02-27 11:54:43.496184,1709031283.496184,-41.015625,-8.7890625,-33.69140625,-30.2734375,-1.0,1.0,-1.0,0.0,8.m4v,3.0
2024-02-27 11:54:43.500090,1709031283.5000896,-38.57421875,-10.25390625,-25.390625,-36.62109375,-1.0,1.0,-1.0,0.0,8.m4v,3.0
2024-02-27 11:54:43.503995,1709031283.5039952,-29.296875,-30.2734375,-26.85546875,-52.24609375,-1.0,1.0,-1.0,0.0,8.m4v,3.0
2024-02-27 11:54:43.507901,1709031283.507901,-20.01953125,-35.15625,-39.55078125,-59.08203125,-1.0,1.0,-1.0,0.0,8.m4v,3.0
2024-02-27 11:54:43.511806,1709031283.5118065,-25.390625,-39.55078125,-39.0625,-59.08203125,-1.0,1.0,-1.0,0.0,8.m4v,3.0
2024-02-27 11:54:43.515712,1709031283.515712,-24.90234375,-30.76171875,-37.59765625,-46.875,-1.0,1.0,-1.0,0.0,8.m4v,3.0
2024-02-27 11:54:43.519618,1709031283.5196178,-38.57421875,-12.6953125,-44.43359375,-40.52734375,-1.0,1.0,-1.0,0.0,8.m4v,3.0
2024-02-27 11:54:43.523523,1709031283.523523,-61.03515625,-25.87890625,-56.15234375,-62.01171875,-1.0,1.0,-1.0,0.0,8.m4v,3.0
2024-02-27 11:54:43.527434,1709031283.527434,-63.4765625,-23.4375,-45.41015625,-67.87109375,-1.0,1.0,-1.0,0.0,8.m4v,3.0
2024-02-27 11:54:43.531339,1709031283.5313394,-59.5703125,-7.8125,-38.0859375,-51.26953125,-1.0,1.0,-1.0,0.0,8.m4v,3.0
2024-02-27 11:54:43.535245,1709031283.5352452,-44.921875,-15.625,-40.0390625,-36.1328125,-1.0,1.0,-1.0,0.0,8.m4v,3.0
2024-02-27 11:54:43.539151,1709031283.5391507,-23.92578125,-25.87890625,-27.83203125,-21.97265625,-1.0,1.0,-1.0,0.0,8.m4v,3.0
2024-02-27 11:54:43.543056,1709031283.5430562,-19.53125,-29.296875,-29.296875,-32.2265625,-1.0,1.0,-1.0,0.0,8.m4v,3.0
2024-02-27 11:54:43.546962,1709031283.546962,-28.80859375,-29.78515625,-41.015625,-58.59375,-1.0,1.0,-1.0,0.0,8.m4v,3.0
2024-02-27 11:54:43.550868,1709031283.5508676,-42.96875,-38.57421875,-26.3671875,-60.05859375,-1.0,1.0,-1.0,0.0,8.m4v,3.0
2024-02-27 11:54:43.554773,1709031283.554773,-51.7578125,-38.0859375,-13.18359375,-46.38671875,-1.0,1.0,-1.0,0.0,8.m4v,3.0
2024-02-27 11:54:43.558679,1709031283.5586789,-57.6171875,-35.15625,-29.78515625,-45.41015625,-1.0,1.0,-1.0,0.0,8.m4v,3.0
2024-02-27 11:54:43.562584,1709031283.5625844,-51.26953125,-36.62109375,-35.64453125,-45.8984375,-1.0,1.0,-1.0,0.0,8.m4v,3.0
2024-02-27 11:54:43.566490,1709031283.56649,-47.8515625,-26.85546875,-31.73828125,-44.43359375,-1.0,1.0,-1.0,0.0,8.m4v,3.0
2024-02-27 11:54:43.570396,1709031283.5703957,-46.875,-31.25,-44.43359375,-40.0390625,-1.0,1.0,-1.0,0.0,8.m4v,3.0
2024-02-27 11:54:43.574306,1709031283.574306,-30.76171875,-48.33984375,-46.875,-15.13671875,-1.0,1.0,-1.0,0.0,8.m4v,3.0
2024-02-27 11:54:43.578212,1709031283.5782115,-21.97265625,-62.5,-35.15625,4.39453125,-1.0,1.0,-1.0,0.0,8.m4v,3.0
2024-02-27 11:54:43.582117,1709031283.582117,-8.30078125,-47.8515625,-36.62109375,-10.7421875,-1.0,1.0,-1.0,0.0,8.m4v,3.0
2024-02-27 11:54:43.586023,1709031283.5860229,5.37109375,-16.6015625,-44.921875,-29.78515625,-1.0,1.0,-1.0,0.0,8.m4v,3.0
2024-02-27 11:54:43.589928,1709031283.5899284,-16.6015625,-5.859375,-41.015625,-37.59765625,-1.0,1.0,-1.0,0.0,8.m4v,3.0
2024-02-27 11:54:43.593834,1709031283.593834,-20.5078125,0.0,-33.69140625,-22.4609375,-1.0,1.0,-1.0,0.0,8.m4v,3.0
2024-02-27 11:54:43.597740,1709031283.5977397,-6.34765625,-12.6953125,-33.69140625,-6.8359375,-1.0,1.0,-1.0,0.0,8.m4v,3.0
2024-02-27 11:54:43.601645,1709031283.6016452,-5.37109375,-37.59765625,-55.17578125,-20.01953125,-1.0,1.0,-1.0,0.0,8.m4v,3.0
2024-02-27 11:54:43.605551,1709031283.605551,-10.25390625,-44.921875,-55.6640625,-35.64453125,-1.0,1.0,-1.0,0.0,8.m4v,3.0
2024-02-27 11:54:43.609457,1709031283.6094563,-36.62109375,-47.8515625,-34.1796875,-43.9453125,-1.0,1.0,-1.0,0.0,8.m4v,3.0
2024-02-27 11:54:43.613362,1709031283.613362,-46.875,-44.921875,-29.78515625,-31.25,-1.0,1.0,-1.0,0.0,8.m4v,3.0
2024-02-27 11:54:43.617268,1709031283.6172678,-35.64453125,-54.19921875,-28.3203125,-9.27734375,-1.0,1.0,-1.0,0.0,8.m4v,3.0
2024-02-27 11:54:43.621178,1709031283.621178,-29.78515625,-51.26953125,-36.62109375,-19.53125,-1.0,1.0,-1.0,0.0,8.m4v,3.0
2024-02-27 11:54:43.625083,1709031283.6250834,-38.57421875,-30.2734375,-57.6171875,-41.9921875,-1.0,1.0,-1.0,0.0,8.m4v,3.0
2024-02-27 11:54:43.730544,1709031283.730544,-20.01953125,-12.20703125,-47.36328125,-52.24609375,-1.0,1.0,-1.0,0.0,8.m4v,3.0
2024-02-27 11:54:43.734449,1709031283.7344494,-11.71875,-5.859375,-29.78515625,-24.90234375,-1.0,1.0,-1.0,0.0,8.m4v,3.0
2024-02-27 11:54:43.738355,1709031283.738355,-1.953125,-30.2734375,-37.59765625,-8.30078125,-1.0,1.0,-1.0,0.0,8.m4v,3.0
2024-02-27 11:54:43.742261,1709031283.7422607,-8.7890625,-55.17578125,-35.64453125,-28.3203125,-1.0,1.0,-1.0,0.0,8.m4v,3.0
2024-02-27 11:54:43.746166,1709031283.7461662,-25.390625,-51.26953125,-23.92578125,-50.78125,-1.0,1.0,-1.0,0.0,8.m4v,3.0
2024-02-27 11:54:43.750072,1709031283.7500718,-44.921875,-50.78125,-32.71484375,-53.7109375,-1.0,1.0,-1.0,0.0,8.m4v,3.0
2024-02-27 11:54:43.753978,1709031283.7539775,-46.38671875,-34.66796875,-39.55078125,-34.66796875,-1.0,1.0,-1.0,0.0,8.m4v,3.0
2024-02-27 11:54:43.757883,1709031283.757883,-34.66796875,-16.6015625,-29.78515625,-20.5078125,-1.0,1.0,-1.0,0.0,8.m4v,3.0
2024-02-27 11:54:43.761792,1709031283.7617924,-36.1328125,-26.3671875,-20.01953125,-23.92578125,-1.0,1.0,-1.0,0.0,8.m4v,3.0
2024-02-27 11:54:43.765698,1709031283.7656982,-43.9453125,-25.87890625,-22.94921875,-31.73828125,-1.0,1.0,-1.0,0.0,8.m4v,3.0
2024-02-27 11:54:43.769604,1709031283.7696035,-27.83203125,-4.39453125,-30.2734375,-20.5078125,-1.0,1.0,-1.0,0.0,8.m4v,3.0
2024-02-27 11:54:43.773509,1709031283.7735093,-27.83203125,-32.2265625,-47.8515625,-19.53125,-1.0,1.0,-1.0,0.0,8.m4v,3.0
2024-02-27 11:54:43.777415,1709031283.777415,-34.1796875,-51.7578125,-49.8046875,-20.5078125,-1.0,1.0,-1.0,0.0,8.m4v,3.0
2024-02-27 11:54:43.781321,1709031283.7813206,-28.3203125,-30.2734375,-30.2734375,-26.85546875,-1.0,1.0,-1.0,0.0,8.m4v,3.0
2024-02-27 11:54:43.785226,1709031283.7852263,-29.296875,-49.8046875,-29.296875,-46.875,-1.0,1.0,-1.0,0.0,8.m4v,3.0
2024-02-27 11:54:43.789132,1709031283.789132,-29.78515625,-73.73046875,-43.9453125,-47.8515625,-1.0,1.0,-1.0,0.0,8.m4v,3.0
2024-02-27 11:54:43.793037,1709031283.7930374,-32.71484375,-35.64453125,-35.15625,-38.57421875,-1.0,1.0,-1.0,0.0,8.m4v,3.0
2024-02-27 11:54:43.796943,1709031283.7969432,-30.2734375,-1.953125,-12.6953125,-28.80859375,-1.0,1.0,-1.0,0.0,8.m4v,3.0
2024-02-27 11:54:43.800849,1709031283.8008487,-34.66796875,-17.08984375,-20.5078125,-40.0390625,-1.0,1.0,-1.0,0.0,8.m4v,3.0
2024-02-27 11:54:43.804754,1709031283.8047545,-46.875,-32.2265625,-33.203125,-58.10546875,-1.0,1.0,-1.0,0.0,8.m4v,3.0
2024-02-27 11:54:43.808664,1709031283.8086636,-56.15234375,-39.55078125,-41.9921875,-61.5234375,-1.0,1.0,-1.0,0.0,8.m4v,3.0
2024-02-27 11:54:43.812569,1709031283.8125694,-51.26953125,-44.43359375,-44.921875,-51.7578125,-1.0,1.0,-1.0,0.0,8.m4v,3.0
2024-02-27 11:54:43.816475,1709031283.816475,-42.48046875,-42.96875,-25.390625,-37.109375,-1.0,1.0,-1.0,0.0,8.m4v,3.0
2024-02-27 11:54:43.820380,1709031283.8203804,-37.109375,-40.52734375,-4.39453125,-37.109375,-1.0,1.0,-1.0,0.0,8.m4v,3.0
2024-02-27 11:54:43.824286,1709031283.8242862,-39.0625,-27.34375,-4.39453125,-43.45703125,-1.0,1.0,-1.0,0.0,8.m4v,3.0
2024-02-27 11:54:43.828192,1709031283.8281918,-46.38671875,-19.53125,-25.87890625,-48.828125,-1.0,1.0,-1.0,0.0,8.m4v,3.0
2024-02-27 11:54:43.832098,1709031283.8320975,-42.48046875,-22.94921875,-34.1796875,-46.875,-1.0,1.0,-1.0,0.0,8.m4v,3.0
2024-02-27 11:54:43.836003,1709031283.836003,-33.203125,-26.85546875,-30.2734375,-30.76171875,-1.0,1.0,-1.0,0.0,8.m4v,3.0
2024-02-27 11:54:43.839909,1709031283.8399086,-34.1796875,-42.48046875,-37.109375,-21.484375,-1.0,1.0,-1.0,0.0,8.m4v,3.0
2024-02-27 11:54:43.843814,1709031283.8438144,-33.69140625,-49.31640625,-34.66796875,-32.2265625,-1.0,1.0,-1.0,0.0,8.m4v,3.0
2024-02-27 11:54:43.847720,1709031283.84772,-33.203125,-34.1796875,-29.78515625,-41.50390625,-1.0,1.0,-1.0,0.0,8.m4v,3.0
2024-02-27 11:54:43.851625,1709031283.8516254,-35.64453125,-31.73828125,-31.73828125,-32.71484375,-1.0,1.0,-1.0,0.0,8.m4v,3.0
2024-02-27 11:54:43.855536,1709031283.8555362,-29.78515625,-33.69140625,-33.203125,-17.08984375,-1.0,1.0,-1.0,0.0,8.m4v,3.0
2024-02-27 11:54:43.859442,1709031283.8594418,-28.80859375,-35.15625,-39.0625,-15.625,-1.0,1.0,-1.0,0.0,8.m4v,3.0
2024-02-27 11:54:43.863348,1709031283.8633475,-39.55078125,-44.43359375,-37.59765625,-32.71484375,-1.0,1.0,-1.0,0.0,8.m4v,3.0
2024-02-27 11:54:43.867253,1709031283.867253,-46.875,-47.36328125,-29.78515625,-47.8515625,-1.0,1.0,-1.0,0.0,8.m4v,3.0
2024-02-27 11:54:43.871159,1709031283.8711586,-41.50390625,-31.25,-21.97265625,-25.390625,-1.0,1.0,-1.0,0.0,8.m4v,3.0
2024-02-27 11:54:43.875064,1709031283.8750644,-36.62109375,-20.5078125,-34.1796875,7.8125,-1.0,1.0,-1.0,0.0,8.m4v,3.0
2024-02-27 11:54:43.878970,1709031283.87897,-41.50390625,-26.3671875,-58.10546875,-0.9765625,-1.0,1.0,-1.0,0.0,8.m4v,3.0
2024-02-27 11:54:43.882875,1709031283.8828754,-36.62109375,-22.94921875,-34.66796875,-13.18359375,-1.0,1.0,-1.0,0.0,8.m4v,3.0
2024-02-27 11:54:43.886781,1709031283.8867812,-39.0625,-22.94921875,-22.4609375,-25.390625,-1.0,1.0,-1.0,0.0,8.m4v,3.0
2024-02-27 11:54:43.890687,1709031283.8906868,-51.26953125,-39.55078125,-42.48046875,-34.1796875,-1.0,1.0,-1.0,0.0,8.m4v,3.0
2024-02-27 11:54:43.894593,1709031283.8945923,-49.31640625,-53.22265625,-41.9921875,-24.4140625,-1.0,1.0,-1.0,0.0,8.m4v,3.0
2024-02-27 11:54:43.898498,1709031283.898498,-30.2734375,-60.05859375,-42.96875,-20.99609375,-1.0,1.0,-1.0,0.0,8.m4v,3.0
2024-02-27 11:54:43.902409,1709031283.9024086,-24.4140625,-49.8046875,-51.26953125,-27.34375,-1.0,1.0,-1.0,0.0,8.m4v,3.0
2024-02-27 11:54:43.906314,1709031283.906314,-35.64453125,-35.15625,-46.38671875,-37.59765625,-1.0,1.0,-1.0,0.0,8.m4v,3.0
2024-02-27 11:54:43.910220,1709031283.9102197,-40.52734375,-41.015625,-26.85546875,-39.0625,-1.0,1.0,-1.0,0.0,8.m4v,3.0
2024-02-27 11:54:43.914125,1709031283.9141254,-39.0625,-43.9453125,-10.25390625,-32.71484375,-1.0,1.0,-1.0,0.0,8.m4v,3.0
2024-02-27 11:54:43.918031,1709031283.918031,-28.80859375,-32.71484375,-17.578125,-19.53125,-1.0,1.0,-1.0,0.0,8.m4v,3.0
2024-02-27 11:54:43.921937,1709031283.9219368,-31.73828125,-12.20703125,-20.5078125,-17.08984375,-1.0,1.0,-1.0,0.0,8.m4v,3.0
2024-02-27 11:54:43.925842,1709031283.9258423,-44.921875,-25.87890625,-19.04296875,-35.64453125,-1.0,1.0,-1.0,0.0,8.m4v,3.0
2024-02-27 11:54:43.929748,1709031283.9297478,-51.7578125,-51.7578125,-24.4140625,-45.41015625,-1.0,1.0,-1.0,0.0,8.m4v,3.0
2024-02-27 11:54:43.941465,1709031283.941465,-35.64453125,-29.78515625,-38.57421875,-22.4609375,-1.0,1.0,-1.0,0.0,8.m4v,3.0
2024-02-27 11:54:43.953186,1709031283.9531865,-26.3671875,-25.390625,-19.53125,-28.3203125,-1.0,1.0,-1.0,0.0,8.m4v,3.0
2024-02-27 11:54:43.964903,1709031283.964903,-25.390625,-44.43359375,-32.71484375,-39.0625,-1.0,1.0,-1.0,0.0,8.m4v,3.0
2024-02-27 11:54:43.964903,1709031283.964903,-25.390625,-44.43359375,-32.71484375,-39.0625,-1.0,1.0,-1.0,0.0,8.m4v,3.0
2024-02-27 11:54:43.968809,1709031283.968809,-35.64453125,-21.484375,-38.0859375,-49.8046875,-1.0,1.0,-1.0,0.0,8.m4v,3.0
2024-02-27 11:54:43.968809,1709031283.968809,-35.64453125,-21.484375,-38.0859375,-49.8046875,-1.0,1.0,-1.0,0.0,8.m4v,3.0
2024-02-27 11:54:43.972714,1709031283.9727144,-42.48046875,-22.94921875,-34.1796875,-43.9453125,-1.0,1.0,-1.0,0.0,8.m4v,3.0
2024-02-27 11:54:43.972714,1709031283.9727144,-42.48046875,-22.94921875,-34.1796875,-43.9453125,-1.0,1.0,-1.0,0.0,8.m4v,3.0
2024-02-27 11:54:43.976620,1709031283.97662,-35.15625,-29.296875,-33.69140625,-25.87890625,-1.0,1.0,-1.0,0.0,8.m4v,3.0
2024-02-27 11:54:43.976620,1709031283.97662,-35.15625,-29.296875,-33.69140625,-25.87890625,-1.0,1.0,-1.0,0.0,8.m4v,3.0
2024-02-27 11:54:43.980526,1709031283.9805255,-26.85546875,-20.5078125,-34.1796875,-22.94921875,-1.0,1.0,-1.0,0.0,8.m4v,3.0
2024-02-27 11:54:43.980526,1709031283.9805255,-26.85546875,-20.5078125,-34.1796875,-22.94921875,-1.0,1.0,-1.0,0.0,8.m4v,3.0
2024-02-27 11:54:43.984431,1709031283.9844313,-29.296875,-20.5078125,-32.2265625,-28.3203125,-1.0,1.0,-1.0,0.0,8.m4v,3.0
2024-02-27 11:54:43.984431,1709031283.9844313,-29.296875,-20.5078125,-32.2265625,-28.3203125,-1.0,1.0,-1.0,0.0,8.m4v,3.0
2024-02-27 11:54:43.988337,1709031283.9883368,-30.76171875,-24.90234375,-44.921875,-35.64453125,-1.0,1.0,-1.0,0.0,8.m4v,3.0
2024-02-27 11:54:43.988337,1709031283.9883368,-30.76171875,-24.90234375,-44.921875,-35.64453125,-1.0,1.0,-1.0,0.0,8.m4v,3.0
2024-02-27 11:54:43.992243,1709031283.9922426,-40.0390625,-41.9921875,-39.0625,-40.0390625,-1.0,1.0,-1.0,0.0,8.m4v,3.0
2024-02-27 11:54:43.992243,1709031283.9922426,-40.0390625,-41.9921875,-39.0625,-40.0390625,-1.0,1.0,-1.0,0.0,8.m4v,3.0
2024-02-27 11:54:43.996153,1709031283.9961526,-31.73828125,-40.0390625,-21.97265625,-31.73828125,-1.0,1.0,-1.0,0.0,8.m4v,3.0
2024-02-27 11:54:43.996153,1709031283.9961526,-31.73828125,-40.0390625,-21.97265625,-31.73828125,-1.0,1.0,-1.0,0.0,8.m4v,3.0
2024-02-27 11:54:44.000058,1709031284.0000582,-24.4140625,-38.0859375,-18.5546875,-30.2734375,-1.0,1.0,-1.0,0.0,8.m4v,3.0
2024-02-27 11:54:44.000058,1709031284.0000582,-24.4140625,-38.0859375,-18.5546875,-30.2734375,-1.0,1.0,-1.0,0.0,8.m4v,3.0
2024-02-27 11:54:44.003964,1709031284.003964,-28.3203125,-53.22265625,-19.04296875,-34.66796875,-1.0,1.0,-1.0,0.0,8.m4v,3.0
2024-02-27 11:54:44.003964,1709031284.003964,-28.3203125,-53.22265625,-19.04296875,-34.66796875,-1.0,1.0,-1.0,0.0,8.m4v,3.0
2024-02-27 11:54:44.007869,1709031284.0078695,-30.2734375,-29.296875,-11.23046875,-36.1328125,-1.0,1.0,-1.0,0.0,8.m4v,3.0
2024-02-27 11:54:44.007869,1709031284.0078695,-30.2734375,-29.296875,-11.23046875,-36.1328125,-1.0,1.0,-1.0,0.0,8.m4v,3.0
2024-02-27 11:54:44.011775,1709031284.011775,-25.87890625,-16.6015625,-17.578125,-27.34375,-1.0,1.0,-1.0,0.0,8.m4v,3.0
2024-02-27 11:54:44.011775,1709031284.011775,-25.87890625,-16.6015625,-17.578125,-27.34375,-1.0,1.0,-1.0,0.0,8.m4v,3.0
2024-02-27 11:54:44.015681,1709031284.0156808,-25.87890625,-34.1796875,-26.85546875,-10.25390625,-1.0,1.0,-1.0,0.0,8.m4v,3.0
2024-02-27 11:54:44.015681,1709031284.0156808,-25.87890625,-34.1796875,-26.85546875,-10.25390625,-1.0,1.0,-1.0,0.0,8.m4v,3.0
2024-02-27 11:54:44.019586,1709031284.0195863,-27.83203125,-28.80859375,-41.015625,-5.37109375,-1.0,1.0,-1.0,0.0,8.m4v,3.0
2024-02-27 11:54:44.019586,1709031284.0195863,-27.83203125,-28.80859375,-41.015625,-5.37109375,-1.0,1.0,-1.0,0.0,8.m4v,3.0
2024-02-27 11:54:44.023492,1709031284.023492,-22.94921875,-15.625,-60.05859375,-16.11328125,-1.0,1.0,-1.0,0.0,8.m4v,3.0
2024-02-27 11:54:44.023492,1709031284.023492,-22.94921875,-15.625,-60.05859375,-16.11328125,-1.0,1.0,-1.0,0.0,8.m4v,3.0
2024-02-27 11:54:44.027398,1709031284.0273976,-28.3203125,-24.4140625,-55.6640625,-24.90234375,-1.0,1.0,-1.0,0.0,8.m4v,3.0
2024-02-27 11:54:44.027398,1709031284.0273976,-28.3203125,-24.4140625,-55.6640625,-24.90234375,-1.0,1.0,-1.0,0.0,8.m4v,3.0
2024-02-27 11:54:44.031303,1709031284.0313032,-22.94921875,-38.57421875,-30.76171875,-27.34375,-1.0,1.0,-1.0,0.0,8.m4v,3.0
2024-02-27 11:54:44.031303,1709031284.0313032,-22.94921875,-38.57421875,-30.76171875,-27.34375,-1.0,1.0,-1.0,0.0,8.m4v,3.0
2024-02-27 11:54:44.035209,1709031284.0352087,-23.92578125,-36.62109375,-16.6015625,-20.5078125,-1.0,1.0,-1.0,0.0,8.m4v,3.0
2024-02-27 11:54:44.035209,1709031284.0352087,-23.92578125,-36.62109375,-16.6015625,-20.5078125,-1.0,1.0,-1.0,0.0,8.m4v,3.0
2024-02-27 11:54:44.039114,1709031284.0391145,-39.0625,-44.921875,-25.87890625,-24.4140625,-1.0,1.0,-1.0,0.0,8.m4v,3.0
2024-02-27 11:54:44.039114,1709031284.0391145,-39.0625,-44.921875,-25.87890625,-24.4140625,-1.0,1.0,-1.0,0.0,8.m4v,3.0
2024-02-27 11:54:44.043024,1709031284.0430243,-39.0625,-41.9921875,-32.2265625,-41.9921875,-1.0,1.0,-1.0,0.0,8.m4v,3.0
2024-02-27 11:54:44.043024,1709031284.0430243,-39.0625,-41.9921875,-32.2265625,-41.9921875,-1.0,1.0,-1.0,0.0,8.m4v,3.0
2024-02-27 11:54:44.046930,1709031284.0469298,-35.15625,-37.109375,-36.1328125,-50.78125,-1.0,1.0,-1.0,0.0,8.m4v,3.0
2024-02-27 11:54:44.046930,1709031284.0469298,-35.15625,-37.109375,-36.1328125,-50.78125,-1.0,1.0,-1.0,0.0,8.m4v,3.0
2024-02-27 11:54:44.050836,1709031284.0508356,-44.921875,-35.64453125,-35.15625,-42.96875,-1.0,1.0,-1.0,0.0,8.m4v,3.0
2024-02-27 11:54:44.050836,1709031284.0508356,-44.921875,-35.64453125,-35.15625,-42.96875,-1.0,1.0,-1.0,0.0,8.m4v,3.0
2024-02-27 11:54:44.054741,1709031284.0547411,-46.38671875,-18.06640625,-29.78515625,-25.87890625,-1.0,1.0,-1.0,0.0,8.m4v,3.0
2024-02-27 11:54:44.054741,1709031284.0547411,-46.38671875,-18.06640625,-29.78515625,-25.87890625,-1.0,1.0,-1.0,0.0,8.m4v,3.0
2024-02-27 11:54:44.058647,1709031284.058647,-40.0390625,-18.06640625,-29.296875,-16.11328125,-1.0,1.0,-1.0,0.0,8.m4v,3.0
2024-02-27 11:54:44.058647,1709031284.058647,-40.0390625,-18.06640625,-29.296875,-16.11328125,-1.0,1.0,-1.0,0.0,8.m4v,3.0
2024-02-27 11:54:44.062552,1709031284.0625525,-38.57421875,-23.4375,-23.4375,-27.34375,-1.0,1.0,-1.0,0.0,8.m4v,3.0
2024-02-27 11:54:44.062552,1709031284.0625525,-38.57421875,-23.4375,-23.4375,-27.34375,-1.0,1.0,-1.0,0.0,8.m4v,3.0
2024-02-27 11:54:44.066458,1709031284.066458,-34.66796875,-14.6484375,-45.8984375,-45.41015625,-1.0,1.0,-1.0,0.0,8.m4v,3.0
2024-02-27 11:54:44.066458,1709031284.066458,-34.66796875,-14.6484375,-45.8984375,-45.41015625,-1.0,1.0,-1.0,0.0,8.m4v,3.0
2024-02-27 11:54:44.070364,1709031284.0703638,-36.1328125,-32.2265625,-44.43359375,-49.8046875,-1.0,1.0,-1.0,0.0,8.m4v,3.0
2024-02-27 11:54:44.070364,1709031284.0703638,-36.1328125,-32.2265625,-44.43359375,-49.8046875,-1.0,1.0,-1.0,0.0,8.m4v,3.0
2024-02-27 11:54:44.074269,1709031284.0742693,-47.8515625,-48.828125,-17.578125,-40.52734375,-1.0,1.0,-1.0,0.0,8.m4v,3.0
2024-02-27 11:54:44.074269,1709031284.0742693,-47.8515625,-48.828125,-17.578125,-40.52734375,-1.0,1.0,-1.0,0.0,8.m4v,3.0
2024-02-27 11:54:44.078175,1709031284.0781748,-44.43359375,-52.734375,-36.62109375,-28.3203125,-1.0,1.0,-1.0,0.0,8.m4v,3.0
2024-02-27 11:54:44.078175,1709031284.0781748,-44.43359375,-52.734375,-36.62109375,-28.3203125,-1.0,1.0,-1.0,0.0,8.m4v,3.0
2024-02-27 11:54:44.082081,1709031284.0820806,-31.25,-54.19921875,-52.24609375,-33.203125,-1.0,1.0,-1.0,0.0,8.m4v,3.0
2024-02-27 11:54:44.082081,1709031284.0820806,-31.25,-54.19921875,-52.24609375,-33.203125,-1.0,1.0,-1.0,0.0,8.m4v,3.0
2024-02-27 11:54:44.085986,1709031284.085986,-32.71484375,-48.828125,-35.15625,-52.734375,-1.0,1.0,-1.0,0.0,8.m4v,3.0
2024-02-27 11:54:44.085986,1709031284.085986,-32.71484375,-48.828125,-35.15625,-52.734375,-1.0,1.0,-1.0,0.0,8.m4v,3.0
2024-02-27 11:54:44.093801,1709031284.0938015,-27.34375,-41.50390625,-15.625,-41.015625,-1.0,1.0,-1.0,0.0,8.m4v,3.0
2024-02-27 11:54:44.093801,1709031284.0938015,-27.34375,-41.50390625,-15.625,-41.015625,-1.0,1.0,-1.0,0.0,8.m4v,3.0
2024-02-27 11:54:44.101613,1709031284.1016128,-40.0390625,-29.78515625,-52.734375,-36.62109375,-1.0,1.0,-1.0,0.0,8.m4v,3.0
2024-02-27 11:54:44.101613,1709031284.1016128,-40.0390625,-29.78515625,-52.734375,-36.62109375,-1.0,1.0,-1.0,0.0,8.m4v,3.0
2024-02-27 11:54:44.109424,1709031284.109424,-31.73828125,-30.2734375,-7.32421875,-38.57421875,-1.0,1.0,-1.0,0.0,8.m4v,3.0
2024-02-27 11:54:44.109424,1709031284.109424,-31.73828125,-30.2734375,-7.32421875,-38.57421875,-1.0,1.0,-1.0,0.0,8.m4v,3.0
2024-02-27 11:54:44.210980,1709031284.2109797,-48.33984375,-44.921875,-29.78515625,-48.33984375,-1.0,1.0,-1.0,0.0,8.m4v,3.0
2024-02-27 11:54:44.218791,1709031284.2187908,-33.203125,-35.15625,-35.15625,-34.66796875,-1.0,1.0,-1.0,0.0,8.m4v,3.0
2024-02-27 11:54:44.222697,1709031284.2226963,-39.55078125,-42.96875,-24.4140625,-45.8984375,-1.0,1.0,-1.0,0.0,8.m4v,3.0
2024-02-27 11:54:44.230513,1709031284.2305129,-44.43359375,-53.22265625,-41.9921875,-50.78125,-1.0,1.0,-1.0,0.0,8.m4v,3.0
2024-02-27 11:54:44.234418,1709031284.2344184,-45.41015625,-44.921875,-23.4375,-33.203125,-1.0,1.0,-1.0,0.0,8.m4v,3.0
2024-02-27 11:54:44.242230,1709031284.2422297,-33.69140625,-36.62109375,-50.29296875,-44.921875,-1.0,1.0,-1.0,0.0,8.m4v,3.0
2024-02-27 11:54:44.246135,1709031284.2461352,-37.109375,-31.25,-60.546875,-55.17578125,-1.0,1.0,-1.0,0.0,8.m4v,3.0
2024-02-27 11:54:44.253947,1709031284.2539463,-19.04296875,-19.04296875,-21.97265625,-27.34375,-1.0,1.0,-1.0,0.0,8.m4v,3.0
2024-02-27 11:54:44.257852,1709031284.257852,-25.87890625,-49.31640625,-36.62109375,-31.25,-1.0,1.0,-1.0,0.0,8.m4v,3.0
2024-02-27 11:54:44.265663,1709031284.2656634,-30.76171875,-44.43359375,-12.6953125,-57.6171875,-1.0,1.0,-1.0,0.0,8.m4v,3.0
2024-02-27 11:54:44.269569,1709031284.269569,-30.2734375,-51.7578125,-20.99609375,-55.6640625,-1.0,1.0,-1.0,0.0,8.m4v,3.0
2024-02-27 11:54:44.277385,1709031284.277385,-33.69140625,-36.62109375,-28.3203125,-19.04296875,-1.0,1.0,-1.0,0.0,8.m4v,3.0
2024-02-27 11:54:44.281291,1709031284.2812908,-38.57421875,-31.25,-45.41015625,-27.83203125,-1.0,1.0,-1.0,0.0,8.m4v,3.0
2024-02-27 11:54:44.285196,1709031284.2851963,-38.0859375,-31.73828125,-50.29296875,-40.52734375,-1.0,1.0,-1.0,0.0,8.m4v,3.0
2024-02-27 11:54:44.289102,1709031284.2891018,-43.45703125,-37.59765625,-39.55078125,-40.52734375,-1.0,1.0,-1.0,0.0,8.m4v,3.0
2024-02-27 11:54:44.293008,1709031284.2930076,-49.31640625,-51.26953125,-24.4140625,-26.3671875,-1.0,1.0,-1.0,0.0,8.m4v,3.0
2024-02-27 11:54:44.296913,1709031284.2969131,-38.57421875,-39.0625,-12.20703125,-16.11328125,-1.0,1.0,-1.0,0.0,8.m4v,3.0
2024-02-27 11:54:44.300819,1709031284.300819,-22.4609375,-21.97265625,-15.625,-21.97265625,-1.0,1.0,-1.0,0.0,8.m4v,3.0
2024-02-27 11:54:44.304724,1709031284.3047245,-25.87890625,-39.55078125,-38.0859375,-38.0859375,-1.0,1.0,-1.0,0.0,8.m4v,3.0
2024-02-27 11:54:44.308630,1709031284.30863,-41.015625,-41.9921875,-54.19921875,-54.6875,-1.0,1.0,-1.0,0.0,8.m4v,3.0
2024-02-27 11:54:44.312536,1709031284.3125358,-49.8046875,-37.59765625,-43.45703125,-49.8046875,-1.0,1.0,-1.0,0.0,8.m4v,3.0
2024-02-27 11:54:44.316441,1709031284.3164413,-38.0859375,-26.3671875,-31.25,-31.73828125,-1.0,1.0,-1.0,0.0,8.m4v,3.0
2024-02-27 11:54:44.320347,1709031284.3203468,-18.06640625,-12.6953125,-39.0625,-25.87890625,-1.0,1.0,-1.0,0.0,8.m4v,3.0
2024-02-27 11:54:44.324257,1709031284.3242571,-30.2734375,-31.73828125,-40.0390625,-46.875,-1.0,1.0,-1.0,0.0,8.m4v,3.0
2024-02-27 11:54:44.328163,1709031284.328163,-45.41015625,-41.9921875,-26.85546875,-54.6875,-1.0,1.0,-1.0,0.0,8.m4v,3.0
2024-02-27 11:54:44.332068,1709031284.3320684,-38.57421875,-55.17578125,-20.01953125,-31.25,-1.0,1.0,-1.0,0.0,8.m4v,3.0
2024-02-27 11:54:44.335974,1709031284.335974,-40.52734375,-73.2421875,-41.015625,-25.390625,-1.0,1.0,-1.0,0.0,8.m4v,3.0
2024-02-27 11:54:44.339880,1709031284.3398798,-38.0859375,-48.828125,-51.7578125,-23.92578125,-1.0,1.0,-1.0,0.0,8.m4v,3.0
2024-02-27 11:54:44.343785,1709031284.3437853,-31.73828125,-13.18359375,-50.29296875,-21.97265625,-1.0,1.0,-1.0,0.0,8.m4v,3.0
2024-02-27 11:54:44.347691,1709031284.3476908,-28.80859375,-5.37109375,-52.24609375,-33.69140625,-1.0,1.0,-1.0,0.0,8.m4v,3.0
2024-02-27 11:54:44.351597,1709031284.3515966,-23.92578125,-35.15625,-32.71484375,-39.0625,-1.0,1.0,-1.0,0.0,8.m4v,3.0
2024-02-27 11:54:44.355502,1709031284.355502,-21.97265625,-34.66796875,-16.6015625,-20.99609375,-1.0,1.0,-1.0,0.0,8.m4v,3.0
2024-02-27 11:54:44.359408,1709031284.359408,-46.875,-25.390625,-30.2734375,-35.64453125,-1.0,1.0,-1.0,0.0,8.m4v,3.0
2024-02-27 11:54:44.363313,1709031284.3633134,-40.0390625,-27.83203125,-24.4140625,-45.8984375,-1.0,1.0,-1.0,0.0,8.m4v,3.0
2024-02-27 11:54:44.367219,1709031284.367219,-12.20703125,-29.296875,-3.90625,-26.85546875,-1.0,1.0,-1.0,0.0,8.m4v,3.0
2024-02-27 11:54:44.371129,1709031284.371129,-20.99609375,-40.0390625,-21.97265625,-21.484375,-1.0,1.0,-1.0,0.0,8.m4v,3.0
2024-02-27 11:54:44.375035,1709031284.3750348,-34.66796875,-35.64453125,-47.36328125,-20.99609375,-1.0,1.0,-1.0,0.0,8.m4v,3.0
2024-02-27 11:54:44.378940,1709031284.3789403,-32.71484375,-24.4140625,-39.0625,-20.01953125,-1.0,1.0,-1.0,0.0,8.m4v,3.0
2024-02-27 11:54:44.382846,1709031284.382846,-28.80859375,-16.6015625,-41.015625,-26.3671875,-1.0,1.0,-1.0,0.0,8.m4v,3.0
2024-02-27 11:54:44.386752,1709031284.3867517,-31.25,-12.20703125,-62.5,-32.71484375,-1.0,1.0,-1.0,0.0,8.m4v,3.0
2024-02-27 11:54:44.390657,1709031284.3906572,-31.73828125,-2.44140625,-37.59765625,-27.83203125,-1.0,1.0,-1.0,0.0,8.m4v,3.0
2024-02-27 11:54:44.394563,1709031284.394563,-16.6015625,-0.9765625,-9.27734375,-13.671875,-1.0,1.0,-1.0,0.0,8.m4v,3.0
2024-02-27 11:54:44.398468,1709031284.3984685,-11.71875,-24.4140625,-23.92578125,-16.6015625,-1.0,1.0,-1.0,0.0,8.m4v,3.0
2024-02-27 11:54:44.402374,1709031284.402374,-26.85546875,-42.96875,-34.66796875,-39.0625,-1.0,1.0,-1.0,0.0,8.m4v,3.0
2024-02-27 11:54:44.406280,1709031284.4062798,-35.64453125,-60.546875,-41.9921875,-53.7109375,-1.0,1.0,-1.0,0.0,8.m4v,3.0
2024-02-27 11:54:44.410185,1709031284.410185,-37.59765625,-45.41015625,-40.0390625,-52.24609375,-1.0,1.0,-1.0,0.0,8.m4v,3.0
2024-02-27 11:54:44.414091,1709031284.4140909,-41.015625,-23.92578125,-35.64453125,-36.62109375,-1.0,1.0,-1.0,0.0,8.m4v,3.0
2024-02-27 11:54:44.418001,1709031284.418001,-41.50390625,-18.5546875,-38.57421875,-22.94921875,-1.0,1.0,-1.0,0.0,8.m4v,3.0
2024-02-27 11:54:44.421906,1709031284.4219065,-28.80859375,-11.23046875,-34.1796875,-25.390625,-1.0,1.0,-1.0,0.0,8.m4v,3.0
2024-02-27 11:54:44.425812,1709031284.425812,-19.04296875,-8.7890625,-47.8515625,-33.203125,-1.0,1.0,-1.0,0.0,8.m4v,3.0
2024-02-27 11:54:44.429718,1709031284.4297178,-27.83203125,-7.32421875,-48.828125,-40.52734375,-1.0,1.0,-1.0,0.0,8.m4v,3.0
2024-02-27 11:54:44.433623,1709031284.4336233,-33.203125,-10.7421875,-29.78515625,-30.76171875,-1.0,1.0,-1.0,0.0,8.m4v,3.0
2024-02-27 11:54:44.437529,1709031284.4375288,-25.87890625,1.46484375,-24.90234375,-4.8828125,-1.0,1.0,-1.0,0.0,8.m4v,3.0
2024-02-27 11:54:44.441435,1709031284.4414346,-16.11328125,-20.99609375,-29.296875,-16.6015625,-1.0,1.0,-1.0,0.0,8.m4v,3.0
2024-02-27 11:54:44.445340,1709031284.4453402,-22.94921875,-55.6640625,-29.78515625,-54.19921875,-1.0,1.0,-1.0,0.0,8.m4v,3.0
2024-02-27 11:54:44.449246,1709031284.449246,-44.921875,-42.96875,-31.25,-59.08203125,-1.0,1.0,-1.0,0.0,8.m4v,3.0
2024-02-27 11:54:44.453151,1709031284.4531517,-34.1796875,-26.85546875,-54.6875,-40.0390625,-1.0,1.0,-1.0,0.0,8.m4v,3.0
2024-02-27 11:54:44.457057,1709031284.457057,-18.06640625,-10.25390625,-63.4765625,-25.87890625,-1.0,1.0,-1.0,0.0,8.m4v,3.0
2024-02-27 11:54:44.460963,1709031284.4609628,-35.64453125,-5.37109375,-58.10546875,-33.69140625,-1.0,1.0,-1.0,0.0,8.m4v,3.0
2024-02-27 11:54:44.464872,1709031284.4648724,-47.8515625,-19.53125,-44.921875,-54.19921875,-1.0,1.0,-1.0,0.0,8.m4v,3.0
2024-02-27 11:54:44.468778,1709031284.468778,-50.78125,-17.08984375,-30.76171875,-61.5234375,-1.0,1.0,-1.0,0.0,8.m4v,3.0
2024-02-27 11:54:44.472684,1709031284.4726837,-53.7109375,-13.18359375,-24.4140625,-48.828125,-1.0,1.0,-1.0,0.0,8.m4v,3.0
2024-02-27 11:54:44.476589,1709031284.4765892,-44.43359375,-13.671875,-32.71484375,-25.390625,-1.0,1.0,-1.0,0.0,8.m4v,3.0
2024-02-27 11:54:44.480495,1709031284.480495,-37.109375,-28.80859375,-47.36328125,-30.2734375,-1.0,1.0,-1.0,0.0,8.m4v,3.0
2024-02-27 11:54:44.484401,1709031284.4844005,-39.0625,-27.83203125,-39.0625,-52.734375,-1.0,1.0,-1.0,0.0,8.m4v,3.0
2024-02-27 11:54:44.488306,1709031284.488306,-33.203125,-21.97265625,-41.50390625,-45.41015625,-1.0,1.0,-1.0,0.0,8.m4v,3.0
2024-02-27 11:54:44.492212,1709031284.4922118,-28.80859375,-56.15234375,-49.8046875,-26.85546875,-1.0,1.0,-1.0,0.0,8.m4v,3.0
2024-02-27 11:54:44.496117,1709031284.4961174,-14.16015625,-49.8046875,-36.1328125,-15.13671875,-1.0,1.0,-1.0,0.0,8.m4v,3.0
2024-02-27 11:54:44.500023,1709031284.5000231,-2.44140625,-29.78515625,-33.203125,-24.90234375,-1.0,1.0,-1.0,0.0,8.m4v,3.0
2024-02-27 11:54:44.503929,1709031284.503929,-18.5546875,-32.2265625,-39.0625,-46.875,-1.0,1.0,-1.0,0.0,8.m4v,3.0
2024-02-27 11:54:44.507834,1709031284.5078342,-41.50390625,-29.78515625,-35.64453125,-54.19921875,-1.0,1.0,-1.0,0.0,8.m4v,3.0
2024-02-27 11:54:44.511744,1709031284.5117438,-46.38671875,-26.85546875,-36.62109375,-43.45703125,-1.0,1.0,-1.0,0.0,8.m4v,3.0
2024-02-27 11:54:44.515649,1709031284.5156493,-40.0390625,-22.4609375,-45.41015625,-19.04296875,-1.0,1.0,-1.0,0.0,8.m4v,3.0
2024-02-27 11:54:44.519555,1709031284.519555,-24.4140625,-21.484375,-42.48046875,-10.25390625,-1.0,1.0,-1.0,0.0,8.m4v,3.0
2024-02-27 11:54:44.523461,1709031284.5234606,-22.94921875,-41.50390625,-38.0859375,-39.0625,-1.0,1.0,-1.0,0.0,8.m4v,3.0
2024-02-27 11:54:44.527366,1709031284.5273664,-23.4375,-40.0390625,-28.80859375,-52.24609375,-1.0,1.0,-1.0,0.0,8.m4v,3.0
2024-02-27 11:54:44.531272,1709031284.531272,-29.78515625,-18.06640625,-17.578125,-40.0390625,-1.0,1.0,-1.0,0.0,8.m4v,3.0
2024-02-27 11:54:44.535177,1709031284.5351777,-47.8515625,-44.921875,-37.59765625,-39.55078125,-1.0,1.0,-1.0,0.0,8.m4v,3.0
2024-02-27 11:54:44.539083,1709031284.5390832,-41.9921875,-51.26953125,-55.17578125,-38.57421875,-1.0,1.0,-1.0,0.0,8.m4v,3.0
2024-02-27 11:54:44.542989,1709031284.5429888,-24.90234375,-39.55078125,-45.41015625,-41.9921875,-1.0,1.0,-1.0,0.0,8.m4v,3.0
2024-02-27 11:54:44.546894,1709031284.5468943,-11.71875,-38.0859375,-38.57421875,-50.29296875,-1.0,1.0,-1.0,0.0,8.m4v,3.0
2024-02-27 11:54:44.550800,1709031284.5508,-11.23046875,-33.203125,-33.203125,-40.0390625,-1.0,1.0,-1.0,0.0,8.m4v,3.0
2024-02-27 11:54:44.554706,1709031284.5547056,-33.69140625,-43.9453125,-31.25,-29.296875,-1.0,1.0,-1.0,0.0,8.m4v,3.0
2024-02-27 11:54:44.558615,1709031284.558615,-37.59765625,-33.69140625,-33.69140625,-19.53125,-1.0,1.0,-1.0,0.0,8.m4v,3.0
2024-02-27 11:54:44.562521,1709031284.5625207,-21.97265625,-29.296875,-30.2734375,-29.296875,-1.0,1.0,-1.0,0.0,8.m4v,3.0
2024-02-27 11:54:44.566426,1709031284.5664265,-25.390625,-41.50390625,-30.2734375,-50.29296875,-1.0,1.0,-1.0,0.0,8.m4v,3.0
2024-02-27 11:54:44.570332,1709031284.570332,-39.0625,-41.50390625,-27.34375,-44.43359375,-1.0,1.0,-1.0,0.0,8.m4v,3.0
2024-02-27 11:54:44.574238,1709031284.5742376,-45.8984375,-33.203125,-34.1796875,-25.87890625,-1.0,1.0,-1.0,0.0,8.m4v,3.0
2024-02-27 11:54:44.578143,1709031284.5781431,-50.29296875,-18.5546875,-44.921875,-17.578125,-1.0,1.0,-1.0,0.0,8.m4v,3.0
2024-02-27 11:54:44.582049,1709031284.582049,-49.31640625,-19.04296875,-48.33984375,-33.69140625,-1.0,1.0,-1.0,0.0,8.m4v,3.0
2024-02-27 11:54:44.585954,1709031284.5859544,-47.8515625,-40.52734375,-47.8515625,-54.6875,-1.0,1.0,-1.0,0.0,8.m4v,3.0
2024-02-27 11:54:44.589860,1709031284.58986,-49.8046875,-60.05859375,-35.15625,-49.31640625,-1.0,1.0,-1.0,0.0,8.m4v,3.0
2024-02-27 11:54:44.593766,1709031284.5937655,-46.875,-49.31640625,-38.0859375,-41.015625,-1.0,1.0,-1.0,0.0,8.m4v,3.0
2024-02-27 11:54:44.597671,1709031284.5976713,-31.25,-20.01953125,-42.96875,-26.3671875,-1.0,1.0,-1.0,0.0,8.m4v,3.0
2024-02-27 11:54:44.601577,1709031284.6015768,-22.4609375,-17.578125,-24.90234375,-17.578125,-1.0,1.0,-1.0,0.0,8.m4v,3.0
2024-02-27 11:54:44.605489,1709031284.605489,-40.0390625,-35.64453125,-20.01953125,-34.66796875,-1.0,1.0,-1.0,0.0,8.m4v,3.0
2024-02-27 11:54:44.609395,1709031284.6093948,-50.78125,-34.1796875,-35.15625,-46.875,-1.0,1.0,-1.0,0.0,8.m4v,3.0
2024-02-27 11:54:44.613300,1709031284.6133003,-47.36328125,-26.85546875,-40.52734375,-35.64453125,-1.0,1.0,-1.0,0.0,8.m4v,3.0
2024-02-27 11:54:44.617206,1709031284.617206,-38.0859375,-23.4375,-35.64453125,-25.390625,-1.0,1.0,-1.0,0.0,8.m4v,3.0
2024-02-27 11:54:44.621112,1709031284.6211116,-35.64453125,-29.296875,-30.2734375,-36.62109375,-1.0,1.0,-1.0,0.0,8.m4v,3.0
2024-02-27 11:54:44.625017,1709031284.6250172,-39.55078125,-39.55078125,-39.55078125,-49.31640625,-1.0,1.0,-1.0,0.0,8.m4v,3.0
2024-02-27 11:54:44.628923,1709031284.6289227,-36.1328125,-53.7109375,-41.015625,-46.38671875,-1.0,1.0,-1.0,0.0,8.m4v,3.0
2024-02-27 11:54:44.632828,1709031284.6328285,-35.64453125,-59.08203125,-37.109375,-33.69140625,-1.0,1.0,-1.0,0.0,8.m4v,3.0
2024-02-27 11:54:44.636734,1709031284.636734,-23.4375,-36.62109375,-41.015625,-5.859375,-1.0,1.0,-1.0,0.0,8.m4v,3.0
2024-02-27 11:54:44.640640,1709031284.6406395,-11.71875,-29.296875,-43.9453125,2.9296875,-1.0,1.0,-1.0,0.0,8.m4v,3.0
2024-02-27 11:54:44.644545,1709031284.6445453,-7.32421875,-35.15625,-28.3203125,-10.25390625,-1.0,1.0,-1.0,0.0,8.m4v,3.0
2024-02-27 11:54:44.648451,1709031284.6484509,-7.8125,-37.109375,-25.87890625,-18.5546875,-1.0,1.0,-1.0,0.0,8.m4v,3.0
2024-02-27 11:54:44.652361,1709031284.6523614,-20.01953125,-43.45703125,-37.59765625,-22.4609375,-1.0,1.0,-1.0,0.0,8.m4v,3.0
2024-02-27 11:54:44.656267,1709031284.656267,-37.59765625,-55.6640625,-39.55078125,-25.87890625,-1.0,1.0,-1.0,0.0,8.m4v,3.0
2024-02-27 11:54:44.660173,1709031284.6601727,-41.015625,-57.12890625,-35.64453125,-30.76171875,-1.0,1.0,-1.0,0.0,8.m4v,3.0
2024-02-27 11:54:44.664078,1709031284.6640782,-33.203125,-37.109375,-42.96875,-40.0390625,-1.0,1.0,-1.0,0.0,8.m4v,3.0
2024-02-27 11:54:44.667984,1709031284.6679838,-28.80859375,-16.6015625,-44.43359375,-44.921875,-1.0,1.0,-1.0,0.0,8.m4v,3.0
2024-02-27 11:54:44.671890,1709031284.6718895,-27.34375,1.953125,-38.0859375,-35.15625,-1.0,1.0,-1.0,0.0,8.m4v,3.0
2024-02-27 11:54:44.675795,1709031284.675795,-18.5546875,18.5546875,-41.015625,-12.6953125,-1.0,1.0,-1.0,0.0,8.m4v,3.0
2024-02-27 11:54:44.679701,1709031284.6797006,-26.3671875,-11.71875,-33.203125,-14.16015625,-1.0,1.0,-1.0,0.0,8.m4v,3.0
2024-02-27 11:54:44.683606,1709031284.6836064,-36.1328125,-56.640625,-38.57421875,-43.9453125,-1.0,1.0,-1.0,0.0,8.m4v,3.0
2024-02-27 11:54:44.687512,1709031284.687512,-49.31640625,-70.80078125,-49.8046875,-72.265625,-1.0,1.0,-1.0,0.0,8.m4v,3.0
2024-02-27 11:54:44.691417,1709031284.6914177,-56.640625,-54.19921875,-34.66796875,-61.5234375,-1.0,1.0,-1.0,0.0,8.m4v,3.0
2024-02-27 11:54:44.695323,1709031284.6953232,-46.38671875,-32.71484375,-22.94921875,-34.66796875,-1.0,1.0,-1.0,0.0,8.m4v,3.0
2024-02-27 11:54:44.699234,1709031284.6992335,-41.015625,-36.1328125,-28.80859375,-30.2734375,-1.0,1.0,-1.0,0.0,8.m4v,3.0
2024-02-27 11:54:44.703139,1709031284.703139,-29.78515625,-34.66796875,-33.69140625,-30.76171875,-1.0,1.0,-1.0,0.0,8.m4v,3.0
2024-02-27 11:54:44.707045,1709031284.7070446,-30.76171875,-34.1796875,-39.0625,-37.59765625,-1.0,1.0,-1.0,0.0,8.m4v,3.0
2024-02-27 11:54:44.710950,1709031284.7109504,-49.31640625,-39.55078125,-48.33984375,-37.109375,-1.0,1.0,-1.0,0.0,8.m4v,3.0
2024-02-27 11:54:44.761728,1709031284.7617278,-37.59765625,-17.08984375,-34.1796875,-29.78515625,-1.0,1.0,-1.0,0.0,8.m4v,3.0
2024-02-27 11:54:44.765634,1709031284.7656336,-38.0859375,-15.625,-41.9921875,-31.73828125,-1.0,1.0,-1.0,0.0,8.m4v,3.0
2024-02-27 11:54:44.769539,1709031284.769539,-41.9921875,-38.57421875,-51.26953125,-32.2265625,-1.0,1.0,-1.0,0.0,8.m4v,3.0
2024-02-27 11:54:44.773445,1709031284.773445,-31.25,-34.66796875,-56.15234375,-19.04296875,-1.0,1.0,-1.0,0.0,8.m4v,3.0
2024-02-27 11:54:44.777350,1709031284.7773504,-31.73828125,-32.2265625,-47.36328125,-13.671875,-1.0,1.0,-1.0,0.0,8.m4v,3.0
2024-02-27 11:54:44.781256,1709031284.781256,-28.3203125,-35.64453125,-20.01953125,-17.578125,-1.0,1.0,-1.0,0.0,8.m4v,3.0
2024-02-27 11:54:44.785161,1709031284.7851615,-24.4140625,-36.1328125,-21.484375,-30.2734375,-1.0,1.0,-1.0,0.0,8.m4v,3.0
2024-02-27 11:54:44.789067,1709031284.7890673,-46.38671875,-44.921875,-50.78125,-49.31640625,-1.0,1.0,-1.0,0.0,8.m4v,3.0
2024-02-27 11:54:44.792977,1709031284.792977,-46.38671875,-62.5,-48.828125,-42.48046875,-1.0,1.0,-1.0,0.0,8.m4v,3.0
2024-02-27 11:54:44.796883,1709031284.7968829,-30.2734375,-53.22265625,-36.62109375,-23.4375,-1.0,1.0,-1.0,0.0,8.m4v,3.0
2024-02-27 11:54:44.800788,1709031284.8007884,-28.80859375,-31.25,-35.64453125,-27.83203125,-1.0,1.0,-1.0,0.0,8.m4v,3.0
2024-02-27 11:54:44.804694,1709031284.8046942,-20.5078125,-20.5078125,-28.80859375,-39.55078125,-1.0,1.0,-1.0,0.0,8.m4v,3.0
2024-02-27 11:54:44.808600,1709031284.8085997,-29.296875,-30.2734375,-36.62109375,-41.50390625,-1.0,1.0,-1.0,0.0,8.m4v,3.0
2024-02-27 11:54:44.812505,1709031284.8125055,-41.9921875,-28.3203125,-33.69140625,-26.85546875,-1.0,1.0,-1.0,0.0,8.m4v,3.0
2024-02-27 11:54:44.816411,1709031284.816411,-37.59765625,-25.87890625,-27.83203125,-9.27734375,-1.0,1.0,-1.0,0.0,8.m4v,3.0
2024-02-27 11:54:44.820317,1709031284.8203166,-32.2265625,-40.0390625,-53.22265625,-24.90234375,-1.0,1.0,-1.0,0.0,8.m4v,3.0
2024-02-27 11:54:44.824222,1709031284.8242223,-29.296875,-48.33984375,-63.4765625,-40.52734375,-1.0,1.0,-1.0,0.0,8.m4v,3.0
2024-02-27 11:54:44.828128,1709031284.828128,-30.2734375,-45.41015625,-43.45703125,-37.59765625,-1.0,1.0,-1.0,0.0,8.m4v,3.0
2024-02-27 11:54:44.832033,1709031284.8320334,-26.3671875,-31.25,-39.0625,-31.25,-1.0,1.0,-1.0,0.0,8.m4v,3.0
2024-02-27 11:54:44.835939,1709031284.8359392,-34.66796875,-42.48046875,-47.8515625,-29.78515625,-1.0,1.0,-1.0,0.0,8.m4v,3.0
2024-02-27 11:54:44.839849,1709031284.8398488,-37.109375,-50.78125,-31.73828125,-24.4140625,-1.0,1.0,-1.0,0.0,8.m4v,3.0
2024-02-27 11:54:44.917967,1709031284.9179666,-38.0859375,-48.33984375,-49.8046875,-17.08984375,-1.0,1.0,-1.0,0.0,8.m4v,3.0
2024-02-27 11:54:44.921872,1709031284.921872,-41.50390625,-36.1328125,-36.1328125,-31.25,-1.0,1.0,-1.0,0.0,8.m4v,3.0
2024-02-27 11:54:44.925778,1709031284.925778,-38.0859375,-20.5078125,-25.390625,-45.41015625,-1.0,1.0,-1.0,0.0,8.m4v,3.0
2024-02-27 11:54:44.929683,1709031284.9296834,-24.90234375,-22.4609375,-24.4140625,-45.41015625,-1.0,1.0,-1.0,0.0,8.m4v,3.0
2024-02-27 11:54:44.933593,1709031284.9335928,-25.87890625,-32.71484375,-36.1328125,-28.3203125,-1.0,1.0,-1.0,0.0,8.m4v,3.0
2024-02-27 11:54:44.937498,1709031284.9374983,-30.2734375,-41.50390625,-51.7578125,-11.23046875,-1.0,1.0,-1.0,0.0,8.m4v,3.0
2024-02-27 11:54:44.941404,1709031284.941404,-31.73828125,-43.9453125,-38.57421875,-19.53125,-1.0,1.0,-1.0,0.0,8.m4v,3.0
2024-02-27 11:54:44.945310,1709031284.9453096,-30.76171875,-33.203125,-16.11328125,-39.0625,-1.0,1.0,-1.0,0.0,8.m4v,3.0
2024-02-27 11:54:44.949215,1709031284.9492152,-32.2265625,-36.62109375,-20.01953125,-51.7578125,-1.0,1.0,-1.0,0.0,8.m4v,3.0
2024-02-27 11:54:44.953121,1709031284.953121,-38.57421875,-24.90234375,-20.99609375,-38.0859375,-1.0,1.0,-1.0,0.0,8.m4v,3.0
2024-02-27 11:54:44.957026,1709031284.9570265,-31.25,-9.27734375,-17.578125,-16.6015625,-1.0,1.0,-1.0,0.0,8.m4v,3.0
2024-02-27 11:54:44.960932,1709031284.960932,-23.92578125,-31.73828125,-29.296875,-32.2265625,-1.0,1.0,-1.0,0.0,8.m4v,3.0
2024-02-27 11:54:44.964838,1709031284.9648378,-33.203125,-48.828125,-35.15625,-52.24609375,-1.0,1.0,-1.0,0.0,8.m4v,3.0
2024-02-27 11:54:44.968743,1709031284.968743,-43.9453125,-31.25,-32.2265625,-52.734375,-1.0,1.0,-1.0,0.0,8.m4v,3.0
2024-02-27 11:54:44.972649,1709031284.9726489,-44.921875,-31.73828125,-30.2734375,-46.38671875,-1.0,1.0,-1.0,0.0,8.m4v,3.0
2024-02-27 11:54:44.976555,1709031284.9765546,-41.015625,-46.38671875,-39.0625,-39.0625,-1.0,1.0,-1.0,0.0,8.m4v,3.0
2024-02-27 11:54:44.980465,1709031284.9804652,-27.83203125,-37.59765625,-55.6640625,-30.76171875,-1.0,1.0,-1.0,0.0,8.m4v,3.0
2024-02-27 11:54:44.984371,1709031284.984371,-17.08984375,-12.20703125,-45.41015625,-29.296875,-1.0,1.0,-1.0,0.0,8.m4v,3.0
2024-02-27 11:54:44.988276,1709031284.9882765,-20.5078125,-22.4609375,-24.4140625,-35.64453125,-1.0,1.0,-1.0,0.0,8.m4v,3.0
2024-02-27 11:54:44.992182,1709031284.992182,-25.390625,-34.1796875,-19.53125,-28.3203125,-1.0,1.0,-1.0,0.0,8.m4v,3.0
2024-02-27 11:54:44.996088,1709031284.9960878,-21.484375,-25.87890625,-29.296875,-9.27734375,-1.0,1.0,-1.0,0.0,8.m4v,3.0
2024-02-27 11:54:44.999993,1709031284.999993,-20.5078125,-23.92578125,-39.55078125,-10.7421875,-1.0,1.0,-1.0,0.0,8.m4v,3.0
2024-02-27 11:54:45.003899,1709031285.0038989,-30.76171875,-46.38671875,-51.26953125,-41.015625,-1.0,1.0,-1.0,0.0,8.m4v,3.0
2024-02-27 11:54:45.007805,1709031285.0078046,-21.97265625,-64.94140625,-43.9453125,-32.71484375,-1.0,1.0,-1.0,0.0,8.m4v,3.0
2024-02-27 11:54:45.011710,1709031285.0117102,-14.16015625,-39.55078125,-17.08984375,-8.30078125,-1.0,1.0,-1.0,0.0,8.m4v,3.0
2024-02-27 11:54:45.015616,1709031285.015616,-41.015625,-21.484375,-25.87890625,-25.87890625,-1.0,1.0,-1.0,0.0,8.m4v,3.0
2024-02-27 11:54:45.019521,1709031285.0195217,-53.7109375,-28.3203125,-37.59765625,-39.0625,-1.0,1.0,-1.0,0.0,8.m4v,3.0
2024-02-27 11:54:45.191389,1709031285.1913888,-21.484375,-14.6484375,-35.64453125,-30.2734375,-1.0,1.0,-1.0,0.0,8.m4v,3.0
2024-02-27 11:54:45.195294,1709031285.1952944,-32.2265625,-41.9921875,-30.2734375,-20.01953125,-1.0,1.0,-1.0,0.0,8.m4v,3.0
2024-02-27 11:54:45.199200,1709031285.1992,-43.9453125,-37.59765625,-16.6015625,-26.85546875,-1.0,1.0,-1.0,0.0,8.m4v,3.0
2024-02-27 11:54:45.203106,1709031285.2031057,-50.78125,-34.1796875,-30.2734375,-55.6640625,-1.0,1.0,-1.0,0.0,8.m4v,3.0
2024-02-27 11:54:45.207011,1709031285.2070112,-41.50390625,-29.296875,-29.296875,-55.6640625,-1.0,1.0,-1.0,0.0,8.m4v,3.0
2024-02-27 11:54:45.210917,1709031285.2109168,-36.62109375,-24.90234375,-42.48046875,-43.45703125,-1.0,1.0,-1.0,0.0,8.m4v,3.0
2024-02-27 11:54:45.214828,1709031285.2148285,-52.734375,-37.59765625,-67.87109375,-41.50390625,-1.0,1.0,-1.0,0.0,8.m4v,3.0
2024-02-27 11:54:45.218734,1709031285.2187338,-44.43359375,-42.48046875,-44.43359375,-30.2734375,-1.0,1.0,-1.0,0.0,8.m4v,3.0
2024-02-27 11:54:45.222639,1709031285.222639,-24.90234375,-47.8515625,-10.7421875,-28.3203125,-1.0,1.0,-1.0,0.0,8.m4v,3.0
2024-02-27 11:54:45.226545,1709031285.226545,-30.76171875,-51.26953125,-9.27734375,-37.59765625,-1.0,1.0,-1.0,0.0,8.m4v,3.0
2024-02-27 11:54:45.230451,1709031285.2304506,-47.8515625,-43.9453125,-27.83203125,-34.1796875,-1.0,1.0,-1.0,0.0,8.m4v,3.0
2024-02-27 11:54:45.234356,1709031285.2343564,-50.29296875,-22.4609375,-29.78515625,-19.53125,-1.0,1.0,-1.0,0.0,8.m4v,3.0
2024-02-27 11:54:45.238262,1709031285.238262,-54.19921875,-17.578125,-32.71484375,-17.578125,-1.0,1.0,-1.0,0.0,8.m4v,3.0
2024-02-27 11:54:45.242167,1709031285.2421677,-61.03515625,-43.45703125,-47.8515625,-42.48046875,-1.0,1.0,-1.0,0.0,8.m4v,3.0
2024-02-27 11:54:45.246073,1709031285.2460732,-51.7578125,-36.62109375,-39.55078125,-52.24609375,-1.0,1.0,-1.0,0.0,8.m4v,3.0
2024-02-27 11:54:45.249979,1709031285.2499788,-38.57421875,-30.76171875,-30.76171875,-38.57421875,-1.0,1.0,-1.0,0.0,8.m4v,3.0
2024-02-27 11:54:45.253884,1709031285.2538843,-28.80859375,-43.9453125,-20.99609375,-18.5546875,-1.0,1.0,-1.0,0.0,8.m4v,3.0
2024-02-27 11:54:45.257790,1709031285.25779,-28.80859375,-52.24609375,-17.08984375,-15.13671875,-1.0,1.0,-1.0,0.0,8.m4v,3.0
2024-02-27 11:54:45.261700,1709031285.2616997,-36.62109375,-54.19921875,-33.203125,-26.85546875,-1.0,1.0,-1.0,0.0,8.m4v,3.0
2024-02-27 11:54:45.265605,1709031285.2656052,-24.90234375,-39.55078125,-34.66796875,-21.484375,-1.0,1.0,-1.0,0.0,8.m4v,3.0
2024-02-27 11:54:45.269511,1709031285.2695107,-22.4609375,-32.2265625,-34.1796875,-6.34765625,-1.0,1.0,-1.0,0.0,8.m4v,3.0
2024-02-27 11:54:45.273417,1709031285.2734165,-40.0390625,-39.55078125,-29.296875,-3.90625,-1.0,1.0,-1.0,0.0,8.m4v,3.0
2024-02-27 11:54:45.277322,1709031285.277322,-45.8984375,-33.203125,-31.73828125,-13.671875,-1.0,1.0,-1.0,0.0,8.m4v,3.0
2024-02-27 11:54:45.281228,1709031285.2812276,-41.50390625,-21.484375,-32.71484375,-30.2734375,-1.0,1.0,-1.0,0.0,8.m4v,3.0
2024-02-27 11:54:45.285133,1709031285.2851334,-46.38671875,-28.3203125,-21.97265625,-41.50390625,-1.0,1.0,-1.0,0.0,8.m4v,3.0
2024-02-27 11:54:45.289039,1709031285.289039,-49.8046875,-52.734375,-24.4140625,-43.9453125,-1.0,1.0,-1.0,0.0,8.m4v,3.0
2024-02-27 11:54:45.292945,1709031285.292945,-42.48046875,-54.19921875,-30.76171875,-38.0859375,-1.0,1.0,-1.0,0.0,8.m4v,3.0
2024-02-27 11:54:45.296850,1709031285.2968502,-41.015625,-39.55078125,-41.015625,-25.390625,-1.0,1.0,-1.0,0.0,8.m4v,3.0
2024-02-27 11:54:45.300756,1709031285.3007555,-36.62109375,-20.01953125,-48.828125,-16.6015625,-1.0,1.0,-1.0,0.0,8.m4v,3.0
2024-02-27 11:54:45.304662,1709031285.3046615,-20.5078125,-12.6953125,-45.41015625,-20.5078125,-1.0,1.0,-1.0,0.0,8.m4v,3.0
2024-02-27 11:54:45.308571,1709031285.3085706,-21.97265625,-43.9453125,-34.1796875,-31.25,-1.0,1.0,-1.0,0.0,8.m4v,3.0
2024-02-27 11:54:45.312476,1709031285.3124764,-30.2734375,-50.29296875,-26.85546875,-26.3671875,-1.0,1.0,-1.0,0.0,8.m4v,3.0
2024-02-27 11:54:45.316382,1709031285.316382,-20.99609375,-24.90234375,-29.296875,-9.765625,-1.0,1.0,-1.0,0.0,8.m4v,3.0
2024-02-27 11:54:45.320288,1709031285.3202877,-23.92578125,-27.83203125,-33.203125,-26.3671875,-1.0,1.0,-1.0,0.0,8.m4v,3.0
2024-02-27 11:54:45.324193,1709031285.3241932,-32.2265625,-29.78515625,-40.0390625,-42.48046875,-1.0,1.0,-1.0,0.0,8.m4v,3.0
2024-02-27 11:54:45.328099,1709031285.3280988,-36.1328125,-13.671875,-41.50390625,-40.0390625,-1.0,1.0,-1.0,0.0,8.m4v,3.0
2024-02-27 11:54:45.332005,1709031285.3320043,-41.50390625,-6.8359375,-37.59765625,-36.62109375,-1.0,1.0,-1.0,0.0,8.m4v,3.0
2024-02-27 11:54:45.335910,1709031285.33591,-35.15625,-29.296875,-29.78515625,-31.25,-1.0,1.0,-1.0,0.0,8.m4v,3.0
2024-02-27 11:54:45.339816,1709031285.3398156,-29.78515625,-48.33984375,-21.97265625,-32.71484375,-1.0,1.0,-1.0,0.0,8.m4v,3.0
2024-02-27 11:54:45.343721,1709031285.3437214,-44.43359375,-43.9453125,-20.99609375,-48.828125,-1.0,1.0,-1.0,0.0,8.m4v,3.0
2024-02-27 11:54:45.347627,1709031285.347627,-59.08203125,-38.57421875,-24.90234375,-55.6640625,-1.0,1.0,-1.0,0.0,8.m4v,3.0
2024-02-27 11:54:45.351532,1709031285.3515325,-52.24609375,-26.85546875,-32.2265625,-48.33984375,-1.0,1.0,-1.0,0.0,8.m4v,3.0
2024-02-27 11:54:45.355443,1709031285.3554432,-36.62109375,-25.390625,-29.78515625,-31.73828125,-1.0,1.0,-1.0,0.0,8.m4v,3.0
2024-02-27 11:54:45.359349,1709031285.3593488,-26.3671875,-29.296875,-34.1796875,-19.53125,-1.0,1.0,-1.0,0.0,8.m4v,3.0
2024-02-27 11:54:45.363255,1709031285.3632543,-23.92578125,-26.85546875,-44.921875,-33.69140625,-1.0,1.0,-1.0,0.0,8.m4v,3.0
2024-02-27 11:54:45.367160,1709031285.36716,-29.78515625,-32.2265625,-46.875,-54.19921875,-1.0,1.0,-1.0,0.0,8.m4v,3.0
2024-02-27 11:54:45.371066,1709031285.3710656,-37.59765625,-35.64453125,-38.57421875,-48.828125,-1.0,1.0,-1.0,0.0,8.m4v,3.0
2024-02-27 11:54:45.374971,1709031285.3749714,-32.71484375,-11.23046875,-21.97265625,-24.4140625,-1.0,1.0,-1.0,0.0,8.m4v,3.0
2024-02-27 11:54:45.378877,1709031285.378877,-32.2265625,-9.27734375,-22.4609375,-22.4609375,-1.0,1.0,-1.0,0.0,8.m4v,3.0
2024-02-27 11:54:45.382783,1709031285.3827827,-31.73828125,-35.64453125,-20.5078125,-38.0859375,-1.0,1.0,-1.0,0.0,8.m4v,3.0
2024-02-27 11:54:45.386688,1709031285.3866882,-26.85546875,-35.64453125,-24.90234375,-46.38671875,-1.0,1.0,-1.0,0.0,8.m4v,3.0
2024-02-27 11:54:45.390594,1709031285.3905938,-37.109375,-26.85546875,-38.0859375,-51.26953125,-1.0,1.0,-1.0,0.0,8.m4v,3.0
2024-02-27 11:54:45.394500,1709031285.3944995,-25.390625,-25.87890625,-42.48046875,-37.109375,-1.0,1.0,-1.0,0.0,8.m4v,3.0
2024-02-27 11:54:45.398405,1709031285.398405,-14.6484375,-26.85546875,-48.828125,-26.85546875,-1.0,1.0,-1.0,0.0,8.m4v,3.0
2024-02-27 11:54:45.402316,1709031285.4023156,-31.73828125,-38.57421875,-41.015625,-30.76171875,-1.0,1.0,-1.0,0.0,8.m4v,3.0
2024-02-27 11:54:45.406221,1709031285.4062212,-27.83203125,-30.76171875,-20.01953125,-38.0859375,-1.0,1.0,-1.0,0.0,8.m4v,3.0
2024-02-27 11:54:45.417938,1709031285.417938,-42.48046875,-25.390625,-36.1328125,-22.94921875,-1.0,1.0,-1.0,0.0,8.m4v,3.0
2024-02-27 11:54:45.429655,1709031285.4296548,-23.92578125,-49.31640625,-42.48046875,-46.875,-1.0,1.0,-1.0,0.0,8.m4v,3.0
2024-02-27 11:54:45.433561,1709031285.4335606,-30.2734375,-44.43359375,-36.1328125,-35.64453125,-1.0,1.0,-1.0,0.0,8.m4v,3.0
2024-02-27 11:54:45.437466,1709031285.437466,-25.390625,-34.66796875,-27.83203125,-22.94921875,-1.0,1.0,-1.0,0.0,8.m4v,3.0
2024-02-27 11:54:45.441372,1709031285.4413717,-18.5546875,-27.83203125,-35.15625,-26.3671875,-1.0,1.0,-1.0,0.0,8.m4v,3.0
2024-02-27 11:54:45.445277,1709031285.4452777,-24.4140625,-29.296875,-32.2265625,-36.62109375,-1.0,1.0,-1.0,0.0,8.m4v,3.0
2024-02-27 11:54:45.449188,1709031285.4491878,-42.48046875,-26.3671875,-25.390625,-40.0390625,-1.0,1.0,-1.0,0.0,8.m4v,3.0
2024-02-27 11:54:45.453093,1709031285.4530933,-52.734375,-35.15625,-36.1328125,-35.64453125,-1.0,1.0,-1.0,0.0,8.m4v,3.0
2024-02-27 11:54:45.456999,1709031285.4569988,-34.66796875,-23.4375,-35.15625,-18.06640625,-1.0,1.0,-1.0,0.0,8.m4v,3.0
2024-02-27 11:54:45.460905,1709031285.4609046,-18.5546875,-15.13671875,-22.94921875,-17.08984375,-1.0,1.0,-1.0,0.0,8.m4v,3.0
2024-02-27 11:54:45.464810,1709031285.46481,-29.78515625,-43.45703125,-33.69140625,-32.2265625,-1.0,1.0,-1.0,0.0,8.m4v,3.0
2024-02-27 11:54:45.468716,1709031285.4687157,-45.41015625,-50.78125,-32.2265625,-32.2265625,-1.0,1.0,-1.0,0.0,8.m4v,3.0
2024-02-27 11:54:45.472621,1709031285.4726214,-44.43359375,-34.1796875,-20.5078125,-20.99609375,-1.0,1.0,-1.0,0.0,8.m4v,3.0
2024-02-27 11:54:45.476527,1709031285.476527,-37.109375,-42.48046875,-32.71484375,-7.32421875,-1.0,1.0,-1.0,0.0,8.m4v,3.0
2024-02-27 11:54:45.480433,1709031285.4804325,-29.78515625,-35.64453125,-40.52734375,-4.8828125,-1.0,1.0,-1.0,0.0,8.m4v,3.0
2024-02-27 11:54:45.484338,1709031285.4843383,-48.33984375,-13.671875,-56.15234375,-35.64453125,-1.0,1.0,-1.0,0.0,8.m4v,3.0
2024-02-27 11:54:45.488244,1709031285.4882438,-51.26953125,-4.39453125,-61.5234375,-52.24609375,-1.0,1.0,-1.0,0.0,8.m4v,3.0
2024-02-27 11:54:45.492150,1709031285.4921496,-42.48046875,-7.8125,-32.2265625,-41.50390625,-1.0,1.0,-1.0,0.0,8.m4v,3.0
2024-02-27 11:54:45.496060,1709031285.4960597,-51.7578125,-27.83203125,-10.7421875,-37.109375,-1.0,1.0,-1.0,0.0,8.m4v,3.0
2024-02-27 11:54:45.499965,1709031285.4999652,-46.38671875,-40.0390625,-16.11328125,-32.71484375,-1.0,1.0,-1.0,0.0,8.m4v,3.0
2024-02-27 11:54:45.503871,1709031285.5038707,-38.0859375,-48.33984375,-20.5078125,-48.828125,-1.0,1.0,-1.0,0.0,8.m4v,3.0
2024-02-27 11:54:45.507776,1709031285.5077765,-42.96875,-66.40625,-27.83203125,-63.4765625,-1.0,1.0,-1.0,0.0,8.m4v,3.0
2024-02-27 11:54:45.511682,1709031285.511682,-41.015625,-53.22265625,-40.0390625,-52.24609375,-1.0,1.0,-1.0,0.0,8.m4v,3.0
2024-02-27 11:54:45.515588,1709031285.5155878,-33.203125,-9.765625,-42.96875,-23.92578125,-1.0,1.0,-1.0,0.0,8.m4v,3.0
2024-02-27 11:54:45.519493,1709031285.519493,-30.2734375,-12.20703125,-41.9921875,-25.87890625,-1.0,1.0,-1.0,0.0,8.m4v,3.0
2024-02-27 11:54:45.523399,1709031285.5233989,-28.3203125,-40.52734375,-46.38671875,-49.8046875,-1.0,1.0,-1.0,0.0,8.m4v,3.0
2024-02-27 11:54:45.527305,1709031285.5273046,-36.62109375,-38.0859375,-51.7578125,-59.08203125,-1.0,1.0,-1.0,0.0,8.m4v,3.0
2024-02-27 11:54:45.531210,1709031285.5312102,-45.8984375,-28.80859375,-42.48046875,-58.59375,-1.0,1.0,-1.0,0.0,8.m4v,3.0
2024-02-27 11:54:45.535116,1709031285.5351157,-36.1328125,-23.92578125,-18.5546875,-44.43359375,-1.0,1.0,-1.0,0.0,8.m4v,3.0
2024-02-27 11:54:45.539021,1709031285.5390215,-38.0859375,-34.1796875,-23.92578125,-46.38671875,-1.0,1.0,-1.0,0.0,8.m4v,3.0
2024-02-27 11:54:45.589803,1709031285.589803,-35.15625,-43.9453125,-13.18359375,-39.55078125,-1.0,1.0,-1.0,0.0,8.m4v,3.0
2024-02-27 11:54:45.593709,1709031285.5937085,-34.1796875,-40.52734375,-27.34375,-38.0859375,-1.0,1.0,-1.0,0.0,8.m4v,3.0
2024-02-27 11:54:45.597614,1709031285.5976143,-18.06640625,-28.80859375,-52.24609375,-31.25,-1.0,1.0,-1.0,0.0,8.m4v,3.0
2024-02-27 11:54:45.601520,1709031285.6015198,-12.20703125,-41.015625,-44.43359375,-41.9921875,-1.0,1.0,-1.0,0.0,8.m4v,3.0
2024-02-27 11:54:45.605425,1709031285.6054254,-4.39453125,-54.6875,-22.4609375,-49.8046875,-1.0,1.0,-1.0,0.0,8.m4v,3.0
2024-02-27 11:54:45.609331,1709031285.6093311,-10.25390625,-32.2265625,-26.3671875,-41.9921875,-1.0,1.0,-1.0,0.0,8.m4v,3.0
2024-02-27 11:54:45.613237,1709031285.613237,-25.87890625,-25.390625,-23.92578125,-33.69140625,-1.0,1.0,-1.0,0.0,8.m4v,3.0
2024-02-27 11:54:45.617142,1709031285.6171422,-31.25,-50.29296875,-37.109375,-26.3671875,-1.0,1.0,-1.0,0.0,8.m4v,3.0
2024-02-27 11:54:45.621048,1709031285.621048,-32.2265625,-55.6640625,-48.33984375,-34.66796875,-1.0,1.0,-1.0,0.0,8.m4v,3.0
2024-02-27 11:54:45.624954,1709031285.6249535,-34.66796875,-48.33984375,-41.015625,-47.8515625,-1.0,1.0,-1.0,0.0,8.m4v,3.0
2024-02-27 11:54:45.628859,1709031285.6288593,-37.109375,-30.2734375,-41.015625,-41.9921875,-1.0,1.0,-1.0,0.0,8.m4v,3.0
2024-02-27 11:54:45.632765,1709031285.6327648,-38.57421875,-17.578125,-34.66796875,-28.3203125,-1.0,1.0,-1.0,0.0,8.m4v,3.0
2024-02-27 11:54:45.636675,1709031285.6366751,-33.203125,-20.99609375,-26.3671875,-15.625,-1.0,1.0,-1.0,0.0,8.m4v,3.0
2024-02-27 11:54:45.640581,1709031285.640581,-33.203125,-28.80859375,-31.25,-20.01953125,-1.0,1.0,-1.0,0.0,8.m4v,3.0
2024-02-27 11:54:45.644486,1709031285.6444864,-22.94921875,-23.92578125,-22.4609375,-23.92578125,-1.0,1.0,-1.0,0.0,8.m4v,3.0
2024-02-27 11:54:45.648392,1709031285.648392,-15.13671875,-23.92578125,-20.5078125,-18.5546875,-1.0,1.0,-1.0,0.0,8.m4v,3.0
2024-02-27 11:54:45.652298,1709031285.6522975,-19.53125,-28.80859375,-25.390625,-7.8125,-1.0,1.0,-1.0,0.0,8.m4v,3.0
2024-02-27 11:54:45.656203,1709031285.6562033,-18.06640625,-21.484375,-15.625,9.765625,-1.0,1.0,-1.0,0.0,8.m4v,3.0
2024-02-27 11:54:45.660109,1709031285.660109,-44.43359375,-46.38671875,-38.57421875,-17.08984375,-1.0,1.0,-1.0,0.0,8.m4v,3.0
2024-02-27 11:54:45.664015,1709031285.6640146,-69.3359375,-62.98828125,-67.3828125,-50.29296875,-1.0,1.0,-1.0,0.0,8.m4v,3.0
2024-02-27 11:54:45.667920,1709031285.66792,-74.21875,-49.8046875,-45.41015625,-51.26953125,-1.0,1.0,-1.0,0.0,8.m4v,3.0
2024-02-27 11:54:45.671826,1709031285.671826,-76.66015625,-40.52734375,-31.25,-50.29296875,-1.0,1.0,-1.0,0.0,8.m4v,3.0
2024-02-27 11:54:45.675731,1709031285.6757314,-64.453125,-30.2734375,-32.71484375,-42.96875,-1.0,1.0,-1.0,0.0,8.m4v,3.0
2024-02-27 11:54:45.679637,1709031285.679637,-54.6875,-28.80859375,-27.83203125,-40.52734375,-1.0,1.0,-1.0,0.0,8.m4v,3.0
2024-02-27 11:54:45.683546,1709031285.6835463,-55.17578125,-19.53125,-25.390625,-50.29296875,-1.0,1.0,-1.0,0.0,8.m4v,3.0
2024-02-27 11:54:45.687452,1709031285.687452,-50.78125,-1.953125,-18.5546875,-44.921875,-1.0,1.0,-1.0,0.0,8.m4v,3.0
2024-02-27 11:54:45.691358,1709031285.6913576,-40.52734375,-7.32421875,-19.53125,-31.73828125,-1.0,1.0,-1.0,0.0,8.m4v,3.0
2024-02-27 11:54:45.695263,1709031285.6952631,-38.0859375,-42.48046875,-35.64453125,-32.2265625,-1.0,1.0,-1.0,0.0,8.m4v,3.0
2024-02-27 11:54:45.699169,1709031285.699169,-30.76171875,-48.33984375,-49.31640625,-36.62109375,-1.0,1.0,-1.0,0.0,8.m4v,3.0
2024-02-27 11:54:45.703074,1709031285.7030745,-17.08984375,-27.83203125,-55.6640625,-31.73828125,-1.0,1.0,-1.0,0.0,8.m4v,3.0
2024-02-27 11:54:45.706980,1709031285.70698,-20.5078125,-27.34375,-63.4765625,-27.83203125,-1.0,1.0,-1.0,0.0,8.m4v,3.0
2024-02-27 11:54:45.710886,1709031285.7108858,-24.4140625,-39.55078125,-48.33984375,-32.2265625,-1.0,1.0,-1.0,0.0,8.m4v,3.0
2024-02-27 11:54:45.714791,1709031285.7147913,-24.90234375,-45.8984375,-23.4375,-32.2265625,-1.0,1.0,-1.0,0.0,8.m4v,3.0
2024-02-27 11:54:45.718697,1709031285.7186968,-18.5546875,-37.59765625,-17.08984375,-32.2265625,-1.0,1.0,-1.0,0.0,8.m4v,3.0
2024-02-27 11:54:45.722603,1709031285.7226026,-6.8359375,-27.83203125,-9.27734375,-37.59765625,-1.0,1.0,-1.0,0.0,8.m4v,3.0
2024-02-27 11:54:45.726508,1709031285.726508,-25.390625,-28.3203125,-15.625,-47.8515625,-1.0,1.0,-1.0,0.0,8.m4v,3.0
2024-02-27 11:54:45.730419,1709031285.730419,-39.0625,-33.203125,-32.2265625,-54.6875,-1.0,1.0,-1.0,0.0,8.m4v,3.0
2024-02-27 11:54:45.734324,1709031285.7343245,-45.41015625,-36.62109375,-34.66796875,-44.43359375,-1.0,1.0,-1.0,0.0,8.m4v,3.0
2024-02-27 11:54:45.738230,1709031285.73823,-44.43359375,-37.59765625,-38.57421875,-32.2265625,-1.0,1.0,-1.0,0.0,8.m4v,3.0
2024-02-27 11:54:45.742136,1709031285.7421358,-28.80859375,-24.90234375,-37.59765625,-34.1796875,-1.0,1.0,-1.0,0.0,8.m4v,3.0
2024-02-27 11:54:45.746041,1709031285.7460413,-33.69140625,-24.4140625,-34.1796875,-41.015625,-1.0,1.0,-1.0,0.0,8.m4v,3.0
2024-02-27 11:54:45.749947,1709031285.749947,-50.29296875,-28.3203125,-32.2265625,-37.59765625,-1.0,1.0,-1.0,0.0,8.m4v,3.0
2024-02-27 11:54:45.753853,1709031285.7538526,-58.10546875,-36.62109375,-27.34375,-25.390625,-1.0,1.0,-1.0,0.0,8.m4v,3.0
2024-02-27 11:54:45.757758,1709031285.757758,-48.33984375,-51.26953125,-45.41015625,-19.04296875,-1.0,1.0,-1.0,0.0,8.m4v,3.0
2024-02-27 11:54:45.761664,1709031285.761664,-30.76171875,-45.41015625,-55.17578125,-29.296875,-1.0,1.0,-1.0,0.0,8.m4v,3.0
2024-02-27 11:54:45.765569,1709031285.7655694,-35.15625,-26.3671875,-36.1328125,-42.48046875,-1.0,1.0,-1.0,0.0,8.m4v,3.0
2024-02-27 11:54:45.769475,1709031285.769475,-40.0390625,-24.4140625,-28.80859375,-48.33984375,-1.0,1.0,-1.0,0.0,8.m4v,3.0
2024-02-27 11:54:45.773381,1709031285.7733808,-38.0859375,-50.78125,-45.41015625,-48.33984375,-1.0,1.0,-1.0,0.0,8.m4v,3.0
2024-02-27 11:54:45.777291,1709031285.777291,-34.66796875,-53.22265625,-42.96875,-37.59765625,-1.0,1.0,-1.0,0.0,8.m4v,3.0
2024-02-27 11:54:45.781197,1709031285.7811968,-18.06640625,-34.1796875,-28.80859375,-39.0625,-1.0,1.0,-1.0,0.0,8.m4v,3.0
2024-02-27 11:54:45.785102,1709031285.7851024,-15.13671875,-37.59765625,-24.4140625,-51.7578125,-1.0,1.0,-1.0,0.0,8.m4v,3.0
2024-02-27 11:54:45.789008,1709031285.789008,-24.4140625,-41.015625,-32.2265625,-51.26953125,-1.0,1.0,-1.0,0.0,8.m4v,3.0
2024-02-27 11:54:45.792914,1709031285.7929137,-14.6484375,-36.1328125,-39.0625,-24.90234375,-1.0,1.0,-1.0,0.0,8.m4v,3.0
2024-02-27 11:54:45.796819,1709031285.7968192,-2.44140625,-23.4375,-35.15625,-0.48828125,-1.0,1.0,-1.0,0.0,8.m4v,3.0
2024-02-27 11:54:45.800725,1709031285.800725,-29.296875,-31.25,-32.71484375,-28.3203125,-1.0,1.0,-1.0,0.0,8.m4v,3.0
2024-02-27 11:54:45.804631,1709031285.8046305,-48.828125,-50.78125,-41.50390625,-50.78125,-1.0,1.0,-1.0,0.0,8.m4v,3.0
2024-02-27 11:54:45.808536,1709031285.808536,-44.43359375,-46.38671875,-52.734375,-44.43359375,-1.0,1.0,-1.0,0.0,8.m4v,3.0
2024-02-27 11:54:45.812442,1709031285.8124418,-43.45703125,-51.26953125,-46.875,-35.64453125,-1.0,1.0,-1.0,0.0,8.m4v,3.0
2024-02-27 11:54:45.816347,1709031285.8163474,-39.0625,-48.33984375,-23.4375,-14.16015625,-1.0,1.0,-1.0,0.0,8.m4v,3.0
2024-02-27 11:54:45.820253,1709031285.820253,-42.96875,-41.015625,-28.80859375,-11.71875,-1.0,1.0,-1.0,0.0,8.m4v,3.0
2024-02-27 11:54:45.824163,1709031285.8241632,-34.66796875,-34.1796875,-24.90234375,-11.23046875,-1.0,1.0,-1.0,0.0,8.m4v,3.0
2024-02-27 11:54:45.828069,1709031285.828069,-29.296875,-36.62109375,-25.390625,-15.625,-1.0,1.0,-1.0,0.0,8.m4v,3.0
2024-02-27 11:54:45.831975,1709031285.8319745,-35.64453125,-43.45703125,-43.45703125,-22.94921875,-1.0,1.0,-1.0,0.0,8.m4v,3.0
2024-02-27 11:54:45.835880,1709031285.83588,-34.1796875,-45.8984375,-30.76171875,-10.7421875,-1.0,1.0,-1.0,0.0,8.m4v,3.0
2024-02-27 11:54:45.839786,1709031285.8397858,-26.85546875,-43.9453125,-19.53125,-6.8359375,-1.0,1.0,-1.0,0.0,8.m4v,3.0
2024-02-27 11:54:45.843691,1709031285.843691,-32.2265625,-33.203125,-43.45703125,-26.3671875,-1.0,1.0,-1.0,0.0,8.m4v,3.0
2024-02-27 11:54:45.847597,1709031285.847597,-42.48046875,-29.296875,-53.22265625,-42.96875,-1.0,1.0,-1.0,0.0,8.m4v,3.0
2024-02-27 11:54:45.851503,1709031285.851503,-44.43359375,-47.8515625,-31.25,-43.9453125,-1.0,1.0,-1.0,0.0,8.m4v,3.0
2024-02-27 11:54:45.855408,1709031285.8554082,-37.59765625,-42.96875,-24.90234375,-37.59765625,-1.0,1.0,-1.0,0.0,8.m4v,3.0
2024-02-27 11:54:45.859314,1709031285.8593135,-20.5078125,-20.99609375,-21.484375,-34.1796875,-1.0,1.0,-1.0,0.0,8.m4v,3.0
2024-02-27 11:54:46.085861,1709031286.0858607,-35.15625,-44.921875,-19.53125,-36.62109375,-1.0,1.0,-1.0,0.0,8.m4v,3.0
2024-02-27 11:54:46.089767,1709031286.0897665,-39.0625,-51.7578125,-28.80859375,-37.59765625,-1.0,1.0,-1.0,0.0,8.m4v,3.0
2024-02-27 11:54:46.093672,1709031286.093672,-39.55078125,-43.45703125,-34.1796875,-27.83203125,-1.0,1.0,-1.0,0.0,8.m4v,3.0
2024-02-27 11:54:46.097578,1709031286.0975776,-31.25,-25.87890625,-56.15234375,-26.3671875,-1.0,1.0,-1.0,0.0,8.m4v,3.0
2024-02-27 11:54:46.101483,1709031286.101483,-32.2265625,-19.53125,-59.5703125,-29.78515625,-1.0,1.0,-1.0,0.0,8.m4v,3.0
2024-02-27 11:54:46.105394,1709031286.105394,-30.76171875,-28.80859375,-33.69140625,-36.62109375,-1.0,1.0,-1.0,0.0,8.m4v,3.0
2024-02-27 11:54:46.109300,1709031286.1092997,-37.109375,-32.71484375,-27.34375,-35.64453125,-1.0,1.0,-1.0,0.0,8.m4v,3.0
2024-02-27 11:54:46.113205,1709031286.1132052,-34.1796875,-22.4609375,-29.296875,-10.25390625,-1.0,1.0,-1.0,0.0,8.m4v,3.0
2024-02-27 11:54:46.117111,1709031286.117111,-21.484375,-15.625,-32.2265625,-5.37109375,-1.0,1.0,-1.0,0.0,8.m4v,3.0
2024-02-27 11:54:46.121017,1709031286.1210165,-32.2265625,-31.25,-19.04296875,-29.296875,-1.0,1.0,-1.0,0.0,8.m4v,3.0
2024-02-27 11:54:46.124922,1709031286.124922,-37.109375,-32.71484375,-25.390625,-38.0859375,-1.0,1.0,-1.0,0.0,8.m4v,3.0
2024-02-27 11:54:46.128828,1709031286.1288278,-35.64453125,-33.69140625,-41.50390625,-41.50390625,-1.0,1.0,-1.0,0.0,8.m4v,3.0
2024-02-27 11:54:46.132733,1709031286.132733,-43.9453125,-43.9453125,-34.1796875,-40.0390625,-1.0,1.0,-1.0,0.0,8.m4v,3.0
2024-02-27 11:54:46.136639,1709031286.136639,-39.55078125,-24.90234375,-37.109375,-31.25,-1.0,1.0,-1.0,0.0,8.m4v,3.0
2024-02-27 11:54:46.140545,1709031286.140545,-20.99609375,-7.32421875,-29.78515625,-35.15625,-1.0,1.0,-1.0,0.0,8.m4v,3.0
2024-02-27 11:54:46.144450,1709031286.1444502,-20.5078125,-11.71875,-31.73828125,-49.8046875,-1.0,1.0,-1.0,0.0,8.m4v,3.0
2024-02-27 11:54:46.148356,1709031286.148356,-34.66796875,-24.4140625,-44.921875,-56.640625,-1.0,1.0,-1.0,0.0,8.m4v,3.0
2024-02-27 11:54:46.152266,1709031286.1522665,-20.99609375,-20.5078125,-29.296875,-41.9921875,-1.0,1.0,-1.0,0.0,8.m4v,3.0
2024-02-27 11:54:46.156172,1709031286.156172,-19.04296875,-13.18359375,-26.85546875,-27.83203125,-1.0,1.0,-1.0,0.0,8.m4v,3.0
2024-02-27 11:54:46.160078,1709031286.1600776,-34.66796875,-24.4140625,-40.0390625,-33.69140625,-1.0,1.0,-1.0,0.0,8.m4v,3.0
2024-02-27 11:54:46.163983,1709031286.163983,-34.66796875,-39.55078125,-35.15625,-42.96875,-1.0,1.0,-1.0,0.0,8.m4v,3.0
2024-02-27 11:54:46.167889,1709031286.1678889,-36.62109375,-36.62109375,-20.99609375,-46.875,-1.0,1.0,-1.0,0.0,8.m4v,3.0
2024-02-27 11:54:46.171794,1709031286.1717944,-42.48046875,-19.53125,-14.16015625,-44.43359375,-1.0,1.0,-1.0,0.0,8.m4v,3.0
2024-02-27 11:54:46.175700,1709031286.1757002,-38.57421875,-10.7421875,-11.23046875,-27.34375,-1.0,1.0,-1.0,0.0,8.m4v,3.0
2024-02-27 11:54:46.179606,1709031286.1796055,-32.71484375,-21.484375,-25.390625,-33.203125,-1.0,1.0,-1.0,0.0,8.m4v,3.0
2024-02-27 11:54:46.183511,1709031286.1835113,-37.109375,-32.2265625,-41.015625,-55.17578125,-1.0,1.0,-1.0,0.0,8.m4v,3.0
2024-02-27 11:54:46.187417,1709031286.187417,-42.48046875,-33.69140625,-44.43359375,-45.41015625,-1.0,1.0,-1.0,0.0,8.m4v,3.0
2024-02-27 11:54:46.191323,1709031286.1913226,-47.8515625,-34.66796875,-51.26953125,-28.3203125,-1.0,1.0,-1.0,0.0,8.m4v,3.0
2024-02-27 11:54:46.195228,1709031286.195228,-50.29296875,-41.50390625,-53.22265625,-27.83203125,-1.0,1.0,-1.0,0.0,8.m4v,3.0
2024-02-27 11:54:46.199139,1709031286.1991386,-37.59765625,-30.2734375,-41.015625,-27.83203125,-1.0,1.0,-1.0,0.0,8.m4v,3.0
2024-02-27 11:54:46.203044,1709031286.2030442,-30.76171875,-30.2734375,-43.45703125,-40.52734375,-1.0,1.0,-1.0,0.0,8.m4v,3.0
2024-02-27 11:54:46.206950,1709031286.2069497,-28.80859375,-49.31640625,-40.0390625,-50.78125,-1.0,1.0,-1.0,0.0,8.m4v,3.0
2024-02-27 11:54:46.210855,1709031286.2108555,-28.80859375,-44.43359375,-18.5546875,-42.96875,-1.0,1.0,-1.0,0.0,8.m4v,3.0
2024-02-27 11:54:46.214761,1709031286.214761,-28.3203125,-37.59765625,-17.578125,-33.69140625,-1.0,1.0,-1.0,0.0,8.m4v,3.0
2024-02-27 11:54:46.218667,1709031286.2186668,-11.23046875,-25.87890625,-19.04296875,-19.53125,-1.0,1.0,-1.0,0.0,8.m4v,3.0
2024-02-27 11:54:46.222572,1709031286.2225723,-9.765625,-13.671875,-22.94921875,-27.83203125,-1.0,1.0,-1.0,0.0,8.m4v,3.0
2024-02-27 11:54:46.226478,1709031286.226478,-20.99609375,-19.04296875,-22.4609375,-48.33984375,-1.0,1.0,-1.0,0.0,8.m4v,3.0
2024-02-27 11:54:46.230384,1709031286.2303836,-23.92578125,-13.671875,-26.3671875,-53.22265625,-1.0,1.0,-1.0,0.0,8.m4v,3.0
2024-02-27 11:54:46.234289,1709031286.2342892,-34.66796875,-29.296875,-41.9921875,-34.66796875,-1.0,1.0,-1.0,0.0,8.m4v,3.0
2024-02-27 11:54:46.238195,1709031286.2381947,-40.52734375,-40.52734375,-57.12890625,-17.08984375,-1.0,1.0,-1.0,0.0,8.m4v,3.0
2024-02-27 11:54:46.242100,1709031286.2421005,-38.57421875,-39.0625,-49.31640625,-27.83203125,-1.0,1.0,-1.0,0.0,8.m4v,3.0
2024-02-27 11:54:46.246011,1709031286.2460103,-35.15625,-48.828125,-30.2734375,-48.828125,-1.0,1.0,-1.0,0.0,8.m4v,3.0
2024-02-27 11:54:46.249916,1709031286.249916,-30.76171875,-39.0625,-19.04296875,-36.62109375,-1.0,1.0,-1.0,0.0,8.m4v,3.0
2024-02-27 11:54:46.253822,1709031286.2538218,-25.87890625,-16.6015625,-14.6484375,-15.625,-1.0,1.0,-1.0,0.0,8.m4v,3.0
2024-02-27 11:54:46.257727,1709031286.2577274,-32.71484375,-30.2734375,-28.80859375,-21.484375,-1.0,1.0,-1.0,0.0,8.m4v,3.0
2024-02-27 11:54:46.261633,1709031286.261633,-32.2265625,-37.109375,-35.64453125,-28.80859375,-1.0,1.0,-1.0,0.0,8.m4v,3.0
2024-02-27 11:54:46.265539,1709031286.2655387,-20.99609375,-15.13671875,-34.1796875,-29.296875,-1.0,1.0,-1.0,0.0,8.m4v,3.0
2024-02-27 11:54:46.269444,1709031286.2694442,-30.76171875,-18.06640625,-41.015625,-34.66796875,-1.0,1.0,-1.0,0.0,8.m4v,3.0
2024-02-27 11:54:46.273350,1709031286.2733498,-31.73828125,-37.59765625,-44.43359375,-41.015625,-1.0,1.0,-1.0,0.0,8.m4v,3.0
2024-02-27 11:54:46.296788,1709031286.296788,-38.0859375,-34.66796875,-15.13671875,-21.97265625,-1.0,1.0,-1.0,0.0,8.m4v,3.0
2024-02-27 11:54:46.304599,1709031286.3045993,-36.1328125,-48.828125,-39.55078125,-51.7578125,-1.0,1.0,-1.0,0.0,8.m4v,3.0
2024-02-27 11:54:46.312411,1709031286.3124106,-28.3203125,-19.53125,-41.015625,-35.15625,-1.0,1.0,-1.0,0.0,8.m4v,3.0
2024-02-27 11:54:46.320222,1709031286.3202217,-34.1796875,-30.76171875,-33.69140625,-20.99609375,-1.0,1.0,-1.0,0.0,8.m4v,3.0
2024-02-27 11:54:46.328033,1709031286.328033,-33.203125,-34.66796875,-50.29296875,-42.48046875,-1.0,1.0,-1.0,0.0,8.m4v,3.0
2024-02-27 11:54:46.433496,1709031286.4334965,-32.2265625,-29.296875,-40.0390625,-28.3203125,-1.0,1.0,-1.0,0.0,8.m4v,3.0
2024-02-27 11:54:46.441308,1709031286.4413078,-22.94921875,-22.94921875,-47.8515625,-32.2265625,-1.0,1.0,-1.0,0.0,8.m4v,3.0
2024-02-27 11:54:46.449119,1709031286.4491189,-35.64453125,-20.01953125,-7.32421875,-38.0859375,-1.0,1.0,-1.0,0.0,8.m4v,3.0
2024-02-27 11:54:46.456930,1709031286.4569302,-36.1328125,-38.0859375,-38.0859375,-30.76171875,-1.0,1.0,-1.0,0.0,8.m4v,3.0
2024-02-27 11:54:46.464741,1709031286.4647417,-24.90234375,-44.921875,-28.3203125,-45.8984375,-1.0,1.0,-1.0,0.0,8.m4v,3.0
2024-02-27 11:54:46.578019,1709031286.5780191,-43.9453125,-34.66796875,-18.5546875,-42.48046875,-1.0,1.0,-1.0,0.0,8.m4v,3.0
2024-02-27 11:54:46.585830,1709031286.5858305,-22.4609375,-36.1328125,-14.16015625,-46.38671875,-1.0,1.0,-1.0,0.0,8.m4v,3.0
2024-02-27 11:54:46.593642,1709031286.5936415,-35.15625,-26.85546875,-29.78515625,-21.97265625,-1.0,1.0,-1.0,0.0,8.m4v,3.0
2024-02-27 11:54:46.601453,1709031286.6014528,-40.0390625,-62.01171875,-38.57421875,-30.76171875,-1.0,1.0,-1.0,0.0,8.m4v,3.0
2024-02-27 11:54:46.609264,1709031286.609264,-39.55078125,-53.22265625,-28.3203125,-48.828125,-1.0,1.0,-1.0,0.0,8.m4v,3.0
2024-02-27 11:54:46.617075,1709031286.6170754,-44.43359375,-31.25,-31.25,-20.01953125,-1.0,1.0,-1.0,0.0,8.m4v,3.0
2024-02-27 11:54:46.624891,1709031286.624891,-19.04296875,-27.34375,-47.36328125,-34.1796875,-1.0,1.0,-1.0,0.0,8.m4v,3.0
2024-02-27 11:54:46.632702,1709031286.6327024,-26.3671875,-44.43359375,-26.3671875,-25.87890625,-1.0,1.0,-1.0,0.0,8.m4v,3.0
2024-02-27 11:54:46.640514,1709031286.6405137,-29.78515625,-33.69140625,-25.87890625,-43.45703125,-1.0,1.0,-1.0,0.0,8.m4v,3.0
2024-02-27 11:54:46.648325,1709031286.6483247,-52.24609375,-53.7109375,-34.66796875,-61.5234375,-1.0,1.0,-1.0,0.0,8.m4v,3.0
2024-02-27 11:54:46.656136,1709031286.656136,-51.26953125,-52.734375,-36.1328125,-27.83203125,-1.0,1.0,-1.0,0.0,8.m4v,3.0
2024-02-27 11:54:46.663947,1709031286.663947,-35.64453125,-32.71484375,-33.69140625,-40.0390625,-1.0,1.0,-1.0,0.0,8.m4v,3.0
2024-02-27 11:54:46.671763,1709031286.6717627,-36.1328125,-29.78515625,-41.015625,-28.80859375,-1.0,1.0,-1.0,0.0,8.m4v,3.0
2024-02-27 11:54:46.679574,1709031286.679574,-32.2265625,-20.5078125,-52.734375,-18.5546875,-1.0,1.0,-1.0,0.0,8.m4v,3.0
2024-02-27 11:54:46.687385,1709031286.687385,-22.4609375,-21.484375,-36.1328125,-24.90234375,-1.0,1.0,-1.0,0.0,8.m4v,3.0
2024-02-27 11:54:46.695197,1709031286.6951966,-42.96875,-45.41015625,-14.6484375,-29.296875,-1.0,1.0,-1.0,0.0,8.m4v,3.0
2024-02-27 11:54:46.703008,1709031286.7030077,-32.2265625,-35.15625,-19.04296875,-35.64453125,-1.0,1.0,-1.0,0.0,8.m4v,3.0
2024-02-27 11:54:46.710819,1709031286.710819,-52.734375,-26.3671875,-35.64453125,-33.69140625,-1.0,1.0,-1.0,0.0,8.m4v,3.0
2024-02-27 11:54:46.890495,1709031286.8904946,-40.52734375,-33.203125,-35.15625,-52.24609375,-1.0,1.0,-1.0,0.0,8.m4v,3.0
2024-02-27 11:54:46.894400,1709031286.8944,-29.78515625,-50.78125,-32.71484375,-25.87890625,-1.0,1.0,-1.0,0.0,8.m4v,3.0
2024-02-27 11:54:46.898306,1709031286.8983057,-16.6015625,-45.41015625,-30.2734375,-7.32421875,-1.0,1.0,-1.0,0.0,8.m4v,3.0
2024-02-27 11:54:46.902216,1709031286.9022162,-17.08984375,-30.76171875,-41.9921875,-14.16015625,-1.0,1.0,-1.0,0.0,8.m4v,3.0
2024-02-27 11:54:46.906122,1709031286.906122,-28.3203125,-22.94921875,-48.33984375,-25.87890625,-1.0,1.0,-1.0,0.0,8.m4v,3.0
2024-02-27 11:54:46.910028,1709031286.9100275,-31.73828125,-18.06640625,-34.66796875,-27.34375,-1.0,1.0,-1.0,0.0,8.m4v,3.0
2024-02-27 11:54:46.913933,1709031286.913933,-22.94921875,-15.625,-19.53125,-14.16015625,-1.0,1.0,-1.0,0.0,8.m4v,3.0
2024-02-27 11:54:46.917839,1709031286.9178388,-17.08984375,-30.2734375,-29.78515625,-3.90625,-1.0,1.0,-1.0,0.0,8.m4v,3.0
2024-02-27 11:54:46.921744,1709031286.9217443,-30.2734375,-36.1328125,-36.1328125,-16.11328125,-1.0,1.0,-1.0,0.0,8.m4v,3.0
2024-02-27 11:54:46.925650,1709031286.92565,-42.96875,-44.921875,-26.3671875,-40.52734375,-1.0,1.0,-1.0,0.0,8.m4v,3.0
2024-02-27 11:54:46.929556,1709031286.9295557,-45.8984375,-54.6875,-20.99609375,-54.6875,-1.0,1.0,-1.0,0.0,8.m4v,3.0
2024-02-27 11:54:46.933461,1709031286.9334612,-48.33984375,-39.55078125,-27.83203125,-37.59765625,-1.0,1.0,-1.0,0.0,8.m4v,3.0
2024-02-27 11:54:46.937367,1709031286.937367,-41.9921875,-20.01953125,-27.83203125,-14.6484375,-1.0,1.0,-1.0,0.0,8.m4v,3.0
2024-02-27 11:54:46.941272,1709031286.9412725,-43.45703125,-46.38671875,-28.3203125,-31.25,-1.0,1.0,-1.0,0.0,8.m4v,3.0
2024-02-27 11:54:46.945178,1709031286.945178,-37.59765625,-56.640625,-45.8984375,-45.8984375,-1.0,1.0,-1.0,0.0,8.m4v,3.0
2024-02-27 11:54:46.949089,1709031286.9490886,-32.2265625,-22.94921875,-44.921875,-31.25,-1.0,1.0,-1.0,0.0,8.m4v,3.0
2024-02-27 11:54:46.952994,1709031286.952994,-49.31640625,-25.87890625,-29.296875,-26.3671875,-1.0,1.0,-1.0,0.0,8.m4v,3.0
2024-02-27 11:54:46.956900,1709031286.9568996,-61.5234375,-47.36328125,-28.80859375,-36.62109375,-1.0,1.0,-1.0,0.0,8.m4v,3.0
2024-02-27 11:54:46.960805,1709031286.9608054,-50.29296875,-44.43359375,-27.34375,-48.33984375,-1.0,1.0,-1.0,0.0,8.m4v,3.0
2024-02-27 11:54:46.964711,1709031286.964711,-38.0859375,-22.94921875,-25.87890625,-50.78125,-1.0,1.0,-1.0,0.0,8.m4v,3.0
2024-02-27 11:54:46.968617,1709031286.9686167,-36.1328125,-17.08984375,-44.43359375,-51.7578125,-1.0,1.0,-1.0,0.0,8.m4v,3.0
2024-02-27 11:54:46.972522,1709031286.9725225,-30.76171875,-30.76171875,-53.7109375,-43.45703125,-1.0,1.0,-1.0,0.0,8.m4v,3.0
2024-02-27 11:54:46.976428,1709031286.9764278,-34.1796875,-44.43359375,-54.6875,-36.1328125,-1.0,1.0,-1.0,0.0,8.m4v,3.0
2024-02-27 11:54:46.980334,1709031286.9803336,-35.15625,-57.12890625,-57.6171875,-47.8515625,-1.0,1.0,-1.0,0.0,8.m4v,3.0
2024-02-27 11:54:46.984239,1709031286.984239,-29.296875,-63.4765625,-41.015625,-53.22265625,-1.0,1.0,-1.0,0.0,8.m4v,3.0
2024-02-27 11:54:46.988145,1709031286.9881446,-37.109375,-58.10546875,-32.71484375,-63.4765625,-1.0,1.0,-1.0,0.0,8.m4v,3.0
2024-02-27 11:54:46.992050,1709031286.9920504,-45.41015625,-37.109375,-28.3203125,-64.453125,-1.0,1.0,-1.0,0.0,8.m4v,3.0
2024-02-27 11:54:46.995960,1709031286.9959605,-44.921875,-27.34375,-20.01953125,-50.29296875,-1.0,1.0,-1.0,0.0,8.m4v,3.0
2024-02-27 11:54:46.999866,1709031286.9998662,-43.45703125,-19.53125,-23.92578125,-45.8984375,-1.0,1.0,-1.0,0.0,8.m4v,3.0
2024-02-27 11:54:47.003772,1709031287.0037718,-36.62109375,-13.671875,-36.62109375,-53.22265625,-1.0,1.0,-1.0,0.0,8.m4v,3.0
2024-02-27 11:54:47.007677,1709031287.0076773,-32.2265625,-16.6015625,-39.0625,-49.8046875,-1.0,1.0,-1.0,0.0,8.m4v,3.0
2024-02-27 11:54:47.011583,1709031287.011583,-42.48046875,-31.25,-45.8984375,-33.69140625,-1.0,1.0,-1.0,0.0,8.m4v,3.0
2024-02-27 11:54:47.015489,1709031287.0154886,-48.828125,-40.0390625,-65.4296875,-30.2734375,-1.0,1.0,-1.0,0.0,8.m4v,3.0
2024-02-27 11:54:47.019394,1709031287.0193942,-47.36328125,-43.45703125,-60.546875,-38.0859375,-1.0,1.0,-1.0,0.0,8.m4v,3.0
2024-02-27 11:54:47.023300,1709031287.0233,-39.55078125,-57.12890625,-29.78515625,-49.31640625,-1.0,1.0,-1.0,0.0,8.m4v,3.0
2024-02-27 11:54:47.027205,1709031287.0272057,-38.0859375,-58.59375,-11.71875,-50.29296875,-1.0,1.0,-1.0,0.0,8.m4v,3.0
2024-02-27 11:54:47.031111,1709031287.031111,-43.45703125,-41.9921875,-13.18359375,-33.69140625,-1.0,1.0,-1.0,0.0,8.m4v,3.0
2024-02-27 11:54:47.035017,1709031287.0350168,-34.1796875,-21.97265625,-23.4375,-19.53125,-1.0,1.0,-1.0,0.0,8.m4v,3.0
2024-02-27 11:54:47.038922,1709031287.0389223,-18.5546875,-27.83203125,-31.25,-26.3671875,-1.0,1.0,-1.0,0.0,8.m4v,3.0
2024-02-27 11:54:47.042832,1709031287.0428324,-7.8125,-47.8515625,-26.3671875,-32.71484375,-1.0,1.0,-1.0,0.0,8.m4v,3.0
2024-02-27 11:54:47.046738,1709031287.046738,-21.97265625,-42.96875,-36.62109375,-34.66796875,-1.0,1.0,-1.0,0.0,8.m4v,3.0
2024-02-27 11:54:47.050643,1709031287.0506434,-41.50390625,-26.3671875,-47.36328125,-30.76171875,-1.0,1.0,-1.0,0.0,8.m4v,3.0
2024-02-27 11:54:47.054549,1709031287.0545492,-40.0390625,-21.484375,-42.48046875,-21.97265625,-1.0,1.0,-1.0,0.0,8.m4v,3.0
2024-02-27 11:54:47.058455,1709031287.0584548,-38.57421875,-34.1796875,-34.66796875,-29.78515625,-1.0,1.0,-1.0,0.0,8.m4v,3.0
2024-02-27 11:54:47.062360,1709031287.0623603,-37.109375,-28.80859375,-29.78515625,-44.43359375,-1.0,1.0,-1.0,0.0,8.m4v,3.0
2024-02-27 11:54:47.066266,1709031287.066266,-39.55078125,-31.25,-36.62109375,-60.05859375,-1.0,1.0,-1.0,0.0,8.m4v,3.0
2024-02-27 11:54:47.070172,1709031287.0701716,-39.0625,-33.69140625,-38.0859375,-53.7109375,-1.0,1.0,-1.0,0.0,8.m4v,3.0
2024-02-27 11:54:47.074077,1709031287.0740774,-33.203125,-24.4140625,-42.48046875,-34.1796875,-1.0,1.0,-1.0,0.0,8.m4v,3.0
2024-02-27 11:54:47.077983,1709031287.077983,-24.90234375,-32.2265625,-41.015625,-26.3671875,-1.0,1.0,-1.0,0.0,8.m4v,3.0
2024-02-27 11:54:47.081888,1709031287.0818884,-20.5078125,-39.55078125,-32.2265625,-39.55078125,-1.0,1.0,-1.0,0.0,8.m4v,3.0
2024-02-27 11:54:47.085794,1709031287.0857942,-25.390625,-47.8515625,-31.25,-55.6640625,-1.0,1.0,-1.0,0.0,8.m4v,3.0
2024-02-27 11:54:47.089704,1709031287.0897038,-30.2734375,-52.734375,-40.0390625,-55.6640625,-1.0,1.0,-1.0,0.0,8.m4v,3.0
2024-02-27 11:54:47.093610,1709031287.0936096,-35.15625,-38.0859375,-34.1796875,-31.73828125,-1.0,1.0,-1.0,0.0,8.m4v,3.0
2024-02-27 11:54:47.097515,1709031287.097515,-41.50390625,-21.97265625,-21.484375,-18.06640625,-1.0,1.0,-1.0,0.0,8.m4v,3.0
2024-02-27 11:54:47.101421,1709031287.1014206,-41.015625,-32.71484375,-28.80859375,-28.80859375,-1.0,1.0,-1.0,0.0,8.m4v,3.0
2024-02-27 11:54:47.105326,1709031287.1053264,-34.66796875,-39.55078125,-36.1328125,-33.69140625,-1.0,1.0,-1.0,0.0,8.m4v,3.0
