Timestamp,Timestamp_UNIX,TP9,AF7,AF8,TP10,Valence,Arousal,Dominace,Viewed,Video,Participant
2024-02-27 10:02:24.001280,1709024544.0012798,-47.8515625,-53.22265625,-50.78125,-53.22265625,-1.0,1.0,1.0,0.0,9.m4v,1.0
2024-02-27 10:02:24.005185,1709024544.005185,-23.4375,-10.25390625,-28.3203125,-28.80859375,-1.0,1.0,1.0,0.0,9.m4v,1.0
2024-02-27 10:02:24.009090,1709024544.0090902,-3.90625,0.0,-8.30078125,-6.8359375,-1.0,1.0,1.0,0.0,9.m4v,1.0
2024-02-27 10:02:24.012995,1709024544.0129955,-29.296875,-43.45703125,-32.71484375,-34.66796875,-1.0,1.0,1.0,0.0,9.m4v,1.0
2024-02-27 10:02:24.016901,1709024544.0169008,-39.55078125,-59.5703125,-61.03515625,-48.33984375,-1.0,1.0,1.0,0.0,9.m4v,1.0
2024-02-27 10:02:24.020806,1709024544.0208063,-16.11328125,-33.203125,-43.9453125,-21.484375,-1.0,1.0,1.0,0.0,9.m4v,1.0
2024-02-27 10:02:24.024712,1709024544.0247116,2.44140625,-4.39453125,-14.16015625,-7.32421875,-1.0,1.0,1.0,0.0,9.m4v,1.0
2024-02-27 10:02:24.028617,1709024544.028617,-18.06640625,-25.87890625,-31.25,-36.1328125,-1.0,1.0,1.0,0.0,9.m4v,1.0
2024-02-27 10:02:24.032522,1709024544.0325222,-37.59765625,-53.7109375,-47.8515625,-55.17578125,-1.0,1.0,1.0,0.0,9.m4v,1.0
2024-02-27 10:02:24.036427,1709024544.0364275,-29.296875,-40.52734375,-32.2265625,-41.015625,-1.0,1.0,1.0,0.0,9.m4v,1.0
2024-02-27 10:02:24.040333,1709024544.0403326,-23.92578125,-24.4140625,-24.4140625,-32.2265625,-1.0,1.0,1.0,0.0,9.m4v,1.0
2024-02-27 10:02:24.044238,1709024544.044238,-10.25390625,-10.7421875,-18.5546875,-24.90234375,-1.0,1.0,1.0,0.0,9.m4v,1.0
2024-02-27 10:02:24.048143,1709024544.0481431,7.8125,-29.296875,-2.9296875,-7.8125,-1.0,1.0,1.0,0.0,9.m4v,1.0
2024-02-27 10:02:24.052048,1709024544.0520484,0.0,-74.21875,-28.3203125,-13.671875,-1.0,1.0,1.0,0.0,9.m4v,1.0
2024-02-27 10:02:24.055954,1709024544.0559535,-14.6484375,-61.5234375,-56.640625,-18.06640625,-1.0,1.0,1.0,0.0,9.m4v,1.0
2024-02-27 10:02:24.059859,1709024544.059859,-14.16015625,-3.41796875,-41.50390625,-19.53125,-1.0,1.0,1.0,0.0,9.m4v,1.0
2024-02-27 10:02:24.063764,1709024544.063764,-25.87890625,-4.8828125,-41.9921875,-37.109375,-1.0,1.0,1.0,0.0,9.m4v,1.0
2024-02-27 10:02:24.067670,1709024544.06767,-39.55078125,-36.1328125,-43.9453125,-43.9453125,-1.0,1.0,1.0,0.0,9.m4v,1.0
2024-02-27 10:02:24.071575,1709024544.0715754,-20.5078125,-28.3203125,-39.0625,-34.66796875,-1.0,1.0,1.0,0.0,9.m4v,1.0
2024-02-27 10:02:24.075481,1709024544.0754807,-19.04296875,-32.2265625,-29.296875,-28.3203125,-1.0,1.0,1.0,0.0,9.m4v,1.0
2024-02-27 10:02:24.079386,1709024544.079386,-38.0859375,-54.19921875,-29.78515625,-34.66796875,-1.0,1.0,1.0,0.0,9.m4v,1.0
2024-02-27 10:02:24.083291,1709024544.083291,-36.1328125,-49.31640625,-36.62109375,-40.52734375,-1.0,1.0,1.0,0.0,9.m4v,1.0
2024-02-27 10:02:24.087196,1709024544.0871964,-16.6015625,-41.50390625,-28.3203125,-31.73828125,-1.0,1.0,1.0,0.0,9.m4v,1.0
2024-02-27 10:02:24.091102,1709024544.0911016,-15.625,-54.6875,-36.1328125,-31.25,-1.0,1.0,1.0,0.0,9.m4v,1.0
2024-02-27 10:02:24.095007,1709024544.095007,-37.59765625,-66.89453125,-50.78125,-40.52734375,-1.0,1.0,1.0,0.0,9.m4v,1.0
2024-02-27 10:02:24.098912,1709024544.0989122,-35.15625,-44.43359375,-28.3203125,-21.484375,-1.0,1.0,1.0,0.0,9.m4v,1.0
2024-02-27 10:02:24.102817,1709024544.1028173,-27.34375,-19.53125,-6.34765625,-15.13671875,-1.0,1.0,1.0,0.0,9.m4v,1.0
2024-02-27 10:02:24.106723,1709024544.1067226,-9.765625,5.859375,-6.8359375,-9.27734375,-1.0,1.0,1.0,0.0,9.m4v,1.0
2024-02-27 10:02:24.110628,1709024544.110628,-23.92578125,-9.27734375,-25.87890625,-13.18359375,-1.0,1.0,1.0,0.0,9.m4v,1.0
2024-02-27 10:02:24.114536,1709024544.114536,-57.6171875,-61.5234375,-52.734375,-42.96875,-1.0,1.0,1.0,0.0,9.m4v,1.0
2024-02-27 10:02:24.118441,1709024544.118441,-56.15234375,-53.7109375,-54.19921875,-55.6640625,-1.0,1.0,1.0,0.0,9.m4v,1.0
2024-02-27 10:02:24.122347,1709024544.1223466,-35.64453125,-27.83203125,-46.38671875,-43.45703125,-1.0,1.0,1.0,0.0,9.m4v,1.0
2024-02-27 10:02:24.126252,1709024544.1262517,-17.578125,-44.921875,-39.55078125,-19.04296875,-1.0,1.0,1.0,0.0,9.m4v,1.0
2024-02-27 10:02:24.130157,1709024544.130157,-36.62109375,-69.3359375,-44.921875,-37.59765625,-1.0,1.0,1.0,0.0,9.m4v,1.0
2024-02-27 10:02:24.134062,1709024544.1340623,-36.1328125,-40.0390625,-34.1796875,-41.9921875,-1.0,1.0,1.0,0.0,9.m4v,1.0
2024-02-27 10:02:24.137968,1709024544.1379676,-25.390625,-32.2265625,-27.34375,-23.92578125,-1.0,1.0,1.0,0.0,9.m4v,1.0
2024-02-27 10:02:24.141873,1709024544.141873,-32.2265625,-38.57421875,-6.34765625,-26.3671875,-1.0,1.0,1.0,0.0,9.m4v,1.0
2024-02-27 10:02:24.145778,1709024544.145778,-21.484375,-25.390625,0.48828125,-29.78515625,-1.0,1.0,1.0,0.0,9.m4v,1.0
2024-02-27 10:02:24.149683,1709024544.1496832,-2.9296875,-13.671875,-18.06640625,-6.34765625,-1.0,1.0,1.0,0.0,9.m4v,1.0
2024-02-27 10:02:24.153589,1709024544.1535883,-15.13671875,-14.6484375,-30.2734375,-12.6953125,-1.0,1.0,1.0,0.0,9.m4v,1.0
2024-02-27 10:02:24.157494,1709024544.1574938,-51.7578125,-50.78125,-49.31640625,-60.546875,-1.0,1.0,1.0,0.0,9.m4v,1.0
2024-02-27 10:02:24.161402,1709024544.1614015,-51.7578125,-73.73046875,-56.15234375,-71.2890625,-1.0,1.0,1.0,0.0,9.m4v,1.0
2024-02-27 10:02:24.165307,1709024544.1653068,-46.875,-51.26953125,-59.08203125,-56.640625,-1.0,1.0,1.0,0.0,9.m4v,1.0
2024-02-27 10:02:24.169212,1709024544.169212,-41.50390625,-38.57421875,-48.828125,-49.8046875,-1.0,1.0,1.0,0.0,9.m4v,1.0
2024-02-27 10:02:24.169212,1709024544.169212,-41.50390625,-38.57421875,-48.828125,-49.8046875,-1.0,1.0,1.0,0.0,9.m4v,1.0
2024-02-27 10:02:24.173117,1709024544.1731174,-16.6015625,-47.8515625,-31.25,-26.3671875,-1.0,1.0,1.0,0.0,9.m4v,1.0
2024-02-27 10:02:24.173117,1709024544.1731174,-16.6015625,-47.8515625,-31.25,-26.3671875,-1.0,1.0,1.0,0.0,9.m4v,1.0
2024-02-27 10:02:24.177023,1709024544.1770227,-20.5078125,-34.1796875,-23.92578125,-19.04296875,-1.0,1.0,1.0,0.0,9.m4v,1.0
2024-02-27 10:02:24.177023,1709024544.1770227,-20.5078125,-34.1796875,-23.92578125,-19.04296875,-1.0,1.0,1.0,0.0,9.m4v,1.0
2024-02-27 10:02:24.180928,1709024544.1809278,-28.3203125,-21.97265625,-27.34375,-36.1328125,-1.0,1.0,1.0,0.0,9.m4v,1.0
2024-02-27 10:02:24.180928,1709024544.1809278,-28.3203125,-21.97265625,-27.34375,-36.1328125,-1.0,1.0,1.0,0.0,9.m4v,1.0
2024-02-27 10:02:24.184833,1709024544.184833,-34.66796875,-29.296875,-26.85546875,-36.1328125,-1.0,1.0,1.0,0.0,9.m4v,1.0
2024-02-27 10:02:24.184833,1709024544.184833,-34.66796875,-29.296875,-26.85546875,-36.1328125,-1.0,1.0,1.0,0.0,9.m4v,1.0
2024-02-27 10:02:24.188738,1709024544.1887383,-25.390625,-20.01953125,-21.97265625,-18.5546875,-1.0,1.0,1.0,0.0,9.m4v,1.0
2024-02-27 10:02:24.188738,1709024544.1887383,-25.390625,-20.01953125,-21.97265625,-18.5546875,-1.0,1.0,1.0,0.0,9.m4v,1.0
2024-02-27 10:02:24.192644,1709024544.1926436,-19.04296875,-22.4609375,-33.203125,-15.13671875,-1.0,1.0,1.0,0.0,9.m4v,1.0
2024-02-27 10:02:24.192644,1709024544.1926436,-19.04296875,-22.4609375,-33.203125,-15.13671875,-1.0,1.0,1.0,0.0,9.m4v,1.0
2024-02-27 10:02:24.196549,1709024544.196549,-22.94921875,-48.33984375,-41.015625,-21.484375,-1.0,1.0,1.0,0.0,9.m4v,1.0
2024-02-27 10:02:24.196549,1709024544.196549,-22.94921875,-48.33984375,-41.015625,-21.484375,-1.0,1.0,1.0,0.0,9.m4v,1.0
2024-02-27 10:02:24.200454,1709024544.2004542,-11.23046875,-29.78515625,-20.5078125,-11.71875,-1.0,1.0,1.0,0.0,9.m4v,1.0
2024-02-27 10:02:24.200454,1709024544.2004542,-11.23046875,-29.78515625,-20.5078125,-11.71875,-1.0,1.0,1.0,0.0,9.m4v,1.0
2024-02-27 10:02:24.204359,1709024544.2043593,5.37109375,4.8828125,0.0,3.90625,-1.0,1.0,1.0,0.0,9.m4v,1.0
2024-02-27 10:02:24.204359,1709024544.2043593,5.37109375,4.8828125,0.0,3.90625,-1.0,1.0,1.0,0.0,9.m4v,1.0
2024-02-27 10:02:24.208267,1709024544.2082667,-20.99609375,-40.0390625,-32.2265625,-25.87890625,-1.0,1.0,1.0,0.0,9.m4v,1.0
2024-02-27 10:02:24.208267,1709024544.2082667,-20.99609375,-40.0390625,-32.2265625,-25.87890625,-1.0,1.0,1.0,0.0,9.m4v,1.0
2024-02-27 10:02:24.212172,1709024544.212172,-44.921875,-72.265625,-60.546875,-69.82421875,-1.0,1.0,1.0,0.0,9.m4v,1.0
2024-02-27 10:02:24.212172,1709024544.212172,-44.921875,-72.265625,-60.546875,-69.82421875,-1.0,1.0,1.0,0.0,9.m4v,1.0
2024-02-27 10:02:24.216077,1709024544.216077,-46.38671875,-59.5703125,-52.24609375,-69.82421875,-1.0,1.0,1.0,0.0,9.m4v,1.0
2024-02-27 10:02:24.216077,1709024544.216077,-46.38671875,-59.5703125,-52.24609375,-69.82421875,-1.0,1.0,1.0,0.0,9.m4v,1.0
2024-02-27 10:02:24.219982,1709024544.2199824,-36.62109375,-31.25,-42.96875,-44.921875,-1.0,1.0,1.0,0.0,9.m4v,1.0
2024-02-27 10:02:24.219982,1709024544.2199824,-36.62109375,-31.25,-42.96875,-44.921875,-1.0,1.0,1.0,0.0,9.m4v,1.0
2024-02-27 10:02:24.223888,1709024544.2238877,-22.4609375,-4.39453125,-25.390625,-30.2734375,-1.0,1.0,1.0,0.0,9.m4v,1.0
2024-02-27 10:02:24.223888,1709024544.2238877,-22.4609375,-4.39453125,-25.390625,-30.2734375,-1.0,1.0,1.0,0.0,9.m4v,1.0
2024-02-27 10:02:24.227793,1709024544.227793,-22.4609375,-2.44140625,-17.578125,-19.04296875,-1.0,1.0,1.0,0.0,9.m4v,1.0
2024-02-27 10:02:24.227793,1709024544.227793,-22.4609375,-2.44140625,-17.578125,-19.04296875,-1.0,1.0,1.0,0.0,9.m4v,1.0
2024-02-27 10:02:24.231698,1709024544.2316985,-25.87890625,-4.8828125,-41.50390625,-33.69140625,-1.0,1.0,1.0,0.0,9.m4v,1.0
2024-02-27 10:02:24.231698,1709024544.2316985,-25.87890625,-4.8828125,-41.50390625,-33.69140625,-1.0,1.0,1.0,0.0,9.m4v,1.0
2024-02-27 10:02:24.235604,1709024544.2356036,-34.1796875,-20.01953125,-44.921875,-46.38671875,-1.0,1.0,1.0,0.0,9.m4v,1.0
2024-02-27 10:02:24.235604,1709024544.2356036,-34.1796875,-20.01953125,-44.921875,-46.38671875,-1.0,1.0,1.0,0.0,9.m4v,1.0
2024-02-27 10:02:24.239509,1709024544.2395086,-59.08203125,-57.6171875,-35.15625,-60.05859375,-1.0,1.0,1.0,0.0,9.m4v,1.0
2024-02-27 10:02:24.239509,1709024544.2395086,-59.08203125,-57.6171875,-35.15625,-60.05859375,-1.0,1.0,1.0,0.0,9.m4v,1.0
2024-02-27 10:02:24.243414,1709024544.243414,-60.546875,-57.6171875,-20.99609375,-66.89453125,-1.0,1.0,1.0,0.0,9.m4v,1.0
2024-02-27 10:02:24.243414,1709024544.243414,-60.546875,-57.6171875,-20.99609375,-66.89453125,-1.0,1.0,1.0,0.0,9.m4v,1.0
2024-02-27 10:02:24.247319,1709024544.2473192,-38.0859375,-35.15625,-20.01953125,-51.7578125,-1.0,1.0,1.0,0.0,9.m4v,1.0
2024-02-27 10:02:24.247319,1709024544.2473192,-38.0859375,-35.15625,-20.01953125,-51.7578125,-1.0,1.0,1.0,0.0,9.m4v,1.0
2024-02-27 10:02:24.251225,1709024544.2512245,-37.109375,-39.55078125,-45.41015625,-58.10546875,-1.0,1.0,1.0,0.0,9.m4v,1.0
2024-02-27 10:02:24.251225,1709024544.2512245,-37.109375,-39.55078125,-45.41015625,-58.10546875,-1.0,1.0,1.0,0.0,9.m4v,1.0
2024-02-27 10:02:24.255131,1709024544.2551315,-32.2265625,-32.2265625,-49.8046875,-48.33984375,-1.0,1.0,1.0,0.0,9.m4v,1.0
2024-02-27 10:02:24.255131,1709024544.2551315,-32.2265625,-32.2265625,-49.8046875,-48.33984375,-1.0,1.0,1.0,0.0,9.m4v,1.0
2024-02-27 10:02:24.259037,1709024544.2590363,-37.59765625,-24.90234375,-38.57421875,-40.52734375,-1.0,1.0,1.0,0.0,9.m4v,1.0
2024-02-27 10:02:24.259037,1709024544.2590363,-37.59765625,-24.90234375,-38.57421875,-40.52734375,-1.0,1.0,1.0,0.0,9.m4v,1.0
2024-02-27 10:02:24.262942,1709024544.2629418,-36.1328125,-42.48046875,-23.92578125,-37.109375,-1.0,1.0,1.0,0.0,9.m4v,1.0
2024-02-27 10:02:24.262942,1709024544.2629418,-36.1328125,-42.48046875,-23.92578125,-37.109375,-1.0,1.0,1.0,0.0,9.m4v,1.0
2024-02-27 10:02:24.266847,1709024544.2668471,-36.62109375,-46.38671875,-22.4609375,-42.96875,-1.0,1.0,1.0,0.0,9.m4v,1.0
2024-02-27 10:02:24.266847,1709024544.2668471,-36.62109375,-46.38671875,-22.4609375,-42.96875,-1.0,1.0,1.0,0.0,9.m4v,1.0
2024-02-27 10:02:24.270752,1709024544.2707524,-51.26953125,-35.15625,-47.36328125,-58.10546875,-1.0,1.0,1.0,0.0,9.m4v,1.0
2024-02-27 10:02:24.270752,1709024544.2707524,-51.26953125,-35.15625,-47.36328125,-58.10546875,-1.0,1.0,1.0,0.0,9.m4v,1.0
2024-02-27 10:02:24.274658,1709024544.2746575,-43.9453125,-25.390625,-55.17578125,-47.8515625,-1.0,1.0,1.0,0.0,9.m4v,1.0
2024-02-27 10:02:24.274658,1709024544.2746575,-43.9453125,-25.390625,-55.17578125,-47.8515625,-1.0,1.0,1.0,0.0,9.m4v,1.0
2024-02-27 10:02:24.278563,1709024544.278563,-27.34375,-14.6484375,-32.71484375,-24.4140625,-1.0,1.0,1.0,0.0,9.m4v,1.0
2024-02-27 10:02:24.282468,1709024544.282468,-22.94921875,-23.4375,-22.4609375,-14.16015625,-1.0,1.0,1.0,0.0,9.m4v,1.0
2024-02-27 10:02:24.286373,1709024544.2863734,-17.578125,-27.34375,-17.578125,-2.44140625,-1.0,1.0,1.0,0.0,9.m4v,1.0
2024-02-27 10:02:24.290279,1709024544.290279,-11.23046875,-15.13671875,-0.9765625,-4.39453125,-1.0,1.0,1.0,0.0,9.m4v,1.0
2024-02-27 10:02:24.294184,1709024544.294184,-30.76171875,-47.8515625,-14.6484375,-24.90234375,-1.0,1.0,1.0,0.0,9.m4v,1.0
2024-02-27 10:02:24.298089,1709024544.2980893,-48.828125,-72.75390625,-32.2265625,-38.0859375,-1.0,1.0,1.0,0.0,9.m4v,1.0
2024-02-27 10:02:24.301999,1709024544.301999,-44.921875,-43.9453125,-37.59765625,-42.96875,-1.0,1.0,1.0,0.0,9.m4v,1.0
2024-02-27 10:02:24.305905,1709024544.3059046,-39.55078125,-19.53125,-54.19921875,-39.0625,-1.0,1.0,1.0,0.0,9.m4v,1.0
2024-02-27 10:02:24.309810,1709024544.30981,-55.6640625,-29.296875,-65.4296875,-53.7109375,-1.0,1.0,1.0,0.0,9.m4v,1.0
2024-02-27 10:02:24.313715,1709024544.3137152,-57.6171875,-36.1328125,-45.41015625,-58.10546875,-1.0,1.0,1.0,0.0,9.m4v,1.0
2024-02-27 10:02:24.317621,1709024544.3176205,-41.50390625,-30.76171875,-27.83203125,-31.25,-1.0,1.0,1.0,0.0,9.m4v,1.0
2024-02-27 10:02:24.321526,1709024544.3215256,-40.0390625,-37.109375,-23.92578125,-27.83203125,-1.0,1.0,1.0,0.0,9.m4v,1.0
2024-02-27 10:02:24.325431,1709024544.3254309,-19.53125,-38.0859375,-16.11328125,-20.01953125,-1.0,1.0,1.0,0.0,9.m4v,1.0
2024-02-27 10:02:24.329336,1709024544.3293362,-10.7421875,-16.11328125,-13.671875,0.9765625,-1.0,1.0,1.0,0.0,9.m4v,1.0
2024-02-27 10:02:24.333241,1709024544.3332417,-27.34375,-20.5078125,-31.73828125,-9.765625,-1.0,1.0,1.0,0.0,9.m4v,1.0
2024-02-27 10:02:24.337147,1709024544.3371468,-5.37109375,-12.20703125,-16.6015625,11.23046875,-1.0,1.0,1.0,0.0,9.m4v,1.0
2024-02-27 10:02:24.341052,1709024544.3410518,0.9765625,-8.30078125,3.41796875,-0.48828125,-1.0,1.0,1.0,0.0,9.m4v,1.0
2024-02-27 10:02:24.344957,1709024544.344957,-31.25,-45.41015625,-31.25,-51.26953125,-1.0,1.0,1.0,0.0,9.m4v,1.0
2024-02-27 10:02:24.348863,1709024544.3488634,-36.1328125,-61.03515625,-45.41015625,-39.0625,-1.0,1.0,1.0,0.0,9.m4v,1.0
2024-02-27 10:02:24.352769,1709024544.352769,-44.921875,-47.36328125,-46.38671875,-38.57421875,-1.0,1.0,1.0,0.0,9.m4v,1.0
2024-02-27 10:02:24.356674,1709024544.356674,-57.6171875,-35.64453125,-52.734375,-55.17578125,-1.0,1.0,1.0,0.0,9.m4v,1.0
2024-02-27 10:02:24.360579,1709024544.360579,-61.5234375,-61.03515625,-49.8046875,-60.546875,-1.0,1.0,1.0,0.0,9.m4v,1.0
2024-02-27 10:02:24.364484,1709024544.3644843,-41.9921875,-52.734375,-34.66796875,-46.38671875,-1.0,1.0,1.0,0.0,9.m4v,1.0
2024-02-27 10:02:24.368390,1709024544.3683896,-20.5078125,-21.484375,-9.27734375,-20.99609375,-1.0,1.0,1.0,0.0,9.m4v,1.0
2024-02-27 10:02:24.372295,1709024544.372295,-32.71484375,-21.484375,-19.53125,-39.55078125,-1.0,1.0,1.0,0.0,9.m4v,1.0
2024-02-27 10:02:24.376200,1709024544.3762002,-31.25,-23.4375,-37.59765625,-43.45703125,-1.0,1.0,1.0,0.0,9.m4v,1.0
2024-02-27 10:02:24.380105,1709024544.3801053,-28.80859375,-26.3671875,-35.64453125,-27.34375,-1.0,1.0,1.0,0.0,9.m4v,1.0
2024-02-27 10:02:24.384011,1709024544.3840106,-38.0859375,-37.59765625,-41.015625,-28.3203125,-1.0,1.0,1.0,0.0,9.m4v,1.0
2024-02-27 10:02:24.387916,1709024544.3879158,-28.80859375,-45.8984375,-43.9453125,-36.62109375,-1.0,1.0,1.0,0.0,9.m4v,1.0
2024-02-27 10:02:24.391821,1709024544.3918211,-10.7421875,-39.0625,-36.62109375,-16.11328125,-1.0,1.0,1.0,0.0,9.m4v,1.0
2024-02-27 10:02:24.395727,1709024544.395727,-5.37109375,-31.73828125,-35.64453125,4.39453125,-1.0,1.0,1.0,0.0,9.m4v,1.0
2024-02-27 10:02:24.399632,1709024544.3996315,-14.6484375,-29.296875,-34.66796875,-21.484375,-1.0,1.0,1.0,0.0,9.m4v,1.0
2024-02-27 10:02:24.403537,1709024544.403537,-19.04296875,-16.6015625,-24.4140625,-23.4375,-1.0,1.0,1.0,0.0,9.m4v,1.0
2024-02-27 10:02:24.407442,1709024544.4074423,-34.1796875,-22.94921875,-42.48046875,-33.203125,-1.0,1.0,1.0,0.0,9.m4v,1.0
2024-02-27 10:02:24.411348,1709024544.4113476,-51.7578125,-39.55078125,-71.2890625,-52.734375,-1.0,1.0,1.0,0.0,9.m4v,1.0
2024-02-27 10:02:24.415253,1709024544.415253,-44.921875,-36.62109375,-57.12890625,-45.41015625,-1.0,1.0,1.0,0.0,9.m4v,1.0
2024-02-27 10:02:24.419158,1709024544.419158,-25.87890625,-49.31640625,-23.4375,-27.83203125,-1.0,1.0,1.0,0.0,9.m4v,1.0
2024-02-27 10:02:24.423063,1709024544.4230633,-30.2734375,-57.6171875,-26.3671875,-37.59765625,-1.0,1.0,1.0,0.0,9.m4v,1.0
2024-02-27 10:02:24.426969,1709024544.4269686,-29.78515625,-25.87890625,-33.69140625,-47.8515625,-1.0,1.0,1.0,0.0,9.m4v,1.0
2024-02-27 10:02:24.430874,1709024544.430874,-26.85546875,-13.671875,-18.5546875,-30.76171875,-1.0,1.0,1.0,0.0,9.m4v,1.0
2024-02-27 10:02:24.434779,1709024544.4347792,-33.69140625,-40.0390625,-29.296875,-24.4140625,-1.0,1.0,1.0,0.0,9.m4v,1.0
2024-02-27 10:02:24.442590,1709024544.4425895,-36.1328125,-34.1796875,-36.1328125,-37.109375,-1.0,1.0,1.0,0.0,9.m4v,1.0
2024-02-27 10:02:24.454305,1709024544.4543054,-24.90234375,-18.06640625,-44.43359375,-6.8359375,-1.0,1.0,1.0,0.0,9.m4v,1.0
2024-02-27 10:02:24.466021,1709024544.466021,-29.78515625,-8.30078125,-11.71875,-30.76171875,-1.0,1.0,1.0,0.0,9.m4v,1.0
2024-02-27 10:02:24.477737,1709024544.477737,-37.109375,-27.83203125,-36.1328125,-33.203125,-1.0,1.0,1.0,0.0,9.m4v,1.0
2024-02-27 10:02:24.489453,1709024544.4894526,-10.7421875,-38.0859375,-37.59765625,-14.16015625,-1.0,1.0,1.0,0.0,9.m4v,1.0
2024-02-27 10:02:24.501168,1709024544.5011685,-22.4609375,-13.18359375,-20.01953125,-16.11328125,-1.0,1.0,1.0,0.0,9.m4v,1.0
2024-02-27 10:02:24.684727,1709024544.6847267,-14.16015625,-4.39453125,-29.78515625,-28.3203125,-1.0,1.0,1.0,0.0,9.m4v,1.0
2024-02-27 10:02:24.692537,1709024544.6925373,-34.1796875,-32.2265625,-24.90234375,-32.2265625,-1.0,1.0,1.0,0.0,9.m4v,1.0
2024-02-27 10:02:24.704253,1709024544.704253,-62.5,-27.34375,-30.76171875,-41.9921875,-1.0,1.0,1.0,0.0,9.m4v,1.0
2024-02-27 10:02:24.715969,1709024544.7159688,-43.45703125,-27.83203125,-52.24609375,-48.828125,-1.0,1.0,1.0,0.0,9.m4v,1.0
2024-02-27 10:02:24.985447,1709024544.9854474,-28.3203125,-48.33984375,-36.1328125,-35.15625,-1.0,1.0,1.0,0.0,9.m4v,1.0
2024-02-27 10:02:24.989353,1709024544.9893527,-10.7421875,-42.48046875,-24.90234375,-14.6484375,-1.0,1.0,1.0,0.0,9.m4v,1.0
2024-02-27 10:02:24.993258,1709024544.993258,-9.27734375,-4.8828125,-22.94921875,-17.08984375,-1.0,1.0,1.0,0.0,9.m4v,1.0
2024-02-27 10:02:24.997163,1709024544.997163,-5.859375,2.9296875,-25.87890625,-16.11328125,-1.0,1.0,1.0,0.0,9.m4v,1.0
2024-02-27 10:02:25.001068,1709024545.0010684,-24.90234375,-21.484375,-26.85546875,-14.6484375,-1.0,1.0,1.0,0.0,9.m4v,1.0
2024-02-27 10:02:25.004979,1709024545.004979,-53.22265625,-33.69140625,-39.0625,-38.57421875,-1.0,1.0,1.0,0.0,9.m4v,1.0
2024-02-27 10:02:25.008884,1709024545.008884,-39.0625,-34.66796875,-28.3203125,-38.57421875,-1.0,1.0,1.0,0.0,9.m4v,1.0
2024-02-27 10:02:25.012789,1709024545.0127892,-10.25390625,-34.66796875,-10.25390625,-23.92578125,-1.0,1.0,1.0,0.0,9.m4v,1.0
2024-02-27 10:02:25.016695,1709024545.0166943,-33.69140625,-47.8515625,-31.25,-52.734375,-1.0,1.0,1.0,0.0,9.m4v,1.0
2024-02-27 10:02:25.020600,1709024545.0205998,-54.6875,-62.01171875,-50.78125,-57.6171875,-1.0,1.0,1.0,0.0,9.m4v,1.0
2024-02-27 10:02:25.024505,1709024545.0245051,-21.484375,-50.78125,-31.25,-11.71875,-1.0,1.0,1.0,0.0,9.m4v,1.0
2024-02-27 10:02:25.028410,1709024545.0284102,-2.9296875,-29.78515625,-19.53125,-11.23046875,-1.0,1.0,1.0,0.0,9.m4v,1.0
2024-02-27 10:02:25.032315,1709024545.0323155,-10.7421875,-13.18359375,-25.390625,-20.99609375,-1.0,1.0,1.0,0.0,9.m4v,1.0
2024-02-27 10:02:25.036221,1709024545.0362208,-32.71484375,-14.6484375,-20.99609375,-19.04296875,-1.0,1.0,1.0,0.0,9.m4v,1.0
2024-02-27 10:02:25.040126,1709024545.040126,-38.0859375,-18.06640625,-20.5078125,-33.69140625,-1.0,1.0,1.0,0.0,9.m4v,1.0
2024-02-27 10:02:25.044031,1709024545.0440314,-40.0390625,-34.66796875,-32.2265625,-33.69140625,-1.0,1.0,1.0,0.0,9.m4v,1.0
2024-02-27 10:02:25.047936,1709024545.0479364,-38.57421875,-48.33984375,-41.015625,-38.57421875,-1.0,1.0,1.0,0.0,9.m4v,1.0
2024-02-27 10:02:25.051843,1709024545.0518432,-37.59765625,-49.31640625,-54.19921875,-45.41015625,-1.0,1.0,1.0,0.0,9.m4v,1.0
2024-02-27 10:02:25.055748,1709024545.0557485,-55.17578125,-67.87109375,-54.6875,-56.15234375,-1.0,1.0,1.0,0.0,9.m4v,1.0
2024-02-27 10:02:25.059654,1709024545.0596538,-49.31640625,-42.96875,-14.16015625,-44.43359375,-1.0,1.0,1.0,0.0,9.m4v,1.0
2024-02-27 10:02:25.063559,1709024545.0635588,-45.8984375,-19.53125,-7.8125,-37.59765625,-1.0,1.0,1.0,0.0,9.m4v,1.0
2024-02-27 10:02:25.067464,1709024545.067464,-44.43359375,-20.01953125,-25.390625,-33.69140625,-1.0,1.0,1.0,0.0,9.m4v,1.0
2024-02-27 10:02:25.071369,1709024545.0713694,-31.25,-25.390625,-15.625,-34.66796875,-1.0,1.0,1.0,0.0,9.m4v,1.0
2024-02-27 10:02:25.075275,1709024545.0752747,-18.06640625,-29.78515625,-7.32421875,-37.109375,-1.0,1.0,1.0,0.0,9.m4v,1.0
2024-02-27 10:02:25.079180,1709024545.07918,-12.6953125,-13.671875,-34.66796875,-16.11328125,-1.0,1.0,1.0,0.0,9.m4v,1.0
2024-02-27 10:02:25.083085,1709024545.083085,-34.66796875,-18.5546875,-62.5,-28.3203125,-1.0,1.0,1.0,0.0,9.m4v,1.0
2024-02-27 10:02:25.086990,1709024545.0869904,-49.8046875,-52.734375,-50.78125,-50.29296875,-1.0,1.0,1.0,0.0,9.m4v,1.0
2024-02-27 10:02:25.090896,1709024545.0908957,-53.7109375,-59.08203125,-44.921875,-58.10546875,-1.0,1.0,1.0,0.0,9.m4v,1.0
2024-02-27 10:02:25.094801,1709024545.094801,-56.640625,-56.15234375,-40.52734375,-55.6640625,-1.0,1.0,1.0,0.0,9.m4v,1.0
2024-02-27 10:02:25.098707,1709024545.098707,-38.0859375,-39.0625,-23.92578125,-33.203125,-1.0,1.0,1.0,0.0,9.m4v,1.0
2024-02-27 10:02:25.102612,1709024545.1026125,-40.52734375,-36.1328125,-42.96875,-33.69140625,-1.0,1.0,1.0,0.0,9.m4v,1.0
2024-02-27 10:02:25.106518,1709024545.1065176,-34.1796875,-35.15625,-34.1796875,-26.3671875,-1.0,1.0,1.0,0.0,9.m4v,1.0
2024-02-27 10:02:25.110423,1709024545.1104228,-20.99609375,-35.15625,-26.85546875,-22.4609375,-1.0,1.0,1.0,0.0,9.m4v,1.0
2024-02-27 10:02:25.114328,1709024545.114328,-20.5078125,-41.50390625,-38.0859375,-31.73828125,-1.0,1.0,1.0,0.0,9.m4v,1.0
2024-02-27 10:02:25.118233,1709024545.1182334,-22.4609375,-27.34375,-28.3203125,-19.04296875,-1.0,1.0,1.0,0.0,9.m4v,1.0
2024-02-27 10:02:25.122139,1709024545.1221385,-33.69140625,-11.71875,-44.921875,-10.25390625,-1.0,1.0,1.0,0.0,9.m4v,1.0
2024-02-27 10:02:25.126044,1709024545.1260438,-37.109375,-13.671875,-41.9921875,-27.83203125,-1.0,1.0,1.0,0.0,9.m4v,1.0
2024-02-27 10:02:25.129949,1709024545.129949,-26.85546875,-12.20703125,-2.44140625,-36.62109375,-1.0,1.0,1.0,0.0,9.m4v,1.0
2024-02-27 10:02:25.133854,1709024545.1338544,-36.62109375,-18.5546875,-9.27734375,-36.62109375,-1.0,1.0,1.0,0.0,9.m4v,1.0
2024-02-27 10:02:25.137760,1709024545.1377597,-61.03515625,-44.921875,-34.66796875,-53.7109375,-1.0,1.0,1.0,0.0,9.m4v,1.0
2024-02-27 10:02:25.141665,1709024545.1416647,-71.2890625,-62.5,-53.7109375,-63.96484375,-1.0,1.0,1.0,0.0,9.m4v,1.0
2024-02-27 10:02:25.145571,1709024545.145571,-57.12890625,-49.8046875,-53.22265625,-60.546875,-1.0,1.0,1.0,0.0,9.m4v,1.0
2024-02-27 10:02:25.149476,1709024545.1494763,-35.15625,-42.48046875,-48.33984375,-51.7578125,-1.0,1.0,1.0,0.0,9.m4v,1.0
2024-02-27 10:02:25.153382,1709024545.1533816,-9.27734375,-28.80859375,-40.0390625,-25.390625,-1.0,1.0,1.0,0.0,9.m4v,1.0
2024-02-27 10:02:25.157287,1709024545.157287,-0.9765625,-14.16015625,-30.2734375,-9.765625,-1.0,1.0,1.0,0.0,9.m4v,1.0
2024-02-27 10:02:25.161192,1709024545.161192,-29.296875,-15.625,-34.66796875,-24.4140625,-1.0,1.0,1.0,0.0,9.m4v,1.0
2024-02-27 10:02:25.165097,1709024545.1650972,-18.06640625,-11.23046875,-27.34375,-7.8125,-1.0,1.0,1.0,0.0,9.m4v,1.0
2024-02-27 10:02:25.169003,1709024545.1690023,-12.6953125,-21.97265625,-26.3671875,-5.37109375,-1.0,1.0,1.0,0.0,9.m4v,1.0
2024-02-27 10:02:25.172908,1709024545.1729078,-32.71484375,-18.5546875,-18.06640625,-22.94921875,-1.0,1.0,1.0,0.0,9.m4v,1.0
2024-02-27 10:02:25.176813,1709024545.1768131,-43.45703125,-33.203125,-9.765625,-23.92578125,-1.0,1.0,1.0,0.0,9.m4v,1.0
2024-02-27 10:02:25.180718,1709024545.1807182,-50.29296875,-49.31640625,-19.04296875,-36.1328125,-1.0,1.0,1.0,0.0,9.m4v,1.0
2024-02-27 10:02:25.184623,1709024545.1846237,-50.78125,-43.45703125,-28.3203125,-50.29296875,-1.0,1.0,1.0,0.0,9.m4v,1.0
2024-02-27 10:02:25.188529,1709024545.1885288,-59.5703125,-51.26953125,-55.6640625,-54.6875,-1.0,1.0,1.0,0.0,9.m4v,1.0
2024-02-27 10:02:25.192434,1709024545.192434,-46.875,-51.26953125,-51.7578125,-52.24609375,-1.0,1.0,1.0,0.0,9.m4v,1.0
2024-02-27 10:02:25.196339,1709024545.1963394,-27.34375,-22.94921875,-19.53125,-41.015625,-1.0,1.0,1.0,0.0,9.m4v,1.0
2024-02-27 10:02:25.200245,1709024545.200245,-22.4609375,-5.37109375,0.9765625,-21.484375,-1.0,1.0,1.0,0.0,9.m4v,1.0
2024-02-27 10:02:25.204150,1709024545.20415,-4.39453125,5.37109375,9.27734375,-0.9765625,-1.0,1.0,1.0,0.0,9.m4v,1.0
2024-02-27 10:02:25.208055,1709024545.2080553,-23.4375,-12.20703125,-33.69140625,-20.01953125,-1.0,1.0,1.0,0.0,9.m4v,1.0
2024-02-27 10:02:25.211961,1709024545.2119606,-44.921875,-41.015625,-62.5,-45.41015625,-1.0,1.0,1.0,0.0,9.m4v,1.0
2024-02-27 10:02:25.215866,1709024545.2158656,-26.85546875,-36.1328125,-33.69140625,-29.296875,-1.0,1.0,1.0,0.0,9.m4v,1.0
2024-02-27 10:02:25.219771,1709024545.219771,-37.109375,-27.83203125,-21.484375,-14.16015625,-1.0,1.0,1.0,0.0,9.m4v,1.0
2024-02-27 10:02:25.223676,1709024545.2236762,-55.6640625,-46.875,-31.25,-24.4140625,-1.0,1.0,1.0,0.0,9.m4v,1.0
2024-02-27 10:02:25.227582,1709024545.2275815,-43.45703125,-52.734375,-28.80859375,-38.0859375,-1.0,1.0,1.0,0.0,9.m4v,1.0
2024-02-27 10:02:25.231487,1709024545.2314868,-18.5546875,-32.71484375,-12.20703125,-34.66796875,-1.0,1.0,1.0,0.0,9.m4v,1.0
2024-02-27 10:02:25.235392,1709024545.235392,-37.59765625,-22.94921875,-14.16015625,-28.3203125,-1.0,1.0,1.0,0.0,9.m4v,1.0
2024-02-27 10:02:25.239300,1709024545.2393005,-47.36328125,-6.34765625,-23.4375,-20.01953125,-1.0,1.0,1.0,0.0,9.m4v,1.0
2024-02-27 10:02:25.243205,1709024545.2432053,-44.43359375,-26.85546875,-45.41015625,-45.8984375,-1.0,1.0,1.0,0.0,9.m4v,1.0
2024-02-27 10:02:25.247111,1709024545.2471106,-41.50390625,-49.31640625,-64.453125,-48.33984375,-1.0,1.0,1.0,0.0,9.m4v,1.0
2024-02-27 10:02:25.251016,1709024545.251016,-41.50390625,-46.875,-63.96484375,-50.29296875,-1.0,1.0,1.0,0.0,9.m4v,1.0
2024-02-27 10:02:25.254921,1709024545.2549212,-60.546875,-37.59765625,-43.45703125,-70.3125,-1.0,1.0,1.0,0.0,9.m4v,1.0
2024-02-27 10:02:25.258826,1709024545.2588265,-47.36328125,-22.4609375,5.859375,-43.45703125,-1.0,1.0,1.0,0.0,9.m4v,1.0
2024-02-27 10:02:25.571257,1709024545.5712569,-25.87890625,-51.26953125,-28.3203125,-34.66796875,-1.0,1.0,1.0,0.0,9.m4v,1.0
2024-02-27 10:02:25.575162,1709024545.5751622,-20.5078125,-69.82421875,-24.4140625,-36.1328125,-1.0,1.0,1.0,0.0,9.m4v,1.0
2024-02-27 10:02:25.579067,1709024545.5790672,-37.59765625,-61.03515625,-30.2734375,-49.31640625,-1.0,1.0,1.0,0.0,9.m4v,1.0
2024-02-27 10:02:25.582973,1709024545.5829723,-33.69140625,-29.78515625,-15.13671875,-35.64453125,-1.0,1.0,1.0,0.0,9.m4v,1.0
2024-02-27 10:02:25.586878,1709024545.5868778,-23.92578125,-23.4375,-22.4609375,-40.52734375,-1.0,1.0,1.0,0.0,9.m4v,1.0
2024-02-27 10:02:25.590783,1709024545.590783,-18.06640625,-14.6484375,-44.43359375,-46.875,-1.0,1.0,1.0,0.0,9.m4v,1.0
2024-02-27 10:02:25.594688,1709024545.5946884,-14.16015625,-22.4609375,-55.17578125,-32.2265625,-1.0,1.0,1.0,0.0,9.m4v,1.0
2024-02-27 10:02:25.598593,1709024545.5985937,-10.25390625,-41.015625,-46.875,-17.08984375,-1.0,1.0,1.0,0.0,9.m4v,1.0
2024-02-27 10:02:25.602499,1709024545.6024988,-12.6953125,-21.484375,-35.15625,-22.4609375,-1.0,1.0,1.0,0.0,9.m4v,1.0
2024-02-27 10:02:25.606404,1709024545.606404,-8.30078125,9.765625,-36.1328125,-5.37109375,-1.0,1.0,1.0,0.0,9.m4v,1.0
2024-02-27 10:02:25.610309,1709024545.6103094,-10.7421875,5.859375,-46.38671875,-10.7421875,-1.0,1.0,1.0,0.0,9.m4v,1.0
2024-02-27 10:02:25.614218,1709024545.6142175,-28.3203125,-24.90234375,-54.19921875,-55.17578125,-1.0,1.0,1.0,0.0,9.m4v,1.0
2024-02-27 10:02:25.618123,1709024545.6181228,-20.01953125,-35.15625,-37.59765625,-36.1328125,-1.0,1.0,1.0,0.0,9.m4v,1.0
2024-02-27 10:02:25.622028,1709024545.622028,-0.9765625,-23.92578125,-6.34765625,1.953125,-1.0,1.0,1.0,0.0,9.m4v,1.0
2024-02-27 10:02:25.625933,1709024545.6259332,-9.27734375,-7.8125,-9.27734375,-12.20703125,-1.0,1.0,1.0,0.0,9.m4v,1.0
2024-02-27 10:02:25.629838,1709024545.6298385,-23.4375,-10.7421875,-24.4140625,-26.85546875,-1.0,1.0,1.0,0.0,9.m4v,1.0
2024-02-27 10:02:25.633744,1709024545.6337438,-23.4375,-49.31640625,-29.296875,-35.15625,-1.0,1.0,1.0,0.0,9.m4v,1.0
2024-02-27 10:02:25.637649,1709024545.637649,-28.3203125,-74.70703125,-49.8046875,-55.6640625,-1.0,1.0,1.0,0.0,9.m4v,1.0
2024-02-27 10:02:25.641554,1709024545.6415544,-45.8984375,-49.8046875,-60.546875,-52.24609375,-1.0,1.0,1.0,0.0,9.m4v,1.0
2024-02-27 10:02:25.645460,1709024545.6454597,-54.19921875,-20.99609375,-55.17578125,-43.45703125,-1.0,1.0,1.0,0.0,9.m4v,1.0
2024-02-27 10:02:25.649365,1709024545.6493647,-57.6171875,-17.578125,-51.7578125,-50.29296875,-1.0,1.0,1.0,0.0,9.m4v,1.0
2024-02-27 10:02:25.653270,1709024545.65327,-22.94921875,-15.13671875,-30.2734375,-24.90234375,-1.0,1.0,1.0,0.0,9.m4v,1.0
2024-02-27 10:02:25.657175,1709024545.6571753,-7.32421875,-7.32421875,-18.5546875,-8.30078125,-1.0,1.0,1.0,0.0,9.m4v,1.0
2024-02-27 10:02:25.661083,1709024545.6610832,-25.87890625,-11.23046875,-34.1796875,-18.06640625,-1.0,1.0,1.0,0.0,9.m4v,1.0
2024-02-27 10:02:25.664989,1709024545.6649885,-21.97265625,-23.92578125,-39.0625,0.0,-1.0,1.0,1.0,0.0,9.m4v,1.0
2024-02-27 10:02:25.668894,1709024545.6688936,-30.76171875,-42.96875,-36.62109375,-22.4609375,-1.0,1.0,1.0,0.0,9.m4v,1.0
2024-02-27 10:02:25.672799,1709024545.6727989,-47.36328125,-48.828125,-41.50390625,-55.17578125,-1.0,1.0,1.0,0.0,9.m4v,1.0
2024-02-27 10:02:25.676704,1709024545.6767042,-48.828125,-42.96875,-49.8046875,-46.38671875,-1.0,1.0,1.0,0.0,9.m4v,1.0
2024-02-27 10:02:25.680609,1709024545.6806097,-34.66796875,-31.25,-27.83203125,-33.203125,-1.0,1.0,1.0,0.0,9.m4v,1.0
2024-02-27 10:02:25.684515,1709024545.6845148,-20.01953125,-29.296875,-9.765625,-12.20703125,-1.0,1.0,1.0,0.0,9.m4v,1.0
2024-02-27 10:02:25.688420,1709024545.6884198,-8.7890625,-40.0390625,-27.34375,-1.953125,-1.0,1.0,1.0,0.0,9.m4v,1.0
2024-02-27 10:02:25.692325,1709024545.692325,-20.01953125,-29.296875,-34.1796875,-38.0859375,-1.0,1.0,1.0,0.0,9.m4v,1.0
2024-02-27 10:02:25.696230,1709024545.6962304,-58.10546875,-12.20703125,-25.87890625,-85.9375,-1.0,1.0,1.0,0.0,9.m4v,1.0
2024-02-27 10:02:25.700136,1709024545.7001357,-71.2890625,-27.34375,-32.71484375,-81.54296875,-1.0,1.0,1.0,0.0,9.m4v,1.0
2024-02-27 10:02:25.704041,1709024545.704041,-39.0625,-36.62109375,-25.87890625,-30.76171875,-1.0,1.0,1.0,0.0,9.m4v,1.0
2024-02-27 10:02:25.707951,1709024545.7079513,-35.64453125,-23.4375,-9.27734375,-26.3671875,-1.0,1.0,1.0,0.0,9.m4v,1.0
2024-02-27 10:02:25.707951,1709024545.7079513,-35.64453125,-23.4375,-9.27734375,-26.3671875,-1.0,1.0,1.0,0.0,9.m4v,1.0
2024-02-27 10:02:25.711857,1709024545.7118566,-70.3125,-22.4609375,-40.0390625,-61.03515625,-1.0,1.0,1.0,0.0,9.m4v,1.0
2024-02-27 10:02:25.711857,1709024545.7118566,-70.3125,-22.4609375,-40.0390625,-61.03515625,-1.0,1.0,1.0,0.0,9.m4v,1.0
2024-02-27 10:02:25.715762,1709024545.715762,-73.2421875,-25.87890625,-70.3125,-55.6640625,-1.0,1.0,1.0,0.0,9.m4v,1.0
2024-02-27 10:02:25.715762,1709024545.715762,-73.2421875,-25.87890625,-70.3125,-55.6640625,-1.0,1.0,1.0,0.0,9.m4v,1.0
2024-02-27 10:02:25.719667,1709024545.7196672,-86.9140625,-23.4375,-57.6171875,-73.2421875,-1.0,1.0,1.0,0.0,9.m4v,1.0
2024-02-27 10:02:25.719667,1709024545.7196672,-86.9140625,-23.4375,-57.6171875,-73.2421875,-1.0,1.0,1.0,0.0,9.m4v,1.0
2024-02-27 10:02:25.723572,1709024545.7235725,-97.16796875,-20.01953125,-32.2265625,-92.7734375,-1.0,1.0,1.0,0.0,9.m4v,1.0
2024-02-27 10:02:25.723572,1709024545.7235725,-97.16796875,-20.01953125,-32.2265625,-92.7734375,-1.0,1.0,1.0,0.0,9.m4v,1.0
2024-02-27 10:02:25.727478,1709024545.7274776,-89.35546875,-33.69140625,-34.1796875,-91.796875,-1.0,1.0,1.0,0.0,9.m4v,1.0
2024-02-27 10:02:25.727478,1709024545.7274776,-89.35546875,-33.69140625,-34.1796875,-91.796875,-1.0,1.0,1.0,0.0,9.m4v,1.0
2024-02-27 10:02:25.731383,1709024545.7313828,-72.75390625,-33.203125,-41.015625,-82.51953125,-1.0,1.0,1.0,0.0,9.m4v,1.0
2024-02-27 10:02:25.731383,1709024545.7313828,-72.75390625,-33.203125,-41.015625,-82.51953125,-1.0,1.0,1.0,0.0,9.m4v,1.0
2024-02-27 10:02:25.735288,1709024545.735288,-63.4765625,-26.3671875,-41.9921875,-69.3359375,-1.0,1.0,1.0,0.0,9.m4v,1.0
2024-02-27 10:02:25.735288,1709024545.735288,-63.4765625,-26.3671875,-41.9921875,-69.3359375,-1.0,1.0,1.0,0.0,9.m4v,1.0
2024-02-27 10:02:25.739193,1709024545.7391934,-59.5703125,-49.31640625,-39.0625,-65.91796875,-1.0,1.0,1.0,0.0,9.m4v,1.0
2024-02-27 10:02:25.739193,1709024545.7391934,-59.5703125,-49.31640625,-39.0625,-65.91796875,-1.0,1.0,1.0,0.0,9.m4v,1.0
2024-02-27 10:02:25.743098,1709024545.7430985,-27.83203125,-39.55078125,-30.2734375,-36.62109375,-1.0,1.0,1.0,0.0,9.m4v,1.0
2024-02-27 10:02:25.743098,1709024545.7430985,-27.83203125,-39.55078125,-30.2734375,-36.62109375,-1.0,1.0,1.0,0.0,9.m4v,1.0
2024-02-27 10:02:25.747004,1709024545.7470038,-37.109375,-35.15625,-30.76171875,-52.24609375,-1.0,1.0,1.0,0.0,9.m4v,1.0
2024-02-27 10:02:25.747004,1709024545.7470038,-37.109375,-35.15625,-30.76171875,-52.24609375,-1.0,1.0,1.0,0.0,9.m4v,1.0
2024-02-27 10:02:25.750909,1709024545.750909,-59.08203125,-27.83203125,-43.9453125,-65.91796875,-1.0,1.0,1.0,0.0,9.m4v,1.0
2024-02-27 10:02:25.750909,1709024545.750909,-59.08203125,-27.83203125,-43.9453125,-65.91796875,-1.0,1.0,1.0,0.0,9.m4v,1.0
2024-02-27 10:02:25.754816,1709024545.754816,-18.06640625,-1.46484375,-42.96875,-24.4140625,-1.0,1.0,1.0,0.0,9.m4v,1.0
2024-02-27 10:02:25.754816,1709024545.754816,-18.06640625,-1.46484375,-42.96875,-24.4140625,-1.0,1.0,1.0,0.0,9.m4v,1.0
2024-02-27 10:02:25.758721,1709024545.7587214,-40.52734375,-21.97265625,-43.9453125,-52.24609375,-1.0,1.0,1.0,0.0,9.m4v,1.0
2024-02-27 10:02:25.758721,1709024545.7587214,-40.52734375,-21.97265625,-43.9453125,-52.24609375,-1.0,1.0,1.0,0.0,9.m4v,1.0
2024-02-27 10:02:25.762627,1709024545.7626266,-84.47265625,-40.0390625,-46.875,-78.125,-1.0,1.0,1.0,0.0,9.m4v,1.0
2024-02-27 10:02:25.762627,1709024545.7626266,-84.47265625,-40.0390625,-46.875,-78.125,-1.0,1.0,1.0,0.0,9.m4v,1.0
2024-02-27 10:02:25.766532,1709024545.766532,-72.265625,-49.8046875,-35.15625,-65.4296875,-1.0,1.0,1.0,0.0,9.m4v,1.0
2024-02-27 10:02:25.766532,1709024545.766532,-72.265625,-49.8046875,-35.15625,-65.4296875,-1.0,1.0,1.0,0.0,9.m4v,1.0
2024-02-27 10:02:25.770437,1709024545.7704372,-53.7109375,-36.62109375,-40.0390625,-61.5234375,-1.0,1.0,1.0,0.0,9.m4v,1.0
2024-02-27 10:02:25.770437,1709024545.7704372,-53.7109375,-36.62109375,-40.0390625,-61.5234375,-1.0,1.0,1.0,0.0,9.m4v,1.0
2024-02-27 10:02:25.774342,1709024545.7743423,-37.109375,-21.484375,-42.96875,-51.7578125,-1.0,1.0,1.0,0.0,9.m4v,1.0
2024-02-27 10:02:25.774342,1709024545.7743423,-37.109375,-21.484375,-42.96875,-51.7578125,-1.0,1.0,1.0,0.0,9.m4v,1.0
2024-02-27 10:02:25.778248,1709024545.7782476,-32.2265625,-35.64453125,-29.78515625,-27.34375,-1.0,1.0,1.0,0.0,9.m4v,1.0
2024-02-27 10:02:25.778248,1709024545.7782476,-32.2265625,-35.64453125,-29.78515625,-27.34375,-1.0,1.0,1.0,0.0,9.m4v,1.0
2024-02-27 10:02:25.782153,1709024545.782153,-31.73828125,-20.99609375,-31.73828125,-21.97265625,-1.0,1.0,1.0,0.0,9.m4v,1.0
2024-02-27 10:02:25.782153,1709024545.782153,-31.73828125,-20.99609375,-31.73828125,-21.97265625,-1.0,1.0,1.0,0.0,9.m4v,1.0
2024-02-27 10:02:25.786058,1709024545.7860582,-27.83203125,-11.71875,-29.296875,-38.57421875,-1.0,1.0,1.0,0.0,9.m4v,1.0
2024-02-27 10:02:25.786058,1709024545.7860582,-27.83203125,-11.71875,-29.296875,-38.57421875,-1.0,1.0,1.0,0.0,9.m4v,1.0
2024-02-27 10:02:25.789963,1709024545.7899635,-24.4140625,-28.80859375,-26.85546875,-37.59765625,-1.0,1.0,1.0,0.0,9.m4v,1.0
2024-02-27 10:02:25.789963,1709024545.7899635,-24.4140625,-28.80859375,-26.85546875,-37.59765625,-1.0,1.0,1.0,0.0,9.m4v,1.0
2024-02-27 10:02:25.793869,1709024545.7938683,-23.92578125,-43.9453125,-33.203125,-32.71484375,-1.0,1.0,1.0,0.0,9.m4v,1.0
2024-02-27 10:02:25.793869,1709024545.7938683,-23.92578125,-43.9453125,-33.203125,-32.71484375,-1.0,1.0,1.0,0.0,9.m4v,1.0
2024-02-27 10:02:25.797774,1709024545.7977738,-5.37109375,-21.97265625,-38.57421875,-20.99609375,-1.0,1.0,1.0,0.0,9.m4v,1.0
2024-02-27 10:02:25.797774,1709024545.7977738,-5.37109375,-21.97265625,-38.57421875,-20.99609375,-1.0,1.0,1.0,0.0,9.m4v,1.0
2024-02-27 10:02:25.801682,1709024545.8016825,-5.859375,-16.6015625,-46.875,-17.578125,-1.0,1.0,1.0,0.0,9.m4v,1.0
2024-02-27 10:02:25.801682,1709024545.8016825,-5.859375,-16.6015625,-46.875,-17.578125,-1.0,1.0,1.0,0.0,9.m4v,1.0
2024-02-27 10:02:25.805588,1709024545.8055875,-41.50390625,-46.875,-43.45703125,-48.828125,-1.0,1.0,1.0,0.0,9.m4v,1.0
2024-02-27 10:02:25.805588,1709024545.8055875,-41.50390625,-46.875,-43.45703125,-48.828125,-1.0,1.0,1.0,0.0,9.m4v,1.0
2024-02-27 10:02:25.809493,1709024545.8094928,-38.0859375,-43.9453125,-9.27734375,-50.78125,-1.0,1.0,1.0,0.0,9.m4v,1.0
2024-02-27 10:02:25.809493,1709024545.8094928,-38.0859375,-43.9453125,-9.27734375,-50.78125,-1.0,1.0,1.0,0.0,9.m4v,1.0
2024-02-27 10:02:25.813398,1709024545.813398,-24.4140625,-40.52734375,-7.8125,-37.109375,-1.0,1.0,1.0,0.0,9.m4v,1.0
2024-02-27 10:02:25.813398,1709024545.813398,-24.4140625,-40.52734375,-7.8125,-37.109375,-1.0,1.0,1.0,0.0,9.m4v,1.0
2024-02-27 10:02:25.817303,1709024545.8173034,-28.80859375,-36.1328125,-16.11328125,-27.34375,-1.0,1.0,1.0,0.0,9.m4v,1.0
2024-02-27 10:02:25.817303,1709024545.8173034,-28.80859375,-36.1328125,-16.11328125,-27.34375,-1.0,1.0,1.0,0.0,9.m4v,1.0
2024-02-27 10:02:25.821209,1709024545.8212087,-25.87890625,-14.6484375,-4.39453125,-10.25390625,-1.0,1.0,1.0,0.0,9.m4v,1.0
2024-02-27 10:02:25.821209,1709024545.8212087,-25.87890625,-14.6484375,-4.39453125,-10.25390625,-1.0,1.0,1.0,0.0,9.m4v,1.0
2024-02-27 10:02:25.829019,1709024545.829019,-53.7109375,-49.31640625,-34.66796875,-56.640625,-1.0,1.0,1.0,0.0,9.m4v,1.0
2024-02-27 10:02:25.836830,1709024545.8368297,-46.38671875,-50.29296875,-60.05859375,-38.0859375,-1.0,1.0,1.0,0.0,9.m4v,1.0
2024-02-27 10:02:25.844640,1709024545.84464,-20.99609375,-9.765625,-27.83203125,-20.99609375,-1.0,1.0,1.0,0.0,9.m4v,1.0
2024-02-27 10:02:25.852452,1709024545.8524516,-21.484375,-30.2734375,-29.78515625,-30.2734375,-1.0,1.0,1.0,0.0,9.m4v,1.0
2024-02-27 10:02:25.860262,1709024545.8602622,-31.73828125,-62.5,-31.73828125,-35.64453125,-1.0,1.0,1.0,0.0,9.m4v,1.0
2024-02-27 10:02:25.868073,1709024545.8680725,-13.671875,-14.16015625,-37.59765625,-12.20703125,-1.0,1.0,1.0,0.0,9.m4v,1.0
2024-02-27 10:02:25.875883,1709024545.875883,-63.4765625,-50.29296875,-36.62109375,-84.47265625,-1.0,1.0,1.0,0.0,9.m4v,1.0
2024-02-27 10:02:25.883694,1709024545.8836937,-42.48046875,-20.99609375,-46.875,-46.875,-1.0,1.0,1.0,0.0,9.m4v,1.0
2024-02-27 10:02:25.891504,1709024545.891504,-15.13671875,-34.66796875,-24.90234375,-8.30078125,-1.0,1.0,1.0,0.0,9.m4v,1.0
2024-02-27 10:02:25.899315,1709024545.8993154,-46.38671875,-40.52734375,-45.41015625,-62.01171875,-1.0,1.0,1.0,0.0,9.m4v,1.0
2024-02-27 10:02:25.907126,1709024545.9071257,-30.76171875,-35.15625,-19.04296875,-31.25,-1.0,1.0,1.0,0.0,9.m4v,1.0
2024-02-27 10:02:25.914936,1709024545.9149363,-31.73828125,-47.36328125,-37.59765625,-48.33984375,-1.0,1.0,1.0,0.0,9.m4v,1.0
2024-02-27 10:02:25.922747,1709024545.922747,-36.62109375,-11.23046875,-34.1796875,-46.38671875,-1.0,1.0,1.0,0.0,9.m4v,1.0
2024-02-27 10:02:25.930557,1709024545.9305573,-13.18359375,-14.16015625,-37.109375,-16.6015625,-1.0,1.0,1.0,0.0,9.m4v,1.0
2024-02-27 10:02:25.938368,1709024545.9383678,-23.92578125,-38.0859375,-22.94921875,-26.85546875,-1.0,1.0,1.0,0.0,9.m4v,1.0
2024-02-27 10:02:25.946178,1709024545.9461784,-49.31640625,-41.50390625,-43.45703125,-38.0859375,-1.0,1.0,1.0,0.0,9.m4v,1.0
2024-02-27 10:02:25.953989,1709024545.9539888,-21.484375,-47.36328125,-44.43359375,-20.99609375,-1.0,1.0,1.0,0.0,9.m4v,1.0
2024-02-27 10:02:25.961799,1709024545.9617994,-37.59765625,-6.8359375,-11.23046875,-26.3671875,-1.0,1.0,1.0,0.0,9.m4v,1.0
2024-02-27 10:02:25.969610,1709024545.9696095,-19.53125,-12.20703125,-33.203125,-0.48828125,-1.0,1.0,1.0,0.0,9.m4v,1.0
2024-02-27 10:02:25.977420,1709024545.9774203,-39.55078125,-26.3671875,-29.296875,-49.31640625,-1.0,1.0,1.0,0.0,9.m4v,1.0
2024-02-27 10:02:25.985231,1709024545.985231,-27.83203125,-48.33984375,-19.53125,-41.50390625,-1.0,1.0,1.0,0.0,9.m4v,1.0
2024-02-27 10:02:25.993042,1709024545.9930415,-29.296875,-31.25,-38.57421875,-30.2734375,-1.0,1.0,1.0,0.0,9.m4v,1.0
2024-02-27 10:02:26.000852,1709024546.000852,-24.4140625,-44.921875,-24.4140625,-28.80859375,-1.0,1.0,1.0,0.0,9.m4v,1.0
2024-02-27 10:02:26.008662,1709024546.0086625,-41.50390625,-14.6484375,-62.98828125,-37.109375,-1.0,1.0,1.0,0.0,9.m4v,1.0
2024-02-27 10:02:26.016473,1709024546.016473,-13.18359375,-20.01953125,-25.390625,-27.83203125,-1.0,1.0,1.0,0.0,9.m4v,1.0
2024-02-27 10:02:26.024283,1709024546.0242834,-43.45703125,-39.55078125,-5.859375,-42.96875,-1.0,1.0,1.0,0.0,9.m4v,1.0
2024-02-27 10:02:26.032094,1709024546.032094,-58.59375,-41.9921875,-45.41015625,-66.40625,-1.0,1.0,1.0,0.0,9.m4v,1.0
2024-02-27 10:02:26.039907,1709024546.039907,-31.25,-25.87890625,-41.50390625,-29.296875,-1.0,1.0,1.0,0.0,9.m4v,1.0
2024-02-27 10:02:26.047718,1709024546.0477176,-25.390625,-27.34375,-41.015625,-21.97265625,-1.0,1.0,1.0,0.0,9.m4v,1.0
2024-02-27 10:02:26.055528,1709024546.0555282,-6.34765625,-41.015625,-23.4375,-14.16015625,-1.0,1.0,1.0,0.0,9.m4v,1.0
2024-02-27 10:02:26.063339,1709024546.0633385,-33.203125,-27.34375,-12.6953125,-22.4609375,-1.0,1.0,1.0,0.0,9.m4v,1.0
2024-02-27 10:02:26.071149,1709024546.071149,-65.91796875,-27.34375,-51.7578125,-55.17578125,-1.0,1.0,1.0,0.0,9.m4v,1.0
2024-02-27 10:02:26.078960,1709024546.0789597,-30.2734375,-27.83203125,-33.203125,-27.34375,-1.0,1.0,1.0,0.0,9.m4v,1.0
2024-02-27 10:02:26.086772,1709024546.0867722,-36.1328125,-41.9921875,-45.41015625,-21.97265625,-1.0,1.0,1.0,0.0,9.m4v,1.0
2024-02-27 10:02:26.094583,1709024546.0945828,-12.6953125,-6.34765625,-8.7890625,-17.08984375,-1.0,1.0,1.0,0.0,9.m4v,1.0
2024-02-27 10:02:26.102393,1709024546.1023934,-31.73828125,-19.04296875,-11.71875,-29.296875,-1.0,1.0,1.0,0.0,9.m4v,1.0
2024-02-27 10:02:26.110204,1709024546.1102035,-42.96875,-44.43359375,-37.59765625,-47.36328125,-1.0,1.0,1.0,0.0,9.m4v,1.0
2024-02-27 10:02:26.692105,1709024546.6921046,-27.83203125,-37.109375,-38.0859375,-26.3671875,-1.0,1.0,1.0,0.0,9.m4v,1.0
2024-02-27 10:02:26.696010,1709024546.69601,-16.11328125,-41.9921875,-32.71484375,-11.71875,-1.0,1.0,1.0,0.0,9.m4v,1.0
2024-02-27 10:02:26.699915,1709024546.6999152,-20.01953125,-28.3203125,-29.296875,-22.4609375,-1.0,1.0,1.0,0.0,9.m4v,1.0
2024-02-27 10:02:26.703820,1709024546.7038202,-25.87890625,-20.99609375,-39.0625,-29.78515625,-1.0,1.0,1.0,0.0,9.m4v,1.0
2024-02-27 10:02:26.707726,1709024546.7077255,-22.94921875,-13.671875,-20.01953125,-28.3203125,-1.0,1.0,1.0,0.0,9.m4v,1.0
2024-02-27 10:02:26.711631,1709024546.7116308,-26.3671875,-36.1328125,-9.27734375,-38.0859375,-1.0,1.0,1.0,0.0,9.m4v,1.0
2024-02-27 10:02:26.715536,1709024546.715536,-37.59765625,-52.24609375,-25.390625,-44.921875,-1.0,1.0,1.0,0.0,9.m4v,1.0
2024-02-27 10:02:26.719441,1709024546.7194414,-44.43359375,-51.26953125,-38.57421875,-39.55078125,-1.0,1.0,1.0,0.0,9.m4v,1.0
2024-02-27 10:02:26.723346,1709024546.7233465,-25.390625,-31.73828125,-31.73828125,-17.578125,-1.0,1.0,1.0,0.0,9.m4v,1.0
2024-02-27 10:02:26.727252,1709024546.7272518,-15.625,0.48828125,-7.32421875,-10.25390625,-1.0,1.0,1.0,0.0,9.m4v,1.0
2024-02-27 10:02:26.731157,1709024546.731157,-20.01953125,-1.953125,-11.23046875,-18.5546875,-1.0,1.0,1.0,0.0,9.m4v,1.0
2024-02-27 10:02:26.735062,1709024546.7350624,-30.2734375,-35.15625,-43.9453125,-27.34375,-1.0,1.0,1.0,0.0,9.m4v,1.0
2024-02-27 10:02:26.738971,1709024546.7389708,-34.1796875,-36.62109375,-47.36328125,-30.2734375,-1.0,1.0,1.0,0.0,9.m4v,1.0
2024-02-27 10:02:26.742876,1709024546.742876,-32.71484375,-17.578125,-36.1328125,-34.66796875,-1.0,1.0,1.0,0.0,9.m4v,1.0
2024-02-27 10:02:26.746781,1709024546.746781,-32.71484375,-28.3203125,-44.921875,-39.55078125,-1.0,1.0,1.0,0.0,9.m4v,1.0
2024-02-27 10:02:26.750686,1709024546.7506864,-18.5546875,-44.921875,-40.52734375,-22.4609375,-1.0,1.0,1.0,0.0,9.m4v,1.0
2024-02-27 10:02:26.754592,1709024546.7545917,-16.6015625,-56.15234375,-20.99609375,-20.99609375,-1.0,1.0,1.0,0.0,9.m4v,1.0
2024-02-27 10:02:26.758497,1709024546.758497,-20.5078125,-42.96875,-23.4375,-28.80859375,-1.0,1.0,1.0,0.0,9.m4v,1.0
2024-02-27 10:02:26.762402,1709024546.7624023,-34.1796875,-27.83203125,-28.3203125,-39.0625,-1.0,1.0,1.0,0.0,9.m4v,1.0
2024-02-27 10:02:26.766308,1709024546.7663076,-38.0859375,-0.48828125,-11.23046875,-32.2265625,-1.0,1.0,1.0,0.0,9.m4v,1.0
2024-02-27 10:02:26.770213,1709024546.770213,-23.4375,-1.46484375,-9.27734375,-13.671875,-1.0,1.0,1.0,0.0,9.m4v,1.0
2024-02-27 10:02:26.774118,1709024546.774118,-19.04296875,-16.11328125,-29.296875,-28.3203125,-1.0,1.0,1.0,0.0,9.m4v,1.0
2024-02-27 10:02:26.778023,1709024546.7780232,-32.71484375,-19.04296875,-50.78125,-44.43359375,-1.0,1.0,1.0,0.0,9.m4v,1.0
2024-02-27 10:02:26.781929,1709024546.7819283,-39.55078125,-39.55078125,-53.22265625,-31.73828125,-1.0,1.0,1.0,0.0,9.m4v,1.0
2024-02-27 10:02:26.785836,1709024546.7858365,-24.4140625,-46.875,-51.7578125,-25.390625,-1.0,1.0,1.0,0.0,9.m4v,1.0
2024-02-27 10:02:26.789742,1709024546.7897418,-26.85546875,-28.80859375,-54.19921875,-36.62109375,-1.0,1.0,1.0,0.0,9.m4v,1.0
2024-02-27 10:02:26.793647,1709024546.793647,-44.921875,-39.0625,-61.03515625,-41.50390625,-1.0,1.0,1.0,0.0,9.m4v,1.0
2024-02-27 10:02:26.797552,1709024546.797552,-39.55078125,-70.3125,-52.24609375,-35.15625,-1.0,1.0,1.0,0.0,9.m4v,1.0
2024-02-27 10:02:26.801457,1709024546.8014574,-16.11328125,-62.5,-22.94921875,-29.78515625,-1.0,1.0,1.0,0.0,9.m4v,1.0
2024-02-27 10:02:26.805363,1709024546.8053627,-18.5546875,-33.69140625,-13.671875,-30.76171875,-1.0,1.0,1.0,0.0,9.m4v,1.0
2024-02-27 10:02:26.809268,1709024546.809268,-27.34375,-18.06640625,-15.13671875,-33.203125,-1.0,1.0,1.0,0.0,9.m4v,1.0
2024-02-27 10:02:26.813173,1709024546.8131733,-25.87890625,-20.5078125,-19.04296875,-38.57421875,-1.0,1.0,1.0,0.0,9.m4v,1.0
2024-02-27 10:02:26.817078,1709024546.8170784,-27.34375,-15.13671875,-26.3671875,-41.015625,-1.0,1.0,1.0,0.0,9.m4v,1.0
2024-02-27 10:02:26.820984,1709024546.8209836,-45.41015625,-21.484375,-37.109375,-50.29296875,-1.0,1.0,1.0,0.0,9.m4v,1.0
2024-02-27 10:02:26.824889,1709024546.824889,-45.8984375,-25.87890625,-30.2734375,-39.0625,-1.0,1.0,1.0,0.0,9.m4v,1.0
2024-02-27 10:02:26.828794,1709024546.8287942,-34.66796875,-23.92578125,-41.50390625,-31.73828125,-1.0,1.0,1.0,0.0,9.m4v,1.0
2024-02-27 10:02:26.832702,1709024546.8327017,-13.671875,-9.27734375,-47.8515625,-17.08984375,-1.0,1.0,1.0,0.0,9.m4v,1.0
2024-02-27 10:02:26.836607,1709024546.836607,2.44140625,-11.71875,-30.2734375,4.8828125,-1.0,1.0,1.0,0.0,9.m4v,1.0
2024-02-27 10:02:26.840512,1709024546.8405125,-32.71484375,-52.24609375,-52.24609375,-34.1796875,-1.0,1.0,1.0,0.0,9.m4v,1.0
2024-02-27 10:02:26.844418,1709024546.8444176,-56.15234375,-54.6875,-56.15234375,-50.29296875,-1.0,1.0,1.0,0.0,9.m4v,1.0
2024-02-27 10:02:26.848323,1709024546.8483229,-47.8515625,-35.15625,-41.50390625,-42.48046875,-1.0,1.0,1.0,0.0,9.m4v,1.0
2024-02-27 10:02:26.852228,1709024546.852228,-36.1328125,-34.1796875,-42.48046875,-58.10546875,-1.0,1.0,1.0,0.0,9.m4v,1.0
2024-02-27 10:02:26.856133,1709024546.8561332,-33.69140625,-36.1328125,-31.25,-49.31640625,-1.0,1.0,1.0,0.0,9.m4v,1.0
2024-02-27 10:02:26.860039,1709024546.8600385,-28.80859375,-31.25,-22.4609375,-37.59765625,-1.0,1.0,1.0,0.0,9.m4v,1.0
2024-02-27 10:02:26.863944,1709024546.8639438,-9.765625,-21.97265625,-7.8125,-18.5546875,-1.0,1.0,1.0,0.0,9.m4v,1.0
2024-02-27 10:02:26.867849,1709024546.867849,-6.8359375,-28.80859375,-14.6484375,-10.25390625,-1.0,1.0,1.0,0.0,9.m4v,1.0
2024-02-27 10:02:26.871754,1709024546.8717542,-11.71875,-32.71484375,-27.34375,-16.11328125,-1.0,1.0,1.0,0.0,9.m4v,1.0
2024-02-27 10:02:26.875659,1709024546.8756597,-17.08984375,-64.94140625,-25.87890625,-30.2734375,-1.0,1.0,1.0,0.0,9.m4v,1.0
2024-02-27 10:02:26.879567,1709024546.8795671,-43.45703125,-88.37890625,-48.828125,-56.640625,-1.0,1.0,1.0,0.0,9.m4v,1.0
2024-02-27 10:02:26.883472,1709024546.8834724,-51.26953125,-53.7109375,-52.24609375,-57.6171875,-1.0,1.0,1.0,0.0,9.m4v,1.0
2024-02-27 10:02:26.887378,1709024546.8873775,-20.01953125,-18.5546875,-35.64453125,-40.52734375,-1.0,1.0,1.0,0.0,9.m4v,1.0
2024-02-27 10:02:26.891283,1709024546.8912828,-12.6953125,-13.671875,-37.109375,-37.59765625,-1.0,1.0,1.0,0.0,9.m4v,1.0
2024-02-27 10:02:26.895188,1709024546.895188,-30.76171875,-18.5546875,-35.15625,-44.921875,-1.0,1.0,1.0,0.0,9.m4v,1.0
2024-02-27 10:02:26.899093,1709024546.8990934,-28.3203125,-4.39453125,-21.97265625,-23.92578125,-1.0,1.0,1.0,0.0,9.m4v,1.0
2024-02-27 10:02:26.902999,1709024546.9029987,-30.2734375,-13.18359375,-18.5546875,-25.87890625,-1.0,1.0,1.0,0.0,9.m4v,1.0
2024-02-27 10:02:26.906904,1709024546.9069035,-31.25,-38.0859375,-15.13671875,-43.9453125,-1.0,1.0,1.0,0.0,9.m4v,1.0
2024-02-27 10:02:26.910809,1709024546.910809,-30.76171875,-41.015625,-27.83203125,-30.2734375,-1.0,1.0,1.0,0.0,9.m4v,1.0
2024-02-27 10:02:26.914714,1709024546.9147143,-14.6484375,-40.0390625,-39.55078125,-14.16015625,-1.0,1.0,1.0,0.0,9.m4v,1.0
2024-02-27 10:02:26.918620,1709024546.9186196,-21.97265625,-43.45703125,-39.55078125,-24.4140625,-1.0,1.0,1.0,0.0,9.m4v,1.0
2024-02-27 10:02:26.922525,1709024546.922525,-38.57421875,-37.59765625,-41.015625,-34.1796875,-1.0,1.0,1.0,0.0,9.m4v,1.0
2024-02-27 10:02:26.926432,1709024546.9264317,-27.83203125,-32.71484375,-36.1328125,-26.85546875,-1.0,1.0,1.0,0.0,9.m4v,1.0
2024-02-27 10:02:26.930337,1709024546.930337,-25.87890625,-42.48046875,-36.1328125,-27.34375,-1.0,1.0,1.0,0.0,9.m4v,1.0
2024-02-27 10:02:26.934242,1709024546.934242,-17.578125,-20.01953125,-30.2734375,-13.671875,-1.0,1.0,1.0,0.0,9.m4v,1.0
2024-02-27 10:02:26.938147,1709024546.9381473,-9.765625,-3.90625,-14.16015625,-12.20703125,-1.0,1.0,1.0,0.0,9.m4v,1.0
2024-02-27 10:02:26.942053,1709024546.9420526,-56.640625,-32.71484375,-20.5078125,-62.5,-1.0,1.0,1.0,0.0,9.m4v,1.0
2024-02-27 10:02:26.945958,1709024546.945958,-73.73046875,-34.66796875,-42.48046875,-81.54296875,-1.0,1.0,1.0,0.0,9.m4v,1.0
2024-02-27 10:02:26.949863,1709024546.9498632,-35.15625,-37.109375,-37.59765625,-45.41015625,-1.0,1.0,1.0,0.0,9.m4v,1.0
2024-02-27 10:02:26.953768,1709024546.9537685,-23.4375,-63.4765625,-26.3671875,-27.83203125,-1.0,1.0,1.0,0.0,9.m4v,1.0
2024-02-27 10:02:26.957674,1709024546.9576735,-43.9453125,-77.1484375,-59.08203125,-47.36328125,-1.0,1.0,1.0,0.0,9.m4v,1.0
2024-02-27 10:02:26.961579,1709024546.9615788,-35.15625,-44.921875,-60.546875,-37.59765625,-1.0,1.0,1.0,0.0,9.m4v,1.0
2024-02-27 10:02:27.149033,1709024547.1490328,-33.203125,-12.20703125,-37.109375,-19.53125,-1.0,1.0,1.0,0.0,9.m4v,1.0
2024-02-27 10:02:27.156843,1709024547.1568434,-38.57421875,-20.5078125,-11.71875,-31.25,-1.0,1.0,1.0,0.0,9.m4v,1.0
2024-02-27 10:02:27.164656,1709024547.1646562,-63.96484375,-48.33984375,-23.92578125,-56.15234375,-1.0,1.0,1.0,0.0,9.m4v,1.0
2024-02-27 10:02:27.172467,1709024547.1724668,-34.66796875,-53.22265625,-27.83203125,-43.45703125,-1.0,1.0,1.0,0.0,9.m4v,1.0
2024-02-27 10:02:27.180277,1709024547.180277,-44.43359375,-43.45703125,-55.6640625,-42.48046875,-1.0,1.0,1.0,0.0,9.m4v,1.0
2024-02-27 10:02:27.188088,1709024547.1880877,-31.73828125,-21.97265625,-32.71484375,-20.5078125,-1.0,1.0,1.0,0.0,9.m4v,1.0
2024-02-27 10:02:27.195898,1709024547.1958983,-24.4140625,-21.484375,-23.92578125,-21.97265625,-1.0,1.0,1.0,0.0,9.m4v,1.0
2024-02-27 10:02:27.203709,1709024547.2037086,-20.5078125,-23.4375,-24.90234375,-19.53125,-1.0,1.0,1.0,0.0,9.m4v,1.0
2024-02-27 10:02:27.211522,1709024547.2115216,-20.5078125,-26.85546875,-26.3671875,-20.99609375,-1.0,1.0,1.0,0.0,9.m4v,1.0
2024-02-27 10:02:27.219332,1709024547.219332,-45.41015625,-48.33984375,-40.52734375,-52.734375,-1.0,1.0,1.0,0.0,9.m4v,1.0
2024-02-27 10:02:27.227143,1709024547.2271426,-18.5546875,-23.92578125,-44.43359375,-20.5078125,-1.0,1.0,1.0,0.0,9.m4v,1.0
2024-02-27 10:02:27.234953,1709024547.234953,-55.17578125,-60.546875,-32.71484375,-62.5,-1.0,1.0,1.0,0.0,9.m4v,1.0
2024-02-27 10:02:27.242764,1709024547.2427635,-22.94921875,-55.6640625,-23.92578125,-29.78515625,-1.0,1.0,1.0,0.0,9.m4v,1.0
2024-02-27 10:02:27.250574,1709024547.250574,-16.11328125,-31.25,-43.45703125,-37.59765625,-1.0,1.0,1.0,0.0,9.m4v,1.0
2024-02-27 10:02:27.258386,1709024547.2583864,-10.7421875,-43.45703125,-51.26953125,-38.0859375,-1.0,1.0,1.0,0.0,9.m4v,1.0
2024-02-27 10:02:27.266197,1709024547.266197,-25.390625,-18.06640625,-36.62109375,-28.80859375,-1.0,1.0,1.0,0.0,9.m4v,1.0
2024-02-27 10:02:27.274007,1709024547.274007,-38.0859375,-21.97265625,-35.15625,-62.98828125,-1.0,1.0,1.0,0.0,9.m4v,1.0
2024-02-27 10:02:27.723126,1709024547.7231257,-3.90625,-45.8984375,-22.94921875,-4.8828125,-1.0,1.0,1.0,0.0,9.m4v,1.0
2024-02-27 10:02:27.727031,1709024547.7270308,-15.625,-28.80859375,-31.73828125,-10.7421875,-1.0,1.0,1.0,0.0,9.m4v,1.0
2024-02-27 10:02:27.730936,1709024547.730936,-32.2265625,-22.4609375,-23.4375,-19.04296875,-1.0,1.0,1.0,0.0,9.m4v,1.0
2024-02-27 10:02:27.734841,1709024547.734841,-29.296875,-26.3671875,-31.25,-23.92578125,-1.0,1.0,1.0,0.0,9.m4v,1.0
2024-02-27 10:02:27.738747,1709024547.7387466,-33.203125,-11.23046875,-38.0859375,-25.87890625,-1.0,1.0,1.0,0.0,9.m4v,1.0
2024-02-27 10:02:27.742652,1709024547.742652,-54.6875,-12.6953125,-34.1796875,-48.828125,-1.0,1.0,1.0,0.0,9.m4v,1.0
2024-02-27 10:02:27.746557,1709024547.7465572,-57.12890625,-19.04296875,-27.34375,-44.921875,-1.0,1.0,1.0,0.0,9.m4v,1.0
2024-02-27 10:02:27.750462,1709024547.7504623,-52.734375,-46.875,-27.34375,-39.55078125,-1.0,1.0,1.0,0.0,9.m4v,1.0
2024-02-27 10:02:27.754368,1709024547.7543676,-48.828125,-47.8515625,-31.73828125,-49.31640625,-1.0,1.0,1.0,0.0,9.m4v,1.0
2024-02-27 10:02:27.758273,1709024547.758273,-53.7109375,-28.3203125,-28.3203125,-41.50390625,-1.0,1.0,1.0,0.0,9.m4v,1.0
2024-02-27 10:02:27.762178,1709024547.7621782,-31.25,-21.484375,-24.90234375,-7.32421875,-1.0,1.0,1.0,0.0,9.m4v,1.0
2024-02-27 10:02:27.766083,1709024547.7660837,1.46484375,-9.27734375,-7.8125,9.27734375,-1.0,1.0,1.0,0.0,9.m4v,1.0
2024-02-27 10:02:27.769989,1709024547.7699893,-24.90234375,-42.48046875,-20.5078125,-26.3671875,-1.0,1.0,1.0,0.0,9.m4v,1.0
2024-02-27 10:02:27.773895,1709024547.7738943,-45.8984375,-57.12890625,-34.1796875,-55.17578125,-1.0,1.0,1.0,0.0,9.m4v,1.0
2024-02-27 10:02:27.777800,1709024547.7777998,-46.875,-43.45703125,-43.45703125,-61.03515625,-1.0,1.0,1.0,0.0,9.m4v,1.0
2024-02-27 10:02:27.781705,1709024547.7817051,-34.66796875,-18.06640625,-37.109375,-36.62109375,-1.0,1.0,1.0,0.0,9.m4v,1.0
2024-02-27 10:02:27.785610,1709024547.7856102,-12.20703125,5.859375,-18.06640625,0.0,-1.0,1.0,1.0,0.0,9.m4v,1.0
2024-02-27 10:02:27.789515,1709024547.7895155,-13.671875,-6.34765625,-32.71484375,-5.37109375,-1.0,1.0,1.0,0.0,9.m4v,1.0
2024-02-27 10:02:27.793421,1709024547.7934208,-25.87890625,-9.765625,-29.296875,-31.25,-1.0,1.0,1.0,0.0,9.m4v,1.0
2024-02-27 10:02:27.797326,1709024547.797326,-34.66796875,-24.90234375,-16.6015625,-43.9453125,-1.0,1.0,1.0,0.0,9.m4v,1.0
2024-02-27 10:02:27.801231,1709024547.8012314,-40.0390625,-51.7578125,-8.30078125,-39.55078125,-1.0,1.0,1.0,0.0,9.m4v,1.0
2024-02-27 10:02:27.805137,1709024547.805137,-42.48046875,-52.24609375,-18.5546875,-29.78515625,-1.0,1.0,1.0,0.0,9.m4v,1.0
2024-02-27 10:02:27.809042,1709024547.8090415,-32.2265625,-41.015625,-37.59765625,-22.4609375,-1.0,1.0,1.0,0.0,9.m4v,1.0
2024-02-27 10:02:27.812947,1709024547.812947,-7.32421875,-38.0859375,-25.390625,-7.32421875,-1.0,1.0,1.0,0.0,9.m4v,1.0
2024-02-27 10:02:27.816858,1709024547.8168583,-16.11328125,-48.33984375,-41.50390625,-30.76171875,-1.0,1.0,1.0,0.0,9.m4v,1.0
2024-02-27 10:02:27.820764,1709024547.8207636,-35.64453125,-41.015625,-41.9921875,-45.41015625,-1.0,1.0,1.0,0.0,9.m4v,1.0
2024-02-27 10:02:27.824669,1709024547.824669,-36.1328125,-30.76171875,-34.66796875,-38.57421875,-1.0,1.0,1.0,0.0,9.m4v,1.0
2024-02-27 10:02:27.828574,1709024547.8285742,-21.97265625,-34.66796875,-42.48046875,-21.97265625,-1.0,1.0,1.0,0.0,9.m4v,1.0
2024-02-27 10:02:27.832479,1709024547.8324792,-2.44140625,-12.20703125,-16.6015625,0.9765625,-1.0,1.0,1.0,0.0,9.m4v,1.0
2024-02-27 10:02:27.836385,1709024547.8363843,-13.18359375,-5.37109375,-7.32421875,-32.71484375,-1.0,1.0,1.0,0.0,9.m4v,1.0
2024-02-27 10:02:27.840290,1709024547.8402898,-43.45703125,-29.78515625,-39.0625,-73.2421875,-1.0,1.0,1.0,0.0,9.m4v,1.0
2024-02-27 10:02:27.844195,1709024547.8441951,-62.98828125,-37.59765625,-56.640625,-69.3359375,-1.0,1.0,1.0,0.0,9.m4v,1.0
2024-02-27 10:02:27.848100,1709024547.8481004,-35.15625,-26.85546875,-42.96875,-38.57421875,-1.0,1.0,1.0,0.0,9.m4v,1.0
2024-02-27 10:02:27.852005,1709024547.8520055,-0.48828125,-20.5078125,-19.04296875,-12.6953125,-1.0,1.0,1.0,0.0,9.m4v,1.0
2024-02-27 10:02:27.855911,1709024547.8559108,0.0,-20.99609375,-6.34765625,-3.41796875,-1.0,1.0,1.0,0.0,9.m4v,1.0
2024-02-27 10:02:27.859816,1709024547.859816,-25.390625,-48.828125,-31.25,-32.2265625,-1.0,1.0,1.0,0.0,9.m4v,1.0
2024-02-27 10:02:27.863724,1709024547.8637245,-31.25,-62.98828125,-42.96875,-45.8984375,-1.0,1.0,1.0,0.0,9.m4v,1.0
2024-02-27 10:02:27.867630,1709024547.8676298,-21.484375,-45.41015625,-34.1796875,-26.85546875,-1.0,1.0,1.0,0.0,9.m4v,1.0
2024-02-27 10:02:27.871535,1709024547.871535,-31.25,-37.59765625,-47.8515625,-48.828125,-1.0,1.0,1.0,0.0,9.m4v,1.0
2024-02-27 10:02:27.875440,1709024547.87544,-30.2734375,-18.06640625,-55.17578125,-48.828125,-1.0,1.0,1.0,0.0,9.m4v,1.0
2024-02-27 10:02:27.879345,1709024547.8793454,-13.671875,3.90625,-17.578125,-25.87890625,-1.0,1.0,1.0,0.0,9.m4v,1.0
2024-02-27 10:02:27.883251,1709024547.8832507,-26.85546875,-6.34765625,-6.8359375,-40.0390625,-1.0,1.0,1.0,0.0,9.m4v,1.0
2024-02-27 10:02:27.887156,1709024547.887156,-50.78125,-37.59765625,-45.41015625,-53.7109375,-1.0,1.0,1.0,0.0,9.m4v,1.0
2024-02-27 10:02:27.891061,1709024547.8910613,-33.203125,-38.57421875,-34.66796875,-19.53125,-1.0,1.0,1.0,0.0,9.m4v,1.0
2024-02-27 10:02:27.894966,1709024547.8949664,0.48828125,-24.90234375,2.44140625,5.37109375,-1.0,1.0,1.0,0.0,9.m4v,1.0
2024-02-27 10:02:27.898872,1709024547.8988717,6.8359375,-31.73828125,2.9296875,-13.671875,-1.0,1.0,1.0,0.0,9.m4v,1.0
2024-02-27 10:02:27.902777,1709024547.902777,-48.828125,-50.78125,-42.96875,-51.26953125,-1.0,1.0,1.0,0.0,9.m4v,1.0
2024-02-27 10:02:27.906682,1709024547.9066825,-80.078125,-54.6875,-54.19921875,-79.58984375,-1.0,1.0,1.0,0.0,9.m4v,1.0
2024-02-27 10:02:27.910590,1709024547.9105902,-54.6875,-51.7578125,-33.203125,-68.84765625,-1.0,1.0,1.0,0.0,9.m4v,1.0
2024-02-27 10:02:27.914495,1709024547.9144957,-30.76171875,-50.78125,-33.203125,-47.8515625,-1.0,1.0,1.0,0.0,9.m4v,1.0
2024-02-27 10:02:27.918401,1709024547.9184008,-16.6015625,-45.41015625,-37.59765625,-40.52734375,-1.0,1.0,1.0,0.0,9.m4v,1.0
2024-02-27 10:02:27.922306,1709024547.922306,-19.04296875,-21.97265625,-39.55078125,-25.390625,-1.0,1.0,1.0,0.0,9.m4v,1.0
2024-02-27 10:02:27.926211,1709024547.9262114,-10.25390625,-7.32421875,-14.6484375,-4.8828125,-1.0,1.0,1.0,0.0,9.m4v,1.0
2024-02-27 10:02:27.930116,1709024547.9301164,9.27734375,-9.27734375,0.9765625,8.30078125,-1.0,1.0,1.0,0.0,9.m4v,1.0
2024-02-27 10:02:27.934022,1709024547.9340217,14.16015625,-11.23046875,8.7890625,10.25390625,-1.0,1.0,1.0,0.0,9.m4v,1.0
2024-02-27 10:02:27.937927,1709024547.937927,-19.53125,-25.390625,-12.6953125,-31.25,-1.0,1.0,1.0,0.0,9.m4v,1.0
2024-02-27 10:02:27.941832,1709024547.9418323,-59.08203125,-38.57421875,-60.05859375,-59.08203125,-1.0,1.0,1.0,0.0,9.m4v,1.0
2024-02-27 10:02:27.945738,1709024547.9457376,-55.17578125,-44.43359375,-58.59375,-44.43359375,-1.0,1.0,1.0,0.0,9.m4v,1.0
2024-02-27 10:02:27.949643,1709024547.949643,-48.33984375,-52.734375,-37.109375,-46.38671875,-1.0,1.0,1.0,0.0,9.m4v,1.0
2024-02-27 10:02:27.953548,1709024547.953548,-44.921875,-45.8984375,-32.2265625,-42.96875,-1.0,1.0,1.0,0.0,9.m4v,1.0
2024-02-27 10:02:27.957456,1709024547.9574556,-41.50390625,-49.8046875,-43.9453125,-32.71484375,-1.0,1.0,1.0,0.0,9.m4v,1.0
2024-02-27 10:02:27.961361,1709024547.961361,-28.3203125,-41.015625,-40.0390625,-20.99609375,-1.0,1.0,1.0,0.0,9.m4v,1.0
2024-02-27 10:02:27.965266,1709024547.965266,-18.06640625,-8.7890625,-31.73828125,-15.625,-1.0,1.0,1.0,0.0,9.m4v,1.0
2024-02-27 10:02:27.969171,1709024547.9691713,-17.578125,0.48828125,-18.06640625,-15.13671875,-1.0,1.0,1.0,0.0,9.m4v,1.0
2024-02-27 10:02:27.973077,1709024547.9730766,-11.71875,-20.01953125,-13.671875,-19.53125,-1.0,1.0,1.0,0.0,9.m4v,1.0
2024-02-27 10:02:27.976982,1709024547.976982,-17.08984375,-55.6640625,-31.73828125,-25.87890625,-1.0,1.0,1.0,0.0,9.m4v,1.0
2024-02-27 10:02:27.980887,1709024547.9808872,-25.390625,-52.24609375,-27.34375,-32.71484375,-1.0,1.0,1.0,0.0,9.m4v,1.0
2024-02-27 10:02:27.984792,1709024547.9847922,-46.38671875,-27.83203125,-21.97265625,-52.24609375,-1.0,1.0,1.0,0.0,9.m4v,1.0
2024-02-27 10:02:27.988698,1709024547.9886975,-64.453125,-25.390625,-45.41015625,-49.31640625,-1.0,1.0,1.0,0.0,9.m4v,1.0
2024-02-27 10:02:27.992603,1709024547.9926028,-55.17578125,-61.03515625,-53.22265625,-47.8515625,-1.0,1.0,1.0,0.0,9.m4v,1.0
2024-02-27 10:02:27.996508,1709024547.996508,-31.73828125,-59.5703125,-44.43359375,-42.96875,-1.0,1.0,1.0,0.0,9.m4v,1.0
2024-02-27 10:02:28.000413,1709024548.0004134,-17.578125,-5.859375,-14.6484375,-24.4140625,-1.0,1.0,1.0,0.0,9.m4v,1.0
2024-02-27 10:02:28.004320,1709024548.0043204,-43.45703125,-8.30078125,-20.01953125,-44.921875,-1.0,1.0,1.0,0.0,9.m4v,1.0
2024-02-27 10:02:28.008226,1709024548.0082257,-54.6875,-26.3671875,-54.6875,-63.96484375,-1.0,1.0,1.0,0.0,9.m4v,1.0
2024-02-27 10:02:28.012131,1709024548.012131,-30.2734375,-20.01953125,-40.52734375,-33.69140625,-1.0,1.0,1.0,0.0,9.m4v,1.0
2024-02-27 10:02:28.016036,1709024548.0160365,-19.04296875,-14.6484375,-10.25390625,-31.25,-1.0,1.0,1.0,0.0,9.m4v,1.0
2024-02-27 10:02:28.019942,1709024548.0199416,-30.76171875,-32.71484375,-29.296875,-53.22265625,-1.0,1.0,1.0,0.0,9.m4v,1.0
2024-02-27 10:02:28.023847,1709024548.0238466,-51.7578125,-48.33984375,-50.78125,-62.01171875,-1.0,1.0,1.0,0.0,9.m4v,1.0
2024-02-27 10:02:28.027752,1709024548.027752,-53.7109375,-28.3203125,-38.0859375,-51.7578125,-1.0,1.0,1.0,0.0,9.m4v,1.0
2024-02-27 10:02:28.031657,1709024548.0316572,-26.3671875,-12.20703125,-13.18359375,-29.296875,-1.0,1.0,1.0,0.0,9.m4v,1.0
2024-02-27 10:02:28.035563,1709024548.0355625,-16.6015625,-47.36328125,-20.99609375,-31.25,-1.0,1.0,1.0,0.0,9.m4v,1.0
2024-02-27 10:02:28.039468,1709024548.0394678,-27.83203125,-52.24609375,-44.921875,-33.69140625,-1.0,1.0,1.0,0.0,9.m4v,1.0
2024-02-27 10:02:28.043373,1709024548.0433729,-18.5546875,-19.04296875,-29.296875,-2.9296875,-1.0,1.0,1.0,0.0,9.m4v,1.0
2024-02-27 10:02:28.047278,1709024548.0472782,-24.4140625,-10.25390625,-39.0625,-15.13671875,-1.0,1.0,1.0,0.0,9.m4v,1.0
2024-02-27 10:02:28.051185,1709024548.051185,-48.33984375,-25.87890625,-67.87109375,-59.5703125,-1.0,1.0,1.0,0.0,9.m4v,1.0
2024-02-27 10:02:28.055090,1709024548.0550902,-51.7578125,-42.48046875,-50.29296875,-50.78125,-1.0,1.0,1.0,0.0,9.m4v,1.0
2024-02-27 10:02:28.058995,1709024548.0589955,-34.1796875,-33.69140625,-10.7421875,-33.203125,-1.0,1.0,1.0,0.0,9.m4v,1.0
2024-02-27 10:02:28.062901,1709024548.0629008,-34.1796875,-9.765625,-23.4375,-38.57421875,-1.0,1.0,1.0,0.0,9.m4v,1.0
2024-02-27 10:02:28.066806,1709024548.0668058,-45.8984375,-13.671875,-57.12890625,-32.2265625,-1.0,1.0,1.0,0.0,9.m4v,1.0
2024-02-27 10:02:28.070711,1709024548.0707111,-31.25,-34.66796875,-49.8046875,-22.94921875,-1.0,1.0,1.0,0.0,9.m4v,1.0
2024-02-27 10:02:28.074616,1709024548.0746164,-16.11328125,-37.59765625,-39.55078125,-24.90234375,-1.0,1.0,1.0,0.0,9.m4v,1.0
2024-02-27 10:02:28.078522,1709024548.0785215,-2.9296875,-60.546875,-20.5078125,1.46484375,-1.0,1.0,1.0,0.0,9.m4v,1.0
2024-02-27 10:02:28.082427,1709024548.082427,-18.06640625,-68.359375,-18.06640625,-1.46484375,-1.0,1.0,1.0,0.0,9.m4v,1.0
2024-02-27 10:02:28.086332,1709024548.0863323,-47.8515625,-40.0390625,-34.66796875,-38.57421875,-1.0,1.0,1.0,0.0,9.m4v,1.0
2024-02-27 10:02:28.090237,1709024548.0902374,-51.7578125,-17.08984375,-27.83203125,-51.7578125,-1.0,1.0,1.0,0.0,9.m4v,1.0
2024-02-27 10:02:28.094143,1709024548.094143,-48.828125,-15.625,-25.87890625,-57.12890625,-1.0,1.0,1.0,0.0,9.m4v,1.0
2024-02-27 10:02:28.098049,1709024548.098049,-56.15234375,-25.390625,-41.50390625,-76.66015625,-1.0,1.0,1.0,0.0,9.m4v,1.0
2024-02-27 10:02:28.101954,1709024548.1019542,-60.05859375,-31.25,-41.50390625,-75.68359375,-1.0,1.0,1.0,0.0,9.m4v,1.0
2024-02-27 10:02:28.105860,1709024548.1058595,-57.6171875,-34.1796875,-42.96875,-58.10546875,-1.0,1.0,1.0,0.0,9.m4v,1.0
2024-02-27 10:02:28.109765,1709024548.1097648,-37.109375,-21.97265625,-32.2265625,-29.78515625,-1.0,1.0,1.0,0.0,9.m4v,1.0
2024-02-27 10:02:28.113670,1709024548.11367,-8.7890625,-4.8828125,-20.99609375,-6.8359375,-1.0,1.0,1.0,0.0,9.m4v,1.0
2024-02-27 10:02:28.117575,1709024548.1175752,0.9765625,-25.390625,-23.4375,-9.765625,-1.0,1.0,1.0,0.0,9.m4v,1.0
2024-02-27 10:02:28.121480,1709024548.1214805,-14.6484375,-59.08203125,-21.97265625,-18.5546875,-1.0,1.0,1.0,0.0,9.m4v,1.0
2024-02-27 10:02:28.125386,1709024548.1253858,-44.921875,-61.5234375,-41.015625,-35.15625,-1.0,1.0,1.0,0.0,9.m4v,1.0
2024-02-27 10:02:28.129291,1709024548.129291,-47.36328125,-33.203125,-40.0390625,-41.50390625,-1.0,1.0,1.0,0.0,9.m4v,1.0
2024-02-27 10:02:28.133196,1709024548.1331964,-25.390625,-25.390625,-14.6484375,-25.390625,-1.0,1.0,1.0,0.0,9.m4v,1.0
2024-02-27 10:02:28.137101,1709024548.1371014,-40.52734375,-41.50390625,-31.73828125,-26.85546875,-1.0,1.0,1.0,0.0,9.m4v,1.0
2024-02-27 10:02:28.141007,1709024548.1410067,-79.1015625,-41.015625,-52.24609375,-58.59375,-1.0,1.0,1.0,0.0,9.m4v,1.0
2024-02-27 10:02:28.144913,1709024548.144913,-65.91796875,-14.16015625,-37.59765625,-57.6171875,-1.0,1.0,1.0,0.0,9.m4v,1.0
2024-02-27 10:02:28.148818,1709024548.148818,-23.92578125,8.7890625,-35.15625,-14.6484375,-1.0,1.0,1.0,0.0,9.m4v,1.0
2024-02-27 10:02:28.152723,1709024548.1527233,-12.6953125,9.765625,-32.2265625,-9.765625,-1.0,1.0,1.0,0.0,9.m4v,1.0
2024-02-27 10:02:28.156629,1709024548.1566286,-24.90234375,-11.23046875,-27.83203125,-29.296875,-1.0,1.0,1.0,0.0,9.m4v,1.0
2024-02-27 10:02:28.160534,1709024548.160534,-41.50390625,-46.875,-31.73828125,-36.1328125,-1.0,1.0,1.0,0.0,9.m4v,1.0
2024-02-27 10:02:28.164439,1709024548.1644392,-37.109375,-57.6171875,-22.4609375,-34.1796875,-1.0,1.0,1.0,0.0,9.m4v,1.0
2024-02-27 10:02:28.168344,1709024548.1683445,-40.0390625,-55.17578125,-26.85546875,-36.62109375,-1.0,1.0,1.0,0.0,9.m4v,1.0
2024-02-27 10:02:28.172250,1709024548.1722496,-37.109375,-36.1328125,-21.484375,-34.1796875,-1.0,1.0,1.0,0.0,9.m4v,1.0
2024-02-27 10:02:28.176155,1709024548.1761549,-25.87890625,-15.13671875,-26.3671875,-33.69140625,-1.0,1.0,1.0,0.0,9.m4v,1.0
2024-02-27 10:02:28.180060,1709024548.18006,-34.66796875,-19.04296875,-34.1796875,-26.3671875,-1.0,1.0,1.0,0.0,9.m4v,1.0
2024-02-27 10:02:28.183965,1709024548.1839654,-58.10546875,-24.4140625,-35.15625,-54.6875,-1.0,1.0,1.0,0.0,9.m4v,1.0
2024-02-27 10:02:28.187871,1709024548.1878705,-61.03515625,-25.87890625,-46.875,-75.1953125,-1.0,1.0,1.0,0.0,9.m4v,1.0
2024-02-27 10:02:28.191776,1709024548.1917765,-38.0859375,-20.99609375,-41.50390625,-48.828125,-1.0,1.0,1.0,0.0,9.m4v,1.0
2024-02-27 10:02:28.195681,1709024548.195681,-12.20703125,-8.30078125,-24.90234375,-22.94921875,-1.0,1.0,1.0,0.0,9.m4v,1.0
2024-02-27 10:02:28.199587,1709024548.1995866,-3.41796875,-26.85546875,-25.390625,-12.20703125,-1.0,1.0,1.0,0.0,9.m4v,1.0
2024-02-27 10:02:28.203492,1709024548.203492,-3.41796875,-40.0390625,-24.4140625,-7.32421875,-1.0,1.0,1.0,0.0,9.m4v,1.0
2024-02-27 10:02:28.207397,1709024548.2073972,-9.27734375,-40.52734375,-16.11328125,-10.7421875,-1.0,1.0,1.0,0.0,9.m4v,1.0
2024-02-27 10:02:28.211303,1709024548.2113025,-38.57421875,-52.24609375,-29.78515625,-32.71484375,-1.0,1.0,1.0,0.0,9.m4v,1.0
2024-02-27 10:02:28.215208,1709024548.2152076,-46.38671875,-47.8515625,-37.109375,-54.6875,-1.0,1.0,1.0,0.0,9.m4v,1.0
2024-02-27 10:02:28.219113,1709024548.2191129,-36.1328125,-31.25,-36.62109375,-55.17578125,-1.0,1.0,1.0,0.0,9.m4v,1.0
2024-02-27 10:02:28.223018,1709024548.2230182,-47.36328125,-30.76171875,-32.2265625,-41.9921875,-1.0,1.0,1.0,0.0,9.m4v,1.0
2024-02-27 10:02:28.226923,1709024548.2269237,-44.43359375,-30.76171875,-24.4140625,-35.64453125,-1.0,1.0,1.0,0.0,9.m4v,1.0
2024-02-27 10:02:28.230829,1709024548.2308288,-30.2734375,-32.2265625,-20.99609375,-33.203125,-1.0,1.0,1.0,0.0,9.m4v,1.0
2024-02-27 10:02:28.234734,1709024548.234734,-24.90234375,-30.2734375,-16.11328125,-27.83203125,-1.0,1.0,1.0,0.0,9.m4v,1.0
2024-02-27 10:02:28.238646,1709024548.2386456,-16.11328125,-14.16015625,-14.16015625,-15.13671875,-1.0,1.0,1.0,0.0,9.m4v,1.0
2024-02-27 10:02:28.242551,1709024548.2425508,-29.296875,-33.69140625,-33.69140625,-18.06640625,-1.0,1.0,1.0,0.0,9.m4v,1.0
2024-02-27 10:02:28.246456,1709024548.246456,-20.99609375,-38.57421875,-30.2734375,-7.8125,-1.0,1.0,1.0,0.0,9.m4v,1.0
2024-02-27 10:02:28.250361,1709024548.2503614,-22.94921875,-42.48046875,-37.109375,-25.87890625,-1.0,1.0,1.0,0.0,9.m4v,1.0
2024-02-27 10:02:28.254267,1709024548.2542665,-45.8984375,-42.48046875,-64.453125,-55.17578125,-1.0,1.0,1.0,0.0,9.m4v,1.0
2024-02-27 10:02:28.258172,1709024548.2581718,-34.66796875,-19.53125,-53.7109375,-51.26953125,-1.0,1.0,1.0,0.0,9.m4v,1.0
2024-02-27 10:02:28.262077,1709024548.262077,-39.55078125,-39.55078125,-52.734375,-50.29296875,-1.0,1.0,1.0,0.0,9.m4v,1.0
2024-02-27 10:02:28.265982,1709024548.2659824,-36.62109375,-53.7109375,-49.8046875,-26.85546875,-1.0,1.0,1.0,0.0,9.m4v,1.0
2024-02-27 10:02:28.269888,1709024548.2698877,-25.87890625,-45.41015625,-27.34375,-21.97265625,-1.0,1.0,1.0,0.0,9.m4v,1.0
2024-02-27 10:02:28.273793,1709024548.2737927,-12.6953125,-29.78515625,-6.8359375,-32.71484375,-1.0,1.0,1.0,0.0,9.m4v,1.0
2024-02-27 10:02:28.277698,1709024548.277698,-9.765625,-15.625,-12.6953125,-26.85546875,-1.0,1.0,1.0,0.0,9.m4v,1.0
2024-02-27 10:02:28.281603,1709024548.281603,-21.484375,-9.765625,-19.53125,-41.50390625,-1.0,1.0,1.0,0.0,9.m4v,1.0
2024-02-27 10:02:28.285509,1709024548.2855089,-43.9453125,-15.13671875,-31.25,-53.22265625,-1.0,1.0,1.0,0.0,9.m4v,1.0
2024-02-27 10:02:28.285509,1709024548.2855089,-43.9453125,-15.13671875,-31.25,-53.22265625,-1.0,1.0,1.0,0.0,9.m4v,1.0
2024-02-27 10:02:28.289414,1709024548.2894142,-50.29296875,-19.53125,-41.015625,-38.0859375,-1.0,1.0,1.0,0.0,9.m4v,1.0
2024-02-27 10:02:28.289414,1709024548.2894142,-50.29296875,-19.53125,-41.015625,-38.0859375,-1.0,1.0,1.0,0.0,9.m4v,1.0
2024-02-27 10:02:28.293319,1709024548.2933197,-32.2265625,-18.5546875,-34.66796875,-23.92578125,-1.0,1.0,1.0,0.0,9.m4v,1.0
2024-02-27 10:02:28.293319,1709024548.2933197,-32.2265625,-18.5546875,-34.66796875,-23.92578125,-1.0,1.0,1.0,0.0,9.m4v,1.0
2024-02-27 10:02:28.297225,1709024548.2972248,-1.46484375,-21.484375,-26.3671875,-7.8125,-1.0,1.0,1.0,0.0,9.m4v,1.0
2024-02-27 10:02:28.297225,1709024548.2972248,-1.46484375,-21.484375,-26.3671875,-7.8125,-1.0,1.0,1.0,0.0,9.m4v,1.0
2024-02-27 10:02:28.301130,1709024548.30113,-10.25390625,-39.0625,-37.59765625,-24.90234375,-1.0,1.0,1.0,0.0,9.m4v,1.0
2024-02-27 10:02:28.301130,1709024548.30113,-10.25390625,-39.0625,-37.59765625,-24.90234375,-1.0,1.0,1.0,0.0,9.m4v,1.0
2024-02-27 10:02:28.305035,1709024548.305035,-10.25390625,-48.33984375,-40.52734375,-21.97265625,-1.0,1.0,1.0,0.0,9.m4v,1.0
2024-02-27 10:02:28.305035,1709024548.305035,-10.25390625,-48.33984375,-40.52734375,-21.97265625,-1.0,1.0,1.0,0.0,9.m4v,1.0
2024-02-27 10:02:28.308940,1709024548.3089404,-15.625,-34.1796875,-25.390625,-5.859375,-1.0,1.0,1.0,0.0,9.m4v,1.0
2024-02-27 10:02:28.312846,1709024548.3128457,-51.7578125,-41.9921875,-25.390625,-52.734375,-1.0,1.0,1.0,0.0,9.m4v,1.0
2024-02-27 10:02:28.316751,1709024548.316751,-56.640625,-39.0625,-8.30078125,-63.96484375,-1.0,1.0,1.0,0.0,9.m4v,1.0
2024-02-27 10:02:28.320656,1709024548.3206563,-44.921875,-24.4140625,-0.48828125,-41.015625,-1.0,1.0,1.0,0.0,9.m4v,1.0
2024-02-27 10:02:28.324561,1709024548.3245614,-54.19921875,-43.9453125,-23.4375,-43.9453125,-1.0,1.0,1.0,0.0,9.m4v,1.0
2024-02-27 10:02:28.328467,1709024548.328467,-56.15234375,-56.640625,-39.0625,-53.22265625,-1.0,1.0,1.0,0.0,9.m4v,1.0
2024-02-27 10:02:28.332374,1709024548.3323743,-36.62109375,-39.55078125,-41.50390625,-42.48046875,-1.0,1.0,1.0,0.0,9.m4v,1.0
2024-02-27 10:02:28.336279,1709024548.3362794,-20.5078125,-29.78515625,-40.0390625,-21.484375,-1.0,1.0,1.0,0.0,9.m4v,1.0
2024-02-27 10:02:28.340185,1709024548.3401847,-19.53125,-36.62109375,-44.43359375,-8.7890625,-1.0,1.0,1.0,0.0,9.m4v,1.0
2024-02-27 10:02:28.344090,1709024548.34409,-18.5546875,-33.203125,-36.1328125,-7.32421875,-1.0,1.0,1.0,0.0,9.m4v,1.0
2024-02-27 10:02:28.347995,1709024548.3479953,9.27734375,-8.7890625,-35.64453125,18.06640625,-1.0,1.0,1.0,0.0,9.m4v,1.0
2024-02-27 10:02:28.351901,1709024548.3519006,43.45703125,-5.37109375,-43.9453125,61.03515625,-1.0,1.0,1.0,0.0,9.m4v,1.0
2024-02-27 10:02:28.355806,1709024548.3558056,12.20703125,-63.4765625,-52.734375,17.08984375,-1.0,1.0,1.0,0.0,9.m4v,1.0
2024-02-27 10:02:28.359711,1709024548.359711,-32.71484375,-74.70703125,-45.8984375,-26.3671875,-1.0,1.0,1.0,0.0,9.m4v,1.0
2024-02-27 10:02:28.363616,1709024548.3636162,-57.6171875,-50.78125,-33.69140625,-39.55078125,-1.0,1.0,1.0,0.0,9.m4v,1.0
2024-02-27 10:02:28.367522,1709024548.3675215,-77.63671875,-37.59765625,-28.80859375,-74.21875,-1.0,1.0,1.0,0.0,9.m4v,1.0
2024-02-27 10:02:28.371427,1709024548.3714268,-78.125,-36.62109375,-41.50390625,-80.56640625,-1.0,1.0,1.0,0.0,9.m4v,1.0
2024-02-27 10:02:28.375332,1709024548.375332,-54.6875,-33.203125,-50.78125,-60.05859375,-1.0,1.0,1.0,0.0,9.m4v,1.0
2024-02-27 10:02:28.379239,1709024548.379239,-21.484375,-4.8828125,-41.9921875,-25.390625,-1.0,1.0,1.0,0.0,9.m4v,1.0
2024-02-27 10:02:28.383144,1709024548.3831444,-14.6484375,-4.8828125,-36.62109375,-2.9296875,-1.0,1.0,1.0,0.0,9.m4v,1.0
2024-02-27 10:02:28.387050,1709024548.3870497,-2.44140625,-22.94921875,-29.78515625,6.8359375,-1.0,1.0,1.0,0.0,9.m4v,1.0
2024-02-27 10:02:28.390955,1709024548.390955,17.578125,-22.4609375,-29.296875,22.94921875,-1.0,1.0,1.0,0.0,9.m4v,1.0
2024-02-27 10:02:28.394860,1709024548.39486,5.859375,-29.78515625,-20.99609375,8.7890625,-1.0,1.0,1.0,0.0,9.m4v,1.0
2024-02-27 10:02:28.398765,1709024548.398765,-33.203125,-51.26953125,-31.73828125,-41.50390625,-1.0,1.0,1.0,0.0,9.m4v,1.0
2024-02-27 10:02:28.402671,1709024548.4026706,-52.734375,-48.33984375,-38.0859375,-47.36328125,-1.0,1.0,1.0,0.0,9.m4v,1.0
2024-02-27 10:02:28.406576,1709024548.406576,-49.8046875,-36.62109375,-34.1796875,-43.9453125,-1.0,1.0,1.0,0.0,9.m4v,1.0
2024-02-27 10:02:28.410481,1709024548.4104812,-48.33984375,-23.4375,-29.296875,-46.38671875,-1.0,1.0,1.0,0.0,9.m4v,1.0
2024-02-27 10:02:28.414386,1709024548.4143865,-31.73828125,-28.3203125,-37.109375,-34.66796875,-1.0,1.0,1.0,0.0,9.m4v,1.0
2024-02-27 10:02:28.418292,1709024548.4182916,-4.8828125,-14.16015625,-25.87890625,-12.6953125,-1.0,1.0,1.0,0.0,9.m4v,1.0
2024-02-27 10:02:28.422197,1709024548.4221969,-4.39453125,-16.11328125,-17.578125,-1.953125,-1.0,1.0,1.0,0.0,9.m4v,1.0
2024-02-27 10:02:28.426104,1709024548.4261036,-20.5078125,-45.41015625,-41.50390625,-5.859375,-1.0,1.0,1.0,0.0,9.m4v,1.0
2024-02-27 10:02:28.801019,1709024548.8010192,-85.9375,-39.55078125,-43.9453125,-95.21484375,-1.0,1.0,1.0,0.0,9.m4v,1.0
2024-02-27 10:02:28.812735,1709024548.812735,-91.30859375,-33.203125,-24.4140625,-92.7734375,-1.0,1.0,1.0,0.0,9.m4v,1.0
2024-02-27 10:02:28.820545,1709024548.8205454,-62.98828125,-39.0625,-55.17578125,-65.4296875,-1.0,1.0,1.0,0.0,9.m4v,1.0
2024-02-27 10:02:28.832261,1709024548.832261,-52.24609375,-20.5078125,-51.26953125,-37.109375,-1.0,1.0,1.0,0.0,9.m4v,1.0
2024-02-27 10:02:28.840072,1709024548.840072,-56.15234375,-39.0625,-0.9765625,-72.265625,-1.0,1.0,1.0,0.0,9.m4v,1.0
2024-02-27 10:02:28.851790,1709024548.8517902,-22.4609375,-6.8359375,-37.109375,-25.87890625,-1.0,1.0,1.0,0.0,9.m4v,1.0
2024-02-27 10:02:28.859601,1709024548.8596003,-66.89453125,-46.875,-59.08203125,-73.2421875,-1.0,1.0,1.0,0.0,9.m4v,1.0
2024-02-27 10:02:28.871316,1709024548.8713164,-42.48046875,-32.2265625,-43.9453125,-39.0625,-1.0,1.0,1.0,0.0,9.m4v,1.0
2024-02-27 10:02:28.879127,1709024548.8791268,-34.1796875,-24.90234375,-44.43359375,-34.66796875,-1.0,1.0,1.0,0.0,9.m4v,1.0
2024-02-27 10:02:28.890843,1709024548.890843,-8.30078125,-43.45703125,-18.5546875,-10.25390625,-1.0,1.0,1.0,0.0,9.m4v,1.0
2024-02-27 10:02:28.898654,1709024548.8986535,-37.109375,-20.5078125,-40.0390625,-41.50390625,-1.0,1.0,1.0,0.0,9.m4v,1.0
2024-02-27 10:02:28.910370,1709024548.9103696,-27.83203125,-17.08984375,-34.1796875,-20.01953125,-1.0,1.0,1.0,0.0,9.m4v,1.0
2024-02-27 10:02:28.918180,1709024548.91818,-24.4140625,-37.109375,-39.0625,-21.484375,-1.0,1.0,1.0,0.0,9.m4v,1.0
2024-02-27 10:02:28.925991,1709024548.9259906,-32.2265625,-22.94921875,-43.45703125,-26.3671875,-1.0,1.0,1.0,0.0,9.m4v,1.0
2024-02-27 10:02:28.929896,1709024548.929896,-14.6484375,-15.625,-24.4140625,-4.8828125,-1.0,1.0,1.0,0.0,9.m4v,1.0
2024-02-27 10:02:28.933801,1709024548.9338012,-36.62109375,-18.5546875,-26.85546875,-22.4609375,-1.0,1.0,1.0,0.0,9.m4v,1.0
2024-02-27 10:02:28.937706,1709024548.9377062,-52.24609375,-37.59765625,-29.78515625,-48.33984375,-1.0,1.0,1.0,0.0,9.m4v,1.0
2024-02-27 10:02:28.941612,1709024548.9416118,-53.7109375,-37.59765625,-29.296875,-41.50390625,-1.0,1.0,1.0,0.0,9.m4v,1.0
2024-02-27 10:02:28.945517,1709024548.945517,-44.921875,-27.83203125,-32.71484375,-40.52734375,-1.0,1.0,1.0,0.0,9.m4v,1.0
2024-02-27 10:02:28.949422,1709024548.9494224,-42.48046875,-42.96875,-30.76171875,-49.8046875,-1.0,1.0,1.0,0.0,9.m4v,1.0
2024-02-27 10:02:28.953327,1709024548.9533274,-65.4296875,-51.7578125,-35.15625,-70.80078125,-1.0,1.0,1.0,0.0,9.m4v,1.0
2024-02-27 10:02:28.957233,1709024548.9572327,-64.453125,-37.109375,-39.55078125,-73.73046875,-1.0,1.0,1.0,0.0,9.m4v,1.0
2024-02-27 10:02:28.961138,1709024548.961138,-60.546875,-25.87890625,-38.57421875,-66.40625,-1.0,1.0,1.0,0.0,9.m4v,1.0
2024-02-27 10:02:28.965043,1709024548.9650433,-86.42578125,-31.73828125,-53.22265625,-76.66015625,-1.0,1.0,1.0,0.0,9.m4v,1.0
2024-02-27 10:02:28.968949,1709024548.9689486,-62.01171875,-28.3203125,-46.38671875,-62.98828125,-1.0,1.0,1.0,0.0,9.m4v,1.0
2024-02-27 10:02:28.972854,1709024548.972854,-33.203125,-13.18359375,-22.94921875,-45.41015625,-1.0,1.0,1.0,0.0,9.m4v,1.0
2024-02-27 10:02:28.976759,1709024548.976759,-67.3828125,-17.08984375,-35.64453125,-68.359375,-1.0,1.0,1.0,0.0,9.m4v,1.0
2024-02-27 10:02:28.980664,1709024548.9806645,-92.28515625,-15.13671875,-39.55078125,-91.30859375,-1.0,1.0,1.0,0.0,9.m4v,1.0
2024-02-27 10:02:28.984570,1709024548.9845695,-94.23828125,6.34765625,-30.76171875,-98.6328125,-1.0,1.0,1.0,0.0,9.m4v,1.0
2024-02-27 10:02:28.988475,1709024548.988475,-86.42578125,5.37109375,-26.3671875,-98.14453125,-1.0,1.0,1.0,0.0,9.m4v,1.0
2024-02-27 10:02:28.992381,1709024548.9923806,-95.703125,-18.06640625,-51.26953125,-118.1640625,-1.0,1.0,1.0,0.0,9.m4v,1.0
2024-02-27 10:02:28.996286,1709024548.9962857,-127.9296875,-40.52734375,-74.21875,-138.18359375,-1.0,1.0,1.0,0.0,9.m4v,1.0
2024-02-27 10:02:29.000191,1709024549.000191,-124.0234375,-17.578125,-47.36328125,-127.44140625,-1.0,1.0,1.0,0.0,9.m4v,1.0
2024-02-27 10:02:29.004096,1709024549.0040965,-91.796875,5.37109375,-14.16015625,-106.93359375,-1.0,1.0,1.0,0.0,9.m4v,1.0
2024-02-27 10:02:29.008002,1709024549.0080016,-73.2421875,-4.8828125,-26.85546875,-75.1953125,-1.0,1.0,1.0,0.0,9.m4v,1.0
2024-02-27 10:02:29.011907,1709024549.0119069,-110.3515625,-8.7890625,-47.8515625,-104.4921875,-1.0,1.0,1.0,0.0,9.m4v,1.0
2024-02-27 10:02:29.015812,1709024549.015812,-147.4609375,-25.390625,-47.8515625,-174.31640625,-1.0,1.0,1.0,0.0,9.m4v,1.0
2024-02-27 10:02:29.019717,1709024549.0197172,-152.83203125,-25.87890625,-40.0390625,-190.4296875,-1.0,1.0,1.0,0.0,9.m4v,1.0
2024-02-27 10:02:29.023623,1709024549.0236225,-166.50390625,-6.34765625,-27.83203125,-193.359375,-1.0,1.0,1.0,0.0,9.m4v,1.0
2024-02-27 10:02:29.027528,1709024549.0275278,-180.17578125,-12.6953125,-39.0625,-197.75390625,-1.0,1.0,1.0,0.0,9.m4v,1.0
2024-02-27 10:02:29.031433,1709024549.031433,-151.3671875,-7.32421875,-43.45703125,-166.50390625,-1.0,1.0,1.0,0.0,9.m4v,1.0
2024-02-27 10:02:29.035341,1709024549.035341,-128.90625,0.48828125,-32.71484375,-137.6953125,-1.0,1.0,1.0,0.0,9.m4v,1.0
2024-02-27 10:02:29.039246,1709024549.0392463,-147.4609375,-9.27734375,-33.203125,-145.01953125,-1.0,1.0,1.0,0.0,9.m4v,1.0
2024-02-27 10:02:29.043152,1709024549.0431516,-124.51171875,-1.953125,-35.64453125,-122.0703125,-1.0,1.0,1.0,0.0,9.m4v,1.0
2024-02-27 10:02:29.047057,1709024549.047057,-73.2421875,-16.11328125,-18.06640625,-76.66015625,-1.0,1.0,1.0,0.0,9.m4v,1.0
2024-02-27 10:02:29.050962,1709024549.050962,-78.61328125,-20.99609375,-13.671875,-90.8203125,-1.0,1.0,1.0,0.0,9.m4v,1.0
2024-02-27 10:02:29.054867,1709024549.0548673,-144.04296875,-13.18359375,-36.1328125,-155.76171875,-1.0,1.0,1.0,0.0,9.m4v,1.0
2024-02-27 10:02:29.058773,1709024549.0587726,-154.78515625,2.44140625,-27.83203125,-164.55078125,-1.0,1.0,1.0,0.0,9.m4v,1.0
2024-02-27 10:02:29.062678,1709024549.062678,-147.94921875,-3.41796875,-30.76171875,-158.69140625,-1.0,1.0,1.0,0.0,9.m4v,1.0
2024-02-27 10:02:29.066583,1709024549.066583,-131.34765625,-5.37109375,-42.48046875,-131.8359375,-1.0,1.0,1.0,0.0,9.m4v,1.0
2024-02-27 10:02:29.070488,1709024549.0704882,-68.359375,1.953125,-31.73828125,-72.265625,-1.0,1.0,1.0,0.0,9.m4v,1.0
2024-02-27 10:02:29.074394,1709024549.0743935,-54.6875,-27.83203125,-35.15625,-74.70703125,-1.0,1.0,1.0,0.0,9.m4v,1.0
2024-02-27 10:02:29.078299,1709024549.0782988,-93.26171875,-47.8515625,-46.38671875,-102.05078125,-1.0,1.0,1.0,0.0,9.m4v,1.0
2024-02-27 10:02:29.082206,1709024549.0822065,-99.12109375,-39.0625,-40.52734375,-108.3984375,-1.0,1.0,1.0,0.0,9.m4v,1.0
2024-02-27 10:02:29.086112,1709024549.0861115,-90.8203125,-25.390625,-36.1328125,-100.5859375,-1.0,1.0,1.0,0.0,9.m4v,1.0
2024-02-27 10:02:29.090017,1709024549.0900168,-106.4453125,-16.11328125,-53.7109375,-110.83984375,-1.0,1.0,1.0,0.0,9.m4v,1.0
2024-02-27 10:02:29.093922,1709024549.093922,-99.609375,-18.06640625,-55.17578125,-104.98046875,-1.0,1.0,1.0,0.0,9.m4v,1.0
2024-02-27 10:02:29.097827,1709024549.0978274,-72.75390625,-29.296875,-38.0859375,-79.1015625,-1.0,1.0,1.0,0.0,9.m4v,1.0
2024-02-27 10:02:29.101733,1709024549.1017327,-61.5234375,-14.16015625,-29.296875,-69.82421875,-1.0,1.0,1.0,0.0,9.m4v,1.0
2024-02-27 10:02:29.105638,1709024549.105638,-91.30859375,-19.53125,-49.8046875,-85.44921875,-1.0,1.0,1.0,0.0,9.m4v,1.0
2024-02-27 10:02:29.109543,1709024549.109543,-89.35546875,-38.57421875,-64.453125,-78.125,-1.0,1.0,1.0,0.0,9.m4v,1.0
2024-02-27 10:02:29.113448,1709024549.1134484,-23.92578125,-40.52734375,-45.8984375,-18.06640625,-1.0,1.0,1.0,0.0,9.m4v,1.0
2024-02-27 10:02:29.117354,1709024549.1173537,-27.83203125,-72.265625,-54.19921875,-7.32421875,-1.0,1.0,1.0,0.0,9.m4v,1.0
2024-02-27 10:02:29.121259,1709024549.121259,-65.4296875,-65.91796875,-57.6171875,-48.33984375,-1.0,1.0,1.0,0.0,9.m4v,1.0
2024-02-27 10:02:29.125164,1709024549.1251645,-53.7109375,-31.73828125,-36.62109375,-46.875,-1.0,1.0,1.0,0.0,9.m4v,1.0
2024-02-27 10:02:29.129071,1709024549.1290712,-27.83203125,-28.80859375,-31.25,-21.97265625,-1.0,1.0,1.0,0.0,9.m4v,1.0
2024-02-27 10:02:29.132977,1709024549.1329763,-39.0625,-37.59765625,-53.22265625,-38.0859375,-1.0,1.0,1.0,0.0,9.m4v,1.0
2024-02-27 10:02:29.136882,1709024549.1368818,-43.45703125,-32.71484375,-53.7109375,-36.1328125,-1.0,1.0,1.0,0.0,9.m4v,1.0
2024-02-27 10:02:29.140787,1709024549.1407871,-15.625,-19.04296875,-45.8984375,-6.8359375,-1.0,1.0,1.0,0.0,9.m4v,1.0
2024-02-27 10:02:29.144692,1709024549.1446924,3.41796875,-20.99609375,-48.828125,-0.48828125,-1.0,1.0,1.0,0.0,9.m4v,1.0
2024-02-27 10:02:29.148597,1709024549.1485977,6.34765625,-43.9453125,-54.6875,3.90625,-1.0,1.0,1.0,0.0,9.m4v,1.0
2024-02-27 10:02:29.152503,1709024549.1525028,15.625,-62.98828125,-52.734375,19.53125,-1.0,1.0,1.0,0.0,9.m4v,1.0
2024-02-27 10:02:29.156408,1709024549.156408,7.32421875,-80.078125,-64.453125,2.44140625,-1.0,1.0,1.0,0.0,9.m4v,1.0
2024-02-27 10:02:29.160313,1709024549.1603134,20.01953125,-52.734375,-50.78125,8.7890625,-1.0,1.0,1.0,0.0,9.m4v,1.0
2024-02-27 10:02:29.164219,1709024549.164219,43.45703125,-23.92578125,-23.92578125,44.921875,-1.0,1.0,1.0,0.0,9.m4v,1.0
2024-02-27 10:02:29.168124,1709024549.1681235,49.31640625,-25.87890625,-22.94921875,69.82421875,-1.0,1.0,1.0,0.0,9.m4v,1.0
2024-02-27 10:02:29.172029,1709024549.172029,41.9921875,-27.83203125,-37.109375,67.3828125,-1.0,1.0,1.0,0.0,9.m4v,1.0
2024-02-27 10:02:29.175936,1709024549.1759355,8.7890625,-39.55078125,-53.22265625,25.87890625,-1.0,1.0,1.0,0.0,9.m4v,1.0
2024-02-27 10:02:29.179841,1709024549.179841,-4.39453125,-44.43359375,-48.828125,-3.90625,-1.0,1.0,1.0,0.0,9.m4v,1.0
2024-02-27 10:02:29.183746,1709024549.1837463,10.25390625,-35.15625,-47.36328125,10.25390625,-1.0,1.0,1.0,0.0,9.m4v,1.0
2024-02-27 10:02:29.187652,1709024549.1876516,43.45703125,-41.9921875,-38.57421875,47.36328125,-1.0,1.0,1.0,0.0,9.m4v,1.0
2024-02-27 10:02:29.191557,1709024549.191557,44.921875,-73.73046875,-33.203125,41.9921875,-1.0,1.0,1.0,0.0,9.m4v,1.0
2024-02-27 10:02:29.195462,1709024549.195462,35.15625,-67.3828125,-41.015625,29.296875,-1.0,1.0,1.0,0.0,9.m4v,1.0
2024-02-27 10:02:29.199367,1709024549.1993673,38.0859375,-32.71484375,-53.22265625,28.80859375,-1.0,1.0,1.0,0.0,9.m4v,1.0
2024-02-27 10:02:29.203273,1709024549.2032726,36.62109375,-18.06640625,-44.921875,30.2734375,-1.0,1.0,1.0,0.0,9.m4v,1.0
2024-02-27 10:02:29.207178,1709024549.207178,43.9453125,-20.99609375,-20.99609375,46.38671875,-1.0,1.0,1.0,0.0,9.m4v,1.0
2024-02-27 10:02:29.211083,1709024549.2110832,57.12890625,-20.01953125,-10.7421875,42.96875,-1.0,1.0,1.0,0.0,9.m4v,1.0
2024-02-27 10:02:29.214988,1709024549.2149882,44.43359375,-32.2265625,-38.0859375,32.2265625,-1.0,1.0,1.0,0.0,9.m4v,1.0
2024-02-27 10:02:29.218894,1709024549.2188935,50.29296875,-42.48046875,-43.45703125,52.734375,-1.0,1.0,1.0,0.0,9.m4v,1.0
2024-02-27 10:02:29.222800,1709024549.2228005,79.58984375,-34.66796875,-20.01953125,68.84765625,-1.0,1.0,1.0,0.0,9.m4v,1.0
2024-02-27 10:02:29.226706,1709024549.2267056,56.640625,-41.015625,-32.2265625,51.7578125,-1.0,1.0,1.0,0.0,9.m4v,1.0
2024-02-27 10:02:29.230611,1709024549.2306108,35.64453125,-52.734375,-48.828125,36.62109375,-1.0,1.0,1.0,0.0,9.m4v,1.0
2024-02-27 10:02:29.234516,1709024549.234516,34.66796875,-67.3828125,-37.59765625,21.484375,-1.0,1.0,1.0,0.0,9.m4v,1.0
2024-02-27 10:02:29.238421,1709024549.2384212,23.4375,-59.08203125,-8.30078125,11.23046875,-1.0,1.0,1.0,0.0,9.m4v,1.0
2024-02-27 10:02:29.242326,1709024549.2423265,12.20703125,-33.69140625,-10.25390625,1.953125,-1.0,1.0,1.0,0.0,9.m4v,1.0
2024-02-27 10:02:29.246232,1709024549.2462318,8.7890625,-24.90234375,-20.99609375,1.46484375,-1.0,1.0,1.0,0.0,9.m4v,1.0
2024-02-27 10:02:29.250137,1709024549.250137,15.625,-32.2265625,-36.62109375,5.37109375,-1.0,1.0,1.0,0.0,9.m4v,1.0
2024-02-27 10:02:29.254042,1709024549.2540424,32.71484375,-34.66796875,-41.015625,13.671875,-1.0,1.0,1.0,0.0,9.m4v,1.0
2024-02-27 10:02:29.257947,1709024549.2579474,44.43359375,-36.62109375,-33.203125,24.4140625,-1.0,1.0,1.0,0.0,9.m4v,1.0
2024-02-27 10:02:29.261853,1709024549.2618527,32.2265625,-44.43359375,-32.2265625,17.08984375,-1.0,1.0,1.0,0.0,9.m4v,1.0
2024-02-27 10:02:29.265758,1709024549.265758,24.90234375,-53.7109375,-32.71484375,20.01953125,-1.0,1.0,1.0,0.0,9.m4v,1.0
2024-02-27 10:02:29.269664,1709024549.269664,50.78125,-41.50390625,-38.0859375,53.7109375,-1.0,1.0,1.0,0.0,9.m4v,1.0
2024-02-27 10:02:29.273569,1709024549.273569,75.68359375,-20.5078125,-15.13671875,71.77734375,-1.0,1.0,1.0,0.0,9.m4v,1.0
2024-02-27 10:02:29.277475,1709024549.2774746,55.6640625,-38.57421875,-7.32421875,49.8046875,-1.0,1.0,1.0,0.0,9.m4v,1.0
2024-02-27 10:02:29.281380,1709024549.28138,10.25390625,-48.828125,-32.2265625,23.92578125,-1.0,1.0,1.0,0.0,9.m4v,1.0
2024-02-27 10:02:29.285285,1709024549.285285,0.48828125,-36.62109375,-32.2265625,20.01953125,-1.0,1.0,1.0,0.0,9.m4v,1.0
2024-02-27 10:02:29.289190,1709024549.2891903,5.859375,-41.015625,-30.76171875,10.7421875,-1.0,1.0,1.0,0.0,9.m4v,1.0
2024-02-27 10:02:29.511797,1709024549.511797,-43.9453125,-74.21875,-28.80859375,-40.0390625,-1.0,1.0,1.0,0.0,9.m4v,1.0
2024-02-27 10:02:29.515702,1709024549.5157022,-47.8515625,-58.10546875,-26.3671875,-40.0390625,-1.0,1.0,1.0,0.0,9.m4v,1.0
2024-02-27 10:02:29.519608,1709024549.5196075,-28.80859375,-14.6484375,-26.3671875,-25.390625,-1.0,1.0,1.0,0.0,9.m4v,1.0
2024-02-27 10:02:29.523513,1709024549.5235126,-22.4609375,-1.953125,-34.1796875,-18.5546875,-1.0,1.0,1.0,0.0,9.m4v,1.0
2024-02-27 10:02:29.527418,1709024549.527418,-36.62109375,-2.44140625,-47.36328125,-26.85546875,-1.0,1.0,1.0,0.0,9.m4v,1.0
2024-02-27 10:02:29.531323,1709024549.5313232,-42.96875,-11.23046875,-44.43359375,-26.3671875,-1.0,1.0,1.0,0.0,9.m4v,1.0
2024-02-27 10:02:29.535228,1709024549.5352285,-66.40625,-45.41015625,-40.0390625,-46.875,-1.0,1.0,1.0,0.0,9.m4v,1.0
2024-02-27 10:02:29.539134,1709024549.5391338,-81.54296875,-68.359375,-50.29296875,-70.80078125,-1.0,1.0,1.0,0.0,9.m4v,1.0
2024-02-27 10:02:29.543039,1709024549.5430388,-45.41015625,-27.83203125,-26.85546875,-43.45703125,-1.0,1.0,1.0,0.0,9.m4v,1.0
2024-02-27 10:02:29.546944,1709024549.546944,-32.2265625,-9.27734375,-25.87890625,-34.1796875,-1.0,1.0,1.0,0.0,9.m4v,1.0
2024-02-27 10:02:29.550851,1709024549.550851,-41.9921875,-37.109375,-48.828125,-47.8515625,-1.0,1.0,1.0,0.0,9.m4v,1.0
2024-02-27 10:02:29.554756,1709024549.5547562,-24.90234375,-41.015625,-28.3203125,-28.80859375,-1.0,1.0,1.0,0.0,9.m4v,1.0
2024-02-27 10:02:29.558661,1709024549.5586617,-18.5546875,-43.45703125,-19.04296875,-19.53125,-1.0,1.0,1.0,0.0,9.m4v,1.0
2024-02-27 10:02:29.562567,1709024549.5625668,-34.1796875,-62.01171875,-45.41015625,-36.62109375,-1.0,1.0,1.0,0.0,9.m4v,1.0
2024-02-27 10:02:29.566472,1709024549.566472,-36.62109375,-57.12890625,-61.5234375,-32.71484375,-1.0,1.0,1.0,0.0,9.m4v,1.0
2024-02-27 10:02:29.570377,1709024549.570377,-8.30078125,-13.18359375,-33.203125,0.0,-1.0,1.0,1.0,0.0,9.m4v,1.0
2024-02-27 10:02:29.574283,1709024549.5742826,12.20703125,14.6484375,2.9296875,13.18359375,-1.0,1.0,1.0,0.0,9.m4v,1.0
2024-02-27 10:02:29.578188,1709024549.5781877,-11.71875,-8.7890625,-14.16015625,-8.7890625,-1.0,1.0,1.0,0.0,9.m4v,1.0
2024-02-27 10:02:29.582093,1709024549.582093,-34.1796875,-19.53125,-18.06640625,-21.484375,-1.0,1.0,1.0,0.0,9.m4v,1.0
2024-02-27 10:02:29.585998,1709024549.5859983,-31.25,-6.8359375,-7.8125,-14.16015625,-1.0,1.0,1.0,0.0,9.m4v,1.0
2024-02-27 10:02:29.589904,1709024549.5899036,-44.43359375,-27.83203125,-36.1328125,-40.52734375,-1.0,1.0,1.0,0.0,9.m4v,1.0
2024-02-27 10:02:29.593809,1709024549.593809,-53.7109375,-54.6875,-37.109375,-54.19921875,-1.0,1.0,1.0,0.0,9.m4v,1.0
2024-02-27 10:02:29.597715,1709024549.5977151,-29.78515625,-41.9921875,-25.390625,-16.6015625,-1.0,1.0,1.0,0.0,9.m4v,1.0
2024-02-27 10:02:29.601620,1709024549.6016204,-24.4140625,-42.48046875,-40.52734375,-15.13671875,-1.0,1.0,1.0,0.0,9.m4v,1.0
2024-02-27 10:02:29.605526,1709024549.6055255,-38.0859375,-60.05859375,-47.8515625,-40.0390625,-1.0,1.0,1.0,0.0,9.m4v,1.0
2024-02-27 10:02:29.609431,1709024549.609431,-19.04296875,-33.203125,-34.66796875,-19.53125,-1.0,1.0,1.0,0.0,9.m4v,1.0
2024-02-27 10:02:29.613336,1709024549.6133363,-12.20703125,-32.2265625,-13.18359375,-13.18359375,-1.0,1.0,1.0,0.0,9.m4v,1.0
2024-02-27 10:02:29.617241,1709024549.6172414,-19.04296875,-43.45703125,-14.16015625,-29.296875,-1.0,1.0,1.0,0.0,9.m4v,1.0
2024-02-27 10:02:29.621147,1709024549.621147,-37.59765625,-27.34375,-31.25,-31.73828125,-1.0,1.0,1.0,0.0,9.m4v,1.0
2024-02-27 10:02:29.625052,1709024549.625052,-61.03515625,-26.3671875,-39.55078125,-31.25,-1.0,1.0,1.0,0.0,9.m4v,1.0
2024-02-27 10:02:29.628957,1709024549.6289573,-60.05859375,-20.5078125,-36.1328125,-37.59765625,-1.0,1.0,1.0,0.0,9.m4v,1.0
2024-02-27 10:02:29.632863,1709024549.6328626,-30.76171875,-10.25390625,-25.87890625,-29.296875,-1.0,1.0,1.0,0.0,9.m4v,1.0
2024-02-27 10:02:29.636768,1709024549.6367676,-17.578125,-8.30078125,-17.08984375,-20.99609375,-1.0,1.0,1.0,0.0,9.m4v,1.0
2024-02-27 10:02:29.640673,1709024549.640673,-36.62109375,-19.04296875,-20.5078125,-24.90234375,-1.0,1.0,1.0,0.0,9.m4v,1.0
2024-02-27 10:02:29.644579,1709024549.6445794,-48.33984375,-27.83203125,-32.71484375,-37.59765625,-1.0,1.0,1.0,0.0,9.m4v,1.0
2024-02-27 10:02:29.648485,1709024549.6484847,-40.0390625,-50.29296875,-34.66796875,-44.43359375,-1.0,1.0,1.0,0.0,9.m4v,1.0
2024-02-27 10:02:29.652390,1709024549.65239,-20.01953125,-65.4296875,-28.80859375,-27.34375,-1.0,1.0,1.0,0.0,9.m4v,1.0
2024-02-27 10:02:29.656295,1709024549.6562953,3.90625,-34.66796875,-19.53125,-2.9296875,-1.0,1.0,1.0,0.0,9.m4v,1.0
2024-02-27 10:02:29.660201,1709024549.6602006,-23.92578125,-42.48046875,-46.38671875,-20.01953125,-1.0,1.0,1.0,0.0,9.m4v,1.0
2024-02-27 10:02:29.664106,1709024549.6641057,-55.6640625,-70.3125,-63.96484375,-49.8046875,-1.0,1.0,1.0,0.0,9.m4v,1.0
2024-02-27 10:02:29.668011,1709024549.668011,-45.41015625,-51.7578125,-38.0859375,-54.19921875,-1.0,1.0,1.0,0.0,9.m4v,1.0
2024-02-27 10:02:29.671916,1709024549.6719162,-48.33984375,-29.296875,-29.296875,-58.59375,-1.0,1.0,1.0,0.0,9.m4v,1.0
2024-02-27 10:02:29.675822,1709024549.6758215,-37.59765625,-23.92578125,-33.69140625,-43.9453125,-1.0,1.0,1.0,0.0,9.m4v,1.0
2024-02-27 10:02:29.679727,1709024549.6797268,-13.671875,-8.7890625,-39.0625,-26.85546875,-1.0,1.0,1.0,0.0,9.m4v,1.0
2024-02-27 10:02:29.683632,1709024549.683632,-18.06640625,7.32421875,-39.55078125,-34.1796875,-1.0,1.0,1.0,0.0,9.m4v,1.0
2024-02-27 10:02:29.687537,1709024549.6875372,-32.2265625,-21.484375,-34.1796875,-28.80859375,-1.0,1.0,1.0,0.0,9.m4v,1.0
2024-02-27 10:02:29.691443,1709024549.691443,-25.390625,-36.1328125,-47.8515625,-19.04296875,-1.0,1.0,1.0,0.0,9.m4v,1.0
2024-02-27 10:02:29.695348,1709024549.6953485,4.8828125,-10.25390625,-27.83203125,-5.37109375,-1.0,1.0,1.0,0.0,9.m4v,1.0
2024-02-27 10:02:29.699253,1709024549.699253,6.8359375,-6.8359375,-0.9765625,-1.46484375,-1.0,1.0,1.0,0.0,9.m4v,1.0
2024-02-27 10:02:29.703159,1709024549.7031586,-30.2734375,-34.66796875,-19.04296875,-36.62109375,-1.0,1.0,1.0,0.0,9.m4v,1.0
2024-02-27 10:02:29.707064,1709024549.707064,-46.38671875,-47.8515625,-36.1328125,-35.64453125,-1.0,1.0,1.0,0.0,9.m4v,1.0
2024-02-27 10:02:29.710969,1709024549.7109692,-56.15234375,-73.2421875,-49.31640625,-58.59375,-1.0,1.0,1.0,0.0,9.m4v,1.0
2024-02-27 10:02:29.714875,1709024549.7148745,-43.45703125,-62.01171875,-38.0859375,-62.98828125,-1.0,1.0,1.0,0.0,9.m4v,1.0
2024-02-27 10:02:29.718780,1709024549.7187796,-24.4140625,-40.52734375,-22.4609375,-27.83203125,-1.0,1.0,1.0,0.0,9.m4v,1.0
2024-02-27 10:02:29.722685,1709024549.7226849,-22.94921875,-49.8046875,-24.90234375,-26.85546875,-1.0,1.0,1.0,0.0,9.m4v,1.0
2024-02-27 10:02:29.726590,1709024549.7265902,-38.57421875,-41.9921875,-45.8984375,-38.57421875,-1.0,1.0,1.0,0.0,9.m4v,1.0
2024-02-27 10:02:29.730495,1709024549.7304957,-31.25,-23.92578125,-48.33984375,-34.66796875,-1.0,1.0,1.0,0.0,9.m4v,1.0
2024-02-27 10:02:29.734401,1709024549.7344007,-1.953125,-6.8359375,-31.25,-15.625,-1.0,1.0,1.0,0.0,9.m4v,1.0
2024-02-27 10:02:29.738309,1709024549.7383091,-18.5546875,-10.7421875,-59.5703125,-31.73828125,-1.0,1.0,1.0,0.0,9.m4v,1.0
2024-02-27 10:02:29.738309,1709024549.7383091,-18.5546875,-10.7421875,-59.5703125,-31.73828125,-1.0,1.0,1.0,0.0,9.m4v,1.0
2024-02-27 10:02:29.742214,1709024549.7422144,-45.8984375,-20.99609375,-66.89453125,-55.6640625,-1.0,1.0,1.0,0.0,9.m4v,1.0
2024-02-27 10:02:29.742214,1709024549.7422144,-45.8984375,-20.99609375,-66.89453125,-55.6640625,-1.0,1.0,1.0,0.0,9.m4v,1.0
2024-02-27 10:02:29.746120,1709024549.7461195,-43.45703125,-27.83203125,-25.390625,-57.6171875,-1.0,1.0,1.0,0.0,9.m4v,1.0
2024-02-27 10:02:29.746120,1709024549.7461195,-43.45703125,-27.83203125,-25.390625,-57.6171875,-1.0,1.0,1.0,0.0,9.m4v,1.0
2024-02-27 10:02:29.750025,1709024549.750025,-31.73828125,-26.85546875,-7.8125,-30.2734375,-1.0,1.0,1.0,0.0,9.m4v,1.0
2024-02-27 10:02:29.750025,1709024549.750025,-31.73828125,-26.85546875,-7.8125,-30.2734375,-1.0,1.0,1.0,0.0,9.m4v,1.0
2024-02-27 10:02:29.753930,1709024549.75393,-52.734375,-49.8046875,-29.78515625,-42.48046875,-1.0,1.0,1.0,0.0,9.m4v,1.0
2024-02-27 10:02:29.753930,1709024549.75393,-52.734375,-49.8046875,-29.78515625,-42.48046875,-1.0,1.0,1.0,0.0,9.m4v,1.0
2024-02-27 10:02:29.757835,1709024549.7578354,-56.640625,-70.3125,-37.59765625,-64.453125,-1.0,1.0,1.0,0.0,9.m4v,1.0
2024-02-27 10:02:29.757835,1709024549.7578354,-56.640625,-70.3125,-37.59765625,-64.453125,-1.0,1.0,1.0,0.0,9.m4v,1.0
2024-02-27 10:02:29.761741,1709024549.7617407,-51.26953125,-70.3125,-40.52734375,-50.29296875,-1.0,1.0,1.0,0.0,9.m4v,1.0
2024-02-27 10:02:29.761741,1709024549.7617407,-51.26953125,-70.3125,-40.52734375,-50.29296875,-1.0,1.0,1.0,0.0,9.m4v,1.0
2024-02-27 10:02:29.765646,1709024549.765646,-41.015625,-61.5234375,-45.41015625,-30.76171875,-1.0,1.0,1.0,0.0,9.m4v,1.0
2024-02-27 10:02:29.765646,1709024549.765646,-41.015625,-61.5234375,-45.41015625,-30.76171875,-1.0,1.0,1.0,0.0,9.m4v,1.0
2024-02-27 10:02:29.769551,1709024549.7695513,-24.4140625,-13.18359375,-39.0625,-8.30078125,-1.0,1.0,1.0,0.0,9.m4v,1.0
2024-02-27 10:02:29.769551,1709024549.7695513,-24.4140625,-13.18359375,-39.0625,-8.30078125,-1.0,1.0,1.0,0.0,9.m4v,1.0
2024-02-27 10:02:29.773456,1709024549.7734563,-12.20703125,5.859375,-30.76171875,-1.953125,-1.0,1.0,1.0,0.0,9.m4v,1.0
2024-02-27 10:02:29.773456,1709024549.7734563,-12.20703125,5.859375,-30.76171875,-1.953125,-1.0,1.0,1.0,0.0,9.m4v,1.0
2024-02-27 10:02:29.777362,1709024549.7773616,-1.46484375,-16.11328125,-20.5078125,-0.9765625,-1.0,1.0,1.0,0.0,9.m4v,1.0
2024-02-27 10:02:29.777362,1709024549.7773616,-1.46484375,-16.11328125,-20.5078125,-0.9765625,-1.0,1.0,1.0,0.0,9.m4v,1.0
2024-02-27 10:02:29.781267,1709024549.781267,-37.109375,-42.96875,-38.0859375,-37.59765625,-1.0,1.0,1.0,0.0,9.m4v,1.0
2024-02-27 10:02:29.781267,1709024549.781267,-37.109375,-42.96875,-38.0859375,-37.59765625,-1.0,1.0,1.0,0.0,9.m4v,1.0
2024-02-27 10:02:29.785175,1709024549.785175,-41.015625,-40.0390625,-39.0625,-43.45703125,-1.0,1.0,1.0,0.0,9.m4v,1.0
2024-02-27 10:02:29.785175,1709024549.785175,-41.015625,-40.0390625,-39.0625,-43.45703125,-1.0,1.0,1.0,0.0,9.m4v,1.0
2024-02-27 10:02:29.789080,1709024549.78908,-38.0859375,-41.015625,-27.83203125,-44.43359375,-1.0,1.0,1.0,0.0,9.m4v,1.0
2024-02-27 10:02:29.789080,1709024549.78908,-38.0859375,-41.015625,-27.83203125,-44.43359375,-1.0,1.0,1.0,0.0,9.m4v,1.0
2024-02-27 10:02:29.792985,1709024549.7929854,-37.109375,-42.48046875,-32.71484375,-41.50390625,-1.0,1.0,1.0,0.0,9.m4v,1.0
2024-02-27 10:02:29.792985,1709024549.7929854,-37.109375,-42.48046875,-32.71484375,-41.50390625,-1.0,1.0,1.0,0.0,9.m4v,1.0
2024-02-27 10:02:29.796891,1709024549.7968907,-23.4375,-16.11328125,-45.8984375,-16.11328125,-1.0,1.0,1.0,0.0,9.m4v,1.0
2024-02-27 10:02:29.796891,1709024549.7968907,-23.4375,-16.11328125,-45.8984375,-16.11328125,-1.0,1.0,1.0,0.0,9.m4v,1.0
2024-02-27 10:02:29.800796,1709024549.800796,-40.0390625,-27.83203125,-53.7109375,-36.1328125,-1.0,1.0,1.0,0.0,9.m4v,1.0
2024-02-27 10:02:29.800796,1709024549.800796,-40.0390625,-27.83203125,-53.7109375,-36.1328125,-1.0,1.0,1.0,0.0,9.m4v,1.0
2024-02-27 10:02:29.804701,1709024549.804701,-47.36328125,-54.6875,-42.96875,-45.41015625,-1.0,1.0,1.0,0.0,9.m4v,1.0
2024-02-27 10:02:29.804701,1709024549.804701,-47.36328125,-54.6875,-42.96875,-45.41015625,-1.0,1.0,1.0,0.0,9.m4v,1.0
2024-02-27 10:02:29.808606,1709024549.8086064,-45.41015625,-32.2265625,-26.85546875,-33.69140625,-1.0,1.0,1.0,0.0,9.m4v,1.0
2024-02-27 10:02:29.808606,1709024549.8086064,-45.41015625,-32.2265625,-26.85546875,-33.69140625,-1.0,1.0,1.0,0.0,9.m4v,1.0
2024-02-27 10:02:29.812512,1709024549.8125117,-54.19921875,-36.1328125,-32.2265625,-41.9921875,-1.0,1.0,1.0,0.0,9.m4v,1.0
2024-02-27 10:02:29.812512,1709024549.8125117,-54.19921875,-36.1328125,-32.2265625,-41.9921875,-1.0,1.0,1.0,0.0,9.m4v,1.0
2024-02-27 10:02:29.816417,1709024549.816417,-33.203125,-57.12890625,-28.3203125,-26.3671875,-1.0,1.0,1.0,0.0,9.m4v,1.0
2024-02-27 10:02:29.816417,1709024549.816417,-33.203125,-57.12890625,-28.3203125,-26.3671875,-1.0,1.0,1.0,0.0,9.m4v,1.0
2024-02-27 10:02:29.820322,1709024549.8203225,-9.27734375,-31.73828125,-22.4609375,-4.8828125,-1.0,1.0,1.0,0.0,9.m4v,1.0
2024-02-27 10:02:29.820322,1709024549.8203225,-9.27734375,-31.73828125,-22.4609375,-4.8828125,-1.0,1.0,1.0,0.0,9.m4v,1.0
2024-02-27 10:02:29.824228,1709024549.8242276,-31.25,-25.87890625,-37.59765625,-41.50390625,-1.0,1.0,1.0,0.0,9.m4v,1.0
2024-02-27 10:02:29.824228,1709024549.8242276,-31.25,-25.87890625,-37.59765625,-41.50390625,-1.0,1.0,1.0,0.0,9.m4v,1.0
2024-02-27 10:02:29.828133,1709024549.8281326,-62.98828125,-50.29296875,-52.734375,-63.4765625,-1.0,1.0,1.0,0.0,9.m4v,1.0
2024-02-27 10:02:29.828133,1709024549.8281326,-62.98828125,-50.29296875,-52.734375,-63.4765625,-1.0,1.0,1.0,0.0,9.m4v,1.0
2024-02-27 10:02:29.832040,1709024549.83204,-59.5703125,-48.33984375,-47.8515625,-54.6875,-1.0,1.0,1.0,0.0,9.m4v,1.0
2024-02-27 10:02:29.832040,1709024549.83204,-59.5703125,-48.33984375,-47.8515625,-54.6875,-1.0,1.0,1.0,0.0,9.m4v,1.0
2024-02-27 10:02:29.835945,1709024549.8359454,-47.8515625,-30.76171875,-40.0390625,-65.91796875,-1.0,1.0,1.0,0.0,9.m4v,1.0
2024-02-27 10:02:29.835945,1709024549.8359454,-47.8515625,-30.76171875,-40.0390625,-65.91796875,-1.0,1.0,1.0,0.0,9.m4v,1.0
2024-02-27 10:02:29.839851,1709024549.839851,-32.2265625,-28.80859375,-34.1796875,-59.08203125,-1.0,1.0,1.0,0.0,9.m4v,1.0
2024-02-27 10:02:29.839851,1709024549.839851,-32.2265625,-28.80859375,-34.1796875,-59.08203125,-1.0,1.0,1.0,0.0,9.m4v,1.0
2024-02-27 10:02:29.843756,1709024549.8437555,-17.08984375,-27.34375,-14.6484375,-23.4375,-1.0,1.0,1.0,0.0,9.m4v,1.0
2024-02-27 10:02:29.843756,1709024549.8437555,-17.08984375,-27.34375,-14.6484375,-23.4375,-1.0,1.0,1.0,0.0,9.m4v,1.0
2024-02-27 10:02:29.847661,1709024549.847661,-15.625,-34.1796875,-20.01953125,-14.16015625,-1.0,1.0,1.0,0.0,9.m4v,1.0
2024-02-27 10:02:29.847661,1709024549.847661,-15.625,-34.1796875,-20.01953125,-14.16015625,-1.0,1.0,1.0,0.0,9.m4v,1.0
2024-02-27 10:02:29.851566,1709024549.8515663,-20.5078125,-47.36328125,-46.38671875,-18.5546875,-1.0,1.0,1.0,0.0,9.m4v,1.0
2024-02-27 10:02:29.851566,1709024549.8515663,-20.5078125,-47.36328125,-46.38671875,-18.5546875,-1.0,1.0,1.0,0.0,9.m4v,1.0
2024-02-27 10:02:29.855472,1709024549.8554716,-44.921875,-47.36328125,-66.89453125,-47.8515625,-1.0,1.0,1.0,0.0,9.m4v,1.0
2024-02-27 10:02:29.855472,1709024549.8554716,-44.921875,-47.36328125,-66.89453125,-47.8515625,-1.0,1.0,1.0,0.0,9.m4v,1.0
2024-02-27 10:02:29.859377,1709024549.859377,-41.015625,-21.484375,-34.1796875,-54.6875,-1.0,1.0,1.0,0.0,9.m4v,1.0
2024-02-27 10:02:29.859377,1709024549.859377,-41.015625,-21.484375,-34.1796875,-54.6875,-1.0,1.0,1.0,0.0,9.m4v,1.0
2024-02-27 10:02:29.863282,1709024549.8632822,-35.64453125,-28.3203125,-5.37109375,-24.4140625,-1.0,1.0,1.0,0.0,9.m4v,1.0
2024-02-27 10:02:29.863282,1709024549.8632822,-35.64453125,-28.3203125,-5.37109375,-24.4140625,-1.0,1.0,1.0,0.0,9.m4v,1.0
2024-02-27 10:02:29.867187,1709024549.8671873,-46.875,-43.9453125,-41.50390625,-32.2265625,-1.0,1.0,1.0,0.0,9.m4v,1.0
2024-02-27 10:02:29.867187,1709024549.8671873,-46.875,-43.9453125,-41.50390625,-32.2265625,-1.0,1.0,1.0,0.0,9.m4v,1.0
2024-02-27 10:02:29.871093,1709024549.8710926,-34.1796875,-18.5546875,-43.9453125,-38.57421875,-1.0,1.0,1.0,0.0,9.m4v,1.0
2024-02-27 10:02:29.871093,1709024549.8710926,-34.1796875,-18.5546875,-43.9453125,-38.57421875,-1.0,1.0,1.0,0.0,9.m4v,1.0
2024-02-27 10:02:30.273350,1709024550.27335,-13.18359375,-54.19921875,-42.96875,-11.23046875,-1.0,1.0,1.0,0.0,9.m4v,1.0
2024-02-27 10:02:30.277255,1709024550.2772553,-47.8515625,-58.10546875,-49.8046875,-35.64453125,-1.0,1.0,1.0,0.0,9.m4v,1.0
2024-02-27 10:02:30.281161,1709024550.2811606,-63.96484375,-31.25,-37.59765625,-49.8046875,-1.0,1.0,1.0,0.0,9.m4v,1.0
2024-02-27 10:02:30.285066,1709024550.285066,-48.33984375,-13.18359375,-21.97265625,-37.59765625,-1.0,1.0,1.0,0.0,9.m4v,1.0
2024-02-27 10:02:30.288971,1709024550.288971,-33.69140625,-20.01953125,-17.578125,-21.484375,-1.0,1.0,1.0,0.0,9.m4v,1.0
2024-02-27 10:02:30.292876,1709024550.2928762,-24.4140625,-22.94921875,-7.8125,-24.90234375,-1.0,1.0,1.0,0.0,9.m4v,1.0
2024-02-27 10:02:30.296782,1709024550.2967815,-26.85546875,-22.94921875,-9.765625,-25.390625,-1.0,1.0,1.0,0.0,9.m4v,1.0
2024-02-27 10:02:30.300688,1709024550.300688,-33.203125,-44.43359375,-34.66796875,-31.25,-1.0,1.0,1.0,0.0,9.m4v,1.0
2024-02-27 10:02:30.304593,1709024550.304593,-42.96875,-51.7578125,-34.66796875,-42.96875,-1.0,1.0,1.0,0.0,9.m4v,1.0
2024-02-27 10:02:30.308499,1709024550.3084986,-44.921875,-21.484375,-37.59765625,-41.9921875,-1.0,1.0,1.0,0.0,9.m4v,1.0
2024-02-27 10:02:30.312404,1709024550.3124037,-42.48046875,-13.671875,-49.31640625,-27.83203125,-1.0,1.0,1.0,0.0,9.m4v,1.0
2024-02-27 10:02:30.316309,1709024550.316309,-44.43359375,-34.1796875,-50.29296875,-30.76171875,-1.0,1.0,1.0,0.0,9.m4v,1.0
2024-02-27 10:02:30.320214,1709024550.3202145,-35.15625,-45.8984375,-50.29296875,-31.73828125,-1.0,1.0,1.0,0.0,9.m4v,1.0
2024-02-27 10:02:30.722468,1709024550.722468,-44.921875,-56.640625,-23.4375,-57.6171875,-1.0,1.0,1.0,0.0,9.m4v,1.0
2024-02-27 10:02:30.726373,1709024550.7263732,-37.109375,-42.48046875,-2.9296875,-22.94921875,-1.0,1.0,1.0,0.0,9.m4v,1.0
2024-02-27 10:02:30.730278,1709024550.7302785,-35.15625,-21.484375,-8.30078125,-19.53125,-1.0,1.0,1.0,0.0,9.m4v,1.0
2024-02-27 10:02:30.734184,1709024550.7341838,-54.19921875,-11.71875,-31.25,-50.29296875,-1.0,1.0,1.0,0.0,9.m4v,1.0
2024-02-27 10:02:30.738089,1709024550.7380888,-54.19921875,-5.37109375,-41.9921875,-54.19921875,-1.0,1.0,1.0,0.0,9.m4v,1.0
2024-02-27 10:02:30.741994,1709024550.741994,-33.203125,-18.5546875,-37.109375,-33.203125,-1.0,1.0,1.0,0.0,9.m4v,1.0
2024-02-27 10:02:30.745899,1709024550.7458994,-48.33984375,-41.015625,-47.8515625,-45.41015625,-1.0,1.0,1.0,0.0,9.m4v,1.0
2024-02-27 10:02:30.749805,1709024550.7498047,-56.15234375,-49.31640625,-62.5,-49.31640625,-1.0,1.0,1.0,0.0,9.m4v,1.0
2024-02-27 10:02:30.753710,1709024550.75371,-53.7109375,-47.36328125,-51.26953125,-42.96875,-1.0,1.0,1.0,0.0,9.m4v,1.0
2024-02-27 10:02:30.757615,1709024550.757615,-41.015625,-25.87890625,-26.3671875,-26.85546875,-1.0,1.0,1.0,0.0,9.m4v,1.0
2024-02-27 10:02:30.761520,1709024550.7615204,-36.62109375,-23.92578125,-33.203125,-26.85546875,-1.0,1.0,1.0,0.0,9.m4v,1.0
2024-02-27 10:02:30.765426,1709024550.7654257,-41.015625,-43.9453125,-33.203125,-38.57421875,-1.0,1.0,1.0,0.0,9.m4v,1.0
2024-02-27 10:02:30.769332,1709024550.7693317,-6.8359375,-32.2265625,7.8125,4.39453125,-1.0,1.0,1.0,0.0,9.m4v,1.0
2024-02-27 10:02:30.773237,1709024550.773237,-13.18359375,-31.25,-12.20703125,2.44140625,-1.0,1.0,1.0,0.0,9.m4v,1.0
2024-02-27 10:02:30.777142,1709024550.7771423,-44.43359375,-41.50390625,-59.5703125,-57.6171875,-1.0,1.0,1.0,0.0,9.m4v,1.0
2024-02-27 10:02:30.781048,1709024550.7810476,-54.6875,-40.0390625,-48.828125,-81.0546875,-1.0,1.0,1.0,0.0,9.m4v,1.0
2024-02-27 10:02:30.784953,1709024550.7849526,-46.875,-25.87890625,-24.4140625,-59.5703125,-1.0,1.0,1.0,0.0,9.m4v,1.0
2024-02-27 10:02:30.788858,1709024550.788858,-11.23046875,-18.5546875,-15.625,-16.11328125,-1.0,1.0,1.0,0.0,9.m4v,1.0
2024-02-27 10:02:30.792763,1709024550.7927632,-41.015625,-41.015625,-48.828125,-43.45703125,-1.0,1.0,1.0,0.0,9.m4v,1.0
2024-02-27 10:02:30.796669,1709024550.7966683,-78.125,-65.91796875,-62.5,-86.42578125,-1.0,1.0,1.0,0.0,9.m4v,1.0
2024-02-27 10:02:30.800574,1709024550.8005738,-79.58984375,-73.2421875,-51.26953125,-69.82421875,-1.0,1.0,1.0,0.0,9.m4v,1.0
2024-02-27 10:02:30.804479,1709024550.804479,-49.8046875,-47.8515625,-27.83203125,-15.13671875,-1.0,1.0,1.0,0.0,9.m4v,1.0
2024-02-27 10:02:30.808384,1709024550.8083842,-20.01953125,-29.78515625,-14.16015625,1.953125,-1.0,1.0,1.0,0.0,9.m4v,1.0
2024-02-27 10:02:30.812289,1709024550.8122897,-35.15625,-34.66796875,-45.8984375,-36.1328125,-1.0,1.0,1.0,0.0,9.m4v,1.0
2024-02-27 10:02:30.816195,1709024550.8161952,-37.109375,-22.94921875,-46.875,-43.9453125,-1.0,1.0,1.0,0.0,9.m4v,1.0
2024-02-27 10:02:30.820101,1709024550.8201003,-23.4375,-11.71875,-10.7421875,-31.25,-1.0,1.0,1.0,0.0,9.m4v,1.0
2024-02-27 10:02:30.824006,1709024550.8240056,-37.109375,-8.30078125,-30.2734375,-46.38671875,-1.0,1.0,1.0,0.0,9.m4v,1.0
2024-02-27 10:02:30.827911,1709024550.827911,-37.59765625,-17.08984375,-48.33984375,-26.3671875,-1.0,1.0,1.0,0.0,9.m4v,1.0
2024-02-27 10:02:30.831816,1709024550.8318162,-39.0625,-55.6640625,-25.87890625,-26.3671875,-1.0,1.0,1.0,0.0,9.m4v,1.0
2024-02-27 10:02:30.835721,1709024550.8357215,-44.921875,-73.2421875,-23.92578125,-56.15234375,-1.0,1.0,1.0,0.0,9.m4v,1.0
2024-02-27 10:02:30.839627,1709024550.8396268,-43.9453125,-59.5703125,-27.34375,-47.8515625,-1.0,1.0,1.0,0.0,9.m4v,1.0
2024-02-27 10:02:30.843532,1709024550.843532,-33.69140625,-42.48046875,-20.99609375,-18.06640625,-1.0,1.0,1.0,0.0,9.m4v,1.0
2024-02-27 10:02:30.847437,1709024550.8474371,-33.69140625,-43.45703125,-43.9453125,-35.15625,-1.0,1.0,1.0,0.0,9.m4v,1.0
2024-02-27 10:02:30.851342,1709024550.8513424,-23.92578125,-14.6484375,-59.08203125,-39.55078125,-1.0,1.0,1.0,0.0,9.m4v,1.0
2024-02-27 10:02:30.855248,1709024550.8552475,-16.11328125,1.46484375,-42.96875,-15.625,-1.0,1.0,1.0,0.0,9.m4v,1.0
2024-02-27 10:02:30.859153,1709024550.859153,-19.04296875,-7.8125,-26.3671875,-13.18359375,-1.0,1.0,1.0,0.0,9.m4v,1.0
2024-02-27 10:02:30.859153,1709024550.859153,-19.04296875,-7.8125,-26.3671875,-13.18359375,-1.0,1.0,1.0,0.0,9.m4v,1.0
2024-02-27 10:02:30.863058,1709024550.8630583,-12.6953125,-25.390625,-31.25,-5.37109375,-1.0,1.0,1.0,0.0,9.m4v,1.0
2024-02-27 10:02:30.863058,1709024550.8630583,-12.6953125,-25.390625,-31.25,-5.37109375,-1.0,1.0,1.0,0.0,9.m4v,1.0
2024-02-27 10:02:30.866964,1709024550.8669636,-31.73828125,-50.29296875,-49.8046875,-26.3671875,-1.0,1.0,1.0,0.0,9.m4v,1.0
2024-02-27 10:02:30.866964,1709024550.8669636,-31.73828125,-50.29296875,-49.8046875,-26.3671875,-1.0,1.0,1.0,0.0,9.m4v,1.0
2024-02-27 10:02:30.870869,1709024550.870869,-45.8984375,-49.31640625,-38.0859375,-52.734375,-1.0,1.0,1.0,0.0,9.m4v,1.0
2024-02-27 10:02:30.870869,1709024550.870869,-45.8984375,-49.31640625,-38.0859375,-52.734375,-1.0,1.0,1.0,0.0,9.m4v,1.0
2024-02-27 10:02:30.874774,1709024550.8747742,-20.99609375,-29.296875,-13.671875,-34.66796875,-1.0,1.0,1.0,0.0,9.m4v,1.0
2024-02-27 10:02:30.874774,1709024550.8747742,-20.99609375,-29.296875,-13.671875,-34.66796875,-1.0,1.0,1.0,0.0,9.m4v,1.0
2024-02-27 10:02:30.878679,1709024550.8786793,-18.5546875,-35.64453125,-22.4609375,-41.50390625,-1.0,1.0,1.0,0.0,9.m4v,1.0
2024-02-27 10:02:30.878679,1709024550.8786793,-18.5546875,-35.64453125,-22.4609375,-41.50390625,-1.0,1.0,1.0,0.0,9.m4v,1.0
2024-02-27 10:02:30.882585,1709024550.8825846,-43.9453125,-39.55078125,-31.25,-52.734375,-1.0,1.0,1.0,0.0,9.m4v,1.0
2024-02-27 10:02:30.882585,1709024550.8825846,-43.9453125,-39.55078125,-31.25,-52.734375,-1.0,1.0,1.0,0.0,9.m4v,1.0
2024-02-27 10:02:30.886490,1709024550.88649,-42.48046875,-26.85546875,-29.78515625,-40.0390625,-1.0,1.0,1.0,0.0,9.m4v,1.0
2024-02-27 10:02:30.886490,1709024550.88649,-42.48046875,-26.85546875,-29.78515625,-40.0390625,-1.0,1.0,1.0,0.0,9.m4v,1.0
2024-02-27 10:02:30.890395,1709024550.8903952,-35.64453125,-19.53125,-40.52734375,-43.45703125,-1.0,1.0,1.0,0.0,9.m4v,1.0
2024-02-27 10:02:30.890395,1709024550.8903952,-35.64453125,-19.53125,-40.52734375,-43.45703125,-1.0,1.0,1.0,0.0,9.m4v,1.0
2024-02-27 10:02:30.894300,1709024550.8943005,-13.18359375,-5.859375,-29.296875,-21.484375,-1.0,1.0,1.0,0.0,9.m4v,1.0
2024-02-27 10:02:30.894300,1709024550.8943005,-13.18359375,-5.859375,-29.296875,-21.484375,-1.0,1.0,1.0,0.0,9.m4v,1.0
2024-02-27 10:02:30.898206,1709024550.8982058,-1.953125,-20.01953125,-26.3671875,-12.20703125,-1.0,1.0,1.0,0.0,9.m4v,1.0
2024-02-27 10:02:30.898206,1709024550.8982058,-1.953125,-20.01953125,-26.3671875,-12.20703125,-1.0,1.0,1.0,0.0,9.m4v,1.0
2024-02-27 10:02:30.902111,1709024550.9021108,-10.25390625,-50.29296875,-20.5078125,-6.8359375,-1.0,1.0,1.0,0.0,9.m4v,1.0
2024-02-27 10:02:30.902111,1709024550.9021108,-10.25390625,-50.29296875,-20.5078125,-6.8359375,-1.0,1.0,1.0,0.0,9.m4v,1.0
2024-02-27 10:02:30.906016,1709024550.906016,-22.94921875,-41.015625,-20.5078125,-4.39453125,-1.0,1.0,1.0,0.0,9.m4v,1.0
2024-02-27 10:02:30.906016,1709024550.906016,-22.94921875,-41.015625,-20.5078125,-4.39453125,-1.0,1.0,1.0,0.0,9.m4v,1.0
2024-02-27 10:02:30.909926,1709024550.909926,-49.31640625,-40.0390625,-47.36328125,-32.2265625,-1.0,1.0,1.0,0.0,9.m4v,1.0
2024-02-27 10:02:30.909926,1709024550.909926,-49.31640625,-40.0390625,-47.36328125,-32.2265625,-1.0,1.0,1.0,0.0,9.m4v,1.0
2024-02-27 10:02:30.913831,1709024550.9138312,-41.9921875,-42.96875,-35.64453125,-47.36328125,-1.0,1.0,1.0,0.0,9.m4v,1.0
2024-02-27 10:02:30.913831,1709024550.9138312,-41.9921875,-42.96875,-35.64453125,-47.36328125,-1.0,1.0,1.0,0.0,9.m4v,1.0
2024-02-27 10:02:30.917737,1709024550.9177363,-43.9453125,-39.55078125,-21.97265625,-57.12890625,-1.0,1.0,1.0,0.0,9.m4v,1.0
2024-02-27 10:02:30.917737,1709024550.9177363,-43.9453125,-39.55078125,-21.97265625,-57.12890625,-1.0,1.0,1.0,0.0,9.m4v,1.0
2024-02-27 10:02:30.921642,1709024550.9216418,-55.17578125,-33.69140625,-34.66796875,-54.6875,-1.0,1.0,1.0,0.0,9.m4v,1.0
2024-02-27 10:02:30.921642,1709024550.9216418,-55.17578125,-33.69140625,-34.66796875,-54.6875,-1.0,1.0,1.0,0.0,9.m4v,1.0
2024-02-27 10:02:30.925547,1709024550.9255471,-53.22265625,-29.296875,-40.0390625,-33.69140625,-1.0,1.0,1.0,0.0,9.m4v,1.0
2024-02-27 10:02:30.925547,1709024550.9255471,-53.22265625,-29.296875,-40.0390625,-33.69140625,-1.0,1.0,1.0,0.0,9.m4v,1.0
2024-02-27 10:02:30.929452,1709024550.9294522,-41.015625,-26.85546875,-29.296875,-21.484375,-1.0,1.0,1.0,0.0,9.m4v,1.0
2024-02-27 10:02:30.929452,1709024550.9294522,-41.015625,-26.85546875,-29.296875,-21.484375,-1.0,1.0,1.0,0.0,9.m4v,1.0
2024-02-27 10:02:30.933357,1709024550.9333577,-16.11328125,-23.92578125,-17.578125,-4.39453125,-1.0,1.0,1.0,0.0,9.m4v,1.0
2024-02-27 10:02:30.933357,1709024550.9333577,-16.11328125,-23.92578125,-17.578125,-4.39453125,-1.0,1.0,1.0,0.0,9.m4v,1.0
2024-02-27 10:02:30.937263,1709024550.9372628,-16.11328125,-31.25,-14.6484375,-9.27734375,-1.0,1.0,1.0,0.0,9.m4v,1.0
2024-02-27 10:02:30.937263,1709024550.9372628,-16.11328125,-31.25,-14.6484375,-9.27734375,-1.0,1.0,1.0,0.0,9.m4v,1.0
2024-02-27 10:02:30.941168,1709024550.941168,-21.97265625,-20.5078125,-16.11328125,-14.16015625,-1.0,1.0,1.0,0.0,9.m4v,1.0
2024-02-27 10:02:30.941168,1709024550.941168,-21.97265625,-20.5078125,-16.11328125,-14.16015625,-1.0,1.0,1.0,0.0,9.m4v,1.0
2024-02-27 10:02:30.945073,1709024550.9450734,-18.06640625,-15.625,-27.83203125,-23.92578125,-1.0,1.0,1.0,0.0,9.m4v,1.0
2024-02-27 10:02:30.945073,1709024550.9450734,-18.06640625,-15.625,-27.83203125,-23.92578125,-1.0,1.0,1.0,0.0,9.m4v,1.0
2024-02-27 10:02:30.948978,1709024550.9489784,-22.94921875,-18.06640625,-33.203125,-26.3671875,-1.0,1.0,1.0,0.0,9.m4v,1.0
2024-02-27 10:02:30.948978,1709024550.9489784,-22.94921875,-18.06640625,-33.203125,-26.3671875,-1.0,1.0,1.0,0.0,9.m4v,1.0
2024-02-27 10:02:30.952884,1709024550.9528835,-25.87890625,-17.578125,-24.90234375,-14.16015625,-1.0,1.0,1.0,0.0,9.m4v,1.0
2024-02-27 10:02:30.952884,1709024550.9528835,-25.87890625,-17.578125,-24.90234375,-14.16015625,-1.0,1.0,1.0,0.0,9.m4v,1.0
2024-02-27 10:02:30.956798,1709024550.9567978,-29.296875,-37.109375,-21.97265625,-23.92578125,-1.0,1.0,1.0,0.0,9.m4v,1.0
2024-02-27 10:02:30.956798,1709024550.9567978,-29.296875,-37.109375,-21.97265625,-23.92578125,-1.0,1.0,1.0,0.0,9.m4v,1.0
2024-02-27 10:02:30.960703,1709024550.9607031,-50.29296875,-63.96484375,-47.36328125,-43.45703125,-1.0,1.0,1.0,0.0,9.m4v,1.0
2024-02-27 10:02:30.960703,1709024550.9607031,-50.29296875,-63.96484375,-47.36328125,-43.45703125,-1.0,1.0,1.0,0.0,9.m4v,1.0
2024-02-27 10:02:30.964608,1709024550.9646084,-61.03515625,-46.875,-66.40625,-50.78125,-1.0,1.0,1.0,0.0,9.m4v,1.0
2024-02-27 10:02:30.964608,1709024550.9646084,-61.03515625,-46.875,-66.40625,-50.78125,-1.0,1.0,1.0,0.0,9.m4v,1.0
2024-02-27 10:02:30.968514,1709024550.9685135,-41.015625,-16.11328125,-33.69140625,-39.55078125,-1.0,1.0,1.0,0.0,9.m4v,1.0
2024-02-27 10:02:30.968514,1709024550.9685135,-41.015625,-16.11328125,-33.69140625,-39.55078125,-1.0,1.0,1.0,0.0,9.m4v,1.0
2024-02-27 10:02:30.972419,1709024550.972419,-17.08984375,-40.52734375,-13.18359375,-23.92578125,-1.0,1.0,1.0,0.0,9.m4v,1.0
2024-02-27 10:02:30.972419,1709024550.972419,-17.08984375,-40.52734375,-13.18359375,-23.92578125,-1.0,1.0,1.0,0.0,9.m4v,1.0
2024-02-27 10:02:30.976324,1709024550.976324,-18.06640625,-45.41015625,-25.87890625,-23.92578125,-1.0,1.0,1.0,0.0,9.m4v,1.0
2024-02-27 10:02:30.976324,1709024550.976324,-18.06640625,-45.41015625,-25.87890625,-23.92578125,-1.0,1.0,1.0,0.0,9.m4v,1.0
2024-02-27 10:02:30.980229,1709024550.9802294,-29.296875,-25.390625,-35.64453125,-29.78515625,-1.0,1.0,1.0,0.0,9.m4v,1.0
2024-02-27 10:02:30.980229,1709024550.9802294,-29.296875,-25.390625,-35.64453125,-29.78515625,-1.0,1.0,1.0,0.0,9.m4v,1.0
2024-02-27 10:02:30.984135,1709024550.984135,-41.015625,-25.87890625,-50.29296875,-43.45703125,-1.0,1.0,1.0,0.0,9.m4v,1.0
2024-02-27 10:02:30.984135,1709024550.984135,-41.015625,-25.87890625,-50.29296875,-43.45703125,-1.0,1.0,1.0,0.0,9.m4v,1.0
2024-02-27 10:02:30.988040,1709024550.98804,-45.41015625,-32.71484375,-65.4296875,-44.43359375,-1.0,1.0,1.0,0.0,9.m4v,1.0
2024-02-27 10:02:30.988040,1709024550.98804,-45.41015625,-32.71484375,-65.4296875,-44.43359375,-1.0,1.0,1.0,0.0,9.m4v,1.0
2024-02-27 10:02:30.991945,1709024550.9919453,-40.52734375,-40.0390625,-45.8984375,-38.57421875,-1.0,1.0,1.0,0.0,9.m4v,1.0
2024-02-27 10:02:30.991945,1709024550.9919453,-40.52734375,-40.0390625,-45.8984375,-38.57421875,-1.0,1.0,1.0,0.0,9.m4v,1.0
2024-02-27 10:02:30.995850,1709024550.9958503,-36.1328125,-28.80859375,-13.18359375,-32.71484375,-1.0,1.0,1.0,0.0,9.m4v,1.0
2024-02-27 10:02:30.995850,1709024550.9958503,-36.1328125,-28.80859375,-13.18359375,-32.71484375,-1.0,1.0,1.0,0.0,9.m4v,1.0
2024-02-27 10:02:30.999756,1709024550.9997556,-20.01953125,-10.25390625,-10.25390625,-16.6015625,-1.0,1.0,1.0,0.0,9.m4v,1.0
2024-02-27 10:02:30.999756,1709024550.9997556,-20.01953125,-10.25390625,-10.25390625,-16.6015625,-1.0,1.0,1.0,0.0,9.m4v,1.0
2024-02-27 10:02:31.003667,1709024551.0036669,-5.859375,-21.97265625,-25.390625,-3.90625,-1.0,1.0,1.0,0.0,9.m4v,1.0
2024-02-27 10:02:31.003667,1709024551.0036669,-5.859375,-21.97265625,-25.390625,-3.90625,-1.0,1.0,1.0,0.0,9.m4v,1.0
2024-02-27 10:02:31.007572,1709024551.007572,-12.6953125,-41.015625,-21.97265625,-7.8125,-1.0,1.0,1.0,0.0,9.m4v,1.0
2024-02-27 10:02:31.007572,1709024551.007572,-12.6953125,-41.015625,-21.97265625,-7.8125,-1.0,1.0,1.0,0.0,9.m4v,1.0
2024-02-27 10:02:31.011477,1709024551.0114772,-35.15625,-46.875,-30.2734375,-38.0859375,-1.0,1.0,1.0,0.0,9.m4v,1.0
2024-02-27 10:02:31.011477,1709024551.0114772,-35.15625,-46.875,-30.2734375,-38.0859375,-1.0,1.0,1.0,0.0,9.m4v,1.0
2024-02-27 10:02:31.015383,1709024551.0153823,-52.24609375,-64.453125,-46.875,-58.10546875,-1.0,1.0,1.0,0.0,9.m4v,1.0
2024-02-27 10:02:31.015383,1709024551.0153823,-52.24609375,-64.453125,-46.875,-58.10546875,-1.0,1.0,1.0,0.0,9.m4v,1.0
2024-02-27 10:02:31.019288,1709024551.0192878,-36.62109375,-36.62109375,-39.55078125,-34.1796875,-1.0,1.0,1.0,0.0,9.m4v,1.0
2024-02-27 10:02:31.019288,1709024551.0192878,-36.62109375,-36.62109375,-39.55078125,-34.1796875,-1.0,1.0,1.0,0.0,9.m4v,1.0
2024-02-27 10:02:31.023193,1709024551.0231931,-19.53125,-3.90625,-26.85546875,-23.92578125,-1.0,1.0,1.0,0.0,9.m4v,1.0
2024-02-27 10:02:31.023193,1709024551.0231931,-19.53125,-3.90625,-26.85546875,-23.92578125,-1.0,1.0,1.0,0.0,9.m4v,1.0
