Timestamp,Timestamp_UNIX,TP9,AF7,AF8,TP10,Valence,Arousal,Dominace,Viewed,Video,Participant
2024-02-28 10:27:01.003787,1709112421.0037873,-21.484375,-43.45703125,-28.3203125,2.9296875,-1.0,0.0,-1.0,0.0,4.m4v,8.0
2024-02-28 10:27:01.003787,1709112421.0037873,-21.484375,-43.45703125,-28.3203125,2.9296875,-1.0,0.0,-1.0,0.0,4.m4v,8.0
2024-02-28 10:27:01.007693,1709112421.007693,-33.69140625,-33.69140625,-23.4375,-46.875,-1.0,0.0,-1.0,0.0,4.m4v,8.0
2024-02-28 10:27:01.007693,1709112421.007693,-33.69140625,-33.69140625,-23.4375,-46.875,-1.0,0.0,-1.0,0.0,4.m4v,8.0
2024-02-28 10:27:01.011604,1709112421.0116038,-45.8984375,-21.97265625,-24.4140625,-70.3125,-1.0,0.0,-1.0,0.0,4.m4v,8.0
2024-02-28 10:27:01.011604,1709112421.0116038,-45.8984375,-21.97265625,-24.4140625,-70.3125,-1.0,0.0,-1.0,0.0,4.m4v,8.0
2024-02-28 10:27:01.015510,1709112421.0155096,-43.45703125,-18.5546875,-23.92578125,-60.546875,-1.0,0.0,-1.0,0.0,4.m4v,8.0
2024-02-28 10:27:01.015510,1709112421.0155096,-43.45703125,-18.5546875,-23.92578125,-60.546875,-1.0,0.0,-1.0,0.0,4.m4v,8.0
2024-02-28 10:27:01.019415,1709112421.0194151,-36.62109375,-24.4140625,-42.96875,-45.8984375,-1.0,0.0,-1.0,0.0,4.m4v,8.0
2024-02-28 10:27:01.019415,1709112421.0194151,-36.62109375,-24.4140625,-42.96875,-45.8984375,-1.0,0.0,-1.0,0.0,4.m4v,8.0
2024-02-28 10:27:01.023321,1709112421.023321,-17.08984375,-20.99609375,-62.98828125,-15.13671875,-1.0,0.0,-1.0,0.0,4.m4v,8.0
2024-02-28 10:27:01.023321,1709112421.023321,-17.08984375,-20.99609375,-62.98828125,-15.13671875,-1.0,0.0,-1.0,0.0,4.m4v,8.0
2024-02-28 10:27:01.027227,1709112421.0272267,-27.34375,-33.69140625,-46.875,-29.78515625,-1.0,0.0,-1.0,0.0,4.m4v,8.0
2024-02-28 10:27:01.027227,1709112421.0272267,-27.34375,-33.69140625,-46.875,-29.78515625,-1.0,0.0,-1.0,0.0,4.m4v,8.0
2024-02-28 10:27:01.031132,1709112421.0311325,-36.1328125,-40.0390625,-34.66796875,-40.0390625,-1.0,0.0,-1.0,0.0,4.m4v,8.0
2024-02-28 10:27:01.031132,1709112421.0311325,-36.1328125,-40.0390625,-34.66796875,-40.0390625,-1.0,0.0,-1.0,0.0,4.m4v,8.0
2024-02-28 10:27:01.035038,1709112421.035038,-19.53125,-25.390625,-6.8359375,-24.90234375,-1.0,0.0,-1.0,0.0,4.m4v,8.0
2024-02-28 10:27:01.035038,1709112421.035038,-19.53125,-25.390625,-6.8359375,-24.90234375,-1.0,0.0,-1.0,0.0,4.m4v,8.0
2024-02-28 10:27:01.038944,1709112421.0389438,-30.2734375,-23.92578125,-0.48828125,-47.8515625,-1.0,0.0,-1.0,0.0,4.m4v,8.0
2024-02-28 10:27:01.038944,1709112421.0389438,-30.2734375,-23.92578125,-0.48828125,-47.8515625,-1.0,0.0,-1.0,0.0,4.m4v,8.0
2024-02-28 10:27:01.042850,1709112421.0428495,-40.52734375,-38.57421875,-38.57421875,-55.6640625,-1.0,0.0,-1.0,0.0,4.m4v,8.0
2024-02-28 10:27:01.046755,1709112421.046755,-42.48046875,-40.52734375,-47.8515625,-33.69140625,-1.0,0.0,-1.0,0.0,4.m4v,8.0
2024-02-28 10:27:01.046755,1709112421.046755,-42.48046875,-40.52734375,-47.8515625,-33.69140625,-1.0,0.0,-1.0,0.0,4.m4v,8.0
2024-02-28 10:27:01.050661,1709112421.0506608,-42.48046875,-19.53125,-38.0859375,-30.76171875,-1.0,0.0,-1.0,0.0,4.m4v,8.0
2024-02-28 10:27:01.054567,1709112421.0545666,-28.3203125,-13.18359375,-53.22265625,-38.57421875,-1.0,0.0,-1.0,0.0,4.m4v,8.0
2024-02-28 10:27:01.058476,1709112421.0584755,-36.62109375,-19.53125,-60.546875,-60.546875,-1.0,0.0,-1.0,0.0,4.m4v,8.0
2024-02-28 10:27:01.058476,1709112421.0584755,-36.62109375,-19.53125,-60.546875,-60.546875,-1.0,0.0,-1.0,0.0,4.m4v,8.0
2024-02-28 10:27:01.062381,1709112421.0623813,-48.33984375,-37.109375,-34.66796875,-72.75390625,-1.0,0.0,-1.0,0.0,4.m4v,8.0
2024-02-28 10:27:01.066287,1709112421.066287,-42.48046875,-41.50390625,-31.25,-62.5,-1.0,0.0,-1.0,0.0,4.m4v,8.0
2024-02-28 10:27:01.070193,1709112421.0701928,-24.90234375,-56.15234375,-34.1796875,-43.45703125,-1.0,0.0,-1.0,0.0,4.m4v,8.0
2024-02-28 10:27:01.070193,1709112421.0701928,-24.90234375,-56.15234375,-34.1796875,-43.45703125,-1.0,0.0,-1.0,0.0,4.m4v,8.0
2024-02-28 10:27:01.074098,1709112421.0740983,-28.3203125,-65.91796875,-20.99609375,-40.0390625,-1.0,0.0,-1.0,0.0,4.m4v,8.0
2024-02-28 10:27:01.078004,1709112421.078004,-39.0625,-34.1796875,-41.50390625,-41.015625,-1.0,0.0,-1.0,0.0,4.m4v,8.0
2024-02-28 10:27:01.081910,1709112421.08191,-33.203125,-4.39453125,-58.10546875,-25.87890625,-1.0,0.0,-1.0,0.0,4.m4v,8.0
2024-02-28 10:27:01.081910,1709112421.08191,-33.203125,-4.39453125,-58.10546875,-25.87890625,-1.0,0.0,-1.0,0.0,4.m4v,8.0
2024-02-28 10:27:01.085815,1709112421.0858154,-35.64453125,0.48828125,-21.97265625,-36.1328125,-1.0,0.0,-1.0,0.0,4.m4v,8.0
2024-02-28 10:27:01.089721,1709112421.0897212,-45.8984375,-17.08984375,-17.08984375,-41.50390625,-1.0,0.0,-1.0,0.0,4.m4v,8.0
2024-02-28 10:27:01.097533,1709112421.0975327,-53.7109375,-50.29296875,-27.34375,-59.5703125,-1.0,0.0,-1.0,0.0,4.m4v,8.0
2024-02-28 10:27:01.105347,1709112421.1053474,-47.8515625,-37.59765625,-32.71484375,-21.484375,-1.0,0.0,-1.0,0.0,4.m4v,8.0
2024-02-28 10:27:01.113159,1709112421.1131587,-8.7890625,-50.78125,-38.0859375,-39.55078125,-1.0,0.0,-1.0,0.0,4.m4v,8.0
2024-02-28 10:27:01.120970,1709112421.12097,-16.6015625,-50.29296875,-42.96875,-28.3203125,-1.0,0.0,-1.0,0.0,4.m4v,8.0
2024-02-28 10:27:01.128782,1709112421.1287816,-32.71484375,-2.44140625,-48.828125,-37.109375,-1.0,0.0,-1.0,0.0,4.m4v,8.0
2024-02-28 10:27:01.136593,1709112421.1365929,-33.203125,-25.87890625,-15.13671875,-22.94921875,-1.0,0.0,-1.0,0.0,4.m4v,8.0
2024-02-28 10:27:01.144404,1709112421.1444042,-47.8515625,-25.390625,-29.296875,-46.875,-1.0,0.0,-1.0,0.0,4.m4v,8.0
2024-02-28 10:27:01.152219,1709112421.1522186,-20.5078125,-25.87890625,-51.7578125,-36.62109375,-1.0,0.0,-1.0,0.0,4.m4v,8.0
2024-02-28 10:27:01.160030,1709112421.16003,-17.578125,-48.33984375,-25.87890625,-16.11328125,-1.0,0.0,-1.0,0.0,4.m4v,8.0
2024-02-28 10:27:01.163936,1709112421.1639357,-21.484375,-52.24609375,-30.2734375,-20.5078125,-1.0,0.0,-1.0,0.0,4.m4v,8.0
2024-02-28 10:27:01.163936,1709112421.1639357,-21.484375,-52.24609375,-30.2734375,-20.5078125,-1.0,0.0,-1.0,0.0,4.m4v,8.0
2024-02-28 10:27:01.167841,1709112421.1678414,-18.06640625,-38.0859375,-24.4140625,-26.3671875,-1.0,0.0,-1.0,0.0,4.m4v,8.0
2024-02-28 10:27:01.171747,1709112421.171747,-38.57421875,-28.80859375,-19.53125,-51.26953125,-1.0,0.0,-1.0,0.0,4.m4v,8.0
2024-02-28 10:27:01.171747,1709112421.171747,-38.57421875,-28.80859375,-19.53125,-51.26953125,-1.0,0.0,-1.0,0.0,4.m4v,8.0
2024-02-28 10:27:01.175653,1709112421.1756527,-45.41015625,-27.34375,-43.45703125,-62.01171875,-1.0,0.0,-1.0,0.0,4.m4v,8.0
2024-02-28 10:27:01.179559,1709112421.1795585,-30.2734375,-25.87890625,-54.6875,-42.96875,-1.0,0.0,-1.0,0.0,4.m4v,8.0
2024-02-28 10:27:01.179559,1709112421.1795585,-30.2734375,-25.87890625,-54.6875,-42.96875,-1.0,0.0,-1.0,0.0,4.m4v,8.0
2024-02-28 10:27:01.183464,1709112421.183464,-29.296875,-29.78515625,-34.66796875,-19.04296875,-1.0,0.0,-1.0,0.0,4.m4v,8.0
2024-02-28 10:27:01.187370,1709112421.1873698,-32.2265625,-30.2734375,-33.203125,-9.765625,-1.0,0.0,-1.0,0.0,4.m4v,8.0
2024-02-28 10:27:01.187370,1709112421.1873698,-32.2265625,-30.2734375,-33.203125,-9.765625,-1.0,0.0,-1.0,0.0,4.m4v,8.0
2024-02-28 10:27:01.191276,1709112421.1912756,-22.94921875,-17.578125,-50.78125,-4.8828125,-1.0,0.0,-1.0,0.0,4.m4v,8.0
2024-02-28 10:27:01.195181,1709112421.1951811,-14.6484375,-21.97265625,-62.5,-16.11328125,-1.0,0.0,-1.0,0.0,4.m4v,8.0
2024-02-28 10:27:01.195181,1709112421.1951811,-14.6484375,-21.97265625,-62.5,-16.11328125,-1.0,0.0,-1.0,0.0,4.m4v,8.0
2024-02-28 10:27:01.199090,1709112421.1990895,-23.4375,-41.9921875,-55.6640625,-35.15625,-1.0,0.0,-1.0,0.0,4.m4v,8.0
2024-02-28 10:27:01.202995,1709112421.2029953,-39.55078125,-55.6640625,-30.76171875,-31.73828125,-1.0,0.0,-1.0,0.0,4.m4v,8.0
2024-02-28 10:27:01.202995,1709112421.2029953,-39.55078125,-55.6640625,-30.76171875,-31.73828125,-1.0,0.0,-1.0,0.0,4.m4v,8.0
2024-02-28 10:27:01.206901,1709112421.2069008,-44.43359375,-57.12890625,-7.32421875,-46.875,-1.0,0.0,-1.0,0.0,4.m4v,8.0
2024-02-28 10:27:01.210807,1709112421.2108066,-32.71484375,-44.921875,-16.11328125,-50.78125,-1.0,0.0,-1.0,0.0,4.m4v,8.0
2024-02-28 10:27:01.210807,1709112421.2108066,-32.71484375,-44.921875,-16.11328125,-50.78125,-1.0,0.0,-1.0,0.0,4.m4v,8.0
2024-02-28 10:27:01.214712,1709112421.2147124,-25.87890625,-26.3671875,-34.66796875,-50.29296875,-1.0,0.0,-1.0,0.0,4.m4v,8.0
2024-02-28 10:27:01.214712,1709112421.2147124,-25.87890625,-26.3671875,-34.66796875,-50.29296875,-1.0,0.0,-1.0,0.0,4.m4v,8.0
2024-02-28 10:27:01.218618,1709112421.2186182,-28.3203125,-21.97265625,-27.34375,-67.87109375,-1.0,0.0,-1.0,0.0,4.m4v,8.0
2024-02-28 10:27:01.218618,1709112421.2186182,-28.3203125,-21.97265625,-27.34375,-67.87109375,-1.0,0.0,-1.0,0.0,4.m4v,8.0
2024-02-28 10:27:01.222524,1709112421.2225237,-25.390625,-30.2734375,-24.90234375,-48.33984375,-1.0,0.0,-1.0,0.0,4.m4v,8.0
2024-02-28 10:27:01.222524,1709112421.2225237,-25.390625,-30.2734375,-24.90234375,-48.33984375,-1.0,0.0,-1.0,0.0,4.m4v,8.0
2024-02-28 10:27:01.226429,1709112421.2264297,-26.85546875,-24.90234375,-35.64453125,-14.6484375,-1.0,0.0,-1.0,0.0,4.m4v,8.0
2024-02-28 10:27:01.226429,1709112421.2264297,-26.85546875,-24.90234375,-35.64453125,-14.6484375,-1.0,0.0,-1.0,0.0,4.m4v,8.0
2024-02-28 10:27:01.230335,1709112421.2303352,-31.25,-12.6953125,-56.15234375,-10.7421875,-1.0,0.0,-1.0,0.0,4.m4v,8.0
2024-02-28 10:27:01.230335,1709112421.2303352,-31.25,-12.6953125,-56.15234375,-10.7421875,-1.0,0.0,-1.0,0.0,4.m4v,8.0
2024-02-28 10:27:01.234241,1709112421.2342408,-25.87890625,-7.32421875,-57.12890625,-18.06640625,-1.0,0.0,-1.0,0.0,4.m4v,8.0
2024-02-28 10:27:01.234241,1709112421.2342408,-25.87890625,-7.32421875,-57.12890625,-18.06640625,-1.0,0.0,-1.0,0.0,4.m4v,8.0
2024-02-28 10:27:01.238147,1709112421.2381463,-22.94921875,-27.34375,-45.8984375,-39.55078125,-1.0,0.0,-1.0,0.0,4.m4v,8.0
2024-02-28 10:27:01.238147,1709112421.2381463,-22.94921875,-27.34375,-45.8984375,-39.55078125,-1.0,0.0,-1.0,0.0,4.m4v,8.0
2024-02-28 10:27:01.242052,1709112421.2420523,-28.80859375,-56.15234375,-37.59765625,-51.26953125,-1.0,0.0,-1.0,0.0,4.m4v,8.0
2024-02-28 10:27:01.242052,1709112421.2420523,-28.80859375,-56.15234375,-37.59765625,-51.26953125,-1.0,0.0,-1.0,0.0,4.m4v,8.0
2024-02-28 10:27:01.245960,1709112421.2459605,-27.83203125,-61.03515625,-20.5078125,-32.2265625,-1.0,0.0,-1.0,0.0,4.m4v,8.0
2024-02-28 10:27:01.245960,1709112421.2459605,-27.83203125,-61.03515625,-20.5078125,-32.2265625,-1.0,0.0,-1.0,0.0,4.m4v,8.0
2024-02-28 10:27:01.249866,1709112421.2498662,-27.83203125,-52.24609375,-23.92578125,-10.25390625,-1.0,0.0,-1.0,0.0,4.m4v,8.0
2024-02-28 10:27:01.249866,1709112421.2498662,-27.83203125,-52.24609375,-23.92578125,-10.25390625,-1.0,0.0,-1.0,0.0,4.m4v,8.0
2024-02-28 10:27:01.253772,1709112421.253772,-40.0390625,-52.24609375,-27.83203125,-20.5078125,-1.0,0.0,-1.0,0.0,4.m4v,8.0
2024-02-28 10:27:01.253772,1709112421.253772,-40.0390625,-52.24609375,-27.83203125,-20.5078125,-1.0,0.0,-1.0,0.0,4.m4v,8.0
2024-02-28 10:27:01.257678,1709112421.2576776,-44.921875,-45.8984375,-30.76171875,-27.83203125,-1.0,0.0,-1.0,0.0,4.m4v,8.0
2024-02-28 10:27:01.257678,1709112421.2576776,-44.921875,-45.8984375,-30.76171875,-27.83203125,-1.0,0.0,-1.0,0.0,4.m4v,8.0
2024-02-28 10:27:01.261583,1709112421.261583,-36.1328125,-32.2265625,-26.3671875,-43.9453125,-1.0,0.0,-1.0,0.0,4.m4v,8.0
2024-02-28 10:27:01.261583,1709112421.261583,-36.1328125,-32.2265625,-26.3671875,-43.9453125,-1.0,0.0,-1.0,0.0,4.m4v,8.0
2024-02-28 10:27:01.265489,1709112421.265489,-32.2265625,-32.2265625,-28.80859375,-63.96484375,-1.0,0.0,-1.0,0.0,4.m4v,8.0
2024-02-28 10:27:01.265489,1709112421.265489,-32.2265625,-32.2265625,-28.80859375,-63.96484375,-1.0,0.0,-1.0,0.0,4.m4v,8.0
2024-02-28 10:27:01.269395,1709112421.2693946,-38.0859375,-38.57421875,-35.64453125,-50.78125,-1.0,0.0,-1.0,0.0,4.m4v,8.0
2024-02-28 10:27:01.269395,1709112421.2693946,-38.0859375,-38.57421875,-35.64453125,-50.78125,-1.0,0.0,-1.0,0.0,4.m4v,8.0
2024-02-28 10:27:01.273300,1709112421.2733004,-41.9921875,-32.71484375,-43.9453125,-36.62109375,-1.0,0.0,-1.0,0.0,4.m4v,8.0
2024-02-28 10:27:01.273300,1709112421.2733004,-41.9921875,-32.71484375,-43.9453125,-36.62109375,-1.0,0.0,-1.0,0.0,4.m4v,8.0
2024-02-28 10:27:01.277206,1709112421.2772062,-31.25,-23.92578125,-64.453125,-32.71484375,-1.0,0.0,-1.0,0.0,4.m4v,8.0
2024-02-28 10:27:01.281112,1709112421.281112,-27.83203125,-33.69140625,-56.640625,-41.015625,-1.0,0.0,-1.0,0.0,4.m4v,8.0
2024-02-28 10:27:01.285017,1709112421.2850175,-39.55078125,-40.0390625,-41.50390625,-31.73828125,-1.0,0.0,-1.0,0.0,4.m4v,8.0
2024-02-28 10:27:01.288923,1709112421.2889233,-30.76171875,-27.34375,-30.2734375,-28.80859375,-1.0,0.0,-1.0,0.0,4.m4v,8.0
2024-02-28 10:27:01.292831,1709112421.2928314,-36.1328125,-19.04296875,-15.13671875,-32.2265625,-1.0,0.0,-1.0,0.0,4.m4v,8.0
2024-02-28 10:27:01.296737,1709112421.296737,-40.52734375,-35.64453125,-19.04296875,-28.3203125,-1.0,0.0,-1.0,0.0,4.m4v,8.0
2024-02-28 10:27:01.300643,1709112421.3006427,-40.0390625,-56.640625,-35.64453125,-24.4140625,-1.0,0.0,-1.0,0.0,4.m4v,8.0
2024-02-28 10:27:01.304549,1709112421.3045485,-57.12890625,-57.6171875,-60.05859375,-29.296875,-1.0,0.0,-1.0,0.0,4.m4v,8.0
2024-02-28 10:27:01.308454,1709112421.308454,-50.78125,-50.78125,-65.91796875,-43.45703125,-1.0,0.0,-1.0,0.0,4.m4v,8.0
2024-02-28 10:27:01.312360,1709112421.3123598,-40.52734375,-41.015625,-45.41015625,-52.24609375,-1.0,0.0,-1.0,0.0,4.m4v,8.0
2024-02-28 10:27:01.316266,1709112421.3162656,-37.59765625,-29.78515625,-28.80859375,-48.33984375,-1.0,0.0,-1.0,0.0,4.m4v,8.0
2024-02-28 10:27:01.320171,1709112421.320171,-35.15625,-31.25,-38.0859375,-26.85546875,-1.0,0.0,-1.0,0.0,4.m4v,8.0
2024-02-28 10:27:01.324077,1709112421.324077,-30.2734375,-31.25,-57.6171875,-35.64453125,-1.0,0.0,-1.0,0.0,4.m4v,8.0
2024-02-28 10:27:01.327983,1709112421.327983,-33.203125,-28.80859375,-49.8046875,-41.015625,-1.0,0.0,-1.0,0.0,4.m4v,8.0
2024-02-28 10:27:01.331888,1709112421.3318884,-30.76171875,-25.390625,-25.87890625,-32.2265625,-1.0,0.0,-1.0,0.0,4.m4v,8.0
2024-02-28 10:27:01.335794,1709112421.335794,-3.90625,-12.20703125,-15.625,-7.8125,-1.0,0.0,-1.0,0.0,4.m4v,8.0
2024-02-28 10:27:01.339704,1709112421.3397036,-9.27734375,-14.16015625,-14.16015625,1.953125,-1.0,0.0,-1.0,0.0,4.m4v,8.0
2024-02-28 10:27:01.343609,1709112421.343609,-29.296875,-44.921875,-29.296875,-45.41015625,-1.0,0.0,-1.0,0.0,4.m4v,8.0
2024-02-28 10:27:01.347515,1709112421.3475149,-39.55078125,-75.68359375,-41.9921875,-63.4765625,-1.0,0.0,-1.0,0.0,4.m4v,8.0
2024-02-28 10:27:01.351421,1709112421.3514206,-45.41015625,-61.03515625,-50.78125,-40.52734375,-1.0,0.0,-1.0,0.0,4.m4v,8.0
2024-02-28 10:27:01.355326,1709112421.3553262,-44.921875,-37.59765625,-50.29296875,-27.34375,-1.0,0.0,-1.0,0.0,4.m4v,8.0
2024-02-28 10:27:01.359232,1709112421.359232,-36.62109375,-33.69140625,-36.1328125,-29.296875,-1.0,0.0,-1.0,0.0,4.m4v,8.0
2024-02-28 10:27:01.363138,1709112421.3631375,-23.4375,-26.3671875,-36.1328125,-18.5546875,-1.0,0.0,-1.0,0.0,4.m4v,8.0
2024-02-28 10:27:01.367043,1709112421.3670433,-15.13671875,-18.5546875,-55.6640625,-7.8125,-1.0,0.0,-1.0,0.0,4.m4v,8.0
2024-02-28 10:27:01.370949,1709112421.370949,-30.2734375,-20.5078125,-40.52734375,-27.83203125,-1.0,0.0,-1.0,0.0,4.m4v,8.0
2024-02-28 10:27:01.374855,1709112421.3748548,-36.62109375,-28.3203125,-20.01953125,-32.71484375,-1.0,0.0,-1.0,0.0,4.m4v,8.0
2024-02-28 10:27:01.378760,1709112421.3787603,-25.87890625,-32.71484375,-29.296875,-19.53125,-1.0,0.0,-1.0,0.0,4.m4v,8.0
2024-02-28 10:27:01.382666,1709112421.382666,-8.30078125,-24.90234375,-23.92578125,-6.8359375,-1.0,0.0,-1.0,0.0,4.m4v,8.0
2024-02-28 10:27:01.386575,1709112421.3865752,-15.625,-23.4375,-27.83203125,-3.41796875,-1.0,0.0,-1.0,0.0,4.m4v,8.0
2024-02-28 10:27:01.390481,1709112421.390481,-37.59765625,-33.203125,-42.96875,-33.69140625,-1.0,0.0,-1.0,0.0,4.m4v,8.0
2024-02-28 10:27:01.394387,1709112421.3943868,-35.64453125,-41.015625,-49.31640625,-33.203125,-1.0,0.0,-1.0,0.0,4.m4v,8.0
2024-02-28 10:27:01.398292,1709112421.3982923,-35.15625,-42.48046875,-57.6171875,-21.484375,-1.0,0.0,-1.0,0.0,4.m4v,8.0
2024-02-28 10:27:01.398292,1709112421.3982923,-35.15625,-42.48046875,-57.6171875,-21.484375,-1.0,0.0,-1.0,0.0,4.m4v,8.0
2024-02-28 10:27:01.402198,1709112421.402198,-39.55078125,-48.33984375,-53.22265625,-18.5546875,-1.0,0.0,-1.0,0.0,4.m4v,8.0
2024-02-28 10:27:01.402198,1709112421.402198,-39.55078125,-48.33984375,-53.22265625,-18.5546875,-1.0,0.0,-1.0,0.0,4.m4v,8.0
2024-02-28 10:27:01.406104,1709112421.4061038,-26.85546875,-51.7578125,-31.25,-37.59765625,-1.0,0.0,-1.0,0.0,4.m4v,8.0
2024-02-28 10:27:01.406104,1709112421.4061038,-26.85546875,-51.7578125,-31.25,-37.59765625,-1.0,0.0,-1.0,0.0,4.m4v,8.0
2024-02-28 10:27:01.410010,1709112421.4100096,-23.4375,-44.921875,-23.4375,-36.62109375,-1.0,0.0,-1.0,0.0,4.m4v,8.0
2024-02-28 10:27:01.410010,1709112421.4100096,-23.4375,-44.921875,-23.4375,-36.62109375,-1.0,0.0,-1.0,0.0,4.m4v,8.0
2024-02-28 10:27:01.413915,1709112421.4139152,-28.3203125,-43.9453125,-31.25,-24.4140625,-1.0,0.0,-1.0,0.0,4.m4v,8.0
2024-02-28 10:27:01.413915,1709112421.4139152,-28.3203125,-43.9453125,-31.25,-24.4140625,-1.0,0.0,-1.0,0.0,4.m4v,8.0
2024-02-28 10:27:01.417821,1709112421.417821,-14.16015625,-29.78515625,-39.0625,-15.625,-1.0,0.0,-1.0,0.0,4.m4v,8.0
2024-02-28 10:27:01.417821,1709112421.417821,-14.16015625,-29.78515625,-39.0625,-15.625,-1.0,0.0,-1.0,0.0,4.m4v,8.0
2024-02-28 10:27:01.421727,1709112421.4217267,-5.859375,-17.08984375,-32.71484375,7.32421875,-1.0,0.0,-1.0,0.0,4.m4v,8.0
2024-02-28 10:27:01.421727,1709112421.4217267,-5.859375,-17.08984375,-32.71484375,7.32421875,-1.0,0.0,-1.0,0.0,4.m4v,8.0
2024-02-28 10:27:01.425632,1709112421.4256322,-16.11328125,-26.3671875,-27.83203125,-4.8828125,-1.0,0.0,-1.0,0.0,4.m4v,8.0
2024-02-28 10:27:01.425632,1709112421.4256322,-16.11328125,-26.3671875,-27.83203125,-4.8828125,-1.0,0.0,-1.0,0.0,4.m4v,8.0
2024-02-28 10:27:01.429538,1709112421.429538,-32.71484375,-35.64453125,-33.203125,-23.4375,-1.0,0.0,-1.0,0.0,4.m4v,8.0
2024-02-28 10:27:01.429538,1709112421.429538,-32.71484375,-35.64453125,-33.203125,-23.4375,-1.0,0.0,-1.0,0.0,4.m4v,8.0
2024-02-28 10:27:01.433447,1709112421.433447,-32.2265625,-27.83203125,-41.50390625,-25.87890625,-1.0,0.0,-1.0,0.0,4.m4v,8.0
2024-02-28 10:27:01.433447,1709112421.433447,-32.2265625,-27.83203125,-41.50390625,-25.87890625,-1.0,0.0,-1.0,0.0,4.m4v,8.0
2024-02-28 10:27:01.437353,1709112421.437353,-22.94921875,-23.4375,-46.38671875,-14.6484375,-1.0,0.0,-1.0,0.0,4.m4v,8.0
2024-02-28 10:27:01.437353,1709112421.437353,-22.94921875,-23.4375,-46.38671875,-14.6484375,-1.0,0.0,-1.0,0.0,4.m4v,8.0
2024-02-28 10:27:01.441258,1709112421.4412584,-6.8359375,-26.85546875,-54.6875,3.41796875,-1.0,0.0,-1.0,0.0,4.m4v,8.0
2024-02-28 10:27:01.441258,1709112421.4412584,-6.8359375,-26.85546875,-54.6875,3.41796875,-1.0,0.0,-1.0,0.0,4.m4v,8.0
2024-02-28 10:27:01.445164,1709112421.445164,0.48828125,-21.97265625,-62.98828125,-13.671875,-1.0,0.0,-1.0,0.0,4.m4v,8.0
2024-02-28 10:27:01.445164,1709112421.445164,0.48828125,-21.97265625,-62.98828125,-13.671875,-1.0,0.0,-1.0,0.0,4.m4v,8.0
2024-02-28 10:27:01.449070,1709112421.4490695,-3.90625,-20.99609375,-35.64453125,-20.99609375,-1.0,0.0,-1.0,0.0,4.m4v,8.0
2024-02-28 10:27:01.449070,1709112421.4490695,-3.90625,-20.99609375,-35.64453125,-20.99609375,-1.0,0.0,-1.0,0.0,4.m4v,8.0
2024-02-28 10:27:01.503752,1709112421.5037525,-22.4609375,-42.96875,-39.55078125,-32.71484375,-1.0,0.0,-1.0,0.0,4.m4v,8.0
2024-02-28 10:27:01.503752,1709112421.5037525,-22.4609375,-42.96875,-39.55078125,-32.71484375,-1.0,0.0,-1.0,0.0,4.m4v,8.0
2024-02-28 10:27:01.511564,1709112421.511564,-36.1328125,-45.8984375,-20.01953125,-49.8046875,-1.0,0.0,-1.0,0.0,4.m4v,8.0
2024-02-28 10:27:01.511564,1709112421.511564,-36.1328125,-45.8984375,-20.01953125,-49.8046875,-1.0,0.0,-1.0,0.0,4.m4v,8.0
2024-02-28 10:27:01.519375,1709112421.519375,-35.15625,-43.45703125,-24.90234375,-40.0390625,-1.0,0.0,-1.0,0.0,4.m4v,8.0
2024-02-28 10:27:01.519375,1709112421.519375,-35.15625,-43.45703125,-24.90234375,-40.0390625,-1.0,0.0,-1.0,0.0,4.m4v,8.0
2024-02-28 10:27:01.527190,1709112421.5271895,-22.94921875,-35.15625,-48.33984375,-31.73828125,-1.0,0.0,-1.0,0.0,4.m4v,8.0
2024-02-28 10:27:01.527190,1709112421.5271895,-22.94921875,-35.15625,-48.33984375,-31.73828125,-1.0,0.0,-1.0,0.0,4.m4v,8.0
2024-02-28 10:27:01.535001,1709112421.5350013,-49.31640625,-29.296875,-46.38671875,-31.73828125,-1.0,0.0,-1.0,0.0,4.m4v,8.0
2024-02-28 10:27:01.535001,1709112421.5350013,-49.31640625,-29.296875,-46.38671875,-31.73828125,-1.0,0.0,-1.0,0.0,4.m4v,8.0
2024-02-28 10:27:01.542813,1709112421.5428126,-41.015625,-33.203125,-32.2265625,-51.26953125,-1.0,0.0,-1.0,0.0,4.m4v,8.0
2024-02-28 10:27:01.542813,1709112421.5428126,-41.015625,-33.203125,-32.2265625,-51.26953125,-1.0,0.0,-1.0,0.0,4.m4v,8.0
2024-02-28 10:27:01.550624,1709112421.550624,-36.1328125,-33.69140625,-36.1328125,-50.29296875,-1.0,0.0,-1.0,0.0,4.m4v,8.0
2024-02-28 10:27:01.558435,1709112421.5584354,-28.80859375,-37.59765625,-33.69140625,-24.4140625,-1.0,0.0,-1.0,0.0,4.m4v,8.0
2024-02-28 10:27:01.566247,1709112421.5662467,-45.8984375,-28.3203125,-43.45703125,-33.203125,-1.0,0.0,-1.0,0.0,4.m4v,8.0
2024-02-28 10:27:01.574061,1709112421.574061,-47.8515625,-49.31640625,-30.2734375,-39.55078125,-1.0,0.0,-1.0,0.0,4.m4v,8.0
2024-02-28 10:27:01.581872,1709112421.5818725,-54.19921875,-30.76171875,-44.921875,-55.17578125,-1.0,0.0,-1.0,0.0,4.m4v,8.0
2024-02-28 10:27:01.589684,1709112421.5896838,-48.33984375,-13.18359375,-21.97265625,-44.43359375,-1.0,0.0,-1.0,0.0,4.m4v,8.0
2024-02-28 10:27:01.597495,1709112421.597495,-42.96875,-29.78515625,-26.85546875,-64.453125,-1.0,0.0,-1.0,0.0,4.m4v,8.0
2024-02-28 10:27:01.605307,1709112421.6053066,-78.125,-51.26953125,-15.13671875,-39.55078125,-1.0,0.0,-1.0,0.0,4.m4v,8.0
2024-02-28 10:27:01.613118,1709112421.613118,-73.2421875,-36.62109375,-26.3671875,-66.89453125,-1.0,0.0,-1.0,0.0,4.m4v,8.0
2024-02-28 10:27:01.620932,1709112421.620932,-78.61328125,-24.90234375,-65.91796875,-72.265625,-1.0,0.0,-1.0,0.0,4.m4v,8.0
2024-02-28 10:27:01.628743,1709112421.6287432,-73.2421875,-44.921875,-19.53125,-89.84375,-1.0,0.0,-1.0,0.0,4.m4v,8.0
2024-02-28 10:27:01.636555,1709112421.6365547,-69.82421875,-41.015625,4.39453125,-70.80078125,-1.0,0.0,-1.0,0.0,4.m4v,8.0
2024-02-28 10:27:01.644366,1709112421.644366,-84.47265625,-35.64453125,-23.92578125,-77.63671875,-1.0,0.0,-1.0,0.0,4.m4v,8.0
2024-02-28 10:27:01.652177,1709112421.652177,-64.94140625,-32.71484375,-35.64453125,-73.73046875,-1.0,0.0,-1.0,0.0,4.m4v,8.0
2024-02-28 10:27:01.659989,1709112421.6599889,-89.84375,-39.55078125,-52.734375,-88.37890625,-1.0,0.0,-1.0,0.0,4.m4v,8.0
2024-02-28 10:27:01.667802,1709112421.6678023,-80.56640625,-20.01953125,-32.71484375,-68.84765625,-1.0,0.0,-1.0,0.0,4.m4v,8.0
2024-02-28 10:27:01.675614,1709112421.675614,-81.0546875,-35.15625,-51.7578125,-77.63671875,-1.0,0.0,-1.0,0.0,4.m4v,8.0
2024-02-28 10:27:01.683425,1709112421.6834252,-77.1484375,-38.57421875,-33.203125,-62.01171875,-1.0,0.0,-1.0,0.0,4.m4v,8.0
2024-02-28 10:27:01.691236,1709112421.6912365,-75.1953125,-53.22265625,-38.57421875,-58.59375,-1.0,0.0,-1.0,0.0,4.m4v,8.0
2024-02-28 10:27:01.695142,1709112421.6951425,-70.3125,-62.01171875,-47.8515625,-28.3203125,-1.0,0.0,-1.0,0.0,4.m4v,8.0
2024-02-28 10:27:01.699048,1709112421.699048,-61.03515625,-52.24609375,-34.1796875,-45.41015625,-1.0,0.0,-1.0,0.0,4.m4v,8.0
2024-02-28 10:27:01.702954,1709112421.7029536,-39.55078125,-41.015625,-31.73828125,-58.10546875,-1.0,0.0,-1.0,0.0,4.m4v,8.0
2024-02-28 10:27:01.706859,1709112421.7068594,-31.25,-46.875,-31.73828125,-38.0859375,-1.0,0.0,-1.0,0.0,4.m4v,8.0
2024-02-28 10:27:01.710765,1709112421.7107651,-39.55078125,-34.66796875,-31.73828125,-34.66796875,-1.0,0.0,-1.0,0.0,4.m4v,8.0
2024-02-28 10:27:01.718579,1709112421.7185786,-34.1796875,-14.16015625,-45.8984375,-58.10546875,-1.0,0.0,-1.0,0.0,4.m4v,8.0
2024-02-28 10:27:01.726390,1709112421.72639,-32.71484375,-25.87890625,-37.59765625,-41.015625,-1.0,0.0,-1.0,0.0,4.m4v,8.0
2024-02-28 10:27:01.734201,1709112421.7342014,-38.57421875,-37.109375,-36.62109375,-34.66796875,-1.0,0.0,-1.0,0.0,4.m4v,8.0
2024-02-28 10:27:01.742013,1709112421.742013,-35.64453125,-35.64453125,-47.8515625,-27.34375,-1.0,0.0,-1.0,0.0,4.m4v,8.0
2024-02-28 10:27:01.749824,1709112421.7498243,-50.78125,-48.828125,-26.85546875,-26.85546875,-1.0,0.0,-1.0,0.0,4.m4v,8.0
2024-02-28 10:27:01.757636,1709112421.7576356,-49.31640625,-38.57421875,-46.38671875,-39.55078125,-1.0,0.0,-1.0,0.0,4.m4v,8.0
2024-02-28 10:27:01.765450,1709112421.7654505,-43.45703125,-41.015625,-9.27734375,-49.8046875,-1.0,0.0,-1.0,0.0,4.m4v,8.0
2024-02-28 10:27:01.773262,1709112421.773262,-31.25,-22.94921875,-36.62109375,-41.50390625,-1.0,0.0,-1.0,0.0,4.m4v,8.0
2024-02-28 10:27:01.781073,1709112421.781073,-46.875,-28.3203125,-41.015625,-42.48046875,-1.0,0.0,-1.0,0.0,4.m4v,8.0
2024-02-28 10:27:01.995901,1709112421.995901,-15.13671875,-38.57421875,-44.43359375,-18.06640625,-1.0,0.0,-1.0,0.0,4.m4v,8.0
2024-02-28 10:27:01.999807,1709112421.999807,-4.39453125,-35.15625,-38.57421875,-24.4140625,-1.0,0.0,-1.0,0.0,4.m4v,8.0
2024-02-28 10:27:02.003713,1709112422.003713,-12.20703125,-31.25,-49.31640625,-26.85546875,-1.0,0.0,-1.0,0.0,4.m4v,8.0
2024-02-28 10:27:02.007618,1709112422.0076182,-30.76171875,-36.62109375,-42.96875,-38.0859375,-1.0,0.0,-1.0,0.0,4.m4v,8.0
2024-02-28 10:27:02.011524,1709112422.011524,-23.4375,-41.50390625,-27.83203125,-33.69140625,-1.0,0.0,-1.0,0.0,4.m4v,8.0
2024-02-28 10:27:02.015430,1709112422.0154295,-12.20703125,-26.85546875,-20.99609375,-34.66796875,-1.0,0.0,-1.0,0.0,4.m4v,8.0
2024-02-28 10:27:02.019335,1709112422.0193353,-19.53125,-20.01953125,-21.484375,-41.9921875,-1.0,0.0,-1.0,0.0,4.m4v,8.0
2024-02-28 10:27:02.023241,1709112422.023241,-19.04296875,-23.4375,-26.85546875,-28.80859375,-1.0,0.0,-1.0,0.0,4.m4v,8.0
2024-02-28 10:27:02.027147,1709112422.0271468,-9.765625,-23.4375,-29.78515625,-20.5078125,-1.0,0.0,-1.0,0.0,4.m4v,8.0
2024-02-28 10:27:02.031052,1709112422.0310524,0.0,-32.71484375,-28.80859375,-20.01953125,-1.0,0.0,-1.0,0.0,4.m4v,8.0
2024-02-28 10:27:02.034958,1709112422.034958,12.20703125,-39.0625,-48.828125,-18.06640625,-1.0,0.0,-1.0,0.0,4.m4v,8.0
2024-02-28 10:27:02.038864,1709112422.038864,-6.8359375,-35.64453125,-64.453125,-12.20703125,-1.0,0.0,-1.0,0.0,4.m4v,8.0
2024-02-28 10:27:02.042772,1709112422.0427718,-31.25,-44.43359375,-40.0390625,-5.859375,-1.0,0.0,-1.0,0.0,4.m4v,8.0
2024-02-28 10:27:02.046678,1709112422.0466776,-20.99609375,-50.78125,-35.15625,-26.85546875,-1.0,0.0,-1.0,0.0,4.m4v,8.0
2024-02-28 10:27:02.050583,1709112422.0505831,-29.296875,-43.45703125,-49.31640625,-33.203125,-1.0,0.0,-1.0,0.0,4.m4v,8.0
2024-02-28 10:27:02.054489,1709112422.054489,-35.64453125,-33.203125,-51.26953125,-9.765625,-1.0,0.0,-1.0,0.0,4.m4v,8.0
2024-02-28 10:27:02.058395,1709112422.058395,-22.94921875,-30.76171875,-47.8515625,-20.99609375,-1.0,0.0,-1.0,0.0,4.m4v,8.0
2024-02-28 10:27:02.062300,1709112422.0623002,-24.90234375,-33.69140625,-37.109375,-22.4609375,-1.0,0.0,-1.0,0.0,4.m4v,8.0
2024-02-28 10:27:02.066206,1709112422.066206,-15.13671875,-29.296875,-29.78515625,-11.23046875,-1.0,0.0,-1.0,0.0,4.m4v,8.0
2024-02-28 10:27:02.070112,1709112422.0701118,-21.97265625,-23.4375,-33.203125,-16.6015625,-1.0,0.0,-1.0,0.0,4.m4v,8.0
2024-02-28 10:27:02.074017,1709112422.0740173,-37.109375,-18.06640625,-25.87890625,-41.9921875,-1.0,0.0,-1.0,0.0,4.m4v,8.0
2024-02-28 10:27:02.077923,1709112422.077923,-40.0390625,-24.4140625,-13.671875,-46.875,-1.0,0.0,-1.0,0.0,4.m4v,8.0
2024-02-28 10:27:02.081829,1709112422.0818288,-41.015625,-34.66796875,-25.87890625,-47.36328125,-1.0,0.0,-1.0,0.0,4.m4v,8.0
2024-02-28 10:27:02.085735,1709112422.0857346,-36.1328125,-38.0859375,-27.83203125,-53.22265625,-1.0,0.0,-1.0,0.0,4.m4v,8.0
2024-02-28 10:27:02.089642,1709112422.0896423,-41.9921875,-47.8515625,-23.4375,-45.41015625,-1.0,0.0,-1.0,0.0,4.m4v,8.0
2024-02-28 10:27:02.093548,1709112422.093548,-51.26953125,-56.15234375,-36.62109375,-46.875,-1.0,0.0,-1.0,0.0,4.m4v,8.0
2024-02-28 10:27:02.097454,1709112422.0974536,-55.6640625,-48.828125,-33.69140625,-58.10546875,-1.0,0.0,-1.0,0.0,4.m4v,8.0
2024-02-28 10:27:02.101359,1709112422.1013594,-44.921875,-47.8515625,-33.203125,-44.921875,-1.0,0.0,-1.0,0.0,4.m4v,8.0
2024-02-28 10:27:02.105265,1709112422.1052651,-40.0390625,-57.6171875,-42.48046875,-37.59765625,-1.0,0.0,-1.0,0.0,4.m4v,8.0
2024-02-28 10:27:02.109171,1709112422.109171,-55.17578125,-52.734375,-40.52734375,-27.83203125,-1.0,0.0,-1.0,0.0,4.m4v,8.0
2024-02-28 10:27:02.113076,1709112422.1130764,-53.7109375,-23.92578125,-47.36328125,-37.109375,-1.0,0.0,-1.0,0.0,4.m4v,8.0
2024-02-28 10:27:02.116982,1709112422.1169822,-41.015625,-5.37109375,-48.828125,-51.26953125,-1.0,0.0,-1.0,0.0,4.m4v,8.0
2024-02-28 10:27:02.120888,1709112422.120888,-34.1796875,-21.97265625,-26.3671875,-35.64453125,-1.0,0.0,-1.0,0.0,4.m4v,8.0
2024-02-28 10:27:02.124794,1709112422.1247935,-23.4375,-36.1328125,-9.27734375,-33.203125,-1.0,0.0,-1.0,0.0,4.m4v,8.0
2024-02-28 10:27:02.128699,1709112422.1286993,-37.109375,-26.3671875,-9.765625,-41.50390625,-1.0,0.0,-1.0,0.0,4.m4v,8.0
2024-02-28 10:27:02.132605,1709112422.132605,-53.7109375,-27.34375,-19.53125,-36.62109375,-1.0,0.0,-1.0,0.0,4.m4v,8.0
2024-02-28 10:27:02.136514,1709112422.1365142,-51.7578125,-45.41015625,-30.76171875,-33.203125,-1.0,0.0,-1.0,0.0,4.m4v,8.0
2024-02-28 10:27:02.140420,1709112422.14042,-55.17578125,-48.828125,-31.25,-53.22265625,-1.0,0.0,-1.0,0.0,4.m4v,8.0
2024-02-28 10:27:02.144325,1709112422.1443255,-58.10546875,-37.109375,-31.25,-57.12890625,-1.0,0.0,-1.0,0.0,4.m4v,8.0
2024-02-28 10:27:02.148231,1709112422.1482313,-60.546875,-46.38671875,-37.109375,-53.7109375,-1.0,0.0,-1.0,0.0,4.m4v,8.0
2024-02-28 10:27:02.152137,1709112422.152137,-45.8984375,-58.10546875,-39.55078125,-55.17578125,-1.0,0.0,-1.0,0.0,4.m4v,8.0
2024-02-28 10:27:02.156043,1709112422.1560426,-45.8984375,-38.0859375,-37.59765625,-58.10546875,-1.0,0.0,-1.0,0.0,4.m4v,8.0
2024-02-28 10:27:02.159948,1709112422.1599483,-56.640625,-25.390625,-40.0390625,-51.7578125,-1.0,0.0,-1.0,0.0,4.m4v,8.0
2024-02-28 10:27:02.163854,1709112422.163854,-31.25,-22.4609375,-43.45703125,-14.16015625,-1.0,0.0,-1.0,0.0,4.m4v,8.0
2024-02-28 10:27:02.167760,1709112422.1677597,-28.3203125,-23.4375,-39.55078125,-10.7421875,-1.0,0.0,-1.0,0.0,4.m4v,8.0
2024-02-28 10:27:02.171665,1709112422.1716654,-57.6171875,-36.62109375,-26.3671875,-57.12890625,-1.0,0.0,-1.0,0.0,4.m4v,8.0
2024-02-28 10:27:02.175571,1709112422.1755712,-64.94140625,-53.22265625,-17.578125,-64.453125,-1.0,0.0,-1.0,0.0,4.m4v,8.0
2024-02-28 10:27:02.179477,1709112422.179477,-59.5703125,-44.921875,-17.578125,-67.3828125,-1.0,0.0,-1.0,0.0,4.m4v,8.0
2024-02-28 10:27:02.183386,1709112422.183386,-52.24609375,-30.76171875,-25.87890625,-64.94140625,-1.0,0.0,-1.0,0.0,4.m4v,8.0
2024-02-28 10:27:02.187292,1709112422.1872916,-59.08203125,-31.73828125,-48.33984375,-62.98828125,-1.0,0.0,-1.0,0.0,4.m4v,8.0
2024-02-28 10:27:02.191197,1709112422.1911974,-70.80078125,-28.80859375,-55.17578125,-74.70703125,-1.0,0.0,-1.0,0.0,4.m4v,8.0
2024-02-28 10:27:02.195103,1709112422.1951032,-70.3125,-43.45703125,-41.015625,-78.125,-1.0,0.0,-1.0,0.0,4.m4v,8.0
2024-02-28 10:27:02.199009,1709112422.1990087,-60.05859375,-62.01171875,-23.4375,-73.73046875,-1.0,0.0,-1.0,0.0,4.m4v,8.0
2024-02-28 10:27:02.202914,1709112422.2029145,-51.7578125,-48.828125,-23.4375,-66.40625,-1.0,0.0,-1.0,0.0,4.m4v,8.0
2024-02-28 10:27:02.206820,1709112422.2068202,-49.8046875,-35.64453125,-36.62109375,-70.3125,-1.0,0.0,-1.0,0.0,4.m4v,8.0
2024-02-28 10:27:02.210726,1709112422.2107258,-50.29296875,-39.0625,-40.0390625,-57.12890625,-1.0,0.0,-1.0,0.0,4.m4v,8.0
2024-02-28 10:27:02.339622,1709112422.3396225,-19.53125,-52.734375,-27.34375,-17.08984375,-1.0,0.0,-1.0,0.0,4.m4v,8.0
2024-02-28 10:27:02.339622,1709112422.3396225,-19.53125,-52.734375,-27.34375,-17.08984375,-1.0,0.0,-1.0,0.0,4.m4v,8.0
2024-02-28 10:27:02.343528,1709112422.3435285,-26.85546875,-41.9921875,-20.01953125,-11.71875,-1.0,0.0,-1.0,0.0,4.m4v,8.0
2024-02-28 10:27:02.343528,1709112422.3435285,-26.85546875,-41.9921875,-20.01953125,-11.71875,-1.0,0.0,-1.0,0.0,4.m4v,8.0
2024-02-28 10:27:02.347434,1709112422.3474338,-38.0859375,-42.96875,-36.1328125,-2.44140625,-1.0,0.0,-1.0,0.0,4.m4v,8.0
2024-02-28 10:27:02.347434,1709112422.3474338,-38.0859375,-42.96875,-36.1328125,-2.44140625,-1.0,0.0,-1.0,0.0,4.m4v,8.0
2024-02-28 10:27:02.351340,1709112422.3513396,-40.0390625,-49.31640625,-30.2734375,-18.5546875,-1.0,0.0,-1.0,0.0,4.m4v,8.0
2024-02-28 10:27:02.351340,1709112422.3513396,-40.0390625,-49.31640625,-30.2734375,-18.5546875,-1.0,0.0,-1.0,0.0,4.m4v,8.0
2024-02-28 10:27:02.355245,1709112422.3552454,-35.64453125,-40.0390625,-24.90234375,-32.71484375,-1.0,0.0,-1.0,0.0,4.m4v,8.0
2024-02-28 10:27:02.355245,1709112422.3552454,-35.64453125,-40.0390625,-24.90234375,-32.71484375,-1.0,0.0,-1.0,0.0,4.m4v,8.0
2024-02-28 10:27:02.359151,1709112422.3591511,-47.36328125,-22.4609375,-28.3203125,-22.94921875,-1.0,0.0,-1.0,0.0,4.m4v,8.0
2024-02-28 10:27:02.359151,1709112422.3591511,-47.36328125,-22.4609375,-28.3203125,-22.94921875,-1.0,0.0,-1.0,0.0,4.m4v,8.0
2024-02-28 10:27:02.363057,1709112422.363057,-42.48046875,-12.6953125,-39.55078125,-43.45703125,-1.0,0.0,-1.0,0.0,4.m4v,8.0
2024-02-28 10:27:02.363057,1709112422.363057,-42.48046875,-12.6953125,-39.55078125,-43.45703125,-1.0,0.0,-1.0,0.0,4.m4v,8.0
2024-02-28 10:27:02.366962,1709112422.3669624,-31.73828125,-15.625,-41.9921875,-45.8984375,-1.0,0.0,-1.0,0.0,4.m4v,8.0
2024-02-28 10:27:02.366962,1709112422.3669624,-31.73828125,-15.625,-41.9921875,-45.8984375,-1.0,0.0,-1.0,0.0,4.m4v,8.0
2024-02-28 10:27:02.370871,1709112422.3708706,-30.76171875,-25.390625,-37.59765625,-32.2265625,-1.0,0.0,-1.0,0.0,4.m4v,8.0
2024-02-28 10:27:02.370871,1709112422.3708706,-30.76171875,-25.390625,-37.59765625,-32.2265625,-1.0,0.0,-1.0,0.0,4.m4v,8.0
2024-02-28 10:27:02.374776,1709112422.3747764,-42.48046875,-33.203125,-35.64453125,-47.8515625,-1.0,0.0,-1.0,0.0,4.m4v,8.0
2024-02-28 10:27:02.374776,1709112422.3747764,-42.48046875,-33.203125,-35.64453125,-47.8515625,-1.0,0.0,-1.0,0.0,4.m4v,8.0
2024-02-28 10:27:02.378682,1709112422.378682,-55.6640625,-50.29296875,-36.1328125,-76.66015625,-1.0,0.0,-1.0,0.0,4.m4v,8.0
2024-02-28 10:27:02.378682,1709112422.378682,-55.6640625,-50.29296875,-36.1328125,-76.66015625,-1.0,0.0,-1.0,0.0,4.m4v,8.0
2024-02-28 10:27:02.382588,1709112422.382588,-48.33984375,-56.640625,-46.875,-60.546875,-1.0,0.0,-1.0,0.0,4.m4v,8.0
2024-02-28 10:27:02.382588,1709112422.382588,-48.33984375,-56.640625,-46.875,-60.546875,-1.0,0.0,-1.0,0.0,4.m4v,8.0
2024-02-28 10:27:02.386493,1709112422.3864934,-31.25,-45.41015625,-38.0859375,-34.66796875,-1.0,0.0,-1.0,0.0,4.m4v,8.0
2024-02-28 10:27:02.386493,1709112422.3864934,-31.25,-45.41015625,-38.0859375,-34.66796875,-1.0,0.0,-1.0,0.0,4.m4v,8.0
2024-02-28 10:27:02.390399,1709112422.3903992,-32.71484375,-40.0390625,-29.78515625,-33.203125,-1.0,0.0,-1.0,0.0,4.m4v,8.0
2024-02-28 10:27:02.390399,1709112422.3903992,-32.71484375,-40.0390625,-29.78515625,-33.203125,-1.0,0.0,-1.0,0.0,4.m4v,8.0
2024-02-28 10:27:02.394305,1709112422.394305,-39.0625,-33.69140625,-49.31640625,-36.1328125,-1.0,0.0,-1.0,0.0,4.m4v,8.0
2024-02-28 10:27:02.394305,1709112422.394305,-39.0625,-33.69140625,-49.31640625,-36.1328125,-1.0,0.0,-1.0,0.0,4.m4v,8.0
2024-02-28 10:27:02.398211,1709112422.3982103,-38.57421875,-33.203125,-49.31640625,-38.0859375,-1.0,0.0,-1.0,0.0,4.m4v,8.0
2024-02-28 10:27:02.398211,1709112422.3982103,-38.57421875,-33.203125,-49.31640625,-38.0859375,-1.0,0.0,-1.0,0.0,4.m4v,8.0
2024-02-28 10:27:02.402116,1709112422.4021163,-34.66796875,-43.45703125,-34.1796875,-39.55078125,-1.0,0.0,-1.0,0.0,4.m4v,8.0
2024-02-28 10:27:02.402116,1709112422.4021163,-34.66796875,-43.45703125,-34.1796875,-39.55078125,-1.0,0.0,-1.0,0.0,4.m4v,8.0
2024-02-28 10:27:02.406022,1709112422.406022,-31.73828125,-41.50390625,-46.875,-24.4140625,-1.0,0.0,-1.0,0.0,4.m4v,8.0
2024-02-28 10:27:02.406022,1709112422.406022,-31.73828125,-41.50390625,-46.875,-24.4140625,-1.0,0.0,-1.0,0.0,4.m4v,8.0
2024-02-28 10:27:02.409928,1709112422.4099276,-36.62109375,-37.109375,-44.43359375,-36.1328125,-1.0,0.0,-1.0,0.0,4.m4v,8.0
2024-02-28 10:27:02.409928,1709112422.4099276,-36.62109375,-37.109375,-44.43359375,-36.1328125,-1.0,0.0,-1.0,0.0,4.m4v,8.0
2024-02-28 10:27:02.413833,1709112422.4138334,-33.203125,-36.62109375,-28.80859375,-60.05859375,-1.0,0.0,-1.0,0.0,4.m4v,8.0
2024-02-28 10:27:02.413833,1709112422.4138334,-33.203125,-36.62109375,-28.80859375,-60.05859375,-1.0,0.0,-1.0,0.0,4.m4v,8.0
2024-02-28 10:27:02.417741,1709112422.4177413,-35.15625,-32.71484375,-33.203125,-60.546875,-1.0,0.0,-1.0,0.0,4.m4v,8.0
2024-02-28 10:27:02.417741,1709112422.4177413,-35.15625,-32.71484375,-33.203125,-60.546875,-1.0,0.0,-1.0,0.0,4.m4v,8.0
2024-02-28 10:27:02.421647,1709112422.421647,-39.0625,-27.83203125,-33.69140625,-41.9921875,-1.0,0.0,-1.0,0.0,4.m4v,8.0
2024-02-28 10:27:02.421647,1709112422.421647,-39.0625,-27.83203125,-33.69140625,-41.9921875,-1.0,0.0,-1.0,0.0,4.m4v,8.0
2024-02-28 10:27:02.425553,1709112422.4255526,-35.15625,-28.3203125,-30.76171875,-31.25,-1.0,0.0,-1.0,0.0,4.m4v,8.0
2024-02-28 10:27:02.425553,1709112422.4255526,-35.15625,-28.3203125,-30.76171875,-31.25,-1.0,0.0,-1.0,0.0,4.m4v,8.0
2024-02-28 10:27:02.429458,1709112422.4294584,-44.921875,-42.96875,-41.015625,-69.82421875,-1.0,0.0,-1.0,0.0,4.m4v,8.0
2024-02-28 10:27:02.429458,1709112422.4294584,-44.921875,-42.96875,-41.015625,-69.82421875,-1.0,0.0,-1.0,0.0,4.m4v,8.0
2024-02-28 10:27:02.433364,1709112422.4333642,-50.78125,-34.66796875,-44.43359375,-68.359375,-1.0,0.0,-1.0,0.0,4.m4v,8.0
2024-02-28 10:27:02.433364,1709112422.4333642,-50.78125,-34.66796875,-44.43359375,-68.359375,-1.0,0.0,-1.0,0.0,4.m4v,8.0
2024-02-28 10:27:02.437270,1709112422.4372697,-40.52734375,-25.390625,-50.29296875,-49.8046875,-1.0,0.0,-1.0,0.0,4.m4v,8.0
2024-02-28 10:27:02.437270,1709112422.4372697,-40.52734375,-25.390625,-50.29296875,-49.8046875,-1.0,0.0,-1.0,0.0,4.m4v,8.0
2024-02-28 10:27:02.441175,1709112422.4411757,-41.9921875,-41.015625,-59.5703125,-43.45703125,-1.0,0.0,-1.0,0.0,4.m4v,8.0
2024-02-28 10:27:02.441175,1709112422.4411757,-41.9921875,-41.015625,-59.5703125,-43.45703125,-1.0,0.0,-1.0,0.0,4.m4v,8.0
2024-02-28 10:27:02.445081,1709112422.4450812,-27.34375,-49.8046875,-43.45703125,-31.73828125,-1.0,0.0,-1.0,0.0,4.m4v,8.0
2024-02-28 10:27:02.445081,1709112422.4450812,-27.34375,-49.8046875,-43.45703125,-31.73828125,-1.0,0.0,-1.0,0.0,4.m4v,8.0
2024-02-28 10:27:02.448987,1709112422.4489868,-24.90234375,-43.45703125,-41.50390625,-35.64453125,-1.0,0.0,-1.0,0.0,4.m4v,8.0
2024-02-28 10:27:02.448987,1709112422.4489868,-24.90234375,-43.45703125,-41.50390625,-35.64453125,-1.0,0.0,-1.0,0.0,4.m4v,8.0
2024-02-28 10:27:02.452893,1709112422.4528923,-50.29296875,-36.1328125,-32.71484375,-27.83203125,-1.0,0.0,-1.0,0.0,4.m4v,8.0
2024-02-28 10:27:02.452893,1709112422.4528923,-50.29296875,-36.1328125,-32.71484375,-27.83203125,-1.0,0.0,-1.0,0.0,4.m4v,8.0
2024-02-28 10:27:02.562261,1709112422.562261,-38.0859375,-48.828125,-34.1796875,-23.92578125,-1.0,0.0,-1.0,0.0,4.m4v,8.0
2024-02-28 10:27:02.570072,1709112422.5700724,-21.484375,-48.33984375,-60.05859375,-38.0859375,-1.0,0.0,-1.0,0.0,4.m4v,8.0
2024-02-28 10:27:02.577884,1709112422.577884,-37.109375,-20.99609375,-39.0625,-56.15234375,-1.0,0.0,-1.0,0.0,4.m4v,8.0
2024-02-28 10:27:02.687250,1709112422.6872497,-33.69140625,-41.9921875,-38.57421875,-52.24609375,-1.0,0.0,-1.0,0.0,4.m4v,8.0
2024-02-28 10:27:02.695061,1709112422.695061,-35.15625,-46.38671875,-26.3671875,-28.80859375,-1.0,0.0,-1.0,0.0,4.m4v,8.0
2024-02-28 10:27:02.702875,1709112422.7028751,-28.3203125,-27.34375,-42.96875,-41.9921875,-1.0,0.0,-1.0,0.0,4.m4v,8.0
2024-02-28 10:27:02.710687,1709112422.7106867,-32.2265625,-30.2734375,-43.9453125,-33.69140625,-1.0,0.0,-1.0,0.0,4.m4v,8.0
2024-02-28 10:27:02.718498,1709112422.718498,-9.27734375,-34.1796875,-29.296875,-17.578125,-1.0,0.0,-1.0,0.0,4.m4v,8.0
2024-02-28 10:27:02.726309,1709112422.7263093,-58.59375,-50.29296875,-36.62109375,-47.36328125,-1.0,0.0,-1.0,0.0,4.m4v,8.0
2024-02-28 10:27:02.734121,1709112422.7341208,-54.6875,-32.71484375,-34.1796875,-54.19921875,-1.0,0.0,-1.0,0.0,4.m4v,8.0
2024-02-28 10:27:02.741932,1709112422.7419322,-38.57421875,-27.83203125,-26.3671875,-33.203125,-1.0,0.0,-1.0,0.0,4.m4v,8.0
2024-02-28 10:27:02.749746,1709112422.749746,-38.57421875,-41.50390625,-28.3203125,-36.62109375,-1.0,0.0,-1.0,0.0,4.m4v,8.0
2024-02-28 10:27:02.757557,1709112422.7575574,-25.390625,-32.71484375,-52.24609375,-44.921875,-1.0,0.0,-1.0,0.0,4.m4v,8.0
2024-02-28 10:27:02.765369,1709112422.7653687,-31.73828125,-41.015625,-25.390625,-24.90234375,-1.0,0.0,-1.0,0.0,4.m4v,8.0
2024-02-28 10:27:02.773180,1709112422.7731802,-30.2734375,-20.5078125,-25.390625,-24.4140625,-1.0,0.0,-1.0,0.0,4.m4v,8.0
2024-02-28 10:27:02.780992,1709112422.7809916,-15.13671875,-18.5546875,-24.4140625,-15.625,-1.0,0.0,-1.0,0.0,4.m4v,8.0
2024-02-28 10:27:02.788803,1709112422.788803,-37.109375,-54.19921875,-28.80859375,-17.578125,-1.0,0.0,-1.0,0.0,4.m4v,8.0
2024-02-28 10:27:02.796617,1709112422.7966168,-34.66796875,-29.296875,-36.1328125,-34.1796875,-1.0,0.0,-1.0,0.0,4.m4v,8.0
2024-02-28 10:27:02.804428,1709112422.804428,-23.4375,-26.3671875,-48.828125,-19.04296875,-1.0,0.0,-1.0,0.0,4.m4v,8.0
2024-02-28 10:27:02.812240,1709112422.8122396,-35.64453125,-37.59765625,-30.76171875,-40.0390625,-1.0,0.0,-1.0,0.0,4.m4v,8.0
2024-02-28 10:27:02.820051,1709112422.820051,-40.0390625,-44.43359375,-30.2734375,-35.15625,-1.0,0.0,-1.0,0.0,4.m4v,8.0
2024-02-28 10:27:02.827862,1709112422.8278625,-31.73828125,-34.66796875,-20.01953125,-47.8515625,-1.0,0.0,-1.0,0.0,4.m4v,8.0
2024-02-28 10:27:02.835674,1709112422.8356738,-38.0859375,-38.57421875,-38.0859375,-24.90234375,-1.0,0.0,-1.0,0.0,4.m4v,8.0
2024-02-28 10:27:02.843487,1709112422.8434873,-30.76171875,-22.94921875,-48.33984375,-27.34375,-1.0,0.0,-1.0,0.0,4.m4v,8.0
2024-02-28 10:27:02.851299,1709112422.8512986,-17.578125,-14.16015625,-47.8515625,-34.66796875,-1.0,0.0,-1.0,0.0,4.m4v,8.0
2024-02-28 10:27:02.859110,1709112422.85911,-44.921875,-41.9921875,-26.3671875,-29.78515625,-1.0,0.0,-1.0,0.0,4.m4v,8.0
2024-02-28 10:27:02.866921,1709112422.8669214,-33.203125,-40.52734375,-36.62109375,-48.828125,-1.0,0.0,-1.0,0.0,4.m4v,8.0
2024-02-28 10:27:02.874733,1709112422.8747327,-35.64453125,-45.41015625,-19.04296875,-70.3125,-1.0,0.0,-1.0,0.0,4.m4v,8.0
2024-02-28 10:27:02.882544,1709112422.882544,-22.4609375,-29.296875,-38.0859375,-34.66796875,-1.0,0.0,-1.0,0.0,4.m4v,8.0
2024-02-28 10:27:02.890359,1709112422.890359,-30.2734375,-18.5546875,-32.71484375,-42.96875,-1.0,0.0,-1.0,0.0,4.m4v,8.0
2024-02-28 10:27:02.898170,1709112422.8981705,-24.4140625,-33.69140625,-56.15234375,-21.97265625,-1.0,0.0,-1.0,0.0,4.m4v,8.0
2024-02-28 10:27:02.905982,1709112422.9059818,-22.4609375,-54.19921875,-37.109375,-23.92578125,-1.0,0.0,-1.0,0.0,4.m4v,8.0
2024-02-28 10:27:02.913793,1709112422.913793,-38.57421875,-54.6875,-20.99609375,-29.78515625,-1.0,0.0,-1.0,0.0,4.m4v,8.0
2024-02-28 10:27:02.921605,1709112422.9216046,-22.4609375,-26.3671875,-30.2734375,-7.32421875,-1.0,0.0,-1.0,0.0,4.m4v,8.0
2024-02-28 10:27:02.929416,1709112422.929416,-25.87890625,-11.71875,-54.19921875,-36.1328125,-1.0,0.0,-1.0,0.0,4.m4v,8.0
2024-02-28 10:27:02.937231,1709112422.9372306,-11.71875,-35.64453125,-25.390625,-44.921875,-1.0,0.0,-1.0,0.0,4.m4v,8.0
2024-02-28 10:27:02.945042,1709112422.945042,-54.19921875,-35.15625,-18.5546875,-53.22265625,-1.0,0.0,-1.0,0.0,4.m4v,8.0
2024-02-28 10:27:02.952853,1709112422.9528534,-53.22265625,-38.57421875,-35.64453125,-53.22265625,-1.0,0.0,-1.0,0.0,4.m4v,8.0
2024-02-28 10:27:02.960665,1709112422.960665,-22.94921875,-38.0859375,-20.01953125,-38.0859375,-1.0,0.0,-1.0,0.0,4.m4v,8.0
2024-02-28 10:27:02.968476,1709112422.9684763,-21.97265625,-16.6015625,-41.50390625,-37.59765625,-1.0,0.0,-1.0,0.0,4.m4v,8.0
2024-02-28 10:27:02.976288,1709112422.9762876,-35.15625,-25.390625,-49.8046875,-31.73828125,-1.0,0.0,-1.0,0.0,4.m4v,8.0
2024-02-28 10:27:02.984102,1709112422.9841022,-35.15625,-30.2734375,-26.3671875,-29.296875,-1.0,0.0,-1.0,0.0,4.m4v,8.0
2024-02-28 10:27:02.991914,1709112422.9919136,-28.3203125,-42.96875,-28.3203125,-24.90234375,-1.0,0.0,-1.0,0.0,4.m4v,8.0
2024-02-28 10:27:03.073939,1709112423.0739388,-17.08984375,-30.76171875,-37.109375,-32.71484375,-1.0,0.0,-1.0,0.0,4.m4v,8.0
2024-02-28 10:27:03.077845,1709112423.0778446,-29.78515625,-34.1796875,-29.78515625,-33.203125,-1.0,0.0,-1.0,0.0,4.m4v,8.0
2024-02-28 10:27:03.081750,1709112423.0817504,-14.6484375,-38.57421875,-23.4375,-34.66796875,-1.0,0.0,-1.0,0.0,4.m4v,8.0
2024-02-28 10:27:03.085656,1709112423.085656,-9.27734375,-23.4375,-33.69140625,-25.390625,-1.0,0.0,-1.0,0.0,4.m4v,8.0
2024-02-28 10:27:03.089562,1709112423.0895617,-28.80859375,-34.1796875,-32.2265625,-21.484375,-1.0,0.0,-1.0,0.0,4.m4v,8.0
2024-02-28 10:27:03.093467,1709112423.0934677,-27.34375,-50.78125,-30.2734375,-28.80859375,-1.0,0.0,-1.0,0.0,4.m4v,8.0
2024-02-28 10:27:03.097373,1709112423.097373,-31.25,-22.94921875,-33.203125,-38.0859375,-1.0,0.0,-1.0,0.0,4.m4v,8.0
2024-02-28 10:27:03.101279,1709112423.1012788,-38.57421875,-16.11328125,-37.109375,-34.66796875,-1.0,0.0,-1.0,0.0,4.m4v,8.0
2024-02-28 10:27:03.105185,1709112423.1051846,-38.0859375,-33.203125,-30.76171875,-16.6015625,-1.0,0.0,-1.0,0.0,4.m4v,8.0
2024-02-28 10:27:03.109090,1709112423.1090903,-37.59765625,-33.203125,-21.484375,-41.015625,-1.0,0.0,-1.0,0.0,4.m4v,8.0
2024-02-28 10:27:03.112996,1709112423.112996,-38.57421875,-32.2265625,-33.69140625,-55.17578125,-1.0,0.0,-1.0,0.0,4.m4v,8.0
2024-02-28 10:27:03.116902,1709112423.1169016,-32.2265625,-43.9453125,-41.9921875,-28.80859375,-1.0,0.0,-1.0,0.0,4.m4v,8.0
2024-02-28 10:27:03.120810,1709112423.1208098,-34.66796875,-43.9453125,-39.55078125,-26.85546875,-1.0,0.0,-1.0,0.0,4.m4v,8.0
2024-02-28 10:27:03.124716,1709112423.1247156,-42.96875,-30.76171875,-37.109375,-41.50390625,-1.0,0.0,-1.0,0.0,4.m4v,8.0
2024-02-28 10:27:03.128621,1709112423.128621,-33.69140625,-33.203125,-23.92578125,-27.34375,-1.0,0.0,-1.0,0.0,4.m4v,8.0
2024-02-28 10:27:03.132527,1709112423.1325269,-26.3671875,-54.6875,-25.87890625,-12.20703125,-1.0,0.0,-1.0,0.0,4.m4v,8.0
2024-02-28 10:27:03.136433,1709112423.1364326,-27.83203125,-43.45703125,-36.1328125,-36.62109375,-1.0,0.0,-1.0,0.0,4.m4v,8.0
2024-02-28 10:27:03.140338,1709112423.1403382,-27.34375,-16.6015625,-23.4375,-34.1796875,-1.0,0.0,-1.0,0.0,4.m4v,8.0
2024-02-28 10:27:03.144244,1709112423.144244,-36.1328125,-22.4609375,-25.87890625,-24.4140625,-1.0,0.0,-1.0,0.0,4.m4v,8.0
2024-02-28 10:27:03.148150,1709112423.1481495,-39.0625,-40.52734375,-46.38671875,-46.875,-1.0,0.0,-1.0,0.0,4.m4v,8.0
2024-02-28 10:27:03.152056,1709112423.1520555,-39.0625,-37.109375,-47.8515625,-53.22265625,-1.0,0.0,-1.0,0.0,4.m4v,8.0
2024-02-28 10:27:03.155961,1709112423.155961,-30.2734375,-30.76171875,-44.43359375,-41.9921875,-1.0,0.0,-1.0,0.0,4.m4v,8.0
2024-02-28 10:27:03.159867,1709112423.1598668,-23.92578125,-28.3203125,-42.48046875,-27.83203125,-1.0,0.0,-1.0,0.0,4.m4v,8.0
2024-02-28 10:27:03.163773,1709112423.1637726,-35.64453125,-37.59765625,-66.89453125,-12.6953125,-1.0,0.0,-1.0,0.0,4.m4v,8.0
2024-02-28 10:27:03.167681,1709112423.1676805,-28.3203125,-38.57421875,-72.75390625,-29.78515625,-1.0,0.0,-1.0,0.0,4.m4v,8.0
2024-02-28 10:27:03.171586,1709112423.171586,-47.36328125,-26.3671875,-30.2734375,-58.10546875,-1.0,0.0,-1.0,0.0,4.m4v,8.0
2024-02-28 10:27:03.175492,1709112423.1754918,-63.4765625,-33.69140625,-11.23046875,-51.26953125,-1.0,0.0,-1.0,0.0,4.m4v,8.0
2024-02-28 10:27:03.234080,1709112423.2340796,-36.1328125,4.8828125,-37.109375,-15.625,-1.0,0.0,-1.0,0.0,4.m4v,8.0
2024-02-28 10:27:03.237985,1709112423.2379851,-42.96875,-3.90625,-52.24609375,-44.921875,-1.0,0.0,-1.0,0.0,4.m4v,8.0
2024-02-28 10:27:03.241891,1709112423.241891,-49.8046875,-28.80859375,-48.33984375,-49.8046875,-1.0,0.0,-1.0,0.0,4.m4v,8.0
2024-02-28 10:27:03.245797,1709112423.245797,-46.38671875,-37.109375,-28.80859375,-52.24609375,-1.0,0.0,-1.0,0.0,4.m4v,8.0
2024-02-28 10:27:03.253608,1709112423.253608,-35.64453125,-32.71484375,-37.109375,-40.0390625,-1.0,0.0,-1.0,0.0,4.m4v,8.0
2024-02-28 10:27:03.261424,1709112423.2614238,-23.92578125,-44.921875,-19.04296875,-47.8515625,-1.0,0.0,-1.0,0.0,4.m4v,8.0
2024-02-28 10:27:03.269235,1709112423.2692351,-36.1328125,-45.8984375,-23.4375,-30.76171875,-1.0,0.0,-1.0,0.0,4.m4v,8.0
2024-02-28 10:27:03.277047,1709112423.277047,-17.578125,-25.390625,-43.9453125,-34.1796875,-1.0,0.0,-1.0,0.0,4.m4v,8.0
2024-02-28 10:27:03.284858,1709112423.284858,-32.2265625,-4.39453125,-36.62109375,-36.62109375,-1.0,0.0,-1.0,0.0,4.m4v,8.0
2024-02-28 10:27:03.292669,1709112423.2926693,-23.92578125,-26.3671875,-32.71484375,-31.25,-1.0,0.0,-1.0,0.0,4.m4v,8.0
2024-02-28 10:27:03.300481,1709112423.3004808,-22.4609375,-39.0625,-49.31640625,-14.6484375,-1.0,0.0,-1.0,0.0,4.m4v,8.0
2024-02-28 10:27:03.308295,1709112423.3082955,-43.9453125,-67.3828125,-39.0625,-30.76171875,-1.0,0.0,-1.0,0.0,4.m4v,8.0
2024-02-28 10:27:03.316107,1709112423.3161068,-40.52734375,-17.578125,-21.97265625,-43.45703125,-1.0,0.0,-1.0,0.0,4.m4v,8.0
2024-02-28 10:27:03.323918,1709112423.3239183,-29.78515625,-30.2734375,-27.83203125,-30.2734375,-1.0,0.0,-1.0,0.0,4.m4v,8.0
2024-02-28 10:27:03.331730,1709112423.3317297,-32.2265625,-12.6953125,-43.9453125,-25.390625,-1.0,0.0,-1.0,0.0,4.m4v,8.0
2024-02-28 10:27:03.339541,1709112423.339541,-42.96875,-42.96875,-32.71484375,-72.75390625,-1.0,0.0,-1.0,0.0,4.m4v,8.0
2024-02-28 10:27:03.343447,1709112423.3434467,-44.43359375,-59.08203125,-53.7109375,-65.4296875,-1.0,0.0,-1.0,0.0,4.m4v,8.0
2024-02-28 10:27:03.347353,1709112423.3473525,-31.25,-48.33984375,-62.01171875,-25.390625,-1.0,0.0,-1.0,0.0,4.m4v,8.0
2024-02-28 10:27:03.351258,1709112423.3512585,-28.3203125,-44.43359375,-40.52734375,-13.671875,-1.0,0.0,-1.0,0.0,4.m4v,8.0
2024-02-28 10:27:03.355167,1709112423.355167,-48.828125,-46.875,-35.15625,-37.109375,-1.0,0.0,-1.0,0.0,4.m4v,8.0
2024-02-28 10:27:03.359073,1709112423.3590727,-60.546875,-36.1328125,-38.0859375,-54.6875,-1.0,0.0,-1.0,0.0,4.m4v,8.0
2024-02-28 10:27:03.362978,1709112423.3629782,-51.26953125,-20.99609375,-25.390625,-58.59375,-1.0,0.0,-1.0,0.0,4.m4v,8.0
2024-02-28 10:27:03.366884,1709112423.366884,-39.0625,-28.3203125,-13.18359375,-48.828125,-1.0,0.0,-1.0,0.0,4.m4v,8.0
2024-02-28 10:27:03.374696,1709112423.3746955,-59.5703125,-34.66796875,-57.12890625,-40.0390625,-1.0,0.0,-1.0,0.0,4.m4v,8.0
2024-02-28 10:27:03.382507,1709112423.3825068,-42.96875,-26.85546875,-33.203125,-59.5703125,-1.0,0.0,-1.0,0.0,4.m4v,8.0
2024-02-28 10:27:03.749667,1709112423.7496667,-2.9296875,-41.9921875,-30.2734375,-18.5546875,-1.0,0.0,-1.0,0.0,4.m4v,8.0
2024-02-28 10:27:03.753572,1709112423.7535722,-13.18359375,-24.4140625,-23.4375,-2.44140625,-1.0,0.0,-1.0,0.0,4.m4v,8.0
2024-02-28 10:27:03.765289,1709112423.7652893,-4.39453125,-32.71484375,-28.80859375,1.953125,-1.0,0.0,-1.0,0.0,4.m4v,8.0
2024-02-28 10:27:03.769195,1709112423.769195,-16.11328125,-43.45703125,-34.1796875,-14.6484375,-1.0,0.0,-1.0,0.0,4.m4v,8.0
2024-02-28 10:27:03.773101,1709112423.7731009,-12.20703125,-55.6640625,-26.3671875,-9.765625,-1.0,0.0,-1.0,0.0,4.m4v,8.0
2024-02-28 10:27:03.777009,1709112423.7770092,1.953125,-63.4765625,-41.50390625,-14.6484375,-1.0,0.0,-1.0,0.0,4.m4v,8.0
2024-02-28 10:27:03.780915,1709112423.780915,-2.9296875,-64.94140625,-56.15234375,-0.9765625,-1.0,0.0,-1.0,0.0,4.m4v,8.0
2024-02-28 10:27:03.784821,1709112423.7848208,-11.71875,-47.36328125,-48.33984375,6.34765625,-1.0,0.0,-1.0,0.0,4.m4v,8.0
2024-02-28 10:27:03.788726,1709112423.7887263,2.9296875,-14.16015625,-27.83203125,10.25390625,-1.0,0.0,-1.0,0.0,4.m4v,8.0
2024-02-28 10:27:03.792632,1709112423.792632,-7.8125,-16.11328125,-17.08984375,-16.6015625,-1.0,0.0,-1.0,0.0,4.m4v,8.0
2024-02-28 10:27:03.796538,1709112423.796538,-27.34375,-29.78515625,-24.4140625,-18.06640625,-1.0,0.0,-1.0,0.0,4.m4v,8.0
2024-02-28 10:27:03.800444,1709112423.8004436,-8.7890625,-25.87890625,-25.87890625,-4.8828125,-1.0,0.0,-1.0,0.0,4.m4v,8.0
2024-02-28 10:27:03.804349,1709112423.8043492,-17.578125,-31.25,-23.4375,-18.06640625,-1.0,0.0,-1.0,0.0,4.m4v,8.0
2024-02-28 10:27:03.808255,1709112423.808255,-35.64453125,-51.26953125,-26.85546875,-32.71484375,-1.0,0.0,-1.0,0.0,4.m4v,8.0
2024-02-28 10:27:03.812161,1709112423.8121607,-31.73828125,-49.8046875,-37.59765625,-35.64453125,-1.0,0.0,-1.0,0.0,4.m4v,8.0
2024-02-28 10:27:03.816066,1709112423.8160665,-30.76171875,-35.64453125,-34.66796875,-33.203125,-1.0,0.0,-1.0,0.0,4.m4v,8.0
2024-02-28 10:27:03.819972,1709112423.819972,-19.04296875,-35.64453125,-37.59765625,-22.4609375,-1.0,0.0,-1.0,0.0,4.m4v,8.0
2024-02-28 10:27:03.823880,1709112423.8238804,-28.3203125,-47.8515625,-58.10546875,-23.92578125,-1.0,0.0,-1.0,0.0,4.m4v,8.0
2024-02-28 10:27:03.827786,1709112423.827786,-47.8515625,-31.73828125,-51.26953125,-32.2265625,-1.0,0.0,-1.0,0.0,4.m4v,8.0
2024-02-28 10:27:03.831692,1709112423.8316915,-32.71484375,-2.9296875,-37.59765625,-32.71484375,-1.0,0.0,-1.0,0.0,4.m4v,8.0
2024-02-28 10:27:03.835598,1709112423.8355975,-26.3671875,-3.90625,-26.85546875,-34.1796875,-1.0,0.0,-1.0,0.0,4.m4v,8.0
2024-02-28 10:27:03.839503,1709112423.8395033,-25.87890625,-24.4140625,-20.99609375,-41.9921875,-1.0,0.0,-1.0,0.0,4.m4v,8.0
2024-02-28 10:27:03.843409,1709112423.8434088,-23.4375,-39.55078125,-27.83203125,-24.90234375,-1.0,0.0,-1.0,0.0,4.m4v,8.0
2024-02-28 10:27:03.847315,1709112423.8473146,-39.0625,-46.38671875,-31.25,-13.18359375,-1.0,0.0,-1.0,0.0,4.m4v,8.0
2024-02-28 10:27:03.851220,1709112423.8512204,-43.45703125,-46.38671875,-30.2734375,-43.9453125,-1.0,0.0,-1.0,0.0,4.m4v,8.0
2024-02-28 10:27:03.855126,1709112423.855126,-37.109375,-39.55078125,-19.04296875,-56.15234375,-1.0,0.0,-1.0,0.0,4.m4v,8.0
2024-02-28 10:27:03.859032,1709112423.8590317,-46.875,-41.9921875,-23.4375,-37.109375,-1.0,0.0,-1.0,0.0,4.m4v,8.0
2024-02-28 10:27:03.862937,1709112423.8629377,-51.26953125,-42.96875,-42.96875,-47.36328125,-1.0,0.0,-1.0,0.0,4.m4v,8.0
2024-02-28 10:27:03.866843,1709112423.866843,-58.59375,-42.48046875,-43.45703125,-57.6171875,-1.0,0.0,-1.0,0.0,4.m4v,8.0
2024-02-28 10:27:03.870751,1709112423.8707514,-50.29296875,-43.9453125,-44.43359375,-32.2265625,-1.0,0.0,-1.0,0.0,4.m4v,8.0
2024-02-28 10:27:03.874657,1709112423.8746572,-46.38671875,-41.50390625,-58.10546875,-46.875,-1.0,0.0,-1.0,0.0,4.m4v,8.0
2024-02-28 10:27:03.878563,1709112423.878563,-62.01171875,-38.57421875,-54.19921875,-53.22265625,-1.0,0.0,-1.0,0.0,4.m4v,8.0
2024-02-28 10:27:03.882468,1709112423.8824685,-75.1953125,-40.52734375,-37.59765625,-48.828125,-1.0,0.0,-1.0,0.0,4.m4v,8.0
2024-02-28 10:27:03.886374,1709112423.8863742,-69.3359375,-42.96875,-47.8515625,-63.4765625,-1.0,0.0,-1.0,0.0,4.m4v,8.0
2024-02-28 10:27:03.890280,1709112423.89028,-56.15234375,-22.94921875,-47.8515625,-62.98828125,-1.0,0.0,-1.0,0.0,4.m4v,8.0
2024-02-28 10:27:03.894186,1709112423.8941855,-58.59375,-18.06640625,-32.71484375,-65.4296875,-1.0,0.0,-1.0,0.0,4.m4v,8.0
2024-02-28 10:27:03.898091,1709112423.8980913,-53.7109375,-32.71484375,-28.3203125,-66.40625,-1.0,0.0,-1.0,0.0,4.m4v,8.0
2024-02-28 10:27:03.901997,1709112423.901997,-52.734375,-29.78515625,-30.2734375,-65.91796875,-1.0,0.0,-1.0,0.0,4.m4v,8.0
2024-02-28 10:27:03.905903,1709112423.9059026,-55.17578125,-34.66796875,-32.2265625,-65.4296875,-1.0,0.0,-1.0,0.0,4.m4v,8.0
2024-02-28 10:27:03.909808,1709112423.9098084,-54.6875,-42.48046875,-31.25,-62.01171875,-1.0,0.0,-1.0,0.0,4.m4v,8.0
2024-02-28 10:27:03.913714,1709112423.9137142,-67.3828125,-44.921875,-54.6875,-72.265625,-1.0,0.0,-1.0,0.0,4.m4v,8.0
2024-02-28 10:27:03.917622,1709112423.917622,-74.21875,-45.41015625,-68.84765625,-76.66015625,-1.0,0.0,-1.0,0.0,4.m4v,8.0
2024-02-28 10:27:03.921528,1709112423.921528,-73.73046875,-53.22265625,-61.5234375,-62.01171875,-1.0,0.0,-1.0,0.0,4.m4v,8.0
2024-02-28 10:27:03.925433,1709112423.9254334,-58.59375,-41.50390625,-39.55078125,-65.91796875,-1.0,0.0,-1.0,0.0,4.m4v,8.0
2024-02-28 10:27:03.929339,1709112423.9293392,-46.38671875,-20.5078125,-11.23046875,-72.265625,-1.0,0.0,-1.0,0.0,4.m4v,8.0
2024-02-28 10:27:03.933245,1709112423.933245,-69.3359375,-20.5078125,-19.53125,-76.66015625,-1.0,0.0,-1.0,0.0,4.m4v,8.0
2024-02-28 10:27:03.937150,1709112423.9371505,-72.75390625,-32.71484375,-31.25,-71.77734375,-1.0,0.0,-1.0,0.0,4.m4v,8.0
2024-02-28 10:27:03.941056,1709112423.9410565,-74.70703125,-47.8515625,-39.55078125,-58.59375,-1.0,0.0,-1.0,0.0,4.m4v,8.0
2024-02-28 10:27:03.944962,1709112423.944962,-74.21875,-34.1796875,-49.8046875,-70.3125,-1.0,0.0,-1.0,0.0,4.m4v,8.0
2024-02-28 10:27:03.948868,1709112423.9488676,-68.84765625,-10.7421875,-31.25,-89.84375,-1.0,0.0,-1.0,0.0,4.m4v,8.0
2024-02-28 10:27:03.952773,1709112423.952773,-77.1484375,-8.7890625,-19.04296875,-81.0546875,-1.0,0.0,-1.0,0.0,4.m4v,8.0
2024-02-28 10:27:03.956679,1709112423.956679,-71.77734375,-21.97265625,-27.34375,-69.82421875,-1.0,0.0,-1.0,0.0,4.m4v,8.0
2024-02-28 10:27:03.960585,1709112423.9605849,-71.77734375,-30.76171875,-45.8984375,-86.9140625,-1.0,0.0,-1.0,0.0,4.m4v,8.0
2024-02-28 10:27:03.964493,1709112423.9644926,-76.66015625,-29.296875,-46.875,-79.1015625,-1.0,0.0,-1.0,0.0,4.m4v,8.0
2024-02-28 10:27:03.968398,1709112423.968398,-74.70703125,-33.203125,-27.83203125,-60.546875,-1.0,0.0,-1.0,0.0,4.m4v,8.0
2024-02-28 10:27:03.972304,1709112423.972304,-86.42578125,-43.45703125,-36.62109375,-77.1484375,-1.0,0.0,-1.0,0.0,4.m4v,8.0
2024-02-28 10:27:03.976210,1709112423.9762096,-91.796875,-44.921875,-51.7578125,-104.00390625,-1.0,0.0,-1.0,0.0,4.m4v,8.0
2024-02-28 10:27:03.980115,1709112423.9801154,-100.09765625,-48.828125,-35.15625,-101.5625,-1.0,0.0,-1.0,0.0,4.m4v,8.0
2024-02-28 10:27:03.984021,1709112423.984021,-114.74609375,-48.33984375,-39.0625,-121.09375,-1.0,0.0,-1.0,0.0,4.m4v,8.0
2024-02-28 10:27:03.987927,1709112423.9879267,-124.51171875,-37.109375,-54.19921875,-125.0,-1.0,0.0,-1.0,0.0,4.m4v,8.0
2024-02-28 10:27:03.991832,1709112423.9918325,-129.8828125,-29.296875,-39.0625,-111.81640625,-1.0,0.0,-1.0,0.0,4.m4v,8.0
2024-02-28 10:27:03.995738,1709112423.995738,-115.234375,-34.66796875,-23.4375,-120.1171875,-1.0,0.0,-1.0,0.0,4.m4v,8.0
2024-02-28 10:27:03.999644,1709112423.9996438,-106.93359375,-41.015625,-26.85546875,-103.515625,-1.0,0.0,-1.0,0.0,4.m4v,8.0
2024-02-28 10:27:04.003550,1709112424.0035496,-102.5390625,-37.109375,-37.109375,-101.07421875,-1.0,0.0,-1.0,0.0,4.m4v,8.0
2024-02-28 10:27:04.007455,1709112424.007455,-101.5625,-35.64453125,-41.50390625,-123.53515625,-1.0,0.0,-1.0,0.0,4.m4v,8.0
2024-02-28 10:27:04.011364,1709112424.0113645,-101.07421875,-41.015625,-38.0859375,-104.4921875,-1.0,0.0,-1.0,0.0,4.m4v,8.0
2024-02-28 10:27:04.015270,1709112424.0152702,-88.37890625,-40.0390625,-39.55078125,-67.3828125,-1.0,0.0,-1.0,0.0,4.m4v,8.0
2024-02-28 10:27:04.019176,1709112424.0191758,-71.2890625,-31.73828125,-44.43359375,-80.078125,-1.0,0.0,-1.0,0.0,4.m4v,8.0
2024-02-28 10:27:04.023082,1709112424.0230815,-46.38671875,-41.50390625,-28.80859375,-91.796875,-1.0,0.0,-1.0,0.0,4.m4v,8.0
2024-02-28 10:27:04.026987,1709112424.0269873,-39.0625,-71.77734375,-24.4140625,-67.87109375,-1.0,0.0,-1.0,0.0,4.m4v,8.0
2024-02-28 10:27:04.030893,1709112424.030893,-46.875,-60.05859375,-32.2265625,-51.26953125,-1.0,0.0,-1.0,0.0,4.m4v,8.0
2024-02-28 10:27:04.034799,1709112424.0347986,-38.57421875,-26.85546875,-33.203125,-30.76171875,-1.0,0.0,-1.0,0.0,4.m4v,8.0
2024-02-28 10:27:04.038704,1709112424.0387044,-36.1328125,-15.625,-34.1796875,-39.0625,-1.0,0.0,-1.0,0.0,4.m4v,8.0
2024-02-28 10:27:04.042610,1709112424.0426102,-34.1796875,-10.7421875,-37.59765625,-41.50390625,-1.0,0.0,-1.0,0.0,4.m4v,8.0
2024-02-28 10:27:04.046516,1709112424.0465157,-11.23046875,-19.04296875,-37.59765625,-19.04296875,-1.0,0.0,-1.0,0.0,4.m4v,8.0
2024-02-28 10:27:04.050421,1709112424.0504217,-12.6953125,-26.3671875,-35.15625,-4.39453125,-1.0,0.0,-1.0,0.0,4.m4v,8.0
2024-02-28 10:27:04.054327,1709112424.0543272,-32.71484375,-29.296875,-49.31640625,-7.32421875,-1.0,0.0,-1.0,0.0,4.m4v,8.0
2024-02-28 10:27:04.058236,1709112424.058236,-27.34375,-32.2265625,-53.7109375,-22.4609375,-1.0,0.0,-1.0,0.0,4.m4v,8.0
2024-02-28 10:27:04.062142,1709112424.062142,-29.78515625,-34.66796875,-27.34375,-18.5546875,-1.0,0.0,-1.0,0.0,4.m4v,8.0
2024-02-28 10:27:04.066048,1709112424.0660477,-38.0859375,-41.9921875,-10.25390625,-12.6953125,-1.0,0.0,-1.0,0.0,4.m4v,8.0
2024-02-28 10:27:04.069953,1709112424.0699532,-35.15625,-41.50390625,-24.4140625,-39.0625,-1.0,0.0,-1.0,0.0,4.m4v,8.0
2024-02-28 10:27:04.073859,1709112424.073859,-21.97265625,-29.78515625,-29.78515625,-28.80859375,-1.0,0.0,-1.0,0.0,4.m4v,8.0
2024-02-28 10:27:04.077765,1709112424.0777647,-21.484375,-32.71484375,-16.6015625,-21.484375,-1.0,0.0,-1.0,0.0,4.m4v,8.0
2024-02-28 10:27:04.081670,1709112424.0816703,-19.04296875,-54.6875,-23.92578125,-23.92578125,-1.0,0.0,-1.0,0.0,4.m4v,8.0
2024-02-28 10:27:04.085576,1709112424.085576,-22.94921875,-54.19921875,-37.109375,-23.92578125,-1.0,0.0,-1.0,0.0,4.m4v,8.0
2024-02-28 10:27:04.089482,1709112424.0894818,-47.36328125,-41.9921875,-36.62109375,-33.203125,-1.0,0.0,-1.0,0.0,4.m4v,8.0
2024-02-28 10:27:04.093387,1709112424.0933874,-33.203125,-39.0625,-43.9453125,-16.11328125,-1.0,0.0,-1.0,0.0,4.m4v,8.0
2024-02-28 10:27:04.097293,1709112424.0972931,-29.296875,-27.83203125,-53.7109375,-2.44140625,-1.0,0.0,-1.0,0.0,4.m4v,8.0
2024-02-28 10:27:04.101199,1709112424.101199,-30.2734375,-31.73828125,-39.0625,-17.08984375,-1.0,0.0,-1.0,0.0,4.m4v,8.0
2024-02-28 10:27:04.105108,1709112424.1051078,-26.3671875,-47.36328125,-30.76171875,-19.53125,-1.0,0.0,-1.0,0.0,4.m4v,8.0
2024-02-28 10:27:04.109014,1709112424.1090136,-38.57421875,-40.0390625,-33.69140625,-5.859375,-1.0,0.0,-1.0,0.0,4.m4v,8.0
2024-02-28 10:27:04.112919,1709112424.112919,-25.87890625,-31.73828125,-28.3203125,-20.5078125,-1.0,0.0,-1.0,0.0,4.m4v,8.0
2024-02-28 10:27:04.116825,1709112424.1168249,-20.99609375,-18.5546875,-31.73828125,-28.3203125,-1.0,0.0,-1.0,0.0,4.m4v,8.0
2024-02-28 10:27:04.120731,1709112424.1207306,-30.2734375,-19.53125,-37.109375,-27.34375,-1.0,0.0,-1.0,0.0,4.m4v,8.0
2024-02-28 10:27:04.124636,1709112424.1246364,-29.78515625,-28.80859375,-18.06640625,-28.80859375,-1.0,0.0,-1.0,0.0,4.m4v,8.0
2024-02-28 10:27:04.128542,1709112424.128542,-25.390625,-34.66796875,-20.5078125,-24.90234375,-1.0,0.0,-1.0,0.0,4.m4v,8.0
2024-02-28 10:27:04.132448,1709112424.1324475,-29.296875,-47.36328125,-31.25,-10.25390625,-1.0,0.0,-1.0,0.0,4.m4v,8.0
2024-02-28 10:27:04.136353,1709112424.1363535,-34.66796875,-43.9453125,-36.1328125,-0.48828125,-1.0,0.0,-1.0,0.0,4.m4v,8.0
2024-02-28 10:27:04.140259,1709112424.140259,-22.94921875,-34.66796875,-53.7109375,-24.4140625,-1.0,0.0,-1.0,0.0,4.m4v,8.0
2024-02-28 10:27:04.144165,1709112424.1441648,-16.11328125,-33.69140625,-55.17578125,-38.0859375,-1.0,0.0,-1.0,0.0,4.m4v,8.0
2024-02-28 10:27:04.148071,1709112424.1480706,-27.34375,-25.87890625,-39.55078125,-23.92578125,-1.0,0.0,-1.0,0.0,4.m4v,8.0
2024-02-28 10:27:04.151979,1709112424.151979,-31.73828125,-17.578125,-26.3671875,-27.83203125,-1.0,0.0,-1.0,0.0,4.m4v,8.0
2024-02-28 10:27:04.155885,1709112424.1558845,-32.2265625,-21.484375,-33.69140625,-23.92578125,-1.0,0.0,-1.0,0.0,4.m4v,8.0
2024-02-28 10:27:04.159790,1709112424.1597905,-30.76171875,-28.3203125,-41.50390625,-39.0625,-1.0,0.0,-1.0,0.0,4.m4v,8.0
2024-02-28 10:27:04.163696,1709112424.163696,-30.76171875,-36.1328125,-36.1328125,-40.52734375,-1.0,0.0,-1.0,0.0,4.m4v,8.0
2024-02-28 10:27:04.167602,1709112424.1676018,-23.92578125,-46.875,-40.0390625,-15.625,-1.0,0.0,-1.0,0.0,4.m4v,8.0
2024-02-28 10:27:04.171507,1709112424.1715074,-13.18359375,-54.6875,-53.22265625,-5.37109375,-1.0,0.0,-1.0,0.0,4.m4v,8.0
2024-02-28 10:27:04.175413,1709112424.1754131,-10.25390625,-42.48046875,-51.26953125,-13.671875,-1.0,0.0,-1.0,0.0,4.m4v,8.0
2024-02-28 10:27:04.179319,1709112424.179319,-18.06640625,-32.2265625,-26.85546875,-26.3671875,-1.0,0.0,-1.0,0.0,4.m4v,8.0
2024-02-28 10:27:04.183224,1709112424.1832244,-27.34375,-35.64453125,-12.6953125,-35.64453125,-1.0,0.0,-1.0,0.0,4.m4v,8.0
2024-02-28 10:27:04.187130,1709112424.1871302,-37.59765625,-35.15625,-20.5078125,-47.36328125,-1.0,0.0,-1.0,0.0,4.m4v,8.0
2024-02-28 10:27:04.191036,1709112424.191036,-34.66796875,-27.34375,-31.25,-44.921875,-1.0,0.0,-1.0,0.0,4.m4v,8.0
2024-02-28 10:27:04.194942,1709112424.1949415,-10.25390625,-25.87890625,-32.2265625,-33.69140625,-1.0,0.0,-1.0,0.0,4.m4v,8.0
2024-02-28 10:27:04.198850,1709112424.19885,-14.6484375,-40.0390625,-29.296875,-34.1796875,-1.0,0.0,-1.0,0.0,4.m4v,8.0
2024-02-28 10:27:04.202756,1709112424.2027557,-49.8046875,-38.0859375,-30.2734375,-30.2734375,-1.0,0.0,-1.0,0.0,4.m4v,8.0
2024-02-28 10:27:04.206661,1709112424.2066617,-46.875,-24.4140625,-38.0859375,-27.34375,-1.0,0.0,-1.0,0.0,4.m4v,8.0
2024-02-28 10:27:04.210567,1709112424.210567,-36.62109375,-23.4375,-47.8515625,-28.80859375,-1.0,0.0,-1.0,0.0,4.m4v,8.0
2024-02-28 10:27:04.214473,1709112424.2144728,-41.50390625,-33.69140625,-65.4296875,-16.6015625,-1.0,0.0,-1.0,0.0,4.m4v,8.0
2024-02-28 10:27:04.218379,1709112424.2183783,-36.1328125,-33.69140625,-55.6640625,-30.76171875,-1.0,0.0,-1.0,0.0,4.m4v,8.0
2024-02-28 10:27:04.222284,1709112424.222284,-44.921875,-38.57421875,-20.01953125,-37.59765625,-1.0,0.0,-1.0,0.0,4.m4v,8.0
2024-02-28 10:27:04.226190,1709112424.22619,-38.57421875,-44.921875,-13.18359375,-22.4609375,-1.0,0.0,-1.0,0.0,4.m4v,8.0
2024-02-28 10:27:04.230096,1709112424.2300956,-19.53125,-44.921875,-16.6015625,-25.87890625,-1.0,0.0,-1.0,0.0,4.m4v,8.0
2024-02-28 10:27:04.234001,1709112424.2340012,-31.25,-46.38671875,-27.34375,-15.625,-1.0,0.0,-1.0,0.0,4.m4v,8.0
2024-02-28 10:27:04.237907,1709112424.237907,-24.90234375,-36.62109375,-19.53125,-7.8125,-1.0,0.0,-1.0,0.0,4.m4v,8.0
2024-02-28 10:27:04.241813,1709112424.2418127,-17.08984375,-31.25,-20.99609375,-18.06640625,-1.0,0.0,-1.0,0.0,4.m4v,8.0
2024-02-28 10:27:04.245721,1709112424.2457209,-23.92578125,-34.66796875,-37.109375,-25.87890625,-1.0,0.0,-1.0,0.0,4.m4v,8.0
2024-02-28 10:27:04.249626,1709112424.2496264,-24.4140625,-32.2265625,-46.38671875,-23.92578125,-1.0,0.0,-1.0,0.0,4.m4v,8.0
2024-02-28 10:27:04.253532,1709112424.2535322,-29.78515625,-33.203125,-51.7578125,-33.203125,-1.0,0.0,-1.0,0.0,4.m4v,8.0
2024-02-28 10:27:04.257438,1709112424.257438,-24.90234375,-39.0625,-34.1796875,-29.296875,-1.0,0.0,-1.0,0.0,4.m4v,8.0
2024-02-28 10:27:04.261343,1709112424.2613437,-20.5078125,-31.73828125,-26.85546875,-24.90234375,-1.0,0.0,-1.0,0.0,4.m4v,8.0
2024-02-28 10:27:04.265249,1709112424.2652493,-36.1328125,-22.4609375,-21.97265625,-33.69140625,-1.0,0.0,-1.0,0.0,4.m4v,8.0
2024-02-28 10:27:04.269155,1709112424.269155,-30.2734375,-26.85546875,-2.44140625,-21.97265625,-1.0,0.0,-1.0,0.0,4.m4v,8.0
2024-02-28 10:27:04.273061,1709112424.2730606,-12.6953125,-47.8515625,-2.9296875,-16.11328125,-1.0,0.0,-1.0,0.0,4.m4v,8.0
2024-02-28 10:27:04.276966,1709112424.2769663,-20.99609375,-47.36328125,-18.5546875,-23.4375,-1.0,0.0,-1.0,0.0,4.m4v,8.0
2024-02-28 10:27:04.280872,1709112424.280872,-25.87890625,-40.52734375,-24.4140625,-12.6953125,-1.0,0.0,-1.0,0.0,4.m4v,8.0
2024-02-28 10:27:04.284778,1709112424.284778,-30.76171875,-51.26953125,-27.34375,-14.16015625,-1.0,0.0,-1.0,0.0,4.m4v,8.0
2024-02-28 10:27:04.288683,1709112424.2886834,-26.85546875,-37.109375,-39.55078125,-23.92578125,-1.0,0.0,-1.0,0.0,4.m4v,8.0
2024-02-28 10:27:04.292592,1709112424.292592,-13.671875,-21.484375,-60.546875,-7.32421875,-1.0,0.0,-1.0,0.0,4.m4v,8.0
2024-02-28 10:27:04.296498,1709112424.2964976,-16.11328125,-37.59765625,-54.6875,3.41796875,-1.0,0.0,-1.0,0.0,4.m4v,8.0
2024-02-28 10:27:04.300403,1709112424.3004034,-6.34765625,-43.9453125,-28.80859375,-13.18359375,-1.0,0.0,-1.0,0.0,4.m4v,8.0
2024-02-28 10:27:04.304309,1709112424.3043091,-6.34765625,-23.92578125,-34.66796875,-15.13671875,-1.0,0.0,-1.0,0.0,4.m4v,8.0
2024-02-28 10:27:04.308215,1709112424.308215,-25.87890625,-8.7890625,-40.0390625,1.953125,-1.0,0.0,-1.0,0.0,4.m4v,8.0
2024-02-28 10:27:04.312120,1709112424.3121204,-25.390625,-18.06640625,-23.92578125,-11.71875,-1.0,0.0,-1.0,0.0,4.m4v,8.0
2024-02-28 10:27:04.316026,1709112424.3160262,-17.578125,-33.203125,-9.27734375,-9.765625,-1.0,0.0,-1.0,0.0,4.m4v,8.0
2024-02-28 10:27:04.319932,1709112424.3199315,-23.92578125,-44.43359375,-11.71875,-3.90625,-1.0,0.0,-1.0,0.0,4.m4v,8.0
2024-02-28 10:27:04.319932,1709112424.3199315,-23.92578125,-44.43359375,-11.71875,-3.90625,-1.0,0.0,-1.0,0.0,4.m4v,8.0
2024-02-28 10:27:04.323838,1709112424.3238375,-23.4375,-39.55078125,-21.97265625,-10.25390625,-1.0,0.0,-1.0,0.0,4.m4v,8.0
2024-02-28 10:27:04.323838,1709112424.3238375,-23.4375,-39.55078125,-21.97265625,-10.25390625,-1.0,0.0,-1.0,0.0,4.m4v,8.0
2024-02-28 10:27:04.327743,1709112424.3277433,-13.18359375,-25.390625,-38.57421875,-15.625,-1.0,0.0,-1.0,0.0,4.m4v,8.0
2024-02-28 10:27:04.327743,1709112424.3277433,-13.18359375,-25.390625,-38.57421875,-15.625,-1.0,0.0,-1.0,0.0,4.m4v,8.0
2024-02-28 10:27:04.331649,1709112424.331649,-12.6953125,-37.109375,-59.08203125,-20.5078125,-1.0,0.0,-1.0,0.0,4.m4v,8.0
2024-02-28 10:27:04.331649,1709112424.331649,-12.6953125,-37.109375,-59.08203125,-20.5078125,-1.0,0.0,-1.0,0.0,4.m4v,8.0
2024-02-28 10:27:04.335555,1709112424.3355546,-9.27734375,-47.36328125,-49.8046875,-17.08984375,-1.0,0.0,-1.0,0.0,4.m4v,8.0
2024-02-28 10:27:04.335555,1709112424.3355546,-9.27734375,-47.36328125,-49.8046875,-17.08984375,-1.0,0.0,-1.0,0.0,4.m4v,8.0
2024-02-28 10:27:04.542572,1709112424.5425715,-83.984375,-35.15625,-18.06640625,-82.51953125,-1.0,0.0,-1.0,0.0,4.m4v,8.0
2024-02-28 10:27:04.554289,1709112424.5542886,-74.70703125,-29.78515625,-14.16015625,-69.3359375,-1.0,0.0,-1.0,0.0,4.m4v,8.0
2024-02-28 10:27:04.558194,1709112424.5581944,-82.51953125,-31.25,-31.73828125,-77.1484375,-1.0,0.0,-1.0,0.0,4.m4v,8.0
2024-02-28 10:27:04.562100,1709112424.5621002,-91.30859375,-34.1796875,-52.24609375,-87.40234375,-1.0,0.0,-1.0,0.0,4.m4v,8.0
2024-02-28 10:27:04.566006,1709112424.5660057,-88.8671875,-33.69140625,-64.94140625,-86.42578125,-1.0,0.0,-1.0,0.0,4.m4v,8.0
2024-02-28 10:27:04.569911,1709112424.5699117,-82.03125,-31.73828125,-41.9921875,-79.1015625,-1.0,0.0,-1.0,0.0,4.m4v,8.0
2024-02-28 10:27:04.573820,1709112424.57382,-67.3828125,-36.62109375,-13.671875,-71.2890625,-1.0,0.0,-1.0,0.0,4.m4v,8.0
2024-02-28 10:27:04.577726,1709112424.5777256,-74.70703125,-43.9453125,-22.94921875,-79.58984375,-1.0,0.0,-1.0,0.0,4.m4v,8.0
2024-02-28 10:27:04.581631,1709112424.5816312,-86.9140625,-39.55078125,-26.3671875,-73.2421875,-1.0,0.0,-1.0,0.0,4.m4v,8.0
2024-02-28 10:27:04.585537,1709112424.585537,-71.77734375,-37.59765625,-26.3671875,-60.546875,-1.0,0.0,-1.0,0.0,4.m4v,8.0
2024-02-28 10:27:04.589443,1709112424.5894427,-52.24609375,-46.875,-19.53125,-55.6640625,-1.0,0.0,-1.0,0.0,4.m4v,8.0
2024-02-28 10:27:04.593348,1709112424.5933485,-42.96875,-39.0625,-20.99609375,-33.203125,-1.0,0.0,-1.0,0.0,4.m4v,8.0
2024-02-28 10:27:04.597254,1709112424.597254,-33.69140625,-17.578125,-31.73828125,-35.64453125,-1.0,0.0,-1.0,0.0,4.m4v,8.0
2024-02-28 10:27:04.601160,1709112424.6011598,-32.2265625,-2.44140625,-28.80859375,-44.43359375,-1.0,0.0,-1.0,0.0,4.m4v,8.0
2024-02-28 10:27:04.605065,1709112424.605065,-32.2265625,-18.5546875,-30.2734375,-47.8515625,-1.0,0.0,-1.0,0.0,4.m4v,8.0
2024-02-28 10:27:04.608971,1709112424.608971,-36.1328125,-56.640625,-31.25,-58.59375,-1.0,0.0,-1.0,0.0,4.m4v,8.0
2024-02-28 10:27:04.612877,1709112424.612877,-42.96875,-66.40625,-30.76171875,-63.96484375,-1.0,0.0,-1.0,0.0,4.m4v,8.0
2024-02-28 10:27:04.616782,1709112424.6167824,-36.1328125,-38.0859375,-37.109375,-58.10546875,-1.0,0.0,-1.0,0.0,4.m4v,8.0
2024-02-28 10:27:04.620691,1709112424.6206908,-24.90234375,-11.71875,-34.1796875,-41.015625,-1.0,0.0,-1.0,0.0,4.m4v,8.0
2024-02-28 10:27:04.628502,1709112424.628502,-17.578125,-25.87890625,-23.92578125,-16.11328125,-1.0,0.0,-1.0,0.0,4.m4v,8.0
2024-02-28 10:27:04.632408,1709112424.632408,-18.06640625,-34.66796875,-28.3203125,-12.20703125,-1.0,0.0,-1.0,0.0,4.m4v,8.0
2024-02-28 10:27:04.636314,1709112424.6363137,-24.90234375,-26.3671875,-47.36328125,-22.94921875,-1.0,0.0,-1.0,0.0,4.m4v,8.0
2024-02-28 10:27:04.640219,1709112424.6402192,-20.01953125,-20.5078125,-50.29296875,-11.71875,-1.0,0.0,-1.0,0.0,4.m4v,8.0
2024-02-28 10:27:04.644125,1709112424.644125,-20.01953125,-36.1328125,-25.390625,-8.7890625,-1.0,0.0,-1.0,0.0,4.m4v,8.0
2024-02-28 10:27:04.651936,1709112424.6519363,-47.8515625,-34.66796875,-22.94921875,-49.8046875,-1.0,0.0,-1.0,0.0,4.m4v,8.0
2024-02-28 10:27:04.655842,1709112424.655842,-45.41015625,-26.3671875,-28.3203125,-43.45703125,-1.0,0.0,-1.0,0.0,4.m4v,8.0
2024-02-28 10:27:04.659748,1709112424.6597478,-28.80859375,-31.73828125,-39.55078125,-42.96875,-1.0,0.0,-1.0,0.0,4.m4v,8.0
2024-02-28 10:27:04.663653,1709112424.6636534,-33.203125,-34.1796875,-37.59765625,-29.296875,-1.0,0.0,-1.0,0.0,4.m4v,8.0
2024-02-28 10:27:04.667562,1709112424.6675615,-22.4609375,-30.2734375,-27.34375,-20.5078125,-1.0,0.0,-1.0,0.0,4.m4v,8.0
2024-02-28 10:27:04.675373,1709112424.6753728,-18.06640625,-30.76171875,-39.55078125,-16.11328125,-1.0,0.0,-1.0,0.0,4.m4v,8.0
2024-02-28 10:27:04.679279,1709112424.6792786,-21.97265625,-29.78515625,-39.55078125,-7.8125,-1.0,0.0,-1.0,0.0,4.m4v,8.0
2024-02-28 10:27:04.683184,1709112424.6831844,-25.390625,-41.9921875,-49.8046875,-11.71875,-1.0,0.0,-1.0,0.0,4.m4v,8.0
2024-02-28 10:27:04.687090,1709112424.68709,-28.3203125,-38.57421875,-45.41015625,-20.01953125,-1.0,0.0,-1.0,0.0,4.m4v,8.0
2024-02-28 10:27:04.690996,1709112424.6909957,-34.1796875,-44.43359375,-18.06640625,-28.80859375,-1.0,0.0,-1.0,0.0,4.m4v,8.0
2024-02-28 10:27:04.698807,1709112424.698807,-37.109375,-37.109375,-38.0859375,-36.62109375,-1.0,0.0,-1.0,0.0,4.m4v,8.0
2024-02-28 10:27:04.702713,1709112424.7027128,-28.80859375,-21.484375,-50.78125,-41.015625,-1.0,0.0,-1.0,0.0,4.m4v,8.0
2024-02-28 10:27:04.706619,1709112424.7066183,-29.296875,-28.80859375,-34.1796875,-30.76171875,-1.0,0.0,-1.0,0.0,4.m4v,8.0
2024-02-28 10:27:04.710524,1709112424.710524,-32.2265625,-39.0625,-35.64453125,-52.24609375,-1.0,0.0,-1.0,0.0,4.m4v,8.0
2024-02-28 10:27:04.718338,1709112424.7183378,-28.80859375,-36.62109375,-29.78515625,-23.92578125,-1.0,0.0,-1.0,0.0,4.m4v,8.0
2024-02-28 10:27:04.722244,1709112424.7222435,-13.671875,-28.3203125,-20.01953125,-13.18359375,-1.0,0.0,-1.0,0.0,4.m4v,8.0
2024-02-28 10:27:04.726149,1709112424.726149,-5.37109375,-27.34375,-6.34765625,7.8125,-1.0,0.0,-1.0,0.0,4.m4v,8.0
2024-02-28 10:27:04.733961,1709112424.7339606,-34.66796875,-50.29296875,-23.4375,-22.94921875,-1.0,0.0,-1.0,0.0,4.m4v,8.0
2024-02-28 10:27:04.995661,1709112424.9956608,-10.7421875,-36.62109375,-27.83203125,-6.34765625,-1.0,0.0,-1.0,0.0,4.m4v,8.0
2024-02-28 10:27:04.999566,1709112424.9995663,-19.04296875,-39.55078125,-39.0625,-21.484375,-1.0,0.0,-1.0,0.0,4.m4v,8.0
2024-02-28 10:27:05.003472,1709112425.003472,-39.55078125,-39.55078125,-41.015625,-33.203125,-1.0,0.0,-1.0,0.0,4.m4v,8.0
2024-02-28 10:27:05.007378,1709112425.007378,-40.0390625,-30.76171875,-32.2265625,-31.73828125,-1.0,0.0,-1.0,0.0,4.m4v,8.0
2024-02-28 10:27:05.011283,1709112425.0112834,-23.92578125,-26.85546875,-51.7578125,-19.04296875,-1.0,0.0,-1.0,0.0,4.m4v,8.0
2024-02-28 10:27:05.015189,1709112425.0151892,-26.3671875,-26.85546875,-56.15234375,-18.06640625,-1.0,0.0,-1.0,0.0,4.m4v,8.0
2024-02-28 10:27:05.300322,1709112425.300322,-67.3828125,-39.0625,-45.41015625,-78.125,-1.0,0.0,-1.0,0.0,4.m4v,8.0
2024-02-28 10:27:05.304228,1709112425.3042278,-77.1484375,-40.0390625,-46.38671875,-87.40234375,-1.0,0.0,-1.0,0.0,4.m4v,8.0
2024-02-28 10:27:05.308134,1709112425.3081336,-104.00390625,-55.17578125,-32.2265625,-80.56640625,-1.0,0.0,-1.0,0.0,4.m4v,8.0
2024-02-28 10:27:05.312039,1709112425.3120391,-97.65625,-58.59375,-35.64453125,-88.37890625,-1.0,0.0,-1.0,0.0,4.m4v,8.0
2024-02-28 10:27:05.315945,1709112425.315945,-86.9140625,-43.45703125,-43.45703125,-93.75,-1.0,0.0,-1.0,0.0,4.m4v,8.0
2024-02-28 10:27:05.319851,1709112425.3198507,-100.5859375,-29.296875,-29.78515625,-89.35546875,-1.0,0.0,-1.0,0.0,4.m4v,8.0
2024-02-28 10:27:05.323759,1709112425.3237588,-104.98046875,-25.390625,-20.99609375,-100.09765625,-1.0,0.0,-1.0,0.0,4.m4v,8.0
2024-02-28 10:27:05.327665,1709112425.3276646,-100.5859375,-32.71484375,-33.69140625,-103.515625,-1.0,0.0,-1.0,0.0,4.m4v,8.0
2024-02-28 10:27:05.331570,1709112425.3315704,-94.7265625,-24.90234375,-29.296875,-103.02734375,-1.0,0.0,-1.0,0.0,4.m4v,8.0
2024-02-28 10:27:05.335476,1709112425.3354762,-100.09765625,-6.34765625,-13.18359375,-118.65234375,-1.0,0.0,-1.0,0.0,4.m4v,8.0
2024-02-28 10:27:05.339382,1709112425.3393817,-84.47265625,-14.16015625,-18.5546875,-93.75,-1.0,0.0,-1.0,0.0,4.m4v,8.0
2024-02-28 10:27:05.343287,1709112425.3432877,-71.2890625,-32.2265625,-25.390625,-77.1484375,-1.0,0.0,-1.0,0.0,4.m4v,8.0
2024-02-28 10:27:05.347193,1709112425.3471932,-74.21875,-36.62109375,-50.78125,-90.8203125,-1.0,0.0,-1.0,0.0,4.m4v,8.0
2024-02-28 10:27:05.351099,1709112425.3510988,-61.5234375,-41.9921875,-61.5234375,-73.73046875,-1.0,0.0,-1.0,0.0,4.m4v,8.0
2024-02-28 10:27:05.355005,1709112425.3550043,-49.31640625,-37.59765625,-27.83203125,-53.7109375,-1.0,0.0,-1.0,0.0,4.m4v,8.0
2024-02-28 10:27:05.358910,1709112425.3589103,-27.83203125,-22.4609375,-7.8125,-46.38671875,-1.0,0.0,-1.0,0.0,4.m4v,8.0
2024-02-28 10:27:05.362816,1709112425.362816,-24.90234375,-31.25,-1.953125,-40.52734375,-1.0,0.0,-1.0,0.0,4.m4v,8.0
2024-02-28 10:27:05.366722,1709112425.3667216,-36.62109375,-40.0390625,-9.765625,-33.69140625,-1.0,0.0,-1.0,0.0,4.m4v,8.0
2024-02-28 10:27:05.370630,1709112425.37063,-17.578125,-44.921875,-27.83203125,-16.6015625,-1.0,0.0,-1.0,0.0,4.m4v,8.0
2024-02-28 10:27:05.374536,1709112425.3745358,-5.859375,-38.0859375,-30.2734375,-23.4375,-1.0,0.0,-1.0,0.0,4.m4v,8.0
2024-02-28 10:27:05.378441,1709112425.378441,-22.4609375,-22.4609375,-32.71484375,-26.85546875,-1.0,0.0,-1.0,0.0,4.m4v,8.0
2024-02-28 10:27:05.382347,1709112425.382347,-17.08984375,-21.97265625,-41.9921875,-25.87890625,-1.0,0.0,-1.0,0.0,4.m4v,8.0
2024-02-28 10:27:05.386253,1709112425.3862529,-17.578125,-27.34375,-39.0625,-35.64453125,-1.0,0.0,-1.0,0.0,4.m4v,8.0
2024-02-28 10:27:05.390158,1709112425.3901584,-23.4375,-28.80859375,-28.3203125,-36.62109375,-1.0,0.0,-1.0,0.0,4.m4v,8.0
2024-02-28 10:27:05.394064,1709112425.3940642,-19.04296875,-40.52734375,-20.5078125,-39.0625,-1.0,0.0,-1.0,0.0,4.m4v,8.0
2024-02-28 10:27:05.397970,1709112425.39797,-27.83203125,-43.9453125,-33.69140625,-28.80859375,-1.0,0.0,-1.0,0.0,4.m4v,8.0
2024-02-28 10:27:05.401875,1709112425.4018755,-23.4375,-27.83203125,-39.55078125,-16.6015625,-1.0,0.0,-1.0,0.0,4.m4v,8.0
2024-02-28 10:27:05.405781,1709112425.4057813,-22.4609375,-32.2265625,-21.97265625,-10.7421875,-1.0,0.0,-1.0,0.0,4.m4v,8.0
2024-02-28 10:27:05.409687,1709112425.409687,-29.296875,-50.78125,-27.34375,-16.6015625,-1.0,0.0,-1.0,0.0,4.m4v,8.0
2024-02-28 10:27:05.413593,1709112425.4135928,-14.6484375,-37.109375,-38.0859375,-24.4140625,-1.0,0.0,-1.0,0.0,4.m4v,8.0
2024-02-28 10:27:05.417501,1709112425.4175007,-12.6953125,-17.08984375,-24.90234375,-20.99609375,-1.0,0.0,-1.0,0.0,4.m4v,8.0
2024-02-28 10:27:05.421406,1709112425.4214065,-27.34375,-30.76171875,-26.85546875,-38.0859375,-1.0,0.0,-1.0,0.0,4.m4v,8.0
2024-02-28 10:27:05.425312,1709112425.425312,-33.203125,-42.48046875,-41.50390625,-48.33984375,-1.0,0.0,-1.0,0.0,4.m4v,8.0
2024-02-28 10:27:05.429218,1709112425.4292178,-41.50390625,-40.0390625,-41.015625,-46.875,-1.0,0.0,-1.0,0.0,4.m4v,8.0
2024-02-28 10:27:05.433123,1709112425.4331234,-34.1796875,-35.15625,-39.55078125,-44.43359375,-1.0,0.0,-1.0,0.0,4.m4v,8.0
2024-02-28 10:27:05.437029,1709112425.4370291,-22.94921875,-31.73828125,-41.015625,-39.0625,-1.0,0.0,-1.0,0.0,4.m4v,8.0
2024-02-28 10:27:05.440935,1709112425.440935,-25.87890625,-37.59765625,-37.59765625,-19.04296875,-1.0,0.0,-1.0,0.0,4.m4v,8.0
2024-02-28 10:27:05.444841,1709112425.444841,-14.6484375,-45.41015625,-37.109375,-11.71875,-1.0,0.0,-1.0,0.0,4.m4v,8.0
2024-02-28 10:27:05.448746,1709112425.4487462,0.9765625,-40.52734375,-51.26953125,-33.203125,-1.0,0.0,-1.0,0.0,4.m4v,8.0
2024-02-28 10:27:05.452652,1709112425.452652,-16.11328125,-42.96875,-59.08203125,-27.34375,-1.0,0.0,-1.0,0.0,4.m4v,8.0
2024-02-28 10:27:05.456558,1709112425.4565578,-23.4375,-30.2734375,-39.0625,-30.2734375,-1.0,0.0,-1.0,0.0,4.m4v,8.0
2024-02-28 10:27:05.460463,1709112425.4604633,-19.53125,-1.953125,-25.390625,-35.15625,-1.0,0.0,-1.0,0.0,4.m4v,8.0
2024-02-28 10:27:05.464371,1709112425.464371,-6.34765625,5.859375,-26.3671875,2.9296875,-1.0,0.0,-1.0,0.0,4.m4v,8.0
2024-02-28 10:27:05.468277,1709112425.4682767,1.953125,-8.7890625,-19.53125,-2.44140625,-1.0,0.0,-1.0,0.0,4.m4v,8.0
2024-02-28 10:27:05.628421,1709112425.6284206,-31.73828125,-31.73828125,-32.71484375,-30.2734375,-1.0,0.0,-1.0,0.0,4.m4v,8.0
2024-02-28 10:27:05.632326,1709112425.632326,-35.64453125,-26.3671875,-38.57421875,-27.34375,-1.0,0.0,-1.0,0.0,4.m4v,8.0
2024-02-28 10:27:05.636232,1709112425.636232,-19.04296875,-31.73828125,-30.76171875,-33.69140625,-1.0,0.0,-1.0,0.0,4.m4v,8.0
2024-02-28 10:27:05.640138,1709112425.6401377,-20.99609375,-35.15625,-24.4140625,-12.20703125,-1.0,0.0,-1.0,0.0,4.m4v,8.0
2024-02-28 10:27:05.644043,1709112425.6440434,-31.73828125,-26.3671875,-30.2734375,0.48828125,-1.0,0.0,-1.0,0.0,4.m4v,8.0
2024-02-28 10:27:05.647949,1709112425.647949,-23.92578125,-21.484375,-32.71484375,-32.71484375,-1.0,0.0,-1.0,0.0,4.m4v,8.0
2024-02-28 10:27:05.651858,1709112425.6518576,-23.92578125,-28.3203125,-22.4609375,-32.71484375,-1.0,0.0,-1.0,0.0,4.m4v,8.0
2024-02-28 10:27:05.655763,1709112425.6557634,-27.83203125,-32.71484375,-20.01953125,-5.859375,-1.0,0.0,-1.0,0.0,4.m4v,8.0
2024-02-28 10:27:05.659669,1709112425.659669,-25.87890625,-38.57421875,-33.69140625,-36.62109375,-1.0,0.0,-1.0,0.0,4.m4v,8.0
2024-02-28 10:27:05.663575,1709112425.6635747,-26.3671875,-46.38671875,-39.55078125,-55.6640625,-1.0,0.0,-1.0,0.0,4.m4v,8.0
2024-02-28 10:27:05.667480,1709112425.6674805,-33.203125,-49.8046875,-23.92578125,-39.55078125,-1.0,0.0,-1.0,0.0,4.m4v,8.0
2024-02-28 10:27:05.671386,1709112425.671386,-22.94921875,-36.62109375,-27.34375,-36.62109375,-1.0,0.0,-1.0,0.0,4.m4v,8.0
2024-02-28 10:27:05.675292,1709112425.6752918,-28.3203125,-34.1796875,-40.0390625,-36.1328125,-1.0,0.0,-1.0,0.0,4.m4v,8.0
2024-02-28 10:27:05.679198,1709112425.6791975,-31.73828125,-40.0390625,-24.4140625,-25.87890625,-1.0,0.0,-1.0,0.0,4.m4v,8.0
2024-02-28 10:27:05.683103,1709112425.683103,-30.76171875,-37.59765625,-15.13671875,-21.97265625,-1.0,0.0,-1.0,0.0,4.m4v,8.0
2024-02-28 10:27:05.687009,1709112425.6870089,-35.15625,-28.3203125,-15.625,-29.78515625,-1.0,0.0,-1.0,0.0,4.m4v,8.0
2024-02-28 10:27:05.690915,1709112425.6909146,-28.80859375,-17.578125,-22.94921875,-30.76171875,-1.0,0.0,-1.0,0.0,4.m4v,8.0
2024-02-28 10:27:05.936991,1709112425.9369917,-53.7109375,-33.203125,-30.76171875,-90.8203125,-1.0,0.0,-1.0,0.0,4.m4v,8.0
2024-02-28 10:27:05.940897,1709112425.9408972,-62.5,-33.203125,-19.53125,-64.453125,-1.0,0.0,-1.0,0.0,4.m4v,8.0
2024-02-28 10:27:05.944803,1709112425.944803,-56.15234375,-30.2734375,-37.109375,-55.17578125,-1.0,0.0,-1.0,0.0,4.m4v,8.0
2024-02-28 10:27:05.948709,1709112425.9487088,-42.96875,-36.62109375,-49.31640625,-55.17578125,-1.0,0.0,-1.0,0.0,4.m4v,8.0
2024-02-28 10:27:05.952614,1709112425.9526143,-49.8046875,-53.7109375,-41.9921875,-52.24609375,-1.0,0.0,-1.0,0.0,4.m4v,8.0
2024-02-28 10:27:05.956520,1709112425.95652,-58.59375,-51.7578125,-27.34375,-74.70703125,-1.0,0.0,-1.0,0.0,4.m4v,8.0
2024-02-28 10:27:05.960426,1709112425.960426,-69.82421875,-44.43359375,-16.11328125,-61.5234375,-1.0,0.0,-1.0,0.0,4.m4v,8.0
2024-02-28 10:27:05.964331,1709112425.9643314,-85.9375,-46.38671875,-22.94921875,-70.3125,-1.0,0.0,-1.0,0.0,4.m4v,8.0
2024-02-28 10:27:05.968237,1709112425.9682372,-76.66015625,-39.0625,-38.0859375,-82.51953125,-1.0,0.0,-1.0,0.0,4.m4v,8.0
2024-02-28 10:27:05.972143,1709112425.972143,-60.546875,-36.1328125,-49.8046875,-67.3828125,-1.0,0.0,-1.0,0.0,4.m4v,8.0
2024-02-28 10:27:05.976048,1709112425.9760485,-66.40625,-37.59765625,-63.96484375,-54.6875,-1.0,0.0,-1.0,0.0,4.m4v,8.0
2024-02-28 10:27:05.979957,1709112425.979957,-67.87109375,-26.85546875,-63.4765625,-54.6875,-1.0,0.0,-1.0,0.0,4.m4v,8.0
2024-02-28 10:27:05.983863,1709112425.983863,-53.22265625,-20.01953125,-40.52734375,-76.66015625,-1.0,0.0,-1.0,0.0,4.m4v,8.0
2024-02-28 10:27:05.987769,1709112425.987769,-52.734375,-21.484375,-39.55078125,-86.42578125,-1.0,0.0,-1.0,0.0,4.m4v,8.0
2024-02-28 10:27:05.991674,1709112425.9916744,-77.1484375,-32.71484375,-51.7578125,-73.73046875,-1.0,0.0,-1.0,0.0,4.m4v,8.0
2024-02-28 10:27:05.995580,1709112425.9955802,-78.125,-40.0390625,-21.484375,-57.6171875,-1.0,0.0,-1.0,0.0,4.m4v,8.0
2024-02-28 10:27:05.999486,1709112425.999486,-71.77734375,-49.8046875,-17.578125,-74.70703125,-1.0,0.0,-1.0,0.0,4.m4v,8.0
2024-02-28 10:27:06.003392,1709112426.0033915,-82.03125,-60.546875,-36.1328125,-87.890625,-1.0,0.0,-1.0,0.0,4.m4v,8.0
2024-02-28 10:27:06.007297,1709112426.0072973,-80.078125,-56.15234375,-41.015625,-80.078125,-1.0,0.0,-1.0,0.0,4.m4v,8.0
2024-02-28 10:27:06.011203,1709112426.011203,-75.1953125,-50.29296875,-40.0390625,-74.70703125,-1.0,0.0,-1.0,0.0,4.m4v,8.0
2024-02-28 10:27:06.015109,1709112426.0151086,-79.58984375,-45.8984375,-32.2265625,-85.44921875,-1.0,0.0,-1.0,0.0,4.m4v,8.0
2024-02-28 10:27:06.019014,1709112426.0190144,-71.2890625,-39.55078125,-34.1796875,-81.54296875,-1.0,0.0,-1.0,0.0,4.m4v,8.0
2024-02-28 10:27:06.022920,1709112426.02292,-71.2890625,-39.0625,-39.55078125,-78.61328125,-1.0,0.0,-1.0,0.0,4.m4v,8.0
2024-02-28 10:27:06.026829,1709112426.0268288,-83.984375,-40.52734375,-32.71484375,-87.40234375,-1.0,0.0,-1.0,0.0,4.m4v,8.0
2024-02-28 10:27:06.030735,1709112426.0307343,-90.33203125,-36.62109375,-34.1796875,-93.75,-1.0,0.0,-1.0,0.0,4.m4v,8.0
2024-02-28 10:27:06.034640,1709112426.0346403,-101.5625,-24.4140625,-38.57421875,-120.1171875,-1.0,0.0,-1.0,0.0,4.m4v,8.0
2024-02-28 10:27:06.038546,1709112426.0385458,-112.3046875,-20.99609375,-38.0859375,-122.0703125,-1.0,0.0,-1.0,0.0,4.m4v,8.0
2024-02-28 10:27:06.042452,1709112426.0424516,-115.234375,-28.3203125,-51.26953125,-108.3984375,-1.0,0.0,-1.0,0.0,4.m4v,8.0
2024-02-28 10:27:06.046357,1709112426.0463574,-113.28125,-41.50390625,-46.875,-141.11328125,-1.0,0.0,-1.0,0.0,4.m4v,8.0
2024-02-28 10:27:06.050263,1709112426.050263,-109.375,-46.38671875,-22.94921875,-149.90234375,-1.0,0.0,-1.0,0.0,4.m4v,8.0
2024-02-28 10:27:06.054169,1709112426.0541687,-93.26171875,-41.015625,-17.08984375,-104.4921875,-1.0,0.0,-1.0,0.0,4.m4v,8.0
2024-02-28 10:27:06.058074,1709112426.0580745,-84.47265625,-43.45703125,-26.3671875,-107.91015625,-1.0,0.0,-1.0,0.0,4.m4v,8.0
2024-02-28 10:27:06.061980,1709112426.06198,-82.51953125,-34.1796875,-30.2734375,-105.95703125,-1.0,0.0,-1.0,0.0,4.m4v,8.0
2024-02-28 10:27:06.065886,1709112426.0658858,-75.68359375,-22.4609375,-31.25,-79.1015625,-1.0,0.0,-1.0,0.0,4.m4v,8.0
2024-02-28 10:27:06.069792,1709112426.0697916,-56.15234375,-25.87890625,-42.48046875,-65.4296875,-1.0,0.0,-1.0,0.0,4.m4v,8.0
2024-02-28 10:27:06.073700,1709112426.0737,-32.71484375,-20.01953125,-59.5703125,-54.19921875,-1.0,0.0,-1.0,0.0,4.m4v,8.0
2024-02-28 10:27:06.073700,1709112426.0737,-32.71484375,-20.01953125,-59.5703125,-54.19921875,-1.0,0.0,-1.0,0.0,4.m4v,8.0
2024-02-28 10:27:06.077605,1709112426.0776055,-21.484375,-8.30078125,-51.7578125,-43.9453125,-1.0,0.0,-1.0,0.0,4.m4v,8.0
2024-02-28 10:27:06.077605,1709112426.0776055,-21.484375,-8.30078125,-51.7578125,-43.9453125,-1.0,0.0,-1.0,0.0,4.m4v,8.0
2024-02-28 10:27:06.081511,1709112426.0815113,-22.94921875,-8.7890625,-36.62109375,-38.57421875,-1.0,0.0,-1.0,0.0,4.m4v,8.0
2024-02-28 10:27:06.081511,1709112426.0815113,-22.94921875,-8.7890625,-36.62109375,-38.57421875,-1.0,0.0,-1.0,0.0,4.m4v,8.0
2024-02-28 10:27:06.085417,1709112426.085417,-33.203125,-23.4375,-41.015625,-50.29296875,-1.0,0.0,-1.0,0.0,4.m4v,8.0
2024-02-28 10:27:06.089323,1709112426.0893228,-29.296875,-36.1328125,-38.0859375,-60.05859375,-1.0,0.0,-1.0,0.0,4.m4v,8.0
2024-02-28 10:27:06.093228,1709112426.0932283,-28.80859375,-35.64453125,-26.85546875,-41.50390625,-1.0,0.0,-1.0,0.0,4.m4v,8.0
2024-02-28 10:27:06.097134,1709112426.097134,-23.4375,-38.0859375,-28.80859375,-13.18359375,-1.0,0.0,-1.0,0.0,4.m4v,8.0
2024-02-28 10:27:06.101040,1709112426.10104,-13.18359375,-46.38671875,-29.296875,-28.3203125,-1.0,0.0,-1.0,0.0,4.m4v,8.0
2024-02-28 10:27:06.104945,1709112426.1049454,-10.25390625,-44.921875,-27.34375,-43.9453125,-1.0,0.0,-1.0,0.0,4.m4v,8.0
2024-02-28 10:27:06.108851,1709112426.1088512,-6.34765625,-37.109375,-21.484375,-20.99609375,-1.0,0.0,-1.0,0.0,4.m4v,8.0
2024-02-28 10:27:06.112757,1709112426.112757,-7.32421875,-23.92578125,-12.20703125,-6.8359375,-1.0,0.0,-1.0,0.0,4.m4v,8.0
2024-02-28 10:27:06.116663,1709112426.1166625,-14.6484375,-25.87890625,-22.4609375,-10.25390625,-1.0,0.0,-1.0,0.0,4.m4v,8.0
2024-02-28 10:27:06.120571,1709112426.120571,-3.90625,-31.25,-38.57421875,-23.4375,-1.0,0.0,-1.0,0.0,4.m4v,8.0
2024-02-28 10:27:06.124476,1709112426.1244764,0.0,-36.1328125,-34.1796875,-16.11328125,-1.0,0.0,-1.0,0.0,4.m4v,8.0
2024-02-28 10:27:06.128382,1709112426.1283822,-15.625,-50.78125,-37.109375,-21.97265625,-1.0,0.0,-1.0,0.0,4.m4v,8.0
2024-02-28 10:27:06.487728,1709112426.4877276,-52.24609375,-25.390625,-33.69140625,-33.69140625,-1.0,0.0,-1.0,0.0,4.m4v,8.0
2024-02-28 10:27:06.487728,1709112426.4877276,-52.24609375,-25.390625,-33.69140625,-33.69140625,-1.0,0.0,-1.0,0.0,4.m4v,8.0
2024-02-28 10:27:06.495541,1709112426.495541,-28.80859375,-48.33984375,-38.0859375,-14.6484375,-1.0,0.0,-1.0,0.0,4.m4v,8.0
2024-02-28 10:27:06.495541,1709112426.495541,-28.80859375,-48.33984375,-38.0859375,-14.6484375,-1.0,0.0,-1.0,0.0,4.m4v,8.0
2024-02-28 10:27:06.503353,1709112426.5033529,-33.203125,-21.484375,-35.15625,-45.8984375,-1.0,0.0,-1.0,0.0,4.m4v,8.0
2024-02-28 10:27:06.503353,1709112426.5033529,-33.203125,-21.484375,-35.15625,-45.8984375,-1.0,0.0,-1.0,0.0,4.m4v,8.0
2024-02-28 10:27:06.511164,1709112426.5111642,-37.109375,-37.109375,-50.78125,-36.62109375,-1.0,0.0,-1.0,0.0,4.m4v,8.0
2024-02-28 10:27:06.511164,1709112426.5111642,-37.109375,-37.109375,-50.78125,-36.62109375,-1.0,0.0,-1.0,0.0,4.m4v,8.0
2024-02-28 10:27:06.518976,1709112426.5189755,-20.01953125,-21.484375,-40.0390625,-27.83203125,-1.0,0.0,-1.0,0.0,4.m4v,8.0
2024-02-28 10:27:06.526787,1709112426.526787,-51.7578125,-47.8515625,-41.50390625,-37.59765625,-1.0,0.0,-1.0,0.0,4.m4v,8.0
2024-02-28 10:27:06.534598,1709112426.5345984,-32.2265625,-35.15625,-16.11328125,-36.1328125,-1.0,0.0,-1.0,0.0,4.m4v,8.0
2024-02-28 10:27:06.542412,1709112426.542412,-28.3203125,-28.3203125,-11.71875,-32.71484375,-1.0,0.0,-1.0,0.0,4.m4v,8.0
2024-02-28 10:27:06.550223,1709112426.5502234,-36.62109375,-31.25,-37.59765625,5.37109375,-1.0,0.0,-1.0,0.0,4.m4v,8.0
2024-02-28 10:27:06.554129,1709112426.5541291,-17.578125,-44.43359375,-31.25,-0.48828125,-1.0,0.0,-1.0,0.0,4.m4v,8.0
2024-02-28 10:27:06.558035,1709112426.558035,-30.2734375,-57.6171875,-26.85546875,-47.8515625,-1.0,0.0,-1.0,0.0,4.m4v,8.0
2024-02-28 10:27:06.561941,1709112426.561941,-27.34375,-55.6640625,-25.390625,-56.15234375,-1.0,0.0,-1.0,0.0,4.m4v,8.0
2024-02-28 10:27:06.565846,1709112426.5658462,-34.66796875,-43.9453125,-51.7578125,-32.2265625,-1.0,0.0,-1.0,0.0,4.m4v,8.0
2024-02-28 10:27:06.608811,1709112426.608811,-24.90234375,-25.390625,-22.4609375,-24.4140625,-1.0,0.0,-1.0,0.0,4.m4v,8.0
2024-02-28 10:27:06.612717,1709112426.612717,-21.97265625,-28.80859375,-20.99609375,-40.52734375,-1.0,0.0,-1.0,0.0,4.m4v,8.0
2024-02-28 10:27:06.616622,1709112426.6166224,-28.80859375,-37.109375,-25.87890625,-41.015625,-1.0,0.0,-1.0,0.0,4.m4v,8.0
2024-02-28 10:27:06.620528,1709112426.620528,-41.9921875,-33.69140625,-31.73828125,-32.71484375,-1.0,0.0,-1.0,0.0,4.m4v,8.0
2024-02-28 10:27:06.624434,1709112426.6244338,-37.59765625,-28.3203125,-37.109375,-29.78515625,-1.0,0.0,-1.0,0.0,4.m4v,8.0
2024-02-28 10:27:06.628340,1709112426.6283395,-27.34375,-30.2734375,-50.29296875,-29.296875,-1.0,0.0,-1.0,0.0,4.m4v,8.0
2024-02-28 10:27:06.632245,1709112426.632245,-16.11328125,-32.71484375,-49.8046875,-28.80859375,-1.0,0.0,-1.0,0.0,4.m4v,8.0
2024-02-28 10:27:06.636154,1709112426.6361544,-21.484375,-33.203125,-27.83203125,-27.34375,-1.0,0.0,-1.0,0.0,4.m4v,8.0
2024-02-28 10:27:06.640060,1709112426.6400602,-24.90234375,-34.1796875,-42.96875,-18.5546875,-1.0,0.0,-1.0,0.0,4.m4v,8.0
2024-02-28 10:27:06.643966,1709112426.6439655,-18.5546875,-43.9453125,-55.17578125,-10.25390625,-1.0,0.0,-1.0,0.0,4.m4v,8.0
2024-02-28 10:27:06.647871,1709112426.6478715,-26.3671875,-59.08203125,-26.85546875,-26.3671875,-1.0,0.0,-1.0,0.0,4.m4v,8.0
2024-02-28 10:27:06.651777,1709112426.6517773,-30.2734375,-56.15234375,-18.06640625,-43.45703125,-1.0,0.0,-1.0,0.0,4.m4v,8.0
2024-02-28 10:27:06.655683,1709112426.6556828,-22.94921875,-45.41015625,-17.578125,-40.52734375,-1.0,0.0,-1.0,0.0,4.m4v,8.0
2024-02-28 10:27:06.659589,1709112426.6595886,-20.99609375,-28.3203125,-15.625,-39.0625,-1.0,0.0,-1.0,0.0,4.m4v,8.0
2024-02-28 10:27:06.663494,1709112426.6634943,-33.203125,-10.25390625,-21.484375,-43.9453125,-1.0,0.0,-1.0,0.0,4.m4v,8.0
2024-02-28 10:27:06.667400,1709112426.6674,-30.76171875,-6.8359375,-25.87890625,-30.76171875,-1.0,0.0,-1.0,0.0,4.m4v,8.0
2024-02-28 10:27:06.671306,1709112426.6713057,-16.11328125,-20.01953125,-26.85546875,-19.53125,-1.0,0.0,-1.0,0.0,4.m4v,8.0
2024-02-28 10:27:06.675211,1709112426.6752114,-26.85546875,-35.15625,-30.2734375,-30.2734375,-1.0,0.0,-1.0,0.0,4.m4v,8.0
2024-02-28 10:27:06.679117,1709112426.6791172,-36.1328125,-31.73828125,-46.38671875,-49.31640625,-1.0,0.0,-1.0,0.0,4.m4v,8.0
2024-02-28 10:27:06.683026,1709112426.683026,-44.43359375,-32.71484375,-52.734375,-61.03515625,-1.0,0.0,-1.0,0.0,4.m4v,8.0
2024-02-28 10:27:06.686932,1709112426.6869318,-47.36328125,-44.43359375,-42.48046875,-45.41015625,-1.0,0.0,-1.0,0.0,4.m4v,8.0
2024-02-28 10:27:06.690838,1709112426.6908376,-45.41015625,-45.8984375,-36.62109375,-37.59765625,-1.0,0.0,-1.0,0.0,4.m4v,8.0
2024-02-28 10:27:06.694743,1709112426.6947432,-40.52734375,-44.43359375,-27.34375,-32.71484375,-1.0,0.0,-1.0,0.0,4.m4v,8.0
2024-02-28 10:27:06.698649,1709112426.698649,-31.73828125,-37.109375,-17.578125,-13.18359375,-1.0,0.0,-1.0,0.0,4.m4v,8.0
2024-02-28 10:27:06.702555,1709112426.7025547,-36.62109375,-26.85546875,-22.94921875,-30.76171875,-1.0,0.0,-1.0,0.0,4.m4v,8.0
2024-02-28 10:27:06.706460,1709112426.7064602,-42.96875,-21.484375,-31.25,-55.17578125,-1.0,0.0,-1.0,0.0,4.m4v,8.0
2024-02-28 10:27:06.710366,1709112426.710366,-53.7109375,-28.80859375,-35.64453125,-51.26953125,-1.0,0.0,-1.0,0.0,4.m4v,8.0
2024-02-28 10:27:06.714272,1709112426.7142718,-46.875,-49.31640625,-40.52734375,-42.48046875,-1.0,0.0,-1.0,0.0,4.m4v,8.0
2024-02-28 10:27:06.718177,1709112426.7181773,-21.484375,-56.15234375,-63.4765625,-38.0859375,-1.0,0.0,-1.0,0.0,4.m4v,8.0
2024-02-28 10:27:06.722083,1709112426.722083,-20.01953125,-51.26953125,-60.05859375,-24.4140625,-1.0,0.0,-1.0,0.0,4.m4v,8.0
2024-02-28 10:27:06.725989,1709112426.7259889,-37.109375,-40.0390625,-34.1796875,-25.87890625,-1.0,0.0,-1.0,0.0,4.m4v,8.0
2024-02-28 10:27:06.729897,1709112426.7298975,-39.0625,-25.87890625,-28.3203125,-43.9453125,-1.0,0.0,-1.0,0.0,4.m4v,8.0
2024-02-28 10:27:06.733803,1709112426.7338033,-31.25,-21.97265625,-18.06640625,-19.53125,-1.0,0.0,-1.0,0.0,4.m4v,8.0
2024-02-28 10:27:06.737709,1709112426.737709,-41.50390625,-38.0859375,-14.16015625,-21.484375,-1.0,0.0,-1.0,0.0,4.m4v,8.0
2024-02-28 10:27:06.741615,1709112426.7416146,-64.453125,-45.8984375,-31.73828125,-71.2890625,-1.0,0.0,-1.0,0.0,4.m4v,8.0
2024-02-28 10:27:06.745520,1709112426.7455204,-71.77734375,-43.45703125,-43.9453125,-62.98828125,-1.0,0.0,-1.0,0.0,4.m4v,8.0
2024-02-28 10:27:06.749426,1709112426.749426,-65.91796875,-34.1796875,-43.45703125,-45.8984375,-1.0,0.0,-1.0,0.0,4.m4v,8.0
2024-02-28 10:27:06.753332,1709112426.753332,-39.0625,-25.87890625,-41.015625,-41.9921875,-1.0,0.0,-1.0,0.0,4.m4v,8.0
2024-02-28 10:27:06.757237,1709112426.7572374,-32.2265625,-28.80859375,-42.48046875,-30.2734375,-1.0,0.0,-1.0,0.0,4.m4v,8.0
2024-02-28 10:27:06.761143,1709112426.7611432,-45.41015625,-31.25,-39.55078125,-39.55078125,-1.0,0.0,-1.0,0.0,4.m4v,8.0
2024-02-28 10:27:06.765049,1709112426.765049,-35.15625,-31.73828125,-20.01953125,-49.31640625,-1.0,0.0,-1.0,0.0,4.m4v,8.0
2024-02-28 10:27:06.768955,1709112426.7689545,-17.578125,-31.73828125,-23.4375,-37.109375,-1.0,0.0,-1.0,0.0,4.m4v,8.0
2024-02-28 10:27:06.772860,1709112426.7728603,-22.94921875,-33.69140625,-32.71484375,-31.73828125,-1.0,0.0,-1.0,0.0,4.m4v,8.0
2024-02-28 10:27:06.776769,1709112426.776769,-35.15625,-38.57421875,-20.99609375,-39.55078125,-1.0,0.0,-1.0,0.0,4.m4v,8.0
2024-02-28 10:27:06.780675,1709112426.7806747,-46.875,-24.90234375,-34.66796875,-44.921875,-1.0,0.0,-1.0,0.0,4.m4v,8.0
2024-02-28 10:27:06.784580,1709112426.7845802,-34.1796875,-15.13671875,-49.8046875,-18.5546875,-1.0,0.0,-1.0,0.0,4.m4v,8.0
2024-02-28 10:27:06.788486,1709112426.788486,-20.99609375,-34.1796875,-47.8515625,-24.90234375,-1.0,0.0,-1.0,0.0,4.m4v,8.0
2024-02-28 10:27:06.792392,1709112426.7923918,-33.203125,-33.203125,-38.57421875,-36.1328125,-1.0,0.0,-1.0,0.0,4.m4v,8.0
2024-02-28 10:27:06.796297,1709112426.7962973,-21.97265625,-21.97265625,-28.80859375,-10.7421875,-1.0,0.0,-1.0,0.0,4.m4v,8.0
2024-02-28 10:27:06.800203,1709112426.800203,-17.578125,-43.9453125,-32.2265625,-22.4609375,-1.0,0.0,-1.0,0.0,4.m4v,8.0
2024-02-28 10:27:06.804109,1709112426.8041089,-30.76171875,-49.31640625,-27.83203125,-41.015625,-1.0,0.0,-1.0,0.0,4.m4v,8.0
2024-02-28 10:27:06.808014,1709112426.8080144,-24.90234375,-34.1796875,-26.3671875,-39.55078125,-1.0,0.0,-1.0,0.0,4.m4v,8.0
2024-02-28 10:27:06.811920,1709112426.8119202,-37.109375,-38.0859375,-43.45703125,-40.0390625,-1.0,0.0,-1.0,0.0,4.m4v,8.0
2024-02-28 10:27:06.815826,1709112426.815826,-53.7109375,-36.1328125,-31.73828125,-37.59765625,-1.0,0.0,-1.0,0.0,4.m4v,8.0
2024-02-28 10:27:06.819732,1709112426.8197317,-43.45703125,-29.78515625,-13.671875,-42.48046875,-1.0,0.0,-1.0,0.0,4.m4v,8.0
2024-02-28 10:27:06.823640,1709112426.8236403,-46.875,-31.25,-32.2265625,-49.8046875,-1.0,0.0,-1.0,0.0,4.m4v,8.0
2024-02-28 10:27:06.827546,1709112426.827546,-50.29296875,-32.2265625,-50.29296875,-62.5,-1.0,0.0,-1.0,0.0,4.m4v,8.0
2024-02-28 10:27:06.831452,1709112426.8314517,-39.55078125,-34.1796875,-45.8984375,-60.05859375,-1.0,0.0,-1.0,0.0,4.m4v,8.0
2024-02-28 10:27:06.835357,1709112426.8353574,-28.80859375,-28.80859375,-37.59765625,-33.69140625,-1.0,0.0,-1.0,0.0,4.m4v,8.0
2024-02-28 10:27:06.839263,1709112426.839263,-20.5078125,-26.85546875,-35.64453125,-19.53125,-1.0,0.0,-1.0,0.0,4.m4v,8.0
2024-02-28 10:27:06.843169,1709112426.8431687,-18.06640625,-29.296875,-30.76171875,-34.66796875,-1.0,0.0,-1.0,0.0,4.m4v,8.0
2024-02-28 10:27:06.847075,1709112426.8470745,-24.90234375,-29.296875,-25.390625,-27.83203125,-1.0,0.0,-1.0,0.0,4.m4v,8.0
2024-02-28 10:27:06.850980,1709112426.85098,-29.78515625,-34.1796875,-31.25,1.953125,-1.0,0.0,-1.0,0.0,4.m4v,8.0
2024-02-28 10:27:06.854886,1709112426.8548858,-35.64453125,-39.0625,-29.78515625,-20.99609375,-1.0,0.0,-1.0,0.0,4.m4v,8.0
2024-02-28 10:27:06.858792,1709112426.8587916,-35.15625,-30.76171875,-24.90234375,-44.43359375,-1.0,0.0,-1.0,0.0,4.m4v,8.0
2024-02-28 10:27:06.862697,1709112426.8626974,-35.15625,-30.2734375,-35.15625,-52.24609375,-1.0,0.0,-1.0,0.0,4.m4v,8.0
2024-02-28 10:27:06.866603,1709112426.866603,-36.1328125,-36.62109375,-54.19921875,-61.03515625,-1.0,0.0,-1.0,0.0,4.m4v,8.0
2024-02-28 10:27:06.870515,1709112426.8705146,-41.015625,-25.87890625,-54.19921875,-50.78125,-1.0,0.0,-1.0,0.0,4.m4v,8.0
2024-02-28 10:27:06.874420,1709112426.8744202,-37.59765625,-20.5078125,-28.3203125,-41.015625,-1.0,0.0,-1.0,0.0,4.m4v,8.0
2024-02-28 10:27:06.878326,1709112426.878326,-33.203125,-29.296875,-17.578125,-47.36328125,-1.0,0.0,-1.0,0.0,4.m4v,8.0
2024-02-28 10:27:06.882232,1709112426.8822317,-36.62109375,-39.0625,-14.6484375,-43.45703125,-1.0,0.0,-1.0,0.0,4.m4v,8.0
2024-02-28 10:27:06.886137,1709112426.8861372,-50.29296875,-41.50390625,-22.94921875,-36.62109375,-1.0,0.0,-1.0,0.0,4.m4v,8.0
2024-02-28 10:27:06.890043,1709112426.890043,-45.8984375,-30.2734375,-32.71484375,-34.1796875,-1.0,0.0,-1.0,0.0,4.m4v,8.0
2024-02-28 10:27:06.893949,1709112426.8939488,-22.4609375,-26.3671875,-24.4140625,-37.59765625,-1.0,0.0,-1.0,0.0,4.m4v,8.0
2024-02-28 10:27:06.897854,1709112426.8978543,-32.2265625,-38.0859375,-39.0625,-37.59765625,-1.0,0.0,-1.0,0.0,4.m4v,8.0
2024-02-28 10:27:06.901760,1709112426.90176,-34.66796875,-22.94921875,-48.33984375,-27.83203125,-1.0,0.0,-1.0,0.0,4.m4v,8.0
2024-02-28 10:27:06.905666,1709112426.905666,-26.3671875,-6.8359375,-40.0390625,-25.390625,-1.0,0.0,-1.0,0.0,4.m4v,8.0
2024-02-28 10:27:06.909572,1709112426.9095716,-44.43359375,-23.92578125,-50.78125,-32.71484375,-1.0,0.0,-1.0,0.0,4.m4v,8.0
2024-02-28 10:27:06.913477,1709112426.9134772,-52.734375,-38.57421875,-48.33984375,-37.59765625,-1.0,0.0,-1.0,0.0,4.m4v,8.0
2024-02-28 10:27:06.917385,1709112426.917385,-25.390625,-32.71484375,-24.4140625,-36.62109375,-1.0,0.0,-1.0,0.0,4.m4v,8.0
2024-02-28 10:27:06.921291,1709112426.9212909,-22.4609375,-41.50390625,-31.25,-44.921875,-1.0,0.0,-1.0,0.0,4.m4v,8.0
2024-02-28 10:27:06.925197,1709112426.9251966,-59.5703125,-51.7578125,-35.15625,-64.453125,-1.0,0.0,-1.0,0.0,4.m4v,8.0
2024-02-28 10:27:06.929102,1709112426.9291024,-75.68359375,-44.921875,-21.97265625,-73.73046875,-1.0,0.0,-1.0,0.0,4.m4v,8.0
2024-02-28 10:27:06.933008,1709112426.9330082,-68.84765625,-38.57421875,-28.3203125,-50.78125,-1.0,0.0,-1.0,0.0,4.m4v,8.0
2024-02-28 10:27:06.936914,1709112426.9369135,-47.8515625,-22.94921875,-34.1796875,-31.73828125,-1.0,0.0,-1.0,0.0,4.m4v,8.0
2024-02-28 10:27:06.940820,1709112426.9408195,-46.38671875,-17.08984375,-41.015625,-46.38671875,-1.0,0.0,-1.0,0.0,4.m4v,8.0
2024-02-28 10:27:06.944725,1709112426.9447253,-55.6640625,-27.83203125,-37.59765625,-55.6640625,-1.0,0.0,-1.0,0.0,4.m4v,8.0
2024-02-28 10:27:06.948631,1709112426.9486308,-44.43359375,-39.0625,-41.9921875,-50.78125,-1.0,0.0,-1.0,0.0,4.m4v,8.0
2024-02-28 10:27:06.952537,1709112426.9525366,-35.64453125,-38.0859375,-49.8046875,-45.8984375,-1.0,0.0,-1.0,0.0,4.m4v,8.0
2024-02-28 10:27:06.956442,1709112426.9564424,-36.62109375,-32.71484375,-35.15625,-18.06640625,-1.0,0.0,-1.0,0.0,4.m4v,8.0
2024-02-28 10:27:07.616546,1709112427.6165464,-39.55078125,-23.4375,-52.734375,-47.36328125,-1.0,0.0,-1.0,0.0,4.m4v,8.0
2024-02-28 10:27:07.616546,1709112427.6165464,-39.55078125,-23.4375,-52.734375,-47.36328125,-1.0,0.0,-1.0,0.0,4.m4v,8.0
2024-02-28 10:27:07.624360,1709112427.62436,-32.71484375,-28.80859375,-30.76171875,-35.64453125,-1.0,0.0,-1.0,0.0,4.m4v,8.0
2024-02-28 10:27:07.624360,1709112427.62436,-32.71484375,-28.80859375,-30.76171875,-35.64453125,-1.0,0.0,-1.0,0.0,4.m4v,8.0
2024-02-28 10:27:07.632172,1709112427.6321716,-23.92578125,-32.2265625,-21.97265625,-42.48046875,-1.0,0.0,-1.0,0.0,4.m4v,8.0
2024-02-28 10:27:07.632172,1709112427.6321716,-23.92578125,-32.2265625,-21.97265625,-42.48046875,-1.0,0.0,-1.0,0.0,4.m4v,8.0
2024-02-28 10:27:07.639983,1709112427.639983,-31.73828125,-42.96875,-33.69140625,-38.0859375,-1.0,0.0,-1.0,0.0,4.m4v,8.0
2024-02-28 10:27:07.639983,1709112427.639983,-31.73828125,-42.96875,-33.69140625,-38.0859375,-1.0,0.0,-1.0,0.0,4.m4v,8.0
2024-02-28 10:27:07.647794,1709112427.6477945,-36.62109375,-40.0390625,-27.83203125,-48.33984375,-1.0,0.0,-1.0,0.0,4.m4v,8.0
2024-02-28 10:27:07.647794,1709112427.6477945,-36.62109375,-40.0390625,-27.83203125,-48.33984375,-1.0,0.0,-1.0,0.0,4.m4v,8.0
2024-02-28 10:27:07.655606,1709112427.6556058,-32.71484375,-39.55078125,-34.1796875,-43.45703125,-1.0,0.0,-1.0,0.0,4.m4v,8.0
2024-02-28 10:27:07.655606,1709112427.6556058,-32.71484375,-39.55078125,-34.1796875,-43.45703125,-1.0,0.0,-1.0,0.0,4.m4v,8.0
2024-02-28 10:27:07.663417,1709112427.663417,-14.6484375,-24.4140625,-54.6875,-30.2734375,-1.0,0.0,-1.0,0.0,4.m4v,8.0
2024-02-28 10:27:07.663417,1709112427.663417,-14.6484375,-24.4140625,-54.6875,-30.2734375,-1.0,0.0,-1.0,0.0,4.m4v,8.0
2024-02-28 10:27:07.671231,1709112427.6712308,-25.390625,-29.296875,-38.0859375,0.48828125,-1.0,0.0,-1.0,0.0,4.m4v,8.0
2024-02-28 10:27:07.671231,1709112427.6712308,-25.390625,-29.296875,-38.0859375,0.48828125,-1.0,0.0,-1.0,0.0,4.m4v,8.0
2024-02-28 10:27:07.679042,1709112427.679042,-17.08984375,-36.1328125,-18.06640625,-32.2265625,-1.0,0.0,-1.0,0.0,4.m4v,8.0
2024-02-28 10:27:07.679042,1709112427.679042,-17.08984375,-36.1328125,-18.06640625,-32.2265625,-1.0,0.0,-1.0,0.0,4.m4v,8.0
2024-02-28 10:27:07.686854,1709112427.6868536,-36.62109375,-39.55078125,-25.390625,-39.55078125,-1.0,0.0,-1.0,0.0,4.m4v,8.0
2024-02-28 10:27:07.686854,1709112427.6868536,-36.62109375,-39.55078125,-25.390625,-39.55078125,-1.0,0.0,-1.0,0.0,4.m4v,8.0
2024-02-28 10:27:07.694665,1709112427.694665,-33.203125,-41.015625,-49.31640625,-37.109375,-1.0,0.0,-1.0,0.0,4.m4v,8.0
2024-02-28 10:27:07.694665,1709112427.694665,-33.203125,-41.015625,-49.31640625,-37.109375,-1.0,0.0,-1.0,0.0,4.m4v,8.0
2024-02-28 10:27:07.702477,1709112427.7024765,-47.8515625,-39.0625,-43.45703125,-43.45703125,-1.0,0.0,-1.0,0.0,4.m4v,8.0
2024-02-28 10:27:07.702477,1709112427.7024765,-47.8515625,-39.0625,-43.45703125,-43.45703125,-1.0,0.0,-1.0,0.0,4.m4v,8.0
2024-02-28 10:27:07.710288,1709112427.7102878,-41.9921875,-34.66796875,-18.5546875,-41.9921875,-1.0,0.0,-1.0,0.0,4.m4v,8.0
2024-02-28 10:27:07.710288,1709112427.7102878,-41.9921875,-34.66796875,-18.5546875,-41.9921875,-1.0,0.0,-1.0,0.0,4.m4v,8.0
2024-02-28 10:27:07.718102,1709112427.7181015,-20.99609375,-29.296875,-20.99609375,-23.4375,-1.0,0.0,-1.0,0.0,4.m4v,8.0
2024-02-28 10:27:07.718102,1709112427.7181015,-20.99609375,-29.296875,-20.99609375,-23.4375,-1.0,0.0,-1.0,0.0,4.m4v,8.0
2024-02-28 10:27:07.725913,1709112427.7259128,-36.62109375,-19.53125,-51.7578125,-34.66796875,-1.0,0.0,-1.0,0.0,4.m4v,8.0
2024-02-28 10:27:07.725913,1709112427.7259128,-36.62109375,-19.53125,-51.7578125,-34.66796875,-1.0,0.0,-1.0,0.0,4.m4v,8.0
2024-02-28 10:27:07.733724,1709112427.733724,-48.828125,-41.50390625,-37.109375,-48.33984375,-1.0,0.0,-1.0,0.0,4.m4v,8.0
2024-02-28 10:27:07.733724,1709112427.733724,-48.828125,-41.50390625,-37.109375,-48.33984375,-1.0,0.0,-1.0,0.0,4.m4v,8.0
2024-02-28 10:27:07.741536,1709112427.7415357,-42.48046875,-41.50390625,-63.96484375,-51.7578125,-1.0,0.0,-1.0,0.0,4.m4v,8.0
2024-02-28 10:27:07.741536,1709112427.7415357,-42.48046875,-41.50390625,-63.96484375,-51.7578125,-1.0,0.0,-1.0,0.0,4.m4v,8.0
2024-02-28 10:27:07.749347,1709112427.749347,-43.9453125,-42.96875,-30.2734375,-19.53125,-1.0,0.0,-1.0,0.0,4.m4v,8.0
2024-02-28 10:27:07.749347,1709112427.749347,-43.9453125,-42.96875,-30.2734375,-19.53125,-1.0,0.0,-1.0,0.0,4.m4v,8.0
2024-02-28 10:27:07.757159,1709112427.7571585,-27.34375,-32.71484375,-21.484375,-35.15625,-1.0,0.0,-1.0,0.0,4.m4v,8.0
2024-02-28 10:27:07.757159,1709112427.7571585,-27.34375,-32.71484375,-21.484375,-35.15625,-1.0,0.0,-1.0,0.0,4.m4v,8.0
2024-02-28 10:27:07.764973,1709112427.7649734,-20.5078125,-33.69140625,-28.80859375,-32.2265625,-1.0,0.0,-1.0,0.0,4.m4v,8.0
2024-02-28 10:27:07.764973,1709112427.7649734,-20.5078125,-33.69140625,-28.80859375,-32.2265625,-1.0,0.0,-1.0,0.0,4.m4v,8.0
2024-02-28 10:27:07.866528,1709112427.866528,-22.4609375,-41.015625,-36.1328125,-21.484375,-1.0,0.0,-1.0,0.0,4.m4v,8.0
2024-02-28 10:27:07.870434,1709112427.8704338,-18.5546875,-41.9921875,-14.6484375,-35.15625,-1.0,0.0,-1.0,0.0,4.m4v,8.0
2024-02-28 10:27:07.874339,1709112427.874339,-21.484375,-25.87890625,-22.4609375,-41.015625,-1.0,0.0,-1.0,0.0,4.m4v,8.0
2024-02-28 10:27:07.878245,1709112427.878245,-31.73828125,-21.97265625,-36.1328125,-47.36328125,-1.0,0.0,-1.0,0.0,4.m4v,8.0
2024-02-28 10:27:07.882151,1709112427.882151,-27.83203125,-17.578125,-33.69140625,-50.29296875,-1.0,0.0,-1.0,0.0,4.m4v,8.0
2024-02-28 10:27:07.886056,1709112427.8860564,-21.97265625,-8.7890625,-34.66796875,-15.13671875,-1.0,0.0,-1.0,0.0,4.m4v,8.0
2024-02-28 10:27:07.889962,1709112427.8899622,-22.4609375,-12.20703125,-20.01953125,1.46484375,-1.0,0.0,-1.0,0.0,4.m4v,8.0
2024-02-28 10:27:07.893868,1709112427.893868,-26.3671875,-28.3203125,-15.13671875,-29.296875,-1.0,0.0,-1.0,0.0,4.m4v,8.0
2024-02-28 10:27:07.897774,1709112427.8977735,-20.99609375,-28.3203125,-24.4140625,-38.0859375,-1.0,0.0,-1.0,0.0,4.m4v,8.0
2024-02-28 10:27:07.901682,1709112427.901682,-29.78515625,-32.71484375,-26.3671875,-42.96875,-1.0,0.0,-1.0,0.0,4.m4v,8.0
2024-02-28 10:27:07.905588,1709112427.905588,-22.4609375,-44.43359375,-21.484375,-31.73828125,-1.0,0.0,-1.0,0.0,4.m4v,8.0
2024-02-28 10:27:07.909494,1709112427.9094937,-17.578125,-47.36328125,-16.11328125,-20.5078125,-1.0,0.0,-1.0,0.0,4.m4v,8.0
2024-02-28 10:27:07.913399,1709112427.9133992,-28.3203125,-38.0859375,-24.90234375,-18.06640625,-1.0,0.0,-1.0,0.0,4.m4v,8.0
2024-02-28 10:27:07.917305,1709112427.917305,-17.08984375,-20.5078125,-50.78125,-30.2734375,-1.0,0.0,-1.0,0.0,4.m4v,8.0
2024-02-28 10:27:07.921211,1709112427.9212108,-31.25,-19.04296875,-56.640625,-45.41015625,-1.0,0.0,-1.0,0.0,4.m4v,8.0
2024-02-28 10:27:07.925117,1709112427.9251163,-32.71484375,-20.5078125,-34.1796875,-29.78515625,-1.0,0.0,-1.0,0.0,4.m4v,8.0
2024-02-28 10:27:07.929022,1709112427.929022,-33.69140625,-19.04296875,-22.94921875,-31.73828125,-1.0,0.0,-1.0,0.0,4.m4v,8.0
2024-02-28 10:27:07.932928,1709112427.9329278,-39.0625,-26.85546875,-19.04296875,-37.59765625,-1.0,0.0,-1.0,0.0,4.m4v,8.0
2024-02-28 10:27:07.936834,1709112427.9368336,-36.1328125,-34.1796875,-35.15625,-45.8984375,-1.0,0.0,-1.0,0.0,4.m4v,8.0
2024-02-28 10:27:07.940739,1709112427.9407392,-41.015625,-38.57421875,-55.6640625,-59.5703125,-1.0,0.0,-1.0,0.0,4.m4v,8.0
2024-02-28 10:27:07.944645,1709112427.944645,-45.41015625,-44.921875,-41.50390625,-55.6640625,-1.0,0.0,-1.0,0.0,4.m4v,8.0
2024-02-28 10:27:07.948554,1709112427.9485536,-45.8984375,-54.6875,-24.90234375,-50.29296875,-1.0,0.0,-1.0,0.0,4.m4v,8.0
2024-02-28 10:27:07.952459,1709112427.952459,-37.109375,-54.19921875,-20.5078125,-46.875,-1.0,0.0,-1.0,0.0,4.m4v,8.0
2024-02-28 10:27:07.956365,1709112427.9563649,-43.45703125,-48.828125,-22.4609375,-51.7578125,-1.0,0.0,-1.0,0.0,4.m4v,8.0
2024-02-28 10:27:07.960271,1709112427.9602706,-51.7578125,-42.48046875,-42.48046875,-54.6875,-1.0,0.0,-1.0,0.0,4.m4v,8.0
2024-02-28 10:27:07.964176,1709112427.9641764,-45.41015625,-32.2265625,-54.6875,-40.0390625,-1.0,0.0,-1.0,0.0,4.m4v,8.0
2024-02-28 10:27:07.968082,1709112427.968082,-37.59765625,-24.4140625,-47.8515625,-42.48046875,-1.0,0.0,-1.0,0.0,4.m4v,8.0
2024-02-28 10:27:07.971988,1709112427.9719875,-33.203125,-23.92578125,-39.55078125,-55.6640625,-1.0,0.0,-1.0,0.0,4.m4v,8.0
2024-02-28 10:27:07.975893,1709112427.9758935,-38.0859375,-28.80859375,-42.96875,-32.2265625,-1.0,0.0,-1.0,0.0,4.m4v,8.0
2024-02-28 10:27:07.979799,1709112427.979799,-29.78515625,-31.73828125,-35.15625,-10.25390625,-1.0,0.0,-1.0,0.0,4.m4v,8.0
2024-02-28 10:27:07.983705,1709112427.9837048,-19.04296875,-44.43359375,-25.87890625,-10.7421875,-1.0,0.0,-1.0,0.0,4.m4v,8.0
2024-02-28 10:27:07.987611,1709112427.9876106,-29.296875,-45.41015625,-24.90234375,-29.296875,-1.0,0.0,-1.0,0.0,4.m4v,8.0
2024-02-28 10:27:07.991516,1709112427.991516,-60.05859375,-41.50390625,-20.01953125,-42.96875,-1.0,0.0,-1.0,0.0,4.m4v,8.0
2024-02-28 10:27:07.995424,1709112427.9954245,-60.546875,-39.0625,-18.5546875,-55.17578125,-1.0,0.0,-1.0,0.0,4.m4v,8.0
2024-02-28 10:27:07.999330,1709112427.99933,-48.33984375,-39.0625,-23.92578125,-56.640625,-1.0,0.0,-1.0,0.0,4.m4v,8.0
2024-02-28 10:27:08.003236,1709112428.0032358,-49.8046875,-47.36328125,-30.76171875,-53.7109375,-1.0,0.0,-1.0,0.0,4.m4v,8.0
2024-02-28 10:27:08.007141,1709112428.0071414,-45.41015625,-42.48046875,-36.62109375,-59.08203125,-1.0,0.0,-1.0,0.0,4.m4v,8.0
2024-02-28 10:27:08.011047,1709112428.0110471,-35.15625,-41.015625,-38.57421875,-33.203125,-1.0,0.0,-1.0,0.0,4.m4v,8.0
2024-02-28 10:27:08.014953,1709112428.014953,-23.4375,-52.24609375,-33.203125,-21.97265625,-1.0,0.0,-1.0,0.0,4.m4v,8.0
2024-02-28 10:27:08.018858,1709112428.0188584,-27.83203125,-47.8515625,-39.55078125,-33.203125,-1.0,0.0,-1.0,0.0,4.m4v,8.0
2024-02-28 10:27:08.022764,1709112428.0227642,-38.0859375,-36.1328125,-46.38671875,-39.0625,-1.0,0.0,-1.0,0.0,4.m4v,8.0
2024-02-28 10:27:08.026670,1709112428.02667,-37.109375,-25.390625,-42.96875,-35.64453125,-1.0,0.0,-1.0,0.0,4.m4v,8.0
2024-02-28 10:27:08.030576,1709112428.0305758,-44.43359375,-23.4375,-43.9453125,-29.296875,-1.0,0.0,-1.0,0.0,4.m4v,8.0
2024-02-28 10:27:08.034481,1709112428.0344813,-42.96875,-28.80859375,-39.55078125,-47.36328125,-1.0,0.0,-1.0,0.0,4.m4v,8.0
2024-02-28 10:27:08.038387,1709112428.038387,-34.1796875,-31.25,-55.6640625,-55.17578125,-1.0,0.0,-1.0,0.0,4.m4v,8.0
2024-02-28 10:27:08.042295,1709112428.042295,-39.55078125,-10.7421875,-62.01171875,-40.52734375,-1.0,0.0,-1.0,0.0,4.m4v,8.0
2024-02-28 10:27:08.046201,1709112428.0462008,-48.828125,-8.30078125,-37.59765625,-24.4140625,-1.0,0.0,-1.0,0.0,4.m4v,8.0
2024-02-28 10:27:08.050106,1709112428.0501063,-53.7109375,-20.99609375,-27.34375,-37.109375,-1.0,0.0,-1.0,0.0,4.m4v,8.0
2024-02-28 10:27:08.054012,1709112428.054012,-39.55078125,-19.04296875,-21.484375,-36.1328125,-1.0,0.0,-1.0,0.0,4.m4v,8.0
2024-02-28 10:27:08.057918,1709112428.0579178,-43.45703125,-34.66796875,-18.06640625,-46.875,-1.0,0.0,-1.0,0.0,4.m4v,8.0
2024-02-28 10:27:08.061824,1709112428.0618236,-42.96875,-50.29296875,-21.484375,-62.5,-1.0,0.0,-1.0,0.0,4.m4v,8.0
2024-02-28 10:27:08.065729,1709112428.0657291,-44.43359375,-54.19921875,-27.83203125,-50.78125,-1.0,0.0,-1.0,0.0,4.m4v,8.0
2024-02-28 10:27:08.069635,1709112428.069635,-44.43359375,-49.8046875,-31.25,-34.1796875,-1.0,0.0,-1.0,0.0,4.m4v,8.0
2024-02-28 10:27:08.073541,1709112428.0735407,-30.2734375,-36.62109375,-37.59765625,-21.484375,-1.0,0.0,-1.0,0.0,4.m4v,8.0
2024-02-28 10:27:08.077446,1709112428.0774462,-36.62109375,-41.9921875,-50.29296875,-31.73828125,-1.0,0.0,-1.0,0.0,4.m4v,8.0
2024-02-28 10:27:08.081352,1709112428.081352,-34.66796875,-39.0625,-35.15625,-29.296875,-1.0,0.0,-1.0,0.0,4.m4v,8.0
2024-02-28 10:27:08.085258,1709112428.0852578,-35.15625,-30.2734375,-23.92578125,-26.3671875,-1.0,0.0,-1.0,0.0,4.m4v,8.0
2024-02-28 10:27:08.089165,1709112428.0891654,-32.71484375,-27.34375,-47.36328125,-39.0625,-1.0,0.0,-1.0,0.0,4.m4v,8.0
2024-02-28 10:27:08.093071,1709112428.093071,-36.1328125,-24.4140625,-56.15234375,-40.0390625,-1.0,0.0,-1.0,0.0,4.m4v,8.0
2024-02-28 10:27:08.096977,1709112428.0969768,-46.38671875,-27.34375,-47.36328125,-31.73828125,-1.0,0.0,-1.0,0.0,4.m4v,8.0
2024-02-28 10:27:08.100883,1709112428.1008823,-54.6875,-24.4140625,-39.0625,-28.80859375,-1.0,0.0,-1.0,0.0,4.m4v,8.0
2024-02-28 10:27:08.104788,1709112428.104788,-51.26953125,-28.80859375,-31.73828125,-54.19921875,-1.0,0.0,-1.0,0.0,4.m4v,8.0
2024-02-28 10:27:08.108694,1709112428.1086938,-33.69140625,-33.203125,-22.94921875,-49.31640625,-1.0,0.0,-1.0,0.0,4.m4v,8.0
2024-02-28 10:27:08.112600,1709112428.1125996,-25.390625,-39.55078125,-27.34375,-23.4375,-1.0,0.0,-1.0,0.0,4.m4v,8.0
2024-02-28 10:27:08.116505,1709112428.1165054,-40.52734375,-53.7109375,-33.203125,-40.0390625,-1.0,0.0,-1.0,0.0,4.m4v,8.0
2024-02-28 10:27:08.120411,1709112428.120411,-47.36328125,-51.26953125,-17.578125,-52.24609375,-1.0,0.0,-1.0,0.0,4.m4v,8.0
2024-02-28 10:27:08.124317,1709112428.1243167,-44.921875,-40.0390625,-29.78515625,-50.78125,-1.0,0.0,-1.0,0.0,4.m4v,8.0
2024-02-28 10:27:08.128222,1709112428.1282225,-49.8046875,-42.48046875,-55.6640625,-56.640625,-1.0,0.0,-1.0,0.0,4.m4v,8.0
2024-02-28 10:27:08.132128,1709112428.132128,-43.45703125,-48.33984375,-48.33984375,-46.875,-1.0,0.0,-1.0,0.0,4.m4v,8.0
2024-02-28 10:27:08.136037,1709112428.136037,-44.43359375,-36.1328125,-41.015625,-51.7578125,-1.0,0.0,-1.0,0.0,4.m4v,8.0
2024-02-28 10:27:08.139943,1709112428.1399431,-42.96875,-13.18359375,-39.55078125,-61.03515625,-1.0,0.0,-1.0,0.0,4.m4v,8.0
2024-02-28 10:27:08.143849,1709112428.143849,-36.62109375,-4.39453125,-28.80859375,-47.8515625,-1.0,0.0,-1.0,0.0,4.m4v,8.0
2024-02-28 10:27:08.147754,1709112428.1477544,-46.875,-15.625,-22.4609375,-29.78515625,-1.0,0.0,-1.0,0.0,4.m4v,8.0
2024-02-28 10:27:08.151660,1709112428.1516602,-53.22265625,-34.1796875,-32.2265625,-33.203125,-1.0,0.0,-1.0,0.0,4.m4v,8.0
2024-02-28 10:27:08.155566,1709112428.1555655,-50.29296875,-56.15234375,-27.83203125,-38.57421875,-1.0,0.0,-1.0,0.0,4.m4v,8.0
2024-02-28 10:27:08.159472,1709112428.1594715,-26.85546875,-62.01171875,-12.6953125,-34.1796875,-1.0,0.0,-1.0,0.0,4.m4v,8.0
2024-02-28 10:27:08.163377,1709112428.1633773,-31.25,-52.734375,-26.85546875,-35.15625,-1.0,0.0,-1.0,0.0,4.m4v,8.0
2024-02-28 10:27:08.167283,1709112428.1672828,-50.78125,-41.9921875,-41.50390625,-41.50390625,-1.0,0.0,-1.0,0.0,4.m4v,8.0
2024-02-28 10:27:08.171189,1709112428.1711886,-44.921875,-31.25,-52.734375,-44.43359375,-1.0,0.0,-1.0,0.0,4.m4v,8.0
2024-02-28 10:27:08.175094,1709112428.1750944,-46.875,-18.06640625,-51.26953125,-51.26953125,-1.0,0.0,-1.0,0.0,4.m4v,8.0
2024-02-28 10:27:08.179000,1709112428.179,-39.55078125,-23.4375,-39.0625,-48.33984375,-1.0,0.0,-1.0,0.0,4.m4v,8.0
2024-02-28 10:27:08.182909,1709112428.182909,-21.97265625,-28.80859375,-31.25,-23.92578125,-1.0,0.0,-1.0,0.0,4.m4v,8.0
2024-02-28 10:27:08.186815,1709112428.1868148,-23.4375,-11.23046875,-21.484375,-9.27734375,-1.0,0.0,-1.0,0.0,4.m4v,8.0
2024-02-28 10:27:08.190721,1709112428.1907206,-24.90234375,-2.9296875,-27.34375,-17.578125,-1.0,0.0,-1.0,0.0,4.m4v,8.0
2024-02-28 10:27:08.194626,1709112428.194626,-22.4609375,-19.53125,-29.78515625,-32.71484375,-1.0,0.0,-1.0,0.0,4.m4v,8.0
2024-02-28 10:27:08.198532,1709112428.198532,-37.109375,-41.50390625,-40.52734375,-49.31640625,-1.0,0.0,-1.0,0.0,4.m4v,8.0
2024-02-28 10:27:08.202438,1709112428.2024376,-36.1328125,-43.9453125,-50.29296875,-47.36328125,-1.0,0.0,-1.0,0.0,4.m4v,8.0
2024-02-28 10:27:08.206343,1709112428.2063432,-38.0859375,-41.9921875,-30.76171875,-38.57421875,-1.0,0.0,-1.0,0.0,4.m4v,8.0
2024-02-28 10:27:08.210249,1709112428.210249,-44.921875,-51.7578125,-22.94921875,-30.2734375,-1.0,0.0,-1.0,0.0,4.m4v,8.0
2024-02-28 10:27:08.214155,1709112428.2141547,-30.76171875,-55.17578125,-41.9921875,-15.625,-1.0,0.0,-1.0,0.0,4.m4v,8.0
2024-02-28 10:27:08.218060,1709112428.2180605,-26.3671875,-49.8046875,-48.828125,-30.76171875,-1.0,0.0,-1.0,0.0,4.m4v,8.0
2024-02-28 10:27:08.221966,1709112428.221966,-31.73828125,-42.96875,-33.69140625,-45.8984375,-1.0,0.0,-1.0,0.0,4.m4v,8.0
2024-02-28 10:27:08.225872,1709112428.2258718,-44.43359375,-35.15625,-40.52734375,-35.15625,-1.0,0.0,-1.0,0.0,4.m4v,8.0
2024-02-28 10:27:08.229781,1709112428.229781,-33.69140625,-12.6953125,-31.25,-30.2734375,-1.0,0.0,-1.0,0.0,4.m4v,8.0
2024-02-28 10:27:08.233686,1709112428.2336862,-30.2734375,-13.18359375,-15.13671875,-37.109375,-1.0,0.0,-1.0,0.0,4.m4v,8.0
2024-02-28 10:27:08.237592,1709112428.237592,-42.96875,-24.4140625,-36.1328125,-52.734375,-1.0,0.0,-1.0,0.0,4.m4v,8.0
2024-02-28 10:27:08.491475,1709112428.4914749,-41.50390625,-42.48046875,-42.96875,-51.26953125,-1.0,0.0,-1.0,0.0,4.m4v,8.0
2024-02-28 10:27:08.495381,1709112428.4953806,-42.96875,-36.62109375,-41.015625,-52.734375,-1.0,0.0,-1.0,0.0,4.m4v,8.0
2024-02-28 10:27:08.503192,1709112428.5031922,-29.78515625,-39.55078125,-53.22265625,-32.2265625,-1.0,0.0,-1.0,0.0,4.m4v,8.0
2024-02-28 10:27:08.511007,1709112428.511007,-20.5078125,-23.4375,-40.52734375,-24.90234375,-1.0,0.0,-1.0,0.0,4.m4v,8.0
2024-02-28 10:27:08.514913,1709112428.5149126,-23.4375,-29.296875,-38.0859375,-39.55078125,-1.0,0.0,-1.0,0.0,4.m4v,8.0
2024-02-28 10:27:08.522724,1709112428.5227242,-42.96875,-20.01953125,-29.296875,-40.0390625,-1.0,0.0,-1.0,0.0,4.m4v,8.0
2024-02-28 10:27:08.526630,1709112428.52663,-28.80859375,-19.04296875,-27.83203125,-36.1328125,-1.0,0.0,-1.0,0.0,4.m4v,8.0
2024-02-28 10:27:08.534441,1709112428.5344412,-29.296875,-28.80859375,-17.578125,-21.484375,-1.0,0.0,-1.0,0.0,4.m4v,8.0
2024-02-28 10:27:08.542253,1709112428.5422523,-37.59765625,-38.0859375,-43.45703125,-34.1796875,-1.0,0.0,-1.0,0.0,4.m4v,8.0
2024-02-28 10:27:08.546158,1709112428.5461583,-54.6875,-35.64453125,-43.9453125,-58.59375,-1.0,0.0,-1.0,0.0,4.m4v,8.0
2024-02-28 10:27:08.553970,1709112428.5539696,-43.45703125,-28.80859375,-34.66796875,-36.1328125,-1.0,0.0,-1.0,0.0,4.m4v,8.0
2024-02-28 10:27:08.557879,1709112428.5578787,-41.9921875,-28.80859375,-32.2265625,-63.4765625,-1.0,0.0,-1.0,0.0,4.m4v,8.0
2024-02-28 10:27:08.565690,1709112428.56569,-32.2265625,-22.94921875,-39.0625,-41.015625,-1.0,0.0,-1.0,0.0,4.m4v,8.0
2024-02-28 10:27:08.573502,1709112428.5735016,-26.3671875,-44.921875,-49.8046875,-23.92578125,-1.0,0.0,-1.0,0.0,4.m4v,8.0
2024-02-28 10:27:08.577407,1709112428.5774071,-30.2734375,-38.57421875,-47.8515625,-35.64453125,-1.0,0.0,-1.0,0.0,4.m4v,8.0
