Timestamp,Timestamp_UNIX,TP9,AF7,AF8,TP10,Valence,Arousal,Dominace,Viewed,Video,Participant
2024-02-27 11:58:41.060042,1709031521.060042,-2.9296875,-39.55078125,-32.71484375,11.23046875,-1.0,-1.0,1.0,0.0,9.m4v,3.0
2024-02-27 11:58:41.063947,1709031521.0639474,1.953125,-40.0390625,-38.0859375,2.44140625,-1.0,-1.0,1.0,0.0,9.m4v,3.0
2024-02-27 11:58:41.067853,1709031521.0678532,-0.9765625,-45.41015625,-37.109375,3.41796875,-1.0,-1.0,1.0,0.0,9.m4v,3.0
2024-02-27 11:58:41.071763,1709031521.0717628,1.46484375,-54.6875,-28.3203125,14.16015625,-1.0,-1.0,1.0,0.0,9.m4v,3.0
2024-02-27 11:58:41.075668,1709031521.0756683,14.16015625,-45.8984375,-23.4375,23.92578125,-1.0,-1.0,1.0,0.0,9.m4v,3.0
2024-02-27 11:58:41.079574,1709031521.079574,16.6015625,-34.1796875,-20.5078125,16.11328125,-1.0,-1.0,1.0,0.0,9.m4v,3.0
2024-02-27 11:58:41.083480,1709031521.0834796,4.39453125,-20.99609375,-23.4375,-2.9296875,-1.0,-1.0,1.0,0.0,9.m4v,3.0
2024-02-27 11:58:41.087385,1709031521.0873854,-15.625,-22.94921875,-49.31640625,-28.80859375,-1.0,-1.0,1.0,0.0,9.m4v,3.0
2024-02-27 11:58:41.091291,1709031521.0912912,-12.6953125,-20.99609375,-56.15234375,-17.08984375,-1.0,-1.0,1.0,0.0,9.m4v,3.0
2024-02-27 11:58:41.095197,1709031521.0951967,-4.8828125,-6.8359375,-51.7578125,2.44140625,-1.0,-1.0,1.0,0.0,9.m4v,3.0
2024-02-27 11:58:41.099102,1709031521.0991025,-13.671875,-25.390625,-53.7109375,-20.5078125,-1.0,-1.0,1.0,0.0,9.m4v,3.0
2024-02-27 11:58:41.103008,1709031521.103008,-11.23046875,-28.3203125,-44.921875,-27.34375,-1.0,-1.0,1.0,0.0,9.m4v,3.0
2024-02-27 11:58:41.106914,1709031521.1069138,-13.18359375,-18.5546875,-24.4140625,-13.671875,-1.0,-1.0,1.0,0.0,9.m4v,3.0
2024-02-27 11:58:41.110819,1709031521.110819,-22.94921875,-19.04296875,-20.5078125,1.953125,-1.0,-1.0,1.0,0.0,9.m4v,3.0
2024-02-27 11:58:41.114725,1709031521.114725,-15.13671875,-16.6015625,-32.2265625,20.01953125,-1.0,-1.0,1.0,0.0,9.m4v,3.0
2024-02-27 11:58:41.118633,1709031521.1186333,-7.8125,-15.13671875,-27.83203125,21.97265625,-1.0,-1.0,1.0,0.0,9.m4v,3.0
2024-02-27 11:58:41.122539,1709031521.1225388,0.0,-20.5078125,-18.5546875,17.578125,-1.0,-1.0,1.0,0.0,9.m4v,3.0
2024-02-27 11:58:41.126445,1709031521.1264446,2.44140625,-27.34375,-17.08984375,14.16015625,-1.0,-1.0,1.0,0.0,9.m4v,3.0
2024-02-27 11:58:41.130350,1709031521.1303504,2.9296875,-19.53125,-26.85546875,15.625,-1.0,-1.0,1.0,0.0,9.m4v,3.0
2024-02-27 11:58:41.134256,1709031521.134256,3.41796875,-16.11328125,-38.0859375,20.5078125,-1.0,-1.0,1.0,0.0,9.m4v,3.0
2024-02-27 11:58:41.142067,1709031521.1420672,8.7890625,-9.765625,-26.85546875,14.6484375,-1.0,-1.0,1.0,0.0,9.m4v,3.0
2024-02-27 11:58:41.153784,1709031521.1537845,-6.34765625,-33.69140625,-6.34765625,7.32421875,-1.0,-1.0,1.0,0.0,9.m4v,3.0
2024-02-27 11:58:41.161596,1709031521.1615956,-46.38671875,-44.921875,-43.45703125,-46.875,-1.0,-1.0,1.0,0.0,9.m4v,3.0
2024-02-27 11:58:41.173315,1709031521.1733148,-55.17578125,-43.9453125,-30.76171875,-24.4140625,-1.0,-1.0,1.0,0.0,9.m4v,3.0
2024-02-27 11:58:41.181126,1709031521.181126,-37.59765625,-16.6015625,-14.16015625,-14.6484375,-1.0,-1.0,1.0,0.0,9.m4v,3.0
2024-02-27 11:58:41.192843,1709031521.1928432,-60.546875,-43.9453125,-32.2265625,-14.6484375,-1.0,-1.0,1.0,0.0,9.m4v,3.0
2024-02-27 11:58:41.200655,1709031521.2006545,-71.77734375,-38.0859375,-32.71484375,-16.6015625,-1.0,-1.0,1.0,0.0,9.m4v,3.0
2024-02-27 11:58:41.212374,1709031521.212374,-58.10546875,-18.06640625,-42.48046875,-25.390625,-1.0,-1.0,1.0,0.0,9.m4v,3.0
2024-02-27 11:58:41.220185,1709031521.2201853,-29.296875,-35.15625,-20.5078125,-31.73828125,-1.0,-1.0,1.0,0.0,9.m4v,3.0
2024-02-27 11:58:41.231902,1709031521.231902,-49.31640625,-20.5078125,-29.296875,-26.3671875,-1.0,-1.0,1.0,0.0,9.m4v,3.0
2024-02-27 11:58:41.239714,1709031521.2397137,-64.94140625,-24.4140625,-61.03515625,-50.29296875,-1.0,-1.0,1.0,0.0,9.m4v,3.0
2024-02-27 11:58:41.251431,1709031521.2514305,-80.078125,-63.4765625,-50.29296875,-30.2734375,-1.0,-1.0,1.0,0.0,9.m4v,3.0
2024-02-27 11:58:41.259245,1709031521.2592452,-70.80078125,-20.99609375,-16.11328125,-27.83203125,-1.0,-1.0,1.0,0.0,9.m4v,3.0
2024-02-27 11:58:41.270962,1709031521.2709622,-77.63671875,-27.83203125,-20.01953125,-37.109375,-1.0,-1.0,1.0,0.0,9.m4v,3.0
2024-02-27 11:58:41.278774,1709031521.2787735,-77.63671875,-51.26953125,-41.50390625,-47.8515625,-1.0,-1.0,1.0,0.0,9.m4v,3.0
2024-02-27 11:58:41.290491,1709031521.2904906,-47.36328125,-65.4296875,-44.43359375,-28.80859375,-1.0,-1.0,1.0,0.0,9.m4v,3.0
2024-02-27 11:58:41.298302,1709031521.298302,-48.828125,-52.734375,-35.64453125,-46.38671875,-1.0,-1.0,1.0,0.0,9.m4v,3.0
2024-02-27 11:58:41.310023,1709031521.3100233,-51.26953125,-49.8046875,-32.71484375,-47.8515625,-1.0,-1.0,1.0,0.0,9.m4v,3.0
2024-02-27 11:58:41.317835,1709031521.3178346,-49.31640625,-40.0390625,-54.6875,-51.7578125,-1.0,-1.0,1.0,0.0,9.m4v,3.0
2024-02-27 11:58:41.329552,1709031521.3295517,-30.2734375,-13.671875,-19.04296875,-36.62109375,-1.0,-1.0,1.0,0.0,9.m4v,3.0
2024-02-27 11:58:41.337363,1709031521.337363,-35.64453125,-63.4765625,-34.1796875,-38.0859375,-1.0,-1.0,1.0,0.0,9.m4v,3.0
2024-02-27 11:58:41.349080,1709031521.3490798,-62.98828125,-53.22265625,-48.828125,-61.03515625,-1.0,-1.0,1.0,0.0,9.m4v,3.0
2024-02-27 11:58:41.356894,1709031521.3568945,-33.203125,-19.53125,-31.73828125,-37.59765625,-1.0,-1.0,1.0,0.0,9.m4v,3.0
2024-02-27 11:58:41.368611,1709031521.368611,-37.59765625,-30.2734375,-30.76171875,-71.77734375,-1.0,-1.0,1.0,0.0,9.m4v,3.0
2024-02-27 11:58:41.376423,1709031521.3764226,-32.2265625,-18.06640625,-36.62109375,-46.38671875,-1.0,-1.0,1.0,0.0,9.m4v,3.0
2024-02-27 11:58:41.384234,1709031521.384234,-50.29296875,-70.80078125,-65.4296875,-68.359375,-1.0,-1.0,1.0,0.0,9.m4v,3.0
2024-02-27 11:58:41.392045,1709031521.3920453,-37.59765625,-34.66796875,-55.17578125,-38.57421875,-1.0,-1.0,1.0,0.0,9.m4v,3.0
2024-02-27 11:58:41.399859,1709031521.3998594,-57.12890625,-72.265625,-38.57421875,-52.734375,-1.0,-1.0,1.0,0.0,9.m4v,3.0
2024-02-27 11:58:41.407671,1709031521.4076707,-48.828125,-30.76171875,-41.50390625,-33.69140625,-1.0,-1.0,1.0,0.0,9.m4v,3.0
2024-02-27 11:58:41.415482,1709031521.415482,-50.78125,-45.8984375,-42.48046875,-13.18359375,-1.0,-1.0,1.0,0.0,9.m4v,3.0
2024-02-27 11:58:41.423293,1709031521.4232934,-37.109375,-50.29296875,-29.78515625,-22.4609375,-1.0,-1.0,1.0,0.0,9.m4v,3.0
2024-02-27 11:58:41.431105,1709031521.431105,-46.38671875,-75.1953125,-27.34375,-10.7421875,-1.0,-1.0,1.0,0.0,9.m4v,3.0
2024-02-27 11:58:41.438916,1709031521.438916,-94.7265625,-34.66796875,-70.80078125,-31.73828125,-1.0,-1.0,1.0,0.0,9.m4v,3.0
2024-02-27 11:58:41.446730,1709031521.44673,-78.125,13.18359375,-17.578125,-50.78125,-1.0,-1.0,1.0,0.0,9.m4v,3.0
2024-02-27 11:58:41.454541,1709031521.4545414,-68.359375,0.0,-30.76171875,-30.76171875,-1.0,-1.0,1.0,0.0,9.m4v,3.0
2024-02-27 11:58:41.462353,1709031521.4623528,-39.55078125,-21.484375,-41.015625,-34.66796875,-1.0,-1.0,1.0,0.0,9.m4v,3.0
2024-02-27 11:58:41.509223,1709031521.5092232,-43.45703125,-15.13671875,-48.33984375,-19.04296875,-1.0,-1.0,1.0,0.0,9.m4v,3.0
2024-02-27 11:58:41.513129,1709031521.513129,-40.0390625,-11.23046875,-47.8515625,1.953125,-1.0,-1.0,1.0,0.0,9.m4v,3.0
2024-02-27 11:58:41.517035,1709031521.5170343,-49.31640625,-37.59765625,-39.55078125,-14.16015625,-1.0,-1.0,1.0,0.0,9.m4v,3.0
2024-02-27 11:58:41.520940,1709031521.5209403,-44.43359375,-49.31640625,-35.15625,-34.1796875,-1.0,-1.0,1.0,0.0,9.m4v,3.0
2024-02-27 11:58:41.524846,1709031521.524846,-23.4375,-41.50390625,-36.62109375,-24.4140625,-1.0,-1.0,1.0,0.0,9.m4v,3.0
2024-02-27 11:58:41.528752,1709031521.5287516,-24.4140625,-49.8046875,-43.9453125,-28.3203125,-1.0,-1.0,1.0,0.0,9.m4v,3.0
2024-02-27 11:58:41.532657,1709031521.5326574,-33.203125,-62.01171875,-39.55078125,-13.671875,-1.0,-1.0,1.0,0.0,9.m4v,3.0
2024-02-27 11:58:41.536563,1709031521.536563,-37.109375,-60.05859375,-38.0859375,-5.859375,-1.0,-1.0,1.0,0.0,9.m4v,3.0
2024-02-27 11:58:41.540471,1709031521.5404708,-40.52734375,-47.8515625,-37.59765625,-25.87890625,-1.0,-1.0,1.0,0.0,9.m4v,3.0
2024-02-27 11:58:41.544377,1709031521.5443766,-48.33984375,-49.31640625,-31.73828125,-42.96875,-1.0,-1.0,1.0,0.0,9.m4v,3.0
2024-02-27 11:58:41.548282,1709031521.548282,-52.24609375,-40.0390625,-23.92578125,-40.0390625,-1.0,-1.0,1.0,0.0,9.m4v,3.0
2024-02-27 11:58:41.552188,1709031521.552188,-39.0625,-16.11328125,-31.25,-22.4609375,-1.0,-1.0,1.0,0.0,9.m4v,3.0
2024-02-27 11:58:41.556094,1709031521.5560937,-30.76171875,-22.94921875,-49.8046875,-13.18359375,-1.0,-1.0,1.0,0.0,9.m4v,3.0
2024-02-27 11:58:41.559999,1709031521.5599992,-47.36328125,-37.109375,-49.31640625,-50.78125,-1.0,-1.0,1.0,0.0,9.m4v,3.0
2024-02-27 11:58:41.563905,1709031521.563905,-43.45703125,-40.0390625,-35.64453125,-67.3828125,-1.0,-1.0,1.0,0.0,9.m4v,3.0
2024-02-27 11:58:41.567811,1709031521.5678103,-26.85546875,-34.1796875,-26.85546875,-42.48046875,-1.0,-1.0,1.0,0.0,9.m4v,3.0
2024-02-27 11:58:41.571716,1709031521.5717163,-19.53125,-33.203125,-34.1796875,-26.85546875,-1.0,-1.0,1.0,0.0,9.m4v,3.0
2024-02-27 11:58:41.575622,1709031521.5756218,-25.87890625,-41.50390625,-41.9921875,-29.296875,-1.0,-1.0,1.0,0.0,9.m4v,3.0
2024-02-27 11:58:41.579528,1709031521.5795276,-46.38671875,-38.57421875,-40.52734375,-41.9921875,-1.0,-1.0,1.0,0.0,9.m4v,3.0
2024-02-27 11:58:41.583433,1709031521.5834334,-43.45703125,-39.0625,-48.828125,-50.29296875,-1.0,-1.0,1.0,0.0,9.m4v,3.0
2024-02-27 11:58:41.587343,1709031521.5873425,-34.1796875,-31.73828125,-46.875,-42.96875,-1.0,-1.0,1.0,0.0,9.m4v,3.0
2024-02-27 11:58:41.591248,1709031521.591248,-33.203125,-25.390625,-32.71484375,-19.04296875,-1.0,-1.0,1.0,0.0,9.m4v,3.0
2024-02-27 11:58:41.595154,1709031521.5951538,-30.76171875,-26.3671875,-27.34375,-0.48828125,-1.0,-1.0,1.0,0.0,9.m4v,3.0
2024-02-27 11:58:41.599060,1709031521.5990596,-35.15625,-41.50390625,-30.76171875,-23.92578125,-1.0,-1.0,1.0,0.0,9.m4v,3.0
2024-02-27 11:58:41.602965,1709031521.602965,-33.203125,-44.921875,-32.71484375,-37.109375,-1.0,-1.0,1.0,0.0,9.m4v,3.0
2024-02-27 11:58:41.606871,1709031521.606871,-32.71484375,-32.2265625,-35.64453125,-24.90234375,-1.0,-1.0,1.0,0.0,9.m4v,3.0
2024-02-27 11:58:41.610776,1709031521.6107764,-38.57421875,-39.0625,-43.45703125,-20.01953125,-1.0,-1.0,1.0,0.0,9.m4v,3.0
2024-02-27 11:58:41.614682,1709031521.6146822,-35.15625,-49.31640625,-39.55078125,-7.32421875,-1.0,-1.0,1.0,0.0,9.m4v,3.0
2024-02-27 11:58:41.618588,1709031521.6185875,-34.1796875,-52.734375,-30.2734375,-11.71875,-1.0,-1.0,1.0,0.0,9.m4v,3.0
2024-02-27 11:58:41.622494,1709031521.6224935,-33.203125,-52.24609375,-31.73828125,-25.390625,-1.0,-1.0,1.0,0.0,9.m4v,3.0
2024-02-27 11:58:41.626399,1709031521.626399,-38.0859375,-44.921875,-36.1328125,-14.6484375,-1.0,-1.0,1.0,0.0,9.m4v,3.0
2024-02-27 11:58:41.630305,1709031521.6303048,-31.73828125,-42.96875,-26.3671875,11.23046875,-1.0,-1.0,1.0,0.0,9.m4v,3.0
2024-02-27 11:58:41.634214,1709031521.6342137,-26.3671875,-53.7109375,-20.99609375,14.16015625,-1.0,-1.0,1.0,0.0,9.m4v,3.0
2024-02-27 11:58:41.638119,1709031521.6381197,-27.83203125,-62.98828125,-41.9921875,-12.20703125,-1.0,-1.0,1.0,0.0,9.m4v,3.0
2024-02-27 11:58:41.642025,1709031521.642025,-10.7421875,-48.33984375,-28.80859375,-13.671875,-1.0,-1.0,1.0,0.0,9.m4v,3.0
2024-02-27 11:58:41.645931,1709031521.6459308,-3.90625,-40.52734375,-11.71875,-22.94921875,-1.0,-1.0,1.0,0.0,9.m4v,3.0
2024-02-27 11:58:41.649837,1709031521.6498363,-10.25390625,-57.6171875,-28.3203125,-35.15625,-1.0,-1.0,1.0,0.0,9.m4v,3.0
2024-02-27 11:58:41.653742,1709031521.653742,-7.32421875,-43.9453125,-36.62109375,-10.7421875,-1.0,-1.0,1.0,0.0,9.m4v,3.0
2024-02-27 11:58:41.657648,1709031521.6576478,0.48828125,-37.59765625,-38.57421875,-5.859375,-1.0,-1.0,1.0,0.0,9.m4v,3.0
2024-02-27 11:58:41.661553,1709031521.6615534,1.46484375,-63.4765625,-39.55078125,-31.25,-1.0,-1.0,1.0,0.0,9.m4v,3.0
2024-02-27 11:58:41.665459,1709031521.6654592,-2.44140625,-77.1484375,-37.109375,-36.62109375,-1.0,-1.0,1.0,0.0,9.m4v,3.0
2024-02-27 11:58:41.669365,1709031521.6693647,-7.8125,-79.58984375,-40.52734375,-20.99609375,-1.0,-1.0,1.0,0.0,9.m4v,3.0
2024-02-27 11:58:41.673270,1709031521.6732705,-9.765625,-62.01171875,-36.1328125,-10.7421875,-1.0,-1.0,1.0,0.0,9.m4v,3.0
2024-02-27 11:58:41.677176,1709031521.677176,-4.8828125,-40.0390625,-27.83203125,-10.25390625,-1.0,-1.0,1.0,0.0,9.m4v,3.0
2024-02-27 11:58:41.681085,1709031521.6810849,-5.37109375,-35.64453125,-34.1796875,-18.5546875,-1.0,-1.0,1.0,0.0,9.m4v,3.0
2024-02-27 11:58:41.684991,1709031521.6849906,-6.8359375,-41.015625,-40.0390625,-11.71875,-1.0,-1.0,1.0,0.0,9.m4v,3.0
2024-02-27 11:58:41.688896,1709031521.6888962,-1.46484375,-31.25,-27.83203125,11.71875,-1.0,-1.0,1.0,0.0,9.m4v,3.0
2024-02-27 11:58:41.692802,1709031521.692802,-1.953125,-35.15625,-14.6484375,26.3671875,-1.0,-1.0,1.0,0.0,9.m4v,3.0
2024-02-27 11:58:41.696707,1709031521.6967075,3.41796875,-51.7578125,-13.18359375,27.34375,-1.0,-1.0,1.0,0.0,9.m4v,3.0
2024-02-27 11:58:41.700613,1709031521.7006133,11.23046875,-35.64453125,-21.484375,9.27734375,-1.0,-1.0,1.0,0.0,9.m4v,3.0
2024-02-27 11:58:41.739673,1709031521.739673,-55.17578125,-49.31640625,-23.4375,-34.66796875,-1.0,-1.0,1.0,0.0,9.m4v,3.0
2024-02-27 11:58:41.743578,1709031521.7435784,-59.5703125,-55.6640625,-25.87890625,-47.36328125,-1.0,-1.0,1.0,0.0,9.m4v,3.0
2024-02-27 11:58:41.747484,1709031521.747484,-57.12890625,-40.0390625,-20.5078125,-37.59765625,-1.0,-1.0,1.0,0.0,9.m4v,3.0
2024-02-27 11:58:41.751390,1709031521.7513895,-54.6875,-44.43359375,-16.11328125,-22.4609375,-1.0,-1.0,1.0,0.0,9.m4v,3.0
2024-02-27 11:58:41.755296,1709031521.7552955,-59.08203125,-59.08203125,-14.16015625,-20.5078125,-1.0,-1.0,1.0,0.0,9.m4v,3.0
2024-02-27 11:58:41.833414,1709031521.8334143,-129.39453125,-41.015625,-20.99609375,-77.1484375,-1.0,-1.0,1.0,0.0,9.m4v,3.0
2024-02-27 11:58:41.837320,1709031521.83732,-108.3984375,-36.1328125,-2.9296875,-77.1484375,-1.0,-1.0,1.0,0.0,9.m4v,3.0
2024-02-27 11:58:41.841226,1709031521.8412256,-99.609375,-26.85546875,5.859375,-82.03125,-1.0,-1.0,1.0,0.0,9.m4v,3.0
2024-02-27 11:58:41.845131,1709031521.8451312,-77.1484375,-23.4375,-7.32421875,-89.35546875,-1.0,-1.0,1.0,0.0,9.m4v,3.0
2024-02-27 11:58:41.849037,1709031521.849037,-72.75390625,-20.5078125,-17.578125,-82.03125,-1.0,-1.0,1.0,0.0,9.m4v,3.0
2024-02-27 11:58:41.852942,1709031521.8529425,-70.3125,-6.8359375,-27.83203125,-63.4765625,-1.0,-1.0,1.0,0.0,9.m4v,3.0
2024-02-27 11:58:41.856848,1709031521.8568482,-64.94140625,-1.46484375,-45.41015625,-65.4296875,-1.0,-1.0,1.0,0.0,9.m4v,3.0
2024-02-27 11:58:41.860754,1709031521.860754,-54.19921875,11.71875,-43.9453125,-70.80078125,-1.0,-1.0,1.0,0.0,9.m4v,3.0
2024-02-27 11:58:41.864660,1709031521.8646595,-34.1796875,16.11328125,-38.0859375,-59.08203125,-1.0,-1.0,1.0,0.0,9.m4v,3.0
2024-02-27 11:58:41.868568,1709031521.8685684,-19.53125,15.13671875,-35.15625,-33.203125,-1.0,-1.0,1.0,0.0,9.m4v,3.0
2024-02-27 11:58:41.872474,1709031521.872474,0.48828125,0.0,-25.87890625,-5.859375,-1.0,-1.0,1.0,0.0,9.m4v,3.0
2024-02-27 11:58:41.876380,1709031521.8763795,10.25390625,-16.11328125,-3.90625,-5.37109375,-1.0,-1.0,1.0,0.0,9.m4v,3.0
2024-02-27 11:58:41.880285,1709031521.8802853,-1.46484375,-13.671875,1.953125,-22.4609375,-1.0,-1.0,1.0,0.0,9.m4v,3.0
2024-02-27 11:58:41.884191,1709031521.884191,-24.90234375,-7.32421875,-18.5546875,-21.484375,-1.0,-1.0,1.0,0.0,9.m4v,3.0
2024-02-27 11:58:41.888097,1709031521.8880966,-3.90625,16.6015625,-23.4375,14.6484375,-1.0,-1.0,1.0,0.0,9.m4v,3.0
2024-02-27 11:58:41.892002,1709031521.8920023,26.85546875,17.08984375,-16.11328125,57.12890625,-1.0,-1.0,1.0,0.0,9.m4v,3.0
2024-02-27 11:58:41.895908,1709031521.895908,5.859375,-20.01953125,-27.83203125,52.24609375,-1.0,-1.0,1.0,0.0,9.m4v,3.0
2024-02-27 11:58:41.899814,1709031521.8998137,-20.01953125,-32.2265625,-28.80859375,28.3203125,-1.0,-1.0,1.0,0.0,9.m4v,3.0
2024-02-27 11:58:41.903719,1709031521.9037194,-23.92578125,-21.97265625,-22.4609375,31.73828125,-1.0,-1.0,1.0,0.0,9.m4v,3.0
2024-02-27 11:58:41.907625,1709031521.907625,2.44140625,-24.90234375,-39.0625,49.31640625,-1.0,-1.0,1.0,0.0,9.m4v,3.0
2024-02-27 11:58:41.911531,1709031521.9115307,22.94921875,-20.01953125,-45.41015625,68.359375,-1.0,-1.0,1.0,0.0,9.m4v,3.0
2024-02-27 11:58:41.915439,1709031521.915439,7.8125,3.41796875,-50.29296875,60.05859375,-1.0,-1.0,1.0,0.0,9.m4v,3.0
2024-02-27 11:58:41.919344,1709031521.9193444,-18.5546875,12.20703125,-50.29296875,23.92578125,-1.0,-1.0,1.0,0.0,9.m4v,3.0
2024-02-27 11:58:41.923250,1709031521.92325,-16.11328125,7.32421875,-34.1796875,14.16015625,-1.0,-1.0,1.0,0.0,9.m4v,3.0
2024-02-27 11:58:41.927156,1709031521.9271555,-20.99609375,2.44140625,-24.4140625,16.6015625,-1.0,-1.0,1.0,0.0,9.m4v,3.0
2024-02-27 11:58:41.931061,1709031521.9310613,-15.13671875,15.13671875,-35.64453125,23.4375,-1.0,-1.0,1.0,0.0,9.m4v,3.0
2024-02-27 11:58:41.934967,1709031521.934967,11.71875,24.4140625,-39.0625,41.9921875,-1.0,-1.0,1.0,0.0,9.m4v,3.0
2024-02-27 11:58:41.950590,1709031521.9505897,42.96875,-20.01953125,-53.7109375,23.4375,-1.0,-1.0,1.0,0.0,9.m4v,3.0
2024-02-27 11:58:41.954495,1709031521.9544954,56.15234375,-12.20703125,-53.7109375,55.17578125,-1.0,-1.0,1.0,0.0,9.m4v,3.0
2024-02-27 11:58:41.958401,1709031521.958401,79.58984375,-6.34765625,-38.0859375,40.52734375,-1.0,-1.0,1.0,0.0,9.m4v,3.0
2024-02-27 11:58:41.962310,1709031521.96231,79.58984375,-14.6484375,-30.2734375,15.625,-1.0,-1.0,1.0,0.0,9.m4v,3.0
2024-02-27 11:58:41.966216,1709031521.9662158,51.26953125,-9.765625,-46.38671875,-7.8125,-1.0,-1.0,1.0,0.0,9.m4v,3.0
2024-02-27 11:58:41.970121,1709031521.9701214,35.64453125,4.39453125,-53.7109375,-11.23046875,-1.0,-1.0,1.0,0.0,9.m4v,3.0
2024-02-27 11:58:41.974027,1709031521.9740272,48.33984375,0.0,-42.96875,1.953125,-1.0,-1.0,1.0,0.0,9.m4v,3.0
2024-02-27 11:58:41.977933,1709031521.9779327,47.8515625,-11.71875,-52.24609375,-6.34765625,-1.0,-1.0,1.0,0.0,9.m4v,3.0
2024-02-27 11:58:41.981838,1709031521.9818385,32.71484375,-25.390625,-57.12890625,-12.20703125,-1.0,-1.0,1.0,0.0,9.m4v,3.0
2024-02-27 11:58:41.985744,1709031521.985744,35.64453125,-26.85546875,-38.0859375,4.8828125,-1.0,-1.0,1.0,0.0,9.m4v,3.0
2024-02-27 11:58:41.989650,1709031521.9896498,34.1796875,0.0,-40.0390625,25.390625,-1.0,-1.0,1.0,0.0,9.m4v,3.0
2024-02-27 11:58:41.993556,1709031521.9935555,34.66796875,14.6484375,-38.57421875,61.5234375,-1.0,-1.0,1.0,0.0,9.m4v,3.0
2024-02-27 11:58:41.997461,1709031521.997461,26.85546875,-7.32421875,-48.33984375,57.12890625,-1.0,-1.0,1.0,0.0,9.m4v,3.0
2024-02-27 11:58:42.001367,1709031522.0013669,18.5546875,-20.01953125,-54.19921875,24.90234375,-1.0,-1.0,1.0,0.0,9.m4v,3.0
2024-02-27 11:58:42.005272,1709031522.0052724,13.671875,-19.53125,-47.36328125,12.20703125,-1.0,-1.0,1.0,0.0,9.m4v,3.0
2024-02-27 11:58:42.009181,1709031522.0091813,23.4375,-14.16015625,-41.015625,25.390625,-1.0,-1.0,1.0,0.0,9.m4v,3.0
2024-02-27 11:58:42.161514,1709031522.1615138,2.44140625,-43.45703125,-22.4609375,-11.71875,-1.0,-1.0,1.0,0.0,9.m4v,3.0
2024-02-27 11:58:42.165420,1709031522.1654196,-18.06640625,-38.0859375,-25.87890625,-33.69140625,-1.0,-1.0,1.0,0.0,9.m4v,3.0
2024-02-27 11:58:42.169325,1709031522.169325,-45.8984375,-29.296875,-31.25,-29.78515625,-1.0,-1.0,1.0,0.0,9.m4v,3.0
2024-02-27 11:58:42.173231,1709031522.173231,-32.2265625,-25.390625,-29.296875,3.90625,-1.0,-1.0,1.0,0.0,9.m4v,3.0
2024-02-27 11:58:42.177136,1709031522.1771364,-14.16015625,-50.29296875,-28.80859375,1.46484375,-1.0,-1.0,1.0,0.0,9.m4v,3.0
2024-02-27 11:58:42.181042,1709031522.1810422,-17.08984375,-61.03515625,-45.41015625,-32.71484375,-1.0,-1.0,1.0,0.0,9.m4v,3.0
2024-02-27 11:58:42.184948,1709031522.1849475,-23.4375,-62.5,-60.05859375,-26.85546875,-1.0,-1.0,1.0,0.0,9.m4v,3.0
2024-02-27 11:58:42.188854,1709031522.1888535,-15.625,-54.19921875,-38.57421875,4.39453125,-1.0,-1.0,1.0,0.0,9.m4v,3.0
2024-02-27 11:58:42.192759,1709031522.1927593,-14.6484375,-41.015625,-2.44140625,14.6484375,-1.0,-1.0,1.0,0.0,9.m4v,3.0
2024-02-27 11:58:42.196667,1709031522.1966674,-17.578125,-31.73828125,-1.953125,-2.44140625,-1.0,-1.0,1.0,0.0,9.m4v,3.0
2024-02-27 11:58:42.200573,1709031522.2005732,-27.34375,-40.0390625,-35.64453125,-31.25,-1.0,-1.0,1.0,0.0,9.m4v,3.0
2024-02-27 11:58:42.204479,1709031522.2044787,-35.15625,-41.015625,-58.10546875,-53.7109375,-1.0,-1.0,1.0,0.0,9.m4v,3.0
2024-02-27 11:58:42.208385,1709031522.2083845,-33.203125,-40.52734375,-40.0390625,-44.921875,-1.0,-1.0,1.0,0.0,9.m4v,3.0
2024-02-27 11:58:42.212290,1709031522.21229,-28.80859375,-39.0625,-21.484375,-10.25390625,-1.0,-1.0,1.0,0.0,9.m4v,3.0
2024-02-27 11:58:42.216196,1709031522.2161958,-37.109375,-35.15625,-31.73828125,-6.8359375,-1.0,-1.0,1.0,0.0,9.m4v,3.0
2024-02-27 11:58:42.220101,1709031522.2201014,-38.57421875,-50.29296875,-36.1328125,-42.96875,-1.0,-1.0,1.0,0.0,9.m4v,3.0
2024-02-27 11:58:42.224007,1709031522.2240071,-39.55078125,-65.4296875,-44.921875,-71.77734375,-1.0,-1.0,1.0,0.0,9.m4v,3.0
2024-02-27 11:58:42.227913,1709031522.227913,-39.55078125,-46.38671875,-53.7109375,-60.05859375,-1.0,-1.0,1.0,0.0,9.m4v,3.0
2024-02-27 11:58:42.231818,1709031522.2318184,-21.97265625,-28.80859375,-43.45703125,-33.203125,-1.0,-1.0,1.0,0.0,9.m4v,3.0
2024-02-27 11:58:42.235724,1709031522.2357242,-10.7421875,-52.24609375,-24.4140625,-26.85546875,-1.0,-1.0,1.0,0.0,9.m4v,3.0
2024-02-27 11:58:42.239630,1709031522.2396295,-12.6953125,-61.03515625,-18.5546875,-35.64453125,-1.0,-1.0,1.0,0.0,9.m4v,3.0
2024-02-27 11:58:42.243538,1709031522.243538,-33.203125,-54.19921875,-28.80859375,-44.43359375,-1.0,-1.0,1.0,0.0,9.m4v,3.0
2024-02-27 11:58:42.247444,1709031522.2474437,-45.8984375,-81.0546875,-30.76171875,-37.59765625,-1.0,-1.0,1.0,0.0,9.m4v,3.0
2024-02-27 11:58:42.251349,1709031522.2513492,-10.25390625,-83.0078125,-13.18359375,-0.48828125,-1.0,-1.0,1.0,0.0,9.m4v,3.0
2024-02-27 11:58:42.255255,1709031522.255255,-14.6484375,-44.921875,-22.94921875,3.90625,-1.0,-1.0,1.0,0.0,9.m4v,3.0
2024-02-27 11:58:42.259161,1709031522.2591605,-49.8046875,-38.57421875,-52.734375,-34.66796875,-1.0,-1.0,1.0,0.0,9.m4v,3.0
2024-02-27 11:58:42.263066,1709031522.2630663,-67.87109375,-42.48046875,-50.29296875,-52.24609375,-1.0,-1.0,1.0,0.0,9.m4v,3.0
2024-02-27 11:58:42.266972,1709031522.266972,-79.1015625,-40.52734375,-41.9921875,-61.5234375,-1.0,-1.0,1.0,0.0,9.m4v,3.0
2024-02-27 11:58:42.270878,1709031522.2708776,-80.078125,-55.17578125,-40.52734375,-64.453125,-1.0,-1.0,1.0,0.0,9.m4v,3.0
2024-02-27 11:58:42.274783,1709031522.2747834,-73.73046875,-47.8515625,-26.3671875,-54.19921875,-1.0,-1.0,1.0,0.0,9.m4v,3.0
2024-02-27 11:58:42.278689,1709031522.278689,-68.84765625,-40.52734375,-27.34375,-67.87109375,-1.0,-1.0,1.0,0.0,9.m4v,3.0
2024-02-27 11:58:42.282595,1709031522.282595,-60.05859375,-58.10546875,-36.62109375,-71.77734375,-1.0,-1.0,1.0,0.0,9.m4v,3.0
2024-02-27 11:58:42.294314,1709031522.294314,-34.1796875,-29.78515625,-37.59765625,-20.5078125,-1.0,-1.0,1.0,0.0,9.m4v,3.0
2024-02-27 11:58:42.298220,1709031522.2982197,-38.0859375,-29.78515625,-38.0859375,-42.48046875,-1.0,-1.0,1.0,0.0,9.m4v,3.0
2024-02-27 11:58:42.302125,1709031522.3021257,-37.109375,-41.9921875,-27.83203125,-46.38671875,-1.0,-1.0,1.0,0.0,9.m4v,3.0
2024-02-27 11:58:42.306031,1709031522.306031,-34.1796875,-42.96875,-31.73828125,-51.7578125,-1.0,-1.0,1.0,0.0,9.m4v,3.0
2024-02-27 11:58:42.309937,1709031522.3099368,-24.4140625,-34.1796875,-43.9453125,-32.2265625,-1.0,-1.0,1.0,0.0,9.m4v,3.0
2024-02-27 11:58:42.313842,1709031522.3138423,-17.578125,-37.59765625,-35.15625,-0.9765625,-1.0,-1.0,1.0,0.0,9.m4v,3.0
2024-02-27 11:58:42.317748,1709031522.317748,-34.66796875,-50.78125,-28.80859375,-28.80859375,-1.0,-1.0,1.0,0.0,9.m4v,3.0
2024-02-27 11:58:42.321654,1709031522.3216536,-60.546875,-64.94140625,-44.921875,-62.98828125,-1.0,-1.0,1.0,0.0,9.m4v,3.0
2024-02-27 11:58:42.325559,1709031522.3255594,-84.9609375,-80.078125,-49.8046875,-62.01171875,-1.0,-1.0,1.0,0.0,9.m4v,3.0
2024-02-27 11:58:42.329465,1709031522.329465,-92.28515625,-91.30859375,-38.0859375,-48.828125,-1.0,-1.0,1.0,0.0,9.m4v,3.0
2024-02-27 11:58:42.333371,1709031522.3333707,-70.80078125,-65.4296875,-36.1328125,-31.73828125,-1.0,-1.0,1.0,0.0,9.m4v,3.0
2024-02-27 11:58:42.337280,1709031522.3372798,-57.6171875,-29.296875,-29.78515625,-29.78515625,-1.0,-1.0,1.0,0.0,9.m4v,3.0
2024-02-27 11:58:42.341186,1709031522.3411856,-55.17578125,-24.4140625,-36.62109375,-55.6640625,-1.0,-1.0,1.0,0.0,9.m4v,3.0
2024-02-27 11:58:42.345091,1709031522.345091,-59.08203125,-43.9453125,-55.6640625,-69.82421875,-1.0,-1.0,1.0,0.0,9.m4v,3.0
2024-02-27 11:58:42.348997,1709031522.3489969,-44.43359375,-35.64453125,-48.828125,-49.8046875,-1.0,-1.0,1.0,0.0,9.m4v,3.0
2024-02-27 11:58:42.352902,1709031522.3529024,-35.64453125,-20.99609375,-53.7109375,-36.1328125,-1.0,-1.0,1.0,0.0,9.m4v,3.0
2024-02-27 11:58:42.356808,1709031522.3568082,-41.015625,-44.921875,-59.5703125,-32.2265625,-1.0,-1.0,1.0,0.0,9.m4v,3.0
2024-02-27 11:58:42.360714,1709031522.3607135,-46.38671875,-63.4765625,-42.48046875,-44.43359375,-1.0,-1.0,1.0,0.0,9.m4v,3.0
2024-02-27 11:58:42.364619,1709031522.3646195,-40.52734375,-41.9921875,-25.87890625,-51.26953125,-1.0,-1.0,1.0,0.0,9.m4v,3.0
2024-02-27 11:58:42.368525,1709031522.3685253,-40.52734375,-29.296875,-34.66796875,-43.45703125,-1.0,-1.0,1.0,0.0,9.m4v,3.0
2024-02-27 11:58:42.372431,1709031522.3724308,-47.36328125,-28.3203125,-43.45703125,-36.1328125,-1.0,-1.0,1.0,0.0,9.m4v,3.0
2024-02-27 11:58:42.376337,1709031522.3763366,-46.38671875,-10.7421875,-19.53125,-23.4375,-1.0,-1.0,1.0,0.0,9.m4v,3.0
2024-02-27 11:58:42.380242,1709031522.380242,-37.59765625,-10.25390625,-9.27734375,-20.5078125,-1.0,-1.0,1.0,0.0,9.m4v,3.0
2024-02-27 11:58:42.384151,1709031522.384151,-49.8046875,-38.0859375,-22.4609375,-36.1328125,-1.0,-1.0,1.0,0.0,9.m4v,3.0
2024-02-27 11:58:42.388057,1709031522.3880568,-52.24609375,-48.33984375,-35.64453125,-33.203125,-1.0,-1.0,1.0,0.0,9.m4v,3.0
2024-02-27 11:58:42.391963,1709031522.3919623,-39.0625,-36.1328125,-51.7578125,-26.85546875,-1.0,-1.0,1.0,0.0,9.m4v,3.0
2024-02-27 11:58:42.391963,1709031522.3919623,-39.0625,-36.1328125,-51.7578125,-26.85546875,-1.0,-1.0,1.0,0.0,9.m4v,3.0
2024-02-27 11:58:42.395868,1709031522.395868,-57.6171875,-39.55078125,-55.17578125,-51.26953125,-1.0,-1.0,1.0,0.0,9.m4v,3.0
2024-02-27 11:58:42.395868,1709031522.395868,-57.6171875,-39.55078125,-55.17578125,-51.26953125,-1.0,-1.0,1.0,0.0,9.m4v,3.0
2024-02-27 11:58:42.399774,1709031522.3997738,-65.4296875,-41.50390625,-41.015625,-73.73046875,-1.0,-1.0,1.0,0.0,9.m4v,3.0
2024-02-27 11:58:42.399774,1709031522.3997738,-65.4296875,-41.50390625,-41.015625,-73.73046875,-1.0,-1.0,1.0,0.0,9.m4v,3.0
2024-02-27 11:58:42.403679,1709031522.4036794,-45.8984375,-24.4140625,-33.69140625,-55.6640625,-1.0,-1.0,1.0,0.0,9.m4v,3.0
2024-02-27 11:58:42.403679,1709031522.4036794,-45.8984375,-24.4140625,-33.69140625,-55.6640625,-1.0,-1.0,1.0,0.0,9.m4v,3.0
2024-02-27 11:58:42.411491,1709031522.411491,-56.640625,-40.0390625,-53.22265625,-36.1328125,-1.0,-1.0,1.0,0.0,9.m4v,3.0
2024-02-27 11:58:42.411491,1709031522.411491,-56.640625,-40.0390625,-53.22265625,-36.1328125,-1.0,-1.0,1.0,0.0,9.m4v,3.0
2024-02-27 11:58:42.423208,1709031522.4232078,-45.41015625,-30.76171875,-25.390625,-67.87109375,-1.0,-1.0,1.0,0.0,9.m4v,3.0
2024-02-27 11:58:42.423208,1709031522.4232078,-45.41015625,-30.76171875,-25.390625,-67.87109375,-1.0,-1.0,1.0,0.0,9.m4v,3.0
2024-02-27 11:58:42.434928,1709031522.434928,-58.59375,-73.73046875,-20.99609375,-24.4140625,-1.0,-1.0,1.0,0.0,9.m4v,3.0
2024-02-27 11:58:42.438833,1709031522.4388337,-65.91796875,-54.6875,-19.04296875,-38.57421875,-1.0,-1.0,1.0,0.0,9.m4v,3.0
2024-02-27 11:58:42.442739,1709031522.4427392,-82.03125,-28.3203125,-45.41015625,-58.10546875,-1.0,-1.0,1.0,0.0,9.m4v,3.0
2024-02-27 11:58:42.446645,1709031522.4466448,-77.1484375,-18.5546875,-45.8984375,-63.4765625,-1.0,-1.0,1.0,0.0,9.m4v,3.0
2024-02-27 11:58:42.450551,1709031522.4505506,-55.6640625,6.34765625,-34.1796875,-46.875,-1.0,-1.0,1.0,0.0,9.m4v,3.0
2024-02-27 11:58:42.454456,1709031522.454456,-35.64453125,-11.23046875,-30.2734375,-32.2265625,-1.0,-1.0,1.0,0.0,9.m4v,3.0
2024-02-27 11:58:42.458362,1709031522.458362,-57.6171875,-51.26953125,-39.0625,-55.6640625,-1.0,-1.0,1.0,0.0,9.m4v,3.0
2024-02-27 11:58:42.462268,1709031522.4622676,-73.2421875,-56.15234375,-40.0390625,-62.5,-1.0,-1.0,1.0,0.0,9.m4v,3.0
2024-02-27 11:58:42.466173,1709031522.4661732,-62.98828125,-42.48046875,-37.109375,-56.15234375,-1.0,-1.0,1.0,0.0,9.m4v,3.0
2024-02-27 11:58:42.470079,1709031522.470079,-51.26953125,-21.97265625,-28.3203125,-39.0625,-1.0,-1.0,1.0,0.0,9.m4v,3.0
2024-02-27 11:58:42.473984,1709031522.4739845,-13.18359375,-27.34375,-20.99609375,-15.13671875,-1.0,-1.0,1.0,0.0,9.m4v,3.0
2024-02-27 11:58:42.477893,1709031522.477893,-15.13671875,-62.01171875,-27.83203125,-27.34375,-1.0,-1.0,1.0,0.0,9.m4v,3.0
2024-02-27 11:58:42.481799,1709031522.481799,-40.0390625,-63.96484375,-37.109375,-46.38671875,-1.0,-1.0,1.0,0.0,9.m4v,3.0
2024-02-27 11:58:42.485704,1709031522.4857044,-54.6875,-46.38671875,-47.36328125,-47.8515625,-1.0,-1.0,1.0,0.0,9.m4v,3.0
2024-02-27 11:58:42.489610,1709031522.4896102,-67.3828125,-47.8515625,-52.24609375,-51.26953125,-1.0,-1.0,1.0,0.0,9.m4v,3.0
2024-02-27 11:58:42.493516,1709031522.4935155,-55.17578125,-45.41015625,-44.921875,-50.29296875,-1.0,-1.0,1.0,0.0,9.m4v,3.0
2024-02-27 11:58:42.497422,1709031522.4974215,-41.9921875,-36.1328125,-28.3203125,-44.921875,-1.0,-1.0,1.0,0.0,9.m4v,3.0
2024-02-27 11:58:42.501327,1709031522.5013273,-18.06640625,-41.50390625,-23.4375,-48.33984375,-1.0,-1.0,1.0,0.0,9.m4v,3.0
2024-02-27 11:58:42.505233,1709031522.5052328,-10.25390625,-55.17578125,-25.87890625,-58.10546875,-1.0,-1.0,1.0,0.0,9.m4v,3.0
2024-02-27 11:58:42.509139,1709031522.5091386,-52.24609375,-76.66015625,-23.4375,-45.41015625,-1.0,-1.0,1.0,0.0,9.m4v,3.0
2024-02-27 11:58:42.513044,1709031522.513044,-48.33984375,-71.77734375,-36.62109375,-39.0625,-1.0,-1.0,1.0,0.0,9.m4v,3.0
2024-02-27 11:58:42.704433,1709031522.7044334,140.625,-6.34765625,-41.9921875,-54.6875,-1.0,-1.0,1.0,0.0,9.m4v,3.0
2024-02-27 11:58:42.708339,1709031522.7083392,159.1796875,-24.90234375,-47.36328125,-31.73828125,-1.0,-1.0,1.0,0.0,9.m4v,3.0
2024-02-27 11:58:42.712248,1709031522.7122483,156.73828125,-27.83203125,-24.90234375,-14.6484375,-1.0,-1.0,1.0,0.0,9.m4v,3.0
2024-02-27 11:58:42.716154,1709031522.716154,144.04296875,-14.6484375,-14.6484375,-14.6484375,-1.0,-1.0,1.0,0.0,9.m4v,3.0
2024-02-27 11:58:42.720060,1709031522.7200596,124.51171875,-8.30078125,-29.296875,-33.203125,-1.0,-1.0,1.0,0.0,9.m4v,3.0
2024-02-27 11:58:42.723965,1709031522.7239652,142.08984375,-8.7890625,-41.50390625,-44.43359375,-1.0,-1.0,1.0,0.0,9.m4v,3.0
2024-02-27 11:58:42.727871,1709031522.727871,136.71875,-11.71875,-36.1328125,-40.52734375,-1.0,-1.0,1.0,0.0,9.m4v,3.0
2024-02-27 11:58:42.731777,1709031522.7317767,133.30078125,-14.16015625,-25.390625,-24.90234375,-1.0,-1.0,1.0,0.0,9.m4v,3.0
2024-02-27 11:58:42.731777,1709031522.7317767,133.30078125,-14.16015625,-25.390625,-24.90234375,-1.0,-1.0,1.0,0.0,9.m4v,3.0
2024-02-27 11:58:42.735682,1709031522.7356822,181.15234375,-16.6015625,-27.34375,-7.8125,-1.0,-1.0,1.0,0.0,9.m4v,3.0
2024-02-27 11:58:42.735682,1709031522.7356822,181.15234375,-16.6015625,-27.34375,-7.8125,-1.0,-1.0,1.0,0.0,9.m4v,3.0
2024-02-27 11:58:42.837236,1709031522.837236,187.01171875,-19.04296875,-42.48046875,20.5078125,-1.0,-1.0,1.0,0.0,9.m4v,3.0
2024-02-27 11:58:42.845047,1709031522.8450472,223.14453125,-36.62109375,-42.48046875,22.4609375,-1.0,-1.0,1.0,0.0,9.m4v,3.0
2024-02-27 11:58:42.852862,1709031522.8528616,179.19921875,-8.30078125,-48.828125,20.99609375,-1.0,-1.0,1.0,0.0,9.m4v,3.0
2024-02-27 11:58:42.860673,1709031522.860673,234.86328125,-6.34765625,-13.18359375,35.15625,-1.0,-1.0,1.0,0.0,9.m4v,3.0
2024-02-27 11:58:42.868484,1709031522.8684845,245.60546875,2.9296875,-39.0625,53.7109375,-1.0,-1.0,1.0,0.0,9.m4v,3.0
2024-02-27 11:58:42.876296,1709031522.8762956,257.8125,-17.08984375,-22.4609375,81.54296875,-1.0,-1.0,1.0,0.0,9.m4v,3.0
2024-02-27 11:58:42.884107,1709031522.8841069,246.58203125,-18.06640625,-36.1328125,66.89453125,-1.0,-1.0,1.0,0.0,9.m4v,3.0
2024-02-27 11:58:42.891918,1709031522.8919182,253.90625,-5.37109375,-54.6875,89.84375,-1.0,-1.0,1.0,0.0,9.m4v,3.0
2024-02-27 11:58:42.899732,1709031522.8997324,264.6484375,-19.53125,-26.3671875,88.8671875,-1.0,-1.0,1.0,0.0,9.m4v,3.0
2024-02-27 11:58:42.907544,1709031522.9075437,267.578125,-26.85546875,-28.80859375,103.515625,-1.0,-1.0,1.0,0.0,9.m4v,3.0
2024-02-27 11:58:42.915355,1709031522.9153552,233.3984375,-4.8828125,-43.9453125,62.01171875,-1.0,-1.0,1.0,0.0,9.m4v,3.0
2024-02-27 11:58:42.923167,1709031522.9231665,267.08984375,8.7890625,-29.296875,59.5703125,-1.0,-1.0,1.0,0.0,9.m4v,3.0
2024-02-27 11:58:42.930978,1709031522.9309778,248.53515625,13.671875,-39.0625,93.75,-1.0,-1.0,1.0,0.0,9.m4v,3.0
2024-02-27 11:58:42.938789,1709031522.9387891,236.81640625,-21.484375,-35.15625,95.703125,-1.0,-1.0,1.0,0.0,9.m4v,3.0
2024-02-27 11:58:43.149709,1709031523.1497097,16.11328125,-45.41015625,-13.18359375,15.13671875,-1.0,-1.0,1.0,0.0,9.m4v,3.0
2024-02-27 11:58:43.157521,1709031523.157521,-13.671875,-46.875,-32.71484375,9.27734375,-1.0,-1.0,1.0,0.0,9.m4v,3.0
2024-02-27 11:58:43.165332,1709031523.1653323,-2.44140625,-27.34375,-37.59765625,-5.37109375,-1.0,-1.0,1.0,0.0,9.m4v,3.0
2024-02-27 11:58:43.173144,1709031523.1731436,-7.32421875,-19.53125,-54.19921875,-1.953125,-1.0,-1.0,1.0,0.0,9.m4v,3.0
2024-02-27 11:58:43.184864,1709031523.1848638,-27.83203125,-72.265625,-35.15625,-27.34375,-1.0,-1.0,1.0,0.0,9.m4v,3.0
2024-02-27 11:58:43.192675,1709031523.192675,-43.9453125,-36.62109375,-28.3203125,-13.18359375,-1.0,-1.0,1.0,0.0,9.m4v,3.0
2024-02-27 11:58:43.204392,1709031523.204392,-16.6015625,-14.6484375,-30.76171875,-17.578125,-1.0,-1.0,1.0,0.0,9.m4v,3.0
2024-02-27 11:58:43.212204,1709031523.2122035,-38.0859375,-35.15625,-30.2734375,-18.06640625,-1.0,-1.0,1.0,0.0,9.m4v,3.0
2024-02-27 11:58:43.220015,1709031523.2200148,-29.78515625,-57.12890625,-42.96875,-29.78515625,-1.0,-1.0,1.0,0.0,9.m4v,3.0
2024-02-27 11:58:43.251263,1709031523.251263,-100.5859375,-34.66796875,-36.62109375,-43.9453125,-1.0,-1.0,1.0,0.0,9.m4v,3.0
2024-02-27 11:58:43.259074,1709031523.2590744,-105.46875,-55.17578125,-53.22265625,-63.4765625,-1.0,-1.0,1.0,0.0,9.m4v,3.0
2024-02-27 11:58:43.262980,1709031523.26298,-86.42578125,-44.43359375,-40.52734375,-65.4296875,-1.0,-1.0,1.0,0.0,9.m4v,3.0
2024-02-27 11:58:43.266886,1709031523.2668858,-72.265625,-20.01953125,-26.3671875,-44.921875,-1.0,-1.0,1.0,0.0,9.m4v,3.0
2024-02-27 11:58:43.270791,1709031523.2707913,-94.7265625,-44.921875,-47.8515625,-41.9921875,-1.0,-1.0,1.0,0.0,9.m4v,3.0
2024-02-27 11:58:43.274700,1709031523.2747,-124.0234375,-69.3359375,-66.89453125,-54.6875,-1.0,-1.0,1.0,0.0,9.m4v,3.0
2024-02-27 11:58:43.278605,1709031523.2786057,-122.0703125,-61.03515625,-56.15234375,-73.73046875,-1.0,-1.0,1.0,0.0,9.m4v,3.0
2024-02-27 11:58:43.282511,1709031523.2825112,-116.69921875,-60.05859375,-52.734375,-80.078125,-1.0,-1.0,1.0,0.0,9.m4v,3.0
2024-02-27 11:58:43.286417,1709031523.2864168,-122.0703125,-33.69140625,-29.78515625,-67.3828125,-1.0,-1.0,1.0,0.0,9.m4v,3.0
2024-02-27 11:58:43.290323,1709031523.2903223,-125.0,-11.71875,-13.18359375,-49.8046875,-1.0,-1.0,1.0,0.0,9.m4v,3.0
2024-02-27 11:58:43.294228,1709031523.294228,-110.83984375,13.18359375,-22.4609375,-31.73828125,-1.0,-1.0,1.0,0.0,9.m4v,3.0
2024-02-27 11:58:43.356721,1709031523.3567214,-138.18359375,-37.109375,-29.296875,-76.66015625,-1.0,-1.0,1.0,0.0,9.m4v,3.0
2024-02-27 11:58:43.360627,1709031523.3606272,-131.8359375,-30.2734375,-27.83203125,-75.68359375,-1.0,-1.0,1.0,0.0,9.m4v,3.0
2024-02-27 11:58:43.364533,1709031523.364533,-138.671875,-41.015625,-25.390625,-71.2890625,-1.0,-1.0,1.0,0.0,9.m4v,3.0
2024-02-27 11:58:43.368441,1709031523.368441,-150.87890625,-43.45703125,-23.92578125,-82.51953125,-1.0,-1.0,1.0,0.0,9.m4v,3.0
2024-02-27 11:58:43.372347,1709031523.3723469,-146.97265625,-21.484375,-31.73828125,-61.5234375,-1.0,-1.0,1.0,0.0,9.m4v,3.0
2024-02-27 11:58:43.376252,1709031523.3762524,-144.04296875,-39.55078125,-43.45703125,-65.4296875,-1.0,-1.0,1.0,0.0,9.m4v,3.0
2024-02-27 11:58:43.380158,1709031523.3801582,-142.578125,-43.45703125,-45.41015625,-87.40234375,-1.0,-1.0,1.0,0.0,9.m4v,3.0
2024-02-27 11:58:43.384064,1709031523.3840635,-142.08984375,-21.97265625,-47.8515625,-84.9609375,-1.0,-1.0,1.0,0.0,9.m4v,3.0
2024-02-27 11:58:43.387969,1709031523.3879695,-141.11328125,-2.44140625,-37.109375,-71.2890625,-1.0,-1.0,1.0,0.0,9.m4v,3.0
2024-02-27 11:58:43.391875,1709031523.391875,-127.44140625,-1.953125,-12.6953125,-53.7109375,-1.0,-1.0,1.0,0.0,9.m4v,3.0
2024-02-27 11:58:43.395781,1709031523.3957808,-122.55859375,-38.0859375,-17.578125,-52.24609375,-1.0,-1.0,1.0,0.0,9.m4v,3.0
2024-02-27 11:58:43.399687,1709031523.3996866,-127.44140625,-42.48046875,-26.3671875,-64.453125,-1.0,-1.0,1.0,0.0,9.m4v,3.0
2024-02-27 11:58:43.403592,1709031523.403592,-132.32421875,-22.4609375,-30.2734375,-74.70703125,-1.0,-1.0,1.0,0.0,9.m4v,3.0
2024-02-27 11:58:43.407498,1709031523.407498,-143.06640625,-29.78515625,-40.52734375,-79.58984375,-1.0,-1.0,1.0,0.0,9.m4v,3.0
2024-02-27 11:58:43.411403,1709031523.4114034,-139.16015625,-36.62109375,-49.31640625,-66.89453125,-1.0,-1.0,1.0,0.0,9.m4v,3.0
2024-02-27 11:58:43.415312,1709031523.4153116,-125.9765625,-23.4375,-43.45703125,-51.26953125,-1.0,-1.0,1.0,0.0,9.m4v,3.0
2024-02-27 11:58:43.419217,1709031523.419217,-124.0234375,-26.3671875,-31.73828125,-72.75390625,-1.0,-1.0,1.0,0.0,9.m4v,3.0
2024-02-27 11:58:43.423123,1709031523.423123,-131.8359375,-27.83203125,-17.08984375,-83.49609375,-1.0,-1.0,1.0,0.0,9.m4v,3.0
2024-02-27 11:58:43.427028,1709031523.4270284,-125.0,-41.50390625,-9.765625,-64.453125,-1.0,-1.0,1.0,0.0,9.m4v,3.0
2024-02-27 11:58:43.430934,1709031523.4309342,-121.58203125,-32.2265625,-20.01953125,-55.17578125,-1.0,-1.0,1.0,0.0,9.m4v,3.0
2024-02-27 11:58:43.434840,1709031523.4348395,-132.32421875,-20.01953125,-26.85546875,-71.2890625,-1.0,-1.0,1.0,0.0,9.m4v,3.0
2024-02-27 11:58:43.438745,1709031523.4387455,-133.7890625,-34.66796875,-28.80859375,-83.984375,-1.0,-1.0,1.0,0.0,9.m4v,3.0
2024-02-27 11:58:43.442651,1709031523.442651,-142.08984375,-25.390625,-35.64453125,-93.26171875,-1.0,-1.0,1.0,0.0,9.m4v,3.0
2024-02-27 11:58:43.446557,1709031523.4465568,-155.76171875,-15.625,-51.26953125,-104.98046875,-1.0,-1.0,1.0,0.0,9.m4v,3.0
2024-02-27 11:58:43.450463,1709031523.4504626,-152.34375,-26.3671875,-43.9453125,-87.890625,-1.0,-1.0,1.0,0.0,9.m4v,3.0
2024-02-27 11:58:43.454368,1709031523.454368,-137.20703125,-27.83203125,-20.5078125,-65.91796875,-1.0,-1.0,1.0,0.0,9.m4v,3.0
2024-02-27 11:58:43.458274,1709031523.458274,-135.7421875,-22.94921875,-20.01953125,-77.63671875,-1.0,-1.0,1.0,0.0,9.m4v,3.0
2024-02-27 11:58:43.469994,1709031523.4699943,-142.08984375,-61.5234375,-38.0859375,-70.80078125,-1.0,-1.0,1.0,0.0,9.m4v,3.0
2024-02-27 11:58:43.473900,1709031523.4738998,-137.6953125,-66.89453125,-48.828125,-53.22265625,-1.0,-1.0,1.0,0.0,9.m4v,3.0
2024-02-27 11:58:43.477806,1709031523.4778056,-143.06640625,-45.41015625,-38.0859375,-69.3359375,-1.0,-1.0,1.0,0.0,9.m4v,3.0
2024-02-27 11:58:43.481711,1709031523.4817111,-148.4375,-25.87890625,-31.73828125,-89.35546875,-1.0,-1.0,1.0,0.0,9.m4v,3.0
2024-02-27 11:58:43.485617,1709031523.485617,-148.92578125,-27.83203125,-28.80859375,-93.26171875,-1.0,-1.0,1.0,0.0,9.m4v,3.0
2024-02-27 11:58:43.489523,1709031523.4895227,-145.5078125,-12.6953125,-31.73828125,-81.54296875,-1.0,-1.0,1.0,0.0,9.m4v,3.0
2024-02-27 11:58:43.493428,1709031523.4934282,-139.6484375,6.34765625,-27.83203125,-57.12890625,-1.0,-1.0,1.0,0.0,9.m4v,3.0
2024-02-27 11:58:43.821526,1709031523.8215256,-102.5390625,-30.2734375,-43.45703125,-55.6640625,-1.0,-1.0,1.0,0.0,9.m4v,3.0
2024-02-27 11:58:43.852774,1709031523.8527744,-101.07421875,-25.390625,-42.96875,-50.78125,-1.0,-1.0,1.0,0.0,9.m4v,3.0
2024-02-27 11:58:43.884023,1709031523.8840227,-76.66015625,-11.71875,-27.34375,-71.2890625,-1.0,-1.0,1.0,0.0,9.m4v,3.0
2024-02-27 11:58:43.915268,1709031523.9152682,-92.28515625,-37.109375,-28.3203125,-36.1328125,-1.0,-1.0,1.0,0.0,9.m4v,3.0
2024-02-27 11:58:43.938705,1709031523.9387052,-93.26171875,-45.8984375,-48.33984375,-80.56640625,-1.0,-1.0,1.0,0.0,9.m4v,3.0
2024-02-27 11:58:43.954328,1709031523.954328,-93.26171875,-18.5546875,-33.203125,-57.6171875,-1.0,-1.0,1.0,0.0,9.m4v,3.0
2024-02-27 11:58:43.958234,1709031523.9582336,-93.75,-52.24609375,-23.92578125,-80.078125,-1.0,-1.0,1.0,0.0,9.m4v,3.0
2024-02-27 11:58:43.962139,1709031523.9621394,-104.98046875,-60.546875,-21.97265625,-92.7734375,-1.0,-1.0,1.0,0.0,9.m4v,3.0
2024-02-27 11:58:43.969951,1709031523.969951,-114.74609375,-33.69140625,-28.3203125,-72.75390625,-1.0,-1.0,1.0,0.0,9.m4v,3.0
2024-02-27 11:58:43.981671,1709031523.9816706,-104.4921875,-43.45703125,-40.52734375,-88.8671875,-1.0,-1.0,1.0,0.0,9.m4v,3.0
2024-02-27 11:58:43.985576,1709031523.9855764,-99.12109375,-38.57421875,-38.0859375,-76.171875,-1.0,-1.0,1.0,0.0,9.m4v,3.0
2024-02-27 11:58:43.993388,1709031523.9933877,-86.9140625,-17.08984375,-27.83203125,-48.828125,-1.0,-1.0,1.0,0.0,9.m4v,3.0
2024-02-27 11:58:44.005105,1709031524.0051043,-81.54296875,-47.8515625,-20.5078125,-62.5,-1.0,-1.0,1.0,0.0,9.m4v,3.0
2024-02-27 11:58:44.009010,1709031524.0090103,-97.16796875,-62.98828125,-28.80859375,-65.91796875,-1.0,-1.0,1.0,0.0,9.m4v,3.0
2024-02-27 11:58:44.016822,1709031524.0168216,-98.14453125,-33.69140625,-33.203125,-56.15234375,-1.0,-1.0,1.0,0.0,9.m4v,3.0
2024-02-27 11:58:44.028541,1709031524.028541,-90.33203125,-48.33984375,-20.01953125,-49.31640625,-1.0,-1.0,1.0,0.0,9.m4v,3.0
2024-02-27 11:58:44.032447,1709031524.032447,-83.49609375,-42.48046875,-27.83203125,-42.96875,-1.0,-1.0,1.0,0.0,9.m4v,3.0
2024-02-27 11:58:44.040258,1709031524.0402584,-60.05859375,-30.2734375,-17.578125,-53.7109375,-1.0,-1.0,1.0,0.0,9.m4v,3.0
2024-02-27 11:58:44.051975,1709031524.0519755,-95.21484375,-59.08203125,-48.828125,-71.2890625,-1.0,-1.0,1.0,0.0,9.m4v,3.0
2024-02-27 11:58:44.055881,1709031524.055881,-94.23828125,-51.26953125,-30.2734375,-72.265625,-1.0,-1.0,1.0,0.0,9.m4v,3.0
2024-02-27 11:58:44.063693,1709031524.0636926,-113.28125,-49.8046875,-20.5078125,-104.4921875,-1.0,-1.0,1.0,0.0,9.m4v,3.0
2024-02-27 11:58:44.075412,1709031524.075412,-112.79296875,-51.7578125,-28.80859375,-79.1015625,-1.0,-1.0,1.0,0.0,9.m4v,3.0
2024-02-27 11:58:44.079318,1709031524.0793178,-109.375,-44.43359375,-25.87890625,-84.47265625,-1.0,-1.0,1.0,0.0,9.m4v,3.0
2024-02-27 11:58:44.102752,1709031524.1027515,-147.94921875,-50.29296875,-16.11328125,-133.7890625,-1.0,-1.0,1.0,0.0,9.m4v,3.0
2024-02-27 11:58:44.126188,1709031524.1261885,-170.8984375,-35.64453125,-35.15625,-149.90234375,-1.0,-1.0,1.0,0.0,9.m4v,3.0
2024-02-27 11:58:44.149622,1709031524.1496222,-149.90234375,-33.69140625,-28.3203125,-120.60546875,-1.0,-1.0,1.0,0.0,9.m4v,3.0
2024-02-27 11:58:44.153528,1709031524.153528,-145.99609375,-9.27734375,-33.203125,-109.375,-1.0,-1.0,1.0,0.0,9.m4v,3.0
2024-02-27 11:58:44.153528,1709031524.153528,-145.99609375,-9.27734375,-33.203125,-109.375,-1.0,-1.0,1.0,0.0,9.m4v,3.0
2024-02-27 11:58:44.161339,1709031524.1613393,-150.87890625,-40.52734375,-42.96875,-129.39453125,-1.0,-1.0,1.0,0.0,9.m4v,3.0
2024-02-27 11:58:44.161339,1709031524.1613393,-150.87890625,-40.52734375,-42.96875,-129.39453125,-1.0,-1.0,1.0,0.0,9.m4v,3.0
2024-02-27 11:58:44.165247,1709031524.1652472,-147.94921875,-33.69140625,-43.45703125,-122.55859375,-1.0,-1.0,1.0,0.0,9.m4v,3.0
2024-02-27 11:58:44.165247,1709031524.1652472,-147.94921875,-33.69140625,-43.45703125,-122.55859375,-1.0,-1.0,1.0,0.0,9.m4v,3.0
2024-02-27 11:58:44.173059,1709031524.1730585,-132.8125,-52.734375,-28.80859375,-101.07421875,-1.0,-1.0,1.0,0.0,9.m4v,3.0
2024-02-27 11:58:44.176964,1709031524.1769643,-113.28125,-38.57421875,-41.50390625,-96.6796875,-1.0,-1.0,1.0,0.0,9.m4v,3.0
2024-02-27 11:58:44.176964,1709031524.1769643,-113.28125,-38.57421875,-41.50390625,-96.6796875,-1.0,-1.0,1.0,0.0,9.m4v,3.0
2024-02-27 11:58:44.184776,1709031524.1847756,-98.6328125,-4.8828125,-36.1328125,-92.7734375,-1.0,-1.0,1.0,0.0,9.m4v,3.0
2024-02-27 11:58:44.184776,1709031524.1847756,-98.6328125,-4.8828125,-36.1328125,-92.7734375,-1.0,-1.0,1.0,0.0,9.m4v,3.0
2024-02-27 11:58:44.188681,1709031524.1886814,-89.35546875,-20.5078125,-34.1796875,-70.3125,-1.0,-1.0,1.0,0.0,9.m4v,3.0
2024-02-27 11:58:44.188681,1709031524.1886814,-89.35546875,-20.5078125,-34.1796875,-70.3125,-1.0,-1.0,1.0,0.0,9.m4v,3.0
2024-02-27 11:58:44.196493,1709031524.196493,-55.6640625,-42.48046875,-33.69140625,-42.96875,-1.0,-1.0,1.0,0.0,9.m4v,3.0
2024-02-27 11:58:44.200398,1709031524.2003982,-53.7109375,-36.62109375,-29.78515625,-44.921875,-1.0,-1.0,1.0,0.0,9.m4v,3.0
2024-02-27 11:58:44.200398,1709031524.2003982,-53.7109375,-36.62109375,-29.78515625,-44.921875,-1.0,-1.0,1.0,0.0,9.m4v,3.0
2024-02-27 11:58:44.208210,1709031524.2082095,-33.203125,-42.96875,-40.52734375,-30.76171875,-1.0,-1.0,1.0,0.0,9.m4v,3.0
2024-02-27 11:58:44.208210,1709031524.2082095,-33.203125,-42.96875,-40.52734375,-30.76171875,-1.0,-1.0,1.0,0.0,9.m4v,3.0
2024-02-27 11:58:44.212119,1709031524.2121189,-33.69140625,-38.0859375,-39.55078125,-16.6015625,-1.0,-1.0,1.0,0.0,9.m4v,3.0
2024-02-27 11:58:44.212119,1709031524.2121189,-33.69140625,-38.0859375,-39.55078125,-16.6015625,-1.0,-1.0,1.0,0.0,9.m4v,3.0
2024-02-27 11:58:44.219930,1709031524.2199302,-6.8359375,-37.59765625,-32.71484375,-10.25390625,-1.0,-1.0,1.0,0.0,9.m4v,3.0
2024-02-27 11:58:44.223836,1709031524.223836,-13.18359375,-27.34375,-36.62109375,-10.25390625,-1.0,-1.0,1.0,0.0,9.m4v,3.0
2024-02-27 11:58:44.223836,1709031524.223836,-13.18359375,-27.34375,-36.62109375,-10.25390625,-1.0,-1.0,1.0,0.0,9.m4v,3.0
2024-02-27 11:58:44.231647,1709031524.2316473,-13.18359375,-3.90625,-41.9921875,19.53125,-1.0,-1.0,1.0,0.0,9.m4v,3.0
2024-02-27 11:58:44.231647,1709031524.2316473,-13.18359375,-3.90625,-41.9921875,19.53125,-1.0,-1.0,1.0,0.0,9.m4v,3.0
2024-02-27 11:58:44.235553,1709031524.235553,-17.08984375,-14.16015625,-54.6875,23.92578125,-1.0,-1.0,1.0,0.0,9.m4v,3.0
2024-02-27 11:58:44.235553,1709031524.235553,-17.08984375,-14.16015625,-54.6875,23.92578125,-1.0,-1.0,1.0,0.0,9.m4v,3.0
2024-02-27 11:58:44.243364,1709031524.2433643,-5.37109375,-38.0859375,-11.23046875,1.953125,-1.0,-1.0,1.0,0.0,9.m4v,3.0
2024-02-27 11:58:44.247270,1709031524.24727,-10.25390625,-46.38671875,-13.18359375,4.8828125,-1.0,-1.0,1.0,0.0,9.m4v,3.0
2024-02-27 11:58:44.247270,1709031524.24727,-10.25390625,-46.38671875,-13.18359375,4.8828125,-1.0,-1.0,1.0,0.0,9.m4v,3.0
2024-02-27 11:58:44.255081,1709031524.2550814,12.20703125,-17.578125,-21.97265625,25.390625,-1.0,-1.0,1.0,0.0,9.m4v,3.0
2024-02-27 11:58:44.255081,1709031524.2550814,12.20703125,-17.578125,-21.97265625,25.390625,-1.0,-1.0,1.0,0.0,9.m4v,3.0
2024-02-27 11:58:44.258990,1709031524.2589903,-1.46484375,-30.76171875,-25.390625,10.25390625,-1.0,-1.0,1.0,0.0,9.m4v,3.0
2024-02-27 11:58:44.258990,1709031524.2589903,-1.46484375,-30.76171875,-25.390625,10.25390625,-1.0,-1.0,1.0,0.0,9.m4v,3.0
2024-02-27 11:58:44.266802,1709031524.2668016,-11.71875,-42.96875,-40.52734375,-5.37109375,-1.0,-1.0,1.0,0.0,9.m4v,3.0
2024-02-27 11:58:44.270707,1709031524.2707074,-8.7890625,-27.34375,-31.73828125,13.671875,-1.0,-1.0,1.0,0.0,9.m4v,3.0
2024-02-27 11:58:44.270707,1709031524.2707074,-8.7890625,-27.34375,-31.73828125,13.671875,-1.0,-1.0,1.0,0.0,9.m4v,3.0
2024-02-27 11:58:44.278519,1709031524.278519,-12.6953125,-4.8828125,-36.62109375,-6.34765625,-1.0,-1.0,1.0,0.0,9.m4v,3.0
2024-02-27 11:58:44.278519,1709031524.278519,-12.6953125,-4.8828125,-36.62109375,-6.34765625,-1.0,-1.0,1.0,0.0,9.m4v,3.0
2024-02-27 11:58:44.282424,1709031524.2824242,-9.27734375,-16.6015625,-28.80859375,-8.7890625,-1.0,-1.0,1.0,0.0,9.m4v,3.0
2024-02-27 11:58:44.290236,1709031524.2902358,-22.4609375,-40.0390625,-25.390625,-1.953125,-1.0,-1.0,1.0,0.0,9.m4v,3.0
2024-02-27 11:58:44.290236,1709031524.2902358,-22.4609375,-40.0390625,-25.390625,-1.953125,-1.0,-1.0,1.0,0.0,9.m4v,3.0
2024-02-27 11:58:44.294141,1709031524.2941413,-20.5078125,-19.04296875,-36.62109375,2.9296875,-1.0,-1.0,1.0,0.0,9.m4v,3.0
2024-02-27 11:58:44.301953,1709031524.3019526,-20.5078125,-39.0625,-37.59765625,-36.1328125,-1.0,-1.0,1.0,0.0,9.m4v,3.0
2024-02-27 11:58:44.301953,1709031524.3019526,-20.5078125,-39.0625,-37.59765625,-36.1328125,-1.0,-1.0,1.0,0.0,9.m4v,3.0
2024-02-27 11:58:44.305861,1709031524.3058617,-25.87890625,-43.45703125,-51.26953125,-38.0859375,-1.0,-1.0,1.0,0.0,9.m4v,3.0
2024-02-27 11:58:44.313673,1709031524.3136728,-41.50390625,-13.671875,-17.578125,-22.94921875,-1.0,-1.0,1.0,0.0,9.m4v,3.0
2024-02-27 11:58:44.313673,1709031524.3136728,-41.50390625,-13.671875,-17.578125,-22.94921875,-1.0,-1.0,1.0,0.0,9.m4v,3.0
2024-02-27 11:58:44.317578,1709031524.3175783,-44.43359375,-39.0625,-12.6953125,-35.64453125,-1.0,-1.0,1.0,0.0,9.m4v,3.0
2024-02-27 11:58:44.325390,1709031524.32539,-33.203125,-21.484375,-12.20703125,-34.1796875,-1.0,-1.0,1.0,0.0,9.m4v,3.0
2024-02-27 11:58:44.325390,1709031524.32539,-33.203125,-21.484375,-12.20703125,-34.1796875,-1.0,-1.0,1.0,0.0,9.m4v,3.0
2024-02-27 11:58:44.329295,1709031524.3292954,-50.29296875,-5.859375,-30.76171875,-32.2265625,-1.0,-1.0,1.0,0.0,9.m4v,3.0
2024-02-27 11:58:44.337107,1709031524.3371067,-42.48046875,-36.1328125,-36.1328125,-25.390625,-1.0,-1.0,1.0,0.0,9.m4v,3.0
2024-02-27 11:58:44.337107,1709031524.3371067,-42.48046875,-36.1328125,-36.1328125,-25.390625,-1.0,-1.0,1.0,0.0,9.m4v,3.0
2024-02-27 11:58:44.341012,1709031524.3410125,-31.25,-35.15625,-32.2265625,-36.1328125,-1.0,-1.0,1.0,0.0,9.m4v,3.0
2024-02-27 11:58:44.348824,1709031524.3488238,-32.71484375,-38.0859375,-39.0625,-21.484375,-1.0,-1.0,1.0,0.0,9.m4v,3.0
2024-02-27 11:58:44.348824,1709031524.3488238,-32.71484375,-38.0859375,-39.0625,-21.484375,-1.0,-1.0,1.0,0.0,9.m4v,3.0
2024-02-27 11:58:44.352732,1709031524.3527324,-41.9921875,-40.0390625,-49.31640625,-16.6015625,-1.0,-1.0,1.0,0.0,9.m4v,3.0
2024-02-27 11:58:44.360544,1709031524.3605435,-39.55078125,-1.46484375,-41.9921875,-41.50390625,-1.0,-1.0,1.0,0.0,9.m4v,3.0
2024-02-27 11:58:44.360544,1709031524.3605435,-39.55078125,-1.46484375,-41.9921875,-41.50390625,-1.0,-1.0,1.0,0.0,9.m4v,3.0
2024-02-27 11:58:44.360544,1709031524.3605435,-39.55078125,-1.46484375,-41.9921875,-41.50390625,-1.0,-1.0,1.0,0.0,9.m4v,3.0
2024-02-27 11:58:44.364450,1709031524.3644495,-39.55078125,-12.20703125,-22.4609375,-41.50390625,-1.0,-1.0,1.0,0.0,9.m4v,3.0
2024-02-27 11:58:44.372261,1709031524.3722608,-34.1796875,-2.9296875,-36.1328125,-10.25390625,-1.0,-1.0,1.0,0.0,9.m4v,3.0
2024-02-27 11:58:44.372261,1709031524.3722608,-34.1796875,-2.9296875,-36.1328125,-10.25390625,-1.0,-1.0,1.0,0.0,9.m4v,3.0
2024-02-27 11:58:44.372261,1709031524.3722608,-34.1796875,-2.9296875,-36.1328125,-10.25390625,-1.0,-1.0,1.0,0.0,9.m4v,3.0
2024-02-27 11:58:44.376166,1709031524.3761663,-41.015625,-10.25390625,-37.109375,-21.484375,-1.0,-1.0,1.0,0.0,9.m4v,3.0
2024-02-27 11:58:44.383978,1709031524.3839777,-51.7578125,-27.83203125,-40.0390625,-51.26953125,-1.0,-1.0,1.0,0.0,9.m4v,3.0
2024-02-27 11:58:44.383978,1709031524.3839777,-51.7578125,-27.83203125,-40.0390625,-51.26953125,-1.0,-1.0,1.0,0.0,9.m4v,3.0
2024-02-27 11:58:44.383978,1709031524.3839777,-51.7578125,-27.83203125,-40.0390625,-51.26953125,-1.0,-1.0,1.0,0.0,9.m4v,3.0
2024-02-27 11:58:44.387883,1709031524.3878834,-46.38671875,-30.2734375,-41.015625,-38.0859375,-1.0,-1.0,1.0,0.0,9.m4v,3.0
2024-02-27 11:58:44.395695,1709031524.3956947,-44.921875,-30.76171875,-37.59765625,-22.94921875,-1.0,-1.0,1.0,0.0,9.m4v,3.0
2024-02-27 11:58:44.395695,1709031524.3956947,-44.921875,-30.76171875,-37.59765625,-22.94921875,-1.0,-1.0,1.0,0.0,9.m4v,3.0
2024-02-27 11:58:44.395695,1709031524.3956947,-44.921875,-30.76171875,-37.59765625,-22.94921875,-1.0,-1.0,1.0,0.0,9.m4v,3.0
2024-02-27 11:58:44.399603,1709031524.3996031,-44.43359375,-17.08984375,-33.203125,-50.29296875,-1.0,-1.0,1.0,0.0,9.m4v,3.0
2024-02-27 11:58:44.407414,1709031524.4074144,-48.828125,-19.04296875,-35.64453125,-50.78125,-1.0,-1.0,1.0,0.0,9.m4v,3.0
2024-02-27 11:58:44.407414,1709031524.4074144,-48.828125,-19.04296875,-35.64453125,-50.78125,-1.0,-1.0,1.0,0.0,9.m4v,3.0
2024-02-27 11:58:44.407414,1709031524.4074144,-48.828125,-19.04296875,-35.64453125,-50.78125,-1.0,-1.0,1.0,0.0,9.m4v,3.0
2024-02-27 11:58:44.411320,1709031524.4113202,-56.15234375,-21.484375,-41.9921875,-51.26953125,-1.0,-1.0,1.0,0.0,9.m4v,3.0
2024-02-27 11:58:44.419132,1709031524.4191315,-49.8046875,-13.671875,-39.0625,-60.546875,-1.0,-1.0,1.0,0.0,9.m4v,3.0
2024-02-27 11:58:44.419132,1709031524.4191315,-49.8046875,-13.671875,-39.0625,-60.546875,-1.0,-1.0,1.0,0.0,9.m4v,3.0
2024-02-27 11:58:44.419132,1709031524.4191315,-49.8046875,-13.671875,-39.0625,-60.546875,-1.0,-1.0,1.0,0.0,9.m4v,3.0
2024-02-27 11:58:44.423037,1709031524.4230373,-51.26953125,-20.99609375,-25.87890625,-66.89453125,-1.0,-1.0,1.0,0.0,9.m4v,3.0
2024-02-27 11:58:44.430849,1709031524.4308486,-46.38671875,-59.08203125,-19.53125,-32.2265625,-1.0,-1.0,1.0,0.0,9.m4v,3.0
2024-02-27 11:58:44.430849,1709031524.4308486,-46.38671875,-59.08203125,-19.53125,-32.2265625,-1.0,-1.0,1.0,0.0,9.m4v,3.0
2024-02-27 11:58:44.430849,1709031524.4308486,-46.38671875,-59.08203125,-19.53125,-32.2265625,-1.0,-1.0,1.0,0.0,9.m4v,3.0
2024-02-27 11:58:44.434754,1709031524.434754,-50.78125,-48.33984375,-29.296875,-40.52734375,-1.0,-1.0,1.0,0.0,9.m4v,3.0
2024-02-27 11:58:44.442565,1709031524.4425654,-49.8046875,-26.3671875,-25.390625,-55.17578125,-1.0,-1.0,1.0,0.0,9.m4v,3.0
2024-02-27 11:58:44.442565,1709031524.4425654,-49.8046875,-26.3671875,-25.390625,-55.17578125,-1.0,-1.0,1.0,0.0,9.m4v,3.0
2024-02-27 11:58:44.442565,1709031524.4425654,-49.8046875,-26.3671875,-25.390625,-55.17578125,-1.0,-1.0,1.0,0.0,9.m4v,3.0
2024-02-27 11:58:44.450380,1709031524.4503796,-45.41015625,-12.20703125,-45.41015625,-37.59765625,-1.0,-1.0,1.0,0.0,9.m4v,3.0
2024-02-27 11:58:44.458191,1709031524.458191,-60.05859375,-41.015625,-38.0859375,-48.33984375,-1.0,-1.0,1.0,0.0,9.m4v,3.0
2024-02-27 11:58:44.458191,1709031524.458191,-60.05859375,-41.015625,-38.0859375,-48.33984375,-1.0,-1.0,1.0,0.0,9.m4v,3.0
2024-02-27 11:58:44.458191,1709031524.458191,-60.05859375,-41.015625,-38.0859375,-48.33984375,-1.0,-1.0,1.0,0.0,9.m4v,3.0
2024-02-27 11:58:44.466002,1709031524.4660022,-58.59375,-24.4140625,-22.94921875,-49.31640625,-1.0,-1.0,1.0,0.0,9.m4v,3.0
2024-02-27 11:58:44.473814,1709031524.4738138,-54.6875,-25.390625,-35.64453125,-26.85546875,-1.0,-1.0,1.0,0.0,9.m4v,3.0
2024-02-27 11:58:44.473814,1709031524.4738138,-54.6875,-25.390625,-35.64453125,-26.85546875,-1.0,-1.0,1.0,0.0,9.m4v,3.0
2024-02-27 11:58:44.473814,1709031524.4738138,-54.6875,-25.390625,-35.64453125,-26.85546875,-1.0,-1.0,1.0,0.0,9.m4v,3.0
2024-02-27 11:58:44.481625,1709031524.481625,-55.6640625,-23.92578125,-30.2734375,-56.640625,-1.0,-1.0,1.0,0.0,9.m4v,3.0
2024-02-27 11:58:44.489436,1709031524.4894364,-64.453125,-47.8515625,-21.97265625,-42.48046875,-1.0,-1.0,1.0,0.0,9.m4v,3.0
2024-02-27 11:58:44.489436,1709031524.4894364,-64.453125,-47.8515625,-21.97265625,-42.48046875,-1.0,-1.0,1.0,0.0,9.m4v,3.0
2024-02-27 11:58:44.489436,1709031524.4894364,-64.453125,-47.8515625,-21.97265625,-42.48046875,-1.0,-1.0,1.0,0.0,9.m4v,3.0
2024-02-27 11:58:44.497250,1709031524.49725,-60.546875,-34.66796875,-21.484375,-38.57421875,-1.0,-1.0,1.0,0.0,9.m4v,3.0
2024-02-27 11:58:44.505061,1709031524.5050614,-68.359375,-35.15625,-35.64453125,-56.15234375,-1.0,-1.0,1.0,0.0,9.m4v,3.0
2024-02-27 11:58:44.505061,1709031524.5050614,-68.359375,-35.15625,-35.64453125,-56.15234375,-1.0,-1.0,1.0,0.0,9.m4v,3.0
2024-02-27 11:58:44.505061,1709031524.5050614,-68.359375,-35.15625,-35.64453125,-56.15234375,-1.0,-1.0,1.0,0.0,9.m4v,3.0
2024-02-27 11:58:44.512873,1709031524.512873,-56.640625,-23.92578125,-34.66796875,-31.73828125,-1.0,-1.0,1.0,0.0,9.m4v,3.0
2024-02-27 11:58:44.520684,1709031524.5206842,-51.26953125,-32.2265625,-32.2265625,-52.734375,-1.0,-1.0,1.0,0.0,9.m4v,3.0
2024-02-27 11:58:44.520684,1709031524.5206842,-51.26953125,-32.2265625,-32.2265625,-52.734375,-1.0,-1.0,1.0,0.0,9.m4v,3.0
2024-02-27 11:58:44.520684,1709031524.5206842,-51.26953125,-32.2265625,-32.2265625,-52.734375,-1.0,-1.0,1.0,0.0,9.m4v,3.0
2024-02-27 11:58:44.528496,1709031524.5284956,-53.7109375,-47.8515625,-28.80859375,-53.7109375,-1.0,-1.0,1.0,0.0,9.m4v,3.0
2024-02-27 11:58:44.536307,1709031524.5363069,-34.1796875,-37.59765625,-15.13671875,-35.64453125,-1.0,-1.0,1.0,0.0,9.m4v,3.0
2024-02-27 11:58:44.536307,1709031524.5363069,-34.1796875,-37.59765625,-15.13671875,-35.64453125,-1.0,-1.0,1.0,0.0,9.m4v,3.0
2024-02-27 11:58:44.536307,1709031524.5363069,-34.1796875,-37.59765625,-15.13671875,-35.64453125,-1.0,-1.0,1.0,0.0,9.m4v,3.0
2024-02-27 11:58:44.548026,1709031524.548026,-49.31640625,-41.50390625,-32.2265625,-41.015625,-1.0,-1.0,1.0,0.0,9.m4v,3.0
2024-02-27 11:58:44.551932,1709031524.551932,-44.43359375,-41.015625,-46.875,-27.83203125,-1.0,-1.0,1.0,0.0,9.m4v,3.0
2024-02-27 11:58:44.555837,1709031524.5558374,-41.015625,-36.62109375,-44.43359375,-32.2265625,-1.0,-1.0,1.0,0.0,9.m4v,3.0
2024-02-27 11:58:44.559743,1709031524.5597432,-49.8046875,-27.34375,-27.83203125,-47.36328125,-1.0,-1.0,1.0,0.0,9.m4v,3.0
2024-02-27 11:58:44.563649,1709031524.5636487,-46.875,-27.83203125,-20.01953125,-41.015625,-1.0,-1.0,1.0,0.0,9.m4v,3.0
2024-02-27 11:58:44.567554,1709031524.5675545,-38.0859375,-26.3671875,-18.5546875,-24.90234375,-1.0,-1.0,1.0,0.0,9.m4v,3.0
2024-02-27 11:58:44.571460,1709031524.5714602,-40.52734375,-13.18359375,-20.99609375,-14.16015625,-1.0,-1.0,1.0,0.0,9.m4v,3.0
2024-02-27 11:58:44.575366,1709031524.5753658,-40.52734375,-36.62109375,-18.06640625,-13.671875,-1.0,-1.0,1.0,0.0,9.m4v,3.0
2024-02-27 11:58:44.579272,1709031524.5792716,-40.52734375,-60.546875,-34.1796875,-32.2265625,-1.0,-1.0,1.0,0.0,9.m4v,3.0
2024-02-27 11:58:44.583177,1709031524.583177,-46.875,-58.10546875,-60.546875,-44.921875,-1.0,-1.0,1.0,0.0,9.m4v,3.0
2024-02-27 11:58:44.587086,1709031524.5870862,-56.15234375,-51.26953125,-53.22265625,-44.921875,-1.0,-1.0,1.0,0.0,9.m4v,3.0
2024-02-27 11:58:44.590992,1709031524.590992,-50.78125,-20.5078125,-33.69140625,-30.2734375,-1.0,-1.0,1.0,0.0,9.m4v,3.0
2024-02-27 11:58:44.594898,1709031524.5948975,-34.66796875,-6.34765625,-29.78515625,-19.04296875,-1.0,-1.0,1.0,0.0,9.m4v,3.0
2024-02-27 11:58:44.598803,1709031524.5988033,-24.90234375,-27.34375,-19.04296875,-36.1328125,-1.0,-1.0,1.0,0.0,9.m4v,3.0
2024-02-27 11:58:44.602709,1709031524.6027088,-37.109375,-34.66796875,-21.97265625,-52.24609375,-1.0,-1.0,1.0,0.0,9.m4v,3.0
2024-02-27 11:58:44.606615,1709031524.6066146,-52.24609375,-17.08984375,-29.296875,-46.875,-1.0,-1.0,1.0,0.0,9.m4v,3.0
2024-02-27 11:58:44.610520,1709031524.6105204,-44.43359375,-6.34765625,-22.94921875,-28.3203125,-1.0,-1.0,1.0,0.0,9.m4v,3.0
2024-02-27 11:58:44.614426,1709031524.614426,-39.0625,-25.390625,-28.3203125,-20.01953125,-1.0,-1.0,1.0,0.0,9.m4v,3.0
2024-02-27 11:58:44.618332,1709031524.6183317,-48.828125,-45.8984375,-42.48046875,-35.64453125,-1.0,-1.0,1.0,0.0,9.m4v,3.0
2024-02-27 11:58:44.622237,1709031524.6222372,-58.10546875,-53.22265625,-49.8046875,-52.24609375,-1.0,-1.0,1.0,0.0,9.m4v,3.0
2024-02-27 11:58:44.626143,1709031524.626143,-50.78125,-42.96875,-44.43359375,-45.41015625,-1.0,-1.0,1.0,0.0,9.m4v,3.0
2024-02-27 11:58:44.630049,1709031524.6300485,-41.50390625,-17.08984375,-35.64453125,-27.83203125,-1.0,-1.0,1.0,0.0,9.m4v,3.0
2024-02-27 11:58:44.633958,1709031524.6339576,-32.71484375,-10.7421875,-30.2734375,-23.92578125,-1.0,-1.0,1.0,0.0,9.m4v,3.0
2024-02-27 11:58:44.637863,1709031524.6378632,-18.06640625,-31.73828125,-33.69140625,-26.3671875,-1.0,-1.0,1.0,0.0,9.m4v,3.0
2024-02-27 11:58:44.641769,1709031524.641769,-14.6484375,-21.97265625,-25.390625,-35.64453125,-1.0,-1.0,1.0,0.0,9.m4v,3.0
2024-02-27 11:58:44.645674,1709031524.6456745,-33.203125,-20.01953125,-15.13671875,-42.96875,-1.0,-1.0,1.0,0.0,9.m4v,3.0
2024-02-27 11:58:44.649580,1709031524.6495802,-42.48046875,-43.45703125,-31.73828125,-34.1796875,-1.0,-1.0,1.0,0.0,9.m4v,3.0
2024-02-27 11:58:44.653486,1709031524.653486,-39.0625,-31.73828125,-37.109375,-19.53125,-1.0,-1.0,1.0,0.0,9.m4v,3.0
2024-02-27 11:58:44.657392,1709031524.6573915,-38.57421875,-32.2265625,-29.296875,-34.66796875,-1.0,-1.0,1.0,0.0,9.m4v,3.0
2024-02-27 11:58:44.661297,1709031524.661297,-41.015625,-41.9921875,-27.83203125,-54.19921875,-1.0,-1.0,1.0,0.0,9.m4v,3.0
2024-02-27 11:58:44.665203,1709031524.6652029,-47.36328125,-31.25,-30.2734375,-51.26953125,-1.0,-1.0,1.0,0.0,9.m4v,3.0
2024-02-27 11:58:44.669109,1709031524.6691086,-53.22265625,-34.66796875,-39.55078125,-41.9921875,-1.0,-1.0,1.0,0.0,9.m4v,3.0
2024-02-27 11:58:44.673014,1709031524.6730142,-44.43359375,-32.2265625,-36.1328125,-20.5078125,-1.0,-1.0,1.0,0.0,9.m4v,3.0
2024-02-27 11:58:44.676920,1709031524.67692,-43.45703125,-16.6015625,-39.0625,-19.53125,-1.0,-1.0,1.0,0.0,9.m4v,3.0
2024-02-27 11:58:44.680830,1709031524.68083,-50.78125,-32.71484375,-48.33984375,-46.875,-1.0,-1.0,1.0,0.0,9.m4v,3.0
2024-02-27 11:58:44.684736,1709031524.6847355,-60.05859375,-57.12890625,-44.43359375,-59.08203125,-1.0,-1.0,1.0,0.0,9.m4v,3.0
2024-02-27 11:58:44.688641,1709031524.6886413,-64.453125,-57.6171875,-34.66796875,-52.24609375,-1.0,-1.0,1.0,0.0,9.m4v,3.0
2024-02-27 11:58:44.692547,1709031524.6925468,-55.6640625,-32.2265625,-32.2265625,-38.0859375,-1.0,-1.0,1.0,0.0,9.m4v,3.0
2024-02-27 11:58:44.696453,1709031524.6964526,-59.08203125,-29.296875,-32.71484375,-47.36328125,-1.0,-1.0,1.0,0.0,9.m4v,3.0
2024-02-27 11:58:44.700358,1709031524.7003582,-64.453125,-39.55078125,-33.69140625,-59.5703125,-1.0,-1.0,1.0,0.0,9.m4v,3.0
2024-02-27 11:58:44.704264,1709031524.704264,-66.40625,-40.0390625,-41.015625,-65.4296875,-1.0,-1.0,1.0,0.0,9.m4v,3.0
2024-02-27 11:58:44.708169,1709031524.7081697,-74.21875,-41.50390625,-34.1796875,-69.3359375,-1.0,-1.0,1.0,0.0,9.m4v,3.0
2024-02-27 11:58:44.712075,1709031524.7120752,-62.01171875,-28.80859375,-40.0390625,-48.33984375,-1.0,-1.0,1.0,0.0,9.m4v,3.0
2024-02-27 11:58:44.715981,1709031524.715981,-46.875,-22.94921875,-43.9453125,-43.9453125,-1.0,-1.0,1.0,0.0,9.m4v,3.0
2024-02-27 11:58:44.719887,1709031524.7198863,-46.875,-37.109375,-27.83203125,-61.03515625,-1.0,-1.0,1.0,0.0,9.m4v,3.0
2024-02-27 11:58:44.723792,1709031524.7237923,-47.8515625,-43.45703125,-36.1328125,-60.05859375,-1.0,-1.0,1.0,0.0,9.m4v,3.0
2024-02-27 11:58:44.727701,1709031524.727701,-49.31640625,-45.41015625,-40.52734375,-51.26953125,-1.0,-1.0,1.0,0.0,9.m4v,3.0
2024-02-27 11:58:44.731606,1709031524.7316065,-56.640625,-47.8515625,-37.109375,-45.41015625,-1.0,-1.0,1.0,0.0,9.m4v,3.0
2024-02-27 11:58:44.735512,1709031524.7355125,-58.10546875,-45.8984375,-39.55078125,-50.78125,-1.0,-1.0,1.0,0.0,9.m4v,3.0
2024-02-27 11:58:44.739418,1709031524.7394178,-48.828125,-30.2734375,-34.66796875,-54.6875,-1.0,-1.0,1.0,0.0,9.m4v,3.0
2024-02-27 11:58:44.743324,1709031524.7433236,-40.52734375,-25.390625,-41.9921875,-45.41015625,-1.0,-1.0,1.0,0.0,9.m4v,3.0
2024-02-27 11:58:44.747229,1709031524.747229,-43.9453125,-19.53125,-37.109375,-40.0390625,-1.0,-1.0,1.0,0.0,9.m4v,3.0
2024-02-27 11:58:44.751135,1709031524.7511349,-36.62109375,-16.6015625,-34.1796875,-28.80859375,-1.0,-1.0,1.0,0.0,9.m4v,3.0
2024-02-27 11:58:44.755041,1709031524.7550406,-35.15625,-33.69140625,-39.0625,-22.4609375,-1.0,-1.0,1.0,0.0,9.m4v,3.0
2024-02-27 11:58:44.758946,1709031524.7589462,-53.22265625,-57.6171875,-29.78515625,-48.828125,-1.0,-1.0,1.0,0.0,9.m4v,3.0
2024-02-27 11:58:44.762852,1709031524.762852,-58.59375,-50.29296875,-18.06640625,-63.96484375,-1.0,-1.0,1.0,0.0,9.m4v,3.0
2024-02-27 11:58:44.766757,1709031524.7667575,-58.10546875,-32.2265625,-25.87890625,-61.03515625,-1.0,-1.0,1.0,0.0,9.m4v,3.0
2024-02-27 11:58:44.770663,1709031524.7706633,-62.5,-37.109375,-34.1796875,-58.10546875,-1.0,-1.0,1.0,0.0,9.m4v,3.0
2024-02-27 11:58:44.774572,1709031524.7745717,-56.15234375,-44.921875,-32.71484375,-45.41015625,-1.0,-1.0,1.0,0.0,9.m4v,3.0
2024-02-27 11:58:44.778477,1709031524.7784774,-48.33984375,-49.8046875,-36.62109375,-45.41015625,-1.0,-1.0,1.0,0.0,9.m4v,3.0
2024-02-27 11:58:44.782383,1709031524.782383,-46.875,-43.45703125,-31.73828125,-48.33984375,-1.0,-1.0,1.0,0.0,9.m4v,3.0
2024-02-27 11:58:44.786289,1709031524.7862887,-55.6640625,-33.203125,-28.3203125,-42.96875,-1.0,-1.0,1.0,0.0,9.m4v,3.0
2024-02-27 11:58:44.790194,1709031524.7901945,-59.5703125,-31.73828125,-33.203125,-33.203125,-1.0,-1.0,1.0,0.0,9.m4v,3.0
2024-02-27 11:58:44.794100,1709031524.7941,-54.6875,-25.390625,-42.48046875,-27.34375,-1.0,-1.0,1.0,0.0,9.m4v,3.0
2024-02-27 11:58:44.798006,1709031524.7980058,-58.59375,-50.29296875,-35.64453125,-44.43359375,-1.0,-1.0,1.0,0.0,9.m4v,3.0
2024-02-27 11:58:44.801911,1709031524.8019114,-58.59375,-72.75390625,-25.87890625,-62.01171875,-1.0,-1.0,1.0,0.0,9.m4v,3.0
2024-02-27 11:58:44.805817,1709031524.8058171,-40.52734375,-39.0625,-19.04296875,-41.015625,-1.0,-1.0,1.0,0.0,9.m4v,3.0
2024-02-27 11:58:44.809723,1709031524.809723,-38.0859375,-22.94921875,-12.20703125,-20.5078125,-1.0,-1.0,1.0,0.0,9.m4v,3.0
2024-02-27 11:58:44.813628,1709031524.8136284,-42.48046875,-34.66796875,-23.92578125,-19.53125,-1.0,-1.0,1.0,0.0,9.m4v,3.0
2024-02-27 11:58:44.817534,1709031524.817534,-44.921875,-36.1328125,-36.62109375,-35.15625,-1.0,-1.0,1.0,0.0,9.m4v,3.0
2024-02-27 11:58:44.821442,1709031524.8214424,-47.8515625,-33.69140625,-35.64453125,-56.640625,-1.0,-1.0,1.0,0.0,9.m4v,3.0
2024-02-27 11:58:44.825348,1709031524.825348,-50.78125,-56.640625,-32.2265625,-62.98828125,-1.0,-1.0,1.0,0.0,9.m4v,3.0
2024-02-27 11:58:44.829254,1709031524.8292537,-55.6640625,-57.6171875,-23.4375,-49.8046875,-1.0,-1.0,1.0,0.0,9.m4v,3.0
2024-02-27 11:58:44.833159,1709031524.8331594,-58.10546875,-33.69140625,-40.0390625,-45.8984375,-1.0,-1.0,1.0,0.0,9.m4v,3.0
2024-02-27 11:58:44.837065,1709031524.837065,-46.875,-22.4609375,-52.734375,-44.921875,-1.0,-1.0,1.0,0.0,9.m4v,3.0
2024-02-27 11:58:44.840971,1709031524.8409708,-43.45703125,-16.11328125,-42.96875,-54.6875,-1.0,-1.0,1.0,0.0,9.m4v,3.0
2024-02-27 11:58:44.844876,1709031524.8448763,-53.7109375,-30.76171875,-41.9921875,-65.91796875,-1.0,-1.0,1.0,0.0,9.m4v,3.0
2024-02-27 11:58:44.848782,1709031524.848782,-50.29296875,-44.921875,-30.76171875,-48.828125,-1.0,-1.0,1.0,0.0,9.m4v,3.0
2024-02-27 11:58:44.852688,1709031524.8526876,-37.59765625,-36.1328125,-23.92578125,-34.1796875,-1.0,-1.0,1.0,0.0,9.m4v,3.0
2024-02-27 11:58:44.856593,1709031524.8565934,-39.55078125,-38.0859375,-24.4140625,-40.52734375,-1.0,-1.0,1.0,0.0,9.m4v,3.0
2024-02-27 11:58:44.860499,1709031524.8604991,-46.875,-47.8515625,-26.3671875,-51.7578125,-1.0,-1.0,1.0,0.0,9.m4v,3.0
2024-02-27 11:58:44.864405,1709031524.864405,-51.7578125,-53.7109375,-43.45703125,-63.4765625,-1.0,-1.0,1.0,0.0,9.m4v,3.0
2024-02-27 11:58:44.868313,1709031524.868313,-53.7109375,-36.1328125,-31.25,-52.734375,-1.0,-1.0,1.0,0.0,9.m4v,3.0
2024-02-27 11:58:44.872219,1709031524.8722186,-43.9453125,-17.578125,-22.94921875,-31.73828125,-1.0,-1.0,1.0,0.0,9.m4v,3.0
2024-02-27 11:58:44.876124,1709031524.8761244,-38.57421875,-38.0859375,-35.64453125,-42.48046875,-1.0,-1.0,1.0,0.0,9.m4v,3.0
2024-02-27 11:58:44.880030,1709031524.88003,-38.57421875,-55.6640625,-20.5078125,-54.19921875,-1.0,-1.0,1.0,0.0,9.m4v,3.0
2024-02-27 11:58:44.883936,1709031524.8839357,-42.48046875,-40.0390625,-18.5546875,-64.453125,-1.0,-1.0,1.0,0.0,9.m4v,3.0
2024-02-27 11:58:44.883936,1709031524.8839357,-42.48046875,-40.0390625,-18.5546875,-64.453125,-1.0,-1.0,1.0,0.0,9.m4v,3.0
2024-02-27 11:58:44.883936,1709031524.8839357,-42.48046875,-40.0390625,-18.5546875,-64.453125,-1.0,-1.0,1.0,0.0,9.m4v,3.0
2024-02-27 11:58:44.887841,1709031524.8878412,-46.38671875,-16.11328125,-30.76171875,-52.734375,-1.0,-1.0,1.0,0.0,9.m4v,3.0
2024-02-27 11:58:44.891747,1709031524.891747,-47.8515625,-16.11328125,-25.390625,-33.203125,-1.0,-1.0,1.0,0.0,9.m4v,3.0
2024-02-27 11:58:44.891747,1709031524.891747,-47.8515625,-16.11328125,-25.390625,-33.203125,-1.0,-1.0,1.0,0.0,9.m4v,3.0
2024-02-27 11:58:44.891747,1709031524.891747,-47.8515625,-16.11328125,-25.390625,-33.203125,-1.0,-1.0,1.0,0.0,9.m4v,3.0
2024-02-27 11:58:44.895653,1709031524.8956523,-42.96875,-31.25,-26.3671875,-41.50390625,-1.0,-1.0,1.0,0.0,9.m4v,3.0
2024-02-27 11:58:44.899558,1709031524.8995583,-47.36328125,-45.41015625,-39.55078125,-58.59375,-1.0,-1.0,1.0,0.0,9.m4v,3.0
2024-02-27 11:58:44.899558,1709031524.8995583,-47.36328125,-45.41015625,-39.55078125,-58.59375,-1.0,-1.0,1.0,0.0,9.m4v,3.0
2024-02-27 11:58:44.899558,1709031524.8995583,-47.36328125,-45.41015625,-39.55078125,-58.59375,-1.0,-1.0,1.0,0.0,9.m4v,3.0
2024-02-27 11:58:44.903464,1709031524.903464,-51.26953125,-41.015625,-28.3203125,-59.08203125,-1.0,-1.0,1.0,0.0,9.m4v,3.0
2024-02-27 11:58:44.907370,1709031524.9073696,-51.7578125,-29.296875,-32.71484375,-50.29296875,-1.0,-1.0,1.0,0.0,9.m4v,3.0
2024-02-27 11:58:44.907370,1709031524.9073696,-51.7578125,-29.296875,-32.71484375,-50.29296875,-1.0,-1.0,1.0,0.0,9.m4v,3.0
2024-02-27 11:58:44.907370,1709031524.9073696,-51.7578125,-29.296875,-32.71484375,-50.29296875,-1.0,-1.0,1.0,0.0,9.m4v,3.0
2024-02-27 11:58:44.911275,1709031524.9112754,-56.15234375,-37.109375,-34.66796875,-49.8046875,-1.0,-1.0,1.0,0.0,9.m4v,3.0
2024-02-27 11:58:44.911275,1709031524.9112754,-56.15234375,-37.109375,-34.66796875,-49.8046875,-1.0,-1.0,1.0,0.0,9.m4v,3.0
2024-02-27 11:58:44.911275,1709031524.9112754,-56.15234375,-37.109375,-34.66796875,-49.8046875,-1.0,-1.0,1.0,0.0,9.m4v,3.0
2024-02-27 11:58:44.915184,1709031524.9151838,-52.24609375,-41.50390625,-31.25,-45.41015625,-1.0,-1.0,1.0,0.0,9.m4v,3.0
2024-02-27 11:58:44.915184,1709031524.9151838,-52.24609375,-41.50390625,-31.25,-45.41015625,-1.0,-1.0,1.0,0.0,9.m4v,3.0
2024-02-27 11:58:44.915184,1709031524.9151838,-52.24609375,-41.50390625,-31.25,-45.41015625,-1.0,-1.0,1.0,0.0,9.m4v,3.0
2024-02-27 11:58:44.919090,1709031524.9190896,-54.19921875,-42.96875,-35.15625,-48.33984375,-1.0,-1.0,1.0,0.0,9.m4v,3.0
2024-02-27 11:58:44.919090,1709031524.9190896,-54.19921875,-42.96875,-35.15625,-48.33984375,-1.0,-1.0,1.0,0.0,9.m4v,3.0
2024-02-27 11:58:44.919090,1709031524.9190896,-54.19921875,-42.96875,-35.15625,-48.33984375,-1.0,-1.0,1.0,0.0,9.m4v,3.0
2024-02-27 11:58:44.922995,1709031524.922995,-49.8046875,-51.7578125,-30.2734375,-53.22265625,-1.0,-1.0,1.0,0.0,9.m4v,3.0
2024-02-27 11:58:44.922995,1709031524.922995,-49.8046875,-51.7578125,-30.2734375,-53.22265625,-1.0,-1.0,1.0,0.0,9.m4v,3.0
2024-02-27 11:58:44.922995,1709031524.922995,-49.8046875,-51.7578125,-30.2734375,-53.22265625,-1.0,-1.0,1.0,0.0,9.m4v,3.0
2024-02-27 11:58:44.926901,1709031524.9269009,-49.31640625,-51.26953125,-31.73828125,-51.26953125,-1.0,-1.0,1.0,0.0,9.m4v,3.0
2024-02-27 11:58:44.926901,1709031524.9269009,-49.31640625,-51.26953125,-31.73828125,-51.26953125,-1.0,-1.0,1.0,0.0,9.m4v,3.0
2024-02-27 11:58:44.926901,1709031524.9269009,-49.31640625,-51.26953125,-31.73828125,-51.26953125,-1.0,-1.0,1.0,0.0,9.m4v,3.0
2024-02-27 11:58:44.930807,1709031524.9308066,-47.8515625,-17.08984375,-36.62109375,-36.1328125,-1.0,-1.0,1.0,0.0,9.m4v,3.0
2024-02-27 11:58:44.930807,1709031524.9308066,-47.8515625,-17.08984375,-36.62109375,-36.1328125,-1.0,-1.0,1.0,0.0,9.m4v,3.0
2024-02-27 11:58:44.930807,1709031524.9308066,-47.8515625,-17.08984375,-36.62109375,-36.1328125,-1.0,-1.0,1.0,0.0,9.m4v,3.0
2024-02-27 11:58:44.934712,1709031524.9347122,-37.59765625,6.8359375,-41.9921875,-26.85546875,-1.0,-1.0,1.0,0.0,9.m4v,3.0
2024-02-27 11:58:44.934712,1709031524.9347122,-37.59765625,6.8359375,-41.9921875,-26.85546875,-1.0,-1.0,1.0,0.0,9.m4v,3.0
2024-02-27 11:58:44.934712,1709031524.9347122,-37.59765625,6.8359375,-41.9921875,-26.85546875,-1.0,-1.0,1.0,0.0,9.m4v,3.0
2024-02-27 11:58:44.938618,1709031524.938618,-39.0625,-32.71484375,-48.33984375,-50.78125,-1.0,-1.0,1.0,0.0,9.m4v,3.0
2024-02-27 11:58:44.938618,1709031524.938618,-39.0625,-32.71484375,-48.33984375,-50.78125,-1.0,-1.0,1.0,0.0,9.m4v,3.0
2024-02-27 11:58:44.942523,1709031524.9425237,-38.0859375,-41.50390625,-32.2265625,-61.03515625,-1.0,-1.0,1.0,0.0,9.m4v,3.0
2024-02-27 11:58:44.942523,1709031524.9425237,-38.0859375,-41.50390625,-32.2265625,-61.03515625,-1.0,-1.0,1.0,0.0,9.m4v,3.0
2024-02-27 11:58:44.946429,1709031524.9464293,-50.78125,-25.390625,-20.99609375,-54.6875,-1.0,-1.0,1.0,0.0,9.m4v,3.0
2024-02-27 11:58:44.946429,1709031524.9464293,-50.78125,-25.390625,-20.99609375,-54.6875,-1.0,-1.0,1.0,0.0,9.m4v,3.0
2024-02-27 11:58:44.950335,1709031524.950335,-56.15234375,-25.390625,-23.4375,-41.50390625,-1.0,-1.0,1.0,0.0,9.m4v,3.0
2024-02-27 11:58:44.950335,1709031524.950335,-56.15234375,-25.390625,-23.4375,-41.50390625,-1.0,-1.0,1.0,0.0,9.m4v,3.0
2024-02-27 11:58:44.954241,1709031524.9542406,-49.31640625,-42.96875,-32.2265625,-41.015625,-1.0,-1.0,1.0,0.0,9.m4v,3.0
2024-02-27 11:58:44.954241,1709031524.9542406,-49.31640625,-42.96875,-32.2265625,-41.015625,-1.0,-1.0,1.0,0.0,9.m4v,3.0
2024-02-27 11:58:44.958146,1709031524.9581463,-50.78125,-55.6640625,-45.8984375,-56.15234375,-1.0,-1.0,1.0,0.0,9.m4v,3.0
2024-02-27 11:58:44.958146,1709031524.9581463,-50.78125,-55.6640625,-45.8984375,-56.15234375,-1.0,-1.0,1.0,0.0,9.m4v,3.0
2024-02-27 11:58:44.962055,1709031524.9620554,-49.31640625,-40.0390625,-50.78125,-66.89453125,-1.0,-1.0,1.0,0.0,9.m4v,3.0
2024-02-27 11:58:44.962055,1709031524.9620554,-49.31640625,-40.0390625,-50.78125,-66.89453125,-1.0,-1.0,1.0,0.0,9.m4v,3.0
2024-02-27 11:58:45.040172,1709031525.040172,-52.734375,-50.29296875,-41.015625,-53.22265625,-1.0,-1.0,1.0,0.0,9.m4v,3.0
2024-02-27 11:58:45.040172,1709031525.040172,-52.734375,-50.29296875,-41.015625,-53.22265625,-1.0,-1.0,1.0,0.0,9.m4v,3.0
2024-02-27 11:58:45.044078,1709031525.0440776,-43.9453125,-47.8515625,-52.24609375,-57.12890625,-1.0,-1.0,1.0,0.0,9.m4v,3.0
2024-02-27 11:58:45.044078,1709031525.0440776,-43.9453125,-47.8515625,-52.24609375,-57.12890625,-1.0,-1.0,1.0,0.0,9.m4v,3.0
2024-02-27 11:58:45.051889,1709031525.051889,-33.203125,-28.80859375,-32.71484375,-15.625,-1.0,-1.0,1.0,0.0,9.m4v,3.0
2024-02-27 11:58:45.051889,1709031525.051889,-33.203125,-28.80859375,-32.71484375,-15.625,-1.0,-1.0,1.0,0.0,9.m4v,3.0
2024-02-27 11:58:45.055798,1709031525.0557978,-38.57421875,-39.55078125,-54.19921875,-17.08984375,-1.0,-1.0,1.0,0.0,9.m4v,3.0
2024-02-27 11:58:45.055798,1709031525.0557978,-38.57421875,-39.55078125,-54.19921875,-17.08984375,-1.0,-1.0,1.0,0.0,9.m4v,3.0
2024-02-27 11:58:45.063609,1709031525.0636091,-43.45703125,-33.203125,-24.4140625,-38.57421875,-1.0,-1.0,1.0,0.0,9.m4v,3.0
2024-02-27 11:58:45.063609,1709031525.0636091,-43.45703125,-33.203125,-24.4140625,-38.57421875,-1.0,-1.0,1.0,0.0,9.m4v,3.0
2024-02-27 11:58:45.067515,1709031525.067515,-50.78125,-20.99609375,-17.578125,-39.0625,-1.0,-1.0,1.0,0.0,9.m4v,3.0
2024-02-27 11:58:45.067515,1709031525.067515,-50.78125,-20.99609375,-17.578125,-39.0625,-1.0,-1.0,1.0,0.0,9.m4v,3.0
2024-02-27 11:58:45.075326,1709031525.0753262,-51.26953125,-23.92578125,-33.203125,-35.15625,-1.0,-1.0,1.0,0.0,9.m4v,3.0
2024-02-27 11:58:45.075326,1709031525.0753262,-51.26953125,-23.92578125,-33.203125,-35.15625,-1.0,-1.0,1.0,0.0,9.m4v,3.0
2024-02-27 11:58:45.079232,1709031525.0792315,-53.7109375,-19.53125,-25.87890625,-46.875,-1.0,-1.0,1.0,0.0,9.m4v,3.0
2024-02-27 11:58:45.079232,1709031525.0792315,-53.7109375,-19.53125,-25.87890625,-46.875,-1.0,-1.0,1.0,0.0,9.m4v,3.0
2024-02-27 11:58:45.087043,1709031525.087043,-48.828125,-58.10546875,-29.296875,-48.828125,-1.0,-1.0,1.0,0.0,9.m4v,3.0
2024-02-27 11:58:45.087043,1709031525.087043,-48.828125,-58.10546875,-29.296875,-48.828125,-1.0,-1.0,1.0,0.0,9.m4v,3.0
2024-02-27 11:58:45.090949,1709031525.0909488,-47.8515625,-52.734375,-34.66796875,-38.0859375,-1.0,-1.0,1.0,0.0,9.m4v,3.0
2024-02-27 11:58:45.090949,1709031525.0909488,-47.8515625,-52.734375,-34.66796875,-38.0859375,-1.0,-1.0,1.0,0.0,9.m4v,3.0
2024-02-27 11:58:45.098760,1709031525.09876,-43.9453125,-16.11328125,-35.64453125,-37.59765625,-1.0,-1.0,1.0,0.0,9.m4v,3.0
2024-02-27 11:58:45.098760,1709031525.09876,-43.9453125,-16.11328125,-35.64453125,-37.59765625,-1.0,-1.0,1.0,0.0,9.m4v,3.0
2024-02-27 11:58:45.102669,1709031525.1026688,-32.2265625,-5.37109375,-36.62109375,-27.34375,-1.0,-1.0,1.0,0.0,9.m4v,3.0
2024-02-27 11:58:45.102669,1709031525.1026688,-32.2265625,-5.37109375,-36.62109375,-27.34375,-1.0,-1.0,1.0,0.0,9.m4v,3.0
2024-02-27 11:58:45.110480,1709031525.11048,-47.36328125,-28.3203125,-29.78515625,-33.69140625,-1.0,-1.0,1.0,0.0,9.m4v,3.0
2024-02-27 11:58:45.110480,1709031525.11048,-47.36328125,-28.3203125,-29.78515625,-33.69140625,-1.0,-1.0,1.0,0.0,9.m4v,3.0
2024-02-27 11:58:45.114386,1709031525.1143858,-44.43359375,-25.390625,-38.0859375,-26.85546875,-1.0,-1.0,1.0,0.0,9.m4v,3.0
2024-02-27 11:58:45.114386,1709031525.1143858,-44.43359375,-25.390625,-38.0859375,-26.85546875,-1.0,-1.0,1.0,0.0,9.m4v,3.0
2024-02-27 11:58:45.122197,1709031525.1221972,-50.78125,-41.9921875,-44.921875,-57.12890625,-1.0,-1.0,1.0,0.0,9.m4v,3.0
2024-02-27 11:58:45.122197,1709031525.1221972,-50.78125,-41.9921875,-44.921875,-57.12890625,-1.0,-1.0,1.0,0.0,9.m4v,3.0
2024-02-27 11:58:45.126103,1709031525.126103,-54.6875,-31.73828125,-41.50390625,-54.19921875,-1.0,-1.0,1.0,0.0,9.m4v,3.0
2024-02-27 11:58:45.126103,1709031525.126103,-54.6875,-31.73828125,-41.50390625,-54.19921875,-1.0,-1.0,1.0,0.0,9.m4v,3.0
2024-02-27 11:58:45.133914,1709031525.1339142,-57.6171875,-45.8984375,-35.15625,-47.8515625,-1.0,-1.0,1.0,0.0,9.m4v,3.0
2024-02-27 11:58:45.133914,1709031525.1339142,-57.6171875,-45.8984375,-35.15625,-47.8515625,-1.0,-1.0,1.0,0.0,9.m4v,3.0
2024-02-27 11:58:45.137820,1709031525.1378198,-52.734375,-36.1328125,-32.71484375,-51.26953125,-1.0,-1.0,1.0,0.0,9.m4v,3.0
2024-02-27 11:58:45.137820,1709031525.1378198,-52.734375,-36.1328125,-32.71484375,-51.26953125,-1.0,-1.0,1.0,0.0,9.m4v,3.0
2024-02-27 11:58:45.145631,1709031525.145631,-45.8984375,-20.5078125,-38.57421875,-59.08203125,-1.0,-1.0,1.0,0.0,9.m4v,3.0
2024-02-27 11:58:45.145631,1709031525.145631,-45.8984375,-20.5078125,-38.57421875,-59.08203125,-1.0,-1.0,1.0,0.0,9.m4v,3.0
2024-02-27 11:58:45.149540,1709031525.1495397,-37.59765625,-17.578125,-48.828125,-32.71484375,-1.0,-1.0,1.0,0.0,9.m4v,3.0
2024-02-27 11:58:45.149540,1709031525.1495397,-37.59765625,-17.578125,-48.828125,-32.71484375,-1.0,-1.0,1.0,0.0,9.m4v,3.0
2024-02-27 11:58:45.157351,1709031525.157351,-34.1796875,-31.73828125,-24.4140625,-38.57421875,-1.0,-1.0,1.0,0.0,9.m4v,3.0
2024-02-27 11:58:45.157351,1709031525.157351,-34.1796875,-31.73828125,-24.4140625,-38.57421875,-1.0,-1.0,1.0,0.0,9.m4v,3.0
2024-02-27 11:58:45.161257,1709031525.1612566,-37.109375,-41.9921875,-19.04296875,-48.828125,-1.0,-1.0,1.0,0.0,9.m4v,3.0
2024-02-27 11:58:45.161257,1709031525.1612566,-37.109375,-41.9921875,-19.04296875,-48.828125,-1.0,-1.0,1.0,0.0,9.m4v,3.0
2024-02-27 11:58:45.169068,1709031525.169068,-40.52734375,-23.92578125,-18.06640625,-32.71484375,-1.0,-1.0,1.0,0.0,9.m4v,3.0
2024-02-27 11:58:45.169068,1709031525.169068,-40.52734375,-23.92578125,-18.06640625,-32.71484375,-1.0,-1.0,1.0,0.0,9.m4v,3.0
2024-02-27 11:58:45.172974,1709031525.1729736,-40.0390625,-12.6953125,-26.3671875,-19.04296875,-1.0,-1.0,1.0,0.0,9.m4v,3.0
2024-02-27 11:58:45.172974,1709031525.1729736,-40.0390625,-12.6953125,-26.3671875,-19.04296875,-1.0,-1.0,1.0,0.0,9.m4v,3.0
2024-02-27 11:58:45.180785,1709031525.180785,-44.43359375,-43.45703125,-32.2265625,-52.24609375,-1.0,-1.0,1.0,0.0,9.m4v,3.0
2024-02-27 11:58:45.180785,1709031525.180785,-44.43359375,-43.45703125,-32.2265625,-52.24609375,-1.0,-1.0,1.0,0.0,9.m4v,3.0
2024-02-27 11:58:45.184691,1709031525.1846907,-39.55078125,-26.85546875,-41.015625,-42.48046875,-1.0,-1.0,1.0,0.0,9.m4v,3.0
2024-02-27 11:58:45.184691,1709031525.1846907,-39.55078125,-26.85546875,-41.015625,-42.48046875,-1.0,-1.0,1.0,0.0,9.m4v,3.0
2024-02-27 11:58:45.192502,1709031525.192502,-49.8046875,-31.73828125,-41.9921875,-14.6484375,-1.0,-1.0,1.0,0.0,9.m4v,3.0
2024-02-27 11:58:45.192502,1709031525.192502,-49.8046875,-31.73828125,-41.9921875,-14.6484375,-1.0,-1.0,1.0,0.0,9.m4v,3.0
2024-02-27 11:58:45.196410,1709031525.1964102,-66.89453125,-30.2734375,-22.4609375,-42.48046875,-1.0,-1.0,1.0,0.0,9.m4v,3.0
2024-02-27 11:58:45.196410,1709031525.1964102,-66.89453125,-30.2734375,-22.4609375,-42.48046875,-1.0,-1.0,1.0,0.0,9.m4v,3.0
2024-02-27 11:58:45.204222,1709031525.2042215,-58.10546875,-40.52734375,-21.484375,-55.6640625,-1.0,-1.0,1.0,0.0,9.m4v,3.0
2024-02-27 11:58:45.204222,1709031525.2042215,-58.10546875,-40.52734375,-21.484375,-55.6640625,-1.0,-1.0,1.0,0.0,9.m4v,3.0
2024-02-27 11:58:45.212033,1709031525.212033,-50.78125,-36.62109375,-14.16015625,-45.8984375,-1.0,-1.0,1.0,0.0,9.m4v,3.0
2024-02-27 11:58:45.212033,1709031525.212033,-50.78125,-36.62109375,-14.16015625,-45.8984375,-1.0,-1.0,1.0,0.0,9.m4v,3.0
2024-02-27 11:58:45.219844,1709031525.2198443,-54.19921875,-36.62109375,-33.69140625,-55.6640625,-1.0,-1.0,1.0,0.0,9.m4v,3.0
2024-02-27 11:58:45.219844,1709031525.2198443,-54.19921875,-36.62109375,-33.69140625,-55.6640625,-1.0,-1.0,1.0,0.0,9.m4v,3.0
2024-02-27 11:58:45.227656,1709031525.2276556,-55.6640625,-37.109375,-41.50390625,-49.8046875,-1.0,-1.0,1.0,0.0,9.m4v,3.0
2024-02-27 11:58:45.227656,1709031525.2276556,-55.6640625,-37.109375,-41.50390625,-49.8046875,-1.0,-1.0,1.0,0.0,9.m4v,3.0
2024-02-27 11:58:45.235467,1709031525.235467,-35.64453125,-19.04296875,-43.9453125,-35.64453125,-1.0,-1.0,1.0,0.0,9.m4v,3.0
2024-02-27 11:58:45.235467,1709031525.235467,-35.64453125,-19.04296875,-43.9453125,-35.64453125,-1.0,-1.0,1.0,0.0,9.m4v,3.0
2024-02-27 11:58:45.243281,1709031525.243281,-30.76171875,-25.87890625,-22.94921875,-50.78125,-1.0,-1.0,1.0,0.0,9.m4v,3.0
2024-02-27 11:58:45.243281,1709031525.243281,-30.76171875,-25.87890625,-22.94921875,-50.78125,-1.0,-1.0,1.0,0.0,9.m4v,3.0
2024-02-27 11:58:45.251092,1709031525.2510922,-34.1796875,-9.765625,-26.85546875,-20.01953125,-1.0,-1.0,1.0,0.0,9.m4v,3.0
2024-02-27 11:58:45.251092,1709031525.2510922,-34.1796875,-9.765625,-26.85546875,-20.01953125,-1.0,-1.0,1.0,0.0,9.m4v,3.0
2024-02-27 11:58:45.333114,1709031525.3331137,-39.55078125,-24.90234375,-30.76171875,-25.87890625,-1.0,-1.0,1.0,0.0,9.m4v,3.0
2024-02-27 11:58:45.337023,1709031525.3370228,-35.64453125,-19.04296875,-24.4140625,-25.390625,-1.0,-1.0,1.0,0.0,9.m4v,3.0
2024-02-27 11:58:45.340928,1709031525.3409283,-34.1796875,-20.5078125,-24.4140625,-34.1796875,-1.0,-1.0,1.0,0.0,9.m4v,3.0
2024-02-27 11:58:45.344834,1709031525.344834,-41.9921875,-36.1328125,-27.83203125,-44.921875,-1.0,-1.0,1.0,0.0,9.m4v,3.0
2024-02-27 11:58:45.348740,1709031525.34874,-45.41015625,-34.66796875,-27.34375,-35.15625,-1.0,-1.0,1.0,0.0,9.m4v,3.0
2024-02-27 11:58:45.352645,1709031525.3526454,-31.25,-18.5546875,-36.1328125,-13.671875,-1.0,-1.0,1.0,0.0,9.m4v,3.0
2024-02-27 11:58:45.356551,1709031525.3565512,-20.01953125,-31.25,-49.31640625,-13.18359375,-1.0,-1.0,1.0,0.0,9.m4v,3.0
2024-02-27 11:58:45.360457,1709031525.3604567,-22.94921875,-57.12890625,-41.50390625,-20.99609375,-1.0,-1.0,1.0,0.0,9.m4v,3.0
2024-02-27 11:58:45.364362,1709031525.3643625,-37.109375,-64.94140625,-32.2265625,-31.73828125,-1.0,-1.0,1.0,0.0,9.m4v,3.0
2024-02-27 11:58:45.368268,1709031525.368268,-41.9921875,-40.52734375,-35.64453125,-30.76171875,-1.0,-1.0,1.0,0.0,9.m4v,3.0
2024-02-27 11:58:45.372174,1709031525.3721738,-40.52734375,-15.625,-42.48046875,-29.296875,-1.0,-1.0,1.0,0.0,9.m4v,3.0
2024-02-27 11:58:45.376080,1709031525.3760796,-33.69140625,-14.16015625,-33.203125,-28.80859375,-1.0,-1.0,1.0,0.0,9.m4v,3.0
2024-02-27 11:58:45.379985,1709031525.379985,-34.66796875,-32.71484375,-29.296875,-40.52734375,-1.0,-1.0,1.0,0.0,9.m4v,3.0
2024-02-27 11:58:45.383894,1709031525.383894,-43.45703125,-35.15625,-40.0390625,-56.15234375,-1.0,-1.0,1.0,0.0,9.m4v,3.0
2024-02-27 11:58:45.387800,1709031525.3877995,-38.0859375,-25.390625,-36.62109375,-45.41015625,-1.0,-1.0,1.0,0.0,9.m4v,3.0
2024-02-27 11:58:45.391706,1709031525.3917055,-31.73828125,-27.34375,-28.3203125,-28.80859375,-1.0,-1.0,1.0,0.0,9.m4v,3.0
2024-02-27 11:58:45.395611,1709031525.395611,-32.71484375,-35.15625,-30.2734375,-28.80859375,-1.0,-1.0,1.0,0.0,9.m4v,3.0
2024-02-27 11:58:45.399517,1709031525.3995168,-28.3203125,-49.31640625,-38.0859375,-35.64453125,-1.0,-1.0,1.0,0.0,9.m4v,3.0
2024-02-27 11:58:45.419045,1709031525.419045,-32.2265625,-36.62109375,-58.10546875,-57.12890625,-1.0,-1.0,1.0,0.0,9.m4v,3.0
2024-02-27 11:58:45.426857,1709031525.4268565,-44.43359375,-37.109375,-25.390625,-48.828125,-1.0,-1.0,1.0,0.0,9.m4v,3.0
2024-02-27 11:58:45.434671,1709031525.434671,-50.29296875,-29.78515625,-19.53125,-36.62109375,-1.0,-1.0,1.0,0.0,9.m4v,3.0
2024-02-27 11:58:45.442482,1709031525.4424822,-58.59375,-53.7109375,-32.2265625,-59.5703125,-1.0,-1.0,1.0,0.0,9.m4v,3.0
2024-02-27 11:58:45.450294,1709031525.4502935,-64.453125,-46.38671875,-28.3203125,-38.57421875,-1.0,-1.0,1.0,0.0,9.m4v,3.0
2024-02-27 11:58:45.458105,1709031525.4581048,-39.55078125,-37.59765625,-32.71484375,-38.57421875,-1.0,-1.0,1.0,0.0,9.m4v,3.0
2024-02-27 11:58:45.465916,1709031525.4659162,-44.43359375,-69.3359375,-30.2734375,-40.0390625,-1.0,-1.0,1.0,0.0,9.m4v,3.0
2024-02-27 11:58:45.473727,1709031525.4737277,-52.24609375,-23.92578125,-48.828125,-28.3203125,-1.0,-1.0,1.0,0.0,9.m4v,3.0
2024-02-27 11:58:45.481542,1709031525.481542,-46.38671875,-61.03515625,-25.87890625,-58.59375,-1.0,-1.0,1.0,0.0,9.m4v,3.0
2024-02-27 11:58:45.497164,1709031525.4971645,-35.64453125,-6.34765625,-22.4609375,-30.2734375,-1.0,-1.0,1.0,0.0,9.m4v,3.0
2024-02-27 11:58:45.512787,1709031525.512787,-56.640625,-47.8515625,-49.8046875,-40.0390625,-1.0,-1.0,1.0,0.0,9.m4v,3.0
2024-02-27 11:58:45.528413,1709031525.5284126,-32.71484375,-36.62109375,-19.53125,-21.484375,-1.0,-1.0,1.0,0.0,9.m4v,3.0
2024-02-27 11:58:45.544035,1709031525.5440354,-30.2734375,-24.90234375,-28.80859375,-46.875,-1.0,-1.0,1.0,0.0,9.m4v,3.0
2024-02-27 11:58:45.551847,1709031525.5518467,-51.26953125,-67.87109375,-35.64453125,-38.57421875,-1.0,-1.0,1.0,0.0,9.m4v,3.0
2024-02-27 11:58:45.559658,1709031525.559658,-45.41015625,-28.3203125,-35.15625,-46.38671875,-1.0,-1.0,1.0,0.0,9.m4v,3.0
2024-02-27 11:58:45.567469,1709031525.5674694,-23.4375,-28.80859375,-38.57421875,-30.2734375,-1.0,-1.0,1.0,0.0,9.m4v,3.0
2024-02-27 11:58:45.575283,1709031525.5752833,-58.59375,-24.4140625,-34.1796875,-50.78125,-1.0,-1.0,1.0,0.0,9.m4v,3.0
2024-02-27 11:58:45.583095,1709031525.5830946,-53.22265625,-46.38671875,-25.87890625,-73.2421875,-1.0,-1.0,1.0,0.0,9.m4v,3.0
2024-02-27 11:58:45.590906,1709031525.590906,-39.55078125,-26.85546875,-29.78515625,-32.2265625,-1.0,-1.0,1.0,0.0,9.m4v,3.0
2024-02-27 11:58:45.598717,1709031525.5987177,-24.4140625,-33.69140625,-43.9453125,-39.0625,-1.0,-1.0,1.0,0.0,9.m4v,3.0
2024-02-27 11:58:45.606529,1709031525.6065288,-24.4140625,-53.22265625,-25.87890625,-26.3671875,-1.0,-1.0,1.0,0.0,9.m4v,3.0
2024-02-27 11:58:45.665118,1709031525.6651185,-37.59765625,-18.06640625,-35.64453125,-48.828125,-1.0,-1.0,1.0,0.0,9.m4v,3.0
2024-02-27 11:58:45.672930,1709031525.6729298,-43.45703125,-26.85546875,-36.62109375,-35.64453125,-1.0,-1.0,1.0,0.0,9.m4v,3.0
2024-02-27 11:58:45.676836,1709031525.6768355,-35.15625,-43.45703125,-26.3671875,-48.828125,-1.0,-1.0,1.0,0.0,9.m4v,3.0
2024-02-27 11:58:45.680741,1709031525.6807413,-31.25,-40.0390625,-19.53125,-59.08203125,-1.0,-1.0,1.0,0.0,9.m4v,3.0
2024-02-27 11:58:45.684647,1709031525.6846468,-39.0625,-25.87890625,-33.69140625,-53.7109375,-1.0,-1.0,1.0,0.0,9.m4v,3.0
2024-02-27 11:58:45.688553,1709031525.6885526,-41.015625,-42.48046875,-41.9921875,-38.0859375,-1.0,-1.0,1.0,0.0,9.m4v,3.0
2024-02-27 11:58:45.692458,1709031525.6924582,-46.38671875,-71.2890625,-45.41015625,-31.73828125,-1.0,-1.0,1.0,0.0,9.m4v,3.0
2024-02-27 11:58:45.696364,1709031525.696364,-53.22265625,-70.3125,-51.26953125,-43.9453125,-1.0,-1.0,1.0,0.0,9.m4v,3.0
2024-02-27 11:58:45.700269,1709031525.7002697,-48.33984375,-36.62109375,-36.62109375,-55.6640625,-1.0,-1.0,1.0,0.0,9.m4v,3.0
2024-02-27 11:58:45.704175,1709031525.7041752,-47.8515625,-21.97265625,-31.73828125,-59.08203125,-1.0,-1.0,1.0,0.0,9.m4v,3.0
2024-02-27 11:58:45.708081,1709031525.708081,-44.43359375,-23.92578125,-27.83203125,-49.31640625,-1.0,-1.0,1.0,0.0,9.m4v,3.0
2024-02-27 11:58:45.711989,1709031525.711989,-37.109375,-9.27734375,-22.4609375,-28.80859375,-1.0,-1.0,1.0,0.0,9.m4v,3.0
2024-02-27 11:58:45.715894,1709031525.7158945,-28.80859375,-18.5546875,-27.83203125,-20.01953125,-1.0,-1.0,1.0,0.0,9.m4v,3.0
2024-02-27 11:58:45.719800,1709031525.7198002,-22.4609375,-23.92578125,-36.62109375,-25.390625,-1.0,-1.0,1.0,0.0,9.m4v,3.0
2024-02-27 11:58:45.723706,1709031525.7237058,-33.69140625,-34.66796875,-50.78125,-39.55078125,-1.0,-1.0,1.0,0.0,9.m4v,3.0
2024-02-27 11:58:45.727612,1709031525.7276115,-42.96875,-55.17578125,-45.41015625,-45.41015625,-1.0,-1.0,1.0,0.0,9.m4v,3.0
2024-02-27 11:58:45.731517,1709031525.7315173,-42.96875,-44.921875,-36.1328125,-31.73828125,-1.0,-1.0,1.0,0.0,9.m4v,3.0
2024-02-27 11:58:45.735423,1709031525.7354228,-35.15625,-28.80859375,-44.921875,-31.73828125,-1.0,-1.0,1.0,0.0,9.m4v,3.0
2024-02-27 11:58:45.739329,1709031525.7393286,-31.73828125,-35.15625,-46.38671875,-54.19921875,-1.0,-1.0,1.0,0.0,9.m4v,3.0
2024-02-27 11:58:45.797917,1709031525.797917,-37.109375,-39.55078125,-25.87890625,-32.2265625,-1.0,-1.0,1.0,0.0,9.m4v,3.0
2024-02-27 11:58:45.801822,1709031525.8018224,-45.8984375,-47.8515625,-29.78515625,-54.6875,-1.0,-1.0,1.0,0.0,9.m4v,3.0
2024-02-27 11:58:45.805731,1709031525.8057313,-46.38671875,-41.015625,-42.48046875,-49.8046875,-1.0,-1.0,1.0,0.0,9.m4v,3.0
2024-02-27 11:58:45.891659,1709031525.891659,-28.80859375,-23.92578125,-31.73828125,-20.5078125,-1.0,-1.0,1.0,0.0,9.m4v,3.0
2024-02-27 11:58:45.891659,1709031525.891659,-28.80859375,-23.92578125,-31.73828125,-20.5078125,-1.0,-1.0,1.0,0.0,9.m4v,3.0
2024-02-27 11:58:45.895565,1709031525.8955646,-19.04296875,-34.1796875,-18.5546875,-11.71875,-1.0,-1.0,1.0,0.0,9.m4v,3.0
2024-02-27 11:58:45.895565,1709031525.8955646,-19.04296875,-34.1796875,-18.5546875,-11.71875,-1.0,-1.0,1.0,0.0,9.m4v,3.0
2024-02-27 11:58:45.899473,1709031525.8994732,-31.25,-45.8984375,-25.87890625,-33.69140625,-1.0,-1.0,1.0,0.0,9.m4v,3.0
2024-02-27 11:58:45.899473,1709031525.8994732,-31.25,-45.8984375,-25.87890625,-33.69140625,-1.0,-1.0,1.0,0.0,9.m4v,3.0
2024-02-27 11:58:45.903379,1709031525.9033787,-39.55078125,-54.19921875,-36.62109375,-46.38671875,-1.0,-1.0,1.0,0.0,9.m4v,3.0
2024-02-27 11:58:45.903379,1709031525.9033787,-39.55078125,-54.19921875,-36.62109375,-46.38671875,-1.0,-1.0,1.0,0.0,9.m4v,3.0
2024-02-27 11:58:45.907284,1709031525.9072845,-34.1796875,-38.0859375,-36.62109375,-32.2265625,-1.0,-1.0,1.0,0.0,9.m4v,3.0
2024-02-27 11:58:45.907284,1709031525.9072845,-34.1796875,-38.0859375,-36.62109375,-32.2265625,-1.0,-1.0,1.0,0.0,9.m4v,3.0
2024-02-27 11:58:45.911190,1709031525.9111905,-35.15625,-28.80859375,-36.1328125,-21.97265625,-1.0,-1.0,1.0,0.0,9.m4v,3.0
2024-02-27 11:58:45.911190,1709031525.9111905,-35.15625,-28.80859375,-36.1328125,-21.97265625,-1.0,-1.0,1.0,0.0,9.m4v,3.0
2024-02-27 11:58:45.915096,1709031525.9150958,-40.52734375,-43.45703125,-38.57421875,-26.3671875,-1.0,-1.0,1.0,0.0,9.m4v,3.0
2024-02-27 11:58:45.915096,1709031525.9150958,-40.52734375,-43.45703125,-38.57421875,-26.3671875,-1.0,-1.0,1.0,0.0,9.m4v,3.0
2024-02-27 11:58:45.919002,1709031525.9190016,-38.0859375,-40.0390625,-24.90234375,-32.71484375,-1.0,-1.0,1.0,0.0,9.m4v,3.0
2024-02-27 11:58:45.919002,1709031525.9190016,-38.0859375,-40.0390625,-24.90234375,-32.71484375,-1.0,-1.0,1.0,0.0,9.m4v,3.0
2024-02-27 11:58:45.922907,1709031525.922907,-33.69140625,-43.45703125,-21.97265625,-38.0859375,-1.0,-1.0,1.0,0.0,9.m4v,3.0
2024-02-27 11:58:45.926813,1709031525.926813,-30.76171875,-45.41015625,-33.203125,-31.73828125,-1.0,-1.0,1.0,0.0,9.m4v,3.0
2024-02-27 11:58:45.930718,1709031525.9307184,-24.90234375,-22.4609375,-24.90234375,-11.23046875,-1.0,-1.0,1.0,0.0,9.m4v,3.0
2024-02-27 11:58:45.934624,1709031525.9346242,-19.53125,-11.23046875,-25.87890625,-0.48828125,-1.0,-1.0,1.0,0.0,9.m4v,3.0
2024-02-27 11:58:46.098672,1709031526.0986722,-34.1796875,-38.57421875,-41.50390625,-44.43359375,-1.0,-1.0,1.0,0.0,9.m4v,3.0
2024-02-27 11:58:46.102578,1709031526.1025777,-33.203125,-20.99609375,-27.83203125,-47.36328125,-1.0,-1.0,1.0,0.0,9.m4v,3.0
2024-02-27 11:58:46.106483,1709031526.1064837,-33.69140625,-8.30078125,-24.90234375,-31.73828125,-1.0,-1.0,1.0,0.0,9.m4v,3.0
2024-02-27 11:58:46.110389,1709031526.110389,-39.0625,-12.6953125,-26.85546875,-18.06640625,-1.0,-1.0,1.0,0.0,9.m4v,3.0
2024-02-27 11:58:46.114295,1709031526.1142948,-41.9921875,-40.0390625,-33.203125,-24.4140625,-1.0,-1.0,1.0,0.0,9.m4v,3.0
2024-02-27 11:58:46.118200,1709031526.1182003,-41.50390625,-34.66796875,-33.69140625,-32.2265625,-1.0,-1.0,1.0,0.0,9.m4v,3.0
2024-02-27 11:58:46.122106,1709031526.122106,-46.875,-37.59765625,-33.203125,-45.8984375,-1.0,-1.0,1.0,0.0,9.m4v,3.0
2024-02-27 11:58:46.126012,1709031526.1260118,-39.0625,-41.50390625,-37.59765625,-39.55078125,-1.0,-1.0,1.0,0.0,9.m4v,3.0
2024-02-27 11:58:46.129917,1709031526.1299174,-25.87890625,-17.578125,-45.8984375,-13.18359375,-1.0,-1.0,1.0,0.0,9.m4v,3.0
2024-02-27 11:58:46.133826,1709031526.1338265,-23.4375,-0.48828125,-35.64453125,-7.8125,-1.0,-1.0,1.0,0.0,9.m4v,3.0
2024-02-27 11:58:46.137732,1709031526.137732,-29.296875,-27.83203125,-32.71484375,-32.2265625,-1.0,-1.0,1.0,0.0,9.m4v,3.0
2024-02-27 11:58:46.141638,1709031526.1416378,-40.52734375,-50.29296875,-37.59765625,-46.875,-1.0,-1.0,1.0,0.0,9.m4v,3.0
2024-02-27 11:58:46.145543,1709031526.145543,-46.38671875,-46.38671875,-22.94921875,-34.66796875,-1.0,-1.0,1.0,0.0,9.m4v,3.0
2024-02-27 11:58:46.149449,1709031526.149449,-45.41015625,-44.43359375,-15.13671875,-25.390625,-1.0,-1.0,1.0,0.0,9.m4v,3.0
2024-02-27 11:58:46.153355,1709031526.1533546,-45.8984375,-26.3671875,-25.390625,-28.3203125,-1.0,-1.0,1.0,0.0,9.m4v,3.0
2024-02-27 11:58:46.157260,1709031526.1572604,-46.38671875,-19.04296875,-36.62109375,-41.9921875,-1.0,-1.0,1.0,0.0,9.m4v,3.0
2024-02-27 11:58:46.161166,1709031526.161166,-42.96875,-27.34375,-46.38671875,-59.08203125,-1.0,-1.0,1.0,0.0,9.m4v,3.0
2024-02-27 11:58:46.165072,1709031526.1650715,-36.62109375,-22.4609375,-47.8515625,-57.12890625,-1.0,-1.0,1.0,0.0,9.m4v,3.0
2024-02-27 11:58:46.168977,1709031526.1689775,-36.62109375,-19.53125,-49.31640625,-41.015625,-1.0,-1.0,1.0,0.0,9.m4v,3.0
2024-02-27 11:58:46.172883,1709031526.172883,-28.80859375,-8.30078125,-39.55078125,-24.4140625,-1.0,-1.0,1.0,0.0,9.m4v,3.0
2024-02-27 11:58:46.176789,1709031526.1767888,-25.390625,-9.27734375,-34.1796875,-30.2734375,-1.0,-1.0,1.0,0.0,9.m4v,3.0
2024-02-27 11:58:46.180697,1709031526.1806974,-39.55078125,-29.296875,-44.921875,-50.29296875,-1.0,-1.0,1.0,0.0,9.m4v,3.0
2024-02-27 11:58:46.184603,1709031526.1846032,-46.875,-48.33984375,-41.50390625,-52.24609375,-1.0,-1.0,1.0,0.0,9.m4v,3.0
2024-02-27 11:58:46.188509,1709031526.1885087,-32.2265625,-41.9921875,-29.78515625,-25.390625,-1.0,-1.0,1.0,0.0,9.m4v,3.0
2024-02-27 11:58:46.192415,1709031526.1924143,-32.2265625,-24.90234375,-28.80859375,-14.16015625,-1.0,-1.0,1.0,0.0,9.m4v,3.0
2024-02-27 11:58:46.196320,1709031526.1963203,-47.36328125,-42.48046875,-30.2734375,-37.109375,-1.0,-1.0,1.0,0.0,9.m4v,3.0
2024-02-27 11:58:46.200226,1709031526.2002258,-42.96875,-37.109375,-35.15625,-45.41015625,-1.0,-1.0,1.0,0.0,9.m4v,3.0
2024-02-27 11:58:46.204132,1709031526.2041316,-39.0625,-31.25,-45.8984375,-47.8515625,-1.0,-1.0,1.0,0.0,9.m4v,3.0
2024-02-27 11:58:46.208037,1709031526.2080371,-36.1328125,-37.109375,-40.52734375,-37.59765625,-1.0,-1.0,1.0,0.0,9.m4v,3.0
2024-02-27 11:58:46.211943,1709031526.211943,-34.66796875,-32.71484375,-42.96875,-22.94921875,-1.0,-1.0,1.0,0.0,9.m4v,3.0
2024-02-27 11:58:46.215848,1709031526.2158484,-32.71484375,-40.52734375,-39.55078125,-20.99609375,-1.0,-1.0,1.0,0.0,9.m4v,3.0
2024-02-27 11:58:46.219754,1709031526.2197542,-28.3203125,-62.98828125,-32.71484375,-34.66796875,-1.0,-1.0,1.0,0.0,9.m4v,3.0
2024-02-27 11:58:46.223660,1709031526.2236598,-30.2734375,-62.98828125,-37.109375,-42.48046875,-1.0,-1.0,1.0,0.0,9.m4v,3.0
2024-02-27 11:58:46.227568,1709031526.2275684,-37.109375,-38.0859375,-29.296875,-33.203125,-1.0,-1.0,1.0,0.0,9.m4v,3.0
2024-02-27 11:58:46.231474,1709031526.2314742,-38.0859375,-26.85546875,-31.25,-21.97265625,-1.0,-1.0,1.0,0.0,9.m4v,3.0
2024-02-27 11:58:46.235380,1709031526.23538,-26.85546875,-30.2734375,-35.64453125,-15.13671875,-1.0,-1.0,1.0,0.0,9.m4v,3.0
2024-02-27 11:58:46.239285,1709031526.2392857,-20.99609375,-23.4375,-27.34375,-25.87890625,-1.0,-1.0,1.0,0.0,9.m4v,3.0
2024-02-27 11:58:46.243191,1709031526.2431912,-23.4375,-13.671875,-19.04296875,-36.1328125,-1.0,-1.0,1.0,0.0,9.m4v,3.0
2024-02-27 11:58:46.247097,1709031526.2470968,-34.1796875,-18.06640625,-16.6015625,-26.3671875,-1.0,-1.0,1.0,0.0,9.m4v,3.0
2024-02-27 11:58:46.251003,1709031526.2510026,-40.0390625,-26.3671875,-18.06640625,-14.16015625,-1.0,-1.0,1.0,0.0,9.m4v,3.0
2024-02-27 11:58:46.254908,1709031526.254908,-46.875,-38.57421875,-28.80859375,-24.90234375,-1.0,-1.0,1.0,0.0,9.m4v,3.0
2024-02-27 11:58:46.258814,1709031526.258814,-48.828125,-60.05859375,-28.80859375,-47.8515625,-1.0,-1.0,1.0,0.0,9.m4v,3.0
2024-02-27 11:58:46.262720,1709031526.2627196,-45.41015625,-60.546875,-22.4609375,-49.31640625,-1.0,-1.0,1.0,0.0,9.m4v,3.0
2024-02-27 11:58:46.266625,1709031526.2666252,-49.8046875,-49.8046875,-27.83203125,-35.64453125,-1.0,-1.0,1.0,0.0,9.m4v,3.0
2024-02-27 11:58:46.293968,1709031526.2939675,-47.8515625,-22.4609375,-22.4609375,-25.87890625,-1.0,-1.0,1.0,0.0,9.m4v,3.0
2024-02-27 11:58:46.297873,1709031526.2978733,-47.36328125,-49.31640625,-18.5546875,-42.48046875,-1.0,-1.0,1.0,0.0,9.m4v,3.0
2024-02-27 11:58:46.301779,1709031526.301779,-43.9453125,-58.10546875,-25.390625,-60.05859375,-1.0,-1.0,1.0,0.0,9.m4v,3.0
2024-02-27 11:58:46.305685,1709031526.3056846,-36.62109375,-47.36328125,-32.71484375,-51.26953125,-1.0,-1.0,1.0,0.0,9.m4v,3.0
2024-02-27 11:58:46.309590,1709031526.3095903,-35.64453125,-42.96875,-34.1796875,-25.87890625,-1.0,-1.0,1.0,0.0,9.m4v,3.0
2024-02-27 11:58:46.313496,1709031526.313496,-29.78515625,-31.25,-41.015625,-20.99609375,-1.0,-1.0,1.0,0.0,9.m4v,3.0
2024-02-27 11:58:46.317402,1709031526.3174016,-24.4140625,-39.0625,-46.875,-42.96875,-1.0,-1.0,1.0,0.0,9.m4v,3.0
2024-02-27 11:58:46.321310,1709031526.32131,-17.08984375,-31.25,-25.87890625,-36.62109375,-1.0,-1.0,1.0,0.0,9.m4v,3.0
2024-02-27 11:58:46.325216,1709031526.3252158,-13.18359375,-7.32421875,-2.9296875,-21.484375,-1.0,-1.0,1.0,0.0,9.m4v,3.0
2024-02-27 11:58:46.329122,1709031526.3291216,-22.94921875,-9.27734375,-22.94921875,-22.94921875,-1.0,-1.0,1.0,0.0,9.m4v,3.0
2024-02-27 11:58:46.333027,1709031526.3330271,-36.1328125,-26.3671875,-54.6875,-27.83203125,-1.0,-1.0,1.0,0.0,9.m4v,3.0
2024-02-27 11:58:46.336933,1709031526.336933,-42.48046875,-37.109375,-60.546875,-44.43359375,-1.0,-1.0,1.0,0.0,9.m4v,3.0
2024-02-27 11:58:46.340838,1709031526.3408384,-30.76171875,-19.53125,-52.734375,-51.26953125,-1.0,-1.0,1.0,0.0,9.m4v,3.0
2024-02-27 11:58:46.344744,1709031526.3447442,-33.203125,-28.80859375,-45.41015625,-56.640625,-1.0,-1.0,1.0,0.0,9.m4v,3.0
2024-02-27 11:58:46.348650,1709031526.3486495,-52.24609375,-68.359375,-38.0859375,-58.59375,-1.0,-1.0,1.0,0.0,9.m4v,3.0
2024-02-27 11:58:46.352556,1709031526.3525555,-40.52734375,-54.19921875,-23.92578125,-48.828125,-1.0,-1.0,1.0,0.0,9.m4v,3.0
2024-02-27 11:58:46.356461,1709031526.356461,-41.50390625,-32.2265625,-24.4140625,-53.22265625,-1.0,-1.0,1.0,0.0,9.m4v,3.0
2024-02-27 11:58:46.360367,1709031526.3603668,-56.15234375,-36.1328125,-27.83203125,-60.546875,-1.0,-1.0,1.0,0.0,9.m4v,3.0
2024-02-27 11:58:46.364273,1709031526.3642726,-54.19921875,-32.2265625,-24.90234375,-52.734375,-1.0,-1.0,1.0,0.0,9.m4v,3.0
2024-02-27 11:58:46.368181,1709031526.3681808,-49.31640625,-18.5546875,-22.94921875,-38.57421875,-1.0,-1.0,1.0,0.0,9.m4v,3.0
2024-02-27 11:58:46.372087,1709031526.3720863,-41.9921875,-10.7421875,-17.08984375,-30.2734375,-1.0,-1.0,1.0,0.0,9.m4v,3.0
2024-02-27 11:58:46.375992,1709031526.375992,-43.45703125,-21.97265625,-28.3203125,-45.8984375,-1.0,-1.0,1.0,0.0,9.m4v,3.0
2024-02-27 11:58:46.379898,1709031526.3798978,-47.8515625,-29.296875,-32.71484375,-64.453125,-1.0,-1.0,1.0,0.0,9.m4v,3.0
2024-02-27 11:58:46.383803,1709031526.3838034,-46.38671875,-26.3671875,-27.83203125,-65.4296875,-1.0,-1.0,1.0,0.0,9.m4v,3.0
2024-02-27 11:58:46.387709,1709031526.3877091,-37.109375,-16.11328125,-27.83203125,-45.41015625,-1.0,-1.0,1.0,0.0,9.m4v,3.0
2024-02-27 11:58:46.391615,1709031526.391615,-41.50390625,-33.69140625,-25.390625,-35.64453125,-1.0,-1.0,1.0,0.0,9.m4v,3.0
2024-02-27 11:58:46.395520,1709031526.3955204,-49.31640625,-52.24609375,-25.87890625,-51.26953125,-1.0,-1.0,1.0,0.0,9.m4v,3.0
2024-02-27 11:58:46.399426,1709031526.3994262,-35.64453125,-33.203125,-20.01953125,-57.12890625,-1.0,-1.0,1.0,0.0,9.m4v,3.0
2024-02-27 11:58:46.403332,1709031526.4033318,-33.69140625,-31.73828125,-17.08984375,-55.6640625,-1.0,-1.0,1.0,0.0,9.m4v,3.0
2024-02-27 11:58:46.407238,1709031526.4072375,-44.921875,-39.55078125,-21.97265625,-54.6875,-1.0,-1.0,1.0,0.0,9.m4v,3.0
2024-02-27 11:58:46.411143,1709031526.411143,-53.7109375,-25.390625,-26.3671875,-58.10546875,-1.0,-1.0,1.0,0.0,9.m4v,3.0
2024-02-27 11:58:46.415051,1709031526.4150512,-55.6640625,-25.87890625,-31.73828125,-63.96484375,-1.0,-1.0,1.0,0.0,9.m4v,3.0
2024-02-27 11:58:46.418957,1709031526.4189568,-65.91796875,-43.45703125,-37.109375,-80.078125,-1.0,-1.0,1.0,0.0,9.m4v,3.0
2024-02-27 11:58:46.422863,1709031526.4228623,-80.078125,-47.8515625,-41.9921875,-93.75,-1.0,-1.0,1.0,0.0,9.m4v,3.0
2024-02-27 11:58:46.426768,1709031526.426768,-96.19140625,-42.96875,-42.48046875,-98.14453125,-1.0,-1.0,1.0,0.0,9.m4v,3.0
2024-02-27 11:58:46.430674,1709031526.4306738,-103.515625,-34.1796875,-36.1328125,-95.21484375,-1.0,-1.0,1.0,0.0,9.m4v,3.0
2024-02-27 11:58:46.434579,1709031526.4345794,-102.05078125,-18.06640625,-39.0625,-99.12109375,-1.0,-1.0,1.0,0.0,9.m4v,3.0
2024-02-27 11:58:46.438485,1709031526.4384851,-109.86328125,-34.1796875,-41.50390625,-119.62890625,-1.0,-1.0,1.0,0.0,9.m4v,3.0
2024-02-27 11:58:46.442391,1709031526.442391,-109.86328125,-55.6640625,-42.48046875,-122.55859375,-1.0,-1.0,1.0,0.0,9.m4v,3.0
2024-02-27 11:58:46.446296,1709031526.4462965,-104.00390625,-41.015625,-52.24609375,-100.5859375,-1.0,-1.0,1.0,0.0,9.m4v,3.0
2024-02-27 11:58:46.450202,1709031526.4502022,-114.2578125,-14.16015625,-48.33984375,-92.7734375,-1.0,-1.0,1.0,0.0,9.m4v,3.0
2024-02-27 11:58:46.454108,1709031526.4541078,-121.58203125,-33.203125,-48.33984375,-93.75,-1.0,-1.0,1.0,0.0,9.m4v,3.0
2024-02-27 11:58:46.458014,1709031526.4580135,-126.953125,-65.91796875,-49.8046875,-108.88671875,-1.0,-1.0,1.0,0.0,9.m4v,3.0
2024-02-27 11:58:46.461921,1709031526.4619212,-134.765625,-64.94140625,-48.33984375,-125.9765625,-1.0,-1.0,1.0,0.0,9.m4v,3.0
2024-02-27 11:58:46.465827,1709031526.465827,-126.953125,-43.9453125,-38.0859375,-114.2578125,-1.0,-1.0,1.0,0.0,9.m4v,3.0
2024-02-27 11:58:46.469733,1709031526.4697328,-115.234375,-35.15625,-27.83203125,-94.23828125,-1.0,-1.0,1.0,0.0,9.m4v,3.0
2024-02-27 11:58:46.473638,1709031526.4736383,-107.91015625,-44.43359375,-27.83203125,-86.42578125,-1.0,-1.0,1.0,0.0,9.m4v,3.0
2024-02-27 11:58:46.473638,1709031526.4736383,-107.91015625,-44.43359375,-27.83203125,-86.42578125,-1.0,-1.0,1.0,0.0,9.m4v,3.0
2024-02-27 11:58:46.477544,1709031526.477544,-104.98046875,-38.0859375,-35.15625,-93.26171875,-1.0,-1.0,1.0,0.0,9.m4v,3.0
2024-02-27 11:58:46.477544,1709031526.477544,-104.98046875,-38.0859375,-35.15625,-93.26171875,-1.0,-1.0,1.0,0.0,9.m4v,3.0
2024-02-27 11:58:46.481450,1709031526.4814496,-109.375,-6.8359375,-43.45703125,-100.09765625,-1.0,-1.0,1.0,0.0,9.m4v,3.0
2024-02-27 11:58:46.481450,1709031526.4814496,-109.375,-6.8359375,-43.45703125,-100.09765625,-1.0,-1.0,1.0,0.0,9.m4v,3.0
2024-02-27 11:58:46.485355,1709031526.4853554,-109.375,2.9296875,-46.38671875,-102.5390625,-1.0,-1.0,1.0,0.0,9.m4v,3.0
2024-02-27 11:58:46.485355,1709031526.4853554,-109.375,2.9296875,-46.38671875,-102.5390625,-1.0,-1.0,1.0,0.0,9.m4v,3.0
2024-02-27 11:58:46.489261,1709031526.489261,-102.5390625,-20.01953125,-50.29296875,-96.19140625,-1.0,-1.0,1.0,0.0,9.m4v,3.0
2024-02-27 11:58:46.489261,1709031526.489261,-102.5390625,-20.01953125,-50.29296875,-96.19140625,-1.0,-1.0,1.0,0.0,9.m4v,3.0
2024-02-27 11:58:46.493167,1709031526.4931667,-101.07421875,-34.1796875,-47.36328125,-86.9140625,-1.0,-1.0,1.0,0.0,9.m4v,3.0
2024-02-27 11:58:46.493167,1709031526.4931667,-101.07421875,-34.1796875,-47.36328125,-86.9140625,-1.0,-1.0,1.0,0.0,9.m4v,3.0
2024-02-27 11:58:46.497072,1709031526.4970725,-101.5625,-59.08203125,-33.69140625,-89.84375,-1.0,-1.0,1.0,0.0,9.m4v,3.0
2024-02-27 11:58:46.497072,1709031526.4970725,-101.5625,-59.08203125,-33.69140625,-89.84375,-1.0,-1.0,1.0,0.0,9.m4v,3.0
2024-02-27 11:58:46.500978,1709031526.500978,-96.19140625,-57.12890625,-31.73828125,-91.30859375,-1.0,-1.0,1.0,0.0,9.m4v,3.0
2024-02-27 11:58:46.500978,1709031526.500978,-96.19140625,-57.12890625,-31.73828125,-91.30859375,-1.0,-1.0,1.0,0.0,9.m4v,3.0
2024-02-27 11:58:46.504884,1709031526.5048838,-106.4453125,-49.8046875,-38.57421875,-104.98046875,-1.0,-1.0,1.0,0.0,9.m4v,3.0
2024-02-27 11:58:46.504884,1709031526.5048838,-106.4453125,-49.8046875,-38.57421875,-104.98046875,-1.0,-1.0,1.0,0.0,9.m4v,3.0
2024-02-27 11:58:46.508793,1709031526.5087926,-90.8203125,-38.57421875,-39.55078125,-89.35546875,-1.0,-1.0,1.0,0.0,9.m4v,3.0
2024-02-27 11:58:46.508793,1709031526.5087926,-90.8203125,-38.57421875,-39.55078125,-89.35546875,-1.0,-1.0,1.0,0.0,9.m4v,3.0
2024-02-27 11:58:46.512698,1709031526.5126984,-69.82421875,-17.08984375,-53.22265625,-63.4765625,-1.0,-1.0,1.0,0.0,9.m4v,3.0
2024-02-27 11:58:46.512698,1709031526.5126984,-69.82421875,-17.08984375,-53.22265625,-63.4765625,-1.0,-1.0,1.0,0.0,9.m4v,3.0
2024-02-27 11:58:46.516604,1709031526.516604,-62.98828125,-19.53125,-41.9921875,-67.3828125,-1.0,-1.0,1.0,0.0,9.m4v,3.0
2024-02-27 11:58:46.516604,1709031526.516604,-62.98828125,-19.53125,-41.9921875,-67.3828125,-1.0,-1.0,1.0,0.0,9.m4v,3.0
2024-02-27 11:58:46.520510,1709031526.5205095,-60.546875,-37.59765625,-20.99609375,-77.1484375,-1.0,-1.0,1.0,0.0,9.m4v,3.0
2024-02-27 11:58:46.520510,1709031526.5205095,-60.546875,-37.59765625,-20.99609375,-77.1484375,-1.0,-1.0,1.0,0.0,9.m4v,3.0
2024-02-27 11:58:46.547849,1709031526.5478494,-36.1328125,-26.85546875,-30.76171875,-2.9296875,-1.0,-1.0,1.0,0.0,9.m4v,3.0
2024-02-27 11:58:46.551755,1709031526.551755,-30.2734375,-35.15625,-37.59765625,13.671875,-1.0,-1.0,1.0,0.0,9.m4v,3.0
2024-02-27 11:58:46.555664,1709031526.5556638,-22.4609375,-62.5,-32.71484375,14.16015625,-1.0,-1.0,1.0,0.0,9.m4v,3.0
2024-02-27 11:58:46.559570,1709031526.5595696,-20.99609375,-68.359375,-30.2734375,0.0,-1.0,-1.0,1.0,0.0,9.m4v,3.0
2024-02-27 11:58:46.563475,1709031526.5634751,-20.01953125,-46.875,-47.8515625,-8.30078125,-1.0,-1.0,1.0,0.0,9.m4v,3.0
2024-02-27 11:58:46.567381,1709031526.567381,-9.27734375,-31.73828125,-47.8515625,-0.48828125,-1.0,-1.0,1.0,0.0,9.m4v,3.0
2024-02-27 11:58:46.571286,1709031526.5712864,9.27734375,-19.53125,-44.43359375,15.13671875,-1.0,-1.0,1.0,0.0,9.m4v,3.0
2024-02-27 11:58:46.575192,1709031526.5751922,27.83203125,-5.859375,-39.55078125,21.97265625,-1.0,-1.0,1.0,0.0,9.m4v,3.0
2024-02-27 11:58:46.586909,1709031526.5869093,21.97265625,-46.875,-40.0390625,16.11328125,-1.0,-1.0,1.0,0.0,9.m4v,3.0
2024-02-27 11:58:46.594721,1709031526.5947206,43.45703125,-8.7890625,-26.85546875,59.5703125,-1.0,-1.0,1.0,0.0,9.m4v,3.0
2024-02-27 11:58:46.598626,1709031526.598626,24.4140625,-43.45703125,-18.06640625,24.90234375,-1.0,-1.0,1.0,0.0,9.m4v,3.0
2024-02-27 11:58:46.602535,1709031526.6025348,16.11328125,-43.45703125,-37.59765625,10.7421875,-1.0,-1.0,1.0,0.0,9.m4v,3.0
2024-02-27 11:58:46.606441,1709031526.6064403,3.41796875,-39.55078125,-63.96484375,12.20703125,-1.0,-1.0,1.0,0.0,9.m4v,3.0
2024-02-27 11:58:46.610346,1709031526.610346,-1.46484375,-31.73828125,-42.48046875,27.34375,-1.0,-1.0,1.0,0.0,9.m4v,3.0
2024-02-27 11:58:46.614252,1709031526.614252,-0.48828125,-25.87890625,-14.6484375,23.4375,-1.0,-1.0,1.0,0.0,9.m4v,3.0
2024-02-27 11:58:46.618158,1709031526.6181576,-12.20703125,-40.52734375,-27.83203125,-1.953125,-1.0,-1.0,1.0,0.0,9.m4v,3.0
2024-02-27 11:58:46.618158,1709031526.6181576,-12.20703125,-40.52734375,-27.83203125,-1.953125,-1.0,-1.0,1.0,0.0,9.m4v,3.0
2024-02-27 11:58:46.622063,1709031526.6220632,-13.18359375,-27.83203125,-34.1796875,-11.23046875,-1.0,-1.0,1.0,0.0,9.m4v,3.0
2024-02-27 11:58:46.625969,1709031526.625969,-12.20703125,-36.62109375,-32.2265625,-9.765625,-1.0,-1.0,1.0,0.0,9.m4v,3.0
2024-02-27 11:58:46.629874,1709031526.6298745,-20.01953125,-56.15234375,-35.64453125,-4.8828125,-1.0,-1.0,1.0,0.0,9.m4v,3.0
2024-02-27 11:58:46.633780,1709031526.6337802,-19.04296875,-51.7578125,-31.73828125,1.953125,-1.0,-1.0,1.0,0.0,9.m4v,3.0
2024-02-27 11:58:46.637686,1709031526.6376858,-12.20703125,-36.62109375,-25.87890625,-6.8359375,-1.0,-1.0,1.0,0.0,9.m4v,3.0
2024-02-27 11:58:46.641592,1709031526.6415915,-17.578125,-32.71484375,-38.0859375,-28.80859375,-1.0,-1.0,1.0,0.0,9.m4v,3.0
2024-02-27 11:58:46.645497,1709031526.645497,-33.203125,-40.0390625,-46.875,-38.0859375,-1.0,-1.0,1.0,0.0,9.m4v,3.0
2024-02-27 11:58:46.649406,1709031526.6494057,-28.80859375,-30.2734375,-52.24609375,-16.6015625,-1.0,-1.0,1.0,0.0,9.m4v,3.0
2024-02-27 11:58:46.653311,1709031526.6533113,-20.01953125,-34.66796875,-52.24609375,-5.37109375,-1.0,-1.0,1.0,0.0,9.m4v,3.0
2024-02-27 11:58:46.657217,1709031526.657217,-11.71875,-41.50390625,-38.0859375,-11.71875,-1.0,-1.0,1.0,0.0,9.m4v,3.0
2024-02-27 11:58:46.661123,1709031526.6611228,-8.30078125,-40.0390625,-42.48046875,-22.94921875,-1.0,-1.0,1.0,0.0,9.m4v,3.0
2024-02-27 11:58:46.665028,1709031526.6650283,-8.30078125,-38.57421875,-46.38671875,-24.4140625,-1.0,-1.0,1.0,0.0,9.m4v,3.0
2024-02-27 11:58:46.668934,1709031526.668934,5.37109375,-36.1328125,-33.69140625,-6.34765625,-1.0,-1.0,1.0,0.0,9.m4v,3.0
2024-02-27 11:58:46.672840,1709031526.6728396,15.13671875,-36.62109375,-24.90234375,2.44140625,-1.0,-1.0,1.0,0.0,9.m4v,3.0
2024-02-27 11:58:46.676745,1709031526.6767454,11.71875,-41.9921875,-37.59765625,-13.18359375,-1.0,-1.0,1.0,0.0,9.m4v,3.0
2024-02-27 11:58:46.680651,1709031526.680651,11.23046875,-46.38671875,-46.38671875,-29.78515625,-1.0,-1.0,1.0,0.0,9.m4v,3.0
2024-02-27 11:58:46.684557,1709031526.6845567,11.23046875,-36.1328125,-41.50390625,-27.34375,-1.0,-1.0,1.0,0.0,9.m4v,3.0
2024-02-27 11:58:46.688462,1709031526.6884625,9.27734375,-22.94921875,-34.1796875,-7.8125,-1.0,-1.0,1.0,0.0,9.m4v,3.0
2024-02-27 11:58:46.688462,1709031526.6884625,9.27734375,-22.94921875,-34.1796875,-7.8125,-1.0,-1.0,1.0,0.0,9.m4v,3.0
2024-02-27 11:58:46.692368,1709031526.692368,12.6953125,-16.6015625,-42.96875,10.25390625,-1.0,-1.0,1.0,0.0,9.m4v,3.0
2024-02-27 11:58:46.696276,1709031526.6962764,12.20703125,-15.13671875,-53.22265625,6.34765625,-1.0,-1.0,1.0,0.0,9.m4v,3.0
2024-02-27 11:58:46.696276,1709031526.6962764,12.20703125,-15.13671875,-53.22265625,6.34765625,-1.0,-1.0,1.0,0.0,9.m4v,3.0
2024-02-27 11:58:46.700182,1709031526.700182,12.6953125,-9.27734375,-32.2265625,6.8359375,-1.0,-1.0,1.0,0.0,9.m4v,3.0
2024-02-27 11:58:46.704088,1709031526.7040875,4.8828125,-7.32421875,-26.3671875,4.39453125,-1.0,-1.0,1.0,0.0,9.m4v,3.0
2024-02-27 11:58:46.704088,1709031526.7040875,4.8828125,-7.32421875,-26.3671875,4.39453125,-1.0,-1.0,1.0,0.0,9.m4v,3.0
2024-02-27 11:58:46.704088,1709031526.7040875,4.8828125,-7.32421875,-26.3671875,4.39453125,-1.0,-1.0,1.0,0.0,9.m4v,3.0
2024-02-27 11:58:46.707993,1709031526.7079933,-10.25390625,-25.390625,-42.48046875,-3.41796875,-1.0,-1.0,1.0,0.0,9.m4v,3.0
2024-02-27 11:58:46.711899,1709031526.711899,-17.08984375,-32.71484375,-32.71484375,-0.9765625,-1.0,-1.0,1.0,0.0,9.m4v,3.0
2024-02-27 11:58:46.711899,1709031526.711899,-17.08984375,-32.71484375,-32.71484375,-0.9765625,-1.0,-1.0,1.0,0.0,9.m4v,3.0
2024-02-27 11:58:46.711899,1709031526.711899,-17.08984375,-32.71484375,-32.71484375,-0.9765625,-1.0,-1.0,1.0,0.0,9.m4v,3.0
2024-02-27 11:58:46.715805,1709031526.7158048,-21.484375,-13.671875,-18.5546875,-7.8125,-1.0,-1.0,1.0,0.0,9.m4v,3.0
2024-02-27 11:58:46.719710,1709031526.7197104,-33.203125,-30.76171875,-24.90234375,-29.296875,-1.0,-1.0,1.0,0.0,9.m4v,3.0
2024-02-27 11:58:46.719710,1709031526.7197104,-33.203125,-30.76171875,-24.90234375,-29.296875,-1.0,-1.0,1.0,0.0,9.m4v,3.0
2024-02-27 11:58:46.719710,1709031526.7197104,-33.203125,-30.76171875,-24.90234375,-29.296875,-1.0,-1.0,1.0,0.0,9.m4v,3.0
2024-02-27 11:58:46.723616,1709031526.723616,-46.875,-73.73046875,-30.76171875,-47.8515625,-1.0,-1.0,1.0,0.0,9.m4v,3.0
2024-02-27 11:58:46.727522,1709031526.7275217,-48.33984375,-60.546875,-28.80859375,-37.59765625,-1.0,-1.0,1.0,0.0,9.m4v,3.0
2024-02-27 11:58:46.727522,1709031526.7275217,-48.33984375,-60.546875,-28.80859375,-37.59765625,-1.0,-1.0,1.0,0.0,9.m4v,3.0
2024-02-27 11:58:46.727522,1709031526.7275217,-48.33984375,-60.546875,-28.80859375,-37.59765625,-1.0,-1.0,1.0,0.0,9.m4v,3.0
2024-02-27 11:58:46.731427,1709031526.7314274,-43.9453125,-34.66796875,-36.62109375,-24.4140625,-1.0,-1.0,1.0,0.0,9.m4v,3.0
2024-02-27 11:58:46.735333,1709031526.735333,-41.9921875,-47.36328125,-45.41015625,-34.66796875,-1.0,-1.0,1.0,0.0,9.m4v,3.0
2024-02-27 11:58:46.735333,1709031526.735333,-41.9921875,-47.36328125,-45.41015625,-34.66796875,-1.0,-1.0,1.0,0.0,9.m4v,3.0
2024-02-27 11:58:46.735333,1709031526.735333,-41.9921875,-47.36328125,-45.41015625,-34.66796875,-1.0,-1.0,1.0,0.0,9.m4v,3.0
2024-02-27 11:58:46.739239,1709031526.7392387,-45.41015625,-50.29296875,-39.0625,-53.7109375,-1.0,-1.0,1.0,0.0,9.m4v,3.0
2024-02-27 11:58:46.743147,1709031526.743147,-49.31640625,-37.109375,-27.34375,-59.08203125,-1.0,-1.0,1.0,0.0,9.m4v,3.0
2024-02-27 11:58:46.743147,1709031526.743147,-49.31640625,-37.109375,-27.34375,-59.08203125,-1.0,-1.0,1.0,0.0,9.m4v,3.0
2024-02-27 11:58:46.743147,1709031526.743147,-49.31640625,-37.109375,-27.34375,-59.08203125,-1.0,-1.0,1.0,0.0,9.m4v,3.0
2024-02-27 11:58:46.747052,1709031526.7470524,-48.33984375,-32.71484375,-20.5078125,-42.48046875,-1.0,-1.0,1.0,0.0,9.m4v,3.0
2024-02-27 11:58:46.750958,1709031526.7509582,-41.015625,-25.390625,-24.90234375,-30.76171875,-1.0,-1.0,1.0,0.0,9.m4v,3.0
2024-02-27 11:58:46.750958,1709031526.7509582,-41.015625,-25.390625,-24.90234375,-30.76171875,-1.0,-1.0,1.0,0.0,9.m4v,3.0
2024-02-27 11:58:46.750958,1709031526.7509582,-41.015625,-25.390625,-24.90234375,-30.76171875,-1.0,-1.0,1.0,0.0,9.m4v,3.0
2024-02-27 11:58:46.754864,1709031526.754864,-28.80859375,-24.4140625,-42.48046875,-39.0625,-1.0,-1.0,1.0,0.0,9.m4v,3.0
2024-02-27 11:58:46.758770,1709031526.7587695,-20.5078125,-27.83203125,-38.0859375,-48.33984375,-1.0,-1.0,1.0,0.0,9.m4v,3.0
2024-02-27 11:58:46.758770,1709031526.7587695,-20.5078125,-27.83203125,-38.0859375,-48.33984375,-1.0,-1.0,1.0,0.0,9.m4v,3.0
2024-02-27 11:58:46.758770,1709031526.7587695,-20.5078125,-27.83203125,-38.0859375,-48.33984375,-1.0,-1.0,1.0,0.0,9.m4v,3.0
2024-02-27 11:58:46.762675,1709031526.7626753,-11.71875,-11.23046875,-17.08984375,-37.59765625,-1.0,-1.0,1.0,0.0,9.m4v,3.0
2024-02-27 11:58:46.766581,1709031526.7665808,-10.25390625,0.48828125,-12.20703125,-23.92578125,-1.0,-1.0,1.0,0.0,9.m4v,3.0
2024-02-27 11:58:46.766581,1709031526.7665808,-10.25390625,0.48828125,-12.20703125,-23.92578125,-1.0,-1.0,1.0,0.0,9.m4v,3.0
2024-02-27 11:58:46.766581,1709031526.7665808,-10.25390625,0.48828125,-12.20703125,-23.92578125,-1.0,-1.0,1.0,0.0,9.m4v,3.0
2024-02-27 11:58:46.770487,1709031526.7704866,-16.11328125,-26.85546875,-21.97265625,-21.97265625,-1.0,-1.0,1.0,0.0,9.m4v,3.0
2024-02-27 11:58:46.774392,1709031526.774392,-10.7421875,-56.640625,-27.83203125,-22.94921875,-1.0,-1.0,1.0,0.0,9.m4v,3.0
2024-02-27 11:58:46.774392,1709031526.774392,-10.7421875,-56.640625,-27.83203125,-22.94921875,-1.0,-1.0,1.0,0.0,9.m4v,3.0
2024-02-27 11:58:46.774392,1709031526.774392,-10.7421875,-56.640625,-27.83203125,-22.94921875,-1.0,-1.0,1.0,0.0,9.m4v,3.0
2024-02-27 11:58:46.778298,1709031526.778298,-17.578125,-80.078125,-37.59765625,-36.1328125,-1.0,-1.0,1.0,0.0,9.m4v,3.0
2024-02-27 11:58:46.782204,1709031526.7822037,-32.2265625,-69.82421875,-50.29296875,-46.38671875,-1.0,-1.0,1.0,0.0,9.m4v,3.0
2024-02-27 11:58:46.782204,1709031526.7822037,-32.2265625,-69.82421875,-50.29296875,-46.38671875,-1.0,-1.0,1.0,0.0,9.m4v,3.0
2024-02-27 11:58:46.782204,1709031526.7822037,-32.2265625,-69.82421875,-50.29296875,-46.38671875,-1.0,-1.0,1.0,0.0,9.m4v,3.0
2024-02-27 11:58:46.786109,1709031526.7861092,-41.015625,-48.828125,-48.828125,-35.15625,-1.0,-1.0,1.0,0.0,9.m4v,3.0
2024-02-27 11:58:46.790017,1709031526.7900174,-29.78515625,-23.92578125,-25.390625,0.0,-1.0,-1.0,1.0,0.0,9.m4v,3.0
2024-02-27 11:58:46.790017,1709031526.7900174,-29.78515625,-23.92578125,-25.390625,0.0,-1.0,-1.0,1.0,0.0,9.m4v,3.0
2024-02-27 11:58:46.790017,1709031526.7900174,-29.78515625,-23.92578125,-25.390625,0.0,-1.0,-1.0,1.0,0.0,9.m4v,3.0
2024-02-27 11:58:46.793923,1709031526.7939231,-23.4375,-11.71875,-14.6484375,11.23046875,-1.0,-1.0,1.0,0.0,9.m4v,3.0
2024-02-27 11:58:46.797829,1709031526.797829,-35.64453125,-46.875,-15.625,-12.6953125,-1.0,-1.0,1.0,0.0,9.m4v,3.0
2024-02-27 11:58:46.797829,1709031526.797829,-35.64453125,-46.875,-15.625,-12.6953125,-1.0,-1.0,1.0,0.0,9.m4v,3.0
2024-02-27 11:58:46.797829,1709031526.797829,-35.64453125,-46.875,-15.625,-12.6953125,-1.0,-1.0,1.0,0.0,9.m4v,3.0
2024-02-27 11:58:46.801734,1709031526.8017344,-35.15625,-52.734375,-7.32421875,-17.08984375,-1.0,-1.0,1.0,0.0,9.m4v,3.0
2024-02-27 11:58:46.805640,1709031526.80564,-36.62109375,-34.66796875,-11.23046875,-2.9296875,-1.0,-1.0,1.0,0.0,9.m4v,3.0
2024-02-27 11:58:46.805640,1709031526.80564,-36.62109375,-34.66796875,-11.23046875,-2.9296875,-1.0,-1.0,1.0,0.0,9.m4v,3.0
2024-02-27 11:58:46.805640,1709031526.80564,-36.62109375,-34.66796875,-11.23046875,-2.9296875,-1.0,-1.0,1.0,0.0,9.m4v,3.0
2024-02-27 11:58:46.809546,1709031526.8095458,-36.62109375,-27.34375,-8.7890625,13.671875,-1.0,-1.0,1.0,0.0,9.m4v,3.0
2024-02-27 11:58:46.813451,1709031526.8134513,-27.83203125,-31.25,-7.32421875,17.578125,-1.0,-1.0,1.0,0.0,9.m4v,3.0
2024-02-27 11:58:46.813451,1709031526.8134513,-27.83203125,-31.25,-7.32421875,17.578125,-1.0,-1.0,1.0,0.0,9.m4v,3.0
2024-02-27 11:58:46.813451,1709031526.8134513,-27.83203125,-31.25,-7.32421875,17.578125,-1.0,-1.0,1.0,0.0,9.m4v,3.0
2024-02-27 11:58:46.817357,1709031526.817357,-34.66796875,-52.734375,-18.5546875,-9.765625,-1.0,-1.0,1.0,0.0,9.m4v,3.0
2024-02-27 11:58:46.821263,1709031526.8212628,-42.48046875,-52.734375,-24.90234375,-26.3671875,-1.0,-1.0,1.0,0.0,9.m4v,3.0
2024-02-27 11:58:46.821263,1709031526.8212628,-42.48046875,-52.734375,-24.90234375,-26.3671875,-1.0,-1.0,1.0,0.0,9.m4v,3.0
2024-02-27 11:58:46.821263,1709031526.8212628,-42.48046875,-52.734375,-24.90234375,-26.3671875,-1.0,-1.0,1.0,0.0,9.m4v,3.0
2024-02-27 11:58:46.825168,1709031526.8251684,-42.96875,-43.45703125,-29.296875,-20.99609375,-1.0,-1.0,1.0,0.0,9.m4v,3.0
2024-02-27 11:58:46.829074,1709031526.829074,-34.66796875,-48.33984375,-30.2734375,-15.625,-1.0,-1.0,1.0,0.0,9.m4v,3.0
2024-02-27 11:58:46.829074,1709031526.829074,-34.66796875,-48.33984375,-30.2734375,-15.625,-1.0,-1.0,1.0,0.0,9.m4v,3.0
2024-02-27 11:58:46.829074,1709031526.829074,-34.66796875,-48.33984375,-30.2734375,-15.625,-1.0,-1.0,1.0,0.0,9.m4v,3.0
2024-02-27 11:58:46.832980,1709031526.8329797,-25.87890625,-35.64453125,-31.73828125,-19.53125,-1.0,-1.0,1.0,0.0,9.m4v,3.0
2024-02-27 11:58:46.836888,1709031526.8368876,-24.90234375,-11.23046875,-34.1796875,-28.3203125,-1.0,-1.0,1.0,0.0,9.m4v,3.0
2024-02-27 11:58:46.836888,1709031526.8368876,-24.90234375,-11.23046875,-34.1796875,-28.3203125,-1.0,-1.0,1.0,0.0,9.m4v,3.0
2024-02-27 11:58:46.836888,1709031526.8368876,-24.90234375,-11.23046875,-34.1796875,-28.3203125,-1.0,-1.0,1.0,0.0,9.m4v,3.0
2024-02-27 11:58:46.840793,1709031526.8407931,-22.94921875,-4.39453125,-38.0859375,-30.76171875,-1.0,-1.0,1.0,0.0,9.m4v,3.0
2024-02-27 11:58:46.844699,1709031526.844699,-21.484375,-12.20703125,-42.48046875,-23.92578125,-1.0,-1.0,1.0,0.0,9.m4v,3.0
2024-02-27 11:58:46.844699,1709031526.844699,-21.484375,-12.20703125,-42.48046875,-23.92578125,-1.0,-1.0,1.0,0.0,9.m4v,3.0
2024-02-27 11:58:46.844699,1709031526.844699,-21.484375,-12.20703125,-42.48046875,-23.92578125,-1.0,-1.0,1.0,0.0,9.m4v,3.0
2024-02-27 11:58:46.848605,1709031526.848605,-24.4140625,-19.53125,-41.015625,-11.71875,-1.0,-1.0,1.0,0.0,9.m4v,3.0
2024-02-27 11:58:46.852510,1709031526.8525102,-22.4609375,-1.46484375,-33.69140625,1.46484375,-1.0,-1.0,1.0,0.0,9.m4v,3.0
2024-02-27 11:58:46.852510,1709031526.8525102,-22.4609375,-1.46484375,-33.69140625,1.46484375,-1.0,-1.0,1.0,0.0,9.m4v,3.0
2024-02-27 11:58:46.852510,1709031526.8525102,-22.4609375,-1.46484375,-33.69140625,1.46484375,-1.0,-1.0,1.0,0.0,9.m4v,3.0
2024-02-27 11:58:46.856416,1709031526.856416,-17.08984375,11.23046875,-37.59765625,-1.46484375,-1.0,-1.0,1.0,0.0,9.m4v,3.0
