Timestamp,Timestamp_UNIX,TP9,AF7,AF8,TP10,Valence,Arousal,Dominace,Viewed,Video,Participant
2024-02-28 11:42:06.007361,1709116926.0073607,-20.99609375,-26.3671875,-35.64453125,-40.52734375,1.0,1.0,-1.0,1.0,6.m4v,9.0
2024-02-28 11:42:06.019078,1709116926.0190785,-20.99609375,-27.83203125,-21.97265625,-20.01953125,1.0,1.0,-1.0,1.0,6.m4v,9.0
2024-02-28 11:42:06.030797,1709116926.0307963,-25.87890625,-30.76171875,-21.484375,-24.90234375,1.0,1.0,-1.0,1.0,6.m4v,9.0
2024-02-28 11:42:06.042514,1709116926.0425143,-24.90234375,-25.390625,-24.4140625,-31.73828125,1.0,1.0,-1.0,1.0,6.m4v,9.0
2024-02-28 11:42:06.054233,1709116926.054233,-20.99609375,-21.97265625,-38.57421875,-36.62109375,1.0,1.0,-1.0,1.0,6.m4v,9.0
2024-02-28 11:42:06.065951,1709116926.0659509,-26.85546875,-28.80859375,-32.71484375,-29.78515625,1.0,1.0,-1.0,1.0,6.m4v,9.0
2024-02-28 11:42:06.089387,1709116926.0893867,-23.92578125,-25.390625,-40.0390625,-45.8984375,1.0,1.0,-1.0,1.0,6.m4v,9.0
2024-02-28 11:42:06.101105,1709116926.101105,-13.671875,-27.34375,-36.1328125,-29.78515625,1.0,1.0,-1.0,1.0,6.m4v,9.0
2024-02-28 11:42:06.124541,1709116926.1245408,-17.578125,-35.64453125,-34.1796875,-24.4140625,1.0,1.0,-1.0,1.0,6.m4v,9.0
2024-02-28 11:42:06.144072,1709116926.144072,-33.203125,-23.92578125,-23.92578125,-13.671875,1.0,1.0,-1.0,1.0,6.m4v,9.0
2024-02-28 11:42:06.163602,1709116926.163602,0.0,-21.484375,-36.62109375,-30.2734375,1.0,1.0,-1.0,1.0,6.m4v,9.0
2024-02-28 11:42:06.183132,1709116926.1831317,-15.13671875,-27.83203125,-32.2265625,-23.92578125,1.0,1.0,-1.0,1.0,6.m4v,9.0
2024-02-28 11:42:06.198757,1709116926.198757,-26.3671875,-30.2734375,-30.2734375,-38.57421875,1.0,1.0,-1.0,1.0,6.m4v,9.0
2024-02-28 11:42:06.214381,1709116926.2143807,-30.2734375,-30.76171875,-36.1328125,-53.22265625,1.0,1.0,-1.0,1.0,6.m4v,9.0
2024-02-28 11:42:06.233911,1709116926.2339106,-29.296875,-24.90234375,-31.25,-41.50390625,1.0,1.0,-1.0,1.0,6.m4v,9.0
2024-02-28 11:42:06.253442,1709116926.2534416,-46.875,-33.203125,-34.1796875,-39.55078125,1.0,1.0,-1.0,1.0,6.m4v,9.0
2024-02-28 11:42:06.272971,1709116926.2729714,-43.9453125,-34.66796875,-38.57421875,-44.43359375,1.0,1.0,-1.0,1.0,6.m4v,9.0
2024-02-28 11:42:06.292502,1709116926.2925024,-41.50390625,-28.3203125,-38.0859375,-56.15234375,1.0,1.0,-1.0,1.0,6.m4v,9.0
2024-02-28 11:42:06.312032,1709116926.3120322,-22.94921875,-35.64453125,-26.3671875,-35.64453125,1.0,1.0,-1.0,1.0,6.m4v,9.0
2024-02-28 11:42:06.331563,1709116926.331563,-45.41015625,-30.2734375,-32.2265625,-40.52734375,1.0,1.0,-1.0,1.0,6.m4v,9.0
2024-02-28 11:42:06.351093,1709116926.3510928,-37.109375,-25.87890625,-26.3671875,-49.8046875,1.0,1.0,-1.0,1.0,6.m4v,9.0
2024-02-28 11:42:06.370623,1709116926.3706226,-42.96875,-29.296875,-31.73828125,-43.45703125,1.0,1.0,-1.0,1.0,6.m4v,9.0
2024-02-28 11:42:06.370623,1709116926.3706226,-42.96875,-29.296875,-31.73828125,-43.45703125,1.0,1.0,-1.0,1.0,6.m4v,9.0
2024-02-28 11:42:06.370623,1709116926.3706226,-42.96875,-29.296875,-31.73828125,-43.45703125,1.0,1.0,-1.0,1.0,6.m4v,9.0
2024-02-28 11:42:06.374529,1709116926.3745286,-39.0625,-30.76171875,-26.3671875,-39.55078125,1.0,1.0,-1.0,1.0,6.m4v,9.0
2024-02-28 11:42:06.374529,1709116926.3745286,-39.0625,-30.76171875,-26.3671875,-39.55078125,1.0,1.0,-1.0,1.0,6.m4v,9.0
2024-02-28 11:42:06.374529,1709116926.3745286,-39.0625,-30.76171875,-26.3671875,-39.55078125,1.0,1.0,-1.0,1.0,6.m4v,9.0
2024-02-28 11:42:06.374529,1709116926.3745286,-39.0625,-30.76171875,-26.3671875,-39.55078125,1.0,1.0,-1.0,1.0,6.m4v,9.0
2024-02-28 11:42:06.378435,1709116926.3784354,-39.0625,-28.3203125,-31.73828125,-43.45703125,1.0,1.0,-1.0,1.0,6.m4v,9.0
2024-02-28 11:42:06.378435,1709116926.3784354,-39.0625,-28.3203125,-31.73828125,-43.45703125,1.0,1.0,-1.0,1.0,6.m4v,9.0
2024-02-28 11:42:06.378435,1709116926.3784354,-39.0625,-28.3203125,-31.73828125,-43.45703125,1.0,1.0,-1.0,1.0,6.m4v,9.0
2024-02-28 11:42:06.378435,1709116926.3784354,-39.0625,-28.3203125,-31.73828125,-43.45703125,1.0,1.0,-1.0,1.0,6.m4v,9.0
2024-02-28 11:42:06.382341,1709116926.3823414,-41.015625,-26.3671875,-36.62109375,-27.83203125,1.0,1.0,-1.0,1.0,6.m4v,9.0
2024-02-28 11:42:06.382341,1709116926.3823414,-41.015625,-26.3671875,-36.62109375,-27.83203125,1.0,1.0,-1.0,1.0,6.m4v,9.0
2024-02-28 11:42:06.382341,1709116926.3823414,-41.015625,-26.3671875,-36.62109375,-27.83203125,1.0,1.0,-1.0,1.0,6.m4v,9.0
2024-02-28 11:42:06.382341,1709116926.3823414,-41.015625,-26.3671875,-36.62109375,-27.83203125,1.0,1.0,-1.0,1.0,6.m4v,9.0
2024-02-28 11:42:06.394059,1709116926.3940592,-36.1328125,-34.66796875,-33.203125,-32.71484375,1.0,1.0,-1.0,1.0,6.m4v,9.0
2024-02-28 11:42:06.394059,1709116926.3940592,-36.1328125,-34.66796875,-33.203125,-32.71484375,1.0,1.0,-1.0,1.0,6.m4v,9.0
2024-02-28 11:42:06.394059,1709116926.3940592,-36.1328125,-34.66796875,-33.203125,-32.71484375,1.0,1.0,-1.0,1.0,6.m4v,9.0
2024-02-28 11:42:06.394059,1709116926.3940592,-36.1328125,-34.66796875,-33.203125,-32.71484375,1.0,1.0,-1.0,1.0,6.m4v,9.0
2024-02-28 11:42:06.405777,1709116926.4057772,-33.203125,-37.59765625,-33.69140625,-37.109375,1.0,1.0,-1.0,1.0,6.m4v,9.0
2024-02-28 11:42:06.405777,1709116926.4057772,-33.203125,-37.59765625,-33.69140625,-37.109375,1.0,1.0,-1.0,1.0,6.m4v,9.0
2024-02-28 11:42:06.405777,1709116926.4057772,-33.203125,-37.59765625,-33.69140625,-37.109375,1.0,1.0,-1.0,1.0,6.m4v,9.0
2024-02-28 11:42:06.405777,1709116926.4057772,-33.203125,-37.59765625,-33.69140625,-37.109375,1.0,1.0,-1.0,1.0,6.m4v,9.0
2024-02-28 11:42:06.448743,1709116926.448743,-32.71484375,-29.78515625,-36.1328125,-37.109375,1.0,1.0,-1.0,1.0,6.m4v,9.0
2024-02-28 11:42:06.452649,1709116926.4526494,-18.5546875,-32.71484375,-41.015625,-40.0390625,1.0,1.0,-1.0,1.0,6.m4v,9.0
2024-02-28 11:42:06.456555,1709116926.4565554,4.39453125,-32.2265625,-42.96875,-28.3203125,1.0,1.0,-1.0,1.0,6.m4v,9.0
2024-02-28 11:42:06.460461,1709116926.4604611,-25.87890625,-31.73828125,-39.0625,-25.87890625,1.0,1.0,-1.0,1.0,6.m4v,9.0
2024-02-28 11:42:06.464367,1709116926.4643672,-51.7578125,-32.2265625,-31.73828125,-20.01953125,1.0,1.0,-1.0,1.0,6.m4v,9.0
2024-02-28 11:42:06.468273,1709116926.4682732,-33.69140625,-34.66796875,-32.2265625,-18.06640625,1.0,1.0,-1.0,1.0,6.m4v,9.0
2024-02-28 11:42:06.472179,1709116926.4721794,-30.76171875,-37.109375,-35.64453125,-24.90234375,1.0,1.0,-1.0,1.0,6.m4v,9.0
2024-02-28 11:42:06.476085,1709116926.4760854,-38.0859375,-31.73828125,-33.203125,-27.83203125,1.0,1.0,-1.0,1.0,6.m4v,9.0
2024-02-28 11:42:06.479991,1709116926.4799914,-36.62109375,-29.296875,-26.3671875,-23.92578125,1.0,1.0,-1.0,1.0,6.m4v,9.0
2024-02-28 11:42:06.483897,1709116926.4838974,-31.73828125,-30.2734375,-15.625,-19.04296875,1.0,1.0,-1.0,1.0,6.m4v,9.0
2024-02-28 11:42:06.487803,1709116926.4878032,-24.90234375,-27.34375,-21.97265625,-29.78515625,1.0,1.0,-1.0,1.0,6.m4v,9.0
2024-02-28 11:42:06.491709,1709116926.4917092,-24.90234375,-27.83203125,-42.48046875,-41.9921875,1.0,1.0,-1.0,1.0,6.m4v,9.0
2024-02-28 11:42:06.495615,1709116926.4956152,-27.34375,-36.1328125,-46.38671875,-45.8984375,1.0,1.0,-1.0,1.0,6.m4v,9.0
2024-02-28 11:42:06.499521,1709116926.4995213,-28.80859375,-35.64453125,-37.109375,-45.8984375,1.0,1.0,-1.0,1.0,6.m4v,9.0
2024-02-28 11:42:06.503427,1709116926.5034273,-35.64453125,-26.85546875,-29.296875,-35.64453125,1.0,1.0,-1.0,1.0,6.m4v,9.0
2024-02-28 11:42:06.753415,1709116926.753415,-22.4609375,-22.94921875,-24.90234375,-46.38671875,1.0,1.0,-1.0,1.0,6.m4v,9.0
2024-02-28 11:42:06.761227,1709116926.7612274,-28.80859375,-26.3671875,-33.69140625,-38.57421875,1.0,1.0,-1.0,1.0,6.m4v,9.0
2024-02-28 11:42:06.769039,1709116926.7690392,-29.78515625,-29.296875,-34.1796875,-46.38671875,1.0,1.0,-1.0,1.0,6.m4v,9.0
2024-02-28 11:42:06.776851,1709116926.7768512,-39.0625,-24.4140625,-35.15625,-35.15625,1.0,1.0,-1.0,1.0,6.m4v,9.0
2024-02-28 11:42:06.780757,1709116926.7807572,-43.45703125,-29.78515625,-39.55078125,-46.38671875,1.0,1.0,-1.0,1.0,6.m4v,9.0
2024-02-28 11:42:06.784663,1709116926.7846632,-32.71484375,-25.390625,-36.1328125,-53.7109375,1.0,1.0,-1.0,1.0,6.m4v,9.0
2024-02-28 11:42:06.788569,1709116926.788569,-25.390625,-27.83203125,-30.2734375,-42.96875,1.0,1.0,-1.0,1.0,6.m4v,9.0
2024-02-28 11:42:06.792475,1709116926.792475,-6.8359375,-30.76171875,-25.390625,-34.1796875,1.0,1.0,-1.0,1.0,6.m4v,9.0
2024-02-28 11:42:06.796381,1709116926.796381,-22.4609375,-31.73828125,-32.71484375,-40.52734375,1.0,1.0,-1.0,1.0,6.m4v,9.0
2024-02-28 11:42:06.800288,1709116926.8002875,-27.83203125,-30.76171875,-39.0625,-45.8984375,1.0,1.0,-1.0,1.0,6.m4v,9.0
2024-02-28 11:42:06.804194,1709116926.8041935,-16.6015625,-29.78515625,-34.1796875,-36.1328125,1.0,1.0,-1.0,1.0,6.m4v,9.0
2024-02-28 11:42:06.808100,1709116926.8080995,-34.1796875,-31.25,-32.71484375,-26.3671875,1.0,1.0,-1.0,1.0,6.m4v,9.0
2024-02-28 11:42:06.812006,1709116926.8120055,-15.13671875,-21.484375,-33.69140625,-26.85546875,1.0,1.0,-1.0,1.0,6.m4v,9.0
2024-02-28 11:42:06.815912,1709116926.8159115,-12.6953125,-22.94921875,-31.73828125,-40.52734375,1.0,1.0,-1.0,1.0,6.m4v,9.0
2024-02-28 11:42:06.819818,1709116926.8198175,-42.48046875,-32.71484375,-31.73828125,-41.9921875,1.0,1.0,-1.0,1.0,6.m4v,9.0
2024-02-28 11:42:06.823724,1709116926.8237236,-43.9453125,-36.1328125,-36.62109375,-39.0625,1.0,1.0,-1.0,1.0,6.m4v,9.0
2024-02-28 11:42:06.827629,1709116926.827629,-38.57421875,-36.1328125,-38.0859375,-29.78515625,1.0,1.0,-1.0,1.0,6.m4v,9.0
2024-02-28 11:42:06.831535,1709116926.831535,-41.50390625,-31.73828125,-34.66796875,-25.87890625,1.0,1.0,-1.0,1.0,6.m4v,9.0
2024-02-28 11:42:06.835441,1709116926.8354414,-35.15625,-26.85546875,-32.71484375,-31.73828125,1.0,1.0,-1.0,1.0,6.m4v,9.0
2024-02-28 11:42:06.839347,1709116926.8393474,-41.9921875,-24.4140625,-33.203125,-42.96875,1.0,1.0,-1.0,1.0,6.m4v,9.0
2024-02-28 11:42:06.843253,1709116926.8432534,-46.38671875,-32.2265625,-33.203125,-53.7109375,1.0,1.0,-1.0,1.0,6.m4v,9.0
2024-02-28 11:42:06.851066,1709116926.8510656,-41.9921875,-30.76171875,-31.73828125,-38.57421875,1.0,1.0,-1.0,1.0,6.m4v,9.0
2024-02-28 11:42:06.858877,1709116926.8588774,-46.875,-34.66796875,-28.80859375,-27.34375,1.0,1.0,-1.0,1.0,6.m4v,9.0
2024-02-28 11:42:06.866689,1709116926.8666894,-34.1796875,-34.1796875,-43.45703125,-44.921875,1.0,1.0,-1.0,1.0,6.m4v,9.0
2024-02-28 11:42:06.874501,1709116926.8745012,-32.71484375,-38.0859375,-30.2734375,-20.01953125,1.0,1.0,-1.0,1.0,6.m4v,9.0
2024-02-28 11:42:06.886219,1709116926.8862193,-54.19921875,-41.9921875,-24.4140625,-31.73828125,1.0,1.0,-1.0,1.0,6.m4v,9.0
2024-02-28 11:42:06.894034,1709116926.894034,-31.73828125,-23.92578125,-35.15625,-38.0859375,1.0,1.0,-1.0,1.0,6.m4v,9.0
2024-02-28 11:42:06.901846,1709116926.9018457,-48.33984375,-34.66796875,-38.0859375,-52.734375,1.0,1.0,-1.0,1.0,6.m4v,9.0
2024-02-28 11:42:06.901846,1709116926.9018457,-48.33984375,-34.66796875,-38.0859375,-52.734375,1.0,1.0,-1.0,1.0,6.m4v,9.0
2024-02-28 11:42:06.913564,1709116926.9135635,-39.55078125,-25.87890625,-30.2734375,-41.015625,1.0,1.0,-1.0,1.0,6.m4v,9.0
2024-02-28 11:42:06.913564,1709116926.9135635,-39.55078125,-25.87890625,-30.2734375,-41.015625,1.0,1.0,-1.0,1.0,6.m4v,9.0
2024-02-28 11:42:06.929188,1709116926.9291875,-45.8984375,-31.73828125,-43.45703125,-44.921875,1.0,1.0,-1.0,1.0,6.m4v,9.0
2024-02-28 11:42:06.929188,1709116926.9291875,-45.8984375,-31.73828125,-43.45703125,-44.921875,1.0,1.0,-1.0,1.0,6.m4v,9.0
2024-02-28 11:42:06.940907,1709116926.9409068,-42.96875,-31.25,-43.45703125,-34.66796875,1.0,1.0,-1.0,1.0,6.m4v,9.0
2024-02-28 11:42:06.940907,1709116926.9409068,-42.96875,-31.25,-43.45703125,-34.66796875,1.0,1.0,-1.0,1.0,6.m4v,9.0
2024-02-28 11:42:06.952625,1709116926.9526246,-35.64453125,-28.80859375,-26.85546875,-34.66796875,1.0,1.0,-1.0,1.0,6.m4v,9.0
2024-02-28 11:42:06.952625,1709116926.9526246,-35.64453125,-28.80859375,-26.85546875,-34.66796875,1.0,1.0,-1.0,1.0,6.m4v,9.0
2024-02-28 11:42:06.968249,1709116926.9682486,-40.52734375,-33.203125,-34.1796875,-45.8984375,1.0,1.0,-1.0,1.0,6.m4v,9.0
2024-02-28 11:42:06.968249,1709116926.9682486,-40.52734375,-33.203125,-34.1796875,-45.8984375,1.0,1.0,-1.0,1.0,6.m4v,9.0
2024-02-28 11:42:06.983872,1709116926.9838724,-36.1328125,-33.69140625,-31.73828125,-21.97265625,1.0,1.0,-1.0,1.0,6.m4v,9.0
2024-02-28 11:42:06.983872,1709116926.9838724,-36.1328125,-33.69140625,-31.73828125,-21.97265625,1.0,1.0,-1.0,1.0,6.m4v,9.0
2024-02-28 11:42:06.991685,1709116926.9916854,-29.78515625,-36.62109375,-33.69140625,-46.38671875,1.0,1.0,-1.0,1.0,6.m4v,9.0
2024-02-28 11:42:07.003403,1709116927.0034034,-29.78515625,-25.390625,-35.15625,-34.1796875,1.0,1.0,-1.0,1.0,6.m4v,9.0
2024-02-28 11:42:07.003403,1709116927.0034034,-29.78515625,-25.390625,-35.15625,-34.1796875,1.0,1.0,-1.0,1.0,6.m4v,9.0
2024-02-28 11:42:07.011215,1709116927.0112152,-45.41015625,-26.3671875,-40.52734375,-40.52734375,1.0,1.0,-1.0,1.0,6.m4v,9.0
2024-02-28 11:42:07.022933,1709116927.0229332,-27.83203125,-29.296875,-46.38671875,-33.69140625,1.0,1.0,-1.0,1.0,6.m4v,9.0
2024-02-28 11:42:07.022933,1709116927.0229332,-27.83203125,-29.296875,-46.38671875,-33.69140625,1.0,1.0,-1.0,1.0,6.m4v,9.0
2024-02-28 11:42:07.030745,1709116927.0307453,-36.62109375,-36.62109375,-33.69140625,-37.109375,1.0,1.0,-1.0,1.0,6.m4v,9.0
2024-02-28 11:42:07.042465,1709116927.042465,-39.55078125,-24.90234375,-33.203125,-37.59765625,1.0,1.0,-1.0,1.0,6.m4v,9.0
2024-02-28 11:42:07.042465,1709116927.042465,-39.55078125,-24.90234375,-33.203125,-37.59765625,1.0,1.0,-1.0,1.0,6.m4v,9.0
2024-02-28 11:42:07.050277,1709116927.0502768,-35.15625,-38.0859375,-40.52734375,-32.71484375,1.0,1.0,-1.0,1.0,6.m4v,9.0
2024-02-28 11:42:07.058089,1709116927.0580888,-37.59765625,-28.80859375,-39.0625,-52.24609375,1.0,1.0,-1.0,1.0,6.m4v,9.0
2024-02-28 11:42:07.065901,1709116927.0659008,-42.96875,-29.78515625,-32.71484375,-29.296875,1.0,1.0,-1.0,1.0,6.m4v,9.0
2024-02-28 11:42:07.065901,1709116927.0659008,-42.96875,-29.78515625,-32.71484375,-29.296875,1.0,1.0,-1.0,1.0,6.m4v,9.0
2024-02-28 11:42:07.073713,1709116927.0737126,-28.3203125,-28.80859375,-32.71484375,-48.33984375,1.0,1.0,-1.0,1.0,6.m4v,9.0
2024-02-28 11:42:07.073713,1709116927.0737126,-28.3203125,-28.80859375,-32.71484375,-48.33984375,1.0,1.0,-1.0,1.0,6.m4v,9.0
2024-02-28 11:42:07.081525,1709116927.081525,-53.22265625,-28.3203125,-36.62109375,-46.875,1.0,1.0,-1.0,1.0,6.m4v,9.0
2024-02-28 11:42:07.089337,1709116927.089337,-38.57421875,-27.83203125,-30.76171875,-35.15625,1.0,1.0,-1.0,1.0,6.m4v,9.0
2024-02-28 11:42:07.089337,1709116927.089337,-38.57421875,-27.83203125,-30.76171875,-35.15625,1.0,1.0,-1.0,1.0,6.m4v,9.0
2024-02-28 11:42:07.097149,1709116927.0971494,-21.484375,-27.83203125,-34.1796875,-27.34375,1.0,1.0,-1.0,1.0,6.m4v,9.0
2024-02-28 11:42:07.097149,1709116927.0971494,-21.484375,-27.83203125,-34.1796875,-27.34375,1.0,1.0,-1.0,1.0,6.m4v,9.0
2024-02-28 11:42:07.104961,1709116927.1049612,-52.24609375,-28.3203125,-32.71484375,-53.7109375,1.0,1.0,-1.0,1.0,6.m4v,9.0
2024-02-28 11:42:07.112773,1709116927.1127732,-32.2265625,-32.2265625,-33.203125,-55.17578125,1.0,1.0,-1.0,1.0,6.m4v,9.0
2024-02-28 11:42:07.112773,1709116927.1127732,-32.2265625,-32.2265625,-33.203125,-55.17578125,1.0,1.0,-1.0,1.0,6.m4v,9.0
2024-02-28 11:42:07.120585,1709116927.120585,-31.25,-24.4140625,-22.94921875,-35.15625,1.0,1.0,-1.0,1.0,6.m4v,9.0
2024-02-28 11:42:07.120585,1709116927.120585,-31.25,-24.4140625,-22.94921875,-35.15625,1.0,1.0,-1.0,1.0,6.m4v,9.0
2024-02-28 11:42:07.128398,1709116927.1283977,-46.38671875,-27.34375,-33.69140625,-25.87890625,1.0,1.0,-1.0,1.0,6.m4v,9.0
2024-02-28 11:42:07.136209,1709116927.1362095,-52.24609375,-24.90234375,-47.36328125,-43.45703125,1.0,1.0,-1.0,1.0,6.m4v,9.0
2024-02-28 11:42:07.136209,1709116927.1362095,-52.24609375,-24.90234375,-47.36328125,-43.45703125,1.0,1.0,-1.0,1.0,6.m4v,9.0
2024-02-28 11:42:07.144022,1709116927.1440215,-29.296875,-29.296875,-21.97265625,-32.2265625,1.0,1.0,-1.0,1.0,6.m4v,9.0
2024-02-28 11:42:07.144022,1709116927.1440215,-29.296875,-29.296875,-21.97265625,-32.2265625,1.0,1.0,-1.0,1.0,6.m4v,9.0
2024-02-28 11:42:07.151834,1709116927.1518335,-23.92578125,-21.484375,-22.94921875,-44.43359375,1.0,1.0,-1.0,1.0,6.m4v,9.0
2024-02-28 11:42:07.159645,1709116927.1596453,-35.15625,-26.85546875,-30.2734375,-39.55078125,1.0,1.0,-1.0,1.0,6.m4v,9.0
2024-02-28 11:42:07.159645,1709116927.1596453,-35.15625,-26.85546875,-30.2734375,-39.55078125,1.0,1.0,-1.0,1.0,6.m4v,9.0
2024-02-28 11:42:07.167457,1709116927.167457,-12.20703125,-23.92578125,-20.99609375,-32.2265625,1.0,1.0,-1.0,1.0,6.m4v,9.0
2024-02-28 11:42:07.167457,1709116927.167457,-12.20703125,-23.92578125,-20.99609375,-32.2265625,1.0,1.0,-1.0,1.0,6.m4v,9.0
2024-02-28 11:42:07.175270,1709116927.1752698,-40.52734375,-24.4140625,-28.3203125,-34.66796875,1.0,1.0,-1.0,1.0,6.m4v,9.0
2024-02-28 11:42:07.183082,1709116927.183082,-31.73828125,-20.99609375,-24.4140625,-14.6484375,1.0,1.0,-1.0,1.0,6.m4v,9.0
2024-02-28 11:42:07.190894,1709116927.1908937,-25.390625,-22.4609375,-32.2265625,-36.62109375,1.0,1.0,-1.0,1.0,6.m4v,9.0
2024-02-28 11:42:07.198706,1709116927.1987057,-39.0625,-28.3203125,-24.90234375,-22.94921875,1.0,1.0,-1.0,1.0,6.m4v,9.0
2024-02-28 11:42:07.206518,1709116927.2065177,-38.0859375,-23.92578125,-33.69140625,-41.50390625,1.0,1.0,-1.0,1.0,6.m4v,9.0
2024-02-28 11:42:07.214329,1709116927.2143295,-25.87890625,-20.01953125,-31.25,-30.2734375,1.0,1.0,-1.0,1.0,6.m4v,9.0
2024-02-28 11:42:07.222142,1709116927.222142,-11.71875,-17.08984375,-21.97265625,-23.92578125,1.0,1.0,-1.0,1.0,6.m4v,9.0
2024-02-28 11:42:07.229954,1709116927.229954,-31.73828125,-29.78515625,-38.0859375,-28.3203125,1.0,1.0,-1.0,1.0,6.m4v,9.0
2024-02-28 11:42:07.237766,1709116927.2377658,-41.50390625,-23.92578125,-34.66796875,-27.83203125,1.0,1.0,-1.0,1.0,6.m4v,9.0
2024-02-28 11:42:07.237766,1709116927.2377658,-41.50390625,-23.92578125,-34.66796875,-27.83203125,1.0,1.0,-1.0,1.0,6.m4v,9.0
2024-02-28 11:42:07.245578,1709116927.2455778,-34.66796875,-24.90234375,-31.25,-46.875,1.0,1.0,-1.0,1.0,6.m4v,9.0
2024-02-28 11:42:07.269015,1709116927.269015,-40.0390625,-33.203125,-29.296875,-25.390625,1.0,1.0,-1.0,1.0,6.m4v,9.0
2024-02-28 11:42:07.292451,1709116927.292451,-41.50390625,-32.71484375,-35.15625,-37.59765625,1.0,1.0,-1.0,1.0,6.m4v,9.0
2024-02-28 11:42:07.315889,1709116927.3158891,-15.625,-22.94921875,-35.15625,-38.0859375,1.0,1.0,-1.0,1.0,6.m4v,9.0
2024-02-28 11:42:07.651808,1709116927.6518085,-70.3125,-39.0625,-39.0625,-46.875,1.0,1.0,-1.0,1.0,6.m4v,9.0
2024-02-28 11:42:07.655714,1709116927.6557145,-50.78125,-31.25,-32.71484375,-41.015625,1.0,1.0,-1.0,1.0,6.m4v,9.0
2024-02-28 11:42:07.659620,1709116927.6596203,-39.0625,-24.90234375,-28.3203125,-27.34375,1.0,1.0,-1.0,1.0,6.m4v,9.0
2024-02-28 11:42:07.663526,1709116927.6635263,-29.296875,-28.3203125,-31.25,-7.8125,1.0,1.0,-1.0,1.0,6.m4v,9.0
2024-02-28 11:42:07.667432,1709116927.667432,-25.390625,-29.78515625,-29.296875,-17.08984375,1.0,1.0,-1.0,1.0,6.m4v,9.0
2024-02-28 11:42:07.671338,1709116927.671338,-3.41796875,-29.296875,-35.15625,-12.20703125,1.0,1.0,-1.0,1.0,6.m4v,9.0
2024-02-28 11:42:07.675244,1709116927.675244,11.71875,-31.25,-33.69140625,4.39453125,1.0,1.0,-1.0,1.0,6.m4v,9.0
2024-02-28 11:42:07.679150,1709116927.67915,15.625,-35.15625,-13.18359375,9.765625,1.0,1.0,-1.0,1.0,6.m4v,9.0
2024-02-28 11:42:07.683056,1709116927.683056,27.83203125,-32.2265625,-10.7421875,8.30078125,1.0,1.0,-1.0,1.0,6.m4v,9.0
2024-02-28 11:42:07.686962,1709116927.686962,29.78515625,-25.87890625,-16.6015625,15.13671875,1.0,1.0,-1.0,1.0,6.m4v,9.0
2024-02-28 11:42:07.690869,1709116927.690869,37.109375,-24.4140625,-11.23046875,32.2265625,1.0,1.0,-1.0,1.0,6.m4v,9.0
2024-02-28 11:42:07.694775,1709116927.694775,25.390625,-24.90234375,-9.27734375,29.78515625,1.0,1.0,-1.0,1.0,6.m4v,9.0
2024-02-28 11:42:07.784615,1709116927.7846146,25.390625,-32.71484375,-17.08984375,7.32421875,1.0,1.0,-1.0,1.0,6.m4v,9.0
2024-02-28 11:42:07.788521,1709116927.7885206,21.484375,-26.3671875,-17.08984375,15.13671875,1.0,1.0,-1.0,1.0,6.m4v,9.0
2024-02-28 11:42:07.792426,1709116927.7924263,13.671875,-27.83203125,-22.4609375,20.01953125,1.0,1.0,-1.0,1.0,6.m4v,9.0
2024-02-28 11:42:07.796332,1709116927.7963324,10.25390625,-28.3203125,-28.80859375,6.8359375,1.0,1.0,-1.0,1.0,6.m4v,9.0
2024-02-28 11:42:07.800238,1709116927.8002384,9.27734375,-26.3671875,-27.83203125,3.41796875,1.0,1.0,-1.0,1.0,6.m4v,9.0
2024-02-28 11:42:07.804144,1709116927.8041444,9.765625,-23.4375,-28.80859375,14.6484375,1.0,1.0,-1.0,1.0,6.m4v,9.0
2024-02-28 11:42:07.808050,1709116927.8080504,5.859375,-22.94921875,-28.80859375,4.8828125,1.0,1.0,-1.0,1.0,6.m4v,9.0
2024-02-28 11:42:07.811956,1709116927.8119562,1.953125,-33.203125,-29.296875,-2.9296875,1.0,1.0,-1.0,1.0,6.m4v,9.0
2024-02-28 11:42:07.815862,1709116927.8158622,-2.9296875,-38.0859375,-28.3203125,-4.39453125,1.0,1.0,-1.0,1.0,6.m4v,9.0
2024-02-28 11:42:07.819768,1709116927.8197682,-9.27734375,-30.2734375,-14.6484375,5.37109375,1.0,1.0,-1.0,1.0,6.m4v,9.0
2024-02-28 11:42:07.823674,1709116927.8236742,-7.32421875,-23.4375,-13.18359375,22.4609375,1.0,1.0,-1.0,1.0,6.m4v,9.0
2024-02-28 11:42:07.827580,1709116927.8275802,-2.44140625,-20.99609375,-26.85546875,4.8828125,1.0,1.0,-1.0,1.0,6.m4v,9.0
2024-02-28 11:42:07.831487,1709116927.831487,-7.8125,-22.94921875,-33.203125,-34.66796875,1.0,1.0,-1.0,1.0,6.m4v,9.0
2024-02-28 11:42:07.835393,1709116927.835393,-8.7890625,-31.73828125,-28.3203125,-35.15625,1.0,1.0,-1.0,1.0,6.m4v,9.0
2024-02-28 11:42:07.839299,1709116927.839299,-10.25390625,-40.0390625,-24.4140625,-12.6953125,1.0,1.0,-1.0,1.0,6.m4v,9.0
2024-02-28 11:42:07.843205,1709116927.843205,-14.6484375,-38.57421875,-24.4140625,-10.7421875,1.0,1.0,-1.0,1.0,6.m4v,9.0
2024-02-28 11:42:08.042412,1709116928.0424123,-41.50390625,-35.15625,-30.76171875,-7.8125,1.0,1.0,-1.0,1.0,6.m4v,9.0
2024-02-28 11:42:08.061942,1709116928.061942,-29.78515625,-26.3671875,-28.80859375,-28.80859375,1.0,1.0,-1.0,1.0,6.m4v,9.0
2024-02-28 11:42:08.089285,1709116928.0892851,-51.26953125,-44.921875,-41.015625,-36.62109375,1.0,1.0,-1.0,1.0,6.m4v,9.0
2024-02-28 11:42:08.093191,1709116928.0931911,-52.734375,-33.203125,-38.57421875,-33.69140625,1.0,1.0,-1.0,1.0,6.m4v,9.0
2024-02-28 11:42:08.097097,1709116928.0970972,-51.26953125,-23.4375,-36.62109375,-26.85546875,1.0,1.0,-1.0,1.0,6.m4v,9.0
2024-02-28 11:42:08.101003,1709116928.1010032,-51.7578125,-21.484375,-40.0390625,-58.59375,1.0,1.0,-1.0,1.0,6.m4v,9.0
2024-02-28 11:42:08.108815,1709116928.108815,-34.66796875,-20.5078125,-35.64453125,-30.76171875,1.0,1.0,-1.0,1.0,6.m4v,9.0
2024-02-28 11:42:08.112722,1709116928.1127222,-20.5078125,-26.85546875,-44.43359375,-47.8515625,1.0,1.0,-1.0,1.0,6.m4v,9.0
2024-02-28 11:42:08.116628,1709116928.1166282,-30.76171875,-31.25,-42.48046875,-63.96484375,1.0,1.0,-1.0,1.0,6.m4v,9.0
2024-02-28 11:42:08.120534,1709116928.1205342,-45.8984375,-34.1796875,-38.0859375,-46.875,1.0,1.0,-1.0,1.0,6.m4v,9.0
2024-02-28 11:42:08.128346,1709116928.128346,-36.62109375,-30.2734375,-33.69140625,-53.22265625,1.0,1.0,-1.0,1.0,6.m4v,9.0
2024-02-28 11:42:08.132252,1709116928.132252,-36.1328125,-27.83203125,-26.3671875,-29.296875,1.0,1.0,-1.0,1.0,6.m4v,9.0
2024-02-28 11:42:08.140064,1709116928.140064,-34.1796875,-33.203125,-35.64453125,-44.43359375,1.0,1.0,-1.0,1.0,6.m4v,9.0
2024-02-28 11:42:08.143970,1709116928.14397,-41.50390625,-34.1796875,-38.57421875,-37.59765625,1.0,1.0,-1.0,1.0,6.m4v,9.0
2024-02-28 11:42:08.147876,1709116928.1478758,-34.1796875,-32.71484375,-50.78125,-40.0390625,1.0,1.0,-1.0,1.0,6.m4v,9.0
2024-02-28 11:42:08.151782,1709116928.1517818,-40.52734375,-32.2265625,-45.8984375,-54.6875,1.0,1.0,-1.0,1.0,6.m4v,9.0
2024-02-28 11:42:08.159595,1709116928.1595948,-39.0625,-32.71484375,-38.57421875,-44.921875,1.0,1.0,-1.0,1.0,6.m4v,9.0
2024-02-28 11:42:08.163501,1709116928.1635008,-30.2734375,-31.73828125,-34.1796875,-34.1796875,1.0,1.0,-1.0,1.0,6.m4v,9.0
2024-02-28 11:42:08.167407,1709116928.1674066,-34.66796875,-32.2265625,-27.34375,-23.4375,1.0,1.0,-1.0,1.0,6.m4v,9.0
2024-02-28 11:42:08.171313,1709116928.1713126,-41.015625,-37.109375,-26.3671875,-33.203125,1.0,1.0,-1.0,1.0,6.m4v,9.0
2024-02-28 11:42:08.175219,1709116928.1752186,-28.3203125,-31.73828125,-27.34375,-31.73828125,1.0,1.0,-1.0,1.0,6.m4v,9.0
2024-02-28 11:42:08.179125,1709116928.1791246,-27.34375,-25.390625,-28.3203125,-28.3203125,1.0,1.0,-1.0,1.0,6.m4v,9.0
2024-02-28 11:42:08.183031,1709116928.1830306,-40.0390625,-33.69140625,-33.69140625,-42.48046875,1.0,1.0,-1.0,1.0,6.m4v,9.0
2024-02-28 11:42:08.186936,1709116928.1869364,-50.78125,-39.55078125,-34.1796875,-56.15234375,1.0,1.0,-1.0,1.0,6.m4v,9.0
2024-02-28 11:42:08.190842,1709116928.1908424,-41.9921875,-36.62109375,-37.109375,-58.10546875,1.0,1.0,-1.0,1.0,6.m4v,9.0
2024-02-28 11:42:08.194748,1709116928.1947484,-39.0625,-39.0625,-38.57421875,-54.19921875,1.0,1.0,-1.0,1.0,6.m4v,9.0
2024-02-28 11:42:08.198654,1709116928.1986544,-42.96875,-41.9921875,-28.80859375,-37.109375,1.0,1.0,-1.0,1.0,6.m4v,9.0
2024-02-28 11:42:08.202560,1709116928.2025604,-39.55078125,-40.0390625,-31.73828125,-25.87890625,1.0,1.0,-1.0,1.0,6.m4v,9.0
2024-02-28 11:42:08.206467,1709116928.2064672,-36.62109375,-40.52734375,-38.0859375,-40.0390625,1.0,1.0,-1.0,1.0,6.m4v,9.0
2024-02-28 11:42:08.210373,1709116928.2103732,-42.96875,-39.0625,-38.57421875,-34.66796875,1.0,1.0,-1.0,1.0,6.m4v,9.0
2024-02-28 11:42:08.214279,1709116928.214279,-41.9921875,-32.2265625,-42.48046875,-38.57421875,1.0,1.0,-1.0,1.0,6.m4v,9.0
2024-02-28 11:42:08.386143,1709116928.3861434,-42.48046875,-26.3671875,-24.90234375,-27.83203125,1.0,1.0,-1.0,1.0,6.m4v,9.0
2024-02-28 11:42:08.390049,1709116928.3900492,-25.87890625,-17.578125,-21.97265625,-19.53125,1.0,1.0,-1.0,1.0,6.m4v,9.0
2024-02-28 11:42:08.393957,1709116928.393957,-25.87890625,-19.53125,-23.4375,-16.6015625,1.0,1.0,-1.0,1.0,6.m4v,9.0
2024-02-28 11:42:08.397863,1709116928.397863,-24.90234375,-20.01953125,-27.34375,-16.11328125,1.0,1.0,-1.0,1.0,6.m4v,9.0
2024-02-28 11:42:08.401769,1709116928.4017687,-20.5078125,-20.5078125,-28.80859375,-19.04296875,1.0,1.0,-1.0,1.0,6.m4v,9.0
2024-02-28 11:42:08.405674,1709116928.4056745,-4.39453125,-26.3671875,-27.34375,-9.765625,1.0,1.0,-1.0,1.0,6.m4v,9.0
2024-02-28 11:42:08.409580,1709116928.4095805,-3.90625,-27.34375,-24.90234375,1.953125,1.0,1.0,-1.0,1.0,6.m4v,9.0
2024-02-28 11:42:08.413486,1709116928.4134865,-19.04296875,-24.4140625,-33.203125,-6.34765625,1.0,1.0,-1.0,1.0,6.m4v,9.0
2024-02-28 11:42:08.417392,1709116928.4173925,3.90625,-28.3203125,-39.55078125,-18.06640625,1.0,1.0,-1.0,1.0,6.m4v,9.0
2024-02-28 11:42:08.421299,1709116928.4212985,-5.37109375,-34.66796875,-39.0625,-30.2734375,1.0,1.0,-1.0,1.0,6.m4v,9.0
2024-02-28 11:42:08.425204,1709116928.4252045,-41.9921875,-31.73828125,-37.59765625,-24.90234375,1.0,1.0,-1.0,1.0,6.m4v,9.0
2024-02-28 11:42:08.429110,1709116928.4291103,-32.71484375,-35.64453125,-24.90234375,-35.15625,1.0,1.0,-1.0,1.0,6.m4v,9.0
2024-02-28 11:42:08.577542,1709116928.5775418,-47.8515625,-27.83203125,-48.828125,-53.7109375,1.0,1.0,-1.0,1.0,6.m4v,9.0
2024-02-28 11:42:08.581449,1709116928.5814486,-61.03515625,-33.69140625,-34.1796875,-53.7109375,1.0,1.0,-1.0,1.0,6.m4v,9.0
2024-02-28 11:42:08.585355,1709116928.5853546,-47.36328125,-31.73828125,-18.06640625,-42.96875,1.0,1.0,-1.0,1.0,6.m4v,9.0
2024-02-28 11:42:08.589261,1709116928.5892606,-31.73828125,-26.85546875,-17.578125,-33.69140625,1.0,1.0,-1.0,1.0,6.m4v,9.0
2024-02-28 11:42:08.593166,1709116928.5931664,-28.80859375,-26.3671875,-23.92578125,-21.97265625,1.0,1.0,-1.0,1.0,6.m4v,9.0
2024-02-28 11:42:08.597072,1709116928.5970724,-31.73828125,-26.85546875,-20.99609375,-40.0390625,1.0,1.0,-1.0,1.0,6.m4v,9.0
2024-02-28 11:42:08.600978,1709116928.6009784,-48.33984375,-24.4140625,-19.53125,-51.26953125,1.0,1.0,-1.0,1.0,6.m4v,9.0
2024-02-28 11:42:08.604884,1709116928.6048844,-35.64453125,-25.390625,-24.4140625,-37.109375,1.0,1.0,-1.0,1.0,6.m4v,9.0
2024-02-28 11:42:08.608790,1709116928.6087904,-39.55078125,-29.78515625,-27.34375,-29.296875,1.0,1.0,-1.0,1.0,6.m4v,9.0
2024-02-28 11:42:08.616602,1709116928.6166022,-31.73828125,-22.4609375,-20.99609375,-42.96875,1.0,1.0,-1.0,1.0,6.m4v,9.0
2024-02-28 11:42:08.628321,1709116928.628321,-29.78515625,-25.87890625,-26.3671875,-31.73828125,1.0,1.0,-1.0,1.0,6.m4v,9.0
2024-02-28 11:42:08.636133,1709116928.6361327,-34.1796875,-28.3203125,-31.73828125,-21.97265625,1.0,1.0,-1.0,1.0,6.m4v,9.0
2024-02-28 11:42:08.647851,1709116928.6478508,-33.203125,-24.90234375,-31.25,-40.0390625,1.0,1.0,-1.0,1.0,6.m4v,9.0
2024-02-28 11:42:08.655663,1709116928.6556623,-36.1328125,-33.203125,-27.83203125,-25.390625,1.0,1.0,-1.0,1.0,6.m4v,9.0
2024-02-28 11:42:08.667381,1709116928.6673806,-35.15625,-30.2734375,-33.69140625,-14.6484375,1.0,1.0,-1.0,1.0,6.m4v,9.0
2024-02-28 11:42:08.675193,1709116928.675193,-37.109375,-23.92578125,-42.48046875,-43.45703125,1.0,1.0,-1.0,1.0,6.m4v,9.0
2024-02-28 11:42:08.686911,1709116928.6869109,-20.5078125,-26.85546875,-17.578125,-30.76171875,1.0,1.0,-1.0,1.0,6.m4v,9.0
2024-02-28 11:42:08.694723,1709116928.694723,-47.36328125,-23.4375,-32.2265625,-8.7890625,1.0,1.0,-1.0,1.0,6.m4v,9.0
2024-02-28 11:42:08.706441,1709116928.7064407,-41.9921875,-25.390625,-30.2734375,-46.875,1.0,1.0,-1.0,1.0,6.m4v,9.0
2024-02-28 11:42:08.714253,1709116928.7142527,-32.2265625,-30.76171875,-39.0625,-40.52734375,1.0,1.0,-1.0,1.0,6.m4v,9.0
2024-02-28 11:42:08.725971,1709116928.7259712,-35.64453125,-32.2265625,-31.25,-41.9921875,1.0,1.0,-1.0,1.0,6.m4v,9.0
2024-02-28 11:42:08.733783,1709116928.7337832,-31.25,-27.34375,-33.69140625,-29.296875,1.0,1.0,-1.0,1.0,6.m4v,9.0
2024-02-28 11:42:08.745501,1709116928.745501,-40.52734375,-25.390625,-45.8984375,-54.19921875,1.0,1.0,-1.0,1.0,6.m4v,9.0
2024-02-28 11:42:08.753313,1709116928.753313,-20.99609375,-30.2734375,-35.15625,-30.2734375,1.0,1.0,-1.0,1.0,6.m4v,9.0
2024-02-28 11:42:08.765031,1709116928.7650309,-34.1796875,-22.94921875,-29.296875,-40.0390625,1.0,1.0,-1.0,1.0,6.m4v,9.0
2024-02-28 11:42:08.772844,1709116928.772844,-54.19921875,-35.15625,-34.1796875,-38.57421875,1.0,1.0,-1.0,1.0,6.m4v,9.0
2024-02-28 11:42:08.784562,1709116928.784562,-40.52734375,-26.85546875,-29.78515625,-20.01953125,1.0,1.0,-1.0,1.0,6.m4v,9.0
2024-02-28 11:42:08.792374,1709116928.792374,-41.9921875,-32.2265625,-30.76171875,-20.01953125,1.0,1.0,-1.0,1.0,6.m4v,9.0
2024-02-28 11:42:08.800186,1709116928.800186,-31.25,-34.1796875,-30.76171875,-53.22265625,1.0,1.0,-1.0,1.0,6.m4v,9.0
2024-02-28 11:42:08.807998,1709116928.807998,-40.0390625,-43.9453125,-32.71484375,-28.80859375,1.0,1.0,-1.0,1.0,6.m4v,9.0
2024-02-28 11:42:08.815811,1709116928.8158112,-40.52734375,-32.2265625,-36.1328125,-32.71484375,1.0,1.0,-1.0,1.0,6.m4v,9.0
2024-02-28 11:42:08.964241,1709116928.9642408,-54.6875,-32.71484375,-42.48046875,-57.12890625,1.0,1.0,-1.0,1.0,6.m4v,9.0
2024-02-28 11:42:08.975959,1709116928.9759586,-42.96875,-28.3203125,-34.66796875,-41.9921875,1.0,1.0,-1.0,1.0,6.m4v,9.0
2024-02-28 11:42:08.987677,1709116928.9876766,-56.640625,-33.203125,-37.59765625,-34.66796875,1.0,1.0,-1.0,1.0,6.m4v,9.0
2024-02-28 11:42:08.999394,1709116928.9993944,-45.8984375,-27.83203125,-26.3671875,-39.55078125,1.0,1.0,-1.0,1.0,6.m4v,9.0
2024-02-28 11:42:09.007207,1709116929.0072072,-31.73828125,-26.85546875,-31.25,-47.36328125,1.0,1.0,-1.0,1.0,6.m4v,9.0
2024-02-28 11:42:09.018925,1709116929.018925,-43.9453125,-24.4140625,-40.0390625,-54.19921875,1.0,1.0,-1.0,1.0,6.m4v,9.0
2024-02-28 11:42:09.030643,1709116929.030643,-46.38671875,-29.296875,-33.69140625,-52.24609375,1.0,1.0,-1.0,1.0,6.m4v,9.0
2024-02-28 11:42:09.042361,1709116929.0423608,-28.80859375,-32.2265625,-25.87890625,-36.1328125,1.0,1.0,-1.0,1.0,6.m4v,9.0
2024-02-28 11:42:09.054079,1709116929.0540793,-41.015625,-26.85546875,-28.80859375,-32.2265625,1.0,1.0,-1.0,1.0,6.m4v,9.0
2024-02-28 11:42:09.065797,1709116929.065797,-34.1796875,-23.92578125,-34.66796875,-16.11328125,1.0,1.0,-1.0,1.0,6.m4v,9.0
2024-02-28 11:42:09.077515,1709116929.077515,-16.6015625,-37.109375,-22.94921875,-32.71484375,1.0,1.0,-1.0,1.0,6.m4v,9.0
2024-02-28 11:42:09.085327,1709116929.085327,-25.87890625,-29.78515625,-36.1328125,-45.41015625,1.0,1.0,-1.0,1.0,6.m4v,9.0
2024-02-28 11:42:09.097045,1709116929.0970452,-37.109375,-34.1796875,-35.64453125,-40.0390625,1.0,1.0,-1.0,1.0,6.m4v,9.0
2024-02-28 11:42:09.108763,1709116929.1087632,-25.390625,-26.3671875,-31.73828125,-31.73828125,1.0,1.0,-1.0,1.0,6.m4v,9.0
2024-02-28 11:42:09.116575,1709116929.116575,-37.59765625,-27.83203125,-35.64453125,-24.4140625,1.0,1.0,-1.0,1.0,6.m4v,9.0
2024-02-28 11:42:09.128293,1709116929.128293,-39.0625,-28.80859375,-28.3203125,-30.76171875,1.0,1.0,-1.0,1.0,6.m4v,9.0
2024-02-28 11:42:09.128293,1709116929.128293,-39.0625,-28.80859375,-28.3203125,-30.76171875,1.0,1.0,-1.0,1.0,6.m4v,9.0
2024-02-28 11:42:09.128293,1709116929.128293,-39.0625,-28.80859375,-28.3203125,-30.76171875,1.0,1.0,-1.0,1.0,6.m4v,9.0
2024-02-28 11:42:09.128293,1709116929.128293,-39.0625,-28.80859375,-28.3203125,-30.76171875,1.0,1.0,-1.0,1.0,6.m4v,9.0
2024-02-28 11:42:09.143917,1709116929.143917,-38.57421875,-25.390625,-25.87890625,-22.4609375,1.0,1.0,-1.0,1.0,6.m4v,9.0
2024-02-28 11:42:09.143917,1709116929.143917,-38.57421875,-25.390625,-25.87890625,-22.4609375,1.0,1.0,-1.0,1.0,6.m4v,9.0
2024-02-28 11:42:09.143917,1709116929.143917,-38.57421875,-25.390625,-25.87890625,-22.4609375,1.0,1.0,-1.0,1.0,6.m4v,9.0
2024-02-28 11:42:09.143917,1709116929.143917,-38.57421875,-25.390625,-25.87890625,-22.4609375,1.0,1.0,-1.0,1.0,6.m4v,9.0
2024-02-28 11:42:09.159541,1709116929.1595411,-37.109375,-27.83203125,-26.3671875,-31.73828125,1.0,1.0,-1.0,1.0,6.m4v,9.0
2024-02-28 11:42:09.159541,1709116929.1595411,-37.109375,-27.83203125,-26.3671875,-31.73828125,1.0,1.0,-1.0,1.0,6.m4v,9.0
2024-02-28 11:42:09.159541,1709116929.1595411,-37.109375,-27.83203125,-26.3671875,-31.73828125,1.0,1.0,-1.0,1.0,6.m4v,9.0
2024-02-28 11:42:09.159541,1709116929.1595411,-37.109375,-27.83203125,-26.3671875,-31.73828125,1.0,1.0,-1.0,1.0,6.m4v,9.0
2024-02-28 11:42:09.175165,1709116929.175165,-39.55078125,-27.34375,-25.87890625,-38.57421875,1.0,1.0,-1.0,1.0,6.m4v,9.0
2024-02-28 11:42:09.175165,1709116929.175165,-39.55078125,-27.34375,-25.87890625,-38.57421875,1.0,1.0,-1.0,1.0,6.m4v,9.0
2024-02-28 11:42:09.175165,1709116929.175165,-39.55078125,-27.34375,-25.87890625,-38.57421875,1.0,1.0,-1.0,1.0,6.m4v,9.0
2024-02-28 11:42:09.175165,1709116929.175165,-39.55078125,-27.34375,-25.87890625,-38.57421875,1.0,1.0,-1.0,1.0,6.m4v,9.0
2024-02-28 11:42:09.190790,1709116929.19079,-37.59765625,-35.15625,-26.85546875,-44.43359375,1.0,1.0,-1.0,1.0,6.m4v,9.0
2024-02-28 11:42:09.190790,1709116929.19079,-37.59765625,-35.15625,-26.85546875,-44.43359375,1.0,1.0,-1.0,1.0,6.m4v,9.0
2024-02-28 11:42:09.190790,1709116929.19079,-37.59765625,-35.15625,-26.85546875,-44.43359375,1.0,1.0,-1.0,1.0,6.m4v,9.0
2024-02-28 11:42:09.190790,1709116929.19079,-37.59765625,-35.15625,-26.85546875,-44.43359375,1.0,1.0,-1.0,1.0,6.m4v,9.0
2024-02-28 11:42:09.202508,1709116929.202508,-33.203125,-33.203125,-26.85546875,-47.8515625,1.0,1.0,-1.0,1.0,6.m4v,9.0
2024-02-28 11:42:09.202508,1709116929.202508,-33.203125,-33.203125,-26.85546875,-47.8515625,1.0,1.0,-1.0,1.0,6.m4v,9.0
2024-02-28 11:42:09.202508,1709116929.202508,-33.203125,-33.203125,-26.85546875,-47.8515625,1.0,1.0,-1.0,1.0,6.m4v,9.0
2024-02-28 11:42:09.202508,1709116929.202508,-33.203125,-33.203125,-26.85546875,-47.8515625,1.0,1.0,-1.0,1.0,6.m4v,9.0
2024-02-28 11:42:09.214226,1709116929.2142258,-35.64453125,-31.25,-23.92578125,-40.52734375,1.0,1.0,-1.0,1.0,6.m4v,9.0
2024-02-28 11:42:09.214226,1709116929.2142258,-35.64453125,-31.25,-23.92578125,-40.52734375,1.0,1.0,-1.0,1.0,6.m4v,9.0
2024-02-28 11:42:09.214226,1709116929.2142258,-35.64453125,-31.25,-23.92578125,-40.52734375,1.0,1.0,-1.0,1.0,6.m4v,9.0
2024-02-28 11:42:09.214226,1709116929.2142258,-35.64453125,-31.25,-23.92578125,-40.52734375,1.0,1.0,-1.0,1.0,6.m4v,9.0
2024-02-28 11:42:09.225944,1709116929.2259438,-44.43359375,-28.80859375,-29.78515625,-34.66796875,1.0,1.0,-1.0,1.0,6.m4v,9.0
2024-02-28 11:42:09.225944,1709116929.2259438,-44.43359375,-28.80859375,-29.78515625,-34.66796875,1.0,1.0,-1.0,1.0,6.m4v,9.0
2024-02-28 11:42:09.225944,1709116929.2259438,-44.43359375,-28.80859375,-29.78515625,-34.66796875,1.0,1.0,-1.0,1.0,6.m4v,9.0
2024-02-28 11:42:09.225944,1709116929.2259438,-44.43359375,-28.80859375,-29.78515625,-34.66796875,1.0,1.0,-1.0,1.0,6.m4v,9.0
2024-02-28 11:42:09.237663,1709116929.2376628,-58.59375,-24.4140625,-26.3671875,-27.83203125,1.0,1.0,-1.0,1.0,6.m4v,9.0
2024-02-28 11:42:09.237663,1709116929.2376628,-58.59375,-24.4140625,-26.3671875,-27.83203125,1.0,1.0,-1.0,1.0,6.m4v,9.0
2024-02-28 11:42:09.237663,1709116929.2376628,-58.59375,-24.4140625,-26.3671875,-27.83203125,1.0,1.0,-1.0,1.0,6.m4v,9.0
2024-02-28 11:42:09.237663,1709116929.2376628,-58.59375,-24.4140625,-26.3671875,-27.83203125,1.0,1.0,-1.0,1.0,6.m4v,9.0
2024-02-28 11:42:09.245475,1709116929.2454746,-37.109375,-24.90234375,-37.59765625,-43.45703125,1.0,1.0,-1.0,1.0,6.m4v,9.0
2024-02-28 11:42:09.249381,1709116929.2493806,-29.78515625,-36.62109375,-27.34375,-39.0625,1.0,1.0,-1.0,1.0,6.m4v,9.0
2024-02-28 11:42:09.249381,1709116929.2493806,-29.78515625,-36.62109375,-27.34375,-39.0625,1.0,1.0,-1.0,1.0,6.m4v,9.0
2024-02-28 11:42:09.249381,1709116929.2493806,-29.78515625,-36.62109375,-27.34375,-39.0625,1.0,1.0,-1.0,1.0,6.m4v,9.0
2024-02-28 11:42:09.249381,1709116929.2493806,-29.78515625,-36.62109375,-27.34375,-39.0625,1.0,1.0,-1.0,1.0,6.m4v,9.0
2024-02-28 11:42:09.253287,1709116929.2532866,-21.97265625,-35.64453125,-28.3203125,-53.22265625,1.0,1.0,-1.0,1.0,6.m4v,9.0
2024-02-28 11:42:09.257193,1709116929.2571926,-6.34765625,-24.90234375,-36.62109375,-59.08203125,1.0,1.0,-1.0,1.0,6.m4v,9.0
2024-02-28 11:42:09.261099,1709116929.2610986,-16.11328125,-25.87890625,-33.203125,-42.48046875,1.0,1.0,-1.0,1.0,6.m4v,9.0
2024-02-28 11:42:09.265005,1709116929.2650046,-36.62109375,-28.3203125,-35.64453125,-40.0390625,1.0,1.0,-1.0,1.0,6.m4v,9.0
2024-02-28 11:42:09.268910,1709116929.2689104,-44.921875,-30.76171875,-45.8984375,-45.8984375,1.0,1.0,-1.0,1.0,6.m4v,9.0
2024-02-28 11:42:09.272816,1709116929.2728164,-38.57421875,-34.66796875,-41.015625,-32.71484375,1.0,1.0,-1.0,1.0,6.m4v,9.0
2024-02-28 11:42:09.276722,1709116929.2767224,-33.203125,-35.64453125,-25.87890625,-28.3203125,1.0,1.0,-1.0,1.0,6.m4v,9.0
2024-02-28 11:42:09.280628,1709116929.2806284,-28.3203125,-34.1796875,-22.94921875,-39.0625,1.0,1.0,-1.0,1.0,6.m4v,9.0
2024-02-28 11:42:09.284535,1709116929.2845354,-33.203125,-32.2265625,-29.78515625,-33.203125,1.0,1.0,-1.0,1.0,6.m4v,9.0
2024-02-28 11:42:09.288441,1709116929.2884412,-32.2265625,-32.71484375,-36.62109375,-45.41015625,1.0,1.0,-1.0,1.0,6.m4v,9.0
2024-02-28 11:42:09.292347,1709116929.2923472,-26.85546875,-35.64453125,-33.203125,-34.1796875,1.0,1.0,-1.0,1.0,6.m4v,9.0
2024-02-28 11:42:09.296253,1709116929.2962532,-42.96875,-29.78515625,-27.34375,-12.6953125,1.0,1.0,-1.0,1.0,6.m4v,9.0
2024-02-28 11:42:09.300159,1709116929.3001592,-40.52734375,-26.85546875,-33.203125,-40.52734375,1.0,1.0,-1.0,1.0,6.m4v,9.0
2024-02-28 11:42:09.304065,1709116929.3040652,-41.50390625,-29.78515625,-33.203125,-61.03515625,1.0,1.0,-1.0,1.0,6.m4v,9.0
2024-02-28 11:42:09.307971,1709116929.307971,-39.55078125,-28.3203125,-28.80859375,-42.96875,1.0,1.0,-1.0,1.0,6.m4v,9.0
2024-02-28 11:42:09.331408,1709116929.3314078,-37.59765625,-26.85546875,-18.06640625,-34.1796875,1.0,1.0,-1.0,1.0,6.m4v,9.0
2024-02-28 11:42:09.335314,1709116929.3353138,-31.25,-19.53125,-16.6015625,-36.62109375,1.0,1.0,-1.0,1.0,6.m4v,9.0
2024-02-28 11:42:09.339220,1709116929.3392198,-16.6015625,-16.6015625,-23.4375,-17.08984375,1.0,1.0,-1.0,1.0,6.m4v,9.0
2024-02-28 11:42:09.343126,1709116929.3431258,-31.25,-26.85546875,-31.25,-24.4140625,1.0,1.0,-1.0,1.0,6.m4v,9.0
2024-02-28 11:42:09.347032,1709116929.3470316,-36.1328125,-28.3203125,-28.80859375,-43.45703125,1.0,1.0,-1.0,1.0,6.m4v,9.0
2024-02-28 11:42:09.350938,1709116929.3509376,-23.4375,-27.34375,-27.34375,-55.6640625,1.0,1.0,-1.0,1.0,6.m4v,9.0
2024-02-28 11:42:09.354844,1709116929.3548436,-19.04296875,-31.73828125,-29.78515625,-50.29296875,1.0,1.0,-1.0,1.0,6.m4v,9.0
2024-02-28 11:42:09.358750,1709116929.3587496,-29.78515625,-27.83203125,-29.78515625,-32.2265625,1.0,1.0,-1.0,1.0,6.m4v,9.0
2024-02-28 11:42:09.362656,1709116929.3626556,-29.296875,-21.97265625,-30.76171875,-33.203125,1.0,1.0,-1.0,1.0,6.m4v,9.0
2024-02-28 11:42:09.366561,1709116929.3665614,-27.34375,-22.94921875,-30.2734375,-36.62109375,1.0,1.0,-1.0,1.0,6.m4v,9.0
2024-02-28 11:42:09.370467,1709116929.3704674,-23.4375,-22.94921875,-31.25,-20.01953125,1.0,1.0,-1.0,1.0,6.m4v,9.0
2024-02-28 11:42:09.374373,1709116929.3743734,-22.94921875,-21.484375,-32.2265625,-42.48046875,1.0,1.0,-1.0,1.0,6.m4v,9.0
2024-02-28 11:42:09.378280,1709116929.3782802,-30.76171875,-28.80859375,-27.34375,-37.109375,1.0,1.0,-1.0,1.0,6.m4v,9.0
2024-02-28 11:42:09.382186,1709116929.382186,-15.625,-24.90234375,-22.4609375,-30.2734375,1.0,1.0,-1.0,1.0,6.m4v,9.0
2024-02-28 11:42:09.386092,1709116929.386092,-23.4375,-20.01953125,-23.92578125,-42.96875,1.0,1.0,-1.0,1.0,6.m4v,9.0
2024-02-28 11:42:09.389998,1709116929.389998,-45.41015625,-26.3671875,-29.296875,-41.015625,1.0,1.0,-1.0,1.0,6.m4v,9.0
2024-02-28 11:42:09.393904,1709116929.393904,-41.50390625,-22.4609375,-25.87890625,-35.15625,1.0,1.0,-1.0,1.0,6.m4v,9.0
2024-02-28 11:42:09.397810,1709116929.39781,-38.57421875,-22.4609375,-21.97265625,-35.15625,1.0,1.0,-1.0,1.0,6.m4v,9.0
2024-02-28 11:42:09.401716,1709116929.4017158,-32.2265625,-29.78515625,-21.97265625,-37.109375,1.0,1.0,-1.0,1.0,6.m4v,9.0
2024-02-28 11:42:09.413434,1709116929.4134338,-12.20703125,-24.90234375,-33.69140625,-34.1796875,1.0,1.0,-1.0,1.0,6.m4v,9.0
2024-02-28 11:42:09.417340,1709116929.4173398,-19.53125,-24.90234375,-26.85546875,-24.4140625,1.0,1.0,-1.0,1.0,6.m4v,9.0
2024-02-28 11:42:09.421246,1709116929.4212458,-13.671875,-24.4140625,-33.203125,-37.59765625,1.0,1.0,-1.0,1.0,6.m4v,9.0
2024-02-28 11:42:09.425152,1709116929.4251523,1.46484375,-24.4140625,-33.69140625,-31.73828125,1.0,1.0,-1.0,1.0,6.m4v,9.0
2024-02-28 11:42:09.429058,1709116929.4290583,-11.71875,-28.3203125,-31.73828125,-25.390625,1.0,1.0,-1.0,1.0,6.m4v,9.0
2024-02-28 11:42:09.432964,1709116929.432964,-20.99609375,-32.2265625,-30.76171875,-13.671875,1.0,1.0,-1.0,1.0,6.m4v,9.0
2024-02-28 11:42:09.436870,1709116929.43687,-22.4609375,-33.69140625,-32.71484375,-31.73828125,1.0,1.0,-1.0,1.0,6.m4v,9.0
2024-02-28 11:42:09.440776,1709116929.440776,-24.90234375,-27.83203125,-33.69140625,-36.1328125,1.0,1.0,-1.0,1.0,6.m4v,9.0
2024-02-28 11:42:09.444682,1709116929.444682,0.0,-16.11328125,-17.08984375,-1.953125,1.0,1.0,-1.0,1.0,6.m4v,9.0
2024-02-28 11:42:09.448588,1709116929.448588,-15.625,-18.06640625,-23.92578125,-40.52734375,1.0,1.0,-1.0,1.0,6.m4v,9.0
2024-02-28 11:42:09.452494,1709116929.452494,-27.34375,-28.3203125,-46.875,-58.10546875,1.0,1.0,-1.0,1.0,6.m4v,9.0
2024-02-28 11:42:09.456400,1709116929.4564,-22.94921875,-23.4375,-42.96875,-29.296875,1.0,1.0,-1.0,1.0,6.m4v,9.0
2024-02-28 11:42:09.460306,1709116929.460306,-41.015625,-19.04296875,-29.78515625,-33.203125,1.0,1.0,-1.0,1.0,6.m4v,9.0
2024-02-28 11:42:09.464212,1709116929.464212,-38.0859375,-21.484375,-38.57421875,-28.3203125,1.0,1.0,-1.0,1.0,6.m4v,9.0
2024-02-28 11:42:09.468118,1709116929.468118,-28.80859375,-27.83203125,-43.45703125,-32.2265625,1.0,1.0,-1.0,1.0,6.m4v,9.0
2024-02-28 11:42:09.472024,1709116929.4720242,-22.94921875,-27.34375,-33.69140625,-47.8515625,1.0,1.0,-1.0,1.0,6.m4v,9.0
2024-02-28 11:42:09.475930,1709116929.4759302,-32.2265625,-28.80859375,-24.4140625,-14.6484375,1.0,1.0,-1.0,1.0,6.m4v,9.0
2024-02-28 11:42:09.593113,1709116929.5931134,-44.43359375,-32.71484375,-38.57421875,-38.57421875,1.0,1.0,-1.0,1.0,6.m4v,9.0
2024-02-28 11:42:09.593113,1709116929.5931134,-44.43359375,-32.71484375,-38.57421875,-38.57421875,1.0,1.0,-1.0,1.0,6.m4v,9.0
2024-02-28 11:42:09.593113,1709116929.5931134,-44.43359375,-32.71484375,-38.57421875,-38.57421875,1.0,1.0,-1.0,1.0,6.m4v,9.0
2024-02-28 11:42:09.597019,1709116929.5970194,-42.96875,-33.203125,-35.15625,-50.29296875,1.0,1.0,-1.0,1.0,6.m4v,9.0
2024-02-28 11:42:09.597019,1709116929.5970194,-42.96875,-33.203125,-35.15625,-50.29296875,1.0,1.0,-1.0,1.0,6.m4v,9.0
2024-02-28 11:42:09.597019,1709116929.5970194,-42.96875,-33.203125,-35.15625,-50.29296875,1.0,1.0,-1.0,1.0,6.m4v,9.0
2024-02-28 11:42:09.600925,1709116929.6009254,-37.109375,-27.83203125,-32.2265625,-38.0859375,1.0,1.0,-1.0,1.0,6.m4v,9.0
2024-02-28 11:42:09.600925,1709116929.6009254,-37.109375,-27.83203125,-32.2265625,-38.0859375,1.0,1.0,-1.0,1.0,6.m4v,9.0
2024-02-28 11:42:09.600925,1709116929.6009254,-37.109375,-27.83203125,-32.2265625,-38.0859375,1.0,1.0,-1.0,1.0,6.m4v,9.0
2024-02-28 11:42:09.604831,1709116929.6048317,-41.015625,-32.2265625,-39.0625,-38.0859375,1.0,1.0,-1.0,1.0,6.m4v,9.0
2024-02-28 11:42:09.604831,1709116929.6048317,-41.015625,-32.2265625,-39.0625,-38.0859375,1.0,1.0,-1.0,1.0,6.m4v,9.0
2024-02-28 11:42:09.604831,1709116929.6048317,-41.015625,-32.2265625,-39.0625,-38.0859375,1.0,1.0,-1.0,1.0,6.m4v,9.0
2024-02-28 11:42:09.620456,1709116929.6204565,-32.71484375,-39.0625,-38.0859375,-34.1796875,1.0,1.0,-1.0,1.0,6.m4v,9.0
2024-02-28 11:42:09.628268,1709116929.6282682,-48.828125,-32.2265625,-26.3671875,-33.69140625,1.0,1.0,-1.0,1.0,6.m4v,9.0
2024-02-28 11:42:09.636080,1709116929.6360805,-40.0390625,-35.15625,-34.66796875,-20.5078125,1.0,1.0,-1.0,1.0,6.m4v,9.0
2024-02-28 11:42:09.643892,1709116929.643892,-26.3671875,-39.55078125,-39.55078125,-23.92578125,1.0,1.0,-1.0,1.0,6.m4v,9.0
2024-02-28 11:42:09.651704,1709116929.651704,-30.2734375,-33.69140625,-28.80859375,-38.57421875,1.0,1.0,-1.0,1.0,6.m4v,9.0
2024-02-28 11:42:09.659517,1709116929.659517,-36.62109375,-29.78515625,-19.04296875,-14.16015625,1.0,1.0,-1.0,1.0,6.m4v,9.0
2024-02-28 11:42:09.663423,1709116929.663423,-33.69140625,-28.80859375,-23.4375,-33.69140625,1.0,1.0,-1.0,1.0,6.m4v,9.0
2024-02-28 11:42:09.667329,1709116929.6673288,-47.8515625,-25.87890625,-31.25,-33.203125,1.0,1.0,-1.0,1.0,6.m4v,9.0
2024-02-28 11:42:09.671235,1709116929.6712348,-25.390625,-25.87890625,-29.78515625,-43.45703125,1.0,1.0,-1.0,1.0,6.m4v,9.0
2024-02-28 11:42:09.675141,1709116929.6751409,-29.78515625,-30.76171875,-28.80859375,-48.828125,1.0,1.0,-1.0,1.0,6.m4v,9.0
2024-02-28 11:42:09.679047,1709116929.6790469,-49.31640625,-24.4140625,-34.1796875,-43.45703125,1.0,1.0,-1.0,1.0,6.m4v,9.0
2024-02-28 11:42:09.682953,1709116929.682953,-41.50390625,-19.04296875,-32.71484375,-39.0625,1.0,1.0,-1.0,1.0,6.m4v,9.0
2024-02-28 11:42:09.686859,1709116929.686859,-35.64453125,-28.80859375,-29.296875,-32.2265625,1.0,1.0,-1.0,1.0,6.m4v,9.0
2024-02-28 11:42:09.706389,1709116929.7063894,-45.41015625,-28.80859375,-37.59765625,-47.36328125,1.0,1.0,-1.0,1.0,6.m4v,9.0
2024-02-28 11:42:09.706389,1709116929.7063894,-45.41015625,-28.80859375,-37.59765625,-47.36328125,1.0,1.0,-1.0,1.0,6.m4v,9.0
2024-02-28 11:42:09.710295,1709116929.7102954,-41.50390625,-31.25,-41.9921875,-44.921875,1.0,1.0,-1.0,1.0,6.m4v,9.0
2024-02-28 11:42:09.710295,1709116929.7102954,-41.50390625,-31.25,-41.9921875,-44.921875,1.0,1.0,-1.0,1.0,6.m4v,9.0
2024-02-28 11:42:09.714201,1709116929.7142017,-41.50390625,-31.73828125,-34.66796875,-56.640625,1.0,1.0,-1.0,1.0,6.m4v,9.0
2024-02-28 11:42:09.714201,1709116929.7142017,-41.50390625,-31.73828125,-34.66796875,-56.640625,1.0,1.0,-1.0,1.0,6.m4v,9.0
2024-02-28 11:42:09.718107,1709116929.7181072,-54.19921875,-32.2265625,-31.25,-57.6171875,1.0,1.0,-1.0,1.0,6.m4v,9.0
2024-02-28 11:42:09.718107,1709116929.7181072,-54.19921875,-32.2265625,-31.25,-57.6171875,1.0,1.0,-1.0,1.0,6.m4v,9.0
2024-02-28 11:42:09.722013,1709116929.7220132,-59.08203125,-36.1328125,-31.25,-36.1328125,1.0,1.0,-1.0,1.0,6.m4v,9.0
2024-02-28 11:42:09.722013,1709116929.7220132,-59.08203125,-36.1328125,-31.25,-36.1328125,1.0,1.0,-1.0,1.0,6.m4v,9.0
2024-02-28 11:42:09.725919,1709116929.7259192,-42.48046875,-27.34375,-31.73828125,-35.15625,1.0,1.0,-1.0,1.0,6.m4v,9.0
2024-02-28 11:42:09.725919,1709116929.7259192,-42.48046875,-27.34375,-31.73828125,-35.15625,1.0,1.0,-1.0,1.0,6.m4v,9.0
2024-02-28 11:42:09.729825,1709116929.7298253,-41.015625,-24.90234375,-32.71484375,-38.57421875,1.0,1.0,-1.0,1.0,6.m4v,9.0
2024-02-28 11:42:09.729825,1709116929.7298253,-41.015625,-24.90234375,-32.71484375,-38.57421875,1.0,1.0,-1.0,1.0,6.m4v,9.0
2024-02-28 11:42:09.733731,1709116929.7337313,-53.7109375,-39.55078125,-42.96875,-37.59765625,1.0,1.0,-1.0,1.0,6.m4v,9.0
2024-02-28 11:42:09.733731,1709116929.7337313,-53.7109375,-39.55078125,-42.96875,-37.59765625,1.0,1.0,-1.0,1.0,6.m4v,9.0
2024-02-28 11:42:09.737637,1709116929.737637,-26.3671875,-40.0390625,-43.45703125,-34.66796875,1.0,1.0,-1.0,1.0,6.m4v,9.0
2024-02-28 11:42:09.737637,1709116929.737637,-26.3671875,-40.0390625,-43.45703125,-34.66796875,1.0,1.0,-1.0,1.0,6.m4v,9.0
2024-02-28 11:42:09.741543,1709116929.741543,-38.0859375,-37.109375,-36.1328125,-41.9921875,1.0,1.0,-1.0,1.0,6.m4v,9.0
2024-02-28 11:42:09.741543,1709116929.741543,-38.0859375,-37.109375,-36.1328125,-41.9921875,1.0,1.0,-1.0,1.0,6.m4v,9.0
2024-02-28 11:42:09.753262,1709116929.7532618,-32.71484375,-29.78515625,-39.55078125,-38.0859375,1.0,1.0,-1.0,1.0,6.m4v,9.0
2024-02-28 11:42:09.753262,1709116929.7532618,-32.71484375,-29.78515625,-39.55078125,-38.0859375,1.0,1.0,-1.0,1.0,6.m4v,9.0
2024-02-28 11:42:09.764980,1709116929.7649796,-37.59765625,-38.57421875,-40.0390625,-44.43359375,1.0,1.0,-1.0,1.0,6.m4v,9.0
2024-02-28 11:42:09.764980,1709116929.7649796,-37.59765625,-38.57421875,-40.0390625,-44.43359375,1.0,1.0,-1.0,1.0,6.m4v,9.0
2024-02-28 11:42:09.776698,1709116929.7766976,-40.52734375,-35.64453125,-44.43359375,-45.41015625,1.0,1.0,-1.0,1.0,6.m4v,9.0
2024-02-28 11:42:09.776698,1709116929.7766976,-40.52734375,-35.64453125,-44.43359375,-45.41015625,1.0,1.0,-1.0,1.0,6.m4v,9.0
2024-02-28 11:42:09.784509,1709116929.7845094,-44.921875,-36.1328125,-39.0625,-51.26953125,1.0,1.0,-1.0,1.0,6.m4v,9.0
2024-02-28 11:42:09.784509,1709116929.7845094,-44.921875,-36.1328125,-39.0625,-51.26953125,1.0,1.0,-1.0,1.0,6.m4v,9.0
2024-02-28 11:42:09.792321,1709116929.7923214,-36.1328125,-32.71484375,-27.34375,-28.80859375,1.0,1.0,-1.0,1.0,6.m4v,9.0
2024-02-28 11:42:09.792321,1709116929.7923214,-36.1328125,-32.71484375,-27.34375,-28.80859375,1.0,1.0,-1.0,1.0,6.m4v,9.0
2024-02-28 11:42:09.800134,1709116929.800134,-34.66796875,-29.296875,-32.2265625,-42.48046875,1.0,1.0,-1.0,1.0,6.m4v,9.0
2024-02-28 11:42:09.800134,1709116929.800134,-34.66796875,-29.296875,-32.2265625,-42.48046875,1.0,1.0,-1.0,1.0,6.m4v,9.0
2024-02-28 11:42:09.807946,1709116929.807946,-20.99609375,-29.78515625,-24.90234375,-29.78515625,1.0,1.0,-1.0,1.0,6.m4v,9.0
2024-02-28 11:42:09.807946,1709116929.807946,-20.99609375,-29.78515625,-24.90234375,-29.78515625,1.0,1.0,-1.0,1.0,6.m4v,9.0
2024-02-28 11:42:09.815758,1709116929.815758,-27.83203125,-30.76171875,-29.296875,-32.2265625,1.0,1.0,-1.0,1.0,6.m4v,9.0
2024-02-28 11:42:09.815758,1709116929.815758,-27.83203125,-30.76171875,-29.296875,-32.2265625,1.0,1.0,-1.0,1.0,6.m4v,9.0
2024-02-28 11:42:09.823570,1709116929.8235698,-39.55078125,-29.296875,-46.875,-42.96875,1.0,1.0,-1.0,1.0,6.m4v,9.0
2024-02-28 11:42:09.823570,1709116929.8235698,-39.55078125,-29.296875,-46.875,-42.96875,1.0,1.0,-1.0,1.0,6.m4v,9.0
2024-02-28 11:42:09.831382,1709116929.8313818,-23.4375,-32.71484375,-39.55078125,-45.8984375,1.0,1.0,-1.0,1.0,6.m4v,9.0
2024-02-28 11:42:09.831382,1709116929.8313818,-23.4375,-32.71484375,-39.55078125,-45.8984375,1.0,1.0,-1.0,1.0,6.m4v,9.0
2024-02-28 11:42:09.839194,1709116929.8391936,-31.73828125,-26.85546875,-21.97265625,-45.41015625,1.0,1.0,-1.0,1.0,6.m4v,9.0
2024-02-28 11:42:09.839194,1709116929.8391936,-31.73828125,-26.85546875,-21.97265625,-45.41015625,1.0,1.0,-1.0,1.0,6.m4v,9.0
2024-02-28 11:42:09.847006,1709116929.847006,-38.0859375,-34.66796875,-32.71484375,-39.0625,1.0,1.0,-1.0,1.0,6.m4v,9.0
2024-02-28 11:42:09.847006,1709116929.847006,-38.0859375,-34.66796875,-32.71484375,-39.0625,1.0,1.0,-1.0,1.0,6.m4v,9.0
2024-02-28 11:42:09.854818,1709116929.854818,-25.87890625,-35.64453125,-31.25,-29.78515625,1.0,1.0,-1.0,1.0,6.m4v,9.0
2024-02-28 11:42:09.854818,1709116929.854818,-25.87890625,-35.64453125,-31.25,-29.78515625,1.0,1.0,-1.0,1.0,6.m4v,9.0
2024-02-28 11:42:09.862630,1709116929.86263,-25.390625,-32.71484375,-29.78515625,-25.87890625,1.0,1.0,-1.0,1.0,6.m4v,9.0
2024-02-28 11:42:09.862630,1709116929.86263,-25.390625,-32.71484375,-29.78515625,-25.87890625,1.0,1.0,-1.0,1.0,6.m4v,9.0
2024-02-28 11:42:09.874348,1709116929.8743477,-31.25,-36.1328125,-41.50390625,-43.9453125,1.0,1.0,-1.0,1.0,6.m4v,9.0
2024-02-28 11:42:09.874348,1709116929.8743477,-31.25,-36.1328125,-41.50390625,-43.9453125,1.0,1.0,-1.0,1.0,6.m4v,9.0
2024-02-28 11:42:09.886066,1709116929.8860655,-38.0859375,-33.203125,-34.66796875,-40.52734375,1.0,1.0,-1.0,1.0,6.m4v,9.0
2024-02-28 11:42:09.886066,1709116929.8860655,-38.0859375,-33.203125,-34.66796875,-40.52734375,1.0,1.0,-1.0,1.0,6.m4v,9.0
2024-02-28 11:42:09.886066,1709116929.8860655,-38.0859375,-33.203125,-34.66796875,-40.52734375,1.0,1.0,-1.0,1.0,6.m4v,9.0
2024-02-28 11:42:09.893879,1709116929.8938792,-34.66796875,-40.0390625,-39.0625,-43.9453125,1.0,1.0,-1.0,1.0,6.m4v,9.0
2024-02-28 11:42:09.893879,1709116929.8938792,-34.66796875,-40.0390625,-39.0625,-43.9453125,1.0,1.0,-1.0,1.0,6.m4v,9.0
2024-02-28 11:42:09.893879,1709116929.8938792,-34.66796875,-40.0390625,-39.0625,-43.9453125,1.0,1.0,-1.0,1.0,6.m4v,9.0
2024-02-28 11:42:09.897785,1709116929.897785,-60.05859375,-41.9921875,-45.8984375,-52.734375,1.0,1.0,-1.0,1.0,6.m4v,9.0
2024-02-28 11:42:09.897785,1709116929.897785,-60.05859375,-41.9921875,-45.8984375,-52.734375,1.0,1.0,-1.0,1.0,6.m4v,9.0
2024-02-28 11:42:09.897785,1709116929.897785,-60.05859375,-41.9921875,-45.8984375,-52.734375,1.0,1.0,-1.0,1.0,6.m4v,9.0
2024-02-28 11:42:09.901691,1709116929.901691,-47.36328125,-43.9453125,-39.0625,-54.6875,1.0,1.0,-1.0,1.0,6.m4v,9.0
2024-02-28 11:42:09.901691,1709116929.901691,-47.36328125,-43.9453125,-39.0625,-54.6875,1.0,1.0,-1.0,1.0,6.m4v,9.0
2024-02-28 11:42:09.901691,1709116929.901691,-47.36328125,-43.9453125,-39.0625,-54.6875,1.0,1.0,-1.0,1.0,6.m4v,9.0
2024-02-28 11:42:09.905597,1709116929.905597,-39.55078125,-37.109375,-37.109375,-44.43359375,1.0,1.0,-1.0,1.0,6.m4v,9.0
2024-02-28 11:42:09.905597,1709116929.905597,-39.55078125,-37.109375,-37.109375,-44.43359375,1.0,1.0,-1.0,1.0,6.m4v,9.0
2024-02-28 11:42:09.905597,1709116929.905597,-39.55078125,-37.109375,-37.109375,-44.43359375,1.0,1.0,-1.0,1.0,6.m4v,9.0
2024-02-28 11:42:09.909503,1709116929.909503,-39.55078125,-34.66796875,-36.1328125,-51.7578125,1.0,1.0,-1.0,1.0,6.m4v,9.0
2024-02-28 11:42:09.909503,1709116929.909503,-39.55078125,-34.66796875,-36.1328125,-51.7578125,1.0,1.0,-1.0,1.0,6.m4v,9.0
2024-02-28 11:42:09.909503,1709116929.909503,-39.55078125,-34.66796875,-36.1328125,-51.7578125,1.0,1.0,-1.0,1.0,6.m4v,9.0
2024-02-28 11:42:09.917315,1709116929.9173148,-26.3671875,-29.296875,-33.203125,-34.1796875,1.0,1.0,-1.0,1.0,6.m4v,9.0
2024-02-28 11:42:09.917315,1709116929.9173148,-26.3671875,-29.296875,-33.203125,-34.1796875,1.0,1.0,-1.0,1.0,6.m4v,9.0
2024-02-28 11:42:09.917315,1709116929.9173148,-26.3671875,-29.296875,-33.203125,-34.1796875,1.0,1.0,-1.0,1.0,6.m4v,9.0
2024-02-28 11:42:09.929033,1709116929.9290328,-48.33984375,-33.203125,-41.9921875,-43.45703125,1.0,1.0,-1.0,1.0,6.m4v,9.0
2024-02-28 11:42:09.929033,1709116929.9290328,-48.33984375,-33.203125,-41.9921875,-43.45703125,1.0,1.0,-1.0,1.0,6.m4v,9.0
2024-02-28 11:42:09.929033,1709116929.9290328,-48.33984375,-33.203125,-41.9921875,-43.45703125,1.0,1.0,-1.0,1.0,6.m4v,9.0
2024-02-28 11:42:09.940752,1709116929.940752,-43.9453125,-35.64453125,-39.55078125,-35.64453125,1.0,1.0,-1.0,1.0,6.m4v,9.0
2024-02-28 11:42:09.940752,1709116929.940752,-43.9453125,-35.64453125,-39.55078125,-35.64453125,1.0,1.0,-1.0,1.0,6.m4v,9.0
2024-02-28 11:42:09.940752,1709116929.940752,-43.9453125,-35.64453125,-39.55078125,-35.64453125,1.0,1.0,-1.0,1.0,6.m4v,9.0
2024-02-28 11:42:09.940752,1709116929.940752,-43.9453125,-35.64453125,-39.55078125,-35.64453125,1.0,1.0,-1.0,1.0,6.m4v,9.0
2024-02-28 11:42:09.948564,1709116929.9485638,-25.87890625,-35.15625,-37.109375,-56.15234375,1.0,1.0,-1.0,1.0,6.m4v,9.0
2024-02-28 11:42:09.948564,1709116929.9485638,-25.87890625,-35.15625,-37.109375,-56.15234375,1.0,1.0,-1.0,1.0,6.m4v,9.0
2024-02-28 11:42:09.948564,1709116929.9485638,-25.87890625,-35.15625,-37.109375,-56.15234375,1.0,1.0,-1.0,1.0,6.m4v,9.0
2024-02-28 11:42:09.948564,1709116929.9485638,-25.87890625,-35.15625,-37.109375,-56.15234375,1.0,1.0,-1.0,1.0,6.m4v,9.0
2024-02-28 11:42:09.964188,1709116929.9641876,-40.52734375,-37.109375,-41.9921875,-52.24609375,1.0,1.0,-1.0,1.0,6.m4v,9.0
2024-02-28 11:42:09.964188,1709116929.9641876,-40.52734375,-37.109375,-41.9921875,-52.24609375,1.0,1.0,-1.0,1.0,6.m4v,9.0
2024-02-28 11:42:09.964188,1709116929.9641876,-40.52734375,-37.109375,-41.9921875,-52.24609375,1.0,1.0,-1.0,1.0,6.m4v,9.0
2024-02-28 11:42:09.964188,1709116929.9641876,-40.52734375,-37.109375,-41.9921875,-52.24609375,1.0,1.0,-1.0,1.0,6.m4v,9.0
2024-02-28 11:42:09.975906,1709116929.9759057,-47.8515625,-39.55078125,-42.48046875,-39.55078125,1.0,1.0,-1.0,1.0,6.m4v,9.0
2024-02-28 11:42:09.975906,1709116929.9759057,-47.8515625,-39.55078125,-42.48046875,-39.55078125,1.0,1.0,-1.0,1.0,6.m4v,9.0
2024-02-28 11:42:09.975906,1709116929.9759057,-47.8515625,-39.55078125,-42.48046875,-39.55078125,1.0,1.0,-1.0,1.0,6.m4v,9.0
2024-02-28 11:42:09.975906,1709116929.9759057,-47.8515625,-39.55078125,-42.48046875,-39.55078125,1.0,1.0,-1.0,1.0,6.m4v,9.0
2024-02-28 11:42:09.991531,1709116929.991531,-36.1328125,-33.203125,-33.69140625,-54.6875,1.0,1.0,-1.0,1.0,6.m4v,9.0
2024-02-28 11:42:09.991531,1709116929.991531,-36.1328125,-33.203125,-33.69140625,-54.6875,1.0,1.0,-1.0,1.0,6.m4v,9.0
2024-02-28 11:42:09.991531,1709116929.991531,-36.1328125,-33.203125,-33.69140625,-54.6875,1.0,1.0,-1.0,1.0,6.m4v,9.0
2024-02-28 11:42:09.991531,1709116929.991531,-36.1328125,-33.203125,-33.69140625,-54.6875,1.0,1.0,-1.0,1.0,6.m4v,9.0
2024-02-28 11:42:09.995437,1709116929.995437,-50.29296875,-31.25,-39.55078125,-61.03515625,1.0,1.0,-1.0,1.0,6.m4v,9.0
2024-02-28 11:42:09.999343,1709116929.999343,-47.36328125,-30.2734375,-40.52734375,-49.8046875,1.0,1.0,-1.0,1.0,6.m4v,9.0
2024-02-28 11:42:10.003249,1709116930.0032487,-34.66796875,-32.71484375,-36.1328125,-34.1796875,1.0,1.0,-1.0,1.0,6.m4v,9.0
2024-02-28 11:42:10.007155,1709116930.0071547,-40.52734375,-27.83203125,-33.69140625,-37.109375,1.0,1.0,-1.0,1.0,6.m4v,9.0
2024-02-28 11:42:10.011060,1709116930.0110605,-42.96875,-30.2734375,-30.2734375,-55.17578125,1.0,1.0,-1.0,1.0,6.m4v,9.0
2024-02-28 11:42:10.014966,1709116930.0149665,-31.25,-32.2265625,-28.3203125,-49.31640625,1.0,1.0,-1.0,1.0,6.m4v,9.0
2024-02-28 11:42:10.018872,1709116930.0188725,-31.25,-26.3671875,-22.94921875,-32.2265625,1.0,1.0,-1.0,1.0,6.m4v,9.0
2024-02-28 11:42:10.022779,1709116930.0227785,-37.59765625,-32.2265625,-20.01953125,-39.55078125,1.0,1.0,-1.0,1.0,6.m4v,9.0
2024-02-28 11:42:10.026685,1709116930.0266843,-30.76171875,-33.203125,-22.4609375,-36.1328125,1.0,1.0,-1.0,1.0,6.m4v,9.0
2024-02-28 11:42:10.030590,1709116930.0305903,-30.2734375,-25.390625,-26.3671875,-24.4140625,1.0,1.0,-1.0,1.0,6.m4v,9.0
2024-02-28 11:42:10.034497,1709116930.0344975,-29.296875,-23.92578125,-28.80859375,-55.17578125,1.0,1.0,-1.0,1.0,6.m4v,9.0
2024-02-28 11:42:10.038403,1709116930.0384033,-38.57421875,-26.85546875,-26.85546875,-54.19921875,1.0,1.0,-1.0,1.0,6.m4v,9.0
2024-02-28 11:42:10.042309,1709116930.0423093,-41.50390625,-31.25,-24.4140625,-33.69140625,1.0,1.0,-1.0,1.0,6.m4v,9.0
2024-02-28 11:42:10.046215,1709116930.0462153,-30.76171875,-30.76171875,-26.85546875,-44.43359375,1.0,1.0,-1.0,1.0,6.m4v,9.0
2024-02-28 11:42:10.050121,1709116930.0501213,-25.87890625,-28.3203125,-25.87890625,-52.24609375,1.0,1.0,-1.0,1.0,6.m4v,9.0
2024-02-28 11:42:10.054027,1709116930.0540273,-29.78515625,-27.34375,-20.99609375,-44.43359375,1.0,1.0,-1.0,1.0,6.m4v,9.0
2024-02-28 11:42:10.057933,1709116930.057933,-36.62109375,-30.2734375,-23.92578125,-43.9453125,1.0,1.0,-1.0,1.0,6.m4v,9.0
2024-02-28 11:42:10.061839,1709116930.061839,-32.71484375,-31.25,-26.3671875,-33.69140625,1.0,1.0,-1.0,1.0,6.m4v,9.0
2024-02-28 11:42:10.065745,1709116930.065745,-26.3671875,-27.34375,-28.3203125,-13.671875,1.0,1.0,-1.0,1.0,6.m4v,9.0
2024-02-28 11:42:10.069651,1709116930.0696511,-20.01953125,-30.2734375,-28.80859375,-45.8984375,1.0,1.0,-1.0,1.0,6.m4v,9.0
2024-02-28 11:42:10.073557,1709116930.0735571,-25.87890625,-29.78515625,-23.4375,-58.59375,1.0,1.0,-1.0,1.0,6.m4v,9.0
2024-02-28 11:42:10.077463,1709116930.077463,-40.52734375,-27.83203125,-27.34375,-31.73828125,1.0,1.0,-1.0,1.0,6.m4v,9.0
2024-02-28 11:42:10.081371,1709116930.0813706,-40.52734375,-25.87890625,-26.3671875,-34.1796875,1.0,1.0,-1.0,1.0,6.m4v,9.0
2024-02-28 11:42:10.085277,1709116930.0852766,-23.92578125,-20.5078125,-25.390625,-41.50390625,1.0,1.0,-1.0,1.0,6.m4v,9.0
2024-02-28 11:42:10.089183,1709116930.0891826,-23.92578125,-29.296875,-36.1328125,-46.38671875,1.0,1.0,-1.0,1.0,6.m4v,9.0
2024-02-28 11:42:10.093089,1709116930.0930886,-38.57421875,-29.78515625,-40.0390625,-47.36328125,1.0,1.0,-1.0,1.0,6.m4v,9.0
2024-02-28 11:42:10.096994,1709116930.0969944,-34.66796875,-31.25,-36.1328125,-45.41015625,1.0,1.0,-1.0,1.0,6.m4v,9.0
2024-02-28 11:42:10.100900,1709116930.1009004,-42.48046875,-36.1328125,-24.4140625,-44.43359375,1.0,1.0,-1.0,1.0,6.m4v,9.0
2024-02-28 11:42:10.104806,1709116930.1048064,-36.62109375,-32.71484375,-17.578125,-46.38671875,1.0,1.0,-1.0,1.0,6.m4v,9.0
2024-02-28 11:42:10.108712,1709116930.1087124,-34.1796875,-32.2265625,-26.3671875,-36.62109375,1.0,1.0,-1.0,1.0,6.m4v,9.0
2024-02-28 11:42:10.112618,1709116930.1126184,-43.45703125,-31.25,-31.25,-26.85546875,1.0,1.0,-1.0,1.0,6.m4v,9.0
2024-02-28 11:42:10.116524,1709116930.1165242,-32.71484375,-31.25,-32.2265625,-31.73828125,1.0,1.0,-1.0,1.0,6.m4v,9.0
2024-02-28 11:42:10.120430,1709116930.1204302,-28.80859375,-27.83203125,-35.15625,-36.62109375,1.0,1.0,-1.0,1.0,6.m4v,9.0
2024-02-28 11:42:10.124336,1709116930.1243362,-36.1328125,-27.34375,-38.0859375,-54.6875,1.0,1.0,-1.0,1.0,6.m4v,9.0
2024-02-28 11:42:10.128243,1709116930.128243,-28.80859375,-29.78515625,-35.64453125,-59.08203125,1.0,1.0,-1.0,1.0,6.m4v,9.0
2024-02-28 11:42:10.132149,1709116930.132149,-27.83203125,-29.78515625,-31.73828125,-42.96875,1.0,1.0,-1.0,1.0,6.m4v,9.0
2024-02-28 11:42:10.136055,1709116930.136055,-27.83203125,-32.2265625,-25.390625,-12.6953125,1.0,1.0,-1.0,1.0,6.m4v,9.0
2024-02-28 11:42:10.139961,1709116930.1399608,-23.4375,-33.69140625,-31.25,-32.71484375,1.0,1.0,-1.0,1.0,6.m4v,9.0
2024-02-28 11:42:10.143867,1709116930.1438668,-31.25,-29.78515625,-38.0859375,-55.17578125,1.0,1.0,-1.0,1.0,6.m4v,9.0
2024-02-28 11:42:10.147773,1709116930.1477728,-25.87890625,-18.06640625,-30.76171875,-42.48046875,1.0,1.0,-1.0,1.0,6.m4v,9.0
2024-02-28 11:42:10.151679,1709116930.1516788,-17.08984375,-20.01953125,-24.4140625,-26.3671875,1.0,1.0,-1.0,1.0,6.m4v,9.0
2024-02-28 11:42:10.155585,1709116930.1555848,-14.6484375,-25.87890625,-27.34375,-34.1796875,1.0,1.0,-1.0,1.0,6.m4v,9.0
2024-02-28 11:42:10.159491,1709116930.1594906,-22.94921875,-26.85546875,-35.15625,-34.1796875,1.0,1.0,-1.0,1.0,6.m4v,9.0
2024-02-28 11:42:10.163397,1709116930.1633966,-32.2265625,-21.97265625,-37.109375,-32.2265625,1.0,1.0,-1.0,1.0,6.m4v,9.0
2024-02-28 11:42:10.167303,1709116930.1673026,-24.4140625,-16.6015625,-38.57421875,-56.640625,1.0,1.0,-1.0,1.0,6.m4v,9.0
2024-02-28 11:42:10.171209,1709116930.1712086,-35.64453125,-22.94921875,-34.66796875,-46.38671875,1.0,1.0,-1.0,1.0,6.m4v,9.0
2024-02-28 11:42:10.175115,1709116930.175115,-51.26953125,-20.01953125,-30.76171875,-37.59765625,1.0,1.0,-1.0,1.0,6.m4v,9.0
2024-02-28 11:42:10.179021,1709116930.1790211,-28.3203125,-20.01953125,-31.73828125,-34.66796875,1.0,1.0,-1.0,1.0,6.m4v,9.0
2024-02-28 11:42:10.182927,1709116930.1829271,-20.01953125,-31.25,-29.296875,-37.109375,1.0,1.0,-1.0,1.0,6.m4v,9.0
2024-02-28 11:42:10.186833,1709116930.1868331,-31.73828125,-31.25,-28.3203125,-40.0390625,1.0,1.0,-1.0,1.0,6.m4v,9.0
2024-02-28 11:42:10.190739,1709116930.1907392,-33.203125,-23.4375,-38.0859375,-49.8046875,1.0,1.0,-1.0,1.0,6.m4v,9.0
2024-02-28 11:42:10.194645,1709116930.194645,-20.01953125,-18.06640625,-37.109375,-45.41015625,1.0,1.0,-1.0,1.0,6.m4v,9.0
2024-02-28 11:42:10.198551,1709116930.198551,-32.71484375,-26.85546875,-26.85546875,-32.71484375,1.0,1.0,-1.0,1.0,6.m4v,9.0
2024-02-28 11:42:10.202457,1709116930.202457,-42.96875,-31.73828125,-26.85546875,-14.6484375,1.0,1.0,-1.0,1.0,6.m4v,9.0
2024-02-28 11:42:10.206363,1709116930.206363,-41.50390625,-24.90234375,-22.94921875,-10.25390625,1.0,1.0,-1.0,1.0,6.m4v,9.0
2024-02-28 11:42:10.210269,1709116930.210269,-44.921875,-26.3671875,-22.94921875,-32.71484375,1.0,1.0,-1.0,1.0,6.m4v,9.0
2024-02-28 11:42:10.214175,1709116930.2141747,-31.25,-26.3671875,-34.66796875,-41.015625,1.0,1.0,-1.0,1.0,6.m4v,9.0
2024-02-28 11:42:10.218081,1709116930.2180808,-32.2265625,-24.4140625,-31.25,-28.3203125,1.0,1.0,-1.0,1.0,6.m4v,9.0
2024-02-28 11:42:10.221987,1709116930.2219875,-43.9453125,-30.76171875,-25.87890625,-18.06640625,1.0,1.0,-1.0,1.0,6.m4v,9.0
2024-02-28 11:42:10.225893,1709116930.2258933,-39.55078125,-32.2265625,-34.1796875,-53.22265625,1.0,1.0,-1.0,1.0,6.m4v,9.0
2024-02-28 11:42:10.229799,1709116930.2297993,-33.69140625,-31.25,-38.0859375,-69.3359375,1.0,1.0,-1.0,1.0,6.m4v,9.0
2024-02-28 11:42:10.233705,1709116930.2337053,-23.92578125,-33.203125,-32.71484375,-66.40625,1.0,1.0,-1.0,1.0,6.m4v,9.0
2024-02-28 11:42:10.237611,1709116930.2376113,-14.6484375,-32.71484375,-26.85546875,-56.15234375,1.0,1.0,-1.0,1.0,6.m4v,9.0
2024-02-28 11:42:10.241517,1709116930.2415173,-25.87890625,-27.34375,-15.13671875,-16.6015625,1.0,1.0,-1.0,1.0,6.m4v,9.0
2024-02-28 11:42:10.245423,1709116930.2454233,-25.87890625,-27.83203125,-20.5078125,-28.3203125,1.0,1.0,-1.0,1.0,6.m4v,9.0
2024-02-28 11:42:10.249329,1709116930.249329,-21.97265625,-25.87890625,-34.66796875,-60.05859375,1.0,1.0,-1.0,1.0,6.m4v,9.0
2024-02-28 11:42:10.253235,1709116930.253235,-34.1796875,-25.87890625,-32.71484375,-47.36328125,1.0,1.0,-1.0,1.0,6.m4v,9.0
2024-02-28 11:42:10.257141,1709116930.257141,-37.109375,-27.34375,-25.87890625,-18.06640625,1.0,1.0,-1.0,1.0,6.m4v,9.0
2024-02-28 11:42:10.261047,1709116930.2610471,-27.83203125,-24.90234375,-21.97265625,-21.97265625,1.0,1.0,-1.0,1.0,6.m4v,9.0
2024-02-28 11:42:10.264953,1709116930.2649531,-38.57421875,-23.4375,-29.296875,-44.921875,1.0,1.0,-1.0,1.0,6.m4v,9.0
2024-02-28 11:42:10.268860,1709116930.2688603,-29.296875,-26.85546875,-36.62109375,-44.43359375,1.0,1.0,-1.0,1.0,6.m4v,9.0
2024-02-28 11:42:10.272766,1709116930.2727664,-34.66796875,-36.62109375,-36.1328125,-48.828125,1.0,1.0,-1.0,1.0,6.m4v,9.0
2024-02-28 11:42:10.276672,1709116930.2766724,-35.64453125,-38.0859375,-27.83203125,-40.0390625,1.0,1.0,-1.0,1.0,6.m4v,9.0
2024-02-28 11:42:10.280578,1709116930.2805784,-31.25,-29.78515625,-26.3671875,-24.90234375,1.0,1.0,-1.0,1.0,6.m4v,9.0
2024-02-28 11:42:10.284484,1709116930.2844844,-49.31640625,-26.3671875,-31.73828125,-37.109375,1.0,1.0,-1.0,1.0,6.m4v,9.0
2024-02-28 11:42:10.288390,1709116930.2883902,-31.25,-30.2734375,-31.25,-38.57421875,1.0,1.0,-1.0,1.0,6.m4v,9.0
2024-02-28 11:42:10.292296,1709116930.2922962,-31.73828125,-29.78515625,-34.1796875,-32.2265625,1.0,1.0,-1.0,1.0,6.m4v,9.0
2024-02-28 11:42:10.296202,1709116930.2962022,-38.57421875,-29.296875,-35.64453125,-24.4140625,1.0,1.0,-1.0,1.0,6.m4v,9.0
2024-02-28 11:42:10.300108,1709116930.3001082,-34.66796875,-28.3203125,-35.64453125,-12.20703125,1.0,1.0,-1.0,1.0,6.m4v,9.0
2024-02-28 11:42:10.304014,1709116930.3040142,-32.71484375,-22.4609375,-32.71484375,-50.29296875,1.0,1.0,-1.0,1.0,6.m4v,9.0
2024-02-28 11:42:10.307920,1709116930.30792,-26.85546875,-20.5078125,-29.78515625,-56.15234375,1.0,1.0,-1.0,1.0,6.m4v,9.0
2024-02-28 11:42:10.311826,1709116930.311826,-20.5078125,-28.80859375,-32.71484375,-34.1796875,1.0,1.0,-1.0,1.0,6.m4v,9.0
2024-02-28 11:42:10.315733,1709116930.3157332,-29.78515625,-30.2734375,-30.2734375,-32.2265625,1.0,1.0,-1.0,1.0,6.m4v,9.0
2024-02-28 11:42:10.319639,1709116930.3196392,-38.57421875,-29.296875,-23.4375,-20.99609375,1.0,1.0,-1.0,1.0,6.m4v,9.0
2024-02-28 11:42:10.323545,1709116930.3235452,-30.2734375,-29.296875,-26.3671875,-37.109375,1.0,1.0,-1.0,1.0,6.m4v,9.0
2024-02-28 11:42:10.327451,1709116930.3274512,-26.85546875,-30.2734375,-34.66796875,-54.19921875,1.0,1.0,-1.0,1.0,6.m4v,9.0
2024-02-28 11:42:10.331357,1709116930.331357,-29.296875,-32.2265625,-37.59765625,-41.9921875,1.0,1.0,-1.0,1.0,6.m4v,9.0
2024-02-28 11:42:10.335263,1709116930.335263,-37.59765625,-26.3671875,-34.66796875,-37.109375,1.0,1.0,-1.0,1.0,6.m4v,9.0
2024-02-28 11:42:10.339169,1709116930.339169,-34.66796875,-24.4140625,-33.203125,-36.62109375,1.0,1.0,-1.0,1.0,6.m4v,9.0
2024-02-28 11:42:10.343075,1709116930.343075,-36.62109375,-29.296875,-31.25,-29.78515625,1.0,1.0,-1.0,1.0,6.m4v,9.0
2024-02-28 11:42:10.346981,1709116930.346981,-35.15625,-31.73828125,-27.83203125,-14.6484375,1.0,1.0,-1.0,1.0,6.m4v,9.0
2024-02-28 11:42:10.350887,1709116930.350887,-26.3671875,-26.85546875,-32.71484375,-28.80859375,1.0,1.0,-1.0,1.0,6.m4v,9.0
2024-02-28 11:42:10.354793,1709116930.3547928,-20.01953125,-19.53125,-32.2265625,-40.0390625,1.0,1.0,-1.0,1.0,6.m4v,9.0
2024-02-28 11:42:10.358699,1709116930.3586988,-20.01953125,-22.4609375,-32.2265625,-32.2265625,1.0,1.0,-1.0,1.0,6.m4v,9.0
2024-02-28 11:42:10.362606,1709116930.362606,-27.83203125,-28.3203125,-32.2265625,-20.99609375,1.0,1.0,-1.0,1.0,6.m4v,9.0
2024-02-28 11:42:10.366512,1709116930.3665118,-31.25,-26.85546875,-25.87890625,-7.8125,1.0,1.0,-1.0,1.0,6.m4v,9.0
2024-02-28 11:42:10.370418,1709116930.3704178,-27.83203125,-20.99609375,-30.76171875,-11.23046875,1.0,1.0,-1.0,1.0,6.m4v,9.0
2024-02-28 11:42:10.374324,1709116930.3743238,-18.06640625,-22.94921875,-40.0390625,-19.04296875,1.0,1.0,-1.0,1.0,6.m4v,9.0
2024-02-28 11:42:10.378230,1709116930.37823,-26.85546875,-26.3671875,-34.1796875,-29.296875,1.0,1.0,-1.0,1.0,6.m4v,9.0
2024-02-28 11:42:10.382136,1709116930.382136,-33.203125,-21.97265625,-26.85546875,-57.6171875,1.0,1.0,-1.0,1.0,6.m4v,9.0
2024-02-28 11:42:10.413385,1709116930.413385,-8.30078125,-25.390625,-26.85546875,-15.625,1.0,1.0,-1.0,1.0,6.m4v,9.0
2024-02-28 11:42:10.413385,1709116930.413385,-8.30078125,-25.390625,-26.85546875,-15.625,1.0,1.0,-1.0,1.0,6.m4v,9.0
2024-02-28 11:42:10.413385,1709116930.413385,-8.30078125,-25.390625,-26.85546875,-15.625,1.0,1.0,-1.0,1.0,6.m4v,9.0
2024-02-28 11:42:10.413385,1709116930.413385,-8.30078125,-25.390625,-26.85546875,-15.625,1.0,1.0,-1.0,1.0,6.m4v,9.0
2024-02-28 11:42:10.417290,1709116930.4172904,-20.5078125,-23.4375,-26.3671875,-18.06640625,1.0,1.0,-1.0,1.0,6.m4v,9.0
2024-02-28 11:42:10.417290,1709116930.4172904,-20.5078125,-23.4375,-26.3671875,-18.06640625,1.0,1.0,-1.0,1.0,6.m4v,9.0
2024-02-28 11:42:10.417290,1709116930.4172904,-20.5078125,-23.4375,-26.3671875,-18.06640625,1.0,1.0,-1.0,1.0,6.m4v,9.0
2024-02-28 11:42:10.417290,1709116930.4172904,-20.5078125,-23.4375,-26.3671875,-18.06640625,1.0,1.0,-1.0,1.0,6.m4v,9.0
2024-02-28 11:42:10.421196,1709116930.4211965,-12.6953125,-15.13671875,-31.25,-31.25,1.0,1.0,-1.0,1.0,6.m4v,9.0
2024-02-28 11:42:10.421196,1709116930.4211965,-12.6953125,-15.13671875,-31.25,-31.25,1.0,1.0,-1.0,1.0,6.m4v,9.0
2024-02-28 11:42:10.421196,1709116930.4211965,-12.6953125,-15.13671875,-31.25,-31.25,1.0,1.0,-1.0,1.0,6.m4v,9.0
2024-02-28 11:42:10.421196,1709116930.4211965,-12.6953125,-15.13671875,-31.25,-31.25,1.0,1.0,-1.0,1.0,6.m4v,9.0
2024-02-28 11:42:10.425102,1709116930.4251025,-25.390625,-13.671875,-31.73828125,-23.92578125,1.0,1.0,-1.0,1.0,6.m4v,9.0
2024-02-28 11:42:10.425102,1709116930.4251025,-25.390625,-13.671875,-31.73828125,-23.92578125,1.0,1.0,-1.0,1.0,6.m4v,9.0
2024-02-28 11:42:10.425102,1709116930.4251025,-25.390625,-13.671875,-31.73828125,-23.92578125,1.0,1.0,-1.0,1.0,6.m4v,9.0
2024-02-28 11:42:10.425102,1709116930.4251025,-25.390625,-13.671875,-31.73828125,-23.92578125,1.0,1.0,-1.0,1.0,6.m4v,9.0
2024-02-28 11:42:10.429008,1709116930.4290085,-24.90234375,-22.94921875,-32.2265625,-25.390625,1.0,1.0,-1.0,1.0,6.m4v,9.0
2024-02-28 11:42:10.429008,1709116930.4290085,-24.90234375,-22.94921875,-32.2265625,-25.390625,1.0,1.0,-1.0,1.0,6.m4v,9.0
2024-02-28 11:42:10.429008,1709116930.4290085,-24.90234375,-22.94921875,-32.2265625,-25.390625,1.0,1.0,-1.0,1.0,6.m4v,9.0
2024-02-28 11:42:10.429008,1709116930.4290085,-24.90234375,-22.94921875,-32.2265625,-25.390625,1.0,1.0,-1.0,1.0,6.m4v,9.0
2024-02-28 11:42:10.432914,1709116930.4329145,-28.3203125,-25.390625,-29.78515625,-31.73828125,1.0,1.0,-1.0,1.0,6.m4v,9.0
2024-02-28 11:42:10.432914,1709116930.4329145,-28.3203125,-25.390625,-29.78515625,-31.73828125,1.0,1.0,-1.0,1.0,6.m4v,9.0
2024-02-28 11:42:10.432914,1709116930.4329145,-28.3203125,-25.390625,-29.78515625,-31.73828125,1.0,1.0,-1.0,1.0,6.m4v,9.0
2024-02-28 11:42:10.432914,1709116930.4329145,-28.3203125,-25.390625,-29.78515625,-31.73828125,1.0,1.0,-1.0,1.0,6.m4v,9.0
2024-02-28 11:42:10.436820,1709116930.4368205,-46.875,-30.76171875,-33.203125,-39.55078125,1.0,1.0,-1.0,1.0,6.m4v,9.0
2024-02-28 11:42:10.436820,1709116930.4368205,-46.875,-30.76171875,-33.203125,-39.55078125,1.0,1.0,-1.0,1.0,6.m4v,9.0
2024-02-28 11:42:10.436820,1709116930.4368205,-46.875,-30.76171875,-33.203125,-39.55078125,1.0,1.0,-1.0,1.0,6.m4v,9.0
2024-02-28 11:42:10.436820,1709116930.4368205,-46.875,-30.76171875,-33.203125,-39.55078125,1.0,1.0,-1.0,1.0,6.m4v,9.0
2024-02-28 11:42:10.440726,1709116930.4407265,-32.71484375,-39.0625,-39.0625,-42.96875,1.0,1.0,-1.0,1.0,6.m4v,9.0
2024-02-28 11:42:10.440726,1709116930.4407265,-32.71484375,-39.0625,-39.0625,-42.96875,1.0,1.0,-1.0,1.0,6.m4v,9.0
2024-02-28 11:42:10.440726,1709116930.4407265,-32.71484375,-39.0625,-39.0625,-42.96875,1.0,1.0,-1.0,1.0,6.m4v,9.0
2024-02-28 11:42:10.440726,1709116930.4407265,-32.71484375,-39.0625,-39.0625,-42.96875,1.0,1.0,-1.0,1.0,6.m4v,9.0
2024-02-28 11:42:10.444632,1709116930.4446323,-9.765625,-32.2265625,-31.73828125,-32.2265625,1.0,1.0,-1.0,1.0,6.m4v,9.0
2024-02-28 11:42:10.444632,1709116930.4446323,-9.765625,-32.2265625,-31.73828125,-32.2265625,1.0,1.0,-1.0,1.0,6.m4v,9.0
2024-02-28 11:42:10.444632,1709116930.4446323,-9.765625,-32.2265625,-31.73828125,-32.2265625,1.0,1.0,-1.0,1.0,6.m4v,9.0
2024-02-28 11:42:10.444632,1709116930.4446323,-9.765625,-32.2265625,-31.73828125,-32.2265625,1.0,1.0,-1.0,1.0,6.m4v,9.0
2024-02-28 11:42:10.448538,1709116930.4485383,-44.921875,-28.3203125,-27.34375,-29.296875,1.0,1.0,-1.0,1.0,6.m4v,9.0
2024-02-28 11:42:10.448538,1709116930.4485383,-44.921875,-28.3203125,-27.34375,-29.296875,1.0,1.0,-1.0,1.0,6.m4v,9.0
2024-02-28 11:42:10.448538,1709116930.4485383,-44.921875,-28.3203125,-27.34375,-29.296875,1.0,1.0,-1.0,1.0,6.m4v,9.0
2024-02-28 11:42:10.448538,1709116930.4485383,-44.921875,-28.3203125,-27.34375,-29.296875,1.0,1.0,-1.0,1.0,6.m4v,9.0
2024-02-28 11:42:10.452444,1709116930.4524443,-59.5703125,-31.25,-25.390625,-16.6015625,1.0,1.0,-1.0,1.0,6.m4v,9.0
2024-02-28 11:42:10.452444,1709116930.4524443,-59.5703125,-31.25,-25.390625,-16.6015625,1.0,1.0,-1.0,1.0,6.m4v,9.0
2024-02-28 11:42:10.452444,1709116930.4524443,-59.5703125,-31.25,-25.390625,-16.6015625,1.0,1.0,-1.0,1.0,6.m4v,9.0
2024-02-28 11:42:10.452444,1709116930.4524443,-59.5703125,-31.25,-25.390625,-16.6015625,1.0,1.0,-1.0,1.0,6.m4v,9.0
2024-02-28 11:42:10.456351,1709116930.456351,-37.109375,-30.2734375,-21.484375,-37.59765625,1.0,1.0,-1.0,1.0,6.m4v,9.0
2024-02-28 11:42:10.456351,1709116930.456351,-37.109375,-30.2734375,-21.484375,-37.59765625,1.0,1.0,-1.0,1.0,6.m4v,9.0
2024-02-28 11:42:10.456351,1709116930.456351,-37.109375,-30.2734375,-21.484375,-37.59765625,1.0,1.0,-1.0,1.0,6.m4v,9.0
2024-02-28 11:42:10.456351,1709116930.456351,-37.109375,-30.2734375,-21.484375,-37.59765625,1.0,1.0,-1.0,1.0,6.m4v,9.0
2024-02-28 11:42:10.460257,1709116930.460257,-38.57421875,-21.97265625,-21.484375,-35.64453125,1.0,1.0,-1.0,1.0,6.m4v,9.0
2024-02-28 11:42:10.460257,1709116930.460257,-38.57421875,-21.97265625,-21.484375,-35.64453125,1.0,1.0,-1.0,1.0,6.m4v,9.0
2024-02-28 11:42:10.460257,1709116930.460257,-38.57421875,-21.97265625,-21.484375,-35.64453125,1.0,1.0,-1.0,1.0,6.m4v,9.0
2024-02-28 11:42:10.460257,1709116930.460257,-38.57421875,-21.97265625,-21.484375,-35.64453125,1.0,1.0,-1.0,1.0,6.m4v,9.0
2024-02-28 11:42:10.464163,1709116930.464163,-35.64453125,-17.578125,-29.296875,-39.55078125,1.0,1.0,-1.0,1.0,6.m4v,9.0
2024-02-28 11:42:10.464163,1709116930.464163,-35.64453125,-17.578125,-29.296875,-39.55078125,1.0,1.0,-1.0,1.0,6.m4v,9.0
2024-02-28 11:42:10.464163,1709116930.464163,-35.64453125,-17.578125,-29.296875,-39.55078125,1.0,1.0,-1.0,1.0,6.m4v,9.0
2024-02-28 11:42:10.464163,1709116930.464163,-35.64453125,-17.578125,-29.296875,-39.55078125,1.0,1.0,-1.0,1.0,6.m4v,9.0
2024-02-28 11:42:10.507129,1709116930.5071294,-41.50390625,-24.4140625,-25.390625,-54.6875,1.0,1.0,-1.0,1.0,6.m4v,9.0
2024-02-28 11:42:10.511035,1709116930.5110352,-45.41015625,-27.34375,-34.66796875,-59.5703125,1.0,1.0,-1.0,1.0,6.m4v,9.0
2024-02-28 11:42:10.514941,1709116930.5149412,-12.20703125,-32.2265625,-24.90234375,-41.9921875,1.0,1.0,-1.0,1.0,6.m4v,9.0
2024-02-28 11:42:10.522753,1709116930.5227532,-68.84765625,-28.3203125,-16.6015625,-24.4140625,1.0,1.0,-1.0,1.0,6.m4v,9.0
2024-02-28 11:42:10.534471,1709116930.534471,-41.015625,-29.78515625,-27.34375,-38.0859375,1.0,1.0,-1.0,1.0,6.m4v,9.0
2024-02-28 11:42:10.538377,1709116930.538377,-42.48046875,-25.87890625,-21.97265625,-40.52734375,1.0,1.0,-1.0,1.0,6.m4v,9.0
2024-02-28 11:42:10.546189,1709116930.546189,-36.1328125,-31.73828125,-20.5078125,-27.83203125,1.0,1.0,-1.0,1.0,6.m4v,9.0
2024-02-28 11:42:10.550096,1709116930.5500956,-43.45703125,-31.73828125,-32.71484375,-41.015625,1.0,1.0,-1.0,1.0,6.m4v,9.0
2024-02-28 11:42:10.557907,1709116930.557907,-47.36328125,-27.34375,-30.2734375,-41.9921875,1.0,1.0,-1.0,1.0,6.m4v,9.0
2024-02-28 11:42:10.561813,1709116930.5618134,-45.41015625,-24.90234375,-22.4609375,-27.83203125,1.0,1.0,-1.0,1.0,6.m4v,9.0
2024-02-28 11:42:10.569625,1709116930.5696254,-22.94921875,-19.53125,-22.4609375,-29.78515625,1.0,1.0,-1.0,1.0,6.m4v,9.0
2024-02-28 11:42:10.573531,1709116930.5735314,-34.1796875,-21.97265625,-26.85546875,-21.484375,1.0,1.0,-1.0,1.0,6.m4v,9.0
2024-02-28 11:42:10.577437,1709116930.5774374,-41.015625,-28.3203125,-26.85546875,-15.13671875,1.0,1.0,-1.0,1.0,6.m4v,9.0
2024-02-28 11:42:10.581343,1709116930.5813432,-50.78125,-30.76171875,-23.4375,-26.3671875,1.0,1.0,-1.0,1.0,6.m4v,9.0
2024-02-28 11:42:10.585249,1709116930.5852492,-36.62109375,-24.4140625,-28.3203125,-40.52734375,1.0,1.0,-1.0,1.0,6.m4v,9.0
2024-02-28 11:42:10.589155,1709116930.5891552,-37.59765625,-31.25,-36.62109375,-60.05859375,1.0,1.0,-1.0,1.0,6.m4v,9.0
2024-02-28 11:42:10.593061,1709116930.5930612,-55.6640625,-36.1328125,-31.25,-48.33984375,1.0,1.0,-1.0,1.0,6.m4v,9.0
2024-02-28 11:42:10.596968,1709116930.5969677,-37.109375,-24.90234375,-35.15625,-32.71484375,1.0,1.0,-1.0,1.0,6.m4v,9.0
2024-02-28 11:42:10.600874,1709116930.6008737,-11.23046875,-20.01953125,-35.64453125,-41.9921875,1.0,1.0,-1.0,1.0,6.m4v,9.0
2024-02-28 11:42:10.604780,1709116930.6047795,-23.4375,-26.3671875,-28.80859375,-28.3203125,1.0,1.0,-1.0,1.0,6.m4v,9.0
2024-02-28 11:42:10.608685,1709116930.6086855,-43.45703125,-29.296875,-25.390625,-18.5546875,1.0,1.0,-1.0,1.0,6.m4v,9.0
2024-02-28 11:42:10.612592,1709116930.6125915,-51.7578125,-32.2265625,-24.90234375,-41.015625,1.0,1.0,-1.0,1.0,6.m4v,9.0
2024-02-28 11:42:10.624310,1709116930.6243095,-47.36328125,-35.64453125,-25.390625,-43.9453125,1.0,1.0,-1.0,1.0,6.m4v,9.0
2024-02-28 11:42:10.636027,1709116930.636027,-45.41015625,-41.015625,-25.87890625,-36.1328125,1.0,1.0,-1.0,1.0,6.m4v,9.0
2024-02-28 11:42:10.647746,1709116930.6477456,-45.8984375,-34.1796875,-32.2265625,-40.52734375,1.0,1.0,-1.0,1.0,6.m4v,9.0
2024-02-28 11:42:10.651652,1709116930.6516516,-56.640625,-33.203125,-33.69140625,-34.1796875,1.0,1.0,-1.0,1.0,6.m4v,9.0
2024-02-28 11:42:10.659464,1709116930.6594636,-34.1796875,-33.203125,-37.109375,-39.55078125,1.0,1.0,-1.0,1.0,6.m4v,9.0
2024-02-28 11:42:10.667275,1709116930.6672754,-52.24609375,-35.15625,-36.1328125,-10.25390625,1.0,1.0,-1.0,1.0,6.m4v,9.0
2024-02-28 11:42:10.671181,1709116930.6711814,-52.24609375,-39.55078125,-31.25,-36.62109375,1.0,1.0,-1.0,1.0,6.m4v,9.0
2024-02-28 11:42:10.675087,1709116930.6750877,-41.50390625,-36.1328125,-42.48046875,-57.12890625,1.0,1.0,-1.0,1.0,6.m4v,9.0
2024-02-28 11:42:10.678993,1709116930.6789937,-36.62109375,-31.25,-54.19921875,-48.33984375,1.0,1.0,-1.0,1.0,6.m4v,9.0
2024-02-28 11:42:10.682899,1709116930.6828997,-41.9921875,-25.87890625,-41.9921875,-46.875,1.0,1.0,-1.0,1.0,6.m4v,9.0
2024-02-28 11:42:10.690712,1709116930.6907125,-22.94921875,-35.64453125,-34.66796875,-43.45703125,1.0,1.0,-1.0,1.0,6.m4v,9.0
2024-02-28 11:42:10.780551,1709116930.780551,-48.828125,-29.296875,-38.57421875,-49.8046875,1.0,1.0,-1.0,1.0,6.m4v,9.0
2024-02-28 11:42:10.788364,1709116930.788364,-45.41015625,-40.52734375,-38.0859375,-40.52734375,1.0,1.0,-1.0,1.0,6.m4v,9.0
2024-02-28 11:42:10.796176,1709116930.7961757,-41.9921875,-31.73828125,-35.64453125,-47.8515625,1.0,1.0,-1.0,1.0,6.m4v,9.0
2024-02-28 11:42:10.803988,1709116930.8039875,-33.203125,-32.2265625,-41.9921875,-26.85546875,1.0,1.0,-1.0,1.0,6.m4v,9.0
2024-02-28 11:42:10.811800,1709116930.8117995,-28.80859375,-35.15625,-47.8515625,-58.10546875,1.0,1.0,-1.0,1.0,6.m4v,9.0
2024-02-28 11:42:10.819612,1709116930.8196115,-25.390625,-42.96875,-33.69140625,-43.45703125,1.0,1.0,-1.0,1.0,6.m4v,9.0
2024-02-28 11:42:10.827424,1709116930.8274236,-33.69140625,-32.2265625,-21.97265625,-24.4140625,1.0,1.0,-1.0,1.0,6.m4v,9.0
2024-02-28 11:42:10.835236,1709116930.8352363,-12.6953125,-34.66796875,-33.203125,-39.55078125,1.0,1.0,-1.0,1.0,6.m4v,9.0
2024-02-28 11:42:10.843048,1709116930.8430483,-35.15625,-25.87890625,-25.87890625,-25.390625,1.0,1.0,-1.0,1.0,6.m4v,9.0
2024-02-28 11:42:10.850860,1709116930.85086,-33.69140625,-25.390625,-22.94921875,-13.671875,1.0,1.0,-1.0,1.0,6.m4v,9.0
2024-02-28 11:42:10.858672,1709116930.858672,-45.8984375,-27.83203125,-40.0390625,-56.15234375,1.0,1.0,-1.0,1.0,6.m4v,9.0
2024-02-28 11:42:10.866484,1709116930.8664842,-47.36328125,-25.87890625,-26.3671875,-41.50390625,1.0,1.0,-1.0,1.0,6.m4v,9.0
2024-02-28 11:42:10.874296,1709116930.874296,-44.921875,-33.203125,-28.80859375,-12.6953125,1.0,1.0,-1.0,1.0,6.m4v,9.0
2024-02-28 11:42:10.882109,1709116930.8821087,-23.92578125,-33.203125,-34.1796875,-65.91796875,1.0,1.0,-1.0,1.0,6.m4v,9.0
2024-02-28 11:42:10.889920,1709116930.8899205,-40.52734375,-22.4609375,-36.62109375,-40.0390625,1.0,1.0,-1.0,1.0,6.m4v,9.0
2024-02-28 11:42:10.897732,1709116930.8977325,-45.8984375,-21.97265625,-40.0390625,-41.015625,1.0,1.0,-1.0,1.0,6.m4v,9.0
2024-02-28 11:42:10.905545,1709116930.9055443,-35.15625,-27.34375,-34.1796875,-44.43359375,1.0,1.0,-1.0,1.0,6.m4v,9.0
2024-02-28 11:42:10.913356,1709116930.9133563,-39.0625,-35.64453125,-35.64453125,-40.0390625,1.0,1.0,-1.0,1.0,6.m4v,9.0
2024-02-28 11:42:10.921168,1709116930.9211683,-55.17578125,-34.1796875,-37.109375,-52.24609375,1.0,1.0,-1.0,1.0,6.m4v,9.0
2024-02-28 11:42:10.925075,1709116930.9250748,-57.12890625,-38.57421875,-27.34375,-49.8046875,1.0,1.0,-1.0,1.0,6.m4v,9.0
2024-02-28 11:42:10.928981,1709116930.9289808,-42.48046875,-32.2265625,-26.3671875,-26.3671875,1.0,1.0,-1.0,1.0,6.m4v,9.0
2024-02-28 11:42:10.971947,1709116930.9719467,-43.9453125,-26.85546875,-33.203125,-31.73828125,1.0,1.0,-1.0,1.0,6.m4v,9.0
2024-02-28 11:42:10.975853,1709116930.9758527,-51.7578125,-30.2734375,-27.83203125,-35.15625,1.0,1.0,-1.0,1.0,6.m4v,9.0
2024-02-28 11:42:10.979759,1709116930.9797587,-41.015625,-31.73828125,-25.87890625,-25.390625,1.0,1.0,-1.0,1.0,6.m4v,9.0
2024-02-28 11:42:10.983665,1709116930.9836648,-37.59765625,-36.1328125,-31.73828125,-58.59375,1.0,1.0,-1.0,1.0,6.m4v,9.0
2024-02-28 11:42:10.987571,1709116930.9875703,-32.2265625,-37.59765625,-39.55078125,-41.50390625,1.0,1.0,-1.0,1.0,6.m4v,9.0
2024-02-28 11:42:10.991477,1709116930.9914763,-18.5546875,-30.76171875,-30.76171875,-2.9296875,1.0,1.0,-1.0,1.0,6.m4v,9.0
2024-02-28 11:42:10.995383,1709116930.9953823,-21.484375,-29.296875,-31.73828125,-41.015625,1.0,1.0,-1.0,1.0,6.m4v,9.0
2024-02-28 11:42:10.999289,1709116930.9992886,-45.41015625,-36.62109375,-38.57421875,-37.59765625,1.0,1.0,-1.0,1.0,6.m4v,9.0
2024-02-28 11:42:11.003195,1709116931.0031946,-45.8984375,-33.69140625,-41.9921875,-44.43359375,1.0,1.0,-1.0,1.0,6.m4v,9.0
2024-02-28 11:42:11.007101,1709116931.0071006,-39.0625,-29.296875,-39.55078125,-59.08203125,1.0,1.0,-1.0,1.0,6.m4v,9.0
2024-02-28 11:42:11.011006,1709116931.0110064,-39.0625,-34.66796875,-35.15625,-46.38671875,1.0,1.0,-1.0,1.0,6.m4v,9.0
2024-02-28 11:42:11.014912,1709116931.0149124,-31.73828125,-40.0390625,-34.66796875,-50.78125,1.0,1.0,-1.0,1.0,6.m4v,9.0
2024-02-28 11:42:11.018820,1709116931.0188198,-43.45703125,-36.62109375,-34.1796875,-53.7109375,1.0,1.0,-1.0,1.0,6.m4v,9.0
2024-02-28 11:42:11.022726,1709116931.0227258,-49.31640625,-32.2265625,-31.25,-41.015625,1.0,1.0,-1.0,1.0,6.m4v,9.0
2024-02-28 11:42:11.026632,1709116931.0266318,-34.66796875,-37.109375,-30.76171875,-21.97265625,1.0,1.0,-1.0,1.0,6.m4v,9.0
2024-02-28 11:42:11.030538,1709116931.0305378,-36.62109375,-40.52734375,-33.203125,-41.015625,1.0,1.0,-1.0,1.0,6.m4v,9.0
2024-02-28 11:42:11.034444,1709116931.0344436,-17.578125,-36.1328125,-36.62109375,-43.45703125,1.0,1.0,-1.0,1.0,6.m4v,9.0
2024-02-28 11:42:11.038350,1709116931.0383496,-8.7890625,-26.85546875,-34.66796875,-26.3671875,1.0,1.0,-1.0,1.0,6.m4v,9.0
2024-02-28 11:42:11.042256,1709116931.0422556,-39.55078125,-25.87890625,-37.59765625,-28.3203125,1.0,1.0,-1.0,1.0,6.m4v,9.0
2024-02-28 11:42:11.046162,1709116931.0461617,-34.1796875,-26.85546875,-35.15625,-23.4375,1.0,1.0,-1.0,1.0,6.m4v,9.0
2024-02-28 11:42:11.050068,1709116931.0500677,-32.71484375,-29.296875,-36.1328125,-50.78125,1.0,1.0,-1.0,1.0,6.m4v,9.0
2024-02-28 11:42:11.053973,1709116931.0539734,-37.59765625,-31.25,-39.55078125,-54.19921875,1.0,1.0,-1.0,1.0,6.m4v,9.0
2024-02-28 11:42:11.057879,1709116931.0578794,-25.87890625,-38.57421875,-29.78515625,-41.015625,1.0,1.0,-1.0,1.0,6.m4v,9.0
2024-02-28 11:42:11.061785,1709116931.0617857,-19.53125,-36.62109375,-25.87890625,-9.27734375,1.0,1.0,-1.0,1.0,6.m4v,9.0
2024-02-28 11:42:11.065693,1709116931.065693,-37.109375,-30.76171875,-32.71484375,-4.39453125,1.0,1.0,-1.0,1.0,6.m4v,9.0
2024-02-28 11:42:11.069599,1709116931.069599,-53.22265625,-33.203125,-39.0625,-51.7578125,1.0,1.0,-1.0,1.0,6.m4v,9.0
2024-02-28 11:42:11.073505,1709116931.0735047,-30.76171875,-29.296875,-41.015625,-56.640625,1.0,1.0,-1.0,1.0,6.m4v,9.0
2024-02-28 11:42:11.077411,1709116931.0774107,-35.15625,-26.3671875,-50.78125,-51.26953125,1.0,1.0,-1.0,1.0,6.m4v,9.0
2024-02-28 11:42:11.081317,1709116931.0813167,-43.45703125,-26.85546875,-53.22265625,-66.89453125,1.0,1.0,-1.0,1.0,6.m4v,9.0
2024-02-28 11:42:11.085223,1709116931.0852227,-28.3203125,-18.5546875,-49.31640625,-82.03125,1.0,1.0,-1.0,1.0,6.m4v,9.0
2024-02-28 11:42:11.089129,1709116931.0891287,-26.85546875,-18.06640625,-51.7578125,-70.3125,1.0,1.0,-1.0,1.0,6.m4v,9.0
2024-02-28 11:42:11.093035,1709116931.0930345,-17.08984375,-21.97265625,-49.8046875,-55.17578125,1.0,1.0,-1.0,1.0,6.m4v,9.0
2024-02-28 11:42:11.096941,1709116931.0969405,-32.71484375,-18.5546875,-46.38671875,-46.875,1.0,1.0,-1.0,1.0,6.m4v,9.0
2024-02-28 11:42:11.100847,1709116931.1008463,-44.43359375,-16.6015625,-50.78125,-58.10546875,1.0,1.0,-1.0,1.0,6.m4v,9.0
2024-02-28 11:42:11.104753,1709116931.1047523,-29.296875,-20.5078125,-49.8046875,-49.31640625,1.0,1.0,-1.0,1.0,6.m4v,9.0
2024-02-28 11:42:11.108659,1709116931.1086586,-40.0390625,-23.92578125,-41.50390625,-46.875,1.0,1.0,-1.0,1.0,6.m4v,9.0
2024-02-28 11:42:11.112566,1709116931.1125655,-41.015625,-24.90234375,-41.015625,-50.78125,1.0,1.0,-1.0,1.0,6.m4v,9.0
2024-02-28 11:42:11.116472,1709116931.1164715,-45.8984375,-25.87890625,-43.45703125,-56.15234375,1.0,1.0,-1.0,1.0,6.m4v,9.0
2024-02-28 11:42:11.120378,1709116931.1203775,-40.52734375,-25.87890625,-49.31640625,-63.4765625,1.0,1.0,-1.0,1.0,6.m4v,9.0
2024-02-28 11:42:11.124284,1709116931.1242836,-17.08984375,-20.99609375,-51.7578125,-64.453125,1.0,1.0,-1.0,1.0,6.m4v,9.0
2024-02-28 11:42:11.128189,1709116931.128189,-7.32421875,-22.4609375,-56.15234375,-63.4765625,1.0,1.0,-1.0,1.0,6.m4v,9.0
2024-02-28 11:42:11.132095,1709116931.132095,-37.109375,-27.83203125,-50.78125,-43.45703125,1.0,1.0,-1.0,1.0,6.m4v,9.0
2024-02-28 11:42:11.136001,1709116931.136001,-67.87109375,-26.3671875,-41.015625,-41.50390625,1.0,1.0,-1.0,1.0,6.m4v,9.0
2024-02-28 11:42:11.139907,1709116931.1399074,-57.6171875,-27.83203125,-39.55078125,-54.6875,1.0,1.0,-1.0,1.0,6.m4v,9.0
2024-02-28 11:42:11.143813,1709116931.1438134,-59.5703125,-30.76171875,-33.69140625,-53.22265625,1.0,1.0,-1.0,1.0,6.m4v,9.0
2024-02-28 11:42:11.147719,1709116931.1477194,-52.24609375,-24.4140625,-34.1796875,-46.38671875,1.0,1.0,-1.0,1.0,6.m4v,9.0
2024-02-28 11:42:11.151625,1709116931.1516252,-30.2734375,-18.06640625,-36.1328125,-44.43359375,1.0,1.0,-1.0,1.0,6.m4v,9.0
2024-02-28 11:42:11.155531,1709116931.1555312,-43.45703125,-18.5546875,-31.25,-20.99609375,1.0,1.0,-1.0,1.0,6.m4v,9.0
2024-02-28 11:42:11.159438,1709116931.159438,-51.7578125,-21.97265625,-28.80859375,-3.41796875,1.0,1.0,-1.0,1.0,6.m4v,9.0
2024-02-28 11:42:11.163344,1709116931.163344,-37.59765625,-23.4375,-32.2265625,-41.015625,1.0,1.0,-1.0,1.0,6.m4v,9.0
2024-02-28 11:42:11.167250,1709116931.1672502,-39.0625,-24.90234375,-39.0625,-57.12890625,1.0,1.0,-1.0,1.0,6.m4v,9.0
2024-02-28 11:42:11.171156,1709116931.171156,-40.52734375,-30.2734375,-43.9453125,-42.48046875,1.0,1.0,-1.0,1.0,6.m4v,9.0
2024-02-28 11:42:11.175062,1709116931.175062,-28.80859375,-30.76171875,-39.55078125,-48.828125,1.0,1.0,-1.0,1.0,6.m4v,9.0
2024-02-28 11:42:11.178968,1709116931.178968,-43.45703125,-27.34375,-41.50390625,-51.7578125,1.0,1.0,-1.0,1.0,6.m4v,9.0
2024-02-28 11:42:11.182874,1709116931.182874,-43.45703125,-20.01953125,-37.59765625,-51.7578125,1.0,1.0,-1.0,1.0,6.m4v,9.0
2024-02-28 11:42:11.186780,1709116931.18678,-28.80859375,-21.97265625,-33.69140625,-43.45703125,1.0,1.0,-1.0,1.0,6.m4v,9.0
2024-02-28 11:42:11.190686,1709116931.190686,-22.4609375,-30.76171875,-37.59765625,-34.66796875,1.0,1.0,-1.0,1.0,6.m4v,9.0
2024-02-28 11:42:11.194592,1709116931.1945918,-20.01953125,-25.87890625,-32.2265625,-32.2265625,1.0,1.0,-1.0,1.0,6.m4v,9.0
2024-02-28 11:42:11.198498,1709116931.1984978,-17.08984375,-32.2265625,-30.76171875,-35.15625,1.0,1.0,-1.0,1.0,6.m4v,9.0
2024-02-28 11:42:11.202404,1709116931.2024038,-30.76171875,-37.109375,-39.55078125,-44.43359375,1.0,1.0,-1.0,1.0,6.m4v,9.0
2024-02-28 11:42:11.206311,1709116931.2063105,-32.71484375,-29.296875,-38.0859375,-22.94921875,1.0,1.0,-1.0,1.0,6.m4v,9.0
2024-02-28 11:42:11.210217,1709116931.2102163,-32.71484375,-28.80859375,-32.2265625,-28.3203125,1.0,1.0,-1.0,1.0,6.m4v,9.0
2024-02-28 11:42:11.214123,1709116931.2141223,-32.2265625,-26.85546875,-32.2265625,-36.1328125,1.0,1.0,-1.0,1.0,6.m4v,9.0
2024-02-28 11:42:11.218029,1709116931.2180283,-36.62109375,-24.4140625,-33.203125,-33.203125,1.0,1.0,-1.0,1.0,6.m4v,9.0
2024-02-28 11:42:11.221934,1709116931.2219343,-47.36328125,-28.80859375,-40.0390625,-49.8046875,1.0,1.0,-1.0,1.0,6.m4v,9.0
2024-02-28 11:42:11.225840,1709116931.2258403,-30.76171875,-25.390625,-35.15625,-49.8046875,1.0,1.0,-1.0,1.0,6.m4v,9.0
2024-02-28 11:42:11.229746,1709116931.2297463,-17.578125,-25.87890625,-29.78515625,-48.828125,1.0,1.0,-1.0,1.0,6.m4v,9.0
2024-02-28 11:42:11.233652,1709116931.2336524,-32.2265625,-26.3671875,-42.48046875,-62.01171875,1.0,1.0,-1.0,1.0,6.m4v,9.0
2024-02-28 11:42:11.237558,1709116931.2375584,-39.0625,-23.92578125,-41.9921875,-58.59375,1.0,1.0,-1.0,1.0,6.m4v,9.0
2024-02-28 11:42:11.241464,1709116931.241464,-28.3203125,-26.3671875,-41.015625,-33.203125,1.0,1.0,-1.0,1.0,6.m4v,9.0
2024-02-28 11:42:11.245370,1709116931.24537,-31.25,-25.87890625,-47.36328125,-3.41796875,1.0,1.0,-1.0,1.0,6.m4v,9.0
2024-02-28 11:42:11.249276,1709116931.2492762,-34.66796875,-32.2265625,-46.38671875,-24.90234375,1.0,1.0,-1.0,1.0,6.m4v,9.0
2024-02-28 11:42:11.253183,1709116931.253183,-46.38671875,-31.25,-45.41015625,-81.0546875,1.0,1.0,-1.0,1.0,6.m4v,9.0
2024-02-28 11:42:11.257089,1709116931.257089,-46.38671875,-28.80859375,-41.015625,-62.01171875,1.0,1.0,-1.0,1.0,6.m4v,9.0
2024-02-28 11:42:11.260995,1709116931.260995,-27.34375,-28.80859375,-40.52734375,-47.8515625,1.0,1.0,-1.0,1.0,6.m4v,9.0
2024-02-28 11:42:11.264901,1709116931.264901,-42.48046875,-30.2734375,-42.96875,-48.33984375,1.0,1.0,-1.0,1.0,6.m4v,9.0
2024-02-28 11:42:11.268807,1709116931.2688067,-44.43359375,-36.1328125,-39.0625,-44.43359375,1.0,1.0,-1.0,1.0,6.m4v,9.0
2024-02-28 11:42:11.272713,1709116931.2727127,-39.55078125,-35.64453125,-33.69140625,-34.66796875,1.0,1.0,-1.0,1.0,6.m4v,9.0
2024-02-28 11:42:11.276619,1709116931.2766187,-37.59765625,-31.25,-36.1328125,-32.2265625,1.0,1.0,-1.0,1.0,6.m4v,9.0
2024-02-28 11:42:11.280525,1709116931.2805247,-28.3203125,-33.203125,-38.57421875,-46.875,1.0,1.0,-1.0,1.0,6.m4v,9.0
2024-02-28 11:42:11.284431,1709116931.2844307,-15.13671875,-24.90234375,-29.78515625,-36.1328125,1.0,1.0,-1.0,1.0,6.m4v,9.0
2024-02-28 11:42:11.288337,1709116931.2883365,-28.80859375,-29.296875,-24.90234375,-31.73828125,1.0,1.0,-1.0,1.0,6.m4v,9.0
2024-02-28 11:42:11.292243,1709116931.2922423,-35.64453125,-37.59765625,-28.3203125,-42.96875,1.0,1.0,-1.0,1.0,6.m4v,9.0
2024-02-28 11:42:11.296149,1709116931.2961483,-21.97265625,-25.390625,-31.73828125,-35.15625,1.0,1.0,-1.0,1.0,6.m4v,9.0
2024-02-28 11:42:11.300055,1709116931.3000553,-36.62109375,-20.5078125,-34.1796875,-12.20703125,1.0,1.0,-1.0,1.0,6.m4v,9.0
2024-02-28 11:42:11.303961,1709116931.3039613,-32.71484375,-21.484375,-32.2265625,11.71875,1.0,1.0,-1.0,1.0,6.m4v,9.0
2024-02-28 11:42:11.307867,1709116931.307867,-12.20703125,-26.3671875,-29.78515625,-9.765625,1.0,1.0,-1.0,1.0,6.m4v,9.0
2024-02-28 11:42:11.311773,1709116931.311773,-8.30078125,-32.2265625,-31.25,-44.43359375,1.0,1.0,-1.0,1.0,6.m4v,9.0
2024-02-28 11:42:11.315679,1709116931.315679,-16.6015625,-29.78515625,-28.80859375,-50.78125,1.0,1.0,-1.0,1.0,6.m4v,9.0
2024-02-28 11:42:11.319585,1709116931.319585,-16.11328125,-21.97265625,-29.296875,-43.9453125,1.0,1.0,-1.0,1.0,6.m4v,9.0
2024-02-28 11:42:11.323491,1709116931.323491,-22.94921875,-24.4140625,-32.2265625,-36.1328125,1.0,1.0,-1.0,1.0,6.m4v,9.0
2024-02-28 11:42:11.327397,1709116931.3273969,-20.99609375,-37.109375,-25.87890625,-26.3671875,1.0,1.0,-1.0,1.0,6.m4v,9.0
2024-02-28 11:42:11.331303,1709116931.331303,0.48828125,-34.66796875,-22.94921875,-8.30078125,1.0,1.0,-1.0,1.0,6.m4v,9.0
2024-02-28 11:42:11.335209,1709116931.335209,2.9296875,-26.85546875,-32.2265625,-34.66796875,1.0,1.0,-1.0,1.0,6.m4v,9.0
2024-02-28 11:42:11.339115,1709116931.339115,-10.25390625,-29.296875,-34.1796875,-52.734375,1.0,1.0,-1.0,1.0,6.m4v,9.0
2024-02-28 11:42:11.343021,1709116931.343021,-3.41796875,-30.76171875,-28.3203125,-29.296875,1.0,1.0,-1.0,1.0,6.m4v,9.0
2024-02-28 11:42:11.346927,1709116931.3469272,-26.3671875,-32.71484375,-27.34375,-23.92578125,1.0,1.0,-1.0,1.0,6.m4v,9.0
2024-02-28 11:42:11.350833,1709116931.3508332,-40.52734375,-33.203125,-31.73828125,-25.87890625,1.0,1.0,-1.0,1.0,6.m4v,9.0
2024-02-28 11:42:11.354739,1709116931.3547392,-22.94921875,-31.73828125,-34.1796875,-51.7578125,1.0,1.0,-1.0,1.0,6.m4v,9.0
2024-02-28 11:42:11.358645,1709116931.358645,-6.34765625,-27.83203125,-26.85546875,-47.8515625,1.0,1.0,-1.0,1.0,6.m4v,9.0
2024-02-28 11:42:11.475827,1709116931.475827,-50.29296875,-36.62109375,-44.43359375,-53.7109375,1.0,1.0,-1.0,1.0,6.m4v,9.0
2024-02-28 11:42:11.479733,1709116931.479733,-42.48046875,-37.109375,-37.109375,-36.62109375,1.0,1.0,-1.0,1.0,6.m4v,9.0
2024-02-28 11:42:11.483639,1709116931.4836388,-27.83203125,-29.296875,-33.69140625,-41.9921875,1.0,1.0,-1.0,1.0,6.m4v,9.0
2024-02-28 11:42:11.487547,1709116931.4875472,-25.87890625,-24.90234375,-38.0859375,-46.875,1.0,1.0,-1.0,1.0,6.m4v,9.0
2024-02-28 11:42:11.491453,1709116931.4914532,-33.69140625,-31.25,-34.66796875,-26.3671875,1.0,1.0,-1.0,1.0,6.m4v,9.0
2024-02-28 11:42:11.495359,1709116931.495359,-45.8984375,-42.96875,-30.2734375,-12.20703125,1.0,1.0,-1.0,1.0,6.m4v,9.0
2024-02-28 11:42:11.499265,1709116931.499265,-26.85546875,-42.96875,-28.3203125,-22.4609375,1.0,1.0,-1.0,1.0,6.m4v,9.0
2024-02-28 11:42:11.503171,1709116931.503171,-35.15625,-35.64453125,-34.66796875,-27.83203125,1.0,1.0,-1.0,1.0,6.m4v,9.0
2024-02-28 11:42:11.507077,1709116931.507077,-33.69140625,-28.80859375,-42.48046875,-41.50390625,1.0,1.0,-1.0,1.0,6.m4v,9.0
2024-02-28 11:42:11.510983,1709116931.510983,-22.94921875,-26.85546875,-41.9921875,-47.36328125,1.0,1.0,-1.0,1.0,6.m4v,9.0
2024-02-28 11:42:11.514889,1709116931.5148888,-30.2734375,-31.73828125,-39.0625,-40.52734375,1.0,1.0,-1.0,1.0,6.m4v,9.0
2024-02-28 11:42:11.518795,1709116931.5187948,-41.50390625,-36.62109375,-36.1328125,-23.92578125,1.0,1.0,-1.0,1.0,6.m4v,9.0
2024-02-28 11:42:11.522701,1709116931.5227008,-42.48046875,-41.50390625,-27.83203125,-0.9765625,1.0,1.0,-1.0,1.0,6.m4v,9.0
2024-02-28 11:42:11.526607,1709116931.5266068,-28.80859375,-38.0859375,-19.53125,-24.4140625,1.0,1.0,-1.0,1.0,6.m4v,9.0
2024-02-28 11:42:11.530513,1709116931.5305128,-20.99609375,-29.296875,-20.99609375,-42.96875,1.0,1.0,-1.0,1.0,6.m4v,9.0
2024-02-28 11:42:11.534420,1709116931.5344198,-20.5078125,-27.83203125,-27.83203125,-45.41015625,1.0,1.0,-1.0,1.0,6.m4v,9.0
2024-02-28 11:42:11.538326,1709116931.5383255,-23.4375,-29.78515625,-28.80859375,-45.41015625,1.0,1.0,-1.0,1.0,6.m4v,9.0
2024-02-28 11:42:11.542232,1709116931.5422316,-30.76171875,-27.83203125,-33.203125,-34.1796875,1.0,1.0,-1.0,1.0,6.m4v,9.0
2024-02-28 11:42:11.546138,1709116931.5461376,-36.62109375,-26.3671875,-31.73828125,-34.66796875,1.0,1.0,-1.0,1.0,6.m4v,9.0
2024-02-28 11:42:11.589104,1709116931.589104,-31.25,-33.203125,-30.76171875,-52.24609375,1.0,1.0,-1.0,1.0,6.m4v,9.0
2024-02-28 11:42:11.589104,1709116931.589104,-31.25,-33.203125,-30.76171875,-52.24609375,1.0,1.0,-1.0,1.0,6.m4v,9.0
2024-02-28 11:42:11.593010,1709116931.59301,-41.9921875,-37.59765625,-30.2734375,-49.8046875,1.0,1.0,-1.0,1.0,6.m4v,9.0
2024-02-28 11:42:11.593010,1709116931.59301,-41.9921875,-37.59765625,-30.2734375,-49.8046875,1.0,1.0,-1.0,1.0,6.m4v,9.0
2024-02-28 11:42:11.596916,1709116931.596916,-44.43359375,-43.45703125,-35.64453125,-47.8515625,1.0,1.0,-1.0,1.0,6.m4v,9.0
2024-02-28 11:42:11.596916,1709116931.596916,-44.43359375,-43.45703125,-35.64453125,-47.8515625,1.0,1.0,-1.0,1.0,6.m4v,9.0
2024-02-28 11:42:11.714097,1709116931.7140975,-35.15625,-33.69140625,-28.80859375,-26.3671875,1.0,1.0,-1.0,1.0,6.m4v,9.0
2024-02-28 11:42:11.729722,1709116931.7297218,-7.8125,-24.4140625,-31.25,-21.484375,1.0,1.0,-1.0,1.0,6.m4v,9.0
2024-02-28 11:42:11.741440,1709116931.7414398,-20.99609375,-29.296875,-21.97265625,-7.8125,1.0,1.0,-1.0,1.0,6.m4v,9.0
2024-02-28 11:42:11.753158,1709116931.7531576,-28.80859375,-31.73828125,-36.62109375,-49.31640625,1.0,1.0,-1.0,1.0,6.m4v,9.0
2024-02-28 11:42:11.764876,1709116931.7648757,-18.5546875,-24.4140625,-35.15625,-31.25,1.0,1.0,-1.0,1.0,6.m4v,9.0
2024-02-28 11:42:11.772688,1709116931.7726877,-29.296875,-32.71484375,-33.69140625,-32.71484375,1.0,1.0,-1.0,1.0,6.m4v,9.0
2024-02-28 11:42:11.780500,1709116931.7804997,-26.3671875,-29.296875,-31.73828125,-26.85546875,1.0,1.0,-1.0,1.0,6.m4v,9.0
2024-02-28 11:42:11.788311,1709116931.7883115,-49.31640625,-30.76171875,-29.78515625,-31.73828125,1.0,1.0,-1.0,1.0,6.m4v,9.0
2024-02-28 11:42:11.796124,1709116931.7961235,-29.296875,-35.15625,-35.64453125,-58.10546875,1.0,1.0,-1.0,1.0,6.m4v,9.0
2024-02-28 11:42:11.803936,1709116931.8039355,-41.015625,-29.296875,-25.87890625,-35.15625,1.0,1.0,-1.0,1.0,6.m4v,9.0
2024-02-28 11:42:11.807841,1709116931.8078413,-19.53125,-22.4609375,-33.203125,-39.55078125,1.0,1.0,-1.0,1.0,6.m4v,9.0
2024-02-28 11:42:11.819561,1709116931.8195603,-45.41015625,-36.62109375,-32.2265625,-20.01953125,1.0,1.0,-1.0,1.0,6.m4v,9.0
2024-02-28 11:42:11.823467,1709116931.8234663,-31.73828125,-28.80859375,-36.1328125,-54.19921875,1.0,1.0,-1.0,1.0,6.m4v,9.0
2024-02-28 11:42:11.831279,1709116931.8312786,-48.828125,-31.73828125,-37.59765625,-42.96875,1.0,1.0,-1.0,1.0,6.m4v,9.0
2024-02-28 11:42:11.839090,1709116931.8390903,-47.36328125,-33.69140625,-31.73828125,-38.57421875,1.0,1.0,-1.0,1.0,6.m4v,9.0
2024-02-28 11:42:11.846902,1709116931.8469024,-43.45703125,-32.71484375,-40.0390625,-43.45703125,1.0,1.0,-1.0,1.0,6.m4v,9.0
2024-02-28 11:42:11.854714,1709116931.8547142,-23.92578125,-34.66796875,-44.921875,-35.64453125,1.0,1.0,-1.0,1.0,6.m4v,9.0
2024-02-28 11:42:11.862527,1709116931.8625274,-36.62109375,-34.1796875,-31.73828125,-33.203125,1.0,1.0,-1.0,1.0,6.m4v,9.0
2024-02-28 11:42:11.870339,1709116931.8703392,-35.64453125,-36.62109375,-41.50390625,-43.45703125,1.0,1.0,-1.0,1.0,6.m4v,9.0
2024-02-28 11:42:11.874245,1709116931.8742452,-37.109375,-42.48046875,-35.64453125,-51.26953125,1.0,1.0,-1.0,1.0,6.m4v,9.0
2024-02-28 11:42:11.885963,1709116931.8859632,-41.9921875,-30.2734375,-33.203125,-46.38671875,1.0,1.0,-1.0,1.0,6.m4v,9.0
2024-02-28 11:42:11.889869,1709116931.889869,-50.29296875,-37.109375,-24.90234375,-36.62109375,1.0,1.0,-1.0,1.0,6.m4v,9.0
2024-02-28 11:42:11.897681,1709116931.897681,-33.69140625,-29.78515625,-46.875,-60.546875,1.0,1.0,-1.0,1.0,6.m4v,9.0
2024-02-28 11:42:11.901587,1709116931.901587,-40.0390625,-34.1796875,-35.64453125,-54.6875,1.0,1.0,-1.0,1.0,6.m4v,9.0
2024-02-28 11:42:11.905493,1709116931.905493,-33.69140625,-41.9921875,-31.25,-34.1796875,1.0,1.0,-1.0,1.0,6.m4v,9.0
2024-02-28 11:42:11.909400,1709116931.9094,-34.1796875,-43.45703125,-40.0390625,-15.13671875,1.0,1.0,-1.0,1.0,6.m4v,9.0
2024-02-28 11:42:11.913306,1709116931.913306,-50.78125,-42.48046875,-33.69140625,-51.26953125,1.0,1.0,-1.0,1.0,6.m4v,9.0
2024-02-28 11:42:11.917212,1709116931.917212,-42.96875,-40.52734375,-29.296875,-66.89453125,1.0,1.0,-1.0,1.0,6.m4v,9.0
2024-02-28 11:42:11.921118,1709116931.9211178,-43.45703125,-32.2265625,-44.921875,-49.8046875,1.0,1.0,-1.0,1.0,6.m4v,9.0
2024-02-28 11:42:11.925024,1709116931.9250238,-41.50390625,-28.3203125,-42.96875,-45.8984375,1.0,1.0,-1.0,1.0,6.m4v,9.0
2024-02-28 11:42:11.928930,1709116931.9289298,-27.34375,-32.71484375,-38.57421875,-48.33984375,1.0,1.0,-1.0,1.0,6.m4v,9.0
2024-02-28 11:42:11.932836,1709116931.9328358,-41.50390625,-41.015625,-33.69140625,-27.83203125,1.0,1.0,-1.0,1.0,6.m4v,9.0
2024-02-28 11:42:11.936742,1709116931.9367418,-56.15234375,-42.48046875,-30.2734375,-48.828125,1.0,1.0,-1.0,1.0,6.m4v,9.0
2024-02-28 11:42:11.940648,1709116931.9406476,-40.0390625,-44.43359375,-38.57421875,-49.8046875,1.0,1.0,-1.0,1.0,6.m4v,9.0
2024-02-28 11:42:11.944554,1709116931.9445536,-32.2265625,-38.57421875,-38.0859375,-11.71875,1.0,1.0,-1.0,1.0,6.m4v,9.0
2024-02-28 11:42:11.948460,1709116931.9484596,-30.76171875,-34.1796875,-42.96875,-41.015625,1.0,1.0,-1.0,1.0,6.m4v,9.0
2024-02-28 11:42:11.952366,1709116931.9523656,-29.296875,-37.109375,-50.78125,-49.8046875,1.0,1.0,-1.0,1.0,6.m4v,9.0
2024-02-28 11:42:11.956272,1709116931.9562724,-50.29296875,-36.1328125,-42.48046875,-56.15234375,1.0,1.0,-1.0,1.0,6.m4v,9.0
2024-02-28 11:42:11.960178,1709116931.9601784,-45.8984375,-31.73828125,-36.62109375,-58.59375,1.0,1.0,-1.0,1.0,6.m4v,9.0
2024-02-28 11:42:11.964084,1709116931.9640844,-32.2265625,-35.15625,-37.109375,-44.921875,1.0,1.0,-1.0,1.0,6.m4v,9.0
2024-02-28 11:42:11.967990,1709116931.9679904,-47.8515625,-42.48046875,-41.015625,-55.17578125,1.0,1.0,-1.0,1.0,6.m4v,9.0
2024-02-28 11:42:11.971896,1709116931.9718962,-38.0859375,-37.109375,-40.0390625,-44.921875,1.0,1.0,-1.0,1.0,6.m4v,9.0
2024-02-28 11:42:11.975802,1709116931.9758022,-31.25,-24.4140625,-31.25,-26.3671875,1.0,1.0,-1.0,1.0,6.m4v,9.0
2024-02-28 11:42:11.979708,1709116931.9797082,-25.390625,-17.578125,-31.25,-26.3671875,1.0,1.0,-1.0,1.0,6.m4v,9.0
2024-02-28 11:42:11.983614,1709116931.9836142,-20.99609375,-22.4609375,-41.50390625,-17.578125,1.0,1.0,-1.0,1.0,6.m4v,9.0
2024-02-28 11:42:11.987520,1709116931.9875202,-36.1328125,-29.78515625,-40.52734375,-31.73828125,1.0,1.0,-1.0,1.0,6.m4v,9.0
2024-02-28 11:42:11.991426,1709116931.991426,-39.55078125,-36.62109375,-34.66796875,-41.015625,1.0,1.0,-1.0,1.0,6.m4v,9.0
2024-02-28 11:42:12.089077,1709116932.0890765,-46.38671875,-24.4140625,-31.73828125,-19.53125,1.0,1.0,-1.0,1.0,6.m4v,9.0
2024-02-28 11:42:12.092983,1709116932.0929823,-48.33984375,-27.34375,-32.2265625,-38.57421875,1.0,1.0,-1.0,1.0,6.m4v,9.0
2024-02-28 11:42:12.096889,1709116932.096889,-41.015625,-22.4609375,-41.50390625,-48.828125,1.0,1.0,-1.0,1.0,6.m4v,9.0
2024-02-28 11:42:12.100795,1709116932.100795,-46.875,-23.4375,-35.64453125,-44.921875,1.0,1.0,-1.0,1.0,6.m4v,9.0
2024-02-28 11:42:12.104701,1709116932.1047008,-49.31640625,-26.85546875,-26.3671875,-48.33984375,1.0,1.0,-1.0,1.0,6.m4v,9.0
2024-02-28 11:42:12.108607,1709116932.1086068,-38.57421875,-25.390625,-24.90234375,-31.25,1.0,1.0,-1.0,1.0,6.m4v,9.0
2024-02-28 11:42:12.112513,1709116932.1125128,-26.3671875,-18.5546875,-30.76171875,-35.15625,1.0,1.0,-1.0,1.0,6.m4v,9.0
2024-02-28 11:42:12.116419,1709116932.1164188,-34.66796875,-16.6015625,-35.15625,-43.45703125,1.0,1.0,-1.0,1.0,6.m4v,9.0
2024-02-28 11:42:12.120325,1709116932.1203249,-52.734375,-28.3203125,-35.64453125,-46.38671875,1.0,1.0,-1.0,1.0,6.m4v,9.0
2024-02-28 11:42:12.124231,1709116932.1242306,-41.015625,-30.2734375,-35.15625,-47.8515625,1.0,1.0,-1.0,1.0,6.m4v,9.0
2024-02-28 11:42:12.128137,1709116932.1281366,-35.64453125,-26.3671875,-33.203125,-39.55078125,1.0,1.0,-1.0,1.0,6.m4v,9.0
2024-02-28 11:42:12.132043,1709116932.1320426,-50.29296875,-31.73828125,-38.57421875,-28.3203125,1.0,1.0,-1.0,1.0,6.m4v,9.0
2024-02-28 11:42:12.135949,1709116932.135949,-45.41015625,-34.66796875,-41.015625,-30.2734375,1.0,1.0,-1.0,1.0,6.m4v,9.0
2024-02-28 11:42:12.139855,1709116932.139855,-30.2734375,-26.85546875,-32.71484375,-21.97265625,1.0,1.0,-1.0,1.0,6.m4v,9.0
2024-02-28 11:42:12.194540,1709116932.1945398,-11.71875,-23.4375,-36.62109375,-26.3671875,1.0,1.0,-1.0,1.0,6.m4v,9.0
2024-02-28 11:42:12.198446,1709116932.1984458,-16.6015625,-27.83203125,-40.0390625,-41.9921875,1.0,1.0,-1.0,1.0,6.m4v,9.0
2024-02-28 11:42:12.202352,1709116932.2023518,-23.92578125,-26.3671875,-34.1796875,-22.94921875,1.0,1.0,-1.0,1.0,6.m4v,9.0
2024-02-28 11:42:12.206258,1709116932.2062576,-33.69140625,-21.97265625,-24.90234375,-18.5546875,1.0,1.0,-1.0,1.0,6.m4v,9.0
2024-02-28 11:42:12.210164,1709116932.2101636,-38.0859375,-25.390625,-28.3203125,-41.9921875,1.0,1.0,-1.0,1.0,6.m4v,9.0
2024-02-28 11:42:12.214070,1709116932.2140696,-49.31640625,-32.71484375,-41.9921875,-43.9453125,1.0,1.0,-1.0,1.0,6.m4v,9.0
2024-02-28 11:42:12.217976,1709116932.2179756,-42.48046875,-25.87890625,-46.875,-41.015625,1.0,1.0,-1.0,1.0,6.m4v,9.0
2024-02-28 11:42:12.221882,1709116932.2218816,-35.15625,-21.97265625,-36.62109375,-36.62109375,1.0,1.0,-1.0,1.0,6.m4v,9.0
2024-02-28 11:42:12.225787,1709116932.2257874,-47.8515625,-30.76171875,-34.66796875,-33.69140625,1.0,1.0,-1.0,1.0,6.m4v,9.0
2024-02-28 11:42:12.229693,1709116932.2296934,-52.24609375,-34.66796875,-36.62109375,-36.62109375,1.0,1.0,-1.0,1.0,6.m4v,9.0
2024-02-28 11:42:12.233599,1709116932.2335994,-33.69140625,-30.2734375,-33.69140625,-47.8515625,1.0,1.0,-1.0,1.0,6.m4v,9.0
2024-02-28 11:42:12.237507,1709116932.2375066,-26.3671875,-25.87890625,-36.1328125,-43.45703125,1.0,1.0,-1.0,1.0,6.m4v,9.0
2024-02-28 11:42:12.241413,1709116932.2414126,-33.203125,-30.2734375,-35.15625,-31.25,1.0,1.0,-1.0,1.0,6.m4v,9.0
2024-02-28 11:42:12.245319,1709116932.245319,-49.8046875,-27.83203125,-40.52734375,-47.36328125,1.0,1.0,-1.0,1.0,6.m4v,9.0
2024-02-28 11:42:12.249225,1709116932.249225,-53.7109375,-26.85546875,-44.43359375,-51.26953125,1.0,1.0,-1.0,1.0,6.m4v,9.0
2024-02-28 11:42:12.253130,1709116932.2531304,-47.36328125,-31.73828125,-38.0859375,-40.52734375,1.0,1.0,-1.0,1.0,6.m4v,9.0
2024-02-28 11:42:12.257036,1709116932.2570364,-63.4765625,-28.3203125,-38.57421875,-52.734375,1.0,1.0,-1.0,1.0,6.m4v,9.0
2024-02-28 11:42:12.260942,1709116932.2609425,-58.59375,-25.87890625,-36.1328125,-49.31640625,1.0,1.0,-1.0,1.0,6.m4v,9.0
2024-02-28 11:42:12.264848,1709116932.2648485,-50.29296875,-33.69140625,-35.15625,-41.015625,1.0,1.0,-1.0,1.0,6.m4v,9.0
2024-02-28 11:42:12.268754,1709116932.2687545,-58.10546875,-39.55078125,-38.0859375,-37.59765625,1.0,1.0,-1.0,1.0,6.m4v,9.0
2024-02-28 11:42:12.272660,1709116932.2726605,-40.52734375,-34.1796875,-37.59765625,-22.4609375,1.0,1.0,-1.0,1.0,6.m4v,9.0
2024-02-28 11:42:12.276566,1709116932.2765665,-37.59765625,-33.203125,-41.9921875,-48.828125,1.0,1.0,-1.0,1.0,6.m4v,9.0
2024-02-28 11:42:12.280472,1709116932.2804725,-50.78125,-36.1328125,-41.9921875,-61.5234375,1.0,1.0,-1.0,1.0,6.m4v,9.0
2024-02-28 11:42:12.284379,1709116932.2843792,-56.640625,-33.69140625,-34.1796875,-44.921875,1.0,1.0,-1.0,1.0,6.m4v,9.0
2024-02-28 11:42:12.288285,1709116932.2882853,-51.26953125,-33.203125,-36.62109375,-36.62109375,1.0,1.0,-1.0,1.0,6.m4v,9.0
2024-02-28 11:42:12.292191,1709116932.2921913,-40.0390625,-35.64453125,-39.0625,-40.0390625,1.0,1.0,-1.0,1.0,6.m4v,9.0
2024-02-28 11:42:12.296097,1709116932.2960973,-50.78125,-38.57421875,-35.64453125,-47.8515625,1.0,1.0,-1.0,1.0,6.m4v,9.0
2024-02-28 11:42:12.300003,1709116932.3000033,-60.05859375,-40.52734375,-39.55078125,-40.0390625,1.0,1.0,-1.0,1.0,6.m4v,9.0
2024-02-28 11:42:12.303909,1709116932.303909,-42.48046875,-32.71484375,-37.59765625,-30.2734375,1.0,1.0,-1.0,1.0,6.m4v,9.0
2024-02-28 11:42:12.307815,1709116932.307815,-41.50390625,-33.203125,-26.85546875,-26.85546875,1.0,1.0,-1.0,1.0,6.m4v,9.0
2024-02-28 11:42:12.311721,1709116932.311721,-40.52734375,-41.50390625,-30.76171875,-36.62109375,1.0,1.0,-1.0,1.0,6.m4v,9.0
2024-02-28 11:42:12.315627,1709116932.315627,-45.8984375,-39.55078125,-35.15625,-43.45703125,1.0,1.0,-1.0,1.0,6.m4v,9.0
2024-02-28 11:42:12.319533,1709116932.319533,-41.015625,-36.62109375,-29.296875,-26.85546875,1.0,1.0,-1.0,1.0,6.m4v,9.0
2024-02-28 11:42:12.323439,1709116932.323439,-34.1796875,-38.0859375,-27.34375,-21.484375,1.0,1.0,-1.0,1.0,6.m4v,9.0
2024-02-28 11:42:12.327345,1709116932.327345,-36.62109375,-39.0625,-31.73828125,-35.64453125,1.0,1.0,-1.0,1.0,6.m4v,9.0
2024-02-28 11:42:12.331252,1709116932.331252,-35.64453125,-31.73828125,-37.59765625,-36.1328125,1.0,1.0,-1.0,1.0,6.m4v,9.0
2024-02-28 11:42:12.335158,1709116932.335158,-29.296875,-29.78515625,-35.15625,-29.296875,1.0,1.0,-1.0,1.0,6.m4v,9.0
2024-02-28 11:42:12.339064,1709116932.339064,-39.55078125,-31.73828125,-32.71484375,-21.484375,1.0,1.0,-1.0,1.0,6.m4v,9.0
2024-02-28 11:42:12.342970,1709116932.3429697,-54.6875,-32.71484375,-34.66796875,-10.25390625,1.0,1.0,-1.0,1.0,6.m4v,9.0
2024-02-28 11:42:12.346876,1709116932.3468757,-48.33984375,-39.55078125,-34.66796875,-35.15625,1.0,1.0,-1.0,1.0,6.m4v,9.0
2024-02-28 11:42:12.350782,1709116932.3507817,-40.52734375,-36.1328125,-34.66796875,-56.15234375,1.0,1.0,-1.0,1.0,6.m4v,9.0
2024-02-28 11:42:12.354688,1709116932.3546877,-35.15625,-36.1328125,-35.64453125,-54.19921875,1.0,1.0,-1.0,1.0,6.m4v,9.0
2024-02-28 11:42:12.358594,1709116932.3585937,-37.109375,-37.59765625,-43.45703125,-54.19921875,1.0,1.0,-1.0,1.0,6.m4v,9.0
2024-02-28 11:42:12.362499,1709116932.3624997,-33.69140625,-29.78515625,-41.015625,-36.62109375,1.0,1.0,-1.0,1.0,6.m4v,9.0
2024-02-28 11:42:12.366405,1709116932.3664055,-26.85546875,-21.484375,-30.76171875,-20.99609375,1.0,1.0,-1.0,1.0,6.m4v,9.0
2024-02-28 11:42:12.370311,1709116932.3703115,-41.50390625,-25.390625,-33.69140625,-44.921875,1.0,1.0,-1.0,1.0,6.m4v,9.0
2024-02-28 11:42:12.374218,1709116932.3742175,-67.3828125,-31.25,-41.015625,-69.82421875,1.0,1.0,-1.0,1.0,6.m4v,9.0
2024-02-28 11:42:12.378124,1709116932.3781242,-63.96484375,-28.80859375,-40.0390625,-47.8515625,1.0,1.0,-1.0,1.0,6.m4v,9.0
2024-02-28 11:42:12.382030,1709116932.38203,-56.15234375,-31.25,-37.109375,-15.13671875,1.0,1.0,-1.0,1.0,6.m4v,9.0
2024-02-28 11:42:12.385936,1709116932.385936,-61.03515625,-26.85546875,-40.52734375,-36.1328125,1.0,1.0,-1.0,1.0,6.m4v,9.0
2024-02-28 11:42:12.389842,1709116932.389842,-71.77734375,-29.296875,-48.33984375,-78.61328125,1.0,1.0,-1.0,1.0,6.m4v,9.0
2024-02-28 11:42:12.393748,1709116932.393748,-73.73046875,-27.34375,-49.31640625,-97.16796875,1.0,1.0,-1.0,1.0,6.m4v,9.0
2024-02-28 11:42:12.397654,1709116932.397654,-80.078125,-18.5546875,-45.8984375,-100.09765625,1.0,1.0,-1.0,1.0,6.m4v,9.0
2024-02-28 11:42:12.401560,1709116932.4015598,-107.421875,-28.3203125,-47.8515625,-99.12109375,1.0,1.0,-1.0,1.0,6.m4v,9.0
2024-02-28 11:42:12.405466,1709116932.4054658,-114.2578125,-40.52734375,-58.59375,-122.55859375,1.0,1.0,-1.0,1.0,6.m4v,9.0
2024-02-28 11:42:12.413278,1709116932.413278,-104.00390625,-24.4140625,-37.109375,-96.6796875,1.0,1.0,-1.0,1.0,6.m4v,9.0
2024-02-28 11:42:12.421090,1709116932.4210896,-137.6953125,-28.3203125,-53.7109375,-145.5078125,1.0,1.0,-1.0,1.0,6.m4v,9.0
2024-02-28 11:42:12.428902,1709116932.428902,-142.08984375,-27.34375,-57.6171875,-152.34375,1.0,1.0,-1.0,1.0,6.m4v,9.0
2024-02-28 11:42:12.436714,1709116932.4367142,-163.57421875,-21.97265625,-56.640625,-165.0390625,1.0,1.0,-1.0,1.0,6.m4v,9.0
2024-02-28 11:42:12.444526,1709116932.4445262,-158.203125,-10.25390625,-60.546875,-170.8984375,1.0,1.0,-1.0,1.0,6.m4v,9.0
2024-02-28 11:42:12.452338,1709116932.452338,-170.41015625,-19.04296875,-59.5703125,-174.31640625,1.0,1.0,-1.0,1.0,6.m4v,9.0
2024-02-28 11:42:12.460150,1709116932.46015,-170.41015625,-18.5546875,-53.7109375,-160.15625,1.0,1.0,-1.0,1.0,6.m4v,9.0
2024-02-28 11:42:12.467962,1709116932.4679618,-182.6171875,-28.3203125,-62.5,-188.96484375,1.0,1.0,-1.0,1.0,6.m4v,9.0
2024-02-28 11:42:12.475774,1709116932.4757743,-160.64453125,-28.3203125,-61.03515625,-159.1796875,1.0,1.0,-1.0,1.0,6.m4v,9.0
2024-02-28 11:42:12.483586,1709116932.483586,-161.62109375,-8.30078125,-53.7109375,-157.71484375,1.0,1.0,-1.0,1.0,6.m4v,9.0
2024-02-28 11:42:12.491398,1709116932.491398,-144.04296875,-16.6015625,-53.22265625,-161.1328125,1.0,1.0,-1.0,1.0,6.m4v,9.0
2024-02-28 11:42:12.499210,1709116932.49921,-123.046875,-31.25,-48.828125,-140.13671875,1.0,1.0,-1.0,1.0,6.m4v,9.0
2024-02-28 11:42:12.507022,1709116932.507022,-130.37109375,-16.11328125,-38.57421875,-125.48828125,1.0,1.0,-1.0,1.0,6.m4v,9.0
2024-02-28 11:42:12.510928,1709116932.510928,-117.67578125,-3.41796875,-43.9453125,-119.62890625,1.0,1.0,-1.0,1.0,6.m4v,9.0
2024-02-28 11:42:12.514834,1709116932.514834,-98.14453125,2.9296875,-49.8046875,-119.62890625,1.0,1.0,-1.0,1.0,6.m4v,9.0
2024-02-28 11:42:12.518741,1709116932.5187414,-103.515625,-0.9765625,-47.36328125,-107.91015625,1.0,1.0,-1.0,1.0,6.m4v,9.0
2024-02-28 11:42:12.522647,1709116932.5226471,-102.5390625,-17.08984375,-43.45703125,-94.7265625,1.0,1.0,-1.0,1.0,6.m4v,9.0
2024-02-28 11:42:12.526553,1709116932.5265532,-81.0546875,-29.296875,-30.2734375,-71.77734375,1.0,1.0,-1.0,1.0,6.m4v,9.0
2024-02-28 11:42:12.534365,1709116932.5343652,-61.5234375,-22.4609375,-32.71484375,-52.734375,1.0,1.0,-1.0,1.0,6.m4v,9.0
2024-02-28 11:42:13.006998,1709116933.0069983,-32.2265625,-21.97265625,-40.52734375,-48.33984375,1.0,1.0,-1.0,1.0,6.m4v,9.0
2024-02-28 11:42:13.010904,1709116933.010904,-30.2734375,-22.4609375,-41.50390625,-47.8515625,1.0,1.0,-1.0,1.0,6.m4v,9.0
2024-02-28 11:42:13.014810,1709116933.01481,-27.34375,-35.15625,-39.55078125,-32.71484375,1.0,1.0,-1.0,1.0,6.m4v,9.0
2024-02-28 11:42:13.018716,1709116933.018716,-40.0390625,-40.0390625,-32.71484375,-32.2265625,1.0,1.0,-1.0,1.0,6.m4v,9.0
2024-02-28 11:42:13.022622,1709116933.022622,-36.62109375,-32.2265625,-32.71484375,-48.33984375,1.0,1.0,-1.0,1.0,6.m4v,9.0
2024-02-28 11:42:13.026528,1709116933.026528,-35.64453125,-32.71484375,-30.2734375,-38.0859375,1.0,1.0,-1.0,1.0,6.m4v,9.0
2024-02-28 11:42:13.030434,1709116933.030434,-37.109375,-35.15625,-29.296875,-29.78515625,1.0,1.0,-1.0,1.0,6.m4v,9.0
2024-02-28 11:42:13.034341,1709116933.0343409,-38.57421875,-32.2265625,-33.69140625,-37.59765625,1.0,1.0,-1.0,1.0,6.m4v,9.0
2024-02-28 11:42:13.038247,1709116933.0382469,-40.0390625,-35.15625,-30.2734375,-33.69140625,1.0,1.0,-1.0,1.0,6.m4v,9.0
2024-02-28 11:42:13.042153,1709116933.042153,-49.8046875,-32.2265625,-32.2265625,-45.41015625,1.0,1.0,-1.0,1.0,6.m4v,9.0
2024-02-28 11:42:13.046059,1709116933.046059,-50.78125,-29.78515625,-39.0625,-49.8046875,1.0,1.0,-1.0,1.0,6.m4v,9.0
2024-02-28 11:42:13.049965,1709116933.049965,-51.26953125,-39.55078125,-38.0859375,-39.55078125,1.0,1.0,-1.0,1.0,6.m4v,9.0
2024-02-28 11:42:13.065589,1709116933.0655887,-37.109375,-31.25,-34.1796875,-41.015625,1.0,1.0,-1.0,1.0,6.m4v,9.0
2024-02-28 11:42:13.065589,1709116933.0655887,-37.109375,-31.25,-34.1796875,-41.015625,1.0,1.0,-1.0,1.0,6.m4v,9.0
2024-02-28 11:42:13.069495,1709116933.0694947,-41.015625,-28.3203125,-25.390625,-32.2265625,1.0,1.0,-1.0,1.0,6.m4v,9.0
2024-02-28 11:42:13.069495,1709116933.0694947,-41.015625,-28.3203125,-25.390625,-32.2265625,1.0,1.0,-1.0,1.0,6.m4v,9.0
2024-02-28 11:42:13.073401,1709116933.0734007,-50.29296875,-25.390625,-28.80859375,-52.734375,1.0,1.0,-1.0,1.0,6.m4v,9.0
2024-02-28 11:42:13.073401,1709116933.0734007,-50.29296875,-25.390625,-28.80859375,-52.734375,1.0,1.0,-1.0,1.0,6.m4v,9.0
2024-02-28 11:42:13.077307,1709116933.0773065,-43.45703125,-30.76171875,-27.83203125,-35.64453125,1.0,1.0,-1.0,1.0,6.m4v,9.0
2024-02-28 11:42:13.077307,1709116933.0773065,-43.45703125,-30.76171875,-27.83203125,-35.64453125,1.0,1.0,-1.0,1.0,6.m4v,9.0
2024-02-28 11:42:13.081213,1709116933.0812137,-45.41015625,-39.55078125,-24.4140625,-17.578125,1.0,1.0,-1.0,1.0,6.m4v,9.0
2024-02-28 11:42:13.081213,1709116933.0812137,-45.41015625,-39.55078125,-24.4140625,-17.578125,1.0,1.0,-1.0,1.0,6.m4v,9.0
2024-02-28 11:42:13.085119,1709116933.0851192,-44.921875,-42.48046875,-35.15625,-25.390625,1.0,1.0,-1.0,1.0,6.m4v,9.0
2024-02-28 11:42:13.085119,1709116933.0851192,-44.921875,-42.48046875,-35.15625,-25.390625,1.0,1.0,-1.0,1.0,6.m4v,9.0
2024-02-28 11:42:13.089025,1709116933.0890253,-42.48046875,-39.55078125,-32.2265625,-37.59765625,1.0,1.0,-1.0,1.0,6.m4v,9.0
2024-02-28 11:42:13.089025,1709116933.0890253,-42.48046875,-39.55078125,-32.2265625,-37.59765625,1.0,1.0,-1.0,1.0,6.m4v,9.0
2024-02-28 11:42:13.092931,1709116933.0929313,-30.2734375,-26.85546875,-27.34375,-43.45703125,1.0,1.0,-1.0,1.0,6.m4v,9.0
2024-02-28 11:42:13.092931,1709116933.0929313,-30.2734375,-26.85546875,-27.34375,-43.45703125,1.0,1.0,-1.0,1.0,6.m4v,9.0
2024-02-28 11:42:13.096837,1709116933.0968373,-31.25,-22.94921875,-34.66796875,-41.015625,1.0,1.0,-1.0,1.0,6.m4v,9.0
2024-02-28 11:42:13.096837,1709116933.0968373,-31.25,-22.94921875,-34.66796875,-41.015625,1.0,1.0,-1.0,1.0,6.m4v,9.0
2024-02-28 11:42:13.100743,1709116933.1007433,-28.80859375,-21.484375,-36.1328125,-56.15234375,1.0,1.0,-1.0,1.0,6.m4v,9.0
2024-02-28 11:42:13.100743,1709116933.1007433,-28.80859375,-21.484375,-36.1328125,-56.15234375,1.0,1.0,-1.0,1.0,6.m4v,9.0
2024-02-28 11:42:13.104649,1709116933.1046493,-27.34375,-20.01953125,-34.1796875,-53.7109375,1.0,1.0,-1.0,1.0,6.m4v,9.0
2024-02-28 11:42:13.104649,1709116933.1046493,-27.34375,-20.01953125,-34.1796875,-53.7109375,1.0,1.0,-1.0,1.0,6.m4v,9.0
2024-02-28 11:42:13.108555,1709116933.108555,-35.64453125,-27.34375,-35.15625,-45.41015625,1.0,1.0,-1.0,1.0,6.m4v,9.0
2024-02-28 11:42:13.108555,1709116933.108555,-35.64453125,-27.34375,-35.15625,-45.41015625,1.0,1.0,-1.0,1.0,6.m4v,9.0
2024-02-28 11:42:13.112461,1709116933.112461,-44.921875,-34.1796875,-34.66796875,-46.38671875,1.0,1.0,-1.0,1.0,6.m4v,9.0
2024-02-28 11:42:13.112461,1709116933.112461,-44.921875,-34.1796875,-34.66796875,-46.38671875,1.0,1.0,-1.0,1.0,6.m4v,9.0
2024-02-28 11:42:13.116367,1709116933.116367,-41.9921875,-36.1328125,-28.3203125,-39.0625,1.0,1.0,-1.0,1.0,6.m4v,9.0
2024-02-28 11:42:13.116367,1709116933.116367,-41.9921875,-36.1328125,-28.3203125,-39.0625,1.0,1.0,-1.0,1.0,6.m4v,9.0
2024-02-28 11:42:13.120273,1709116933.120273,-41.015625,-36.1328125,-31.25,-35.64453125,1.0,1.0,-1.0,1.0,6.m4v,9.0
2024-02-28 11:42:13.120273,1709116933.120273,-41.015625,-36.1328125,-31.25,-35.64453125,1.0,1.0,-1.0,1.0,6.m4v,9.0
2024-02-28 11:42:13.124179,1709116933.1241791,-34.66796875,-30.2734375,-34.66796875,-28.80859375,1.0,1.0,-1.0,1.0,6.m4v,9.0
2024-02-28 11:42:13.124179,1709116933.1241791,-34.66796875,-30.2734375,-34.66796875,-28.80859375,1.0,1.0,-1.0,1.0,6.m4v,9.0
2024-02-28 11:42:13.128086,1709116933.1280863,-39.0625,-28.80859375,-37.59765625,-27.34375,1.0,1.0,-1.0,1.0,6.m4v,9.0
2024-02-28 11:42:13.128086,1709116933.1280863,-39.0625,-28.80859375,-37.59765625,-27.34375,1.0,1.0,-1.0,1.0,6.m4v,9.0
2024-02-28 11:42:13.131992,1709116933.1319923,-37.59765625,-31.73828125,-39.0625,-37.109375,1.0,1.0,-1.0,1.0,6.m4v,9.0
