Timestamp,Timestamp_UNIX,TP9,AF7,AF8,TP10,Valence,Arousal,Dominace,Viewed,Video,Participant
2024-02-28 13:52:38.002915,1709124758.002915,69.3359375,-33.203125,-35.15625,32.71484375,1.0,0.0,0.0,0.0,7.m4v,10.0
2024-02-28 13:52:38.006827,1709124758.006827,53.7109375,-34.1796875,-34.1796875,33.69140625,1.0,0.0,0.0,0.0,7.m4v,10.0
2024-02-28 13:52:38.010732,1709124758.0107324,48.828125,-27.83203125,-35.64453125,28.3203125,1.0,0.0,0.0,0.0,7.m4v,10.0
2024-02-28 13:52:38.014638,1709124758.0146377,46.38671875,-27.83203125,-36.62109375,27.34375,1.0,0.0,0.0,0.0,7.m4v,10.0
2024-02-28 13:52:38.018543,1709124758.018543,47.8515625,-29.296875,-33.69140625,37.59765625,1.0,0.0,0.0,0.0,7.m4v,10.0
2024-02-28 13:52:38.022448,1709124758.0224483,41.9921875,-31.73828125,-30.76171875,38.57421875,1.0,0.0,0.0,0.0,7.m4v,10.0
2024-02-28 13:52:38.026354,1709124758.0263536,33.69140625,-28.3203125,-29.296875,39.0625,1.0,0.0,0.0,0.0,7.m4v,10.0
2024-02-28 13:52:38.030259,1709124758.030259,35.64453125,-29.296875,-32.71484375,31.73828125,1.0,0.0,0.0,0.0,7.m4v,10.0
2024-02-28 13:52:38.034164,1709124758.0341642,30.2734375,-35.15625,-38.57421875,15.625,1.0,0.0,0.0,0.0,7.m4v,10.0
2024-02-28 13:52:38.038070,1709124758.0380695,26.85546875,-30.2734375,-37.59765625,5.37109375,1.0,0.0,0.0,0.0,7.m4v,10.0
2024-02-28 13:52:38.041975,1709124758.041975,23.4375,-29.296875,-35.15625,10.7421875,1.0,0.0,0.0,0.0,7.m4v,10.0
2024-02-28 13:52:38.045880,1709124758.0458803,16.6015625,-30.2734375,-37.109375,19.53125,1.0,0.0,0.0,0.0,7.m4v,10.0
2024-02-28 13:52:38.049786,1709124758.0497856,24.90234375,-28.80859375,-39.55078125,16.11328125,1.0,0.0,0.0,0.0,7.m4v,10.0
2024-02-28 13:52:38.053697,1709124758.053697,28.80859375,-30.76171875,-34.66796875,10.25390625,1.0,0.0,0.0,0.0,7.m4v,10.0
2024-02-28 13:52:38.057602,1709124758.0576024,27.83203125,-30.2734375,-35.64453125,8.30078125,1.0,0.0,0.0,0.0,7.m4v,10.0
2024-02-28 13:52:38.061508,1709124758.0615077,33.203125,-31.73828125,-33.69140625,19.53125,1.0,0.0,0.0,0.0,7.m4v,10.0
2024-02-28 13:52:38.065413,1709124758.065413,36.62109375,-32.2265625,-30.76171875,11.71875,1.0,0.0,0.0,0.0,7.m4v,10.0
2024-02-28 13:52:38.069319,1709124758.0693183,38.57421875,-31.25,-33.69140625,-1.953125,1.0,0.0,0.0,0.0,7.m4v,10.0
2024-02-28 13:52:38.073224,1709124758.0732238,25.390625,-32.71484375,-37.109375,-2.9296875,1.0,0.0,0.0,0.0,7.m4v,10.0
2024-02-28 13:52:38.077129,1709124758.0771291,7.8125,-29.78515625,-41.015625,-11.23046875,1.0,0.0,0.0,0.0,7.m4v,10.0
2024-02-28 13:52:38.081034,1709124758.0810344,6.8359375,-30.76171875,-36.1328125,-17.08984375,1.0,0.0,0.0,0.0,7.m4v,10.0
2024-02-28 13:52:38.084940,1709124758.0849397,1.46484375,-41.015625,-36.1328125,-14.16015625,1.0,0.0,0.0,0.0,7.m4v,10.0
2024-02-28 13:52:38.088845,1709124758.088845,-8.30078125,-35.64453125,-40.52734375,-12.20703125,1.0,0.0,0.0,0.0,7.m4v,10.0
2024-02-28 13:52:38.092750,1709124758.0927503,-3.41796875,-27.34375,-37.109375,-11.23046875,1.0,0.0,0.0,0.0,7.m4v,10.0
2024-02-28 13:52:38.096656,1709124758.0966556,0.0,-31.25,-38.57421875,-17.08984375,1.0,0.0,0.0,0.0,7.m4v,10.0
2024-02-28 13:52:38.100569,1709124758.1005688,6.8359375,-29.78515625,-37.109375,-16.6015625,1.0,0.0,0.0,0.0,7.m4v,10.0
2024-02-28 13:52:38.104474,1709124758.1044743,19.53125,-32.71484375,-38.0859375,-7.8125,1.0,0.0,0.0,0.0,7.m4v,10.0
2024-02-28 13:52:38.108380,1709124758.1083796,24.4140625,-38.0859375,-41.50390625,-6.34765625,1.0,0.0,0.0,0.0,7.m4v,10.0
2024-02-28 13:52:38.112285,1709124758.112285,25.87890625,-37.109375,-39.55078125,-7.32421875,1.0,0.0,0.0,0.0,7.m4v,10.0
2024-02-28 13:52:38.116190,1709124758.1161902,26.85546875,-31.25,-34.66796875,-8.30078125,1.0,0.0,0.0,0.0,7.m4v,10.0
2024-02-28 13:52:38.120095,1709124758.1200955,16.6015625,-28.3203125,-27.83203125,-14.6484375,1.0,0.0,0.0,0.0,7.m4v,10.0
2024-02-28 13:52:38.124001,1709124758.1240008,6.34765625,-30.2734375,-27.34375,-10.25390625,1.0,0.0,0.0,0.0,7.m4v,10.0
2024-02-28 13:52:38.127906,1709124758.127906,11.71875,-29.78515625,-25.390625,0.0,1.0,0.0,0.0,0.0,7.m4v,10.0
2024-02-28 13:52:38.131811,1709124758.1318114,28.3203125,-25.390625,-21.97265625,-0.9765625,1.0,0.0,0.0,0.0,7.m4v,10.0
2024-02-28 13:52:38.135717,1709124758.135717,31.25,-27.83203125,-30.2734375,-14.6484375,1.0,0.0,0.0,0.0,7.m4v,10.0
2024-02-28 13:52:38.139622,1709124758.139622,32.71484375,-36.62109375,-35.15625,-24.4140625,1.0,0.0,0.0,0.0,7.m4v,10.0
2024-02-28 13:52:38.143527,1709124758.1435273,40.0390625,-41.015625,-34.1796875,-24.90234375,1.0,0.0,0.0,0.0,7.m4v,10.0
2024-02-28 13:52:38.147440,1709124758.1474404,42.48046875,-36.1328125,-33.69140625,-13.18359375,1.0,0.0,0.0,0.0,7.m4v,10.0
2024-02-28 13:52:38.151346,1709124758.1513455,47.36328125,-32.2265625,-29.78515625,-7.32421875,1.0,0.0,0.0,0.0,7.m4v,10.0
2024-02-28 13:52:38.155251,1709124758.155251,33.69140625,-40.52734375,-30.76171875,-20.99609375,1.0,0.0,0.0,0.0,7.m4v,10.0
2024-02-28 13:52:38.159156,1709124758.1591563,23.92578125,-39.0625,-33.203125,-18.5546875,1.0,0.0,0.0,0.0,7.m4v,10.0
2024-02-28 13:52:38.163062,1709124758.163062,35.64453125,-33.203125,-33.203125,-9.765625,1.0,0.0,0.0,0.0,7.m4v,10.0
2024-02-28 13:52:38.166967,1709124758.1669672,42.48046875,-34.1796875,-35.15625,-9.27734375,1.0,0.0,0.0,0.0,7.m4v,10.0
2024-02-28 13:52:38.170872,1709124758.1708724,35.15625,-34.1796875,-36.1328125,-14.6484375,1.0,0.0,0.0,0.0,7.m4v,10.0
2024-02-28 13:52:38.174778,1709124758.1747775,25.390625,-34.1796875,-28.80859375,-19.04296875,1.0,0.0,0.0,0.0,7.m4v,10.0
2024-02-28 13:52:38.178683,1709124758.178683,21.484375,-33.203125,-25.390625,-13.671875,1.0,0.0,0.0,0.0,7.m4v,10.0
2024-02-28 13:52:38.182588,1709124758.1825883,17.578125,-34.1796875,-28.80859375,-17.578125,1.0,0.0,0.0,0.0,7.m4v,10.0
2024-02-28 13:52:38.186494,1709124758.1864936,8.30078125,-32.71484375,-30.2734375,-26.3671875,1.0,0.0,0.0,0.0,7.m4v,10.0
2024-02-28 13:52:38.190399,1709124758.190399,-1.46484375,-35.64453125,-30.76171875,-22.4609375,1.0,0.0,0.0,0.0,7.m4v,10.0
2024-02-28 13:52:38.194312,1709124758.194312,-1.953125,-41.015625,-33.203125,-20.99609375,1.0,0.0,0.0,0.0,7.m4v,10.0
2024-02-28 13:52:38.198217,1709124758.1982174,5.859375,-37.59765625,-32.71484375,-21.484375,1.0,0.0,0.0,0.0,7.m4v,10.0
2024-02-28 13:52:38.202123,1709124758.2021227,-5.37109375,-33.69140625,-31.25,-22.4609375,1.0,0.0,0.0,0.0,7.m4v,10.0
2024-02-28 13:52:38.206028,1709124758.206028,-13.18359375,-35.64453125,-32.71484375,-27.34375,1.0,0.0,0.0,0.0,7.m4v,10.0
2024-02-28 13:52:38.209933,1709124758.2099333,-10.7421875,-41.015625,-35.64453125,-29.78515625,1.0,0.0,0.0,0.0,7.m4v,10.0
2024-02-28 13:52:38.213839,1709124758.2138386,-15.625,-41.015625,-31.25,-27.34375,1.0,0.0,0.0,0.0,7.m4v,10.0
2024-02-28 13:52:38.217744,1709124758.217744,-23.92578125,-41.50390625,-30.76171875,-29.296875,1.0,0.0,0.0,0.0,7.m4v,10.0
2024-02-28 13:52:38.221649,1709124758.2216492,-21.97265625,-41.9921875,-30.2734375,-37.59765625,1.0,0.0,0.0,0.0,7.m4v,10.0
2024-02-28 13:52:38.225554,1709124758.2255545,-15.13671875,-41.9921875,-30.2734375,-33.203125,1.0,0.0,0.0,0.0,7.m4v,10.0
2024-02-28 13:52:38.229460,1709124758.2294598,-23.92578125,-42.96875,-37.109375,-41.015625,1.0,0.0,0.0,0.0,7.m4v,10.0
2024-02-28 13:52:38.233365,1709124758.233365,-26.85546875,-38.0859375,-35.64453125,-46.875,1.0,0.0,0.0,0.0,7.m4v,10.0
2024-02-28 13:52:38.237270,1709124758.2372704,-28.80859375,-33.203125,-30.2734375,-39.55078125,1.0,0.0,0.0,0.0,7.m4v,10.0
2024-02-28 13:52:38.241183,1709124758.2411833,-26.3671875,-30.2734375,-28.80859375,-33.69140625,1.0,0.0,0.0,0.0,7.m4v,10.0
2024-02-28 13:52:38.245089,1709124758.2450886,-9.27734375,-32.2265625,-25.87890625,-28.3203125,1.0,0.0,0.0,0.0,7.m4v,10.0
2024-02-28 13:52:38.248994,1709124758.248994,-8.30078125,-32.2265625,-24.90234375,-34.1796875,1.0,0.0,0.0,0.0,7.m4v,10.0
2024-02-28 13:52:38.252899,1709124758.2528992,-6.34765625,-27.34375,-20.5078125,-32.71484375,1.0,0.0,0.0,0.0,7.m4v,10.0
2024-02-28 13:52:38.256804,1709124758.2568045,-9.765625,-29.296875,-23.92578125,-28.3203125,1.0,0.0,0.0,0.0,7.m4v,10.0
2024-02-28 13:52:38.260710,1709124758.2607098,-14.16015625,-31.25,-29.78515625,-36.1328125,1.0,0.0,0.0,0.0,7.m4v,10.0
2024-02-28 13:52:38.264615,1709124758.2646153,-9.765625,-34.1796875,-27.83203125,-37.59765625,1.0,0.0,0.0,0.0,7.m4v,10.0
2024-02-28 13:52:38.268521,1709124758.2685206,-13.671875,-38.57421875,-32.2265625,-41.015625,1.0,0.0,0.0,0.0,7.m4v,10.0
2024-02-28 13:52:38.272426,1709124758.272426,-14.6484375,-38.57421875,-39.0625,-33.203125,1.0,0.0,0.0,0.0,7.m4v,10.0
2024-02-28 13:52:38.276331,1709124758.2763312,-2.9296875,-36.62109375,-30.76171875,-23.4375,1.0,0.0,0.0,0.0,7.m4v,10.0
2024-02-28 13:52:38.280236,1709124758.2802365,-2.9296875,-36.62109375,-24.90234375,-26.85546875,1.0,0.0,0.0,0.0,7.m4v,10.0
2024-02-28 13:52:38.424754,1709124758.4247537,-4.39453125,-35.15625,-28.80859375,-23.92578125,1.0,0.0,0.0,0.0,7.m4v,10.0
2024-02-28 13:52:38.428666,1709124758.4286656,-0.48828125,-32.71484375,-33.203125,-22.94921875,1.0,0.0,0.0,0.0,7.m4v,10.0
2024-02-28 13:52:38.432571,1709124758.432571,-14.6484375,-28.3203125,-32.71484375,-23.4375,1.0,0.0,0.0,0.0,7.m4v,10.0
2024-02-28 13:52:38.436476,1709124758.4364762,-20.5078125,-32.2265625,-28.3203125,-27.34375,1.0,0.0,0.0,0.0,7.m4v,10.0
2024-02-28 13:52:38.440382,1709124758.4403815,-9.765625,-41.015625,-29.296875,-28.3203125,1.0,0.0,0.0,0.0,7.m4v,10.0
2024-02-28 13:52:38.444287,1709124758.4442868,-9.27734375,-41.50390625,-34.1796875,-23.4375,1.0,0.0,0.0,0.0,7.m4v,10.0
2024-02-28 13:52:38.448192,1709124758.448192,-11.23046875,-30.2734375,-41.50390625,-28.3203125,1.0,0.0,0.0,0.0,7.m4v,10.0
2024-02-28 13:52:38.452097,1709124758.4520974,-19.53125,-28.3203125,-44.43359375,-31.73828125,1.0,0.0,0.0,0.0,7.m4v,10.0
2024-02-28 13:52:38.456003,1709124758.4560027,-27.83203125,-30.2734375,-40.0390625,-37.109375,1.0,0.0,0.0,0.0,7.m4v,10.0
2024-02-28 13:52:38.459908,1709124758.459908,-27.83203125,-31.25,-38.57421875,-42.96875,1.0,0.0,0.0,0.0,7.m4v,10.0
2024-02-28 13:52:38.463813,1709124758.4638133,-30.76171875,-34.66796875,-41.9921875,-36.1328125,1.0,0.0,0.0,0.0,7.m4v,10.0
2024-02-28 13:52:38.467719,1709124758.4677186,-42.48046875,-37.109375,-47.36328125,-35.15625,1.0,0.0,0.0,0.0,7.m4v,10.0
2024-02-28 13:52:38.471624,1709124758.471624,-44.921875,-37.59765625,-40.0390625,-37.59765625,1.0,0.0,0.0,0.0,7.m4v,10.0
2024-02-28 13:52:38.475537,1709124758.4755373,-41.015625,-39.0625,-31.25,-41.50390625,1.0,0.0,0.0,0.0,7.m4v,10.0
2024-02-28 13:52:38.479443,1709124758.4794426,-42.96875,-42.96875,-27.83203125,-39.55078125,1.0,0.0,0.0,0.0,7.m4v,10.0
2024-02-28 13:52:38.483348,1709124758.483348,-42.48046875,-41.50390625,-25.87890625,-32.2265625,1.0,0.0,0.0,0.0,7.m4v,10.0
2024-02-28 13:52:38.487253,1709124758.4872532,-32.2265625,-35.15625,-27.83203125,-28.80859375,1.0,0.0,0.0,0.0,7.m4v,10.0
2024-02-28 13:52:38.491158,1709124758.4911585,-27.83203125,-36.1328125,-25.87890625,-28.80859375,1.0,0.0,0.0,0.0,7.m4v,10.0
2024-02-28 13:52:38.495064,1709124758.4950638,-35.15625,-37.109375,-29.78515625,-43.45703125,1.0,0.0,0.0,0.0,7.m4v,10.0
2024-02-28 13:52:38.498969,1709124758.498969,-34.1796875,-30.76171875,-33.203125,-48.33984375,1.0,0.0,0.0,0.0,7.m4v,10.0
2024-02-28 13:52:38.502874,1709124758.5028744,-31.25,-30.2734375,-28.80859375,-46.875,1.0,0.0,0.0,0.0,7.m4v,10.0
2024-02-28 13:52:38.506780,1709124758.50678,-35.64453125,-34.66796875,-31.25,-43.9453125,1.0,0.0,0.0,0.0,7.m4v,10.0
2024-02-28 13:52:38.510685,1709124758.5106852,-33.203125,-32.71484375,-32.71484375,-35.64453125,1.0,0.0,0.0,0.0,7.m4v,10.0
2024-02-28 13:52:38.897377,1709124758.897377,-52.24609375,-29.78515625,-32.71484375,14.6484375,1.0,0.0,0.0,0.0,7.m4v,10.0
2024-02-28 13:52:38.901282,1709124758.9012823,-45.41015625,-36.1328125,-22.4609375,0.0,1.0,0.0,0.0,0.0,7.m4v,10.0
2024-02-28 13:52:38.905188,1709124758.9051876,-44.43359375,-36.1328125,-22.4609375,-4.39453125,1.0,0.0,0.0,0.0,7.m4v,10.0
2024-02-28 13:52:38.909093,1709124758.909093,-34.66796875,-29.296875,-23.92578125,-0.9765625,1.0,0.0,0.0,0.0,7.m4v,10.0
2024-02-28 13:52:38.912998,1709124758.9129982,-21.484375,-23.92578125,-24.90234375,0.0,1.0,0.0,0.0,0.0,7.m4v,10.0
2024-02-28 13:52:38.916903,1709124758.9169035,-32.2265625,-20.99609375,-27.34375,-7.32421875,1.0,0.0,0.0,0.0,7.m4v,10.0
2024-02-28 13:52:38.920809,1709124758.9208088,-39.0625,-30.76171875,-31.73828125,-5.859375,1.0,0.0,0.0,0.0,7.m4v,10.0
2024-02-28 13:52:38.924714,1709124758.924714,-27.83203125,-33.69140625,-29.78515625,0.48828125,1.0,0.0,0.0,0.0,7.m4v,10.0
2024-02-28 13:52:38.928619,1709124758.9286194,-32.2265625,-29.296875,-25.390625,1.46484375,1.0,0.0,0.0,0.0,7.m4v,10.0
2024-02-28 13:52:38.932525,1709124758.9325247,-40.0390625,-29.78515625,-28.3203125,-0.48828125,1.0,0.0,0.0,0.0,7.m4v,10.0
2024-02-28 13:52:38.936430,1709124758.93643,-38.57421875,-29.78515625,-30.2734375,5.37109375,1.0,0.0,0.0,0.0,7.m4v,10.0
2024-02-28 13:52:38.940336,1709124758.9403355,-31.73828125,-32.2265625,-26.85546875,5.37109375,1.0,0.0,0.0,0.0,7.m4v,10.0
2024-02-28 13:52:38.944248,1709124758.9442482,-20.01953125,-36.62109375,-26.85546875,5.859375,1.0,0.0,0.0,0.0,7.m4v,10.0
2024-02-28 13:52:38.948153,1709124758.9481535,-20.01953125,-38.57421875,-27.34375,6.8359375,1.0,0.0,0.0,0.0,7.m4v,10.0
2024-02-28 13:52:38.952059,1709124758.9520588,-23.4375,-25.87890625,-30.76171875,8.7890625,1.0,0.0,0.0,0.0,7.m4v,10.0
2024-02-28 13:52:38.955964,1709124758.955964,-17.578125,-16.11328125,-27.34375,13.18359375,1.0,0.0,0.0,0.0,7.m4v,10.0
2024-02-28 13:52:38.959870,1709124758.9598696,-18.06640625,-20.5078125,-26.3671875,18.06640625,1.0,0.0,0.0,0.0,7.m4v,10.0
2024-02-28 13:52:38.963775,1709124758.963775,-23.92578125,-22.94921875,-30.76171875,16.6015625,1.0,0.0,0.0,0.0,7.m4v,10.0
2024-02-28 13:52:38.967680,1709124758.9676802,-25.390625,-23.92578125,-30.2734375,13.18359375,1.0,0.0,0.0,0.0,7.m4v,10.0
2024-02-28 13:52:38.971586,1709124758.9715855,-20.5078125,-27.34375,-29.296875,4.8828125,1.0,0.0,0.0,0.0,7.m4v,10.0
2024-02-28 13:52:38.975491,1709124758.9754908,-14.6484375,-31.73828125,-33.69140625,0.48828125,1.0,0.0,0.0,0.0,7.m4v,10.0
2024-02-28 13:52:38.979396,1709124758.979396,-19.53125,-34.1796875,-33.203125,-8.30078125,1.0,0.0,0.0,0.0,7.m4v,10.0
2024-02-28 13:52:38.983301,1709124758.9833014,-12.20703125,-31.73828125,-28.3203125,-20.5078125,1.0,0.0,0.0,0.0,7.m4v,10.0
2024-02-28 13:52:38.987207,1709124758.9872067,4.39453125,-27.34375,-29.296875,-23.92578125,1.0,0.0,0.0,0.0,7.m4v,10.0
2024-02-28 13:52:38.991119,1709124758.9911194,7.32421875,-30.2734375,-29.296875,-23.92578125,1.0,0.0,0.0,0.0,7.m4v,10.0
2024-02-28 13:52:38.995025,1709124758.9950247,16.6015625,-26.3671875,-31.25,-20.99609375,1.0,0.0,0.0,0.0,7.m4v,10.0
2024-02-28 13:52:38.998930,1709124758.99893,29.296875,-20.99609375,-28.80859375,-24.4140625,1.0,0.0,0.0,0.0,7.m4v,10.0
2024-02-28 13:52:39.002835,1709124759.0028353,20.99609375,-25.390625,-30.76171875,-22.94921875,1.0,0.0,0.0,0.0,7.m4v,10.0
2024-02-28 13:52:39.006741,1709124759.0067406,11.23046875,-26.85546875,-37.109375,-20.01953125,1.0,0.0,0.0,0.0,7.m4v,10.0
2024-02-28 13:52:39.010646,1709124759.010646,-1.46484375,-25.87890625,-34.1796875,-19.53125,1.0,0.0,0.0,0.0,7.m4v,10.0
2024-02-28 13:52:39.014551,1709124759.0145512,-10.7421875,-29.296875,-30.2734375,-13.671875,1.0,0.0,0.0,0.0,7.m4v,10.0
2024-02-28 13:52:39.018456,1709124759.0184565,-5.37109375,-31.73828125,-32.71484375,-17.578125,1.0,0.0,0.0,0.0,7.m4v,10.0
2024-02-28 13:52:39.022362,1709124759.0223618,-9.27734375,-35.64453125,-38.0859375,-25.390625,1.0,0.0,0.0,0.0,7.m4v,10.0
2024-02-28 13:52:39.026267,1709124759.026267,-10.7421875,-31.73828125,-32.71484375,-18.06640625,1.0,0.0,0.0,0.0,7.m4v,10.0
2024-02-28 13:52:39.030172,1709124759.0301723,-0.9765625,-30.2734375,-25.390625,-11.71875,1.0,0.0,0.0,0.0,7.m4v,10.0
2024-02-28 13:52:39.034078,1709124759.034078,-2.9296875,-34.1796875,-26.3671875,-17.08984375,1.0,0.0,0.0,0.0,7.m4v,10.0
2024-02-28 13:52:39.037990,1709124759.0379903,0.0,-37.109375,-31.25,-23.4375,1.0,0.0,0.0,0.0,7.m4v,10.0
2024-02-28 13:52:39.041896,1709124759.0418956,6.34765625,-38.57421875,-38.57421875,-20.99609375,1.0,0.0,0.0,0.0,7.m4v,10.0
2024-02-28 13:52:39.045801,1709124759.045801,1.46484375,-39.0625,-41.9921875,-10.7421875,1.0,0.0,0.0,0.0,7.m4v,10.0
2024-02-28 13:52:39.049706,1709124759.0497062,3.41796875,-34.66796875,-40.0390625,-10.7421875,1.0,0.0,0.0,0.0,7.m4v,10.0
2024-02-28 13:52:39.053612,1709124759.0536115,10.25390625,-31.73828125,-38.57421875,-19.53125,1.0,0.0,0.0,0.0,7.m4v,10.0
2024-02-28 13:52:39.057517,1709124759.0575168,11.71875,-31.73828125,-37.59765625,-13.671875,1.0,0.0,0.0,0.0,7.m4v,10.0
2024-02-28 13:52:39.061422,1709124759.061422,4.39453125,-31.25,-36.62109375,-20.01953125,1.0,0.0,0.0,0.0,7.m4v,10.0
2024-02-28 13:52:39.065327,1709124759.0653274,-1.953125,-31.25,-39.0625,-30.76171875,1.0,0.0,0.0,0.0,7.m4v,10.0
2024-02-28 13:52:39.069233,1709124759.0692327,-2.44140625,-29.296875,-41.015625,-39.55078125,1.0,0.0,0.0,0.0,7.m4v,10.0
2024-02-28 13:52:39.073138,1709124759.073138,-4.39453125,-26.3671875,-39.0625,-47.36328125,1.0,0.0,0.0,0.0,7.m4v,10.0
2024-02-28 13:52:39.077043,1709124759.0770433,-7.32421875,-30.2734375,-40.0390625,-47.36328125,1.0,0.0,0.0,0.0,7.m4v,10.0
2024-02-28 13:52:39.080949,1709124759.0809486,-6.34765625,-33.203125,-43.9453125,-41.015625,1.0,0.0,0.0,0.0,7.m4v,10.0
2024-02-28 13:52:39.084861,1709124759.084861,-4.8828125,-30.76171875,-44.43359375,-41.9921875,1.0,0.0,0.0,0.0,7.m4v,10.0
2024-02-28 13:52:39.088767,1709124759.0887666,-5.37109375,-29.78515625,-38.57421875,-44.921875,1.0,0.0,0.0,0.0,7.m4v,10.0
2024-02-28 13:52:39.092672,1709124759.092672,-5.37109375,-33.69140625,-35.64453125,-41.50390625,1.0,0.0,0.0,0.0,7.m4v,10.0
2024-02-28 13:52:39.096577,1709124759.0965772,-0.9765625,-36.62109375,-36.1328125,-36.1328125,1.0,0.0,0.0,0.0,7.m4v,10.0
2024-02-28 13:52:39.100482,1709124759.1004825,-0.48828125,-30.76171875,-35.15625,-30.2734375,1.0,0.0,0.0,0.0,7.m4v,10.0
2024-02-28 13:52:39.104388,1709124759.1043878,-7.32421875,-27.83203125,-37.109375,-27.34375,1.0,0.0,0.0,0.0,7.m4v,10.0
2024-02-28 13:52:39.108293,1709124759.108293,-7.8125,-26.85546875,-34.1796875,-19.53125,1.0,0.0,0.0,0.0,7.m4v,10.0
2024-02-28 13:52:39.112198,1709124759.1121984,-1.953125,-28.3203125,-32.71484375,-19.04296875,1.0,0.0,0.0,0.0,7.m4v,10.0
2024-02-28 13:52:39.116104,1709124759.1161036,0.48828125,-23.4375,-32.71484375,-21.97265625,1.0,0.0,0.0,0.0,7.m4v,10.0
2024-02-28 13:52:39.120009,1709124759.120009,0.0,-22.4609375,-37.109375,-28.80859375,1.0,0.0,0.0,0.0,7.m4v,10.0
2024-02-28 13:52:39.123914,1709124759.1239142,-5.859375,-29.296875,-45.41015625,-34.1796875,1.0,0.0,0.0,0.0,7.m4v,10.0
2024-02-28 13:52:39.127820,1709124759.1278195,-13.671875,-39.0625,-46.38671875,-32.71484375,1.0,0.0,0.0,0.0,7.m4v,10.0
2024-02-28 13:52:39.131732,1709124759.1317315,-15.625,-38.57421875,-42.96875,-39.55078125,1.0,0.0,0.0,0.0,7.m4v,10.0
2024-02-28 13:52:39.135637,1709124759.1356368,-21.97265625,-32.2265625,-36.1328125,-38.57421875,1.0,0.0,0.0,0.0,7.m4v,10.0
2024-02-28 13:52:39.139542,1709124759.139542,-22.94921875,-35.15625,-37.109375,-34.1796875,1.0,0.0,0.0,0.0,7.m4v,10.0
2024-02-28 13:52:39.143447,1709124759.1434474,-23.4375,-32.71484375,-36.62109375,-41.015625,1.0,0.0,0.0,0.0,7.m4v,10.0
2024-02-28 13:52:39.147353,1709124759.1473527,-27.34375,-30.76171875,-38.57421875,-43.45703125,1.0,0.0,0.0,0.0,7.m4v,10.0
2024-02-28 13:52:39.151258,1709124759.151258,-26.3671875,-35.15625,-40.52734375,-41.015625,1.0,0.0,0.0,0.0,7.m4v,10.0
2024-02-28 13:52:39.155163,1709124759.1551633,-30.2734375,-34.66796875,-37.109375,-39.55078125,1.0,0.0,0.0,0.0,7.m4v,10.0
2024-02-28 13:52:39.159069,1709124759.1590686,-39.55078125,-36.62109375,-39.55078125,-39.55078125,1.0,0.0,0.0,0.0,7.m4v,10.0
2024-02-28 13:52:39.162974,1709124759.162974,-34.1796875,-32.71484375,-34.66796875,-40.0390625,1.0,0.0,0.0,0.0,7.m4v,10.0
2024-02-28 13:52:39.166879,1709124759.1668792,-25.390625,-26.3671875,-28.3203125,-33.203125,1.0,0.0,0.0,0.0,7.m4v,10.0
2024-02-28 13:52:39.170785,1709124759.1707847,-32.2265625,-27.34375,-33.203125,-31.25,1.0,0.0,0.0,0.0,7.m4v,10.0
2024-02-28 13:52:39.174690,1709124759.17469,-37.59765625,-30.76171875,-34.66796875,-33.203125,1.0,0.0,0.0,0.0,7.m4v,10.0
2024-02-28 13:52:39.178603,1709124759.1786034,-38.57421875,-29.296875,-34.1796875,-33.203125,1.0,0.0,0.0,0.0,7.m4v,10.0
2024-02-28 13:52:39.182509,1709124759.1825087,-34.66796875,-24.90234375,-40.0390625,-24.4140625,1.0,0.0,0.0,0.0,7.m4v,10.0
2024-02-28 13:52:39.186414,1709124759.186414,-35.64453125,-25.87890625,-45.41015625,-21.97265625,1.0,0.0,0.0,0.0,7.m4v,10.0
2024-02-28 13:52:39.190319,1709124759.1903193,-51.7578125,-29.78515625,-42.96875,-31.73828125,1.0,0.0,0.0,0.0,7.m4v,10.0
2024-02-28 13:52:39.194225,1709124759.1942246,-50.78125,-30.76171875,-35.15625,-29.78515625,1.0,0.0,0.0,0.0,7.m4v,10.0
2024-02-28 13:52:39.198130,1709124759.19813,-42.96875,-33.69140625,-29.296875,-22.94921875,1.0,0.0,0.0,0.0,7.m4v,10.0
2024-02-28 13:52:39.202035,1709124759.2020354,-54.19921875,-36.62109375,-35.64453125,-30.2734375,1.0,0.0,0.0,0.0,7.m4v,10.0
2024-02-28 13:52:39.205941,1709124759.2059407,-60.05859375,-35.15625,-35.64453125,-29.296875,1.0,0.0,0.0,0.0,7.m4v,10.0
2024-02-28 13:52:39.209846,1709124759.209846,-62.01171875,-41.015625,-29.296875,-27.83203125,1.0,0.0,0.0,0.0,7.m4v,10.0
2024-02-28 13:52:39.213751,1709124759.2137513,-71.2890625,-39.55078125,-30.2734375,-36.1328125,1.0,0.0,0.0,0.0,7.m4v,10.0
2024-02-28 13:52:39.217657,1709124759.2176566,-78.61328125,-34.66796875,-37.59765625,-44.43359375,1.0,0.0,0.0,0.0,7.m4v,10.0
2024-02-28 13:52:39.221562,1709124759.221562,-80.078125,-36.62109375,-43.45703125,-48.828125,1.0,0.0,0.0,0.0,7.m4v,10.0
2024-02-28 13:52:39.225473,1709124759.2254734,-70.3125,-33.69140625,-39.0625,-54.6875,1.0,0.0,0.0,0.0,7.m4v,10.0
2024-02-28 13:52:39.229379,1709124759.2293787,-57.12890625,-33.69140625,-32.2265625,-62.5,1.0,0.0,0.0,0.0,7.m4v,10.0
2024-02-28 13:52:39.233284,1709124759.233284,-58.10546875,-33.69140625,-30.76171875,-66.40625,1.0,0.0,0.0,0.0,7.m4v,10.0
2024-02-28 13:52:39.237189,1709124759.2371893,-51.7578125,-29.78515625,-32.71484375,-65.91796875,1.0,0.0,0.0,0.0,7.m4v,10.0
2024-02-28 13:52:39.241095,1709124759.2410946,-41.9921875,-32.2265625,-31.73828125,-61.03515625,1.0,0.0,0.0,0.0,7.m4v,10.0
2024-02-28 13:52:39.245000,1709124759.245,-46.38671875,-33.203125,-37.109375,-64.453125,1.0,0.0,0.0,0.0,7.m4v,10.0
2024-02-28 13:52:39.248905,1709124759.2489052,-40.0390625,-35.15625,-44.921875,-60.05859375,1.0,0.0,0.0,0.0,7.m4v,10.0
2024-02-28 13:52:39.252810,1709124759.2528105,-40.0390625,-31.73828125,-36.1328125,-45.8984375,1.0,0.0,0.0,0.0,7.m4v,10.0
2024-02-28 13:52:39.256716,1709124759.2567158,-53.7109375,-31.25,-29.296875,-57.6171875,1.0,0.0,0.0,0.0,7.m4v,10.0
2024-02-28 13:52:39.260621,1709124759.2606213,-55.6640625,-36.62109375,-33.203125,-65.91796875,1.0,0.0,0.0,0.0,7.m4v,10.0
2024-02-28 13:52:39.264527,1709124759.2645266,-59.5703125,-37.109375,-35.15625,-64.453125,1.0,0.0,0.0,0.0,7.m4v,10.0
2024-02-28 13:52:39.268432,1709124759.268432,-53.22265625,-33.69140625,-30.2734375,-57.6171875,1.0,0.0,0.0,0.0,7.m4v,10.0
2024-02-28 13:52:39.272345,1709124759.272345,-54.19921875,-35.64453125,-30.76171875,-57.6171875,1.0,0.0,0.0,0.0,7.m4v,10.0
2024-02-28 13:52:39.276250,1709124759.2762504,-69.82421875,-40.0390625,-31.73828125,-61.03515625,1.0,0.0,0.0,0.0,7.m4v,10.0
2024-02-28 13:52:39.280156,1709124759.2801557,-74.70703125,-39.0625,-29.296875,-51.26953125,1.0,0.0,0.0,0.0,7.m4v,10.0
2024-02-28 13:52:39.284061,1709124759.284061,-80.078125,-42.48046875,-27.83203125,-52.24609375,1.0,0.0,0.0,0.0,7.m4v,10.0
2024-02-28 13:52:39.287966,1709124759.2879665,-87.890625,-46.875,-28.3203125,-58.10546875,1.0,0.0,0.0,0.0,7.m4v,10.0
2024-02-28 13:52:39.291872,1709124759.2918715,-93.75,-45.8984375,-27.83203125,-53.22265625,1.0,0.0,0.0,0.0,7.m4v,10.0
2024-02-28 13:52:39.295777,1709124759.2957768,-100.5859375,-41.015625,-25.87890625,-49.8046875,1.0,0.0,0.0,0.0,7.m4v,10.0
2024-02-28 13:52:39.299682,1709124759.299682,-99.12109375,-41.9921875,-30.2734375,-50.78125,1.0,0.0,0.0,0.0,7.m4v,10.0
2024-02-28 13:52:39.303588,1709124759.3035877,-93.75,-46.38671875,-33.69140625,-51.7578125,1.0,0.0,0.0,0.0,7.m4v,10.0
2024-02-28 13:52:39.307493,1709124759.307493,-85.9375,-40.0390625,-31.25,-47.8515625,1.0,0.0,0.0,0.0,7.m4v,10.0
2024-02-28 13:52:39.311398,1709124759.3113985,-68.84765625,-25.390625,-28.80859375,-45.8984375,1.0,0.0,0.0,0.0,7.m4v,10.0
2024-02-28 13:52:39.315304,1709124759.3153036,-60.05859375,-27.34375,-27.83203125,-46.875,1.0,0.0,0.0,0.0,7.m4v,10.0
2024-02-28 13:52:39.319217,1709124759.3192167,-62.01171875,-32.71484375,-32.2265625,-51.26953125,1.0,0.0,0.0,0.0,7.m4v,10.0
2024-02-28 13:52:39.323122,1709124759.323122,-62.98828125,-29.296875,-32.71484375,-52.24609375,1.0,0.0,0.0,0.0,7.m4v,10.0
2024-02-28 13:52:39.327027,1709124759.327027,-64.453125,-34.1796875,-29.78515625,-48.33984375,1.0,0.0,0.0,0.0,7.m4v,10.0
2024-02-28 13:52:39.330933,1709124759.3309326,-62.98828125,-38.57421875,-32.71484375,-44.921875,1.0,0.0,0.0,0.0,7.m4v,10.0
2024-02-28 13:52:39.334838,1709124759.334838,-53.22265625,-43.45703125,-40.52734375,-41.50390625,1.0,0.0,0.0,0.0,7.m4v,10.0
2024-02-28 13:52:39.338743,1709124759.3387432,-45.41015625,-40.0390625,-43.45703125,-44.43359375,1.0,0.0,0.0,0.0,7.m4v,10.0
2024-02-28 13:52:39.342649,1709124759.3426485,-40.52734375,-34.1796875,-33.69140625,-40.52734375,1.0,0.0,0.0,0.0,7.m4v,10.0
2024-02-28 13:52:39.346554,1709124759.3465538,-36.62109375,-37.109375,-29.78515625,-40.0390625,1.0,0.0,0.0,0.0,7.m4v,10.0
2024-02-28 13:52:39.350459,1709124759.350459,-40.0390625,-40.52734375,-24.90234375,-41.50390625,1.0,0.0,0.0,0.0,7.m4v,10.0
2024-02-28 13:52:39.354364,1709124759.3543644,-47.8515625,-36.62109375,-20.5078125,-40.52734375,1.0,0.0,0.0,0.0,7.m4v,10.0
2024-02-28 13:52:39.358270,1709124759.35827,-47.8515625,-38.0859375,-23.92578125,-47.8515625,1.0,0.0,0.0,0.0,7.m4v,10.0
2024-02-28 13:52:39.362175,1709124759.3621752,-49.8046875,-43.9453125,-25.390625,-41.9921875,1.0,0.0,0.0,0.0,7.m4v,10.0
2024-02-28 13:52:39.366088,1709124759.3660877,-54.6875,-46.875,-30.2734375,-45.8984375,1.0,0.0,0.0,0.0,7.m4v,10.0
2024-02-28 13:52:39.369993,1709124759.369993,-46.38671875,-47.8515625,-34.1796875,-55.6640625,1.0,0.0,0.0,0.0,7.m4v,10.0
2024-02-28 13:52:39.373898,1709124759.3738985,-53.22265625,-41.50390625,-31.25,-47.36328125,1.0,0.0,0.0,0.0,7.m4v,10.0
2024-02-28 13:52:39.377804,1709124759.3778036,-58.59375,-39.0625,-30.2734375,-40.52734375,1.0,0.0,0.0,0.0,7.m4v,10.0
2024-02-28 13:52:39.381709,1709124759.3817089,-50.29296875,-42.48046875,-31.25,-38.0859375,1.0,0.0,0.0,0.0,7.m4v,10.0
2024-02-28 13:52:39.385614,1709124759.3856142,-47.36328125,-39.0625,-28.3203125,-32.71484375,1.0,0.0,0.0,0.0,7.m4v,10.0
2024-02-28 13:52:39.389519,1709124759.3895197,-43.45703125,-34.66796875,-34.1796875,-31.25,1.0,0.0,0.0,0.0,7.m4v,10.0
2024-02-28 13:52:39.393425,1709124759.393425,-39.55078125,-34.1796875,-42.48046875,-25.390625,1.0,0.0,0.0,0.0,7.m4v,10.0
2024-02-28 13:52:39.397330,1709124759.3973303,-47.8515625,-34.1796875,-40.52734375,-19.53125,1.0,0.0,0.0,0.0,7.m4v,10.0
2024-02-28 13:52:39.401236,1709124759.4012356,-58.10546875,-36.62109375,-39.55078125,-29.78515625,1.0,0.0,0.0,0.0,7.m4v,10.0
2024-02-28 13:52:39.405141,1709124759.4051409,-58.10546875,-33.69140625,-35.64453125,-38.0859375,1.0,0.0,0.0,0.0,7.m4v,10.0
2024-02-28 13:52:39.409046,1709124759.4090462,-57.6171875,-34.66796875,-35.64453125,-37.109375,1.0,0.0,0.0,0.0,7.m4v,10.0
2024-02-28 13:52:39.412958,1709124759.4129584,-63.96484375,-39.0625,-42.48046875,-45.8984375,1.0,0.0,0.0,0.0,7.m4v,10.0
2024-02-28 13:52:39.416864,1709124759.4168637,-60.546875,-32.71484375,-37.59765625,-43.9453125,1.0,0.0,0.0,0.0,7.m4v,10.0
2024-02-28 13:52:39.420769,1709124759.4207692,-54.19921875,-37.109375,-31.73828125,-41.015625,1.0,0.0,0.0,0.0,7.m4v,10.0
2024-02-28 13:52:39.424675,1709124759.4246745,-58.59375,-41.50390625,-31.25,-43.45703125,1.0,0.0,0.0,0.0,7.m4v,10.0
2024-02-28 13:52:39.428580,1709124759.4285798,-62.5,-35.64453125,-29.296875,-40.0390625,1.0,0.0,0.0,0.0,7.m4v,10.0
2024-02-28 13:52:39.432485,1709124759.432485,-67.87109375,-41.50390625,-27.83203125,-31.73828125,1.0,0.0,0.0,0.0,7.m4v,10.0
2024-02-28 13:52:39.436390,1709124759.4363904,-59.5703125,-42.48046875,-27.34375,-35.15625,1.0,0.0,0.0,0.0,7.m4v,10.0
2024-02-28 13:52:39.440296,1709124759.4402957,-64.94140625,-40.52734375,-32.2265625,-41.9921875,1.0,0.0,0.0,0.0,7.m4v,10.0
2024-02-28 13:52:39.444201,1709124759.444201,-82.03125,-38.57421875,-38.57421875,-36.1328125,1.0,0.0,0.0,0.0,7.m4v,10.0
2024-02-28 13:52:39.448106,1709124759.4481063,-83.984375,-34.66796875,-41.015625,-31.25,1.0,0.0,0.0,0.0,7.m4v,10.0
2024-02-28 13:52:39.483261,1709124759.483261,-73.2421875,-44.43359375,-28.80859375,-39.0625,1.0,0.0,0.0,0.0,7.m4v,10.0
2024-02-28 13:52:39.491072,1709124759.4910717,-72.75390625,-38.0859375,-26.3671875,-34.1796875,1.0,0.0,0.0,0.0,7.m4v,10.0
2024-02-28 13:52:39.498882,1709124759.4988823,-84.47265625,-37.109375,-24.90234375,-32.2265625,1.0,0.0,0.0,0.0,7.m4v,10.0
2024-02-28 13:52:39.506700,1709124759.5067,-73.2421875,-37.109375,-25.87890625,-35.15625,1.0,0.0,0.0,0.0,7.m4v,10.0
2024-02-28 13:52:39.514511,1709124759.5145106,-68.84765625,-34.66796875,-30.76171875,-36.62109375,1.0,0.0,0.0,0.0,7.m4v,10.0
2024-02-28 13:52:39.522321,1709124759.5223212,-58.59375,-25.87890625,-26.85546875,-33.69140625,1.0,0.0,0.0,0.0,7.m4v,10.0
2024-02-28 13:52:39.530132,1709124759.5301318,-52.734375,-34.1796875,-30.76171875,-25.390625,1.0,0.0,0.0,0.0,7.m4v,10.0
2024-02-28 13:52:39.537942,1709124759.5379424,-32.2265625,-34.66796875,-32.71484375,-25.87890625,1.0,0.0,0.0,0.0,7.m4v,10.0
2024-02-28 13:52:39.545753,1709124759.545753,-29.78515625,-39.0625,-36.62109375,-12.6953125,1.0,0.0,0.0,0.0,7.m4v,10.0
2024-02-28 13:52:39.553570,1709124759.55357,-55.17578125,-38.57421875,-40.52734375,-40.0390625,1.0,0.0,0.0,0.0,7.m4v,10.0
2024-02-28 13:52:39.561381,1709124759.5613806,-70.3125,-39.55078125,-29.78515625,-23.4375,1.0,0.0,0.0,0.0,7.m4v,10.0
2024-02-28 13:52:39.569191,1709124759.5691912,-55.6640625,-33.69140625,-33.203125,-28.80859375,1.0,0.0,0.0,0.0,7.m4v,10.0
2024-02-28 13:52:39.756677,1709124759.7566774,-131.34765625,-44.921875,-35.15625,-37.59765625,1.0,0.0,0.0,0.0,7.m4v,10.0
2024-02-28 13:52:39.760583,1709124759.7605827,-145.5078125,-38.57421875,-37.109375,-32.71484375,1.0,0.0,0.0,0.0,7.m4v,10.0
2024-02-28 13:52:39.764488,1709124759.764488,-131.34765625,-28.3203125,-30.2734375,-20.01953125,1.0,0.0,0.0,0.0,7.m4v,10.0
2024-02-28 13:52:39.768393,1709124759.7683933,-110.3515625,-40.0390625,-32.71484375,-7.32421875,1.0,0.0,0.0,0.0,7.m4v,10.0
2024-02-28 13:52:39.772299,1709124759.7722986,-102.05078125,-41.9921875,-41.50390625,-5.859375,1.0,0.0,0.0,0.0,7.m4v,10.0
2024-02-28 13:52:39.776204,1709124759.776204,-92.7734375,-31.73828125,-41.9921875,-0.48828125,1.0,0.0,0.0,0.0,7.m4v,10.0
2024-02-28 13:52:39.780109,1709124759.7801092,-80.56640625,-33.203125,-35.15625,11.71875,1.0,0.0,0.0,0.0,7.m4v,10.0
2024-02-28 13:52:39.784014,1709124759.7840145,-62.5,-35.64453125,-36.62109375,27.34375,1.0,0.0,0.0,0.0,7.m4v,10.0
2024-02-28 13:52:39.787927,1709124759.787927,-52.734375,-23.92578125,-44.921875,31.25,1.0,0.0,0.0,0.0,7.m4v,10.0
2024-02-28 13:52:39.791832,1709124759.7918322,-44.921875,-21.484375,-43.9453125,30.2734375,1.0,0.0,0.0,0.0,7.m4v,10.0
2024-02-28 13:52:39.795738,1709124759.7957375,-27.83203125,-33.69140625,-35.64453125,33.203125,1.0,0.0,0.0,0.0,7.m4v,10.0
2024-02-28 13:52:39.799643,1709124759.7996428,-31.25,-36.1328125,-31.73828125,23.4375,1.0,0.0,0.0,0.0,7.m4v,10.0
2024-02-28 13:52:39.803548,1709124759.803548,1.46484375,-30.2734375,-35.15625,16.6015625,1.0,0.0,0.0,0.0,7.m4v,10.0
2024-02-28 13:52:39.807453,1709124759.8074534,39.55078125,-26.85546875,-39.0625,30.2734375,1.0,0.0,0.0,0.0,7.m4v,10.0
2024-02-28 13:52:39.811359,1709124759.8113587,71.77734375,-26.3671875,-39.55078125,20.01953125,1.0,0.0,0.0,0.0,7.m4v,10.0
2024-02-28 13:52:39.815264,1709124759.815264,100.09765625,-32.71484375,-41.9921875,0.48828125,1.0,0.0,0.0,0.0,7.m4v,10.0
2024-02-28 13:52:39.819169,1709124759.8191693,123.046875,-39.55078125,-35.64453125,11.23046875,1.0,0.0,0.0,0.0,7.m4v,10.0
2024-02-28 13:52:39.823075,1709124759.8230746,143.5546875,-39.55078125,-31.25,19.53125,1.0,0.0,0.0,0.0,7.m4v,10.0
2024-02-28 13:52:39.826980,1709124759.82698,148.92578125,-34.66796875,-36.62109375,13.671875,1.0,0.0,0.0,0.0,7.m4v,10.0
2024-02-28 13:52:39.830885,1709124759.8308854,149.90234375,-39.0625,-38.57421875,13.18359375,1.0,0.0,0.0,0.0,7.m4v,10.0
2024-02-28 13:52:39.834797,1709124759.8347974,153.80859375,-39.55078125,-35.15625,9.765625,1.0,0.0,0.0,0.0,7.m4v,10.0
2024-02-28 13:52:39.838703,1709124759.838703,163.57421875,-35.15625,-37.109375,14.16015625,1.0,0.0,0.0,0.0,7.m4v,10.0
2024-02-28 13:52:39.842608,1709124759.842608,172.36328125,-30.76171875,-41.015625,29.78515625,1.0,0.0,0.0,0.0,7.m4v,10.0
2024-02-28 13:52:39.846513,1709124759.8465133,158.203125,-29.78515625,-46.38671875,10.7421875,1.0,0.0,0.0,0.0,7.m4v,10.0
2024-02-28 13:52:39.850419,1709124759.8504186,133.30078125,-39.55078125,-38.0859375,-12.6953125,1.0,0.0,0.0,0.0,7.m4v,10.0
2024-02-28 13:52:39.854324,1709124759.854324,118.1640625,-43.9453125,-25.390625,-2.9296875,1.0,0.0,0.0,0.0,7.m4v,10.0
2024-02-28 13:52:39.858229,1709124759.8582294,107.91015625,-28.80859375,-29.296875,12.20703125,1.0,0.0,0.0,0.0,7.m4v,10.0
2024-02-28 13:52:39.862135,1709124759.8621347,105.95703125,-21.484375,-34.1796875,4.39453125,1.0,0.0,0.0,0.0,7.m4v,10.0
2024-02-28 13:52:39.866040,1709124759.86604,97.65625,-44.921875,-34.66796875,-0.48828125,1.0,0.0,0.0,0.0,7.m4v,10.0
2024-02-28 13:52:39.869945,1709124759.8699453,98.14453125,-45.41015625,-41.50390625,9.765625,1.0,0.0,0.0,0.0,7.m4v,10.0
2024-02-28 13:52:39.873851,1709124759.8738506,108.3984375,-12.20703125,-52.734375,13.18359375,1.0,0.0,0.0,0.0,7.m4v,10.0
2024-02-28 13:52:39.877756,1709124759.877756,100.5859375,-13.671875,-59.08203125,7.8125,1.0,0.0,0.0,0.0,7.m4v,10.0
2024-02-28 13:52:39.881668,1709124759.881668,90.8203125,-31.73828125,-50.78125,-2.9296875,1.0,0.0,0.0,0.0,7.m4v,10.0
2024-02-28 13:52:39.885573,1709124759.8855731,90.8203125,-27.34375,-25.87890625,-11.23046875,1.0,0.0,0.0,0.0,7.m4v,10.0
2024-02-28 13:52:39.889478,1709124759.8894784,99.609375,-22.4609375,-23.92578125,-11.23046875,1.0,0.0,0.0,0.0,7.m4v,10.0
2024-02-28 13:52:39.893384,1709124759.8933835,121.09375,-32.71484375,-30.76171875,-12.20703125,1.0,0.0,0.0,0.0,7.m4v,10.0
2024-02-28 13:52:39.897289,1709124759.897289,120.1171875,-47.36328125,-35.15625,-13.671875,1.0,0.0,0.0,0.0,7.m4v,10.0
2024-02-28 13:52:39.901195,1709124759.9011946,50.78125,-43.9453125,-33.69140625,-8.30078125,1.0,0.0,0.0,0.0,7.m4v,10.0
2024-02-28 13:52:39.905100,1709124759.9051,-30.76171875,-49.31640625,-39.55078125,-5.37109375,1.0,0.0,0.0,0.0,7.m4v,10.0
2024-02-28 13:52:39.909005,1709124759.9090052,-56.15234375,-43.45703125,-57.6171875,-2.9296875,1.0,0.0,0.0,0.0,7.m4v,10.0
2024-02-28 13:52:39.912910,1709124759.9129105,-60.05859375,-18.06640625,-56.640625,-8.7890625,1.0,0.0,0.0,0.0,7.m4v,10.0
2024-02-28 13:52:39.916816,1709124759.9168158,-66.89453125,-24.90234375,-42.96875,-9.765625,1.0,0.0,0.0,0.0,7.m4v,10.0
2024-02-28 13:52:39.920721,1709124759.920721,-65.91796875,-52.734375,-25.390625,-1.46484375,1.0,0.0,0.0,0.0,7.m4v,10.0
2024-02-28 13:52:39.924626,1709124759.9246264,-54.19921875,-34.66796875,-36.1328125,-1.46484375,1.0,0.0,0.0,0.0,7.m4v,10.0
2024-02-28 13:52:39.928538,1709124759.9285383,-47.36328125,-20.5078125,-44.43359375,-17.08984375,1.0,0.0,0.0,0.0,7.m4v,10.0
2024-02-28 13:52:39.932444,1709124759.9324436,-62.5,-37.109375,-38.0859375,-29.296875,1.0,0.0,0.0,0.0,7.m4v,10.0
2024-02-28 13:52:39.936349,1709124759.936349,-51.7578125,-39.55078125,-57.6171875,-9.27734375,1.0,0.0,0.0,0.0,7.m4v,10.0
2024-02-28 13:52:39.940254,1709124759.9402542,-31.25,-49.31640625,-72.75390625,-2.9296875,1.0,0.0,0.0,0.0,7.m4v,10.0
2024-02-28 13:52:39.944160,1709124759.9441595,-44.921875,-42.48046875,-55.17578125,-17.578125,1.0,0.0,0.0,0.0,7.m4v,10.0
2024-02-28 13:52:39.948065,1709124759.948065,-55.6640625,-27.34375,-29.78515625,-11.23046875,1.0,0.0,0.0,0.0,7.m4v,10.0
2024-02-28 13:52:39.951970,1709124759.9519703,-41.50390625,-22.4609375,-31.25,-6.8359375,1.0,0.0,0.0,0.0,7.m4v,10.0
2024-02-28 13:52:39.955876,1709124759.9558756,-43.9453125,-23.92578125,-51.26953125,-6.34765625,1.0,0.0,0.0,0.0,7.m4v,10.0
2024-02-28 13:52:39.959781,1709124759.959781,-52.24609375,-49.8046875,-47.36328125,8.7890625,1.0,0.0,0.0,0.0,7.m4v,10.0
2024-02-28 13:52:39.963686,1709124759.9636862,-53.22265625,-63.96484375,-37.109375,4.39453125,1.0,0.0,0.0,0.0,7.m4v,10.0
2024-02-28 13:52:39.967592,1709124759.9675915,-66.89453125,-51.26953125,-50.78125,-9.27734375,1.0,0.0,0.0,0.0,7.m4v,10.0
2024-02-28 13:52:39.971497,1709124759.9714968,-105.46875,-37.59765625,-67.3828125,-28.80859375,1.0,0.0,0.0,0.0,7.m4v,10.0
2024-02-28 13:52:39.975410,1709124759.97541,-141.6015625,-27.83203125,-59.5703125,-41.9921875,1.0,0.0,0.0,0.0,7.m4v,10.0
2024-02-28 13:52:39.979316,1709124759.9793155,-135.25390625,-9.27734375,-38.57421875,-21.484375,1.0,0.0,0.0,0.0,7.m4v,10.0
2024-02-28 13:52:39.983221,1709124759.9832208,-150.390625,-16.11328125,-44.43359375,-28.80859375,1.0,0.0,0.0,0.0,7.m4v,10.0
2024-02-28 13:52:39.987126,1709124759.987126,-191.89453125,-40.0390625,-50.29296875,-48.828125,1.0,0.0,0.0,0.0,7.m4v,10.0
2024-02-28 13:52:39.991031,1709124759.9910314,-174.31640625,-37.59765625,-57.12890625,-42.48046875,1.0,0.0,0.0,0.0,7.m4v,10.0
2024-02-28 13:52:39.994937,1709124759.9949367,-160.64453125,-31.73828125,-58.59375,-51.26953125,1.0,0.0,0.0,0.0,7.m4v,10.0
2024-02-28 13:52:39.998842,1709124759.998842,-179.19921875,-43.9453125,-31.25,-55.6640625,1.0,0.0,0.0,0.0,7.m4v,10.0
2024-02-28 13:52:40.002747,1709124760.0027473,-178.22265625,-57.12890625,-33.69140625,-31.25,1.0,0.0,0.0,0.0,7.m4v,10.0
2024-02-28 13:52:40.006653,1709124760.0066526,-178.22265625,-48.33984375,-53.22265625,-24.4140625,1.0,0.0,0.0,0.0,7.m4v,10.0
2024-02-28 13:52:40.010558,1709124760.010558,-185.05859375,-25.87890625,-54.19921875,-38.57421875,1.0,0.0,0.0,0.0,7.m4v,10.0
2024-02-28 13:52:40.014463,1709124760.0144632,-190.4296875,-27.83203125,-39.55078125,-42.48046875,1.0,0.0,0.0,0.0,7.m4v,10.0
2024-02-28 13:52:40.018368,1709124760.0183685,-190.91796875,-37.109375,-38.57421875,-33.69140625,1.0,0.0,0.0,0.0,7.m4v,10.0
2024-02-28 13:52:40.022282,1709124760.0222816,-187.98828125,-60.546875,-37.109375,-34.1796875,1.0,0.0,0.0,0.0,7.m4v,10.0
2024-02-28 13:52:40.026187,1709124760.026187,-203.61328125,-58.59375,-43.9453125,-40.0390625,1.0,0.0,0.0,0.0,7.m4v,10.0
2024-02-28 13:52:40.030092,1709124760.0300922,-235.3515625,-38.57421875,-44.921875,-56.15234375,1.0,0.0,0.0,0.0,7.m4v,10.0
2024-02-28 13:52:40.033998,1709124760.0339975,-254.8828125,-46.38671875,-24.90234375,-80.56640625,1.0,0.0,0.0,0.0,7.m4v,10.0
2024-02-28 13:52:40.037903,1709124760.0379028,-239.74609375,-48.33984375,-31.25,-70.3125,1.0,0.0,0.0,0.0,7.m4v,10.0
2024-02-28 13:52:40.041808,1709124760.041808,-220.703125,-62.98828125,-42.96875,-44.921875,1.0,0.0,0.0,0.0,7.m4v,10.0
2024-02-28 13:52:40.045713,1709124760.0457134,-237.79296875,-43.45703125,-43.45703125,-53.22265625,1.0,0.0,0.0,0.0,7.m4v,10.0
2024-02-28 13:52:40.049619,1709124760.0496187,-250.0,-13.671875,-47.8515625,-57.12890625,1.0,0.0,0.0,0.0,7.m4v,10.0
2024-02-28 13:52:40.053524,1709124760.053524,-246.09375,-7.32421875,-49.31640625,-35.15625,1.0,0.0,0.0,0.0,7.m4v,10.0
2024-02-28 13:52:40.057430,1709124760.0574296,-231.93359375,-20.5078125,-34.1796875,-20.99609375,1.0,0.0,0.0,0.0,7.m4v,10.0
2024-02-28 13:52:40.061335,1709124760.0613348,-235.3515625,-55.17578125,-30.2734375,-40.52734375,1.0,0.0,0.0,0.0,7.m4v,10.0
2024-02-28 13:52:40.065240,1709124760.06524,-229.00390625,-46.875,-55.6640625,-58.10546875,1.0,0.0,0.0,0.0,7.m4v,10.0
2024-02-28 13:52:40.069153,1709124760.0691528,-226.07421875,-42.48046875,-61.03515625,-46.38671875,1.0,0.0,0.0,0.0,7.m4v,10.0
2024-02-28 13:52:40.073058,1709124760.073058,-233.88671875,-57.12890625,-45.41015625,-48.33984375,1.0,0.0,0.0,0.0,7.m4v,10.0
2024-02-28 13:52:40.076963,1709124760.0769634,-225.5859375,-48.33984375,-27.34375,-29.78515625,1.0,0.0,0.0,0.0,7.m4v,10.0
2024-02-28 13:52:40.080869,1709124760.0808687,-212.40234375,-39.0625,-37.109375,-16.6015625,1.0,0.0,0.0,0.0,7.m4v,10.0
2024-02-28 13:52:40.084774,1709124760.084774,-210.9375,-55.6640625,-45.8984375,-25.87890625,1.0,0.0,0.0,0.0,7.m4v,10.0
2024-02-28 13:52:40.088680,1709124760.0886796,-189.453125,-93.75,-44.921875,-18.06640625,1.0,0.0,0.0,0.0,7.m4v,10.0
2024-02-28 13:52:40.092585,1709124760.0925848,-161.62109375,-53.7109375,-37.59765625,-12.6953125,1.0,0.0,0.0,0.0,7.m4v,10.0
2024-02-28 13:52:40.096490,1709124760.09649,-171.875,0.0,-32.71484375,-22.94921875,1.0,0.0,0.0,0.0,7.m4v,10.0
2024-02-28 13:52:40.100395,1709124760.1003954,-188.4765625,-23.92578125,-41.015625,-38.0859375,1.0,0.0,0.0,0.0,7.m4v,10.0
2024-02-28 13:52:40.104301,1709124760.1043007,-167.96875,-31.73828125,-55.17578125,-21.97265625,1.0,0.0,0.0,0.0,7.m4v,10.0
2024-02-28 13:52:40.108206,1709124760.108206,-135.25390625,-30.76171875,-73.2421875,-14.6484375,1.0,0.0,0.0,0.0,7.m4v,10.0
2024-02-28 13:52:40.112111,1709124760.112111,-154.78515625,-46.875,-41.50390625,-45.8984375,1.0,0.0,0.0,0.0,7.m4v,10.0
2024-02-28 13:52:40.116024,1709124760.116024,-178.7109375,-47.8515625,-33.203125,-53.22265625,1.0,0.0,0.0,0.0,7.m4v,10.0
2024-02-28 13:52:40.119929,1709124760.1199293,-179.6875,-45.41015625,-41.50390625,-44.43359375,1.0,0.0,0.0,0.0,7.m4v,10.0
2024-02-28 13:52:40.123835,1709124760.1238346,-163.0859375,-50.29296875,-27.34375,-34.1796875,1.0,0.0,0.0,0.0,7.m4v,10.0
2024-02-28 13:52:40.127740,1709124760.12774,-149.4140625,-47.36328125,-28.3203125,-25.390625,1.0,0.0,0.0,0.0,7.m4v,10.0
2024-02-28 13:52:40.131645,1709124760.1316452,-148.92578125,-48.828125,-34.1796875,-32.71484375,1.0,0.0,0.0,0.0,7.m4v,10.0
2024-02-28 13:52:40.135550,1709124760.1355505,-147.94921875,-49.31640625,-33.69140625,-27.83203125,1.0,0.0,0.0,0.0,7.m4v,10.0
2024-02-28 13:52:40.139456,1709124760.1394558,-156.25,-62.5,-39.0625,-20.99609375,1.0,0.0,0.0,0.0,7.m4v,10.0
2024-02-28 13:52:40.143361,1709124760.143361,-153.80859375,-56.15234375,-33.203125,-20.99609375,1.0,0.0,0.0,0.0,7.m4v,10.0
2024-02-28 13:52:40.147267,1709124760.1472666,-155.2734375,-19.04296875,-36.62109375,-28.3203125,1.0,0.0,0.0,0.0,7.m4v,10.0
2024-02-28 13:52:40.303506,1709124760.3035064,20.99609375,-53.22265625,-23.92578125,-9.27734375,1.0,0.0,0.0,0.0,7.m4v,10.0
2024-02-28 13:52:40.307412,1709124760.3074117,50.29296875,-32.71484375,-35.15625,0.9765625,1.0,0.0,0.0,0.0,7.m4v,10.0
2024-02-28 13:52:40.311317,1709124760.3113172,21.97265625,-17.578125,-43.45703125,-25.390625,1.0,0.0,0.0,0.0,7.m4v,10.0
2024-02-28 13:52:40.315223,1709124760.3152225,41.015625,-19.04296875,-40.52734375,-23.4375,1.0,0.0,0.0,0.0,7.m4v,10.0
2024-02-28 13:52:40.319128,1709124760.3191278,61.03515625,-22.94921875,-43.9453125,-14.16015625,1.0,0.0,0.0,0.0,7.m4v,10.0
2024-02-28 13:52:40.323033,1709124760.323033,76.66015625,-24.90234375,-50.78125,-8.7890625,1.0,0.0,0.0,0.0,7.m4v,10.0
2024-02-28 13:52:40.326938,1709124760.3269384,94.7265625,-23.92578125,-43.45703125,0.48828125,1.0,0.0,0.0,0.0,7.m4v,10.0
2024-02-28 13:52:40.330844,1709124760.3308437,116.69921875,-68.84765625,-16.11328125,11.71875,1.0,0.0,0.0,0.0,7.m4v,10.0
2024-02-28 13:52:40.334749,1709124760.334749,110.83984375,-44.921875,-19.53125,7.32421875,1.0,0.0,0.0,0.0,7.m4v,10.0
2024-02-28 13:52:40.338654,1709124760.3386545,100.09765625,-2.9296875,-35.15625,10.25390625,1.0,0.0,0.0,0.0,7.m4v,10.0
2024-02-28 13:52:40.342560,1709124760.3425596,99.12109375,-31.73828125,-28.3203125,25.87890625,1.0,0.0,0.0,0.0,7.m4v,10.0
2024-02-28 13:52:40.346465,1709124760.3464649,81.0546875,-20.01953125,-36.62109375,15.13671875,1.0,0.0,0.0,0.0,7.m4v,10.0
2024-02-28 13:52:40.350377,1709124760.3503766,63.96484375,-24.4140625,-31.25,3.41796875,1.0,0.0,0.0,0.0,7.m4v,10.0
2024-02-28 13:52:40.354282,1709124760.354282,60.546875,-33.69140625,-25.87890625,14.16015625,1.0,0.0,0.0,0.0,7.m4v,10.0
2024-02-28 13:52:40.358187,1709124760.3581872,60.546875,-33.203125,-45.41015625,14.16015625,1.0,0.0,0.0,0.0,7.m4v,10.0
2024-02-28 13:52:40.362092,1709124760.3620925,52.24609375,-31.25,-46.875,-1.46484375,1.0,0.0,0.0,0.0,7.m4v,10.0
2024-02-28 13:52:40.365998,1709124760.3659978,38.57421875,-26.3671875,-24.4140625,-1.953125,1.0,0.0,0.0,0.0,7.m4v,10.0
2024-02-28 13:52:40.369903,1709124760.369903,27.34375,-35.15625,-30.2734375,7.32421875,1.0,0.0,0.0,0.0,7.m4v,10.0
2024-02-28 13:52:40.373808,1709124760.3738084,25.390625,-48.33984375,-27.34375,13.18359375,1.0,0.0,0.0,0.0,7.m4v,10.0
2024-02-28 13:52:40.377714,1709124760.3777137,20.99609375,-44.43359375,-30.2734375,10.25390625,1.0,0.0,0.0,0.0,7.m4v,10.0
2024-02-28 13:52:40.381619,1709124760.3816192,10.7421875,-24.90234375,-27.83203125,-4.8828125,1.0,0.0,0.0,0.0,7.m4v,10.0
2024-02-28 13:52:40.385525,1709124760.3855245,9.27734375,-30.2734375,-12.6953125,-4.39453125,1.0,0.0,0.0,0.0,7.m4v,10.0
2024-02-28 13:52:40.389430,1709124760.3894298,17.08984375,-35.64453125,-15.625,17.08984375,1.0,0.0,0.0,0.0,7.m4v,10.0
2024-02-28 13:52:40.393335,1709124760.393335,14.16015625,-44.921875,-30.76171875,28.3203125,1.0,0.0,0.0,0.0,7.m4v,10.0
2024-02-28 13:52:40.397248,1709124760.397248,5.859375,-52.24609375,-33.203125,15.625,1.0,0.0,0.0,0.0,7.m4v,10.0
2024-02-28 13:52:40.401153,1709124760.401153,10.25390625,-40.0390625,-22.94921875,15.625,1.0,0.0,0.0,0.0,7.m4v,10.0
2024-02-28 13:52:40.405059,1709124760.4050586,17.578125,-24.4140625,-20.5078125,16.6015625,1.0,0.0,0.0,0.0,7.m4v,10.0
2024-02-28 13:52:40.408964,1709124760.408964,17.578125,-38.0859375,-30.76171875,11.23046875,1.0,0.0,0.0,0.0,7.m4v,10.0
2024-02-28 13:52:40.412869,1709124760.4128697,12.6953125,-46.875,-32.2265625,4.39453125,1.0,0.0,0.0,0.0,7.m4v,10.0
2024-02-28 13:52:40.416775,1709124760.4167747,9.765625,-28.3203125,-28.3203125,1.46484375,1.0,0.0,0.0,0.0,7.m4v,10.0
2024-02-28 13:52:40.420680,1709124760.42068,19.04296875,-29.296875,-37.109375,6.8359375,1.0,0.0,0.0,0.0,7.m4v,10.0
2024-02-28 13:52:40.424585,1709124760.424585,27.83203125,-28.80859375,-32.2265625,14.16015625,1.0,0.0,0.0,0.0,7.m4v,10.0
2024-02-28 13:52:40.428491,1709124760.4284906,22.4609375,-31.25,-27.34375,9.27734375,1.0,0.0,0.0,0.0,7.m4v,10.0
2024-02-28 13:52:40.432396,1709124760.432396,16.11328125,-41.015625,-32.2265625,2.44140625,1.0,0.0,0.0,0.0,7.m4v,10.0
2024-02-28 13:52:40.436301,1709124760.4363012,4.8828125,-33.203125,-35.64453125,4.8828125,1.0,0.0,0.0,0.0,7.m4v,10.0
2024-02-28 13:52:40.440207,1709124760.4402063,21.484375,-29.78515625,-37.59765625,12.20703125,1.0,0.0,0.0,0.0,7.m4v,10.0
2024-02-28 13:52:40.444119,1709124760.4441197,19.04296875,-39.0625,-44.43359375,8.7890625,1.0,0.0,0.0,0.0,7.m4v,10.0
2024-02-28 13:52:40.448025,1709124760.4480247,5.859375,-43.45703125,-45.41015625,5.37109375,1.0,0.0,0.0,0.0,7.m4v,10.0
2024-02-28 13:52:40.451930,1709124760.45193,1.953125,-47.36328125,-38.0859375,2.9296875,1.0,0.0,0.0,0.0,7.m4v,10.0
2024-02-28 13:52:40.455835,1709124760.455835,-4.8828125,-36.62109375,-27.34375,-0.48828125,1.0,0.0,0.0,0.0,7.m4v,10.0
2024-02-28 13:52:40.459741,1709124760.4597406,4.39453125,-16.11328125,-26.85546875,7.8125,1.0,0.0,0.0,0.0,7.m4v,10.0
2024-02-28 13:52:40.463646,1709124760.463646,0.0,-14.16015625,-32.2265625,5.859375,1.0,0.0,0.0,0.0,7.m4v,10.0
2024-02-28 13:52:40.467551,1709124760.4675512,-12.6953125,-21.97265625,-38.57421875,-13.671875,1.0,0.0,0.0,0.0,7.m4v,10.0
2024-02-28 13:52:40.471457,1709124760.4714563,-29.296875,-39.0625,-41.9921875,-21.97265625,1.0,0.0,0.0,0.0,7.m4v,10.0
2024-02-28 13:52:40.475362,1709124760.4753618,-35.64453125,-39.55078125,-36.1328125,-4.39453125,1.0,0.0,0.0,0.0,7.m4v,10.0
2024-02-28 13:52:40.479267,1709124760.4792671,-36.1328125,-48.33984375,-25.390625,9.765625,1.0,0.0,0.0,0.0,7.m4v,10.0
2024-02-28 13:52:40.483172,1709124760.4831724,-41.015625,-40.52734375,-24.4140625,11.71875,1.0,0.0,0.0,0.0,7.m4v,10.0
2024-02-28 13:52:40.487078,1709124760.487078,-41.50390625,-23.4375,-26.85546875,3.41796875,1.0,0.0,0.0,0.0,7.m4v,10.0
2024-02-28 13:52:40.490990,1709124760.4909904,-34.1796875,-46.38671875,-29.296875,-5.859375,1.0,0.0,0.0,0.0,7.m4v,10.0
2024-02-28 13:52:40.494896,1709124760.4948957,-35.15625,-28.80859375,-39.55078125,-2.9296875,1.0,0.0,0.0,0.0,7.m4v,10.0
2024-02-28 13:52:40.498801,1709124760.498801,-44.921875,-15.13671875,-39.55078125,-10.25390625,1.0,0.0,0.0,0.0,7.m4v,10.0
2024-02-28 13:52:40.502706,1709124760.5027063,-43.45703125,-27.34375,-33.203125,-19.53125,1.0,0.0,0.0,0.0,7.m4v,10.0
2024-02-28 13:52:40.506612,1709124760.5066116,-42.48046875,-24.90234375,-39.55078125,-16.11328125,1.0,0.0,0.0,0.0,7.m4v,10.0
2024-02-28 13:52:40.510517,1709124760.5105171,-42.96875,-32.71484375,-50.29296875,-20.5078125,1.0,0.0,0.0,0.0,7.m4v,10.0
2024-02-28 13:52:40.514422,1709124760.5144224,-51.7578125,-37.59765625,-35.15625,-25.390625,1.0,0.0,0.0,0.0,7.m4v,10.0
2024-02-28 13:52:40.518328,1709124760.5183277,-50.78125,-40.52734375,-30.2734375,-21.97265625,1.0,0.0,0.0,0.0,7.m4v,10.0
2024-02-28 13:52:40.522233,1709124760.522233,-41.9921875,-37.109375,-34.1796875,-6.8359375,1.0,0.0,0.0,0.0,7.m4v,10.0
2024-02-28 13:52:40.526138,1709124760.5261383,-53.7109375,-22.4609375,-29.78515625,-3.90625,1.0,0.0,0.0,0.0,7.m4v,10.0
2024-02-28 13:52:40.530044,1709124760.5300436,-59.5703125,-36.62109375,-35.15625,-20.99609375,1.0,0.0,0.0,0.0,7.m4v,10.0
2024-02-28 13:52:40.533949,1709124760.533949,-51.7578125,-39.0625,-33.69140625,-23.4375,1.0,0.0,0.0,0.0,7.m4v,10.0
2024-02-28 13:52:40.537861,1709124760.537861,-51.26953125,-33.69140625,-24.90234375,-8.30078125,1.0,0.0,0.0,0.0,7.m4v,10.0
2024-02-28 13:52:40.541767,1709124760.5417666,-56.15234375,-30.76171875,-26.85546875,-13.18359375,1.0,0.0,0.0,0.0,7.m4v,10.0
2024-02-28 13:52:40.545672,1709124760.545672,-54.19921875,-31.73828125,-30.2734375,-27.34375,1.0,0.0,0.0,0.0,7.m4v,10.0
2024-02-28 13:52:40.549577,1709124760.5495772,-49.8046875,-33.203125,-30.2734375,-23.92578125,1.0,0.0,0.0,0.0,7.m4v,10.0
2024-02-28 13:52:40.553483,1709124760.5534823,-46.38671875,-36.62109375,-32.71484375,-21.97265625,1.0,0.0,0.0,0.0,7.m4v,10.0
2024-02-28 13:52:40.557388,1709124760.5573878,-25.390625,-33.203125,-43.45703125,-10.7421875,1.0,0.0,0.0,0.0,7.m4v,10.0
2024-02-28 13:52:40.561293,1709124760.5612934,-9.27734375,-32.71484375,-44.43359375,-4.8828125,1.0,0.0,0.0,0.0,7.m4v,10.0
2024-02-28 13:52:40.565199,1709124760.565199,-21.484375,-52.734375,-34.66796875,-20.99609375,1.0,0.0,0.0,0.0,7.m4v,10.0
2024-02-28 13:52:40.569104,1709124760.569104,-45.41015625,-54.19921875,-38.57421875,-37.59765625,1.0,0.0,0.0,0.0,7.m4v,10.0
2024-02-28 13:52:40.573009,1709124760.5730093,-53.22265625,-36.1328125,-42.48046875,-46.875,1.0,0.0,0.0,0.0,7.m4v,10.0
2024-02-28 13:52:40.576915,1709124760.5769143,-41.9921875,-34.66796875,-42.96875,-41.015625,1.0,0.0,0.0,0.0,7.m4v,10.0
2024-02-28 13:52:40.580820,1709124760.5808198,-30.76171875,-36.62109375,-43.45703125,-36.62109375,1.0,0.0,0.0,0.0,7.m4v,10.0
2024-02-28 13:52:40.584732,1709124760.5847323,-36.62109375,-40.0390625,-27.34375,-36.1328125,1.0,0.0,0.0,0.0,7.m4v,10.0
2024-02-28 13:52:40.588638,1709124760.5886376,-41.9921875,-35.15625,-18.06640625,-39.55078125,1.0,0.0,0.0,0.0,7.m4v,10.0
2024-02-28 13:52:40.592543,1709124760.592543,-38.57421875,-33.69140625,-19.04296875,-35.64453125,1.0,0.0,0.0,0.0,7.m4v,10.0
2024-02-28 13:52:40.596448,1709124760.5964482,-41.9921875,-31.73828125,-31.73828125,-37.59765625,1.0,0.0,0.0,0.0,7.m4v,10.0
2024-02-28 13:52:40.600353,1709124760.6003537,-21.97265625,-26.3671875,-44.921875,-51.7578125,1.0,0.0,0.0,0.0,7.m4v,10.0
2024-02-28 13:52:40.604259,1709124760.6042588,-1.953125,-29.78515625,-34.1796875,-43.45703125,1.0,0.0,0.0,0.0,7.m4v,10.0
2024-02-28 13:52:40.608164,1709124760.608164,1.46484375,-41.015625,-31.73828125,-28.3203125,1.0,0.0,0.0,0.0,7.m4v,10.0
2024-02-28 13:52:40.612070,1709124760.6120696,-0.48828125,-51.26953125,-42.96875,-24.90234375,1.0,0.0,0.0,0.0,7.m4v,10.0
2024-02-28 13:52:40.615975,1709124760.615975,-14.6484375,-31.73828125,-43.45703125,-31.25,1.0,0.0,0.0,0.0,7.m4v,10.0
2024-02-28 13:52:40.619880,1709124760.6198802,-21.97265625,-38.57421875,-35.15625,-27.83203125,1.0,0.0,0.0,0.0,7.m4v,10.0
2024-02-28 13:52:40.623785,1709124760.6237855,-22.94921875,-37.59765625,-28.80859375,-27.83203125,1.0,0.0,0.0,0.0,7.m4v,10.0
2024-02-28 13:52:40.627691,1709124760.6276908,-15.13671875,-17.08984375,-24.4140625,-33.69140625,1.0,0.0,0.0,0.0,7.m4v,10.0
2024-02-28 13:52:40.631603,1709124760.6316023,-12.6953125,-23.4375,-27.34375,-24.4140625,1.0,0.0,0.0,0.0,7.m4v,10.0
2024-02-28 13:52:40.635508,1709124760.635508,-18.06640625,-28.80859375,-33.203125,-16.11328125,1.0,0.0,0.0,0.0,7.m4v,10.0
2024-02-28 13:52:40.639413,1709124760.6394134,-7.32421875,-40.52734375,-34.1796875,-16.11328125,1.0,0.0,0.0,0.0,7.m4v,10.0
2024-02-28 13:52:40.643319,1709124760.643319,-10.25390625,-34.1796875,-30.2734375,-19.53125,1.0,0.0,0.0,0.0,7.m4v,10.0
2024-02-28 13:52:40.647224,1709124760.647224,-11.71875,-17.08984375,-26.85546875,-22.4609375,1.0,0.0,0.0,0.0,7.m4v,10.0
2024-02-28 13:52:40.651129,1709124760.6511292,-12.6953125,-21.484375,-48.828125,-30.76171875,1.0,0.0,0.0,0.0,7.m4v,10.0
2024-02-28 13:52:40.655035,1709124760.6550343,-18.06640625,-35.15625,-47.8515625,-33.69140625,1.0,0.0,0.0,0.0,7.m4v,10.0
2024-02-28 13:52:40.658940,1709124760.6589398,-8.30078125,-47.8515625,-32.71484375,-20.5078125,1.0,0.0,0.0,0.0,7.m4v,10.0
2024-02-28 13:52:40.662845,1709124760.6628451,-1.953125,-41.50390625,-38.57421875,-27.34375,1.0,0.0,0.0,0.0,7.m4v,10.0
2024-02-28 13:52:40.666750,1709124760.6667504,1.953125,-37.59765625,-44.43359375,-39.0625,1.0,0.0,0.0,0.0,7.m4v,10.0
2024-02-28 13:52:40.670656,1709124760.6706555,13.18359375,-34.66796875,-45.8984375,-38.57421875,1.0,0.0,0.0,0.0,7.m4v,10.0
2024-02-28 13:52:40.674561,1709124760.674561,17.578125,-25.87890625,-30.2734375,-17.08984375,1.0,0.0,0.0,0.0,7.m4v,10.0
2024-02-28 13:52:40.678473,1709124760.6784728,11.71875,-31.73828125,-27.83203125,-7.8125,1.0,0.0,0.0,0.0,7.m4v,10.0
2024-02-28 13:52:40.682378,1709124760.682378,9.765625,-42.96875,-39.0625,-26.85546875,1.0,0.0,0.0,0.0,7.m4v,10.0
2024-02-28 13:52:40.686283,1709124760.686283,18.5546875,-46.38671875,-35.15625,-26.3671875,1.0,0.0,0.0,0.0,7.m4v,10.0
2024-02-28 13:52:40.690189,1709124760.6901886,18.5546875,-24.90234375,-34.1796875,-26.3671875,1.0,0.0,0.0,0.0,7.m4v,10.0
2024-02-28 13:52:40.694094,1709124760.694094,-0.48828125,-30.2734375,-45.41015625,-44.43359375,1.0,0.0,0.0,0.0,7.m4v,10.0
2024-02-28 13:52:40.697999,1709124760.6979992,2.44140625,-44.921875,-32.71484375,-45.41015625,1.0,0.0,0.0,0.0,7.m4v,10.0
2024-02-28 13:52:40.701905,1709124760.7019043,19.04296875,-36.1328125,-20.01953125,-33.203125,1.0,0.0,0.0,0.0,7.m4v,10.0
2024-02-28 13:52:40.705810,1709124760.7058098,21.97265625,-26.3671875,-28.80859375,-39.55078125,1.0,0.0,0.0,0.0,7.m4v,10.0
2024-02-28 13:52:40.709715,1709124760.7097154,24.4140625,-22.4609375,-31.25,-40.52734375,1.0,0.0,0.0,0.0,7.m4v,10.0
2024-02-28 13:52:40.713621,1709124760.713621,28.3203125,-33.69140625,-31.25,-35.15625,1.0,0.0,0.0,0.0,7.m4v,10.0
2024-02-28 13:52:40.717526,1709124760.717526,34.1796875,-38.0859375,-34.1796875,-33.69140625,1.0,0.0,0.0,0.0,7.m4v,10.0
2024-02-28 13:52:40.721431,1709124760.7214313,20.5078125,-39.0625,-38.57421875,-46.38671875,1.0,0.0,0.0,0.0,7.m4v,10.0
2024-02-28 13:52:40.725343,1709124760.7253428,17.08984375,-33.203125,-41.50390625,-59.5703125,1.0,0.0,0.0,0.0,7.m4v,10.0
2024-02-28 13:52:40.729248,1709124760.729248,28.80859375,-25.87890625,-42.96875,-51.7578125,1.0,0.0,0.0,0.0,7.m4v,10.0
2024-02-28 13:52:40.733153,1709124760.733153,39.55078125,-49.31640625,-45.8984375,-50.29296875,1.0,0.0,0.0,0.0,7.m4v,10.0
2024-02-28 13:52:40.737059,1709124760.7370586,49.8046875,-71.2890625,-32.2265625,-45.41015625,1.0,0.0,0.0,0.0,7.m4v,10.0
2024-02-28 13:52:40.740964,1709124760.740964,44.43359375,-32.71484375,-40.52734375,-47.36328125,1.0,0.0,0.0,0.0,7.m4v,10.0
2024-02-28 13:52:40.744869,1709124760.7448692,30.76171875,-12.20703125,-56.15234375,-65.4296875,1.0,0.0,0.0,0.0,7.m4v,10.0
2024-02-28 13:52:40.748775,1709124760.7487743,24.4140625,-17.08984375,-41.9921875,-77.1484375,1.0,0.0,0.0,0.0,7.m4v,10.0
2024-02-28 13:52:40.752680,1709124760.7526798,23.92578125,-13.671875,-25.390625,-66.40625,1.0,0.0,0.0,0.0,7.m4v,10.0
2024-02-28 13:52:40.756585,1709124760.7565851,-1.46484375,-25.390625,-36.62109375,-61.03515625,1.0,0.0,0.0,0.0,7.m4v,10.0
2024-02-28 13:52:40.760491,1709124760.760491,-19.53125,-37.109375,-52.24609375,-62.01171875,1.0,0.0,0.0,0.0,7.m4v,10.0
2024-02-28 13:52:40.764396,1709124760.764396,-15.625,-39.55078125,-44.921875,-55.6640625,1.0,0.0,0.0,0.0,7.m4v,10.0
2024-02-28 13:52:40.768301,1709124760.7683012,-20.01953125,-37.59765625,-40.0390625,-55.17578125,1.0,0.0,0.0,0.0,7.m4v,10.0
2024-02-28 13:52:40.772214,1709124760.7722144,-2.9296875,-30.76171875,-36.1328125,-52.734375,1.0,0.0,0.0,0.0,7.m4v,10.0
2024-02-28 13:52:40.776120,1709124760.7761197,9.765625,-32.2265625,-28.3203125,-45.41015625,1.0,0.0,0.0,0.0,7.m4v,10.0
2024-02-28 13:52:40.780025,1709124760.780025,-4.39453125,-42.96875,-34.1796875,-54.19921875,1.0,0.0,0.0,0.0,7.m4v,10.0
2024-02-28 13:52:40.783930,1709124760.7839303,1.46484375,-50.78125,-46.875,-63.4765625,1.0,0.0,0.0,0.0,7.m4v,10.0
2024-02-28 13:52:40.787836,1709124760.7878356,21.97265625,-42.48046875,-38.57421875,-64.453125,1.0,0.0,0.0,0.0,7.m4v,10.0
2024-02-28 13:52:40.791741,1709124760.7917411,27.34375,-30.2734375,-22.94921875,-69.82421875,1.0,0.0,0.0,0.0,7.m4v,10.0
2024-02-28 13:52:40.795646,1709124760.7956464,39.0625,-25.87890625,-27.83203125,-70.80078125,1.0,0.0,0.0,0.0,7.m4v,10.0
2024-02-28 13:52:40.799552,1709124760.7995515,52.734375,-31.25,-34.1796875,-65.4296875,1.0,0.0,0.0,0.0,7.m4v,10.0
2024-02-28 13:52:40.803457,1709124760.803457,57.12890625,-32.2265625,-35.15625,-59.08203125,1.0,0.0,0.0,0.0,7.m4v,10.0
2024-02-28 13:52:40.807362,1709124760.8073623,52.24609375,-27.34375,-34.66796875,-59.5703125,1.0,0.0,0.0,0.0,7.m4v,10.0
2024-02-28 13:52:40.811268,1709124760.8112676,44.921875,-24.90234375,-43.45703125,-64.94140625,1.0,0.0,0.0,0.0,7.m4v,10.0
2024-02-28 13:52:40.815173,1709124760.815173,40.0390625,-30.2734375,-56.640625,-79.1015625,1.0,0.0,0.0,0.0,7.m4v,10.0
2024-02-28 13:52:40.819086,1709124760.8190858,39.55078125,-28.80859375,-44.921875,-81.54296875,1.0,0.0,0.0,0.0,7.m4v,10.0
2024-02-28 13:52:40.842518,1709124760.8425176,6.8359375,-30.76171875,-50.78125,-137.6953125,1.0,0.0,0.0,0.0,7.m4v,10.0
2024-02-28 13:52:40.846423,1709124760.846423,-29.296875,-29.78515625,-40.0390625,-142.578125,1.0,0.0,0.0,0.0,7.m4v,10.0
2024-02-28 13:52:40.850328,1709124760.8503282,-54.19921875,-32.2265625,-36.1328125,-158.69140625,1.0,0.0,0.0,0.0,7.m4v,10.0
2024-02-28 13:52:40.854234,1709124760.8542335,-66.89453125,-23.4375,-40.52734375,-179.6875,1.0,0.0,0.0,0.0,7.m4v,10.0
2024-02-28 13:52:40.858139,1709124760.858139,-76.171875,-10.7421875,-29.78515625,-185.05859375,1.0,0.0,0.0,0.0,7.m4v,10.0
2024-02-28 13:52:40.862044,1709124760.8620443,-83.0078125,-9.765625,-29.78515625,-180.6640625,1.0,0.0,0.0,0.0,7.m4v,10.0
2024-02-28 13:52:40.865957,1709124760.8659568,-99.609375,-34.66796875,-35.64453125,-184.08203125,1.0,0.0,0.0,0.0,7.m4v,10.0
2024-02-28 13:52:40.869862,1709124760.869862,-117.67578125,-27.34375,-44.43359375,-193.84765625,1.0,0.0,0.0,0.0,7.m4v,10.0
2024-02-28 13:52:40.873767,1709124760.8737674,-129.8828125,-11.71875,-44.921875,-202.63671875,1.0,0.0,0.0,0.0,7.m4v,10.0
2024-02-28 13:52:40.877673,1709124760.877673,-105.95703125,-19.04296875,-32.2265625,-185.546875,1.0,0.0,0.0,0.0,7.m4v,10.0
2024-02-28 13:52:40.881578,1709124760.8815782,-99.12109375,-23.4375,-24.4140625,-163.0859375,1.0,0.0,0.0,0.0,7.m4v,10.0
2024-02-28 13:52:40.885484,1709124760.8854835,-110.3515625,-25.87890625,-31.25,-159.66796875,1.0,0.0,0.0,0.0,7.m4v,10.0
2024-02-28 13:52:40.889389,1709124760.8893888,-101.07421875,-21.97265625,-40.0390625,-162.109375,1.0,0.0,0.0,0.0,7.m4v,10.0
2024-02-28 13:52:40.893294,1709124760.893294,-79.58984375,-30.76171875,-36.1328125,-158.203125,1.0,0.0,0.0,0.0,7.m4v,10.0
2024-02-28 13:52:40.897199,1709124760.8971994,-71.77734375,-37.109375,-43.9453125,-157.71484375,1.0,0.0,0.0,0.0,7.m4v,10.0
2024-02-28 13:52:40.901105,1709124760.9011047,-84.47265625,-33.203125,-49.31640625,-146.97265625,1.0,0.0,0.0,0.0,7.m4v,10.0
2024-02-28 13:52:40.905010,1709124760.90501,-85.44921875,-27.83203125,-55.17578125,-125.9765625,1.0,0.0,0.0,0.0,7.m4v,10.0
2024-02-28 13:52:40.908915,1709124760.9089153,-76.66015625,-24.90234375,-63.4765625,-111.81640625,1.0,0.0,0.0,0.0,7.m4v,10.0
2024-02-28 13:52:40.912828,1709124760.9128275,-82.51953125,-32.2265625,-44.43359375,-104.4921875,1.0,0.0,0.0,0.0,7.m4v,10.0
2024-02-28 13:52:40.916733,1709124760.916733,-63.96484375,-41.9921875,-30.76171875,-99.12109375,1.0,0.0,0.0,0.0,7.m4v,10.0
2024-02-28 13:52:40.920638,1709124760.9206383,20.5078125,-35.15625,-36.1328125,-75.1953125,1.0,0.0,0.0,0.0,7.m4v,10.0
2024-02-28 13:52:40.924544,1709124760.9245436,44.921875,-32.2265625,-37.109375,-60.546875,1.0,0.0,0.0,0.0,7.m4v,10.0
2024-02-28 13:52:40.928449,1709124760.928449,-4.8828125,-42.48046875,-29.296875,-60.05859375,1.0,0.0,0.0,0.0,7.m4v,10.0
2024-02-28 13:52:40.932354,1709124760.9323542,40.52734375,-28.3203125,-33.203125,-52.734375,1.0,0.0,0.0,0.0,7.m4v,10.0
2024-02-28 13:52:40.936260,1709124760.9362595,71.2890625,-16.6015625,-33.69140625,-48.33984375,1.0,0.0,0.0,0.0,7.m4v,10.0
2024-02-28 13:52:40.940165,1709124760.9401648,32.2265625,-23.92578125,-38.57421875,-44.921875,1.0,0.0,0.0,0.0,7.m4v,10.0
2024-02-28 13:52:40.944070,1709124760.94407,17.08984375,-33.69140625,-44.921875,-34.66796875,1.0,0.0,0.0,0.0,7.m4v,10.0
2024-02-28 13:52:40.947976,1709124760.9479756,45.8984375,-41.015625,-44.921875,-33.69140625,1.0,0.0,0.0,0.0,7.m4v,10.0
2024-02-28 13:52:40.951881,1709124760.951881,70.3125,-38.57421875,-36.1328125,-36.62109375,1.0,0.0,0.0,0.0,7.m4v,10.0
2024-02-28 13:52:40.955786,1709124760.9557862,92.28515625,-21.484375,-36.62109375,-35.15625,1.0,0.0,0.0,0.0,7.m4v,10.0
2024-02-28 13:52:40.959698,1709124760.9596984,112.79296875,-29.78515625,-46.875,-26.3671875,1.0,0.0,0.0,0.0,7.m4v,10.0
2024-02-28 13:52:40.963604,1709124760.9636035,122.0703125,-34.66796875,-37.109375,-20.01953125,1.0,0.0,0.0,0.0,7.m4v,10.0
2024-02-28 13:52:40.967509,1709124760.967509,110.83984375,-29.78515625,-34.1796875,-34.1796875,1.0,0.0,0.0,0.0,7.m4v,10.0
2024-02-28 13:52:40.971414,1709124760.9714143,97.65625,-32.71484375,-38.57421875,-46.38671875,1.0,0.0,0.0,0.0,7.m4v,10.0
2024-02-28 13:52:40.975320,1709124760.9753196,107.91015625,-26.85546875,-33.69140625,-55.6640625,1.0,0.0,0.0,0.0,7.m4v,10.0
2024-02-28 13:52:40.979225,1709124760.979225,107.91015625,-37.59765625,-37.109375,-52.734375,1.0,0.0,0.0,0.0,7.m4v,10.0
2024-02-28 13:52:40.983130,1709124760.9831302,28.80859375,-34.66796875,-54.6875,-44.43359375,1.0,0.0,0.0,0.0,7.m4v,10.0
2024-02-28 13:52:40.987036,1709124760.9870358,-45.8984375,-41.9921875,-53.22265625,-49.8046875,1.0,0.0,0.0,0.0,7.m4v,10.0
2024-02-28 13:52:40.990941,1709124760.990941,-29.78515625,-41.9921875,-42.96875,-61.03515625,1.0,0.0,0.0,0.0,7.m4v,10.0
2024-02-28 13:52:40.994846,1709124760.9948463,-58.10546875,-25.390625,-36.1328125,-53.22265625,1.0,0.0,0.0,0.0,7.m4v,10.0
2024-02-28 13:52:40.998752,1709124760.9987516,-89.35546875,-32.2265625,-34.66796875,-37.109375,1.0,0.0,0.0,0.0,7.m4v,10.0
2024-02-28 13:52:41.002657,1709124761.002657,-70.3125,-39.0625,-41.50390625,-43.9453125,1.0,0.0,0.0,0.0,7.m4v,10.0
2024-02-28 13:52:41.006569,1709124761.0065691,-60.05859375,-38.57421875,-33.203125,-54.19921875,1.0,0.0,0.0,0.0,7.m4v,10.0
2024-02-28 13:52:41.010474,1709124761.0104744,-37.59765625,-34.66796875,-21.97265625,-48.33984375,1.0,0.0,0.0,0.0,7.m4v,10.0
2024-02-28 13:52:41.014380,1709124761.0143795,-25.87890625,-35.15625,-22.4609375,-44.43359375,1.0,0.0,0.0,0.0,7.m4v,10.0
2024-02-28 13:52:41.018285,1709124761.018285,-20.5078125,-36.62109375,-23.4375,-46.38671875,1.0,0.0,0.0,0.0,7.m4v,10.0
2024-02-28 13:52:41.022190,1709124761.0221903,9.765625,-33.203125,-25.390625,-50.29296875,1.0,0.0,0.0,0.0,7.m4v,10.0
2024-02-28 13:52:41.026096,1709124761.026096,38.0859375,-39.0625,-29.296875,-60.546875,1.0,0.0,0.0,0.0,7.m4v,10.0
2024-02-28 13:52:41.030001,1709124761.0300012,56.640625,-43.9453125,-33.203125,-78.61328125,1.0,0.0,0.0,0.0,7.m4v,10.0
2024-02-28 13:52:41.033906,1709124761.0339065,91.796875,-32.71484375,-37.59765625,-99.12109375,1.0,0.0,0.0,0.0,7.m4v,10.0
2024-02-28 13:52:41.037812,1709124761.0378118,95.703125,-32.2265625,-39.0625,-91.796875,1.0,0.0,0.0,0.0,7.m4v,10.0
2024-02-28 13:52:41.041717,1709124761.041717,133.7890625,-38.0859375,-35.15625,-78.61328125,1.0,0.0,0.0,0.0,7.m4v,10.0
2024-02-28 13:52:41.045622,1709124761.0456223,167.96875,-33.69140625,-30.2734375,-89.84375,1.0,0.0,0.0,0.0,7.m4v,10.0
2024-02-28 13:52:41.049528,1709124761.0495276,178.7109375,-24.4140625,-34.1796875,-104.00390625,1.0,0.0,0.0,0.0,7.m4v,10.0
2024-02-28 13:52:41.053439,1709124761.0534394,226.07421875,-25.390625,-36.1328125,-111.81640625,1.0,0.0,0.0,0.0,7.m4v,10.0
2024-02-28 13:52:41.057345,1709124761.057345,196.77734375,-34.1796875,-36.62109375,-119.62890625,1.0,0.0,0.0,0.0,7.m4v,10.0
2024-02-28 13:52:41.061250,1709124761.06125,111.328125,-32.2265625,-35.64453125,-107.421875,1.0,0.0,0.0,0.0,7.m4v,10.0
2024-02-28 13:52:41.065155,1709124761.0651553,50.78125,-36.62109375,-40.52734375,-95.703125,1.0,0.0,0.0,0.0,7.m4v,10.0
2024-02-28 13:52:41.069061,1709124761.0690606,17.08984375,-53.22265625,-45.41015625,-84.47265625,1.0,0.0,0.0,0.0,7.m4v,10.0
2024-02-28 13:52:41.221389,1709124761.2213893,247.0703125,-37.109375,-13.671875,5.37109375,1.0,0.0,0.0,0.0,7.m4v,10.0
2024-02-28 13:52:41.225295,1709124761.2252946,216.796875,-38.0859375,-19.53125,1.953125,1.0,0.0,0.0,0.0,7.m4v,10.0
2024-02-28 13:52:41.229200,1709124761.2292,235.83984375,-35.64453125,-31.73828125,-11.71875,1.0,0.0,0.0,0.0,7.m4v,10.0
2024-02-28 13:52:41.233105,1709124761.2331052,271.97265625,-37.59765625,-29.78515625,-20.99609375,1.0,0.0,0.0,0.0,7.m4v,10.0
2024-02-28 13:52:41.237010,1709124761.2370105,289.0625,-42.96875,-25.87890625,-31.25,1.0,0.0,0.0,0.0,7.m4v,10.0
2024-02-28 13:52:41.240924,1709124761.2409236,276.3671875,-36.1328125,-28.3203125,-34.66796875,1.0,0.0,0.0,0.0,7.m4v,10.0
2024-02-28 13:52:41.244829,1709124761.244829,275.87890625,-41.50390625,-25.87890625,-40.52734375,1.0,0.0,0.0,0.0,7.m4v,10.0
2024-02-28 13:52:41.248734,1709124761.2487342,277.83203125,-42.48046875,-19.04296875,-39.55078125,1.0,0.0,0.0,0.0,7.m4v,10.0
2024-02-28 13:52:41.252640,1709124761.2526395,240.234375,-33.69140625,-26.3671875,-51.7578125,1.0,0.0,0.0,0.0,7.m4v,10.0
2024-02-28 13:52:41.256545,1709124761.2565448,239.2578125,-33.203125,-33.69140625,-62.98828125,1.0,0.0,0.0,0.0,7.m4v,10.0
2024-02-28 13:52:41.260450,1709124761.26045,283.69140625,-33.69140625,-29.78515625,-68.359375,1.0,0.0,0.0,0.0,7.m4v,10.0
2024-02-28 13:52:41.264355,1709124761.2643554,331.0546875,-40.52734375,-28.80859375,-80.56640625,1.0,0.0,0.0,0.0,7.m4v,10.0
2024-02-28 13:52:41.268261,1709124761.2682607,398.4375,-60.05859375,-28.3203125,-83.0078125,1.0,0.0,0.0,0.0,7.m4v,10.0
2024-02-28 13:52:41.272166,1709124761.272166,460.9375,-50.78125,-35.15625,-93.75,1.0,0.0,0.0,0.0,7.m4v,10.0
2024-02-28 13:52:41.276071,1709124761.2760713,472.65625,-22.4609375,-41.50390625,-94.7265625,1.0,0.0,0.0,0.0,7.m4v,10.0
2024-02-28 13:52:41.279977,1709124761.2799768,374.0234375,-31.25,-31.73828125,-83.0078125,1.0,0.0,0.0,0.0,7.m4v,10.0
2024-02-28 13:52:41.283882,1709124761.283882,291.015625,-49.31640625,-19.53125,-71.77734375,1.0,0.0,0.0,0.0,7.m4v,10.0
2024-02-28 13:52:41.287794,1709124761.2877944,300.78125,-41.015625,-21.97265625,-51.7578125,1.0,0.0,0.0,0.0,7.m4v,10.0
2024-02-28 13:52:41.291700,1709124761.2916996,297.8515625,-30.76171875,-39.0625,-47.8515625,1.0,0.0,0.0,0.0,7.m4v,10.0
2024-02-28 13:52:41.295605,1709124761.295605,334.47265625,-57.6171875,-25.87890625,-43.9453125,1.0,0.0,0.0,0.0,7.m4v,10.0
2024-02-28 13:52:41.299510,1709124761.2995102,333.0078125,-40.0390625,-15.13671875,-49.8046875,1.0,0.0,0.0,0.0,7.m4v,10.0
2024-02-28 13:52:41.303416,1709124761.3034158,314.94140625,-17.08984375,-25.87890625,-66.89453125,1.0,0.0,0.0,0.0,7.m4v,10.0
2024-02-28 13:52:41.307321,1709124761.307321,315.4296875,-24.4140625,-30.2734375,-69.82421875,1.0,0.0,0.0,0.0,7.m4v,10.0
2024-02-28 13:52:41.311226,1709124761.3112264,320.80078125,-35.64453125,-41.015625,-56.640625,1.0,0.0,0.0,0.0,7.m4v,10.0
2024-02-28 13:52:41.315132,1709124761.3151317,336.42578125,-53.22265625,-40.52734375,-45.41015625,1.0,0.0,0.0,0.0,7.m4v,10.0
2024-02-28 13:52:41.319037,1709124761.319037,326.66015625,-46.875,-32.71484375,-40.0390625,1.0,0.0,0.0,0.0,7.m4v,10.0
2024-02-28 13:52:41.322942,1709124761.3229425,326.66015625,-31.25,-30.2734375,-37.59765625,1.0,0.0,0.0,0.0,7.m4v,10.0
2024-02-28 13:52:41.326848,1709124761.3268476,315.4296875,-25.390625,-27.34375,-38.0859375,1.0,0.0,0.0,0.0,7.m4v,10.0
2024-02-28 13:52:41.330753,1709124761.3307528,281.73828125,-31.25,-23.92578125,-40.0390625,1.0,0.0,0.0,0.0,7.m4v,10.0
2024-02-28 13:52:41.334665,1709124761.334665,286.62109375,-40.52734375,-34.1796875,-50.78125,1.0,0.0,0.0,0.0,7.m4v,10.0
2024-02-28 13:52:41.338570,1709124761.3385704,298.33984375,-40.52734375,-38.57421875,-52.24609375,1.0,0.0,0.0,0.0,7.m4v,10.0
2024-02-28 13:52:41.342476,1709124761.3424757,295.8984375,-26.85546875,-33.69140625,-56.640625,1.0,0.0,0.0,0.0,7.m4v,10.0
2024-02-28 13:52:41.346381,1709124761.346381,335.44921875,-28.80859375,-34.1796875,-62.5,1.0,0.0,0.0,0.0,7.m4v,10.0
2024-02-28 13:52:41.350286,1709124761.3502862,350.5859375,-37.59765625,-33.69140625,-59.5703125,1.0,0.0,0.0,0.0,7.m4v,10.0
2024-02-28 13:52:41.354192,1709124761.3541915,323.2421875,-34.1796875,-35.15625,-53.7109375,1.0,0.0,0.0,0.0,7.m4v,10.0
2024-02-28 13:52:41.358097,1709124761.3580968,321.77734375,-34.66796875,-34.66796875,-58.10546875,1.0,0.0,0.0,0.0,7.m4v,10.0
2024-02-28 13:52:41.362002,1709124761.362002,317.3828125,-31.25,-42.48046875,-62.5,1.0,0.0,0.0,0.0,7.m4v,10.0
2024-02-28 13:52:41.365907,1709124761.3659074,250.9765625,-43.9453125,-47.8515625,-57.6171875,1.0,0.0,0.0,0.0,7.m4v,10.0
2024-02-28 13:52:41.369813,1709124761.3698127,208.984375,-57.6171875,-33.203125,-32.2265625,1.0,0.0,0.0,0.0,7.m4v,10.0
2024-02-28 13:52:41.373718,1709124761.373718,177.734375,-45.8984375,-32.71484375,-25.390625,1.0,0.0,0.0,0.0,7.m4v,10.0
2024-02-28 13:52:41.377624,1709124761.3776236,144.04296875,-33.203125,-29.296875,-49.31640625,1.0,0.0,0.0,0.0,7.m4v,10.0
2024-02-28 13:52:41.381536,1709124761.3815355,180.17578125,-21.484375,-31.73828125,-37.109375,1.0,0.0,0.0,0.0,7.m4v,10.0
2024-02-28 13:52:41.385441,1709124761.3854408,214.84375,-18.5546875,-44.921875,-27.83203125,1.0,0.0,0.0,0.0,7.m4v,10.0
2024-02-28 13:52:41.389346,1709124761.389346,188.96484375,-21.484375,-37.59765625,-54.19921875,1.0,0.0,0.0,0.0,7.m4v,10.0
2024-02-28 13:52:41.393251,1709124761.3932514,200.68359375,-29.296875,-26.3671875,-55.6640625,1.0,0.0,0.0,0.0,7.m4v,10.0
2024-02-28 13:52:41.397157,1709124761.3971567,225.09765625,-36.1328125,-26.85546875,-49.31640625,1.0,0.0,0.0,0.0,7.m4v,10.0
2024-02-28 13:52:41.401062,1709124761.401062,186.5234375,-25.87890625,-33.69140625,-49.31640625,1.0,0.0,0.0,0.0,7.m4v,10.0
2024-02-28 13:52:41.404967,1709124761.4049673,208.49609375,-44.43359375,-22.4609375,-44.43359375,1.0,0.0,0.0,0.0,7.m4v,10.0
2024-02-28 13:52:41.408873,1709124761.4088726,229.4921875,-28.80859375,-25.87890625,-59.5703125,1.0,0.0,0.0,0.0,7.m4v,10.0
2024-02-28 13:52:41.412778,1709124761.412778,202.1484375,-10.7421875,-33.203125,-55.6640625,1.0,0.0,0.0,0.0,7.m4v,10.0
2024-02-28 13:52:41.416683,1709124761.4166832,241.69921875,-29.296875,-35.64453125,-36.62109375,1.0,0.0,0.0,0.0,7.m4v,10.0
2024-02-28 13:52:41.420588,1709124761.4205885,251.46484375,-33.69140625,-36.1328125,-55.6640625,1.0,0.0,0.0,0.0,7.m4v,10.0
2024-02-28 13:52:41.424494,1709124761.4244938,232.421875,-33.203125,-34.1796875,-45.41015625,1.0,0.0,0.0,0.0,7.m4v,10.0
2024-02-28 13:52:41.428406,1709124761.428406,234.86328125,-42.48046875,-30.76171875,-16.11328125,1.0,0.0,0.0,0.0,7.m4v,10.0
2024-02-28 13:52:41.432311,1709124761.4323113,269.53125,-48.828125,-31.73828125,-14.6484375,1.0,0.0,0.0,0.0,7.m4v,10.0
2024-02-28 13:52:41.436217,1709124761.4362166,322.75390625,-26.85546875,-42.96875,-26.3671875,1.0,0.0,0.0,0.0,7.m4v,10.0
2024-02-28 13:52:41.440122,1709124761.440122,265.13671875,-10.25390625,-53.22265625,-10.7421875,1.0,0.0,0.0,0.0,7.m4v,10.0
2024-02-28 13:52:41.444027,1709124761.4440272,163.0859375,-15.625,-45.41015625,19.04296875,1.0,0.0,0.0,0.0,7.m4v,10.0
2024-02-28 13:52:41.447932,1709124761.4479325,122.0703125,-31.73828125,-29.78515625,15.13671875,1.0,0.0,0.0,0.0,7.m4v,10.0
2024-02-28 13:52:41.451838,1709124761.4518378,132.32421875,-38.0859375,-30.2734375,-4.8828125,1.0,0.0,0.0,0.0,7.m4v,10.0
2024-02-28 13:52:41.455743,1709124761.455743,121.09375,-30.76171875,-38.57421875,-2.44140625,1.0,0.0,0.0,0.0,7.m4v,10.0
2024-02-28 13:52:41.459649,1709124761.4596486,155.76171875,-32.71484375,-35.64453125,12.6953125,1.0,0.0,0.0,0.0,7.m4v,10.0
2024-02-28 13:52:41.463554,1709124761.463554,222.16796875,-21.97265625,-41.50390625,16.11328125,1.0,0.0,0.0,0.0,7.m4v,10.0
2024-02-28 13:52:41.467459,1709124761.4674592,205.078125,-15.625,-43.9453125,17.08984375,1.0,0.0,0.0,0.0,7.m4v,10.0
2024-02-28 13:52:41.471364,1709124761.4713645,205.078125,-48.33984375,-34.1796875,32.71484375,1.0,0.0,0.0,0.0,7.m4v,10.0
2024-02-28 13:52:41.475276,1709124761.4752758,234.86328125,-49.8046875,-31.25,34.1796875,1.0,0.0,0.0,0.0,7.m4v,10.0
2024-02-28 13:52:41.479181,1709124761.479181,218.75,-26.3671875,-42.48046875,13.18359375,1.0,0.0,0.0,0.0,7.m4v,10.0
2024-02-28 13:52:41.483086,1709124761.4830863,211.9140625,-15.625,-39.55078125,20.01953125,1.0,0.0,0.0,0.0,7.m4v,10.0
2024-02-28 13:52:41.486992,1709124761.4869916,245.1171875,-12.6953125,-39.0625,36.62109375,1.0,0.0,0.0,0.0,7.m4v,10.0
2024-02-28 13:52:41.490897,1709124761.4908972,245.1171875,-26.85546875,-33.203125,38.0859375,1.0,0.0,0.0,0.0,7.m4v,10.0
2024-02-28 13:52:41.494802,1709124761.4948025,243.1640625,-34.66796875,-41.9921875,39.0625,1.0,0.0,0.0,0.0,7.m4v,10.0
2024-02-28 13:52:41.502613,1709124761.502613,232.91015625,-35.15625,-39.55078125,50.78125,1.0,0.0,0.0,0.0,7.m4v,10.0
2024-02-28 13:52:41.506518,1709124761.5065184,254.39453125,-32.71484375,-37.59765625,45.8984375,1.0,0.0,0.0,0.0,7.m4v,10.0
2024-02-28 13:52:41.510424,1709124761.5104237,284.66796875,-24.4140625,-25.87890625,50.78125,1.0,0.0,0.0,0.0,7.m4v,10.0
2024-02-28 13:52:41.514329,1709124761.514329,287.59765625,-21.484375,-31.25,69.3359375,1.0,0.0,0.0,0.0,7.m4v,10.0
2024-02-28 13:52:41.518234,1709124761.5182345,298.33984375,-36.1328125,-42.48046875,61.03515625,1.0,0.0,0.0,0.0,7.m4v,10.0
2024-02-28 13:52:41.522147,1709124761.5221474,271.484375,-32.2265625,-44.43359375,43.45703125,1.0,0.0,0.0,0.0,7.m4v,10.0
2024-02-28 13:52:41.526053,1709124761.5260527,316.40625,-41.015625,-42.48046875,65.4296875,1.0,0.0,0.0,0.0,7.m4v,10.0
2024-02-28 13:52:41.529958,1709124761.529958,424.8046875,-57.12890625,-36.1328125,76.66015625,1.0,0.0,0.0,0.0,7.m4v,10.0
2024-02-28 13:52:41.533863,1709124761.5338633,365.72265625,-31.73828125,-36.1328125,43.45703125,1.0,0.0,0.0,0.0,7.m4v,10.0
2024-02-28 13:52:41.537769,1709124761.5377686,318.359375,-19.04296875,-51.26953125,43.45703125,1.0,0.0,0.0,0.0,7.m4v,10.0
2024-02-28 13:52:41.541674,1709124761.541674,306.640625,-31.25,-46.38671875,60.05859375,1.0,0.0,0.0,0.0,7.m4v,10.0
2024-02-28 13:52:41.545579,1709124761.5455792,271.484375,-30.76171875,-25.390625,61.5234375,1.0,0.0,0.0,0.0,7.m4v,10.0
2024-02-28 13:52:41.549484,1709124761.5494845,316.40625,-16.6015625,-39.55078125,80.56640625,1.0,0.0,0.0,0.0,7.m4v,10.0
2024-02-28 13:52:41.553390,1709124761.55339,345.703125,-25.87890625,-46.38671875,88.8671875,1.0,0.0,0.0,0.0,7.m4v,10.0
2024-02-28 13:52:41.557295,1709124761.557295,339.35546875,-39.0625,-37.59765625,72.75390625,1.0,0.0,0.0,0.0,7.m4v,10.0
2024-02-28 13:52:41.561201,1709124761.5612006,304.6875,-37.59765625,-25.87890625,59.08203125,1.0,0.0,0.0,0.0,7.m4v,10.0
2024-02-28 13:52:41.565106,1709124761.565106,294.921875,-36.1328125,-23.4375,57.12890625,1.0,0.0,0.0,0.0,7.m4v,10.0
2024-02-28 13:52:41.569019,1709124761.5690188,324.21875,-37.109375,-26.3671875,50.78125,1.0,0.0,0.0,0.0,7.m4v,10.0
2024-02-28 13:52:41.572924,1709124761.572924,312.5,-42.96875,-40.52734375,42.48046875,1.0,0.0,0.0,0.0,7.m4v,10.0
2024-02-28 13:52:41.576829,1709124761.5768294,321.77734375,-51.7578125,-49.31640625,59.5703125,1.0,0.0,0.0,0.0,7.m4v,10.0
2024-02-28 13:52:41.580735,1709124761.5807347,298.828125,-52.734375,-43.9453125,48.33984375,1.0,0.0,0.0,0.0,7.m4v,10.0
2024-02-28 13:52:41.713539,1709124761.713539,5.37109375,-9.765625,-41.015625,-113.76953125,1.0,0.0,0.0,0.0,7.m4v,10.0
2024-02-28 13:52:41.721350,1709124761.7213497,-3.90625,-31.73828125,-14.6484375,-68.359375,1.0,0.0,0.0,0.0,7.m4v,10.0
2024-02-28 13:52:41.725255,1709124761.725255,8.7890625,-50.29296875,-22.94921875,-73.73046875,1.0,0.0,0.0,0.0,7.m4v,10.0
2024-02-28 13:52:41.733066,1709124761.7330656,6.34765625,-16.11328125,-39.55078125,-68.84765625,1.0,0.0,0.0,0.0,7.m4v,10.0
2024-02-28 13:52:41.736971,1709124761.736971,25.87890625,-21.97265625,-41.015625,-73.2421875,1.0,0.0,0.0,0.0,7.m4v,10.0
2024-02-28 13:52:41.744781,1709124761.7447815,15.13671875,-34.1796875,-21.484375,-51.7578125,1.0,0.0,0.0,0.0,7.m4v,10.0
2024-02-28 13:52:41.752592,1709124761.752592,105.46875,-79.1015625,-26.85546875,-38.57421875,1.0,0.0,0.0,0.0,7.m4v,10.0
2024-02-28 13:52:41.756504,1709124761.756504,95.21484375,-57.6171875,-8.7890625,-43.45703125,1.0,0.0,0.0,0.0,7.m4v,10.0
2024-02-28 13:52:41.764315,1709124761.764315,100.09765625,-12.6953125,-48.828125,-92.7734375,1.0,0.0,0.0,0.0,7.m4v,10.0
2024-02-28 13:52:41.768220,1709124761.76822,41.015625,-66.40625,-30.2734375,-82.03125,1.0,0.0,0.0,0.0,7.m4v,10.0
2024-02-28 13:52:41.776031,1709124761.7760303,41.9921875,-2.9296875,-18.5546875,-61.5234375,1.0,0.0,0.0,0.0,7.m4v,10.0
2024-02-28 13:52:41.783841,1709124761.7838411,-13.18359375,-42.96875,-25.87890625,-38.57421875,1.0,0.0,0.0,0.0,7.m4v,10.0
2024-02-28 13:52:41.822901,1709124761.8229008,127.44140625,-22.94921875,-38.57421875,36.62109375,1.0,0.0,0.0,0.0,7.m4v,10.0
2024-02-28 13:52:41.826806,1709124761.826806,139.16015625,-37.59765625,-41.9921875,31.25,1.0,0.0,0.0,0.0,7.m4v,10.0
2024-02-28 13:52:41.830711,1709124761.8307114,142.08984375,-47.36328125,-45.41015625,40.0390625,1.0,0.0,0.0,0.0,7.m4v,10.0
2024-02-28 13:52:41.834617,1709124761.834617,175.78125,-43.45703125,-42.48046875,18.5546875,1.0,0.0,0.0,0.0,7.m4v,10.0
2024-02-28 13:52:41.838522,1709124761.8385222,194.3359375,-52.734375,-38.0859375,35.15625,1.0,0.0,0.0,0.0,7.m4v,10.0
2024-02-28 13:52:41.842427,1709124761.8424275,120.1171875,-60.05859375,-24.4140625,61.5234375,1.0,0.0,0.0,0.0,7.m4v,10.0
2024-02-28 13:52:41.846333,1709124761.8463328,76.66015625,-22.94921875,-27.83203125,51.26953125,1.0,0.0,0.0,0.0,7.m4v,10.0
2024-02-28 13:52:41.943987,1709124761.9439874,70.3125,-45.8984375,-23.4375,74.21875,1.0,0.0,0.0,0.0,7.m4v,10.0
2024-02-28 13:52:41.947893,1709124761.947893,27.34375,-43.45703125,-31.73828125,28.3203125,1.0,0.0,0.0,0.0,7.m4v,10.0
2024-02-28 13:52:41.951798,1709124761.951798,3.41796875,-29.78515625,-31.73828125,30.76171875,1.0,0.0,0.0,0.0,7.m4v,10.0
2024-02-28 13:52:41.955703,1709124761.9557033,29.296875,-21.484375,-29.78515625,51.7578125,1.0,0.0,0.0,0.0,7.m4v,10.0
2024-02-28 13:52:41.959609,1709124761.9596086,55.6640625,-43.9453125,-42.48046875,54.6875,1.0,0.0,0.0,0.0,7.m4v,10.0
2024-02-28 13:52:41.963514,1709124761.963514,62.5,-78.125,-24.90234375,43.45703125,1.0,0.0,0.0,0.0,7.m4v,10.0
2024-02-28 13:52:41.967419,1709124761.9674194,60.546875,-84.9609375,-5.859375,45.8984375,1.0,0.0,0.0,0.0,7.m4v,10.0
2024-02-28 13:52:41.971325,1709124761.9713247,59.5703125,-9.765625,-31.73828125,42.96875,1.0,0.0,0.0,0.0,7.m4v,10.0
2024-02-28 13:52:41.975230,1709124761.97523,61.03515625,24.4140625,-55.6640625,18.5546875,1.0,0.0,0.0,0.0,7.m4v,10.0
2024-02-28 13:52:41.979135,1709124761.9791353,83.984375,-27.83203125,-58.10546875,19.04296875,1.0,0.0,0.0,0.0,7.m4v,10.0
2024-02-28 13:52:41.983041,1709124761.9830406,87.40234375,-42.48046875,-42.96875,0.48828125,1.0,0.0,0.0,0.0,7.m4v,10.0
2024-02-28 13:52:41.986946,1709124761.986946,70.3125,-26.85546875,-28.3203125,-17.578125,1.0,0.0,0.0,0.0,7.m4v,10.0
2024-02-28 13:52:41.990860,1709124761.9908595,99.609375,-25.390625,-29.78515625,17.578125,1.0,0.0,0.0,0.0,7.m4v,10.0
2024-02-28 13:52:41.994765,1709124761.9947648,107.91015625,-37.59765625,-25.390625,14.16015625,1.0,0.0,0.0,0.0,7.m4v,10.0
2024-02-28 13:52:41.998670,1709124761.99867,108.88671875,-30.76171875,-40.52734375,-3.90625,1.0,0.0,0.0,0.0,7.m4v,10.0
2024-02-28 13:52:42.002575,1709124762.0025754,83.984375,-19.04296875,-42.96875,15.625,1.0,0.0,0.0,0.0,7.m4v,10.0
2024-02-28 13:52:42.006481,1709124762.0064807,23.92578125,-35.15625,-29.78515625,19.53125,1.0,0.0,0.0,0.0,7.m4v,10.0
2024-02-28 13:52:42.010386,1709124762.010386,-3.41796875,-47.36328125,-42.48046875,-17.08984375,1.0,0.0,0.0,0.0,7.m4v,10.0
2024-02-28 13:52:42.014291,1709124762.0142913,16.11328125,-30.76171875,-51.26953125,-22.94921875,1.0,0.0,0.0,0.0,7.m4v,10.0
2024-02-28 13:52:42.018197,1709124762.0181966,2.9296875,-31.73828125,-25.390625,-0.48828125,1.0,0.0,0.0,0.0,7.m4v,10.0
2024-02-28 13:52:42.022102,1709124762.022102,-10.7421875,-51.7578125,-16.11328125,6.8359375,1.0,0.0,0.0,0.0,7.m4v,10.0
2024-02-28 13:52:42.026007,1709124762.0260074,24.4140625,-54.19921875,-29.296875,-7.8125,1.0,0.0,0.0,0.0,7.m4v,10.0
2024-02-28 13:52:42.029913,1709124762.0299127,14.6484375,-26.3671875,-31.73828125,-3.90625,1.0,0.0,0.0,0.0,7.m4v,10.0
2024-02-28 13:52:42.033818,1709124762.033818,23.92578125,-25.390625,-33.69140625,-42.96875,1.0,0.0,0.0,0.0,7.m4v,10.0
2024-02-28 13:52:42.037730,1709124762.0377305,23.4375,-57.12890625,-28.80859375,-36.62109375,1.0,0.0,0.0,0.0,7.m4v,10.0
2024-02-28 13:52:42.041636,1709124762.0416358,26.3671875,-52.734375,-16.6015625,6.34765625,1.0,0.0,0.0,0.0,7.m4v,10.0
2024-02-28 13:52:42.045541,1709124762.045541,50.29296875,-42.96875,-32.71484375,4.39453125,1.0,0.0,0.0,0.0,7.m4v,10.0
2024-02-28 13:52:42.049446,1709124762.0494463,16.6015625,-22.4609375,-49.31640625,-3.90625,1.0,0.0,0.0,0.0,7.m4v,10.0
2024-02-28 13:52:42.053352,1709124762.0533516,11.23046875,-3.41796875,-38.57421875,-37.109375,1.0,0.0,0.0,0.0,7.m4v,10.0
2024-02-28 13:52:42.057257,1709124762.057257,23.92578125,-42.96875,-23.4375,-40.0390625,1.0,0.0,0.0,0.0,7.m4v,10.0
2024-02-28 13:52:42.061162,1709124762.0611622,13.671875,-60.05859375,-32.71484375,-29.78515625,1.0,0.0,0.0,0.0,7.m4v,10.0
2024-02-28 13:52:42.065068,1709124762.0650675,23.92578125,-14.16015625,-41.9921875,-53.22265625,1.0,0.0,0.0,0.0,7.m4v,10.0
2024-02-28 13:52:42.068973,1709124762.068973,1.46484375,-18.5546875,-32.71484375,-52.24609375,1.0,0.0,0.0,0.0,7.m4v,10.0
2024-02-28 13:52:42.072878,1709124762.0728784,-76.66015625,-45.41015625,-24.90234375,-19.53125,1.0,0.0,0.0,0.0,7.m4v,10.0
2024-02-28 13:52:42.076784,1709124762.0767837,-93.26171875,-34.1796875,-27.83203125,-5.859375,1.0,0.0,0.0,0.0,7.m4v,10.0
2024-02-28 13:52:42.080689,1709124762.080689,-57.6171875,-44.43359375,-33.69140625,-9.765625,1.0,0.0,0.0,0.0,7.m4v,10.0
2024-02-28 13:52:42.084601,1709124762.0846014,-23.92578125,-37.59765625,-44.43359375,0.0,1.0,0.0,0.0,0.0,7.m4v,10.0
2024-02-28 13:52:42.088507,1709124762.0885067,10.25390625,-52.734375,-34.66796875,11.23046875,1.0,0.0,0.0,0.0,7.m4v,10.0
2024-02-28 13:52:42.092412,1709124762.092412,-72.265625,-50.29296875,-11.23046875,-4.39453125,1.0,0.0,0.0,0.0,7.m4v,10.0
2024-02-28 13:52:42.096317,1709124762.0963173,-150.390625,10.7421875,-15.13671875,-4.39453125,1.0,0.0,0.0,0.0,7.m4v,10.0
2024-02-28 13:52:42.100223,1709124762.1002226,-121.58203125,-13.671875,-33.69140625,-16.6015625,1.0,0.0,0.0,0.0,7.m4v,10.0
2024-02-28 13:52:42.104128,1709124762.104128,-96.6796875,-19.53125,-47.8515625,-57.12890625,1.0,0.0,0.0,0.0,7.m4v,10.0
2024-02-28 13:52:42.108033,1709124762.1080334,-73.73046875,-12.6953125,-40.52734375,-25.87890625,1.0,0.0,0.0,0.0,7.m4v,10.0
2024-02-28 13:52:42.111939,1709124762.1119387,-29.296875,-30.76171875,-47.8515625,16.11328125,1.0,0.0,0.0,0.0,7.m4v,10.0
2024-02-28 13:52:42.115844,1709124762.115844,-30.76171875,-50.29296875,-43.9453125,-11.71875,1.0,0.0,0.0,0.0,7.m4v,10.0
2024-02-28 13:52:42.119749,1709124762.1197493,-25.390625,-26.85546875,-58.59375,-8.7890625,1.0,0.0,0.0,0.0,7.m4v,10.0
2024-02-28 13:52:42.123655,1709124762.1236546,-17.08984375,-18.5546875,-55.6640625,-15.13671875,1.0,0.0,0.0,0.0,7.m4v,10.0
2024-02-28 13:52:42.127560,1709124762.12756,-55.6640625,-19.04296875,-25.390625,-21.484375,1.0,0.0,0.0,0.0,7.m4v,10.0
2024-02-28 13:52:42.131472,1709124762.131472,-46.875,-57.6171875,-25.87890625,-42.48046875,1.0,0.0,0.0,0.0,7.m4v,10.0
2024-02-28 13:52:42.135377,1709124762.1353772,3.41796875,-52.24609375,-46.875,-47.8515625,1.0,0.0,0.0,0.0,7.m4v,10.0
2024-02-28 13:52:42.139282,1709124762.1392825,-19.04296875,13.18359375,-55.6640625,-45.41015625,1.0,0.0,0.0,0.0,7.m4v,10.0
2024-02-28 13:52:42.143188,1709124762.1431878,4.8828125,-41.50390625,-35.64453125,-19.53125,1.0,0.0,0.0,0.0,7.m4v,10.0
2024-02-28 13:52:42.147093,1709124762.147093,25.87890625,-34.1796875,-47.36328125,-10.7421875,1.0,0.0,0.0,0.0,7.m4v,10.0
2024-02-28 13:52:42.150998,1709124762.1509984,7.32421875,12.20703125,-55.17578125,-53.22265625,1.0,0.0,0.0,0.0,7.m4v,10.0
2024-02-28 13:52:42.154904,1709124762.1549037,20.5078125,-23.4375,-31.25,-30.76171875,1.0,0.0,0.0,0.0,7.m4v,10.0
2024-02-28 13:52:42.158809,1709124762.158809,18.5546875,-24.4140625,-37.59765625,-15.625,1.0,0.0,0.0,0.0,7.m4v,10.0
2024-02-28 13:52:42.162714,1709124762.1627142,17.08984375,-18.5546875,-40.0390625,-20.5078125,1.0,0.0,0.0,0.0,7.m4v,10.0
2024-02-28 13:52:42.166620,1709124762.1666198,-28.3203125,-44.921875,-22.4609375,-19.53125,1.0,0.0,0.0,0.0,7.m4v,10.0
2024-02-28 13:52:42.170525,1709124762.170525,-45.8984375,-43.45703125,-32.2265625,0.48828125,1.0,0.0,0.0,0.0,7.m4v,10.0
2024-02-28 13:52:42.174430,1709124762.1744304,-28.80859375,-37.109375,-48.33984375,3.90625,1.0,0.0,0.0,0.0,7.m4v,10.0
2024-02-28 13:52:42.178342,1709124762.178342,-61.5234375,-38.0859375,-50.29296875,-36.62109375,1.0,0.0,0.0,0.0,7.m4v,10.0
2024-02-28 13:52:42.182247,1709124762.1822472,-70.80078125,-19.53125,-30.76171875,-47.8515625,1.0,0.0,0.0,0.0,7.m4v,10.0
2024-02-28 13:52:42.186152,1709124762.1861525,-44.43359375,-2.44140625,-26.3671875,-33.203125,1.0,0.0,0.0,0.0,7.m4v,10.0
2024-02-28 13:52:42.190058,1709124762.1900578,-33.203125,-12.6953125,-29.78515625,-44.43359375,1.0,0.0,0.0,0.0,7.m4v,10.0
2024-02-28 13:52:42.193963,1709124762.193963,-22.94921875,-27.83203125,-31.25,-40.52734375,1.0,0.0,0.0,0.0,7.m4v,10.0
2024-02-28 13:52:42.197869,1709124762.1978686,-21.484375,-42.48046875,-24.90234375,-33.69140625,1.0,0.0,0.0,0.0,7.m4v,10.0
2024-02-28 13:52:42.201774,1709124762.201774,-30.76171875,-32.71484375,-38.0859375,-56.640625,1.0,0.0,0.0,0.0,7.m4v,10.0
2024-02-28 13:52:42.205679,1709124762.2056792,-30.76171875,-26.85546875,-40.0390625,-62.98828125,1.0,0.0,0.0,0.0,7.m4v,10.0
2024-02-28 13:52:42.209584,1709124762.2095845,-33.69140625,-14.16015625,-25.87890625,-60.05859375,1.0,0.0,0.0,0.0,7.m4v,10.0
2024-02-28 13:52:42.213490,1709124762.2134898,-62.01171875,-37.59765625,-34.1796875,-84.9609375,1.0,0.0,0.0,0.0,7.m4v,10.0
2024-02-28 13:52:42.217395,1709124762.217395,-73.2421875,-75.68359375,-24.90234375,-120.60546875,1.0,0.0,0.0,0.0,7.m4v,10.0
2024-02-28 13:52:42.221300,1709124762.2213004,-89.84375,-31.73828125,-34.1796875,-144.04296875,1.0,0.0,0.0,0.0,7.m4v,10.0
2024-02-28 13:52:42.225212,1709124762.225212,-121.58203125,-1.46484375,-33.69140625,-155.76171875,1.0,0.0,0.0,0.0,7.m4v,10.0
2024-02-28 13:52:42.229117,1709124762.2291172,-130.37109375,-1.46484375,-26.85546875,-174.31640625,1.0,0.0,0.0,0.0,7.m4v,10.0
2024-02-28 13:52:42.233022,1709124762.2330225,-165.0390625,-7.8125,-29.296875,-181.15234375,1.0,0.0,0.0,0.0,7.m4v,10.0
2024-02-28 13:52:42.236928,1709124762.2369275,-124.0234375,-50.78125,-23.4375,-184.08203125,1.0,0.0,0.0,0.0,7.m4v,10.0
2024-02-28 13:52:42.240833,1709124762.240833,-63.4765625,-53.7109375,-44.921875,-221.6796875,1.0,0.0,0.0,0.0,7.m4v,10.0
2024-02-28 13:52:42.244738,1709124762.2447383,-133.30078125,-47.36328125,-37.59765625,-223.6328125,1.0,0.0,0.0,0.0,7.m4v,10.0
2024-02-28 13:52:42.248644,1709124762.248644,-210.9375,-76.171875,-42.96875,-174.31640625,1.0,0.0,0.0,0.0,7.m4v,10.0
2024-02-28 13:52:42.252549,1709124762.2525492,-221.6796875,-15.625,-37.109375,-178.22265625,1.0,0.0,0.0,0.0,7.m4v,10.0
2024-02-28 13:52:42.256454,1709124762.2564545,-175.29296875,20.5078125,-13.671875,-191.40625,1.0,0.0,0.0,0.0,7.m4v,10.0
2024-02-28 13:52:42.260360,1709124762.2603598,-161.62109375,6.8359375,-19.53125,-175.29296875,1.0,0.0,0.0,0.0,7.m4v,10.0
2024-02-28 13:52:42.264265,1709124762.264265,-157.2265625,-13.671875,-25.390625,-173.33984375,1.0,0.0,0.0,0.0,7.m4v,10.0
2024-02-28 13:52:42.268170,1709124762.2681704,-110.83984375,-43.45703125,-21.484375,-150.390625,1.0,0.0,0.0,0.0,7.m4v,10.0
2024-02-28 13:52:42.272084,1709124762.2720835,-99.12109375,-34.66796875,-28.3203125,-108.88671875,1.0,0.0,0.0,0.0,7.m4v,10.0
2024-02-28 13:52:42.275989,1709124762.2759888,-97.16796875,-24.4140625,-33.69140625,-88.37890625,1.0,0.0,0.0,0.0,7.m4v,10.0
2024-02-28 13:52:42.279894,1709124762.279894,-60.05859375,-40.0390625,-20.99609375,-103.515625,1.0,0.0,0.0,0.0,7.m4v,10.0
2024-02-28 13:52:42.283799,1709124762.2837994,-41.9921875,-71.77734375,-33.69140625,-78.61328125,1.0,0.0,0.0,0.0,7.m4v,10.0
2024-02-28 13:52:42.287705,1709124762.2877047,-26.85546875,-66.89453125,-28.80859375,-28.80859375,1.0,0.0,0.0,0.0,7.m4v,10.0
2024-02-28 13:52:42.291610,1709124762.29161,-25.87890625,-39.55078125,-20.01953125,-23.92578125,1.0,0.0,0.0,0.0,7.m4v,10.0
2024-02-28 13:52:42.295516,1709124762.2955155,-50.29296875,-41.015625,-37.109375,-30.76171875,1.0,0.0,0.0,0.0,7.m4v,10.0
2024-02-28 13:52:42.299421,1709124762.2994208,-8.30078125,-31.73828125,-33.203125,-30.2734375,1.0,0.0,0.0,0.0,7.m4v,10.0
2024-02-28 13:52:42.303326,1709124762.303326,37.59765625,-13.671875,-21.97265625,-10.25390625,1.0,0.0,0.0,0.0,7.m4v,10.0
2024-02-28 13:52:42.307231,1709124762.3072314,29.296875,-29.78515625,-13.671875,1.46484375,1.0,0.0,0.0,0.0,7.m4v,10.0
2024-02-28 13:52:42.311137,1709124762.3111367,22.94921875,-33.69140625,-31.25,-7.32421875,1.0,0.0,0.0,0.0,7.m4v,10.0
2024-02-28 13:52:42.315042,1709124762.315042,-23.92578125,-15.13671875,-44.43359375,-46.38671875,1.0,0.0,0.0,0.0,7.m4v,10.0
2024-02-28 13:52:42.318957,1709124762.3189566,-13.671875,-52.24609375,-32.2265625,-6.34765625,1.0,0.0,0.0,0.0,7.m4v,10.0
2024-02-28 13:52:42.322862,1709124762.322862,44.921875,-81.54296875,-29.78515625,23.92578125,1.0,0.0,0.0,0.0,7.m4v,10.0
2024-02-28 13:52:42.326767,1709124762.3267674,87.40234375,-41.50390625,-21.97265625,21.484375,1.0,0.0,0.0,0.0,7.m4v,10.0
2024-02-28 13:52:42.330673,1709124762.3306727,88.37890625,-18.06640625,-30.2734375,48.33984375,1.0,0.0,0.0,0.0,7.m4v,10.0
2024-02-28 13:52:42.334578,1709124762.334578,32.2265625,-30.76171875,-44.43359375,33.69140625,1.0,0.0,0.0,0.0,7.m4v,10.0
2024-02-28 13:52:42.338483,1709124762.338483,-8.30078125,-38.0859375,-42.96875,7.32421875,1.0,0.0,0.0,0.0,7.m4v,10.0
2024-02-28 13:52:42.342389,1709124762.3423886,-6.34765625,-26.3671875,-29.78515625,14.16015625,1.0,0.0,0.0,0.0,7.m4v,10.0
2024-02-28 13:52:42.346294,1709124762.346294,25.87890625,-27.83203125,-28.3203125,41.9921875,1.0,0.0,0.0,0.0,7.m4v,10.0
2024-02-28 13:52:42.350199,1709124762.3501992,41.9921875,-38.0859375,-36.1328125,11.23046875,1.0,0.0,0.0,0.0,7.m4v,10.0
2024-02-28 13:52:42.354105,1709124762.3541045,22.4609375,-44.43359375,-35.64453125,-2.44140625,1.0,0.0,0.0,0.0,7.m4v,10.0
2024-02-28 13:52:42.358010,1709124762.3580098,38.57421875,-83.0078125,-24.90234375,40.0390625,1.0,0.0,0.0,0.0,7.m4v,10.0
2024-02-28 13:52:42.361915,1709124762.361915,50.29296875,-66.40625,-27.34375,54.19921875,1.0,0.0,0.0,0.0,7.m4v,10.0
2024-02-28 13:52:42.365828,1709124762.3658278,0.0,-16.11328125,-48.33984375,-3.41796875,1.0,0.0,0.0,0.0,7.m4v,10.0
2024-02-28 13:52:42.369733,1709124762.369733,35.15625,-49.8046875,-39.0625,-2.9296875,1.0,0.0,0.0,0.0,7.m4v,10.0
2024-02-28 13:52:42.373639,1709124762.3736386,30.76171875,-14.6484375,-35.15625,51.26953125,1.0,0.0,0.0,0.0,7.m4v,10.0
2024-02-28 13:52:42.377544,1709124762.377544,-1.953125,20.5078125,-42.96875,21.97265625,1.0,0.0,0.0,0.0,7.m4v,10.0
2024-02-28 13:52:42.381449,1709124762.3814492,20.5078125,-19.04296875,-27.34375,24.4140625,1.0,0.0,0.0,0.0,7.m4v,10.0
2024-02-28 13:52:42.385355,1709124762.3853545,34.1796875,-41.50390625,-25.390625,31.25,1.0,0.0,0.0,0.0,7.m4v,10.0
2024-02-28 13:52:42.389260,1709124762.3892598,33.69140625,-41.9921875,-25.87890625,-2.9296875,1.0,0.0,0.0,0.0,7.m4v,10.0
2024-02-28 13:52:42.393165,1709124762.393165,42.96875,-30.2734375,-28.3203125,-10.25390625,1.0,0.0,0.0,0.0,7.m4v,10.0
2024-02-28 13:52:42.397070,1709124762.3970704,32.71484375,-52.734375,-38.57421875,22.4609375,1.0,0.0,0.0,0.0,7.m4v,10.0
2024-02-28 13:52:42.400976,1709124762.4009757,-5.859375,-61.5234375,-42.96875,17.578125,1.0,0.0,0.0,0.0,7.m4v,10.0
2024-02-28 13:52:42.404881,1709124762.404881,43.9453125,-76.66015625,-37.59765625,-4.39453125,1.0,0.0,0.0,0.0,7.m4v,10.0
2024-02-28 13:52:42.408786,1709124762.4087863,86.9140625,-40.52734375,-38.57421875,-19.04296875,1.0,0.0,0.0,0.0,7.m4v,10.0
2024-02-28 13:52:42.412699,1709124762.4126987,48.33984375,6.34765625,-38.57421875,0.0,1.0,0.0,0.0,0.0,7.m4v,10.0
2024-02-28 13:52:42.772037,1709124762.772037,-62.5,-57.12890625,-37.109375,-36.62109375,1.0,0.0,0.0,0.0,7.m4v,10.0
2024-02-28 13:52:42.775942,1709124762.7759423,4.39453125,-68.84765625,-32.71484375,-52.734375,1.0,0.0,0.0,0.0,7.m4v,10.0
2024-02-28 13:52:42.779848,1709124762.7798476,0.9765625,-39.0625,-28.3203125,-30.2734375,1.0,0.0,0.0,0.0,7.m4v,10.0
2024-02-28 13:52:42.783753,1709124762.783753,-4.8828125,-44.43359375,-18.5546875,-8.30078125,1.0,0.0,0.0,0.0,7.m4v,10.0
2024-02-28 13:52:42.787665,1709124762.7876654,-14.16015625,-13.671875,-43.45703125,-28.80859375,1.0,0.0,0.0,0.0,7.m4v,10.0
2024-02-28 13:52:42.791571,1709124762.791571,-61.03515625,-20.01953125,-64.453125,-27.83203125,1.0,0.0,0.0,0.0,7.m4v,10.0
2024-02-28 13:52:42.795476,1709124762.795476,-82.03125,-42.96875,-45.41015625,-62.98828125,1.0,0.0,0.0,0.0,7.m4v,10.0
2024-02-28 13:52:42.799381,1709124762.7993813,-43.45703125,-18.06640625,-30.2734375,-52.734375,1.0,0.0,0.0,0.0,7.m4v,10.0
2024-02-28 13:52:42.803287,1709124762.8032866,-47.8515625,-31.25,-24.4140625,-17.578125,1.0,0.0,0.0,0.0,7.m4v,10.0
2024-02-28 13:52:42.807192,1709124762.8071918,-107.421875,-48.33984375,-25.87890625,-20.99609375,1.0,0.0,0.0,0.0,7.m4v,10.0
2024-02-28 13:52:42.811097,1709124762.8110971,-173.33984375,-41.9921875,-37.109375,-34.66796875,1.0,0.0,0.0,0.0,7.m4v,10.0
2024-02-28 13:52:42.815002,1709124762.8150024,-124.51171875,-32.71484375,-27.34375,-21.97265625,1.0,0.0,0.0,0.0,7.m4v,10.0
2024-02-28 13:52:42.818908,1709124762.8189075,-59.5703125,-33.69140625,-25.87890625,-9.765625,1.0,0.0,0.0,0.0,7.m4v,10.0
2024-02-28 13:52:42.822813,1709124762.8228133,-62.5,-66.89453125,-32.2265625,-37.109375,1.0,0.0,0.0,0.0,7.m4v,10.0
2024-02-28 13:52:42.826719,1709124762.8267186,-51.26953125,-69.82421875,-32.71484375,-36.1328125,1.0,0.0,0.0,0.0,7.m4v,10.0
2024-02-28 13:52:42.830624,1709124762.830624,-73.73046875,-16.11328125,-43.45703125,-50.29296875,1.0,0.0,0.0,0.0,7.m4v,10.0
2024-02-28 13:52:42.834536,1709124762.8345358,-102.05078125,-2.9296875,-41.015625,-34.1796875,1.0,0.0,0.0,0.0,7.m4v,10.0
2024-02-28 13:52:42.838441,1709124762.8384411,-57.6171875,-31.73828125,-33.203125,-8.30078125,1.0,0.0,0.0,0.0,7.m4v,10.0
2024-02-28 13:52:42.842346,1709124762.8423464,-5.37109375,-45.41015625,-26.3671875,-19.04296875,1.0,0.0,0.0,0.0,7.m4v,10.0
2024-02-28 13:52:42.846252,1709124762.8462515,-24.4140625,-41.9921875,-20.99609375,-31.73828125,1.0,0.0,0.0,0.0,7.m4v,10.0
2024-02-28 13:52:42.850157,1709124762.8501573,-20.99609375,-41.50390625,-24.90234375,-43.9453125,1.0,0.0,0.0,0.0,7.m4v,10.0
2024-02-28 13:52:42.854063,1709124762.8540626,-25.87890625,-61.03515625,-37.59765625,-41.015625,1.0,0.0,0.0,0.0,7.m4v,10.0
2024-02-28 13:52:42.857968,1709124762.857968,-59.08203125,-41.50390625,-35.15625,-26.3671875,1.0,0.0,0.0,0.0,7.m4v,10.0
2024-02-28 13:52:42.861873,1709124762.8618731,-37.59765625,-20.5078125,-35.64453125,-14.16015625,1.0,0.0,0.0,0.0,7.m4v,10.0
2024-02-28 13:52:42.865778,1709124762.8657784,14.16015625,-23.92578125,-36.62109375,-33.69140625,1.0,0.0,0.0,0.0,7.m4v,10.0
2024-02-28 13:52:42.869684,1709124762.8696835,25.390625,-35.15625,-40.0390625,-38.57421875,1.0,0.0,0.0,0.0,7.m4v,10.0
2024-02-28 13:52:42.873589,1709124762.873589,-58.10546875,-40.0390625,-37.59765625,0.0,1.0,0.0,0.0,0.0,7.m4v,10.0
2024-02-28 13:52:42.877494,1709124762.8774943,-85.9375,-17.578125,-37.109375,0.0,1.0,0.0,0.0,0.0,7.m4v,10.0
2024-02-28 13:52:42.881406,1709124762.8814063,-36.62109375,-19.53125,-41.015625,-22.4609375,1.0,0.0,0.0,0.0,7.m4v,10.0
2024-02-28 13:52:42.885312,1709124762.8853116,-5.37109375,-46.38671875,-35.64453125,-19.04296875,1.0,0.0,0.0,0.0,7.m4v,10.0
2024-02-28 13:52:42.889217,1709124762.889217,-21.97265625,-22.4609375,-40.52734375,-19.53125,1.0,0.0,0.0,0.0,7.m4v,10.0
2024-02-28 13:52:42.893122,1709124762.8931224,-41.50390625,-9.765625,-40.0390625,-45.8984375,1.0,0.0,0.0,0.0,7.m4v,10.0
2024-02-28 13:52:42.897028,1709124762.8970275,-17.578125,-65.91796875,-32.2265625,-44.43359375,1.0,0.0,0.0,0.0,7.m4v,10.0
2024-02-28 13:52:42.900933,1709124762.900933,-10.7421875,-78.61328125,-16.6015625,-25.87890625,1.0,0.0,0.0,0.0,7.m4v,10.0
2024-02-28 13:52:42.904838,1709124762.9048383,-32.71484375,-28.3203125,-27.34375,-74.70703125,1.0,0.0,0.0,0.0,7.m4v,10.0
2024-02-28 13:52:42.908744,1709124762.9087436,-20.99609375,-23.4375,-35.15625,-47.36328125,1.0,0.0,0.0,0.0,7.m4v,10.0
2024-02-28 13:52:42.912649,1709124762.912649,10.25390625,-29.296875,-25.87890625,8.30078125,1.0,0.0,0.0,0.0,7.m4v,10.0
2024-02-28 13:52:42.916554,1709124762.9165542,18.5546875,-15.625,-26.85546875,-27.83203125,1.0,0.0,0.0,0.0,7.m4v,10.0
2024-02-28 13:52:42.928277,1709124762.9282768,-20.99609375,-40.0390625,-20.01953125,-41.50390625,1.0,0.0,0.0,0.0,7.m4v,10.0
2024-02-28 13:52:42.932182,1709124762.9321823,33.69140625,-43.9453125,-14.6484375,-44.43359375,1.0,0.0,0.0,0.0,7.m4v,10.0
2024-02-28 13:52:42.936088,1709124762.9360876,18.06640625,-13.18359375,-45.8984375,-66.40625,1.0,0.0,0.0,0.0,7.m4v,10.0
2024-02-28 13:52:42.939993,1709124762.939993,9.765625,-1.953125,-43.45703125,-77.63671875,1.0,0.0,0.0,0.0,7.m4v,10.0
2024-02-28 13:52:42.943898,1709124762.9438982,1.953125,-2.9296875,-27.34375,-82.51953125,1.0,0.0,0.0,0.0,7.m4v,10.0
2024-02-28 13:52:42.947803,1709124762.9478035,-37.59765625,-15.13671875,-28.3203125,-59.5703125,1.0,0.0,0.0,0.0,7.m4v,10.0
2024-02-28 13:52:42.951709,1709124762.9517088,-43.45703125,-44.43359375,-30.76171875,8.30078125,1.0,0.0,0.0,0.0,7.m4v,10.0
2024-02-28 13:52:42.955614,1709124762.955614,-12.6953125,-71.77734375,-20.99609375,6.34765625,1.0,0.0,0.0,0.0,7.m4v,10.0
2024-02-28 13:52:42.959519,1709124762.9595194,-16.11328125,-44.43359375,-38.57421875,-7.8125,1.0,0.0,0.0,0.0,7.m4v,10.0
2024-02-28 13:52:42.963425,1709124762.9634247,-49.8046875,-17.578125,-46.38671875,-32.71484375,1.0,0.0,0.0,0.0,7.m4v,10.0
2024-02-28 13:52:42.967330,1709124762.96733,-20.99609375,-31.25,-33.69140625,-50.78125,1.0,0.0,0.0,0.0,7.m4v,10.0
2024-02-28 13:52:42.971235,1709124762.9712353,3.41796875,-42.96875,-30.76171875,-38.0859375,1.0,0.0,0.0,0.0,7.m4v,10.0
2024-02-28 13:52:42.975147,1709124762.975147,-11.23046875,-28.3203125,-44.43359375,-37.59765625,1.0,0.0,0.0,0.0,7.m4v,10.0
2024-02-28 13:52:42.979052,1709124762.9790523,-19.53125,-22.4609375,-51.26953125,-47.8515625,1.0,0.0,0.0,0.0,7.m4v,10.0
2024-02-28 13:52:42.982958,1709124762.9829576,-4.8828125,-54.6875,-48.828125,-38.0859375,1.0,0.0,0.0,0.0,7.m4v,10.0
2024-02-28 13:52:42.986863,1709124762.986863,-28.3203125,-37.59765625,-53.7109375,-41.50390625,1.0,0.0,0.0,0.0,7.m4v,10.0
2024-02-28 13:52:42.990768,1709124762.9907682,-34.66796875,-9.27734375,-53.7109375,-34.66796875,1.0,0.0,0.0,0.0,7.m4v,10.0
2024-02-28 13:52:42.994673,1709124762.9946735,22.94921875,-57.6171875,-35.64453125,14.16015625,1.0,0.0,0.0,0.0,7.m4v,10.0
2024-02-28 13:52:42.998579,1709124762.9985788,8.7890625,-49.31640625,-44.921875,-18.5546875,1.0,0.0,0.0,0.0,7.m4v,10.0
2024-02-28 13:52:43.002484,1709124763.002484,19.04296875,-12.6953125,-58.10546875,-67.3828125,1.0,0.0,0.0,0.0,7.m4v,10.0
2024-02-28 13:52:43.006389,1709124763.0063894,122.55859375,-22.94921875,-58.10546875,-35.15625,1.0,0.0,0.0,0.0,7.m4v,10.0
2024-02-28 13:52:43.010295,1709124763.010295,102.05078125,-12.6953125,-67.87109375,-64.453125,1.0,0.0,0.0,0.0,7.m4v,10.0
2024-02-28 13:52:43.014200,1709124763.0142002,30.2734375,-16.11328125,-47.36328125,-27.83203125,1.0,0.0,0.0,0.0,7.m4v,10.0
2024-02-28 13:52:43.018106,1709124763.0181055,-20.5078125,-35.64453125,-34.1796875,19.53125,1.0,0.0,0.0,0.0,7.m4v,10.0
2024-02-28 13:52:43.022019,1709124763.022019,-83.984375,-46.875,-34.1796875,-12.20703125,1.0,0.0,0.0,0.0,7.m4v,10.0
2024-02-28 13:52:43.025924,1709124763.025924,-81.54296875,-11.71875,-25.390625,-14.6484375,1.0,0.0,0.0,0.0,7.m4v,10.0
2024-02-28 13:52:43.029829,1709124763.0298293,-29.78515625,-23.4375,-38.0859375,-19.04296875,1.0,0.0,0.0,0.0,7.m4v,10.0
2024-02-28 13:52:43.033735,1709124763.0337346,-21.484375,-42.48046875,-45.41015625,-35.64453125,1.0,0.0,0.0,0.0,7.m4v,10.0
2024-02-28 13:52:43.037640,1709124763.03764,-57.12890625,-31.25,-36.62109375,-32.2265625,1.0,0.0,0.0,0.0,7.m4v,10.0
2024-02-28 13:52:43.041545,1709124763.0415452,-62.98828125,-33.69140625,-29.296875,-46.875,1.0,0.0,0.0,0.0,7.m4v,10.0
2024-02-28 13:52:43.045450,1709124763.0454504,-86.42578125,-38.57421875,-31.25,-50.78125,1.0,0.0,0.0,0.0,7.m4v,10.0
2024-02-28 13:52:43.049356,1709124763.0493555,-42.48046875,-34.1796875,-28.80859375,-26.85546875,1.0,0.0,0.0,0.0,7.m4v,10.0
2024-02-28 13:52:43.053261,1709124763.053261,9.27734375,-35.15625,-33.69140625,-36.62109375,1.0,0.0,0.0,0.0,7.m4v,10.0
2024-02-28 13:52:43.057167,1709124763.0571666,-10.7421875,-29.78515625,-40.52734375,-25.87890625,1.0,0.0,0.0,0.0,7.m4v,10.0
2024-02-28 13:52:43.061072,1709124763.061072,-0.48828125,-48.828125,-36.1328125,6.8359375,1.0,0.0,0.0,0.0,7.m4v,10.0
2024-02-28 13:52:43.064977,1709124763.0649772,13.18359375,-78.61328125,-36.1328125,-16.11328125,1.0,0.0,0.0,0.0,7.m4v,10.0
2024-02-28 13:52:43.068890,1709124763.06889,-0.9765625,-12.6953125,-38.0859375,-4.39453125,1.0,0.0,0.0,0.0,7.m4v,10.0
2024-02-28 13:52:43.072795,1709124763.0727954,16.6015625,-22.94921875,-32.71484375,21.97265625,1.0,0.0,0.0,0.0,7.m4v,10.0
2024-02-28 13:52:43.076701,1709124763.0767007,25.87890625,-37.59765625,-43.45703125,-11.71875,1.0,0.0,0.0,0.0,7.m4v,10.0
2024-02-28 13:52:43.080606,1709124763.080606,25.87890625,-46.38671875,-35.15625,-56.640625,1.0,0.0,0.0,0.0,7.m4v,10.0
2024-02-28 13:52:43.084511,1709124763.0845113,120.60546875,-76.66015625,-27.34375,-77.1484375,1.0,0.0,0.0,0.0,7.m4v,10.0
2024-02-28 13:52:43.088417,1709124763.0884166,79.1015625,-28.3203125,-41.015625,-39.0625,1.0,0.0,0.0,0.0,7.m4v,10.0
2024-02-28 13:52:43.092322,1709124763.092322,-59.08203125,-14.6484375,-43.45703125,-44.43359375,1.0,0.0,0.0,0.0,7.m4v,10.0
2024-02-28 13:52:43.096227,1709124763.0962272,-74.70703125,-13.18359375,-28.3203125,-74.70703125,1.0,0.0,0.0,0.0,7.m4v,10.0
2024-02-28 13:52:43.100133,1709124763.1001327,-16.11328125,-14.16015625,-21.484375,0.48828125,1.0,0.0,0.0,0.0,7.m4v,10.0
2024-02-28 13:52:43.104038,1709124763.104038,-32.2265625,-25.87890625,-35.64453125,25.390625,1.0,0.0,0.0,0.0,7.m4v,10.0
2024-02-28 13:52:43.107943,1709124763.1079433,-75.68359375,-41.9921875,-40.52734375,-19.53125,1.0,0.0,0.0,0.0,7.m4v,10.0
2024-02-28 13:52:43.111849,1709124763.1118486,-80.56640625,-52.24609375,-52.734375,10.7421875,1.0,0.0,0.0,0.0,7.m4v,10.0
2024-02-28 13:52:43.115761,1709124763.1157613,-61.03515625,-62.5,-45.8984375,-3.90625,1.0,0.0,0.0,0.0,7.m4v,10.0
2024-02-28 13:52:43.119667,1709124763.1196666,-24.90234375,-42.96875,-28.3203125,-74.70703125,1.0,0.0,0.0,0.0,7.m4v,10.0
2024-02-28 13:52:43.123572,1709124763.123572,4.39453125,-16.11328125,-26.85546875,-78.61328125,1.0,0.0,0.0,0.0,7.m4v,10.0
2024-02-28 13:52:43.127477,1709124763.1274772,-2.9296875,-34.66796875,-25.390625,-66.89453125,1.0,0.0,0.0,0.0,7.m4v,10.0
2024-02-28 13:52:43.131382,1709124763.1313825,-43.45703125,-25.87890625,-21.484375,-55.17578125,1.0,0.0,0.0,0.0,7.m4v,10.0
2024-02-28 13:52:43.135288,1709124763.1352878,-22.4609375,-19.53125,-29.78515625,-20.99609375,1.0,0.0,0.0,0.0,7.m4v,10.0
2024-02-28 13:52:43.139193,1709124763.1391933,18.5546875,-48.33984375,-32.2265625,10.25390625,1.0,0.0,0.0,0.0,7.m4v,10.0
2024-02-28 13:52:43.143099,1709124763.1430986,-26.3671875,-42.48046875,-39.0625,-38.57421875,1.0,0.0,0.0,0.0,7.m4v,10.0
2024-02-28 13:52:43.147004,1709124763.147004,-39.55078125,-16.11328125,-49.31640625,-80.078125,1.0,0.0,0.0,0.0,7.m4v,10.0
2024-02-28 13:52:43.150909,1709124763.1509092,8.7890625,-54.6875,-45.8984375,-22.94921875,1.0,0.0,0.0,0.0,7.m4v,10.0
2024-02-28 13:52:43.154814,1709124763.1548145,58.10546875,-52.734375,-42.48046875,1.953125,1.0,0.0,0.0,0.0,7.m4v,10.0
2024-02-28 13:52:43.158720,1709124763.1587198,112.3046875,20.5078125,-54.6875,-84.47265625,1.0,0.0,0.0,0.0,7.m4v,10.0
2024-02-28 13:52:43.162632,1709124763.1626325,34.1796875,20.01953125,-71.2890625,-93.26171875,1.0,0.0,0.0,0.0,7.m4v,10.0
2024-02-28 13:52:43.166538,1709124763.1665378,-2.9296875,-20.01953125,-46.38671875,-29.296875,1.0,0.0,0.0,0.0,7.m4v,10.0
2024-02-28 13:52:43.170443,1709124763.170443,13.671875,-18.5546875,-30.76171875,-88.8671875,1.0,0.0,0.0,0.0,7.m4v,10.0
2024-02-28 13:52:43.174348,1709124763.1743484,-4.39453125,-21.484375,-27.34375,-92.7734375,1.0,0.0,0.0,0.0,7.m4v,10.0
2024-02-28 13:52:43.178254,1709124763.1782537,2.44140625,-34.1796875,-29.296875,-33.203125,1.0,0.0,0.0,0.0,7.m4v,10.0
2024-02-28 13:52:43.182159,1709124763.182159,-5.37109375,-36.62109375,-26.85546875,-55.17578125,1.0,0.0,0.0,0.0,7.m4v,10.0
2024-02-28 13:52:43.186064,1709124763.1860645,-0.9765625,-44.921875,-21.484375,-56.640625,1.0,0.0,0.0,0.0,7.m4v,10.0
2024-02-28 13:52:43.189970,1709124763.1899698,47.8515625,-57.6171875,-24.90234375,-33.69140625,1.0,0.0,0.0,0.0,7.m4v,10.0
2024-02-28 13:52:43.193875,1709124763.193875,80.56640625,-63.4765625,-28.3203125,-38.57421875,1.0,0.0,0.0,0.0,7.m4v,10.0
2024-02-28 13:52:43.197780,1709124763.1977804,66.40625,-31.73828125,-34.66796875,-42.96875,1.0,0.0,0.0,0.0,7.m4v,10.0
2024-02-28 13:52:43.201686,1709124763.2016857,31.25,9.765625,-41.9921875,-68.359375,1.0,0.0,0.0,0.0,7.m4v,10.0
2024-02-28 13:52:43.205591,1709124763.205591,0.9765625,-8.30078125,-49.31640625,-56.15234375,1.0,0.0,0.0,0.0,7.m4v,10.0
2024-02-28 13:52:43.209503,1709124763.2095032,-1.953125,-42.48046875,-45.41015625,-40.52734375,1.0,0.0,0.0,0.0,7.m4v,10.0
2024-02-28 13:52:43.213408,1709124763.2134085,17.578125,-19.53125,-34.66796875,-50.29296875,1.0,0.0,0.0,0.0,7.m4v,10.0
2024-02-28 13:52:43.217314,1709124763.2173138,-4.8828125,-15.625,-43.45703125,-57.12890625,1.0,0.0,0.0,0.0,7.m4v,10.0
2024-02-28 13:52:43.221219,1709124763.221219,22.94921875,-31.73828125,-47.8515625,-50.29296875,1.0,0.0,0.0,0.0,7.m4v,10.0
2024-02-28 13:52:43.225124,1709124763.2251244,46.38671875,-37.109375,-53.22265625,-29.78515625,1.0,0.0,0.0,0.0,7.m4v,10.0
2024-02-28 13:52:43.229030,1709124763.2290297,100.5859375,-38.0859375,-58.59375,-50.29296875,1.0,0.0,0.0,0.0,7.m4v,10.0
2024-02-28 13:52:43.232935,1709124763.232935,120.60546875,-63.96484375,-41.015625,-78.125,1.0,0.0,0.0,0.0,7.m4v,10.0
2024-02-28 13:52:43.236840,1709124763.2368402,41.9921875,-0.48828125,-45.8984375,-72.265625,1.0,0.0,0.0,0.0,7.m4v,10.0
2024-02-28 13:52:43.240746,1709124763.2407455,-61.5234375,20.01953125,-71.2890625,-70.80078125,1.0,0.0,0.0,0.0,7.m4v,10.0
2024-02-28 13:52:43.244651,1709124763.2446508,-62.5,-36.62109375,-43.45703125,-22.94921875,1.0,0.0,0.0,0.0,7.m4v,10.0
2024-02-28 13:52:43.248556,1709124763.248556,-35.64453125,-47.36328125,-15.13671875,-15.625,1.0,0.0,0.0,0.0,7.m4v,10.0
2024-02-28 13:52:43.252462,1709124763.2524617,-71.2890625,-49.31640625,-28.3203125,-66.40625,1.0,0.0,0.0,0.0,7.m4v,10.0
2024-02-28 13:52:43.256373,1709124763.2563734,-82.03125,-45.8984375,-38.0859375,-55.17578125,1.0,0.0,0.0,0.0,7.m4v,10.0
2024-02-28 13:52:43.260279,1709124763.2602787,-36.1328125,-35.64453125,-30.2734375,-50.78125,1.0,0.0,0.0,0.0,7.m4v,10.0
2024-02-28 13:52:43.264184,1709124763.264184,0.0,-33.203125,-23.92578125,-31.73828125,1.0,0.0,0.0,0.0,7.m4v,10.0
2024-02-28 13:52:43.268089,1709124763.2680893,-0.9765625,-37.59765625,-36.1328125,-62.98828125,1.0,0.0,0.0,0.0,7.m4v,10.0
2024-02-28 13:52:43.271995,1709124763.2719946,-0.9765625,-35.15625,-34.1796875,-89.35546875,1.0,0.0,0.0,0.0,7.m4v,10.0
2024-02-28 13:52:43.275900,1709124763.2759,-17.578125,-77.63671875,-32.2265625,-8.7890625,1.0,0.0,0.0,0.0,7.m4v,10.0
2024-02-28 13:52:43.279805,1709124763.2798054,-37.109375,-63.4765625,-49.8046875,15.625,1.0,0.0,0.0,0.0,7.m4v,10.0
2024-02-28 13:52:43.283711,1709124763.2837107,37.109375,0.9765625,-44.921875,1.953125,1.0,0.0,0.0,0.0,7.m4v,10.0
2024-02-28 13:52:43.287616,1709124763.287616,51.26953125,-37.59765625,-22.94921875,4.8828125,1.0,0.0,0.0,0.0,7.m4v,10.0
2024-02-28 13:52:43.291521,1709124763.2915213,31.73828125,-42.48046875,-17.578125,13.18359375,1.0,0.0,0.0,0.0,7.m4v,10.0
2024-02-28 13:52:43.295427,1709124763.2954266,65.4296875,-27.34375,-31.73828125,-19.53125,1.0,0.0,0.0,0.0,7.m4v,10.0
2024-02-28 13:52:43.299332,1709124763.299332,58.10546875,-39.55078125,-43.45703125,-59.08203125,1.0,0.0,0.0,0.0,7.m4v,10.0
2024-02-28 13:52:43.303244,1709124763.3032436,6.34765625,9.765625,-52.24609375,-42.96875,1.0,0.0,0.0,0.0,7.m4v,10.0
2024-02-28 13:52:43.307149,1709124763.307149,-43.9453125,0.48828125,-46.38671875,-26.3671875,1.0,0.0,0.0,0.0,7.m4v,10.0
2024-02-28 13:52:43.311054,1709124763.3110545,-19.04296875,-40.52734375,-31.25,-53.7109375,1.0,0.0,0.0,0.0,7.m4v,10.0
2024-02-28 13:52:43.314960,1709124763.3149598,17.08984375,-42.48046875,-41.9921875,-57.6171875,1.0,0.0,0.0,0.0,7.m4v,10.0
2024-02-28 13:52:43.318865,1709124763.318865,-41.50390625,-42.48046875,-45.41015625,-29.78515625,1.0,0.0,0.0,0.0,7.m4v,10.0
2024-02-28 13:52:43.322770,1709124763.3227704,-71.77734375,-56.640625,-26.3671875,-21.97265625,1.0,0.0,0.0,0.0,7.m4v,10.0
2024-02-28 13:52:43.326676,1709124763.3266757,-11.71875,-65.4296875,-27.34375,-23.4375,1.0,0.0,0.0,0.0,7.m4v,10.0
2024-02-28 13:52:43.330581,1709124763.330581,0.48828125,-41.50390625,-33.69140625,-47.36328125,1.0,0.0,0.0,0.0,7.m4v,10.0
2024-02-28 13:52:43.334486,1709124763.3344862,7.32421875,-57.6171875,-38.57421875,-37.109375,1.0,0.0,0.0,0.0,7.m4v,10.0
2024-02-28 13:52:43.338392,1709124763.3383915,9.765625,-69.3359375,-36.1328125,-3.41796875,1.0,0.0,0.0,0.0,7.m4v,10.0
2024-02-28 13:52:43.342297,1709124763.3422968,-22.94921875,-12.6953125,-30.2734375,-25.87890625,1.0,0.0,0.0,0.0,7.m4v,10.0
2024-02-28 13:52:43.346202,1709124763.346202,-24.90234375,-14.6484375,-39.55078125,-37.109375,1.0,0.0,0.0,0.0,7.m4v,10.0
2024-02-28 13:52:43.350114,1709124763.350114,-62.98828125,-25.87890625,-38.57421875,-11.71875,1.0,0.0,0.0,0.0,7.m4v,10.0
2024-02-28 13:52:43.354019,1709124763.3540192,-33.69140625,-24.4140625,-29.296875,-33.69140625,1.0,0.0,0.0,0.0,7.m4v,10.0
2024-02-28 13:52:43.357924,1709124763.3579245,19.53125,-31.73828125,-30.76171875,-13.671875,1.0,0.0,0.0,0.0,7.m4v,10.0
2024-02-28 13:52:43.361830,1709124763.3618298,36.62109375,-38.57421875,-35.64453125,-3.90625,1.0,0.0,0.0,0.0,7.m4v,10.0
2024-02-28 13:52:43.365735,1709124763.365735,70.3125,-39.0625,-17.578125,-32.71484375,1.0,0.0,0.0,0.0,7.m4v,10.0
2024-02-28 13:52:43.369641,1709124763.3696406,105.46875,-12.20703125,-27.34375,-20.99609375,1.0,0.0,0.0,0.0,7.m4v,10.0
2024-02-28 13:52:43.373546,1709124763.373546,86.9140625,-13.18359375,-47.8515625,-67.87109375,1.0,0.0,0.0,0.0,7.m4v,10.0
2024-02-28 13:52:43.377451,1709124763.3774512,27.34375,-40.52734375,-37.59765625,-42.48046875,1.0,0.0,0.0,0.0,7.m4v,10.0
2024-02-28 13:52:43.381356,1709124763.3813565,-7.8125,-21.484375,-24.4140625,-11.23046875,1.0,0.0,0.0,0.0,7.m4v,10.0
2024-02-28 13:52:43.385262,1709124763.3852618,-7.8125,-14.6484375,-25.87890625,-47.8515625,1.0,0.0,0.0,0.0,7.m4v,10.0
2024-02-28 13:52:43.389167,1709124763.389167,-96.19140625,-28.3203125,-37.109375,-38.57421875,1.0,0.0,0.0,0.0,7.m4v,10.0
2024-02-28 13:52:43.393072,1709124763.3930724,-94.7265625,-39.55078125,-33.69140625,-38.57421875,1.0,0.0,0.0,0.0,7.m4v,10.0
2024-02-28 13:52:43.396986,1709124763.3969855,-70.80078125,-43.45703125,-29.296875,-64.94140625,1.0,0.0,0.0,0.0,7.m4v,10.0
2024-02-28 13:52:43.400891,1709124763.4008908,-75.68359375,-52.734375,-23.92578125,-63.96484375,1.0,0.0,0.0,0.0,7.m4v,10.0
2024-02-28 13:52:43.404796,1709124763.4047964,-12.20703125,-38.0859375,-29.296875,-63.96484375,1.0,0.0,0.0,0.0,7.m4v,10.0
2024-02-28 13:52:43.408702,1709124763.4087017,-20.5078125,-20.5078125,-34.1796875,-97.65625,1.0,0.0,0.0,0.0,7.m4v,10.0
2024-02-28 13:52:43.412607,1709124763.412607,-67.87109375,-30.76171875,-30.76171875,-110.83984375,1.0,0.0,0.0,0.0,7.m4v,10.0
2024-02-28 13:52:43.416512,1709124763.4165125,-80.56640625,-42.96875,-32.2265625,-100.5859375,1.0,0.0,0.0,0.0,7.m4v,10.0
2024-02-28 13:52:43.420418,1709124763.4204175,-77.1484375,-35.64453125,-25.87890625,-83.49609375,1.0,0.0,0.0,0.0,7.m4v,10.0
2024-02-28 13:52:43.424323,1709124763.4243228,-129.39453125,-38.0859375,-35.64453125,-110.83984375,1.0,0.0,0.0,0.0,7.m4v,10.0
2024-02-28 13:52:43.428228,1709124763.428228,-125.0,-48.828125,-36.62109375,-140.13671875,1.0,0.0,0.0,0.0,7.m4v,10.0
2024-02-28 13:52:43.432133,1709124763.4321334,-106.4453125,-24.4140625,-34.66796875,-145.5078125,1.0,0.0,0.0,0.0,7.m4v,10.0
2024-02-28 13:52:43.436039,1709124763.4360387,-132.8125,-0.48828125,-56.640625,-158.203125,1.0,0.0,0.0,0.0,7.m4v,10.0
2024-02-28 13:52:43.439944,1709124763.439944,-137.6953125,-3.90625,-42.96875,-187.01171875,1.0,0.0,0.0,0.0,7.m4v,10.0
2024-02-28 13:52:43.443857,1709124763.443857,-89.35546875,-26.85546875,-47.8515625,-184.5703125,1.0,0.0,0.0,0.0,7.m4v,10.0
2024-02-28 13:52:43.447762,1709124763.4477625,-5.37109375,-51.26953125,-55.6640625,-138.18359375,1.0,0.0,0.0,0.0,7.m4v,10.0
2024-02-28 13:52:43.451668,1709124763.4516675,-21.97265625,-35.64453125,-33.69140625,-148.4375,1.0,0.0,0.0,0.0,7.m4v,10.0
2024-02-28 13:52:43.455573,1709124763.4555728,-55.6640625,-27.83203125,-22.4609375,-172.8515625,1.0,0.0,0.0,0.0,7.m4v,10.0
2024-02-28 13:52:43.459478,1709124763.459478,-136.71875,-32.71484375,-32.71484375,-125.9765625,1.0,0.0,0.0,0.0,7.m4v,10.0
2024-02-28 13:52:43.463383,1709124763.4633834,-138.671875,-37.59765625,-37.109375,-132.8125,1.0,0.0,0.0,0.0,7.m4v,10.0
2024-02-28 13:52:43.467289,1709124763.467289,-26.85546875,-62.5,-33.69140625,-162.109375,1.0,0.0,0.0,0.0,7.m4v,10.0
2024-02-28 13:52:43.471194,1709124763.4711945,-73.73046875,-33.69140625,-42.96875,-131.8359375,1.0,0.0,0.0,0.0,7.m4v,10.0
2024-02-28 13:52:43.475100,1709124763.4750996,-150.390625,-13.18359375,-47.8515625,-107.421875,1.0,0.0,0.0,0.0,7.m4v,10.0
2024-02-28 13:52:43.479005,1709124763.4790049,-133.30078125,-16.11328125,-37.59765625,-106.4453125,1.0,0.0,0.0,0.0,7.m4v,10.0
2024-02-28 13:52:43.482910,1709124763.4829102,-71.2890625,-20.99609375,-19.04296875,-90.8203125,1.0,0.0,0.0,0.0,7.m4v,10.0
2024-02-28 13:52:43.486815,1709124763.4868157,-53.7109375,-35.15625,-19.53125,-85.9375,1.0,0.0,0.0,0.0,7.m4v,10.0
2024-02-28 13:52:43.490728,1709124763.490728,-42.48046875,-51.26953125,-40.52734375,-109.86328125,1.0,0.0,0.0,0.0,7.m4v,10.0
2024-02-28 13:52:43.494633,1709124763.4946334,-62.01171875,-37.109375,-56.640625,-100.09765625,1.0,0.0,0.0,0.0,7.m4v,10.0
2024-02-28 13:52:43.498539,1709124763.4985387,-65.91796875,-21.484375,-50.29296875,-74.70703125,1.0,0.0,0.0,0.0,7.m4v,10.0
2024-02-28 13:52:43.502444,1709124763.502444,-62.5,-63.4765625,-38.57421875,-100.5859375,1.0,0.0,0.0,0.0,7.m4v,10.0
2024-02-28 13:52:43.506349,1709124763.506349,-41.50390625,-71.2890625,-43.9453125,-88.37890625,1.0,0.0,0.0,0.0,7.m4v,10.0
2024-02-28 13:52:43.510255,1709124763.5102546,-50.78125,-16.11328125,-34.66796875,-5.37109375,1.0,0.0,0.0,0.0,7.m4v,10.0
2024-02-28 13:52:43.514160,1709124763.51416,-48.828125,-25.390625,-26.3671875,-17.578125,1.0,0.0,0.0,0.0,7.m4v,10.0
2024-02-28 13:52:43.518065,1709124763.5180652,45.8984375,-44.43359375,-27.34375,-42.48046875,1.0,0.0,0.0,0.0,7.m4v,10.0
2024-02-28 13:52:43.521971,1709124763.5219705,84.9609375,-21.484375,-41.9921875,-33.69140625,1.0,0.0,0.0,0.0,7.m4v,10.0
2024-02-28 13:52:43.525876,1709124763.5258758,70.80078125,-27.34375,-50.78125,-27.34375,1.0,0.0,0.0,0.0,7.m4v,10.0
2024-02-28 13:52:43.529781,1709124763.529781,9.765625,-56.15234375,-22.94921875,-31.73828125,1.0,0.0,0.0,0.0,7.m4v,10.0
2024-02-28 13:52:43.533687,1709124763.5336866,-13.671875,-34.66796875,-25.87890625,-38.0859375,1.0,0.0,0.0,0.0,7.m4v,10.0
2024-02-28 13:52:43.537599,1709124763.537599,-28.3203125,-38.0859375,-27.34375,-17.578125,1.0,0.0,0.0,0.0,7.m4v,10.0
2024-02-28 13:52:43.541504,1709124763.5415044,-33.203125,-51.7578125,-13.18359375,-13.671875,1.0,0.0,0.0,0.0,7.m4v,10.0
2024-02-28 13:52:43.545410,1709124763.5454097,-31.73828125,-51.7578125,-28.3203125,-25.87890625,1.0,0.0,0.0,0.0,7.m4v,10.0
2024-02-28 13:52:43.549315,1709124763.549315,0.0,-45.8984375,-35.15625,-8.7890625,1.0,0.0,0.0,0.0,7.m4v,10.0
2024-02-28 13:52:43.553220,1709124763.5532205,23.92578125,-54.19921875,-25.87890625,4.39453125,1.0,0.0,0.0,0.0,7.m4v,10.0
2024-02-28 13:52:43.557126,1709124763.5571256,32.2265625,-44.921875,-41.9921875,-8.7890625,1.0,0.0,0.0,0.0,7.m4v,10.0
2024-02-28 13:52:43.561031,1709124763.5610309,34.66796875,-31.73828125,-46.38671875,5.859375,1.0,0.0,0.0,0.0,7.m4v,10.0
2024-02-28 13:52:43.564936,1709124763.5649362,41.50390625,-48.33984375,-27.34375,15.13671875,1.0,0.0,0.0,0.0,7.m4v,10.0
2024-02-28 13:52:43.568842,1709124763.5688417,57.12890625,-39.0625,-22.94921875,6.8359375,1.0,0.0,0.0,0.0,7.m4v,10.0
2024-02-28 13:52:43.572747,1709124763.572747,58.59375,-14.16015625,-26.85546875,3.41796875,1.0,0.0,0.0,0.0,7.m4v,10.0
2024-02-28 13:52:43.576652,1709124763.5766523,55.6640625,-20.01953125,-36.62109375,5.859375,1.0,0.0,0.0,0.0,7.m4v,10.0
2024-02-28 13:52:43.580558,1709124763.5805576,30.76171875,-46.875,-33.203125,-10.25390625,1.0,0.0,0.0,0.0,7.m4v,10.0
2024-02-28 13:52:43.584470,1709124763.58447,46.875,-44.43359375,-19.53125,0.9765625,1.0,0.0,0.0,0.0,7.m4v,10.0
2024-02-28 13:52:43.588375,1709124763.588375,109.86328125,-34.66796875,-20.5078125,26.85546875,1.0,0.0,0.0,0.0,7.m4v,10.0
2024-02-28 13:52:43.592281,1709124763.5922806,110.83984375,-71.77734375,-35.15625,16.11328125,1.0,0.0,0.0,0.0,7.m4v,10.0
2024-02-28 13:52:43.596186,1709124763.5961862,152.83203125,-68.84765625,-27.83203125,31.73828125,1.0,0.0,0.0,0.0,7.m4v,10.0
2024-02-28 13:52:43.600091,1709124763.6000917,92.28515625,1.46484375,-36.62109375,14.16015625,1.0,0.0,0.0,0.0,7.m4v,10.0
2024-02-28 13:52:43.603997,1709124763.6039968,-2.9296875,-1.46484375,-45.8984375,-4.39453125,1.0,0.0,0.0,0.0,7.m4v,10.0
2024-02-28 13:52:43.607902,1709124763.607902,27.83203125,-26.85546875,-30.76171875,21.484375,1.0,0.0,0.0,0.0,7.m4v,10.0
2024-02-28 13:52:43.611807,1709124763.611807,30.76171875,-32.71484375,-37.109375,-1.46484375,1.0,0.0,0.0,0.0,7.m4v,10.0
2024-02-28 13:52:43.615713,1709124763.6157126,32.71484375,-23.92578125,-41.9921875,-16.11328125,1.0,0.0,0.0,0.0,7.m4v,10.0
2024-02-28 13:52:43.619618,1709124763.619618,22.4609375,-26.3671875,-18.5546875,8.7890625,1.0,0.0,0.0,0.0,7.m4v,10.0
2024-02-28 13:52:43.623523,1709124763.6235232,3.90625,-49.8046875,-20.5078125,0.48828125,1.0,0.0,0.0,0.0,7.m4v,10.0
2024-02-28 13:52:43.627429,1709124763.6274283,-10.25390625,-56.640625,-28.80859375,9.27734375,1.0,0.0,0.0,0.0,7.m4v,10.0
2024-02-28 13:52:43.631341,1709124763.6313405,-1.46484375,-23.92578125,-29.78515625,15.625,1.0,0.0,0.0,0.0,7.m4v,10.0
2024-02-28 13:52:43.635246,1709124763.6352458,48.828125,-24.90234375,-34.1796875,-0.9765625,1.0,0.0,0.0,0.0,7.m4v,10.0
2024-02-28 13:52:43.639151,1709124763.639151,63.96484375,-23.92578125,-37.109375,7.32421875,1.0,0.0,0.0,0.0,7.m4v,10.0
2024-02-28 13:52:43.643056,1709124763.6430564,45.8984375,-17.08984375,-40.0390625,15.625,1.0,0.0,0.0,0.0,7.m4v,10.0
2024-02-28 13:52:43.646962,1709124763.6469617,63.96484375,-41.9921875,-37.109375,5.859375,1.0,0.0,0.0,0.0,7.m4v,10.0
2024-02-28 13:52:43.650867,1709124763.650867,52.734375,-34.1796875,-29.296875,7.32421875,1.0,0.0,0.0,0.0,7.m4v,10.0
2024-02-28 13:52:43.654772,1709124763.6547723,27.83203125,-25.87890625,-26.3671875,3.41796875,1.0,0.0,0.0,0.0,7.m4v,10.0
2024-02-28 13:52:43.658678,1709124763.6586778,49.8046875,-53.22265625,-19.53125,-1.953125,1.0,0.0,0.0,0.0,7.m4v,10.0
