Timestamp,Timestamp_UNIX,TP9,AF7,AF8,TP10,Valence,Arousal,Dominace,Viewed,Video,Participant
2024-02-28 14:04:36.001886,1709125476.0018857,-32.71484375,-34.66796875,-34.1796875,-37.59765625,-1.0,0.0,-1.0,0.0,9.m4v,10.0
2024-02-28 14:04:36.005791,1709125476.0057912,-29.296875,-39.0625,-31.73828125,-32.71484375,-1.0,0.0,-1.0,0.0,9.m4v,10.0
2024-02-28 14:04:36.009697,1709125476.0096967,-29.78515625,-39.0625,-37.109375,-30.76171875,-1.0,0.0,-1.0,0.0,9.m4v,10.0
2024-02-28 14:04:36.013602,1709125476.0136025,-31.25,-34.1796875,-40.0390625,-26.85546875,-1.0,0.0,-1.0,0.0,9.m4v,10.0
2024-02-28 14:04:36.017508,1709125476.0175078,-24.4140625,-27.34375,-39.55078125,-24.4140625,-1.0,0.0,-1.0,0.0,9.m4v,10.0
2024-02-28 14:04:36.021418,1709125476.021418,-21.97265625,-26.3671875,-37.109375,-28.80859375,-1.0,0.0,-1.0,0.0,9.m4v,10.0
2024-02-28 14:04:36.025324,1709125476.0253236,-28.80859375,-29.296875,-40.0390625,-36.1328125,-1.0,0.0,-1.0,0.0,9.m4v,10.0
2024-02-28 14:04:36.029229,1709125476.0292292,-37.59765625,-25.87890625,-39.0625,-35.15625,-1.0,0.0,-1.0,0.0,9.m4v,10.0
2024-02-28 14:04:36.033135,1709125476.0331347,-44.43359375,-27.83203125,-36.1328125,-37.109375,-1.0,0.0,-1.0,0.0,9.m4v,10.0
2024-02-28 14:04:36.037040,1709125476.0370405,-37.59765625,-31.25,-35.64453125,-37.59765625,-1.0,0.0,-1.0,0.0,9.m4v,10.0
2024-02-28 14:04:36.040946,1709125476.040946,-38.57421875,-29.296875,-34.66796875,-38.57421875,-1.0,0.0,-1.0,0.0,9.m4v,10.0
2024-02-28 14:04:36.044852,1709125476.0448515,-49.8046875,-32.2265625,-34.66796875,-43.9453125,-1.0,0.0,-1.0,0.0,9.m4v,10.0
2024-02-28 14:04:36.048757,1709125476.048757,-47.36328125,-35.15625,-39.55078125,-48.828125,-1.0,0.0,-1.0,0.0,9.m4v,10.0
2024-02-28 14:04:36.052663,1709125476.0526626,-40.52734375,-32.2265625,-41.9921875,-48.33984375,-1.0,0.0,-1.0,0.0,9.m4v,10.0
2024-02-28 14:04:36.056568,1709125476.056568,-38.0859375,-30.76171875,-40.52734375,-45.8984375,-1.0,0.0,-1.0,0.0,9.m4v,10.0
2024-02-28 14:04:36.060474,1709125476.0604737,-39.0625,-32.71484375,-39.55078125,-42.48046875,-1.0,0.0,-1.0,0.0,9.m4v,10.0
2024-02-28 14:04:36.064379,1709125476.0643792,-35.64453125,-34.1796875,-35.64453125,-40.52734375,-1.0,0.0,-1.0,0.0,9.m4v,10.0
2024-02-28 14:04:36.068290,1709125476.0682895,-31.73828125,-34.66796875,-32.2265625,-41.015625,-1.0,0.0,-1.0,0.0,9.m4v,10.0
2024-02-28 14:04:36.072195,1709125476.072195,-40.0390625,-34.1796875,-36.62109375,-48.33984375,-1.0,0.0,-1.0,0.0,9.m4v,10.0
2024-02-28 14:04:36.076101,1709125476.0761006,-37.59765625,-32.2265625,-37.109375,-48.33984375,-1.0,0.0,-1.0,0.0,9.m4v,10.0
2024-02-28 14:04:36.080006,1709125476.080006,-36.62109375,-33.203125,-35.64453125,-43.9453125,-1.0,0.0,-1.0,0.0,9.m4v,10.0
2024-02-28 14:04:36.083912,1709125476.0839117,-53.22265625,-36.62109375,-40.0390625,-43.9453125,-1.0,0.0,-1.0,0.0,9.m4v,10.0
2024-02-28 14:04:36.087817,1709125476.0878172,-62.5,-36.1328125,-39.55078125,-42.96875,-1.0,0.0,-1.0,0.0,9.m4v,10.0
2024-02-28 14:04:36.091723,1709125476.0917227,-57.12890625,-33.203125,-38.0859375,-42.96875,-1.0,0.0,-1.0,0.0,9.m4v,10.0
2024-02-28 14:04:36.095628,1709125476.0956285,-58.59375,-37.59765625,-39.0625,-43.45703125,-1.0,0.0,-1.0,0.0,9.m4v,10.0
2024-02-28 14:04:36.099534,1709125476.0995338,-60.05859375,-41.9921875,-38.0859375,-43.45703125,-1.0,0.0,-1.0,0.0,9.m4v,10.0
2024-02-28 14:04:36.103439,1709125476.103439,-55.17578125,-40.0390625,-32.71484375,-38.0859375,-1.0,0.0,-1.0,0.0,9.m4v,10.0
2024-02-28 14:04:36.107345,1709125476.1073449,-50.29296875,-37.59765625,-27.34375,-29.78515625,-1.0,0.0,-1.0,0.0,9.m4v,10.0
2024-02-28 14:04:36.111250,1709125476.1112504,-49.31640625,-31.25,-28.80859375,-27.34375,-1.0,0.0,-1.0,0.0,9.m4v,10.0
2024-02-28 14:04:36.115161,1709125476.1151607,-56.15234375,-27.34375,-31.25,-32.2265625,-1.0,0.0,-1.0,0.0,9.m4v,10.0
2024-02-28 14:04:36.119066,1709125476.1190662,-61.5234375,-31.25,-35.64453125,-37.59765625,-1.0,0.0,-1.0,0.0,9.m4v,10.0
2024-02-28 14:04:36.122972,1709125476.1229718,-62.01171875,-36.1328125,-37.59765625,-42.48046875,-1.0,0.0,-1.0,0.0,9.m4v,10.0
2024-02-28 14:04:36.126877,1709125476.1268773,-59.5703125,-41.015625,-36.62109375,-39.0625,-1.0,0.0,-1.0,0.0,9.m4v,10.0
2024-02-28 14:04:36.130783,1709125476.1307828,-54.6875,-37.59765625,-34.66796875,-34.66796875,-1.0,0.0,-1.0,0.0,9.m4v,10.0
2024-02-28 14:04:36.134688,1709125476.1346884,-46.875,-30.76171875,-36.1328125,-41.015625,-1.0,0.0,-1.0,0.0,9.m4v,10.0
2024-02-28 14:04:36.138594,1709125476.138594,-46.38671875,-30.76171875,-40.52734375,-45.41015625,-1.0,0.0,-1.0,0.0,9.m4v,10.0
2024-02-28 14:04:36.142499,1709125476.1424994,-51.26953125,-32.2265625,-38.57421875,-47.36328125,-1.0,0.0,-1.0,0.0,9.m4v,10.0
2024-02-28 14:04:36.146405,1709125476.146405,-49.31640625,-33.203125,-40.0390625,-56.15234375,-1.0,0.0,-1.0,0.0,9.m4v,10.0
2024-02-28 14:04:36.150311,1709125476.1503105,-51.26953125,-35.64453125,-40.52734375,-62.98828125,-1.0,0.0,-1.0,0.0,9.m4v,10.0
2024-02-28 14:04:36.154216,1709125476.154216,-45.8984375,-39.0625,-38.0859375,-62.01171875,-1.0,0.0,-1.0,0.0,9.m4v,10.0
2024-02-28 14:04:36.158122,1709125476.1581216,-35.64453125,-40.0390625,-37.59765625,-59.08203125,-1.0,0.0,-1.0,0.0,9.m4v,10.0
2024-02-28 14:04:36.162032,1709125476.1620317,-33.69140625,-37.109375,-39.55078125,-60.05859375,-1.0,0.0,-1.0,0.0,9.m4v,10.0
2024-02-28 14:04:36.165937,1709125476.1659372,-24.4140625,-32.2265625,-41.50390625,-48.33984375,-1.0,0.0,-1.0,0.0,9.m4v,10.0
2024-02-28 14:04:36.169843,1709125476.1698427,-22.4609375,-30.76171875,-39.55078125,-37.59765625,-1.0,0.0,-1.0,0.0,9.m4v,10.0
2024-02-28 14:04:36.173748,1709125476.1737485,-23.92578125,-27.34375,-36.1328125,-36.1328125,-1.0,0.0,-1.0,0.0,9.m4v,10.0
2024-02-28 14:04:36.177654,1709125476.1776538,-19.53125,-29.78515625,-31.25,-27.83203125,-1.0,0.0,-1.0,0.0,9.m4v,10.0
2024-02-28 14:04:36.181559,1709125476.181559,-21.484375,-31.73828125,-29.78515625,-17.08984375,-1.0,0.0,-1.0,0.0,9.m4v,10.0
2024-02-28 14:04:36.185465,1709125476.1854649,-25.390625,-30.2734375,-35.15625,-20.01953125,-1.0,0.0,-1.0,0.0,9.m4v,10.0
2024-02-28 14:04:36.189370,1709125476.1893704,-24.90234375,-31.25,-39.55078125,-31.73828125,-1.0,0.0,-1.0,0.0,9.m4v,10.0
2024-02-28 14:04:36.193276,1709125476.193276,-20.01953125,-31.73828125,-32.71484375,-34.1796875,-1.0,0.0,-1.0,0.0,9.m4v,10.0
2024-02-28 14:04:36.197181,1709125476.1971817,-21.484375,-28.80859375,-32.2265625,-38.0859375,-1.0,0.0,-1.0,0.0,9.m4v,10.0
2024-02-28 14:04:36.201087,1709125476.201087,-27.83203125,-28.80859375,-41.015625,-45.8984375,-1.0,0.0,-1.0,0.0,9.m4v,10.0
2024-02-28 14:04:36.204993,1709125476.2049923,-19.04296875,-33.203125,-34.66796875,-45.8984375,-1.0,0.0,-1.0,0.0,9.m4v,10.0
2024-02-28 14:04:36.208902,1709125476.2089024,-15.625,-31.25,-31.73828125,-41.015625,-1.0,0.0,-1.0,0.0,9.m4v,10.0
2024-02-28 14:04:36.212808,1709125476.212808,-20.01953125,-25.87890625,-35.15625,-38.0859375,-1.0,0.0,-1.0,0.0,9.m4v,10.0
2024-02-28 14:04:36.216713,1709125476.2167134,-21.97265625,-27.83203125,-35.64453125,-30.76171875,-1.0,0.0,-1.0,0.0,9.m4v,10.0
2024-02-28 14:04:36.220619,1709125476.220619,-28.80859375,-33.203125,-35.64453125,-32.71484375,-1.0,0.0,-1.0,0.0,9.m4v,10.0
2024-02-28 14:04:36.224525,1709125476.2245247,-33.203125,-39.0625,-34.1796875,-41.50390625,-1.0,0.0,-1.0,0.0,9.m4v,10.0
2024-02-28 14:04:36.228430,1709125476.2284305,-32.71484375,-39.0625,-40.0390625,-39.55078125,-1.0,0.0,-1.0,0.0,9.m4v,10.0
2024-02-28 14:04:36.232336,1709125476.2323358,-31.25,-35.64453125,-41.9921875,-35.15625,-1.0,0.0,-1.0,0.0,9.m4v,10.0
2024-02-28 14:04:36.236241,1709125476.236241,-25.87890625,-36.1328125,-37.109375,-34.66796875,-1.0,0.0,-1.0,0.0,9.m4v,10.0
2024-02-28 14:04:36.240147,1709125476.2401469,-22.94921875,-34.66796875,-26.3671875,-31.25,-1.0,0.0,-1.0,0.0,9.m4v,10.0
2024-02-28 14:04:36.244052,1709125476.2440524,-29.296875,-33.203125,-27.34375,-30.76171875,-1.0,0.0,-1.0,0.0,9.m4v,10.0
2024-02-28 14:04:36.247958,1709125476.247958,-31.25,-35.64453125,-28.80859375,-33.69140625,-1.0,0.0,-1.0,0.0,9.m4v,10.0
2024-02-28 14:04:36.251863,1709125476.2518637,-29.78515625,-34.66796875,-26.3671875,-29.296875,-1.0,0.0,-1.0,0.0,9.m4v,10.0
2024-02-28 14:04:36.255773,1709125476.255773,-34.66796875,-35.64453125,-25.87890625,-25.87890625,-1.0,0.0,-1.0,0.0,9.m4v,10.0
2024-02-28 14:04:36.259679,1709125476.2596786,-32.71484375,-28.80859375,-23.4375,-19.53125,-1.0,0.0,-1.0,0.0,9.m4v,10.0
2024-02-28 14:04:36.263584,1709125476.263584,-26.3671875,-26.85546875,-21.484375,-17.08984375,-1.0,0.0,-1.0,0.0,9.m4v,10.0
2024-02-28 14:04:36.267490,1709125476.26749,-29.78515625,-30.2734375,-24.90234375,-21.484375,-1.0,0.0,-1.0,0.0,9.m4v,10.0
2024-02-28 14:04:36.271395,1709125476.2713954,-32.2265625,-31.25,-25.87890625,-20.99609375,-1.0,0.0,-1.0,0.0,9.m4v,10.0
2024-02-28 14:04:36.275301,1709125476.275301,-32.71484375,-34.66796875,-26.3671875,-19.53125,-1.0,0.0,-1.0,0.0,9.m4v,10.0
2024-02-28 14:04:36.279207,1709125476.2792065,-30.76171875,-35.15625,-32.2265625,-24.4140625,-1.0,0.0,-1.0,0.0,9.m4v,10.0
2024-02-28 14:04:36.283112,1709125476.283112,-31.73828125,-37.59765625,-30.76171875,-33.69140625,-1.0,0.0,-1.0,0.0,9.m4v,10.0
2024-02-28 14:04:36.287018,1709125476.2870176,-35.64453125,-36.62109375,-25.390625,-37.59765625,-1.0,0.0,-1.0,0.0,9.m4v,10.0
2024-02-28 14:04:36.290923,1709125476.290923,-29.296875,-32.71484375,-21.484375,-30.76171875,-1.0,0.0,-1.0,0.0,9.m4v,10.0
2024-02-28 14:04:36.294829,1709125476.294829,-22.4609375,-29.78515625,-25.87890625,-22.4609375,-1.0,0.0,-1.0,0.0,9.m4v,10.0
2024-02-28 14:04:36.298734,1709125476.2987342,-29.78515625,-33.203125,-27.34375,-21.97265625,-1.0,0.0,-1.0,0.0,9.m4v,10.0
2024-02-28 14:04:36.302644,1709125476.3026438,-28.80859375,-34.1796875,-25.87890625,-23.92578125,-1.0,0.0,-1.0,0.0,9.m4v,10.0
2024-02-28 14:04:36.306549,1709125476.3065493,-30.2734375,-32.2265625,-27.83203125,-19.04296875,-1.0,0.0,-1.0,0.0,9.m4v,10.0
2024-02-28 14:04:36.310455,1709125476.3104548,-32.2265625,-30.2734375,-26.85546875,-16.6015625,-1.0,0.0,-1.0,0.0,9.m4v,10.0
2024-02-28 14:04:36.314360,1709125476.3143604,-37.109375,-31.25,-29.296875,-22.4609375,-1.0,0.0,-1.0,0.0,9.m4v,10.0
2024-02-28 14:04:36.318266,1709125476.318266,-41.50390625,-36.1328125,-32.2265625,-20.99609375,-1.0,0.0,-1.0,0.0,9.m4v,10.0
2024-02-28 14:04:36.322171,1709125476.3221714,-34.1796875,-33.203125,-30.2734375,-21.484375,-1.0,0.0,-1.0,0.0,9.m4v,10.0
2024-02-28 14:04:36.326077,1709125476.326077,-35.64453125,-34.1796875,-32.2265625,-26.85546875,-1.0,0.0,-1.0,0.0,9.m4v,10.0
2024-02-28 14:04:36.329983,1709125476.3299825,-39.55078125,-40.52734375,-39.0625,-32.2265625,-1.0,0.0,-1.0,0.0,9.m4v,10.0
2024-02-28 14:04:36.333888,1709125476.3338883,-37.109375,-42.96875,-37.59765625,-34.66796875,-1.0,0.0,-1.0,0.0,9.m4v,10.0
2024-02-28 14:04:36.337794,1709125476.3377938,-37.59765625,-39.55078125,-33.69140625,-35.64453125,-1.0,0.0,-1.0,0.0,9.m4v,10.0
2024-02-28 14:04:36.341699,1709125476.3416994,-35.15625,-37.59765625,-35.64453125,-36.62109375,-1.0,0.0,-1.0,0.0,9.m4v,10.0
2024-02-28 14:04:36.345605,1709125476.345605,-26.85546875,-40.0390625,-40.0390625,-35.15625,-1.0,0.0,-1.0,0.0,9.m4v,10.0
2024-02-28 14:04:36.349515,1709125476.3495152,-22.94921875,-37.59765625,-38.57421875,-35.15625,-1.0,0.0,-1.0,0.0,9.m4v,10.0
2024-02-28 14:04:36.353421,1709125476.3534207,-20.99609375,-38.57421875,-38.0859375,-33.69140625,-1.0,0.0,-1.0,0.0,9.m4v,10.0
2024-02-28 14:04:36.357327,1709125476.3573265,-22.94921875,-39.55078125,-37.109375,-35.64453125,-1.0,0.0,-1.0,0.0,9.m4v,10.0
2024-02-28 14:04:36.361232,1709125476.361232,-27.34375,-42.96875,-36.1328125,-40.0390625,-1.0,0.0,-1.0,0.0,9.m4v,10.0
2024-02-28 14:04:36.365138,1709125476.3651376,-26.85546875,-42.48046875,-30.76171875,-35.15625,-1.0,0.0,-1.0,0.0,9.m4v,10.0
2024-02-28 14:04:36.369043,1709125476.369043,-28.80859375,-35.64453125,-27.34375,-30.76171875,-1.0,0.0,-1.0,0.0,9.m4v,10.0
2024-02-28 14:04:36.372949,1709125476.3729486,-34.1796875,-34.66796875,-31.73828125,-28.3203125,-1.0,0.0,-1.0,0.0,9.m4v,10.0
2024-02-28 14:04:36.376854,1709125476.3768542,-34.1796875,-32.71484375,-29.296875,-23.4375,-1.0,0.0,-1.0,0.0,9.m4v,10.0
2024-02-28 14:04:36.380760,1709125476.3807597,-32.2265625,-28.3203125,-26.85546875,-24.90234375,-1.0,0.0,-1.0,0.0,9.m4v,10.0
2024-02-28 14:04:36.384665,1709125476.3846653,-28.80859375,-30.76171875,-29.296875,-24.4140625,-1.0,0.0,-1.0,0.0,9.m4v,10.0
2024-02-28 14:04:36.388571,1709125476.3885708,-23.92578125,-30.2734375,-30.2734375,-24.90234375,-1.0,0.0,-1.0,0.0,9.m4v,10.0
2024-02-28 14:04:36.392476,1709125476.3924763,-27.83203125,-30.2734375,-33.203125,-30.2734375,-1.0,0.0,-1.0,0.0,9.m4v,10.0
2024-02-28 14:04:36.396388,1709125476.3963878,-33.69140625,-34.66796875,-35.64453125,-35.15625,-1.0,0.0,-1.0,0.0,9.m4v,10.0
2024-02-28 14:04:36.400293,1709125476.4002934,-33.203125,-34.1796875,-33.203125,-34.1796875,-1.0,0.0,-1.0,0.0,9.m4v,10.0
2024-02-28 14:04:36.404199,1709125476.404199,-32.2265625,-30.2734375,-33.69140625,-34.66796875,-1.0,0.0,-1.0,0.0,9.m4v,10.0
2024-02-28 14:04:36.408104,1709125476.4081044,-33.69140625,-30.76171875,-37.109375,-37.109375,-1.0,0.0,-1.0,0.0,9.m4v,10.0
2024-02-28 14:04:36.412010,1709125476.41201,-26.3671875,-32.2265625,-33.203125,-33.203125,-1.0,0.0,-1.0,0.0,9.m4v,10.0
2024-02-28 14:04:36.415915,1709125476.4159155,-20.99609375,-33.203125,-28.3203125,-32.71484375,-1.0,0.0,-1.0,0.0,9.m4v,10.0
2024-02-28 14:04:36.419821,1709125476.419821,-27.83203125,-33.69140625,-34.1796875,-40.0390625,-1.0,0.0,-1.0,0.0,9.m4v,10.0
2024-02-28 14:04:36.423727,1709125476.4237266,-28.3203125,-32.2265625,-33.69140625,-42.96875,-1.0,0.0,-1.0,0.0,9.m4v,10.0
2024-02-28 14:04:36.427632,1709125476.427632,-26.3671875,-30.76171875,-29.78515625,-38.57421875,-1.0,0.0,-1.0,0.0,9.m4v,10.0
2024-02-28 14:04:36.431538,1709125476.4315376,-34.1796875,-27.34375,-33.203125,-41.50390625,-1.0,0.0,-1.0,0.0,9.m4v,10.0
2024-02-28 14:04:36.435443,1709125476.4354432,-47.8515625,-26.85546875,-34.66796875,-49.8046875,-1.0,0.0,-1.0,0.0,9.m4v,10.0
2024-02-28 14:04:36.439349,1709125476.4393487,-45.8984375,-28.80859375,-30.2734375,-41.9921875,-1.0,0.0,-1.0,0.0,9.m4v,10.0
2024-02-28 14:04:36.443259,1709125476.443259,-40.52734375,-28.80859375,-27.34375,-35.15625,-1.0,0.0,-1.0,0.0,9.m4v,10.0
2024-02-28 14:04:36.458881,1709125476.4588814,-52.24609375,-24.90234375,-34.1796875,-43.9453125,-1.0,0.0,-1.0,0.0,9.m4v,10.0
2024-02-28 14:04:36.462787,1709125476.462787,-39.55078125,-25.390625,-28.3203125,-40.0390625,-1.0,0.0,-1.0,0.0,9.m4v,10.0
2024-02-28 14:04:36.466692,1709125476.4666924,-49.31640625,-26.85546875,-23.92578125,-46.875,-1.0,0.0,-1.0,0.0,9.m4v,10.0
2024-02-28 14:04:36.470598,1709125476.470598,-59.08203125,-30.76171875,-25.390625,-57.12890625,-1.0,0.0,-1.0,0.0,9.m4v,10.0
2024-02-28 14:04:36.537001,1709125476.5370014,-121.09375,-28.3203125,-26.3671875,-127.9296875,-1.0,0.0,-1.0,0.0,9.m4v,10.0
2024-02-28 14:04:36.540907,1709125476.540907,-109.375,-32.2265625,-27.83203125,-124.51171875,-1.0,0.0,-1.0,0.0,9.m4v,10.0
2024-02-28 14:04:36.544812,1709125476.5448124,-102.5390625,-30.76171875,-32.71484375,-118.65234375,-1.0,0.0,-1.0,0.0,9.m4v,10.0
2024-02-28 14:04:36.548718,1709125476.548718,-97.16796875,-29.78515625,-31.73828125,-107.421875,-1.0,0.0,-1.0,0.0,9.m4v,10.0
2024-02-28 14:04:36.556529,1709125476.556529,-90.33203125,-38.57421875,-31.73828125,-97.16796875,-1.0,0.0,-1.0,0.0,9.m4v,10.0
2024-02-28 14:04:36.556529,1709125476.556529,-90.33203125,-38.57421875,-31.73828125,-97.16796875,-1.0,0.0,-1.0,0.0,9.m4v,10.0
2024-02-28 14:04:36.556529,1709125476.556529,-90.33203125,-38.57421875,-31.73828125,-97.16796875,-1.0,0.0,-1.0,0.0,9.m4v,10.0
2024-02-28 14:04:36.556529,1709125476.556529,-90.33203125,-38.57421875,-31.73828125,-97.16796875,-1.0,0.0,-1.0,0.0,9.m4v,10.0
2024-02-28 14:04:36.560435,1709125476.5604346,-89.84375,-34.66796875,-32.71484375,-86.42578125,-1.0,0.0,-1.0,0.0,9.m4v,10.0
2024-02-28 14:04:36.560435,1709125476.5604346,-89.84375,-34.66796875,-32.71484375,-86.42578125,-1.0,0.0,-1.0,0.0,9.m4v,10.0
2024-02-28 14:04:36.560435,1709125476.5604346,-89.84375,-34.66796875,-32.71484375,-86.42578125,-1.0,0.0,-1.0,0.0,9.m4v,10.0
2024-02-28 14:04:36.560435,1709125476.5604346,-89.84375,-34.66796875,-32.71484375,-86.42578125,-1.0,0.0,-1.0,0.0,9.m4v,10.0
2024-02-28 14:04:36.564340,1709125476.56434,-93.26171875,-37.109375,-41.015625,-89.84375,-1.0,0.0,-1.0,0.0,9.m4v,10.0
2024-02-28 14:04:36.564340,1709125476.56434,-93.26171875,-37.109375,-41.015625,-89.84375,-1.0,0.0,-1.0,0.0,9.m4v,10.0
2024-02-28 14:04:36.564340,1709125476.56434,-93.26171875,-37.109375,-41.015625,-89.84375,-1.0,0.0,-1.0,0.0,9.m4v,10.0
2024-02-28 14:04:36.564340,1709125476.56434,-93.26171875,-37.109375,-41.015625,-89.84375,-1.0,0.0,-1.0,0.0,9.m4v,10.0
2024-02-28 14:04:36.568246,1709125476.5682456,-83.984375,-32.71484375,-41.015625,-82.51953125,-1.0,0.0,-1.0,0.0,9.m4v,10.0
2024-02-28 14:04:36.568246,1709125476.5682456,-83.984375,-32.71484375,-41.015625,-82.51953125,-1.0,0.0,-1.0,0.0,9.m4v,10.0
2024-02-28 14:04:36.568246,1709125476.5682456,-83.984375,-32.71484375,-41.015625,-82.51953125,-1.0,0.0,-1.0,0.0,9.m4v,10.0
2024-02-28 14:04:36.568246,1709125476.5682456,-83.984375,-32.71484375,-41.015625,-82.51953125,-1.0,0.0,-1.0,0.0,9.m4v,10.0
2024-02-28 14:04:36.572151,1709125476.5721512,-79.1015625,-28.80859375,-38.0859375,-64.94140625,-1.0,0.0,-1.0,0.0,9.m4v,10.0
2024-02-28 14:04:36.572151,1709125476.5721512,-79.1015625,-28.80859375,-38.0859375,-64.94140625,-1.0,0.0,-1.0,0.0,9.m4v,10.0
2024-02-28 14:04:36.572151,1709125476.5721512,-79.1015625,-28.80859375,-38.0859375,-64.94140625,-1.0,0.0,-1.0,0.0,9.m4v,10.0
2024-02-28 14:04:36.572151,1709125476.5721512,-79.1015625,-28.80859375,-38.0859375,-64.94140625,-1.0,0.0,-1.0,0.0,9.m4v,10.0
2024-02-28 14:04:36.576057,1709125476.5760567,-73.73046875,-32.2265625,-38.0859375,-58.59375,-1.0,0.0,-1.0,0.0,9.m4v,10.0
2024-02-28 14:04:36.576057,1709125476.5760567,-73.73046875,-32.2265625,-38.0859375,-58.59375,-1.0,0.0,-1.0,0.0,9.m4v,10.0
2024-02-28 14:04:36.576057,1709125476.5760567,-73.73046875,-32.2265625,-38.0859375,-58.59375,-1.0,0.0,-1.0,0.0,9.m4v,10.0
2024-02-28 14:04:36.576057,1709125476.5760567,-73.73046875,-32.2265625,-38.0859375,-58.59375,-1.0,0.0,-1.0,0.0,9.m4v,10.0
2024-02-28 14:04:36.579962,1709125476.5799625,-53.7109375,-33.203125,-37.109375,-55.6640625,-1.0,0.0,-1.0,0.0,9.m4v,10.0
2024-02-28 14:04:36.579962,1709125476.5799625,-53.7109375,-33.203125,-37.109375,-55.6640625,-1.0,0.0,-1.0,0.0,9.m4v,10.0
2024-02-28 14:04:36.579962,1709125476.5799625,-53.7109375,-33.203125,-37.109375,-55.6640625,-1.0,0.0,-1.0,0.0,9.m4v,10.0
2024-02-28 14:04:36.579962,1709125476.5799625,-53.7109375,-33.203125,-37.109375,-55.6640625,-1.0,0.0,-1.0,0.0,9.m4v,10.0
2024-02-28 14:04:36.583872,1709125476.583872,-44.43359375,-39.0625,-32.71484375,-43.45703125,-1.0,0.0,-1.0,0.0,9.m4v,10.0
2024-02-28 14:04:36.583872,1709125476.583872,-44.43359375,-39.0625,-32.71484375,-43.45703125,-1.0,0.0,-1.0,0.0,9.m4v,10.0
2024-02-28 14:04:36.583872,1709125476.583872,-44.43359375,-39.0625,-32.71484375,-43.45703125,-1.0,0.0,-1.0,0.0,9.m4v,10.0
2024-02-28 14:04:36.583872,1709125476.583872,-44.43359375,-39.0625,-32.71484375,-43.45703125,-1.0,0.0,-1.0,0.0,9.m4v,10.0
2024-02-28 14:04:36.587778,1709125476.5877776,-31.73828125,-43.9453125,-32.2265625,-25.87890625,-1.0,0.0,-1.0,0.0,9.m4v,10.0
2024-02-28 14:04:36.587778,1709125476.5877776,-31.73828125,-43.9453125,-32.2265625,-25.87890625,-1.0,0.0,-1.0,0.0,9.m4v,10.0
2024-02-28 14:04:36.587778,1709125476.5877776,-31.73828125,-43.9453125,-32.2265625,-25.87890625,-1.0,0.0,-1.0,0.0,9.m4v,10.0
2024-02-28 14:04:36.587778,1709125476.5877776,-31.73828125,-43.9453125,-32.2265625,-25.87890625,-1.0,0.0,-1.0,0.0,9.m4v,10.0
2024-02-28 14:04:36.591683,1709125476.5916831,-20.01953125,-45.41015625,-34.66796875,-10.7421875,-1.0,0.0,-1.0,0.0,9.m4v,10.0
2024-02-28 14:04:36.591683,1709125476.5916831,-20.01953125,-45.41015625,-34.66796875,-10.7421875,-1.0,0.0,-1.0,0.0,9.m4v,10.0
2024-02-28 14:04:36.591683,1709125476.5916831,-20.01953125,-45.41015625,-34.66796875,-10.7421875,-1.0,0.0,-1.0,0.0,9.m4v,10.0
2024-02-28 14:04:36.591683,1709125476.5916831,-20.01953125,-45.41015625,-34.66796875,-10.7421875,-1.0,0.0,-1.0,0.0,9.m4v,10.0
2024-02-28 14:04:36.595589,1709125476.5955887,-6.34765625,-44.43359375,-33.69140625,0.0,-1.0,0.0,-1.0,0.0,9.m4v,10.0
2024-02-28 14:04:36.595589,1709125476.5955887,-6.34765625,-44.43359375,-33.69140625,0.0,-1.0,0.0,-1.0,0.0,9.m4v,10.0
2024-02-28 14:04:36.595589,1709125476.5955887,-6.34765625,-44.43359375,-33.69140625,0.0,-1.0,0.0,-1.0,0.0,9.m4v,10.0
2024-02-28 14:04:36.599494,1709125476.5994942,10.7421875,-36.1328125,-33.203125,2.44140625,-1.0,0.0,-1.0,0.0,9.m4v,10.0
2024-02-28 14:04:36.599494,1709125476.5994942,10.7421875,-36.1328125,-33.203125,2.44140625,-1.0,0.0,-1.0,0.0,9.m4v,10.0
2024-02-28 14:04:36.599494,1709125476.5994942,10.7421875,-36.1328125,-33.203125,2.44140625,-1.0,0.0,-1.0,0.0,9.m4v,10.0
2024-02-28 14:04:36.603400,1709125476.6033998,9.765625,-32.71484375,-30.2734375,0.9765625,-1.0,0.0,-1.0,0.0,9.m4v,10.0
2024-02-28 14:04:36.603400,1709125476.6033998,9.765625,-32.71484375,-30.2734375,0.9765625,-1.0,0.0,-1.0,0.0,9.m4v,10.0
2024-02-28 14:04:36.603400,1709125476.6033998,9.765625,-32.71484375,-30.2734375,0.9765625,-1.0,0.0,-1.0,0.0,9.m4v,10.0
2024-02-28 14:04:36.611211,1709125476.6112108,15.13671875,-37.59765625,-31.25,18.06640625,-1.0,0.0,-1.0,0.0,9.m4v,10.0
2024-02-28 14:04:36.611211,1709125476.6112108,15.13671875,-37.59765625,-31.25,18.06640625,-1.0,0.0,-1.0,0.0,9.m4v,10.0
2024-02-28 14:04:36.611211,1709125476.6112108,15.13671875,-37.59765625,-31.25,18.06640625,-1.0,0.0,-1.0,0.0,9.m4v,10.0
2024-02-28 14:04:36.615116,1709125476.6151164,21.484375,-35.15625,-28.80859375,25.390625,-1.0,0.0,-1.0,0.0,9.m4v,10.0
2024-02-28 14:04:36.615116,1709125476.6151164,21.484375,-35.15625,-28.80859375,25.390625,-1.0,0.0,-1.0,0.0,9.m4v,10.0
2024-02-28 14:04:36.615116,1709125476.6151164,21.484375,-35.15625,-28.80859375,25.390625,-1.0,0.0,-1.0,0.0,9.m4v,10.0
2024-02-28 14:04:36.622928,1709125476.6229277,13.671875,-28.80859375,-35.15625,19.53125,-1.0,0.0,-1.0,0.0,9.m4v,10.0
2024-02-28 14:04:36.622928,1709125476.6229277,13.671875,-28.80859375,-35.15625,19.53125,-1.0,0.0,-1.0,0.0,9.m4v,10.0
2024-02-28 14:04:36.622928,1709125476.6229277,13.671875,-28.80859375,-35.15625,19.53125,-1.0,0.0,-1.0,0.0,9.m4v,10.0
2024-02-28 14:04:36.626833,1709125476.6268332,9.27734375,-27.83203125,-32.2265625,22.94921875,-1.0,0.0,-1.0,0.0,9.m4v,10.0
2024-02-28 14:04:36.626833,1709125476.6268332,9.27734375,-27.83203125,-32.2265625,22.94921875,-1.0,0.0,-1.0,0.0,9.m4v,10.0
2024-02-28 14:04:36.626833,1709125476.6268332,9.27734375,-27.83203125,-32.2265625,22.94921875,-1.0,0.0,-1.0,0.0,9.m4v,10.0
2024-02-28 14:04:36.634648,1709125476.6346483,7.8125,-32.2265625,-27.34375,23.92578125,-1.0,0.0,-1.0,0.0,9.m4v,10.0
2024-02-28 14:04:36.638554,1709125476.638554,5.859375,-35.64453125,-24.90234375,12.20703125,-1.0,0.0,-1.0,0.0,9.m4v,10.0
2024-02-28 14:04:36.646365,1709125476.646365,4.8828125,-33.69140625,-28.3203125,7.32421875,-1.0,0.0,-1.0,0.0,9.m4v,10.0
2024-02-28 14:04:36.650270,1709125476.6502705,-0.9765625,-34.66796875,-29.296875,6.34765625,-1.0,0.0,-1.0,0.0,9.m4v,10.0
2024-02-28 14:04:36.658082,1709125476.6580815,-3.90625,-41.015625,-29.296875,6.34765625,-1.0,0.0,-1.0,0.0,9.m4v,10.0
2024-02-28 14:04:36.661987,1709125476.661987,3.41796875,-33.69140625,-29.78515625,13.18359375,-1.0,0.0,-1.0,0.0,9.m4v,10.0
2024-02-28 14:04:36.669798,1709125476.669798,4.39453125,-30.76171875,-35.64453125,9.765625,-1.0,0.0,-1.0,0.0,9.m4v,10.0
2024-02-28 14:04:36.806506,1709125476.8065064,-24.4140625,-35.15625,-36.1328125,-26.85546875,-1.0,0.0,-1.0,0.0,9.m4v,10.0
2024-02-28 14:04:36.810412,1709125476.810412,-22.4609375,-32.2265625,-31.73828125,-22.94921875,-1.0,0.0,-1.0,0.0,9.m4v,10.0
2024-02-28 14:04:36.814317,1709125476.8143177,-19.04296875,-31.73828125,-25.87890625,-29.78515625,-1.0,0.0,-1.0,0.0,9.m4v,10.0
2024-02-28 14:04:36.818228,1709125476.8182282,-30.2734375,-37.109375,-26.3671875,-34.66796875,-1.0,0.0,-1.0,0.0,9.m4v,10.0
2024-02-28 14:04:36.822134,1709125476.8221338,-33.203125,-39.0625,-30.2734375,-28.80859375,-1.0,0.0,-1.0,0.0,9.m4v,10.0
2024-02-28 14:04:36.826039,1709125476.8260393,-28.80859375,-37.109375,-32.71484375,-30.76171875,-1.0,0.0,-1.0,0.0,9.m4v,10.0
2024-02-28 14:04:36.829945,1709125476.8299448,-24.4140625,-37.109375,-30.76171875,-36.1328125,-1.0,0.0,-1.0,0.0,9.m4v,10.0
2024-02-28 14:04:36.833850,1709125476.8338504,-23.4375,-37.109375,-29.78515625,-32.71484375,-1.0,0.0,-1.0,0.0,9.m4v,10.0
2024-02-28 14:04:36.837756,1709125476.837756,-25.87890625,-34.1796875,-31.73828125,-32.71484375,-1.0,0.0,-1.0,0.0,9.m4v,10.0
2024-02-28 14:04:36.841661,1709125476.8416617,-22.94921875,-34.66796875,-34.1796875,-31.25,-1.0,0.0,-1.0,0.0,9.m4v,10.0
2024-02-28 14:04:36.845567,1709125476.845567,-21.97265625,-33.203125,-34.1796875,-28.3203125,-1.0,0.0,-1.0,0.0,9.m4v,10.0
2024-02-28 14:04:36.849473,1709125476.8494723,-24.90234375,-35.64453125,-35.64453125,-30.76171875,-1.0,0.0,-1.0,0.0,9.m4v,10.0
2024-02-28 14:04:36.853378,1709125476.853378,-22.94921875,-37.59765625,-30.76171875,-35.64453125,-1.0,0.0,-1.0,0.0,9.m4v,10.0
2024-02-28 14:04:36.857284,1709125476.8572836,-22.4609375,-31.73828125,-23.92578125,-29.296875,-1.0,0.0,-1.0,0.0,9.m4v,10.0
2024-02-28 14:04:36.861189,1709125476.8611891,-26.3671875,-31.73828125,-23.4375,-23.92578125,-1.0,0.0,-1.0,0.0,9.m4v,10.0
2024-02-28 14:04:36.865099,1709125476.8650992,-32.2265625,-31.25,-29.296875,-29.78515625,-1.0,0.0,-1.0,0.0,9.m4v,10.0
2024-02-28 14:04:36.869005,1709125476.8690047,-36.62109375,-26.85546875,-33.69140625,-35.64453125,-1.0,0.0,-1.0,0.0,9.m4v,10.0
2024-02-28 14:04:36.872910,1709125476.8729105,-36.62109375,-30.76171875,-30.76171875,-33.203125,-1.0,0.0,-1.0,0.0,9.m4v,10.0
2024-02-28 14:04:36.876816,1709125476.8768158,-26.3671875,-34.1796875,-26.85546875,-15.13671875,-1.0,0.0,-1.0,0.0,9.m4v,10.0
2024-02-28 14:04:36.880721,1709125476.880721,-27.34375,-28.80859375,-29.296875,-22.94921875,-1.0,0.0,-1.0,0.0,9.m4v,10.0
2024-02-28 14:04:36.884627,1709125476.8846269,-42.96875,-27.34375,-36.62109375,-44.43359375,-1.0,0.0,-1.0,0.0,9.m4v,10.0
2024-02-28 14:04:36.888533,1709125476.8885326,-43.45703125,-26.85546875,-38.57421875,-30.76171875,-1.0,0.0,-1.0,0.0,9.m4v,10.0
2024-02-28 14:04:36.892438,1709125476.8924382,-46.38671875,-28.3203125,-45.8984375,-36.62109375,-1.0,0.0,-1.0,0.0,9.m4v,10.0
2024-02-28 14:04:36.896344,1709125476.8963437,-50.78125,-36.1328125,-48.33984375,-51.26953125,-1.0,0.0,-1.0,0.0,9.m4v,10.0
2024-02-28 14:04:36.900249,1709125476.9002492,-46.875,-35.64453125,-41.9921875,-45.41015625,-1.0,0.0,-1.0,0.0,9.m4v,10.0
2024-02-28 14:04:36.904155,1709125476.9041548,-47.8515625,-30.2734375,-40.0390625,-48.828125,-1.0,0.0,-1.0,0.0,9.m4v,10.0
2024-02-28 14:04:36.908060,1709125476.9080603,-50.29296875,-27.83203125,-38.57421875,-49.8046875,-1.0,0.0,-1.0,0.0,9.m4v,10.0
2024-02-28 14:04:36.911970,1709125476.9119704,-41.9921875,-25.87890625,-36.1328125,-42.96875,-1.0,0.0,-1.0,0.0,9.m4v,10.0
2024-02-28 14:04:36.915876,1709125476.915876,-43.9453125,-28.80859375,-42.48046875,-46.38671875,-1.0,0.0,-1.0,0.0,9.m4v,10.0
2024-02-28 14:04:36.919781,1709125476.9197814,-42.96875,-28.3203125,-46.38671875,-39.55078125,-1.0,0.0,-1.0,0.0,9.m4v,10.0
2024-02-28 14:04:36.923687,1709125476.923687,-38.57421875,-26.3671875,-40.0390625,-36.62109375,-1.0,0.0,-1.0,0.0,9.m4v,10.0
2024-02-28 14:04:36.927593,1709125476.9275925,-41.50390625,-27.34375,-41.015625,-41.9921875,-1.0,0.0,-1.0,0.0,9.m4v,10.0
2024-02-28 14:04:36.931498,1709125476.931498,-35.64453125,-28.3203125,-38.0859375,-41.9921875,-1.0,0.0,-1.0,0.0,9.m4v,10.0
2024-02-28 14:04:37.036956,1709125477.0369563,-26.3671875,-31.25,-34.1796875,-46.875,-1.0,0.0,-1.0,0.0,9.m4v,10.0
2024-02-28 14:04:37.040862,1709125477.0408618,-21.97265625,-28.3203125,-32.2265625,-47.8515625,-1.0,0.0,-1.0,0.0,9.m4v,10.0
2024-02-28 14:04:37.044767,1709125477.0447674,-19.53125,-32.2265625,-28.80859375,-44.43359375,-1.0,0.0,-1.0,0.0,9.m4v,10.0
2024-02-28 14:04:37.048673,1709125477.048673,-22.4609375,-36.62109375,-29.296875,-38.0859375,-1.0,0.0,-1.0,0.0,9.m4v,10.0
2024-02-28 14:04:37.052582,1709125477.0525825,-32.2265625,-36.1328125,-33.69140625,-35.64453125,-1.0,0.0,-1.0,0.0,9.m4v,10.0
2024-02-28 14:04:37.056488,1709125477.0564878,-37.109375,-36.62109375,-32.71484375,-35.15625,-1.0,0.0,-1.0,0.0,9.m4v,10.0
2024-02-28 14:04:37.060393,1709125477.060393,-36.62109375,-37.109375,-27.83203125,-39.0625,-1.0,0.0,-1.0,0.0,9.m4v,10.0
2024-02-28 14:04:37.064299,1709125477.0642989,-33.69140625,-40.52734375,-31.25,-37.109375,-1.0,0.0,-1.0,0.0,9.m4v,10.0
2024-02-28 14:04:37.068204,1709125477.0682044,-36.1328125,-40.0390625,-32.71484375,-33.69140625,-1.0,0.0,-1.0,0.0,9.m4v,10.0
2024-02-28 14:04:37.072110,1709125477.07211,-41.015625,-37.59765625,-31.73828125,-34.66796875,-1.0,0.0,-1.0,0.0,9.m4v,10.0
2024-02-28 14:04:37.076015,1709125477.0760157,-45.41015625,-37.109375,-32.2265625,-34.66796875,-1.0,0.0,-1.0,0.0,9.m4v,10.0
2024-02-28 14:04:37.079921,1709125477.079921,-45.8984375,-38.57421875,-29.296875,-26.85546875,-1.0,0.0,-1.0,0.0,9.m4v,10.0
2024-02-28 14:04:37.083827,1709125477.0838263,-41.50390625,-36.1328125,-29.296875,-28.80859375,-1.0,0.0,-1.0,0.0,9.m4v,10.0
2024-02-28 14:04:37.087732,1709125477.0877323,-38.57421875,-31.73828125,-32.71484375,-35.15625,-1.0,0.0,-1.0,0.0,9.m4v,10.0
2024-02-28 14:04:37.091638,1709125477.0916378,-42.48046875,-32.2265625,-34.66796875,-34.1796875,-1.0,0.0,-1.0,0.0,9.m4v,10.0
2024-02-28 14:04:37.095543,1709125477.0955434,-46.875,-32.2265625,-31.73828125,-31.25,-1.0,0.0,-1.0,0.0,9.m4v,10.0
2024-02-28 14:04:37.099454,1709125477.0994537,-49.31640625,-31.25,-31.25,-31.73828125,-1.0,0.0,-1.0,0.0,9.m4v,10.0
2024-02-28 14:04:37.103359,1709125477.1033592,-51.26953125,-37.109375,-34.66796875,-32.71484375,-1.0,0.0,-1.0,0.0,9.m4v,10.0
2024-02-28 14:04:37.130698,1709125477.1306982,-45.41015625,-30.76171875,-26.85546875,-37.109375,-1.0,0.0,-1.0,0.0,9.m4v,10.0
2024-02-28 14:04:37.134604,1709125477.1346035,-48.828125,-28.3203125,-29.78515625,-43.9453125,-1.0,0.0,-1.0,0.0,9.m4v,10.0
2024-02-28 14:04:37.138509,1709125477.1385093,-40.0390625,-29.78515625,-33.69140625,-40.0390625,-1.0,0.0,-1.0,0.0,9.m4v,10.0
2024-02-28 14:04:37.142415,1709125477.1424148,-42.96875,-37.59765625,-40.0390625,-41.50390625,-1.0,0.0,-1.0,0.0,9.m4v,10.0
2024-02-28 14:04:37.146325,1709125477.146325,-42.96875,-36.62109375,-39.0625,-42.48046875,-1.0,0.0,-1.0,0.0,9.m4v,10.0
2024-02-28 14:04:37.150231,1709125477.150231,-40.0390625,-34.66796875,-43.9453125,-42.96875,-1.0,0.0,-1.0,0.0,9.m4v,10.0
2024-02-28 14:04:37.154136,1709125477.1541364,-43.45703125,-31.25,-48.33984375,-43.45703125,-1.0,0.0,-1.0,0.0,9.m4v,10.0
2024-02-28 14:04:37.158042,1709125477.158042,-47.36328125,-29.296875,-40.52734375,-39.0625,-1.0,0.0,-1.0,0.0,9.m4v,10.0
2024-02-28 14:04:37.161947,1709125477.1619475,-52.24609375,-30.2734375,-32.71484375,-40.0390625,-1.0,0.0,-1.0,0.0,9.m4v,10.0
2024-02-28 14:04:37.165853,1709125477.165853,-49.31640625,-28.80859375,-32.71484375,-35.15625,-1.0,0.0,-1.0,0.0,9.m4v,10.0
2024-02-28 14:04:37.169759,1709125477.1697586,-46.875,-27.34375,-33.203125,-36.62109375,-1.0,0.0,-1.0,0.0,9.m4v,10.0
2024-02-28 14:04:37.173664,1709125477.173664,-51.7578125,-30.76171875,-34.66796875,-39.0625,-1.0,0.0,-1.0,0.0,9.m4v,10.0
2024-02-28 14:04:37.177570,1709125477.1775696,-47.8515625,-33.203125,-33.203125,-33.69140625,-1.0,0.0,-1.0,0.0,9.m4v,10.0
2024-02-28 14:04:37.181475,1709125477.1814752,-41.015625,-30.2734375,-36.1328125,-35.64453125,-1.0,0.0,-1.0,0.0,9.m4v,10.0
2024-02-28 14:04:37.185381,1709125477.1853807,-36.62109375,-27.83203125,-42.96875,-37.59765625,-1.0,0.0,-1.0,0.0,9.m4v,10.0
2024-02-28 14:04:37.189286,1709125477.1892862,-31.25,-30.2734375,-43.9453125,-32.71484375,-1.0,0.0,-1.0,0.0,9.m4v,10.0
2024-02-28 14:04:37.193197,1709125477.1931963,-27.34375,-30.2734375,-39.55078125,-27.83203125,-1.0,0.0,-1.0,0.0,9.m4v,10.0
2024-02-28 14:04:37.197102,1709125477.197102,-36.1328125,-30.76171875,-39.0625,-31.73828125,-1.0,0.0,-1.0,0.0,9.m4v,10.0
2024-02-28 14:04:37.201008,1709125477.2010078,-50.78125,-36.1328125,-38.57421875,-36.1328125,-1.0,0.0,-1.0,0.0,9.m4v,10.0
2024-02-28 14:04:37.204913,1709125477.2049134,-46.875,-35.64453125,-32.71484375,-34.1796875,-1.0,0.0,-1.0,0.0,9.m4v,10.0
2024-02-28 14:04:37.208819,1709125477.208819,-46.38671875,-37.59765625,-31.73828125,-36.1328125,-1.0,0.0,-1.0,0.0,9.m4v,10.0
2024-02-28 14:04:37.212724,1709125477.2127244,-48.828125,-35.15625,-34.66796875,-38.0859375,-1.0,0.0,-1.0,0.0,9.m4v,10.0
2024-02-28 14:04:37.216630,1709125477.21663,-46.38671875,-33.69140625,-38.0859375,-38.0859375,-1.0,0.0,-1.0,0.0,9.m4v,10.0
2024-02-28 14:04:37.220536,1709125477.2205355,-50.29296875,-36.1328125,-35.64453125,-42.96875,-1.0,0.0,-1.0,0.0,9.m4v,10.0
2024-02-28 14:04:37.224441,1709125477.224441,-49.8046875,-32.71484375,-34.1796875,-45.41015625,-1.0,0.0,-1.0,0.0,9.m4v,10.0
2024-02-28 14:04:37.228347,1709125477.2283466,-42.48046875,-32.71484375,-32.2265625,-42.96875,-1.0,0.0,-1.0,0.0,9.m4v,10.0
2024-02-28 14:04:37.232252,1709125477.232252,-33.69140625,-31.73828125,-30.76171875,-43.9453125,-1.0,0.0,-1.0,0.0,9.m4v,10.0
2024-02-28 14:04:37.236158,1709125477.2361577,-35.64453125,-28.3203125,-30.2734375,-44.921875,-1.0,0.0,-1.0,0.0,9.m4v,10.0
2024-02-28 14:04:37.240068,1709125477.2400675,-40.0390625,-28.80859375,-34.1796875,-45.8984375,-1.0,0.0,-1.0,0.0,9.m4v,10.0
2024-02-28 14:04:37.243973,1709125477.2439733,-38.0859375,-29.78515625,-37.59765625,-39.55078125,-1.0,0.0,-1.0,0.0,9.m4v,10.0
2024-02-28 14:04:37.247879,1709125477.2478788,-43.9453125,-30.2734375,-35.15625,-37.59765625,-1.0,0.0,-1.0,0.0,9.m4v,10.0
2024-02-28 14:04:37.251784,1709125477.2517843,-50.29296875,-35.15625,-36.1328125,-43.9453125,-1.0,0.0,-1.0,0.0,9.m4v,10.0
2024-02-28 14:04:37.255690,1709125477.25569,-43.9453125,-41.015625,-35.15625,-45.8984375,-1.0,0.0,-1.0,0.0,9.m4v,10.0
2024-02-28 14:04:37.259595,1709125477.2595954,-46.875,-37.109375,-32.2265625,-40.0390625,-1.0,0.0,-1.0,0.0,9.m4v,10.0
2024-02-28 14:04:37.263501,1709125477.263501,-48.33984375,-33.69140625,-36.1328125,-35.15625,-1.0,0.0,-1.0,0.0,9.m4v,10.0
2024-02-28 14:04:37.267406,1709125477.2674065,-34.66796875,-34.1796875,-30.76171875,-35.64453125,-1.0,0.0,-1.0,0.0,9.m4v,10.0
2024-02-28 14:04:37.271312,1709125477.271312,-29.296875,-34.66796875,-25.87890625,-28.3203125,-1.0,0.0,-1.0,0.0,9.m4v,10.0
2024-02-28 14:04:37.275218,1709125477.2752175,-32.71484375,-35.15625,-23.4375,-22.94921875,-1.0,0.0,-1.0,0.0,9.m4v,10.0
2024-02-28 14:04:37.279123,1709125477.279123,-29.78515625,-37.59765625,-26.85546875,-29.78515625,-1.0,0.0,-1.0,0.0,9.m4v,10.0
2024-02-28 14:04:37.283029,1709125477.2830286,-24.4140625,-40.0390625,-33.69140625,-33.203125,-1.0,0.0,-1.0,0.0,9.m4v,10.0
2024-02-28 14:04:37.286939,1709125477.286939,-32.2265625,-40.52734375,-32.2265625,-32.71484375,-1.0,0.0,-1.0,0.0,9.m4v,10.0
2024-02-28 14:04:37.290844,1709125477.2908442,-31.25,-38.57421875,-29.78515625,-36.1328125,-1.0,0.0,-1.0,0.0,9.m4v,10.0
2024-02-28 14:04:37.294750,1709125477.2947495,-28.80859375,-37.59765625,-33.69140625,-42.48046875,-1.0,0.0,-1.0,0.0,9.m4v,10.0
2024-02-28 14:04:37.298655,1709125477.2986553,-30.2734375,-34.1796875,-33.203125,-41.015625,-1.0,0.0,-1.0,0.0,9.m4v,10.0
2024-02-28 14:04:37.302561,1709125477.3025608,-33.69140625,-30.2734375,-27.34375,-39.0625,-1.0,0.0,-1.0,0.0,9.m4v,10.0
2024-02-28 14:04:37.306466,1709125477.3064663,-37.109375,-28.80859375,-28.80859375,-41.015625,-1.0,0.0,-1.0,0.0,9.m4v,10.0
2024-02-28 14:04:37.310372,1709125477.310372,-30.2734375,-30.2734375,-28.80859375,-33.69140625,-1.0,0.0,-1.0,0.0,9.m4v,10.0
2024-02-28 14:04:37.310372,1709125477.310372,-30.2734375,-30.2734375,-28.80859375,-33.69140625,-1.0,0.0,-1.0,0.0,9.m4v,10.0
2024-02-28 14:04:37.314277,1709125477.3142774,-27.83203125,-34.1796875,-27.34375,-28.3203125,-1.0,0.0,-1.0,0.0,9.m4v,10.0
2024-02-28 14:04:37.314277,1709125477.3142774,-27.83203125,-34.1796875,-27.34375,-28.3203125,-1.0,0.0,-1.0,0.0,9.m4v,10.0
2024-02-28 14:04:37.318183,1709125477.318183,-30.2734375,-32.71484375,-28.80859375,-34.66796875,-1.0,0.0,-1.0,0.0,9.m4v,10.0
2024-02-28 14:04:37.318183,1709125477.318183,-30.2734375,-32.71484375,-28.80859375,-34.66796875,-1.0,0.0,-1.0,0.0,9.m4v,10.0
2024-02-28 14:04:37.322088,1709125477.3220885,-33.203125,-36.62109375,-37.59765625,-40.52734375,-1.0,0.0,-1.0,0.0,9.m4v,10.0
2024-02-28 14:04:37.322088,1709125477.3220885,-33.203125,-36.62109375,-37.59765625,-40.52734375,-1.0,0.0,-1.0,0.0,9.m4v,10.0
2024-02-28 14:04:37.325994,1709125477.325994,-33.69140625,-37.59765625,-36.1328125,-37.59765625,-1.0,0.0,-1.0,0.0,9.m4v,10.0
2024-02-28 14:04:37.325994,1709125477.325994,-33.69140625,-37.59765625,-36.1328125,-37.59765625,-1.0,0.0,-1.0,0.0,9.m4v,10.0
2024-02-28 14:04:37.329900,1709125477.3298995,-33.69140625,-36.1328125,-30.76171875,-28.80859375,-1.0,0.0,-1.0,0.0,9.m4v,10.0
2024-02-28 14:04:37.329900,1709125477.3298995,-33.69140625,-36.1328125,-30.76171875,-28.80859375,-1.0,0.0,-1.0,0.0,9.m4v,10.0
2024-02-28 14:04:37.333810,1709125477.3338096,-31.25,-38.0859375,-31.73828125,-24.90234375,-1.0,0.0,-1.0,0.0,9.m4v,10.0
2024-02-28 14:04:37.333810,1709125477.3338096,-31.25,-38.0859375,-31.73828125,-24.90234375,-1.0,0.0,-1.0,0.0,9.m4v,10.0
2024-02-28 14:04:37.337715,1709125477.3377151,-23.4375,-37.109375,-34.66796875,-27.83203125,-1.0,0.0,-1.0,0.0,9.m4v,10.0
2024-02-28 14:04:37.337715,1709125477.3377151,-23.4375,-37.109375,-34.66796875,-27.83203125,-1.0,0.0,-1.0,0.0,9.m4v,10.0
2024-02-28 14:04:37.337715,1709125477.3377151,-23.4375,-37.109375,-34.66796875,-27.83203125,-1.0,0.0,-1.0,0.0,9.m4v,10.0
2024-02-28 14:04:37.341621,1709125477.3416207,-29.78515625,-38.0859375,-35.15625,-32.2265625,-1.0,0.0,-1.0,0.0,9.m4v,10.0
2024-02-28 14:04:37.341621,1709125477.3416207,-29.78515625,-38.0859375,-35.15625,-32.2265625,-1.0,0.0,-1.0,0.0,9.m4v,10.0
2024-02-28 14:04:37.341621,1709125477.3416207,-29.78515625,-38.0859375,-35.15625,-32.2265625,-1.0,0.0,-1.0,0.0,9.m4v,10.0
2024-02-28 14:04:37.341621,1709125477.3416207,-29.78515625,-38.0859375,-35.15625,-32.2265625,-1.0,0.0,-1.0,0.0,9.m4v,10.0
2024-02-28 14:04:37.345526,1709125477.3455262,-33.203125,-43.45703125,-35.64453125,-30.76171875,-1.0,0.0,-1.0,0.0,9.m4v,10.0
2024-02-28 14:04:37.345526,1709125477.3455262,-33.203125,-43.45703125,-35.64453125,-30.76171875,-1.0,0.0,-1.0,0.0,9.m4v,10.0
2024-02-28 14:04:37.345526,1709125477.3455262,-33.203125,-43.45703125,-35.64453125,-30.76171875,-1.0,0.0,-1.0,0.0,9.m4v,10.0
2024-02-28 14:04:37.345526,1709125477.3455262,-33.203125,-43.45703125,-35.64453125,-30.76171875,-1.0,0.0,-1.0,0.0,9.m4v,10.0
2024-02-28 14:04:37.349432,1709125477.3494318,-25.390625,-40.0390625,-33.69140625,-26.3671875,-1.0,0.0,-1.0,0.0,9.m4v,10.0
2024-02-28 14:04:37.349432,1709125477.3494318,-25.390625,-40.0390625,-33.69140625,-26.3671875,-1.0,0.0,-1.0,0.0,9.m4v,10.0
2024-02-28 14:04:37.349432,1709125477.3494318,-25.390625,-40.0390625,-33.69140625,-26.3671875,-1.0,0.0,-1.0,0.0,9.m4v,10.0
2024-02-28 14:04:37.349432,1709125477.3494318,-25.390625,-40.0390625,-33.69140625,-26.3671875,-1.0,0.0,-1.0,0.0,9.m4v,10.0
2024-02-28 14:04:37.376770,1709125477.3767705,-39.55078125,-36.1328125,-40.52734375,-35.15625,-1.0,0.0,-1.0,0.0,9.m4v,10.0
2024-02-28 14:04:37.380680,1709125477.3806803,-44.921875,-39.55078125,-37.59765625,-38.57421875,-1.0,0.0,-1.0,0.0,9.m4v,10.0
2024-02-28 14:04:37.384586,1709125477.384586,-41.50390625,-37.109375,-32.71484375,-32.71484375,-1.0,0.0,-1.0,0.0,9.m4v,10.0
2024-02-28 14:04:37.404114,1709125477.4041135,-39.55078125,-39.55078125,-33.69140625,-39.55078125,-1.0,0.0,-1.0,0.0,9.m4v,10.0
2024-02-28 14:04:37.408019,1709125477.408019,-42.96875,-37.109375,-35.64453125,-41.015625,-1.0,0.0,-1.0,0.0,9.m4v,10.0
2024-02-28 14:04:37.411925,1709125477.4119246,-44.43359375,-32.71484375,-31.73828125,-48.828125,-1.0,0.0,-1.0,0.0,9.m4v,10.0
2024-02-28 14:04:37.415830,1709125477.41583,-43.9453125,-29.78515625,-34.1796875,-48.828125,-1.0,0.0,-1.0,0.0,9.m4v,10.0
2024-02-28 14:04:37.419736,1709125477.4197357,-42.48046875,-25.390625,-31.25,-43.9453125,-1.0,0.0,-1.0,0.0,9.m4v,10.0
2024-02-28 14:04:37.423641,1709125477.4236412,-44.921875,-23.4375,-29.78515625,-46.38671875,-1.0,0.0,-1.0,0.0,9.m4v,10.0
2024-02-28 14:04:37.427551,1709125477.4275508,-49.31640625,-26.85546875,-32.71484375,-55.17578125,-1.0,0.0,-1.0,0.0,9.m4v,10.0
2024-02-28 14:04:37.431456,1709125477.4314563,-49.8046875,-27.34375,-29.296875,-57.6171875,-1.0,0.0,-1.0,0.0,9.m4v,10.0
2024-02-28 14:04:37.435362,1709125477.435362,-55.6640625,-27.83203125,-26.3671875,-55.17578125,-1.0,0.0,-1.0,0.0,9.m4v,10.0
2024-02-28 14:04:37.439267,1709125477.4392674,-64.453125,-29.296875,-29.78515625,-68.359375,-1.0,0.0,-1.0,0.0,9.m4v,10.0
2024-02-28 14:04:37.443173,1709125477.443173,-70.3125,-24.90234375,-32.2265625,-80.078125,-1.0,0.0,-1.0,0.0,9.m4v,10.0
2024-02-28 14:04:37.447078,1709125477.4470785,-84.47265625,-23.92578125,-28.3203125,-88.37890625,-1.0,0.0,-1.0,0.0,9.m4v,10.0
2024-02-28 14:04:37.450984,1709125477.450984,-101.5625,-25.390625,-26.85546875,-98.6328125,-1.0,0.0,-1.0,0.0,9.m4v,10.0
2024-02-28 14:04:37.454890,1709125477.4548895,-112.3046875,-26.3671875,-21.97265625,-106.93359375,-1.0,0.0,-1.0,0.0,9.m4v,10.0
2024-02-28 14:04:37.458795,1709125477.458795,-126.46484375,-29.296875,-20.01953125,-118.65234375,-1.0,0.0,-1.0,0.0,9.m4v,10.0
2024-02-28 14:04:37.462701,1709125477.4627006,-136.71875,-29.296875,-21.97265625,-127.9296875,-1.0,0.0,-1.0,0.0,9.m4v,10.0
2024-02-28 14:04:37.466606,1709125477.466606,-140.625,-30.76171875,-23.92578125,-133.7890625,-1.0,0.0,-1.0,0.0,9.m4v,10.0
2024-02-28 14:04:37.470512,1709125477.4705117,-158.203125,-33.203125,-27.83203125,-151.85546875,-1.0,0.0,-1.0,0.0,9.m4v,10.0
2024-02-28 14:04:37.474422,1709125477.4744222,-165.0390625,-30.2734375,-28.80859375,-168.45703125,-1.0,0.0,-1.0,0.0,9.m4v,10.0
2024-02-28 14:04:37.478328,1709125477.4783278,-166.015625,-31.73828125,-33.69140625,-174.31640625,-1.0,0.0,-1.0,0.0,9.m4v,10.0
2024-02-28 14:04:37.482233,1709125477.4822333,-177.24609375,-35.15625,-33.69140625,-180.6640625,-1.0,0.0,-1.0,0.0,9.m4v,10.0
2024-02-28 14:04:37.486139,1709125477.4861388,-185.05859375,-34.1796875,-31.73828125,-185.05859375,-1.0,0.0,-1.0,0.0,9.m4v,10.0
2024-02-28 14:04:37.490044,1709125477.4900444,-176.7578125,-33.203125,-33.203125,-185.546875,-1.0,0.0,-1.0,0.0,9.m4v,10.0
2024-02-28 14:04:37.493950,1709125477.49395,-168.9453125,-30.76171875,-37.59765625,-187.01171875,-1.0,0.0,-1.0,0.0,9.m4v,10.0
2024-02-28 14:04:37.497855,1709125477.4978554,-162.59765625,-28.80859375,-36.62109375,-175.78125,-1.0,0.0,-1.0,0.0,9.m4v,10.0
2024-02-28 14:04:37.661907,1709125477.6619072,25.390625,-23.4375,-28.3203125,15.625,-1.0,0.0,-1.0,0.0,9.m4v,10.0
2024-02-28 14:04:37.665813,1709125477.6658127,24.90234375,-24.90234375,-29.78515625,17.578125,-1.0,0.0,-1.0,0.0,9.m4v,10.0
2024-02-28 14:04:37.669718,1709125477.6697185,21.97265625,-30.2734375,-30.76171875,17.08984375,-1.0,0.0,-1.0,0.0,9.m4v,10.0
2024-02-28 14:04:37.673624,1709125477.6736238,14.16015625,-33.69140625,-28.80859375,8.7890625,-1.0,0.0,-1.0,0.0,9.m4v,10.0
2024-02-28 14:04:37.677530,1709125477.6775296,11.23046875,-36.1328125,-30.2734375,2.44140625,-1.0,0.0,-1.0,0.0,9.m4v,10.0
2024-02-28 14:04:37.681435,1709125477.681435,16.11328125,-29.78515625,-34.66796875,1.953125,-1.0,0.0,-1.0,0.0,9.m4v,10.0
2024-02-28 14:04:37.685341,1709125477.6853406,12.20703125,-29.296875,-37.109375,-2.9296875,-1.0,0.0,-1.0,0.0,9.m4v,10.0
2024-02-28 14:04:37.689246,1709125477.6892462,5.859375,-32.71484375,-40.52734375,-13.18359375,-1.0,0.0,-1.0,0.0,9.m4v,10.0
2024-02-28 14:04:37.693152,1709125477.6931517,10.25390625,-29.78515625,-37.59765625,-18.06640625,-1.0,0.0,-1.0,0.0,9.m4v,10.0
2024-02-28 14:04:37.697057,1709125477.6970572,14.6484375,-25.390625,-33.69140625,-11.23046875,-1.0,0.0,-1.0,0.0,9.m4v,10.0
2024-02-28 14:04:37.700963,1709125477.7009628,15.13671875,-24.4140625,-37.109375,-4.8828125,-1.0,0.0,-1.0,0.0,9.m4v,10.0
2024-02-28 14:04:37.704868,1709125477.7048683,10.7421875,-27.34375,-39.0625,-4.8828125,-1.0,0.0,-1.0,0.0,9.m4v,10.0
2024-02-28 14:04:37.708778,1709125477.708778,9.27734375,-31.25,-38.0859375,-3.90625,-1.0,0.0,-1.0,0.0,9.m4v,10.0
2024-02-28 14:04:37.712684,1709125477.7126837,8.7890625,-33.69140625,-37.109375,-2.44140625,-1.0,0.0,-1.0,0.0,9.m4v,10.0
2024-02-28 14:04:37.716589,1709125477.7165892,3.41796875,-33.203125,-38.57421875,-2.44140625,-1.0,0.0,-1.0,0.0,9.m4v,10.0
2024-02-28 14:04:37.720495,1709125477.7204947,1.953125,-29.296875,-41.50390625,-2.9296875,-1.0,0.0,-1.0,0.0,9.m4v,10.0
2024-02-28 14:04:37.724400,1709125477.7244003,5.37109375,-27.34375,-41.015625,-0.48828125,-1.0,0.0,-1.0,0.0,9.m4v,10.0
2024-02-28 14:04:37.728306,1709125477.7283058,6.8359375,-24.90234375,-38.0859375,-0.9765625,-1.0,0.0,-1.0,0.0,9.m4v,10.0
2024-02-28 14:04:37.732211,1709125477.7322114,8.30078125,-23.4375,-37.59765625,-4.8828125,-1.0,0.0,-1.0,0.0,9.m4v,10.0
2024-02-28 14:04:37.736117,1709125477.736117,11.23046875,-26.3671875,-39.0625,-1.953125,-1.0,0.0,-1.0,0.0,9.m4v,10.0
2024-02-28 14:04:37.740022,1709125477.7400224,13.671875,-24.90234375,-40.52734375,2.9296875,-1.0,0.0,-1.0,0.0,9.m4v,10.0
2024-02-28 14:04:37.743928,1709125477.743928,10.7421875,-24.4140625,-37.59765625,0.9765625,-1.0,0.0,-1.0,0.0,9.m4v,10.0
2024-02-28 14:04:37.747833,1709125477.7478335,0.0,-31.73828125,-38.0859375,-5.859375,-1.0,0.0,-1.0,0.0,9.m4v,10.0
2024-02-28 14:04:37.751739,1709125477.751739,-5.859375,-35.15625,-35.64453125,-11.23046875,-1.0,0.0,-1.0,0.0,9.m4v,10.0
2024-02-28 14:04:37.755649,1709125477.7556489,-6.8359375,-34.66796875,-32.71484375,-9.765625,-1.0,0.0,-1.0,0.0,9.m4v,10.0
2024-02-28 14:04:37.759554,1709125477.7595544,-3.90625,-32.71484375,-35.64453125,-4.39453125,-1.0,0.0,-1.0,0.0,9.m4v,10.0
2024-02-28 14:04:37.763460,1709125477.76346,-2.9296875,-35.15625,-38.0859375,-6.34765625,-1.0,0.0,-1.0,0.0,9.m4v,10.0
2024-02-28 14:04:37.767365,1709125477.7673657,-0.9765625,-29.78515625,-41.015625,-3.90625,-1.0,0.0,-1.0,0.0,9.m4v,10.0
2024-02-28 14:04:37.771271,1709125477.771271,-1.46484375,-23.92578125,-38.57421875,1.953125,-1.0,0.0,-1.0,0.0,9.m4v,10.0
2024-02-28 14:04:37.775177,1709125477.7751763,-5.859375,-26.85546875,-32.71484375,1.46484375,-1.0,0.0,-1.0,0.0,9.m4v,10.0
2024-02-28 14:04:37.779082,1709125477.779082,-12.6953125,-30.76171875,-30.76171875,-6.34765625,-1.0,0.0,-1.0,0.0,9.m4v,10.0
2024-02-28 14:04:37.782988,1709125477.7829876,-13.671875,-32.71484375,-30.76171875,-13.671875,-1.0,0.0,-1.0,0.0,9.m4v,10.0
2024-02-28 14:04:37.786893,1709125477.7868931,-14.6484375,-32.71484375,-31.73828125,-11.71875,-1.0,0.0,-1.0,0.0,9.m4v,10.0
2024-02-28 14:04:37.790799,1709125477.790799,-15.625,-31.73828125,-33.69140625,-11.23046875,-1.0,0.0,-1.0,0.0,9.m4v,10.0
2024-02-28 14:04:37.794704,1709125477.7947042,-17.578125,-32.71484375,-31.25,-20.99609375,-1.0,0.0,-1.0,0.0,9.m4v,10.0
2024-02-28 14:04:37.798610,1709125477.79861,-12.6953125,-32.71484375,-33.203125,-20.5078125,-1.0,0.0,-1.0,0.0,9.m4v,10.0
2024-02-28 14:04:37.802520,1709125477.8025196,-9.27734375,-34.66796875,-38.57421875,-15.625,-1.0,0.0,-1.0,0.0,9.m4v,10.0
2024-02-28 14:04:37.806425,1709125477.806425,-15.625,-35.15625,-39.55078125,-20.99609375,-1.0,0.0,-1.0,0.0,9.m4v,10.0
2024-02-28 14:04:37.810331,1709125477.8103306,-12.20703125,-36.62109375,-34.66796875,-22.4609375,-1.0,0.0,-1.0,0.0,9.m4v,10.0
2024-02-28 14:04:37.814236,1709125477.8142362,-3.90625,-41.9921875,-30.2734375,-17.08984375,-1.0,0.0,-1.0,0.0,9.m4v,10.0
2024-02-28 14:04:37.818142,1709125477.8181417,-3.41796875,-40.52734375,-31.25,-13.671875,-1.0,0.0,-1.0,0.0,9.m4v,10.0
2024-02-28 14:04:37.822047,1709125477.8220472,-4.8828125,-37.59765625,-32.71484375,-10.7421875,-1.0,0.0,-1.0,0.0,9.m4v,10.0
2024-02-28 14:04:37.825953,1709125477.8259528,-6.8359375,-39.0625,-33.203125,-10.25390625,-1.0,0.0,-1.0,0.0,9.m4v,10.0
2024-02-28 14:04:37.990005,1709125477.9900048,-125.9765625,-21.484375,-39.55078125,-91.30859375,-1.0,0.0,-1.0,0.0,9.m4v,10.0
2024-02-28 14:04:37.993910,1709125477.9939103,-145.01953125,-24.4140625,-35.15625,-103.02734375,-1.0,0.0,-1.0,0.0,9.m4v,10.0
2024-02-28 14:04:37.997816,1709125477.9978158,-162.59765625,-24.90234375,-40.52734375,-116.69921875,-1.0,0.0,-1.0,0.0,9.m4v,10.0
2024-02-28 14:04:38.001721,1709125478.0017214,-179.6875,-26.3671875,-39.55078125,-124.51171875,-1.0,0.0,-1.0,0.0,9.m4v,10.0
2024-02-28 14:04:38.005627,1709125478.005627,-188.4765625,-29.296875,-35.64453125,-135.25390625,-1.0,0.0,-1.0,0.0,9.m4v,10.0
2024-02-28 14:04:38.009532,1709125478.0095325,-190.91796875,-26.85546875,-37.109375,-142.578125,-1.0,0.0,-1.0,0.0,9.m4v,10.0
2024-02-28 14:04:38.013438,1709125478.013438,-210.9375,-25.87890625,-36.1328125,-148.4375,-1.0,0.0,-1.0,0.0,9.m4v,10.0
2024-02-28 14:04:38.017344,1709125478.0173435,-229.98046875,-25.390625,-42.96875,-150.390625,-1.0,0.0,-1.0,0.0,9.m4v,10.0
2024-02-28 14:04:38.021249,1709125478.021249,-228.515625,-24.4140625,-55.17578125,-155.2734375,-1.0,0.0,-1.0,0.0,9.m4v,10.0
2024-02-28 14:04:38.025155,1709125478.0251546,-221.6796875,-24.4140625,-53.22265625,-160.64453125,-1.0,0.0,-1.0,0.0,9.m4v,10.0
2024-02-28 14:04:38.029060,1709125478.0290604,-217.28515625,-20.99609375,-53.22265625,-154.296875,-1.0,0.0,-1.0,0.0,9.m4v,10.0
2024-02-28 14:04:38.032966,1709125478.032966,-204.1015625,-21.484375,-56.640625,-145.5078125,-1.0,0.0,-1.0,0.0,9.m4v,10.0
2024-02-28 14:04:38.036876,1709125478.036876,-176.26953125,-25.87890625,-55.17578125,-131.8359375,-1.0,0.0,-1.0,0.0,9.m4v,10.0
2024-02-28 14:04:38.040781,1709125478.0407815,-173.828125,-23.92578125,-54.6875,-123.53515625,-1.0,0.0,-1.0,0.0,9.m4v,10.0
2024-02-28 14:04:38.044687,1709125478.044687,-204.58984375,-20.99609375,-56.15234375,-125.9765625,-1.0,0.0,-1.0,0.0,9.m4v,10.0
2024-02-28 14:04:38.048593,1709125478.0485926,-212.890625,-20.5078125,-60.05859375,-128.41796875,-1.0,0.0,-1.0,0.0,9.m4v,10.0
2024-02-28 14:04:38.052498,1709125478.052498,-193.359375,-21.97265625,-62.01171875,-125.9765625,-1.0,0.0,-1.0,0.0,9.m4v,10.0
2024-02-28 14:04:38.056404,1709125478.0564036,-178.22265625,-20.01953125,-60.05859375,-119.62890625,-1.0,0.0,-1.0,0.0,9.m4v,10.0
2024-02-28 14:04:38.060309,1709125478.0603092,-162.109375,-16.11328125,-59.08203125,-109.375,-1.0,0.0,-1.0,0.0,9.m4v,10.0
2024-02-28 14:04:38.064215,1709125478.0642147,-143.5546875,-12.6953125,-62.5,-103.02734375,-1.0,0.0,-1.0,0.0,9.m4v,10.0
2024-02-28 14:04:38.068120,1709125478.0681202,-143.06640625,-12.6953125,-66.40625,-95.21484375,-1.0,0.0,-1.0,0.0,9.m4v,10.0
2024-02-28 14:04:38.072026,1709125478.072026,-145.99609375,-12.6953125,-63.96484375,-93.26171875,-1.0,0.0,-1.0,0.0,9.m4v,10.0
2024-02-28 14:04:38.075932,1709125478.0759315,-130.859375,-11.71875,-64.94140625,-97.16796875,-1.0,0.0,-1.0,0.0,9.m4v,10.0
2024-02-28 14:04:38.079837,1709125478.079837,-118.1640625,-9.27734375,-69.82421875,-83.984375,-1.0,0.0,-1.0,0.0,9.m4v,10.0
2024-02-28 14:04:38.083747,1709125478.083747,-116.69921875,-7.32421875,-67.3828125,-71.77734375,-1.0,0.0,-1.0,0.0,9.m4v,10.0
2024-02-28 14:04:38.087652,1709125478.0876522,-100.5859375,-3.41796875,-64.94140625,-66.89453125,-1.0,0.0,-1.0,0.0,9.m4v,10.0
2024-02-28 14:04:38.091558,1709125478.091558,-78.61328125,-3.90625,-65.91796875,-59.08203125,-1.0,0.0,-1.0,0.0,9.m4v,10.0
2024-02-28 14:04:38.095464,1709125478.0954635,-67.87109375,-5.859375,-63.96484375,-50.29296875,-1.0,0.0,-1.0,0.0,9.m4v,10.0
2024-02-28 14:04:38.099369,1709125478.099369,-47.8515625,-5.37109375,-62.5,-46.38671875,-1.0,0.0,-1.0,0.0,9.m4v,10.0
2024-02-28 14:04:38.103275,1709125478.1032746,-40.52734375,-8.7890625,-64.94140625,-50.29296875,-1.0,0.0,-1.0,0.0,9.m4v,10.0
2024-02-28 14:04:38.107180,1709125478.10718,-50.78125,-13.18359375,-69.3359375,-42.96875,-1.0,0.0,-1.0,0.0,9.m4v,10.0
2024-02-28 14:04:38.111086,1709125478.1110857,-54.19921875,-15.13671875,-71.77734375,-26.3671875,-1.0,0.0,-1.0,0.0,9.m4v,10.0
2024-02-28 14:04:38.114991,1709125478.1149912,-35.15625,-12.20703125,-65.4296875,-17.578125,-1.0,0.0,-1.0,0.0,9.m4v,10.0
2024-02-28 14:04:38.118897,1709125478.1188967,-37.59765625,-11.23046875,-58.10546875,-7.32421875,-1.0,0.0,-1.0,0.0,9.m4v,10.0
2024-02-28 14:04:38.122802,1709125478.1228025,-58.59375,-12.20703125,-57.12890625,8.7890625,-1.0,0.0,-1.0,0.0,9.m4v,10.0
2024-02-28 14:04:38.126708,1709125478.1267078,-60.05859375,-13.18359375,-54.19921875,9.27734375,-1.0,0.0,-1.0,0.0,9.m4v,10.0
2024-02-28 14:04:38.130617,1709125478.1306174,-48.828125,-12.20703125,-48.828125,17.08984375,-1.0,0.0,-1.0,0.0,9.m4v,10.0
2024-02-28 14:04:38.134523,1709125478.134523,-46.875,-10.7421875,-45.41015625,26.85546875,-1.0,0.0,-1.0,0.0,9.m4v,10.0
2024-02-28 14:04:38.138428,1709125478.1384284,-31.25,-10.7421875,-49.8046875,21.97265625,-1.0,0.0,-1.0,0.0,9.m4v,10.0
2024-02-28 14:04:38.189205,1709125478.1892047,-10.25390625,-17.578125,-52.24609375,20.99609375,-1.0,0.0,-1.0,0.0,9.m4v,10.0
2024-02-28 14:04:38.193110,1709125478.1931102,-38.57421875,-15.13671875,-49.31640625,22.4609375,-1.0,0.0,-1.0,0.0,9.m4v,10.0
2024-02-28 14:04:38.197016,1709125478.1970158,-46.875,-11.23046875,-44.921875,28.80859375,-1.0,0.0,-1.0,0.0,9.m4v,10.0
2024-02-28 14:04:38.200921,1709125478.2009213,-34.1796875,-14.16015625,-46.38671875,42.48046875,-1.0,0.0,-1.0,0.0,9.m4v,10.0
2024-02-28 14:04:38.204827,1709125478.2048268,-36.62109375,-16.6015625,-44.43359375,30.76171875,-1.0,0.0,-1.0,0.0,9.m4v,10.0
2024-02-28 14:04:38.208732,1709125478.2087324,-36.1328125,-17.578125,-39.0625,30.2734375,-1.0,0.0,-1.0,0.0,9.m4v,10.0
2024-02-28 14:04:38.212638,1709125478.212638,-23.92578125,-15.13671875,-36.1328125,37.109375,-1.0,0.0,-1.0,0.0,9.m4v,10.0
2024-02-28 14:04:38.216543,1709125478.2165434,-12.6953125,-10.7421875,-40.52734375,28.80859375,-1.0,0.0,-1.0,0.0,9.m4v,10.0
2024-02-28 14:04:38.220449,1709125478.220449,-12.20703125,-14.6484375,-41.50390625,32.71484375,-1.0,0.0,-1.0,0.0,9.m4v,10.0
2024-02-28 14:04:38.224360,1709125478.2243595,-34.66796875,-20.99609375,-38.57421875,27.34375,-1.0,0.0,-1.0,0.0,9.m4v,10.0
2024-02-28 14:04:38.224360,1709125478.2243595,-34.66796875,-20.99609375,-38.57421875,27.34375,-1.0,0.0,-1.0,0.0,9.m4v,10.0
2024-02-28 14:04:38.228265,1709125478.228265,-23.4375,-20.5078125,-37.109375,27.83203125,-1.0,0.0,-1.0,0.0,9.m4v,10.0
2024-02-28 14:04:38.228265,1709125478.228265,-23.4375,-20.5078125,-37.109375,27.83203125,-1.0,0.0,-1.0,0.0,9.m4v,10.0
2024-02-28 14:04:38.232171,1709125478.2321706,-9.765625,-16.11328125,-34.1796875,35.15625,-1.0,0.0,-1.0,0.0,9.m4v,10.0
2024-02-28 14:04:38.236076,1709125478.236076,-0.48828125,-13.671875,-32.2265625,32.71484375,-1.0,0.0,-1.0,0.0,9.m4v,10.0
2024-02-28 14:04:38.239982,1709125478.2399817,10.25390625,-17.08984375,-31.25,31.25,-1.0,0.0,-1.0,0.0,9.m4v,10.0
2024-02-28 14:04:38.247793,1709125478.2477927,-12.20703125,-21.97265625,-32.71484375,50.78125,-1.0,0.0,-1.0,0.0,9.m4v,10.0
2024-02-28 14:04:38.267321,1709125478.2673206,-22.4609375,-21.484375,-38.0859375,21.484375,-1.0,0.0,-1.0,0.0,9.m4v,10.0
2024-02-28 14:04:38.286853,1709125478.286853,-2.9296875,-15.625,-36.1328125,15.625,-1.0,0.0,-1.0,0.0,9.m4v,10.0
2024-02-28 14:04:38.302475,1709125478.3024752,-41.015625,-31.25,-37.59765625,-2.44140625,-1.0,0.0,-1.0,0.0,9.m4v,10.0
2024-02-28 14:04:38.302475,1709125478.3024752,-41.015625,-31.25,-37.59765625,-2.44140625,-1.0,0.0,-1.0,0.0,9.m4v,10.0
2024-02-28 14:04:38.318102,1709125478.318102,-10.7421875,-28.3203125,-33.203125,-1.46484375,-1.0,0.0,-1.0,0.0,9.m4v,10.0
2024-02-28 14:04:38.333724,1709125478.3337245,-73.2421875,-41.9921875,-31.73828125,2.44140625,-1.0,0.0,-1.0,0.0,9.m4v,10.0
2024-02-28 14:04:38.345441,1709125478.3454409,-48.33984375,-40.52734375,-34.66796875,-14.16015625,-1.0,0.0,-1.0,0.0,9.m4v,10.0
2024-02-28 14:04:38.353252,1709125478.3532522,-38.0859375,-41.9921875,-32.71484375,-6.34765625,-1.0,0.0,-1.0,0.0,9.m4v,10.0
2024-02-28 14:04:38.357158,1709125478.3571577,-22.4609375,-39.55078125,-25.87890625,-6.34765625,-1.0,0.0,-1.0,0.0,9.m4v,10.0
2024-02-28 14:04:38.361063,1709125478.3610632,-31.73828125,-39.55078125,-31.73828125,-20.01953125,-1.0,0.0,-1.0,0.0,9.m4v,10.0
2024-02-28 14:04:38.364973,1709125478.3649733,-30.2734375,-35.64453125,-34.66796875,-37.59765625,-1.0,0.0,-1.0,0.0,9.m4v,10.0
2024-02-28 14:04:38.368879,1709125478.3688788,-29.78515625,-41.015625,-33.69140625,-40.52734375,-1.0,0.0,-1.0,0.0,9.m4v,10.0
2024-02-28 14:04:38.372784,1709125478.3727844,-14.6484375,-41.015625,-31.25,-25.390625,-1.0,0.0,-1.0,0.0,9.m4v,10.0
2024-02-28 14:04:38.376690,1709125478.37669,-13.18359375,-37.59765625,-28.80859375,-16.11328125,-1.0,0.0,-1.0,0.0,9.m4v,10.0
2024-02-28 14:04:38.380595,1709125478.3805954,-22.94921875,-37.109375,-25.87890625,-21.97265625,-1.0,0.0,-1.0,0.0,9.m4v,10.0
2024-02-28 14:04:38.384501,1709125478.384501,-29.296875,-38.57421875,-27.34375,-26.3671875,-1.0,0.0,-1.0,0.0,9.m4v,10.0
2024-02-28 14:04:38.388407,1709125478.3884068,-39.0625,-43.9453125,-24.4140625,-28.80859375,-1.0,0.0,-1.0,0.0,9.m4v,10.0
2024-02-28 14:04:38.392312,1709125478.3923123,-23.92578125,-43.45703125,-21.97265625,-36.1328125,-1.0,0.0,-1.0,0.0,9.m4v,10.0
2024-02-28 14:04:38.583703,1709125478.5837026,-89.84375,-34.66796875,-31.73828125,-37.59765625,-1.0,0.0,-1.0,0.0,9.m4v,10.0
2024-02-28 14:04:38.583703,1709125478.5837026,-89.84375,-34.66796875,-31.73828125,-37.59765625,-1.0,0.0,-1.0,0.0,9.m4v,10.0
2024-02-28 14:04:38.583703,1709125478.5837026,-89.84375,-34.66796875,-31.73828125,-37.59765625,-1.0,0.0,-1.0,0.0,9.m4v,10.0
2024-02-28 14:04:38.591514,1709125478.5915136,-103.515625,-37.109375,-33.203125,-42.48046875,-1.0,0.0,-1.0,0.0,9.m4v,10.0
2024-02-28 14:04:38.591514,1709125478.5915136,-103.515625,-37.109375,-33.203125,-42.48046875,-1.0,0.0,-1.0,0.0,9.m4v,10.0
2024-02-28 14:04:38.591514,1709125478.5915136,-103.515625,-37.109375,-33.203125,-42.48046875,-1.0,0.0,-1.0,0.0,9.m4v,10.0
2024-02-28 14:04:38.599330,1709125478.5993297,-69.82421875,-34.66796875,-26.3671875,-39.55078125,-1.0,0.0,-1.0,0.0,9.m4v,10.0
2024-02-28 14:04:38.599330,1709125478.5993297,-69.82421875,-34.66796875,-26.3671875,-39.55078125,-1.0,0.0,-1.0,0.0,9.m4v,10.0
2024-02-28 14:04:38.599330,1709125478.5993297,-69.82421875,-34.66796875,-26.3671875,-39.55078125,-1.0,0.0,-1.0,0.0,9.m4v,10.0
2024-02-28 14:04:38.607141,1709125478.6071408,-70.3125,-42.96875,-32.71484375,-39.0625,-1.0,0.0,-1.0,0.0,9.m4v,10.0
2024-02-28 14:04:38.607141,1709125478.6071408,-70.3125,-42.96875,-32.71484375,-39.0625,-1.0,0.0,-1.0,0.0,9.m4v,10.0
2024-02-28 14:04:38.607141,1709125478.6071408,-70.3125,-42.96875,-32.71484375,-39.0625,-1.0,0.0,-1.0,0.0,9.m4v,10.0
2024-02-28 14:04:38.614952,1709125478.614952,-67.3828125,-43.45703125,-31.73828125,-27.83203125,-1.0,0.0,-1.0,0.0,9.m4v,10.0
2024-02-28 14:04:38.614952,1709125478.614952,-67.3828125,-43.45703125,-31.73828125,-27.83203125,-1.0,0.0,-1.0,0.0,9.m4v,10.0
2024-02-28 14:04:38.614952,1709125478.614952,-67.3828125,-43.45703125,-31.73828125,-27.83203125,-1.0,0.0,-1.0,0.0,9.m4v,10.0
2024-02-28 14:04:38.622763,1709125478.6227632,-105.95703125,-43.45703125,-24.4140625,-53.22265625,-1.0,0.0,-1.0,0.0,9.m4v,10.0
2024-02-28 14:04:38.622763,1709125478.6227632,-105.95703125,-43.45703125,-24.4140625,-53.22265625,-1.0,0.0,-1.0,0.0,9.m4v,10.0
2024-02-28 14:04:38.622763,1709125478.6227632,-105.95703125,-43.45703125,-24.4140625,-53.22265625,-1.0,0.0,-1.0,0.0,9.m4v,10.0
2024-02-28 14:04:38.634480,1709125478.6344798,-67.3828125,-38.0859375,-32.2265625,-53.7109375,-1.0,0.0,-1.0,0.0,9.m4v,10.0
2024-02-28 14:04:38.638385,1709125478.6383853,-65.91796875,-33.203125,-33.203125,-56.640625,-1.0,0.0,-1.0,0.0,9.m4v,10.0
2024-02-28 14:04:38.642291,1709125478.6422908,-47.8515625,-36.62109375,-32.2265625,-50.78125,-1.0,0.0,-1.0,0.0,9.m4v,10.0
2024-02-28 14:04:38.646201,1709125478.6462011,-50.29296875,-42.96875,-31.73828125,-45.8984375,-1.0,0.0,-1.0,0.0,9.m4v,10.0
2024-02-28 14:04:38.650107,1709125478.650107,-80.078125,-45.41015625,-40.52734375,-25.390625,-1.0,0.0,-1.0,0.0,9.m4v,10.0
2024-02-28 14:04:38.654012,1709125478.6540124,-68.84765625,-44.921875,-43.9453125,-12.20703125,-1.0,0.0,-1.0,0.0,9.m4v,10.0
2024-02-28 14:04:38.657918,1709125478.657918,-48.33984375,-41.50390625,-28.80859375,-11.23046875,-1.0,0.0,-1.0,0.0,9.m4v,10.0
2024-02-28 14:04:38.661824,1709125478.6618235,-85.9375,-43.45703125,-19.04296875,-25.87890625,-1.0,0.0,-1.0,0.0,9.m4v,10.0
2024-02-28 14:04:38.665729,1709125478.665729,-106.93359375,-44.921875,-22.4609375,-38.57421875,-1.0,0.0,-1.0,0.0,9.m4v,10.0
2024-02-28 14:04:38.669635,1709125478.6696346,-89.84375,-43.9453125,-23.92578125,-39.55078125,-1.0,0.0,-1.0,0.0,9.m4v,10.0
2024-02-28 14:04:38.673540,1709125478.67354,-52.24609375,-46.38671875,-22.94921875,-31.73828125,-1.0,0.0,-1.0,0.0,9.m4v,10.0
2024-02-28 14:04:38.677446,1709125478.6774457,-45.41015625,-49.8046875,-23.4375,-27.83203125,-1.0,0.0,-1.0,0.0,9.m4v,10.0
2024-02-28 14:04:38.681351,1709125478.6813512,-85.44921875,-49.8046875,-26.85546875,-39.55078125,-1.0,0.0,-1.0,0.0,9.m4v,10.0
2024-02-28 14:04:38.685257,1709125478.6852567,-82.51953125,-46.38671875,-28.80859375,-29.296875,-1.0,0.0,-1.0,0.0,9.m4v,10.0
2024-02-28 14:04:38.689162,1709125478.6891625,-52.734375,-43.45703125,-27.34375,-8.30078125,-1.0,0.0,-1.0,0.0,9.m4v,10.0
2024-02-28 14:04:38.693073,1709125478.6930726,-38.57421875,-38.57421875,-31.25,-12.6953125,-1.0,0.0,-1.0,0.0,9.m4v,10.0
2024-02-28 14:04:38.696978,1709125478.696978,-27.83203125,-37.109375,-35.64453125,-15.625,-1.0,0.0,-1.0,0.0,9.m4v,10.0
2024-02-28 14:04:38.700884,1709125478.7008836,-4.8828125,-35.64453125,-30.76171875,-32.71484375,-1.0,0.0,-1.0,0.0,9.m4v,10.0
2024-02-28 14:04:38.704789,1709125478.7047892,-10.7421875,-35.15625,-24.4140625,-47.36328125,-1.0,0.0,-1.0,0.0,9.m4v,10.0
2024-02-28 14:04:38.708695,1709125478.7086947,-43.9453125,-39.55078125,-23.92578125,-43.45703125,-1.0,0.0,-1.0,0.0,9.m4v,10.0
2024-02-28 14:04:38.712600,1709125478.7126002,-61.5234375,-37.109375,-24.4140625,-43.45703125,-1.0,0.0,-1.0,0.0,9.m4v,10.0
2024-02-28 14:04:38.716506,1709125478.716506,-41.015625,-33.203125,-23.92578125,-23.4375,-1.0,0.0,-1.0,0.0,9.m4v,10.0
2024-02-28 14:04:38.720412,1709125478.7204115,-11.71875,-33.203125,-26.3671875,-11.71875,-1.0,0.0,-1.0,0.0,9.m4v,10.0
2024-02-28 14:04:38.724317,1709125478.724317,-27.83203125,-36.1328125,-27.83203125,-27.34375,-1.0,0.0,-1.0,0.0,9.m4v,10.0
2024-02-28 14:04:38.728223,1709125478.7282226,-57.6171875,-38.57421875,-23.92578125,-23.92578125,-1.0,0.0,-1.0,0.0,9.m4v,10.0
2024-02-28 14:04:38.732128,1709125478.732128,-49.8046875,-35.64453125,-22.94921875,-4.39453125,-1.0,0.0,-1.0,0.0,9.m4v,10.0
2024-02-28 14:04:38.736034,1709125478.7360337,-21.97265625,-35.64453125,-27.34375,-19.53125,-1.0,0.0,-1.0,0.0,9.m4v,10.0
2024-02-28 14:04:38.739944,1709125478.7399435,-5.37109375,-34.1796875,-27.83203125,-33.203125,-1.0,0.0,-1.0,0.0,9.m4v,10.0
2024-02-28 14:04:38.743849,1709125478.7438493,-47.8515625,-35.15625,-23.4375,-14.16015625,-1.0,0.0,-1.0,0.0,9.m4v,10.0
2024-02-28 14:04:38.747755,1709125478.7477548,-70.80078125,-37.109375,-25.390625,-3.90625,-1.0,0.0,-1.0,0.0,9.m4v,10.0
2024-02-28 14:04:38.751660,1709125478.7516603,-46.38671875,-35.15625,-30.76171875,-16.11328125,-1.0,0.0,-1.0,0.0,9.m4v,10.0
2024-02-28 14:04:38.755566,1709125478.755566,-22.4609375,-35.15625,-33.203125,-29.296875,-1.0,0.0,-1.0,0.0,9.m4v,10.0
2024-02-28 14:04:38.759471,1709125478.7594714,-3.41796875,-31.25,-27.83203125,-32.71484375,-1.0,0.0,-1.0,0.0,9.m4v,10.0
2024-02-28 14:04:38.763377,1709125478.763377,-3.41796875,-29.78515625,-22.4609375,-24.4140625,-1.0,0.0,-1.0,0.0,9.m4v,10.0
2024-02-28 14:04:38.767282,1709125478.7672825,-19.53125,-33.69140625,-25.87890625,-21.484375,-1.0,0.0,-1.0,0.0,9.m4v,10.0
2024-02-28 14:04:38.771188,1709125478.771188,-32.2265625,-35.15625,-27.83203125,-27.34375,-1.0,0.0,-1.0,0.0,9.m4v,10.0
2024-02-28 14:04:38.775094,1709125478.7750936,-30.76171875,-31.25,-26.85546875,-30.2734375,-1.0,0.0,-1.0,0.0,9.m4v,10.0
2024-02-28 14:04:38.778999,1709125478.778999,-40.0390625,-31.25,-35.15625,-25.87890625,-1.0,0.0,-1.0,0.0,9.m4v,10.0
2024-02-28 14:04:38.782905,1709125478.7829046,-30.76171875,-33.69140625,-44.921875,-26.85546875,-1.0,0.0,-1.0,0.0,9.m4v,10.0
2024-02-28 14:04:38.786815,1709125478.7868147,-18.06640625,-33.203125,-46.38671875,-36.62109375,-1.0,0.0,-1.0,0.0,9.m4v,10.0
2024-02-28 14:04:38.790720,1709125478.7907202,-45.41015625,-38.0859375,-43.45703125,-35.15625,-1.0,0.0,-1.0,0.0,9.m4v,10.0
2024-02-28 14:04:38.794626,1709125478.7946258,-45.8984375,-37.59765625,-36.62109375,-27.34375,-1.0,0.0,-1.0,0.0,9.m4v,10.0
2024-02-28 14:04:38.798531,1709125478.7985313,-34.66796875,-33.203125,-28.3203125,-27.34375,-1.0,0.0,-1.0,0.0,9.m4v,10.0
2024-02-28 14:04:38.802437,1709125478.8024368,-44.43359375,-31.25,-29.78515625,-39.0625,-1.0,0.0,-1.0,0.0,9.m4v,10.0
2024-02-28 14:04:38.806342,1709125478.8063424,-46.875,-33.203125,-32.71484375,-51.26953125,-1.0,0.0,-1.0,0.0,9.m4v,10.0
2024-02-28 14:04:38.810248,1709125478.810248,-45.8984375,-35.64453125,-31.73828125,-44.43359375,-1.0,0.0,-1.0,0.0,9.m4v,10.0
2024-02-28 14:04:38.814153,1709125478.8141534,-25.390625,-33.69140625,-32.71484375,-32.2265625,-1.0,0.0,-1.0,0.0,9.m4v,10.0
2024-02-28 14:04:38.818059,1709125478.818059,-19.53125,-31.73828125,-33.203125,-36.1328125,-1.0,0.0,-1.0,0.0,9.m4v,10.0
2024-02-28 14:04:38.821965,1709125478.8219645,-32.2265625,-29.78515625,-34.66796875,-19.04296875,-1.0,0.0,-1.0,0.0,9.m4v,10.0
2024-02-28 14:04:38.825870,1709125478.82587,-56.640625,-35.15625,-38.57421875,-29.296875,-1.0,0.0,-1.0,0.0,9.m4v,10.0
2024-02-28 14:04:38.829776,1709125478.8297756,-67.87109375,-39.0625,-38.57421875,-46.38671875,-1.0,0.0,-1.0,0.0,9.m4v,10.0
2024-02-28 14:04:38.833685,1709125478.8336854,-59.5703125,-36.62109375,-32.71484375,-28.3203125,-1.0,0.0,-1.0,0.0,9.m4v,10.0
2024-02-28 14:04:38.837591,1709125478.837591,-59.08203125,-36.1328125,-34.1796875,-30.2734375,-1.0,0.0,-1.0,0.0,9.m4v,10.0
2024-02-28 14:04:38.841496,1709125478.8414965,-53.7109375,-35.64453125,-39.55078125,-50.78125,-1.0,0.0,-1.0,0.0,9.m4v,10.0
2024-02-28 14:04:38.845402,1709125478.8454022,-48.828125,-35.15625,-38.0859375,-38.57421875,-1.0,0.0,-1.0,0.0,9.m4v,10.0
2024-02-28 14:04:38.849308,1709125478.8493078,-46.38671875,-34.1796875,-34.66796875,-22.4609375,-1.0,0.0,-1.0,0.0,9.m4v,10.0
2024-02-28 14:04:38.853213,1709125478.8532133,-34.66796875,-30.2734375,-36.62109375,-12.20703125,-1.0,0.0,-1.0,0.0,9.m4v,10.0
2024-02-28 14:04:38.857119,1709125478.8571188,-40.52734375,-28.3203125,-36.62109375,0.48828125,-1.0,0.0,-1.0,0.0,9.m4v,10.0
2024-02-28 14:04:38.861024,1709125478.8610244,-54.19921875,-32.2265625,-32.2265625,-26.3671875,-1.0,0.0,-1.0,0.0,9.m4v,10.0
2024-02-28 14:04:38.864930,1709125478.86493,-45.41015625,-31.25,-34.1796875,-53.7109375,-1.0,0.0,-1.0,0.0,9.m4v,10.0
2024-02-28 14:04:38.868835,1709125478.8688354,-30.2734375,-33.203125,-39.0625,-57.12890625,-1.0,0.0,-1.0,0.0,9.m4v,10.0
2024-02-28 14:04:38.892275,1709125478.892275,-15.625,-35.64453125,-30.76171875,-26.85546875,-1.0,0.0,-1.0,0.0,9.m4v,10.0
2024-02-28 14:04:38.896181,1709125478.8961809,-3.41796875,-36.1328125,-30.76171875,-37.109375,-1.0,0.0,-1.0,0.0,9.m4v,10.0
2024-02-28 14:04:38.900086,1709125478.9000864,17.08984375,-31.25,-35.15625,-39.0625,-1.0,0.0,-1.0,0.0,9.m4v,10.0
2024-02-28 14:04:38.903992,1709125478.903992,4.8828125,-29.78515625,-33.203125,-18.5546875,-1.0,0.0,-1.0,0.0,9.m4v,10.0
2024-02-28 14:04:38.907897,1709125478.9078977,-12.20703125,-34.66796875,-37.109375,-13.671875,-1.0,0.0,-1.0,0.0,9.m4v,10.0
2024-02-28 14:04:38.911803,1709125478.911803,-5.37109375,-36.1328125,-40.52734375,-24.4140625,-1.0,0.0,-1.0,0.0,9.m4v,10.0
2024-02-28 14:04:38.915709,1709125478.9157083,0.0,-30.76171875,-32.71484375,-29.296875,-1.0,0.0,-1.0,0.0,9.m4v,10.0
2024-02-28 14:04:38.919614,1709125478.919614,-15.13671875,-33.69140625,-30.76171875,-34.1796875,-1.0,0.0,-1.0,0.0,9.m4v,10.0
2024-02-28 14:04:39.040700,1709125479.0406995,-20.5078125,-32.71484375,-27.83203125,-16.6015625,-1.0,0.0,-1.0,0.0,9.m4v,10.0
2024-02-28 14:04:39.044605,1709125479.0446053,9.765625,-32.2265625,-25.87890625,-17.578125,-1.0,0.0,-1.0,0.0,9.m4v,10.0
2024-02-28 14:04:39.048511,1709125479.0485108,16.6015625,-33.69140625,-25.87890625,-33.69140625,-1.0,0.0,-1.0,0.0,9.m4v,10.0
2024-02-28 14:04:39.052416,1709125479.0524163,-5.859375,-35.15625,-28.3203125,-34.66796875,-1.0,0.0,-1.0,0.0,9.m4v,10.0
2024-02-28 14:04:39.056322,1709125479.056322,-26.85546875,-36.1328125,-29.296875,-29.296875,-1.0,0.0,-1.0,0.0,9.m4v,10.0
2024-02-28 14:04:39.060228,1709125479.0602276,-28.3203125,-40.52734375,-28.80859375,-35.15625,-1.0,0.0,-1.0,0.0,9.m4v,10.0
2024-02-28 14:04:39.064133,1709125479.0641332,-14.6484375,-37.59765625,-27.83203125,-32.71484375,-1.0,0.0,-1.0,0.0,9.m4v,10.0
2024-02-28 14:04:39.068044,1709125479.0680444,-40.0390625,-33.69140625,-29.296875,-25.390625,-1.0,0.0,-1.0,0.0,9.m4v,10.0
2024-02-28 14:04:39.071950,1709125479.07195,-56.640625,-36.1328125,-28.80859375,-25.87890625,-1.0,0.0,-1.0,0.0,9.m4v,10.0
2024-02-28 14:04:39.075855,1709125479.0758555,-26.3671875,-32.71484375,-26.3671875,-23.92578125,-1.0,0.0,-1.0,0.0,9.m4v,10.0
2024-02-28 14:04:39.079761,1709125479.079761,-15.13671875,-30.76171875,-30.76171875,-25.390625,-1.0,0.0,-1.0,0.0,9.m4v,10.0
2024-02-28 14:04:39.083667,1709125479.0836666,-12.6953125,-29.296875,-30.76171875,-29.78515625,-1.0,0.0,-1.0,0.0,9.m4v,10.0
2024-02-28 14:04:39.087572,1709125479.087572,-20.99609375,-28.80859375,-26.3671875,-30.2734375,-1.0,0.0,-1.0,0.0,9.m4v,10.0
2024-02-28 14:04:39.091478,1709125479.0914776,-62.98828125,-29.78515625,-24.4140625,-17.578125,-1.0,0.0,-1.0,0.0,9.m4v,10.0
2024-02-28 14:04:39.095383,1709125479.0953832,-61.03515625,-28.3203125,-30.76171875,-9.27734375,-1.0,0.0,-1.0,0.0,9.m4v,10.0
2024-02-28 14:04:39.099289,1709125479.0992887,-29.296875,-26.85546875,-32.71484375,-20.99609375,-1.0,0.0,-1.0,0.0,9.m4v,10.0
2024-02-28 14:04:39.103194,1709125479.1031945,-17.08984375,-29.296875,-31.73828125,-42.48046875,-1.0,0.0,-1.0,0.0,9.m4v,10.0
2024-02-28 14:04:39.107100,1709125479.1071,-5.37109375,-24.4140625,-28.3203125,-47.36328125,-1.0,0.0,-1.0,0.0,9.m4v,10.0
2024-02-28 14:04:39.111006,1709125479.1110055,-0.9765625,-19.04296875,-26.3671875,-35.64453125,-1.0,0.0,-1.0,0.0,9.m4v,10.0
2024-02-28 14:04:39.114916,1709125479.1149158,-5.37109375,-23.4375,-36.62109375,-28.80859375,-1.0,0.0,-1.0,0.0,9.m4v,10.0
2024-02-28 14:04:39.118821,1709125479.1188214,2.9296875,-24.90234375,-42.48046875,-36.1328125,-1.0,0.0,-1.0,0.0,9.m4v,10.0
2024-02-28 14:04:39.122727,1709125479.122727,16.6015625,-20.5078125,-36.62109375,-41.9921875,-1.0,0.0,-1.0,0.0,9.m4v,10.0
2024-02-28 14:04:39.126632,1709125479.1266325,-4.39453125,-20.5078125,-31.73828125,-40.0390625,-1.0,0.0,-1.0,0.0,9.m4v,10.0
2024-02-28 14:04:39.228185,1709125479.2281852,-28.3203125,-31.25,-32.71484375,-33.203125,-1.0,0.0,-1.0,0.0,9.m4v,10.0
2024-02-28 14:04:39.232091,1709125479.2320907,-37.59765625,-31.73828125,-35.64453125,-42.96875,-1.0,0.0,-1.0,0.0,9.m4v,10.0
2024-02-28 14:04:39.235996,1709125479.2359962,-41.9921875,-35.15625,-39.0625,-52.734375,-1.0,0.0,-1.0,0.0,9.m4v,10.0
2024-02-28 14:04:39.239902,1709125479.2399018,-45.41015625,-33.203125,-41.015625,-41.015625,-1.0,0.0,-1.0,0.0,9.m4v,10.0
2024-02-28 14:04:39.243807,1709125479.2438073,-47.36328125,-31.25,-43.9453125,-53.22265625,-1.0,0.0,-1.0,0.0,9.m4v,10.0
2024-02-28 14:04:39.247713,1709125479.247713,-46.38671875,-26.85546875,-44.43359375,-56.15234375,-1.0,0.0,-1.0,0.0,9.m4v,10.0
2024-02-28 14:04:39.251619,1709125479.2516186,-36.1328125,-27.34375,-34.66796875,-36.62109375,-1.0,0.0,-1.0,0.0,9.m4v,10.0
2024-02-28 14:04:39.255528,1709125479.2555282,-49.31640625,-31.73828125,-28.80859375,-32.2265625,-1.0,0.0,-1.0,0.0,9.m4v,10.0
2024-02-28 14:04:39.259434,1709125479.2594335,-79.58984375,-33.69140625,-32.71484375,-32.71484375,-1.0,0.0,-1.0,0.0,9.m4v,10.0
2024-02-28 14:04:39.431292,1709125479.4312918,-138.18359375,-68.359375,3.41796875,-64.94140625,-1.0,0.0,-1.0,0.0,9.m4v,10.0
2024-02-28 14:04:39.435197,1709125479.4351974,-124.51171875,-67.3828125,3.41796875,-50.78125,-1.0,0.0,-1.0,0.0,9.m4v,10.0
2024-02-28 14:04:39.439103,1709125479.439103,-107.421875,-61.5234375,4.8828125,-41.015625,-1.0,0.0,-1.0,0.0,9.m4v,10.0
2024-02-28 14:04:39.443013,1709125479.4430132,-120.60546875,-63.4765625,5.859375,-47.8515625,-1.0,0.0,-1.0,0.0,9.m4v,10.0
2024-02-28 14:04:39.446919,1709125479.4469187,-147.4609375,-68.359375,4.39453125,-55.6640625,-1.0,0.0,-1.0,0.0,9.m4v,10.0
2024-02-28 14:04:39.450824,1709125479.4508245,-148.92578125,-64.453125,2.9296875,-44.921875,-1.0,0.0,-1.0,0.0,9.m4v,10.0
2024-02-28 14:04:39.454730,1709125479.4547298,-142.578125,-53.7109375,-0.48828125,-34.1796875,-1.0,0.0,-1.0,0.0,9.m4v,10.0
2024-02-28 14:04:39.458635,1709125479.458635,-143.5546875,-52.24609375,-0.48828125,-36.62109375,-1.0,0.0,-1.0,0.0,9.m4v,10.0
2024-02-28 14:04:39.462541,1709125479.4625409,-153.80859375,-55.17578125,-4.39453125,-52.734375,-1.0,0.0,-1.0,0.0,9.m4v,10.0
2024-02-28 14:04:39.466446,1709125479.4664464,-142.08984375,-51.7578125,-5.859375,-50.29296875,-1.0,0.0,-1.0,0.0,9.m4v,10.0
2024-02-28 14:04:39.470352,1709125479.470352,-146.484375,-49.8046875,-4.39453125,-43.45703125,-1.0,0.0,-1.0,0.0,9.m4v,10.0
2024-02-28 14:04:39.474257,1709125479.4742577,-153.3203125,-50.29296875,-8.30078125,-47.36328125,-1.0,0.0,-1.0,0.0,9.m4v,10.0
2024-02-28 14:04:39.478163,1709125479.478163,-139.6484375,-53.7109375,-10.25390625,-36.1328125,-1.0,0.0,-1.0,0.0,9.m4v,10.0
2024-02-28 14:04:39.482069,1709125479.4820683,-134.27734375,-59.08203125,-13.671875,-24.4140625,-1.0,0.0,-1.0,0.0,9.m4v,10.0
2024-02-28 14:04:39.485974,1709125479.485974,-125.48828125,-56.640625,-13.671875,-31.25,-1.0,0.0,-1.0,0.0,9.m4v,10.0
2024-02-28 14:04:39.489884,1709125479.4898844,-125.48828125,-51.26953125,-13.18359375,-49.31640625,-1.0,0.0,-1.0,0.0,9.m4v,10.0
2024-02-28 14:04:39.493790,1709125479.49379,-133.30078125,-49.8046875,-15.625,-57.12890625,-1.0,0.0,-1.0,0.0,9.m4v,10.0
2024-02-28 14:04:39.497695,1709125479.4976954,-131.34765625,-50.78125,-15.13671875,-46.875,-1.0,0.0,-1.0,0.0,9.m4v,10.0
2024-02-28 14:04:39.501601,1709125479.501601,-124.51171875,-52.24609375,-9.27734375,-41.50390625,-1.0,0.0,-1.0,0.0,9.m4v,10.0
2024-02-28 14:04:39.505507,1709125479.5055065,-125.0,-53.22265625,-9.27734375,-47.8515625,-1.0,0.0,-1.0,0.0,9.m4v,10.0
2024-02-28 14:04:39.509412,1709125479.509412,-105.95703125,-49.8046875,-13.671875,-31.25,-1.0,0.0,-1.0,0.0,9.m4v,10.0
2024-02-28 14:04:39.513318,1709125479.5133176,-81.0546875,-44.43359375,-14.16015625,-19.53125,-1.0,0.0,-1.0,0.0,9.m4v,10.0
2024-02-28 14:04:39.517223,1709125479.5172231,-90.33203125,-39.0625,-18.06640625,-26.3671875,-1.0,0.0,-1.0,0.0,9.m4v,10.0
2024-02-28 14:04:39.521129,1709125479.521129,-85.44921875,-40.52734375,-19.04296875,-24.90234375,-1.0,0.0,-1.0,0.0,9.m4v,10.0
2024-02-28 14:04:39.525034,1709125479.5250342,-79.1015625,-41.9921875,-20.01953125,-28.80859375,-1.0,0.0,-1.0,0.0,9.m4v,10.0
2024-02-28 14:04:39.528940,1709125479.5289395,-72.265625,-40.52734375,-20.99609375,-19.04296875,-1.0,0.0,-1.0,0.0,9.m4v,10.0
2024-02-28 14:04:39.532845,1709125479.5328453,-58.59375,-35.64453125,-21.97265625,-4.39453125,-1.0,0.0,-1.0,0.0,9.m4v,10.0
2024-02-28 14:04:39.536755,1709125479.536755,-55.6640625,-35.15625,-27.83203125,-5.859375,-1.0,0.0,-1.0,0.0,9.m4v,10.0
2024-02-28 14:04:39.540661,1709125479.5406609,-47.36328125,-35.64453125,-33.203125,-8.7890625,-1.0,0.0,-1.0,0.0,9.m4v,10.0
2024-02-28 14:04:39.544567,1709125479.5445666,-40.52734375,-35.64453125,-41.015625,-1.953125,-1.0,0.0,-1.0,0.0,9.m4v,10.0
2024-02-28 14:04:39.548472,1709125479.5484722,-39.55078125,-32.71484375,-40.52734375,3.41796875,-1.0,0.0,-1.0,0.0,9.m4v,10.0
2024-02-28 14:04:39.552378,1709125479.5523777,-35.15625,-27.83203125,-33.203125,-3.90625,-1.0,0.0,-1.0,0.0,9.m4v,10.0
2024-02-28 14:04:39.556283,1709125479.5562832,-34.66796875,-34.66796875,-34.1796875,-2.44140625,-1.0,0.0,-1.0,0.0,9.m4v,10.0
2024-02-28 14:04:39.560189,1709125479.5601888,-32.71484375,-40.0390625,-40.52734375,12.6953125,-1.0,0.0,-1.0,0.0,9.m4v,10.0
2024-02-28 14:04:39.564094,1709125479.5640943,-23.92578125,-36.1328125,-43.9453125,22.94921875,-1.0,0.0,-1.0,0.0,9.m4v,10.0
2024-02-28 14:04:39.568000,1709125479.5679998,-22.94921875,-30.2734375,-44.43359375,19.53125,-1.0,0.0,-1.0,0.0,9.m4v,10.0
2024-02-28 14:04:39.571905,1709125479.5719054,-25.390625,-29.78515625,-44.43359375,9.765625,-1.0,0.0,-1.0,0.0,9.m4v,10.0
2024-02-28 14:04:39.575811,1709125479.575811,-27.34375,-26.85546875,-47.36328125,5.37109375,-1.0,0.0,-1.0,0.0,9.m4v,10.0
2024-02-28 14:04:39.821887,1709125479.8218873,-13.18359375,-34.1796875,-40.0390625,-27.34375,-1.0,0.0,-1.0,0.0,9.m4v,10.0
2024-02-28 14:04:39.825793,1709125479.8257928,-1.46484375,-35.15625,-35.64453125,-20.5078125,-1.0,0.0,-1.0,0.0,9.m4v,10.0
2024-02-28 14:04:39.829698,1709125479.8296983,1.46484375,-29.296875,-36.62109375,-19.04296875,-1.0,0.0,-1.0,0.0,9.m4v,10.0
2024-02-28 14:04:39.833604,1709125479.833604,3.90625,-23.92578125,-31.73828125,-16.11328125,-1.0,0.0,-1.0,0.0,9.m4v,10.0
2024-02-28 14:04:39.837509,1709125479.8375094,-0.9765625,-25.87890625,-29.78515625,-22.94921875,-1.0,0.0,-1.0,0.0,9.m4v,10.0
2024-02-28 14:04:39.841415,1709125479.841415,-9.27734375,-31.73828125,-33.69140625,-23.4375,-1.0,0.0,-1.0,0.0,9.m4v,10.0
2024-02-28 14:04:39.845321,1709125479.8453207,-10.7421875,-32.71484375,-34.66796875,-23.4375,-1.0,0.0,-1.0,0.0,9.m4v,10.0
2024-02-28 14:04:39.849226,1709125479.8492262,-14.6484375,-33.69140625,-36.1328125,-27.34375,-1.0,0.0,-1.0,0.0,9.m4v,10.0
2024-02-28 14:04:39.853132,1709125479.8531318,-20.01953125,-38.0859375,-42.48046875,-25.87890625,-1.0,0.0,-1.0,0.0,9.m4v,10.0
2024-02-28 14:04:39.857037,1709125479.8570373,-11.23046875,-32.2265625,-42.96875,-24.4140625,-1.0,0.0,-1.0,0.0,9.m4v,10.0
2024-02-28 14:04:39.860943,1709125479.8609428,2.44140625,-24.4140625,-38.57421875,-21.97265625,-1.0,0.0,-1.0,0.0,9.m4v,10.0
2024-02-28 14:04:39.864853,1709125479.8648531,0.48828125,-31.25,-37.59765625,-20.99609375,-1.0,0.0,-1.0,0.0,9.m4v,10.0
2024-02-28 14:04:39.868759,1709125479.868759,-6.34765625,-32.2265625,-38.0859375,-23.4375,-1.0,0.0,-1.0,0.0,9.m4v,10.0
2024-02-28 14:04:39.872664,1709125479.8726642,-0.48828125,-29.296875,-36.62109375,-22.94921875,-1.0,0.0,-1.0,0.0,9.m4v,10.0
2024-02-28 14:04:39.876570,1709125479.8765695,5.37109375,-32.71484375,-37.109375,-20.01953125,-1.0,0.0,-1.0,0.0,9.m4v,10.0
2024-02-28 14:04:39.880475,1709125479.8804753,-5.37109375,-32.71484375,-38.0859375,-20.5078125,-1.0,0.0,-1.0,0.0,9.m4v,10.0
2024-02-28 14:04:39.884381,1709125479.8843808,-6.8359375,-31.73828125,-33.69140625,-20.5078125,-1.0,0.0,-1.0,0.0,9.m4v,10.0
2024-02-28 14:04:39.888287,1709125479.8882866,-4.39453125,-31.25,-33.69140625,-18.5546875,-1.0,0.0,-1.0,0.0,9.m4v,10.0
2024-02-28 14:04:39.892192,1709125479.892192,-12.20703125,-30.76171875,-36.1328125,-19.53125,-1.0,0.0,-1.0,0.0,9.m4v,10.0
2024-02-28 14:04:39.896098,1709125479.8960977,-6.34765625,-25.390625,-31.25,-15.625,-1.0,0.0,-1.0,0.0,9.m4v,10.0
2024-02-28 14:04:39.900003,1709125479.9000032,-2.9296875,-22.94921875,-32.71484375,-15.13671875,-1.0,0.0,-1.0,0.0,9.m4v,10.0
2024-02-28 14:04:39.903909,1709125479.9039087,-12.20703125,-30.2734375,-34.1796875,-20.01953125,-1.0,0.0,-1.0,0.0,9.m4v,10.0
2024-02-28 14:04:39.907814,1709125479.9078145,-16.11328125,-32.2265625,-34.66796875,-29.296875,-1.0,0.0,-1.0,0.0,9.m4v,10.0
2024-02-28 14:04:39.911724,1709125479.9117243,-14.6484375,-31.73828125,-37.109375,-36.62109375,-1.0,0.0,-1.0,0.0,9.m4v,10.0
2024-02-28 14:04:39.915630,1709125479.91563,-7.32421875,-33.69140625,-38.0859375,-29.78515625,-1.0,0.0,-1.0,0.0,9.m4v,10.0
2024-02-28 14:04:39.919535,1709125479.9195354,-4.39453125,-31.73828125,-44.43359375,-21.484375,-1.0,0.0,-1.0,0.0,9.m4v,10.0
2024-02-28 14:04:39.923441,1709125479.923441,-1.953125,-30.76171875,-39.0625,-21.484375,-1.0,0.0,-1.0,0.0,9.m4v,10.0
2024-02-28 14:04:39.927346,1709125479.9273465,-1.953125,-35.15625,-32.71484375,-28.3203125,-1.0,0.0,-1.0,0.0,9.m4v,10.0
2024-02-28 14:04:39.931252,1709125479.931252,-6.8359375,-31.25,-32.2265625,-28.3203125,-1.0,0.0,-1.0,0.0,9.m4v,10.0
2024-02-28 14:04:39.935158,1709125479.9351575,-4.39453125,-25.87890625,-33.203125,-23.92578125,-1.0,0.0,-1.0,0.0,9.m4v,10.0
2024-02-28 14:04:39.939063,1709125479.939063,-3.41796875,-33.203125,-37.109375,-24.4140625,-1.0,0.0,-1.0,0.0,9.m4v,10.0
2024-02-28 14:04:39.942969,1709125479.9429686,-4.39453125,-36.1328125,-36.1328125,-21.97265625,-1.0,0.0,-1.0,0.0,9.m4v,10.0
2024-02-28 14:04:39.946874,1709125479.946874,-5.37109375,-33.203125,-34.66796875,-27.34375,-1.0,0.0,-1.0,0.0,9.m4v,10.0
2024-02-28 14:04:39.950780,1709125479.9507797,-10.7421875,-35.64453125,-35.64453125,-27.83203125,-1.0,0.0,-1.0,0.0,9.m4v,10.0
2024-02-28 14:04:39.954685,1709125479.9546852,-12.6953125,-33.69140625,-31.73828125,-20.99609375,-1.0,0.0,-1.0,0.0,9.m4v,10.0
2024-02-28 14:04:39.958595,1709125479.9585953,-10.7421875,-31.25,-32.2265625,-21.484375,-1.0,0.0,-1.0,0.0,9.m4v,10.0
2024-02-28 14:04:39.962501,1709125479.9625008,-8.30078125,-31.25,-33.69140625,-26.85546875,-1.0,0.0,-1.0,0.0,9.m4v,10.0
2024-02-28 14:04:39.966406,1709125479.9664063,-16.6015625,-32.71484375,-34.1796875,-35.64453125,-1.0,0.0,-1.0,0.0,9.m4v,10.0
2024-02-28 14:04:39.970312,1709125479.970312,-31.25,-35.15625,-37.109375,-35.15625,-1.0,0.0,-1.0,0.0,9.m4v,10.0
2024-02-28 14:04:40.122641,1709125480.122641,-11.23046875,-32.2265625,-34.1796875,-30.2734375,-1.0,0.0,-1.0,0.0,9.m4v,10.0
2024-02-28 14:04:40.134358,1709125480.134358,-14.16015625,-37.59765625,-37.59765625,-40.0390625,-1.0,0.0,-1.0,0.0,9.m4v,10.0
2024-02-28 14:04:40.146079,1709125480.1460793,-4.39453125,-33.203125,-24.90234375,-31.25,-1.0,0.0,-1.0,0.0,9.m4v,10.0
2024-02-28 14:04:40.157796,1709125480.157796,-4.39453125,-33.203125,-27.83203125,-15.13671875,-1.0,0.0,-1.0,0.0,9.m4v,10.0
2024-02-28 14:04:40.169513,1709125480.1695127,-15.625,-35.64453125,-20.99609375,-17.08984375,-1.0,0.0,-1.0,0.0,9.m4v,10.0
2024-02-28 14:04:40.181229,1709125480.1812294,-13.671875,-33.203125,-27.34375,-14.16015625,-1.0,0.0,-1.0,0.0,9.m4v,10.0
2024-02-28 14:04:40.189040,1709125480.1890404,-5.859375,-30.76171875,-32.2265625,-18.06640625,-1.0,0.0,-1.0,0.0,9.m4v,10.0
2024-02-28 14:04:40.192951,1709125480.1929507,-7.8125,-32.2265625,-34.1796875,-18.5546875,-1.0,0.0,-1.0,0.0,9.m4v,10.0
2024-02-28 14:04:40.196856,1709125480.1968565,-11.71875,-35.64453125,-32.2265625,-23.92578125,-1.0,0.0,-1.0,0.0,9.m4v,10.0
2024-02-28 14:04:40.200762,1709125480.2007618,-6.8359375,-33.203125,-32.2265625,-25.87890625,-1.0,0.0,-1.0,0.0,9.m4v,10.0
2024-02-28 14:04:40.204667,1709125480.204667,-5.37109375,-29.78515625,-33.69140625,-27.83203125,-1.0,0.0,-1.0,0.0,9.m4v,10.0
2024-02-28 14:04:40.208573,1709125480.2085729,-14.16015625,-31.25,-33.69140625,-31.73828125,-1.0,0.0,-1.0,0.0,9.m4v,10.0
2024-02-28 14:04:40.212478,1709125480.2124784,-12.6953125,-28.80859375,-26.85546875,-28.80859375,-1.0,0.0,-1.0,0.0,9.m4v,10.0
2024-02-28 14:04:40.216384,1709125480.2163842,-12.6953125,-29.78515625,-25.87890625,-28.3203125,-1.0,0.0,-1.0,0.0,9.m4v,10.0
2024-02-28 14:04:40.220290,1709125480.2202897,-15.13671875,-33.203125,-31.73828125,-28.3203125,-1.0,0.0,-1.0,0.0,9.m4v,10.0
2024-02-28 14:04:40.224195,1709125480.2241952,-15.13671875,-33.203125,-38.57421875,-26.85546875,-1.0,0.0,-1.0,0.0,9.m4v,10.0
2024-02-28 14:04:40.255444,1709125480.255444,-17.578125,-37.59765625,-27.83203125,-34.66796875,-1.0,0.0,-1.0,0.0,9.m4v,10.0
2024-02-28 14:04:40.259350,1709125480.2593496,-16.11328125,-38.0859375,-34.66796875,-37.109375,-1.0,0.0,-1.0,0.0,9.m4v,10.0
2024-02-28 14:04:40.263255,1709125480.2632551,-15.625,-34.66796875,-35.64453125,-33.203125,-1.0,0.0,-1.0,0.0,9.m4v,10.0
2024-02-28 14:04:40.267161,1709125480.267161,-10.25390625,-30.76171875,-33.69140625,-33.203125,-1.0,0.0,-1.0,0.0,9.m4v,10.0
2024-02-28 14:04:40.271066,1709125480.2710662,-5.37109375,-30.2734375,-36.62109375,-34.66796875,-1.0,0.0,-1.0,0.0,9.m4v,10.0
2024-02-28 14:04:40.274972,1709125480.2749715,-11.71875,-29.296875,-36.62109375,-35.15625,-1.0,0.0,-1.0,0.0,9.m4v,10.0
2024-02-28 14:04:40.278877,1709125480.2788773,-14.6484375,-29.296875,-37.59765625,-41.015625,-1.0,0.0,-1.0,0.0,9.m4v,10.0
2024-02-28 14:04:40.282783,1709125480.2827828,-10.25390625,-24.90234375,-34.1796875,-38.57421875,-1.0,0.0,-1.0,0.0,9.m4v,10.0
2024-02-28 14:04:40.286693,1709125480.2866929,-4.8828125,-27.34375,-34.1796875,-25.87890625,-1.0,0.0,-1.0,0.0,9.m4v,10.0
2024-02-28 14:04:40.290598,1709125480.2905984,-1.953125,-29.78515625,-33.69140625,-21.484375,-1.0,0.0,-1.0,0.0,9.m4v,10.0
2024-02-28 14:04:40.294504,1709125480.294504,-12.6953125,-24.90234375,-37.109375,-32.2265625,-1.0,0.0,-1.0,0.0,9.m4v,10.0
2024-02-28 14:04:40.298409,1709125480.2984097,-17.578125,-25.87890625,-36.62109375,-31.25,-1.0,0.0,-1.0,0.0,9.m4v,10.0
2024-02-28 14:04:40.302315,1709125480.302315,-24.90234375,-31.73828125,-32.2265625,-31.73828125,-1.0,0.0,-1.0,0.0,9.m4v,10.0
2024-02-28 14:04:40.306221,1709125480.3062203,-31.25,-33.203125,-34.1796875,-42.96875,-1.0,0.0,-1.0,0.0,9.m4v,10.0
2024-02-28 14:04:40.310126,1709125480.310126,-33.203125,-33.69140625,-36.1328125,-41.50390625,-1.0,0.0,-1.0,0.0,9.m4v,10.0
2024-02-28 14:04:40.314032,1709125480.3140318,-36.62109375,-34.66796875,-40.52734375,-39.0625,-1.0,0.0,-1.0,0.0,9.m4v,10.0
2024-02-28 14:04:40.317937,1709125480.3179374,-33.69140625,-36.1328125,-41.9921875,-40.0390625,-1.0,0.0,-1.0,0.0,9.m4v,10.0
2024-02-28 14:04:40.321843,1709125480.321843,-31.25,-44.43359375,-39.55078125,-38.57421875,-1.0,0.0,-1.0,0.0,9.m4v,10.0
2024-02-28 14:04:40.325748,1709125480.3257484,-34.1796875,-43.9453125,-42.96875,-38.0859375,-1.0,0.0,-1.0,0.0,9.m4v,10.0
2024-02-28 14:04:40.329654,1709125480.329654,-39.0625,-37.109375,-39.0625,-41.50390625,-1.0,0.0,-1.0,0.0,9.m4v,10.0
2024-02-28 14:04:40.333564,1709125480.3335638,-37.59765625,-35.64453125,-30.76171875,-35.64453125,-1.0,0.0,-1.0,0.0,9.m4v,10.0
2024-02-28 14:04:40.337469,1709125480.337469,-33.69140625,-36.1328125,-34.1796875,-38.0859375,-1.0,0.0,-1.0,0.0,9.m4v,10.0
2024-02-28 14:04:40.341375,1709125480.3413749,-34.1796875,-35.64453125,-40.52734375,-41.9921875,-1.0,0.0,-1.0,0.0,9.m4v,10.0
2024-02-28 14:04:40.345280,1709125480.3452804,-36.1328125,-36.1328125,-39.0625,-40.0390625,-1.0,0.0,-1.0,0.0,9.m4v,10.0
2024-02-28 14:04:40.349186,1709125480.349186,-37.59765625,-40.0390625,-35.15625,-43.45703125,-1.0,0.0,-1.0,0.0,9.m4v,10.0
2024-02-28 14:04:40.353091,1709125480.3530917,-32.71484375,-36.62109375,-31.25,-39.0625,-1.0,0.0,-1.0,0.0,9.m4v,10.0
2024-02-28 14:04:40.356997,1709125480.356997,-32.2265625,-36.1328125,-27.83203125,-34.1796875,-1.0,0.0,-1.0,0.0,9.m4v,10.0
2024-02-28 14:04:40.360903,1709125480.3609023,-38.0859375,-41.015625,-33.203125,-32.2265625,-1.0,0.0,-1.0,0.0,9.m4v,10.0
2024-02-28 14:04:40.364808,1709125480.364808,-34.66796875,-37.59765625,-32.71484375,-29.296875,-1.0,0.0,-1.0,0.0,9.m4v,10.0
2024-02-28 14:04:40.368714,1709125480.3687136,-27.83203125,-32.2265625,-30.76171875,-26.3671875,-1.0,0.0,-1.0,0.0,9.m4v,10.0
2024-02-28 14:04:40.372619,1709125480.3726192,-22.94921875,-32.2265625,-32.71484375,-26.85546875,-1.0,0.0,-1.0,0.0,9.m4v,10.0
2024-02-28 14:04:40.376525,1709125480.3765247,-29.296875,-34.1796875,-35.15625,-33.69140625,-1.0,0.0,-1.0,0.0,9.m4v,10.0
2024-02-28 14:04:40.380435,1709125480.3804348,-37.59765625,-36.1328125,-35.15625,-42.48046875,-1.0,0.0,-1.0,0.0,9.m4v,10.0
2024-02-28 14:04:40.380435,1709125480.3804348,-37.59765625,-36.1328125,-35.15625,-42.48046875,-1.0,0.0,-1.0,0.0,9.m4v,10.0
2024-02-28 14:04:40.384340,1709125480.3843403,-38.0859375,-32.2265625,-37.109375,-42.96875,-1.0,0.0,-1.0,0.0,9.m4v,10.0
2024-02-28 14:04:40.384340,1709125480.3843403,-38.0859375,-32.2265625,-37.109375,-42.96875,-1.0,0.0,-1.0,0.0,9.m4v,10.0
2024-02-28 14:04:40.388246,1709125480.3882458,-32.71484375,-30.2734375,-41.9921875,-35.15625,-1.0,0.0,-1.0,0.0,9.m4v,10.0
2024-02-28 14:04:40.388246,1709125480.3882458,-32.71484375,-30.2734375,-41.9921875,-35.15625,-1.0,0.0,-1.0,0.0,9.m4v,10.0
2024-02-28 14:04:40.392151,1709125480.3921514,-32.2265625,-33.69140625,-42.48046875,-30.2734375,-1.0,0.0,-1.0,0.0,9.m4v,10.0
2024-02-28 14:04:40.392151,1709125480.3921514,-32.2265625,-33.69140625,-42.48046875,-30.2734375,-1.0,0.0,-1.0,0.0,9.m4v,10.0
2024-02-28 14:04:40.396057,1709125480.396057,-27.83203125,-33.69140625,-36.1328125,-28.80859375,-1.0,0.0,-1.0,0.0,9.m4v,10.0
2024-02-28 14:04:40.396057,1709125480.396057,-27.83203125,-33.69140625,-36.1328125,-28.80859375,-1.0,0.0,-1.0,0.0,9.m4v,10.0
2024-02-28 14:04:40.399962,1709125480.3999624,-24.90234375,-30.76171875,-32.71484375,-32.2265625,-1.0,0.0,-1.0,0.0,9.m4v,10.0
2024-02-28 14:04:40.399962,1709125480.3999624,-24.90234375,-30.76171875,-32.71484375,-32.2265625,-1.0,0.0,-1.0,0.0,9.m4v,10.0
2024-02-28 14:04:40.403868,1709125480.403868,-20.01953125,-28.80859375,-32.71484375,-38.57421875,-1.0,0.0,-1.0,0.0,9.m4v,10.0
2024-02-28 14:04:40.403868,1709125480.403868,-20.01953125,-28.80859375,-32.71484375,-38.57421875,-1.0,0.0,-1.0,0.0,9.m4v,10.0
2024-02-28 14:04:40.407773,1709125480.4077735,-20.5078125,-26.85546875,-27.83203125,-39.0625,-1.0,0.0,-1.0,0.0,9.m4v,10.0
2024-02-28 14:04:40.599164,1709125480.5991638,-22.4609375,-34.1796875,-29.296875,-35.64453125,-1.0,0.0,-1.0,0.0,9.m4v,10.0
2024-02-28 14:04:40.603069,1709125480.6030693,-15.625,-32.71484375,-28.3203125,-27.83203125,-1.0,0.0,-1.0,0.0,9.m4v,10.0
2024-02-28 14:04:40.606975,1709125480.6069748,-17.578125,-36.1328125,-25.87890625,-24.4140625,-1.0,0.0,-1.0,0.0,9.m4v,10.0
2024-02-28 14:04:40.610880,1709125480.6108804,-11.71875,-38.57421875,-25.390625,-16.11328125,-1.0,0.0,-1.0,0.0,9.m4v,10.0
2024-02-28 14:04:40.614791,1709125480.614791,-7.32421875,-41.9921875,-29.296875,-5.37109375,-1.0,0.0,-1.0,0.0,9.m4v,10.0
2024-02-28 14:04:40.618696,1709125480.6186962,-11.23046875,-41.9921875,-33.69140625,-5.859375,-1.0,0.0,-1.0,0.0,9.m4v,10.0
2024-02-28 14:04:40.622602,1709125480.6226015,-0.48828125,-38.57421875,-28.3203125,-3.90625,-1.0,0.0,-1.0,0.0,9.m4v,10.0
2024-02-28 14:04:40.626507,1709125480.6265073,8.7890625,-35.64453125,-24.4140625,0.0,-1.0,0.0,-1.0,0.0,9.m4v,10.0
2024-02-28 14:04:40.630413,1709125480.6304128,15.13671875,-31.73828125,-21.97265625,7.8125,-1.0,0.0,-1.0,0.0,9.m4v,10.0
2024-02-28 14:04:40.630413,1709125480.6304128,15.13671875,-31.73828125,-21.97265625,7.8125,-1.0,0.0,-1.0,0.0,9.m4v,10.0
2024-02-28 14:04:40.630413,1709125480.6304128,15.13671875,-31.73828125,-21.97265625,7.8125,-1.0,0.0,-1.0,0.0,9.m4v,10.0
2024-02-28 14:04:40.634318,1709125480.6343184,10.7421875,-32.2265625,-25.390625,12.20703125,-1.0,0.0,-1.0,0.0,9.m4v,10.0
2024-02-28 14:04:40.638224,1709125480.638224,-0.48828125,-34.1796875,-33.203125,10.7421875,-1.0,0.0,-1.0,0.0,9.m4v,10.0
2024-02-28 14:04:40.638224,1709125480.638224,-0.48828125,-34.1796875,-33.203125,10.7421875,-1.0,0.0,-1.0,0.0,9.m4v,10.0
2024-02-28 14:04:40.638224,1709125480.638224,-0.48828125,-34.1796875,-33.203125,10.7421875,-1.0,0.0,-1.0,0.0,9.m4v,10.0
2024-02-28 14:04:40.642129,1709125480.6421294,2.9296875,-33.69140625,-34.66796875,6.34765625,-1.0,0.0,-1.0,0.0,9.m4v,10.0
2024-02-28 14:04:40.646035,1709125480.646035,7.32421875,-34.66796875,-30.2734375,8.7890625,-1.0,0.0,-1.0,0.0,9.m4v,10.0
2024-02-28 14:04:40.646035,1709125480.646035,7.32421875,-34.66796875,-30.2734375,8.7890625,-1.0,0.0,-1.0,0.0,9.m4v,10.0
2024-02-28 14:04:40.646035,1709125480.646035,7.32421875,-34.66796875,-30.2734375,8.7890625,-1.0,0.0,-1.0,0.0,9.m4v,10.0
2024-02-28 14:04:40.649940,1709125480.6499405,15.13671875,-37.109375,-24.90234375,16.6015625,-1.0,0.0,-1.0,0.0,9.m4v,10.0
2024-02-28 14:04:40.653846,1709125480.653846,16.11328125,-33.69140625,-22.4609375,14.16015625,-1.0,0.0,-1.0,0.0,9.m4v,10.0
2024-02-28 14:04:40.653846,1709125480.653846,16.11328125,-33.69140625,-22.4609375,14.16015625,-1.0,0.0,-1.0,0.0,9.m4v,10.0
2024-02-28 14:04:40.653846,1709125480.653846,16.11328125,-33.69140625,-22.4609375,14.16015625,-1.0,0.0,-1.0,0.0,9.m4v,10.0
2024-02-28 14:04:40.657752,1709125480.6577516,23.4375,-30.2734375,-21.484375,16.6015625,-1.0,0.0,-1.0,0.0,9.m4v,10.0
2024-02-28 14:04:40.661662,1709125480.6616616,28.3203125,-35.64453125,-21.484375,20.5078125,-1.0,0.0,-1.0,0.0,9.m4v,10.0
2024-02-28 14:04:40.661662,1709125480.6616616,28.3203125,-35.64453125,-21.484375,20.5078125,-1.0,0.0,-1.0,0.0,9.m4v,10.0
2024-02-28 14:04:40.661662,1709125480.6616616,28.3203125,-35.64453125,-21.484375,20.5078125,-1.0,0.0,-1.0,0.0,9.m4v,10.0
2024-02-28 14:04:40.665567,1709125480.6655672,30.76171875,-33.69140625,-18.5546875,23.92578125,-1.0,0.0,-1.0,0.0,9.m4v,10.0
2024-02-28 14:04:40.669473,1709125480.6694727,33.203125,-32.2265625,-19.04296875,22.94921875,-1.0,0.0,-1.0,0.0,9.m4v,10.0
2024-02-28 14:04:40.669473,1709125480.6694727,33.203125,-32.2265625,-19.04296875,22.94921875,-1.0,0.0,-1.0,0.0,9.m4v,10.0
2024-02-28 14:04:40.669473,1709125480.6694727,33.203125,-32.2265625,-19.04296875,22.94921875,-1.0,0.0,-1.0,0.0,9.m4v,10.0
2024-02-28 14:04:40.673378,1709125480.6733782,25.390625,-33.203125,-21.97265625,19.53125,-1.0,0.0,-1.0,0.0,9.m4v,10.0
2024-02-28 14:04:40.677284,1709125480.6772838,28.80859375,-33.203125,-22.4609375,23.4375,-1.0,0.0,-1.0,0.0,9.m4v,10.0
2024-02-28 14:04:40.677284,1709125480.6772838,28.80859375,-33.203125,-22.4609375,23.4375,-1.0,0.0,-1.0,0.0,9.m4v,10.0
2024-02-28 14:04:40.677284,1709125480.6772838,28.80859375,-33.203125,-22.4609375,23.4375,-1.0,0.0,-1.0,0.0,9.m4v,10.0
2024-02-28 14:04:40.681189,1709125480.6811893,38.0859375,-33.69140625,-19.53125,20.5078125,-1.0,0.0,-1.0,0.0,9.m4v,10.0
2024-02-28 14:04:40.685095,1709125480.685095,30.2734375,-38.0859375,-23.4375,10.7421875,-1.0,0.0,-1.0,0.0,9.m4v,10.0
2024-02-28 14:04:40.689001,1709125480.6890006,31.25,-38.57421875,-24.90234375,19.53125,-1.0,0.0,-1.0,0.0,9.m4v,10.0
2024-02-28 14:04:40.778836,1709125480.7788365,4.39453125,-36.1328125,-41.50390625,-20.01953125,-1.0,0.0,-1.0,0.0,9.m4v,10.0
2024-02-28 14:04:40.786648,1709125480.7866476,7.8125,-29.78515625,-34.66796875,-13.671875,-1.0,0.0,-1.0,0.0,9.m4v,10.0
2024-02-28 14:04:40.794459,1709125480.7944586,3.90625,-28.3203125,-35.15625,-20.99609375,-1.0,0.0,-1.0,0.0,9.m4v,10.0
2024-02-28 14:04:40.802274,1709125480.802274,-1.953125,-34.1796875,-33.203125,-18.06640625,-1.0,0.0,-1.0,0.0,9.m4v,10.0
2024-02-28 14:04:40.810085,1709125480.810085,-0.9765625,-33.69140625,-29.78515625,-24.90234375,-1.0,0.0,-1.0,0.0,9.m4v,10.0
2024-02-28 14:04:40.817896,1709125480.817896,-2.9296875,-33.69140625,-26.3671875,-20.99609375,-1.0,0.0,-1.0,0.0,9.m4v,10.0
2024-02-28 14:04:40.825707,1709125480.8257072,-5.859375,-38.57421875,-33.69140625,-25.87890625,-1.0,0.0,-1.0,0.0,9.m4v,10.0
2024-02-28 14:04:40.833518,1709125480.8335185,-0.48828125,-41.015625,-29.78515625,-16.11328125,-1.0,0.0,-1.0,0.0,9.m4v,10.0
2024-02-28 14:04:40.841329,1709125480.841329,-1.46484375,-40.52734375,-29.78515625,-20.01953125,-1.0,0.0,-1.0,0.0,9.m4v,10.0
2024-02-28 14:04:40.849145,1709125480.8491454,-8.30078125,-40.0390625,-28.80859375,-23.4375,-1.0,0.0,-1.0,0.0,9.m4v,10.0
2024-02-28 14:04:40.856956,1709125480.8569565,-7.32421875,-37.109375,-30.76171875,-13.18359375,-1.0,0.0,-1.0,0.0,9.m4v,10.0
2024-02-28 14:04:40.864768,1709125480.8647676,-8.7890625,-37.59765625,-33.203125,-17.08984375,-1.0,0.0,-1.0,0.0,9.m4v,10.0
2024-02-28 14:04:40.872579,1709125480.8725786,-13.671875,-40.0390625,-30.2734375,-19.53125,-1.0,0.0,-1.0,0.0,9.m4v,10.0
2024-02-28 14:04:40.880390,1709125480.88039,-10.7421875,-39.55078125,-32.71484375,-25.390625,-1.0,0.0,-1.0,0.0,9.m4v,10.0
2024-02-28 14:04:40.888201,1709125480.888201,-18.06640625,-35.64453125,-28.3203125,-23.92578125,-1.0,0.0,-1.0,0.0,9.m4v,10.0
2024-02-28 14:04:40.899922,1709125480.8999224,-27.83203125,-30.76171875,-27.34375,-24.90234375,-1.0,0.0,-1.0,0.0,9.m4v,10.0
2024-02-28 14:04:40.903828,1709125480.903828,-24.4140625,-30.76171875,-27.83203125,-24.90234375,-1.0,0.0,-1.0,0.0,9.m4v,10.0
2024-02-28 14:04:40.907733,1709125480.9077334,-32.2265625,-33.69140625,-33.69140625,-26.3671875,-1.0,0.0,-1.0,0.0,9.m4v,10.0
2024-02-28 14:04:40.911639,1709125480.911639,-35.64453125,-35.64453125,-33.203125,-30.76171875,-1.0,0.0,-1.0,0.0,9.m4v,10.0
2024-02-28 14:04:40.915545,1709125480.9155445,-36.1328125,-35.64453125,-31.25,-27.83203125,-1.0,0.0,-1.0,0.0,9.m4v,10.0
2024-02-28 14:04:40.919450,1709125480.91945,-35.64453125,-35.15625,-29.296875,-21.484375,-1.0,0.0,-1.0,0.0,9.m4v,10.0
2024-02-28 14:04:40.923356,1709125480.9233556,-32.2265625,-29.78515625,-28.80859375,-23.4375,-1.0,0.0,-1.0,0.0,9.m4v,10.0
2024-02-28 14:04:40.927261,1709125480.927261,-24.90234375,-26.3671875,-27.83203125,-22.4609375,-1.0,0.0,-1.0,0.0,9.m4v,10.0
2024-02-28 14:04:40.931167,1709125480.9311666,-39.55078125,-30.76171875,-27.83203125,-26.3671875,-1.0,0.0,-1.0,0.0,9.m4v,10.0
2024-02-28 14:04:40.935072,1709125480.9350724,-55.17578125,-31.25,-25.87890625,-32.71484375,-1.0,0.0,-1.0,0.0,9.m4v,10.0
2024-02-28 14:04:40.938978,1709125480.938978,-48.828125,-34.1796875,-25.87890625,-27.34375,-1.0,0.0,-1.0,0.0,9.m4v,10.0
2024-02-28 14:04:40.942888,1709125480.942888,-48.33984375,-39.0625,-28.3203125,-28.80859375,-1.0,0.0,-1.0,0.0,9.m4v,10.0
2024-02-28 14:04:40.946794,1709125480.9467936,-49.31640625,-35.64453125,-26.3671875,-33.203125,-1.0,0.0,-1.0,0.0,9.m4v,10.0
2024-02-28 14:04:40.950699,1709125480.950699,-47.8515625,-34.66796875,-23.92578125,-29.78515625,-1.0,0.0,-1.0,0.0,9.m4v,10.0
2024-02-28 14:04:40.954605,1709125480.9546046,-47.8515625,-35.64453125,-23.4375,-24.90234375,-1.0,0.0,-1.0,0.0,9.m4v,10.0
2024-02-28 14:04:40.958510,1709125480.9585102,-43.45703125,-31.25,-29.296875,-26.3671875,-1.0,0.0,-1.0,0.0,9.m4v,10.0
2024-02-28 14:04:40.962416,1709125480.962416,-39.0625,-28.3203125,-33.69140625,-28.3203125,-1.0,0.0,-1.0,0.0,9.m4v,10.0
2024-02-28 14:04:41.044441,1709125481.0444417,-39.0625,-29.296875,-32.71484375,-26.3671875,-1.0,0.0,-1.0,0.0,9.m4v,10.0
2024-02-28 14:04:41.048347,1709125481.048347,-38.57421875,-30.2734375,-28.3203125,-31.25,-1.0,0.0,-1.0,0.0,9.m4v,10.0
2024-02-28 14:04:41.052253,1709125481.0522523,-44.43359375,-30.2734375,-31.25,-31.73828125,-1.0,0.0,-1.0,0.0,9.m4v,10.0
2024-02-28 14:04:41.056158,1709125481.056158,-41.9921875,-30.76171875,-30.2734375,-27.83203125,-1.0,0.0,-1.0,0.0,9.m4v,10.0
2024-02-28 14:04:41.060064,1709125481.0600636,-36.62109375,-29.78515625,-33.203125,-29.78515625,-1.0,0.0,-1.0,0.0,9.m4v,10.0
2024-02-28 14:04:41.063969,1709125481.0639694,-33.69140625,-27.34375,-37.59765625,-30.2734375,-1.0,0.0,-1.0,0.0,9.m4v,10.0
2024-02-28 14:04:41.067875,1709125481.067875,-37.109375,-28.3203125,-34.1796875,-29.296875,-1.0,0.0,-1.0,0.0,9.m4v,10.0
2024-02-28 14:04:41.071780,1709125481.0717804,-43.45703125,-29.78515625,-30.76171875,-29.78515625,-1.0,0.0,-1.0,0.0,9.m4v,10.0
2024-02-28 14:04:41.075686,1709125481.075686,-41.50390625,-29.78515625,-28.80859375,-27.34375,-1.0,0.0,-1.0,0.0,9.m4v,10.0
2024-02-28 14:04:41.079592,1709125481.0795915,-38.57421875,-34.1796875,-28.80859375,-32.71484375,-1.0,0.0,-1.0,0.0,9.m4v,10.0
2024-02-28 14:04:41.083501,1709125481.083501,-36.62109375,-32.2265625,-29.296875,-30.76171875,-1.0,0.0,-1.0,0.0,9.m4v,10.0
2024-02-28 14:04:41.087407,1709125481.0874069,-30.2734375,-29.78515625,-28.80859375,-29.78515625,-1.0,0.0,-1.0,0.0,9.m4v,10.0
2024-02-28 14:04:41.091312,1709125481.0913124,-28.3203125,-30.2734375,-31.25,-31.73828125,-1.0,0.0,-1.0,0.0,9.m4v,10.0
2024-02-28 14:04:41.095218,1709125481.095218,-23.4375,-26.3671875,-30.2734375,-24.90234375,-1.0,0.0,-1.0,0.0,9.m4v,10.0
2024-02-28 14:04:41.099123,1709125481.0991237,-15.625,-24.4140625,-27.34375,-21.484375,-1.0,0.0,-1.0,0.0,9.m4v,10.0
2024-02-28 14:04:41.103029,1709125481.103029,-15.625,-31.73828125,-30.76171875,-26.85546875,-1.0,0.0,-1.0,0.0,9.m4v,10.0
2024-02-28 14:04:41.106935,1709125481.1069343,-9.765625,-32.71484375,-36.62109375,-29.78515625,-1.0,0.0,-1.0,0.0,9.m4v,10.0
2024-02-28 14:04:41.110840,1709125481.11084,-15.13671875,-32.2265625,-38.0859375,-30.76171875,-1.0,0.0,-1.0,0.0,9.m4v,10.0
2024-02-28 14:04:41.114746,1709125481.1147456,-21.484375,-33.203125,-32.2265625,-30.76171875,-1.0,0.0,-1.0,0.0,9.m4v,10.0
2024-02-28 14:04:41.118651,1709125481.1186512,-16.6015625,-31.25,-27.34375,-28.3203125,-1.0,0.0,-1.0,0.0,9.m4v,10.0
2024-02-28 14:04:41.122557,1709125481.1225567,-18.06640625,-34.1796875,-30.2734375,-34.1796875,-1.0,0.0,-1.0,0.0,9.m4v,10.0
2024-02-28 14:04:41.126462,1709125481.1264622,-15.625,-31.73828125,-32.71484375,-39.0625,-1.0,0.0,-1.0,0.0,9.m4v,10.0
2024-02-28 14:04:41.130372,1709125481.1303718,-17.578125,-28.3203125,-30.2734375,-35.15625,-1.0,0.0,-1.0,0.0,9.m4v,10.0
2024-02-28 14:04:41.134277,1709125481.134277,-25.87890625,-29.296875,-31.25,-30.2734375,-1.0,0.0,-1.0,0.0,9.m4v,10.0
2024-02-28 14:04:41.138183,1709125481.138183,-26.3671875,-32.2265625,-31.25,-25.390625,-1.0,0.0,-1.0,0.0,9.m4v,10.0
2024-02-28 14:04:41.142089,1709125481.142089,-20.99609375,-33.203125,-30.76171875,-27.83203125,-1.0,0.0,-1.0,0.0,9.m4v,10.0
2024-02-28 14:04:41.145994,1709125481.1459942,-24.4140625,-33.203125,-31.73828125,-32.2265625,-1.0,0.0,-1.0,0.0,9.m4v,10.0
2024-02-28 14:04:41.149900,1709125481.1498995,-22.94921875,-28.80859375,-28.3203125,-25.390625,-1.0,0.0,-1.0,0.0,9.m4v,10.0
2024-02-28 14:04:41.153805,1709125481.1538053,-14.6484375,-30.76171875,-31.25,-27.34375,-1.0,0.0,-1.0,0.0,9.m4v,10.0
2024-02-28 14:04:41.157711,1709125481.1577108,-16.11328125,-31.73828125,-30.76171875,-26.3671875,-1.0,0.0,-1.0,0.0,9.m4v,10.0
2024-02-28 14:04:41.161616,1709125481.1616163,-17.578125,-28.80859375,-27.34375,-19.53125,-1.0,0.0,-1.0,0.0,9.m4v,10.0
2024-02-28 14:04:41.165522,1709125481.165522,-22.94921875,-30.2734375,-30.2734375,-27.34375,-1.0,0.0,-1.0,0.0,9.m4v,10.0
2024-02-28 14:04:41.169427,1709125481.1694274,-33.69140625,-32.2265625,-32.2265625,-35.64453125,-1.0,0.0,-1.0,0.0,9.m4v,10.0
2024-02-28 14:04:41.173333,1709125481.173333,-37.59765625,-33.69140625,-29.296875,-35.15625,-1.0,0.0,-1.0,0.0,9.m4v,10.0
2024-02-28 14:04:41.177243,1709125481.1772425,-33.69140625,-34.1796875,-26.3671875,-34.1796875,-1.0,0.0,-1.0,0.0,9.m4v,10.0
2024-02-28 14:04:41.181148,1709125481.181148,-35.64453125,-33.203125,-27.83203125,-38.57421875,-1.0,0.0,-1.0,0.0,9.m4v,10.0
2024-02-28 14:04:41.185054,1709125481.1850536,-36.1328125,-32.71484375,-30.2734375,-36.1328125,-1.0,0.0,-1.0,0.0,9.m4v,10.0
2024-02-28 14:04:41.188959,1709125481.1889591,-27.83203125,-32.71484375,-28.80859375,-33.203125,-1.0,0.0,-1.0,0.0,9.m4v,10.0
2024-02-28 14:04:41.192865,1709125481.192865,-29.296875,-31.25,-31.73828125,-40.52734375,-1.0,0.0,-1.0,0.0,9.m4v,10.0
2024-02-28 14:04:41.196770,1709125481.1967704,-34.66796875,-31.73828125,-37.109375,-46.38671875,-1.0,0.0,-1.0,0.0,9.m4v,10.0
2024-02-28 14:04:41.200676,1709125481.200676,-26.3671875,-30.76171875,-35.64453125,-41.50390625,-1.0,0.0,-1.0,0.0,9.m4v,10.0
2024-02-28 14:04:41.204581,1709125481.2045815,-11.71875,-30.76171875,-36.1328125,-31.25,-1.0,0.0,-1.0,0.0,9.m4v,10.0
2024-02-28 14:04:41.208487,1709125481.208487,-10.7421875,-33.203125,-35.64453125,-28.3203125,-1.0,0.0,-1.0,0.0,9.m4v,10.0
2024-02-28 14:04:41.212393,1709125481.2123926,-29.78515625,-35.64453125,-32.71484375,-44.921875,-1.0,0.0,-1.0,0.0,9.m4v,10.0
2024-02-28 14:04:41.216298,1709125481.216298,-38.57421875,-37.59765625,-34.1796875,-50.78125,-1.0,0.0,-1.0,0.0,9.m4v,10.0
2024-02-28 14:04:41.220204,1709125481.2202036,-40.0390625,-36.1328125,-37.109375,-49.8046875,-1.0,0.0,-1.0,0.0,9.m4v,10.0
2024-02-28 14:04:41.224113,1709125481.2241132,-39.55078125,-32.2265625,-38.57421875,-60.546875,-1.0,0.0,-1.0,0.0,9.m4v,10.0
2024-02-28 14:04:41.228019,1709125481.2280188,-38.0859375,-34.1796875,-43.9453125,-64.453125,-1.0,0.0,-1.0,0.0,9.m4v,10.0
2024-02-28 14:04:41.231924,1709125481.2319243,-39.0625,-36.1328125,-46.875,-59.08203125,-1.0,0.0,-1.0,0.0,9.m4v,10.0
2024-02-28 14:04:41.235830,1709125481.2358298,-36.1328125,-32.2265625,-43.45703125,-57.12890625,-1.0,0.0,-1.0,0.0,9.m4v,10.0
2024-02-28 14:04:41.239735,1709125481.2397354,-39.0625,-31.25,-40.52734375,-52.734375,-1.0,0.0,-1.0,0.0,9.m4v,10.0
2024-02-28 14:04:41.243641,1709125481.243641,-42.96875,-29.296875,-40.0390625,-46.875,-1.0,0.0,-1.0,0.0,9.m4v,10.0
2024-02-28 14:04:41.247546,1709125481.2475464,-35.64453125,-32.2265625,-38.0859375,-39.55078125,-1.0,0.0,-1.0,0.0,9.m4v,10.0
2024-02-28 14:04:41.251452,1709125481.251452,-33.69140625,-37.59765625,-34.66796875,-36.1328125,-1.0,0.0,-1.0,0.0,9.m4v,10.0
2024-02-28 14:04:41.255358,1709125481.2553575,-36.1328125,-36.62109375,-36.1328125,-37.59765625,-1.0,0.0,-1.0,0.0,9.m4v,10.0
2024-02-28 14:04:41.259263,1709125481.259263,-34.1796875,-38.57421875,-35.15625,-35.15625,-1.0,0.0,-1.0,0.0,9.m4v,10.0
2024-02-28 14:04:41.263169,1709125481.2631686,-30.76171875,-36.62109375,-33.203125,-29.296875,-1.0,0.0,-1.0,0.0,9.m4v,10.0
2024-02-28 14:04:41.267074,1709125481.267074,-28.80859375,-32.2265625,-35.64453125,-24.4140625,-1.0,0.0,-1.0,0.0,9.m4v,10.0
2024-02-28 14:04:41.270984,1709125481.2709844,-30.76171875,-34.66796875,-38.0859375,-28.3203125,-1.0,0.0,-1.0,0.0,9.m4v,10.0
2024-02-28 14:04:41.274890,1709125481.27489,-41.9921875,-37.109375,-40.52734375,-37.109375,-1.0,0.0,-1.0,0.0,9.m4v,10.0
2024-02-28 14:04:41.274890,1709125481.27489,-41.9921875,-37.109375,-40.52734375,-37.109375,-1.0,0.0,-1.0,0.0,9.m4v,10.0
2024-02-28 14:04:41.278796,1709125481.2787957,-46.875,-38.57421875,-39.55078125,-41.9921875,-1.0,0.0,-1.0,0.0,9.m4v,10.0
2024-02-28 14:04:41.282701,1709125481.2827013,-41.9921875,-37.109375,-35.15625,-38.0859375,-1.0,0.0,-1.0,0.0,9.m4v,10.0
2024-02-28 14:04:41.286607,1709125481.2866068,-39.55078125,-36.1328125,-33.203125,-36.1328125,-1.0,0.0,-1.0,0.0,9.m4v,10.0
2024-02-28 14:04:41.290512,1709125481.2905123,-38.0859375,-35.64453125,-30.76171875,-34.66796875,-1.0,0.0,-1.0,0.0,9.m4v,10.0
2024-02-28 14:04:41.294418,1709125481.294418,-35.64453125,-31.25,-30.76171875,-31.73828125,-1.0,0.0,-1.0,0.0,9.m4v,10.0
2024-02-28 14:04:41.298323,1709125481.2983234,-33.203125,-30.2734375,-30.2734375,-31.73828125,-1.0,0.0,-1.0,0.0,9.m4v,10.0
2024-02-28 14:04:41.302229,1709125481.302229,-32.71484375,-36.1328125,-27.34375,-27.83203125,-1.0,0.0,-1.0,0.0,9.m4v,10.0
2024-02-28 14:04:41.306134,1709125481.3061345,-31.25,-35.15625,-30.2734375,-26.3671875,-1.0,0.0,-1.0,0.0,9.m4v,10.0
2024-02-28 14:04:41.310040,1709125481.31004,-25.87890625,-29.78515625,-32.71484375,-26.85546875,-1.0,0.0,-1.0,0.0,9.m4v,10.0
2024-02-28 14:04:41.313946,1709125481.3139455,-18.06640625,-30.76171875,-31.25,-20.5078125,-1.0,0.0,-1.0,0.0,9.m4v,10.0
2024-02-28 14:04:41.317856,1709125481.3178558,-21.484375,-33.69140625,-29.296875,-23.4375,-1.0,0.0,-1.0,0.0,9.m4v,10.0
2024-02-28 14:04:41.321761,1709125481.3217614,-26.3671875,-34.1796875,-27.34375,-21.97265625,-1.0,0.0,-1.0,0.0,9.m4v,10.0
2024-02-28 14:04:41.325667,1709125481.325667,-29.296875,-32.71484375,-29.296875,-27.34375,-1.0,0.0,-1.0,0.0,9.m4v,10.0
2024-02-28 14:04:41.329572,1709125481.3295724,-30.76171875,-33.203125,-30.2734375,-35.64453125,-1.0,0.0,-1.0,0.0,9.m4v,10.0
2024-02-28 14:04:41.333478,1709125481.333478,-22.94921875,-31.73828125,-27.34375,-33.203125,-1.0,0.0,-1.0,0.0,9.m4v,10.0
2024-02-28 14:04:41.337384,1709125481.3373835,-22.4609375,-32.71484375,-29.296875,-37.109375,-1.0,0.0,-1.0,0.0,9.m4v,10.0
2024-02-28 14:04:41.341289,1709125481.341289,-22.94921875,-33.69140625,-23.4375,-42.48046875,-1.0,0.0,-1.0,0.0,9.m4v,10.0
2024-02-28 14:04:41.345195,1709125481.3451946,-28.3203125,-36.1328125,-25.390625,-39.55078125,-1.0,0.0,-1.0,0.0,9.m4v,10.0
2024-02-28 14:04:41.349100,1709125481.3491,-28.3203125,-37.109375,-29.78515625,-31.25,-1.0,0.0,-1.0,0.0,9.m4v,10.0
2024-02-28 14:04:41.353006,1709125481.3530056,-23.92578125,-37.109375,-29.78515625,-35.64453125,-1.0,0.0,-1.0,0.0,9.m4v,10.0
2024-02-28 14:04:41.356911,1709125481.3569114,-30.76171875,-40.52734375,-35.64453125,-43.9453125,-1.0,0.0,-1.0,0.0,9.m4v,10.0
2024-02-28 14:04:41.360817,1709125481.360817,-40.0390625,-39.55078125,-36.62109375,-43.9453125,-1.0,0.0,-1.0,0.0,9.m4v,10.0
2024-02-28 14:04:41.364727,1709125481.364727,-37.59765625,-39.55078125,-34.1796875,-41.50390625,-1.0,0.0,-1.0,0.0,9.m4v,10.0
2024-02-28 14:04:41.368633,1709125481.3686326,-32.2265625,-40.52734375,-34.1796875,-40.0390625,-1.0,0.0,-1.0,0.0,9.m4v,10.0
2024-02-28 14:04:41.372538,1709125481.372538,-31.25,-33.203125,-34.1796875,-37.109375,-1.0,0.0,-1.0,0.0,9.m4v,10.0
2024-02-28 14:04:41.376444,1709125481.3764436,-26.85546875,-30.2734375,-30.76171875,-29.296875,-1.0,0.0,-1.0,0.0,9.m4v,10.0
2024-02-28 14:04:41.380349,1709125481.3803492,-28.80859375,-31.25,-29.78515625,-29.78515625,-1.0,0.0,-1.0,0.0,9.m4v,10.0
2024-02-28 14:04:41.384255,1709125481.3842547,-29.78515625,-27.83203125,-29.296875,-31.73828125,-1.0,0.0,-1.0,0.0,9.m4v,10.0
2024-02-28 14:04:41.388160,1709125481.3881602,-29.296875,-31.73828125,-28.80859375,-31.73828125,-1.0,0.0,-1.0,0.0,9.m4v,10.0
2024-02-28 14:04:41.392066,1709125481.3920658,-35.64453125,-37.109375,-35.64453125,-34.66796875,-1.0,0.0,-1.0,0.0,9.m4v,10.0
2024-02-28 14:04:41.395971,1709125481.3959713,-39.55078125,-35.15625,-38.0859375,-33.69140625,-1.0,0.0,-1.0,0.0,9.m4v,10.0
2024-02-28 14:04:41.399877,1709125481.3998768,-41.9921875,-29.296875,-36.1328125,-32.2265625,-1.0,0.0,-1.0,0.0,9.m4v,10.0
2024-02-28 14:04:41.403782,1709125481.4037824,-41.9921875,-27.34375,-32.2265625,-35.15625,-1.0,0.0,-1.0,0.0,9.m4v,10.0
2024-02-28 14:04:41.407688,1709125481.407688,-35.15625,-26.3671875,-30.2734375,-31.73828125,-1.0,0.0,-1.0,0.0,9.m4v,10.0
2024-02-28 14:04:41.411598,1709125481.411598,-32.71484375,-25.87890625,-27.83203125,-24.90234375,-1.0,0.0,-1.0,0.0,9.m4v,10.0
2024-02-28 14:04:41.415504,1709125481.4155035,-34.1796875,-25.87890625,-26.85546875,-31.73828125,-1.0,0.0,-1.0,0.0,9.m4v,10.0
2024-02-28 14:04:41.435031,1709125481.4350312,-39.0625,-42.96875,-37.59765625,-37.109375,-1.0,0.0,-1.0,0.0,9.m4v,10.0
2024-02-28 14:04:41.442842,1709125481.4428425,-28.80859375,-36.1328125,-38.57421875,-30.76171875,-1.0,0.0,-1.0,0.0,9.m4v,10.0
2024-02-28 14:04:41.450654,1709125481.4506536,-33.69140625,-36.1328125,-31.25,-37.59765625,-1.0,0.0,-1.0,0.0,9.m4v,10.0
2024-02-28 14:04:41.458469,1709125481.458469,-33.203125,-40.0390625,-37.109375,-37.109375,-1.0,0.0,-1.0,0.0,9.m4v,10.0
2024-02-28 14:04:41.466280,1709125481.46628,-34.1796875,-33.69140625,-32.2265625,-33.69140625,-1.0,0.0,-1.0,0.0,9.m4v,10.0
2024-02-28 14:04:41.474091,1709125481.474091,-27.83203125,-29.296875,-33.203125,-32.71484375,-1.0,0.0,-1.0,0.0,9.m4v,10.0
2024-02-28 14:04:41.481902,1709125481.4819024,-29.296875,-28.3203125,-33.69140625,-31.25,-1.0,0.0,-1.0,0.0,9.m4v,10.0
2024-02-28 14:04:41.489713,1709125481.4897134,-27.83203125,-29.78515625,-33.69140625,-29.296875,-1.0,0.0,-1.0,0.0,9.m4v,10.0
2024-02-28 14:04:41.497524,1709125481.4975245,-31.25,-26.85546875,-35.64453125,-29.78515625,-1.0,0.0,-1.0,0.0,9.m4v,10.0
2024-02-28 14:04:41.501430,1709125481.50143,-33.69140625,-26.85546875,-35.15625,-28.80859375,-1.0,0.0,-1.0,0.0,9.m4v,10.0
2024-02-28 14:04:41.505340,1709125481.5053396,-26.3671875,-26.3671875,-34.66796875,-28.3203125,-1.0,0.0,-1.0,0.0,9.m4v,10.0
2024-02-28 14:04:41.513151,1709125481.5131507,-36.1328125,-29.78515625,-35.15625,-35.15625,-1.0,0.0,-1.0,0.0,9.m4v,10.0
2024-02-28 14:04:41.520962,1709125481.5209618,-37.109375,-31.25,-38.0859375,-45.41015625,-1.0,0.0,-1.0,0.0,9.m4v,10.0
2024-02-28 14:04:41.524867,1709125481.5248673,-36.62109375,-30.76171875,-43.45703125,-42.48046875,-1.0,0.0,-1.0,0.0,9.m4v,10.0
2024-02-28 14:04:41.528773,1709125481.5287728,-33.69140625,-33.203125,-47.36328125,-42.48046875,-1.0,0.0,-1.0,0.0,9.m4v,10.0
2024-02-28 14:04:41.536584,1709125481.536584,-35.15625,-34.1796875,-39.55078125,-39.0625,-1.0,0.0,-1.0,0.0,9.m4v,10.0
2024-02-28 14:04:41.544395,1709125481.5443952,-30.2734375,-32.71484375,-30.2734375,-26.3671875,-1.0,0.0,-1.0,0.0,9.m4v,10.0
2024-02-28 14:04:41.552210,1709125481.55221,-27.34375,-31.25,-30.76171875,-37.109375,-1.0,0.0,-1.0,0.0,9.m4v,10.0
2024-02-28 14:04:41.560021,1709125481.5600212,-35.64453125,-29.296875,-27.83203125,-36.62109375,-1.0,0.0,-1.0,0.0,9.m4v,10.0
2024-02-28 14:04:41.567832,1709125481.5678322,-35.64453125,-22.4609375,-32.2265625,-31.73828125,-1.0,0.0,-1.0,0.0,9.m4v,10.0
2024-02-28 14:04:41.575644,1709125481.5756435,-32.71484375,-33.203125,-32.71484375,-33.69140625,-1.0,0.0,-1.0,0.0,9.m4v,10.0
2024-02-28 14:04:41.583455,1709125481.5834546,-13.671875,-24.90234375,-26.85546875,-26.3671875,-1.0,0.0,-1.0,0.0,9.m4v,10.0
2024-02-28 14:04:41.591266,1709125481.5912657,-31.25,-36.1328125,-26.85546875,-39.55078125,-1.0,0.0,-1.0,0.0,9.m4v,10.0
2024-02-28 14:04:41.599082,1709125481.5990818,-23.4375,-29.78515625,-26.85546875,-31.73828125,-1.0,0.0,-1.0,0.0,9.m4v,10.0
2024-02-28 14:04:41.606893,1709125481.6068928,-29.296875,-37.59765625,-32.71484375,-40.52734375,-1.0,0.0,-1.0,0.0,9.m4v,10.0
2024-02-28 14:04:41.743602,1709125481.7436025,-35.15625,-36.1328125,-35.64453125,-35.15625,-1.0,0.0,-1.0,0.0,9.m4v,10.0
2024-02-28 14:04:41.743602,1709125481.7436025,-35.15625,-36.1328125,-35.64453125,-35.15625,-1.0,0.0,-1.0,0.0,9.m4v,10.0
2024-02-28 14:04:41.743602,1709125481.7436025,-35.15625,-36.1328125,-35.64453125,-35.15625,-1.0,0.0,-1.0,0.0,9.m4v,10.0
2024-02-28 14:04:41.759224,1709125481.7592244,-29.78515625,-28.80859375,-31.73828125,-35.64453125,-1.0,0.0,-1.0,0.0,9.m4v,10.0
2024-02-28 14:04:41.759224,1709125481.7592244,-29.78515625,-28.80859375,-31.73828125,-35.64453125,-1.0,0.0,-1.0,0.0,9.m4v,10.0
2024-02-28 14:04:41.759224,1709125481.7592244,-29.78515625,-28.80859375,-31.73828125,-35.64453125,-1.0,0.0,-1.0,0.0,9.m4v,10.0
2024-02-28 14:04:41.767035,1709125481.7670355,-39.0625,-33.203125,-28.80859375,-45.8984375,-1.0,0.0,-1.0,0.0,9.m4v,10.0
2024-02-28 14:04:41.767035,1709125481.7670355,-39.0625,-33.203125,-28.80859375,-45.8984375,-1.0,0.0,-1.0,0.0,9.m4v,10.0
2024-02-28 14:04:41.767035,1709125481.7670355,-39.0625,-33.203125,-28.80859375,-45.8984375,-1.0,0.0,-1.0,0.0,9.m4v,10.0
2024-02-28 14:04:41.782658,1709125481.7826576,-20.01953125,-23.92578125,-31.73828125,-26.85546875,-1.0,0.0,-1.0,0.0,9.m4v,10.0
2024-02-28 14:04:41.782658,1709125481.7826576,-20.01953125,-23.92578125,-31.73828125,-26.85546875,-1.0,0.0,-1.0,0.0,9.m4v,10.0
2024-02-28 14:04:41.782658,1709125481.7826576,-20.01953125,-23.92578125,-31.73828125,-26.85546875,-1.0,0.0,-1.0,0.0,9.m4v,10.0
2024-02-28 14:04:41.790473,1709125481.7904732,-27.34375,-31.73828125,-30.2734375,-18.06640625,-1.0,0.0,-1.0,0.0,9.m4v,10.0
2024-02-28 14:04:41.790473,1709125481.7904732,-27.34375,-31.73828125,-30.2734375,-18.06640625,-1.0,0.0,-1.0,0.0,9.m4v,10.0
2024-02-28 14:04:41.790473,1709125481.7904732,-27.34375,-31.73828125,-30.2734375,-18.06640625,-1.0,0.0,-1.0,0.0,9.m4v,10.0
2024-02-28 14:04:41.806095,1709125481.8060954,-40.0390625,-35.64453125,-38.0859375,-49.8046875,-1.0,0.0,-1.0,0.0,9.m4v,10.0
2024-02-28 14:04:41.806095,1709125481.8060954,-40.0390625,-35.64453125,-38.0859375,-49.8046875,-1.0,0.0,-1.0,0.0,9.m4v,10.0
2024-02-28 14:04:41.806095,1709125481.8060954,-40.0390625,-35.64453125,-38.0859375,-49.8046875,-1.0,0.0,-1.0,0.0,9.m4v,10.0
2024-02-28 14:04:41.813906,1709125481.8139064,-39.0625,-40.52734375,-42.96875,-41.9921875,-1.0,0.0,-1.0,0.0,9.m4v,10.0
2024-02-28 14:04:41.813906,1709125481.8139064,-39.0625,-40.52734375,-42.96875,-41.9921875,-1.0,0.0,-1.0,0.0,9.m4v,10.0
2024-02-28 14:04:41.813906,1709125481.8139064,-39.0625,-40.52734375,-42.96875,-41.9921875,-1.0,0.0,-1.0,0.0,9.m4v,10.0
2024-02-28 14:04:41.821718,1709125481.8217175,-27.34375,-39.55078125,-37.109375,-33.203125,-1.0,0.0,-1.0,0.0,9.m4v,10.0
2024-02-28 14:04:41.829529,1709125481.8295286,-24.4140625,-41.015625,-32.2265625,-31.73828125,-1.0,0.0,-1.0,0.0,9.m4v,10.0
2024-02-28 14:04:41.829529,1709125481.8295286,-24.4140625,-41.015625,-32.2265625,-31.73828125,-1.0,0.0,-1.0,0.0,9.m4v,10.0
2024-02-28 14:04:41.829529,1709125481.8295286,-24.4140625,-41.015625,-32.2265625,-31.73828125,-1.0,0.0,-1.0,0.0,9.m4v,10.0
2024-02-28 14:04:41.837344,1709125481.8373442,-25.390625,-39.55078125,-36.1328125,-26.3671875,-1.0,0.0,-1.0,0.0,9.m4v,10.0
2024-02-28 14:04:41.837344,1709125481.8373442,-25.390625,-39.55078125,-36.1328125,-26.3671875,-1.0,0.0,-1.0,0.0,9.m4v,10.0
2024-02-28 14:04:41.837344,1709125481.8373442,-25.390625,-39.55078125,-36.1328125,-26.3671875,-1.0,0.0,-1.0,0.0,9.m4v,10.0
2024-02-28 14:04:41.845155,1709125481.8451552,-19.04296875,-41.9921875,-31.25,-29.296875,-1.0,0.0,-1.0,0.0,9.m4v,10.0
2024-02-28 14:04:41.852966,1709125481.8529663,-19.53125,-38.0859375,-34.1796875,-33.69140625,-1.0,0.0,-1.0,0.0,9.m4v,10.0
2024-02-28 14:04:41.852966,1709125481.8529663,-19.53125,-38.0859375,-34.1796875,-33.69140625,-1.0,0.0,-1.0,0.0,9.m4v,10.0
2024-02-28 14:04:41.852966,1709125481.8529663,-19.53125,-38.0859375,-34.1796875,-33.69140625,-1.0,0.0,-1.0,0.0,9.m4v,10.0
2024-02-28 14:04:41.860777,1709125481.8607774,-17.578125,-37.59765625,-30.2734375,-32.2265625,-1.0,0.0,-1.0,0.0,9.m4v,10.0
2024-02-28 14:04:41.860777,1709125481.8607774,-17.578125,-37.59765625,-30.2734375,-32.2265625,-1.0,0.0,-1.0,0.0,9.m4v,10.0
2024-02-28 14:04:41.860777,1709125481.8607774,-17.578125,-37.59765625,-30.2734375,-32.2265625,-1.0,0.0,-1.0,0.0,9.m4v,10.0
2024-02-28 14:04:41.934991,1709125481.9349911,-25.87890625,-40.52734375,-34.1796875,-33.203125,-1.0,0.0,-1.0,0.0,9.m4v,10.0
2024-02-28 14:04:41.938897,1709125481.938897,-28.3203125,-37.59765625,-33.203125,-33.203125,-1.0,0.0,-1.0,0.0,9.m4v,10.0
2024-02-28 14:04:41.942802,1709125481.9428022,-31.25,-37.59765625,-34.1796875,-36.62109375,-1.0,0.0,-1.0,0.0,9.m4v,10.0
2024-02-28 14:04:41.946708,1709125481.9467075,-29.78515625,-35.64453125,-35.64453125,-45.8984375,-1.0,0.0,-1.0,0.0,9.m4v,10.0
2024-02-28 14:04:41.950613,1709125481.9506133,-26.85546875,-34.66796875,-39.0625,-50.78125,-1.0,0.0,-1.0,0.0,9.m4v,10.0
2024-02-28 14:04:41.954519,1709125481.9545188,-22.4609375,-33.203125,-35.15625,-46.875,-1.0,0.0,-1.0,0.0,9.m4v,10.0
2024-02-28 14:04:41.958424,1709125481.9584243,-6.34765625,-25.87890625,-31.25,-36.1328125,-1.0,0.0,-1.0,0.0,9.m4v,10.0
2024-02-28 14:04:41.962330,1709125481.96233,-3.90625,-24.90234375,-34.1796875,-27.34375,-1.0,0.0,-1.0,0.0,9.m4v,10.0
2024-02-28 14:04:41.966235,1709125481.9662354,-16.6015625,-29.78515625,-34.1796875,-30.2734375,-1.0,0.0,-1.0,0.0,9.m4v,10.0
2024-02-28 14:04:41.970141,1709125481.970141,-27.83203125,-34.1796875,-35.15625,-33.69140625,-1.0,0.0,-1.0,0.0,9.m4v,10.0
2024-02-28 14:04:41.974051,1709125481.9740517,-32.2265625,-33.203125,-33.69140625,-38.0859375,-1.0,0.0,-1.0,0.0,9.m4v,10.0
2024-02-28 14:04:41.977957,1709125481.977957,-31.25,-31.73828125,-30.2734375,-40.0390625,-1.0,0.0,-1.0,0.0,9.m4v,10.0
2024-02-28 14:04:41.981863,1709125481.9818623,-33.69140625,-33.203125,-32.2265625,-38.0859375,-1.0,0.0,-1.0,0.0,9.m4v,10.0
2024-02-28 14:04:41.985768,1709125481.985768,-38.0859375,-33.69140625,-37.109375,-37.59765625,-1.0,0.0,-1.0,0.0,9.m4v,10.0
2024-02-28 14:04:41.989674,1709125481.9896736,-49.31640625,-34.1796875,-41.9921875,-42.96875,-1.0,0.0,-1.0,0.0,9.m4v,10.0
2024-02-28 14:04:41.993579,1709125481.9935791,-55.17578125,-32.71484375,-41.9921875,-45.41015625,-1.0,0.0,-1.0,0.0,9.m4v,10.0
2024-02-28 14:04:41.997485,1709125481.9974847,-54.19921875,-30.76171875,-41.015625,-37.59765625,-1.0,0.0,-1.0,0.0,9.m4v,10.0
2024-02-28 14:04:42.001390,1709125482.0013902,-52.24609375,-33.203125,-40.52734375,-39.55078125,-1.0,0.0,-1.0,0.0,9.m4v,10.0
2024-02-28 14:04:42.005296,1709125482.0052958,-48.828125,-38.57421875,-42.48046875,-49.31640625,-1.0,0.0,-1.0,0.0,9.m4v,10.0
2024-02-28 14:04:42.009202,1709125482.0092015,-47.36328125,-43.9453125,-46.38671875,-50.78125,-1.0,0.0,-1.0,0.0,9.m4v,10.0
2024-02-28 14:04:42.013107,1709125482.013107,-46.875,-45.41015625,-45.41015625,-48.828125,-1.0,0.0,-1.0,0.0,9.m4v,10.0
2024-02-28 14:04:42.017013,1709125482.0170126,-39.55078125,-39.0625,-39.55078125,-47.36328125,-1.0,0.0,-1.0,0.0,9.m4v,10.0
2024-02-28 14:04:42.020923,1709125482.020923,-36.1328125,-41.015625,-37.59765625,-42.48046875,-1.0,0.0,-1.0,0.0,9.m4v,10.0
2024-02-28 14:04:42.024828,1709125482.0248284,-36.1328125,-40.0390625,-36.62109375,-33.69140625,-1.0,0.0,-1.0,0.0,9.m4v,10.0
2024-02-28 14:04:42.028734,1709125482.028734,-36.62109375,-39.0625,-38.57421875,-35.15625,-1.0,0.0,-1.0,0.0,9.m4v,10.0
2024-02-28 14:04:42.032640,1709125482.0326395,-40.0390625,-39.55078125,-37.59765625,-35.15625,-1.0,0.0,-1.0,0.0,9.m4v,10.0
2024-02-28 14:04:42.036545,1709125482.036545,-39.55078125,-35.15625,-36.1328125,-26.85546875,-1.0,0.0,-1.0,0.0,9.m4v,10.0
2024-02-28 14:04:42.040451,1709125482.0404506,-39.55078125,-34.1796875,-37.109375,-29.78515625,-1.0,0.0,-1.0,0.0,9.m4v,10.0
2024-02-28 14:04:42.044356,1709125482.044356,-37.59765625,-33.69140625,-34.66796875,-29.78515625,-1.0,0.0,-1.0,0.0,9.m4v,10.0
2024-02-28 14:04:42.048262,1709125482.0482616,-41.9921875,-35.64453125,-30.2734375,-33.203125,-1.0,0.0,-1.0,0.0,9.m4v,10.0
2024-02-28 14:04:42.052167,1709125482.0521672,-51.7578125,-36.62109375,-31.25,-39.0625,-1.0,0.0,-1.0,0.0,9.m4v,10.0
2024-02-28 14:04:42.056073,1709125482.0560727,-47.8515625,-33.203125,-32.2265625,-35.64453125,-1.0,0.0,-1.0,0.0,9.m4v,10.0
2024-02-28 14:04:42.059978,1709125482.0599782,-43.9453125,-35.64453125,-35.15625,-34.1796875,-1.0,0.0,-1.0,0.0,9.m4v,10.0
