Timestamp,Timestamp_UNIX,TP9,AF7,AF8,TP10,Valence,Arousal,Dominace,Viewed,Video,Participant
2024-02-28 14:48:38.001521,1709128118.0015209,-66.89453125,-33.203125,-6.34765625,-0.9765625,0.0,0.0,0.0,0.0,7.m4v,11.0
2024-02-28 14:48:38.005425,1709128118.0054247,-63.4765625,-29.78515625,-2.44140625,12.20703125,0.0,0.0,0.0,0.0,7.m4v,11.0
2024-02-28 14:48:38.009328,1709128118.0093284,-57.6171875,-24.90234375,-11.71875,44.921875,0.0,0.0,0.0,0.0,7.m4v,11.0
2024-02-28 14:48:38.013232,1709128118.013232,-46.875,-24.4140625,-32.71484375,71.2890625,0.0,0.0,0.0,0.0,7.m4v,11.0
2024-02-28 14:48:38.017136,1709128118.017136,-35.64453125,-33.203125,-50.78125,13.18359375,0.0,0.0,0.0,0.0,7.m4v,11.0
2024-02-28 14:48:38.021039,1709128118.0210395,-46.875,-65.4296875,-48.33984375,-52.24609375,0.0,0.0,0.0,0.0,7.m4v,11.0
2024-02-28 14:48:38.024943,1709128118.024943,-42.48046875,-74.70703125,-19.53125,-22.94921875,0.0,0.0,0.0,0.0,7.m4v,11.0
2024-02-28 14:48:38.028847,1709128118.028847,-41.9921875,-35.15625,-10.7421875,42.48046875,0.0,0.0,0.0,0.0,7.m4v,11.0
2024-02-28 14:48:38.032751,1709128118.0327506,-55.17578125,-13.18359375,-34.66796875,9.765625,0.0,0.0,0.0,0.0,7.m4v,11.0
2024-02-28 14:48:38.036654,1709128118.0366542,-34.1796875,-21.484375,-28.3203125,-39.0625,0.0,0.0,0.0,0.0,7.m4v,11.0
2024-02-28 14:48:38.040558,1709128118.040558,-44.43359375,-30.76171875,-12.6953125,-80.078125,0.0,0.0,0.0,0.0,7.m4v,11.0
2024-02-28 14:48:38.044506,1709128118.044506,-68.84765625,-27.83203125,-10.25390625,-97.65625,0.0,0.0,0.0,0.0,7.m4v,11.0
2024-02-28 14:48:38.048410,1709128118.04841,-57.6171875,-30.2734375,-25.390625,-38.57421875,0.0,0.0,0.0,0.0,7.m4v,11.0
2024-02-28 14:48:38.052314,1709128118.0523136,-34.1796875,-27.83203125,-34.1796875,9.27734375,0.0,0.0,0.0,0.0,7.m4v,11.0
2024-02-28 14:48:38.056217,1709128118.0562172,-24.4140625,-21.97265625,-21.97265625,-20.5078125,0.0,0.0,0.0,0.0,7.m4v,11.0
2024-02-28 14:48:38.060121,1709128118.060121,-27.83203125,-30.2734375,-37.109375,-83.0078125,0.0,0.0,0.0,0.0,7.m4v,11.0
2024-02-28 14:48:38.064025,1709128118.0640247,-31.73828125,-23.92578125,-60.546875,-70.3125,0.0,0.0,0.0,0.0,7.m4v,11.0
2024-02-28 14:48:38.067928,1709128118.0679283,-34.66796875,-15.625,-49.31640625,-35.15625,0.0,0.0,0.0,0.0,7.m4v,11.0
2024-02-28 14:48:38.071832,1709128118.0718322,-38.0859375,-39.55078125,-35.15625,-15.13671875,0.0,0.0,0.0,0.0,7.m4v,11.0
2024-02-28 14:48:38.075736,1709128118.0757358,-20.5078125,-48.828125,-16.11328125,-41.9921875,0.0,0.0,0.0,0.0,7.m4v,11.0
2024-02-28 14:48:38.079640,1709128118.0796397,-36.1328125,-64.453125,-1.953125,-129.39453125,0.0,0.0,0.0,0.0,7.m4v,11.0
2024-02-28 14:48:38.083543,1709128118.0835433,-64.94140625,-65.91796875,-23.4375,-160.64453125,0.0,0.0,0.0,0.0,7.m4v,11.0
2024-02-28 14:48:38.087447,1709128118.087447,-54.6875,-27.83203125,-21.484375,-149.90234375,0.0,0.0,0.0,0.0,7.m4v,11.0
2024-02-28 14:48:38.091384,1709128118.0913844,-43.9453125,-11.71875,-4.8828125,-134.27734375,0.0,0.0,0.0,0.0,7.m4v,11.0
2024-02-28 14:48:38.095288,1709128118.095288,-21.97265625,-25.87890625,-6.34765625,-149.4140625,0.0,0.0,0.0,0.0,7.m4v,11.0
2024-02-28 14:48:38.099192,1709128118.099192,-23.4375,-41.9921875,-6.34765625,-139.16015625,0.0,0.0,0.0,0.0,7.m4v,11.0
2024-02-28 14:48:38.103096,1709128118.1030955,-44.921875,-22.94921875,-14.16015625,-159.1796875,0.0,0.0,0.0,0.0,7.m4v,11.0
2024-02-28 14:48:38.106999,1709128118.1069994,-56.640625,-14.16015625,-38.0859375,-240.72265625,0.0,0.0,0.0,0.0,7.m4v,11.0
2024-02-28 14:48:38.110903,1709128118.110903,-61.03515625,-12.6953125,-45.8984375,-199.21875,0.0,0.0,0.0,0.0,7.m4v,11.0
2024-02-28 14:48:38.114807,1709128118.114807,-38.0859375,-9.765625,-55.6640625,-213.37890625,0.0,0.0,0.0,0.0,7.m4v,11.0
2024-02-28 14:48:38.118711,1709128118.1187105,-28.3203125,-43.45703125,-68.359375,-230.95703125,0.0,0.0,0.0,0.0,7.m4v,11.0
2024-02-28 14:48:38.122614,1709128118.122614,-28.3203125,-62.01171875,-18.5546875,-220.21484375,0.0,0.0,0.0,0.0,7.m4v,11.0
2024-02-28 14:48:38.126518,1709128118.1265178,-38.57421875,-66.40625,-20.01953125,-280.76171875,0.0,0.0,0.0,0.0,7.m4v,11.0
2024-02-28 14:48:38.130422,1709128118.1304216,-21.97265625,-38.57421875,-36.62109375,-242.67578125,0.0,0.0,0.0,0.0,7.m4v,11.0
2024-02-28 14:48:38.134325,1709128118.1343253,-20.99609375,4.8828125,5.859375,-194.3359375,0.0,0.0,0.0,0.0,7.m4v,11.0
2024-02-28 14:48:38.138271,1709128118.1382709,-54.19921875,0.0,-10.25390625,-259.765625,0.0,0.0,0.0,0.0,7.m4v,11.0
2024-02-28 14:48:38.142174,1709128118.1421745,-52.734375,-16.6015625,-38.0859375,-277.83203125,0.0,0.0,0.0,0.0,7.m4v,11.0
2024-02-28 14:48:38.146078,1709128118.146078,-65.91796875,-24.90234375,-25.390625,-250.0,0.0,0.0,0.0,0.0,7.m4v,11.0
2024-02-28 14:48:38.149982,1709128118.149982,-72.75390625,-38.0859375,-20.99609375,-223.14453125,0.0,0.0,0.0,0.0,7.m4v,11.0
2024-02-28 14:48:38.153886,1709128118.1538856,-44.43359375,-46.38671875,-34.1796875,-204.58984375,0.0,0.0,0.0,0.0,7.m4v,11.0
2024-02-28 14:48:38.157789,1709128118.1577892,-29.296875,-45.8984375,-37.109375,-234.86328125,0.0,0.0,0.0,0.0,7.m4v,11.0
2024-02-28 14:48:38.161693,1709128118.161693,-45.8984375,-47.8515625,-41.50390625,-251.953125,0.0,0.0,0.0,0.0,7.m4v,11.0
2024-02-28 14:48:38.165597,1709128118.1655967,-41.50390625,-43.45703125,-9.27734375,-223.6328125,0.0,0.0,0.0,0.0,7.m4v,11.0
2024-02-28 14:48:38.169501,1709128118.1695006,-23.92578125,-25.87890625,28.80859375,-169.921875,0.0,0.0,0.0,0.0,7.m4v,11.0
2024-02-28 14:48:38.173404,1709128118.1734042,-18.5546875,-32.2265625,-1.953125,-124.51171875,0.0,0.0,0.0,0.0,7.m4v,11.0
2024-02-28 14:48:38.177308,1709128118.1773078,-19.53125,-38.57421875,-32.71484375,-165.52734375,0.0,0.0,0.0,0.0,7.m4v,11.0
2024-02-28 14:48:38.181212,1709128118.1812117,-20.01953125,-16.11328125,-41.9921875,-242.67578125,0.0,0.0,0.0,0.0,7.m4v,11.0
2024-02-28 14:48:38.185146,1709128118.185146,-53.7109375,-23.92578125,-58.10546875,-239.2578125,0.0,0.0,0.0,0.0,7.m4v,11.0
2024-02-28 14:48:38.189050,1709128118.1890495,-86.9140625,-39.55078125,-26.3671875,-196.77734375,0.0,0.0,0.0,0.0,7.m4v,11.0
2024-02-28 14:48:38.192953,1709128118.192953,-59.08203125,-37.59765625,-19.53125,-141.11328125,0.0,0.0,0.0,0.0,7.m4v,11.0
2024-02-28 14:48:38.196857,1709128118.1968572,-43.9453125,-35.64453125,-43.9453125,-157.71484375,0.0,0.0,0.0,0.0,7.m4v,11.0
2024-02-28 14:48:38.200761,1709128118.2007608,-62.98828125,-44.921875,-40.52734375,-212.890625,0.0,0.0,0.0,0.0,7.m4v,11.0
2024-02-28 14:48:38.204664,1709128118.2046645,-53.7109375,-40.52734375,-25.87890625,-183.59375,0.0,0.0,0.0,0.0,7.m4v,11.0
2024-02-28 14:48:38.208568,1709128118.2085683,-24.4140625,-28.3203125,7.8125,-103.515625,0.0,0.0,0.0,0.0,7.m4v,11.0
2024-02-28 14:48:38.212472,1709128118.212472,-15.13671875,-27.34375,-2.44140625,-67.3828125,0.0,0.0,0.0,0.0,7.m4v,11.0
2024-02-28 14:48:38.216376,1709128118.2163758,-27.34375,-25.390625,-43.9453125,-125.0,0.0,0.0,0.0,0.0,7.m4v,11.0
2024-02-28 14:48:38.220279,1709128118.2202797,-48.828125,-27.83203125,-44.43359375,-213.8671875,0.0,0.0,0.0,0.0,7.m4v,11.0
2024-02-28 14:48:38.224183,1709128118.224183,-52.734375,-22.94921875,-19.53125,-185.546875,0.0,0.0,0.0,0.0,7.m4v,11.0
2024-02-28 14:48:38.228087,1709128118.228087,-38.0859375,-5.37109375,-9.765625,-103.515625,0.0,0.0,0.0,0.0,7.m4v,11.0
2024-02-28 14:48:38.232052,1709128118.2320523,-44.43359375,-13.671875,-33.203125,-96.6796875,0.0,0.0,0.0,0.0,7.m4v,11.0
2024-02-28 14:48:38.235956,1709128118.235956,-41.015625,-25.390625,-34.1796875,-130.859375,0.0,0.0,0.0,0.0,7.m4v,11.0
2024-02-28 14:48:38.239860,1709128118.2398598,-21.484375,-19.53125,-32.2265625,-162.109375,0.0,0.0,0.0,0.0,7.m4v,11.0
2024-02-28 14:48:38.243763,1709128118.2437634,-11.71875,-16.11328125,-32.2265625,-143.5546875,0.0,0.0,0.0,0.0,7.m4v,11.0
2024-02-28 14:48:38.247667,1709128118.247667,-25.390625,-34.66796875,-23.92578125,-91.796875,0.0,0.0,0.0,0.0,7.m4v,11.0
2024-02-28 14:48:38.251571,1709128118.251571,-58.10546875,-57.6171875,-30.76171875,-68.84765625,0.0,0.0,0.0,0.0,7.m4v,11.0
2024-02-28 14:48:38.255475,1709128118.2554746,-59.5703125,-52.734375,-46.875,-108.3984375,0.0,0.0,0.0,0.0,7.m4v,11.0
2024-02-28 14:48:38.259378,1709128118.2593784,-61.03515625,-44.43359375,-30.76171875,-176.7578125,0.0,0.0,0.0,0.0,7.m4v,11.0
2024-02-28 14:48:38.263282,1709128118.263282,-48.33984375,-21.484375,1.46484375,-177.734375,0.0,0.0,0.0,0.0,7.m4v,11.0
2024-02-28 14:48:38.267186,1709128118.2671857,-35.15625,-14.16015625,0.48828125,-113.28125,0.0,0.0,0.0,0.0,7.m4v,11.0
2024-02-28 14:48:38.271090,1709128118.2710896,-44.921875,-23.92578125,-16.11328125,-71.77734375,0.0,0.0,0.0,0.0,7.m4v,11.0
2024-02-28 14:48:38.274993,1709128118.2749932,-15.13671875,-19.04296875,-35.64453125,-95.21484375,0.0,0.0,0.0,0.0,7.m4v,11.0
2024-02-28 14:48:38.278945,1709128118.2789454,-4.39453125,-20.01953125,-43.45703125,-98.6328125,0.0,0.0,0.0,0.0,7.m4v,11.0
2024-02-28 14:48:38.282849,1709128118.2828493,-53.22265625,-30.76171875,-28.80859375,-121.58203125,0.0,0.0,0.0,0.0,7.m4v,11.0
2024-02-28 14:48:38.286753,1709128118.286753,-55.6640625,-29.78515625,-17.578125,-121.58203125,0.0,0.0,0.0,0.0,7.m4v,11.0
2024-02-28 14:48:38.290657,1709128118.2906568,-36.1328125,-27.34375,-17.578125,-65.91796875,0.0,0.0,0.0,0.0,7.m4v,11.0
2024-02-28 14:48:38.294560,1709128118.2945604,-30.76171875,-16.11328125,-14.16015625,-109.375,0.0,0.0,0.0,0.0,7.m4v,11.0
2024-02-28 14:48:38.298464,1709128118.298464,-21.97265625,-18.06640625,-28.3203125,-138.671875,0.0,0.0,0.0,0.0,7.m4v,11.0
2024-02-28 14:48:38.302368,1709128118.302368,-41.015625,-52.734375,-50.78125,-148.92578125,0.0,0.0,0.0,0.0,7.m4v,11.0
2024-02-28 14:48:38.306272,1709128118.3062716,-26.3671875,-38.57421875,-37.59765625,-135.7421875,0.0,0.0,0.0,0.0,7.m4v,11.0
2024-02-28 14:48:38.310175,1709128118.3101752,-13.18359375,2.44140625,-22.4609375,-77.1484375,0.0,0.0,0.0,0.0,7.m4v,11.0
2024-02-28 14:48:38.314079,1709128118.314079,-34.1796875,-10.7421875,-23.4375,-82.51953125,0.0,0.0,0.0,0.0,7.m4v,11.0
2024-02-28 14:48:38.317983,1709128118.317983,-50.78125,-34.1796875,-51.7578125,-134.27734375,0.0,0.0,0.0,0.0,7.m4v,11.0
2024-02-28 14:48:38.321887,1709128118.3218863,-49.8046875,-25.87890625,-62.5,-138.671875,0.0,0.0,0.0,0.0,7.m4v,11.0
2024-02-28 14:48:38.325827,1709128118.3258266,-25.87890625,-17.578125,-43.45703125,-69.3359375,0.0,0.0,0.0,0.0,7.m4v,11.0
2024-02-28 14:48:38.329731,1709128118.3297305,-0.9765625,-22.94921875,-56.640625,-10.7421875,0.0,0.0,0.0,0.0,7.m4v,11.0
2024-02-28 14:48:38.333634,1709128118.333634,26.3671875,-26.3671875,-59.08203125,-11.23046875,0.0,0.0,0.0,0.0,7.m4v,11.0
2024-02-28 14:48:38.337538,1709128118.3375378,-4.8828125,-38.57421875,-34.1796875,-45.41015625,0.0,0.0,0.0,0.0,7.m4v,11.0
2024-02-28 14:48:38.341442,1709128118.3414416,-37.59765625,-41.9921875,-8.30078125,-87.890625,0.0,0.0,0.0,0.0,7.m4v,11.0
2024-02-28 14:48:38.345345,1709128118.3453453,-26.3671875,-23.92578125,-0.9765625,-89.35546875,0.0,0.0,0.0,0.0,7.m4v,11.0
2024-02-28 14:48:38.349249,1709128118.3492491,-28.80859375,-16.11328125,-2.9296875,-18.06640625,0.0,0.0,0.0,0.0,7.m4v,11.0
2024-02-28 14:48:38.353153,1709128118.3531528,-48.33984375,-21.484375,-25.390625,-7.32421875,0.0,0.0,0.0,0.0,7.m4v,11.0
2024-02-28 14:48:38.357056,1709128118.3570564,-50.78125,-32.71484375,-42.96875,-70.80078125,0.0,0.0,0.0,0.0,7.m4v,11.0
2024-02-28 14:48:38.360960,1709128118.3609602,-38.57421875,-56.640625,-13.671875,-112.79296875,0.0,0.0,0.0,0.0,7.m4v,11.0
2024-02-28 14:48:38.364864,1709128118.364864,-45.41015625,-43.9453125,-14.6484375,-100.5859375,0.0,0.0,0.0,0.0,7.m4v,11.0
2024-02-28 14:48:38.368767,1709128118.3687675,-40.0390625,-16.6015625,-28.80859375,-29.296875,0.0,0.0,0.0,0.0,7.m4v,11.0
2024-02-28 14:48:38.372717,1709128118.372717,-8.7890625,-10.25390625,-11.71875,32.71484375,0.0,0.0,0.0,0.0,7.m4v,11.0
2024-02-28 14:48:38.376620,1709128118.3766203,-24.90234375,-21.97265625,-24.4140625,-17.08984375,0.0,0.0,0.0,0.0,7.m4v,11.0
2024-02-28 14:48:38.380524,1709128118.3805242,-31.73828125,-20.99609375,-45.8984375,-81.0546875,0.0,0.0,0.0,0.0,7.m4v,11.0
2024-02-28 14:48:38.384428,1709128118.3844278,-41.9921875,-18.06640625,-45.41015625,-72.75390625,0.0,0.0,0.0,0.0,7.m4v,11.0
2024-02-28 14:48:38.388331,1709128118.3883314,-45.41015625,-39.55078125,-30.76171875,-30.2734375,0.0,0.0,0.0,0.0,7.m4v,11.0
2024-02-28 14:48:38.392235,1709128118.3922353,-31.73828125,-59.08203125,-15.13671875,-8.30078125,0.0,0.0,0.0,0.0,7.m4v,11.0
2024-02-28 14:48:38.396139,1709128118.396139,-32.71484375,-48.828125,-24.90234375,-64.453125,0.0,0.0,0.0,0.0,7.m4v,11.0
2024-02-28 14:48:38.400043,1709128118.4000428,-37.59765625,-19.53125,-36.62109375,-112.79296875,0.0,0.0,0.0,0.0,7.m4v,11.0
2024-02-28 14:48:38.403946,1709128118.4039464,-48.33984375,-18.06640625,-45.8984375,-94.7265625,0.0,0.0,0.0,0.0,7.m4v,11.0
2024-02-28 14:48:38.407850,1709128118.40785,-31.25,-7.8125,-20.99609375,-31.73828125,0.0,0.0,0.0,0.0,7.m4v,11.0
2024-02-28 14:48:38.411754,1709128118.411754,-25.87890625,-12.6953125,-17.578125,3.41796875,0.0,0.0,0.0,0.0,7.m4v,11.0
2024-02-28 14:48:38.415658,1709128118.4156575,-22.4609375,-31.73828125,-43.45703125,-49.31640625,0.0,0.0,0.0,0.0,7.m4v,11.0
2024-02-28 14:48:38.419597,1709128118.4195971,-5.859375,-4.8828125,-42.48046875,-100.09765625,0.0,0.0,0.0,0.0,7.m4v,11.0
2024-02-28 14:48:38.423501,1709128118.423501,-16.6015625,-0.9765625,-37.109375,-94.7265625,0.0,0.0,0.0,0.0,7.m4v,11.0
2024-02-28 14:48:38.427405,1709128118.4274046,-20.01953125,-30.2734375,-8.30078125,-61.03515625,0.0,0.0,0.0,0.0,7.m4v,11.0
2024-02-28 14:48:38.431309,1709128118.4313085,-28.80859375,-30.76171875,4.39453125,-35.64453125,0.0,0.0,0.0,0.0,7.m4v,11.0
2024-02-28 14:48:38.435212,1709128118.435212,-58.10546875,-34.66796875,-5.37109375,-51.7578125,0.0,0.0,0.0,0.0,7.m4v,11.0
2024-02-28 14:48:38.439116,1709128118.4391158,-43.9453125,-41.9921875,-8.7890625,-84.9609375,0.0,0.0,0.0,0.0,7.m4v,11.0
2024-02-28 14:48:38.443020,1709128118.4430196,-20.99609375,-22.4609375,-11.23046875,-64.453125,0.0,0.0,0.0,0.0,7.m4v,11.0
2024-02-28 14:48:38.446923,1709128118.4469233,-35.15625,-5.859375,-34.66796875,-50.29296875,0.0,0.0,0.0,0.0,7.m4v,11.0
2024-02-28 14:48:38.450827,1709128118.4508271,-32.71484375,-8.7890625,-62.01171875,-42.48046875,0.0,0.0,0.0,0.0,7.m4v,11.0
2024-02-28 14:48:38.454731,1709128118.4547307,-22.94921875,-6.8359375,-31.73828125,-25.87890625,0.0,0.0,0.0,0.0,7.m4v,11.0
2024-02-28 14:48:38.458634,1709128118.4586344,-20.01953125,-18.5546875,-16.11328125,-71.77734375,0.0,0.0,0.0,0.0,7.m4v,11.0
2024-02-28 14:48:38.462538,1709128118.4625382,-50.29296875,-53.22265625,-32.71484375,-118.65234375,0.0,0.0,0.0,0.0,7.m4v,11.0
2024-02-28 14:48:38.466475,1709128118.466475,-57.12890625,-37.109375,-44.921875,-36.1328125,0.0,0.0,0.0,0.0,7.m4v,11.0
2024-02-28 14:48:38.470379,1709128118.4703786,-13.671875,7.32421875,-60.05859375,35.15625,0.0,0.0,0.0,0.0,7.m4v,11.0
2024-02-28 14:48:38.474283,1709128118.4742825,-7.8125,9.27734375,-40.52734375,-45.8984375,0.0,0.0,0.0,0.0,7.m4v,11.0
2024-02-28 14:48:38.478186,1709128118.478186,-15.625,-14.6484375,-23.92578125,-115.72265625,0.0,0.0,0.0,0.0,7.m4v,11.0
2024-02-28 14:48:38.482090,1709128118.4820898,-23.92578125,-54.6875,-39.0625,-119.140625,0.0,0.0,0.0,0.0,7.m4v,11.0
2024-02-28 14:48:38.485994,1709128118.4859936,-28.80859375,-41.50390625,-54.19921875,-69.3359375,0.0,0.0,0.0,0.0,7.m4v,11.0
2024-02-28 14:48:38.489897,1709128118.4898973,-13.671875,1.953125,-50.78125,-31.25,0.0,0.0,0.0,0.0,7.m4v,11.0
2024-02-28 14:48:38.493801,1709128118.493801,-25.87890625,-23.92578125,-42.96875,-51.26953125,0.0,0.0,0.0,0.0,7.m4v,11.0
2024-02-28 14:48:38.497705,1709128118.4977047,-57.6171875,-42.96875,-26.85546875,-114.2578125,0.0,0.0,0.0,0.0,7.m4v,11.0
2024-02-28 14:48:38.501608,1709128118.5016084,-73.73046875,-34.1796875,-13.671875,-114.74609375,0.0,0.0,0.0,0.0,7.m4v,11.0
2024-02-28 14:48:38.505512,1709128118.5055122,-75.1953125,-34.1796875,-8.7890625,-77.63671875,0.0,0.0,0.0,0.0,7.m4v,11.0
2024-02-28 14:48:38.509416,1709128118.509416,-59.08203125,-32.2265625,-16.6015625,-67.87109375,0.0,0.0,0.0,0.0,7.m4v,11.0
2024-02-28 14:48:38.513350,1709128118.5133495,-29.78515625,-20.5078125,-31.73828125,-57.6171875,0.0,0.0,0.0,0.0,7.m4v,11.0
2024-02-28 14:48:38.517253,1709128118.5172534,-18.5546875,-19.53125,-27.83203125,-72.265625,0.0,0.0,0.0,0.0,7.m4v,11.0
2024-02-28 14:48:38.521157,1709128118.521157,-27.83203125,-40.52734375,-42.48046875,-83.984375,0.0,0.0,0.0,0.0,7.m4v,11.0
2024-02-28 14:48:38.525061,1709128118.525061,-32.2265625,-54.19921875,-56.640625,-76.171875,0.0,0.0,0.0,0.0,7.m4v,11.0
2024-02-28 14:48:38.528965,1709128118.5289643,-33.203125,-40.52734375,-28.80859375,-35.64453125,0.0,0.0,0.0,0.0,7.m4v,11.0
2024-02-28 14:48:38.532868,1709128118.532868,-10.7421875,-16.11328125,-16.11328125,-0.9765625,0.0,0.0,0.0,0.0,7.m4v,11.0
2024-02-28 14:48:38.536772,1709128118.536772,-7.32421875,-24.4140625,-11.71875,-39.0625,0.0,0.0,0.0,0.0,7.m4v,11.0
2024-02-28 14:48:38.540676,1709128118.5406756,-47.8515625,-49.8046875,-18.5546875,-116.2109375,0.0,0.0,0.0,0.0,7.m4v,11.0
2024-02-28 14:48:38.544579,1709128118.5445793,-48.828125,-44.921875,-20.5078125,-115.234375,0.0,0.0,0.0,0.0,7.m4v,11.0
2024-02-28 14:48:38.548483,1709128118.5484831,-44.43359375,-23.92578125,-1.46484375,-60.05859375,0.0,0.0,0.0,0.0,7.m4v,11.0
2024-02-28 14:48:38.552387,1709128118.5523868,-23.92578125,-4.8828125,11.23046875,-25.390625,0.0,0.0,0.0,0.0,7.m4v,11.0
2024-02-28 14:48:38.556291,1709128118.5562906,-0.9765625,-15.13671875,-9.27734375,-41.50390625,0.0,0.0,0.0,0.0,7.m4v,11.0
2024-02-28 14:48:38.560223,1709128118.5602229,-26.85546875,-37.59765625,-51.26953125,-123.046875,0.0,0.0,0.0,0.0,7.m4v,11.0
2024-02-28 14:48:38.564127,1709128118.5641267,-47.8515625,-26.85546875,-37.109375,-140.13671875,0.0,0.0,0.0,0.0,7.m4v,11.0
2024-02-28 14:48:38.568030,1709128118.5680304,-45.41015625,-24.90234375,-47.36328125,-62.5,0.0,0.0,0.0,0.0,7.m4v,11.0
2024-02-28 14:48:38.571934,1709128118.571934,-28.3203125,-37.59765625,-67.3828125,-12.6953125,0.0,0.0,0.0,0.0,7.m4v,11.0
2024-02-28 14:48:38.575838,1709128118.575838,-2.44140625,-32.71484375,-45.8984375,-64.453125,0.0,0.0,0.0,0.0,7.m4v,11.0
2024-02-28 14:48:38.579741,1709128118.5797417,-28.80859375,-29.296875,-44.43359375,-142.578125,0.0,0.0,0.0,0.0,7.m4v,11.0
2024-02-28 14:48:38.583645,1709128118.583645,-55.6640625,-29.296875,-32.71484375,-146.97265625,0.0,0.0,0.0,0.0,7.m4v,11.0
2024-02-28 14:48:38.587549,1709128118.587549,-50.29296875,-25.87890625,-22.4609375,-107.421875,0.0,0.0,0.0,0.0,7.m4v,11.0
2024-02-28 14:48:38.591453,1709128118.5914526,-26.85546875,-23.92578125,-27.34375,-30.76171875,0.0,0.0,0.0,0.0,7.m4v,11.0
2024-02-28 14:48:38.595356,1709128118.5953565,-11.71875,-44.921875,-24.90234375,-43.9453125,0.0,0.0,0.0,0.0,7.m4v,11.0
2024-02-28 14:48:38.599260,1709128118.59926,-18.06640625,-50.29296875,-7.32421875,-122.55859375,0.0,0.0,0.0,0.0,7.m4v,11.0
2024-02-28 14:48:38.603164,1709128118.603164,-19.53125,-24.90234375,-3.90625,-126.953125,0.0,0.0,0.0,0.0,7.m4v,11.0
2024-02-28 14:48:38.607106,1709128118.6071055,-31.25,-10.25390625,-13.671875,-89.35546875,0.0,0.0,0.0,0.0,7.m4v,11.0
2024-02-28 14:48:38.611009,1709128118.6110094,-37.109375,-5.859375,-12.6953125,-45.41015625,0.0,0.0,0.0,0.0,7.m4v,11.0
2024-02-28 14:48:38.614913,1709128118.6149132,-39.55078125,-6.34765625,-23.92578125,-70.3125,0.0,0.0,0.0,0.0,7.m4v,11.0
2024-02-28 14:48:38.618817,1709128118.6188169,-43.45703125,-27.83203125,-30.76171875,-138.671875,0.0,0.0,0.0,0.0,7.m4v,11.0
2024-02-28 14:48:38.622721,1709128118.6227207,-63.4765625,-53.22265625,-37.59765625,-124.0234375,0.0,0.0,0.0,0.0,7.m4v,11.0
2024-02-28 14:48:38.626624,1709128118.6266243,-64.453125,-42.48046875,-77.63671875,-70.3125,0.0,0.0,0.0,0.0,7.m4v,11.0
2024-02-28 14:48:38.630528,1709128118.630528,-16.6015625,-10.7421875,-67.87109375,-31.73828125,0.0,0.0,0.0,0.0,7.m4v,11.0
2024-02-28 14:48:38.634432,1709128118.6344318,-13.671875,-15.625,-12.6953125,-36.1328125,0.0,0.0,0.0,0.0,7.m4v,11.0
2024-02-28 14:48:38.638335,1709128118.6383357,-43.45703125,-31.73828125,9.27734375,-87.40234375,0.0,0.0,0.0,0.0,7.m4v,11.0
2024-02-28 14:48:38.642239,1709128118.642239,-51.7578125,-35.64453125,-3.90625,-125.9765625,0.0,0.0,0.0,0.0,7.m4v,11.0
2024-02-28 14:48:38.646143,1709128118.646143,-56.640625,-39.0625,-17.08984375,-99.609375,0.0,0.0,0.0,0.0,7.m4v,11.0
2024-02-28 14:48:38.650047,1709128118.6500466,-44.43359375,-25.390625,-5.37109375,-22.94921875,0.0,0.0,0.0,0.0,7.m4v,11.0
2024-02-28 14:48:38.653988,1709128118.653988,-36.62109375,-20.99609375,-12.6953125,-19.04296875,0.0,0.0,0.0,0.0,7.m4v,11.0
2024-02-28 14:48:38.657892,1709128118.6578918,-33.69140625,-32.2265625,-29.296875,-81.0546875,0.0,0.0,0.0,0.0,7.m4v,11.0
2024-02-28 14:48:38.661796,1709128118.6617956,-13.18359375,-20.5078125,-44.921875,-87.890625,0.0,0.0,0.0,0.0,7.m4v,11.0
2024-02-28 14:48:38.665699,1709128118.6656992,3.41796875,-38.0859375,-54.6875,-48.828125,0.0,0.0,0.0,0.0,7.m4v,11.0
2024-02-28 14:48:38.669603,1709128118.6696029,-8.30078125,-62.5,-20.5078125,2.44140625,0.0,0.0,0.0,0.0,7.m4v,11.0
2024-02-28 14:48:38.673507,1709128118.6735067,-22.94921875,-28.3203125,4.8828125,16.11328125,0.0,0.0,0.0,0.0,7.m4v,11.0
2024-02-28 14:48:38.677410,1709128118.6774104,-33.203125,-7.8125,0.48828125,-83.49609375,0.0,0.0,0.0,0.0,7.m4v,11.0
2024-02-28 14:48:38.681314,1709128118.6813142,-46.38671875,-14.6484375,-30.76171875,-153.3203125,0.0,0.0,0.0,0.0,7.m4v,11.0
2024-02-28 14:48:38.685218,1709128118.685218,-48.828125,-16.6015625,-73.73046875,-110.83984375,0.0,0.0,0.0,0.0,7.m4v,11.0
2024-02-28 14:48:38.689121,1709128118.6891215,-32.2265625,-12.6953125,-60.546875,-29.78515625,0.0,0.0,0.0,0.0,7.m4v,11.0
2024-02-28 14:48:38.693025,1709128118.6930254,-20.99609375,-27.34375,-29.78515625,-15.13671875,0.0,0.0,0.0,0.0,7.m4v,11.0
2024-02-28 14:48:38.696929,1709128118.696929,-30.76171875,-38.57421875,-14.16015625,-64.453125,0.0,0.0,0.0,0.0,7.m4v,11.0
2024-02-28 14:48:38.700868,1709128118.7008684,-36.62109375,-31.73828125,-3.90625,-98.14453125,0.0,0.0,0.0,0.0,7.m4v,11.0
2024-02-28 14:48:38.704772,1709128118.704772,-50.29296875,-43.9453125,-21.484375,-86.9140625,0.0,0.0,0.0,0.0,7.m4v,11.0
2024-02-28 14:48:38.708676,1709128118.708676,-30.76171875,-45.41015625,-27.34375,-6.34765625,0.0,0.0,0.0,0.0,7.m4v,11.0
2024-02-28 14:48:38.712579,1709128118.7125795,-13.18359375,-41.50390625,-32.71484375,29.78515625,0.0,0.0,0.0,0.0,7.m4v,11.0
2024-02-28 14:48:38.716483,1709128118.7164834,-54.6875,-32.71484375,-41.50390625,-35.15625,0.0,0.0,0.0,0.0,7.m4v,11.0
2024-02-28 14:48:38.720387,1709128118.720387,-61.03515625,-16.6015625,-27.83203125,-59.08203125,0.0,0.0,0.0,0.0,7.m4v,11.0
2024-02-28 14:48:38.724291,1709128118.7242906,-69.82421875,-26.3671875,-39.55078125,-63.4765625,0.0,0.0,0.0,0.0,7.m4v,11.0
2024-02-28 14:48:38.728194,1709128118.7281945,-71.77734375,-27.34375,-47.36328125,-36.1328125,0.0,0.0,0.0,0.0,7.m4v,11.0
2024-02-28 14:48:38.732098,1709128118.732098,-36.1328125,-23.4375,-31.25,10.25390625,0.0,0.0,0.0,0.0,7.m4v,11.0
2024-02-28 14:48:38.736002,1709128118.736002,-13.18359375,-23.4375,-26.3671875,13.671875,0.0,0.0,0.0,0.0,7.m4v,11.0
2024-02-28 14:48:38.739906,1709128118.7399056,-18.5546875,-19.04296875,-37.109375,-9.27734375,0.0,0.0,0.0,0.0,7.m4v,11.0
2024-02-28 14:48:38.743809,1709128118.7438092,-34.1796875,-29.296875,-48.33984375,-41.9921875,0.0,0.0,0.0,0.0,7.m4v,11.0
2024-02-28 14:48:38.747748,1709128118.747748,-51.26953125,-38.57421875,-40.52734375,-8.30078125,0.0,0.0,0.0,0.0,7.m4v,11.0
2024-02-28 14:48:38.751652,1709128118.7516518,-62.01171875,-30.76171875,-6.8359375,19.53125,0.0,0.0,0.0,0.0,7.m4v,11.0
2024-02-28 14:48:38.755555,1709128118.7555554,-55.6640625,-29.296875,-24.90234375,-46.875,0.0,0.0,0.0,0.0,7.m4v,11.0
2024-02-28 14:48:38.759459,1709128118.7594593,-39.55078125,-28.3203125,-54.6875,-68.359375,0.0,0.0,0.0,0.0,7.m4v,11.0
2024-02-28 14:48:38.763363,1709128118.763363,-26.3671875,-23.4375,-22.94921875,-44.921875,0.0,0.0,0.0,0.0,7.m4v,11.0
2024-02-28 14:48:38.767267,1709128118.7672665,-20.01953125,-26.3671875,-18.5546875,-4.39453125,0.0,0.0,0.0,0.0,7.m4v,11.0
2024-02-28 14:48:38.771170,1709128118.7711704,-18.5546875,-29.296875,-48.828125,8.30078125,0.0,0.0,0.0,0.0,7.m4v,11.0
2024-02-28 14:48:38.775074,1709128118.775074,-35.64453125,-39.0625,-34.66796875,-51.26953125,0.0,0.0,0.0,0.0,7.m4v,11.0
2024-02-28 14:48:38.778978,1709128118.778978,-34.66796875,-34.66796875,-9.765625,-95.703125,0.0,0.0,0.0,0.0,7.m4v,11.0
2024-02-28 14:48:38.782881,1709128118.7828815,-43.9453125,-33.203125,-23.92578125,-77.63671875,0.0,0.0,0.0,0.0,7.m4v,11.0
2024-02-28 14:48:38.786785,1709128118.7867854,-56.640625,-53.7109375,-52.734375,-67.3828125,0.0,0.0,0.0,0.0,7.m4v,11.0
2024-02-28 14:48:38.790689,1709128118.790689,-37.59765625,-44.43359375,-52.24609375,-23.92578125,0.0,0.0,0.0,0.0,7.m4v,11.0
2024-02-28 14:48:38.794626,1709128118.7946255,-22.4609375,-32.71484375,-31.25,-13.18359375,0.0,0.0,0.0,0.0,7.m4v,11.0
2024-02-28 14:48:38.798529,1709128118.7985294,-16.6015625,-34.66796875,-14.6484375,-63.96484375,0.0,0.0,0.0,0.0,7.m4v,11.0
2024-02-28 14:48:38.802433,1709128118.802433,-14.16015625,-22.4609375,0.48828125,-60.546875,0.0,0.0,0.0,0.0,7.m4v,11.0
2024-02-28 14:48:38.806337,1709128118.8063369,-17.08984375,-31.25,-12.6953125,-8.30078125,0.0,0.0,0.0,0.0,7.m4v,11.0
2024-02-28 14:48:38.810241,1709128118.8102405,-19.04296875,-35.15625,-48.33984375,4.8828125,0.0,0.0,0.0,0.0,7.m4v,11.0
2024-02-28 14:48:38.814144,1709128118.814144,-4.8828125,-27.83203125,-44.921875,7.8125,0.0,0.0,0.0,0.0,7.m4v,11.0
2024-02-28 14:48:38.818048,1709128118.818048,-18.06640625,-43.9453125,-27.83203125,-40.0390625,0.0,0.0,0.0,0.0,7.m4v,11.0
2024-02-28 14:48:38.821952,1709128118.8219516,-44.921875,-52.734375,-25.87890625,-100.5859375,0.0,0.0,0.0,0.0,7.m4v,11.0
2024-02-28 14:48:38.825855,1709128118.8258555,-44.43359375,-45.41015625,-16.6015625,-48.828125,0.0,0.0,0.0,0.0,7.m4v,11.0
2024-02-28 14:48:38.829759,1709128118.8297591,-46.875,-30.2734375,-47.36328125,5.859375,0.0,0.0,0.0,0.0,7.m4v,11.0
2024-02-28 14:48:38.833663,1709128118.8336627,-33.203125,-16.11328125,-62.5,1.953125,0.0,0.0,0.0,0.0,7.m4v,11.0
2024-02-28 14:48:38.837567,1709128118.8375666,5.859375,-2.44140625,-34.66796875,-37.109375,0.0,0.0,0.0,0.0,7.m4v,11.0
2024-02-28 14:48:38.841503,1709128118.841503,0.48828125,-6.8359375,-48.828125,-58.10546875,0.0,0.0,0.0,0.0,7.m4v,11.0
2024-02-28 14:48:38.845406,1709128118.8454063,-14.16015625,-22.94921875,-55.17578125,-46.38671875,0.0,0.0,0.0,0.0,7.m4v,11.0
2024-02-28 14:48:38.849310,1709128118.8493102,-12.20703125,-28.80859375,-20.99609375,-21.484375,0.0,0.0,0.0,0.0,7.m4v,11.0
2024-02-28 14:48:38.853214,1709128118.8532138,-28.80859375,-35.15625,-10.7421875,-42.96875,0.0,0.0,0.0,0.0,7.m4v,11.0
2024-02-28 14:48:38.857118,1709128118.8571177,-41.015625,-39.0625,-21.97265625,-124.51171875,0.0,0.0,0.0,0.0,7.m4v,11.0
2024-02-28 14:48:38.861021,1709128118.8610213,-50.29296875,-51.26953125,-20.5078125,-137.20703125,0.0,0.0,0.0,0.0,7.m4v,11.0
2024-02-28 14:48:38.864925,1709128118.8649251,-65.4296875,-52.24609375,-20.01953125,-96.19140625,0.0,0.0,0.0,0.0,7.m4v,11.0
2024-02-28 14:48:38.868829,1709128118.8688288,-63.96484375,-39.0625,-36.62109375,-86.42578125,0.0,0.0,0.0,0.0,7.m4v,11.0
2024-02-28 14:48:38.872732,1709128118.8727324,-35.15625,-37.109375,-45.8984375,-62.01171875,0.0,0.0,0.0,0.0,7.m4v,11.0
2024-02-28 14:48:38.876636,1709128118.8766365,2.9296875,-23.4375,-50.78125,-85.9375,0.0,0.0,0.0,0.0,7.m4v,11.0
2024-02-28 14:48:38.880540,1709128118.88054,12.20703125,-12.6953125,-51.7578125,-134.27734375,0.0,0.0,0.0,0.0,7.m4v,11.0
2024-02-28 14:48:38.884444,1709128118.8844438,-47.36328125,-24.4140625,-38.57421875,-129.39453125,0.0,0.0,0.0,0.0,7.m4v,11.0
2024-02-28 14:48:38.888379,1709128118.888379,-104.00390625,-36.1328125,-50.78125,-104.00390625,0.0,0.0,0.0,0.0,7.m4v,11.0
2024-02-28 14:48:38.892283,1709128118.892283,-88.37890625,-41.015625,-52.24609375,-68.359375,0.0,0.0,0.0,0.0,7.m4v,11.0
2024-02-28 14:48:38.896187,1709128118.8961868,-45.8984375,-42.96875,-18.06640625,-46.38671875,0.0,0.0,0.0,0.0,7.m4v,11.0
2024-02-28 14:48:38.900090,1709128118.9000905,-40.52734375,-39.0625,-47.8515625,-57.6171875,0.0,0.0,0.0,0.0,7.m4v,11.0
2024-02-28 14:48:38.903994,1709128118.9039943,-35.64453125,-22.4609375,-43.45703125,-30.2734375,0.0,0.0,0.0,0.0,7.m4v,11.0
2024-02-28 14:48:38.907898,1709128118.907898,-53.22265625,-31.25,0.0,32.71484375,0.0,0.0,0.0,0.0,7.m4v,11.0
2024-02-28 14:48:38.911802,1709128118.9118016,-73.2421875,-32.71484375,-3.90625,40.52734375,0.0,0.0,0.0,0.0,7.m4v,11.0
2024-02-28 14:48:38.915705,1709128118.9157054,-48.828125,-22.94921875,-14.16015625,7.32421875,0.0,0.0,0.0,0.0,7.m4v,11.0
2024-02-28 14:48:38.919609,1709128118.919609,-34.66796875,-28.80859375,-37.59765625,-25.87890625,0.0,0.0,0.0,0.0,7.m4v,11.0
2024-02-28 14:48:38.923513,1709128118.923513,-25.390625,-31.73828125,-62.98828125,-47.8515625,0.0,0.0,0.0,0.0,7.m4v,11.0
2024-02-28 14:48:38.927417,1709128118.9274166,-19.53125,-40.0390625,-67.3828125,-29.78515625,0.0,0.0,0.0,0.0,7.m4v,11.0
2024-02-28 14:48:38.931320,1709128118.9313204,-18.5546875,-22.94921875,-34.1796875,3.41796875,0.0,0.0,0.0,0.0,7.m4v,11.0
2024-02-28 14:48:38.935253,1709128118.935253,-32.2265625,-11.71875,0.9765625,-9.27734375,0.0,0.0,0.0,0.0,7.m4v,11.0
2024-02-28 14:48:38.939157,1709128118.9391563,-56.15234375,-29.296875,-13.671875,-75.1953125,0.0,0.0,0.0,0.0,7.m4v,11.0
2024-02-28 14:48:38.943060,1709128118.9430602,-41.015625,-27.83203125,-18.5546875,-61.03515625,0.0,0.0,0.0,0.0,7.m4v,11.0
2024-02-28 14:48:38.946964,1709128118.946964,-28.3203125,-32.2265625,-12.6953125,-10.7421875,0.0,0.0,0.0,0.0,7.m4v,11.0
2024-02-28 14:48:38.950868,1709128118.9508677,-27.34375,-46.875,-20.01953125,49.8046875,0.0,0.0,0.0,0.0,7.m4v,11.0
2024-02-28 14:48:38.954771,1709128118.9547713,-30.2734375,-41.015625,-50.29296875,22.94921875,0.0,0.0,0.0,0.0,7.m4v,11.0
2024-02-28 14:48:38.958675,1709128118.9586751,-28.80859375,-16.6015625,-48.828125,-62.01171875,0.0,0.0,0.0,0.0,7.m4v,11.0
2024-02-28 14:48:38.962579,1709128118.9625788,-11.23046875,-8.7890625,-21.97265625,-54.19921875,0.0,0.0,0.0,0.0,7.m4v,11.0
2024-02-28 14:48:38.966483,1709128118.9664826,-27.34375,-44.921875,-57.12890625,-11.71875,0.0,0.0,0.0,0.0,7.m4v,11.0
2024-02-28 14:48:38.970386,1709128118.9703865,-30.76171875,-50.29296875,-64.453125,48.828125,0.0,0.0,0.0,0.0,7.m4v,11.0
2024-02-28 14:48:38.974290,1709128118.97429,-5.859375,-27.83203125,-23.92578125,41.9921875,0.0,0.0,0.0,0.0,7.m4v,11.0
2024-02-28 14:48:38.978194,1709128118.9781938,-14.6484375,-26.3671875,2.44140625,-34.66796875,0.0,0.0,0.0,0.0,7.m4v,11.0
2024-02-28 14:48:38.982136,1709128118.9821355,-30.76171875,-21.97265625,19.53125,-60.546875,0.0,0.0,0.0,0.0,7.m4v,11.0
2024-02-28 14:48:38.986039,1709128118.9860394,-55.6640625,-34.66796875,4.39453125,-52.24609375,0.0,0.0,0.0,0.0,7.m4v,11.0
2024-02-28 14:48:38.989943,1709128118.989943,-58.59375,-33.203125,-26.85546875,-28.80859375,0.0,0.0,0.0,0.0,7.m4v,11.0
2024-02-28 14:48:38.993847,1709128118.993847,-34.66796875,-19.53125,-34.1796875,-14.16015625,0.0,0.0,0.0,0.0,7.m4v,11.0
2024-02-28 14:48:38.997751,1709128118.9977503,-37.109375,-41.015625,-36.1328125,-59.08203125,0.0,0.0,0.0,0.0,7.m4v,11.0
2024-02-28 14:48:39.001654,1709128119.001654,-37.59765625,-52.24609375,-57.6171875,-86.42578125,0.0,0.0,0.0,0.0,7.m4v,11.0
2024-02-28 14:48:39.005558,1709128119.005558,-15.625,-36.1328125,-54.6875,-54.6875,0.0,0.0,0.0,0.0,7.m4v,11.0
2024-02-28 14:48:39.009462,1709128119.0094616,3.90625,-19.04296875,-37.109375,-17.08984375,0.0,0.0,0.0,0.0,7.m4v,11.0
2024-02-28 14:48:39.013366,1709128119.0133655,-3.41796875,-4.8828125,-33.69140625,-26.85546875,0.0,0.0,0.0,0.0,7.m4v,11.0
2024-02-28 14:48:39.017269,1709128119.0172691,-41.50390625,-22.4609375,-43.9453125,-102.5390625,0.0,0.0,0.0,0.0,7.m4v,11.0
2024-02-28 14:48:39.021173,1709128119.0211728,-27.83203125,-22.94921875,-46.38671875,-106.4453125,0.0,0.0,0.0,0.0,7.m4v,11.0
2024-02-28 14:48:39.025077,1709128119.0250766,3.90625,-2.44140625,-3.41796875,-57.12890625,0.0,0.0,0.0,0.0,7.m4v,11.0
2024-02-28 14:48:39.029017,1709128119.0290172,-38.0859375,-29.78515625,16.11328125,-50.78125,0.0,0.0,0.0,0.0,7.m4v,11.0
2024-02-28 14:48:39.032921,1709128119.0329208,-76.66015625,-55.17578125,-8.7890625,-68.84765625,0.0,0.0,0.0,0.0,7.m4v,11.0
2024-02-28 14:48:39.036824,1709128119.0368245,-89.35546875,-43.45703125,-14.16015625,-99.12109375,0.0,0.0,0.0,0.0,7.m4v,11.0
2024-02-28 14:48:39.040728,1709128119.0407283,-74.21875,-39.55078125,-18.06640625,-139.6484375,0.0,0.0,0.0,0.0,7.m4v,11.0
2024-02-28 14:48:39.044632,1709128119.044632,-39.0625,-33.203125,-32.2265625,-83.0078125,0.0,0.0,0.0,0.0,7.m4v,11.0
2024-02-28 14:48:39.048536,1709128119.0485358,-25.87890625,-41.9921875,-61.5234375,16.6015625,0.0,0.0,0.0,0.0,7.m4v,11.0
2024-02-28 14:48:39.052439,1709128119.0524397,-33.69140625,-45.8984375,-68.84765625,5.37109375,0.0,0.0,0.0,0.0,7.m4v,11.0
2024-02-28 14:48:39.056343,1709128119.056343,-23.92578125,-26.85546875,-22.94921875,-58.59375,0.0,0.0,0.0,0.0,7.m4v,11.0
2024-02-28 14:48:39.060247,1709128119.060247,-41.9921875,-33.69140625,6.34765625,-103.02734375,0.0,0.0,0.0,0.0,7.m4v,11.0
2024-02-28 14:48:39.064151,1709128119.0641506,-64.453125,-40.0390625,-12.20703125,-93.75,0.0,0.0,0.0,0.0,7.m4v,11.0
2024-02-28 14:48:39.068054,1709128119.0680544,-60.05859375,-31.25,-38.57421875,-56.640625,0.0,0.0,0.0,0.0,7.m4v,11.0
2024-02-28 14:48:39.071958,1709128119.071958,-37.109375,-38.0859375,-35.64453125,-11.23046875,0.0,0.0,0.0,0.0,7.m4v,11.0
2024-02-28 14:48:39.075898,1709128119.0758982,-27.83203125,-43.9453125,-25.390625,-7.32421875,0.0,0.0,0.0,0.0,7.m4v,11.0
2024-02-28 14:48:39.079802,1709128119.0798018,-16.6015625,-42.96875,-35.64453125,-20.5078125,0.0,0.0,0.0,0.0,7.m4v,11.0
2024-02-28 14:48:39.083705,1709128119.0837054,-3.90625,-34.66796875,-27.83203125,32.71484375,0.0,0.0,0.0,0.0,7.m4v,11.0
2024-02-28 14:48:39.087609,1709128119.0876093,-14.6484375,-15.625,-10.7421875,94.7265625,0.0,0.0,0.0,0.0,7.m4v,11.0
2024-02-28 14:48:39.091513,1709128119.091513,-27.83203125,-16.11328125,-37.59765625,130.37109375,0.0,0.0,0.0,0.0,7.m4v,11.0
2024-02-28 14:48:39.095417,1709128119.0954168,-26.85546875,-2.44140625,-44.921875,135.25390625,0.0,0.0,0.0,0.0,7.m4v,11.0
2024-02-28 14:48:39.099320,1709128119.0993204,-31.25,-10.25390625,-23.4375,74.21875,0.0,0.0,0.0,0.0,7.m4v,11.0
2024-02-28 14:48:39.103224,1709128119.103224,-49.31640625,-39.55078125,-24.4140625,34.66796875,0.0,0.0,0.0,0.0,7.m4v,11.0
2024-02-28 14:48:39.107128,1709128119.107128,-47.36328125,-39.0625,-32.71484375,70.80078125,0.0,0.0,0.0,0.0,7.m4v,11.0
2024-02-28 14:48:39.111032,1709128119.1110315,-46.875,-39.55078125,-31.25,124.51171875,0.0,0.0,0.0,0.0,7.m4v,11.0
2024-02-28 14:48:39.114935,1709128119.1149354,-42.96875,-36.1328125,-24.4140625,152.83203125,0.0,0.0,0.0,0.0,7.m4v,11.0
2024-02-28 14:48:39.118839,1709128119.118839,-43.45703125,-33.203125,-28.80859375,78.125,0.0,0.0,0.0,0.0,7.m4v,11.0
2024-02-28 14:48:39.122777,1709128119.1227772,-46.38671875,-50.78125,-25.87890625,28.3203125,0.0,0.0,0.0,0.0,7.m4v,11.0
2024-02-28 14:48:39.126681,1709128119.1266809,-31.25,-51.26953125,-2.44140625,75.68359375,0.0,0.0,0.0,0.0,7.m4v,11.0
2024-02-28 14:48:39.130584,1709128119.1305845,-21.484375,-27.34375,14.6484375,122.55859375,0.0,0.0,0.0,0.0,7.m4v,11.0
2024-02-28 14:48:39.134488,1709128119.1344883,-57.6171875,-25.390625,3.41796875,113.76953125,0.0,0.0,0.0,0.0,7.m4v,11.0
2024-02-28 14:48:39.138392,1709128119.138392,-71.77734375,-41.50390625,-20.5078125,66.89453125,0.0,0.0,0.0,0.0,7.m4v,11.0
2024-02-28 14:48:39.142296,1709128119.1422958,-35.64453125,-20.99609375,-8.30078125,80.078125,0.0,0.0,0.0,0.0,7.m4v,11.0
2024-02-28 14:48:39.146199,1709128119.1461997,-41.9921875,-28.80859375,-28.80859375,92.7734375,0.0,0.0,0.0,0.0,7.m4v,11.0
2024-02-28 14:48:39.150103,1709128119.150103,-46.875,-36.62109375,-48.828125,105.95703125,0.0,0.0,0.0,0.0,7.m4v,11.0
2024-02-28 14:48:39.154007,1709128119.154007,-39.0625,-22.94921875,-32.71484375,98.14453125,0.0,0.0,0.0,0.0,7.m4v,11.0
2024-02-28 14:48:39.157911,1709128119.1579106,-62.98828125,-44.921875,-32.71484375,30.76171875,0.0,0.0,0.0,0.0,7.m4v,11.0
2024-02-28 14:48:39.161814,1709128119.1618145,-61.5234375,-67.87109375,-26.3671875,36.1328125,0.0,0.0,0.0,0.0,7.m4v,11.0
2024-02-28 14:48:39.165718,1709128119.165718,-14.6484375,-40.0390625,-32.71484375,64.453125,0.0,0.0,0.0,0.0,7.m4v,11.0
2024-02-28 14:48:39.169655,1709128119.1696546,-5.859375,-16.6015625,-59.5703125,71.77734375,0.0,0.0,0.0,0.0,7.m4v,11.0
2024-02-28 14:48:39.173558,1709128119.1735585,-23.4375,-26.85546875,-57.12890625,81.0546875,0.0,0.0,0.0,0.0,7.m4v,11.0
2024-02-28 14:48:39.177462,1709128119.177462,7.8125,-4.39453125,-1.46484375,87.890625,0.0,0.0,0.0,0.0,7.m4v,11.0
2024-02-28 14:48:39.181366,1709128119.181366,-16.11328125,-3.41796875,26.85546875,45.8984375,0.0,0.0,0.0,0.0,7.m4v,11.0
2024-02-28 14:48:39.185270,1709128119.1852696,-64.94140625,-21.97265625,14.16015625,40.0390625,0.0,0.0,0.0,0.0,7.m4v,11.0
2024-02-28 14:48:39.189173,1709128119.1891737,-62.5,-29.296875,-0.9765625,104.98046875,0.0,0.0,0.0,0.0,7.m4v,11.0
2024-02-28 14:48:39.193077,1709128119.193077,-50.78125,-35.64453125,-15.13671875,110.83984375,0.0,0.0,0.0,0.0,7.m4v,11.0
2024-02-28 14:48:39.196981,1709128119.1969807,-41.015625,-45.8984375,-33.69140625,58.59375,0.0,0.0,0.0,0.0,7.m4v,11.0
2024-02-28 14:48:39.200885,1709128119.2008846,-25.87890625,-58.10546875,-73.2421875,33.69140625,0.0,0.0,0.0,0.0,7.m4v,11.0
2024-02-28 14:48:39.204788,1709128119.2047882,-15.13671875,-51.26953125,-63.96484375,66.40625,0.0,0.0,0.0,0.0,7.m4v,11.0
2024-02-28 14:48:39.208692,1709128119.208692,-9.765625,-36.1328125,-12.20703125,112.79296875,0.0,0.0,0.0,0.0,7.m4v,11.0
2024-02-28 14:48:39.212596,1709128119.2125957,-22.4609375,-33.69140625,-7.8125,130.859375,0.0,0.0,0.0,0.0,7.m4v,11.0
2024-02-28 14:48:39.216531,1709128119.216531,-50.29296875,-39.0625,-23.92578125,76.66015625,0.0,0.0,0.0,0.0,7.m4v,11.0
2024-02-28 14:48:39.220435,1709128119.220435,-53.22265625,-38.0859375,-23.92578125,28.3203125,0.0,0.0,0.0,0.0,7.m4v,11.0
2024-02-28 14:48:39.224339,1709128119.2243383,-45.41015625,-24.4140625,-1.46484375,22.94921875,0.0,0.0,0.0,0.0,7.m4v,11.0
2024-02-28 14:48:39.228242,1709128119.2282422,-36.62109375,-22.4609375,9.765625,52.24609375,0.0,0.0,0.0,0.0,7.m4v,11.0
2024-02-28 14:48:39.232146,1709128119.232146,-12.6953125,-33.69140625,-8.30078125,101.5625,0.0,0.0,0.0,0.0,7.m4v,11.0
2024-02-28 14:48:39.236050,1709128119.2360497,-12.6953125,-44.921875,-28.80859375,68.84765625,0.0,0.0,0.0,0.0,7.m4v,11.0
2024-02-28 14:48:39.239954,1709128119.2399535,-22.4609375,-42.96875,-34.1796875,8.30078125,0.0,0.0,0.0,0.0,7.m4v,11.0
2024-02-28 14:48:39.243857,1709128119.2438571,-30.2734375,-34.1796875,-44.43359375,7.8125,0.0,0.0,0.0,0.0,7.m4v,11.0
2024-02-28 14:48:39.247761,1709128119.2477608,-41.015625,-31.25,-37.109375,43.9453125,0.0,0.0,0.0,0.0,7.m4v,11.0
2024-02-28 14:48:39.251665,1709128119.2516646,-28.3203125,-22.94921875,-38.0859375,88.8671875,0.0,0.0,0.0,0.0,7.m4v,11.0
2024-02-28 14:48:39.255568,1709128119.2555685,-40.52734375,-33.203125,-60.05859375,40.0390625,0.0,0.0,0.0,0.0,7.m4v,11.0
2024-02-28 14:48:39.259472,1709128119.259472,-40.52734375,-46.38671875,-31.25,-27.34375,0.0,0.0,0.0,0.0,7.m4v,11.0
2024-02-28 14:48:39.263407,1709128119.263407,-6.8359375,-32.2265625,-18.06640625,-8.7890625,0.0,0.0,0.0,0.0,7.m4v,11.0
2024-02-28 14:48:39.267311,1709128119.2673106,-20.5078125,-50.78125,-50.78125,-2.9296875,0.0,0.0,0.0,0.0,7.m4v,11.0
2024-02-28 14:48:39.271214,1709128119.2712145,-29.78515625,-59.5703125,-30.76171875,19.04296875,0.0,0.0,0.0,0.0,7.m4v,11.0
2024-02-28 14:48:39.275118,1709128119.275118,-21.484375,-27.83203125,-12.20703125,27.83203125,0.0,0.0,0.0,0.0,7.m4v,11.0
2024-02-28 14:48:39.279022,1709128119.279022,-25.87890625,-10.7421875,-13.671875,-26.85546875,0.0,0.0,0.0,0.0,7.m4v,11.0
2024-02-28 14:48:39.282926,1709128119.2829256,-27.34375,-8.30078125,-4.8828125,-50.29296875,0.0,0.0,0.0,0.0,7.m4v,11.0
2024-02-28 14:48:39.286829,1709128119.2868292,-40.52734375,-12.20703125,-32.2265625,-8.30078125,0.0,0.0,0.0,0.0,7.m4v,11.0
2024-02-28 14:48:39.290733,1709128119.290733,-36.62109375,-20.5078125,-39.0625,35.64453125,0.0,0.0,0.0,0.0,7.m4v,11.0
2024-02-28 14:48:39.294637,1709128119.2946367,-11.23046875,-39.55078125,-9.27734375,47.8515625,0.0,0.0,0.0,0.0,7.m4v,11.0
2024-02-28 14:48:39.298541,1709128119.2985406,-14.16015625,-54.6875,-23.92578125,-19.53125,0.0,0.0,0.0,0.0,7.m4v,11.0
2024-02-28 14:48:39.302444,1709128119.3024442,-51.26953125,-42.48046875,-66.40625,-59.08203125,0.0,0.0,0.0,0.0,7.m4v,11.0
2024-02-28 14:48:39.306348,1709128119.306348,-63.4765625,-15.625,-66.89453125,-22.94921875,0.0,0.0,0.0,0.0,7.m4v,11.0
2024-02-28 14:48:39.310282,1709128119.3102822,-34.66796875,-5.859375,-18.5546875,38.57421875,0.0,0.0,0.0,0.0,7.m4v,11.0
2024-02-28 14:48:39.314186,1709128119.314186,-12.6953125,-36.1328125,10.7421875,49.8046875,0.0,0.0,0.0,0.0,7.m4v,11.0
2024-02-28 14:48:39.318090,1709128119.3180895,-6.8359375,-45.41015625,-1.953125,-20.99609375,0.0,0.0,0.0,0.0,7.m4v,11.0
2024-02-28 14:48:39.321994,1709128119.3219936,-41.50390625,-27.34375,-12.20703125,-69.82421875,0.0,0.0,0.0,0.0,7.m4v,11.0
2024-02-28 14:48:39.325897,1709128119.3258972,-65.4296875,-22.94921875,-19.04296875,-29.78515625,0.0,0.0,0.0,0.0,7.m4v,11.0
2024-02-28 14:48:39.329801,1709128119.3298008,-26.85546875,-4.8828125,-22.94921875,56.640625,0.0,0.0,0.0,0.0,7.m4v,11.0
2024-02-28 14:48:39.333705,1709128119.3337047,-23.4375,-8.7890625,-25.390625,34.66796875,0.0,0.0,0.0,0.0,7.m4v,11.0
2024-02-28 14:48:39.337608,1709128119.3376083,-33.69140625,-27.34375,-40.52734375,-46.875,0.0,0.0,0.0,0.0,7.m4v,11.0
2024-02-28 14:48:39.341512,1709128119.3415122,-33.203125,-28.80859375,-34.1796875,-71.2890625,0.0,0.0,0.0,0.0,7.m4v,11.0
2024-02-28 14:48:39.345416,1709128119.3454158,-39.0625,-32.71484375,-53.22265625,-50.29296875,0.0,0.0,0.0,0.0,7.m4v,11.0
2024-02-28 14:48:39.349320,1709128119.3493197,-35.15625,-20.5078125,-78.125,3.90625,0.0,0.0,0.0,0.0,7.m4v,11.0
2024-02-28 14:48:39.353223,1709128119.353223,-25.87890625,-13.18359375,-41.50390625,30.2734375,0.0,0.0,0.0,0.0,7.m4v,11.0
2024-02-28 14:48:39.357166,1709128119.3571656,-26.85546875,-48.828125,-45.8984375,-23.92578125,0.0,0.0,0.0,0.0,7.m4v,11.0
2024-02-28 14:48:39.361069,1709128119.3610692,-34.66796875,-68.84765625,-45.41015625,-70.80078125,0.0,0.0,0.0,0.0,7.m4v,11.0
2024-02-28 14:48:39.364973,1709128119.364973,-42.48046875,-48.828125,-25.390625,-39.55078125,0.0,0.0,0.0,0.0,7.m4v,11.0
2024-02-28 14:48:39.368877,1709128119.3688767,-40.52734375,-11.71875,-27.34375,20.99609375,0.0,0.0,0.0,0.0,7.m4v,11.0
2024-02-28 14:48:39.372781,1709128119.3727806,-16.11328125,9.765625,-7.8125,29.296875,0.0,0.0,0.0,0.0,7.m4v,11.0
2024-02-28 14:48:39.376684,1709128119.3766842,-4.8828125,-7.32421875,-7.32421875,-15.625,0.0,0.0,0.0,0.0,7.m4v,11.0
2024-02-28 14:48:39.380588,1709128119.380588,-37.59765625,-29.78515625,-2.44140625,-77.1484375,0.0,0.0,0.0,0.0,7.m4v,11.0
2024-02-28 14:48:39.384492,1709128119.3844917,-76.66015625,-46.38671875,-9.27734375,-116.69921875,0.0,0.0,0.0,0.0,7.m4v,11.0
2024-02-28 14:48:39.388396,1709128119.3883955,-79.1015625,-54.6875,-45.8984375,-66.89453125,0.0,0.0,0.0,0.0,7.m4v,11.0
2024-02-28 14:48:39.392299,1709128119.3922992,-38.0859375,-34.66796875,-43.45703125,-5.37109375,0.0,0.0,0.0,0.0,7.m4v,11.0
2024-02-28 14:48:39.396203,1709128119.3962028,-37.109375,-19.53125,-54.6875,-29.296875,0.0,0.0,0.0,0.0,7.m4v,11.0
2024-02-28 14:48:39.400107,1709128119.400107,-47.8515625,-21.97265625,-64.94140625,-68.84765625,0.0,0.0,0.0,0.0,7.m4v,11.0
2024-02-28 14:48:39.404047,1709128119.4040473,-52.734375,-30.2734375,-37.109375,-53.7109375,0.0,0.0,0.0,0.0,7.m4v,11.0
2024-02-28 14:48:39.407951,1709128119.4079509,-34.66796875,-15.625,-2.44140625,45.41015625,0.0,0.0,0.0,0.0,7.m4v,11.0
2024-02-28 14:48:39.411855,1709128119.4118545,-14.16015625,-34.1796875,0.0,82.03125,0.0,0.0,0.0,0.0,7.m4v,11.0
2024-02-28 14:48:39.415758,1709128119.4157584,-13.18359375,-70.80078125,-8.7890625,26.3671875,0.0,0.0,0.0,0.0,7.m4v,11.0
2024-02-28 14:48:39.419662,1709128119.419662,-15.13671875,-38.0859375,-13.18359375,-11.23046875,0.0,0.0,0.0,0.0,7.m4v,11.0
2024-02-28 14:48:39.423566,1709128119.423566,-38.57421875,-9.27734375,-44.921875,-31.25,0.0,0.0,0.0,0.0,7.m4v,11.0
2024-02-28 14:48:39.427469,1709128119.4274695,-38.57421875,2.9296875,-68.359375,10.25390625,0.0,0.0,0.0,0.0,7.m4v,11.0
2024-02-28 14:48:39.431373,1709128119.4313734,-29.296875,-0.48828125,-58.59375,10.25390625,0.0,0.0,0.0,0.0,7.m4v,11.0
2024-02-28 14:48:39.435277,1709128119.435277,-43.9453125,-25.390625,-35.15625,-55.6640625,0.0,0.0,0.0,0.0,7.m4v,11.0
2024-02-28 14:48:39.439181,1709128119.4391809,-49.31640625,-42.48046875,-25.390625,-100.5859375,0.0,0.0,0.0,0.0,7.m4v,11.0
2024-02-28 14:48:39.443084,1709128119.4430845,-45.41015625,-49.31640625,-19.04296875,-90.8203125,0.0,0.0,0.0,0.0,7.m4v,11.0
2024-02-28 14:48:39.446988,1709128119.446988,-46.38671875,-58.10546875,-17.578125,-50.29296875,0.0,0.0,0.0,0.0,7.m4v,11.0
2024-02-28 14:48:39.450927,1709128119.4509275,-37.59765625,-50.78125,-32.2265625,5.37109375,0.0,0.0,0.0,0.0,7.m4v,11.0
2024-02-28 14:48:39.454831,1709128119.4548311,-21.484375,-26.3671875,-22.94921875,29.78515625,0.0,0.0,0.0,0.0,7.m4v,11.0
2024-02-28 14:48:39.458735,1709128119.458735,-18.5546875,-17.578125,-22.4609375,-19.53125,0.0,0.0,0.0,0.0,7.m4v,11.0
2024-02-28 14:48:39.462639,1709128119.4626386,-16.11328125,-26.85546875,-51.7578125,-27.83203125,0.0,0.0,0.0,0.0,7.m4v,11.0
2024-02-28 14:48:39.466542,1709128119.4665425,-21.484375,-28.80859375,-38.0859375,5.859375,0.0,0.0,0.0,0.0,7.m4v,11.0
2024-02-28 14:48:39.470446,1709128119.470446,-29.296875,-37.59765625,-19.04296875,26.3671875,0.0,0.0,0.0,0.0,7.m4v,11.0
2024-02-28 14:48:39.474350,1709128119.47435,-13.18359375,-48.33984375,-51.26953125,28.3203125,0.0,0.0,0.0,0.0,7.m4v,11.0
2024-02-28 14:48:39.478254,1709128119.4782536,-21.97265625,-28.3203125,-70.80078125,-40.0390625,0.0,0.0,0.0,0.0,7.m4v,11.0
2024-02-28 14:48:39.482157,1709128119.4821572,-64.453125,-17.08984375,-39.55078125,-86.42578125,0.0,0.0,0.0,0.0,7.m4v,11.0
2024-02-28 14:48:39.486061,1709128119.486061,-68.84765625,-25.87890625,-25.87890625,-29.296875,0.0,0.0,0.0,0.0,7.m4v,11.0
2024-02-28 14:48:39.489965,1709128119.4899647,-37.59765625,-21.97265625,-3.90625,3.90625,0.0,0.0,0.0,0.0,7.m4v,11.0
2024-02-28 14:48:39.493869,1709128119.4938686,-30.76171875,-19.53125,15.625,12.6953125,0.0,0.0,0.0,0.0,7.m4v,11.0
2024-02-28 14:48:39.497808,1709128119.4978075,-13.671875,-23.4375,-41.015625,-9.765625,0.0,0.0,0.0,0.0,7.m4v,11.0
2024-02-28 14:48:39.501711,1709128119.5017111,-6.34765625,-27.34375,-72.265625,-48.33984375,0.0,0.0,0.0,0.0,7.m4v,11.0
2024-02-28 14:48:39.505615,1709128119.5056148,-42.48046875,-29.78515625,-39.55078125,-58.10546875,0.0,0.0,0.0,0.0,7.m4v,11.0
2024-02-28 14:48:39.509519,1709128119.5095186,-36.1328125,-26.85546875,-1.46484375,-19.04296875,0.0,0.0,0.0,0.0,7.m4v,11.0
2024-02-28 14:48:39.513422,1709128119.5134225,-35.15625,-42.96875,-3.90625,4.8828125,0.0,0.0,0.0,0.0,7.m4v,11.0
2024-02-28 14:48:39.517326,1709128119.517326,-42.48046875,-28.3203125,-5.37109375,-33.69140625,0.0,0.0,0.0,0.0,7.m4v,11.0
2024-02-28 14:48:39.521230,1709128119.5212295,-47.36328125,-9.765625,-3.41796875,-47.36328125,0.0,0.0,0.0,0.0,7.m4v,11.0
2024-02-28 14:48:39.525134,1709128119.5251336,-63.4765625,-28.3203125,-57.12890625,-51.26953125,0.0,0.0,0.0,0.0,7.m4v,11.0
2024-02-28 14:48:39.529037,1709128119.5290372,-62.01171875,-33.203125,-80.078125,-46.875,0.0,0.0,0.0,0.0,7.m4v,11.0
2024-02-28 14:48:39.532941,1709128119.532941,-18.5546875,-19.53125,-40.0390625,-33.69140625,0.0,0.0,0.0,0.0,7.m4v,11.0
2024-02-28 14:48:39.536845,1709128119.5368447,-6.34765625,-37.59765625,-22.4609375,-88.8671875,0.0,0.0,0.0,0.0,7.m4v,11.0
2024-02-28 14:48:39.540749,1709128119.5407486,-23.4375,-44.43359375,-9.765625,-135.7421875,0.0,0.0,0.0,0.0,7.m4v,11.0
2024-02-28 14:48:39.544685,1709128119.5446851,-40.52734375,-28.80859375,9.765625,-107.91015625,0.0,0.0,0.0,0.0,7.m4v,11.0
2024-02-28 14:48:39.548589,1709128119.5485888,-68.359375,-26.3671875,-21.484375,-63.96484375,0.0,0.0,0.0,0.0,7.m4v,11.0
2024-02-28 14:48:39.552493,1709128119.5524926,-47.8515625,-2.9296875,-58.10546875,-27.83203125,0.0,0.0,0.0,0.0,7.m4v,11.0
2024-02-28 14:48:39.556396,1709128119.5563962,-22.94921875,10.7421875,-46.875,-65.4296875,0.0,0.0,0.0,0.0,7.m4v,11.0
2024-02-28 14:48:39.560300,1709128119.5603,-46.875,-12.20703125,-30.76171875,-129.8828125,0.0,0.0,0.0,0.0,7.m4v,11.0
2024-02-28 14:48:39.564204,1709128119.5642035,-68.84765625,-31.73828125,-32.71484375,-103.515625,0.0,0.0,0.0,0.0,7.m4v,11.0
2024-02-28 14:48:39.568108,1709128119.5681076,-43.9453125,-45.41015625,-37.59765625,-46.38671875,0.0,0.0,0.0,0.0,7.m4v,11.0
2024-02-28 14:48:39.572011,1709128119.5720112,-22.4609375,-41.9921875,-41.50390625,-37.59765625,0.0,0.0,0.0,0.0,7.m4v,11.0
2024-02-28 14:48:39.575915,1709128119.575915,-24.4140625,-22.94921875,-24.90234375,-105.95703125,0.0,0.0,0.0,0.0,7.m4v,11.0
2024-02-28 14:48:39.579819,1709128119.5798187,-26.85546875,-14.6484375,-30.76171875,-185.05859375,0.0,0.0,0.0,0.0,7.m4v,11.0
2024-02-28 14:48:39.583723,1709128119.5837226,-14.16015625,-7.8125,-43.45703125,-164.0625,0.0,0.0,0.0,0.0,7.m4v,11.0
2024-02-28 14:48:39.587626,1709128119.5876262,-27.34375,-27.83203125,-27.34375,-117.1875,0.0,0.0,0.0,0.0,7.m4v,11.0
2024-02-28 14:48:39.591562,1709128119.5915616,-51.26953125,-54.6875,-15.625,-86.9140625,0.0,0.0,0.0,0.0,7.m4v,11.0
2024-02-28 14:48:39.595465,1709128119.5954654,-31.25,-30.76171875,-7.8125,-105.95703125,0.0,0.0,0.0,0.0,7.m4v,11.0
2024-02-28 14:48:39.599369,1709128119.599369,-16.11328125,-5.37109375,2.9296875,-146.97265625,0.0,0.0,0.0,0.0,7.m4v,11.0
2024-02-28 14:48:39.603273,1709128119.603273,-38.0859375,-15.625,-13.18359375,-161.62109375,0.0,0.0,0.0,0.0,7.m4v,11.0
2024-02-28 14:48:39.607177,1709128119.6071763,-45.41015625,-20.5078125,-42.48046875,-136.71875,0.0,0.0,0.0,0.0,7.m4v,11.0
2024-02-28 14:48:39.611080,1709128119.6110802,-40.52734375,-15.13671875,-20.5078125,-88.37890625,0.0,0.0,0.0,0.0,7.m4v,11.0
2024-02-28 14:48:39.614984,1709128119.614984,-25.390625,-21.484375,-2.9296875,-79.58984375,0.0,0.0,0.0,0.0,7.m4v,11.0
2024-02-28 14:48:39.618888,1709128119.6188877,-27.34375,-29.78515625,-52.734375,-143.5546875,0.0,0.0,0.0,0.0,7.m4v,11.0
2024-02-28 14:48:39.622792,1709128119.6227915,-11.71875,-17.08984375,-50.29296875,-139.16015625,0.0,0.0,0.0,0.0,7.m4v,11.0
2024-02-28 14:48:39.626695,1709128119.6266952,11.23046875,-10.7421875,-13.671875,-78.125,0.0,0.0,0.0,0.0,7.m4v,11.0
2024-02-28 14:48:39.630599,1709128119.630599,-9.27734375,-31.73828125,-14.6484375,-59.5703125,0.0,0.0,0.0,0.0,7.m4v,11.0
2024-02-28 14:48:39.634503,1709128119.6345026,-38.0859375,-43.9453125,-52.734375,-66.40625,0.0,0.0,0.0,0.0,7.m4v,11.0
2024-02-28 14:48:39.638437,1709128119.6384366,-49.8046875,-41.50390625,-68.359375,-114.74609375,0.0,0.0,0.0,0.0,7.m4v,11.0
2024-02-28 14:48:39.642340,1709128119.6423404,-47.36328125,-20.5078125,-18.5546875,-132.8125,0.0,0.0,0.0,0.0,7.m4v,11.0
2024-02-28 14:48:39.646244,1709128119.646244,-61.5234375,-12.6953125,-6.34765625,-118.65234375,0.0,0.0,0.0,0.0,7.m4v,11.0
2024-02-28 14:48:39.650148,1709128119.650148,-60.05859375,-20.01953125,-11.23046875,-88.8671875,0.0,0.0,0.0,0.0,7.m4v,11.0
2024-02-28 14:48:39.654052,1709128119.6540515,-34.66796875,-15.13671875,-36.1328125,-81.0546875,0.0,0.0,0.0,0.0,7.m4v,11.0
2024-02-28 14:48:39.657955,1709128119.6579554,-28.80859375,-11.23046875,-55.6640625,-113.28125,0.0,0.0,0.0,0.0,7.m4v,11.0
2024-02-28 14:48:39.661859,1709128119.661859,-35.15625,-35.64453125,-26.3671875,-130.37109375,0.0,0.0,0.0,0.0,7.m4v,11.0
2024-02-28 14:48:39.665763,1709128119.665763,-25.87890625,-63.96484375,-32.2265625,-97.65625,0.0,0.0,0.0,0.0,7.m4v,11.0
2024-02-28 14:48:39.669667,1709128119.6696663,-2.9296875,-50.78125,-35.64453125,-17.08984375,0.0,0.0,0.0,0.0,7.m4v,11.0
2024-02-28 14:48:39.673570,1709128119.6735702,-10.7421875,-18.5546875,-40.0390625,-4.39453125,0.0,0.0,0.0,0.0,7.m4v,11.0
2024-02-28 14:48:39.677474,1709128119.677474,-26.3671875,3.90625,-41.9921875,-80.56640625,0.0,0.0,0.0,0.0,7.m4v,11.0
2024-02-28 14:48:39.681378,1709128119.6813776,-38.0859375,-11.23046875,-13.18359375,-152.34375,0.0,0.0,0.0,0.0,7.m4v,11.0
2024-02-28 14:48:39.685321,1709128119.6853209,-60.05859375,-39.0625,-6.8359375,-165.52734375,0.0,0.0,0.0,0.0,7.m4v,11.0
2024-02-28 14:48:39.689225,1709128119.6892247,-57.12890625,-38.0859375,-10.7421875,-98.6328125,0.0,0.0,0.0,0.0,7.m4v,11.0
2024-02-28 14:48:39.693128,1709128119.6931283,-46.38671875,-30.2734375,-32.2265625,-41.9921875,0.0,0.0,0.0,0.0,7.m4v,11.0
2024-02-28 14:48:39.697032,1709128119.6970322,-36.62109375,-57.12890625,-45.41015625,-70.3125,0.0,0.0,0.0,0.0,7.m4v,11.0
2024-02-28 14:48:39.700936,1709128119.7009358,-6.8359375,-51.7578125,-50.78125,-101.07421875,0.0,0.0,0.0,0.0,7.m4v,11.0
2024-02-28 14:48:39.704840,1709128119.7048397,17.08984375,-1.46484375,-70.80078125,-58.59375,0.0,0.0,0.0,0.0,7.m4v,11.0
2024-02-28 14:48:39.708743,1709128119.708743,-4.8828125,-3.90625,-58.10546875,-22.94921875,0.0,0.0,0.0,0.0,7.m4v,11.0
2024-02-28 14:48:39.712647,1709128119.712647,-31.73828125,-39.55078125,-25.390625,-18.5546875,0.0,0.0,0.0,0.0,7.m4v,11.0
2024-02-28 14:48:39.716551,1709128119.7165508,-40.0390625,-45.41015625,-23.4375,-57.6171875,0.0,0.0,0.0,0.0,7.m4v,11.0
2024-02-28 14:48:39.720454,1709128119.7204545,-40.52734375,-47.8515625,-7.8125,-100.5859375,0.0,0.0,0.0,0.0,7.m4v,11.0
2024-02-28 14:48:39.724358,1709128119.7243583,-34.66796875,-44.43359375,0.9765625,-71.2890625,0.0,0.0,0.0,0.0,7.m4v,11.0
2024-02-28 14:48:39.728262,1709128119.728262,-33.203125,-25.87890625,-7.8125,-21.97265625,0.0,0.0,0.0,0.0,7.m4v,11.0
2024-02-28 14:48:39.732205,1709128119.7322054,-14.16015625,-18.5546875,-26.3671875,2.44140625,0.0,0.0,0.0,0.0,7.m4v,11.0
2024-02-28 14:48:39.736109,1709128119.7361093,-18.06640625,-21.97265625,-44.43359375,-47.8515625,0.0,0.0,0.0,0.0,7.m4v,11.0
2024-02-28 14:48:39.740013,1709128119.740013,-63.96484375,-33.69140625,-42.96875,-150.87890625,0.0,0.0,0.0,0.0,7.m4v,11.0
2024-02-28 14:48:39.743917,1709128119.7439167,-74.21875,-43.45703125,-50.29296875,-150.87890625,0.0,0.0,0.0,0.0,7.m4v,11.0
2024-02-28 14:48:39.747820,1709128119.7478204,-60.05859375,-38.57421875,-35.15625,-77.1484375,0.0,0.0,0.0,0.0,7.m4v,11.0
2024-02-28 14:48:39.751724,1709128119.7517242,-31.73828125,-34.66796875,-20.5078125,-3.41796875,0.0,0.0,0.0,0.0,7.m4v,11.0
2024-02-28 14:48:39.755628,1709128119.755628,-9.27734375,-34.66796875,-41.9921875,-2.44140625,0.0,0.0,0.0,0.0,7.m4v,11.0
2024-02-28 14:48:39.759532,1709128119.7595315,-10.25390625,-39.0625,-74.21875,-63.4765625,0.0,0.0,0.0,0.0,7.m4v,11.0
2024-02-28 14:48:39.763435,1709128119.7634354,-10.25390625,-48.828125,-47.36328125,-65.4296875,0.0,0.0,0.0,0.0,7.m4v,11.0
2024-02-28 14:48:39.767339,1709128119.767339,-41.015625,-50.29296875,-7.8125,-40.0390625,0.0,0.0,0.0,0.0,7.m4v,11.0
2024-02-28 14:48:39.771243,1709128119.7712429,-50.29296875,-31.25,-0.48828125,1.46484375,0.0,0.0,0.0,0.0,7.m4v,11.0
2024-02-28 14:48:39.775146,1709128119.7751465,-55.6640625,-49.8046875,-19.53125,-28.80859375,0.0,0.0,0.0,0.0,7.m4v,11.0
2024-02-28 14:48:39.779087,1709128119.779087,-63.96484375,-50.29296875,-28.80859375,-116.2109375,0.0,0.0,0.0,0.0,7.m4v,11.0
2024-02-28 14:48:39.782991,1709128119.7829907,-42.48046875,-36.1328125,-17.08984375,-117.1875,0.0,0.0,0.0,0.0,7.m4v,11.0
2024-02-28 14:48:39.786895,1709128119.7868946,-46.875,-32.2265625,-37.109375,-77.1484375,0.0,0.0,0.0,0.0,7.m4v,11.0
2024-02-28 14:48:39.790798,1709128119.7907982,-44.43359375,-7.32421875,-39.55078125,-24.90234375,0.0,0.0,0.0,0.0,7.m4v,11.0
2024-02-28 14:48:39.794702,1709128119.794702,-52.734375,-14.16015625,-40.52734375,-23.92578125,0.0,0.0,0.0,0.0,7.m4v,11.0
2024-02-28 14:48:39.798606,1709128119.7986057,-60.546875,-25.87890625,-27.34375,-80.56640625,0.0,0.0,0.0,0.0,7.m4v,11.0
2024-02-28 14:48:39.802510,1709128119.8025095,-49.31640625,-32.2265625,-16.6015625,-123.53515625,0.0,0.0,0.0,0.0,7.m4v,11.0
2024-02-28 14:48:39.806413,1709128119.8064132,-47.36328125,-38.57421875,-42.96875,-116.69921875,0.0,0.0,0.0,0.0,7.m4v,11.0
2024-02-28 14:48:39.810317,1709128119.810317,-20.01953125,-30.2734375,-49.31640625,-65.91796875,0.0,0.0,0.0,0.0,7.m4v,11.0
2024-02-28 14:48:39.814221,1709128119.814221,-14.16015625,-39.55078125,-56.15234375,-53.22265625,0.0,0.0,0.0,0.0,7.m4v,11.0
2024-02-28 14:48:39.818125,1709128119.8181243,-33.69140625,-50.29296875,-47.36328125,-107.421875,0.0,0.0,0.0,0.0,7.m4v,11.0
2024-02-28 14:48:39.822028,1709128119.8220282,-45.41015625,-36.62109375,-34.1796875,-142.578125,0.0,0.0,0.0,0.0,7.m4v,11.0
2024-02-28 14:48:39.825968,1709128119.8259676,-47.36328125,-28.3203125,-61.5234375,-126.46484375,0.0,0.0,0.0,0.0,7.m4v,11.0
2024-02-28 14:48:39.829871,1709128119.8298714,-34.66796875,-42.96875,-62.98828125,-84.47265625,0.0,0.0,0.0,0.0,7.m4v,11.0
2024-02-28 14:48:39.833775,1709128119.833775,-28.80859375,-64.94140625,-27.34375,-72.75390625,0.0,0.0,0.0,0.0,7.m4v,11.0
2024-02-28 14:48:39.837679,1709128119.837679,-22.94921875,-45.8984375,-0.48828125,-103.515625,0.0,0.0,0.0,0.0,7.m4v,11.0
2024-02-28 14:48:39.841583,1709128119.8415823,-48.828125,-25.87890625,-14.6484375,-133.7890625,0.0,0.0,0.0,0.0,7.m4v,11.0
2024-02-28 14:48:39.845486,1709128119.8454864,-73.73046875,-35.15625,-19.04296875,-104.98046875,0.0,0.0,0.0,0.0,7.m4v,11.0
2024-02-28 14:48:39.849390,1709128119.84939,-53.22265625,-23.92578125,-9.765625,-22.4609375,0.0,0.0,0.0,0.0,7.m4v,11.0
2024-02-28 14:48:39.853294,1709128119.853294,-29.296875,-14.16015625,-48.33984375,8.7890625,0.0,0.0,0.0,0.0,7.m4v,11.0
2024-02-28 14:48:39.857198,1709128119.8571975,-29.78515625,-19.53125,-80.078125,-53.7109375,0.0,0.0,0.0,0.0,7.m4v,11.0
2024-02-28 14:48:39.861101,1709128119.8611012,-16.11328125,-10.7421875,-51.7578125,-129.39453125,0.0,0.0,0.0,0.0,7.m4v,11.0
2024-02-28 14:48:39.865005,1709128119.865005,-28.3203125,-26.85546875,-32.2265625,-132.32421875,0.0,0.0,0.0,0.0,7.m4v,11.0
2024-02-28 14:48:39.868909,1709128119.8689086,-36.62109375,-44.921875,-48.828125,-80.078125,0.0,0.0,0.0,0.0,7.m4v,11.0
2024-02-28 14:48:39.872847,1709128119.8728466,-20.5078125,-34.66796875,-45.41015625,-73.73046875,0.0,0.0,0.0,0.0,7.m4v,11.0
2024-02-28 14:48:39.876750,1709128119.8767505,-33.69140625,-41.015625,-37.59765625,-120.60546875,0.0,0.0,0.0,0.0,7.m4v,11.0
2024-02-28 14:48:39.880654,1709128119.880654,-39.0625,-37.109375,-18.06640625,-125.9765625,0.0,0.0,0.0,0.0,7.m4v,11.0
2024-02-28 14:48:39.884558,1709128119.884558,-43.9453125,-40.52734375,-5.37109375,-121.58203125,0.0,0.0,0.0,0.0,7.m4v,11.0
2024-02-28 14:48:39.888462,1709128119.8884616,-34.1796875,-43.9453125,-20.01953125,-68.84765625,0.0,0.0,0.0,0.0,7.m4v,11.0
2024-02-28 14:48:39.892365,1709128119.8923657,1.953125,-18.06640625,-20.5078125,14.6484375,0.0,0.0,0.0,0.0,7.m4v,11.0
2024-02-28 14:48:39.896269,1709128119.896269,-16.11328125,-19.53125,-27.83203125,-37.59765625,0.0,0.0,0.0,0.0,7.m4v,11.0
2024-02-28 14:48:39.900173,1709128119.900173,-57.12890625,-34.66796875,-41.015625,-122.55859375,0.0,0.0,0.0,0.0,7.m4v,11.0
2024-02-28 14:48:39.904077,1709128119.9040766,-51.26953125,-29.296875,-32.2265625,-102.05078125,0.0,0.0,0.0,0.0,7.m4v,11.0
2024-02-28 14:48:39.907980,1709128119.9079804,-19.04296875,-16.6015625,-32.2265625,-20.01953125,0.0,0.0,0.0,0.0,7.m4v,11.0
2024-02-28 14:48:39.911884,1709128119.911884,0.0,-10.7421875,-79.1015625,12.6953125,0.0,0.0,0.0,0.0,7.m4v,11.0
2024-02-28 14:48:39.915788,1709128119.9157877,-38.57421875,-36.1328125,-106.4453125,-68.359375,0.0,0.0,0.0,0.0,7.m4v,11.0
2024-02-28 14:48:39.919725,1709128119.9197252,-37.59765625,-45.8984375,-45.8984375,-106.93359375,0.0,0.0,0.0,0.0,7.m4v,11.0
2024-02-28 14:48:39.923629,1709128119.923629,-26.3671875,-28.80859375,-0.48828125,-101.5625,0.0,0.0,0.0,0.0,7.m4v,11.0
2024-02-28 14:48:39.927533,1709128119.927533,-63.4765625,-42.96875,-10.7421875,-81.54296875,0.0,0.0,0.0,0.0,7.m4v,11.0
2024-02-28 14:48:39.931437,1709128119.9314363,-56.15234375,-52.734375,-21.484375,-30.76171875,0.0,0.0,0.0,0.0,7.m4v,11.0
2024-02-28 14:48:39.935340,1709128119.9353402,-34.1796875,-29.78515625,-28.3203125,-57.12890625,0.0,0.0,0.0,0.0,7.m4v,11.0
2024-02-28 14:48:39.939244,1709128119.939244,-28.80859375,-14.6484375,-29.296875,-98.14453125,0.0,0.0,0.0,0.0,7.m4v,11.0
2024-02-28 14:48:39.943148,1709128119.9431477,-30.2734375,-27.34375,-39.55078125,-105.46875,0.0,0.0,0.0,0.0,7.m4v,11.0
2024-02-28 14:48:39.947052,1709128119.9470515,-41.50390625,-41.015625,-41.015625,-120.1171875,0.0,0.0,0.0,0.0,7.m4v,11.0
2024-02-28 14:48:39.950955,1709128119.9509552,-26.85546875,-28.3203125,-36.62109375,-95.21484375,0.0,0.0,0.0,0.0,7.m4v,11.0
2024-02-28 14:48:39.954859,1709128119.954859,-7.8125,-10.25390625,-35.15625,-59.08203125,0.0,0.0,0.0,0.0,7.m4v,11.0
2024-02-28 14:48:39.958763,1709128119.9587626,-12.6953125,-8.30078125,-32.71484375,-78.125,0.0,0.0,0.0,0.0,7.m4v,11.0
2024-02-28 14:48:39.962667,1709128119.9626665,-26.3671875,-16.6015625,-31.25,-119.140625,0.0,0.0,0.0,0.0,7.m4v,11.0
2024-02-28 14:48:39.966613,1709128119.966613,-63.4765625,-34.66796875,-25.87890625,-104.98046875,0.0,0.0,0.0,0.0,7.m4v,11.0
2024-02-28 14:48:39.970517,1709128119.9705167,-72.75390625,-37.59765625,-20.5078125,-48.828125,0.0,0.0,0.0,0.0,7.m4v,11.0
2024-02-28 14:48:39.974421,1709128119.9744203,-51.26953125,-41.50390625,-37.59765625,-38.0859375,0.0,0.0,0.0,0.0,7.m4v,11.0
2024-02-28 14:48:39.978324,1709128119.9783242,-20.99609375,-32.2265625,-49.8046875,-77.63671875,0.0,0.0,0.0,0.0,7.m4v,11.0
2024-02-28 14:48:39.982228,1709128119.982228,-27.83203125,-25.390625,-34.1796875,-102.05078125,0.0,0.0,0.0,0.0,7.m4v,11.0
2024-02-28 14:48:39.986132,1709128119.9861317,-50.29296875,-32.2265625,-22.94921875,-79.1015625,0.0,0.0,0.0,0.0,7.m4v,11.0
2024-02-28 14:48:39.990036,1709128119.9900355,-44.43359375,-19.53125,-29.296875,-20.99609375,0.0,0.0,0.0,0.0,7.m4v,11.0
2024-02-28 14:48:39.993939,1709128119.9939392,-36.62109375,-45.41015625,-47.8515625,10.7421875,0.0,0.0,0.0,0.0,7.m4v,11.0
2024-02-28 14:48:39.997843,1709128119.997843,-24.4140625,-57.12890625,-21.97265625,-51.7578125,0.0,0.0,0.0,0.0,7.m4v,11.0
2024-02-28 14:48:40.001747,1709128120.001747,-35.15625,-19.53125,-2.9296875,-112.3046875,0.0,0.0,0.0,0.0,7.m4v,11.0
2024-02-28 14:48:40.005651,1709128120.0056503,-42.48046875,-7.32421875,-35.64453125,-72.265625,0.0,0.0,0.0,0.0,7.m4v,11.0
2024-02-28 14:48:40.009554,1709128120.009554,-41.9921875,-14.16015625,-69.3359375,-39.0625,0.0,0.0,0.0,0.0,7.m4v,11.0
2024-02-28 14:48:40.013488,1709128120.0134878,-36.62109375,-26.85546875,-67.87109375,-22.94921875,0.0,0.0,0.0,0.0,7.m4v,11.0
2024-02-28 14:48:40.017392,1709128120.0173917,-29.78515625,-32.2265625,-49.31640625,-64.94140625,0.0,0.0,0.0,0.0,7.m4v,11.0
2024-02-28 14:48:40.021295,1709128120.0212953,-35.15625,-35.15625,-38.0859375,-107.91015625,0.0,0.0,0.0,0.0,7.m4v,11.0
2024-02-28 14:48:40.025199,1709128120.0251992,-55.17578125,-22.94921875,-36.62109375,-69.82421875,0.0,0.0,0.0,0.0,7.m4v,11.0
2024-02-28 14:48:40.029103,1709128120.0291028,-72.75390625,-24.4140625,-50.78125,-12.20703125,0.0,0.0,0.0,0.0,7.m4v,11.0
2024-02-28 14:48:40.033007,1709128120.033007,-65.4296875,-32.2265625,-15.13671875,4.8828125,0.0,0.0,0.0,0.0,7.m4v,11.0
2024-02-28 14:48:40.036910,1709128120.0369103,-51.7578125,-28.80859375,7.8125,-45.41015625,0.0,0.0,0.0,0.0,7.m4v,11.0
2024-02-28 14:48:40.040814,1709128120.0408142,-43.45703125,-39.0625,-2.44140625,-86.9140625,0.0,0.0,0.0,0.0,7.m4v,11.0
2024-02-28 14:48:40.044718,1709128120.0447178,-19.53125,-57.6171875,-12.6953125,-77.1484375,0.0,0.0,0.0,0.0,7.m4v,11.0
2024-02-28 14:48:40.048622,1709128120.0486217,-8.7890625,-52.734375,-64.453125,-13.671875,0.0,0.0,0.0,0.0,7.m4v,11.0
2024-02-28 14:48:40.052525,1709128120.0525253,-25.390625,-36.62109375,-65.91796875,13.18359375,0.0,0.0,0.0,0.0,7.m4v,11.0
2024-02-28 14:48:40.056429,1709128120.0564291,-30.2734375,-30.2734375,-20.5078125,-69.3359375,0.0,0.0,0.0,0.0,7.m4v,11.0
2024-02-28 14:48:40.060372,1709128120.0603724,-34.66796875,-26.3671875,-7.32421875,-131.34765625,0.0,0.0,0.0,0.0,7.m4v,11.0
2024-02-28 14:48:40.064276,1709128120.0642762,-57.6171875,-31.73828125,-28.80859375,-122.0703125,0.0,0.0,0.0,0.0,7.m4v,11.0
2024-02-28 14:48:40.068180,1709128120.0681798,-64.94140625,-32.2265625,-49.8046875,-68.359375,0.0,0.0,0.0,0.0,7.m4v,11.0
2024-02-28 14:48:40.072084,1709128120.0720837,-38.57421875,-22.4609375,-46.875,-9.765625,0.0,0.0,0.0,0.0,7.m4v,11.0
2024-02-28 14:48:40.075987,1709128120.075987,-22.4609375,-15.13671875,-34.66796875,-44.43359375,0.0,0.0,0.0,0.0,7.m4v,11.0
2024-02-28 14:48:40.079891,1709128120.079891,-21.484375,-22.4609375,-37.59765625,-96.6796875,0.0,0.0,0.0,0.0,7.m4v,11.0
2024-02-28 14:48:40.083795,1709128120.0837948,-23.4375,-29.78515625,-47.36328125,-78.125,0.0,0.0,0.0,0.0,7.m4v,11.0
2024-02-28 14:48:40.087698,1709128120.0876985,-21.484375,-35.15625,-52.24609375,-46.875,0.0,0.0,0.0,0.0,7.m4v,11.0
2024-02-28 14:48:40.091602,1709128120.0916023,-18.5546875,-53.7109375,-47.8515625,-0.9765625,0.0,0.0,0.0,0.0,7.m4v,11.0
2024-02-28 14:48:40.095506,1709128120.095506,-23.92578125,-43.9453125,-24.4140625,4.39453125,0.0,0.0,0.0,0.0,7.m4v,11.0
2024-02-28 14:48:40.099410,1709128120.0994098,-39.0625,-25.87890625,-28.80859375,-50.78125,0.0,0.0,0.0,0.0,7.m4v,11.0
2024-02-28 14:48:40.103313,1709128120.1033134,-53.7109375,-40.0390625,-54.6875,-102.5390625,0.0,0.0,0.0,0.0,7.m4v,11.0
2024-02-28 14:48:40.107256,1709128120.1072557,-49.8046875,-45.41015625,-43.45703125,-76.171875,0.0,0.0,0.0,0.0,7.m4v,11.0
2024-02-28 14:48:40.111159,1709128120.111159,-36.62109375,-37.109375,-25.87890625,27.34375,0.0,0.0,0.0,0.0,7.m4v,11.0
2024-02-28 14:48:40.115063,1709128120.1150632,-34.66796875,-35.15625,-22.4609375,23.92578125,0.0,0.0,0.0,0.0,7.m4v,11.0
2024-02-28 14:48:40.118967,1709128120.1189668,-33.203125,-16.6015625,-31.25,-67.87109375,0.0,0.0,0.0,0.0,7.m4v,11.0
2024-02-28 14:48:40.122871,1709128120.1228707,-41.50390625,-17.08984375,-37.59765625,-88.37890625,0.0,0.0,0.0,0.0,7.m4v,11.0
2024-02-28 14:48:40.126774,1709128120.1267743,-44.43359375,-29.78515625,-36.1328125,-44.43359375,0.0,0.0,0.0,0.0,7.m4v,11.0
2024-02-28 14:48:40.130678,1709128120.1306782,-38.57421875,-40.52734375,-17.08984375,8.30078125,0.0,0.0,0.0,0.0,7.m4v,11.0
2024-02-28 14:48:40.134582,1709128120.1345818,-24.90234375,-37.59765625,-16.6015625,-17.08984375,0.0,0.0,0.0,0.0,7.m4v,11.0
2024-02-28 14:48:40.138486,1709128120.1384857,-12.20703125,-29.78515625,-42.96875,-44.43359375,0.0,0.0,0.0,0.0,7.m4v,11.0
2024-02-28 14:48:40.142389,1709128120.1423893,-32.71484375,-33.69140625,-44.921875,-76.171875,0.0,0.0,0.0,0.0,7.m4v,11.0
2024-02-28 14:48:40.146293,1709128120.1462932,-61.5234375,-40.52734375,-54.19921875,-126.46484375,0.0,0.0,0.0,0.0,7.m4v,11.0
2024-02-28 14:48:40.150197,1709128120.1501968,-67.87109375,-33.203125,-43.45703125,-58.10546875,0.0,0.0,0.0,0.0,7.m4v,11.0
2024-02-28 14:48:40.154138,1709128120.154138,-54.6875,-19.04296875,-33.69140625,-25.87890625,0.0,0.0,0.0,0.0,7.m4v,11.0
2024-02-28 14:48:40.158042,1709128120.158042,-59.08203125,-33.203125,-58.59375,-99.609375,0.0,0.0,0.0,0.0,7.m4v,11.0
2024-02-28 14:48:40.161946,1709128120.1619456,-38.57421875,-28.80859375,-24.4140625,-106.4453125,0.0,0.0,0.0,0.0,7.m4v,11.0
2024-02-28 14:48:40.165849,1709128120.1658494,-34.66796875,-33.69140625,-3.90625,-68.359375,0.0,0.0,0.0,0.0,7.m4v,11.0
2024-02-28 14:48:40.169753,1709128120.169753,-50.78125,-57.12890625,-22.94921875,-30.2734375,0.0,0.0,0.0,0.0,7.m4v,11.0
2024-02-28 14:48:40.173657,1709128120.173657,-36.62109375,-27.34375,-19.53125,1.46484375,0.0,0.0,0.0,0.0,7.m4v,11.0
2024-02-28 14:48:40.177561,1709128120.1775606,-21.484375,-4.8828125,-33.203125,-43.45703125,0.0,0.0,0.0,0.0,7.m4v,11.0
2024-02-28 14:48:40.181464,1709128120.1814644,-28.3203125,-16.6015625,-41.50390625,-106.93359375,0.0,0.0,0.0,0.0,7.m4v,11.0
2024-02-28 14:48:40.185368,1709128120.185368,-61.03515625,-23.4375,-33.69140625,-102.05078125,0.0,0.0,0.0,0.0,7.m4v,11.0
2024-02-28 14:48:40.189272,1709128120.189272,-77.1484375,-31.73828125,-18.5546875,-46.38671875,0.0,0.0,0.0,0.0,7.m4v,11.0
2024-02-28 14:48:40.193176,1709128120.1931756,-58.10546875,-39.0625,-45.8984375,-25.87890625,0.0,0.0,0.0,0.0,7.m4v,11.0
2024-02-28 14:48:40.197079,1709128120.1970794,-33.203125,-40.52734375,-74.21875,-66.89453125,0.0,0.0,0.0,0.0,7.m4v,11.0
2024-02-28 14:48:40.201019,1709128120.2010186,-35.15625,-50.78125,-41.015625,-81.54296875,0.0,0.0,0.0,0.0,7.m4v,11.0
2024-02-28 14:48:40.204922,1709128120.2049222,-41.015625,-44.921875,-13.18359375,-68.84765625,0.0,0.0,0.0,0.0,7.m4v,11.0
2024-02-28 14:48:40.208826,1709128120.208826,-16.6015625,-19.53125,-6.34765625,-36.62109375,0.0,0.0,0.0,0.0,7.m4v,11.0
2024-02-28 14:48:40.212730,1709128120.2127297,-13.671875,-17.578125,-3.41796875,-7.32421875,0.0,0.0,0.0,0.0,7.m4v,11.0
2024-02-28 14:48:40.216634,1709128120.2166336,-34.66796875,-25.87890625,-16.11328125,-29.296875,0.0,0.0,0.0,0.0,7.m4v,11.0
2024-02-28 14:48:40.220537,1709128120.2205372,-50.78125,-34.1796875,-35.64453125,-67.87109375,0.0,0.0,0.0,0.0,7.m4v,11.0
2024-02-28 14:48:40.224441,1709128120.224441,-62.5,-42.48046875,-21.484375,-68.359375,0.0,0.0,0.0,0.0,7.m4v,11.0
2024-02-28 14:48:40.228345,1709128120.228345,-41.50390625,-48.828125,-31.25,-40.0390625,0.0,0.0,0.0,0.0,7.m4v,11.0
2024-02-28 14:48:40.232249,1709128120.2322483,-1.953125,-48.33984375,-54.19921875,-8.7890625,0.0,0.0,0.0,0.0,7.m4v,11.0
2024-02-28 14:48:40.236152,1709128120.2361522,19.04296875,-29.296875,-28.3203125,-12.6953125,0.0,0.0,0.0,0.0,7.m4v,11.0
2024-02-28 14:48:40.240056,1709128120.240056,-25.87890625,-28.3203125,-10.7421875,-76.171875,0.0,0.0,0.0,0.0,7.m4v,11.0
2024-02-28 14:48:40.243960,1709128120.2439597,-52.734375,-26.3671875,-23.92578125,-87.40234375,0.0,0.0,0.0,0.0,7.m4v,11.0
2024-02-28 14:48:40.247898,1709128120.2478976,-27.83203125,-12.20703125,-26.85546875,-16.6015625,0.0,0.0,0.0,0.0,7.m4v,11.0
2024-02-28 14:48:40.251801,1709128120.2518013,-11.71875,-9.765625,-22.94921875,25.390625,0.0,0.0,0.0,0.0,7.m4v,11.0
2024-02-28 14:48:40.255705,1709128120.255705,0.48828125,-28.80859375,-29.296875,-6.34765625,0.0,0.0,0.0,0.0,7.m4v,11.0
2024-02-28 14:48:40.259609,1709128120.2596087,-10.7421875,-50.29296875,-35.64453125,-62.5,0.0,0.0,0.0,0.0,7.m4v,11.0
2024-02-28 14:48:40.263513,1709128120.2635126,-36.1328125,-31.73828125,-22.94921875,-76.66015625,0.0,0.0,0.0,0.0,7.m4v,11.0
2024-02-28 14:48:40.267416,1709128120.2674162,-48.33984375,-12.6953125,-24.4140625,-6.34765625,0.0,0.0,0.0,0.0,7.m4v,11.0
2024-02-28 14:48:40.271320,1709128120.27132,-28.3203125,-8.7890625,-41.015625,44.921875,0.0,0.0,0.0,0.0,7.m4v,11.0
2024-02-28 14:48:40.275224,1709128120.2752235,-35.15625,-29.296875,-44.921875,-37.59765625,0.0,0.0,0.0,0.0,7.m4v,11.0
2024-02-28 14:48:40.279128,1709128120.2791276,-45.8984375,-49.31640625,-22.94921875,-93.75,0.0,0.0,0.0,0.0,7.m4v,11.0
2024-02-28 14:48:40.283031,1709128120.2830312,-44.921875,-41.50390625,-16.6015625,-87.40234375,0.0,0.0,0.0,0.0,7.m4v,11.0
2024-02-28 14:48:40.286935,1709128120.286935,-58.10546875,-38.0859375,-36.62109375,-66.89453125,0.0,0.0,0.0,0.0,7.m4v,11.0
2024-02-28 14:48:40.290839,1709128120.2908387,-53.22265625,-26.3671875,-32.2265625,-30.76171875,0.0,0.0,0.0,0.0,7.m4v,11.0
2024-02-28 14:48:40.294775,1709128120.2947752,-47.36328125,-30.2734375,-41.9921875,-45.41015625,0.0,0.0,0.0,0.0,7.m4v,11.0
2024-02-28 14:48:40.298679,1709128120.298679,-34.1796875,-52.734375,-48.828125,-80.56640625,0.0,0.0,0.0,0.0,7.m4v,11.0
2024-02-28 14:48:40.302583,1709128120.3025827,-34.66796875,-49.31640625,-20.99609375,-94.23828125,0.0,0.0,0.0,0.0,7.m4v,11.0
2024-02-28 14:48:40.306487,1709128120.3064866,-74.70703125,-39.55078125,-34.1796875,-76.66015625,0.0,0.0,0.0,0.0,7.m4v,11.0
2024-02-28 14:48:40.310390,1709128120.3103902,-58.10546875,-37.59765625,-29.78515625,-0.48828125,0.0,0.0,0.0,0.0,7.m4v,11.0
2024-02-28 14:48:40.314294,1709128120.314294,-27.83203125,-32.2265625,-37.59765625,0.0,0.0,0.0,0.0,0.0,7.m4v,11.0
2024-02-28 14:48:40.318198,1709128120.3181975,-21.484375,-12.20703125,-39.55078125,-75.1953125,0.0,0.0,0.0,0.0,7.m4v,11.0
2024-02-28 14:48:40.322102,1709128120.3221016,-27.34375,15.13671875,2.44140625,-84.9609375,0.0,0.0,0.0,0.0,7.m4v,11.0
2024-02-28 14:48:40.326005,1709128120.3260052,-43.9453125,-9.27734375,-6.8359375,-80.56640625,0.0,0.0,0.0,0.0,7.m4v,11.0
2024-02-28 14:48:40.329909,1709128120.329909,-49.8046875,-37.109375,-38.57421875,-41.015625,0.0,0.0,0.0,0.0,7.m4v,11.0
2024-02-28 14:48:40.333813,1709128120.3338127,-40.52734375,-26.3671875,-48.33984375,-17.578125,0.0,0.0,0.0,0.0,7.m4v,11.0
2024-02-28 14:48:40.337717,1709128120.3377166,-34.66796875,-29.296875,-38.57421875,-84.47265625,0.0,0.0,0.0,0.0,7.m4v,11.0
2024-02-28 14:48:40.341662,1709128120.3416624,-48.33984375,-37.109375,-43.45703125,-128.41796875,0.0,0.0,0.0,0.0,7.m4v,11.0
2024-02-28 14:48:40.345566,1709128120.345566,-59.5703125,-31.73828125,-31.73828125,-101.5625,0.0,0.0,0.0,0.0,7.m4v,11.0
2024-02-28 14:48:40.349470,1709128120.34947,-45.8984375,-21.484375,-5.37109375,-42.96875,0.0,0.0,0.0,0.0,7.m4v,11.0
2024-02-28 14:48:40.353374,1709128120.3533735,-52.734375,-29.296875,-11.71875,-41.015625,0.0,0.0,0.0,0.0,7.m4v,11.0
2024-02-28 14:48:40.357277,1709128120.3572774,-22.94921875,-48.828125,-13.18359375,-61.5234375,0.0,0.0,0.0,0.0,7.m4v,11.0
2024-02-28 14:48:40.361181,1709128120.361181,2.44140625,-31.73828125,-29.296875,-63.96484375,0.0,0.0,0.0,0.0,7.m4v,11.0
2024-02-28 14:48:40.365085,1709128120.365085,-34.1796875,-29.296875,-47.36328125,-63.96484375,0.0,0.0,0.0,0.0,7.m4v,11.0
2024-02-28 14:48:40.368989,1709128120.3689885,-49.8046875,-29.78515625,-21.484375,-55.17578125,0.0,0.0,0.0,0.0,7.m4v,11.0
2024-02-28 14:48:40.372892,1709128120.3728924,-22.94921875,-11.23046875,-18.06640625,-29.296875,0.0,0.0,0.0,0.0,7.m4v,11.0
2024-02-28 14:48:40.376796,1709128120.376796,1.953125,-22.94921875,-19.53125,-46.875,0.0,0.0,0.0,0.0,7.m4v,11.0
2024-02-28 14:48:40.380700,1709128120.3807,-20.01953125,-25.87890625,-6.8359375,-92.28515625,0.0,0.0,0.0,0.0,7.m4v,11.0
2024-02-28 14:48:40.384604,1709128120.3846035,-49.31640625,-15.625,-30.76171875,-104.00390625,0.0,0.0,0.0,0.0,7.m4v,11.0
2024-02-28 14:48:40.388549,1709128120.388549,-65.4296875,-20.99609375,-46.875,-61.5234375,0.0,0.0,0.0,0.0,7.m4v,11.0
2024-02-28 14:48:40.392453,1709128120.3924527,-26.85546875,-6.34765625,-35.15625,-6.8359375,0.0,0.0,0.0,0.0,7.m4v,11.0
2024-02-28 14:48:40.396357,1709128120.3963566,6.8359375,-5.37109375,-32.71484375,-22.4609375,0.0,0.0,0.0,0.0,7.m4v,11.0
2024-02-28 14:48:40.400260,1709128120.4002602,-27.83203125,-41.015625,-17.08984375,-72.75390625,0.0,0.0,0.0,0.0,7.m4v,11.0
2024-02-28 14:48:40.404164,1709128120.404164,-51.7578125,-55.6640625,-25.390625,-118.1640625,0.0,0.0,0.0,0.0,7.m4v,11.0
2024-02-28 14:48:40.408068,1709128120.4080677,-38.57421875,-36.62109375,-45.41015625,-101.5625,0.0,0.0,0.0,0.0,7.m4v,11.0
2024-02-28 14:48:40.411972,1709128120.4119716,-35.15625,-28.3203125,-17.08984375,-72.265625,0.0,0.0,0.0,0.0,7.m4v,11.0
2024-02-28 14:48:40.415875,1709128120.4158752,-57.12890625,-47.36328125,-2.9296875,-118.65234375,0.0,0.0,0.0,0.0,7.m4v,11.0
2024-02-28 14:48:40.419779,1709128120.419779,-46.875,-46.38671875,-14.16015625,-149.4140625,0.0,0.0,0.0,0.0,7.m4v,11.0
2024-02-28 14:48:40.423683,1709128120.4236827,-44.921875,-27.34375,-21.484375,-128.90625,0.0,0.0,0.0,0.0,7.m4v,11.0
2024-02-28 14:48:40.427587,1709128120.4275866,-48.33984375,-24.90234375,-38.57421875,-87.40234375,0.0,0.0,0.0,0.0,7.m4v,11.0
2024-02-28 14:48:40.431490,1709128120.4314902,-23.92578125,-17.578125,-42.96875,-37.59765625,0.0,0.0,0.0,0.0,7.m4v,11.0
2024-02-28 14:48:40.435423,1709128120.4354231,-8.30078125,-7.32421875,-25.390625,-45.41015625,0.0,0.0,0.0,0.0,7.m4v,11.0
2024-02-28 14:48:40.439327,1709128120.439327,-12.6953125,-6.34765625,-9.765625,-78.125,0.0,0.0,0.0,0.0,7.m4v,11.0
2024-02-28 14:48:40.443231,1709128120.4432306,-20.99609375,-15.625,-27.83203125,-104.98046875,0.0,0.0,0.0,0.0,7.m4v,11.0
2024-02-28 14:48:40.447134,1709128120.4471345,-38.0859375,-31.25,-79.1015625,-123.53515625,0.0,0.0,0.0,0.0,7.m4v,11.0
2024-02-28 14:48:40.451038,1709128120.451038,-29.78515625,-13.18359375,-63.96484375,-75.68359375,0.0,0.0,0.0,0.0,7.m4v,11.0
2024-02-28 14:48:40.454942,1709128120.454942,-10.7421875,-8.30078125,-40.52734375,-58.59375,0.0,0.0,0.0,0.0,7.m4v,11.0
2024-02-28 14:48:40.458846,1709128120.4588456,-33.203125,-37.59765625,-47.8515625,-135.25390625,0.0,0.0,0.0,0.0,7.m4v,11.0
2024-02-28 14:48:40.462749,1709128120.4627495,-48.828125,-54.6875,-28.80859375,-105.46875,0.0,0.0,0.0,0.0,7.m4v,11.0
2024-02-28 14:48:40.466653,1709128120.466653,-44.921875,-54.6875,-21.484375,-109.375,0.0,0.0,0.0,0.0,7.m4v,11.0
2024-02-28 14:48:40.470557,1709128120.470557,-47.36328125,-52.734375,-19.04296875,-141.11328125,0.0,0.0,0.0,0.0,7.m4v,11.0
2024-02-28 14:48:40.474461,1709128120.4744606,-34.1796875,-40.0390625,-15.625,-107.421875,0.0,0.0,0.0,0.0,7.m4v,11.0
2024-02-28 14:48:40.478364,1709128120.4783645,-21.97265625,-17.578125,-17.578125,-160.15625,0.0,0.0,0.0,0.0,7.m4v,11.0
2024-02-28 14:48:40.482317,1709128120.482317,-10.25390625,-0.48828125,-10.7421875,-147.4609375,0.0,0.0,0.0,0.0,7.m4v,11.0
2024-02-28 14:48:40.486221,1709128120.4862206,-6.8359375,1.46484375,-30.76171875,-67.87109375,0.0,0.0,0.0,0.0,7.m4v,11.0
2024-02-28 14:48:40.490124,1709128120.4901245,-22.94921875,-20.5078125,-59.5703125,-25.390625,0.0,0.0,0.0,0.0,7.m4v,11.0
2024-02-28 14:48:40.494028,1709128120.4940283,-21.97265625,-21.484375,-45.41015625,-33.69140625,0.0,0.0,0.0,0.0,7.m4v,11.0
2024-02-28 14:48:40.497932,1709128120.497932,-12.20703125,-14.16015625,-19.53125,-67.87109375,0.0,0.0,0.0,0.0,7.m4v,11.0
2024-02-28 14:48:40.501836,1709128120.5018358,-23.4375,-30.2734375,-31.25,-94.7265625,0.0,0.0,0.0,0.0,7.m4v,11.0
2024-02-28 14:48:40.505739,1709128120.5057397,-45.41015625,-38.0859375,-42.96875,-79.1015625,0.0,0.0,0.0,0.0,7.m4v,11.0
2024-02-28 14:48:40.509643,1709128120.5096433,-47.8515625,-32.71484375,-31.73828125,-20.5078125,0.0,0.0,0.0,0.0,7.m4v,11.0
2024-02-28 14:48:40.513547,1709128120.513547,-37.59765625,-26.85546875,-13.18359375,-21.97265625,0.0,0.0,0.0,0.0,7.m4v,11.0
2024-02-28 14:48:40.517451,1709128120.5174508,-35.15625,-28.3203125,-14.6484375,-65.91796875,0.0,0.0,0.0,0.0,7.m4v,11.0
2024-02-28 14:48:40.521354,1709128120.5213544,-36.62109375,-35.15625,-35.64453125,-83.984375,0.0,0.0,0.0,0.0,7.m4v,11.0
2024-02-28 14:48:40.525258,1709128120.5252583,-31.25,-35.64453125,-23.92578125,-63.4765625,0.0,0.0,0.0,0.0,7.m4v,11.0
2024-02-28 14:48:40.529199,1709128120.5291994,-9.27734375,-15.625,-41.9921875,14.6484375,0.0,0.0,0.0,0.0,7.m4v,11.0
2024-02-28 14:48:40.533103,1709128120.533103,-25.390625,-2.44140625,-56.640625,23.4375,0.0,0.0,0.0,0.0,7.m4v,11.0
2024-02-28 14:48:40.537007,1709128120.5370069,-49.31640625,-15.625,-12.6953125,-22.4609375,0.0,0.0,0.0,0.0,7.m4v,11.0
2024-02-28 14:48:40.540910,1709128120.5409105,-39.0625,-23.4375,-14.16015625,-57.6171875,0.0,0.0,0.0,0.0,7.m4v,11.0
2024-02-28 14:48:40.544814,1709128120.5448143,-30.2734375,-17.578125,-28.3203125,-59.08203125,0.0,0.0,0.0,0.0,7.m4v,11.0
2024-02-28 14:48:40.548718,1709128120.5487182,-41.9921875,-20.01953125,-22.4609375,-14.6484375,0.0,0.0,0.0,0.0,7.m4v,11.0
2024-02-28 14:48:40.552622,1709128120.5526218,-46.875,-50.29296875,-86.9140625,10.25390625,0.0,0.0,0.0,0.0,7.m4v,11.0
2024-02-28 14:48:40.556526,1709128120.5565257,-30.2734375,-45.8984375,-84.9609375,-9.27734375,0.0,0.0,0.0,0.0,7.m4v,11.0
2024-02-28 14:48:40.560429,1709128120.560429,-28.3203125,-20.5078125,0.9765625,-57.6171875,0.0,0.0,0.0,0.0,7.m4v,11.0
2024-02-28 14:48:40.564333,1709128120.5643332,-39.55078125,-23.4375,18.5546875,-57.6171875,0.0,0.0,0.0,0.0,7.m4v,11.0
2024-02-28 14:48:40.568237,1709128120.5682368,-32.2265625,-27.34375,-13.18359375,-11.23046875,0.0,0.0,0.0,0.0,7.m4v,11.0
2024-02-28 14:48:40.572141,1709128120.5721407,-22.4609375,-44.43359375,-33.203125,9.765625,0.0,0.0,0.0,0.0,7.m4v,11.0
2024-02-28 14:48:40.576081,1709128120.5760806,-28.3203125,-50.78125,-38.57421875,-43.45703125,0.0,0.0,0.0,0.0,7.m4v,11.0
2024-02-28 14:48:40.579984,1709128120.5799842,-37.59765625,-34.66796875,-38.57421875,-95.703125,0.0,0.0,0.0,0.0,7.m4v,11.0
2024-02-28 14:48:40.583888,1709128120.583888,-61.03515625,-22.4609375,-16.6015625,-81.0546875,0.0,0.0,0.0,0.0,7.m4v,11.0
2024-02-28 14:48:40.587792,1709128120.5877917,-71.2890625,-41.50390625,-28.80859375,-58.10546875,0.0,0.0,0.0,0.0,7.m4v,11.0
2024-02-28 14:48:40.591696,1709128120.5916955,-42.96875,-59.08203125,-62.98828125,-11.23046875,0.0,0.0,0.0,0.0,7.m4v,11.0
2024-02-28 14:48:40.595599,1709128120.5955992,-29.78515625,-37.109375,-59.5703125,-4.39453125,0.0,0.0,0.0,0.0,7.m4v,11.0
2024-02-28 14:48:40.599503,1709128120.599503,-48.828125,-26.3671875,-40.52734375,-62.01171875,0.0,0.0,0.0,0.0,7.m4v,11.0
2024-02-28 14:48:40.603407,1709128120.603407,-66.40625,-31.73828125,-15.625,-107.91015625,0.0,0.0,0.0,0.0,7.m4v,11.0
2024-02-28 14:48:40.607311,1709128120.6073103,-75.68359375,-33.69140625,-13.18359375,-99.609375,0.0,0.0,0.0,0.0,7.m4v,11.0
2024-02-28 14:48:40.611214,1709128120.6112144,-54.19921875,-16.6015625,-9.27734375,-26.85546875,0.0,0.0,0.0,0.0,7.m4v,11.0
2024-02-28 14:48:40.615118,1709128120.615118,-23.4375,-14.6484375,-7.32421875,-14.16015625,0.0,0.0,0.0,0.0,7.m4v,11.0
2024-02-28 14:48:40.619022,1709128120.619022,-35.15625,-38.0859375,-42.96875,-78.61328125,0.0,0.0,0.0,0.0,7.m4v,11.0
2024-02-28 14:48:40.622960,1709128120.6229596,-37.109375,-33.203125,-24.90234375,-89.35546875,0.0,0.0,0.0,0.0,7.m4v,11.0
2024-02-28 14:48:40.626863,1709128120.6268637,-29.296875,-18.06640625,2.9296875,-67.3828125,0.0,0.0,0.0,0.0,7.m4v,11.0
2024-02-28 14:48:40.630767,1709128120.630767,-46.875,-25.390625,-15.13671875,-52.734375,0.0,0.0,0.0,0.0,7.m4v,11.0
2024-02-28 14:48:40.634671,1709128120.634671,-34.66796875,-35.15625,-24.4140625,-45.41015625,0.0,0.0,0.0,0.0,7.m4v,11.0
2024-02-28 14:48:40.638575,1709128120.6385746,-23.4375,-36.1328125,-38.0859375,-73.73046875,0.0,0.0,0.0,0.0,7.m4v,11.0
2024-02-28 14:48:40.642478,1709128120.6424785,-26.3671875,-24.4140625,-70.80078125,-94.7265625,0.0,0.0,0.0,0.0,7.m4v,11.0
2024-02-28 14:48:40.646382,1709128120.646382,-41.9921875,-24.90234375,-71.2890625,-86.9140625,0.0,0.0,0.0,0.0,7.m4v,11.0
2024-02-28 14:48:40.650286,1709128120.650286,-51.7578125,-47.8515625,-23.4375,-45.8984375,0.0,0.0,0.0,0.0,7.m4v,11.0
2024-02-28 14:48:40.654190,1709128120.6541896,-26.3671875,-60.05859375,-2.9296875,-24.4140625,0.0,0.0,0.0,0.0,7.m4v,11.0
2024-02-28 14:48:40.658093,1709128120.6580937,-30.2734375,-50.78125,-16.6015625,-73.73046875,0.0,0.0,0.0,0.0,7.m4v,11.0
2024-02-28 14:48:40.661997,1709128120.661997,-26.85546875,-19.04296875,-25.390625,-88.37890625,0.0,0.0,0.0,0.0,7.m4v,11.0
2024-02-28 14:48:40.665901,1709128120.665901,-26.85546875,-6.34765625,-40.52734375,-59.5703125,0.0,0.0,0.0,0.0,7.m4v,11.0
2024-02-28 14:48:40.669838,1709128120.6698377,-41.9921875,-15.13671875,-30.2734375,-20.5078125,0.0,0.0,0.0,0.0,7.m4v,11.0
2024-02-28 14:48:40.673741,1709128120.673741,-45.41015625,-20.01953125,-20.99609375,-20.99609375,0.0,0.0,0.0,0.0,7.m4v,11.0
2024-02-28 14:48:40.677645,1709128120.6776452,-42.48046875,-24.4140625,-25.390625,-66.40625,0.0,0.0,0.0,0.0,7.m4v,11.0
2024-02-28 14:48:40.681549,1709128120.6815488,-20.99609375,-28.3203125,-3.90625,-76.66015625,0.0,0.0,0.0,0.0,7.m4v,11.0
2024-02-28 14:48:40.685453,1709128120.6854527,-28.80859375,-29.296875,-21.97265625,-67.87109375,0.0,0.0,0.0,0.0,7.m4v,11.0
2024-02-28 14:48:40.689356,1709128120.6893563,-54.19921875,-44.921875,-67.3828125,-50.78125,0.0,0.0,0.0,0.0,7.m4v,11.0
2024-02-28 14:48:40.693260,1709128120.6932602,-36.62109375,-41.50390625,-50.78125,-33.203125,0.0,0.0,0.0,0.0,7.m4v,11.0
2024-02-28 14:48:40.697164,1709128120.6971638,-25.87890625,-26.85546875,-34.66796875,-56.15234375,0.0,0.0,0.0,0.0,7.m4v,11.0
2024-02-28 14:48:40.701068,1709128120.7010677,-37.109375,-19.04296875,-32.71484375,-67.87109375,0.0,0.0,0.0,0.0,7.m4v,11.0
2024-02-28 14:48:40.704972,1709128120.7049716,-33.69140625,-4.39453125,-13.671875,-53.7109375,0.0,0.0,0.0,0.0,7.m4v,11.0
2024-02-28 14:48:40.708875,1709128120.7088752,-37.59765625,-12.20703125,-28.80859375,-51.26953125,0.0,0.0,0.0,0.0,7.m4v,11.0
2024-02-28 14:48:40.712779,1709128120.712779,-29.78515625,-19.04296875,-38.57421875,-35.64453125,0.0,0.0,0.0,0.0,7.m4v,11.0
2024-02-28 14:48:40.716714,1709128120.7167144,-28.3203125,-20.99609375,-37.109375,-62.5,0.0,0.0,0.0,0.0,7.m4v,11.0
2024-02-28 14:48:40.720618,1709128120.7206182,-27.83203125,-25.390625,-23.92578125,-100.5859375,0.0,0.0,0.0,0.0,7.m4v,11.0
2024-02-28 14:48:40.724522,1709128120.724522,-24.4140625,-31.73828125,-19.53125,-91.796875,0.0,0.0,0.0,0.0,7.m4v,11.0
2024-02-28 14:48:40.728426,1709128120.7284255,-34.66796875,-26.3671875,-35.15625,-56.640625,0.0,0.0,0.0,0.0,7.m4v,11.0
2024-02-28 14:48:40.732329,1709128120.7323294,-38.57421875,-25.87890625,-27.34375,-46.38671875,0.0,0.0,0.0,0.0,7.m4v,11.0
2024-02-28 14:48:40.736233,1709128120.7362332,-43.9453125,-43.9453125,-33.69140625,-78.61328125,0.0,0.0,0.0,0.0,7.m4v,11.0
2024-02-28 14:48:40.740137,1709128120.7401369,-35.64453125,-40.52734375,-45.41015625,-111.328125,0.0,0.0,0.0,0.0,7.m4v,11.0
2024-02-28 14:48:40.744041,1709128120.7440407,-34.66796875,-31.73828125,-34.1796875,-125.9765625,0.0,0.0,0.0,0.0,7.m4v,11.0
2024-02-28 14:48:40.747944,1709128120.7479444,-38.57421875,-26.85546875,-23.92578125,-92.7734375,0.0,0.0,0.0,0.0,7.m4v,11.0
2024-02-28 14:48:40.751848,1709128120.7518482,-20.01953125,-23.4375,-25.87890625,-45.8984375,0.0,0.0,0.0,0.0,7.m4v,11.0
2024-02-28 14:48:40.755752,1709128120.755752,-28.80859375,-28.3203125,-39.55078125,-64.453125,0.0,0.0,0.0,0.0,7.m4v,11.0
2024-02-28 14:48:40.759656,1709128120.7596557,-56.15234375,-34.66796875,-32.2265625,-118.1640625,0.0,0.0,0.0,0.0,7.m4v,11.0
2024-02-28 14:48:40.763591,1709128120.7635906,-64.94140625,-36.62109375,-13.671875,-131.34765625,0.0,0.0,0.0,0.0,7.m4v,11.0
2024-02-28 14:48:40.767494,1709128120.7674944,-59.08203125,-26.3671875,-12.6953125,-76.171875,0.0,0.0,0.0,0.0,7.m4v,11.0
2024-02-28 14:48:40.771398,1709128120.771398,-51.7578125,-22.94921875,-18.06640625,-28.3203125,0.0,0.0,0.0,0.0,7.m4v,11.0
2024-02-28 14:48:40.775302,1709128120.775302,-58.59375,-29.296875,-31.73828125,-35.15625,0.0,0.0,0.0,0.0,7.m4v,11.0
2024-02-28 14:48:40.779206,1709128120.7792056,-71.77734375,-47.36328125,-33.203125,-119.62890625,0.0,0.0,0.0,0.0,7.m4v,11.0
2024-02-28 14:48:40.783109,1709128120.7831094,-93.75,-71.2890625,-39.55078125,-144.04296875,0.0,0.0,0.0,0.0,7.m4v,11.0
2024-02-28 14:48:40.787013,1709128120.787013,-106.4453125,-54.19921875,-62.5,-122.0703125,0.0,0.0,0.0,0.0,7.m4v,11.0
2024-02-28 14:48:40.790917,1709128120.790917,-96.6796875,-34.1796875,-49.31640625,-106.93359375,0.0,0.0,0.0,0.0,7.m4v,11.0
2024-02-28 14:48:40.794821,1709128120.7948203,-93.75,-65.91796875,-14.6484375,-110.3515625,0.0,0.0,0.0,0.0,7.m4v,11.0
2024-02-28 14:48:40.798724,1709128120.7987244,-102.5390625,-55.6640625,-5.859375,-168.9453125,0.0,0.0,0.0,0.0,7.m4v,11.0
2024-02-28 14:48:40.802628,1709128120.802628,-117.67578125,-2.9296875,-10.25390625,-148.92578125,0.0,0.0,0.0,0.0,7.m4v,11.0
2024-02-28 14:48:40.806532,1709128120.806532,-124.51171875,-13.18359375,-32.2265625,-129.8828125,0.0,0.0,0.0,0.0,7.m4v,11.0
2024-02-28 14:48:40.810476,1709128120.8104758,-114.2578125,-30.2734375,-25.390625,-100.5859375,0.0,0.0,0.0,0.0,7.m4v,11.0
2024-02-28 14:48:40.814379,1709128120.8143797,-133.30078125,-32.71484375,-2.9296875,-90.33203125,0.0,0.0,0.0,0.0,7.m4v,11.0
2024-02-28 14:48:40.818283,1709128120.818283,-145.99609375,-47.8515625,-18.06640625,-154.78515625,0.0,0.0,0.0,0.0,7.m4v,11.0
2024-02-28 14:48:40.822187,1709128120.8221872,-125.0,-32.2265625,-72.265625,-154.78515625,0.0,0.0,0.0,0.0,7.m4v,11.0
2024-02-28 14:48:40.826091,1709128120.8260908,-121.09375,-25.390625,-89.84375,-95.21484375,0.0,0.0,0.0,0.0,7.m4v,11.0
2024-02-28 14:48:40.829995,1709128120.829995,-108.88671875,-22.4609375,-14.16015625,-9.765625,0.0,0.0,0.0,0.0,7.m4v,11.0
2024-02-28 14:48:40.833898,1709128120.8338983,-114.2578125,-22.94921875,13.18359375,-41.015625,0.0,0.0,0.0,0.0,7.m4v,11.0
2024-02-28 14:48:40.837802,1709128120.8378022,-111.328125,-38.57421875,-7.32421875,-158.69140625,0.0,0.0,0.0,0.0,7.m4v,11.0
2024-02-28 14:48:40.841706,1709128120.8417058,-86.42578125,-54.19921875,6.8359375,-151.3671875,0.0,0.0,0.0,0.0,7.m4v,11.0
2024-02-28 14:48:40.845610,1709128120.8456097,-100.09765625,-62.98828125,-9.765625,-100.09765625,0.0,0.0,0.0,0.0,7.m4v,11.0
2024-02-28 14:48:40.849513,1709128120.8495133,-124.51171875,-63.96484375,-50.78125,-54.6875,0.0,0.0,0.0,0.0,7.m4v,11.0
2024-02-28 14:48:40.853417,1709128120.8534172,-112.79296875,-66.40625,-42.48046875,-29.78515625,0.0,0.0,0.0,0.0,7.m4v,11.0
2024-02-28 14:48:40.857359,1709128120.8573592,-85.9375,-32.71484375,-12.6953125,-48.33984375,0.0,0.0,0.0,0.0,7.m4v,11.0
2024-02-28 14:48:40.861263,1709128120.8612628,-56.15234375,-11.23046875,-17.08984375,-63.96484375,0.0,0.0,0.0,0.0,7.m4v,11.0
2024-02-28 14:48:40.865167,1709128120.865167,-52.24609375,-34.1796875,-31.73828125,-44.921875,0.0,0.0,0.0,0.0,7.m4v,11.0
2024-02-28 14:48:40.869070,1709128120.8690703,-70.3125,-36.62109375,-19.04296875,-6.34765625,0.0,0.0,0.0,0.0,7.m4v,11.0
2024-02-28 14:48:40.872974,1709128120.8729742,-53.7109375,-18.5546875,-7.8125,23.4375,0.0,0.0,0.0,0.0,7.m4v,11.0
2024-02-28 14:48:40.876878,1709128120.8768778,-43.9453125,-12.20703125,-13.671875,-10.25390625,0.0,0.0,0.0,0.0,7.m4v,11.0
2024-02-28 14:48:40.880782,1709128120.8807817,-48.828125,-28.3203125,-39.55078125,-91.30859375,0.0,0.0,0.0,0.0,7.m4v,11.0
2024-02-28 14:48:40.884685,1709128120.8846853,-33.203125,-38.0859375,-43.45703125,-67.3828125,0.0,0.0,0.0,0.0,7.m4v,11.0
2024-02-28 14:48:40.888589,1709128120.8885891,-11.71875,-25.390625,-50.78125,-1.46484375,0.0,0.0,0.0,0.0,7.m4v,11.0
2024-02-28 14:48:40.892493,1709128120.8924928,-1.46484375,-30.2734375,-56.640625,60.05859375,0.0,0.0,0.0,0.0,7.m4v,11.0
2024-02-28 14:48:40.896397,1709128120.8963966,-10.25390625,-60.05859375,-46.875,31.25,0.0,0.0,0.0,0.0,7.m4v,11.0
2024-02-28 14:48:40.900301,1709128120.9003005,-5.37109375,-34.1796875,-37.59765625,-73.73046875,0.0,0.0,0.0,0.0,7.m4v,11.0
2024-02-28 14:48:40.904241,1709128120.904241,17.08984375,0.48828125,-28.80859375,-61.5234375,0.0,0.0,0.0,0.0,7.m4v,11.0
2024-02-28 14:48:40.908145,1709128120.9081447,12.6953125,-17.578125,-39.55078125,-28.80859375,0.0,0.0,0.0,0.0,7.m4v,11.0
2024-02-28 14:48:40.912049,1709128120.9120486,0.48828125,-24.4140625,-45.8984375,9.765625,0.0,0.0,0.0,0.0,7.m4v,11.0
2024-02-28 14:48:40.915952,1709128120.9159522,-19.53125,-16.6015625,-56.640625,-3.90625,0.0,0.0,0.0,0.0,7.m4v,11.0
2024-02-28 14:48:40.919856,1709128120.919856,-37.59765625,-21.484375,-65.91796875,-42.96875,0.0,0.0,0.0,0.0,7.m4v,11.0
2024-02-28 14:48:40.923760,1709128120.9237597,-22.94921875,-20.01953125,-61.03515625,-19.53125,0.0,0.0,0.0,0.0,7.m4v,11.0
2024-02-28 14:48:40.927664,1709128120.9276636,-9.765625,-18.06640625,-34.66796875,36.1328125,0.0,0.0,0.0,0.0,7.m4v,11.0
2024-02-28 14:48:40.931567,1709128120.9315672,12.20703125,-25.87890625,-34.1796875,90.8203125,0.0,0.0,0.0,0.0,7.m4v,11.0
2024-02-28 14:48:40.935471,1709128120.935471,19.53125,-40.52734375,-58.59375,89.84375,0.0,0.0,0.0,0.0,7.m4v,11.0
2024-02-28 14:48:40.939375,1709128120.9393747,-7.8125,-42.48046875,-36.1328125,19.53125,0.0,0.0,0.0,0.0,7.m4v,11.0
2024-02-28 14:48:40.943279,1709128120.9432786,-16.6015625,-25.390625,-10.25390625,-5.37109375,0.0,0.0,0.0,0.0,7.m4v,11.0
2024-02-28 14:48:40.947182,1709128120.9471822,-7.32421875,-31.73828125,-30.76171875,43.45703125,0.0,0.0,0.0,0.0,7.m4v,11.0
2024-02-28 14:48:40.951122,1709128120.9511216,-1.953125,-14.16015625,-57.12890625,90.33203125,0.0,0.0,0.0,0.0,7.m4v,11.0
2024-02-28 14:48:40.955025,1709128120.9550254,-14.16015625,-25.87890625,-54.6875,48.828125,0.0,0.0,0.0,0.0,7.m4v,11.0
2024-02-28 14:48:40.958929,1709128120.958929,20.01953125,-46.38671875,-55.6640625,25.87890625,0.0,0.0,0.0,0.0,7.m4v,11.0
2024-02-28 14:48:40.962833,1709128120.962833,46.875,-1.46484375,-51.26953125,50.29296875,0.0,0.0,0.0,0.0,7.m4v,11.0
2024-02-28 14:48:40.966737,1709128120.9667366,-2.44140625,-10.7421875,-32.2265625,46.38671875,0.0,0.0,0.0,0.0,7.m4v,11.0
2024-02-28 14:48:40.970640,1709128120.9706404,-38.0859375,-48.33984375,-41.9921875,79.1015625,0.0,0.0,0.0,0.0,7.m4v,11.0
2024-02-28 14:48:40.974544,1709128120.974544,-29.78515625,-46.38671875,-44.43359375,76.171875,0.0,0.0,0.0,0.0,7.m4v,11.0
2024-02-28 14:48:40.978448,1709128120.978448,-9.765625,-34.66796875,-29.296875,36.62109375,0.0,0.0,0.0,0.0,7.m4v,11.0
2024-02-28 14:48:40.982352,1709128120.9823518,-2.44140625,4.39453125,-41.015625,69.82421875,0.0,0.0,0.0,0.0,7.m4v,11.0
2024-02-28 14:48:40.986255,1709128120.9862554,-34.66796875,6.8359375,-32.2265625,81.54296875,0.0,0.0,0.0,0.0,7.m4v,11.0
2024-02-28 14:48:40.990159,1709128120.9901593,-55.17578125,-18.06640625,-29.296875,73.2421875,0.0,0.0,0.0,0.0,7.m4v,11.0
2024-02-28 14:48:40.994063,1709128120.994063,-42.48046875,-20.5078125,-40.52734375,105.95703125,0.0,0.0,0.0,0.0,7.m4v,11.0
2024-02-28 14:48:40.998002,1709128120.9980016,-10.25390625,-11.23046875,-31.25,58.10546875,0.0,0.0,0.0,0.0,7.m4v,11.0
2024-02-28 14:48:41.001905,1709128121.0019054,-6.8359375,-19.53125,-28.3203125,-14.6484375,0.0,0.0,0.0,0.0,7.m4v,11.0
2024-02-28 14:48:41.005809,1709128121.005809,-29.78515625,-41.9921875,-33.69140625,1.953125,0.0,0.0,0.0,0.0,7.m4v,11.0
2024-02-28 14:48:41.009713,1709128121.009713,-31.25,-46.38671875,-37.109375,48.828125,0.0,0.0,0.0,0.0,7.m4v,11.0
2024-02-28 14:48:41.013617,1709128121.0136166,-7.8125,-41.015625,-30.76171875,70.80078125,0.0,0.0,0.0,0.0,7.m4v,11.0
2024-02-28 14:48:41.017520,1709128121.0175204,35.15625,-36.1328125,-32.71484375,50.29296875,0.0,0.0,0.0,0.0,7.m4v,11.0
2024-02-28 14:48:41.021424,1709128121.021424,34.66796875,-30.2734375,-56.15234375,6.34765625,0.0,0.0,0.0,0.0,7.m4v,11.0
2024-02-28 14:48:41.025328,1709128121.025328,-22.94921875,-42.48046875,-57.6171875,-35.15625,0.0,0.0,0.0,0.0,7.m4v,11.0
2024-02-28 14:48:41.029232,1709128121.0292315,-26.3671875,-56.15234375,-33.203125,-0.48828125,0.0,0.0,0.0,0.0,7.m4v,11.0
2024-02-28 14:48:41.033135,1709128121.0331354,-0.9765625,-39.55078125,-21.484375,48.33984375,0.0,0.0,0.0,0.0,7.m4v,11.0
2024-02-28 14:48:41.037039,1709128121.0370393,8.7890625,-10.7421875,-48.33984375,5.859375,0.0,0.0,0.0,0.0,7.m4v,11.0
2024-02-28 14:48:41.040943,1709128121.040943,1.953125,-4.39453125,-45.8984375,-55.17578125,0.0,0.0,0.0,0.0,7.m4v,11.0
2024-02-28 14:48:41.044880,1709128121.0448797,-13.18359375,-14.16015625,-46.875,-22.94921875,0.0,0.0,0.0,0.0,7.m4v,11.0
2024-02-28 14:48:41.048783,1709128121.0487833,-5.37109375,-27.83203125,-47.8515625,30.76171875,0.0,0.0,0.0,0.0,7.m4v,11.0
2024-02-28 14:48:41.052687,1709128121.0526872,-5.37109375,-46.875,-24.4140625,52.734375,0.0,0.0,0.0,0.0,7.m4v,11.0
2024-02-28 14:48:41.056591,1709128121.056591,-26.85546875,-37.109375,-15.625,27.34375,0.0,0.0,0.0,0.0,7.m4v,11.0
2024-02-28 14:48:41.060495,1709128121.060495,-18.06640625,-5.859375,19.53125,-16.6015625,0.0,0.0,0.0,0.0,7.m4v,11.0
2024-02-28 14:48:41.064399,1709128121.0643983,-2.44140625,-24.4140625,-4.39453125,16.6015625,0.0,0.0,0.0,0.0,7.m4v,11.0
2024-02-28 14:48:41.068302,1709128121.0683022,-17.578125,-77.1484375,-56.15234375,35.64453125,0.0,0.0,0.0,0.0,7.m4v,11.0
2024-02-28 14:48:41.072206,1709128121.072206,-18.06640625,-47.8515625,-78.61328125,50.29296875,0.0,0.0,0.0,0.0,7.m4v,11.0
2024-02-28 14:48:41.076110,1709128121.0761096,2.44140625,-7.8125,-75.1953125,46.38671875,0.0,0.0,0.0,0.0,7.m4v,11.0
2024-02-28 14:48:41.080014,1709128121.0800135,1.953125,-16.11328125,-36.1328125,-12.6953125,0.0,0.0,0.0,0.0,7.m4v,11.0
2024-02-28 14:48:41.083917,1709128121.0839171,-13.671875,-14.16015625,-15.625,-12.6953125,0.0,0.0,0.0,0.0,7.m4v,11.0
2024-02-28 14:48:41.087821,1709128121.087821,-28.80859375,-29.296875,-25.87890625,13.671875,0.0,0.0,0.0,0.0,7.m4v,11.0
2024-02-28 14:48:41.091756,1709128121.091756,-16.11328125,-41.50390625,-20.01953125,31.25,0.0,0.0,0.0,0.0,7.m4v,11.0
2024-02-28 14:48:41.095660,1709128121.09566,1.46484375,-22.94921875,-17.578125,21.97265625,0.0,0.0,0.0,0.0,7.m4v,11.0
2024-02-28 14:48:41.099564,1709128121.0995636,-6.34765625,-18.5546875,-33.203125,-30.76171875,0.0,0.0,0.0,0.0,7.m4v,11.0
2024-02-28 14:48:41.103467,1709128121.1034677,-20.5078125,-28.80859375,-47.8515625,-17.08984375,0.0,0.0,0.0,0.0,7.m4v,11.0
2024-02-28 14:48:41.107371,1709128121.107371,-42.48046875,-42.96875,-52.734375,24.4140625,0.0,0.0,0.0,0.0,7.m4v,11.0
2024-02-28 14:48:41.111275,1709128121.111275,-60.546875,-42.48046875,-20.5078125,55.17578125,0.0,0.0,0.0,0.0,7.m4v,11.0
2024-02-28 14:48:41.115179,1709128121.1151788,-37.59765625,-10.25390625,-43.9453125,47.8515625,0.0,0.0,0.0,0.0,7.m4v,11.0
2024-02-28 14:48:41.119082,1709128121.1190825,-20.99609375,-15.13671875,-45.8984375,1.46484375,0.0,0.0,0.0,0.0,7.m4v,11.0
2024-02-28 14:48:41.122986,1709128121.1229863,-36.1328125,-44.921875,-24.4140625,-1.46484375,0.0,0.0,0.0,0.0,7.m4v,11.0
2024-02-28 14:48:41.126890,1709128121.12689,-11.23046875,-44.921875,-17.578125,12.20703125,0.0,0.0,0.0,0.0,7.m4v,11.0
2024-02-28 14:48:41.130794,1709128121.1307938,-23.92578125,-27.34375,17.578125,55.17578125,0.0,0.0,0.0,0.0,7.m4v,11.0
2024-02-28 14:48:41.134697,1709128121.1346974,-74.70703125,-22.4609375,-15.625,51.26953125,0.0,0.0,0.0,0.0,7.m4v,11.0
2024-02-28 14:48:41.138631,1709128121.138631,-34.1796875,-10.7421875,-29.78515625,-4.39453125,0.0,0.0,0.0,0.0,7.m4v,11.0
2024-02-28 14:48:41.142535,1709128121.1425352,-54.6875,-5.859375,-16.6015625,1.46484375,0.0,0.0,0.0,0.0,7.m4v,11.0
2024-02-28 14:48:41.146439,1709128121.1464388,-88.37890625,-21.484375,-30.2734375,49.31640625,0.0,0.0,0.0,0.0,7.m4v,11.0
2024-02-28 14:48:41.150343,1709128121.1503427,-53.22265625,-19.53125,-42.48046875,106.4453125,0.0,0.0,0.0,0.0,7.m4v,11.0
2024-02-28 14:48:41.154246,1709128121.1542463,-26.3671875,-18.06640625,-48.828125,89.84375,0.0,0.0,0.0,0.0,7.m4v,11.0
2024-02-28 14:48:41.158150,1709128121.1581502,-34.66796875,-48.828125,-49.31640625,22.4609375,0.0,0.0,0.0,0.0,7.m4v,11.0
2024-02-28 14:48:41.162054,1709128121.162054,-19.53125,-38.0859375,-23.92578125,7.8125,0.0,0.0,0.0,0.0,7.m4v,11.0
2024-02-28 14:48:41.165958,1709128121.1659577,8.30078125,-0.48828125,1.46484375,33.69140625,0.0,0.0,0.0,0.0,7.m4v,11.0
2024-02-28 14:48:41.169862,1709128121.1698616,-19.04296875,-7.8125,-5.859375,60.05859375,0.0,0.0,0.0,0.0,7.m4v,11.0
2024-02-28 14:48:41.173765,1709128121.1737652,-75.68359375,-25.390625,-11.71875,32.71484375,0.0,0.0,0.0,0.0,7.m4v,11.0
2024-02-28 14:48:41.177669,1709128121.177669,-78.61328125,-30.2734375,-34.66796875,-34.1796875,0.0,0.0,0.0,0.0,7.m4v,11.0
2024-02-28 14:48:41.181573,1709128121.181573,-47.36328125,-43.9453125,-44.43359375,-66.40625,0.0,0.0,0.0,0.0,7.m4v,11.0
2024-02-28 14:48:41.185506,1709128121.185506,-45.8984375,-55.6640625,-76.171875,-40.0390625,0.0,0.0,0.0,0.0,7.m4v,11.0
2024-02-28 14:48:41.189410,1709128121.1894095,-31.25,-35.64453125,-38.57421875,33.203125,0.0,0.0,0.0,0.0,7.m4v,11.0
2024-02-28 14:48:41.193314,1709128121.1933136,-18.5546875,-22.94921875,4.8828125,35.64453125,0.0,0.0,0.0,0.0,7.m4v,11.0
2024-02-28 14:48:41.197217,1709128121.1972172,-35.15625,-31.25,-54.19921875,-36.1328125,0.0,0.0,0.0,0.0,7.m4v,11.0
2024-02-28 14:48:41.201121,1709128121.201121,-32.2265625,-37.59765625,-70.80078125,-68.84765625,0.0,0.0,0.0,0.0,7.m4v,11.0
2024-02-28 14:48:41.205025,1709128121.2050247,-23.4375,-22.94921875,-5.859375,-31.25,0.0,0.0,0.0,0.0,7.m4v,11.0
2024-02-28 14:48:41.208929,1709128121.2089286,-33.203125,-18.06640625,2.9296875,21.484375,0.0,0.0,0.0,0.0,7.m4v,11.0
2024-02-28 14:48:41.212832,1709128121.2128322,-38.0859375,-30.76171875,-62.5,14.6484375,0.0,0.0,0.0,0.0,7.m4v,11.0
2024-02-28 14:48:41.216736,1709128121.216736,-29.296875,-39.55078125,-87.40234375,-51.7578125,0.0,0.0,0.0,0.0,7.m4v,11.0
2024-02-28 14:48:41.220640,1709128121.2206397,-40.0390625,-53.7109375,-28.80859375,-80.078125,0.0,0.0,0.0,0.0,7.m4v,11.0
2024-02-28 14:48:41.224544,1709128121.2245436,-28.80859375,-43.9453125,-11.71875,-32.2265625,0.0,0.0,0.0,0.0,7.m4v,11.0
2024-02-28 14:48:41.228447,1709128121.2284474,-5.37109375,-18.06640625,-22.4609375,28.80859375,0.0,0.0,0.0,0.0,7.m4v,11.0
2024-02-28 14:48:41.232390,1709128121.23239,-42.48046875,-25.87890625,-35.64453125,56.15234375,0.0,0.0,0.0,0.0,7.m4v,11.0
2024-02-28 14:48:41.236294,1709128121.2362936,-67.3828125,-59.08203125,-47.8515625,0.0,0.0,0.0,0.0,0.0,7.m4v,11.0
2024-02-28 14:48:41.240197,1709128121.2401974,-75.68359375,-66.40625,-32.71484375,-67.87109375,0.0,0.0,0.0,0.0,7.m4v,11.0
2024-02-28 14:48:41.244101,1709128121.244101,-73.73046875,-39.55078125,-42.48046875,-51.7578125,0.0,0.0,0.0,0.0,7.m4v,11.0
2024-02-28 14:48:41.248005,1709128121.248005,-45.41015625,-29.78515625,-62.01171875,-5.859375,0.0,0.0,0.0,0.0,7.m4v,11.0
2024-02-28 14:48:41.251909,1709128121.2519083,-18.06640625,-34.1796875,-19.04296875,58.10546875,0.0,0.0,0.0,0.0,7.m4v,11.0
2024-02-28 14:48:41.255812,1709128121.2558124,-23.92578125,-35.15625,-2.44140625,63.4765625,0.0,0.0,0.0,0.0,7.m4v,11.0
2024-02-28 14:48:41.259716,1709128121.2597165,-39.55078125,-41.50390625,-55.17578125,-41.015625,0.0,0.0,0.0,0.0,7.m4v,11.0
2024-02-28 14:48:41.263620,1709128121.26362,-46.38671875,-43.9453125,-62.98828125,-76.171875,0.0,0.0,0.0,0.0,7.m4v,11.0
2024-02-28 14:48:41.267524,1709128121.2675238,-57.6171875,-54.6875,-41.50390625,-23.4375,0.0,0.0,0.0,0.0,7.m4v,11.0
2024-02-28 14:48:41.271427,1709128121.2714274,-26.3671875,-55.6640625,-51.7578125,33.203125,0.0,0.0,0.0,0.0,7.m4v,11.0
2024-02-28 14:48:41.275331,1709128121.2753313,9.765625,-31.73828125,-38.0859375,67.87109375,0.0,0.0,0.0,0.0,7.m4v,11.0
2024-02-28 14:48:41.279272,1709128121.2792718,-2.9296875,-9.765625,-25.390625,-2.44140625,0.0,0.0,0.0,0.0,7.m4v,11.0
2024-02-28 14:48:41.283175,1709128121.2831757,-24.90234375,-8.30078125,-43.9453125,-67.87109375,0.0,0.0,0.0,0.0,7.m4v,11.0
2024-02-28 14:48:41.287079,1709128121.287079,-60.05859375,-28.80859375,-39.0625,-61.5234375,0.0,0.0,0.0,0.0,7.m4v,11.0
2024-02-28 14:48:41.290983,1709128121.290983,-58.59375,-42.48046875,-16.11328125,2.44140625,0.0,0.0,0.0,0.0,7.m4v,11.0
2024-02-28 14:48:41.294887,1709128121.2948868,-23.4375,-46.875,-3.41796875,33.69140625,0.0,0.0,0.0,0.0,7.m4v,11.0
2024-02-28 14:48:41.298790,1709128121.2987905,-20.99609375,-58.10546875,-56.640625,-31.73828125,0.0,0.0,0.0,0.0,7.m4v,11.0
2024-02-28 14:48:41.302694,1709128121.3026943,-26.3671875,-42.96875,-63.4765625,-31.25,0.0,0.0,0.0,0.0,7.m4v,11.0
2024-02-28 14:48:41.306598,1709128121.3065982,-15.625,-28.80859375,-46.38671875,35.64453125,0.0,0.0,0.0,0.0,7.m4v,11.0
2024-02-28 14:48:41.310502,1709128121.3105018,-1.46484375,-29.296875,-83.49609375,72.265625,0.0,0.0,0.0,0.0,7.m4v,11.0
2024-02-28 14:48:41.314406,1709128121.3144057,-4.8828125,-32.2265625,-74.21875,89.84375,0.0,0.0,0.0,0.0,7.m4v,11.0
2024-02-28 14:48:41.318309,1709128121.3183093,0.0,-38.57421875,-22.94921875,78.61328125,0.0,0.0,0.0,0.0,7.m4v,11.0
2024-02-28 14:48:41.322213,1709128121.3222132,-27.34375,-34.66796875,-27.34375,47.8515625,0.0,0.0,0.0,0.0,7.m4v,11.0
2024-02-28 14:48:41.326153,1709128121.326153,-80.078125,-34.66796875,-15.13671875,41.9921875,0.0,0.0,0.0,0.0,7.m4v,11.0
2024-02-28 14:48:41.330057,1709128121.330057,-69.82421875,-46.875,6.8359375,87.40234375,0.0,0.0,0.0,0.0,7.m4v,11.0
2024-02-28 14:48:41.333961,1709128121.3339603,-30.76171875,-39.55078125,-40.0390625,129.39453125,0.0,0.0,0.0,0.0,7.m4v,11.0
2024-02-28 14:48:41.337864,1709128121.3378644,-39.0625,-48.828125,-72.75390625,82.51953125,0.0,0.0,0.0,0.0,7.m4v,11.0
2024-02-28 14:48:41.341768,1709128121.341768,-45.41015625,-57.12890625,-70.80078125,41.015625,0.0,0.0,0.0,0.0,7.m4v,11.0
2024-02-28 14:48:41.345672,1709128121.345672,-33.203125,-32.2265625,-44.43359375,38.0859375,0.0,0.0,0.0,0.0,7.m4v,11.0
2024-02-28 14:48:41.349576,1709128121.3495755,-43.9453125,-49.8046875,-13.671875,51.7578125,0.0,0.0,0.0,0.0,7.m4v,11.0
2024-02-28 14:48:41.353479,1709128121.3534794,-31.73828125,-49.8046875,-28.80859375,75.1953125,0.0,0.0,0.0,0.0,7.m4v,11.0
2024-02-28 14:48:41.357383,1709128121.357383,-26.3671875,-27.34375,-7.8125,39.0625,0.0,0.0,0.0,0.0,7.m4v,11.0
2024-02-28 14:48:41.361287,1709128121.3612869,-53.7109375,-47.8515625,-7.8125,-25.390625,0.0,0.0,0.0,0.0,7.m4v,11.0
2024-02-28 14:48:41.365191,1709128121.3651907,-78.125,-68.84765625,-39.55078125,16.11328125,0.0,0.0,0.0,0.0,7.m4v,11.0
2024-02-28 14:48:41.369094,1709128121.3690944,-71.2890625,-47.8515625,-51.7578125,92.28515625,0.0,0.0,0.0,0.0,7.m4v,11.0
2024-02-28 14:48:41.373032,1709128121.373032,-28.80859375,-29.296875,-49.8046875,94.23828125,0.0,0.0,0.0,0.0,7.m4v,11.0
2024-02-28 14:48:41.376936,1709128121.376936,-16.11328125,-39.55078125,-60.05859375,104.98046875,0.0,0.0,0.0,0.0,7.m4v,11.0
2024-02-28 14:48:41.380840,1709128121.3808396,-28.80859375,-33.69140625,-58.59375,102.05078125,0.0,0.0,0.0,0.0,7.m4v,11.0
2024-02-28 14:48:41.384743,1709128121.3847437,-47.8515625,-25.87890625,-18.06640625,44.43359375,0.0,0.0,0.0,0.0,7.m4v,11.0
2024-02-28 14:48:41.388647,1709128121.3886473,-38.0859375,-23.4375,1.953125,105.46875,0.0,0.0,0.0,0.0,7.m4v,11.0
2024-02-28 14:48:41.392551,1709128121.392551,-11.23046875,-19.04296875,-3.41796875,168.45703125,0.0,0.0,0.0,0.0,7.m4v,11.0
2024-02-28 14:48:41.396455,1709128121.3964548,-18.06640625,-25.390625,-20.5078125,143.06640625,0.0,0.0,0.0,0.0,7.m4v,11.0
2024-02-28 14:48:41.400358,1709128121.4003584,-38.0859375,-36.1328125,-29.296875,15.625,0.0,0.0,0.0,0.0,7.m4v,11.0
2024-02-28 14:48:41.404262,1709128121.4042623,-97.65625,-59.08203125,-59.08203125,-82.03125,0.0,0.0,0.0,0.0,7.m4v,11.0
2024-02-28 14:48:41.408166,1709128121.408166,-74.70703125,-60.05859375,-69.82421875,14.6484375,0.0,0.0,0.0,0.0,7.m4v,11.0
2024-02-28 14:48:41.412070,1709128121.4120698,-11.23046875,-34.1796875,-54.19921875,95.703125,0.0,0.0,0.0,0.0,7.m4v,11.0
2024-02-28 14:48:41.415973,1709128121.4159734,-30.76171875,-20.99609375,-32.71484375,0.48828125,0.0,0.0,0.0,0.0,7.m4v,11.0
2024-02-28 14:48:41.419911,1709128121.419911,-25.390625,-32.71484375,-30.2734375,-19.53125,0.0,0.0,0.0,0.0,7.m4v,11.0
2024-02-28 14:48:41.423815,1709128121.4238148,15.13671875,-60.546875,-8.30078125,30.2734375,0.0,0.0,0.0,0.0,7.m4v,11.0
2024-02-28 14:48:41.427718,1709128121.4277184,-17.578125,-37.59765625,-12.6953125,-81.0546875,0.0,0.0,0.0,0.0,7.m4v,11.0
2024-02-28 14:48:41.431622,1709128121.4316225,-82.03125,-10.25390625,-39.0625,-115.72265625,0.0,0.0,0.0,0.0,7.m4v,11.0
2024-02-28 14:48:41.435526,1709128121.435526,-88.37890625,-40.52734375,-43.45703125,-163.57421875,0.0,0.0,0.0,0.0,7.m4v,11.0
2024-02-28 14:48:41.439430,1709128121.4394298,-33.203125,-44.921875,-53.22265625,-184.5703125,0.0,0.0,0.0,0.0,7.m4v,11.0
2024-02-28 14:48:41.443333,1709128121.4433334,-25.390625,-22.4609375,-49.8046875,-111.328125,0.0,0.0,0.0,0.0,7.m4v,11.0
2024-02-28 14:48:41.447237,1709128121.4472373,-55.17578125,-46.38671875,-59.08203125,-101.5625,0.0,0.0,0.0,0.0,7.m4v,11.0
2024-02-28 14:48:41.451141,1709128121.451141,-34.66796875,-31.25,-44.921875,-154.296875,0.0,0.0,0.0,0.0,7.m4v,11.0
2024-02-28 14:48:41.455045,1709128121.4550447,-34.66796875,14.16015625,-31.73828125,-256.34765625,0.0,0.0,0.0,0.0,7.m4v,11.0
2024-02-28 14:48:41.458949,1709128121.4589486,-44.43359375,19.04296875,-29.78515625,-308.59375,0.0,0.0,0.0,0.0,7.m4v,11.0
2024-02-28 14:48:41.462852,1709128121.4628522,-52.24609375,4.8828125,-11.23046875,-288.0859375,0.0,0.0,0.0,0.0,7.m4v,11.0
2024-02-28 14:48:41.466788,1709128121.4667876,-77.63671875,-29.78515625,-7.32421875,-317.3828125,0.0,0.0,0.0,0.0,7.m4v,11.0
2024-02-28 14:48:41.470691,1709128121.4706914,-60.05859375,-41.9921875,-41.9921875,-329.1015625,0.0,0.0,0.0,0.0,7.m4v,11.0
2024-02-28 14:48:41.474595,1709128121.474595,-31.25,-52.24609375,-29.78515625,-287.109375,0.0,0.0,0.0,0.0,7.m4v,11.0
2024-02-28 14:48:41.478499,1709128121.478499,-39.0625,-50.29296875,-14.6484375,-339.84375,0.0,0.0,0.0,0.0,7.m4v,11.0
2024-02-28 14:48:41.482403,1709128121.4824028,-58.10546875,-39.55078125,-54.6875,-412.59765625,0.0,0.0,0.0,0.0,7.m4v,11.0
2024-02-28 14:48:41.486306,1709128121.4863064,-47.36328125,-19.53125,-54.19921875,-346.6796875,0.0,0.0,0.0,0.0,7.m4v,11.0
2024-02-28 14:48:41.490210,1709128121.4902103,-27.34375,0.48828125,-54.19921875,-281.25,0.0,0.0,0.0,0.0,7.m4v,11.0
2024-02-28 14:48:41.494114,1709128121.494114,-39.55078125,-13.671875,-59.5703125,-317.3828125,0.0,0.0,0.0,0.0,7.m4v,11.0
2024-02-28 14:48:41.498018,1709128121.4980178,-58.59375,-24.4140625,-17.578125,-385.7421875,0.0,0.0,0.0,0.0,7.m4v,11.0
2024-02-28 14:48:41.501921,1709128121.5019214,-66.40625,-24.4140625,-3.90625,-402.83203125,0.0,0.0,0.0,0.0,7.m4v,11.0
2024-02-28 14:48:41.505825,1709128121.5058253,-69.3359375,-13.671875,-11.71875,-358.88671875,0.0,0.0,0.0,0.0,7.m4v,11.0
2024-02-28 14:48:41.509729,1709128121.5097291,-78.61328125,-30.2734375,-48.828125,-314.453125,0.0,0.0,0.0,0.0,7.m4v,11.0
2024-02-28 14:48:41.513663,1709128121.5136628,-51.7578125,-45.8984375,-49.31640625,-246.58203125,0.0,0.0,0.0,0.0,7.m4v,11.0
2024-02-28 14:48:41.517567,1709128121.5175667,-18.06640625,-19.53125,-16.11328125,-256.34765625,0.0,0.0,0.0,0.0,7.m4v,11.0
2024-02-28 14:48:41.521470,1709128121.5214703,-43.45703125,-28.80859375,-20.99609375,-336.42578125,0.0,0.0,0.0,0.0,7.m4v,11.0
2024-02-28 14:48:41.525374,1709128121.5253742,-41.015625,-42.96875,-48.828125,-283.203125,0.0,0.0,0.0,0.0,7.m4v,11.0
2024-02-28 14:48:41.529278,1709128121.5292778,-20.99609375,-32.2265625,-87.890625,-184.08203125,0.0,0.0,0.0,0.0,7.m4v,11.0
2024-02-28 14:48:41.533182,1709128121.5331817,-43.9453125,-26.85546875,-61.03515625,-220.703125,0.0,0.0,0.0,0.0,7.m4v,11.0
2024-02-28 14:48:41.537085,1709128121.5370853,-62.5,-45.8984375,-32.2265625,-300.78125,0.0,0.0,0.0,0.0,7.m4v,11.0
2024-02-28 14:48:41.540989,1709128121.5409892,-73.2421875,-69.3359375,-37.109375,-321.77734375,0.0,0.0,0.0,0.0,7.m4v,11.0
2024-02-28 14:48:41.544893,1709128121.544893,-52.24609375,-41.015625,-1.46484375,-254.39453125,0.0,0.0,0.0,0.0,7.m4v,11.0
2024-02-28 14:48:41.548797,1709128121.548797,-39.55078125,-27.83203125,12.20703125,-167.48046875,0.0,0.0,0.0,0.0,7.m4v,11.0
2024-02-28 14:48:41.552701,1709128121.5527003,-41.50390625,-58.10546875,-26.85546875,-145.01953125,0.0,0.0,0.0,0.0,7.m4v,11.0
2024-02-28 14:48:41.556604,1709128121.556604,-36.1328125,-65.4296875,-33.69140625,-188.96484375,0.0,0.0,0.0,0.0,7.m4v,11.0
2024-02-28 14:48:41.560537,1709128121.5605369,-32.71484375,-44.921875,-1.46484375,-193.359375,0.0,0.0,0.0,0.0,7.m4v,11.0
2024-02-28 14:48:41.564440,1709128121.5644405,-30.76171875,-35.15625,-23.92578125,-162.109375,0.0,0.0,0.0,0.0,7.m4v,11.0
2024-02-28 14:48:41.568344,1709128121.5683444,-44.43359375,-36.62109375,-50.29296875,-94.7265625,0.0,0.0,0.0,0.0,7.m4v,11.0
2024-02-28 14:48:41.572248,1709128121.5722482,-34.1796875,-49.8046875,-48.828125,-33.69140625,0.0,0.0,0.0,0.0,7.m4v,11.0
2024-02-28 14:48:41.576152,1709128121.5761518,-13.18359375,-31.73828125,-36.1328125,-110.3515625,0.0,0.0,0.0,0.0,7.m4v,11.0
2024-02-28 14:48:41.580056,1709128121.5800557,-20.5078125,-20.99609375,-8.30078125,-181.15234375,0.0,0.0,0.0,0.0,7.m4v,11.0
2024-02-28 14:48:41.583959,1709128121.583959,-46.38671875,-47.36328125,-66.89453125,-173.828125,0.0,0.0,0.0,0.0,7.m4v,11.0
2024-02-28 14:48:41.587863,1709128121.5878632,-62.98828125,-62.01171875,-75.1953125,-138.18359375,0.0,0.0,0.0,0.0,7.m4v,11.0
2024-02-28 14:48:41.591767,1709128121.5917668,-54.19921875,-67.3828125,-18.06640625,-96.6796875,0.0,0.0,0.0,0.0,7.m4v,11.0
2024-02-28 14:48:41.595671,1709128121.5956707,-37.59765625,-55.17578125,-13.671875,-111.81640625,0.0,0.0,0.0,0.0,7.m4v,11.0
2024-02-28 14:48:41.599575,1709128121.5995746,-15.13671875,-46.875,-6.8359375,-166.015625,0.0,0.0,0.0,0.0,7.m4v,11.0
2024-02-28 14:48:41.603478,1709128121.6034782,-20.01953125,-37.109375,-46.38671875,-139.16015625,0.0,0.0,0.0,0.0,7.m4v,11.0
2024-02-28 14:48:41.607420,1709128121.6074202,-29.296875,-39.0625,-53.7109375,-59.5703125,0.0,0.0,0.0,0.0,7.m4v,11.0
2024-02-28 14:48:41.611324,1709128121.6113238,-16.11328125,-82.03125,-28.3203125,-47.8515625,0.0,0.0,0.0,0.0,7.m4v,11.0
2024-02-28 14:48:41.615228,1709128121.6152277,-37.109375,-61.03515625,-21.484375,-130.859375,0.0,0.0,0.0,0.0,7.m4v,11.0
2024-02-28 14:48:41.619131,1709128121.619131,-67.87109375,-29.78515625,-34.66796875,-189.94140625,0.0,0.0,0.0,0.0,7.m4v,11.0
2024-02-28 14:48:41.623035,1709128121.6230352,-44.921875,-49.31640625,-55.6640625,-180.17578125,0.0,0.0,0.0,0.0,7.m4v,11.0
2024-02-28 14:48:41.626939,1709128121.626939,-9.765625,-14.6484375,0.0,-128.90625,0.0,0.0,0.0,0.0,7.m4v,11.0
2024-02-28 14:48:41.630843,1709128121.6308427,-10.7421875,14.6484375,-6.8359375,-61.03515625,0.0,0.0,0.0,0.0,7.m4v,11.0
2024-02-28 14:48:41.634747,1709128121.6347466,-30.76171875,-23.4375,-58.59375,-107.421875,0.0,0.0,0.0,0.0,7.m4v,11.0
2024-02-28 14:48:41.638650,1709128121.6386502,-25.390625,-31.25,-35.15625,-168.45703125,0.0,0.0,0.0,0.0,7.m4v,11.0
2024-02-28 14:48:41.642554,1709128121.642554,-17.578125,-13.671875,-36.62109375,-135.25390625,0.0,0.0,0.0,0.0,7.m4v,11.0
2024-02-28 14:48:41.646458,1709128121.646458,-40.52734375,-39.0625,-62.01171875,-82.03125,0.0,0.0,0.0,0.0,7.m4v,11.0
2024-02-28 14:48:41.650362,1709128121.6503615,-35.64453125,-50.29296875,-25.87890625,-84.47265625,0.0,0.0,0.0,0.0,7.m4v,11.0
2024-02-28 14:48:41.654303,1709128121.6543028,-7.8125,-46.875,9.765625,-68.84765625,0.0,0.0,0.0,0.0,7.m4v,11.0
2024-02-28 14:48:41.658206,1709128121.6582065,-1.46484375,-60.05859375,-49.8046875,-91.30859375,0.0,0.0,0.0,0.0,7.m4v,11.0
2024-02-28 14:48:41.662110,1709128121.6621103,-10.25390625,-51.7578125,-47.8515625,-72.265625,0.0,0.0,0.0,0.0,7.m4v,11.0
2024-02-28 14:48:41.666014,1709128121.6660142,-16.11328125,-47.36328125,-10.25390625,11.71875,0.0,0.0,0.0,0.0,7.m4v,11.0
2024-02-28 14:48:41.669918,1709128121.6699178,-18.06640625,-29.296875,-41.50390625,-99.609375,0.0,0.0,0.0,0.0,7.m4v,11.0
2024-02-28 14:48:41.673822,1709128121.6738217,-27.83203125,-7.8125,-26.85546875,-81.54296875,0.0,0.0,0.0,0.0,7.m4v,11.0
2024-02-28 14:48:41.677725,1709128121.6777253,-25.87890625,-56.15234375,-20.99609375,-110.83984375,0.0,0.0,0.0,0.0,7.m4v,11.0
2024-02-28 14:48:41.681629,1709128121.6816292,-32.2265625,-61.5234375,-24.4140625,-214.84375,0.0,0.0,0.0,0.0,7.m4v,11.0
2024-02-28 14:48:41.685533,1709128121.6855328,-68.359375,-3.90625,-59.08203125,-171.875,0.0,0.0,0.0,0.0,7.m4v,11.0
2024-02-28 14:48:41.689437,1709128121.689437,-73.2421875,-4.8828125,-61.03515625,-104.4921875,0.0,0.0,0.0,0.0,7.m4v,11.0
2024-02-28 14:48:41.693341,1709128121.6933403,-49.8046875,-57.12890625,-23.4375,-62.5,0.0,0.0,0.0,0.0,7.m4v,11.0
2024-02-28 14:48:41.697244,1709128121.6972442,-21.97265625,-15.625,-25.390625,-59.5703125,0.0,0.0,0.0,0.0,7.m4v,11.0
2024-02-28 14:48:41.701183,1709128121.7011833,0.9765625,6.8359375,-10.7421875,-89.35546875,0.0,0.0,0.0,0.0,7.m4v,11.0
2024-02-28 14:48:41.705087,1709128121.7050872,-19.53125,-71.77734375,-37.59765625,-100.09765625,0.0,0.0,0.0,0.0,7.m4v,11.0
2024-02-28 14:48:41.708991,1709128121.7089908,-43.9453125,-44.921875,-38.0859375,-58.59375,0.0,0.0,0.0,0.0,7.m4v,11.0
2024-02-28 14:48:41.712895,1709128121.712895,-60.546875,-19.04296875,-0.48828125,-61.03515625,0.0,0.0,0.0,0.0,7.m4v,11.0
2024-02-28 14:48:41.716798,1709128121.7167983,-30.76171875,-90.33203125,-20.99609375,-137.20703125,0.0,0.0,0.0,0.0,7.m4v,11.0
2024-02-28 14:48:41.720702,1709128121.7207022,-8.30078125,-43.9453125,-41.015625,-120.60546875,0.0,0.0,0.0,0.0,7.m4v,11.0
2024-02-28 14:48:41.724606,1709128121.724606,-61.03515625,41.50390625,-56.640625,-128.41796875,0.0,0.0,0.0,0.0,7.m4v,11.0
2024-02-28 14:48:41.728510,1709128121.7285097,-82.51953125,39.55078125,-73.2421875,-145.99609375,0.0,0.0,0.0,0.0,7.m4v,11.0
2024-02-28 14:48:41.732414,1709128121.7324135,-56.15234375,18.5546875,-41.015625,-74.21875,0.0,0.0,0.0,0.0,7.m4v,11.0
2024-02-28 14:48:41.736317,1709128121.7363172,-34.66796875,-10.25390625,-23.92578125,-70.80078125,0.0,0.0,0.0,0.0,7.m4v,11.0
2024-02-28 14:48:41.740221,1709128121.740221,-27.34375,-80.078125,-85.44921875,-155.2734375,0.0,0.0,0.0,0.0,7.m4v,11.0
2024-02-28 14:48:41.744125,1709128121.744125,-27.83203125,-104.98046875,-82.03125,-197.265625,0.0,0.0,0.0,0.0,7.m4v,11.0
2024-02-28 14:48:41.748063,1709128121.7480626,-32.71484375,-23.92578125,-16.11328125,-133.7890625,0.0,0.0,0.0,0.0,7.m4v,11.0
2024-02-28 14:48:41.751966,1709128121.7519665,-41.015625,46.38671875,-23.4375,-110.3515625,0.0,0.0,0.0,0.0,7.m4v,11.0
2024-02-28 14:48:41.755870,1709128121.75587,-67.87109375,18.5546875,-69.82421875,-158.203125,0.0,0.0,0.0,0.0,7.m4v,11.0
2024-02-28 14:48:41.759774,1709128121.759774,-76.171875,-17.578125,-46.38671875,-232.421875,0.0,0.0,0.0,0.0,7.m4v,11.0
2024-02-28 14:48:41.763678,1709128121.7636778,-57.6171875,-30.2734375,-33.203125,-133.7890625,0.0,0.0,0.0,0.0,7.m4v,11.0
2024-02-28 14:48:41.767581,1709128121.7675817,-32.71484375,-42.96875,-32.2265625,-66.89453125,0.0,0.0,0.0,0.0,7.m4v,11.0
2024-02-28 14:48:41.771485,1709128121.771485,-6.34765625,-15.13671875,-20.99609375,-122.55859375,0.0,0.0,0.0,0.0,7.m4v,11.0
2024-02-28 14:48:41.775389,1709128121.775389,14.16015625,-15.625,1.953125,-113.28125,0.0,0.0,0.0,0.0,7.m4v,11.0
2024-02-28 14:48:41.779293,1709128121.7792928,-27.83203125,-71.77734375,-1.953125,-182.6171875,0.0,0.0,0.0,0.0,7.m4v,11.0
2024-02-28 14:48:41.783196,1709128121.7831964,-51.7578125,-65.4296875,-26.3671875,-199.21875,0.0,0.0,0.0,0.0,7.m4v,11.0
2024-02-28 14:48:41.787100,1709128121.7871003,-55.17578125,-15.625,-50.29296875,-169.43359375,0.0,0.0,0.0,0.0,7.m4v,11.0
2024-02-28 14:48:41.791004,1709128121.7910042,-56.15234375,-1.953125,-35.64453125,-123.046875,0.0,0.0,0.0,0.0,7.m4v,11.0
2024-02-28 14:48:41.794941,1709128121.7949407,-35.15625,-30.2734375,-41.9921875,-86.9140625,0.0,0.0,0.0,0.0,7.m4v,11.0
2024-02-28 14:48:41.798844,1709128121.7988443,-38.0859375,-29.78515625,-95.703125,-141.6015625,0.0,0.0,0.0,0.0,7.m4v,11.0
2024-02-28 14:48:41.802748,1709128121.8027482,-47.36328125,-1.46484375,-86.42578125,-137.6953125,0.0,0.0,0.0,0.0,7.m4v,11.0
2024-02-28 14:48:41.806652,1709128121.806652,-49.8046875,-5.859375,-26.85546875,-88.37890625,0.0,0.0,0.0,0.0,7.m4v,11.0
2024-02-28 14:48:41.810556,1709128121.8105557,-54.19921875,-30.76171875,10.25390625,-47.36328125,0.0,0.0,0.0,0.0,7.m4v,11.0
2024-02-28 14:48:41.814460,1709128121.8144596,-48.828125,-50.78125,-22.4609375,-43.9453125,0.0,0.0,0.0,0.0,7.m4v,11.0
2024-02-28 14:48:41.818363,1709128121.8183632,-14.16015625,-42.96875,-28.3203125,-85.44921875,0.0,0.0,0.0,0.0,7.m4v,11.0
2024-02-28 14:48:41.822267,1709128121.822267,22.4609375,-27.34375,-7.8125,-53.22265625,0.0,0.0,0.0,0.0,7.m4v,11.0
2024-02-28 14:48:41.826171,1709128121.826171,20.99609375,-23.92578125,-14.16015625,-42.96875,0.0,0.0,0.0,0.0,7.m4v,11.0
2024-02-28 14:48:41.830075,1709128121.8300743,-8.30078125,-35.64453125,-31.25,47.36328125,0.0,0.0,0.0,0.0,7.m4v,11.0
2024-02-28 14:48:41.833978,1709128121.8339784,-18.06640625,-53.22265625,-31.73828125,-8.30078125,0.0,0.0,0.0,0.0,7.m4v,11.0
2024-02-28 14:48:41.837882,1709128121.837882,-12.20703125,-30.76171875,-31.73828125,-162.109375,0.0,0.0,0.0,0.0,7.m4v,11.0
2024-02-28 14:48:41.841818,1709128121.841818,-13.18359375,-32.71484375,-74.21875,-100.5859375,0.0,0.0,0.0,0.0,7.m4v,11.0
2024-02-28 14:48:41.845722,1709128121.8457215,-6.8359375,-55.17578125,-64.453125,-23.4375,0.0,0.0,0.0,0.0,7.m4v,11.0
2024-02-28 14:48:41.849626,1709128121.8496256,1.953125,-7.32421875,4.39453125,28.3203125,0.0,0.0,0.0,0.0,7.m4v,11.0
2024-02-28 14:48:41.853529,1709128121.8535297,-7.32421875,0.9765625,-9.765625,18.5546875,0.0,0.0,0.0,0.0,7.m4v,11.0
2024-02-28 14:48:41.857433,1709128121.857433,-17.578125,-26.85546875,-45.8984375,-37.59765625,0.0,0.0,0.0,0.0,7.m4v,11.0
2024-02-28 14:48:41.861337,1709128121.861337,-5.859375,4.39453125,-67.87109375,-32.2265625,0.0,0.0,0.0,0.0,7.m4v,11.0
2024-02-28 14:48:41.865241,1709128121.8652406,-7.8125,4.8828125,-31.25,-8.7890625,0.0,0.0,0.0,0.0,7.m4v,11.0
2024-02-28 14:48:41.869144,1709128121.8691444,-18.5546875,-16.11328125,-5.37109375,-12.6953125,0.0,0.0,0.0,0.0,7.m4v,11.0
2024-02-28 14:48:41.873048,1709128121.8730483,-13.671875,3.90625,-9.765625,44.921875,0.0,0.0,0.0,0.0,7.m4v,11.0
2024-02-28 14:48:41.876952,1709128121.876952,-22.4609375,-38.0859375,-15.625,-2.44140625,0.0,0.0,0.0,0.0,7.m4v,11.0
2024-02-28 14:48:41.880856,1709128121.8808558,-45.8984375,-50.29296875,-79.1015625,-121.09375,0.0,0.0,0.0,0.0,7.m4v,11.0
2024-02-28 14:48:41.884759,1709128121.8847594,-62.98828125,-33.203125,-54.6875,-97.65625,0.0,0.0,0.0,0.0,7.m4v,11.0
2024-02-28 14:48:41.888695,1709128121.8886948,-41.015625,-64.94140625,-22.94921875,-22.4609375,0.0,0.0,0.0,0.0,7.m4v,11.0
2024-02-28 14:48:41.892599,1709128121.8925986,-2.44140625,-30.76171875,-26.85546875,35.64453125,0.0,0.0,0.0,0.0,7.m4v,11.0
2024-02-28 14:48:41.896502,1709128121.8965025,-47.36328125,0.0,16.6015625,-20.5078125,0.0,0.0,0.0,0.0,7.m4v,11.0
