Timestamp,Timestamp_UNIX,TP9,AF7,AF8,TP10,Valence,Arousal,Dominace,Viewed,Video,Participant
2024-02-28 13:16:14.001539,1709122574.0015388,-34.1796875,-37.59765625,-36.1328125,-24.4140625,-1.0,0.0,0.0,0.0,1.m4v,10.0
2024-02-28 13:16:14.005444,1709122574.005444,-31.25,-38.0859375,-31.25,-26.3671875,-1.0,0.0,0.0,0.0,1.m4v,10.0
2024-02-28 13:16:14.009349,1709122574.009349,-23.4375,-37.109375,-36.62109375,-23.4375,-1.0,0.0,0.0,0.0,1.m4v,10.0
2024-02-28 13:16:14.013254,1709122574.0132544,-24.90234375,-40.52734375,-39.0625,-30.76171875,-1.0,0.0,0.0,0.0,1.m4v,10.0
2024-02-28 13:16:14.017159,1709122574.0171597,-33.69140625,-39.0625,-38.57421875,-33.203125,-1.0,0.0,0.0,0.0,1.m4v,10.0
2024-02-28 13:16:14.021065,1709122574.0210648,-29.296875,-36.1328125,-36.1328125,-30.76171875,-1.0,0.0,0.0,0.0,1.m4v,10.0
2024-02-28 13:16:14.024970,1709122574.02497,-27.83203125,-37.59765625,-35.64453125,-30.76171875,-1.0,0.0,0.0,0.0,1.m4v,10.0
2024-02-28 13:16:14.028882,1709122574.0288825,-33.69140625,-35.64453125,-37.109375,-29.78515625,-1.0,0.0,0.0,0.0,1.m4v,10.0
2024-02-28 13:16:14.032788,1709122574.0327876,-28.3203125,-31.73828125,-33.203125,-26.85546875,-1.0,0.0,0.0,0.0,1.m4v,10.0
2024-02-28 13:16:14.036693,1709122574.0366929,-21.484375,-33.203125,-36.1328125,-26.3671875,-1.0,0.0,0.0,0.0,1.m4v,10.0
2024-02-28 13:16:14.040598,1709122574.040598,-23.92578125,-33.69140625,-40.52734375,-24.4140625,-1.0,0.0,0.0,0.0,1.m4v,10.0
2024-02-28 13:16:14.044503,1709122574.0445032,-26.85546875,-30.2734375,-37.109375,-29.296875,-1.0,0.0,0.0,0.0,1.m4v,10.0
2024-02-28 13:16:14.048408,1709122574.0484085,-20.99609375,-30.76171875,-33.69140625,-30.2734375,-1.0,0.0,0.0,0.0,1.m4v,10.0
2024-02-28 13:16:14.052314,1709122574.0523136,-19.04296875,-31.25,-35.64453125,-25.390625,-1.0,0.0,0.0,0.0,1.m4v,10.0
2024-02-28 13:16:14.056219,1709122574.0562189,-20.99609375,-31.73828125,-34.66796875,-25.390625,-1.0,0.0,0.0,0.0,1.m4v,10.0
2024-02-28 13:16:14.060124,1709122574.060124,-22.94921875,-33.203125,-27.83203125,-25.390625,-1.0,0.0,0.0,0.0,1.m4v,10.0
2024-02-28 13:16:14.064029,1709122574.0640292,-29.296875,-28.3203125,-28.3203125,-24.90234375,-1.0,0.0,0.0,0.0,1.m4v,10.0
2024-02-28 13:16:14.067934,1709122574.0679345,-40.52734375,-26.3671875,-34.1796875,-25.390625,-1.0,0.0,0.0,0.0,1.m4v,10.0
2024-02-28 13:16:14.071840,1709122574.0718396,-39.55078125,-30.2734375,-34.1796875,-34.1796875,-1.0,0.0,0.0,0.0,1.m4v,10.0
2024-02-28 13:16:14.075751,1709122574.0757506,-35.64453125,-32.2265625,-35.64453125,-39.0625,-1.0,0.0,0.0,0.0,1.m4v,10.0
2024-02-28 13:16:14.079656,1709122574.079656,-40.52734375,-32.2265625,-35.15625,-37.59765625,-1.0,0.0,0.0,0.0,1.m4v,10.0
2024-02-28 13:16:14.083561,1709122574.083561,-41.015625,-34.1796875,-36.1328125,-35.64453125,-1.0,0.0,0.0,0.0,1.m4v,10.0
2024-02-28 13:16:14.087466,1709122574.0874662,-36.1328125,-40.0390625,-40.0390625,-24.4140625,-1.0,0.0,0.0,0.0,1.m4v,10.0
2024-02-28 13:16:14.091371,1709122574.0913713,-31.25,-40.0390625,-36.62109375,-17.578125,-1.0,0.0,0.0,0.0,1.m4v,10.0
2024-02-28 13:16:14.095277,1709122574.0952766,-30.76171875,-38.0859375,-35.64453125,-32.71484375,-1.0,0.0,0.0,0.0,1.m4v,10.0
2024-02-28 13:16:14.099182,1709122574.099182,-25.390625,-34.66796875,-38.0859375,-34.66796875,-1.0,0.0,0.0,0.0,1.m4v,10.0
2024-02-28 13:16:14.103087,1709122574.103087,-18.06640625,-31.73828125,-38.57421875,-27.34375,-1.0,0.0,0.0,0.0,1.m4v,10.0
2024-02-28 13:16:14.106992,1709122574.1069922,-17.578125,-29.78515625,-33.69140625,-35.64453125,-1.0,0.0,0.0,0.0,1.m4v,10.0
2024-02-28 13:16:14.110897,1709122574.1108973,-15.13671875,-29.78515625,-29.296875,-41.015625,-1.0,0.0,0.0,0.0,1.m4v,10.0
2024-02-28 13:16:14.114803,1709122574.1148026,-17.578125,-27.83203125,-29.78515625,-39.0625,-1.0,0.0,0.0,0.0,1.m4v,10.0
2024-02-28 13:16:14.118708,1709122574.1187077,-19.53125,-20.99609375,-27.83203125,-24.90234375,-1.0,0.0,0.0,0.0,1.m4v,10.0
2024-02-28 13:16:14.122624,1709122574.122624,-20.5078125,-20.5078125,-25.87890625,-28.80859375,-1.0,0.0,0.0,0.0,1.m4v,10.0
2024-02-28 13:16:14.126529,1709122574.126529,-28.3203125,-26.85546875,-33.69140625,-42.48046875,-1.0,0.0,0.0,0.0,1.m4v,10.0
2024-02-28 13:16:14.130434,1709122574.1304345,-26.3671875,-27.34375,-38.0859375,-31.73828125,-1.0,0.0,0.0,0.0,1.m4v,10.0
2024-02-28 13:16:14.134339,1709122574.134339,-26.85546875,-26.3671875,-37.59765625,-29.296875,-1.0,0.0,0.0,0.0,1.m4v,10.0
2024-02-28 13:16:14.138245,1709122574.1382446,-27.83203125,-23.92578125,-38.57421875,-35.15625,-1.0,0.0,0.0,0.0,1.m4v,10.0
2024-02-28 13:16:14.142150,1709122574.14215,-33.203125,-23.92578125,-35.64453125,-32.71484375,-1.0,0.0,0.0,0.0,1.m4v,10.0
2024-02-28 13:16:14.146055,1709122574.146055,-27.83203125,-22.94921875,-33.203125,-36.1328125,-1.0,0.0,0.0,0.0,1.m4v,10.0
2024-02-28 13:16:14.149960,1709122574.1499605,-27.34375,-22.4609375,-30.2734375,-35.64453125,-1.0,0.0,0.0,0.0,1.m4v,10.0
2024-02-28 13:16:14.153865,1709122574.153865,-33.203125,-30.76171875,-29.296875,-27.34375,-1.0,0.0,0.0,0.0,1.m4v,10.0
2024-02-28 13:16:14.157771,1709122574.1577706,-32.71484375,-36.62109375,-33.203125,-27.34375,-1.0,0.0,0.0,0.0,1.m4v,10.0
2024-02-28 13:16:14.161676,1709122574.161676,-34.1796875,-35.64453125,-37.59765625,-26.3671875,-1.0,0.0,0.0,0.0,1.m4v,10.0
2024-02-28 13:16:14.165581,1709122574.165581,-37.109375,-30.76171875,-35.64453125,-24.90234375,-1.0,0.0,0.0,0.0,1.m4v,10.0
2024-02-28 13:16:14.169496,1709122574.1694963,-38.57421875,-28.80859375,-31.25,-30.2734375,-1.0,0.0,0.0,0.0,1.m4v,10.0
2024-02-28 13:16:14.173402,1709122574.1734016,-37.59765625,-27.34375,-31.25,-31.25,-1.0,0.0,0.0,0.0,1.m4v,10.0
2024-02-28 13:16:14.177307,1709122574.177307,-38.0859375,-27.83203125,-35.64453125,-30.76171875,-1.0,0.0,0.0,0.0,1.m4v,10.0
2024-02-28 13:16:14.181212,1709122574.181212,-37.59765625,-29.78515625,-34.66796875,-35.64453125,-1.0,0.0,0.0,0.0,1.m4v,10.0
2024-02-28 13:16:14.185117,1709122574.185117,-34.66796875,-28.3203125,-28.80859375,-34.1796875,-1.0,0.0,0.0,0.0,1.m4v,10.0
2024-02-28 13:16:14.189022,1709122574.1890223,-29.78515625,-24.4140625,-23.4375,-26.3671875,-1.0,0.0,0.0,0.0,1.m4v,10.0
2024-02-28 13:16:14.192927,1709122574.1929274,-28.80859375,-22.94921875,-26.3671875,-22.94921875,-1.0,0.0,0.0,0.0,1.m4v,10.0
2024-02-28 13:16:14.196833,1709122574.196833,-31.25,-27.34375,-28.80859375,-18.06640625,-1.0,0.0,0.0,0.0,1.m4v,10.0
2024-02-28 13:16:14.200738,1709122574.200738,-32.2265625,-30.2734375,-33.203125,-22.94921875,-1.0,0.0,0.0,0.0,1.m4v,10.0
2024-02-28 13:16:14.204643,1709122574.204643,-32.71484375,-33.203125,-36.62109375,-23.92578125,-1.0,0.0,0.0,0.0,1.m4v,10.0
2024-02-28 13:16:14.208548,1709122574.2085483,-34.66796875,-34.66796875,-35.15625,-23.4375,-1.0,0.0,0.0,0.0,1.m4v,10.0
2024-02-28 13:16:14.212453,1709122574.2124534,-35.15625,-33.69140625,-32.71484375,-30.76171875,-1.0,0.0,0.0,0.0,1.m4v,10.0
2024-02-28 13:16:14.216368,1709122574.2163684,-28.80859375,-32.2265625,-33.203125,-30.76171875,-1.0,0.0,0.0,0.0,1.m4v,10.0
2024-02-28 13:16:14.220273,1709122574.2202735,-30.2734375,-36.1328125,-35.64453125,-28.3203125,-1.0,0.0,0.0,0.0,1.m4v,10.0
2024-02-28 13:16:14.224179,1709122574.2241788,-36.62109375,-41.50390625,-32.71484375,-27.83203125,-1.0,0.0,0.0,0.0,1.m4v,10.0
2024-02-28 13:16:14.228084,1709122574.228084,-31.25,-36.1328125,-35.64453125,-32.71484375,-1.0,0.0,0.0,0.0,1.m4v,10.0
2024-02-28 13:16:14.231989,1709122574.2319891,-38.0859375,-36.1328125,-35.15625,-37.59765625,-1.0,0.0,0.0,0.0,1.m4v,10.0
2024-02-28 13:16:14.235894,1709122574.2358944,-43.9453125,-39.0625,-27.83203125,-32.71484375,-1.0,0.0,0.0,0.0,1.m4v,10.0
2024-02-28 13:16:14.239799,1709122574.2397995,-35.64453125,-38.57421875,-28.3203125,-33.69140625,-1.0,0.0,0.0,0.0,1.m4v,10.0
2024-02-28 13:16:14.243705,1709122574.2437048,-12.6953125,-31.25,-33.69140625,-16.6015625,-1.0,0.0,0.0,0.0,1.m4v,10.0
2024-02-28 13:16:14.247610,1709122574.24761,-14.6484375,-28.80859375,-34.1796875,-15.625,-1.0,0.0,0.0,0.0,1.m4v,10.0
2024-02-28 13:16:14.251515,1709122574.2515152,-44.43359375,-37.109375,-31.73828125,-40.52734375,-1.0,0.0,0.0,0.0,1.m4v,10.0
2024-02-28 13:16:14.255420,1709122574.2554204,-52.734375,-36.62109375,-31.73828125,-52.734375,-1.0,0.0,0.0,0.0,1.m4v,10.0
2024-02-28 13:16:14.259326,1709122574.2593255,-55.17578125,-34.66796875,-30.2734375,-59.08203125,-1.0,0.0,0.0,0.0,1.m4v,10.0
2024-02-28 13:16:14.263240,1709122574.26324,-61.5234375,-38.57421875,-28.3203125,-56.15234375,-1.0,0.0,0.0,0.0,1.m4v,10.0
2024-02-28 13:16:14.267145,1709122574.2671454,-62.98828125,-41.50390625,-30.2734375,-56.640625,-1.0,0.0,0.0,0.0,1.m4v,10.0
2024-02-28 13:16:14.271050,1709122574.2710505,-73.2421875,-38.57421875,-29.296875,-62.5,-1.0,0.0,0.0,0.0,1.m4v,10.0
2024-02-28 13:16:14.274956,1709122574.2749555,-85.9375,-41.50390625,-27.83203125,-66.40625,-1.0,0.0,0.0,0.0,1.m4v,10.0
2024-02-28 13:16:14.278861,1709122574.278861,-73.2421875,-38.57421875,-29.296875,-60.546875,-1.0,0.0,0.0,0.0,1.m4v,10.0
2024-02-28 13:16:14.282766,1709122574.282766,-62.01171875,-36.1328125,-31.73828125,-52.24609375,-1.0,0.0,0.0,0.0,1.m4v,10.0
2024-02-28 13:16:14.286671,1709122574.2866714,-62.98828125,-42.96875,-32.71484375,-54.19921875,-1.0,0.0,0.0,0.0,1.m4v,10.0
2024-02-28 13:16:14.290576,1709122574.2905765,-67.87109375,-41.9921875,-33.203125,-51.7578125,-1.0,0.0,0.0,0.0,1.m4v,10.0
2024-02-28 13:16:14.294482,1709122574.2944818,-69.82421875,-39.55078125,-33.69140625,-48.33984375,-1.0,0.0,0.0,0.0,1.m4v,10.0
2024-02-28 13:16:14.298387,1709122574.298387,-51.7578125,-38.0859375,-29.78515625,-50.29296875,-1.0,0.0,0.0,0.0,1.m4v,10.0
2024-02-28 13:16:14.302292,1709122574.302292,-45.41015625,-39.0625,-30.2734375,-47.36328125,-1.0,0.0,0.0,0.0,1.m4v,10.0
2024-02-28 13:16:14.306197,1709122574.3061974,-45.41015625,-34.66796875,-28.3203125,-41.9921875,-1.0,0.0,0.0,0.0,1.m4v,10.0
2024-02-28 13:16:14.310111,1709122574.3101106,-42.48046875,-29.78515625,-28.3203125,-50.29296875,-1.0,0.0,0.0,0.0,1.m4v,10.0
2024-02-28 13:16:14.314016,1709122574.314016,-41.50390625,-30.2734375,-28.3203125,-50.78125,-1.0,0.0,0.0,0.0,1.m4v,10.0
2024-02-28 13:16:14.317921,1709122574.317921,-47.8515625,-33.69140625,-28.80859375,-51.7578125,-1.0,0.0,0.0,0.0,1.m4v,10.0
2024-02-28 13:16:14.321826,1709122574.3218262,-50.29296875,-38.57421875,-32.2265625,-48.828125,-1.0,0.0,0.0,0.0,1.m4v,10.0
2024-02-28 13:16:14.325731,1709122574.3257313,-46.875,-39.0625,-28.80859375,-43.9453125,-1.0,0.0,0.0,0.0,1.m4v,10.0
2024-02-28 13:16:14.329637,1709122574.3296366,-44.43359375,-32.71484375,-27.34375,-43.45703125,-1.0,0.0,0.0,0.0,1.m4v,10.0
2024-02-28 13:16:14.333542,1709122574.3335416,-42.48046875,-27.83203125,-26.3671875,-32.71484375,-1.0,0.0,0.0,0.0,1.m4v,10.0
2024-02-28 13:16:14.337447,1709122574.337447,-38.57421875,-27.34375,-25.390625,-23.92578125,-1.0,0.0,0.0,0.0,1.m4v,10.0
2024-02-28 13:16:14.341352,1709122574.3413522,-38.57421875,-30.2734375,-31.25,-27.83203125,-1.0,0.0,0.0,0.0,1.m4v,10.0
2024-02-28 13:16:14.345257,1709122574.3452573,-40.52734375,-35.15625,-30.76171875,-34.66796875,-1.0,0.0,0.0,0.0,1.m4v,10.0
2024-02-28 13:16:14.349163,1709122574.3491626,-33.203125,-33.69140625,-25.390625,-26.3671875,-1.0,0.0,0.0,0.0,1.m4v,10.0
2024-02-28 13:16:14.353068,1709122574.3530676,-35.15625,-35.15625,-26.3671875,-26.3671875,-1.0,0.0,0.0,0.0,1.m4v,10.0
2024-02-28 13:16:14.356980,1709122574.3569803,-35.64453125,-34.1796875,-29.78515625,-24.4140625,-1.0,0.0,0.0,0.0,1.m4v,10.0
2024-02-28 13:16:14.360885,1709122574.3608854,-29.296875,-28.3203125,-29.78515625,-19.53125,-1.0,0.0,0.0,0.0,1.m4v,10.0
2024-02-28 13:16:14.364791,1709122574.364791,-29.296875,-30.76171875,-28.80859375,-29.78515625,-1.0,0.0,0.0,0.0,1.m4v,10.0
2024-02-28 13:16:14.368696,1709122574.3686955,-31.25,-31.73828125,-31.25,-29.78515625,-1.0,0.0,0.0,0.0,1.m4v,10.0
2024-02-28 13:16:14.372601,1709122574.372601,-34.1796875,-34.1796875,-31.25,-27.34375,-1.0,0.0,0.0,0.0,1.m4v,10.0
2024-02-28 13:16:14.376506,1709122574.3765063,-34.1796875,-37.109375,-31.73828125,-31.73828125,-1.0,0.0,0.0,0.0,1.m4v,10.0
2024-02-28 13:16:14.380411,1709122574.3804114,-37.109375,-34.1796875,-32.71484375,-34.66796875,-1.0,0.0,0.0,0.0,1.m4v,10.0
2024-02-28 13:16:14.384317,1709122574.3843167,-41.9921875,-34.1796875,-40.52734375,-41.015625,-1.0,0.0,0.0,0.0,1.m4v,10.0
2024-02-28 13:16:14.388222,1709122574.3882215,-35.64453125,-26.85546875,-41.015625,-40.52734375,-1.0,0.0,0.0,0.0,1.m4v,10.0
2024-02-28 13:16:14.392127,1709122574.392127,-30.76171875,-18.06640625,-35.15625,-35.64453125,-1.0,0.0,0.0,0.0,1.m4v,10.0
2024-02-28 13:16:14.396032,1709122574.3960323,-33.69140625,-17.578125,-32.71484375,-35.15625,-1.0,0.0,0.0,0.0,1.m4v,10.0
2024-02-28 13:16:14.399937,1709122574.3999374,-37.59765625,-19.04296875,-30.2734375,-37.59765625,-1.0,0.0,0.0,0.0,1.m4v,10.0
2024-02-28 13:16:14.403850,1709122574.4038496,-39.0625,-22.4609375,-26.3671875,-48.33984375,-1.0,0.0,0.0,0.0,1.m4v,10.0
2024-02-28 13:16:14.407755,1709122574.407755,-38.0859375,-26.3671875,-29.78515625,-51.26953125,-1.0,0.0,0.0,0.0,1.m4v,10.0
2024-02-28 13:16:14.411660,1709122574.41166,-39.55078125,-28.80859375,-33.69140625,-52.24609375,-1.0,0.0,0.0,0.0,1.m4v,10.0
2024-02-28 13:16:14.415565,1709122574.4155653,-45.41015625,-31.25,-28.80859375,-50.78125,-1.0,0.0,0.0,0.0,1.m4v,10.0
2024-02-28 13:16:14.419471,1709122574.4194703,-41.015625,-31.25,-28.3203125,-41.50390625,-1.0,0.0,0.0,0.0,1.m4v,10.0
2024-02-28 13:16:14.423376,1709122574.4233756,-36.62109375,-28.3203125,-31.73828125,-44.43359375,-1.0,0.0,0.0,0.0,1.m4v,10.0
2024-02-28 13:16:14.427281,1709122574.427281,-41.015625,-32.2265625,-33.203125,-42.48046875,-1.0,0.0,0.0,0.0,1.m4v,10.0
2024-02-28 13:16:14.431186,1709122574.431186,-35.15625,-36.1328125,-29.78515625,-34.66796875,-1.0,0.0,0.0,0.0,1.m4v,10.0
2024-02-28 13:16:14.435091,1709122574.4350913,-40.52734375,-36.62109375,-27.34375,-38.0859375,-1.0,0.0,0.0,0.0,1.m4v,10.0
2024-02-28 13:16:14.438997,1709122574.4389966,-45.8984375,-30.76171875,-26.85546875,-36.62109375,-1.0,0.0,0.0,0.0,1.m4v,10.0
2024-02-28 13:16:14.442902,1709122574.4429016,-33.69140625,-26.85546875,-29.296875,-36.1328125,-1.0,0.0,0.0,0.0,1.m4v,10.0
2024-02-28 13:16:14.446807,1709122574.446807,-36.62109375,-30.76171875,-28.80859375,-40.0390625,-1.0,0.0,0.0,0.0,1.m4v,10.0
2024-02-28 13:16:14.450719,1709122574.4507186,-41.015625,-24.90234375,-22.94921875,-44.921875,-1.0,0.0,0.0,0.0,1.m4v,10.0
2024-02-28 13:16:14.454624,1709122574.454624,-40.0390625,-22.94921875,-25.87890625,-44.43359375,-1.0,0.0,0.0,0.0,1.m4v,10.0
2024-02-28 13:16:14.458529,1709122574.458529,-44.921875,-26.3671875,-28.80859375,-48.828125,-1.0,0.0,0.0,0.0,1.m4v,10.0
2024-02-28 13:16:14.462434,1709122574.4624343,-63.4765625,-28.3203125,-30.2734375,-65.4296875,-1.0,0.0,0.0,0.0,1.m4v,10.0
2024-02-28 13:16:14.466339,1709122574.466339,-74.21875,-30.2734375,-32.2265625,-71.2890625,-1.0,0.0,0.0,0.0,1.m4v,10.0
2024-02-28 13:16:14.470245,1709122574.4702446,-84.9609375,-27.34375,-28.80859375,-80.56640625,-1.0,0.0,0.0,0.0,1.m4v,10.0
2024-02-28 13:16:14.474150,1709122574.47415,-103.02734375,-32.71484375,-28.3203125,-100.09765625,-1.0,0.0,0.0,0.0,1.m4v,10.0
2024-02-28 13:16:14.478055,1709122574.478055,-114.74609375,-33.203125,-24.4140625,-105.46875,-1.0,0.0,0.0,0.0,1.m4v,10.0
2024-02-28 13:16:14.481960,1709122574.4819603,-120.1171875,-29.78515625,-24.4140625,-113.28125,-1.0,0.0,0.0,0.0,1.m4v,10.0
2024-02-28 13:16:14.485865,1709122574.4858654,-128.90625,-33.203125,-26.85546875,-131.34765625,-1.0,0.0,0.0,0.0,1.m4v,10.0
2024-02-28 13:16:14.489771,1709122574.489771,-141.6015625,-40.0390625,-29.296875,-140.625,-1.0,0.0,0.0,0.0,1.m4v,10.0
2024-02-28 13:16:14.493676,1709122574.493676,-148.4375,-41.50390625,-30.76171875,-146.484375,-1.0,0.0,0.0,0.0,1.m4v,10.0
2024-02-28 13:16:14.497593,1709122574.4975927,-147.4609375,-38.0859375,-30.2734375,-146.484375,-1.0,0.0,0.0,0.0,1.m4v,10.0
2024-02-28 13:16:14.501498,1709122574.501498,-143.06640625,-37.109375,-31.25,-150.390625,-1.0,0.0,0.0,0.0,1.m4v,10.0
2024-02-28 13:16:14.505403,1709122574.505403,-143.5546875,-31.73828125,-32.2265625,-154.78515625,-1.0,0.0,0.0,0.0,1.m4v,10.0
2024-02-28 13:16:14.509308,1709122574.5093083,-140.625,-29.296875,-28.3203125,-148.4375,-1.0,0.0,0.0,0.0,1.m4v,10.0
2024-02-28 13:16:14.513214,1709122574.5132136,-139.6484375,-27.34375,-27.34375,-140.625,-1.0,0.0,0.0,0.0,1.m4v,10.0
2024-02-28 13:16:14.517119,1709122574.5171187,-120.1171875,-25.390625,-31.25,-135.7421875,-1.0,0.0,0.0,0.0,1.m4v,10.0
2024-02-28 13:16:14.966301,1709122574.9663014,-22.94921875,-26.3671875,-34.1796875,-26.3671875,-1.0,0.0,0.0,0.0,1.m4v,10.0
2024-02-28 13:16:14.970207,1709122574.9702067,-32.71484375,-26.85546875,-34.1796875,-32.2265625,-1.0,0.0,0.0,0.0,1.m4v,10.0
2024-02-28 13:16:14.974112,1709122574.9741118,-38.57421875,-35.64453125,-34.66796875,-45.41015625,-1.0,0.0,0.0,0.0,1.m4v,10.0
2024-02-28 13:16:14.978017,1709122574.978017,-40.0390625,-37.109375,-34.66796875,-43.45703125,-1.0,0.0,0.0,0.0,1.m4v,10.0
2024-02-28 13:16:14.981922,1709122574.9819224,-50.29296875,-34.1796875,-33.203125,-41.50390625,-1.0,0.0,0.0,0.0,1.m4v,10.0
2024-02-28 13:16:14.985827,1709122574.9858274,-45.8984375,-31.73828125,-36.62109375,-43.9453125,-1.0,0.0,0.0,0.0,1.m4v,10.0
2024-02-28 13:16:14.989733,1709122574.9897327,-37.59765625,-26.3671875,-31.25,-35.64453125,-1.0,0.0,0.0,0.0,1.m4v,10.0
2024-02-28 13:16:14.993638,1709122574.9936378,-38.57421875,-25.390625,-26.85546875,-25.390625,-1.0,0.0,0.0,0.0,1.m4v,10.0
2024-02-28 13:16:14.997543,1709122574.997543,-39.55078125,-31.25,-29.296875,-31.25,-1.0,0.0,0.0,0.0,1.m4v,10.0
2024-02-28 13:16:15.001448,1709122575.0014484,-38.57421875,-31.73828125,-32.71484375,-42.48046875,-1.0,0.0,0.0,0.0,1.m4v,10.0
2024-02-28 13:16:15.005353,1709122575.0053537,-37.59765625,-22.4609375,-30.2734375,-46.38671875,-1.0,0.0,0.0,0.0,1.m4v,10.0
2024-02-28 13:16:15.009259,1709122575.0092587,-39.0625,-22.4609375,-26.85546875,-43.45703125,-1.0,0.0,0.0,0.0,1.m4v,10.0
2024-02-28 13:16:15.013173,1709122575.013173,-43.45703125,-30.76171875,-32.2265625,-50.78125,-1.0,0.0,0.0,0.0,1.m4v,10.0
2024-02-28 13:16:15.017078,1709122575.0170782,-59.5703125,-29.78515625,-28.3203125,-60.546875,-1.0,0.0,0.0,0.0,1.m4v,10.0
2024-02-28 13:16:15.020983,1709122575.0209837,-82.51953125,-36.1328125,-27.34375,-76.66015625,-1.0,0.0,0.0,0.0,1.m4v,10.0
2024-02-28 13:16:15.024889,1709122575.0248888,-90.8203125,-37.109375,-25.390625,-93.75,-1.0,0.0,0.0,0.0,1.m4v,10.0
2024-02-28 13:16:15.028794,1709122575.0287938,-106.93359375,-33.203125,-24.4140625,-110.83984375,-1.0,0.0,0.0,0.0,1.m4v,10.0
2024-02-28 13:16:15.032699,1709122575.032699,-125.48828125,-34.1796875,-20.99609375,-125.48828125,-1.0,0.0,0.0,0.0,1.m4v,10.0
2024-02-28 13:16:15.036604,1709122575.0366042,-127.44140625,-33.69140625,-17.08984375,-130.37109375,-1.0,0.0,0.0,0.0,1.m4v,10.0
2024-02-28 13:16:15.040509,1709122575.0405097,-145.01953125,-34.1796875,-18.5546875,-149.4140625,-1.0,0.0,0.0,0.0,1.m4v,10.0
2024-02-28 13:16:15.044415,1709122575.0444148,-171.38671875,-30.76171875,-22.94921875,-161.1328125,-1.0,0.0,0.0,0.0,1.m4v,10.0
2024-02-28 13:16:15.048320,1709122575.0483198,-178.22265625,-30.76171875,-24.4140625,-167.48046875,-1.0,0.0,0.0,0.0,1.m4v,10.0
2024-02-28 13:16:15.052225,1709122575.052225,-182.6171875,-35.15625,-25.87890625,-176.26953125,-1.0,0.0,0.0,0.0,1.m4v,10.0
2024-02-28 13:16:15.056130,1709122575.0561302,-190.91796875,-32.2265625,-25.390625,-178.22265625,-1.0,0.0,0.0,0.0,1.m4v,10.0
2024-02-28 13:16:15.060050,1709122575.0600495,-191.89453125,-33.69140625,-25.87890625,-174.31640625,-1.0,0.0,0.0,0.0,1.m4v,10.0
2024-02-28 13:16:15.063955,1709122575.0639546,-175.78125,-34.66796875,-26.3671875,-168.9453125,-1.0,0.0,0.0,0.0,1.m4v,10.0
2024-02-28 13:16:15.067860,1709122575.06786,-167.48046875,-33.69140625,-26.3671875,-166.015625,-1.0,0.0,0.0,0.0,1.m4v,10.0
2024-02-28 13:16:15.071765,1709122575.0717652,-173.828125,-33.69140625,-32.71484375,-159.66796875,-1.0,0.0,0.0,0.0,1.m4v,10.0
2024-02-28 13:16:15.075670,1709122575.0756702,-164.0625,-30.2734375,-35.64453125,-152.83203125,-1.0,0.0,0.0,0.0,1.m4v,10.0
2024-02-28 13:16:15.079576,1709122575.0795755,-148.4375,-29.296875,-35.15625,-149.4140625,-1.0,0.0,0.0,0.0,1.m4v,10.0
2024-02-28 13:16:15.083481,1709122575.0834806,-137.20703125,-33.203125,-37.109375,-141.11328125,-1.0,0.0,0.0,0.0,1.m4v,10.0
2024-02-28 13:16:15.087386,1709122575.087386,-133.30078125,-32.71484375,-38.0859375,-134.27734375,-1.0,0.0,0.0,0.0,1.m4v,10.0
2024-02-28 13:16:15.091291,1709122575.0912912,-133.30078125,-34.66796875,-32.2265625,-135.7421875,-1.0,0.0,0.0,0.0,1.m4v,10.0
2024-02-28 13:16:15.095196,1709122575.0951962,-126.953125,-39.0625,-31.25,-131.8359375,-1.0,0.0,0.0,0.0,1.m4v,10.0
2024-02-28 13:16:15.099102,1709122575.0991015,-125.48828125,-36.62109375,-34.1796875,-121.58203125,-1.0,0.0,0.0,0.0,1.m4v,10.0
2024-02-28 13:16:15.103007,1709122575.1030066,-117.1875,-35.15625,-31.25,-107.91015625,-1.0,0.0,0.0,0.0,1.m4v,10.0
2024-02-28 13:16:15.106920,1709122575.10692,-110.83984375,-38.57421875,-29.78515625,-95.21484375,-1.0,0.0,0.0,0.0,1.m4v,10.0
2024-02-28 13:16:15.110825,1709122575.1108253,-103.02734375,-36.62109375,-30.76171875,-84.9609375,-1.0,0.0,0.0,0.0,1.m4v,10.0
2024-02-28 13:16:15.114730,1709122575.1147304,-91.30859375,-32.2265625,-32.2265625,-78.125,-1.0,0.0,0.0,0.0,1.m4v,10.0
2024-02-28 13:16:15.118636,1709122575.1186357,-89.35546875,-31.25,-37.59765625,-79.58984375,-1.0,0.0,0.0,0.0,1.m4v,10.0
2024-02-28 13:16:15.122541,1709122575.1225407,-80.078125,-30.2734375,-43.45703125,-72.265625,-1.0,0.0,0.0,0.0,1.m4v,10.0
2024-02-28 13:16:15.126446,1709122575.126446,-67.3828125,-28.80859375,-41.50390625,-62.01171875,-1.0,0.0,0.0,0.0,1.m4v,10.0
2024-02-28 13:16:15.130351,1709122575.1303513,-58.59375,-29.78515625,-45.41015625,-57.6171875,-1.0,0.0,0.0,0.0,1.m4v,10.0
2024-02-28 13:16:15.134256,1709122575.1342564,-43.9453125,-38.57421875,-47.8515625,-49.8046875,-1.0,0.0,0.0,0.0,1.m4v,10.0
2024-02-28 13:16:15.138162,1709122575.1381617,-42.48046875,-43.45703125,-47.36328125,-49.8046875,-1.0,0.0,0.0,0.0,1.m4v,10.0
2024-02-28 13:16:15.142067,1709122575.1420667,-47.36328125,-42.96875,-40.52734375,-47.8515625,-1.0,0.0,0.0,0.0,1.m4v,10.0
2024-02-28 13:16:15.145972,1709122575.145972,-38.0859375,-44.43359375,-33.69140625,-38.0859375,-1.0,0.0,0.0,0.0,1.m4v,10.0
2024-02-28 13:16:15.149877,1709122575.1498773,-20.5078125,-42.96875,-40.0390625,-29.296875,-1.0,0.0,0.0,0.0,1.m4v,10.0
2024-02-28 13:16:15.153789,1709122575.153789,-17.578125,-38.57421875,-42.96875,-23.92578125,-1.0,0.0,0.0,0.0,1.m4v,10.0
2024-02-28 13:16:15.157694,1709122575.157694,-9.27734375,-38.57421875,-45.41015625,-10.25390625,-1.0,0.0,0.0,0.0,1.m4v,10.0
2024-02-28 13:16:15.161599,1709122575.1615994,8.30078125,-36.1328125,-47.36328125,3.41796875,-1.0,0.0,0.0,0.0,1.m4v,10.0
2024-02-28 13:16:15.165505,1709122575.1655047,4.39453125,-32.71484375,-42.96875,4.39453125,-1.0,0.0,0.0,0.0,1.m4v,10.0
2024-02-28 13:16:15.169410,1709122575.1694098,6.34765625,-31.73828125,-37.109375,2.44140625,-1.0,0.0,0.0,0.0,1.m4v,10.0
2024-02-28 13:16:15.173315,1709122575.173315,12.6953125,-35.15625,-36.1328125,9.765625,-1.0,0.0,0.0,0.0,1.m4v,10.0
2024-02-28 13:16:15.177220,1709122575.17722,9.765625,-39.55078125,-41.015625,17.578125,-1.0,0.0,0.0,0.0,1.m4v,10.0
2024-02-28 13:16:15.181125,1709122575.1811254,9.765625,-38.57421875,-39.55078125,27.83203125,-1.0,0.0,0.0,0.0,1.m4v,10.0
2024-02-28 13:16:15.185031,1709122575.1850307,18.5546875,-33.69140625,-28.3203125,35.15625,-1.0,0.0,0.0,0.0,1.m4v,10.0
2024-02-28 13:16:15.188936,1709122575.1889358,20.5078125,-32.2265625,-28.3203125,28.80859375,-1.0,0.0,0.0,0.0,1.m4v,10.0
2024-02-28 13:16:15.192841,1709122575.192841,14.16015625,-33.69140625,-35.64453125,26.3671875,-1.0,0.0,0.0,0.0,1.m4v,10.0
2024-02-28 13:16:15.196746,1709122575.196746,15.625,-34.66796875,-31.73828125,36.1328125,-1.0,0.0,0.0,0.0,1.m4v,10.0
2024-02-28 13:16:15.200657,1709122575.2006574,17.578125,-34.1796875,-28.3203125,37.109375,-1.0,0.0,0.0,0.0,1.m4v,10.0
2024-02-28 13:16:15.204562,1709122575.2045624,19.04296875,-35.15625,-33.69140625,27.34375,-1.0,0.0,0.0,0.0,1.m4v,10.0
2024-02-28 13:16:15.208468,1709122575.2084675,32.71484375,-36.1328125,-33.69140625,33.203125,-1.0,0.0,0.0,0.0,1.m4v,10.0
2024-02-28 13:16:15.212373,1709122575.212373,29.78515625,-32.2265625,-33.69140625,33.69140625,-1.0,0.0,0.0,0.0,1.m4v,10.0
2024-02-28 13:16:15.216278,1709122575.216278,21.97265625,-31.25,-37.109375,29.296875,-1.0,0.0,0.0,0.0,1.m4v,10.0
2024-02-28 13:16:15.220183,1709122575.2201834,27.34375,-30.2734375,-35.15625,33.69140625,-1.0,0.0,0.0,0.0,1.m4v,10.0
2024-02-28 13:16:15.224088,1709122575.2240884,24.90234375,-33.69140625,-37.109375,25.87890625,-1.0,0.0,0.0,0.0,1.m4v,10.0
2024-02-28 13:16:15.227994,1709122575.2279935,20.99609375,-36.62109375,-35.64453125,24.4140625,-1.0,0.0,0.0,0.0,1.m4v,10.0
2024-02-28 13:16:15.231899,1709122575.231899,17.578125,-34.66796875,-26.3671875,29.296875,-1.0,0.0,0.0,0.0,1.m4v,10.0
2024-02-28 13:16:15.235804,1709122575.235804,16.6015625,-39.0625,-24.90234375,29.296875,-1.0,0.0,0.0,0.0,1.m4v,10.0
2024-02-28 13:16:15.239709,1709122575.2397094,16.11328125,-39.0625,-24.90234375,24.4140625,-1.0,0.0,0.0,0.0,1.m4v,10.0
2024-02-28 13:16:15.243614,1709122575.2436144,10.7421875,-37.109375,-24.90234375,9.27734375,-1.0,0.0,0.0,0.0,1.m4v,10.0
2024-02-28 13:16:15.247530,1709122575.2475305,7.32421875,-39.0625,-32.2265625,10.7421875,-1.0,0.0,0.0,0.0,1.m4v,10.0
2024-02-28 13:16:15.251436,1709122575.2514358,10.25390625,-36.62109375,-35.15625,19.53125,-1.0,0.0,0.0,0.0,1.m4v,10.0
2024-02-28 13:16:15.255341,1709122575.255341,17.578125,-31.73828125,-34.1796875,23.4375,-1.0,0.0,0.0,0.0,1.m4v,10.0
2024-02-28 13:16:15.259246,1709122575.259246,19.53125,-29.78515625,-35.64453125,27.34375,-1.0,0.0,0.0,0.0,1.m4v,10.0
2024-02-28 13:16:15.263151,1709122575.2631514,18.5546875,-32.71484375,-34.66796875,29.296875,-1.0,0.0,0.0,0.0,1.m4v,10.0
2024-02-28 13:16:15.267056,1709122575.2670565,10.7421875,-30.76171875,-35.64453125,20.99609375,-1.0,0.0,0.0,0.0,1.m4v,10.0
2024-02-28 13:16:15.270962,1709122575.2709618,8.7890625,-27.34375,-35.64453125,12.20703125,-1.0,0.0,0.0,0.0,1.m4v,10.0
2024-02-28 13:16:15.274867,1709122575.274867,10.25390625,-32.71484375,-30.76171875,14.6484375,-1.0,0.0,0.0,0.0,1.m4v,10.0
2024-02-28 13:16:15.278772,1709122575.278772,1.46484375,-29.78515625,-27.34375,15.625,-1.0,0.0,0.0,0.0,1.m4v,10.0
2024-02-28 13:16:15.282677,1709122575.2826774,-0.9765625,-25.87890625,-29.296875,14.6484375,-1.0,0.0,0.0,0.0,1.m4v,10.0
2024-02-28 13:16:15.286582,1709122575.2865825,-4.8828125,-34.1796875,-34.1796875,8.30078125,-1.0,0.0,0.0,0.0,1.m4v,10.0
2024-02-28 13:16:15.290488,1709122575.2904878,-5.37109375,-36.1328125,-34.66796875,6.34765625,-1.0,0.0,0.0,0.0,1.m4v,10.0
2024-02-28 13:16:15.294404,1709122575.2944036,-5.37109375,-32.2265625,-29.78515625,3.41796875,-1.0,0.0,0.0,0.0,1.m4v,10.0
2024-02-28 13:16:15.298309,1709122575.2983086,-6.8359375,-36.1328125,-30.2734375,5.37109375,-1.0,0.0,0.0,0.0,1.m4v,10.0
2024-02-28 13:16:15.302214,1709122575.302214,3.90625,-33.203125,-32.2265625,12.20703125,-1.0,0.0,0.0,0.0,1.m4v,10.0
2024-02-28 13:16:15.306119,1709122575.3061192,8.30078125,-30.76171875,-31.25,15.625,-1.0,0.0,0.0,0.0,1.m4v,10.0
2024-02-28 13:16:15.310024,1709122575.3100245,10.25390625,-31.25,-29.78515625,11.71875,-1.0,0.0,0.0,0.0,1.m4v,10.0
2024-02-28 13:16:15.313930,1709122575.3139296,8.7890625,-27.83203125,-25.87890625,6.8359375,-1.0,0.0,0.0,0.0,1.m4v,10.0
2024-02-28 13:16:15.317835,1709122575.3178346,10.25390625,-33.203125,-26.3671875,4.39453125,-1.0,0.0,0.0,0.0,1.m4v,10.0
2024-02-28 13:16:15.321740,1709122575.32174,5.37109375,-36.1328125,-30.76171875,-2.9296875,-1.0,0.0,0.0,0.0,1.m4v,10.0
2024-02-28 13:16:15.325645,1709122575.3256452,-9.27734375,-33.203125,-30.2734375,-1.953125,-1.0,0.0,0.0,0.0,1.m4v,10.0
2024-02-28 13:16:15.329550,1709122575.3295505,-13.671875,-34.1796875,-30.2734375,0.48828125,-1.0,0.0,0.0,0.0,1.m4v,10.0
2024-02-28 13:16:15.333456,1709122575.3334556,-5.37109375,-37.59765625,-33.69140625,-2.44140625,-1.0,0.0,0.0,0.0,1.m4v,10.0
2024-02-28 13:16:15.337361,1709122575.3373606,-2.44140625,-36.1328125,-32.2265625,-4.39453125,-1.0,0.0,0.0,0.0,1.m4v,10.0
2024-02-28 13:16:15.341276,1709122575.3412762,-5.859375,-34.66796875,-30.2734375,-4.8828125,-1.0,0.0,0.0,0.0,1.m4v,10.0
2024-02-28 13:16:15.345181,1709122575.3451812,-6.8359375,-34.66796875,-37.59765625,-6.8359375,-1.0,0.0,0.0,0.0,1.m4v,10.0
2024-02-28 13:16:15.349087,1709122575.3490863,-11.23046875,-32.71484375,-33.69140625,-13.18359375,-1.0,0.0,0.0,0.0,1.m4v,10.0
2024-02-28 13:16:15.352992,1709122575.3529916,-18.5546875,-33.69140625,-31.73828125,-15.13671875,-1.0,0.0,0.0,0.0,1.m4v,10.0
2024-02-28 13:16:15.356897,1709122575.3568969,-22.4609375,-35.15625,-34.66796875,-7.32421875,-1.0,0.0,0.0,0.0,1.m4v,10.0
2024-02-28 13:16:15.360802,1709122575.3608022,-18.5546875,-38.0859375,-32.2265625,-5.37109375,-1.0,0.0,0.0,0.0,1.m4v,10.0
2024-02-28 13:16:15.364707,1709122575.3647072,-12.20703125,-40.0390625,-35.15625,-7.8125,-1.0,0.0,0.0,0.0,1.m4v,10.0
2024-02-28 13:16:15.368613,1709122575.3686123,-18.06640625,-38.57421875,-36.1328125,-17.08984375,-1.0,0.0,0.0,0.0,1.m4v,10.0
2024-02-28 13:16:15.372518,1709122575.3725176,-22.94921875,-38.0859375,-36.62109375,-22.94921875,-1.0,0.0,0.0,0.0,1.m4v,10.0
2024-02-28 13:16:15.376423,1709122575.376423,-20.01953125,-35.15625,-36.1328125,-23.4375,-1.0,0.0,0.0,0.0,1.m4v,10.0
2024-02-28 13:16:15.380328,1709122575.3803282,-13.671875,-30.2734375,-37.109375,-20.01953125,-1.0,0.0,0.0,0.0,1.m4v,10.0
2024-02-28 13:16:15.384233,1709122575.3842332,-13.18359375,-29.78515625,-34.66796875,-12.6953125,-1.0,0.0,0.0,0.0,1.m4v,10.0
2024-02-28 13:16:15.388148,1709122575.3881476,-12.20703125,-29.296875,-31.25,-15.625,-1.0,0.0,0.0,0.0,1.m4v,10.0
2024-02-28 13:16:15.392053,1709122575.392053,-10.25390625,-33.203125,-37.109375,-13.671875,-1.0,0.0,0.0,0.0,1.m4v,10.0
2024-02-28 13:16:15.395958,1709122575.3959582,-9.765625,-33.69140625,-37.109375,-10.7421875,-1.0,0.0,0.0,0.0,1.m4v,10.0
2024-02-28 13:16:15.399863,1709122575.3998632,-10.25390625,-31.73828125,-37.109375,-17.08984375,-1.0,0.0,0.0,0.0,1.m4v,10.0
2024-02-28 13:16:15.403769,1709122575.4037683,-9.27734375,-31.73828125,-33.69140625,-21.484375,-1.0,0.0,0.0,0.0,1.m4v,10.0
2024-02-28 13:16:15.407674,1709122575.4076736,-6.34765625,-26.85546875,-26.85546875,-14.16015625,-1.0,0.0,0.0,0.0,1.m4v,10.0
2024-02-28 13:16:15.411579,1709122575.411579,-12.6953125,-23.92578125,-27.34375,-13.671875,-1.0,0.0,0.0,0.0,1.m4v,10.0
2024-02-28 13:16:15.415484,1709122575.4154842,-17.578125,-30.2734375,-30.2734375,-27.83203125,-1.0,0.0,0.0,0.0,1.m4v,10.0
2024-02-28 13:16:15.419389,1709122575.4193892,-16.11328125,-34.66796875,-34.66796875,-28.80859375,-1.0,0.0,0.0,0.0,1.m4v,10.0
2024-02-28 13:16:15.423295,1709122575.4232943,-24.4140625,-34.66796875,-36.62109375,-20.01953125,-1.0,0.0,0.0,0.0,1.m4v,10.0
2024-02-28 13:16:15.427200,1709122575.4271996,-30.76171875,-34.66796875,-30.2734375,-26.3671875,-1.0,0.0,0.0,0.0,1.m4v,10.0
2024-02-28 13:16:15.431105,1709122575.431105,-27.34375,-31.25,-25.390625,-26.3671875,-1.0,0.0,0.0,0.0,1.m4v,10.0
2024-02-28 13:16:15.435018,1709122575.435018,-17.08984375,-30.76171875,-27.34375,-20.99609375,-1.0,0.0,0.0,0.0,1.m4v,10.0
2024-02-28 13:16:15.438923,1709122575.4389234,-18.06640625,-30.76171875,-31.25,-28.3203125,-1.0,0.0,0.0,0.0,1.m4v,10.0
2024-02-28 13:16:15.442829,1709122575.442829,-21.97265625,-30.2734375,-32.2265625,-27.83203125,-1.0,0.0,0.0,0.0,1.m4v,10.0
2024-02-28 13:16:15.446734,1709122575.4467337,-24.4140625,-34.1796875,-34.1796875,-24.90234375,-1.0,0.0,0.0,0.0,1.m4v,10.0
2024-02-28 13:16:15.450639,1709122575.450639,-32.2265625,-32.2265625,-32.71484375,-26.3671875,-1.0,0.0,0.0,0.0,1.m4v,10.0
2024-02-28 13:16:15.454544,1709122575.454544,-30.2734375,-26.85546875,-26.85546875,-25.87890625,-1.0,0.0,0.0,0.0,1.m4v,10.0
2024-02-28 13:16:15.458449,1709122575.4584494,-18.06640625,-29.296875,-27.34375,-24.4140625,-1.0,0.0,0.0,0.0,1.m4v,10.0
2024-02-28 13:16:15.462355,1709122575.462355,-16.11328125,-27.34375,-32.71484375,-21.484375,-1.0,0.0,0.0,0.0,1.m4v,10.0
2024-02-28 13:16:15.466260,1709122575.4662597,-16.6015625,-25.87890625,-35.15625,-28.3203125,-1.0,0.0,0.0,0.0,1.m4v,10.0
2024-02-28 13:16:15.470165,1709122575.470165,-24.90234375,-28.80859375,-34.1796875,-32.2265625,-1.0,0.0,0.0,0.0,1.m4v,10.0
2024-02-28 13:16:15.474070,1709122575.47407,-34.1796875,-28.80859375,-35.64453125,-27.34375,-1.0,0.0,0.0,0.0,1.m4v,10.0
2024-02-28 13:16:15.477975,1709122575.4779754,-26.3671875,-34.1796875,-33.203125,-26.3671875,-1.0,0.0,0.0,0.0,1.m4v,10.0
2024-02-28 13:16:15.481888,1709122575.4818883,-21.97265625,-37.109375,-30.76171875,-20.5078125,-1.0,0.0,0.0,0.0,1.m4v,10.0
2024-02-28 13:16:15.485794,1709122575.4857936,-22.94921875,-31.73828125,-28.3203125,-20.5078125,-1.0,0.0,0.0,0.0,1.m4v,10.0
2024-02-28 13:16:15.489699,1709122575.4896986,-19.53125,-32.71484375,-30.2734375,-31.73828125,-1.0,0.0,0.0,0.0,1.m4v,10.0
2024-02-28 13:16:15.493604,1709122575.493604,-16.6015625,-35.64453125,-32.2265625,-34.66796875,-1.0,0.0,0.0,0.0,1.m4v,10.0
2024-02-28 13:16:15.497509,1709122575.4975092,-12.6953125,-35.15625,-26.85546875,-27.83203125,-1.0,0.0,0.0,0.0,1.m4v,10.0
2024-02-28 13:16:15.501414,1709122575.5014143,-11.71875,-30.76171875,-26.3671875,-26.3671875,-1.0,0.0,0.0,0.0,1.m4v,10.0
2024-02-28 13:16:15.505320,1709122575.5053196,-18.5546875,-28.80859375,-26.85546875,-29.78515625,-1.0,0.0,0.0,0.0,1.m4v,10.0
2024-02-28 13:16:15.509225,1709122575.509225,-27.34375,-32.2265625,-28.3203125,-26.3671875,-1.0,0.0,0.0,0.0,1.m4v,10.0
2024-02-28 13:16:15.513130,1709122575.51313,-24.90234375,-35.64453125,-32.71484375,-31.25,-1.0,0.0,0.0,0.0,1.m4v,10.0
2024-02-28 13:16:15.517035,1709122575.5170352,-26.85546875,-33.69140625,-34.1796875,-39.55078125,-1.0,0.0,0.0,0.0,1.m4v,10.0
2024-02-28 13:16:15.520940,1709122575.5209403,-27.83203125,-33.203125,-31.25,-34.66796875,-1.0,0.0,0.0,0.0,1.m4v,10.0
2024-02-28 13:16:15.524846,1709122575.5248456,-23.92578125,-34.66796875,-32.71484375,-34.1796875,-1.0,0.0,0.0,0.0,1.m4v,10.0
2024-02-28 13:16:15.528758,1709122575.528758,-22.4609375,-32.2265625,-32.2265625,-28.3203125,-1.0,0.0,0.0,0.0,1.m4v,10.0
2024-02-28 13:16:15.532663,1709122575.532663,-9.27734375,-34.1796875,-24.4140625,-20.5078125,-1.0,0.0,0.0,0.0,1.m4v,10.0
2024-02-28 13:16:15.536568,1709122575.5365684,-15.13671875,-33.203125,-29.296875,-33.69140625,-1.0,0.0,0.0,0.0,1.m4v,10.0
2024-02-28 13:16:15.540474,1709122575.5404737,-24.4140625,-26.85546875,-35.15625,-43.9453125,-1.0,0.0,0.0,0.0,1.m4v,10.0
2024-02-28 13:16:15.544379,1709122575.5443788,-16.6015625,-25.390625,-37.109375,-40.0390625,-1.0,0.0,0.0,0.0,1.m4v,10.0
2024-02-28 13:16:15.548284,1709122575.548284,-12.20703125,-22.4609375,-38.0859375,-39.0625,-1.0,0.0,0.0,0.0,1.m4v,10.0
2024-02-28 13:16:15.962311,1709122575.9623113,-16.11328125,-23.4375,-25.390625,-13.18359375,-1.0,0.0,0.0,0.0,1.m4v,10.0
2024-02-28 13:16:15.966217,1709122575.9662166,-16.11328125,-24.90234375,-22.94921875,-14.6484375,-1.0,0.0,0.0,0.0,1.m4v,10.0
2024-02-28 13:16:15.970122,1709122575.9701216,-24.4140625,-27.83203125,-27.34375,-16.6015625,-1.0,0.0,0.0,0.0,1.m4v,10.0
2024-02-28 13:16:15.974027,1709122575.974027,-32.2265625,-31.25,-33.203125,-13.18359375,-1.0,0.0,0.0,0.0,1.m4v,10.0
2024-02-28 13:16:15.977932,1709122575.977932,-22.4609375,-28.3203125,-30.2734375,-9.27734375,-1.0,0.0,0.0,0.0,1.m4v,10.0
2024-02-28 13:16:15.981837,1709122575.9818373,-15.13671875,-28.80859375,-22.94921875,-5.859375,-1.0,0.0,0.0,0.0,1.m4v,10.0
2024-02-28 13:16:15.985743,1709122575.9857426,-19.53125,-31.73828125,-23.92578125,-6.8359375,-1.0,0.0,0.0,0.0,1.m4v,10.0
2024-02-28 13:16:15.989648,1709122575.9896476,-25.390625,-32.2265625,-24.90234375,-11.23046875,-1.0,0.0,0.0,0.0,1.m4v,10.0
2024-02-28 13:16:15.993553,1709122575.993553,-22.94921875,-35.64453125,-21.484375,-10.7421875,-1.0,0.0,0.0,0.0,1.m4v,10.0
2024-02-28 13:16:15.997470,1709122575.9974697,-17.08984375,-34.66796875,-24.90234375,-5.37109375,-1.0,0.0,0.0,0.0,1.m4v,10.0
2024-02-28 13:16:16.001375,1709122576.001375,-28.3203125,-35.15625,-35.15625,-14.16015625,-1.0,0.0,0.0,0.0,1.m4v,10.0
2024-02-28 13:16:16.005280,1709122576.00528,-43.9453125,-38.0859375,-38.57421875,-27.83203125,-1.0,0.0,0.0,0.0,1.m4v,10.0
2024-02-28 13:16:16.009185,1709122576.0091853,-52.734375,-41.50390625,-35.64453125,-30.2734375,-1.0,0.0,0.0,0.0,1.m4v,10.0
2024-02-28 13:16:16.013090,1709122576.0130904,-50.78125,-43.45703125,-34.1796875,-31.73828125,-1.0,0.0,0.0,0.0,1.m4v,10.0
2024-02-28 13:16:16.016996,1709122576.0169957,-43.45703125,-35.64453125,-33.69140625,-30.76171875,-1.0,0.0,0.0,0.0,1.m4v,10.0
2024-02-28 13:16:16.020901,1709122576.020901,-43.9453125,-34.1796875,-34.1796875,-30.76171875,-1.0,0.0,0.0,0.0,1.m4v,10.0
2024-02-28 13:16:16.024806,1709122576.024806,-35.64453125,-32.71484375,-31.73828125,-24.90234375,-1.0,0.0,0.0,0.0,1.m4v,10.0
2024-02-28 13:16:16.028711,1709122576.0287113,-22.94921875,-31.25,-32.2265625,-20.99609375,-1.0,0.0,0.0,0.0,1.m4v,10.0
2024-02-28 13:16:16.032616,1709122576.0326164,-38.0859375,-35.64453125,-38.0859375,-27.83203125,-1.0,0.0,0.0,0.0,1.m4v,10.0
2024-02-28 13:16:16.036522,1709122576.0365217,-41.9921875,-36.1328125,-38.57421875,-26.3671875,-1.0,0.0,0.0,0.0,1.m4v,10.0
2024-02-28 13:16:16.040427,1709122576.040427,-30.2734375,-33.69140625,-35.64453125,-26.3671875,-1.0,0.0,0.0,0.0,1.m4v,10.0
2024-02-28 13:16:16.044343,1709122576.0443437,-38.0859375,-30.76171875,-37.59765625,-34.1796875,-1.0,0.0,0.0,0.0,1.m4v,10.0
2024-02-28 13:16:16.048249,1709122576.0482488,-47.36328125,-34.66796875,-36.62109375,-37.109375,-1.0,0.0,0.0,0.0,1.m4v,10.0
2024-02-28 13:16:16.052154,1709122576.0521538,-41.50390625,-34.66796875,-29.296875,-33.203125,-1.0,0.0,0.0,0.0,1.m4v,10.0
2024-02-28 13:16:16.056059,1709122576.0560591,-35.64453125,-29.78515625,-30.76171875,-38.0859375,-1.0,0.0,0.0,0.0,1.m4v,10.0
2024-02-28 13:16:16.059964,1709122576.0599642,-37.109375,-32.71484375,-30.76171875,-40.0390625,-1.0,0.0,0.0,0.0,1.m4v,10.0
2024-02-28 13:16:16.063869,1709122576.0638697,-46.38671875,-34.66796875,-30.2734375,-33.203125,-1.0,0.0,0.0,0.0,1.m4v,10.0
2024-02-28 13:16:16.067775,1709122576.0677748,-46.38671875,-33.203125,-32.71484375,-33.69140625,-1.0,0.0,0.0,0.0,1.m4v,10.0
2024-02-28 13:16:16.071680,1709122576.0716798,-33.203125,-30.76171875,-28.3203125,-31.73828125,-1.0,0.0,0.0,0.0,1.m4v,10.0
2024-02-28 13:16:16.075585,1709122576.0755851,-46.875,-31.25,-30.2734375,-30.2734375,-1.0,0.0,0.0,0.0,1.m4v,10.0
2024-02-28 13:16:16.079490,1709122576.0794902,-41.50390625,-33.203125,-34.66796875,-21.484375,-1.0,0.0,0.0,0.0,1.m4v,10.0
2024-02-28 13:16:16.083395,1709122576.0833955,-27.83203125,-32.2265625,-31.25,-19.53125,-1.0,0.0,0.0,0.0,1.m4v,10.0
2024-02-28 13:16:16.087301,1709122576.0873008,-38.57421875,-34.1796875,-31.25,-32.2265625,-1.0,0.0,0.0,0.0,1.m4v,10.0
2024-02-28 13:16:16.091215,1709122576.0912154,-31.25,-32.71484375,-30.76171875,-26.3671875,-1.0,0.0,0.0,0.0,1.m4v,10.0
2024-02-28 13:16:16.095120,1709122576.0951204,-22.94921875,-32.71484375,-24.4140625,-19.53125,-1.0,0.0,0.0,0.0,1.m4v,10.0
2024-02-28 13:16:16.099026,1709122576.0990255,-25.87890625,-33.203125,-20.5078125,-19.53125,-1.0,0.0,0.0,0.0,1.m4v,10.0
2024-02-28 13:16:16.102931,1709122576.102931,-29.78515625,-33.203125,-26.85546875,-28.80859375,-1.0,0.0,0.0,0.0,1.m4v,10.0
2024-02-28 13:16:16.106836,1709122576.106836,-29.78515625,-35.64453125,-33.203125,-38.0859375,-1.0,0.0,0.0,0.0,1.m4v,10.0
2024-02-28 13:16:16.110741,1709122576.1107414,-31.73828125,-34.66796875,-30.2734375,-33.203125,-1.0,0.0,0.0,0.0,1.m4v,10.0
2024-02-28 13:16:16.114646,1709122576.1146464,-28.3203125,-35.15625,-30.2734375,-22.4609375,-1.0,0.0,0.0,0.0,1.m4v,10.0
2024-02-28 13:16:16.118552,1709122576.1185515,-18.06640625,-36.1328125,-30.2734375,-20.01953125,-1.0,0.0,0.0,0.0,1.m4v,10.0
2024-02-28 13:16:16.122457,1709122576.122457,-22.94921875,-34.66796875,-30.2734375,-25.87890625,-1.0,0.0,0.0,0.0,1.m4v,10.0
2024-02-28 13:16:16.126362,1709122576.126362,-31.25,-35.15625,-35.64453125,-28.3203125,-1.0,0.0,0.0,0.0,1.m4v,10.0
2024-02-28 13:16:16.130267,1709122576.1302674,-32.2265625,-36.62109375,-34.1796875,-32.2265625,-1.0,0.0,0.0,0.0,1.m4v,10.0
2024-02-28 13:16:16.134173,1709122576.134173,-32.71484375,-28.80859375,-31.73828125,-33.69140625,-1.0,0.0,0.0,0.0,1.m4v,10.0
2024-02-28 13:16:16.138087,1709122576.1380868,-35.15625,-30.2734375,-33.69140625,-28.3203125,-1.0,0.0,0.0,0.0,1.m4v,10.0
2024-02-28 13:16:16.141992,1709122576.141992,-32.71484375,-32.2265625,-31.25,-22.4609375,-1.0,0.0,0.0,0.0,1.m4v,10.0
2024-02-28 13:16:16.145897,1709122576.1458974,-28.3203125,-28.80859375,-26.3671875,-20.01953125,-1.0,0.0,0.0,0.0,1.m4v,10.0
2024-02-28 13:16:16.149802,1709122576.1498024,-29.296875,-26.3671875,-26.3671875,-23.92578125,-1.0,0.0,0.0,0.0,1.m4v,10.0
2024-02-28 13:16:16.153708,1709122576.1537075,-27.83203125,-28.80859375,-26.3671875,-23.4375,-1.0,0.0,0.0,0.0,1.m4v,10.0
2024-02-28 13:16:16.157613,1709122576.1576128,-30.2734375,-34.1796875,-25.87890625,-32.71484375,-1.0,0.0,0.0,0.0,1.m4v,10.0
2024-02-28 13:16:16.161518,1709122576.161518,-25.87890625,-37.59765625,-33.203125,-36.62109375,-1.0,0.0,0.0,0.0,1.m4v,10.0
2024-02-28 13:16:16.165423,1709122576.1654234,-26.85546875,-41.015625,-38.0859375,-33.203125,-1.0,0.0,0.0,0.0,1.m4v,10.0
2024-02-28 13:16:16.169328,1709122576.1693285,-42.96875,-39.0625,-34.66796875,-36.62109375,-1.0,0.0,0.0,0.0,1.m4v,10.0
2024-02-28 13:16:16.173234,1709122576.1732335,-41.015625,-31.25,-30.2734375,-35.15625,-1.0,0.0,0.0,0.0,1.m4v,10.0
2024-02-28 13:16:16.177139,1709122576.1771388,-36.1328125,-30.2734375,-29.296875,-36.62109375,-1.0,0.0,0.0,0.0,1.m4v,10.0
2024-02-28 13:16:16.181044,1709122576.181044,-37.59765625,-31.25,-29.296875,-41.9921875,-1.0,0.0,0.0,0.0,1.m4v,10.0
2024-02-28 13:16:16.184958,1709122576.1849582,-30.76171875,-33.203125,-33.69140625,-41.9921875,-1.0,0.0,0.0,0.0,1.m4v,10.0
2024-02-28 13:16:16.188863,1709122576.1888633,-25.390625,-38.0859375,-36.62109375,-39.0625,-1.0,0.0,0.0,0.0,1.m4v,10.0
2024-02-28 13:16:16.192769,1709122576.1927686,-25.87890625,-35.64453125,-35.64453125,-25.87890625,-1.0,0.0,0.0,0.0,1.m4v,10.0
2024-02-28 13:16:16.196674,1709122576.196674,-24.4140625,-29.78515625,-31.25,-17.578125,-1.0,0.0,0.0,0.0,1.m4v,10.0
2024-02-28 13:16:16.200579,1709122576.200579,-19.04296875,-26.85546875,-25.87890625,-16.6015625,-1.0,0.0,0.0,0.0,1.m4v,10.0
2024-02-28 13:16:16.204484,1709122576.2044842,-25.390625,-27.83203125,-24.90234375,-20.99609375,-1.0,0.0,0.0,0.0,1.m4v,10.0
2024-02-28 13:16:16.208389,1709122576.2083893,-35.64453125,-26.3671875,-28.80859375,-34.1796875,-1.0,0.0,0.0,0.0,1.m4v,10.0
2024-02-28 13:16:16.212295,1709122576.2122946,-39.55078125,-25.390625,-31.25,-37.109375,-1.0,0.0,0.0,0.0,1.m4v,10.0
2024-02-28 13:16:16.216200,1709122576.2162,-38.57421875,-24.4140625,-31.73828125,-35.64453125,-1.0,0.0,0.0,0.0,1.m4v,10.0
2024-02-28 13:16:16.220105,1709122576.220105,-28.3203125,-24.90234375,-30.76171875,-39.0625,-1.0,0.0,0.0,0.0,1.m4v,10.0
2024-02-28 13:16:16.224010,1709122576.2240102,-20.01953125,-26.3671875,-29.296875,-39.55078125,-1.0,0.0,0.0,0.0,1.m4v,10.0
2024-02-28 13:16:16.227915,1709122576.2279153,-30.2734375,-32.2265625,-30.76171875,-33.69140625,-1.0,0.0,0.0,0.0,1.m4v,10.0
2024-02-28 13:16:16.231828,1709122576.231828,-35.64453125,-34.1796875,-32.71484375,-31.25,-1.0,0.0,0.0,0.0,1.m4v,10.0
2024-02-28 13:16:16.235733,1709122576.2357333,-27.34375,-28.80859375,-33.69140625,-27.83203125,-1.0,0.0,0.0,0.0,1.m4v,10.0
2024-02-28 13:16:16.239638,1709122576.2396383,-26.3671875,-29.296875,-33.203125,-20.99609375,-1.0,0.0,0.0,0.0,1.m4v,10.0
2024-02-28 13:16:16.243544,1709122576.2435436,-31.25,-33.69140625,-32.2265625,-20.01953125,-1.0,0.0,0.0,0.0,1.m4v,10.0
2024-02-28 13:16:16.247449,1709122576.247449,-35.64453125,-35.64453125,-32.2265625,-25.390625,-1.0,0.0,0.0,0.0,1.m4v,10.0
2024-02-28 13:16:16.251354,1709122576.251354,-29.296875,-33.203125,-30.76171875,-22.94921875,-1.0,0.0,0.0,0.0,1.m4v,10.0
2024-02-28 13:16:16.255259,1709122576.2552593,-29.78515625,-30.2734375,-30.2734375,-24.90234375,-1.0,0.0,0.0,0.0,1.m4v,10.0
2024-02-28 13:16:16.259164,1709122576.2591643,-34.66796875,-28.80859375,-30.76171875,-30.76171875,-1.0,0.0,0.0,0.0,1.m4v,10.0
2024-02-28 13:16:16.263070,1709122576.2630696,-31.25,-34.1796875,-31.73828125,-29.78515625,-1.0,0.0,0.0,0.0,1.m4v,10.0
2024-02-28 13:16:16.266975,1709122576.266975,-32.71484375,-38.0859375,-29.296875,-32.2265625,-1.0,0.0,0.0,0.0,1.m4v,10.0
2024-02-28 13:16:16.270880,1709122576.27088,-42.96875,-35.64453125,-29.296875,-43.45703125,-1.0,0.0,0.0,0.0,1.m4v,10.0
2024-02-28 13:16:16.274785,1709122576.2747853,-45.41015625,-36.1328125,-31.73828125,-41.9921875,-1.0,0.0,0.0,0.0,1.m4v,10.0
2024-02-28 13:16:16.278698,1709122576.2786975,-41.9921875,-37.59765625,-27.83203125,-37.59765625,-1.0,0.0,0.0,0.0,1.m4v,10.0
2024-02-28 13:16:16.282603,1709122576.2826028,-39.0625,-34.1796875,-28.3203125,-40.0390625,-1.0,0.0,0.0,0.0,1.m4v,10.0
2024-02-28 13:16:16.286508,1709122576.286508,-41.50390625,-36.1328125,-33.69140625,-45.41015625,-1.0,0.0,0.0,0.0,1.m4v,10.0
2024-02-28 13:16:16.290413,1709122576.2904131,-43.9453125,-41.9921875,-36.62109375,-52.734375,-1.0,0.0,0.0,0.0,1.m4v,10.0
2024-02-28 13:16:16.294318,1709122576.2943184,-34.66796875,-37.109375,-36.1328125,-45.8984375,-1.0,0.0,0.0,0.0,1.m4v,10.0
2024-02-28 13:16:16.298224,1709122576.2982235,-27.34375,-31.73828125,-33.203125,-39.55078125,-1.0,0.0,0.0,0.0,1.m4v,10.0
2024-02-28 13:16:16.302129,1709122576.3021288,-26.85546875,-26.3671875,-28.3203125,-31.73828125,-1.0,0.0,0.0,0.0,1.m4v,10.0
2024-02-28 13:16:16.306034,1709122576.306034,-26.3671875,-21.484375,-26.85546875,-22.4609375,-1.0,0.0,0.0,0.0,1.m4v,10.0
2024-02-28 13:16:16.309939,1709122576.3099391,-25.390625,-26.85546875,-31.25,-29.296875,-1.0,0.0,0.0,0.0,1.m4v,10.0
2024-02-28 13:16:16.313844,1709122576.3138444,-23.92578125,-29.78515625,-31.73828125,-29.296875,-1.0,0.0,0.0,0.0,1.m4v,10.0
2024-02-28 13:16:16.317750,1709122576.3177495,-22.94921875,-27.34375,-28.3203125,-36.1328125,-1.0,0.0,0.0,0.0,1.m4v,10.0
2024-02-28 13:16:16.321655,1709122576.3216548,-30.2734375,-28.80859375,-30.76171875,-41.015625,-1.0,0.0,0.0,0.0,1.m4v,10.0
2024-02-28 13:16:16.325567,1709122576.3255663,-29.296875,-33.203125,-31.25,-30.76171875,-1.0,0.0,0.0,0.0,1.m4v,10.0
2024-02-28 13:16:16.329472,1709122576.3294718,-29.78515625,-33.203125,-29.78515625,-26.3671875,-1.0,0.0,0.0,0.0,1.m4v,10.0
2024-02-28 13:16:16.333377,1709122576.333377,-43.45703125,-36.1328125,-30.2734375,-18.5546875,-1.0,0.0,0.0,0.0,1.m4v,10.0
2024-02-28 13:16:16.337282,1709122576.3372822,-43.45703125,-33.203125,-27.83203125,-23.92578125,-1.0,0.0,0.0,0.0,1.m4v,10.0
2024-02-28 13:16:16.341187,1709122576.3411872,-47.36328125,-27.83203125,-31.25,-37.109375,-1.0,0.0,0.0,0.0,1.m4v,10.0
2024-02-28 13:16:16.345093,1709122576.3450923,-54.19921875,-33.203125,-34.1796875,-35.64453125,-1.0,0.0,0.0,0.0,1.m4v,10.0
2024-02-28 13:16:16.348998,1709122576.3489978,-55.6640625,-40.52734375,-35.64453125,-38.0859375,-1.0,0.0,0.0,0.0,1.m4v,10.0
2024-02-28 13:16:16.352903,1709122576.352903,-60.546875,-41.015625,-38.0859375,-49.8046875,-1.0,0.0,0.0,0.0,1.m4v,10.0
2024-02-28 13:16:16.356808,1709122576.3568082,-59.08203125,-38.0859375,-34.1796875,-53.7109375,-1.0,0.0,0.0,0.0,1.m4v,10.0
2024-02-28 13:16:16.360713,1709122576.3607132,-47.8515625,-37.59765625,-32.71484375,-53.22265625,-1.0,0.0,0.0,0.0,1.m4v,10.0
2024-02-28 13:16:16.364619,1709122576.3646183,-43.45703125,-40.52734375,-37.109375,-56.640625,-1.0,0.0,0.0,0.0,1.m4v,10.0
2024-02-28 13:16:16.368524,1709122576.3685238,-50.78125,-42.48046875,-36.1328125,-55.6640625,-1.0,0.0,0.0,0.0,1.m4v,10.0
2024-02-28 13:16:16.372435,1709122576.3724349,-49.8046875,-35.15625,-36.62109375,-53.22265625,-1.0,0.0,0.0,0.0,1.m4v,10.0
2024-02-28 13:16:16.376340,1709122576.3763402,-52.24609375,-33.203125,-35.64453125,-48.33984375,-1.0,0.0,0.0,0.0,1.m4v,10.0
2024-02-28 13:16:16.380245,1709122576.3802452,-43.9453125,-33.203125,-29.78515625,-40.52734375,-1.0,0.0,0.0,0.0,1.m4v,10.0
2024-02-28 13:16:16.384151,1709122576.3841505,-36.1328125,-28.3203125,-25.390625,-40.0390625,-1.0,0.0,0.0,0.0,1.m4v,10.0
2024-02-28 13:16:16.388056,1709122576.3880558,-41.015625,-32.71484375,-28.80859375,-35.64453125,-1.0,0.0,0.0,0.0,1.m4v,10.0
2024-02-28 13:16:16.391961,1709122576.3919609,-44.43359375,-35.15625,-31.25,-32.71484375,-1.0,0.0,0.0,0.0,1.m4v,10.0
2024-02-28 13:16:16.395866,1709122576.3958662,-46.38671875,-31.73828125,-28.3203125,-35.15625,-1.0,0.0,0.0,0.0,1.m4v,10.0
2024-02-28 13:16:16.399771,1709122576.3997712,-46.875,-31.73828125,-30.76171875,-42.48046875,-1.0,0.0,0.0,0.0,1.m4v,10.0
2024-02-28 13:16:16.403677,1709122576.4036765,-41.50390625,-31.25,-38.0859375,-44.921875,-1.0,0.0,0.0,0.0,1.m4v,10.0
2024-02-28 13:16:16.407582,1709122576.4075818,-38.57421875,-34.66796875,-36.1328125,-41.9921875,-1.0,0.0,0.0,0.0,1.m4v,10.0
2024-02-28 13:16:16.411487,1709122576.4114869,-43.9453125,-37.59765625,-34.1796875,-49.31640625,-1.0,0.0,0.0,0.0,1.m4v,10.0
2024-02-28 13:16:16.415392,1709122576.4153922,-42.48046875,-37.59765625,-36.62109375,-54.19921875,-1.0,0.0,0.0,0.0,1.m4v,10.0
2024-02-28 13:16:16.419308,1709122576.4193082,-39.55078125,-41.9921875,-35.64453125,-57.6171875,-1.0,0.0,0.0,0.0,1.m4v,10.0
2024-02-28 13:16:16.423213,1709122576.4232135,-36.1328125,-40.52734375,-35.15625,-54.19921875,-1.0,0.0,0.0,0.0,1.m4v,10.0
2024-02-28 13:16:16.427119,1709122576.4271183,-31.73828125,-36.62109375,-33.69140625,-45.41015625,-1.0,0.0,0.0,0.0,1.m4v,10.0
2024-02-28 13:16:16.431024,1709122576.4310238,-24.90234375,-35.64453125,-31.25,-41.9921875,-1.0,0.0,0.0,0.0,1.m4v,10.0
2024-02-28 13:16:16.434929,1709122576.434929,-29.78515625,-35.64453125,-29.296875,-39.55078125,-1.0,0.0,0.0,0.0,1.m4v,10.0
2024-02-28 13:16:16.438834,1709122576.4388342,-33.69140625,-32.71484375,-32.2265625,-38.57421875,-1.0,0.0,0.0,0.0,1.m4v,10.0
2024-02-28 13:16:16.442739,1709122576.4427395,-36.1328125,-32.2265625,-33.69140625,-40.52734375,-1.0,0.0,0.0,0.0,1.m4v,10.0
2024-02-28 13:16:16.446645,1709122576.4466443,-42.96875,-33.203125,-33.203125,-49.8046875,-1.0,0.0,0.0,0.0,1.m4v,10.0
2024-02-28 13:16:16.450550,1709122576.4505498,-41.50390625,-28.80859375,-31.25,-56.15234375,-1.0,0.0,0.0,0.0,1.m4v,10.0
2024-02-28 13:16:16.454455,1709122576.454455,-38.57421875,-29.78515625,-35.64453125,-50.78125,-1.0,0.0,0.0,0.0,1.m4v,10.0
2024-02-28 13:16:16.458360,1709122576.4583602,-39.55078125,-36.1328125,-39.0625,-44.43359375,-1.0,0.0,0.0,0.0,1.m4v,10.0
2024-02-28 13:16:16.462265,1709122576.4622655,-38.57421875,-32.71484375,-41.9921875,-44.43359375,-1.0,0.0,0.0,0.0,1.m4v,10.0
2024-02-28 13:16:16.466180,1709122576.46618,-29.296875,-32.2265625,-41.50390625,-50.78125,-1.0,0.0,0.0,0.0,1.m4v,10.0
2024-02-28 13:16:16.470085,1709122576.4700854,-29.78515625,-35.15625,-37.59765625,-40.52734375,-1.0,0.0,0.0,0.0,1.m4v,10.0
2024-02-28 13:16:16.473990,1709122576.4739904,-34.66796875,-32.71484375,-38.57421875,-35.15625,-1.0,0.0,0.0,0.0,1.m4v,10.0
2024-02-28 13:16:16.477896,1709122576.4778955,-39.55078125,-35.15625,-37.109375,-42.96875,-1.0,0.0,0.0,0.0,1.m4v,10.0
2024-02-28 13:16:16.481801,1709122576.481801,-41.015625,-33.69140625,-34.66796875,-48.828125,-1.0,0.0,0.0,0.0,1.m4v,10.0
2024-02-28 13:16:16.485706,1709122576.485706,-31.25,-27.34375,-35.15625,-46.875,-1.0,0.0,0.0,0.0,1.m4v,10.0
2024-02-28 13:16:16.489611,1709122576.4896114,-31.73828125,-30.2734375,-30.2734375,-39.0625,-1.0,0.0,0.0,0.0,1.m4v,10.0
2024-02-28 13:16:16.493516,1709122576.4935164,-38.0859375,-27.34375,-27.34375,-31.73828125,-1.0,0.0,0.0,0.0,1.m4v,10.0
2024-02-28 13:16:16.497422,1709122576.4974215,-41.50390625,-22.94921875,-29.296875,-38.0859375,-1.0,0.0,0.0,0.0,1.m4v,10.0
2024-02-28 13:16:16.501327,1709122576.501327,-45.41015625,-25.87890625,-27.34375,-39.55078125,-1.0,0.0,0.0,0.0,1.m4v,10.0
2024-02-28 13:16:16.505232,1709122576.505232,-46.38671875,-20.99609375,-27.34375,-39.55078125,-1.0,0.0,0.0,0.0,1.m4v,10.0
2024-02-28 13:16:16.509137,1709122576.5091374,-51.26953125,-21.97265625,-28.80859375,-43.9453125,-1.0,0.0,0.0,0.0,1.m4v,10.0
2024-02-28 13:16:16.513051,1709122576.5130513,-48.33984375,-29.296875,-33.69140625,-46.875,-1.0,0.0,0.0,0.0,1.m4v,10.0
2024-02-28 13:16:16.516957,1709122576.5169566,-38.57421875,-34.1796875,-36.62109375,-49.8046875,-1.0,0.0,0.0,0.0,1.m4v,10.0
2024-02-28 13:16:16.520862,1709122576.5208616,-41.9921875,-31.73828125,-29.296875,-48.33984375,-1.0,0.0,0.0,0.0,1.m4v,10.0
2024-02-28 13:16:16.524767,1709122576.524767,-50.78125,-27.83203125,-29.296875,-47.8515625,-1.0,0.0,0.0,0.0,1.m4v,10.0
2024-02-28 13:16:16.528672,1709122576.5286722,-49.8046875,-27.83203125,-31.73828125,-48.828125,-1.0,0.0,0.0,0.0,1.m4v,10.0
2024-02-28 13:16:16.532577,1709122576.5325773,-47.8515625,-27.34375,-28.3203125,-48.828125,-1.0,0.0,0.0,0.0,1.m4v,10.0
2024-02-28 13:16:16.536483,1709122576.5364826,-50.78125,-31.25,-29.78515625,-47.36328125,-1.0,0.0,0.0,0.0,1.m4v,10.0
2024-02-28 13:16:16.540388,1709122576.5403876,-45.41015625,-33.69140625,-33.203125,-50.78125,-1.0,0.0,0.0,0.0,1.m4v,10.0
2024-02-28 13:16:16.544293,1709122576.544293,-35.64453125,-25.87890625,-28.3203125,-54.19921875,-1.0,0.0,0.0,0.0,1.m4v,10.0
2024-02-28 13:16:16.934886,1709122576.934886,-25.87890625,-40.52734375,-43.45703125,-39.0625,-1.0,0.0,0.0,0.0,1.m4v,10.0
2024-02-28 13:16:16.938791,1709122576.9387913,-21.484375,-38.0859375,-42.96875,-35.15625,-1.0,0.0,0.0,0.0,1.m4v,10.0
2024-02-28 13:16:16.942697,1709122576.9426966,-21.484375,-33.69140625,-37.109375,-35.15625,-1.0,0.0,0.0,0.0,1.m4v,10.0
2024-02-28 13:16:16.946602,1709122576.9466016,-18.06640625,-36.62109375,-34.66796875,-37.109375,-1.0,0.0,0.0,0.0,1.m4v,10.0
2024-02-28 13:16:16.950507,1709122576.950507,-22.4609375,-39.0625,-35.15625,-41.50390625,-1.0,0.0,0.0,0.0,1.m4v,10.0
2024-02-28 13:16:16.954412,1709122576.954412,-20.5078125,-40.0390625,-32.71484375,-32.2265625,-1.0,0.0,0.0,0.0,1.m4v,10.0
2024-02-28 13:16:16.958317,1709122576.9583173,-15.625,-35.64453125,-31.73828125,-15.13671875,-1.0,0.0,0.0,0.0,1.m4v,10.0
2024-02-28 13:16:16.962223,1709122576.9622226,-17.08984375,-28.3203125,-34.1796875,-20.5078125,-1.0,0.0,0.0,0.0,1.m4v,10.0
2024-02-28 13:16:16.966128,1709122576.9661276,-20.01953125,-33.203125,-36.1328125,-31.25,-1.0,0.0,0.0,0.0,1.m4v,10.0
2024-02-28 13:16:16.970033,1709122576.970033,-20.99609375,-36.1328125,-34.1796875,-29.296875,-1.0,0.0,0.0,0.0,1.m4v,10.0
2024-02-28 13:16:16.973938,1709122576.9739382,-20.01953125,-33.69140625,-29.296875,-23.92578125,-1.0,0.0,0.0,0.0,1.m4v,10.0
2024-02-28 13:16:16.977843,1709122576.9778433,-18.5546875,-34.66796875,-30.76171875,-21.97265625,-1.0,0.0,0.0,0.0,1.m4v,10.0
2024-02-28 13:16:16.981756,1709122576.9817564,-23.4375,-35.64453125,-35.64453125,-26.3671875,-1.0,0.0,0.0,0.0,1.m4v,10.0
2024-02-28 13:16:16.985662,1709122576.9856615,-35.64453125,-36.62109375,-32.71484375,-30.76171875,-1.0,0.0,0.0,0.0,1.m4v,10.0
2024-02-28 13:16:16.989567,1709122576.9895668,-30.2734375,-38.0859375,-31.73828125,-35.64453125,-1.0,0.0,0.0,0.0,1.m4v,10.0
2024-02-28 13:16:16.993472,1709122576.993472,-23.4375,-38.57421875,-31.73828125,-34.1796875,-1.0,0.0,0.0,0.0,1.m4v,10.0
2024-02-28 13:16:16.997377,1709122576.9973772,-34.66796875,-39.0625,-33.203125,-33.69140625,-1.0,0.0,0.0,0.0,1.m4v,10.0
2024-02-28 13:16:17.001282,1709122577.0012825,-31.25,-35.64453125,-34.66796875,-34.66796875,-1.0,0.0,0.0,0.0,1.m4v,10.0
2024-02-28 13:16:17.005188,1709122577.0051875,-17.578125,-32.2265625,-31.25,-30.2734375,-1.0,0.0,0.0,0.0,1.m4v,10.0
2024-02-28 13:16:17.009093,1709122577.0090928,-27.34375,-32.2265625,-31.73828125,-37.109375,-1.0,0.0,0.0,0.0,1.m4v,10.0
2024-02-28 13:16:17.012998,1709122577.012998,-33.203125,-32.71484375,-34.1796875,-39.55078125,-1.0,0.0,0.0,0.0,1.m4v,10.0
2024-02-28 13:16:17.016903,1709122577.0169032,-27.83203125,-33.203125,-32.71484375,-29.296875,-1.0,0.0,0.0,0.0,1.m4v,10.0
2024-02-28 13:16:17.020808,1709122577.0208085,-30.76171875,-30.2734375,-27.83203125,-28.80859375,-1.0,0.0,0.0,0.0,1.m4v,10.0
2024-02-28 13:16:17.024714,1709122577.0247138,-34.1796875,-27.34375,-25.87890625,-39.55078125,-1.0,0.0,0.0,0.0,1.m4v,10.0
2024-02-28 13:16:17.028626,1709122577.0286262,-35.64453125,-29.296875,-29.296875,-43.45703125,-1.0,0.0,0.0,0.0,1.m4v,10.0
2024-02-28 13:16:17.032531,1709122577.0325315,-41.50390625,-35.15625,-33.203125,-41.50390625,-1.0,0.0,0.0,0.0,1.m4v,10.0
2024-02-28 13:16:17.036437,1709122577.0364368,-35.64453125,-33.69140625,-30.2734375,-38.0859375,-1.0,0.0,0.0,0.0,1.m4v,10.0
2024-02-28 13:16:17.040342,1709122577.040342,-30.2734375,-27.34375,-26.85546875,-29.296875,-1.0,0.0,0.0,0.0,1.m4v,10.0
2024-02-28 13:16:17.044247,1709122577.0442472,-31.73828125,-29.78515625,-29.78515625,-25.87890625,-1.0,0.0,0.0,0.0,1.m4v,10.0
2024-02-28 13:16:17.048152,1709122577.0481524,-40.0390625,-35.64453125,-29.78515625,-30.76171875,-1.0,0.0,0.0,0.0,1.m4v,10.0
2024-02-28 13:16:17.052058,1709122577.0520575,-47.8515625,-34.66796875,-31.73828125,-37.109375,-1.0,0.0,0.0,0.0,1.m4v,10.0
2024-02-28 13:16:17.055963,1709122577.0559628,-43.45703125,-31.73828125,-31.25,-36.62109375,-1.0,0.0,0.0,0.0,1.m4v,10.0
2024-02-28 13:16:17.059868,1709122577.059868,-49.31640625,-34.1796875,-25.87890625,-37.59765625,-1.0,0.0,0.0,0.0,1.m4v,10.0
2024-02-28 13:16:17.063773,1709122577.0637732,-51.26953125,-33.69140625,-28.80859375,-42.48046875,-1.0,0.0,0.0,0.0,1.m4v,10.0
2024-02-28 13:16:17.067678,1709122577.0676785,-44.921875,-32.2265625,-27.34375,-46.38671875,-1.0,0.0,0.0,0.0,1.m4v,10.0
2024-02-28 13:16:17.071584,1709122577.0715835,-54.6875,-33.69140625,-26.85546875,-47.8515625,-1.0,0.0,0.0,0.0,1.m4v,10.0
2024-02-28 13:16:17.075495,1709122577.0754952,-71.2890625,-36.1328125,-32.2265625,-60.05859375,-1.0,0.0,0.0,0.0,1.m4v,10.0
2024-02-28 13:16:17.079400,1709122577.0794003,-67.3828125,-33.203125,-32.71484375,-61.5234375,-1.0,0.0,0.0,0.0,1.m4v,10.0
2024-02-28 13:16:17.083306,1709122577.0833056,-60.546875,-28.80859375,-31.25,-49.8046875,-1.0,0.0,0.0,0.0,1.m4v,10.0
2024-02-28 13:16:17.087211,1709122577.087211,-66.89453125,-31.25,-27.83203125,-48.828125,-1.0,0.0,0.0,0.0,1.m4v,10.0
2024-02-28 13:16:17.091116,1709122577.091116,-77.1484375,-29.296875,-23.92578125,-63.4765625,-1.0,0.0,0.0,0.0,1.m4v,10.0
2024-02-28 13:16:17.095021,1709122577.0950212,-90.8203125,-28.80859375,-18.06640625,-82.51953125,-1.0,0.0,0.0,0.0,1.m4v,10.0
2024-02-28 13:16:17.098926,1709122577.0989263,-98.6328125,-27.83203125,-21.484375,-95.703125,-1.0,0.0,0.0,0.0,1.m4v,10.0
2024-02-28 13:16:17.102832,1709122577.1028316,-110.83984375,-28.80859375,-22.94921875,-109.86328125,-1.0,0.0,0.0,0.0,1.m4v,10.0
2024-02-28 13:16:17.106737,1709122577.106737,-119.62890625,-31.25,-19.53125,-120.60546875,-1.0,0.0,0.0,0.0,1.m4v,10.0
2024-02-28 13:16:17.110642,1709122577.110642,-134.765625,-34.1796875,-21.484375,-133.7890625,-1.0,0.0,0.0,0.0,1.m4v,10.0
2024-02-28 13:16:17.114547,1709122577.1145473,-152.83203125,-36.1328125,-20.99609375,-149.4140625,-1.0,0.0,0.0,0.0,1.m4v,10.0
2024-02-28 13:16:17.118452,1709122577.1184523,-150.390625,-33.69140625,-20.5078125,-144.04296875,-1.0,0.0,0.0,0.0,1.m4v,10.0
2024-02-28 13:16:17.122375,1709122577.1223743,-152.34375,-30.2734375,-21.484375,-145.5078125,-1.0,0.0,0.0,0.0,1.m4v,10.0
2024-02-28 13:16:17.126280,1709122577.1262796,-163.0859375,-29.78515625,-22.4609375,-156.25,-1.0,0.0,0.0,0.0,1.m4v,10.0
2024-02-28 13:16:17.130185,1709122577.130185,-163.57421875,-30.76171875,-21.97265625,-156.73828125,-1.0,0.0,0.0,0.0,1.m4v,10.0
2024-02-28 13:16:17.134090,1709122577.13409,-167.48046875,-38.0859375,-24.90234375,-156.25,-1.0,0.0,0.0,0.0,1.m4v,10.0
2024-02-28 13:16:17.137995,1709122577.1379952,-172.36328125,-38.57421875,-24.90234375,-154.78515625,-1.0,0.0,0.0,0.0,1.m4v,10.0
2024-02-28 13:16:17.141901,1709122577.1419003,-162.59765625,-31.73828125,-21.484375,-142.08984375,-1.0,0.0,0.0,0.0,1.m4v,10.0
2024-02-28 13:16:17.145806,1709122577.1458056,-149.90234375,-35.15625,-22.4609375,-132.8125,-1.0,0.0,0.0,0.0,1.m4v,10.0
2024-02-28 13:16:17.149711,1709122577.149711,-142.578125,-36.1328125,-28.80859375,-133.7890625,-1.0,0.0,0.0,0.0,1.m4v,10.0
2024-02-28 13:16:17.153616,1709122577.153616,-135.7421875,-34.66796875,-30.2734375,-127.44140625,-1.0,0.0,0.0,0.0,1.m4v,10.0
2024-02-28 13:16:17.157521,1709122577.1575212,-135.7421875,-30.2734375,-34.66796875,-124.51171875,-1.0,0.0,0.0,0.0,1.m4v,10.0
2024-02-28 13:16:17.161427,1709122577.1614263,-122.55859375,-26.3671875,-40.52734375,-105.95703125,-1.0,0.0,0.0,0.0,1.m4v,10.0
2024-02-28 13:16:17.165332,1709122577.1653316,-101.07421875,-32.2265625,-37.109375,-92.7734375,-1.0,0.0,0.0,0.0,1.m4v,10.0
2024-02-28 13:16:17.169247,1709122577.1692474,-94.7265625,-32.71484375,-34.1796875,-98.6328125,-1.0,0.0,0.0,0.0,1.m4v,10.0
2024-02-28 13:16:17.173153,1709122577.1731527,-92.28515625,-30.76171875,-36.1328125,-87.890625,-1.0,0.0,0.0,0.0,1.m4v,10.0
2024-02-28 13:16:17.177058,1709122577.1770575,-81.0546875,-32.71484375,-34.66796875,-63.4765625,-1.0,0.0,0.0,0.0,1.m4v,10.0
2024-02-28 13:16:17.180963,1709122577.180963,-61.5234375,-33.203125,-35.15625,-60.546875,-1.0,0.0,0.0,0.0,1.m4v,10.0
2024-02-28 13:16:17.184868,1709122577.1848683,-61.03515625,-38.57421875,-38.0859375,-62.98828125,-1.0,0.0,0.0,0.0,1.m4v,10.0
2024-02-28 13:16:17.188773,1709122577.1887734,-58.10546875,-36.62109375,-36.1328125,-43.45703125,-1.0,0.0,0.0,0.0,1.m4v,10.0
2024-02-28 13:16:17.192679,1709122577.1926787,-34.1796875,-29.78515625,-34.66796875,-28.3203125,-1.0,0.0,0.0,0.0,1.m4v,10.0
2024-02-28 13:16:17.196584,1709122577.196584,-28.3203125,-36.62109375,-36.62109375,-26.3671875,-1.0,0.0,0.0,0.0,1.m4v,10.0
2024-02-28 13:16:17.200489,1709122577.200489,-21.484375,-35.15625,-36.1328125,-33.203125,-1.0,0.0,0.0,0.0,1.m4v,10.0
2024-02-28 13:16:17.204394,1709122577.2043943,-7.8125,-25.87890625,-38.0859375,-18.06640625,-1.0,0.0,0.0,0.0,1.m4v,10.0
2024-02-28 13:16:17.208299,1709122577.2082994,-14.16015625,-34.1796875,-41.015625,-10.25390625,-1.0,0.0,0.0,0.0,1.m4v,10.0
2024-02-28 13:16:17.212205,1709122577.2122047,-14.16015625,-41.50390625,-41.50390625,-15.13671875,-1.0,0.0,0.0,0.0,1.m4v,10.0
2024-02-28 13:16:17.216120,1709122577.2161198,-2.44140625,-35.64453125,-42.96875,-3.41796875,-1.0,0.0,0.0,0.0,1.m4v,10.0
2024-02-28 13:16:17.220025,1709122577.220025,1.953125,-28.80859375,-42.96875,-3.90625,-1.0,0.0,0.0,0.0,1.m4v,10.0
2024-02-28 13:16:17.223930,1709122577.22393,3.90625,-30.76171875,-32.71484375,-5.859375,-1.0,0.0,0.0,0.0,1.m4v,10.0
2024-02-28 13:16:17.227835,1709122577.2278354,5.859375,-29.78515625,-29.296875,-3.41796875,-1.0,0.0,0.0,0.0,1.m4v,10.0
2024-02-28 13:16:17.231741,1709122577.2317407,-0.9765625,-29.78515625,-35.15625,-7.32421875,-1.0,0.0,0.0,0.0,1.m4v,10.0
2024-02-28 13:16:17.235646,1709122577.2356458,-1.46484375,-32.2265625,-33.203125,-8.30078125,-1.0,0.0,0.0,0.0,1.m4v,10.0
2024-02-28 13:16:17.239551,1709122577.239551,1.46484375,-27.34375,-27.34375,0.0,-1.0,0.0,0.0,0.0,1.m4v,10.0
2024-02-28 13:16:17.243456,1709122577.243456,0.9765625,-25.87890625,-29.78515625,13.18359375,-1.0,0.0,0.0,0.0,1.m4v,10.0
2024-02-28 13:16:17.247361,1709122577.2473614,11.71875,-20.99609375,-34.66796875,9.27734375,-1.0,0.0,0.0,0.0,1.m4v,10.0
2024-02-28 13:16:17.251267,1709122577.2512667,17.578125,-16.11328125,-32.71484375,8.30078125,-1.0,0.0,0.0,0.0,1.m4v,10.0
2024-02-28 13:16:17.255172,1709122577.2551718,18.06640625,-21.97265625,-33.69140625,19.04296875,-1.0,0.0,0.0,0.0,1.m4v,10.0
2024-02-28 13:16:17.259077,1709122577.259077,12.6953125,-28.3203125,-38.0859375,17.08984375,-1.0,0.0,0.0,0.0,1.m4v,10.0
2024-02-28 13:16:17.262992,1709122577.262992,7.32421875,-29.78515625,-29.78515625,13.18359375,-1.0,0.0,0.0,0.0,1.m4v,10.0
2024-02-28 13:16:17.266897,1709122577.2668972,3.41796875,-28.3203125,-29.296875,6.8359375,-1.0,0.0,0.0,0.0,1.m4v,10.0
2024-02-28 13:16:17.270802,1709122577.2708025,-7.8125,-32.71484375,-36.62109375,-2.9296875,-1.0,0.0,0.0,0.0,1.m4v,10.0
2024-02-28 13:16:17.274708,1709122577.2747076,-4.8828125,-35.64453125,-35.64453125,-9.765625,-1.0,0.0,0.0,0.0,1.m4v,10.0
2024-02-28 13:16:17.278613,1709122577.2786126,-2.44140625,-31.25,-34.66796875,-9.765625,-1.0,0.0,0.0,0.0,1.m4v,10.0
2024-02-28 13:16:17.282518,1709122577.282518,-9.765625,-33.69140625,-35.15625,-0.48828125,-1.0,0.0,0.0,0.0,1.m4v,10.0
2024-02-28 13:16:17.286423,1709122577.2864232,-15.13671875,-28.80859375,-34.1796875,-0.48828125,-1.0,0.0,0.0,0.0,1.m4v,10.0
2024-02-28 13:16:17.290328,1709122577.2903285,-9.765625,-28.80859375,-32.71484375,-0.9765625,-1.0,0.0,0.0,0.0,1.m4v,10.0
2024-02-28 13:16:17.294234,1709122577.2942336,-6.34765625,-29.296875,-31.25,6.8359375,-1.0,0.0,0.0,0.0,1.m4v,10.0
2024-02-28 13:16:17.298139,1709122577.2981386,-7.8125,-24.90234375,-29.296875,8.7890625,-1.0,0.0,0.0,0.0,1.m4v,10.0
2024-02-28 13:16:17.302044,1709122577.302044,4.39453125,-31.25,-28.80859375,0.9765625,-1.0,0.0,0.0,0.0,1.m4v,10.0
2024-02-28 13:16:17.305949,1709122577.3059492,-5.859375,-28.3203125,-33.69140625,-20.01953125,-1.0,0.0,0.0,0.0,1.m4v,10.0
2024-02-28 13:16:17.309862,1709122577.3098624,-26.3671875,-27.83203125,-40.0390625,-30.2734375,-1.0,0.0,0.0,0.0,1.m4v,10.0
2024-02-28 13:16:17.313768,1709122577.3137677,-22.94921875,-33.69140625,-39.0625,-25.390625,-1.0,0.0,0.0,0.0,1.m4v,10.0
2024-02-28 13:16:17.317673,1709122577.3176727,-20.5078125,-34.66796875,-35.64453125,-17.578125,-1.0,0.0,0.0,0.0,1.m4v,10.0
2024-02-28 13:16:17.321578,1709122577.321578,-11.71875,-30.2734375,-33.69140625,-17.08984375,-1.0,0.0,0.0,0.0,1.m4v,10.0
2024-02-28 13:16:17.325483,1709122577.325483,-3.90625,-28.3203125,-30.2734375,-15.13671875,-1.0,0.0,0.0,0.0,1.m4v,10.0
2024-02-28 13:16:17.329388,1709122577.3293884,-0.9765625,-32.2265625,-31.73828125,-4.39453125,-1.0,0.0,0.0,0.0,1.m4v,10.0
2024-02-28 13:16:17.333294,1709122577.3332937,8.30078125,-27.34375,-33.203125,-3.90625,-1.0,0.0,0.0,0.0,1.m4v,10.0
2024-02-28 13:16:17.337199,1709122577.337199,-0.9765625,-25.87890625,-31.73828125,-10.25390625,-1.0,0.0,0.0,0.0,1.m4v,10.0
2024-02-28 13:16:17.341104,1709122577.341104,-17.08984375,-31.73828125,-29.296875,-8.7890625,-1.0,0.0,0.0,0.0,1.m4v,10.0
2024-02-28 13:16:17.345009,1709122577.345009,-22.94921875,-39.0625,-29.296875,-6.8359375,-1.0,0.0,0.0,0.0,1.m4v,10.0
2024-02-28 13:16:17.348914,1709122577.3489144,-8.7890625,-38.0859375,-29.78515625,-2.44140625,-1.0,0.0,0.0,0.0,1.m4v,10.0
2024-02-28 13:16:17.352820,1709122577.3528197,-8.30078125,-31.73828125,-30.2734375,-11.23046875,-1.0,0.0,0.0,0.0,1.m4v,10.0
2024-02-28 13:16:17.356732,1709122577.3567324,-13.671875,-34.1796875,-28.3203125,-16.11328125,-1.0,0.0,0.0,0.0,1.m4v,10.0
2024-02-28 13:16:17.360638,1709122577.3606377,-4.39453125,-35.64453125,-26.85546875,-18.06640625,-1.0,0.0,0.0,0.0,1.m4v,10.0
2024-02-28 13:16:17.364543,1709122577.3645427,-12.20703125,-32.2265625,-28.3203125,-17.578125,-1.0,0.0,0.0,0.0,1.m4v,10.0
2024-02-28 13:16:17.368448,1709122577.368448,-19.04296875,-34.1796875,-30.2734375,-16.6015625,-1.0,0.0,0.0,0.0,1.m4v,10.0
2024-02-28 13:16:17.372353,1709122577.372353,-20.5078125,-34.1796875,-34.1796875,-19.53125,-1.0,0.0,0.0,0.0,1.m4v,10.0
2024-02-28 13:16:17.376258,1709122577.3762584,-14.6484375,-30.76171875,-32.2265625,-14.6484375,-1.0,0.0,0.0,0.0,1.m4v,10.0
2024-02-28 13:16:17.380164,1709122577.3801637,-7.32421875,-33.203125,-30.76171875,-15.13671875,-1.0,0.0,0.0,0.0,1.m4v,10.0
2024-02-28 13:16:17.384069,1709122577.3840687,-22.94921875,-32.2265625,-32.2265625,-17.578125,-1.0,0.0,0.0,0.0,1.m4v,10.0
2024-02-28 13:16:17.387974,1709122577.387974,-31.25,-36.1328125,-30.2734375,-9.765625,-1.0,0.0,0.0,0.0,1.m4v,10.0
2024-02-28 13:16:17.391879,1709122577.391879,-30.2734375,-37.109375,-28.80859375,-9.27734375,-1.0,0.0,0.0,0.0,1.m4v,10.0
2024-02-28 13:16:17.395784,1709122577.3957844,-32.71484375,-38.0859375,-29.78515625,-15.625,-1.0,0.0,0.0,0.0,1.m4v,10.0
2024-02-28 13:16:17.399690,1709122577.3996897,-23.4375,-39.55078125,-30.2734375,-15.625,-1.0,0.0,0.0,0.0,1.m4v,10.0
2024-02-28 13:16:17.403602,1709122577.403602,-11.23046875,-30.76171875,-30.76171875,-13.671875,-1.0,0.0,0.0,0.0,1.m4v,10.0
2024-02-28 13:16:17.407507,1709122577.4075072,-10.25390625,-28.3203125,-31.25,-17.08984375,-1.0,0.0,0.0,0.0,1.m4v,10.0
2024-02-28 13:16:17.411412,1709122577.4114125,-11.71875,-35.15625,-29.78515625,-21.484375,-1.0,0.0,0.0,0.0,1.m4v,10.0
2024-02-28 13:16:17.415318,1709122577.4153178,-21.97265625,-36.62109375,-34.1796875,-18.5546875,-1.0,0.0,0.0,0.0,1.m4v,10.0
2024-02-28 13:16:17.419223,1709122577.4192228,-23.92578125,-34.66796875,-37.59765625,-24.4140625,-1.0,0.0,0.0,0.0,1.m4v,10.0
2024-02-28 13:16:17.423128,1709122577.423128,-20.5078125,-33.69140625,-35.64453125,-25.87890625,-1.0,0.0,0.0,0.0,1.m4v,10.0
2024-02-28 13:16:17.427033,1709122577.4270332,-24.4140625,-33.69140625,-39.55078125,-26.3671875,-1.0,0.0,0.0,0.0,1.m4v,10.0
2024-02-28 13:16:17.430938,1709122577.4309385,-27.34375,-34.1796875,-40.52734375,-24.90234375,-1.0,0.0,0.0,0.0,1.m4v,10.0
2024-02-28 13:16:17.434844,1709122577.4348438,-26.85546875,-32.2265625,-34.1796875,-18.06640625,-1.0,0.0,0.0,0.0,1.m4v,10.0
2024-02-28 13:16:17.438749,1709122577.4387488,-19.53125,-25.87890625,-29.296875,-18.06640625,-1.0,0.0,0.0,0.0,1.m4v,10.0
2024-02-28 13:16:17.442654,1709122577.442654,-23.92578125,-27.83203125,-31.25,-22.4609375,-1.0,0.0,0.0,0.0,1.m4v,10.0
2024-02-28 13:16:17.446559,1709122577.4465594,-27.83203125,-34.1796875,-42.48046875,-29.78515625,-1.0,0.0,0.0,0.0,1.m4v,10.0
2024-02-28 13:16:17.450472,1709122577.450472,-28.3203125,-34.1796875,-41.9921875,-27.83203125,-1.0,0.0,0.0,0.0,1.m4v,10.0
2024-02-28 13:16:17.454377,1709122577.454377,-29.78515625,-38.0859375,-37.59765625,-28.3203125,-1.0,0.0,0.0,0.0,1.m4v,10.0
2024-02-28 13:16:17.458282,1709122577.4582822,-27.34375,-42.96875,-42.48046875,-34.1796875,-1.0,0.0,0.0,0.0,1.m4v,10.0
2024-02-28 13:16:17.462188,1709122577.4621875,-22.4609375,-40.0390625,-37.59765625,-27.34375,-1.0,0.0,0.0,0.0,1.m4v,10.0
2024-02-28 13:16:17.466093,1709122577.4660926,-26.85546875,-34.66796875,-31.73828125,-26.85546875,-1.0,0.0,0.0,0.0,1.m4v,10.0
2024-02-28 13:16:17.469998,1709122577.469998,-27.34375,-32.2265625,-33.203125,-32.2265625,-1.0,0.0,0.0,0.0,1.m4v,10.0
2024-02-28 13:16:17.473903,1709122577.473903,-25.87890625,-31.73828125,-34.66796875,-33.69140625,-1.0,0.0,0.0,0.0,1.m4v,10.0
2024-02-28 13:16:17.477808,1709122577.4778082,-30.76171875,-29.78515625,-35.64453125,-34.66796875,-1.0,0.0,0.0,0.0,1.m4v,10.0
2024-02-28 13:16:17.481714,1709122577.4817135,-29.78515625,-27.83203125,-32.71484375,-32.71484375,-1.0,0.0,0.0,0.0,1.m4v,10.0
2024-02-28 13:16:17.485619,1709122577.4856186,-28.80859375,-32.71484375,-27.34375,-32.71484375,-1.0,0.0,0.0,0.0,1.m4v,10.0
2024-02-28 13:16:17.489524,1709122577.489524,-24.90234375,-39.0625,-24.90234375,-30.2734375,-1.0,0.0,0.0,0.0,1.m4v,10.0
2024-02-28 13:16:17.493429,1709122577.493429,-28.80859375,-37.109375,-25.87890625,-30.2734375,-1.0,0.0,0.0,0.0,1.m4v,10.0
2024-02-28 13:16:17.497345,1709122577.497345,-34.1796875,-36.62109375,-27.83203125,-29.78515625,-1.0,0.0,0.0,0.0,1.m4v,10.0
2024-02-28 13:16:17.501250,1709122577.5012505,-34.66796875,-35.15625,-30.76171875,-35.15625,-1.0,0.0,0.0,0.0,1.m4v,10.0
2024-02-28 13:16:17.505156,1709122577.5051556,-32.71484375,-31.73828125,-32.71484375,-40.0390625,-1.0,0.0,0.0,0.0,1.m4v,10.0
2024-02-28 13:16:17.509061,1709122577.5090606,-34.66796875,-33.203125,-37.59765625,-41.50390625,-1.0,0.0,0.0,0.0,1.m4v,10.0
2024-02-28 13:16:17.512966,1709122577.512966,-24.90234375,-33.203125,-37.109375,-32.71484375,-1.0,0.0,0.0,0.0,1.m4v,10.0
2024-02-28 13:16:17.516871,1709122577.5168712,-21.97265625,-31.73828125,-38.57421875,-29.296875,-1.0,0.0,0.0,0.0,1.m4v,10.0
2024-02-28 13:16:18.012926,1709122578.012926,-32.2265625,-35.15625,-22.94921875,-17.578125,-1.0,0.0,0.0,0.0,1.m4v,10.0
2024-02-28 13:16:18.016831,1709122578.016831,-27.34375,-40.0390625,-29.296875,-20.01953125,-1.0,0.0,0.0,0.0,1.m4v,10.0
2024-02-28 13:16:18.020736,1709122578.0207362,-18.5546875,-31.25,-30.2734375,-19.53125,-1.0,0.0,0.0,0.0,1.m4v,10.0
2024-02-28 13:16:18.024641,1709122578.0246413,-19.04296875,-38.57421875,-30.2734375,-17.578125,-1.0,0.0,0.0,0.0,1.m4v,10.0
2024-02-28 13:16:18.028547,1709122578.0285466,-25.87890625,-46.38671875,-37.59765625,-23.92578125,-1.0,0.0,0.0,0.0,1.m4v,10.0
2024-02-28 13:16:18.032452,1709122578.032452,-36.62109375,-39.55078125,-33.69140625,-30.76171875,-1.0,0.0,0.0,0.0,1.m4v,10.0
2024-02-28 13:16:18.036357,1709122578.036357,-32.2265625,-41.50390625,-23.92578125,-26.85546875,-1.0,0.0,0.0,0.0,1.m4v,10.0
2024-02-28 13:16:18.040262,1709122578.0402622,-22.94921875,-40.52734375,-23.92578125,-19.04296875,-1.0,0.0,0.0,0.0,1.m4v,10.0
2024-02-28 13:16:18.044168,1709122578.0441675,-22.4609375,-33.203125,-27.83203125,-26.3671875,-1.0,0.0,0.0,0.0,1.m4v,10.0
2024-02-28 13:16:18.048073,1709122578.0480726,-20.01953125,-32.71484375,-29.78515625,-31.73828125,-1.0,0.0,0.0,0.0,1.m4v,10.0
2024-02-28 13:16:18.051978,1709122578.051978,-17.08984375,-34.66796875,-31.73828125,-30.2734375,-1.0,0.0,0.0,0.0,1.m4v,10.0
2024-02-28 13:16:18.055883,1709122578.055883,-18.5546875,-32.2265625,-31.25,-37.59765625,-1.0,0.0,0.0,0.0,1.m4v,10.0
2024-02-28 13:16:18.059797,1709122578.0597968,-20.01953125,-38.0859375,-31.25,-39.55078125,-1.0,0.0,0.0,0.0,1.m4v,10.0
2024-02-28 13:16:18.063702,1709122578.063702,-20.01953125,-36.62109375,-32.71484375,-40.0390625,-1.0,0.0,0.0,0.0,1.m4v,10.0
2024-02-28 13:16:18.067607,1709122578.0676072,-20.5078125,-30.76171875,-30.76171875,-41.50390625,-1.0,0.0,0.0,0.0,1.m4v,10.0
2024-02-28 13:16:18.071512,1709122578.0715125,-30.2734375,-33.203125,-29.78515625,-38.0859375,-1.0,0.0,0.0,0.0,1.m4v,10.0
2024-02-28 13:16:18.075418,1709122578.0754178,-36.62109375,-40.0390625,-30.2734375,-41.50390625,-1.0,0.0,0.0,0.0,1.m4v,10.0
2024-02-28 13:16:18.079323,1709122578.0793228,-32.71484375,-39.0625,-29.78515625,-43.45703125,-1.0,0.0,0.0,0.0,1.m4v,10.0
2024-02-28 13:16:18.083228,1709122578.083228,-34.66796875,-38.0859375,-28.80859375,-38.57421875,-1.0,0.0,0.0,0.0,1.m4v,10.0
2024-02-28 13:16:18.087133,1709122578.0871332,-36.62109375,-40.52734375,-30.2734375,-32.2265625,-1.0,0.0,0.0,0.0,1.m4v,10.0
2024-02-28 13:16:18.091038,1709122578.0910385,-34.66796875,-39.0625,-33.69140625,-33.203125,-1.0,0.0,0.0,0.0,1.m4v,10.0
2024-02-28 13:16:18.094944,1709122578.0949438,-37.59765625,-41.50390625,-29.78515625,-36.1328125,-1.0,0.0,0.0,0.0,1.m4v,10.0
2024-02-28 13:16:18.098849,1709122578.0988488,-30.76171875,-45.8984375,-27.83203125,-27.83203125,-1.0,0.0,0.0,0.0,1.m4v,10.0
2024-02-28 13:16:18.102754,1709122578.102754,-27.83203125,-47.8515625,-32.2265625,-30.2734375,-1.0,0.0,0.0,0.0,1.m4v,10.0
2024-02-28 13:16:18.106668,1709122578.1066675,-35.64453125,-45.8984375,-31.73828125,-34.66796875,-1.0,0.0,0.0,0.0,1.m4v,10.0
2024-02-28 13:16:18.110573,1709122578.1105728,-22.94921875,-43.9453125,-26.85546875,-31.25,-1.0,0.0,0.0,0.0,1.m4v,10.0
2024-02-28 13:16:18.114478,1709122578.114478,-14.6484375,-35.15625,-24.4140625,-27.83203125,-1.0,0.0,0.0,0.0,1.m4v,10.0
2024-02-28 13:16:18.118383,1709122578.1183832,-20.99609375,-35.64453125,-26.85546875,-32.2265625,-1.0,0.0,0.0,0.0,1.m4v,10.0
2024-02-28 13:16:18.122288,1709122578.1222885,-21.97265625,-31.73828125,-27.83203125,-36.62109375,-1.0,0.0,0.0,0.0,1.m4v,10.0
2024-02-28 13:16:18.126194,1709122578.1261935,-19.53125,-26.3671875,-26.85546875,-34.1796875,-1.0,0.0,0.0,0.0,1.m4v,10.0
2024-02-28 13:16:18.130099,1709122578.1300988,-21.97265625,-28.3203125,-28.80859375,-35.15625,-1.0,0.0,0.0,0.0,1.m4v,10.0
2024-02-28 13:16:18.134004,1709122578.134004,-25.390625,-28.3203125,-31.25,-34.1796875,-1.0,0.0,0.0,0.0,1.m4v,10.0
2024-02-28 13:16:18.137909,1709122578.1379092,-25.390625,-29.78515625,-27.83203125,-37.59765625,-1.0,0.0,0.0,0.0,1.m4v,10.0
2024-02-28 13:16:18.141814,1709122578.1418145,-36.1328125,-31.25,-26.85546875,-42.96875,-1.0,0.0,0.0,0.0,1.m4v,10.0
2024-02-28 13:16:18.145720,1709122578.1457195,-37.59765625,-34.66796875,-31.25,-34.66796875,-1.0,0.0,0.0,0.0,1.m4v,10.0
2024-02-28 13:16:18.149625,1709122578.1496248,-32.71484375,-37.109375,-32.71484375,-27.34375,-1.0,0.0,0.0,0.0,1.m4v,10.0
2024-02-28 13:16:18.153537,1709122578.1535368,-33.203125,-37.109375,-34.1796875,-23.92578125,-1.0,0.0,0.0,0.0,1.m4v,10.0
2024-02-28 13:16:18.157442,1709122578.157442,-31.73828125,-36.1328125,-33.69140625,-28.80859375,-1.0,0.0,0.0,0.0,1.m4v,10.0
2024-02-28 13:16:18.161347,1709122578.1613472,-34.66796875,-35.64453125,-35.15625,-37.109375,-1.0,0.0,0.0,0.0,1.m4v,10.0
2024-02-28 13:16:18.165252,1709122578.1652524,-39.55078125,-37.59765625,-34.1796875,-38.0859375,-1.0,0.0,0.0,0.0,1.m4v,10.0
2024-02-28 13:16:18.169158,1709122578.1691575,-36.62109375,-36.1328125,-33.69140625,-44.43359375,-1.0,0.0,0.0,0.0,1.m4v,10.0
2024-02-28 13:16:18.173063,1709122578.1730628,-37.59765625,-32.71484375,-36.1328125,-38.57421875,-1.0,0.0,0.0,0.0,1.m4v,10.0
2024-02-28 13:16:18.176968,1709122578.176968,-32.71484375,-33.203125,-34.66796875,-32.2265625,-1.0,0.0,0.0,0.0,1.m4v,10.0
2024-02-28 13:16:18.180873,1709122578.1808732,-26.3671875,-37.59765625,-31.25,-40.52734375,-1.0,0.0,0.0,0.0,1.m4v,10.0
2024-02-28 13:16:18.184778,1709122578.1847785,-27.83203125,-41.50390625,-29.78515625,-34.1796875,-1.0,0.0,0.0,0.0,1.m4v,10.0
2024-02-28 13:16:18.188684,1709122578.1886835,-20.99609375,-36.62109375,-29.78515625,-32.2265625,-1.0,0.0,0.0,0.0,1.m4v,10.0
2024-02-28 13:16:18.192589,1709122578.1925888,-17.578125,-35.15625,-29.78515625,-29.78515625,-1.0,0.0,0.0,0.0,1.m4v,10.0
2024-02-28 13:16:18.196494,1709122578.196494,-18.06640625,-41.015625,-27.34375,-25.390625,-1.0,0.0,0.0,0.0,1.m4v,10.0
2024-02-28 13:16:18.200405,1709122578.2004054,-20.01953125,-36.1328125,-26.85546875,-27.83203125,-1.0,0.0,0.0,0.0,1.m4v,10.0
2024-02-28 13:16:18.204310,1709122578.2043104,-20.01953125,-32.2265625,-23.92578125,-17.578125,-1.0,0.0,0.0,0.0,1.m4v,10.0
2024-02-28 13:16:18.208216,1709122578.2082157,-17.08984375,-35.64453125,-27.83203125,-14.16015625,-1.0,0.0,0.0,0.0,1.m4v,10.0
2024-02-28 13:16:18.212121,1709122578.212121,-22.4609375,-33.69140625,-29.78515625,-31.73828125,-1.0,0.0,0.0,0.0,1.m4v,10.0
2024-02-28 13:16:18.216026,1709122578.216026,-30.76171875,-24.90234375,-28.3203125,-43.9453125,-1.0,0.0,0.0,0.0,1.m4v,10.0
2024-02-28 13:16:18.219931,1709122578.2199314,-36.62109375,-23.4375,-31.25,-47.36328125,-1.0,0.0,0.0,0.0,1.m4v,10.0
2024-02-28 13:16:18.223837,1709122578.223837,-37.59765625,-28.80859375,-33.203125,-45.8984375,-1.0,0.0,0.0,0.0,1.m4v,10.0
2024-02-28 13:16:18.227742,1709122578.2277417,-41.9921875,-30.2734375,-38.57421875,-49.8046875,-1.0,0.0,0.0,0.0,1.m4v,10.0
2024-02-28 13:16:18.231647,1709122578.231647,-45.41015625,-24.90234375,-40.52734375,-47.36328125,-1.0,0.0,0.0,0.0,1.m4v,10.0
2024-02-28 13:16:18.235552,1709122578.235552,-45.8984375,-21.97265625,-40.0390625,-39.0625,-1.0,0.0,0.0,0.0,1.m4v,10.0
2024-02-28 13:16:18.239457,1709122578.2394574,-42.48046875,-23.4375,-37.59765625,-48.33984375,-1.0,0.0,0.0,0.0,1.m4v,10.0
2024-02-28 13:16:18.243363,1709122578.243363,-39.0625,-21.484375,-34.66796875,-55.17578125,-1.0,0.0,0.0,0.0,1.m4v,10.0
2024-02-28 13:16:18.247273,1709122578.2472734,-32.71484375,-21.97265625,-32.71484375,-55.17578125,-1.0,0.0,0.0,0.0,1.m4v,10.0
2024-02-28 13:16:18.251179,1709122578.2511785,-28.3203125,-23.4375,-34.1796875,-53.22265625,-1.0,0.0,0.0,0.0,1.m4v,10.0
2024-02-28 13:16:18.255084,1709122578.2550838,-24.4140625,-23.92578125,-32.2265625,-45.8984375,-1.0,0.0,0.0,0.0,1.m4v,10.0
2024-02-28 13:16:18.258989,1709122578.258989,-24.90234375,-22.94921875,-31.73828125,-42.48046875,-1.0,0.0,0.0,0.0,1.m4v,10.0
2024-02-28 13:16:18.262894,1709122578.2628942,-24.4140625,-21.97265625,-32.2265625,-36.62109375,-1.0,0.0,0.0,0.0,1.m4v,10.0
2024-02-28 13:16:18.266799,1709122578.2667994,-21.97265625,-27.83203125,-35.15625,-36.1328125,-1.0,0.0,0.0,0.0,1.m4v,10.0
2024-02-28 13:16:18.270705,1709122578.2707047,-16.6015625,-29.78515625,-39.0625,-41.50390625,-1.0,0.0,0.0,0.0,1.m4v,10.0
2024-02-28 13:16:18.274610,1709122578.2746098,-16.11328125,-24.4140625,-36.62109375,-38.0859375,-1.0,0.0,0.0,0.0,1.m4v,10.0
2024-02-28 13:16:18.278515,1709122578.278515,-26.3671875,-21.97265625,-37.59765625,-38.0859375,-1.0,0.0,0.0,0.0,1.m4v,10.0
2024-02-28 13:16:18.282420,1709122578.2824202,-27.83203125,-28.3203125,-37.59765625,-37.59765625,-1.0,0.0,0.0,0.0,1.m4v,10.0
2024-02-28 13:16:18.286325,1709122578.2863257,-35.15625,-31.73828125,-37.109375,-34.66796875,-1.0,0.0,0.0,0.0,1.m4v,10.0
2024-02-28 13:16:18.290231,1709122578.2902308,-44.921875,-34.1796875,-39.55078125,-36.62109375,-1.0,0.0,0.0,0.0,1.m4v,10.0
2024-02-28 13:16:18.294147,1709122578.2941463,-49.8046875,-30.76171875,-36.1328125,-39.55078125,-1.0,0.0,0.0,0.0,1.m4v,10.0
2024-02-28 13:16:18.298052,1709122578.2980518,-52.24609375,-29.296875,-35.64453125,-44.921875,-1.0,0.0,0.0,0.0,1.m4v,10.0
2024-02-28 13:16:18.301957,1709122578.301957,-42.48046875,-32.71484375,-37.59765625,-45.8984375,-1.0,0.0,0.0,0.0,1.m4v,10.0
2024-02-28 13:16:18.305862,1709122578.3058622,-34.1796875,-29.296875,-35.15625,-40.0390625,-1.0,0.0,0.0,0.0,1.m4v,10.0
2024-02-28 13:16:18.309767,1709122578.3097675,-35.64453125,-29.78515625,-33.69140625,-36.1328125,-1.0,0.0,0.0,0.0,1.m4v,10.0
2024-02-28 13:16:18.313673,1709122578.3136723,-43.45703125,-30.2734375,-35.15625,-31.73828125,-1.0,0.0,0.0,0.0,1.m4v,10.0
2024-02-28 13:16:18.317578,1709122578.3175778,-47.36328125,-30.2734375,-37.59765625,-42.48046875,-1.0,0.0,0.0,0.0,1.m4v,10.0
2024-02-28 13:16:18.321483,1709122578.321483,-40.0390625,-27.83203125,-33.69140625,-42.48046875,-1.0,0.0,0.0,0.0,1.m4v,10.0
2024-02-28 13:16:18.325388,1709122578.3253882,-37.59765625,-25.390625,-29.78515625,-40.0390625,-1.0,0.0,0.0,0.0,1.m4v,10.0
2024-02-28 13:16:18.329293,1709122578.3292935,-50.29296875,-34.66796875,-32.71484375,-51.26953125,-1.0,0.0,0.0,0.0,1.m4v,10.0
2024-02-28 13:16:18.333199,1709122578.3331983,-45.8984375,-37.109375,-30.76171875,-47.36328125,-1.0,0.0,0.0,0.0,1.m4v,10.0
2024-02-28 13:16:18.337104,1709122578.3371038,-41.9921875,-32.2265625,-27.83203125,-41.9921875,-1.0,0.0,0.0,0.0,1.m4v,10.0
2024-02-28 13:16:18.341019,1709122578.3410194,-40.52734375,-27.83203125,-28.3203125,-39.55078125,-1.0,0.0,0.0,0.0,1.m4v,10.0
2024-02-28 13:16:18.344925,1709122578.3449247,-41.50390625,-24.4140625,-25.87890625,-40.52734375,-1.0,0.0,0.0,0.0,1.m4v,10.0
2024-02-28 13:16:18.348830,1709122578.3488295,-43.45703125,-31.25,-29.78515625,-42.96875,-1.0,0.0,0.0,0.0,1.m4v,10.0
2024-02-28 13:16:18.352735,1709122578.352735,-34.66796875,-35.15625,-34.1796875,-38.0859375,-1.0,0.0,0.0,0.0,1.m4v,10.0
2024-02-28 13:16:18.356640,1709122578.3566403,-34.66796875,-32.2265625,-37.109375,-41.015625,-1.0,0.0,0.0,0.0,1.m4v,10.0
2024-02-28 13:16:18.360545,1709122578.3605454,-43.9453125,-30.76171875,-37.109375,-47.36328125,-1.0,0.0,0.0,0.0,1.m4v,10.0
2024-02-28 13:16:18.364451,1709122578.3644507,-48.33984375,-27.34375,-32.2265625,-40.52734375,-1.0,0.0,0.0,0.0,1.m4v,10.0
2024-02-28 13:16:18.368356,1709122578.368356,-47.36328125,-25.390625,-30.2734375,-33.203125,-1.0,0.0,0.0,0.0,1.m4v,10.0
2024-02-28 13:16:18.372261,1709122578.372261,-49.8046875,-28.3203125,-36.62109375,-39.55078125,-1.0,0.0,0.0,0.0,1.m4v,10.0
2024-02-28 13:16:18.376166,1709122578.3761663,-48.828125,-27.83203125,-36.1328125,-39.0625,-1.0,0.0,0.0,0.0,1.m4v,10.0
2024-02-28 13:16:18.380071,1709122578.3800714,-46.38671875,-22.94921875,-34.66796875,-36.1328125,-1.0,0.0,0.0,0.0,1.m4v,10.0
2024-02-28 13:16:18.383977,1709122578.3839767,-48.828125,-27.34375,-36.1328125,-49.8046875,-1.0,0.0,0.0,0.0,1.m4v,10.0
2024-02-28 13:16:18.387891,1709122578.387891,-45.41015625,-31.25,-34.66796875,-59.08203125,-1.0,0.0,0.0,0.0,1.m4v,10.0
2024-02-28 13:16:18.391796,1709122578.3917964,-46.875,-32.2265625,-37.109375,-49.8046875,-1.0,0.0,0.0,0.0,1.m4v,10.0
2024-02-28 13:16:18.395701,1709122578.3957014,-45.8984375,-32.71484375,-32.71484375,-38.57421875,-1.0,0.0,0.0,0.0,1.m4v,10.0
2024-02-28 13:16:18.399607,1709122578.3996067,-38.0859375,-25.390625,-29.78515625,-33.69140625,-1.0,0.0,0.0,0.0,1.m4v,10.0
2024-02-28 13:16:18.403512,1709122578.4035118,-40.0390625,-24.4140625,-32.2265625,-31.73828125,-1.0,0.0,0.0,0.0,1.m4v,10.0
2024-02-28 13:16:18.407417,1709122578.407417,-49.31640625,-32.71484375,-29.78515625,-32.71484375,-1.0,0.0,0.0,0.0,1.m4v,10.0
2024-02-28 13:16:18.411322,1709122578.4113224,-48.828125,-29.296875,-31.73828125,-29.296875,-1.0,0.0,0.0,0.0,1.m4v,10.0
2024-02-28 13:16:18.415227,1709122578.4152274,-42.48046875,-25.390625,-30.76171875,-23.4375,-1.0,0.0,0.0,0.0,1.m4v,10.0
2024-02-28 13:16:18.419133,1709122578.4191327,-48.33984375,-37.109375,-28.3203125,-28.3203125,-1.0,0.0,0.0,0.0,1.m4v,10.0
2024-02-28 13:16:18.423038,1709122578.423038,-54.19921875,-41.9921875,-33.69140625,-30.76171875,-1.0,0.0,0.0,0.0,1.m4v,10.0
2024-02-28 13:16:18.426943,1709122578.426943,-42.96875,-31.73828125,-33.203125,-22.4609375,-1.0,0.0,0.0,0.0,1.m4v,10.0
2024-02-28 13:16:18.430848,1709122578.4308484,-40.52734375,-33.69140625,-27.83203125,-25.390625,-1.0,0.0,0.0,0.0,1.m4v,10.0
2024-02-28 13:16:18.434762,1709122578.4347618,-34.66796875,-35.64453125,-22.94921875,-21.97265625,-1.0,0.0,0.0,0.0,1.m4v,10.0
2024-02-28 13:16:18.438667,1709122578.4386668,-25.390625,-31.73828125,-22.94921875,-18.5546875,-1.0,0.0,0.0,0.0,1.m4v,10.0
2024-02-28 13:16:18.442572,1709122578.442572,-30.76171875,-26.85546875,-22.94921875,-20.01953125,-1.0,0.0,0.0,0.0,1.m4v,10.0
2024-02-28 13:16:18.446477,1709122578.4464774,-34.1796875,-21.484375,-22.94921875,-16.6015625,-1.0,0.0,0.0,0.0,1.m4v,10.0
2024-02-28 13:16:18.450382,1709122578.4503825,-33.203125,-28.3203125,-25.390625,-20.99609375,-1.0,0.0,0.0,0.0,1.m4v,10.0
2024-02-28 13:16:18.454288,1709122578.4542878,-42.96875,-32.2265625,-27.34375,-26.3671875,-1.0,0.0,0.0,0.0,1.m4v,10.0
2024-02-28 13:16:18.458193,1709122578.4581928,-30.2734375,-23.4375,-26.3671875,-11.71875,-1.0,0.0,0.0,0.0,1.m4v,10.0
2024-02-28 13:16:18.462098,1709122578.462098,-19.04296875,-21.484375,-29.78515625,-3.90625,-1.0,0.0,0.0,0.0,1.m4v,10.0
2024-02-28 13:16:18.466003,1709122578.4660034,-41.9921875,-30.76171875,-30.76171875,-16.6015625,-1.0,0.0,0.0,0.0,1.m4v,10.0
2024-02-28 13:16:18.469908,1709122578.4699085,-46.38671875,-34.1796875,-27.34375,-26.85546875,-1.0,0.0,0.0,0.0,1.m4v,10.0
2024-02-28 13:16:18.473814,1709122578.4738138,-36.62109375,-31.73828125,-25.87890625,-27.34375,-1.0,0.0,0.0,0.0,1.m4v,10.0
2024-02-28 13:16:18.477719,1709122578.477719,-38.57421875,-33.69140625,-31.73828125,-29.296875,-1.0,0.0,0.0,0.0,1.m4v,10.0
2024-02-28 13:16:18.481632,1709122578.481632,-36.62109375,-29.78515625,-34.66796875,-26.3671875,-1.0,0.0,0.0,0.0,1.m4v,10.0
2024-02-28 13:16:18.485537,1709122578.4855373,-30.76171875,-29.296875,-25.87890625,-15.13671875,-1.0,0.0,0.0,0.0,1.m4v,10.0
2024-02-28 13:16:18.489442,1709122578.4894423,-33.203125,-32.2265625,-23.4375,-13.671875,-1.0,0.0,0.0,0.0,1.m4v,10.0
2024-02-28 13:16:18.493348,1709122578.4933476,-37.109375,-34.1796875,-29.78515625,-23.4375,-1.0,0.0,0.0,0.0,1.m4v,10.0
2024-02-28 13:16:18.497253,1709122578.4972527,-36.1328125,-35.64453125,-32.2265625,-27.34375,-1.0,0.0,0.0,0.0,1.m4v,10.0
2024-02-28 13:16:18.501158,1709122578.501158,-29.296875,-37.59765625,-31.73828125,-23.92578125,-1.0,0.0,0.0,0.0,1.m4v,10.0
2024-02-28 13:16:18.505063,1709122578.5050633,-22.94921875,-39.0625,-34.66796875,-27.83203125,-1.0,0.0,0.0,0.0,1.m4v,10.0
2024-02-28 13:16:18.508968,1709122578.5089684,-22.4609375,-34.66796875,-35.15625,-20.01953125,-1.0,0.0,0.0,0.0,1.m4v,10.0
2024-02-28 13:16:18.512874,1709122578.5128736,-16.11328125,-30.76171875,-33.69140625,-10.7421875,-1.0,0.0,0.0,0.0,1.m4v,10.0
2024-02-28 13:16:18.516779,1709122578.516779,-20.01953125,-28.80859375,-29.78515625,-12.20703125,-1.0,0.0,0.0,0.0,1.m4v,10.0
2024-02-28 13:16:18.520684,1709122578.520684,-22.4609375,-32.71484375,-28.3203125,-12.20703125,-1.0,0.0,0.0,0.0,1.m4v,10.0
2024-02-28 13:16:18.524589,1709122578.5245893,-22.94921875,-35.15625,-29.78515625,-16.11328125,-1.0,0.0,0.0,0.0,1.m4v,10.0
2024-02-28 13:16:18.528502,1709122578.528502,-25.390625,-32.2265625,-31.25,-14.6484375,-1.0,0.0,0.0,0.0,1.m4v,10.0
2024-02-28 13:16:18.532407,1709122578.5324073,-21.97265625,-30.76171875,-32.2265625,-15.625,-1.0,0.0,0.0,0.0,1.m4v,10.0
2024-02-28 13:16:18.536312,1709122578.5363123,-26.85546875,-33.69140625,-33.69140625,-20.5078125,-1.0,0.0,0.0,0.0,1.m4v,10.0
2024-02-28 13:16:18.540218,1709122578.5402176,-25.87890625,-39.55078125,-31.25,-21.97265625,-1.0,0.0,0.0,0.0,1.m4v,10.0
2024-02-28 13:16:18.544123,1709122578.544123,-22.94921875,-35.64453125,-23.92578125,-24.90234375,-1.0,0.0,0.0,0.0,1.m4v,10.0
2024-02-28 13:16:18.548028,1709122578.548028,-20.99609375,-31.25,-19.53125,-29.78515625,-1.0,0.0,0.0,0.0,1.m4v,10.0
2024-02-28 13:16:18.551933,1709122578.5519333,-18.06640625,-25.87890625,-26.85546875,-28.3203125,-1.0,0.0,0.0,0.0,1.m4v,10.0
2024-02-28 13:16:18.555838,1709122578.5558383,-17.578125,-27.34375,-29.296875,-25.87890625,-1.0,0.0,0.0,0.0,1.m4v,10.0
2024-02-28 13:16:18.559744,1709122578.5597436,-18.5546875,-29.296875,-28.3203125,-24.90234375,-1.0,0.0,0.0,0.0,1.m4v,10.0
2024-02-28 13:16:18.563649,1709122578.563649,-23.92578125,-29.296875,-30.76171875,-21.484375,-1.0,0.0,0.0,0.0,1.m4v,10.0
2024-02-28 13:16:18.567554,1709122578.567554,-22.4609375,-34.1796875,-31.25,-19.04296875,-1.0,0.0,0.0,0.0,1.m4v,10.0
2024-02-28 13:16:18.571459,1709122578.5714593,-21.484375,-34.66796875,-30.76171875,-20.99609375,-1.0,0.0,0.0,0.0,1.m4v,10.0
2024-02-28 13:16:18.575371,1709122578.5753706,-14.6484375,-29.296875,-28.3203125,-21.97265625,-1.0,0.0,0.0,0.0,1.m4v,10.0
2024-02-28 13:16:18.579276,1709122578.5792758,-14.6484375,-30.2734375,-26.3671875,-18.06640625,-1.0,0.0,0.0,0.0,1.m4v,10.0
2024-02-28 13:16:18.583181,1709122578.583181,-31.25,-31.25,-23.92578125,-21.484375,-1.0,0.0,0.0,0.0,1.m4v,10.0
2024-02-28 13:16:18.587086,1709122578.5870862,-33.203125,-34.1796875,-24.4140625,-16.6015625,-1.0,0.0,0.0,0.0,1.m4v,10.0
2024-02-28 13:16:18.590991,1709122578.5909915,-26.3671875,-32.71484375,-25.390625,-12.20703125,-1.0,0.0,0.0,0.0,1.m4v,10.0
2024-02-28 13:16:18.594897,1709122578.5948966,-36.62109375,-28.80859375,-29.78515625,-20.5078125,-1.0,0.0,0.0,0.0,1.m4v,10.0
2024-02-28 13:16:18.997204,1709122578.9972038,-26.85546875,-37.109375,-33.69140625,-27.83203125,-1.0,0.0,0.0,0.0,1.m4v,10.0
2024-02-28 13:16:19.001109,1709122579.0011091,-40.0390625,-38.57421875,-28.3203125,-34.1796875,-1.0,0.0,0.0,0.0,1.m4v,10.0
2024-02-28 13:16:19.005014,1709122579.0050142,-57.12890625,-34.66796875,-27.34375,-48.33984375,-1.0,0.0,0.0,0.0,1.m4v,10.0
2024-02-28 13:16:19.008919,1709122579.0089197,-49.8046875,-38.57421875,-33.203125,-51.7578125,-1.0,0.0,0.0,0.0,1.m4v,10.0
2024-02-28 13:16:19.012825,1709122579.0128248,-51.26953125,-45.41015625,-35.15625,-53.22265625,-1.0,0.0,0.0,0.0,1.m4v,10.0
2024-02-28 13:16:19.016730,1709122579.0167298,-58.10546875,-42.48046875,-31.73828125,-49.8046875,-1.0,0.0,0.0,0.0,1.m4v,10.0
2024-02-28 13:16:19.020635,1709122579.0206351,-58.59375,-41.9921875,-31.25,-44.921875,-1.0,0.0,0.0,0.0,1.m4v,10.0
2024-02-28 13:16:19.024540,1709122579.0245402,-55.17578125,-43.9453125,-33.203125,-39.55078125,-1.0,0.0,0.0,0.0,1.m4v,10.0
2024-02-28 13:16:19.028445,1709122579.0284455,-54.6875,-42.48046875,-34.66796875,-38.0859375,-1.0,0.0,0.0,0.0,1.m4v,10.0
2024-02-28 13:16:19.032351,1709122579.0323508,-65.91796875,-44.921875,-34.66796875,-41.9921875,-1.0,0.0,0.0,0.0,1.m4v,10.0
2024-02-28 13:16:19.036256,1709122579.0362558,-60.546875,-47.8515625,-34.1796875,-39.0625,-1.0,0.0,0.0,0.0,1.m4v,10.0
2024-02-28 13:16:19.040161,1709122579.0401611,-46.38671875,-47.8515625,-30.2734375,-37.59765625,-1.0,0.0,0.0,0.0,1.m4v,10.0
2024-02-28 13:16:19.044076,1709122579.0440764,-52.734375,-46.38671875,-26.85546875,-44.43359375,-1.0,0.0,0.0,0.0,1.m4v,10.0
2024-02-28 13:16:19.047982,1709122579.0479815,-51.7578125,-49.8046875,-25.390625,-41.50390625,-1.0,0.0,0.0,0.0,1.m4v,10.0
2024-02-28 13:16:19.051887,1709122579.051887,-44.43359375,-47.36328125,-24.4140625,-41.015625,-1.0,0.0,0.0,0.0,1.m4v,10.0
2024-02-28 13:16:19.055792,1709122579.055792,-45.8984375,-44.43359375,-26.3671875,-51.26953125,-1.0,0.0,0.0,0.0,1.m4v,10.0
2024-02-28 13:16:19.059697,1709122579.0596974,-42.96875,-42.96875,-27.34375,-53.7109375,-1.0,0.0,0.0,0.0,1.m4v,10.0
2024-02-28 13:16:19.063603,1709122579.0636027,-41.015625,-38.57421875,-33.203125,-51.7578125,-1.0,0.0,0.0,0.0,1.m4v,10.0
2024-02-28 13:16:19.067508,1709122579.0675075,-51.7578125,-37.109375,-38.57421875,-48.33984375,-1.0,0.0,0.0,0.0,1.m4v,10.0
2024-02-28 13:16:19.071413,1709122579.071413,-55.17578125,-36.1328125,-33.69140625,-41.9921875,-1.0,0.0,0.0,0.0,1.m4v,10.0
2024-02-28 13:16:19.075318,1709122579.075318,-44.921875,-34.66796875,-31.25,-48.33984375,-1.0,0.0,0.0,0.0,1.m4v,10.0
2024-02-28 13:16:19.079223,1709122579.0792234,-42.96875,-32.71484375,-29.78515625,-43.9453125,-1.0,0.0,0.0,0.0,1.m4v,10.0
2024-02-28 13:16:19.083129,1709122579.0831287,-43.45703125,-32.71484375,-27.34375,-37.109375,-1.0,0.0,0.0,0.0,1.m4v,10.0
2024-02-28 13:16:19.087034,1709122579.0870335,-41.9921875,-34.1796875,-27.34375,-41.50390625,-1.0,0.0,0.0,0.0,1.m4v,10.0
2024-02-28 13:16:19.090949,1709122579.0909493,-40.0390625,-37.109375,-30.2734375,-31.25,-1.0,0.0,0.0,0.0,1.m4v,10.0
2024-02-28 13:16:19.094854,1709122579.0948544,-46.38671875,-37.109375,-29.78515625,-35.64453125,-1.0,0.0,0.0,0.0,1.m4v,10.0
2024-02-28 13:16:19.098760,1709122579.0987597,-52.24609375,-35.15625,-24.90234375,-38.57421875,-1.0,0.0,0.0,0.0,1.m4v,10.0
2024-02-28 13:16:19.102665,1709122579.102665,-54.6875,-37.109375,-27.83203125,-31.73828125,-1.0,0.0,0.0,0.0,1.m4v,10.0
2024-02-28 13:16:19.106570,1709122579.10657,-56.640625,-37.109375,-30.76171875,-36.1328125,-1.0,0.0,0.0,0.0,1.m4v,10.0
2024-02-28 13:16:19.110475,1709122579.1104753,-54.19921875,-31.25,-28.80859375,-38.57421875,-1.0,0.0,0.0,0.0,1.m4v,10.0
2024-02-28 13:16:19.114381,1709122579.1143806,-57.6171875,-32.71484375,-27.83203125,-36.62109375,-1.0,0.0,0.0,0.0,1.m4v,10.0
2024-02-28 13:16:19.118286,1709122579.1182857,-53.7109375,-37.109375,-25.390625,-27.83203125,-1.0,0.0,0.0,0.0,1.m4v,10.0
2024-02-28 13:16:19.122191,1709122579.122191,-56.15234375,-34.1796875,-24.90234375,-26.3671875,-1.0,0.0,0.0,0.0,1.m4v,10.0
2024-02-28 13:16:19.126096,1709122579.126096,-62.01171875,-33.69140625,-26.85546875,-36.1328125,-1.0,0.0,0.0,0.0,1.m4v,10.0
2024-02-28 13:16:19.130001,1709122579.1300013,-58.10546875,-26.85546875,-21.97265625,-37.59765625,-1.0,0.0,0.0,0.0,1.m4v,10.0
2024-02-28 13:16:19.133907,1709122579.1339066,-58.10546875,-24.4140625,-20.5078125,-40.0390625,-1.0,0.0,0.0,0.0,1.m4v,10.0
2024-02-28 13:16:19.137821,1709122579.137821,-58.10546875,-30.2734375,-27.34375,-42.96875,-1.0,0.0,0.0,0.0,1.m4v,10.0
2024-02-28 13:16:19.141726,1709122579.1417265,-64.453125,-33.69140625,-29.78515625,-46.38671875,-1.0,0.0,0.0,0.0,1.m4v,10.0
2024-02-28 13:16:19.145631,1709122579.1456313,-63.4765625,-29.78515625,-23.92578125,-34.66796875,-1.0,0.0,0.0,0.0,1.m4v,10.0
2024-02-28 13:16:19.149537,1709122579.1495366,-59.08203125,-30.76171875,-24.90234375,-32.2265625,-1.0,0.0,0.0,0.0,1.m4v,10.0
2024-02-28 13:16:19.153442,1709122579.153442,-61.5234375,-39.0625,-29.296875,-45.8984375,-1.0,0.0,0.0,0.0,1.m4v,10.0
2024-02-28 13:16:19.157347,1709122579.157347,-65.91796875,-36.1328125,-26.85546875,-48.828125,-1.0,0.0,0.0,0.0,1.m4v,10.0
2024-02-28 13:16:19.161252,1709122579.1612525,-68.84765625,-30.2734375,-27.83203125,-53.7109375,-1.0,0.0,0.0,0.0,1.m4v,10.0
2024-02-28 13:16:19.165158,1709122579.1651576,-66.40625,-30.2734375,-22.94921875,-64.94140625,-1.0,0.0,0.0,0.0,1.m4v,10.0
2024-02-28 13:16:19.169063,1709122579.1690626,-78.125,-36.62109375,-21.484375,-83.984375,-1.0,0.0,0.0,0.0,1.m4v,10.0
2024-02-28 13:16:19.172968,1709122579.172968,-96.6796875,-42.48046875,-30.2734375,-96.6796875,-1.0,0.0,0.0,0.0,1.m4v,10.0
2024-02-28 13:16:19.176873,1709122579.176873,-101.07421875,-45.8984375,-30.76171875,-100.09765625,-1.0,0.0,0.0,0.0,1.m4v,10.0
2024-02-28 13:16:19.180778,1709122579.1807785,-115.72265625,-40.0390625,-25.87890625,-120.1171875,-1.0,0.0,0.0,0.0,1.m4v,10.0
2024-02-28 13:16:19.184693,1709122579.1846926,-146.97265625,-32.2265625,-21.97265625,-141.11328125,-1.0,0.0,0.0,0.0,1.m4v,10.0
2024-02-28 13:16:19.188598,1709122579.188598,-166.015625,-37.109375,-23.4375,-156.73828125,-1.0,0.0,0.0,0.0,1.m4v,10.0
2024-02-28 13:16:19.192503,1709122579.192503,-168.45703125,-36.1328125,-26.85546875,-171.38671875,-1.0,0.0,0.0,0.0,1.m4v,10.0
2024-02-28 13:16:19.196408,1709122579.1964085,-178.7109375,-31.73828125,-31.25,-175.78125,-1.0,0.0,0.0,0.0,1.m4v,10.0
2024-02-28 13:16:19.200313,1709122579.200313,-188.4765625,-34.1796875,-37.59765625,-170.8984375,-1.0,0.0,0.0,0.0,1.m4v,10.0
2024-02-28 13:16:19.204219,1709122579.2042186,-179.6875,-35.15625,-36.62109375,-164.55078125,-1.0,0.0,0.0,0.0,1.m4v,10.0
2024-02-28 13:16:19.208124,1709122579.208124,-171.875,-36.1328125,-36.1328125,-166.9921875,-1.0,0.0,0.0,0.0,1.m4v,10.0
2024-02-28 13:16:19.212029,1709122579.212029,-164.55078125,-35.64453125,-36.1328125,-155.76171875,-1.0,0.0,0.0,0.0,1.m4v,10.0
2024-02-28 13:16:19.215934,1709122579.2159345,-161.62109375,-39.55078125,-33.203125,-146.484375,-1.0,0.0,0.0,0.0,1.m4v,10.0
2024-02-28 13:16:19.219840,1709122579.2198396,-152.83203125,-41.9921875,-30.76171875,-139.16015625,-1.0,0.0,0.0,0.0,1.m4v,10.0
2024-02-28 13:16:19.223745,1709122579.2237446,-127.9296875,-37.109375,-26.85546875,-115.72265625,-1.0,0.0,0.0,0.0,1.m4v,10.0
2024-02-28 13:16:19.227650,1709122579.22765,-125.0,-37.59765625,-28.3203125,-115.234375,-1.0,0.0,0.0,0.0,1.m4v,10.0
2024-02-28 13:16:19.231563,1709122579.231563,-122.0703125,-41.50390625,-33.203125,-118.65234375,-1.0,0.0,0.0,0.0,1.m4v,10.0
2024-02-28 13:16:19.235468,1709122579.235468,-104.98046875,-40.0390625,-30.2734375,-98.14453125,-1.0,0.0,0.0,0.0,1.m4v,10.0
2024-02-28 13:16:19.239373,1709122579.2393734,-94.7265625,-37.59765625,-37.109375,-97.65625,-1.0,0.0,0.0,0.0,1.m4v,10.0
2024-02-28 13:16:19.243279,1709122579.2432787,-87.890625,-32.2265625,-43.45703125,-87.40234375,-1.0,0.0,0.0,0.0,1.m4v,10.0
2024-02-28 13:16:19.247184,1709122579.2471838,-88.37890625,-34.1796875,-38.57421875,-73.73046875,-1.0,0.0,0.0,0.0,1.m4v,10.0
2024-02-28 13:16:19.251089,1709122579.251089,-77.63671875,-36.62109375,-37.109375,-75.68359375,-1.0,0.0,0.0,0.0,1.m4v,10.0
2024-02-28 13:16:19.254994,1709122579.2549942,-64.453125,-33.69140625,-34.66796875,-65.4296875,-1.0,0.0,0.0,0.0,1.m4v,10.0
2024-02-28 13:16:19.258899,1709122579.2588997,-51.7578125,-36.62109375,-33.203125,-44.921875,-1.0,0.0,0.0,0.0,1.m4v,10.0
2024-02-28 13:16:19.262805,1709122579.2628047,-51.26953125,-32.71484375,-37.109375,-42.48046875,-1.0,0.0,0.0,0.0,1.m4v,10.0
2024-02-28 13:16:19.266710,1709122579.2667098,-49.31640625,-28.80859375,-39.0625,-45.8984375,-1.0,0.0,0.0,0.0,1.m4v,10.0
2024-02-28 13:16:19.270615,1709122579.270615,-32.71484375,-34.1796875,-39.55078125,-37.109375,-1.0,0.0,0.0,0.0,1.m4v,10.0
2024-02-28 13:16:19.274520,1709122579.2745204,-27.83203125,-32.71484375,-33.203125,-27.83203125,-1.0,0.0,0.0,0.0,1.m4v,10.0
2024-02-28 13:16:19.278433,1709122579.2784328,-29.296875,-32.71484375,-24.4140625,-17.08984375,-1.0,0.0,0.0,0.0,1.m4v,10.0
2024-02-28 13:16:19.282338,1709122579.282338,-24.90234375,-31.25,-28.3203125,-20.01953125,-1.0,0.0,0.0,0.0,1.m4v,10.0
2024-02-28 13:16:19.286243,1709122579.2862432,-30.2734375,-32.2265625,-40.0390625,-30.76171875,-1.0,0.0,0.0,0.0,1.m4v,10.0
2024-02-28 13:16:19.290148,1709122579.2901485,-23.4375,-35.15625,-45.8984375,-18.06640625,-1.0,0.0,0.0,0.0,1.m4v,10.0
2024-02-28 13:16:19.294054,1709122579.2940536,-15.625,-33.69140625,-45.8984375,-11.23046875,-1.0,0.0,0.0,0.0,1.m4v,10.0
2024-02-28 13:16:19.297959,1709122579.2979589,-4.39453125,-24.4140625,-45.41015625,-12.6953125,-1.0,0.0,0.0,0.0,1.m4v,10.0
2024-02-28 13:16:19.301864,1709122579.301864,5.859375,-24.90234375,-44.921875,-4.8828125,-1.0,0.0,0.0,0.0,1.m4v,10.0
2024-02-28 13:16:19.305769,1709122579.3057692,-1.46484375,-39.55078125,-43.45703125,-0.9765625,-1.0,0.0,0.0,0.0,1.m4v,10.0
2024-02-28 13:16:19.309675,1709122579.3096745,0.0,-35.64453125,-39.0625,2.9296875,-1.0,0.0,0.0,0.0,1.m4v,10.0
2024-02-28 13:16:19.313580,1709122579.3135796,-1.953125,-28.80859375,-38.0859375,-1.46484375,-1.0,0.0,0.0,0.0,1.m4v,10.0
2024-02-28 13:16:19.317485,1709122579.3174849,-7.8125,-29.78515625,-43.9453125,-8.7890625,-1.0,0.0,0.0,0.0,1.m4v,10.0
2024-02-28 13:16:19.321390,1709122579.3213902,-2.9296875,-22.94921875,-41.50390625,-2.44140625,-1.0,0.0,0.0,0.0,1.m4v,10.0
2024-02-28 13:16:19.325302,1709122579.325302,7.8125,-20.01953125,-36.1328125,-5.859375,-1.0,0.0,0.0,0.0,1.m4v,10.0
2024-02-28 13:16:19.329207,1709122579.329207,0.0,-23.92578125,-41.9921875,-6.34765625,-1.0,0.0,0.0,0.0,1.m4v,10.0
2024-02-28 13:16:19.333112,1709122579.3331122,-8.7890625,-27.34375,-43.9453125,-8.30078125,-1.0,0.0,0.0,0.0,1.m4v,10.0
2024-02-28 13:16:19.337017,1709122579.3370173,3.41796875,-29.78515625,-39.0625,-9.27734375,-1.0,0.0,0.0,0.0,1.m4v,10.0
2024-02-28 13:16:19.340923,1709122579.3409226,8.30078125,-29.296875,-34.66796875,-3.41796875,-1.0,0.0,0.0,0.0,1.m4v,10.0
2024-02-28 13:16:19.344828,1709122579.344828,6.34765625,-28.3203125,-30.2734375,3.41796875,-1.0,0.0,0.0,0.0,1.m4v,10.0
2024-02-28 13:16:19.348733,1709122579.348733,-5.859375,-32.2265625,-31.25,-0.9765625,-1.0,0.0,0.0,0.0,1.m4v,10.0
2024-02-28 13:16:19.352638,1709122579.3526382,-10.7421875,-32.71484375,-29.296875,-3.90625,-1.0,0.0,0.0,0.0,1.m4v,10.0
2024-02-28 13:16:19.356544,1709122579.3565435,0.9765625,-31.25,-25.87890625,1.46484375,-1.0,0.0,0.0,0.0,1.m4v,10.0
2024-02-28 13:16:19.360449,1709122579.3604486,5.859375,-36.1328125,-31.73828125,-5.37109375,-1.0,0.0,0.0,0.0,1.m4v,10.0
2024-02-28 13:16:19.364354,1709122579.364354,-5.859375,-40.52734375,-39.55078125,-14.16015625,-1.0,0.0,0.0,0.0,1.m4v,10.0
2024-02-28 13:16:19.368259,1709122579.368259,-7.8125,-38.0859375,-39.0625,-12.20703125,-1.0,0.0,0.0,0.0,1.m4v,10.0
2024-02-28 13:16:19.372170,1709122579.3721704,1.953125,-32.2265625,-37.109375,-7.8125,-1.0,0.0,0.0,0.0,1.m4v,10.0
2024-02-28 13:16:19.376076,1709122579.3760755,8.30078125,-32.71484375,-37.59765625,3.90625,-1.0,0.0,0.0,0.0,1.m4v,10.0
2024-02-28 13:16:19.379981,1709122579.3799808,7.8125,-35.64453125,-35.15625,13.671875,-1.0,0.0,0.0,0.0,1.m4v,10.0
2024-02-28 13:16:19.383886,1709122579.383886,-0.9765625,-30.76171875,-34.1796875,3.41796875,-1.0,0.0,0.0,0.0,1.m4v,10.0
2024-02-28 13:16:19.387791,1709122579.3877914,-0.9765625,-28.3203125,-33.69140625,0.48828125,-1.0,0.0,0.0,0.0,1.m4v,10.0
2024-02-28 13:16:19.391696,1709122579.3916965,5.859375,-29.296875,-28.80859375,9.27734375,-1.0,0.0,0.0,0.0,1.m4v,10.0
2024-02-28 13:16:19.395602,1709122579.3956015,0.48828125,-29.296875,-23.4375,10.25390625,-1.0,0.0,0.0,0.0,1.m4v,10.0
2024-02-28 13:16:19.399507,1709122579.3995068,-2.44140625,-29.78515625,-23.4375,8.7890625,-1.0,0.0,0.0,0.0,1.m4v,10.0
2024-02-28 13:16:19.403412,1709122579.403412,-3.90625,-29.78515625,-22.94921875,5.859375,-1.0,0.0,0.0,0.0,1.m4v,10.0
2024-02-28 13:16:19.407317,1709122579.4073174,-13.671875,-32.71484375,-25.87890625,-8.30078125,-1.0,0.0,0.0,0.0,1.m4v,10.0
2024-02-28 13:16:19.411222,1709122579.4112225,-9.27734375,-33.203125,-28.80859375,-12.20703125,-1.0,0.0,0.0,0.0,1.m4v,10.0
2024-02-28 13:16:19.415128,1709122579.4151278,-4.8828125,-30.2734375,-29.296875,-14.16015625,-1.0,0.0,0.0,0.0,1.m4v,10.0
2024-02-28 13:16:19.419043,1709122579.419043,-9.27734375,-30.76171875,-31.73828125,-18.5546875,-1.0,0.0,0.0,0.0,1.m4v,10.0
2024-02-28 13:16:19.422948,1709122579.4229484,-4.39453125,-32.2265625,-31.73828125,-13.18359375,-1.0,0.0,0.0,0.0,1.m4v,10.0
2024-02-28 13:16:19.426854,1709122579.4268537,-7.32421875,-28.80859375,-31.25,-15.625,-1.0,0.0,0.0,0.0,1.m4v,10.0
2024-02-28 13:16:19.430759,1709122579.4307587,-13.671875,-25.390625,-27.34375,-15.625,-1.0,0.0,0.0,0.0,1.m4v,10.0
2024-02-28 13:16:19.434664,1709122579.434664,-11.23046875,-22.94921875,-25.390625,-11.71875,-1.0,0.0,0.0,0.0,1.m4v,10.0
2024-02-28 13:16:19.438569,1709122579.4385693,-16.6015625,-20.5078125,-26.3671875,-15.13671875,-1.0,0.0,0.0,0.0,1.m4v,10.0
2024-02-28 13:16:19.442474,1709122579.4424744,-13.671875,-18.06640625,-24.4140625,-13.18359375,-1.0,0.0,0.0,0.0,1.m4v,10.0
2024-02-28 13:16:19.446380,1709122579.4463797,-10.7421875,-20.5078125,-22.4609375,-15.13671875,-1.0,0.0,0.0,0.0,1.m4v,10.0
2024-02-28 13:16:19.450285,1709122579.4502847,-15.13671875,-24.90234375,-27.83203125,-17.08984375,-1.0,0.0,0.0,0.0,1.m4v,10.0
2024-02-28 13:16:19.454190,1709122579.45419,-24.4140625,-26.3671875,-35.15625,-14.6484375,-1.0,0.0,0.0,0.0,1.m4v,10.0
2024-02-28 13:16:19.458095,1709122579.4580953,-20.01953125,-27.34375,-33.69140625,-10.7421875,-1.0,0.0,0.0,0.0,1.m4v,10.0
2024-02-28 13:16:19.462000,1709122579.4620004,-12.20703125,-26.3671875,-26.3671875,-6.8359375,-1.0,0.0,0.0,0.0,1.m4v,10.0
2024-02-28 13:16:19.465915,1709122579.4659152,-20.5078125,-16.6015625,-27.34375,-23.92578125,-1.0,0.0,0.0,0.0,1.m4v,10.0
2024-02-28 13:16:19.469820,1709122579.4698205,-23.92578125,-12.20703125,-32.2265625,-39.55078125,-1.0,0.0,0.0,0.0,1.m4v,10.0
2024-02-28 13:16:19.473726,1709122579.4737256,-20.99609375,-18.06640625,-28.80859375,-38.0859375,-1.0,0.0,0.0,0.0,1.m4v,10.0
2024-02-28 13:16:19.477631,1709122579.4776309,-23.92578125,-21.97265625,-24.4140625,-39.0625,-1.0,0.0,0.0,0.0,1.m4v,10.0
2024-02-28 13:16:19.481536,1709122579.481536,-31.25,-25.87890625,-29.78515625,-43.9453125,-1.0,0.0,0.0,0.0,1.m4v,10.0
2024-02-28 13:16:19.485441,1709122579.4854412,-28.3203125,-21.484375,-32.71484375,-40.52734375,-1.0,0.0,0.0,0.0,1.m4v,10.0
2024-02-28 13:16:19.489347,1709122579.4893465,-19.53125,-19.04296875,-29.296875,-27.83203125,-1.0,0.0,0.0,0.0,1.m4v,10.0
2024-02-28 13:16:19.493252,1709122579.4932518,-13.18359375,-24.90234375,-32.71484375,-22.94921875,-1.0,0.0,0.0,0.0,1.m4v,10.0
2024-02-28 13:16:19.497157,1709122579.4971569,-18.5546875,-31.25,-39.55078125,-25.390625,-1.0,0.0,0.0,0.0,1.m4v,10.0
2024-02-28 13:16:19.501062,1709122579.5010622,-25.87890625,-33.69140625,-45.41015625,-29.296875,-1.0,0.0,0.0,0.0,1.m4v,10.0
2024-02-28 13:16:19.504967,1709122579.5049672,-21.97265625,-31.73828125,-39.0625,-25.390625,-1.0,0.0,0.0,0.0,1.m4v,10.0
2024-02-28 13:16:19.508873,1709122579.5088725,-17.08984375,-37.109375,-30.76171875,-26.85546875,-1.0,0.0,0.0,0.0,1.m4v,10.0
2024-02-28 13:16:19.512787,1709122579.5127866,-23.4375,-37.59765625,-38.57421875,-30.2734375,-1.0,0.0,0.0,0.0,1.m4v,10.0
2024-02-28 13:16:19.516692,1709122579.516692,-27.34375,-32.2265625,-43.9453125,-22.94921875,-1.0,0.0,0.0,0.0,1.m4v,10.0
2024-02-28 13:16:19.520597,1709122579.520597,-18.5546875,-29.78515625,-37.109375,-21.484375,-1.0,0.0,0.0,0.0,1.m4v,10.0
2024-02-28 13:16:19.524502,1709122579.5245025,-14.16015625,-28.3203125,-35.64453125,-23.92578125,-1.0,0.0,0.0,0.0,1.m4v,10.0
2024-02-28 13:16:19.528408,1709122579.5284076,-20.99609375,-28.3203125,-37.59765625,-27.83203125,-1.0,0.0,0.0,0.0,1.m4v,10.0
2024-02-28 13:16:19.532313,1709122579.5323126,-16.11328125,-24.90234375,-35.64453125,-24.90234375,-1.0,0.0,0.0,0.0,1.m4v,10.0
2024-02-28 13:16:19.536218,1709122579.536218,-9.765625,-23.4375,-37.59765625,-25.87890625,-1.0,0.0,0.0,0.0,1.m4v,10.0
2024-02-28 13:16:19.540123,1709122579.540123,-23.4375,-31.25,-41.015625,-29.296875,-1.0,0.0,0.0,0.0,1.m4v,10.0
2024-02-28 13:16:19.544028,1709122579.5440283,-31.73828125,-35.15625,-40.52734375,-23.92578125,-1.0,0.0,0.0,0.0,1.m4v,10.0
2024-02-28 13:16:19.547934,1709122579.5479336,-24.4140625,-29.78515625,-38.0859375,-23.4375,-1.0,0.0,0.0,0.0,1.m4v,10.0
2024-02-28 13:16:19.551839,1709122579.5518386,-14.6484375,-28.80859375,-36.62109375,-24.4140625,-1.0,0.0,0.0,0.0,1.m4v,10.0
2024-02-28 13:16:19.555744,1709122579.555744,-15.625,-38.57421875,-38.0859375,-26.3671875,-1.0,0.0,0.0,0.0,1.m4v,10.0
2024-02-28 13:16:19.559658,1709122579.5596578,-14.16015625,-33.203125,-39.55078125,-26.85546875,-1.0,0.0,0.0,0.0,1.m4v,10.0
2024-02-28 13:16:19.563563,1709122579.5635629,-12.6953125,-28.80859375,-41.50390625,-26.85546875,-1.0,0.0,0.0,0.0,1.m4v,10.0
2024-02-28 13:16:19.567468,1709122579.5674682,-14.16015625,-37.109375,-40.52734375,-29.296875,-1.0,0.0,0.0,0.0,1.m4v,10.0
2024-02-28 13:16:19.571373,1709122579.5713737,-15.625,-31.73828125,-39.55078125,-35.15625,-1.0,0.0,0.0,0.0,1.m4v,10.0
2024-02-28 13:16:19.575279,1709122579.5752783,-22.4609375,-29.296875,-41.015625,-39.0625,-1.0,0.0,0.0,0.0,1.m4v,10.0
2024-02-28 13:16:19.579184,1709122579.5791838,-34.66796875,-33.203125,-40.0390625,-38.57421875,-1.0,0.0,0.0,0.0,1.m4v,10.0
2024-02-28 13:16:20.028369,1709122580.028369,-78.61328125,-36.1328125,-39.0625,-73.73046875,-1.0,0.0,0.0,0.0,1.m4v,10.0
2024-02-28 13:16:20.032274,1709122580.0322742,-75.1953125,-36.62109375,-44.921875,-74.70703125,-1.0,0.0,0.0,0.0,1.m4v,10.0
2024-02-28 13:16:20.036179,1709122580.0361793,-59.08203125,-35.15625,-42.48046875,-57.6171875,-1.0,0.0,0.0,0.0,1.m4v,10.0
2024-02-28 13:16:20.040085,1709122580.0400846,-46.875,-33.203125,-38.0859375,-32.71484375,-1.0,0.0,0.0,0.0,1.m4v,10.0
2024-02-28 13:16:20.043990,1709122580.04399,-42.48046875,-34.66796875,-36.62109375,-33.69140625,-1.0,0.0,0.0,0.0,1.m4v,10.0
2024-02-28 13:16:20.047895,1709122580.047895,-35.64453125,-36.1328125,-34.66796875,-37.59765625,-1.0,0.0,0.0,0.0,1.m4v,10.0
2024-02-28 13:16:20.051800,1709122580.0518005,-27.34375,-33.203125,-33.69140625,-24.90234375,-1.0,0.0,0.0,0.0,1.m4v,10.0
2024-02-28 13:16:20.055706,1709122580.0557055,-17.578125,-31.73828125,-36.1328125,-9.27734375,-1.0,0.0,0.0,0.0,1.m4v,10.0
2024-02-28 13:16:20.059611,1709122580.0596106,-14.6484375,-35.15625,-32.71484375,-1.953125,-1.0,0.0,0.0,0.0,1.m4v,10.0
2024-02-28 13:16:20.063516,1709122580.063516,-8.7890625,-35.64453125,-26.85546875,2.44140625,-1.0,0.0,0.0,0.0,1.m4v,10.0
2024-02-28 13:16:20.067421,1709122580.067421,-5.859375,-37.109375,-28.3203125,4.8828125,-1.0,0.0,0.0,0.0,1.m4v,10.0
2024-02-28 13:16:20.071326,1709122580.0713265,-0.9765625,-41.9921875,-25.390625,5.859375,-1.0,0.0,0.0,0.0,1.m4v,10.0
2024-02-28 13:16:20.075238,1709122580.0752378,5.859375,-37.109375,-21.97265625,11.71875,-1.0,0.0,0.0,0.0,1.m4v,10.0
2024-02-28 13:16:20.079143,1709122580.0791428,3.41796875,-30.76171875,-24.90234375,17.578125,-1.0,0.0,0.0,0.0,1.m4v,10.0
2024-02-28 13:16:20.083048,1709122580.083048,-5.37109375,-30.76171875,-22.94921875,7.8125,-1.0,0.0,0.0,0.0,1.m4v,10.0
2024-02-28 13:16:20.086953,1709122580.0869534,-3.90625,-30.76171875,-23.92578125,2.9296875,-1.0,0.0,0.0,0.0,1.m4v,10.0
2024-02-28 13:16:20.090858,1709122580.0908585,9.27734375,-27.34375,-23.4375,15.625,-1.0,0.0,0.0,0.0,1.m4v,10.0
2024-02-28 13:16:20.094764,1709122580.0947638,9.765625,-26.3671875,-24.90234375,15.625,-1.0,0.0,0.0,0.0,1.m4v,10.0
2024-02-28 13:16:20.098669,1709122580.0986688,6.8359375,-34.1796875,-29.296875,19.04296875,-1.0,0.0,0.0,0.0,1.m4v,10.0
2024-02-28 13:16:20.102574,1709122580.102574,16.11328125,-31.73828125,-25.87890625,22.4609375,-1.0,0.0,0.0,0.0,1.m4v,10.0
2024-02-28 13:16:20.106479,1709122580.1064794,19.53125,-25.390625,-21.484375,23.4375,-1.0,0.0,0.0,0.0,1.m4v,10.0
2024-02-28 13:16:20.110384,1709122580.1103845,20.99609375,-25.87890625,-21.97265625,31.73828125,-1.0,0.0,0.0,0.0,1.m4v,10.0
2024-02-28 13:16:20.114290,1709122580.1142898,28.3203125,-26.85546875,-20.99609375,37.109375,-1.0,0.0,0.0,0.0,1.m4v,10.0
2024-02-28 13:16:20.118195,1709122580.118195,33.203125,-24.4140625,-22.94921875,42.48046875,-1.0,0.0,0.0,0.0,1.m4v,10.0
2024-02-28 13:16:20.122106,1709122580.1221056,28.80859375,-23.92578125,-23.92578125,40.0390625,-1.0,0.0,0.0,0.0,1.m4v,10.0
2024-02-28 13:16:20.126011,1709122580.126011,31.73828125,-28.80859375,-19.53125,41.50390625,-1.0,0.0,0.0,0.0,1.m4v,10.0
2024-02-28 13:16:20.129916,1709122580.129916,28.80859375,-31.25,-20.99609375,40.0390625,-1.0,0.0,0.0,0.0,1.m4v,10.0
2024-02-28 13:16:20.133821,1709122580.1338212,13.671875,-31.25,-28.3203125,27.83203125,-1.0,0.0,0.0,0.0,1.m4v,10.0
2024-02-28 13:16:20.137727,1709122580.1377263,16.11328125,-28.80859375,-26.3671875,30.76171875,-1.0,0.0,0.0,0.0,1.m4v,10.0
2024-02-28 13:16:20.141632,1709122580.1416316,24.4140625,-27.83203125,-20.01953125,34.1796875,-1.0,0.0,0.0,0.0,1.m4v,10.0
2024-02-28 13:16:20.145537,1709122580.145537,20.99609375,-32.71484375,-23.92578125,29.296875,-1.0,0.0,0.0,0.0,1.m4v,10.0
2024-02-28 13:16:20.149442,1709122580.1494422,16.6015625,-32.2265625,-27.83203125,25.87890625,-1.0,0.0,0.0,0.0,1.m4v,10.0
2024-02-28 13:16:20.153347,1709122580.1533473,12.20703125,-32.2265625,-29.296875,21.97265625,-1.0,0.0,0.0,0.0,1.m4v,10.0
2024-02-28 13:16:20.157253,1709122580.1572526,13.18359375,-28.80859375,-26.85546875,18.5546875,-1.0,0.0,0.0,0.0,1.m4v,10.0
2024-02-28 13:16:20.161158,1709122580.1611578,12.6953125,-22.4609375,-26.3671875,13.18359375,-1.0,0.0,0.0,0.0,1.m4v,10.0
2024-02-28 13:16:20.165063,1709122580.165063,7.32421875,-24.4140625,-28.3203125,4.8828125,-1.0,0.0,0.0,0.0,1.m4v,10.0
2024-02-28 13:16:20.168978,1709122580.1689785,19.04296875,-28.80859375,-23.92578125,7.8125,-1.0,0.0,0.0,0.0,1.m4v,10.0
2024-02-28 13:16:20.172884,1709122580.1728835,24.90234375,-28.3203125,-22.94921875,12.20703125,-1.0,0.0,0.0,0.0,1.m4v,10.0
2024-02-28 13:16:20.176789,1709122580.1767888,22.4609375,-27.34375,-24.4140625,8.7890625,-1.0,0.0,0.0,0.0,1.m4v,10.0
2024-02-28 13:16:20.180694,1709122580.180694,24.4140625,-27.83203125,-25.87890625,14.6484375,-1.0,0.0,0.0,0.0,1.m4v,10.0
2024-02-28 13:16:20.184599,1709122580.1845992,26.3671875,-22.4609375,-21.97265625,20.01953125,-1.0,0.0,0.0,0.0,1.m4v,10.0
2024-02-28 13:16:20.188504,1709122580.1885045,26.85546875,-21.97265625,-20.01953125,12.20703125,-1.0,0.0,0.0,0.0,1.m4v,10.0
2024-02-28 13:16:20.192410,1709122580.1924098,22.4609375,-19.53125,-21.484375,10.25390625,-1.0,0.0,0.0,0.0,1.m4v,10.0
2024-02-28 13:16:20.196315,1709122580.1963148,24.90234375,-22.94921875,-19.04296875,13.671875,-1.0,0.0,0.0,0.0,1.m4v,10.0
2024-02-28 13:16:20.200220,1709122580.20022,27.83203125,-26.85546875,-19.04296875,18.5546875,-1.0,0.0,0.0,0.0,1.m4v,10.0
2024-02-28 13:16:20.204125,1709122580.2041254,18.06640625,-25.390625,-25.87890625,18.06640625,-1.0,0.0,0.0,0.0,1.m4v,10.0
2024-02-28 13:16:20.208030,1709122580.2080305,22.94921875,-25.390625,-22.94921875,9.765625,-1.0,0.0,0.0,0.0,1.m4v,10.0
2024-02-28 13:16:20.211936,1709122580.2119358,29.78515625,-32.2265625,-18.5546875,14.6484375,-1.0,0.0,0.0,0.0,1.m4v,10.0
2024-02-28 13:16:20.215851,1709122580.215851,18.5546875,-38.0859375,-26.85546875,17.578125,-1.0,0.0,0.0,0.0,1.m4v,10.0
2024-02-28 13:16:20.219756,1709122580.219756,9.765625,-41.50390625,-34.1796875,10.25390625,-1.0,0.0,0.0,0.0,1.m4v,10.0
2024-02-28 13:16:20.223661,1709122580.2236614,7.32421875,-43.45703125,-34.1796875,9.765625,-1.0,0.0,0.0,0.0,1.m4v,10.0
2024-02-28 13:16:20.227566,1709122580.2275665,0.9765625,-38.57421875,-36.62109375,9.27734375,-1.0,0.0,0.0,0.0,1.m4v,10.0
2024-02-28 13:16:20.231472,1709122580.2314718,-5.859375,-34.1796875,-35.64453125,13.18359375,-1.0,0.0,0.0,0.0,1.m4v,10.0
2024-02-28 13:16:20.235377,1709122580.235377,-8.30078125,-36.1328125,-26.3671875,13.18359375,-1.0,0.0,0.0,0.0,1.m4v,10.0
2024-02-28 13:16:20.239282,1709122580.239282,-5.859375,-40.52734375,-23.4375,12.6953125,-1.0,0.0,0.0,0.0,1.m4v,10.0
2024-02-28 13:16:20.243187,1709122580.2431874,-9.27734375,-40.0390625,-25.87890625,16.11328125,-1.0,0.0,0.0,0.0,1.m4v,10.0
2024-02-28 13:16:20.247093,1709122580.2470927,-5.859375,-35.15625,-30.2734375,15.13671875,-1.0,0.0,0.0,0.0,1.m4v,10.0
2024-02-28 13:16:20.250998,1709122580.2509978,3.90625,-33.203125,-30.76171875,14.6484375,-1.0,0.0,0.0,0.0,1.m4v,10.0
2024-02-28 13:16:20.254903,1709122580.254903,7.8125,-34.66796875,-26.85546875,10.7421875,-1.0,0.0,0.0,0.0,1.m4v,10.0
2024-02-28 13:16:20.258808,1709122580.2588084,7.32421875,-31.73828125,-26.85546875,12.6953125,-1.0,0.0,0.0,0.0,1.m4v,10.0
2024-02-28 13:16:20.262728,1709122580.2627285,2.9296875,-28.80859375,-28.80859375,8.30078125,-1.0,0.0,0.0,0.0,1.m4v,10.0
2024-02-28 13:16:20.266634,1709122580.2666335,5.859375,-34.1796875,-25.87890625,9.27734375,-1.0,0.0,0.0,0.0,1.m4v,10.0
2024-02-28 13:16:20.270539,1709122580.270539,1.46484375,-34.66796875,-28.80859375,3.41796875,-1.0,0.0,0.0,0.0,1.m4v,10.0
2024-02-28 13:16:20.274444,1709122580.274444,-3.41796875,-35.64453125,-32.2265625,-8.30078125,-1.0,0.0,0.0,0.0,1.m4v,10.0
2024-02-28 13:16:20.278349,1709122580.2783494,-1.953125,-43.45703125,-28.80859375,-11.71875,-1.0,0.0,0.0,0.0,1.m4v,10.0
2024-02-28 13:16:20.282255,1709122580.2822547,-9.765625,-43.9453125,-26.85546875,-12.6953125,-1.0,0.0,0.0,0.0,1.m4v,10.0
2024-02-28 13:16:20.286160,1709122580.2861598,-7.32421875,-37.59765625,-25.87890625,1.46484375,-1.0,0.0,0.0,0.0,1.m4v,10.0
2024-02-28 13:16:20.290065,1709122580.290065,-7.32421875,-38.0859375,-27.83203125,-0.9765625,-1.0,0.0,0.0,0.0,1.m4v,10.0
2024-02-28 13:16:20.293970,1709122580.29397,-13.18359375,-38.57421875,-29.296875,-9.765625,-1.0,0.0,0.0,0.0,1.m4v,10.0
2024-02-28 13:16:20.297875,1709122580.2978754,-8.30078125,-34.1796875,-27.34375,-4.8828125,-1.0,0.0,0.0,0.0,1.m4v,10.0
2024-02-28 13:16:20.301781,1709122580.3017807,-3.41796875,-32.71484375,-26.85546875,-2.9296875,-1.0,0.0,0.0,0.0,1.m4v,10.0
2024-02-28 13:16:20.305686,1709122580.3056858,-13.671875,-30.2734375,-31.25,-10.7421875,-1.0,0.0,0.0,0.0,1.m4v,10.0
2024-02-28 13:16:20.309600,1709122580.3095996,-13.18359375,-30.2734375,-33.69140625,-15.625,-1.0,0.0,0.0,0.0,1.m4v,10.0
2024-02-28 13:16:20.313505,1709122580.313505,-8.7890625,-35.15625,-33.69140625,-17.578125,-1.0,0.0,0.0,0.0,1.m4v,10.0
2024-02-28 13:16:20.317410,1709122580.31741,-18.06640625,-42.96875,-36.1328125,-21.97265625,-1.0,0.0,0.0,0.0,1.m4v,10.0
2024-02-28 13:16:20.321315,1709122580.3213153,-16.11328125,-43.45703125,-30.76171875,-22.4609375,-1.0,0.0,0.0,0.0,1.m4v,10.0
2024-02-28 13:16:20.325221,1709122580.3252206,-9.27734375,-37.109375,-26.3671875,-19.04296875,-1.0,0.0,0.0,0.0,1.m4v,10.0
2024-02-28 13:16:20.329126,1709122580.3291256,-10.7421875,-32.2265625,-30.2734375,-11.71875,-1.0,0.0,0.0,0.0,1.m4v,10.0
2024-02-28 13:16:20.333031,1709122580.333031,-21.97265625,-38.0859375,-38.0859375,-21.484375,-1.0,0.0,0.0,0.0,1.m4v,10.0
2024-02-28 13:16:20.336936,1709122580.3369362,-21.484375,-32.71484375,-33.203125,-23.92578125,-1.0,0.0,0.0,0.0,1.m4v,10.0
2024-02-28 13:16:20.340841,1709122580.3408413,-21.484375,-27.34375,-31.73828125,-12.20703125,-1.0,0.0,0.0,0.0,1.m4v,10.0
2024-02-28 13:16:20.344747,1709122580.3447466,-33.69140625,-34.66796875,-38.57421875,-12.6953125,-1.0,0.0,0.0,0.0,1.m4v,10.0
2024-02-28 13:16:20.348652,1709122580.348652,-31.73828125,-35.64453125,-35.64453125,-16.11328125,-1.0,0.0,0.0,0.0,1.m4v,10.0
2024-02-28 13:16:20.352557,1709122580.352557,-28.80859375,-33.203125,-30.76171875,-12.20703125,-1.0,0.0,0.0,0.0,1.m4v,10.0
2024-02-28 13:16:20.356470,1709122580.3564696,-26.3671875,-32.71484375,-29.78515625,-15.13671875,-1.0,0.0,0.0,0.0,1.m4v,10.0
2024-02-28 13:16:20.360375,1709122580.360375,-15.13671875,-29.296875,-30.76171875,-22.4609375,-1.0,0.0,0.0,0.0,1.m4v,10.0
2024-02-28 13:16:20.364280,1709122580.3642802,-11.23046875,-23.92578125,-28.3203125,-22.4609375,-1.0,0.0,0.0,0.0,1.m4v,10.0
2024-02-28 13:16:20.368185,1709122580.3681853,-10.25390625,-26.3671875,-28.80859375,-20.5078125,-1.0,0.0,0.0,0.0,1.m4v,10.0
2024-02-28 13:16:20.372091,1709122580.3720906,-15.13671875,-30.76171875,-32.2265625,-13.671875,-1.0,0.0,0.0,0.0,1.m4v,10.0
2024-02-28 13:16:20.375996,1709122580.3759956,-24.4140625,-28.3203125,-31.73828125,-21.97265625,-1.0,0.0,0.0,0.0,1.m4v,10.0
2024-02-28 13:16:20.379901,1709122580.379901,-27.83203125,-30.76171875,-34.1796875,-28.80859375,-1.0,0.0,0.0,0.0,1.m4v,10.0
2024-02-28 13:16:20.383806,1709122580.3838062,-25.87890625,-30.76171875,-39.55078125,-26.85546875,-1.0,0.0,0.0,0.0,1.m4v,10.0
2024-02-28 13:16:20.387711,1709122580.3877113,-26.85546875,-24.90234375,-36.1328125,-27.34375,-1.0,0.0,0.0,0.0,1.m4v,10.0
2024-02-28 13:16:20.391617,1709122580.3916166,-34.1796875,-24.90234375,-32.2265625,-34.66796875,-1.0,0.0,0.0,0.0,1.m4v,10.0
2024-02-28 13:16:20.395522,1709122580.395522,-31.25,-23.92578125,-28.80859375,-33.69140625,-1.0,0.0,0.0,0.0,1.m4v,10.0
2024-02-28 13:16:20.399427,1709122580.399427,-33.203125,-23.92578125,-27.34375,-21.97265625,-1.0,0.0,0.0,0.0,1.m4v,10.0
2024-02-28 13:16:20.403339,1709122580.4033394,-37.59765625,-24.4140625,-32.2265625,-21.97265625,-1.0,0.0,0.0,0.0,1.m4v,10.0
2024-02-28 13:16:20.407245,1709122580.4072447,-36.62109375,-26.3671875,-31.73828125,-28.80859375,-1.0,0.0,0.0,0.0,1.m4v,10.0
2024-02-28 13:16:20.411150,1709122580.41115,-37.59765625,-30.76171875,-34.1796875,-28.80859375,-1.0,0.0,0.0,0.0,1.m4v,10.0
2024-02-28 13:16:20.415055,1709122580.415055,-34.1796875,-31.25,-38.0859375,-20.5078125,-1.0,0.0,0.0,0.0,1.m4v,10.0
2024-02-28 13:16:20.418960,1709122580.4189603,-25.87890625,-26.3671875,-36.62109375,-15.13671875,-1.0,0.0,0.0,0.0,1.m4v,10.0
2024-02-28 13:16:20.422866,1709122580.4228656,-25.390625,-28.3203125,-35.15625,-15.13671875,-1.0,0.0,0.0,0.0,1.m4v,10.0
2024-02-28 13:16:20.426771,1709122580.4267707,-25.87890625,-36.1328125,-34.1796875,-12.20703125,-1.0,0.0,0.0,0.0,1.m4v,10.0
2024-02-28 13:16:20.430676,1709122580.430676,-24.4140625,-42.96875,-33.69140625,-18.06640625,-1.0,0.0,0.0,0.0,1.m4v,10.0
