Timestamp,Timestamp_UNIX,TP9,AF7,AF8,TP10,Valence,Arousal,Dominace,Viewed,Video,Participant
2024-02-28 13:38:31.003268,1709123911.0032678,-58.10546875,-40.0390625,-38.57421875,-54.19921875,-1.0,0.0,-1.0,0.0,4.m4v,10.0
2024-02-28 13:38:31.007172,1709123911.007172,-59.08203125,-36.1328125,-37.109375,-51.7578125,-1.0,0.0,-1.0,0.0,4.m4v,10.0
2024-02-28 13:38:31.011076,1709123911.0110755,-48.828125,-30.2734375,-34.66796875,-41.015625,-1.0,0.0,-1.0,0.0,4.m4v,10.0
2024-02-28 13:38:31.014980,1709123911.0149798,-34.66796875,-30.76171875,-36.62109375,-29.78515625,-1.0,0.0,-1.0,0.0,4.m4v,10.0
2024-02-28 13:38:31.018884,1709123911.0188837,-35.64453125,-29.78515625,-42.48046875,-33.203125,-1.0,0.0,-1.0,0.0,4.m4v,10.0
2024-02-28 13:38:31.022788,1709123911.0227876,-41.9921875,-32.2265625,-41.50390625,-38.57421875,-1.0,0.0,-1.0,0.0,4.m4v,10.0
2024-02-28 13:38:31.026692,1709123911.0266917,-45.41015625,-40.0390625,-39.55078125,-47.8515625,-1.0,0.0,-1.0,0.0,4.m4v,10.0
2024-02-28 13:38:31.030596,1709123911.0305955,-47.36328125,-34.66796875,-36.1328125,-51.26953125,-1.0,0.0,-1.0,0.0,4.m4v,10.0
2024-02-28 13:38:31.034499,1709123911.0344994,-43.45703125,-27.34375,-33.203125,-41.9921875,-1.0,0.0,-1.0,0.0,4.m4v,10.0
2024-02-28 13:38:31.038416,1709123911.038416,-41.9921875,-28.3203125,-32.2265625,-42.96875,-1.0,0.0,-1.0,0.0,4.m4v,10.0
2024-02-28 13:38:31.042320,1709123911.04232,-34.66796875,-35.15625,-32.2265625,-35.15625,-1.0,0.0,-1.0,0.0,4.m4v,10.0
2024-02-28 13:38:31.046224,1709123911.046224,-36.1328125,-40.52734375,-32.2265625,-38.57421875,-1.0,0.0,-1.0,0.0,4.m4v,10.0
2024-02-28 13:38:31.050128,1709123911.050128,-45.41015625,-38.0859375,-37.109375,-52.734375,-1.0,0.0,-1.0,0.0,4.m4v,10.0
2024-02-28 13:38:31.054032,1709123911.0540318,-34.1796875,-33.203125,-35.15625,-46.875,-1.0,0.0,-1.0,0.0,4.m4v,10.0
2024-02-28 13:38:31.057936,1709123911.057936,-25.390625,-31.25,-32.71484375,-41.50390625,-1.0,0.0,-1.0,0.0,4.m4v,10.0
2024-02-28 13:38:31.061840,1709123911.0618398,-25.390625,-34.1796875,-34.1796875,-41.9921875,-1.0,0.0,-1.0,0.0,4.m4v,10.0
2024-02-28 13:38:31.065744,1709123911.065744,-22.94921875,-29.78515625,-35.64453125,-45.8984375,-1.0,0.0,-1.0,0.0,4.m4v,10.0
2024-02-28 13:38:31.069648,1709123911.0696478,-20.99609375,-28.3203125,-40.0390625,-41.50390625,-1.0,0.0,-1.0,0.0,4.m4v,10.0
2024-02-28 13:38:31.073552,1709123911.0735517,-18.06640625,-30.76171875,-32.2265625,-31.73828125,-1.0,0.0,-1.0,0.0,4.m4v,10.0
2024-02-28 13:38:31.077456,1709123911.0774558,-19.53125,-22.4609375,-24.4140625,-32.2265625,-1.0,0.0,-1.0,0.0,4.m4v,10.0
2024-02-28 13:38:31.081360,1709123911.0813596,-24.90234375,-25.87890625,-36.62109375,-33.69140625,-1.0,0.0,-1.0,0.0,4.m4v,10.0
2024-02-28 13:38:31.085275,1709123911.0852747,-30.2734375,-32.2265625,-42.48046875,-34.1796875,-1.0,0.0,-1.0,0.0,4.m4v,10.0
2024-02-28 13:38:31.089179,1709123911.0891786,-32.2265625,-28.80859375,-36.1328125,-35.15625,-1.0,0.0,-1.0,0.0,4.m4v,10.0
2024-02-28 13:38:31.093083,1709123911.093083,-18.5546875,-25.87890625,-35.64453125,-28.3203125,-1.0,0.0,-1.0,0.0,4.m4v,10.0
2024-02-28 13:38:31.096987,1709123911.0969863,-16.6015625,-26.3671875,-35.15625,-24.4140625,-1.0,0.0,-1.0,0.0,4.m4v,10.0
2024-02-28 13:38:31.100891,1709123911.1008906,-24.90234375,-35.15625,-34.1796875,-26.85546875,-1.0,0.0,-1.0,0.0,4.m4v,10.0
2024-02-28 13:38:31.104795,1709123911.1047945,-28.3203125,-36.1328125,-35.64453125,-29.296875,-1.0,0.0,-1.0,0.0,4.m4v,10.0
2024-02-28 13:38:31.108698,1709123911.1086984,-25.390625,-28.80859375,-33.203125,-31.73828125,-1.0,0.0,-1.0,0.0,4.m4v,10.0
2024-02-28 13:38:31.112602,1709123911.1126025,-26.3671875,-32.71484375,-33.69140625,-33.203125,-1.0,0.0,-1.0,0.0,4.m4v,10.0
2024-02-28 13:38:31.116506,1709123911.1165063,-28.80859375,-37.109375,-39.0625,-34.66796875,-1.0,0.0,-1.0,0.0,4.m4v,10.0
2024-02-28 13:38:31.120410,1709123911.1204102,-29.78515625,-34.66796875,-38.0859375,-38.0859375,-1.0,0.0,-1.0,0.0,4.m4v,10.0
2024-02-28 13:38:31.124314,1709123911.1243143,-34.66796875,-28.80859375,-35.64453125,-37.59765625,-1.0,0.0,-1.0,0.0,4.m4v,10.0
2024-02-28 13:38:31.128218,1709123911.1282182,-39.0625,-31.25,-40.52734375,-35.15625,-1.0,0.0,-1.0,0.0,4.m4v,10.0
2024-02-28 13:38:31.132133,1709123911.1321328,-44.921875,-37.59765625,-41.015625,-48.33984375,-1.0,0.0,-1.0,0.0,4.m4v,10.0
2024-02-28 13:38:31.136037,1709123911.1360366,-43.9453125,-33.203125,-39.0625,-49.8046875,-1.0,0.0,-1.0,0.0,4.m4v,10.0
2024-02-28 13:38:31.139941,1709123911.1399407,-39.55078125,-29.296875,-43.9453125,-44.921875,-1.0,0.0,-1.0,0.0,4.m4v,10.0
2024-02-28 13:38:31.143845,1709123911.1438446,-31.73828125,-32.71484375,-42.96875,-43.45703125,-1.0,0.0,-1.0,0.0,4.m4v,10.0
2024-02-28 13:38:31.147748,1709123911.1477485,-28.80859375,-33.203125,-34.66796875,-41.50390625,-1.0,0.0,-1.0,0.0,4.m4v,10.0
2024-02-28 13:38:31.151653,1709123911.1516526,-26.3671875,-33.69140625,-33.203125,-43.45703125,-1.0,0.0,-1.0,0.0,4.m4v,10.0
2024-02-28 13:38:31.155556,1709123911.1555564,-20.01953125,-32.71484375,-35.64453125,-36.1328125,-1.0,0.0,-1.0,0.0,4.m4v,10.0
2024-02-28 13:38:31.159461,1709123911.1594603,-22.94921875,-33.203125,-38.0859375,-34.1796875,-1.0,0.0,-1.0,0.0,4.m4v,10.0
2024-02-28 13:38:31.163364,1709123911.1633644,-29.296875,-32.71484375,-38.0859375,-39.55078125,-1.0,0.0,-1.0,0.0,4.m4v,10.0
2024-02-28 13:38:31.167268,1709123911.1672685,-33.69140625,-29.296875,-38.0859375,-40.0390625,-1.0,0.0,-1.0,0.0,4.m4v,10.0
2024-02-28 13:38:31.171172,1709123911.1711724,-40.52734375,-32.71484375,-37.109375,-53.22265625,-1.0,0.0,-1.0,0.0,4.m4v,10.0
2024-02-28 13:38:31.175076,1709123911.1750762,-40.0390625,-31.25,-37.59765625,-58.10546875,-1.0,0.0,-1.0,0.0,4.m4v,10.0
2024-02-28 13:38:31.178989,1709123911.1789894,-37.59765625,-29.78515625,-37.59765625,-47.36328125,-1.0,0.0,-1.0,0.0,4.m4v,10.0
2024-02-28 13:38:31.182893,1709123911.1828933,-36.1328125,-31.73828125,-35.64453125,-45.41015625,-1.0,0.0,-1.0,0.0,4.m4v,10.0
2024-02-28 13:38:31.186797,1709123911.1867974,-35.64453125,-31.25,-40.0390625,-41.015625,-1.0,0.0,-1.0,0.0,4.m4v,10.0
2024-02-28 13:38:31.190701,1709123911.1907012,-33.69140625,-31.25,-38.57421875,-41.50390625,-1.0,0.0,-1.0,0.0,4.m4v,10.0
2024-02-28 13:38:31.194605,1709123911.194605,-27.83203125,-33.203125,-34.66796875,-45.8984375,-1.0,0.0,-1.0,0.0,4.m4v,10.0
2024-02-28 13:38:31.198509,1709123911.1985092,-30.2734375,-33.203125,-31.73828125,-43.45703125,-1.0,0.0,-1.0,0.0,4.m4v,10.0
2024-02-28 13:38:31.202413,1709123911.202413,-31.73828125,-28.80859375,-29.296875,-42.48046875,-1.0,0.0,-1.0,0.0,4.m4v,10.0
2024-02-28 13:38:31.206317,1709123911.206317,-27.83203125,-24.4140625,-26.3671875,-37.59765625,-1.0,0.0,-1.0,0.0,4.m4v,10.0
2024-02-28 13:38:31.210221,1709123911.210221,-35.15625,-25.87890625,-26.85546875,-41.9921875,-1.0,0.0,-1.0,0.0,4.m4v,10.0
2024-02-28 13:38:31.214125,1709123911.214125,-28.80859375,-27.83203125,-29.78515625,-37.59765625,-1.0,0.0,-1.0,0.0,4.m4v,10.0
2024-02-28 13:38:31.218029,1709123911.218029,-25.87890625,-30.2734375,-30.76171875,-36.1328125,-1.0,0.0,-1.0,0.0,4.m4v,10.0
2024-02-28 13:38:31.221933,1709123911.221933,-31.73828125,-39.0625,-33.69140625,-38.57421875,-1.0,0.0,-1.0,0.0,4.m4v,10.0
2024-02-28 13:38:31.225846,1709123911.2258456,-28.80859375,-37.109375,-40.52734375,-32.2265625,-1.0,0.0,-1.0,0.0,4.m4v,10.0
2024-02-28 13:38:31.229749,1709123911.2297494,-26.3671875,-29.296875,-41.50390625,-30.2734375,-1.0,0.0,-1.0,0.0,4.m4v,10.0
2024-02-28 13:38:31.233653,1709123911.2336533,-28.80859375,-33.203125,-34.66796875,-32.2265625,-1.0,0.0,-1.0,0.0,4.m4v,10.0
2024-02-28 13:38:31.237557,1709123911.2375574,-31.73828125,-35.64453125,-36.1328125,-31.25,-1.0,0.0,-1.0,0.0,4.m4v,10.0
2024-02-28 13:38:31.241461,1709123911.2414613,-28.3203125,-31.25,-34.1796875,-35.15625,-1.0,0.0,-1.0,0.0,4.m4v,10.0
2024-02-28 13:38:31.245365,1709123911.2453651,-30.76171875,-32.71484375,-27.83203125,-38.0859375,-1.0,0.0,-1.0,0.0,4.m4v,10.0
2024-02-28 13:38:31.249269,1709123911.2492692,-34.1796875,-35.64453125,-22.4609375,-31.25,-1.0,0.0,-1.0,0.0,4.m4v,10.0
2024-02-28 13:38:31.253173,1709123911.253173,-35.64453125,-41.015625,-23.4375,-31.73828125,-1.0,0.0,-1.0,0.0,4.m4v,10.0
2024-02-28 13:38:31.257077,1709123911.2570772,-34.66796875,-37.59765625,-24.4140625,-34.1796875,-1.0,0.0,-1.0,0.0,4.m4v,10.0
2024-02-28 13:38:31.260981,1709123911.260981,-38.0859375,-39.55078125,-26.3671875,-38.57421875,-1.0,0.0,-1.0,0.0,4.m4v,10.0
2024-02-28 13:38:31.264885,1709123911.264885,-42.48046875,-44.921875,-33.203125,-45.41015625,-1.0,0.0,-1.0,0.0,4.m4v,10.0
2024-02-28 13:38:31.268789,1709123911.268789,-37.109375,-39.55078125,-34.1796875,-36.62109375,-1.0,0.0,-1.0,0.0,4.m4v,10.0
2024-02-28 13:38:31.272701,1709123911.2727013,-31.25,-40.0390625,-33.203125,-25.87890625,-1.0,0.0,-1.0,0.0,4.m4v,10.0
2024-02-28 13:38:31.276605,1709123911.2766054,-40.0390625,-40.0390625,-35.15625,-27.83203125,-1.0,0.0,-1.0,0.0,4.m4v,10.0
2024-02-28 13:38:31.280509,1709123911.2805092,-47.36328125,-39.55078125,-34.66796875,-32.2265625,-1.0,0.0,-1.0,0.0,4.m4v,10.0
2024-02-28 13:38:31.284413,1709123911.284413,-38.57421875,-36.1328125,-33.69140625,-35.64453125,-1.0,0.0,-1.0,0.0,4.m4v,10.0
2024-02-28 13:38:31.288317,1709123911.2883172,-39.55078125,-34.1796875,-34.1796875,-40.0390625,-1.0,0.0,-1.0,0.0,4.m4v,10.0
2024-02-28 13:38:31.292221,1709123911.292221,-38.57421875,-33.69140625,-33.203125,-40.52734375,-1.0,0.0,-1.0,0.0,4.m4v,10.0
2024-02-28 13:38:31.296125,1709123911.2961252,-43.45703125,-37.109375,-43.45703125,-42.96875,-1.0,0.0,-1.0,0.0,4.m4v,10.0
2024-02-28 13:38:31.300029,1709123911.300029,-44.43359375,-38.57421875,-48.828125,-42.96875,-1.0,0.0,-1.0,0.0,4.m4v,10.0
2024-02-28 13:38:31.303933,1709123911.303933,-34.66796875,-30.2734375,-34.66796875,-40.0390625,-1.0,0.0,-1.0,0.0,4.m4v,10.0
2024-02-28 13:38:31.307837,1709123911.307837,-41.9921875,-30.2734375,-28.3203125,-41.50390625,-1.0,0.0,-1.0,0.0,4.m4v,10.0
2024-02-28 13:38:31.311741,1709123911.3117409,-45.41015625,-35.64453125,-32.2265625,-47.36328125,-1.0,0.0,-1.0,0.0,4.m4v,10.0
2024-02-28 13:38:31.315645,1709123911.315645,-48.33984375,-36.1328125,-36.1328125,-56.640625,-1.0,0.0,-1.0,0.0,4.m4v,10.0
2024-02-28 13:38:31.319555,1709123911.3195548,-49.31640625,-30.2734375,-37.109375,-59.5703125,-1.0,0.0,-1.0,0.0,4.m4v,10.0
2024-02-28 13:38:31.323459,1709123911.323459,-46.875,-26.85546875,-39.0625,-54.19921875,-1.0,0.0,-1.0,0.0,4.m4v,10.0
2024-02-28 13:38:31.327363,1709123911.3273628,-46.38671875,-28.80859375,-37.109375,-47.36328125,-1.0,0.0,-1.0,0.0,4.m4v,10.0
2024-02-28 13:38:31.331267,1709123911.3312666,-46.875,-31.73828125,-31.73828125,-46.875,-1.0,0.0,-1.0,0.0,4.m4v,10.0
2024-02-28 13:38:31.335171,1709123911.3351705,-41.50390625,-30.76171875,-35.15625,-43.9453125,-1.0,0.0,-1.0,0.0,4.m4v,10.0
2024-02-28 13:38:31.339075,1709123911.3390746,-41.015625,-29.78515625,-38.57421875,-44.43359375,-1.0,0.0,-1.0,0.0,4.m4v,10.0
2024-02-28 13:38:31.342978,1709123911.3429785,-46.38671875,-36.1328125,-31.73828125,-44.43359375,-1.0,0.0,-1.0,0.0,4.m4v,10.0
2024-02-28 13:38:31.346883,1709123911.3468826,-34.1796875,-38.0859375,-28.3203125,-34.66796875,-1.0,0.0,-1.0,0.0,4.m4v,10.0
2024-02-28 13:38:31.350786,1709123911.3507864,-19.04296875,-33.203125,-30.76171875,-29.78515625,-1.0,0.0,-1.0,0.0,4.m4v,10.0
2024-02-28 13:38:31.354690,1709123911.3546903,-19.53125,-29.296875,-28.3203125,-29.296875,-1.0,0.0,-1.0,0.0,4.m4v,10.0
2024-02-28 13:38:31.358594,1709123911.3585944,-26.3671875,-32.2265625,-34.1796875,-31.73828125,-1.0,0.0,-1.0,0.0,4.m4v,10.0
2024-02-28 13:38:31.362498,1709123911.3624983,-20.01953125,-33.203125,-34.66796875,-33.203125,-1.0,0.0,-1.0,0.0,4.m4v,10.0
2024-02-28 13:38:31.366416,1709123911.3664155,-12.20703125,-28.80859375,-32.71484375,-31.73828125,-1.0,0.0,-1.0,0.0,4.m4v,10.0
2024-02-28 13:38:31.370319,1709123911.3703194,-20.01953125,-28.3203125,-40.52734375,-32.71484375,-1.0,0.0,-1.0,0.0,4.m4v,10.0
2024-02-28 13:38:31.374223,1709123911.3742237,-25.390625,-31.25,-35.15625,-37.109375,-1.0,0.0,-1.0,0.0,4.m4v,10.0
2024-02-28 13:38:31.378127,1709123911.378127,-23.92578125,-31.73828125,-29.296875,-39.55078125,-1.0,0.0,-1.0,0.0,4.m4v,10.0
2024-02-28 13:38:31.382031,1709123911.3820312,-20.01953125,-29.78515625,-33.203125,-37.109375,-1.0,0.0,-1.0,0.0,4.m4v,10.0
2024-02-28 13:38:31.385935,1709123911.3859353,-19.53125,-31.73828125,-33.69140625,-39.55078125,-1.0,0.0,-1.0,0.0,4.m4v,10.0
2024-02-28 13:38:31.389839,1709123911.3898392,-24.90234375,-37.59765625,-35.64453125,-38.57421875,-1.0,0.0,-1.0,0.0,4.m4v,10.0
2024-02-28 13:38:31.393743,1709123911.393743,-21.97265625,-33.203125,-37.59765625,-39.0625,-1.0,0.0,-1.0,0.0,4.m4v,10.0
2024-02-28 13:38:31.397647,1709123911.3976471,-18.06640625,-25.87890625,-33.203125,-37.59765625,-1.0,0.0,-1.0,0.0,4.m4v,10.0
2024-02-28 13:38:31.401551,1709123911.401551,-19.04296875,-23.4375,-30.76171875,-29.78515625,-1.0,0.0,-1.0,0.0,4.m4v,10.0
2024-02-28 13:38:31.405455,1709123911.405455,-20.5078125,-32.2265625,-33.69140625,-35.15625,-1.0,0.0,-1.0,0.0,4.m4v,10.0
2024-02-28 13:38:31.409359,1709123911.409359,-25.87890625,-39.0625,-32.2265625,-39.55078125,-1.0,0.0,-1.0,0.0,4.m4v,10.0
2024-02-28 13:38:31.413275,1709123911.413275,-33.69140625,-36.1328125,-32.71484375,-35.64453125,-1.0,0.0,-1.0,0.0,4.m4v,10.0
2024-02-28 13:38:31.417179,1709123911.4171789,-35.15625,-39.0625,-36.1328125,-35.15625,-1.0,0.0,-1.0,0.0,4.m4v,10.0
2024-02-28 13:38:31.421083,1709123911.421083,-29.296875,-37.59765625,-33.203125,-31.73828125,-1.0,0.0,-1.0,0.0,4.m4v,10.0
2024-02-28 13:38:31.424987,1709123911.4249868,-29.296875,-29.78515625,-27.83203125,-35.15625,-1.0,0.0,-1.0,0.0,4.m4v,10.0
2024-02-28 13:38:31.428891,1709123911.428891,-38.0859375,-29.296875,-25.390625,-34.1796875,-1.0,0.0,-1.0,0.0,4.m4v,10.0
2024-02-28 13:38:31.432795,1709123911.4327948,-40.0390625,-31.73828125,-29.78515625,-36.1328125,-1.0,0.0,-1.0,0.0,4.m4v,10.0
2024-02-28 13:38:31.436699,1709123911.436699,-39.55078125,-32.71484375,-32.71484375,-39.0625,-1.0,0.0,-1.0,0.0,4.m4v,10.0
2024-02-28 13:38:31.440603,1709123911.4406028,-40.0390625,-37.109375,-34.1796875,-38.0859375,-1.0,0.0,-1.0,0.0,4.m4v,10.0
2024-02-28 13:38:31.444507,1709123911.4445066,-45.41015625,-39.0625,-33.69140625,-41.015625,-1.0,0.0,-1.0,0.0,4.m4v,10.0
2024-02-28 13:38:31.448411,1709123911.4484105,-55.17578125,-38.0859375,-31.25,-37.109375,-1.0,0.0,-1.0,0.0,4.m4v,10.0
2024-02-28 13:38:31.452315,1709123911.4523146,-50.78125,-41.50390625,-33.69140625,-36.62109375,-1.0,0.0,-1.0,0.0,4.m4v,10.0
2024-02-28 13:38:31.456218,1709123911.4562185,-42.48046875,-41.50390625,-29.78515625,-35.15625,-1.0,0.0,-1.0,0.0,4.m4v,10.0
2024-02-28 13:38:31.460134,1709123911.460134,-41.015625,-39.55078125,-28.3203125,-30.2734375,-1.0,0.0,-1.0,0.0,4.m4v,10.0
2024-02-28 13:38:31.464038,1709123911.464038,-35.64453125,-31.73828125,-35.15625,-28.80859375,-1.0,0.0,-1.0,0.0,4.m4v,10.0
2024-02-28 13:38:31.467942,1709123911.467942,-36.1328125,-33.203125,-37.59765625,-35.64453125,-1.0,0.0,-1.0,0.0,4.m4v,10.0
2024-02-28 13:38:31.471846,1709123911.471846,-33.203125,-33.69140625,-41.9921875,-44.43359375,-1.0,0.0,-1.0,0.0,4.m4v,10.0
2024-02-28 13:38:31.475750,1709123911.47575,-29.78515625,-30.2734375,-38.57421875,-42.96875,-1.0,0.0,-1.0,0.0,4.m4v,10.0
2024-02-28 13:38:31.479654,1709123911.4796538,-38.0859375,-34.1796875,-39.0625,-42.96875,-1.0,0.0,-1.0,0.0,4.m4v,10.0
2024-02-28 13:38:31.483558,1709123911.483558,-46.875,-36.62109375,-44.921875,-47.8515625,-1.0,0.0,-1.0,0.0,4.m4v,10.0
2024-02-28 13:38:31.487462,1709123911.4874618,-40.0390625,-31.25,-35.64453125,-43.45703125,-1.0,0.0,-1.0,0.0,4.m4v,10.0
2024-02-28 13:38:31.491366,1709123911.4913657,-38.0859375,-31.73828125,-34.1796875,-38.57421875,-1.0,0.0,-1.0,0.0,4.m4v,10.0
2024-02-28 13:38:31.495270,1709123911.4952698,-38.0859375,-28.3203125,-34.1796875,-34.66796875,-1.0,0.0,-1.0,0.0,4.m4v,10.0
2024-02-28 13:38:31.499174,1709123911.4991736,-29.296875,-23.92578125,-27.83203125,-32.71484375,-1.0,0.0,-1.0,0.0,4.m4v,10.0
2024-02-28 13:38:31.503078,1709123911.5030775,-22.94921875,-29.296875,-22.4609375,-34.66796875,-1.0,0.0,-1.0,0.0,4.m4v,10.0
2024-02-28 13:38:31.506992,1709123911.506992,-29.78515625,-31.73828125,-23.92578125,-38.0859375,-1.0,0.0,-1.0,0.0,4.m4v,10.0
2024-02-28 13:38:31.510896,1709123911.5108955,-29.296875,-29.78515625,-30.2734375,-30.2734375,-1.0,0.0,-1.0,0.0,4.m4v,10.0
2024-02-28 13:38:31.514800,1709123911.5147996,-17.08984375,-27.83203125,-32.2265625,-21.484375,-1.0,0.0,-1.0,0.0,4.m4v,10.0
2024-02-28 13:38:31.518704,1709123911.5187037,-17.08984375,-32.71484375,-36.62109375,-20.01953125,-1.0,0.0,-1.0,0.0,4.m4v,10.0
2024-02-28 13:38:31.522608,1709123911.5226076,-31.73828125,-39.0625,-38.0859375,-21.484375,-1.0,0.0,-1.0,0.0,4.m4v,10.0
2024-02-28 13:38:31.526511,1709123911.5265114,-25.390625,-38.0859375,-36.62109375,-19.53125,-1.0,0.0,-1.0,0.0,4.m4v,10.0
2024-02-28 13:38:31.530416,1709123911.5304155,-8.30078125,-36.62109375,-36.1328125,-14.6484375,-1.0,0.0,-1.0,0.0,4.m4v,10.0
2024-02-28 13:38:31.534319,1709123911.5343194,-15.625,-39.0625,-39.55078125,-24.4140625,-1.0,0.0,-1.0,0.0,4.m4v,10.0
2024-02-28 13:38:31.538224,1709123911.5382235,-24.4140625,-40.52734375,-38.57421875,-35.64453125,-1.0,0.0,-1.0,0.0,4.m4v,10.0
2024-02-28 13:38:31.542127,1709123911.5421274,-27.83203125,-38.57421875,-30.2734375,-41.015625,-1.0,0.0,-1.0,0.0,4.m4v,10.0
2024-02-28 13:38:31.546031,1709123911.5460312,-30.76171875,-34.1796875,-30.2734375,-43.9453125,-1.0,0.0,-1.0,0.0,4.m4v,10.0
2024-02-28 13:38:31.549935,1709123911.549935,-33.203125,-36.1328125,-31.73828125,-38.57421875,-1.0,0.0,-1.0,0.0,4.m4v,10.0
2024-02-28 13:38:31.553849,1709123911.5538485,-32.71484375,-41.50390625,-33.69140625,-41.015625,-1.0,0.0,-1.0,0.0,4.m4v,10.0
2024-02-28 13:38:31.557752,1709123911.5577524,-26.85546875,-35.15625,-33.69140625,-39.0625,-1.0,0.0,-1.0,0.0,4.m4v,10.0
2024-02-28 13:38:31.561656,1709123911.5616562,-32.71484375,-38.0859375,-38.57421875,-33.69140625,-1.0,0.0,-1.0,0.0,4.m4v,10.0
2024-02-28 13:38:31.565560,1709123911.5655603,-40.0390625,-42.96875,-44.43359375,-36.1328125,-1.0,0.0,-1.0,0.0,4.m4v,10.0
2024-02-28 13:38:31.569464,1709123911.5694642,-40.0390625,-38.0859375,-41.015625,-32.71484375,-1.0,0.0,-1.0,0.0,4.m4v,10.0
2024-02-28 13:38:31.573368,1709123911.5733683,-38.57421875,-35.64453125,-37.59765625,-28.80859375,-1.0,0.0,-1.0,0.0,4.m4v,10.0
2024-02-28 13:38:31.577272,1709123911.5772722,-34.66796875,-36.1328125,-37.59765625,-30.76171875,-1.0,0.0,-1.0,0.0,4.m4v,10.0
2024-02-28 13:38:31.581176,1709123911.581176,-33.69140625,-41.015625,-39.55078125,-29.78515625,-1.0,0.0,-1.0,0.0,4.m4v,10.0
2024-02-28 13:38:31.585080,1709123911.58508,-31.25,-37.59765625,-35.15625,-30.2734375,-1.0,0.0,-1.0,0.0,4.m4v,10.0
2024-02-28 13:38:31.588984,1709123911.588984,-38.0859375,-38.57421875,-32.2265625,-31.25,-1.0,0.0,-1.0,0.0,4.m4v,10.0
2024-02-28 13:38:31.592888,1709123911.592888,-42.48046875,-43.45703125,-36.1328125,-29.78515625,-1.0,0.0,-1.0,0.0,4.m4v,10.0
2024-02-28 13:38:31.596792,1709123911.596792,-41.9921875,-42.96875,-32.2265625,-30.2734375,-1.0,0.0,-1.0,0.0,4.m4v,10.0
2024-02-28 13:38:31.600704,1709123911.6007042,-47.8515625,-37.59765625,-31.73828125,-29.78515625,-1.0,0.0,-1.0,0.0,4.m4v,10.0
2024-02-28 13:38:31.604608,1709123911.604608,-45.8984375,-36.62109375,-29.78515625,-35.64453125,-1.0,0.0,-1.0,0.0,4.m4v,10.0
2024-02-28 13:38:31.608512,1709123911.608512,-33.203125,-35.15625,-26.3671875,-35.15625,-1.0,0.0,-1.0,0.0,4.m4v,10.0
2024-02-28 13:38:31.612416,1709123911.612416,-37.109375,-33.203125,-29.78515625,-35.64453125,-1.0,0.0,-1.0,0.0,4.m4v,10.0
2024-02-28 13:38:31.616320,1709123911.61632,-39.55078125,-37.109375,-34.66796875,-45.8984375,-1.0,0.0,-1.0,0.0,4.m4v,10.0
2024-02-28 13:38:31.620224,1709123911.620224,-33.69140625,-33.69140625,-36.1328125,-47.36328125,-1.0,0.0,-1.0,0.0,4.m4v,10.0
2024-02-28 13:38:31.624128,1709123911.624128,-35.15625,-31.73828125,-39.0625,-37.59765625,-1.0,0.0,-1.0,0.0,4.m4v,10.0
2024-02-28 13:38:31.628032,1709123911.6280315,-45.8984375,-34.66796875,-38.57421875,-44.921875,-1.0,0.0,-1.0,0.0,4.m4v,10.0
2024-02-28 13:38:31.631936,1709123911.6319358,-53.22265625,-33.69140625,-28.3203125,-57.6171875,-1.0,0.0,-1.0,0.0,4.m4v,10.0
2024-02-28 13:38:31.635840,1709123911.6358397,-45.41015625,-35.64453125,-25.390625,-49.31640625,-1.0,0.0,-1.0,0.0,4.m4v,10.0
2024-02-28 13:38:31.639744,1709123911.6397436,-44.43359375,-36.1328125,-29.296875,-46.38671875,-1.0,0.0,-1.0,0.0,4.m4v,10.0
2024-02-28 13:38:31.643648,1709123911.6436477,-43.9453125,-37.109375,-33.203125,-53.7109375,-1.0,0.0,-1.0,0.0,4.m4v,10.0
2024-02-28 13:38:31.647559,1709123911.6475594,-49.8046875,-35.64453125,-30.76171875,-56.15234375,-1.0,0.0,-1.0,0.0,4.m4v,10.0
2024-02-28 13:38:31.651464,1709123911.6514635,-55.17578125,-36.1328125,-29.78515625,-61.5234375,-1.0,0.0,-1.0,0.0,4.m4v,10.0
2024-02-28 13:38:31.655367,1709123911.6553674,-55.6640625,-38.0859375,-33.203125,-60.05859375,-1.0,0.0,-1.0,0.0,4.m4v,10.0
2024-02-28 13:38:31.659271,1709123911.6592712,-58.10546875,-33.69140625,-35.64453125,-59.5703125,-1.0,0.0,-1.0,0.0,4.m4v,10.0
2024-02-28 13:38:31.663175,1709123911.663175,-55.6640625,-30.76171875,-40.0390625,-60.546875,-1.0,0.0,-1.0,0.0,4.m4v,10.0
2024-02-28 13:38:31.667079,1709123911.6670792,-48.33984375,-29.296875,-39.0625,-50.29296875,-1.0,0.0,-1.0,0.0,4.m4v,10.0
2024-02-28 13:38:31.670983,1709123911.6709833,-41.9921875,-37.109375,-37.59765625,-46.38671875,-1.0,0.0,-1.0,0.0,4.m4v,10.0
2024-02-28 13:38:31.674887,1709123911.6748872,-38.57421875,-43.9453125,-33.203125,-41.50390625,-1.0,0.0,-1.0,0.0,4.m4v,10.0
2024-02-28 13:38:31.678791,1709123911.678791,-44.921875,-38.57421875,-31.25,-44.43359375,-1.0,0.0,-1.0,0.0,4.m4v,10.0
2024-02-28 13:38:31.682695,1709123911.6826952,-53.22265625,-33.203125,-32.2265625,-49.31640625,-1.0,0.0,-1.0,0.0,4.m4v,10.0
2024-02-28 13:38:31.686599,1709123911.686599,-54.6875,-38.57421875,-30.76171875,-43.45703125,-1.0,0.0,-1.0,0.0,4.m4v,10.0
2024-02-28 13:38:31.690503,1709123911.6905031,-47.36328125,-34.66796875,-24.4140625,-30.76171875,-1.0,0.0,-1.0,0.0,4.m4v,10.0
2024-02-28 13:38:31.694415,1709123911.6944149,-46.875,-30.2734375,-21.484375,-28.80859375,-1.0,0.0,-1.0,0.0,4.m4v,10.0
2024-02-28 13:38:31.698319,1709123911.6983187,-51.26953125,-32.71484375,-30.76171875,-37.59765625,-1.0,0.0,-1.0,0.0,4.m4v,10.0
2024-02-28 13:38:31.702223,1709123911.7022226,-47.36328125,-34.66796875,-38.57421875,-38.0859375,-1.0,0.0,-1.0,0.0,4.m4v,10.0
2024-02-28 13:38:31.706127,1709123911.7061267,-44.921875,-35.15625,-35.15625,-38.0859375,-1.0,0.0,-1.0,0.0,4.m4v,10.0
2024-02-28 13:38:31.710031,1709123911.7100306,-49.8046875,-33.69140625,-30.76171875,-42.48046875,-1.0,0.0,-1.0,0.0,4.m4v,10.0
2024-02-28 13:38:31.713935,1709123911.713935,-51.26953125,-38.57421875,-30.76171875,-47.36328125,-1.0,0.0,-1.0,0.0,4.m4v,10.0
2024-02-28 13:38:31.717839,1709123911.7178383,-42.96875,-39.55078125,-29.78515625,-47.8515625,-1.0,0.0,-1.0,0.0,4.m4v,10.0
2024-02-28 13:38:31.721742,1709123911.7217424,-36.62109375,-36.1328125,-25.390625,-49.8046875,-1.0,0.0,-1.0,0.0,4.m4v,10.0
2024-02-28 13:38:31.725646,1709123911.7256465,-36.62109375,-33.69140625,-28.80859375,-46.38671875,-1.0,0.0,-1.0,0.0,4.m4v,10.0
2024-02-28 13:38:31.729550,1709123911.7295504,-42.96875,-36.1328125,-35.64453125,-42.96875,-1.0,0.0,-1.0,0.0,4.m4v,10.0
2024-02-28 13:38:31.733454,1709123911.7334545,-46.875,-33.203125,-38.57421875,-41.015625,-1.0,0.0,-1.0,0.0,4.m4v,10.0
2024-02-28 13:38:31.737358,1709123911.7373583,-44.921875,-31.73828125,-39.0625,-39.0625,-1.0,0.0,-1.0,0.0,4.m4v,10.0
2024-02-28 13:38:31.741275,1709123911.7412753,-39.55078125,-34.1796875,-32.71484375,-32.71484375,-1.0,0.0,-1.0,0.0,4.m4v,10.0
2024-02-28 13:38:31.745179,1709123911.7451794,-39.55078125,-32.71484375,-26.85546875,-29.78515625,-1.0,0.0,-1.0,0.0,4.m4v,10.0
2024-02-28 13:38:31.749083,1709123911.7490833,-39.0625,-32.2265625,-33.69140625,-31.73828125,-1.0,0.0,-1.0,0.0,4.m4v,10.0
2024-02-28 13:38:31.752987,1709123911.7529871,-33.203125,-31.25,-37.59765625,-31.73828125,-1.0,0.0,-1.0,0.0,4.m4v,10.0
2024-02-28 13:38:31.756891,1709123911.7568913,-29.78515625,-32.2265625,-34.66796875,-30.76171875,-1.0,0.0,-1.0,0.0,4.m4v,10.0
2024-02-28 13:38:31.760795,1709123911.760795,-29.78515625,-33.203125,-35.64453125,-27.83203125,-1.0,0.0,-1.0,0.0,4.m4v,10.0
2024-02-28 13:38:31.764699,1709123911.764699,-32.2265625,-36.62109375,-33.203125,-28.80859375,-1.0,0.0,-1.0,0.0,4.m4v,10.0
2024-02-28 13:38:31.768603,1709123911.768603,-33.203125,-37.109375,-27.34375,-29.296875,-1.0,0.0,-1.0,0.0,4.m4v,10.0
2024-02-28 13:38:31.772507,1709123911.772507,-29.296875,-34.1796875,-28.3203125,-30.2734375,-1.0,0.0,-1.0,0.0,4.m4v,10.0
2024-02-28 13:38:31.776411,1709123911.776411,-20.99609375,-29.78515625,-31.73828125,-24.90234375,-1.0,0.0,-1.0,0.0,4.m4v,10.0
2024-02-28 13:38:31.780315,1709123911.780315,-20.01953125,-29.78515625,-32.2265625,-22.94921875,-1.0,0.0,-1.0,0.0,4.m4v,10.0
2024-02-28 13:38:31.784219,1709123911.7842188,-22.94921875,-30.76171875,-33.69140625,-30.2734375,-1.0,0.0,-1.0,0.0,4.m4v,10.0
2024-02-28 13:38:31.788135,1709123911.788135,-27.34375,-30.76171875,-35.64453125,-32.71484375,-1.0,0.0,-1.0,0.0,4.m4v,10.0
2024-02-28 13:38:31.792039,1709123911.792039,-28.3203125,-37.109375,-33.69140625,-34.66796875,-1.0,0.0,-1.0,0.0,4.m4v,10.0
2024-02-28 13:38:31.795943,1709123911.795943,-31.73828125,-38.57421875,-32.71484375,-31.73828125,-1.0,0.0,-1.0,0.0,4.m4v,10.0
2024-02-28 13:38:31.799847,1709123911.799847,-34.66796875,-37.59765625,-38.0859375,-33.69140625,-1.0,0.0,-1.0,0.0,4.m4v,10.0
2024-02-28 13:38:31.803751,1709123911.8037508,-32.71484375,-33.69140625,-38.0859375,-34.1796875,-1.0,0.0,-1.0,0.0,4.m4v,10.0
2024-02-28 13:38:31.807655,1709123911.8076549,-32.71484375,-28.80859375,-32.2265625,-31.73828125,-1.0,0.0,-1.0,0.0,4.m4v,10.0
2024-02-28 13:38:31.811559,1709123911.8115587,-27.83203125,-25.390625,-26.3671875,-33.69140625,-1.0,0.0,-1.0,0.0,4.m4v,10.0
2024-02-28 13:38:31.815463,1709123911.8154628,-28.3203125,-24.90234375,-31.25,-30.2734375,-1.0,0.0,-1.0,0.0,4.m4v,10.0
2024-02-28 13:38:31.819367,1709123911.8193667,-31.25,-29.78515625,-37.59765625,-32.71484375,-1.0,0.0,-1.0,0.0,4.m4v,10.0
2024-02-28 13:38:31.823271,1709123911.8232706,-33.69140625,-31.25,-36.1328125,-37.59765625,-1.0,0.0,-1.0,0.0,4.m4v,10.0
2024-02-28 13:38:31.827175,1709123911.827175,-33.203125,-33.69140625,-38.57421875,-43.9453125,-1.0,0.0,-1.0,0.0,4.m4v,10.0
2024-02-28 13:38:31.831079,1709123911.8310783,-32.71484375,-32.2265625,-35.64453125,-42.96875,-1.0,0.0,-1.0,0.0,4.m4v,10.0
2024-02-28 13:38:31.834994,1709123911.8349938,-33.203125,-29.78515625,-31.73828125,-40.52734375,-1.0,0.0,-1.0,0.0,4.m4v,10.0
2024-02-28 13:38:31.838898,1709123911.8388977,-26.3671875,-31.25,-31.73828125,-39.55078125,-1.0,0.0,-1.0,0.0,4.m4v,10.0
2024-02-28 13:38:31.842802,1709123911.8428016,-18.5546875,-33.69140625,-32.2265625,-28.80859375,-1.0,0.0,-1.0,0.0,4.m4v,10.0
2024-02-28 13:38:31.846706,1709123911.8467057,-20.5078125,-41.015625,-29.78515625,-29.78515625,-1.0,0.0,-1.0,0.0,4.m4v,10.0
2024-02-28 13:38:31.850610,1709123911.8506095,-22.4609375,-37.109375,-32.2265625,-34.66796875,-1.0,0.0,-1.0,0.0,4.m4v,10.0
2024-02-28 13:38:31.854513,1709123911.8545134,-17.578125,-34.66796875,-31.25,-30.2734375,-1.0,0.0,-1.0,0.0,4.m4v,10.0
2024-02-28 13:38:31.858418,1709123911.8584175,-11.23046875,-37.59765625,-26.85546875,-23.92578125,-1.0,0.0,-1.0,0.0,4.m4v,10.0
2024-02-28 13:38:31.862321,1709123911.8623214,-14.16015625,-36.1328125,-28.3203125,-29.78515625,-1.0,0.0,-1.0,0.0,4.m4v,10.0
2024-02-28 13:38:31.866225,1709123911.8662255,-22.94921875,-34.1796875,-34.1796875,-34.1796875,-1.0,0.0,-1.0,0.0,4.m4v,10.0
2024-02-28 13:38:31.870129,1709123911.870129,-22.4609375,-32.71484375,-33.69140625,-24.90234375,-1.0,0.0,-1.0,0.0,4.m4v,10.0
2024-02-28 13:38:31.874033,1709123911.8740332,-28.80859375,-30.2734375,-31.73828125,-27.34375,-1.0,0.0,-1.0,0.0,4.m4v,10.0
2024-02-28 13:38:31.877937,1709123911.8779373,-37.59765625,-33.203125,-37.59765625,-30.76171875,-1.0,0.0,-1.0,0.0,4.m4v,10.0
2024-02-28 13:38:31.881852,1709123911.881852,-28.80859375,-38.0859375,-31.25,-28.80859375,-1.0,0.0,-1.0,0.0,4.m4v,10.0
2024-02-28 13:38:31.885756,1709123911.885756,-24.4140625,-41.015625,-26.85546875,-29.78515625,-1.0,0.0,-1.0,0.0,4.m4v,10.0
2024-02-28 13:38:31.889660,1709123911.88966,-31.73828125,-44.43359375,-33.203125,-33.69140625,-1.0,0.0,-1.0,0.0,4.m4v,10.0
2024-02-28 13:38:31.893564,1709123911.893564,-31.25,-41.015625,-36.1328125,-32.71484375,-1.0,0.0,-1.0,0.0,4.m4v,10.0
2024-02-28 13:38:31.897468,1709123911.897468,-35.64453125,-39.0625,-36.1328125,-38.57421875,-1.0,0.0,-1.0,0.0,4.m4v,10.0
2024-02-28 13:38:31.901372,1709123911.9013717,-36.1328125,-38.0859375,-33.69140625,-38.0859375,-1.0,0.0,-1.0,0.0,4.m4v,10.0
2024-02-28 13:38:31.905276,1709123911.9052758,-29.296875,-37.59765625,-24.4140625,-27.34375,-1.0,0.0,-1.0,0.0,4.m4v,10.0
2024-02-28 13:38:31.909180,1709123911.9091797,-29.296875,-40.0390625,-29.78515625,-29.78515625,-1.0,0.0,-1.0,0.0,4.m4v,10.0
2024-02-28 13:38:31.913084,1709123911.9130838,-25.87890625,-34.66796875,-36.1328125,-29.78515625,-1.0,0.0,-1.0,0.0,4.m4v,10.0
2024-02-28 13:38:31.916988,1709123911.9169877,-17.08984375,-28.80859375,-28.80859375,-22.94921875,-1.0,0.0,-1.0,0.0,4.m4v,10.0
2024-02-28 13:38:31.920892,1709123911.9208915,-4.8828125,-29.296875,-34.66796875,-14.6484375,-1.0,0.0,-1.0,0.0,4.m4v,10.0
2024-02-28 13:38:31.924796,1709123911.9247956,-12.20703125,-32.2265625,-38.0859375,-18.5546875,-1.0,0.0,-1.0,0.0,4.m4v,10.0
2024-02-28 13:38:31.928709,1709123911.9287088,-25.390625,-36.1328125,-27.83203125,-29.78515625,-1.0,0.0,-1.0,0.0,4.m4v,10.0
2024-02-28 13:38:31.932613,1709123911.932613,-16.6015625,-36.1328125,-20.99609375,-22.94921875,-1.0,0.0,-1.0,0.0,4.m4v,10.0
2024-02-28 13:38:31.936517,1709123911.9365168,-12.6953125,-35.15625,-25.390625,-24.90234375,-1.0,0.0,-1.0,0.0,4.m4v,10.0
2024-02-28 13:38:31.940421,1709123911.9404206,-13.671875,-35.15625,-29.78515625,-33.203125,-1.0,0.0,-1.0,0.0,4.m4v,10.0
2024-02-28 13:38:31.944325,1709123911.9443247,-21.484375,-38.0859375,-28.3203125,-29.78515625,-1.0,0.0,-1.0,0.0,4.m4v,10.0
2024-02-28 13:38:31.948229,1709123911.9482286,-31.25,-37.59765625,-29.296875,-35.15625,-1.0,0.0,-1.0,0.0,4.m4v,10.0
2024-02-28 13:38:31.952132,1709123911.9521325,-27.83203125,-33.69140625,-25.390625,-32.2265625,-1.0,0.0,-1.0,0.0,4.m4v,10.0
2024-02-28 13:38:31.956037,1709123911.9560366,-26.3671875,-37.109375,-27.34375,-27.83203125,-1.0,0.0,-1.0,0.0,4.m4v,10.0
2024-02-28 13:38:31.959940,1709123911.9599404,-26.85546875,-37.109375,-36.62109375,-31.25,-1.0,0.0,-1.0,0.0,4.m4v,10.0
2024-02-28 13:38:31.963845,1709123911.9638443,-19.04296875,-31.25,-34.1796875,-28.3203125,-1.0,0.0,-1.0,0.0,4.m4v,10.0
2024-02-28 13:38:31.967748,1709123911.9677484,-14.16015625,-30.76171875,-35.64453125,-20.01953125,-1.0,0.0,-1.0,0.0,4.m4v,10.0
2024-02-28 13:38:31.971652,1709123911.9716525,-8.7890625,-33.203125,-37.59765625,-14.6484375,-1.0,0.0,-1.0,0.0,4.m4v,10.0
2024-02-28 13:38:31.975565,1709123911.9755652,-7.8125,-28.80859375,-31.73828125,-10.25390625,-1.0,0.0,-1.0,0.0,4.m4v,10.0
2024-02-28 13:38:31.979469,1709123911.9794693,-7.32421875,-26.3671875,-29.296875,-11.23046875,-1.0,0.0,-1.0,0.0,4.m4v,10.0
2024-02-28 13:38:31.983373,1709123911.9833732,-7.32421875,-33.69140625,-30.2734375,-22.94921875,-1.0,0.0,-1.0,0.0,4.m4v,10.0
2024-02-28 13:38:31.987277,1709123911.987277,-9.27734375,-35.64453125,-31.73828125,-22.94921875,-1.0,0.0,-1.0,0.0,4.m4v,10.0
2024-02-28 13:38:31.991181,1709123911.9911811,-16.11328125,-35.15625,-34.66796875,-28.80859375,-1.0,0.0,-1.0,0.0,4.m4v,10.0
2024-02-28 13:38:31.995085,1709123911.995085,-17.08984375,-32.71484375,-35.15625,-30.2734375,-1.0,0.0,-1.0,0.0,4.m4v,10.0
2024-02-28 13:38:31.998989,1709123911.998989,-21.97265625,-34.1796875,-38.57421875,-30.2734375,-1.0,0.0,-1.0,0.0,4.m4v,10.0
2024-02-28 13:38:32.002893,1709123912.002893,-18.5546875,-39.55078125,-36.1328125,-28.80859375,-1.0,0.0,-1.0,0.0,4.m4v,10.0
2024-02-28 13:38:32.006797,1709123912.0067968,-9.27734375,-34.1796875,-29.78515625,-20.99609375,-1.0,0.0,-1.0,0.0,4.m4v,10.0
2024-02-28 13:38:32.010701,1709123912.010701,-11.71875,-25.390625,-30.2734375,-20.5078125,-1.0,0.0,-1.0,0.0,4.m4v,10.0
2024-02-28 13:38:32.014605,1709123912.0146048,-13.671875,-32.71484375,-27.83203125,-22.4609375,-1.0,0.0,-1.0,0.0,4.m4v,10.0
2024-02-28 13:38:32.018509,1709123912.018509,-21.484375,-38.0859375,-32.2265625,-25.87890625,-1.0,0.0,-1.0,0.0,4.m4v,10.0
2024-02-28 13:38:32.022420,1709123912.0224202,-28.3203125,-35.15625,-35.15625,-26.3671875,-1.0,0.0,-1.0,0.0,4.m4v,10.0
2024-02-28 13:38:32.026324,1709123912.026324,-30.76171875,-33.203125,-32.71484375,-26.85546875,-1.0,0.0,-1.0,0.0,4.m4v,10.0
2024-02-28 13:38:32.030228,1709123912.030228,-31.73828125,-29.78515625,-33.203125,-33.203125,-1.0,0.0,-1.0,0.0,4.m4v,10.0
2024-02-28 13:38:32.034132,1709123912.034132,-36.62109375,-29.296875,-34.66796875,-38.0859375,-1.0,0.0,-1.0,0.0,4.m4v,10.0
2024-02-28 13:38:32.038036,1709123912.038036,-38.57421875,-32.71484375,-33.203125,-32.71484375,-1.0,0.0,-1.0,0.0,4.m4v,10.0
2024-02-28 13:38:32.041940,1709123912.0419395,-45.8984375,-34.66796875,-34.66796875,-38.0859375,-1.0,0.0,-1.0,0.0,4.m4v,10.0
2024-02-28 13:38:32.045844,1709123912.0458438,-43.9453125,-40.0390625,-41.50390625,-41.50390625,-1.0,0.0,-1.0,0.0,4.m4v,10.0
2024-02-28 13:38:32.049748,1709123912.0497477,-35.15625,-44.43359375,-40.0390625,-34.66796875,-1.0,0.0,-1.0,0.0,4.m4v,10.0
2024-02-28 13:38:32.053652,1709123912.0536518,-35.15625,-35.64453125,-33.69140625,-31.25,-1.0,0.0,-1.0,0.0,4.m4v,10.0
2024-02-28 13:38:32.057556,1709123912.0575557,-33.69140625,-23.92578125,-25.87890625,-26.3671875,-1.0,0.0,-1.0,0.0,4.m4v,10.0
2024-02-28 13:38:32.061460,1709123912.0614595,-32.2265625,-26.85546875,-22.94921875,-24.90234375,-1.0,0.0,-1.0,0.0,4.m4v,10.0
2024-02-28 13:38:32.065364,1709123912.0653636,-35.15625,-33.69140625,-23.4375,-30.76171875,-1.0,0.0,-1.0,0.0,4.m4v,10.0
2024-02-28 13:38:32.069274,1709123912.0692742,-48.33984375,-40.52734375,-27.83203125,-39.55078125,-1.0,0.0,-1.0,0.0,4.m4v,10.0
2024-02-28 13:38:32.073178,1709123912.073178,-50.78125,-42.96875,-29.78515625,-36.62109375,-1.0,0.0,-1.0,0.0,4.m4v,10.0
2024-02-28 13:38:32.077082,1709123912.0770822,-41.9921875,-35.64453125,-31.73828125,-35.15625,-1.0,0.0,-1.0,0.0,4.m4v,10.0
2024-02-28 13:38:32.080986,1709123912.080986,-43.45703125,-34.66796875,-36.62109375,-42.48046875,-1.0,0.0,-1.0,0.0,4.m4v,10.0
2024-02-28 13:38:32.084890,1709123912.08489,-44.43359375,-35.15625,-42.48046875,-38.57421875,-1.0,0.0,-1.0,0.0,4.m4v,10.0
2024-02-28 13:38:32.088794,1709123912.088794,-40.0390625,-31.25,-43.9453125,-37.59765625,-1.0,0.0,-1.0,0.0,4.m4v,10.0
2024-02-28 13:38:32.092698,1709123912.092698,-37.109375,-32.2265625,-39.0625,-37.109375,-1.0,0.0,-1.0,0.0,4.m4v,10.0
2024-02-28 13:38:32.096602,1709123912.096602,-41.50390625,-34.66796875,-30.76171875,-31.25,-1.0,0.0,-1.0,0.0,4.m4v,10.0
2024-02-28 13:38:32.100506,1709123912.1005058,-42.48046875,-34.1796875,-26.85546875,-35.15625,-1.0,0.0,-1.0,0.0,4.m4v,10.0
2024-02-28 13:38:32.104410,1709123912.1044097,-42.48046875,-29.78515625,-29.78515625,-39.0625,-1.0,0.0,-1.0,0.0,4.m4v,10.0
2024-02-28 13:38:32.108314,1709123912.1083138,-43.45703125,-29.78515625,-33.203125,-37.59765625,-1.0,0.0,-1.0,0.0,4.m4v,10.0
2024-02-28 13:38:32.112218,1709123912.1122177,-35.64453125,-30.2734375,-28.3203125,-30.76171875,-1.0,0.0,-1.0,0.0,4.m4v,10.0
2024-02-28 13:38:32.116135,1709123912.1161354,-29.78515625,-26.3671875,-28.3203125,-28.80859375,-1.0,0.0,-1.0,0.0,4.m4v,10.0
2024-02-28 13:38:32.120039,1709123912.1200392,-35.15625,-29.296875,-35.15625,-38.0859375,-1.0,0.0,-1.0,0.0,4.m4v,10.0
2024-02-28 13:38:32.123943,1709123912.123943,-40.0390625,-32.71484375,-40.0390625,-45.41015625,-1.0,0.0,-1.0,0.0,4.m4v,10.0
2024-02-28 13:38:32.127847,1709123912.1278472,-35.15625,-29.296875,-38.57421875,-45.41015625,-1.0,0.0,-1.0,0.0,4.m4v,10.0
2024-02-28 13:38:32.131751,1709123912.131751,-30.76171875,-30.2734375,-34.1796875,-40.52734375,-1.0,0.0,-1.0,0.0,4.m4v,10.0
2024-02-28 13:38:32.135655,1709123912.1356552,-36.1328125,-29.78515625,-34.1796875,-41.50390625,-1.0,0.0,-1.0,0.0,4.m4v,10.0
2024-02-28 13:38:32.139559,1709123912.139559,-30.2734375,-30.2734375,-34.66796875,-42.48046875,-1.0,0.0,-1.0,0.0,4.m4v,10.0
2024-02-28 13:38:32.143463,1709123912.1434631,-26.3671875,-30.2734375,-36.1328125,-37.109375,-1.0,0.0,-1.0,0.0,4.m4v,10.0
2024-02-28 13:38:32.147367,1709123912.147367,-31.25,-33.69140625,-36.1328125,-42.96875,-1.0,0.0,-1.0,0.0,4.m4v,10.0
2024-02-28 13:38:32.151271,1709123912.1512709,-29.296875,-41.50390625,-41.50390625,-47.36328125,-1.0,0.0,-1.0,0.0,4.m4v,10.0
2024-02-28 13:38:32.155175,1709123912.155175,-26.3671875,-38.0859375,-41.015625,-37.109375,-1.0,0.0,-1.0,0.0,4.m4v,10.0
2024-02-28 13:38:32.159079,1709123912.1590788,-24.90234375,-36.62109375,-34.1796875,-37.59765625,-1.0,0.0,-1.0,0.0,4.m4v,10.0
2024-02-28 13:38:32.162995,1709123912.162995,-28.3203125,-41.9921875,-32.2265625,-41.9921875,-1.0,0.0,-1.0,0.0,4.m4v,10.0
2024-02-28 13:38:32.166899,1709123912.166899,-38.0859375,-41.015625,-30.2734375,-41.50390625,-1.0,0.0,-1.0,0.0,4.m4v,10.0
2024-02-28 13:38:32.170803,1709123912.170803,-36.62109375,-32.2265625,-27.83203125,-37.59765625,-1.0,0.0,-1.0,0.0,4.m4v,10.0
2024-02-28 13:38:32.174707,1709123912.174707,-31.73828125,-32.2265625,-31.25,-35.15625,-1.0,0.0,-1.0,0.0,4.m4v,10.0
2024-02-28 13:38:32.178611,1709123912.1786108,-36.62109375,-36.62109375,-34.1796875,-39.55078125,-1.0,0.0,-1.0,0.0,4.m4v,10.0
2024-02-28 13:38:32.182515,1709123912.182515,-34.1796875,-35.15625,-32.71484375,-37.59765625,-1.0,0.0,-1.0,0.0,4.m4v,10.0
2024-02-28 13:38:32.186419,1709123912.1864188,-36.62109375,-33.203125,-33.203125,-36.1328125,-1.0,0.0,-1.0,0.0,4.m4v,10.0
2024-02-28 13:38:32.190323,1709123912.1903229,-43.9453125,-29.78515625,-36.1328125,-36.62109375,-1.0,0.0,-1.0,0.0,4.m4v,10.0
2024-02-28 13:38:32.194227,1709123912.1942267,-40.52734375,-31.73828125,-36.62109375,-33.69140625,-1.0,0.0,-1.0,0.0,4.m4v,10.0
2024-02-28 13:38:32.198131,1709123912.1981306,-37.59765625,-37.109375,-38.57421875,-30.76171875,-1.0,0.0,-1.0,0.0,4.m4v,10.0
2024-02-28 13:38:32.202035,1709123912.2020347,-36.62109375,-34.66796875,-32.2265625,-26.85546875,-1.0,0.0,-1.0,0.0,4.m4v,10.0
2024-02-28 13:38:32.205939,1709123912.2059386,-39.0625,-32.2265625,-29.296875,-23.92578125,-1.0,0.0,-1.0,0.0,4.m4v,10.0
2024-02-28 13:38:32.209854,1709123912.209854,-46.875,-33.69140625,-32.71484375,-29.296875,-1.0,0.0,-1.0,0.0,4.m4v,10.0
2024-02-28 13:38:32.213758,1709123912.2137578,-42.96875,-37.59765625,-28.80859375,-28.3203125,-1.0,0.0,-1.0,0.0,4.m4v,10.0
2024-02-28 13:38:32.217662,1709123912.2176616,-39.0625,-42.48046875,-32.71484375,-29.78515625,-1.0,0.0,-1.0,0.0,4.m4v,10.0
2024-02-28 13:38:32.221566,1709123912.2215655,-38.0859375,-42.96875,-43.45703125,-32.2265625,-1.0,0.0,-1.0,0.0,4.m4v,10.0
2024-02-28 13:38:32.225470,1709123912.2254696,-32.71484375,-38.57421875,-43.9453125,-32.2265625,-1.0,0.0,-1.0,0.0,4.m4v,10.0
2024-02-28 13:38:32.229374,1709123912.2293737,-34.66796875,-37.109375,-34.66796875,-30.2734375,-1.0,0.0,-1.0,0.0,4.m4v,10.0
2024-02-28 13:38:32.233278,1709123912.2332776,-29.296875,-35.15625,-30.76171875,-23.92578125,-1.0,0.0,-1.0,0.0,4.m4v,10.0
2024-02-28 13:38:32.237181,1709123912.2371814,-24.90234375,-31.73828125,-36.62109375,-22.94921875,-1.0,0.0,-1.0,0.0,4.m4v,10.0
2024-02-28 13:38:32.241086,1709123912.2410855,-28.3203125,-34.1796875,-44.43359375,-27.83203125,-1.0,0.0,-1.0,0.0,4.m4v,10.0
2024-02-28 13:38:32.244989,1709123912.2449894,-28.3203125,-36.62109375,-41.015625,-31.73828125,-1.0,0.0,-1.0,0.0,4.m4v,10.0
2024-02-28 13:38:32.248893,1709123912.2488933,-27.83203125,-39.0625,-35.64453125,-33.69140625,-1.0,0.0,-1.0,0.0,4.m4v,10.0
2024-02-28 13:38:32.252797,1709123912.2527974,-33.203125,-38.0859375,-40.0390625,-33.69140625,-1.0,0.0,-1.0,0.0,4.m4v,10.0
2024-02-28 13:38:32.256712,1709123912.2567122,-38.57421875,-34.1796875,-46.875,-33.203125,-1.0,0.0,-1.0,0.0,4.m4v,10.0
2024-02-28 13:38:32.260616,1709123912.260616,-40.0390625,-34.66796875,-48.33984375,-39.55078125,-1.0,0.0,-1.0,0.0,4.m4v,10.0
2024-02-28 13:38:32.264520,1709123912.2645202,-32.2265625,-28.3203125,-43.45703125,-41.50390625,-1.0,0.0,-1.0,0.0,4.m4v,10.0
2024-02-28 13:38:32.268424,1709123912.268424,-27.34375,-24.90234375,-38.57421875,-41.50390625,-1.0,0.0,-1.0,0.0,4.m4v,10.0
2024-02-28 13:38:32.272328,1709123912.272328,-33.203125,-33.203125,-35.15625,-44.43359375,-1.0,0.0,-1.0,0.0,4.m4v,10.0
2024-02-28 13:38:32.276232,1709123912.276232,-37.109375,-35.15625,-30.2734375,-42.96875,-1.0,0.0,-1.0,0.0,4.m4v,10.0
2024-02-28 13:38:32.280136,1709123912.280136,-42.96875,-30.76171875,-26.85546875,-41.50390625,-1.0,0.0,-1.0,0.0,4.m4v,10.0
2024-02-28 13:38:32.284040,1709123912.28404,-46.38671875,-39.0625,-31.73828125,-43.45703125,-1.0,0.0,-1.0,0.0,4.m4v,10.0
2024-02-28 13:38:32.287944,1709123912.2879438,-45.8984375,-46.875,-34.66796875,-41.50390625,-1.0,0.0,-1.0,0.0,4.m4v,10.0
2024-02-28 13:38:32.291848,1709123912.291848,-46.875,-38.0859375,-36.1328125,-39.55078125,-1.0,0.0,-1.0,0.0,4.m4v,10.0
2024-02-28 13:38:32.295752,1709123912.2957518,-45.41015625,-30.76171875,-38.57421875,-36.62109375,-1.0,0.0,-1.0,0.0,4.m4v,10.0
2024-02-28 13:38:32.299656,1709123912.2996557,-36.62109375,-30.76171875,-36.1328125,-29.78515625,-1.0,0.0,-1.0,0.0,4.m4v,10.0
2024-02-28 13:38:32.303570,1709123912.3035696,-42.48046875,-35.15625,-36.62109375,-36.1328125,-1.0,0.0,-1.0,0.0,4.m4v,10.0
2024-02-28 13:38:32.307474,1709123912.3074737,-55.6640625,-36.62109375,-43.45703125,-44.921875,-1.0,0.0,-1.0,0.0,4.m4v,10.0
2024-02-28 13:38:32.311378,1709123912.3113775,-61.03515625,-33.69140625,-43.45703125,-43.45703125,-1.0,0.0,-1.0,0.0,4.m4v,10.0
2024-02-28 13:38:32.315281,1709123912.3152814,-54.19921875,-32.71484375,-37.59765625,-47.36328125,-1.0,0.0,-1.0,0.0,4.m4v,10.0
2024-02-28 13:38:32.319185,1709123912.3191855,-47.8515625,-34.66796875,-38.0859375,-49.8046875,-1.0,0.0,-1.0,0.0,4.m4v,10.0
2024-02-28 13:38:32.323089,1709123912.3230894,-46.38671875,-32.2265625,-34.1796875,-45.41015625,-1.0,0.0,-1.0,0.0,4.m4v,10.0
2024-02-28 13:38:32.326993,1709123912.3269937,-41.50390625,-32.2265625,-31.73828125,-42.48046875,-1.0,0.0,-1.0,0.0,4.m4v,10.0
2024-02-28 13:38:32.330897,1709123912.330897,-45.8984375,-39.55078125,-37.59765625,-47.8515625,-1.0,0.0,-1.0,0.0,4.m4v,10.0
2024-02-28 13:38:32.334801,1709123912.3348012,-46.875,-41.50390625,-40.52734375,-54.19921875,-1.0,0.0,-1.0,0.0,4.m4v,10.0
2024-02-28 13:38:32.338705,1709123912.3387053,-45.8984375,-37.109375,-40.0390625,-46.38671875,-1.0,0.0,-1.0,0.0,4.m4v,10.0
2024-02-28 13:38:32.342609,1709123912.3426092,-49.31640625,-32.2265625,-37.59765625,-44.43359375,-1.0,0.0,-1.0,0.0,4.m4v,10.0
2024-02-28 13:38:32.346513,1709123912.3465133,-45.41015625,-27.34375,-32.2265625,-47.8515625,-1.0,0.0,-1.0,0.0,4.m4v,10.0
2024-02-28 13:38:32.350425,1709123912.3504255,-41.9921875,-26.85546875,-28.80859375,-41.9921875,-1.0,0.0,-1.0,0.0,4.m4v,10.0
2024-02-28 13:38:32.354329,1709123912.354329,-44.43359375,-31.73828125,-28.80859375,-42.48046875,-1.0,0.0,-1.0,0.0,4.m4v,10.0
2024-02-28 13:38:32.358233,1709123912.3582337,-40.52734375,-29.78515625,-28.80859375,-43.45703125,-1.0,0.0,-1.0,0.0,4.m4v,10.0
2024-02-28 13:38:32.362137,1709123912.3621373,-37.59765625,-31.25,-30.2734375,-40.52734375,-1.0,0.0,-1.0,0.0,4.m4v,10.0
2024-02-28 13:38:32.366041,1709123912.3660414,-36.62109375,-32.2265625,-29.78515625,-40.0390625,-1.0,0.0,-1.0,0.0,4.m4v,10.0
2024-02-28 13:38:32.369945,1709123912.3699453,-45.41015625,-30.2734375,-29.78515625,-46.875,-1.0,0.0,-1.0,0.0,4.m4v,10.0
2024-02-28 13:38:32.373849,1709123912.3738492,-60.05859375,-36.1328125,-34.66796875,-53.22265625,-1.0,0.0,-1.0,0.0,4.m4v,10.0
2024-02-28 13:38:32.377753,1709123912.3777533,-62.5,-36.62109375,-37.59765625,-57.12890625,-1.0,0.0,-1.0,0.0,4.m4v,10.0
2024-02-28 13:38:32.381657,1709123912.3816571,-66.89453125,-35.15625,-30.76171875,-65.4296875,-1.0,0.0,-1.0,0.0,4.m4v,10.0
2024-02-28 13:38:32.385561,1709123912.385561,-67.87109375,-37.109375,-25.87890625,-70.3125,-1.0,0.0,-1.0,0.0,4.m4v,10.0
2024-02-28 13:38:32.389465,1709123912.389465,-75.68359375,-40.0390625,-27.83203125,-80.56640625,-1.0,0.0,-1.0,0.0,4.m4v,10.0
2024-02-28 13:38:32.393369,1709123912.393369,-102.5390625,-43.45703125,-32.71484375,-101.07421875,-1.0,0.0,-1.0,0.0,4.m4v,10.0
2024-02-28 13:38:32.397280,1709123912.3972805,-107.91015625,-43.45703125,-28.80859375,-104.4921875,-1.0,0.0,-1.0,0.0,4.m4v,10.0
2024-02-28 13:38:32.401184,1709123912.4011843,-114.2578125,-40.0390625,-20.99609375,-112.3046875,-1.0,0.0,-1.0,0.0,4.m4v,10.0
2024-02-28 13:38:32.405088,1709123912.4050882,-134.27734375,-40.0390625,-26.3671875,-135.7421875,-1.0,0.0,-1.0,0.0,4.m4v,10.0
2024-02-28 13:38:32.408992,1709123912.4089923,-142.08984375,-44.43359375,-31.73828125,-147.4609375,-1.0,0.0,-1.0,0.0,4.m4v,10.0
2024-02-28 13:38:32.412896,1709123912.4128962,-152.83203125,-44.43359375,-30.2734375,-157.2265625,-1.0,0.0,-1.0,0.0,4.m4v,10.0
2024-02-28 13:38:32.416800,1709123912.4168005,-158.203125,-47.36328125,-25.390625,-164.55078125,-1.0,0.0,-1.0,0.0,4.m4v,10.0
2024-02-28 13:38:32.420704,1709123912.420704,-162.109375,-43.45703125,-30.2734375,-170.41015625,-1.0,0.0,-1.0,0.0,4.m4v,10.0
2024-02-28 13:38:32.424608,1709123912.424608,-166.015625,-41.9921875,-34.66796875,-173.33984375,-1.0,0.0,-1.0,0.0,4.m4v,10.0
2024-02-28 13:38:32.428512,1709123912.428512,-156.73828125,-43.45703125,-29.78515625,-167.96875,-1.0,0.0,-1.0,0.0,4.m4v,10.0
2024-02-28 13:38:32.432416,1709123912.432416,-149.90234375,-34.1796875,-27.34375,-163.57421875,-1.0,0.0,-1.0,0.0,4.m4v,10.0
2024-02-28 13:38:32.436320,1709123912.4363198,-143.5546875,-32.71484375,-31.25,-159.1796875,-1.0,0.0,-1.0,0.0,4.m4v,10.0
2024-02-28 13:38:32.440224,1709123912.440224,-137.6953125,-34.1796875,-43.9453125,-150.87890625,-1.0,0.0,-1.0,0.0,4.m4v,10.0
2024-02-28 13:38:32.444134,1709123912.4441342,-123.53515625,-30.2734375,-44.921875,-135.25390625,-1.0,0.0,-1.0,0.0,4.m4v,10.0
2024-02-28 13:38:32.448038,1709123912.448038,-101.07421875,-27.83203125,-41.9921875,-119.62890625,-1.0,0.0,-1.0,0.0,4.m4v,10.0
2024-02-28 13:38:32.451942,1709123912.4519422,-94.7265625,-27.83203125,-42.48046875,-115.72265625,-1.0,0.0,-1.0,0.0,4.m4v,10.0
2024-02-28 13:38:32.455846,1709123912.455846,-82.03125,-29.78515625,-38.0859375,-101.5625,-1.0,0.0,-1.0,0.0,4.m4v,10.0
2024-02-28 13:38:32.459750,1709123912.45975,-59.08203125,-33.69140625,-38.57421875,-80.078125,-1.0,0.0,-1.0,0.0,4.m4v,10.0
2024-02-28 13:38:32.463654,1709123912.463654,-58.10546875,-35.64453125,-43.9453125,-67.87109375,-1.0,0.0,-1.0,0.0,4.m4v,10.0
2024-02-28 13:38:32.467558,1709123912.467558,-52.24609375,-33.203125,-42.96875,-61.5234375,-1.0,0.0,-1.0,0.0,4.m4v,10.0
2024-02-28 13:38:32.471462,1709123912.471462,-39.0625,-33.69140625,-44.43359375,-59.5703125,-1.0,0.0,-1.0,0.0,4.m4v,10.0
2024-02-28 13:38:32.475366,1709123912.475366,-36.62109375,-31.73828125,-45.8984375,-45.8984375,-1.0,0.0,-1.0,0.0,4.m4v,10.0
2024-02-28 13:38:32.479270,1709123912.4792695,-27.34375,-33.69140625,-41.015625,-27.83203125,-1.0,0.0,-1.0,0.0,4.m4v,10.0
2024-02-28 13:38:32.483174,1709123912.4831738,-23.4375,-34.1796875,-36.62109375,-24.90234375,-1.0,0.0,-1.0,0.0,4.m4v,10.0
2024-02-28 13:38:32.487078,1709123912.4870777,-20.5078125,-33.69140625,-32.2265625,-16.6015625,-1.0,0.0,-1.0,0.0,4.m4v,10.0
2024-02-28 13:38:32.490995,1709123912.490995,-17.08984375,-34.66796875,-34.66796875,-13.18359375,-1.0,0.0,-1.0,0.0,4.m4v,10.0
2024-02-28 13:38:32.494899,1709123912.494899,-13.18359375,-30.76171875,-36.1328125,-15.13671875,-1.0,0.0,-1.0,0.0,4.m4v,10.0
2024-02-28 13:38:32.498803,1709123912.498803,-4.8828125,-32.2265625,-40.0390625,-14.16015625,-1.0,0.0,-1.0,0.0,4.m4v,10.0
2024-02-28 13:38:32.502707,1709123912.5027068,-3.90625,-39.0625,-44.43359375,-16.6015625,-1.0,0.0,-1.0,0.0,4.m4v,10.0
2024-02-28 13:38:32.506611,1709123912.5066109,4.8828125,-36.62109375,-39.55078125,-9.765625,-1.0,0.0,-1.0,0.0,4.m4v,10.0
2024-02-28 13:38:32.510515,1709123912.5105147,17.08984375,-33.203125,-35.64453125,11.23046875,-1.0,0.0,-1.0,0.0,4.m4v,10.0
2024-02-28 13:38:32.514419,1709123912.5144186,16.6015625,-37.109375,-32.71484375,19.04296875,-1.0,0.0,-1.0,0.0,4.m4v,10.0
2024-02-28 13:38:32.518323,1709123912.5183227,16.6015625,-35.64453125,-30.2734375,11.71875,-1.0,0.0,-1.0,0.0,4.m4v,10.0
2024-02-28 13:38:32.522227,1709123912.5222266,18.06640625,-35.15625,-28.3203125,13.18359375,-1.0,0.0,-1.0,0.0,4.m4v,10.0
2024-02-28 13:38:32.526131,1709123912.526131,21.97265625,-36.1328125,-27.34375,16.11328125,-1.0,0.0,-1.0,0.0,4.m4v,10.0
2024-02-28 13:38:32.530035,1709123912.5300343,25.390625,-35.15625,-31.73828125,9.27734375,-1.0,0.0,-1.0,0.0,4.m4v,10.0
2024-02-28 13:38:32.533938,1709123912.5339384,25.390625,-30.76171875,-34.1796875,3.41796875,-1.0,0.0,-1.0,0.0,4.m4v,10.0
2024-02-28 13:38:32.537856,1709123912.5378556,19.53125,-28.80859375,-34.66796875,0.9765625,-1.0,0.0,-1.0,0.0,4.m4v,10.0
2024-02-28 13:38:32.541759,1709123912.5417595,19.53125,-29.296875,-33.203125,3.41796875,-1.0,0.0,-1.0,0.0,4.m4v,10.0
2024-02-28 13:38:32.545664,1709123912.5456636,15.625,-30.2734375,-26.85546875,4.8828125,-1.0,0.0,-1.0,0.0,4.m4v,10.0
2024-02-28 13:38:32.549567,1709123912.5495677,12.20703125,-29.296875,-25.87890625,11.23046875,-1.0,0.0,-1.0,0.0,4.m4v,10.0
2024-02-28 13:38:32.553472,1709123912.5534716,6.34765625,-30.2734375,-29.296875,15.13671875,-1.0,0.0,-1.0,0.0,4.m4v,10.0
2024-02-28 13:38:32.557375,1709123912.5573754,1.953125,-36.62109375,-25.87890625,14.6484375,-1.0,0.0,-1.0,0.0,4.m4v,10.0
2024-02-28 13:38:32.561279,1709123912.5612793,6.34765625,-39.55078125,-22.4609375,16.11328125,-1.0,0.0,-1.0,0.0,4.m4v,10.0
2024-02-28 13:38:32.565183,1709123912.5651834,6.8359375,-39.0625,-29.296875,10.25390625,-1.0,0.0,-1.0,0.0,4.m4v,10.0
2024-02-28 13:38:32.569087,1709123912.5690873,5.37109375,-34.66796875,-31.25,6.34765625,-1.0,0.0,-1.0,0.0,4.m4v,10.0
2024-02-28 13:38:32.572991,1709123912.5729914,3.41796875,-30.76171875,-29.296875,0.9765625,-1.0,0.0,-1.0,0.0,4.m4v,10.0
2024-02-28 13:38:32.576895,1709123912.5768952,3.41796875,-30.2734375,-28.3203125,-4.39453125,-1.0,0.0,-1.0,0.0,4.m4v,10.0
2024-02-28 13:38:32.580799,1709123912.580799,-2.44140625,-27.34375,-30.2734375,-5.37109375,-1.0,0.0,-1.0,0.0,4.m4v,10.0
2024-02-28 13:38:32.584714,1709123912.5847144,-7.32421875,-25.390625,-30.2734375,-1.46484375,-1.0,0.0,-1.0,0.0,4.m4v,10.0
2024-02-28 13:38:32.588619,1709123912.5886185,-7.8125,-25.87890625,-31.73828125,-4.39453125,-1.0,0.0,-1.0,0.0,4.m4v,10.0
2024-02-28 13:38:32.592522,1709123912.5925224,-6.8359375,-28.80859375,-34.1796875,-5.859375,-1.0,0.0,-1.0,0.0,4.m4v,10.0
2024-02-28 13:38:32.596426,1709123912.5964265,-4.39453125,-27.83203125,-36.62109375,-2.9296875,-1.0,0.0,-1.0,0.0,4.m4v,10.0
2024-02-28 13:38:32.600330,1709123912.6003304,-1.46484375,-21.484375,-34.1796875,-1.953125,-1.0,0.0,-1.0,0.0,4.m4v,10.0
2024-02-28 13:38:32.604234,1709123912.6042342,-0.48828125,-21.97265625,-31.25,-1.46484375,-1.0,0.0,-1.0,0.0,4.m4v,10.0
2024-02-28 13:38:32.608138,1709123912.6081383,-4.39453125,-27.83203125,-28.80859375,-1.953125,-1.0,0.0,-1.0,0.0,4.m4v,10.0
2024-02-28 13:38:32.612042,1709123912.6120422,-9.765625,-29.296875,-26.85546875,2.9296875,-1.0,0.0,-1.0,0.0,4.m4v,10.0
2024-02-28 13:38:32.615946,1709123912.6159463,-11.71875,-30.2734375,-30.76171875,6.34765625,-1.0,0.0,-1.0,0.0,4.m4v,10.0
2024-02-28 13:38:32.619850,1709123912.6198502,-5.37109375,-27.83203125,-28.3203125,3.90625,-1.0,0.0,-1.0,0.0,4.m4v,10.0
2024-02-28 13:38:32.623754,1709123912.623754,-3.90625,-29.78515625,-34.66796875,-5.859375,-1.0,0.0,-1.0,0.0,4.m4v,10.0
2024-02-28 13:38:32.627658,1709123912.627658,-8.30078125,-32.71484375,-36.62109375,-9.765625,-1.0,0.0,-1.0,0.0,4.m4v,10.0
2024-02-28 13:38:32.631572,1709123912.6315722,-4.8828125,-28.80859375,-29.78515625,-8.7890625,-1.0,0.0,-1.0,0.0,4.m4v,10.0
2024-02-28 13:38:32.635476,1709123912.6354764,-7.32421875,-31.73828125,-28.80859375,-5.859375,-1.0,0.0,-1.0,0.0,4.m4v,10.0
2024-02-28 13:38:32.639380,1709123912.6393802,-9.27734375,-27.34375,-25.87890625,0.9765625,-1.0,0.0,-1.0,0.0,4.m4v,10.0
2024-02-28 13:38:32.643284,1709123912.6432843,-9.765625,-23.92578125,-26.3671875,-5.859375,-1.0,0.0,-1.0,0.0,4.m4v,10.0
2024-02-28 13:38:32.647188,1709123912.6471882,-14.6484375,-25.87890625,-32.71484375,-12.20703125,-1.0,0.0,-1.0,0.0,4.m4v,10.0
2024-02-28 13:38:32.651092,1709123912.651092,-14.16015625,-27.83203125,-34.1796875,-11.23046875,-1.0,0.0,-1.0,0.0,4.m4v,10.0
2024-02-28 13:38:32.654996,1709123912.6549962,-8.7890625,-31.73828125,-35.15625,-10.7421875,-1.0,0.0,-1.0,0.0,4.m4v,10.0
2024-02-28 13:38:32.658900,1709123912.6589,-19.04296875,-33.69140625,-35.15625,-17.08984375,-1.0,0.0,-1.0,0.0,4.m4v,10.0
2024-02-28 13:38:32.662804,1709123912.662804,-24.90234375,-32.71484375,-33.203125,-20.5078125,-1.0,0.0,-1.0,0.0,4.m4v,10.0
2024-02-28 13:38:32.666708,1709123912.666708,-23.92578125,-32.71484375,-35.15625,-16.6015625,-1.0,0.0,-1.0,0.0,4.m4v,10.0
2024-02-28 13:38:32.670612,1709123912.670612,-20.01953125,-34.1796875,-40.0390625,-21.484375,-1.0,0.0,-1.0,0.0,4.m4v,10.0
2024-02-28 13:38:32.674516,1709123912.674516,-16.11328125,-33.203125,-35.15625,-21.97265625,-1.0,0.0,-1.0,0.0,4.m4v,10.0
2024-02-28 13:38:32.678429,1709123912.6784291,-17.578125,-37.109375,-32.2265625,-20.99609375,-1.0,0.0,-1.0,0.0,4.m4v,10.0
2024-02-28 13:38:32.682333,1709123912.6823332,-17.08984375,-35.15625,-30.2734375,-15.625,-1.0,0.0,-1.0,0.0,4.m4v,10.0
2024-02-28 13:38:32.686237,1709123912.686237,-15.625,-29.78515625,-26.85546875,-11.71875,-1.0,0.0,-1.0,0.0,4.m4v,10.0
2024-02-28 13:38:32.690141,1709123912.6901412,-17.578125,-27.34375,-32.71484375,-14.6484375,-1.0,0.0,-1.0,0.0,4.m4v,10.0
2024-02-28 13:38:32.694045,1709123912.694045,-20.99609375,-29.78515625,-38.0859375,-13.671875,-1.0,0.0,-1.0,0.0,4.m4v,10.0
2024-02-28 13:38:32.697949,1709123912.697949,-14.16015625,-29.296875,-36.1328125,-13.671875,-1.0,0.0,-1.0,0.0,4.m4v,10.0
2024-02-28 13:38:32.701853,1709123912.701853,-12.6953125,-25.390625,-33.203125,-10.25390625,-1.0,0.0,-1.0,0.0,4.m4v,10.0
2024-02-28 13:38:32.705757,1709123912.705757,-20.01953125,-29.296875,-38.57421875,-11.71875,-1.0,0.0,-1.0,0.0,4.m4v,10.0
2024-02-28 13:38:32.709661,1709123912.709661,-20.5078125,-32.71484375,-42.48046875,-20.5078125,-1.0,0.0,-1.0,0.0,4.m4v,10.0
2024-02-28 13:38:32.713565,1709123912.7135649,-11.71875,-30.76171875,-34.1796875,-19.53125,-1.0,0.0,-1.0,0.0,4.m4v,10.0
2024-02-28 13:38:32.717469,1709123912.7174687,-14.16015625,-30.76171875,-38.0859375,-21.484375,-1.0,0.0,-1.0,0.0,4.m4v,10.0
2024-02-28 13:38:32.721373,1709123912.7213728,-20.99609375,-38.0859375,-45.8984375,-27.34375,-1.0,0.0,-1.0,0.0,4.m4v,10.0
2024-02-28 13:38:32.725289,1709123912.7252886,-16.11328125,-39.0625,-42.48046875,-20.01953125,-1.0,0.0,-1.0,0.0,4.m4v,10.0
2024-02-28 13:38:32.729192,1709123912.7291925,-12.6953125,-36.62109375,-32.2265625,-14.6484375,-1.0,0.0,-1.0,0.0,4.m4v,10.0
2024-02-28 13:38:32.733097,1709123912.7330966,-7.32421875,-36.1328125,-23.4375,-8.7890625,-1.0,0.0,-1.0,0.0,4.m4v,10.0
2024-02-28 13:38:32.737000,1709123912.7370005,-5.37109375,-34.66796875,-26.3671875,-9.27734375,-1.0,0.0,-1.0,0.0,4.m4v,10.0
2024-02-28 13:38:32.740904,1709123912.7409043,-12.20703125,-31.73828125,-33.203125,-17.578125,-1.0,0.0,-1.0,0.0,4.m4v,10.0
2024-02-28 13:38:32.744808,1709123912.7448084,-23.4375,-29.78515625,-34.66796875,-20.01953125,-1.0,0.0,-1.0,0.0,4.m4v,10.0
2024-02-28 13:38:32.748712,1709123912.7487123,-21.97265625,-31.25,-35.15625,-22.4609375,-1.0,0.0,-1.0,0.0,4.m4v,10.0
2024-02-28 13:38:32.752616,1709123912.7526164,-22.94921875,-36.62109375,-31.25,-23.92578125,-1.0,0.0,-1.0,0.0,4.m4v,10.0
2024-02-28 13:38:32.756520,1709123912.7565205,-26.85546875,-37.109375,-31.25,-18.5546875,-1.0,0.0,-1.0,0.0,4.m4v,10.0
2024-02-28 13:38:32.760424,1709123912.760424,-27.34375,-32.71484375,-36.1328125,-18.5546875,-1.0,0.0,-1.0,0.0,4.m4v,10.0
2024-02-28 13:38:32.764328,1709123912.7643282,-28.3203125,-32.71484375,-35.64453125,-26.85546875,-1.0,0.0,-1.0,0.0,4.m4v,10.0
2024-02-28 13:38:32.768232,1709123912.768232,-29.296875,-34.1796875,-34.1796875,-21.484375,-1.0,0.0,-1.0,0.0,4.m4v,10.0
2024-02-28 13:38:32.772144,1709123912.7721436,-26.85546875,-32.71484375,-29.78515625,-9.765625,-1.0,0.0,-1.0,0.0,4.m4v,10.0
2024-02-28 13:38:32.776047,1709123912.7760477,-35.64453125,-36.62109375,-28.3203125,-14.6484375,-1.0,0.0,-1.0,0.0,4.m4v,10.0
2024-02-28 13:38:32.779951,1709123912.779951,-33.69140625,-37.59765625,-32.71484375,-18.5546875,-1.0,0.0,-1.0,0.0,4.m4v,10.0
2024-02-28 13:38:32.783855,1709123912.7838554,-25.87890625,-33.69140625,-35.64453125,-20.01953125,-1.0,0.0,-1.0,0.0,4.m4v,10.0
2024-02-28 13:38:32.787759,1709123912.7877593,-37.109375,-34.1796875,-39.55078125,-24.90234375,-1.0,0.0,-1.0,0.0,4.m4v,10.0
2024-02-28 13:38:32.791663,1709123912.7916634,-37.109375,-33.203125,-40.0390625,-25.390625,-1.0,0.0,-1.0,0.0,4.m4v,10.0
2024-02-28 13:38:32.795567,1709123912.7955673,-31.73828125,-30.2734375,-32.71484375,-25.390625,-1.0,0.0,-1.0,0.0,4.m4v,10.0
2024-02-28 13:38:32.799471,1709123912.7994711,-32.71484375,-31.25,-30.76171875,-26.3671875,-1.0,0.0,-1.0,0.0,4.m4v,10.0
2024-02-28 13:38:32.803375,1709123912.8033752,-29.78515625,-32.71484375,-31.25,-28.80859375,-1.0,0.0,-1.0,0.0,4.m4v,10.0
2024-02-28 13:38:32.807279,1709123912.807279,-26.3671875,-31.25,-27.83203125,-32.2265625,-1.0,0.0,-1.0,0.0,4.m4v,10.0
2024-02-28 13:38:32.811183,1709123912.8111832,-19.04296875,-25.87890625,-25.87890625,-31.73828125,-1.0,0.0,-1.0,0.0,4.m4v,10.0
2024-02-28 13:38:32.815087,1709123912.815087,-15.13671875,-23.92578125,-28.3203125,-29.296875,-1.0,0.0,-1.0,0.0,4.m4v,10.0
2024-02-28 13:38:32.819005,1709123912.8190055,-22.4609375,-27.34375,-32.2265625,-31.25,-1.0,0.0,-1.0,0.0,4.m4v,10.0
2024-02-28 13:38:32.822909,1709123912.8229094,-26.3671875,-24.4140625,-31.73828125,-34.66796875,-1.0,0.0,-1.0,0.0,4.m4v,10.0
2024-02-28 13:38:32.826813,1709123912.8268132,-21.97265625,-20.99609375,-29.296875,-32.2265625,-1.0,0.0,-1.0,0.0,4.m4v,10.0
2024-02-28 13:38:32.830717,1709123912.830717,-25.87890625,-28.80859375,-37.109375,-35.15625,-1.0,0.0,-1.0,0.0,4.m4v,10.0
2024-02-28 13:38:32.834621,1709123912.8346212,-27.34375,-32.2265625,-38.57421875,-41.015625,-1.0,0.0,-1.0,0.0,4.m4v,10.0
2024-02-28 13:38:32.838525,1709123912.8385253,-32.71484375,-37.109375,-35.64453125,-39.0625,-1.0,0.0,-1.0,0.0,4.m4v,10.0
2024-02-28 13:38:32.842429,1709123912.8424292,-42.48046875,-37.109375,-35.15625,-42.96875,-1.0,0.0,-1.0,0.0,4.m4v,10.0
2024-02-28 13:38:32.846333,1709123912.846333,-47.36328125,-34.66796875,-31.25,-47.36328125,-1.0,0.0,-1.0,0.0,4.m4v,10.0
2024-02-28 13:38:32.850237,1709123912.8502371,-48.828125,-34.66796875,-28.80859375,-48.33984375,-1.0,0.0,-1.0,0.0,4.m4v,10.0
2024-02-28 13:38:32.854141,1709123912.854141,-53.7109375,-31.73828125,-30.76171875,-48.33984375,-1.0,0.0,-1.0,0.0,4.m4v,10.0
2024-02-28 13:38:32.858045,1709123912.858045,-55.6640625,-33.69140625,-34.1796875,-47.8515625,-1.0,0.0,-1.0,0.0,4.m4v,10.0
2024-02-28 13:38:32.861949,1709123912.861949,-59.08203125,-34.1796875,-34.1796875,-52.734375,-1.0,0.0,-1.0,0.0,4.m4v,10.0
2024-02-28 13:38:32.865866,1709123912.8658662,-71.77734375,-38.57421875,-35.64453125,-55.6640625,-1.0,0.0,-1.0,0.0,4.m4v,10.0
2024-02-28 13:38:32.869770,1709123912.8697703,-65.91796875,-40.52734375,-34.1796875,-50.78125,-1.0,0.0,-1.0,0.0,4.m4v,10.0
2024-02-28 13:38:32.873674,1709123912.8736742,-64.94140625,-39.0625,-30.76171875,-51.7578125,-1.0,0.0,-1.0,0.0,4.m4v,10.0
2024-02-28 13:38:32.877578,1709123912.8775785,-76.171875,-41.9921875,-28.3203125,-62.98828125,-1.0,0.0,-1.0,0.0,4.m4v,10.0
2024-02-28 13:38:32.881482,1709123912.881482,-76.171875,-40.0390625,-30.76171875,-66.89453125,-1.0,0.0,-1.0,0.0,4.m4v,10.0
2024-02-28 13:38:32.885386,1709123912.885386,-86.42578125,-36.1328125,-32.2265625,-77.63671875,-1.0,0.0,-1.0,0.0,4.m4v,10.0
2024-02-28 13:38:32.889290,1709123912.88929,-99.12109375,-42.96875,-32.71484375,-94.7265625,-1.0,0.0,-1.0,0.0,4.m4v,10.0
2024-02-28 13:38:32.893194,1709123912.893194,-109.375,-44.921875,-33.203125,-112.3046875,-1.0,0.0,-1.0,0.0,4.m4v,10.0
2024-02-28 13:38:32.897098,1709123912.897098,-122.0703125,-39.55078125,-38.0859375,-124.51171875,-1.0,0.0,-1.0,0.0,4.m4v,10.0
2024-02-28 13:38:32.901002,1709123912.901002,-126.46484375,-41.9921875,-43.45703125,-132.32421875,-1.0,0.0,-1.0,0.0,4.m4v,10.0
2024-02-28 13:38:32.904906,1709123912.9049058,-126.953125,-44.43359375,-35.64453125,-128.90625,-1.0,0.0,-1.0,0.0,4.m4v,10.0
2024-02-28 13:38:32.908810,1709123912.90881,-136.71875,-41.50390625,-24.90234375,-124.0234375,-1.0,0.0,-1.0,0.0,4.m4v,10.0
2024-02-28 13:38:32.912727,1709123912.9127266,-156.25,-38.57421875,-33.69140625,-139.16015625,-1.0,0.0,-1.0,0.0,4.m4v,10.0
2024-02-28 13:38:32.916631,1709123912.9166305,-153.80859375,-33.69140625,-37.109375,-138.671875,-1.0,0.0,-1.0,0.0,4.m4v,10.0
2024-02-28 13:38:32.920535,1709123912.9205346,-139.16015625,-31.73828125,-26.85546875,-130.859375,-1.0,0.0,-1.0,0.0,4.m4v,10.0
2024-02-28 13:38:32.924438,1709123912.9244385,-153.3203125,-33.69140625,-26.85546875,-140.13671875,-1.0,0.0,-1.0,0.0,4.m4v,10.0
2024-02-28 13:38:32.928343,1709123912.9283426,-169.921875,-33.203125,-31.73828125,-146.484375,-1.0,0.0,-1.0,0.0,4.m4v,10.0
2024-02-28 13:38:32.932246,1709123912.9322464,-166.9921875,-32.2265625,-33.203125,-142.578125,-1.0,0.0,-1.0,0.0,4.m4v,10.0
2024-02-28 13:38:32.936150,1709123912.9361503,-167.96875,-28.3203125,-34.66796875,-137.20703125,-1.0,0.0,-1.0,0.0,4.m4v,10.0
2024-02-28 13:38:32.940054,1709123912.9400544,-170.8984375,-26.85546875,-35.64453125,-127.9296875,-1.0,0.0,-1.0,0.0,4.m4v,10.0
2024-02-28 13:38:32.943958,1709123912.9439583,-173.828125,-32.2265625,-41.015625,-124.0234375,-1.0,0.0,-1.0,0.0,4.m4v,10.0
2024-02-28 13:38:32.947862,1709123912.9478624,-174.8046875,-33.203125,-42.96875,-125.9765625,-1.0,0.0,-1.0,0.0,4.m4v,10.0
2024-02-28 13:38:32.951766,1709123912.9517665,-172.8515625,-32.2265625,-41.015625,-123.046875,-1.0,0.0,-1.0,0.0,4.m4v,10.0
2024-02-28 13:38:32.955670,1709123912.95567,-161.1328125,-31.25,-41.9921875,-114.2578125,-1.0,0.0,-1.0,0.0,4.m4v,10.0
2024-02-28 13:38:32.959586,1709123912.959586,-148.4375,-31.25,-45.41015625,-99.12109375,-1.0,0.0,-1.0,0.0,4.m4v,10.0
2024-02-28 13:38:32.963490,1709123912.96349,-143.5546875,-34.1796875,-44.921875,-80.56640625,-1.0,0.0,-1.0,0.0,4.m4v,10.0
2024-02-28 13:38:32.967394,1709123912.967394,-141.6015625,-36.62109375,-41.015625,-74.70703125,-1.0,0.0,-1.0,0.0,4.m4v,10.0
2024-02-28 13:38:32.971298,1709123912.971298,-142.578125,-39.0625,-42.48046875,-78.125,-1.0,0.0,-1.0,0.0,4.m4v,10.0
2024-02-28 13:38:32.975202,1709123912.975202,-132.8125,-35.64453125,-39.55078125,-68.359375,-1.0,0.0,-1.0,0.0,4.m4v,10.0
2024-02-28 13:38:32.979106,1709123912.979106,-122.0703125,-29.296875,-35.64453125,-59.5703125,-1.0,0.0,-1.0,0.0,4.m4v,10.0
2024-02-28 13:38:32.983010,1709123912.9830098,-125.9765625,-32.2265625,-40.52734375,-52.734375,-1.0,0.0,-1.0,0.0,4.m4v,10.0
2024-02-28 13:38:32.986914,1709123912.986914,-120.60546875,-33.69140625,-39.55078125,-38.57421875,-1.0,0.0,-1.0,0.0,4.m4v,10.0
2024-02-28 13:38:32.990818,1709123912.9908178,-122.55859375,-30.76171875,-35.64453125,-30.76171875,-1.0,0.0,-1.0,0.0,4.m4v,10.0
2024-02-28 13:38:32.994722,1709123912.9947217,-129.39453125,-31.73828125,-36.62109375,-25.390625,-1.0,0.0,-1.0,0.0,4.m4v,10.0
2024-02-28 13:38:32.998626,1709123912.9986258,-127.9296875,-31.73828125,-39.55078125,-20.5078125,-1.0,0.0,-1.0,0.0,4.m4v,10.0
2024-02-28 13:38:33.002530,1709123913.0025296,-125.0,-30.76171875,-38.57421875,-13.671875,-1.0,0.0,-1.0,0.0,4.m4v,10.0
2024-02-28 13:38:33.006444,1709123913.006444,-125.48828125,-31.25,-33.203125,-3.90625,-1.0,0.0,-1.0,0.0,4.m4v,10.0
2024-02-28 13:38:33.010348,1709123913.010348,-128.90625,-34.66796875,-30.2734375,3.90625,-1.0,0.0,-1.0,0.0,4.m4v,10.0
2024-02-28 13:38:33.014252,1709123913.014252,-116.69921875,-30.76171875,-29.78515625,16.11328125,-1.0,0.0,-1.0,0.0,4.m4v,10.0
2024-02-28 13:38:33.018156,1709123913.018156,-121.09375,-28.3203125,-32.2265625,20.5078125,-1.0,0.0,-1.0,0.0,4.m4v,10.0
2024-02-28 13:38:33.022060,1709123913.02206,-86.42578125,-34.1796875,-32.2265625,29.296875,-1.0,0.0,-1.0,0.0,4.m4v,10.0
2024-02-28 13:38:33.025964,1709123913.0259638,13.18359375,-36.1328125,-24.90234375,50.78125,-1.0,0.0,-1.0,0.0,4.m4v,10.0
2024-02-28 13:38:33.029868,1709123913.029868,42.96875,-37.59765625,-24.4140625,50.29296875,-1.0,0.0,-1.0,0.0,4.m4v,10.0
2024-02-28 13:38:33.033772,1709123913.0337718,36.62109375,-38.0859375,-27.34375,40.0390625,-1.0,0.0,-1.0,0.0,4.m4v,10.0
2024-02-28 13:38:33.037676,1709123913.0376756,38.57421875,-33.69140625,-29.296875,49.8046875,-1.0,0.0,-1.0,0.0,4.m4v,10.0
2024-02-28 13:38:33.041580,1709123913.0415795,30.76171875,-33.69140625,-28.3203125,62.01171875,-1.0,0.0,-1.0,0.0,4.m4v,10.0
2024-02-28 13:38:33.045484,1709123913.0454836,24.4140625,-31.73828125,-22.4609375,60.05859375,-1.0,0.0,-1.0,0.0,4.m4v,10.0
2024-02-28 13:38:33.049388,1709123913.0493877,20.99609375,-25.87890625,-22.94921875,61.5234375,-1.0,0.0,-1.0,0.0,4.m4v,10.0
2024-02-28 13:38:33.053302,1709123913.0533018,18.5546875,-23.4375,-23.92578125,53.7109375,-1.0,0.0,-1.0,0.0,4.m4v,10.0
2024-02-28 13:38:33.057206,1709123913.0572057,14.16015625,-27.34375,-25.87890625,52.24609375,-1.0,0.0,-1.0,0.0,4.m4v,10.0
2024-02-28 13:38:33.061110,1709123913.0611098,2.9296875,-32.71484375,-24.4140625,62.98828125,-1.0,0.0,-1.0,0.0,4.m4v,10.0
2024-02-28 13:38:33.065014,1709123913.0650136,-9.765625,-32.71484375,-22.94921875,57.6171875,-1.0,0.0,-1.0,0.0,4.m4v,10.0
2024-02-28 13:38:33.068918,1709123913.0689175,-19.53125,-35.15625,-26.3671875,46.875,-1.0,0.0,-1.0,0.0,4.m4v,10.0
2024-02-28 13:38:33.072822,1709123913.0728216,-20.01953125,-34.66796875,-27.34375,46.875,-1.0,0.0,-1.0,0.0,4.m4v,10.0
2024-02-28 13:38:33.076725,1709123913.0767255,-22.4609375,-30.76171875,-27.83203125,44.43359375,-1.0,0.0,-1.0,0.0,4.m4v,10.0
2024-02-28 13:38:33.080630,1709123913.0806296,-23.92578125,-32.2265625,-28.80859375,43.9453125,-1.0,0.0,-1.0,0.0,4.m4v,10.0
2024-02-28 13:38:33.084533,1709123913.0845337,-20.5078125,-28.80859375,-29.296875,48.828125,-1.0,0.0,-1.0,0.0,4.m4v,10.0
2024-02-28 13:38:33.088437,1709123913.0884373,-13.18359375,-25.390625,-27.83203125,47.8515625,-1.0,0.0,-1.0,0.0,4.m4v,10.0
2024-02-28 13:38:33.092341,1709123913.0923414,-17.578125,-31.73828125,-28.3203125,46.875,-1.0,0.0,-1.0,0.0,4.m4v,10.0
2024-02-28 13:38:33.096245,1709123913.0962453,-32.71484375,-33.203125,-27.83203125,49.8046875,-1.0,0.0,-1.0,0.0,4.m4v,10.0
2024-02-28 13:38:33.100158,1709123913.1001582,-36.62109375,-31.73828125,-24.90234375,44.43359375,-1.0,0.0,-1.0,0.0,4.m4v,10.0
2024-02-28 13:38:33.104062,1709123913.1040623,-40.0390625,-34.1796875,-22.4609375,44.921875,-1.0,0.0,-1.0,0.0,4.m4v,10.0
2024-02-28 13:38:33.107966,1709123913.1079662,-49.31640625,-39.55078125,-22.94921875,55.17578125,-1.0,0.0,-1.0,0.0,4.m4v,10.0
2024-02-28 13:38:33.111870,1709123913.1118703,-55.17578125,-40.52734375,-23.92578125,55.17578125,-1.0,0.0,-1.0,0.0,4.m4v,10.0
2024-02-28 13:38:33.115774,1709123913.1157742,-61.5234375,-35.15625,-26.3671875,42.96875,-1.0,0.0,-1.0,0.0,4.m4v,10.0
2024-02-28 13:38:33.119678,1709123913.119678,-50.78125,-33.203125,-27.34375,38.0859375,-1.0,0.0,-1.0,0.0,4.m4v,10.0
2024-02-28 13:38:33.123582,1709123913.123582,-30.2734375,-27.83203125,-29.78515625,40.52734375,-1.0,0.0,-1.0,0.0,4.m4v,10.0
2024-02-28 13:38:33.127486,1709123913.127486,-34.66796875,-25.390625,-28.80859375,44.921875,-1.0,0.0,-1.0,0.0,4.m4v,10.0
2024-02-28 13:38:33.131390,1709123913.13139,-42.48046875,-22.4609375,-23.4375,43.45703125,-1.0,0.0,-1.0,0.0,4.m4v,10.0
2024-02-28 13:38:33.135294,1709123913.135294,-44.43359375,-25.390625,-24.4140625,41.9921875,-1.0,0.0,-1.0,0.0,4.m4v,10.0
2024-02-28 13:38:33.139198,1709123913.1391978,-53.7109375,-30.76171875,-25.390625,45.41015625,-1.0,0.0,-1.0,0.0,4.m4v,10.0
2024-02-28 13:38:33.143102,1709123913.143102,-47.8515625,-30.2734375,-24.4140625,51.7578125,-1.0,0.0,-1.0,0.0,4.m4v,10.0
2024-02-28 13:38:33.147014,1709123913.1470144,-37.59765625,-27.34375,-20.99609375,53.22265625,-1.0,0.0,-1.0,0.0,4.m4v,10.0
2024-02-28 13:38:33.150918,1709123913.1509182,-41.015625,-24.90234375,-18.06640625,50.29296875,-1.0,0.0,-1.0,0.0,4.m4v,10.0
2024-02-28 13:38:33.154822,1709123913.154822,-46.38671875,-28.3203125,-26.3671875,47.8515625,-1.0,0.0,-1.0,0.0,4.m4v,10.0
2024-02-28 13:38:33.158726,1709123913.1587262,-49.8046875,-25.87890625,-34.66796875,48.33984375,-1.0,0.0,-1.0,0.0,4.m4v,10.0
2024-02-28 13:38:33.162630,1709123913.16263,-51.7578125,-19.53125,-35.15625,58.10546875,-1.0,0.0,-1.0,0.0,4.m4v,10.0
2024-02-28 13:38:33.166534,1709123913.1665342,-52.24609375,-20.01953125,-33.69140625,59.5703125,-1.0,0.0,-1.0,0.0,4.m4v,10.0
2024-02-28 13:38:33.170438,1709123913.170438,-57.12890625,-21.97265625,-39.0625,48.828125,-1.0,0.0,-1.0,0.0,4.m4v,10.0
2024-02-28 13:38:33.174342,1709123913.174342,-64.94140625,-20.5078125,-41.015625,34.1796875,-1.0,0.0,-1.0,0.0,4.m4v,10.0
2024-02-28 13:38:33.178246,1709123913.178246,-60.546875,-20.99609375,-32.71484375,31.73828125,-1.0,0.0,-1.0,0.0,4.m4v,10.0
2024-02-28 13:38:33.182150,1709123913.18215,-63.4765625,-23.92578125,-25.87890625,33.69140625,-1.0,0.0,-1.0,0.0,4.m4v,10.0
2024-02-28 13:38:33.186054,1709123913.186054,-74.70703125,-29.296875,-24.90234375,25.390625,-1.0,0.0,-1.0,0.0,4.m4v,10.0
2024-02-28 13:38:33.189958,1709123913.189958,-77.63671875,-32.2265625,-24.4140625,20.99609375,-1.0,0.0,-1.0,0.0,4.m4v,10.0
2024-02-28 13:38:33.193870,1709123913.1938696,-77.63671875,-28.3203125,-22.4609375,21.97265625,-1.0,0.0,-1.0,0.0,4.m4v,10.0
2024-02-28 13:38:33.197774,1709123913.1977737,-83.49609375,-26.85546875,-25.390625,16.11328125,-1.0,0.0,-1.0,0.0,4.m4v,10.0
2024-02-28 13:38:33.201678,1709123913.2016776,-80.56640625,-26.85546875,-28.3203125,14.16015625,-1.0,0.0,-1.0,0.0,4.m4v,10.0
2024-02-28 13:38:33.205581,1709123913.2055814,-66.40625,-31.73828125,-25.87890625,18.06640625,-1.0,0.0,-1.0,0.0,4.m4v,10.0
2024-02-28 13:38:33.209486,1709123913.2094855,-67.3828125,-33.69140625,-25.87890625,16.6015625,-1.0,0.0,-1.0,0.0,4.m4v,10.0
2024-02-28 13:38:33.213389,1709123913.2133894,-80.078125,-33.203125,-28.80859375,11.23046875,-1.0,0.0,-1.0,0.0,4.m4v,10.0
2024-02-28 13:38:33.217294,1709123913.2172935,-83.49609375,-35.64453125,-29.296875,2.44140625,-1.0,0.0,-1.0,0.0,4.m4v,10.0
2024-02-28 13:38:33.221197,1709123913.2211974,-77.1484375,-32.71484375,-30.2734375,-0.48828125,-1.0,0.0,-1.0,0.0,4.m4v,10.0
2024-02-28 13:38:33.225101,1709123913.2251012,-76.171875,-31.73828125,-26.85546875,-2.9296875,-1.0,0.0,-1.0,0.0,4.m4v,10.0
2024-02-28 13:38:33.229005,1709123913.229005,-78.125,-31.25,-28.3203125,-4.8828125,-1.0,0.0,-1.0,0.0,4.m4v,10.0
2024-02-28 13:38:33.232909,1709123913.2329092,-74.70703125,-27.83203125,-31.73828125,-1.46484375,-1.0,0.0,-1.0,0.0,4.m4v,10.0
2024-02-28 13:38:33.236813,1709123913.2368133,-71.2890625,-26.3671875,-31.73828125,-3.90625,-1.0,0.0,-1.0,0.0,4.m4v,10.0
2024-02-28 13:38:33.240731,1709123913.2407303,-81.54296875,-27.83203125,-29.296875,-11.23046875,-1.0,0.0,-1.0,0.0,4.m4v,10.0
2024-02-28 13:38:33.244635,1709123913.2446346,-87.40234375,-31.73828125,-24.90234375,-18.5546875,-1.0,0.0,-1.0,0.0,4.m4v,10.0
2024-02-28 13:38:33.248538,1709123913.2485385,-88.37890625,-32.2265625,-23.4375,-22.4609375,-1.0,0.0,-1.0,0.0,4.m4v,10.0
2024-02-28 13:38:33.252442,1709123913.2524424,-93.26171875,-30.76171875,-20.01953125,-27.83203125,-1.0,0.0,-1.0,0.0,4.m4v,10.0
2024-02-28 13:38:33.256346,1709123913.2563465,-89.35546875,-31.25,-25.390625,-32.2265625,-1.0,0.0,-1.0,0.0,4.m4v,10.0
2024-02-28 13:38:33.260250,1709123913.2602503,-76.171875,-32.71484375,-25.87890625,-28.80859375,-1.0,0.0,-1.0,0.0,4.m4v,10.0
2024-02-28 13:38:33.264154,1709123913.2641544,-73.73046875,-34.66796875,-23.4375,-24.4140625,-1.0,0.0,-1.0,0.0,4.m4v,10.0
2024-02-28 13:38:33.268058,1709123913.2680583,-68.84765625,-30.2734375,-25.87890625,-25.390625,-1.0,0.0,-1.0,0.0,4.m4v,10.0
2024-02-28 13:38:33.271962,1709123913.2719622,-61.03515625,-30.2734375,-27.34375,-24.90234375,-1.0,0.0,-1.0,0.0,4.m4v,10.0
2024-02-28 13:38:33.275866,1709123913.2758665,-58.59375,-35.64453125,-33.203125,-28.3203125,-1.0,0.0,-1.0,0.0,4.m4v,10.0
2024-02-28 13:38:33.279770,1709123913.27977,-51.7578125,-34.66796875,-27.83203125,-27.34375,-1.0,0.0,-1.0,0.0,4.m4v,10.0
2024-02-28 13:38:33.283674,1709123913.2836742,-53.7109375,-29.296875,-22.94921875,-29.78515625,-1.0,0.0,-1.0,0.0,4.m4v,10.0
2024-02-28 13:38:33.287591,1709123913.2875905,-62.5,-31.73828125,-28.80859375,-41.015625,-1.0,0.0,-1.0,0.0,4.m4v,10.0
2024-02-28 13:38:33.291495,1709123913.2914946,-63.96484375,-31.73828125,-29.296875,-31.73828125,-1.0,0.0,-1.0,0.0,4.m4v,10.0
2024-02-28 13:38:33.295398,1709123913.2953985,-61.5234375,-32.2265625,-26.3671875,-23.4375,-1.0,0.0,-1.0,0.0,4.m4v,10.0
2024-02-28 13:38:33.299302,1709123913.2993023,-58.59375,-35.15625,-26.85546875,-35.15625,-1.0,0.0,-1.0,0.0,4.m4v,10.0
2024-02-28 13:38:33.303206,1709123913.3032064,-61.03515625,-30.2734375,-27.83203125,-32.71484375,-1.0,0.0,-1.0,0.0,4.m4v,10.0
2024-02-28 13:38:33.307110,1709123913.3071103,-65.4296875,-30.2734375,-29.296875,-23.4375,-1.0,0.0,-1.0,0.0,4.m4v,10.0
2024-02-28 13:38:33.311014,1709123913.3110144,-67.87109375,-31.25,-31.25,-29.78515625,-1.0,0.0,-1.0,0.0,4.m4v,10.0
2024-02-28 13:38:33.314918,1709123913.3149185,-66.89453125,-30.76171875,-29.296875,-31.73828125,-1.0,0.0,-1.0,0.0,4.m4v,10.0
2024-02-28 13:38:33.318822,1709123913.318822,-66.89453125,-32.71484375,-26.3671875,-33.69140625,-1.0,0.0,-1.0,0.0,4.m4v,10.0
2024-02-28 13:38:33.322726,1709123913.3227262,-64.453125,-37.59765625,-26.85546875,-34.1796875,-1.0,0.0,-1.0,0.0,4.m4v,10.0
2024-02-28 13:38:33.326630,1709123913.32663,-63.4765625,-32.71484375,-22.4609375,-26.85546875,-1.0,0.0,-1.0,0.0,4.m4v,10.0
2024-02-28 13:38:33.330534,1709123913.3305342,-71.2890625,-30.76171875,-20.01953125,-25.87890625,-1.0,0.0,-1.0,0.0,4.m4v,10.0
2024-02-28 13:38:33.334450,1709123913.33445,-71.2890625,-35.64453125,-22.4609375,-27.83203125,-1.0,0.0,-1.0,0.0,4.m4v,10.0
2024-02-28 13:38:33.338354,1709123913.338354,-64.453125,-34.66796875,-26.3671875,-27.83203125,-1.0,0.0,-1.0,0.0,4.m4v,10.0
2024-02-28 13:38:33.342258,1709123913.342258,-66.40625,-32.71484375,-27.34375,-26.85546875,-1.0,0.0,-1.0,0.0,4.m4v,10.0
2024-02-28 13:38:33.346162,1709123913.3461618,-68.84765625,-36.62109375,-25.87890625,-24.4140625,-1.0,0.0,-1.0,0.0,4.m4v,10.0
2024-02-28 13:38:33.350066,1709123913.350066,-67.87109375,-41.50390625,-24.4140625,-29.296875,-1.0,0.0,-1.0,0.0,4.m4v,10.0
2024-02-28 13:38:33.353970,1709123913.3539698,-60.05859375,-40.52734375,-23.92578125,-31.73828125,-1.0,0.0,-1.0,0.0,4.m4v,10.0
2024-02-28 13:38:33.357874,1709123913.357874,-54.19921875,-37.109375,-24.90234375,-31.25,-1.0,0.0,-1.0,0.0,4.m4v,10.0
2024-02-28 13:38:33.361778,1709123913.3617778,-54.19921875,-36.62109375,-19.53125,-35.15625,-1.0,0.0,-1.0,0.0,4.m4v,10.0
2024-02-28 13:38:33.365682,1709123913.3656816,-55.17578125,-41.015625,-18.06640625,-34.1796875,-1.0,0.0,-1.0,0.0,4.m4v,10.0
2024-02-28 13:38:33.369586,1709123913.3695858,-50.78125,-47.36328125,-22.4609375,-30.2734375,-1.0,0.0,-1.0,0.0,4.m4v,10.0
2024-02-28 13:38:33.373490,1709123913.3734896,-32.71484375,-48.33984375,-23.4375,-19.53125,-1.0,0.0,-1.0,0.0,4.m4v,10.0
2024-02-28 13:38:33.377394,1709123913.3773935,-31.25,-40.52734375,-27.34375,-22.94921875,-1.0,0.0,-1.0,0.0,4.m4v,10.0
2024-02-28 13:38:33.381309,1709123913.381309,-43.45703125,-34.1796875,-32.2265625,-38.57421875,-1.0,0.0,-1.0,0.0,4.m4v,10.0
2024-02-28 13:38:33.385213,1709123913.385213,-51.7578125,-36.1328125,-35.15625,-57.12890625,-1.0,0.0,-1.0,0.0,4.m4v,10.0
2024-02-28 13:38:33.389117,1709123913.3891168,-54.19921875,-35.64453125,-41.9921875,-62.01171875,-1.0,0.0,-1.0,0.0,4.m4v,10.0
2024-02-28 13:38:33.393021,1709123913.3930209,-51.26953125,-29.78515625,-44.43359375,-56.15234375,-1.0,0.0,-1.0,0.0,4.m4v,10.0
2024-02-28 13:38:33.396925,1709123913.3969247,-51.26953125,-27.34375,-37.59765625,-54.6875,-1.0,0.0,-1.0,0.0,4.m4v,10.0
2024-02-28 13:38:33.400829,1709123913.4008288,-51.7578125,-27.83203125,-30.76171875,-50.29296875,-1.0,0.0,-1.0,0.0,4.m4v,10.0
2024-02-28 13:38:33.404733,1709123913.4047327,-52.734375,-33.69140625,-28.3203125,-48.33984375,-1.0,0.0,-1.0,0.0,4.m4v,10.0
2024-02-28 13:38:33.408637,1709123913.4086366,-57.6171875,-35.64453125,-26.3671875,-44.921875,-1.0,0.0,-1.0,0.0,4.m4v,10.0
2024-02-28 13:38:33.412541,1709123913.412541,-68.84765625,-36.62109375,-30.76171875,-46.38671875,-1.0,0.0,-1.0,0.0,4.m4v,10.0
2024-02-28 13:38:33.416445,1709123913.4164443,-67.87109375,-39.55078125,-29.78515625,-47.8515625,-1.0,0.0,-1.0,0.0,4.m4v,10.0
2024-02-28 13:38:33.420349,1709123913.4203486,-52.734375,-37.59765625,-25.87890625,-40.52734375,-1.0,0.0,-1.0,0.0,4.m4v,10.0
2024-02-28 13:38:33.424253,1709123913.4242525,-48.33984375,-30.76171875,-24.90234375,-36.1328125,-1.0,0.0,-1.0,0.0,4.m4v,10.0
2024-02-28 13:38:33.428166,1709123913.428166,-53.7109375,-29.296875,-24.90234375,-41.9921875,-1.0,0.0,-1.0,0.0,4.m4v,10.0
2024-02-28 13:38:33.432070,1709123913.43207,-52.24609375,-29.78515625,-26.3671875,-46.875,-1.0,0.0,-1.0,0.0,4.m4v,10.0
2024-02-28 13:38:33.435974,1709123913.435974,-49.8046875,-32.2265625,-26.3671875,-43.9453125,-1.0,0.0,-1.0,0.0,4.m4v,10.0
2024-02-28 13:38:33.439878,1709123913.439878,-58.59375,-32.71484375,-22.4609375,-44.43359375,-1.0,0.0,-1.0,0.0,4.m4v,10.0
2024-02-28 13:38:33.443782,1709123913.443782,-70.80078125,-31.73828125,-27.83203125,-55.6640625,-1.0,0.0,-1.0,0.0,4.m4v,10.0
2024-02-28 13:38:33.447686,1709123913.4476857,-67.87109375,-32.71484375,-33.203125,-49.8046875,-1.0,0.0,-1.0,0.0,4.m4v,10.0
2024-02-28 13:38:33.451590,1709123913.4515898,-61.5234375,-31.25,-29.296875,-48.828125,-1.0,0.0,-1.0,0.0,4.m4v,10.0
2024-02-28 13:38:33.455494,1709123913.4554937,-59.5703125,-33.69140625,-32.71484375,-59.5703125,-1.0,0.0,-1.0,0.0,4.m4v,10.0
2024-02-28 13:38:33.459398,1709123913.4593978,-56.640625,-36.62109375,-39.55078125,-60.05859375,-1.0,0.0,-1.0,0.0,4.m4v,10.0
2024-02-28 13:38:33.463302,1709123913.4633017,-51.7578125,-31.73828125,-38.57421875,-44.43359375,-1.0,0.0,-1.0,0.0,4.m4v,10.0
2024-02-28 13:38:33.467206,1709123913.4672055,-41.50390625,-27.83203125,-34.1796875,-31.73828125,-1.0,0.0,-1.0,0.0,4.m4v,10.0
2024-02-28 13:38:33.471110,1709123913.4711096,-36.1328125,-32.2265625,-33.69140625,-39.55078125,-1.0,0.0,-1.0,0.0,4.m4v,10.0
2024-02-28 13:38:33.475022,1709123913.475022,-33.69140625,-30.76171875,-30.76171875,-41.015625,-1.0,0.0,-1.0,0.0,4.m4v,10.0
2024-02-28 13:38:33.478926,1709123913.4789262,-38.57421875,-28.3203125,-27.83203125,-37.59765625,-1.0,0.0,-1.0,0.0,4.m4v,10.0
2024-02-28 13:38:33.482830,1709123913.48283,-47.36328125,-35.64453125,-32.2265625,-44.43359375,-1.0,0.0,-1.0,0.0,4.m4v,10.0
2024-02-28 13:38:33.486734,1709123913.4867342,-49.8046875,-40.52734375,-35.64453125,-57.12890625,-1.0,0.0,-1.0,0.0,4.m4v,10.0
2024-02-28 13:38:33.490638,1709123913.490638,-48.828125,-39.0625,-32.2265625,-59.5703125,-1.0,0.0,-1.0,0.0,4.m4v,10.0
2024-02-28 13:38:33.494542,1709123913.494542,-43.45703125,-35.15625,-28.3203125,-54.6875,-1.0,0.0,-1.0,0.0,4.m4v,10.0
2024-02-28 13:38:33.498446,1709123913.498446,-44.43359375,-35.15625,-30.76171875,-51.7578125,-1.0,0.0,-1.0,0.0,4.m4v,10.0
2024-02-28 13:38:33.502350,1709123913.50235,-49.31640625,-36.62109375,-31.25,-48.33984375,-1.0,0.0,-1.0,0.0,4.m4v,10.0
2024-02-28 13:38:33.506254,1709123913.506254,-48.33984375,-38.0859375,-26.85546875,-37.59765625,-1.0,0.0,-1.0,0.0,4.m4v,10.0
2024-02-28 13:38:33.510158,1709123913.5101578,-37.59765625,-32.71484375,-25.87890625,-25.390625,-1.0,0.0,-1.0,0.0,4.m4v,10.0
2024-02-28 13:38:33.514062,1709123913.5140617,-34.66796875,-33.69140625,-28.3203125,-30.2734375,-1.0,0.0,-1.0,0.0,4.m4v,10.0
2024-02-28 13:38:33.517966,1709123913.5179658,-36.62109375,-36.62109375,-29.296875,-36.62109375,-1.0,0.0,-1.0,0.0,4.m4v,10.0
2024-02-28 13:38:33.521878,1709123913.5218782,-42.96875,-36.1328125,-30.76171875,-34.66796875,-1.0,0.0,-1.0,0.0,4.m4v,10.0
2024-02-28 13:38:33.525782,1709123913.5257823,-48.33984375,-40.52734375,-29.78515625,-38.0859375,-1.0,0.0,-1.0,0.0,4.m4v,10.0
2024-02-28 13:38:33.529686,1709123913.5296862,-41.9921875,-42.48046875,-28.3203125,-42.48046875,-1.0,0.0,-1.0,0.0,4.m4v,10.0
2024-02-28 13:38:33.533590,1709123913.5335903,-40.52734375,-41.015625,-32.71484375,-38.57421875,-1.0,0.0,-1.0,0.0,4.m4v,10.0
2024-02-28 13:38:33.537494,1709123913.5374942,-43.45703125,-39.55078125,-30.2734375,-37.109375,-1.0,0.0,-1.0,0.0,4.m4v,10.0
2024-02-28 13:38:33.541398,1709123913.541398,-39.55078125,-34.66796875,-28.3203125,-38.0859375,-1.0,0.0,-1.0,0.0,4.m4v,10.0
2024-02-28 13:38:33.545302,1709123913.5453022,-39.55078125,-29.296875,-29.78515625,-33.69140625,-1.0,0.0,-1.0,0.0,4.m4v,10.0
2024-02-28 13:38:33.549206,1709123913.549206,-41.015625,-28.3203125,-30.76171875,-35.15625,-1.0,0.0,-1.0,0.0,4.m4v,10.0
2024-02-28 13:38:33.553110,1709123913.55311,-34.66796875,-30.76171875,-31.73828125,-35.64453125,-1.0,0.0,-1.0,0.0,4.m4v,10.0
2024-02-28 13:38:33.557014,1709123913.557014,-31.73828125,-35.64453125,-32.71484375,-37.109375,-1.0,0.0,-1.0,0.0,4.m4v,10.0
2024-02-28 13:38:33.560918,1709123913.560918,-33.203125,-36.62109375,-32.71484375,-41.50390625,-1.0,0.0,-1.0,0.0,4.m4v,10.0
2024-02-28 13:38:33.564822,1709123913.564822,-25.87890625,-33.203125,-28.3203125,-39.55078125,-1.0,0.0,-1.0,0.0,4.m4v,10.0
2024-02-28 13:38:33.568733,1709123913.5687337,-24.4140625,-34.66796875,-24.90234375,-32.2265625,-1.0,0.0,-1.0,0.0,4.m4v,10.0
2024-02-28 13:38:33.572638,1709123913.5726376,-17.578125,-33.203125,-22.94921875,-21.97265625,-1.0,0.0,-1.0,0.0,4.m4v,10.0
2024-02-28 13:38:33.576541,1709123913.5765414,-20.01953125,-30.76171875,-22.94921875,-34.66796875,-1.0,0.0,-1.0,0.0,4.m4v,10.0
2024-02-28 13:38:33.580445,1709123913.5804453,-25.390625,-33.203125,-27.34375,-35.64453125,-1.0,0.0,-1.0,0.0,4.m4v,10.0
2024-02-28 13:38:33.584349,1709123913.5843494,-20.99609375,-33.69140625,-24.4140625,-28.80859375,-1.0,0.0,-1.0,0.0,4.m4v,10.0
2024-02-28 13:38:33.588253,1709123913.5882533,-27.34375,-30.76171875,-23.4375,-26.85546875,-1.0,0.0,-1.0,0.0,4.m4v,10.0
2024-02-28 13:38:33.592157,1709123913.5921574,-31.25,-31.25,-27.34375,-21.97265625,-1.0,0.0,-1.0,0.0,4.m4v,10.0
2024-02-28 13:38:33.596061,1709123913.5960612,-22.94921875,-33.203125,-30.2734375,-20.01953125,-1.0,0.0,-1.0,0.0,4.m4v,10.0
2024-02-28 13:38:33.599965,1709123913.599965,-20.5078125,-33.69140625,-32.2265625,-21.484375,-1.0,0.0,-1.0,0.0,4.m4v,10.0
2024-02-28 13:38:33.603869,1709123913.6038692,-22.94921875,-33.69140625,-33.203125,-22.94921875,-1.0,0.0,-1.0,0.0,4.m4v,10.0
2024-02-28 13:38:33.607773,1709123913.607773,-21.484375,-28.80859375,-32.71484375,-25.390625,-1.0,0.0,-1.0,0.0,4.m4v,10.0
2024-02-28 13:38:33.611677,1709123913.6116772,-21.97265625,-28.3203125,-25.87890625,-26.3671875,-1.0,0.0,-1.0,0.0,4.m4v,10.0
2024-02-28 13:38:33.615596,1709123913.6155956,-30.2734375,-34.66796875,-28.80859375,-25.390625,-1.0,0.0,-1.0,0.0,4.m4v,10.0
2024-02-28 13:38:33.619499,1709123913.6194994,-39.0625,-35.64453125,-32.71484375,-19.04296875,-1.0,0.0,-1.0,0.0,4.m4v,10.0
2024-02-28 13:38:33.623404,1709123913.6234035,-34.66796875,-33.203125,-27.83203125,-14.16015625,-1.0,0.0,-1.0,0.0,4.m4v,10.0
2024-02-28 13:38:33.627307,1709123913.6273074,-30.76171875,-36.62109375,-25.87890625,-20.99609375,-1.0,0.0,-1.0,0.0,4.m4v,10.0
2024-02-28 13:38:33.631211,1709123913.6312113,-34.66796875,-33.69140625,-30.76171875,-30.2734375,-1.0,0.0,-1.0,0.0,4.m4v,10.0
2024-02-28 13:38:33.635115,1709123913.6351154,-26.3671875,-30.2734375,-29.296875,-29.78515625,-1.0,0.0,-1.0,0.0,4.m4v,10.0
2024-02-28 13:38:33.639019,1709123913.6390193,-23.4375,-32.2265625,-29.296875,-33.203125,-1.0,0.0,-1.0,0.0,4.m4v,10.0
2024-02-28 13:38:33.642923,1709123913.6429234,-23.92578125,-31.25,-31.25,-33.69140625,-1.0,0.0,-1.0,0.0,4.m4v,10.0
2024-02-28 13:38:33.646827,1709123913.6468272,-23.4375,-31.73828125,-31.73828125,-25.87890625,-1.0,0.0,-1.0,0.0,4.m4v,10.0
2024-02-28 13:38:33.650731,1709123913.650731,-22.94921875,-35.64453125,-30.76171875,-22.4609375,-1.0,0.0,-1.0,0.0,4.m4v,10.0
2024-02-28 13:38:33.654635,1709123913.6546352,-18.06640625,-30.76171875,-23.4375,-19.53125,-1.0,0.0,-1.0,0.0,4.m4v,10.0
2024-02-28 13:38:33.658539,1709123913.658539,-23.92578125,-28.3203125,-26.3671875,-22.94921875,-1.0,0.0,-1.0,0.0,4.m4v,10.0
2024-02-28 13:38:33.662456,1709123913.6624556,-25.87890625,-32.2265625,-28.80859375,-24.90234375,-1.0,0.0,-1.0,0.0,4.m4v,10.0
2024-02-28 13:38:33.666359,1709123913.6663594,-22.4609375,-35.64453125,-28.80859375,-20.99609375,-1.0,0.0,-1.0,0.0,4.m4v,10.0
2024-02-28 13:38:33.670264,1709123913.6702635,-24.4140625,-39.0625,-30.2734375,-18.06640625,-1.0,0.0,-1.0,0.0,4.m4v,10.0
2024-02-28 13:38:33.674167,1709123913.6741674,-25.87890625,-35.64453125,-27.83203125,-22.4609375,-1.0,0.0,-1.0,0.0,4.m4v,10.0
2024-02-28 13:38:33.678071,1709123913.6780715,-21.97265625,-32.71484375,-20.99609375,-21.484375,-1.0,0.0,-1.0,0.0,4.m4v,10.0
2024-02-28 13:38:33.681975,1709123913.6819754,-30.2734375,-33.203125,-19.53125,-19.53125,-1.0,0.0,-1.0,0.0,4.m4v,10.0
2024-02-28 13:38:33.685879,1709123913.6858792,-43.45703125,-36.1328125,-24.4140625,-23.4375,-1.0,0.0,-1.0,0.0,4.m4v,10.0
2024-02-28 13:38:33.689783,1709123913.689783,-39.55078125,-36.1328125,-23.92578125,-24.90234375,-1.0,0.0,-1.0,0.0,4.m4v,10.0
2024-02-28 13:38:33.693687,1709123913.6936872,-37.109375,-30.76171875,-23.4375,-20.99609375,-1.0,0.0,-1.0,0.0,4.m4v,10.0
2024-02-28 13:38:33.697591,1709123913.6975913,-43.9453125,-31.73828125,-26.3671875,-21.97265625,-1.0,0.0,-1.0,0.0,4.m4v,10.0
2024-02-28 13:38:33.701495,1709123913.7014952,-42.48046875,-31.73828125,-24.4140625,-23.92578125,-1.0,0.0,-1.0,0.0,4.m4v,10.0
2024-02-28 13:38:33.705399,1709123913.705399,-38.0859375,-24.90234375,-20.99609375,-21.484375,-1.0,0.0,-1.0,0.0,4.m4v,10.0
2024-02-28 13:38:33.709315,1709123913.7093146,-43.9453125,-25.87890625,-22.94921875,-25.390625,-1.0,0.0,-1.0,0.0,4.m4v,10.0
2024-02-28 13:38:33.713218,1709123913.7132185,-41.9921875,-28.80859375,-26.3671875,-27.34375,-1.0,0.0,-1.0,0.0,4.m4v,10.0
2024-02-28 13:38:33.717123,1709123913.7171226,-34.1796875,-28.3203125,-22.4609375,-21.484375,-1.0,0.0,-1.0,0.0,4.m4v,10.0
2024-02-28 13:38:33.721026,1709123913.7210264,-38.57421875,-28.3203125,-22.94921875,-22.94921875,-1.0,0.0,-1.0,0.0,4.m4v,10.0
2024-02-28 13:38:33.724931,1709123913.7249303,-40.52734375,-30.2734375,-26.85546875,-24.90234375,-1.0,0.0,-1.0,0.0,4.m4v,10.0
2024-02-28 13:38:33.728834,1709123913.7288344,-42.48046875,-30.76171875,-28.3203125,-29.78515625,-1.0,0.0,-1.0,0.0,4.m4v,10.0
2024-02-28 13:38:33.732738,1709123913.7327385,-45.41015625,-28.80859375,-30.2734375,-40.0390625,-1.0,0.0,-1.0,0.0,4.m4v,10.0
2024-02-28 13:38:33.736642,1709123913.7366424,-43.9453125,-31.73828125,-28.80859375,-31.25,-1.0,0.0,-1.0,0.0,4.m4v,10.0
2024-02-28 13:38:33.740546,1709123913.7405462,-42.96875,-33.203125,-33.203125,-26.3671875,-1.0,0.0,-1.0,0.0,4.m4v,10.0
2024-02-28 13:38:33.744450,1709123913.7444503,-46.875,-36.1328125,-39.55078125,-37.109375,-1.0,0.0,-1.0,0.0,4.m4v,10.0
2024-02-28 13:38:33.748354,1709123913.7483542,-42.96875,-34.66796875,-39.55078125,-39.0625,-1.0,0.0,-1.0,0.0,4.m4v,10.0
2024-02-28 13:38:33.752258,1709123913.7522583,-39.55078125,-32.2265625,-39.55078125,-40.0390625,-1.0,0.0,-1.0,0.0,4.m4v,10.0
2024-02-28 13:38:33.756173,1709123913.7561731,-43.9453125,-34.66796875,-39.55078125,-39.55078125,-1.0,0.0,-1.0,0.0,4.m4v,10.0
2024-02-28 13:38:33.760077,1709123913.760077,-48.33984375,-36.62109375,-38.57421875,-38.57421875,-1.0,0.0,-1.0,0.0,4.m4v,10.0
2024-02-28 13:38:33.763981,1709123913.763981,-46.38671875,-40.0390625,-42.96875,-49.8046875,-1.0,0.0,-1.0,0.0,4.m4v,10.0
2024-02-28 13:38:33.767885,1709123913.767885,-35.64453125,-44.43359375,-43.45703125,-46.875,-1.0,0.0,-1.0,0.0,4.m4v,10.0
2024-02-28 13:38:33.771789,1709123913.771789,-34.66796875,-42.96875,-37.59765625,-34.1796875,-1.0,0.0,-1.0,0.0,4.m4v,10.0
2024-02-28 13:38:33.775693,1709123913.775693,-43.9453125,-41.015625,-32.71484375,-44.43359375,-1.0,0.0,-1.0,0.0,4.m4v,10.0
2024-02-28 13:38:33.779597,1709123913.779597,-51.7578125,-40.0390625,-34.66796875,-56.15234375,-1.0,0.0,-1.0,0.0,4.m4v,10.0
2024-02-28 13:38:33.783501,1709123913.783501,-50.29296875,-38.0859375,-37.109375,-50.78125,-1.0,0.0,-1.0,0.0,4.m4v,10.0
2024-02-28 13:38:33.787405,1709123913.7874048,-43.45703125,-37.109375,-31.73828125,-46.875,-1.0,0.0,-1.0,0.0,4.m4v,10.0
2024-02-28 13:38:33.791309,1709123913.7913089,-44.43359375,-34.66796875,-31.73828125,-45.8984375,-1.0,0.0,-1.0,0.0,4.m4v,10.0
2024-02-28 13:38:33.795213,1709123913.7952127,-47.8515625,-32.2265625,-34.1796875,-38.57421875,-1.0,0.0,-1.0,0.0,4.m4v,10.0
2024-02-28 13:38:33.799117,1709123913.7991168,-51.26953125,-33.69140625,-31.25,-42.48046875,-1.0,0.0,-1.0,0.0,4.m4v,10.0
2024-02-28 13:38:33.803031,1709123913.8030312,-47.36328125,-34.1796875,-34.66796875,-41.9921875,-1.0,0.0,-1.0,0.0,4.m4v,10.0
2024-02-28 13:38:33.806935,1709123913.806935,-35.15625,-33.203125,-34.66796875,-38.0859375,-1.0,0.0,-1.0,0.0,4.m4v,10.0
2024-02-28 13:38:33.810839,1709123913.8108392,-32.71484375,-35.64453125,-31.25,-42.48046875,-1.0,0.0,-1.0,0.0,4.m4v,10.0
2024-02-28 13:38:33.814743,1709123913.814743,-39.55078125,-37.59765625,-31.25,-42.96875,-1.0,0.0,-1.0,0.0,4.m4v,10.0
2024-02-28 13:38:33.818647,1709123913.8186471,-37.59765625,-36.1328125,-31.25,-39.55078125,-1.0,0.0,-1.0,0.0,4.m4v,10.0
2024-02-28 13:38:33.822551,1709123913.822551,-28.80859375,-35.15625,-31.25,-39.0625,-1.0,0.0,-1.0,0.0,4.m4v,10.0
2024-02-28 13:38:33.826455,1709123913.8264549,-22.94921875,-35.15625,-25.390625,-37.109375,-1.0,0.0,-1.0,0.0,4.m4v,10.0
2024-02-28 13:38:33.830359,1709123913.830359,-23.92578125,-36.62109375,-30.2734375,-38.0859375,-1.0,0.0,-1.0,0.0,4.m4v,10.0
2024-02-28 13:38:33.834263,1709123913.8342628,-25.87890625,-39.0625,-34.66796875,-42.48046875,-1.0,0.0,-1.0,0.0,4.m4v,10.0
2024-02-28 13:38:33.838167,1709123913.838167,-23.92578125,-37.109375,-30.2734375,-41.50390625,-1.0,0.0,-1.0,0.0,4.m4v,10.0
2024-02-28 13:38:33.842071,1709123913.8420708,-21.97265625,-33.203125,-29.78515625,-42.48046875,-1.0,0.0,-1.0,0.0,4.m4v,10.0
2024-02-28 13:38:33.845975,1709123913.8459747,-17.08984375,-31.25,-27.34375,-43.45703125,-1.0,0.0,-1.0,0.0,4.m4v,10.0
2024-02-28 13:38:33.849887,1709123913.8498874,-15.13671875,-29.296875,-27.34375,-36.1328125,-1.0,0.0,-1.0,0.0,4.m4v,10.0
2024-02-28 13:38:33.853791,1709123913.8537912,-8.30078125,-29.296875,-29.78515625,-37.59765625,-1.0,0.0,-1.0,0.0,4.m4v,10.0
2024-02-28 13:38:33.857695,1709123913.857695,-2.9296875,-30.76171875,-31.25,-36.1328125,-1.0,0.0,-1.0,0.0,4.m4v,10.0
2024-02-28 13:38:33.861599,1709123913.8615992,-5.859375,-31.25,-34.1796875,-33.203125,-1.0,0.0,-1.0,0.0,4.m4v,10.0
2024-02-28 13:38:33.865503,1709123913.8655033,-10.25390625,-29.78515625,-37.59765625,-39.55078125,-1.0,0.0,-1.0,0.0,4.m4v,10.0
2024-02-28 13:38:33.869407,1709123913.8694072,-10.25390625,-29.296875,-34.1796875,-45.41015625,-1.0,0.0,-1.0,0.0,4.m4v,10.0
2024-02-28 13:38:33.873311,1709123913.8733113,-5.859375,-33.69140625,-29.78515625,-42.48046875,-1.0,0.0,-1.0,0.0,4.m4v,10.0
2024-02-28 13:38:33.877215,1709123913.8772151,-12.20703125,-36.1328125,-34.66796875,-43.9453125,-1.0,0.0,-1.0,0.0,4.m4v,10.0
2024-02-28 13:38:33.881119,1709123913.881119,-6.8359375,-31.73828125,-32.71484375,-43.9453125,-1.0,0.0,-1.0,0.0,4.m4v,10.0
2024-02-28 13:38:33.885023,1709123913.885023,-1.46484375,-32.71484375,-33.203125,-34.66796875,-1.0,0.0,-1.0,0.0,4.m4v,10.0
2024-02-28 13:38:33.888927,1709123913.888927,-9.27734375,-36.62109375,-36.62109375,-34.1796875,-1.0,0.0,-1.0,0.0,4.m4v,10.0
2024-02-28 13:38:33.892831,1709123913.892831,-13.671875,-35.15625,-34.1796875,-39.55078125,-1.0,0.0,-1.0,0.0,4.m4v,10.0
2024-02-28 13:38:33.896743,1709123913.8967426,-15.625,-33.69140625,-34.66796875,-40.52734375,-1.0,0.0,-1.0,0.0,4.m4v,10.0
2024-02-28 13:38:33.900646,1709123913.9006464,-15.625,-32.2265625,-33.203125,-34.1796875,-1.0,0.0,-1.0,0.0,4.m4v,10.0
2024-02-28 13:38:33.904551,1709123913.9045506,-17.08984375,-32.71484375,-29.296875,-28.3203125,-1.0,0.0,-1.0,0.0,4.m4v,10.0
2024-02-28 13:38:33.908454,1709123913.9084544,-18.06640625,-36.1328125,-29.296875,-31.73828125,-1.0,0.0,-1.0,0.0,4.m4v,10.0
2024-02-28 13:38:33.912359,1709123913.9123583,-20.5078125,-38.57421875,-30.2734375,-39.55078125,-1.0,0.0,-1.0,0.0,4.m4v,10.0
2024-02-28 13:38:33.916262,1709123913.9162624,-20.5078125,-34.1796875,-29.78515625,-35.64453125,-1.0,0.0,-1.0,0.0,4.m4v,10.0
2024-02-28 13:38:33.920166,1709123913.9201665,-20.01953125,-32.71484375,-31.25,-31.73828125,-1.0,0.0,-1.0,0.0,4.m4v,10.0
2024-02-28 13:38:33.924070,1709123913.9240704,-22.94921875,-36.62109375,-31.73828125,-32.71484375,-1.0,0.0,-1.0,0.0,4.m4v,10.0
2024-02-28 13:38:33.927974,1709123913.9279742,-24.4140625,-34.66796875,-28.3203125,-37.59765625,-1.0,0.0,-1.0,0.0,4.m4v,10.0
2024-02-28 13:38:33.931878,1709123913.9318783,-30.2734375,-31.73828125,-24.90234375,-41.015625,-1.0,0.0,-1.0,0.0,4.m4v,10.0
2024-02-28 13:38:33.935782,1709123913.9357822,-34.1796875,-31.25,-27.34375,-41.015625,-1.0,0.0,-1.0,0.0,4.m4v,10.0
2024-02-28 13:38:33.939686,1709123913.9396863,-32.71484375,-32.71484375,-28.3203125,-43.45703125,-1.0,0.0,-1.0,0.0,4.m4v,10.0
2024-02-28 13:38:33.943597,1709123913.9435966,-23.4375,-29.296875,-25.390625,-41.9921875,-1.0,0.0,-1.0,0.0,4.m4v,10.0
2024-02-28 13:38:33.947500,1709123913.9475005,-16.11328125,-27.83203125,-24.90234375,-41.9921875,-1.0,0.0,-1.0,0.0,4.m4v,10.0
2024-02-28 13:38:33.951405,1709123913.9514046,-16.11328125,-31.73828125,-24.4140625,-46.875,-1.0,0.0,-1.0,0.0,4.m4v,10.0
2024-02-28 13:38:33.955308,1709123913.9553084,-18.5546875,-30.76171875,-30.2734375,-42.96875,-1.0,0.0,-1.0,0.0,4.m4v,10.0
2024-02-28 13:38:33.959213,1709123913.9592123,-20.5078125,-28.3203125,-33.69140625,-33.203125,-1.0,0.0,-1.0,0.0,4.m4v,10.0
2024-02-28 13:38:33.963116,1709123913.9631164,-23.4375,-28.80859375,-30.2734375,-31.73828125,-1.0,0.0,-1.0,0.0,4.m4v,10.0
2024-02-28 13:38:33.967021,1709123913.9670205,-25.87890625,-28.3203125,-31.73828125,-25.390625,-1.0,0.0,-1.0,0.0,4.m4v,10.0
2024-02-28 13:38:33.970924,1709123913.9709244,-26.3671875,-29.78515625,-35.15625,-27.34375,-1.0,0.0,-1.0,0.0,4.m4v,10.0
2024-02-28 13:38:33.974828,1709123913.9748282,-30.2734375,-34.66796875,-37.59765625,-41.9921875,-1.0,0.0,-1.0,0.0,4.m4v,10.0
2024-02-28 13:38:33.978732,1709123913.9787323,-35.64453125,-33.69140625,-39.55078125,-45.41015625,-1.0,0.0,-1.0,0.0,4.m4v,10.0
2024-02-28 13:38:33.982636,1709123913.9826362,-38.57421875,-35.64453125,-35.64453125,-51.7578125,-1.0,0.0,-1.0,0.0,4.m4v,10.0
2024-02-28 13:38:33.986540,1709123913.9865403,-38.0859375,-36.1328125,-37.59765625,-52.24609375,-1.0,0.0,-1.0,0.0,4.m4v,10.0
2024-02-28 13:38:33.990458,1709123913.9904585,-40.52734375,-37.109375,-43.45703125,-50.29296875,-1.0,0.0,-1.0,0.0,4.m4v,10.0
2024-02-28 13:38:33.994362,1709123913.994362,-38.57421875,-38.0859375,-42.48046875,-49.8046875,-1.0,0.0,-1.0,0.0,4.m4v,10.0
2024-02-28 13:38:33.998266,1709123913.9982662,-32.2265625,-31.73828125,-35.64453125,-40.0390625,-1.0,0.0,-1.0,0.0,4.m4v,10.0
2024-02-28 13:38:34.002170,1709123914.00217,-27.83203125,-31.73828125,-28.80859375,-36.1328125,-1.0,0.0,-1.0,0.0,4.m4v,10.0
2024-02-28 13:38:34.006074,1709123914.006074,-22.4609375,-35.64453125,-25.390625,-35.64453125,-1.0,0.0,-1.0,0.0,4.m4v,10.0
2024-02-28 13:38:34.009978,1709123914.009978,-20.99609375,-40.0390625,-27.34375,-36.1328125,-1.0,0.0,-1.0,0.0,4.m4v,10.0
2024-02-28 13:38:34.013882,1709123914.013882,-22.4609375,-41.9921875,-32.2265625,-34.66796875,-1.0,0.0,-1.0,0.0,4.m4v,10.0
2024-02-28 13:38:34.017786,1709123914.017786,-23.4375,-44.43359375,-31.25,-36.62109375,-1.0,0.0,-1.0,0.0,4.m4v,10.0
2024-02-28 13:38:34.021690,1709123914.02169,-20.01953125,-42.48046875,-28.80859375,-34.1796875,-1.0,0.0,-1.0,0.0,4.m4v,10.0
2024-02-28 13:38:34.025594,1709123914.0255938,-23.4375,-40.52734375,-34.1796875,-29.296875,-1.0,0.0,-1.0,0.0,4.m4v,10.0
2024-02-28 13:38:34.029498,1709123914.029498,-25.87890625,-40.0390625,-31.73828125,-26.85546875,-1.0,0.0,-1.0,0.0,4.m4v,10.0
2024-02-28 13:38:34.033402,1709123914.0334015,-22.4609375,-33.69140625,-28.80859375,-27.34375,-1.0,0.0,-1.0,0.0,4.m4v,10.0
2024-02-28 13:38:34.037327,1709123914.0373273,-15.13671875,-32.2265625,-34.1796875,-26.3671875,-1.0,0.0,-1.0,0.0,4.m4v,10.0
2024-02-28 13:38:34.041231,1709123914.0412312,-13.671875,-40.0390625,-31.25,-19.53125,-1.0,0.0,-1.0,0.0,4.m4v,10.0
2024-02-28 13:38:34.045135,1709123914.045135,-14.6484375,-43.45703125,-25.390625,-12.6953125,-1.0,0.0,-1.0,0.0,4.m4v,10.0
2024-02-28 13:38:34.049039,1709123914.0490391,-10.25390625,-41.015625,-24.4140625,-16.6015625,-1.0,0.0,-1.0,0.0,4.m4v,10.0
2024-02-28 13:38:34.052943,1709123914.052943,-14.6484375,-34.1796875,-28.80859375,-30.76171875,-1.0,0.0,-1.0,0.0,4.m4v,10.0
2024-02-28 13:38:34.056847,1709123914.056847,-13.671875,-27.83203125,-33.203125,-37.59765625,-1.0,0.0,-1.0,0.0,4.m4v,10.0
2024-02-28 13:38:34.060751,1709123914.060751,-2.44140625,-28.3203125,-33.69140625,-31.73828125,-1.0,0.0,-1.0,0.0,4.m4v,10.0
2024-02-28 13:38:34.064655,1709123914.064655,-6.34765625,-31.73828125,-34.1796875,-29.78515625,-1.0,0.0,-1.0,0.0,4.m4v,10.0
2024-02-28 13:38:34.068559,1709123914.068559,-12.6953125,-28.80859375,-32.71484375,-32.71484375,-1.0,0.0,-1.0,0.0,4.m4v,10.0
2024-02-28 13:38:34.072463,1709123914.0724628,-6.8359375,-23.4375,-33.69140625,-27.83203125,-1.0,0.0,-1.0,0.0,4.m4v,10.0
2024-02-28 13:38:34.076367,1709123914.076367,0.9765625,-23.4375,-34.66796875,-30.2734375,-1.0,0.0,-1.0,0.0,4.m4v,10.0
2024-02-28 13:38:34.080271,1709123914.0802708,6.34765625,-26.3671875,-33.203125,-36.1328125,-1.0,0.0,-1.0,0.0,4.m4v,10.0
2024-02-28 13:38:34.084187,1709123914.0841873,-1.46484375,-29.296875,-31.73828125,-33.203125,-1.0,0.0,-1.0,0.0,4.m4v,10.0
2024-02-28 13:38:34.088091,1709123914.0880914,-10.25390625,-25.390625,-30.2734375,-32.71484375,-1.0,0.0,-1.0,0.0,4.m4v,10.0
2024-02-28 13:38:34.091995,1709123914.0919952,-2.9296875,-22.4609375,-25.87890625,-32.2265625,-1.0,0.0,-1.0,0.0,4.m4v,10.0
2024-02-28 13:38:34.095899,1709123914.095899,-1.953125,-23.92578125,-21.97265625,-29.78515625,-1.0,0.0,-1.0,0.0,4.m4v,10.0
2024-02-28 13:38:34.099803,1709123914.0998032,-7.32421875,-26.3671875,-23.4375,-28.80859375,-1.0,0.0,-1.0,0.0,4.m4v,10.0
2024-02-28 13:38:34.103707,1709123914.103707,-7.8125,-27.34375,-25.87890625,-33.69140625,-1.0,0.0,-1.0,0.0,4.m4v,10.0
2024-02-28 13:38:34.107611,1709123914.1076112,-15.625,-28.3203125,-25.87890625,-37.109375,-1.0,0.0,-1.0,0.0,4.m4v,10.0
2024-02-28 13:38:34.111515,1709123914.111515,-16.6015625,-30.76171875,-26.3671875,-38.57421875,-1.0,0.0,-1.0,0.0,4.m4v,10.0
2024-02-28 13:38:34.115419,1709123914.115419,-17.578125,-31.73828125,-28.80859375,-42.96875,-1.0,0.0,-1.0,0.0,4.m4v,10.0
2024-02-28 13:38:34.119323,1709123914.119323,-20.5078125,-32.2265625,-31.25,-42.96875,-1.0,0.0,-1.0,0.0,4.m4v,10.0
2024-02-28 13:38:34.123227,1709123914.123227,-15.13671875,-31.25,-30.76171875,-42.96875,-1.0,0.0,-1.0,0.0,4.m4v,10.0
2024-02-28 13:38:34.127131,1709123914.127131,-19.53125,-32.2265625,-38.57421875,-41.50390625,-1.0,0.0,-1.0,0.0,4.m4v,10.0
2024-02-28 13:38:34.131046,1709123914.1310456,-33.203125,-37.109375,-38.0859375,-38.0859375,-1.0,0.0,-1.0,0.0,4.m4v,10.0
2024-02-28 13:38:34.134949,1709123914.1349494,-28.80859375,-34.66796875,-33.203125,-41.015625,-1.0,0.0,-1.0,0.0,4.m4v,10.0
2024-02-28 13:38:34.138853,1709123914.1388533,-26.85546875,-32.71484375,-34.66796875,-45.41015625,-1.0,0.0,-1.0,0.0,4.m4v,10.0
2024-02-28 13:38:34.142757,1709123914.1427574,-30.76171875,-28.80859375,-35.64453125,-40.52734375,-1.0,0.0,-1.0,0.0,4.m4v,10.0
2024-02-28 13:38:34.146661,1709123914.1466613,-29.296875,-28.80859375,-37.59765625,-33.203125,-1.0,0.0,-1.0,0.0,4.m4v,10.0
2024-02-28 13:38:34.150565,1709123914.1505654,-29.78515625,-31.73828125,-37.59765625,-34.1796875,-1.0,0.0,-1.0,0.0,4.m4v,10.0
2024-02-28 13:38:34.154469,1709123914.1544693,-27.34375,-31.73828125,-36.1328125,-40.0390625,-1.0,0.0,-1.0,0.0,4.m4v,10.0
2024-02-28 13:38:34.158373,1709123914.1583734,-27.83203125,-32.2265625,-40.0390625,-38.57421875,-1.0,0.0,-1.0,0.0,4.m4v,10.0
2024-02-28 13:38:34.162277,1709123914.1622772,-35.64453125,-30.2734375,-42.96875,-40.52734375,-1.0,0.0,-1.0,0.0,4.m4v,10.0
2024-02-28 13:38:34.166181,1709123914.166181,-39.0625,-26.3671875,-37.59765625,-52.24609375,-1.0,0.0,-1.0,0.0,4.m4v,10.0
2024-02-28 13:38:34.170085,1709123914.1700852,-36.1328125,-28.3203125,-37.109375,-50.78125,-1.0,0.0,-1.0,0.0,4.m4v,10.0
2024-02-28 13:38:34.173989,1709123914.173989,-39.55078125,-32.71484375,-39.0625,-48.828125,-1.0,0.0,-1.0,0.0,4.m4v,10.0
2024-02-28 13:38:34.177903,1709123914.1779034,-41.015625,-34.66796875,-41.50390625,-44.921875,-1.0,0.0,-1.0,0.0,4.m4v,10.0
2024-02-28 13:38:34.181807,1709123914.1818073,-36.1328125,-37.59765625,-40.0390625,-41.9921875,-1.0,0.0,-1.0,0.0,4.m4v,10.0
2024-02-28 13:38:34.185711,1709123914.1857111,-33.69140625,-36.62109375,-35.64453125,-42.48046875,-1.0,0.0,-1.0,0.0,4.m4v,10.0
2024-02-28 13:38:34.189615,1709123914.1896152,-28.3203125,-30.2734375,-36.1328125,-41.015625,-1.0,0.0,-1.0,0.0,4.m4v,10.0
2024-02-28 13:38:34.193519,1709123914.193519,-28.3203125,-31.73828125,-39.0625,-42.96875,-1.0,0.0,-1.0,0.0,4.m4v,10.0
2024-02-28 13:38:34.197423,1709123914.1974232,-28.3203125,-35.64453125,-40.0390625,-34.1796875,-1.0,0.0,-1.0,0.0,4.m4v,10.0
2024-02-28 13:38:34.201327,1709123914.201327,-28.3203125,-29.78515625,-38.0859375,-22.94921875,-1.0,0.0,-1.0,0.0,4.m4v,10.0
2024-02-28 13:38:34.205231,1709123914.205231,-42.48046875,-33.69140625,-41.50390625,-23.4375,-1.0,0.0,-1.0,0.0,4.m4v,10.0
2024-02-28 13:38:34.209135,1709123914.209135,-34.66796875,-40.52734375,-38.57421875,-28.80859375,-1.0,0.0,-1.0,0.0,4.m4v,10.0
2024-02-28 13:38:34.213039,1709123914.213039,-21.97265625,-37.59765625,-34.66796875,-28.3203125,-1.0,0.0,-1.0,0.0,4.m4v,10.0
2024-02-28 13:38:34.216943,1709123914.216943,-31.25,-30.2734375,-35.15625,-28.3203125,-1.0,0.0,-1.0,0.0,4.m4v,10.0
2024-02-28 13:38:34.220847,1709123914.220847,-38.0859375,-27.83203125,-34.66796875,-32.71484375,-1.0,0.0,-1.0,0.0,4.m4v,10.0
2024-02-28 13:38:34.224761,1709123914.2247603,-38.57421875,-32.71484375,-35.64453125,-32.71484375,-1.0,0.0,-1.0,0.0,4.m4v,10.0
2024-02-28 13:38:34.228664,1709123914.2286644,-43.45703125,-31.73828125,-33.69140625,-34.1796875,-1.0,0.0,-1.0,0.0,4.m4v,10.0
2024-02-28 13:38:34.232568,1709123914.2325685,-49.31640625,-32.2265625,-31.25,-36.62109375,-1.0,0.0,-1.0,0.0,4.m4v,10.0
2024-02-28 13:38:34.236472,1709123914.2364724,-44.43359375,-31.25,-32.71484375,-37.109375,-1.0,0.0,-1.0,0.0,4.m4v,10.0
2024-02-28 13:38:34.240376,1709123914.2403762,-33.203125,-27.34375,-33.69140625,-37.59765625,-1.0,0.0,-1.0,0.0,4.m4v,10.0
2024-02-28 13:38:34.244280,1709123914.2442803,-28.3203125,-26.85546875,-37.109375,-33.69140625,-1.0,0.0,-1.0,0.0,4.m4v,10.0
2024-02-28 13:38:34.248184,1709123914.2481842,-27.83203125,-28.80859375,-41.015625,-29.296875,-1.0,0.0,-1.0,0.0,4.m4v,10.0
2024-02-28 13:38:34.252088,1709123914.252088,-23.92578125,-26.85546875,-39.0625,-30.2734375,-1.0,0.0,-1.0,0.0,4.m4v,10.0
2024-02-28 13:38:34.255992,1709123914.2559922,-27.34375,-27.83203125,-39.55078125,-36.1328125,-1.0,0.0,-1.0,0.0,4.m4v,10.0
2024-02-28 13:38:34.259896,1709123914.259896,-33.69140625,-34.1796875,-44.43359375,-42.48046875,-1.0,0.0,-1.0,0.0,4.m4v,10.0
2024-02-28 13:38:34.263800,1709123914.2638,-31.25,-30.76171875,-39.0625,-41.50390625,-1.0,0.0,-1.0,0.0,4.m4v,10.0
2024-02-28 13:38:34.267704,1709123914.267704,-30.2734375,-26.85546875,-35.64453125,-39.0625,-1.0,0.0,-1.0,0.0,4.m4v,10.0
2024-02-28 13:38:34.271616,1709123914.2716155,-31.25,-28.3203125,-37.109375,-38.57421875,-1.0,0.0,-1.0,0.0,4.m4v,10.0
2024-02-28 13:38:34.275520,1709123914.2755196,-37.59765625,-28.80859375,-35.15625,-42.48046875,-1.0,0.0,-1.0,0.0,4.m4v,10.0
2024-02-28 13:38:34.279423,1709123914.2794237,-42.48046875,-27.83203125,-34.66796875,-46.38671875,-1.0,0.0,-1.0,0.0,4.m4v,10.0
2024-02-28 13:38:34.283328,1709123914.2833276,-35.64453125,-31.73828125,-32.2265625,-39.55078125,-1.0,0.0,-1.0,0.0,4.m4v,10.0
2024-02-28 13:38:34.287231,1709123914.2872314,-38.57421875,-32.2265625,-28.3203125,-32.71484375,-1.0,0.0,-1.0,0.0,4.m4v,10.0
2024-02-28 13:38:34.291136,1709123914.2911355,-41.9921875,-29.78515625,-31.73828125,-33.69140625,-1.0,0.0,-1.0,0.0,4.m4v,10.0
2024-02-28 13:38:34.295039,1709123914.2950394,-33.69140625,-29.296875,-36.1328125,-31.73828125,-1.0,0.0,-1.0,0.0,4.m4v,10.0
2024-02-28 13:38:34.298943,1709123914.2989433,-32.2265625,-32.71484375,-38.57421875,-36.62109375,-1.0,0.0,-1.0,0.0,4.m4v,10.0
2024-02-28 13:38:34.302847,1709123914.3028474,-35.64453125,-33.69140625,-38.57421875,-44.921875,-1.0,0.0,-1.0,0.0,4.m4v,10.0
2024-02-28 13:38:34.306751,1709123914.3067513,-33.203125,-30.2734375,-36.1328125,-46.875,-1.0,0.0,-1.0,0.0,4.m4v,10.0
2024-02-28 13:38:34.310655,1709123914.3106554,-31.73828125,-30.76171875,-30.2734375,-43.9453125,-1.0,0.0,-1.0,0.0,4.m4v,10.0
2024-02-28 13:38:34.314559,1709123914.3145592,-32.71484375,-30.76171875,-26.3671875,-39.0625,-1.0,0.0,-1.0,0.0,4.m4v,10.0
2024-02-28 13:38:34.318470,1709123914.3184698,-31.73828125,-30.2734375,-28.80859375,-40.52734375,-1.0,0.0,-1.0,0.0,4.m4v,10.0
2024-02-28 13:38:34.322374,1709123914.3223736,-31.73828125,-29.296875,-30.2734375,-40.0390625,-1.0,0.0,-1.0,0.0,4.m4v,10.0
2024-02-28 13:38:34.326278,1709123914.3262775,-35.64453125,-31.73828125,-33.203125,-35.64453125,-1.0,0.0,-1.0,0.0,4.m4v,10.0
2024-02-28 13:38:34.330182,1709123914.3301816,-36.1328125,-36.1328125,-34.66796875,-35.15625,-1.0,0.0,-1.0,0.0,4.m4v,10.0
2024-02-28 13:38:34.334086,1709123914.3340857,-35.64453125,-33.69140625,-29.78515625,-41.015625,-1.0,0.0,-1.0,0.0,4.m4v,10.0
2024-02-28 13:38:34.337990,1709123914.3379896,-41.015625,-30.2734375,-25.87890625,-36.62109375,-1.0,0.0,-1.0,0.0,4.m4v,10.0
2024-02-28 13:38:34.341894,1709123914.3418937,-44.43359375,-35.64453125,-26.85546875,-34.1796875,-1.0,0.0,-1.0,0.0,4.m4v,10.0
2024-02-28 13:38:34.345798,1709123914.3457975,-45.41015625,-39.55078125,-28.3203125,-32.2265625,-1.0,0.0,-1.0,0.0,4.m4v,10.0
2024-02-28 13:38:34.349701,1709123914.3497014,-45.8984375,-38.57421875,-28.80859375,-32.71484375,-1.0,0.0,-1.0,0.0,4.m4v,10.0
2024-02-28 13:38:34.353606,1709123914.3536055,-44.43359375,-39.55078125,-30.76171875,-38.57421875,-1.0,0.0,-1.0,0.0,4.m4v,10.0
2024-02-28 13:38:34.357509,1709123914.3575094,-44.43359375,-36.1328125,-30.76171875,-40.0390625,-1.0,0.0,-1.0,0.0,4.m4v,10.0
2024-02-28 13:38:34.361413,1709123914.3614137,-43.9453125,-35.15625,-31.73828125,-42.48046875,-1.0,0.0,-1.0,0.0,4.m4v,10.0
2024-02-28 13:38:34.365332,1709123914.3653316,-44.43359375,-40.0390625,-34.66796875,-39.55078125,-1.0,0.0,-1.0,0.0,4.m4v,10.0
2024-02-28 13:38:34.369236,1709123914.3692355,-42.48046875,-38.0859375,-33.69140625,-37.109375,-1.0,0.0,-1.0,0.0,4.m4v,10.0
2024-02-28 13:38:34.373140,1709123914.3731396,-41.015625,-34.1796875,-31.25,-35.64453125,-1.0,0.0,-1.0,0.0,4.m4v,10.0
2024-02-28 13:38:34.377043,1709123914.3770435,-37.109375,-34.66796875,-33.203125,-31.25,-1.0,0.0,-1.0,0.0,4.m4v,10.0
2024-02-28 13:38:34.380948,1709123914.3809476,-35.64453125,-38.0859375,-32.71484375,-27.83203125,-1.0,0.0,-1.0,0.0,4.m4v,10.0
2024-02-28 13:38:34.384851,1709123914.3848517,-41.50390625,-40.52734375,-30.2734375,-34.66796875,-1.0,0.0,-1.0,0.0,4.m4v,10.0
2024-02-28 13:38:34.388755,1709123914.388755,-43.45703125,-42.96875,-33.203125,-43.9453125,-1.0,0.0,-1.0,0.0,4.m4v,10.0
2024-02-28 13:38:34.392659,1709123914.3926594,-40.0390625,-41.015625,-29.296875,-43.9453125,-1.0,0.0,-1.0,0.0,4.m4v,10.0
2024-02-28 13:38:34.396563,1709123914.3965633,-37.59765625,-38.57421875,-26.3671875,-39.0625,-1.0,0.0,-1.0,0.0,4.m4v,10.0
2024-02-28 13:38:34.400467,1709123914.4004674,-38.0859375,-39.0625,-31.25,-40.0390625,-1.0,0.0,-1.0,0.0,4.m4v,10.0
2024-02-28 13:38:34.404371,1709123914.4043713,-42.48046875,-39.0625,-32.2265625,-47.8515625,-1.0,0.0,-1.0,0.0,4.m4v,10.0
2024-02-28 13:38:34.408275,1709123914.4082751,-43.45703125,-35.15625,-29.296875,-45.8984375,-1.0,0.0,-1.0,0.0,4.m4v,10.0
2024-02-28 13:38:34.412192,1709123914.4121923,-44.43359375,-30.76171875,-30.2734375,-47.36328125,-1.0,0.0,-1.0,0.0,4.m4v,10.0
2024-02-28 13:38:34.416096,1709123914.4160964,-42.96875,-32.2265625,-33.69140625,-53.22265625,-1.0,0.0,-1.0,0.0,4.m4v,10.0
2024-02-28 13:38:34.420000,1709123914.4200003,-34.66796875,-32.2265625,-39.0625,-49.8046875,-1.0,0.0,-1.0,0.0,4.m4v,10.0
2024-02-28 13:38:34.423904,1709123914.4239042,-32.71484375,-26.85546875,-42.96875,-42.48046875,-1.0,0.0,-1.0,0.0,4.m4v,10.0
2024-02-28 13:38:34.427808,1709123914.4278083,-33.69140625,-29.78515625,-39.0625,-36.62109375,-1.0,0.0,-1.0,0.0,4.m4v,10.0
2024-02-28 13:38:34.431712,1709123914.4317122,-32.71484375,-31.25,-35.64453125,-40.0390625,-1.0,0.0,-1.0,0.0,4.m4v,10.0
2024-02-28 13:38:34.435616,1709123914.4356165,-34.1796875,-30.2734375,-33.69140625,-40.0390625,-1.0,0.0,-1.0,0.0,4.m4v,10.0
2024-02-28 13:38:34.439520,1709123914.43952,-37.59765625,-34.66796875,-31.25,-36.1328125,-1.0,0.0,-1.0,0.0,4.m4v,10.0
2024-02-28 13:38:34.443424,1709123914.4434242,-44.43359375,-39.55078125,-35.64453125,-42.48046875,-1.0,0.0,-1.0,0.0,4.m4v,10.0
2024-02-28 13:38:34.447328,1709123914.447328,-49.31640625,-41.50390625,-34.66796875,-48.828125,-1.0,0.0,-1.0,0.0,4.m4v,10.0
2024-02-28 13:38:34.451232,1709123914.451232,-50.29296875,-37.59765625,-31.25,-50.29296875,-1.0,0.0,-1.0,0.0,4.m4v,10.0
2024-02-28 13:38:34.455136,1709123914.455136,-54.6875,-38.57421875,-35.15625,-53.22265625,-1.0,0.0,-1.0,0.0,4.m4v,10.0
2024-02-28 13:38:34.459053,1709123914.4590528,-49.8046875,-36.62109375,-35.64453125,-44.43359375,-1.0,0.0,-1.0,0.0,4.m4v,10.0
2024-02-28 13:38:34.462957,1709123914.462957,-44.43359375,-32.71484375,-36.62109375,-38.0859375,-1.0,0.0,-1.0,0.0,4.m4v,10.0
2024-02-28 13:38:34.466861,1709123914.4668608,-45.41015625,-36.62109375,-38.0859375,-45.41015625,-1.0,0.0,-1.0,0.0,4.m4v,10.0
2024-02-28 13:38:34.470765,1709123914.4707646,-42.48046875,-38.57421875,-33.69140625,-47.8515625,-1.0,0.0,-1.0,0.0,4.m4v,10.0
2024-02-28 13:38:34.474669,1709123914.4746687,-44.43359375,-40.0390625,-31.73828125,-46.38671875,-1.0,0.0,-1.0,0.0,4.m4v,10.0
2024-02-28 13:38:34.478573,1709123914.4785726,-44.43359375,-38.57421875,-34.66796875,-44.921875,-1.0,0.0,-1.0,0.0,4.m4v,10.0
2024-02-28 13:38:34.482477,1709123914.4824767,-44.921875,-37.59765625,-33.203125,-41.9921875,-1.0,0.0,-1.0,0.0,4.m4v,10.0
2024-02-28 13:38:34.486381,1709123914.4863806,-51.7578125,-38.0859375,-34.1796875,-45.41015625,-1.0,0.0,-1.0,0.0,4.m4v,10.0
2024-02-28 13:38:34.490285,1709123914.4902847,-45.41015625,-35.64453125,-38.57421875,-45.41015625,-1.0,0.0,-1.0,0.0,4.m4v,10.0
2024-02-28 13:38:34.494189,1709123914.4941883,-38.57421875,-38.0859375,-41.50390625,-44.43359375,-1.0,0.0,-1.0,0.0,4.m4v,10.0
2024-02-28 13:38:34.498092,1709123914.4980924,-46.38671875,-41.015625,-45.41015625,-46.38671875,-1.0,0.0,-1.0,0.0,4.m4v,10.0
2024-02-28 13:38:34.501997,1709123914.5019965,-44.43359375,-41.015625,-42.48046875,-37.109375,-1.0,0.0,-1.0,0.0,4.m4v,10.0
2024-02-28 13:38:34.505911,1709123914.505911,-38.0859375,-38.57421875,-40.52734375,-32.71484375,-1.0,0.0,-1.0,0.0,4.m4v,10.0
2024-02-28 13:38:34.509815,1709123914.509815,-44.921875,-36.62109375,-39.55078125,-32.71484375,-1.0,0.0,-1.0,0.0,4.m4v,10.0
2024-02-28 13:38:34.513719,1709123914.513719,-48.828125,-36.1328125,-35.64453125,-35.64453125,-1.0,0.0,-1.0,0.0,4.m4v,10.0
2024-02-28 13:38:34.517623,1709123914.517623,-45.41015625,-37.59765625,-35.64453125,-41.50390625,-1.0,0.0,-1.0,0.0,4.m4v,10.0
2024-02-28 13:38:34.521527,1709123914.521527,-39.55078125,-32.71484375,-37.59765625,-36.62109375,-1.0,0.0,-1.0,0.0,4.m4v,10.0
2024-02-28 13:38:34.525431,1709123914.525431,-41.50390625,-30.76171875,-37.59765625,-39.0625,-1.0,0.0,-1.0,0.0,4.m4v,10.0
2024-02-28 13:38:34.529335,1709123914.529335,-42.48046875,-29.78515625,-34.66796875,-43.9453125,-1.0,0.0,-1.0,0.0,4.m4v,10.0
2024-02-28 13:38:34.533239,1709123914.533239,-39.0625,-25.87890625,-29.78515625,-38.0859375,-1.0,0.0,-1.0,0.0,4.m4v,10.0
2024-02-28 13:38:34.537143,1709123914.5371428,-43.45703125,-27.34375,-25.390625,-38.0859375,-1.0,0.0,-1.0,0.0,4.m4v,10.0
2024-02-28 13:38:34.541047,1709123914.5410469,-46.38671875,-26.3671875,-30.2734375,-39.55078125,-1.0,0.0,-1.0,0.0,4.m4v,10.0
2024-02-28 13:38:34.544951,1709123914.5449507,-42.96875,-25.87890625,-36.1328125,-32.2265625,-1.0,0.0,-1.0,0.0,4.m4v,10.0
2024-02-28 13:38:34.548855,1709123914.5488548,-33.203125,-26.85546875,-34.1796875,-28.3203125,-1.0,0.0,-1.0,0.0,4.m4v,10.0
2024-02-28 13:38:34.552769,1709123914.5527692,-24.4140625,-28.80859375,-32.71484375,-28.80859375,-1.0,0.0,-1.0,0.0,4.m4v,10.0
2024-02-28 13:38:34.556673,1709123914.556673,-22.94921875,-28.3203125,-33.203125,-26.85546875,-1.0,0.0,-1.0,0.0,4.m4v,10.0
2024-02-28 13:38:34.560577,1709123914.560577,-22.94921875,-26.85546875,-32.2265625,-28.3203125,-1.0,0.0,-1.0,0.0,4.m4v,10.0
2024-02-28 13:38:34.564481,1709123914.564481,-26.85546875,-30.2734375,-25.390625,-35.15625,-1.0,0.0,-1.0,0.0,4.m4v,10.0
2024-02-28 13:38:34.568385,1709123914.568385,-29.296875,-31.73828125,-29.296875,-41.50390625,-1.0,0.0,-1.0,0.0,4.m4v,10.0
2024-02-28 13:38:34.572289,1709123914.572289,-41.9921875,-25.390625,-34.1796875,-37.59765625,-1.0,0.0,-1.0,0.0,4.m4v,10.0
2024-02-28 13:38:34.576193,1709123914.5761929,-43.9453125,-25.87890625,-32.71484375,-31.25,-1.0,0.0,-1.0,0.0,4.m4v,10.0
2024-02-28 13:38:34.580097,1709123914.580097,-39.0625,-30.76171875,-36.62109375,-27.83203125,-1.0,0.0,-1.0,0.0,4.m4v,10.0
2024-02-28 13:38:34.584001,1709123914.5840008,-39.55078125,-34.1796875,-38.0859375,-27.34375,-1.0,0.0,-1.0,0.0,4.m4v,10.0
2024-02-28 13:38:34.587905,1709123914.5879047,-38.57421875,-32.71484375,-35.64453125,-30.76171875,-1.0,0.0,-1.0,0.0,4.m4v,10.0
2024-02-28 13:38:34.591809,1709123914.5918088,-42.96875,-29.78515625,-36.1328125,-34.66796875,-1.0,0.0,-1.0,0.0,4.m4v,10.0
2024-02-28 13:38:34.595713,1709123914.595713,-49.31640625,-33.203125,-39.55078125,-41.015625,-1.0,0.0,-1.0,0.0,4.m4v,10.0
2024-02-28 13:38:34.599626,1709123914.5996258,-45.41015625,-38.0859375,-33.69140625,-42.96875,-1.0,0.0,-1.0,0.0,4.m4v,10.0
2024-02-28 13:38:34.603530,1709123914.60353,-38.57421875,-38.0859375,-31.25,-46.875,-1.0,0.0,-1.0,0.0,4.m4v,10.0
2024-02-28 13:38:34.607434,1709123914.6074338,-39.0625,-36.62109375,-35.15625,-52.24609375,-1.0,0.0,-1.0,0.0,4.m4v,10.0
2024-02-28 13:38:34.611338,1709123914.611338,-42.96875,-37.59765625,-36.62109375,-49.31640625,-1.0,0.0,-1.0,0.0,4.m4v,10.0
2024-02-28 13:38:34.615242,1709123914.6152418,-40.0390625,-34.66796875,-33.203125,-46.875,-1.0,0.0,-1.0,0.0,4.m4v,10.0
2024-02-28 13:38:34.619146,1709123914.6191456,-38.0859375,-35.15625,-35.64453125,-45.41015625,-1.0,0.0,-1.0,0.0,4.m4v,10.0
2024-02-28 13:38:34.623050,1709123914.6230495,-39.0625,-37.59765625,-42.96875,-48.33984375,-1.0,0.0,-1.0,0.0,4.m4v,10.0
2024-02-28 13:38:34.626954,1709123914.6269536,-37.59765625,-37.59765625,-40.0390625,-52.24609375,-1.0,0.0,-1.0,0.0,4.m4v,10.0
2024-02-28 13:38:34.630858,1709123914.6308577,-38.57421875,-40.0390625,-35.64453125,-49.31640625,-1.0,0.0,-1.0,0.0,4.m4v,10.0
2024-02-28 13:38:34.634762,1709123914.6347616,-36.62109375,-41.015625,-35.64453125,-43.45703125,-1.0,0.0,-1.0,0.0,4.m4v,10.0
2024-02-28 13:38:34.638665,1709123914.6386654,-33.69140625,-36.62109375,-34.66796875,-42.48046875,-1.0,0.0,-1.0,0.0,4.m4v,10.0
2024-02-28 13:38:34.642570,1709123914.6425695,-38.57421875,-39.0625,-41.50390625,-49.31640625,-1.0,0.0,-1.0,0.0,4.m4v,10.0
2024-02-28 13:38:34.646482,1709123914.6464825,-37.109375,-38.0859375,-38.57421875,-46.875,-1.0,0.0,-1.0,0.0,4.m4v,10.0
2024-02-28 13:38:34.650386,1709123914.6503863,-33.203125,-36.1328125,-33.69140625,-39.0625,-1.0,0.0,-1.0,0.0,4.m4v,10.0
2024-02-28 13:38:34.654290,1709123914.6542902,-34.66796875,-38.0859375,-36.1328125,-38.57421875,-1.0,0.0,-1.0,0.0,4.m4v,10.0
2024-02-28 13:38:34.658194,1709123914.6581943,-39.55078125,-36.1328125,-38.0859375,-42.96875,-1.0,0.0,-1.0,0.0,4.m4v,10.0
2024-02-28 13:38:34.662098,1709123914.6620982,-44.43359375,-32.2265625,-35.64453125,-47.8515625,-1.0,0.0,-1.0,0.0,4.m4v,10.0
2024-02-28 13:38:34.666002,1709123914.6660025,-42.96875,-32.2265625,-28.80859375,-44.921875,-1.0,0.0,-1.0,0.0,4.m4v,10.0
2024-02-28 13:38:34.669906,1709123914.669906,-40.0390625,-34.66796875,-32.71484375,-40.52734375,-1.0,0.0,-1.0,0.0,4.m4v,10.0
2024-02-28 13:38:34.673810,1709123914.6738102,-40.0390625,-38.0859375,-37.109375,-43.45703125,-1.0,0.0,-1.0,0.0,4.m4v,10.0
2024-02-28 13:38:34.677714,1709123914.677714,-40.52734375,-37.59765625,-38.0859375,-43.9453125,-1.0,0.0,-1.0,0.0,4.m4v,10.0
2024-02-28 13:38:34.681618,1709123914.681618,-40.52734375,-34.66796875,-37.109375,-41.50390625,-1.0,0.0,-1.0,0.0,4.m4v,10.0
2024-02-28 13:38:34.685522,1709123914.685522,-35.15625,-35.15625,-28.3203125,-42.48046875,-1.0,0.0,-1.0,0.0,4.m4v,10.0
2024-02-28 13:38:34.689426,1709123914.689426,-32.2265625,-35.15625,-32.2265625,-39.0625,-1.0,0.0,-1.0,0.0,4.m4v,10.0
2024-02-28 13:38:34.693346,1709123914.6933455,-35.15625,-32.71484375,-37.109375,-43.45703125,-1.0,0.0,-1.0,0.0,4.m4v,10.0
2024-02-28 13:38:34.697249,1709123914.6972494,-34.1796875,-32.2265625,-39.0625,-40.52734375,-1.0,0.0,-1.0,0.0,4.m4v,10.0
2024-02-28 13:38:34.701153,1709123914.7011533,-23.92578125,-33.69140625,-34.1796875,-19.04296875,-1.0,0.0,-1.0,0.0,4.m4v,10.0
2024-02-28 13:38:34.705057,1709123914.7050574,-37.109375,-39.0625,-33.69140625,-34.66796875,-1.0,0.0,-1.0,0.0,4.m4v,10.0
2024-02-28 13:38:34.708961,1709123914.7089612,-65.4296875,-37.59765625,-40.0390625,-56.640625,-1.0,0.0,-1.0,0.0,4.m4v,10.0
2024-02-28 13:38:34.712865,1709123914.7128654,-70.80078125,-31.25,-38.0859375,-69.82421875,-1.0,0.0,-1.0,0.0,4.m4v,10.0
2024-02-28 13:38:34.716769,1709123914.7167692,-84.47265625,-37.59765625,-34.66796875,-93.75,-1.0,0.0,-1.0,0.0,4.m4v,10.0
2024-02-28 13:38:34.720673,1709123914.720673,-103.515625,-43.45703125,-35.15625,-102.05078125,-1.0,0.0,-1.0,0.0,4.m4v,10.0
2024-02-28 13:38:34.724577,1709123914.7245772,-119.140625,-45.41015625,-43.45703125,-124.51171875,-1.0,0.0,-1.0,0.0,4.m4v,10.0
2024-02-28 13:38:34.728481,1709123914.728481,-141.6015625,-49.8046875,-41.50390625,-152.83203125,-1.0,0.0,-1.0,0.0,4.m4v,10.0
2024-02-28 13:38:34.732385,1709123914.7323852,-164.55078125,-52.734375,-35.64453125,-163.57421875,-1.0,0.0,-1.0,0.0,4.m4v,10.0
2024-02-28 13:38:34.736289,1709123914.736289,-186.03515625,-50.78125,-34.66796875,-184.5703125,-1.0,0.0,-1.0,0.0,4.m4v,10.0
2024-02-28 13:38:34.740208,1709123914.7402077,-200.68359375,-48.828125,-42.48046875,-202.1484375,-1.0,0.0,-1.0,0.0,4.m4v,10.0
2024-02-28 13:38:34.744112,1709123914.7441115,-210.9375,-48.33984375,-49.31640625,-206.0546875,-1.0,0.0,-1.0,0.0,4.m4v,10.0
2024-02-28 13:38:34.748016,1709123914.7480156,-217.28515625,-46.38671875,-36.62109375,-210.44921875,-1.0,0.0,-1.0,0.0,4.m4v,10.0
2024-02-28 13:38:34.751920,1709123914.7519195,-229.4921875,-49.31640625,-31.25,-221.6796875,-1.0,0.0,-1.0,0.0,4.m4v,10.0
2024-02-28 13:38:34.755823,1709123914.7558234,-234.86328125,-53.7109375,-38.0859375,-239.2578125,-1.0,0.0,-1.0,0.0,4.m4v,10.0
2024-02-28 13:38:34.759727,1709123914.7597277,-238.76953125,-49.8046875,-41.9921875,-247.0703125,-1.0,0.0,-1.0,0.0,4.m4v,10.0
2024-02-28 13:38:34.763631,1709123914.763631,-244.140625,-47.8515625,-41.9921875,-241.69921875,-1.0,0.0,-1.0,0.0,4.m4v,10.0
2024-02-28 13:38:34.767535,1709123914.7675354,-251.46484375,-49.31640625,-42.96875,-259.765625,-1.0,0.0,-1.0,0.0,4.m4v,10.0
2024-02-28 13:38:34.771439,1709123914.7714393,-251.953125,-47.36328125,-43.45703125,-261.23046875,-1.0,0.0,-1.0,0.0,4.m4v,10.0
2024-02-28 13:38:34.775343,1709123914.7753432,-248.046875,-43.45703125,-46.875,-246.58203125,-1.0,0.0,-1.0,0.0,4.m4v,10.0
2024-02-28 13:38:34.779247,1709123914.7792473,-250.48828125,-38.57421875,-49.8046875,-248.53515625,-1.0,0.0,-1.0,0.0,4.m4v,10.0
2024-02-28 13:38:34.783151,1709123914.7831511,-244.62890625,-41.9921875,-51.26953125,-260.25390625,-1.0,0.0,-1.0,0.0,4.m4v,10.0
2024-02-28 13:38:34.787068,1709123914.787068,-237.79296875,-51.7578125,-46.38671875,-263.671875,-1.0,0.0,-1.0,0.0,4.m4v,10.0
2024-02-28 13:38:34.790972,1709123914.7909718,-217.7734375,-49.8046875,-42.48046875,-239.74609375,-1.0,0.0,-1.0,0.0,4.m4v,10.0
2024-02-28 13:38:34.794876,1709123914.794876,-210.9375,-45.8984375,-38.0859375,-242.1875,-1.0,0.0,-1.0,0.0,4.m4v,10.0
2024-02-28 13:38:34.798780,1709123914.7987795,-204.1015625,-41.9921875,-31.25,-243.1640625,-1.0,0.0,-1.0,0.0,4.m4v,10.0
2024-02-28 13:38:34.802684,1709123914.8026836,-193.359375,-39.0625,-22.94921875,-229.98046875,-1.0,0.0,-1.0,0.0,4.m4v,10.0
2024-02-28 13:38:34.806588,1709123914.8065877,-188.4765625,-41.9921875,-21.484375,-219.23828125,-1.0,0.0,-1.0,0.0,4.m4v,10.0
2024-02-28 13:38:34.810492,1709123914.8104916,-175.29296875,-41.9921875,-26.85546875,-204.1015625,-1.0,0.0,-1.0,0.0,4.m4v,10.0
