Timestamp,Timestamp_UNIX,TP9,AF7,AF8,TP10,Valence,Arousal,Dominace,Viewed,Video,Participant
2024-02-28 10:36:23.001946,1709112983.001946,-32.2265625,-32.2265625,-31.73828125,-50.29296875,-1.0,1.0,-1.0,0.0,6.m4v,8.0
2024-02-28 10:36:23.005852,1709112983.0058515,-36.1328125,-22.94921875,-39.0625,-32.2265625,-1.0,1.0,-1.0,0.0,6.m4v,8.0
2024-02-28 10:36:23.009758,1709112983.0097575,-37.109375,-19.04296875,-42.48046875,-50.78125,-1.0,1.0,-1.0,0.0,6.m4v,8.0
2024-02-28 10:36:23.013663,1709112983.0136633,-16.6015625,-22.94921875,-47.36328125,-13.18359375,-1.0,1.0,-1.0,0.0,6.m4v,8.0
2024-02-28 10:36:23.017569,1709112983.017569,-3.90625,-46.38671875,-43.9453125,2.9296875,-1.0,1.0,-1.0,0.0,6.m4v,8.0
2024-02-28 10:36:23.021475,1709112983.0214748,-25.390625,-51.26953125,-29.296875,0.0,-1.0,1.0,-1.0,0.0,6.m4v,8.0
2024-02-28 10:36:23.025381,1709112983.0253806,-12.6953125,-28.80859375,1.953125,5.859375,-1.0,1.0,-1.0,0.0,6.m4v,8.0
2024-02-28 10:36:23.029286,1709112983.0292864,-6.34765625,-18.5546875,5.859375,-45.8984375,-1.0,1.0,-1.0,0.0,6.m4v,8.0
2024-02-28 10:36:23.033192,1709112983.0331922,-44.43359375,-13.671875,-30.2734375,-43.9453125,-1.0,1.0,-1.0,0.0,6.m4v,8.0
2024-02-28 10:36:23.037098,1709112983.037098,-50.78125,-9.27734375,-45.8984375,-30.2734375,-1.0,1.0,-1.0,0.0,6.m4v,8.0
2024-02-28 10:36:23.041004,1709112983.0410037,-29.78515625,-24.4140625,-30.2734375,-28.80859375,-1.0,1.0,-1.0,0.0,6.m4v,8.0
2024-02-28 10:36:23.044912,1709112983.044912,-17.578125,-43.9453125,-26.85546875,-35.64453125,-1.0,1.0,-1.0,0.0,6.m4v,8.0
2024-02-28 10:36:23.048818,1709112983.0488176,-16.6015625,-31.73828125,-27.34375,-33.69140625,-1.0,1.0,-1.0,0.0,6.m4v,8.0
2024-02-28 10:36:23.052723,1709112983.0527234,-11.23046875,-13.671875,-21.97265625,3.90625,-1.0,1.0,-1.0,0.0,6.m4v,8.0
2024-02-28 10:36:23.056629,1709112983.0566292,-8.7890625,-24.90234375,-32.2265625,0.0,-1.0,1.0,-1.0,0.0,6.m4v,8.0
2024-02-28 10:36:23.060535,1709112983.060535,-10.7421875,-48.33984375,-36.62109375,-0.9765625,-1.0,1.0,-1.0,0.0,6.m4v,8.0
2024-02-28 10:36:23.064441,1709112983.0644407,-25.87890625,-45.8984375,-38.0859375,6.8359375,-1.0,1.0,-1.0,0.0,6.m4v,8.0
2024-02-28 10:36:23.068347,1709112983.0683465,-42.48046875,-36.62109375,-28.80859375,-42.48046875,-1.0,1.0,-1.0,0.0,6.m4v,8.0
2024-02-28 10:36:23.072252,1709112983.0722525,-49.8046875,-33.69140625,-23.92578125,-82.51953125,-1.0,1.0,-1.0,0.0,6.m4v,8.0
2024-02-28 10:36:23.076158,1709112983.076158,-48.828125,-24.90234375,-28.3203125,-61.03515625,-1.0,1.0,-1.0,0.0,6.m4v,8.0
2024-02-28 10:36:23.080064,1709112983.0800638,-33.69140625,-17.08984375,-30.76171875,-2.44140625,-1.0,1.0,-1.0,0.0,6.m4v,8.0
2024-02-28 10:36:23.083970,1709112983.0839696,-14.16015625,-13.671875,-36.1328125,-21.97265625,-1.0,1.0,-1.0,0.0,6.m4v,8.0
2024-02-28 10:36:23.087875,1709112983.0878754,-7.32421875,-27.83203125,-32.71484375,-48.33984375,-1.0,1.0,-1.0,0.0,6.m4v,8.0
2024-02-28 10:36:23.091783,1709112983.091783,12.20703125,-42.48046875,-61.5234375,-11.23046875,-1.0,1.0,-1.0,0.0,6.m4v,8.0
2024-02-28 10:36:23.095689,1709112983.0956888,-22.94921875,-30.2734375,-57.12890625,-22.4609375,-1.0,1.0,-1.0,0.0,6.m4v,8.0
2024-02-28 10:36:23.099595,1709112983.0995946,-62.01171875,-32.2265625,-0.9765625,-41.015625,-1.0,1.0,-1.0,0.0,6.m4v,8.0
2024-02-28 10:36:23.103500,1709112983.1035004,-46.875,-49.31640625,14.6484375,-28.3203125,-1.0,1.0,-1.0,0.0,6.m4v,8.0
2024-02-28 10:36:23.107406,1709112983.107406,-42.48046875,-33.203125,-9.765625,27.34375,-1.0,1.0,-1.0,0.0,6.m4v,8.0
2024-02-28 10:36:23.111312,1709112983.111312,-36.1328125,-9.27734375,-51.7578125,5.37109375,-1.0,1.0,-1.0,0.0,6.m4v,8.0
2024-02-28 10:36:23.115218,1709112983.1152177,-16.6015625,-22.94921875,-47.8515625,-32.71484375,-1.0,1.0,-1.0,0.0,6.m4v,8.0
2024-02-28 10:36:23.119123,1709112983.1191237,-19.53125,-49.8046875,-21.97265625,-10.25390625,-1.0,1.0,-1.0,0.0,6.m4v,8.0
2024-02-28 10:36:23.123029,1709112983.1230292,-43.45703125,-43.9453125,-25.390625,-41.015625,-1.0,1.0,-1.0,0.0,6.m4v,8.0
2024-02-28 10:36:23.126935,1709112983.126935,-51.26953125,-38.0859375,-20.5078125,-65.4296875,-1.0,1.0,-1.0,0.0,6.m4v,8.0
2024-02-28 10:36:23.130841,1709112983.1308408,-30.76171875,-25.87890625,-43.45703125,-43.45703125,-1.0,1.0,-1.0,0.0,6.m4v,8.0
2024-02-28 10:36:23.486284,1709112983.4862838,-20.5078125,-22.4609375,-61.5234375,1.953125,-1.0,1.0,-1.0,0.0,6.m4v,8.0
2024-02-28 10:36:23.490190,1709112983.4901896,-7.8125,-41.50390625,-42.48046875,-2.9296875,-1.0,1.0,-1.0,0.0,6.m4v,8.0
2024-02-28 10:36:23.494095,1709112983.494095,-2.44140625,-38.57421875,-11.71875,-47.8515625,-1.0,1.0,-1.0,0.0,6.m4v,8.0
2024-02-28 10:36:23.498001,1709112983.498001,-15.625,-33.203125,-25.87890625,-10.25390625,-1.0,1.0,-1.0,0.0,6.m4v,8.0
2024-02-28 10:36:23.501907,1709112983.5019069,-31.25,-37.109375,-41.015625,5.859375,-1.0,1.0,-1.0,0.0,6.m4v,8.0
2024-02-28 10:36:23.505813,1709112983.5058126,-43.45703125,-28.3203125,-43.9453125,-47.8515625,-1.0,1.0,-1.0,0.0,6.m4v,8.0
2024-02-28 10:36:23.509718,1709112983.5097184,-31.25,-26.85546875,-37.109375,-59.08203125,-1.0,1.0,-1.0,0.0,6.m4v,8.0
2024-02-28 10:36:23.513626,1709112983.513626,-23.4375,-23.4375,-32.71484375,-43.9453125,-1.0,1.0,-1.0,0.0,6.m4v,8.0
2024-02-28 10:36:23.517532,1709112983.517532,-23.92578125,-19.04296875,-30.76171875,-5.859375,-1.0,1.0,-1.0,0.0,6.m4v,8.0
2024-02-28 10:36:23.521438,1709112983.5214376,-23.92578125,-26.3671875,-29.296875,-3.41796875,-1.0,1.0,-1.0,0.0,6.m4v,8.0
2024-02-28 10:36:23.525343,1709112983.5253434,-10.7421875,-36.62109375,-21.97265625,-29.296875,-1.0,1.0,-1.0,0.0,6.m4v,8.0
2024-02-28 10:36:23.529249,1709112983.5292492,6.34765625,-41.015625,-33.203125,23.92578125,-1.0,1.0,-1.0,0.0,6.m4v,8.0
2024-02-28 10:36:23.533155,1709112983.533155,0.48828125,-20.01953125,-47.8515625,9.27734375,-1.0,1.0,-1.0,0.0,6.m4v,8.0
2024-02-28 10:36:23.537061,1709112983.5370607,-20.5078125,-20.01953125,-38.0859375,-45.41015625,-1.0,1.0,-1.0,0.0,6.m4v,8.0
2024-02-28 10:36:23.540967,1709112983.5409665,-50.29296875,-39.0625,-27.83203125,-70.80078125,-1.0,1.0,-1.0,0.0,6.m4v,8.0
2024-02-28 10:36:23.544872,1709112983.5448723,-54.19921875,-38.57421875,-29.296875,-72.265625,-1.0,1.0,-1.0,0.0,6.m4v,8.0
2024-02-28 10:36:23.548778,1709112983.548778,-42.96875,-39.55078125,-32.71484375,-50.29296875,-1.0,1.0,-1.0,0.0,6.m4v,8.0
2024-02-28 10:36:23.552684,1709112983.5526838,-36.62109375,-45.41015625,-29.296875,-40.0390625,-1.0,1.0,-1.0,0.0,6.m4v,8.0
2024-02-28 10:36:23.755795,1709112983.7557948,-39.0625,-19.53125,-6.34765625,-56.15234375,-1.0,1.0,-1.0,0.0,6.m4v,8.0
2024-02-28 10:36:23.755795,1709112983.7557948,-39.0625,-19.53125,-6.34765625,-56.15234375,-1.0,1.0,-1.0,0.0,6.m4v,8.0
2024-02-28 10:36:23.755795,1709112983.7557948,-39.0625,-19.53125,-6.34765625,-56.15234375,-1.0,1.0,-1.0,0.0,6.m4v,8.0
2024-02-28 10:36:23.759701,1709112983.7597003,-48.828125,-41.015625,-7.8125,-59.08203125,-1.0,1.0,-1.0,0.0,6.m4v,8.0
2024-02-28 10:36:23.763606,1709112983.7636063,-48.828125,-46.875,-11.23046875,-40.52734375,-1.0,1.0,-1.0,0.0,6.m4v,8.0
2024-02-28 10:36:23.767512,1709112983.767512,-44.921875,-41.015625,-14.16015625,-55.17578125,-1.0,1.0,-1.0,0.0,6.m4v,8.0
2024-02-28 10:36:23.771418,1709112983.771418,-44.43359375,-39.55078125,-35.15625,-75.68359375,-1.0,1.0,-1.0,0.0,6.m4v,8.0
2024-02-28 10:36:23.775324,1709112983.7753236,-28.3203125,-38.57421875,-45.41015625,-41.9921875,-1.0,1.0,-1.0,0.0,6.m4v,8.0
2024-02-28 10:36:23.779229,1709112983.7792294,-26.3671875,-25.87890625,-66.89453125,7.32421875,-1.0,1.0,-1.0,0.0,6.m4v,8.0
2024-02-28 10:36:23.783135,1709112983.7831352,-36.1328125,-22.94921875,-77.63671875,-0.9765625,-1.0,1.0,-1.0,0.0,6.m4v,8.0
2024-02-28 10:36:23.787041,1709112983.787041,-34.1796875,-56.15234375,-49.31640625,-48.828125,-1.0,1.0,-1.0,0.0,6.m4v,8.0
2024-02-28 10:36:23.790947,1709112983.7909467,-36.1328125,-57.12890625,-33.203125,-50.29296875,-1.0,1.0,-1.0,0.0,6.m4v,8.0
2024-02-28 10:36:23.794855,1709112983.7948546,-27.34375,-42.48046875,-52.24609375,-50.29296875,-1.0,1.0,-1.0,0.0,6.m4v,8.0
2024-02-28 10:36:23.798760,1709112983.7987604,-35.64453125,-34.66796875,-28.80859375,-75.1953125,-1.0,1.0,-1.0,0.0,6.m4v,8.0
2024-02-28 10:36:23.802666,1709112983.8026662,-38.0859375,-22.94921875,6.8359375,-81.54296875,-1.0,1.0,-1.0,0.0,6.m4v,8.0
2024-02-28 10:36:23.806572,1709112983.806572,-34.1796875,-28.80859375,0.9765625,-64.94140625,-1.0,1.0,-1.0,0.0,6.m4v,8.0
2024-02-28 10:36:23.810478,1709112983.8104775,-48.33984375,-30.76171875,-30.76171875,-12.20703125,-1.0,1.0,-1.0,0.0,6.m4v,8.0
2024-02-28 10:36:23.814384,1709112983.8143835,-35.64453125,-20.01953125,-63.4765625,34.1796875,-1.0,1.0,-1.0,0.0,6.m4v,8.0
2024-02-28 10:36:23.818289,1709112983.8182893,-6.34765625,-21.97265625,-60.546875,3.41796875,-1.0,1.0,-1.0,0.0,6.m4v,8.0
2024-02-28 10:36:23.822195,1709112983.822195,-23.4375,-31.73828125,-30.2734375,-31.25,-1.0,1.0,-1.0,0.0,6.m4v,8.0
2024-02-28 10:36:23.826101,1709112983.8261008,-44.43359375,-37.109375,-28.3203125,-25.390625,-1.0,1.0,-1.0,0.0,6.m4v,8.0
2024-02-28 10:36:23.830007,1709112983.8300066,-34.1796875,-30.76171875,-49.8046875,-8.7890625,-1.0,1.0,-1.0,0.0,6.m4v,8.0
2024-02-28 10:36:23.833912,1709112983.8339124,-20.99609375,-54.19921875,-53.22265625,-27.83203125,-1.0,1.0,-1.0,0.0,6.m4v,8.0
2024-02-28 10:36:23.837818,1709112983.837818,-30.2734375,-65.4296875,-39.55078125,-78.125,-1.0,1.0,-1.0,0.0,6.m4v,8.0
2024-02-28 10:36:23.939374,1709112983.9393735,-20.5078125,-38.57421875,-22.94921875,-20.01953125,-1.0,1.0,-1.0,0.0,6.m4v,8.0
2024-02-28 10:36:23.943280,1709112983.9432795,-28.3203125,-34.1796875,-14.6484375,5.859375,-1.0,1.0,-1.0,0.0,6.m4v,8.0
2024-02-28 10:36:23.978431,1709112983.9784317,-24.90234375,-50.29296875,-38.0859375,-7.8125,-1.0,1.0,-1.0,0.0,6.m4v,8.0
2024-02-28 10:36:23.982340,1709112983.98234,-35.15625,-36.1328125,-45.41015625,-33.69140625,-1.0,1.0,-1.0,0.0,6.m4v,8.0
2024-02-28 10:36:23.986246,1709112983.9862456,-43.9453125,-34.1796875,-45.8984375,-41.015625,-1.0,1.0,-1.0,0.0,6.m4v,8.0
2024-02-28 10:36:23.990151,1709112983.9901514,-44.43359375,-42.96875,-32.71484375,-33.203125,-1.0,1.0,-1.0,0.0,6.m4v,8.0
2024-02-28 10:36:23.994057,1709112983.9940572,-38.0859375,-53.22265625,-22.4609375,-28.80859375,-1.0,1.0,-1.0,0.0,6.m4v,8.0
2024-02-28 10:36:23.997963,1709112983.997963,-30.76171875,-32.2265625,-22.94921875,-29.78515625,-1.0,1.0,-1.0,0.0,6.m4v,8.0
2024-02-28 10:36:24.013586,1709112984.013586,-36.1328125,-36.62109375,-54.19921875,-37.109375,-1.0,1.0,-1.0,0.0,6.m4v,8.0
2024-02-28 10:36:24.017492,1709112984.0174918,-33.69140625,-35.15625,-51.26953125,-47.8515625,-1.0,1.0,-1.0,0.0,6.m4v,8.0
2024-02-28 10:36:24.021398,1709112984.0213976,-30.76171875,-39.0625,-41.50390625,-48.828125,-1.0,1.0,-1.0,0.0,6.m4v,8.0
2024-02-28 10:36:24.201072,1709112984.2010725,-10.7421875,-10.25390625,-31.73828125,-17.08984375,-1.0,1.0,-1.0,0.0,6.m4v,8.0
2024-02-28 10:36:24.208884,1709112984.208884,-23.92578125,-25.87890625,-14.6484375,-59.08203125,-1.0,1.0,-1.0,0.0,6.m4v,8.0
2024-02-28 10:36:24.216697,1709112984.2166972,-62.98828125,-36.62109375,-28.3203125,-30.76171875,-1.0,1.0,-1.0,0.0,6.m4v,8.0
2024-02-28 10:36:24.224509,1709112984.2245088,-31.73828125,-18.5546875,-72.75390625,-52.734375,-1.0,1.0,-1.0,0.0,6.m4v,8.0
2024-02-28 10:36:24.232320,1709112984.2323203,-40.0390625,-47.36328125,35.64453125,-57.12890625,-1.0,1.0,-1.0,0.0,6.m4v,8.0
2024-02-28 10:36:24.560419,1709112984.560419,-17.578125,-32.71484375,-27.34375,-14.6484375,-1.0,1.0,-1.0,0.0,6.m4v,8.0
2024-02-28 10:36:24.564325,1709112984.564325,-29.296875,-29.78515625,-21.484375,-22.94921875,-1.0,1.0,-1.0,0.0,6.m4v,8.0
2024-02-28 10:36:24.568231,1709112984.5682309,-11.71875,-24.4140625,-0.48828125,-23.4375,-1.0,1.0,-1.0,0.0,6.m4v,8.0
2024-02-28 10:36:24.572137,1709112984.5721366,-13.18359375,-27.34375,-13.671875,-31.25,-1.0,1.0,-1.0,0.0,6.m4v,8.0
2024-02-28 10:36:24.576042,1709112984.5760424,-48.828125,-37.109375,-60.05859375,-15.13671875,-1.0,1.0,-1.0,0.0,6.m4v,8.0
2024-02-28 10:36:24.579948,1709112984.5799482,-46.38671875,-38.0859375,-62.5,-17.578125,-1.0,1.0,-1.0,0.0,6.m4v,8.0
2024-02-28 10:36:24.583854,1709112984.583854,-23.92578125,-50.29296875,-33.203125,-40.52734375,-1.0,1.0,-1.0,0.0,6.m4v,8.0
2024-02-28 10:36:24.587760,1709112984.5877595,-29.78515625,-55.17578125,-26.85546875,-48.33984375,-1.0,1.0,-1.0,0.0,6.m4v,8.0
2024-02-28 10:36:24.591667,1709112984.5916674,-34.1796875,-37.59765625,-27.34375,-62.01171875,-1.0,1.0,-1.0,0.0,6.m4v,8.0
2024-02-28 10:36:24.595573,1709112984.5955732,-33.203125,-44.43359375,-39.55078125,-73.2421875,-1.0,1.0,-1.0,0.0,6.m4v,8.0
2024-02-28 10:36:24.599479,1709112984.599479,-39.55078125,-46.875,-38.0859375,-44.921875,-1.0,1.0,-1.0,0.0,6.m4v,8.0
2024-02-28 10:36:24.603385,1709112984.6033847,-33.203125,-19.04296875,-33.69140625,-30.76171875,-1.0,1.0,-1.0,0.0,6.m4v,8.0
2024-02-28 10:36:24.607291,1709112984.6072905,-14.6484375,-6.34765625,-61.03515625,-18.06640625,-1.0,1.0,-1.0,0.0,6.m4v,8.0
2024-02-28 10:36:24.611196,1709112984.6111965,9.765625,-7.8125,-61.5234375,24.4140625,-1.0,1.0,-1.0,0.0,6.m4v,8.0
2024-02-28 10:36:24.615102,1709112984.615102,-0.48828125,-27.34375,-17.08984375,-30.76171875,-1.0,1.0,-1.0,0.0,6.m4v,8.0
2024-02-28 10:36:24.619008,1709112984.6190078,-50.29296875,-52.734375,1.953125,-64.453125,-1.0,1.0,-1.0,0.0,6.m4v,8.0
2024-02-28 10:36:24.622914,1709112984.6229136,-68.359375,-45.41015625,-11.71875,-65.91796875,-1.0,1.0,-1.0,0.0,6.m4v,8.0
2024-02-28 10:36:24.626819,1709112984.6268194,-42.96875,-33.69140625,-40.0390625,-60.05859375,-1.0,1.0,-1.0,0.0,6.m4v,8.0
2024-02-28 10:36:24.630725,1709112984.6307251,-19.04296875,-31.25,-62.01171875,-36.1328125,-1.0,1.0,-1.0,0.0,6.m4v,8.0
2024-02-28 10:36:24.634631,1709112984.634631,-30.76171875,-34.66796875,-39.0625,-31.25,-1.0,1.0,-1.0,0.0,6.m4v,8.0
2024-02-28 10:36:24.638539,1709112984.6385386,-33.69140625,-30.2734375,-13.671875,-39.55078125,-1.0,1.0,-1.0,0.0,6.m4v,8.0
2024-02-28 10:36:24.642444,1709112984.6424444,-18.5546875,-25.390625,-28.3203125,-26.85546875,-1.0,1.0,-1.0,0.0,6.m4v,8.0
2024-02-28 10:36:24.646350,1709112984.64635,-20.01953125,-23.4375,-42.48046875,2.9296875,-1.0,1.0,-1.0,0.0,6.m4v,8.0
2024-02-28 10:36:24.650256,1709112984.650256,-20.01953125,-12.20703125,-23.92578125,-19.53125,-1.0,1.0,-1.0,0.0,6.m4v,8.0
2024-02-28 10:36:24.654162,1709112984.6541617,-17.08984375,-23.4375,-19.04296875,-40.52734375,-1.0,1.0,-1.0,0.0,6.m4v,8.0
2024-02-28 10:36:24.658067,1709112984.6580677,-35.64453125,-37.59765625,-29.78515625,-28.80859375,-1.0,1.0,-1.0,0.0,6.m4v,8.0
2024-02-28 10:36:24.661973,1709112984.6619732,-23.92578125,-27.83203125,-37.109375,-26.3671875,-1.0,1.0,-1.0,0.0,6.m4v,8.0
2024-02-28 10:36:24.665879,1709112984.665879,-11.23046875,-30.2734375,-49.8046875,-42.96875,-1.0,1.0,-1.0,0.0,6.m4v,8.0
2024-02-28 10:36:24.669785,1709112984.6697848,-47.36328125,-59.08203125,-34.1796875,-78.61328125,-1.0,1.0,-1.0,0.0,6.m4v,8.0
2024-02-28 10:36:24.673691,1709112984.6736906,-62.5,-62.01171875,-8.30078125,-63.4765625,-1.0,1.0,-1.0,0.0,6.m4v,8.0
2024-02-28 10:36:24.677596,1709112984.6775963,-41.015625,-50.78125,-22.4609375,-26.85546875,-1.0,1.0,-1.0,0.0,6.m4v,8.0
2024-02-28 10:36:24.681502,1709112984.681502,-28.80859375,-43.9453125,-40.0390625,-21.484375,-1.0,1.0,-1.0,0.0,6.m4v,8.0
2024-02-28 10:36:24.685410,1709112984.6854095,-41.50390625,-30.76171875,-46.875,-44.921875,-1.0,1.0,-1.0,0.0,6.m4v,8.0
2024-02-28 10:36:24.689315,1709112984.6893153,-37.109375,-34.66796875,-53.22265625,-45.8984375,-1.0,1.0,-1.0,0.0,6.m4v,8.0
2024-02-28 10:36:24.693221,1709112984.693221,-27.83203125,-33.69140625,-45.8984375,-26.3671875,-1.0,1.0,-1.0,0.0,6.m4v,8.0
2024-02-28 10:36:24.697127,1709112984.6971269,-41.50390625,-33.69140625,-44.43359375,-13.671875,-1.0,1.0,-1.0,0.0,6.m4v,8.0
2024-02-28 10:36:24.701033,1709112984.7010326,-21.97265625,-32.71484375,-34.1796875,32.2265625,-1.0,1.0,-1.0,0.0,6.m4v,8.0
2024-02-28 10:36:24.704938,1709112984.7049384,-8.30078125,-27.34375,-35.15625,-41.9921875,-1.0,1.0,-1.0,0.0,6.m4v,8.0
2024-02-28 10:36:24.708844,1709112984.7088442,-36.62109375,-28.3203125,-62.5,-104.00390625,-1.0,1.0,-1.0,0.0,6.m4v,8.0
2024-02-28 10:36:24.712750,1709112984.71275,-34.1796875,-35.64453125,-56.640625,-32.71484375,-1.0,1.0,-1.0,0.0,6.m4v,8.0
2024-02-28 10:36:24.716656,1709112984.7166555,-13.671875,-35.64453125,-34.1796875,24.4140625,-1.0,1.0,-1.0,0.0,6.m4v,8.0
2024-02-28 10:36:24.720562,1709112984.7205615,-33.69140625,-41.9921875,-23.92578125,-42.96875,-1.0,1.0,-1.0,0.0,6.m4v,8.0
2024-02-28 10:36:24.724467,1709112984.7244673,-55.6640625,-52.24609375,-8.30078125,-66.40625,-1.0,1.0,-1.0,0.0,6.m4v,8.0
2024-02-28 10:36:24.728373,1709112984.728373,-65.91796875,-41.9921875,-18.06640625,-68.359375,-1.0,1.0,-1.0,0.0,6.m4v,8.0
2024-02-28 10:36:24.732281,1709112984.7322814,-48.33984375,-42.96875,-23.4375,-90.8203125,-1.0,1.0,-1.0,0.0,6.m4v,8.0
2024-02-28 10:36:24.736187,1709112984.7361872,-30.2734375,-46.875,-21.97265625,-62.01171875,-1.0,1.0,-1.0,0.0,6.m4v,8.0
2024-02-28 10:36:24.740093,1709112984.740093,-42.48046875,-32.71484375,-49.31640625,-26.3671875,-1.0,1.0,-1.0,0.0,6.m4v,8.0
2024-02-28 10:36:24.743999,1709112984.7439988,-25.390625,-23.92578125,-32.2265625,-2.44140625,-1.0,1.0,-1.0,0.0,6.m4v,8.0
2024-02-28 10:36:24.747905,1709112984.7479043,-20.5078125,-33.203125,0.0,-23.4375,-1.0,1.0,-1.0,0.0,6.m4v,8.0
2024-02-28 10:36:24.751810,1709112984.7518103,-30.2734375,-43.45703125,-33.69140625,-42.96875,-1.0,1.0,-1.0,0.0,6.m4v,8.0
2024-02-28 10:36:24.755716,1709112984.755716,-25.87890625,-36.1328125,-34.1796875,-18.06640625,-1.0,1.0,-1.0,0.0,6.m4v,8.0
2024-02-28 10:36:24.759622,1709112984.759622,-27.34375,-27.34375,-23.4375,9.27734375,-1.0,1.0,-1.0,0.0,6.m4v,8.0
2024-02-28 10:36:24.763528,1709112984.7635276,-34.1796875,-36.1328125,-26.85546875,-38.0859375,-1.0,1.0,-1.0,0.0,6.m4v,8.0
2024-02-28 10:36:24.767433,1709112984.7674334,-47.36328125,-53.22265625,-25.390625,-65.91796875,-1.0,1.0,-1.0,0.0,6.m4v,8.0
2024-02-28 10:36:24.771339,1709112984.7713392,-28.3203125,-39.0625,-58.59375,-19.53125,-1.0,1.0,-1.0,0.0,6.m4v,8.0
2024-02-28 10:36:24.775245,1709112984.775245,3.41796875,-29.296875,-77.1484375,1.953125,-1.0,1.0,-1.0,0.0,6.m4v,8.0
2024-02-28 10:36:24.779153,1709112984.779153,-16.11328125,-37.109375,-36.62109375,1.953125,-1.0,1.0,-1.0,0.0,6.m4v,8.0
2024-02-28 10:36:24.783059,1709112984.7830591,-35.15625,-27.83203125,-20.99609375,-21.97265625,-1.0,1.0,-1.0,0.0,6.m4v,8.0
2024-02-28 10:36:24.786965,1709112984.786965,-30.76171875,-26.3671875,-24.4140625,-67.3828125,-1.0,1.0,-1.0,0.0,6.m4v,8.0
2024-02-28 10:36:24.790871,1709112984.790871,-39.0625,-27.83203125,-12.6953125,-61.5234375,-1.0,1.0,-1.0,0.0,6.m4v,8.0
2024-02-28 10:36:24.794776,1709112984.7947764,-35.15625,-24.90234375,-30.2734375,-10.7421875,-1.0,1.0,-1.0,0.0,6.m4v,8.0
2024-02-28 10:36:24.798682,1709112984.7986822,-20.5078125,-27.34375,-51.7578125,-13.18359375,-1.0,1.0,-1.0,0.0,6.m4v,8.0
2024-02-28 10:36:24.802588,1709112984.802588,-29.296875,-23.4375,-40.52734375,-36.1328125,-1.0,1.0,-1.0,0.0,6.m4v,8.0
2024-02-28 10:36:24.806494,1709112984.8064938,-41.50390625,-16.11328125,-17.578125,-30.2734375,-1.0,1.0,-1.0,0.0,6.m4v,8.0
2024-02-28 10:36:24.810400,1709112984.8103995,-35.15625,-18.5546875,-36.62109375,-26.85546875,-1.0,1.0,-1.0,0.0,6.m4v,8.0
2024-02-28 10:36:24.814305,1709112984.8143053,-41.015625,-34.66796875,-40.0390625,-42.48046875,-1.0,1.0,-1.0,0.0,6.m4v,8.0
2024-02-28 10:36:24.818211,1709112984.818211,-48.828125,-43.45703125,9.27734375,-32.2265625,-1.0,1.0,-1.0,0.0,6.m4v,8.0
2024-02-28 10:36:24.822117,1709112984.8221169,-25.390625,-32.71484375,12.20703125,-23.4375,-1.0,1.0,-1.0,0.0,6.m4v,8.0
2024-02-28 10:36:24.826025,1709112984.8260248,-14.6484375,-23.4375,-21.484375,-28.3203125,-1.0,1.0,-1.0,0.0,6.m4v,8.0
2024-02-28 10:36:24.829931,1709112984.8299303,-29.296875,-26.3671875,-25.87890625,-28.3203125,-1.0,1.0,-1.0,0.0,6.m4v,8.0
2024-02-28 10:36:24.833836,1709112984.8338363,-25.390625,-41.015625,-11.23046875,-29.78515625,-1.0,1.0,-1.0,0.0,6.m4v,8.0
2024-02-28 10:36:24.837742,1709112984.837742,-30.76171875,-46.38671875,-33.69140625,-26.85546875,-1.0,1.0,-1.0,0.0,6.m4v,8.0
2024-02-28 10:36:24.841648,1709112984.841648,-41.50390625,-30.2734375,-62.01171875,-31.25,-1.0,1.0,-1.0,0.0,6.m4v,8.0
2024-02-28 10:36:24.845554,1709112984.8455536,-35.15625,-29.78515625,-48.828125,-58.10546875,-1.0,1.0,-1.0,0.0,6.m4v,8.0
2024-02-28 10:36:24.849459,1709112984.8494594,-22.94921875,-24.4140625,-51.26953125,-20.99609375,-1.0,1.0,-1.0,0.0,6.m4v,8.0
2024-02-28 10:36:24.853365,1709112984.8533652,-27.34375,-18.5546875,-41.015625,-8.7890625,-1.0,1.0,-1.0,0.0,6.m4v,8.0
2024-02-28 10:36:24.857271,1709112984.857271,-29.78515625,-30.76171875,9.765625,-67.87109375,-1.0,1.0,-1.0,0.0,6.m4v,8.0
2024-02-28 10:36:24.861177,1709112984.8611767,-37.109375,-36.62109375,10.25390625,-51.26953125,-1.0,1.0,-1.0,0.0,6.m4v,8.0
2024-02-28 10:36:24.865083,1709112984.8650825,-41.50390625,-33.69140625,-45.41015625,-5.859375,-1.0,1.0,-1.0,0.0,6.m4v,8.0
2024-02-28 10:36:24.868988,1709112984.8689885,-28.80859375,-36.62109375,-38.57421875,-24.90234375,-1.0,1.0,-1.0,0.0,6.m4v,8.0
2024-02-28 10:36:24.872896,1709112984.8728962,-14.6484375,-39.0625,-40.52734375,-8.7890625,-1.0,1.0,-1.0,0.0,6.m4v,8.0
2024-02-28 10:36:25.052567,1709112985.0525675,-46.38671875,-49.8046875,-19.53125,-44.921875,-1.0,1.0,-1.0,0.0,6.m4v,8.0
2024-02-28 10:36:25.052567,1709112985.0525675,-46.38671875,-49.8046875,-19.53125,-44.921875,-1.0,1.0,-1.0,0.0,6.m4v,8.0
2024-02-28 10:36:25.060380,1709112985.0603805,-10.25390625,-20.5078125,-42.96875,-27.34375,-1.0,1.0,-1.0,0.0,6.m4v,8.0
2024-02-28 10:36:25.060380,1709112985.0603805,-10.25390625,-20.5078125,-42.96875,-27.34375,-1.0,1.0,-1.0,0.0,6.m4v,8.0
2024-02-28 10:36:25.064286,1709112985.0642862,15.625,3.41796875,-122.0703125,47.36328125,-1.0,1.0,-1.0,0.0,6.m4v,8.0
2024-02-28 10:36:25.072098,1709112985.0720978,-32.2265625,-25.87890625,-6.8359375,-53.22265625,-1.0,1.0,-1.0,0.0,6.m4v,8.0
2024-02-28 10:36:25.076004,1709112985.0760036,-52.734375,-62.01171875,12.6953125,-60.05859375,-1.0,1.0,-1.0,0.0,6.m4v,8.0
2024-02-28 10:36:25.083815,1709112985.083815,-37.109375,-30.76171875,-5.37109375,-27.83203125,-1.0,1.0,-1.0,0.0,6.m4v,8.0
2024-02-28 10:36:25.087721,1709112985.0877209,-23.92578125,-40.52734375,5.37109375,-38.57421875,-1.0,1.0,-1.0,0.0,6.m4v,8.0
2024-02-28 10:36:25.181463,1709112985.1814637,-30.76171875,-39.55078125,-31.73828125,-10.7421875,-1.0,1.0,-1.0,0.0,6.m4v,8.0
2024-02-28 10:36:25.189275,1709112985.189275,-21.97265625,-32.71484375,-43.45703125,13.18359375,-1.0,1.0,-1.0,0.0,6.m4v,8.0
2024-02-28 10:36:25.193181,1709112985.1931808,-35.64453125,-24.90234375,-48.33984375,-23.92578125,-1.0,1.0,-1.0,0.0,6.m4v,8.0
2024-02-28 10:36:25.197087,1709112985.1970866,-30.2734375,-28.80859375,-42.48046875,-56.15234375,-1.0,1.0,-1.0,0.0,6.m4v,8.0
2024-02-28 10:36:25.200995,1709112985.2009947,-29.78515625,-37.109375,-42.96875,-26.85546875,-1.0,1.0,-1.0,0.0,6.m4v,8.0
2024-02-28 10:36:25.204901,1709112985.2049005,-23.4375,-43.9453125,-31.73828125,-20.01953125,-1.0,1.0,-1.0,0.0,6.m4v,8.0
2024-02-28 10:36:25.208806,1709112985.2088065,-20.5078125,-34.1796875,-29.78515625,-59.5703125,-1.0,1.0,-1.0,0.0,6.m4v,8.0
2024-02-28 10:36:25.212712,1709112985.212712,-35.64453125,-22.94921875,-41.9921875,-51.26953125,-1.0,1.0,-1.0,0.0,6.m4v,8.0
2024-02-28 10:36:25.216618,1709112985.2166178,-37.59765625,-33.203125,-40.0390625,-36.62109375,-1.0,1.0,-1.0,0.0,6.m4v,8.0
2024-02-28 10:36:25.220524,1709112985.2205236,-33.69140625,-41.9921875,-32.2265625,-11.23046875,-1.0,1.0,-1.0,0.0,6.m4v,8.0
2024-02-28 10:36:25.224429,1709112985.2244294,-31.25,-30.2734375,-27.34375,-16.6015625,-1.0,1.0,-1.0,0.0,6.m4v,8.0
2024-02-28 10:36:25.236147,1709112985.2361467,-26.85546875,-31.25,-35.15625,-6.34765625,-1.0,1.0,-1.0,0.0,6.m4v,8.0
2024-02-28 10:36:25.251772,1709112985.2517717,-14.6484375,-66.40625,-7.8125,-27.83203125,-1.0,1.0,-1.0,0.0,6.m4v,8.0
2024-02-28 10:36:25.267395,1709112985.267395,-42.96875,-21.484375,-19.53125,-67.87109375,-1.0,1.0,-1.0,0.0,6.m4v,8.0
2024-02-28 10:36:25.279112,1709112985.2791123,-35.15625,-11.23046875,-45.41015625,-1.953125,-1.0,1.0,-1.0,0.0,6.m4v,8.0
2024-02-28 10:36:25.294737,1709112985.294737,-40.0390625,-44.43359375,-49.31640625,-53.7109375,-1.0,1.0,-1.0,0.0,6.m4v,8.0
2024-02-28 10:36:25.310360,1709112985.3103604,-13.671875,-30.76171875,-45.41015625,-9.765625,-1.0,1.0,-1.0,0.0,6.m4v,8.0
2024-02-28 10:36:25.322078,1709112985.3220778,-70.3125,-39.0625,-27.83203125,-65.4296875,-1.0,1.0,-1.0,0.0,6.m4v,8.0
2024-02-28 10:36:25.337701,1709112985.3377008,-54.6875,-38.0859375,-21.484375,-35.15625,-1.0,1.0,-1.0,0.0,6.m4v,8.0
2024-02-28 10:36:25.353326,1709112985.3533258,-32.2265625,-22.4609375,-52.734375,-12.6953125,-1.0,1.0,-1.0,0.0,6.m4v,8.0
2024-02-28 10:36:25.365043,1709112985.3650432,-22.4609375,-33.203125,-27.34375,17.08984375,-1.0,1.0,-1.0,0.0,6.m4v,8.0
2024-02-28 10:36:25.380666,1709112985.3806665,-38.57421875,-48.828125,-27.34375,-53.22265625,-1.0,1.0,-1.0,0.0,6.m4v,8.0
2024-02-28 10:36:25.396291,1709112985.3962913,-24.90234375,-41.015625,-64.453125,-6.34765625,-1.0,1.0,-1.0,0.0,6.m4v,8.0
2024-02-28 10:36:25.408009,1709112985.4080086,-16.11328125,-15.13671875,-51.7578125,-24.90234375,-1.0,1.0,-1.0,0.0,6.m4v,8.0
2024-02-28 10:36:25.423632,1709112985.4236317,-41.9921875,-34.1796875,-22.4609375,-46.38671875,-1.0,1.0,-1.0,0.0,6.m4v,8.0
2024-02-28 10:36:25.439256,1709112985.4392562,-37.109375,-39.0625,-14.6484375,-63.4765625,-1.0,1.0,-1.0,0.0,6.m4v,8.0
2024-02-28 10:36:25.450974,1709112985.4509735,-20.01953125,-21.484375,-62.01171875,17.578125,-1.0,1.0,-1.0,0.0,6.m4v,8.0
2024-02-28 10:36:25.466597,1709112985.4665966,-46.875,-33.203125,0.48828125,-76.171875,-1.0,1.0,-1.0,0.0,6.m4v,8.0
2024-02-28 10:36:25.595493,1709112985.595493,-9.27734375,-8.30078125,1.46484375,-30.2734375,-1.0,1.0,-1.0,0.0,6.m4v,8.0
2024-02-28 10:36:25.599399,1709112985.5993989,-9.765625,-24.4140625,-15.13671875,-11.23046875,-1.0,1.0,-1.0,0.0,6.m4v,8.0
2024-02-28 10:36:25.603305,1709112985.6033046,3.90625,-33.69140625,-35.15625,-13.671875,-1.0,1.0,-1.0,0.0,6.m4v,8.0
2024-02-28 10:36:25.607210,1709112985.6072104,16.6015625,-15.625,-22.4609375,9.765625,-1.0,1.0,-1.0,0.0,6.m4v,8.0
2024-02-28 10:36:25.611116,1709112985.6111162,0.9765625,-17.08984375,-38.0859375,57.6171875,-1.0,1.0,-1.0,0.0,6.m4v,8.0
2024-02-28 10:36:25.615022,1709112985.615022,12.20703125,-29.296875,-51.7578125,39.55078125,-1.0,1.0,-1.0,0.0,6.m4v,8.0
2024-02-28 10:36:25.618928,1709112985.6189277,14.16015625,-39.55078125,-42.48046875,19.53125,-1.0,1.0,-1.0,0.0,6.m4v,8.0
2024-02-28 10:36:25.622836,1709112985.6228356,-3.90625,-51.7578125,-21.484375,-33.203125,-1.0,1.0,-1.0,0.0,6.m4v,8.0
2024-02-28 10:36:25.626741,1709112985.6267414,8.30078125,-56.640625,-3.90625,-34.66796875,-1.0,1.0,-1.0,0.0,6.m4v,8.0
2024-02-28 10:36:25.704859,1709112985.704859,-32.71484375,-39.0625,-91.30859375,36.1328125,-1.0,1.0,-1.0,0.0,6.m4v,8.0
2024-02-28 10:36:25.704859,1709112985.704859,-32.71484375,-39.0625,-91.30859375,36.1328125,-1.0,1.0,-1.0,0.0,6.m4v,8.0
2024-02-28 10:36:25.708765,1709112985.7087648,-38.0859375,-39.55078125,-44.921875,-15.13671875,-1.0,1.0,-1.0,0.0,6.m4v,8.0
2024-02-28 10:36:25.708765,1709112985.7087648,-38.0859375,-39.55078125,-44.921875,-15.13671875,-1.0,1.0,-1.0,0.0,6.m4v,8.0
2024-02-28 10:36:25.712671,1709112985.7126706,-60.546875,-37.59765625,1.953125,-61.5234375,-1.0,1.0,-1.0,0.0,6.m4v,8.0
2024-02-28 10:36:25.712671,1709112985.7126706,-60.546875,-37.59765625,1.953125,-61.5234375,-1.0,1.0,-1.0,0.0,6.m4v,8.0
2024-02-28 10:36:25.716578,1709112985.716578,-62.5,-23.92578125,0.9765625,-69.82421875,-1.0,1.0,-1.0,0.0,6.m4v,8.0
2024-02-28 10:36:25.716578,1709112985.716578,-62.5,-23.92578125,0.9765625,-69.82421875,-1.0,1.0,-1.0,0.0,6.m4v,8.0
2024-02-28 10:36:25.720484,1709112985.7204838,-64.94140625,-11.71875,-10.7421875,-78.125,-1.0,1.0,-1.0,0.0,6.m4v,8.0
2024-02-28 10:36:25.720484,1709112985.7204838,-64.94140625,-11.71875,-10.7421875,-78.125,-1.0,1.0,-1.0,0.0,6.m4v,8.0
2024-02-28 10:36:25.724390,1709112985.7243896,-57.6171875,-15.625,-15.625,-37.59765625,-1.0,1.0,-1.0,0.0,6.m4v,8.0
2024-02-28 10:36:25.724390,1709112985.7243896,-57.6171875,-15.625,-15.625,-37.59765625,-1.0,1.0,-1.0,0.0,6.m4v,8.0
2024-02-28 10:36:25.728295,1709112985.728295,-48.828125,-26.3671875,-19.04296875,-35.15625,-1.0,1.0,-1.0,0.0,6.m4v,8.0
2024-02-28 10:36:25.728295,1709112985.728295,-48.828125,-26.3671875,-19.04296875,-35.15625,-1.0,1.0,-1.0,0.0,6.m4v,8.0
2024-02-28 10:36:25.732201,1709112985.732201,-55.17578125,-42.48046875,-36.1328125,-34.66796875,-1.0,1.0,-1.0,0.0,6.m4v,8.0
2024-02-28 10:36:25.732201,1709112985.732201,-55.17578125,-42.48046875,-36.1328125,-34.66796875,-1.0,1.0,-1.0,0.0,6.m4v,8.0
2024-02-28 10:36:25.736107,1709112985.7361069,-51.7578125,-37.59765625,-69.82421875,-19.04296875,-1.0,1.0,-1.0,0.0,6.m4v,8.0
2024-02-28 10:36:25.736107,1709112985.7361069,-51.7578125,-37.59765625,-69.82421875,-19.04296875,-1.0,1.0,-1.0,0.0,6.m4v,8.0
2024-02-28 10:36:25.740013,1709112985.7400126,-54.19921875,-33.203125,-44.43359375,-53.7109375,-1.0,1.0,-1.0,0.0,6.m4v,8.0
2024-02-28 10:36:25.740013,1709112985.7400126,-54.19921875,-33.203125,-44.43359375,-53.7109375,-1.0,1.0,-1.0,0.0,6.m4v,8.0
2024-02-28 10:36:25.743918,1709112985.7439184,-56.15234375,-54.6875,-12.6953125,-78.61328125,-1.0,1.0,-1.0,0.0,6.m4v,8.0
2024-02-28 10:36:25.743918,1709112985.7439184,-56.15234375,-54.6875,-12.6953125,-78.61328125,-1.0,1.0,-1.0,0.0,6.m4v,8.0
2024-02-28 10:36:25.747824,1709112985.7478242,-64.453125,-46.875,-21.97265625,-77.1484375,-1.0,1.0,-1.0,0.0,6.m4v,8.0
2024-02-28 10:36:25.747824,1709112985.7478242,-64.453125,-46.875,-21.97265625,-77.1484375,-1.0,1.0,-1.0,0.0,6.m4v,8.0
2024-02-28 10:36:25.751730,1709112985.75173,-63.96484375,-23.92578125,-23.92578125,-68.359375,-1.0,1.0,-1.0,0.0,6.m4v,8.0
2024-02-28 10:36:25.751730,1709112985.75173,-63.96484375,-23.92578125,-23.92578125,-68.359375,-1.0,1.0,-1.0,0.0,6.m4v,8.0
2024-02-28 10:36:25.798601,1709112985.7986012,-108.3984375,-16.11328125,-45.8984375,-94.7265625,-1.0,1.0,-1.0,0.0,6.m4v,8.0
2024-02-28 10:36:25.802507,1709112985.802507,-117.1875,-16.6015625,-39.55078125,-106.93359375,-1.0,1.0,-1.0,0.0,6.m4v,8.0
2024-02-28 10:36:25.806413,1709112985.8064127,-114.2578125,-25.390625,-20.01953125,-99.609375,-1.0,1.0,-1.0,0.0,6.m4v,8.0
2024-02-28 10:36:25.845472,1709112985.845472,-55.6640625,-20.5078125,-9.27734375,-38.57421875,-1.0,1.0,-1.0,0.0,6.m4v,8.0
2024-02-28 10:36:25.849378,1709112985.8493776,-42.48046875,-20.01953125,-30.2734375,-17.578125,-1.0,1.0,-1.0,0.0,6.m4v,8.0
2024-02-28 10:36:25.853283,1709112985.8532834,-25.390625,-13.671875,-40.0390625,-9.27734375,-1.0,1.0,-1.0,0.0,6.m4v,8.0
2024-02-28 10:36:25.857191,1709112985.857191,-15.13671875,-12.6953125,-58.59375,20.5078125,-1.0,1.0,-1.0,0.0,6.m4v,8.0
2024-02-28 10:36:25.861097,1709112985.8610969,0.9765625,-15.625,-64.453125,23.4375,-1.0,1.0,-1.0,0.0,6.m4v,8.0
2024-02-28 10:36:25.865003,1709112985.8650026,-9.27734375,-45.8984375,-29.296875,-36.1328125,-1.0,1.0,-1.0,0.0,6.m4v,8.0
2024-02-28 10:36:25.868908,1709112985.8689084,-20.99609375,-71.77734375,-4.8828125,-74.21875,-1.0,1.0,-1.0,0.0,6.m4v,8.0
2024-02-28 10:36:25.872814,1709112985.8728142,-38.0859375,-55.17578125,-9.765625,-67.87109375,-1.0,1.0,-1.0,0.0,6.m4v,8.0
2024-02-28 10:36:25.876720,1709112985.87672,-48.33984375,-33.203125,-28.3203125,-50.29296875,-1.0,1.0,-1.0,0.0,6.m4v,8.0
2024-02-28 10:36:25.880626,1709112985.8806255,-34.1796875,-36.62109375,-38.57421875,-54.19921875,-1.0,1.0,-1.0,0.0,6.m4v,8.0
2024-02-28 10:36:25.884531,1709112985.8845315,-15.13671875,-48.828125,-31.73828125,-34.1796875,-1.0,1.0,-1.0,0.0,6.m4v,8.0
2024-02-28 10:36:25.888437,1709112985.8884373,1.46484375,-41.015625,-47.8515625,-2.44140625,-1.0,1.0,-1.0,0.0,6.m4v,8.0
2024-02-28 10:36:25.892343,1709112985.892343,-15.625,-22.94921875,-58.10546875,-18.06640625,-1.0,1.0,-1.0,0.0,6.m4v,8.0
2024-02-28 10:36:25.896249,1709112985.8962488,-15.625,-6.34765625,-43.9453125,-21.97265625,-1.0,1.0,-1.0,0.0,6.m4v,8.0
2024-02-28 10:36:25.900155,1709112985.9001546,-5.859375,-9.27734375,-49.31640625,-26.3671875,-1.0,1.0,-1.0,0.0,6.m4v,8.0
2024-02-28 10:36:25.904063,1709112985.904063,-27.83203125,-27.34375,-41.015625,-31.73828125,-1.0,1.0,-1.0,0.0,6.m4v,8.0
2024-02-28 10:36:25.907969,1709112985.9079688,-24.4140625,-33.203125,-43.45703125,-20.99609375,-1.0,1.0,-1.0,0.0,6.m4v,8.0
2024-02-28 10:36:25.911875,1709112985.9118743,-23.4375,-41.015625,-52.24609375,-19.04296875,-1.0,1.0,-1.0,0.0,6.m4v,8.0
2024-02-28 10:36:25.915780,1709112985.9157803,-39.55078125,-61.5234375,-27.34375,-46.38671875,-1.0,1.0,-1.0,0.0,6.m4v,8.0
2024-02-28 10:36:25.919686,1709112985.919686,-47.8515625,-61.5234375,-2.9296875,-67.3828125,-1.0,1.0,-1.0,0.0,6.m4v,8.0
2024-02-28 10:36:25.923592,1709112985.923592,-34.1796875,-35.64453125,-10.25390625,-15.13671875,-1.0,1.0,-1.0,0.0,6.m4v,8.0
2024-02-28 10:36:25.927498,1709112985.9274976,-21.97265625,-11.23046875,-47.8515625,-10.25390625,-1.0,1.0,-1.0,0.0,6.m4v,8.0
2024-02-28 10:36:25.931403,1709112985.9314034,-13.18359375,-3.90625,-62.5,-26.85546875,-1.0,1.0,-1.0,0.0,6.m4v,8.0
2024-02-28 10:36:25.935309,1709112985.9353092,-11.23046875,-22.94921875,-50.29296875,-15.13671875,-1.0,1.0,-1.0,0.0,6.m4v,8.0
2024-02-28 10:36:25.939215,1709112985.939215,-25.87890625,-46.38671875,-41.50390625,-19.04296875,-1.0,1.0,-1.0,0.0,6.m4v,8.0
2024-02-28 10:36:25.943121,1709112985.9431207,-29.296875,-39.55078125,-26.3671875,-11.71875,-1.0,1.0,-1.0,0.0,6.m4v,8.0
2024-02-28 10:36:25.947026,1709112985.9470265,-19.53125,-23.4375,-8.7890625,-34.1796875,-1.0,1.0,-1.0,0.0,6.m4v,8.0
2024-02-28 10:36:25.950934,1709112985.9509344,-16.6015625,-25.390625,-16.6015625,-28.80859375,-1.0,1.0,-1.0,0.0,6.m4v,8.0
2024-02-28 10:36:25.954840,1709112985.9548402,-2.9296875,-24.90234375,-26.85546875,5.859375,-1.0,1.0,-1.0,0.0,6.m4v,8.0
2024-02-28 10:36:25.958746,1709112985.958746,0.0,-17.08984375,-31.73828125,-13.671875,-1.0,1.0,-1.0,0.0,6.m4v,8.0
2024-02-28 10:36:25.962652,1709112985.9626515,-14.16015625,-11.71875,-50.78125,-48.33984375,-1.0,1.0,-1.0,0.0,6.m4v,8.0
2024-02-28 10:36:25.966558,1709112985.9665575,-26.85546875,-20.01953125,-36.62109375,-36.1328125,-1.0,1.0,-1.0,0.0,6.m4v,8.0
2024-02-28 10:36:25.970463,1709112985.9704633,-16.6015625,-33.69140625,3.41796875,-20.01953125,-1.0,1.0,-1.0,0.0,6.m4v,8.0
2024-02-28 10:36:25.974369,1709112985.974369,-5.859375,-38.57421875,1.953125,-27.83203125,-1.0,1.0,-1.0,0.0,6.m4v,8.0
2024-02-28 10:36:25.978275,1709112985.9782748,-34.66796875,-40.0390625,-21.484375,-51.26953125,-1.0,1.0,-1.0,0.0,6.m4v,8.0
2024-02-28 10:36:25.982181,1709112985.9821806,-46.875,-24.90234375,-46.38671875,-16.6015625,-1.0,1.0,-1.0,0.0,6.m4v,8.0
2024-02-28 10:36:25.986086,1709112985.9860864,-12.6953125,-19.04296875,-61.03515625,22.94921875,-1.0,1.0,-1.0,0.0,6.m4v,8.0
2024-02-28 10:36:25.989992,1709112985.989992,-7.8125,-33.69140625,-58.59375,7.32421875,-1.0,1.0,-1.0,0.0,6.m4v,8.0
2024-02-28 10:36:25.993898,1709112985.993898,-27.83203125,-42.96875,-58.10546875,-27.34375,-1.0,1.0,-1.0,0.0,6.m4v,8.0
2024-02-28 10:36:25.997806,1709112985.9978058,-30.76171875,-30.76171875,-27.83203125,-56.15234375,-1.0,1.0,-1.0,0.0,6.m4v,8.0
2024-02-28 10:36:26.001712,1709112986.0017116,-26.3671875,-22.94921875,7.32421875,-59.5703125,-1.0,1.0,-1.0,0.0,6.m4v,8.0
2024-02-28 10:36:26.005617,1709112986.0056174,-35.64453125,-38.0859375,1.953125,-43.45703125,-1.0,1.0,-1.0,0.0,6.m4v,8.0
2024-02-28 10:36:26.009523,1709112986.0095232,-36.62109375,-43.45703125,-8.7890625,-39.55078125,-1.0,1.0,-1.0,0.0,6.m4v,8.0
2024-02-28 10:36:26.013429,1709112986.013429,-39.0625,-22.94921875,-21.97265625,-30.76171875,-1.0,1.0,-1.0,0.0,6.m4v,8.0
2024-02-28 10:36:26.017335,1709112986.0173347,-39.55078125,-15.13671875,-48.828125,6.34765625,-1.0,1.0,-1.0,0.0,6.m4v,8.0
2024-02-28 10:36:26.021240,1709112986.0212405,-22.94921875,-42.48046875,-60.546875,-5.859375,-1.0,1.0,-1.0,0.0,6.m4v,8.0
2024-02-28 10:36:26.025146,1709112986.0251462,-17.578125,-52.24609375,-65.4296875,-40.0390625,-1.0,1.0,-1.0,0.0,6.m4v,8.0
2024-02-28 10:36:26.029052,1709112986.029052,-35.15625,-33.203125,-57.12890625,-35.64453125,-1.0,1.0,-1.0,0.0,6.m4v,8.0
2024-02-28 10:36:26.032958,1709112986.0329578,-40.0390625,-29.78515625,-26.3671875,-10.25390625,-1.0,1.0,-1.0,0.0,6.m4v,8.0
2024-02-28 10:36:26.036864,1709112986.0368636,-23.92578125,-33.203125,-9.27734375,31.25,-1.0,1.0,-1.0,0.0,6.m4v,8.0
2024-02-28 10:36:26.040769,1709112986.040769,-27.34375,-36.1328125,-20.5078125,-24.4140625,-1.0,1.0,-1.0,0.0,6.m4v,8.0
2024-02-28 10:36:26.044677,1709112986.044677,-21.97265625,-36.1328125,-25.390625,-51.7578125,-1.0,1.0,-1.0,0.0,6.m4v,8.0
2024-02-28 10:36:26.048583,1709112986.0485828,-21.97265625,-25.390625,-24.90234375,-20.5078125,-1.0,1.0,-1.0,0.0,6.m4v,8.0
2024-02-28 10:36:26.052489,1709112986.0524886,-26.85546875,-19.04296875,-35.15625,-9.765625,-1.0,1.0,-1.0,0.0,6.m4v,8.0
2024-02-28 10:36:26.056394,1709112986.0563943,-20.5078125,-19.04296875,-52.734375,-9.765625,-1.0,1.0,-1.0,0.0,6.m4v,8.0
2024-02-28 10:36:26.060300,1709112986.0603,-32.71484375,-35.64453125,-73.2421875,-44.43359375,-1.0,1.0,-1.0,0.0,6.m4v,8.0
2024-02-28 10:36:26.064206,1709112986.064206,-39.0625,-51.26953125,-43.45703125,-41.9921875,-1.0,1.0,-1.0,0.0,6.m4v,8.0
2024-02-28 10:36:26.068112,1709112986.0681117,-29.296875,-38.57421875,-14.6484375,-45.41015625,-1.0,1.0,-1.0,0.0,6.m4v,8.0
2024-02-28 10:36:26.072017,1709112986.0720174,-35.15625,-27.83203125,-34.1796875,-51.26953125,-1.0,1.0,-1.0,0.0,6.m4v,8.0
2024-02-28 10:36:26.075923,1709112986.0759232,-44.921875,-35.64453125,-31.25,-42.96875,-1.0,1.0,-1.0,0.0,6.m4v,8.0
2024-02-28 10:36:26.079829,1709112986.079829,-27.34375,-34.1796875,-12.20703125,-39.55078125,-1.0,1.0,-1.0,0.0,6.m4v,8.0
2024-02-28 10:36:26.083735,1709112986.0837348,-24.4140625,-25.87890625,-20.5078125,-29.296875,-1.0,1.0,-1.0,0.0,6.m4v,8.0
2024-02-28 10:36:26.087641,1709112986.0876403,-12.20703125,-18.5546875,-34.1796875,8.7890625,-1.0,1.0,-1.0,0.0,6.m4v,8.0
2024-02-28 10:36:26.091548,1709112986.0915482,15.13671875,-21.97265625,-42.96875,27.34375,-1.0,1.0,-1.0,0.0,6.m4v,8.0
2024-02-28 10:36:26.095454,1709112986.095454,0.9765625,-33.69140625,-50.78125,-7.8125,-1.0,1.0,-1.0,0.0,6.m4v,8.0
2024-02-28 10:36:26.099360,1709112986.0993598,-20.99609375,-29.296875,-47.8515625,-51.7578125,-1.0,1.0,-1.0,0.0,6.m4v,8.0
2024-02-28 10:36:26.103266,1709112986.1032655,-35.15625,-30.76171875,-30.76171875,-63.4765625,-1.0,1.0,-1.0,0.0,6.m4v,8.0
2024-02-28 10:36:26.107171,1709112986.1071713,-38.0859375,-48.828125,-29.296875,-45.8984375,-1.0,1.0,-1.0,0.0,6.m4v,8.0
2024-02-28 10:36:26.114983,1709112986.1149828,-19.53125,-36.62109375,-32.2265625,-31.25,-1.0,1.0,-1.0,0.0,6.m4v,8.0
2024-02-28 10:36:26.126700,1709112986.1267002,-10.25390625,-6.8359375,-45.41015625,5.37109375,-1.0,1.0,-1.0,0.0,6.m4v,8.0
2024-02-28 10:36:26.134512,1709112986.1345117,-32.2265625,-46.38671875,1.46484375,-55.6640625,-1.0,1.0,-1.0,0.0,6.m4v,8.0
2024-02-28 10:36:26.146231,1709112986.1462307,-14.16015625,-26.85546875,-49.31640625,-10.25390625,-1.0,1.0,-1.0,0.0,6.m4v,8.0
2024-02-28 10:36:26.150136,1709112986.1501365,-3.41796875,-20.5078125,-51.26953125,-4.8828125,-1.0,1.0,-1.0,0.0,6.m4v,8.0
2024-02-28 10:36:26.154042,1709112986.1540422,17.578125,-8.30078125,-63.4765625,38.0859375,-1.0,1.0,-1.0,0.0,6.m4v,8.0
2024-02-28 10:36:26.157948,1709112986.157948,22.94921875,-8.7890625,-61.03515625,73.2421875,-1.0,1.0,-1.0,0.0,6.m4v,8.0
2024-02-28 10:36:26.161854,1709112986.1618538,13.671875,-32.2265625,-29.296875,23.4375,-1.0,1.0,-1.0,0.0,6.m4v,8.0
2024-02-28 10:36:26.165760,1709112986.1657596,9.27734375,-32.2265625,-5.859375,-13.18359375,-1.0,1.0,-1.0,0.0,6.m4v,8.0
2024-02-28 10:36:26.169665,1709112986.169665,-6.8359375,-27.83203125,6.8359375,-11.71875,-1.0,1.0,-1.0,0.0,6.m4v,8.0
2024-02-28 10:36:26.173571,1709112986.173571,-9.27734375,-40.0390625,-0.9765625,-14.6484375,-1.0,1.0,-1.0,0.0,6.m4v,8.0
2024-02-28 10:36:26.177477,1709112986.177477,-7.32421875,-36.62109375,-23.92578125,-23.4375,-1.0,1.0,-1.0,0.0,6.m4v,8.0
2024-02-28 10:36:26.181383,1709112986.181383,-5.37109375,-30.76171875,-22.94921875,-10.25390625,-1.0,1.0,-1.0,0.0,6.m4v,8.0
2024-02-28 10:36:26.185290,1709112986.18529,-7.8125,-37.59765625,-47.36328125,-5.37109375,-1.0,1.0,-1.0,0.0,6.m4v,8.0
2024-02-28 10:36:26.189196,1709112986.189196,-6.34765625,-30.76171875,-83.0078125,-13.671875,-1.0,1.0,-1.0,0.0,6.m4v,8.0
2024-02-28 10:36:26.193102,1709112986.1931016,1.46484375,-20.01953125,-62.01171875,-5.859375,-1.0,1.0,-1.0,0.0,6.m4v,8.0
2024-02-28 10:36:26.197007,1709112986.1970074,-7.32421875,-34.66796875,-36.1328125,3.90625,-1.0,1.0,-1.0,0.0,6.m4v,8.0
2024-02-28 10:36:26.200913,1709112986.2009132,9.765625,-40.52734375,-24.4140625,33.69140625,-1.0,1.0,-1.0,0.0,6.m4v,8.0
2024-02-28 10:36:26.204819,1709112986.204819,0.9765625,-25.390625,-16.6015625,44.921875,-1.0,1.0,-1.0,0.0,6.m4v,8.0
2024-02-28 10:36:26.208725,1709112986.2087247,-14.16015625,-34.1796875,-18.5546875,-2.44140625,-1.0,1.0,-1.0,0.0,6.m4v,8.0
2024-02-28 10:36:26.212631,1709112986.2126305,-30.76171875,-39.55078125,-25.87890625,-34.66796875,-1.0,1.0,-1.0,0.0,6.m4v,8.0
2024-02-28 10:36:26.216536,1709112986.2165363,-45.41015625,-24.90234375,-42.48046875,-43.45703125,-1.0,1.0,-1.0,0.0,6.m4v,8.0
2024-02-28 10:36:26.224348,1709112986.2243478,-28.80859375,-28.3203125,-41.9921875,-42.48046875,-1.0,1.0,-1.0,0.0,6.m4v,8.0
2024-02-28 10:36:26.228254,1709112986.2282536,-25.390625,-20.01953125,-14.6484375,-24.90234375,-1.0,1.0,-1.0,0.0,6.m4v,8.0
2024-02-28 10:36:26.232161,1709112986.2321608,-50.78125,-30.2734375,8.30078125,-59.08203125,-1.0,1.0,-1.0,0.0,6.m4v,8.0
2024-02-28 10:36:26.236067,1709112986.2360666,-59.08203125,-41.9921875,-12.20703125,-59.5703125,-1.0,1.0,-1.0,0.0,6.m4v,8.0
2024-02-28 10:36:26.239972,1709112986.2399724,-41.015625,-47.8515625,-34.1796875,-31.25,-1.0,1.0,-1.0,0.0,6.m4v,8.0
2024-02-28 10:36:26.247784,1709112986.247784,-26.85546875,-21.97265625,-45.8984375,8.30078125,-1.0,1.0,-1.0,0.0,6.m4v,8.0
2024-02-28 10:36:26.251690,1709112986.2516897,5.37109375,-21.484375,-63.4765625,-0.48828125,-1.0,1.0,-1.0,0.0,6.m4v,8.0
2024-02-28 10:36:26.255595,1709112986.2555954,-42.48046875,-23.92578125,-51.7578125,-11.71875,-1.0,1.0,-1.0,0.0,6.m4v,8.0
2024-02-28 10:36:26.259501,1709112986.2595012,-72.75390625,-27.83203125,-20.99609375,-41.9921875,-1.0,1.0,-1.0,0.0,6.m4v,8.0
2024-02-28 10:36:26.267313,1709112986.2673128,-80.078125,-33.69140625,-13.671875,-92.7734375,-1.0,1.0,-1.0,0.0,6.m4v,8.0
2024-02-28 10:36:26.271219,1709112986.2712183,-79.58984375,-36.62109375,-24.4140625,-91.30859375,-1.0,1.0,-1.0,0.0,6.m4v,8.0
2024-02-28 10:36:26.279032,1709112986.2790325,-48.33984375,-33.203125,-33.69140625,-43.45703125,-1.0,1.0,-1.0,0.0,6.m4v,8.0
2024-02-28 10:36:26.286844,1709112986.286844,-39.55078125,-29.78515625,-86.9140625,-20.5078125,-1.0,1.0,-1.0,0.0,6.m4v,8.0
2024-02-28 10:36:26.294656,1709112986.2946556,-72.75390625,-41.015625,-20.5078125,-80.078125,-1.0,1.0,-1.0,0.0,6.m4v,8.0
2024-02-28 10:36:26.302467,1709112986.302467,-64.453125,-28.80859375,-0.9765625,-77.63671875,-1.0,1.0,-1.0,0.0,6.m4v,8.0
2024-02-28 10:36:26.310279,1709112986.310279,-81.54296875,-19.53125,-48.828125,-78.61328125,-1.0,1.0,-1.0,0.0,6.m4v,8.0
2024-02-28 10:36:26.318090,1709112986.3180902,-59.08203125,-27.83203125,-25.87890625,-17.08984375,-1.0,1.0,-1.0,0.0,6.m4v,8.0
2024-02-28 10:36:26.325904,1709112986.325904,-52.24609375,-19.04296875,-59.08203125,-82.03125,-1.0,1.0,-1.0,0.0,6.m4v,8.0
2024-02-28 10:36:26.333715,1709112986.3337154,-93.75,-57.12890625,-29.78515625,-67.87109375,-1.0,1.0,-1.0,0.0,6.m4v,8.0
2024-02-28 10:36:26.341527,1709112986.341527,-96.19140625,-43.9453125,-14.16015625,-102.5390625,-1.0,1.0,-1.0,0.0,6.m4v,8.0
2024-02-28 10:36:26.349339,1709112986.3493383,-103.02734375,-12.6953125,-48.828125,-112.79296875,-1.0,1.0,-1.0,0.0,6.m4v,8.0
2024-02-28 10:36:26.357150,1709112986.35715,-96.19140625,-23.92578125,-41.50390625,-65.4296875,-1.0,1.0,-1.0,0.0,6.m4v,8.0
2024-02-28 10:36:26.364962,1709112986.3649616,-111.81640625,-31.25,-36.62109375,-94.23828125,-1.0,1.0,-1.0,0.0,6.m4v,8.0
2024-02-28 10:36:26.372775,1709112986.3727753,-113.76953125,-44.43359375,-53.22265625,-96.6796875,-1.0,1.0,-1.0,0.0,6.m4v,8.0
2024-02-28 10:36:26.380587,1709112986.3805869,-104.98046875,-22.4609375,-30.76171875,-102.5390625,-1.0,1.0,-1.0,0.0,6.m4v,8.0
2024-02-28 10:36:26.384493,1709112986.3844926,-88.37890625,-11.71875,-35.64453125,-106.4453125,-1.0,1.0,-1.0,0.0,6.m4v,8.0
2024-02-28 10:36:26.388398,1709112986.3883984,-85.9375,-30.76171875,-12.6953125,-95.21484375,-1.0,1.0,-1.0,0.0,6.m4v,8.0
2024-02-28 10:36:26.392304,1709112986.3923042,-77.1484375,-36.62109375,-7.32421875,-62.98828125,-1.0,1.0,-1.0,0.0,6.m4v,8.0
2024-02-28 10:36:26.396210,1709112986.39621,-46.38671875,-20.99609375,-21.484375,-30.76171875,-1.0,1.0,-1.0,0.0,6.m4v,8.0
2024-02-28 10:36:26.400116,1709112986.4001155,-45.41015625,-24.90234375,-28.3203125,-67.3828125,-1.0,1.0,-1.0,0.0,6.m4v,8.0
2024-02-28 10:36:26.404022,1709112986.4040215,-45.41015625,-34.1796875,-29.78515625,-68.84765625,-1.0,1.0,-1.0,0.0,6.m4v,8.0
2024-02-28 10:36:26.407927,1709112986.4079273,-33.203125,-34.66796875,-55.6640625,-26.85546875,-1.0,1.0,-1.0,0.0,6.m4v,8.0
2024-02-28 10:36:26.411833,1709112986.411833,-18.06640625,-30.2734375,-77.1484375,-24.90234375,-1.0,1.0,-1.0,0.0,6.m4v,8.0
2024-02-28 10:36:26.415739,1709112986.4157388,-37.109375,-32.71484375,-35.15625,-49.8046875,-1.0,1.0,-1.0,0.0,6.m4v,8.0
2024-02-28 10:36:26.419647,1709112986.4196465,-37.109375,-40.52734375,4.8828125,-45.41015625,-1.0,1.0,-1.0,0.0,6.m4v,8.0
2024-02-28 10:36:26.423552,1709112986.4235525,-17.578125,-31.25,2.9296875,-14.16015625,-1.0,1.0,-1.0,0.0,6.m4v,8.0
2024-02-28 10:36:26.427458,1709112986.427458,-22.94921875,-19.04296875,-21.97265625,-24.4140625,-1.0,1.0,-1.0,0.0,6.m4v,8.0
2024-02-28 10:36:26.431364,1709112986.4313638,-7.32421875,-19.53125,-36.62109375,-25.390625,-1.0,1.0,-1.0,0.0,6.m4v,8.0
2024-02-28 10:36:26.435270,1709112986.4352696,9.765625,-21.484375,-45.41015625,-10.7421875,-1.0,1.0,-1.0,0.0,6.m4v,8.0
2024-02-28 10:36:26.443081,1709112986.4430811,-20.5078125,-35.64453125,-34.66796875,-11.71875,-1.0,1.0,-1.0,0.0,6.m4v,8.0
2024-02-28 10:36:26.536823,1709112986.536823,-27.34375,-33.69140625,-51.26953125,-74.21875,-1.0,1.0,-1.0,0.0,6.m4v,8.0
2024-02-28 10:36:26.540729,1709112986.5407288,-21.484375,-30.76171875,-57.12890625,-44.921875,-1.0,1.0,-1.0,0.0,6.m4v,8.0
2024-02-28 10:36:26.544635,1709112986.5446346,-19.53125,-30.2734375,-42.96875,1.953125,-1.0,1.0,-1.0,0.0,6.m4v,8.0
2024-02-28 10:36:26.548540,1709112986.5485404,-18.06640625,-40.0390625,-31.25,-17.578125,-1.0,1.0,-1.0,0.0,6.m4v,8.0
2024-02-28 10:36:26.552446,1709112986.552446,-20.5078125,-61.03515625,-28.3203125,-42.96875,-1.0,1.0,-1.0,0.0,6.m4v,8.0
2024-02-28 10:36:26.556352,1709112986.556352,-26.85546875,-57.6171875,-12.20703125,-16.6015625,-1.0,1.0,-1.0,0.0,6.m4v,8.0
2024-02-28 10:36:26.716496,1709112986.7164962,-42.96875,-31.25,-28.80859375,-36.62109375,-1.0,1.0,-1.0,0.0,6.m4v,8.0
2024-02-28 10:36:26.720402,1709112986.720402,-31.25,-32.2265625,-30.76171875,-40.0390625,-1.0,1.0,-1.0,0.0,6.m4v,8.0
2024-02-28 10:36:26.724308,1709112986.7243078,-6.34765625,-28.3203125,-42.48046875,-18.5546875,-1.0,1.0,-1.0,0.0,6.m4v,8.0
2024-02-28 10:36:26.747745,1709112986.7477446,-6.34765625,-37.109375,5.37109375,-19.04296875,-1.0,1.0,-1.0,0.0,6.m4v,8.0
2024-02-28 10:36:26.751650,1709112986.7516503,-33.69140625,-41.50390625,10.7421875,-21.97265625,-1.0,1.0,-1.0,0.0,6.m4v,8.0
2024-02-28 10:36:26.755556,1709112986.755556,-38.57421875,-41.015625,-14.16015625,-36.1328125,-1.0,1.0,-1.0,0.0,6.m4v,8.0
2024-02-28 10:36:26.759462,1709112986.759462,-19.53125,-33.203125,-36.62109375,-25.390625,-1.0,1.0,-1.0,0.0,6.m4v,8.0
2024-02-28 10:36:26.763368,1709112986.7633677,-11.71875,-33.203125,-43.9453125,3.90625,-1.0,1.0,-1.0,0.0,6.m4v,8.0
2024-02-28 10:36:26.767273,1709112986.7672734,4.8828125,-21.484375,-78.125,22.94921875,-1.0,1.0,-1.0,0.0,6.m4v,8.0
2024-02-28 10:36:26.771179,1709112986.7711792,-0.48828125,-23.92578125,-78.125,-7.32421875,-1.0,1.0,-1.0,0.0,6.m4v,8.0
2024-02-28 10:36:26.775085,1709112986.775085,-6.34765625,-42.48046875,-18.06640625,-43.45703125,-1.0,1.0,-1.0,0.0,6.m4v,8.0
2024-02-28 10:36:26.778991,1709112986.7789907,-13.18359375,-38.57421875,15.13671875,-23.4375,-1.0,1.0,-1.0,0.0,6.m4v,8.0
2024-02-28 10:36:26.782897,1709112986.7828965,-15.625,-17.08984375,-9.27734375,10.7421875,-1.0,1.0,-1.0,0.0,6.m4v,8.0
2024-02-28 10:36:26.786802,1709112986.7868023,-9.27734375,-13.18359375,-41.9921875,-23.4375,-1.0,1.0,-1.0,0.0,6.m4v,8.0
2024-02-28 10:36:26.790708,1709112986.790708,-39.55078125,-26.3671875,-27.83203125,-62.5,-1.0,1.0,-1.0,0.0,6.m4v,8.0
2024-02-28 10:36:26.794616,1709112986.7946155,-42.48046875,-41.50390625,-20.5078125,-45.8984375,-1.0,1.0,-1.0,0.0,6.m4v,8.0
2024-02-28 10:36:26.798522,1709112986.7985215,-15.13671875,-49.31640625,-25.87890625,-17.578125,-1.0,1.0,-1.0,0.0,6.m4v,8.0
2024-02-28 10:36:26.802427,1709112986.8024273,-7.32421875,-50.29296875,-32.71484375,-4.8828125,-1.0,1.0,-1.0,0.0,6.m4v,8.0
2024-02-28 10:36:26.806333,1709112986.806333,18.06640625,-30.2734375,-59.5703125,26.85546875,-1.0,1.0,-1.0,0.0,6.m4v,8.0
2024-02-28 10:36:26.810239,1709112986.8102388,32.71484375,-8.30078125,-56.15234375,35.64453125,-1.0,1.0,-1.0,0.0,6.m4v,8.0
2024-02-28 10:36:26.814145,1709112986.8141446,-2.44140625,-22.4609375,-32.71484375,-26.3671875,-1.0,1.0,-1.0,0.0,6.m4v,8.0
2024-02-28 10:36:26.818050,1709112986.8180504,-36.1328125,-40.0390625,-27.34375,-53.22265625,-1.0,1.0,-1.0,0.0,6.m4v,8.0
2024-02-28 10:36:26.821956,1709112986.8219562,-33.69140625,-40.0390625,-17.578125,-52.24609375,-1.0,1.0,-1.0,0.0,6.m4v,8.0
2024-02-28 10:36:26.825862,1709112986.825862,-34.1796875,-38.0859375,-11.23046875,-37.59765625,-1.0,1.0,-1.0,0.0,6.m4v,8.0
2024-02-28 10:36:26.829768,1709112986.8297677,-21.484375,-27.34375,-23.92578125,-26.3671875,-1.0,1.0,-1.0,0.0,6.m4v,8.0
2024-02-28 10:36:26.833673,1709112986.8336737,-5.859375,-32.2265625,-23.4375,-16.6015625,-1.0,1.0,-1.0,0.0,6.m4v,8.0
2024-02-28 10:36:26.837579,1709112986.8375793,1.46484375,-30.2734375,-26.85546875,11.71875,-1.0,1.0,-1.0,0.0,6.m4v,8.0
2024-02-28 10:36:26.841487,1709112986.841487,3.41796875,-20.99609375,-71.2890625,39.55078125,-1.0,1.0,-1.0,0.0,6.m4v,8.0
2024-02-28 10:36:26.845393,1709112986.8453927,17.578125,-23.92578125,-71.2890625,22.4609375,-1.0,1.0,-1.0,0.0,6.m4v,8.0
2024-02-28 10:36:26.849298,1709112986.8492985,8.30078125,-29.296875,-59.5703125,1.953125,-1.0,1.0,-1.0,0.0,6.m4v,8.0
2024-02-28 10:36:26.853204,1709112986.8532045,-16.11328125,-42.48046875,-48.828125,-11.23046875,-1.0,1.0,-1.0,0.0,6.m4v,8.0
2024-02-28 10:36:26.857110,1709112986.85711,-8.30078125,-43.9453125,1.46484375,-32.71484375,-1.0,1.0,-1.0,0.0,6.m4v,8.0
2024-02-28 10:36:26.861016,1709112986.8610158,-3.90625,-28.80859375,9.765625,-33.203125,-1.0,1.0,-1.0,0.0,6.m4v,8.0
2024-02-28 10:36:26.864922,1709112986.8649216,-5.37109375,-20.01953125,-13.671875,-20.5078125,-1.0,1.0,-1.0,0.0,6.m4v,8.0
2024-02-28 10:36:26.868827,1709112986.868827,-7.8125,-30.2734375,-20.5078125,-19.53125,-1.0,1.0,-1.0,0.0,6.m4v,8.0
2024-02-28 10:36:26.872733,1709112986.872733,-1.46484375,-37.59765625,-20.01953125,3.90625,-1.0,1.0,-1.0,0.0,6.m4v,8.0
2024-02-28 10:36:26.876639,1709112986.876639,8.7890625,-41.50390625,-24.90234375,22.94921875,-1.0,1.0,-1.0,0.0,6.m4v,8.0
2024-02-28 10:36:26.880545,1709112986.880545,15.625,-41.9921875,-51.26953125,14.6484375,-1.0,1.0,-1.0,0.0,6.m4v,8.0
2024-02-28 10:36:26.884450,1709112986.8844504,29.78515625,-24.90234375,-85.9375,58.59375,-1.0,1.0,-1.0,0.0,6.m4v,8.0
2024-02-28 10:36:26.888358,1709112986.8883576,63.4765625,-10.7421875,-77.63671875,81.54296875,-1.0,1.0,-1.0,0.0,6.m4v,8.0
2024-02-28 10:36:26.892263,1709112986.8922634,46.875,-21.484375,-24.90234375,28.80859375,-1.0,1.0,-1.0,0.0,6.m4v,8.0
2024-02-28 10:36:26.997722,1709112986.997722,-106.4453125,-25.87890625,-44.43359375,-106.4453125,-1.0,1.0,-1.0,0.0,6.m4v,8.0
2024-02-28 10:36:27.001628,1709112987.001628,-117.67578125,-32.71484375,-51.26953125,-87.40234375,-1.0,1.0,-1.0,0.0,6.m4v,8.0
2024-02-28 10:36:27.005534,1709112987.0055337,-104.4921875,-33.69140625,-56.15234375,-73.73046875,-1.0,1.0,-1.0,0.0,6.m4v,8.0
2024-02-28 10:36:27.009439,1709112987.0094397,-92.28515625,-36.1328125,-45.8984375,-90.33203125,-1.0,1.0,-1.0,0.0,6.m4v,8.0
2024-02-28 10:36:27.013345,1709112987.0133452,-88.37890625,-30.76171875,-31.73828125,-83.984375,-1.0,1.0,-1.0,0.0,6.m4v,8.0
2024-02-28 10:36:27.017251,1709112987.017251,-101.07421875,-29.78515625,-41.9921875,-64.453125,-1.0,1.0,-1.0,0.0,6.m4v,8.0
2024-02-28 10:36:27.021157,1709112987.0211568,-105.95703125,-26.3671875,-25.390625,-88.8671875,-1.0,1.0,-1.0,0.0,6.m4v,8.0
2024-02-28 10:36:27.025063,1709112987.0250626,-124.51171875,-20.5078125,-12.20703125,-142.578125,-1.0,1.0,-1.0,0.0,6.m4v,8.0
2024-02-28 10:36:27.028970,1709112987.0289705,-137.6953125,-28.3203125,-33.69140625,-121.09375,-1.0,1.0,-1.0,0.0,6.m4v,8.0
2024-02-28 10:36:27.032876,1709112987.0328765,-138.671875,-41.015625,-56.640625,-98.6328125,-1.0,1.0,-1.0,0.0,6.m4v,8.0
2024-02-28 10:36:27.036782,1709112987.036782,-142.08984375,-52.24609375,-36.1328125,-153.80859375,-1.0,1.0,-1.0,0.0,6.m4v,8.0
2024-02-28 10:36:27.040688,1709112987.0406878,-147.94921875,-49.31640625,-18.5546875,-171.875,-1.0,1.0,-1.0,0.0,6.m4v,8.0
2024-02-28 10:36:27.044594,1709112987.0445936,-146.484375,-32.71484375,-48.828125,-139.16015625,-1.0,1.0,-1.0,0.0,6.m4v,8.0
2024-02-28 10:36:27.048499,1709112987.048499,-125.48828125,-14.16015625,-54.19921875,-89.35546875,-1.0,1.0,-1.0,0.0,6.m4v,8.0
2024-02-28 10:36:27.052405,1709112987.052405,-127.9296875,-18.06640625,-16.11328125,-109.375,-1.0,1.0,-1.0,0.0,6.m4v,8.0
2024-02-28 10:36:27.056311,1709112987.056311,-141.6015625,-28.3203125,-2.9296875,-138.18359375,-1.0,1.0,-1.0,0.0,6.m4v,8.0
2024-02-28 10:36:27.130525,1709112987.1305249,-72.265625,-34.66796875,-34.1796875,-54.19921875,-1.0,1.0,-1.0,0.0,6.m4v,8.0
2024-02-28 10:36:27.134431,1709112987.1344306,-55.17578125,-37.59765625,-36.62109375,-62.5,-1.0,1.0,-1.0,0.0,6.m4v,8.0
2024-02-28 10:36:27.138336,1709112987.1383364,-30.76171875,-33.203125,-26.85546875,-27.83203125,-1.0,1.0,-1.0,0.0,6.m4v,8.0
2024-02-28 10:36:27.146148,1709112987.146148,4.39453125,-14.16015625,-69.82421875,37.59765625,-1.0,1.0,-1.0,0.0,6.m4v,8.0
2024-02-28 10:36:27.153960,1709112987.1539595,-31.73828125,-43.9453125,-16.6015625,-59.08203125,-1.0,1.0,-1.0,0.0,6.m4v,8.0
2024-02-28 10:36:27.161771,1709112987.161771,-25.390625,-34.1796875,-5.859375,-46.875,-1.0,1.0,-1.0,0.0,6.m4v,8.0
2024-02-28 10:36:27.169585,1709112987.1695845,13.671875,-18.5546875,-35.64453125,21.484375,-1.0,1.0,-1.0,0.0,6.m4v,8.0
2024-02-28 10:36:27.177396,1709112987.177396,18.5546875,-13.18359375,-59.5703125,48.33984375,-1.0,1.0,-1.0,0.0,6.m4v,8.0
2024-02-28 10:36:27.185208,1709112987.1852076,-15.625,-40.52734375,9.765625,-62.98828125,-1.0,1.0,-1.0,0.0,6.m4v,8.0
2024-02-28 10:36:27.193019,1709112987.1930192,5.859375,-32.71484375,-17.578125,1.46484375,-1.0,1.0,-1.0,0.0,6.m4v,8.0
2024-02-28 10:36:27.200831,1709112987.2008307,-5.37109375,-38.0859375,-46.875,-18.06640625,-1.0,1.0,-1.0,0.0,6.m4v,8.0
2024-02-28 10:36:27.208642,1709112987.2086422,-8.7890625,-32.2265625,-41.015625,13.18359375,-1.0,1.0,-1.0,0.0,6.m4v,8.0
2024-02-28 10:36:27.216455,1709112987.2164557,-13.671875,-17.578125,-41.015625,-2.44140625,-1.0,1.0,-1.0,0.0,6.m4v,8.0
2024-02-28 10:36:27.224267,1709112987.224267,-14.16015625,-39.0625,-6.8359375,-16.6015625,-1.0,1.0,-1.0,0.0,6.m4v,8.0
2024-02-28 10:36:27.232079,1709112987.2320786,6.34765625,-20.5078125,-34.66796875,-11.71875,-1.0,1.0,-1.0,0.0,6.m4v,8.0
2024-02-28 10:36:27.239890,1709112987.23989,-26.85546875,-37.109375,-33.69140625,-26.3671875,-1.0,1.0,-1.0,0.0,6.m4v,8.0
2024-02-28 10:36:27.247702,1709112987.2477016,-2.44140625,-28.3203125,-28.80859375,-17.08984375,-1.0,1.0,-1.0,0.0,6.m4v,8.0
2024-02-28 10:36:27.251607,1709112987.2516074,-5.37109375,-26.85546875,-51.26953125,-19.53125,-1.0,1.0,-1.0,0.0,6.m4v,8.0
2024-02-28 10:36:27.255513,1709112987.2555132,-6.8359375,-28.3203125,-42.48046875,-3.41796875,-1.0,1.0,-1.0,0.0,6.m4v,8.0
2024-02-28 10:36:27.263326,1709112987.2633264,-7.8125,-47.8515625,-22.94921875,-28.80859375,-1.0,1.0,-1.0,0.0,6.m4v,8.0
2024-02-28 10:36:27.267232,1709112987.2672324,-9.27734375,-46.875,-27.34375,-15.13671875,-1.0,1.0,-1.0,0.0,6.m4v,8.0
2024-02-28 10:36:27.271138,1709112987.2711382,3.41796875,-25.87890625,-54.6875,-0.48828125,-1.0,1.0,-1.0,0.0,6.m4v,8.0
2024-02-28 10:36:27.278950,1709112987.2789495,-24.4140625,-32.2265625,-21.484375,-16.6015625,-1.0,1.0,-1.0,0.0,6.m4v,8.0
2024-02-28 10:36:27.282856,1709112987.2828555,-21.97265625,-41.50390625,-20.5078125,-13.671875,-1.0,1.0,-1.0,0.0,6.m4v,8.0
2024-02-28 10:36:27.286761,1709112987.2867613,-18.5546875,-35.64453125,-22.94921875,-31.25,-1.0,1.0,-1.0,0.0,6.m4v,8.0
2024-02-28 10:36:27.294573,1709112987.2945728,-35.15625,-34.1796875,-37.59765625,-41.9921875,-1.0,1.0,-1.0,0.0,6.m4v,8.0
2024-02-28 10:36:27.298479,1709112987.2984786,-27.34375,-32.71484375,-49.8046875,-21.484375,-1.0,1.0,-1.0,0.0,6.m4v,8.0
2024-02-28 10:36:27.302384,1709112987.3023844,-16.11328125,-24.4140625,-75.68359375,-31.73828125,-1.0,1.0,-1.0,0.0,6.m4v,8.0
2024-02-28 10:36:27.310197,1709112987.3101974,-8.7890625,-26.85546875,-33.69140625,-3.41796875,-1.0,1.0,-1.0,0.0,6.m4v,8.0
2024-02-28 10:36:27.314103,1709112987.3141031,0.0,-20.99609375,-31.73828125,-3.41796875,-1.0,1.0,-1.0,0.0,6.m4v,8.0
2024-02-28 10:36:27.318009,1709112987.318009,0.48828125,-25.87890625,-41.015625,-33.69140625,-1.0,1.0,-1.0,0.0,6.m4v,8.0
2024-02-28 10:36:27.325820,1709112987.3258204,-18.5546875,-38.57421875,-39.0625,-25.87890625,-1.0,1.0,-1.0,0.0,6.m4v,8.0
2024-02-28 10:36:27.329726,1709112987.3297262,-29.296875,-51.7578125,-22.94921875,-29.78515625,-1.0,1.0,-1.0,0.0,6.m4v,8.0
2024-02-28 10:36:27.333632,1709112987.333632,-10.25390625,-44.43359375,-23.92578125,-25.87890625,-1.0,1.0,-1.0,0.0,6.m4v,8.0
2024-02-28 10:36:27.341444,1709112987.3414435,-21.484375,-28.3203125,-52.734375,20.5078125,-1.0,1.0,-1.0,0.0,6.m4v,8.0
2024-02-28 10:36:27.357068,1709112987.3570678,-6.34765625,-20.99609375,-28.3203125,3.41796875,-1.0,1.0,-1.0,0.0,6.m4v,8.0
2024-02-28 10:36:27.357068,1709112987.3570678,-6.34765625,-20.99609375,-28.3203125,3.41796875,-1.0,1.0,-1.0,0.0,6.m4v,8.0
2024-02-28 10:36:27.360974,1709112987.3609736,-9.27734375,-24.90234375,-39.0625,-20.5078125,-1.0,1.0,-1.0,0.0,6.m4v,8.0
2024-02-28 10:36:27.360974,1709112987.3609736,-9.27734375,-24.90234375,-39.0625,-20.5078125,-1.0,1.0,-1.0,0.0,6.m4v,8.0
2024-02-28 10:36:27.364879,1709112987.3648794,-29.296875,-26.3671875,-33.69140625,-10.25390625,-1.0,1.0,-1.0,0.0,6.m4v,8.0
2024-02-28 10:36:27.368785,1709112987.3687851,-25.87890625,-8.7890625,-24.90234375,-4.39453125,-1.0,1.0,-1.0,0.0,6.m4v,8.0
2024-02-28 10:36:27.368785,1709112987.3687851,-25.87890625,-8.7890625,-24.90234375,-4.39453125,-1.0,1.0,-1.0,0.0,6.m4v,8.0
2024-02-28 10:36:27.376597,1709112987.3765967,-19.53125,-43.9453125,-20.5078125,-41.9921875,-1.0,1.0,-1.0,0.0,6.m4v,8.0
2024-02-28 10:36:27.380502,1709112987.3805025,-26.85546875,-38.0859375,-28.3203125,-23.92578125,-1.0,1.0,-1.0,0.0,6.m4v,8.0
2024-02-28 10:36:27.384408,1709112987.3844082,-23.4375,-25.390625,-38.0859375,-41.50390625,-1.0,1.0,-1.0,0.0,6.m4v,8.0
2024-02-28 10:36:27.392220,1709112987.3922198,-13.18359375,-33.203125,-48.828125,2.44140625,-1.0,1.0,-1.0,0.0,6.m4v,8.0
2024-02-28 10:36:27.407845,1709112987.407845,-25.390625,-28.80859375,-15.13671875,-25.87890625,-1.0,1.0,-1.0,0.0,6.m4v,8.0
2024-02-28 10:36:27.415657,1709112987.4156566,-10.25390625,-23.4375,-68.359375,-25.87890625,-1.0,1.0,-1.0,0.0,6.m4v,8.0
2024-02-28 10:36:27.419562,1709112987.4195623,-26.85546875,-41.015625,-56.15234375,-42.48046875,-1.0,1.0,-1.0,0.0,6.m4v,8.0
2024-02-28 10:36:27.423468,1709112987.423468,-29.78515625,-61.03515625,-15.13671875,-13.18359375,-1.0,1.0,-1.0,0.0,6.m4v,8.0
2024-02-28 10:36:27.427374,1709112987.427374,-30.2734375,-52.24609375,-5.37109375,-1.46484375,-1.0,1.0,-1.0,0.0,6.m4v,8.0
2024-02-28 10:36:27.431280,1709112987.4312797,-23.92578125,-28.3203125,-7.32421875,-16.6015625,-1.0,1.0,-1.0,0.0,6.m4v,8.0
2024-02-28 10:36:27.435185,1709112987.4351854,-19.53125,-17.08984375,-13.18359375,-28.80859375,-1.0,1.0,-1.0,0.0,6.m4v,8.0
2024-02-28 10:36:27.439091,1709112987.4390912,-24.90234375,-17.578125,-41.015625,-36.62109375,-1.0,1.0,-1.0,0.0,6.m4v,8.0
2024-02-28 10:36:27.442997,1709112987.442997,-17.08984375,-13.671875,-46.875,-7.32421875,-1.0,1.0,-1.0,0.0,6.m4v,8.0
2024-02-28 10:36:27.446903,1709112987.4469028,-10.25390625,-21.97265625,-19.53125,17.08984375,-1.0,1.0,-1.0,0.0,6.m4v,8.0
2024-02-28 10:36:27.450811,1709112987.450811,-7.8125,-29.296875,-9.765625,-4.8828125,-1.0,1.0,-1.0,0.0,6.m4v,8.0
2024-02-28 10:36:27.454716,1709112987.4547164,4.8828125,-26.85546875,-29.296875,-3.90625,-1.0,1.0,-1.0,0.0,6.m4v,8.0
2024-02-28 10:36:27.458622,1709112987.4586222,-5.859375,-32.2265625,-34.66796875,23.4375,-1.0,1.0,-1.0,0.0,6.m4v,8.0
2024-02-28 10:36:27.462528,1709112987.462528,14.6484375,-39.0625,-28.3203125,15.13671875,-1.0,1.0,-1.0,0.0,6.m4v,8.0
2024-02-28 10:36:27.466434,1709112987.4664338,42.96875,-37.109375,-41.9921875,23.4375,-1.0,1.0,-1.0,0.0,6.m4v,8.0
2024-02-28 10:36:27.470340,1709112987.4703395,44.43359375,-26.3671875,-57.6171875,76.171875,-1.0,1.0,-1.0,0.0,6.m4v,8.0
2024-02-28 10:36:27.474245,1709112987.4742453,37.109375,-24.90234375,-35.64453125,35.64453125,-1.0,1.0,-1.0,0.0,6.m4v,8.0
2024-02-28 10:36:27.485963,1709112987.4859626,44.921875,-19.53125,-22.94921875,44.921875,-1.0,1.0,-1.0,0.0,6.m4v,8.0
2024-02-28 10:36:27.489868,1709112987.4898684,68.84765625,-11.23046875,-14.6484375,57.6171875,-1.0,1.0,-1.0,0.0,6.m4v,8.0
2024-02-28 10:36:27.493774,1709112987.4937742,75.68359375,-14.16015625,-16.6015625,61.03515625,-1.0,1.0,-1.0,0.0,6.m4v,8.0
2024-02-28 10:36:27.497682,1709112987.497682,77.1484375,-18.5546875,-31.25,56.640625,-1.0,1.0,-1.0,0.0,6.m4v,8.0
2024-02-28 10:36:27.501588,1709112987.501588,72.75390625,-25.87890625,-22.4609375,69.82421875,-1.0,1.0,-1.0,0.0,6.m4v,8.0
2024-02-28 10:36:27.505494,1709112987.5054936,53.7109375,-40.52734375,-5.859375,52.24609375,-1.0,1.0,-1.0,0.0,6.m4v,8.0
2024-02-28 10:36:27.509399,1709112987.5093994,52.24609375,-30.76171875,-34.66796875,36.1328125,-1.0,1.0,-1.0,0.0,6.m4v,8.0
2024-02-28 10:36:27.513305,1709112987.5133052,55.17578125,-0.9765625,-73.73046875,79.58984375,-1.0,1.0,-1.0,0.0,6.m4v,8.0
2024-02-28 10:36:27.517211,1709112987.517211,54.19921875,-3.90625,-40.52734375,55.6640625,-1.0,1.0,-1.0,0.0,6.m4v,8.0
2024-02-28 10:36:27.521117,1709112987.5211167,35.15625,-30.76171875,-1.953125,-2.9296875,-1.0,1.0,-1.0,0.0,6.m4v,8.0
2024-02-28 10:36:27.525023,1709112987.5250225,27.34375,-33.69140625,-14.16015625,16.6015625,-1.0,1.0,-1.0,0.0,6.m4v,8.0
2024-02-28 10:36:27.528928,1709112987.5289285,24.90234375,-27.34375,-27.34375,16.6015625,-1.0,1.0,-1.0,0.0,6.m4v,8.0
2024-02-28 10:36:27.532834,1709112987.532834,9.27734375,-42.48046875,-23.92578125,1.46484375,-1.0,1.0,-1.0,0.0,6.m4v,8.0
2024-02-28 10:36:27.536740,1709112987.5367398,14.6484375,-36.1328125,-20.99609375,-23.4375,-1.0,1.0,-1.0,0.0,6.m4v,8.0
2024-02-28 10:36:27.540646,1709112987.5406456,19.04296875,-7.8125,-39.0625,-10.25390625,-1.0,1.0,-1.0,0.0,6.m4v,8.0
2024-02-28 10:36:27.544553,1709112987.5445533,-1.46484375,-12.20703125,-75.1953125,38.0859375,-1.0,1.0,-1.0,0.0,6.m4v,8.0
2024-02-28 10:36:27.548459,1709112987.548459,13.671875,-15.625,-65.4296875,32.71484375,-1.0,1.0,-1.0,0.0,6.m4v,8.0
2024-02-28 10:36:27.552365,1709112987.5523648,6.8359375,-12.6953125,-25.390625,-16.11328125,-1.0,1.0,-1.0,0.0,6.m4v,8.0
2024-02-28 10:36:27.556271,1709112987.5562706,-29.296875,-22.4609375,-19.04296875,-31.25,-1.0,1.0,-1.0,0.0,6.m4v,8.0
2024-02-28 10:36:27.560176,1709112987.5601764,-43.45703125,-31.25,-29.296875,-16.6015625,-1.0,1.0,-1.0,0.0,6.m4v,8.0
2024-02-28 10:36:27.564082,1709112987.564082,-46.38671875,-35.64453125,-33.69140625,-46.38671875,-1.0,1.0,-1.0,0.0,6.m4v,8.0
2024-02-28 10:36:27.567988,1709112987.567988,-38.57421875,-30.2734375,-18.06640625,-48.33984375,-1.0,1.0,-1.0,0.0,6.m4v,8.0
2024-02-28 10:36:27.571894,1709112987.5718937,-47.8515625,-28.3203125,-21.97265625,-53.22265625,-1.0,1.0,-1.0,0.0,6.m4v,8.0
2024-02-28 10:36:27.575799,1709112987.5757997,-45.41015625,-33.203125,-47.8515625,-42.48046875,-1.0,1.0,-1.0,0.0,6.m4v,8.0
2024-02-28 10:36:27.579705,1709112987.5797052,-25.87890625,-25.390625,-52.24609375,1.46484375,-1.0,1.0,-1.0,0.0,6.m4v,8.0
2024-02-28 10:36:27.583611,1709112987.583611,-36.1328125,-20.99609375,-50.78125,-17.578125,-1.0,1.0,-1.0,0.0,6.m4v,8.0
2024-02-28 10:36:27.587517,1709112987.5875168,-64.453125,-31.73828125,-14.6484375,-42.48046875,-1.0,1.0,-1.0,0.0,6.m4v,8.0
2024-02-28 10:36:27.591424,1709112987.5914242,-64.94140625,-35.64453125,13.18359375,-51.26953125,-1.0,1.0,-1.0,0.0,6.m4v,8.0
2024-02-28 10:36:27.595330,1709112987.59533,-77.1484375,-24.4140625,-18.06640625,-77.1484375,-1.0,1.0,-1.0,0.0,6.m4v,8.0
2024-02-28 10:36:27.599236,1709112987.5992358,-86.42578125,-30.2734375,-45.8984375,-89.35546875,-1.0,1.0,-1.0,0.0,6.m4v,8.0
2024-02-28 10:36:27.603142,1709112987.6031415,-79.1015625,-29.78515625,-53.22265625,-77.1484375,-1.0,1.0,-1.0,0.0,6.m4v,8.0
2024-02-28 10:36:27.607047,1709112987.607047,-74.70703125,-6.8359375,-36.62109375,-64.453125,-1.0,1.0,-1.0,0.0,6.m4v,8.0
2024-02-28 10:36:27.610953,1709112987.610953,-76.171875,-20.5078125,-18.06640625,-66.40625,-1.0,1.0,-1.0,0.0,6.m4v,8.0
2024-02-28 10:36:27.614859,1709112987.6148589,-69.3359375,-38.0859375,-24.4140625,-83.984375,-1.0,1.0,-1.0,0.0,6.m4v,8.0
2024-02-28 10:36:27.814060,1709112987.81406,5.37109375,-40.52734375,-58.59375,26.85546875,-1.0,1.0,-1.0,0.0,6.m4v,8.0
2024-02-28 10:36:27.817966,1709112987.8179655,9.765625,-32.2265625,-44.921875,-2.9296875,-1.0,1.0,-1.0,0.0,6.m4v,8.0
2024-02-28 10:36:27.821872,1709112987.8218715,3.41796875,-41.50390625,-25.87890625,-24.4140625,-1.0,1.0,-1.0,0.0,6.m4v,8.0
2024-02-28 10:36:27.825779,1709112987.8257794,-7.8125,-34.66796875,-35.64453125,-19.53125,-1.0,1.0,-1.0,0.0,6.m4v,8.0
2024-02-28 10:36:28.169502,1709112988.169502,-18.06640625,-5.859375,-17.578125,-24.4140625,-1.0,1.0,-1.0,0.0,6.m4v,8.0
2024-02-28 10:36:28.177314,1709112988.1773136,-18.5546875,-23.92578125,-15.13671875,7.8125,-1.0,1.0,-1.0,0.0,6.m4v,8.0
2024-02-28 10:36:28.185125,1709112988.185125,7.8125,-37.109375,-47.8515625,3.41796875,-1.0,1.0,-1.0,0.0,6.m4v,8.0
2024-02-28 10:36:28.192937,1709112988.192937,4.39453125,-27.83203125,-69.3359375,-23.4375,-1.0,1.0,-1.0,0.0,6.m4v,8.0
2024-02-28 10:36:28.200750,1709112988.2007504,-24.90234375,-12.20703125,-11.23046875,-41.50390625,-1.0,1.0,-1.0,0.0,6.m4v,8.0
2024-02-28 10:36:28.208562,1709112988.208562,9.27734375,-22.4609375,-17.578125,18.06640625,-1.0,1.0,-1.0,0.0,6.m4v,8.0
2024-02-28 10:36:28.216373,1709112988.2163734,-31.73828125,-22.94921875,-32.2265625,4.39453125,-1.0,1.0,-1.0,0.0,6.m4v,8.0
2024-02-28 10:36:28.224185,1709112988.224185,-17.578125,-25.87890625,-68.359375,-34.66796875,-1.0,1.0,-1.0,0.0,6.m4v,8.0
2024-02-28 10:36:28.231997,1709112988.2319963,-15.13671875,-32.2265625,-22.4609375,-36.62109375,-1.0,1.0,-1.0,0.0,6.m4v,8.0
2024-02-28 10:36:28.239808,1709112988.239808,-18.5546875,-21.97265625,-1.953125,-22.4609375,-1.0,1.0,-1.0,0.0,6.m4v,8.0
2024-02-28 10:36:28.247622,1709112988.2476215,-33.203125,-30.76171875,-21.484375,-17.578125,-1.0,1.0,-1.0,0.0,6.m4v,8.0
2024-02-28 10:36:28.255433,1709112988.255433,-23.92578125,-29.296875,-48.828125,-10.25390625,-1.0,1.0,-1.0,0.0,6.m4v,8.0
2024-02-28 10:36:28.282773,1709112988.2827735,-52.24609375,-35.15625,-30.76171875,-81.54296875,-1.0,1.0,-1.0,0.0,6.m4v,8.0
2024-02-28 10:36:28.286679,1709112988.2866793,-56.640625,-32.71484375,2.44140625,-73.73046875,-1.0,1.0,-1.0,0.0,6.m4v,8.0
2024-02-28 10:36:28.290585,1709112988.290585,-36.1328125,-32.71484375,10.7421875,-41.9921875,-1.0,1.0,-1.0,0.0,6.m4v,8.0
2024-02-28 10:36:28.294493,1709112988.2944927,-25.390625,-31.73828125,-16.11328125,-25.87890625,-1.0,1.0,-1.0,0.0,6.m4v,8.0
2024-02-28 10:36:28.298398,1709112988.2983985,-36.1328125,-34.66796875,-26.85546875,-21.97265625,-1.0,1.0,-1.0,0.0,6.m4v,8.0
2024-02-28 10:36:28.302304,1709112988.3023045,-76.171875,-43.45703125,-20.01953125,-47.8515625,-1.0,1.0,-1.0,0.0,6.m4v,8.0
2024-02-28 10:36:28.306210,1709112988.30621,-78.61328125,-39.0625,-20.5078125,-68.84765625,-1.0,1.0,-1.0,0.0,6.m4v,8.0
2024-02-28 10:36:28.310116,1709112988.3101158,-62.5,-34.1796875,-25.87890625,-71.77734375,-1.0,1.0,-1.0,0.0,6.m4v,8.0
2024-02-28 10:36:28.314022,1709112988.3140216,-65.4296875,-31.25,-44.921875,-80.56640625,-1.0,1.0,-1.0,0.0,6.m4v,8.0
2024-02-28 10:36:28.317927,1709112988.3179274,-63.4765625,-27.83203125,-86.42578125,-26.3671875,-1.0,1.0,-1.0,0.0,6.m4v,8.0
2024-02-28 10:36:28.321833,1709112988.3218331,-41.9921875,-30.2734375,-89.84375,20.99609375,-1.0,1.0,-1.0,0.0,6.m4v,8.0
2024-02-28 10:36:28.325739,1709112988.325739,-43.9453125,-48.33984375,-38.0859375,-53.22265625,-1.0,1.0,-1.0,0.0,6.m4v,8.0
2024-02-28 10:36:28.329645,1709112988.329645,-74.21875,-54.19921875,-6.34765625,-85.44921875,-1.0,1.0,-1.0,0.0,6.m4v,8.0
2024-02-28 10:36:28.333550,1709112988.3335505,-77.63671875,-42.48046875,-11.71875,-38.0859375,-1.0,1.0,-1.0,0.0,6.m4v,8.0
2024-02-28 10:36:28.337456,1709112988.3374562,-77.1484375,-36.1328125,-12.6953125,-60.05859375,-1.0,1.0,-1.0,0.0,6.m4v,8.0
2024-02-28 10:36:28.341364,1709112988.341364,-94.23828125,-43.45703125,-8.7890625,-73.73046875,-1.0,1.0,-1.0,0.0,6.m4v,8.0
2024-02-28 10:36:28.345270,1709112988.3452697,-81.0546875,-51.26953125,-18.06640625,-73.2421875,-1.0,1.0,-1.0,0.0,6.m4v,8.0
2024-02-28 10:36:28.349175,1709112988.3491757,-65.91796875,-40.0390625,-17.578125,-73.2421875,-1.0,1.0,-1.0,0.0,6.m4v,8.0
2024-02-28 10:36:28.353081,1709112988.3530812,-78.125,-26.3671875,-51.26953125,-74.70703125,-1.0,1.0,-1.0,0.0,6.m4v,8.0
2024-02-28 10:36:28.356987,1709112988.356987,-84.9609375,-26.3671875,-88.8671875,-74.21875,-1.0,1.0,-1.0,0.0,6.m4v,8.0
2024-02-28 10:36:28.360893,1709112988.3608928,-80.078125,-23.92578125,-67.87109375,-66.89453125,-1.0,1.0,-1.0,0.0,6.m4v,8.0
2024-02-28 10:36:28.364799,1709112988.3647983,-80.078125,-15.13671875,-31.73828125,-62.98828125,-1.0,1.0,-1.0,0.0,6.m4v,8.0
2024-02-28 10:36:28.368704,1709112988.3687043,-76.66015625,-30.76171875,-13.18359375,-66.40625,-1.0,1.0,-1.0,0.0,6.m4v,8.0
2024-02-28 10:36:28.372610,1709112988.37261,-83.0078125,-52.24609375,-32.2265625,-80.078125,-1.0,1.0,-1.0,0.0,6.m4v,8.0
2024-02-28 10:36:28.376516,1709112988.376516,-93.26171875,-47.8515625,-48.33984375,-102.05078125,-1.0,1.0,-1.0,0.0,6.m4v,8.0
2024-02-28 10:36:28.380422,1709112988.3804216,-85.9375,-26.85546875,-26.3671875,-59.08203125,-1.0,1.0,-1.0,0.0,6.m4v,8.0
2024-02-28 10:36:28.384327,1709112988.3843274,-83.49609375,-21.484375,-56.640625,-55.6640625,-1.0,1.0,-1.0,0.0,6.m4v,8.0
2024-02-28 10:36:28.388235,1709112988.3882346,-97.16796875,-48.33984375,-61.03515625,-104.00390625,-1.0,1.0,-1.0,0.0,6.m4v,8.0
2024-02-28 10:36:28.392140,1709112988.3921404,-102.5390625,-56.15234375,-16.6015625,-112.3046875,-1.0,1.0,-1.0,0.0,6.m4v,8.0
2024-02-28 10:36:28.396046,1709112988.3960462,-118.65234375,-48.828125,-8.30078125,-133.7890625,-1.0,1.0,-1.0,0.0,6.m4v,8.0
2024-02-28 10:36:28.399952,1709112988.399952,-135.7421875,-43.9453125,-11.71875,-145.99609375,-1.0,1.0,-1.0,0.0,6.m4v,8.0
2024-02-28 10:36:28.403858,1709112988.4038577,-115.72265625,-25.87890625,-24.4140625,-112.3046875,-1.0,1.0,-1.0,0.0,6.m4v,8.0
2024-02-28 10:36:28.407763,1709112988.4077635,-84.9609375,-21.97265625,-47.8515625,-82.51953125,-1.0,1.0,-1.0,0.0,6.m4v,8.0
2024-02-28 10:36:28.411669,1709112988.4116693,-69.3359375,-22.4609375,-62.98828125,-63.4765625,-1.0,1.0,-1.0,0.0,6.m4v,8.0
2024-02-28 10:36:28.415575,1709112988.415575,-57.12890625,-26.85546875,-64.453125,-52.24609375,-1.0,1.0,-1.0,0.0,6.m4v,8.0
2024-02-28 10:36:28.419481,1709112988.4194808,-56.15234375,-57.6171875,-58.10546875,-69.82421875,-1.0,1.0,-1.0,0.0,6.m4v,8.0
2024-02-28 10:36:28.423387,1709112988.4233866,-70.80078125,-56.640625,-27.83203125,-82.03125,-1.0,1.0,-1.0,0.0,6.m4v,8.0
2024-02-28 10:36:28.427292,1709112988.4272923,-78.125,-32.71484375,-0.9765625,-79.1015625,-1.0,1.0,-1.0,0.0,6.m4v,8.0
2024-02-28 10:36:28.431198,1709112988.431198,-67.87109375,-23.4375,-25.390625,-67.87109375,-1.0,1.0,-1.0,0.0,6.m4v,8.0
2024-02-28 10:36:28.688989,1709112988.688989,-20.99609375,-29.78515625,-21.97265625,-31.73828125,-1.0,1.0,-1.0,0.0,6.m4v,8.0
2024-02-28 10:36:28.692895,1709112988.6928947,-19.04296875,-18.5546875,-23.4375,-14.6484375,-1.0,1.0,-1.0,0.0,6.m4v,8.0
2024-02-28 10:36:28.696800,1709112988.6968005,-9.765625,-27.34375,-36.62109375,-12.20703125,-1.0,1.0,-1.0,0.0,6.m4v,8.0
2024-02-28 10:36:28.700706,1709112988.7007062,-0.48828125,-26.3671875,-41.50390625,5.37109375,-1.0,1.0,-1.0,0.0,6.m4v,8.0
2024-02-28 10:36:28.704612,1709112988.704612,-21.484375,-32.2265625,-39.0625,-16.6015625,-1.0,1.0,-1.0,0.0,6.m4v,8.0
2024-02-28 10:36:28.708518,1709112988.7085178,-33.203125,-41.015625,-36.1328125,-14.6484375,-1.0,1.0,-1.0,0.0,6.m4v,8.0
2024-02-28 10:36:28.712424,1709112988.7124236,-27.34375,-33.203125,-15.625,-41.9921875,-1.0,1.0,-1.0,0.0,6.m4v,8.0
2024-02-28 10:36:28.716331,1709112988.7163308,-41.50390625,-33.203125,-0.9765625,-67.87109375,-1.0,1.0,-1.0,0.0,6.m4v,8.0
2024-02-28 10:36:28.720237,1709112988.7202363,-54.6875,-26.3671875,-16.11328125,-70.3125,-1.0,1.0,-1.0,0.0,6.m4v,8.0
2024-02-28 10:36:28.724143,1709112988.7241426,-47.8515625,-18.5546875,-31.25,-20.5078125,-1.0,1.0,-1.0,0.0,6.m4v,8.0
2024-02-28 10:36:28.728048,1709112988.7280483,-28.80859375,-16.11328125,-58.59375,22.94921875,-1.0,1.0,-1.0,0.0,6.m4v,8.0
2024-02-28 10:36:28.731954,1709112988.731954,-34.66796875,-20.5078125,-67.3828125,-35.15625,-1.0,1.0,-1.0,0.0,6.m4v,8.0
2024-02-28 10:36:28.735860,1709112988.73586,-37.59765625,-35.64453125,-34.66796875,-48.828125,-1.0,1.0,-1.0,0.0,6.m4v,8.0
2024-02-28 10:36:28.739766,1709112988.7397656,-26.85546875,-35.64453125,-23.4375,-14.6484375,-1.0,1.0,-1.0,0.0,6.m4v,8.0
2024-02-28 10:36:28.743671,1709112988.7436714,-29.296875,-32.71484375,-22.4609375,-15.13671875,-1.0,1.0,-1.0,0.0,6.m4v,8.0
2024-02-28 10:36:28.747577,1709112988.7475772,-26.85546875,-33.69140625,-6.34765625,-33.203125,-1.0,1.0,-1.0,0.0,6.m4v,8.0
2024-02-28 10:36:28.806165,1709112988.8061657,-30.2734375,-40.0390625,-6.34765625,-32.2265625,-1.0,1.0,-1.0,0.0,6.m4v,8.0
2024-02-28 10:36:28.810072,1709112988.8100724,-28.80859375,-40.0390625,-22.94921875,-49.8046875,-1.0,1.0,-1.0,0.0,6.m4v,8.0
2024-02-28 10:36:28.813978,1709112988.8139784,-13.18359375,-22.4609375,-32.2265625,-49.8046875,-1.0,1.0,-1.0,0.0,6.m4v,8.0
2024-02-28 10:36:28.817884,1709112988.8178842,-42.96875,-22.4609375,-28.3203125,-49.8046875,-1.0,1.0,-1.0,0.0,6.m4v,8.0
2024-02-28 10:36:28.821790,1709112988.82179,-50.78125,-32.71484375,-40.52734375,-27.83203125,-1.0,1.0,-1.0,0.0,6.m4v,8.0
2024-02-28 10:36:28.825696,1709112988.8256958,-30.76171875,-36.62109375,-47.8515625,-49.8046875,-1.0,1.0,-1.0,0.0,6.m4v,8.0
2024-02-28 10:36:28.829602,1709112988.8296015,-28.3203125,-28.80859375,-38.0859375,-17.578125,-1.0,1.0,-1.0,0.0,6.m4v,8.0
2024-02-28 10:36:28.837413,1709112988.837413,10.25390625,-42.48046875,-26.3671875,5.37109375,-1.0,1.0,-1.0,0.0,6.m4v,8.0
2024-02-28 10:36:28.837413,1709112988.837413,10.25390625,-42.48046875,-26.3671875,5.37109375,-1.0,1.0,-1.0,0.0,6.m4v,8.0
2024-02-28 10:36:28.841319,1709112988.8413188,8.30078125,-33.203125,-24.4140625,-39.0625,-1.0,1.0,-1.0,0.0,6.m4v,8.0
2024-02-28 10:36:28.841319,1709112988.8413188,8.30078125,-33.203125,-24.4140625,-39.0625,-1.0,1.0,-1.0,0.0,6.m4v,8.0
2024-02-28 10:36:28.845225,1709112988.8452246,-7.8125,-16.6015625,-45.8984375,-45.8984375,-1.0,1.0,-1.0,0.0,6.m4v,8.0
2024-02-28 10:36:28.845225,1709112988.8452246,-7.8125,-16.6015625,-45.8984375,-45.8984375,-1.0,1.0,-1.0,0.0,6.m4v,8.0
2024-02-28 10:36:28.849130,1709112988.8491304,-20.01953125,-22.4609375,-41.015625,6.34765625,-1.0,1.0,-1.0,0.0,6.m4v,8.0
2024-02-28 10:36:28.849130,1709112988.8491304,-20.01953125,-22.4609375,-41.015625,6.34765625,-1.0,1.0,-1.0,0.0,6.m4v,8.0
2024-02-28 10:36:28.853036,1709112988.8530362,-25.390625,-36.62109375,-17.08984375,14.6484375,-1.0,1.0,-1.0,0.0,6.m4v,8.0
2024-02-28 10:36:28.853036,1709112988.8530362,-25.390625,-36.62109375,-17.08984375,14.6484375,-1.0,1.0,-1.0,0.0,6.m4v,8.0
2024-02-28 10:36:28.856943,1709112988.8569431,-11.71875,-27.83203125,-41.50390625,-16.6015625,-1.0,1.0,-1.0,0.0,6.m4v,8.0
2024-02-28 10:36:28.856943,1709112988.8569431,-11.71875,-27.83203125,-41.50390625,-16.6015625,-1.0,1.0,-1.0,0.0,6.m4v,8.0
2024-02-28 10:36:28.856943,1709112988.8569431,-11.71875,-27.83203125,-41.50390625,-16.6015625,-1.0,1.0,-1.0,0.0,6.m4v,8.0
2024-02-28 10:36:28.860849,1709112988.860849,-17.08984375,-19.04296875,-43.45703125,-29.296875,-1.0,1.0,-1.0,0.0,6.m4v,8.0
2024-02-28 10:36:28.860849,1709112988.860849,-17.08984375,-19.04296875,-43.45703125,-29.296875,-1.0,1.0,-1.0,0.0,6.m4v,8.0
2024-02-28 10:36:28.860849,1709112988.860849,-17.08984375,-19.04296875,-43.45703125,-29.296875,-1.0,1.0,-1.0,0.0,6.m4v,8.0
2024-02-28 10:36:28.864755,1709112988.864755,-31.73828125,-32.2265625,-20.99609375,-35.15625,-1.0,1.0,-1.0,0.0,6.m4v,8.0
2024-02-28 10:36:28.864755,1709112988.864755,-31.73828125,-32.2265625,-20.99609375,-35.15625,-1.0,1.0,-1.0,0.0,6.m4v,8.0
2024-02-28 10:36:28.864755,1709112988.864755,-31.73828125,-32.2265625,-20.99609375,-35.15625,-1.0,1.0,-1.0,0.0,6.m4v,8.0
2024-02-28 10:36:28.868660,1709112988.8686604,-18.06640625,-41.50390625,-17.08984375,-9.765625,-1.0,1.0,-1.0,0.0,6.m4v,8.0
2024-02-28 10:36:28.868660,1709112988.8686604,-18.06640625,-41.50390625,-17.08984375,-9.765625,-1.0,1.0,-1.0,0.0,6.m4v,8.0
2024-02-28 10:36:28.868660,1709112988.8686604,-18.06640625,-41.50390625,-17.08984375,-9.765625,-1.0,1.0,-1.0,0.0,6.m4v,8.0
2024-02-28 10:36:28.872566,1709112988.8725662,-4.39453125,-37.59765625,-12.6953125,-3.41796875,-1.0,1.0,-1.0,0.0,6.m4v,8.0
2024-02-28 10:36:28.872566,1709112988.8725662,-4.39453125,-37.59765625,-12.6953125,-3.41796875,-1.0,1.0,-1.0,0.0,6.m4v,8.0
2024-02-28 10:36:28.872566,1709112988.8725662,-4.39453125,-37.59765625,-12.6953125,-3.41796875,-1.0,1.0,-1.0,0.0,6.m4v,8.0
2024-02-28 10:36:28.876472,1709112988.876472,-15.625,-27.83203125,-21.97265625,-30.2734375,-1.0,1.0,-1.0,0.0,6.m4v,8.0
2024-02-28 10:36:28.876472,1709112988.876472,-15.625,-27.83203125,-21.97265625,-30.2734375,-1.0,1.0,-1.0,0.0,6.m4v,8.0
2024-02-28 10:36:28.876472,1709112988.876472,-15.625,-27.83203125,-21.97265625,-30.2734375,-1.0,1.0,-1.0,0.0,6.m4v,8.0
2024-02-28 10:36:28.880378,1709112988.8803778,-19.04296875,-27.83203125,-54.19921875,-20.01953125,-1.0,1.0,-1.0,0.0,6.m4v,8.0
2024-02-28 10:36:28.880378,1709112988.8803778,-19.04296875,-27.83203125,-54.19921875,-20.01953125,-1.0,1.0,-1.0,0.0,6.m4v,8.0
2024-02-28 10:36:28.880378,1709112988.8803778,-19.04296875,-27.83203125,-54.19921875,-20.01953125,-1.0,1.0,-1.0,0.0,6.m4v,8.0
2024-02-28 10:36:28.884284,1709112988.8842835,-16.11328125,-40.0390625,-55.17578125,-11.71875,-1.0,1.0,-1.0,0.0,6.m4v,8.0
2024-02-28 10:36:28.884284,1709112988.8842835,-16.11328125,-40.0390625,-55.17578125,-11.71875,-1.0,1.0,-1.0,0.0,6.m4v,8.0
2024-02-28 10:36:28.884284,1709112988.8842835,-16.11328125,-40.0390625,-55.17578125,-11.71875,-1.0,1.0,-1.0,0.0,6.m4v,8.0
2024-02-28 10:36:28.888189,1709112988.8881893,9.27734375,-36.62109375,-27.83203125,-1.46484375,-1.0,1.0,-1.0,0.0,6.m4v,8.0
2024-02-28 10:36:28.888189,1709112988.8881893,9.27734375,-36.62109375,-27.83203125,-1.46484375,-1.0,1.0,-1.0,0.0,6.m4v,8.0
2024-02-28 10:36:28.888189,1709112988.8881893,9.27734375,-36.62109375,-27.83203125,-1.46484375,-1.0,1.0,-1.0,0.0,6.m4v,8.0
2024-02-28 10:36:28.892095,1709112988.892095,-3.90625,-29.78515625,-21.97265625,20.01953125,-1.0,1.0,-1.0,0.0,6.m4v,8.0
2024-02-28 10:36:28.892095,1709112988.892095,-3.90625,-29.78515625,-21.97265625,20.01953125,-1.0,1.0,-1.0,0.0,6.m4v,8.0
2024-02-28 10:36:28.892095,1709112988.892095,-3.90625,-29.78515625,-21.97265625,20.01953125,-1.0,1.0,-1.0,0.0,6.m4v,8.0
2024-02-28 10:36:28.896001,1709112988.8960009,-29.296875,-40.0390625,-29.78515625,-11.23046875,-1.0,1.0,-1.0,0.0,6.m4v,8.0
2024-02-28 10:36:28.896001,1709112988.8960009,-29.296875,-40.0390625,-29.78515625,-11.23046875,-1.0,1.0,-1.0,0.0,6.m4v,8.0
2024-02-28 10:36:28.899907,1709112988.8999066,-14.6484375,-43.9453125,-35.64453125,-20.5078125,-1.0,1.0,-1.0,0.0,6.m4v,8.0
2024-02-28 10:36:28.899907,1709112988.8999066,-14.6484375,-43.9453125,-35.64453125,-20.5078125,-1.0,1.0,-1.0,0.0,6.m4v,8.0
2024-02-28 10:36:28.903817,1709112988.903817,-13.671875,-30.2734375,-34.1796875,-36.1328125,-1.0,1.0,-1.0,0.0,6.m4v,8.0
2024-02-28 10:36:28.903817,1709112988.903817,-13.671875,-30.2734375,-34.1796875,-36.1328125,-1.0,1.0,-1.0,0.0,6.m4v,8.0
2024-02-28 10:36:28.907723,1709112988.9077227,-12.6953125,-22.94921875,-32.71484375,-19.04296875,-1.0,1.0,-1.0,0.0,6.m4v,8.0
2024-02-28 10:36:28.907723,1709112988.9077227,-12.6953125,-22.94921875,-32.71484375,-19.04296875,-1.0,1.0,-1.0,0.0,6.m4v,8.0
2024-02-28 10:36:28.911628,1709112988.9116285,-5.37109375,-27.83203125,-29.296875,6.34765625,-1.0,1.0,-1.0,0.0,6.m4v,8.0
2024-02-28 10:36:28.911628,1709112988.9116285,-5.37109375,-27.83203125,-29.296875,6.34765625,-1.0,1.0,-1.0,0.0,6.m4v,8.0
2024-02-28 10:36:28.915534,1709112988.9155345,-8.30078125,-30.2734375,-28.3203125,-19.04296875,-1.0,1.0,-1.0,0.0,6.m4v,8.0
2024-02-28 10:36:28.915534,1709112988.9155345,-8.30078125,-30.2734375,-28.3203125,-19.04296875,-1.0,1.0,-1.0,0.0,6.m4v,8.0
2024-02-28 10:36:28.919440,1709112988.91944,-26.85546875,-41.9921875,-25.390625,-31.73828125,-1.0,1.0,-1.0,0.0,6.m4v,8.0
2024-02-28 10:36:28.919440,1709112988.91944,-26.85546875,-41.9921875,-25.390625,-31.73828125,-1.0,1.0,-1.0,0.0,6.m4v,8.0
2024-02-28 10:36:28.923346,1709112988.9233458,-29.296875,-41.9921875,-28.3203125,-25.87890625,-1.0,1.0,-1.0,0.0,6.m4v,8.0
2024-02-28 10:36:28.923346,1709112988.9233458,-29.296875,-41.9921875,-28.3203125,-25.87890625,-1.0,1.0,-1.0,0.0,6.m4v,8.0
2024-02-28 10:36:28.931157,1709112988.9311574,-15.625,-30.2734375,-50.29296875,-3.90625,-1.0,1.0,-1.0,0.0,6.m4v,8.0
2024-02-28 10:36:28.935063,1709112988.9350631,-17.578125,-38.57421875,-57.6171875,-0.9765625,-1.0,1.0,-1.0,0.0,6.m4v,8.0
2024-02-28 10:36:28.938969,1709112988.938969,-18.06640625,-44.43359375,-30.2734375,-31.73828125,-1.0,1.0,-1.0,0.0,6.m4v,8.0
2024-02-28 10:36:28.942875,1709112988.942875,-24.90234375,-37.59765625,-5.859375,-18.5546875,-1.0,1.0,-1.0,0.0,6.m4v,8.0
2024-02-28 10:36:28.946780,1709112988.9467804,-33.203125,-26.85546875,-15.625,-17.578125,-1.0,1.0,-1.0,0.0,6.m4v,8.0
2024-02-28 10:36:28.950690,1709112988.9506896,-42.96875,-38.0859375,-29.78515625,-27.83203125,-1.0,1.0,-1.0,0.0,6.m4v,8.0
2024-02-28 10:36:28.954595,1709112988.954595,-40.0390625,-40.0390625,-13.18359375,-42.96875,-1.0,1.0,-1.0,0.0,6.m4v,8.0
2024-02-28 10:36:28.958501,1709112988.958501,-42.96875,-25.390625,-3.41796875,-69.82421875,-1.0,1.0,-1.0,0.0,6.m4v,8.0
2024-02-28 10:36:28.962407,1709112988.9624069,-52.24609375,-28.3203125,-24.4140625,-48.33984375,-1.0,1.0,-1.0,0.0,6.m4v,8.0
2024-02-28 10:36:28.966313,1709112988.9663126,-59.08203125,-32.2265625,-37.59765625,-12.6953125,-1.0,1.0,-1.0,0.0,6.m4v,8.0
2024-02-28 10:36:28.970218,1709112988.9702184,-39.55078125,-26.85546875,-42.48046875,20.99609375,-1.0,1.0,-1.0,0.0,6.m4v,8.0
2024-02-28 10:36:28.974124,1709112988.9741242,-24.4140625,-25.390625,-42.48046875,-4.8828125,-1.0,1.0,-1.0,0.0,6.m4v,8.0
2024-02-28 10:36:28.978030,1709112988.97803,-28.3203125,-29.78515625,-53.7109375,-45.41015625,-1.0,1.0,-1.0,0.0,6.m4v,8.0
2024-02-28 10:36:28.981936,1709112988.9819355,-22.4609375,-33.69140625,-42.96875,-40.52734375,-1.0,1.0,-1.0,0.0,6.m4v,8.0
2024-02-28 10:36:28.985842,1709112988.9858415,-48.828125,-38.0859375,-16.11328125,-58.10546875,-1.0,1.0,-1.0,0.0,6.m4v,8.0
2024-02-28 10:36:28.989747,1709112988.9897473,-70.80078125,-40.52734375,-27.34375,-87.890625,-1.0,1.0,-1.0,0.0,6.m4v,8.0
2024-02-28 10:36:28.993653,1709112988.993653,-56.640625,-31.73828125,-19.04296875,-69.82421875,-1.0,1.0,-1.0,0.0,6.m4v,8.0
2024-02-28 10:36:28.997561,1709112988.9975607,-36.1328125,-48.33984375,-5.37109375,-46.38671875,-1.0,1.0,-1.0,0.0,6.m4v,8.0
2024-02-28 10:36:29.001467,1709112989.0014665,-40.52734375,-46.875,-18.06640625,-24.90234375,-1.0,1.0,-1.0,0.0,6.m4v,8.0
2024-02-28 10:36:29.345186,1709112989.3451865,-23.92578125,-54.6875,-6.34765625,-16.6015625,-1.0,1.0,-1.0,0.0,6.m4v,8.0
2024-02-28 10:36:29.352998,1709112989.352998,-24.4140625,-26.85546875,-29.296875,23.92578125,-1.0,1.0,-1.0,0.0,6.m4v,8.0
2024-02-28 10:36:29.356904,1709112989.3569038,-15.625,-33.69140625,-17.578125,-62.5,-1.0,1.0,-1.0,0.0,6.m4v,8.0
2024-02-28 10:36:29.364715,1709112989.364715,-33.203125,-27.83203125,-51.26953125,-21.484375,-1.0,1.0,-1.0,0.0,6.m4v,8.0
2024-02-28 10:36:29.368621,1709112989.368621,-21.97265625,-12.20703125,-68.359375,28.80859375,-1.0,1.0,-1.0,0.0,6.m4v,8.0
2024-02-28 10:36:29.376436,1709112989.376436,-14.6484375,-20.5078125,-6.8359375,-40.0390625,-1.0,1.0,-1.0,0.0,6.m4v,8.0
2024-02-28 10:36:29.380342,1709112989.3803418,-35.15625,-27.83203125,-4.39453125,-65.91796875,-1.0,1.0,-1.0,0.0,6.m4v,8.0
2024-02-28 10:36:29.388153,1709112989.3881533,-39.0625,-30.76171875,-14.6484375,-30.2734375,-1.0,1.0,-1.0,0.0,6.m4v,8.0
2024-02-28 10:36:29.392059,1709112989.392059,-2.44140625,-25.87890625,-31.73828125,-15.13671875,-1.0,1.0,-1.0,0.0,6.m4v,8.0
2024-02-28 10:36:29.399871,1709112989.3998706,-36.1328125,-26.85546875,-27.83203125,-40.52734375,-1.0,1.0,-1.0,0.0,6.m4v,8.0
2024-02-28 10:36:29.403776,1709112989.4037764,-46.38671875,-31.73828125,-27.34375,-33.203125,-1.0,1.0,-1.0,0.0,6.m4v,8.0
2024-02-28 10:36:29.411588,1709112989.411588,-38.57421875,-41.50390625,-27.34375,-22.4609375,-1.0,1.0,-1.0,0.0,6.m4v,8.0
2024-02-28 10:36:29.415494,1709112989.4154935,-48.33984375,-40.52734375,-22.94921875,3.41796875,-1.0,1.0,-1.0,0.0,6.m4v,8.0
2024-02-28 10:36:29.423307,1709112989.423307,-34.1796875,-38.57421875,-26.3671875,-54.6875,-1.0,1.0,-1.0,0.0,6.m4v,8.0
2024-02-28 10:36:29.427213,1709112989.4272127,-37.59765625,-39.0625,-43.9453125,-60.05859375,-1.0,1.0,-1.0,0.0,6.m4v,8.0
2024-02-28 10:36:29.435024,1709112989.4350245,-27.34375,-30.2734375,-48.33984375,0.0,-1.0,1.0,-1.0,0.0,6.m4v,8.0
2024-02-28 10:36:29.438930,1709112989.43893,-33.69140625,-34.66796875,-36.1328125,-24.4140625,-1.0,1.0,-1.0,0.0,6.m4v,8.0
2024-02-28 10:36:29.446742,1709112989.4467416,-29.78515625,-27.83203125,-29.296875,-40.0390625,-1.0,1.0,-1.0,0.0,6.m4v,8.0
2024-02-28 10:36:29.450647,1709112989.4506474,-16.6015625,-24.90234375,-33.69140625,-36.1328125,-1.0,1.0,-1.0,0.0,6.m4v,8.0
2024-02-28 10:36:29.458459,1709112989.458459,-28.3203125,-34.1796875,-35.15625,2.44140625,-1.0,1.0,-1.0,0.0,6.m4v,8.0
2024-02-28 10:36:29.462365,1709112989.462365,-30.76171875,-34.66796875,-24.4140625,-27.34375,-1.0,1.0,-1.0,0.0,6.m4v,8.0
2024-02-28 10:36:29.470178,1709112989.470178,-24.4140625,-45.41015625,-22.94921875,-43.45703125,-1.0,1.0,-1.0,0.0,6.m4v,8.0
2024-02-28 10:36:29.474084,1709112989.4740837,-28.80859375,-32.2265625,-31.73828125,-0.48828125,-1.0,1.0,-1.0,0.0,6.m4v,8.0
2024-02-28 10:36:29.481895,1709112989.4818952,-22.94921875,-36.1328125,-28.3203125,-11.23046875,-1.0,1.0,-1.0,0.0,6.m4v,8.0
2024-02-28 10:36:29.485801,1709112989.485801,-31.25,-28.3203125,-44.43359375,-58.10546875,-1.0,1.0,-1.0,0.0,6.m4v,8.0
2024-02-28 10:36:29.493613,1709112989.4936123,-47.36328125,-20.99609375,-26.85546875,-45.8984375,-1.0,1.0,-1.0,0.0,6.m4v,8.0
2024-02-28 10:36:29.497518,1709112989.4975183,-52.734375,-30.76171875,-30.76171875,-35.64453125,-1.0,1.0,-1.0,0.0,6.m4v,8.0
2024-02-28 10:36:29.505330,1709112989.5053298,-24.90234375,-30.76171875,-36.62109375,-34.1796875,-1.0,1.0,-1.0,0.0,6.m4v,8.0
2024-02-28 10:36:29.509236,1709112989.5092356,-31.73828125,-32.71484375,-31.73828125,-23.92578125,-1.0,1.0,-1.0,0.0,6.m4v,8.0
2024-02-28 10:36:29.517049,1709112989.5170486,-27.83203125,-22.94921875,-33.69140625,-29.296875,-1.0,1.0,-1.0,0.0,6.m4v,8.0
2024-02-28 10:36:29.520954,1709112989.5209544,-34.1796875,-25.87890625,-31.25,-42.48046875,-1.0,1.0,-1.0,0.0,6.m4v,8.0
2024-02-28 10:36:29.528766,1709112989.528766,-30.2734375,-48.828125,-52.24609375,-17.08984375,-1.0,1.0,-1.0,0.0,6.m4v,8.0
2024-02-28 10:36:29.532672,1709112989.5326717,-34.66796875,-39.0625,-50.78125,17.08984375,-1.0,1.0,-1.0,0.0,6.m4v,8.0
2024-02-28 10:36:29.536577,1709112989.5365777,-32.2265625,-36.1328125,-34.66796875,-44.43359375,-1.0,1.0,-1.0,0.0,6.m4v,8.0
2024-02-28 10:36:29.540483,1709112989.5404832,-36.62109375,-31.73828125,-22.4609375,-62.98828125,-1.0,1.0,-1.0,0.0,6.m4v,8.0
2024-02-28 10:36:29.544389,1709112989.544389,-50.29296875,-38.57421875,-13.18359375,-44.921875,-1.0,1.0,-1.0,0.0,6.m4v,8.0
2024-02-28 10:36:29.552201,1709112989.5522006,-60.546875,-36.1328125,-46.875,-53.7109375,-1.0,1.0,-1.0,0.0,6.m4v,8.0
2024-02-28 10:36:29.556106,1709112989.5561063,-37.59765625,-21.97265625,-59.5703125,-26.3671875,-1.0,1.0,-1.0,0.0,6.m4v,8.0
2024-02-28 10:36:29.560014,1709112989.5600135,-17.578125,-17.578125,-42.48046875,-13.18359375,-1.0,1.0,-1.0,0.0,6.m4v,8.0
2024-02-28 10:36:29.563919,1709112989.5639193,-24.90234375,-20.99609375,-33.203125,-4.39453125,-1.0,1.0,-1.0,0.0,6.m4v,8.0
2024-02-28 10:36:29.567825,1709112989.567825,-15.625,-20.5078125,-15.13671875,-2.44140625,-1.0,1.0,-1.0,0.0,6.m4v,8.0
2024-02-28 10:36:29.571731,1709112989.5717309,-26.85546875,-36.1328125,-30.2734375,-28.80859375,-1.0,1.0,-1.0,0.0,6.m4v,8.0
2024-02-28 10:36:29.575637,1709112989.5756366,-40.0390625,-51.7578125,-46.38671875,-57.6171875,-1.0,1.0,-1.0,0.0,6.m4v,8.0
2024-02-28 10:36:29.579542,1709112989.5795424,-40.52734375,-66.40625,-27.34375,-55.17578125,-1.0,1.0,-1.0,0.0,6.m4v,8.0
2024-02-28 10:36:29.583448,1709112989.5834482,-46.875,-62.98828125,-14.6484375,-34.66796875,-1.0,1.0,-1.0,0.0,6.m4v,8.0
2024-02-28 10:36:29.587354,1709112989.587354,-35.15625,-36.62109375,-18.06640625,-42.96875,-1.0,1.0,-1.0,0.0,6.m4v,8.0
2024-02-28 10:36:29.591260,1709112989.5912597,-38.57421875,-18.06640625,-36.62109375,-32.71484375,-1.0,1.0,-1.0,0.0,6.m4v,8.0
2024-02-28 10:36:29.595165,1709112989.5951655,-33.203125,-10.25390625,-62.5,-14.16015625,-1.0,1.0,-1.0,0.0,6.m4v,8.0
2024-02-28 10:36:29.599071,1709112989.5990713,-34.66796875,-10.7421875,-59.5703125,-24.4140625,-1.0,1.0,-1.0,0.0,6.m4v,8.0
2024-02-28 10:36:29.602977,1709112989.602977,-52.24609375,-22.4609375,-32.2265625,-25.87890625,-1.0,1.0,-1.0,0.0,6.m4v,8.0
2024-02-28 10:36:29.606884,1709112989.6068842,-35.64453125,-17.578125,-24.90234375,-26.3671875,-1.0,1.0,-1.0,0.0,6.m4v,8.0
2024-02-28 10:36:29.610790,1709112989.61079,-27.83203125,-17.08984375,-40.0390625,-62.5,-1.0,1.0,-1.0,0.0,6.m4v,8.0
2024-02-28 10:36:29.614696,1709112989.6146958,-54.6875,-49.8046875,-41.015625,-86.42578125,-1.0,1.0,-1.0,0.0,6.m4v,8.0
2024-02-28 10:36:29.618602,1709112989.6186016,-63.96484375,-64.453125,-32.71484375,-65.4296875,-1.0,1.0,-1.0,0.0,6.m4v,8.0
2024-02-28 10:36:29.622507,1709112989.622507,-44.921875,-31.73828125,-39.0625,-25.390625,-1.0,1.0,-1.0,0.0,6.m4v,8.0
2024-02-28 10:36:29.626413,1709112989.626413,-31.73828125,-12.6953125,-51.26953125,-31.25,-1.0,1.0,-1.0,0.0,6.m4v,8.0
2024-02-28 10:36:29.630319,1709112989.6303189,-41.015625,-31.73828125,-41.50390625,-28.80859375,-1.0,1.0,-1.0,0.0,6.m4v,8.0
2024-02-28 10:36:29.634225,1709112989.634225,-23.92578125,-35.64453125,-20.01953125,-2.9296875,-1.0,1.0,-1.0,0.0,6.m4v,8.0
2024-02-28 10:36:29.638130,1709112989.6381304,-25.390625,-31.25,-20.99609375,-21.97265625,-1.0,1.0,-1.0,0.0,6.m4v,8.0
2024-02-28 10:36:29.642036,1709112989.6420362,-55.17578125,-40.52734375,-30.76171875,-35.15625,-1.0,1.0,-1.0,0.0,6.m4v,8.0
2024-02-28 10:36:29.645942,1709112989.645942,-48.33984375,-34.66796875,-13.671875,-39.55078125,-1.0,1.0,-1.0,0.0,6.m4v,8.0
2024-02-28 10:36:29.649848,1709112989.6498475,-36.62109375,-32.71484375,-4.8828125,-66.40625,-1.0,1.0,-1.0,0.0,6.m4v,8.0
2024-02-28 10:36:29.653756,1709112989.6537557,-33.203125,-32.71484375,-34.66796875,-59.08203125,-1.0,1.0,-1.0,0.0,6.m4v,8.0
2024-02-28 10:36:29.657661,1709112989.6576614,-34.66796875,-36.1328125,-46.38671875,-20.5078125,-1.0,1.0,-1.0,0.0,6.m4v,8.0
2024-02-28 10:36:29.661567,1709112989.6615672,-33.203125,-40.52734375,-29.78515625,-32.71484375,-1.0,1.0,-1.0,0.0,6.m4v,8.0
2024-02-28 10:36:29.665473,1709112989.665473,-32.71484375,-27.83203125,-36.62109375,-40.52734375,-1.0,1.0,-1.0,0.0,6.m4v,8.0
2024-02-28 10:36:29.669379,1709112989.6693788,-32.71484375,-15.13671875,-60.546875,-13.671875,-1.0,1.0,-1.0,0.0,6.m4v,8.0
2024-02-28 10:36:29.673285,1709112989.6732843,-23.4375,-15.13671875,-68.359375,-5.859375,-1.0,1.0,-1.0,0.0,6.m4v,8.0
2024-02-28 10:36:29.677190,1709112989.6771903,-31.25,-27.34375,-52.24609375,-36.62109375,-1.0,1.0,-1.0,0.0,6.m4v,8.0
2024-02-28 10:36:29.681096,1709112989.681096,-41.9921875,-41.50390625,-29.78515625,-33.69140625,-1.0,1.0,-1.0,0.0,6.m4v,8.0
2024-02-28 10:36:29.685002,1709112989.685002,-49.31640625,-45.8984375,-10.7421875,-32.71484375,-1.0,1.0,-1.0,0.0,6.m4v,8.0
2024-02-28 10:36:29.688908,1709112989.6889076,-41.9921875,-29.296875,-13.671875,-69.82421875,-1.0,1.0,-1.0,0.0,6.m4v,8.0
2024-02-28 10:36:29.692813,1709112989.6928134,-38.0859375,-36.62109375,-17.578125,-71.2890625,-1.0,1.0,-1.0,0.0,6.m4v,8.0
2024-02-28 10:36:29.696719,1709112989.6967192,-52.734375,-50.78125,-24.90234375,-53.22265625,-1.0,1.0,-1.0,0.0,6.m4v,8.0
2024-02-28 10:36:29.700627,1709112989.7006269,-44.43359375,-37.59765625,-42.96875,-59.5703125,-1.0,1.0,-1.0,0.0,6.m4v,8.0
2024-02-28 10:36:29.704533,1709112989.7045326,-16.6015625,-21.97265625,-32.2265625,-48.33984375,-1.0,1.0,-1.0,0.0,6.m4v,8.0
2024-02-28 10:36:29.708438,1709112989.7084384,-18.06640625,-14.6484375,-31.25,-36.1328125,-1.0,1.0,-1.0,0.0,6.m4v,8.0
2024-02-28 10:36:29.712344,1709112989.7123442,-51.26953125,-27.83203125,-29.78515625,-41.015625,-1.0,1.0,-1.0,0.0,6.m4v,8.0
2024-02-28 10:36:29.716250,1709112989.71625,-67.3828125,-48.828125,-15.13671875,-42.96875,-1.0,1.0,-1.0,0.0,6.m4v,8.0
2024-02-28 10:36:29.720156,1709112989.7201557,-47.8515625,-42.48046875,-13.18359375,-27.83203125,-1.0,1.0,-1.0,0.0,6.m4v,8.0
2024-02-28 10:36:29.724061,1709112989.7240615,-19.53125,-36.1328125,-30.2734375,-11.71875,-1.0,1.0,-1.0,0.0,6.m4v,8.0
2024-02-28 10:36:29.727967,1709112989.7279673,-6.8359375,-37.59765625,-47.36328125,7.32421875,-1.0,1.0,-1.0,0.0,6.m4v,8.0
2024-02-28 10:36:29.731873,1709112989.731873,-23.4375,-36.62109375,-39.55078125,1.953125,-1.0,1.0,-1.0,0.0,6.m4v,8.0
2024-02-28 10:36:29.735779,1709112989.7357788,-46.38671875,-37.59765625,-34.1796875,-25.87890625,-1.0,1.0,-1.0,0.0,6.m4v,8.0
2024-02-28 10:36:29.739685,1709112989.7396846,-41.015625,-16.6015625,-43.9453125,-43.9453125,-1.0,1.0,-1.0,0.0,6.m4v,8.0
2024-02-28 10:36:29.743590,1709112989.7435904,-31.73828125,-7.8125,-55.17578125,-57.6171875,-1.0,1.0,-1.0,0.0,6.m4v,8.0
2024-02-28 10:36:29.747498,1709112989.747498,-30.2734375,-20.01953125,-58.10546875,-43.45703125,-1.0,1.0,-1.0,0.0,6.m4v,8.0
2024-02-28 10:36:29.751404,1709112989.7514038,-36.1328125,-28.3203125,-39.0625,-33.69140625,-1.0,1.0,-1.0,0.0,6.m4v,8.0
2024-02-28 10:36:29.755310,1709112989.7553096,-29.296875,-38.57421875,-13.18359375,-45.8984375,-1.0,1.0,-1.0,0.0,6.m4v,8.0
2024-02-28 10:36:29.759215,1709112989.7592154,-10.25390625,-33.69140625,-1.953125,-52.24609375,-1.0,1.0,-1.0,0.0,6.m4v,8.0
2024-02-28 10:36:29.763121,1709112989.7631211,-18.06640625,-31.25,-13.18359375,6.8359375,-1.0,1.0,-1.0,0.0,6.m4v,8.0
2024-02-28 10:36:29.767027,1709112989.767027,-9.765625,-28.3203125,-43.9453125,58.10546875,-1.0,1.0,-1.0,0.0,6.m4v,8.0
2024-02-28 10:36:29.770933,1709112989.770933,-5.859375,-37.109375,-44.921875,-16.11328125,-1.0,1.0,-1.0,0.0,6.m4v,8.0
2024-02-28 10:36:29.774838,1709112989.7748384,-29.296875,-39.55078125,-27.83203125,-87.40234375,-1.0,1.0,-1.0,0.0,6.m4v,8.0
2024-02-28 10:36:29.778744,1709112989.7787442,-45.8984375,-27.34375,-37.109375,-71.2890625,-1.0,1.0,-1.0,0.0,6.m4v,8.0
2024-02-28 10:36:29.782650,1709112989.78265,-37.59765625,-28.3203125,-54.6875,-54.19921875,-1.0,1.0,-1.0,0.0,6.m4v,8.0
2024-02-28 10:36:29.786556,1709112989.7865558,-39.55078125,-28.3203125,-35.64453125,-45.8984375,-1.0,1.0,-1.0,0.0,6.m4v,8.0
2024-02-28 10:36:29.790462,1709112989.7904615,-34.66796875,-20.99609375,-33.203125,-43.45703125,-1.0,1.0,-1.0,0.0,6.m4v,8.0
2024-02-28 10:36:29.794369,1709112989.7943692,-25.390625,-22.94921875,-59.5703125,-49.8046875,-1.0,1.0,-1.0,0.0,6.m4v,8.0
2024-02-28 10:36:29.798275,1709112989.798275,-31.73828125,-34.1796875,-40.52734375,-43.45703125,-1.0,1.0,-1.0,0.0,6.m4v,8.0
2024-02-28 10:36:29.802181,1709112989.8021808,-21.97265625,-17.08984375,-11.23046875,-14.6484375,-1.0,1.0,-1.0,0.0,6.m4v,8.0
2024-02-28 10:36:29.806087,1709112989.8060863,-19.04296875,-7.32421875,-10.7421875,-2.9296875,-1.0,1.0,-1.0,0.0,6.m4v,8.0
2024-02-28 10:36:29.809992,1709112989.8099923,-35.64453125,-26.3671875,-13.18359375,-22.94921875,-1.0,1.0,-1.0,0.0,6.m4v,8.0
2024-02-28 10:36:29.813898,1709112989.813898,-40.52734375,-33.69140625,-28.3203125,-36.62109375,-1.0,1.0,-1.0,0.0,6.m4v,8.0
2024-02-28 10:36:29.817804,1709112989.817804,-27.34375,-37.109375,-34.1796875,-35.15625,-1.0,1.0,-1.0,0.0,6.m4v,8.0
2024-02-28 10:36:29.821710,1709112989.8217096,-20.01953125,-48.33984375,-36.1328125,-25.390625,-1.0,1.0,-1.0,0.0,6.m4v,8.0
2024-02-28 10:36:29.825615,1709112989.8256154,-39.55078125,-50.29296875,-44.921875,-38.0859375,-1.0,1.0,-1.0,0.0,6.m4v,8.0
2024-02-28 10:36:29.829521,1709112989.8295212,-50.78125,-40.52734375,-35.64453125,-34.1796875,-1.0,1.0,-1.0,0.0,6.m4v,8.0
2024-02-28 10:36:29.833427,1709112989.833427,-37.109375,-39.55078125,-17.578125,-11.71875,-1.0,1.0,-1.0,0.0,6.m4v,8.0
2024-02-28 10:36:29.837333,1709112989.8373327,-38.57421875,-24.90234375,-14.16015625,-22.94921875,-1.0,1.0,-1.0,0.0,6.m4v,8.0
2024-02-28 10:36:29.841240,1709112989.84124,-31.25,-1.953125,-35.64453125,11.23046875,-1.0,1.0,-1.0,0.0,6.m4v,8.0
2024-02-28 10:36:29.845146,1709112989.8451457,-23.4375,-0.48828125,-67.87109375,-8.30078125,-1.0,1.0,-1.0,0.0,6.m4v,8.0
2024-02-28 10:36:29.849051,1709112989.8490517,-33.203125,-24.4140625,-47.36328125,-69.3359375,-1.0,1.0,-1.0,0.0,6.m4v,8.0
2024-02-28 10:36:29.852957,1709112989.8529572,-46.875,-39.0625,-5.859375,-77.63671875,-1.0,1.0,-1.0,0.0,6.m4v,8.0
2024-02-28 10:36:29.856863,1709112989.856863,-56.15234375,-40.52734375,-10.25390625,-62.01171875,-1.0,1.0,-1.0,0.0,6.m4v,8.0
2024-02-28 10:36:29.860769,1709112989.8607688,-46.38671875,-38.57421875,-27.83203125,-54.6875,-1.0,1.0,-1.0,0.0,6.m4v,8.0
2024-02-28 10:36:29.864675,1709112989.8646746,-29.296875,-37.109375,-34.66796875,-55.17578125,-1.0,1.0,-1.0,0.0,6.m4v,8.0
2024-02-28 10:36:29.868580,1709112989.8685803,-27.83203125,-42.96875,-29.296875,-35.64453125,-1.0,1.0,-1.0,0.0,6.m4v,8.0
2024-02-28 10:36:29.872486,1709112989.872486,-33.69140625,-32.71484375,-26.3671875,-38.0859375,-1.0,1.0,-1.0,0.0,6.m4v,8.0
2024-02-28 10:36:29.876392,1709112989.876392,-30.2734375,-32.2265625,-40.52734375,-13.671875,-1.0,1.0,-1.0,0.0,6.m4v,8.0
2024-02-28 10:36:29.880298,1709112989.8802977,-35.64453125,-53.7109375,-50.78125,-1.46484375,-1.0,1.0,-1.0,0.0,6.m4v,8.0
2024-02-28 10:36:29.884203,1709112989.8842034,-30.76171875,-41.015625,-62.5,-29.296875,-1.0,1.0,-1.0,0.0,6.m4v,8.0
2024-02-28 10:36:29.888111,1709112989.8881109,-34.66796875,-21.484375,-41.9921875,-20.99609375,-1.0,1.0,-1.0,0.0,6.m4v,8.0
2024-02-28 10:36:29.892017,1709112989.8920166,-39.0625,-9.765625,-12.6953125,-9.765625,-1.0,1.0,-1.0,0.0,6.m4v,8.0
2024-02-28 10:36:29.895922,1709112989.8959224,-16.11328125,-22.94921875,-23.4375,-48.33984375,-1.0,1.0,-1.0,0.0,6.m4v,8.0
2024-02-28 10:36:29.899828,1709112989.8998282,-45.41015625,-41.015625,-36.62109375,-67.87109375,-1.0,1.0,-1.0,0.0,6.m4v,8.0
2024-02-28 10:36:29.903734,1709112989.903734,-72.75390625,-43.45703125,-33.203125,-68.84765625,-1.0,1.0,-1.0,0.0,6.m4v,8.0
2024-02-28 10:36:29.907640,1709112989.9076395,-38.0859375,-41.015625,-32.71484375,-52.734375,-1.0,1.0,-1.0,0.0,6.m4v,8.0
2024-02-28 10:36:29.911546,1709112989.9115455,-31.73828125,-31.73828125,-51.26953125,-33.69140625,-1.0,1.0,-1.0,0.0,6.m4v,8.0
2024-02-28 10:36:29.915451,1709112989.9154513,-37.59765625,-20.01953125,-48.828125,-23.4375,-1.0,1.0,-1.0,0.0,6.m4v,8.0
2024-02-28 10:36:29.919357,1709112989.919357,-30.76171875,-20.5078125,-30.76171875,-17.08984375,-1.0,1.0,-1.0,0.0,6.m4v,8.0
2024-02-28 10:36:29.923263,1709112989.9232628,-32.2265625,-30.2734375,-31.25,3.41796875,-1.0,1.0,-1.0,0.0,6.m4v,8.0
2024-02-28 10:36:29.927169,1709112989.9271686,-23.4375,-33.69140625,-34.66796875,-6.8359375,-1.0,1.0,-1.0,0.0,6.m4v,8.0
2024-02-28 10:36:29.931074,1709112989.9310744,-24.90234375,-42.48046875,-32.71484375,-35.15625,-1.0,1.0,-1.0,0.0,6.m4v,8.0
2024-02-28 10:36:29.934982,1709112989.9349816,-44.43359375,-47.8515625,-33.203125,-38.57421875,-1.0,1.0,-1.0,0.0,6.m4v,8.0
2024-02-28 10:36:29.938887,1709112989.9388874,-31.73828125,-29.296875,-26.85546875,-49.8046875,-1.0,1.0,-1.0,0.0,6.m4v,8.0
2024-02-28 10:36:29.942793,1709112989.9427931,-18.06640625,-26.3671875,-25.87890625,-35.64453125,-1.0,1.0,-1.0,0.0,6.m4v,8.0
2024-02-28 10:36:29.946699,1709112989.946699,-21.97265625,-35.64453125,-30.76171875,-47.36328125,-1.0,1.0,-1.0,0.0,6.m4v,8.0
2024-02-28 10:36:29.950605,1709112989.950605,-49.31640625,-36.62109375,-23.92578125,-52.24609375,-1.0,1.0,-1.0,0.0,6.m4v,8.0
2024-02-28 10:36:29.954510,1709112989.9545105,-47.36328125,-25.390625,-32.2265625,-41.015625,-1.0,1.0,-1.0,0.0,6.m4v,8.0
2024-02-28 10:36:29.958416,1709112989.9584162,-27.83203125,-17.578125,-43.9453125,-31.73828125,-1.0,1.0,-1.0,0.0,6.m4v,8.0
2024-02-28 10:36:29.962322,1709112989.962322,-31.73828125,-31.73828125,-36.62109375,11.71875,-1.0,1.0,-1.0,0.0,6.m4v,8.0
2024-02-28 10:36:29.966228,1709112989.9662278,-26.3671875,-41.9921875,-34.1796875,1.46484375,-1.0,1.0,-1.0,0.0,6.m4v,8.0
2024-02-28 10:36:29.970134,1709112989.9701335,-36.1328125,-41.9921875,-40.0390625,-9.27734375,-1.0,1.0,-1.0,0.0,6.m4v,8.0
2024-02-28 10:36:29.974039,1709112989.9740393,-45.41015625,-36.1328125,-51.26953125,-22.94921875,-1.0,1.0,-1.0,0.0,6.m4v,8.0
2024-02-28 10:36:29.977945,1709112989.977945,-30.76171875,-24.90234375,-52.24609375,-46.38671875,-1.0,1.0,-1.0,0.0,6.m4v,8.0
2024-02-28 10:36:29.981852,1709112989.981852,-35.64453125,-30.2734375,-37.109375,-33.69140625,-1.0,1.0,-1.0,0.0,6.m4v,8.0
2024-02-28 10:36:29.985758,1709112989.985758,-47.8515625,-37.59765625,-28.3203125,-51.26953125,-1.0,1.0,-1.0,0.0,6.m4v,8.0
2024-02-28 10:36:29.989664,1709112989.9896638,-40.0390625,-33.69140625,-22.4609375,-49.8046875,-1.0,1.0,-1.0,0.0,6.m4v,8.0
2024-02-28 10:36:29.993570,1709112989.9935696,-54.19921875,-40.0390625,-15.625,-58.10546875,-1.0,1.0,-1.0,0.0,6.m4v,8.0
2024-02-28 10:36:29.997475,1709112989.9974754,-47.36328125,-38.57421875,-28.3203125,-31.73828125,-1.0,1.0,-1.0,0.0,6.m4v,8.0
2024-02-28 10:36:30.001381,1709112990.0013812,-39.0625,-19.53125,-49.31640625,-15.13671875,-1.0,1.0,-1.0,0.0,6.m4v,8.0
2024-02-28 10:36:30.005287,1709112990.005287,-37.59765625,-24.90234375,-45.8984375,-29.78515625,-1.0,1.0,-1.0,0.0,6.m4v,8.0
2024-02-28 10:36:30.009193,1709112990.0091927,-43.9453125,-42.48046875,-28.3203125,-46.875,-1.0,1.0,-1.0,0.0,6.m4v,8.0
2024-02-28 10:36:30.013098,1709112990.0130985,-50.29296875,-41.9921875,-24.4140625,-73.73046875,-1.0,1.0,-1.0,0.0,6.m4v,8.0
2024-02-28 10:36:30.017004,1709112990.0170045,-41.50390625,-43.45703125,-27.34375,-51.7578125,-1.0,1.0,-1.0,0.0,6.m4v,8.0
2024-02-28 10:36:30.020910,1709112990.02091,-42.96875,-36.1328125,-38.0859375,-36.62109375,-1.0,1.0,-1.0,0.0,6.m4v,8.0
2024-02-28 10:36:30.024816,1709112990.0248158,-30.76171875,-23.92578125,-45.41015625,-39.55078125,-1.0,1.0,-1.0,0.0,6.m4v,8.0
2024-02-28 10:36:30.028723,1709112990.0287223,-6.8359375,-21.97265625,-60.546875,5.37109375,-1.0,1.0,-1.0,0.0,6.m4v,8.0
2024-02-28 10:36:30.032628,1709112990.0326283,-19.53125,-36.1328125,-66.89453125,-7.32421875,-1.0,1.0,-1.0,0.0,6.m4v,8.0
2024-02-28 10:36:30.036534,1709112990.036534,-54.19921875,-32.71484375,-31.73828125,-65.91796875,-1.0,1.0,-1.0,0.0,6.m4v,8.0
2024-02-28 10:36:30.040440,1709112990.0404398,-60.546875,-19.53125,-28.3203125,-46.875,-1.0,1.0,-1.0,0.0,6.m4v,8.0
2024-02-28 10:36:30.044346,1709112990.0443456,-42.96875,-24.90234375,-26.85546875,6.34765625,-1.0,1.0,-1.0,0.0,6.m4v,8.0
2024-02-28 10:36:30.048251,1709112990.0482514,-35.64453125,-29.78515625,-25.390625,-30.2734375,-1.0,1.0,-1.0,0.0,6.m4v,8.0
2024-02-28 10:36:30.052157,1709112990.0521572,-37.109375,-32.2265625,-45.41015625,-73.2421875,-1.0,1.0,-1.0,0.0,6.m4v,8.0
2024-02-28 10:36:30.056063,1709112990.056063,-26.3671875,-38.0859375,-34.66796875,-52.734375,-1.0,1.0,-1.0,0.0,6.m4v,8.0
2024-02-28 10:36:30.059969,1709112990.0599687,-18.5546875,-34.1796875,-32.2265625,-13.671875,-1.0,1.0,-1.0,0.0,6.m4v,8.0
2024-02-28 10:36:30.063874,1709112990.0638745,-21.484375,-28.80859375,-37.59765625,2.44140625,-1.0,1.0,-1.0,0.0,6.m4v,8.0
2024-02-28 10:36:30.067780,1709112990.0677805,-31.25,-36.62109375,-34.66796875,-33.69140625,-1.0,1.0,-1.0,0.0,6.m4v,8.0
2024-02-28 10:36:30.071686,1709112990.071686,-34.66796875,-55.6640625,-40.52734375,-51.7578125,-1.0,1.0,-1.0,0.0,6.m4v,8.0
2024-02-28 10:36:30.075594,1709112990.0755942,-50.29296875,-53.22265625,-29.78515625,-51.26953125,-1.0,1.0,-1.0,0.0,6.m4v,8.0
2024-02-28 10:36:30.079500,1709112990.0795,-50.29296875,-48.33984375,-17.578125,-41.015625,-1.0,1.0,-1.0,0.0,6.m4v,8.0
2024-02-28 10:36:30.083406,1709112990.0834055,-30.2734375,-47.36328125,-19.53125,-40.0390625,-1.0,1.0,-1.0,0.0,6.m4v,8.0
2024-02-28 10:36:30.087312,1709112990.0873115,-20.99609375,-27.34375,-34.66796875,-56.15234375,-1.0,1.0,-1.0,0.0,6.m4v,8.0
2024-02-28 10:36:30.091217,1709112990.0912173,-21.97265625,-15.625,-63.96484375,-39.55078125,-1.0,1.0,-1.0,0.0,6.m4v,8.0
2024-02-28 10:36:30.095123,1709112990.095123,-41.50390625,-16.11328125,-50.78125,-30.2734375,-1.0,1.0,-1.0,0.0,6.m4v,8.0
2024-02-28 10:36:30.099029,1709112990.0990288,-45.41015625,-25.390625,-27.83203125,-49.31640625,-1.0,1.0,-1.0,0.0,6.m4v,8.0
2024-02-28 10:36:30.102935,1709112990.1029346,-51.26953125,-43.9453125,-23.4375,-44.43359375,-1.0,1.0,-1.0,0.0,6.m4v,8.0
2024-02-28 10:36:30.106840,1709112990.1068404,-40.0390625,-41.50390625,-24.4140625,-22.94921875,-1.0,1.0,-1.0,0.0,6.m4v,8.0
2024-02-28 10:36:30.110746,1709112990.110746,-36.1328125,-32.71484375,-41.9921875,-20.99609375,-1.0,1.0,-1.0,0.0,6.m4v,8.0
2024-02-28 10:36:30.114652,1709112990.114652,-47.36328125,-37.109375,-34.1796875,-26.3671875,-1.0,1.0,-1.0,0.0,6.m4v,8.0
2024-02-28 10:36:30.118558,1709112990.1185577,-41.015625,-45.8984375,-29.296875,-34.1796875,-1.0,1.0,-1.0,0.0,6.m4v,8.0
2024-02-28 10:36:30.122465,1709112990.1224654,-33.69140625,-40.0390625,-31.73828125,-38.57421875,-1.0,1.0,-1.0,0.0,6.m4v,8.0
2024-02-28 10:36:30.126371,1709112990.1263711,-24.4140625,-31.73828125,-37.59765625,-35.15625,-1.0,1.0,-1.0,0.0,6.m4v,8.0
2024-02-28 10:36:30.130277,1709112990.130277,-11.23046875,-32.71484375,-54.6875,-20.99609375,-1.0,1.0,-1.0,0.0,6.m4v,8.0
2024-02-28 10:36:30.134183,1709112990.1341827,-24.4140625,-23.92578125,-38.0859375,-33.203125,-1.0,1.0,-1.0,0.0,6.m4v,8.0
2024-02-28 10:36:30.138088,1709112990.1380885,-39.55078125,-18.5546875,-22.4609375,-36.62109375,-1.0,1.0,-1.0,0.0,6.m4v,8.0
2024-02-28 10:36:30.141994,1709112990.1419942,-52.24609375,-24.4140625,-41.9921875,-48.33984375,-1.0,1.0,-1.0,0.0,6.m4v,8.0
2024-02-28 10:36:30.145900,1709112990.1459,-57.6171875,-35.15625,-44.43359375,-52.734375,-1.0,1.0,-1.0,0.0,6.m4v,8.0
2024-02-28 10:36:30.149806,1709112990.1498058,-46.875,-53.22265625,-13.671875,-36.62109375,-1.0,1.0,-1.0,0.0,6.m4v,8.0
2024-02-28 10:36:30.153712,1709112990.1537116,-52.734375,-57.6171875,-13.671875,-40.52734375,-1.0,1.0,-1.0,0.0,6.m4v,8.0
2024-02-28 10:36:30.157617,1709112990.157617,-47.36328125,-38.57421875,-50.29296875,-33.203125,-1.0,1.0,-1.0,0.0,6.m4v,8.0
2024-02-28 10:36:30.161523,1709112990.161523,-43.9453125,-31.25,-58.59375,-30.76171875,-1.0,1.0,-1.0,0.0,6.m4v,8.0
2024-02-28 10:36:30.165429,1709112990.1654289,-51.7578125,-34.1796875,-30.2734375,-48.33984375,-1.0,1.0,-1.0,0.0,6.m4v,8.0
2024-02-28 10:36:30.169336,1709112990.1693363,-32.2265625,-23.4375,-22.4609375,-17.578125,-1.0,1.0,-1.0,0.0,6.m4v,8.0
2024-02-28 10:36:30.173242,1709112990.173242,-13.18359375,-25.390625,-42.96875,-1.46484375,-1.0,1.0,-1.0,0.0,6.m4v,8.0
2024-02-28 10:36:30.177148,1709112990.177148,-4.8828125,-44.43359375,-25.390625,-34.1796875,-1.0,1.0,-1.0,0.0,6.m4v,8.0
2024-02-28 10:36:30.181054,1709112990.1810536,-41.015625,-42.96875,-6.34765625,-51.7578125,-1.0,1.0,-1.0,0.0,6.m4v,8.0
2024-02-28 10:36:30.184959,1709112990.1849594,-62.98828125,-34.1796875,-30.2734375,-58.10546875,-1.0,1.0,-1.0,0.0,6.m4v,8.0
2024-02-28 10:36:30.188865,1709112990.1888652,-54.19921875,-32.2265625,-54.6875,-59.5703125,-1.0,1.0,-1.0,0.0,6.m4v,8.0
2024-02-28 10:36:30.192771,1709112990.192771,-55.17578125,-42.48046875,-43.9453125,-43.45703125,-1.0,1.0,-1.0,0.0,6.m4v,8.0
2024-02-28 10:36:30.224019,1709112990.2240188,-15.625,-16.6015625,-42.96875,-40.52734375,-1.0,1.0,-1.0,0.0,6.m4v,8.0
2024-02-28 10:36:30.231830,1709112990.2318304,-33.69140625,-30.2734375,-40.0390625,-43.45703125,-1.0,1.0,-1.0,0.0,6.m4v,8.0
2024-02-28 10:36:30.239642,1709112990.239642,-30.76171875,-48.33984375,-43.9453125,-25.87890625,-1.0,1.0,-1.0,0.0,6.m4v,8.0
2024-02-28 10:36:30.247453,1709112990.2474537,-25.390625,-22.94921875,-48.33984375,-30.76171875,-1.0,1.0,-1.0,0.0,6.m4v,8.0
2024-02-28 10:36:30.251359,1709112990.2513592,-28.80859375,-37.109375,-26.85546875,-44.43359375,-1.0,1.0,-1.0,0.0,6.m4v,8.0
2024-02-28 10:36:30.255265,1709112990.255265,-22.4609375,-39.55078125,-19.53125,-49.8046875,-1.0,1.0,-1.0,0.0,6.m4v,8.0
2024-02-28 10:36:30.259171,1709112990.2591708,-11.71875,-29.296875,-36.62109375,-39.55078125,-1.0,1.0,-1.0,0.0,6.m4v,8.0
2024-02-28 10:36:30.263078,1709112990.263078,-17.578125,-21.97265625,-58.10546875,-23.4375,-1.0,1.0,-1.0,0.0,6.m4v,8.0
2024-02-28 10:36:30.266984,1709112990.2669835,-37.109375,-37.59765625,-43.9453125,-21.97265625,-1.0,1.0,-1.0,0.0,6.m4v,8.0
2024-02-28 10:36:30.302136,1709112990.3021357,-32.71484375,-32.2265625,-49.8046875,-25.87890625,-1.0,1.0,-1.0,0.0,6.m4v,8.0
2024-02-28 10:36:30.306041,1709112990.3060417,-24.4140625,-23.4375,-70.80078125,-19.53125,-1.0,1.0,-1.0,0.0,6.m4v,8.0
2024-02-28 10:36:30.309948,1709112990.3099484,-30.2734375,-25.87890625,-41.9921875,-32.71484375,-1.0,1.0,-1.0,0.0,6.m4v,8.0
2024-02-28 10:36:30.313854,1709112990.3138542,-36.62109375,-30.2734375,-20.99609375,-26.3671875,-1.0,1.0,-1.0,0.0,6.m4v,8.0
2024-02-28 10:36:30.317760,1709112990.31776,-30.2734375,-41.50390625,-25.390625,-29.296875,-1.0,1.0,-1.0,0.0,6.m4v,8.0
2024-02-28 10:36:30.321666,1709112990.3216658,-26.85546875,-61.5234375,-19.04296875,-33.203125,-1.0,1.0,-1.0,0.0,6.m4v,8.0
2024-02-28 10:36:30.325572,1709112990.3255715,-40.0390625,-54.6875,-21.484375,-18.5546875,-1.0,1.0,-1.0,0.0,6.m4v,8.0
2024-02-28 10:36:30.329477,1709112990.3294773,-33.69140625,-35.64453125,-33.203125,-30.2734375,-1.0,1.0,-1.0,0.0,6.m4v,8.0
2024-02-28 10:36:30.333383,1709112990.333383,-28.3203125,-41.015625,-21.484375,-4.8828125,-1.0,1.0,-1.0,0.0,6.m4v,8.0
2024-02-28 10:36:30.337289,1709112990.3372889,-37.59765625,-43.9453125,-17.08984375,0.0,-1.0,1.0,-1.0,0.0,6.m4v,8.0
2024-02-28 10:36:30.341195,1709112990.3411946,-22.94921875,-30.76171875,-56.15234375,-23.92578125,-1.0,1.0,-1.0,0.0,6.m4v,8.0
2024-02-28 10:36:30.345100,1709112990.3451004,-13.18359375,-12.20703125,-72.75390625,-6.34765625,-1.0,1.0,-1.0,0.0,6.m4v,8.0
2024-02-28 10:36:30.349006,1709112990.3490062,-18.5546875,-16.6015625,-28.80859375,-21.97265625,-1.0,1.0,-1.0,0.0,6.m4v,8.0
2024-02-28 10:36:30.352912,1709112990.352912,-39.0625,-44.921875,-18.06640625,-44.921875,-1.0,1.0,-1.0,0.0,6.m4v,8.0
2024-02-28 10:36:30.356819,1709112990.356819,-50.78125,-50.78125,-43.45703125,-53.22265625,-1.0,1.0,-1.0,0.0,6.m4v,8.0
2024-02-28 10:36:30.360725,1709112990.3607247,-40.0390625,-37.109375,-26.3671875,-61.5234375,-1.0,1.0,-1.0,0.0,6.m4v,8.0
2024-02-28 10:36:30.364630,1709112990.3646305,-38.0859375,-38.0859375,-9.765625,-44.43359375,-1.0,1.0,-1.0,0.0,6.m4v,8.0
2024-02-28 10:36:30.368536,1709112990.3685362,-47.36328125,-40.52734375,-34.1796875,-41.9921875,-1.0,1.0,-1.0,0.0,6.m4v,8.0
2024-02-28 10:36:30.380254,1709112990.3802536,-42.96875,-41.9921875,-50.29296875,-26.3671875,-1.0,1.0,-1.0,0.0,6.m4v,8.0
2024-02-28 10:36:30.391971,1709112990.3919709,-62.5,-48.828125,-17.578125,-75.68359375,-1.0,1.0,-1.0,0.0,6.m4v,8.0
2024-02-28 10:36:30.403691,1709112990.4036906,-33.69140625,-29.296875,-7.32421875,-31.25,-1.0,1.0,-1.0,0.0,6.m4v,8.0
2024-02-28 10:36:30.415408,1709112990.415408,-30.2734375,-24.90234375,-69.3359375,-11.71875,-1.0,1.0,-1.0,0.0,6.m4v,8.0
2024-02-28 10:36:30.427125,1709112990.4271252,-8.7890625,-33.69140625,-13.18359375,-19.53125,-1.0,1.0,-1.0,0.0,6.m4v,8.0
2024-02-28 10:36:30.431031,1709112990.431031,-8.7890625,-39.55078125,-15.625,-27.83203125,-1.0,1.0,-1.0,0.0,6.m4v,8.0
2024-02-28 10:36:30.434937,1709112990.4349368,-47.8515625,-61.5234375,-13.18359375,-76.66015625,-1.0,1.0,-1.0,0.0,6.m4v,8.0
2024-02-28 10:36:30.438843,1709112990.4388423,-66.40625,-59.5703125,-14.6484375,-67.3828125,-1.0,1.0,-1.0,0.0,6.m4v,8.0
2024-02-28 10:36:30.442748,1709112990.4427483,-60.546875,-46.38671875,-18.06640625,-28.80859375,-1.0,1.0,-1.0,0.0,6.m4v,8.0
2024-02-28 10:36:30.446654,1709112990.446654,-39.0625,-33.69140625,-19.53125,-14.6484375,-1.0,1.0,-1.0,0.0,6.m4v,8.0
2024-02-28 10:36:30.450562,1709112990.4505618,-27.34375,-22.4609375,-44.43359375,-5.37109375,-1.0,1.0,-1.0,0.0,6.m4v,8.0
2024-02-28 10:36:30.462279,1709112990.462279,-35.15625,-25.87890625,-51.7578125,-6.8359375,-1.0,1.0,-1.0,0.0,6.m4v,8.0
2024-02-28 10:36:30.473996,1709112990.4739964,-17.08984375,-41.015625,3.90625,-52.734375,-1.0,1.0,-1.0,0.0,6.m4v,8.0
2024-02-28 10:36:30.485714,1709112990.4857135,-54.6875,-49.31640625,-50.29296875,-33.203125,-1.0,1.0,-1.0,0.0,6.m4v,8.0
2024-02-28 10:36:30.497433,1709112990.497433,-27.83203125,-21.484375,-73.2421875,-20.01953125,-1.0,1.0,-1.0,0.0,6.m4v,8.0
2024-02-28 10:36:30.509150,1709112990.5091505,-32.71484375,-23.4375,-14.16015625,-28.3203125,-1.0,1.0,-1.0,0.0,6.m4v,8.0
2024-02-28 10:36:30.520868,1709112990.5208676,-48.33984375,-41.50390625,-18.5546875,-71.77734375,-1.0,1.0,-1.0,0.0,6.m4v,8.0
2024-02-28 10:36:30.524773,1709112990.5247734,-66.89453125,-38.57421875,-18.06640625,-73.2421875,-1.0,1.0,-1.0,0.0,6.m4v,8.0
2024-02-28 10:36:30.528679,1709112990.5286791,-57.6171875,-41.015625,-15.625,-61.5234375,-1.0,1.0,-1.0,0.0,6.m4v,8.0
2024-02-28 10:36:30.532585,1709112990.532585,-34.66796875,-38.0859375,-32.71484375,-32.71484375,-1.0,1.0,-1.0,0.0,6.m4v,8.0
2024-02-28 10:36:30.536491,1709112990.536491,-23.92578125,-32.2265625,-61.5234375,-21.484375,-1.0,1.0,-1.0,0.0,6.m4v,8.0
2024-02-28 10:36:30.587267,1709112990.5872674,-38.57421875,-47.8515625,-36.1328125,-27.34375,-1.0,1.0,-1.0,0.0,6.m4v,8.0
2024-02-28 10:36:30.598986,1709112990.5989864,-32.71484375,-18.06640625,-10.7421875,-43.9453125,-1.0,1.0,-1.0,0.0,6.m4v,8.0
2024-02-28 10:36:30.606798,1709112990.606798,-59.08203125,-28.80859375,-19.53125,-47.8515625,-1.0,1.0,-1.0,0.0,6.m4v,8.0
2024-02-28 10:36:30.610704,1709112990.6107037,-55.17578125,-24.4140625,-31.25,-61.5234375,-1.0,1.0,-1.0,0.0,6.m4v,8.0
2024-02-28 10:36:30.614609,1709112990.6146097,-34.1796875,-17.08984375,-44.43359375,-46.38671875,-1.0,1.0,-1.0,0.0,6.m4v,8.0
2024-02-28 10:36:30.618515,1709112990.6185153,-44.921875,-35.15625,-48.33984375,-37.59765625,-1.0,1.0,-1.0,0.0,6.m4v,8.0
2024-02-28 10:36:30.622421,1709112990.622421,-52.24609375,-40.0390625,-49.8046875,-37.59765625,-1.0,1.0,-1.0,0.0,6.m4v,8.0
2024-02-28 10:36:30.626327,1709112990.6263268,-38.0859375,-38.0859375,-46.875,-42.96875,-1.0,1.0,-1.0,0.0,6.m4v,8.0
2024-02-28 10:36:30.630233,1709112990.6302326,-34.66796875,-33.203125,-40.52734375,-36.62109375,-1.0,1.0,-1.0,0.0,6.m4v,8.0
2024-02-28 10:36:30.634138,1709112990.6341383,-22.4609375,-35.15625,-38.57421875,-17.08984375,-1.0,1.0,-1.0,0.0,6.m4v,8.0
2024-02-28 10:36:30.638045,1709112990.6380453,-10.25390625,-63.96484375,-29.78515625,-42.48046875,-1.0,1.0,-1.0,0.0,6.m4v,8.0
2024-02-28 10:36:30.665386,1709112990.6653855,-37.109375,-31.73828125,-13.18359375,-36.1328125,-1.0,1.0,-1.0,0.0,6.m4v,8.0
2024-02-28 10:36:30.677103,1709112990.677103,-43.45703125,-36.62109375,-7.8125,-52.734375,-1.0,1.0,-1.0,0.0,6.m4v,8.0
2024-02-28 10:36:30.688822,1709112990.688822,-23.92578125,-17.08984375,-25.87890625,-4.8828125,-1.0,1.0,-1.0,0.0,6.m4v,8.0
2024-02-28 10:36:30.692728,1709112990.6927278,-33.69140625,-30.2734375,-55.6640625,-17.578125,-1.0,1.0,-1.0,0.0,6.m4v,8.0
2024-02-28 10:36:30.696634,1709112990.6966336,-51.7578125,-47.8515625,-40.52734375,-67.3828125,-1.0,1.0,-1.0,0.0,6.m4v,8.0
2024-02-28 10:36:30.700539,1709112990.7005394,-52.24609375,-46.875,-24.90234375,-64.94140625,-1.0,1.0,-1.0,0.0,6.m4v,8.0
2024-02-28 10:36:30.704445,1709112990.7044451,-42.48046875,-46.38671875,-23.92578125,-44.43359375,-1.0,1.0,-1.0,0.0,6.m4v,8.0
2024-02-28 10:36:30.708351,1709112990.708351,-48.828125,-28.80859375,-22.94921875,-37.109375,-1.0,1.0,-1.0,0.0,6.m4v,8.0
2024-02-28 10:36:30.712257,1709112990.712257,-29.296875,-4.8828125,-35.64453125,-20.01953125,-1.0,1.0,-1.0,0.0,6.m4v,8.0
2024-02-28 10:36:30.716162,1709112990.7161624,-18.5546875,-9.765625,-41.50390625,1.953125,-1.0,1.0,-1.0,0.0,6.m4v,8.0
2024-02-28 10:36:30.720068,1709112990.7200682,-24.90234375,-26.85546875,-34.66796875,-7.32421875,-1.0,1.0,-1.0,0.0,6.m4v,8.0
2024-02-28 10:36:30.723974,1709112990.723974,-24.4140625,-30.2734375,-50.78125,-40.52734375,-1.0,1.0,-1.0,0.0,6.m4v,8.0
2024-02-28 10:36:30.727880,1709112990.7278798,-29.296875,-22.94921875,-43.45703125,-54.6875,-1.0,1.0,-1.0,0.0,6.m4v,8.0
2024-02-28 10:36:30.731786,1709112990.7317865,-34.1796875,-20.5078125,-30.2734375,-36.1328125,-1.0,1.0,-1.0,0.0,6.m4v,8.0
2024-02-28 10:36:30.735692,1709112990.7356925,-19.04296875,-16.6015625,-45.41015625,-10.7421875,-1.0,1.0,-1.0,0.0,6.m4v,8.0
2024-02-28 10:36:30.739598,1709112990.739598,-7.8125,-21.97265625,-42.96875,-18.5546875,-1.0,1.0,-1.0,0.0,6.m4v,8.0
2024-02-28 10:36:30.743504,1709112990.7435038,-30.76171875,-41.015625,-29.296875,-49.8046875,-1.0,1.0,-1.0,0.0,6.m4v,8.0
2024-02-28 10:36:30.747410,1709112990.7474096,-50.29296875,-44.43359375,-27.83203125,-61.03515625,-1.0,1.0,-1.0,0.0,6.m4v,8.0
2024-02-28 10:36:30.751315,1709112990.7513154,-46.875,-40.0390625,-19.04296875,-59.08203125,-1.0,1.0,-1.0,0.0,6.m4v,8.0
2024-02-28 10:36:30.755221,1709112990.7552211,-56.640625,-48.33984375,-21.97265625,-43.9453125,-1.0,1.0,-1.0,0.0,6.m4v,8.0
2024-02-28 10:36:30.759127,1709112990.759127,-55.17578125,-55.6640625,-40.0390625,-42.96875,-1.0,1.0,-1.0,0.0,6.m4v,8.0
2024-02-28 10:36:30.763033,1709112990.763033,-36.1328125,-43.9453125,-37.59765625,-48.828125,-1.0,1.0,-1.0,0.0,6.m4v,8.0
2024-02-28 10:36:30.766938,1709112990.7669384,-33.203125,-21.484375,-25.87890625,-47.8515625,-1.0,1.0,-1.0,0.0,6.m4v,8.0
2024-02-28 10:36:30.770844,1709112990.7708442,-41.9921875,-25.87890625,-26.85546875,-40.52734375,-1.0,1.0,-1.0,0.0,6.m4v,8.0
2024-02-28 10:36:30.774750,1709112990.77475,-40.52734375,-30.2734375,-41.50390625,-22.4609375,-1.0,1.0,-1.0,0.0,6.m4v,8.0
2024-02-28 10:36:30.778658,1709112990.778658,-30.2734375,-13.18359375,-50.29296875,-18.5546875,-1.0,1.0,-1.0,0.0,6.m4v,8.0
2024-02-28 10:36:30.782564,1709112990.7825637,-22.94921875,-28.80859375,-37.59765625,-29.78515625,-1.0,1.0,-1.0,0.0,6.m4v,8.0
2024-02-28 10:36:30.786469,1709112990.7864697,-1.953125,-41.015625,-28.3203125,-35.15625,-1.0,1.0,-1.0,0.0,6.m4v,8.0
2024-02-28 10:36:30.790375,1709112990.7903752,-17.578125,-33.203125,-29.296875,-19.53125,-1.0,1.0,-1.0,0.0,6.m4v,8.0
2024-02-28 10:36:30.794281,1709112990.794281,-60.546875,-42.96875,-40.0390625,-22.94921875,-1.0,1.0,-1.0,0.0,6.m4v,8.0
2024-02-28 10:36:30.798187,1709112990.7981868,-62.01171875,-44.921875,-41.015625,-55.6640625,-1.0,1.0,-1.0,0.0,6.m4v,8.0
2024-02-28 10:36:30.802093,1709112990.8020926,-57.12890625,-32.2265625,-18.06640625,-47.8515625,-1.0,1.0,-1.0,0.0,6.m4v,8.0
2024-02-28 10:36:30.805998,1709112990.8059983,-59.08203125,-25.87890625,-2.9296875,-44.921875,-1.0,1.0,-1.0,0.0,6.m4v,8.0
2024-02-28 10:36:30.809904,1709112990.809904,-36.1328125,-18.5546875,-26.85546875,-21.97265625,-1.0,1.0,-1.0,0.0,6.m4v,8.0
2024-02-28 10:36:30.813810,1709112990.81381,-21.97265625,-34.66796875,-58.59375,-16.6015625,-1.0,1.0,-1.0,0.0,6.m4v,8.0
2024-02-28 10:36:30.825529,1709112990.825529,-23.92578125,-40.0390625,-41.015625,7.32421875,-1.0,1.0,-1.0,0.0,6.m4v,8.0
2024-02-28 10:36:30.829435,1709112990.829435,-14.6484375,-37.109375,-42.48046875,-6.8359375,-1.0,1.0,-1.0,0.0,6.m4v,8.0
2024-02-28 10:36:30.833341,1709112990.833341,-29.78515625,-23.92578125,-29.78515625,-68.359375,-1.0,1.0,-1.0,0.0,6.m4v,8.0
