Timestamp,Timestamp_UNIX,TP9,AF7,AF8,TP10,Valence,Arousal,Dominace,Viewed,Video,Participant
2024-02-28 11:16:05.000894,1709115365.0008938,-42.96875,-34.66796875,-57.6171875,-30.2734375,1.0,0.0,-1.0,0.0,1.m4v,9.0
2024-02-28 11:16:05.004799,1709115365.0047994,-32.71484375,-27.34375,-52.24609375,-33.203125,1.0,0.0,-1.0,0.0,1.m4v,9.0
2024-02-28 11:16:05.008705,1709115365.0087051,-44.43359375,-28.80859375,-51.26953125,-31.25,1.0,0.0,-1.0,0.0,1.m4v,9.0
2024-02-28 11:16:05.012611,1709115365.012611,-41.9921875,-57.6171875,-51.26953125,-34.66796875,1.0,0.0,-1.0,0.0,1.m4v,9.0
2024-02-28 11:16:05.016517,1709115365.0165167,-34.1796875,-63.4765625,-40.0390625,-33.203125,1.0,0.0,-1.0,0.0,1.m4v,9.0
2024-02-28 11:16:05.020422,1709115365.0204225,-37.59765625,-52.734375,-40.52734375,-31.25,1.0,0.0,-1.0,0.0,1.m4v,9.0
2024-02-28 11:16:05.024340,1709115365.02434,-43.9453125,-52.734375,-38.0859375,-36.62109375,1.0,0.0,-1.0,0.0,1.m4v,9.0
2024-02-28 11:16:05.028246,1709115365.0282457,-30.2734375,-41.50390625,-20.01953125,-35.15625,1.0,0.0,-1.0,0.0,1.m4v,9.0
2024-02-28 11:16:05.032151,1709115365.0321517,-35.64453125,-27.34375,-23.4375,-37.59765625,1.0,0.0,-1.0,0.0,1.m4v,9.0
2024-02-28 11:16:05.036057,1709115365.0360572,-45.41015625,-15.13671875,-32.71484375,-37.59765625,1.0,0.0,-1.0,0.0,1.m4v,9.0
2024-02-28 11:16:05.039963,1709115365.039963,-41.9921875,-7.8125,-33.69140625,-39.0625,1.0,0.0,-1.0,0.0,1.m4v,9.0
2024-02-28 11:16:05.043869,1709115365.0438683,-49.31640625,-13.671875,-41.015625,-41.50390625,1.0,0.0,-1.0,0.0,1.m4v,9.0
2024-02-28 11:16:05.047774,1709115365.0477743,-45.8984375,-17.578125,-39.0625,-32.71484375,1.0,0.0,-1.0,0.0,1.m4v,9.0
2024-02-28 11:16:05.051680,1709115365.05168,-38.57421875,-22.94921875,-25.390625,-26.85546875,1.0,0.0,-1.0,0.0,1.m4v,9.0
2024-02-28 11:16:05.055586,1709115365.055586,-20.99609375,-31.25,-19.53125,-27.34375,1.0,0.0,-1.0,0.0,1.m4v,9.0
2024-02-28 11:16:05.059492,1709115365.0594916,-19.53125,-26.3671875,-25.87890625,-24.90234375,1.0,0.0,-1.0,0.0,1.m4v,9.0
2024-02-28 11:16:05.063397,1709115365.0633974,-40.52734375,-43.9453125,-42.96875,-38.57421875,1.0,0.0,-1.0,0.0,1.m4v,9.0
2024-02-28 11:16:05.067303,1709115365.067303,-48.33984375,-64.94140625,-38.0859375,-38.0859375,1.0,0.0,-1.0,0.0,1.m4v,9.0
2024-02-28 11:16:05.071213,1709115365.0712123,-48.828125,-53.22265625,-24.90234375,-34.1796875,1.0,0.0,-1.0,0.0,1.m4v,9.0
2024-02-28 11:16:05.075118,1709115365.0751183,-33.69140625,-43.45703125,-34.1796875,-36.1328125,1.0,0.0,-1.0,0.0,1.m4v,9.0
2024-02-28 11:16:05.079024,1709115365.079024,-30.76171875,-29.296875,-55.17578125,-31.73828125,1.0,0.0,-1.0,0.0,1.m4v,9.0
2024-02-28 11:16:05.082930,1709115365.0829298,-39.55078125,-23.92578125,-53.7109375,-41.9921875,1.0,0.0,-1.0,0.0,1.m4v,9.0
2024-02-28 11:16:05.086836,1709115365.0868356,-37.59765625,-25.87890625,-41.015625,-41.015625,1.0,0.0,-1.0,0.0,1.m4v,9.0
2024-02-28 11:16:05.090741,1709115365.0907414,-42.96875,-10.7421875,-35.64453125,-35.64453125,1.0,0.0,-1.0,0.0,1.m4v,9.0
2024-02-28 11:16:05.094647,1709115365.094647,-49.31640625,-15.13671875,-24.90234375,-33.69140625,1.0,0.0,-1.0,0.0,1.m4v,9.0
2024-02-28 11:16:05.098553,1709115365.0985527,-47.8515625,-38.0859375,-21.97265625,-40.0390625,1.0,0.0,-1.0,0.0,1.m4v,9.0
2024-02-28 11:16:05.102458,1709115365.1024585,-46.875,-41.015625,-26.85546875,-38.57421875,1.0,0.0,-1.0,0.0,1.m4v,9.0
2024-02-28 11:16:05.106364,1709115365.1063645,-53.22265625,-38.57421875,-28.80859375,-34.1796875,1.0,0.0,-1.0,0.0,1.m4v,9.0
2024-02-28 11:16:05.110270,1709115365.11027,-44.43359375,-37.109375,-21.484375,-34.66796875,1.0,0.0,-1.0,0.0,1.m4v,9.0
2024-02-28 11:16:05.114176,1709115365.1141756,-32.71484375,-39.55078125,-23.4375,-29.78515625,1.0,0.0,-1.0,0.0,1.m4v,9.0
2024-02-28 11:16:05.118084,1709115365.1180842,-41.50390625,-40.52734375,-30.2734375,-41.015625,1.0,0.0,-1.0,0.0,1.m4v,9.0
2024-02-28 11:16:05.121990,1709115365.12199,-41.50390625,-40.52734375,-26.85546875,-41.015625,1.0,0.0,-1.0,0.0,1.m4v,9.0
2024-02-28 11:16:05.125896,1709115365.1258955,-30.2734375,-27.34375,-24.4140625,-19.53125,1.0,0.0,-1.0,0.0,1.m4v,9.0
2024-02-28 11:16:05.129801,1709115365.1298013,-32.71484375,-22.4609375,-24.4140625,-20.01953125,1.0,0.0,-1.0,0.0,1.m4v,9.0
2024-02-28 11:16:05.133707,1709115365.133707,-41.9921875,-19.04296875,-23.4375,-43.45703125,1.0,0.0,-1.0,0.0,1.m4v,9.0
2024-02-28 11:16:05.137613,1709115365.1376128,-44.921875,-9.27734375,-19.53125,-54.6875,1.0,0.0,-1.0,0.0,1.m4v,9.0
2024-02-28 11:16:05.141519,1709115365.1415186,-52.24609375,-26.3671875,-23.92578125,-61.5234375,1.0,0.0,-1.0,0.0,1.m4v,9.0
2024-02-28 11:16:05.145424,1709115365.1454244,-63.4765625,-41.9921875,-23.92578125,-55.17578125,1.0,0.0,-1.0,0.0,1.m4v,9.0
2024-02-28 11:16:05.149330,1709115365.14933,-60.05859375,-36.62109375,-27.83203125,-46.875,1.0,0.0,-1.0,0.0,1.m4v,9.0
2024-02-28 11:16:05.153236,1709115365.1532357,-46.875,-29.78515625,-37.109375,-50.78125,1.0,0.0,-1.0,0.0,1.m4v,9.0
2024-02-28 11:16:05.157141,1709115365.1571414,-41.50390625,-32.71484375,-35.64453125,-48.33984375,1.0,0.0,-1.0,0.0,1.m4v,9.0
2024-02-28 11:16:05.161047,1709115365.1610472,-42.96875,-32.2265625,-26.85546875,-41.50390625,1.0,0.0,-1.0,0.0,1.m4v,9.0
2024-02-28 11:16:05.164955,1709115365.1649554,-41.9921875,-28.80859375,-22.94921875,-36.1328125,1.0,0.0,-1.0,0.0,1.m4v,9.0
2024-02-28 11:16:05.168861,1709115365.168861,-29.78515625,-27.83203125,-33.203125,-34.1796875,1.0,0.0,-1.0,0.0,1.m4v,9.0
2024-02-28 11:16:05.172767,1709115365.1727667,-36.62109375,-20.99609375,-39.0625,-44.43359375,1.0,0.0,-1.0,0.0,1.m4v,9.0
2024-02-28 11:16:05.176672,1709115365.1766725,-36.62109375,-20.99609375,-33.69140625,-45.8984375,1.0,0.0,-1.0,0.0,1.m4v,9.0
2024-02-28 11:16:05.180578,1709115365.1805782,-41.015625,-29.78515625,-21.484375,-35.15625,1.0,0.0,-1.0,0.0,1.m4v,9.0
2024-02-28 11:16:05.184484,1709115365.184484,-51.26953125,-37.109375,-16.6015625,-34.1796875,1.0,0.0,-1.0,0.0,1.m4v,9.0
2024-02-28 11:16:05.188390,1709115365.1883895,-37.109375,-35.15625,-25.390625,-33.203125,1.0,0.0,-1.0,0.0,1.m4v,9.0
2024-02-28 11:16:05.192295,1709115365.1922953,-33.69140625,-35.15625,-21.484375,-29.78515625,1.0,0.0,-1.0,0.0,1.m4v,9.0
2024-02-28 11:16:05.196201,1709115365.196201,-43.45703125,-42.96875,-16.11328125,-34.66796875,1.0,0.0,-1.0,0.0,1.m4v,9.0
2024-02-28 11:16:05.200107,1709115365.2001069,-39.0625,-48.33984375,-27.83203125,-36.1328125,1.0,0.0,-1.0,0.0,1.m4v,9.0
2024-02-28 11:16:05.204013,1709115365.2040126,-39.55078125,-38.0859375,-29.78515625,-38.57421875,1.0,0.0,-1.0,0.0,1.m4v,9.0
2024-02-28 11:16:05.207918,1709115365.2079184,-47.36328125,-17.578125,-32.2265625,-31.73828125,1.0,0.0,-1.0,0.0,1.m4v,9.0
2024-02-28 11:16:05.211825,1709115365.211825,-37.59765625,2.44140625,-42.96875,-36.1328125,1.0,0.0,-1.0,0.0,1.m4v,9.0
2024-02-28 11:16:05.215730,1709115365.2157304,-33.69140625,0.9765625,-43.45703125,-47.8515625,1.0,0.0,-1.0,0.0,1.m4v,9.0
2024-02-28 11:16:05.219636,1709115365.2196362,-36.62109375,-18.06640625,-36.1328125,-37.59765625,1.0,0.0,-1.0,0.0,1.m4v,9.0
2024-02-28 11:16:05.223542,1709115365.223542,-16.11328125,-37.59765625,-35.15625,-28.3203125,1.0,0.0,-1.0,0.0,1.m4v,9.0
2024-02-28 11:16:05.227448,1709115365.2274475,-20.01953125,-53.22265625,-37.59765625,-34.66796875,1.0,0.0,-1.0,0.0,1.m4v,9.0
2024-02-28 11:16:05.231353,1709115365.2313533,-36.1328125,-45.8984375,-30.2734375,-30.2734375,1.0,0.0,-1.0,0.0,1.m4v,9.0
2024-02-28 11:16:05.235259,1709115365.235259,-17.08984375,-33.69140625,-23.92578125,-22.4609375,1.0,0.0,-1.0,0.0,1.m4v,9.0
2024-02-28 11:16:05.239165,1709115365.2391648,-26.85546875,-42.96875,-37.59765625,-29.296875,1.0,0.0,-1.0,0.0,1.m4v,9.0
2024-02-28 11:16:05.243071,1709115365.2430706,-40.52734375,-36.1328125,-41.9921875,-31.25,1.0,0.0,-1.0,0.0,1.m4v,9.0
2024-02-28 11:16:05.246976,1709115365.2469764,-37.59765625,-12.20703125,-29.78515625,-27.34375,1.0,0.0,-1.0,0.0,1.m4v,9.0
2024-02-28 11:16:05.250882,1709115365.250882,-30.2734375,-20.01953125,-30.2734375,-34.1796875,1.0,0.0,-1.0,0.0,1.m4v,9.0
2024-02-28 11:16:05.254788,1709115365.2547877,-24.4140625,-31.25,-32.2265625,-31.25,1.0,0.0,-1.0,0.0,1.m4v,9.0
2024-02-28 11:16:05.258693,1709115365.258693,-31.73828125,-20.5078125,-32.71484375,-27.34375,1.0,0.0,-1.0,0.0,1.m4v,9.0
2024-02-28 11:16:05.262599,1709115365.2625988,-40.0390625,-19.04296875,-40.52734375,-31.25,1.0,0.0,-1.0,0.0,1.m4v,9.0
2024-02-28 11:16:05.266505,1709115365.2665043,-44.43359375,-32.2265625,-42.48046875,-33.69140625,1.0,0.0,-1.0,0.0,1.m4v,9.0
2024-02-28 11:16:05.270410,1709115365.2704103,-22.4609375,-38.0859375,-24.90234375,-29.296875,1.0,0.0,-1.0,0.0,1.m4v,9.0
2024-02-28 11:16:05.274316,1709115365.274316,-16.11328125,-37.59765625,-24.4140625,-31.25,1.0,0.0,-1.0,0.0,1.m4v,9.0
2024-02-28 11:16:05.278222,1709115365.2782216,-25.390625,-36.1328125,-38.57421875,-32.2265625,1.0,0.0,-1.0,0.0,1.m4v,9.0
2024-02-28 11:16:05.282127,1709115365.2821274,-18.06640625,-23.92578125,-41.50390625,-25.87890625,1.0,0.0,-1.0,0.0,1.m4v,9.0
2024-02-28 11:16:05.286033,1709115365.2860332,-39.55078125,-19.04296875,-45.8984375,-30.2734375,1.0,0.0,-1.0,0.0,1.m4v,9.0
2024-02-28 11:16:05.289939,1709115365.289939,-48.33984375,-26.85546875,-39.55078125,-32.71484375,1.0,0.0,-1.0,0.0,1.m4v,9.0
2024-02-28 11:16:05.293845,1709115365.2938447,-38.57421875,-38.57421875,-26.3671875,-33.203125,1.0,0.0,-1.0,0.0,1.m4v,9.0
2024-02-28 11:16:05.297750,1709115365.2977505,-44.921875,-32.2265625,-16.11328125,-31.73828125,1.0,0.0,-1.0,0.0,1.m4v,9.0
2024-02-28 11:16:05.301656,1709115365.301656,-43.9453125,-19.04296875,-16.6015625,-28.3203125,1.0,0.0,-1.0,0.0,1.m4v,9.0
2024-02-28 11:16:05.305561,1709115365.3055606,-41.50390625,-31.73828125,-23.92578125,-36.1328125,1.0,0.0,-1.0,0.0,1.m4v,9.0
2024-02-28 11:16:05.309466,1709115365.3094664,-41.9921875,-48.33984375,-31.25,-38.57421875,1.0,0.0,-1.0,0.0,1.m4v,9.0
2024-02-28 11:16:05.313372,1709115365.313372,-26.85546875,-36.62109375,-36.62109375,-28.80859375,1.0,0.0,-1.0,0.0,1.m4v,9.0
2024-02-28 11:16:05.317278,1709115365.317278,-34.1796875,-19.04296875,-31.73828125,-21.484375,1.0,0.0,-1.0,0.0,1.m4v,9.0
2024-02-28 11:16:05.321184,1709115365.3211837,-41.50390625,-19.04296875,-24.4140625,-32.2265625,1.0,0.0,-1.0,0.0,1.m4v,9.0
2024-02-28 11:16:05.325089,1709115365.3250897,-41.015625,-21.484375,-26.3671875,-38.57421875,1.0,0.0,-1.0,0.0,1.m4v,9.0
2024-02-28 11:16:05.328995,1709115365.328995,-39.55078125,-15.625,-33.203125,-24.90234375,1.0,0.0,-1.0,0.0,1.m4v,9.0
2024-02-28 11:16:05.332901,1709115365.3329008,-28.80859375,-18.5546875,-41.015625,-21.97265625,1.0,0.0,-1.0,0.0,1.m4v,9.0
2024-02-28 11:16:05.336807,1709115365.3368063,-36.1328125,-16.11328125,-32.2265625,-21.97265625,1.0,0.0,-1.0,0.0,1.m4v,9.0
2024-02-28 11:16:05.340712,1709115365.3407123,-47.8515625,-17.578125,-23.4375,-24.4140625,1.0,0.0,-1.0,0.0,1.m4v,9.0
2024-02-28 11:16:05.344618,1709115365.344618,-49.31640625,-34.66796875,-28.80859375,-32.71484375,1.0,0.0,-1.0,0.0,1.m4v,9.0
2024-02-28 11:16:05.348524,1709115365.348524,-31.73828125,-30.76171875,-31.73828125,-28.80859375,1.0,0.0,-1.0,0.0,1.m4v,9.0
2024-02-28 11:16:05.352427,1709115365.3524272,-37.59765625,-24.4140625,-34.66796875,-25.87890625,1.0,0.0,-1.0,0.0,1.m4v,9.0
2024-02-28 11:16:05.356333,1709115365.356333,-38.0859375,-36.62109375,-26.85546875,-23.92578125,1.0,0.0,-1.0,0.0,1.m4v,9.0
2024-02-28 11:16:05.360239,1709115365.3602388,-23.92578125,-43.9453125,-20.99609375,-26.85546875,1.0,0.0,-1.0,0.0,1.m4v,9.0
2024-02-28 11:16:05.364145,1709115365.3641446,-44.43359375,-38.0859375,-22.4609375,-30.2734375,1.0,0.0,-1.0,0.0,1.m4v,9.0
2024-02-28 11:16:05.368050,1709115365.36805,-52.24609375,-40.0390625,-25.390625,-27.34375,1.0,0.0,-1.0,0.0,1.m4v,9.0
2024-02-28 11:16:05.371956,1709115365.371956,-37.59765625,-37.59765625,-43.45703125,-27.34375,1.0,0.0,-1.0,0.0,1.m4v,9.0
2024-02-28 11:16:05.375862,1709115365.3758616,-31.25,-37.109375,-40.52734375,-25.390625,1.0,0.0,-1.0,0.0,1.m4v,9.0
2024-02-28 11:16:05.379767,1709115365.3797674,-28.3203125,-35.64453125,-35.15625,-26.85546875,1.0,0.0,-1.0,0.0,1.m4v,9.0
2024-02-28 11:16:05.383673,1709115365.3836732,-36.62109375,-34.1796875,-35.64453125,-31.25,1.0,0.0,-1.0,0.0,1.m4v,9.0
2024-02-28 11:16:05.387579,1709115365.387579,-48.828125,-36.62109375,-17.578125,-27.83203125,1.0,0.0,-1.0,0.0,1.m4v,9.0
2024-02-28 11:16:05.391484,1709115365.3914845,-35.64453125,-22.4609375,-13.18359375,-30.76171875,1.0,0.0,-1.0,0.0,1.m4v,9.0
2024-02-28 11:16:05.395390,1709115365.3953905,-34.66796875,-20.01953125,-22.4609375,-39.55078125,1.0,0.0,-1.0,0.0,1.m4v,9.0
2024-02-28 11:16:05.399293,1709115365.3992934,-44.43359375,-22.4609375,-30.2734375,-43.45703125,1.0,0.0,-1.0,0.0,1.m4v,9.0
2024-02-28 11:16:05.403199,1709115365.4031992,-53.22265625,-17.08984375,-27.83203125,-37.59765625,1.0,0.0,-1.0,0.0,1.m4v,9.0
2024-02-28 11:16:05.407105,1709115365.407105,-48.33984375,-21.97265625,-27.34375,-29.296875,1.0,0.0,-1.0,0.0,1.m4v,9.0
2024-02-28 11:16:05.411011,1709115365.4110107,-38.57421875,-27.83203125,-37.109375,-21.97265625,1.0,0.0,-1.0,0.0,1.m4v,9.0
2024-02-28 11:16:05.414916,1709115365.4149165,-39.55078125,-33.69140625,-32.2265625,-22.4609375,1.0,0.0,-1.0,0.0,1.m4v,9.0
2024-02-28 11:16:05.418822,1709115365.418822,-30.76171875,-17.578125,-21.484375,-29.296875,1.0,0.0,-1.0,0.0,1.m4v,9.0
2024-02-28 11:16:05.422728,1709115365.4227278,-41.50390625,-11.71875,-25.390625,-34.1796875,1.0,0.0,-1.0,0.0,1.m4v,9.0
2024-02-28 11:16:05.426634,1709115365.4266336,-36.62109375,-32.71484375,-29.78515625,-40.0390625,1.0,0.0,-1.0,0.0,1.m4v,9.0
2024-02-28 11:16:05.430539,1709115365.4305394,-24.4140625,-30.2734375,-29.78515625,-38.57421875,1.0,0.0,-1.0,0.0,1.m4v,9.0
2024-02-28 11:16:05.434445,1709115365.4344451,-38.0859375,-18.06640625,-34.66796875,-42.48046875,1.0,0.0,-1.0,0.0,1.m4v,9.0
2024-02-28 11:16:05.438351,1709115365.438351,-42.96875,-20.5078125,-31.73828125,-43.9453125,1.0,0.0,-1.0,0.0,1.m4v,9.0
2024-02-28 11:16:05.442256,1709115365.4422565,-31.73828125,-38.57421875,-31.25,-43.9453125,1.0,0.0,-1.0,0.0,1.m4v,9.0
2024-02-28 11:16:05.446167,1709115365.4461665,-33.203125,-52.734375,-33.203125,-38.57421875,1.0,0.0,-1.0,0.0,1.m4v,9.0
2024-02-28 11:16:05.450072,1709115365.4500723,-37.109375,-38.0859375,-23.92578125,-35.64453125,1.0,0.0,-1.0,0.0,1.m4v,9.0
2024-02-28 11:16:05.453978,1709115365.453978,-47.8515625,-31.25,-21.97265625,-40.52734375,1.0,0.0,-1.0,0.0,1.m4v,9.0
2024-02-28 11:16:05.457884,1709115365.4578836,-45.8984375,-34.66796875,-35.64453125,-42.96875,1.0,0.0,-1.0,0.0,1.m4v,9.0
2024-02-28 11:16:05.461789,1709115365.4617894,-25.87890625,-38.0859375,-39.55078125,-42.48046875,1.0,0.0,-1.0,0.0,1.m4v,9.0
2024-02-28 11:16:05.465695,1709115365.4656951,-39.55078125,-28.80859375,-31.25,-29.78515625,1.0,0.0,-1.0,0.0,1.m4v,9.0
2024-02-28 11:16:05.469601,1709115365.469601,-41.015625,-17.578125,-32.71484375,-27.34375,1.0,0.0,-1.0,0.0,1.m4v,9.0
2024-02-28 11:16:05.473507,1709115365.4735067,-43.45703125,-19.04296875,-41.015625,-41.015625,1.0,0.0,-1.0,0.0,1.m4v,9.0
2024-02-28 11:16:05.477412,1709115365.4774125,-61.5234375,-22.4609375,-40.52734375,-46.38671875,1.0,0.0,-1.0,0.0,1.m4v,9.0
2024-02-28 11:16:05.481318,1709115365.481318,-50.29296875,-27.83203125,-35.15625,-33.69140625,1.0,0.0,-1.0,0.0,1.m4v,9.0
2024-02-28 11:16:05.485224,1709115365.4852238,-38.57421875,-36.1328125,-38.57421875,-36.62109375,1.0,0.0,-1.0,0.0,1.m4v,9.0
2024-02-28 11:16:05.489130,1709115365.4891295,-46.875,-42.96875,-38.0859375,-34.1796875,1.0,0.0,-1.0,0.0,1.m4v,9.0
2024-02-28 11:16:05.493038,1709115365.4930384,-36.62109375,-35.15625,-30.2734375,-20.5078125,1.0,0.0,-1.0,0.0,1.m4v,9.0
2024-02-28 11:16:05.496944,1709115365.4969442,-27.83203125,-24.4140625,-25.87890625,-31.25,1.0,0.0,-1.0,0.0,1.m4v,9.0
2024-02-28 11:16:05.500850,1709115365.50085,-14.16015625,-35.64453125,-18.5546875,-22.94921875,1.0,0.0,-1.0,0.0,1.m4v,9.0
2024-02-28 11:16:05.504756,1709115365.5047555,-11.71875,-49.8046875,-18.06640625,-10.7421875,1.0,0.0,-1.0,0.0,1.m4v,9.0
2024-02-28 11:16:05.508661,1709115365.5086613,-36.1328125,-34.66796875,-27.34375,-28.3203125,1.0,0.0,-1.0,0.0,1.m4v,9.0
2024-02-28 11:16:05.512567,1709115365.512567,-47.36328125,-14.16015625,-30.76171875,-43.45703125,1.0,0.0,-1.0,0.0,1.m4v,9.0
2024-02-28 11:16:05.516473,1709115365.5164728,-50.78125,-14.16015625,-42.96875,-43.9453125,1.0,0.0,-1.0,0.0,1.m4v,9.0
2024-02-28 11:16:05.520379,1709115365.5203786,-50.29296875,-29.78515625,-50.29296875,-47.8515625,1.0,0.0,-1.0,0.0,1.m4v,9.0
2024-02-28 11:16:05.524284,1709115365.5242844,-45.8984375,-20.01953125,-34.66796875,-46.38671875,1.0,0.0,-1.0,0.0,1.m4v,9.0
2024-02-28 11:16:05.528190,1709115365.52819,-45.8984375,-22.94921875,-32.2265625,-36.62109375,1.0,0.0,-1.0,0.0,1.m4v,9.0
2024-02-28 11:16:05.532096,1709115365.5320957,-23.92578125,-35.15625,-36.62109375,-24.90234375,1.0,0.0,-1.0,0.0,1.m4v,9.0
2024-02-28 11:16:05.536001,1709115365.5360014,-13.18359375,-27.83203125,-29.296875,-21.484375,1.0,0.0,-1.0,0.0,1.m4v,9.0
2024-02-28 11:16:05.539917,1709115365.5399177,-41.015625,-39.55078125,-41.50390625,-40.0390625,1.0,0.0,-1.0,0.0,1.m4v,9.0
2024-02-28 11:16:05.543823,1709115365.5438232,-52.734375,-34.1796875,-44.43359375,-47.36328125,1.0,0.0,-1.0,0.0,1.m4v,9.0
2024-02-28 11:16:05.547729,1709115365.547729,-40.52734375,-16.11328125,-32.2265625,-41.015625,1.0,0.0,-1.0,0.0,1.m4v,9.0
2024-02-28 11:16:05.551635,1709115365.5516348,-36.62109375,-15.13671875,-31.25,-37.109375,1.0,0.0,-1.0,0.0,1.m4v,9.0
2024-02-28 11:16:05.555540,1709115365.5555403,-16.6015625,-35.64453125,-23.92578125,-38.0859375,1.0,0.0,-1.0,0.0,1.m4v,9.0
2024-02-28 11:16:05.559446,1709115365.559446,-6.8359375,-51.26953125,-19.04296875,-30.76171875,1.0,0.0,-1.0,0.0,1.m4v,9.0
2024-02-28 11:16:05.563352,1709115365.563352,-32.71484375,-36.1328125,-30.2734375,-34.66796875,1.0,0.0,-1.0,0.0,1.m4v,9.0
2024-02-28 11:16:05.567258,1709115365.5672576,-45.8984375,-16.6015625,-40.52734375,-43.9453125,1.0,0.0,-1.0,0.0,1.m4v,9.0
2024-02-28 11:16:05.571163,1709115365.5711634,-40.0390625,-26.85546875,-36.62109375,-38.0859375,1.0,0.0,-1.0,0.0,1.m4v,9.0
2024-02-28 11:16:05.575069,1709115365.5750692,-33.69140625,-44.43359375,-34.1796875,-42.96875,1.0,0.0,-1.0,0.0,1.m4v,9.0
2024-02-28 11:16:05.578975,1709115365.5789747,-42.96875,-28.80859375,-36.62109375,-44.921875,1.0,0.0,-1.0,0.0,1.m4v,9.0
2024-02-28 11:16:05.582880,1709115365.5828805,-50.78125,-17.578125,-39.0625,-37.59765625,1.0,0.0,-1.0,0.0,1.m4v,9.0
2024-02-28 11:16:05.586787,1709115365.5867877,-41.50390625,-17.578125,-33.203125,-38.0859375,1.0,0.0,-1.0,0.0,1.m4v,9.0
2024-02-28 11:16:05.590693,1709115365.5906932,-26.3671875,-19.53125,-20.01953125,-39.0625,1.0,0.0,-1.0,0.0,1.m4v,9.0
2024-02-28 11:16:05.594599,1709115365.594599,-30.76171875,-20.5078125,-29.78515625,-41.9921875,1.0,0.0,-1.0,0.0,1.m4v,9.0
2024-02-28 11:16:05.598505,1709115365.5985048,-35.64453125,-25.87890625,-38.0859375,-51.26953125,1.0,0.0,-1.0,0.0,1.m4v,9.0
2024-02-28 11:16:05.602411,1709115365.6024106,-38.0859375,-27.83203125,-26.3671875,-40.52734375,1.0,0.0,-1.0,0.0,1.m4v,9.0
2024-02-28 11:16:05.606316,1709115365.606316,-45.41015625,-23.4375,-26.85546875,-32.71484375,1.0,0.0,-1.0,0.0,1.m4v,9.0
2024-02-28 11:16:05.610222,1709115365.610222,-35.15625,-20.5078125,-35.64453125,-33.203125,1.0,0.0,-1.0,0.0,1.m4v,9.0
2024-02-28 11:16:05.614128,1709115365.6141276,-17.08984375,-33.69140625,-32.71484375,-27.83203125,1.0,0.0,-1.0,0.0,1.m4v,9.0
2024-02-28 11:16:05.618033,1709115365.6180334,-24.4140625,-58.59375,-20.99609375,-34.1796875,1.0,0.0,-1.0,0.0,1.m4v,9.0
2024-02-28 11:16:05.621939,1709115365.6219392,-40.52734375,-61.03515625,-24.90234375,-42.96875,1.0,0.0,-1.0,0.0,1.m4v,9.0
2024-02-28 11:16:05.625845,1709115365.625845,-31.73828125,-45.41015625,-23.92578125,-35.15625,1.0,0.0,-1.0,0.0,1.m4v,9.0
2024-02-28 11:16:05.629750,1709115365.6297505,-29.296875,-41.015625,-19.53125,-31.25,1.0,0.0,-1.0,0.0,1.m4v,9.0
2024-02-28 11:16:05.633657,1709115365.6336572,-38.57421875,-24.90234375,-24.90234375,-41.50390625,1.0,0.0,-1.0,0.0,1.m4v,9.0
2024-02-28 11:16:05.637563,1709115365.637563,-35.64453125,-15.13671875,-34.66796875,-48.33984375,1.0,0.0,-1.0,0.0,1.m4v,9.0
2024-02-28 11:16:05.641469,1709115365.6414683,-34.66796875,-32.2265625,-43.45703125,-37.59765625,1.0,0.0,-1.0,0.0,1.m4v,9.0
2024-02-28 11:16:05.645374,1709115365.6453743,-27.34375,-28.80859375,-30.2734375,-30.2734375,1.0,0.0,-1.0,0.0,1.m4v,9.0
2024-02-28 11:16:05.649280,1709115365.64928,-21.97265625,-16.6015625,-19.04296875,-35.64453125,1.0,0.0,-1.0,0.0,1.m4v,9.0
2024-02-28 11:16:05.653186,1709115365.6531858,-25.87890625,-8.30078125,-30.76171875,-37.109375,1.0,0.0,-1.0,0.0,1.m4v,9.0
2024-02-28 11:16:05.657092,1709115365.6570916,-15.625,-12.20703125,-31.73828125,-40.52734375,1.0,0.0,-1.0,0.0,1.m4v,9.0
2024-02-28 11:16:05.660997,1709115365.6609974,-27.34375,-27.83203125,-24.90234375,-38.0859375,1.0,0.0,-1.0,0.0,1.m4v,9.0
2024-02-28 11:16:05.664903,1709115365.664903,-32.2265625,-32.2265625,-20.99609375,-32.71484375,1.0,0.0,-1.0,0.0,1.m4v,9.0
2024-02-28 11:16:05.668809,1709115365.6688087,-23.4375,-33.203125,-25.87890625,-39.55078125,1.0,0.0,-1.0,0.0,1.m4v,9.0
2024-02-28 11:16:05.672714,1709115365.6727145,-36.1328125,-32.2265625,-34.66796875,-45.8984375,1.0,0.0,-1.0,0.0,1.m4v,9.0
2024-02-28 11:16:05.676620,1709115365.6766202,-32.2265625,-26.85546875,-38.0859375,-47.36328125,1.0,0.0,-1.0,0.0,1.m4v,9.0
2024-02-28 11:16:05.680525,1709115365.6805246,-33.69140625,-32.2265625,-22.94921875,-38.57421875,1.0,0.0,-1.0,0.0,1.m4v,9.0
2024-02-28 11:16:05.684430,1709115365.68443,-37.59765625,-41.015625,-12.6953125,-31.25,1.0,0.0,-1.0,0.0,1.m4v,9.0
2024-02-28 11:16:05.688336,1709115365.688336,-33.203125,-52.734375,-22.4609375,-30.76171875,1.0,0.0,-1.0,0.0,1.m4v,9.0
2024-02-28 11:16:05.692242,1709115365.6922417,-26.3671875,-50.78125,-31.25,-31.73828125,1.0,0.0,-1.0,0.0,1.m4v,9.0
2024-02-28 11:16:05.696147,1709115365.6961474,-36.62109375,-20.5078125,-49.31640625,-41.50390625,1.0,0.0,-1.0,0.0,1.m4v,9.0
2024-02-28 11:16:05.700053,1709115365.7000532,-44.43359375,-7.8125,-40.0390625,-42.48046875,1.0,0.0,-1.0,0.0,1.m4v,9.0
2024-02-28 11:16:05.703959,1709115365.703959,-35.64453125,-23.4375,-22.4609375,-36.62109375,1.0,0.0,-1.0,0.0,1.m4v,9.0
2024-02-28 11:16:05.707865,1709115365.7078643,-43.9453125,-29.296875,-28.80859375,-41.9921875,1.0,0.0,-1.0,0.0,1.m4v,9.0
2024-02-28 11:16:05.711770,1709115365.7117703,-41.9921875,-22.4609375,-27.83203125,-43.45703125,1.0,0.0,-1.0,0.0,1.m4v,9.0
2024-02-28 11:16:05.715676,1709115365.715676,-29.296875,-31.25,-24.90234375,-41.9921875,1.0,0.0,-1.0,0.0,1.m4v,9.0
2024-02-28 11:16:05.719582,1709115365.7195818,-35.15625,-37.109375,-21.484375,-40.52734375,1.0,0.0,-1.0,0.0,1.m4v,9.0
2024-02-28 11:16:05.723488,1709115365.7234876,-36.62109375,-31.25,-18.5546875,-33.203125,1.0,0.0,-1.0,0.0,1.m4v,9.0
2024-02-28 11:16:05.727391,1709115365.7273903,-42.48046875,-41.50390625,-19.04296875,-34.1796875,1.0,0.0,-1.0,0.0,1.m4v,9.0
2024-02-28 11:16:05.731296,1709115365.7312963,-34.66796875,-57.12890625,-23.4375,-39.55078125,1.0,0.0,-1.0,0.0,1.m4v,9.0
2024-02-28 11:16:05.735202,1709115365.735202,-19.53125,-50.78125,-38.0859375,-38.0859375,1.0,0.0,-1.0,0.0,1.m4v,9.0
2024-02-28 11:16:05.739108,1709115365.7391078,-35.64453125,-52.734375,-32.71484375,-31.73828125,1.0,0.0,-1.0,0.0,1.m4v,9.0
2024-02-28 11:16:05.743013,1709115365.7430134,-53.7109375,-48.33984375,-21.484375,-28.80859375,1.0,0.0,-1.0,0.0,1.m4v,9.0
2024-02-28 11:16:05.746919,1709115365.7469192,-44.921875,-30.2734375,-28.3203125,-22.94921875,1.0,0.0,-1.0,0.0,1.m4v,9.0
2024-02-28 11:16:05.750825,1709115365.750825,-32.2265625,-33.69140625,-33.69140625,-11.23046875,1.0,0.0,-1.0,0.0,1.m4v,9.0
2024-02-28 11:16:05.754731,1709115365.7547307,-25.390625,-35.15625,-41.015625,-18.5546875,1.0,0.0,-1.0,0.0,1.m4v,9.0
2024-02-28 11:16:05.758636,1709115365.7586365,-19.53125,-15.625,-28.80859375,-26.3671875,1.0,0.0,-1.0,0.0,1.m4v,9.0
2024-02-28 11:16:05.762542,1709115365.7625422,-41.50390625,-20.5078125,-21.484375,-28.80859375,1.0,0.0,-1.0,0.0,1.m4v,9.0
2024-02-28 11:16:05.766448,1709115365.7664478,-47.8515625,-35.15625,-40.52734375,-39.55078125,1.0,0.0,-1.0,0.0,1.m4v,9.0
2024-02-28 11:16:05.770354,1709115365.7703536,-21.97265625,-22.4609375,-43.9453125,-35.64453125,1.0,0.0,-1.0,0.0,1.m4v,9.0
2024-02-28 11:16:05.774257,1709115365.7742572,-5.37109375,-18.06640625,-24.90234375,-21.97265625,1.0,0.0,-1.0,0.0,1.m4v,9.0
2024-02-28 11:16:05.778163,1709115365.778163,-12.6953125,-46.875,-18.5546875,-20.01953125,1.0,0.0,-1.0,0.0,1.m4v,9.0
2024-02-28 11:16:05.782069,1709115365.7820687,-32.71484375,-54.6875,-26.3671875,-28.3203125,1.0,0.0,-1.0,0.0,1.m4v,9.0
2024-02-28 11:16:05.785975,1709115365.7859745,-41.015625,-25.390625,-23.4375,-29.296875,1.0,0.0,-1.0,0.0,1.m4v,9.0
2024-02-28 11:16:05.789880,1709115365.7898805,-27.34375,-9.27734375,-14.6484375,-27.83203125,1.0,0.0,-1.0,0.0,1.m4v,9.0
2024-02-28 11:16:05.793786,1709115365.7937858,-10.25390625,-17.08984375,-20.5078125,-31.73828125,1.0,0.0,-1.0,0.0,1.m4v,9.0
2024-02-28 11:16:05.797692,1709115365.7976916,-16.6015625,-20.99609375,-28.3203125,-29.78515625,1.0,0.0,-1.0,0.0,1.m4v,9.0
2024-02-28 11:16:05.801597,1709115365.8015974,-42.48046875,-23.4375,-41.015625,-33.203125,1.0,0.0,-1.0,0.0,1.m4v,9.0
2024-02-28 11:16:05.805503,1709115365.8055031,-41.9921875,-20.01953125,-42.48046875,-38.0859375,1.0,0.0,-1.0,0.0,1.m4v,9.0
2024-02-28 11:16:05.809409,1709115365.809409,-42.96875,-38.57421875,-33.69140625,-41.9921875,1.0,0.0,-1.0,0.0,1.m4v,9.0
2024-02-28 11:16:05.813315,1709115365.813315,-42.96875,-55.6640625,-42.96875,-35.15625,1.0,0.0,-1.0,0.0,1.m4v,9.0
2024-02-28 11:16:05.817220,1709115365.8172202,-29.78515625,-32.71484375,-48.828125,-40.0390625,1.0,0.0,-1.0,0.0,1.m4v,9.0
2024-02-28 11:16:05.821131,1709115365.8211305,-34.66796875,-18.5546875,-42.96875,-50.78125,1.0,0.0,-1.0,0.0,1.m4v,9.0
2024-02-28 11:16:05.825036,1709115365.8250363,-41.50390625,-25.87890625,-33.69140625,-45.41015625,1.0,0.0,-1.0,0.0,1.m4v,9.0
2024-02-28 11:16:05.828942,1709115365.828942,-35.15625,-18.06640625,-24.4140625,-41.9921875,1.0,0.0,-1.0,0.0,1.m4v,9.0
2024-02-28 11:16:05.832848,1709115365.8328478,-21.484375,-16.11328125,-14.16015625,-42.96875,1.0,0.0,-1.0,0.0,1.m4v,9.0
2024-02-28 11:16:05.836754,1709115365.8367536,-28.3203125,-47.8515625,-12.20703125,-41.50390625,1.0,0.0,-1.0,0.0,1.m4v,9.0
2024-02-28 11:16:05.840659,1709115365.8406594,-37.59765625,-51.7578125,-18.5546875,-37.109375,1.0,0.0,-1.0,0.0,1.m4v,9.0
2024-02-28 11:16:05.844565,1709115365.844565,-40.0390625,-23.4375,-25.87890625,-37.59765625,1.0,0.0,-1.0,0.0,1.m4v,9.0
2024-02-28 11:16:05.848471,1709115365.8484707,-50.78125,-15.625,-32.71484375,-43.45703125,1.0,0.0,-1.0,0.0,1.m4v,9.0
2024-02-28 11:16:05.852376,1709115365.8523765,-50.78125,-19.04296875,-40.0390625,-43.45703125,1.0,0.0,-1.0,0.0,1.m4v,9.0
2024-02-28 11:16:05.856282,1709115365.8562822,-41.50390625,-12.6953125,-39.0625,-41.50390625,1.0,0.0,-1.0,0.0,1.m4v,9.0
2024-02-28 11:16:05.860188,1709115365.860188,-45.8984375,-10.7421875,-38.57421875,-42.96875,1.0,0.0,-1.0,0.0,1.m4v,9.0
2024-02-28 11:16:05.864094,1709115365.8640938,-46.875,-19.04296875,-40.52734375,-43.45703125,1.0,0.0,-1.0,0.0,1.m4v,9.0
2024-02-28 11:16:05.868002,1709115365.8680022,-28.80859375,-32.2265625,-24.90234375,-35.15625,1.0,0.0,-1.0,0.0,1.m4v,9.0
2024-02-28 11:16:05.871908,1709115365.871908,-16.6015625,-37.109375,-22.4609375,-39.55078125,1.0,0.0,-1.0,0.0,1.m4v,9.0
2024-02-28 11:16:05.875813,1709115365.8758135,-25.87890625,-48.33984375,-41.50390625,-50.29296875,1.0,0.0,-1.0,0.0,1.m4v,9.0
2024-02-28 11:16:05.879719,1709115365.8797193,-26.85546875,-62.5,-43.9453125,-58.10546875,1.0,0.0,-1.0,0.0,1.m4v,9.0
2024-02-28 11:16:05.883625,1709115365.883625,-33.203125,-54.6875,-47.8515625,-59.08203125,1.0,0.0,-1.0,0.0,1.m4v,9.0
2024-02-28 11:16:05.887531,1709115365.8875308,-49.8046875,-24.90234375,-49.8046875,-44.43359375,1.0,0.0,-1.0,0.0,1.m4v,9.0
2024-02-28 11:16:05.891437,1709115365.8914366,-34.1796875,-19.53125,-33.203125,-37.59765625,1.0,0.0,-1.0,0.0,1.m4v,9.0
2024-02-28 11:16:05.895342,1709115365.8953424,-25.390625,-34.1796875,-20.5078125,-35.64453125,1.0,0.0,-1.0,0.0,1.m4v,9.0
2024-02-28 11:16:05.899248,1709115365.899248,-38.0859375,-23.92578125,-31.25,-38.57421875,1.0,0.0,-1.0,0.0,1.m4v,9.0
2024-02-28 11:16:05.903154,1709115365.9031537,-41.015625,-21.484375,-41.015625,-44.43359375,1.0,0.0,-1.0,0.0,1.m4v,9.0
2024-02-28 11:16:05.907059,1709115365.9070594,-37.109375,-48.33984375,-32.71484375,-37.59765625,1.0,0.0,-1.0,0.0,1.m4v,9.0
2024-02-28 11:16:05.910965,1709115365.9109652,-53.22265625,-65.4296875,-29.296875,-37.109375,1.0,0.0,-1.0,0.0,1.m4v,9.0
2024-02-28 11:16:05.914873,1709115365.9148726,-47.36328125,-49.8046875,-31.73828125,-51.26953125,1.0,0.0,-1.0,0.0,1.m4v,9.0
2024-02-28 11:16:05.918778,1709115365.9187784,-40.0390625,-31.25,-36.1328125,-54.6875,1.0,0.0,-1.0,0.0,1.m4v,9.0
2024-02-28 11:16:05.922684,1709115365.9226842,-42.96875,-25.390625,-30.2734375,-45.8984375,1.0,0.0,-1.0,0.0,1.m4v,9.0
2024-02-28 11:16:05.926590,1709115365.9265895,-41.50390625,-19.53125,-48.828125,-42.48046875,1.0,0.0,-1.0,0.0,1.m4v,9.0
2024-02-28 11:16:05.930496,1709115365.9304955,-41.015625,-18.5546875,-60.546875,-37.109375,1.0,0.0,-1.0,0.0,1.m4v,9.0
2024-02-28 11:16:05.934401,1709115365.9344013,-42.96875,-28.80859375,-41.50390625,-38.0859375,1.0,0.0,-1.0,0.0,1.m4v,9.0
2024-02-28 11:16:05.938307,1709115365.938307,-25.390625,-37.109375,-24.90234375,-35.15625,1.0,0.0,-1.0,0.0,1.m4v,9.0
2024-02-28 11:16:05.942213,1709115365.9422128,-18.5546875,-35.64453125,-12.6953125,-30.2734375,1.0,0.0,-1.0,0.0,1.m4v,9.0
2024-02-28 11:16:05.946119,1709115365.9461186,-36.1328125,-36.1328125,-24.4140625,-36.1328125,1.0,0.0,-1.0,0.0,1.m4v,9.0
2024-02-28 11:16:05.950024,1709115365.950024,-36.1328125,-28.80859375,-41.9921875,-36.62109375,1.0,0.0,-1.0,0.0,1.m4v,9.0
2024-02-28 11:16:05.953930,1709115365.95393,-36.1328125,-26.3671875,-37.59765625,-37.59765625,1.0,0.0,-1.0,0.0,1.m4v,9.0
2024-02-28 11:16:05.957836,1709115365.9578357,-31.73828125,-47.36328125,-29.296875,-38.0859375,1.0,0.0,-1.0,0.0,1.m4v,9.0
2024-02-28 11:16:05.961751,1709115365.961751,-23.4375,-58.59375,-34.1796875,-33.203125,1.0,0.0,-1.0,0.0,1.m4v,9.0
2024-02-28 11:16:05.965657,1709115365.9656568,-33.203125,-49.31640625,-27.83203125,-35.64453125,1.0,0.0,-1.0,0.0,1.m4v,9.0
2024-02-28 11:16:05.969563,1709115365.9695623,-46.38671875,-37.109375,-27.83203125,-40.52734375,1.0,0.0,-1.0,0.0,1.m4v,9.0
2024-02-28 11:16:05.973468,1709115365.9734683,-28.3203125,-35.15625,-34.1796875,-39.0625,1.0,0.0,-1.0,0.0,1.m4v,9.0
2024-02-28 11:16:05.977374,1709115365.977374,-26.3671875,-34.1796875,-38.0859375,-37.109375,1.0,0.0,-1.0,0.0,1.m4v,9.0
2024-02-28 11:16:05.981280,1709115365.98128,-35.15625,-17.578125,-39.55078125,-36.1328125,1.0,0.0,-1.0,0.0,1.m4v,9.0
2024-02-28 11:16:05.985185,1709115365.9851854,-36.62109375,-11.23046875,-40.0390625,-41.50390625,1.0,0.0,-1.0,0.0,1.m4v,9.0
2024-02-28 11:16:05.989091,1709115365.9890912,-34.1796875,-16.11328125,-30.76171875,-35.64453125,1.0,0.0,-1.0,0.0,1.m4v,9.0
2024-02-28 11:16:05.992997,1709115365.992997,-39.55078125,-30.76171875,-28.80859375,-28.80859375,1.0,0.0,-1.0,0.0,1.m4v,9.0
2024-02-28 11:16:05.996903,1709115365.9969027,-30.2734375,-55.6640625,-41.50390625,-27.34375,1.0,0.0,-1.0,0.0,1.m4v,9.0
2024-02-28 11:16:06.000808,1709115366.0008085,-31.73828125,-60.546875,-35.64453125,-32.71484375,1.0,0.0,-1.0,0.0,1.m4v,9.0
2024-02-28 11:16:06.004714,1709115366.0047145,-44.921875,-32.71484375,-33.203125,-40.0390625,1.0,0.0,-1.0,0.0,1.m4v,9.0
2024-02-28 11:16:06.008621,1709115366.0086207,-39.0625,-13.18359375,-31.73828125,-38.0859375,1.0,0.0,-1.0,0.0,1.m4v,9.0
2024-02-28 11:16:06.012527,1709115366.0125265,-43.45703125,-20.5078125,-19.53125,-37.59765625,1.0,0.0,-1.0,0.0,1.m4v,9.0
2024-02-28 11:16:06.016432,1709115366.0164323,-30.76171875,-7.32421875,-16.6015625,-27.34375,1.0,0.0,-1.0,0.0,1.m4v,9.0
2024-02-28 11:16:06.020338,1709115366.0203378,-31.73828125,-9.27734375,-20.01953125,-23.92578125,1.0,0.0,-1.0,0.0,1.m4v,9.0
2024-02-28 11:16:06.024244,1709115366.0242436,-45.41015625,-42.96875,-36.1328125,-33.69140625,1.0,0.0,-1.0,0.0,1.m4v,9.0
2024-02-28 11:16:06.028149,1709115366.0281494,-25.87890625,-30.2734375,-43.45703125,-32.2265625,1.0,0.0,-1.0,0.0,1.m4v,9.0
2024-02-28 11:16:06.032055,1709115366.0320551,-20.5078125,-22.4609375,-39.0625,-32.2265625,1.0,0.0,-1.0,0.0,1.m4v,9.0
2024-02-28 11:16:06.035961,1709115366.035961,-27.83203125,-31.25,-39.0625,-39.0625,1.0,0.0,-1.0,0.0,1.m4v,9.0
2024-02-28 11:16:06.039867,1709115366.0398667,-34.1796875,-21.484375,-34.1796875,-38.57421875,1.0,0.0,-1.0,0.0,1.m4v,9.0
2024-02-28 11:16:06.043772,1709115366.0437722,-24.90234375,-19.04296875,-27.34375,-29.78515625,1.0,0.0,-1.0,0.0,1.m4v,9.0
2024-02-28 11:16:06.047678,1709115366.047678,-37.59765625,-38.57421875,-23.92578125,-30.76171875,1.0,0.0,-1.0,0.0,1.m4v,9.0
2024-02-28 11:16:06.051584,1709115366.0515838,-65.4296875,-54.19921875,-21.97265625,-44.921875,1.0,0.0,-1.0,0.0,1.m4v,9.0
2024-02-28 11:16:06.055494,1709115366.055494,-49.31640625,-32.2265625,-25.390625,-40.52734375,1.0,0.0,-1.0,0.0,1.m4v,9.0
2024-02-28 11:16:06.059400,1709115366.0593998,-41.50390625,-15.13671875,-35.15625,-37.59765625,1.0,0.0,-1.0,0.0,1.m4v,9.0
2024-02-28 11:16:06.063306,1709115366.0633056,-50.78125,-23.92578125,-37.109375,-50.29296875,1.0,0.0,-1.0,0.0,1.m4v,9.0
2024-02-28 11:16:06.067211,1709115366.0672114,-42.48046875,-37.59765625,-39.0625,-53.22265625,1.0,0.0,-1.0,0.0,1.m4v,9.0
2024-02-28 11:16:06.071117,1709115366.0711172,-41.50390625,-50.78125,-37.59765625,-44.43359375,1.0,0.0,-1.0,0.0,1.m4v,9.0
2024-02-28 11:16:06.075023,1709115366.075023,-46.38671875,-48.828125,-30.76171875,-37.59765625,1.0,0.0,-1.0,0.0,1.m4v,9.0
2024-02-28 11:16:06.078928,1709115366.0789285,-45.41015625,-44.921875,-26.3671875,-33.69140625,1.0,0.0,-1.0,0.0,1.m4v,9.0
2024-02-28 11:16:06.082834,1709115366.0828342,-34.1796875,-50.29296875,-27.34375,-31.25,1.0,0.0,-1.0,0.0,1.m4v,9.0
2024-02-28 11:16:06.086740,1709115366.08674,-27.34375,-35.15625,-41.50390625,-30.76171875,1.0,0.0,-1.0,0.0,1.m4v,9.0
2024-02-28 11:16:06.090646,1709115366.0906458,-44.43359375,-16.11328125,-45.8984375,-29.296875,1.0,0.0,-1.0,0.0,1.m4v,9.0
2024-02-28 11:16:06.094552,1709115366.0945516,-40.0390625,-11.71875,-28.80859375,-30.2734375,1.0,0.0,-1.0,0.0,1.m4v,9.0
2024-02-28 11:16:06.098457,1709115366.098457,-29.78515625,-10.7421875,-24.90234375,-39.55078125,1.0,0.0,-1.0,0.0,1.m4v,9.0
2024-02-28 11:16:06.102369,1709115366.102369,-37.59765625,-15.625,-26.3671875,-36.62109375,1.0,0.0,-1.0,0.0,1.m4v,9.0
2024-02-28 11:16:06.106275,1709115366.1062746,-46.38671875,-19.53125,-16.11328125,-36.62109375,1.0,0.0,-1.0,0.0,1.m4v,9.0
2024-02-28 11:16:06.110180,1709115366.1101804,-49.31640625,-23.4375,-19.53125,-41.50390625,1.0,0.0,-1.0,0.0,1.m4v,9.0
2024-02-28 11:16:06.114086,1709115366.1140862,-54.19921875,-38.0859375,-28.3203125,-41.9921875,1.0,0.0,-1.0,0.0,1.m4v,9.0
2024-02-28 11:16:06.117992,1709115366.117992,-37.109375,-41.015625,-28.80859375,-39.0625,1.0,0.0,-1.0,0.0,1.m4v,9.0
2024-02-28 11:16:06.121898,1709115366.1218977,-18.06640625,-33.69140625,-25.390625,-26.85546875,1.0,0.0,-1.0,0.0,1.m4v,9.0
2024-02-28 11:16:06.125803,1709115366.1258037,-44.43359375,-38.0859375,-29.296875,-31.25,1.0,0.0,-1.0,0.0,1.m4v,9.0
2024-02-28 11:16:06.129709,1709115366.129709,-62.01171875,-42.96875,-36.1328125,-45.8984375,1.0,0.0,-1.0,0.0,1.m4v,9.0
2024-02-28 11:16:06.133615,1709115366.1336148,-50.29296875,-34.1796875,-30.76171875,-45.8984375,1.0,0.0,-1.0,0.0,1.m4v,9.0
2024-02-28 11:16:06.137521,1709115366.1375206,-35.15625,-35.64453125,-22.4609375,-42.96875,1.0,0.0,-1.0,0.0,1.m4v,9.0
2024-02-28 11:16:06.141426,1709115366.1414263,-53.7109375,-31.73828125,-34.1796875,-49.8046875,1.0,0.0,-1.0,0.0,1.m4v,9.0
2024-02-28 11:16:06.145332,1709115366.145332,-54.6875,-23.92578125,-36.62109375,-48.828125,1.0,0.0,-1.0,0.0,1.m4v,9.0
2024-02-28 11:16:06.149235,1709115366.1492343,-32.2265625,-36.62109375,-30.2734375,-47.36328125,1.0,0.0,-1.0,0.0,1.m4v,9.0
2024-02-28 11:16:06.153140,1709115366.1531403,-26.85546875,-41.50390625,-28.3203125,-42.96875,1.0,0.0,-1.0,0.0,1.m4v,9.0
2024-02-28 11:16:06.157046,1709115366.157046,-31.73828125,-29.78515625,-32.2265625,-40.0390625,1.0,0.0,-1.0,0.0,1.m4v,9.0
2024-02-28 11:16:06.160952,1709115366.160952,-46.38671875,-29.296875,-33.203125,-35.64453125,1.0,0.0,-1.0,0.0,1.m4v,9.0
2024-02-28 11:16:06.164857,1709115366.1648574,-40.0390625,-43.9453125,-26.3671875,-29.78515625,1.0,0.0,-1.0,0.0,1.m4v,9.0
2024-02-28 11:16:06.168763,1709115366.1687632,-31.73828125,-46.38671875,-24.90234375,-26.3671875,1.0,0.0,-1.0,0.0,1.m4v,9.0
2024-02-28 11:16:06.172669,1709115366.172669,-38.57421875,-32.2265625,-30.2734375,-26.85546875,1.0,0.0,-1.0,0.0,1.m4v,9.0
2024-02-28 11:16:06.176575,1709115366.1765747,-40.0390625,-38.57421875,-30.2734375,-29.296875,1.0,0.0,-1.0,0.0,1.m4v,9.0
2024-02-28 11:16:06.180480,1709115366.1804805,-30.2734375,-35.64453125,-30.2734375,-21.484375,1.0,0.0,-1.0,0.0,1.m4v,9.0
2024-02-28 11:16:06.184386,1709115366.1843865,-32.2265625,-23.92578125,-41.015625,-24.4140625,1.0,0.0,-1.0,0.0,1.m4v,9.0
2024-02-28 11:16:06.188292,1709115366.1882918,-37.109375,-14.16015625,-36.1328125,-26.85546875,1.0,0.0,-1.0,0.0,1.m4v,9.0
2024-02-28 11:16:06.192198,1709115366.1921976,-27.34375,-16.6015625,-29.78515625,-28.80859375,1.0,0.0,-1.0,0.0,1.m4v,9.0
2024-02-28 11:16:06.196107,1709115366.1961071,-14.6484375,-17.08984375,-24.90234375,-31.73828125,1.0,0.0,-1.0,0.0,1.m4v,9.0
2024-02-28 11:16:06.200013,1709115366.200013,-33.69140625,-31.25,-27.83203125,-37.109375,1.0,0.0,-1.0,0.0,1.m4v,9.0
2024-02-28 11:16:06.203919,1709115366.2039187,-52.734375,-49.31640625,-42.96875,-48.828125,1.0,0.0,-1.0,0.0,1.m4v,9.0
2024-02-28 11:16:06.207824,1709115366.2078245,-44.43359375,-39.55078125,-38.57421875,-39.0625,1.0,0.0,-1.0,0.0,1.m4v,9.0
2024-02-28 11:16:06.211730,1709115366.2117302,-25.390625,-18.06640625,-31.25,-23.4375,1.0,0.0,-1.0,0.0,1.m4v,9.0
2024-02-28 11:16:06.215636,1709115366.2156358,-24.4140625,-18.5546875,-32.71484375,-33.203125,1.0,0.0,-1.0,0.0,1.m4v,9.0
2024-02-28 11:16:06.219542,1709115366.2195415,-36.1328125,-40.52734375,-36.1328125,-55.17578125,1.0,0.0,-1.0,0.0,1.m4v,9.0
2024-02-28 11:16:06.223447,1709115366.223447,-47.36328125,-36.62109375,-33.203125,-54.19921875,1.0,0.0,-1.0,0.0,1.m4v,9.0
2024-02-28 11:16:06.227353,1709115366.227353,-44.921875,-31.73828125,-26.3671875,-39.0625,1.0,0.0,-1.0,0.0,1.m4v,9.0
2024-02-28 11:16:06.231259,1709115366.2312589,-18.5546875,-41.9921875,-23.92578125,-38.0859375,1.0,0.0,-1.0,0.0,1.m4v,9.0
2024-02-28 11:16:06.235165,1709115366.2351646,-9.27734375,-41.50390625,-36.62109375,-43.45703125,1.0,0.0,-1.0,0.0,1.m4v,9.0
2024-02-28 11:16:06.239070,1709115366.2390702,-30.76171875,-29.296875,-46.875,-55.6640625,1.0,0.0,-1.0,0.0,1.m4v,9.0
2024-02-28 11:16:06.242987,1709115366.2429874,-48.33984375,-20.99609375,-35.15625,-56.640625,1.0,0.0,-1.0,0.0,1.m4v,9.0
2024-02-28 11:16:06.246893,1709115366.246893,-37.109375,-17.08984375,-31.73828125,-44.921875,1.0,0.0,-1.0,0.0,1.m4v,9.0
2024-02-28 11:16:06.250799,1709115366.2507987,-37.59765625,-19.53125,-32.2265625,-44.43359375,1.0,0.0,-1.0,0.0,1.m4v,9.0
2024-02-28 11:16:06.254704,1709115366.2547045,-30.76171875,-30.2734375,-26.3671875,-47.8515625,1.0,0.0,-1.0,0.0,1.m4v,9.0
2024-02-28 11:16:06.258610,1709115366.2586102,-34.66796875,-24.4140625,-26.3671875,-44.43359375,1.0,0.0,-1.0,0.0,1.m4v,9.0
2024-02-28 11:16:06.262516,1709115366.262516,-43.45703125,-26.3671875,-30.2734375,-38.57421875,1.0,0.0,-1.0,0.0,1.m4v,9.0
2024-02-28 11:16:06.266422,1709115366.2664218,-28.3203125,-35.15625,-36.62109375,-34.66796875,1.0,0.0,-1.0,0.0,1.m4v,9.0
2024-02-28 11:16:06.270327,1709115366.270327,-43.9453125,-33.69140625,-36.1328125,-41.015625,1.0,0.0,-1.0,0.0,1.m4v,9.0
2024-02-28 11:16:06.274233,1709115366.274233,-54.19921875,-41.015625,-28.3203125,-51.26953125,1.0,0.0,-1.0,0.0,1.m4v,9.0
2024-02-28 11:16:06.278139,1709115366.2781389,-49.8046875,-57.6171875,-42.48046875,-49.31640625,1.0,0.0,-1.0,0.0,1.m4v,9.0
2024-02-28 11:16:06.282045,1709115366.2820446,-46.875,-64.453125,-48.33984375,-48.828125,1.0,0.0,-1.0,0.0,1.m4v,9.0
2024-02-28 11:16:06.285950,1709115366.2859504,-38.0859375,-34.1796875,-32.2265625,-44.43359375,1.0,0.0,-1.0,0.0,1.m4v,9.0
2024-02-28 11:16:06.289858,1709115366.2898583,-36.1328125,-7.32421875,-30.76171875,-41.50390625,1.0,0.0,-1.0,0.0,1.m4v,9.0
2024-02-28 11:16:06.293764,1709115366.293764,-25.87890625,-12.20703125,-32.71484375,-36.62109375,1.0,0.0,-1.0,0.0,1.m4v,9.0
2024-02-28 11:16:06.297670,1709115366.29767,-25.87890625,-5.859375,-27.83203125,-32.71484375,1.0,0.0,-1.0,0.0,1.m4v,9.0
2024-02-28 11:16:06.301576,1709115366.3015757,-37.109375,-12.6953125,-32.71484375,-39.55078125,1.0,0.0,-1.0,0.0,1.m4v,9.0
2024-02-28 11:16:06.305481,1709115366.3054814,-36.1328125,-39.55078125,-34.66796875,-41.015625,1.0,0.0,-1.0,0.0,1.m4v,9.0
2024-02-28 11:16:06.309387,1709115366.3093872,-35.64453125,-36.62109375,-17.08984375,-32.71484375,1.0,0.0,-1.0,0.0,1.m4v,9.0
2024-02-28 11:16:06.313293,1709115366.3132927,-40.52734375,-34.1796875,-12.6953125,-23.4375,1.0,0.0,-1.0,0.0,1.m4v,9.0
2024-02-28 11:16:06.317199,1709115366.3171985,-39.0625,-47.8515625,-26.3671875,-26.85546875,1.0,0.0,-1.0,0.0,1.m4v,9.0
2024-02-28 11:16:06.321104,1709115366.3211043,-41.50390625,-54.6875,-34.1796875,-44.43359375,1.0,0.0,-1.0,0.0,1.m4v,9.0
2024-02-28 11:16:06.325010,1709115366.32501,-53.7109375,-42.96875,-30.2734375,-45.41015625,1.0,0.0,-1.0,0.0,1.m4v,9.0
2024-02-28 11:16:06.328916,1709115366.3289158,-55.17578125,-27.83203125,-23.4375,-34.1796875,1.0,0.0,-1.0,0.0,1.m4v,9.0
2024-02-28 11:16:06.332822,1709115366.3328216,-43.9453125,-19.04296875,-35.64453125,-31.73828125,1.0,0.0,-1.0,0.0,1.m4v,9.0
2024-02-28 11:16:06.336728,1709115366.336728,-27.83203125,-19.04296875,-38.0859375,-32.71484375,1.0,0.0,-1.0,0.0,1.m4v,9.0
2024-02-28 11:16:06.340634,1709115366.3406336,-26.3671875,-40.0390625,-39.55078125,-33.203125,1.0,0.0,-1.0,0.0,1.m4v,9.0
2024-02-28 11:16:06.344539,1709115366.3445394,-26.85546875,-50.78125,-44.43359375,-39.0625,1.0,0.0,-1.0,0.0,1.m4v,9.0
2024-02-28 11:16:06.348445,1709115366.3484452,-43.45703125,-57.6171875,-29.78515625,-44.43359375,1.0,0.0,-1.0,0.0,1.m4v,9.0
2024-02-28 11:16:06.352351,1709115366.352351,-51.7578125,-47.8515625,-23.4375,-41.50390625,1.0,0.0,-1.0,0.0,1.m4v,9.0
2024-02-28 11:16:06.356257,1709115366.3562567,-35.15625,-35.64453125,-24.4140625,-39.55078125,1.0,0.0,-1.0,0.0,1.m4v,9.0
2024-02-28 11:16:06.360162,1709115366.3601625,-31.73828125,-23.92578125,-25.390625,-36.62109375,1.0,0.0,-1.0,0.0,1.m4v,9.0
2024-02-28 11:16:06.364068,1709115366.364068,-44.921875,-30.2734375,-24.90234375,-34.66796875,1.0,0.0,-1.0,0.0,1.m4v,9.0
2024-02-28 11:16:06.367974,1709115366.3679738,-45.41015625,-56.15234375,-30.2734375,-36.62109375,1.0,0.0,-1.0,0.0,1.m4v,9.0
2024-02-28 11:16:06.371880,1709115366.3718796,-31.25,-36.62109375,-38.0859375,-28.3203125,1.0,0.0,-1.0,0.0,1.m4v,9.0
2024-02-28 11:16:06.375785,1709115366.3757854,-21.484375,-16.6015625,-39.0625,-29.78515625,1.0,0.0,-1.0,0.0,1.m4v,9.0
2024-02-28 11:16:06.379691,1709115366.3796911,-21.484375,-41.9921875,-21.97265625,-32.2265625,1.0,0.0,-1.0,0.0,1.m4v,9.0
2024-02-28 11:16:06.383597,1709115366.383597,-30.2734375,-40.0390625,-5.859375,-20.01953125,1.0,0.0,-1.0,0.0,1.m4v,9.0
2024-02-28 11:16:06.387503,1709115366.387503,-26.3671875,-14.6484375,-26.3671875,-12.6953125,1.0,0.0,-1.0,0.0,1.m4v,9.0
2024-02-28 11:16:06.391408,1709115366.3914084,-30.2734375,-23.4375,-36.62109375,-18.5546875,1.0,0.0,-1.0,0.0,1.m4v,9.0
2024-02-28 11:16:06.395314,1709115366.3953142,-20.99609375,-23.92578125,-20.5078125,-18.5546875,1.0,0.0,-1.0,0.0,1.m4v,9.0
2024-02-28 11:16:06.399220,1709115366.39922,-15.13671875,-26.3671875,-10.25390625,-18.06640625,1.0,0.0,-1.0,0.0,1.m4v,9.0
2024-02-28 11:16:06.403126,1709115366.4031255,-36.1328125,-35.64453125,2.9296875,-31.25,1.0,0.0,-1.0,0.0,1.m4v,9.0
2024-02-28 11:16:06.407031,1709115366.4070313,-33.203125,-25.87890625,-3.90625,-19.53125,1.0,0.0,-1.0,0.0,1.m4v,9.0
2024-02-28 11:16:06.410937,1709115366.410937,-25.390625,-21.484375,-21.97265625,-8.30078125,1.0,0.0,-1.0,0.0,1.m4v,9.0
2024-02-28 11:16:06.414843,1709115366.4148428,-33.203125,-18.06640625,-29.78515625,-23.4375,1.0,0.0,-1.0,0.0,1.m4v,9.0
2024-02-28 11:16:06.418749,1709115366.4187486,-30.76171875,-22.94921875,-36.1328125,-28.80859375,1.0,0.0,-1.0,0.0,1.m4v,9.0
2024-02-28 11:16:06.422654,1709115366.4226544,-34.66796875,-26.3671875,-31.73828125,-31.73828125,1.0,0.0,-1.0,0.0,1.m4v,9.0
2024-02-28 11:16:06.426560,1709115366.42656,-42.48046875,-29.78515625,-28.3203125,-34.1796875,1.0,0.0,-1.0,0.0,1.m4v,9.0
2024-02-28 11:16:06.430465,1709115366.430465,-30.76171875,-44.43359375,-33.203125,-31.73828125,1.0,0.0,-1.0,0.0,1.m4v,9.0
2024-02-28 11:16:06.434371,1709115366.4343708,-26.3671875,-44.921875,-28.3203125,-22.94921875,1.0,0.0,-1.0,0.0,1.m4v,9.0
2024-02-28 11:16:06.438277,1709115366.4382763,-35.64453125,-31.73828125,-23.92578125,-30.2734375,1.0,0.0,-1.0,0.0,1.m4v,9.0
2024-02-28 11:16:06.442182,1709115366.442182,-41.50390625,-29.78515625,-27.34375,-35.15625,1.0,0.0,-1.0,0.0,1.m4v,9.0
2024-02-28 11:16:06.446088,1709115366.4460878,-31.25,-31.73828125,-28.3203125,-29.296875,1.0,0.0,-1.0,0.0,1.m4v,9.0
2024-02-28 11:16:06.449994,1709115366.4499936,-26.3671875,-27.34375,-25.390625,-27.34375,1.0,0.0,-1.0,0.0,1.m4v,9.0
2024-02-28 11:16:06.453899,1709115366.4538994,-38.57421875,-45.41015625,-18.06640625,-21.97265625,1.0,0.0,-1.0,0.0,1.m4v,9.0
2024-02-28 11:16:06.457805,1709115366.4578052,-34.66796875,-42.96875,-15.13671875,-20.99609375,1.0,0.0,-1.0,0.0,1.m4v,9.0
2024-02-28 11:16:06.461711,1709115366.4617107,-44.43359375,-17.578125,-20.99609375,-28.80859375,1.0,0.0,-1.0,0.0,1.m4v,9.0
2024-02-28 11:16:06.465616,1709115366.4656165,-55.6640625,-27.34375,-25.87890625,-35.64453125,1.0,0.0,-1.0,0.0,1.m4v,9.0
2024-02-28 11:16:06.469522,1709115366.4695222,-49.8046875,-27.83203125,-40.52734375,-40.0390625,1.0,0.0,-1.0,0.0,1.m4v,9.0
2024-02-28 11:16:06.473428,1709115366.473428,-40.0390625,-19.04296875,-40.52734375,-44.921875,1.0,0.0,-1.0,0.0,1.m4v,9.0
2024-02-28 11:16:06.477333,1709115366.4773326,-41.9921875,-27.83203125,-26.3671875,-37.109375,1.0,0.0,-1.0,0.0,1.m4v,9.0
2024-02-28 11:16:06.481238,1709115366.4812384,-39.55078125,-37.109375,-12.20703125,-34.66796875,1.0,0.0,-1.0,0.0,1.m4v,9.0
2024-02-28 11:16:06.485144,1709115366.485144,-40.0390625,-41.9921875,-17.578125,-39.55078125,1.0,0.0,-1.0,0.0,1.m4v,9.0
2024-02-28 11:16:06.489050,1709115366.48905,-42.96875,-40.52734375,-33.203125,-38.57421875,1.0,0.0,-1.0,0.0,1.m4v,9.0
2024-02-28 11:16:06.492956,1709115366.4929557,-22.94921875,-37.59765625,-36.1328125,-36.1328125,1.0,0.0,-1.0,0.0,1.m4v,9.0
2024-02-28 11:16:06.496861,1709115366.4968612,-25.87890625,-30.2734375,-42.48046875,-35.15625,1.0,0.0,-1.0,0.0,1.m4v,9.0
2024-02-28 11:16:06.500767,1709115366.500767,-17.08984375,-26.85546875,-30.76171875,-29.78515625,1.0,0.0,-1.0,0.0,1.m4v,9.0
2024-02-28 11:16:06.504673,1709115366.5046728,-15.13671875,-29.296875,-23.92578125,-32.71484375,1.0,0.0,-1.0,0.0,1.m4v,9.0
2024-02-28 11:16:06.508579,1709115366.5085783,-40.52734375,-35.15625,-25.390625,-36.62109375,1.0,0.0,-1.0,0.0,1.m4v,9.0
2024-02-28 11:16:06.512484,1709115366.5124843,-34.1796875,-43.9453125,-30.76171875,-35.64453125,1.0,0.0,-1.0,0.0,1.m4v,9.0
2024-02-28 11:16:06.516390,1709115366.51639,-35.64453125,-48.828125,-32.2265625,-37.59765625,1.0,0.0,-1.0,0.0,1.m4v,9.0
2024-02-28 11:16:06.520296,1709115366.5202956,-41.015625,-45.8984375,-39.55078125,-37.59765625,1.0,0.0,-1.0,0.0,1.m4v,9.0
2024-02-28 11:16:06.524207,1709115366.5242069,-32.71484375,-39.0625,-44.43359375,-42.96875,1.0,0.0,-1.0,0.0,1.m4v,9.0
2024-02-28 11:16:06.528113,1709115366.5281126,-41.50390625,-20.99609375,-33.203125,-47.36328125,1.0,0.0,-1.0,0.0,1.m4v,9.0
2024-02-28 11:16:06.532018,1709115366.5320184,-49.31640625,-4.8828125,-17.08984375,-45.41015625,1.0,0.0,-1.0,0.0,1.m4v,9.0
2024-02-28 11:16:06.535924,1709115366.535924,-38.57421875,-15.13671875,-18.5546875,-51.26953125,1.0,0.0,-1.0,0.0,1.m4v,9.0
2024-02-28 11:16:06.539830,1709115366.5398295,-33.69140625,-12.6953125,-34.66796875,-47.8515625,1.0,0.0,-1.0,0.0,1.m4v,9.0
2024-02-28 11:16:06.543736,1709115366.5437355,-41.9921875,-16.11328125,-49.8046875,-38.57421875,1.0,0.0,-1.0,0.0,1.m4v,9.0
2024-02-28 11:16:06.547641,1709115366.5476413,-33.203125,-37.59765625,-59.5703125,-36.1328125,1.0,0.0,-1.0,0.0,1.m4v,9.0
2024-02-28 11:16:06.551547,1709115366.551547,-31.73828125,-44.43359375,-39.55078125,-32.2265625,1.0,0.0,-1.0,0.0,1.m4v,9.0
2024-02-28 11:16:06.555453,1709115366.5554528,-38.0859375,-40.52734375,-25.87890625,-38.57421875,1.0,0.0,-1.0,0.0,1.m4v,9.0
2024-02-28 11:16:06.559358,1709115366.5593584,-34.66796875,-43.45703125,-29.296875,-48.828125,1.0,0.0,-1.0,0.0,1.m4v,9.0
2024-02-28 11:16:06.563264,1709115366.563264,-25.390625,-49.31640625,-23.4375,-37.59765625,1.0,0.0,-1.0,0.0,1.m4v,9.0
2024-02-28 11:16:06.567170,1709115366.56717,-29.296875,-30.2734375,-9.765625,-23.92578125,1.0,0.0,-1.0,0.0,1.m4v,9.0
2024-02-28 11:16:06.571088,1709115366.5710883,-41.9921875,-14.16015625,-15.13671875,-30.2734375,1.0,0.0,-1.0,0.0,1.m4v,9.0
2024-02-28 11:16:06.574994,1709115366.5749938,-37.59765625,-33.69140625,-27.34375,-42.48046875,1.0,0.0,-1.0,0.0,1.m4v,9.0
2024-02-28 11:16:06.578900,1709115366.5788996,-38.0859375,-42.96875,-27.34375,-44.43359375,1.0,0.0,-1.0,0.0,1.m4v,9.0
2024-02-28 11:16:06.582805,1709115366.5828054,-57.6171875,-30.2734375,-29.296875,-36.62109375,1.0,0.0,-1.0,0.0,1.m4v,9.0
2024-02-28 11:16:06.586711,1709115366.5867112,-49.8046875,-22.4609375,-31.25,-30.2734375,1.0,0.0,-1.0,0.0,1.m4v,9.0
2024-02-28 11:16:06.590617,1709115366.590617,-19.04296875,-23.4375,-20.01953125,-29.78515625,1.0,0.0,-1.0,0.0,1.m4v,9.0
2024-02-28 11:16:06.594523,1709115366.5945227,-25.87890625,-30.2734375,-22.4609375,-34.1796875,1.0,0.0,-1.0,0.0,1.m4v,9.0
2024-02-28 11:16:06.598428,1709115366.5984282,-45.41015625,-35.64453125,-44.43359375,-34.1796875,1.0,0.0,-1.0,0.0,1.m4v,9.0
2024-02-28 11:16:06.602334,1709115366.602334,-40.0390625,-44.43359375,-48.33984375,-29.78515625,1.0,0.0,-1.0,0.0,1.m4v,9.0
2024-02-28 11:16:06.606240,1709115366.6062398,-42.96875,-52.24609375,-47.36328125,-26.3671875,1.0,0.0,-1.0,0.0,1.m4v,9.0
2024-02-28 11:16:06.610146,1709115366.6101456,-38.0859375,-41.9921875,-30.2734375,-29.78515625,1.0,0.0,-1.0,0.0,1.m4v,9.0
2024-02-28 11:16:06.614051,1709115366.614051,-32.2265625,-19.53125,-17.08984375,-40.52734375,1.0,0.0,-1.0,0.0,1.m4v,9.0
2024-02-28 11:16:06.617960,1709115366.6179605,-44.43359375,-11.23046875,-23.4375,-42.96875,1.0,0.0,-1.0,0.0,1.m4v,9.0
2024-02-28 11:16:06.621866,1709115366.6218662,-41.015625,-20.01953125,-32.2265625,-38.57421875,1.0,0.0,-1.0,0.0,1.m4v,9.0
2024-02-28 11:16:06.625772,1709115366.625772,-43.9453125,-35.15625,-30.76171875,-32.71484375,1.0,0.0,-1.0,0.0,1.m4v,9.0
2024-02-28 11:16:06.629678,1709115366.6296778,-57.12890625,-40.52734375,-25.390625,-38.0859375,1.0,0.0,-1.0,0.0,1.m4v,9.0
2024-02-28 11:16:06.633583,1709115366.6335833,-43.45703125,-25.390625,-29.78515625,-36.1328125,1.0,0.0,-1.0,0.0,1.m4v,9.0
2024-02-28 11:16:06.637489,1709115366.637489,-38.57421875,-10.7421875,-39.0625,-38.0859375,1.0,0.0,-1.0,0.0,1.m4v,9.0
2024-02-28 11:16:06.641395,1709115366.6413949,-50.78125,-22.4609375,-49.31640625,-45.8984375,1.0,0.0,-1.0,0.0,1.m4v,9.0
2024-02-28 11:16:06.645301,1709115366.6453006,-51.26953125,-40.52734375,-41.015625,-42.48046875,1.0,0.0,-1.0,0.0,1.m4v,9.0
2024-02-28 11:16:06.649206,1709115366.6492064,-45.41015625,-40.0390625,-24.4140625,-40.52734375,1.0,0.0,-1.0,0.0,1.m4v,9.0
2024-02-28 11:16:06.653112,1709115366.6531122,-34.1796875,-41.9921875,-31.73828125,-37.59765625,1.0,0.0,-1.0,0.0,1.m4v,9.0
2024-02-28 11:16:06.657018,1709115366.6570177,-30.2734375,-47.8515625,-35.15625,-40.52734375,1.0,0.0,-1.0,0.0,1.m4v,9.0
2024-02-28 11:16:06.660923,1709115366.6609235,-33.69140625,-32.2265625,-29.78515625,-33.69140625,1.0,0.0,-1.0,0.0,1.m4v,9.0
2024-02-28 11:16:06.664832,1709115366.6648324,-43.45703125,-35.15625,-36.1328125,-31.25,1.0,0.0,-1.0,0.0,1.m4v,9.0
2024-02-28 11:16:06.668738,1709115366.668738,-39.0625,-39.0625,-37.59765625,-38.57421875,1.0,0.0,-1.0,0.0,1.m4v,9.0
2024-02-28 11:16:06.672644,1709115366.672644,-39.0625,-17.08984375,-28.3203125,-30.76171875,1.0,0.0,-1.0,0.0,1.m4v,9.0
2024-02-28 11:16:06.676550,1709115366.6765497,-48.828125,-12.20703125,-23.92578125,-34.66796875,1.0,0.0,-1.0,0.0,1.m4v,9.0
2024-02-28 11:16:06.680455,1709115366.6804554,-45.41015625,-24.90234375,-19.04296875,-39.55078125,1.0,0.0,-1.0,0.0,1.m4v,9.0
2024-02-28 11:16:06.684361,1709115366.6843612,-37.59765625,-22.94921875,-18.06640625,-32.2265625,1.0,0.0,-1.0,0.0,1.m4v,9.0
2024-02-28 11:16:06.688267,1709115366.6882668,-39.55078125,-19.04296875,-22.4609375,-36.62109375,1.0,0.0,-1.0,0.0,1.m4v,9.0
2024-02-28 11:16:06.692173,1709115366.6921723,-36.62109375,-21.484375,-29.78515625,-46.38671875,1.0,0.0,-1.0,0.0,1.m4v,9.0
2024-02-28 11:16:06.696078,1709115366.6960783,-44.921875,-36.1328125,-36.62109375,-41.015625,1.0,0.0,-1.0,0.0,1.m4v,9.0
2024-02-28 11:16:06.699984,1709115366.699984,-35.64453125,-57.6171875,-31.73828125,-29.296875,1.0,0.0,-1.0,0.0,1.m4v,9.0
2024-02-28 11:16:06.703890,1709115366.7038898,-34.1796875,-59.5703125,-25.87890625,-26.85546875,1.0,0.0,-1.0,0.0,1.m4v,9.0
2024-02-28 11:16:06.707796,1709115366.7077956,-53.7109375,-41.9921875,-28.3203125,-24.90234375,1.0,0.0,-1.0,0.0,1.m4v,9.0
2024-02-28 11:16:06.711702,1709115366.711702,-36.1328125,-27.83203125,-28.80859375,-30.76171875,1.0,0.0,-1.0,0.0,1.m4v,9.0
2024-02-28 11:16:06.715608,1709115366.7156076,-30.76171875,-13.671875,-16.6015625,-34.1796875,1.0,0.0,-1.0,0.0,1.m4v,9.0
2024-02-28 11:16:06.719513,1709115366.7195134,-36.62109375,-9.27734375,-11.71875,-34.1796875,1.0,0.0,-1.0,0.0,1.m4v,9.0
2024-02-28 11:16:06.723419,1709115366.7234192,-46.875,-23.92578125,-26.3671875,-44.921875,1.0,0.0,-1.0,0.0,1.m4v,9.0
2024-02-28 11:16:06.727325,1709115366.727325,-48.828125,-34.1796875,-35.64453125,-41.015625,1.0,0.0,-1.0,0.0,1.m4v,9.0
2024-02-28 11:16:06.731231,1709115366.7312307,-39.0625,-30.76171875,-30.76171875,-43.9453125,1.0,0.0,-1.0,0.0,1.m4v,9.0
2024-02-28 11:16:06.735136,1709115366.7351365,-41.9921875,-41.015625,-30.76171875,-48.828125,1.0,0.0,-1.0,0.0,1.m4v,9.0
2024-02-28 11:16:06.739042,1709115366.739042,-45.41015625,-57.6171875,-40.0390625,-48.828125,1.0,0.0,-1.0,0.0,1.m4v,9.0
2024-02-28 11:16:06.742948,1709115366.7429478,-36.62109375,-43.9453125,-36.1328125,-43.45703125,1.0,0.0,-1.0,0.0,1.m4v,9.0
2024-02-28 11:16:06.746854,1709115366.7468536,-33.69140625,-21.97265625,-34.66796875,-41.015625,1.0,0.0,-1.0,0.0,1.m4v,9.0
2024-02-28 11:16:06.750759,1709115366.7507594,-35.15625,-12.20703125,-25.390625,-41.015625,1.0,0.0,-1.0,0.0,1.m4v,9.0
2024-02-28 11:16:06.754665,1709115366.7546651,-29.296875,-18.5546875,-24.90234375,-41.50390625,1.0,0.0,-1.0,0.0,1.m4v,9.0
2024-02-28 11:16:06.758570,1709115366.7585704,-35.15625,-36.62109375,-41.50390625,-46.875,1.0,0.0,-1.0,0.0,1.m4v,9.0
2024-02-28 11:16:06.762476,1709115366.7624762,-42.96875,-42.96875,-45.41015625,-41.015625,1.0,0.0,-1.0,0.0,1.m4v,9.0
2024-02-28 11:16:06.766382,1709115366.766382,-26.3671875,-33.203125,-44.921875,-34.66796875,1.0,0.0,-1.0,0.0,1.m4v,9.0
2024-02-28 11:16:06.770288,1709115366.7702878,-33.203125,-31.73828125,-24.4140625,-28.3203125,1.0,0.0,-1.0,0.0,1.m4v,9.0
2024-02-28 11:16:06.774193,1709115366.7741933,-38.57421875,-42.96875,-20.99609375,-25.87890625,1.0,0.0,-1.0,0.0,1.m4v,9.0
2024-02-28 11:16:06.778099,1709115366.778099,-21.484375,-38.57421875,-37.109375,-30.2734375,1.0,0.0,-1.0,0.0,1.m4v,9.0
2024-02-28 11:16:06.782005,1709115366.7820048,-28.80859375,-24.90234375,-34.1796875,-36.62109375,1.0,0.0,-1.0,0.0,1.m4v,9.0
2024-02-28 11:16:06.785911,1709115366.7859106,-49.8046875,-38.0859375,-25.390625,-39.55078125,1.0,0.0,-1.0,0.0,1.m4v,9.0
2024-02-28 11:16:06.789816,1709115366.7898164,-50.78125,-30.76171875,-30.76171875,-38.0859375,1.0,0.0,-1.0,0.0,1.m4v,9.0
2024-02-28 11:16:06.793722,1709115366.7937222,-31.73828125,-13.671875,-32.71484375,-33.203125,1.0,0.0,-1.0,0.0,1.m4v,9.0
2024-02-28 11:16:06.797628,1709115366.7976277,-23.92578125,-6.8359375,-38.57421875,-34.1796875,1.0,0.0,-1.0,0.0,1.m4v,9.0
2024-02-28 11:16:06.801533,1709115366.8015337,-33.69140625,-15.625,-42.96875,-36.62109375,1.0,0.0,-1.0,0.0,1.m4v,9.0
2024-02-28 11:16:06.805438,1709115366.8054378,-34.66796875,-39.55078125,-26.85546875,-31.73828125,1.0,0.0,-1.0,0.0,1.m4v,9.0
2024-02-28 11:16:06.809344,1709115366.8093436,-27.83203125,-40.52734375,-20.99609375,-36.1328125,1.0,0.0,-1.0,0.0,1.m4v,9.0
2024-02-28 11:16:06.813249,1709115366.813249,-36.62109375,-30.76171875,-33.69140625,-42.96875,1.0,0.0,-1.0,0.0,1.m4v,9.0
2024-02-28 11:16:06.817155,1709115366.8171551,-46.38671875,-31.25,-39.0625,-38.57421875,1.0,0.0,-1.0,0.0,1.m4v,9.0
2024-02-28 11:16:06.821061,1709115366.821061,-32.2265625,-52.24609375,-35.15625,-35.15625,1.0,0.0,-1.0,0.0,1.m4v,9.0
2024-02-28 11:16:06.824966,1709115366.8249664,-39.55078125,-58.10546875,-49.8046875,-40.0390625,1.0,0.0,-1.0,0.0,1.m4v,9.0
2024-02-28 11:16:06.828872,1709115366.8288722,-47.8515625,-39.55078125,-62.5,-41.9921875,1.0,0.0,-1.0,0.0,1.m4v,9.0
2024-02-28 11:16:06.832778,1709115366.832778,-41.015625,-23.4375,-47.36328125,-36.1328125,1.0,0.0,-1.0,0.0,1.m4v,9.0
2024-02-28 11:16:06.836684,1709115366.8366838,-41.50390625,-13.671875,-31.73828125,-40.0390625,1.0,0.0,-1.0,0.0,1.m4v,9.0
2024-02-28 11:16:06.840590,1709115366.8405895,-41.015625,-20.99609375,-21.97265625,-49.8046875,1.0,0.0,-1.0,0.0,1.m4v,9.0
2024-02-28 11:16:06.844495,1709115366.844495,-46.38671875,-29.296875,-10.25390625,-39.0625,1.0,0.0,-1.0,0.0,1.m4v,9.0
2024-02-28 11:16:06.848401,1709115366.8484008,-45.41015625,-31.73828125,-26.85546875,-29.296875,1.0,0.0,-1.0,0.0,1.m4v,9.0
2024-02-28 11:16:06.852305,1709115366.8523047,-38.57421875,-35.64453125,-46.38671875,-40.0390625,1.0,0.0,-1.0,0.0,1.m4v,9.0
2024-02-28 11:16:06.856210,1709115366.8562105,-39.55078125,-29.78515625,-39.0625,-44.43359375,1.0,0.0,-1.0,0.0,1.m4v,9.0
2024-02-28 11:16:06.860116,1709115366.8601162,-33.203125,-25.390625,-34.66796875,-41.9921875,1.0,0.0,-1.0,0.0,1.m4v,9.0
2024-02-28 11:16:06.864022,1709115366.864022,-25.390625,-22.94921875,-29.78515625,-42.96875,1.0,0.0,-1.0,0.0,1.m4v,9.0
2024-02-28 11:16:06.867928,1709115366.8679276,-30.2734375,-27.83203125,-26.3671875,-43.9453125,1.0,0.0,-1.0,0.0,1.m4v,9.0
2024-02-28 11:16:06.871833,1709115366.871833,-13.18359375,-37.59765625,-38.57421875,-34.66796875,1.0,0.0,-1.0,0.0,1.m4v,9.0
2024-02-28 11:16:06.875739,1709115366.875739,-10.25390625,-40.52734375,-47.36328125,-38.57421875,1.0,0.0,-1.0,0.0,1.m4v,9.0
2024-02-28 11:16:06.879645,1709115366.8796449,-29.78515625,-46.38671875,-45.8984375,-52.734375,1.0,0.0,-1.0,0.0,1.m4v,9.0
2024-02-28 11:16:06.883551,1709115366.8835506,-44.921875,-47.36328125,-37.59765625,-50.29296875,1.0,0.0,-1.0,0.0,1.m4v,9.0
2024-02-28 11:16:06.887456,1709115366.8874564,-41.9921875,-36.62109375,-44.921875,-50.29296875,1.0,0.0,-1.0,0.0,1.m4v,9.0
2024-02-28 11:16:06.891362,1709115366.891362,-40.52734375,-25.390625,-48.33984375,-54.19921875,1.0,0.0,-1.0,0.0,1.m4v,9.0
2024-02-28 11:16:06.895268,1709115366.8952675,-53.22265625,-15.625,-29.296875,-43.45703125,1.0,0.0,-1.0,0.0,1.m4v,9.0
2024-02-28 11:16:06.899172,1709115366.8991716,-46.875,-17.578125,-22.94921875,-41.50390625,1.0,0.0,-1.0,0.0,1.m4v,9.0
2024-02-28 11:16:06.903077,1709115366.9030774,-42.96875,-33.69140625,-26.85546875,-52.734375,1.0,0.0,-1.0,0.0,1.m4v,9.0
2024-02-28 11:16:06.906983,1709115366.9069831,-50.29296875,-39.55078125,-31.73828125,-42.96875,1.0,0.0,-1.0,0.0,1.m4v,9.0
2024-02-28 11:16:06.910889,1709115366.910889,-38.57421875,-33.203125,-32.71484375,-34.1796875,1.0,0.0,-1.0,0.0,1.m4v,9.0
2024-02-28 11:16:06.914794,1709115366.9147944,-16.11328125,-30.2734375,-23.4375,-41.9921875,1.0,0.0,-1.0,0.0,1.m4v,9.0
2024-02-28 11:16:06.918700,1709115366.9187002,-33.203125,-36.62109375,-21.484375,-49.8046875,1.0,0.0,-1.0,0.0,1.m4v,9.0
2024-02-28 11:16:06.922606,1709115366.922606,-47.8515625,-27.34375,-44.921875,-50.78125,1.0,0.0,-1.0,0.0,1.m4v,9.0
2024-02-28 11:16:06.926512,1709115366.9265118,-45.41015625,-17.578125,-51.26953125,-49.31640625,1.0,0.0,-1.0,0.0,1.m4v,9.0
2024-02-28 11:16:06.930418,1709115366.9304175,-33.69140625,-24.90234375,-34.1796875,-44.43359375,1.0,0.0,-1.0,0.0,1.m4v,9.0
2024-02-28 11:16:06.934323,1709115366.9343233,-24.90234375,-27.34375,-27.34375,-42.96875,1.0,0.0,-1.0,0.0,1.m4v,9.0
2024-02-28 11:16:06.938229,1709115366.9382288,-38.57421875,-32.71484375,-41.015625,-43.45703125,1.0,0.0,-1.0,0.0,1.m4v,9.0
2024-02-28 11:16:06.942135,1709115366.9421346,-44.921875,-36.1328125,-46.38671875,-46.38671875,1.0,0.0,-1.0,0.0,1.m4v,9.0
2024-02-28 11:16:06.946044,1709115366.9460444,-40.52734375,-35.64453125,-54.19921875,-44.43359375,1.0,0.0,-1.0,0.0,1.m4v,9.0
2024-02-28 11:16:06.949950,1709115366.9499502,-42.96875,-34.1796875,-58.59375,-34.66796875,1.0,0.0,-1.0,0.0,1.m4v,9.0
2024-02-28 11:16:06.953856,1709115366.9538558,-42.48046875,-39.55078125,-29.78515625,-30.2734375,1.0,0.0,-1.0,0.0,1.m4v,9.0
2024-02-28 11:16:06.957762,1709115366.9577615,-25.87890625,-43.45703125,-14.16015625,-34.66796875,1.0,0.0,-1.0,0.0,1.m4v,9.0
2024-02-28 11:16:06.961667,1709115366.9616673,-37.109375,-48.828125,-13.671875,-44.43359375,1.0,0.0,-1.0,0.0,1.m4v,9.0
2024-02-28 11:16:06.965573,1709115366.965573,-63.96484375,-41.9921875,-29.78515625,-48.33984375,1.0,0.0,-1.0,0.0,1.m4v,9.0
2024-02-28 11:16:06.969479,1709115366.9694788,-35.15625,-36.1328125,-38.57421875,-41.9921875,1.0,0.0,-1.0,0.0,1.m4v,9.0
2024-02-28 11:16:06.973385,1709115366.9733846,-34.1796875,-41.015625,-33.69140625,-53.22265625,1.0,0.0,-1.0,0.0,1.m4v,9.0
2024-02-28 11:16:06.977290,1709115366.9772902,-40.0390625,-25.87890625,-30.2734375,-51.7578125,1.0,0.0,-1.0,0.0,1.m4v,9.0
2024-02-28 11:16:06.981196,1709115366.981196,-32.71484375,-25.87890625,-30.76171875,-41.015625,1.0,0.0,-1.0,0.0,1.m4v,9.0
2024-02-28 11:16:06.985102,1709115366.9851017,-46.38671875,-37.109375,-35.15625,-49.31640625,1.0,0.0,-1.0,0.0,1.m4v,9.0
2024-02-28 11:16:06.989007,1709115366.9890077,-33.69140625,-40.0390625,-26.3671875,-39.55078125,1.0,0.0,-1.0,0.0,1.m4v,9.0
2024-02-28 11:16:06.992916,1709115366.992916,-27.83203125,-59.08203125,-19.53125,-37.109375,1.0,0.0,-1.0,0.0,1.m4v,9.0
2024-02-28 11:16:06.996822,1709115366.996822,-32.2265625,-46.38671875,-41.015625,-42.48046875,1.0,0.0,-1.0,0.0,1.m4v,9.0
2024-02-28 11:16:07.000728,1709115367.0007277,-25.390625,-18.5546875,-58.59375,-42.48046875,1.0,0.0,-1.0,0.0,1.m4v,9.0
2024-02-28 11:16:07.004633,1709115367.0046332,-38.57421875,-27.34375,-43.45703125,-42.96875,1.0,0.0,-1.0,0.0,1.m4v,9.0
2024-02-28 11:16:07.008539,1709115367.008539,-62.01171875,-26.3671875,-28.80859375,-42.48046875,1.0,0.0,-1.0,0.0,1.m4v,9.0
2024-02-28 11:16:07.012445,1709115367.0124447,-60.546875,-19.04296875,-22.4609375,-47.8515625,1.0,0.0,-1.0,0.0,1.m4v,9.0
2024-02-28 11:16:07.016351,1709115367.0163505,-46.38671875,-21.484375,-25.87890625,-49.8046875,1.0,0.0,-1.0,0.0,1.m4v,9.0
2024-02-28 11:16:07.020256,1709115367.0202563,-51.7578125,-25.87890625,-36.1328125,-43.45703125,1.0,0.0,-1.0,0.0,1.m4v,9.0
2024-02-28 11:16:07.024162,1709115367.024162,-52.734375,-33.203125,-28.80859375,-40.52734375,1.0,0.0,-1.0,0.0,1.m4v,9.0
2024-02-28 11:16:07.028068,1709115367.0280676,-37.59765625,-35.15625,-12.20703125,-39.0625,1.0,0.0,-1.0,0.0,1.m4v,9.0
2024-02-28 11:16:07.031973,1709115367.0319734,-25.87890625,-33.203125,-17.578125,-30.2734375,1.0,0.0,-1.0,0.0,1.m4v,9.0
2024-02-28 11:16:07.035879,1709115367.0358791,-42.96875,-29.296875,-34.66796875,-29.78515625,1.0,0.0,-1.0,0.0,1.m4v,9.0
2024-02-28 11:16:07.039788,1709115367.0397878,-46.38671875,-29.296875,-29.78515625,-34.1796875,1.0,0.0,-1.0,0.0,1.m4v,9.0
2024-02-28 11:16:07.043694,1709115367.0436935,-40.52734375,-41.015625,-29.296875,-36.1328125,1.0,0.0,-1.0,0.0,1.m4v,9.0
2024-02-28 11:16:07.047599,1709115367.0475993,-34.1796875,-37.109375,-32.71484375,-25.390625,1.0,0.0,-1.0,0.0,1.m4v,9.0
2024-02-28 11:16:07.051505,1709115367.051505,-29.296875,-25.390625,-34.66796875,-14.6484375,1.0,0.0,-1.0,0.0,1.m4v,9.0
2024-02-28 11:16:07.055411,1709115367.0554109,-26.85546875,-31.73828125,-44.43359375,-22.4609375,1.0,0.0,-1.0,0.0,1.m4v,9.0
2024-02-28 11:16:07.059317,1709115367.0593166,-13.671875,-37.109375,-38.57421875,-25.390625,1.0,0.0,-1.0,0.0,1.m4v,9.0
2024-02-28 11:16:07.063222,1709115367.0632222,-36.62109375,-41.9921875,-28.3203125,-30.2734375,1.0,0.0,-1.0,0.0,1.m4v,9.0
2024-02-28 11:16:07.067128,1709115367.067128,-49.8046875,-35.15625,-32.2265625,-28.80859375,1.0,0.0,-1.0,0.0,1.m4v,9.0
2024-02-28 11:16:07.071034,1709115367.0710337,-40.0390625,-19.04296875,-26.3671875,-27.34375,1.0,0.0,-1.0,0.0,1.m4v,9.0
2024-02-28 11:16:07.074939,1709115367.0749395,-45.41015625,-30.2734375,-21.97265625,-37.109375,1.0,0.0,-1.0,0.0,1.m4v,9.0
2024-02-28 11:16:07.078845,1709115367.0788453,-46.875,-42.96875,-18.5546875,-40.0390625,1.0,0.0,-1.0,0.0,1.m4v,9.0
2024-02-28 11:16:07.082751,1709115367.082751,-41.9921875,-47.8515625,-21.484375,-38.57421875,1.0,0.0,-1.0,0.0,1.m4v,9.0
2024-02-28 11:16:07.086659,1709115367.086659,-31.73828125,-41.015625,-31.73828125,-38.57421875,1.0,0.0,-1.0,0.0,1.m4v,9.0
2024-02-28 11:16:07.090565,1709115367.0905647,-47.36328125,-35.15625,-34.66796875,-42.96875,1.0,0.0,-1.0,0.0,1.m4v,9.0
2024-02-28 11:16:07.094471,1709115367.0944705,-48.828125,-40.52734375,-30.2734375,-43.9453125,1.0,0.0,-1.0,0.0,1.m4v,9.0
2024-02-28 11:16:07.098376,1709115367.0983765,-39.55078125,-42.48046875,-32.2265625,-36.62109375,1.0,0.0,-1.0,0.0,1.m4v,9.0
2024-02-28 11:16:07.102282,1709115367.102282,-52.734375,-50.78125,-35.15625,-34.66796875,1.0,0.0,-1.0,0.0,1.m4v,9.0
2024-02-28 11:16:07.106188,1709115367.1061876,-52.734375,-41.9921875,-28.3203125,-36.1328125,1.0,0.0,-1.0,0.0,1.m4v,9.0
2024-02-28 11:16:07.110093,1709115367.1100934,-49.8046875,-36.1328125,-27.83203125,-44.921875,1.0,0.0,-1.0,0.0,1.m4v,9.0
2024-02-28 11:16:07.113999,1709115367.1139991,-62.5,-31.73828125,-33.203125,-51.26953125,1.0,0.0,-1.0,0.0,1.m4v,9.0
2024-02-28 11:16:07.117905,1709115367.117905,-50.29296875,-16.6015625,-42.96875,-39.0625,1.0,0.0,-1.0,0.0,1.m4v,9.0
2024-02-28 11:16:07.121811,1709115367.121811,-32.71484375,-18.5546875,-57.6171875,-41.9921875,1.0,0.0,-1.0,0.0,1.m4v,9.0
2024-02-28 11:16:07.125716,1709115367.1257164,-24.4140625,-18.06640625,-45.8984375,-45.8984375,1.0,0.0,-1.0,0.0,1.m4v,9.0
2024-02-28 11:16:07.129622,1709115367.129622,-22.4609375,-30.76171875,-24.90234375,-41.9921875,1.0,0.0,-1.0,0.0,1.m4v,9.0
2024-02-28 11:16:07.133544,1709115367.1335444,-24.4140625,-66.89453125,-18.5546875,-41.50390625,1.0,0.0,-1.0,0.0,1.m4v,9.0
2024-02-28 11:16:07.137450,1709115367.1374502,-18.5546875,-60.05859375,-24.90234375,-34.1796875,1.0,0.0,-1.0,0.0,1.m4v,9.0
2024-02-28 11:16:07.141356,1709115367.141356,-23.92578125,-22.4609375,-23.92578125,-24.4140625,1.0,0.0,-1.0,0.0,1.m4v,9.0
2024-02-28 11:16:07.145262,1709115367.1452618,-44.43359375,-20.01953125,-21.97265625,-29.78515625,1.0,0.0,-1.0,0.0,1.m4v,9.0
2024-02-28 11:16:07.149168,1709115367.1491675,-56.640625,-22.94921875,-31.73828125,-39.0625,1.0,0.0,-1.0,0.0,1.m4v,9.0
2024-02-28 11:16:07.153073,1709115367.1530733,-52.734375,-16.6015625,-39.55078125,-42.96875,1.0,0.0,-1.0,0.0,1.m4v,9.0
2024-02-28 11:16:07.156979,1709115367.1569788,-48.828125,-14.6484375,-40.0390625,-37.59765625,1.0,0.0,-1.0,0.0,1.m4v,9.0
2024-02-28 11:16:07.160885,1709115367.1608846,-55.6640625,-26.85546875,-33.69140625,-39.55078125,1.0,0.0,-1.0,0.0,1.m4v,9.0
2024-02-28 11:16:07.164790,1709115367.1647904,-53.22265625,-37.59765625,-29.296875,-51.26953125,1.0,0.0,-1.0,0.0,1.m4v,9.0
2024-02-28 11:16:07.168696,1709115367.1686962,-28.3203125,-36.62109375,-23.4375,-43.45703125,1.0,0.0,-1.0,0.0,1.m4v,9.0
2024-02-28 11:16:07.172602,1709115367.172602,-24.90234375,-31.73828125,-25.390625,-30.76171875,1.0,0.0,-1.0,0.0,1.m4v,9.0
2024-02-28 11:16:07.176508,1709115367.1765077,-37.59765625,-33.69140625,-41.9921875,-31.73828125,1.0,0.0,-1.0,0.0,1.m4v,9.0
2024-02-28 11:16:07.180413,1709115367.1804123,-38.57421875,-34.1796875,-35.15625,-37.109375,1.0,0.0,-1.0,0.0,1.m4v,9.0
2024-02-28 11:16:07.184318,1709115367.1843183,-44.43359375,-27.34375,-17.578125,-40.52734375,1.0,0.0,-1.0,0.0,1.m4v,9.0
2024-02-28 11:16:07.188224,1709115367.188224,-37.59765625,-30.2734375,-18.06640625,-33.203125,1.0,0.0,-1.0,0.0,1.m4v,9.0
2024-02-28 11:16:07.192130,1709115367.19213,-36.62109375,-36.1328125,-26.3671875,-30.76171875,1.0,0.0,-1.0,0.0,1.m4v,9.0
2024-02-28 11:16:07.196036,1709115367.1960356,-43.9453125,-45.8984375,-36.1328125,-41.015625,1.0,0.0,-1.0,0.0,1.m4v,9.0
2024-02-28 11:16:07.199941,1709115367.1999412,-30.2734375,-28.80859375,-27.83203125,-43.45703125,1.0,0.0,-1.0,0.0,1.m4v,9.0
2024-02-28 11:16:07.203847,1709115367.203847,-33.69140625,-12.6953125,-23.4375,-40.0390625,1.0,0.0,-1.0,0.0,1.m4v,9.0
2024-02-28 11:16:07.207753,1709115367.2077527,-45.8984375,-26.3671875,-47.8515625,-47.8515625,1.0,0.0,-1.0,0.0,1.m4v,9.0
2024-02-28 11:16:07.211658,1709115367.2116585,-27.83203125,-22.94921875,-55.6640625,-51.26953125,1.0,0.0,-1.0,0.0,1.m4v,9.0
2024-02-28 11:16:07.215564,1709115367.2155645,-27.34375,-18.06640625,-25.390625,-41.9921875,1.0,0.0,-1.0,0.0,1.m4v,9.0
2024-02-28 11:16:07.219470,1709115367.21947,-37.109375,-35.64453125,-28.3203125,-40.0390625,1.0,0.0,-1.0,0.0,1.m4v,9.0
2024-02-28 11:16:07.223376,1709115367.2233756,-33.203125,-36.62109375,-40.52734375,-38.0859375,1.0,0.0,-1.0,0.0,1.m4v,9.0
2024-02-28 11:16:07.227279,1709115367.227279,-45.8984375,-24.4140625,-23.92578125,-37.59765625,1.0,0.0,-1.0,0.0,1.m4v,9.0
2024-02-28 11:16:07.231185,1709115367.2311847,-50.29296875,-27.83203125,-25.390625,-48.828125,1.0,0.0,-1.0,0.0,1.m4v,9.0
2024-02-28 11:16:07.235090,1709115367.2350905,-33.203125,-29.296875,-35.15625,-43.45703125,1.0,0.0,-1.0,0.0,1.m4v,9.0
2024-02-28 11:16:07.238996,1709115367.2389965,-29.296875,-18.5546875,-46.38671875,-39.55078125,1.0,0.0,-1.0,0.0,1.m4v,9.0
2024-02-28 11:16:07.242902,1709115367.242902,-39.55078125,-20.99609375,-49.31640625,-48.33984375,1.0,0.0,-1.0,0.0,1.m4v,9.0
2024-02-28 11:16:07.246808,1709115367.2468076,-33.203125,-21.97265625,-32.71484375,-39.0625,1.0,0.0,-1.0,0.0,1.m4v,9.0
2024-02-28 11:16:07.250713,1709115367.250713,-38.0859375,-27.83203125,-22.94921875,-29.78515625,1.0,0.0,-1.0,0.0,1.m4v,9.0
2024-02-28 11:16:07.254619,1709115367.2546191,-48.828125,-46.38671875,-29.296875,-34.66796875,1.0,0.0,-1.0,0.0,1.m4v,9.0
2024-02-28 11:16:07.258525,1709115367.258525,-29.78515625,-54.19921875,-26.85546875,-36.1328125,1.0,0.0,-1.0,0.0,1.m4v,9.0
2024-02-28 11:16:07.262431,1709115367.262431,-20.01953125,-41.50390625,-24.90234375,-36.62109375,1.0,0.0,-1.0,0.0,1.m4v,9.0
2024-02-28 11:16:07.266336,1709115367.2663364,-22.4609375,-14.6484375,-28.3203125,-35.64453125,1.0,0.0,-1.0,0.0,1.m4v,9.0
2024-02-28 11:16:07.270242,1709115367.270242,-32.2265625,-3.41796875,-28.80859375,-30.76171875,1.0,0.0,-1.0,0.0,1.m4v,9.0
2024-02-28 11:16:07.274145,1709115367.274145,-46.38671875,-11.23046875,-21.97265625,-30.2734375,1.0,0.0,-1.0,0.0,1.m4v,9.0
2024-02-28 11:16:07.278050,1709115367.2780504,-29.78515625,-10.7421875,-21.97265625,-15.13671875,1.0,0.0,-1.0,0.0,1.m4v,9.0
2024-02-28 11:16:07.281956,1709115367.2819562,-25.390625,-22.94921875,-27.34375,-16.11328125,1.0,0.0,-1.0,0.0,1.m4v,9.0
2024-02-28 11:16:07.285862,1709115367.285862,-36.62109375,-43.9453125,-27.34375,-22.94921875,1.0,0.0,-1.0,0.0,1.m4v,9.0
2024-02-28 11:16:07.289768,1709115367.2897675,-37.109375,-47.36328125,-25.390625,-26.3671875,1.0,0.0,-1.0,0.0,1.m4v,9.0
2024-02-28 11:16:07.293674,1709115367.2936735,-33.69140625,-23.92578125,-35.64453125,-30.2734375,1.0,0.0,-1.0,0.0,1.m4v,9.0
2024-02-28 11:16:07.297579,1709115367.2975793,-39.0625,-23.92578125,-46.38671875,-34.1796875,1.0,0.0,-1.0,0.0,1.m4v,9.0
2024-02-28 11:16:07.301485,1709115367.3014848,-37.109375,-51.26953125,-40.0390625,-40.0390625,1.0,0.0,-1.0,0.0,1.m4v,9.0
2024-02-28 11:16:07.305391,1709115367.3053906,-26.85546875,-45.8984375,-36.1328125,-37.109375,1.0,0.0,-1.0,0.0,1.m4v,9.0
2024-02-28 11:16:07.309296,1709115367.3092964,-40.52734375,-34.1796875,-35.15625,-43.45703125,1.0,0.0,-1.0,0.0,1.m4v,9.0
2024-02-28 11:16:07.313202,1709115367.313202,-35.64453125,-33.69140625,-38.0859375,-45.8984375,1.0,0.0,-1.0,0.0,1.m4v,9.0
2024-02-28 11:16:07.317108,1709115367.317108,-26.3671875,-32.71484375,-33.69140625,-40.0390625,1.0,0.0,-1.0,0.0,1.m4v,9.0
2024-02-28 11:16:07.321018,1709115367.3210182,-30.76171875,-26.3671875,-23.4375,-31.25,1.0,0.0,-1.0,0.0,1.m4v,9.0
2024-02-28 11:16:07.324924,1709115367.324924,-35.15625,-22.4609375,-37.109375,-29.296875,1.0,0.0,-1.0,0.0,1.m4v,9.0
2024-02-28 11:16:07.328830,1709115367.3288295,-31.25,-19.04296875,-36.1328125,-35.64453125,1.0,0.0,-1.0,0.0,1.m4v,9.0
2024-02-28 11:16:07.332735,1709115367.3327353,-32.2265625,-34.1796875,-30.2734375,-38.0859375,1.0,0.0,-1.0,0.0,1.m4v,9.0
2024-02-28 11:16:07.336641,1709115367.336641,-42.96875,-43.9453125,-43.45703125,-42.48046875,1.0,0.0,-1.0,0.0,1.m4v,9.0
2024-02-28 11:16:07.340547,1709115367.3405468,-46.38671875,-16.11328125,-42.48046875,-43.9453125,1.0,0.0,-1.0,0.0,1.m4v,9.0
2024-02-28 11:16:07.344453,1709115367.3444526,-47.36328125,-9.765625,-41.50390625,-46.38671875,1.0,0.0,-1.0,0.0,1.m4v,9.0
2024-02-28 11:16:07.348358,1709115367.3483584,-45.41015625,-27.83203125,-43.9453125,-42.48046875,1.0,0.0,-1.0,0.0,1.m4v,9.0
2024-02-28 11:16:07.352264,1709115367.352264,-27.83203125,-35.64453125,-39.55078125,-40.0390625,1.0,0.0,-1.0,0.0,1.m4v,9.0
2024-02-28 11:16:07.356170,1709115367.3561697,-20.01953125,-37.109375,-49.31640625,-45.8984375,1.0,0.0,-1.0,0.0,1.m4v,9.0
2024-02-28 11:16:07.360075,1709115367.3600757,-39.0625,-34.66796875,-56.640625,-35.15625,1.0,0.0,-1.0,0.0,1.m4v,9.0
2024-02-28 11:16:07.363981,1709115367.3639812,-26.85546875,-24.90234375,-43.9453125,-27.83203125,1.0,0.0,-1.0,0.0,1.m4v,9.0
2024-02-28 11:16:07.367890,1709115367.36789,-12.6953125,-34.66796875,-32.71484375,-24.4140625,1.0,0.0,-1.0,0.0,1.m4v,9.0
2024-02-28 11:16:07.371796,1709115367.3717957,-23.4375,-41.9921875,-14.6484375,-22.4609375,1.0,0.0,-1.0,0.0,1.m4v,9.0
2024-02-28 11:16:07.375701,1709115367.3757014,-20.01953125,-33.69140625,-6.34765625,-27.83203125,1.0,0.0,-1.0,0.0,1.m4v,9.0
2024-02-28 11:16:07.379607,1709115367.3796072,-19.04296875,-36.1328125,-20.01953125,-28.80859375,1.0,0.0,-1.0,0.0,1.m4v,9.0
2024-02-28 11:16:07.383513,1709115367.383513,-35.64453125,-33.69140625,-36.1328125,-34.1796875,1.0,0.0,-1.0,0.0,1.m4v,9.0
2024-02-28 11:16:07.387419,1709115367.3874185,-49.8046875,-19.53125,-39.55078125,-48.33984375,1.0,0.0,-1.0,0.0,1.m4v,9.0
2024-02-28 11:16:07.391324,1709115367.3913243,-56.15234375,-22.94921875,-35.64453125,-57.12890625,1.0,0.0,-1.0,0.0,1.m4v,9.0
2024-02-28 11:16:07.395230,1709115367.39523,-38.0859375,-34.1796875,-38.0859375,-58.59375,1.0,0.0,-1.0,0.0,1.m4v,9.0
2024-02-28 11:16:07.399136,1709115367.3991358,-29.78515625,-33.203125,-34.66796875,-47.8515625,1.0,0.0,-1.0,0.0,1.m4v,9.0
2024-02-28 11:16:07.403042,1709115367.4030416,-40.0390625,-41.9921875,-32.71484375,-44.43359375,1.0,0.0,-1.0,0.0,1.m4v,9.0
2024-02-28 11:16:07.406947,1709115367.4069474,-22.94921875,-51.26953125,-29.296875,-42.96875,1.0,0.0,-1.0,0.0,1.m4v,9.0
2024-02-28 11:16:07.410853,1709115367.410853,-21.484375,-30.76171875,-36.62109375,-42.96875,1.0,0.0,-1.0,0.0,1.m4v,9.0
2024-02-28 11:16:07.414761,1709115367.4147606,-44.43359375,-20.99609375,-58.59375,-50.78125,1.0,0.0,-1.0,0.0,1.m4v,9.0
2024-02-28 11:16:07.418666,1709115367.4186664,-35.64453125,-41.50390625,-49.31640625,-39.55078125,1.0,0.0,-1.0,0.0,1.m4v,9.0
2024-02-28 11:16:07.422572,1709115367.422572,-27.83203125,-43.45703125,-23.92578125,-26.3671875,1.0,0.0,-1.0,0.0,1.m4v,9.0
2024-02-28 11:16:07.426478,1709115367.4264777,-37.59765625,-33.69140625,-15.13671875,-33.203125,1.0,0.0,-1.0,0.0,1.m4v,9.0
2024-02-28 11:16:07.430383,1709115367.4303834,-39.55078125,-32.71484375,-9.27734375,-46.38671875,1.0,0.0,-1.0,0.0,1.m4v,9.0
2024-02-28 11:16:07.434289,1709115367.4342892,-43.45703125,-28.80859375,-14.6484375,-50.29296875,1.0,0.0,-1.0,0.0,1.m4v,9.0
2024-02-28 11:16:07.438195,1709115367.438195,-31.25,-25.87890625,-30.76171875,-40.52734375,1.0,0.0,-1.0,0.0,1.m4v,9.0
2024-02-28 11:16:07.442101,1709115367.4421008,-27.83203125,-25.87890625,-28.80859375,-37.59765625,1.0,0.0,-1.0,0.0,1.m4v,9.0
2024-02-28 11:16:07.446006,1709115367.4460063,-37.109375,-20.01953125,-30.2734375,-33.203125,1.0,0.0,-1.0,0.0,1.m4v,9.0
2024-02-28 11:16:07.449912,1709115367.449912,-24.90234375,-14.16015625,-34.1796875,-34.66796875,1.0,0.0,-1.0,0.0,1.m4v,9.0
2024-02-28 11:16:07.453818,1709115367.4538178,-23.92578125,-23.92578125,-26.3671875,-32.2265625,1.0,0.0,-1.0,0.0,1.m4v,9.0
2024-02-28 11:16:07.457724,1709115367.4577236,-26.3671875,-22.94921875,-21.97265625,-24.90234375,1.0,0.0,-1.0,0.0,1.m4v,9.0
2024-02-28 11:16:07.461630,1709115367.46163,-13.671875,-19.04296875,-23.92578125,-26.3671875,1.0,0.0,-1.0,0.0,1.m4v,9.0
2024-02-28 11:16:07.465536,1709115367.465536,-20.01953125,-17.08984375,-24.90234375,-34.66796875,1.0,0.0,-1.0,0.0,1.m4v,9.0
2024-02-28 11:16:07.469441,1709115367.4694414,-25.390625,-25.390625,-29.78515625,-33.69140625,1.0,0.0,-1.0,0.0,1.m4v,9.0
2024-02-28 11:16:07.473347,1709115367.4733472,-30.76171875,-54.6875,-37.59765625,-27.83203125,1.0,0.0,-1.0,0.0,1.m4v,9.0
2024-02-28 11:16:07.477253,1709115367.477253,-34.1796875,-65.91796875,-31.25,-41.50390625,1.0,0.0,-1.0,0.0,1.m4v,9.0
2024-02-28 11:16:07.481159,1709115367.4811587,-35.64453125,-52.24609375,-33.69140625,-46.38671875,1.0,0.0,-1.0,0.0,1.m4v,9.0
2024-02-28 11:16:07.485065,1709115367.4850645,-31.73828125,-47.8515625,-45.8984375,-45.41015625,1.0,0.0,-1.0,0.0,1.m4v,9.0
2024-02-28 11:16:07.488970,1709115367.4889705,-31.73828125,-44.921875,-39.0625,-36.62109375,1.0,0.0,-1.0,0.0,1.m4v,9.0
2024-02-28 11:16:07.492876,1709115367.4928758,-26.3671875,-17.08984375,-20.01953125,-31.25,1.0,0.0,-1.0,0.0,1.m4v,9.0
2024-02-28 11:16:07.496782,1709115367.4967816,-33.203125,6.8359375,-15.625,-37.59765625,1.0,0.0,-1.0,0.0,1.m4v,9.0
2024-02-28 11:16:07.500687,1709115367.5006874,-39.55078125,5.859375,-17.08984375,-37.109375,1.0,0.0,-1.0,0.0,1.m4v,9.0
2024-02-28 11:16:07.504593,1709115367.5045931,-35.64453125,-8.7890625,-21.484375,-29.296875,1.0,0.0,-1.0,0.0,1.m4v,9.0
2024-02-28 11:16:07.508499,1709115367.508499,-42.96875,-36.62109375,-24.4140625,-26.3671875,1.0,0.0,-1.0,0.0,1.m4v,9.0
2024-02-28 11:16:07.512405,1709115367.512405,-31.73828125,-40.52734375,-20.01953125,-30.76171875,1.0,0.0,-1.0,0.0,1.m4v,9.0
2024-02-28 11:16:07.516310,1709115367.5163105,-24.4140625,-25.390625,-29.78515625,-39.55078125,1.0,0.0,-1.0,0.0,1.m4v,9.0
2024-02-28 11:16:07.520216,1709115367.5202162,-34.66796875,-30.76171875,-37.59765625,-40.0390625,1.0,0.0,-1.0,0.0,1.m4v,9.0
2024-02-28 11:16:07.524122,1709115367.524122,-46.875,-46.875,-39.0625,-33.203125,1.0,0.0,-1.0,0.0,1.m4v,9.0
2024-02-28 11:16:07.528028,1709115367.5280275,-40.0390625,-41.9921875,-35.64453125,-33.69140625,1.0,0.0,-1.0,0.0,1.m4v,9.0
2024-02-28 11:16:07.531933,1709115367.5319333,-24.4140625,-35.64453125,-26.3671875,-28.3203125,1.0,0.0,-1.0,0.0,1.m4v,9.0
2024-02-28 11:16:07.535839,1709115367.535839,-19.53125,-38.57421875,-28.80859375,-26.3671875,1.0,0.0,-1.0,0.0,1.m4v,9.0
2024-02-28 11:16:07.539745,1709115367.5397449,-28.3203125,-40.0390625,-23.4375,-20.99609375,1.0,0.0,-1.0,0.0,1.m4v,9.0
2024-02-28 11:16:07.543651,1709115367.5436506,-19.04296875,-18.06640625,-23.4375,-13.671875,1.0,0.0,-1.0,0.0,1.m4v,9.0
2024-02-28 11:16:07.547556,1709115367.5475564,-20.99609375,-10.25390625,-31.73828125,-20.5078125,1.0,0.0,-1.0,0.0,1.m4v,9.0
2024-02-28 11:16:07.551462,1709115367.551462,-39.0625,-22.4609375,-30.2734375,-30.76171875,1.0,0.0,-1.0,0.0,1.m4v,9.0
2024-02-28 11:16:07.555368,1709115367.5553684,-37.59765625,-26.3671875,-30.76171875,-39.0625,1.0,0.0,-1.0,0.0,1.m4v,9.0
2024-02-28 11:16:07.559274,1709115367.5592742,-36.62109375,-19.53125,-31.25,-30.76171875,1.0,0.0,-1.0,0.0,1.m4v,9.0
2024-02-28 11:16:07.563180,1709115367.56318,-36.1328125,-26.3671875,-34.1796875,-21.97265625,1.0,0.0,-1.0,0.0,1.m4v,9.0
2024-02-28 11:16:07.567086,1709115367.5670855,-32.2265625,-39.0625,-28.80859375,-30.2734375,1.0,0.0,-1.0,0.0,1.m4v,9.0
2024-02-28 11:16:07.570991,1709115367.5709913,-37.109375,-32.71484375,-37.109375,-25.87890625,1.0,0.0,-1.0,0.0,1.m4v,9.0
2024-02-28 11:16:07.574897,1709115367.574897,-28.80859375,-24.4140625,-42.48046875,-24.90234375,1.0,0.0,-1.0,0.0,1.m4v,9.0
2024-02-28 11:16:07.578803,1709115367.5788028,-30.2734375,-15.625,-21.484375,-32.71484375,1.0,0.0,-1.0,0.0,1.m4v,9.0
2024-02-28 11:16:07.582709,1709115367.5827086,-37.109375,-22.4609375,-14.6484375,-30.2734375,1.0,0.0,-1.0,0.0,1.m4v,9.0
2024-02-28 11:16:07.586614,1709115367.5866144,-27.83203125,-34.66796875,-11.23046875,-31.25,1.0,0.0,-1.0,0.0,1.m4v,9.0
2024-02-28 11:16:07.590520,1709115367.59052,-30.2734375,-37.109375,-1.953125,-36.1328125,1.0,0.0,-1.0,0.0,1.m4v,9.0
2024-02-28 11:16:07.594426,1709115367.5944257,-35.15625,-41.015625,-20.5078125,-38.57421875,1.0,0.0,-1.0,0.0,1.m4v,9.0
2024-02-28 11:16:07.598331,1709115367.5983317,-29.78515625,-36.62109375,-32.71484375,-33.69140625,1.0,0.0,-1.0,0.0,1.m4v,9.0
2024-02-28 11:16:07.602235,1709115367.602235,-40.0390625,-33.69140625,-32.2265625,-36.62109375,1.0,0.0,-1.0,0.0,1.m4v,9.0
2024-02-28 11:16:07.606141,1709115367.6061409,-48.33984375,-40.0390625,-37.109375,-37.109375,1.0,0.0,-1.0,0.0,1.m4v,9.0
2024-02-28 11:16:07.610047,1709115367.6100466,-48.828125,-42.96875,-38.0859375,-40.0390625,1.0,0.0,-1.0,0.0,1.m4v,9.0
2024-02-28 11:16:07.613952,1709115367.6139524,-33.69140625,-37.59765625,-50.78125,-42.96875,1.0,0.0,-1.0,0.0,1.m4v,9.0
2024-02-28 11:16:07.617858,1709115367.617858,-24.90234375,-26.85546875,-60.546875,-39.55078125,1.0,0.0,-1.0,0.0,1.m4v,9.0
2024-02-28 11:16:07.621764,1709115367.6217637,-24.4140625,-17.08984375,-50.29296875,-38.57421875,1.0,0.0,-1.0,0.0,1.m4v,9.0
2024-02-28 11:16:07.625669,1709115367.6256697,-30.2734375,-28.80859375,-38.57421875,-38.0859375,1.0,0.0,-1.0,0.0,1.m4v,9.0
2024-02-28 11:16:07.629575,1709115367.6295753,-35.64453125,-52.734375,-34.66796875,-28.3203125,1.0,0.0,-1.0,0.0,1.m4v,9.0
2024-02-28 11:16:07.633481,1709115367.633481,-21.484375,-43.45703125,-34.1796875,-17.08984375,1.0,0.0,-1.0,0.0,1.m4v,9.0
2024-02-28 11:16:07.637387,1709115367.6373868,-29.296875,-25.87890625,-36.62109375,-23.4375,1.0,0.0,-1.0,0.0,1.m4v,9.0
2024-02-28 11:16:07.641292,1709115367.6412923,-35.15625,-19.53125,-30.2734375,-33.69140625,1.0,0.0,-1.0,0.0,1.m4v,9.0
2024-02-28 11:16:07.645198,1709115367.645198,-26.85546875,-25.87890625,-18.06640625,-30.76171875,1.0,0.0,-1.0,0.0,1.m4v,9.0
2024-02-28 11:16:07.649101,1709115367.6491013,-25.390625,-45.8984375,-31.73828125,-38.0859375,1.0,0.0,-1.0,0.0,1.m4v,9.0
2024-02-28 11:16:07.653007,1709115367.653007,-30.76171875,-35.64453125,-36.1328125,-40.52734375,1.0,0.0,-1.0,0.0,1.m4v,9.0
2024-02-28 11:16:07.656913,1709115367.6569128,-32.2265625,-16.6015625,-35.64453125,-37.59765625,1.0,0.0,-1.0,0.0,1.m4v,9.0
2024-02-28 11:16:07.660819,1709115367.6608186,-35.15625,-41.9921875,-41.9921875,-43.45703125,1.0,0.0,-1.0,0.0,1.m4v,9.0
2024-02-28 11:16:07.664724,1709115367.664724,-34.66796875,-52.24609375,-33.69140625,-34.66796875,1.0,0.0,-1.0,0.0,1.m4v,9.0
2024-02-28 11:16:07.668630,1709115367.66863,-49.31640625,-20.99609375,-34.1796875,-29.78515625,1.0,0.0,-1.0,0.0,1.m4v,9.0
2024-02-28 11:16:07.672536,1709115367.6725357,-50.78125,-12.6953125,-42.48046875,-38.0859375,1.0,0.0,-1.0,0.0,1.m4v,9.0
2024-02-28 11:16:07.676441,1709115367.6764414,-32.2265625,-16.11328125,-39.0625,-40.0390625,1.0,0.0,-1.0,0.0,1.m4v,9.0
2024-02-28 11:16:07.680347,1709115367.6803472,-19.53125,-14.16015625,-32.2265625,-29.296875,1.0,0.0,-1.0,0.0,1.m4v,9.0
2024-02-28 11:16:07.684253,1709115367.684253,-29.296875,-33.69140625,-34.66796875,-27.83203125,1.0,0.0,-1.0,0.0,1.m4v,9.0
2024-02-28 11:16:07.688159,1709115367.6881585,-34.66796875,-32.2265625,-29.78515625,-35.15625,1.0,0.0,-1.0,0.0,1.m4v,9.0
2024-02-28 11:16:07.692064,1709115367.6920643,-22.4609375,-10.25390625,-15.13671875,-33.69140625,1.0,0.0,-1.0,0.0,1.m4v,9.0
2024-02-28 11:16:07.695974,1709115367.695974,-36.1328125,-23.4375,-22.4609375,-38.0859375,1.0,0.0,-1.0,0.0,1.m4v,9.0
2024-02-28 11:16:07.699880,1709115367.6998796,-47.36328125,-44.921875,-41.015625,-41.9921875,1.0,0.0,-1.0,0.0,1.m4v,9.0
2024-02-28 11:16:07.703785,1709115367.7037854,-46.875,-39.55078125,-38.0859375,-38.0859375,1.0,0.0,-1.0,0.0,1.m4v,9.0
2024-02-28 11:16:07.707691,1709115367.7076912,-39.0625,-38.0859375,-32.2265625,-41.50390625,1.0,0.0,-1.0,0.0,1.m4v,9.0
2024-02-28 11:16:07.711597,1709115367.711597,-39.55078125,-41.9921875,-35.15625,-41.50390625,1.0,0.0,-1.0,0.0,1.m4v,9.0
2024-02-28 11:16:07.715503,1709115367.7155027,-46.38671875,-44.921875,-52.24609375,-36.62109375,1.0,0.0,-1.0,0.0,1.m4v,9.0
2024-02-28 11:16:07.719408,1709115367.7194085,-41.50390625,-35.15625,-40.52734375,-35.64453125,1.0,0.0,-1.0,0.0,1.m4v,9.0
2024-02-28 11:16:07.723314,1709115367.723314,-27.83203125,-17.578125,-21.484375,-31.25,1.0,0.0,-1.0,0.0,1.m4v,9.0
2024-02-28 11:16:07.727220,1709115367.7272198,-26.3671875,-29.296875,-26.85546875,-27.83203125,1.0,0.0,-1.0,0.0,1.m4v,9.0
2024-02-28 11:16:07.731126,1709115367.7311256,-26.3671875,-38.57421875,-36.1328125,-29.78515625,1.0,0.0,-1.0,0.0,1.m4v,9.0
2024-02-28 11:16:07.735031,1709115367.7350314,-23.92578125,-27.83203125,-42.96875,-33.203125,1.0,0.0,-1.0,0.0,1.m4v,9.0
2024-02-28 11:16:07.738937,1709115367.7389371,-35.64453125,-16.6015625,-33.69140625,-40.0390625,1.0,0.0,-1.0,0.0,1.m4v,9.0
2024-02-28 11:16:07.742846,1709115367.7428465,-30.2734375,-19.53125,-15.13671875,-31.73828125,1.0,0.0,-1.0,0.0,1.m4v,9.0
2024-02-28 11:16:07.746752,1709115367.746752,-9.765625,-26.3671875,-13.18359375,-10.7421875,1.0,0.0,-1.0,0.0,1.m4v,9.0
2024-02-28 11:16:07.750658,1709115367.7506578,-24.4140625,-28.80859375,-33.203125,-30.76171875,1.0,0.0,-1.0,0.0,1.m4v,9.0
2024-02-28 11:16:07.754564,1709115367.7545636,-44.43359375,-31.25,-40.0390625,-62.01171875,1.0,0.0,-1.0,0.0,1.m4v,9.0
2024-02-28 11:16:07.758469,1709115367.758469,-48.828125,-36.1328125,-38.0859375,-56.640625,1.0,0.0,-1.0,0.0,1.m4v,9.0
2024-02-28 11:16:07.762375,1709115367.7623749,-54.6875,-17.08984375,-40.0390625,-47.36328125,1.0,0.0,-1.0,0.0,1.m4v,9.0
2024-02-28 11:16:07.766281,1709115367.766281,-62.01171875,-8.30078125,-53.22265625,-53.7109375,1.0,0.0,-1.0,0.0,1.m4v,9.0
2024-02-28 11:16:07.770186,1709115367.7701864,-35.15625,-33.203125,-55.17578125,-48.33984375,1.0,0.0,-1.0,0.0,1.m4v,9.0
2024-02-28 11:16:07.774092,1709115367.7740922,-31.25,-48.33984375,-41.015625,-39.55078125,1.0,0.0,-1.0,0.0,1.m4v,9.0
2024-02-28 11:16:07.777998,1709115367.777998,-40.52734375,-35.15625,-48.33984375,-45.8984375,1.0,0.0,-1.0,0.0,1.m4v,9.0
2024-02-28 11:16:07.781904,1709115367.7819035,-41.015625,-40.0390625,-50.78125,-54.6875,1.0,0.0,-1.0,0.0,1.m4v,9.0
2024-02-28 11:16:07.785809,1709115367.7858093,-41.50390625,-52.734375,-40.52734375,-43.9453125,1.0,0.0,-1.0,0.0,1.m4v,9.0
2024-02-28 11:16:07.789717,1709115367.789717,-45.8984375,-52.734375,-40.52734375,-39.55078125,1.0,0.0,-1.0,0.0,1.m4v,9.0
2024-02-28 11:16:07.793623,1709115367.7936227,-38.57421875,-39.55078125,-28.3203125,-38.0859375,1.0,0.0,-1.0,0.0,1.m4v,9.0
2024-02-28 11:16:07.797529,1709115367.7975285,-34.1796875,-14.6484375,-16.6015625,-30.76171875,1.0,0.0,-1.0,0.0,1.m4v,9.0
2024-02-28 11:16:07.801434,1709115367.8014345,-47.8515625,-17.08984375,-25.87890625,-40.0390625,1.0,0.0,-1.0,0.0,1.m4v,9.0
2024-02-28 11:16:07.805340,1709115367.8053398,-50.29296875,-36.62109375,-33.69140625,-41.50390625,1.0,0.0,-1.0,0.0,1.m4v,9.0
2024-02-28 11:16:07.809246,1709115367.8092456,-48.33984375,-28.80859375,-36.62109375,-36.1328125,1.0,0.0,-1.0,0.0,1.m4v,9.0
2024-02-28 11:16:07.813151,1709115367.8131514,-51.7578125,-17.578125,-43.9453125,-41.50390625,1.0,0.0,-1.0,0.0,1.m4v,9.0
2024-02-28 11:16:07.817057,1709115367.8170571,-46.38671875,-31.25,-42.96875,-42.48046875,1.0,0.0,-1.0,0.0,1.m4v,9.0
2024-02-28 11:16:07.820963,1709115367.820963,-33.69140625,-41.9921875,-46.38671875,-38.0859375,1.0,0.0,-1.0,0.0,1.m4v,9.0
2024-02-28 11:16:07.824869,1709115367.824869,-38.57421875,-39.55078125,-42.48046875,-36.62109375,1.0,0.0,-1.0,0.0,1.m4v,9.0
2024-02-28 11:16:07.828774,1709115367.8287742,-42.48046875,-34.1796875,-31.25,-31.73828125,1.0,0.0,-1.0,0.0,1.m4v,9.0
2024-02-28 11:16:07.832680,1709115367.83268,-35.64453125,-35.15625,-35.64453125,-38.57421875,1.0,0.0,-1.0,0.0,1.m4v,9.0
2024-02-28 11:16:07.836587,1709115367.8365867,-41.015625,-27.34375,-35.15625,-44.921875,1.0,0.0,-1.0,0.0,1.m4v,9.0
2024-02-28 11:16:07.840492,1709115367.8404925,-44.921875,-36.1328125,-31.25,-41.9921875,1.0,0.0,-1.0,0.0,1.m4v,9.0
2024-02-28 11:16:07.844398,1709115367.8443985,-57.12890625,-59.08203125,-35.64453125,-43.45703125,1.0,0.0,-1.0,0.0,1.m4v,9.0
2024-02-28 11:16:07.848304,1709115367.848304,-62.5,-45.41015625,-31.73828125,-42.48046875,1.0,0.0,-1.0,0.0,1.m4v,9.0
2024-02-28 11:16:07.852210,1709115367.8522098,-48.828125,-24.90234375,-26.85546875,-45.41015625,1.0,0.0,-1.0,0.0,1.m4v,9.0
2024-02-28 11:16:07.856115,1709115367.856115,-52.734375,-19.04296875,-29.296875,-44.921875,1.0,0.0,-1.0,0.0,1.m4v,9.0
2024-02-28 11:16:07.860021,1709115367.860021,-49.31640625,-20.01953125,-33.203125,-39.55078125,1.0,0.0,-1.0,0.0,1.m4v,9.0
2024-02-28 11:16:07.863927,1709115367.863927,-26.3671875,-29.78515625,-42.96875,-45.41015625,1.0,0.0,-1.0,0.0,1.m4v,9.0
2024-02-28 11:16:07.867833,1709115367.867833,-25.87890625,-21.484375,-36.1328125,-41.9921875,1.0,0.0,-1.0,0.0,1.m4v,9.0
2024-02-28 11:16:07.871738,1709115367.8717384,-28.3203125,-17.578125,-14.6484375,-20.01953125,1.0,0.0,-1.0,0.0,1.m4v,9.0
2024-02-28 11:16:07.875644,1709115367.8756442,-32.2265625,-32.71484375,-17.578125,-24.90234375,1.0,0.0,-1.0,0.0,1.m4v,9.0
2024-02-28 11:16:07.879550,1709115367.8795495,-49.31640625,-38.0859375,-36.62109375,-45.8984375,1.0,0.0,-1.0,0.0,1.m4v,9.0
2024-02-28 11:16:07.883464,1709115367.883464,-44.43359375,-26.3671875,-44.921875,-40.52734375,1.0,0.0,-1.0,0.0,1.m4v,9.0
2024-02-28 11:16:07.887370,1709115367.8873696,-36.1328125,-23.4375,-38.0859375,-32.71484375,1.0,0.0,-1.0,0.0,1.m4v,9.0
2024-02-28 11:16:07.891275,1709115367.8912752,-41.9921875,-39.0625,-33.203125,-32.71484375,1.0,0.0,-1.0,0.0,1.m4v,9.0
2024-02-28 11:16:07.895181,1709115367.895181,-39.55078125,-44.921875,-28.3203125,-37.109375,1.0,0.0,-1.0,0.0,1.m4v,9.0
2024-02-28 11:16:07.899087,1709115367.8990867,-41.50390625,-42.48046875,-25.390625,-43.45703125,1.0,0.0,-1.0,0.0,1.m4v,9.0
2024-02-28 11:16:07.902992,1709115367.9029925,-49.31640625,-39.0625,-20.5078125,-46.38671875,1.0,0.0,-1.0,0.0,1.m4v,9.0
2024-02-28 11:16:07.906898,1709115367.9068985,-45.8984375,-39.0625,-18.5546875,-46.38671875,1.0,0.0,-1.0,0.0,1.m4v,9.0
2024-02-28 11:16:07.910804,1709115367.910804,-40.52734375,-38.57421875,-31.25,-49.31640625,1.0,0.0,-1.0,0.0,1.m4v,9.0
2024-02-28 11:16:07.914710,1709115367.9147096,-33.203125,-36.1328125,-33.69140625,-56.15234375,1.0,0.0,-1.0,0.0,1.m4v,9.0
2024-02-28 11:16:07.918615,1709115367.918615,-27.83203125,-39.55078125,-41.015625,-51.26953125,1.0,0.0,-1.0,0.0,1.m4v,9.0
2024-02-28 11:16:07.922521,1709115367.922521,-32.71484375,-38.57421875,-47.36328125,-45.8984375,1.0,0.0,-1.0,0.0,1.m4v,9.0
2024-02-28 11:16:07.926427,1709115367.926427,-39.0625,-34.1796875,-37.109375,-46.875,1.0,0.0,-1.0,0.0,1.m4v,9.0
2024-02-28 11:16:07.930332,1709115367.9303324,-38.0859375,-29.296875,-39.0625,-50.78125,1.0,0.0,-1.0,0.0,1.m4v,9.0
2024-02-28 11:16:07.934238,1709115367.9342382,-44.921875,-35.15625,-43.45703125,-50.29296875,1.0,0.0,-1.0,0.0,1.m4v,9.0
2024-02-28 11:16:07.938144,1709115367.938144,-51.26953125,-30.76171875,-45.8984375,-40.0390625,1.0,0.0,-1.0,0.0,1.m4v,9.0
2024-02-28 11:16:07.942050,1709115367.9420495,-38.0859375,-19.53125,-34.1796875,-38.57421875,1.0,0.0,-1.0,0.0,1.m4v,9.0
2024-02-28 11:16:07.945956,1709115367.9459555,-29.78515625,-32.2265625,-24.4140625,-41.015625,1.0,0.0,-1.0,0.0,1.m4v,9.0
2024-02-28 11:16:07.949861,1709115367.949861,-33.203125,-38.57421875,-17.08984375,-40.0390625,1.0,0.0,-1.0,0.0,1.m4v,9.0
2024-02-28 11:16:07.953767,1709115367.9537668,-42.48046875,-27.83203125,-14.16015625,-35.64453125,1.0,0.0,-1.0,0.0,1.m4v,9.0
2024-02-28 11:16:07.957673,1709115367.9576726,-46.38671875,-31.73828125,-41.50390625,-32.2265625,1.0,0.0,-1.0,0.0,1.m4v,9.0
2024-02-28 11:16:07.961578,1709115367.9615784,-49.31640625,-41.50390625,-43.45703125,-40.0390625,1.0,0.0,-1.0,0.0,1.m4v,9.0
2024-02-28 11:16:07.965484,1709115367.965484,-53.7109375,-51.26953125,-30.2734375,-40.52734375,1.0,0.0,-1.0,0.0,1.m4v,9.0
2024-02-28 11:16:07.969390,1709115367.96939,-45.41015625,-37.59765625,-45.8984375,-36.62109375,1.0,0.0,-1.0,0.0,1.m4v,9.0
2024-02-28 11:16:07.973295,1709115367.9732957,-44.921875,-22.94921875,-45.8984375,-46.38671875,1.0,0.0,-1.0,0.0,1.m4v,9.0
2024-02-28 11:16:07.977200,1709115367.9772005,-40.52734375,-31.73828125,-28.3203125,-43.9453125,1.0,0.0,-1.0,0.0,1.m4v,9.0
2024-02-28 11:16:07.981106,1709115367.981106,-40.0390625,-38.0859375,-23.92578125,-33.203125,1.0,0.0,-1.0,0.0,1.m4v,9.0
2024-02-28 11:16:07.985012,1709115367.9850118,-39.55078125,-36.62109375,-40.0390625,-41.50390625,1.0,0.0,-1.0,0.0,1.m4v,9.0
2024-02-28 11:16:07.988918,1709115367.9889176,-39.55078125,-20.01953125,-39.55078125,-42.48046875,1.0,0.0,-1.0,0.0,1.m4v,9.0
2024-02-28 11:16:07.992823,1709115367.9928234,-47.8515625,-18.06640625,-18.5546875,-38.57421875,1.0,0.0,-1.0,0.0,1.m4v,9.0
2024-02-28 11:16:07.996729,1709115367.9967291,-47.36328125,-31.73828125,-16.6015625,-30.76171875,1.0,0.0,-1.0,0.0,1.m4v,9.0
2024-02-28 11:16:08.000635,1709115368.000635,-54.19921875,-32.2265625,-31.25,-38.57421875,1.0,0.0,-1.0,0.0,1.m4v,9.0
2024-02-28 11:16:08.004540,1709115368.0045404,-63.96484375,-30.76171875,-34.1796875,-55.6640625,1.0,0.0,-1.0,0.0,1.m4v,9.0
2024-02-28 11:16:08.008446,1709115368.0084462,-62.5,-36.62109375,-23.92578125,-45.41015625,1.0,0.0,-1.0,0.0,1.m4v,9.0
2024-02-28 11:16:08.012352,1709115368.012352,-40.52734375,-37.109375,-27.83203125,-38.57421875,1.0,0.0,-1.0,0.0,1.m4v,9.0
2024-02-28 11:16:08.016258,1709115368.0162578,-18.06640625,-34.66796875,-27.83203125,-33.203125,1.0,0.0,-1.0,0.0,1.m4v,9.0
2024-02-28 11:16:08.020164,1709115368.0201635,-23.4375,-48.828125,-8.7890625,-33.69140625,1.0,0.0,-1.0,0.0,1.m4v,9.0
2024-02-28 11:16:08.024065,1709115368.0240655,-41.015625,-48.828125,-29.296875,-32.2265625,1.0,0.0,-1.0,0.0,1.m4v,9.0
2024-02-28 11:16:08.027971,1709115368.0279713,-47.36328125,-21.97265625,-64.453125,-36.1328125,1.0,0.0,-1.0,0.0,1.m4v,9.0
2024-02-28 11:16:08.031877,1709115368.031877,-38.0859375,-9.27734375,-40.52734375,-40.52734375,1.0,0.0,-1.0,0.0,1.m4v,9.0
2024-02-28 11:16:08.035783,1709115368.0357828,-38.57421875,-20.99609375,-24.90234375,-39.0625,1.0,0.0,-1.0,0.0,1.m4v,9.0
2024-02-28 11:16:08.039689,1709115368.0396886,-33.69140625,-42.48046875,-37.59765625,-37.59765625,1.0,0.0,-1.0,0.0,1.m4v,9.0
2024-02-28 11:16:08.043594,1709115368.043594,-26.85546875,-29.296875,-25.87890625,-30.2734375,1.0,0.0,-1.0,0.0,1.m4v,9.0
2024-02-28 11:16:08.047500,1709115368.0475,-47.36328125,-29.78515625,-23.4375,-33.203125,1.0,0.0,-1.0,0.0,1.m4v,9.0
2024-02-28 11:16:08.051406,1709115368.0514057,-50.78125,-34.1796875,-33.203125,-38.57421875,1.0,0.0,-1.0,0.0,1.m4v,9.0
2024-02-28 11:16:08.055311,1709115368.0553114,-35.15625,-27.34375,-36.1328125,-36.1328125,1.0,0.0,-1.0,0.0,1.m4v,9.0
2024-02-28 11:16:08.059217,1709115368.0592172,-46.38671875,-37.59765625,-33.203125,-37.109375,1.0,0.0,-1.0,0.0,1.m4v,9.0
2024-02-28 11:16:08.063123,1709115368.063123,-54.6875,-33.69140625,-35.15625,-43.9453125,1.0,0.0,-1.0,0.0,1.m4v,9.0
2024-02-28 11:16:08.067029,1709115368.0670283,-33.69140625,-20.01953125,-32.71484375,-41.9921875,1.0,0.0,-1.0,0.0,1.m4v,9.0
2024-02-28 11:16:08.070939,1709115368.0709388,-19.53125,-18.5546875,-30.2734375,-34.66796875,1.0,0.0,-1.0,0.0,1.m4v,9.0
2024-02-28 11:16:08.074844,1709115368.0748444,-24.4140625,-25.87890625,-36.1328125,-31.73828125,1.0,0.0,-1.0,0.0,1.m4v,9.0
2024-02-28 11:16:08.078750,1709115368.07875,-30.76171875,-32.2265625,-37.59765625,-35.15625,1.0,0.0,-1.0,0.0,1.m4v,9.0
2024-02-28 11:16:08.082656,1709115368.082656,-33.203125,-31.25,-38.0859375,-38.57421875,1.0,0.0,-1.0,0.0,1.m4v,9.0
2024-02-28 11:16:08.086562,1709115368.0865617,-31.73828125,-27.34375,-45.8984375,-30.2734375,1.0,0.0,-1.0,0.0,1.m4v,9.0
2024-02-28 11:16:08.090467,1709115368.0904677,-38.0859375,-48.33984375,-45.8984375,-33.203125,1.0,0.0,-1.0,0.0,1.m4v,9.0
2024-02-28 11:16:08.094373,1709115368.0943732,-27.34375,-55.17578125,-33.69140625,-31.25,1.0,0.0,-1.0,0.0,1.m4v,9.0
2024-02-28 11:16:08.098279,1709115368.0982788,-18.06640625,-37.59765625,-29.78515625,-31.25,1.0,0.0,-1.0,0.0,1.m4v,9.0
2024-02-28 11:16:08.102185,1709115368.1021843,-41.50390625,-28.80859375,-34.66796875,-45.8984375,1.0,0.0,-1.0,0.0,1.m4v,9.0
2024-02-28 11:16:08.106090,1709115368.1060903,-45.41015625,-22.94921875,-25.390625,-37.109375,1.0,0.0,-1.0,0.0,1.m4v,9.0
2024-02-28 11:16:08.109996,1709115368.109996,-37.109375,-16.6015625,-17.08984375,-27.34375,1.0,0.0,-1.0,0.0,1.m4v,9.0
2024-02-28 11:16:08.113902,1709115368.113902,-22.4609375,-18.06640625,-25.390625,-35.15625,1.0,0.0,-1.0,0.0,1.m4v,9.0
2024-02-28 11:16:08.117819,1709115368.117819,4.8828125,-20.5078125,-37.59765625,-36.62109375,1.0,0.0,-1.0,0.0,1.m4v,9.0
2024-02-28 11:16:08.121725,1709115368.1217246,-10.25390625,-20.5078125,-35.64453125,-22.4609375,1.0,0.0,-1.0,0.0,1.m4v,9.0
2024-02-28 11:16:08.125630,1709115368.1256304,-37.109375,-18.5546875,-36.1328125,-22.94921875,1.0,0.0,-1.0,0.0,1.m4v,9.0
2024-02-28 11:16:08.129536,1709115368.1295362,-36.62109375,-22.4609375,-37.59765625,-30.2734375,1.0,0.0,-1.0,0.0,1.m4v,9.0
2024-02-28 11:16:08.133442,1709115368.133442,-37.109375,-25.87890625,-25.87890625,-29.78515625,1.0,0.0,-1.0,0.0,1.m4v,9.0
2024-02-28 11:16:08.137348,1709115368.1373477,-43.9453125,-27.34375,-27.34375,-46.38671875,1.0,0.0,-1.0,0.0,1.m4v,9.0
2024-02-28 11:16:08.141253,1709115368.1412537,-38.0859375,-33.69140625,-23.4375,-48.33984375,1.0,0.0,-1.0,0.0,1.m4v,9.0
2024-02-28 11:16:08.145159,1709115368.145159,-40.0390625,-32.2265625,-33.203125,-43.45703125,1.0,0.0,-1.0,0.0,1.m4v,9.0
2024-02-28 11:16:08.149065,1709115368.1490648,-40.52734375,-43.45703125,-52.734375,-46.875,1.0,0.0,-1.0,0.0,1.m4v,9.0
2024-02-28 11:16:08.152971,1709115368.1529706,-19.53125,-55.17578125,-47.8515625,-48.828125,1.0,0.0,-1.0,0.0,1.m4v,9.0
2024-02-28 11:16:08.156876,1709115368.1568763,-20.99609375,-29.296875,-25.390625,-42.48046875,1.0,0.0,-1.0,0.0,1.m4v,9.0
2024-02-28 11:16:08.160782,1709115368.160782,-33.203125,-20.5078125,-22.4609375,-37.59765625,1.0,0.0,-1.0,0.0,1.m4v,9.0
2024-02-28 11:16:08.164691,1709115368.1646907,-31.25,-21.97265625,-38.57421875,-41.015625,1.0,0.0,-1.0,0.0,1.m4v,9.0
2024-02-28 11:16:08.168597,1709115368.1685965,-35.64453125,-7.32421875,-40.52734375,-38.57421875,1.0,0.0,-1.0,0.0,1.m4v,9.0
2024-02-28 11:16:08.172502,1709115368.1725025,-28.80859375,-1.953125,-22.94921875,-38.0859375,1.0,0.0,-1.0,0.0,1.m4v,9.0
2024-02-28 11:16:08.176408,1709115368.176408,-20.99609375,-12.20703125,-17.578125,-41.9921875,1.0,0.0,-1.0,0.0,1.m4v,9.0
2024-02-28 11:16:08.180314,1709115368.1803138,-29.78515625,-18.5546875,-32.71484375,-33.69140625,1.0,0.0,-1.0,0.0,1.m4v,9.0
2024-02-28 11:16:08.184220,1709115368.1842196,-20.5078125,-15.625,-37.59765625,-26.3671875,1.0,0.0,-1.0,0.0,1.m4v,9.0
2024-02-28 11:16:08.188125,1709115368.1881254,-10.25390625,-24.90234375,-31.25,-27.34375,1.0,0.0,-1.0,0.0,1.m4v,9.0
2024-02-28 11:16:08.192031,1709115368.192031,-17.08984375,-33.69140625,-30.2734375,-26.85546875,1.0,0.0,-1.0,0.0,1.m4v,9.0
2024-02-28 11:16:08.195937,1709115368.195937,-28.3203125,-31.73828125,-38.57421875,-29.296875,1.0,0.0,-1.0,0.0,1.m4v,9.0
2024-02-28 11:16:08.199842,1709115368.1998425,-42.96875,-36.62109375,-35.15625,-35.15625,1.0,0.0,-1.0,0.0,1.m4v,9.0
2024-02-28 11:16:08.203748,1709115368.2037482,-39.0625,-35.15625,-33.203125,-39.55078125,1.0,0.0,-1.0,0.0,1.m4v,9.0
2024-02-28 11:16:08.207654,1709115368.207654,-37.109375,-39.55078125,-39.0625,-34.1796875,1.0,0.0,-1.0,0.0,1.m4v,9.0
2024-02-28 11:16:08.211561,1709115368.2115612,-41.015625,-51.7578125,-38.57421875,-37.59765625,1.0,0.0,-1.0,0.0,1.m4v,9.0
2024-02-28 11:16:08.215467,1709115368.215467,-39.0625,-43.45703125,-33.203125,-41.9921875,1.0,0.0,-1.0,0.0,1.m4v,9.0
2024-02-28 11:16:08.219373,1709115368.2193725,-34.1796875,-21.97265625,-31.73828125,-32.71484375,1.0,0.0,-1.0,0.0,1.m4v,9.0
2024-02-28 11:16:08.223278,1709115368.2232783,-36.62109375,-9.27734375,-38.0859375,-31.73828125,1.0,0.0,-1.0,0.0,1.m4v,9.0
2024-02-28 11:16:08.227184,1709115368.227184,-39.0625,-21.97265625,-27.34375,-31.73828125,1.0,0.0,-1.0,0.0,1.m4v,9.0
2024-02-28 11:16:08.231090,1709115368.2310898,-32.2265625,-30.76171875,-26.85546875,-24.4140625,1.0,0.0,-1.0,0.0,1.m4v,9.0
2024-02-28 11:16:08.234996,1709115368.2349956,-19.04296875,-23.92578125,-36.1328125,-26.3671875,1.0,0.0,-1.0,0.0,1.m4v,9.0
2024-02-28 11:16:08.238901,1709115368.2389014,-31.25,-33.203125,-31.73828125,-34.66796875,1.0,0.0,-1.0,0.0,1.m4v,9.0
2024-02-28 11:16:08.242807,1709115368.242807,-39.55078125,-27.34375,-39.0625,-32.2265625,1.0,0.0,-1.0,0.0,1.m4v,9.0
2024-02-28 11:16:08.246713,1709115368.2467127,-28.80859375,-29.296875,-36.62109375,-28.80859375,1.0,0.0,-1.0,0.0,1.m4v,9.0
2024-02-28 11:16:08.250618,1709115368.2506185,-23.92578125,-35.64453125,-24.4140625,-31.73828125,1.0,0.0,-1.0,0.0,1.m4v,9.0
2024-02-28 11:16:08.254524,1709115368.2545242,-21.484375,-30.2734375,-21.97265625,-35.15625,1.0,0.0,-1.0,0.0,1.m4v,9.0
2024-02-28 11:16:08.258438,1709115368.258438,-32.2265625,-45.8984375,-26.3671875,-40.0390625,1.0,0.0,-1.0,0.0,1.m4v,9.0
2024-02-28 11:16:08.262344,1709115368.262344,-45.8984375,-45.8984375,-39.0625,-43.45703125,1.0,0.0,-1.0,0.0,1.m4v,9.0
2024-02-28 11:16:08.266250,1709115368.2662497,-51.7578125,-31.73828125,-42.48046875,-41.9921875,1.0,0.0,-1.0,0.0,1.m4v,9.0
2024-02-28 11:16:08.270155,1709115368.2701554,-39.55078125,-31.25,-38.57421875,-43.45703125,1.0,0.0,-1.0,0.0,1.m4v,9.0
2024-02-28 11:16:08.274061,1709115368.2740612,-22.4609375,-25.390625,-35.64453125,-36.1328125,1.0,0.0,-1.0,0.0,1.m4v,9.0
2024-02-28 11:16:08.277967,1709115368.277967,-14.16015625,-25.87890625,-33.203125,-30.2734375,1.0,0.0,-1.0,0.0,1.m4v,9.0
2024-02-28 11:16:08.281873,1709115368.2818725,-6.8359375,-28.80859375,-23.92578125,-30.76171875,1.0,0.0,-1.0,0.0,1.m4v,9.0
2024-02-28 11:16:08.285778,1709115368.2857783,-28.80859375,-38.57421875,-27.83203125,-29.78515625,1.0,0.0,-1.0,0.0,1.m4v,9.0
2024-02-28 11:16:08.289684,1709115368.289684,-31.25,-48.33984375,-44.921875,-32.71484375,1.0,0.0,-1.0,0.0,1.m4v,9.0
2024-02-28 11:16:08.293590,1709115368.2935898,-22.94921875,-40.0390625,-42.96875,-38.57421875,1.0,0.0,-1.0,0.0,1.m4v,9.0
2024-02-28 11:16:08.297496,1709115368.2974956,-22.4609375,-32.2265625,-37.59765625,-27.34375,1.0,0.0,-1.0,0.0,1.m4v,9.0
2024-02-28 11:16:08.301401,1709115368.3014014,-33.203125,-27.83203125,-39.0625,-26.3671875,1.0,0.0,-1.0,0.0,1.m4v,9.0
2024-02-28 11:16:08.305305,1709115368.3053055,-47.8515625,-35.15625,-45.8984375,-35.64453125,1.0,0.0,-1.0,0.0,1.m4v,9.0
2024-02-28 11:16:08.309211,1709115368.3092113,-36.1328125,-46.38671875,-37.109375,-27.83203125,1.0,0.0,-1.0,0.0,1.m4v,9.0
2024-02-28 11:16:08.313117,1709115368.313117,-31.73828125,-47.8515625,-26.3671875,-29.296875,1.0,0.0,-1.0,0.0,1.m4v,9.0
2024-02-28 11:16:08.317023,1709115368.3170228,-33.203125,-44.921875,-28.3203125,-26.85546875,1.0,0.0,-1.0,0.0,1.m4v,9.0
2024-02-28 11:16:08.320929,1709115368.3209286,-31.73828125,-43.45703125,-39.55078125,-30.2734375,1.0,0.0,-1.0,0.0,1.m4v,9.0
2024-02-28 11:16:08.324834,1709115368.3248343,-44.43359375,-34.1796875,-52.24609375,-37.109375,1.0,0.0,-1.0,0.0,1.m4v,9.0
2024-02-28 11:16:08.328740,1709115368.32874,-46.38671875,-30.76171875,-45.41015625,-29.296875,1.0,0.0,-1.0,0.0,1.m4v,9.0
2024-02-28 11:16:08.332646,1709115368.3326457,-26.85546875,-35.64453125,-25.87890625,-20.5078125,1.0,0.0,-1.0,0.0,1.m4v,9.0
2024-02-28 11:16:08.336551,1709115368.3365514,-33.203125,-37.59765625,-21.484375,-26.3671875,1.0,0.0,-1.0,0.0,1.m4v,9.0
2024-02-28 11:16:08.340457,1709115368.3404572,-51.26953125,-45.41015625,-38.57421875,-36.1328125,1.0,0.0,-1.0,0.0,1.m4v,9.0
2024-02-28 11:16:08.344363,1709115368.344363,-44.921875,-36.1328125,-41.015625,-36.62109375,1.0,0.0,-1.0,0.0,1.m4v,9.0
2024-02-28 11:16:08.348269,1709115368.3482687,-36.62109375,-35.15625,-37.109375,-35.64453125,1.0,0.0,-1.0,0.0,1.m4v,9.0
2024-02-28 11:16:08.352172,1709115368.3521724,-36.62109375,-52.24609375,-34.66796875,-32.2265625,1.0,0.0,-1.0,0.0,1.m4v,9.0
2024-02-28 11:16:08.356078,1709115368.356078,-34.66796875,-39.55078125,-28.80859375,-30.76171875,1.0,0.0,-1.0,0.0,1.m4v,9.0
2024-02-28 11:16:08.359984,1709115368.359984,-41.50390625,-12.6953125,-27.83203125,-38.57421875,1.0,0.0,-1.0,0.0,1.m4v,9.0
2024-02-28 11:16:08.363890,1709115368.3638897,-43.9453125,-20.01953125,-40.52734375,-42.96875,1.0,0.0,-1.0,0.0,1.m4v,9.0
2024-02-28 11:16:08.367795,1709115368.3677957,-43.45703125,-34.66796875,-52.734375,-35.15625,1.0,0.0,-1.0,0.0,1.m4v,9.0
2024-02-28 11:16:08.371701,1709115368.371701,-33.69140625,-26.3671875,-41.9921875,-24.4140625,1.0,0.0,-1.0,0.0,1.m4v,9.0
2024-02-28 11:16:08.375607,1709115368.3756068,-11.71875,-20.5078125,-30.2734375,-22.94921875,1.0,0.0,-1.0,0.0,1.m4v,9.0
2024-02-28 11:16:08.379513,1709115368.3795123,-3.41796875,-20.99609375,-29.78515625,-24.4140625,1.0,0.0,-1.0,0.0,1.m4v,9.0
2024-02-28 11:16:08.383418,1709115368.3834183,-10.7421875,-42.48046875,-22.4609375,-20.01953125,1.0,0.0,-1.0,0.0,1.m4v,9.0
2024-02-28 11:16:08.387324,1709115368.387324,-27.83203125,-62.98828125,-22.4609375,-18.5546875,1.0,0.0,-1.0,0.0,1.m4v,9.0
2024-02-28 11:16:08.391230,1709115368.39123,-30.76171875,-35.15625,-25.390625,-20.5078125,1.0,0.0,-1.0,0.0,1.m4v,9.0
2024-02-28 11:16:08.395135,1709115368.3951354,-39.55078125,-17.578125,-36.1328125,-36.1328125,1.0,0.0,-1.0,0.0,1.m4v,9.0
2024-02-28 11:16:08.399039,1709115368.399039,-38.0859375,-21.97265625,-40.0390625,-39.55078125,1.0,0.0,-1.0,0.0,1.m4v,9.0
2024-02-28 11:16:08.402945,1709115368.4029448,-38.57421875,-30.2734375,-24.90234375,-39.0625,1.0,0.0,-1.0,0.0,1.m4v,9.0
2024-02-28 11:16:08.406851,1709115368.4068506,-43.9453125,-26.85546875,-25.390625,-40.52734375,1.0,0.0,-1.0,0.0,1.m4v,9.0
2024-02-28 11:16:08.410756,1709115368.4107563,-25.390625,-14.16015625,-27.34375,-30.76171875,1.0,0.0,-1.0,0.0,1.m4v,9.0
2024-02-28 11:16:08.414662,1709115368.414662,-14.6484375,-17.578125,-21.97265625,-27.34375,1.0,0.0,-1.0,0.0,1.m4v,9.0
2024-02-28 11:16:08.418568,1709115368.4185677,-26.85546875,-24.90234375,-18.5546875,-24.4140625,1.0,0.0,-1.0,0.0,1.m4v,9.0
2024-02-28 11:16:08.422473,1709115368.4224734,-21.484375,-22.94921875,-29.78515625,-21.484375,1.0,0.0,-1.0,0.0,1.m4v,9.0
2024-02-28 11:16:08.426379,1709115368.4263792,-13.671875,-24.4140625,-32.71484375,-21.484375,1.0,0.0,-1.0,0.0,1.m4v,9.0
2024-02-28 11:16:08.430285,1709115368.430285,-29.78515625,-40.52734375,-30.76171875,-32.71484375,1.0,0.0,-1.0,0.0,1.m4v,9.0
2024-02-28 11:16:08.434191,1709115368.4341908,-40.52734375,-51.7578125,-27.34375,-42.48046875,1.0,0.0,-1.0,0.0,1.m4v,9.0
2024-02-28 11:16:08.438097,1709115368.4380963,-37.109375,-44.43359375,-24.4140625,-32.71484375,1.0,0.0,-1.0,0.0,1.m4v,9.0
2024-02-28 11:16:08.442002,1709115368.442002,-27.34375,-25.390625,-25.390625,-22.4609375,1.0,0.0,-1.0,0.0,1.m4v,9.0
2024-02-28 11:16:08.445912,1709115368.445912,-22.4609375,-19.04296875,-27.34375,-27.34375,1.0,0.0,-1.0,0.0,1.m4v,9.0
2024-02-28 11:16:08.449818,1709115368.449818,-47.36328125,-36.1328125,-47.8515625,-38.57421875,1.0,0.0,-1.0,0.0,1.m4v,9.0
2024-02-28 11:16:08.453723,1709115368.4537234,-49.31640625,-39.55078125,-55.6640625,-41.50390625,1.0,0.0,-1.0,0.0,1.m4v,9.0
2024-02-28 11:16:08.457629,1709115368.4576292,-22.94921875,-28.80859375,-42.48046875,-38.0859375,1.0,0.0,-1.0,0.0,1.m4v,9.0
2024-02-28 11:16:08.461535,1709115368.461535,-28.3203125,-29.78515625,-29.296875,-35.64453125,1.0,0.0,-1.0,0.0,1.m4v,9.0
2024-02-28 11:16:08.465441,1709115368.4654408,-51.26953125,-17.08984375,-20.5078125,-28.3203125,1.0,0.0,-1.0,0.0,1.m4v,9.0
2024-02-28 11:16:08.469347,1709115368.4693463,-49.31640625,-11.23046875,-16.6015625,-27.34375,1.0,0.0,-1.0,0.0,1.m4v,9.0
2024-02-28 11:16:08.473252,1709115368.4732523,-28.80859375,-33.203125,-11.71875,-34.1796875,1.0,0.0,-1.0,0.0,1.m4v,9.0
2024-02-28 11:16:08.477158,1709115368.477158,-23.92578125,-55.17578125,-19.04296875,-37.59765625,1.0,0.0,-1.0,0.0,1.m4v,9.0
2024-02-28 11:16:08.481064,1709115368.4810636,-28.3203125,-47.8515625,-20.01953125,-37.59765625,1.0,0.0,-1.0,0.0,1.m4v,9.0
2024-02-28 11:16:08.484969,1709115368.4849694,-41.9921875,-32.2265625,-20.99609375,-37.109375,1.0,0.0,-1.0,0.0,1.m4v,9.0
2024-02-28 11:16:08.488875,1709115368.4888752,-42.96875,-37.59765625,-31.73828125,-34.1796875,1.0,0.0,-1.0,0.0,1.m4v,9.0
2024-02-28 11:16:08.492784,1709115368.4927838,-29.78515625,-36.62109375,-33.69140625,-28.3203125,1.0,0.0,-1.0,0.0,1.m4v,9.0
2024-02-28 11:16:08.496690,1709115368.4966896,-30.2734375,-33.69140625,-31.73828125,-26.3671875,1.0,0.0,-1.0,0.0,1.m4v,9.0
2024-02-28 11:16:08.500595,1709115368.500595,-34.1796875,-26.3671875,-29.296875,-40.0390625,1.0,0.0,-1.0,0.0,1.m4v,9.0
2024-02-28 11:16:08.504501,1709115368.504501,-29.296875,-8.30078125,-34.66796875,-44.921875,1.0,0.0,-1.0,0.0,1.m4v,9.0
2024-02-28 11:16:08.508407,1709115368.5084069,-35.15625,-18.06640625,-38.57421875,-42.48046875,1.0,0.0,-1.0,0.0,1.m4v,9.0
2024-02-28 11:16:08.512312,1709115368.5123124,-25.87890625,-31.25,-24.4140625,-38.0859375,1.0,0.0,-1.0,0.0,1.m4v,9.0
2024-02-28 11:16:08.516218,1709115368.5162182,-20.01953125,-37.59765625,-14.16015625,-20.99609375,1.0,0.0,-1.0,0.0,1.m4v,9.0
2024-02-28 11:16:08.520124,1709115368.520124,-42.96875,-32.2265625,-25.390625,-27.34375,1.0,0.0,-1.0,0.0,1.m4v,9.0
2024-02-28 11:16:08.524030,1709115368.5240295,-53.22265625,-23.92578125,-32.2265625,-41.015625,1.0,0.0,-1.0,0.0,1.m4v,9.0
2024-02-28 11:16:08.527936,1709115368.5279355,-50.29296875,-38.57421875,-28.80859375,-35.64453125,1.0,0.0,-1.0,0.0,1.m4v,9.0
2024-02-28 11:16:08.531841,1709115368.5318413,-50.78125,-37.109375,-18.5546875,-37.109375,1.0,0.0,-1.0,0.0,1.m4v,9.0
2024-02-28 11:16:08.535747,1709115368.535747,-45.8984375,-31.25,-21.97265625,-44.921875,1.0,0.0,-1.0,0.0,1.m4v,9.0
2024-02-28 11:16:08.539654,1709115368.5396545,-37.109375,-40.52734375,-35.64453125,-42.48046875,1.0,0.0,-1.0,0.0,1.m4v,9.0
2024-02-28 11:16:08.543560,1709115368.5435605,-37.59765625,-42.48046875,-40.52734375,-38.57421875,1.0,0.0,-1.0,0.0,1.m4v,9.0
2024-02-28 11:16:08.547466,1709115368.547466,-47.36328125,-37.109375,-41.015625,-40.0390625,1.0,0.0,-1.0,0.0,1.m4v,9.0
2024-02-28 11:16:08.551372,1709115368.5513718,-38.57421875,-31.25,-24.4140625,-37.109375,1.0,0.0,-1.0,0.0,1.m4v,9.0
2024-02-28 11:16:08.555278,1709115368.5552776,-26.85546875,-20.99609375,-27.83203125,-42.48046875,1.0,0.0,-1.0,0.0,1.m4v,9.0
2024-02-28 11:16:08.559183,1709115368.5591831,-36.1328125,-24.4140625,-35.15625,-52.24609375,1.0,0.0,-1.0,0.0,1.m4v,9.0
2024-02-28 11:16:08.563089,1709115368.563089,-33.69140625,-26.3671875,-24.4140625,-51.26953125,1.0,0.0,-1.0,0.0,1.m4v,9.0
2024-02-28 11:16:08.566995,1709115368.566995,-41.9921875,-34.66796875,-28.3203125,-51.26953125,1.0,0.0,-1.0,0.0,1.m4v,9.0
2024-02-28 11:16:08.570900,1709115368.5709004,-51.7578125,-48.33984375,-22.94921875,-45.41015625,1.0,0.0,-1.0,0.0,1.m4v,9.0
2024-02-28 11:16:08.574806,1709115368.5748062,-42.96875,-51.7578125,-19.53125,-51.7578125,1.0,0.0,-1.0,0.0,1.m4v,9.0
2024-02-28 11:16:08.578712,1709115368.578712,-35.15625,-46.875,-32.2265625,-59.5703125,1.0,0.0,-1.0,0.0,1.m4v,9.0
2024-02-28 11:16:08.582618,1709115368.5826175,-43.9453125,-41.50390625,-45.8984375,-53.22265625,1.0,0.0,-1.0,0.0,1.m4v,9.0
2024-02-28 11:16:08.586525,1709115368.5865254,-45.41015625,-45.41015625,-44.43359375,-48.828125,1.0,0.0,-1.0,0.0,1.m4v,9.0
2024-02-28 11:16:08.590431,1709115368.590431,-45.8984375,-37.109375,-37.109375,-52.24609375,1.0,0.0,-1.0,0.0,1.m4v,9.0
2024-02-28 11:16:08.594337,1709115368.5943367,-38.57421875,-26.3671875,-41.9921875,-54.19921875,1.0,0.0,-1.0,0.0,1.m4v,9.0
2024-02-28 11:16:08.598243,1709115368.5982423,-33.203125,-22.4609375,-44.43359375,-51.26953125,1.0,0.0,-1.0,0.0,1.m4v,9.0
2024-02-28 11:16:08.602148,1709115368.6021483,-45.8984375,-15.625,-48.828125,-52.734375,1.0,0.0,-1.0,0.0,1.m4v,9.0
2024-02-28 11:16:08.606054,1709115368.606054,-50.29296875,-13.18359375,-42.96875,-49.31640625,1.0,0.0,-1.0,0.0,1.m4v,9.0
2024-02-28 11:16:08.609960,1709115368.6099598,-36.1328125,-18.06640625,-29.78515625,-39.55078125,1.0,0.0,-1.0,0.0,1.m4v,9.0
2024-02-28 11:16:08.613865,1709115368.6138654,-21.484375,-26.85546875,-29.78515625,-17.578125,1.0,0.0,-1.0,0.0,1.m4v,9.0
2024-02-28 11:16:08.617771,1709115368.6177711,-40.52734375,-33.203125,-32.71484375,-39.0625,1.0,0.0,-1.0,0.0,1.m4v,9.0
2024-02-28 11:16:08.621677,1709115368.621677,-55.17578125,-32.71484375,-27.83203125,-70.3125,1.0,0.0,-1.0,0.0,1.m4v,9.0
2024-02-28 11:16:08.625583,1709115368.6255827,-46.875,-39.55078125,-28.80859375,-48.828125,1.0,0.0,-1.0,0.0,1.m4v,9.0
2024-02-28 11:16:08.629488,1709115368.6294885,-50.78125,-37.59765625,-28.3203125,-41.015625,1.0,0.0,-1.0,0.0,1.m4v,9.0
2024-02-28 11:16:08.633394,1709115368.6333945,-52.24609375,-40.52734375,-30.2734375,-50.29296875,1.0,0.0,-1.0,0.0,1.m4v,9.0
2024-02-28 11:16:08.637300,1709115368.6373005,-49.8046875,-52.24609375,-37.59765625,-55.6640625,1.0,0.0,-1.0,0.0,1.m4v,9.0
2024-02-28 11:16:08.641206,1709115368.641206,-56.15234375,-53.7109375,-33.69140625,-58.10546875,1.0,0.0,-1.0,0.0,1.m4v,9.0
2024-02-28 11:16:08.645112,1709115368.6451116,-48.33984375,-41.9921875,-21.97265625,-51.7578125,1.0,0.0,-1.0,0.0,1.m4v,9.0
2024-02-28 11:16:08.649017,1709115368.649017,-38.57421875,-28.3203125,-14.16015625,-39.55078125,1.0,0.0,-1.0,0.0,1.m4v,9.0
2024-02-28 11:16:08.652923,1709115368.652923,-26.3671875,-29.296875,-24.90234375,-33.203125,1.0,0.0,-1.0,0.0,1.m4v,9.0
2024-02-28 11:16:08.656829,1709115368.6568289,-40.52734375,-30.76171875,-32.71484375,-36.1328125,1.0,0.0,-1.0,0.0,1.m4v,9.0
2024-02-28 11:16:08.660735,1709115368.660735,-47.36328125,-40.52734375,-35.64453125,-42.48046875,1.0,0.0,-1.0,0.0,1.m4v,9.0
2024-02-28 11:16:08.664640,1709115368.6646404,-30.2734375,-39.55078125,-29.78515625,-42.48046875,1.0,0.0,-1.0,0.0,1.m4v,9.0
2024-02-28 11:16:08.668546,1709115368.6685462,-39.0625,-44.921875,-21.484375,-40.52734375,1.0,0.0,-1.0,0.0,1.m4v,9.0
2024-02-28 11:16:08.672452,1709115368.6724515,-40.0390625,-53.22265625,-31.73828125,-44.43359375,1.0,0.0,-1.0,0.0,1.m4v,9.0
2024-02-28 11:16:08.676358,1709115368.6763575,-41.50390625,-42.48046875,-33.203125,-47.8515625,1.0,0.0,-1.0,0.0,1.m4v,9.0
2024-02-28 11:16:08.680270,1709115368.6802704,-51.26953125,-36.62109375,-26.85546875,-43.9453125,1.0,0.0,-1.0,0.0,1.m4v,9.0
2024-02-28 11:16:08.684176,1709115368.6841762,-41.015625,-27.83203125,-38.57421875,-37.59765625,1.0,0.0,-1.0,0.0,1.m4v,9.0
2024-02-28 11:16:08.688082,1709115368.688082,-40.0390625,-23.4375,-37.59765625,-35.15625,1.0,0.0,-1.0,0.0,1.m4v,9.0
2024-02-28 11:16:08.691988,1709115368.6919878,-29.296875,-20.01953125,-32.2265625,-39.0625,1.0,0.0,-1.0,0.0,1.m4v,9.0
2024-02-28 11:16:08.695894,1709115368.6958935,-25.390625,-29.296875,-39.55078125,-37.59765625,1.0,0.0,-1.0,0.0,1.m4v,9.0
2024-02-28 11:16:08.699799,1709115368.699799,-32.71484375,-45.41015625,-37.59765625,-41.015625,1.0,0.0,-1.0,0.0,1.m4v,9.0
2024-02-28 11:16:08.703705,1709115368.7037048,-35.64453125,-42.48046875,-32.71484375,-47.8515625,1.0,0.0,-1.0,0.0,1.m4v,9.0
2024-02-28 11:16:08.707611,1709115368.7076106,-40.0390625,-41.015625,-23.92578125,-42.48046875,1.0,0.0,-1.0,0.0,1.m4v,9.0
2024-02-28 11:16:08.711516,1709115368.7115164,-41.9921875,-33.69140625,-29.78515625,-35.15625,1.0,0.0,-1.0,0.0,1.m4v,9.0
2024-02-28 11:16:08.715422,1709115368.7154222,-35.64453125,-30.2734375,-34.66796875,-29.78515625,1.0,0.0,-1.0,0.0,1.m4v,9.0
2024-02-28 11:16:08.719328,1709115368.719328,-39.0625,-27.34375,-27.34375,-36.1328125,1.0,0.0,-1.0,0.0,1.m4v,9.0
2024-02-28 11:16:08.723233,1709115368.7232337,-54.6875,-26.85546875,-27.83203125,-50.78125,1.0,0.0,-1.0,0.0,1.m4v,9.0
2024-02-28 11:16:08.727138,1709115368.7271378,-58.10546875,-42.48046875,-20.99609375,-39.0625,1.0,0.0,-1.0,0.0,1.m4v,9.0
2024-02-28 11:16:08.731043,1709115368.731043,-55.17578125,-56.15234375,-32.2265625,-32.71484375,1.0,0.0,-1.0,0.0,1.m4v,9.0
2024-02-28 11:16:08.734949,1709115368.734949,-41.9921875,-53.22265625,-51.26953125,-35.64453125,1.0,0.0,-1.0,0.0,1.m4v,9.0
2024-02-28 11:16:08.738855,1709115368.738855,-33.203125,-48.828125,-46.38671875,-35.64453125,1.0,0.0,-1.0,0.0,1.m4v,9.0
2024-02-28 11:16:08.742761,1709115368.742761,-40.52734375,-54.19921875,-32.71484375,-31.73828125,1.0,0.0,-1.0,0.0,1.m4v,9.0
2024-02-28 11:16:08.746666,1709115368.7466664,-36.1328125,-41.9921875,-28.80859375,-23.92578125,1.0,0.0,-1.0,0.0,1.m4v,9.0
2024-02-28 11:16:08.750572,1709115368.7505722,-38.0859375,-28.3203125,-34.66796875,-22.94921875,1.0,0.0,-1.0,0.0,1.m4v,9.0
2024-02-28 11:16:08.754478,1709115368.7544775,-31.73828125,-41.015625,-43.45703125,-24.90234375,1.0,0.0,-1.0,0.0,1.m4v,9.0
2024-02-28 11:16:08.758384,1709115368.7583835,-11.23046875,-43.45703125,-42.96875,-23.4375,1.0,0.0,-1.0,0.0,1.m4v,9.0
2024-02-28 11:16:08.762289,1709115368.7622893,-26.3671875,-55.17578125,-37.109375,-26.3671875,1.0,0.0,-1.0,0.0,1.m4v,9.0
2024-02-28 11:16:08.766195,1709115368.766195,-54.6875,-63.4765625,-32.71484375,-28.80859375,1.0,0.0,-1.0,0.0,1.m4v,9.0
2024-02-28 11:16:08.770101,1709115368.7701008,-52.24609375,-47.36328125,-17.578125,-28.80859375,1.0,0.0,-1.0,0.0,1.m4v,9.0
2024-02-28 11:16:08.774012,1709115368.7740116,-38.0859375,-39.55078125,-10.7421875,-30.2734375,1.0,0.0,-1.0,0.0,1.m4v,9.0
2024-02-28 11:16:08.777917,1709115368.7779174,-28.3203125,-38.0859375,-23.4375,-35.64453125,1.0,0.0,-1.0,0.0,1.m4v,9.0
2024-02-28 11:16:08.781823,1709115368.7818232,-29.296875,-21.97265625,-22.94921875,-28.80859375,1.0,0.0,-1.0,0.0,1.m4v,9.0
2024-02-28 11:16:08.785729,1709115368.7857287,-24.4140625,-20.5078125,-29.78515625,-22.94921875,1.0,0.0,-1.0,0.0,1.m4v,9.0
2024-02-28 11:16:08.789634,1709115368.7896345,-29.78515625,-39.0625,-40.0390625,-31.25,1.0,0.0,-1.0,0.0,1.m4v,9.0
2024-02-28 11:16:08.793540,1709115368.7935402,-39.55078125,-34.66796875,-33.69140625,-39.55078125,1.0,0.0,-1.0,0.0,1.m4v,9.0
2024-02-28 11:16:08.797446,1709115368.797446,-31.73828125,-34.1796875,-23.92578125,-39.0625,1.0,0.0,-1.0,0.0,1.m4v,9.0
2024-02-28 11:16:08.801352,1709115368.8013518,-23.92578125,-47.8515625,-26.85546875,-32.2265625,1.0,0.0,-1.0,0.0,1.m4v,9.0
2024-02-28 11:16:08.805258,1709115368.8052576,-19.53125,-39.55078125,-33.203125,-31.25,1.0,0.0,-1.0,0.0,1.m4v,9.0
2024-02-28 11:16:08.809163,1709115368.809163,-38.0859375,-26.85546875,-34.1796875,-37.59765625,1.0,0.0,-1.0,0.0,1.m4v,9.0
2024-02-28 11:16:08.813069,1709115368.8130689,-40.52734375,-30.2734375,-34.1796875,-37.109375,1.0,0.0,-1.0,0.0,1.m4v,9.0
2024-02-28 11:16:08.816975,1709115368.8169746,-18.5546875,-22.4609375,-27.83203125,-34.66796875,1.0,0.0,-1.0,0.0,1.m4v,9.0
2024-02-28 11:16:08.820886,1709115368.8208857,-14.6484375,-15.625,-24.90234375,-33.203125,1.0,0.0,-1.0,0.0,1.m4v,9.0
2024-02-28 11:16:08.824791,1709115368.8247914,-24.90234375,-23.92578125,-49.8046875,-33.69140625,1.0,0.0,-1.0,0.0,1.m4v,9.0
2024-02-28 11:16:08.828697,1709115368.8286972,-34.66796875,-36.62109375,-51.26953125,-33.69140625,1.0,0.0,-1.0,0.0,1.m4v,9.0
2024-02-28 11:16:08.832603,1709115368.832603,-34.66796875,-28.80859375,-18.5546875,-31.73828125,1.0,0.0,-1.0,0.0,1.m4v,9.0
2024-02-28 11:16:08.836509,1709115368.8365085,-26.85546875,-19.53125,-14.16015625,-37.109375,1.0,0.0,-1.0,0.0,1.m4v,9.0
2024-02-28 11:16:08.840414,1709115368.8404143,-17.08984375,-28.80859375,-22.4609375,-39.55078125,1.0,0.0,-1.0,0.0,1.m4v,9.0
2024-02-28 11:16:08.844320,1709115368.84432,-26.3671875,-38.0859375,-31.25,-41.50390625,1.0,0.0,-1.0,0.0,1.m4v,9.0
2024-02-28 11:16:08.848226,1709115368.8482258,-49.31640625,-44.43359375,-41.015625,-36.62109375,1.0,0.0,-1.0,0.0,1.m4v,9.0
2024-02-28 11:16:08.852132,1709115368.8521316,-33.69140625,-44.921875,-30.76171875,-31.73828125,1.0,0.0,-1.0,0.0,1.m4v,9.0
2024-02-28 11:16:08.856037,1709115368.8560374,-16.6015625,-34.1796875,-19.04296875,-25.87890625,1.0,0.0,-1.0,0.0,1.m4v,9.0
2024-02-28 11:16:08.859943,1709115368.859943,-21.484375,-24.4140625,-38.0859375,-32.71484375,1.0,0.0,-1.0,0.0,1.m4v,9.0
2024-02-28 11:16:08.863849,1709115368.8638487,-36.62109375,-21.484375,-47.8515625,-41.50390625,1.0,0.0,-1.0,0.0,1.m4v,9.0
2024-02-28 11:16:08.867766,1709115368.867766,-39.0625,-20.99609375,-35.15625,-31.25,1.0,0.0,-1.0,0.0,1.m4v,9.0
2024-02-28 11:16:08.871672,1709115368.8716717,-31.25,-43.9453125,-43.45703125,-35.64453125,1.0,0.0,-1.0,0.0,1.m4v,9.0
2024-02-28 11:16:08.875577,1709115368.8755772,-28.3203125,-64.453125,-44.921875,-41.015625,1.0,0.0,-1.0,0.0,1.m4v,9.0
