Timestamp,Timestamp_UNIX,TP9,AF7,AF8,TP10,Valence,Arousal,Dominace,Viewed,Video,Participant
2024-02-27 09:58:29.000589,1709024309.000589,-39.55078125,-69.82421875,-31.73828125,-54.6875,-1.0,1.0,0.0,0.0,8.m4v,1.0
2024-02-27 09:58:29.004494,1709024309.004494,-29.78515625,-40.52734375,-32.71484375,-43.9453125,-1.0,1.0,0.0,0.0,8.m4v,1.0
2024-02-27 09:58:29.008399,1709024309.008399,-19.53125,-10.7421875,-32.71484375,-25.87890625,-1.0,1.0,0.0,0.0,8.m4v,1.0
2024-02-27 09:58:29.012304,1709024309.0123043,-15.13671875,-15.625,-28.3203125,-16.11328125,-1.0,1.0,0.0,0.0,8.m4v,1.0
2024-02-27 09:58:29.016210,1709024309.0162096,-16.6015625,-38.0859375,-32.71484375,-17.08984375,-1.0,1.0,0.0,0.0,8.m4v,1.0
2024-02-27 09:58:29.020115,1709024309.020115,-21.97265625,-41.9921875,-41.9921875,-33.203125,-1.0,1.0,0.0,0.0,8.m4v,1.0
2024-02-27 09:58:29.024020,1709024309.02402,-18.06640625,-48.828125,-55.17578125,-35.15625,-1.0,1.0,0.0,0.0,8.m4v,1.0
2024-02-27 09:58:29.027925,1709024309.027925,2.9296875,-40.52734375,-27.34375,6.34765625,-1.0,1.0,0.0,0.0,8.m4v,1.0
2024-02-27 09:58:29.031830,1709024309.0318303,-7.8125,-37.59765625,-4.39453125,-10.25390625,-1.0,1.0,0.0,0.0,8.m4v,1.0
2024-02-27 09:58:29.035735,1709024309.0357354,-35.64453125,-45.41015625,-17.578125,-41.50390625,-1.0,1.0,0.0,0.0,8.m4v,1.0
2024-02-27 09:58:29.039641,1709024309.039641,-20.01953125,-10.7421875,-28.3203125,-12.6953125,-1.0,1.0,0.0,0.0,8.m4v,1.0
2024-02-27 09:58:29.043551,1709024309.043551,-15.13671875,5.37109375,-38.0859375,-21.484375,-1.0,1.0,0.0,0.0,8.m4v,1.0
2024-02-27 09:58:29.047456,1709024309.0474565,-32.71484375,-20.01953125,-22.94921875,-39.55078125,-1.0,1.0,0.0,0.0,8.m4v,1.0
2024-02-27 09:58:29.051361,1709024309.051361,-51.26953125,-40.52734375,-20.01953125,-49.8046875,-1.0,1.0,0.0,0.0,8.m4v,1.0
2024-02-27 09:58:29.055267,1709024309.0552666,-54.6875,-47.36328125,-34.1796875,-65.4296875,-1.0,1.0,0.0,0.0,8.m4v,1.0
2024-02-27 09:58:29.059172,1709024309.0591717,-27.83203125,-60.05859375,-30.76171875,-45.41015625,-1.0,1.0,0.0,0.0,8.m4v,1.0
2024-02-27 09:58:29.063077,1709024309.063077,-18.5546875,-53.22265625,-31.25,-14.6484375,-1.0,1.0,0.0,0.0,8.m4v,1.0
2024-02-27 09:58:29.066982,1709024309.066982,-24.90234375,-40.0390625,-40.0390625,-16.11328125,-1.0,1.0,0.0,0.0,8.m4v,1.0
2024-02-27 09:58:29.070887,1709024309.070887,-20.99609375,-35.15625,-22.4609375,-11.71875,-1.0,1.0,0.0,0.0,8.m4v,1.0
2024-02-27 09:58:29.074793,1709024309.0747926,-15.13671875,-20.5078125,-7.32421875,-20.01953125,-1.0,1.0,0.0,0.0,8.m4v,1.0
2024-02-27 09:58:29.078698,1709024309.0786977,-36.1328125,-27.34375,-39.55078125,-49.31640625,-1.0,1.0,0.0,0.0,8.m4v,1.0
2024-02-27 09:58:29.082603,1709024309.082603,-39.0625,-26.3671875,-44.43359375,-27.34375,-1.0,1.0,0.0,0.0,8.m4v,1.0
2024-02-27 09:58:29.086508,1709024309.086508,-26.3671875,-18.06640625,-25.87890625,-11.23046875,-1.0,1.0,0.0,0.0,8.m4v,1.0
2024-02-27 09:58:29.090418,1709024309.0904176,-34.66796875,-33.69140625,-27.34375,-25.390625,-1.0,1.0,0.0,0.0,8.m4v,1.0
2024-02-27 09:58:29.094323,1709024309.094323,-36.1328125,-36.1328125,-27.83203125,-36.1328125,-1.0,1.0,0.0,0.0,8.m4v,1.0
2024-02-27 09:58:29.098228,1709024309.098228,-33.203125,-41.015625,-42.96875,-46.875,-1.0,1.0,0.0,0.0,8.m4v,1.0
2024-02-27 09:58:29.102133,1709024309.1021333,-44.921875,-62.98828125,-52.734375,-45.8984375,-1.0,1.0,0.0,0.0,8.m4v,1.0
2024-02-27 09:58:29.106039,1709024309.1060386,-29.296875,-45.8984375,-38.0859375,-41.015625,-1.0,1.0,0.0,0.0,8.m4v,1.0
2024-02-27 09:58:29.109944,1709024309.1099436,-7.8125,-19.53125,-27.34375,-25.87890625,-1.0,1.0,0.0,0.0,8.m4v,1.0
2024-02-27 09:58:29.559123,1709024309.5591226,-14.6484375,-38.57421875,-20.5078125,-45.41015625,-1.0,1.0,0.0,0.0,8.m4v,1.0
2024-02-27 09:58:29.563028,1709024309.563028,8.30078125,-32.71484375,-30.2734375,-13.18359375,-1.0,1.0,0.0,0.0,8.m4v,1.0
2024-02-27 09:58:29.566933,1709024309.566933,-10.7421875,-11.71875,-33.203125,-17.578125,-1.0,1.0,0.0,0.0,8.m4v,1.0
2024-02-27 09:58:29.570838,1709024309.5708382,-28.3203125,-18.5546875,-31.25,-20.5078125,-1.0,1.0,0.0,0.0,8.m4v,1.0
2024-02-27 09:58:29.574743,1709024309.5747433,-34.66796875,-31.25,-25.390625,-14.6484375,-1.0,1.0,0.0,0.0,8.m4v,1.0
2024-02-27 09:58:29.578649,1709024309.5786486,-48.828125,-48.828125,-32.71484375,-44.921875,-1.0,1.0,0.0,0.0,8.m4v,1.0
2024-02-27 09:58:29.582554,1709024309.5825536,-57.12890625,-46.875,-33.69140625,-54.19921875,-1.0,1.0,0.0,0.0,8.m4v,1.0
2024-02-27 09:58:29.586459,1709024309.586459,-46.875,-23.4375,-24.90234375,-32.71484375,-1.0,1.0,0.0,0.0,8.m4v,1.0
2024-02-27 09:58:29.590364,1709024309.5903642,-55.17578125,-18.06640625,-28.80859375,-24.4140625,-1.0,1.0,0.0,0.0,8.m4v,1.0
2024-02-27 09:58:29.594269,1709024309.5942693,-41.9921875,-26.85546875,-35.15625,-32.2265625,-1.0,1.0,0.0,0.0,8.m4v,1.0
2024-02-27 09:58:29.598175,1709024309.5981746,-27.83203125,-42.48046875,-43.9453125,-44.921875,-1.0,1.0,0.0,0.0,8.m4v,1.0
2024-02-27 09:58:29.602080,1709024309.6020796,-41.9921875,-60.05859375,-44.43359375,-61.03515625,-1.0,1.0,0.0,0.0,8.m4v,1.0
2024-02-27 09:58:29.605993,1709024309.6059926,-31.25,-39.0625,-16.11328125,-41.50390625,-1.0,1.0,0.0,0.0,8.m4v,1.0
2024-02-27 09:58:29.609898,1709024309.609898,-22.4609375,-18.06640625,-13.671875,-12.6953125,-1.0,1.0,0.0,0.0,8.m4v,1.0
2024-02-27 09:58:29.613803,1709024309.6138031,-20.01953125,-20.5078125,-15.13671875,-12.6953125,-1.0,1.0,0.0,0.0,8.m4v,1.0
2024-02-27 09:58:29.617708,1709024309.6177082,-37.59765625,-47.8515625,-34.1796875,-39.55078125,-1.0,1.0,0.0,0.0,8.m4v,1.0
2024-02-27 09:58:29.621614,1709024309.6216135,-48.33984375,-53.7109375,-46.38671875,-34.66796875,-1.0,1.0,0.0,0.0,8.m4v,1.0
2024-02-27 09:58:29.625519,1709024309.6255186,-13.18359375,-21.484375,-32.71484375,-12.6953125,-1.0,1.0,0.0,0.0,8.m4v,1.0
2024-02-27 09:58:29.629424,1709024309.629424,-27.83203125,-28.3203125,-52.734375,-22.4609375,-1.0,1.0,0.0,0.0,8.m4v,1.0
2024-02-27 09:58:29.633329,1709024309.633329,-62.01171875,-49.8046875,-53.7109375,-43.9453125,-1.0,1.0,0.0,0.0,8.m4v,1.0
2024-02-27 09:58:29.637234,1709024309.6372342,-68.84765625,-62.98828125,-44.921875,-62.5,-1.0,1.0,0.0,0.0,8.m4v,1.0
2024-02-27 09:58:29.641139,1709024309.6411393,-49.31640625,-54.6875,-36.1328125,-49.31640625,-1.0,1.0,0.0,0.0,8.m4v,1.0
2024-02-27 09:58:29.645045,1709024309.6450446,-19.04296875,-20.01953125,-13.671875,-33.69140625,-1.0,1.0,0.0,0.0,8.m4v,1.0
2024-02-27 09:58:29.648950,1709024309.64895,-27.34375,-20.5078125,-42.96875,-28.80859375,-1.0,1.0,0.0,0.0,8.m4v,1.0
2024-02-27 09:58:29.652862,1709024309.6528623,-12.20703125,-23.92578125,-50.78125,1.46484375,-1.0,1.0,0.0,0.0,8.m4v,1.0
2024-02-27 09:58:29.656767,1709024309.6567674,-10.7421875,-25.390625,-24.90234375,-14.6484375,-1.0,1.0,0.0,0.0,8.m4v,1.0
2024-02-27 09:58:29.660673,1709024309.660673,-44.921875,-42.96875,-38.0859375,-57.6171875,-1.0,1.0,0.0,0.0,8.m4v,1.0
2024-02-27 09:58:29.664578,1709024309.6645775,-30.76171875,-27.34375,-29.78515625,-43.45703125,-1.0,1.0,0.0,0.0,8.m4v,1.0
2024-02-27 09:58:29.668483,1709024309.668483,-11.71875,-27.34375,-9.765625,-18.06640625,-1.0,1.0,0.0,0.0,8.m4v,1.0
2024-02-27 09:58:29.672388,1709024309.672388,-13.18359375,-47.36328125,-4.8828125,0.9765625,-1.0,1.0,0.0,0.0,8.m4v,1.0
2024-02-27 09:58:29.676293,1709024309.6762934,-14.6484375,-41.50390625,-18.5546875,-36.62109375,-1.0,1.0,0.0,0.0,8.m4v,1.0
2024-02-27 09:58:29.680198,1709024309.6801984,-47.36328125,-54.19921875,-53.22265625,-85.44921875,-1.0,1.0,0.0,0.0,8.m4v,1.0
2024-02-27 09:58:29.684104,1709024309.6841035,-71.77734375,-56.640625,-71.2890625,-81.0546875,-1.0,1.0,0.0,0.0,8.m4v,1.0
2024-02-27 09:58:29.688009,1709024309.688009,-35.15625,-7.32421875,-45.8984375,-42.96875,-1.0,1.0,0.0,0.0,8.m4v,1.0
2024-02-27 09:58:29.691914,1709024309.691914,-22.4609375,15.13671875,-45.41015625,-18.06640625,-1.0,1.0,0.0,0.0,8.m4v,1.0
2024-02-27 09:58:29.695819,1709024309.6958194,-31.25,-18.5546875,-48.33984375,-27.34375,-1.0,1.0,0.0,0.0,8.m4v,1.0
2024-02-27 09:58:29.699731,1709024309.699731,-22.4609375,-59.08203125,-21.484375,-21.97265625,-1.0,1.0,0.0,0.0,8.m4v,1.0
2024-02-27 09:58:29.703636,1709024309.7036362,-26.85546875,-53.7109375,-15.13671875,-22.4609375,-1.0,1.0,0.0,0.0,8.m4v,1.0
2024-02-27 09:58:29.707541,1709024309.7075417,-44.921875,-43.45703125,-16.11328125,-40.52734375,-1.0,1.0,0.0,0.0,8.m4v,1.0
2024-02-27 09:58:29.711447,1709024309.7114463,-43.45703125,-45.8984375,-30.76171875,-46.875,-1.0,1.0,0.0,0.0,8.m4v,1.0
2024-02-27 09:58:29.715352,1709024309.7153518,-35.64453125,-41.015625,-41.015625,-39.55078125,-1.0,1.0,0.0,0.0,8.m4v,1.0
2024-02-27 09:58:29.719257,1709024309.719257,-10.25390625,-23.4375,-29.296875,-13.18359375,-1.0,1.0,0.0,0.0,8.m4v,1.0
2024-02-27 09:58:29.723162,1709024309.7231622,-0.9765625,-16.11328125,-38.0859375,-12.6953125,-1.0,1.0,0.0,0.0,8.m4v,1.0
2024-02-27 09:58:29.727067,1709024309.7270677,-23.4375,-22.4609375,-22.94921875,-32.2265625,-1.0,1.0,0.0,0.0,8.m4v,1.0
2024-02-27 09:58:29.730973,1709024309.7309723,-46.875,-36.62109375,-27.83203125,-38.0859375,-1.0,1.0,0.0,0.0,8.m4v,1.0
2024-02-27 09:58:29.734878,1709024309.7348778,-86.42578125,-64.453125,-59.08203125,-72.265625,-1.0,1.0,0.0,0.0,8.m4v,1.0
2024-02-27 09:58:29.738783,1709024309.738783,-74.21875,-41.50390625,-49.8046875,-70.3125,-1.0,1.0,0.0,0.0,8.m4v,1.0
2024-02-27 09:58:29.742688,1709024309.7426882,-29.78515625,-20.5078125,-38.0859375,-26.85546875,-1.0,1.0,0.0,0.0,8.m4v,1.0
2024-02-27 09:58:29.746599,1709024309.7465992,-35.15625,-49.8046875,-38.57421875,-23.92578125,-1.0,1.0,0.0,0.0,8.m4v,1.0
2024-02-27 09:58:29.750504,1709024309.7505045,-47.8515625,-42.96875,-42.96875,-23.4375,-1.0,1.0,0.0,0.0,8.m4v,1.0
2024-02-27 09:58:29.754410,1709024309.7544098,-11.23046875,-12.6953125,-28.80859375,10.7421875,-1.0,1.0,0.0,0.0,8.m4v,1.0
2024-02-27 09:58:29.758315,1709024309.7583148,10.25390625,-17.578125,17.578125,5.859375,-1.0,1.0,0.0,0.0,8.m4v,1.0
2024-02-27 09:58:29.762220,1709024309.76222,-23.92578125,-16.6015625,0.9765625,-39.0625,-1.0,1.0,0.0,0.0,8.m4v,1.0
2024-02-27 09:58:29.766125,1709024309.7661252,-56.640625,-21.484375,-38.0859375,-59.08203125,-1.0,1.0,0.0,0.0,8.m4v,1.0
2024-02-27 09:58:29.770030,1709024309.7700305,-62.98828125,-42.48046875,-45.8984375,-65.91796875,-1.0,1.0,0.0,0.0,8.m4v,1.0
2024-02-27 09:58:29.773936,1709024309.7739356,-52.734375,-48.33984375,-39.0625,-63.96484375,-1.0,1.0,0.0,0.0,8.m4v,1.0
2024-02-27 09:58:29.777841,1709024309.7778409,-26.85546875,-46.875,-46.875,-41.9921875,-1.0,1.0,0.0,0.0,8.m4v,1.0
2024-02-27 09:58:29.781746,1709024309.781746,-27.83203125,-37.59765625,-73.2421875,-32.71484375,-1.0,1.0,0.0,0.0,8.m4v,1.0
2024-02-27 09:58:29.785651,1709024309.7856512,-46.875,-31.73828125,-53.22265625,-40.0390625,-1.0,1.0,0.0,0.0,8.m4v,1.0
2024-02-27 09:58:29.789557,1709024309.7895565,-58.59375,-50.29296875,-30.2734375,-50.29296875,-1.0,1.0,0.0,0.0,8.m4v,1.0
2024-02-27 09:58:29.793468,1709024309.7934675,-40.52734375,-37.59765625,-21.97265625,-46.875,-1.0,1.0,0.0,0.0,8.m4v,1.0
2024-02-27 09:58:29.797373,1709024309.7973726,-17.08984375,-6.34765625,-7.8125,-21.97265625,-1.0,1.0,0.0,0.0,8.m4v,1.0
2024-02-27 09:58:29.801278,1709024309.801278,-29.78515625,-18.06640625,-11.71875,-16.11328125,-1.0,1.0,0.0,0.0,8.m4v,1.0
2024-02-27 09:58:29.805183,1709024309.805183,-57.12890625,-57.12890625,-43.9453125,-47.8515625,-1.0,1.0,0.0,0.0,8.m4v,1.0
2024-02-27 09:58:29.809088,1709024309.8090882,-52.734375,-52.24609375,-46.38671875,-58.10546875,-1.0,1.0,0.0,0.0,8.m4v,1.0
2024-02-27 09:58:29.812993,1709024309.8129933,-19.53125,-18.06640625,-25.390625,-30.2734375,-1.0,1.0,0.0,0.0,8.m4v,1.0
2024-02-27 09:58:29.816899,1709024309.8168986,-20.01953125,-33.203125,-33.203125,-29.78515625,-1.0,1.0,0.0,0.0,8.m4v,1.0
2024-02-27 09:58:29.820804,1709024309.820804,-35.15625,-32.2265625,-56.640625,-50.78125,-1.0,1.0,0.0,0.0,8.m4v,1.0
2024-02-27 09:58:29.824709,1709024309.824709,-17.08984375,4.8828125,-36.62109375,-22.4609375,-1.0,1.0,0.0,0.0,8.m4v,1.0
2024-02-27 09:58:29.828614,1709024309.8286142,-26.3671875,-8.30078125,-21.484375,-22.4609375,-1.0,1.0,0.0,0.0,8.m4v,1.0
2024-02-27 09:58:29.832519,1709024309.8325193,-50.78125,-47.36328125,-49.8046875,-56.640625,-1.0,1.0,0.0,0.0,8.m4v,1.0
2024-02-27 09:58:29.836425,1709024309.8364246,-32.71484375,-65.91796875,-36.1328125,-41.015625,-1.0,1.0,0.0,0.0,8.m4v,1.0
2024-02-27 09:58:29.840339,1709024309.8403394,-21.484375,-64.94140625,-8.7890625,-20.01953125,-1.0,1.0,0.0,0.0,8.m4v,1.0
2024-02-27 09:58:29.844245,1709024309.8442447,-33.69140625,-63.96484375,-16.6015625,-30.2734375,-1.0,1.0,0.0,0.0,8.m4v,1.0
2024-02-27 09:58:29.848150,1709024309.8481498,-48.828125,-53.7109375,-41.9921875,-41.9921875,-1.0,1.0,0.0,0.0,8.m4v,1.0
2024-02-27 09:58:29.852055,1709024309.852055,-55.6640625,-40.52734375,-53.22265625,-40.0390625,-1.0,1.0,0.0,0.0,8.m4v,1.0
2024-02-27 09:58:29.855960,1709024309.85596,-31.25,-23.4375,-42.48046875,-28.3203125,-1.0,1.0,0.0,0.0,8.m4v,1.0
2024-02-27 09:58:29.859865,1709024309.8598654,-18.06640625,-6.8359375,-20.01953125,-20.99609375,-1.0,1.0,0.0,0.0,8.m4v,1.0
2024-02-27 09:58:29.863771,1709024309.8637707,-30.76171875,-8.7890625,-14.6484375,-35.64453125,-1.0,1.0,0.0,0.0,8.m4v,1.0
2024-02-27 09:58:29.867676,1709024309.8676758,-46.875,-20.99609375,-34.1796875,-50.78125,-1.0,1.0,0.0,0.0,8.m4v,1.0
2024-02-27 09:58:29.871581,1709024309.871581,-41.9921875,-37.109375,-32.71484375,-34.66796875,-1.0,1.0,0.0,0.0,8.m4v,1.0
2024-02-27 09:58:29.875486,1709024309.875486,-31.73828125,-55.6640625,-30.2734375,-36.62109375,-1.0,1.0,0.0,0.0,8.m4v,1.0
2024-02-27 09:58:29.879391,1709024309.8793914,-52.24609375,-62.01171875,-50.78125,-62.5,-1.0,1.0,0.0,0.0,8.m4v,1.0
2024-02-27 09:58:29.883296,1709024309.8832965,-63.96484375,-66.89453125,-51.26953125,-66.40625,-1.0,1.0,0.0,0.0,8.m4v,1.0
2024-02-27 09:58:29.887211,1709024309.8872108,-37.109375,-51.7578125,-31.25,-47.36328125,-1.0,1.0,0.0,0.0,8.m4v,1.0
2024-02-27 09:58:29.891116,1709024309.891116,-18.06640625,-33.69140625,-40.0390625,-27.83203125,-1.0,1.0,0.0,0.0,8.m4v,1.0
2024-02-27 09:58:29.895021,1709024309.8950212,-29.78515625,-42.48046875,-43.9453125,-21.484375,-1.0,1.0,0.0,0.0,8.m4v,1.0
2024-02-27 09:58:29.898926,1709024309.8989265,-34.66796875,-39.55078125,-30.76171875,-36.62109375,-1.0,1.0,0.0,0.0,8.m4v,1.0
2024-02-27 09:58:29.902832,1709024309.9028318,-52.24609375,-28.3203125,-35.15625,-67.3828125,-1.0,1.0,0.0,0.0,8.m4v,1.0
2024-02-27 09:58:29.906737,1709024309.9067369,-29.78515625,8.30078125,-23.92578125,-40.0390625,-1.0,1.0,0.0,0.0,8.m4v,1.0
2024-02-27 09:58:29.910642,1709024309.910642,-17.08984375,23.4375,-17.08984375,-11.23046875,-1.0,1.0,0.0,0.0,8.m4v,1.0
2024-02-27 09:58:29.914547,1709024309.9145472,-6.8359375,3.41796875,-22.94921875,-0.48828125,-1.0,1.0,0.0,0.0,8.m4v,1.0
2024-02-27 09:58:29.918453,1709024309.9184525,-27.83203125,-41.015625,-48.828125,-26.85546875,-1.0,1.0,0.0,0.0,8.m4v,1.0
2024-02-27 09:58:29.922358,1709024309.9223576,-80.56640625,-71.77734375,-62.01171875,-79.1015625,-1.0,1.0,0.0,0.0,8.m4v,1.0
2024-02-27 09:58:29.926263,1709024309.9262629,-43.9453125,-39.0625,-32.2265625,-48.828125,-1.0,1.0,0.0,0.0,8.m4v,1.0
2024-02-27 09:58:29.930168,1709024309.9301682,-30.2734375,-41.015625,-38.0859375,-38.0859375,-1.0,1.0,0.0,0.0,8.m4v,1.0
2024-02-27 09:58:29.934082,1709024309.9340816,-32.2265625,-56.640625,-32.71484375,-37.59765625,-1.0,1.0,0.0,0.0,8.m4v,1.0
2024-02-27 09:58:29.937987,1709024309.9379869,-5.859375,-46.38671875,-19.04296875,-6.34765625,-1.0,1.0,0.0,0.0,8.m4v,1.0
2024-02-27 09:58:29.941892,1709024309.941892,-33.69140625,-46.38671875,-23.4375,-26.3671875,-1.0,1.0,0.0,0.0,8.m4v,1.0
2024-02-27 09:58:29.945797,1709024309.9457972,-61.03515625,-40.52734375,-30.76171875,-56.15234375,-1.0,1.0,0.0,0.0,8.m4v,1.0
2024-02-27 09:58:29.949703,1709024309.9497025,-50.78125,-26.3671875,-39.55078125,-46.875,-1.0,1.0,0.0,0.0,8.m4v,1.0
2024-02-27 09:58:29.953608,1709024309.9536076,-32.71484375,-10.7421875,-25.390625,-28.3203125,-1.0,1.0,0.0,0.0,8.m4v,1.0
2024-02-27 09:58:29.957513,1709024309.9575129,-8.7890625,6.34765625,-10.25390625,11.71875,-1.0,1.0,0.0,0.0,8.m4v,1.0
2024-02-27 09:58:29.961418,1709024309.961418,-7.32421875,-12.6953125,-17.08984375,2.9296875,-1.0,1.0,0.0,0.0,8.m4v,1.0
2024-02-27 09:58:29.965323,1709024309.9653232,-25.87890625,-37.109375,-25.390625,-41.50390625,-1.0,1.0,0.0,0.0,8.m4v,1.0
2024-02-27 09:58:29.969229,1709024309.9692285,-44.921875,-38.57421875,-31.25,-41.015625,-1.0,1.0,0.0,0.0,8.m4v,1.0
2024-02-27 09:58:29.973134,1709024309.9731336,-70.3125,-59.5703125,-51.26953125,-64.94140625,-1.0,1.0,0.0,0.0,8.m4v,1.0
2024-02-27 09:58:29.977039,1709024309.9770389,-63.4765625,-54.19921875,-36.1328125,-66.89453125,-1.0,1.0,0.0,0.0,8.m4v,1.0
2024-02-27 09:58:29.980952,1709024309.9809518,-52.734375,-41.50390625,-19.04296875,-53.7109375,-1.0,1.0,0.0,0.0,8.m4v,1.0
2024-02-27 09:58:29.984857,1709024309.984857,-51.26953125,-62.5,-40.52734375,-56.15234375,-1.0,1.0,0.0,0.0,8.m4v,1.0
2024-02-27 09:58:29.988762,1709024309.988762,-51.7578125,-37.109375,-59.08203125,-39.55078125,-1.0,1.0,0.0,0.0,8.m4v,1.0
2024-02-27 09:58:29.992667,1709024309.9926674,-34.1796875,7.8125,-43.9453125,-3.90625,-1.0,1.0,0.0,0.0,8.m4v,1.0
2024-02-27 09:58:29.996572,1709024309.9965725,-18.5546875,-10.7421875,-25.390625,-0.48828125,-1.0,1.0,0.0,0.0,8.m4v,1.0
2024-02-27 09:58:30.000478,1709024310.0004778,-14.16015625,-18.5546875,1.46484375,-13.18359375,-1.0,1.0,0.0,0.0,8.m4v,1.0
2024-02-27 09:58:30.004383,1709024310.0043828,-36.62109375,-23.4375,-0.9765625,-30.76171875,-1.0,1.0,0.0,0.0,8.m4v,1.0
2024-02-27 09:58:30.008288,1709024310.008288,-67.3828125,-35.64453125,-46.875,-57.12890625,-1.0,1.0,0.0,0.0,8.m4v,1.0
2024-02-27 09:58:30.012193,1709024310.0121934,-41.50390625,-20.01953125,-33.69140625,-36.1328125,-1.0,1.0,0.0,0.0,8.m4v,1.0
2024-02-27 09:58:30.016098,1709024310.0160985,-43.45703125,-41.50390625,-37.59765625,-34.66796875,-1.0,1.0,0.0,0.0,8.m4v,1.0
2024-02-27 09:58:30.020004,1709024310.0200038,-51.26953125,-50.29296875,-61.5234375,-43.9453125,-1.0,1.0,0.0,0.0,8.m4v,1.0
2024-02-27 09:58:30.023909,1709024310.0239089,-31.73828125,-20.5078125,-39.55078125,-30.2734375,-1.0,1.0,0.0,0.0,8.m4v,1.0
2024-02-27 09:58:30.027821,1709024310.0278213,-31.73828125,-25.390625,-35.15625,-46.38671875,-1.0,1.0,0.0,0.0,8.m4v,1.0
2024-02-27 09:58:30.031726,1709024310.0317264,-17.578125,-23.92578125,-27.34375,-34.66796875,-1.0,1.0,0.0,0.0,8.m4v,1.0
2024-02-27 09:58:30.035632,1709024310.0356317,-1.46484375,-29.296875,-13.18359375,-7.8125,-1.0,1.0,0.0,0.0,8.m4v,1.0
2024-02-27 09:58:30.039537,1709024310.0395367,-10.25390625,-55.17578125,-31.73828125,-18.5546875,-1.0,1.0,0.0,0.0,8.m4v,1.0
2024-02-27 09:58:30.043442,1709024310.043442,-36.62109375,-43.9453125,-33.203125,-51.7578125,-1.0,1.0,0.0,0.0,8.m4v,1.0
2024-02-27 09:58:30.047347,1709024310.0473473,-50.78125,-26.85546875,-17.578125,-47.8515625,-1.0,1.0,0.0,0.0,8.m4v,1.0
2024-02-27 09:58:30.051252,1709024310.0512524,-45.8984375,-33.69140625,-18.5546875,-23.92578125,-1.0,1.0,0.0,0.0,8.m4v,1.0
2024-02-27 09:58:30.055158,1709024310.0551577,-56.15234375,-48.33984375,-47.36328125,-59.08203125,-1.0,1.0,0.0,0.0,8.m4v,1.0
2024-02-27 09:58:30.059063,1709024310.0590627,-49.8046875,-28.80859375,-57.6171875,-70.80078125,-1.0,1.0,0.0,0.0,8.m4v,1.0
2024-02-27 09:58:30.062968,1709024310.062968,-8.7890625,3.41796875,-22.94921875,-22.94921875,-1.0,1.0,0.0,0.0,8.m4v,1.0
2024-02-27 09:58:30.066873,1709024310.066873,2.9296875,3.90625,-17.08984375,0.0,-1.0,1.0,0.0,0.0,8.m4v,1.0
2024-02-27 09:58:30.070778,1709024310.0707784,-34.66796875,-24.4140625,-39.55078125,-25.87890625,-1.0,1.0,0.0,0.0,8.m4v,1.0
2024-02-27 09:58:30.074690,1709024310.07469,-45.41015625,-50.78125,-42.96875,-33.69140625,-1.0,1.0,0.0,0.0,8.m4v,1.0
2024-02-27 09:58:30.078595,1709024310.0785954,-6.34765625,-43.9453125,-14.16015625,-7.32421875,-1.0,1.0,0.0,0.0,8.m4v,1.0
2024-02-27 09:58:30.082500,1709024310.0825005,-16.11328125,-40.52734375,-15.625,-25.87890625,-1.0,1.0,0.0,0.0,8.m4v,1.0
2024-02-27 09:58:30.086406,1709024310.0864058,-60.05859375,-57.12890625,-33.69140625,-49.8046875,-1.0,1.0,0.0,0.0,8.m4v,1.0
2024-02-27 09:58:30.090311,1709024310.0903108,-66.40625,-56.640625,-40.0390625,-43.45703125,-1.0,1.0,0.0,0.0,8.m4v,1.0
2024-02-27 09:58:30.094216,1709024310.094216,-43.45703125,-39.0625,-42.96875,-44.43359375,-1.0,1.0,0.0,0.0,8.m4v,1.0
2024-02-27 09:58:30.098121,1709024310.0981212,-28.80859375,-8.30078125,-25.390625,-33.203125,-1.0,1.0,0.0,0.0,8.m4v,1.0
2024-02-27 09:58:30.102026,1709024310.1020265,-4.39453125,14.6484375,0.48828125,-7.8125,-1.0,1.0,0.0,0.0,8.m4v,1.0
2024-02-27 09:58:30.105932,1709024310.1059318,-2.9296875,-7.8125,-29.296875,-2.9296875,-1.0,1.0,0.0,0.0,8.m4v,1.0
2024-02-27 09:58:30.109837,1709024310.1098368,-43.45703125,-43.9453125,-64.94140625,-34.1796875,-1.0,1.0,0.0,0.0,8.m4v,1.0
2024-02-27 09:58:30.113742,1709024310.113742,-46.875,-47.8515625,-41.015625,-48.828125,-1.0,1.0,0.0,0.0,8.m4v,1.0
2024-02-27 09:58:30.117647,1709024310.1176472,-29.296875,-33.69140625,-8.7890625,-29.296875,-1.0,1.0,0.0,0.0,8.m4v,1.0
2024-02-27 09:58:30.121558,1709024310.1215582,-29.296875,-24.90234375,-17.08984375,-21.484375,-1.0,1.0,0.0,0.0,8.m4v,1.0
2024-02-27 09:58:30.125463,1709024310.1254635,-32.2265625,-40.52734375,-34.1796875,-21.484375,-1.0,1.0,0.0,0.0,8.m4v,1.0
2024-02-27 09:58:30.129369,1709024310.1293683,-48.828125,-61.5234375,-34.1796875,-17.578125,-1.0,1.0,0.0,0.0,8.m4v,1.0
2024-02-27 09:58:30.133274,1709024310.1332738,-41.9921875,-49.8046875,-22.4609375,-25.87890625,-1.0,1.0,0.0,0.0,8.m4v,1.0
2024-02-27 09:58:30.137179,1709024310.1371791,-38.57421875,-25.87890625,-28.3203125,-53.7109375,-1.0,1.0,0.0,0.0,8.m4v,1.0
2024-02-27 09:58:30.141084,1709024310.1410842,-22.94921875,-11.71875,-24.4140625,-36.62109375,-1.0,1.0,0.0,0.0,8.m4v,1.0
2024-02-27 09:58:30.543380,1709024310.5433805,-36.62109375,-34.1796875,-19.04296875,-48.828125,-1.0,1.0,0.0,0.0,8.m4v,1.0
2024-02-27 09:58:30.547286,1709024310.5472856,-51.26953125,-37.109375,-25.390625,-41.015625,-1.0,1.0,0.0,0.0,8.m4v,1.0
2024-02-27 09:58:30.551191,1709024310.5511909,-32.71484375,-35.64453125,-22.94921875,-23.4375,-1.0,1.0,0.0,0.0,8.m4v,1.0
2024-02-27 09:58:30.555096,1709024310.555096,-28.80859375,-31.25,-42.96875,-38.0859375,-1.0,1.0,0.0,0.0,8.m4v,1.0
2024-02-27 09:58:30.559001,1709024310.5590012,-35.15625,-33.69140625,-63.4765625,-55.17578125,-1.0,1.0,0.0,0.0,8.m4v,1.0
2024-02-27 09:58:30.562907,1709024310.5629065,-32.2265625,-35.15625,-55.17578125,-71.77734375,-1.0,1.0,0.0,0.0,8.m4v,1.0
2024-02-27 09:58:30.566812,1709024310.5668116,-14.16015625,-13.18359375,-32.71484375,-41.50390625,-1.0,1.0,0.0,0.0,8.m4v,1.0
2024-02-27 09:58:30.570717,1709024310.5707169,-3.41796875,0.48828125,-16.6015625,7.8125,-1.0,1.0,0.0,0.0,8.m4v,1.0
2024-02-27 09:58:30.574622,1709024310.574622,-38.0859375,-39.55078125,-26.85546875,-27.83203125,-1.0,1.0,0.0,0.0,8.m4v,1.0
2024-02-27 09:58:30.578527,1709024310.5785272,-77.1484375,-76.171875,-46.875,-86.42578125,-1.0,1.0,0.0,0.0,8.m4v,1.0
2024-02-27 09:58:30.582432,1709024310.5824325,-59.5703125,-54.19921875,-38.57421875,-75.1953125,-1.0,1.0,0.0,0.0,8.m4v,1.0
2024-02-27 09:58:30.586338,1709024310.5863376,-39.55078125,-35.15625,-41.015625,-47.8515625,-1.0,1.0,0.0,0.0,8.m4v,1.0
2024-02-27 09:58:30.590249,1709024310.5902493,-35.15625,-28.3203125,-43.9453125,-27.83203125,-1.0,1.0,0.0,0.0,8.m4v,1.0
2024-02-27 09:58:30.594154,1709024310.5941544,-22.4609375,-11.71875,-32.71484375,-1.46484375,-1.0,1.0,0.0,0.0,8.m4v,1.0
2024-02-27 09:58:30.598060,1709024310.5980597,-24.4140625,-19.53125,-22.94921875,-9.765625,-1.0,1.0,0.0,0.0,8.m4v,1.0
2024-02-27 09:58:30.601965,1709024310.6019647,-43.9453125,-41.015625,-29.78515625,-37.109375,-1.0,1.0,0.0,0.0,8.m4v,1.0
2024-02-27 09:58:30.605870,1709024310.60587,-39.55078125,-25.87890625,-13.18359375,-20.01953125,-1.0,1.0,0.0,0.0,8.m4v,1.0
2024-02-27 09:58:30.609775,1709024310.6097753,-26.85546875,-8.30078125,17.578125,-2.9296875,-1.0,1.0,0.0,0.0,8.m4v,1.0
2024-02-27 09:58:30.613680,1709024310.6136804,-50.29296875,-36.1328125,-18.5546875,-30.76171875,-1.0,1.0,0.0,0.0,8.m4v,1.0
2024-02-27 09:58:30.617586,1709024310.6175857,-62.01171875,-59.08203125,-67.87109375,-59.5703125,-1.0,1.0,0.0,0.0,8.m4v,1.0
2024-02-27 09:58:30.621491,1709024310.6214907,-39.0625,-37.109375,-74.70703125,-52.734375,-1.0,1.0,0.0,0.0,8.m4v,1.0
2024-02-27 09:58:30.625396,1709024310.625396,-31.73828125,-19.53125,-42.96875,-30.2734375,-1.0,1.0,0.0,0.0,8.m4v,1.0
2024-02-27 09:58:30.629301,1709024310.629301,-52.24609375,-40.0390625,-26.85546875,-44.43359375,-1.0,1.0,0.0,0.0,8.m4v,1.0
2024-02-27 09:58:30.633206,1709024310.6332064,-48.33984375,-46.38671875,-23.4375,-44.43359375,-1.0,1.0,0.0,0.0,8.m4v,1.0
2024-02-27 09:58:30.637120,1709024310.6371205,-35.15625,-26.3671875,-26.85546875,-25.87890625,-1.0,1.0,0.0,0.0,8.m4v,1.0
2024-02-27 09:58:30.641026,1709024310.6410258,-35.15625,-31.25,-9.765625,-37.109375,-1.0,1.0,0.0,0.0,8.m4v,1.0
2024-02-27 09:58:30.644931,1709024310.644931,-31.25,-38.0859375,0.0,-38.57421875,-1.0,1.0,0.0,0.0,8.m4v,1.0
2024-02-27 09:58:30.648836,1709024310.648836,-32.71484375,-46.875,-25.87890625,-22.94921875,-1.0,1.0,0.0,0.0,8.m4v,1.0
2024-02-27 09:58:30.652741,1709024310.6527414,-14.6484375,-42.96875,-44.921875,-4.39453125,-1.0,1.0,0.0,0.0,8.m4v,1.0
2024-02-27 09:58:30.656646,1709024310.6566465,-16.11328125,-31.25,-53.22265625,-13.18359375,-1.0,1.0,0.0,0.0,8.m4v,1.0
2024-02-27 09:58:30.660552,1709024310.6605518,-49.31640625,-55.17578125,-60.546875,-46.875,-1.0,1.0,0.0,0.0,8.m4v,1.0
2024-02-27 09:58:30.664457,1709024310.6644568,-44.43359375,-36.62109375,-43.45703125,-40.52734375,-1.0,1.0,0.0,0.0,8.m4v,1.0
2024-02-27 09:58:30.668362,1709024310.668362,-21.484375,1.953125,-14.16015625,-23.92578125,-1.0,1.0,0.0,0.0,8.m4v,1.0
2024-02-27 09:58:30.672267,1709024310.6722674,-49.31640625,-22.4609375,-23.92578125,-46.875,-1.0,1.0,0.0,0.0,8.m4v,1.0
2024-02-27 09:58:30.676172,1709024310.6761725,-51.26953125,-41.50390625,-20.99609375,-23.4375,-1.0,1.0,0.0,0.0,8.m4v,1.0
2024-02-27 09:58:30.680078,1709024310.6800778,-29.78515625,-38.57421875,-24.4140625,-16.6015625,-1.0,1.0,0.0,0.0,8.m4v,1.0
2024-02-27 09:58:30.683991,1709024310.6839914,-40.0390625,-39.55078125,-55.6640625,-48.33984375,-1.0,1.0,0.0,0.0,8.m4v,1.0
2024-02-27 09:58:30.687896,1709024310.6878965,-53.22265625,-24.90234375,-62.5,-49.31640625,-1.0,1.0,0.0,0.0,8.m4v,1.0
2024-02-27 09:58:30.691802,1709024310.6918018,-55.17578125,-27.34375,-46.38671875,-44.43359375,-1.0,1.0,0.0,0.0,8.m4v,1.0
2024-02-27 09:58:30.695707,1709024310.6957068,-24.90234375,-37.109375,-31.73828125,-25.390625,-1.0,1.0,0.0,0.0,8.m4v,1.0
2024-02-27 09:58:30.699612,1709024310.699612,-34.66796875,-43.45703125,-27.83203125,-38.0859375,-1.0,1.0,0.0,0.0,8.m4v,1.0
2024-02-27 09:58:30.703517,1709024310.7035174,-50.29296875,-38.0859375,-20.5078125,-57.12890625,-1.0,1.0,0.0,0.0,8.m4v,1.0
2024-02-27 09:58:30.707422,1709024310.7074225,-46.38671875,-30.76171875,-21.484375,-39.0625,-1.0,1.0,0.0,0.0,8.m4v,1.0
2024-02-27 09:58:30.711328,1709024310.7113278,-47.36328125,-23.92578125,-19.04296875,-18.5546875,-1.0,1.0,0.0,0.0,8.m4v,1.0
2024-02-27 09:58:30.715233,1709024310.7152328,-29.78515625,-17.08984375,-20.01953125,-11.71875,-1.0,1.0,0.0,0.0,8.m4v,1.0
2024-02-27 09:58:30.719138,1709024310.719138,-7.8125,-18.5546875,-41.015625,-7.8125,-1.0,1.0,0.0,0.0,8.m4v,1.0
2024-02-27 09:58:30.723043,1709024310.7230432,-20.5078125,-30.76171875,-43.9453125,-27.34375,-1.0,1.0,0.0,0.0,8.m4v,1.0
2024-02-27 09:58:30.726948,1709024310.7269485,-34.1796875,-26.85546875,-21.97265625,-40.52734375,-1.0,1.0,0.0,0.0,8.m4v,1.0
2024-02-27 09:58:30.730861,1709024310.7308614,-34.66796875,-17.08984375,-35.64453125,-19.53125,-1.0,1.0,0.0,0.0,8.m4v,1.0
2024-02-27 09:58:30.734767,1709024310.7347667,-40.52734375,-28.80859375,-51.7578125,-26.3671875,-1.0,1.0,0.0,0.0,8.m4v,1.0
2024-02-27 09:58:30.738672,1709024310.7386718,-38.57421875,-51.7578125,-40.0390625,-48.33984375,-1.0,1.0,0.0,0.0,8.m4v,1.0
2024-02-27 09:58:30.742577,1709024310.742577,-53.22265625,-72.265625,-40.0390625,-62.01171875,-1.0,1.0,0.0,0.0,8.m4v,1.0
2024-02-27 09:58:30.746482,1709024310.746482,-33.69140625,-47.36328125,-28.80859375,-33.69140625,-1.0,1.0,0.0,0.0,8.m4v,1.0
2024-02-27 09:58:30.750387,1709024310.7503874,-21.97265625,-36.1328125,-34.66796875,-15.13671875,-1.0,1.0,0.0,0.0,8.m4v,1.0
2024-02-27 09:58:30.754293,1709024310.7542927,-33.203125,-38.57421875,-27.83203125,-11.71875,-1.0,1.0,0.0,0.0,8.m4v,1.0
2024-02-27 09:58:30.758198,1709024310.7581978,-18.5546875,-12.20703125,-2.44140625,-18.5546875,-1.0,1.0,0.0,0.0,8.m4v,1.0
2024-02-27 09:58:30.762103,1709024310.762103,-41.50390625,-25.87890625,-28.80859375,-69.82421875,-1.0,1.0,0.0,0.0,8.m4v,1.0
2024-02-27 09:58:30.766008,1709024310.766008,-55.17578125,-32.71484375,-53.7109375,-69.82421875,-1.0,1.0,0.0,0.0,8.m4v,1.0
2024-02-27 09:58:30.769913,1709024310.7699134,-22.4609375,-4.39453125,-32.2265625,-14.16015625,-1.0,1.0,0.0,0.0,8.m4v,1.0
2024-02-27 09:58:30.773818,1709024310.7738185,-24.4140625,-20.5078125,-37.109375,-22.94921875,-1.0,1.0,0.0,0.0,8.m4v,1.0
2024-02-27 09:58:30.777731,1709024310.777731,-35.64453125,-55.17578125,-51.7578125,-48.828125,-1.0,1.0,0.0,0.0,8.m4v,1.0
2024-02-27 09:58:30.781636,1709024310.7816362,-28.3203125,-62.01171875,-36.62109375,-41.50390625,-1.0,1.0,0.0,0.0,8.m4v,1.0
2024-02-27 09:58:30.785541,1709024310.7855413,-31.73828125,-51.26953125,-23.4375,-31.73828125,-1.0,1.0,0.0,0.0,8.m4v,1.0
2024-02-27 09:58:30.789447,1709024310.7894466,-34.1796875,-28.80859375,-26.85546875,-35.15625,-1.0,1.0,0.0,0.0,8.m4v,1.0
2024-02-27 09:58:30.793352,1709024310.7933517,-36.62109375,-21.484375,-24.4140625,-33.203125,-1.0,1.0,0.0,0.0,8.m4v,1.0
2024-02-27 09:58:30.797257,1709024310.797257,-29.78515625,-17.08984375,-23.92578125,-24.90234375,-1.0,1.0,0.0,0.0,8.m4v,1.0
2024-02-27 09:58:30.801162,1709024310.8011622,-41.015625,-20.99609375,-41.015625,-48.828125,-1.0,1.0,0.0,0.0,8.m4v,1.0
2024-02-27 09:58:30.805067,1709024310.8050673,-60.546875,-34.1796875,-46.38671875,-65.91796875,-1.0,1.0,0.0,0.0,8.m4v,1.0
2024-02-27 09:58:30.808973,1709024310.8089726,-41.9921875,-32.2265625,-31.73828125,-37.59765625,-1.0,1.0,0.0,0.0,8.m4v,1.0
2024-02-27 09:58:30.812878,1709024310.8128777,-38.0859375,-32.2265625,-17.578125,-24.4140625,-1.0,1.0,0.0,0.0,8.m4v,1.0
2024-02-27 09:58:30.816783,1709024310.816783,-52.734375,-53.7109375,-35.15625,-48.33984375,-1.0,1.0,0.0,0.0,8.m4v,1.0
2024-02-27 09:58:30.820688,1709024310.820688,-10.7421875,-61.03515625,-39.0625,-27.83203125,-1.0,1.0,0.0,0.0,8.m4v,1.0
2024-02-27 09:58:30.824600,1709024310.8246002,0.9765625,-37.109375,-20.01953125,-7.8125,-1.0,1.0,0.0,0.0,8.m4v,1.0
2024-02-27 09:58:30.828505,1709024310.8285053,-29.78515625,-6.8359375,-19.04296875,-12.20703125,-1.0,1.0,0.0,0.0,8.m4v,1.0
2024-02-27 09:58:30.832411,1709024310.8324106,-44.921875,-13.671875,-40.52734375,-35.15625,-1.0,1.0,0.0,0.0,8.m4v,1.0
2024-02-27 09:58:30.836316,1709024310.836316,-68.84765625,-43.45703125,-57.12890625,-70.3125,-1.0,1.0,0.0,0.0,8.m4v,1.0
2024-02-27 09:58:30.840221,1709024310.840221,-73.73046875,-45.41015625,-63.4765625,-73.2421875,-1.0,1.0,0.0,0.0,8.m4v,1.0
2024-02-27 09:58:30.844126,1709024310.8441262,-56.640625,-42.48046875,-56.15234375,-54.6875,-1.0,1.0,0.0,0.0,8.m4v,1.0
2024-02-27 09:58:30.848031,1709024310.8480313,-38.57421875,-32.71484375,-13.671875,-38.57421875,-1.0,1.0,0.0,0.0,8.m4v,1.0
2024-02-27 09:58:30.851937,1709024310.8519366,-32.2265625,-11.71875,-14.6484375,-40.52734375,-1.0,1.0,0.0,0.0,8.m4v,1.0
2024-02-27 09:58:30.855842,1709024310.8558416,-25.390625,-9.27734375,-22.4609375,-39.55078125,-1.0,1.0,0.0,0.0,8.m4v,1.0
2024-02-27 09:58:30.859747,1709024310.859747,-24.90234375,-34.66796875,-12.20703125,-30.76171875,-1.0,1.0,0.0,0.0,8.m4v,1.0
2024-02-27 09:58:30.863652,1709024310.8636522,-30.76171875,-49.31640625,-30.76171875,-29.78515625,-1.0,1.0,0.0,0.0,8.m4v,1.0
2024-02-27 09:58:30.867557,1709024310.8675573,-42.96875,-51.26953125,-39.0625,-35.15625,-1.0,1.0,0.0,0.0,8.m4v,1.0
2024-02-27 09:58:30.871469,1709024310.871469,-43.45703125,-45.8984375,-54.6875,-41.015625,-1.0,1.0,0.0,0.0,8.m4v,1.0
2024-02-27 09:58:30.875374,1709024310.875374,-36.62109375,-33.69140625,-65.4296875,-27.83203125,-1.0,1.0,0.0,0.0,8.m4v,1.0
2024-02-27 09:58:30.879279,1709024310.8792794,-21.484375,-19.04296875,-41.50390625,-11.23046875,-1.0,1.0,0.0,0.0,8.m4v,1.0
2024-02-27 09:58:30.883185,1709024310.883185,-13.671875,-24.90234375,-20.01953125,-31.73828125,-1.0,1.0,0.0,0.0,8.m4v,1.0
2024-02-27 09:58:30.887090,1709024310.8870895,-25.87890625,-22.4609375,-4.39453125,-34.66796875,-1.0,1.0,0.0,0.0,8.m4v,1.0
2024-02-27 09:58:30.890995,1709024310.890995,-31.73828125,-19.53125,-0.9765625,-21.97265625,-1.0,1.0,0.0,0.0,8.m4v,1.0
2024-02-27 09:58:30.894900,1709024310.8949,-62.5,-68.359375,-41.015625,-50.29296875,-1.0,1.0,0.0,0.0,8.m4v,1.0
2024-02-27 09:58:30.898805,1709024310.8988054,-78.61328125,-86.9140625,-56.15234375,-79.1015625,-1.0,1.0,0.0,0.0,8.m4v,1.0
2024-02-27 09:58:30.902710,1709024310.9027104,-53.22265625,-47.36328125,-26.85546875,-68.359375,-1.0,1.0,0.0,0.0,8.m4v,1.0
2024-02-27 09:58:30.906616,1709024310.9066155,-28.80859375,-17.578125,-17.08984375,-22.4609375,-1.0,1.0,0.0,0.0,8.m4v,1.0
2024-02-27 09:58:30.910521,1709024310.910521,-38.0859375,-24.90234375,-55.17578125,-0.48828125,-1.0,1.0,0.0,0.0,8.m4v,1.0
2024-02-27 09:58:30.914426,1709024310.914426,-35.64453125,-24.4140625,-59.08203125,-7.32421875,-1.0,1.0,0.0,0.0,8.m4v,1.0
2024-02-27 09:58:30.918337,1709024310.9183366,-3.90625,-15.13671875,-14.6484375,-12.20703125,-1.0,1.0,0.0,0.0,8.m4v,1.0
2024-02-27 09:58:30.922242,1709024310.9222417,3.90625,-18.5546875,-1.46484375,-19.53125,-1.0,1.0,0.0,0.0,8.m4v,1.0
2024-02-27 09:58:30.926147,1709024310.926147,-43.9453125,-35.15625,-36.62109375,-53.22265625,-1.0,1.0,0.0,0.0,8.m4v,1.0
2024-02-27 09:58:30.930052,1709024310.9300525,-81.0546875,-53.7109375,-55.17578125,-65.4296875,-1.0,1.0,0.0,0.0,8.m4v,1.0
2024-02-27 09:58:30.933957,1709024310.933957,-58.10546875,-53.22265625,-47.36328125,-45.41015625,-1.0,1.0,0.0,0.0,8.m4v,1.0
2024-02-27 09:58:30.937863,1709024310.9378626,-41.50390625,-37.59765625,-27.34375,-44.921875,-1.0,1.0,0.0,0.0,8.m4v,1.0
2024-02-27 09:58:30.941768,1709024310.9417677,-49.8046875,-22.4609375,-20.99609375,-57.6171875,-1.0,1.0,0.0,0.0,8.m4v,1.0
2024-02-27 09:58:30.945673,1709024310.945673,-52.734375,-29.296875,-36.1328125,-47.8515625,-1.0,1.0,0.0,0.0,8.m4v,1.0
2024-02-27 09:58:30.949578,1709024310.949578,-25.87890625,-26.85546875,-19.04296875,-12.20703125,-1.0,1.0,0.0,0.0,8.m4v,1.0
2024-02-27 09:58:30.953483,1709024310.953483,-31.25,-33.69140625,-38.0859375,-26.85546875,-1.0,1.0,0.0,0.0,8.m4v,1.0
2024-02-27 09:58:30.957389,1709024310.9573886,-41.015625,-43.45703125,-58.59375,-36.62109375,-1.0,1.0,0.0,0.0,8.m4v,1.0
2024-02-27 09:58:30.961294,1709024310.9612937,-12.20703125,-24.4140625,-22.4609375,-14.6484375,-1.0,1.0,0.0,0.0,8.m4v,1.0
2024-02-27 09:58:30.965204,1709024310.9652035,-18.06640625,-13.18359375,-18.5546875,-33.203125,-1.0,1.0,0.0,0.0,8.m4v,1.0
2024-02-27 09:58:30.969109,1709024310.9691086,-64.453125,-41.50390625,-52.734375,-54.19921875,-1.0,1.0,0.0,0.0,8.m4v,1.0
2024-02-27 09:58:30.973014,1709024310.973014,-67.87109375,-74.21875,-67.87109375,-58.10546875,-1.0,1.0,0.0,0.0,8.m4v,1.0
2024-02-27 09:58:30.976919,1709024310.976919,-27.83203125,-54.19921875,-24.90234375,-42.48046875,-1.0,1.0,0.0,0.0,8.m4v,1.0
2024-02-27 09:58:30.980824,1709024310.9808242,-25.390625,-34.66796875,-8.7890625,-40.52734375,-1.0,1.0,0.0,0.0,8.m4v,1.0
2024-02-27 09:58:30.984729,1709024310.9847293,-41.9921875,-46.38671875,-30.2734375,-51.7578125,-1.0,1.0,0.0,0.0,8.m4v,1.0
2024-02-27 09:58:30.988635,1709024310.9886346,-14.16015625,-35.15625,-14.6484375,-28.3203125,-1.0,1.0,0.0,0.0,8.m4v,1.0
2024-02-27 09:58:30.992540,1709024310.99254,-9.765625,-26.3671875,-20.99609375,-20.5078125,-1.0,1.0,0.0,0.0,8.m4v,1.0
2024-02-27 09:58:30.996445,1709024310.996445,-50.78125,-29.296875,-24.90234375,-40.0390625,-1.0,1.0,0.0,0.0,8.m4v,1.0
2024-02-27 09:58:31.000350,1709024311.0003502,-21.97265625,3.41796875,-7.8125,-15.13671875,-1.0,1.0,0.0,0.0,8.m4v,1.0
2024-02-27 09:58:31.004255,1709024311.0042553,-7.8125,4.39453125,-34.66796875,-8.7890625,-1.0,1.0,0.0,0.0,8.m4v,1.0
2024-02-27 09:58:31.008161,1709024311.0081606,-40.52734375,-30.2734375,-45.8984375,-53.7109375,-1.0,1.0,0.0,0.0,8.m4v,1.0
2024-02-27 09:58:31.012075,1709024311.0120747,-55.6640625,-55.6640625,-49.31640625,-68.84765625,-1.0,1.0,0.0,0.0,8.m4v,1.0
2024-02-27 09:58:31.015980,1709024311.01598,-47.8515625,-64.453125,-58.10546875,-39.55078125,-1.0,1.0,0.0,0.0,8.m4v,1.0
2024-02-27 09:58:31.019885,1709024311.019885,-17.08984375,-59.08203125,-23.92578125,-3.90625,-1.0,1.0,0.0,0.0,8.m4v,1.0
2024-02-27 09:58:31.023790,1709024311.0237904,-26.3671875,-63.96484375,-8.7890625,-41.9921875,-1.0,1.0,0.0,0.0,8.m4v,1.0
2024-02-27 09:58:31.027696,1709024311.0276957,-51.7578125,-45.8984375,-18.5546875,-83.0078125,-1.0,1.0,0.0,0.0,8.m4v,1.0
2024-02-27 09:58:31.031601,1709024311.0316007,-15.625,-0.48828125,-6.8359375,-26.85546875,-1.0,1.0,0.0,0.0,8.m4v,1.0
2024-02-27 09:58:31.035506,1709024311.035506,-9.27734375,-7.8125,-8.7890625,5.859375,-1.0,1.0,0.0,0.0,8.m4v,1.0
2024-02-27 09:58:31.039411,1709024311.039411,-27.34375,-37.109375,-43.9453125,-14.6484375,-1.0,1.0,0.0,0.0,8.m4v,1.0
2024-02-27 09:58:31.043316,1709024311.0433164,-20.5078125,-26.3671875,-41.9921875,-20.5078125,-1.0,1.0,0.0,0.0,8.m4v,1.0
2024-02-27 09:58:31.047221,1709024311.0472214,-41.50390625,-8.30078125,-28.80859375,-44.921875,-1.0,1.0,0.0,0.0,8.m4v,1.0
2024-02-27 09:58:31.051127,1709024311.0511267,-46.875,-13.671875,-26.3671875,-43.45703125,-1.0,1.0,0.0,0.0,8.m4v,1.0
2024-02-27 09:58:31.055032,1709024311.055032,-32.2265625,-31.25,-24.4140625,-24.4140625,-1.0,1.0,0.0,0.0,8.m4v,1.0
2024-02-27 09:58:31.058946,1709024311.0589457,-36.62109375,-42.96875,-36.62109375,-29.78515625,-1.0,1.0,0.0,0.0,8.m4v,1.0
2024-02-27 09:58:31.062851,1709024311.062851,-30.2734375,-49.31640625,-41.015625,-20.5078125,-1.0,1.0,0.0,0.0,8.m4v,1.0
2024-02-27 09:58:31.066756,1709024311.066756,-16.11328125,-42.48046875,-32.71484375,3.41796875,-1.0,1.0,0.0,0.0,8.m4v,1.0
2024-02-27 09:58:31.070661,1709024311.0706613,-24.90234375,-47.8515625,-12.6953125,-7.8125,-1.0,1.0,0.0,0.0,8.m4v,1.0
2024-02-27 09:58:31.074566,1709024311.0745664,-20.99609375,-47.36328125,-9.27734375,-39.0625,-1.0,1.0,0.0,0.0,8.m4v,1.0
2024-02-27 09:58:31.078472,1709024311.0784717,-14.6484375,-32.2265625,-33.203125,-47.36328125,-1.0,1.0,0.0,0.0,8.m4v,1.0
2024-02-27 09:58:31.082377,1709024311.082377,-34.1796875,-23.92578125,-44.921875,-41.9921875,-1.0,1.0,0.0,0.0,8.m4v,1.0
2024-02-27 09:58:31.086282,1709024311.086282,-17.08984375,-20.01953125,-21.97265625,-20.99609375,-1.0,1.0,0.0,0.0,8.m4v,1.0
2024-02-27 09:58:31.090187,1709024311.0901873,-19.04296875,-23.4375,-24.90234375,-26.3671875,-1.0,1.0,0.0,0.0,8.m4v,1.0
2024-02-27 09:58:31.094092,1709024311.0940924,-55.6640625,-38.57421875,-50.78125,-50.29296875,-1.0,1.0,0.0,0.0,8.m4v,1.0
2024-02-27 09:58:31.097998,1709024311.0979977,-31.25,-32.2265625,-38.0859375,-29.78515625,-1.0,1.0,0.0,0.0,8.m4v,1.0
2024-02-27 09:58:31.101903,1709024311.1019027,-14.6484375,-19.53125,-24.4140625,-20.99609375,-1.0,1.0,0.0,0.0,8.m4v,1.0
2024-02-27 09:58:31.105821,1709024311.1058211,-34.66796875,-25.390625,-42.48046875,-32.2265625,-1.0,1.0,0.0,0.0,8.m4v,1.0
2024-02-27 09:58:31.109726,1709024311.1097262,-48.33984375,-38.57421875,-54.19921875,-43.9453125,-1.0,1.0,0.0,0.0,8.m4v,1.0
2024-02-27 09:58:31.113631,1709024311.1136315,-64.94140625,-49.31640625,-34.66796875,-59.08203125,-1.0,1.0,0.0,0.0,8.m4v,1.0
2024-02-27 09:58:31.117537,1709024311.1175363,-28.80859375,-33.69140625,-0.48828125,-32.2265625,-1.0,1.0,0.0,0.0,8.m4v,1.0
2024-02-27 09:58:31.121442,1709024311.1214418,-9.27734375,-36.62109375,-9.765625,-13.18359375,-1.0,1.0,0.0,0.0,8.m4v,1.0
2024-02-27 09:58:31.125347,1709024311.125347,-43.9453125,-32.71484375,-15.625,-14.6484375,-1.0,1.0,0.0,0.0,8.m4v,1.0
2024-02-27 09:58:31.574513,1709024311.574513,-18.06640625,-13.671875,-34.66796875,-11.23046875,-1.0,1.0,0.0,0.0,8.m4v,1.0
2024-02-27 09:58:31.578418,1709024311.578418,-6.34765625,-29.296875,-29.78515625,-18.5546875,-1.0,1.0,0.0,0.0,8.m4v,1.0
2024-02-27 09:58:31.582323,1709024311.5823233,-18.5546875,-50.29296875,-10.7421875,-28.3203125,-1.0,1.0,0.0,0.0,8.m4v,1.0
2024-02-27 09:58:31.586229,1709024311.5862286,-72.265625,-76.66015625,-40.52734375,-63.96484375,-1.0,1.0,0.0,0.0,8.m4v,1.0
2024-02-27 09:58:31.590134,1709024311.5901337,-74.21875,-61.03515625,-45.8984375,-53.22265625,-1.0,1.0,0.0,0.0,8.m4v,1.0
2024-02-27 09:58:31.594039,1709024311.594039,-26.3671875,-34.66796875,-25.87890625,-39.0625,-1.0,1.0,0.0,0.0,8.m4v,1.0
2024-02-27 09:58:31.597944,1709024311.597944,-30.76171875,-34.66796875,-40.52734375,-50.29296875,-1.0,1.0,0.0,0.0,8.m4v,1.0
2024-02-27 09:58:31.601849,1709024311.6018493,-32.71484375,-28.3203125,-40.52734375,-40.52734375,-1.0,1.0,0.0,0.0,8.m4v,1.0
2024-02-27 09:58:31.605754,1709024311.6057544,-16.11328125,-20.01953125,-14.6484375,-27.83203125,-1.0,1.0,0.0,0.0,8.m4v,1.0
2024-02-27 09:58:31.609660,1709024311.6096597,-30.76171875,-29.296875,-9.27734375,-22.4609375,-1.0,1.0,0.0,0.0,8.m4v,1.0
2024-02-27 09:58:31.613565,1709024311.613565,-34.1796875,-36.62109375,-21.97265625,-30.76171875,-1.0,1.0,0.0,0.0,8.m4v,1.0
2024-02-27 09:58:31.617470,1709024311.61747,-34.1796875,-39.0625,-26.85546875,-33.69140625,-1.0,1.0,0.0,0.0,8.m4v,1.0
2024-02-27 09:58:31.621381,1709024311.6213813,-40.0390625,-31.25,-42.96875,-24.90234375,-1.0,1.0,0.0,0.0,8.m4v,1.0
2024-02-27 09:58:31.625286,1709024311.6252863,-36.1328125,-36.1328125,-55.17578125,-36.1328125,-1.0,1.0,0.0,0.0,8.m4v,1.0
2024-02-27 09:58:31.629192,1709024311.6291916,-44.921875,-57.6171875,-54.19921875,-48.33984375,-1.0,1.0,0.0,0.0,8.m4v,1.0
2024-02-27 09:58:31.633097,1709024311.6330967,-50.78125,-54.19921875,-46.38671875,-53.7109375,-1.0,1.0,0.0,0.0,8.m4v,1.0
2024-02-27 09:58:31.637002,1709024311.637002,-35.15625,-38.0859375,-18.06640625,-45.41015625,-1.0,1.0,0.0,0.0,8.m4v,1.0
2024-02-27 09:58:31.640907,1709024311.6409073,-31.73828125,-20.99609375,-13.671875,-38.57421875,-1.0,1.0,0.0,0.0,8.m4v,1.0
2024-02-27 09:58:31.644812,1709024311.6448123,-19.04296875,-16.6015625,-20.99609375,-28.3203125,-1.0,1.0,0.0,0.0,8.m4v,1.0
2024-02-27 09:58:31.648718,1709024311.6487176,-20.99609375,-24.90234375,-22.4609375,-24.90234375,-1.0,1.0,0.0,0.0,8.m4v,1.0
2024-02-27 09:58:31.652623,1709024311.6526227,-47.36328125,-34.1796875,-34.66796875,-30.76171875,-1.0,1.0,0.0,0.0,8.m4v,1.0
2024-02-27 09:58:31.656528,1709024311.656528,-31.73828125,-15.13671875,-37.59765625,-8.30078125,-1.0,1.0,0.0,0.0,8.m4v,1.0
2024-02-27 09:58:31.660433,1709024311.660433,-20.99609375,-14.6484375,-32.2265625,-16.6015625,-1.0,1.0,0.0,0.0,8.m4v,1.0
2024-02-27 09:58:31.664338,1709024311.6643384,-48.33984375,-37.109375,-44.921875,-40.52734375,-1.0,1.0,0.0,0.0,8.m4v,1.0
2024-02-27 09:58:31.668249,1709024311.668249,-76.66015625,-42.48046875,-60.546875,-40.0390625,-1.0,1.0,0.0,0.0,8.m4v,1.0
2024-02-27 09:58:31.672154,1709024311.6721542,-78.61328125,-54.6875,-33.203125,-63.96484375,-1.0,1.0,0.0,0.0,8.m4v,1.0
2024-02-27 09:58:31.676059,1709024311.6760592,-29.78515625,-30.2734375,-8.7890625,-46.38671875,-1.0,1.0,0.0,0.0,8.m4v,1.0
2024-02-27 09:58:31.679965,1709024311.6799643,-18.06640625,-20.99609375,-26.85546875,-17.08984375,-1.0,1.0,0.0,0.0,8.m4v,1.0
2024-02-27 09:58:31.683870,1709024311.6838696,-54.19921875,-43.9453125,-42.48046875,-42.96875,-1.0,1.0,0.0,0.0,8.m4v,1.0
2024-02-27 09:58:31.687775,1709024311.687775,-41.015625,-34.66796875,-27.83203125,-40.52734375,-1.0,1.0,0.0,0.0,8.m4v,1.0
2024-02-27 09:58:31.691680,1709024311.6916802,-32.71484375,-46.875,-38.57421875,-37.59765625,-1.0,1.0,0.0,0.0,8.m4v,1.0
2024-02-27 09:58:31.695585,1709024311.6955853,-47.8515625,-54.19921875,-34.66796875,-38.57421875,-1.0,1.0,0.0,0.0,8.m4v,1.0
2024-02-27 09:58:31.699491,1709024311.6994903,-47.36328125,-41.50390625,-35.64453125,-25.87890625,-1.0,1.0,0.0,0.0,8.m4v,1.0
2024-02-27 09:58:31.703396,1709024311.7033956,-46.38671875,-41.015625,-65.4296875,-32.71484375,-1.0,1.0,0.0,0.0,8.m4v,1.0
2024-02-27 09:58:31.707301,1709024311.707301,-40.52734375,-24.4140625,-56.640625,-45.8984375,-1.0,1.0,0.0,0.0,8.m4v,1.0
2024-02-27 09:58:31.711206,1709024311.711206,-34.1796875,-30.76171875,-41.015625,-39.0625,-1.0,1.0,0.0,0.0,8.m4v,1.0
2024-02-27 09:58:31.715117,1709024311.7151165,-6.34765625,-28.3203125,-26.3671875,-17.578125,-1.0,1.0,0.0,0.0,8.m4v,1.0
2024-02-27 09:58:31.719022,1709024311.7190218,-1.46484375,-6.34765625,0.0,-10.25390625,-1.0,1.0,0.0,0.0,8.m4v,1.0
2024-02-27 09:58:31.722927,1709024311.7229269,-11.71875,-6.34765625,17.578125,1.953125,-1.0,1.0,0.0,0.0,8.m4v,1.0
2024-02-27 09:58:31.726832,1709024311.7268322,-1.46484375,-18.06640625,-3.41796875,-0.48828125,-1.0,1.0,0.0,0.0,8.m4v,1.0
2024-02-27 09:58:31.730737,1709024311.7307374,-43.9453125,-41.50390625,-43.9453125,-56.640625,-1.0,1.0,0.0,0.0,8.m4v,1.0
2024-02-27 09:58:31.734643,1709024311.7346425,-62.98828125,-53.7109375,-60.546875,-73.73046875,-1.0,1.0,0.0,0.0,8.m4v,1.0
2024-02-27 09:58:31.738548,1709024311.7385478,-37.59765625,-68.84765625,-63.96484375,-52.734375,-1.0,1.0,0.0,0.0,8.m4v,1.0
2024-02-27 09:58:31.742453,1709024311.7424529,-30.76171875,-54.19921875,-39.55078125,-34.66796875,-1.0,1.0,0.0,0.0,8.m4v,1.0
2024-02-27 09:58:31.746358,1709024311.7463582,-39.0625,-22.4609375,-30.2734375,-23.92578125,-1.0,1.0,0.0,0.0,8.m4v,1.0
2024-02-27 09:58:31.750263,1709024311.7502637,-34.66796875,-14.6484375,-44.43359375,-23.92578125,-1.0,1.0,0.0,0.0,8.m4v,1.0
2024-02-27 09:58:31.754169,1709024311.7541685,-3.90625,0.0,-29.296875,-17.578125,-1.0,1.0,0.0,0.0,8.m4v,1.0
2024-02-27 09:58:31.758074,1709024311.7580738,-29.296875,-31.73828125,-40.0390625,-51.26953125,-1.0,1.0,0.0,0.0,8.m4v,1.0
2024-02-27 09:58:31.761988,1709024311.761988,-55.6640625,-48.828125,-44.921875,-62.98828125,-1.0,1.0,0.0,0.0,8.m4v,1.0
2024-02-27 09:58:31.765893,1709024311.7658932,-29.78515625,-25.390625,-15.625,-12.6953125,-1.0,1.0,0.0,0.0,8.m4v,1.0
2024-02-27 09:58:31.769799,1709024311.7697985,-23.92578125,-14.6484375,-11.23046875,-1.953125,-1.0,1.0,0.0,0.0,8.m4v,1.0
2024-02-27 09:58:31.773704,1709024311.7737036,-41.015625,-24.90234375,-36.1328125,-29.78515625,-1.0,1.0,0.0,0.0,8.m4v,1.0
2024-02-27 09:58:31.777609,1709024311.7776089,-54.6875,-50.78125,-55.17578125,-71.2890625,-1.0,1.0,0.0,0.0,8.m4v,1.0
2024-02-27 09:58:31.781514,1709024311.781514,-36.1328125,-55.6640625,-33.203125,-61.5234375,-1.0,1.0,0.0,0.0,8.m4v,1.0
2024-02-27 09:58:31.785419,1709024311.7854192,-20.99609375,-45.8984375,-29.296875,-11.71875,-1.0,1.0,0.0,0.0,8.m4v,1.0
2024-02-27 09:58:31.789324,1709024311.7893243,-18.06640625,-42.96875,-31.25,-5.37109375,-1.0,1.0,0.0,0.0,8.m4v,1.0
2024-02-27 09:58:31.793230,1709024311.7932296,-17.578125,-40.0390625,-30.76171875,-8.7890625,-1.0,1.0,0.0,0.0,8.m4v,1.0
2024-02-27 09:58:31.797135,1709024311.7971349,-38.57421875,-28.3203125,-41.50390625,-29.296875,-1.0,1.0,0.0,0.0,8.m4v,1.0
2024-02-27 09:58:31.801040,1709024311.80104,-51.7578125,-30.76171875,-53.22265625,-61.5234375,-1.0,1.0,0.0,0.0,8.m4v,1.0
2024-02-27 09:58:31.804945,1709024311.8049452,-38.57421875,-34.1796875,-46.38671875,-46.38671875,-1.0,1.0,0.0,0.0,8.m4v,1.0
2024-02-27 09:58:31.808859,1709024311.808859,-20.99609375,-18.06640625,-14.16015625,-7.8125,-1.0,1.0,0.0,0.0,8.m4v,1.0
2024-02-27 09:58:31.812764,1709024311.8127642,-11.23046875,-13.18359375,-4.8828125,-12.20703125,-1.0,1.0,0.0,0.0,8.m4v,1.0
2024-02-27 09:58:31.816669,1709024311.8166697,-12.20703125,-17.08984375,-16.11328125,-23.92578125,-1.0,1.0,0.0,0.0,8.m4v,1.0
2024-02-27 09:58:31.820575,1709024311.8205743,-38.57421875,-34.1796875,-42.48046875,-44.921875,-1.0,1.0,0.0,0.0,8.m4v,1.0
2024-02-27 09:58:31.824480,1709024311.8244798,-41.9921875,-58.59375,-52.24609375,-59.08203125,-1.0,1.0,0.0,0.0,8.m4v,1.0
2024-02-27 09:58:31.828385,1709024311.8283849,-25.390625,-43.9453125,-28.3203125,-34.66796875,-1.0,1.0,0.0,0.0,8.m4v,1.0
2024-02-27 09:58:31.832290,1709024311.8322902,-32.71484375,-33.203125,-24.4140625,-33.203125,-1.0,1.0,0.0,0.0,8.m4v,1.0
2024-02-27 09:58:31.836195,1709024311.8361957,-27.34375,-34.1796875,-24.4140625,-36.62109375,-1.0,1.0,0.0,0.0,8.m4v,1.0
2024-02-27 09:58:31.840101,1709024311.8401003,-13.18359375,-29.296875,-40.0390625,-17.578125,-1.0,1.0,0.0,0.0,8.m4v,1.0
2024-02-27 09:58:31.844006,1709024311.8440058,0.9765625,-16.11328125,-59.08203125,2.44140625,-1.0,1.0,0.0,0.0,8.m4v,1.0
2024-02-27 09:58:31.847911,1709024311.847911,3.41796875,1.46484375,-26.3671875,3.90625,-1.0,1.0,0.0,0.0,8.m4v,1.0
2024-02-27 09:58:31.851816,1709024311.8518162,-18.06640625,-13.671875,-1.953125,-30.76171875,-1.0,1.0,0.0,0.0,8.m4v,1.0
2024-02-27 09:58:31.855729,1709024311.855729,-43.9453125,-52.734375,-13.18359375,-48.828125,-1.0,1.0,0.0,0.0,8.m4v,1.0
2024-02-27 09:58:31.859634,1709024311.8596344,-29.296875,-58.10546875,-6.34765625,-18.5546875,-1.0,1.0,0.0,0.0,8.m4v,1.0
2024-02-27 09:58:31.863539,1709024311.8635397,-39.55078125,-50.78125,-27.83203125,-50.78125,-1.0,1.0,0.0,0.0,8.m4v,1.0
2024-02-27 09:58:31.867445,1709024311.8674448,-67.87109375,-44.921875,-47.8515625,-83.984375,-1.0,1.0,0.0,0.0,8.m4v,1.0
2024-02-27 09:58:31.871350,1709024311.87135,-59.5703125,-36.62109375,-22.4609375,-58.59375,-1.0,1.0,0.0,0.0,8.m4v,1.0
2024-02-27 09:58:31.875255,1709024311.875255,-46.875,-38.57421875,-33.203125,-48.33984375,-1.0,1.0,0.0,0.0,8.m4v,1.0
2024-02-27 09:58:31.879160,1709024311.8791604,-37.109375,-37.59765625,-59.08203125,-52.24609375,-1.0,1.0,0.0,0.0,8.m4v,1.0
2024-02-27 09:58:31.883065,1709024311.8830657,-9.765625,-14.16015625,-33.69140625,-29.78515625,-1.0,1.0,0.0,0.0,8.m4v,1.0
2024-02-27 09:58:31.886971,1709024311.8869708,7.8125,0.48828125,-22.4609375,-3.41796875,-1.0,1.0,0.0,0.0,8.m4v,1.0
2024-02-27 09:58:31.890876,1709024311.8908758,-20.01953125,-18.06640625,-38.0859375,-10.7421875,-1.0,1.0,0.0,0.0,8.m4v,1.0
2024-02-27 09:58:31.894781,1709024311.894781,-10.7421875,-14.6484375,-38.57421875,-10.7421875,-1.0,1.0,0.0,0.0,8.m4v,1.0
2024-02-27 09:58:31.898686,1709024311.8986864,-9.27734375,-22.94921875,-42.48046875,-27.83203125,-1.0,1.0,0.0,0.0,8.m4v,1.0
2024-02-27 09:58:31.902599,1709024311.9025986,-47.8515625,-62.01171875,-32.2265625,-32.2265625,-1.0,1.0,0.0,0.0,8.m4v,1.0
2024-02-27 09:58:31.906504,1709024311.906504,-38.57421875,-61.03515625,-2.44140625,6.8359375,-1.0,1.0,0.0,0.0,8.m4v,1.0
2024-02-27 09:58:31.910409,1709024311.9104092,-28.80859375,-46.38671875,5.37109375,-21.484375,-1.0,1.0,0.0,0.0,8.m4v,1.0
2024-02-27 09:58:31.914314,1709024311.9143145,-55.17578125,-45.8984375,-36.1328125,-76.171875,-1.0,1.0,0.0,0.0,8.m4v,1.0
2024-02-27 09:58:31.918220,1709024311.9182196,-60.546875,-38.0859375,-83.0078125,-74.70703125,-1.0,1.0,0.0,0.0,8.m4v,1.0
2024-02-27 09:58:31.922125,1709024311.9221246,-37.109375,-13.18359375,-69.82421875,-48.828125,-1.0,1.0,0.0,0.0,8.m4v,1.0
2024-02-27 09:58:31.926030,1709024311.92603,-10.25390625,20.99609375,-17.08984375,-22.4609375,-1.0,1.0,0.0,0.0,8.m4v,1.0
2024-02-27 09:58:31.929935,1709024311.929935,-18.06640625,6.8359375,-8.30078125,-30.2734375,-1.0,1.0,0.0,0.0,8.m4v,1.0
2024-02-27 09:58:31.933840,1709024311.9338405,-36.62109375,-24.90234375,-37.109375,-47.36328125,-1.0,1.0,0.0,0.0,8.m4v,1.0
2024-02-27 09:58:31.937746,1709024311.9377456,-34.66796875,-47.8515625,-64.453125,-47.36328125,-1.0,1.0,0.0,0.0,8.m4v,1.0
2024-02-27 09:58:31.941651,1709024311.9416506,-46.38671875,-68.84765625,-62.98828125,-50.29296875,-1.0,1.0,0.0,0.0,8.m4v,1.0
2024-02-27 09:58:31.945556,1709024311.945556,-55.6640625,-80.078125,-41.015625,-68.359375,-1.0,1.0,0.0,0.0,8.m4v,1.0
2024-02-27 09:58:31.949468,1709024311.9494677,-53.7109375,-62.5,-28.80859375,-54.6875,-1.0,1.0,0.0,0.0,8.m4v,1.0
2024-02-27 09:58:31.953373,1709024311.953373,-17.08984375,-32.71484375,-13.18359375,-16.6015625,-1.0,1.0,0.0,0.0,8.m4v,1.0
2024-02-27 09:58:31.957278,1709024311.957278,0.9765625,-24.90234375,-8.30078125,-13.671875,-1.0,1.0,0.0,0.0,8.m4v,1.0
2024-02-27 09:58:31.961183,1709024311.9611833,-48.33984375,-28.80859375,-32.2265625,-39.55078125,-1.0,1.0,0.0,0.0,8.m4v,1.0
2024-02-27 09:58:31.965089,1709024311.9650886,-59.08203125,-21.97265625,-38.57421875,-64.453125,-1.0,1.0,0.0,0.0,8.m4v,1.0
2024-02-27 09:58:31.968994,1709024311.9689937,-38.57421875,0.0,-26.3671875,-65.91796875,-1.0,1.0,0.0,0.0,8.m4v,1.0
2024-02-27 09:58:31.972899,1709024311.972899,-18.06640625,3.90625,-15.13671875,-38.57421875,-1.0,1.0,0.0,0.0,8.m4v,1.0
2024-02-27 09:58:31.976804,1709024311.976804,-12.6953125,-16.11328125,-23.4375,-24.90234375,-1.0,1.0,0.0,0.0,8.m4v,1.0
2024-02-27 09:58:31.980709,1709024311.9807093,-51.7578125,-52.24609375,-52.734375,-57.6171875,-1.0,1.0,0.0,0.0,8.m4v,1.0
2024-02-27 09:58:31.984614,1709024311.9846144,-72.265625,-73.2421875,-54.6875,-67.87109375,-1.0,1.0,0.0,0.0,8.m4v,1.0
2024-02-27 09:58:31.988520,1709024311.9885197,-62.98828125,-60.546875,-41.015625,-37.59765625,-1.0,1.0,0.0,0.0,8.m4v,1.0
2024-02-27 09:58:31.992425,1709024311.992425,-50.29296875,-34.66796875,-34.66796875,-30.2734375,-1.0,1.0,0.0,0.0,8.m4v,1.0
2024-02-27 09:58:31.996341,1709024311.9963412,-34.66796875,-34.1796875,-39.55078125,-37.59765625,-1.0,1.0,0.0,0.0,8.m4v,1.0
2024-02-27 09:58:32.000246,1709024312.0002463,-18.06640625,-29.78515625,-38.0859375,-32.71484375,-1.0,1.0,0.0,0.0,8.m4v,1.0
2024-02-27 09:58:32.004152,1709024312.0041516,-8.30078125,-4.39453125,-23.4375,-20.5078125,-1.0,1.0,0.0,0.0,8.m4v,1.0
2024-02-27 09:58:32.008057,1709024312.0080566,8.30078125,8.30078125,5.37109375,11.71875,-1.0,1.0,0.0,0.0,8.m4v,1.0
2024-02-27 09:58:32.011962,1709024312.011962,-3.41796875,-14.16015625,-11.23046875,1.46484375,-1.0,1.0,0.0,0.0,8.m4v,1.0
2024-02-27 09:58:32.015867,1709024312.0158672,-36.1328125,-34.66796875,-19.04296875,-39.0625,-1.0,1.0,0.0,0.0,8.m4v,1.0
2024-02-27 09:58:32.019772,1709024312.0197723,-50.78125,-40.0390625,-36.1328125,-64.94140625,-1.0,1.0,0.0,0.0,8.m4v,1.0
2024-02-27 09:58:32.023678,1709024312.0236776,-56.640625,-44.43359375,-64.453125,-63.4765625,-1.0,1.0,0.0,0.0,8.m4v,1.0
2024-02-27 09:58:32.027583,1709024312.0275826,-48.33984375,-40.0390625,-47.36328125,-38.0859375,-1.0,1.0,0.0,0.0,8.m4v,1.0
2024-02-27 09:58:32.031488,1709024312.031488,-40.0390625,-29.78515625,-47.36328125,-41.9921875,-1.0,1.0,0.0,0.0,8.m4v,1.0
2024-02-27 09:58:32.035393,1709024312.035393,-32.71484375,-20.99609375,-41.015625,-37.109375,-1.0,1.0,0.0,0.0,8.m4v,1.0
2024-02-27 09:58:32.039298,1709024312.0392983,-19.04296875,-24.4140625,-28.3203125,-14.6484375,-1.0,1.0,0.0,0.0,8.m4v,1.0
2024-02-27 09:58:32.043209,1709024312.043209,-6.8359375,-42.96875,-30.76171875,-12.6953125,-1.0,1.0,0.0,0.0,8.m4v,1.0
2024-02-27 09:58:32.047114,1709024312.047114,-6.34765625,-53.22265625,-24.90234375,5.37109375,-1.0,1.0,0.0,0.0,8.m4v,1.0
2024-02-27 09:58:32.051019,1709024312.0510194,-0.48828125,-15.13671875,-14.6484375,12.6953125,-1.0,1.0,0.0,0.0,8.m4v,1.0
2024-02-27 09:58:32.054925,1709024312.0549247,-3.90625,11.71875,5.859375,-0.48828125,-1.0,1.0,0.0,0.0,8.m4v,1.0
2024-02-27 09:58:32.058830,1709024312.0588298,-20.5078125,-17.578125,-1.46484375,-27.83203125,-1.0,1.0,0.0,0.0,8.m4v,1.0
2024-02-27 09:58:32.062735,1709024312.062735,-42.96875,-43.9453125,-30.2734375,-54.6875,-1.0,1.0,0.0,0.0,8.m4v,1.0
2024-02-27 09:58:32.066640,1709024312.06664,-66.40625,-49.8046875,-48.828125,-57.6171875,-1.0,1.0,0.0,0.0,8.m4v,1.0
2024-02-27 09:58:32.070545,1709024312.0705454,-73.73046875,-48.828125,-63.4765625,-66.89453125,-1.0,1.0,0.0,0.0,8.m4v,1.0
2024-02-27 09:58:32.074450,1709024312.0744505,-62.98828125,-40.52734375,-51.26953125,-61.5234375,-1.0,1.0,0.0,0.0,8.m4v,1.0
2024-02-27 09:58:32.078356,1709024312.0783558,-43.9453125,-33.69140625,-43.9453125,-50.29296875,-1.0,1.0,0.0,0.0,8.m4v,1.0
2024-02-27 09:58:32.082261,1709024312.082261,-26.3671875,-34.1796875,-55.6640625,-43.9453125,-1.0,1.0,0.0,0.0,8.m4v,1.0
2024-02-27 09:58:32.086166,1709024312.086166,-24.4140625,-27.34375,-46.875,-29.78515625,-1.0,1.0,0.0,0.0,8.m4v,1.0
2024-02-27 09:58:32.090076,1709024312.0900755,-9.27734375,-8.30078125,-15.625,2.9296875,-1.0,1.0,0.0,0.0,8.m4v,1.0
2024-02-27 09:58:32.093981,1709024312.093981,24.90234375,10.25390625,16.6015625,39.0625,-1.0,1.0,0.0,0.0,8.m4v,1.0
2024-02-27 09:58:32.097886,1709024312.0978863,0.9765625,-8.30078125,10.7421875,15.13671875,-1.0,1.0,0.0,0.0,8.m4v,1.0
2024-02-27 09:58:32.101791,1709024312.1017914,-47.8515625,-47.36328125,-19.04296875,-40.0390625,-1.0,1.0,0.0,0.0,8.m4v,1.0
2024-02-27 09:58:32.105697,1709024312.105697,-50.78125,-33.203125,-27.83203125,-54.19921875,-1.0,1.0,0.0,0.0,8.m4v,1.0
2024-02-27 09:58:32.109602,1709024312.1096015,-49.8046875,-28.80859375,-47.36328125,-43.9453125,-1.0,1.0,0.0,0.0,8.m4v,1.0
2024-02-27 09:58:32.113507,1709024312.113507,-49.8046875,-38.0859375,-48.828125,-47.36328125,-1.0,1.0,0.0,0.0,8.m4v,1.0
2024-02-27 09:58:32.117412,1709024312.1174123,-40.52734375,-29.296875,-36.1328125,-49.8046875,-1.0,1.0,0.0,0.0,8.m4v,1.0
2024-02-27 09:58:32.121317,1709024312.1213174,-26.85546875,-30.76171875,-39.0625,-39.55078125,-1.0,1.0,0.0,0.0,8.m4v,1.0
2024-02-27 09:58:32.125223,1709024312.1252227,-37.59765625,-37.59765625,-42.48046875,-44.921875,-1.0,1.0,0.0,0.0,8.m4v,1.0
2024-02-27 09:58:32.129128,1709024312.1291275,-36.1328125,-26.85546875,-29.296875,-35.64453125,-1.0,1.0,0.0,0.0,8.m4v,1.0
2024-02-27 09:58:32.133033,1709024312.133033,-10.7421875,-15.625,-18.06640625,-1.46484375,-1.0,1.0,0.0,0.0,8.m4v,1.0
2024-02-27 09:58:32.136947,1709024312.1369474,-14.16015625,-14.6484375,-15.13671875,-0.9765625,-1.0,1.0,0.0,0.0,8.m4v,1.0
2024-02-27 09:58:32.140853,1709024312.1408527,-21.97265625,-26.3671875,-4.8828125,-28.3203125,-1.0,1.0,0.0,0.0,8.m4v,1.0
2024-02-27 09:58:32.144758,1709024312.1447575,-12.20703125,-12.20703125,-5.859375,-26.85546875,-1.0,1.0,0.0,0.0,8.m4v,1.0
2024-02-27 09:58:32.148663,1709024312.148663,-39.55078125,-14.6484375,-36.1328125,-34.66796875,-1.0,1.0,0.0,0.0,8.m4v,1.0
2024-02-27 09:58:32.152568,1709024312.152568,-74.70703125,-66.40625,-63.4765625,-44.43359375,-1.0,1.0,0.0,0.0,8.m4v,1.0
2024-02-27 09:58:32.156473,1709024312.1564734,-27.83203125,-56.15234375,-43.9453125,-9.27734375,-1.0,1.0,0.0,0.0,8.m4v,1.0
2024-02-27 09:58:32.605646,1709024312.6056457,-93.75,-73.73046875,-30.2734375,-76.171875,-1.0,1.0,0.0,0.0,8.m4v,1.0
2024-02-27 09:58:32.609551,1709024312.609551,-74.21875,-39.0625,-12.20703125,-70.3125,-1.0,1.0,0.0,0.0,8.m4v,1.0
2024-02-27 09:58:32.613456,1709024312.613456,-54.6875,-31.25,-40.52734375,-51.26953125,-1.0,1.0,0.0,0.0,8.m4v,1.0
2024-02-27 09:58:32.617361,1709024312.6173613,-34.1796875,-37.59765625,-57.12890625,-40.0390625,-1.0,1.0,0.0,0.0,8.m4v,1.0
2024-02-27 09:58:32.621267,1709024312.6212666,-1.953125,-12.6953125,-17.08984375,-6.34765625,-1.0,1.0,0.0,0.0,8.m4v,1.0
2024-02-27 09:58:32.625172,1709024312.6251717,-11.23046875,-16.6015625,-12.20703125,-13.18359375,-1.0,1.0,0.0,0.0,8.m4v,1.0
2024-02-27 09:58:32.629077,1709024312.629077,-30.2734375,-42.96875,-37.109375,-24.90234375,-1.0,1.0,0.0,0.0,8.m4v,1.0
2024-02-27 09:58:32.632982,1709024312.632982,-21.97265625,-60.546875,-58.59375,-13.18359375,-1.0,1.0,0.0,0.0,8.m4v,1.0
2024-02-27 09:58:32.636887,1709024312.6368873,-16.6015625,-58.10546875,-62.01171875,-25.87890625,-1.0,1.0,0.0,0.0,8.m4v,1.0
2024-02-27 09:58:32.640793,1709024312.6407926,-25.390625,-30.76171875,-38.0859375,-20.01953125,-1.0,1.0,0.0,0.0,8.m4v,1.0
2024-02-27 09:58:32.644698,1709024312.6446977,-49.31640625,-34.1796875,-29.78515625,-9.765625,-1.0,1.0,0.0,0.0,8.m4v,1.0
2024-02-27 09:58:32.648603,1709024312.648603,-67.3828125,-55.17578125,-47.8515625,-46.875,-1.0,1.0,0.0,0.0,8.m4v,1.0
2024-02-27 09:58:32.652515,1709024312.6525154,-51.26953125,-39.0625,-36.62109375,-66.89453125,-1.0,1.0,0.0,0.0,8.m4v,1.0
2024-02-27 09:58:32.656420,1709024312.6564205,-40.0390625,-21.484375,-9.27734375,-45.41015625,-1.0,1.0,0.0,0.0,8.m4v,1.0
2024-02-27 09:58:32.660326,1709024312.6603258,-33.203125,-21.484375,-5.37109375,-29.78515625,-1.0,1.0,0.0,0.0,8.m4v,1.0
2024-02-27 09:58:32.664231,1709024312.664231,-34.1796875,-31.25,-7.8125,-22.94921875,-1.0,1.0,0.0,0.0,8.m4v,1.0
2024-02-27 09:58:32.668136,1709024312.668136,-43.9453125,-37.109375,-39.55078125,-22.94921875,-1.0,1.0,0.0,0.0,8.m4v,1.0
2024-02-27 09:58:32.672041,1709024312.6720414,-37.59765625,-37.59765625,-64.453125,-28.80859375,-1.0,1.0,0.0,0.0,8.m4v,1.0
2024-02-27 09:58:32.675946,1709024312.6759465,-41.015625,-37.59765625,-47.8515625,-33.69140625,-1.0,1.0,0.0,0.0,8.m4v,1.0
2024-02-27 09:58:32.679852,1709024312.6798518,-39.55078125,-32.2265625,-28.80859375,-31.73828125,-1.0,1.0,0.0,0.0,8.m4v,1.0
2024-02-27 09:58:32.683757,1709024312.6837568,-6.8359375,-18.06640625,-21.484375,-4.8828125,-1.0,1.0,0.0,0.0,8.m4v,1.0
2024-02-27 09:58:32.687662,1709024312.687662,-18.5546875,-28.80859375,-38.57421875,-15.13671875,-1.0,1.0,0.0,0.0,8.m4v,1.0
2024-02-27 09:58:32.691567,1709024312.6915674,-45.8984375,-47.36328125,-28.80859375,-51.26953125,-1.0,1.0,0.0,0.0,8.m4v,1.0
2024-02-27 09:58:32.695472,1709024312.6954725,-42.96875,-40.0390625,-20.5078125,-41.50390625,-1.0,1.0,0.0,0.0,8.m4v,1.0
2024-02-27 09:58:32.699384,1709024312.6993842,-21.484375,-24.90234375,-21.97265625,-29.296875,-1.0,1.0,0.0,0.0,8.m4v,1.0
2024-02-27 09:58:32.703290,1709024312.7032895,-8.7890625,-20.99609375,-9.27734375,-22.94921875,-1.0,1.0,0.0,0.0,8.m4v,1.0
2024-02-27 09:58:32.707195,1709024312.7071948,-49.31640625,-32.2265625,-44.43359375,-42.96875,-1.0,1.0,0.0,0.0,8.m4v,1.0
2024-02-27 09:58:32.711100,1709024312.7111,-44.43359375,-23.4375,-63.4765625,-29.78515625,-1.0,1.0,0.0,0.0,8.m4v,1.0
2024-02-27 09:58:32.715005,1709024312.7150052,-9.765625,-13.671875,-41.50390625,-8.7890625,-1.0,1.0,0.0,0.0,8.m4v,1.0
2024-02-27 09:58:32.718910,1709024312.7189102,-36.62109375,-29.78515625,-41.50390625,-43.45703125,-1.0,1.0,0.0,0.0,8.m4v,1.0
2024-02-27 09:58:32.722816,1709024312.7228155,-62.98828125,-48.33984375,-36.1328125,-66.40625,-1.0,1.0,0.0,0.0,8.m4v,1.0
2024-02-27 09:58:32.726721,1709024312.7267208,-54.19921875,-48.828125,-28.80859375,-57.12890625,-1.0,1.0,0.0,0.0,8.m4v,1.0
2024-02-27 09:58:32.730626,1709024312.730626,-31.25,-25.390625,-21.97265625,-29.296875,-1.0,1.0,0.0,0.0,8.m4v,1.0
2024-02-27 09:58:32.734531,1709024312.7345312,-9.765625,-12.6953125,-5.37109375,-3.90625,-1.0,1.0,0.0,0.0,8.m4v,1.0
2024-02-27 09:58:32.738436,1709024312.7384362,-14.6484375,-41.9921875,-12.20703125,-20.01953125,-1.0,1.0,0.0,0.0,8.m4v,1.0
2024-02-27 09:58:32.742342,1709024312.7423415,-20.99609375,-44.43359375,-35.64453125,-36.1328125,-1.0,1.0,0.0,0.0,8.m4v,1.0
2024-02-27 09:58:32.746253,1709024312.7462528,-39.0625,-32.71484375,-38.57421875,-45.41015625,-1.0,1.0,0.0,0.0,8.m4v,1.0
2024-02-27 09:58:32.750158,1709024312.7501578,-41.50390625,-28.80859375,-33.203125,-47.36328125,-1.0,1.0,0.0,0.0,8.m4v,1.0
2024-02-27 09:58:32.754063,1709024312.7540631,-50.78125,-24.4140625,-53.7109375,-45.8984375,-1.0,1.0,0.0,0.0,8.m4v,1.0
2024-02-27 09:58:32.757968,1709024312.7579684,-59.08203125,-17.08984375,-39.55078125,-50.78125,-1.0,1.0,0.0,0.0,8.m4v,1.0
2024-02-27 09:58:32.761873,1709024312.7618735,-60.546875,-19.53125,-41.50390625,-66.89453125,-1.0,1.0,0.0,0.0,8.m4v,1.0
2024-02-27 09:58:32.765779,1709024312.7657788,-80.078125,-24.90234375,-50.29296875,-83.49609375,-1.0,1.0,0.0,0.0,8.m4v,1.0
2024-02-27 09:58:32.769684,1709024312.7696838,-78.125,-24.4140625,-20.5078125,-69.82421875,-1.0,1.0,0.0,0.0,8.m4v,1.0
2024-02-27 09:58:32.773589,1709024312.7735891,-93.26171875,-21.484375,-32.71484375,-76.66015625,-1.0,1.0,0.0,0.0,8.m4v,1.0
2024-02-27 09:58:32.777494,1709024312.7774942,-120.1171875,-15.625,-58.10546875,-126.953125,-1.0,1.0,0.0,0.0,8.m4v,1.0
2024-02-27 09:58:32.781399,1709024312.7813995,-119.62890625,-14.6484375,-52.24609375,-131.34765625,-1.0,1.0,0.0,0.0,8.m4v,1.0
2024-02-27 09:58:32.785305,1709024312.7853048,-95.703125,-6.8359375,-28.80859375,-98.14453125,-1.0,1.0,0.0,0.0,8.m4v,1.0
2024-02-27 09:58:32.789210,1709024312.7892098,-84.9609375,6.8359375,4.8828125,-91.30859375,-1.0,1.0,0.0,0.0,8.m4v,1.0
2024-02-27 09:58:32.793122,1709024312.7931216,-133.30078125,-15.13671875,-3.90625,-140.13671875,-1.0,1.0,0.0,0.0,8.m4v,1.0
2024-02-27 09:58:32.797027,1709024312.7970266,-177.24609375,-46.38671875,-34.66796875,-193.359375,-1.0,1.0,0.0,0.0,8.m4v,1.0
2024-02-27 09:58:32.800932,1709024312.800932,-189.94140625,-32.71484375,-40.52734375,-201.171875,-1.0,1.0,0.0,0.0,8.m4v,1.0
2024-02-27 09:58:32.804837,1709024312.804837,-196.77734375,-13.671875,-27.83203125,-203.61328125,-1.0,1.0,0.0,0.0,8.m4v,1.0
2024-02-27 09:58:32.808742,1709024312.8087423,-213.8671875,-6.8359375,-19.53125,-207.51953125,-1.0,1.0,0.0,0.0,8.m4v,1.0
2024-02-27 09:58:32.812647,1709024312.812647,-203.61328125,3.90625,-21.97265625,-191.40625,-1.0,1.0,0.0,0.0,8.m4v,1.0
2024-02-27 09:58:32.816553,1709024312.8165526,-172.8515625,0.48828125,-15.625,-179.6875,-1.0,1.0,0.0,0.0,8.m4v,1.0
2024-02-27 09:58:32.820458,1709024312.820458,-176.7578125,-17.08984375,-14.16015625,-193.359375,-1.0,1.0,0.0,0.0,8.m4v,1.0
2024-02-27 09:58:32.824363,1709024312.824363,-161.1328125,-6.8359375,-11.23046875,-164.0625,-1.0,1.0,0.0,0.0,8.m4v,1.0
2024-02-27 09:58:32.828268,1709024312.8282683,-138.18359375,13.18359375,-16.6015625,-126.953125,-1.0,1.0,0.0,0.0,8.m4v,1.0
2024-02-27 09:58:32.832173,1709024312.832173,-134.765625,5.37109375,-36.62109375,-144.53125,-1.0,1.0,0.0,0.0,8.m4v,1.0
2024-02-27 09:58:32.836079,1709024312.8360786,-128.41796875,-19.53125,-22.4609375,-162.109375,-1.0,1.0,0.0,0.0,8.m4v,1.0
2024-02-27 09:58:32.839988,1709024312.8399885,-150.390625,-32.71484375,-16.11328125,-173.828125,-1.0,1.0,0.0,0.0,8.m4v,1.0
2024-02-27 09:58:32.843894,1709024312.8438938,-144.53125,0.0,-9.27734375,-153.3203125,-1.0,1.0,0.0,0.0,8.m4v,1.0
2024-02-27 09:58:32.847799,1709024312.847799,-128.90625,13.18359375,4.8828125,-130.37109375,-1.0,1.0,0.0,0.0,8.m4v,1.0
2024-02-27 09:58:32.851704,1709024312.851704,-131.8359375,-5.37109375,-3.90625,-139.6484375,-1.0,1.0,0.0,0.0,8.m4v,1.0
2024-02-27 09:58:32.855609,1709024312.8556094,-143.5546875,-21.484375,-31.25,-151.85546875,-1.0,1.0,0.0,0.0,8.m4v,1.0
2024-02-27 09:58:32.859514,1709024312.8595145,-135.25390625,-22.94921875,-45.41015625,-152.34375,-1.0,1.0,0.0,0.0,8.m4v,1.0
2024-02-27 09:58:32.863420,1709024312.8634198,-104.4921875,-7.8125,-32.71484375,-128.90625,-1.0,1.0,0.0,0.0,8.m4v,1.0
2024-02-27 09:58:32.867325,1709024312.8673248,-97.65625,-8.7890625,-53.22265625,-95.21484375,-1.0,1.0,0.0,0.0,8.m4v,1.0
2024-02-27 09:58:32.871230,1709024312.87123,-100.5859375,-17.08984375,-68.84765625,-93.75,-1.0,1.0,0.0,0.0,8.m4v,1.0
2024-02-27 09:58:32.875135,1709024312.8751354,-109.86328125,-34.1796875,-37.109375,-112.79296875,-1.0,1.0,0.0,0.0,8.m4v,1.0
2024-02-27 09:58:32.879040,1709024312.8790405,-101.07421875,-41.50390625,-16.11328125,-103.515625,-1.0,1.0,0.0,0.0,8.m4v,1.0
2024-02-27 09:58:32.882946,1709024312.8829458,-99.609375,-41.9921875,-5.859375,-99.609375,-1.0,1.0,0.0,0.0,8.m4v,1.0
2024-02-27 09:58:32.886860,1709024312.8868604,-116.69921875,-36.1328125,-22.94921875,-114.2578125,-1.0,1.0,0.0,0.0,8.m4v,1.0
2024-02-27 09:58:32.890766,1709024312.8907657,-118.1640625,-24.90234375,-47.8515625,-107.91015625,-1.0,1.0,0.0,0.0,8.m4v,1.0
2024-02-27 09:58:32.894671,1709024312.8946707,-106.4453125,-31.73828125,-41.9921875,-100.5859375,-1.0,1.0,0.0,0.0,8.m4v,1.0
2024-02-27 09:58:32.898576,1709024312.898576,-95.21484375,-37.109375,-41.015625,-104.98046875,-1.0,1.0,0.0,0.0,8.m4v,1.0
2024-02-27 09:58:32.902481,1709024312.902481,-113.28125,-57.6171875,-50.78125,-118.1640625,-1.0,1.0,0.0,0.0,8.m4v,1.0
2024-02-27 09:58:32.906386,1709024312.9063864,-102.05078125,-63.96484375,-42.96875,-102.05078125,-1.0,1.0,0.0,0.0,8.m4v,1.0
2024-02-27 09:58:32.910292,1709024312.9102917,-62.5,-44.43359375,-36.62109375,-55.6640625,-1.0,1.0,0.0,0.0,8.m4v,1.0
2024-02-27 09:58:32.914197,1709024312.9141967,-28.3203125,-14.6484375,-19.04296875,-15.13671875,-1.0,1.0,0.0,0.0,8.m4v,1.0
2024-02-27 09:58:32.918102,1709024312.918102,-0.48828125,-5.37109375,-23.4375,-4.39453125,-1.0,1.0,0.0,0.0,8.m4v,1.0
2024-02-27 09:58:32.922007,1709024312.922007,-28.3203125,-53.22265625,-60.05859375,-9.27734375,-1.0,1.0,0.0,0.0,8.m4v,1.0
2024-02-27 09:58:32.925912,1709024312.9259124,-61.5234375,-77.63671875,-44.43359375,-12.20703125,-1.0,1.0,0.0,0.0,8.m4v,1.0
2024-02-27 09:58:32.929817,1709024312.9298174,-40.52734375,-62.98828125,-37.59765625,-20.99609375,-1.0,1.0,0.0,0.0,8.m4v,1.0
2024-02-27 09:58:32.933731,1709024312.9337313,-8.30078125,-52.734375,-52.734375,-9.27734375,-1.0,1.0,0.0,0.0,8.m4v,1.0
2024-02-27 09:58:32.937637,1709024312.9376366,-19.04296875,-56.640625,-51.26953125,-20.01953125,-1.0,1.0,0.0,0.0,8.m4v,1.0
2024-02-27 09:58:32.941542,1709024312.9415417,-20.5078125,-58.59375,-43.9453125,-24.90234375,-1.0,1.0,0.0,0.0,8.m4v,1.0
2024-02-27 09:58:32.945447,1709024312.945447,0.48828125,-48.33984375,-42.48046875,-2.9296875,-1.0,1.0,0.0,0.0,8.m4v,1.0
2024-02-27 09:58:32.949352,1709024312.949352,18.5546875,-25.390625,-24.90234375,33.203125,-1.0,1.0,0.0,0.0,8.m4v,1.0
2024-02-27 09:58:32.953257,1709024312.953257,36.62109375,-20.99609375,-22.4609375,48.828125,-1.0,1.0,0.0,0.0,8.m4v,1.0
2024-02-27 09:58:32.957163,1709024312.9571626,38.0859375,-34.1796875,-32.2265625,39.0625,-1.0,1.0,0.0,0.0,8.m4v,1.0
2024-02-27 09:58:32.961068,1709024312.9610677,24.90234375,-49.8046875,-48.828125,31.73828125,-1.0,1.0,0.0,0.0,8.m4v,1.0
2024-02-27 09:58:32.964973,1709024312.964973,23.92578125,-57.12890625,-71.77734375,30.2734375,-1.0,1.0,0.0,0.0,8.m4v,1.0
2024-02-27 09:58:32.968878,1709024312.968878,20.5078125,-59.08203125,-38.0859375,28.3203125,-1.0,1.0,0.0,0.0,8.m4v,1.0
2024-02-27 09:58:32.972783,1709024312.972783,-2.44140625,-62.01171875,-18.06640625,7.32421875,-1.0,1.0,0.0,0.0,8.m4v,1.0
2024-02-27 09:58:32.976688,1709024312.9766884,-2.44140625,-66.89453125,-45.8984375,17.578125,-1.0,1.0,0.0,0.0,8.m4v,1.0
2024-02-27 09:58:32.980607,1709024312.9806066,20.99609375,-62.5,-57.6171875,27.83203125,-1.0,1.0,0.0,0.0,8.m4v,1.0
2024-02-27 09:58:32.984512,1709024312.984512,37.59765625,-34.1796875,-35.64453125,28.80859375,-1.0,1.0,0.0,0.0,8.m4v,1.0
2024-02-27 09:58:32.988417,1709024312.988417,41.015625,-23.92578125,-16.11328125,40.0390625,-1.0,1.0,0.0,0.0,8.m4v,1.0
2024-02-27 09:58:32.992322,1709024312.9923222,34.1796875,-43.9453125,-36.1328125,27.83203125,-1.0,1.0,0.0,0.0,8.m4v,1.0
2024-02-27 09:58:32.996228,1709024312.9962275,30.76171875,-36.1328125,-39.55078125,25.390625,-1.0,1.0,0.0,0.0,8.m4v,1.0
2024-02-27 09:58:33.000133,1709024313.0001326,37.109375,-24.4140625,-44.43359375,34.1796875,-1.0,1.0,0.0,0.0,8.m4v,1.0
2024-02-27 09:58:33.004038,1709024313.004038,33.69140625,-41.015625,-49.31640625,34.1796875,-1.0,1.0,0.0,0.0,8.m4v,1.0
2024-02-27 09:58:33.007943,1709024313.007943,24.90234375,-52.734375,-37.59765625,36.62109375,-1.0,1.0,0.0,0.0,8.m4v,1.0
2024-02-27 09:58:33.011848,1709024313.0118482,44.43359375,-45.41015625,-18.06640625,62.01171875,-1.0,1.0,0.0,0.0,8.m4v,1.0
2024-02-27 09:58:33.015753,1709024313.0157533,62.01171875,-39.0625,-25.390625,74.70703125,-1.0,1.0,0.0,0.0,8.m4v,1.0
2024-02-27 09:58:33.019659,1709024313.0196586,48.828125,-53.7109375,-79.58984375,46.875,-1.0,1.0,0.0,0.0,8.m4v,1.0
2024-02-27 09:58:33.023564,1709024313.023564,55.6640625,-49.31640625,-57.6171875,61.5234375,-1.0,1.0,0.0,0.0,8.m4v,1.0
2024-02-27 09:58:33.027476,1709024313.027476,62.98828125,-39.55078125,-20.01953125,78.125,-1.0,1.0,0.0,0.0,8.m4v,1.0
2024-02-27 09:58:33.031381,1709024313.0313811,33.203125,-50.29296875,-32.71484375,36.1328125,-1.0,1.0,0.0,0.0,8.m4v,1.0
2024-02-27 09:58:33.035286,1709024313.0352864,15.13671875,-28.80859375,-39.55078125,18.5546875,-1.0,1.0,0.0,0.0,8.m4v,1.0
2024-02-27 09:58:33.039192,1709024313.0391915,28.3203125,-29.296875,-32.71484375,12.20703125,-1.0,1.0,0.0,0.0,8.m4v,1.0
2024-02-27 09:58:33.043097,1709024313.0430968,48.828125,-34.1796875,-19.53125,14.16015625,-1.0,1.0,0.0,0.0,8.m4v,1.0
2024-02-27 09:58:33.047002,1709024313.047002,47.36328125,-18.06640625,-13.671875,29.78515625,-1.0,1.0,0.0,0.0,8.m4v,1.0
2024-02-27 09:58:33.050907,1709024313.0509071,24.90234375,-44.921875,-27.83203125,19.53125,-1.0,1.0,0.0,0.0,8.m4v,1.0
2024-02-27 09:58:33.054812,1709024313.0548124,15.625,-54.6875,-47.8515625,16.11328125,-1.0,1.0,0.0,0.0,8.m4v,1.0
2024-02-27 09:58:33.058718,1709024313.0587175,38.0859375,-9.765625,-35.64453125,39.0625,-1.0,1.0,0.0,0.0,8.m4v,1.0
2024-02-27 09:58:33.062623,1709024313.0626228,34.1796875,-23.92578125,-29.78515625,21.97265625,-1.0,1.0,0.0,0.0,8.m4v,1.0
2024-02-27 09:58:33.066528,1709024313.066528,-5.37109375,-72.265625,-46.875,-7.8125,-1.0,1.0,0.0,0.0,8.m4v,1.0
2024-02-27 09:58:33.070433,1709024313.0704331,-3.90625,-53.22265625,-36.1328125,8.30078125,-1.0,1.0,0.0,0.0,8.m4v,1.0
2024-02-27 09:58:33.074345,1709024313.074345,16.11328125,-35.15625,-22.94921875,16.6015625,-1.0,1.0,0.0,0.0,8.m4v,1.0
2024-02-27 09:58:33.078250,1709024313.0782502,20.01953125,-29.296875,-20.5078125,17.578125,-1.0,1.0,0.0,0.0,8.m4v,1.0
2024-02-27 09:58:33.082155,1709024313.0821557,29.296875,-5.859375,-11.23046875,53.22265625,-1.0,1.0,0.0,0.0,8.m4v,1.0
2024-02-27 09:58:33.086061,1709024313.0860603,36.1328125,-10.7421875,-6.8359375,62.01171875,-1.0,1.0,0.0,0.0,8.m4v,1.0
2024-02-27 09:58:33.089966,1709024313.0899658,32.71484375,-37.59765625,-19.04296875,34.66796875,-1.0,1.0,0.0,0.0,8.m4v,1.0
2024-02-27 09:58:33.093871,1709024313.093871,1.46484375,-67.3828125,-52.734375,-13.671875,-1.0,1.0,0.0,0.0,8.m4v,1.0
2024-02-27 09:58:33.097776,1709024313.0977762,-6.34765625,-52.734375,-44.921875,-30.2734375,-1.0,1.0,0.0,0.0,8.m4v,1.0
2024-02-27 09:58:33.101681,1709024313.1016817,2.9296875,-25.87890625,-17.08984375,2.9296875,-1.0,1.0,0.0,0.0,8.m4v,1.0
2024-02-27 09:58:33.105587,1709024313.1055863,-8.7890625,-47.8515625,-40.52734375,0.48828125,-1.0,1.0,0.0,0.0,8.m4v,1.0
2024-02-27 09:58:33.109492,1709024313.1094918,-27.34375,-63.96484375,-45.8984375,-24.90234375,-1.0,1.0,0.0,0.0,8.m4v,1.0
2024-02-27 09:58:33.113397,1709024313.1133971,-22.4609375,-44.43359375,-14.6484375,-16.6015625,-1.0,1.0,0.0,0.0,8.m4v,1.0
2024-02-27 09:58:33.117302,1709024313.1173022,5.37109375,-15.13671875,-4.39453125,3.90625,-1.0,1.0,0.0,0.0,8.m4v,1.0
2024-02-27 09:58:33.121213,1709024313.1212134,2.44140625,-20.5078125,-15.13671875,8.30078125,-1.0,1.0,0.0,0.0,8.m4v,1.0
2024-02-27 09:58:33.125119,1709024313.1251187,-12.6953125,-41.9921875,-31.25,-3.90625,-1.0,1.0,0.0,0.0,8.m4v,1.0
2024-02-27 09:58:33.129024,1709024313.1290238,-9.765625,-44.921875,-41.015625,-13.18359375,-1.0,1.0,0.0,0.0,8.m4v,1.0
2024-02-27 09:58:33.132929,1709024313.132929,-17.08984375,-48.33984375,-37.59765625,-5.37109375,-1.0,1.0,0.0,0.0,8.m4v,1.0
2024-02-27 09:58:33.136834,1709024313.136834,-19.04296875,-37.109375,-23.92578125,-5.37109375,-1.0,1.0,0.0,0.0,8.m4v,1.0
2024-02-27 09:58:33.140739,1709024313.1407394,17.578125,-21.484375,-23.92578125,-4.39453125,-1.0,1.0,0.0,0.0,8.m4v,1.0
2024-02-27 09:58:33.144644,1709024313.1446445,5.37109375,-39.0625,-43.9453125,-7.32421875,-1.0,1.0,0.0,0.0,8.m4v,1.0
2024-02-27 09:58:33.148550,1709024313.1485498,-47.36328125,-58.10546875,-66.89453125,-21.484375,-1.0,1.0,0.0,0.0,8.m4v,1.0
2024-02-27 09:58:33.152455,1709024313.152455,-21.484375,-50.78125,-54.19921875,-7.32421875,-1.0,1.0,0.0,0.0,8.m4v,1.0
2024-02-27 09:58:33.156360,1709024313.15636,42.96875,-16.6015625,7.32421875,27.83203125,-1.0,1.0,0.0,0.0,8.m4v,1.0
2024-02-27 09:58:33.160265,1709024313.1602654,30.76171875,-4.39453125,23.92578125,17.08984375,-1.0,1.0,0.0,0.0,8.m4v,1.0
2024-02-27 09:58:33.164171,1709024313.1641705,-32.71484375,-38.57421875,-19.04296875,-27.83203125,-1.0,1.0,0.0,0.0,8.m4v,1.0
2024-02-27 09:58:33.168081,1709024313.168081,-36.1328125,-41.015625,-25.87890625,-32.71484375,-1.0,1.0,0.0,0.0,8.m4v,1.0
2024-02-27 09:58:33.171986,1709024313.1719863,-29.78515625,-37.109375,-27.34375,-13.671875,-1.0,1.0,0.0,0.0,8.m4v,1.0
2024-02-27 09:58:33.175891,1709024313.1758914,-18.5546875,-33.69140625,-38.57421875,-13.671875,-1.0,1.0,0.0,0.0,8.m4v,1.0
2024-02-27 09:58:33.179797,1709024313.1797967,0.48828125,-13.18359375,-37.59765625,-6.34765625,-1.0,1.0,0.0,0.0,8.m4v,1.0
2024-02-27 09:58:33.183702,1709024313.183702,-0.9765625,-10.7421875,-19.53125,28.3203125,-1.0,1.0,0.0,0.0,8.m4v,1.0
2024-02-27 09:58:33.187607,1709024313.187607,-18.06640625,-35.64453125,-19.53125,0.48828125,-1.0,1.0,0.0,0.0,8.m4v,1.0
2024-02-27 09:58:33.636772,1709024313.6367724,-44.43359375,-33.69140625,-35.64453125,-35.64453125,-1.0,1.0,0.0,0.0,8.m4v,1.0
2024-02-27 09:58:33.640678,1709024313.6406777,-52.24609375,-31.73828125,-40.52734375,-50.29296875,-1.0,1.0,0.0,0.0,8.m4v,1.0
2024-02-27 09:58:33.644583,1709024313.6445827,-49.8046875,-31.25,-34.1796875,-42.48046875,-1.0,1.0,0.0,0.0,8.m4v,1.0
2024-02-27 09:58:33.648488,1709024313.648488,-30.2734375,-21.97265625,-16.6015625,-31.73828125,-1.0,1.0,0.0,0.0,8.m4v,1.0
2024-02-27 09:58:33.652393,1709024313.652393,-37.59765625,-41.9921875,-27.83203125,-35.64453125,-1.0,1.0,0.0,0.0,8.m4v,1.0
2024-02-27 09:58:33.656298,1709024313.6562984,-42.48046875,-52.24609375,-34.1796875,-22.94921875,-1.0,1.0,0.0,0.0,8.m4v,1.0
2024-02-27 09:58:33.660204,1709024313.6602037,-12.20703125,-25.390625,-27.83203125,-2.44140625,-1.0,1.0,0.0,0.0,8.m4v,1.0
2024-02-27 09:58:33.664109,1709024313.6641088,-5.859375,1.46484375,-17.578125,0.48828125,-1.0,1.0,0.0,0.0,8.m4v,1.0
2024-02-27 09:58:33.668014,1709024313.668014,-3.41796875,-6.34765625,-8.7890625,-2.9296875,-1.0,1.0,0.0,0.0,8.m4v,1.0
2024-02-27 09:58:33.671919,1709024313.671919,-3.90625,-35.15625,-29.78515625,-23.92578125,-1.0,1.0,0.0,0.0,8.m4v,1.0
2024-02-27 09:58:33.675824,1709024313.6758244,-37.109375,-46.38671875,-41.9921875,-61.5234375,-1.0,1.0,0.0,0.0,8.m4v,1.0
2024-02-27 09:58:33.679730,1709024313.6797297,-59.08203125,-38.57421875,-42.96875,-75.68359375,-1.0,1.0,0.0,0.0,8.m4v,1.0
2024-02-27 09:58:33.683643,1709024313.6836429,-55.6640625,-30.76171875,-32.2265625,-45.41015625,-1.0,1.0,0.0,0.0,8.m4v,1.0
2024-02-27 09:58:33.687548,1709024313.6875482,-65.4296875,-47.36328125,-45.8984375,-28.80859375,-1.0,1.0,0.0,0.0,8.m4v,1.0
2024-02-27 09:58:33.691453,1709024313.6914532,-58.10546875,-46.38671875,-62.98828125,-46.875,-1.0,1.0,0.0,0.0,8.m4v,1.0
2024-02-27 09:58:33.695359,1709024313.6953585,-40.0390625,-31.25,-42.48046875,-50.78125,-1.0,1.0,0.0,0.0,8.m4v,1.0
2024-02-27 09:58:33.699264,1709024313.6992636,-36.1328125,-30.2734375,-44.921875,-44.43359375,-1.0,1.0,0.0,0.0,8.m4v,1.0
2024-02-27 09:58:33.703169,1709024313.7031689,-13.671875,-28.80859375,-24.90234375,-25.390625,-1.0,1.0,0.0,0.0,8.m4v,1.0
2024-02-27 09:58:33.707074,1709024313.7070742,-12.6953125,-28.3203125,-3.41796875,-8.7890625,-1.0,1.0,0.0,0.0,8.m4v,1.0
2024-02-27 09:58:33.710979,1709024313.7109792,-29.78515625,-38.0859375,-25.390625,-17.578125,-1.0,1.0,0.0,0.0,8.m4v,1.0
2024-02-27 09:58:33.714885,1709024313.7148843,-35.15625,-55.17578125,-27.34375,-46.38671875,-1.0,1.0,0.0,0.0,8.m4v,1.0
2024-02-27 09:58:33.718790,1709024313.7187896,-42.48046875,-57.6171875,-29.296875,-74.70703125,-1.0,1.0,0.0,0.0,8.m4v,1.0
2024-02-27 09:58:33.722695,1709024313.7226949,-49.8046875,-38.57421875,-47.8515625,-59.5703125,-1.0,1.0,0.0,0.0,8.m4v,1.0
2024-02-27 09:58:33.726600,1709024313.7266,-22.94921875,-6.8359375,-31.25,-21.484375,-1.0,1.0,0.0,0.0,8.m4v,1.0
2024-02-27 09:58:33.730513,1709024313.730513,-25.390625,-21.484375,-26.3671875,-30.2734375,-1.0,1.0,0.0,0.0,8.m4v,1.0
2024-02-27 09:58:33.734418,1709024313.7344184,-49.31640625,-52.734375,-49.31640625,-50.29296875,-1.0,1.0,0.0,0.0,8.m4v,1.0
2024-02-27 09:58:33.738324,1709024313.7383237,-47.36328125,-52.24609375,-55.6640625,-42.48046875,-1.0,1.0,0.0,0.0,8.m4v,1.0
2024-02-27 09:58:33.742229,1709024313.742229,-40.52734375,-40.0390625,-48.828125,-38.0859375,-1.0,1.0,0.0,0.0,8.m4v,1.0
2024-02-27 09:58:33.746134,1709024313.746134,-24.90234375,-30.2734375,-35.64453125,-26.85546875,-1.0,1.0,0.0,0.0,8.m4v,1.0
2024-02-27 09:58:33.750039,1709024313.750039,-13.671875,-20.01953125,-37.59765625,-7.8125,-1.0,1.0,0.0,0.0,8.m4v,1.0
2024-02-27 09:58:33.753944,1709024313.7539444,-7.8125,-14.6484375,-34.66796875,1.953125,-1.0,1.0,0.0,0.0,8.m4v,1.0
2024-02-27 09:58:33.757850,1709024313.7578497,-23.4375,-40.0390625,-23.4375,-26.85546875,-1.0,1.0,0.0,0.0,8.m4v,1.0
2024-02-27 09:58:33.761755,1709024313.761755,-30.76171875,-62.01171875,-28.3203125,-35.64453125,-1.0,1.0,0.0,0.0,8.m4v,1.0
2024-02-27 09:58:33.765660,1709024313.76566,-31.25,-56.640625,-33.203125,-17.08984375,-1.0,1.0,0.0,0.0,8.m4v,1.0
2024-02-27 09:58:33.769565,1709024313.769565,-36.1328125,-35.15625,-25.390625,-27.34375,-1.0,1.0,0.0,0.0,8.m4v,1.0
2024-02-27 09:58:33.773470,1709024313.7734704,-41.50390625,-24.90234375,-27.83203125,-42.96875,-1.0,1.0,0.0,0.0,8.m4v,1.0
2024-02-27 09:58:33.777383,1709024313.7773826,-51.7578125,-30.76171875,-52.24609375,-50.78125,-1.0,1.0,0.0,0.0,8.m4v,1.0
2024-02-27 09:58:33.781288,1709024313.781288,-39.0625,-38.57421875,-52.734375,-47.8515625,-1.0,1.0,0.0,0.0,8.m4v,1.0
2024-02-27 09:58:33.785193,1709024313.7851932,-16.11328125,-50.78125,-41.50390625,-39.0625,-1.0,1.0,0.0,0.0,8.m4v,1.0
2024-02-27 09:58:33.789098,1709024313.7890985,-30.2734375,-57.6171875,-44.43359375,-40.52734375,-1.0,1.0,0.0,0.0,8.m4v,1.0
2024-02-27 09:58:33.793004,1709024313.7930036,-47.36328125,-34.1796875,-25.87890625,-45.41015625,-1.0,1.0,0.0,0.0,8.m4v,1.0
2024-02-27 09:58:33.796909,1709024313.7969086,-19.53125,-10.25390625,-12.20703125,-24.4140625,-1.0,1.0,0.0,0.0,8.m4v,1.0
2024-02-27 09:58:33.800814,1709024313.800814,-5.859375,-16.6015625,-28.80859375,-15.625,-1.0,1.0,0.0,0.0,8.m4v,1.0
2024-02-27 09:58:33.804719,1709024313.8047192,-43.9453125,-37.109375,-27.83203125,-42.48046875,-1.0,1.0,0.0,0.0,8.m4v,1.0
2024-02-27 09:58:33.808624,1709024313.8086245,-79.58984375,-51.26953125,-17.578125,-72.75390625,-1.0,1.0,0.0,0.0,8.m4v,1.0
2024-02-27 09:58:33.812530,1709024313.8125296,-77.63671875,-44.43359375,-40.52734375,-73.2421875,-1.0,1.0,0.0,0.0,8.m4v,1.0
2024-02-27 09:58:33.816435,1709024313.8164346,-65.4296875,-40.0390625,-47.36328125,-49.8046875,-1.0,1.0,0.0,0.0,8.m4v,1.0
2024-02-27 09:58:33.820340,1709024313.82034,-65.4296875,-34.66796875,-32.71484375,-41.015625,-1.0,1.0,0.0,0.0,8.m4v,1.0
2024-02-27 09:58:33.824252,1709024313.824252,-69.82421875,-36.1328125,-43.9453125,-58.10546875,-1.0,1.0,0.0,0.0,8.m4v,1.0
2024-02-27 09:58:33.828157,1709024313.8281572,-68.84765625,-43.45703125,-47.36328125,-69.3359375,-1.0,1.0,0.0,0.0,8.m4v,1.0
2024-02-27 09:58:33.832062,1709024313.8320622,-49.8046875,-35.64453125,-35.64453125,-53.22265625,-1.0,1.0,0.0,0.0,8.m4v,1.0
2024-02-27 09:58:33.835968,1709024313.8359675,-28.80859375,-36.62109375,-27.83203125,-43.9453125,-1.0,1.0,0.0,0.0,8.m4v,1.0
2024-02-27 09:58:33.839873,1709024313.8398726,-35.15625,-48.33984375,-27.83203125,-45.8984375,-1.0,1.0,0.0,0.0,8.m4v,1.0
2024-02-27 09:58:33.843778,1709024313.843778,-38.57421875,-37.59765625,-9.27734375,-33.203125,-1.0,1.0,0.0,0.0,8.m4v,1.0
2024-02-27 09:58:33.847683,1709024313.847683,-48.33984375,-18.5546875,-11.71875,-39.0625,-1.0,1.0,0.0,0.0,8.m4v,1.0
2024-02-27 09:58:33.851588,1709024313.8515882,-64.94140625,-32.2265625,-40.0390625,-63.96484375,-1.0,1.0,0.0,0.0,8.m4v,1.0
2024-02-27 09:58:33.855494,1709024313.8554935,-62.5,-43.9453125,-51.7578125,-61.5234375,-1.0,1.0,0.0,0.0,8.m4v,1.0
2024-02-27 09:58:33.859399,1709024313.8593986,-44.921875,-36.1328125,-42.96875,-44.43359375,-1.0,1.0,0.0,0.0,8.m4v,1.0
2024-02-27 09:58:33.863304,1709024313.863304,-32.2265625,-40.0390625,-26.3671875,-26.85546875,-1.0,1.0,0.0,0.0,8.m4v,1.0
2024-02-27 09:58:33.867209,1709024313.867209,-41.9921875,-29.296875,-31.25,-19.53125,-1.0,1.0,0.0,0.0,8.m4v,1.0
2024-02-27 09:58:33.871120,1709024313.8711205,-35.64453125,-20.99609375,-28.3203125,-14.6484375,-1.0,1.0,0.0,0.0,8.m4v,1.0
2024-02-27 09:58:33.875026,1709024313.8750255,-3.41796875,-10.25390625,-8.7890625,-3.90625,-1.0,1.0,0.0,0.0,8.m4v,1.0
2024-02-27 09:58:33.878931,1709024313.8789308,-6.8359375,-6.34765625,-11.23046875,-22.4609375,-1.0,1.0,0.0,0.0,8.m4v,1.0
2024-02-27 09:58:33.882836,1709024313.882836,-38.57421875,-25.390625,-54.6875,-57.6171875,-1.0,1.0,0.0,0.0,8.m4v,1.0
2024-02-27 09:58:33.886741,1709024313.8867414,-39.0625,-26.3671875,-53.7109375,-33.69140625,-1.0,1.0,0.0,0.0,8.m4v,1.0
2024-02-27 09:58:33.890646,1709024313.8906465,-37.109375,-23.92578125,-7.32421875,-10.25390625,-1.0,1.0,0.0,0.0,8.m4v,1.0
2024-02-27 09:58:33.894552,1709024313.8945518,-35.15625,-18.06640625,8.7890625,-33.203125,-1.0,1.0,0.0,0.0,8.m4v,1.0
2024-02-27 09:58:33.898457,1709024313.8984568,-41.9921875,-35.64453125,-15.13671875,-50.78125,-1.0,1.0,0.0,0.0,8.m4v,1.0
2024-02-27 09:58:33.902362,1709024313.902362,-55.17578125,-49.8046875,-44.921875,-62.01171875,-1.0,1.0,0.0,0.0,8.m4v,1.0
2024-02-27 09:58:33.906267,1709024313.9062674,-46.875,-32.2265625,-54.19921875,-48.33984375,-1.0,1.0,0.0,0.0,8.m4v,1.0
2024-02-27 09:58:33.910172,1709024313.9101725,-44.43359375,-43.45703125,-48.33984375,-35.15625,-1.0,1.0,0.0,0.0,8.m4v,1.0
2024-02-27 09:58:33.914078,1709024313.9140778,-45.41015625,-62.98828125,-47.8515625,-41.50390625,-1.0,1.0,0.0,0.0,8.m4v,1.0
2024-02-27 09:58:33.917988,1709024313.9179883,-51.26953125,-53.7109375,-54.6875,-55.17578125,-1.0,1.0,0.0,0.0,8.m4v,1.0
2024-02-27 09:58:33.921894,1709024313.9218936,-49.8046875,-45.41015625,-55.17578125,-60.546875,-1.0,1.0,0.0,0.0,8.m4v,1.0
2024-02-27 09:58:33.925799,1709024313.925799,-42.48046875,-33.203125,-50.29296875,-55.17578125,-1.0,1.0,0.0,0.0,8.m4v,1.0
2024-02-27 09:58:33.929704,1709024313.929704,-13.18359375,-10.25390625,-13.671875,-16.11328125,-1.0,1.0,0.0,0.0,8.m4v,1.0
2024-02-27 09:58:33.933609,1709024313.9336092,1.953125,0.48828125,9.27734375,9.27734375,-1.0,1.0,0.0,0.0,8.m4v,1.0
2024-02-27 09:58:33.937514,1709024313.9375143,-2.9296875,9.27734375,-12.20703125,-5.37109375,-1.0,1.0,0.0,0.0,8.m4v,1.0
2024-02-27 09:58:33.941420,1709024313.9414196,-13.18359375,-8.30078125,-9.27734375,-14.6484375,-1.0,1.0,0.0,0.0,8.m4v,1.0
2024-02-27 09:58:33.945325,1709024313.945325,-26.85546875,-43.45703125,-12.20703125,-30.2734375,-1.0,1.0,0.0,0.0,8.m4v,1.0
2024-02-27 09:58:33.949230,1709024313.94923,-41.015625,-45.41015625,-38.57421875,-42.96875,-1.0,1.0,0.0,0.0,8.m4v,1.0
2024-02-27 09:58:33.953135,1709024313.9531353,-48.828125,-40.52734375,-38.0859375,-44.43359375,-1.0,1.0,0.0,0.0,8.m4v,1.0
2024-02-27 09:58:33.957040,1709024313.9570403,-63.4765625,-58.10546875,-57.6171875,-63.4765625,-1.0,1.0,0.0,0.0,8.m4v,1.0
2024-02-27 09:58:33.960946,1709024313.9609456,-63.96484375,-69.82421875,-66.89453125,-52.24609375,-1.0,1.0,0.0,0.0,8.m4v,1.0
2024-02-27 09:58:33.964855,1709024313.9648554,-36.1328125,-55.17578125,-31.25,-29.296875,-1.0,1.0,0.0,0.0,8.m4v,1.0
2024-02-27 09:58:33.968761,1709024313.9687607,-30.2734375,-27.83203125,-21.97265625,-28.80859375,-1.0,1.0,0.0,0.0,8.m4v,1.0
2024-02-27 09:58:33.972666,1709024313.9726658,-10.25390625,2.44140625,-24.4140625,-16.6015625,-1.0,1.0,0.0,0.0,8.m4v,1.0
2024-02-27 09:58:33.976571,1709024313.976571,-4.39453125,9.27734375,-11.23046875,-11.23046875,-1.0,1.0,0.0,0.0,8.m4v,1.0
2024-02-27 09:58:33.980476,1709024313.980476,-3.41796875,-14.6484375,-13.18359375,8.7890625,-1.0,1.0,0.0,0.0,8.m4v,1.0
2024-02-27 09:58:33.984381,1709024313.9843814,-20.99609375,-32.2265625,-48.33984375,-12.20703125,-1.0,1.0,0.0,0.0,8.m4v,1.0
2024-02-27 09:58:33.988287,1709024313.9882867,-42.96875,-30.2734375,-44.43359375,-41.015625,-1.0,1.0,0.0,0.0,8.m4v,1.0
2024-02-27 09:58:33.992192,1709024313.9921918,-31.25,-29.296875,-35.64453125,-33.69140625,-1.0,1.0,0.0,0.0,8.m4v,1.0
2024-02-27 09:58:33.996097,1709024313.996097,-19.53125,-32.71484375,-38.0859375,-27.34375,-1.0,1.0,0.0,0.0,8.m4v,1.0
2024-02-27 09:58:34.000002,1709024314.000002,-9.765625,-17.578125,-13.671875,-21.484375,-1.0,1.0,0.0,0.0,8.m4v,1.0
2024-02-27 09:58:34.003907,1709024314.0039074,-28.3203125,-37.59765625,-5.859375,-44.43359375,-1.0,1.0,0.0,0.0,8.m4v,1.0
2024-02-27 09:58:34.007813,1709024314.0078127,-59.5703125,-68.359375,-26.3671875,-56.15234375,-1.0,1.0,0.0,0.0,8.m4v,1.0
2024-02-27 09:58:34.011727,1709024314.011727,-51.7578125,-47.36328125,-21.484375,-36.1328125,-1.0,1.0,0.0,0.0,8.m4v,1.0
2024-02-27 09:58:34.015632,1709024314.0156324,-27.83203125,-16.11328125,-19.04296875,-41.9921875,-1.0,1.0,0.0,0.0,8.m4v,1.0
2024-02-27 09:58:34.019537,1709024314.0195374,-30.2734375,-30.2734375,-55.17578125,-39.0625,-1.0,1.0,0.0,0.0,8.m4v,1.0
2024-02-27 09:58:34.023443,1709024314.0234427,-33.203125,-36.62109375,-49.31640625,-17.578125,-1.0,1.0,0.0,0.0,8.m4v,1.0
2024-02-27 09:58:34.027348,1709024314.027348,-25.390625,-13.18359375,-35.64453125,-24.4140625,-1.0,1.0,0.0,0.0,8.m4v,1.0
2024-02-27 09:58:34.031253,1709024314.031253,-22.4609375,-24.4140625,-45.41015625,-24.4140625,-1.0,1.0,0.0,0.0,8.m4v,1.0
2024-02-27 09:58:34.035158,1709024314.0351584,-27.83203125,-56.15234375,-30.2734375,-26.3671875,-1.0,1.0,0.0,0.0,8.m4v,1.0
2024-02-27 09:58:34.039063,1709024314.0390637,-42.96875,-67.3828125,-19.04296875,-41.50390625,-1.0,1.0,0.0,0.0,8.m4v,1.0
2024-02-27 09:58:34.042969,1709024314.0429688,-53.22265625,-55.17578125,-25.390625,-60.546875,-1.0,1.0,0.0,0.0,8.m4v,1.0
2024-02-27 09:58:34.046874,1709024314.046874,-54.19921875,-37.109375,-36.1328125,-62.98828125,-1.0,1.0,0.0,0.0,8.m4v,1.0
2024-02-27 09:58:34.050779,1709024314.050779,-46.875,-33.203125,-27.83203125,-38.0859375,-1.0,1.0,0.0,0.0,8.m4v,1.0
2024-02-27 09:58:34.054684,1709024314.0546844,-13.18359375,-17.578125,-34.66796875,2.9296875,-1.0,1.0,0.0,0.0,8.m4v,1.0
2024-02-27 09:58:34.058598,1709024314.0585985,-10.25390625,-4.8828125,-41.9921875,-0.9765625,-1.0,1.0,0.0,0.0,8.m4v,1.0
2024-02-27 09:58:34.062504,1709024314.0625036,-47.36328125,-27.34375,-47.36328125,-43.45703125,-1.0,1.0,0.0,0.0,8.m4v,1.0
2024-02-27 09:58:34.066409,1709024314.0664086,-37.59765625,-31.73828125,-33.203125,-39.55078125,-1.0,1.0,0.0,0.0,8.m4v,1.0
2024-02-27 09:58:34.070314,1709024314.070314,-21.484375,-24.4140625,-36.62109375,-28.3203125,-1.0,1.0,0.0,0.0,8.m4v,1.0
2024-02-27 09:58:34.074219,1709024314.074219,-34.66796875,-40.52734375,-64.453125,-43.9453125,-1.0,1.0,0.0,0.0,8.m4v,1.0
2024-02-27 09:58:34.078124,1709024314.0781243,-38.0859375,-42.48046875,-49.8046875,-50.29296875,-1.0,1.0,0.0,0.0,8.m4v,1.0
2024-02-27 09:58:34.082030,1709024314.0820296,-55.17578125,-53.22265625,-35.15625,-59.5703125,-1.0,1.0,0.0,0.0,8.m4v,1.0
2024-02-27 09:58:34.085935,1709024314.0859346,-62.5,-56.640625,-36.62109375,-72.75390625,-1.0,1.0,0.0,0.0,8.m4v,1.0
2024-02-27 09:58:34.089840,1709024314.08984,-48.828125,-41.015625,-37.109375,-59.5703125,-1.0,1.0,0.0,0.0,8.m4v,1.0
2024-02-27 09:58:34.093745,1709024314.093745,-30.2734375,-31.73828125,-40.0390625,-40.52734375,-1.0,1.0,0.0,0.0,8.m4v,1.0
2024-02-27 09:58:34.097650,1709024314.0976503,-31.73828125,-28.3203125,-44.921875,-33.69140625,-1.0,1.0,0.0,0.0,8.m4v,1.0
2024-02-27 09:58:34.101556,1709024314.1015556,-16.11328125,-10.7421875,-38.57421875,-12.20703125,-1.0,1.0,0.0,0.0,8.m4v,1.0
2024-02-27 09:58:34.105469,1709024314.1054688,-13.18359375,-8.30078125,-35.15625,-15.625,-1.0,1.0,0.0,0.0,8.m4v,1.0
2024-02-27 09:58:34.109374,1709024314.109374,-23.4375,-20.01953125,-16.11328125,-6.8359375,-1.0,1.0,0.0,0.0,8.m4v,1.0
2024-02-27 09:58:34.113279,1709024314.113279,-5.37109375,-19.04296875,-8.7890625,3.90625,-1.0,1.0,0.0,0.0,8.m4v,1.0
2024-02-27 09:58:34.117184,1709024314.1171844,-22.94921875,-44.921875,-34.1796875,-29.78515625,-1.0,1.0,0.0,0.0,8.m4v,1.0
2024-02-27 09:58:34.121090,1709024314.1210897,-46.875,-67.3828125,-43.9453125,-63.4765625,-1.0,1.0,0.0,0.0,8.m4v,1.0
2024-02-27 09:58:34.124995,1709024314.1249948,-44.921875,-56.15234375,-47.36328125,-67.87109375,-1.0,1.0,0.0,0.0,8.m4v,1.0
2024-02-27 09:58:34.128900,1709024314.1289,-46.875,-44.43359375,-42.96875,-50.29296875,-1.0,1.0,0.0,0.0,8.m4v,1.0
2024-02-27 09:58:34.132805,1709024314.132805,-44.43359375,-41.015625,-33.69140625,-41.015625,-1.0,1.0,0.0,0.0,8.m4v,1.0
2024-02-27 09:58:34.136710,1709024314.1367104,-30.76171875,-39.0625,-50.78125,-43.45703125,-1.0,1.0,0.0,0.0,8.m4v,1.0
2024-02-27 09:58:34.140616,1709024314.1406157,-37.109375,-33.203125,-58.10546875,-38.57421875,-1.0,1.0,0.0,0.0,8.m4v,1.0
2024-02-27 09:58:34.144521,1709024314.1445208,-33.203125,-29.296875,-30.2734375,-12.6953125,-1.0,1.0,0.0,0.0,8.m4v,1.0
2024-02-27 09:58:34.148426,1709024314.148426,-27.34375,-20.99609375,-12.6953125,4.8828125,-1.0,1.0,0.0,0.0,8.m4v,1.0
2024-02-27 09:58:34.152339,1709024314.1523385,-38.0859375,-24.4140625,-20.5078125,-30.2734375,-1.0,1.0,0.0,0.0,8.m4v,1.0
2024-02-27 09:58:34.156244,1709024314.1562436,-37.59765625,-33.203125,-27.34375,-47.36328125,-1.0,1.0,0.0,0.0,8.m4v,1.0
2024-02-27 09:58:34.160149,1709024314.1601489,-30.76171875,-39.55078125,-19.04296875,-35.15625,-1.0,1.0,0.0,0.0,8.m4v,1.0
2024-02-27 09:58:34.164054,1709024314.164054,-25.87890625,-41.015625,-12.20703125,-39.0625,-1.0,1.0,0.0,0.0,8.m4v,1.0
2024-02-27 09:58:34.167959,1709024314.1679592,-22.4609375,-30.76171875,-7.8125,-23.92578125,-1.0,1.0,0.0,0.0,8.m4v,1.0
2024-02-27 09:58:34.171865,1709024314.1718645,-43.9453125,-37.59765625,-34.1796875,-37.59765625,-1.0,1.0,0.0,0.0,8.m4v,1.0
2024-02-27 09:58:34.175770,1709024314.1757696,-35.15625,-33.69140625,-51.26953125,-45.41015625,-1.0,1.0,0.0,0.0,8.m4v,1.0
2024-02-27 09:58:34.179675,1709024314.1796749,2.9296875,-7.8125,-50.78125,-15.625,-1.0,1.0,0.0,0.0,8.m4v,1.0
2024-02-27 09:58:34.183580,1709024314.18358,-0.9765625,-8.7890625,-59.08203125,1.46484375,-1.0,1.0,0.0,0.0,8.m4v,1.0
2024-02-27 09:58:34.187485,1709024314.1874852,-18.5546875,-26.85546875,-66.40625,-12.20703125,-1.0,1.0,0.0,0.0,8.m4v,1.0
2024-02-27 09:58:34.191391,1709024314.1913905,-27.83203125,-31.73828125,-52.734375,-17.08984375,-1.0,1.0,0.0,0.0,8.m4v,1.0
2024-02-27 09:58:34.195296,1709024314.1952956,-51.7578125,-52.24609375,-38.57421875,-30.76171875,-1.0,1.0,0.0,0.0,8.m4v,1.0
2024-02-27 09:58:34.199208,1709024314.1992078,-45.41015625,-54.19921875,-18.5546875,-47.8515625,-1.0,1.0,0.0,0.0,8.m4v,1.0
2024-02-27 09:58:34.203113,1709024314.203113,-48.33984375,-44.921875,-18.5546875,-48.828125,-1.0,1.0,0.0,0.0,8.m4v,1.0
2024-02-27 09:58:34.207018,1709024314.207018,-57.12890625,-43.45703125,-27.34375,-54.6875,-1.0,1.0,0.0,0.0,8.m4v,1.0
2024-02-27 09:58:34.210923,1709024314.2109234,-30.76171875,-31.25,-5.37109375,-35.15625,-1.0,1.0,0.0,0.0,8.m4v,1.0
2024-02-27 09:58:34.214828,1709024314.2148285,-26.3671875,-30.76171875,-24.4140625,-20.01953125,-1.0,1.0,0.0,0.0,8.m4v,1.0
2024-02-27 09:58:34.218734,1709024314.2187338,-4.39453125,-19.53125,-40.52734375,-5.37109375,-1.0,1.0,0.0,0.0,8.m4v,1.0
2024-02-27 09:58:34.621032,1709024314.621032,-29.296875,-33.203125,-35.15625,-33.69140625,-1.0,1.0,0.0,0.0,8.m4v,1.0
2024-02-27 09:58:34.624937,1709024314.624937,-6.8359375,-27.83203125,-17.08984375,-19.53125,-1.0,1.0,0.0,0.0,8.m4v,1.0
2024-02-27 09:58:34.628842,1709024314.6288424,-33.69140625,-47.8515625,-36.62109375,-25.390625,-1.0,1.0,0.0,0.0,8.m4v,1.0
2024-02-27 09:58:34.632747,1709024314.6327474,-48.828125,-59.08203125,-57.6171875,-48.828125,-1.0,1.0,0.0,0.0,8.m4v,1.0
2024-02-27 09:58:34.636653,1709024314.6366527,-25.390625,-34.1796875,-37.59765625,-56.15234375,-1.0,1.0,0.0,0.0,8.m4v,1.0
2024-02-27 09:58:34.640558,1709024314.640558,-23.92578125,-26.3671875,-25.87890625,-49.31640625,-1.0,1.0,0.0,0.0,8.m4v,1.0
2024-02-27 09:58:34.644463,1709024314.644463,-10.25390625,-13.671875,-27.83203125,-21.97265625,-1.0,1.0,0.0,0.0,8.m4v,1.0
2024-02-27 09:58:34.648368,1709024314.6483684,-37.109375,-16.6015625,-29.78515625,-34.1796875,-1.0,1.0,0.0,0.0,8.m4v,1.0
2024-02-27 09:58:34.652273,1709024314.6522734,-62.5,-23.92578125,-31.25,-50.78125,-1.0,1.0,0.0,0.0,8.m4v,1.0
2024-02-27 09:58:34.656179,1709024314.6561787,-43.45703125,-31.73828125,-43.9453125,-28.3203125,-1.0,1.0,0.0,0.0,8.m4v,1.0
2024-02-27 09:58:34.660084,1709024314.6600838,-42.96875,-53.22265625,-48.33984375,-41.9921875,-1.0,1.0,0.0,0.0,8.m4v,1.0
2024-02-27 09:58:34.663989,1709024314.663989,-41.50390625,-37.109375,-40.0390625,-52.734375,-1.0,1.0,0.0,0.0,8.m4v,1.0
2024-02-27 09:58:34.667899,1709024314.6678991,-26.85546875,-6.34765625,-42.96875,-28.3203125,-1.0,1.0,0.0,0.0,8.m4v,1.0
2024-02-27 09:58:34.671804,1709024314.6718042,-27.83203125,-13.18359375,-29.78515625,-28.3203125,-1.0,1.0,0.0,0.0,8.m4v,1.0
2024-02-27 09:58:34.675709,1709024314.6757095,-15.625,-33.203125,-24.90234375,-11.71875,-1.0,1.0,0.0,0.0,8.m4v,1.0
2024-02-27 09:58:34.679615,1709024314.6796148,-1.953125,-47.36328125,-39.55078125,-9.765625,-1.0,1.0,0.0,0.0,8.m4v,1.0
2024-02-27 09:58:34.683520,1709024314.6835198,-31.73828125,-46.875,-30.76171875,-47.8515625,-1.0,1.0,0.0,0.0,8.m4v,1.0
2024-02-27 09:58:34.687425,1709024314.6874251,-53.7109375,-27.34375,-38.57421875,-57.12890625,-1.0,1.0,0.0,0.0,8.m4v,1.0
2024-02-27 09:58:34.691330,1709024314.6913302,-33.69140625,-26.3671875,-45.8984375,-39.55078125,-1.0,1.0,0.0,0.0,8.m4v,1.0
2024-02-27 09:58:34.695235,1709024314.6952355,-30.76171875,-53.22265625,-42.48046875,-38.0859375,-1.0,1.0,0.0,0.0,8.m4v,1.0
2024-02-27 09:58:34.699141,1709024314.6991408,-34.1796875,-50.78125,-41.9921875,-40.0390625,-1.0,1.0,0.0,0.0,8.m4v,1.0
2024-02-27 09:58:34.703046,1709024314.7030458,-31.25,-35.64453125,-39.55078125,-26.3671875,-1.0,1.0,0.0,0.0,8.m4v,1.0
2024-02-27 09:58:34.706951,1709024314.7069511,-19.53125,-20.99609375,-23.4375,-8.30078125,-1.0,1.0,0.0,0.0,8.m4v,1.0
2024-02-27 09:58:34.710856,1709024314.7108562,-19.53125,-7.32421875,-25.390625,-4.39453125,-1.0,1.0,0.0,0.0,8.m4v,1.0
2024-02-27 09:58:34.714767,1709024314.7147667,-39.55078125,-17.578125,-60.546875,-20.01953125,-1.0,1.0,0.0,0.0,8.m4v,1.0
2024-02-27 09:58:34.718672,1709024314.718672,-23.92578125,-25.87890625,-43.9453125,-20.5078125,-1.0,1.0,0.0,0.0,8.m4v,1.0
2024-02-27 09:58:34.722577,1709024314.722577,-19.53125,-23.4375,-22.94921875,-38.0859375,-1.0,1.0,0.0,0.0,8.m4v,1.0
2024-02-27 09:58:34.726482,1709024314.7264824,-39.0625,-44.921875,-44.43359375,-55.17578125,-1.0,1.0,0.0,0.0,8.m4v,1.0
2024-02-27 09:58:34.730387,1709024314.7303874,-19.04296875,-65.4296875,-41.015625,-41.015625,-1.0,1.0,0.0,0.0,8.m4v,1.0
2024-02-27 09:58:34.734293,1709024314.7342927,-4.39453125,-44.921875,-21.484375,-33.69140625,-1.0,1.0,0.0,0.0,8.m4v,1.0
2024-02-27 09:58:34.738198,1709024314.738198,-26.3671875,-30.76171875,-18.5546875,-46.875,-1.0,1.0,0.0,0.0,8.m4v,1.0
2024-02-27 09:58:34.742103,1709024314.742103,-42.48046875,-49.8046875,-22.4609375,-49.31640625,-1.0,1.0,0.0,0.0,8.m4v,1.0
2024-02-27 09:58:34.746008,1709024314.7460084,-53.22265625,-41.50390625,-37.109375,-43.9453125,-1.0,1.0,0.0,0.0,8.m4v,1.0
2024-02-27 09:58:34.749913,1709024314.7499137,-40.0390625,-18.5546875,-50.78125,-33.69140625,-1.0,1.0,0.0,0.0,8.m4v,1.0
2024-02-27 09:58:34.753819,1709024314.7538188,-4.8828125,-10.7421875,-43.45703125,-5.37109375,-1.0,1.0,0.0,0.0,8.m4v,1.0
2024-02-27 09:58:34.757724,1709024314.757724,-25.390625,-25.87890625,-47.36328125,-11.71875,-1.0,1.0,0.0,0.0,8.m4v,1.0
2024-02-27 09:58:34.761638,1709024314.7616377,-47.8515625,-29.78515625,-38.57421875,-41.50390625,-1.0,1.0,0.0,0.0,8.m4v,1.0
2024-02-27 09:58:34.765543,1709024314.765543,-46.38671875,-29.78515625,-23.92578125,-46.875,-1.0,1.0,0.0,0.0,8.m4v,1.0
2024-02-27 09:58:34.769448,1709024314.769448,-41.50390625,-39.55078125,-12.6953125,-41.50390625,-1.0,1.0,0.0,0.0,8.m4v,1.0
2024-02-27 09:58:34.773353,1709024314.773353,-34.1796875,-48.828125,-18.5546875,-37.59765625,-1.0,1.0,0.0,0.0,8.m4v,1.0
2024-02-27 09:58:34.777259,1709024314.7772586,-29.296875,-45.8984375,-31.25,-30.2734375,-1.0,1.0,0.0,0.0,8.m4v,1.0
2024-02-27 09:58:34.781164,1709024314.7811637,-20.99609375,-29.78515625,-26.85546875,-40.0390625,-1.0,1.0,0.0,0.0,8.m4v,1.0
2024-02-27 09:58:34.785069,1709024314.785069,-19.04296875,-18.06640625,-29.78515625,-18.06640625,-1.0,1.0,0.0,0.0,8.m4v,1.0
2024-02-27 09:58:34.788974,1709024314.788974,-22.4609375,-7.32421875,-34.66796875,5.37109375,-1.0,1.0,0.0,0.0,8.m4v,1.0
2024-02-27 09:58:34.792879,1709024314.792879,-46.875,-29.78515625,-37.109375,-38.57421875,-1.0,1.0,0.0,0.0,8.m4v,1.0
2024-02-27 09:58:34.796785,1709024314.7967846,-55.17578125,-47.8515625,-32.71484375,-66.40625,-1.0,1.0,0.0,0.0,8.m4v,1.0
2024-02-27 09:58:34.800690,1709024314.8006897,-36.62109375,-36.1328125,-17.08984375,-54.6875,-1.0,1.0,0.0,0.0,8.m4v,1.0
2024-02-27 09:58:34.804595,1709024314.804595,-39.55078125,-37.59765625,-33.203125,-41.50390625,-1.0,1.0,0.0,0.0,8.m4v,1.0
2024-02-27 09:58:34.808509,1709024314.8085086,-42.48046875,-31.73828125,-48.33984375,-37.109375,-1.0,1.0,0.0,0.0,8.m4v,1.0
2024-02-27 09:58:34.812414,1709024314.812414,-24.4140625,-12.20703125,-28.80859375,-39.0625,-1.0,1.0,0.0,0.0,8.m4v,1.0
2024-02-27 09:58:34.816319,1709024314.816319,-16.6015625,-14.6484375,-36.62109375,-29.78515625,-1.0,1.0,0.0,0.0,8.m4v,1.0
2024-02-27 09:58:34.820224,1709024314.8202243,-13.671875,-26.85546875,-51.26953125,-24.4140625,-1.0,1.0,0.0,0.0,8.m4v,1.0
2024-02-27 09:58:34.824130,1709024314.8241296,-16.6015625,-43.9453125,-25.390625,-22.94921875,-1.0,1.0,0.0,0.0,8.m4v,1.0
2024-02-27 09:58:34.828035,1709024314.8280346,-43.9453125,-51.7578125,-26.3671875,-42.96875,-1.0,1.0,0.0,0.0,8.m4v,1.0
2024-02-27 09:58:34.831940,1709024314.83194,-53.7109375,-44.921875,-30.2734375,-50.78125,-1.0,1.0,0.0,0.0,8.m4v,1.0
2024-02-27 09:58:34.835845,1709024314.835845,-35.15625,-53.7109375,-33.69140625,-45.8984375,-1.0,1.0,0.0,0.0,8.m4v,1.0
2024-02-27 09:58:34.839750,1709024314.8397503,-8.30078125,-32.2265625,-51.7578125,-31.25,-1.0,1.0,0.0,0.0,8.m4v,1.0
2024-02-27 09:58:34.843656,1709024314.8436556,-18.06640625,-16.11328125,-50.78125,-31.25,-1.0,1.0,0.0,0.0,8.m4v,1.0
2024-02-27 09:58:34.847561,1709024314.8475606,-51.7578125,-26.3671875,-49.8046875,-36.62109375,-1.0,1.0,0.0,0.0,8.m4v,1.0
2024-02-27 09:58:34.851466,1709024314.851466,-46.875,-29.296875,-30.76171875,-23.4375,-1.0,1.0,0.0,0.0,8.m4v,1.0
2024-02-27 09:58:34.855379,1709024314.855379,-26.3671875,-26.3671875,-9.765625,-36.62109375,-1.0,1.0,0.0,0.0,8.m4v,1.0
2024-02-27 09:58:34.859284,1709024314.8592844,-45.8984375,-37.109375,-21.97265625,-58.10546875,-1.0,1.0,0.0,0.0,8.m4v,1.0
2024-02-27 09:58:34.863189,1709024314.8631897,-54.19921875,-45.41015625,-23.4375,-40.0390625,-1.0,1.0,0.0,0.0,8.m4v,1.0
2024-02-27 09:58:34.867095,1709024314.8670948,-39.0625,-39.55078125,-18.06640625,-10.25390625,-1.0,1.0,0.0,0.0,8.m4v,1.0
2024-02-27 09:58:34.871000,1709024314.871,-37.59765625,-38.0859375,-22.4609375,-16.6015625,-1.0,1.0,0.0,0.0,8.m4v,1.0
2024-02-27 09:58:34.874905,1709024314.874905,-40.52734375,-50.78125,-42.48046875,-40.0390625,-1.0,1.0,0.0,0.0,8.m4v,1.0
2024-02-27 09:58:34.878810,1709024314.8788104,-37.59765625,-43.45703125,-44.43359375,-47.8515625,-1.0,1.0,0.0,0.0,8.m4v,1.0
2024-02-27 09:58:34.882715,1709024314.8827157,-44.921875,-30.76171875,-39.0625,-55.6640625,-1.0,1.0,0.0,0.0,8.m4v,1.0
2024-02-27 09:58:34.886621,1709024314.8866208,-22.94921875,-14.16015625,-41.015625,-27.83203125,-1.0,1.0,0.0,0.0,8.m4v,1.0
2024-02-27 09:58:34.890526,1709024314.890526,23.92578125,27.34375,-3.41796875,27.34375,-1.0,1.0,0.0,0.0,8.m4v,1.0
2024-02-27 09:58:34.894431,1709024314.894431,-27.83203125,-22.4609375,-28.80859375,-36.1328125,-1.0,1.0,0.0,0.0,8.m4v,1.0
2024-02-27 09:58:34.898336,1709024314.8983364,-73.2421875,-80.56640625,-59.08203125,-93.26171875,-1.0,1.0,0.0,0.0,8.m4v,1.0
2024-02-27 09:58:34.902249,1709024314.9022489,-71.77734375,-78.125,-41.50390625,-65.91796875,-1.0,1.0,0.0,0.0,8.m4v,1.0
2024-02-27 09:58:34.906154,1709024314.906154,-70.3125,-62.01171875,-37.59765625,-62.98828125,-1.0,1.0,0.0,0.0,8.m4v,1.0
2024-02-27 09:58:34.910059,1709024314.9100592,-38.57421875,-36.1328125,-24.4140625,-41.50390625,-1.0,1.0,0.0,0.0,8.m4v,1.0
2024-02-27 09:58:34.913965,1709024314.9139645,-13.671875,-39.55078125,-25.87890625,-12.20703125,-1.0,1.0,0.0,0.0,8.m4v,1.0
2024-02-27 09:58:34.917870,1709024314.9178696,-18.06640625,-40.52734375,-37.59765625,-15.13671875,-1.0,1.0,0.0,0.0,8.m4v,1.0
2024-02-27 09:58:34.921775,1709024314.9217749,-14.16015625,-14.16015625,-31.73828125,-3.41796875,-1.0,1.0,0.0,0.0,8.m4v,1.0
2024-02-27 09:58:34.925680,1709024314.92568,-25.87890625,-19.53125,-35.15625,-22.4609375,-1.0,1.0,0.0,0.0,8.m4v,1.0
2024-02-27 09:58:34.929585,1709024314.9295852,-22.94921875,-17.578125,-28.80859375,-18.06640625,-1.0,1.0,0.0,0.0,8.m4v,1.0
2024-02-27 09:58:34.933491,1709024314.9334905,-20.01953125,-26.3671875,-18.5546875,-18.06640625,-1.0,1.0,0.0,0.0,8.m4v,1.0
2024-02-27 09:58:34.937396,1709024314.9373956,-56.640625,-42.48046875,-27.34375,-62.01171875,-1.0,1.0,0.0,0.0,8.m4v,1.0
2024-02-27 09:58:34.941301,1709024314.9413009,-59.5703125,-40.52734375,-47.36328125,-57.6171875,-1.0,1.0,0.0,0.0,8.m4v,1.0
2024-02-27 09:58:34.945206,1709024314.945206,-64.453125,-57.12890625,-53.22265625,-51.7578125,-1.0,1.0,0.0,0.0,8.m4v,1.0
2024-02-27 09:58:34.949118,1709024314.949118,-62.01171875,-62.5,-35.64453125,-56.15234375,-1.0,1.0,0.0,0.0,8.m4v,1.0
2024-02-27 09:58:34.953023,1709024314.9530234,-38.0859375,-45.8984375,-20.99609375,-29.296875,-1.0,1.0,0.0,0.0,8.m4v,1.0
2024-02-27 09:58:34.956928,1709024314.9569285,-2.44140625,-7.8125,-10.25390625,-3.41796875,-1.0,1.0,0.0,0.0,8.m4v,1.0
2024-02-27 09:58:34.960834,1709024314.9608338,-1.46484375,-8.7890625,-20.5078125,-13.18359375,-1.0,1.0,0.0,0.0,8.m4v,1.0
2024-02-27 09:58:34.964739,1709024314.964739,-28.80859375,-49.31640625,-44.43359375,-18.5546875,-1.0,1.0,0.0,0.0,8.m4v,1.0
2024-02-27 09:58:34.968644,1709024314.968644,-34.66796875,-53.7109375,-41.015625,-16.11328125,-1.0,1.0,0.0,0.0,8.m4v,1.0
2024-02-27 09:58:34.972549,1709024314.9725494,-19.53125,-38.0859375,-23.4375,-20.99609375,-1.0,1.0,0.0,0.0,8.m4v,1.0
2024-02-27 09:58:34.976454,1709024314.9764545,-24.90234375,-34.1796875,-37.59765625,-13.18359375,-1.0,1.0,0.0,0.0,8.m4v,1.0
2024-02-27 09:58:34.980360,1709024314.9803598,-60.05859375,-30.2734375,-64.453125,-34.1796875,-1.0,1.0,0.0,0.0,8.m4v,1.0
2024-02-27 09:58:34.984265,1709024314.984265,-54.6875,-25.87890625,-32.2265625,-50.78125,-1.0,1.0,0.0,0.0,8.m4v,1.0
2024-02-27 09:58:34.988170,1709024314.98817,-21.97265625,-21.97265625,-5.859375,-24.4140625,-1.0,1.0,0.0,0.0,8.m4v,1.0
2024-02-27 09:58:34.992075,1709024314.9920754,-0.9765625,-14.16015625,-32.71484375,-9.27734375,-1.0,1.0,0.0,0.0,8.m4v,1.0
2024-02-27 09:58:34.995987,1709024314.9959867,-1.953125,-25.87890625,-52.24609375,-13.18359375,-1.0,1.0,0.0,0.0,8.m4v,1.0
2024-02-27 09:58:34.999892,1709024314.9998918,-21.97265625,-41.9921875,-31.25,-27.83203125,-1.0,1.0,0.0,0.0,8.m4v,1.0
2024-02-27 09:58:35.003797,1709024315.003797,-39.0625,-38.0859375,-10.25390625,-43.9453125,-1.0,1.0,0.0,0.0,8.m4v,1.0
2024-02-27 09:58:35.007702,1709024315.0077024,-62.5,-49.8046875,-26.85546875,-69.82421875,-1.0,1.0,0.0,0.0,8.m4v,1.0
2024-02-27 09:58:35.011607,1709024315.0116074,-46.38671875,-36.62109375,-29.296875,-41.9921875,-1.0,1.0,0.0,0.0,8.m4v,1.0
2024-02-27 09:58:35.015513,1709024315.0155127,-10.7421875,-4.8828125,-19.04296875,1.953125,-1.0,1.0,0.0,0.0,8.m4v,1.0
2024-02-27 09:58:35.019418,1709024315.0194178,2.9296875,-0.9765625,-17.08984375,4.39453125,-1.0,1.0,0.0,0.0,8.m4v,1.0
2024-02-27 09:58:35.023323,1709024315.023323,-6.34765625,-9.27734375,-9.765625,-16.11328125,-1.0,1.0,0.0,0.0,8.m4v,1.0
2024-02-27 09:58:35.027228,1709024315.0272284,-21.484375,-13.18359375,-23.4375,-26.3671875,-1.0,1.0,0.0,0.0,8.m4v,1.0
2024-02-27 09:58:35.031133,1709024315.0311334,-29.78515625,-23.92578125,-36.1328125,-29.78515625,-1.0,1.0,0.0,0.0,8.m4v,1.0
2024-02-27 09:58:35.035039,1709024315.0350387,-55.6640625,-49.31640625,-25.390625,-38.0859375,-1.0,1.0,0.0,0.0,8.m4v,1.0
2024-02-27 09:58:35.038944,1709024315.0389438,-53.7109375,-50.78125,-21.484375,-33.69140625,-1.0,1.0,0.0,0.0,8.m4v,1.0
2024-02-27 09:58:35.042855,1709024315.0428543,-43.9453125,-42.96875,-35.15625,-50.29296875,-1.0,1.0,0.0,0.0,8.m4v,1.0
2024-02-27 09:58:35.046760,1709024315.0467596,-35.64453125,-35.64453125,-40.52734375,-44.43359375,-1.0,1.0,0.0,0.0,8.m4v,1.0
2024-02-27 09:58:35.050665,1709024315.050665,-33.203125,-36.62109375,-37.109375,-23.92578125,-1.0,1.0,0.0,0.0,8.m4v,1.0
2024-02-27 09:58:35.054570,1709024315.0545702,-29.78515625,-29.78515625,-36.1328125,-22.94921875,-1.0,1.0,0.0,0.0,8.m4v,1.0
2024-02-27 09:58:35.058475,1709024315.0584753,9.27734375,-14.6484375,-11.23046875,-4.8828125,-1.0,1.0,0.0,0.0,8.m4v,1.0
2024-02-27 09:58:35.062381,1709024315.0623806,-12.20703125,-30.2734375,-30.76171875,-13.18359375,-1.0,1.0,0.0,0.0,8.m4v,1.0
2024-02-27 09:58:35.066286,1709024315.0662856,-52.24609375,-45.41015625,-60.05859375,-34.1796875,-1.0,1.0,0.0,0.0,8.m4v,1.0
2024-02-27 09:58:35.070191,1709024315.070191,-37.59765625,-38.0859375,-42.96875,-36.1328125,-1.0,1.0,0.0,0.0,8.m4v,1.0
2024-02-27 09:58:35.074096,1709024315.0740962,-43.45703125,-37.59765625,-33.69140625,-44.43359375,-1.0,1.0,0.0,0.0,8.m4v,1.0
2024-02-27 09:58:35.078001,1709024315.0780013,-45.8984375,-45.8984375,-38.0859375,-43.9453125,-1.0,1.0,0.0,0.0,8.m4v,1.0
2024-02-27 09:58:35.081907,1709024315.0819066,-44.921875,-39.0625,-34.1796875,-38.57421875,-1.0,1.0,0.0,0.0,8.m4v,1.0
2024-02-27 09:58:35.085812,1709024315.0858116,-32.71484375,-20.5078125,-34.66796875,-20.01953125,-1.0,1.0,0.0,0.0,8.m4v,1.0
2024-02-27 09:58:35.089726,1709024315.0897264,-28.3203125,-22.4609375,-47.8515625,-16.6015625,-1.0,1.0,0.0,0.0,8.m4v,1.0
2024-02-27 09:58:35.093632,1709024315.0936315,-41.015625,-43.45703125,-57.12890625,-34.66796875,-1.0,1.0,0.0,0.0,8.m4v,1.0
2024-02-27 09:58:35.097537,1709024315.097537,-42.96875,-58.59375,-60.05859375,-36.1328125,-1.0,1.0,0.0,0.0,8.m4v,1.0
2024-02-27 09:58:35.101442,1709024315.101442,-48.828125,-52.24609375,-50.78125,-46.38671875,-1.0,1.0,0.0,0.0,8.m4v,1.0
2024-02-27 09:58:35.105347,1709024315.1053474,-21.97265625,-13.671875,-25.87890625,-33.69140625,-1.0,1.0,0.0,0.0,8.m4v,1.0
2024-02-27 09:58:35.109252,1709024315.1092525,-9.765625,-3.90625,-26.85546875,-14.6484375,-1.0,1.0,0.0,0.0,8.m4v,1.0
2024-02-27 09:58:35.113158,1709024315.1131575,-36.62109375,-23.92578125,-30.76171875,-27.83203125,-1.0,1.0,0.0,0.0,8.m4v,1.0
2024-02-27 09:58:35.117063,1709024315.117063,-36.62109375,-37.109375,-26.85546875,-31.25,-1.0,1.0,0.0,0.0,8.m4v,1.0
2024-02-27 09:58:35.120968,1709024315.120968,-53.7109375,-55.17578125,-49.8046875,-49.31640625,-1.0,1.0,0.0,0.0,8.m4v,1.0
2024-02-27 09:58:35.124873,1709024315.1248734,-50.29296875,-30.2734375,-45.41015625,-47.8515625,-1.0,1.0,0.0,0.0,8.m4v,1.0
2024-02-27 09:58:35.128778,1709024315.1287785,-41.50390625,-19.53125,-32.71484375,-27.83203125,-1.0,1.0,0.0,0.0,8.m4v,1.0
2024-02-27 09:58:35.132684,1709024315.1326838,-65.4296875,-44.921875,-39.55078125,-49.8046875,-1.0,1.0,0.0,0.0,8.m4v,1.0
2024-02-27 09:58:35.136598,1709024315.1365983,-35.64453125,-27.83203125,-34.1796875,-32.2265625,-1.0,1.0,0.0,0.0,8.m4v,1.0
2024-02-27 09:58:35.140503,1709024315.1405034,-22.94921875,-43.9453125,-42.96875,-23.92578125,-1.0,1.0,0.0,0.0,8.m4v,1.0
2024-02-27 09:58:35.144409,1709024315.1444087,-34.66796875,-64.453125,-41.50390625,-27.83203125,-1.0,1.0,0.0,0.0,8.m4v,1.0
2024-02-27 09:58:35.148314,1709024315.148314,-25.390625,-39.55078125,-35.64453125,-10.25390625,-1.0,1.0,0.0,0.0,8.m4v,1.0
2024-02-27 09:58:35.152219,1709024315.152219,-47.8515625,-37.109375,-39.0625,-39.0625,-1.0,1.0,0.0,0.0,8.m4v,1.0
2024-02-27 09:58:35.156124,1709024315.1561244,-44.921875,-28.80859375,-37.59765625,-57.6171875,-1.0,1.0,0.0,0.0,8.m4v,1.0
2024-02-27 09:58:35.160029,1709024315.1600294,-9.765625,-16.11328125,-31.73828125,-36.1328125,-1.0,1.0,0.0,0.0,8.m4v,1.0
2024-02-27 09:58:35.163935,1709024315.1639347,10.25390625,-3.41796875,0.9765625,17.08984375,-1.0,1.0,0.0,0.0,8.m4v,1.0
2024-02-27 09:58:35.167840,1709024315.1678398,-15.13671875,-19.04296875,-22.4609375,-11.71875,-1.0,1.0,0.0,0.0,8.m4v,1.0
2024-02-27 09:58:35.171745,1709024315.171745,-45.41015625,-53.7109375,-41.015625,-62.5,-1.0,1.0,0.0,0.0,8.m4v,1.0
2024-02-27 09:58:35.175650,1709024315.1756504,-39.55078125,-52.734375,-25.87890625,-37.59765625,-1.0,1.0,0.0,0.0,8.m4v,1.0
2024-02-27 09:58:35.179555,1709024315.1795554,-39.0625,-56.15234375,-52.24609375,-46.875,-1.0,1.0,0.0,0.0,8.m4v,1.0
2024-02-27 09:58:35.183469,1709024315.1834693,-41.015625,-53.7109375,-48.828125,-52.24609375,-1.0,1.0,0.0,0.0,8.m4v,1.0
2024-02-27 09:58:35.187374,1709024315.1873744,-38.0859375,-43.45703125,-38.57421875,-32.71484375,-1.0,1.0,0.0,0.0,8.m4v,1.0
2024-02-27 09:58:35.191280,1709024315.1912796,-46.38671875,-42.48046875,-46.38671875,-35.64453125,-1.0,1.0,0.0,0.0,8.m4v,1.0
2024-02-27 09:58:35.195185,1709024315.1951847,-32.71484375,-30.2734375,-32.71484375,-30.76171875,-1.0,1.0,0.0,0.0,8.m4v,1.0
2024-02-27 09:58:35.199090,1709024315.19909,-8.7890625,-18.06640625,-16.11328125,-4.8828125,-1.0,1.0,0.0,0.0,8.m4v,1.0
2024-02-27 09:58:35.202995,1709024315.2029953,-16.11328125,-19.53125,-19.04296875,1.953125,-1.0,1.0,0.0,0.0,8.m4v,1.0
2024-02-27 09:58:35.652167,1709024315.652167,-55.6640625,-75.1953125,-36.62109375,-56.15234375,-1.0,1.0,0.0,0.0,8.m4v,1.0
2024-02-27 09:58:35.656072,1709024315.6560724,-39.0625,-57.12890625,-30.2734375,-53.7109375,-1.0,1.0,0.0,0.0,8.m4v,1.0
2024-02-27 09:58:35.659977,1709024315.6599774,-20.5078125,-20.5078125,-21.97265625,-43.45703125,-1.0,1.0,0.0,0.0,8.m4v,1.0
2024-02-27 09:58:35.663883,1709024315.6638827,-23.92578125,-14.6484375,-32.71484375,-44.921875,-1.0,1.0,0.0,0.0,8.m4v,1.0
2024-02-27 09:58:35.667788,1709024315.6677878,-40.0390625,-32.2265625,-52.734375,-49.31640625,-1.0,1.0,0.0,0.0,8.m4v,1.0
2024-02-27 09:58:35.671693,1709024315.671693,1.953125,3.41796875,-14.16015625,-3.90625,-1.0,1.0,0.0,0.0,8.m4v,1.0
2024-02-27 09:58:35.675598,1709024315.6755984,54.6875,52.734375,11.23046875,48.33984375,-1.0,1.0,0.0,0.0,8.m4v,1.0
2024-02-27 09:58:35.679503,1709024315.6795034,6.34765625,2.44140625,-39.55078125,-2.9296875,-1.0,1.0,0.0,0.0,8.m4v,1.0
2024-02-27 09:58:35.683409,1709024315.6834087,-41.9921875,-50.29296875,-74.21875,-68.359375,-1.0,1.0,0.0,0.0,8.m4v,1.0
2024-02-27 09:58:35.687314,1709024315.6873138,-52.734375,-65.91796875,-70.80078125,-64.453125,-1.0,1.0,0.0,0.0,8.m4v,1.0
2024-02-27 09:58:35.691219,1709024315.691219,-62.5,-73.2421875,-55.17578125,-64.453125,-1.0,1.0,0.0,0.0,8.m4v,1.0
2024-02-27 09:58:35.695124,1709024315.6951244,-25.390625,-42.96875,-14.16015625,-30.2734375,-1.0,1.0,0.0,0.0,8.m4v,1.0
2024-02-27 09:58:35.699036,1709024315.699036,-17.578125,-22.4609375,-2.44140625,-17.08984375,-1.0,1.0,0.0,0.0,8.m4v,1.0
2024-02-27 09:58:35.702941,1709024315.7029414,-22.94921875,-20.5078125,-9.765625,-34.1796875,-1.0,1.0,0.0,0.0,8.m4v,1.0
2024-02-27 09:58:35.706846,1709024315.7068465,-30.2734375,-28.3203125,-26.3671875,-40.0390625,-1.0,1.0,0.0,0.0,8.m4v,1.0
2024-02-27 09:58:35.710752,1709024315.7107518,-55.6640625,-50.78125,-75.1953125,-59.5703125,-1.0,1.0,0.0,0.0,8.m4v,1.0
2024-02-27 09:58:35.714657,1709024315.714657,-39.55078125,-46.38671875,-65.4296875,-53.22265625,-1.0,1.0,0.0,0.0,8.m4v,1.0
2024-02-27 09:58:35.718562,1709024315.718562,-19.53125,-32.71484375,-28.3203125,-28.80859375,-1.0,1.0,0.0,0.0,8.m4v,1.0
2024-02-27 09:58:35.722467,1709024315.7224674,-22.94921875,-28.80859375,-30.76171875,-10.7421875,-1.0,1.0,0.0,0.0,8.m4v,1.0
2024-02-27 09:58:35.726372,1709024315.7263725,-24.4140625,-20.99609375,-35.64453125,-13.18359375,-1.0,1.0,0.0,0.0,8.m4v,1.0
2024-02-27 09:58:35.730278,1709024315.7302778,-0.48828125,0.9765625,-9.765625,-14.6484375,-1.0,1.0,0.0,0.0,8.m4v,1.0
2024-02-27 09:58:35.734183,1709024315.734183,-2.9296875,-30.76171875,-27.34375,-23.4375,-1.0,1.0,0.0,0.0,8.m4v,1.0
2024-02-27 09:58:35.738088,1709024315.738088,-30.2734375,-66.40625,-51.7578125,-26.85546875,-1.0,1.0,0.0,0.0,8.m4v,1.0
2024-02-27 09:58:35.741993,1709024315.7419934,-65.4296875,-58.10546875,-59.08203125,-33.203125,-1.0,1.0,0.0,0.0,8.m4v,1.0
2024-02-27 09:58:35.745904,1709024315.745904,-75.1953125,-46.875,-80.078125,-59.5703125,-1.0,1.0,0.0,0.0,8.m4v,1.0
2024-02-27 09:58:35.749809,1709024315.7498093,-20.5078125,-4.39453125,-27.83203125,-37.59765625,-1.0,1.0,0.0,0.0,8.m4v,1.0
2024-02-27 09:58:35.753714,1709024315.7537143,-0.9765625,-3.41796875,4.39453125,-27.83203125,-1.0,1.0,0.0,0.0,8.m4v,1.0
2024-02-27 09:58:35.757620,1709024315.7576196,-39.55078125,-53.7109375,-39.0625,-50.29296875,-1.0,1.0,0.0,0.0,8.m4v,1.0
2024-02-27 09:58:35.761525,1709024315.761525,-45.41015625,-42.96875,-38.57421875,-46.38671875,-1.0,1.0,0.0,0.0,8.m4v,1.0
2024-02-27 09:58:35.765430,1709024315.76543,-20.01953125,-20.01953125,-14.16015625,-16.11328125,-1.0,1.0,0.0,0.0,8.m4v,1.0
2024-02-27 09:58:35.769335,1709024315.7693353,-27.83203125,-32.2265625,-29.78515625,-8.30078125,-1.0,1.0,0.0,0.0,8.m4v,1.0
2024-02-27 09:58:35.773240,1709024315.7732403,-47.36328125,-48.828125,-51.26953125,-46.38671875,-1.0,1.0,0.0,0.0,8.m4v,1.0
2024-02-27 09:58:35.777146,1709024315.7771456,-27.34375,-57.12890625,-47.36328125,-61.5234375,-1.0,1.0,0.0,0.0,8.m4v,1.0
2024-02-27 09:58:35.781051,1709024315.7810507,-29.78515625,-56.15234375,-39.55078125,-47.36328125,-1.0,1.0,0.0,0.0,8.m4v,1.0
2024-02-27 09:58:35.784956,1709024315.784956,-36.62109375,-35.64453125,-32.71484375,-32.2265625,-1.0,1.0,0.0,0.0,8.m4v,1.0
2024-02-27 09:58:35.788861,1709024315.7888613,-36.62109375,-30.76171875,-33.203125,-26.85546875,-1.0,1.0,0.0,0.0,8.m4v,1.0
2024-02-27 09:58:35.792772,1709024315.7927718,-22.94921875,-24.90234375,-21.97265625,3.41796875,-1.0,1.0,0.0,0.0,8.m4v,1.0
2024-02-27 09:58:35.796677,1709024315.796677,10.7421875,4.39453125,1.953125,12.6953125,-1.0,1.0,0.0,0.0,8.m4v,1.0
2024-02-27 09:58:35.800582,1709024315.8005822,-13.671875,-7.8125,-16.6015625,-26.3671875,-1.0,1.0,0.0,0.0,8.m4v,1.0
2024-02-27 09:58:35.804487,1709024315.8044877,-55.6640625,-35.15625,-41.015625,-42.96875,-1.0,1.0,0.0,0.0,8.m4v,1.0
2024-02-27 09:58:35.808393,1709024315.8083928,-59.08203125,-46.875,-59.08203125,-47.36328125,-1.0,1.0,0.0,0.0,8.m4v,1.0
2024-02-27 09:58:35.812298,1709024315.8122978,-41.9921875,-40.52734375,-52.734375,-43.9453125,-1.0,1.0,0.0,0.0,8.m4v,1.0
2024-02-27 09:58:35.816203,1709024315.816203,-40.52734375,-26.85546875,-34.66796875,-37.109375,-1.0,1.0,0.0,0.0,8.m4v,1.0
2024-02-27 09:58:35.820108,1709024315.8201082,-42.96875,-41.50390625,-40.52734375,-53.22265625,-1.0,1.0,0.0,0.0,8.m4v,1.0
2024-02-27 09:58:35.824013,1709024315.8240137,-31.73828125,-40.0390625,-11.23046875,-36.62109375,-1.0,1.0,0.0,0.0,8.m4v,1.0
2024-02-27 09:58:35.827919,1709024315.8279188,-32.2265625,-26.3671875,-7.32421875,-20.5078125,-1.0,1.0,0.0,0.0,8.m4v,1.0
2024-02-27 09:58:35.831824,1709024315.8318238,-18.5546875,-32.2265625,-16.11328125,-7.32421875,-1.0,1.0,0.0,0.0,8.m4v,1.0
2024-02-27 09:58:35.835729,1709024315.8357291,-12.20703125,-24.90234375,-10.25390625,-4.39453125,-1.0,1.0,0.0,0.0,8.m4v,1.0
2024-02-27 09:58:35.839639,1709024315.8396387,-0.48828125,-9.765625,-35.64453125,-8.7890625,-1.0,1.0,0.0,0.0,8.m4v,1.0
2024-02-27 09:58:35.843544,1709024315.843544,2.44140625,-32.71484375,-57.6171875,0.48828125,-1.0,1.0,0.0,0.0,8.m4v,1.0
2024-02-27 09:58:35.847449,1709024315.8474493,-11.23046875,-51.26953125,-47.36328125,-7.32421875,-1.0,1.0,0.0,0.0,8.m4v,1.0
2024-02-27 09:58:35.851354,1709024315.8513544,-24.90234375,-27.83203125,-20.5078125,-14.16015625,-1.0,1.0,0.0,0.0,8.m4v,1.0
2024-02-27 09:58:35.855260,1709024315.8552597,-62.01171875,-26.85546875,-28.3203125,-63.96484375,-1.0,1.0,0.0,0.0,8.m4v,1.0
2024-02-27 09:58:35.859165,1709024315.8591647,-70.3125,-39.0625,-48.828125,-92.7734375,-1.0,1.0,0.0,0.0,8.m4v,1.0
2024-02-27 09:58:35.863070,1709024315.86307,-43.9453125,-33.203125,-32.71484375,-62.5,-1.0,1.0,0.0,0.0,8.m4v,1.0
2024-02-27 09:58:35.866975,1709024315.8669753,6.34765625,2.44140625,-5.859375,-5.859375,-1.0,1.0,0.0,0.0,8.m4v,1.0
2024-02-27 09:58:35.870880,1709024315.8708804,29.296875,10.7421875,1.46484375,26.3671875,-1.0,1.0,0.0,0.0,8.m4v,1.0
2024-02-27 09:58:35.874786,1709024315.8747857,-0.9765625,-32.2265625,-33.203125,-12.6953125,-1.0,1.0,0.0,0.0,8.m4v,1.0
2024-02-27 09:58:35.878691,1709024315.8786907,-38.0859375,-61.03515625,-67.87109375,-52.24609375,-1.0,1.0,0.0,0.0,8.m4v,1.0
2024-02-27 09:58:35.882596,1709024315.882596,-57.12890625,-66.40625,-46.38671875,-53.22265625,-1.0,1.0,0.0,0.0,8.m4v,1.0
2024-02-27 09:58:35.886510,1709024315.8865104,-35.15625,-40.0390625,-7.32421875,-39.55078125,-1.0,1.0,0.0,0.0,8.m4v,1.0
2024-02-27 09:58:35.890415,1709024315.8904154,-20.5078125,-19.04296875,-22.4609375,-42.48046875,-1.0,1.0,0.0,0.0,8.m4v,1.0
2024-02-27 09:58:35.894321,1709024315.8943207,-22.94921875,-27.34375,-43.45703125,-33.69140625,-1.0,1.0,0.0,0.0,8.m4v,1.0
2024-02-27 09:58:35.898226,1709024315.898226,-25.390625,-34.1796875,-25.87890625,-22.4609375,-1.0,1.0,0.0,0.0,8.m4v,1.0
2024-02-27 09:58:35.902131,1709024315.902131,-19.04296875,-22.94921875,-6.8359375,-24.90234375,-1.0,1.0,0.0,0.0,8.m4v,1.0
2024-02-27 09:58:35.906036,1709024315.9060364,-28.80859375,-5.859375,-25.87890625,-26.85546875,-1.0,1.0,0.0,0.0,8.m4v,1.0
2024-02-27 09:58:35.909941,1709024315.9099414,-49.31640625,-17.08984375,-62.01171875,-41.50390625,-1.0,1.0,0.0,0.0,8.m4v,1.0
2024-02-27 09:58:35.913847,1709024315.9138467,-33.203125,-38.0859375,-52.24609375,-42.96875,-1.0,1.0,0.0,0.0,8.m4v,1.0
