Timestamp,Timestamp_UNIX,TP9,AF7,AF8,TP10,Valence,Arousal,Dominace,Viewed,Video,Participant
2024-02-27 11:13:36.003214,1709028816.0032136,-41.9921875,-29.296875,-27.34375,-16.11328125,-1.0,-1.0,1.0,0.0,1.m4v,3.0
2024-02-27 11:13:36.007127,1709028816.007127,-35.64453125,-28.3203125,-20.99609375,16.6015625,-1.0,-1.0,1.0,0.0,1.m4v,3.0
2024-02-27 11:13:36.011032,1709028816.0110323,-32.2265625,-37.59765625,-30.2734375,-15.13671875,-1.0,-1.0,1.0,0.0,1.m4v,3.0
2024-02-27 11:13:36.014938,1709028816.0149376,-38.0859375,-42.96875,-48.33984375,-74.70703125,-1.0,-1.0,1.0,0.0,1.m4v,3.0
2024-02-27 11:13:36.018843,1709028816.018843,-30.76171875,-53.22265625,-34.66796875,-78.61328125,-1.0,-1.0,1.0,0.0,1.m4v,3.0
2024-02-27 11:13:36.022748,1709028816.0227482,-29.296875,-39.0625,-27.83203125,-27.34375,-1.0,-1.0,1.0,0.0,1.m4v,3.0
2024-02-27 11:13:36.026654,1709028816.0266538,-33.203125,3.41796875,-44.43359375,-3.41796875,-1.0,-1.0,1.0,0.0,1.m4v,3.0
2024-02-27 11:13:36.030559,1709028816.030559,-36.1328125,53.22265625,-46.38671875,-17.08984375,-1.0,-1.0,1.0,0.0,1.m4v,3.0
2024-02-27 11:13:36.034464,1709028816.0344644,-55.6640625,-12.20703125,-59.5703125,-73.2421875,-1.0,-1.0,1.0,0.0,1.m4v,3.0
2024-02-27 11:13:36.038370,1709028816.0383697,-50.78125,-109.375,-56.15234375,-107.421875,-1.0,-1.0,1.0,0.0,1.m4v,3.0
2024-02-27 11:13:36.042275,1709028816.042275,-42.48046875,-93.26171875,-33.69140625,-54.19921875,-1.0,-1.0,1.0,0.0,1.m4v,3.0
2024-02-27 11:13:36.046180,1709028816.0461802,-27.34375,-29.296875,-34.1796875,4.8828125,-1.0,-1.0,1.0,0.0,1.m4v,3.0
2024-02-27 11:13:36.050086,1709028816.0500858,-19.53125,-0.9765625,-31.73828125,-0.9765625,-1.0,-1.0,1.0,0.0,1.m4v,3.0
2024-02-27 11:13:36.053998,1709028816.0539985,-34.66796875,-49.31640625,-26.3671875,-64.94140625,-1.0,-1.0,1.0,0.0,1.m4v,3.0
2024-02-27 11:13:36.057904,1709028816.0579038,-46.875,-68.84765625,-36.1328125,-91.30859375,-1.0,-1.0,1.0,0.0,1.m4v,3.0
2024-02-27 11:13:36.061809,1709028816.061809,-41.015625,-11.71875,-32.2265625,-22.94921875,-1.0,-1.0,1.0,0.0,1.m4v,3.0
2024-02-27 11:13:36.065714,1709028816.0657144,-33.69140625,2.9296875,-17.578125,35.15625,-1.0,-1.0,1.0,0.0,1.m4v,3.0
2024-02-27 11:13:36.069620,1709028816.0696197,-32.2265625,-55.6640625,-20.5078125,6.8359375,-1.0,-1.0,1.0,0.0,1.m4v,3.0
2024-02-27 11:13:36.073525,1709028816.0735252,-28.80859375,-27.83203125,-48.33984375,-42.96875,-1.0,-1.0,1.0,0.0,1.m4v,3.0
2024-02-27 11:13:36.475845,1709028816.4758446,-43.9453125,-30.2734375,-53.7109375,-88.8671875,-1.0,-1.0,1.0,0.0,1.m4v,3.0
2024-02-27 11:13:36.479750,1709028816.47975,-26.85546875,-33.69140625,-41.9921875,-64.94140625,-1.0,-1.0,1.0,0.0,1.m4v,3.0
2024-02-27 11:13:36.483655,1709028816.4836552,-22.94921875,-23.4375,-28.3203125,-7.8125,-1.0,-1.0,1.0,0.0,1.m4v,3.0
2024-02-27 11:13:36.487561,1709028816.4875605,-26.85546875,-20.5078125,-42.96875,4.39453125,-1.0,-1.0,1.0,0.0,1.m4v,3.0
2024-02-27 11:13:36.491466,1709028816.491466,-30.2734375,-27.83203125,-49.31640625,-28.3203125,-1.0,-1.0,1.0,0.0,1.m4v,3.0
2024-02-27 11:13:36.495371,1709028816.495371,-41.9921875,2.44140625,-38.0859375,-74.21875,-1.0,-1.0,1.0,0.0,1.m4v,3.0
2024-02-27 11:13:36.499277,1709028816.4992766,-58.59375,-31.25,-46.38671875,-90.8203125,-1.0,-1.0,1.0,0.0,1.m4v,3.0
2024-02-27 11:13:36.503182,1709028816.503182,-64.453125,-89.84375,-42.96875,-45.41015625,-1.0,-1.0,1.0,0.0,1.m4v,3.0
2024-02-27 11:13:36.507087,1709028816.5070872,-43.9453125,-23.4375,-29.78515625,11.71875,-1.0,-1.0,1.0,0.0,1.m4v,3.0
2024-02-27 11:13:36.510993,1709028816.5109928,-23.4375,16.11328125,-31.73828125,-2.44140625,-1.0,-1.0,1.0,0.0,1.m4v,3.0
2024-02-27 11:13:36.514898,1709028816.514898,-34.1796875,-49.8046875,-30.76171875,-70.3125,-1.0,-1.0,1.0,0.0,1.m4v,3.0
2024-02-27 11:13:36.518803,1709028816.5188034,-37.109375,-84.47265625,-19.04296875,-76.66015625,-1.0,-1.0,1.0,0.0,1.m4v,3.0
2024-02-27 11:13:36.522715,1709028816.5227146,-34.1796875,-57.12890625,-17.578125,-23.4375,-1.0,-1.0,1.0,0.0,1.m4v,3.0
2024-02-27 11:13:36.526620,1709028816.52662,-23.92578125,-26.85546875,-29.78515625,11.71875,-1.0,-1.0,1.0,0.0,1.m4v,3.0
2024-02-27 11:13:36.530525,1709028816.5305252,-8.7890625,-12.20703125,-26.3671875,0.48828125,-1.0,-1.0,1.0,0.0,1.m4v,3.0
2024-02-27 11:13:36.534431,1709028816.5344307,-29.296875,-56.15234375,-21.484375,-71.77734375,-1.0,-1.0,1.0,0.0,1.m4v,3.0
2024-02-27 11:13:36.538336,1709028816.538336,-47.36328125,-89.35546875,-19.53125,-97.16796875,-1.0,-1.0,1.0,0.0,1.m4v,3.0
2024-02-27 11:13:36.542241,1709028816.542241,-47.8515625,6.8359375,-20.5078125,-27.83203125,-1.0,-1.0,1.0,0.0,1.m4v,3.0
2024-02-27 11:13:36.546147,1709028816.5461466,-27.83203125,44.43359375,-26.85546875,38.57421875,-1.0,-1.0,1.0,0.0,1.m4v,3.0
2024-02-27 11:13:36.550052,1709028816.550052,-11.71875,-45.41015625,-28.80859375,9.765625,-1.0,-1.0,1.0,0.0,1.m4v,3.0
2024-02-27 11:13:36.553957,1709028816.5539577,-21.484375,-97.16796875,-39.55078125,-67.87109375,-1.0,-1.0,1.0,0.0,1.m4v,3.0
2024-02-27 11:13:36.557863,1709028816.5578628,-32.2265625,-83.984375,-37.59765625,-83.49609375,-1.0,-1.0,1.0,0.0,1.m4v,3.0
2024-02-27 11:13:36.561768,1709028816.561768,-29.78515625,-45.8984375,-23.4375,-40.0390625,-1.0,-1.0,1.0,0.0,1.m4v,3.0
2024-02-27 11:13:36.565673,1709028816.5656734,-27.83203125,-21.97265625,-26.85546875,16.11328125,-1.0,-1.0,1.0,0.0,1.m4v,3.0
2024-02-27 11:13:36.569591,1709028816.5695908,-22.94921875,22.4609375,-21.484375,22.4609375,-1.0,-1.0,1.0,0.0,1.m4v,3.0
2024-02-27 11:13:36.573496,1709028816.573496,-25.87890625,-9.27734375,-19.53125,-54.19921875,-1.0,-1.0,1.0,0.0,1.m4v,3.0
2024-02-27 11:13:36.577402,1709028816.5774016,-26.3671875,-72.75390625,-26.85546875,-94.23828125,-1.0,-1.0,1.0,0.0,1.m4v,3.0
2024-02-27 11:13:36.581307,1709028816.581307,-40.52734375,-52.734375,-27.83203125,-62.5,-1.0,-1.0,1.0,0.0,1.m4v,3.0
2024-02-27 11:13:36.585212,1709028816.5852122,-54.6875,-39.0625,-40.52734375,-26.85546875,-1.0,-1.0,1.0,0.0,1.m4v,3.0
2024-02-27 11:13:36.589118,1709028816.5891175,-47.36328125,35.64453125,-43.9453125,-11.71875,-1.0,-1.0,1.0,0.0,1.m4v,3.0
2024-02-27 11:13:36.593023,1709028816.5930228,-48.33984375,71.2890625,-39.55078125,-57.6171875,-1.0,-1.0,1.0,0.0,1.m4v,3.0
2024-02-27 11:13:36.596928,1709028816.5969284,-52.734375,-51.26953125,-46.875,-113.28125,-1.0,-1.0,1.0,0.0,1.m4v,3.0
2024-02-27 11:13:36.600834,1709028816.6008337,-42.96875,-62.5,-46.38671875,-85.9375,-1.0,-1.0,1.0,0.0,1.m4v,3.0
2024-02-27 11:13:36.604739,1709028816.604739,-34.66796875,7.8125,-28.3203125,-18.06640625,-1.0,-1.0,1.0,0.0,1.m4v,3.0
2024-02-27 11:13:36.608644,1709028816.6086442,-27.34375,16.6015625,-18.5546875,11.23046875,-1.0,-1.0,1.0,0.0,1.m4v,3.0
2024-02-27 11:13:36.612550,1709028816.6125495,-30.2734375,-7.32421875,-23.92578125,-34.66796875,-1.0,-1.0,1.0,0.0,1.m4v,3.0
2024-02-27 11:13:36.616465,1709028816.616465,-43.9453125,-18.5546875,-31.73828125,-91.30859375,-1.0,-1.0,1.0,0.0,1.m4v,3.0
2024-02-27 11:13:36.620371,1709028816.6203709,-36.1328125,20.5078125,-46.38671875,-72.265625,-1.0,-1.0,1.0,0.0,1.m4v,3.0
2024-02-27 11:13:36.624276,1709028816.6242762,-24.4140625,44.43359375,-36.62109375,-12.6953125,-1.0,-1.0,1.0,0.0,1.m4v,3.0
2024-02-27 11:13:36.628181,1709028816.6281817,-28.80859375,78.61328125,-17.578125,20.5078125,-1.0,-1.0,1.0,0.0,1.m4v,3.0
2024-02-27 11:13:36.632087,1709028816.6320868,-41.50390625,55.6640625,-46.875,-29.296875,-1.0,-1.0,1.0,0.0,1.m4v,3.0
2024-02-27 11:13:36.635992,1709028816.635992,-42.96875,53.7109375,-38.57421875,-68.84765625,-1.0,-1.0,1.0,0.0,1.m4v,3.0
2024-02-27 11:13:36.639897,1709028816.639897,-34.66796875,87.890625,-21.484375,-53.7109375,-1.0,-1.0,1.0,0.0,1.m4v,3.0
2024-02-27 11:13:36.643803,1709028816.643803,-30.2734375,38.0859375,-18.5546875,-20.99609375,-1.0,-1.0,1.0,0.0,1.m4v,3.0
2024-02-27 11:13:36.647708,1709028816.6477082,-18.5546875,37.109375,-16.11328125,17.578125,-1.0,-1.0,1.0,0.0,1.m4v,3.0
2024-02-27 11:13:36.651613,1709028816.6516137,-23.92578125,16.6015625,-38.0859375,-36.1328125,-1.0,-1.0,1.0,0.0,1.m4v,3.0
2024-02-27 11:13:36.655519,1709028816.6555188,-35.64453125,-0.9765625,-53.22265625,-90.8203125,-1.0,-1.0,1.0,0.0,1.m4v,3.0
2024-02-27 11:13:36.659424,1709028816.659424,-32.71484375,13.18359375,-48.33984375,-73.2421875,-1.0,-1.0,1.0,0.0,1.m4v,3.0
2024-02-27 11:13:36.663339,1709028816.6633391,-31.25,19.04296875,-47.8515625,-32.71484375,-1.0,-1.0,1.0,0.0,1.m4v,3.0
2024-02-27 11:13:36.667244,1709028816.6672444,-28.80859375,38.57421875,-47.36328125,6.8359375,-1.0,-1.0,1.0,0.0,1.m4v,3.0
2024-02-27 11:13:36.671150,1709028816.67115,-28.80859375,24.4140625,-33.203125,-22.4609375,-1.0,-1.0,1.0,0.0,1.m4v,3.0
2024-02-27 11:13:36.675055,1709028816.6750553,-26.3671875,6.34765625,-29.296875,-88.37890625,-1.0,-1.0,1.0,0.0,1.m4v,3.0
2024-02-27 11:13:36.678961,1709028816.6789606,-32.2265625,15.13671875,-38.0859375,-90.33203125,-1.0,-1.0,1.0,0.0,1.m4v,3.0
2024-02-27 11:13:36.682866,1709028816.682866,-28.80859375,70.3125,-31.73828125,-17.578125,-1.0,-1.0,1.0,0.0,1.m4v,3.0
2024-02-27 11:13:36.686771,1709028816.6867712,-21.97265625,102.05078125,-23.92578125,28.3203125,-1.0,-1.0,1.0,0.0,1.m4v,3.0
2024-02-27 11:13:36.690677,1709028816.6906767,-39.0625,9.765625,-32.2265625,-12.6953125,-1.0,-1.0,1.0,0.0,1.m4v,3.0
2024-02-27 11:13:36.694582,1709028816.694582,-47.8515625,-84.9609375,-40.0390625,-78.61328125,-1.0,-1.0,1.0,0.0,1.m4v,3.0
2024-02-27 11:13:36.698487,1709028816.6984873,-50.78125,-97.16796875,-32.2265625,-86.9140625,-1.0,-1.0,1.0,0.0,1.m4v,3.0
2024-02-27 11:13:36.702393,1709028816.7023926,-46.875,-49.8046875,-18.06640625,-30.2734375,-1.0,-1.0,1.0,0.0,1.m4v,3.0
2024-02-27 11:13:36.706298,1709028816.706298,-38.0859375,-21.97265625,-13.18359375,11.23046875,-1.0,-1.0,1.0,0.0,1.m4v,3.0
2024-02-27 11:13:36.710212,1709028816.7102122,-29.296875,-15.13671875,-16.11328125,0.9765625,-1.0,-1.0,1.0,0.0,1.m4v,3.0
2024-02-27 11:13:36.714118,1709028816.7141175,-30.76171875,-25.390625,-20.99609375,-51.26953125,-1.0,-1.0,1.0,0.0,1.m4v,3.0
2024-02-27 11:13:36.718023,1709028816.7180228,-47.36328125,-33.203125,-26.3671875,-67.87109375,-1.0,-1.0,1.0,0.0,1.m4v,3.0
2024-02-27 11:13:36.721928,1709028816.721928,-55.17578125,-18.06640625,-40.0390625,-18.5546875,-1.0,-1.0,1.0,0.0,1.m4v,3.0
2024-02-27 11:13:36.725833,1709028816.7258334,-51.26953125,-32.71484375,-45.8984375,11.23046875,-1.0,-1.0,1.0,0.0,1.m4v,3.0
2024-02-27 11:13:36.729739,1709028816.729739,-46.38671875,25.390625,-36.62109375,-10.7421875,-1.0,-1.0,1.0,0.0,1.m4v,3.0
2024-02-27 11:13:36.733644,1709028816.7336442,-43.45703125,37.109375,-15.625,-56.640625,-1.0,-1.0,1.0,0.0,1.m4v,3.0
2024-02-27 11:13:36.737550,1709028816.7375495,-47.36328125,-71.2890625,-10.7421875,-80.56640625,-1.0,-1.0,1.0,0.0,1.m4v,3.0
2024-02-27 11:13:36.741455,1709028816.7414548,-41.015625,-86.9140625,-21.97265625,-35.15625,-1.0,-1.0,1.0,0.0,1.m4v,3.0
2024-02-27 11:13:36.745360,1709028816.74536,-36.1328125,-33.69140625,-22.94921875,11.23046875,-1.0,-1.0,1.0,0.0,1.m4v,3.0
2024-02-27 11:13:36.749266,1709028816.7492657,-46.38671875,14.16015625,-20.5078125,-14.6484375,-1.0,-1.0,1.0,0.0,1.m4v,3.0
2024-02-27 11:13:36.753171,1709028816.753171,-49.8046875,-45.41015625,-33.203125,-73.2421875,-1.0,-1.0,1.0,0.0,1.m4v,3.0
2024-02-27 11:13:36.757084,1709028816.7570844,-46.875,-101.07421875,-46.875,-93.75,-1.0,-1.0,1.0,0.0,1.m4v,3.0
2024-02-27 11:13:36.760990,1709028816.7609897,-48.33984375,-51.26953125,-38.0859375,-47.36328125,-1.0,-1.0,1.0,0.0,1.m4v,3.0
2024-02-27 11:13:36.764895,1709028816.764895,-38.57421875,-26.85546875,-32.2265625,19.53125,-1.0,-1.0,1.0,0.0,1.m4v,3.0
2024-02-27 11:13:36.768800,1709028816.7688005,-26.3671875,-25.87890625,-37.109375,21.484375,-1.0,-1.0,1.0,0.0,1.m4v,3.0
2024-02-27 11:13:36.772706,1709028816.7727058,-37.109375,-36.62109375,-32.71484375,-47.8515625,-1.0,-1.0,1.0,0.0,1.m4v,3.0
2024-02-27 11:13:36.776611,1709028816.776611,-34.1796875,22.94921875,-23.4375,-67.87109375,-1.0,-1.0,1.0,0.0,1.m4v,3.0
2024-02-27 11:13:36.780516,1709028816.7805164,-23.92578125,20.01953125,-7.8125,-30.76171875,-1.0,-1.0,1.0,0.0,1.m4v,3.0
2024-02-27 11:13:36.784422,1709028816.7844217,-20.01953125,-56.640625,-3.41796875,6.8359375,-1.0,-1.0,1.0,0.0,1.m4v,3.0
2024-02-27 11:13:36.788327,1709028816.7883272,-15.13671875,-42.48046875,-18.06640625,19.53125,-1.0,-1.0,1.0,0.0,1.m4v,3.0
2024-02-27 11:13:36.792233,1709028816.7922325,-24.4140625,-39.55078125,-31.25,-36.1328125,-1.0,-1.0,1.0,0.0,1.m4v,3.0
2024-02-27 11:13:36.796138,1709028816.7961378,-39.55078125,-63.96484375,-33.203125,-91.796875,-1.0,-1.0,1.0,0.0,1.m4v,3.0
2024-02-27 11:13:36.800043,1709028816.800043,-32.2265625,-50.78125,-40.0390625,-51.26953125,-1.0,-1.0,1.0,0.0,1.m4v,3.0
2024-02-27 11:13:36.803957,1709028816.8039567,-28.80859375,-29.78515625,-41.50390625,11.71875,-1.0,-1.0,1.0,0.0,1.m4v,3.0
2024-02-27 11:13:36.807862,1709028816.807862,-28.80859375,-14.6484375,-24.90234375,18.5546875,-1.0,-1.0,1.0,0.0,1.m4v,3.0
2024-02-27 11:13:36.811767,1709028816.811767,-30.76171875,-32.2265625,-25.390625,-20.5078125,-1.0,-1.0,1.0,0.0,1.m4v,3.0
2024-02-27 11:13:36.815673,1709028816.8156726,-41.015625,-76.171875,-41.50390625,-68.359375,-1.0,-1.0,1.0,0.0,1.m4v,3.0
2024-02-27 11:13:36.819578,1709028816.8195782,-46.38671875,-72.75390625,-25.390625,-55.17578125,-1.0,-1.0,1.0,0.0,1.m4v,3.0
2024-02-27 11:13:36.823483,1709028816.8234837,-49.8046875,-6.34765625,-15.13671875,-0.9765625,-1.0,-1.0,1.0,0.0,1.m4v,3.0
2024-02-27 11:13:36.827389,1709028816.8273888,-45.8984375,6.8359375,-31.73828125,26.3671875,-1.0,-1.0,1.0,0.0,1.m4v,3.0
2024-02-27 11:13:36.831294,1709028816.831294,-40.52734375,-77.63671875,-36.1328125,-19.53125,-1.0,-1.0,1.0,0.0,1.m4v,3.0
2024-02-27 11:13:36.835199,1709028816.8351994,-45.8984375,-120.60546875,-30.76171875,-90.8203125,-1.0,-1.0,1.0,0.0,1.m4v,3.0
2024-02-27 11:13:36.839105,1709028816.839105,-47.36328125,-104.00390625,-24.4140625,-82.51953125,-1.0,-1.0,1.0,0.0,1.m4v,3.0
2024-02-27 11:13:36.843010,1709028816.8430102,-34.1796875,-40.52734375,-28.3203125,-16.11328125,-1.0,-1.0,1.0,0.0,1.m4v,3.0
2024-02-27 11:13:36.846915,1709028816.8469155,-23.92578125,-8.30078125,-47.8515625,14.16015625,-1.0,-1.0,1.0,0.0,1.m4v,3.0
2024-02-27 11:13:36.850827,1709028816.8508277,-23.92578125,-27.83203125,-50.29296875,-19.53125,-1.0,-1.0,1.0,0.0,1.m4v,3.0
2024-02-27 11:13:36.854733,1709028816.8547328,-21.97265625,-57.12890625,-33.203125,-67.87109375,-1.0,-1.0,1.0,0.0,1.m4v,3.0
2024-02-27 11:13:36.858638,1709028816.858638,-36.1328125,-60.546875,-37.59765625,-74.70703125,-1.0,-1.0,1.0,0.0,1.m4v,3.0
2024-02-27 11:13:36.862543,1709028816.862543,-41.50390625,-37.59765625,-37.59765625,-23.4375,-1.0,-1.0,1.0,0.0,1.m4v,3.0
2024-02-27 11:13:36.866449,1709028816.8664489,-37.109375,-20.99609375,-32.2265625,15.625,-1.0,-1.0,1.0,0.0,1.m4v,3.0
2024-02-27 11:13:36.870354,1709028816.8703542,-41.015625,15.625,-38.0859375,-8.7890625,-1.0,-1.0,1.0,0.0,1.m4v,3.0
2024-02-27 11:13:36.874259,1709028816.8742597,-36.1328125,13.671875,-29.296875,-62.5,-1.0,-1.0,1.0,0.0,1.m4v,3.0
2024-02-27 11:13:36.878165,1709028816.8781648,-30.76171875,-85.44921875,-47.36328125,-86.42578125,-1.0,-1.0,1.0,0.0,1.m4v,3.0
2024-02-27 11:13:36.882070,1709028816.88207,-42.48046875,-93.26171875,-63.96484375,-50.78125,-1.0,-1.0,1.0,0.0,1.m4v,3.0
2024-02-27 11:13:36.885976,1709028816.8859756,-47.36328125,-60.05859375,-37.59765625,-0.9765625,-1.0,-1.0,1.0,0.0,1.m4v,3.0
2024-02-27 11:13:36.889881,1709028816.889881,-53.22265625,-60.546875,-40.52734375,-13.671875,-1.0,-1.0,1.0,0.0,1.m4v,3.0
2024-02-27 11:13:36.893786,1709028816.8937862,-54.6875,-53.22265625,-47.8515625,-65.91796875,-1.0,-1.0,1.0,0.0,1.m4v,3.0
2024-02-27 11:13:36.897697,1709028816.8976974,-41.50390625,-57.6171875,-34.66796875,-85.44921875,-1.0,-1.0,1.0,0.0,1.m4v,3.0
2024-02-27 11:13:36.901603,1709028816.9016027,-35.15625,-52.24609375,-29.78515625,-56.640625,-1.0,-1.0,1.0,0.0,1.m4v,3.0
2024-02-27 11:13:36.905508,1709028816.905508,-32.2265625,-45.41015625,-26.3671875,5.37109375,-1.0,-1.0,1.0,0.0,1.m4v,3.0
2024-02-27 11:13:36.909413,1709028816.909413,-29.296875,-37.59765625,-46.875,14.6484375,-1.0,-1.0,1.0,0.0,1.m4v,3.0
2024-02-27 11:13:36.913319,1709028816.9133186,-23.4375,-47.36328125,-65.91796875,-41.9921875,-1.0,-1.0,1.0,0.0,1.m4v,3.0
2024-02-27 11:13:36.917224,1709028816.9172242,-16.6015625,18.5546875,-49.31640625,-57.6171875,-1.0,-1.0,1.0,0.0,1.m4v,3.0
2024-02-27 11:13:36.921129,1709028816.9211297,-24.90234375,46.875,-30.2734375,-36.1328125,-1.0,-1.0,1.0,0.0,1.m4v,3.0
2024-02-27 11:13:36.925035,1709028816.9250348,-37.59765625,-60.546875,-18.06640625,-15.625,-1.0,-1.0,1.0,0.0,1.m4v,3.0
2024-02-27 11:13:36.928940,1709028816.92894,-41.9921875,-43.45703125,-26.3671875,-15.625,-1.0,-1.0,1.0,0.0,1.m4v,3.0
2024-02-27 11:13:36.932845,1709028816.9328454,-43.45703125,-26.85546875,-42.96875,-69.3359375,-1.0,-1.0,1.0,0.0,1.m4v,3.0
2024-02-27 11:13:36.936751,1709028816.936751,-50.78125,-74.21875,-41.9921875,-105.46875,-1.0,-1.0,1.0,0.0,1.m4v,3.0
2024-02-27 11:13:36.940656,1709028816.9406562,-51.7578125,-44.43359375,-26.85546875,-63.4765625,-1.0,-1.0,1.0,0.0,1.m4v,3.0
2024-02-27 11:13:36.944566,1709028816.9445665,-43.45703125,-10.25390625,-21.484375,-5.859375,-1.0,-1.0,1.0,0.0,1.m4v,3.0
2024-02-27 11:13:36.948472,1709028816.9484718,-29.296875,-3.41796875,-28.3203125,21.484375,-1.0,-1.0,1.0,0.0,1.m4v,3.0
2024-02-27 11:13:36.952377,1709028816.952377,-12.20703125,-12.20703125,-30.2734375,-5.859375,-1.0,-1.0,1.0,0.0,1.m4v,3.0
2024-02-27 11:13:36.956283,1709028816.9562826,-20.5078125,-20.99609375,-35.15625,-62.01171875,-1.0,-1.0,1.0,0.0,1.m4v,3.0
2024-02-27 11:13:36.960188,1709028816.960188,-44.921875,-42.48046875,-41.9921875,-75.1953125,-1.0,-1.0,1.0,0.0,1.m4v,3.0
2024-02-27 11:13:36.964093,1709028816.9640932,-32.71484375,-0.48828125,-36.1328125,-18.5546875,-1.0,-1.0,1.0,0.0,1.m4v,3.0
2024-02-27 11:13:36.967999,1709028816.9679985,-25.390625,33.69140625,-45.41015625,8.7890625,-1.0,-1.0,1.0,0.0,1.m4v,3.0
2024-02-27 11:13:36.971904,1709028816.9719038,-42.48046875,-71.2890625,-64.453125,-46.875,-1.0,-1.0,1.0,0.0,1.m4v,3.0
2024-02-27 11:13:36.975809,1709028816.975809,-39.55078125,-97.65625,-62.01171875,-84.9609375,-1.0,-1.0,1.0,0.0,1.m4v,3.0
2024-02-27 11:13:36.979715,1709028816.9797146,-34.66796875,-60.05859375,-34.66796875,-64.453125,-1.0,-1.0,1.0,0.0,1.m4v,3.0
2024-02-27 11:13:36.983620,1709028816.98362,-41.50390625,-47.36328125,-23.92578125,-15.13671875,-1.0,-1.0,1.0,0.0,1.m4v,3.0
2024-02-27 11:13:36.987525,1709028816.9875252,-29.296875,13.18359375,-28.3203125,25.390625,-1.0,-1.0,1.0,0.0,1.m4v,3.0
2024-02-27 11:13:36.991436,1709028816.9914358,-21.484375,31.73828125,-35.15625,-5.37109375,-1.0,-1.0,1.0,0.0,1.m4v,3.0
2024-02-27 11:13:36.995341,1709028816.995341,-37.109375,-51.26953125,-31.25,-72.75390625,-1.0,-1.0,1.0,0.0,1.m4v,3.0
2024-02-27 11:13:36.999247,1709028816.9992466,-41.9921875,-67.3828125,-30.2734375,-66.89453125,-1.0,-1.0,1.0,0.0,1.m4v,3.0
2024-02-27 11:13:37.003152,1709028817.003152,-30.76171875,-20.01953125,-37.109375,-17.08984375,-1.0,-1.0,1.0,0.0,1.m4v,3.0
2024-02-27 11:13:37.007057,1709028817.0070572,-23.92578125,-3.90625,-28.80859375,26.3671875,-1.0,-1.0,1.0,0.0,1.m4v,3.0
2024-02-27 11:13:37.010962,1709028817.0109625,-36.1328125,6.34765625,-39.55078125,0.9765625,-1.0,-1.0,1.0,0.0,1.m4v,3.0
2024-02-27 11:13:37.014868,1709028817.0148678,-50.78125,12.6953125,-47.36328125,-54.6875,-1.0,-1.0,1.0,0.0,1.m4v,3.0
2024-02-27 11:13:37.018773,1709028817.0187733,-56.15234375,-67.87109375,-28.80859375,-77.1484375,-1.0,-1.0,1.0,0.0,1.m4v,3.0
2024-02-27 11:13:37.022679,1709028817.0226786,-44.921875,-91.796875,-1.46484375,-41.9921875,-1.0,-1.0,1.0,0.0,1.m4v,3.0
2024-02-27 11:13:37.026584,1709028817.026584,-39.55078125,-47.8515625,-5.859375,8.30078125,-1.0,-1.0,1.0,0.0,1.m4v,3.0
2024-02-27 11:13:37.030489,1709028817.0304892,-39.0625,-59.5703125,-30.2734375,-13.671875,-1.0,-1.0,1.0,0.0,1.m4v,3.0
2024-02-27 11:13:37.034395,1709028817.0343945,-35.64453125,-79.1015625,-20.01953125,-60.546875,-1.0,-1.0,1.0,0.0,1.m4v,3.0
2024-02-27 11:13:37.038310,1709028817.0383096,-28.80859375,-52.24609375,-17.578125,-62.5,-1.0,-1.0,1.0,0.0,1.m4v,3.0
2024-02-27 11:13:37.042215,1709028817.0422149,-31.25,-38.57421875,-32.71484375,-25.390625,-1.0,-1.0,1.0,0.0,1.m4v,3.0
2024-02-27 11:13:37.046120,1709028817.0461202,-19.53125,-20.5078125,-8.30078125,35.64453125,-1.0,-1.0,1.0,0.0,1.m4v,3.0
2024-02-27 11:13:37.050026,1709028817.0500257,-10.7421875,15.13671875,6.34765625,25.87890625,-1.0,-1.0,1.0,0.0,1.m4v,3.0
2024-02-27 11:13:37.053931,1709028817.053931,-21.97265625,-25.87890625,-1.953125,-41.9921875,-1.0,-1.0,1.0,0.0,1.m4v,3.0
2024-02-27 11:13:37.057836,1709028817.0578363,-34.1796875,-20.5078125,-9.765625,-57.12890625,-1.0,-1.0,1.0,0.0,1.m4v,3.0
2024-02-27 11:13:37.507024,1709028817.5070238,-36.1328125,-41.015625,-41.50390625,7.32421875,-1.0,-1.0,1.0,0.0,1.m4v,3.0
2024-02-27 11:13:37.510929,1709028817.510929,-25.390625,-29.296875,-55.6640625,-18.06640625,-1.0,-1.0,1.0,0.0,1.m4v,3.0
2024-02-27 11:13:37.514834,1709028817.5148344,-28.3203125,-65.4296875,-46.38671875,-65.4296875,-1.0,-1.0,1.0,0.0,1.m4v,3.0
2024-02-27 11:13:37.518740,1709028817.51874,-38.57421875,-83.0078125,-30.2734375,-76.171875,-1.0,-1.0,1.0,0.0,1.m4v,3.0
2024-02-27 11:13:37.522645,1709028817.5226452,-34.66796875,-65.91796875,-13.671875,-30.2734375,-1.0,-1.0,1.0,0.0,1.m4v,3.0
2024-02-27 11:13:37.526551,1709028817.5265503,-38.57421875,-9.27734375,-3.90625,17.578125,-1.0,-1.0,1.0,0.0,1.m4v,3.0
2024-02-27 11:13:37.530456,1709028817.5304558,-40.52734375,30.2734375,-25.390625,5.37109375,-1.0,-1.0,1.0,0.0,1.m4v,3.0
2024-02-27 11:13:37.534361,1709028817.5343611,-22.94921875,-27.34375,-38.0859375,-46.38671875,-1.0,-1.0,1.0,0.0,1.m4v,3.0
2024-02-27 11:13:37.538267,1709028817.538267,-34.1796875,-116.2109375,-29.78515625,-84.9609375,-1.0,-1.0,1.0,0.0,1.m4v,3.0
2024-02-27 11:13:37.542172,1709028817.542172,-52.734375,-116.2109375,-31.73828125,-51.7578125,-1.0,-1.0,1.0,0.0,1.m4v,3.0
2024-02-27 11:13:37.546077,1709028817.5460773,-46.875,-73.2421875,-26.3671875,13.671875,-1.0,-1.0,1.0,0.0,1.m4v,3.0
2024-02-27 11:13:37.549983,1709028817.5499823,-37.59765625,-46.875,-23.4375,10.25390625,-1.0,-1.0,1.0,0.0,1.m4v,3.0
2024-02-27 11:13:37.553895,1709028817.5538957,-36.62109375,-62.01171875,-38.0859375,-52.734375,-1.0,-1.0,1.0,0.0,1.m4v,3.0
2024-02-27 11:13:37.557801,1709028817.5578008,-40.0390625,-76.171875,-50.29296875,-79.58984375,-1.0,-1.0,1.0,0.0,1.m4v,3.0
2024-02-27 11:13:37.561706,1709028817.561706,-32.2265625,-39.55078125,-56.640625,-37.109375,-1.0,-1.0,1.0,0.0,1.m4v,3.0
2024-02-27 11:13:37.565611,1709028817.5656114,-24.4140625,-28.80859375,-41.50390625,20.99609375,-1.0,-1.0,1.0,0.0,1.m4v,3.0
2024-02-27 11:13:37.569517,1709028817.569517,-30.2734375,-47.36328125,-18.5546875,26.85546875,-1.0,-1.0,1.0,0.0,1.m4v,3.0
2024-02-27 11:13:37.573422,1709028817.5734222,-35.64453125,14.6484375,-18.5546875,-23.4375,-1.0,-1.0,1.0,0.0,1.m4v,3.0
2024-02-27 11:13:37.577327,1709028817.5773275,-35.64453125,4.8828125,-30.2734375,-66.89453125,-1.0,-1.0,1.0,0.0,1.m4v,3.0
2024-02-27 11:13:37.581233,1709028817.5812328,-46.38671875,-87.40234375,-43.9453125,-57.6171875,-1.0,-1.0,1.0,0.0,1.m4v,3.0
2024-02-27 11:13:37.585138,1709028817.585138,-56.640625,-90.33203125,-30.76171875,-3.90625,-1.0,-1.0,1.0,0.0,1.m4v,3.0
2024-02-27 11:13:37.589043,1709028817.5890434,-43.45703125,-44.921875,-10.7421875,18.06640625,-1.0,-1.0,1.0,0.0,1.m4v,3.0
2024-02-27 11:13:37.592949,1709028817.592949,-37.109375,-40.52734375,-18.06640625,-27.83203125,-1.0,-1.0,1.0,0.0,1.m4v,3.0
2024-02-27 11:13:37.596854,1709028817.5968542,-43.9453125,-85.9375,-38.0859375,-73.73046875,-1.0,-1.0,1.0,0.0,1.m4v,3.0
2024-02-27 11:13:37.600766,1709028817.600766,-44.43359375,-80.078125,-30.76171875,-61.03515625,-1.0,-1.0,1.0,0.0,1.m4v,3.0
2024-02-27 11:13:37.604671,1709028817.6046717,-41.9921875,-36.1328125,-33.203125,-11.23046875,-1.0,-1.0,1.0,0.0,1.m4v,3.0
2024-02-27 11:13:37.608577,1709028817.6085768,-37.59765625,-19.04296875,-46.875,9.27734375,-1.0,-1.0,1.0,0.0,1.m4v,3.0
2024-02-27 11:13:37.612482,1709028817.612482,-36.62109375,-21.484375,-40.0390625,-38.0859375,-1.0,-1.0,1.0,0.0,1.m4v,3.0
2024-02-27 11:13:37.616387,1709028817.6163874,-35.15625,-38.0859375,-29.296875,-83.49609375,-1.0,-1.0,1.0,0.0,1.m4v,3.0
2024-02-27 11:13:37.620293,1709028817.620293,-39.0625,3.90625,-27.34375,-54.19921875,-1.0,-1.0,1.0,0.0,1.m4v,3.0
2024-02-27 11:13:37.624198,1709028817.6241982,-39.55078125,22.4609375,-34.66796875,7.8125,-1.0,-1.0,1.0,0.0,1.m4v,3.0
2024-02-27 11:13:37.628103,1709028817.6281035,-34.1796875,-54.19921875,-34.66796875,19.53125,-1.0,-1.0,1.0,0.0,1.m4v,3.0
2024-02-27 11:13:37.632009,1709028817.6320088,-28.80859375,-70.80078125,-34.1796875,-26.3671875,-1.0,-1.0,1.0,0.0,1.m4v,3.0
2024-02-27 11:13:37.635914,1709028817.635914,-34.66796875,-85.44921875,-32.71484375,-83.0078125,-1.0,-1.0,1.0,0.0,1.m4v,3.0
2024-02-27 11:13:37.639819,1709028817.6398194,-37.109375,-56.640625,-28.3203125,-72.75390625,-1.0,-1.0,1.0,0.0,1.m4v,3.0
2024-02-27 11:13:37.643725,1709028817.643725,-26.85546875,6.34765625,-29.296875,-4.39453125,-1.0,-1.0,1.0,0.0,1.m4v,3.0
2024-02-27 11:13:37.647637,1709028817.647637,-20.99609375,15.625,-27.34375,20.01953125,-1.0,-1.0,1.0,0.0,1.m4v,3.0
2024-02-27 11:13:37.651542,1709028817.6515422,-24.90234375,5.37109375,-36.1328125,-21.97265625,-1.0,-1.0,1.0,0.0,1.m4v,3.0
2024-02-27 11:13:37.655447,1709028817.6554475,-31.25,-41.50390625,-46.875,-78.125,-1.0,-1.0,1.0,0.0,1.m4v,3.0
2024-02-27 11:13:37.659353,1709028817.6593528,-28.3203125,-54.6875,-35.15625,-81.0546875,-1.0,-1.0,1.0,0.0,1.m4v,3.0
2024-02-27 11:13:37.663258,1709028817.663258,-22.4609375,-41.50390625,-22.94921875,-21.484375,-1.0,-1.0,1.0,0.0,1.m4v,3.0
2024-02-27 11:13:37.667163,1709028817.6671634,-19.53125,34.1796875,-32.2265625,35.15625,-1.0,-1.0,1.0,0.0,1.m4v,3.0
2024-02-27 11:13:37.671069,1709028817.671069,-22.94921875,24.4140625,-30.2734375,3.90625,-1.0,-1.0,1.0,0.0,1.m4v,3.0
2024-02-27 11:13:37.674974,1709028817.6749742,-28.3203125,-57.12890625,-17.08984375,-61.03515625,-1.0,-1.0,1.0,0.0,1.m4v,3.0
2024-02-27 11:13:37.678879,1709028817.6788795,-29.296875,-66.40625,-30.76171875,-74.21875,-1.0,-1.0,1.0,0.0,1.m4v,3.0
2024-02-27 11:13:37.682785,1709028817.6827848,-30.2734375,-55.6640625,-37.59765625,-39.0625,-1.0,-1.0,1.0,0.0,1.m4v,3.0
2024-02-27 11:13:37.686690,1709028817.68669,-24.4140625,-26.85546875,-28.3203125,-0.9765625,-1.0,-1.0,1.0,0.0,1.m4v,3.0
2024-02-27 11:13:37.690596,1709028817.6905956,-31.73828125,-15.13671875,-19.04296875,-16.6015625,-1.0,-1.0,1.0,0.0,1.m4v,3.0
2024-02-27 11:13:37.694506,1709028817.694506,-49.8046875,-38.57421875,-23.4375,-79.58984375,-1.0,-1.0,1.0,0.0,1.m4v,3.0
2024-02-27 11:13:37.698411,1709028817.6984112,-42.96875,-55.17578125,-29.296875,-101.5625,-1.0,-1.0,1.0,0.0,1.m4v,3.0
2024-02-27 11:13:37.702317,1709028817.7023168,-35.64453125,-35.64453125,-22.4609375,-58.10546875,-1.0,-1.0,1.0,0.0,1.m4v,3.0
2024-02-27 11:13:37.706222,1709028817.706222,-41.50390625,-37.109375,-20.99609375,-24.4140625,-1.0,-1.0,1.0,0.0,1.m4v,3.0
2024-02-27 11:13:37.710127,1709028817.7101274,-39.55078125,-12.20703125,-30.76171875,-36.1328125,-1.0,-1.0,1.0,0.0,1.m4v,3.0
2024-02-27 11:13:37.714033,1709028817.7140326,-26.85546875,46.875,-29.296875,-79.58984375,-1.0,-1.0,1.0,0.0,1.m4v,3.0
2024-02-27 11:13:37.717938,1709028817.717938,-33.69140625,-7.32421875,-28.80859375,-108.88671875,-1.0,-1.0,1.0,0.0,1.m4v,3.0
2024-02-27 11:13:37.721843,1709028817.7218435,-42.96875,-87.40234375,-37.109375,-72.265625,-1.0,-1.0,1.0,0.0,1.m4v,3.0
2024-02-27 11:13:37.725749,1709028817.7257488,-37.109375,-41.9921875,-31.25,-4.8828125,-1.0,-1.0,1.0,0.0,1.m4v,3.0
2024-02-27 11:13:37.729654,1709028817.729654,-44.921875,-11.71875,-28.3203125,-14.16015625,-1.0,-1.0,1.0,0.0,1.m4v,3.0
2024-02-27 11:13:37.733559,1709028817.7335594,-48.828125,-45.8984375,-35.15625,-85.44921875,-1.0,-1.0,1.0,0.0,1.m4v,3.0
2024-02-27 11:13:37.737465,1709028817.737465,-39.55078125,-58.59375,-40.0390625,-114.74609375,-1.0,-1.0,1.0,0.0,1.m4v,3.0
2024-02-27 11:13:37.741383,1709028817.7413833,-43.45703125,-50.29296875,-33.203125,-80.56640625,-1.0,-1.0,1.0,0.0,1.m4v,3.0
2024-02-27 11:13:37.745289,1709028817.7452886,-46.875,-37.109375,-26.85546875,-20.99609375,-1.0,-1.0,1.0,0.0,1.m4v,3.0
2024-02-27 11:13:37.749194,1709028817.749194,-31.73828125,-23.92578125,-28.3203125,-16.6015625,-1.0,-1.0,1.0,0.0,1.m4v,3.0
2024-02-27 11:13:37.753099,1709028817.7530994,-27.34375,-23.92578125,-21.97265625,-62.98828125,-1.0,-1.0,1.0,0.0,1.m4v,3.0
2024-02-27 11:13:37.757005,1709028817.7570047,-24.90234375,-49.31640625,-24.4140625,-89.84375,-1.0,-1.0,1.0,0.0,1.m4v,3.0
2024-02-27 11:13:37.760910,1709028817.76091,-15.625,4.8828125,-33.69140625,-44.921875,-1.0,-1.0,1.0,0.0,1.m4v,3.0
2024-02-27 11:13:37.764815,1709028817.764815,-18.5546875,24.4140625,-24.90234375,19.04296875,-1.0,-1.0,1.0,0.0,1.m4v,3.0
2024-02-27 11:13:37.768721,1709028817.7687209,-31.25,-6.34765625,-29.78515625,15.13671875,-1.0,-1.0,1.0,0.0,1.m4v,3.0
2024-02-27 11:13:37.772626,1709028817.7726262,-25.390625,-10.7421875,-36.1328125,-36.62109375,-1.0,-1.0,1.0,0.0,1.m4v,3.0
2024-02-27 11:13:37.776531,1709028817.7765317,-33.69140625,-76.66015625,-37.109375,-90.33203125,-1.0,-1.0,1.0,0.0,1.m4v,3.0
2024-02-27 11:13:37.780437,1709028817.7804368,-49.8046875,-106.4453125,-45.41015625,-79.1015625,-1.0,-1.0,1.0,0.0,1.m4v,3.0
2024-02-27 11:13:37.784342,1709028817.784342,-41.9921875,-77.63671875,-32.2265625,-12.20703125,-1.0,-1.0,1.0,0.0,1.m4v,3.0
2024-02-27 11:13:37.788257,1709028817.7882571,-40.0390625,-31.73828125,-12.6953125,14.16015625,-1.0,-1.0,1.0,0.0,1.m4v,3.0
2024-02-27 11:13:37.792162,1709028817.7921624,-48.33984375,-40.0390625,-17.08984375,-36.1328125,-1.0,-1.0,1.0,0.0,1.m4v,3.0
2024-02-27 11:13:37.796068,1709028817.796068,-55.6640625,-56.640625,-24.4140625,-91.30859375,-1.0,-1.0,1.0,0.0,1.m4v,3.0
2024-02-27 11:13:37.799973,1709028817.7999732,-57.12890625,-57.12890625,-29.78515625,-84.47265625,-1.0,-1.0,1.0,0.0,1.m4v,3.0
2024-02-27 11:13:37.803879,1709028817.8038783,-46.38671875,-39.0625,-33.203125,-26.85546875,-1.0,-1.0,1.0,0.0,1.m4v,3.0
2024-02-27 11:13:37.807784,1709028817.8077838,-43.9453125,44.43359375,-36.1328125,14.6484375,-1.0,-1.0,1.0,0.0,1.m4v,3.0
2024-02-27 11:13:37.811689,1709028817.8116891,-39.0625,17.08984375,-44.921875,-16.11328125,-1.0,-1.0,1.0,0.0,1.m4v,3.0
2024-02-27 11:13:37.815595,1709028817.815595,-39.0625,-104.00390625,-49.8046875,-84.9609375,-1.0,-1.0,1.0,0.0,1.m4v,3.0
2024-02-27 11:13:37.819500,1709028817.8195,-49.8046875,-92.7734375,-42.96875,-81.0546875,-1.0,-1.0,1.0,0.0,1.m4v,3.0
2024-02-27 11:13:37.823405,1709028817.8234053,-57.6171875,-65.91796875,-40.52734375,-36.62109375,-1.0,-1.0,1.0,0.0,1.m4v,3.0
2024-02-27 11:13:37.827311,1709028817.8273106,-44.43359375,-26.3671875,-40.0390625,-15.13671875,-1.0,-1.0,1.0,0.0,1.m4v,3.0
2024-02-27 11:13:37.831216,1709028817.831216,-33.69140625,19.53125,-31.73828125,-29.78515625,-1.0,-1.0,1.0,0.0,1.m4v,3.0
2024-02-27 11:13:37.835130,1709028817.8351302,-42.96875,-15.625,-22.94921875,-78.125,-1.0,-1.0,1.0,0.0,1.m4v,3.0
2024-02-27 11:13:37.839036,1709028817.8390355,-49.8046875,-33.203125,-26.3671875,-83.49609375,-1.0,-1.0,1.0,0.0,1.m4v,3.0
2024-02-27 11:13:37.842941,1709028817.8429408,-53.7109375,-44.921875,-21.484375,-46.875,-1.0,-1.0,1.0,0.0,1.m4v,3.0
2024-02-27 11:13:37.846846,1709028817.846846,-40.0390625,-31.73828125,-20.01953125,0.48828125,-1.0,-1.0,1.0,0.0,1.m4v,3.0
2024-02-27 11:13:37.850751,1709028817.8507514,-25.390625,-19.04296875,-33.203125,-11.23046875,-1.0,-1.0,1.0,0.0,1.m4v,3.0
2024-02-27 11:13:37.854657,1709028817.854657,-20.5078125,26.3671875,-38.57421875,-57.12890625,-1.0,-1.0,1.0,0.0,1.m4v,3.0
2024-02-27 11:13:37.858562,1709028817.8585622,-19.04296875,38.0859375,-39.55078125,-62.01171875,-1.0,-1.0,1.0,0.0,1.m4v,3.0
2024-02-27 11:13:37.862468,1709028817.8624675,-29.296875,-69.3359375,-41.9921875,-41.9921875,-1.0,-1.0,1.0,0.0,1.m4v,3.0
2024-02-27 11:13:37.866373,1709028817.8663728,-32.2265625,-119.62890625,-42.48046875,-17.578125,-1.0,-1.0,1.0,0.0,1.m4v,3.0
2024-02-27 11:13:37.870278,1709028817.870278,-28.80859375,-71.2890625,-45.8984375,-15.625,-1.0,-1.0,1.0,0.0,1.m4v,3.0
2024-02-27 11:13:37.874184,1709028817.8741837,-31.25,-51.7578125,-50.78125,-57.6171875,-1.0,-1.0,1.0,0.0,1.m4v,3.0
2024-02-27 11:13:37.878089,1709028817.878089,-27.34375,-64.94140625,-48.828125,-82.51953125,-1.0,-1.0,1.0,0.0,1.m4v,3.0
2024-02-27 11:13:37.882003,1709028817.8820026,-30.2734375,-27.83203125,-33.203125,-38.0859375,-1.0,-1.0,1.0,0.0,1.m4v,3.0
2024-02-27 11:13:37.885908,1709028817.885908,-37.59765625,-19.04296875,-21.484375,10.7421875,-1.0,-1.0,1.0,0.0,1.m4v,3.0
2024-02-27 11:13:37.889813,1709028817.8898132,-24.90234375,7.8125,-23.4375,13.18359375,-1.0,-1.0,1.0,0.0,1.m4v,3.0
2024-02-27 11:13:37.893718,1709028817.8937185,-14.6484375,2.9296875,-34.1796875,-31.73828125,-1.0,-1.0,1.0,0.0,1.m4v,3.0
2024-02-27 11:13:37.897624,1709028817.8976238,-22.4609375,-71.2890625,-40.0390625,-82.03125,-1.0,-1.0,1.0,0.0,1.m4v,3.0
2024-02-27 11:13:37.901529,1709028817.9015293,-25.390625,-29.78515625,-37.109375,-50.29296875,-1.0,-1.0,1.0,0.0,1.m4v,3.0
2024-02-27 11:13:37.905435,1709028817.9054346,-26.85546875,-5.859375,-39.0625,-2.44140625,-1.0,-1.0,1.0,0.0,1.m4v,3.0
2024-02-27 11:13:37.909340,1709028817.90934,-36.1328125,-56.15234375,-48.33984375,-22.4609375,-1.0,-1.0,1.0,0.0,1.m4v,3.0
2024-02-27 11:13:37.913245,1709028817.9132452,-42.96875,-78.61328125,-63.4765625,-77.63671875,-1.0,-1.0,1.0,0.0,1.m4v,3.0
2024-02-27 11:13:37.917150,1709028817.9171505,-46.38671875,-88.8671875,-64.94140625,-102.05078125,-1.0,-1.0,1.0,0.0,1.m4v,3.0
2024-02-27 11:13:37.921056,1709028817.921056,-36.62109375,-61.03515625,-42.48046875,-56.640625,-1.0,-1.0,1.0,0.0,1.m4v,3.0
2024-02-27 11:13:37.924961,1709028817.924961,-24.90234375,-22.4609375,-29.78515625,13.671875,-1.0,-1.0,1.0,0.0,1.m4v,3.0
2024-02-27 11:13:37.928874,1709028817.928874,-21.484375,-25.87890625,-44.43359375,28.80859375,-1.0,-1.0,1.0,0.0,1.m4v,3.0
2024-02-27 11:13:37.932779,1709028817.9327793,-25.87890625,-58.59375,-39.0625,-28.3203125,-1.0,-1.0,1.0,0.0,1.m4v,3.0
2024-02-27 11:13:37.936685,1709028817.9366846,-32.71484375,-54.19921875,-18.06640625,-64.94140625,-1.0,-1.0,1.0,0.0,1.m4v,3.0
2024-02-27 11:13:37.940590,1709028817.94059,-34.1796875,-48.828125,-30.2734375,-44.43359375,-1.0,-1.0,1.0,0.0,1.m4v,3.0
2024-02-27 11:13:37.944495,1709028817.9444954,-22.4609375,-55.17578125,-36.1328125,11.71875,-1.0,-1.0,1.0,0.0,1.m4v,3.0
2024-02-27 11:13:37.948401,1709028817.9484007,-23.92578125,13.18359375,-26.3671875,34.66796875,-1.0,-1.0,1.0,0.0,1.m4v,3.0
2024-02-27 11:13:37.952306,1709028817.952306,-37.109375,68.359375,-35.64453125,-4.8828125,-1.0,-1.0,1.0,0.0,1.m4v,3.0
2024-02-27 11:13:37.956211,1709028817.956211,-41.015625,-27.34375,-42.48046875,-63.4765625,-1.0,-1.0,1.0,0.0,1.m4v,3.0
2024-02-27 11:13:37.960117,1709028817.9601166,-47.8515625,-113.76953125,-31.73828125,-80.56640625,-1.0,-1.0,1.0,0.0,1.m4v,3.0
2024-02-27 11:13:37.964022,1709028817.9640222,-41.50390625,-70.80078125,-11.23046875,-28.3203125,-1.0,-1.0,1.0,0.0,1.m4v,3.0
2024-02-27 11:13:37.967927,1709028817.9679277,-28.80859375,-11.23046875,-9.27734375,9.27734375,-1.0,-1.0,1.0,0.0,1.m4v,3.0
2024-02-27 11:13:37.971833,1709028817.9718328,-33.203125,-16.6015625,-32.71484375,-30.2734375,-1.0,-1.0,1.0,0.0,1.m4v,3.0
2024-02-27 11:13:37.975744,1709028817.975744,-45.8984375,-69.3359375,-48.828125,-79.1015625,-1.0,-1.0,1.0,0.0,1.m4v,3.0
2024-02-27 11:13:37.979650,1709028817.9796495,-56.15234375,-78.61328125,-41.015625,-72.265625,-1.0,-1.0,1.0,0.0,1.m4v,3.0
2024-02-27 11:13:37.983555,1709028817.9835548,-52.24609375,-36.1328125,-47.36328125,-21.97265625,-1.0,-1.0,1.0,0.0,1.m4v,3.0
2024-02-27 11:13:37.987460,1709028817.98746,-33.203125,-20.5078125,-51.7578125,12.20703125,-1.0,-1.0,1.0,0.0,1.m4v,3.0
2024-02-27 11:13:37.991365,1709028817.9913654,-18.06640625,-21.97265625,-33.203125,-7.32421875,-1.0,-1.0,1.0,0.0,1.m4v,3.0
2024-02-27 11:13:37.995271,1709028817.9952707,-30.76171875,24.90234375,-43.9453125,-55.6640625,-1.0,-1.0,1.0,0.0,1.m4v,3.0
2024-02-27 11:13:37.999176,1709028817.9991765,-42.48046875,-0.48828125,-41.015625,-82.03125,-1.0,-1.0,1.0,0.0,1.m4v,3.0
2024-02-27 11:13:38.003082,1709028818.0030816,-39.0625,-34.1796875,-21.484375,-42.48046875,-1.0,-1.0,1.0,0.0,1.m4v,3.0
2024-02-27 11:13:38.006987,1709028818.0069869,-32.2265625,-3.90625,-28.3203125,2.9296875,-1.0,-1.0,1.0,0.0,1.m4v,3.0
2024-02-27 11:13:38.010892,1709028818.0108922,-28.80859375,36.62109375,-38.57421875,-3.90625,-1.0,-1.0,1.0,0.0,1.m4v,3.0
2024-02-27 11:13:38.014797,1709028818.0147974,-27.83203125,22.94921875,-49.31640625,-63.96484375,-1.0,-1.0,1.0,0.0,1.m4v,3.0
2024-02-27 11:13:38.018703,1709028818.018703,-31.25,-14.16015625,-44.43359375,-92.28515625,-1.0,-1.0,1.0,0.0,1.m4v,3.0
2024-02-27 11:13:38.022614,1709028818.0226145,-40.52734375,-3.41796875,-35.15625,-49.31640625,-1.0,-1.0,1.0,0.0,1.m4v,3.0
2024-02-27 11:13:38.026520,1709028818.0265198,-38.57421875,24.4140625,-41.9921875,-11.23046875,-1.0,-1.0,1.0,0.0,1.m4v,3.0
2024-02-27 11:13:38.030425,1709028818.0304253,-35.15625,44.43359375,-46.875,-26.3671875,-1.0,-1.0,1.0,0.0,1.m4v,3.0
2024-02-27 11:13:38.034331,1709028818.0343306,-39.55078125,38.0859375,-44.43359375,-76.171875,-1.0,-1.0,1.0,0.0,1.m4v,3.0
2024-02-27 11:13:38.038236,1709028818.038236,-45.8984375,14.16015625,-42.96875,-104.4921875,-1.0,-1.0,1.0,0.0,1.m4v,3.0
2024-02-27 11:13:38.042141,1709028818.0421412,-44.921875,93.26171875,-51.7578125,-53.7109375,-1.0,-1.0,1.0,0.0,1.m4v,3.0
2024-02-27 11:13:38.046046,1709028818.0460465,-52.24609375,102.05078125,-54.19921875,0.48828125,-1.0,-1.0,1.0,0.0,1.m4v,3.0
2024-02-27 11:13:38.049952,1709028818.049952,-59.5703125,-1.953125,-42.96875,-27.34375,-1.0,-1.0,1.0,0.0,1.m4v,3.0
2024-02-27 11:13:38.053857,1709028818.053857,-51.26953125,-17.08984375,-35.64453125,-79.1015625,-1.0,-1.0,1.0,0.0,1.m4v,3.0
2024-02-27 11:13:38.057763,1709028818.0577626,-41.9921875,5.859375,-28.3203125,-86.42578125,-1.0,-1.0,1.0,0.0,1.m4v,3.0
2024-02-27 11:13:38.061668,1709028818.061668,-38.0859375,32.71484375,-22.94921875,-35.15625,-1.0,-1.0,1.0,0.0,1.m4v,3.0
2024-02-27 11:13:38.065573,1709028818.0655732,-33.203125,36.62109375,-23.92578125,18.06640625,-1.0,-1.0,1.0,0.0,1.m4v,3.0
2024-02-27 11:13:38.069485,1709028818.069485,-32.71484375,54.19921875,-23.92578125,17.08984375,-1.0,-1.0,1.0,0.0,1.m4v,3.0
2024-02-27 11:13:38.073390,1709028818.0733902,-28.3203125,26.85546875,-19.53125,-32.71484375,-1.0,-1.0,1.0,0.0,1.m4v,3.0
2024-02-27 11:13:38.077296,1709028818.0772955,-38.0859375,-41.015625,-35.15625,-81.54296875,-1.0,-1.0,1.0,0.0,1.m4v,3.0
2024-02-27 11:13:38.081201,1709028818.081201,-46.875,-24.90234375,-47.8515625,-64.94140625,-1.0,-1.0,1.0,0.0,1.m4v,3.0
2024-02-27 11:13:38.085106,1709028818.0851064,-29.296875,16.11328125,-37.109375,-2.9296875,-1.0,-1.0,1.0,0.0,1.m4v,3.0
2024-02-27 11:13:38.089012,1709028818.0890117,-17.08984375,78.61328125,-22.4609375,25.87890625,-1.0,-1.0,1.0,0.0,1.m4v,3.0
2024-02-27 11:13:38.491334,1709028818.4913344,-37.109375,16.6015625,-29.296875,-15.13671875,-1.0,-1.0,1.0,0.0,1.m4v,3.0
2024-02-27 11:13:38.495240,1709028818.4952395,-42.96875,-50.29296875,-29.296875,-74.70703125,-1.0,-1.0,1.0,0.0,1.m4v,3.0
2024-02-27 11:13:38.499145,1709028818.499145,-43.9453125,-80.078125,-26.3671875,-77.63671875,-1.0,-1.0,1.0,0.0,1.m4v,3.0
2024-02-27 11:13:38.503051,1709028818.5030506,-46.38671875,-80.56640625,-36.1328125,-37.59765625,-1.0,-1.0,1.0,0.0,1.m4v,3.0
2024-02-27 11:13:38.506956,1709028818.506956,-40.52734375,-52.734375,-43.9453125,6.8359375,-1.0,-1.0,1.0,0.0,1.m4v,3.0
2024-02-27 11:13:38.510861,1709028818.5108612,-42.96875,18.5546875,-34.1796875,0.9765625,-1.0,-1.0,1.0,0.0,1.m4v,3.0
2024-02-27 11:13:38.514766,1709028818.5147665,-46.38671875,2.9296875,-35.64453125,-48.828125,-1.0,-1.0,1.0,0.0,1.m4v,3.0
2024-02-27 11:13:38.518672,1709028818.5186718,-56.15234375,-87.890625,-44.43359375,-78.125,-1.0,-1.0,1.0,0.0,1.m4v,3.0
2024-02-27 11:13:38.522577,1709028818.5225773,-56.15234375,-75.68359375,-35.15625,-45.8984375,-1.0,-1.0,1.0,0.0,1.m4v,3.0
2024-02-27 11:13:38.526483,1709028818.5264826,-47.36328125,-35.64453125,-30.76171875,-2.44140625,-1.0,-1.0,1.0,0.0,1.m4v,3.0
2024-02-27 11:13:38.530388,1709028818.530388,-39.55078125,-41.015625,-40.0390625,-18.06640625,-1.0,-1.0,1.0,0.0,1.m4v,3.0
2024-02-27 11:13:38.534293,1709028818.5342932,-29.296875,-72.265625,-42.48046875,-68.84765625,-1.0,-1.0,1.0,0.0,1.m4v,3.0
2024-02-27 11:13:38.538208,1709028818.5382085,-35.64453125,-75.1953125,-31.25,-80.56640625,-1.0,-1.0,1.0,0.0,1.m4v,3.0
2024-02-27 11:13:38.542114,1709028818.5421138,-47.36328125,-44.43359375,-30.76171875,-41.9921875,-1.0,-1.0,1.0,0.0,1.m4v,3.0
2024-02-27 11:13:38.546019,1709028818.546019,-43.45703125,-17.578125,-37.109375,-3.41796875,-1.0,-1.0,1.0,0.0,1.m4v,3.0
2024-02-27 11:13:38.549925,1709028818.5499246,-27.83203125,22.94921875,-23.4375,-10.25390625,-1.0,-1.0,1.0,0.0,1.m4v,3.0
2024-02-27 11:13:38.553830,1709028818.55383,-21.484375,0.0,-31.25,-67.3828125,-1.0,-1.0,1.0,0.0,1.m4v,3.0
2024-02-27 11:13:38.557735,1709028818.5577352,-26.85546875,-5.37109375,-36.1328125,-93.75,-1.0,-1.0,1.0,0.0,1.m4v,3.0
2024-02-27 11:13:38.561641,1709028818.5616405,-29.78515625,18.06640625,-21.484375,-54.19921875,-1.0,-1.0,1.0,0.0,1.m4v,3.0
2024-02-27 11:13:38.565546,1709028818.5655458,-32.71484375,-36.62109375,-18.5546875,-8.7890625,-1.0,-1.0,1.0,0.0,1.m4v,3.0
2024-02-27 11:13:38.569451,1709028818.569451,-23.4375,-61.03515625,-24.4140625,-14.16015625,-1.0,-1.0,1.0,0.0,1.m4v,3.0
2024-02-27 11:13:38.573357,1709028818.5733566,-23.92578125,-52.24609375,-33.203125,-63.96484375,-1.0,-1.0,1.0,0.0,1.m4v,3.0
2024-02-27 11:13:38.577262,1709028818.577262,-37.109375,-60.05859375,-38.0859375,-89.35546875,-1.0,-1.0,1.0,0.0,1.m4v,3.0
2024-02-27 11:13:38.581167,1709028818.5811672,-49.8046875,-87.40234375,-42.48046875,-57.12890625,-1.0,-1.0,1.0,0.0,1.m4v,3.0
2024-02-27 11:13:38.585081,1709028818.585081,-49.8046875,-51.7578125,-43.45703125,4.39453125,-1.0,-1.0,1.0,0.0,1.m4v,3.0
2024-02-27 11:13:38.588986,1709028818.5889864,-36.62109375,-26.3671875,-35.64453125,8.30078125,-1.0,-1.0,1.0,0.0,1.m4v,3.0
2024-02-27 11:13:38.592892,1709028818.5928917,-41.015625,-47.8515625,-45.41015625,-55.6640625,-1.0,-1.0,1.0,0.0,1.m4v,3.0
2024-02-27 11:13:38.596797,1709028818.596797,-46.38671875,-64.94140625,-45.8984375,-95.21484375,-1.0,-1.0,1.0,0.0,1.m4v,3.0
2024-02-27 11:13:38.600703,1709028818.6007023,-47.36328125,-42.48046875,-34.66796875,-70.80078125,-1.0,-1.0,1.0,0.0,1.m4v,3.0
2024-02-27 11:13:38.604608,1709028818.6046078,-38.57421875,37.109375,-38.0859375,-4.39453125,-1.0,-1.0,1.0,0.0,1.m4v,3.0
2024-02-27 11:13:38.608513,1709028818.608513,-24.90234375,59.08203125,-39.55078125,24.90234375,-1.0,-1.0,1.0,0.0,1.m4v,3.0
2024-02-27 11:13:38.612418,1709028818.6124184,-24.90234375,-17.578125,-37.59765625,-37.59765625,-1.0,-1.0,1.0,0.0,1.m4v,3.0
2024-02-27 11:13:38.616324,1709028818.6163237,-36.1328125,-78.125,-42.48046875,-95.21484375,-1.0,-1.0,1.0,0.0,1.m4v,3.0
2024-02-27 11:13:38.620229,1709028818.6202292,-49.8046875,-81.54296875,-38.0859375,-73.73046875,-1.0,-1.0,1.0,0.0,1.m4v,3.0
2024-02-27 11:13:38.624135,1709028818.6241343,-50.78125,-42.96875,-41.9921875,-6.34765625,-1.0,-1.0,1.0,0.0,1.m4v,3.0
2024-02-27 11:13:38.628040,1709028818.6280398,-41.9921875,-13.18359375,-44.921875,22.94921875,-1.0,-1.0,1.0,0.0,1.m4v,3.0
2024-02-27 11:13:38.631954,1709028818.6319537,-56.15234375,-49.8046875,-53.22265625,-28.80859375,-1.0,-1.0,1.0,0.0,1.m4v,3.0
2024-02-27 11:13:38.635859,1709028818.635859,-56.640625,-56.15234375,-52.734375,-69.3359375,-1.0,-1.0,1.0,0.0,1.m4v,3.0
2024-02-27 11:13:38.639764,1709028818.6397643,-44.43359375,-39.0625,-42.96875,-59.08203125,-1.0,-1.0,1.0,0.0,1.m4v,3.0
2024-02-27 11:13:38.643670,1709028818.6436696,-43.45703125,-30.76171875,-40.52734375,-19.04296875,-1.0,-1.0,1.0,0.0,1.m4v,3.0
2024-02-27 11:13:38.647575,1709028818.647575,-28.3203125,-16.11328125,-32.71484375,15.625,-1.0,-1.0,1.0,0.0,1.m4v,3.0
2024-02-27 11:13:38.651480,1709028818.6514804,-27.34375,18.5546875,-35.15625,-8.7890625,-1.0,-1.0,1.0,0.0,1.m4v,3.0
2024-02-27 11:13:38.655386,1709028818.6553855,-45.8984375,-17.578125,-37.109375,-68.359375,-1.0,-1.0,1.0,0.0,1.m4v,3.0
2024-02-27 11:13:38.659291,1709028818.659291,-51.26953125,-105.46875,-38.57421875,-88.8671875,-1.0,-1.0,1.0,0.0,1.m4v,3.0
2024-02-27 11:13:38.663196,1709028818.6631963,-47.36328125,-85.44921875,-30.2734375,-44.43359375,-1.0,-1.0,1.0,0.0,1.m4v,3.0
2024-02-27 11:13:38.667102,1709028818.6671016,-50.29296875,-50.78125,-23.4375,-0.48828125,-1.0,-1.0,1.0,0.0,1.m4v,3.0
2024-02-27 11:13:38.671007,1709028818.6710072,-54.19921875,-13.671875,-36.62109375,-16.11328125,-1.0,-1.0,1.0,0.0,1.m4v,3.0
2024-02-27 11:13:38.674912,1709028818.6749125,-45.41015625,-51.26953125,-40.0390625,-69.3359375,-1.0,-1.0,1.0,0.0,1.m4v,3.0
2024-02-27 11:13:38.678826,1709028818.678826,-47.8515625,-93.75,-34.1796875,-103.02734375,-1.0,-1.0,1.0,0.0,1.m4v,3.0
2024-02-27 11:13:38.682731,1709028818.6827312,-51.7578125,-39.55078125,-34.66796875,-65.4296875,-1.0,-1.0,1.0,0.0,1.m4v,3.0
2024-02-27 11:13:38.686637,1709028818.6866367,-42.96875,-15.625,-31.25,-14.6484375,-1.0,-1.0,1.0,0.0,1.m4v,3.0
2024-02-27 11:13:38.690542,1709028818.690542,-49.31640625,-30.2734375,-32.2265625,-27.83203125,-1.0,-1.0,1.0,0.0,1.m4v,3.0
2024-02-27 11:13:38.694447,1709028818.6944473,-54.6875,-57.6171875,-50.29296875,-72.75390625,-1.0,-1.0,1.0,0.0,1.m4v,3.0
2024-02-27 11:13:38.698353,1709028818.6983526,-45.8984375,-10.25390625,-42.96875,-66.89453125,-1.0,-1.0,1.0,0.0,1.m4v,3.0
2024-02-27 11:13:38.702258,1709028818.702258,-36.1328125,49.8046875,-22.4609375,-9.27734375,-1.0,-1.0,1.0,0.0,1.m4v,3.0
2024-02-27 11:13:38.706163,1709028818.7061634,-40.52734375,-18.5546875,-28.3203125,14.16015625,-1.0,-1.0,1.0,0.0,1.m4v,3.0
2024-02-27 11:13:38.710069,1709028818.7100687,-63.4765625,-73.2421875,-31.25,-20.99609375,-1.0,-1.0,1.0,0.0,1.m4v,3.0
2024-02-27 11:13:38.713974,1709028818.713974,-60.546875,-83.984375,-28.3203125,-79.58984375,-1.0,-1.0,1.0,0.0,1.m4v,3.0
2024-02-27 11:13:38.717879,1709028818.7178793,-43.45703125,-76.171875,-27.34375,-103.02734375,-1.0,-1.0,1.0,0.0,1.m4v,3.0
2024-02-27 11:13:38.721785,1709028818.7217846,-41.015625,-19.53125,-32.71484375,-65.4296875,-1.0,-1.0,1.0,0.0,1.m4v,3.0
2024-02-27 11:13:38.725703,1709028818.7257032,-39.0625,29.296875,-37.59765625,-7.32421875,-1.0,-1.0,1.0,0.0,1.m4v,3.0
2024-02-27 11:13:38.729609,1709028818.7296083,-16.11328125,104.98046875,-40.52734375,20.01953125,-1.0,-1.0,1.0,0.0,1.m4v,3.0
2024-02-27 11:13:38.733514,1709028818.7335138,-18.06640625,67.3828125,-51.26953125,-39.55078125,-1.0,-1.0,1.0,0.0,1.m4v,3.0
2024-02-27 11:13:38.737419,1709028818.7374191,-37.59765625,-14.16015625,-44.921875,-100.5859375,-1.0,-1.0,1.0,0.0,1.m4v,3.0
2024-02-27 11:13:38.741325,1709028818.741325,-33.69140625,10.7421875,-29.78515625,-75.68359375,-1.0,-1.0,1.0,0.0,1.m4v,3.0
2024-02-27 11:13:38.745230,1709028818.74523,-31.73828125,114.2578125,-26.85546875,-7.8125,-1.0,-1.0,1.0,0.0,1.m4v,3.0
2024-02-27 11:13:38.749135,1709028818.7491353,-33.69140625,133.7890625,-20.99609375,9.765625,-1.0,-1.0,1.0,0.0,1.m4v,3.0
2024-02-27 11:13:38.753041,1709028818.7530406,-44.43359375,11.23046875,-32.2265625,-58.10546875,-1.0,-1.0,1.0,0.0,1.m4v,3.0
2024-02-27 11:13:38.756946,1709028818.7569458,-46.875,-17.08984375,-47.8515625,-104.98046875,-1.0,-1.0,1.0,0.0,1.m4v,3.0
2024-02-27 11:13:38.760851,1709028818.7608514,-38.0859375,5.859375,-33.203125,-67.87109375,-1.0,-1.0,1.0,0.0,1.m4v,3.0
2024-02-27 11:13:38.764757,1709028818.764757,-26.85546875,8.7890625,-20.5078125,-10.25390625,-1.0,-1.0,1.0,0.0,1.m4v,3.0
2024-02-27 11:13:38.768662,1709028818.768662,-12.20703125,31.25,-24.90234375,11.71875,-1.0,-1.0,1.0,0.0,1.m4v,3.0
2024-02-27 11:13:38.772575,1709028818.772575,-2.9296875,50.29296875,-29.78515625,-26.85546875,-1.0,-1.0,1.0,0.0,1.m4v,3.0
2024-02-27 11:13:38.776480,1709028818.7764802,-9.27734375,14.6484375,-52.24609375,-85.44921875,-1.0,-1.0,1.0,0.0,1.m4v,3.0
2024-02-27 11:13:38.780385,1709028818.7803855,-24.4140625,-6.34765625,-68.84765625,-79.58984375,-1.0,-1.0,1.0,0.0,1.m4v,3.0
2024-02-27 11:13:38.784291,1709028818.784291,-29.78515625,-2.9296875,-45.41015625,-30.2734375,-1.0,-1.0,1.0,0.0,1.m4v,3.0
2024-02-27 11:13:38.788196,1709028818.7881963,-20.99609375,22.4609375,-21.484375,9.27734375,-1.0,-1.0,1.0,0.0,1.m4v,3.0
2024-02-27 11:13:38.792102,1709028818.7921016,-22.94921875,67.87109375,-19.53125,-18.06640625,-1.0,-1.0,1.0,0.0,1.m4v,3.0
2024-02-27 11:13:38.796007,1709028818.796007,-31.73828125,42.48046875,-24.90234375,-83.49609375,-1.0,-1.0,1.0,0.0,1.m4v,3.0
2024-02-27 11:13:38.799912,1709028818.7999125,-28.80859375,-32.2265625,-32.2265625,-83.984375,-1.0,-1.0,1.0,0.0,1.m4v,3.0
2024-02-27 11:13:38.803818,1709028818.8038175,-24.90234375,-44.43359375,-33.203125,-24.90234375,-1.0,-1.0,1.0,0.0,1.m4v,3.0
2024-02-27 11:13:38.807723,1709028818.807723,-27.83203125,-30.2734375,-31.25,-3.90625,-1.0,-1.0,1.0,0.0,1.m4v,3.0
2024-02-27 11:13:38.811628,1709028818.8116283,-45.8984375,-29.296875,-43.9453125,-44.43359375,-1.0,-1.0,1.0,0.0,1.m4v,3.0
2024-02-27 11:13:38.815534,1709028818.8155336,-50.78125,-48.33984375,-47.36328125,-81.0546875,-1.0,-1.0,1.0,0.0,1.m4v,3.0
2024-02-27 11:13:38.819444,1709028818.8194442,-42.96875,-73.2421875,-33.203125,-72.265625,-1.0,-1.0,1.0,0.0,1.m4v,3.0
2024-02-27 11:13:38.823349,1709028818.8233497,-46.38671875,-48.33984375,-40.0390625,-22.4609375,-1.0,-1.0,1.0,0.0,1.m4v,3.0
2024-02-27 11:13:38.827255,1709028818.827255,-37.59765625,-24.90234375,-52.24609375,14.6484375,-1.0,-1.0,1.0,0.0,1.m4v,3.0
2024-02-27 11:13:38.831160,1709028818.8311603,-40.52734375,-33.203125,-32.2265625,-7.8125,-1.0,-1.0,1.0,0.0,1.m4v,3.0
2024-02-27 11:13:38.835066,1709028818.8350656,-50.78125,-43.45703125,-18.06640625,-50.29296875,-1.0,-1.0,1.0,0.0,1.m4v,3.0
2024-02-27 11:13:38.838971,1709028818.838971,-42.48046875,0.0,-20.5078125,-48.828125,-1.0,-1.0,1.0,0.0,1.m4v,3.0
2024-02-27 11:13:38.842876,1709028818.8428762,-31.73828125,14.6484375,-22.4609375,-6.34765625,-1.0,-1.0,1.0,0.0,1.m4v,3.0
2024-02-27 11:13:38.846782,1709028818.8467815,-35.15625,-62.5,-24.90234375,18.5546875,-1.0,-1.0,1.0,0.0,1.m4v,3.0
2024-02-27 11:13:38.850687,1709028818.850687,-41.9921875,-64.94140625,-35.64453125,-7.8125,-1.0,-1.0,1.0,0.0,1.m4v,3.0
2024-02-27 11:13:38.854592,1709028818.8545923,-44.43359375,-102.5390625,-48.828125,-75.1953125,-1.0,-1.0,1.0,0.0,1.m4v,3.0
2024-02-27 11:13:38.858498,1709028818.8584976,-41.015625,-121.09375,-43.9453125,-102.05078125,-1.0,-1.0,1.0,0.0,1.m4v,3.0
2024-02-27 11:13:38.862403,1709028818.862403,-25.87890625,-67.87109375,-34.1796875,-48.33984375,-1.0,-1.0,1.0,0.0,1.m4v,3.0
2024-02-27 11:13:38.866313,1709028818.8663125,-21.484375,-38.0859375,-55.6640625,9.27734375,-1.0,-1.0,1.0,0.0,1.m4v,3.0
2024-02-27 11:13:38.870218,1709028818.870218,-24.90234375,-47.36328125,-52.734375,-7.32421875,-1.0,-1.0,1.0,0.0,1.m4v,3.0
2024-02-27 11:13:38.874123,1709028818.874123,-26.85546875,-81.0546875,-31.73828125,-63.96484375,-1.0,-1.0,1.0,0.0,1.m4v,3.0
2024-02-27 11:13:38.878029,1709028818.8780286,-35.15625,-87.890625,-32.2265625,-80.078125,-1.0,-1.0,1.0,0.0,1.m4v,3.0
2024-02-27 11:13:38.881934,1709028818.881934,-36.1328125,-69.82421875,-28.80859375,-31.25,-1.0,-1.0,1.0,0.0,1.m4v,3.0
2024-02-27 11:13:38.885839,1709028818.8858397,-31.73828125,-17.08984375,-17.578125,28.80859375,-1.0,-1.0,1.0,0.0,1.m4v,3.0
2024-02-27 11:13:38.889745,1709028818.8897448,-22.94921875,-17.578125,-7.32421875,26.3671875,-1.0,-1.0,1.0,0.0,1.m4v,3.0
2024-02-27 11:13:38.893650,1709028818.89365,-20.01953125,-102.05078125,-13.671875,-33.203125,-1.0,-1.0,1.0,0.0,1.m4v,3.0
2024-02-27 11:13:38.897555,1709028818.8975554,-38.57421875,-120.1171875,-38.57421875,-78.125,-1.0,-1.0,1.0,0.0,1.m4v,3.0
2024-02-27 11:13:38.901461,1709028818.9014606,-48.828125,-82.03125,-44.921875,-52.24609375,-1.0,-1.0,1.0,0.0,1.m4v,3.0
2024-02-27 11:13:38.905366,1709028818.9053662,-42.96875,-55.6640625,-34.66796875,9.765625,-1.0,-1.0,1.0,0.0,1.m4v,3.0
2024-02-27 11:13:38.909271,1709028818.9092717,-33.203125,16.11328125,-23.4375,27.83203125,-1.0,-1.0,1.0,0.0,1.m4v,3.0
2024-02-27 11:13:38.913186,1709028818.9131863,-31.73828125,0.9765625,-25.87890625,-36.62109375,-1.0,-1.0,1.0,0.0,1.m4v,3.0
2024-02-27 11:13:38.917092,1709028818.9170918,-32.71484375,-103.02734375,-32.2265625,-81.0546875,-1.0,-1.0,1.0,0.0,1.m4v,3.0
2024-02-27 11:13:38.920997,1709028818.9209971,-29.78515625,-83.984375,-26.3671875,-32.71484375,-1.0,-1.0,1.0,0.0,1.m4v,3.0
2024-02-27 11:13:38.924902,1709028818.9249024,-54.19921875,-55.6640625,-32.2265625,-10.25390625,-1.0,-1.0,1.0,0.0,1.m4v,3.0
2024-02-27 11:13:38.928808,1709028818.9288075,-73.73046875,-63.96484375,-35.15625,-27.83203125,-1.0,-1.0,1.0,0.0,1.m4v,3.0
2024-02-27 11:13:38.932713,1709028818.9327133,-54.6875,-20.01953125,-23.92578125,-45.8984375,-1.0,-1.0,1.0,0.0,1.m4v,3.0
2024-02-27 11:13:38.936619,1709028818.9366186,-44.43359375,-37.109375,-25.87890625,-90.8203125,-1.0,-1.0,1.0,0.0,1.m4v,3.0
2024-02-27 11:13:38.940524,1709028818.940524,-54.19921875,-124.51171875,-29.78515625,-99.609375,-1.0,-1.0,1.0,0.0,1.m4v,3.0
2024-02-27 11:13:38.944429,1709028818.9444292,-56.15234375,-90.8203125,-19.04296875,-33.203125,-1.0,-1.0,1.0,0.0,1.m4v,3.0
2024-02-27 11:13:38.948334,1709028818.9483345,-56.640625,-36.62109375,-21.97265625,-1.46484375,-1.0,-1.0,1.0,0.0,1.m4v,3.0
2024-02-27 11:13:38.952240,1709028818.95224,-44.43359375,-45.8984375,-30.2734375,-39.55078125,-1.0,-1.0,1.0,0.0,1.m4v,3.0
2024-02-27 11:13:38.956145,1709028818.9561453,-41.50390625,-68.84765625,-38.57421875,-88.8671875,-1.0,-1.0,1.0,0.0,1.m4v,3.0
2024-02-27 11:13:38.960065,1709028818.9600654,-44.43359375,-65.91796875,-44.921875,-84.47265625,-1.0,-1.0,1.0,0.0,1.m4v,3.0
2024-02-27 11:13:38.963971,1709028818.963971,-36.62109375,-43.9453125,-38.57421875,-21.97265625,-1.0,-1.0,1.0,0.0,1.m4v,3.0
2024-02-27 11:13:38.967876,1709028818.967876,-28.3203125,-14.16015625,-29.78515625,17.08984375,-1.0,-1.0,1.0,0.0,1.m4v,3.0
2024-02-27 11:13:38.971781,1709028818.9717813,-20.01953125,-18.5546875,-32.2265625,-24.90234375,-1.0,-1.0,1.0,0.0,1.m4v,3.0
2024-02-27 11:13:38.975687,1709028818.9756866,-24.4140625,-72.75390625,-36.1328125,-84.9609375,-1.0,-1.0,1.0,0.0,1.m4v,3.0
2024-02-27 11:13:38.979592,1709028818.979592,-27.83203125,2.9296875,-24.90234375,-70.80078125,-1.0,-1.0,1.0,0.0,1.m4v,3.0
2024-02-27 11:13:38.983497,1709028818.9834974,-35.64453125,12.6953125,-28.3203125,-30.76171875,-1.0,-1.0,1.0,0.0,1.m4v,3.0
2024-02-27 11:13:38.987403,1709028818.987403,-31.73828125,-71.2890625,-27.34375,-12.20703125,-1.0,-1.0,1.0,0.0,1.m4v,3.0
2024-02-27 11:13:38.991308,1709028818.991308,-17.578125,-80.56640625,-30.2734375,-36.62109375,-1.0,-1.0,1.0,0.0,1.m4v,3.0
2024-02-27 11:13:38.995213,1709028818.9952133,-21.484375,-83.984375,-34.66796875,-93.26171875,-1.0,-1.0,1.0,0.0,1.m4v,3.0
2024-02-27 11:13:38.999119,1709028818.9991188,-33.203125,-66.89453125,-34.66796875,-89.84375,-1.0,-1.0,1.0,0.0,1.m4v,3.0
2024-02-27 11:13:39.003024,1709028819.003024,-30.2734375,-41.50390625,-35.64453125,-34.1796875,-1.0,-1.0,1.0,0.0,1.m4v,3.0
2024-02-27 11:13:39.006938,1709028819.0069375,-30.2734375,-28.80859375,-40.52734375,5.859375,-1.0,-1.0,1.0,0.0,1.m4v,3.0
2024-02-27 11:13:39.010843,1709028819.0108428,-28.3203125,-46.875,-52.734375,-23.4375,-1.0,-1.0,1.0,0.0,1.m4v,3.0
2024-02-27 11:13:39.014748,1709028819.014748,-15.625,-51.26953125,-38.57421875,-76.66015625,-1.0,-1.0,1.0,0.0,1.m4v,3.0
2024-02-27 11:13:39.018653,1709028819.0186534,-28.80859375,-50.78125,-18.06640625,-91.30859375,-1.0,-1.0,1.0,0.0,1.m4v,3.0
2024-02-27 11:13:39.022559,1709028819.022559,-41.9921875,-56.640625,-17.08984375,-54.19921875,-1.0,-1.0,1.0,0.0,1.m4v,3.0
2024-02-27 11:13:39.026464,1709028819.0264642,-30.2734375,19.53125,-27.34375,5.859375,-1.0,-1.0,1.0,0.0,1.m4v,3.0
2024-02-27 11:13:39.030370,1709028819.0303695,-30.2734375,58.59375,-27.83203125,-2.9296875,-1.0,-1.0,1.0,0.0,1.m4v,3.0
2024-02-27 11:13:39.034275,1709028819.0342748,-34.1796875,-10.7421875,-21.484375,-62.5,-1.0,-1.0,1.0,0.0,1.m4v,3.0
2024-02-27 11:13:39.038180,1709028819.0381804,-29.78515625,-85.44921875,-25.390625,-93.26171875,-1.0,-1.0,1.0,0.0,1.m4v,3.0
2024-02-27 11:13:39.042086,1709028819.0420856,-42.48046875,-69.82421875,-36.62109375,-69.3359375,-1.0,-1.0,1.0,0.0,1.m4v,3.0
2024-02-27 11:13:39.045991,1709028819.045991,-38.57421875,-44.921875,-37.109375,-14.6484375,-1.0,-1.0,1.0,0.0,1.m4v,3.0
2024-02-27 11:13:39.049896,1709028819.0498962,-23.4375,-53.7109375,-30.2734375,-10.25390625,-1.0,-1.0,1.0,0.0,1.m4v,3.0
2024-02-27 11:13:39.053809,1709028819.053809,-30.2734375,-78.61328125,-40.52734375,-71.2890625,-1.0,-1.0,1.0,0.0,1.m4v,3.0
2024-02-27 11:13:39.057714,1709028819.0577145,-39.55078125,-59.5703125,-47.36328125,-95.21484375,-1.0,-1.0,1.0,0.0,1.m4v,3.0
2024-02-27 11:13:39.061620,1709028819.0616198,-36.62109375,-24.90234375,-42.48046875,-64.453125,-1.0,-1.0,1.0,0.0,1.m4v,3.0
2024-02-27 11:13:39.065525,1709028819.065525,-26.3671875,-16.6015625,-33.203125,-8.30078125,-1.0,-1.0,1.0,0.0,1.m4v,3.0
2024-02-27 11:13:39.069430,1709028819.0694304,-21.484375,-14.16015625,-31.73828125,5.859375,-1.0,-1.0,1.0,0.0,1.m4v,3.0
2024-02-27 11:13:39.073336,1709028819.0733356,-34.1796875,22.4609375,-47.36328125,-45.41015625,-1.0,-1.0,1.0,0.0,1.m4v,3.0
2024-02-27 11:13:39.522526,1709028819.5225265,-37.109375,-35.15625,-30.76171875,-33.203125,-1.0,-1.0,1.0,0.0,1.m4v,3.0
2024-02-27 11:13:39.526432,1709028819.5264318,-33.203125,7.32421875,-42.48046875,9.765625,-1.0,-1.0,1.0,0.0,1.m4v,3.0
2024-02-27 11:13:39.530337,1709028819.530337,-39.55078125,5.859375,-54.6875,-11.23046875,-1.0,-1.0,1.0,0.0,1.m4v,3.0
2024-02-27 11:13:39.534242,1709028819.5342424,-47.36328125,-16.11328125,-49.8046875,-68.84765625,-1.0,-1.0,1.0,0.0,1.m4v,3.0
2024-02-27 11:13:39.538148,1709028819.5381477,-41.9921875,-42.96875,-40.0390625,-87.40234375,-1.0,-1.0,1.0,0.0,1.m4v,3.0
2024-02-27 11:13:39.542053,1709028819.542053,-36.62109375,20.01953125,-36.1328125,-35.64453125,-1.0,-1.0,1.0,0.0,1.m4v,3.0
2024-02-27 11:13:39.545959,1709028819.5459585,-31.73828125,48.33984375,-33.203125,23.4375,-1.0,-1.0,1.0,0.0,1.m4v,3.0
2024-02-27 11:13:39.549864,1709028819.5498638,-15.13671875,-56.15234375,-20.01953125,15.625,-1.0,-1.0,1.0,0.0,1.m4v,3.0
2024-02-27 11:13:39.553769,1709028819.553769,-27.34375,-84.9609375,-23.92578125,-39.55078125,-1.0,-1.0,1.0,0.0,1.m4v,3.0
2024-02-27 11:13:39.557674,1709028819.5576744,-45.8984375,-81.0546875,-38.0859375,-79.1015625,-1.0,-1.0,1.0,0.0,1.m4v,3.0
2024-02-27 11:13:39.561580,1709028819.56158,-37.59765625,-54.6875,-41.9921875,-48.33984375,-1.0,-1.0,1.0,0.0,1.m4v,3.0
2024-02-27 11:13:39.565485,1709028819.5654852,-42.96875,-42.48046875,-53.7109375,-10.25390625,-1.0,-1.0,1.0,0.0,1.m4v,3.0
2024-02-27 11:13:39.569396,1709028819.569396,-46.875,-5.37109375,-47.8515625,0.9765625,-1.0,-1.0,1.0,0.0,1.m4v,3.0
2024-02-27 11:13:39.573301,1709028819.5733013,-41.015625,-0.9765625,-40.0390625,-37.59765625,-1.0,-1.0,1.0,0.0,1.m4v,3.0
2024-02-27 11:13:39.577207,1709028819.5772066,-45.8984375,-80.078125,-43.9453125,-83.49609375,-1.0,-1.0,1.0,0.0,1.m4v,3.0
2024-02-27 11:13:39.581112,1709028819.581112,-40.52734375,-76.171875,-41.015625,-53.7109375,-1.0,-1.0,1.0,0.0,1.m4v,3.0
2024-02-27 11:13:39.585017,1709028819.5850174,-31.25,-50.29296875,-39.0625,4.39453125,-1.0,-1.0,1.0,0.0,1.m4v,3.0
2024-02-27 11:13:39.588923,1709028819.5889227,-20.01953125,14.6484375,-41.015625,35.64453125,-1.0,-1.0,1.0,0.0,1.m4v,3.0
2024-02-27 11:13:39.592828,1709028819.592828,-13.671875,10.25390625,-38.0859375,-10.7421875,-1.0,-1.0,1.0,0.0,1.m4v,3.0
2024-02-27 11:13:39.596733,1709028819.596733,-25.390625,-86.42578125,-37.59765625,-81.0546875,-1.0,-1.0,1.0,0.0,1.m4v,3.0
2024-02-27 11:13:39.600639,1709028819.6006389,-38.57421875,-94.7265625,-41.50390625,-68.359375,-1.0,-1.0,1.0,0.0,1.m4v,3.0
2024-02-27 11:13:39.604544,1709028819.6045442,-40.0390625,-72.265625,-36.62109375,-7.8125,-1.0,-1.0,1.0,0.0,1.m4v,3.0
2024-02-27 11:13:39.608449,1709028819.6084497,-32.2265625,-56.15234375,-38.57421875,14.16015625,-1.0,-1.0,1.0,0.0,1.m4v,3.0
2024-02-27 11:13:39.612355,1709028819.6123548,-28.3203125,-50.78125,-41.50390625,-28.3203125,-1.0,-1.0,1.0,0.0,1.m4v,3.0
2024-02-27 11:13:39.616265,1709028819.6162648,-32.2265625,-84.47265625,-37.109375,-70.80078125,-1.0,-1.0,1.0,0.0,1.m4v,3.0
2024-02-27 11:13:39.620170,1709028819.62017,-48.33984375,-96.19140625,-51.7578125,-71.77734375,-1.0,-1.0,1.0,0.0,1.m4v,3.0
2024-02-27 11:13:39.624075,1709028819.6240754,-53.7109375,-73.73046875,-61.5234375,-30.2734375,-1.0,-1.0,1.0,0.0,1.m4v,3.0
2024-02-27 11:13:39.627981,1709028819.6279807,-34.66796875,-29.78515625,-47.8515625,11.71875,-1.0,-1.0,1.0,0.0,1.m4v,3.0
2024-02-27 11:13:39.631886,1709028819.6318862,-27.83203125,9.765625,-40.52734375,-19.04296875,-1.0,-1.0,1.0,0.0,1.m4v,3.0
2024-02-27 11:13:39.635792,1709028819.6357915,-37.109375,18.5546875,-36.62109375,-66.40625,-1.0,-1.0,1.0,0.0,1.m4v,3.0
2024-02-27 11:13:39.639697,1709028819.6396968,-39.0625,-30.76171875,-39.55078125,-61.5234375,-1.0,-1.0,1.0,0.0,1.m4v,3.0
2024-02-27 11:13:39.643602,1709028819.643602,-29.296875,-102.05078125,-46.875,-34.66796875,-1.0,-1.0,1.0,0.0,1.m4v,3.0
2024-02-27 11:13:39.647508,1709028819.6475077,-11.23046875,-77.1484375,-40.52734375,1.953125,-1.0,-1.0,1.0,0.0,1.m4v,3.0
2024-02-27 11:13:39.651413,1709028819.651413,4.8828125,-43.45703125,-55.17578125,-9.765625,-1.0,-1.0,1.0,0.0,1.m4v,3.0
2024-02-27 11:13:39.655318,1709028819.6553185,-13.671875,-42.96875,-66.89453125,-65.91796875,-1.0,-1.0,1.0,0.0,1.m4v,3.0
2024-02-27 11:13:39.659224,1709028819.6592236,-49.8046875,-78.61328125,-47.36328125,-92.28515625,-1.0,-1.0,1.0,0.0,1.m4v,3.0
2024-02-27 11:13:39.663138,1709028819.6631382,-45.8984375,-84.47265625,-34.1796875,-53.22265625,-1.0,-1.0,1.0,0.0,1.m4v,3.0
2024-02-27 11:13:39.667043,1709028819.6670434,-32.2265625,-43.9453125,-30.2734375,1.46484375,-1.0,-1.0,1.0,0.0,1.m4v,3.0
2024-02-27 11:13:39.670949,1709028819.6709487,-34.66796875,-56.15234375,-42.48046875,-18.06640625,-1.0,-1.0,1.0,0.0,1.m4v,3.0
2024-02-27 11:13:39.674854,1709028819.674854,-44.43359375,-68.359375,-42.48046875,-74.21875,-1.0,-1.0,1.0,0.0,1.m4v,3.0
2024-02-27 11:13:39.678760,1709028819.6787596,-40.0390625,-55.17578125,-33.69140625,-85.44921875,-1.0,-1.0,1.0,0.0,1.m4v,3.0
2024-02-27 11:13:39.682665,1709028819.6826649,-26.85546875,10.7421875,-37.109375,-25.87890625,-1.0,-1.0,1.0,0.0,1.m4v,3.0
2024-02-27 11:13:39.686570,1709028819.6865702,-15.625,13.18359375,-42.48046875,27.34375,-1.0,-1.0,1.0,0.0,1.m4v,3.0
2024-02-27 11:13:39.690475,1709028819.6904757,-17.08984375,-40.52734375,-39.0625,4.39453125,-1.0,-1.0,1.0,0.0,1.m4v,3.0
2024-02-27 11:13:39.694381,1709028819.6943808,-41.015625,-69.82421875,-34.66796875,-60.05859375,-1.0,-1.0,1.0,0.0,1.m4v,3.0
2024-02-27 11:13:39.698286,1709028819.6982863,-50.29296875,-96.6796875,-40.52734375,-79.58984375,-1.0,-1.0,1.0,0.0,1.m4v,3.0
2024-02-27 11:13:39.702192,1709028819.7021916,-40.52734375,-65.4296875,-53.22265625,-38.0859375,-1.0,-1.0,1.0,0.0,1.m4v,3.0
2024-02-27 11:13:39.706097,1709028819.706097,-28.80859375,-46.38671875,-62.98828125,4.39453125,-1.0,-1.0,1.0,0.0,1.m4v,3.0
2024-02-27 11:13:39.710017,1709028819.710017,-36.1328125,-58.59375,-59.08203125,-15.13671875,-1.0,-1.0,1.0,0.0,1.m4v,3.0
2024-02-27 11:13:39.713923,1709028819.7139225,-53.7109375,-56.640625,-58.59375,-61.5234375,-1.0,-1.0,1.0,0.0,1.m4v,3.0
2024-02-27 11:13:39.717828,1709028819.7178278,-50.78125,-67.87109375,-54.6875,-80.56640625,-1.0,-1.0,1.0,0.0,1.m4v,3.0
2024-02-27 11:13:39.721733,1709028819.721733,-41.9921875,-61.5234375,-50.78125,-49.8046875,-1.0,-1.0,1.0,0.0,1.m4v,3.0
2024-02-27 11:13:39.725638,1709028819.7256384,-33.203125,-30.76171875,-42.96875,5.859375,-1.0,-1.0,1.0,0.0,1.m4v,3.0
2024-02-27 11:13:39.729544,1709028819.7295437,-23.92578125,18.5546875,-37.59765625,18.06640625,-1.0,-1.0,1.0,0.0,1.m4v,3.0
2024-02-27 11:13:39.733449,1709028819.7334492,-20.99609375,33.69140625,-37.59765625,-26.3671875,-1.0,-1.0,1.0,0.0,1.m4v,3.0
2024-02-27 11:13:39.737355,1709028819.7373545,-29.78515625,-49.31640625,-26.85546875,-64.94140625,-1.0,-1.0,1.0,0.0,1.m4v,3.0
2024-02-27 11:13:39.741260,1709028819.7412598,-33.69140625,-81.54296875,-25.87890625,-47.8515625,-1.0,-1.0,1.0,0.0,1.m4v,3.0
2024-02-27 11:13:39.745165,1709028819.745165,-30.76171875,-49.8046875,-20.99609375,1.46484375,-1.0,-1.0,1.0,0.0,1.m4v,3.0
2024-02-27 11:13:39.749071,1709028819.7490706,-32.2265625,3.90625,-23.92578125,21.97265625,-1.0,-1.0,1.0,0.0,1.m4v,3.0
2024-02-27 11:13:39.752976,1709028819.752976,-32.2265625,31.73828125,-34.66796875,-24.90234375,-1.0,-1.0,1.0,0.0,1.m4v,3.0
2024-02-27 11:13:39.756889,1709028819.756889,-37.109375,-37.109375,-45.41015625,-75.1953125,-1.0,-1.0,1.0,0.0,1.m4v,3.0
2024-02-27 11:13:39.760795,1709028819.7607946,-48.33984375,-63.4765625,-52.734375,-66.89453125,-1.0,-1.0,1.0,0.0,1.m4v,3.0
2024-02-27 11:13:39.764700,1709028819.7647002,-41.015625,-15.625,-40.52734375,-13.671875,-1.0,-1.0,1.0,0.0,1.m4v,3.0
2024-02-27 11:13:39.768605,1709028819.7686057,-38.57421875,-14.6484375,-38.0859375,3.41796875,-1.0,-1.0,1.0,0.0,1.m4v,3.0
2024-02-27 11:13:39.772511,1709028819.7725108,-39.0625,-41.015625,-37.109375,-41.50390625,-1.0,-1.0,1.0,0.0,1.m4v,3.0
2024-02-27 11:13:39.776416,1709028819.776416,-38.0859375,-2.44140625,-29.296875,-77.63671875,-1.0,-1.0,1.0,0.0,1.m4v,3.0
2024-02-27 11:13:39.780322,1709028819.7803216,-41.015625,12.6953125,-36.62109375,-60.546875,-1.0,-1.0,1.0,0.0,1.m4v,3.0
2024-02-27 11:13:39.784227,1709028819.784227,-44.43359375,-58.59375,-45.41015625,-18.06640625,-1.0,-1.0,1.0,0.0,1.m4v,3.0
2024-02-27 11:13:39.788132,1709028819.7881322,-43.9453125,-73.2421875,-39.0625,-3.41796875,-1.0,-1.0,1.0,0.0,1.m4v,3.0
2024-02-27 11:13:39.792037,1709028819.7920375,-38.0859375,-78.125,-40.0390625,-39.55078125,-1.0,-1.0,1.0,0.0,1.m4v,3.0
2024-02-27 11:13:39.795943,1709028819.7959428,-33.69140625,-96.6796875,-42.48046875,-83.984375,-1.0,-1.0,1.0,0.0,1.m4v,3.0
2024-02-27 11:13:39.799848,1709028819.7998483,-39.0625,-67.3828125,-28.3203125,-83.984375,-1.0,-1.0,1.0,0.0,1.m4v,3.0
2024-02-27 11:13:39.803761,1709028819.803761,-44.43359375,-29.78515625,-15.13671875,-27.83203125,-1.0,-1.0,1.0,0.0,1.m4v,3.0
2024-02-27 11:13:39.807666,1709028819.8076663,-35.64453125,-12.20703125,-20.99609375,14.6484375,-1.0,-1.0,1.0,0.0,1.m4v,3.0
2024-02-27 11:13:39.811572,1709028819.8115716,-30.76171875,6.34765625,-32.71484375,-16.6015625,-1.0,-1.0,1.0,0.0,1.m4v,3.0
2024-02-27 11:13:39.815477,1709028819.815477,-41.9921875,-49.8046875,-40.52734375,-84.47265625,-1.0,-1.0,1.0,0.0,1.m4v,3.0
2024-02-27 11:13:39.819382,1709028819.8193824,-61.5234375,-99.609375,-33.69140625,-97.65625,-1.0,-1.0,1.0,0.0,1.m4v,3.0
2024-02-27 11:13:39.823288,1709028819.8232875,-55.6640625,-21.97265625,-32.71484375,-30.76171875,-1.0,-1.0,1.0,0.0,1.m4v,3.0
2024-02-27 11:13:39.827193,1709028819.827193,-35.15625,2.44140625,-31.73828125,7.32421875,-1.0,-1.0,1.0,0.0,1.m4v,3.0
2024-02-27 11:13:39.831098,1709028819.8310983,-41.50390625,-84.47265625,-18.06640625,-38.57421875,-1.0,-1.0,1.0,0.0,1.m4v,3.0
2024-02-27 11:13:39.835004,1709028819.8350036,-49.8046875,-110.3515625,-22.4609375,-87.890625,-1.0,-1.0,1.0,0.0,1.m4v,3.0
2024-02-27 11:13:39.838909,1709028819.8389091,-44.921875,-83.0078125,-29.296875,-87.890625,-1.0,-1.0,1.0,0.0,1.m4v,3.0
2024-02-27 11:13:39.842814,1709028819.8428144,-29.296875,-37.59765625,-37.59765625,-24.4140625,-1.0,-1.0,1.0,0.0,1.m4v,3.0
2024-02-27 11:13:39.846720,1709028819.8467195,-22.94921875,-35.15625,-37.109375,25.87890625,-1.0,-1.0,1.0,0.0,1.m4v,3.0
2024-02-27 11:13:39.850632,1709028819.8506317,-28.80859375,-54.19921875,-27.83203125,-1.953125,-1.0,-1.0,1.0,0.0,1.m4v,3.0
2024-02-27 11:13:39.854537,1709028819.8545372,-31.73828125,-52.734375,-26.3671875,-60.05859375,-1.0,-1.0,1.0,0.0,1.m4v,3.0
2024-02-27 11:13:39.858443,1709028819.8584423,-34.1796875,-59.08203125,-37.59765625,-84.9609375,-1.0,-1.0,1.0,0.0,1.m4v,3.0
2024-02-27 11:13:39.862348,1709028819.8623478,-33.203125,-51.7578125,-26.3671875,-46.875,-1.0,-1.0,1.0,0.0,1.m4v,3.0
2024-02-27 11:13:39.866253,1709028819.8662531,-39.55078125,-48.828125,-12.6953125,6.34765625,-1.0,-1.0,1.0,0.0,1.m4v,3.0
2024-02-27 11:13:39.870159,1709028819.870159,-36.1328125,0.48828125,-32.2265625,12.20703125,-1.0,-1.0,1.0,0.0,1.m4v,3.0
2024-02-27 11:13:39.874064,1709028819.874064,-25.87890625,62.98828125,-43.9453125,-23.92578125,-1.0,-1.0,1.0,0.0,1.m4v,3.0
2024-02-27 11:13:39.877969,1709028819.8779693,-34.1796875,-21.97265625,-39.55078125,-63.96484375,-1.0,-1.0,1.0,0.0,1.m4v,3.0
2024-02-27 11:13:39.881875,1709028819.8818746,-44.921875,-99.12109375,-31.25,-55.17578125,-1.0,-1.0,1.0,0.0,1.m4v,3.0
2024-02-27 11:13:39.885780,1709028819.88578,-33.69140625,-65.4296875,-12.20703125,4.39453125,-1.0,-1.0,1.0,0.0,1.m4v,3.0
2024-02-27 11:13:39.889685,1709028819.8896854,-22.4609375,-52.24609375,-7.8125,13.671875,-1.0,-1.0,1.0,0.0,1.m4v,3.0
2024-02-27 11:13:39.893591,1709028819.8935907,-27.34375,-61.5234375,-27.83203125,-46.875,-1.0,-1.0,1.0,0.0,1.m4v,3.0
2024-02-27 11:13:39.897502,1709028819.897502,-41.9921875,-70.80078125,-41.50390625,-90.33203125,-1.0,-1.0,1.0,0.0,1.m4v,3.0
2024-02-27 11:13:39.901407,1709028819.9014072,-46.875,-66.40625,-36.1328125,-66.89453125,-1.0,-1.0,1.0,0.0,1.m4v,3.0
2024-02-27 11:13:39.905313,1709028819.9053123,-40.0390625,-39.0625,-28.80859375,-11.23046875,-1.0,-1.0,1.0,0.0,1.m4v,3.0
2024-02-27 11:13:39.909218,1709028819.9092178,-35.15625,-15.625,-31.25,2.44140625,-1.0,-1.0,1.0,0.0,1.m4v,3.0
2024-02-27 11:13:39.913123,1709028819.9131234,-39.55078125,-39.55078125,-36.62109375,-46.38671875,-1.0,-1.0,1.0,0.0,1.m4v,3.0
2024-02-27 11:13:39.917029,1709028819.917029,-33.69140625,18.5546875,-27.83203125,-63.4765625,-1.0,-1.0,1.0,0.0,1.m4v,3.0
2024-02-27 11:13:39.920934,1709028819.920934,-30.76171875,2.44140625,-23.92578125,-43.45703125,-1.0,-1.0,1.0,0.0,1.m4v,3.0
2024-02-27 11:13:39.924839,1709028819.9248393,-32.71484375,-99.12109375,-22.4609375,-6.34765625,-1.0,-1.0,1.0,0.0,1.m4v,3.0
2024-02-27 11:13:39.928745,1709028819.9287448,-24.90234375,-57.6171875,-21.97265625,18.06640625,-1.0,-1.0,1.0,0.0,1.m4v,3.0
2024-02-27 11:13:39.932650,1709028819.93265,-26.3671875,-33.69140625,-26.85546875,-30.2734375,-1.0,-1.0,1.0,0.0,1.m4v,3.0
2024-02-27 11:13:39.936555,1709028819.9365554,-35.15625,-75.68359375,-34.1796875,-81.0546875,-1.0,-1.0,1.0,0.0,1.m4v,3.0
2024-02-27 11:13:39.940461,1709028819.9404607,-42.48046875,-83.0078125,-37.109375,-73.73046875,-1.0,-1.0,1.0,0.0,1.m4v,3.0
2024-02-27 11:13:39.944371,1709028819.9443712,-40.0390625,-49.8046875,-44.43359375,-26.85546875,-1.0,-1.0,1.0,0.0,1.m4v,3.0
2024-02-27 11:13:39.948277,1709028819.9482763,-33.203125,-3.90625,-53.7109375,13.18359375,-1.0,-1.0,1.0,0.0,1.m4v,3.0
2024-02-27 11:13:39.952182,1709028819.9521818,-42.96875,-43.9453125,-54.6875,-33.69140625,-1.0,-1.0,1.0,0.0,1.m4v,3.0
2024-02-27 11:13:39.956087,1709028819.956087,-41.50390625,-68.359375,-35.64453125,-82.51953125,-1.0,-1.0,1.0,0.0,1.m4v,3.0
2024-02-27 11:13:39.959992,1709028819.9599924,-41.9921875,-45.41015625,-19.53125,-65.91796875,-1.0,-1.0,1.0,0.0,1.m4v,3.0
2024-02-27 11:13:39.963898,1709028819.963898,-51.26953125,8.7890625,-35.64453125,-10.7421875,-1.0,-1.0,1.0,0.0,1.m4v,3.0
2024-02-27 11:13:39.967803,1709028819.9678032,-43.45703125,41.9921875,-37.109375,22.94921875,-1.0,-1.0,1.0,0.0,1.m4v,3.0
2024-02-27 11:13:39.971709,1709028819.9717083,-31.25,-41.50390625,-29.296875,-15.625,-1.0,-1.0,1.0,0.0,1.m4v,3.0
2024-02-27 11:13:39.975614,1709028819.9756138,-24.4140625,-86.42578125,-30.76171875,-67.87109375,-1.0,-1.0,1.0,0.0,1.m4v,3.0
2024-02-27 11:13:39.979519,1709028819.9795194,-36.62109375,-70.80078125,-46.875,-70.3125,-1.0,-1.0,1.0,0.0,1.m4v,3.0
2024-02-27 11:13:39.983425,1709028819.983425,-43.9453125,-49.8046875,-40.0390625,-23.4375,-1.0,-1.0,1.0,0.0,1.m4v,3.0
2024-02-27 11:13:39.987330,1709028819.98733,-38.0859375,-41.015625,-20.01953125,15.625,-1.0,-1.0,1.0,0.0,1.m4v,3.0
2024-02-27 11:13:39.991241,1709028819.9912405,-35.15625,-6.34765625,-32.71484375,-6.8359375,-1.0,-1.0,1.0,0.0,1.m4v,3.0
2024-02-27 11:13:39.995146,1709028819.9951458,-40.52734375,-28.3203125,-40.52734375,-73.2421875,-1.0,-1.0,1.0,0.0,1.m4v,3.0
2024-02-27 11:13:39.999051,1709028819.999051,-47.36328125,-83.49609375,-32.2265625,-93.75,-1.0,-1.0,1.0,0.0,1.m4v,3.0
2024-02-27 11:13:40.002957,1709028820.0029566,-56.15234375,-70.3125,-39.55078125,-49.31640625,-1.0,-1.0,1.0,0.0,1.m4v,3.0
2024-02-27 11:13:40.006862,1709028820.006862,-48.33984375,-44.43359375,-43.9453125,-1.953125,-1.0,-1.0,1.0,0.0,1.m4v,3.0
2024-02-27 11:13:40.010767,1709028820.0107672,-36.1328125,28.80859375,-41.015625,-12.20703125,-1.0,-1.0,1.0,0.0,1.m4v,3.0
2024-02-27 11:13:40.014673,1709028820.0146725,-41.9921875,-1.46484375,-48.828125,-67.87109375,-1.0,-1.0,1.0,0.0,1.m4v,3.0
2024-02-27 11:13:40.018578,1709028820.018578,-36.62109375,-107.421875,-37.109375,-80.56640625,-1.0,-1.0,1.0,0.0,1.m4v,3.0
2024-02-27 11:13:40.022483,1709028820.022483,-40.52734375,-102.5390625,-33.69140625,-48.33984375,-1.0,-1.0,1.0,0.0,1.m4v,3.0
2024-02-27 11:13:40.026389,1709028820.0263886,-44.43359375,-69.3359375,-28.80859375,0.9765625,-1.0,-1.0,1.0,0.0,1.m4v,3.0
2024-02-27 11:13:40.030294,1709028820.030294,-34.1796875,-45.8984375,-26.3671875,5.859375,-1.0,-1.0,1.0,0.0,1.m4v,3.0
2024-02-27 11:13:40.034199,1709028820.0341992,-36.62109375,-47.8515625,-24.4140625,-50.78125,-1.0,-1.0,1.0,0.0,1.m4v,3.0
2024-02-27 11:13:40.038114,1709028820.0381143,-30.2734375,-48.828125,-22.94921875,-75.68359375,-1.0,-1.0,1.0,0.0,1.m4v,3.0
2024-02-27 11:13:40.042020,1709028820.0420196,-26.85546875,-34.1796875,-25.390625,-31.25,-1.0,-1.0,1.0,0.0,1.m4v,3.0
2024-02-27 11:13:40.045925,1709028820.045925,-31.73828125,-35.15625,-26.85546875,18.5546875,-1.0,-1.0,1.0,0.0,1.m4v,3.0
2024-02-27 11:13:40.049830,1709028820.0498304,-31.25,-14.16015625,-36.62109375,8.7890625,-1.0,-1.0,1.0,0.0,1.m4v,3.0
2024-02-27 11:13:40.053736,1709028820.0537355,-35.15625,-33.69140625,-26.3671875,-47.36328125,-1.0,-1.0,1.0,0.0,1.m4v,3.0
2024-02-27 11:13:40.057641,1709028820.057641,-44.921875,-62.5,-21.484375,-75.68359375,-1.0,-1.0,1.0,0.0,1.m4v,3.0
2024-02-27 11:13:40.061546,1709028820.0615463,-41.015625,-76.66015625,-20.5078125,-45.41015625,-1.0,-1.0,1.0,0.0,1.m4v,3.0
2024-02-27 11:13:40.065452,1709028820.065452,-29.296875,-101.07421875,-23.4375,10.25390625,-1.0,-1.0,1.0,0.0,1.m4v,3.0
2024-02-27 11:13:40.069357,1709028820.0693572,-26.85546875,-74.21875,-37.109375,24.90234375,-1.0,-1.0,1.0,0.0,1.m4v,3.0
2024-02-27 11:13:40.073262,1709028820.0732625,-28.80859375,-74.70703125,-28.80859375,-32.2265625,-1.0,-1.0,1.0,0.0,1.m4v,3.0
2024-02-27 11:13:40.077168,1709028820.0771675,-36.1328125,-58.10546875,-23.92578125,-68.84765625,-1.0,-1.0,1.0,0.0,1.m4v,3.0
2024-02-27 11:13:40.081073,1709028820.081073,-46.875,-33.69140625,-38.57421875,-47.8515625,-1.0,-1.0,1.0,0.0,1.m4v,3.0
2024-02-27 11:13:40.084987,1709028820.0849874,-31.25,-26.85546875,-38.57421875,-6.34765625,-1.0,-1.0,1.0,0.0,1.m4v,3.0
2024-02-27 11:13:40.088893,1709028820.0888927,-12.20703125,-11.71875,-33.69140625,6.34765625,-1.0,-1.0,1.0,0.0,1.m4v,3.0
2024-02-27 11:13:40.092798,1709028820.092798,-25.390625,-9.765625,-41.50390625,-43.45703125,-1.0,-1.0,1.0,0.0,1.m4v,3.0
2024-02-27 11:13:40.096704,1709028820.0967035,-48.828125,-29.78515625,-44.921875,-87.890625,-1.0,-1.0,1.0,0.0,1.m4v,3.0
2024-02-27 11:13:40.100609,1709028820.1006088,-40.0390625,-31.25,-40.52734375,-71.2890625,-1.0,-1.0,1.0,0.0,1.m4v,3.0
2024-02-27 11:13:40.104514,1709028820.104514,-23.92578125,24.90234375,-42.96875,-7.32421875,-1.0,-1.0,1.0,0.0,1.m4v,3.0
2024-02-27 11:13:40.553707,1709028820.5537066,-29.78515625,-54.19921875,-43.9453125,-45.41015625,-1.0,-1.0,1.0,0.0,1.m4v,3.0
2024-02-27 11:13:40.557612,1709028820.557612,-34.66796875,-66.89453125,-52.24609375,-78.61328125,-1.0,-1.0,1.0,0.0,1.m4v,3.0
2024-02-27 11:13:40.561517,1709028820.5615177,-45.8984375,-98.14453125,-55.17578125,-61.03515625,-1.0,-1.0,1.0,0.0,1.m4v,3.0
2024-02-27 11:13:40.565423,1709028820.5654228,-36.1328125,-69.82421875,-38.57421875,-4.39453125,-1.0,-1.0,1.0,0.0,1.m4v,3.0
2024-02-27 11:13:40.569328,1709028820.569328,-12.20703125,-38.0859375,-32.2265625,18.06640625,-1.0,-1.0,1.0,0.0,1.m4v,3.0
2024-02-27 11:13:40.573233,1709028820.5732334,-18.5546875,9.765625,-51.26953125,-12.20703125,-1.0,-1.0,1.0,0.0,1.m4v,3.0
2024-02-27 11:13:40.577139,1709028820.577139,-36.62109375,0.9765625,-45.41015625,-58.59375,-1.0,-1.0,1.0,0.0,1.m4v,3.0
2024-02-27 11:13:40.581044,1709028820.5810442,-41.015625,-74.21875,-19.53125,-57.6171875,-1.0,-1.0,1.0,0.0,1.m4v,3.0
2024-02-27 11:13:40.584949,1709028820.5849495,-26.85546875,-88.37890625,-14.6484375,5.859375,-1.0,-1.0,1.0,0.0,1.m4v,3.0
2024-02-27 11:13:40.588855,1709028820.5888548,-16.6015625,-61.5234375,-20.5078125,23.4375,-1.0,-1.0,1.0,0.0,1.m4v,3.0
2024-02-27 11:13:40.592760,1709028820.59276,-31.73828125,-15.625,-24.90234375,-37.59765625,-1.0,-1.0,1.0,0.0,1.m4v,3.0
2024-02-27 11:13:40.596666,1709028820.5966656,-48.828125,-57.6171875,-40.52734375,-87.40234375,-1.0,-1.0,1.0,0.0,1.m4v,3.0
2024-02-27 11:13:40.600578,1709028820.6005776,-50.78125,-104.98046875,-44.43359375,-79.58984375,-1.0,-1.0,1.0,0.0,1.m4v,3.0
2024-02-27 11:13:40.604483,1709028820.604483,-37.59765625,-69.82421875,-41.015625,-19.53125,-1.0,-1.0,1.0,0.0,1.m4v,3.0
2024-02-27 11:13:40.608388,1709028820.6083882,-39.0625,-28.3203125,-45.41015625,11.23046875,-1.0,-1.0,1.0,0.0,1.m4v,3.0
2024-02-27 11:13:40.612294,1709028820.6122935,-39.0625,-21.484375,-44.43359375,-24.4140625,-1.0,-1.0,1.0,0.0,1.m4v,3.0
2024-02-27 11:13:40.616199,1709028820.616199,-34.66796875,-41.9921875,-39.0625,-56.15234375,-1.0,-1.0,1.0,0.0,1.m4v,3.0
2024-02-27 11:13:40.620104,1709028820.6201043,-34.1796875,-3.41796875,-28.3203125,-49.31640625,-1.0,-1.0,1.0,0.0,1.m4v,3.0
2024-02-27 11:13:40.624010,1709028820.6240096,-39.55078125,8.30078125,-35.64453125,-17.08984375,-1.0,-1.0,1.0,0.0,1.m4v,3.0
2024-02-27 11:13:40.627915,1709028820.627915,-48.828125,-76.66015625,-39.55078125,-6.34765625,-1.0,-1.0,1.0,0.0,1.m4v,3.0
2024-02-27 11:13:40.631820,1709028820.6318204,-43.45703125,-91.796875,-33.203125,-39.0625,-1.0,-1.0,1.0,0.0,1.m4v,3.0
2024-02-27 11:13:40.635726,1709028820.6357255,-40.52734375,-62.01171875,-44.43359375,-81.0546875,-1.0,-1.0,1.0,0.0,1.m4v,3.0
2024-02-27 11:13:40.639631,1709028820.639631,-43.45703125,-34.1796875,-43.45703125,-78.61328125,-1.0,-1.0,1.0,0.0,1.m4v,3.0
2024-02-27 11:13:40.643536,1709028820.6435363,-44.43359375,-37.109375,-25.87890625,-31.73828125,-1.0,-1.0,1.0,0.0,1.m4v,3.0
2024-02-27 11:13:40.647448,1709028820.647448,-51.26953125,-46.38671875,-20.99609375,8.7890625,-1.0,-1.0,1.0,0.0,1.m4v,3.0
2024-02-27 11:13:40.651353,1709028820.6513534,-49.8046875,12.6953125,-22.94921875,-9.27734375,-1.0,-1.0,1.0,0.0,1.m4v,3.0
2024-02-27 11:13:40.655259,1709028820.655259,-43.45703125,-3.41796875,-27.83203125,-75.1953125,-1.0,-1.0,1.0,0.0,1.m4v,3.0
2024-02-27 11:13:40.659164,1709028820.659164,-50.29296875,-74.70703125,-26.85546875,-96.6796875,-1.0,-1.0,1.0,0.0,1.m4v,3.0
2024-02-27 11:13:40.663069,1709028820.6630692,-48.33984375,-55.17578125,-36.1328125,-42.48046875,-1.0,-1.0,1.0,0.0,1.m4v,3.0
2024-02-27 11:13:40.666975,1709028820.6669748,-30.2734375,52.24609375,-41.9921875,20.01953125,-1.0,-1.0,1.0,0.0,1.m4v,3.0
2024-02-27 11:13:40.670880,1709028820.67088,-34.1796875,34.66796875,-30.2734375,-11.71875,-1.0,-1.0,1.0,0.0,1.m4v,3.0
2024-02-27 11:13:40.674785,1709028820.6747854,-41.9921875,-102.05078125,-33.69140625,-91.796875,-1.0,-1.0,1.0,0.0,1.m4v,3.0
2024-02-27 11:13:40.678691,1709028820.678691,-36.62109375,-109.375,-37.59765625,-98.14453125,-1.0,-1.0,1.0,0.0,1.m4v,3.0
2024-02-27 11:13:40.682596,1709028820.6825962,-30.2734375,-67.87109375,-34.1796875,-54.6875,-1.0,-1.0,1.0,0.0,1.m4v,3.0
2024-02-27 11:13:40.686502,1709028820.6865015,-31.25,-25.390625,-32.2265625,-10.7421875,-1.0,-1.0,1.0,0.0,1.m4v,3.0
2024-02-27 11:13:40.690407,1709028820.6904068,-42.48046875,-23.4375,-29.78515625,-19.04296875,-1.0,-1.0,1.0,0.0,1.m4v,3.0
2024-02-27 11:13:40.694317,1709028820.694317,-40.52734375,-47.36328125,-30.2734375,-61.5234375,-1.0,-1.0,1.0,0.0,1.m4v,3.0
2024-02-27 11:13:40.698223,1709028820.6982226,-27.34375,-49.8046875,-33.69140625,-82.03125,-1.0,-1.0,1.0,0.0,1.m4v,3.0
2024-02-27 11:13:40.702128,1709028820.702128,-31.25,-22.94921875,-33.203125,-53.7109375,-1.0,-1.0,1.0,0.0,1.m4v,3.0
2024-02-27 11:13:40.706033,1709028820.7060337,-39.55078125,-20.5078125,-31.25,-6.34765625,-1.0,-1.0,1.0,0.0,1.m4v,3.0
2024-02-27 11:13:40.709939,1709028820.7099388,-37.109375,8.7890625,-29.78515625,-0.9765625,-1.0,-1.0,1.0,0.0,1.m4v,3.0
2024-02-27 11:13:40.713844,1709028820.713844,-35.64453125,81.54296875,-38.0859375,-32.2265625,-1.0,-1.0,1.0,0.0,1.m4v,3.0
2024-02-27 11:13:40.717749,1709028820.7177494,-46.875,-4.39453125,-43.45703125,-73.73046875,-1.0,-1.0,1.0,0.0,1.m4v,3.0
2024-02-27 11:13:40.721655,1709028820.721655,-51.26953125,-105.95703125,-27.83203125,-64.453125,-1.0,-1.0,1.0,0.0,1.m4v,3.0
2024-02-27 11:13:40.725560,1709028820.7255602,-44.43359375,-69.82421875,-30.2734375,-6.8359375,-1.0,-1.0,1.0,0.0,1.m4v,3.0
2024-02-27 11:13:40.729465,1709028820.7294655,-47.8515625,-41.015625,-39.55078125,1.46484375,-1.0,-1.0,1.0,0.0,1.m4v,3.0
2024-02-27 11:13:40.733371,1709028820.7333708,-41.50390625,-44.921875,-35.15625,-47.8515625,-1.0,-1.0,1.0,0.0,1.m4v,3.0
2024-02-27 11:13:40.737276,1709028820.737276,-35.64453125,-49.31640625,-29.78515625,-83.0078125,-1.0,-1.0,1.0,0.0,1.m4v,3.0
2024-02-27 11:13:40.741186,1709028820.741186,-50.29296875,-46.875,-30.76171875,-66.89453125,-1.0,-1.0,1.0,0.0,1.m4v,3.0
2024-02-27 11:13:40.745091,1709028820.7450912,-54.19921875,-38.57421875,-18.06640625,-26.3671875,-1.0,-1.0,1.0,0.0,1.m4v,3.0
2024-02-27 11:13:40.748996,1709028820.7489965,-28.80859375,-23.92578125,-14.16015625,3.41796875,-1.0,-1.0,1.0,0.0,1.m4v,3.0
2024-02-27 11:13:40.752902,1709028820.7529018,-22.94921875,-50.29296875,-32.71484375,-36.1328125,-1.0,-1.0,1.0,0.0,1.m4v,3.0
2024-02-27 11:13:40.756807,1709028820.756807,-46.875,-66.89453125,-25.390625,-94.23828125,-1.0,-1.0,1.0,0.0,1.m4v,3.0
2024-02-27 11:13:40.760713,1709028820.7607126,-54.6875,16.6015625,-21.484375,-72.265625,-1.0,-1.0,1.0,0.0,1.m4v,3.0
2024-02-27 11:13:40.764618,1709028820.764618,-41.9921875,19.04296875,-28.80859375,-8.30078125,-1.0,-1.0,1.0,0.0,1.m4v,3.0
2024-02-27 11:13:40.768523,1709028820.7685232,-36.62109375,-41.50390625,-29.296875,16.6015625,-1.0,-1.0,1.0,0.0,1.m4v,3.0
2024-02-27 11:13:40.772429,1709028820.7724288,-38.57421875,-26.3671875,-46.875,-25.87890625,-1.0,-1.0,1.0,0.0,1.m4v,3.0
2024-02-27 11:13:40.776334,1709028820.776334,-44.43359375,-63.96484375,-41.50390625,-77.1484375,-1.0,-1.0,1.0,0.0,1.m4v,3.0
2024-02-27 11:13:40.780239,1709028820.780239,-47.8515625,-104.00390625,-19.53125,-69.82421875,-1.0,-1.0,1.0,0.0,1.m4v,3.0
2024-02-27 11:13:40.784145,1709028820.7841446,-39.55078125,-72.75390625,-25.87890625,-0.9765625,-1.0,-1.0,1.0,0.0,1.m4v,3.0
2024-02-27 11:13:40.788062,1709028820.788062,-28.3203125,-33.69140625,-33.69140625,31.73828125,-1.0,-1.0,1.0,0.0,1.m4v,3.0
2024-02-27 11:13:40.791967,1709028820.7919672,-21.97265625,-40.52734375,-42.48046875,-17.08984375,-1.0,-1.0,1.0,0.0,1.m4v,3.0
2024-02-27 11:13:40.795873,1709028820.7958727,-28.80859375,-62.98828125,-34.1796875,-67.3828125,-1.0,-1.0,1.0,0.0,1.m4v,3.0
2024-02-27 11:13:40.799778,1709028820.799778,-40.0390625,-75.1953125,-19.53125,-72.75390625,-1.0,-1.0,1.0,0.0,1.m4v,3.0
2024-02-27 11:13:40.803683,1709028820.8036833,-43.45703125,-41.50390625,-20.01953125,-22.4609375,-1.0,-1.0,1.0,0.0,1.m4v,3.0
2024-02-27 11:13:40.807589,1709028820.8075886,-33.203125,54.6875,-21.484375,46.38671875,-1.0,-1.0,1.0,0.0,1.m4v,3.0
2024-02-27 11:13:40.811494,1709028820.811494,-9.27734375,68.84765625,-31.73828125,29.78515625,-1.0,-1.0,1.0,0.0,1.m4v,3.0
2024-02-27 11:13:40.815399,1709028820.8153994,-16.11328125,-50.78125,-29.296875,-49.8046875,-1.0,-1.0,1.0,0.0,1.m4v,3.0
2024-02-27 11:13:40.819305,1709028820.8193047,-40.52734375,-111.81640625,-24.4140625,-65.91796875,-1.0,-1.0,1.0,0.0,1.m4v,3.0
2024-02-27 11:13:40.823210,1709028820.82321,-34.1796875,-47.36328125,-17.578125,-8.7890625,-1.0,-1.0,1.0,0.0,1.m4v,3.0
2024-02-27 11:13:40.827115,1709028820.8271153,-22.94921875,-2.44140625,-17.578125,34.66796875,-1.0,-1.0,1.0,0.0,1.m4v,3.0
2024-02-27 11:13:40.831021,1709028820.8310208,-31.73828125,25.390625,-30.2734375,0.0,-1.0,-1.0,1.0,0.0,1.m4v,3.0
2024-02-27 11:13:40.834941,1709028820.834941,-41.015625,-13.18359375,-24.4140625,-70.80078125,-1.0,-1.0,1.0,0.0,1.m4v,3.0
2024-02-27 11:13:40.838846,1709028820.838846,-34.1796875,-58.10546875,-18.5546875,-92.7734375,-1.0,-1.0,1.0,0.0,1.m4v,3.0
2024-02-27 11:13:40.842752,1709028820.8427515,-42.96875,-19.53125,-33.203125,-50.78125,-1.0,-1.0,1.0,0.0,1.m4v,3.0
2024-02-27 11:13:40.846657,1709028820.8466568,-51.7578125,1.953125,-41.9921875,-6.34765625,-1.0,-1.0,1.0,0.0,1.m4v,3.0
2024-02-27 11:13:40.850562,1709028820.850562,-45.41015625,-7.8125,-25.87890625,-20.01953125,-1.0,-1.0,1.0,0.0,1.m4v,3.0
2024-02-27 11:13:40.854467,1709028820.8544674,-46.38671875,37.59765625,-17.08984375,-56.15234375,-1.0,-1.0,1.0,0.0,1.m4v,3.0
2024-02-27 11:13:40.858373,1709028820.8583727,-41.015625,45.8984375,-15.625,-67.87109375,-1.0,-1.0,1.0,0.0,1.m4v,3.0
2024-02-27 11:13:40.862278,1709028820.8622782,-44.921875,-35.15625,-15.13671875,-54.19921875,-1.0,-1.0,1.0,0.0,1.m4v,3.0
2024-02-27 11:13:40.866184,1709028820.8661835,-41.015625,-44.43359375,-15.625,-9.765625,-1.0,-1.0,1.0,0.0,1.m4v,3.0
2024-02-27 11:13:40.870089,1709028820.8700888,-25.390625,7.8125,-20.5078125,5.859375,-1.0,-1.0,1.0,0.0,1.m4v,3.0
2024-02-27 11:13:40.873994,1709028820.873994,-28.80859375,34.1796875,-37.109375,-52.734375,-1.0,-1.0,1.0,0.0,1.m4v,3.0
2024-02-27 11:13:40.877900,1709028820.8778996,-30.2734375,15.13671875,-51.26953125,-107.421875,-1.0,-1.0,1.0,0.0,1.m4v,3.0
2024-02-27 11:13:40.881813,1709028820.881813,-32.2265625,14.6484375,-54.19921875,-84.47265625,-1.0,-1.0,1.0,0.0,1.m4v,3.0
2024-02-27 11:13:40.885718,1709028820.8857183,-42.96875,15.625,-30.2734375,-25.87890625,-1.0,-1.0,1.0,0.0,1.m4v,3.0
2024-02-27 11:13:40.889624,1709028820.889624,-38.0859375,59.5703125,-13.18359375,0.0,-1.0,-1.0,1.0,0.0,1.m4v,3.0
2024-02-27 11:13:40.893529,1709028820.8935292,-33.203125,87.890625,-19.53125,-45.8984375,-1.0,-1.0,1.0,0.0,1.m4v,3.0
2024-02-27 11:13:40.897434,1709028820.8974345,-44.921875,27.83203125,-33.69140625,-91.796875,-1.0,-1.0,1.0,0.0,1.m4v,3.0
2024-02-27 11:13:40.901340,1709028820.9013398,-53.7109375,56.15234375,-41.015625,-59.5703125,-1.0,-1.0,1.0,0.0,1.m4v,3.0
2024-02-27 11:13:40.905245,1709028820.905245,-44.43359375,55.6640625,-32.2265625,-3.90625,-1.0,-1.0,1.0,0.0,1.m4v,3.0
2024-02-27 11:13:40.909151,1709028820.9091506,-35.64453125,-3.41796875,-29.78515625,-2.44140625,-1.0,-1.0,1.0,0.0,1.m4v,3.0
2024-02-27 11:13:40.913056,1709028820.913056,-44.921875,-6.34765625,-39.0625,-57.6171875,-1.0,-1.0,1.0,0.0,1.m4v,3.0
2024-02-27 11:13:40.916961,1709028820.9169612,-39.55078125,-22.94921875,-35.64453125,-99.609375,-1.0,-1.0,1.0,0.0,1.m4v,3.0
2024-02-27 11:13:40.920866,1709028820.9208665,-31.73828125,-41.50390625,-22.4609375,-80.078125,-1.0,-1.0,1.0,0.0,1.m4v,3.0
2024-02-27 11:13:40.924772,1709028820.924772,-47.8515625,-15.625,-25.87890625,-23.4375,-1.0,-1.0,1.0,0.0,1.m4v,3.0
2024-02-27 11:13:40.928684,1709028820.9286845,-39.0625,13.18359375,-34.66796875,0.48828125,-1.0,-1.0,1.0,0.0,1.m4v,3.0
2024-02-27 11:13:40.932590,1709028820.9325898,-19.53125,5.859375,-29.78515625,-35.64453125,-1.0,-1.0,1.0,0.0,1.m4v,3.0
2024-02-27 11:13:40.936495,1709028820.936495,-13.671875,-10.7421875,-28.80859375,-76.171875,-1.0,-1.0,1.0,0.0,1.m4v,3.0
2024-02-27 11:13:40.940400,1709028820.9404004,-29.296875,-16.6015625,-41.9921875,-69.3359375,-1.0,-1.0,1.0,0.0,1.m4v,3.0
2024-02-27 11:13:40.944306,1709028820.9443057,-40.0390625,-15.13671875,-47.8515625,-25.390625,-1.0,-1.0,1.0,0.0,1.m4v,3.0
2024-02-27 11:13:40.948211,1709028820.9482112,-27.34375,28.80859375,-39.0625,10.7421875,-1.0,-1.0,1.0,0.0,1.m4v,3.0
2024-02-27 11:13:40.952116,1709028820.9521165,-15.13671875,79.1015625,-37.109375,2.44140625,-1.0,-1.0,1.0,0.0,1.m4v,3.0
2024-02-27 11:13:40.956022,1709028820.9560218,-21.97265625,13.671875,-42.96875,-61.5234375,-1.0,-1.0,1.0,0.0,1.m4v,3.0
2024-02-27 11:13:40.959927,1709028820.959927,-45.8984375,-72.265625,-36.1328125,-93.26171875,-1.0,-1.0,1.0,0.0,1.m4v,3.0
2024-02-27 11:13:40.963833,1709028820.9638326,-51.7578125,-54.6875,-31.73828125,-42.96875,-1.0,-1.0,1.0,0.0,1.m4v,3.0
2024-02-27 11:13:40.967738,1709028820.967738,-36.62109375,-34.1796875,-39.0625,0.0,-1.0,-1.0,1.0,0.0,1.m4v,3.0
2024-02-27 11:13:40.971643,1709028820.9716432,-28.3203125,-36.62109375,-43.9453125,-25.390625,-1.0,-1.0,1.0,0.0,1.m4v,3.0
2024-02-27 11:13:40.975555,1709028820.9755554,-17.08984375,-55.6640625,-38.57421875,-77.1484375,-1.0,-1.0,1.0,0.0,1.m4v,3.0
2024-02-27 11:13:40.979461,1709028820.9794607,-19.04296875,-66.40625,-33.203125,-70.3125,-1.0,-1.0,1.0,0.0,1.m4v,3.0
2024-02-27 11:13:40.983366,1709028820.983366,-31.25,-34.66796875,-32.2265625,-20.01953125,-1.0,-1.0,1.0,0.0,1.m4v,3.0
2024-02-27 11:13:40.987271,1709028820.9872713,-22.94921875,-17.578125,-41.015625,17.08984375,-1.0,-1.0,1.0,0.0,1.m4v,3.0
2024-02-27 11:13:40.991177,1709028820.9911766,-18.5546875,-40.0390625,-41.50390625,1.46484375,-1.0,-1.0,1.0,0.0,1.m4v,3.0
2024-02-27 11:13:40.995082,1709028820.995082,-21.97265625,11.71875,-33.203125,-33.203125,-1.0,-1.0,1.0,0.0,1.m4v,3.0
2024-02-27 11:13:40.998987,1709028820.9989874,-41.9921875,31.73828125,-29.78515625,-59.08203125,-1.0,-1.0,1.0,0.0,1.m4v,3.0
2024-02-27 11:13:41.002893,1709028821.0028927,-50.78125,-73.2421875,-16.6015625,-45.8984375,-1.0,-1.0,1.0,0.0,1.m4v,3.0
2024-02-27 11:13:41.006798,1709028821.006798,-43.9453125,-91.796875,-7.8125,10.7421875,-1.0,-1.0,1.0,0.0,1.m4v,3.0
2024-02-27 11:13:41.010704,1709028821.0107036,-40.52734375,-41.50390625,-18.06640625,5.37109375,-1.0,-1.0,1.0,0.0,1.m4v,3.0
2024-02-27 11:13:41.014609,1709028821.0146089,-30.76171875,-52.24609375,-30.2734375,-55.17578125,-1.0,-1.0,1.0,0.0,1.m4v,3.0
2024-02-27 11:13:41.018514,1709028821.0185142,-38.0859375,-78.125,-26.3671875,-81.54296875,-1.0,-1.0,1.0,0.0,1.m4v,3.0
2024-02-27 11:13:41.022425,1709028821.0224254,-41.9921875,-68.84765625,-24.90234375,-36.1328125,-1.0,-1.0,1.0,0.0,1.m4v,3.0
2024-02-27 11:13:41.026331,1709028821.026331,-32.2265625,-46.875,-38.57421875,24.4140625,-1.0,-1.0,1.0,0.0,1.m4v,3.0
2024-02-27 11:13:41.030236,1709028821.0302362,-40.52734375,-46.875,-45.8984375,-6.34765625,-1.0,-1.0,1.0,0.0,1.m4v,3.0
2024-02-27 11:13:41.034142,1709028821.0341415,-47.8515625,-63.4765625,-38.57421875,-74.21875,-1.0,-1.0,1.0,0.0,1.m4v,3.0
2024-02-27 11:13:41.038047,1709028821.0380468,-43.45703125,-47.8515625,-31.73828125,-85.44921875,-1.0,-1.0,1.0,0.0,1.m4v,3.0
2024-02-27 11:13:41.041952,1709028821.0419524,-34.1796875,-2.9296875,-22.94921875,-42.96875,-1.0,-1.0,1.0,0.0,1.m4v,3.0
2024-02-27 11:13:41.045858,1709028821.0458577,-28.3203125,6.8359375,-29.78515625,13.18359375,-1.0,-1.0,1.0,0.0,1.m4v,3.0
2024-02-27 11:13:41.049763,1709028821.049763,-32.71484375,-56.640625,-43.45703125,13.671875,-1.0,-1.0,1.0,0.0,1.m4v,3.0
2024-02-27 11:13:41.053668,1709028821.0536685,-13.671875,-83.984375,-26.85546875,-35.15625,-1.0,-1.0,1.0,0.0,1.m4v,3.0
2024-02-27 11:13:41.057574,1709028821.0575736,-5.37109375,-75.1953125,-21.97265625,-56.640625,-1.0,-1.0,1.0,0.0,1.m4v,3.0
2024-02-27 11:13:41.061479,1709028821.061479,-26.85546875,-79.1015625,-31.25,-40.52734375,-1.0,-1.0,1.0,0.0,1.m4v,3.0
2024-02-27 11:13:41.065384,1709028821.0653844,-27.83203125,-70.3125,-21.97265625,-6.8359375,-1.0,-1.0,1.0,0.0,1.m4v,3.0
2024-02-27 11:13:41.069296,1709028821.069296,-39.0625,-42.48046875,-10.7421875,1.46484375,-1.0,-1.0,1.0,0.0,1.m4v,3.0
2024-02-27 11:13:41.073201,1709028821.0732012,-57.6171875,-23.4375,-20.99609375,-54.19921875,-1.0,-1.0,1.0,0.0,1.m4v,3.0
2024-02-27 11:13:41.077106,1709028821.0771065,-51.7578125,-52.24609375,-31.73828125,-98.6328125,-1.0,-1.0,1.0,0.0,1.m4v,3.0
2024-02-27 11:13:41.081012,1709028821.0810118,-39.0625,-67.3828125,-23.92578125,-78.125,-1.0,-1.0,1.0,0.0,1.m4v,3.0
2024-02-27 11:13:41.084917,1709028821.0849173,-37.59765625,-49.31640625,-19.53125,-25.390625,-1.0,-1.0,1.0,0.0,1.m4v,3.0
2024-02-27 11:13:41.088823,1709028821.0888226,-30.76171875,25.390625,-13.671875,16.11328125,-1.0,-1.0,1.0,0.0,1.m4v,3.0
2024-02-27 11:13:41.092728,1709028821.092728,-25.87890625,3.41796875,-11.71875,-25.87890625,-1.0,-1.0,1.0,0.0,1.m4v,3.0
2024-02-27 11:13:41.096633,1709028821.0966332,-44.43359375,-106.93359375,-37.109375,-100.5859375,-1.0,-1.0,1.0,0.0,1.m4v,3.0
2024-02-27 11:13:41.100539,1709028821.1005387,-61.03515625,-106.93359375,-41.50390625,-84.47265625,-1.0,-1.0,1.0,0.0,1.m4v,3.0
2024-02-27 11:13:41.104444,1709028821.104444,-49.31640625,-55.17578125,-13.671875,-13.18359375,-1.0,-1.0,1.0,0.0,1.m4v,3.0
2024-02-27 11:13:41.108349,1709028821.108349,-38.57421875,-53.22265625,-4.39453125,9.765625,-1.0,-1.0,1.0,0.0,1.m4v,3.0
2024-02-27 11:13:41.112255,1709028821.1122546,-35.15625,-71.2890625,-7.32421875,-32.71484375,-1.0,-1.0,1.0,0.0,1.m4v,3.0
2024-02-27 11:13:41.116164,1709028821.1161644,-30.2734375,-71.77734375,-6.8359375,-81.0546875,-1.0,-1.0,1.0,0.0,1.m4v,3.0
2024-02-27 11:13:41.120070,1709028821.1200695,-37.109375,-56.640625,-22.94921875,-73.2421875,-1.0,-1.0,1.0,0.0,1.m4v,3.0
2024-02-27 11:13:41.123975,1709028821.1239753,-38.57421875,-20.5078125,-22.94921875,-9.27734375,-1.0,-1.0,1.0,0.0,1.m4v,3.0
2024-02-27 11:13:41.127881,1709028821.1278806,-30.76171875,-6.34765625,-9.765625,21.484375,-1.0,-1.0,1.0,0.0,1.m4v,3.0
2024-02-27 11:13:41.131786,1709028821.131786,-34.1796875,0.0,-11.23046875,-16.11328125,-1.0,-1.0,1.0,0.0,1.m4v,3.0
2024-02-27 11:13:41.135691,1709028821.1356912,-42.48046875,33.69140625,-29.78515625,-64.94140625,-1.0,-1.0,1.0,0.0,1.m4v,3.0
2024-02-27 11:13:41.538009,1709028821.538009,-34.66796875,-29.78515625,-28.3203125,-86.9140625,-1.0,-1.0,1.0,0.0,1.m4v,3.0
2024-02-27 11:13:41.541914,1709028821.5419142,-31.73828125,-26.3671875,-27.83203125,-58.10546875,-1.0,-1.0,1.0,0.0,1.m4v,3.0
2024-02-27 11:13:41.545820,1709028821.5458195,-29.78515625,-7.32421875,-31.73828125,1.953125,-1.0,-1.0,1.0,0.0,1.m4v,3.0
2024-02-27 11:13:41.549725,1709028821.5497248,-23.92578125,42.96875,-35.15625,16.6015625,-1.0,-1.0,1.0,0.0,1.m4v,3.0
2024-02-27 11:13:41.553630,1709028821.5536304,-33.69140625,31.25,-40.0390625,-43.45703125,-1.0,-1.0,1.0,0.0,1.m4v,3.0
2024-02-27 11:13:41.557536,1709028821.5575356,-42.96875,14.16015625,-50.29296875,-81.0546875,-1.0,-1.0,1.0,0.0,1.m4v,3.0
2024-02-27 11:13:41.561441,1709028821.561441,-36.62109375,13.18359375,-63.96484375,-55.17578125,-1.0,-1.0,1.0,0.0,1.m4v,3.0
2024-02-27 11:13:41.565346,1709028821.5653462,-38.57421875,-25.390625,-50.29296875,-13.18359375,-1.0,-1.0,1.0,0.0,1.m4v,3.0
2024-02-27 11:13:41.569252,1709028821.5692515,-37.109375,-11.23046875,-34.66796875,-0.9765625,-1.0,-1.0,1.0,0.0,1.m4v,3.0
2024-02-27 11:13:41.573157,1709028821.573157,-39.55078125,-7.32421875,-26.85546875,-44.921875,-1.0,-1.0,1.0,0.0,1.m4v,3.0
2024-02-27 11:13:41.577062,1709028821.5770624,-46.38671875,-1.46484375,-13.671875,-87.40234375,-1.0,-1.0,1.0,0.0,1.m4v,3.0
2024-02-27 11:13:41.580968,1709028821.5809677,-45.41015625,26.3671875,-20.5078125,-68.359375,-1.0,-1.0,1.0,0.0,1.m4v,3.0
2024-02-27 11:13:41.584882,1709028821.584882,-37.59765625,40.0390625,-37.109375,-18.06640625,-1.0,-1.0,1.0,0.0,1.m4v,3.0
2024-02-27 11:13:41.588787,1709028821.5887873,-29.78515625,56.15234375,-35.64453125,-3.90625,-1.0,-1.0,1.0,0.0,1.m4v,3.0
2024-02-27 11:13:41.592693,1709028821.5926929,-41.50390625,32.71484375,-41.015625,-50.78125,-1.0,-1.0,1.0,0.0,1.m4v,3.0
2024-02-27 11:13:41.596598,1709028821.596598,-41.015625,-1.953125,-54.19921875,-93.75,-1.0,-1.0,1.0,0.0,1.m4v,3.0
2024-02-27 11:13:41.600503,1709028821.6005034,-25.390625,9.765625,-42.96875,-62.98828125,-1.0,-1.0,1.0,0.0,1.m4v,3.0
2024-02-27 11:13:41.604409,1709028821.6044087,-10.7421875,77.1484375,-45.41015625,6.8359375,-1.0,-1.0,1.0,0.0,1.m4v,3.0
2024-02-27 11:13:41.608314,1709028821.6083145,-23.4375,95.21484375,-61.03515625,23.92578125,-1.0,-1.0,1.0,0.0,1.m4v,3.0
2024-02-27 11:13:41.612220,1709028821.6122196,-41.9921875,55.17578125,-49.31640625,-22.94921875,-1.0,-1.0,1.0,0.0,1.m4v,3.0
2024-02-27 11:13:41.616125,1709028821.6161249,-52.734375,4.39453125,-37.59765625,-84.9609375,-1.0,-1.0,1.0,0.0,1.m4v,3.0
2024-02-27 11:13:41.620030,1709028821.6200302,-56.15234375,-60.546875,-38.0859375,-103.02734375,-1.0,-1.0,1.0,0.0,1.m4v,3.0
2024-02-27 11:13:41.623935,1709028821.6239357,-36.62109375,-37.59765625,-38.57421875,-39.55078125,-1.0,-1.0,1.0,0.0,1.m4v,3.0
2024-02-27 11:13:41.627841,1709028821.627841,-31.73828125,-3.41796875,-30.76171875,9.765625,-1.0,-1.0,1.0,0.0,1.m4v,3.0
2024-02-27 11:13:41.631755,1709028821.6317546,-37.59765625,-9.765625,-35.64453125,-26.3671875,-1.0,-1.0,1.0,0.0,1.m4v,3.0
2024-02-27 11:13:41.635660,1709028821.63566,-26.3671875,-29.78515625,-39.0625,-81.0546875,-1.0,-1.0,1.0,0.0,1.m4v,3.0
2024-02-27 11:13:41.639565,1709028821.6395652,-26.3671875,-20.01953125,-37.59765625,-71.77734375,-1.0,-1.0,1.0,0.0,1.m4v,3.0
2024-02-27 11:13:41.643471,1709028821.6434703,-41.9921875,-1.46484375,-51.26953125,-21.484375,-1.0,-1.0,1.0,0.0,1.m4v,3.0
2024-02-27 11:13:41.647376,1709028821.647376,-32.2265625,7.32421875,-47.36328125,25.390625,-1.0,-1.0,1.0,0.0,1.m4v,3.0
2024-02-27 11:13:41.651281,1709028821.6512814,-16.11328125,61.03515625,-38.57421875,11.23046875,-1.0,-1.0,1.0,0.0,1.m4v,3.0
2024-02-27 11:13:41.655187,1709028821.655187,-29.78515625,46.38671875,-39.0625,-56.640625,-1.0,-1.0,1.0,0.0,1.m4v,3.0
2024-02-27 11:13:41.659092,1709028821.659092,-36.1328125,-62.01171875,-42.96875,-80.078125,-1.0,-1.0,1.0,0.0,1.m4v,3.0
2024-02-27 11:13:41.662997,1709028821.6629975,-34.1796875,-103.02734375,-45.41015625,-38.57421875,-1.0,-1.0,1.0,0.0,1.m4v,3.0
2024-02-27 11:13:41.666903,1709028821.6669028,-41.9921875,-89.84375,-39.0625,-7.32421875,-1.0,-1.0,1.0,0.0,1.m4v,3.0
2024-02-27 11:13:41.670808,1709028821.670808,-37.109375,-14.16015625,-29.78515625,-4.8828125,-1.0,-1.0,1.0,0.0,1.m4v,3.0
2024-02-27 11:13:41.674713,1709028821.6747134,-39.0625,-8.30078125,-45.8984375,-49.8046875,-1.0,-1.0,1.0,0.0,1.m4v,3.0
2024-02-27 11:13:41.678626,1709028821.6786263,-42.48046875,-86.42578125,-68.359375,-83.0078125,-1.0,-1.0,1.0,0.0,1.m4v,3.0
2024-02-27 11:13:41.682532,1709028821.6825316,-36.62109375,-79.1015625,-41.015625,-39.55078125,-1.0,-1.0,1.0,0.0,1.m4v,3.0
2024-02-27 11:13:41.686437,1709028821.6864371,-28.3203125,-24.4140625,-20.01953125,19.04296875,-1.0,-1.0,1.0,0.0,1.m4v,3.0
2024-02-27 11:13:41.690342,1709028821.6903424,-15.625,-3.41796875,-29.296875,18.06640625,-1.0,-1.0,1.0,0.0,1.m4v,3.0
2024-02-27 11:13:41.694248,1709028821.6942475,-18.5546875,-40.0390625,-31.73828125,-28.80859375,-1.0,-1.0,1.0,0.0,1.m4v,3.0
2024-02-27 11:13:41.698153,1709028821.698153,-21.484375,10.7421875,-25.87890625,-32.2265625,-1.0,-1.0,1.0,0.0,1.m4v,3.0
2024-02-27 11:13:41.702059,1709028821.7020586,-20.99609375,5.859375,-24.90234375,-18.5546875,-1.0,-1.0,1.0,0.0,1.m4v,3.0
2024-02-27 11:13:41.705964,1709028821.705964,-31.73828125,-69.82421875,-31.25,7.8125,-1.0,-1.0,1.0,0.0,1.m4v,3.0
2024-02-27 11:13:41.709869,1709028821.7098691,-28.3203125,-49.31640625,-36.62109375,11.23046875,-1.0,-1.0,1.0,0.0,1.m4v,3.0
2024-02-27 11:13:41.713774,1709028821.7137744,-20.99609375,-38.57421875,-48.33984375,-55.17578125,-1.0,-1.0,1.0,0.0,1.m4v,3.0
2024-02-27 11:13:41.717680,1709028821.71768,-15.625,-65.4296875,-41.015625,-93.75,-1.0,-1.0,1.0,0.0,1.m4v,3.0
2024-02-27 11:13:41.721585,1709028821.7215853,-21.97265625,-63.96484375,-26.3671875,-59.5703125,-1.0,-1.0,1.0,0.0,1.m4v,3.0
2024-02-27 11:13:41.725497,1709028821.7254975,-31.73828125,-29.78515625,-20.99609375,-9.765625,-1.0,-1.0,1.0,0.0,1.m4v,3.0
2024-02-27 11:13:41.729403,1709028821.7294028,-32.71484375,-3.90625,-30.76171875,0.9765625,-1.0,-1.0,1.0,0.0,1.m4v,3.0
2024-02-27 11:13:41.733308,1709028821.733308,-41.9921875,1.46484375,-45.41015625,-41.9921875,-1.0,-1.0,1.0,0.0,1.m4v,3.0
2024-02-27 11:13:41.737213,1709028821.7372134,-44.921875,-49.31640625,-35.15625,-83.49609375,-1.0,-1.0,1.0,0.0,1.m4v,3.0
2024-02-27 11:13:41.741119,1709028821.741119,-38.0859375,-85.44921875,-23.92578125,-72.75390625,-1.0,-1.0,1.0,0.0,1.m4v,3.0
2024-02-27 11:13:41.745024,1709028821.7450242,-32.2265625,-8.30078125,-26.85546875,-1.46484375,-1.0,-1.0,1.0,0.0,1.m4v,3.0
2024-02-27 11:13:41.748930,1709028821.7489295,-24.4140625,29.78515625,-35.15625,41.9921875,-1.0,-1.0,1.0,0.0,1.m4v,3.0
2024-02-27 11:13:41.752835,1709028821.7528348,-36.1328125,-60.546875,-39.55078125,-21.484375,-1.0,-1.0,1.0,0.0,1.m4v,3.0
2024-02-27 11:13:41.756740,1709028821.7567403,-48.828125,-108.88671875,-35.15625,-81.54296875,-1.0,-1.0,1.0,0.0,1.m4v,3.0
2024-02-27 11:13:41.760646,1709028821.7606456,-49.31640625,-106.93359375,-38.57421875,-79.58984375,-1.0,-1.0,1.0,0.0,1.m4v,3.0
2024-02-27 11:13:41.764551,1709028821.764551,-48.33984375,-65.91796875,-34.1796875,-32.71484375,-1.0,-1.0,1.0,0.0,1.m4v,3.0
2024-02-27 11:13:41.768456,1709028821.7684562,-37.109375,-47.8515625,-29.78515625,3.90625,-1.0,-1.0,1.0,0.0,1.m4v,3.0
2024-02-27 11:13:41.772368,1709028821.7723677,-38.0859375,-52.734375,-39.55078125,-33.69140625,-1.0,-1.0,1.0,0.0,1.m4v,3.0
2024-02-27 11:13:41.776273,1709028821.776273,-47.8515625,-67.3828125,-36.1328125,-100.5859375,-1.0,-1.0,1.0,0.0,1.m4v,3.0
2024-02-27 11:13:41.780178,1709028821.7801783,-48.828125,-71.2890625,-35.64453125,-96.6796875,-1.0,-1.0,1.0,0.0,1.m4v,3.0
2024-02-27 11:13:41.784084,1709028821.7840838,-43.9453125,-38.57421875,-43.9453125,-33.69140625,-1.0,-1.0,1.0,0.0,1.m4v,3.0
2024-02-27 11:13:41.787989,1709028821.7879891,-41.015625,-24.90234375,-40.0390625,-14.16015625,-1.0,-1.0,1.0,0.0,1.m4v,3.0
2024-02-27 11:13:41.791894,1709028821.7918944,-43.9453125,16.11328125,-36.1328125,-40.0390625,-1.0,-1.0,1.0,0.0,1.m4v,3.0
2024-02-27 11:13:41.795800,1709028821.7957995,-41.50390625,48.33984375,-43.9453125,-71.77734375,-1.0,-1.0,1.0,0.0,1.m4v,3.0
2024-02-27 11:13:41.799705,1709028821.7997053,-43.9453125,-66.89453125,-47.36328125,-95.21484375,-1.0,-1.0,1.0,0.0,1.m4v,3.0
2024-02-27 11:13:41.803611,1709028821.8036106,-44.921875,-135.7421875,-38.57421875,-55.17578125,-1.0,-1.0,1.0,0.0,1.m4v,3.0
2024-02-27 11:13:41.807516,1709028821.807516,-37.59765625,-91.796875,-35.15625,2.44140625,-1.0,-1.0,1.0,0.0,1.m4v,3.0
2024-02-27 11:13:41.811421,1709028821.8114212,-28.80859375,-66.89453125,-41.50390625,-20.5078125,-1.0,-1.0,1.0,0.0,1.m4v,3.0
2024-02-27 11:13:41.815327,1709028821.8153267,-20.99609375,-73.2421875,-43.45703125,-75.1953125,-1.0,-1.0,1.0,0.0,1.m4v,3.0
2024-02-27 11:13:41.819243,1709028821.819243,-24.4140625,-77.63671875,-45.41015625,-72.265625,-1.0,-1.0,1.0,0.0,1.m4v,3.0
2024-02-27 11:13:41.823148,1709028821.8231485,-16.6015625,-48.828125,-39.0625,-17.08984375,-1.0,-1.0,1.0,0.0,1.m4v,3.0
2024-02-27 11:13:41.827054,1709028821.8270538,-5.859375,-20.99609375,-24.4140625,31.73828125,-1.0,-1.0,1.0,0.0,1.m4v,3.0
2024-02-27 11:13:41.830959,1709028821.830959,-11.23046875,-16.11328125,-20.5078125,12.6953125,-1.0,-1.0,1.0,0.0,1.m4v,3.0
2024-02-27 11:13:41.834864,1709028821.8348644,-20.01953125,-45.8984375,-29.296875,-50.78125,-1.0,-1.0,1.0,0.0,1.m4v,3.0
2024-02-27 11:13:41.838770,1709028821.83877,-30.2734375,-16.11328125,-33.69140625,-77.63671875,-1.0,-1.0,1.0,0.0,1.m4v,3.0
2024-02-27 11:13:41.842675,1709028821.8426752,-32.71484375,9.27734375,-32.71484375,-39.55078125,-1.0,-1.0,1.0,0.0,1.m4v,3.0
2024-02-27 11:13:41.846581,1709028821.8465805,-27.34375,-37.109375,-46.38671875,6.8359375,-1.0,-1.0,1.0,0.0,1.m4v,3.0
2024-02-27 11:13:41.850486,1709028821.8504858,-29.296875,-7.32421875,-46.875,2.9296875,-1.0,-1.0,1.0,0.0,1.m4v,3.0
2024-02-27 11:13:41.854391,1709028821.854391,-32.71484375,-16.6015625,-36.1328125,-49.8046875,-1.0,-1.0,1.0,0.0,1.m4v,3.0
2024-02-27 11:13:41.858297,1709028821.8582966,-37.109375,-73.2421875,-30.76171875,-85.44921875,-1.0,-1.0,1.0,0.0,1.m4v,3.0
2024-02-27 11:13:41.862202,1709028821.862202,-39.0625,-55.17578125,-29.296875,-55.6640625,-1.0,-1.0,1.0,0.0,1.m4v,3.0
2024-02-27 11:13:41.866112,1709028821.8661118,-37.109375,-68.359375,-48.33984375,-10.25390625,-1.0,-1.0,1.0,0.0,1.m4v,3.0
2024-02-27 11:13:41.870017,1709028821.870017,-38.57421875,-61.03515625,-37.109375,-18.06640625,-1.0,-1.0,1.0,0.0,1.m4v,3.0
2024-02-27 11:13:41.873922,1709028821.8739223,-37.109375,-43.45703125,-13.671875,-64.453125,-1.0,-1.0,1.0,0.0,1.m4v,3.0
2024-02-27 11:13:41.877828,1709028821.8778276,-45.8984375,-52.24609375,-34.66796875,-83.984375,-1.0,-1.0,1.0,0.0,1.m4v,3.0
2024-02-27 11:13:41.881733,1709028821.8817332,-44.921875,-68.359375,-41.9921875,-54.19921875,-1.0,-1.0,1.0,0.0,1.m4v,3.0
2024-02-27 11:13:41.885638,1709028821.8856385,-30.76171875,1.46484375,-19.04296875,12.6953125,-1.0,-1.0,1.0,0.0,1.m4v,3.0
2024-02-27 11:13:41.889544,1709028821.8895438,-37.59765625,46.38671875,-9.765625,24.4140625,-1.0,-1.0,1.0,0.0,1.m4v,3.0
2024-02-27 11:13:41.893449,1709028821.893449,-47.8515625,-48.828125,-3.90625,-42.48046875,-1.0,-1.0,1.0,0.0,1.m4v,3.0
2024-02-27 11:13:41.897355,1709028821.8973546,-45.41015625,-71.2890625,2.9296875,-75.68359375,-1.0,-1.0,1.0,0.0,1.m4v,3.0
2024-02-27 11:13:41.901260,1709028821.90126,-49.8046875,-61.5234375,-20.01953125,-59.5703125,-1.0,-1.0,1.0,0.0,1.m4v,3.0
2024-02-27 11:13:41.905165,1709028821.9051652,-47.8515625,-72.75390625,-45.41015625,-21.97265625,-1.0,-1.0,1.0,0.0,1.m4v,3.0
2024-02-27 11:13:41.909070,1709028821.9090705,-33.69140625,-37.59765625,-41.50390625,0.9765625,-1.0,-1.0,1.0,0.0,1.m4v,3.0
2024-02-27 11:13:41.912986,1709028821.9129856,-35.15625,11.71875,-23.4375,-31.25,-1.0,-1.0,1.0,0.0,1.m4v,3.0
2024-02-27 11:13:41.916891,1709028821.9168909,-38.0859375,-35.64453125,-10.25390625,-83.984375,-1.0,-1.0,1.0,0.0,1.m4v,3.0
2024-02-27 11:13:41.920796,1709028821.9207962,-29.78515625,-79.1015625,-13.18359375,-91.30859375,-1.0,-1.0,1.0,0.0,1.m4v,3.0
2024-02-27 11:13:41.924702,1709028821.9247017,-31.73828125,-55.6640625,-12.6953125,-34.66796875,-1.0,-1.0,1.0,0.0,1.m4v,3.0
2024-02-27 11:13:41.928607,1709028821.928607,-28.80859375,-21.97265625,-9.27734375,8.7890625,-1.0,-1.0,1.0,0.0,1.m4v,3.0
2024-02-27 11:13:41.932512,1709028821.9325123,-17.578125,30.2734375,-16.6015625,-22.94921875,-1.0,-1.0,1.0,0.0,1.m4v,3.0
2024-02-27 11:13:41.936418,1709028821.9364176,-25.390625,1.953125,-28.80859375,-71.77734375,-1.0,-1.0,1.0,0.0,1.m4v,3.0
2024-02-27 11:13:41.940323,1709028821.940323,-50.29296875,-82.03125,-27.83203125,-78.61328125,-1.0,-1.0,1.0,0.0,1.m4v,3.0
2024-02-27 11:13:41.944228,1709028821.9442284,-42.96875,-101.07421875,-16.11328125,-22.4609375,-1.0,-1.0,1.0,0.0,1.m4v,3.0
2024-02-27 11:13:41.948134,1709028821.9481337,-25.87890625,-70.3125,-13.671875,26.3671875,-1.0,-1.0,1.0,0.0,1.m4v,3.0
2024-02-27 11:13:41.952039,1709028821.952039,-29.296875,-49.31640625,-20.99609375,-12.20703125,-1.0,-1.0,1.0,0.0,1.m4v,3.0
2024-02-27 11:13:41.955945,1709028821.9559443,-34.66796875,-64.94140625,-26.85546875,-73.2421875,-1.0,-1.0,1.0,0.0,1.m4v,3.0
2024-02-27 11:13:41.959859,1709028821.959859,-35.15625,-54.6875,-33.69140625,-74.21875,-1.0,-1.0,1.0,0.0,1.m4v,3.0
2024-02-27 11:13:41.963764,1709028821.9637642,-31.73828125,-39.55078125,-37.109375,-22.94921875,-1.0,-1.0,1.0,0.0,1.m4v,3.0
2024-02-27 11:13:41.967669,1709028821.9676695,-24.90234375,-26.85546875,-22.94921875,20.5078125,-1.0,-1.0,1.0,0.0,1.m4v,3.0
2024-02-27 11:13:41.971575,1709028821.9715748,-28.80859375,8.7890625,-12.6953125,0.48828125,-1.0,-1.0,1.0,0.0,1.m4v,3.0
2024-02-27 11:13:41.975480,1709028821.97548,-41.50390625,-18.5546875,-10.7421875,-52.734375,-1.0,-1.0,1.0,0.0,1.m4v,3.0
2024-02-27 11:13:41.979385,1709028821.9793854,-53.22265625,-22.94921875,-12.20703125,-59.5703125,-1.0,-1.0,1.0,0.0,1.m4v,3.0
2024-02-27 11:13:41.983291,1709028821.983291,-56.15234375,-31.25,-17.08984375,-26.85546875,-1.0,-1.0,1.0,0.0,1.m4v,3.0
2024-02-27 11:13:41.987196,1709028821.9871962,-55.6640625,-96.6796875,-21.97265625,0.48828125,-1.0,-1.0,1.0,0.0,1.m4v,3.0
2024-02-27 11:13:41.991102,1709028821.9911015,-57.12890625,-89.84375,-30.76171875,-17.08984375,-1.0,-1.0,1.0,0.0,1.m4v,3.0
2024-02-27 11:13:41.995007,1709028821.9950068,-50.29296875,-71.2890625,-45.41015625,-71.77734375,-1.0,-1.0,1.0,0.0,1.m4v,3.0
2024-02-27 11:13:41.998912,1709028821.9989123,-51.26953125,-68.84765625,-37.109375,-93.75,-1.0,-1.0,1.0,0.0,1.m4v,3.0
2024-02-27 11:13:42.002818,1709028822.0028176,-59.5703125,-62.01171875,-20.01953125,-51.26953125,-1.0,-1.0,1.0,0.0,1.m4v,3.0
2024-02-27 11:13:42.006731,1709028822.0067313,-42.96875,-35.64453125,-27.34375,4.39453125,-1.0,-1.0,1.0,0.0,1.m4v,3.0
2024-02-27 11:13:42.010637,1709028822.0106366,-19.04296875,-25.87890625,-36.1328125,-3.90625,-1.0,-1.0,1.0,0.0,1.m4v,3.0
2024-02-27 11:13:42.014542,1709028822.014542,-22.4609375,-48.33984375,-31.73828125,-60.546875,-1.0,-1.0,1.0,0.0,1.m4v,3.0
2024-02-27 11:13:42.018447,1709028822.0184472,-37.109375,-64.453125,-36.1328125,-91.796875,-1.0,-1.0,1.0,0.0,1.m4v,3.0
2024-02-27 11:13:42.022353,1709028822.0223527,-34.66796875,-53.22265625,-31.25,-43.9453125,-1.0,-1.0,1.0,0.0,1.m4v,3.0
2024-02-27 11:13:42.026258,1709028822.026258,-29.296875,23.4375,-14.16015625,26.85546875,-1.0,-1.0,1.0,0.0,1.m4v,3.0
2024-02-27 11:13:42.030163,1709028822.0301633,-26.3671875,47.36328125,-19.04296875,25.87890625,-1.0,-1.0,1.0,0.0,1.m4v,3.0
2024-02-27 11:13:42.034069,1709028822.0340686,-34.66796875,-43.45703125,-37.109375,-38.57421875,-1.0,-1.0,1.0,0.0,1.m4v,3.0
2024-02-27 11:13:42.037974,1709028822.037974,-52.24609375,-98.6328125,-40.52734375,-83.0078125,-1.0,-1.0,1.0,0.0,1.m4v,3.0
2024-02-27 11:13:42.041879,1709028822.0418794,-55.6640625,-97.16796875,-33.203125,-59.5703125,-1.0,-1.0,1.0,0.0,1.m4v,3.0
2024-02-27 11:13:42.045785,1709028822.0457847,-42.96875,-66.89453125,-25.87890625,-2.9296875,-1.0,-1.0,1.0,0.0,1.m4v,3.0
2024-02-27 11:13:42.049690,1709028822.04969,-37.109375,-24.90234375,-41.015625,8.30078125,-1.0,-1.0,1.0,0.0,1.m4v,3.0
2024-02-27 11:13:42.053604,1709028822.053604,-41.015625,-36.1328125,-40.52734375,-43.9453125,-1.0,-1.0,1.0,0.0,1.m4v,3.0
2024-02-27 11:13:42.057509,1709028822.0575092,-39.0625,-58.10546875,-29.296875,-83.984375,-1.0,-1.0,1.0,0.0,1.m4v,3.0
2024-02-27 11:13:42.061414,1709028822.0614145,-39.0625,-48.828125,-24.4140625,-62.98828125,-1.0,-1.0,1.0,0.0,1.m4v,3.0
2024-02-27 11:13:42.065320,1709028822.06532,-38.57421875,-26.85546875,-10.25390625,-3.90625,-1.0,-1.0,1.0,0.0,1.m4v,3.0
2024-02-27 11:13:42.069225,1709028822.0692253,-37.109375,-25.87890625,-19.53125,10.7421875,-1.0,-1.0,1.0,0.0,1.m4v,3.0
2024-02-27 11:13:42.073131,1709028822.0731306,-19.53125,14.16015625,-34.66796875,-31.25,-1.0,-1.0,1.0,0.0,1.m4v,3.0
2024-02-27 11:13:42.077036,1709028822.077036,-4.39453125,10.25390625,-36.62109375,-67.3828125,-1.0,-1.0,1.0,0.0,1.m4v,3.0
2024-02-27 11:13:42.080941,1709028822.0809414,-24.90234375,-56.15234375,-39.0625,-54.19921875,-1.0,-1.0,1.0,0.0,1.m4v,3.0
2024-02-27 11:13:42.084847,1709028822.0848467,-43.9453125,-66.40625,-39.0625,-13.18359375,-1.0,-1.0,1.0,0.0,1.m4v,3.0
2024-02-27 11:13:42.088752,1709028822.088752,-41.9921875,-70.3125,-34.1796875,-2.9296875,-1.0,-1.0,1.0,0.0,1.m4v,3.0
2024-02-27 11:13:42.092657,1709028822.092657,-40.0390625,-42.48046875,-34.66796875,-34.1796875,-1.0,-1.0,1.0,0.0,1.m4v,3.0
2024-02-27 11:13:42.096563,1709028822.0965626,-27.34375,-47.36328125,-36.1328125,-59.5703125,-1.0,-1.0,1.0,0.0,1.m4v,3.0
2024-02-27 11:13:42.100475,1709028822.1004748,-15.625,-88.37890625,-30.2734375,-36.1328125,-1.0,-1.0,1.0,0.0,1.m4v,3.0
2024-02-27 11:13:42.104380,1709028822.10438,-25.87890625,-67.87109375,-17.08984375,0.9765625,-1.0,-1.0,1.0,0.0,1.m4v,3.0
2024-02-27 11:13:42.108285,1709028822.1082854,-48.33984375,-37.59765625,-16.6015625,8.30078125,-1.0,-1.0,1.0,0.0,1.m4v,3.0
2024-02-27 11:13:42.112191,1709028822.1121907,-48.33984375,-49.8046875,-16.11328125,-25.390625,-1.0,-1.0,1.0,0.0,1.m4v,3.0
2024-02-27 11:13:42.116096,1709028822.1160965,-36.1328125,-57.12890625,-16.6015625,-69.3359375,-1.0,-1.0,1.0,0.0,1.m4v,3.0
2024-02-27 11:13:42.120002,1709028822.1200016,-33.69140625,29.296875,-16.11328125,-56.640625,-1.0,-1.0,1.0,0.0,1.m4v,3.0
2024-02-27 11:13:42.569186,1709028822.5691864,-42.96875,-40.0390625,-33.203125,-6.34765625,-1.0,-1.0,1.0,0.0,1.m4v,3.0
2024-02-27 11:13:42.573092,1709028822.5730915,-22.4609375,1.953125,-15.13671875,-26.85546875,-1.0,-1.0,1.0,0.0,1.m4v,3.0
2024-02-27 11:13:42.576997,1709028822.576997,-27.34375,-41.015625,-31.25,-94.23828125,-1.0,-1.0,1.0,0.0,1.m4v,3.0
2024-02-27 11:13:42.580903,1709028822.5809026,-51.26953125,-87.890625,-42.48046875,-100.5859375,-1.0,-1.0,1.0,0.0,1.m4v,3.0
2024-02-27 11:13:42.584808,1709028822.584808,-46.875,-50.29296875,-35.15625,-28.80859375,-1.0,-1.0,1.0,0.0,1.m4v,3.0
2024-02-27 11:13:42.588713,1709028822.5887132,-41.015625,8.7890625,-28.80859375,11.71875,-1.0,-1.0,1.0,0.0,1.m4v,3.0
2024-02-27 11:13:42.592618,1709028822.5926185,-50.29296875,-20.99609375,-21.484375,-33.69140625,-1.0,-1.0,1.0,0.0,1.m4v,3.0
2024-02-27 11:13:42.596524,1709028822.596524,-58.59375,-90.33203125,-27.34375,-93.75,-1.0,-1.0,1.0,0.0,1.m4v,3.0
2024-02-27 11:13:42.600429,1709028822.6004293,-44.921875,-82.03125,-19.04296875,-71.2890625,-1.0,-1.0,1.0,0.0,1.m4v,3.0
2024-02-27 11:13:42.604335,1709028822.6043346,-30.2734375,-43.45703125,-11.23046875,-17.578125,-1.0,-1.0,1.0,0.0,1.m4v,3.0
2024-02-27 11:13:42.608240,1709028822.60824,-41.50390625,-30.76171875,-15.625,2.9296875,-1.0,-1.0,1.0,0.0,1.m4v,3.0
2024-02-27 11:13:42.612145,1709028822.6121452,-39.0625,-61.03515625,-22.94921875,-23.4375,-1.0,-1.0,1.0,0.0,1.m4v,3.0
2024-02-27 11:13:42.616055,1709028822.616055,-35.15625,-56.640625,-34.66796875,-73.2421875,-1.0,-1.0,1.0,0.0,1.m4v,3.0
2024-02-27 11:13:42.619960,1709028822.6199603,-40.0390625,-36.62109375,-38.0859375,-73.73046875,-1.0,-1.0,1.0,0.0,1.m4v,3.0
2024-02-27 11:13:42.623866,1709028822.6238658,-36.1328125,-30.2734375,-40.0390625,-27.83203125,-1.0,-1.0,1.0,0.0,1.m4v,3.0
2024-02-27 11:13:42.627771,1709028822.6277711,-28.3203125,-27.34375,-38.57421875,6.8359375,-1.0,-1.0,1.0,0.0,1.m4v,3.0
2024-02-27 11:13:42.631676,1709028822.6316764,-27.83203125,-0.9765625,-27.83203125,-17.08984375,-1.0,-1.0,1.0,0.0,1.m4v,3.0
2024-02-27 11:13:42.635582,1709028822.6355815,-33.203125,47.36328125,-23.4375,-65.91796875,-1.0,-1.0,1.0,0.0,1.m4v,3.0
2024-02-27 11:13:42.639487,1709028822.639487,-48.828125,-2.9296875,-35.15625,-79.1015625,-1.0,-1.0,1.0,0.0,1.m4v,3.0
2024-02-27 11:13:42.643393,1709028822.6433926,-60.05859375,-92.28515625,-35.15625,-52.734375,-1.0,-1.0,1.0,0.0,1.m4v,3.0
2024-02-27 11:13:42.647298,1709028822.647298,-43.45703125,-92.28515625,-22.4609375,-7.32421875,-1.0,-1.0,1.0,0.0,1.m4v,3.0
2024-02-27 11:13:42.651203,1709028822.6512032,-38.0859375,-45.8984375,-38.57421875,-3.90625,-1.0,-1.0,1.0,0.0,1.m4v,3.0
2024-02-27 11:13:42.655108,1709028822.6551085,-54.6875,-36.62109375,-37.109375,-58.59375,-1.0,-1.0,1.0,0.0,1.m4v,3.0
2024-02-27 11:13:42.659014,1709028822.659014,-66.89453125,-69.82421875,-24.4140625,-87.40234375,-1.0,-1.0,1.0,0.0,1.m4v,3.0
2024-02-27 11:13:42.662929,1709028822.6629288,-62.01171875,-67.87109375,-28.3203125,-42.96875,-1.0,-1.0,1.0,0.0,1.m4v,3.0
2024-02-27 11:13:42.666834,1709028822.666834,-47.8515625,-29.78515625,-13.671875,15.625,-1.0,-1.0,1.0,0.0,1.m4v,3.0
2024-02-27 11:13:42.670740,1709028822.6707397,-29.78515625,5.859375,-5.37109375,12.20703125,-1.0,-1.0,1.0,0.0,1.m4v,3.0
2024-02-27 11:13:42.674645,1709028822.674645,-36.1328125,-34.66796875,-22.4609375,-53.22265625,-1.0,-1.0,1.0,0.0,1.m4v,3.0
2024-02-27 11:13:42.678550,1709028822.6785502,-52.734375,-72.265625,-35.64453125,-84.9609375,-1.0,-1.0,1.0,0.0,1.m4v,3.0
2024-02-27 11:13:42.682456,1709028822.6824555,-53.7109375,28.80859375,-37.59765625,-34.66796875,-1.0,-1.0,1.0,0.0,1.m4v,3.0
2024-02-27 11:13:42.686361,1709028822.686361,-49.31640625,42.96875,-31.73828125,27.83203125,-1.0,-1.0,1.0,0.0,1.m4v,3.0
2024-02-27 11:13:42.690266,1709028822.6902664,-38.0859375,-11.71875,-20.5078125,18.5546875,-1.0,-1.0,1.0,0.0,1.m4v,3.0
2024-02-27 11:13:42.694172,1709028822.6941717,-34.1796875,-21.484375,-20.01953125,-53.7109375,-1.0,-1.0,1.0,0.0,1.m4v,3.0
2024-02-27 11:13:42.698077,1709028822.698077,-46.38671875,-70.80078125,-30.2734375,-94.23828125,-1.0,-1.0,1.0,0.0,1.m4v,3.0
2024-02-27 11:13:42.701982,1709028822.7019825,-41.9921875,-72.265625,-41.9921875,-59.5703125,-1.0,-1.0,1.0,0.0,1.m4v,3.0
2024-02-27 11:13:42.705888,1709028822.7058878,-25.390625,-28.3203125,-33.203125,6.34765625,-1.0,-1.0,1.0,0.0,1.m4v,3.0
2024-02-27 11:13:42.709802,1709028822.709802,-23.4375,-22.4609375,-22.4609375,13.18359375,-1.0,-1.0,1.0,0.0,1.m4v,3.0
2024-02-27 11:13:42.713707,1709028822.7137072,-28.80859375,-54.19921875,-23.92578125,-46.38671875,-1.0,-1.0,1.0,0.0,1.m4v,3.0
2024-02-27 11:13:42.717613,1709028822.7176125,-25.390625,-44.43359375,-32.2265625,-86.9140625,-1.0,-1.0,1.0,0.0,1.m4v,3.0
2024-02-27 11:13:42.721518,1709028822.721518,-21.484375,-32.71484375,-32.2265625,-62.01171875,-1.0,-1.0,1.0,0.0,1.m4v,3.0
2024-02-27 11:13:42.725423,1709028822.725423,-33.69140625,-23.92578125,-37.109375,-6.34765625,-1.0,-1.0,1.0,0.0,1.m4v,3.0
2024-02-27 11:13:42.729329,1709028822.7293286,-44.921875,26.85546875,-47.8515625,12.6953125,-1.0,-1.0,1.0,0.0,1.m4v,3.0
2024-02-27 11:13:42.733234,1709028822.733234,-34.66796875,5.37109375,-34.1796875,-23.4375,-1.0,-1.0,1.0,0.0,1.m4v,3.0
2024-02-27 11:13:42.737139,1709028822.7371397,-31.73828125,-90.8203125,-14.6484375,-84.47265625,-1.0,-1.0,1.0,0.0,1.m4v,3.0
2024-02-27 11:13:42.741045,1709028822.7410448,-47.36328125,-91.796875,-22.94921875,-81.54296875,-1.0,-1.0,1.0,0.0,1.m4v,3.0
2024-02-27 11:13:42.744950,1709028822.74495,-47.36328125,-64.453125,-36.62109375,-18.5546875,-1.0,-1.0,1.0,0.0,1.m4v,3.0
2024-02-27 11:13:42.748855,1709028822.7488554,-32.2265625,-46.38671875,-28.80859375,13.18359375,-1.0,-1.0,1.0,0.0,1.m4v,3.0
2024-02-27 11:13:42.752761,1709028822.752761,-22.4609375,0.0,-22.4609375,-13.18359375,-1.0,-1.0,1.0,0.0,1.m4v,3.0
2024-02-27 11:13:42.756674,1709028822.7566743,-29.296875,-30.2734375,-29.296875,-62.01171875,-1.0,-1.0,1.0,0.0,1.m4v,3.0
2024-02-27 11:13:42.760580,1709028822.7605796,-34.1796875,-84.9609375,-32.2265625,-69.3359375,-1.0,-1.0,1.0,0.0,1.m4v,3.0
2024-02-27 11:13:42.764485,1709028822.7644851,-26.85546875,-66.89453125,-26.85546875,-15.13671875,-1.0,-1.0,1.0,0.0,1.m4v,3.0
2024-02-27 11:13:42.768390,1709028822.7683904,-27.34375,-41.9921875,-29.296875,4.8828125,-1.0,-1.0,1.0,0.0,1.m4v,3.0
2024-02-27 11:13:42.772296,1709028822.7722957,-24.90234375,-20.5078125,-39.55078125,-23.4375,-1.0,-1.0,1.0,0.0,1.m4v,3.0
2024-02-27 11:13:42.776201,1709028822.776201,-26.85546875,18.06640625,-36.62109375,-56.15234375,-1.0,-1.0,1.0,0.0,1.m4v,3.0
2024-02-27 11:13:42.780107,1709028822.7801063,-35.15625,-22.4609375,-23.92578125,-60.546875,-1.0,-1.0,1.0,0.0,1.m4v,3.0
2024-02-27 11:13:42.784012,1709028822.7840118,-35.64453125,-65.4296875,-26.3671875,-20.5078125,-1.0,-1.0,1.0,0.0,1.m4v,3.0
2024-02-27 11:13:42.787917,1709028822.7879171,-32.2265625,-29.296875,-31.25,16.11328125,-1.0,-1.0,1.0,0.0,1.m4v,3.0
2024-02-27 11:13:42.791822,1709028822.7918224,-35.15625,-51.26953125,-25.87890625,-18.06640625,-1.0,-1.0,1.0,0.0,1.m4v,3.0
2024-02-27 11:13:42.795728,1709028822.795728,-39.0625,-82.51953125,-20.01953125,-82.03125,-1.0,-1.0,1.0,0.0,1.m4v,3.0
2024-02-27 11:13:42.799633,1709028822.7996333,-32.71484375,-67.3828125,-17.08984375,-84.9609375,-1.0,-1.0,1.0,0.0,1.m4v,3.0
2024-02-27 11:13:42.803546,1709028822.803546,-22.94921875,-47.36328125,-28.80859375,-28.3203125,-1.0,-1.0,1.0,0.0,1.m4v,3.0
2024-02-27 11:13:42.807451,1709028822.8074512,-19.53125,-41.9921875,-33.69140625,11.23046875,-1.0,-1.0,1.0,0.0,1.m4v,3.0
2024-02-27 11:13:42.811357,1709028822.8113568,-21.97265625,-3.41796875,-28.3203125,-15.13671875,-1.0,-1.0,1.0,0.0,1.m4v,3.0
2024-02-27 11:13:42.815262,1709028822.815262,-15.625,-3.90625,-21.484375,-59.08203125,-1.0,-1.0,1.0,0.0,1.m4v,3.0
2024-02-27 11:13:42.819167,1709028822.8191674,-16.11328125,-90.8203125,-18.5546875,-73.2421875,-1.0,-1.0,1.0,0.0,1.m4v,3.0
2024-02-27 11:13:42.823073,1709028822.823073,-12.20703125,-29.78515625,-21.97265625,-22.94921875,-1.0,-1.0,1.0,0.0,1.m4v,3.0
2024-02-27 11:13:42.826978,1709028822.8269782,-21.97265625,16.11328125,-42.96875,13.671875,-1.0,-1.0,1.0,0.0,1.m4v,3.0
2024-02-27 11:13:42.830884,1709028822.8308835,-25.87890625,-64.453125,-56.15234375,-9.765625,-1.0,-1.0,1.0,0.0,1.m4v,3.0
2024-02-27 11:13:42.834789,1709028822.8347888,-15.625,-71.77734375,-47.8515625,-54.6875,-1.0,-1.0,1.0,0.0,1.m4v,3.0
2024-02-27 11:13:42.838694,1709028822.838694,-23.4375,-56.640625,-33.69140625,-70.80078125,-1.0,-1.0,1.0,0.0,1.m4v,3.0
2024-02-27 11:13:42.842599,1709028822.8425994,-31.25,-58.59375,-28.80859375,-33.203125,-1.0,-1.0,1.0,0.0,1.m4v,3.0
2024-02-27 11:13:42.846505,1709028822.846505,-20.01953125,-62.98828125,-11.23046875,11.23046875,-1.0,-1.0,1.0,0.0,1.m4v,3.0
