Timestamp,Timestamp_UNIX,TP9,AF7,AF8,TP10,Valence,Arousal,Dominace,Viewed,Video,Participant
2024-02-27 15:44:39.002718,1709045079.002718,-32.71484375,-23.92578125,-28.3203125,-19.53125,-1.0,1.0,-1.0,0.0,4.m4v,6.0
2024-02-27 15:44:39.006623,1709045079.0066226,-42.96875,-30.76171875,-27.34375,-31.25,-1.0,1.0,-1.0,0.0,4.m4v,6.0
2024-02-27 15:44:39.010527,1709045079.010527,-70.80078125,-38.57421875,-35.64453125,-37.59765625,-1.0,1.0,-1.0,0.0,4.m4v,6.0
2024-02-27 15:44:39.014431,1709045079.0144317,-92.28515625,-37.109375,-38.57421875,-33.203125,-1.0,1.0,-1.0,0.0,4.m4v,6.0
2024-02-27 15:44:39.018336,1709045079.0183358,-69.82421875,-37.59765625,-34.66796875,-22.94921875,-1.0,1.0,-1.0,0.0,4.m4v,6.0
2024-02-27 15:44:39.022240,1709045079.0222404,-30.2734375,-39.55078125,-37.59765625,-26.85546875,-1.0,1.0,-1.0,0.0,4.m4v,6.0
2024-02-27 15:44:39.026145,1709045079.0261447,-32.2265625,-33.69140625,-33.203125,-31.73828125,-1.0,1.0,-1.0,0.0,4.m4v,6.0
2024-02-27 15:44:39.030049,1709045079.030049,-75.68359375,-31.25,-30.76171875,-37.109375,-1.0,1.0,-1.0,0.0,4.m4v,6.0
2024-02-27 15:44:39.033954,1709045079.0339537,-99.609375,-36.62109375,-32.71484375,-35.64453125,-1.0,1.0,-1.0,0.0,4.m4v,6.0
2024-02-27 15:44:39.037858,1709045079.0378582,-76.66015625,-39.55078125,-32.71484375,-26.85546875,-1.0,1.0,-1.0,0.0,4.m4v,6.0
2024-02-27 15:44:39.041763,1709045079.0417626,-42.96875,-35.15625,-32.71484375,-26.3671875,-1.0,1.0,-1.0,0.0,4.m4v,6.0
2024-02-27 15:44:39.045667,1709045079.0456672,-41.50390625,-32.71484375,-31.25,-32.2265625,-1.0,1.0,-1.0,0.0,4.m4v,6.0
2024-02-27 15:44:39.049592,1709045079.049592,-70.80078125,-32.71484375,-25.390625,-41.9921875,-1.0,1.0,-1.0,0.0,4.m4v,6.0
2024-02-27 15:44:39.053496,1709045079.0534964,-104.4921875,-30.2734375,-26.85546875,-41.50390625,-1.0,1.0,-1.0,0.0,4.m4v,6.0
2024-02-27 15:44:39.057401,1709045079.0574007,-93.75,-29.78515625,-27.83203125,-33.69140625,-1.0,1.0,-1.0,0.0,4.m4v,6.0
2024-02-27 15:44:39.061305,1709045079.0613053,-60.05859375,-32.71484375,-27.83203125,-36.62109375,-1.0,1.0,-1.0,0.0,4.m4v,6.0
2024-02-27 15:44:39.065210,1709045079.0652096,-52.734375,-31.25,-31.73828125,-38.57421875,-1.0,1.0,-1.0,0.0,4.m4v,6.0
2024-02-27 15:44:39.069114,1709045079.0691142,-60.546875,-29.296875,-29.296875,-39.55078125,-1.0,1.0,-1.0,0.0,4.m4v,6.0
2024-02-27 15:44:39.073019,1709045079.0730186,-81.54296875,-26.85546875,-30.76171875,-39.0625,-1.0,1.0,-1.0,0.0,4.m4v,6.0
2024-02-27 15:44:39.076923,1709045079.0769231,-101.5625,-27.83203125,-32.2265625,-32.2265625,-1.0,1.0,-1.0,0.0,4.m4v,6.0
2024-02-27 15:44:39.080827,1709045079.0808277,-71.77734375,-32.71484375,-29.78515625,-27.83203125,-1.0,1.0,-1.0,0.0,4.m4v,6.0
2024-02-27 15:44:39.084732,1709045079.084732,-34.66796875,-39.0625,-32.2265625,-24.90234375,-1.0,1.0,-1.0,0.0,4.m4v,6.0
2024-02-27 15:44:39.088636,1709045079.0886364,-38.57421875,-39.0625,-35.15625,-32.71484375,-1.0,1.0,-1.0,0.0,4.m4v,6.0
2024-02-27 15:44:39.092541,1709045079.092541,-69.3359375,-32.71484375,-29.78515625,-33.203125,-1.0,1.0,-1.0,0.0,4.m4v,6.0
2024-02-27 15:44:39.096464,1709045079.0964644,-84.9609375,-31.25,-24.90234375,-24.4140625,-1.0,1.0,-1.0,0.0,4.m4v,6.0
2024-02-27 15:44:39.100369,1709045079.1003687,-63.4765625,-36.1328125,-30.2734375,-19.04296875,-1.0,1.0,-1.0,0.0,4.m4v,6.0
2024-02-27 15:44:39.104273,1709045079.104273,-36.1328125,-31.73828125,-33.69140625,-20.01953125,-1.0,1.0,-1.0,0.0,4.m4v,6.0
2024-02-27 15:44:39.108178,1709045079.1081777,-46.38671875,-30.2734375,-29.78515625,-27.34375,-1.0,1.0,-1.0,0.0,4.m4v,6.0
2024-02-27 15:44:39.112082,1709045079.1120822,-76.171875,-33.69140625,-24.90234375,-31.25,-1.0,1.0,-1.0,0.0,4.m4v,6.0
2024-02-27 15:44:39.115987,1709045079.1159866,-69.82421875,-36.62109375,-29.296875,-27.83203125,-1.0,1.0,-1.0,0.0,4.m4v,6.0
2024-02-27 15:44:39.119891,1709045079.1198912,-48.33984375,-38.0859375,-35.15625,-25.390625,-1.0,1.0,-1.0,0.0,4.m4v,6.0
2024-02-27 15:44:39.123796,1709045079.1237955,-43.9453125,-31.25,-33.203125,-29.78515625,-1.0,1.0,-1.0,0.0,4.m4v,6.0
2024-02-27 15:44:39.127700,1709045079.1277,-43.45703125,-29.296875,-28.80859375,-36.1328125,-1.0,1.0,-1.0,0.0,4.m4v,6.0
2024-02-27 15:44:39.131604,1709045079.1316044,-63.96484375,-27.83203125,-26.3671875,-40.52734375,-1.0,1.0,-1.0,0.0,4.m4v,6.0
2024-02-27 15:44:39.135509,1709045079.135509,-84.9609375,-30.76171875,-30.76171875,-38.0859375,-1.0,1.0,-1.0,0.0,4.m4v,6.0
2024-02-27 15:44:39.139413,1709045079.1394134,-60.05859375,-31.25,-38.57421875,-27.34375,-1.0,1.0,-1.0,0.0,4.m4v,6.0
2024-02-27 15:44:39.143336,1709045079.1433356,-41.9921875,-27.83203125,-33.69140625,-28.3203125,-1.0,1.0,-1.0,0.0,4.m4v,6.0
2024-02-27 15:44:39.147240,1709045079.14724,-39.55078125,-28.80859375,-26.3671875,-32.71484375,-1.0,1.0,-1.0,0.0,4.m4v,6.0
2024-02-27 15:44:39.151145,1709045079.1511445,-57.6171875,-23.92578125,-27.83203125,-36.62109375,-1.0,1.0,-1.0,0.0,4.m4v,6.0
2024-02-27 15:44:39.155049,1709045079.1550488,-87.40234375,-32.71484375,-32.2265625,-38.0859375,-1.0,1.0,-1.0,0.0,4.m4v,6.0
2024-02-27 15:44:39.158953,1709045079.1589534,-59.5703125,-34.66796875,-35.64453125,-28.3203125,-1.0,1.0,-1.0,0.0,4.m4v,6.0
2024-02-27 15:44:39.162858,1709045079.1628578,-30.2734375,-26.85546875,-34.1796875,-27.83203125,-1.0,1.0,-1.0,0.0,4.m4v,6.0
2024-02-27 15:44:39.166762,1709045079.166762,-47.36328125,-27.83203125,-33.203125,-32.2265625,-1.0,1.0,-1.0,0.0,4.m4v,6.0
2024-02-27 15:44:39.170667,1709045079.1706667,-67.3828125,-22.94921875,-30.76171875,-35.64453125,-1.0,1.0,-1.0,0.0,4.m4v,6.0
2024-02-27 15:44:39.174571,1709045079.174571,-75.68359375,-19.04296875,-25.87890625,-32.71484375,-1.0,1.0,-1.0,0.0,4.m4v,6.0
2024-02-27 15:44:39.178476,1709045079.1784756,-79.58984375,-22.4609375,-22.94921875,-19.53125,-1.0,1.0,-1.0,0.0,4.m4v,6.0
2024-02-27 15:44:39.182380,1709045079.18238,-52.24609375,-25.87890625,-21.97265625,-14.6484375,-1.0,1.0,-1.0,0.0,4.m4v,6.0
2024-02-27 15:44:39.186285,1709045079.1862843,-38.0859375,-26.85546875,-21.484375,-22.94921875,-1.0,1.0,-1.0,0.0,4.m4v,6.0
2024-02-27 15:44:39.190205,1709045079.1902049,-68.84765625,-27.83203125,-19.53125,-31.25,-1.0,1.0,-1.0,0.0,4.m4v,6.0
2024-02-27 15:44:39.194109,1709045079.1941092,-88.37890625,-26.3671875,-19.04296875,-28.3203125,-1.0,1.0,-1.0,0.0,4.m4v,6.0
2024-02-27 15:44:39.198014,1709045079.1980138,-76.171875,-28.3203125,-23.4375,-20.99609375,-1.0,1.0,-1.0,0.0,4.m4v,6.0
2024-02-27 15:44:39.201918,1709045079.201918,-35.15625,-30.2734375,-22.4609375,-16.6015625,-1.0,1.0,-1.0,0.0,4.m4v,6.0
2024-02-27 15:44:39.205823,1709045079.2058227,-31.25,-27.83203125,-25.390625,-30.2734375,-1.0,1.0,-1.0,0.0,4.m4v,6.0
2024-02-27 15:44:39.209727,1709045079.209727,-59.5703125,-24.90234375,-28.80859375,-37.109375,-1.0,1.0,-1.0,0.0,4.m4v,6.0
2024-02-27 15:44:39.213632,1709045079.2136316,-95.703125,-26.85546875,-32.71484375,-38.0859375,-1.0,1.0,-1.0,0.0,4.m4v,6.0
2024-02-27 15:44:39.217536,1709045079.217536,-104.00390625,-31.73828125,-37.109375,-29.78515625,-1.0,1.0,-1.0,0.0,4.m4v,6.0
2024-02-27 15:44:39.221441,1709045079.2214406,-66.89453125,-33.203125,-32.71484375,-21.97265625,-1.0,1.0,-1.0,0.0,4.m4v,6.0
2024-02-27 15:44:39.225345,1709045079.225345,-35.15625,-26.3671875,-22.4609375,-29.296875,-1.0,1.0,-1.0,0.0,4.m4v,6.0
2024-02-27 15:44:39.229249,1709045079.2292497,-47.8515625,-23.92578125,-21.97265625,-33.203125,-1.0,1.0,-1.0,0.0,4.m4v,6.0
2024-02-27 15:44:39.233154,1709045079.2331538,-90.8203125,-31.25,-30.76171875,-35.15625,-1.0,1.0,-1.0,0.0,4.m4v,6.0
2024-02-27 15:44:39.237073,1709045079.2370727,-93.26171875,-33.69140625,-32.2265625,-30.76171875,-1.0,1.0,-1.0,0.0,4.m4v,6.0
2024-02-27 15:44:39.240977,1709045079.2409773,-61.5234375,-34.1796875,-31.25,-30.2734375,-1.0,1.0,-1.0,0.0,4.m4v,6.0
2024-02-27 15:44:39.244882,1709045079.2448816,-54.6875,-35.64453125,-32.2265625,-38.0859375,-1.0,1.0,-1.0,0.0,4.m4v,6.0
2024-02-27 15:44:39.248786,1709045079.2487862,-75.1953125,-34.66796875,-34.66796875,-45.41015625,-1.0,1.0,-1.0,0.0,4.m4v,6.0
2024-02-27 15:44:39.252691,1709045079.2526906,-99.12109375,-31.25,-32.2265625,-44.43359375,-1.0,1.0,-1.0,0.0,4.m4v,6.0
2024-02-27 15:44:39.256595,1709045079.2565951,-85.9375,-30.2734375,-28.3203125,-32.71484375,-1.0,1.0,-1.0,0.0,4.m4v,6.0
2024-02-27 15:44:39.260499,1709045079.2604997,-49.8046875,-32.71484375,-32.71484375,-27.34375,-1.0,1.0,-1.0,0.0,4.m4v,6.0
2024-02-27 15:44:39.264404,1709045079.264404,-42.96875,-31.73828125,-40.0390625,-40.0390625,-1.0,1.0,-1.0,0.0,4.m4v,6.0
2024-02-27 15:44:39.268308,1709045079.2683084,-63.96484375,-33.69140625,-40.0390625,-47.8515625,-1.0,1.0,-1.0,0.0,4.m4v,6.0
2024-02-27 15:44:39.272213,1709045079.272213,-103.515625,-35.15625,-33.203125,-41.015625,-1.0,1.0,-1.0,0.0,4.m4v,6.0
2024-02-27 15:44:39.276117,1709045079.276117,-109.86328125,-35.15625,-28.3203125,-35.64453125,-1.0,1.0,-1.0,0.0,4.m4v,6.0
2024-02-27 15:44:39.280022,1709045079.280022,-67.87109375,-39.55078125,-25.87890625,-32.71484375,-1.0,1.0,-1.0,0.0,4.m4v,6.0
2024-02-27 15:44:39.283939,1709045079.2839394,-42.48046875,-35.64453125,-26.85546875,-28.3203125,-1.0,1.0,-1.0,0.0,4.m4v,6.0
2024-02-27 15:44:39.287844,1709045079.287844,-54.19921875,-30.2734375,-28.80859375,-34.66796875,-1.0,1.0,-1.0,0.0,4.m4v,6.0
2024-02-27 15:44:39.291748,1709045079.2917483,-81.54296875,-29.78515625,-29.78515625,-53.22265625,-1.0,1.0,-1.0,0.0,4.m4v,6.0
2024-02-27 15:44:39.295653,1709045079.2956529,-92.7734375,-30.76171875,-36.62109375,-56.640625,-1.0,1.0,-1.0,0.0,4.m4v,6.0
2024-02-27 15:44:39.299557,1709045079.2995572,-86.42578125,-34.1796875,-36.1328125,-41.9921875,-1.0,1.0,-1.0,0.0,4.m4v,6.0
2024-02-27 15:44:39.303462,1709045079.3034616,-53.22265625,-27.83203125,-32.71484375,-43.45703125,-1.0,1.0,-1.0,0.0,4.m4v,6.0
2024-02-27 15:44:39.307366,1709045079.307366,-49.8046875,-23.92578125,-30.2734375,-57.12890625,-1.0,1.0,-1.0,0.0,4.m4v,6.0
2024-02-27 15:44:39.311270,1709045079.3112705,-95.703125,-29.296875,-27.83203125,-58.59375,-1.0,1.0,-1.0,0.0,4.m4v,6.0
2024-02-27 15:44:39.315175,1709045079.315175,-114.74609375,-31.25,-30.76171875,-57.6171875,-1.0,1.0,-1.0,0.0,4.m4v,6.0
2024-02-27 15:44:39.319079,1709045079.3190794,-71.77734375,-35.64453125,-31.25,-43.45703125,-1.0,1.0,-1.0,0.0,4.m4v,6.0
2024-02-27 15:44:39.322984,1709045079.322984,-34.1796875,-29.78515625,-28.80859375,-40.52734375,-1.0,1.0,-1.0,0.0,4.m4v,6.0
2024-02-27 15:44:39.326888,1709045079.3268883,-42.96875,-24.4140625,-35.64453125,-49.31640625,-1.0,1.0,-1.0,0.0,4.m4v,6.0
2024-02-27 15:44:39.330804,1709045079.3308043,-71.2890625,-30.2734375,-38.57421875,-44.921875,-1.0,1.0,-1.0,0.0,4.m4v,6.0
2024-02-27 15:44:39.334709,1709045079.3347087,-105.46875,-32.71484375,-37.109375,-47.36328125,-1.0,1.0,-1.0,0.0,4.m4v,6.0
2024-02-27 15:44:39.338613,1709045079.3386133,-82.03125,-32.71484375,-42.96875,-43.45703125,-1.0,1.0,-1.0,0.0,4.m4v,6.0
2024-02-27 15:44:39.342518,1709045079.3425176,-45.41015625,-28.3203125,-40.52734375,-38.0859375,-1.0,1.0,-1.0,0.0,4.m4v,6.0
2024-02-27 15:44:39.346422,1709045079.3464222,-46.38671875,-28.80859375,-30.2734375,-41.9921875,-1.0,1.0,-1.0,0.0,4.m4v,6.0
2024-02-27 15:44:39.350327,1709045079.3503263,-68.359375,-33.203125,-28.80859375,-41.015625,-1.0,1.0,-1.0,0.0,4.m4v,6.0
2024-02-27 15:44:39.354231,1709045079.354231,-94.23828125,-36.62109375,-34.1796875,-38.57421875,-1.0,1.0,-1.0,0.0,4.m4v,6.0
2024-02-27 15:44:39.358135,1709045079.3581357,-80.56640625,-34.1796875,-38.0859375,-32.71484375,-1.0,1.0,-1.0,0.0,4.m4v,6.0
2024-02-27 15:44:39.362040,1709045079.36204,-57.12890625,-32.2265625,-38.0859375,-30.2734375,-1.0,1.0,-1.0,0.0,4.m4v,6.0
2024-02-27 15:44:39.365944,1709045079.3659444,-58.10546875,-39.0625,-35.64453125,-39.0625,-1.0,1.0,-1.0,0.0,4.m4v,6.0
2024-02-27 15:44:39.369849,1709045079.369849,-84.9609375,-38.57421875,-38.0859375,-46.875,-1.0,1.0,-1.0,0.0,4.m4v,6.0
2024-02-27 15:44:39.373753,1709045079.3737533,-130.859375,-40.0390625,-43.45703125,-57.12890625,-1.0,1.0,-1.0,0.0,4.m4v,6.0
2024-02-27 15:44:39.377667,1709045079.3776674,-110.3515625,-49.31640625,-43.9453125,-54.6875,-1.0,1.0,-1.0,0.0,4.m4v,6.0
2024-02-27 15:44:39.381572,1709045079.381572,-61.03515625,-46.38671875,-40.52734375,-46.38671875,-1.0,1.0,-1.0,0.0,4.m4v,6.0
2024-02-27 15:44:39.385476,1709045079.3854764,-54.6875,-41.015625,-40.0390625,-52.24609375,-1.0,1.0,-1.0,0.0,4.m4v,6.0
2024-02-27 15:44:39.389381,1709045079.389381,-78.125,-42.96875,-37.109375,-58.59375,-1.0,1.0,-1.0,0.0,4.m4v,6.0
2024-02-27 15:44:39.393285,1709045079.3932853,-108.3984375,-44.921875,-30.2734375,-54.6875,-1.0,1.0,-1.0,0.0,4.m4v,6.0
2024-02-27 15:44:39.397190,1709045079.39719,-88.8671875,-42.48046875,-32.71484375,-42.48046875,-1.0,1.0,-1.0,0.0,4.m4v,6.0
2024-02-27 15:44:39.401094,1709045079.4010942,-55.6640625,-47.36328125,-40.52734375,-38.57421875,-1.0,1.0,-1.0,0.0,4.m4v,6.0
2024-02-27 15:44:39.404999,1709045079.4049988,-45.41015625,-47.36328125,-34.1796875,-41.50390625,-1.0,1.0,-1.0,0.0,4.m4v,6.0
2024-02-27 15:44:39.408903,1709045079.4089031,-57.6171875,-43.45703125,-30.2734375,-46.875,-1.0,1.0,-1.0,0.0,4.m4v,6.0
2024-02-27 15:44:39.412808,1709045079.4128077,-109.86328125,-46.875,-30.2734375,-47.8515625,-1.0,1.0,-1.0,0.0,4.m4v,6.0
2024-02-27 15:44:39.416712,1709045079.416712,-99.12109375,-39.55078125,-32.71484375,-35.15625,-1.0,1.0,-1.0,0.0,4.m4v,6.0
2024-02-27 15:44:39.420617,1709045079.4206166,-41.9921875,-30.76171875,-35.64453125,-29.296875,-1.0,1.0,-1.0,0.0,4.m4v,6.0
2024-02-27 15:44:39.424541,1709045079.4245417,-36.1328125,-30.2734375,-33.69140625,-33.203125,-1.0,1.0,-1.0,0.0,4.m4v,6.0
2024-02-27 15:44:39.428446,1709045079.428446,-63.4765625,-32.2265625,-34.66796875,-35.15625,-1.0,1.0,-1.0,0.0,4.m4v,6.0
2024-02-27 15:44:39.432350,1709045079.4323504,-90.8203125,-31.73828125,-33.203125,-36.1328125,-1.0,1.0,-1.0,0.0,4.m4v,6.0
2024-02-27 15:44:39.436255,1709045079.436255,-78.61328125,-26.3671875,-28.80859375,-30.76171875,-1.0,1.0,-1.0,0.0,4.m4v,6.0
2024-02-27 15:44:39.440159,1709045079.440159,-60.05859375,-28.3203125,-32.2265625,-22.94921875,-1.0,1.0,-1.0,0.0,4.m4v,6.0
2024-02-27 15:44:39.444064,1709045079.444064,-39.55078125,-32.71484375,-39.55078125,-29.296875,-1.0,1.0,-1.0,0.0,4.m4v,6.0
2024-02-27 15:44:39.447968,1709045079.4479682,-33.203125,-31.73828125,-36.62109375,-37.109375,-1.0,1.0,-1.0,0.0,4.m4v,6.0
2024-02-27 15:44:39.451873,1709045079.4518728,-80.56640625,-35.15625,-34.66796875,-46.875,-1.0,1.0,-1.0,0.0,4.m4v,6.0
2024-02-27 15:44:39.455777,1709045079.4557772,-95.21484375,-30.2734375,-33.203125,-42.96875,-1.0,1.0,-1.0,0.0,4.m4v,6.0
2024-02-27 15:44:39.459682,1709045079.4596815,-62.5,-28.3203125,-32.2265625,-37.59765625,-1.0,1.0,-1.0,0.0,4.m4v,6.0
2024-02-27 15:44:39.463586,1709045079.463586,-48.33984375,-31.25,-38.0859375,-52.734375,-1.0,1.0,-1.0,0.0,4.m4v,6.0
2024-02-27 15:44:39.467491,1709045079.467491,-52.24609375,-29.296875,-40.0390625,-59.5703125,-1.0,1.0,-1.0,0.0,4.m4v,6.0
2024-02-27 15:44:39.471415,1709045079.4714148,-68.359375,-32.71484375,-37.59765625,-51.7578125,-1.0,1.0,-1.0,0.0,4.m4v,6.0
2024-02-27 15:44:39.475319,1709045079.4753194,-83.984375,-35.15625,-33.69140625,-41.015625,-1.0,1.0,-1.0,0.0,4.m4v,6.0
2024-02-27 15:44:39.479224,1709045079.4792235,-61.03515625,-32.71484375,-34.1796875,-33.203125,-1.0,1.0,-1.0,0.0,4.m4v,6.0
2024-02-27 15:44:39.483128,1709045079.4831283,-32.2265625,-27.34375,-35.64453125,-31.73828125,-1.0,1.0,-1.0,0.0,4.m4v,6.0
2024-02-27 15:44:39.487033,1709045079.487033,-35.64453125,-29.78515625,-35.64453125,-38.0859375,-1.0,1.0,-1.0,0.0,4.m4v,6.0
2024-02-27 15:44:39.490937,1709045079.4909372,-57.6171875,-24.4140625,-28.80859375,-39.0625,-1.0,1.0,-1.0,0.0,4.m4v,6.0
2024-02-27 15:44:39.494842,1709045079.4948416,-76.171875,-20.99609375,-26.85546875,-29.296875,-1.0,1.0,-1.0,0.0,4.m4v,6.0
2024-02-27 15:44:39.498746,1709045079.4987462,-63.4765625,-26.85546875,-30.2734375,-19.53125,-1.0,1.0,-1.0,0.0,4.m4v,6.0
2024-02-27 15:44:39.502650,1709045079.5026505,-39.0625,-32.71484375,-31.25,-22.94921875,-1.0,1.0,-1.0,0.0,4.m4v,6.0
2024-02-27 15:44:39.506555,1709045079.506555,-34.66796875,-37.109375,-31.25,-34.1796875,-1.0,1.0,-1.0,0.0,4.m4v,6.0
2024-02-27 15:44:39.510459,1709045079.5104594,-64.94140625,-32.2265625,-26.3671875,-34.1796875,-1.0,1.0,-1.0,0.0,4.m4v,6.0
2024-02-27 15:44:39.514364,1709045079.514364,-107.91015625,-29.296875,-32.71484375,-32.2265625,-1.0,1.0,-1.0,0.0,4.m4v,6.0
2024-02-27 15:44:39.518286,1709045079.5182858,-79.58984375,-30.2734375,-38.0859375,-28.3203125,-1.0,1.0,-1.0,0.0,4.m4v,6.0
2024-02-27 15:44:39.522190,1709045079.5221903,-24.4140625,-27.34375,-32.71484375,-20.01953125,-1.0,1.0,-1.0,0.0,4.m4v,6.0
2024-02-27 15:44:39.526095,1709045079.526095,-18.5546875,-21.97265625,-30.76171875,-24.90234375,-1.0,1.0,-1.0,0.0,4.m4v,6.0
2024-02-27 15:44:39.529999,1709045079.5299993,-47.36328125,-16.6015625,-28.80859375,-33.69140625,-1.0,1.0,-1.0,0.0,4.m4v,6.0
2024-02-27 15:44:39.533904,1709045079.5339036,-73.73046875,-17.08984375,-27.83203125,-37.109375,-1.0,1.0,-1.0,0.0,4.m4v,6.0
2024-02-27 15:44:39.537808,1709045079.5378082,-63.96484375,-25.390625,-28.3203125,-39.0625,-1.0,1.0,-1.0,0.0,4.m4v,6.0
2024-02-27 15:44:39.541713,1709045079.5417123,-48.828125,-30.76171875,-32.2265625,-41.9921875,-1.0,1.0,-1.0,0.0,4.m4v,6.0
2024-02-27 15:44:39.545617,1709045079.545617,-51.26953125,-31.25,-33.69140625,-43.45703125,-1.0,1.0,-1.0,0.0,4.m4v,6.0
2024-02-27 15:44:39.549521,1709045079.5495214,-65.91796875,-32.2265625,-35.64453125,-43.45703125,-1.0,1.0,-1.0,0.0,4.m4v,6.0
2024-02-27 15:44:39.553426,1709045079.553426,-96.6796875,-29.78515625,-37.109375,-40.52734375,-1.0,1.0,-1.0,0.0,4.m4v,6.0
2024-02-27 15:44:39.557330,1709045079.5573304,-90.8203125,-23.92578125,-29.78515625,-35.15625,-1.0,1.0,-1.0,0.0,4.m4v,6.0
2024-02-27 15:44:39.561235,1709045079.561235,-55.6640625,-31.73828125,-26.85546875,-33.69140625,-1.0,1.0,-1.0,0.0,4.m4v,6.0
2024-02-27 15:44:39.565155,1709045079.5651553,-45.8984375,-33.69140625,-26.85546875,-34.66796875,-1.0,1.0,-1.0,0.0,4.m4v,6.0
2024-02-27 15:44:39.569060,1709045079.5690598,-51.7578125,-25.87890625,-25.390625,-32.2265625,-1.0,1.0,-1.0,0.0,4.m4v,6.0
2024-02-27 15:44:39.572964,1709045079.5729642,-73.73046875,-25.390625,-26.85546875,-29.296875,-1.0,1.0,-1.0,0.0,4.m4v,6.0
2024-02-27 15:44:39.576869,1709045079.5768688,-66.40625,-28.3203125,-36.1328125,-20.99609375,-1.0,1.0,-1.0,0.0,4.m4v,6.0
2024-02-27 15:44:39.580773,1709045079.580773,-26.3671875,-27.34375,-32.71484375,-11.71875,-1.0,1.0,-1.0,0.0,4.m4v,6.0
2024-02-27 15:44:39.584678,1709045079.5846777,-1.953125,-28.3203125,-29.78515625,-17.578125,-1.0,1.0,-1.0,0.0,4.m4v,6.0
2024-02-27 15:44:39.588582,1709045079.588582,-20.99609375,-30.2734375,-37.59765625,-24.90234375,-1.0,1.0,-1.0,0.0,4.m4v,6.0
2024-02-27 15:44:39.592487,1709045079.5924866,-65.4296875,-30.76171875,-31.25,-23.4375,-1.0,1.0,-1.0,0.0,4.m4v,6.0
2024-02-27 15:44:39.596391,1709045079.596391,-80.078125,-37.109375,-31.73828125,-20.01953125,-1.0,1.0,-1.0,0.0,4.m4v,6.0
2024-02-27 15:44:39.600296,1709045079.6002955,-42.96875,-33.69140625,-34.1796875,-12.6953125,-1.0,1.0,-1.0,0.0,4.m4v,6.0
2024-02-27 15:44:39.604200,1709045079.6042,-20.01953125,-22.94921875,-30.76171875,-19.53125,-1.0,1.0,-1.0,0.0,4.m4v,6.0
2024-02-27 15:44:39.608104,1709045079.6081045,-31.73828125,-26.85546875,-31.25,-28.3203125,-1.0,1.0,-1.0,0.0,4.m4v,6.0
2024-02-27 15:44:39.612022,1709045079.6120224,-62.5,-33.69140625,-28.80859375,-26.85546875,-1.0,1.0,-1.0,0.0,4.m4v,6.0
2024-02-27 15:44:39.615927,1709045079.615927,-91.796875,-36.62109375,-28.80859375,-30.76171875,-1.0,1.0,-1.0,0.0,4.m4v,6.0
2024-02-27 15:44:39.619831,1709045079.619831,-71.77734375,-35.15625,-30.76171875,-31.25,-1.0,1.0,-1.0,0.0,4.m4v,6.0
2024-02-27 15:44:39.623736,1709045079.623736,-43.45703125,-35.64453125,-35.15625,-31.73828125,-1.0,1.0,-1.0,0.0,4.m4v,6.0
2024-02-27 15:44:39.627640,1709045079.6276402,-41.9921875,-37.59765625,-36.62109375,-33.203125,-1.0,1.0,-1.0,0.0,4.m4v,6.0
2024-02-27 15:44:39.631545,1709045079.6315448,-57.12890625,-37.109375,-35.15625,-39.55078125,-1.0,1.0,-1.0,0.0,4.m4v,6.0
2024-02-27 15:44:39.635449,1709045079.6354492,-70.3125,-38.0859375,-33.203125,-40.52734375,-1.0,1.0,-1.0,0.0,4.m4v,6.0
2024-02-27 15:44:39.639354,1709045079.6393538,-54.6875,-33.69140625,-33.203125,-31.25,-1.0,1.0,-1.0,0.0,4.m4v,6.0
2024-02-27 15:44:39.643258,1709045079.643258,-39.55078125,-34.1796875,-35.15625,-35.64453125,-1.0,1.0,-1.0,0.0,4.m4v,6.0
2024-02-27 15:44:39.647163,1709045079.647163,-39.55078125,-36.1328125,-33.69140625,-44.921875,-1.0,1.0,-1.0,0.0,4.m4v,6.0
2024-02-27 15:44:39.651067,1709045079.651067,-62.01171875,-33.69140625,-32.2265625,-41.015625,-1.0,1.0,-1.0,0.0,4.m4v,6.0
2024-02-27 15:44:39.654972,1709045079.6549716,-86.42578125,-37.109375,-32.71484375,-36.62109375,-1.0,1.0,-1.0,0.0,4.m4v,6.0
2024-02-27 15:44:39.658889,1709045079.658889,-66.89453125,-40.52734375,-38.0859375,-33.69140625,-1.0,1.0,-1.0,0.0,4.m4v,6.0
2024-02-27 15:44:39.662794,1709045079.6627936,-31.73828125,-36.62109375,-40.0390625,-31.25,-1.0,1.0,-1.0,0.0,4.m4v,6.0
2024-02-27 15:44:39.666698,1709045079.666698,-41.9921875,-41.9921875,-36.62109375,-47.36328125,-1.0,1.0,-1.0,0.0,4.m4v,6.0
2024-02-27 15:44:39.670603,1709045079.6706026,-79.1015625,-41.015625,-38.57421875,-48.33984375,-1.0,1.0,-1.0,0.0,4.m4v,6.0
2024-02-27 15:44:39.674507,1709045079.674507,-110.3515625,-37.59765625,-41.50390625,-43.45703125,-1.0,1.0,-1.0,0.0,4.m4v,6.0
2024-02-27 15:44:39.678411,1709045079.6784115,-75.1953125,-37.109375,-38.0859375,-37.59765625,-1.0,1.0,-1.0,0.0,4.m4v,6.0
2024-02-27 15:44:39.682316,1709045079.6823158,-34.66796875,-40.0390625,-35.15625,-42.48046875,-1.0,1.0,-1.0,0.0,4.m4v,6.0
2024-02-27 15:44:39.686220,1709045079.6862204,-49.8046875,-39.0625,-35.15625,-50.29296875,-1.0,1.0,-1.0,0.0,4.m4v,6.0
2024-02-27 15:44:39.690125,1709045079.6901248,-67.3828125,-37.109375,-40.52734375,-50.78125,-1.0,1.0,-1.0,0.0,4.m4v,6.0
2024-02-27 15:44:39.694029,1709045079.694029,-109.86328125,-45.41015625,-41.015625,-61.5234375,-1.0,1.0,-1.0,0.0,4.m4v,6.0
2024-02-27 15:44:39.697934,1709045079.6979337,-99.609375,-43.45703125,-37.109375,-52.24609375,-1.0,1.0,-1.0,0.0,4.m4v,6.0
2024-02-27 15:44:39.701838,1709045079.7018385,-50.29296875,-32.2265625,-32.71484375,-43.45703125,-1.0,1.0,-1.0,0.0,4.m4v,6.0
2024-02-27 15:44:39.705760,1709045079.7057605,-42.96875,-36.1328125,-31.73828125,-49.31640625,-1.0,1.0,-1.0,0.0,4.m4v,6.0
2024-02-27 15:44:39.709665,1709045079.7096648,-57.6171875,-35.15625,-30.76171875,-56.640625,-1.0,1.0,-1.0,0.0,4.m4v,6.0
2024-02-27 15:44:39.713569,1709045079.7135694,-77.1484375,-36.1328125,-27.83203125,-50.29296875,-1.0,1.0,-1.0,0.0,4.m4v,6.0
2024-02-27 15:44:39.717474,1709045079.7174735,-67.3828125,-41.50390625,-24.4140625,-36.1328125,-1.0,1.0,-1.0,0.0,4.m4v,6.0
2024-02-27 15:44:39.721378,1709045079.7213783,-38.0859375,-37.109375,-28.80859375,-34.1796875,-1.0,1.0,-1.0,0.0,4.m4v,6.0
2024-02-27 15:44:39.725283,1709045079.725283,-25.390625,-38.0859375,-33.69140625,-37.109375,-1.0,1.0,-1.0,0.0,4.m4v,6.0
2024-02-27 15:44:39.729187,1709045079.7291873,-43.45703125,-37.59765625,-34.66796875,-36.62109375,-1.0,1.0,-1.0,0.0,4.m4v,6.0
2024-02-27 15:44:39.733092,1709045079.7330916,-87.40234375,-32.2265625,-33.203125,-39.55078125,-1.0,1.0,-1.0,0.0,4.m4v,6.0
2024-02-27 15:44:39.736996,1709045079.7369962,-80.56640625,-32.2265625,-32.2265625,-37.59765625,-1.0,1.0,-1.0,0.0,4.m4v,6.0
2024-02-27 15:44:39.740901,1709045079.7409005,-28.3203125,-32.2265625,-34.66796875,-37.59765625,-1.0,1.0,-1.0,0.0,4.m4v,6.0
2024-02-27 15:44:39.744805,1709045079.744805,-16.6015625,-34.66796875,-34.66796875,-45.8984375,-1.0,1.0,-1.0,0.0,4.m4v,6.0
2024-02-27 15:44:39.748709,1709045079.7487094,-42.48046875,-37.59765625,-37.59765625,-47.36328125,-1.0,1.0,-1.0,0.0,4.m4v,6.0
2024-02-27 15:44:39.752624,1709045079.752624,-77.1484375,-34.1796875,-41.015625,-37.59765625,-1.0,1.0,-1.0,0.0,4.m4v,6.0
2024-02-27 15:44:39.756529,1709045079.7565286,-70.80078125,-33.203125,-40.0390625,-29.296875,-1.0,1.0,-1.0,0.0,4.m4v,6.0
2024-02-27 15:44:39.760433,1709045079.760433,-31.73828125,-31.25,-37.109375,-24.4140625,-1.0,1.0,-1.0,0.0,4.m4v,6.0
2024-02-27 15:44:39.764338,1709045079.7643375,-13.671875,-32.2265625,-33.69140625,-32.2265625,-1.0,1.0,-1.0,0.0,4.m4v,6.0
2024-02-27 15:44:39.768242,1709045079.768242,-34.66796875,-33.203125,-35.64453125,-38.0859375,-1.0,1.0,-1.0,0.0,4.m4v,6.0
2024-02-27 15:44:39.772146,1709045079.7721465,-59.5703125,-28.3203125,-35.15625,-32.71484375,-1.0,1.0,-1.0,0.0,4.m4v,6.0
2024-02-27 15:44:39.776051,1709045079.7760508,-63.4765625,-25.390625,-34.66796875,-30.76171875,-1.0,1.0,-1.0,0.0,4.m4v,6.0
2024-02-27 15:44:39.779955,1709045079.7799554,-51.26953125,-26.85546875,-32.71484375,-36.1328125,-1.0,1.0,-1.0,0.0,4.m4v,6.0
2024-02-27 15:44:39.783860,1709045079.7838595,-42.96875,-28.80859375,-34.66796875,-41.50390625,-1.0,1.0,-1.0,0.0,4.m4v,6.0
2024-02-27 15:44:39.787764,1709045079.7877643,-45.41015625,-30.76171875,-40.0390625,-44.43359375,-1.0,1.0,-1.0,0.0,4.m4v,6.0
2024-02-27 15:44:39.791669,1709045079.791669,-79.1015625,-28.3203125,-30.76171875,-45.8984375,-1.0,1.0,-1.0,0.0,4.m4v,6.0
2024-02-27 15:44:39.795573,1709045079.7955732,-105.46875,-24.4140625,-22.94921875,-37.109375,-1.0,1.0,-1.0,0.0,4.m4v,6.0
2024-02-27 15:44:39.799498,1709045079.7994983,-60.546875,-27.34375,-27.83203125,-25.390625,-1.0,1.0,-1.0,0.0,4.m4v,6.0
2024-02-27 15:44:39.803403,1709045079.803403,-17.08984375,-27.34375,-30.2734375,-28.80859375,-1.0,1.0,-1.0,0.0,4.m4v,6.0
2024-02-27 15:44:39.807307,1709045079.8073072,-24.4140625,-20.5078125,-28.3203125,-36.1328125,-1.0,1.0,-1.0,0.0,4.m4v,6.0
2024-02-27 15:44:39.811212,1709045079.8112116,-66.89453125,-18.06640625,-26.3671875,-36.62109375,-1.0,1.0,-1.0,0.0,4.m4v,6.0
2024-02-27 15:44:39.815116,1709045079.8151162,-79.58984375,-22.4609375,-29.78515625,-25.87890625,-1.0,1.0,-1.0,0.0,4.m4v,6.0
2024-02-27 15:44:39.819021,1709045079.8190205,-41.015625,-23.92578125,-31.25,-16.6015625,-1.0,1.0,-1.0,0.0,4.m4v,6.0
2024-02-27 15:44:39.822925,1709045079.822925,-15.625,-28.80859375,-32.71484375,-21.484375,-1.0,1.0,-1.0,0.0,4.m4v,6.0
2024-02-27 15:44:39.826829,1709045079.8268294,-31.25,-27.83203125,-37.59765625,-35.64453125,-1.0,1.0,-1.0,0.0,4.m4v,6.0
2024-02-27 15:44:39.830734,1709045079.830734,-68.359375,-30.2734375,-40.0390625,-43.9453125,-1.0,1.0,-1.0,0.0,4.m4v,6.0
2024-02-27 15:44:39.834638,1709045079.8346384,-90.33203125,-37.109375,-42.48046875,-43.45703125,-1.0,1.0,-1.0,0.0,4.m4v,6.0
2024-02-27 15:44:39.838543,1709045079.838543,-66.40625,-32.71484375,-34.66796875,-40.0390625,-1.0,1.0,-1.0,0.0,4.m4v,6.0
2024-02-27 15:44:39.842447,1709045079.8424473,-32.71484375,-33.69140625,-30.76171875,-39.0625,-1.0,1.0,-1.0,0.0,4.m4v,6.0
2024-02-27 15:44:39.846371,1709045079.8463707,-27.34375,-29.78515625,-32.71484375,-50.78125,-1.0,1.0,-1.0,0.0,4.m4v,6.0
2024-02-27 15:44:39.850275,1709045079.8502753,-60.05859375,-27.83203125,-26.85546875,-48.33984375,-1.0,1.0,-1.0,0.0,4.m4v,6.0
2024-02-27 15:44:39.854180,1709045079.8541796,-88.8671875,-37.109375,-25.87890625,-35.15625,-1.0,1.0,-1.0,0.0,4.m4v,6.0
2024-02-27 15:44:39.858084,1709045079.8580842,-60.546875,-39.0625,-23.92578125,-25.390625,-1.0,1.0,-1.0,0.0,4.m4v,6.0
2024-02-27 15:44:39.861989,1709045079.8619883,-28.3203125,-39.55078125,-28.80859375,-19.53125,-1.0,1.0,-1.0,0.0,4.m4v,6.0
2024-02-27 15:44:39.865893,1709045079.8658931,-22.4609375,-36.1328125,-40.0390625,-28.3203125,-1.0,1.0,-1.0,0.0,4.m4v,6.0
2024-02-27 15:44:39.869797,1709045079.8697977,-57.12890625,-38.57421875,-41.9921875,-39.55078125,-1.0,1.0,-1.0,0.0,4.m4v,6.0
2024-02-27 15:44:39.873702,1709045079.873702,-100.09765625,-36.1328125,-35.15625,-38.57421875,-1.0,1.0,-1.0,0.0,4.m4v,6.0
2024-02-27 15:44:39.877606,1709045079.8776064,-80.56640625,-27.83203125,-32.71484375,-28.3203125,-1.0,1.0,-1.0,0.0,4.m4v,6.0
2024-02-27 15:44:39.881511,1709045079.881511,-37.109375,-29.78515625,-37.59765625,-23.92578125,-1.0,1.0,-1.0,0.0,4.m4v,6.0
2024-02-27 15:44:39.885415,1709045079.8854153,-12.20703125,-22.94921875,-32.2265625,-26.85546875,-1.0,1.0,-1.0,0.0,4.m4v,6.0
2024-02-27 15:44:39.889320,1709045079.88932,-25.87890625,-21.484375,-31.73828125,-36.1328125,-1.0,1.0,-1.0,0.0,4.m4v,6.0
2024-02-27 15:44:39.893242,1709045079.8932424,-53.22265625,-26.85546875,-34.1796875,-29.78515625,-1.0,1.0,-1.0,0.0,4.m4v,6.0
2024-02-27 15:44:39.897147,1709045079.8971467,-47.36328125,-27.34375,-35.15625,-17.578125,-1.0,1.0,-1.0,0.0,4.m4v,6.0
2024-02-27 15:44:39.901051,1709045079.9010513,-24.90234375,-30.76171875,-30.76171875,-16.11328125,-1.0,1.0,-1.0,0.0,4.m4v,6.0
2024-02-27 15:44:39.904956,1709045079.9049556,-30.2734375,-35.15625,-28.3203125,-24.90234375,-1.0,1.0,-1.0,0.0,4.m4v,6.0
2024-02-27 15:44:39.908860,1709045079.9088602,-50.78125,-34.66796875,-34.66796875,-34.1796875,-1.0,1.0,-1.0,0.0,4.m4v,6.0
2024-02-27 15:44:39.912765,1709045079.9127643,-66.40625,-28.3203125,-39.0625,-33.69140625,-1.0,1.0,-1.0,0.0,4.m4v,6.0
2024-02-27 15:44:39.916669,1709045079.9166691,-60.546875,-27.83203125,-36.1328125,-25.87890625,-1.0,1.0,-1.0,0.0,4.m4v,6.0
2024-02-27 15:44:39.920573,1709045079.9205737,-30.2734375,-27.34375,-26.85546875,-18.06640625,-1.0,1.0,-1.0,0.0,4.m4v,6.0
2024-02-27 15:44:39.924478,1709045079.924478,-21.97265625,-31.73828125,-26.85546875,-38.57421875,-1.0,1.0,-1.0,0.0,4.m4v,6.0
2024-02-27 15:44:39.928382,1709045079.9283824,-38.57421875,-33.69140625,-33.203125,-45.8984375,-1.0,1.0,-1.0,0.0,4.m4v,6.0
2024-02-27 15:44:39.932287,1709045079.932287,-54.6875,-31.25,-35.15625,-28.80859375,-1.0,1.0,-1.0,0.0,4.m4v,6.0
2024-02-27 15:44:39.936191,1709045079.936191,-61.5234375,-34.1796875,-37.109375,-23.92578125,-1.0,1.0,-1.0,0.0,4.m4v,6.0
2024-02-27 15:44:39.940112,1709045079.940112,-35.64453125,-33.69140625,-39.0625,-22.4609375,-1.0,1.0,-1.0,0.0,4.m4v,6.0
2024-02-27 15:44:39.944016,1709045079.9440165,-25.87890625,-33.69140625,-39.55078125,-27.34375,-1.0,1.0,-1.0,0.0,4.m4v,6.0
2024-02-27 15:44:39.947921,1709045079.9479208,-50.29296875,-34.1796875,-36.1328125,-38.0859375,-1.0,1.0,-1.0,0.0,4.m4v,6.0
2024-02-27 15:44:39.951825,1709045079.9518254,-52.24609375,-28.3203125,-33.69140625,-37.109375,-1.0,1.0,-1.0,0.0,4.m4v,6.0
2024-02-27 15:44:39.955730,1709045079.9557295,-51.26953125,-24.4140625,-30.2734375,-26.85546875,-1.0,1.0,-1.0,0.0,4.m4v,6.0
2024-02-27 15:44:39.959634,1709045079.9596343,-33.203125,-27.34375,-31.73828125,-21.484375,-1.0,1.0,-1.0,0.0,4.m4v,6.0
2024-02-27 15:44:39.963539,1709045079.9635386,-3.90625,-26.85546875,-36.1328125,-25.87890625,-1.0,1.0,-1.0,0.0,4.m4v,6.0
2024-02-27 15:44:39.967443,1709045079.9674432,-20.99609375,-27.83203125,-39.0625,-38.0859375,-1.0,1.0,-1.0,0.0,4.m4v,6.0
2024-02-27 15:44:39.971348,1709045079.9713476,-53.22265625,-30.2734375,-40.52734375,-40.52734375,-1.0,1.0,-1.0,0.0,4.m4v,6.0
2024-02-27 15:44:39.975252,1709045079.9752522,-68.359375,-32.71484375,-36.1328125,-28.80859375,-1.0,1.0,-1.0,0.0,4.m4v,6.0
2024-02-27 15:44:39.979156,1709045079.9791565,-47.36328125,-34.1796875,-31.25,-29.296875,-1.0,1.0,-1.0,0.0,4.m4v,6.0
2024-02-27 15:44:39.983061,1709045079.983061,-19.04296875,-30.76171875,-34.1796875,-34.66796875,-1.0,1.0,-1.0,0.0,4.m4v,6.0
2024-02-27 15:44:39.986980,1709045079.98698,-25.390625,-33.203125,-42.96875,-36.1328125,-1.0,1.0,-1.0,0.0,4.m4v,6.0
2024-02-27 15:44:39.990885,1709045079.9908843,-73.73046875,-34.1796875,-45.41015625,-40.52734375,-1.0,1.0,-1.0,0.0,4.m4v,6.0
2024-02-27 15:44:39.994789,1709045079.994789,-90.8203125,-30.2734375,-41.015625,-32.71484375,-1.0,1.0,-1.0,0.0,4.m4v,6.0
2024-02-27 15:44:39.998693,1709045079.9986937,-49.31640625,-27.83203125,-32.71484375,-34.66796875,-1.0,1.0,-1.0,0.0,4.m4v,6.0
2024-02-27 15:44:40.002598,1709045080.0025978,-20.99609375,-32.2265625,-34.1796875,-37.59765625,-1.0,1.0,-1.0,0.0,4.m4v,6.0
2024-02-27 15:44:40.006502,1709045080.0065024,-22.4609375,-31.73828125,-41.50390625,-38.0859375,-1.0,1.0,-1.0,0.0,4.m4v,6.0
2024-02-27 15:44:40.010407,1709045080.0104067,-52.24609375,-25.87890625,-38.0859375,-43.9453125,-1.0,1.0,-1.0,0.0,4.m4v,6.0
2024-02-27 15:44:40.014311,1709045080.0143113,-79.1015625,-30.76171875,-37.109375,-44.43359375,-1.0,1.0,-1.0,0.0,4.m4v,6.0
2024-02-27 15:44:40.018216,1709045080.0182157,-53.22265625,-39.55078125,-42.48046875,-35.15625,-1.0,1.0,-1.0,0.0,4.m4v,6.0
2024-02-27 15:44:40.022120,1709045080.0221202,-28.80859375,-27.83203125,-39.55078125,-28.3203125,-1.0,1.0,-1.0,0.0,4.m4v,6.0
2024-02-27 15:44:40.026025,1709045080.0260246,-23.92578125,-22.94921875,-31.73828125,-33.203125,-1.0,1.0,-1.0,0.0,4.m4v,6.0
2024-02-27 15:44:40.029929,1709045080.0299292,-29.78515625,-30.2734375,-27.34375,-40.0390625,-1.0,1.0,-1.0,0.0,4.m4v,6.0
2024-02-27 15:44:40.033847,1709045080.0338469,-63.96484375,-32.71484375,-29.296875,-37.59765625,-1.0,1.0,-1.0,0.0,4.m4v,6.0
2024-02-27 15:44:40.037751,1709045080.0377514,-53.7109375,-32.71484375,-30.2734375,-24.90234375,-1.0,1.0,-1.0,0.0,4.m4v,6.0
2024-02-27 15:44:40.041656,1709045080.0416558,-25.87890625,-35.15625,-33.69140625,-26.85546875,-1.0,1.0,-1.0,0.0,4.m4v,6.0
2024-02-27 15:44:40.045560,1709045080.0455604,-18.06640625,-28.80859375,-29.78515625,-33.69140625,-1.0,1.0,-1.0,0.0,4.m4v,6.0
2024-02-27 15:44:40.049465,1709045080.0494647,-37.59765625,-19.04296875,-25.390625,-31.73828125,-1.0,1.0,-1.0,0.0,4.m4v,6.0
2024-02-27 15:44:40.053369,1709045080.0533693,-71.2890625,-25.390625,-26.3671875,-29.78515625,-1.0,1.0,-1.0,0.0,4.m4v,6.0
2024-02-27 15:44:40.057274,1709045080.0572736,-50.29296875,-33.69140625,-32.71484375,-26.85546875,-1.0,1.0,-1.0,0.0,4.m4v,6.0
2024-02-27 15:44:40.061178,1709045080.0611782,-22.4609375,-34.1796875,-37.109375,-27.34375,-1.0,1.0,-1.0,0.0,4.m4v,6.0
2024-02-27 15:44:40.065083,1709045080.0650826,-17.08984375,-34.66796875,-35.15625,-37.109375,-1.0,1.0,-1.0,0.0,4.m4v,6.0
2024-02-27 15:44:40.068987,1709045080.0689871,-38.0859375,-33.203125,-36.62109375,-54.6875,-1.0,1.0,-1.0,0.0,4.m4v,6.0
2024-02-27 15:44:40.072891,1709045080.0728917,-72.265625,-39.0625,-33.203125,-46.875,-1.0,1.0,-1.0,0.0,4.m4v,6.0
2024-02-27 15:44:40.076796,1709045080.076796,-78.61328125,-40.0390625,-29.296875,-32.71484375,-1.0,1.0,-1.0,0.0,4.m4v,6.0
2024-02-27 15:44:40.080712,1709045080.080712,-49.31640625,-32.71484375,-31.25,-31.25,-1.0,1.0,-1.0,0.0,4.m4v,6.0
2024-02-27 15:44:40.084616,1709045080.0846164,-23.92578125,-35.64453125,-29.296875,-33.203125,-1.0,1.0,-1.0,0.0,4.m4v,6.0
2024-02-27 15:44:40.088521,1709045080.088521,-40.0390625,-32.71484375,-27.83203125,-43.45703125,-1.0,1.0,-1.0,0.0,4.m4v,6.0
2024-02-27 15:44:40.092426,1709045080.0924256,-70.3125,-28.3203125,-31.73828125,-47.8515625,-1.0,1.0,-1.0,0.0,4.m4v,6.0
2024-02-27 15:44:40.096330,1709045080.09633,-65.4296875,-29.296875,-33.69140625,-36.62109375,-1.0,1.0,-1.0,0.0,4.m4v,6.0
2024-02-27 15:44:40.100235,1709045080.1002345,-31.25,-32.2265625,-32.71484375,-27.34375,-1.0,1.0,-1.0,0.0,4.m4v,6.0
2024-02-27 15:44:40.104139,1709045080.1041389,-17.578125,-32.2265625,-30.76171875,-26.3671875,-1.0,1.0,-1.0,0.0,4.m4v,6.0
2024-02-27 15:44:40.108043,1709045080.1080434,-28.3203125,-26.3671875,-30.2734375,-32.2265625,-1.0,1.0,-1.0,0.0,4.m4v,6.0
2024-02-27 15:44:40.111948,1709045080.1119478,-58.10546875,-25.390625,-30.76171875,-33.203125,-1.0,1.0,-1.0,0.0,4.m4v,6.0
2024-02-27 15:44:40.115852,1709045080.1158524,-72.265625,-26.85546875,-27.83203125,-22.94921875,-1.0,1.0,-1.0,0.0,4.m4v,6.0
2024-02-27 15:44:40.119757,1709045080.1197567,-36.1328125,-28.80859375,-23.92578125,-13.671875,-1.0,1.0,-1.0,0.0,4.m4v,6.0
2024-02-27 15:44:40.123661,1709045080.1236613,-3.41796875,-29.78515625,-26.85546875,-17.08984375,-1.0,1.0,-1.0,0.0,4.m4v,6.0
2024-02-27 15:44:40.127576,1709045080.1275756,-5.859375,-22.4609375,-30.2734375,-25.87890625,-1.0,1.0,-1.0,0.0,4.m4v,6.0
2024-02-27 15:44:40.131480,1709045080.1314802,-41.50390625,-24.4140625,-32.71484375,-29.296875,-1.0,1.0,-1.0,0.0,4.m4v,6.0
2024-02-27 15:44:40.135385,1709045080.1353846,-73.73046875,-30.76171875,-39.55078125,-30.2734375,-1.0,1.0,-1.0,0.0,4.m4v,6.0
2024-02-27 15:44:40.139289,1709045080.1392891,-46.875,-32.71484375,-39.0625,-29.78515625,-1.0,1.0,-1.0,0.0,4.m4v,6.0
2024-02-27 15:44:40.143193,1709045080.1431935,-6.34765625,-29.78515625,-33.69140625,-30.2734375,-1.0,1.0,-1.0,0.0,4.m4v,6.0
2024-02-27 15:44:40.147098,1709045080.147098,-6.8359375,-29.78515625,-32.2265625,-39.0625,-1.0,1.0,-1.0,0.0,4.m4v,6.0
2024-02-27 15:44:40.151003,1709045080.1510026,-45.41015625,-33.69140625,-35.64453125,-45.8984375,-1.0,1.0,-1.0,0.0,4.m4v,6.0
2024-02-27 15:44:40.154907,1709045080.154907,-74.70703125,-31.73828125,-41.50390625,-42.48046875,-1.0,1.0,-1.0,0.0,4.m4v,6.0
2024-02-27 15:44:40.158812,1709045080.1588116,-45.41015625,-28.80859375,-41.9921875,-41.9921875,-1.0,1.0,-1.0,0.0,4.m4v,6.0
2024-02-27 15:44:40.162716,1709045080.162716,-16.6015625,-17.08984375,-37.59765625,-42.48046875,-1.0,1.0,-1.0,0.0,4.m4v,6.0
2024-02-27 15:44:40.166620,1709045080.1666205,-15.13671875,-15.625,-34.66796875,-40.52734375,-1.0,1.0,-1.0,0.0,4.m4v,6.0
2024-02-27 15:44:40.170525,1709045080.1705248,-43.9453125,-28.3203125,-37.59765625,-37.59765625,-1.0,1.0,-1.0,0.0,4.m4v,6.0
2024-02-27 15:44:40.174450,1709045080.1744497,-77.63671875,-29.78515625,-41.015625,-31.25,-1.0,1.0,-1.0,0.0,4.m4v,6.0
2024-02-27 15:44:40.178354,1709045080.1783545,-39.0625,-26.85546875,-43.9453125,-26.85546875,-1.0,1.0,-1.0,0.0,4.m4v,6.0
2024-02-27 15:44:40.182259,1709045080.1822586,12.6953125,-23.92578125,-42.48046875,-19.04296875,-1.0,1.0,-1.0,0.0,4.m4v,6.0
2024-02-27 15:44:40.186163,1709045080.1861632,5.859375,-24.4140625,-41.9921875,-26.3671875,-1.0,1.0,-1.0,0.0,4.m4v,6.0
2024-02-27 15:44:40.190068,1709045080.1900675,-30.76171875,-27.34375,-40.0390625,-39.0625,-1.0,1.0,-1.0,0.0,4.m4v,6.0
2024-02-27 15:44:40.193972,1709045080.193972,-59.08203125,-23.92578125,-32.71484375,-29.296875,-1.0,1.0,-1.0,0.0,4.m4v,6.0
2024-02-27 15:44:40.197876,1709045080.1978765,-29.296875,-28.3203125,-33.203125,-20.5078125,-1.0,1.0,-1.0,0.0,4.m4v,6.0
2024-02-27 15:44:40.201781,1709045080.201781,-7.32421875,-35.64453125,-33.69140625,-27.83203125,-1.0,1.0,-1.0,0.0,4.m4v,6.0
2024-02-27 15:44:40.205686,1709045080.2056856,-12.6953125,-31.25,-33.69140625,-39.0625,-1.0,1.0,-1.0,0.0,4.m4v,6.0
2024-02-27 15:44:40.209590,1709045080.20959,-33.203125,-36.62109375,-46.38671875,-45.41015625,-1.0,1.0,-1.0,0.0,4.m4v,6.0
2024-02-27 15:44:40.213495,1709045080.2134943,-83.984375,-41.015625,-52.734375,-44.43359375,-1.0,1.0,-1.0,0.0,4.m4v,6.0
2024-02-27 15:44:40.217399,1709045080.217399,-69.3359375,-35.64453125,-43.9453125,-29.296875,-1.0,1.0,-1.0,0.0,4.m4v,6.0
2024-02-27 15:44:40.221321,1709045080.221321,-30.2734375,-33.203125,-36.62109375,-22.4609375,-1.0,1.0,-1.0,0.0,4.m4v,6.0
2024-02-27 15:44:40.225226,1709045080.2252257,-15.625,-32.2265625,-38.57421875,-29.78515625,-1.0,1.0,-1.0,0.0,4.m4v,6.0
2024-02-27 15:44:40.229130,1709045080.2291305,-24.90234375,-33.69140625,-35.64453125,-36.1328125,-1.0,1.0,-1.0,0.0,4.m4v,6.0
2024-02-27 15:44:40.233035,1709045080.2330346,-60.05859375,-31.25,-33.69140625,-38.0859375,-1.0,1.0,-1.0,0.0,4.m4v,6.0
2024-02-27 15:44:40.236939,1709045080.2369392,-60.05859375,-26.3671875,-30.2734375,-28.80859375,-1.0,1.0,-1.0,0.0,4.m4v,6.0
2024-02-27 15:44:40.240844,1709045080.2408435,-18.06640625,-28.3203125,-23.4375,-24.90234375,-1.0,1.0,-1.0,0.0,4.m4v,6.0
2024-02-27 15:44:40.244748,1709045080.244748,-1.953125,-29.78515625,-29.78515625,-34.66796875,-1.0,1.0,-1.0,0.0,4.m4v,6.0
2024-02-27 15:44:40.248652,1709045080.2486525,-32.71484375,-31.25,-32.71484375,-41.50390625,-1.0,1.0,-1.0,0.0,4.m4v,6.0
2024-02-27 15:44:40.252557,1709045080.252557,-72.75390625,-39.0625,-37.59765625,-41.015625,-1.0,1.0,-1.0,0.0,4.m4v,6.0
2024-02-27 15:44:40.256461,1709045080.2564614,-72.265625,-38.0859375,-41.9921875,-34.1796875,-1.0,1.0,-1.0,0.0,4.m4v,6.0
2024-02-27 15:44:40.260366,1709045080.260366,-38.57421875,-36.62109375,-37.109375,-24.4140625,-1.0,1.0,-1.0,0.0,4.m4v,6.0
2024-02-27 15:44:40.264270,1709045080.2642703,-26.85546875,-38.57421875,-37.59765625,-32.2265625,-1.0,1.0,-1.0,0.0,4.m4v,6.0
2024-02-27 15:44:40.268192,1709045080.2681923,-41.50390625,-38.57421875,-42.96875,-38.0859375,-1.0,1.0,-1.0,0.0,4.m4v,6.0
2024-02-27 15:44:40.272097,1709045080.2720966,-78.61328125,-35.15625,-48.33984375,-36.62109375,-1.0,1.0,-1.0,0.0,4.m4v,6.0
2024-02-27 15:44:40.276001,1709045080.2760012,-77.1484375,-27.34375,-39.0625,-26.3671875,-1.0,1.0,-1.0,0.0,4.m4v,6.0
2024-02-27 15:44:40.279906,1709045080.2799056,-36.1328125,-27.83203125,-31.73828125,-14.6484375,-1.0,1.0,-1.0,0.0,4.m4v,6.0
2024-02-27 15:44:40.283810,1709045080.28381,-26.3671875,-31.73828125,-39.55078125,-27.34375,-1.0,1.0,-1.0,0.0,4.m4v,6.0
2024-02-27 15:44:40.287714,1709045080.2877145,-12.6953125,-28.3203125,-41.50390625,-34.66796875,-1.0,1.0,-1.0,0.0,4.m4v,6.0
2024-02-27 15:44:40.291619,1709045080.291619,-42.96875,-27.34375,-38.0859375,-30.2734375,-1.0,1.0,-1.0,0.0,4.m4v,6.0
2024-02-27 15:44:40.295523,1709045080.2955234,-94.23828125,-29.78515625,-32.2265625,-25.87890625,-1.0,1.0,-1.0,0.0,4.m4v,6.0
2024-02-27 15:44:40.299428,1709045080.299428,-59.5703125,-32.2265625,-33.69140625,-21.484375,-1.0,1.0,-1.0,0.0,4.m4v,6.0
2024-02-27 15:44:40.303332,1709045080.3033323,-11.23046875,-33.203125,-38.57421875,-31.25,-1.0,1.0,-1.0,0.0,4.m4v,6.0
2024-02-27 15:44:40.307237,1709045080.307237,-11.71875,-31.73828125,-34.66796875,-38.0859375,-1.0,1.0,-1.0,0.0,4.m4v,6.0
2024-02-27 15:44:40.311141,1709045080.3111415,-34.1796875,-32.71484375,-32.2265625,-37.59765625,-1.0,1.0,-1.0,0.0,4.m4v,6.0
2024-02-27 15:44:40.315063,1709045080.3150628,-59.08203125,-35.64453125,-40.0390625,-39.0625,-1.0,1.0,-1.0,0.0,4.m4v,6.0
2024-02-27 15:44:40.318967,1709045080.318967,-35.15625,-36.1328125,-41.015625,-30.76171875,-1.0,1.0,-1.0,0.0,4.m4v,6.0
2024-02-27 15:44:40.322872,1709045080.3228717,-3.41796875,-34.66796875,-37.109375,-29.296875,-1.0,1.0,-1.0,0.0,4.m4v,6.0
2024-02-27 15:44:40.326776,1709045080.3267765,-13.671875,-30.76171875,-37.59765625,-37.109375,-1.0,1.0,-1.0,0.0,4.m4v,6.0
2024-02-27 15:44:40.330681,1709045080.3306808,-43.9453125,-35.15625,-38.0859375,-39.55078125,-1.0,1.0,-1.0,0.0,4.m4v,6.0
2024-02-27 15:44:40.334585,1709045080.3345852,-65.91796875,-34.1796875,-37.59765625,-43.45703125,-1.0,1.0,-1.0,0.0,4.m4v,6.0
2024-02-27 15:44:40.338490,1709045080.3384898,-50.29296875,-31.73828125,-36.1328125,-40.0390625,-1.0,1.0,-1.0,0.0,4.m4v,6.0
2024-02-27 15:44:40.342394,1709045080.342394,-22.4609375,-36.1328125,-39.55078125,-34.66796875,-1.0,1.0,-1.0,0.0,4.m4v,6.0
2024-02-27 15:44:40.346299,1709045080.3462987,-34.1796875,-36.1328125,-37.59765625,-37.59765625,-1.0,1.0,-1.0,0.0,4.m4v,6.0
2024-02-27 15:44:40.350203,1709045080.350203,-56.15234375,-38.57421875,-36.1328125,-40.52734375,-1.0,1.0,-1.0,0.0,4.m4v,6.0
2024-02-27 15:44:40.354108,1709045080.3541076,-73.2421875,-40.52734375,-45.8984375,-49.31640625,-1.0,1.0,-1.0,0.0,4.m4v,6.0
2024-02-27 15:44:40.358012,1709045080.358012,-55.6640625,-41.015625,-48.33984375,-42.48046875,-1.0,1.0,-1.0,0.0,4.m4v,6.0
2024-02-27 15:44:40.361943,1709045080.3619428,-13.18359375,-39.0625,-40.0390625,-29.296875,-1.0,1.0,-1.0,0.0,4.m4v,6.0
2024-02-27 15:44:40.365847,1709045080.365847,-11.23046875,-35.64453125,-37.109375,-37.59765625,-1.0,1.0,-1.0,0.0,4.m4v,6.0
2024-02-27 15:44:40.369752,1709045080.3697517,-42.48046875,-39.55078125,-47.8515625,-48.828125,-1.0,1.0,-1.0,0.0,4.m4v,6.0
2024-02-27 15:44:40.373656,1709045080.3736565,-66.89453125,-36.62109375,-47.36328125,-37.59765625,-1.0,1.0,-1.0,0.0,4.m4v,6.0
2024-02-27 15:44:40.377561,1709045080.3775606,-56.15234375,-34.1796875,-41.015625,-27.83203125,-1.0,1.0,-1.0,0.0,4.m4v,6.0
2024-02-27 15:44:40.381465,1709045080.3814652,-41.015625,-35.15625,-38.0859375,-29.78515625,-1.0,1.0,-1.0,0.0,4.m4v,6.0
2024-02-27 15:44:40.385370,1709045080.3853695,-33.203125,-35.64453125,-35.64453125,-36.62109375,-1.0,1.0,-1.0,0.0,4.m4v,6.0
2024-02-27 15:44:40.389274,1709045080.389274,-33.69140625,-39.0625,-37.59765625,-44.921875,-1.0,1.0,-1.0,0.0,4.m4v,6.0
2024-02-27 15:44:40.393178,1709045080.3931785,-63.4765625,-34.1796875,-37.59765625,-41.50390625,-1.0,1.0,-1.0,0.0,4.m4v,6.0
2024-02-27 15:44:40.397083,1709045080.397083,-60.546875,-27.83203125,-33.69140625,-38.0859375,-1.0,1.0,-1.0,0.0,4.m4v,6.0
2024-02-27 15:44:40.400987,1709045080.4009874,-36.62109375,-35.15625,-39.0625,-42.48046875,-1.0,1.0,-1.0,0.0,4.m4v,6.0
2024-02-27 15:44:40.404892,1709045080.404892,-23.92578125,-36.1328125,-45.41015625,-41.50390625,-1.0,1.0,-1.0,0.0,4.m4v,6.0
2024-02-27 15:44:40.408809,1709045080.4088094,-21.484375,-30.76171875,-41.50390625,-41.50390625,-1.0,1.0,-1.0,0.0,4.m4v,6.0
2024-02-27 15:44:40.412714,1709045080.4127138,-68.359375,-37.109375,-36.62109375,-55.17578125,-1.0,1.0,-1.0,0.0,4.m4v,6.0
2024-02-27 15:44:40.416618,1709045080.4166183,-81.54296875,-43.45703125,-38.0859375,-45.41015625,-1.0,1.0,-1.0,0.0,4.m4v,6.0
2024-02-27 15:44:40.420523,1709045080.4205227,-31.73828125,-42.48046875,-34.66796875,-29.296875,-1.0,1.0,-1.0,0.0,4.m4v,6.0
2024-02-27 15:44:40.424427,1709045080.4244273,-10.25390625,-38.57421875,-32.2265625,-33.69140625,-1.0,1.0,-1.0,0.0,4.m4v,6.0
2024-02-27 15:44:40.428332,1709045080.4283316,-9.765625,-29.78515625,-34.1796875,-38.57421875,-1.0,1.0,-1.0,0.0,4.m4v,6.0
2024-02-27 15:44:40.432236,1709045080.4322362,-40.52734375,-29.78515625,-37.59765625,-42.48046875,-1.0,1.0,-1.0,0.0,4.m4v,6.0
2024-02-27 15:44:40.436141,1709045080.4361403,-77.63671875,-37.59765625,-41.9921875,-47.8515625,-1.0,1.0,-1.0,0.0,4.m4v,6.0
2024-02-27 15:44:40.440045,1709045080.440045,-57.12890625,-35.15625,-41.015625,-45.41015625,-1.0,1.0,-1.0,0.0,4.m4v,6.0
2024-02-27 15:44:40.443949,1709045080.4439497,-25.390625,-33.203125,-38.0859375,-39.0625,-1.0,1.0,-1.0,0.0,4.m4v,6.0
2024-02-27 15:44:40.447854,1709045080.447854,-23.92578125,-35.15625,-35.15625,-37.59765625,-1.0,1.0,-1.0,0.0,4.m4v,6.0
2024-02-27 15:44:40.451758,1709045080.4517584,-56.15234375,-31.25,-31.25,-36.1328125,-1.0,1.0,-1.0,0.0,4.m4v,6.0
2024-02-27 15:44:40.455674,1709045080.4556744,-85.9375,-33.203125,-30.76171875,-36.1328125,-1.0,1.0,-1.0,0.0,4.m4v,6.0
2024-02-27 15:44:40.459579,1709045080.459579,-63.96484375,-34.66796875,-31.25,-35.64453125,-1.0,1.0,-1.0,0.0,4.m4v,6.0
2024-02-27 15:44:40.463483,1709045080.463483,-22.94921875,-28.80859375,-33.69140625,-34.1796875,-1.0,1.0,-1.0,0.0,4.m4v,6.0
2024-02-27 15:44:40.467388,1709045080.467388,-15.625,-27.34375,-31.25,-38.57421875,-1.0,1.0,-1.0,0.0,4.m4v,6.0
2024-02-27 15:44:40.471292,1709045080.4712925,-56.640625,-32.71484375,-34.1796875,-43.45703125,-1.0,1.0,-1.0,0.0,4.m4v,6.0
2024-02-27 15:44:40.475197,1709045080.4751968,-86.9140625,-30.2734375,-37.109375,-37.109375,-1.0,1.0,-1.0,0.0,4.m4v,6.0
2024-02-27 15:44:40.479101,1709045080.4791014,-68.84765625,-36.1328125,-37.109375,-37.59765625,-1.0,1.0,-1.0,0.0,4.m4v,6.0
2024-02-27 15:44:40.483006,1709045080.4830058,-48.828125,-42.96875,-41.015625,-47.8515625,-1.0,1.0,-1.0,0.0,4.m4v,6.0
2024-02-27 15:44:40.486910,1709045080.4869103,-35.64453125,-34.1796875,-40.0390625,-51.7578125,-1.0,1.0,-1.0,0.0,4.m4v,6.0
2024-02-27 15:44:40.490815,1709045080.4908147,-38.0859375,-34.1796875,-37.59765625,-49.31640625,-1.0,1.0,-1.0,0.0,4.m4v,6.0
2024-02-27 15:44:40.494719,1709045080.4947193,-58.59375,-30.2734375,-29.78515625,-41.015625,-1.0,1.0,-1.0,0.0,4.m4v,6.0
2024-02-27 15:44:40.498624,1709045080.4986236,-39.55078125,-28.3203125,-29.78515625,-31.25,-1.0,1.0,-1.0,0.0,4.m4v,6.0
2024-02-27 15:44:40.502539,1709045080.5025394,-11.71875,-34.1796875,-40.52734375,-36.62109375,-1.0,1.0,-1.0,0.0,4.m4v,6.0
2024-02-27 15:44:40.506444,1709045080.506444,-12.6953125,-34.1796875,-43.9453125,-41.015625,-1.0,1.0,-1.0,0.0,4.m4v,6.0
2024-02-27 15:44:40.510348,1709045080.5103483,-43.45703125,-40.0390625,-41.9921875,-40.0390625,-1.0,1.0,-1.0,0.0,4.m4v,6.0
2024-02-27 15:44:40.514253,1709045080.514253,-86.9140625,-38.57421875,-43.9453125,-41.015625,-1.0,1.0,-1.0,0.0,4.m4v,6.0
2024-02-27 15:44:40.518157,1709045080.5181572,-67.87109375,-33.69140625,-46.38671875,-33.203125,-1.0,1.0,-1.0,0.0,4.m4v,6.0
2024-02-27 15:44:40.522062,1709045080.5220618,-8.7890625,-34.66796875,-38.57421875,-28.3203125,-1.0,1.0,-1.0,0.0,4.m4v,6.0
2024-02-27 15:44:40.525966,1709045080.5259664,0.9765625,-32.2265625,-31.73828125,-38.57421875,-1.0,1.0,-1.0,0.0,4.m4v,6.0
2024-02-27 15:44:40.529871,1709045080.5298707,-45.8984375,-30.76171875,-33.69140625,-38.57421875,-1.0,1.0,-1.0,0.0,4.m4v,6.0
2024-02-27 15:44:40.533775,1709045080.533775,-77.63671875,-32.2265625,-41.50390625,-34.1796875,-1.0,1.0,-1.0,0.0,4.m4v,6.0
2024-02-27 15:44:40.537680,1709045080.5376797,-53.7109375,-34.1796875,-40.52734375,-38.0859375,-1.0,1.0,-1.0,0.0,4.m4v,6.0
2024-02-27 15:44:40.541584,1709045080.5415845,-20.01953125,-34.1796875,-39.0625,-42.96875,-1.0,1.0,-1.0,0.0,4.m4v,6.0
2024-02-27 15:44:40.545489,1709045080.5454886,-10.25390625,-30.76171875,-35.15625,-40.0390625,-1.0,1.0,-1.0,0.0,4.m4v,6.0
2024-02-27 15:44:40.549414,1709045080.549414,-30.2734375,-30.76171875,-27.34375,-37.109375,-1.0,1.0,-1.0,0.0,4.m4v,6.0
2024-02-27 15:44:40.553319,1709045080.5533185,-59.5703125,-31.25,-28.3203125,-33.69140625,-1.0,1.0,-1.0,0.0,4.m4v,6.0
2024-02-27 15:44:40.557223,1709045080.5572228,-54.6875,-29.78515625,-33.203125,-28.3203125,-1.0,1.0,-1.0,0.0,4.m4v,6.0
2024-02-27 15:44:40.561127,1709045080.5611274,-35.15625,-37.59765625,-35.15625,-32.71484375,-1.0,1.0,-1.0,0.0,4.m4v,6.0
2024-02-27 15:44:40.565032,1709045080.5650318,-31.73828125,-45.8984375,-36.62109375,-41.9921875,-1.0,1.0,-1.0,0.0,4.m4v,6.0
2024-02-27 15:44:40.568936,1709045080.5689363,-32.71484375,-34.66796875,-33.203125,-40.0390625,-1.0,1.0,-1.0,0.0,4.m4v,6.0
2024-02-27 15:44:40.572841,1709045080.5728407,-59.08203125,-36.1328125,-30.2734375,-37.109375,-1.0,1.0,-1.0,0.0,4.m4v,6.0
2024-02-27 15:44:40.576745,1709045080.5767453,-76.171875,-46.875,-35.15625,-33.69140625,-1.0,1.0,-1.0,0.0,4.m4v,6.0
2024-02-27 15:44:40.580650,1709045080.5806496,-44.43359375,-42.48046875,-41.50390625,-29.296875,-1.0,1.0,-1.0,0.0,4.m4v,6.0
2024-02-27 15:44:40.584554,1709045080.5845542,-26.3671875,-34.1796875,-35.15625,-29.78515625,-1.0,1.0,-1.0,0.0,4.m4v,6.0
2024-02-27 15:44:40.588459,1709045080.5884583,-41.015625,-29.296875,-24.4140625,-32.2265625,-1.0,1.0,-1.0,0.0,4.m4v,6.0
2024-02-27 15:44:40.592363,1709045080.592363,-69.82421875,-26.3671875,-28.80859375,-34.66796875,-1.0,1.0,-1.0,0.0,4.m4v,6.0
2024-02-27 15:44:40.596298,1709045080.5962982,-69.3359375,-26.85546875,-32.71484375,-28.3203125,-1.0,1.0,-1.0,0.0,4.m4v,6.0
2024-02-27 15:44:40.600203,1709045080.6002028,-26.85546875,-21.484375,-26.3671875,-13.18359375,-1.0,1.0,-1.0,0.0,4.m4v,6.0
2024-02-27 15:44:40.604107,1709045080.6041071,-20.5078125,-22.4609375,-27.83203125,-19.53125,-1.0,1.0,-1.0,0.0,4.m4v,6.0
2024-02-27 15:44:40.608012,1709045080.6080115,-32.71484375,-30.76171875,-35.64453125,-37.59765625,-1.0,1.0,-1.0,0.0,4.m4v,6.0
2024-02-27 15:44:40.611916,1709045080.611916,-47.8515625,-25.390625,-34.66796875,-38.0859375,-1.0,1.0,-1.0,0.0,4.m4v,6.0
2024-02-27 15:44:40.615821,1709045080.6158206,-59.5703125,-25.87890625,-29.78515625,-25.390625,-1.0,1.0,-1.0,0.0,4.m4v,6.0
2024-02-27 15:44:40.619725,1709045080.619725,-35.64453125,-36.62109375,-31.73828125,-22.4609375,-1.0,1.0,-1.0,0.0,4.m4v,6.0
2024-02-27 15:44:40.623630,1709045080.6236296,-21.97265625,-41.015625,-35.64453125,-30.76171875,-1.0,1.0,-1.0,0.0,4.m4v,6.0
2024-02-27 15:44:40.627534,1709045080.627534,-31.73828125,-40.52734375,-35.64453125,-35.64453125,-1.0,1.0,-1.0,0.0,4.m4v,6.0
2024-02-27 15:44:40.631438,1709045080.6314385,-54.6875,-37.59765625,-31.25,-33.203125,-1.0,1.0,-1.0,0.0,4.m4v,6.0
2024-02-27 15:44:40.635343,1709045080.635343,-75.1953125,-38.0859375,-29.78515625,-30.76171875,-1.0,1.0,-1.0,0.0,4.m4v,6.0
2024-02-27 15:44:40.639247,1709045080.6392474,-60.546875,-38.57421875,-30.76171875,-21.484375,-1.0,1.0,-1.0,0.0,4.m4v,6.0
2024-02-27 15:44:40.643169,1709045080.6431694,-25.87890625,-36.1328125,-26.85546875,-23.4375,-1.0,1.0,-1.0,0.0,4.m4v,6.0
2024-02-27 15:44:40.647074,1709045080.6470735,-14.6484375,-32.71484375,-24.90234375,-38.0859375,-1.0,1.0,-1.0,0.0,4.m4v,6.0
2024-02-27 15:44:40.650978,1709045080.6509783,-38.57421875,-30.2734375,-24.4140625,-35.64453125,-1.0,1.0,-1.0,0.0,4.m4v,6.0
2024-02-27 15:44:40.654883,1709045080.654883,-55.6640625,-29.78515625,-26.85546875,-22.94921875,-1.0,1.0,-1.0,0.0,4.m4v,6.0
2024-02-27 15:44:40.658787,1709045080.6587873,-41.50390625,-33.203125,-33.69140625,-19.53125,-1.0,1.0,-1.0,0.0,4.m4v,6.0
2024-02-27 15:44:40.662692,1709045080.6626918,-14.16015625,-28.80859375,-33.69140625,-23.92578125,-1.0,1.0,-1.0,0.0,4.m4v,6.0
2024-02-27 15:44:40.666596,1709045080.6665962,-17.578125,-26.3671875,-34.1796875,-26.85546875,-1.0,1.0,-1.0,0.0,4.m4v,6.0
2024-02-27 15:44:40.670501,1709045080.6705008,-54.6875,-29.296875,-35.64453125,-30.76171875,-1.0,1.0,-1.0,0.0,4.m4v,6.0
2024-02-27 15:44:40.674405,1709045080.674405,-79.58984375,-29.78515625,-35.64453125,-30.2734375,-1.0,1.0,-1.0,0.0,4.m4v,6.0
2024-02-27 15:44:40.678310,1709045080.6783097,-58.10546875,-32.71484375,-35.15625,-25.390625,-1.0,1.0,-1.0,0.0,4.m4v,6.0
2024-02-27 15:44:40.682214,1709045080.682214,-20.01953125,-35.64453125,-30.2734375,-22.94921875,-1.0,1.0,-1.0,0.0,4.m4v,6.0
2024-02-27 15:44:40.686119,1709045080.6861186,-33.69140625,-35.64453125,-29.78515625,-38.0859375,-1.0,1.0,-1.0,0.0,4.m4v,6.0
2024-02-27 15:44:40.690051,1709045080.6900508,-50.29296875,-31.73828125,-36.62109375,-45.41015625,-1.0,1.0,-1.0,0.0,4.m4v,6.0
2024-02-27 15:44:40.693955,1709045080.6939554,-62.01171875,-33.69140625,-37.109375,-36.62109375,-1.0,1.0,-1.0,0.0,4.m4v,6.0
2024-02-27 15:44:40.697860,1709045080.69786,-49.31640625,-30.76171875,-30.76171875,-25.390625,-1.0,1.0,-1.0,0.0,4.m4v,6.0
2024-02-27 15:44:40.701764,1709045080.7017643,-17.578125,-23.4375,-33.69140625,-26.3671875,-1.0,1.0,-1.0,0.0,4.m4v,6.0
2024-02-27 15:44:40.705669,1709045080.705669,-21.97265625,-24.4140625,-42.96875,-45.8984375,-1.0,1.0,-1.0,0.0,4.m4v,6.0
2024-02-27 15:44:40.709573,1709045080.7095733,-36.1328125,-25.390625,-37.59765625,-44.921875,-1.0,1.0,-1.0,0.0,4.m4v,6.0
2024-02-27 15:44:40.713478,1709045080.7134778,-63.96484375,-25.390625,-29.296875,-40.52734375,-1.0,1.0,-1.0,0.0,4.m4v,6.0
2024-02-27 15:44:40.717382,1709045080.7173822,-75.1953125,-27.34375,-26.3671875,-37.59765625,-1.0,1.0,-1.0,0.0,4.m4v,6.0
2024-02-27 15:44:40.721287,1709045080.7212868,-33.69140625,-29.78515625,-31.25,-27.34375,-1.0,1.0,-1.0,0.0,4.m4v,6.0
2024-02-27 15:44:40.725191,1709045080.725191,-20.99609375,-33.69140625,-36.1328125,-31.73828125,-1.0,1.0,-1.0,0.0,4.m4v,6.0
2024-02-27 15:44:40.729096,1709045080.7290957,-42.48046875,-33.69140625,-33.69140625,-38.57421875,-1.0,1.0,-1.0,0.0,4.m4v,6.0
2024-02-27 15:44:40.733000,1709045080.733,-65.91796875,-34.66796875,-35.64453125,-31.73828125,-1.0,1.0,-1.0,0.0,4.m4v,6.0
2024-02-27 15:44:40.736919,1709045080.7369194,-63.4765625,-32.2265625,-40.0390625,-27.34375,-1.0,1.0,-1.0,0.0,4.m4v,6.0
2024-02-27 15:44:40.740824,1709045080.740824,-20.99609375,-30.76171875,-43.9453125,-21.484375,-1.0,1.0,-1.0,0.0,4.m4v,6.0
2024-02-27 15:44:40.744728,1709045080.7447283,-4.39453125,-29.78515625,-36.1328125,-18.06640625,-1.0,1.0,-1.0,0.0,4.m4v,6.0
2024-02-27 15:44:40.748633,1709045080.748633,-49.31640625,-31.25,-33.69140625,-47.8515625,-1.0,1.0,-1.0,0.0,4.m4v,6.0
2024-02-27 15:44:40.752537,1709045080.7525375,-106.4453125,-28.3203125,-43.9453125,-69.82421875,-1.0,1.0,-1.0,0.0,4.m4v,6.0
2024-02-27 15:44:40.756442,1709045080.7564418,-100.09765625,-29.296875,-46.38671875,-55.6640625,-1.0,1.0,-1.0,0.0,4.m4v,6.0
2024-02-27 15:44:40.760346,1709045080.7603464,-59.5703125,-31.25,-41.50390625,-50.29296875,-1.0,1.0,-1.0,0.0,4.m4v,6.0
2024-02-27 15:44:40.764251,1709045080.7642508,-50.78125,-31.25,-45.41015625,-55.17578125,-1.0,1.0,-1.0,0.0,4.m4v,6.0
2024-02-27 15:44:40.768155,1709045080.768155,-54.19921875,-34.66796875,-45.8984375,-55.6640625,-1.0,1.0,-1.0,0.0,4.m4v,6.0
2024-02-27 15:44:40.772060,1709045080.7720597,-72.75390625,-30.2734375,-38.0859375,-58.10546875,-1.0,1.0,-1.0,0.0,4.m4v,6.0
2024-02-27 15:44:40.775964,1709045080.7759645,-80.078125,-28.3203125,-36.62109375,-47.8515625,-1.0,1.0,-1.0,0.0,4.m4v,6.0
2024-02-27 15:44:40.779869,1709045080.7798686,-39.0625,-26.3671875,-36.1328125,-38.0859375,-1.0,1.0,-1.0,0.0,4.m4v,6.0
2024-02-27 15:44:40.783786,1709045080.7837863,-17.08984375,-27.34375,-31.73828125,-47.36328125,-1.0,1.0,-1.0,0.0,4.m4v,6.0
2024-02-27 15:44:40.787691,1709045080.7876906,-18.06640625,-22.94921875,-26.85546875,-47.36328125,-1.0,1.0,-1.0,0.0,4.m4v,6.0
2024-02-27 15:44:40.791595,1709045080.7915952,-36.1328125,-18.5546875,-32.2265625,-41.015625,-1.0,1.0,-1.0,0.0,4.m4v,6.0
2024-02-27 15:44:40.795500,1709045080.7954996,-72.265625,-23.92578125,-37.59765625,-42.48046875,-1.0,1.0,-1.0,0.0,4.m4v,6.0
2024-02-27 15:44:40.799404,1709045080.799404,-46.875,-25.87890625,-33.69140625,-43.9453125,-1.0,1.0,-1.0,0.0,4.m4v,6.0
2024-02-27 15:44:40.803309,1709045080.8033087,11.23046875,-25.390625,-33.69140625,-35.64453125,-1.0,1.0,-1.0,0.0,4.m4v,6.0
2024-02-27 15:44:40.807213,1709045080.807213,0.48828125,-25.390625,-42.48046875,-29.78515625,-1.0,1.0,-1.0,0.0,4.m4v,6.0
2024-02-27 15:44:40.811118,1709045080.8111176,-54.6875,-30.76171875,-42.96875,-37.59765625,-1.0,1.0,-1.0,0.0,4.m4v,6.0
2024-02-27 15:44:40.815022,1709045080.815022,-78.125,-26.85546875,-31.25,-31.25,-1.0,1.0,-1.0,0.0,4.m4v,6.0
2024-02-27 15:44:40.818927,1709045080.8189266,-51.26953125,-25.390625,-30.2734375,-26.85546875,-1.0,1.0,-1.0,0.0,4.m4v,6.0
2024-02-27 15:44:40.822831,1709045080.822831,-27.83203125,-29.296875,-36.1328125,-34.66796875,-1.0,1.0,-1.0,0.0,4.m4v,6.0
2024-02-27 15:44:40.826735,1709045080.8267355,-37.109375,-28.80859375,-41.015625,-37.59765625,-1.0,1.0,-1.0,0.0,4.m4v,6.0
2024-02-27 15:44:40.830652,1709045080.8306518,-57.6171875,-28.80859375,-41.9921875,-39.55078125,-1.0,1.0,-1.0,0.0,4.m4v,6.0
2024-02-27 15:44:40.834556,1709045080.834556,-66.89453125,-27.83203125,-37.59765625,-36.1328125,-1.0,1.0,-1.0,0.0,4.m4v,6.0
2024-02-27 15:44:40.838461,1709045080.8384607,-52.734375,-32.71484375,-40.0390625,-31.73828125,-1.0,1.0,-1.0,0.0,4.m4v,6.0
2024-02-27 15:44:40.842365,1709045080.842365,-17.08984375,-35.64453125,-38.57421875,-29.296875,-1.0,1.0,-1.0,0.0,4.m4v,6.0
2024-02-27 15:44:40.846270,1709045080.8462696,-0.48828125,-27.34375,-29.296875,-29.296875,-1.0,1.0,-1.0,0.0,4.m4v,6.0
2024-02-27 15:44:40.850174,1709045080.850174,-22.4609375,-26.3671875,-30.2734375,-35.64453125,-1.0,1.0,-1.0,0.0,4.m4v,6.0
2024-02-27 15:44:40.854079,1709045080.8540783,-53.22265625,-35.64453125,-39.55078125,-38.57421875,-1.0,1.0,-1.0,0.0,4.m4v,6.0
2024-02-27 15:44:40.857983,1709045080.857983,-54.6875,-41.50390625,-46.875,-33.203125,-1.0,1.0,-1.0,0.0,4.m4v,6.0
2024-02-27 15:44:40.861887,1709045080.8618877,-28.3203125,-36.62109375,-46.38671875,-27.34375,-1.0,1.0,-1.0,0.0,4.m4v,6.0
2024-02-27 15:44:40.865792,1709045080.865792,-16.11328125,-32.2265625,-42.48046875,-32.71484375,-1.0,1.0,-1.0,0.0,4.m4v,6.0
2024-02-27 15:44:40.869696,1709045080.8696964,-35.64453125,-31.25,-38.0859375,-38.0859375,-1.0,1.0,-1.0,0.0,4.m4v,6.0
2024-02-27 15:44:40.873601,1709045080.873601,-68.84765625,-28.3203125,-34.66796875,-31.25,-1.0,1.0,-1.0,0.0,4.m4v,6.0
2024-02-27 15:44:40.877515,1709045080.877515,-62.98828125,-31.25,-31.73828125,-22.94921875,-1.0,1.0,-1.0,0.0,4.m4v,6.0
2024-02-27 15:44:40.881419,1709045080.8814194,-24.90234375,-30.2734375,-34.66796875,-18.06640625,-1.0,1.0,-1.0,0.0,4.m4v,6.0
2024-02-27 15:44:40.885324,1709045080.885324,-18.06640625,-21.97265625,-35.15625,-21.484375,-1.0,1.0,-1.0,0.0,4.m4v,6.0
2024-02-27 15:44:40.889228,1709045080.8892283,-41.50390625,-27.83203125,-33.203125,-31.73828125,-1.0,1.0,-1.0,0.0,4.m4v,6.0
2024-02-27 15:44:40.893133,1709045080.893133,-72.75390625,-27.34375,-30.76171875,-36.1328125,-1.0,1.0,-1.0,0.0,4.m4v,6.0
2024-02-27 15:44:40.897037,1709045080.8970373,-71.2890625,-22.94921875,-33.69140625,-28.80859375,-1.0,1.0,-1.0,0.0,4.m4v,6.0
2024-02-27 15:44:40.900942,1709045080.9009418,-28.80859375,-37.59765625,-36.1328125,-18.5546875,-1.0,1.0,-1.0,0.0,4.m4v,6.0
2024-02-27 15:44:40.904846,1709045080.9048464,-20.01953125,-42.96875,-36.1328125,-29.296875,-1.0,1.0,-1.0,0.0,4.m4v,6.0
2024-02-27 15:44:40.908751,1709045080.9087508,-49.31640625,-37.109375,-41.9921875,-41.50390625,-1.0,1.0,-1.0,0.0,4.m4v,6.0
2024-02-27 15:44:40.912655,1709045080.9126554,-74.21875,-38.0859375,-35.15625,-33.69140625,-1.0,1.0,-1.0,0.0,4.m4v,6.0
2024-02-27 15:44:40.916560,1709045080.9165597,-56.640625,-38.0859375,-36.1328125,-20.99609375,-1.0,1.0,-1.0,0.0,4.m4v,6.0
2024-02-27 15:44:40.920464,1709045080.9204645,-23.4375,-35.64453125,-42.96875,-18.06640625,-1.0,1.0,-1.0,0.0,4.m4v,6.0
2024-02-27 15:44:40.924389,1709045080.924389,-8.30078125,-35.15625,-39.0625,-27.34375,-1.0,1.0,-1.0,0.0,4.m4v,6.0
2024-02-27 15:44:40.928293,1709045080.9282932,-13.671875,-31.25,-33.69140625,-32.2265625,-1.0,1.0,-1.0,0.0,4.m4v,6.0
2024-02-27 15:44:40.932198,1709045080.9321978,-47.36328125,-32.2265625,-32.71484375,-36.1328125,-1.0,1.0,-1.0,0.0,4.m4v,6.0
2024-02-27 15:44:40.936102,1709045080.9361022,-55.6640625,-34.1796875,-35.15625,-32.71484375,-1.0,1.0,-1.0,0.0,4.m4v,6.0
2024-02-27 15:44:40.940007,1709045080.9400067,-21.97265625,-32.2265625,-36.1328125,-19.53125,-1.0,1.0,-1.0,0.0,4.m4v,6.0
2024-02-27 15:44:40.943911,1709045080.943911,10.7421875,-33.69140625,-35.64453125,-22.4609375,-1.0,1.0,-1.0,0.0,4.m4v,6.0
2024-02-27 15:44:40.947816,1709045080.9478157,4.8828125,-27.83203125,-31.73828125,-26.85546875,-1.0,1.0,-1.0,0.0,4.m4v,6.0
2024-02-27 15:44:40.951720,1709045080.95172,-46.38671875,-29.78515625,-29.296875,-25.390625,-1.0,1.0,-1.0,0.0,4.m4v,6.0
2024-02-27 15:44:40.955625,1709045080.9556246,-63.4765625,-35.15625,-32.71484375,-25.390625,-1.0,1.0,-1.0,0.0,4.m4v,6.0
2024-02-27 15:44:40.959529,1709045080.959529,-29.78515625,-31.25,-33.69140625,-18.5546875,-1.0,1.0,-1.0,0.0,4.m4v,6.0
2024-02-27 15:44:40.963434,1709045080.9634335,-5.859375,-26.85546875,-33.69140625,-13.671875,-1.0,1.0,-1.0,0.0,4.m4v,6.0
2024-02-27 15:44:40.967338,1709045080.967338,-23.4375,-32.2265625,-36.62109375,-27.34375,-1.0,1.0,-1.0,0.0,4.m4v,6.0
2024-02-27 15:44:40.971262,1709045080.971262,-51.7578125,-28.80859375,-35.15625,-32.2265625,-1.0,1.0,-1.0,0.0,4.m4v,6.0
2024-02-27 15:44:40.975167,1709045080.9751666,-48.33984375,-27.83203125,-34.1796875,-21.97265625,-1.0,1.0,-1.0,0.0,4.m4v,6.0
2024-02-27 15:44:40.979071,1709045080.979071,-21.484375,-38.57421875,-37.109375,-18.5546875,-1.0,1.0,-1.0,0.0,4.m4v,6.0
2024-02-27 15:44:40.982975,1709045080.9829755,-8.7890625,-36.1328125,-37.59765625,-21.97265625,-1.0,1.0,-1.0,0.0,4.m4v,6.0
2024-02-27 15:44:40.986880,1709045080.9868798,-24.90234375,-33.203125,-39.55078125,-30.76171875,-1.0,1.0,-1.0,0.0,4.m4v,6.0
2024-02-27 15:44:40.990784,1709045080.9907844,-40.52734375,-32.2265625,-39.55078125,-30.2734375,-1.0,1.0,-1.0,0.0,4.m4v,6.0
2024-02-27 15:44:40.994689,1709045080.9946887,-56.640625,-32.71484375,-35.15625,-25.390625,-1.0,1.0,-1.0,0.0,4.m4v,6.0
2024-02-27 15:44:40.998593,1709045080.998593,-43.45703125,-32.2265625,-32.2265625,-13.18359375,-1.0,1.0,-1.0,0.0,4.m4v,6.0
2024-02-27 15:44:41.002498,1709045081.002498,-9.27734375,-28.3203125,-30.76171875,-11.23046875,-1.0,1.0,-1.0,0.0,4.m4v,6.0
2024-02-27 15:44:41.006402,1709045081.0064025,-6.34765625,-28.3203125,-27.83203125,-29.78515625,-1.0,1.0,-1.0,0.0,4.m4v,6.0
2024-02-27 15:44:41.010307,1709045081.0103068,-47.8515625,-31.73828125,-33.69140625,-43.9453125,-1.0,1.0,-1.0,0.0,4.m4v,6.0
2024-02-27 15:44:41.014211,1709045081.0142112,-75.1953125,-30.2734375,-37.59765625,-47.36328125,-1.0,1.0,-1.0,0.0,4.m4v,6.0
2024-02-27 15:44:41.018133,1709045081.0181334,-49.8046875,-29.296875,-34.1796875,-38.57421875,-1.0,1.0,-1.0,0.0,4.m4v,6.0
2024-02-27 15:44:41.022038,1709045081.0220375,-22.4609375,-28.80859375,-32.71484375,-29.296875,-1.0,1.0,-1.0,0.0,4.m4v,6.0
2024-02-27 15:44:41.025942,1709045081.0259423,-21.484375,-30.2734375,-35.15625,-37.109375,-1.0,1.0,-1.0,0.0,4.m4v,6.0
2024-02-27 15:44:41.029847,1709045081.029847,-42.96875,-32.71484375,-35.15625,-45.41015625,-1.0,1.0,-1.0,0.0,4.m4v,6.0
2024-02-27 15:44:41.033751,1709045081.0337512,-78.61328125,-33.203125,-37.59765625,-41.015625,-1.0,1.0,-1.0,0.0,4.m4v,6.0
2024-02-27 15:44:41.037656,1709045081.0376556,-77.63671875,-34.66796875,-38.0859375,-37.109375,-1.0,1.0,-1.0,0.0,4.m4v,6.0
2024-02-27 15:44:41.041560,1709045081.0415602,-23.92578125,-27.83203125,-33.203125,-30.2734375,-1.0,1.0,-1.0,0.0,4.m4v,6.0
2024-02-27 15:44:41.045465,1709045081.0454645,-15.625,-27.83203125,-35.64453125,-36.62109375,-1.0,1.0,-1.0,0.0,4.m4v,6.0
2024-02-27 15:44:41.049369,1709045081.049369,-46.875,-34.1796875,-38.57421875,-41.50390625,-1.0,1.0,-1.0,0.0,4.m4v,6.0
2024-02-27 15:44:41.053274,1709045081.0532737,-81.54296875,-28.80859375,-37.109375,-41.015625,-1.0,1.0,-1.0,0.0,4.m4v,6.0
2024-02-27 15:44:41.057178,1709045081.057178,-74.21875,-30.2734375,-35.15625,-41.9921875,-1.0,1.0,-1.0,0.0,4.m4v,6.0
2024-02-27 15:44:41.061083,1709045081.0610826,-28.80859375,-30.76171875,-29.78515625,-33.203125,-1.0,1.0,-1.0,0.0,4.m4v,6.0
2024-02-27 15:44:41.065003,1709045081.065003,-20.01953125,-27.34375,-22.94921875,-37.109375,-1.0,1.0,-1.0,0.0,4.m4v,6.0
2024-02-27 15:44:41.068907,1709045081.0689075,-43.45703125,-28.3203125,-27.83203125,-45.41015625,-1.0,1.0,-1.0,0.0,4.m4v,6.0
2024-02-27 15:44:41.072812,1709045081.0728118,-75.68359375,-28.3203125,-31.73828125,-54.6875,-1.0,1.0,-1.0,0.0,4.m4v,6.0
2024-02-27 15:44:41.076716,1709045081.0767164,-69.3359375,-28.3203125,-29.78515625,-46.38671875,-1.0,1.0,-1.0,0.0,4.m4v,6.0
2024-02-27 15:44:41.080621,1709045081.0806208,-25.87890625,-29.296875,-36.62109375,-31.73828125,-1.0,1.0,-1.0,0.0,4.m4v,6.0
2024-02-27 15:44:41.084525,1709045081.084525,0.0,-28.80859375,-35.64453125,-32.2265625,-1.0,1.0,-1.0,0.0,4.m4v,6.0
2024-02-27 15:44:41.088430,1709045081.0884297,-30.2734375,-29.296875,-34.66796875,-37.109375,-1.0,1.0,-1.0,0.0,4.m4v,6.0
2024-02-27 15:44:41.092334,1709045081.0923345,-66.89453125,-26.85546875,-35.15625,-39.0625,-1.0,1.0,-1.0,0.0,4.m4v,6.0
2024-02-27 15:44:41.096239,1709045081.0962389,-58.10546875,-25.390625,-31.73828125,-31.73828125,-1.0,1.0,-1.0,0.0,4.m4v,6.0
2024-02-27 15:44:41.100143,1709045081.1001432,-32.71484375,-29.78515625,-29.78515625,-28.80859375,-1.0,1.0,-1.0,0.0,4.m4v,6.0
2024-02-27 15:44:41.104048,1709045081.1040478,-26.85546875,-32.71484375,-26.85546875,-34.66796875,-1.0,1.0,-1.0,0.0,4.m4v,6.0
2024-02-27 15:44:41.107952,1709045081.107952,-30.2734375,-30.76171875,-27.83203125,-46.875,-1.0,1.0,-1.0,0.0,4.m4v,6.0
2024-02-27 15:44:41.111871,1709045081.111871,-43.45703125,-31.25,-29.296875,-47.8515625,-1.0,1.0,-1.0,0.0,4.m4v,6.0
2024-02-27 15:44:41.115776,1709045081.1157756,-55.17578125,-27.34375,-31.73828125,-36.1328125,-1.0,1.0,-1.0,0.0,4.m4v,6.0
2024-02-27 15:44:41.119680,1709045081.11968,-22.94921875,-20.99609375,-30.2734375,-28.3203125,-1.0,1.0,-1.0,0.0,4.m4v,6.0
2024-02-27 15:44:41.123585,1709045081.1235845,-6.8359375,-21.484375,-29.78515625,-37.109375,-1.0,1.0,-1.0,0.0,4.m4v,6.0
2024-02-27 15:44:41.127489,1709045081.1274889,-24.4140625,-25.390625,-30.76171875,-45.41015625,-1.0,1.0,-1.0,0.0,4.m4v,6.0
2024-02-27 15:44:41.131393,1709045081.1313934,-41.015625,-24.90234375,-27.34375,-42.48046875,-1.0,1.0,-1.0,0.0,4.m4v,6.0
2024-02-27 15:44:41.135298,1709045081.1352978,-55.17578125,-17.08984375,-22.4609375,-29.296875,-1.0,1.0,-1.0,0.0,4.m4v,6.0
2024-02-27 15:44:41.139202,1709045081.1392024,-49.31640625,-22.94921875,-25.390625,-26.3671875,-1.0,1.0,-1.0,0.0,4.m4v,6.0
2024-02-27 15:44:41.143107,1709045081.1431067,-35.64453125,-38.0859375,-36.62109375,-43.9453125,-1.0,1.0,-1.0,0.0,4.m4v,6.0
2024-02-27 15:44:41.147011,1709045081.1470113,-36.62109375,-35.64453125,-35.15625,-51.7578125,-1.0,1.0,-1.0,0.0,4.m4v,6.0
2024-02-27 15:44:41.150916,1709045081.150916,-65.4296875,-36.1328125,-34.66796875,-55.6640625,-1.0,1.0,-1.0,0.0,4.m4v,6.0
2024-02-27 15:44:41.154820,1709045081.1548202,-87.40234375,-42.96875,-40.0390625,-50.29296875,-1.0,1.0,-1.0,0.0,4.m4v,6.0
2024-02-27 15:44:41.158738,1709045081.1587384,-65.4296875,-36.1328125,-38.0859375,-40.0390625,-1.0,1.0,-1.0,0.0,4.m4v,6.0
2024-02-27 15:44:41.162643,1709045081.162643,-25.390625,-27.34375,-36.1328125,-41.50390625,-1.0,1.0,-1.0,0.0,4.m4v,6.0
2024-02-27 15:44:41.166547,1709045081.1665473,-15.625,-27.83203125,-35.64453125,-44.43359375,-1.0,1.0,-1.0,0.0,4.m4v,6.0
2024-02-27 15:44:41.170452,1709045081.170452,-49.8046875,-31.73828125,-38.0859375,-49.8046875,-1.0,1.0,-1.0,0.0,4.m4v,6.0
2024-02-27 15:44:41.174356,1709045081.1743562,-81.54296875,-35.15625,-43.9453125,-53.22265625,-1.0,1.0,-1.0,0.0,4.m4v,6.0
2024-02-27 15:44:41.178261,1709045081.1782608,-50.29296875,-35.64453125,-44.921875,-45.8984375,-1.0,1.0,-1.0,0.0,4.m4v,6.0
2024-02-27 15:44:41.182165,1709045081.1821651,-10.7421875,-33.203125,-40.52734375,-45.41015625,-1.0,1.0,-1.0,0.0,4.m4v,6.0
2024-02-27 15:44:41.186070,1709045081.1860695,-22.4609375,-33.203125,-41.50390625,-50.78125,-1.0,1.0,-1.0,0.0,4.m4v,6.0
2024-02-27 15:44:41.189974,1709045081.189974,-54.6875,-33.69140625,-42.96875,-52.734375,-1.0,1.0,-1.0,0.0,4.m4v,6.0
2024-02-27 15:44:41.193879,1709045081.193879,-77.1484375,-32.71484375,-41.9921875,-46.38671875,-1.0,1.0,-1.0,0.0,4.m4v,6.0
2024-02-27 15:44:41.197783,1709045081.1977832,-61.5234375,-35.15625,-37.59765625,-37.109375,-1.0,1.0,-1.0,0.0,4.m4v,6.0
2024-02-27 15:44:41.201688,1709045081.2016876,-32.71484375,-34.66796875,-39.0625,-33.203125,-1.0,1.0,-1.0,0.0,4.m4v,6.0
2024-02-27 15:44:41.205604,1709045081.2056038,-27.83203125,-33.69140625,-42.96875,-41.015625,-1.0,1.0,-1.0,0.0,4.m4v,6.0
2024-02-27 15:44:41.209508,1709045081.2095084,-48.828125,-33.203125,-39.0625,-46.875,-1.0,1.0,-1.0,0.0,4.m4v,6.0
2024-02-27 15:44:41.213413,1709045081.2134128,-72.75390625,-26.85546875,-34.1796875,-39.0625,-1.0,1.0,-1.0,0.0,4.m4v,6.0
2024-02-27 15:44:41.217317,1709045081.217317,-76.66015625,-32.71484375,-30.76171875,-29.78515625,-1.0,1.0,-1.0,0.0,4.m4v,6.0
2024-02-27 15:44:41.221222,1709045081.2212217,-36.62109375,-39.0625,-34.66796875,-27.34375,-1.0,1.0,-1.0,0.0,4.m4v,6.0
2024-02-27 15:44:41.225126,1709045081.2251265,-14.6484375,-39.0625,-41.50390625,-35.64453125,-1.0,1.0,-1.0,0.0,4.m4v,6.0
2024-02-27 15:44:41.229031,1709045081.2290306,-55.6640625,-43.45703125,-37.59765625,-43.9453125,-1.0,1.0,-1.0,0.0,4.m4v,6.0
2024-02-27 15:44:41.232935,1709045081.2329352,-85.44921875,-41.015625,-34.66796875,-41.015625,-1.0,1.0,-1.0,0.0,4.m4v,6.0
2024-02-27 15:44:41.236840,1709045081.2368395,-71.77734375,-34.66796875,-31.73828125,-35.15625,-1.0,1.0,-1.0,0.0,4.m4v,6.0
2024-02-27 15:44:41.240744,1709045081.240744,-34.1796875,-35.64453125,-31.25,-29.296875,-1.0,1.0,-1.0,0.0,4.m4v,6.0
2024-02-27 15:44:41.244649,1709045081.2446487,-11.23046875,-32.71484375,-32.2265625,-33.203125,-1.0,1.0,-1.0,0.0,4.m4v,6.0
2024-02-27 15:44:41.248553,1709045081.248553,-23.92578125,-30.76171875,-30.2734375,-42.96875,-1.0,1.0,-1.0,0.0,4.m4v,6.0
2024-02-27 15:44:41.252468,1709045081.2524676,-59.5703125,-41.50390625,-32.2265625,-43.45703125,-1.0,1.0,-1.0,0.0,4.m4v,6.0
2024-02-27 15:44:41.256372,1709045081.256372,-68.84765625,-43.9453125,-32.71484375,-40.52734375,-1.0,1.0,-1.0,0.0,4.m4v,6.0
2024-02-27 15:44:41.260277,1709045081.2602766,-40.0390625,-39.0625,-30.76171875,-37.109375,-1.0,1.0,-1.0,0.0,4.m4v,6.0
2024-02-27 15:44:41.264181,1709045081.264181,-22.4609375,-32.71484375,-30.76171875,-34.1796875,-1.0,1.0,-1.0,0.0,4.m4v,6.0
2024-02-27 15:44:41.268085,1709045081.2680857,-27.34375,-32.71484375,-34.66796875,-39.0625,-1.0,1.0,-1.0,0.0,4.m4v,6.0
2024-02-27 15:44:41.271990,1709045081.2719898,-52.24609375,-41.015625,-32.71484375,-43.45703125,-1.0,1.0,-1.0,0.0,4.m4v,6.0
2024-02-27 15:44:41.275894,1709045081.2758944,-54.19921875,-42.96875,-31.25,-33.69140625,-1.0,1.0,-1.0,0.0,4.m4v,6.0
2024-02-27 15:44:41.279799,1709045081.279799,-32.2265625,-39.55078125,-35.64453125,-25.87890625,-1.0,1.0,-1.0,0.0,4.m4v,6.0
2024-02-27 15:44:41.283703,1709045081.283703,-25.390625,-39.55078125,-34.66796875,-37.109375,-1.0,1.0,-1.0,0.0,4.m4v,6.0
2024-02-27 15:44:41.287608,1709045081.287608,-37.59765625,-36.1328125,-34.1796875,-47.8515625,-1.0,1.0,-1.0,0.0,4.m4v,6.0
2024-02-27 15:44:41.291512,1709045081.2915125,-64.453125,-35.15625,-38.57421875,-46.875,-1.0,1.0,-1.0,0.0,4.m4v,6.0
2024-02-27 15:44:41.295417,1709045081.2954168,-78.61328125,-37.59765625,-31.73828125,-40.0390625,-1.0,1.0,-1.0,0.0,4.m4v,6.0
2024-02-27 15:44:41.299342,1709045081.2993417,-44.921875,-38.57421875,-30.2734375,-27.83203125,-1.0,1.0,-1.0,0.0,4.m4v,6.0
2024-02-27 15:44:41.303246,1709045081.303246,-16.6015625,-41.50390625,-37.109375,-27.34375,-1.0,1.0,-1.0,0.0,4.m4v,6.0
2024-02-27 15:44:41.307151,1709045081.3071506,-30.76171875,-37.109375,-30.76171875,-33.203125,-1.0,1.0,-1.0,0.0,4.m4v,6.0
2024-02-27 15:44:41.311055,1709045081.311055,-61.03515625,-35.15625,-28.80859375,-39.0625,-1.0,1.0,-1.0,0.0,4.m4v,6.0
2024-02-27 15:44:41.314960,1709045081.3149595,-78.125,-38.0859375,-34.66796875,-39.0625,-1.0,1.0,-1.0,0.0,4.m4v,6.0
2024-02-27 15:44:41.318864,1709045081.318864,-41.015625,-41.9921875,-37.59765625,-35.15625,-1.0,1.0,-1.0,0.0,4.m4v,6.0
2024-02-27 15:44:41.322768,1709045081.3227684,-8.7890625,-44.43359375,-32.2265625,-37.59765625,-1.0,1.0,-1.0,0.0,4.m4v,6.0
2024-02-27 15:44:41.326673,1709045081.3266728,-28.3203125,-40.0390625,-27.83203125,-37.109375,-1.0,1.0,-1.0,0.0,4.m4v,6.0
2024-02-27 15:44:41.330577,1709045081.3305774,-61.5234375,-32.71484375,-32.71484375,-37.109375,-1.0,1.0,-1.0,0.0,4.m4v,6.0
2024-02-27 15:44:41.334482,1709045081.3344817,-77.63671875,-36.62109375,-38.0859375,-36.1328125,-1.0,1.0,-1.0,0.0,4.m4v,6.0
2024-02-27 15:44:41.338386,1709045081.3383863,-61.5234375,-41.50390625,-36.62109375,-36.62109375,-1.0,1.0,-1.0,0.0,4.m4v,6.0
2024-02-27 15:44:41.342291,1709045081.3422909,-38.0859375,-37.109375,-35.64453125,-35.64453125,-1.0,1.0,-1.0,0.0,4.m4v,6.0
2024-02-27 15:44:41.346214,1709045081.346214,-38.57421875,-33.203125,-37.59765625,-37.109375,-1.0,1.0,-1.0,0.0,4.m4v,6.0
2024-02-27 15:44:41.350119,1709045081.3501186,-49.31640625,-37.59765625,-40.0390625,-40.52734375,-1.0,1.0,-1.0,0.0,4.m4v,6.0
2024-02-27 15:44:41.354023,1709045081.354023,-68.359375,-39.0625,-31.25,-34.66796875,-1.0,1.0,-1.0,0.0,4.m4v,6.0
2024-02-27 15:44:41.357928,1709045081.3579276,-59.5703125,-34.66796875,-29.78515625,-28.3203125,-1.0,1.0,-1.0,0.0,4.m4v,6.0
2024-02-27 15:44:41.361832,1709045081.361832,-24.4140625,-30.76171875,-39.0625,-28.3203125,-1.0,1.0,-1.0,0.0,4.m4v,6.0
2024-02-27 15:44:41.365736,1709045081.3657365,-9.765625,-29.78515625,-38.0859375,-32.71484375,-1.0,1.0,-1.0,0.0,4.m4v,6.0
2024-02-27 15:44:41.369641,1709045081.3696408,-34.66796875,-30.76171875,-35.15625,-38.57421875,-1.0,1.0,-1.0,0.0,4.m4v,6.0
2024-02-27 15:44:41.373545,1709045081.3735454,-75.68359375,-25.87890625,-37.59765625,-39.55078125,-1.0,1.0,-1.0,0.0,4.m4v,6.0
2024-02-27 15:44:41.377450,1709045081.37745,-69.82421875,-26.3671875,-37.59765625,-37.109375,-1.0,1.0,-1.0,0.0,4.m4v,6.0
2024-02-27 15:44:41.381354,1709045081.3813543,-36.62109375,-33.203125,-41.015625,-31.73828125,-1.0,1.0,-1.0,0.0,4.m4v,6.0
2024-02-27 15:44:41.385259,1709045081.385259,-24.90234375,-36.1328125,-41.9921875,-34.66796875,-1.0,1.0,-1.0,0.0,4.m4v,6.0
2024-02-27 15:44:41.389163,1709045081.3891633,-53.22265625,-34.1796875,-36.62109375,-46.38671875,-1.0,1.0,-1.0,0.0,4.m4v,6.0
2024-02-27 15:44:41.393087,1709045081.393087,-76.171875,-34.1796875,-35.15625,-46.38671875,-1.0,1.0,-1.0,0.0,4.m4v,6.0
2024-02-27 15:44:41.396991,1709045081.396991,-62.5,-34.1796875,-37.109375,-34.1796875,-1.0,1.0,-1.0,0.0,4.m4v,6.0
2024-02-27 15:44:41.400896,1709045081.4008956,-37.59765625,-32.2265625,-39.0625,-32.2265625,-1.0,1.0,-1.0,0.0,4.m4v,6.0
2024-02-27 15:44:41.404800,1709045081.4048,-4.8828125,-34.1796875,-37.59765625,-37.59765625,-1.0,1.0,-1.0,0.0,4.m4v,6.0
2024-02-27 15:44:41.408705,1709045081.4087043,-14.16015625,-29.78515625,-36.1328125,-41.9921875,-1.0,1.0,-1.0,0.0,4.m4v,6.0
2024-02-27 15:44:41.412609,1709045081.4126089,-50.29296875,-27.34375,-31.73828125,-44.43359375,-1.0,1.0,-1.0,0.0,4.m4v,6.0
2024-02-27 15:44:41.416513,1709045081.4165134,-61.03515625,-32.71484375,-28.3203125,-43.9453125,-1.0,1.0,-1.0,0.0,4.m4v,6.0
2024-02-27 15:44:41.420418,1709045081.4204178,-37.59765625,-35.64453125,-32.2265625,-41.9921875,-1.0,1.0,-1.0,0.0,4.m4v,6.0
2024-02-27 15:44:41.424322,1709045081.4243224,-21.97265625,-36.62109375,-38.57421875,-44.43359375,-1.0,1.0,-1.0,0.0,4.m4v,6.0
2024-02-27 15:44:41.428227,1709045081.428227,-34.66796875,-36.1328125,-37.109375,-49.31640625,-1.0,1.0,-1.0,0.0,4.m4v,6.0
2024-02-27 15:44:41.432131,1709045081.4321313,-62.01171875,-33.203125,-32.71484375,-45.8984375,-1.0,1.0,-1.0,0.0,4.m4v,6.0
2024-02-27 15:44:41.436036,1709045081.436036,-77.1484375,-30.2734375,-29.296875,-37.109375,-1.0,1.0,-1.0,0.0,4.m4v,6.0
2024-02-27 15:44:41.439957,1709045081.439957,-45.41015625,-31.73828125,-33.69140625,-29.296875,-1.0,1.0,-1.0,0.0,4.m4v,6.0
2024-02-27 15:44:41.443861,1709045081.4438612,-13.671875,-34.1796875,-41.015625,-33.203125,-1.0,1.0,-1.0,0.0,4.m4v,6.0
2024-02-27 15:44:41.447766,1709045081.4477658,-36.62109375,-32.2265625,-34.66796875,-48.828125,-1.0,1.0,-1.0,0.0,4.m4v,6.0
2024-02-27 15:44:41.451670,1709045081.4516702,-64.453125,-33.69140625,-31.25,-41.9921875,-1.0,1.0,-1.0,0.0,4.m4v,6.0
2024-02-27 15:44:41.455575,1709045081.4555748,-65.91796875,-33.69140625,-31.73828125,-25.87890625,-1.0,1.0,-1.0,0.0,4.m4v,6.0
2024-02-27 15:44:41.459479,1709045081.459479,-41.9921875,-33.69140625,-32.71484375,-17.08984375,-1.0,1.0,-1.0,0.0,4.m4v,6.0
2024-02-27 15:44:41.463384,1709045081.4633837,-23.4375,-34.1796875,-39.55078125,-23.92578125,-1.0,1.0,-1.0,0.0,4.m4v,6.0
2024-02-27 15:44:41.467288,1709045081.467288,-25.87890625,-35.15625,-38.0859375,-37.59765625,-1.0,1.0,-1.0,0.0,4.m4v,6.0
2024-02-27 15:44:41.471193,1709045081.4711926,-51.26953125,-41.9921875,-40.52734375,-41.015625,-1.0,1.0,-1.0,0.0,4.m4v,6.0
2024-02-27 15:44:41.475097,1709045081.475097,-83.0078125,-40.52734375,-47.36328125,-47.8515625,-1.0,1.0,-1.0,0.0,4.m4v,6.0
2024-02-27 15:44:41.479002,1709045081.4790015,-58.10546875,-31.73828125,-41.50390625,-41.50390625,-1.0,1.0,-1.0,0.0,4.m4v,6.0
2024-02-27 15:44:41.482906,1709045081.482906,-16.6015625,-28.80859375,-40.0390625,-38.0859375,-1.0,1.0,-1.0,0.0,4.m4v,6.0
2024-02-27 15:44:41.486825,1709045081.4868252,-16.6015625,-27.83203125,-35.64453125,-42.96875,-1.0,1.0,-1.0,0.0,4.m4v,6.0
2024-02-27 15:44:41.490730,1709045081.4907298,-43.45703125,-27.34375,-35.64453125,-42.96875,-1.0,1.0,-1.0,0.0,4.m4v,6.0
2024-02-27 15:44:41.494634,1709045081.4946344,-62.5,-28.80859375,-34.1796875,-36.62109375,-1.0,1.0,-1.0,0.0,4.m4v,6.0
2024-02-27 15:44:41.498539,1709045081.4985387,-41.015625,-34.66796875,-29.78515625,-28.80859375,-1.0,1.0,-1.0,0.0,4.m4v,6.0
2024-02-27 15:44:41.502443,1709045081.5024433,-15.13671875,-31.73828125,-33.69140625,-26.3671875,-1.0,1.0,-1.0,0.0,4.m4v,6.0
2024-02-27 15:44:41.506348,1709045081.5063477,-22.4609375,-23.4375,-28.3203125,-26.3671875,-1.0,1.0,-1.0,0.0,4.m4v,6.0
2024-02-27 15:44:41.510252,1709045081.5102522,-44.43359375,-29.78515625,-28.3203125,-28.80859375,-1.0,1.0,-1.0,0.0,4.m4v,6.0
2024-02-27 15:44:41.514157,1709045081.5141566,-69.82421875,-39.55078125,-38.0859375,-32.71484375,-1.0,1.0,-1.0,0.0,4.m4v,6.0
2024-02-27 15:44:41.518061,1709045081.5180612,-53.7109375,-40.52734375,-39.0625,-21.97265625,-1.0,1.0,-1.0,0.0,4.m4v,6.0
2024-02-27 15:44:41.521966,1709045081.5219655,-17.578125,-34.66796875,-35.15625,-20.01953125,-1.0,1.0,-1.0,0.0,4.m4v,6.0
2024-02-27 15:44:41.525870,1709045081.52587,-10.7421875,-35.15625,-33.69140625,-28.80859375,-1.0,1.0,-1.0,0.0,4.m4v,6.0
2024-02-27 15:44:41.529775,1709045081.529775,-37.109375,-40.0390625,-37.109375,-34.1796875,-1.0,1.0,-1.0,0.0,4.m4v,6.0
2024-02-27 15:44:41.533692,1709045081.533692,-83.49609375,-41.9921875,-40.52734375,-42.48046875,-1.0,1.0,-1.0,0.0,4.m4v,6.0
2024-02-27 15:44:41.537596,1709045081.5375965,-75.1953125,-38.0859375,-40.0390625,-32.2265625,-1.0,1.0,-1.0,0.0,4.m4v,6.0
2024-02-27 15:44:41.541501,1709045081.541501,-31.73828125,-36.1328125,-40.52734375,-27.34375,-1.0,1.0,-1.0,0.0,4.m4v,6.0
2024-02-27 15:44:41.545405,1709045081.5454054,-21.484375,-41.015625,-37.59765625,-39.0625,-1.0,1.0,-1.0,0.0,4.m4v,6.0
2024-02-27 15:44:41.549310,1709045081.54931,-30.76171875,-35.15625,-35.15625,-40.0390625,-1.0,1.0,-1.0,0.0,4.m4v,6.0
2024-02-27 15:44:41.553214,1709045081.5532143,-54.6875,-33.203125,-33.69140625,-36.62109375,-1.0,1.0,-1.0,0.0,4.m4v,6.0
2024-02-27 15:44:41.557119,1709045081.557119,-62.5,-36.62109375,-32.2265625,-30.76171875,-1.0,1.0,-1.0,0.0,4.m4v,6.0
2024-02-27 15:44:41.561023,1709045081.5610232,-46.875,-36.62109375,-37.109375,-23.4375,-1.0,1.0,-1.0,0.0,4.m4v,6.0
2024-02-27 15:44:41.564928,1709045081.5649278,-25.390625,-35.64453125,-43.45703125,-31.25,-1.0,1.0,-1.0,0.0,4.m4v,6.0
2024-02-27 15:44:41.568832,1709045081.5688322,-24.90234375,-34.66796875,-40.0390625,-43.45703125,-1.0,1.0,-1.0,0.0,4.m4v,6.0
2024-02-27 15:44:41.572737,1709045081.5727367,-52.24609375,-33.69140625,-40.52734375,-44.921875,-1.0,1.0,-1.0,0.0,4.m4v,6.0
2024-02-27 15:44:41.576641,1709045081.576641,-66.89453125,-37.109375,-44.921875,-41.015625,-1.0,1.0,-1.0,0.0,4.m4v,6.0
2024-02-27 15:44:41.580558,1709045081.5805578,-38.0859375,-40.0390625,-37.109375,-33.69140625,-1.0,1.0,-1.0,0.0,4.m4v,6.0
2024-02-27 15:44:41.584462,1709045081.5844622,-7.32421875,-31.73828125,-27.83203125,-35.64453125,-1.0,1.0,-1.0,0.0,4.m4v,6.0
2024-02-27 15:44:41.588367,1709045081.5883667,-16.11328125,-29.296875,-31.25,-37.59765625,-1.0,1.0,-1.0,0.0,4.m4v,6.0
2024-02-27 15:44:41.592271,1709045081.592271,-53.7109375,-33.69140625,-40.0390625,-37.109375,-1.0,1.0,-1.0,0.0,4.m4v,6.0
2024-02-27 15:44:41.596176,1709045081.5961757,-78.61328125,-38.0859375,-43.45703125,-38.57421875,-1.0,1.0,-1.0,0.0,4.m4v,6.0
2024-02-27 15:44:41.600080,1709045081.60008,-29.296875,-33.69140625,-39.0625,-24.4140625,-1.0,1.0,-1.0,0.0,4.m4v,6.0
2024-02-27 15:44:41.603985,1709045081.6039846,7.8125,-29.78515625,-34.1796875,-23.4375,-1.0,1.0,-1.0,0.0,4.m4v,6.0
2024-02-27 15:44:41.607889,1709045081.607889,-10.25390625,-35.15625,-32.71484375,-34.1796875,-1.0,1.0,-1.0,0.0,4.m4v,6.0
2024-02-27 15:44:41.611794,1709045081.6117935,-48.33984375,-31.25,-31.73828125,-33.69140625,-1.0,1.0,-1.0,0.0,4.m4v,6.0
2024-02-27 15:44:41.615698,1709045081.615698,-63.4765625,-33.203125,-29.296875,-34.1796875,-1.0,1.0,-1.0,0.0,4.m4v,6.0
2024-02-27 15:44:41.619602,1709045081.6196024,-23.4375,-41.015625,-35.15625,-30.2734375,-1.0,1.0,-1.0,0.0,4.m4v,6.0
2024-02-27 15:44:41.623507,1709045081.623507,-17.578125,-37.59765625,-41.9921875,-30.76171875,-1.0,1.0,-1.0,0.0,4.m4v,6.0
2024-02-27 15:44:41.627422,1709045081.6274216,-28.80859375,-30.2734375,-36.1328125,-35.64453125,-1.0,1.0,-1.0,0.0,4.m4v,6.0
2024-02-27 15:44:41.631326,1709045081.631326,-29.296875,-28.80859375,-26.85546875,-30.76171875,-1.0,1.0,-1.0,0.0,4.m4v,6.0
2024-02-27 15:44:41.635231,1709045081.6352303,-58.59375,-33.203125,-34.66796875,-27.83203125,-1.0,1.0,-1.0,0.0,4.m4v,6.0
2024-02-27 15:44:41.639135,1709045081.639135,-48.828125,-32.71484375,-41.015625,-22.94921875,-1.0,1.0,-1.0,0.0,4.m4v,6.0
2024-02-27 15:44:41.643039,1709045081.6430397,-10.25390625,-30.76171875,-35.15625,-23.4375,-1.0,1.0,-1.0,0.0,4.m4v,6.0
2024-02-27 15:44:41.646944,1709045081.646944,0.0,-25.390625,-35.64453125,-33.203125,-1.0,1.0,-1.0,0.0,4.m4v,6.0
2024-02-27 15:44:41.650848,1709045081.6508484,-28.3203125,-29.78515625,-40.0390625,-32.2265625,-1.0,1.0,-1.0,0.0,4.m4v,6.0
2024-02-27 15:44:41.654753,1709045081.654753,-65.91796875,-35.64453125,-39.0625,-31.73828125,-1.0,1.0,-1.0,0.0,4.m4v,6.0
2024-02-27 15:44:41.658657,1709045081.6586573,-47.8515625,-27.34375,-36.62109375,-23.92578125,-1.0,1.0,-1.0,0.0,4.m4v,6.0
2024-02-27 15:44:41.662562,1709045081.662562,-8.7890625,-32.2265625,-40.0390625,-19.53125,-1.0,1.0,-1.0,0.0,4.m4v,6.0
2024-02-27 15:44:41.666466,1709045081.6664662,-3.41796875,-37.109375,-37.109375,-20.5078125,-1.0,1.0,-1.0,0.0,4.m4v,6.0
2024-02-27 15:44:41.670371,1709045081.6703708,-38.0859375,-28.3203125,-32.2265625,-28.80859375,-1.0,1.0,-1.0,0.0,4.m4v,6.0
2024-02-27 15:44:41.674283,1709045081.6742828,-61.03515625,-24.4140625,-32.71484375,-26.85546875,-1.0,1.0,-1.0,0.0,4.m4v,6.0
2024-02-27 15:44:41.678187,1709045081.6781874,-42.48046875,-25.390625,-32.2265625,-15.13671875,-1.0,1.0,-1.0,0.0,4.m4v,6.0
2024-02-27 15:44:41.682092,1709045081.6820917,-22.94921875,-30.76171875,-36.62109375,-20.01953125,-1.0,1.0,-1.0,0.0,4.m4v,6.0
2024-02-27 15:44:41.685996,1709045081.6859963,-19.53125,-32.71484375,-41.9921875,-28.3203125,-1.0,1.0,-1.0,0.0,4.m4v,6.0
2024-02-27 15:44:41.689901,1709045081.6899006,-35.64453125,-30.2734375,-42.96875,-33.203125,-1.0,1.0,-1.0,0.0,4.m4v,6.0
2024-02-27 15:44:41.693805,1709045081.6938052,-55.6640625,-30.2734375,-39.55078125,-34.66796875,-1.0,1.0,-1.0,0.0,4.m4v,6.0
2024-02-27 15:44:41.697710,1709045081.6977098,-29.78515625,-30.76171875,-35.15625,-24.4140625,-1.0,1.0,-1.0,0.0,4.m4v,6.0
2024-02-27 15:44:41.701614,1709045081.701614,-0.48828125,-29.78515625,-35.15625,-23.92578125,-1.0,1.0,-1.0,0.0,4.m4v,6.0
2024-02-27 15:44:41.705519,1709045081.7055187,-12.6953125,-30.2734375,-29.296875,-36.1328125,-1.0,1.0,-1.0,0.0,4.m4v,6.0
2024-02-27 15:44:41.709423,1709045081.709423,-29.78515625,-35.64453125,-31.25,-37.109375,-1.0,1.0,-1.0,0.0,4.m4v,6.0
2024-02-27 15:44:41.713328,1709045081.7133276,-67.87109375,-43.9453125,-40.0390625,-37.59765625,-1.0,1.0,-1.0,0.0,4.m4v,6.0
2024-02-27 15:44:41.717232,1709045081.717232,-71.2890625,-39.55078125,-37.109375,-34.66796875,-1.0,1.0,-1.0,0.0,4.m4v,6.0
2024-02-27 15:44:41.721164,1709045081.7211642,-22.94921875,-30.76171875,-32.71484375,-23.4375,-1.0,1.0,-1.0,0.0,4.m4v,6.0
2024-02-27 15:44:41.725069,1709045081.7250686,-8.7890625,-29.296875,-35.64453125,-26.3671875,-1.0,1.0,-1.0,0.0,4.m4v,6.0
2024-02-27 15:44:41.728973,1709045081.7289732,-27.34375,-29.296875,-36.62109375,-39.55078125,-1.0,1.0,-1.0,0.0,4.m4v,6.0
2024-02-27 15:44:41.732877,1709045081.7328775,-49.31640625,-28.3203125,-32.2265625,-40.0390625,-1.0,1.0,-1.0,0.0,4.m4v,6.0
2024-02-27 15:44:41.736782,1709045081.736782,-54.6875,-28.80859375,-34.66796875,-29.296875,-1.0,1.0,-1.0,0.0,4.m4v,6.0
2024-02-27 15:44:41.740687,1709045081.740687,-21.484375,-22.4609375,-33.203125,-20.01953125,-1.0,1.0,-1.0,0.0,4.m4v,6.0
2024-02-27 15:44:41.744591,1709045081.744591,-3.90625,-27.83203125,-32.2265625,-25.87890625,-1.0,1.0,-1.0,0.0,4.m4v,6.0
2024-02-27 15:44:41.748496,1709045081.7484956,-30.2734375,-38.0859375,-37.59765625,-41.015625,-1.0,1.0,-1.0,0.0,4.m4v,6.0
2024-02-27 15:44:41.752400,1709045081.7524,-67.87109375,-36.62109375,-40.52734375,-44.43359375,-1.0,1.0,-1.0,0.0,4.m4v,6.0
2024-02-27 15:44:41.756305,1709045081.7563045,-74.70703125,-28.80859375,-38.0859375,-33.203125,-1.0,1.0,-1.0,0.0,4.m4v,6.0
2024-02-27 15:44:41.760209,1709045081.7602088,-44.43359375,-33.203125,-33.203125,-27.34375,-1.0,1.0,-1.0,0.0,4.m4v,6.0
2024-02-27 15:44:41.764113,1709045081.7641134,-21.97265625,-40.52734375,-37.59765625,-36.62109375,-1.0,1.0,-1.0,0.0,4.m4v,6.0
2024-02-27 15:44:41.768034,1709045081.7680342,-18.06640625,-36.1328125,-36.1328125,-40.0390625,-1.0,1.0,-1.0,0.0,4.m4v,6.0
2024-02-27 15:44:41.771939,1709045081.7719386,-43.9453125,-38.57421875,-33.203125,-39.55078125,-1.0,1.0,-1.0,0.0,4.m4v,6.0
2024-02-27 15:44:41.775843,1709045081.7758431,-67.87109375,-36.62109375,-38.0859375,-36.62109375,-1.0,1.0,-1.0,0.0,4.m4v,6.0
2024-02-27 15:44:41.779747,1709045081.7797475,-39.55078125,-35.15625,-35.64453125,-25.390625,-1.0,1.0,-1.0,0.0,4.m4v,6.0
2024-02-27 15:44:41.783652,1709045081.783652,-14.16015625,-35.64453125,-31.25,-33.203125,-1.0,1.0,-1.0,0.0,4.m4v,6.0
2024-02-27 15:44:41.787556,1709045081.7875564,-14.6484375,-27.34375,-33.203125,-45.41015625,-1.0,1.0,-1.0,0.0,4.m4v,6.0
2024-02-27 15:44:41.791461,1709045081.791461,-44.43359375,-29.78515625,-38.57421875,-38.0859375,-1.0,1.0,-1.0,0.0,4.m4v,6.0
2024-02-27 15:44:41.795365,1709045081.795365,-77.1484375,-33.69140625,-33.203125,-26.3671875,-1.0,1.0,-1.0,0.0,4.m4v,6.0
2024-02-27 15:44:41.799270,1709045081.79927,-56.15234375,-38.0859375,-35.15625,-21.484375,-1.0,1.0,-1.0,0.0,4.m4v,6.0
2024-02-27 15:44:41.803174,1709045081.8031745,-31.73828125,-40.0390625,-41.015625,-23.4375,-1.0,1.0,-1.0,0.0,4.m4v,6.0
2024-02-27 15:44:41.807079,1709045081.8070788,-35.15625,-34.1796875,-34.1796875,-31.73828125,-1.0,1.0,-1.0,0.0,4.m4v,6.0
2024-02-27 15:44:41.810983,1709045081.8109834,-52.734375,-31.73828125,-31.73828125,-36.1328125,-1.0,1.0,-1.0,0.0,4.m4v,6.0
2024-02-27 15:44:41.814904,1709045081.8149045,-71.77734375,-34.1796875,-30.2734375,-34.66796875,-1.0,1.0,-1.0,0.0,4.m4v,6.0
2024-02-27 15:44:41.818809,1709045081.8188088,-55.6640625,-33.69140625,-32.2265625,-24.4140625,-1.0,1.0,-1.0,0.0,4.m4v,6.0
2024-02-27 15:44:41.822713,1709045081.8227134,-19.53125,-27.34375,-33.203125,-14.16015625,-1.0,1.0,-1.0,0.0,4.m4v,6.0
2024-02-27 15:44:41.826618,1709045081.8266177,-23.4375,-34.66796875,-33.69140625,-26.3671875,-1.0,1.0,-1.0,0.0,4.m4v,6.0
2024-02-27 15:44:41.830522,1709045081.8305223,-59.5703125,-41.50390625,-37.59765625,-34.1796875,-1.0,1.0,-1.0,0.0,4.m4v,6.0
2024-02-27 15:44:41.834427,1709045081.8344266,-82.51953125,-38.0859375,-36.62109375,-35.15625,-1.0,1.0,-1.0,0.0,4.m4v,6.0
2024-02-27 15:44:41.838331,1709045081.8383312,-53.7109375,-33.69140625,-37.59765625,-30.76171875,-1.0,1.0,-1.0,0.0,4.m4v,6.0
2024-02-27 15:44:41.842236,1709045081.8422358,-25.390625,-31.73828125,-36.1328125,-30.2734375,-1.0,1.0,-1.0,0.0,4.m4v,6.0
2024-02-27 15:44:41.846140,1709045081.84614,-27.34375,-33.69140625,-30.76171875,-34.66796875,-1.0,1.0,-1.0,0.0,4.m4v,6.0
2024-02-27 15:44:41.850045,1709045081.8500447,-45.8984375,-30.2734375,-29.78515625,-41.015625,-1.0,1.0,-1.0,0.0,4.m4v,6.0
2024-02-27 15:44:41.853949,1709045081.853949,-79.58984375,-31.25,-35.64453125,-45.41015625,-1.0,1.0,-1.0,0.0,4.m4v,6.0
2024-02-27 15:44:41.857854,1709045081.8578537,-67.3828125,-36.62109375,-39.0625,-36.62109375,-1.0,1.0,-1.0,0.0,4.m4v,6.0
2024-02-27 15:44:41.861773,1709045081.8617723,-31.73828125,-34.1796875,-35.64453125,-25.87890625,-1.0,1.0,-1.0,0.0,4.m4v,6.0
2024-02-27 15:44:41.865677,1709045081.865677,-23.92578125,-34.1796875,-37.59765625,-28.80859375,-1.0,1.0,-1.0,0.0,4.m4v,6.0
2024-02-27 15:44:41.869581,1709045081.8695817,-40.52734375,-31.73828125,-36.62109375,-35.15625,-1.0,1.0,-1.0,0.0,4.m4v,6.0
2024-02-27 15:44:41.873486,1709045081.873486,-55.17578125,-25.390625,-33.69140625,-36.1328125,-1.0,1.0,-1.0,0.0,4.m4v,6.0
2024-02-27 15:44:41.877390,1709045081.8773904,-42.96875,-24.4140625,-31.73828125,-31.73828125,-1.0,1.0,-1.0,0.0,4.m4v,6.0
2024-02-27 15:44:41.881295,1709045081.881295,-4.39453125,-24.4140625,-28.3203125,-25.87890625,-1.0,1.0,-1.0,0.0,4.m4v,6.0
2024-02-27 15:44:41.885200,1709045081.8851995,-1.46484375,-29.78515625,-32.71484375,-38.57421875,-1.0,1.0,-1.0,0.0,4.m4v,6.0
2024-02-27 15:44:41.889104,1709045081.889104,-42.96875,-36.1328125,-38.57421875,-46.38671875,-1.0,1.0,-1.0,0.0,4.m4v,6.0
2024-02-27 15:44:41.893008,1709045081.8930085,-77.1484375,-34.1796875,-35.15625,-41.9921875,-1.0,1.0,-1.0,0.0,4.m4v,6.0
2024-02-27 15:44:41.896913,1709045081.8969128,-81.0546875,-35.64453125,-31.73828125,-39.55078125,-1.0,1.0,-1.0,0.0,4.m4v,6.0
2024-02-27 15:44:41.900817,1709045081.9008174,-40.0390625,-39.55078125,-37.59765625,-28.3203125,-1.0,1.0,-1.0,0.0,4.m4v,6.0
2024-02-27 15:44:41.904722,1709045081.9047215,-16.11328125,-35.15625,-37.59765625,-23.92578125,-1.0,1.0,-1.0,0.0,4.m4v,6.0
2024-02-27 15:44:41.908640,1709045081.90864,-34.66796875,-33.203125,-37.59765625,-33.203125,-1.0,1.0,-1.0,0.0,4.m4v,6.0
2024-02-27 15:44:41.912544,1709045081.9125445,-63.4765625,-32.2265625,-38.0859375,-35.15625,-1.0,1.0,-1.0,0.0,4.m4v,6.0
2024-02-27 15:44:41.916449,1709045081.916449,-72.265625,-33.69140625,-35.15625,-26.3671875,-1.0,1.0,-1.0,0.0,4.m4v,6.0
2024-02-27 15:44:41.920353,1709045081.9203534,-33.69140625,-36.1328125,-35.15625,-23.4375,-1.0,1.0,-1.0,0.0,4.m4v,6.0
2024-02-27 15:44:41.924258,1709045081.924258,-7.8125,-38.0859375,-34.1796875,-26.3671875,-1.0,1.0,-1.0,0.0,4.m4v,6.0
2024-02-27 15:44:41.928163,1709045081.9281626,-10.25390625,-37.109375,-32.71484375,-30.2734375,-1.0,1.0,-1.0,0.0,4.m4v,6.0
2024-02-27 15:44:41.932067,1709045081.932067,-46.38671875,-34.66796875,-34.1796875,-39.55078125,-1.0,1.0,-1.0,0.0,4.m4v,6.0
2024-02-27 15:44:41.935971,1709045081.9359715,-74.21875,-27.83203125,-36.62109375,-41.9921875,-1.0,1.0,-1.0,0.0,4.m4v,6.0
2024-02-27 15:44:41.939876,1709045081.9398758,-37.59765625,-25.390625,-32.2265625,-33.69140625,-1.0,1.0,-1.0,0.0,4.m4v,6.0
2024-02-27 15:44:41.943780,1709045081.9437804,-8.30078125,-33.69140625,-32.71484375,-32.71484375,-1.0,1.0,-1.0,0.0,4.m4v,6.0
2024-02-27 15:44:41.947685,1709045081.9476848,-17.578125,-32.71484375,-40.0390625,-39.0625,-1.0,1.0,-1.0,0.0,4.m4v,6.0
2024-02-27 15:44:41.951589,1709045081.951589,-56.15234375,-32.71484375,-39.0625,-39.0625,-1.0,1.0,-1.0,0.0,4.m4v,6.0
2024-02-27 15:44:41.955505,1709045081.9555054,-74.70703125,-36.1328125,-31.73828125,-34.66796875,-1.0,1.0,-1.0,0.0,4.m4v,6.0
2024-02-27 15:44:41.959410,1709045081.95941,-37.59765625,-35.15625,-32.71484375,-31.25,-1.0,1.0,-1.0,0.0,4.m4v,6.0
2024-02-27 15:44:41.963314,1709045081.9633143,-5.37109375,-33.203125,-33.203125,-31.73828125,-1.0,1.0,-1.0,0.0,4.m4v,6.0
2024-02-27 15:44:41.967219,1709045081.9672189,-11.71875,-29.78515625,-33.203125,-34.66796875,-1.0,1.0,-1.0,0.0,4.m4v,6.0
2024-02-27 15:44:41.971123,1709045081.9711232,-52.734375,-34.1796875,-36.1328125,-41.015625,-1.0,1.0,-1.0,0.0,4.m4v,6.0
2024-02-27 15:44:41.975028,1709045081.9750278,-65.91796875,-35.64453125,-33.69140625,-38.0859375,-1.0,1.0,-1.0,0.0,4.m4v,6.0
2024-02-27 15:44:41.978932,1709045081.978932,-37.59765625,-28.80859375,-33.203125,-28.3203125,-1.0,1.0,-1.0,0.0,4.m4v,6.0
2024-02-27 15:44:41.982837,1709045081.9828367,-29.78515625,-29.296875,-33.69140625,-37.59765625,-1.0,1.0,-1.0,0.0,4.m4v,6.0
2024-02-27 15:44:41.986741,1709045081.9867413,-28.3203125,-35.15625,-40.0390625,-46.875,-1.0,1.0,-1.0,0.0,4.m4v,6.0
2024-02-27 15:44:41.990646,1709045081.9906456,-40.52734375,-32.71484375,-48.828125,-44.921875,-1.0,1.0,-1.0,0.0,4.m4v,6.0
2024-02-27 15:44:41.994550,1709045081.9945502,-79.58984375,-29.296875,-41.015625,-39.55078125,-1.0,1.0,-1.0,0.0,4.m4v,6.0
2024-02-27 15:44:41.998455,1709045081.9984546,-63.4765625,-30.2734375,-37.59765625,-39.0625,-1.0,1.0,-1.0,0.0,4.m4v,6.0
2024-02-27 15:44:42.002370,1709045082.00237,-13.671875,-30.76171875,-40.52734375,-41.015625,-1.0,1.0,-1.0,0.0,4.m4v,6.0
2024-02-27 15:44:42.006274,1709045082.0062742,-20.01953125,-30.76171875,-36.1328125,-40.52734375,-1.0,1.0,-1.0,0.0,4.m4v,6.0
2024-02-27 15:44:42.010179,1709045082.0101788,-59.5703125,-33.203125,-37.59765625,-48.33984375,-1.0,1.0,-1.0,0.0,4.m4v,6.0
2024-02-27 15:44:42.014083,1709045082.0140834,-81.54296875,-36.1328125,-40.52734375,-45.8984375,-1.0,1.0,-1.0,0.0,4.m4v,6.0
2024-02-27 15:44:42.017988,1709045082.0179875,-57.12890625,-32.71484375,-37.59765625,-36.1328125,-1.0,1.0,-1.0,0.0,4.m4v,6.0
2024-02-27 15:44:42.021892,1709045082.0218923,-3.90625,-22.4609375,-35.64453125,-28.3203125,-1.0,1.0,-1.0,0.0,4.m4v,6.0
2024-02-27 15:44:42.025797,1709045082.025797,-9.765625,-25.87890625,-38.57421875,-35.15625,-1.0,1.0,-1.0,0.0,4.m4v,6.0
2024-02-27 15:44:42.029701,1709045082.0297012,-61.03515625,-36.1328125,-35.15625,-46.875,-1.0,1.0,-1.0,0.0,4.m4v,6.0
2024-02-27 15:44:42.033606,1709045082.0336056,-81.54296875,-41.50390625,-33.203125,-41.9921875,-1.0,1.0,-1.0,0.0,4.m4v,6.0
2024-02-27 15:44:42.037510,1709045082.0375102,-62.01171875,-37.109375,-33.203125,-31.73828125,-1.0,1.0,-1.0,0.0,4.m4v,6.0
2024-02-27 15:44:42.041415,1709045082.0414147,-32.71484375,-35.15625,-31.25,-29.296875,-1.0,1.0,-1.0,0.0,4.m4v,6.0
2024-02-27 15:44:42.045319,1709045082.045319,-19.04296875,-36.62109375,-30.76171875,-34.66796875,-1.0,1.0,-1.0,0.0,4.m4v,6.0
2024-02-27 15:44:42.049244,1709045082.049244,-33.69140625,-36.62109375,-29.78515625,-38.0859375,-1.0,1.0,-1.0,0.0,4.m4v,6.0
2024-02-27 15:44:42.053149,1709045082.0531485,-72.265625,-41.015625,-33.203125,-46.38671875,-1.0,1.0,-1.0,0.0,4.m4v,6.0
2024-02-27 15:44:42.057053,1709045082.0570529,-74.21875,-36.1328125,-36.62109375,-39.55078125,-1.0,1.0,-1.0,0.0,4.m4v,6.0
2024-02-27 15:44:42.060957,1709045082.0609574,-42.48046875,-33.203125,-37.59765625,-22.4609375,-1.0,1.0,-1.0,0.0,4.m4v,6.0
2024-02-27 15:44:42.064862,1709045082.0648618,-11.23046875,-31.25,-35.15625,-23.4375,-1.0,1.0,-1.0,0.0,4.m4v,6.0
2024-02-27 15:44:42.068766,1709045082.0687664,-9.765625,-31.25,-32.71484375,-29.296875,-1.0,1.0,-1.0,0.0,4.m4v,6.0
2024-02-27 15:44:42.072671,1709045082.072671,-50.29296875,-36.62109375,-33.69140625,-33.203125,-1.0,1.0,-1.0,0.0,4.m4v,6.0
2024-02-27 15:44:42.076575,1709045082.0765753,-66.89453125,-33.69140625,-34.66796875,-33.203125,-1.0,1.0,-1.0,0.0,4.m4v,6.0
2024-02-27 15:44:42.080480,1709045082.08048,-28.80859375,-32.71484375,-40.52734375,-25.87890625,-1.0,1.0,-1.0,0.0,4.m4v,6.0
2024-02-27 15:44:42.084384,1709045082.0843842,-17.578125,-37.109375,-41.50390625,-34.66796875,-1.0,1.0,-1.0,0.0,4.m4v,6.0
2024-02-27 15:44:42.088289,1709045082.0882888,-27.83203125,-31.25,-38.0859375,-42.48046875,-1.0,1.0,-1.0,0.0,4.m4v,6.0
2024-02-27 15:44:42.092193,1709045082.0921931,-37.59765625,-29.78515625,-31.25,-34.1796875,-1.0,1.0,-1.0,0.0,4.m4v,6.0
2024-02-27 15:44:42.096117,1709045082.0961163,-55.6640625,-32.71484375,-31.25,-30.2734375,-1.0,1.0,-1.0,0.0,4.m4v,6.0
2024-02-27 15:44:42.100021,1709045082.1000211,-32.71484375,-22.4609375,-33.203125,-23.92578125,-1.0,1.0,-1.0,0.0,4.m4v,6.0
2024-02-27 15:44:42.103925,1709045082.1039257,0.48828125,-17.578125,-31.25,-25.87890625,-1.0,1.0,-1.0,0.0,4.m4v,6.0
2024-02-27 15:44:42.107830,1709045082.10783,-13.671875,-24.90234375,-31.73828125,-34.66796875,-1.0,1.0,-1.0,0.0,4.m4v,6.0
2024-02-27 15:44:42.111734,1709045082.1117344,-50.78125,-27.34375,-33.203125,-38.57421875,-1.0,1.0,-1.0,0.0,4.m4v,6.0
2024-02-27 15:44:42.115639,1709045082.115639,-59.08203125,-28.3203125,-40.52734375,-41.50390625,-1.0,1.0,-1.0,0.0,4.m4v,6.0
2024-02-27 15:44:42.119544,1709045082.1195436,-26.3671875,-27.83203125,-40.0390625,-36.1328125,-1.0,1.0,-1.0,0.0,4.m4v,6.0
2024-02-27 15:44:42.123448,1709045082.123448,-3.41796875,-23.92578125,-35.15625,-26.3671875,-1.0,1.0,-1.0,0.0,4.m4v,6.0
2024-02-27 15:44:42.127352,1709045082.1273525,-15.625,-26.85546875,-36.62109375,-30.2734375,-1.0,1.0,-1.0,0.0,4.m4v,6.0
2024-02-27 15:44:42.131257,1709045082.1312568,-67.3828125,-30.76171875,-38.0859375,-37.109375,-1.0,1.0,-1.0,0.0,4.m4v,6.0
2024-02-27 15:44:42.135161,1709045082.1351614,-90.8203125,-28.3203125,-36.1328125,-30.76171875,-1.0,1.0,-1.0,0.0,4.m4v,6.0
2024-02-27 15:44:42.139066,1709045082.1390655,-54.6875,-31.25,-31.73828125,-20.99609375,-1.0,1.0,-1.0,0.0,4.m4v,6.0
2024-02-27 15:44:42.142988,1709045082.1429875,-17.08984375,-32.71484375,-31.25,-27.83203125,-1.0,1.0,-1.0,0.0,4.m4v,6.0
2024-02-27 15:44:42.146892,1709045082.1468923,-8.30078125,-37.59765625,-35.64453125,-33.203125,-1.0,1.0,-1.0,0.0,4.m4v,6.0
2024-02-27 15:44:42.150797,1709045082.150797,-36.62109375,-37.59765625,-31.73828125,-34.1796875,-1.0,1.0,-1.0,0.0,4.m4v,6.0
2024-02-27 15:44:42.154701,1709045082.1547012,-62.5,-34.66796875,-31.73828125,-35.15625,-1.0,1.0,-1.0,0.0,4.m4v,6.0
2024-02-27 15:44:42.158606,1709045082.1586056,-42.96875,-35.15625,-42.48046875,-27.34375,-1.0,1.0,-1.0,0.0,4.m4v,6.0
2024-02-27 15:44:42.162510,1709045082.1625102,-6.34765625,-31.25,-39.55078125,-25.390625,-1.0,1.0,-1.0,0.0,4.m4v,6.0
2024-02-27 15:44:42.166414,1709045082.1664145,-12.6953125,-34.1796875,-32.2265625,-32.71484375,-1.0,1.0,-1.0,0.0,4.m4v,6.0
2024-02-27 15:44:42.170319,1709045082.170319,-59.08203125,-41.9921875,-37.59765625,-46.38671875,-1.0,1.0,-1.0,0.0,4.m4v,6.0
2024-02-27 15:44:42.174224,1709045082.1742237,-90.33203125,-41.9921875,-44.43359375,-49.31640625,-1.0,1.0,-1.0,0.0,4.m4v,6.0
2024-02-27 15:44:42.178128,1709045082.178128,-71.2890625,-42.48046875,-45.41015625,-40.0390625,-1.0,1.0,-1.0,0.0,4.m4v,6.0
2024-02-27 15:44:42.182033,1709045082.1820326,-27.83203125,-39.0625,-38.57421875,-32.71484375,-1.0,1.0,-1.0,0.0,4.m4v,6.0
2024-02-27 15:44:42.185937,1709045082.185937,-27.83203125,-30.76171875,-34.66796875,-28.3203125,-1.0,1.0,-1.0,0.0,4.m4v,6.0
2024-02-27 15:44:42.189858,1709045082.189858,-52.734375,-38.57421875,-35.15625,-32.71484375,-1.0,1.0,-1.0,0.0,4.m4v,6.0
2024-02-27 15:44:42.193763,1709045082.1937623,-67.87109375,-37.59765625,-37.59765625,-37.109375,-1.0,1.0,-1.0,0.0,4.m4v,6.0
2024-02-27 15:44:42.197667,1709045082.1976671,-51.26953125,-31.73828125,-37.109375,-29.296875,-1.0,1.0,-1.0,0.0,4.m4v,6.0
2024-02-27 15:44:42.201571,1709045082.2015717,-18.5546875,-36.1328125,-38.0859375,-25.390625,-1.0,1.0,-1.0,0.0,4.m4v,6.0
2024-02-27 15:44:42.205476,1709045082.205476,-14.6484375,-35.64453125,-42.96875,-41.9921875,-1.0,1.0,-1.0,0.0,4.m4v,6.0
2024-02-27 15:44:42.209380,1709045082.2093804,-30.76171875,-31.25,-42.96875,-52.24609375,-1.0,1.0,-1.0,0.0,4.m4v,6.0
2024-02-27 15:44:42.213285,1709045082.213285,-60.546875,-34.1796875,-41.50390625,-38.0859375,-1.0,1.0,-1.0,0.0,4.m4v,6.0
2024-02-27 15:44:42.217189,1709045082.2171893,-55.6640625,-37.109375,-40.0390625,-28.80859375,-1.0,1.0,-1.0,0.0,4.m4v,6.0
2024-02-27 15:44:42.221094,1709045082.221094,-19.53125,-34.66796875,-40.52734375,-27.34375,-1.0,1.0,-1.0,0.0,4.m4v,6.0
2024-02-27 15:44:42.224998,1709045082.2249985,-7.8125,-25.87890625,-38.57421875,-32.2265625,-1.0,1.0,-1.0,0.0,4.m4v,6.0
2024-02-27 15:44:42.228903,1709045082.2289028,-20.99609375,-28.3203125,-35.64453125,-39.0625,-1.0,1.0,-1.0,0.0,4.m4v,6.0
2024-02-27 15:44:42.232807,1709045082.2328074,-45.41015625,-37.109375,-32.2265625,-37.109375,-1.0,1.0,-1.0,0.0,4.m4v,6.0
2024-02-27 15:44:42.236728,1709045082.2367277,-49.8046875,-31.25,-27.83203125,-24.90234375,-1.0,1.0,-1.0,0.0,4.m4v,6.0
2024-02-27 15:44:42.240632,1709045082.2406323,-21.484375,-27.83203125,-32.2265625,-24.90234375,-1.0,1.0,-1.0,0.0,4.m4v,6.0
2024-02-27 15:44:42.244537,1709045082.2445366,-6.8359375,-25.390625,-37.109375,-36.62109375,-1.0,1.0,-1.0,0.0,4.m4v,6.0
2024-02-27 15:44:42.248441,1709045082.2484412,-25.87890625,-27.34375,-38.0859375,-39.55078125,-1.0,1.0,-1.0,0.0,4.m4v,6.0
2024-02-27 15:44:42.252346,1709045082.2523456,-54.6875,-28.3203125,-40.0390625,-34.66796875,-1.0,1.0,-1.0,0.0,4.m4v,6.0
2024-02-27 15:44:42.256250,1709045082.25625,-68.359375,-23.4375,-38.57421875,-29.78515625,-1.0,1.0,-1.0,0.0,4.m4v,6.0
2024-02-27 15:44:42.260154,1709045082.2601545,-38.57421875,-23.4375,-37.59765625,-20.5078125,-1.0,1.0,-1.0,0.0,4.m4v,6.0
2024-02-27 15:44:42.264059,1709045082.264059,-18.5546875,-27.83203125,-40.52734375,-26.3671875,-1.0,1.0,-1.0,0.0,4.m4v,6.0
2024-02-27 15:44:42.267964,1709045082.2679636,-36.1328125,-32.2265625,-38.57421875,-39.0625,-1.0,1.0,-1.0,0.0,4.m4v,6.0
2024-02-27 15:44:42.271868,1709045082.271868,-71.77734375,-35.15625,-29.78515625,-42.48046875,-1.0,1.0,-1.0,0.0,4.m4v,6.0
2024-02-27 15:44:42.275773,1709045082.2757726,-74.21875,-35.15625,-24.90234375,-30.76171875,-1.0,1.0,-1.0,0.0,4.m4v,6.0
2024-02-27 15:44:42.279677,1709045082.279677,-37.59765625,-32.71484375,-30.2734375,-23.92578125,-1.0,1.0,-1.0,0.0,4.m4v,6.0
2024-02-27 15:44:42.283594,1709045082.2835944,-17.578125,-30.2734375,-43.9453125,-34.1796875,-1.0,1.0,-1.0,0.0,4.m4v,6.0
2024-02-27 15:44:42.287499,1709045082.287499,-33.69140625,-35.15625,-48.828125,-45.41015625,-1.0,1.0,-1.0,0.0,4.m4v,6.0
2024-02-27 15:44:42.291404,1709045082.2914035,-61.5234375,-33.203125,-41.015625,-43.9453125,-1.0,1.0,-1.0,0.0,4.m4v,6.0
2024-02-27 15:44:42.295308,1709045082.295308,-68.84765625,-28.80859375,-37.109375,-38.57421875,-1.0,1.0,-1.0,0.0,4.m4v,6.0
2024-02-27 15:44:42.299212,1709045082.2992125,-44.921875,-34.66796875,-37.59765625,-32.71484375,-1.0,1.0,-1.0,0.0,4.m4v,6.0
2024-02-27 15:44:42.303117,1709045082.3031168,-17.08984375,-35.64453125,-38.0859375,-39.0625,-1.0,1.0,-1.0,0.0,4.m4v,6.0
2024-02-27 15:44:42.307021,1709045082.3070214,-20.5078125,-30.76171875,-31.73828125,-45.8984375,-1.0,1.0,-1.0,0.0,4.m4v,6.0
2024-02-27 15:44:42.310926,1709045082.3109255,-56.15234375,-31.25,-32.71484375,-41.9921875,-1.0,1.0,-1.0,0.0,4.m4v,6.0
2024-02-27 15:44:42.314830,1709045082.3148303,-82.03125,-32.2265625,-29.78515625,-29.296875,-1.0,1.0,-1.0,0.0,4.m4v,6.0
2024-02-27 15:44:42.318735,1709045082.318735,-50.29296875,-29.78515625,-26.3671875,-20.5078125,-1.0,1.0,-1.0,0.0,4.m4v,6.0
2024-02-27 15:44:42.322639,1709045082.3226392,-10.25390625,-33.203125,-35.64453125,-29.78515625,-1.0,1.0,-1.0,0.0,4.m4v,6.0
2024-02-27 15:44:42.326544,1709045082.3265438,-20.5078125,-36.62109375,-38.57421875,-37.109375,-1.0,1.0,-1.0,0.0,4.m4v,6.0
2024-02-27 15:44:42.330460,1709045082.3304598,-45.8984375,-34.66796875,-37.109375,-31.25,-1.0,1.0,-1.0,0.0,4.m4v,6.0
2024-02-27 15:44:42.334364,1709045082.3343644,-68.359375,-32.71484375,-34.1796875,-27.83203125,-1.0,1.0,-1.0,0.0,4.m4v,6.0
2024-02-27 15:44:42.338269,1709045082.3382688,-48.828125,-26.3671875,-34.66796875,-27.34375,-1.0,1.0,-1.0,0.0,4.m4v,6.0
2024-02-27 15:44:42.342173,1709045082.342173,-16.11328125,-27.83203125,-33.69140625,-31.25,-1.0,1.0,-1.0,0.0,4.m4v,6.0
2024-02-27 15:44:42.346078,1709045082.3460777,-20.01953125,-29.296875,-35.15625,-41.9921875,-1.0,1.0,-1.0,0.0,4.m4v,6.0
2024-02-27 15:44:42.349982,1709045082.3499825,-39.0625,-29.296875,-41.9921875,-49.31640625,-1.0,1.0,-1.0,0.0,4.m4v,6.0
2024-02-27 15:44:42.353887,1709045082.3538868,-67.3828125,-37.109375,-41.50390625,-41.015625,-1.0,1.0,-1.0,0.0,4.m4v,6.0
2024-02-27 15:44:42.357791,1709045082.3577912,-63.4765625,-41.50390625,-35.64453125,-27.83203125,-1.0,1.0,-1.0,0.0,4.m4v,6.0
2024-02-27 15:44:42.361696,1709045082.3616958,-30.2734375,-41.015625,-34.1796875,-27.34375,-1.0,1.0,-1.0,0.0,4.m4v,6.0
2024-02-27 15:44:42.365600,1709045082.3656,-20.01953125,-36.1328125,-37.109375,-34.1796875,-1.0,1.0,-1.0,0.0,4.m4v,6.0
2024-02-27 15:44:42.369505,1709045082.3695047,-44.921875,-29.78515625,-37.109375,-38.0859375,-1.0,1.0,-1.0,0.0,4.m4v,6.0
2024-02-27 15:44:42.373409,1709045082.373409,-79.1015625,-27.34375,-37.59765625,-36.1328125,-1.0,1.0,-1.0,0.0,4.m4v,6.0
2024-02-27 15:44:42.377324,1709045082.3773236,-71.2890625,-32.2265625,-35.64453125,-32.2265625,-1.0,1.0,-1.0,0.0,4.m4v,6.0
2024-02-27 15:44:42.381228,1709045082.381228,-27.83203125,-26.85546875,-34.66796875,-24.90234375,-1.0,1.0,-1.0,0.0,4.m4v,6.0
2024-02-27 15:44:42.385133,1709045082.3851326,-14.16015625,-22.4609375,-37.109375,-27.34375,-1.0,1.0,-1.0,0.0,4.m4v,6.0
2024-02-27 15:44:42.389037,1709045082.389037,-42.96875,-25.87890625,-33.203125,-38.0859375,-1.0,1.0,-1.0,0.0,4.m4v,6.0
2024-02-27 15:44:42.392941,1709045082.3929417,-64.94140625,-27.83203125,-22.94921875,-37.59765625,-1.0,1.0,-1.0,0.0,4.m4v,6.0
2024-02-27 15:44:42.396846,1709045082.396846,-58.59375,-43.9453125,-23.4375,-28.3203125,-1.0,1.0,-1.0,0.0,4.m4v,6.0
2024-02-27 15:44:42.400750,1709045082.4007504,-33.203125,-47.8515625,-35.64453125,-30.76171875,-1.0,1.0,-1.0,0.0,4.m4v,6.0
2024-02-27 15:44:42.404655,1709045082.404655,-21.484375,-41.50390625,-42.96875,-38.57421875,-1.0,1.0,-1.0,0.0,4.m4v,6.0
2024-02-27 15:44:42.408559,1709045082.408559,-31.25,-39.55078125,-40.0390625,-38.57421875,-1.0,1.0,-1.0,0.0,4.m4v,6.0
2024-02-27 15:44:42.412464,1709045082.412464,-64.94140625,-37.109375,-36.62109375,-41.015625,-1.0,1.0,-1.0,0.0,4.m4v,6.0
2024-02-27 15:44:42.416368,1709045082.4163685,-71.2890625,-30.76171875,-38.0859375,-32.2265625,-1.0,1.0,-1.0,0.0,4.m4v,6.0
2024-02-27 15:44:42.420273,1709045082.4202728,-48.33984375,-24.90234375,-40.0390625,-26.85546875,-1.0,1.0,-1.0,0.0,4.m4v,6.0
2024-02-27 15:44:42.424188,1709045082.424188,-32.2265625,-26.3671875,-41.015625,-34.66796875,-1.0,1.0,-1.0,0.0,4.m4v,6.0
2024-02-27 15:44:42.428092,1709045082.4280922,-30.76171875,-34.1796875,-39.55078125,-45.41015625,-1.0,1.0,-1.0,0.0,4.m4v,6.0
2024-02-27 15:44:42.431997,1709045082.4319968,-61.03515625,-38.0859375,-39.55078125,-47.36328125,-1.0,1.0,-1.0,0.0,4.m4v,6.0
2024-02-27 15:44:42.435901,1709045082.4359014,-71.77734375,-37.59765625,-39.55078125,-35.64453125,-1.0,1.0,-1.0,0.0,4.m4v,6.0
2024-02-27 15:44:42.439806,1709045082.4398055,-49.8046875,-45.8984375,-48.33984375,-36.1328125,-1.0,1.0,-1.0,0.0,4.m4v,6.0
2024-02-27 15:44:42.443710,1709045082.4437103,-19.04296875,-44.43359375,-46.875,-43.45703125,-1.0,1.0,-1.0,0.0,4.m4v,6.0
2024-02-27 15:44:42.447615,1709045082.447615,-17.08984375,-39.0625,-42.96875,-47.36328125,-1.0,1.0,-1.0,0.0,4.m4v,6.0
2024-02-27 15:44:42.451519,1709045082.4515193,-62.98828125,-39.0625,-44.921875,-49.8046875,-1.0,1.0,-1.0,0.0,4.m4v,6.0
2024-02-27 15:44:42.455424,1709045082.4554236,-79.1015625,-38.57421875,-35.64453125,-38.57421875,-1.0,1.0,-1.0,0.0,4.m4v,6.0
2024-02-27 15:44:42.459328,1709045082.4593282,-45.8984375,-32.71484375,-35.64453125,-32.71484375,-1.0,1.0,-1.0,0.0,4.m4v,6.0
2024-02-27 15:44:42.463233,1709045082.4632328,-16.6015625,-30.76171875,-40.52734375,-33.69140625,-1.0,1.0,-1.0,0.0,4.m4v,6.0
2024-02-27 15:44:42.467137,1709045082.467137,-13.18359375,-31.73828125,-36.62109375,-32.71484375,-1.0,1.0,-1.0,0.0,4.m4v,6.0
2024-02-27 15:44:42.471062,1709045082.4710617,-45.8984375,-33.203125,-34.1796875,-41.015625,-1.0,1.0,-1.0,0.0,4.m4v,6.0
2024-02-27 15:44:42.474966,1709045082.474966,-63.4765625,-30.76171875,-35.64453125,-40.0390625,-1.0,1.0,-1.0,0.0,4.m4v,6.0
2024-02-27 15:44:42.478871,1709045082.4788706,-37.59765625,-24.90234375,-35.15625,-23.4375,-1.0,1.0,-1.0,0.0,4.m4v,6.0
2024-02-27 15:44:42.482775,1709045082.4827752,-5.37109375,-26.85546875,-33.69140625,-23.92578125,-1.0,1.0,-1.0,0.0,4.m4v,6.0
2024-02-27 15:44:42.486680,1709045082.4866796,-4.39453125,-32.2265625,-36.62109375,-35.64453125,-1.0,1.0,-1.0,0.0,4.m4v,6.0
2024-02-27 15:44:42.490584,1709045082.490584,-21.97265625,-33.203125,-36.62109375,-34.1796875,-1.0,1.0,-1.0,0.0,4.m4v,6.0
2024-02-27 15:44:42.494488,1709045082.4944885,-47.8515625,-31.25,-35.15625,-30.76171875,-1.0,1.0,-1.0,0.0,4.m4v,6.0
2024-02-27 15:44:42.498393,1709045082.498393,-50.29296875,-32.71484375,-30.76171875,-26.85546875,-1.0,1.0,-1.0,0.0,4.m4v,6.0
2024-02-27 15:44:42.502297,1709045082.5022974,-19.04296875,-30.76171875,-29.296875,-20.5078125,-1.0,1.0,-1.0,0.0,4.m4v,6.0
2024-02-27 15:44:42.506202,1709045082.506202,-13.671875,-30.2734375,-28.80859375,-25.390625,-1.0,1.0,-1.0,0.0,4.m4v,6.0
2024-02-27 15:44:42.510107,1709045082.5101066,-44.43359375,-33.69140625,-32.2265625,-31.73828125,-1.0,1.0,-1.0,0.0,4.m4v,6.0
2024-02-27 15:44:42.514011,1709045082.514011,-71.2890625,-32.71484375,-32.2265625,-32.2265625,-1.0,1.0,-1.0,0.0,4.m4v,6.0
2024-02-27 15:44:42.517933,1709045082.517933,-54.19921875,-27.83203125,-28.80859375,-27.34375,-1.0,1.0,-1.0,0.0,4.m4v,6.0
2024-02-27 15:44:42.521837,1709045082.5218372,-18.06640625,-24.90234375,-23.4375,-25.390625,-1.0,1.0,-1.0,0.0,4.m4v,6.0
2024-02-27 15:44:42.525742,1709045082.5257418,-14.6484375,-31.25,-23.92578125,-31.73828125,-1.0,1.0,-1.0,0.0,4.m4v,6.0
2024-02-27 15:44:42.529646,1709045082.5296464,-55.6640625,-35.64453125,-31.73828125,-40.52734375,-1.0,1.0,-1.0,0.0,4.m4v,6.0
2024-02-27 15:44:42.533551,1709045082.5335507,-76.66015625,-33.69140625,-36.62109375,-35.64453125,-1.0,1.0,-1.0,0.0,4.m4v,6.0
2024-02-27 15:44:42.537455,1709045082.537455,-27.34375,-32.71484375,-34.1796875,-14.16015625,-1.0,1.0,-1.0,0.0,4.m4v,6.0
2024-02-27 15:44:42.541360,1709045082.5413597,15.625,-29.296875,-28.3203125,-6.34765625,-1.0,1.0,-1.0,0.0,4.m4v,6.0
2024-02-27 15:44:42.545264,1709045082.5452642,3.41796875,-26.85546875,-28.80859375,-22.94921875,-1.0,1.0,-1.0,0.0,4.m4v,6.0
2024-02-27 15:44:42.549169,1709045082.5491688,-31.25,-30.76171875,-32.2265625,-31.25,-1.0,1.0,-1.0,0.0,4.m4v,6.0
2024-02-27 15:44:42.553073,1709045082.5530732,-63.4765625,-39.55078125,-39.0625,-33.69140625,-1.0,1.0,-1.0,0.0,4.m4v,6.0
2024-02-27 15:44:42.556978,1709045082.5569775,-50.29296875,-40.52734375,-41.50390625,-24.90234375,-1.0,1.0,-1.0,0.0,4.m4v,6.0
2024-02-27 15:44:42.560882,1709045082.560882,-16.11328125,-33.203125,-36.62109375,-15.625,-1.0,1.0,-1.0,0.0,4.m4v,6.0
2024-02-27 15:44:42.564803,1709045082.5648026,-15.13671875,-32.2265625,-35.64453125,-31.73828125,-1.0,1.0,-1.0,0.0,4.m4v,6.0
2024-02-27 15:44:42.568707,1709045082.5687072,-30.76171875,-34.1796875,-35.15625,-41.9921875,-1.0,1.0,-1.0,0.0,4.m4v,6.0
2024-02-27 15:44:42.572612,1709045082.5726116,-57.12890625,-38.0859375,-36.62109375,-40.52734375,-1.0,1.0,-1.0,0.0,4.m4v,6.0
2024-02-27 15:44:42.576516,1709045082.5765162,-59.08203125,-40.52734375,-34.66796875,-29.78515625,-1.0,1.0,-1.0,0.0,4.m4v,6.0
2024-02-27 15:44:42.580421,1709045082.5804207,-31.73828125,-41.015625,-37.109375,-28.80859375,-1.0,1.0,-1.0,0.0,4.m4v,6.0
2024-02-27 15:44:42.584325,1709045082.584325,-8.30078125,-36.1328125,-41.50390625,-37.109375,-1.0,1.0,-1.0,0.0,4.m4v,6.0
2024-02-27 15:44:42.588230,1709045082.5882297,-15.13671875,-33.69140625,-32.2265625,-35.64453125,-1.0,1.0,-1.0,0.0,4.m4v,6.0
2024-02-27 15:44:42.592134,1709045082.592134,-63.96484375,-35.64453125,-26.85546875,-41.50390625,-1.0,1.0,-1.0,0.0,4.m4v,6.0
2024-02-27 15:44:42.596039,1709045082.5960386,-73.73046875,-38.0859375,-36.1328125,-41.015625,-1.0,1.0,-1.0,0.0,4.m4v,6.0
2024-02-27 15:44:42.599943,1709045082.5999432,-46.875,-42.96875,-38.57421875,-34.1796875,-1.0,1.0,-1.0,0.0,4.m4v,6.0
2024-02-27 15:44:42.603848,1709045082.6038475,-27.34375,-41.50390625,-36.1328125,-31.25,-1.0,1.0,-1.0,0.0,4.m4v,6.0
2024-02-27 15:44:42.607752,1709045082.607752,-21.97265625,-35.64453125,-35.15625,-35.15625,-1.0,1.0,-1.0,0.0,4.m4v,6.0
2024-02-27 15:44:42.611671,1709045082.6116712,-52.734375,-27.83203125,-30.2734375,-47.8515625,-1.0,1.0,-1.0,0.0,4.m4v,6.0
2024-02-27 15:44:42.615576,1709045082.6155758,-69.82421875,-29.296875,-32.71484375,-45.8984375,-1.0,1.0,-1.0,0.0,4.m4v,6.0
2024-02-27 15:44:42.619480,1709045082.61948,-33.203125,-35.64453125,-31.73828125,-29.78515625,-1.0,1.0,-1.0,0.0,4.m4v,6.0
2024-02-27 15:44:42.623385,1709045082.6233847,-14.16015625,-30.76171875,-28.3203125,-28.3203125,-1.0,1.0,-1.0,0.0,4.m4v,6.0
2024-02-27 15:44:42.627289,1709045082.627289,-28.3203125,-27.83203125,-28.80859375,-33.203125,-1.0,1.0,-1.0,0.0,4.m4v,6.0
2024-02-27 15:44:42.631194,1709045082.6311936,-63.96484375,-29.296875,-27.83203125,-32.71484375,-1.0,1.0,-1.0,0.0,4.m4v,6.0
2024-02-27 15:44:42.635098,1709045082.6350982,-86.42578125,-29.78515625,-30.2734375,-35.15625,-1.0,1.0,-1.0,0.0,4.m4v,6.0
2024-02-27 15:44:42.639003,1709045082.6390026,-51.26953125,-39.55078125,-34.1796875,-31.25,-1.0,1.0,-1.0,0.0,4.m4v,6.0
2024-02-27 15:44:42.642907,1709045082.6429071,-20.99609375,-35.64453125,-32.71484375,-32.71484375,-1.0,1.0,-1.0,0.0,4.m4v,6.0
2024-02-27 15:44:42.646811,1709045082.6468115,-27.34375,-23.92578125,-28.80859375,-40.0390625,-1.0,1.0,-1.0,0.0,4.m4v,6.0
2024-02-27 15:44:42.650716,1709045082.650716,-50.78125,-27.34375,-28.80859375,-41.015625,-1.0,1.0,-1.0,0.0,4.m4v,6.0
2024-02-27 15:44:42.654621,1709045082.6546206,-68.84765625,-26.85546875,-31.73828125,-36.62109375,-1.0,1.0,-1.0,0.0,4.m4v,6.0
2024-02-27 15:44:42.658540,1709045082.6585395,-51.26953125,-27.83203125,-33.69140625,-21.97265625,-1.0,1.0,-1.0,0.0,4.m4v,6.0
2024-02-27 15:44:42.662444,1709045082.662444,-26.85546875,-31.73828125,-34.1796875,-22.4609375,-1.0,1.0,-1.0,0.0,4.m4v,6.0
2024-02-27 15:44:42.666348,1709045082.6663485,-20.01953125,-34.1796875,-33.203125,-31.73828125,-1.0,1.0,-1.0,0.0,4.m4v,6.0
2024-02-27 15:44:42.670253,1709045082.670253,-39.0625,-31.73828125,-31.73828125,-33.69140625,-1.0,1.0,-1.0,0.0,4.m4v,6.0
2024-02-27 15:44:42.674158,1709045082.6741576,-68.359375,-29.296875,-30.2734375,-29.296875,-1.0,1.0,-1.0,0.0,4.m4v,6.0
2024-02-27 15:44:42.678062,1709045082.678062,-43.9453125,-28.80859375,-30.76171875,-24.4140625,-1.0,1.0,-1.0,0.0,4.m4v,6.0
2024-02-27 15:44:42.681967,1709045082.6819663,-2.9296875,-25.87890625,-32.71484375,-26.85546875,-1.0,1.0,-1.0,0.0,4.m4v,6.0
2024-02-27 15:44:42.685871,1709045082.685871,-20.5078125,-29.78515625,-38.57421875,-39.0625,-1.0,1.0,-1.0,0.0,4.m4v,6.0
2024-02-27 15:44:42.689775,1709045082.6897757,-51.26953125,-31.25,-32.2265625,-48.828125,-1.0,1.0,-1.0,0.0,4.m4v,6.0
2024-02-27 15:44:42.693680,1709045082.6936798,-83.0078125,-27.34375,-32.2265625,-40.52734375,-1.0,1.0,-1.0,0.0,4.m4v,6.0
2024-02-27 15:44:42.697584,1709045082.6975844,-73.73046875,-22.94921875,-37.59765625,-42.96875,-1.0,1.0,-1.0,0.0,4.m4v,6.0
2024-02-27 15:44:42.701489,1709045082.701489,-27.83203125,-29.296875,-35.64453125,-49.31640625,-1.0,1.0,-1.0,0.0,4.m4v,6.0
2024-02-27 15:44:42.705417,1709045082.705417,-8.7890625,-31.25,-37.59765625,-41.50390625,-1.0,1.0,-1.0,0.0,4.m4v,6.0
2024-02-27 15:44:42.709321,1709045082.7093213,-29.296875,-33.203125,-38.57421875,-42.48046875,-1.0,1.0,-1.0,0.0,4.m4v,6.0
2024-02-27 15:44:42.713226,1709045082.7132256,-66.40625,-35.64453125,-34.66796875,-40.0390625,-1.0,1.0,-1.0,0.0,4.m4v,6.0
2024-02-27 15:44:42.717130,1709045082.7171302,-59.08203125,-32.2265625,-34.66796875,-31.25,-1.0,1.0,-1.0,0.0,4.m4v,6.0
2024-02-27 15:44:42.721035,1709045082.7210348,-35.15625,-33.69140625,-34.66796875,-29.78515625,-1.0,1.0,-1.0,0.0,4.m4v,6.0
2024-02-27 15:44:42.724939,1709045082.724939,-14.6484375,-32.2265625,-36.1328125,-34.1796875,-1.0,1.0,-1.0,0.0,4.m4v,6.0
2024-02-27 15:44:42.728844,1709045082.7288437,-30.2734375,-38.0859375,-40.52734375,-44.921875,-1.0,1.0,-1.0,0.0,4.m4v,6.0
2024-02-27 15:44:42.732748,1709045082.732748,-75.1953125,-41.015625,-40.52734375,-47.8515625,-1.0,1.0,-1.0,0.0,4.m4v,6.0
2024-02-27 15:44:42.736653,1709045082.7366526,-78.61328125,-33.69140625,-38.57421875,-37.59765625,-1.0,1.0,-1.0,0.0,4.m4v,6.0
2024-02-27 15:44:42.740557,1709045082.7405572,-37.109375,-29.78515625,-36.62109375,-29.296875,-1.0,1.0,-1.0,0.0,4.m4v,6.0
2024-02-27 15:44:42.744462,1709045082.7444615,-16.11328125,-35.15625,-31.25,-35.15625,-1.0,1.0,-1.0,0.0,4.m4v,6.0
2024-02-27 15:44:42.748366,1709045082.748366,-30.76171875,-37.109375,-27.83203125,-46.38671875,-1.0,1.0,-1.0,0.0,4.m4v,6.0
2024-02-27 15:44:42.752286,1709045082.752286,-62.5,-32.2265625,-27.83203125,-44.921875,-1.0,1.0,-1.0,0.0,4.m4v,6.0
2024-02-27 15:44:42.756190,1709045082.7561903,-77.63671875,-35.15625,-28.3203125,-35.64453125,-1.0,1.0,-1.0,0.0,4.m4v,6.0
2024-02-27 15:44:42.760095,1709045082.760095,-54.19921875,-33.203125,-33.203125,-28.3203125,-1.0,1.0,-1.0,0.0,4.m4v,6.0
2024-02-27 15:44:42.763999,1709045082.7639992,-35.64453125,-35.15625,-36.62109375,-36.62109375,-1.0,1.0,-1.0,0.0,4.m4v,6.0
2024-02-27 15:44:42.767904,1709045082.7679038,-29.296875,-36.1328125,-37.109375,-42.48046875,-1.0,1.0,-1.0,0.0,4.m4v,6.0
2024-02-27 15:44:42.771808,1709045082.7718084,-40.0390625,-30.76171875,-36.62109375,-43.45703125,-1.0,1.0,-1.0,0.0,4.m4v,6.0
2024-02-27 15:44:42.775713,1709045082.7757127,-51.26953125,-34.1796875,-35.15625,-43.9453125,-1.0,1.0,-1.0,0.0,4.m4v,6.0
2024-02-27 15:44:42.779617,1709045082.7796173,-39.55078125,-29.78515625,-38.0859375,-41.9921875,-1.0,1.0,-1.0,0.0,4.m4v,6.0
2024-02-27 15:44:42.783522,1709045082.7835217,-29.296875,-27.34375,-37.59765625,-50.78125,-1.0,1.0,-1.0,0.0,4.m4v,6.0
2024-02-27 15:44:42.787426,1709045082.7874262,-28.80859375,-34.1796875,-32.2265625,-56.15234375,-1.0,1.0,-1.0,0.0,4.m4v,6.0
2024-02-27 15:44:42.791331,1709045082.7913308,-52.24609375,-40.0390625,-31.73828125,-48.33984375,-1.0,1.0,-1.0,0.0,4.m4v,6.0
2024-02-27 15:44:42.795235,1709045082.7952352,-76.171875,-37.109375,-34.1796875,-39.0625,-1.0,1.0,-1.0,0.0,4.m4v,6.0
2024-02-27 15:44:42.799161,1709045082.7991612,-41.9921875,-26.3671875,-33.203125,-30.76171875,-1.0,1.0,-1.0,0.0,4.m4v,6.0
2024-02-27 15:44:42.803066,1709045082.8030658,0.9765625,-29.296875,-27.34375,-28.80859375,-1.0,1.0,-1.0,0.0,4.m4v,6.0
2024-02-27 15:44:42.806970,1709045082.8069704,-8.30078125,-36.62109375,-31.25,-36.62109375,-1.0,1.0,-1.0,0.0,4.m4v,6.0
2024-02-27 15:44:42.810875,1709045082.8108747,-44.43359375,-38.57421875,-35.64453125,-41.50390625,-1.0,1.0,-1.0,0.0,4.m4v,6.0
2024-02-27 15:44:42.814779,1709045082.8147793,-62.98828125,-39.55078125,-34.1796875,-39.0625,-1.0,1.0,-1.0,0.0,4.m4v,6.0
2024-02-27 15:44:42.818684,1709045082.8186836,-24.4140625,-37.59765625,-32.71484375,-24.4140625,-1.0,1.0,-1.0,0.0,4.m4v,6.0
2024-02-27 15:44:42.822588,1709045082.8225882,-0.48828125,-37.59765625,-32.2265625,-21.97265625,-1.0,1.0,-1.0,0.0,4.m4v,6.0
2024-02-27 15:44:42.826493,1709045082.8264928,-10.7421875,-28.3203125,-32.2265625,-28.80859375,-1.0,1.0,-1.0,0.0,4.m4v,6.0
2024-02-27 15:44:42.830397,1709045082.8303971,-37.109375,-28.3203125,-29.296875,-31.25,-1.0,1.0,-1.0,0.0,4.m4v,6.0
2024-02-27 15:44:42.834302,1709045082.8343017,-72.75390625,-26.85546875,-27.83203125,-28.80859375,-1.0,1.0,-1.0,0.0,4.m4v,6.0
2024-02-27 15:44:42.838206,1709045082.838206,-45.41015625,-26.85546875,-30.2734375,-21.97265625,-1.0,1.0,-1.0,0.0,4.m4v,6.0
2024-02-27 15:44:42.842111,1709045082.8421106,-8.30078125,-29.78515625,-28.80859375,-32.2265625,-1.0,1.0,-1.0,0.0,4.m4v,6.0
2024-02-27 15:44:42.846034,1709045082.846034,-12.20703125,-31.25,-33.203125,-38.57421875,-1.0,1.0,-1.0,0.0,4.m4v,6.0
2024-02-27 15:44:42.849938,1709045082.8499384,-34.1796875,-31.73828125,-36.62109375,-32.71484375,-1.0,1.0,-1.0,0.0,4.m4v,6.0
