Timestamp,Timestamp_UNIX,TP9,AF7,AF8,TP10,Valence,Arousal,Dominace,Viewed,Video,Participant
2024-02-28 10:15:23.425684,1709111723.425684,-11.23046875,-27.83203125,-38.0859375,18.5546875,-1.0,-1.0,1.0,0.0,2.m4v,8.0
2024-02-28 10:15:23.429589,1709111723.4295893,-9.27734375,-28.3203125,-54.19921875,-10.7421875,-1.0,-1.0,1.0,0.0,2.m4v,8.0
2024-02-28 10:15:23.433495,1709111723.4334948,-8.7890625,-15.625,-69.3359375,-11.23046875,-1.0,-1.0,1.0,0.0,2.m4v,8.0
2024-02-28 10:15:23.437400,1709111723.4374,-5.859375,-20.01953125,-70.3125,-0.48828125,-1.0,-1.0,1.0,0.0,2.m4v,8.0
2024-02-28 10:15:23.441305,1709111723.4413054,-10.7421875,-43.9453125,-46.875,-10.25390625,-1.0,-1.0,1.0,0.0,2.m4v,8.0
2024-02-28 10:15:23.445211,1709111723.4452107,-1.953125,-52.24609375,-25.390625,-11.71875,-1.0,-1.0,1.0,0.0,2.m4v,8.0
2024-02-28 10:15:23.449116,1709111723.4491162,-6.34765625,-46.38671875,-19.53125,12.6953125,-1.0,-1.0,1.0,0.0,2.m4v,8.0
2024-02-28 10:15:23.453022,1709111723.4530215,-16.6015625,-41.50390625,-18.5546875,-18.06640625,-1.0,-1.0,1.0,0.0,2.m4v,8.0
2024-02-28 10:15:23.456927,1709111723.4569268,-26.85546875,-27.34375,-24.90234375,-18.06640625,-1.0,-1.0,1.0,0.0,2.m4v,8.0
2024-02-28 10:15:23.460832,1709111723.460832,-26.85546875,-28.80859375,-35.15625,-3.90625,-1.0,-1.0,1.0,0.0,2.m4v,8.0
2024-02-28 10:15:23.464737,1709111723.4647374,-1.46484375,-32.2265625,-32.2265625,-44.43359375,-1.0,-1.0,1.0,0.0,2.m4v,8.0
2024-02-28 10:15:23.468650,1709111723.46865,-6.34765625,-23.4375,-35.64453125,-4.39453125,-1.0,-1.0,1.0,0.0,2.m4v,8.0
2024-02-28 10:15:23.472556,1709111723.4725556,-11.23046875,-29.296875,-56.15234375,12.6953125,-1.0,-1.0,1.0,0.0,2.m4v,8.0
2024-02-28 10:15:23.476461,1709111723.476461,1.953125,-49.31640625,-34.1796875,11.71875,-1.0,-1.0,1.0,0.0,2.m4v,8.0
2024-02-28 10:15:23.480366,1709111723.4803662,-1.953125,-51.26953125,-13.18359375,17.08984375,-1.0,-1.0,1.0,0.0,2.m4v,8.0
2024-02-28 10:15:23.484272,1709111723.4842715,-14.6484375,-38.57421875,-17.08984375,7.8125,-1.0,-1.0,1.0,0.0,2.m4v,8.0
2024-02-28 10:15:23.488177,1709111723.488177,-11.23046875,-40.0390625,-49.8046875,10.25390625,-1.0,-1.0,1.0,0.0,2.m4v,8.0
2024-02-28 10:15:23.492082,1709111723.4920824,-6.34765625,-28.3203125,-55.6640625,0.48828125,-1.0,-1.0,1.0,0.0,2.m4v,8.0
2024-02-28 10:15:23.495988,1709111723.4959877,-22.94921875,-20.5078125,-32.2265625,0.0,-1.0,-1.0,1.0,0.0,2.m4v,8.0
2024-02-28 10:15:23.499893,1709111723.499893,-32.71484375,-35.64453125,-23.4375,-11.23046875,-1.0,-1.0,1.0,0.0,2.m4v,8.0
2024-02-28 10:15:23.503798,1709111723.5037985,-39.0625,-42.48046875,-4.8828125,-18.5546875,-1.0,-1.0,1.0,0.0,2.m4v,8.0
2024-02-28 10:15:23.507704,1709111723.5077038,-39.55078125,-42.48046875,-15.13671875,-38.57421875,-1.0,-1.0,1.0,0.0,2.m4v,8.0
2024-02-28 10:15:23.511609,1709111723.511609,-43.45703125,-38.57421875,-43.9453125,-55.6640625,-1.0,-1.0,1.0,0.0,2.m4v,8.0
2024-02-28 10:15:23.515521,1709111723.5155213,-54.19921875,-33.69140625,-27.34375,-53.7109375,-1.0,-1.0,1.0,0.0,2.m4v,8.0
2024-02-28 10:15:23.519427,1709111723.5194268,-37.109375,-52.24609375,-27.83203125,-44.43359375,-1.0,-1.0,1.0,0.0,2.m4v,8.0
2024-02-28 10:15:23.523332,1709111723.523332,-22.94921875,-54.6875,-72.265625,-20.5078125,-1.0,-1.0,1.0,0.0,2.m4v,8.0
2024-02-28 10:15:23.527237,1709111723.5272374,-27.83203125,-31.73828125,-64.94140625,-1.46484375,-1.0,-1.0,1.0,0.0,2.m4v,8.0
2024-02-28 10:15:23.531143,1709111723.5311427,-36.62109375,-26.85546875,-25.87890625,-41.015625,-1.0,-1.0,1.0,0.0,2.m4v,8.0
2024-02-28 10:15:23.535048,1709111723.5350482,-49.31640625,-35.15625,-23.92578125,-78.125,-1.0,-1.0,1.0,0.0,2.m4v,8.0
2024-02-28 10:15:23.538954,1709111723.5389535,-45.8984375,-40.0390625,-11.71875,-87.40234375,-1.0,-1.0,1.0,0.0,2.m4v,8.0
2024-02-28 10:15:23.542859,1709111723.5428588,-44.921875,-39.55078125,-24.4140625,-62.01171875,-1.0,-1.0,1.0,0.0,2.m4v,8.0
2024-02-28 10:15:23.546764,1709111723.546764,-55.6640625,-37.59765625,-61.5234375,-22.4609375,-1.0,-1.0,1.0,0.0,2.m4v,8.0
2024-02-28 10:15:23.550669,1709111723.5506694,-46.875,-35.15625,-57.12890625,-37.109375,-1.0,-1.0,1.0,0.0,2.m4v,8.0
2024-02-28 10:15:23.554575,1709111723.554575,-31.73828125,-36.62109375,-34.1796875,-43.45703125,-1.0,-1.0,1.0,0.0,2.m4v,8.0
2024-02-28 10:15:23.558480,1709111723.5584805,-48.828125,-43.9453125,-18.06640625,-71.77734375,-1.0,-1.0,1.0,0.0,2.m4v,8.0
2024-02-28 10:15:23.562392,1709111723.562392,-63.4765625,-43.45703125,-15.13671875,-89.84375,-1.0,-1.0,1.0,0.0,2.m4v,8.0
2024-02-28 10:15:23.566297,1709111723.5662973,-41.015625,-29.78515625,-16.11328125,-54.6875,-1.0,-1.0,1.0,0.0,2.m4v,8.0
2024-02-28 10:15:23.570203,1709111723.5702026,-45.8984375,-31.25,-32.2265625,-65.91796875,-1.0,-1.0,1.0,0.0,2.m4v,8.0
2024-02-28 10:15:23.574108,1709111723.574108,-68.359375,-48.33984375,-54.6875,-80.078125,-1.0,-1.0,1.0,0.0,2.m4v,8.0
2024-02-28 10:15:23.578013,1709111723.5780134,-69.3359375,-45.8984375,-43.45703125,-74.21875,-1.0,-1.0,1.0,0.0,2.m4v,8.0
2024-02-28 10:15:23.581919,1709111723.5819187,-65.4296875,-31.73828125,-33.203125,-66.89453125,-1.0,-1.0,1.0,0.0,2.m4v,8.0
2024-02-28 10:15:23.585824,1709111723.585824,-58.59375,-30.2734375,-64.94140625,-38.57421875,-1.0,-1.0,1.0,0.0,2.m4v,8.0
2024-02-28 10:15:23.589730,1709111723.5897295,-51.7578125,-27.34375,-83.984375,-31.25,-1.0,-1.0,1.0,0.0,2.m4v,8.0
2024-02-28 10:15:23.593635,1709111723.5936348,-44.921875,-34.1796875,-29.78515625,-52.734375,-1.0,-1.0,1.0,0.0,2.m4v,8.0
2024-02-28 10:15:23.597540,1709111723.59754,-55.6640625,-56.15234375,10.25390625,-68.359375,-1.0,-1.0,1.0,0.0,2.m4v,8.0
2024-02-28 10:15:23.601445,1709111723.6014454,-76.66015625,-42.48046875,-11.71875,-87.890625,-1.0,-1.0,1.0,0.0,2.m4v,8.0
2024-02-28 10:15:23.605351,1709111723.605351,-73.2421875,-25.390625,-29.78515625,-83.0078125,-1.0,-1.0,1.0,0.0,2.m4v,8.0
2024-02-28 10:15:23.609262,1709111723.6092625,-63.96484375,-20.99609375,-20.5078125,-59.5703125,-1.0,-1.0,1.0,0.0,2.m4v,8.0
2024-02-28 10:15:23.613168,1709111723.6131678,-76.171875,-21.484375,-26.85546875,-62.01171875,-1.0,-1.0,1.0,0.0,2.m4v,8.0
2024-02-28 10:15:23.617073,1709111723.6170733,-74.21875,-36.62109375,-69.82421875,-89.35546875,-1.0,-1.0,1.0,0.0,2.m4v,8.0
2024-02-28 10:15:23.620979,1709111723.6209786,-67.3828125,-41.015625,-96.6796875,-85.44921875,-1.0,-1.0,1.0,0.0,2.m4v,8.0
2024-02-28 10:15:23.624884,1709111723.624884,-67.3828125,-37.109375,-66.40625,-65.4296875,-1.0,-1.0,1.0,0.0,2.m4v,8.0
2024-02-28 10:15:23.628789,1709111723.6287892,-74.21875,-41.9921875,-11.71875,-93.75,-1.0,-1.0,1.0,0.0,2.m4v,8.0
2024-02-28 10:15:23.632695,1709111723.6326947,-84.9609375,-51.26953125,8.30078125,-110.3515625,-1.0,-1.0,1.0,0.0,2.m4v,8.0
2024-02-28 10:15:23.636600,1709111723.6366,-86.42578125,-65.4296875,-12.6953125,-119.62890625,-1.0,-1.0,1.0,0.0,2.m4v,8.0
2024-02-28 10:15:23.640505,1709111723.6405053,-103.515625,-58.59375,-31.73828125,-128.90625,-1.0,-1.0,1.0,0.0,2.m4v,8.0
2024-02-28 10:15:23.644411,1709111723.6444106,-95.21484375,-25.87890625,-51.26953125,-112.3046875,-1.0,-1.0,1.0,0.0,2.m4v,8.0
2024-02-28 10:15:23.648316,1709111723.648316,-76.171875,-13.18359375,-58.59375,-114.74609375,-1.0,-1.0,1.0,0.0,2.m4v,8.0
2024-02-28 10:15:23.652221,1709111723.6522214,-90.8203125,-11.23046875,-48.33984375,-128.41796875,-1.0,-1.0,1.0,0.0,2.m4v,8.0
2024-02-28 10:15:23.656132,1709111723.6561315,-119.140625,-20.01953125,-48.828125,-149.4140625,-1.0,-1.0,1.0,0.0,2.m4v,8.0
2024-02-28 10:15:23.660037,1709111723.6600373,-134.27734375,-42.96875,-30.2734375,-147.94921875,-1.0,-1.0,1.0,0.0,2.m4v,8.0
2024-02-28 10:15:23.663943,1709111723.6639426,-120.60546875,-44.43359375,-13.18359375,-137.6953125,-1.0,-1.0,1.0,0.0,2.m4v,8.0
2024-02-28 10:15:23.667848,1709111723.667848,-100.09765625,-48.33984375,-16.6015625,-136.23046875,-1.0,-1.0,1.0,0.0,2.m4v,8.0
2024-02-28 10:15:23.671753,1709111723.6717532,-98.6328125,-59.5703125,-31.25,-128.41796875,-1.0,-1.0,1.0,0.0,2.m4v,8.0
2024-02-28 10:15:23.675659,1709111723.6756587,-98.6328125,-53.7109375,-52.24609375,-85.44921875,-1.0,-1.0,1.0,0.0,2.m4v,8.0
2024-02-28 10:15:23.679564,1709111723.679564,-86.42578125,-23.92578125,-61.03515625,-66.40625,-1.0,-1.0,1.0,0.0,2.m4v,8.0
2024-02-28 10:15:23.683469,1709111723.6834693,-83.0078125,-8.30078125,-61.5234375,-105.46875,-1.0,-1.0,1.0,0.0,2.m4v,8.0
2024-02-28 10:15:23.687375,1709111723.6873746,-66.40625,-19.04296875,-51.7578125,-125.48828125,-1.0,-1.0,1.0,0.0,2.m4v,8.0
2024-02-28 10:15:23.691280,1709111723.69128,-46.875,-22.4609375,-35.15625,-100.09765625,-1.0,-1.0,1.0,0.0,2.m4v,8.0
2024-02-28 10:15:23.695185,1709111723.6951854,-47.36328125,-26.3671875,-38.57421875,-73.2421875,-1.0,-1.0,1.0,0.0,2.m4v,8.0
2024-02-28 10:15:23.699091,1709111723.6990907,-43.45703125,-31.73828125,-37.59765625,-84.9609375,-1.0,-1.0,1.0,0.0,2.m4v,8.0
2024-02-28 10:15:23.703001,1709111723.703001,-40.52734375,-41.50390625,-12.6953125,-67.3828125,-1.0,-1.0,1.0,0.0,2.m4v,8.0
2024-02-28 10:15:23.706906,1709111723.7069063,-20.01953125,-49.8046875,-7.8125,-45.8984375,-1.0,-1.0,1.0,0.0,2.m4v,8.0
2024-02-28 10:15:23.710812,1709111723.710812,-10.25390625,-63.4765625,-50.29296875,-47.36328125,-1.0,-1.0,1.0,0.0,2.m4v,8.0
2024-02-28 10:15:23.714717,1709111723.7147171,-26.3671875,-62.5,-61.5234375,-35.64453125,-1.0,-1.0,1.0,0.0,2.m4v,8.0
2024-02-28 10:15:23.718622,1709111723.7186224,-37.59765625,-33.203125,-41.50390625,-33.69140625,-1.0,-1.0,1.0,0.0,2.m4v,8.0
2024-02-28 10:15:23.722528,1709111723.7225275,-38.57421875,-9.765625,-27.83203125,-41.9921875,-1.0,-1.0,1.0,0.0,2.m4v,8.0
2024-02-28 10:15:23.726433,1709111723.7264333,-21.484375,-13.18359375,-20.5078125,-22.4609375,-1.0,-1.0,1.0,0.0,2.m4v,8.0
2024-02-28 10:15:23.730339,1709111723.7303386,-6.8359375,-20.5078125,-44.43359375,-3.41796875,-1.0,-1.0,1.0,0.0,2.m4v,8.0
2024-02-28 10:15:23.734244,1709111723.734244,-7.8125,-22.4609375,-49.31640625,-10.7421875,-1.0,-1.0,1.0,0.0,2.m4v,8.0
2024-02-28 10:15:23.738149,1709111723.7381492,-11.23046875,-30.2734375,-31.25,-25.87890625,-1.0,-1.0,1.0,0.0,2.m4v,8.0
2024-02-28 10:15:23.742055,1709111723.7420547,-18.5546875,-39.55078125,-45.8984375,-2.44140625,-1.0,-1.0,1.0,0.0,2.m4v,8.0
2024-02-28 10:15:23.745960,1709111723.74596,-20.99609375,-44.921875,-56.15234375,5.859375,-1.0,-1.0,1.0,0.0,2.m4v,8.0
2024-02-28 10:15:23.749870,1709111723.7498696,-24.90234375,-46.875,-40.0390625,-30.2734375,-1.0,-1.0,1.0,0.0,2.m4v,8.0
2024-02-28 10:15:23.753775,1709111723.753775,-37.59765625,-64.94140625,-22.4609375,-27.83203125,-1.0,-1.0,1.0,0.0,2.m4v,8.0
2024-02-28 10:15:23.757680,1709111723.7576804,-31.25,-75.1953125,-13.671875,-29.78515625,-1.0,-1.0,1.0,0.0,2.m4v,8.0
2024-02-28 10:15:23.761586,1709111723.7615857,-12.6953125,-49.31640625,-22.94921875,-38.0859375,-1.0,-1.0,1.0,0.0,2.m4v,8.0
2024-02-28 10:15:23.765491,1709111723.765491,-15.13671875,-18.06640625,-38.0859375,-18.06640625,-1.0,-1.0,1.0,0.0,2.m4v,8.0
2024-02-28 10:15:23.769396,1709111723.7693963,-24.4140625,-17.578125,-34.66796875,12.20703125,-1.0,-1.0,1.0,0.0,2.m4v,8.0
2024-02-28 10:15:23.773302,1709111723.7733018,-13.18359375,-30.76171875,-41.015625,17.08984375,-1.0,-1.0,1.0,0.0,2.m4v,8.0
2024-02-28 10:15:23.777207,1709111723.7772071,-9.765625,-29.296875,-46.38671875,-5.37109375,-1.0,-1.0,1.0,0.0,2.m4v,8.0
2024-02-28 10:15:23.781112,1709111723.7811124,-16.6015625,-31.25,-28.3203125,-31.73828125,-1.0,-1.0,1.0,0.0,2.m4v,8.0
2024-02-28 10:15:23.785018,1709111723.7850175,-24.4140625,-26.85546875,-20.5078125,-30.2734375,-1.0,-1.0,1.0,0.0,2.m4v,8.0
2024-02-28 10:15:23.788923,1709111723.788923,-32.71484375,-27.83203125,-31.73828125,-4.8828125,-1.0,-1.0,1.0,0.0,2.m4v,8.0
2024-02-28 10:15:23.792829,1709111723.7928286,-41.015625,-48.33984375,-49.8046875,-38.57421875,-1.0,-1.0,1.0,0.0,2.m4v,8.0
2024-02-28 10:15:23.796742,1709111723.7967415,-41.50390625,-60.546875,-42.48046875,-58.10546875,-1.0,-1.0,1.0,0.0,2.m4v,8.0
2024-02-28 10:15:23.800647,1709111723.800647,-31.25,-50.29296875,-26.85546875,-14.6484375,-1.0,-1.0,1.0,0.0,2.m4v,8.0
2024-02-28 10:15:23.804553,1709111723.8045526,-6.8359375,-42.48046875,-45.8984375,23.92578125,-1.0,-1.0,1.0,0.0,2.m4v,8.0
2024-02-28 10:15:23.808458,1709111723.808458,-3.41796875,-38.57421875,-58.10546875,15.13671875,-1.0,-1.0,1.0,0.0,2.m4v,8.0
2024-02-28 10:15:23.812363,1709111723.8123631,-31.73828125,-34.1796875,-40.52734375,-41.9921875,-1.0,-1.0,1.0,0.0,2.m4v,8.0
2024-02-28 10:15:23.816268,1709111723.8162684,-31.25,-23.4375,-25.87890625,-21.97265625,-1.0,-1.0,1.0,0.0,2.m4v,8.0
2024-02-28 10:15:23.820174,1709111723.820174,-29.296875,-19.04296875,-26.85546875,-8.30078125,-1.0,-1.0,1.0,0.0,2.m4v,8.0
2024-02-28 10:15:23.824079,1709111723.8240793,-33.203125,-25.87890625,-25.390625,-61.03515625,-1.0,-1.0,1.0,0.0,2.m4v,8.0
2024-02-28 10:15:23.827985,1709111723.8279846,-38.57421875,-29.78515625,-4.39453125,-32.2265625,-1.0,-1.0,1.0,0.0,2.m4v,8.0
2024-02-28 10:15:23.831890,1709111723.83189,-38.0859375,-47.8515625,-18.5546875,-20.5078125,-1.0,-1.0,1.0,0.0,2.m4v,8.0
2024-02-28 10:15:23.835795,1709111723.8357954,-19.04296875,-61.5234375,-63.96484375,-8.30078125,-1.0,-1.0,1.0,0.0,2.m4v,8.0
2024-02-28 10:15:23.839701,1709111723.8397007,-19.04296875,-53.22265625,-81.54296875,5.859375,-1.0,-1.0,1.0,0.0,2.m4v,8.0
2024-02-28 10:15:23.843613,1709111723.8436134,-46.875,-30.76171875,-43.9453125,-54.19921875,-1.0,-1.0,1.0,0.0,2.m4v,8.0
2024-02-28 10:15:23.847519,1709111723.8475187,-37.109375,-29.78515625,-9.27734375,-54.6875,-1.0,-1.0,1.0,0.0,2.m4v,8.0
2024-02-28 10:15:23.851424,1709111723.851424,-31.73828125,-34.66796875,-23.4375,-26.85546875,-1.0,-1.0,1.0,0.0,2.m4v,8.0
2024-02-28 10:15:23.855330,1709111723.8553295,-39.0625,-28.80859375,-25.87890625,-44.921875,-1.0,-1.0,1.0,0.0,2.m4v,8.0
2024-02-28 10:15:23.859235,1709111723.8592348,-29.296875,-45.8984375,-25.87890625,-30.2734375,-1.0,-1.0,1.0,0.0,2.m4v,8.0
2024-02-28 10:15:23.863140,1709111723.86314,-25.87890625,-51.7578125,-17.578125,-21.484375,-1.0,-1.0,1.0,0.0,2.m4v,8.0
2024-02-28 10:15:23.867045,1709111723.8670454,-19.53125,-36.1328125,-17.578125,-14.16015625,-1.0,-1.0,1.0,0.0,2.m4v,8.0
2024-02-28 10:15:23.870951,1709111723.870951,-16.6015625,-30.76171875,-44.921875,5.37109375,-1.0,-1.0,1.0,0.0,2.m4v,8.0
2024-02-28 10:15:23.874856,1709111723.8748562,-11.71875,-30.2734375,-58.10546875,-5.37109375,-1.0,-1.0,1.0,0.0,2.m4v,8.0
2024-02-28 10:15:23.878762,1709111723.8787615,-23.92578125,-32.2265625,-65.91796875,-20.01953125,-1.0,-1.0,1.0,0.0,2.m4v,8.0
2024-02-28 10:15:23.882667,1709111723.8826668,-31.25,-24.4140625,-51.7578125,-28.80859375,-1.0,-1.0,1.0,0.0,2.m4v,8.0
2024-02-28 10:15:23.886572,1709111723.8865724,-23.4375,-21.97265625,-30.76171875,-21.97265625,-1.0,-1.0,1.0,0.0,2.m4v,8.0
2024-02-28 10:15:23.890485,1709111723.8904846,-24.4140625,-29.78515625,-29.296875,-7.32421875,-1.0,-1.0,1.0,0.0,2.m4v,8.0
2024-02-28 10:15:23.894390,1709111723.89439,-28.80859375,-32.71484375,-27.34375,-22.4609375,-1.0,-1.0,1.0,0.0,2.m4v,8.0
2024-02-28 10:15:23.898295,1709111723.8982952,-27.34375,-30.76171875,-25.390625,-40.52734375,-1.0,-1.0,1.0,0.0,2.m4v,8.0
2024-02-28 10:15:23.902200,1709111723.9022005,-30.76171875,-36.1328125,-41.9921875,-23.4375,-1.0,-1.0,1.0,0.0,2.m4v,8.0
2024-02-28 10:15:23.906106,1709111723.906106,-30.76171875,-53.7109375,-49.8046875,-24.90234375,-1.0,-1.0,1.0,0.0,2.m4v,8.0
2024-02-28 10:15:23.910011,1709111723.9100113,-26.3671875,-48.828125,-48.828125,-42.48046875,-1.0,-1.0,1.0,0.0,2.m4v,8.0
2024-02-28 10:15:23.913917,1709111723.9139166,-39.0625,-55.17578125,-38.57421875,-34.1796875,-1.0,-1.0,1.0,0.0,2.m4v,8.0
2024-02-28 10:15:23.917822,1709111723.917822,-39.0625,-49.31640625,-38.57421875,-33.203125,-1.0,-1.0,1.0,0.0,2.m4v,8.0
2024-02-28 10:15:23.921727,1709111723.9217274,-26.85546875,-17.578125,-30.76171875,-8.30078125,-1.0,-1.0,1.0,0.0,2.m4v,8.0
2024-02-28 10:15:23.925633,1709111723.9256327,-25.87890625,-23.92578125,-10.25390625,-20.01953125,-1.0,-1.0,1.0,0.0,2.m4v,8.0
2024-02-28 10:15:23.929538,1709111723.929538,-22.4609375,-22.94921875,-19.53125,-27.83203125,-1.0,-1.0,1.0,0.0,2.m4v,8.0
2024-02-28 10:15:23.933443,1709111723.9334433,-25.87890625,-9.765625,-35.64453125,18.5546875,-1.0,-1.0,1.0,0.0,2.m4v,8.0
2024-02-28 10:15:23.937355,1709111723.9373553,-30.76171875,-22.94921875,-55.6640625,8.30078125,-1.0,-1.0,1.0,0.0,2.m4v,8.0
2024-02-28 10:15:23.941261,1709111723.9412606,-19.53125,-31.73828125,-55.6640625,-12.20703125,-1.0,-1.0,1.0,0.0,2.m4v,8.0
2024-02-28 10:15:23.945166,1709111723.945166,-21.484375,-39.55078125,-50.78125,-29.78515625,-1.0,-1.0,1.0,0.0,2.m4v,8.0
2024-02-28 10:15:23.949071,1709111723.9490714,-40.52734375,-56.640625,-51.26953125,-41.015625,-1.0,-1.0,1.0,0.0,2.m4v,8.0
2024-02-28 10:15:23.952977,1709111723.9529767,-43.45703125,-48.33984375,-28.80859375,-38.0859375,-1.0,-1.0,1.0,0.0,2.m4v,8.0
2024-02-28 10:15:23.956882,1709111723.956882,-35.64453125,-27.34375,-6.8359375,-46.875,-1.0,-1.0,1.0,0.0,2.m4v,8.0
2024-02-28 10:15:23.960787,1709111723.9607873,-18.06640625,-22.94921875,-13.671875,-20.99609375,-1.0,-1.0,1.0,0.0,2.m4v,8.0
2024-02-28 10:15:23.964693,1709111723.9646926,-0.9765625,-20.5078125,-50.29296875,-6.8359375,-1.0,-1.0,1.0,0.0,2.m4v,8.0
2024-02-28 10:15:23.968598,1709111723.968598,-11.23046875,-33.69140625,-59.5703125,-14.16015625,-1.0,-1.0,1.0,0.0,2.m4v,8.0
2024-02-28 10:15:23.972503,1709111723.9725034,-18.5546875,-41.015625,-33.69140625,-24.90234375,-1.0,-1.0,1.0,0.0,2.m4v,8.0
2024-02-28 10:15:23.976409,1709111723.9764087,-20.99609375,-54.19921875,-17.578125,-41.015625,-1.0,-1.0,1.0,0.0,2.m4v,8.0
2024-02-28 10:15:23.980314,1709111723.980314,-5.37109375,-58.10546875,-29.296875,-25.390625,-1.0,-1.0,1.0,0.0,2.m4v,8.0
2024-02-28 10:15:23.984225,1709111723.9842253,9.765625,-47.36328125,-41.50390625,-12.6953125,-1.0,-1.0,1.0,0.0,2.m4v,8.0
2024-02-28 10:15:23.988131,1709111723.9881308,0.9765625,-43.45703125,-36.62109375,-18.06640625,-1.0,-1.0,1.0,0.0,2.m4v,8.0
2024-02-28 10:15:23.992036,1709111723.992036,-19.04296875,-42.96875,-29.78515625,-3.90625,-1.0,-1.0,1.0,0.0,2.m4v,8.0
2024-02-28 10:15:23.995941,1709111723.9959414,-17.08984375,-30.2734375,-45.41015625,34.1796875,-1.0,-1.0,1.0,0.0,2.m4v,8.0
2024-02-28 10:15:23.999847,1709111723.9998467,17.578125,-17.08984375,-64.94140625,33.203125,-1.0,-1.0,1.0,0.0,2.m4v,8.0
2024-02-28 10:15:24.003752,1709111724.0037522,20.99609375,-25.390625,-47.8515625,3.41796875,-1.0,-1.0,1.0,0.0,2.m4v,8.0
2024-02-28 10:15:24.011563,1709111724.0115628,1.46484375,-26.3671875,-12.6953125,-6.8359375,-1.0,-1.0,1.0,0.0,2.m4v,8.0
2024-02-28 10:15:24.015468,1709111724.015468,13.18359375,-35.64453125,-33.203125,-5.37109375,-1.0,-1.0,1.0,0.0,2.m4v,8.0
2024-02-28 10:15:24.019374,1709111724.0193737,6.8359375,-47.8515625,-33.203125,-7.8125,-1.0,-1.0,1.0,0.0,2.m4v,8.0
2024-02-28 10:15:24.023279,1709111724.023279,-6.34765625,-60.05859375,-23.4375,41.9921875,-1.0,-1.0,1.0,0.0,2.m4v,8.0
2024-02-28 10:15:24.027184,1709111724.0271842,2.9296875,-55.6640625,-20.5078125,58.59375,-1.0,-1.0,1.0,0.0,2.m4v,8.0
2024-02-28 10:15:24.031096,1709111724.0310955,-13.18359375,-35.15625,-38.57421875,2.44140625,-1.0,-1.0,1.0,0.0,2.m4v,8.0
2024-02-28 10:15:24.035001,1709111724.035001,-21.97265625,-21.484375,-64.453125,-7.32421875,-1.0,-1.0,1.0,0.0,2.m4v,8.0
2024-02-28 10:15:24.038906,1709111724.0389063,-4.8828125,-13.671875,-56.15234375,-2.44140625,-1.0,-1.0,1.0,0.0,2.m4v,8.0
2024-02-28 10:15:24.042812,1709111724.0428116,-14.16015625,-18.06640625,-35.64453125,-14.16015625,-1.0,-1.0,1.0,0.0,2.m4v,8.0
2024-02-28 10:15:24.046717,1709111724.046717,-26.3671875,-31.73828125,-25.87890625,-3.90625,-1.0,-1.0,1.0,0.0,2.m4v,8.0
2024-02-28 10:15:24.050622,1709111724.0506225,-16.6015625,-35.64453125,-37.109375,-19.04296875,-1.0,-1.0,1.0,0.0,2.m4v,8.0
2024-02-28 10:15:24.054528,1709111724.0545278,-12.6953125,-41.9921875,-46.38671875,-27.83203125,-1.0,-1.0,1.0,0.0,2.m4v,8.0
2024-02-28 10:15:24.058433,1709111724.058433,-20.99609375,-51.7578125,-14.6484375,-10.25390625,-1.0,-1.0,1.0,0.0,2.m4v,8.0
2024-02-28 10:15:24.062338,1709111724.0623384,-20.5078125,-68.359375,-19.53125,1.953125,-1.0,-1.0,1.0,0.0,2.m4v,8.0
2024-02-28 10:15:24.066244,1709111724.066244,-24.90234375,-58.59375,-52.24609375,11.71875,-1.0,-1.0,1.0,0.0,2.m4v,8.0
2024-02-28 10:15:24.070149,1709111724.0701492,-30.2734375,-13.671875,-33.69140625,12.6953125,-1.0,-1.0,1.0,0.0,2.m4v,8.0
2024-02-28 10:15:24.074054,1709111724.0740545,-27.34375,-2.9296875,-23.4375,-11.71875,-1.0,-1.0,1.0,0.0,2.m4v,8.0
2024-02-28 10:15:24.077965,1709111724.0779648,-32.2265625,-20.5078125,-46.38671875,-13.18359375,-1.0,-1.0,1.0,0.0,2.m4v,8.0
2024-02-28 10:15:24.081870,1709111724.08187,-42.96875,-25.390625,-41.015625,-26.3671875,-1.0,-1.0,1.0,0.0,2.m4v,8.0
2024-02-28 10:15:24.085776,1709111724.0857756,-57.12890625,-25.87890625,-35.64453125,-53.22265625,-1.0,-1.0,1.0,0.0,2.m4v,8.0
2024-02-28 10:15:24.089681,1709111724.089681,-50.29296875,-29.78515625,-46.875,-31.25,-1.0,-1.0,1.0,0.0,2.m4v,8.0
2024-02-28 10:15:24.093586,1709111724.0935862,-38.57421875,-41.9921875,-42.48046875,-3.41796875,-1.0,-1.0,1.0,0.0,2.m4v,8.0
2024-02-28 10:15:24.456838,1709111724.4568377,-42.48046875,-34.1796875,-43.45703125,-14.16015625,-1.0,-1.0,1.0,0.0,2.m4v,8.0
2024-02-28 10:15:24.468554,1709111724.4685535,-36.1328125,-50.78125,0.48828125,-32.2265625,-1.0,-1.0,1.0,0.0,2.m4v,8.0
2024-02-28 10:15:24.476364,1709111724.4763644,-25.390625,-21.97265625,-58.10546875,-12.20703125,-1.0,-1.0,1.0,0.0,2.m4v,8.0
2024-02-28 10:15:24.488081,1709111724.4880805,-37.109375,-16.11328125,-19.53125,-46.875,-1.0,-1.0,1.0,0.0,2.m4v,8.0
2024-02-28 10:15:24.499801,1709111724.499801,-32.71484375,-28.3203125,-39.0625,-13.18359375,-1.0,-1.0,1.0,0.0,2.m4v,8.0
2024-02-28 10:15:24.507612,1709111724.5076118,-50.29296875,-65.91796875,-29.78515625,-40.0390625,-1.0,-1.0,1.0,0.0,2.m4v,8.0
2024-02-28 10:15:24.519328,1709111724.5193276,-35.15625,-44.921875,-25.390625,-39.55078125,-1.0,-1.0,1.0,0.0,2.m4v,8.0
2024-02-28 10:15:24.531044,1709111724.5310438,-29.78515625,-14.16015625,-53.22265625,-35.64453125,-1.0,-1.0,1.0,0.0,2.m4v,8.0
2024-02-28 10:15:24.538855,1709111724.5388546,-44.43359375,-27.34375,-21.484375,-29.78515625,-1.0,-1.0,1.0,0.0,2.m4v,8.0
2024-02-28 10:15:24.550574,1709111724.5505743,-35.15625,-37.59765625,-11.23046875,-42.96875,-1.0,-1.0,1.0,0.0,2.m4v,8.0
2024-02-28 10:15:24.562290,1709111724.5622904,-43.9453125,-33.69140625,-44.43359375,-52.734375,-1.0,-1.0,1.0,0.0,2.m4v,8.0
2024-02-28 10:15:24.570101,1709111724.5701013,-19.53125,-38.0859375,-45.8984375,-39.55078125,-1.0,-1.0,1.0,0.0,2.m4v,8.0
2024-02-28 10:15:24.581817,1709111724.5818172,-16.11328125,-30.76171875,-10.25390625,9.765625,-1.0,-1.0,1.0,0.0,2.m4v,8.0
2024-02-28 10:15:24.593541,1709111724.593541,-29.296875,-30.76171875,-30.2734375,-28.3203125,-1.0,-1.0,1.0,0.0,2.m4v,8.0
2024-02-28 10:15:24.601351,1709111724.6013515,-33.203125,-56.15234375,-30.2734375,-53.7109375,-1.0,-1.0,1.0,0.0,2.m4v,8.0
2024-02-28 10:15:24.613067,1709111724.6130674,-4.39453125,-18.5546875,-46.875,0.9765625,-1.0,-1.0,1.0,0.0,2.m4v,8.0
2024-02-28 10:15:24.624784,1709111724.6247835,0.0,-23.4375,-12.6953125,-24.90234375,-1.0,-1.0,1.0,0.0,2.m4v,8.0
2024-02-28 10:15:24.632594,1709111724.6325943,-20.5078125,-33.203125,-67.3828125,13.671875,-1.0,-1.0,1.0,0.0,2.m4v,8.0
2024-02-28 10:15:24.644317,1709111724.6443172,-16.11328125,-39.0625,-13.18359375,-23.92578125,-1.0,-1.0,1.0,0.0,2.m4v,8.0
2024-02-28 10:15:24.656033,1709111724.6560333,-11.71875,-41.50390625,-17.08984375,-4.39453125,-1.0,-1.0,1.0,0.0,2.m4v,8.0
2024-02-28 10:15:24.663844,1709111724.663844,-5.859375,-21.97265625,-53.22265625,6.8359375,-1.0,-1.0,1.0,0.0,2.m4v,8.0
2024-02-28 10:15:24.675560,1709111724.67556,-18.06640625,-23.92578125,-66.89453125,19.53125,-1.0,-1.0,1.0,0.0,2.m4v,8.0
2024-02-28 10:15:24.687283,1709111724.6872828,-37.109375,-41.015625,-8.7890625,-34.1796875,-1.0,-1.0,1.0,0.0,2.m4v,8.0
2024-02-28 10:15:24.695094,1709111724.6950936,-27.83203125,-47.36328125,-15.13671875,-6.34765625,-1.0,-1.0,1.0,0.0,2.m4v,8.0
2024-02-28 10:15:24.706810,1709111724.7068095,3.41796875,-36.1328125,-50.78125,16.6015625,-1.0,-1.0,1.0,0.0,2.m4v,8.0
2024-02-28 10:15:24.718526,1709111724.7185256,-1.953125,-53.7109375,-14.6484375,20.5078125,-1.0,-1.0,1.0,0.0,2.m4v,8.0
2024-02-28 10:15:24.726336,1709111724.7263365,-39.0625,-34.66796875,-14.6484375,-16.6015625,-1.0,-1.0,1.0,0.0,2.m4v,8.0
2024-02-28 10:15:24.738058,1709111724.738058,-31.25,-30.76171875,-26.85546875,-14.16015625,-1.0,-1.0,1.0,0.0,2.m4v,8.0
2024-02-28 10:15:24.749774,1709111724.7497742,-34.1796875,-33.203125,-52.734375,-13.18359375,-1.0,-1.0,1.0,0.0,2.m4v,8.0
2024-02-28 10:15:24.757585,1709111724.7575848,-28.3203125,-34.1796875,-31.73828125,-25.87890625,-1.0,-1.0,1.0,0.0,2.m4v,8.0
2024-02-28 10:15:24.769301,1709111724.769301,-40.52734375,-44.43359375,-23.92578125,-56.640625,-1.0,-1.0,1.0,0.0,2.m4v,8.0
2024-02-28 10:15:24.781022,1709111724.7810223,-44.43359375,-37.109375,-32.2265625,-62.01171875,-1.0,-1.0,1.0,0.0,2.m4v,8.0
2024-02-28 10:15:24.788833,1709111724.788833,-62.98828125,-31.73828125,-34.1796875,-60.546875,-1.0,-1.0,1.0,0.0,2.m4v,8.0
2024-02-28 10:15:24.800549,1709111724.800549,-66.89453125,-54.19921875,-28.3203125,-79.58984375,-1.0,-1.0,1.0,0.0,2.m4v,8.0
2024-02-28 10:15:24.812265,1709111724.8122652,-59.5703125,-38.57421875,-26.85546875,-85.44921875,-1.0,-1.0,1.0,0.0,2.m4v,8.0
2024-02-28 10:15:24.820076,1709111724.8200758,-66.40625,-39.0625,-65.91796875,-76.66015625,-1.0,-1.0,1.0,0.0,2.m4v,8.0
2024-02-28 10:15:24.831801,1709111724.8318007,-64.453125,-61.5234375,-17.08984375,-86.9140625,-1.0,-1.0,1.0,0.0,2.m4v,8.0
2024-02-28 10:15:24.831801,1709111724.8318007,-64.453125,-61.5234375,-17.08984375,-86.9140625,-1.0,-1.0,1.0,0.0,2.m4v,8.0
2024-02-28 10:15:24.843517,1709111724.8435168,-55.17578125,-23.92578125,-20.01953125,-65.4296875,-1.0,-1.0,1.0,0.0,2.m4v,8.0
2024-02-28 10:15:24.843517,1709111724.8435168,-55.17578125,-23.92578125,-20.01953125,-65.4296875,-1.0,-1.0,1.0,0.0,2.m4v,8.0
2024-02-28 10:15:24.851328,1709111724.8513277,-67.87109375,-27.83203125,-56.15234375,-83.49609375,-1.0,-1.0,1.0,0.0,2.m4v,8.0
2024-02-28 10:15:24.851328,1709111724.8513277,-67.87109375,-27.83203125,-56.15234375,-83.49609375,-1.0,-1.0,1.0,0.0,2.m4v,8.0
2024-02-28 10:15:24.863044,1709111724.8630435,-69.82421875,-30.2734375,-16.11328125,-98.14453125,-1.0,-1.0,1.0,0.0,2.m4v,8.0
2024-02-28 10:15:24.863044,1709111724.8630435,-69.82421875,-30.2734375,-16.11328125,-98.14453125,-1.0,-1.0,1.0,0.0,2.m4v,8.0
2024-02-28 10:15:24.874765,1709111724.8747647,-62.5,-11.23046875,-65.4296875,-62.98828125,-1.0,-1.0,1.0,0.0,2.m4v,8.0
2024-02-28 10:15:24.874765,1709111724.8747647,-62.5,-11.23046875,-65.4296875,-62.98828125,-1.0,-1.0,1.0,0.0,2.m4v,8.0
2024-02-28 10:15:24.882575,1709111724.8825753,-82.51953125,-57.6171875,6.34765625,-104.98046875,-1.0,-1.0,1.0,0.0,2.m4v,8.0
2024-02-28 10:15:24.882575,1709111724.8825753,-82.51953125,-57.6171875,6.34765625,-104.98046875,-1.0,-1.0,1.0,0.0,2.m4v,8.0
2024-02-28 10:15:24.894291,1709111724.8942914,-82.03125,-24.4140625,-18.5546875,-122.55859375,-1.0,-1.0,1.0,0.0,2.m4v,8.0
2024-02-28 10:15:24.894291,1709111724.8942914,-82.03125,-24.4140625,-18.5546875,-122.55859375,-1.0,-1.0,1.0,0.0,2.m4v,8.0
2024-02-28 10:15:24.898197,1709111724.8981967,-77.1484375,-9.765625,-33.69140625,-88.8671875,-1.0,-1.0,1.0,0.0,2.m4v,8.0
2024-02-28 10:15:24.902102,1709111724.902102,-76.66015625,-9.765625,-62.01171875,-86.42578125,-1.0,-1.0,1.0,0.0,2.m4v,8.0
2024-02-28 10:15:24.906008,1709111724.9060075,-92.7734375,-17.578125,-63.4765625,-119.62890625,-1.0,-1.0,1.0,0.0,2.m4v,8.0
2024-02-28 10:15:24.909913,1709111724.9099128,-113.76953125,-37.59765625,-55.17578125,-136.71875,-1.0,-1.0,1.0,0.0,2.m4v,8.0
2024-02-28 10:15:24.913818,1709111724.913818,-120.60546875,-49.8046875,-21.484375,-145.5078125,-1.0,-1.0,1.0,0.0,2.m4v,8.0
2024-02-28 10:15:24.917723,1709111724.9177234,-132.8125,-51.26953125,8.7890625,-165.0390625,-1.0,-1.0,1.0,0.0,2.m4v,8.0
2024-02-28 10:15:24.921633,1709111724.9216328,-143.06640625,-49.8046875,-8.30078125,-166.015625,-1.0,-1.0,1.0,0.0,2.m4v,8.0
2024-02-28 10:15:24.925538,1709111724.925538,-148.92578125,-41.015625,-25.87890625,-164.0625,-1.0,-1.0,1.0,0.0,2.m4v,8.0
2024-02-28 10:15:24.929443,1709111724.9294434,-147.4609375,-42.96875,-24.4140625,-166.015625,-1.0,-1.0,1.0,0.0,2.m4v,8.0
2024-02-28 10:15:24.933349,1709111724.933349,-135.7421875,-44.43359375,-22.4609375,-159.66796875,-1.0,-1.0,1.0,0.0,2.m4v,8.0
2024-02-28 10:15:24.937254,1709111724.9372542,-100.09765625,-35.15625,-24.90234375,-128.41796875,-1.0,-1.0,1.0,0.0,2.m4v,8.0
2024-02-28 10:15:24.941159,1709111724.9411595,-57.12890625,-31.25,-45.8984375,-98.14453125,-1.0,-1.0,1.0,0.0,2.m4v,8.0
2024-02-28 10:15:24.945065,1709111724.9450648,-54.6875,-38.57421875,-74.70703125,-105.46875,-1.0,-1.0,1.0,0.0,2.m4v,8.0
2024-02-28 10:15:24.948970,1709111724.94897,-51.7578125,-31.25,-48.33984375,-103.02734375,-1.0,-1.0,1.0,0.0,2.m4v,8.0
2024-02-28 10:15:24.952876,1709111724.9528756,-30.76171875,-25.390625,-15.13671875,-75.1953125,-1.0,-1.0,1.0,0.0,2.m4v,8.0
2024-02-28 10:15:24.956781,1709111724.956781,-22.4609375,-29.296875,-23.4375,-53.7109375,-1.0,-1.0,1.0,0.0,2.m4v,8.0
2024-02-28 10:15:24.960686,1709111724.9606862,-14.6484375,-33.69140625,-18.06640625,-35.64453125,-1.0,-1.0,1.0,0.0,2.m4v,8.0
2024-02-28 10:15:24.964592,1709111724.9645915,-16.6015625,-46.38671875,-10.25390625,-29.296875,-1.0,-1.0,1.0,0.0,2.m4v,8.0
2024-02-28 10:15:24.968504,1709111724.9685044,-20.99609375,-51.26953125,-33.69140625,-7.32421875,-1.0,-1.0,1.0,0.0,2.m4v,8.0
2024-02-28 10:15:24.972410,1709111724.9724095,-19.04296875,-38.0859375,-31.73828125,2.44140625,-1.0,-1.0,1.0,0.0,2.m4v,8.0
2024-02-28 10:15:24.976315,1709111724.976315,-9.27734375,-19.04296875,-21.484375,-5.859375,-1.0,-1.0,1.0,0.0,2.m4v,8.0
2024-02-28 10:15:24.980220,1709111724.9802203,15.13671875,-20.01953125,-57.12890625,-5.859375,-1.0,-1.0,1.0,0.0,2.m4v,8.0
2024-02-28 10:15:24.984126,1709111724.984126,2.9296875,-29.78515625,-81.54296875,15.13671875,-1.0,-1.0,1.0,0.0,2.m4v,8.0
2024-02-28 10:15:24.988031,1709111724.9880311,-0.9765625,-35.64453125,-43.9453125,7.32421875,-1.0,-1.0,1.0,0.0,2.m4v,8.0
2024-02-28 10:15:24.991936,1709111724.9919364,8.30078125,-39.0625,0.48828125,-34.66796875,-1.0,-1.0,1.0,0.0,2.m4v,8.0
2024-02-28 10:15:24.995842,1709111724.9958415,-25.390625,-53.22265625,1.953125,-31.25,-1.0,-1.0,1.0,0.0,2.m4v,8.0
2024-02-28 10:15:24.999747,1709111724.9997473,-44.921875,-57.6171875,-11.71875,-34.1796875,-1.0,-1.0,1.0,0.0,2.m4v,8.0
2024-02-28 10:15:25.003653,1709111725.0036526,-34.1796875,-42.48046875,-14.16015625,-37.109375,-1.0,-1.0,1.0,0.0,2.m4v,8.0
2024-02-28 10:15:25.007558,1709111725.007558,-16.11328125,-27.34375,-31.73828125,-17.578125,-1.0,-1.0,1.0,0.0,2.m4v,8.0
2024-02-28 10:15:25.011463,1709111725.0114632,7.32421875,-12.20703125,-45.41015625,-1.953125,-1.0,-1.0,1.0,0.0,2.m4v,8.0
2024-02-28 10:15:25.015375,1709111725.0153754,-4.8828125,-31.73828125,-30.2734375,-3.41796875,-1.0,-1.0,1.0,0.0,2.m4v,8.0
2024-02-28 10:15:25.019281,1709111725.019281,-20.01953125,-45.41015625,-24.4140625,-0.9765625,-1.0,-1.0,1.0,0.0,2.m4v,8.0
2024-02-28 10:15:25.023186,1709111725.0231862,-4.39453125,-34.1796875,-40.0390625,-2.9296875,-1.0,-1.0,1.0,0.0,2.m4v,8.0
2024-02-28 10:15:25.027092,1709111725.0270915,-11.71875,-41.50390625,-39.55078125,-20.01953125,-1.0,-1.0,1.0,0.0,2.m4v,8.0
2024-02-28 10:15:25.030997,1709111725.0309968,-27.83203125,-30.76171875,-26.85546875,-23.92578125,-1.0,-1.0,1.0,0.0,2.m4v,8.0
2024-02-28 10:15:25.034902,1709111725.034902,-29.78515625,-24.90234375,-29.296875,-3.41796875,-1.0,-1.0,1.0,0.0,2.m4v,8.0
2024-02-28 10:15:25.484079,1709111725.4840791,-77.1484375,-22.94921875,-40.0390625,-70.3125,-1.0,-1.0,1.0,0.0,2.m4v,8.0
2024-02-28 10:15:25.484079,1709111725.4840791,-77.1484375,-22.94921875,-40.0390625,-70.3125,-1.0,-1.0,1.0,0.0,2.m4v,8.0
2024-02-28 10:15:25.777011,1709111725.777011,-21.97265625,-47.8515625,-8.7890625,-29.296875,-1.0,-1.0,1.0,0.0,2.m4v,8.0
2024-02-28 10:15:25.784821,1709111725.7848213,-10.25390625,-41.50390625,-51.7578125,-33.69140625,-1.0,-1.0,1.0,0.0,2.m4v,8.0
2024-02-28 10:15:25.792632,1709111725.792632,-20.01953125,-45.41015625,-27.34375,-10.25390625,-1.0,-1.0,1.0,0.0,2.m4v,8.0
2024-02-28 10:15:25.800443,1709111725.8004427,-0.48828125,-20.01953125,-63.4765625,0.0,-1.0,-1.0,1.0,0.0,2.m4v,8.0
2024-02-28 10:15:25.808254,1709111725.8082535,-10.25390625,-26.3671875,-1.46484375,-25.87890625,-1.0,-1.0,1.0,0.0,2.m4v,8.0
2024-02-28 10:15:25.816071,1709111725.8160706,0.9765625,-41.9921875,-34.66796875,-8.7890625,-1.0,-1.0,1.0,0.0,2.m4v,8.0
2024-02-28 10:15:25.823881,1709111725.8238814,-5.37109375,-44.921875,-41.9921875,13.671875,-1.0,-1.0,1.0,0.0,2.m4v,8.0
2024-02-28 10:15:25.831692,1709111725.831692,16.6015625,-33.69140625,-80.078125,35.15625,-1.0,-1.0,1.0,0.0,2.m4v,8.0
2024-02-28 10:15:25.839503,1709111725.8395028,6.34765625,-49.31640625,-23.4375,10.25390625,-1.0,-1.0,1.0,0.0,2.m4v,8.0
2024-02-28 10:15:25.847313,1709111725.8473134,0.48828125,-30.76171875,-1.953125,11.23046875,-1.0,-1.0,1.0,0.0,2.m4v,8.0
2024-02-28 10:15:25.855124,1709111725.8551242,5.859375,-42.96875,-15.13671875,20.5078125,-1.0,-1.0,1.0,0.0,2.m4v,8.0
2024-02-28 10:15:25.862941,1709111725.8629408,-24.4140625,-32.71484375,-38.0859375,-34.1796875,-1.0,-1.0,1.0,0.0,2.m4v,8.0
2024-02-28 10:15:25.870752,1709111725.8707516,-23.92578125,-35.64453125,-52.24609375,0.48828125,-1.0,-1.0,1.0,0.0,2.m4v,8.0
2024-02-28 10:15:25.878562,1709111725.8785622,-5.37109375,-32.2265625,-36.62109375,4.39453125,-1.0,-1.0,1.0,0.0,2.m4v,8.0
2024-02-28 10:15:25.886373,1709111725.886373,-52.24609375,-57.6171875,-14.6484375,-35.64453125,-1.0,-1.0,1.0,0.0,2.m4v,8.0
2024-02-28 10:15:25.894184,1709111725.8941836,-44.43359375,-21.484375,-29.78515625,-38.57421875,-1.0,-1.0,1.0,0.0,2.m4v,8.0
2024-02-28 10:15:25.901994,1709111725.9019945,-40.52734375,-25.87890625,-43.9453125,-24.4140625,-1.0,-1.0,1.0,0.0,2.m4v,8.0
2024-02-28 10:15:25.909811,1709111725.9098103,-40.52734375,-33.203125,-39.55078125,-31.73828125,-1.0,-1.0,1.0,0.0,2.m4v,8.0
2024-02-28 10:15:25.917621,1709111725.9176211,-62.98828125,-52.734375,-34.1796875,-50.78125,-1.0,-1.0,1.0,0.0,2.m4v,8.0
2024-02-28 10:15:25.925432,1709111725.925432,-45.41015625,-53.7109375,-10.7421875,-49.8046875,-1.0,-1.0,1.0,0.0,2.m4v,8.0
2024-02-28 10:15:25.933243,1709111725.9332426,-54.19921875,-41.9921875,-40.52734375,-58.59375,-1.0,-1.0,1.0,0.0,2.m4v,8.0
2024-02-28 10:15:25.941053,1709111725.9410534,-41.015625,-39.55078125,-44.43359375,-53.22265625,-1.0,-1.0,1.0,0.0,2.m4v,8.0
2024-02-28 10:15:25.948864,1709111725.948864,-74.70703125,-15.13671875,-39.0625,-56.640625,-1.0,-1.0,1.0,0.0,2.m4v,8.0
2024-02-28 10:15:25.956680,1709111725.9566803,-69.82421875,-30.2734375,-41.50390625,-65.4296875,-1.0,-1.0,1.0,0.0,2.m4v,8.0
2024-02-28 10:15:25.964491,1709111725.9644911,-61.03515625,-47.36328125,-28.80859375,-71.77734375,-1.0,-1.0,1.0,0.0,2.m4v,8.0
2024-02-28 10:15:25.972302,1709111725.9723015,-67.87109375,-38.57421875,-22.4609375,-94.7265625,-1.0,-1.0,1.0,0.0,2.m4v,8.0
2024-02-28 10:15:25.980113,1709111725.9801126,-59.08203125,-25.87890625,-49.31640625,-78.61328125,-1.0,-1.0,1.0,0.0,2.m4v,8.0
2024-02-28 10:15:25.987923,1709111725.9879231,-74.70703125,-40.0390625,-31.73828125,-91.30859375,-1.0,-1.0,1.0,0.0,2.m4v,8.0
2024-02-28 10:15:25.995734,1709111725.995734,-64.453125,-24.90234375,-26.3671875,-95.703125,-1.0,-1.0,1.0,0.0,2.m4v,8.0
2024-02-28 10:15:26.003549,1709111726.003549,-62.98828125,-37.109375,-24.4140625,-95.703125,-1.0,-1.0,1.0,0.0,2.m4v,8.0
2024-02-28 10:15:26.003549,1709111726.003549,-62.98828125,-37.109375,-24.4140625,-95.703125,-1.0,-1.0,1.0,0.0,2.m4v,8.0
2024-02-28 10:15:26.011360,1709111726.0113597,-54.6875,-34.1796875,-15.13671875,-62.98828125,-1.0,-1.0,1.0,0.0,2.m4v,8.0
2024-02-28 10:15:26.011360,1709111726.0113597,-54.6875,-34.1796875,-15.13671875,-62.98828125,-1.0,-1.0,1.0,0.0,2.m4v,8.0
2024-02-28 10:15:26.019171,1709111726.0191703,-35.64453125,-22.94921875,-64.453125,-68.84765625,-1.0,-1.0,1.0,0.0,2.m4v,8.0
2024-02-28 10:15:26.019171,1709111726.0191703,-35.64453125,-22.94921875,-64.453125,-68.84765625,-1.0,-1.0,1.0,0.0,2.m4v,8.0
2024-02-28 10:15:26.026981,1709111726.026981,-48.33984375,-55.6640625,-30.2734375,-56.15234375,-1.0,-1.0,1.0,0.0,2.m4v,8.0
2024-02-28 10:15:26.026981,1709111726.026981,-48.33984375,-55.6640625,-30.2734375,-56.15234375,-1.0,-1.0,1.0,0.0,2.m4v,8.0
2024-02-28 10:15:26.034792,1709111726.034792,-32.2265625,-38.0859375,-27.83203125,-44.43359375,-1.0,-1.0,1.0,0.0,2.m4v,8.0
2024-02-28 10:15:26.034792,1709111726.034792,-32.2265625,-38.0859375,-27.83203125,-44.43359375,-1.0,-1.0,1.0,0.0,2.m4v,8.0
2024-02-28 10:15:26.042603,1709111726.0426023,-52.24609375,-44.921875,-18.5546875,-61.03515625,-1.0,-1.0,1.0,0.0,2.m4v,8.0
2024-02-28 10:15:26.042603,1709111726.0426023,-52.24609375,-44.921875,-18.5546875,-61.03515625,-1.0,-1.0,1.0,0.0,2.m4v,8.0
2024-02-28 10:15:26.050417,1709111726.0504172,-23.4375,-18.06640625,-31.25,-25.87890625,-1.0,-1.0,1.0,0.0,2.m4v,8.0
2024-02-28 10:15:26.050417,1709111726.0504172,-23.4375,-18.06640625,-31.25,-25.87890625,-1.0,-1.0,1.0,0.0,2.m4v,8.0
2024-02-28 10:15:26.058228,1709111726.058228,-29.296875,-28.80859375,-12.20703125,-35.64453125,-1.0,-1.0,1.0,0.0,2.m4v,8.0
2024-02-28 10:15:26.058228,1709111726.058228,-29.296875,-28.80859375,-12.20703125,-35.64453125,-1.0,-1.0,1.0,0.0,2.m4v,8.0
2024-02-28 10:15:26.066039,1709111726.0660386,-57.6171875,-48.33984375,-18.06640625,-60.05859375,-1.0,-1.0,1.0,0.0,2.m4v,8.0
2024-02-28 10:15:26.066039,1709111726.0660386,-57.6171875,-48.33984375,-18.06640625,-60.05859375,-1.0,-1.0,1.0,0.0,2.m4v,8.0
2024-02-28 10:15:26.073849,1709111726.0738494,-31.25,-41.9921875,-18.5546875,-47.36328125,-1.0,-1.0,1.0,0.0,2.m4v,8.0
2024-02-28 10:15:26.081660,1709111726.08166,-46.38671875,-35.64453125,-60.546875,-42.96875,-1.0,-1.0,1.0,0.0,2.m4v,8.0
2024-02-28 10:15:26.089471,1709111726.0894709,-30.76171875,-40.0390625,-44.43359375,-38.57421875,-1.0,-1.0,1.0,0.0,2.m4v,8.0
2024-02-28 10:15:26.468344,1709111726.4683435,-93.26171875,-35.15625,-47.36328125,-109.86328125,-1.0,-1.0,1.0,0.0,2.m4v,8.0
2024-02-28 10:15:26.472249,1709111726.472249,-92.28515625,-59.5703125,-22.4609375,-103.02734375,-1.0,-1.0,1.0,0.0,2.m4v,8.0
2024-02-28 10:15:26.476155,1709111726.4761546,-83.984375,-66.40625,-16.11328125,-104.00390625,-1.0,-1.0,1.0,0.0,2.m4v,8.0
2024-02-28 10:15:26.480060,1709111726.48006,-76.171875,-47.36328125,-23.4375,-107.91015625,-1.0,-1.0,1.0,0.0,2.m4v,8.0
2024-02-28 10:15:26.483965,1709111726.4839652,-72.265625,-30.76171875,-23.92578125,-102.5390625,-1.0,-1.0,1.0,0.0,2.m4v,8.0
2024-02-28 10:15:26.487870,1709111726.4878705,-80.078125,-24.90234375,-50.29296875,-87.890625,-1.0,-1.0,1.0,0.0,2.m4v,8.0
2024-02-28 10:15:26.491776,1709111726.491776,-74.70703125,-34.66796875,-47.36328125,-87.40234375,-1.0,-1.0,1.0,0.0,2.m4v,8.0
2024-02-28 10:15:26.495681,1709111726.4956813,-57.12890625,-31.73828125,-8.7890625,-79.58984375,-1.0,-1.0,1.0,0.0,2.m4v,8.0
2024-02-28 10:15:26.499587,1709111726.4995866,-70.3125,-18.06640625,-18.5546875,-71.77734375,-1.0,-1.0,1.0,0.0,2.m4v,8.0
2024-02-28 10:15:26.503492,1709111726.503492,-74.70703125,-31.25,-44.43359375,-68.359375,-1.0,-1.0,1.0,0.0,2.m4v,8.0
2024-02-28 10:15:26.507397,1709111726.5073974,-46.875,-30.76171875,-38.57421875,-55.17578125,-1.0,-1.0,1.0,0.0,2.m4v,8.0
2024-02-28 10:15:26.511303,1709111726.5113027,-33.69140625,-22.94921875,-26.85546875,-38.0859375,-1.0,-1.0,1.0,0.0,2.m4v,8.0
2024-02-28 10:15:26.515215,1709111726.515215,-36.1328125,-29.78515625,-34.1796875,-40.0390625,-1.0,-1.0,1.0,0.0,2.m4v,8.0
2024-02-28 10:15:26.519120,1709111726.5191202,-34.66796875,-38.57421875,-34.1796875,-56.15234375,-1.0,-1.0,1.0,0.0,2.m4v,8.0
2024-02-28 10:15:26.523026,1709111726.5230255,-20.99609375,-32.2265625,-48.828125,-30.76171875,-1.0,-1.0,1.0,0.0,2.m4v,8.0
2024-02-28 10:15:26.526931,1709111726.526931,-17.08984375,-19.04296875,-51.26953125,-13.18359375,-1.0,-1.0,1.0,0.0,2.m4v,8.0
2024-02-28 10:15:26.530836,1709111726.5308363,-26.3671875,-21.97265625,-28.80859375,-26.3671875,-1.0,-1.0,1.0,0.0,2.m4v,8.0
2024-02-28 10:15:26.534742,1709111726.5347416,-18.5546875,-25.390625,-36.1328125,-19.53125,-1.0,-1.0,1.0,0.0,2.m4v,8.0
2024-02-28 10:15:26.538647,1709111726.5386472,-14.16015625,-30.76171875,-58.59375,-7.8125,-1.0,-1.0,1.0,0.0,2.m4v,8.0
2024-02-28 10:15:26.542552,1709111726.5425525,-34.66796875,-30.2734375,-32.2265625,-25.87890625,-1.0,-1.0,1.0,0.0,2.m4v,8.0
2024-02-28 10:15:26.546458,1709111726.5464578,-52.734375,-39.0625,-8.7890625,-41.9921875,-1.0,-1.0,1.0,0.0,2.m4v,8.0
2024-02-28 10:15:26.550363,1709111726.550363,-56.15234375,-51.7578125,-19.53125,-52.24609375,-1.0,-1.0,1.0,0.0,2.m4v,8.0
2024-02-28 10:15:26.554269,1709111726.5542686,-49.31640625,-41.50390625,-43.45703125,-41.50390625,-1.0,-1.0,1.0,0.0,2.m4v,8.0
2024-02-28 10:15:26.558174,1709111726.558174,-40.52734375,-23.92578125,-51.7578125,-20.01953125,-1.0,-1.0,1.0,0.0,2.m4v,8.0
2024-02-28 10:15:26.562086,1709111726.5620856,-37.59765625,-25.390625,-29.78515625,-32.2265625,-1.0,-1.0,1.0,0.0,2.m4v,8.0
2024-02-28 10:15:26.565991,1709111726.565991,-22.94921875,-42.48046875,-20.01953125,-32.71484375,-1.0,-1.0,1.0,0.0,2.m4v,8.0
2024-02-28 10:15:26.569896,1709111726.5698962,-21.97265625,-33.203125,-40.0390625,-37.109375,-1.0,-1.0,1.0,0.0,2.m4v,8.0
2024-02-28 10:15:26.573802,1709111726.5738018,-32.2265625,-18.5546875,-68.84765625,-37.109375,-1.0,-1.0,1.0,0.0,2.m4v,8.0
2024-02-28 10:15:26.577707,1709111726.577707,-28.3203125,-31.25,-59.08203125,-28.80859375,-1.0,-1.0,1.0,0.0,2.m4v,8.0
2024-02-28 10:15:26.581612,1709111726.5816123,-25.87890625,-33.203125,-20.01953125,-9.27734375,-1.0,-1.0,1.0,0.0,2.m4v,8.0
2024-02-28 10:15:26.585518,1709111726.5855176,-23.92578125,-35.64453125,-13.671875,20.01953125,-1.0,-1.0,1.0,0.0,2.m4v,8.0
2024-02-28 10:15:26.589423,1709111726.5894232,-15.625,-53.7109375,-39.0625,-20.99609375,-1.0,-1.0,1.0,0.0,2.m4v,8.0
2024-02-28 10:15:26.593328,1709111726.5933285,-30.76171875,-55.17578125,-27.83203125,-45.41015625,-1.0,-1.0,1.0,0.0,2.m4v,8.0
2024-02-28 10:15:26.597234,1709111726.5972338,-34.66796875,-38.0859375,-14.6484375,-16.6015625,-1.0,-1.0,1.0,0.0,2.m4v,8.0
2024-02-28 10:15:26.601139,1709111726.601139,-26.85546875,-20.01953125,-21.97265625,-16.11328125,-1.0,-1.0,1.0,0.0,2.m4v,8.0
2024-02-28 10:15:26.605045,1709111726.6050446,-23.92578125,-27.34375,-28.3203125,-35.15625,-1.0,-1.0,1.0,0.0,2.m4v,8.0
2024-02-28 10:15:26.608956,1709111726.608956,-6.34765625,-38.57421875,-42.48046875,-30.76171875,-1.0,-1.0,1.0,0.0,2.m4v,8.0
2024-02-28 10:15:26.612862,1709111726.6128616,-20.99609375,-23.92578125,-46.38671875,-16.11328125,-1.0,-1.0,1.0,0.0,2.m4v,8.0
2024-02-28 10:15:26.616767,1709111726.616767,-37.59765625,-21.97265625,-47.36328125,-5.859375,-1.0,-1.0,1.0,0.0,2.m4v,8.0
2024-02-28 10:15:26.620672,1709111726.6206722,-19.53125,-34.1796875,-44.43359375,-15.625,-1.0,-1.0,1.0,0.0,2.m4v,8.0
2024-02-28 10:15:26.624578,1709111726.6245775,-15.13671875,-21.97265625,-28.3203125,-15.625,-1.0,-1.0,1.0,0.0,2.m4v,8.0
2024-02-28 10:15:26.628483,1709111726.628483,-18.06640625,-19.04296875,-24.4140625,-5.859375,-1.0,-1.0,1.0,0.0,2.m4v,8.0
2024-02-28 10:15:26.632388,1709111726.6323884,-31.25,-46.38671875,-29.296875,-26.3671875,-1.0,-1.0,1.0,0.0,2.m4v,8.0
2024-02-28 10:15:26.636294,1709111726.6362936,-41.015625,-57.12890625,-30.2734375,-43.9453125,-1.0,-1.0,1.0,0.0,2.m4v,8.0
2024-02-28 10:15:26.640199,1709111726.640199,-34.66796875,-44.921875,-21.97265625,-48.828125,-1.0,-1.0,1.0,0.0,2.m4v,8.0
2024-02-28 10:15:26.644104,1709111726.6441045,-28.80859375,-31.25,-13.18359375,-37.109375,-1.0,-1.0,1.0,0.0,2.m4v,8.0
2024-02-28 10:15:26.648010,1709111726.6480098,-24.4140625,-32.71484375,-21.97265625,-33.203125,-1.0,-1.0,1.0,0.0,2.m4v,8.0
2024-02-28 10:15:26.651915,1709111726.651915,-28.3203125,-33.203125,-27.34375,-36.62109375,-1.0,-1.0,1.0,0.0,2.m4v,8.0
2024-02-28 10:15:26.655826,1709111726.655826,-24.90234375,-31.25,-50.29296875,-16.6015625,-1.0,-1.0,1.0,0.0,2.m4v,8.0
2024-02-28 10:15:26.659731,1709111726.6597314,-34.66796875,-49.31640625,-64.94140625,-1.953125,-1.0,-1.0,1.0,0.0,2.m4v,8.0
2024-02-28 10:15:26.663637,1709111726.6636367,-32.71484375,-54.6875,-40.52734375,-24.90234375,-1.0,-1.0,1.0,0.0,2.m4v,8.0
2024-02-28 10:15:26.667542,1709111726.667542,-21.97265625,-41.50390625,-31.73828125,-36.1328125,-1.0,-1.0,1.0,0.0,2.m4v,8.0
2024-02-28 10:15:26.671447,1709111726.6714473,-32.2265625,-35.64453125,-33.203125,-25.87890625,-1.0,-1.0,1.0,0.0,2.m4v,8.0
2024-02-28 10:15:26.675353,1709111726.6753528,-36.62109375,-44.43359375,-26.3671875,-43.9453125,-1.0,-1.0,1.0,0.0,2.m4v,8.0
2024-02-28 10:15:26.679258,1709111726.679258,-34.1796875,-49.8046875,-14.16015625,-51.7578125,-1.0,-1.0,1.0,0.0,2.m4v,8.0
2024-02-28 10:15:26.679258,1709111726.679258,-34.1796875,-49.8046875,-14.16015625,-51.7578125,-1.0,-1.0,1.0,0.0,2.m4v,8.0
2024-02-28 10:15:26.683163,1709111726.6831634,-24.90234375,-29.78515625,-13.18359375,-25.390625,-1.0,-1.0,1.0,0.0,2.m4v,8.0
2024-02-28 10:15:26.683163,1709111726.6831634,-24.90234375,-29.78515625,-13.18359375,-25.390625,-1.0,-1.0,1.0,0.0,2.m4v,8.0
2024-02-28 10:15:26.687069,1709111726.6870687,-17.08984375,-21.97265625,-32.71484375,-30.2734375,-1.0,-1.0,1.0,0.0,2.m4v,8.0
2024-02-28 10:15:26.687069,1709111726.6870687,-17.08984375,-21.97265625,-32.71484375,-30.2734375,-1.0,-1.0,1.0,0.0,2.m4v,8.0
2024-02-28 10:15:26.690974,1709111726.6909742,-32.2265625,-29.296875,-34.1796875,-48.33984375,-1.0,-1.0,1.0,0.0,2.m4v,8.0
2024-02-28 10:15:26.690974,1709111726.6909742,-32.2265625,-29.296875,-34.1796875,-48.33984375,-1.0,-1.0,1.0,0.0,2.m4v,8.0
2024-02-28 10:15:26.694880,1709111726.6948795,-42.48046875,-34.66796875,-19.53125,-30.76171875,-1.0,-1.0,1.0,0.0,2.m4v,8.0
2024-02-28 10:15:26.694880,1709111726.6948795,-42.48046875,-34.66796875,-19.53125,-30.76171875,-1.0,-1.0,1.0,0.0,2.m4v,8.0
2024-02-28 10:15:26.698785,1709111726.6987848,-27.34375,-32.71484375,-31.73828125,-22.94921875,-1.0,-1.0,1.0,0.0,2.m4v,8.0
2024-02-28 10:15:26.698785,1709111726.6987848,-27.34375,-32.71484375,-31.73828125,-22.94921875,-1.0,-1.0,1.0,0.0,2.m4v,8.0
2024-02-28 10:15:26.702695,1709111726.7026951,-18.06640625,-25.390625,-63.4765625,-16.11328125,-1.0,-1.0,1.0,0.0,2.m4v,8.0
2024-02-28 10:15:26.702695,1709111726.7026951,-18.06640625,-25.390625,-63.4765625,-16.11328125,-1.0,-1.0,1.0,0.0,2.m4v,8.0
2024-02-28 10:15:26.706601,1709111726.706601,-21.484375,-31.73828125,-66.40625,-19.04296875,-1.0,-1.0,1.0,0.0,2.m4v,8.0
2024-02-28 10:15:26.706601,1709111726.706601,-21.484375,-31.73828125,-66.40625,-19.04296875,-1.0,-1.0,1.0,0.0,2.m4v,8.0
2024-02-28 10:15:26.710506,1709111726.710506,-15.625,-51.26953125,-41.50390625,-0.9765625,-1.0,-1.0,1.0,0.0,2.m4v,8.0
2024-02-28 10:15:26.710506,1709111726.710506,-15.625,-51.26953125,-41.50390625,-0.9765625,-1.0,-1.0,1.0,0.0,2.m4v,8.0
2024-02-28 10:15:26.714411,1709111726.7144113,-12.20703125,-59.5703125,-17.08984375,-3.41796875,-1.0,-1.0,1.0,0.0,2.m4v,8.0
2024-02-28 10:15:26.714411,1709111726.7144113,-12.20703125,-59.5703125,-17.08984375,-3.41796875,-1.0,-1.0,1.0,0.0,2.m4v,8.0
2024-02-28 10:15:26.718317,1709111726.7183166,-32.2265625,-50.78125,-1.953125,-24.4140625,-1.0,-1.0,1.0,0.0,2.m4v,8.0
2024-02-28 10:15:26.718317,1709111726.7183166,-32.2265625,-50.78125,-1.953125,-24.4140625,-1.0,-1.0,1.0,0.0,2.m4v,8.0
2024-02-28 10:15:26.722222,1709111726.722222,-41.50390625,-22.94921875,0.9765625,-54.19921875,-1.0,-1.0,1.0,0.0,2.m4v,8.0
2024-02-28 10:15:26.722222,1709111726.722222,-41.50390625,-22.94921875,0.9765625,-54.19921875,-1.0,-1.0,1.0,0.0,2.m4v,8.0
2024-02-28 10:15:26.726127,1709111726.7261274,-33.69140625,-18.5546875,-7.8125,-49.31640625,-1.0,-1.0,1.0,0.0,2.m4v,8.0
2024-02-28 10:15:26.726127,1709111726.7261274,-33.69140625,-18.5546875,-7.8125,-49.31640625,-1.0,-1.0,1.0,0.0,2.m4v,8.0
2024-02-28 10:15:26.730033,1709111726.7300327,-31.25,-29.78515625,-21.484375,-23.92578125,-1.0,-1.0,1.0,0.0,2.m4v,8.0
2024-02-28 10:15:26.730033,1709111726.7300327,-31.25,-29.78515625,-21.484375,-23.92578125,-1.0,-1.0,1.0,0.0,2.m4v,8.0
2024-02-28 10:15:26.733938,1709111726.733938,-24.90234375,-29.296875,-48.33984375,-32.71484375,-1.0,-1.0,1.0,0.0,2.m4v,8.0
2024-02-28 10:15:26.733938,1709111726.733938,-24.90234375,-29.296875,-48.33984375,-32.71484375,-1.0,-1.0,1.0,0.0,2.m4v,8.0
2024-02-28 10:15:26.737844,1709111726.7378435,-16.11328125,-29.296875,-54.6875,-21.97265625,-1.0,-1.0,1.0,0.0,2.m4v,8.0
2024-02-28 10:15:26.737844,1709111726.7378435,-16.11328125,-29.296875,-54.6875,-21.97265625,-1.0,-1.0,1.0,0.0,2.m4v,8.0
2024-02-28 10:15:26.741749,1709111726.7417488,-17.578125,-31.25,-50.78125,-2.9296875,-1.0,-1.0,1.0,0.0,2.m4v,8.0
2024-02-28 10:15:26.741749,1709111726.7417488,-17.578125,-31.25,-50.78125,-2.9296875,-1.0,-1.0,1.0,0.0,2.m4v,8.0
2024-02-28 10:15:26.745654,1709111726.745654,-25.87890625,-22.94921875,-46.875,-12.20703125,-1.0,-1.0,1.0,0.0,2.m4v,8.0
2024-02-28 10:15:26.745654,1709111726.745654,-25.87890625,-22.94921875,-46.875,-12.20703125,-1.0,-1.0,1.0,0.0,2.m4v,8.0
2024-02-28 10:15:26.749564,1709111726.749564,-29.78515625,-24.4140625,-34.66796875,-20.01953125,-1.0,-1.0,1.0,0.0,2.m4v,8.0
2024-02-28 10:15:26.749564,1709111726.749564,-29.78515625,-24.4140625,-34.66796875,-20.01953125,-1.0,-1.0,1.0,0.0,2.m4v,8.0
2024-02-28 10:15:26.753469,1709111726.7534697,-36.62109375,-47.8515625,-35.64453125,-21.484375,-1.0,-1.0,1.0,0.0,2.m4v,8.0
2024-02-28 10:15:26.753469,1709111726.7534697,-36.62109375,-47.8515625,-35.64453125,-21.484375,-1.0,-1.0,1.0,0.0,2.m4v,8.0
2024-02-28 10:15:26.757375,1709111726.7573748,-37.109375,-54.6875,-12.6953125,-36.1328125,-1.0,-1.0,1.0,0.0,2.m4v,8.0
2024-02-28 10:15:26.757375,1709111726.7573748,-37.109375,-54.6875,-12.6953125,-36.1328125,-1.0,-1.0,1.0,0.0,2.m4v,8.0
2024-02-28 10:15:26.761280,1709111726.76128,-36.62109375,-41.9921875,3.90625,-40.52734375,-1.0,-1.0,1.0,0.0,2.m4v,8.0
2024-02-28 10:15:26.761280,1709111726.76128,-36.62109375,-41.9921875,3.90625,-40.52734375,-1.0,-1.0,1.0,0.0,2.m4v,8.0
2024-02-28 10:15:26.765185,1709111726.7651854,-32.2265625,-24.90234375,-9.765625,-33.203125,-1.0,-1.0,1.0,0.0,2.m4v,8.0
2024-02-28 10:15:26.765185,1709111726.7651854,-32.2265625,-24.90234375,-9.765625,-33.203125,-1.0,-1.0,1.0,0.0,2.m4v,8.0
2024-02-28 10:15:26.769091,1709111726.769091,-24.4140625,-15.13671875,-34.1796875,-17.578125,-1.0,-1.0,1.0,0.0,2.m4v,8.0
2024-02-28 10:15:26.769091,1709111726.769091,-24.4140625,-15.13671875,-34.1796875,-17.578125,-1.0,-1.0,1.0,0.0,2.m4v,8.0
2024-02-28 10:15:26.772996,1709111726.7729962,-17.08984375,-22.94921875,-44.921875,-7.8125,-1.0,-1.0,1.0,0.0,2.m4v,8.0
2024-02-28 10:15:26.772996,1709111726.7729962,-17.08984375,-22.94921875,-44.921875,-7.8125,-1.0,-1.0,1.0,0.0,2.m4v,8.0
2024-02-28 10:15:26.776901,1709111726.7769015,-8.30078125,-25.390625,-37.109375,-18.5546875,-1.0,-1.0,1.0,0.0,2.m4v,8.0
2024-02-28 10:15:26.776901,1709111726.7769015,-8.30078125,-25.390625,-37.109375,-18.5546875,-1.0,-1.0,1.0,0.0,2.m4v,8.0
2024-02-28 10:15:26.780807,1709111726.7808068,0.0,-39.0625,-49.31640625,-15.625,-1.0,-1.0,1.0,0.0,2.m4v,8.0
2024-02-28 10:15:26.780807,1709111726.7808068,0.0,-39.0625,-49.31640625,-15.625,-1.0,-1.0,1.0,0.0,2.m4v,8.0
2024-02-28 10:15:26.784712,1709111726.7847123,-2.9296875,-35.64453125,-46.875,11.71875,-1.0,-1.0,1.0,0.0,2.m4v,8.0
2024-02-28 10:15:26.784712,1709111726.7847123,-2.9296875,-35.64453125,-46.875,11.71875,-1.0,-1.0,1.0,0.0,2.m4v,8.0
2024-02-28 10:15:26.788618,1709111726.7886176,-5.37109375,-20.5078125,-31.73828125,26.85546875,-1.0,-1.0,1.0,0.0,2.m4v,8.0
2024-02-28 10:15:26.788618,1709111726.7886176,-5.37109375,-20.5078125,-31.73828125,26.85546875,-1.0,-1.0,1.0,0.0,2.m4v,8.0
2024-02-28 10:15:26.792523,1709111726.792523,-7.8125,-37.109375,-33.69140625,5.37109375,-1.0,-1.0,1.0,0.0,2.m4v,8.0
2024-02-28 10:15:26.792523,1709111726.792523,-7.8125,-37.109375,-33.69140625,5.37109375,-1.0,-1.0,1.0,0.0,2.m4v,8.0
2024-02-28 10:15:26.796432,1709111726.7964325,2.9296875,-41.9921875,-32.71484375,-4.8828125,-1.0,-1.0,1.0,0.0,2.m4v,8.0
2024-02-28 10:15:26.796432,1709111726.7964325,2.9296875,-41.9921875,-32.71484375,-4.8828125,-1.0,-1.0,1.0,0.0,2.m4v,8.0
2024-02-28 10:15:26.800338,1709111726.800338,-4.39453125,-37.59765625,-21.97265625,-7.8125,-1.0,-1.0,1.0,0.0,2.m4v,8.0
2024-02-28 10:15:26.800338,1709111726.800338,-4.39453125,-37.59765625,-21.97265625,-7.8125,-1.0,-1.0,1.0,0.0,2.m4v,8.0
2024-02-28 10:15:26.804243,1709111726.804243,-18.06640625,-27.83203125,-13.18359375,-1.46484375,-1.0,-1.0,1.0,0.0,2.m4v,8.0
2024-02-28 10:15:26.804243,1709111726.804243,-18.06640625,-27.83203125,-13.18359375,-1.46484375,-1.0,-1.0,1.0,0.0,2.m4v,8.0
2024-02-28 10:15:26.808149,1709111726.8081486,6.8359375,-11.23046875,-30.2734375,1.953125,-1.0,-1.0,1.0,0.0,2.m4v,8.0
2024-02-28 10:15:26.808149,1709111726.8081486,6.8359375,-11.23046875,-30.2734375,1.953125,-1.0,-1.0,1.0,0.0,2.m4v,8.0
2024-02-28 10:15:26.812054,1709111726.812054,12.6953125,-18.06640625,-59.5703125,16.6015625,-1.0,-1.0,1.0,0.0,2.m4v,8.0
2024-02-28 10:15:26.812054,1709111726.812054,12.6953125,-18.06640625,-59.5703125,16.6015625,-1.0,-1.0,1.0,0.0,2.m4v,8.0
2024-02-28 10:15:26.815959,1709111726.8159597,10.25390625,-37.59765625,-54.19921875,47.8515625,-1.0,-1.0,1.0,0.0,2.m4v,8.0
2024-02-28 10:15:26.815959,1709111726.8159597,10.25390625,-37.59765625,-54.19921875,47.8515625,-1.0,-1.0,1.0,0.0,2.m4v,8.0
2024-02-28 10:15:26.819865,1709111726.8198647,15.625,-43.9453125,-21.97265625,32.71484375,-1.0,-1.0,1.0,0.0,2.m4v,8.0
2024-02-28 10:15:26.819865,1709111726.8198647,15.625,-43.9453125,-21.97265625,32.71484375,-1.0,-1.0,1.0,0.0,2.m4v,8.0
2024-02-28 10:15:26.823770,1709111726.82377,9.765625,-53.22265625,-25.87890625,17.578125,-1.0,-1.0,1.0,0.0,2.m4v,8.0
2024-02-28 10:15:26.823770,1709111726.82377,9.765625,-53.22265625,-25.87890625,17.578125,-1.0,-1.0,1.0,0.0,2.m4v,8.0
2024-02-28 10:15:26.827675,1709111726.827675,5.859375,-46.38671875,-28.80859375,49.31640625,-1.0,-1.0,1.0,0.0,2.m4v,8.0
2024-02-28 10:15:26.827675,1709111726.827675,5.859375,-46.38671875,-28.80859375,49.31640625,-1.0,-1.0,1.0,0.0,2.m4v,8.0
2024-02-28 10:15:26.831581,1709111726.8315809,-4.39453125,-32.2265625,-29.296875,34.66796875,-1.0,-1.0,1.0,0.0,2.m4v,8.0
2024-02-28 10:15:26.831581,1709111726.8315809,-4.39453125,-32.2265625,-29.296875,34.66796875,-1.0,-1.0,1.0,0.0,2.m4v,8.0
2024-02-28 10:15:26.835486,1709111726.8354862,-22.4609375,-39.0625,-31.25,-4.8828125,-1.0,-1.0,1.0,0.0,2.m4v,8.0
2024-02-28 10:15:26.835486,1709111726.8354862,-22.4609375,-39.0625,-31.25,-4.8828125,-1.0,-1.0,1.0,0.0,2.m4v,8.0
2024-02-28 10:15:26.839391,1709111726.8393917,-10.25390625,-40.52734375,-16.11328125,-1.953125,-1.0,-1.0,1.0,0.0,2.m4v,8.0
2024-02-28 10:15:26.839391,1709111726.8393917,-10.25390625,-40.52734375,-16.11328125,-1.953125,-1.0,-1.0,1.0,0.0,2.m4v,8.0
2024-02-28 10:15:26.843305,1709111726.8433049,-9.765625,-29.78515625,-15.13671875,5.37109375,-1.0,-1.0,1.0,0.0,2.m4v,8.0
2024-02-28 10:15:26.843305,1709111726.8433049,-9.765625,-29.78515625,-15.13671875,5.37109375,-1.0,-1.0,1.0,0.0,2.m4v,8.0
2024-02-28 10:15:26.847210,1709111726.8472102,-18.06640625,-21.484375,-24.90234375,3.90625,-1.0,-1.0,1.0,0.0,2.m4v,8.0
2024-02-28 10:15:26.847210,1709111726.8472102,-18.06640625,-21.484375,-24.90234375,3.90625,-1.0,-1.0,1.0,0.0,2.m4v,8.0
2024-02-28 10:15:26.851115,1709111726.8511157,-22.94921875,-27.83203125,-39.0625,12.6953125,-1.0,-1.0,1.0,0.0,2.m4v,8.0
2024-02-28 10:15:26.851115,1709111726.8511157,-22.94921875,-27.83203125,-39.0625,12.6953125,-1.0,-1.0,1.0,0.0,2.m4v,8.0
2024-02-28 10:15:26.855021,1709111726.8550208,-26.3671875,-43.45703125,-39.0625,19.53125,-1.0,-1.0,1.0,0.0,2.m4v,8.0
2024-02-28 10:15:26.855021,1709111726.8550208,-26.3671875,-43.45703125,-39.0625,19.53125,-1.0,-1.0,1.0,0.0,2.m4v,8.0
2024-02-28 10:15:26.858926,1709111726.8589263,-22.4609375,-24.90234375,-36.62109375,6.8359375,-1.0,-1.0,1.0,0.0,2.m4v,8.0
2024-02-28 10:15:26.858926,1709111726.8589263,-22.4609375,-24.90234375,-36.62109375,6.8359375,-1.0,-1.0,1.0,0.0,2.m4v,8.0
2024-02-28 10:15:26.862832,1709111726.8628316,-24.4140625,-7.8125,-39.55078125,-10.25390625,-1.0,-1.0,1.0,0.0,2.m4v,8.0
2024-02-28 10:15:26.862832,1709111726.8628316,-24.4140625,-7.8125,-39.55078125,-10.25390625,-1.0,-1.0,1.0,0.0,2.m4v,8.0
2024-02-28 10:15:26.866737,1709111726.866737,-44.921875,-30.2734375,-43.45703125,-31.25,-1.0,-1.0,1.0,0.0,2.m4v,8.0
2024-02-28 10:15:26.866737,1709111726.866737,-44.921875,-30.2734375,-43.45703125,-31.25,-1.0,-1.0,1.0,0.0,2.m4v,8.0
2024-02-28 10:15:26.870642,1709111726.8706422,-43.9453125,-45.8984375,-42.96875,-38.57421875,-1.0,-1.0,1.0,0.0,2.m4v,8.0
2024-02-28 10:15:26.870642,1709111726.8706422,-43.9453125,-45.8984375,-42.96875,-38.57421875,-1.0,-1.0,1.0,0.0,2.m4v,8.0
2024-02-28 10:15:26.874548,1709111726.8745475,-29.78515625,-41.9921875,-32.71484375,-20.5078125,-1.0,-1.0,1.0,0.0,2.m4v,8.0
2024-02-28 10:15:26.874548,1709111726.8745475,-29.78515625,-41.9921875,-32.71484375,-20.5078125,-1.0,-1.0,1.0,0.0,2.m4v,8.0
2024-02-28 10:15:26.878453,1709111726.878453,-41.50390625,-30.76171875,-20.99609375,-18.5546875,-1.0,-1.0,1.0,0.0,2.m4v,8.0
2024-02-28 10:15:26.878453,1709111726.878453,-41.50390625,-30.76171875,-20.99609375,-18.5546875,-1.0,-1.0,1.0,0.0,2.m4v,8.0
2024-02-28 10:15:26.882358,1709111726.8823583,-33.203125,-25.390625,-16.6015625,-29.296875,-1.0,-1.0,1.0,0.0,2.m4v,8.0
2024-02-28 10:15:26.882358,1709111726.8823583,-33.203125,-25.390625,-16.6015625,-29.296875,-1.0,-1.0,1.0,0.0,2.m4v,8.0
2024-02-28 10:15:26.886264,1709111726.8862636,-22.94921875,-22.4609375,-27.83203125,-29.78515625,-1.0,-1.0,1.0,0.0,2.m4v,8.0
2024-02-28 10:15:26.886264,1709111726.8862636,-22.94921875,-22.4609375,-27.83203125,-29.78515625,-1.0,-1.0,1.0,0.0,2.m4v,8.0
2024-02-28 10:15:26.890176,1709111726.890176,-51.26953125,-41.9921875,-35.15625,-40.52734375,-1.0,-1.0,1.0,0.0,2.m4v,8.0
2024-02-28 10:15:26.890176,1709111726.890176,-51.26953125,-41.9921875,-35.15625,-40.52734375,-1.0,-1.0,1.0,0.0,2.m4v,8.0
2024-02-28 10:15:26.894081,1709111726.8940814,-36.62109375,-40.52734375,-32.71484375,-45.41015625,-1.0,-1.0,1.0,0.0,2.m4v,8.0
2024-02-28 10:15:26.894081,1709111726.8940814,-36.62109375,-40.52734375,-32.71484375,-45.41015625,-1.0,-1.0,1.0,0.0,2.m4v,8.0
2024-02-28 10:15:26.897987,1709111726.897987,-12.6953125,-24.4140625,-30.76171875,-22.4609375,-1.0,-1.0,1.0,0.0,2.m4v,8.0
2024-02-28 10:15:26.897987,1709111726.897987,-12.6953125,-24.4140625,-30.76171875,-22.4609375,-1.0,-1.0,1.0,0.0,2.m4v,8.0
2024-02-28 10:15:26.901892,1709111726.9018922,-28.3203125,-36.1328125,-56.15234375,-4.8828125,-1.0,-1.0,1.0,0.0,2.m4v,8.0
2024-02-28 10:15:26.901892,1709111726.9018922,-28.3203125,-36.1328125,-56.15234375,-4.8828125,-1.0,-1.0,1.0,0.0,2.m4v,8.0
2024-02-28 10:15:26.905797,1709111726.9057975,-27.83203125,-32.2265625,-69.3359375,-15.625,-1.0,-1.0,1.0,0.0,2.m4v,8.0
2024-02-28 10:15:26.905797,1709111726.9057975,-27.83203125,-32.2265625,-69.3359375,-15.625,-1.0,-1.0,1.0,0.0,2.m4v,8.0
2024-02-28 10:15:26.909703,1709111726.9097028,-43.45703125,-23.92578125,-24.4140625,-43.45703125,-1.0,-1.0,1.0,0.0,2.m4v,8.0
2024-02-28 10:15:26.909703,1709111726.9097028,-43.45703125,-23.92578125,-24.4140625,-43.45703125,-1.0,-1.0,1.0,0.0,2.m4v,8.0
2024-02-28 10:15:26.913608,1709111726.9136083,-55.17578125,-24.90234375,9.27734375,-61.5234375,-1.0,-1.0,1.0,0.0,2.m4v,8.0
2024-02-28 10:15:26.913608,1709111726.9136083,-55.17578125,-24.90234375,9.27734375,-61.5234375,-1.0,-1.0,1.0,0.0,2.m4v,8.0
2024-02-28 10:15:27.499482,1709111727.4994822,-44.43359375,-52.734375,-24.4140625,-44.921875,-1.0,-1.0,1.0,0.0,2.m4v,8.0
2024-02-28 10:15:27.503388,1709111727.5033877,-32.71484375,-26.85546875,-30.2734375,-51.26953125,-1.0,-1.0,1.0,0.0,2.m4v,8.0
2024-02-28 10:15:27.507293,1709111727.507293,-38.57421875,-11.23046875,-12.6953125,-36.1328125,-1.0,-1.0,1.0,0.0,2.m4v,8.0
2024-02-28 10:15:27.511198,1709111727.5111983,-28.3203125,-20.01953125,-24.4140625,-34.66796875,-1.0,-1.0,1.0,0.0,2.m4v,8.0
2024-02-28 10:15:27.515104,1709111727.5151036,-24.90234375,-35.64453125,-68.359375,-9.27734375,-1.0,-1.0,1.0,0.0,2.m4v,8.0
2024-02-28 10:15:27.519009,1709111727.519009,-8.7890625,-18.5546875,-67.87109375,-2.44140625,-1.0,-1.0,1.0,0.0,2.m4v,8.0
2024-02-28 10:15:27.522914,1709111727.5229144,-24.90234375,-19.04296875,-36.62109375,-22.4609375,-1.0,-1.0,1.0,0.0,2.m4v,8.0
2024-02-28 10:15:27.526820,1709111727.5268197,-55.17578125,-30.76171875,-11.23046875,-50.78125,-1.0,-1.0,1.0,0.0,2.m4v,8.0
2024-02-28 10:15:27.530725,1709111727.530725,-46.38671875,-32.2265625,-12.6953125,-57.12890625,-1.0,-1.0,1.0,0.0,2.m4v,8.0
2024-02-28 10:15:27.534631,1709111727.5346303,-55.6640625,-48.33984375,-20.99609375,-58.59375,-1.0,-1.0,1.0,0.0,2.m4v,8.0
2024-02-28 10:15:27.538536,1709111727.5385358,-37.109375,-56.15234375,-27.83203125,-50.29296875,-1.0,-1.0,1.0,0.0,2.m4v,8.0
2024-02-28 10:15:27.542441,1709111727.5424411,-20.01953125,-30.76171875,-42.96875,-28.80859375,-1.0,-1.0,1.0,0.0,2.m4v,8.0
2024-02-28 10:15:27.546350,1709111727.5463505,-29.78515625,-11.71875,-36.1328125,-8.7890625,-1.0,-1.0,1.0,0.0,2.m4v,8.0
2024-02-28 10:15:27.550256,1709111727.550256,-19.04296875,-13.18359375,-39.55078125,-10.7421875,-1.0,-1.0,1.0,0.0,2.m4v,8.0
2024-02-28 10:15:27.554161,1709111727.5541613,-22.4609375,-26.3671875,-60.546875,-26.3671875,-1.0,-1.0,1.0,0.0,2.m4v,8.0
2024-02-28 10:15:27.558067,1709111727.5580666,-41.50390625,-37.109375,-47.36328125,-41.9921875,-1.0,-1.0,1.0,0.0,2.m4v,8.0
2024-02-28 10:15:27.561972,1709111727.561972,-26.85546875,-44.43359375,-25.390625,-40.0390625,-1.0,-1.0,1.0,0.0,2.m4v,8.0
2024-02-28 10:15:27.565877,1709111727.5658774,-19.53125,-44.43359375,-9.27734375,-29.78515625,-1.0,-1.0,1.0,0.0,2.m4v,8.0
2024-02-28 10:15:27.569783,1709111727.5697827,-30.76171875,-49.31640625,-7.32421875,-13.18359375,-1.0,-1.0,1.0,0.0,2.m4v,8.0
2024-02-28 10:15:27.573688,1709111727.573688,-35.15625,-35.64453125,-15.625,-39.0625,-1.0,-1.0,1.0,0.0,2.m4v,8.0
2024-02-28 10:15:27.577593,1709111727.577593,-20.99609375,-6.34765625,-36.1328125,-61.5234375,-1.0,-1.0,1.0,0.0,2.m4v,8.0
2024-02-28 10:15:27.581499,1709111727.5814989,-20.01953125,-5.37109375,-34.1796875,-48.828125,-1.0,-1.0,1.0,0.0,2.m4v,8.0
2024-02-28 10:15:27.585404,1709111727.5854042,-30.76171875,-11.23046875,-21.97265625,-43.9453125,-1.0,-1.0,1.0,0.0,2.m4v,8.0
2024-02-28 10:15:27.589309,1709111727.5893097,-31.73828125,-28.3203125,-37.59765625,-18.06640625,-1.0,-1.0,1.0,0.0,2.m4v,8.0
2024-02-28 10:15:27.593218,1709111727.5932183,-20.99609375,-36.1328125,-35.64453125,-8.30078125,-1.0,-1.0,1.0,0.0,2.m4v,8.0
2024-02-28 10:15:27.597124,1709111727.5971236,-18.06640625,-44.921875,-11.71875,-6.8359375,-1.0,-1.0,1.0,0.0,2.m4v,8.0
2024-02-28 10:15:27.601029,1709111727.601029,-26.3671875,-57.12890625,-13.671875,-22.4609375,-1.0,-1.0,1.0,0.0,2.m4v,8.0
2024-02-28 10:15:27.604934,1709111727.6049345,-23.4375,-38.57421875,-36.1328125,-25.87890625,-1.0,-1.0,1.0,0.0,2.m4v,8.0
2024-02-28 10:15:27.608840,1709111727.6088398,-33.203125,-25.87890625,-37.59765625,-14.16015625,-1.0,-1.0,1.0,0.0,2.m4v,8.0
2024-02-28 10:15:27.612745,1709111727.612745,-25.390625,-30.76171875,-21.97265625,-18.06640625,-1.0,-1.0,1.0,0.0,2.m4v,8.0
2024-02-28 10:15:27.616650,1709111727.6166503,-13.671875,-34.66796875,-41.9921875,-19.04296875,-1.0,-1.0,1.0,0.0,2.m4v,8.0
2024-02-28 10:15:27.620556,1709111727.620556,-17.08984375,-24.90234375,-77.1484375,-16.6015625,-1.0,-1.0,1.0,0.0,2.m4v,8.0
2024-02-28 10:15:27.624461,1709111727.6244612,-13.671875,-9.765625,-47.8515625,-29.296875,-1.0,-1.0,1.0,0.0,2.m4v,8.0
2024-02-28 10:15:27.628366,1709111727.6283665,-22.94921875,-22.4609375,10.25390625,-31.25,-1.0,-1.0,1.0,0.0,2.m4v,8.0
2024-02-28 10:15:27.632272,1709111727.6322718,-21.97265625,-33.203125,-6.34765625,-24.90234375,-1.0,-1.0,1.0,0.0,2.m4v,8.0
2024-02-28 10:15:27.636177,1709111727.6361773,-22.4609375,-29.78515625,-38.57421875,-32.2265625,-1.0,-1.0,1.0,0.0,2.m4v,8.0
2024-02-28 10:15:27.640090,1709111727.6400895,-49.31640625,-46.38671875,-32.71484375,-61.03515625,-1.0,-1.0,1.0,0.0,2.m4v,8.0
2024-02-28 10:15:27.643995,1709111727.6439948,-51.26953125,-60.05859375,-28.80859375,-73.73046875,-1.0,-1.0,1.0,0.0,2.m4v,8.0
2024-02-28 10:15:27.647900,1709111727.6479,-44.921875,-42.96875,-41.015625,-56.15234375,-1.0,-1.0,1.0,0.0,2.m4v,8.0
2024-02-28 10:15:27.651806,1709111727.6518056,-31.73828125,-8.30078125,-51.26953125,-31.25,-1.0,-1.0,1.0,0.0,2.m4v,8.0
2024-02-28 10:15:27.655711,1709111727.655711,-8.7890625,-9.765625,-30.2734375,-9.765625,-1.0,-1.0,1.0,0.0,2.m4v,8.0
2024-02-28 10:15:27.659616,1709111727.6596162,-25.390625,-30.76171875,-24.4140625,7.8125,-1.0,-1.0,1.0,0.0,2.m4v,8.0
2024-02-28 10:15:27.663522,1709111727.6635215,-38.57421875,-29.78515625,-21.97265625,-19.04296875,-1.0,-1.0,1.0,0.0,2.m4v,8.0
2024-02-28 10:15:27.667427,1709111727.667427,-36.62109375,-23.4375,-8.7890625,-74.21875,-1.0,-1.0,1.0,0.0,2.m4v,8.0
2024-02-28 10:15:27.671332,1709111727.6713324,-51.7578125,-16.11328125,-26.85546875,-86.42578125,-1.0,-1.0,1.0,0.0,2.m4v,8.0
2024-02-28 10:15:27.675238,1709111727.6752377,-47.36328125,-19.53125,-47.8515625,-68.359375,-1.0,-1.0,1.0,0.0,2.m4v,8.0
2024-02-28 10:15:27.679143,1709111727.679143,-37.109375,-41.015625,-41.50390625,-40.0390625,-1.0,-1.0,1.0,0.0,2.m4v,8.0
2024-02-28 10:15:27.683048,1709111727.6830485,-31.73828125,-54.6875,-24.4140625,-36.1328125,-1.0,-1.0,1.0,0.0,2.m4v,8.0
2024-02-28 10:15:27.686960,1709111727.6869602,-31.25,-50.29296875,-25.390625,-34.1796875,-1.0,-1.0,1.0,0.0,2.m4v,8.0
2024-02-28 10:15:27.690866,1709111727.6908655,-30.76171875,-29.78515625,-52.24609375,3.41796875,-1.0,-1.0,1.0,0.0,2.m4v,8.0
2024-02-28 10:15:27.694771,1709111727.694771,-23.92578125,-18.5546875,-48.828125,-15.13671875,-1.0,-1.0,1.0,0.0,2.m4v,8.0
2024-02-28 10:15:27.698676,1709111727.6986763,-18.06640625,-38.0859375,-15.625,-25.87890625,-1.0,-1.0,1.0,0.0,2.m4v,8.0
2024-02-28 10:15:27.702582,1709111727.7025816,-23.92578125,-41.015625,-7.8125,-18.06640625,-1.0,-1.0,1.0,0.0,2.m4v,8.0
2024-02-28 10:15:27.706487,1709111727.706487,-42.96875,-19.53125,-0.48828125,-58.59375,-1.0,-1.0,1.0,0.0,2.m4v,8.0
2024-02-28 10:15:27.710392,1709111727.7103925,-57.6171875,-29.296875,-8.7890625,-75.1953125,-1.0,-1.0,1.0,0.0,2.m4v,8.0
2024-02-28 10:15:27.714298,1709111727.7142978,-58.10546875,-42.48046875,-50.78125,-49.8046875,-1.0,-1.0,1.0,0.0,2.m4v,8.0
2024-02-28 10:15:27.718203,1709111727.718203,-30.76171875,-30.76171875,-66.89453125,-50.78125,-1.0,-1.0,1.0,0.0,2.m4v,8.0
2024-02-28 10:15:27.722108,1709111727.7221084,-30.2734375,-35.64453125,-47.36328125,-44.921875,-1.0,-1.0,1.0,0.0,2.m4v,8.0
2024-02-28 10:15:27.726014,1709111727.726014,-54.19921875,-41.015625,-31.25,-35.15625,-1.0,-1.0,1.0,0.0,2.m4v,8.0
2024-02-28 10:15:27.729919,1709111727.7299192,-37.109375,-40.52734375,-30.2734375,-59.5703125,-1.0,-1.0,1.0,0.0,2.m4v,8.0
2024-02-28 10:15:27.733830,1709111727.7338305,-37.109375,-55.17578125,-33.203125,-60.546875,-1.0,-1.0,1.0,0.0,2.m4v,8.0
2024-02-28 10:15:27.737736,1709111727.7377355,-38.57421875,-45.41015625,-16.6015625,-40.0390625,-1.0,-1.0,1.0,0.0,2.m4v,8.0
2024-02-28 10:15:27.741641,1709111727.7416413,-32.71484375,-49.31640625,-9.765625,-32.2265625,-1.0,-1.0,1.0,0.0,2.m4v,8.0
2024-02-28 10:15:27.745547,1709111727.7455466,-37.109375,-64.94140625,-19.53125,-34.66796875,-1.0,-1.0,1.0,0.0,2.m4v,8.0
2024-02-28 10:15:27.749452,1709111727.749452,-40.0390625,-31.25,-20.01953125,-18.06640625,-1.0,-1.0,1.0,0.0,2.m4v,8.0
2024-02-28 10:15:27.753357,1709111727.7533572,-40.0390625,3.90625,-37.59765625,-18.5546875,-1.0,-1.0,1.0,0.0,2.m4v,8.0
2024-02-28 10:15:27.757263,1709111727.7572627,-33.203125,-2.44140625,-58.59375,-27.83203125,-1.0,-1.0,1.0,0.0,2.m4v,8.0
2024-02-28 10:15:27.761168,1709111727.761168,-38.0859375,-31.73828125,-45.8984375,-19.53125,-1.0,-1.0,1.0,0.0,2.m4v,8.0
2024-02-28 10:15:27.765073,1709111727.7650733,-38.57421875,-39.55078125,-35.15625,-18.06640625,-1.0,-1.0,1.0,0.0,2.m4v,8.0
2024-02-28 10:15:27.768979,1709111727.7689788,-34.1796875,-44.921875,-20.99609375,-23.4375,-1.0,-1.0,1.0,0.0,2.m4v,8.0
2024-02-28 10:15:27.772884,1709111727.772884,-49.8046875,-44.921875,-15.625,-35.15625,-1.0,-1.0,1.0,0.0,2.m4v,8.0
2024-02-28 10:15:27.776789,1709111727.7767894,-53.22265625,-23.92578125,-34.66796875,-2.9296875,-1.0,-1.0,1.0,0.0,2.m4v,8.0
2024-02-28 10:15:27.780700,1709111727.7807002,-48.828125,-17.578125,-41.50390625,-16.11328125,-1.0,-1.0,1.0,0.0,2.m4v,8.0
2024-02-28 10:15:27.784606,1709111727.7846055,-41.50390625,-18.5546875,-16.11328125,-33.203125,-1.0,-1.0,1.0,0.0,2.m4v,8.0
2024-02-28 10:15:27.788511,1709111727.788511,-33.69140625,-32.2265625,5.37109375,-25.390625,-1.0,-1.0,1.0,0.0,2.m4v,8.0
2024-02-28 10:15:27.792416,1709111727.7924163,-41.9921875,-45.41015625,-9.27734375,-50.29296875,-1.0,-1.0,1.0,0.0,2.m4v,8.0
2024-02-28 10:15:27.796322,1709111727.7963216,-45.41015625,-39.55078125,-29.78515625,-52.734375,-1.0,-1.0,1.0,0.0,2.m4v,8.0
2024-02-28 10:15:27.800227,1709111727.8002272,-30.76171875,-15.625,-41.9921875,-43.45703125,-1.0,-1.0,1.0,0.0,2.m4v,8.0
2024-02-28 10:15:27.804132,1709111727.8041325,-40.0390625,-12.6953125,-52.734375,-30.76171875,-1.0,-1.0,1.0,0.0,2.m4v,8.0
2024-02-28 10:15:27.808038,1709111727.8080378,-51.7578125,-33.69140625,-36.62109375,-20.5078125,-1.0,-1.0,1.0,0.0,2.m4v,8.0
2024-02-28 10:15:27.811943,1709111727.811943,-37.59765625,-24.4140625,-36.62109375,1.46484375,-1.0,-1.0,1.0,0.0,2.m4v,8.0
2024-02-28 10:15:27.815849,1709111727.8158486,-32.2265625,-17.08984375,-35.64453125,-6.8359375,-1.0,-1.0,1.0,0.0,2.m4v,8.0
2024-02-28 10:15:27.819754,1709111727.819754,-36.1328125,-26.3671875,0.48828125,-36.1328125,-1.0,-1.0,1.0,0.0,2.m4v,8.0
2024-02-28 10:15:27.823659,1709111727.8236592,-43.9453125,-30.2734375,10.25390625,-31.73828125,-1.0,-1.0,1.0,0.0,2.m4v,8.0
2024-02-28 10:15:27.827569,1709111727.8275695,-49.8046875,-26.85546875,-16.6015625,-42.48046875,-1.0,-1.0,1.0,0.0,2.m4v,8.0
2024-02-28 10:15:27.831475,1709111727.831475,-49.31640625,-41.015625,-44.43359375,-65.4296875,-1.0,-1.0,1.0,0.0,2.m4v,8.0
2024-02-28 10:15:27.835380,1709111727.8353803,-56.15234375,-45.41015625,-52.24609375,-46.875,-1.0,-1.0,1.0,0.0,2.m4v,8.0
2024-02-28 10:15:27.839286,1709111727.8392856,-57.6171875,-34.66796875,-56.15234375,-29.78515625,-1.0,-1.0,1.0,0.0,2.m4v,8.0
2024-02-28 10:15:27.843191,1709111727.843191,-52.24609375,-24.4140625,-48.33984375,-33.69140625,-1.0,-1.0,1.0,0.0,2.m4v,8.0
2024-02-28 10:15:27.847096,1709111727.8470964,-52.734375,-21.97265625,-25.390625,-42.48046875,-1.0,-1.0,1.0,0.0,2.m4v,8.0
2024-02-28 10:15:27.851002,1709111727.8510015,-49.8046875,-27.83203125,-23.92578125,-30.76171875,-1.0,-1.0,1.0,0.0,2.m4v,8.0
2024-02-28 10:15:27.854907,1709111727.854907,-45.41015625,-30.2734375,-30.2734375,-30.2734375,-1.0,-1.0,1.0,0.0,2.m4v,8.0
2024-02-28 10:15:27.858812,1709111727.8588123,-43.9453125,-29.296875,-12.6953125,-48.828125,-1.0,-1.0,1.0,0.0,2.m4v,8.0
2024-02-28 10:15:27.862718,1709111727.862718,-37.59765625,-21.97265625,-28.80859375,-47.8515625,-1.0,-1.0,1.0,0.0,2.m4v,8.0
2024-02-28 10:15:27.866623,1709111727.8666232,-30.2734375,-29.78515625,-50.78125,-43.9453125,-1.0,-1.0,1.0,0.0,2.m4v,8.0
2024-02-28 10:15:27.870528,1709111727.8705285,-43.9453125,-36.1328125,-23.92578125,-36.1328125,-1.0,-1.0,1.0,0.0,2.m4v,8.0
2024-02-28 10:15:27.874442,1709111727.8744423,-49.31640625,-41.9921875,-9.765625,-38.0859375,-1.0,-1.0,1.0,0.0,2.m4v,8.0
2024-02-28 10:15:27.878348,1709111727.8783476,-44.43359375,-58.59375,-18.06640625,-55.6640625,-1.0,-1.0,1.0,0.0,2.m4v,8.0
2024-02-28 10:15:27.882253,1709111727.882253,-48.828125,-52.734375,-27.34375,-26.3671875,-1.0,-1.0,1.0,0.0,2.m4v,8.0
2024-02-28 10:15:27.886158,1709111727.8861585,-44.921875,-35.15625,-37.59765625,-23.4375,-1.0,-1.0,1.0,0.0,2.m4v,8.0
2024-02-28 10:15:27.890064,1709111727.8900638,-27.83203125,-18.5546875,-54.19921875,-31.73828125,-1.0,-1.0,1.0,0.0,2.m4v,8.0
2024-02-28 10:15:27.893969,1709111727.893969,-20.5078125,-5.859375,-56.640625,-21.97265625,-1.0,-1.0,1.0,0.0,2.m4v,8.0
2024-02-28 10:15:27.897874,1709111727.8978744,-46.875,-8.7890625,-32.71484375,-48.33984375,-1.0,-1.0,1.0,0.0,2.m4v,8.0
2024-02-28 10:15:27.901780,1709111727.90178,-60.05859375,-17.578125,-4.8828125,-62.98828125,-1.0,-1.0,1.0,0.0,2.m4v,8.0
2024-02-28 10:15:27.901780,1709111727.90178,-60.05859375,-17.578125,-4.8828125,-62.98828125,-1.0,-1.0,1.0,0.0,2.m4v,8.0
2024-02-28 10:15:27.905685,1709111727.9056852,-43.9453125,-24.90234375,-11.71875,-35.64453125,-1.0,-1.0,1.0,0.0,2.m4v,8.0
2024-02-28 10:15:27.905685,1709111727.9056852,-43.9453125,-24.90234375,-11.71875,-35.64453125,-1.0,-1.0,1.0,0.0,2.m4v,8.0
2024-02-28 10:15:27.909590,1709111727.9095905,-42.48046875,-35.15625,-44.921875,0.9765625,-1.0,-1.0,1.0,0.0,2.m4v,8.0
2024-02-28 10:15:27.909590,1709111727.9095905,-42.48046875,-35.15625,-44.921875,0.9765625,-1.0,-1.0,1.0,0.0,2.m4v,8.0
2024-02-28 10:15:27.913496,1709111727.9134958,-24.4140625,-31.73828125,-48.828125,3.90625,-1.0,-1.0,1.0,0.0,2.m4v,8.0
2024-02-28 10:15:27.913496,1709111727.9134958,-24.4140625,-31.73828125,-48.828125,3.90625,-1.0,-1.0,1.0,0.0,2.m4v,8.0
2024-02-28 10:15:27.917401,1709111727.9174013,-17.578125,-24.90234375,-48.828125,-26.85546875,-1.0,-1.0,1.0,0.0,2.m4v,8.0
2024-02-28 10:15:27.917401,1709111727.9174013,-17.578125,-24.90234375,-48.828125,-26.85546875,-1.0,-1.0,1.0,0.0,2.m4v,8.0
2024-02-28 10:15:27.921310,1709111727.9213104,-42.48046875,-49.8046875,-43.45703125,-48.33984375,-1.0,-1.0,1.0,0.0,2.m4v,8.0
2024-02-28 10:15:27.921310,1709111727.9213104,-42.48046875,-49.8046875,-43.45703125,-48.33984375,-1.0,-1.0,1.0,0.0,2.m4v,8.0
2024-02-28 10:15:27.925216,1709111727.925216,-34.66796875,-62.01171875,-12.20703125,-51.7578125,-1.0,-1.0,1.0,0.0,2.m4v,8.0
2024-02-28 10:15:27.925216,1709111727.925216,-34.66796875,-62.01171875,-12.20703125,-51.7578125,-1.0,-1.0,1.0,0.0,2.m4v,8.0
2024-02-28 10:15:27.929121,1709111727.9291213,-33.203125,-47.8515625,-18.5546875,-46.875,-1.0,-1.0,1.0,0.0,2.m4v,8.0
2024-02-28 10:15:27.929121,1709111727.9291213,-33.203125,-47.8515625,-18.5546875,-46.875,-1.0,-1.0,1.0,0.0,2.m4v,8.0
2024-02-28 10:15:27.933027,1709111727.9330266,-47.8515625,-36.1328125,-58.59375,-35.15625,-1.0,-1.0,1.0,0.0,2.m4v,8.0
2024-02-28 10:15:27.933027,1709111727.9330266,-47.8515625,-36.1328125,-58.59375,-35.15625,-1.0,-1.0,1.0,0.0,2.m4v,8.0
2024-02-28 10:15:27.936932,1709111727.9369318,-31.73828125,-28.80859375,-56.15234375,-23.92578125,-1.0,-1.0,1.0,0.0,2.m4v,8.0
2024-02-28 10:15:27.936932,1709111727.9369318,-31.73828125,-28.80859375,-56.15234375,-23.92578125,-1.0,-1.0,1.0,0.0,2.m4v,8.0
2024-02-28 10:15:27.940837,1709111727.9408374,-17.08984375,-18.06640625,-21.97265625,-32.2265625,-1.0,-1.0,1.0,0.0,2.m4v,8.0
2024-02-28 10:15:27.940837,1709111727.9408374,-17.08984375,-18.06640625,-21.97265625,-32.2265625,-1.0,-1.0,1.0,0.0,2.m4v,8.0
2024-02-28 10:15:27.944743,1709111727.944743,-27.34375,-5.859375,-25.390625,-23.92578125,-1.0,-1.0,1.0,0.0,2.m4v,8.0
2024-02-28 10:15:27.944743,1709111727.944743,-27.34375,-5.859375,-25.390625,-23.92578125,-1.0,-1.0,1.0,0.0,2.m4v,8.0
2024-02-28 10:15:27.948648,1709111727.948648,-28.80859375,-18.5546875,-41.9921875,-5.37109375,-1.0,-1.0,1.0,0.0,2.m4v,8.0
2024-02-28 10:15:27.948648,1709111727.948648,-28.80859375,-18.5546875,-41.9921875,-5.37109375,-1.0,-1.0,1.0,0.0,2.m4v,8.0
2024-02-28 10:15:27.952554,1709111727.9525535,-34.66796875,-28.80859375,-43.45703125,-59.5703125,-1.0,-1.0,1.0,0.0,2.m4v,8.0
2024-02-28 10:15:27.952554,1709111727.9525535,-34.66796875,-28.80859375,-43.45703125,-59.5703125,-1.0,-1.0,1.0,0.0,2.m4v,8.0
2024-02-28 10:15:27.956459,1709111727.9564588,-21.97265625,-31.73828125,-34.1796875,-69.3359375,-1.0,-1.0,1.0,0.0,2.m4v,8.0
2024-02-28 10:15:27.956459,1709111727.9564588,-21.97265625,-31.73828125,-34.1796875,-69.3359375,-1.0,-1.0,1.0,0.0,2.m4v,8.0
2024-02-28 10:15:27.960364,1709111727.960364,-28.3203125,-41.50390625,-15.625,-41.9921875,-1.0,-1.0,1.0,0.0,2.m4v,8.0
2024-02-28 10:15:27.960364,1709111727.960364,-28.3203125,-41.50390625,-15.625,-41.9921875,-1.0,-1.0,1.0,0.0,2.m4v,8.0
2024-02-28 10:15:27.964269,1709111727.9642694,-46.875,-43.45703125,-35.15625,-40.0390625,-1.0,-1.0,1.0,0.0,2.m4v,8.0
2024-02-28 10:15:27.964269,1709111727.9642694,-46.875,-43.45703125,-35.15625,-40.0390625,-1.0,-1.0,1.0,0.0,2.m4v,8.0
2024-02-28 10:15:27.968178,1709111727.9681785,-33.69140625,-35.15625,-61.5234375,-29.296875,-1.0,-1.0,1.0,0.0,2.m4v,8.0
2024-02-28 10:15:27.968178,1709111727.9681785,-33.69140625,-35.15625,-61.5234375,-29.296875,-1.0,-1.0,1.0,0.0,2.m4v,8.0
2024-02-28 10:15:27.972084,1709111727.9720836,-28.80859375,-35.64453125,-44.43359375,-1.46484375,-1.0,-1.0,1.0,0.0,2.m4v,8.0
2024-02-28 10:15:27.972084,1709111727.9720836,-28.80859375,-35.64453125,-44.43359375,-1.46484375,-1.0,-1.0,1.0,0.0,2.m4v,8.0
2024-02-28 10:15:27.975989,1709111727.9759889,-20.99609375,-47.8515625,-24.90234375,5.37109375,-1.0,-1.0,1.0,0.0,2.m4v,8.0
2024-02-28 10:15:27.975989,1709111727.9759889,-20.99609375,-47.8515625,-24.90234375,5.37109375,-1.0,-1.0,1.0,0.0,2.m4v,8.0
2024-02-28 10:15:27.979894,1709111727.9798944,-13.18359375,-32.2265625,-40.0390625,-15.13671875,-1.0,-1.0,1.0,0.0,2.m4v,8.0
2024-02-28 10:15:27.979894,1709111727.9798944,-13.18359375,-32.2265625,-40.0390625,-15.13671875,-1.0,-1.0,1.0,0.0,2.m4v,8.0
2024-02-28 10:15:27.983800,1709111727.9837997,-23.92578125,-13.18359375,-38.0859375,-43.45703125,-1.0,-1.0,1.0,0.0,2.m4v,8.0
2024-02-28 10:15:27.983800,1709111727.9837997,-23.92578125,-13.18359375,-38.0859375,-43.45703125,-1.0,-1.0,1.0,0.0,2.m4v,8.0
2024-02-28 10:15:27.987705,1709111727.987705,-51.7578125,-33.203125,-31.25,-59.08203125,-1.0,-1.0,1.0,0.0,2.m4v,8.0
2024-02-28 10:15:27.987705,1709111727.987705,-51.7578125,-33.203125,-31.25,-59.08203125,-1.0,-1.0,1.0,0.0,2.m4v,8.0
2024-02-28 10:15:27.991610,1709111727.9916103,-58.59375,-45.8984375,-13.671875,-45.8984375,-1.0,-1.0,1.0,0.0,2.m4v,8.0
2024-02-28 10:15:27.991610,1709111727.9916103,-58.59375,-45.8984375,-13.671875,-45.8984375,-1.0,-1.0,1.0,0.0,2.m4v,8.0
2024-02-28 10:15:27.995516,1709111727.9955158,-50.29296875,-40.0390625,-16.6015625,-43.9453125,-1.0,-1.0,1.0,0.0,2.m4v,8.0
2024-02-28 10:15:27.995516,1709111727.9955158,-50.29296875,-40.0390625,-16.6015625,-43.9453125,-1.0,-1.0,1.0,0.0,2.m4v,8.0
2024-02-28 10:15:27.999421,1709111727.9994211,-40.0390625,-31.25,-55.6640625,-61.5234375,-1.0,-1.0,1.0,0.0,2.m4v,8.0
2024-02-28 10:15:27.999421,1709111727.9994211,-40.0390625,-31.25,-55.6640625,-61.5234375,-1.0,-1.0,1.0,0.0,2.m4v,8.0
2024-02-28 10:15:28.003326,1709111728.0033264,-32.2265625,-23.92578125,-60.05859375,-45.8984375,-1.0,-1.0,1.0,0.0,2.m4v,8.0
2024-02-28 10:15:28.003326,1709111728.0033264,-32.2265625,-23.92578125,-60.05859375,-45.8984375,-1.0,-1.0,1.0,0.0,2.m4v,8.0
2024-02-28 10:15:28.007232,1709111728.0072317,-16.6015625,-17.08984375,-28.3203125,-20.5078125,-1.0,-1.0,1.0,0.0,2.m4v,8.0
2024-02-28 10:15:28.007232,1709111728.0072317,-16.6015625,-17.08984375,-28.3203125,-20.5078125,-1.0,-1.0,1.0,0.0,2.m4v,8.0
2024-02-28 10:15:28.011137,1709111728.0111372,-18.5546875,-18.5546875,-8.30078125,-31.73828125,-1.0,-1.0,1.0,0.0,2.m4v,8.0
2024-02-28 10:15:28.011137,1709111728.0111372,-18.5546875,-18.5546875,-8.30078125,-31.73828125,-1.0,-1.0,1.0,0.0,2.m4v,8.0
2024-02-28 10:15:28.015049,1709111728.0150497,-26.85546875,-26.3671875,-14.6484375,-30.2734375,-1.0,-1.0,1.0,0.0,2.m4v,8.0
2024-02-28 10:15:28.015049,1709111728.0150497,-26.85546875,-26.3671875,-14.6484375,-30.2734375,-1.0,-1.0,1.0,0.0,2.m4v,8.0
2024-02-28 10:15:28.018955,1709111728.0189548,-27.83203125,-31.73828125,-35.15625,-30.2734375,-1.0,-1.0,1.0,0.0,2.m4v,8.0
2024-02-28 10:15:28.018955,1709111728.0189548,-27.83203125,-31.73828125,-35.15625,-30.2734375,-1.0,-1.0,1.0,0.0,2.m4v,8.0
2024-02-28 10:15:28.022860,1709111728.02286,-27.34375,-35.15625,-34.1796875,-37.59765625,-1.0,-1.0,1.0,0.0,2.m4v,8.0
2024-02-28 10:15:28.022860,1709111728.02286,-27.34375,-35.15625,-34.1796875,-37.59765625,-1.0,-1.0,1.0,0.0,2.m4v,8.0
2024-02-28 10:15:28.026766,1709111728.0267656,-33.203125,-34.66796875,-7.32421875,-50.78125,-1.0,-1.0,1.0,0.0,2.m4v,8.0
2024-02-28 10:15:28.026766,1709111728.0267656,-33.203125,-34.66796875,-7.32421875,-50.78125,-1.0,-1.0,1.0,0.0,2.m4v,8.0
2024-02-28 10:15:28.030671,1709111728.030671,-44.43359375,-42.48046875,-24.90234375,-52.734375,-1.0,-1.0,1.0,0.0,2.m4v,8.0
2024-02-28 10:15:28.030671,1709111728.030671,-44.43359375,-42.48046875,-24.90234375,-52.734375,-1.0,-1.0,1.0,0.0,2.m4v,8.0
2024-02-28 10:15:28.034576,1709111728.0345762,-36.62109375,-35.64453125,-50.78125,-47.36328125,-1.0,-1.0,1.0,0.0,2.m4v,8.0
2024-02-28 10:15:28.034576,1709111728.0345762,-36.62109375,-35.64453125,-50.78125,-47.36328125,-1.0,-1.0,1.0,0.0,2.m4v,8.0
2024-02-28 10:15:28.038481,1709111728.0384817,-30.76171875,-20.99609375,-49.31640625,-27.83203125,-1.0,-1.0,1.0,0.0,2.m4v,8.0
2024-02-28 10:15:28.038481,1709111728.0384817,-30.76171875,-20.99609375,-49.31640625,-27.83203125,-1.0,-1.0,1.0,0.0,2.m4v,8.0
2024-02-28 10:15:28.042387,1709111728.042387,-20.5078125,-22.94921875,-55.17578125,-16.11328125,-1.0,-1.0,1.0,0.0,2.m4v,8.0
2024-02-28 10:15:28.042387,1709111728.042387,-20.5078125,-22.94921875,-55.17578125,-16.11328125,-1.0,-1.0,1.0,0.0,2.m4v,8.0
2024-02-28 10:15:28.046292,1709111728.0462923,-12.6953125,-30.76171875,-45.8984375,-11.71875,-1.0,-1.0,1.0,0.0,2.m4v,8.0
2024-02-28 10:15:28.046292,1709111728.0462923,-12.6953125,-30.76171875,-45.8984375,-11.71875,-1.0,-1.0,1.0,0.0,2.m4v,8.0
2024-02-28 10:15:28.050198,1709111728.0501976,-29.78515625,-31.73828125,-41.015625,-29.78515625,-1.0,-1.0,1.0,0.0,2.m4v,8.0
2024-02-28 10:15:28.050198,1709111728.0501976,-29.78515625,-31.73828125,-41.015625,-29.78515625,-1.0,-1.0,1.0,0.0,2.m4v,8.0
2024-02-28 10:15:28.054103,1709111728.054103,-35.64453125,-15.13671875,-46.875,-27.34375,-1.0,-1.0,1.0,0.0,2.m4v,8.0
2024-02-28 10:15:28.054103,1709111728.054103,-35.64453125,-15.13671875,-46.875,-27.34375,-1.0,-1.0,1.0,0.0,2.m4v,8.0
2024-02-28 10:15:28.058008,1709111728.0580084,-33.203125,-9.765625,-18.5546875,-0.48828125,-1.0,-1.0,1.0,0.0,2.m4v,8.0
2024-02-28 10:15:28.058008,1709111728.0580084,-33.203125,-9.765625,-18.5546875,-0.48828125,-1.0,-1.0,1.0,0.0,2.m4v,8.0
2024-02-28 10:15:28.061920,1709111728.0619202,-48.828125,-19.04296875,-24.4140625,-45.8984375,-1.0,-1.0,1.0,0.0,2.m4v,8.0
2024-02-28 10:15:28.061920,1709111728.0619202,-48.828125,-19.04296875,-24.4140625,-45.8984375,-1.0,-1.0,1.0,0.0,2.m4v,8.0
2024-02-28 10:15:28.065825,1709111728.0658257,-54.6875,-26.85546875,-43.9453125,-75.68359375,-1.0,-1.0,1.0,0.0,2.m4v,8.0
2024-02-28 10:15:28.065825,1709111728.0658257,-54.6875,-26.85546875,-43.9453125,-75.68359375,-1.0,-1.0,1.0,0.0,2.m4v,8.0
2024-02-28 10:15:28.069731,1709111728.069731,-38.57421875,-28.3203125,-25.87890625,-53.22265625,-1.0,-1.0,1.0,0.0,2.m4v,8.0
2024-02-28 10:15:28.069731,1709111728.069731,-38.57421875,-28.3203125,-25.87890625,-53.22265625,-1.0,-1.0,1.0,0.0,2.m4v,8.0
2024-02-28 10:15:28.073636,1709111728.0736363,-29.296875,-25.87890625,-10.7421875,-39.55078125,-1.0,-1.0,1.0,0.0,2.m4v,8.0
2024-02-28 10:15:28.073636,1709111728.0736363,-29.296875,-25.87890625,-10.7421875,-39.55078125,-1.0,-1.0,1.0,0.0,2.m4v,8.0
2024-02-28 10:15:28.077542,1709111728.0775416,-26.3671875,-30.2734375,-16.11328125,-19.53125,-1.0,-1.0,1.0,0.0,2.m4v,8.0
2024-02-28 10:15:28.077542,1709111728.0775416,-26.3671875,-30.2734375,-16.11328125,-19.53125,-1.0,-1.0,1.0,0.0,2.m4v,8.0
2024-02-28 10:15:28.081447,1709111728.081447,-5.859375,-36.1328125,-41.015625,-15.13671875,-1.0,-1.0,1.0,0.0,2.m4v,8.0
2024-02-28 10:15:28.081447,1709111728.081447,-5.859375,-36.1328125,-41.015625,-15.13671875,-1.0,-1.0,1.0,0.0,2.m4v,8.0
2024-02-28 10:15:28.085352,1709111728.0853524,0.9765625,-39.0625,-57.12890625,-14.6484375,-1.0,-1.0,1.0,0.0,2.m4v,8.0
2024-02-28 10:15:28.089258,1709111728.0892577,-1.46484375,-40.52734375,-34.66796875,-10.7421875,-1.0,-1.0,1.0,0.0,2.m4v,8.0
2024-02-28 10:15:28.093163,1709111728.093163,-10.25390625,-43.45703125,-3.41796875,1.953125,-1.0,-1.0,1.0,0.0,2.m4v,8.0
2024-02-28 10:15:28.097068,1709111728.0970683,-12.20703125,-49.31640625,-21.97265625,-24.4140625,-1.0,-1.0,1.0,0.0,2.m4v,8.0
2024-02-28 10:15:28.100974,1709111728.1009738,-14.16015625,-45.8984375,-48.33984375,-41.50390625,-1.0,-1.0,1.0,0.0,2.m4v,8.0
2024-02-28 10:15:28.104879,1709111728.1048791,-23.4375,-22.94921875,-29.296875,8.30078125,-1.0,-1.0,1.0,0.0,2.m4v,8.0
2024-02-28 10:15:28.108790,1709111728.1087904,7.32421875,-5.37109375,-21.484375,25.87890625,-1.0,-1.0,1.0,0.0,2.m4v,8.0
2024-02-28 10:15:28.112696,1709111728.1126957,13.18359375,-16.6015625,-38.0859375,23.4375,-1.0,-1.0,1.0,0.0,2.m4v,8.0
2024-02-28 10:15:28.116601,1709111728.1166012,10.25390625,-27.83203125,-58.59375,17.08984375,-1.0,-1.0,1.0,0.0,2.m4v,8.0
2024-02-28 10:15:28.120507,1709111728.1205063,10.25390625,-23.92578125,-44.43359375,-0.48828125,-1.0,-1.0,1.0,0.0,2.m4v,8.0
2024-02-28 10:15:28.124412,1709111728.1244118,-1.953125,-26.3671875,-9.27734375,-0.48828125,-1.0,-1.0,1.0,0.0,2.m4v,8.0
2024-02-28 10:15:28.128317,1709111728.1283174,-8.30078125,-32.71484375,-15.13671875,16.6015625,-1.0,-1.0,1.0,0.0,2.m4v,8.0
2024-02-28 10:15:28.132223,1709111728.132223,-7.32421875,-41.015625,-24.90234375,23.92578125,-1.0,-1.0,1.0,0.0,2.m4v,8.0
2024-02-28 10:15:28.136128,1709111728.136128,0.48828125,-45.8984375,-26.85546875,23.4375,-1.0,-1.0,1.0,0.0,2.m4v,8.0
2024-02-28 10:15:28.140033,1709111728.1400332,16.11328125,-38.0859375,-34.1796875,31.73828125,-1.0,-1.0,1.0,0.0,2.m4v,8.0
2024-02-28 10:15:28.143939,1709111728.1439388,9.27734375,-33.69140625,-34.1796875,24.4140625,-1.0,-1.0,1.0,0.0,2.m4v,8.0
2024-02-28 10:15:28.147844,1709111728.147844,-9.765625,-34.1796875,-11.71875,10.7421875,-1.0,-1.0,1.0,0.0,2.m4v,8.0
2024-02-28 10:15:28.151749,1709111728.1517494,5.37109375,-31.25,-30.2734375,18.06640625,-1.0,-1.0,1.0,0.0,2.m4v,8.0
2024-02-28 10:15:28.487653,1709111728.4876523,-18.06640625,-28.3203125,-23.92578125,-13.671875,-1.0,-1.0,1.0,0.0,2.m4v,8.0
2024-02-28 10:15:28.792303,1709111728.7923028,-83.984375,-30.2734375,-21.97265625,-122.55859375,-1.0,-1.0,1.0,0.0,2.m4v,8.0
2024-02-28 10:15:28.796208,1709111728.796208,-77.1484375,-43.9453125,-10.7421875,-103.515625,-1.0,-1.0,1.0,0.0,2.m4v,8.0
2024-02-28 10:15:28.800114,1709111728.8001137,-59.08203125,-54.19921875,-1.46484375,-65.91796875,-1.0,-1.0,1.0,0.0,2.m4v,8.0
2024-02-28 10:15:28.804019,1709111728.804019,-41.015625,-33.69140625,-12.20703125,-43.45703125,-1.0,-1.0,1.0,0.0,2.m4v,8.0
2024-02-28 10:15:28.807924,1709111728.8079245,-34.1796875,-0.48828125,-55.6640625,-69.82421875,-1.0,-1.0,1.0,0.0,2.m4v,8.0
2024-02-28 10:15:28.811836,1709111728.8118362,-52.734375,-6.8359375,-51.26953125,-113.28125,-1.0,-1.0,1.0,0.0,2.m4v,8.0
2024-02-28 10:15:28.815742,1709111728.8157418,-56.15234375,-13.18359375,-12.6953125,-103.515625,-1.0,-1.0,1.0,0.0,2.m4v,8.0
2024-02-28 10:15:28.819647,1709111728.819647,-41.015625,-18.5546875,-32.71484375,-67.3828125,-1.0,-1.0,1.0,0.0,2.m4v,8.0
2024-02-28 10:15:28.823552,1709111728.8235524,-20.5078125,-27.34375,-66.40625,-49.31640625,-1.0,-1.0,1.0,0.0,2.m4v,8.0
2024-02-28 10:15:28.827458,1709111728.827458,-10.25390625,-36.1328125,-36.1328125,-38.57421875,-1.0,-1.0,1.0,0.0,2.m4v,8.0
2024-02-28 10:15:28.831363,1709111728.8313632,-10.7421875,-28.80859375,-7.8125,-19.04296875,-1.0,-1.0,1.0,0.0,2.m4v,8.0
2024-02-28 10:15:28.835268,1709111728.8352685,-17.578125,-23.4375,-15.13671875,-17.578125,-1.0,-1.0,1.0,0.0,2.m4v,8.0
2024-02-28 10:15:28.839174,1709111728.8391738,-16.11328125,-31.73828125,-17.578125,-22.94921875,-1.0,-1.0,1.0,0.0,2.m4v,8.0
2024-02-28 10:15:28.843079,1709111728.843079,-26.85546875,-38.57421875,-38.57421875,-36.62109375,-1.0,-1.0,1.0,0.0,2.m4v,8.0
2024-02-28 10:15:28.846985,1709111728.8469846,-33.203125,-30.2734375,-50.78125,-56.640625,-1.0,-1.0,1.0,0.0,2.m4v,8.0
2024-02-28 10:15:28.850890,1709111728.85089,-27.34375,-19.53125,-30.2734375,-36.62109375,-1.0,-1.0,1.0,0.0,2.m4v,8.0
2024-02-28 10:15:28.854795,1709111728.8547952,-42.48046875,-29.296875,-26.85546875,-28.80859375,-1.0,-1.0,1.0,0.0,2.m4v,8.0
2024-02-28 10:15:28.858707,1709111728.8587067,-40.0390625,-44.921875,-30.76171875,-44.921875,-1.0,-1.0,1.0,0.0,2.m4v,8.0
2024-02-28 10:15:28.862612,1709111728.862612,-29.78515625,-52.734375,-43.9453125,-17.08984375,-1.0,-1.0,1.0,0.0,2.m4v,8.0
2024-02-28 10:15:28.866517,1709111728.8665173,-27.34375,-29.78515625,-53.22265625,3.41796875,-1.0,-1.0,1.0,0.0,2.m4v,8.0
2024-02-28 10:15:28.870423,1709111728.8704228,-26.85546875,-18.06640625,-28.80859375,-21.484375,-1.0,-1.0,1.0,0.0,2.m4v,8.0
2024-02-28 10:15:28.874328,1709111728.874328,-38.57421875,-41.015625,-10.7421875,-46.38671875,-1.0,-1.0,1.0,0.0,2.m4v,8.0
2024-02-28 10:15:28.878233,1709111728.8782334,-44.921875,-55.17578125,-26.85546875,-49.31640625,-1.0,-1.0,1.0,0.0,2.m4v,8.0
2024-02-28 10:15:28.882139,1709111728.8821387,-49.31640625,-49.31640625,-44.43359375,-13.671875,-1.0,-1.0,1.0,0.0,2.m4v,8.0
2024-02-28 10:15:28.886044,1709111728.8860445,-30.2734375,-37.109375,-43.9453125,0.9765625,-1.0,-1.0,1.0,0.0,2.m4v,8.0
2024-02-28 10:15:28.889950,1709111728.8899496,-26.85546875,-25.87890625,-43.45703125,-18.06640625,-1.0,-1.0,1.0,0.0,2.m4v,8.0
2024-02-28 10:15:28.893855,1709111728.8938549,-22.94921875,-17.08984375,-42.48046875,-27.83203125,-1.0,-1.0,1.0,0.0,2.m4v,8.0
2024-02-28 10:15:28.897760,1709111728.8977602,-6.8359375,-28.3203125,-38.57421875,-9.27734375,-1.0,-1.0,1.0,0.0,2.m4v,8.0
2024-02-28 10:15:28.901666,1709111728.9016657,-28.80859375,-53.22265625,-14.16015625,-24.90234375,-1.0,-1.0,1.0,0.0,2.m4v,8.0
2024-02-28 10:15:28.905577,1709111728.905577,-42.96875,-47.8515625,-17.08984375,-56.15234375,-1.0,-1.0,1.0,0.0,2.m4v,8.0
2024-02-28 10:15:28.909482,1709111728.9094822,-43.45703125,-29.78515625,-46.875,-56.640625,-1.0,-1.0,1.0,0.0,2.m4v,8.0
2024-02-28 10:15:28.913388,1709111728.9133875,-36.62109375,-19.53125,-40.52734375,-30.76171875,-1.0,-1.0,1.0,0.0,2.m4v,8.0
2024-02-28 10:15:28.917293,1709111728.917293,-22.4609375,-24.4140625,-32.2265625,-14.6484375,-1.0,-1.0,1.0,0.0,2.m4v,8.0
2024-02-28 10:15:28.921198,1709111728.9211984,-12.6953125,-33.203125,-39.0625,-10.7421875,-1.0,-1.0,1.0,0.0,2.m4v,8.0
2024-02-28 10:15:28.925104,1709111728.9251037,-8.7890625,-32.71484375,-34.1796875,-27.34375,-1.0,-1.0,1.0,0.0,2.m4v,8.0
2024-02-28 10:15:28.929009,1709111728.929009,-24.90234375,-29.78515625,-18.06640625,-34.1796875,-1.0,-1.0,1.0,0.0,2.m4v,8.0
2024-02-28 10:15:28.932914,1709111728.9329145,-34.1796875,-22.94921875,-40.52734375,0.0,-1.0,-1.0,1.0,0.0,2.m4v,8.0
2024-02-28 10:15:28.936820,1709111728.9368198,-20.01953125,-31.73828125,-68.359375,6.8359375,-1.0,-1.0,1.0,0.0,2.m4v,8.0
2024-02-28 10:15:28.940725,1709111728.940725,-19.04296875,-48.33984375,-46.875,2.9296875,-1.0,-1.0,1.0,0.0,2.m4v,8.0
2024-02-28 10:15:28.944630,1709111728.9446304,-29.78515625,-44.921875,-23.92578125,-25.390625,-1.0,-1.0,1.0,0.0,2.m4v,8.0
2024-02-28 10:15:28.948536,1709111728.948536,-42.48046875,-24.90234375,-27.34375,-38.57421875,-1.0,-1.0,1.0,0.0,2.m4v,8.0
2024-02-28 10:15:28.952447,1709111728.952447,-44.921875,-19.53125,-40.0390625,-30.2734375,-1.0,-1.0,1.0,0.0,2.m4v,8.0
2024-02-28 10:15:28.956352,1709111728.9563522,-41.50390625,-21.484375,-35.15625,-48.828125,-1.0,-1.0,1.0,0.0,2.m4v,8.0
2024-02-28 10:15:28.960258,1709111728.9602578,-29.78515625,-23.92578125,-33.69140625,-42.96875,-1.0,-1.0,1.0,0.0,2.m4v,8.0
2024-02-28 10:15:28.964163,1709111728.964163,-21.97265625,-30.2734375,-33.69140625,-32.2265625,-1.0,-1.0,1.0,0.0,2.m4v,8.0
2024-02-28 10:15:28.968068,1709111728.9680684,-25.87890625,-24.4140625,-44.43359375,-10.7421875,-1.0,-1.0,1.0,0.0,2.m4v,8.0
2024-02-28 10:15:28.971974,1709111728.9719737,-6.34765625,-27.34375,-57.12890625,15.13671875,-1.0,-1.0,1.0,0.0,2.m4v,8.0
2024-02-28 10:15:28.975879,1709111728.9758792,-6.34765625,-41.9921875,-34.66796875,-10.7421875,-1.0,-1.0,1.0,0.0,2.m4v,8.0
2024-02-28 10:15:28.979784,1709111728.9797845,-42.48046875,-34.1796875,-17.08984375,-51.26953125,-1.0,-1.0,1.0,0.0,2.m4v,8.0
2024-02-28 10:15:28.983690,1709111728.9836898,-36.62109375,-20.99609375,-16.6015625,-45.8984375,-1.0,-1.0,1.0,0.0,2.m4v,8.0
2024-02-28 10:15:28.987595,1709111728.987595,-34.66796875,-18.06640625,-23.92578125,-41.015625,-1.0,-1.0,1.0,0.0,2.m4v,8.0
2024-02-28 10:15:28.991501,1709111728.9915006,-35.15625,-17.578125,-20.99609375,-17.08984375,-1.0,-1.0,1.0,0.0,2.m4v,8.0
2024-02-28 10:15:28.995406,1709111728.995406,-10.25390625,-31.73828125,-28.3203125,-7.8125,-1.0,-1.0,1.0,0.0,2.m4v,8.0
2024-02-28 10:15:28.999320,1709111728.9993198,-10.7421875,-40.0390625,-63.4765625,-25.390625,-1.0,-1.0,1.0,0.0,2.m4v,8.0
2024-02-28 10:15:29.003225,1709111729.003225,-20.5078125,-28.3203125,-56.640625,-28.80859375,-1.0,-1.0,1.0,0.0,2.m4v,8.0
2024-02-28 10:15:29.007130,1709111729.0071304,-7.32421875,-18.06640625,-12.20703125,-22.4609375,-1.0,-1.0,1.0,0.0,2.m4v,8.0
2024-02-28 10:15:29.011036,1709111729.0110357,-4.8828125,-23.92578125,-7.32421875,-16.11328125,-1.0,-1.0,1.0,0.0,2.m4v,8.0
2024-02-28 10:15:29.014941,1709111729.0149412,-25.87890625,-45.41015625,-18.5546875,-29.296875,-1.0,-1.0,1.0,0.0,2.m4v,8.0
2024-02-28 10:15:29.018847,1709111729.0188465,-27.83203125,-43.9453125,-28.80859375,-1.46484375,-1.0,-1.0,1.0,0.0,2.m4v,8.0
2024-02-28 10:15:29.022752,1709111729.0227518,-9.27734375,-19.04296875,-40.0390625,29.78515625,-1.0,-1.0,1.0,0.0,2.m4v,8.0
2024-02-28 10:15:29.026657,1709111729.026657,-2.44140625,-2.9296875,-30.2734375,19.53125,-1.0,-1.0,1.0,0.0,2.m4v,8.0
2024-02-28 10:15:29.030563,1709111729.0305626,-13.671875,1.46484375,-35.64453125,-21.97265625,-1.0,-1.0,1.0,0.0,2.m4v,8.0
2024-02-28 10:15:29.034468,1709111729.034468,-29.78515625,-6.8359375,-57.6171875,-39.55078125,-1.0,-1.0,1.0,0.0,2.m4v,8.0
2024-02-28 10:15:29.038373,1709111729.0383732,-25.390625,-29.78515625,-30.2734375,-49.31640625,-1.0,-1.0,1.0,0.0,2.m4v,8.0
2024-02-28 10:15:29.042279,1709111729.0422783,-25.390625,-49.31640625,-10.7421875,-57.6171875,-1.0,-1.0,1.0,0.0,2.m4v,8.0
2024-02-28 10:15:29.046188,1709111729.046188,-29.78515625,-47.8515625,-29.296875,-31.73828125,-1.0,-1.0,1.0,0.0,2.m4v,8.0
2024-02-28 10:15:29.050093,1709111729.0500934,-31.25,-47.36328125,-44.43359375,-18.5546875,-1.0,-1.0,1.0,0.0,2.m4v,8.0
2024-02-28 10:15:29.053999,1709111729.0539987,-24.90234375,-42.96875,-54.19921875,-19.04296875,-1.0,-1.0,1.0,0.0,2.m4v,8.0
2024-02-28 10:15:29.057904,1709111729.0579042,-23.92578125,-30.2734375,-45.8984375,-3.90625,-1.0,-1.0,1.0,0.0,2.m4v,8.0
2024-02-28 10:15:29.061810,1709111729.0618095,-34.66796875,-35.64453125,-34.66796875,-31.25,-1.0,-1.0,1.0,0.0,2.m4v,8.0
2024-02-28 10:15:29.065715,1709111729.0657148,-33.69140625,-33.69140625,-19.53125,-37.109375,-1.0,-1.0,1.0,0.0,2.m4v,8.0
2024-02-28 10:15:29.378186,1709111729.3781855,-43.45703125,-38.57421875,-50.29296875,-24.4140625,-1.0,-1.0,1.0,0.0,2.m4v,8.0
2024-02-28 10:15:29.382091,1709111729.3820908,-31.25,-39.55078125,-58.59375,-30.2734375,-1.0,-1.0,1.0,0.0,2.m4v,8.0
2024-02-28 10:15:29.385996,1709111729.385996,-32.2265625,-38.0859375,-17.08984375,-52.24609375,-1.0,-1.0,1.0,0.0,2.m4v,8.0
2024-02-28 10:15:29.389902,1709111729.3899016,-41.9921875,-46.875,-12.6953125,-29.78515625,-1.0,-1.0,1.0,0.0,2.m4v,8.0
2024-02-28 10:15:29.393807,1709111729.393807,-40.0390625,-42.48046875,-59.5703125,-16.6015625,-1.0,-1.0,1.0,0.0,2.m4v,8.0
2024-02-28 10:15:29.397712,1709111729.3977122,-29.296875,-33.69140625,-44.43359375,-4.39453125,-1.0,-1.0,1.0,0.0,2.m4v,8.0
2024-02-28 10:15:29.401618,1709111729.4016175,-29.296875,-39.55078125,-17.578125,-20.5078125,-1.0,-1.0,1.0,0.0,2.m4v,8.0
2024-02-28 10:15:29.405523,1709111729.405523,-46.875,-42.48046875,-18.06640625,-21.484375,-1.0,-1.0,1.0,0.0,2.m4v,8.0
2024-02-28 10:15:29.409428,1709111729.4094284,-37.59765625,-30.2734375,-42.96875,-8.30078125,-1.0,-1.0,1.0,0.0,2.m4v,8.0
2024-02-28 10:15:29.413334,1709111729.4133337,-13.18359375,-20.5078125,-51.7578125,-47.8515625,-1.0,-1.0,1.0,0.0,2.m4v,8.0
2024-02-28 10:15:29.417239,1709111729.417239,-32.71484375,-26.85546875,-29.296875,-55.17578125,-1.0,-1.0,1.0,0.0,2.m4v,8.0
2024-02-28 10:15:29.421149,1709111729.4211483,-32.2265625,-18.06640625,-7.8125,-18.06640625,-1.0,-1.0,1.0,0.0,2.m4v,8.0
2024-02-28 10:15:29.425054,1709111729.4250538,-17.08984375,-21.97265625,-14.16015625,13.671875,-1.0,-1.0,1.0,0.0,2.m4v,8.0
2024-02-28 10:15:29.428959,1709111729.4289591,-36.62109375,-44.921875,-36.1328125,4.8828125,-1.0,-1.0,1.0,0.0,2.m4v,8.0
2024-02-28 10:15:29.432865,1709111729.432865,-51.26953125,-52.734375,-32.71484375,-41.9921875,-1.0,-1.0,1.0,0.0,2.m4v,8.0
2024-02-28 10:15:29.436770,1709111729.43677,-45.41015625,-54.6875,-25.390625,-62.98828125,-1.0,-1.0,1.0,0.0,2.m4v,8.0
2024-02-28 10:15:29.440675,1709111729.4406753,-31.25,-37.59765625,-24.4140625,-21.97265625,-1.0,-1.0,1.0,0.0,2.m4v,8.0
2024-02-28 10:15:29.444581,1709111729.4445808,-37.109375,-14.6484375,-31.25,7.32421875,-1.0,-1.0,1.0,0.0,2.m4v,8.0
2024-02-28 10:15:29.448486,1709111729.448486,-36.1328125,-13.18359375,-32.71484375,-42.96875,-1.0,-1.0,1.0,0.0,2.m4v,8.0
2024-02-28 10:15:29.452391,1709111729.4523914,-28.3203125,-19.04296875,-10.7421875,-30.2734375,-1.0,-1.0,1.0,0.0,2.m4v,8.0
2024-02-28 10:15:29.456297,1709111729.4562967,-28.3203125,-18.06640625,-41.015625,15.625,-1.0,-1.0,1.0,0.0,2.m4v,8.0
2024-02-28 10:15:29.460202,1709111729.4602022,-26.85546875,-19.04296875,-69.82421875,-10.25390625,-1.0,-1.0,1.0,0.0,2.m4v,8.0
2024-02-28 10:15:29.464108,1709111729.4641075,-39.55078125,-32.2265625,-33.69140625,-48.828125,-1.0,-1.0,1.0,0.0,2.m4v,8.0
2024-02-28 10:15:29.468017,1709111729.4680166,-46.875,-43.9453125,-0.9765625,-48.828125,-1.0,-1.0,1.0,0.0,2.m4v,8.0
2024-02-28 10:15:29.471922,1709111729.471922,-44.43359375,-50.29296875,1.46484375,-40.0390625,-1.0,-1.0,1.0,0.0,2.m4v,8.0
2024-02-28 10:15:29.475827,1709111729.4758277,-48.33984375,-55.17578125,-5.859375,-37.59765625,-1.0,-1.0,1.0,0.0,2.m4v,8.0
2024-02-28 10:15:29.479733,1709111729.4797328,-40.0390625,-43.9453125,-23.4375,-36.1328125,-1.0,-1.0,1.0,0.0,2.m4v,8.0
2024-02-28 10:15:29.483638,1709111729.483638,-32.2265625,-27.34375,-51.26953125,-9.27734375,-1.0,-1.0,1.0,0.0,2.m4v,8.0
2024-02-28 10:15:29.487543,1709111729.487543,-28.3203125,-23.92578125,-73.73046875,29.78515625,-1.0,-1.0,1.0,0.0,2.m4v,8.0
2024-02-28 10:15:29.491449,1709111729.4914489,-36.62109375,-15.13671875,-89.84375,-14.16015625,-1.0,-1.0,1.0,0.0,2.m4v,8.0
2024-02-28 10:15:29.514888,1709111729.5148883,-24.4140625,-17.08984375,-21.97265625,31.73828125,-1.0,-1.0,1.0,0.0,2.m4v,8.0
2024-02-28 10:15:29.522699,1709111729.522699,-13.18359375,-18.06640625,-66.89453125,-53.22265625,-1.0,-1.0,1.0,0.0,2.m4v,8.0
2024-02-28 10:15:29.534415,1709111729.5344152,-39.55078125,-42.96875,-30.2734375,-37.109375,-1.0,-1.0,1.0,0.0,2.m4v,8.0
2024-02-28 10:15:29.546131,1709111729.5461311,-38.0859375,-34.1796875,-23.4375,-62.5,-1.0,-1.0,1.0,0.0,2.m4v,8.0
2024-02-28 10:15:29.557847,1709111729.5578473,-28.3203125,-57.6171875,-42.96875,-42.96875,-1.0,-1.0,1.0,0.0,2.m4v,8.0
2024-02-28 10:15:29.569574,1709111729.5695736,-27.83203125,-26.85546875,-48.828125,-8.30078125,-1.0,-1.0,1.0,0.0,2.m4v,8.0
2024-02-28 10:15:29.581290,1709111729.5812898,-36.62109375,-27.83203125,-34.66796875,-45.41015625,-1.0,-1.0,1.0,0.0,2.m4v,8.0
2024-02-28 10:15:29.593006,1709111729.593006,-32.71484375,-33.203125,-22.4609375,-58.10546875,-1.0,-1.0,1.0,0.0,2.m4v,8.0
2024-02-28 10:15:29.604722,1709111729.604722,-24.4140625,-26.85546875,-40.0390625,2.44140625,-1.0,-1.0,1.0,0.0,2.m4v,8.0
2024-02-28 10:15:29.616444,1709111729.616444,-37.59765625,-21.484375,-33.203125,-8.7890625,-1.0,-1.0,1.0,0.0,2.m4v,8.0
2024-02-28 10:15:29.628160,1709111729.62816,-32.71484375,-46.875,-11.23046875,-21.97265625,-1.0,-1.0,1.0,0.0,2.m4v,8.0
2024-02-28 10:15:29.639876,1709111729.639876,-32.2265625,-8.30078125,-24.90234375,5.37109375,-1.0,-1.0,1.0,0.0,2.m4v,8.0
2024-02-28 10:15:29.651592,1709111729.6515925,-33.203125,-40.52734375,-18.5546875,-65.91796875,-1.0,-1.0,1.0,0.0,2.m4v,8.0
2024-02-28 10:15:29.663314,1709111729.663314,-34.1796875,-22.94921875,-35.64453125,14.6484375,-1.0,-1.0,1.0,0.0,2.m4v,8.0
2024-02-28 10:15:29.675030,1709111729.67503,-60.05859375,-36.62109375,-43.45703125,-46.875,-1.0,-1.0,1.0,0.0,2.m4v,8.0
2024-02-28 10:15:29.686746,1709111729.686746,-62.98828125,-26.3671875,-26.85546875,-54.19921875,-1.0,-1.0,1.0,0.0,2.m4v,8.0
2024-02-28 10:15:29.698462,1709111729.6984622,-26.3671875,-27.83203125,-33.69140625,3.90625,-1.0,-1.0,1.0,0.0,2.m4v,8.0
2024-02-28 10:15:29.710183,1709111729.7101834,-31.25,-62.5,-22.4609375,-54.19921875,-1.0,-1.0,1.0,0.0,2.m4v,8.0
2024-02-28 10:15:29.721899,1709111729.7218993,-36.62109375,-18.06640625,-4.8828125,-57.12890625,-1.0,-1.0,1.0,0.0,2.m4v,8.0
2024-02-28 10:15:29.733615,1709111729.7336154,-46.38671875,-26.85546875,-67.87109375,-9.765625,-1.0,-1.0,1.0,0.0,2.m4v,8.0
2024-02-28 10:15:29.745332,1709111729.7453315,-36.1328125,-48.33984375,-7.32421875,-74.70703125,-1.0,-1.0,1.0,0.0,2.m4v,8.0
2024-02-28 10:15:29.757052,1709111729.7570522,0.48828125,-30.76171875,-65.91796875,-6.34765625,-1.0,-1.0,1.0,0.0,2.m4v,8.0
2024-02-28 10:15:29.768768,1709111729.768768,-21.97265625,-31.73828125,-13.671875,-47.8515625,-1.0,-1.0,1.0,0.0,2.m4v,8.0
2024-02-28 10:15:29.780484,1709111729.7804842,-41.9921875,-31.73828125,-30.76171875,-24.90234375,-1.0,-1.0,1.0,0.0,2.m4v,8.0
2024-02-28 10:15:29.792200,1709111729.7922003,-28.80859375,-32.2265625,-23.4375,-48.828125,-1.0,-1.0,1.0,0.0,2.m4v,8.0
2024-02-28 10:15:29.803921,1709111729.803921,-38.57421875,-24.4140625,-41.9921875,-43.9453125,-1.0,-1.0,1.0,0.0,2.m4v,8.0
2024-02-28 10:15:29.815637,1709111729.815637,-44.43359375,-28.80859375,-15.13671875,-80.078125,-1.0,-1.0,1.0,0.0,2.m4v,8.0
2024-02-28 10:15:29.827353,1709111729.8273532,-27.34375,-22.94921875,-20.01953125,-50.29296875,-1.0,-1.0,1.0,0.0,2.m4v,8.0
2024-02-28 10:15:29.839069,1709111729.8390691,-20.99609375,-10.7421875,-50.29296875,-67.3828125,-1.0,-1.0,1.0,0.0,2.m4v,8.0
2024-02-28 10:15:29.850789,1709111729.8507888,-27.34375,-55.17578125,-17.08984375,-63.4765625,-1.0,-1.0,1.0,0.0,2.m4v,8.0
2024-02-28 10:15:29.862505,1709111729.8625047,-39.0625,-25.390625,-20.99609375,-9.27734375,-1.0,-1.0,1.0,0.0,2.m4v,8.0
2024-02-28 10:15:29.874221,1709111729.8742208,-40.0390625,-35.64453125,-32.2265625,-39.0625,-1.0,-1.0,1.0,0.0,2.m4v,8.0
2024-02-28 10:15:29.885937,1709111729.885937,-40.52734375,-34.1796875,-9.27734375,-54.6875,-1.0,-1.0,1.0,0.0,2.m4v,8.0
2024-02-28 10:15:29.897660,1709111729.89766,-17.08984375,-14.16015625,-45.41015625,-50.78125,-1.0,-1.0,1.0,0.0,2.m4v,8.0
2024-02-28 10:15:29.909376,1709111729.909376,-15.625,-27.34375,-30.76171875,-87.890625,-1.0,-1.0,1.0,0.0,2.m4v,8.0
2024-02-28 10:15:29.921092,1709111729.9210925,-38.0859375,-30.2734375,-20.99609375,-37.109375,-1.0,-1.0,1.0,0.0,2.m4v,8.0
2024-02-28 10:15:29.932808,1709111729.9328082,-23.92578125,-49.31640625,-53.7109375,-44.43359375,-1.0,-1.0,1.0,0.0,2.m4v,8.0
2024-02-28 10:15:29.944531,1709111729.944531,-35.15625,-11.23046875,-4.8828125,-13.18359375,-1.0,-1.0,1.0,0.0,2.m4v,8.0
2024-02-28 10:15:29.956247,1709111729.9562469,-45.41015625,-49.8046875,-16.11328125,-65.91796875,-1.0,-1.0,1.0,0.0,2.m4v,8.0
2024-02-28 10:15:29.967963,1709111729.967963,-33.203125,-46.38671875,-38.0859375,16.11328125,-1.0,-1.0,1.0,0.0,2.m4v,8.0
2024-02-28 10:15:29.979679,1709111729.979679,-66.89453125,-35.64453125,-44.43359375,-71.2890625,-1.0,-1.0,1.0,0.0,2.m4v,8.0
2024-02-28 10:15:29.991401,1709111729.9914012,-55.17578125,-33.69140625,-16.11328125,-59.5703125,-1.0,-1.0,1.0,0.0,2.m4v,8.0
2024-02-28 10:15:30.003117,1709111730.003117,-12.20703125,-2.44140625,-77.1484375,-9.27734375,-1.0,-1.0,1.0,0.0,2.m4v,8.0
2024-02-28 10:15:30.014833,1709111730.0148332,-39.55078125,-57.6171875,-8.30078125,-38.0859375,-1.0,-1.0,1.0,0.0,2.m4v,8.0
2024-02-28 10:15:30.026549,1709111730.026549,-36.62109375,-10.7421875,-37.59765625,-109.86328125,-1.0,-1.0,1.0,0.0,2.m4v,8.0
2024-02-28 10:15:30.038271,1709111730.0382714,-51.7578125,-38.57421875,-29.78515625,-28.80859375,-1.0,-1.0,1.0,0.0,2.m4v,8.0
2024-02-28 10:15:30.049988,1709111730.0499876,-47.36328125,-17.08984375,-23.92578125,-66.89453125,-1.0,-1.0,1.0,0.0,2.m4v,8.0
2024-02-28 10:15:30.049988,1709111730.0499876,-47.36328125,-17.08984375,-23.92578125,-66.89453125,-1.0,-1.0,1.0,0.0,2.m4v,8.0
2024-02-28 10:15:30.061704,1709111730.0617037,-52.24609375,-55.6640625,-1.953125,-50.78125,-1.0,-1.0,1.0,0.0,2.m4v,8.0
2024-02-28 10:15:30.061704,1709111730.0617037,-52.24609375,-55.6640625,-1.953125,-50.78125,-1.0,-1.0,1.0,0.0,2.m4v,8.0
2024-02-28 10:15:30.073420,1709111730.0734196,-56.15234375,-16.6015625,-53.7109375,-28.80859375,-1.0,-1.0,1.0,0.0,2.m4v,8.0
2024-02-28 10:15:30.073420,1709111730.0734196,-56.15234375,-16.6015625,-53.7109375,-28.80859375,-1.0,-1.0,1.0,0.0,2.m4v,8.0
2024-02-28 10:15:30.085140,1709111730.0851405,-41.015625,-36.62109375,-35.64453125,-3.90625,-1.0,-1.0,1.0,0.0,2.m4v,8.0
2024-02-28 10:15:30.085140,1709111730.0851405,-41.015625,-36.62109375,-35.64453125,-3.90625,-1.0,-1.0,1.0,0.0,2.m4v,8.0
2024-02-28 10:15:30.096857,1709111730.0968566,-33.69140625,-30.76171875,-20.99609375,-90.8203125,-1.0,-1.0,1.0,0.0,2.m4v,8.0
2024-02-28 10:15:30.096857,1709111730.0968566,-33.69140625,-30.76171875,-20.99609375,-90.8203125,-1.0,-1.0,1.0,0.0,2.m4v,8.0
2024-02-28 10:15:30.108573,1709111730.1085727,10.7421875,-31.73828125,-84.9609375,11.23046875,-1.0,-1.0,1.0,0.0,2.m4v,8.0
2024-02-28 10:15:30.499157,1709111730.499157,-24.4140625,-39.0625,-24.4140625,-21.97265625,-1.0,-1.0,1.0,0.0,2.m4v,8.0
2024-02-28 10:15:30.503062,1709111730.5030625,-31.25,-34.1796875,-38.57421875,-35.15625,-1.0,-1.0,1.0,0.0,2.m4v,8.0
2024-02-28 10:15:30.506968,1709111730.5069678,-41.50390625,-42.48046875,-12.6953125,-45.8984375,-1.0,-1.0,1.0,0.0,2.m4v,8.0
2024-02-28 10:15:30.510873,1709111730.510873,-60.05859375,-35.15625,-15.625,-13.18359375,-1.0,-1.0,1.0,0.0,2.m4v,8.0
2024-02-28 10:15:30.514778,1709111730.5147784,-20.01953125,-24.4140625,-34.66796875,-58.10546875,-1.0,-1.0,1.0,0.0,2.m4v,8.0
2024-02-28 10:15:30.518684,1709111730.518684,9.765625,-16.6015625,-27.83203125,-54.6875,-1.0,-1.0,1.0,0.0,2.m4v,8.0
2024-02-28 10:15:30.522589,1709111730.5225892,-13.671875,-16.11328125,-27.34375,-32.2265625,-1.0,-1.0,1.0,0.0,2.m4v,8.0
2024-02-28 10:15:30.526495,1709111730.5264945,-48.33984375,-30.76171875,-29.296875,-37.59765625,-1.0,-1.0,1.0,0.0,2.m4v,8.0
2024-02-28 10:15:30.530400,1709111730.5304,-63.96484375,-32.2265625,-31.73828125,-71.77734375,-1.0,-1.0,1.0,0.0,2.m4v,8.0
2024-02-28 10:15:30.534305,1709111730.534305,-49.31640625,-30.76171875,-49.31640625,-35.64453125,-1.0,-1.0,1.0,0.0,2.m4v,8.0
2024-02-28 10:15:30.538211,1709111730.5382106,-40.0390625,-27.83203125,-70.80078125,53.22265625,-1.0,-1.0,1.0,0.0,2.m4v,8.0
2024-02-28 10:15:30.542116,1709111730.542116,-6.8359375,-15.13671875,-73.2421875,17.578125,-1.0,-1.0,1.0,0.0,2.m4v,8.0
2024-02-28 10:15:30.546026,1709111730.5460255,27.34375,-12.20703125,-60.05859375,-50.78125,-1.0,-1.0,1.0,0.0,2.m4v,8.0
2024-02-28 10:15:30.549931,1709111730.5499308,1.46484375,-13.671875,-27.83203125,-48.828125,-1.0,-1.0,1.0,0.0,2.m4v,8.0
2024-02-28 10:15:30.553836,1709111730.553836,-42.48046875,-28.80859375,2.44140625,-52.734375,-1.0,-1.0,1.0,0.0,2.m4v,8.0
2024-02-28 10:15:30.557742,1709111730.5577416,-51.26953125,-33.69140625,5.37109375,-9.765625,-1.0,-1.0,1.0,0.0,2.m4v,8.0
2024-02-28 10:15:30.561647,1709111730.561647,-23.92578125,-27.34375,-27.34375,-34.1796875,-1.0,-1.0,1.0,0.0,2.m4v,8.0
2024-02-28 10:15:30.565552,1709111730.5655522,2.44140625,-25.390625,-45.41015625,-68.359375,-1.0,-1.0,1.0,0.0,2.m4v,8.0
2024-02-28 10:15:30.569458,1709111730.5694575,-13.18359375,-29.78515625,-28.80859375,-62.01171875,-1.0,-1.0,1.0,0.0,2.m4v,8.0
2024-02-28 10:15:30.573363,1709111730.573363,-30.2734375,-32.71484375,-41.015625,-65.4296875,-1.0,-1.0,1.0,0.0,2.m4v,8.0
2024-02-28 10:15:30.577268,1709111730.5772684,-13.18359375,-11.71875,-62.01171875,-26.85546875,-1.0,-1.0,1.0,0.0,2.m4v,8.0
2024-02-28 10:15:30.581174,1709111730.5811737,-5.37109375,-2.44140625,-34.66796875,24.90234375,-1.0,-1.0,1.0,0.0,2.m4v,8.0
2024-02-28 10:15:30.585079,1709111730.585079,-28.3203125,-23.4375,-8.7890625,-2.9296875,-1.0,-1.0,1.0,0.0,2.m4v,8.0
2024-02-28 10:15:30.588984,1709111730.5889845,-34.66796875,-33.69140625,-21.97265625,-74.21875,-1.0,-1.0,1.0,0.0,2.m4v,8.0
2024-02-28 10:15:30.592893,1709111730.5928934,-43.9453125,-28.80859375,-34.66796875,-46.875,-1.0,-1.0,1.0,0.0,2.m4v,8.0
2024-02-28 10:15:30.596799,1709111730.596799,-30.76171875,-28.80859375,-36.62109375,-20.01953125,-1.0,-1.0,1.0,0.0,2.m4v,8.0
2024-02-28 10:15:30.600704,1709111730.600704,-12.20703125,-23.92578125,-40.0390625,-1.953125,-1.0,-1.0,1.0,0.0,2.m4v,8.0
2024-02-28 10:15:30.604609,1709111730.6046095,-8.30078125,-20.5078125,-34.1796875,-30.76171875,-1.0,-1.0,1.0,0.0,2.m4v,8.0
2024-02-28 10:15:30.608515,1709111730.6085148,-30.2734375,-32.71484375,-27.83203125,-67.87109375,-1.0,-1.0,1.0,0.0,2.m4v,8.0
2024-02-28 10:15:30.612420,1709111730.61242,-37.109375,-45.8984375,-42.96875,58.59375,-1.0,-1.0,1.0,0.0,2.m4v,8.0
2024-02-28 10:15:30.616325,1709111730.6163254,-21.97265625,-38.57421875,-42.96875,4.39453125,-1.0,-1.0,1.0,0.0,2.m4v,8.0
2024-02-28 10:15:30.620231,1709111730.620231,-36.62109375,-28.80859375,-25.87890625,-94.23828125,-1.0,-1.0,1.0,0.0,2.m4v,8.0
2024-02-28 10:15:30.624136,1709111730.6241362,-37.109375,-41.015625,-25.87890625,-2.9296875,-1.0,-1.0,1.0,0.0,2.m4v,8.0
2024-02-28 10:15:30.628042,1709111730.6280415,-20.99609375,-49.31640625,-41.9921875,-32.2265625,-1.0,-1.0,1.0,0.0,2.m4v,8.0
2024-02-28 10:15:30.631947,1709111730.631947,-50.78125,-41.015625,-42.48046875,-55.6640625,-1.0,-1.0,1.0,0.0,2.m4v,8.0
2024-02-28 10:15:30.635852,1709111730.6358523,-62.5,-25.87890625,-29.78515625,-100.5859375,-1.0,-1.0,1.0,0.0,2.m4v,8.0
2024-02-28 10:15:30.639769,1709111730.6397688,-23.4375,-12.6953125,-15.625,-84.47265625,-1.0,-1.0,1.0,0.0,2.m4v,8.0
2024-02-28 10:15:30.643674,1709111730.643674,-9.27734375,-25.390625,-15.625,25.87890625,-1.0,-1.0,1.0,0.0,2.m4v,8.0
2024-02-28 10:15:30.647579,1709111730.6475794,-56.15234375,-33.203125,-40.52734375,-28.80859375,-1.0,-1.0,1.0,0.0,2.m4v,8.0
2024-02-28 10:15:30.651485,1709111730.651485,-87.890625,-40.0390625,-21.484375,-81.0546875,-1.0,-1.0,1.0,0.0,2.m4v,8.0
2024-02-28 10:15:30.655390,1709111730.6553905,-41.015625,-38.57421875,-18.5546875,-46.875,-1.0,-1.0,1.0,0.0,2.m4v,8.0
2024-02-28 10:15:30.659296,1709111730.6592956,-26.85546875,-34.66796875,-32.71484375,-43.45703125,-1.0,-1.0,1.0,0.0,2.m4v,8.0
2024-02-28 10:15:30.663201,1709111730.6632009,-31.73828125,-44.921875,-31.25,-58.10546875,-1.0,-1.0,1.0,0.0,2.m4v,8.0
2024-02-28 10:15:30.667106,1709111730.6671064,-30.2734375,-58.10546875,-23.92578125,-42.48046875,-1.0,-1.0,1.0,0.0,2.m4v,8.0
2024-02-28 10:15:30.671012,1709111730.6710117,-36.1328125,-48.828125,-15.625,5.37109375,-1.0,-1.0,1.0,0.0,2.m4v,8.0
2024-02-28 10:15:30.674917,1709111730.674917,-13.671875,-36.62109375,-30.2734375,-49.8046875,-1.0,-1.0,1.0,0.0,2.m4v,8.0
2024-02-28 10:15:30.678823,1709111730.6788225,-15.625,-36.1328125,-35.64453125,-31.73828125,-1.0,-1.0,1.0,0.0,2.m4v,8.0
2024-02-28 10:15:30.682728,1709111730.6827278,-34.66796875,-29.78515625,-24.90234375,-5.37109375,-1.0,-1.0,1.0,0.0,2.m4v,8.0
2024-02-28 10:15:30.686640,1709111730.6866398,-28.3203125,-27.83203125,-24.4140625,-46.38671875,-1.0,-1.0,1.0,0.0,2.m4v,8.0
2024-02-28 10:15:30.690545,1709111730.690545,-31.73828125,-31.25,-27.34375,-42.48046875,-1.0,-1.0,1.0,0.0,2.m4v,8.0
2024-02-28 10:15:30.694450,1709111730.6944504,-25.87890625,-39.55078125,-24.90234375,-36.1328125,-1.0,-1.0,1.0,0.0,2.m4v,8.0
2024-02-28 10:15:30.698356,1709111730.6983557,-25.87890625,-37.59765625,-30.2734375,-28.3203125,-1.0,-1.0,1.0,0.0,2.m4v,8.0
2024-02-28 10:15:30.702261,1709111730.7022612,-23.92578125,-28.3203125,-30.2734375,-19.53125,-1.0,-1.0,1.0,0.0,2.m4v,8.0
2024-02-28 10:15:30.702261,1709111730.7022612,-23.92578125,-28.3203125,-30.2734375,-19.53125,-1.0,-1.0,1.0,0.0,2.m4v,8.0
2024-02-28 10:15:30.706167,1709111730.7061665,-27.83203125,-21.97265625,-28.80859375,9.765625,-1.0,-1.0,1.0,0.0,2.m4v,8.0
2024-02-28 10:15:30.706167,1709111730.7061665,-27.83203125,-21.97265625,-28.80859375,9.765625,-1.0,-1.0,1.0,0.0,2.m4v,8.0
2024-02-28 10:15:30.710072,1709111730.7100718,-37.59765625,-18.06640625,-39.0625,25.390625,-1.0,-1.0,1.0,0.0,2.m4v,8.0
2024-02-28 10:15:30.710072,1709111730.7100718,-37.59765625,-18.06640625,-39.0625,25.390625,-1.0,-1.0,1.0,0.0,2.m4v,8.0
2024-02-28 10:15:30.713977,1709111730.713977,-18.5546875,-28.3203125,-32.71484375,-24.4140625,-1.0,-1.0,1.0,0.0,2.m4v,8.0
2024-02-28 10:15:30.713977,1709111730.713977,-18.5546875,-28.3203125,-32.71484375,-24.4140625,-1.0,-1.0,1.0,0.0,2.m4v,8.0
2024-02-28 10:15:30.717883,1709111730.7178826,-25.390625,-56.15234375,-13.18359375,-42.48046875,-1.0,-1.0,1.0,0.0,2.m4v,8.0
2024-02-28 10:15:30.717883,1709111730.7178826,-25.390625,-56.15234375,-13.18359375,-42.48046875,-1.0,-1.0,1.0,0.0,2.m4v,8.0
2024-02-28 10:15:30.721788,1709111730.721788,-38.0859375,-59.5703125,-39.0625,-17.08984375,-1.0,-1.0,1.0,0.0,2.m4v,8.0
2024-02-28 10:15:30.721788,1709111730.721788,-38.0859375,-59.5703125,-39.0625,-17.08984375,-1.0,-1.0,1.0,0.0,2.m4v,8.0
2024-02-28 10:15:30.725693,1709111730.7256932,-19.04296875,-42.48046875,-83.984375,28.3203125,-1.0,-1.0,1.0,0.0,2.m4v,8.0
2024-02-28 10:15:30.725693,1709111730.7256932,-19.04296875,-42.48046875,-83.984375,28.3203125,-1.0,-1.0,1.0,0.0,2.m4v,8.0
2024-02-28 10:15:30.729599,1709111730.7295988,-17.578125,-37.59765625,-41.9921875,-32.71484375,-1.0,-1.0,1.0,0.0,2.m4v,8.0
2024-02-28 10:15:30.729599,1709111730.7295988,-17.578125,-37.59765625,-41.9921875,-32.71484375,-1.0,-1.0,1.0,0.0,2.m4v,8.0
2024-02-28 10:15:30.733510,1709111730.73351,-29.78515625,-37.59765625,11.23046875,-83.984375,-1.0,-1.0,1.0,0.0,2.m4v,8.0
2024-02-28 10:15:30.733510,1709111730.73351,-29.78515625,-37.59765625,11.23046875,-83.984375,-1.0,-1.0,1.0,0.0,2.m4v,8.0
2024-02-28 10:15:30.737415,1709111730.7374153,-28.3203125,-26.85546875,-6.8359375,-93.75,-1.0,-1.0,1.0,0.0,2.m4v,8.0
2024-02-28 10:15:30.737415,1709111730.7374153,-28.3203125,-26.85546875,-6.8359375,-93.75,-1.0,-1.0,1.0,0.0,2.m4v,8.0
2024-02-28 10:15:30.741321,1709111730.7413208,-24.4140625,-20.01953125,-24.4140625,-57.12890625,-1.0,-1.0,1.0,0.0,2.m4v,8.0
2024-02-28 10:15:30.741321,1709111730.7413208,-24.4140625,-20.01953125,-24.4140625,-57.12890625,-1.0,-1.0,1.0,0.0,2.m4v,8.0
2024-02-28 10:15:30.745226,1709111730.745226,-31.73828125,-27.34375,-12.20703125,-15.13671875,-1.0,-1.0,1.0,0.0,2.m4v,8.0
2024-02-28 10:15:30.745226,1709111730.745226,-31.73828125,-27.34375,-12.20703125,-15.13671875,-1.0,-1.0,1.0,0.0,2.m4v,8.0
2024-02-28 10:15:30.749131,1709111730.7491314,-38.0859375,-44.921875,-19.53125,-45.8984375,-1.0,-1.0,1.0,0.0,2.m4v,8.0
2024-02-28 10:15:30.749131,1709111730.7491314,-38.0859375,-44.921875,-19.53125,-45.8984375,-1.0,-1.0,1.0,0.0,2.m4v,8.0
2024-02-28 10:15:30.753037,1709111730.753037,-2.44140625,-52.734375,-19.53125,25.87890625,-1.0,-1.0,1.0,0.0,2.m4v,8.0
2024-02-28 10:15:30.753037,1709111730.753037,-2.44140625,-52.734375,-19.53125,25.87890625,-1.0,-1.0,1.0,0.0,2.m4v,8.0
2024-02-28 10:15:30.756942,1709111730.7569425,7.32421875,-36.62109375,-27.34375,16.11328125,-1.0,-1.0,1.0,0.0,2.m4v,8.0
2024-02-28 10:15:30.756942,1709111730.7569425,7.32421875,-36.62109375,-27.34375,16.11328125,-1.0,-1.0,1.0,0.0,2.m4v,8.0
2024-02-28 10:15:30.760848,1709111730.7608476,-15.625,-22.94921875,-30.76171875,-68.84765625,-1.0,-1.0,1.0,0.0,2.m4v,8.0
2024-02-28 10:15:30.760848,1709111730.7608476,-15.625,-22.94921875,-30.76171875,-68.84765625,-1.0,-1.0,1.0,0.0,2.m4v,8.0
2024-02-28 10:15:30.764753,1709111730.7647529,-21.484375,-29.296875,-2.44140625,-62.98828125,-1.0,-1.0,1.0,0.0,2.m4v,8.0
2024-02-28 10:15:30.764753,1709111730.7647529,-21.484375,-29.296875,-2.44140625,-62.98828125,-1.0,-1.0,1.0,0.0,2.m4v,8.0
2024-02-28 10:15:30.768658,1709111730.7686584,-21.484375,-39.55078125,4.39453125,-66.89453125,-1.0,-1.0,1.0,0.0,2.m4v,8.0
2024-02-28 10:15:30.768658,1709111730.7686584,-21.484375,-39.55078125,4.39453125,-66.89453125,-1.0,-1.0,1.0,0.0,2.m4v,8.0
2024-02-28 10:15:30.772564,1709111730.7725637,-13.18359375,-34.66796875,-16.6015625,2.44140625,-1.0,-1.0,1.0,0.0,2.m4v,8.0
2024-02-28 10:15:30.772564,1709111730.7725637,-13.18359375,-34.66796875,-16.6015625,2.44140625,-1.0,-1.0,1.0,0.0,2.m4v,8.0
2024-02-28 10:15:30.776469,1709111730.776469,-2.9296875,-15.13671875,-50.78125,80.078125,-1.0,-1.0,1.0,0.0,2.m4v,8.0
2024-02-28 10:15:30.776469,1709111730.776469,-2.9296875,-15.13671875,-50.78125,80.078125,-1.0,-1.0,1.0,0.0,2.m4v,8.0
2024-02-28 10:15:30.780380,1709111730.7803798,3.90625,-13.18359375,-48.33984375,9.765625,-1.0,-1.0,1.0,0.0,2.m4v,8.0
2024-02-28 10:15:30.780380,1709111730.7803798,3.90625,-13.18359375,-48.33984375,9.765625,-1.0,-1.0,1.0,0.0,2.m4v,8.0
2024-02-28 10:15:30.784285,1709111730.7842853,-13.18359375,-34.1796875,-26.3671875,-78.125,-1.0,-1.0,1.0,0.0,2.m4v,8.0
2024-02-28 10:15:30.784285,1709111730.7842853,-13.18359375,-34.1796875,-26.3671875,-78.125,-1.0,-1.0,1.0,0.0,2.m4v,8.0
2024-02-28 10:15:30.788191,1709111730.7881906,-35.64453125,-35.15625,-30.2734375,-22.94921875,-1.0,-1.0,1.0,0.0,2.m4v,8.0
2024-02-28 10:15:30.788191,1709111730.7881906,-35.64453125,-35.15625,-30.2734375,-22.94921875,-1.0,-1.0,1.0,0.0,2.m4v,8.0
2024-02-28 10:15:30.792096,1709111730.792096,-5.37109375,-34.1796875,-26.85546875,-33.69140625,-1.0,-1.0,1.0,0.0,2.m4v,8.0
2024-02-28 10:15:30.792096,1709111730.792096,-5.37109375,-34.1796875,-26.85546875,-33.69140625,-1.0,-1.0,1.0,0.0,2.m4v,8.0
2024-02-28 10:15:30.796001,1709111730.7960012,3.90625,-35.64453125,-21.97265625,-86.42578125,-1.0,-1.0,1.0,0.0,2.m4v,8.0
2024-02-28 10:15:30.796001,1709111730.7960012,3.90625,-35.64453125,-21.97265625,-86.42578125,-1.0,-1.0,1.0,0.0,2.m4v,8.0
2024-02-28 10:15:30.799907,1709111730.7999067,-34.66796875,-35.15625,-20.5078125,-21.97265625,-1.0,-1.0,1.0,0.0,2.m4v,8.0
2024-02-28 10:15:30.799907,1709111730.7999067,-34.66796875,-35.15625,-20.5078125,-21.97265625,-1.0,-1.0,1.0,0.0,2.m4v,8.0
2024-02-28 10:15:30.803812,1709111730.803812,-27.83203125,-37.59765625,-11.71875,21.97265625,-1.0,-1.0,1.0,0.0,2.m4v,8.0
2024-02-28 10:15:30.803812,1709111730.803812,-27.83203125,-37.59765625,-11.71875,21.97265625,-1.0,-1.0,1.0,0.0,2.m4v,8.0
2024-02-28 10:15:31.003007,1709111731.0030072,-52.734375,-41.015625,-44.43359375,-79.1015625,-1.0,-1.0,1.0,0.0,2.m4v,8.0
2024-02-28 10:15:31.010818,1709111731.0108178,-79.58984375,-46.38671875,-14.6484375,-55.17578125,-1.0,-1.0,1.0,0.0,2.m4v,8.0
2024-02-28 10:15:31.018636,1709111731.0186355,0.48828125,-47.36328125,-41.50390625,8.7890625,-1.0,-1.0,1.0,0.0,2.m4v,8.0
2024-02-28 10:15:31.026446,1709111731.0264463,-53.7109375,-35.15625,-47.36328125,-69.82421875,-1.0,-1.0,1.0,0.0,2.m4v,8.0
2024-02-28 10:15:31.034257,1709111731.034257,-30.2734375,-20.5078125,-14.6484375,-62.01171875,-1.0,-1.0,1.0,0.0,2.m4v,8.0
2024-02-28 10:15:31.042068,1709111731.0420678,-77.63671875,-44.921875,-49.31640625,-32.71484375,-1.0,-1.0,1.0,0.0,2.m4v,8.0
2024-02-28 10:15:31.049878,1709111731.0498784,-42.48046875,-36.1328125,-24.4140625,-65.4296875,-1.0,-1.0,1.0,0.0,2.m4v,8.0
2024-02-28 10:15:31.057689,1709111731.0576892,-33.203125,-41.9921875,-85.9375,-36.1328125,-1.0,-1.0,1.0,0.0,2.m4v,8.0
2024-02-28 10:15:31.065506,1709111731.0655065,-52.24609375,-18.06640625,-0.9765625,-18.06640625,-1.0,-1.0,1.0,0.0,2.m4v,8.0
2024-02-28 10:15:31.073317,1709111731.073317,-57.6171875,-36.62109375,-31.73828125,-30.2734375,-1.0,-1.0,1.0,0.0,2.m4v,8.0
2024-02-28 10:15:31.081128,1709111731.081128,-10.25390625,-19.04296875,-49.31640625,-63.4765625,-1.0,-1.0,1.0,0.0,2.m4v,8.0
2024-02-28 10:15:31.417025,1709111731.4170249,-47.36328125,-34.66796875,-34.66796875,-78.61328125,-1.0,-1.0,1.0,0.0,2.m4v,8.0
2024-02-28 10:15:31.424835,1709111731.4248354,-33.203125,-40.52734375,-35.15625,-49.8046875,-1.0,-1.0,1.0,0.0,2.m4v,8.0
2024-02-28 10:15:31.432646,1709111731.4326465,-48.828125,-22.94921875,-38.57421875,-5.37109375,-1.0,-1.0,1.0,0.0,2.m4v,8.0
2024-02-28 10:15:31.440464,1709111731.4404635,-18.06640625,-39.0625,-35.64453125,-58.59375,-1.0,-1.0,1.0,0.0,2.m4v,8.0
2024-02-28 10:15:31.448274,1709111731.448274,-8.7890625,-20.5078125,-36.1328125,8.30078125,-1.0,-1.0,1.0,0.0,2.m4v,8.0
2024-02-28 10:15:31.456085,1709111731.456085,-57.12890625,-27.34375,-20.01953125,-125.48828125,-1.0,-1.0,1.0,0.0,2.m4v,8.0
2024-02-28 10:15:31.463896,1709111731.4638956,-17.08984375,-51.7578125,-27.83203125,26.3671875,-1.0,-1.0,1.0,0.0,2.m4v,8.0
2024-02-28 10:15:31.471706,1709111731.4717064,-66.89453125,-48.33984375,-41.50390625,-59.5703125,-1.0,-1.0,1.0,0.0,2.m4v,8.0
2024-02-28 10:15:31.479517,1709111731.479517,-24.90234375,-26.3671875,-32.71484375,-88.8671875,-1.0,-1.0,1.0,0.0,2.m4v,8.0
2024-02-28 10:15:31.487334,1709111731.4873338,-29.78515625,3.90625,-51.7578125,32.71484375,-1.0,-1.0,1.0,0.0,2.m4v,8.0
2024-02-28 10:15:31.487334,1709111731.4873338,-29.78515625,3.90625,-51.7578125,32.71484375,-1.0,-1.0,1.0,0.0,2.m4v,8.0
2024-02-28 10:15:31.495145,1709111731.4951446,-67.87109375,-40.0390625,-36.1328125,-81.0546875,-1.0,-1.0,1.0,0.0,2.m4v,8.0
