Timestamp,Timestamp_UNIX,TP9,AF7,AF8,TP10,Valence,Arousal,Dominace,Viewed,Video,Participant
2024-02-27 15:59:48.001180,1709045988.0011804,-30.2734375,-34.1796875,-33.203125,-33.69140625,1.0,1.0,1.0,1.0,7.m4v,6.0
2024-02-27 15:59:48.005085,1709045988.005085,-37.109375,-35.15625,-30.76171875,-63.4765625,1.0,1.0,1.0,1.0,7.m4v,6.0
2024-02-27 15:59:48.008990,1709045988.0089898,-36.62109375,-37.109375,-29.296875,-70.80078125,1.0,1.0,1.0,1.0,7.m4v,6.0
2024-02-27 15:59:48.012894,1709045988.0128944,-23.4375,-32.2265625,-33.203125,-32.71484375,1.0,1.0,1.0,1.0,7.m4v,6.0
2024-02-27 15:59:48.016799,1709045988.016799,-15.13671875,-36.62109375,-40.0390625,-40.52734375,1.0,1.0,1.0,1.0,7.m4v,6.0
2024-02-27 15:59:48.020704,1709045988.0207036,-19.53125,-38.57421875,-40.0390625,-62.01171875,1.0,1.0,1.0,1.0,7.m4v,6.0
2024-02-27 15:59:48.024618,1709045988.0246184,-53.7109375,-39.0625,-41.50390625,-37.109375,1.0,1.0,1.0,1.0,7.m4v,6.0
2024-02-27 15:59:48.028523,1709045988.028523,-80.078125,-39.0625,-40.52734375,-33.203125,1.0,1.0,1.0,1.0,7.m4v,6.0
2024-02-27 15:59:48.032428,1709045988.0324278,-67.87109375,-35.64453125,-37.109375,-31.25,1.0,1.0,1.0,1.0,7.m4v,6.0
2024-02-27 15:59:48.036332,1709045988.0363324,-46.38671875,-41.9921875,-38.0859375,-8.7890625,1.0,1.0,1.0,1.0,7.m4v,6.0
2024-02-27 15:59:48.040237,1709045988.040237,15.13671875,-41.015625,-31.73828125,2.44140625,1.0,1.0,1.0,1.0,7.m4v,6.0
2024-02-27 15:59:48.044142,1709045988.0441415,30.76171875,-36.62109375,-32.2265625,-15.13671875,1.0,1.0,1.0,1.0,7.m4v,6.0
2024-02-27 15:59:48.048046,1709045988.0480464,-23.4375,-47.36328125,-43.9453125,-38.57421875,1.0,1.0,1.0,1.0,7.m4v,6.0
2024-02-27 15:59:48.051951,1709045988.051951,-49.8046875,-53.22265625,-49.8046875,-35.64453125,1.0,1.0,1.0,1.0,7.m4v,6.0
2024-02-27 15:59:48.055856,1709045988.0558555,-2.9296875,-48.828125,-46.38671875,-24.90234375,1.0,1.0,1.0,1.0,7.m4v,6.0
2024-02-27 15:59:48.059760,1709045988.05976,-13.18359375,-45.8984375,-41.9921875,-11.23046875,1.0,1.0,1.0,1.0,7.m4v,6.0
2024-02-27 15:59:48.063665,1709045988.063665,-26.3671875,-45.41015625,-42.48046875,-30.76171875,1.0,1.0,1.0,1.0,7.m4v,6.0
2024-02-27 15:59:48.067569,1709045988.0675695,-1.46484375,-41.50390625,-38.57421875,-48.33984375,1.0,1.0,1.0,1.0,7.m4v,6.0
2024-02-27 15:59:48.071482,1709045988.0714822,-42.48046875,-39.0625,-36.1328125,-33.203125,1.0,1.0,1.0,1.0,7.m4v,6.0
2024-02-27 15:59:48.075387,1709045988.075387,-37.109375,-38.0859375,-38.0859375,-4.39453125,1.0,1.0,1.0,1.0,7.m4v,6.0
2024-02-27 15:59:48.079292,1709045988.0792916,9.765625,-35.64453125,-32.2265625,21.484375,1.0,1.0,1.0,1.0,7.m4v,6.0
2024-02-27 15:59:48.083196,1709045988.0831962,31.73828125,-38.0859375,-33.203125,11.23046875,1.0,1.0,1.0,1.0,7.m4v,6.0
2024-02-27 15:59:48.087101,1709045988.0871007,-20.99609375,-40.52734375,-36.62109375,-3.90625,1.0,1.0,1.0,1.0,7.m4v,6.0
2024-02-27 15:59:48.091006,1709045988.0910056,-134.27734375,-41.9921875,-37.59765625,-61.03515625,1.0,1.0,1.0,1.0,7.m4v,6.0
2024-02-27 15:59:48.094910,1709045988.09491,-51.26953125,-41.015625,-42.48046875,-45.8984375,1.0,1.0,1.0,1.0,7.m4v,6.0
2024-02-27 15:59:48.098815,1709045988.0988147,73.73046875,-35.64453125,-40.0390625,17.08984375,1.0,1.0,1.0,1.0,7.m4v,6.0
2024-02-27 15:59:48.102719,1709045988.1027193,43.45703125,-29.296875,-34.1796875,8.7890625,1.0,1.0,1.0,1.0,7.m4v,6.0
2024-02-27 15:59:48.106624,1709045988.106624,-20.5078125,-31.25,-37.109375,-10.25390625,1.0,1.0,1.0,1.0,7.m4v,6.0
2024-02-27 15:59:48.110529,1709045988.1105287,-86.9140625,-38.0859375,-30.2734375,-18.06640625,1.0,1.0,1.0,1.0,7.m4v,6.0
2024-02-27 15:59:48.114433,1709045988.1144333,-68.359375,-37.109375,-25.87890625,-21.97265625,1.0,1.0,1.0,1.0,7.m4v,6.0
2024-02-27 15:59:48.118347,1709045988.118347,-14.6484375,-31.25,-35.15625,-24.90234375,1.0,1.0,1.0,1.0,7.m4v,6.0
2024-02-27 15:59:48.122252,1709045988.1222515,-33.69140625,-31.73828125,-33.69140625,-7.8125,1.0,1.0,1.0,1.0,7.m4v,6.0
2024-02-27 15:59:48.126156,1709045988.1261563,-10.7421875,-27.34375,-24.90234375,6.34765625,1.0,1.0,1.0,1.0,7.m4v,6.0
2024-02-27 15:59:48.130061,1709045988.130061,25.87890625,-27.83203125,-31.73828125,-6.8359375,1.0,1.0,1.0,1.0,7.m4v,6.0
2024-02-27 15:59:48.133965,1709045988.1339655,-19.53125,-32.2265625,-36.1328125,-22.94921875,1.0,1.0,1.0,1.0,7.m4v,6.0
2024-02-27 15:59:48.137870,1709045988.1378703,14.16015625,-27.83203125,-27.34375,-16.11328125,1.0,1.0,1.0,1.0,7.m4v,6.0
2024-02-27 15:59:48.141775,1709045988.141775,58.10546875,-34.66796875,-29.78515625,-7.32421875,1.0,1.0,1.0,1.0,7.m4v,6.0
2024-02-27 15:59:48.145679,1709045988.1456797,-38.57421875,-41.9921875,-38.57421875,-36.62109375,1.0,1.0,1.0,1.0,7.m4v,6.0
2024-02-27 15:59:48.149584,1709045988.149584,-58.59375,-37.109375,-39.55078125,-58.59375,1.0,1.0,1.0,1.0,7.m4v,6.0
2024-02-27 15:59:48.153489,1709045988.1534889,-24.90234375,-48.828125,-40.0390625,-13.18359375,1.0,1.0,1.0,1.0,7.m4v,6.0
2024-02-27 15:59:48.157393,1709045988.1573937,-17.08984375,-48.33984375,-41.9921875,15.625,1.0,1.0,1.0,1.0,7.m4v,6.0
2024-02-27 15:59:48.161298,1709045988.161298,-17.578125,-33.203125,-40.0390625,-16.6015625,1.0,1.0,1.0,1.0,7.m4v,6.0
2024-02-27 15:59:48.165219,1709045988.165219,-58.59375,-27.34375,-39.0625,-62.5,1.0,1.0,1.0,1.0,7.m4v,6.0
2024-02-27 15:59:48.169124,1709045988.1691236,-45.41015625,-27.34375,-39.0625,-36.62109375,1.0,1.0,1.0,1.0,7.m4v,6.0
2024-02-27 15:59:48.173028,1709045988.1730282,-56.15234375,-30.76171875,-33.203125,15.13671875,1.0,1.0,1.0,1.0,7.m4v,6.0
2024-02-27 15:59:48.176933,1709045988.1769328,-14.16015625,-32.2265625,-31.73828125,21.484375,1.0,1.0,1.0,1.0,7.m4v,6.0
2024-02-27 15:59:48.180838,1709045988.1808376,44.921875,-28.80859375,-29.296875,8.7890625,1.0,1.0,1.0,1.0,7.m4v,6.0
2024-02-27 15:59:48.184742,1709045988.1847422,-17.08984375,-30.76171875,-28.80859375,-6.8359375,1.0,1.0,1.0,1.0,7.m4v,6.0
2024-02-27 15:59:48.188647,1709045988.1886468,-19.53125,-36.1328125,-37.59765625,-23.4375,1.0,1.0,1.0,1.0,7.m4v,6.0
2024-02-27 15:59:48.192552,1709045988.1925516,-30.2734375,-35.64453125,-38.0859375,-42.96875,1.0,1.0,1.0,1.0,7.m4v,6.0
2024-02-27 15:59:48.196456,1709045988.1964562,-17.578125,-41.9921875,-34.66796875,-59.5703125,1.0,1.0,1.0,1.0,7.m4v,6.0
2024-02-27 15:59:48.200361,1709045988.2003608,-32.2265625,-41.015625,-32.2265625,-39.0625,1.0,1.0,1.0,1.0,7.m4v,6.0
2024-02-27 15:59:48.204265,1709045988.2042654,-49.31640625,-37.59765625,-31.25,-9.27734375,1.0,1.0,1.0,1.0,7.m4v,6.0
2024-02-27 15:59:48.208170,1709045988.2081702,-20.5078125,-35.64453125,-31.73828125,-11.71875,1.0,1.0,1.0,1.0,7.m4v,6.0
2024-02-27 15:59:48.212090,1709045988.2120895,-20.5078125,-29.78515625,-27.83203125,-20.5078125,1.0,1.0,1.0,1.0,7.m4v,6.0
2024-02-27 15:59:48.215994,1709045988.215994,-2.44140625,-26.3671875,-27.83203125,-45.41015625,1.0,1.0,1.0,1.0,7.m4v,6.0
2024-02-27 15:59:48.219899,1709045988.2198987,18.5546875,-24.90234375,-31.25,-34.66796875,1.0,1.0,1.0,1.0,7.m4v,6.0
2024-02-27 15:59:48.223804,1709045988.2238035,-20.99609375,-24.90234375,-29.296875,-2.9296875,1.0,1.0,1.0,1.0,7.m4v,6.0
2024-02-27 15:59:48.227708,1709045988.227708,-40.0390625,-20.5078125,-28.3203125,-19.53125,1.0,1.0,1.0,1.0,7.m4v,6.0
2024-02-27 15:59:48.231613,1709045988.2316127,-10.25390625,-22.94921875,-33.69140625,-34.1796875,1.0,1.0,1.0,1.0,7.m4v,6.0
2024-02-27 15:59:48.235517,1709045988.2355173,-4.8828125,-31.25,-40.0390625,-18.06640625,1.0,1.0,1.0,1.0,7.m4v,6.0
2024-02-27 15:59:48.239422,1709045988.239422,-12.6953125,-33.203125,-38.0859375,-1.953125,1.0,1.0,1.0,1.0,7.m4v,6.0
2024-02-27 15:59:48.243327,1709045988.243327,-45.8984375,-27.34375,-25.87890625,-12.6953125,1.0,1.0,1.0,1.0,7.m4v,6.0
2024-02-27 15:59:48.247231,1709045988.2472312,-49.31640625,-28.3203125,-27.34375,-31.25,1.0,1.0,1.0,1.0,7.m4v,6.0
2024-02-27 15:59:48.251136,1709045988.2511358,-51.26953125,-39.0625,-35.64453125,-39.55078125,1.0,1.0,1.0,1.0,7.m4v,6.0
2024-02-27 15:59:48.255041,1709045988.2550406,-41.015625,-28.80859375,-31.25,-51.7578125,1.0,1.0,1.0,1.0,7.m4v,6.0
2024-02-27 15:59:48.258960,1709045988.25896,13.671875,-21.97265625,-32.71484375,-47.36328125,1.0,1.0,1.0,1.0,7.m4v,6.0
2024-02-27 15:59:48.262865,1709045988.2628646,2.9296875,-28.3203125,-37.109375,-57.12890625,1.0,1.0,1.0,1.0,7.m4v,6.0
2024-02-27 15:59:48.266769,1709045988.2667692,-21.97265625,-26.85546875,-34.66796875,-53.7109375,1.0,1.0,1.0,1.0,7.m4v,6.0
2024-02-27 15:59:48.270674,1709045988.2706738,-71.2890625,-25.87890625,-30.76171875,-19.53125,1.0,1.0,1.0,1.0,7.m4v,6.0
2024-02-27 15:59:48.274579,1709045988.2745786,-41.50390625,-30.2734375,-33.69140625,-2.9296875,1.0,1.0,1.0,1.0,7.m4v,6.0
2024-02-27 15:59:48.278483,1709045988.2784832,57.6171875,-31.73828125,-36.62109375,-1.953125,1.0,1.0,1.0,1.0,7.m4v,6.0
2024-02-27 15:59:48.282388,1709045988.2823875,26.85546875,-37.109375,-28.3203125,-22.94921875,1.0,1.0,1.0,1.0,7.m4v,6.0
2024-02-27 15:59:48.286293,1709045988.2862926,-43.9453125,-38.57421875,-29.78515625,-45.41015625,1.0,1.0,1.0,1.0,7.m4v,6.0
2024-02-27 15:59:48.290197,1709045988.2901971,-51.7578125,-39.55078125,-32.71484375,-47.8515625,1.0,1.0,1.0,1.0,7.m4v,6.0
2024-02-27 15:59:48.294102,1709045988.2941017,-28.3203125,-40.0390625,-31.73828125,-23.4375,1.0,1.0,1.0,1.0,7.m4v,6.0
2024-02-27 15:59:48.298006,1709045988.2980063,-17.578125,-36.1328125,-32.2265625,-22.94921875,1.0,1.0,1.0,1.0,7.m4v,6.0
2024-02-27 15:59:48.301911,1709045988.301911,-68.84765625,-29.78515625,-26.85546875,-55.17578125,1.0,1.0,1.0,1.0,7.m4v,6.0
2024-02-27 15:59:48.305829,1709045988.305829,-90.8203125,-30.76171875,-25.390625,-68.359375,1.0,1.0,1.0,1.0,7.m4v,6.0
2024-02-27 15:59:48.309734,1709045988.3097336,-99.12109375,-32.71484375,-28.80859375,-58.10546875,1.0,1.0,1.0,1.0,7.m4v,6.0
2024-02-27 15:59:48.313638,1709045988.3136382,-60.546875,-36.1328125,-23.4375,-41.015625,1.0,1.0,1.0,1.0,7.m4v,6.0
2024-02-27 15:59:48.317543,1709045988.317543,32.2265625,-41.50390625,-20.01953125,-4.8828125,1.0,1.0,1.0,1.0,7.m4v,6.0
2024-02-27 15:59:48.321448,1709045988.3214476,45.8984375,-38.0859375,-22.94921875,10.7421875,1.0,1.0,1.0,1.0,7.m4v,6.0
2024-02-27 15:59:48.325352,1709045988.3253522,0.0,-36.1328125,-23.4375,0.48828125,1.0,1.0,1.0,1.0,7.m4v,6.0
2024-02-27 15:59:48.329257,1709045988.3292568,-26.85546875,-38.0859375,-25.87890625,-31.73828125,1.0,1.0,1.0,1.0,7.m4v,6.0
2024-02-27 15:59:48.333162,1709045988.3331616,-6.8359375,-36.1328125,-27.83203125,-25.390625,1.0,1.0,1.0,1.0,7.m4v,6.0
2024-02-27 15:59:48.337066,1709045988.3370662,-44.43359375,-34.66796875,-23.92578125,-0.9765625,1.0,1.0,1.0,1.0,7.m4v,6.0
2024-02-27 15:59:48.340971,1709045988.3409708,-44.43359375,-32.2265625,-24.4140625,-18.5546875,1.0,1.0,1.0,1.0,7.m4v,6.0
2024-02-27 15:59:48.344876,1709045988.3448756,-16.11328125,-35.15625,-26.85546875,-48.33984375,1.0,1.0,1.0,1.0,7.m4v,6.0
2024-02-27 15:59:48.348780,1709045988.3487802,-71.2890625,-40.52734375,-22.4609375,-37.109375,1.0,1.0,1.0,1.0,7.m4v,6.0
2024-02-27 15:59:48.352698,1709045988.3526978,-61.5234375,-35.64453125,-24.4140625,-36.62109375,1.0,1.0,1.0,1.0,7.m4v,6.0
2024-02-27 15:59:48.356602,1709045988.3566024,-24.4140625,-37.59765625,-31.73828125,-49.31640625,1.0,1.0,1.0,1.0,7.m4v,6.0
2024-02-27 15:59:48.360507,1709045988.3605072,-19.04296875,-38.0859375,-25.87890625,-12.6953125,1.0,1.0,1.0,1.0,7.m4v,6.0
2024-02-27 15:59:48.364412,1709045988.3644118,8.30078125,-34.66796875,-20.99609375,-6.8359375,1.0,1.0,1.0,1.0,7.m4v,6.0
2024-02-27 15:59:48.368316,1709045988.3683164,19.04296875,-37.59765625,-25.87890625,-11.23046875,1.0,1.0,1.0,1.0,7.m4v,6.0
2024-02-27 15:59:48.372221,1709045988.372221,-44.921875,-34.66796875,-27.34375,-1.46484375,1.0,1.0,1.0,1.0,7.m4v,6.0
2024-02-27 15:59:48.376126,1709045988.3761258,-49.31640625,-38.57421875,-23.4375,-9.27734375,1.0,1.0,1.0,1.0,7.m4v,6.0
2024-02-27 15:59:48.380030,1709045988.3800304,29.296875,-38.57421875,-24.4140625,-29.78515625,1.0,1.0,1.0,1.0,7.m4v,6.0
2024-02-27 15:59:48.383935,1709045988.383935,-95.21484375,-21.484375,-27.83203125,-25.87890625,1.0,1.0,1.0,1.0,7.m4v,6.0
2024-02-27 15:59:48.387840,1709045988.3878396,-97.16796875,-13.671875,-23.92578125,-13.18359375,1.0,1.0,1.0,1.0,7.m4v,6.0
2024-02-27 15:59:48.391744,1709045988.3917444,53.22265625,-19.04296875,-23.4375,-13.18359375,1.0,1.0,1.0,1.0,7.m4v,6.0
2024-02-27 15:59:48.395649,1709045988.395649,7.8125,-26.85546875,-29.296875,-22.94921875,1.0,1.0,1.0,1.0,7.m4v,6.0
2024-02-27 15:59:48.399574,1709045988.3995745,6.34765625,-25.390625,-30.76171875,-21.97265625,1.0,1.0,1.0,1.0,7.m4v,6.0
2024-02-27 15:59:48.403479,1709045988.4034789,8.30078125,-30.2734375,-28.3203125,-52.24609375,1.0,1.0,1.0,1.0,7.m4v,6.0
2024-02-27 15:59:48.407383,1709045988.4073834,-82.51953125,-31.25,-25.87890625,-61.5234375,1.0,1.0,1.0,1.0,7.m4v,6.0
2024-02-27 15:59:48.411288,1709045988.411288,-48.828125,-27.83203125,-27.34375,-29.296875,1.0,1.0,1.0,1.0,7.m4v,6.0
2024-02-27 15:59:48.415193,1709045988.4151928,9.765625,-30.2734375,-33.69140625,-29.78515625,1.0,1.0,1.0,1.0,7.m4v,6.0
2024-02-27 15:59:48.419097,1709045988.4190974,-20.99609375,-26.3671875,-33.203125,-1.953125,1.0,1.0,1.0,1.0,7.m4v,6.0
2024-02-27 15:59:48.423002,1709045988.423002,-92.28515625,-26.85546875,-32.2265625,-7.8125,1.0,1.0,1.0,1.0,7.m4v,6.0
2024-02-27 15:59:48.426907,1709045988.4269066,-105.46875,-31.25,-35.64453125,-41.9921875,1.0,1.0,1.0,1.0,7.m4v,6.0
2024-02-27 15:59:48.430811,1709045988.4308114,-53.7109375,-27.83203125,-31.25,-32.71484375,1.0,1.0,1.0,1.0,7.m4v,6.0
2024-02-27 15:59:48.434716,1709045988.434716,-6.8359375,-24.90234375,-32.2265625,-42.96875,1.0,1.0,1.0,1.0,7.m4v,6.0
2024-02-27 15:59:48.438621,1709045988.4386206,5.37109375,-25.87890625,-31.73828125,-32.2265625,1.0,1.0,1.0,1.0,7.m4v,6.0
2024-02-27 15:59:48.442525,1709045988.4425254,-8.30078125,-30.2734375,-29.78515625,-11.71875,1.0,1.0,1.0,1.0,7.m4v,6.0
2024-02-27 15:59:48.446439,1709045988.4464388,-33.69140625,-30.76171875,-31.73828125,-41.50390625,1.0,1.0,1.0,1.0,7.m4v,6.0
2024-02-27 15:59:48.450343,1709045988.4503434,-75.68359375,-29.78515625,-29.78515625,-59.08203125,1.0,1.0,1.0,1.0,7.m4v,6.0
2024-02-27 15:59:48.454248,1709045988.454248,-90.8203125,-32.2265625,-27.83203125,-45.8984375,1.0,1.0,1.0,1.0,7.m4v,6.0
2024-02-27 15:59:48.458153,1709045988.4581523,-101.07421875,-36.1328125,-28.3203125,-39.55078125,1.0,1.0,1.0,1.0,7.m4v,6.0
2024-02-27 15:59:48.462057,1709045988.4620574,-27.34375,-36.62109375,-25.87890625,-0.9765625,1.0,1.0,1.0,1.0,7.m4v,6.0
2024-02-27 15:59:48.465962,1709045988.465962,13.18359375,-41.015625,-20.01953125,0.0,1.0,1.0,1.0,1.0,7.m4v,6.0
2024-02-27 15:59:48.469867,1709045988.4698665,-48.828125,-42.48046875,-29.78515625,-56.15234375,1.0,1.0,1.0,1.0,7.m4v,6.0
2024-02-27 15:59:48.473771,1709045988.473771,-12.6953125,-37.109375,-34.66796875,-24.90234375,1.0,1.0,1.0,1.0,7.m4v,6.0
2024-02-27 15:59:48.477676,1709045988.477676,1.46484375,-28.3203125,-27.34375,11.71875,1.0,1.0,1.0,1.0,7.m4v,6.0
2024-02-27 15:59:48.481580,1709045988.4815805,-50.78125,-25.390625,-31.25,-16.6015625,1.0,1.0,1.0,1.0,7.m4v,6.0
2024-02-27 15:59:48.485485,1709045988.485485,-33.203125,-30.2734375,-35.15625,-33.203125,1.0,1.0,1.0,1.0,7.m4v,6.0
2024-02-27 15:59:48.489390,1709045988.48939,-91.30859375,-32.2265625,-31.25,-55.6640625,1.0,1.0,1.0,1.0,7.m4v,6.0
2024-02-27 15:59:48.493312,1709045988.4933124,-129.39453125,-36.62109375,-40.0390625,-47.8515625,1.0,1.0,1.0,1.0,7.m4v,6.0
2024-02-27 15:59:48.497217,1709045988.4972172,-11.23046875,-38.57421875,-44.921875,-24.90234375,1.0,1.0,1.0,1.0,7.m4v,6.0
2024-02-27 15:59:48.501122,1709045988.5011218,-8.7890625,-32.2265625,-32.71484375,-49.31640625,1.0,1.0,1.0,1.0,7.m4v,6.0
2024-02-27 15:59:48.505026,1709045988.5050263,-62.01171875,-29.78515625,-24.4140625,-53.22265625,1.0,1.0,1.0,1.0,7.m4v,6.0
2024-02-27 15:59:48.508931,1709045988.508931,-41.015625,-35.64453125,-25.390625,-43.45703125,1.0,1.0,1.0,1.0,7.m4v,6.0
2024-02-27 15:59:48.512836,1709045988.5128355,-3.90625,-32.2265625,-28.3203125,-38.0859375,1.0,1.0,1.0,1.0,7.m4v,6.0
2024-02-27 15:59:48.516740,1709045988.5167403,18.06640625,-28.80859375,-30.76171875,-34.66796875,1.0,1.0,1.0,1.0,7.m4v,6.0
2024-02-27 15:59:48.520645,1709045988.520645,5.37109375,-31.73828125,-36.62109375,-53.22265625,1.0,1.0,1.0,1.0,7.m4v,6.0
2024-02-27 15:59:48.524550,1709045988.5245495,-29.78515625,-33.203125,-41.015625,-51.26953125,1.0,1.0,1.0,1.0,7.m4v,6.0
2024-02-27 15:59:48.528454,1709045988.5284543,-84.47265625,-31.73828125,-36.62109375,-83.49609375,1.0,1.0,1.0,1.0,7.m4v,6.0
2024-02-27 15:59:48.532359,1709045988.532359,-157.71484375,-32.2265625,-31.73828125,-108.88671875,1.0,1.0,1.0,1.0,7.m4v,6.0
2024-02-27 15:59:48.536263,1709045988.5362637,-81.54296875,-33.69140625,-34.66796875,-47.8515625,1.0,1.0,1.0,1.0,7.m4v,6.0
2024-02-27 15:59:48.540184,1709045988.5401845,-2.44140625,-32.71484375,-34.1796875,12.6953125,1.0,1.0,1.0,1.0,7.m4v,6.0
2024-02-27 15:59:48.544089,1709045988.544089,-12.6953125,-29.78515625,-35.64453125,6.8359375,1.0,1.0,1.0,1.0,7.m4v,6.0
2024-02-27 15:59:48.547994,1709045988.5479937,-4.8828125,-25.390625,-31.73828125,-27.83203125,1.0,1.0,1.0,1.0,7.m4v,6.0
2024-02-27 15:59:48.551898,1709045988.5518985,-1.46484375,-19.53125,-30.76171875,-37.59765625,1.0,1.0,1.0,1.0,7.m4v,6.0
2024-02-27 15:59:48.555803,1709045988.555803,1.953125,-20.5078125,-38.57421875,-33.69140625,1.0,1.0,1.0,1.0,7.m4v,6.0
2024-02-27 15:59:48.559708,1709045988.5597076,-11.71875,-28.80859375,-40.52734375,-27.83203125,1.0,1.0,1.0,1.0,7.m4v,6.0
2024-02-27 15:59:48.563612,1709045988.5636122,-58.59375,-41.015625,-37.59765625,-31.25,1.0,1.0,1.0,1.0,7.m4v,6.0
2024-02-27 15:59:48.567517,1709045988.567517,-68.359375,-39.55078125,-33.69140625,-47.8515625,1.0,1.0,1.0,1.0,7.m4v,6.0
2024-02-27 15:59:48.571422,1709045988.5714216,-33.203125,-33.69140625,-34.66796875,-62.01171875,1.0,1.0,1.0,1.0,7.m4v,6.0
2024-02-27 15:59:48.575326,1709045988.5753262,-40.0390625,-37.59765625,-36.1328125,-44.921875,1.0,1.0,1.0,1.0,7.m4v,6.0
2024-02-27 15:59:48.579231,1709045988.579231,-36.1328125,-41.015625,-38.57421875,-12.20703125,1.0,1.0,1.0,1.0,7.m4v,6.0
2024-02-27 15:59:48.583136,1709045988.5831356,-60.05859375,-40.52734375,-40.0390625,-27.34375,1.0,1.0,1.0,1.0,7.m4v,6.0
2024-02-27 15:59:48.587056,1709045988.587056,-118.1640625,-37.109375,-35.64453125,-76.66015625,1.0,1.0,1.0,1.0,7.m4v,6.0
2024-02-27 15:59:48.590961,1709045988.5909605,-100.09765625,-29.296875,-29.296875,-67.3828125,1.0,1.0,1.0,1.0,7.m4v,6.0
2024-02-27 15:59:48.594865,1709045988.594865,36.1328125,-21.97265625,-29.78515625,-20.5078125,1.0,1.0,1.0,1.0,7.m4v,6.0
2024-02-27 15:59:48.598770,1709045988.59877,79.1015625,-23.92578125,-33.203125,-2.44140625,1.0,1.0,1.0,1.0,7.m4v,6.0
2024-02-27 15:59:48.602674,1709045988.6026745,9.765625,-27.83203125,-34.66796875,-9.27734375,1.0,1.0,1.0,1.0,7.m4v,6.0
2024-02-27 15:59:48.606579,1709045988.606579,-21.97265625,-28.80859375,-34.1796875,-18.06640625,1.0,1.0,1.0,1.0,7.m4v,6.0
2024-02-27 15:59:48.610484,1709045988.610484,-55.17578125,-30.2734375,-35.64453125,-32.71484375,1.0,1.0,1.0,1.0,7.m4v,6.0
2024-02-27 15:59:48.614388,1709045988.6143885,-117.1875,-35.64453125,-42.96875,-37.59765625,1.0,1.0,1.0,1.0,7.m4v,6.0
2024-02-27 15:59:48.618293,1709045988.618293,-87.890625,-44.921875,-40.52734375,-37.59765625,1.0,1.0,1.0,1.0,7.m4v,6.0
2024-02-27 15:59:48.622198,1709045988.622198,-94.23828125,-42.96875,-35.64453125,-47.36328125,1.0,1.0,1.0,1.0,7.m4v,6.0
2024-02-27 15:59:48.626102,1709045988.6261024,-85.44921875,-30.76171875,-40.52734375,-39.55078125,1.0,1.0,1.0,1.0,7.m4v,6.0
2024-02-27 15:59:48.630007,1709045988.630007,22.4609375,-26.3671875,-33.69140625,-30.2734375,1.0,1.0,1.0,1.0,7.m4v,6.0
2024-02-27 15:59:48.633926,1709045988.6339262,50.78125,-26.85546875,-28.3203125,-43.45703125,1.0,1.0,1.0,1.0,7.m4v,6.0
2024-02-27 15:59:48.637831,1709045988.6378307,-9.27734375,-23.4375,-31.25,-67.87109375,1.0,1.0,1.0,1.0,7.m4v,6.0
2024-02-27 15:59:48.641735,1709045988.6417353,-26.3671875,-27.83203125,-31.25,-33.203125,1.0,1.0,1.0,1.0,7.m4v,6.0
2024-02-27 15:59:48.645640,1709045988.64564,-31.25,-39.55078125,-35.15625,-20.99609375,1.0,1.0,1.0,1.0,7.m4v,6.0
2024-02-27 15:59:48.649545,1709045988.6495447,-100.5859375,-39.55078125,-39.55078125,-36.1328125,1.0,1.0,1.0,1.0,7.m4v,6.0
2024-02-27 15:59:48.653449,1709045988.6534493,-77.1484375,-36.62109375,-37.59765625,-44.921875,1.0,1.0,1.0,1.0,7.m4v,6.0
2024-02-27 15:59:48.657354,1709045988.657354,-4.8828125,-39.0625,-33.69140625,-26.3671875,1.0,1.0,1.0,1.0,7.m4v,6.0
2024-02-27 15:59:48.661259,1709045988.6612587,19.04296875,-40.52734375,-31.73828125,1.46484375,1.0,1.0,1.0,1.0,7.m4v,6.0
2024-02-27 15:59:48.665163,1709045988.6651633,-10.25390625,-42.96875,-38.57421875,-14.16015625,1.0,1.0,1.0,1.0,7.m4v,6.0
2024-02-27 15:59:48.669068,1709045988.669068,-70.80078125,-41.015625,-43.45703125,-28.80859375,1.0,1.0,1.0,1.0,7.m4v,6.0
2024-02-27 15:59:48.672972,1709045988.6729724,-30.76171875,-34.1796875,-34.66796875,-20.99609375,1.0,1.0,1.0,1.0,7.m4v,6.0
2024-02-27 15:59:48.676877,1709045988.6768773,-45.41015625,-37.109375,-27.83203125,-31.25,1.0,1.0,1.0,1.0,7.m4v,6.0
2024-02-27 15:59:48.680793,1709045988.680793,-73.73046875,-40.52734375,-37.109375,-50.78125,1.0,1.0,1.0,1.0,7.m4v,6.0
2024-02-27 15:59:48.684698,1709045988.684698,-30.2734375,-34.66796875,-45.41015625,-69.3359375,1.0,1.0,1.0,1.0,7.m4v,6.0
2024-02-27 15:59:48.688602,1709045988.6886024,-53.7109375,-33.69140625,-41.015625,-54.6875,1.0,1.0,1.0,1.0,7.m4v,6.0
2024-02-27 15:59:48.692507,1709045988.692507,-44.921875,-30.76171875,-36.1328125,-28.80859375,1.0,1.0,1.0,1.0,7.m4v,6.0
2024-02-27 15:59:48.696412,1709045988.6964118,-12.20703125,-30.76171875,-32.2265625,-57.12890625,1.0,1.0,1.0,1.0,7.m4v,6.0
2024-02-27 15:59:48.700316,1709045988.7003164,-10.7421875,-28.80859375,-32.71484375,-63.96484375,1.0,1.0,1.0,1.0,7.m4v,6.0
2024-02-27 15:59:48.704221,1709045988.704221,1.953125,-29.78515625,-42.48046875,-44.43359375,1.0,1.0,1.0,1.0,7.m4v,6.0
2024-02-27 15:59:48.708126,1709045988.7081256,-30.2734375,-35.15625,-44.43359375,-29.78515625,1.0,1.0,1.0,1.0,7.m4v,6.0
2024-02-27 15:59:48.712030,1709045988.7120304,-33.69140625,-31.73828125,-37.109375,2.9296875,1.0,1.0,1.0,1.0,7.m4v,6.0
2024-02-27 15:59:48.715935,1709045988.715935,-34.1796875,-27.83203125,-33.69140625,-6.8359375,1.0,1.0,1.0,1.0,7.m4v,6.0
2024-02-27 15:59:48.719840,1709045988.7198396,-87.890625,-26.3671875,-28.80859375,-25.390625,1.0,1.0,1.0,1.0,7.m4v,6.0
2024-02-27 15:59:48.723744,1709045988.7237444,-91.796875,-30.2734375,-31.73828125,-41.015625,1.0,1.0,1.0,1.0,7.m4v,6.0
2024-02-27 15:59:48.727661,1709045988.727661,-70.80078125,-28.80859375,-34.66796875,-38.0859375,1.0,1.0,1.0,1.0,7.m4v,6.0
2024-02-27 15:59:48.731565,1709045988.7315652,-86.9140625,-22.4609375,-34.66796875,-36.1328125,1.0,1.0,1.0,1.0,7.m4v,6.0
2024-02-27 15:59:48.735470,1709045988.7354698,-13.18359375,-24.4140625,-34.66796875,-38.57421875,1.0,1.0,1.0,1.0,7.m4v,6.0
2024-02-27 15:59:48.739375,1709045988.7393746,-0.48828125,-29.78515625,-45.41015625,-51.7578125,1.0,1.0,1.0,1.0,7.m4v,6.0
2024-02-27 15:59:48.743279,1709045988.7432792,-47.8515625,-37.109375,-48.33984375,-80.56640625,1.0,1.0,1.0,1.0,7.m4v,6.0
2024-02-27 15:59:48.747184,1709045988.7471838,-12.6953125,-34.1796875,-34.1796875,-38.57421875,1.0,1.0,1.0,1.0,7.m4v,6.0
2024-02-27 15:59:48.751088,1709045988.7510884,-37.109375,-30.2734375,-36.1328125,4.39453125,1.0,1.0,1.0,1.0,7.m4v,6.0
2024-02-27 15:59:48.754993,1709045988.7549932,-53.22265625,-33.69140625,-44.921875,-11.23046875,1.0,1.0,1.0,1.0,7.m4v,6.0
2024-02-27 15:59:48.758898,1709045988.7588978,-14.16015625,-31.73828125,-38.57421875,-38.0859375,1.0,1.0,1.0,1.0,7.m4v,6.0
2024-02-27 15:59:48.762802,1709045988.7628024,-9.765625,-34.66796875,-34.66796875,-59.08203125,1.0,1.0,1.0,1.0,7.m4v,6.0
2024-02-27 15:59:48.766707,1709045988.7667072,-42.96875,-39.0625,-33.203125,-50.29296875,1.0,1.0,1.0,1.0,7.m4v,6.0
2024-02-27 15:59:48.770612,1709045988.7706118,-105.95703125,-41.015625,-32.71484375,-29.296875,1.0,1.0,1.0,1.0,7.m4v,6.0
2024-02-27 15:59:48.774528,1709045988.774528,-98.6328125,-32.2265625,-34.1796875,-30.2734375,1.0,1.0,1.0,1.0,7.m4v,6.0
2024-02-27 15:59:48.778433,1709045988.7784326,-26.85546875,-26.85546875,-26.85546875,-21.97265625,1.0,1.0,1.0,1.0,7.m4v,6.0
2024-02-27 15:59:48.782337,1709045988.7823374,-36.62109375,-35.15625,-25.87890625,-42.96875,1.0,1.0,1.0,1.0,7.m4v,6.0
2024-02-27 15:59:48.786242,1709045988.786242,-92.7734375,-30.76171875,-30.2734375,-60.05859375,1.0,1.0,1.0,1.0,7.m4v,6.0
2024-02-27 15:59:48.790147,1709045988.7901466,-59.5703125,-37.59765625,-33.69140625,-50.78125,1.0,1.0,1.0,1.0,7.m4v,6.0
2024-02-27 15:59:48.794051,1709045988.7940514,5.859375,-43.9453125,-33.69140625,-50.78125,1.0,1.0,1.0,1.0,7.m4v,6.0
2024-02-27 15:59:48.797956,1709045988.797956,16.11328125,-30.2734375,-31.73828125,-31.25,1.0,1.0,1.0,1.0,7.m4v,6.0
2024-02-27 15:59:48.801861,1709045988.8018606,-7.32421875,-25.87890625,-33.69140625,-4.39453125,1.0,1.0,1.0,1.0,7.m4v,6.0
2024-02-27 15:59:48.805765,1709045988.8057652,-34.1796875,-25.87890625,-30.2734375,-13.671875,1.0,1.0,1.0,1.0,7.m4v,6.0
2024-02-27 15:59:48.809670,1709045988.80967,-62.01171875,-29.78515625,-28.80859375,-28.3203125,1.0,1.0,1.0,1.0,7.m4v,6.0
2024-02-27 15:59:48.813575,1709045988.8135746,-38.0859375,-30.2734375,-29.296875,-20.5078125,1.0,1.0,1.0,1.0,7.m4v,6.0
2024-02-27 15:59:48.817479,1709045988.8174791,-41.015625,-30.76171875,-27.83203125,-46.875,1.0,1.0,1.0,1.0,7.m4v,6.0
2024-02-27 15:59:48.821393,1709045988.8213933,-45.41015625,-33.69140625,-30.2734375,-50.78125,1.0,1.0,1.0,1.0,7.m4v,6.0
2024-02-27 15:59:48.825298,1709045988.8252978,-97.16796875,-29.296875,-33.203125,-31.73828125,1.0,1.0,1.0,1.0,7.m4v,6.0
2024-02-27 15:59:48.829203,1709045988.829203,-167.96875,-33.69140625,-27.83203125,-50.29296875,1.0,1.0,1.0,1.0,7.m4v,6.0
2024-02-27 15:59:48.833107,1709045988.8331072,-12.20703125,-39.0625,-26.3671875,-31.25,1.0,1.0,1.0,1.0,7.m4v,6.0
2024-02-27 15:59:48.837012,1709045988.8370118,71.77734375,-35.15625,-40.0390625,-16.6015625,1.0,1.0,1.0,1.0,7.m4v,6.0
2024-02-27 15:59:48.840917,1709045988.8409166,3.41796875,-34.1796875,-46.38671875,-64.94140625,1.0,1.0,1.0,1.0,7.m4v,6.0
2024-02-27 15:59:48.844821,1709045988.8448212,-53.22265625,-33.69140625,-43.45703125,-41.015625,1.0,1.0,1.0,1.0,7.m4v,6.0
2024-02-27 15:59:48.848726,1709045988.8487258,-64.453125,-30.2734375,-41.50390625,-18.06640625,1.0,1.0,1.0,1.0,7.m4v,6.0
2024-02-27 15:59:48.852630,1709045988.8526304,-40.52734375,-32.2265625,-32.71484375,-25.87890625,1.0,1.0,1.0,1.0,7.m4v,6.0
2024-02-27 15:59:48.856535,1709045988.8565352,-24.4140625,-31.25,-28.3203125,-8.30078125,1.0,1.0,1.0,1.0,7.m4v,6.0
2024-02-27 15:59:48.860440,1709045988.8604398,-16.11328125,-30.2734375,-40.52734375,-29.296875,1.0,1.0,1.0,1.0,7.m4v,6.0
2024-02-27 15:59:48.864344,1709045988.8643444,-26.85546875,-32.71484375,-35.64453125,-36.1328125,1.0,1.0,1.0,1.0,7.m4v,6.0
2024-02-27 15:59:48.868267,1709045988.868267,-62.01171875,-36.1328125,-27.34375,-33.69140625,1.0,1.0,1.0,1.0,7.m4v,6.0
2024-02-27 15:59:48.872172,1709045988.8721716,-113.76953125,-38.0859375,-32.2265625,-21.97265625,1.0,1.0,1.0,1.0,7.m4v,6.0
2024-02-27 15:59:48.876076,1709045988.8760765,-84.9609375,-39.55078125,-39.0625,-24.90234375,1.0,1.0,1.0,1.0,7.m4v,6.0
2024-02-27 15:59:48.879981,1709045988.879981,-29.78515625,-36.1328125,-39.0625,-45.8984375,1.0,1.0,1.0,1.0,7.m4v,6.0
2024-02-27 15:59:48.883886,1709045988.8838856,-67.3828125,-32.2265625,-27.34375,-27.83203125,1.0,1.0,1.0,1.0,7.m4v,6.0
2024-02-27 15:59:48.887790,1709045988.8877902,7.32421875,-34.66796875,-28.80859375,-14.16015625,1.0,1.0,1.0,1.0,7.m4v,6.0
2024-02-27 15:59:48.891695,1709045988.891695,77.1484375,-40.52734375,-35.15625,-23.92578125,1.0,1.0,1.0,1.0,7.m4v,6.0
2024-02-27 15:59:48.895600,1709045988.8955996,27.34375,-42.96875,-37.109375,-63.4765625,1.0,1.0,1.0,1.0,7.m4v,6.0
2024-02-27 15:59:48.899504,1709045988.8995042,-9.765625,-40.52734375,-38.57421875,-47.8515625,1.0,1.0,1.0,1.0,7.m4v,6.0
2024-02-27 15:59:48.903409,1709045988.903409,-39.55078125,-41.9921875,-35.15625,-9.765625,1.0,1.0,1.0,1.0,7.m4v,6.0
2024-02-27 15:59:48.907314,1709045988.9073136,-77.63671875,-37.59765625,-32.2265625,-11.71875,1.0,1.0,1.0,1.0,7.m4v,6.0
2024-02-27 15:59:48.911218,1709045988.9112182,-80.078125,-34.1796875,-35.64453125,-10.7421875,1.0,1.0,1.0,1.0,7.m4v,6.0
2024-02-27 15:59:48.915140,1709045988.9151397,-46.875,-40.0390625,-41.9921875,-18.5546875,1.0,1.0,1.0,1.0,7.m4v,6.0
2024-02-27 15:59:48.919044,1709045988.9190445,-43.45703125,-41.015625,-38.0859375,-40.52734375,1.0,1.0,1.0,1.0,7.m4v,6.0
2024-02-27 15:59:48.922949,1709045988.922949,-42.96875,-41.015625,-28.3203125,-37.109375,1.0,1.0,1.0,1.0,7.m4v,6.0
2024-02-27 15:59:48.926854,1709045988.9268537,-29.296875,-37.59765625,-34.1796875,-31.25,1.0,1.0,1.0,1.0,7.m4v,6.0
2024-02-27 15:59:48.930758,1709045988.9307582,-29.78515625,-35.64453125,-38.0859375,-49.8046875,1.0,1.0,1.0,1.0,7.m4v,6.0
2024-02-27 15:59:48.934663,1709045988.934663,-31.25,-37.59765625,-34.66796875,-52.24609375,1.0,1.0,1.0,1.0,7.m4v,6.0
2024-02-27 15:59:48.938568,1709045988.9385676,7.8125,-33.203125,-34.66796875,-50.78125,1.0,1.0,1.0,1.0,7.m4v,6.0
2024-02-27 15:59:48.942472,1709045988.9424722,-2.9296875,-34.66796875,-29.78515625,-33.69140625,1.0,1.0,1.0,1.0,7.m4v,6.0
2024-02-27 15:59:48.946377,1709045988.9463768,-47.36328125,-38.0859375,-31.73828125,-16.11328125,1.0,1.0,1.0,1.0,7.m4v,6.0
2024-02-27 15:59:48.950282,1709045988.9502816,-111.328125,-41.015625,-38.57421875,-21.97265625,1.0,1.0,1.0,1.0,7.m4v,6.0
2024-02-27 15:59:48.954186,1709045988.9541862,-59.5703125,-36.1328125,-38.57421875,-15.625,1.0,1.0,1.0,1.0,7.m4v,6.0
2024-02-27 15:59:48.958091,1709045988.9580908,12.6953125,-37.59765625,-32.2265625,-31.25,1.0,1.0,1.0,1.0,7.m4v,6.0
2024-02-27 15:59:48.962011,1709045988.962011,-37.109375,-45.41015625,-35.15625,-57.12890625,1.0,1.0,1.0,1.0,7.m4v,6.0
2024-02-27 15:59:48.965916,1709045988.9659157,-34.1796875,-35.15625,-37.109375,-37.59765625,1.0,1.0,1.0,1.0,7.m4v,6.0
2024-02-27 15:59:48.969820,1709045988.9698205,-35.64453125,-31.25,-30.76171875,-41.50390625,1.0,1.0,1.0,1.0,7.m4v,6.0
2024-02-27 15:59:48.973725,1709045988.973725,-51.7578125,-33.69140625,-32.71484375,-53.7109375,1.0,1.0,1.0,1.0,7.m4v,6.0
2024-02-27 15:59:48.977630,1709045988.9776297,-26.85546875,-26.3671875,-34.1796875,-34.1796875,1.0,1.0,1.0,1.0,7.m4v,6.0
2024-02-27 15:59:48.981534,1709045988.9815342,-26.85546875,-20.99609375,-32.71484375,-35.64453125,1.0,1.0,1.0,1.0,7.m4v,6.0
2024-02-27 15:59:48.985439,1709045988.9854388,-77.63671875,-30.2734375,-41.015625,-56.15234375,1.0,1.0,1.0,1.0,7.m4v,6.0
2024-02-27 15:59:48.989344,1709045988.9893436,-69.3359375,-39.55078125,-41.50390625,-52.24609375,1.0,1.0,1.0,1.0,7.m4v,6.0
2024-02-27 15:59:48.993248,1709045988.9932482,-3.41796875,-30.76171875,-36.62109375,-16.11328125,1.0,1.0,1.0,1.0,7.m4v,6.0
2024-02-27 15:59:48.997153,1709045988.9971528,25.87890625,-28.3203125,-40.52734375,-29.296875,1.0,1.0,1.0,1.0,7.m4v,6.0
2024-02-27 15:59:49.001058,1709045989.0010576,37.59765625,-30.76171875,-38.0859375,-42.96875,1.0,1.0,1.0,1.0,7.m4v,6.0
2024-02-27 15:59:49.004962,1709045989.0049622,-0.48828125,-35.15625,-33.69140625,-27.34375,1.0,1.0,1.0,1.0,7.m4v,6.0
2024-02-27 15:59:49.008881,1709045989.008881,-80.078125,-43.9453125,-38.0859375,-50.29296875,1.0,1.0,1.0,1.0,7.m4v,6.0
2024-02-27 15:59:49.012786,1709045989.012786,-53.22265625,-40.52734375,-36.62109375,-40.52734375,1.0,1.0,1.0,1.0,7.m4v,6.0
2024-02-27 15:59:49.016691,1709045989.0166907,-48.33984375,-34.1796875,-23.92578125,-34.1796875,1.0,1.0,1.0,1.0,7.m4v,6.0
2024-02-27 15:59:49.020595,1709045989.0205953,-43.9453125,-36.1328125,-27.83203125,-62.01171875,1.0,1.0,1.0,1.0,7.m4v,6.0
2024-02-27 15:59:49.024500,1709045989.0245,25.87890625,-38.0859375,-43.45703125,-43.45703125,1.0,1.0,1.0,1.0,7.m4v,6.0
2024-02-27 15:59:49.028405,1709045989.0284047,-23.4375,-32.2265625,-41.50390625,-33.69140625,1.0,1.0,1.0,1.0,7.m4v,6.0
2024-02-27 15:59:49.032309,1709045989.0323093,-115.72265625,-25.87890625,-32.71484375,-61.03515625,1.0,1.0,1.0,1.0,7.m4v,6.0
2024-02-27 15:59:49.036214,1709045989.036214,-70.80078125,-31.73828125,-36.62109375,-65.4296875,1.0,1.0,1.0,1.0,7.m4v,6.0
2024-02-27 15:59:49.040119,1709045989.0401187,47.8515625,-34.1796875,-40.0390625,-42.48046875,1.0,1.0,1.0,1.0,7.m4v,6.0
2024-02-27 15:59:49.044023,1709045989.0440233,9.27734375,-34.1796875,-34.1796875,-50.29296875,1.0,1.0,1.0,1.0,7.m4v,6.0
2024-02-27 15:59:49.047928,1709045989.047928,-123.53515625,-33.69140625,-35.64453125,-60.546875,1.0,1.0,1.0,1.0,7.m4v,6.0
2024-02-27 15:59:49.051832,1709045989.0518324,-62.5,-24.4140625,-40.0390625,-39.0625,1.0,1.0,1.0,1.0,7.m4v,6.0
2024-02-27 15:59:49.055750,1709045989.0557504,46.38671875,-25.390625,-36.62109375,-31.25,1.0,1.0,1.0,1.0,7.m4v,6.0
2024-02-27 15:59:49.059655,1709045989.059655,22.94921875,-28.3203125,-36.62109375,-36.62109375,1.0,1.0,1.0,1.0,7.m4v,6.0
2024-02-27 15:59:49.063560,1709045989.0635595,-20.5078125,-29.78515625,-50.78125,-40.0390625,1.0,1.0,1.0,1.0,7.m4v,6.0
2024-02-27 15:59:49.067464,1709045989.067464,-55.6640625,-33.69140625,-42.96875,-52.24609375,1.0,1.0,1.0,1.0,7.m4v,6.0
2024-02-27 15:59:49.071369,1709045989.071369,-46.38671875,-32.71484375,-29.296875,-21.97265625,1.0,1.0,1.0,1.0,7.m4v,6.0
2024-02-27 15:59:49.075274,1709045989.0752735,-51.26953125,-27.83203125,-31.25,-2.44140625,1.0,1.0,1.0,1.0,7.m4v,6.0
2024-02-27 15:59:49.079178,1709045989.079178,-77.1484375,-23.92578125,-34.66796875,-39.55078125,1.0,1.0,1.0,1.0,7.m4v,6.0
2024-02-27 15:59:49.083083,1709045989.083083,-21.97265625,-25.87890625,-35.64453125,-61.5234375,1.0,1.0,1.0,1.0,7.m4v,6.0
2024-02-27 15:59:49.086987,1709045989.0869875,7.8125,-27.83203125,-39.55078125,-39.0625,1.0,1.0,1.0,1.0,7.m4v,6.0
2024-02-27 15:59:49.090892,1709045989.090892,-31.25,-29.296875,-36.1328125,-32.2265625,1.0,1.0,1.0,1.0,7.m4v,6.0
2024-02-27 15:59:49.094797,1709045989.094797,-100.5859375,-27.34375,-31.73828125,-37.59765625,1.0,1.0,1.0,1.0,7.m4v,6.0
2024-02-27 15:59:49.098701,1709045989.0987017,-30.76171875,-21.484375,-34.1796875,-41.50390625,1.0,1.0,1.0,1.0,7.m4v,6.0
2024-02-27 15:59:49.102618,1709045989.1026185,42.48046875,-23.4375,-35.15625,-36.62109375,1.0,1.0,1.0,1.0,7.m4v,6.0
2024-02-27 15:59:49.106523,1709045989.106523,-35.64453125,-29.78515625,-38.0859375,-69.82421875,1.0,1.0,1.0,1.0,7.m4v,6.0
2024-02-27 15:59:49.110428,1709045989.1104276,-90.8203125,-29.78515625,-34.1796875,-72.265625,1.0,1.0,1.0,1.0,7.m4v,6.0
2024-02-27 15:59:49.114332,1709045989.1143322,-69.3359375,-30.76171875,-29.296875,-23.92578125,1.0,1.0,1.0,1.0,7.m4v,6.0
2024-02-27 15:59:49.118237,1709045989.118237,-16.6015625,-32.2265625,-31.73828125,-51.7578125,1.0,1.0,1.0,1.0,7.m4v,6.0
2024-02-27 15:59:49.122142,1709045989.1221416,-1.46484375,-31.25,-34.66796875,-62.5,1.0,1.0,1.0,1.0,7.m4v,6.0
2024-02-27 15:59:49.126046,1709045989.1260462,-9.765625,-31.25,-25.87890625,-19.04296875,1.0,1.0,1.0,1.0,7.m4v,6.0
2024-02-27 15:59:49.129951,1709045989.129951,-91.796875,-31.73828125,-23.92578125,-4.39453125,1.0,1.0,1.0,1.0,7.m4v,6.0
2024-02-27 15:59:49.133856,1709045989.1338556,-120.1171875,-31.73828125,-32.71484375,-8.30078125,1.0,1.0,1.0,1.0,7.m4v,6.0
2024-02-27 15:59:49.137760,1709045989.1377602,-22.94921875,-27.83203125,-39.0625,-16.6015625,1.0,1.0,1.0,1.0,7.m4v,6.0
2024-02-27 15:59:49.141665,1709045989.1416647,-6.8359375,-33.69140625,-41.50390625,-34.1796875,1.0,1.0,1.0,1.0,7.m4v,6.0
2024-02-27 15:59:49.145570,1709045989.1455696,-12.6953125,-42.48046875,-39.55078125,-67.87109375,1.0,1.0,1.0,1.0,7.m4v,6.0
2024-02-27 15:59:49.149484,1709045989.1494842,-35.15625,-42.48046875,-35.64453125,-53.7109375,1.0,1.0,1.0,1.0,7.m4v,6.0
2024-02-27 15:59:49.153389,1709045989.1533887,-65.91796875,-43.45703125,-35.15625,-31.25,1.0,1.0,1.0,1.0,7.m4v,6.0
2024-02-27 15:59:49.157293,1709045989.157293,-63.96484375,-37.109375,-34.66796875,-43.9453125,1.0,1.0,1.0,1.0,7.m4v,6.0
2024-02-27 15:59:49.161198,1709045989.161198,-47.36328125,-32.71484375,-27.83203125,-39.0625,1.0,1.0,1.0,1.0,7.m4v,6.0
2024-02-27 15:59:49.165103,1709045989.1651027,-18.06640625,-34.66796875,-28.3203125,-56.640625,1.0,1.0,1.0,1.0,7.m4v,6.0
2024-02-27 15:59:49.169007,1709045989.1690073,-45.8984375,-32.2265625,-34.1796875,-56.15234375,1.0,1.0,1.0,1.0,7.m4v,6.0
2024-02-27 15:59:49.172912,1709045989.172912,-45.8984375,-30.76171875,-39.0625,-59.5703125,1.0,1.0,1.0,1.0,7.m4v,6.0
2024-02-27 15:59:49.176817,1709045989.1768167,-6.34765625,-36.62109375,-40.0390625,-59.08203125,1.0,1.0,1.0,1.0,7.m4v,6.0
2024-02-27 15:59:49.180721,1709045989.1807213,1.46484375,-38.0859375,-33.69140625,-27.83203125,1.0,1.0,1.0,1.0,7.m4v,6.0
2024-02-27 15:59:49.184626,1709045989.184626,-63.4765625,-32.2265625,-33.69140625,-20.5078125,1.0,1.0,1.0,1.0,7.m4v,6.0
2024-02-27 15:59:49.188531,1709045989.1885307,-142.578125,-31.25,-33.203125,-16.11328125,1.0,1.0,1.0,1.0,7.m4v,6.0
2024-02-27 15:59:49.192435,1709045989.1924353,-49.8046875,-35.15625,-34.66796875,-18.06640625,1.0,1.0,1.0,1.0,7.m4v,6.0
2024-02-27 15:59:49.196350,1709045989.1963496,41.9921875,-29.296875,-38.0859375,-7.8125,1.0,1.0,1.0,1.0,7.m4v,6.0
2024-02-27 15:59:49.200254,1709045989.2002542,-72.265625,-21.97265625,-35.15625,-13.671875,1.0,1.0,1.0,1.0,7.m4v,6.0
2024-02-27 15:59:49.204159,1709045989.204159,-126.953125,-25.87890625,-33.203125,-51.26953125,1.0,1.0,1.0,1.0,7.m4v,6.0
2024-02-27 15:59:49.208064,1709045989.2080636,-37.59765625,-25.87890625,-39.0625,-53.7109375,1.0,1.0,1.0,1.0,7.m4v,6.0
2024-02-27 15:59:49.211968,1709045989.2119682,-3.41796875,-21.97265625,-47.36328125,-47.8515625,1.0,1.0,1.0,1.0,7.m4v,6.0
2024-02-27 15:59:49.215873,1709045989.215873,27.34375,-22.94921875,-47.36328125,-57.6171875,1.0,1.0,1.0,1.0,7.m4v,6.0
2024-02-27 15:59:49.219778,1709045989.2197776,21.97265625,-20.01953125,-37.59765625,-39.0625,1.0,1.0,1.0,1.0,7.m4v,6.0
2024-02-27 15:59:49.223682,1709045989.2236822,-15.13671875,-20.01953125,-36.1328125,-30.2734375,1.0,1.0,1.0,1.0,7.m4v,6.0
2024-02-27 15:59:49.227587,1709045989.2275867,-60.546875,-28.3203125,-42.48046875,-51.7578125,1.0,1.0,1.0,1.0,7.m4v,6.0
2024-02-27 15:59:49.231492,1709045989.2314916,-85.9375,-33.203125,-40.52734375,-64.453125,1.0,1.0,1.0,1.0,7.m4v,6.0
2024-02-27 15:59:49.235396,1709045989.235396,-51.26953125,-35.64453125,-37.109375,-49.31640625,1.0,1.0,1.0,1.0,7.m4v,6.0
2024-02-27 15:59:49.239301,1709045989.2393007,-53.7109375,-31.73828125,-39.55078125,-28.80859375,1.0,1.0,1.0,1.0,7.m4v,6.0
2024-02-27 15:59:49.243223,1709045989.243223,-104.4921875,-30.76171875,-33.69140625,-39.0625,1.0,1.0,1.0,1.0,7.m4v,6.0
2024-02-27 15:59:49.247128,1709045989.2471275,-106.93359375,-27.83203125,-31.25,-40.52734375,1.0,1.0,1.0,1.0,7.m4v,6.0
2024-02-27 15:59:49.251032,1709045989.2510324,-13.18359375,-23.92578125,-39.0625,-32.2265625,1.0,1.0,1.0,1.0,7.m4v,6.0
2024-02-27 15:59:49.254937,1709045989.254937,76.66015625,-31.73828125,-41.50390625,-25.390625,1.0,1.0,1.0,1.0,7.m4v,6.0
2024-02-27 15:59:49.258842,1709045989.2588415,31.73828125,-33.69140625,-39.55078125,-54.19921875,1.0,1.0,1.0,1.0,7.m4v,6.0
2024-02-27 15:59:49.262746,1709045989.2627463,-37.59765625,-33.69140625,-37.109375,-72.75390625,1.0,1.0,1.0,1.0,7.m4v,6.0
2024-02-27 15:59:49.266651,1709045989.266651,-95.21484375,-38.0859375,-36.62109375,-53.7109375,1.0,1.0,1.0,1.0,7.m4v,6.0
2024-02-27 15:59:49.270555,1709045989.2705555,-63.96484375,-36.1328125,-33.203125,-53.7109375,1.0,1.0,1.0,1.0,7.m4v,6.0
2024-02-27 15:59:49.274460,1709045989.2744603,0.48828125,-34.1796875,-36.1328125,-29.78515625,1.0,1.0,1.0,1.0,7.m4v,6.0
2024-02-27 15:59:49.278365,1709045989.278365,-24.90234375,-36.1328125,-43.9453125,-12.6953125,1.0,1.0,1.0,1.0,7.m4v,6.0
2024-02-27 15:59:49.282269,1709045989.2822697,-54.19921875,-34.1796875,-37.59765625,-26.3671875,1.0,1.0,1.0,1.0,7.m4v,6.0
2024-02-27 15:59:49.286174,1709045989.286174,-98.6328125,-33.203125,-34.1796875,-31.73828125,1.0,1.0,1.0,1.0,7.m4v,6.0
2024-02-27 15:59:49.290094,1709045989.290094,-70.80078125,-37.109375,-46.875,-29.296875,1.0,1.0,1.0,1.0,7.m4v,6.0
2024-02-27 15:59:49.293999,1709045989.2939987,-27.34375,-38.57421875,-52.734375,-18.06640625,1.0,1.0,1.0,1.0,7.m4v,6.0
2024-02-27 15:59:49.297903,1709045989.2979033,-32.71484375,-37.59765625,-44.43359375,-28.80859375,1.0,1.0,1.0,1.0,7.m4v,6.0
2024-02-27 15:59:49.301808,1709045989.301808,2.9296875,-35.15625,-39.55078125,-27.83203125,1.0,1.0,1.0,1.0,7.m4v,6.0
2024-02-27 15:59:49.305713,1709045989.3057127,11.23046875,-40.0390625,-37.59765625,-54.6875,1.0,1.0,1.0,1.0,7.m4v,6.0
2024-02-27 15:59:49.309617,1709045989.3096173,-104.4921875,-35.64453125,-31.25,-68.84765625,1.0,1.0,1.0,1.0,7.m4v,6.0
2024-02-27 15:59:49.313522,1709045989.313522,-110.3515625,-36.1328125,-33.203125,-16.11328125,1.0,1.0,1.0,1.0,7.m4v,6.0
2024-02-27 15:59:49.317427,1709045989.3174267,7.32421875,-39.0625,-39.55078125,-14.6484375,1.0,1.0,1.0,1.0,7.m4v,6.0
2024-02-27 15:59:49.321331,1709045989.3213313,-46.38671875,-37.109375,-37.109375,-61.03515625,1.0,1.0,1.0,1.0,7.m4v,6.0
2024-02-27 15:59:49.325236,1709045989.3252358,-34.66796875,-36.1328125,-28.80859375,-46.38671875,1.0,1.0,1.0,1.0,7.m4v,6.0
2024-02-27 15:59:49.329141,1709045989.329141,-26.3671875,-34.66796875,-35.64453125,-17.08984375,1.0,1.0,1.0,1.0,7.m4v,6.0
2024-02-27 15:59:49.333045,1709045989.3330452,-62.01171875,-36.62109375,-42.96875,-30.76171875,1.0,1.0,1.0,1.0,7.m4v,6.0
2024-02-27 15:59:49.336965,1709045989.336965,-31.73828125,-44.43359375,-39.55078125,-25.87890625,1.0,1.0,1.0,1.0,7.m4v,6.0
2024-02-27 15:59:49.340870,1709045989.34087,-20.01953125,-38.0859375,-36.1328125,-35.15625,1.0,1.0,1.0,1.0,7.m4v,6.0
2024-02-27 15:59:49.344774,1709045989.3447745,-10.7421875,-26.85546875,-33.203125,-46.38671875,1.0,1.0,1.0,1.0,7.m4v,6.0
2024-02-27 15:59:49.348679,1709045989.348679,-12.20703125,-36.1328125,-38.0859375,-33.203125,1.0,1.0,1.0,1.0,7.m4v,6.0
2024-02-27 15:59:49.352584,1709045989.352584,-30.76171875,-35.64453125,-39.55078125,-47.36328125,1.0,1.0,1.0,1.0,7.m4v,6.0
2024-02-27 15:59:49.356488,1709045989.3564885,-8.30078125,-26.85546875,-34.66796875,-38.0859375,1.0,1.0,1.0,1.0,7.m4v,6.0
2024-02-27 15:59:49.360393,1709045989.360393,-20.5078125,-32.2265625,-36.62109375,-5.859375,1.0,1.0,1.0,1.0,7.m4v,6.0
2024-02-27 15:59:49.364298,1709045989.364298,-56.15234375,-39.0625,-41.9921875,-12.6953125,1.0,1.0,1.0,1.0,7.m4v,6.0
2024-02-27 15:59:49.368202,1709045989.3682024,-30.76171875,-37.109375,-40.0390625,-23.92578125,1.0,1.0,1.0,1.0,7.m4v,6.0
2024-02-27 15:59:49.372107,1709045989.372107,-48.33984375,-30.2734375,-39.55078125,-47.8515625,1.0,1.0,1.0,1.0,7.m4v,6.0
2024-02-27 15:59:49.376012,1709045989.3760116,-44.921875,-20.99609375,-32.2265625,-39.0625,1.0,1.0,1.0,1.0,7.m4v,6.0
2024-02-27 15:59:49.379916,1709045989.3799164,-4.8828125,-18.06640625,-26.85546875,-8.30078125,1.0,1.0,1.0,1.0,7.m4v,6.0
2024-02-27 15:59:49.383835,1709045989.3838348,-112.79296875,-29.296875,-42.48046875,-36.1328125,1.0,1.0,1.0,1.0,7.m4v,6.0
2024-02-27 15:59:49.387739,1709045989.3877394,-112.79296875,-28.3203125,-40.52734375,-50.29296875,1.0,1.0,1.0,1.0,7.m4v,6.0
2024-02-27 15:59:49.391644,1709045989.3916442,51.26953125,-22.94921875,-26.85546875,-48.33984375,1.0,1.0,1.0,1.0,7.m4v,6.0
2024-02-27 15:59:49.395549,1709045989.3955488,76.66015625,-30.76171875,-31.73828125,-34.66796875,1.0,1.0,1.0,1.0,7.m4v,6.0
2024-02-27 15:59:49.399453,1709045989.3994534,9.765625,-35.15625,-37.109375,-29.78515625,1.0,1.0,1.0,1.0,7.m4v,6.0
2024-02-27 15:59:49.403358,1709045989.4033582,-21.484375,-31.25,-31.73828125,-64.453125,1.0,1.0,1.0,1.0,7.m4v,6.0
2024-02-27 15:59:49.407263,1709045989.4072628,-37.59765625,-24.90234375,-32.2265625,-37.109375,1.0,1.0,1.0,1.0,7.m4v,6.0
2024-02-27 15:59:49.411167,1709045989.4111674,-69.3359375,-23.92578125,-34.66796875,-21.97265625,1.0,1.0,1.0,1.0,7.m4v,6.0
2024-02-27 15:59:49.415072,1709045989.415072,-39.0625,-29.78515625,-35.15625,-41.015625,1.0,1.0,1.0,1.0,7.m4v,6.0
2024-02-27 15:59:49.418977,1709045989.4189768,-0.9765625,-28.3203125,-33.69140625,-29.78515625,1.0,1.0,1.0,1.0,7.m4v,6.0
2024-02-27 15:59:49.422881,1709045989.4228814,-19.53125,-27.34375,-31.73828125,-18.5546875,1.0,1.0,1.0,1.0,7.m4v,6.0
2024-02-27 15:59:49.426786,1709045989.426786,-86.42578125,-26.3671875,-34.66796875,-24.4140625,1.0,1.0,1.0,1.0,7.m4v,6.0
2024-02-27 15:59:49.430703,1709045989.430703,-167.48046875,-22.94921875,-35.64453125,-39.55078125,1.0,1.0,1.0,1.0,7.m4v,6.0
2024-02-27 15:59:49.434608,1709045989.4346075,-106.4453125,-25.87890625,-30.2734375,-50.29296875,1.0,1.0,1.0,1.0,7.m4v,6.0
2024-02-27 15:59:49.438512,1709045989.4385123,66.89453125,-28.80859375,-27.34375,-34.66796875,1.0,1.0,1.0,1.0,7.m4v,6.0
2024-02-27 15:59:49.442417,1709045989.442417,87.890625,-28.80859375,-34.66796875,-19.53125,1.0,1.0,1.0,1.0,7.m4v,6.0
2024-02-27 15:59:49.446322,1709045989.4463215,14.6484375,-32.71484375,-38.57421875,-25.390625,1.0,1.0,1.0,1.0,7.m4v,6.0
2024-02-27 15:59:49.450226,1709045989.4502263,-5.859375,-27.34375,-31.25,-16.11328125,1.0,1.0,1.0,1.0,7.m4v,6.0
2024-02-27 15:59:49.454131,1709045989.454131,-2.9296875,-28.80859375,-30.76171875,-11.23046875,1.0,1.0,1.0,1.0,7.m4v,6.0
2024-02-27 15:59:49.458035,1709045989.4580357,-38.0859375,-39.0625,-33.69140625,-38.57421875,1.0,1.0,1.0,1.0,7.m4v,6.0
2024-02-27 15:59:49.461940,1709045989.4619403,-83.984375,-40.52734375,-27.83203125,-51.7578125,1.0,1.0,1.0,1.0,7.m4v,6.0
2024-02-27 15:59:49.465845,1709045989.4658449,-83.984375,-40.0390625,-33.69140625,-38.57421875,1.0,1.0,1.0,1.0,7.m4v,6.0
2024-02-27 15:59:49.469749,1709045989.4697497,-66.40625,-38.57421875,-31.73828125,-34.1796875,1.0,1.0,1.0,1.0,7.m4v,6.0
2024-02-27 15:59:49.473654,1709045989.4736545,-12.20703125,-31.73828125,-24.90234375,-18.06640625,1.0,1.0,1.0,1.0,7.m4v,6.0
2024-02-27 15:59:49.477570,1709045989.4775698,-24.4140625,-26.85546875,-30.76171875,-16.6015625,1.0,1.0,1.0,1.0,7.m4v,6.0
2024-02-27 15:59:49.481474,1709045989.4814744,-67.3828125,-33.69140625,-33.69140625,-45.41015625,1.0,1.0,1.0,1.0,7.m4v,6.0
2024-02-27 15:59:49.485379,1709045989.4853792,-69.3359375,-41.50390625,-40.0390625,-68.359375,1.0,1.0,1.0,1.0,7.m4v,6.0
2024-02-27 15:59:49.489284,1709045989.4892838,-68.84765625,-31.73828125,-39.0625,-53.7109375,1.0,1.0,1.0,1.0,7.m4v,6.0
2024-02-27 15:59:49.493188,1709045989.4931884,-40.0390625,-23.92578125,-33.203125,-29.296875,1.0,1.0,1.0,1.0,7.m4v,6.0
2024-02-27 15:59:49.497093,1709045989.497093,11.71875,-27.34375,-31.25,-11.23046875,1.0,1.0,1.0,1.0,7.m4v,6.0
2024-02-27 15:59:49.500998,1709045989.5009978,33.69140625,-28.80859375,-33.203125,-20.01953125,1.0,1.0,1.0,1.0,7.m4v,6.0
2024-02-27 15:59:49.504902,1709045989.5049024,-9.765625,-33.203125,-39.0625,-26.3671875,1.0,1.0,1.0,1.0,7.m4v,6.0
2024-02-27 15:59:49.508807,1709045989.508807,-49.31640625,-33.203125,-38.0859375,-20.99609375,1.0,1.0,1.0,1.0,7.m4v,6.0
2024-02-27 15:59:49.512712,1709045989.5127118,-12.6953125,-33.69140625,-30.2734375,-12.6953125,1.0,1.0,1.0,1.0,7.m4v,6.0
2024-02-27 15:59:49.516616,1709045989.5166163,20.99609375,-35.15625,-25.390625,-11.71875,1.0,1.0,1.0,1.0,7.m4v,6.0
2024-02-27 15:59:49.520521,1709045989.520521,-9.765625,-33.203125,-31.25,-25.390625,1.0,1.0,1.0,1.0,7.m4v,6.0
2024-02-27 15:59:49.524436,1709045989.5244355,-57.12890625,-35.15625,-41.9921875,-16.6015625,1.0,1.0,1.0,1.0,7.m4v,6.0
2024-02-27 15:59:49.528340,1709045989.52834,-104.4921875,-43.45703125,-42.96875,-21.484375,1.0,1.0,1.0,1.0,7.m4v,6.0
2024-02-27 15:59:49.532245,1709045989.532245,-36.1328125,-44.43359375,-40.0390625,-31.73828125,1.0,1.0,1.0,1.0,7.m4v,6.0
2024-02-27 15:59:49.536150,1709045989.5361495,-18.5546875,-33.203125,-33.203125,-21.97265625,1.0,1.0,1.0,1.0,7.m4v,6.0
2024-02-27 15:59:49.540054,1709045989.540054,-56.640625,-29.296875,-26.3671875,-23.4375,1.0,1.0,1.0,1.0,7.m4v,6.0
2024-02-27 15:59:49.543959,1709045989.543959,-37.109375,-35.15625,-27.83203125,-42.48046875,1.0,1.0,1.0,1.0,7.m4v,6.0
2024-02-27 15:59:49.547863,1709045989.5478635,-45.8984375,-39.55078125,-33.69140625,-59.5703125,1.0,1.0,1.0,1.0,7.m4v,6.0
2024-02-27 15:59:49.551768,1709045989.551768,-118.1640625,-38.57421875,-36.1328125,-22.94921875,1.0,1.0,1.0,1.0,7.m4v,6.0
2024-02-27 15:59:49.555673,1709045989.5556726,-92.7734375,-40.0390625,-37.59765625,-7.8125,1.0,1.0,1.0,1.0,7.m4v,6.0
2024-02-27 15:59:49.559577,1709045989.5595777,26.3671875,-40.0390625,-38.0859375,-20.99609375,1.0,1.0,1.0,1.0,7.m4v,6.0
2024-02-27 15:59:49.563482,1709045989.563482,1.46484375,-41.015625,-33.69140625,-26.3671875,1.0,1.0,1.0,1.0,7.m4v,6.0
2024-02-27 15:59:49.567387,1709045989.5673866,-58.10546875,-37.109375,-37.59765625,-43.45703125,1.0,1.0,1.0,1.0,7.m4v,6.0
2024-02-27 15:59:49.571300,1709045989.5712996,-22.94921875,-31.25,-40.0390625,-48.33984375,1.0,1.0,1.0,1.0,7.m4v,6.0
2024-02-27 15:59:49.575204,1709045989.5752044,8.7890625,-37.109375,-40.0390625,-45.8984375,1.0,1.0,1.0,1.0,7.m4v,6.0
2024-02-27 15:59:49.579109,1709045989.579109,-17.578125,-35.64453125,-37.109375,-31.25,1.0,1.0,1.0,1.0,7.m4v,6.0
2024-02-27 15:59:49.583014,1709045989.5830135,-21.484375,-33.203125,-29.296875,-17.08984375,1.0,1.0,1.0,1.0,7.m4v,6.0
2024-02-27 15:59:49.586918,1709045989.586918,-104.4921875,-33.69140625,-35.15625,-19.04296875,1.0,1.0,1.0,1.0,7.m4v,6.0
2024-02-27 15:59:49.590823,1709045989.590823,-163.0859375,-29.296875,-37.109375,-21.97265625,1.0,1.0,1.0,1.0,7.m4v,6.0
2024-02-27 15:59:49.594728,1709045989.5947275,-74.21875,-32.71484375,-35.64453125,-27.83203125,1.0,1.0,1.0,1.0,7.m4v,6.0
2024-02-27 15:59:49.598632,1709045989.598632,3.90625,-39.55078125,-34.1796875,-33.69140625,1.0,1.0,1.0,1.0,7.m4v,6.0
2024-02-27 15:59:49.602537,1709045989.602537,46.875,-36.1328125,-31.73828125,-28.3203125,1.0,1.0,1.0,1.0,7.m4v,6.0
2024-02-27 15:59:49.606441,1709045989.6064415,21.484375,-31.25,-24.90234375,-35.15625,1.0,1.0,1.0,1.0,7.m4v,6.0
2024-02-27 15:59:49.610346,1709045989.610346,-34.66796875,-31.73828125,-22.4609375,-29.296875,1.0,1.0,1.0,1.0,7.m4v,6.0
2024-02-27 15:59:49.614251,1709045989.614251,-68.359375,-32.2265625,-29.296875,-20.5078125,1.0,1.0,1.0,1.0,7.m4v,6.0
2024-02-27 15:59:49.618173,1709045989.6181726,-64.453125,-35.15625,-27.83203125,-47.36328125,1.0,1.0,1.0,1.0,7.m4v,6.0
2024-02-27 15:59:49.622077,1709045989.6220777,-53.22265625,-38.0859375,-28.80859375,-53.22265625,1.0,1.0,1.0,1.0,7.m4v,6.0
2024-02-27 15:59:49.625982,1709045989.625982,-22.94921875,-36.1328125,-36.62109375,-41.50390625,1.0,1.0,1.0,1.0,7.m4v,6.0
2024-02-27 15:59:49.629887,1709045989.6298866,-23.4375,-34.66796875,-31.73828125,-14.16015625,1.0,1.0,1.0,1.0,7.m4v,6.0
2024-02-27 15:59:49.633791,1709045989.6337914,-59.08203125,-35.15625,-27.83203125,-8.30078125,1.0,1.0,1.0,1.0,7.m4v,6.0
2024-02-27 15:59:49.637696,1709045989.637696,-61.03515625,-31.73828125,-29.296875,-17.578125,1.0,1.0,1.0,1.0,7.m4v,6.0
2024-02-27 15:59:49.641601,1709045989.6416006,-61.03515625,-29.296875,-26.85546875,-31.25,1.0,1.0,1.0,1.0,7.m4v,6.0
2024-02-27 15:59:49.645505,1709045989.6455052,-58.10546875,-39.0625,-26.85546875,-67.3828125,1.0,1.0,1.0,1.0,7.m4v,6.0
2024-02-27 15:59:49.649410,1709045989.64941,-29.78515625,-39.0625,-25.87890625,-44.921875,1.0,1.0,1.0,1.0,7.m4v,6.0
2024-02-27 15:59:49.653315,1709045989.6533146,-21.97265625,-38.0859375,-24.90234375,-1.953125,1.0,1.0,1.0,1.0,7.m4v,6.0
2024-02-27 15:59:49.657219,1709045989.6572192,-16.6015625,-38.0859375,-24.90234375,-18.5546875,1.0,1.0,1.0,1.0,7.m4v,6.0
2024-02-27 15:59:49.661124,1709045989.661124,-34.66796875,-30.2734375,-29.296875,-61.03515625,1.0,1.0,1.0,1.0,7.m4v,6.0
2024-02-27 15:59:49.665045,1709045989.6650448,-97.16796875,-34.66796875,-33.69140625,-78.125,1.0,1.0,1.0,1.0,7.m4v,6.0
2024-02-27 15:59:49.668949,1709045989.6689494,-79.58984375,-38.0859375,-31.73828125,-53.7109375,1.0,1.0,1.0,1.0,7.m4v,6.0
2024-02-27 15:59:49.672854,1709045989.672854,-12.6953125,-35.64453125,-30.76171875,-25.390625,1.0,1.0,1.0,1.0,7.m4v,6.0
2024-02-27 15:59:49.676759,1709045989.6767583,8.30078125,-38.0859375,-40.0390625,-30.2734375,1.0,1.0,1.0,1.0,7.m4v,6.0
2024-02-27 15:59:49.680663,1709045989.680663,-73.2421875,-41.9921875,-36.1328125,-40.0390625,1.0,1.0,1.0,1.0,7.m4v,6.0
2024-02-27 15:59:49.684568,1709045989.684568,-114.2578125,-34.66796875,-27.83203125,-24.4140625,1.0,1.0,1.0,1.0,7.m4v,6.0
2024-02-27 15:59:49.688473,1709045989.6884725,-78.125,-31.25,-33.203125,-26.3671875,1.0,1.0,1.0,1.0,7.m4v,6.0
2024-02-27 15:59:49.692377,1709045989.692377,10.25390625,-39.55078125,-31.25,-46.38671875,1.0,1.0,1.0,1.0,7.m4v,6.0
2024-02-27 15:59:49.696282,1709045989.696282,55.6640625,-40.52734375,-28.80859375,-36.1328125,1.0,1.0,1.0,1.0,7.m4v,6.0
2024-02-27 15:59:49.700186,1709045989.7001865,15.13671875,-36.1328125,-28.80859375,-20.99609375,1.0,1.0,1.0,1.0,7.m4v,6.0
2024-02-27 15:59:49.704091,1709045989.7040913,-24.90234375,-35.15625,-31.25,-47.8515625,1.0,1.0,1.0,1.0,7.m4v,6.0
2024-02-27 15:59:49.707996,1709045989.707996,-96.19140625,-38.0859375,-34.1796875,-49.8046875,1.0,1.0,1.0,1.0,7.m4v,6.0
2024-02-27 15:59:49.711915,1709045989.7119153,-43.9453125,-41.9921875,-32.71484375,-44.43359375,1.0,1.0,1.0,1.0,7.m4v,6.0
2024-02-27 15:59:49.715820,1709045989.7158198,-36.62109375,-45.41015625,-35.15625,-50.78125,1.0,1.0,1.0,1.0,7.m4v,6.0
2024-02-27 15:59:49.719724,1709045989.7197244,-103.02734375,-41.9921875,-33.69140625,-21.97265625,1.0,1.0,1.0,1.0,7.m4v,6.0
2024-02-27 15:59:49.723629,1709045989.7236292,-15.13671875,-28.80859375,-25.390625,-7.8125,1.0,1.0,1.0,1.0,7.m4v,6.0
2024-02-27 15:59:49.727534,1709045989.7275338,-25.390625,-28.80859375,-29.296875,-50.29296875,1.0,1.0,1.0,1.0,7.m4v,6.0
2024-02-27 15:59:49.731438,1709045989.7314384,-91.796875,-30.2734375,-36.62109375,-36.1328125,1.0,1.0,1.0,1.0,7.m4v,6.0
2024-02-27 15:59:49.735343,1709045989.7353432,2.9296875,-23.4375,-32.71484375,18.5546875,1.0,1.0,1.0,1.0,7.m4v,6.0
2024-02-27 15:59:49.739248,1709045989.7392478,24.90234375,-25.390625,-28.80859375,-12.6953125,1.0,1.0,1.0,1.0,7.m4v,6.0
2024-02-27 15:59:49.743152,1709045989.7431524,-24.4140625,-30.76171875,-26.3671875,-30.2734375,1.0,1.0,1.0,1.0,7.m4v,6.0
2024-02-27 15:59:49.747057,1709045989.747057,-40.52734375,-35.15625,-26.3671875,-27.34375,1.0,1.0,1.0,1.0,7.m4v,6.0
2024-02-27 15:59:49.750962,1709045989.7509618,-35.15625,-39.0625,-32.71484375,-23.92578125,1.0,1.0,1.0,1.0,7.m4v,6.0
2024-02-27 15:59:49.754866,1709045989.7548664,-50.29296875,-35.15625,-29.296875,-15.13671875,1.0,1.0,1.0,1.0,7.m4v,6.0
2024-02-27 15:59:49.758784,1709045989.7587843,-40.0390625,-32.2265625,-26.3671875,-40.52734375,1.0,1.0,1.0,1.0,7.m4v,6.0
2024-02-27 15:59:49.762689,1709045989.762689,-3.41796875,-29.296875,-32.71484375,-38.0859375,1.0,1.0,1.0,1.0,7.m4v,6.0
2024-02-27 15:59:49.766594,1709045989.7665937,-38.57421875,-26.3671875,-36.62109375,-29.296875,1.0,1.0,1.0,1.0,7.m4v,6.0
2024-02-27 15:59:49.770498,1709045989.7704985,-80.56640625,-35.15625,-39.55078125,-41.9921875,1.0,1.0,1.0,1.0,7.m4v,6.0
2024-02-27 15:59:49.774403,1709045989.774403,-67.3828125,-37.109375,-34.66796875,-22.4609375,1.0,1.0,1.0,1.0,7.m4v,6.0
2024-02-27 15:59:49.778308,1709045989.7783077,-78.61328125,-28.3203125,-30.2734375,-31.25,1.0,1.0,1.0,1.0,7.m4v,6.0
2024-02-27 15:59:49.782212,1709045989.7822125,-79.1015625,-32.71484375,-34.66796875,-74.70703125,1.0,1.0,1.0,1.0,7.m4v,6.0
2024-02-27 15:59:49.786117,1709045989.7861168,-113.76953125,-42.96875,-37.59765625,-62.01171875,1.0,1.0,1.0,1.0,7.m4v,6.0
2024-02-27 15:59:49.790022,1709045989.7900217,-69.3359375,-33.69140625,-34.66796875,-26.3671875,1.0,1.0,1.0,1.0,7.m4v,6.0
2024-02-27 15:59:49.793926,1709045989.7939262,36.1328125,-22.4609375,-33.203125,-3.41796875,1.0,1.0,1.0,1.0,7.m4v,6.0
2024-02-27 15:59:49.797831,1709045989.7978308,15.625,-21.97265625,-40.0390625,-13.671875,1.0,1.0,1.0,1.0,7.m4v,6.0
2024-02-27 15:59:49.801736,1709045989.8017356,20.01953125,-23.92578125,-43.9453125,-18.5546875,1.0,1.0,1.0,1.0,7.m4v,6.0
2024-02-27 15:59:49.805653,1709045989.805653,-19.53125,-26.3671875,-34.1796875,-23.4375,1.0,1.0,1.0,1.0,7.m4v,6.0
2024-02-27 15:59:49.809558,1709045989.809558,-53.7109375,-27.34375,-27.83203125,-29.296875,1.0,1.0,1.0,1.0,7.m4v,6.0
2024-02-27 15:59:49.813463,1709045989.8134627,-11.23046875,-24.4140625,-32.71484375,-11.23046875,1.0,1.0,1.0,1.0,7.m4v,6.0
2024-02-27 15:59:49.817367,1709045989.8173673,-23.4375,-21.97265625,-33.69140625,-21.97265625,1.0,1.0,1.0,1.0,7.m4v,6.0
2024-02-27 15:59:49.821272,1709045989.821272,-57.6171875,-28.3203125,-30.2734375,-38.0859375,1.0,1.0,1.0,1.0,7.m4v,6.0
2024-02-27 15:59:49.825176,1709045989.8251765,-76.171875,-26.85546875,-27.83203125,-62.98828125,1.0,1.0,1.0,1.0,7.m4v,6.0
2024-02-27 15:59:49.829081,1709045989.8290813,-78.61328125,-25.390625,-26.85546875,-39.55078125,1.0,1.0,1.0,1.0,7.m4v,6.0
2024-02-27 15:59:49.832986,1709045989.832986,-30.2734375,-35.64453125,-36.62109375,3.90625,1.0,1.0,1.0,1.0,7.m4v,6.0
2024-02-27 15:59:49.836890,1709045989.8368905,-57.12890625,-40.52734375,-41.9921875,-52.734375,1.0,1.0,1.0,1.0,7.m4v,6.0
2024-02-27 15:59:49.840795,1709045989.8407953,-73.73046875,-37.109375,-41.015625,-74.70703125,1.0,1.0,1.0,1.0,7.m4v,6.0
2024-02-27 15:59:49.844700,1709045989.8447,0.0,-30.2734375,-33.69140625,-16.11328125,1.0,1.0,1.0,1.0,7.m4v,6.0
2024-02-27 15:59:49.848604,1709045989.8486044,5.37109375,-26.3671875,-25.390625,5.859375,1.0,1.0,1.0,1.0,7.m4v,6.0
2024-02-27 15:59:49.852521,1709045989.8525212,-64.453125,-26.85546875,-28.80859375,-12.6953125,1.0,1.0,1.0,1.0,7.m4v,6.0
2024-02-27 15:59:49.856426,1709045989.8564258,-38.0859375,-23.92578125,-27.83203125,-26.3671875,1.0,1.0,1.0,1.0,7.m4v,6.0
2024-02-27 15:59:49.860330,1709045989.8603303,47.8515625,-24.4140625,-27.83203125,-41.50390625,1.0,1.0,1.0,1.0,7.m4v,6.0
2024-02-27 15:59:49.864235,1709045989.8642352,7.8125,-41.50390625,-32.2265625,-40.0390625,1.0,1.0,1.0,1.0,7.m4v,6.0
2024-02-27 15:59:49.868140,1709045989.8681395,-79.58984375,-43.9453125,-35.15625,-38.0859375,1.0,1.0,1.0,1.0,7.m4v,6.0
2024-02-27 15:59:49.872044,1709045989.8720443,-81.54296875,-36.1328125,-40.52734375,-42.96875,1.0,1.0,1.0,1.0,7.m4v,6.0
2024-02-27 15:59:49.875949,1709045989.8759491,-8.7890625,-29.296875,-40.52734375,-23.92578125,1.0,1.0,1.0,1.0,7.m4v,6.0
2024-02-27 15:59:49.879854,1709045989.8798535,-21.97265625,-34.1796875,-33.69140625,-20.01953125,1.0,1.0,1.0,1.0,7.m4v,6.0
2024-02-27 15:59:49.883758,1709045989.8837583,-56.640625,-41.50390625,-31.73828125,-48.33984375,1.0,1.0,1.0,1.0,7.m4v,6.0
2024-02-27 15:59:49.887663,1709045989.8876631,-71.77734375,-35.64453125,-31.25,-48.33984375,1.0,1.0,1.0,1.0,7.m4v,6.0
2024-02-27 15:59:49.891568,1709045989.8915677,-107.91015625,-38.57421875,-27.83203125,-37.59765625,1.0,1.0,1.0,1.0,7.m4v,6.0
2024-02-27 15:59:49.895472,1709045989.8954723,-84.47265625,-39.55078125,-33.69140625,-56.640625,1.0,1.0,1.0,1.0,7.m4v,6.0
2024-02-27 15:59:49.899388,1709045989.8993876,-5.37109375,-34.1796875,-35.15625,-52.24609375,1.0,1.0,1.0,1.0,7.m4v,6.0
2024-02-27 15:59:49.903292,1709045989.9032922,-5.37109375,-36.62109375,-34.66796875,-25.87890625,1.0,1.0,1.0,1.0,7.m4v,6.0
2024-02-27 15:59:49.907197,1709045989.907197,-53.7109375,-38.0859375,-39.0625,-27.83203125,1.0,1.0,1.0,1.0,7.m4v,6.0
2024-02-27 15:59:49.911102,1709045989.9111016,-41.50390625,-34.1796875,-33.69140625,-24.4140625,1.0,1.0,1.0,1.0,7.m4v,6.0
2024-02-27 15:59:49.915006,1709045989.9150062,-49.31640625,-37.109375,-29.78515625,-45.8984375,1.0,1.0,1.0,1.0,7.m4v,6.0
2024-02-27 15:59:49.918911,1709045989.918911,-34.66796875,-38.57421875,-28.80859375,-41.015625,1.0,1.0,1.0,1.0,7.m4v,6.0
2024-02-27 15:59:49.922816,1709045989.9228156,-28.80859375,-37.109375,-32.71484375,-18.06640625,1.0,1.0,1.0,1.0,7.m4v,6.0
2024-02-27 15:59:49.926720,1709045989.92672,-43.9453125,-41.015625,-38.0859375,-31.25,1.0,1.0,1.0,1.0,7.m4v,6.0
2024-02-27 15:59:49.930625,1709045989.930625,-14.16015625,-35.64453125,-33.69140625,-43.45703125,1.0,1.0,1.0,1.0,7.m4v,6.0
2024-02-27 15:59:49.934530,1709045989.9345295,-29.78515625,-31.73828125,-34.66796875,-61.5234375,1.0,1.0,1.0,1.0,7.m4v,6.0
2024-02-27 15:59:49.938434,1709045989.938434,-37.59765625,-32.71484375,-34.66796875,-48.828125,1.0,1.0,1.0,1.0,7.m4v,6.0
2024-02-27 15:59:49.942339,1709045989.942339,-93.26171875,-27.83203125,-29.296875,-25.390625,1.0,1.0,1.0,1.0,7.m4v,6.0
2024-02-27 15:59:49.946252,1709045989.946252,-107.421875,-29.78515625,-31.25,-53.22265625,1.0,1.0,1.0,1.0,7.m4v,6.0
2024-02-27 15:59:49.950156,1709045989.9501565,5.859375,-38.0859375,-28.3203125,-62.01171875,1.0,1.0,1.0,1.0,7.m4v,6.0
2024-02-27 15:59:49.954061,1709045989.954061,17.08984375,-42.48046875,-27.83203125,-47.8515625,1.0,1.0,1.0,1.0,7.m4v,6.0
2024-02-27 15:59:49.957966,1709045989.957966,-18.06640625,-40.52734375,-31.73828125,-46.38671875,1.0,1.0,1.0,1.0,7.m4v,6.0
2024-02-27 15:59:49.961870,1709045989.9618704,13.671875,-32.71484375,-32.71484375,-12.6953125,1.0,1.0,1.0,1.0,7.m4v,6.0
2024-02-27 15:59:49.965775,1709045989.965775,14.16015625,-30.2734375,-37.59765625,0.9765625,1.0,1.0,1.0,1.0,7.m4v,6.0
2024-02-27 15:59:49.969680,1709045989.9696796,-25.87890625,-32.71484375,-40.0390625,-25.87890625,1.0,1.0,1.0,1.0,7.m4v,6.0
2024-02-27 15:59:49.973584,1709045989.9735844,-30.76171875,-23.92578125,-37.109375,-39.55078125,1.0,1.0,1.0,1.0,7.m4v,6.0
2024-02-27 15:59:49.977489,1709045989.977489,-39.0625,-20.01953125,-32.71484375,-43.9453125,1.0,1.0,1.0,1.0,7.m4v,6.0
2024-02-27 15:59:49.981394,1709045989.9813936,-47.8515625,-30.2734375,-33.203125,-24.90234375,1.0,1.0,1.0,1.0,7.m4v,6.0
2024-02-27 15:59:49.985298,1709045989.9852984,-52.734375,-33.69140625,-32.2265625,-12.20703125,1.0,1.0,1.0,1.0,7.m4v,6.0
2024-02-27 15:59:49.989203,1709045989.989203,-38.57421875,-33.69140625,-35.64453125,-22.4609375,1.0,1.0,1.0,1.0,7.m4v,6.0
2024-02-27 15:59:49.993126,1709045989.9931257,-79.1015625,-32.71484375,-44.43359375,-48.33984375,1.0,1.0,1.0,1.0,7.m4v,6.0
2024-02-27 15:59:49.997030,1709045989.9970305,-73.2421875,-32.71484375,-46.38671875,-77.63671875,1.0,1.0,1.0,1.0,7.m4v,6.0
2024-02-27 15:59:50.000935,1709045990.0009348,28.3203125,-34.66796875,-44.921875,-40.0390625,1.0,1.0,1.0,1.0,7.m4v,6.0
2024-02-27 15:59:50.004839,1709045990.0048394,23.4375,-37.109375,-41.9921875,1.46484375,1.0,1.0,1.0,1.0,7.m4v,6.0
2024-02-27 15:59:50.008744,1709045990.0087442,-3.41796875,-36.62109375,-41.015625,-19.04296875,1.0,1.0,1.0,1.0,7.m4v,6.0
2024-02-27 15:59:50.012649,1709045990.0126488,-42.48046875,-29.78515625,-41.50390625,-18.06640625,1.0,1.0,1.0,1.0,7.m4v,6.0
2024-02-27 15:59:50.016553,1709045990.0165534,-79.58984375,-36.62109375,-40.0390625,-31.73828125,1.0,1.0,1.0,1.0,7.m4v,6.0
2024-02-27 15:59:50.020458,1709045990.0204582,-15.625,-45.8984375,-39.0625,-42.96875,1.0,1.0,1.0,1.0,7.m4v,6.0
2024-02-27 15:59:50.024363,1709045990.0243628,-12.6953125,-40.52734375,-38.0859375,-30.76171875,1.0,1.0,1.0,1.0,7.m4v,6.0
2024-02-27 15:59:50.028267,1709045990.0282674,-61.03515625,-41.015625,-38.57421875,-28.80859375,1.0,1.0,1.0,1.0,7.m4v,6.0
2024-02-27 15:59:50.032172,1709045990.0321722,-15.13671875,-44.921875,-37.109375,-25.390625,1.0,1.0,1.0,1.0,7.m4v,6.0
2024-02-27 15:59:50.036077,1709045990.0360768,5.37109375,-32.71484375,-37.59765625,-41.015625,1.0,1.0,1.0,1.0,7.m4v,6.0
2024-02-27 15:59:50.039997,1709045990.039997,-44.921875,-26.3671875,-37.109375,-66.40625,1.0,1.0,1.0,1.0,7.m4v,6.0
2024-02-27 15:59:50.043902,1709045990.043902,-40.0390625,-31.73828125,-33.203125,-89.84375,1.0,1.0,1.0,1.0,7.m4v,6.0
2024-02-27 15:59:50.047807,1709045990.0478065,-42.96875,-34.66796875,-29.78515625,-57.12890625,1.0,1.0,1.0,1.0,7.m4v,6.0
2024-02-27 15:59:50.051711,1709045990.051711,-52.734375,-32.2265625,-25.87890625,9.765625,1.0,1.0,1.0,1.0,7.m4v,6.0
2024-02-27 15:59:50.055616,1709045990.055616,-5.859375,-30.76171875,-30.76171875,1.46484375,1.0,1.0,1.0,1.0,7.m4v,6.0
2024-02-27 15:59:50.059520,1709045990.0595205,-24.90234375,-34.1796875,-44.921875,-38.57421875,1.0,1.0,1.0,1.0,7.m4v,6.0
2024-02-27 15:59:50.063425,1709045990.063425,-114.2578125,-37.109375,-48.828125,-62.98828125,1.0,1.0,1.0,1.0,7.m4v,6.0
2024-02-27 15:59:50.067330,1709045990.06733,-98.14453125,-35.15625,-46.38671875,-56.15234375,1.0,1.0,1.0,1.0,7.m4v,6.0
2024-02-27 15:59:50.071234,1709045990.0712345,-19.53125,-33.69140625,-43.9453125,-41.9921875,1.0,1.0,1.0,1.0,7.m4v,6.0
2024-02-27 15:59:50.075139,1709045990.075139,-16.11328125,-40.0390625,-43.9453125,-42.48046875,1.0,1.0,1.0,1.0,7.m4v,6.0
2024-02-27 15:59:50.079044,1709045990.079044,44.43359375,-31.73828125,-39.55078125,-48.828125,1.0,1.0,1.0,1.0,7.m4v,6.0
2024-02-27 15:59:50.082948,1709045990.0829484,-19.04296875,-24.4140625,-33.69140625,-62.98828125,1.0,1.0,1.0,1.0,7.m4v,6.0
2024-02-27 15:59:50.086869,1709045990.086869,-80.56640625,-29.296875,-31.25,-35.15625,1.0,1.0,1.0,1.0,7.m4v,6.0
2024-02-27 15:59:50.090774,1709045990.0907736,-44.43359375,-34.1796875,-37.109375,-4.39453125,1.0,1.0,1.0,1.0,7.m4v,6.0
2024-02-27 15:59:50.094678,1709045990.0946782,27.83203125,-36.62109375,-40.52734375,-28.3203125,1.0,1.0,1.0,1.0,7.m4v,6.0
2024-02-27 15:59:50.098583,1709045990.098583,17.578125,-36.62109375,-35.15625,-50.29296875,1.0,1.0,1.0,1.0,7.m4v,6.0
2024-02-27 15:59:50.102488,1709045990.1024876,-70.3125,-38.57421875,-42.48046875,-43.45703125,1.0,1.0,1.0,1.0,7.m4v,6.0
2024-02-27 15:59:50.106392,1709045990.106392,-52.734375,-38.0859375,-41.50390625,-26.85546875,1.0,1.0,1.0,1.0,7.m4v,6.0
2024-02-27 15:59:50.110297,1709045990.110297,-10.25390625,-40.52734375,-34.66796875,-21.484375,1.0,1.0,1.0,1.0,7.m4v,6.0
2024-02-27 15:59:50.114202,1709045990.1142015,-1.46484375,-40.52734375,-37.109375,-52.734375,1.0,1.0,1.0,1.0,7.m4v,6.0
2024-02-27 15:59:50.118106,1709045990.118106,18.06640625,-34.66796875,-39.55078125,-63.96484375,1.0,1.0,1.0,1.0,7.m4v,6.0
2024-02-27 15:59:50.122011,1709045990.1220107,-8.7890625,-38.57421875,-39.55078125,-64.453125,1.0,1.0,1.0,1.0,7.m4v,6.0
2024-02-27 15:59:50.125916,1709045990.1259155,-87.890625,-41.50390625,-34.1796875,-68.84765625,1.0,1.0,1.0,1.0,7.m4v,6.0
2024-02-27 15:59:50.129820,1709045990.12982,-148.4375,-36.1328125,-34.1796875,-37.109375,1.0,1.0,1.0,1.0,7.m4v,6.0
2024-02-27 15:59:50.133739,1709045990.133739,-97.65625,-34.66796875,-35.15625,-34.66796875,1.0,1.0,1.0,1.0,7.m4v,6.0
2024-02-27 15:59:50.137644,1709045990.1376436,-17.08984375,-33.69140625,-28.3203125,-31.25,1.0,1.0,1.0,1.0,7.m4v,6.0
2024-02-27 15:59:50.141548,1709045990.1415482,18.06640625,-30.2734375,-22.94921875,-24.90234375,1.0,1.0,1.0,1.0,7.m4v,6.0
2024-02-27 15:59:50.145453,1709045990.145453,-14.16015625,-24.90234375,-26.3671875,-33.203125,1.0,1.0,1.0,1.0,7.m4v,6.0
2024-02-27 15:59:50.149358,1709045990.1493576,-30.2734375,-20.01953125,-29.296875,-31.73828125,1.0,1.0,1.0,1.0,7.m4v,6.0
2024-02-27 15:59:50.153262,1709045990.153262,-38.0859375,-25.390625,-32.2265625,-58.59375,1.0,1.0,1.0,1.0,7.m4v,6.0
2024-02-27 15:59:50.157167,1709045990.157167,-70.80078125,-29.78515625,-26.85546875,-75.68359375,1.0,1.0,1.0,1.0,7.m4v,6.0
2024-02-27 15:59:50.161072,1709045990.1610715,-35.64453125,-36.1328125,-23.92578125,-34.1796875,1.0,1.0,1.0,1.0,7.m4v,6.0
2024-02-27 15:59:50.164976,1709045990.164976,-5.37109375,-37.109375,-36.62109375,-39.55078125,1.0,1.0,1.0,1.0,7.m4v,6.0
2024-02-27 15:59:50.168881,1709045990.168881,-10.7421875,-33.69140625,-42.48046875,-56.640625,1.0,1.0,1.0,1.0,7.m4v,6.0
2024-02-27 15:59:50.172786,1709045990.1727855,-46.875,-33.203125,-42.48046875,-15.625,1.0,1.0,1.0,1.0,7.m4v,6.0
2024-02-27 15:59:50.176690,1709045990.17669,-40.52734375,-31.73828125,-48.828125,-18.06640625,1.0,1.0,1.0,1.0,7.m4v,6.0
2024-02-27 15:59:50.180608,1709045990.1806078,-62.98828125,-34.66796875,-47.36328125,-38.0859375,1.0,1.0,1.0,1.0,7.m4v,6.0
2024-02-27 15:59:50.184512,1709045990.1845124,-112.3046875,-28.80859375,-30.2734375,-39.0625,1.0,1.0,1.0,1.0,7.m4v,6.0
2024-02-27 15:59:50.188417,1709045990.188417,-66.89453125,-28.80859375,-32.2265625,-45.8984375,1.0,1.0,1.0,1.0,7.m4v,6.0
2024-02-27 15:59:50.192322,1709045990.1923218,17.08984375,-33.69140625,-41.015625,-66.40625,1.0,1.0,1.0,1.0,7.m4v,6.0
2024-02-27 15:59:50.196226,1709045990.1962264,13.671875,-30.2734375,-32.71484375,-55.17578125,1.0,1.0,1.0,1.0,7.m4v,6.0
2024-02-27 15:59:50.200131,1709045990.200131,-54.19921875,-33.69140625,-28.3203125,-50.29296875,1.0,1.0,1.0,1.0,7.m4v,6.0
2024-02-27 15:59:50.204036,1709045990.2040358,-69.82421875,-44.43359375,-31.25,-73.2421875,1.0,1.0,1.0,1.0,7.m4v,6.0
2024-02-27 15:59:50.207940,1709045990.2079403,-47.8515625,-44.43359375,-31.73828125,-45.8984375,1.0,1.0,1.0,1.0,7.m4v,6.0
2024-02-27 15:59:50.211845,1709045990.211845,-45.41015625,-39.55078125,-29.296875,-27.34375,1.0,1.0,1.0,1.0,7.m4v,6.0
2024-02-27 15:59:50.215750,1709045990.2157495,-12.6953125,-39.0625,-31.25,-23.4375,1.0,1.0,1.0,1.0,7.m4v,6.0
2024-02-27 15:59:50.219654,1709045990.2196543,-46.875,-40.0390625,-38.0859375,-32.71484375,1.0,1.0,1.0,1.0,7.m4v,6.0
2024-02-27 15:59:50.223559,1709045990.223559,-106.4453125,-36.1328125,-40.0390625,-24.90234375,1.0,1.0,1.0,1.0,7.m4v,6.0
2024-02-27 15:59:50.227475,1709045990.2274747,-108.88671875,-34.1796875,-32.71484375,-47.36328125,1.0,1.0,1.0,1.0,7.m4v,6.0
2024-02-27 15:59:50.231379,1709045990.2313793,-77.63671875,-39.0625,-29.296875,-68.359375,1.0,1.0,1.0,1.0,7.m4v,6.0
2024-02-27 15:59:50.235284,1709045990.235284,18.06640625,-33.203125,-31.25,-41.015625,1.0,1.0,1.0,1.0,7.m4v,6.0
2024-02-27 15:59:50.239189,1709045990.239189,48.33984375,-31.25,-30.2734375,-29.296875,1.0,1.0,1.0,1.0,7.m4v,6.0
2024-02-27 15:59:50.243093,1709045990.2430933,5.37109375,-42.48046875,-30.2734375,-37.59765625,1.0,1.0,1.0,1.0,7.m4v,6.0
2024-02-27 15:59:50.246998,1709045990.246998,-59.08203125,-46.875,-36.1328125,-46.38671875,1.0,1.0,1.0,1.0,7.m4v,6.0
2024-02-27 15:59:50.250903,1709045990.250903,-105.46875,-42.96875,-36.1328125,-45.41015625,1.0,1.0,1.0,1.0,7.m4v,6.0
2024-02-27 15:59:50.254807,1709045990.2548072,-75.68359375,-39.55078125,-31.73828125,-41.015625,1.0,1.0,1.0,1.0,7.m4v,6.0
2024-02-27 15:59:50.258712,1709045990.258712,-5.859375,-35.64453125,-33.203125,-27.83203125,1.0,1.0,1.0,1.0,7.m4v,6.0
2024-02-27 15:59:50.262617,1709045990.2626166,-3.90625,-36.1328125,-36.1328125,-50.29296875,1.0,1.0,1.0,1.0,7.m4v,6.0
2024-02-27 15:59:50.266521,1709045990.2665212,-115.234375,-38.0859375,-38.57421875,-70.80078125,1.0,1.0,1.0,1.0,7.m4v,6.0
2024-02-27 15:59:50.270426,1709045990.270426,-80.56640625,-35.64453125,-38.57421875,-41.015625,1.0,1.0,1.0,1.0,7.m4v,6.0
2024-02-27 15:59:50.274340,1709045990.27434,31.25,-34.66796875,-33.69140625,-35.64453125,1.0,1.0,1.0,1.0,7.m4v,6.0
2024-02-27 15:59:50.278244,1709045990.2782445,24.90234375,-38.0859375,-36.1328125,-31.73828125,1.0,1.0,1.0,1.0,7.m4v,6.0
2024-02-27 15:59:50.282149,1709045990.282149,-24.4140625,-35.15625,-32.71484375,-22.4609375,1.0,1.0,1.0,1.0,7.m4v,6.0
2024-02-27 15:59:50.286054,1709045990.286054,-29.296875,-28.3203125,-34.1796875,-14.16015625,1.0,1.0,1.0,1.0,7.m4v,6.0
2024-02-27 15:59:50.289958,1709045990.2899585,-58.59375,-31.25,-40.52734375,-34.66796875,1.0,1.0,1.0,1.0,7.m4v,6.0
2024-02-27 15:59:50.293863,1709045990.293863,-112.3046875,-38.0859375,-27.83203125,-45.41015625,1.0,1.0,1.0,1.0,7.m4v,6.0
2024-02-27 15:59:50.297768,1709045990.2977676,-54.19921875,-39.55078125,-27.34375,-37.59765625,1.0,1.0,1.0,1.0,7.m4v,6.0
2024-02-27 15:59:50.301672,1709045990.3016725,-3.41796875,-41.9921875,-34.66796875,-54.6875,1.0,1.0,1.0,1.0,7.m4v,6.0
2024-02-27 15:59:50.305577,1709045990.305577,-17.578125,-38.0859375,-29.78515625,-52.24609375,1.0,1.0,1.0,1.0,7.m4v,6.0
2024-02-27 15:59:50.309482,1709045990.3094816,-39.0625,-31.73828125,-32.71484375,-35.15625,1.0,1.0,1.0,1.0,7.m4v,6.0
2024-02-27 15:59:50.313386,1709045990.3133864,-51.26953125,-33.203125,-41.015625,-36.1328125,1.0,1.0,1.0,1.0,7.m4v,6.0
2024-02-27 15:59:50.317291,1709045990.317291,12.20703125,-33.69140625,-38.57421875,-25.87890625,1.0,1.0,1.0,1.0,7.m4v,6.0
2024-02-27 15:59:50.321205,1709045990.3212051,6.34765625,-33.69140625,-34.1796875,-8.7890625,1.0,1.0,1.0,1.0,7.m4v,6.0
2024-02-27 15:59:50.325110,1709045990.32511,-62.01171875,-30.76171875,-34.66796875,-6.8359375,1.0,1.0,1.0,1.0,7.m4v,6.0
2024-02-27 15:59:50.329015,1709045990.3290143,-48.828125,-29.78515625,-30.76171875,-14.6484375,1.0,1.0,1.0,1.0,7.m4v,6.0
2024-02-27 15:59:50.332919,1709045990.3329191,-12.20703125,-41.50390625,-31.25,-22.4609375,1.0,1.0,1.0,1.0,7.m4v,6.0
2024-02-27 15:59:50.336824,1709045990.336824,-31.25,-41.50390625,-35.15625,-40.0390625,1.0,1.0,1.0,1.0,7.m4v,6.0
2024-02-27 15:59:50.340729,1709045990.3407283,-11.23046875,-31.25,-33.203125,-34.66796875,1.0,1.0,1.0,1.0,7.m4v,6.0
2024-02-27 15:59:50.344633,1709045990.344633,-4.39453125,-35.15625,-33.69140625,-54.6875,1.0,1.0,1.0,1.0,7.m4v,6.0
2024-02-27 15:59:50.348538,1709045990.348538,-38.0859375,-35.64453125,-42.96875,-79.58984375,1.0,1.0,1.0,1.0,7.m4v,6.0
2024-02-27 15:59:50.352443,1709045990.3524425,-77.1484375,-36.1328125,-42.48046875,-62.01171875,1.0,1.0,1.0,1.0,7.m4v,6.0
2024-02-27 15:59:50.356347,1709045990.356347,-28.80859375,-34.1796875,-30.76171875,-40.52734375,1.0,1.0,1.0,1.0,7.m4v,6.0
2024-02-27 15:59:50.360252,1709045990.360252,30.76171875,-27.83203125,-31.25,-1.953125,1.0,1.0,1.0,1.0,7.m4v,6.0
2024-02-27 15:59:50.364156,1709045990.3641565,-9.27734375,-28.3203125,-28.80859375,-6.8359375,1.0,1.0,1.0,1.0,7.m4v,6.0
2024-02-27 15:59:50.368079,1709045990.368079,-96.19140625,-31.25,-26.3671875,-20.01953125,1.0,1.0,1.0,1.0,7.m4v,6.0
2024-02-27 15:59:50.371984,1709045990.3719838,-126.46484375,-37.109375,-31.73828125,-14.6484375,1.0,1.0,1.0,1.0,7.m4v,6.0
2024-02-27 15:59:50.375888,1709045990.3758883,-3.90625,-33.203125,-34.66796875,-18.5546875,1.0,1.0,1.0,1.0,7.m4v,6.0
2024-02-27 15:59:50.379793,1709045990.379793,92.7734375,-29.78515625,-31.73828125,-44.921875,1.0,1.0,1.0,1.0,7.m4v,6.0
2024-02-27 15:59:50.383698,1709045990.3836975,54.19921875,-32.71484375,-36.62109375,-56.640625,1.0,1.0,1.0,1.0,7.m4v,6.0
2024-02-27 15:59:50.387602,1709045990.3876023,-20.99609375,-30.76171875,-36.62109375,-52.734375,1.0,1.0,1.0,1.0,7.m4v,6.0
2024-02-27 15:59:50.391507,1709045990.391507,-60.546875,-31.25,-33.203125,-44.921875,1.0,1.0,1.0,1.0,7.m4v,6.0
2024-02-27 15:59:50.395411,1709045990.3954115,-62.5,-29.296875,-31.25,-34.1796875,1.0,1.0,1.0,1.0,7.m4v,6.0
2024-02-27 15:59:50.399316,1709045990.3993163,-54.6875,-26.3671875,-26.85546875,-30.76171875,1.0,1.0,1.0,1.0,7.m4v,6.0
2024-02-27 15:59:50.403221,1709045990.403221,-28.3203125,-31.25,-33.203125,-25.87890625,1.0,1.0,1.0,1.0,7.m4v,6.0
2024-02-27 15:59:50.407125,1709045990.4071257,-18.5546875,-30.76171875,-38.57421875,-45.41015625,1.0,1.0,1.0,1.0,7.m4v,6.0
2024-02-27 15:59:50.411030,1709045990.4110303,-69.82421875,-35.64453125,-33.203125,-16.11328125,1.0,1.0,1.0,1.0,7.m4v,6.0
2024-02-27 15:59:50.414952,1709045990.414952,-24.90234375,-38.57421875,-35.15625,14.6484375,1.0,1.0,1.0,1.0,7.m4v,6.0
2024-02-27 15:59:50.418857,1709045990.4188569,12.20703125,-31.25,-31.73828125,-16.11328125,1.0,1.0,1.0,1.0,7.m4v,6.0
2024-02-27 15:59:50.422761,1709045990.4227614,-46.38671875,-29.78515625,-20.01953125,-35.64453125,1.0,1.0,1.0,1.0,7.m4v,6.0
2024-02-27 15:59:50.426666,1709045990.426666,-63.96484375,-28.80859375,-20.5078125,-28.3203125,1.0,1.0,1.0,1.0,7.m4v,6.0
2024-02-27 15:59:50.430571,1709045990.4305706,-82.03125,-28.80859375,-24.90234375,-46.875,1.0,1.0,1.0,1.0,7.m4v,6.0
2024-02-27 15:59:50.434475,1709045990.4344754,-47.8515625,-32.71484375,-30.2734375,-66.40625,1.0,1.0,1.0,1.0,7.m4v,6.0
2024-02-27 15:59:50.438380,1709045990.43838,42.96875,-35.64453125,-29.78515625,-16.11328125,1.0,1.0,1.0,1.0,7.m4v,6.0
2024-02-27 15:59:50.442285,1709045990.4422846,26.3671875,-32.71484375,-21.484375,-5.859375,1.0,1.0,1.0,1.0,7.m4v,6.0
2024-02-27 15:59:50.446189,1709045990.4461894,-18.5546875,-34.66796875,-24.90234375,-49.8046875,1.0,1.0,1.0,1.0,7.m4v,6.0
2024-02-27 15:59:50.450094,1709045990.450094,-34.1796875,-36.62109375,-29.78515625,-51.26953125,1.0,1.0,1.0,1.0,7.m4v,6.0
2024-02-27 15:59:50.453999,1709045990.4539986,-53.7109375,-28.80859375,-24.90234375,-35.64453125,1.0,1.0,1.0,1.0,7.m4v,6.0
2024-02-27 15:59:50.457903,1709045990.4579034,-56.15234375,-31.73828125,-30.2734375,-30.76171875,1.0,1.0,1.0,1.0,7.m4v,6.0
2024-02-27 15:59:50.461823,1709045990.4618237,-42.48046875,-36.1328125,-37.109375,-26.85546875,1.0,1.0,1.0,1.0,7.m4v,6.0
2024-02-27 15:59:50.465728,1709045990.465728,-18.06640625,-39.0625,-41.50390625,-24.90234375,1.0,1.0,1.0,1.0,7.m4v,6.0
2024-02-27 15:59:50.469633,1709045990.4696329,-16.6015625,-39.55078125,-38.0859375,-25.87890625,1.0,1.0,1.0,1.0,7.m4v,6.0
2024-02-27 15:59:50.473537,1709045990.4735374,-2.9296875,-30.2734375,-33.69140625,-35.64453125,1.0,1.0,1.0,1.0,7.m4v,6.0
2024-02-27 15:59:50.477442,1709045990.477442,-47.36328125,-26.3671875,-33.69140625,-20.99609375,1.0,1.0,1.0,1.0,7.m4v,6.0
2024-02-27 15:59:50.481347,1709045990.4813468,-93.75,-29.78515625,-33.69140625,-2.9296875,1.0,1.0,1.0,1.0,7.m4v,6.0
2024-02-27 15:59:50.485251,1709045990.4852514,-79.58984375,-32.2265625,-37.59765625,-23.4375,1.0,1.0,1.0,1.0,7.m4v,6.0
2024-02-27 15:59:50.489156,1709045990.489156,-27.34375,-28.3203125,-32.71484375,-40.52734375,1.0,1.0,1.0,1.0,7.m4v,6.0
2024-02-27 15:59:50.493061,1709045990.4930606,16.11328125,-29.296875,-33.69140625,-24.90234375,1.0,1.0,1.0,1.0,7.m4v,6.0
2024-02-27 15:59:50.496965,1709045990.4969654,17.08984375,-31.73828125,-38.57421875,-17.578125,1.0,1.0,1.0,1.0,7.m4v,6.0
2024-02-27 15:59:50.500870,1709045990.50087,-43.45703125,-35.15625,-29.78515625,-27.83203125,1.0,1.0,1.0,1.0,7.m4v,6.0
2024-02-27 15:59:50.504775,1709045990.5047746,-106.93359375,-37.59765625,-26.85546875,-46.38671875,1.0,1.0,1.0,1.0,7.m4v,6.0
2024-02-27 15:59:50.508694,1709045990.508694,-25.390625,-34.66796875,-36.1328125,-53.7109375,1.0,1.0,1.0,1.0,7.m4v,6.0
2024-02-27 15:59:50.512599,1709045990.5125985,-43.45703125,-36.62109375,-43.9453125,-52.24609375,1.0,1.0,1.0,1.0,7.m4v,6.0
2024-02-27 15:59:50.516503,1709045990.516503,-83.984375,-31.73828125,-34.1796875,-20.99609375,1.0,1.0,1.0,1.0,7.m4v,6.0
2024-02-27 15:59:50.520408,1709045990.520408,31.73828125,-28.3203125,-26.3671875,11.71875,1.0,1.0,1.0,1.0,7.m4v,6.0
2024-02-27 15:59:50.524312,1709045990.5243125,65.91796875,-27.83203125,-30.76171875,-14.16015625,1.0,1.0,1.0,1.0,7.m4v,6.0
2024-02-27 15:59:50.528217,1709045990.528217,-22.4609375,-28.3203125,-34.66796875,-25.87890625,1.0,1.0,1.0,1.0,7.m4v,6.0
2024-02-27 15:59:50.532122,1709045990.532122,-74.21875,-32.71484375,-31.73828125,-33.69140625,1.0,1.0,1.0,1.0,7.m4v,6.0
2024-02-27 15:59:50.536026,1709045990.5360265,-30.2734375,-30.76171875,-31.73828125,-33.203125,1.0,1.0,1.0,1.0,7.m4v,6.0
2024-02-27 15:59:50.539931,1709045990.539931,25.390625,-29.296875,-35.15625,-31.25,1.0,1.0,1.0,1.0,7.m4v,6.0
2024-02-27 15:59:50.543836,1709045990.543836,8.30078125,-31.73828125,-34.66796875,-50.29296875,1.0,1.0,1.0,1.0,7.m4v,6.0
2024-02-27 15:59:50.547740,1709045990.5477405,-93.75,-35.64453125,-40.0390625,-40.0390625,1.0,1.0,1.0,1.0,7.m4v,6.0
2024-02-27 15:59:50.551645,1709045990.551645,-131.34765625,-38.57421875,-46.875,-43.9453125,1.0,1.0,1.0,1.0,7.m4v,6.0
2024-02-27 15:59:50.555563,1709045990.5555627,-21.97265625,-41.015625,-45.41015625,-51.7578125,1.0,1.0,1.0,1.0,7.m4v,6.0
2024-02-27 15:59:50.559468,1709045990.5594676,27.83203125,-34.66796875,-36.1328125,-33.69140625,1.0,1.0,1.0,1.0,7.m4v,6.0
2024-02-27 15:59:50.563372,1709045990.563372,-19.53125,-34.66796875,-28.80859375,-11.23046875,1.0,1.0,1.0,1.0,7.m4v,6.0
2024-02-27 15:59:50.567277,1709045990.5672767,-116.69921875,-37.109375,-20.5078125,-15.625,1.0,1.0,1.0,1.0,7.m4v,6.0
2024-02-27 15:59:50.571182,1709045990.5711815,-55.17578125,-33.203125,-20.01953125,-31.73828125,1.0,1.0,1.0,1.0,7.m4v,6.0
2024-02-27 15:59:50.575086,1709045990.575086,63.4765625,-31.73828125,-30.2734375,-19.04296875,1.0,1.0,1.0,1.0,7.m4v,6.0
2024-02-27 15:59:50.578991,1709045990.5789907,43.45703125,-31.73828125,-34.1796875,-35.64453125,1.0,1.0,1.0,1.0,7.m4v,6.0
2024-02-27 15:59:50.582896,1709045990.5828955,-49.8046875,-32.71484375,-30.2734375,-35.15625,1.0,1.0,1.0,1.0,7.m4v,6.0
2024-02-27 15:59:50.586800,1709045990.5868,-80.078125,-35.64453125,-23.4375,-32.71484375,1.0,1.0,1.0,1.0,7.m4v,6.0
2024-02-27 15:59:50.590705,1709045990.590705,-15.625,-38.57421875,-24.4140625,-55.6640625,1.0,1.0,1.0,1.0,7.m4v,6.0
2024-02-27 15:59:50.594609,1709045990.5946095,14.16015625,-28.80859375,-34.66796875,-49.8046875,1.0,1.0,1.0,1.0,7.m4v,6.0
2024-02-27 15:59:50.598514,1709045990.598514,-39.0625,-22.94921875,-36.1328125,-41.015625,1.0,1.0,1.0,1.0,7.m4v,6.0
2024-02-27 15:59:50.602430,1709045990.60243,-54.6875,-29.296875,-34.66796875,-32.2265625,1.0,1.0,1.0,1.0,7.m4v,6.0
2024-02-27 15:59:50.606334,1709045990.6063344,-86.9140625,-29.296875,-30.2734375,-46.875,1.0,1.0,1.0,1.0,7.m4v,6.0
2024-02-27 15:59:50.610239,1709045990.610239,-78.61328125,-26.85546875,-30.76171875,-40.52734375,1.0,1.0,1.0,1.0,7.m4v,6.0
2024-02-27 15:59:50.614144,1709045990.6141438,40.52734375,-25.390625,-35.15625,-1.953125,1.0,1.0,1.0,1.0,7.m4v,6.0
2024-02-27 15:59:50.618048,1709045990.6180484,51.26953125,-28.3203125,-35.64453125,-2.9296875,1.0,1.0,1.0,1.0,7.m4v,6.0
2024-02-27 15:59:50.621953,1709045990.621953,10.25390625,-33.69140625,-39.0625,-17.578125,1.0,1.0,1.0,1.0,7.m4v,6.0
2024-02-27 15:59:50.625858,1709045990.6258578,-14.6484375,-34.66796875,-35.64453125,-24.4140625,1.0,1.0,1.0,1.0,7.m4v,6.0
2024-02-27 15:59:50.629762,1709045990.6297624,-33.203125,-31.25,-23.4375,-15.13671875,1.0,1.0,1.0,1.0,7.m4v,6.0
2024-02-27 15:59:50.633667,1709045990.633667,-9.27734375,-32.71484375,-26.3671875,-43.9453125,1.0,1.0,1.0,1.0,7.m4v,6.0
2024-02-27 15:59:50.637572,1709045990.6375718,-67.87109375,-35.15625,-33.69140625,-68.359375,1.0,1.0,1.0,1.0,7.m4v,6.0
2024-02-27 15:59:50.641476,1709045990.6414764,-118.1640625,-34.66796875,-29.78515625,-53.7109375,1.0,1.0,1.0,1.0,7.m4v,6.0
2024-02-27 15:59:50.645381,1709045990.645381,-50.29296875,-32.71484375,-31.25,-25.390625,1.0,1.0,1.0,1.0,7.m4v,6.0
2024-02-27 15:59:50.649296,1709045990.649296,39.0625,-32.71484375,-35.64453125,-2.44140625,1.0,1.0,1.0,1.0,7.m4v,6.0
2024-02-27 15:59:50.653201,1709045990.6532006,27.83203125,-29.296875,-36.1328125,-25.87890625,1.0,1.0,1.0,1.0,7.m4v,6.0
2024-02-27 15:59:50.657105,1709045990.6571054,-17.08984375,-25.87890625,-33.69140625,-57.12890625,1.0,1.0,1.0,1.0,7.m4v,6.0
2024-02-27 15:59:50.661010,1709045990.66101,-24.4140625,-36.62109375,-27.34375,-41.50390625,1.0,1.0,1.0,1.0,7.m4v,6.0
2024-02-27 15:59:50.664915,1709045990.6649146,-65.91796875,-41.9921875,-27.34375,-20.01953125,1.0,1.0,1.0,1.0,7.m4v,6.0
2024-02-27 15:59:50.668819,1709045990.6688194,-84.9609375,-32.71484375,-35.64453125,-35.15625,1.0,1.0,1.0,1.0,7.m4v,6.0
2024-02-27 15:59:50.672724,1709045990.672724,-105.46875,-29.296875,-36.62109375,-35.15625,1.0,1.0,1.0,1.0,7.m4v,6.0
2024-02-27 15:59:50.676629,1709045990.6766286,-106.4453125,-34.66796875,-34.66796875,-54.6875,1.0,1.0,1.0,1.0,7.m4v,6.0
2024-02-27 15:59:50.680533,1709045990.6805332,-31.73828125,-36.1328125,-41.50390625,-77.1484375,1.0,1.0,1.0,1.0,7.m4v,6.0
2024-02-27 15:59:50.684438,1709045990.684438,-33.69140625,-35.64453125,-40.0390625,-34.66796875,1.0,1.0,1.0,1.0,7.m4v,6.0
2024-02-27 15:59:50.688343,1709045990.6883426,-29.78515625,-39.0625,-34.1796875,-13.671875,1.0,1.0,1.0,1.0,7.m4v,6.0
2024-02-27 15:59:50.692247,1709045990.6922472,6.34765625,-38.0859375,-38.0859375,-47.8515625,1.0,1.0,1.0,1.0,7.m4v,6.0
2024-02-27 15:59:50.696162,1709045990.6961615,-12.20703125,-39.0625,-34.66796875,-72.265625,1.0,1.0,1.0,1.0,7.m4v,6.0
2024-02-27 15:59:50.700066,1709045990.7000663,-57.12890625,-41.50390625,-31.73828125,-54.19921875,1.0,1.0,1.0,1.0,7.m4v,6.0
2024-02-27 15:59:50.703971,1709045990.703971,-106.4453125,-39.55078125,-37.59765625,-19.04296875,1.0,1.0,1.0,1.0,7.m4v,6.0
2024-02-27 15:59:50.707875,1709045990.7078755,-90.8203125,-43.45703125,-36.1328125,-18.5546875,1.0,1.0,1.0,1.0,7.m4v,6.0
2024-02-27 15:59:50.711780,1709045990.7117803,-7.8125,-43.9453125,-31.73828125,-24.90234375,1.0,1.0,1.0,1.0,7.m4v,6.0
2024-02-27 15:59:50.715685,1709045990.715685,17.578125,-37.109375,-35.64453125,-33.69140625,1.0,1.0,1.0,1.0,7.m4v,6.0
2024-02-27 15:59:50.719589,1709045990.7195897,-8.7890625,-39.0625,-41.9921875,-72.265625,1.0,1.0,1.0,1.0,7.m4v,6.0
2024-02-27 15:59:50.723494,1709045990.7234943,-51.26953125,-36.62109375,-45.41015625,-82.51953125,1.0,1.0,1.0,1.0,7.m4v,6.0
2024-02-27 15:59:50.727399,1709045990.7273989,-85.44921875,-32.71484375,-42.96875,-27.83203125,1.0,1.0,1.0,1.0,7.m4v,6.0
2024-02-27 15:59:50.731303,1709045990.7313037,-44.43359375,-31.25,-40.0390625,-7.32421875,1.0,1.0,1.0,1.0,7.m4v,6.0
2024-02-27 15:59:50.735208,1709045990.7352085,13.18359375,-38.0859375,-38.0859375,-24.4140625,1.0,1.0,1.0,1.0,7.m4v,6.0
2024-02-27 15:59:50.739113,1709045990.7391129,-52.24609375,-38.0859375,-40.52734375,-30.2734375,1.0,1.0,1.0,1.0,7.m4v,6.0
2024-02-27 15:59:50.743036,1709045990.743036,-79.58984375,-34.1796875,-36.1328125,-37.59765625,1.0,1.0,1.0,1.0,7.m4v,6.0
2024-02-27 15:59:50.746941,1709045990.7469409,-7.8125,-36.62109375,-33.69140625,-25.87890625,1.0,1.0,1.0,1.0,7.m4v,6.0
2024-02-27 15:59:50.750845,1709045990.7508454,9.27734375,-37.59765625,-38.0859375,-22.4609375,1.0,1.0,1.0,1.0,7.m4v,6.0
2024-02-27 15:59:50.754750,1709045990.75475,-47.36328125,-36.62109375,-31.73828125,-48.33984375,1.0,1.0,1.0,1.0,7.m4v,6.0
2024-02-27 15:59:50.758655,1709045990.7586548,-25.87890625,-33.203125,-26.85546875,-57.6171875,1.0,1.0,1.0,1.0,7.m4v,6.0
2024-02-27 15:59:50.762559,1709045990.7625594,-0.48828125,-34.1796875,-28.3203125,-25.390625,1.0,1.0,1.0,1.0,7.m4v,6.0
2024-02-27 15:59:50.766464,1709045990.766464,-38.0859375,-40.0390625,-32.2265625,6.8359375,1.0,1.0,1.0,1.0,7.m4v,6.0
2024-02-27 15:59:50.770369,1709045990.7703688,-23.4375,-37.109375,-40.0390625,-0.48828125,1.0,1.0,1.0,1.0,7.m4v,6.0
2024-02-27 15:59:50.774273,1709045990.7742734,-66.40625,-36.62109375,-44.43359375,-25.87890625,1.0,1.0,1.0,1.0,7.m4v,6.0
2024-02-27 15:59:50.778178,1709045990.778178,-86.42578125,-39.55078125,-42.96875,-37.59765625,1.0,1.0,1.0,1.0,7.m4v,6.0
2024-02-27 15:59:50.782083,1709045990.7820828,-41.50390625,-39.55078125,-41.015625,-46.38671875,1.0,1.0,1.0,1.0,7.m4v,6.0
2024-02-27 15:59:50.785987,1709045990.7859874,-75.68359375,-39.0625,-39.0625,-44.43359375,1.0,1.0,1.0,1.0,7.m4v,6.0
2024-02-27 15:59:50.789909,1709045990.7899086,-61.03515625,-37.59765625,-38.0859375,-41.50390625,1.0,1.0,1.0,1.0,7.m4v,6.0
2024-02-27 15:59:50.793813,1709045990.7938132,9.765625,-37.59765625,-39.0625,-51.26953125,1.0,1.0,1.0,1.0,7.m4v,6.0
2024-02-27 15:59:50.797718,1709045990.797718,-44.921875,-26.3671875,-33.203125,-46.875,1.0,1.0,1.0,1.0,7.m4v,6.0
2024-02-27 15:59:50.801623,1709045990.8016226,-109.86328125,-23.92578125,-29.78515625,-54.19921875,1.0,1.0,1.0,1.0,7.m4v,6.0
2024-02-27 15:59:50.805527,1709045990.8055272,-185.05859375,-28.3203125,-37.109375,-48.33984375,1.0,1.0,1.0,1.0,7.m4v,6.0
2024-02-27 15:59:50.809432,1709045990.809432,-86.42578125,-29.78515625,-39.55078125,-18.06640625,1.0,1.0,1.0,1.0,7.m4v,6.0
2024-02-27 15:59:50.813337,1709045990.8133366,92.7734375,-30.76171875,-33.69140625,-4.39453125,1.0,1.0,1.0,1.0,7.m4v,6.0
2024-02-27 15:59:50.817241,1709045990.8172412,58.59375,-29.78515625,-35.64453125,-16.6015625,1.0,1.0,1.0,1.0,7.m4v,6.0
2024-02-27 15:59:50.821146,1709045990.821146,27.83203125,-33.69140625,-49.8046875,-64.453125,1.0,1.0,1.0,1.0,7.m4v,6.0
2024-02-27 15:59:50.825051,1709045990.8250506,-67.3828125,-34.66796875,-45.41015625,-57.12890625,1.0,1.0,1.0,1.0,7.m4v,6.0
2024-02-27 15:59:50.828955,1709045990.8289552,-76.171875,-33.69140625,-32.71484375,-29.78515625,1.0,1.0,1.0,1.0,7.m4v,6.0
2024-02-27 15:59:50.832860,1709045990.83286,-24.90234375,-35.15625,-32.71484375,-21.97265625,1.0,1.0,1.0,1.0,7.m4v,6.0
2024-02-27 15:59:50.836780,1709045990.8367796,-32.71484375,-38.57421875,-33.203125,-38.0859375,1.0,1.0,1.0,1.0,7.m4v,6.0
2024-02-27 15:59:50.840684,1709045990.8406842,-2.44140625,-30.2734375,-31.73828125,-92.7734375,1.0,1.0,1.0,1.0,7.m4v,6.0
2024-02-27 15:59:50.844589,1709045990.844589,-30.76171875,-27.83203125,-28.3203125,-54.6875,1.0,1.0,1.0,1.0,7.m4v,6.0
2024-02-27 15:59:50.848494,1709045990.8484936,-65.91796875,-40.52734375,-30.76171875,-25.390625,1.0,1.0,1.0,1.0,7.m4v,6.0
2024-02-27 15:59:50.852398,1709045990.8523982,-30.76171875,-37.59765625,-35.15625,-37.59765625,1.0,1.0,1.0,1.0,7.m4v,6.0
2024-02-27 15:59:50.856303,1709045990.856303,6.8359375,-24.90234375,-39.0625,-22.4609375,1.0,1.0,1.0,1.0,7.m4v,6.0
2024-02-27 15:59:50.860208,1709045990.8602076,-65.4296875,-27.34375,-39.0625,-24.4140625,1.0,1.0,1.0,1.0,7.m4v,6.0
2024-02-27 15:59:50.864112,1709045990.864112,-86.9140625,-29.78515625,-38.0859375,-32.2265625,1.0,1.0,1.0,1.0,7.m4v,6.0
2024-02-27 15:59:50.868017,1709045990.868017,-117.1875,-30.2734375,-40.52734375,-49.8046875,1.0,1.0,1.0,1.0,7.m4v,6.0
2024-02-27 15:59:50.871922,1709045990.8719215,-154.296875,-34.66796875,-39.0625,-26.3671875,1.0,1.0,1.0,1.0,7.m4v,6.0
2024-02-27 15:59:50.875826,1709045990.875826,53.7109375,-33.69140625,-33.203125,-30.76171875,1.0,1.0,1.0,1.0,7.m4v,6.0
2024-02-27 15:59:50.879731,1709045990.879731,106.4453125,-26.3671875,-30.76171875,-60.546875,1.0,1.0,1.0,1.0,7.m4v,6.0
2024-02-27 15:59:50.883649,1709045990.883649,22.94921875,-26.85546875,-34.1796875,-43.9453125,1.0,1.0,1.0,1.0,7.m4v,6.0
2024-02-27 15:59:50.887554,1709045990.8875537,-54.19921875,-30.2734375,-39.0625,-20.01953125,1.0,1.0,1.0,1.0,7.m4v,6.0
2024-02-27 15:59:50.891458,1709045990.8914585,-72.75390625,-28.3203125,-41.50390625,-27.34375,1.0,1.0,1.0,1.0,7.m4v,6.0
2024-02-27 15:59:50.895363,1709045990.895363,-35.15625,-29.78515625,-39.0625,-59.08203125,1.0,1.0,1.0,1.0,7.m4v,6.0
2024-02-27 15:59:50.899268,1709045990.8992677,-19.04296875,-33.203125,-36.1328125,-38.57421875,1.0,1.0,1.0,1.0,7.m4v,6.0
2024-02-27 15:59:50.903172,1709045990.9031725,-33.69140625,-30.76171875,-33.203125,1.953125,1.0,1.0,1.0,1.0,7.m4v,6.0
2024-02-27 15:59:50.907077,1709045990.907077,-105.46875,-31.25,-29.78515625,-14.6484375,1.0,1.0,1.0,1.0,7.m4v,6.0
2024-02-27 15:59:50.910982,1709045990.9109817,-145.99609375,-31.73828125,-33.203125,-24.90234375,1.0,1.0,1.0,1.0,7.m4v,6.0
2024-02-27 15:59:50.914886,1709045990.9148862,-106.93359375,-30.76171875,-32.2265625,-18.5546875,1.0,1.0,1.0,1.0,7.m4v,6.0
2024-02-27 15:59:50.918791,1709045990.918791,-53.22265625,-34.66796875,-24.4140625,-34.66796875,1.0,1.0,1.0,1.0,7.m4v,6.0
2024-02-27 15:59:50.922696,1709045990.9226956,7.32421875,-32.71484375,-24.90234375,-73.2421875,1.0,1.0,1.0,1.0,7.m4v,6.0
2024-02-27 15:59:50.926600,1709045990.9266002,-4.39453125,-32.71484375,-33.203125,-56.15234375,1.0,1.0,1.0,1.0,7.m4v,6.0
2024-02-27 15:59:50.930517,1709045990.9305174,-20.99609375,-32.2265625,-31.73828125,-36.62109375,1.0,1.0,1.0,1.0,7.m4v,6.0
2024-02-27 15:59:50.934422,1709045990.934422,1.46484375,-28.80859375,-29.78515625,-32.71484375,1.0,1.0,1.0,1.0,7.m4v,6.0
2024-02-27 15:59:50.938327,1709045990.9383268,-11.23046875,-28.3203125,-33.69140625,-26.3671875,1.0,1.0,1.0,1.0,7.m4v,6.0
2024-02-27 15:59:50.942231,1709045990.9422314,-41.9921875,-27.83203125,-33.203125,-62.5,1.0,1.0,1.0,1.0,7.m4v,6.0
2024-02-27 15:59:50.946136,1709045990.946136,-97.65625,-31.73828125,-35.15625,-54.19921875,1.0,1.0,1.0,1.0,7.m4v,6.0
2024-02-27 15:59:50.950041,1709045990.9500408,-126.46484375,-30.76171875,-37.109375,8.7890625,1.0,1.0,1.0,1.0,7.m4v,6.0
2024-02-27 15:59:50.953945,1709045990.9539454,-22.4609375,-29.296875,-33.203125,6.8359375,1.0,1.0,1.0,1.0,7.m4v,6.0
2024-02-27 15:59:50.957850,1709045990.95785,26.85546875,-34.66796875,-32.2265625,-18.5546875,1.0,1.0,1.0,1.0,7.m4v,6.0
2024-02-27 15:59:50.961755,1709045990.9617548,1.953125,-37.109375,-36.62109375,-26.3671875,1.0,1.0,1.0,1.0,7.m4v,6.0
2024-02-27 15:59:50.965659,1709045990.9656594,-20.99609375,-26.85546875,-40.52734375,-46.38671875,1.0,1.0,1.0,1.0,7.m4v,6.0
2024-02-27 15:59:50.969564,1709045990.969564,-29.78515625,-30.2734375,-37.109375,-56.15234375,1.0,1.0,1.0,1.0,7.m4v,6.0
2024-02-27 15:59:50.973469,1709045990.9734688,-38.0859375,-37.109375,-39.0625,-43.45703125,1.0,1.0,1.0,1.0,7.m4v,6.0
2024-02-27 15:59:50.977384,1709045990.9773843,-30.2734375,-33.69140625,-40.0390625,-33.203125,1.0,1.0,1.0,1.0,7.m4v,6.0
2024-02-27 15:59:50.981289,1709045990.981289,-26.3671875,-34.1796875,-35.15625,-35.64453125,1.0,1.0,1.0,1.0,7.m4v,6.0
2024-02-27 15:59:50.985194,1709045990.9851935,-122.55859375,-27.83203125,-31.25,-25.390625,1.0,1.0,1.0,1.0,7.m4v,6.0
2024-02-27 15:59:50.989098,1709045990.9890983,-83.0078125,-24.90234375,-28.80859375,-25.87890625,1.0,1.0,1.0,1.0,7.m4v,6.0
2024-02-27 15:59:50.993003,1709045990.993003,29.296875,-26.3671875,-30.76171875,-24.90234375,1.0,1.0,1.0,1.0,7.m4v,6.0
2024-02-27 15:59:50.996908,1709045990.9969077,62.01171875,-31.73828125,-34.1796875,-30.2734375,1.0,1.0,1.0,1.0,7.m4v,6.0
2024-02-27 15:59:51.000812,1709045991.0008123,24.90234375,-27.34375,-25.390625,-33.69140625,1.0,1.0,1.0,1.0,7.m4v,6.0
2024-02-27 15:59:51.004717,1709045991.0047169,-51.7578125,-26.3671875,-28.3203125,-66.40625,1.0,1.0,1.0,1.0,7.m4v,6.0
2024-02-27 15:59:51.008622,1709045991.0086217,-58.10546875,-40.52734375,-42.96875,-93.26171875,1.0,1.0,1.0,1.0,7.m4v,6.0
2024-02-27 15:59:51.012526,1709045991.0125265,-65.91796875,-39.0625,-48.33984375,-71.77734375,1.0,1.0,1.0,1.0,7.m4v,6.0
2024-02-27 15:59:51.016431,1709045991.0164309,-58.10546875,-32.2265625,-47.36328125,-46.875,1.0,1.0,1.0,1.0,7.m4v,6.0
2024-02-27 15:59:51.020336,1709045991.0203357,12.6953125,-33.203125,-41.9921875,-5.859375,1.0,1.0,1.0,1.0,7.m4v,6.0
2024-02-27 15:59:51.024251,1709045991.0242507,-13.18359375,-31.73828125,-39.55078125,-3.90625,1.0,1.0,1.0,1.0,7.m4v,6.0
2024-02-27 15:59:51.028156,1709045991.0281556,-42.96875,-28.80859375,-40.52734375,-13.671875,1.0,1.0,1.0,1.0,7.m4v,6.0
2024-02-27 15:59:51.032060,1709045991.03206,-7.8125,-29.78515625,-34.66796875,-30.76171875,1.0,1.0,1.0,1.0,7.m4v,6.0
2024-02-27 15:59:51.035965,1709045991.0359647,-26.3671875,-36.62109375,-27.83203125,-30.76171875,1.0,1.0,1.0,1.0,7.m4v,6.0
2024-02-27 15:59:51.039870,1709045991.0398695,-40.0390625,-42.96875,-30.76171875,-26.85546875,1.0,1.0,1.0,1.0,7.m4v,6.0
2024-02-27 15:59:51.043774,1709045991.043774,-58.10546875,-41.015625,-28.3203125,-29.78515625,1.0,1.0,1.0,1.0,7.m4v,6.0
2024-02-27 15:59:51.047679,1709045991.0476787,-75.68359375,-42.96875,-31.73828125,-41.9921875,1.0,1.0,1.0,1.0,7.m4v,6.0
2024-02-27 15:59:51.051584,1709045991.0515835,-20.01953125,-42.96875,-38.57421875,-47.8515625,1.0,1.0,1.0,1.0,7.m4v,6.0
2024-02-27 15:59:51.055488,1709045991.055488,-27.83203125,-41.9921875,-32.71484375,-54.6875,1.0,1.0,1.0,1.0,7.m4v,6.0
2024-02-27 15:59:51.059393,1709045991.0593927,-50.29296875,-41.9921875,-30.2734375,-59.08203125,1.0,1.0,1.0,1.0,7.m4v,6.0
2024-02-27 15:59:51.063298,1709045991.0632975,-63.4765625,-46.38671875,-32.71484375,-39.0625,1.0,1.0,1.0,1.0,7.m4v,6.0
2024-02-27 15:59:51.067202,1709045991.067202,-114.2578125,-44.921875,-33.69140625,-13.18359375,1.0,1.0,1.0,1.0,7.m4v,6.0
2024-02-27 15:59:51.071116,1709045991.071116,-45.8984375,-44.43359375,-35.64453125,-0.9765625,1.0,1.0,1.0,1.0,7.m4v,6.0
2024-02-27 15:59:51.075021,1709045991.0750208,31.73828125,-51.7578125,-34.66796875,-14.16015625,1.0,1.0,1.0,1.0,7.m4v,6.0
2024-02-27 15:59:51.078925,1709045991.0789254,30.2734375,-48.828125,-35.15625,-13.18359375,1.0,1.0,1.0,1.0,7.m4v,6.0
2024-02-27 15:59:51.082830,1709045991.08283,-46.38671875,-48.828125,-33.203125,-22.94921875,1.0,1.0,1.0,1.0,7.m4v,6.0
2024-02-27 15:59:51.086735,1709045991.0867348,-87.890625,-43.9453125,-28.80859375,-34.1796875,1.0,1.0,1.0,1.0,7.m4v,6.0
2024-02-27 15:59:51.090639,1709045991.0906394,-86.42578125,-33.203125,-30.76171875,-37.59765625,1.0,1.0,1.0,1.0,7.m4v,6.0
2024-02-27 15:59:51.094544,1709045991.094544,-95.703125,-43.9453125,-42.96875,-38.0859375,1.0,1.0,1.0,1.0,7.m4v,6.0
2024-02-27 15:59:51.098449,1709045991.0984488,7.8125,-47.8515625,-47.8515625,-41.50390625,1.0,1.0,1.0,1.0,7.m4v,6.0
2024-02-27 15:59:51.102353,1709045991.102353,-9.765625,-39.0625,-35.15625,-43.45703125,1.0,1.0,1.0,1.0,7.m4v,6.0
2024-02-27 15:59:51.106258,1709045991.106258,-90.8203125,-41.50390625,-37.59765625,-31.73828125,1.0,1.0,1.0,1.0,7.m4v,6.0
2024-02-27 15:59:51.110163,1709045991.1101627,-32.71484375,-44.921875,-47.8515625,-21.484375,1.0,1.0,1.0,1.0,7.m4v,6.0
2024-02-27 15:59:51.114067,1709045991.1140673,12.6953125,-41.9921875,-43.45703125,-12.6953125,1.0,1.0,1.0,1.0,7.m4v,6.0
2024-02-27 15:59:51.117990,1709045991.1179895,-16.6015625,-37.109375,-33.69140625,-14.16015625,1.0,1.0,1.0,1.0,7.m4v,6.0
2024-02-27 15:59:51.121894,1709045991.121894,-93.75,-42.96875,-34.1796875,-35.64453125,1.0,1.0,1.0,1.0,7.m4v,6.0
2024-02-27 15:59:51.125799,1709045991.1257987,-127.9296875,-45.41015625,-44.921875,-55.17578125,1.0,1.0,1.0,1.0,7.m4v,6.0
2024-02-27 15:59:51.129704,1709045991.1297035,-26.3671875,-40.52734375,-49.8046875,-43.45703125,1.0,1.0,1.0,1.0,7.m4v,6.0
2024-02-27 15:59:51.133608,1709045991.133608,32.2265625,-38.57421875,-45.41015625,-42.48046875,1.0,1.0,1.0,1.0,7.m4v,6.0
2024-02-27 15:59:51.137513,1709045991.1375127,-21.484375,-35.15625,-44.921875,-51.26953125,1.0,1.0,1.0,1.0,7.m4v,6.0
2024-02-27 15:59:51.141418,1709045991.1414175,-82.03125,-35.15625,-44.921875,-58.10546875,1.0,1.0,1.0,1.0,7.m4v,6.0
2024-02-27 15:59:51.145322,1709045991.145322,-87.890625,-33.69140625,-43.9453125,-45.41015625,1.0,1.0,1.0,1.0,7.m4v,6.0
2024-02-27 15:59:51.149227,1709045991.149227,-26.3671875,-28.3203125,-42.96875,7.32421875,1.0,1.0,1.0,1.0,7.m4v,6.0
2024-02-27 15:59:51.153131,1709045991.1531315,-1.46484375,-36.1328125,-41.015625,-4.8828125,1.0,1.0,1.0,1.0,7.m4v,6.0
2024-02-27 15:59:51.157036,1709045991.157036,-19.04296875,-41.9921875,-39.55078125,-26.85546875,1.0,1.0,1.0,1.0,7.m4v,6.0
2024-02-27 15:59:51.160941,1709045991.1609406,-34.1796875,-39.55078125,-36.1328125,-25.390625,1.0,1.0,1.0,1.0,7.m4v,6.0
2024-02-27 15:59:51.164862,1709045991.1648617,-52.24609375,-35.64453125,-27.34375,-31.73828125,1.0,1.0,1.0,1.0,7.m4v,6.0
2024-02-27 15:59:51.168766,1709045991.1687665,-109.86328125,-32.2265625,-30.76171875,-33.203125,1.0,1.0,1.0,1.0,7.m4v,6.0
2024-02-27 15:59:51.172671,1709045991.1726708,-117.1875,-37.109375,-32.71484375,-38.0859375,1.0,1.0,1.0,1.0,7.m4v,6.0
2024-02-27 15:59:51.176576,1709045991.1765757,-32.71484375,-44.921875,-27.83203125,-75.1953125,1.0,1.0,1.0,1.0,7.m4v,6.0
2024-02-27 15:59:51.180480,1709045991.1804802,11.23046875,-40.52734375,-35.15625,-95.703125,1.0,1.0,1.0,1.0,7.m4v,6.0
2024-02-27 15:59:51.184385,1709045991.1843848,14.6484375,-27.83203125,-36.62109375,-20.99609375,1.0,1.0,1.0,1.0,7.m4v,6.0
2024-02-27 15:59:51.188290,1709045991.1882896,-9.765625,-25.390625,-34.1796875,17.578125,1.0,1.0,1.0,1.0,7.m4v,6.0
2024-02-27 15:59:51.192194,1709045991.1921942,-67.3828125,-29.296875,-33.69140625,-22.94921875,1.0,1.0,1.0,1.0,7.m4v,6.0
2024-02-27 15:59:51.196099,1709045991.1960988,-80.078125,-35.15625,-30.2734375,-51.26953125,1.0,1.0,1.0,1.0,7.m4v,6.0
2024-02-27 15:59:51.200004,1709045991.2000036,-24.90234375,-38.57421875,-38.0859375,-41.50390625,1.0,1.0,1.0,1.0,7.m4v,6.0
2024-02-27 15:59:51.203908,1709045991.2039082,-29.296875,-28.3203125,-33.69140625,-19.04296875,1.0,1.0,1.0,1.0,7.m4v,6.0
2024-02-27 15:59:51.207813,1709045991.2078128,-41.9921875,-30.76171875,-26.3671875,-30.76171875,1.0,1.0,1.0,1.0,7.m4v,6.0
2024-02-27 15:59:51.211732,1709045991.2117324,-66.89453125,-42.96875,-35.64453125,-43.45703125,1.0,1.0,1.0,1.0,7.m4v,6.0
2024-02-27 15:59:51.215637,1709045991.2156372,-108.3984375,-40.52734375,-41.50390625,-75.1953125,1.0,1.0,1.0,1.0,7.m4v,6.0
2024-02-27 15:59:51.219542,1709045991.2195418,-82.51953125,-39.55078125,-42.96875,-99.609375,1.0,1.0,1.0,1.0,7.m4v,6.0
2024-02-27 15:59:51.223446,1709045991.2234464,-12.20703125,-36.1328125,-38.0859375,-45.41015625,1.0,1.0,1.0,1.0,7.m4v,6.0
2024-02-27 15:59:51.227351,1709045991.2273512,-29.296875,-31.25,-39.55078125,0.48828125,1.0,1.0,1.0,1.0,7.m4v,6.0
2024-02-27 15:59:51.231256,1709045991.2312558,-68.359375,-33.69140625,-41.9921875,-27.83203125,1.0,1.0,1.0,1.0,7.m4v,6.0
2024-02-27 15:59:51.235160,1709045991.2351604,3.90625,-33.69140625,-36.62109375,-41.015625,1.0,1.0,1.0,1.0,7.m4v,6.0
2024-02-27 15:59:51.239065,1709045991.2390652,4.8828125,-30.2734375,-31.25,-50.29296875,1.0,1.0,1.0,1.0,7.m4v,6.0
2024-02-27 15:59:51.242970,1709045991.2429698,-55.6640625,-30.2734375,-37.59765625,-63.96484375,1.0,1.0,1.0,1.0,7.m4v,6.0
2024-02-27 15:59:51.246874,1709045991.2468743,-97.65625,-37.109375,-42.96875,-27.34375,1.0,1.0,1.0,1.0,7.m4v,6.0
2024-02-27 15:59:51.250779,1709045991.2507792,-49.31640625,-32.2265625,-36.1328125,-16.6015625,1.0,1.0,1.0,1.0,7.m4v,6.0
2024-02-27 15:59:51.254684,1709045991.2546835,-53.22265625,-27.83203125,-36.62109375,-47.36328125,1.0,1.0,1.0,1.0,7.m4v,6.0
2024-02-27 15:59:51.258602,1709045991.258602,-61.03515625,-29.78515625,-41.50390625,-49.31640625,1.0,1.0,1.0,1.0,7.m4v,6.0
2024-02-27 15:59:51.262507,1709045991.2625067,-8.7890625,-21.484375,-33.203125,-12.20703125,1.0,1.0,1.0,1.0,7.m4v,6.0
2024-02-27 15:59:51.266411,1709045991.2664113,-34.66796875,-26.3671875,-25.390625,-25.390625,1.0,1.0,1.0,1.0,7.m4v,6.0
2024-02-27 15:59:51.270316,1709045991.270316,-33.203125,-36.1328125,-32.2265625,-38.57421875,1.0,1.0,1.0,1.0,7.m4v,6.0
2024-02-27 15:59:51.274221,1709045991.2742207,11.23046875,-38.0859375,-37.59765625,-27.83203125,1.0,1.0,1.0,1.0,7.m4v,6.0
2024-02-27 15:59:51.278125,1709045991.2781253,-7.8125,-35.64453125,-37.109375,-26.3671875,1.0,1.0,1.0,1.0,7.m4v,6.0
2024-02-27 15:59:51.282030,1709045991.28203,-33.69140625,-31.73828125,-38.57421875,-30.2734375,1.0,1.0,1.0,1.0,7.m4v,6.0
2024-02-27 15:59:51.285935,1709045991.2859347,-28.3203125,-29.78515625,-38.0859375,-45.8984375,1.0,1.0,1.0,1.0,7.m4v,6.0
2024-02-27 15:59:51.289839,1709045991.2898393,-33.203125,-29.78515625,-30.76171875,-64.94140625,1.0,1.0,1.0,1.0,7.m4v,6.0
2024-02-27 15:59:51.293744,1709045991.293744,-123.53515625,-30.2734375,-29.78515625,-53.22265625,1.0,1.0,1.0,1.0,7.m4v,6.0
2024-02-27 15:59:51.297649,1709045991.297649,-144.53125,-36.1328125,-32.2265625,-35.15625,1.0,1.0,1.0,1.0,7.m4v,6.0
2024-02-27 15:59:51.301553,1709045991.3015532,30.2734375,-39.55078125,-36.62109375,-23.92578125,1.0,1.0,1.0,1.0,7.m4v,6.0
2024-02-27 15:59:51.305470,1709045991.3054705,24.90234375,-38.57421875,-41.9921875,-4.39453125,1.0,1.0,1.0,1.0,7.m4v,6.0
2024-02-27 15:59:51.309375,1709045991.309375,-61.5234375,-39.55078125,-45.8984375,-8.30078125,1.0,1.0,1.0,1.0,7.m4v,6.0
2024-02-27 15:59:51.313280,1709045991.3132796,-21.97265625,-34.66796875,-35.15625,-6.34765625,1.0,1.0,1.0,1.0,7.m4v,6.0
2024-02-27 15:59:51.317184,1709045991.3171844,18.5546875,-30.76171875,-29.78515625,-26.85546875,1.0,1.0,1.0,1.0,7.m4v,6.0
2024-02-27 15:59:51.321089,1709045991.321089,-38.57421875,-34.1796875,-36.1328125,-62.01171875,1.0,1.0,1.0,1.0,7.m4v,6.0
2024-02-27 15:59:51.324994,1709045991.3249936,-50.78125,-32.2265625,-33.203125,-35.15625,1.0,1.0,1.0,1.0,7.m4v,6.0
2024-02-27 15:59:51.328898,1709045991.3288984,-54.19921875,-33.203125,-34.1796875,-29.78515625,1.0,1.0,1.0,1.0,7.m4v,6.0
2024-02-27 15:59:51.332803,1709045991.332803,-74.70703125,-39.55078125,-35.64453125,-88.37890625,1.0,1.0,1.0,1.0,7.m4v,6.0
2024-02-27 15:59:51.336708,1709045991.3367076,-46.38671875,-41.9921875,-32.2265625,-76.66015625,1.0,1.0,1.0,1.0,7.m4v,6.0
2024-02-27 15:59:51.340612,1709045991.3406124,-22.94921875,-41.015625,-28.80859375,-8.30078125,1.0,1.0,1.0,1.0,7.m4v,6.0
2024-02-27 15:59:51.344517,1709045991.344517,-4.39453125,-38.0859375,-26.85546875,19.04296875,1.0,1.0,1.0,1.0,7.m4v,6.0
2024-02-27 15:59:51.348422,1709045991.3484216,20.5078125,-31.25,-26.85546875,7.32421875,1.0,1.0,1.0,1.0,7.m4v,6.0
2024-02-27 15:59:51.352339,1709045991.3523388,8.30078125,-31.25,-26.85546875,-10.7421875,1.0,1.0,1.0,1.0,7.m4v,6.0
2024-02-27 15:59:51.356243,1709045991.3562434,-9.765625,-35.15625,-30.76171875,-18.5546875,1.0,1.0,1.0,1.0,7.m4v,6.0
2024-02-27 15:59:51.360148,1709045991.3601482,-56.15234375,-36.1328125,-32.2265625,-28.80859375,1.0,1.0,1.0,1.0,7.m4v,6.0
2024-02-27 15:59:51.364053,1709045991.3640528,-146.484375,-42.48046875,-34.1796875,-56.15234375,1.0,1.0,1.0,1.0,7.m4v,6.0
2024-02-27 15:59:51.367957,1709045991.3679574,-139.6484375,-41.015625,-29.78515625,-72.75390625,1.0,1.0,1.0,1.0,7.m4v,6.0
2024-02-27 15:59:51.371862,1709045991.3718622,-6.34765625,-35.64453125,-25.390625,-42.48046875,1.0,1.0,1.0,1.0,7.m4v,6.0
2024-02-27 15:59:51.375767,1709045991.3757668,26.85546875,-36.62109375,-29.78515625,1.46484375,1.0,1.0,1.0,1.0,7.m4v,6.0
2024-02-27 15:59:51.379671,1709045991.379671,10.7421875,-34.1796875,-32.2265625,-23.92578125,1.0,1.0,1.0,1.0,7.m4v,6.0
2024-02-27 15:59:51.383576,1709045991.3835762,-28.3203125,-31.73828125,-28.80859375,-34.66796875,1.0,1.0,1.0,1.0,7.m4v,6.0
2024-02-27 15:59:51.387481,1709045991.3874807,-46.38671875,-31.73828125,-28.3203125,-6.34765625,1.0,1.0,1.0,1.0,7.m4v,6.0
2024-02-27 15:59:51.391385,1709045991.3913853,-63.96484375,-34.66796875,-35.15625,-13.671875,1.0,1.0,1.0,1.0,7.m4v,6.0
2024-02-27 15:59:51.395290,1709045991.39529,-67.3828125,-34.66796875,-35.64453125,-27.83203125,1.0,1.0,1.0,1.0,7.m4v,6.0
2024-02-27 15:59:51.399205,1709045991.3992054,24.90234375,-27.83203125,-33.203125,-24.90234375,1.0,1.0,1.0,1.0,7.m4v,6.0
2024-02-27 15:59:51.403110,1709045991.4031105,-10.25390625,-31.73828125,-38.57421875,-40.0390625,1.0,1.0,1.0,1.0,7.m4v,6.0
2024-02-27 15:59:51.407015,1709045991.4070148,-69.3359375,-35.15625,-40.0390625,-49.31640625,1.0,1.0,1.0,1.0,7.m4v,6.0
2024-02-27 15:59:51.410919,1709045991.4109194,-20.01953125,-28.3203125,-34.66796875,-70.80078125,1.0,1.0,1.0,1.0,7.m4v,6.0
2024-02-27 15:59:51.414824,1709045991.4148242,-39.55078125,-27.83203125,-32.2265625,-86.9140625,1.0,1.0,1.0,1.0,7.m4v,6.0
2024-02-27 15:59:51.418729,1709045991.4187288,-52.24609375,-29.78515625,-34.66796875,-26.85546875,1.0,1.0,1.0,1.0,7.m4v,6.0
2024-02-27 15:59:51.422633,1709045991.4226334,-13.18359375,-31.73828125,-37.59765625,-12.20703125,1.0,1.0,1.0,1.0,7.m4v,6.0
2024-02-27 15:59:51.426538,1709045991.4265382,-85.44921875,-31.73828125,-36.1328125,-46.38671875,1.0,1.0,1.0,1.0,7.m4v,6.0
2024-02-27 15:59:51.430443,1709045991.4304428,-73.2421875,-33.69140625,-30.2734375,-28.80859375,1.0,1.0,1.0,1.0,7.m4v,6.0
2024-02-27 15:59:51.434348,1709045991.4343476,7.32421875,-36.62109375,-31.73828125,-12.20703125,1.0,1.0,1.0,1.0,7.m4v,6.0
2024-02-27 15:59:51.438252,1709045991.4382522,-54.6875,-35.64453125,-42.48046875,-62.98828125,1.0,1.0,1.0,1.0,7.m4v,6.0
2024-02-27 15:59:51.442157,1709045991.4421568,-83.984375,-39.0625,-42.48046875,-56.15234375,1.0,1.0,1.0,1.0,7.m4v,6.0
2024-02-27 15:59:51.446071,1709045991.4460711,-31.25,-34.66796875,-33.69140625,-46.38671875,1.0,1.0,1.0,1.0,7.m4v,6.0
2024-02-27 15:59:51.449976,1709045991.4499755,43.9453125,-31.25,-34.1796875,-75.68359375,1.0,1.0,1.0,1.0,7.m4v,6.0
2024-02-27 15:59:51.453880,1709045991.4538803,-21.97265625,-35.15625,-35.64453125,-33.69140625,1.0,1.0,1.0,1.0,7.m4v,6.0
2024-02-27 15:59:51.457785,1709045991.4577851,-42.96875,-36.62109375,-32.2265625,-5.859375,1.0,1.0,1.0,1.0,7.m4v,6.0
2024-02-27 15:59:51.461690,1709045991.4616897,4.8828125,-32.2265625,-34.1796875,-13.671875,1.0,1.0,1.0,1.0,7.m4v,6.0
2024-02-27 15:59:51.465594,1709045991.4655943,-30.2734375,-34.66796875,-33.203125,-37.59765625,1.0,1.0,1.0,1.0,7.m4v,6.0
2024-02-27 15:59:51.469499,1709045991.469499,-30.2734375,-41.50390625,-32.2265625,-64.453125,1.0,1.0,1.0,1.0,7.m4v,6.0
2024-02-27 15:59:51.473404,1709045991.4734037,-32.2265625,-41.015625,-34.66796875,-30.76171875,1.0,1.0,1.0,1.0,7.m4v,6.0
2024-02-27 15:59:51.477308,1709045991.4773085,-47.8515625,-38.0859375,-38.57421875,-22.94921875,1.0,1.0,1.0,1.0,7.m4v,6.0
2024-02-27 15:59:51.481213,1709045991.481213,-10.7421875,-33.203125,-39.0625,-33.69140625,1.0,1.0,1.0,1.0,7.m4v,6.0
2024-02-27 15:59:51.485118,1709045991.4851177,-60.05859375,-36.1328125,-45.8984375,-31.25,1.0,1.0,1.0,1.0,7.m4v,6.0
2024-02-27 15:59:51.489022,1709045991.4890225,-168.45703125,-36.1328125,-50.78125,-82.03125,1.0,1.0,1.0,1.0,7.m4v,6.0
2024-02-27 15:59:51.492945,1709045991.492945,-66.89453125,-34.1796875,-44.43359375,-64.94140625,1.0,1.0,1.0,1.0,7.m4v,6.0
2024-02-27 15:59:51.496850,1709045991.4968498,45.8984375,-37.109375,-40.52734375,0.0,1.0,1.0,1.0,1.0,7.m4v,6.0
2024-02-27 15:59:51.500754,1709045991.5007544,7.32421875,-35.64453125,-33.69140625,-20.5078125,1.0,1.0,1.0,1.0,7.m4v,6.0
2024-02-27 15:59:51.504659,1709045991.504659,-32.71484375,-36.62109375,-28.3203125,-23.4375,1.0,1.0,1.0,1.0,7.m4v,6.0
2024-02-27 15:59:51.508564,1709045991.5085638,-60.546875,-37.109375,-35.64453125,-27.34375,1.0,1.0,1.0,1.0,7.m4v,6.0
2024-02-27 15:59:51.512468,1709045991.5124683,-72.75390625,-31.25,-39.55078125,-36.1328125,1.0,1.0,1.0,1.0,7.m4v,6.0
2024-02-27 15:59:51.516373,1709045991.516373,-67.3828125,-29.296875,-40.0390625,-49.31640625,1.0,1.0,1.0,1.0,7.m4v,6.0
2024-02-27 15:59:51.520278,1709045991.5202775,-113.28125,-36.1328125,-43.9453125,-67.3828125,1.0,1.0,1.0,1.0,7.m4v,6.0
2024-02-27 15:59:51.524182,1709045991.5241823,-117.67578125,-39.0625,-32.71484375,-66.40625,1.0,1.0,1.0,1.0,7.m4v,6.0
2024-02-27 15:59:51.528087,1709045991.528087,-35.64453125,-42.48046875,-29.78515625,-40.52734375,1.0,1.0,1.0,1.0,7.m4v,6.0
2024-02-27 15:59:51.531992,1709045991.5319915,6.34765625,-40.0390625,-30.76171875,-16.6015625,1.0,1.0,1.0,1.0,7.m4v,6.0
2024-02-27 15:59:51.535896,1709045991.5358963,41.50390625,-36.1328125,-27.34375,-5.859375,1.0,1.0,1.0,1.0,7.m4v,6.0
2024-02-27 15:59:51.539818,1709045991.5398178,-5.37109375,-37.59765625,-39.0625,-8.30078125,1.0,1.0,1.0,1.0,7.m4v,6.0
2024-02-27 15:59:51.543723,1709045991.5437226,-99.12109375,-34.1796875,-41.50390625,-25.390625,1.0,1.0,1.0,1.0,7.m4v,6.0
2024-02-27 15:59:51.547627,1709045991.5476272,-102.5390625,-34.66796875,-35.15625,-26.85546875,1.0,1.0,1.0,1.0,7.m4v,6.0
2024-02-27 15:59:51.551532,1709045991.5515318,-20.5078125,-38.0859375,-36.1328125,-33.69140625,1.0,1.0,1.0,1.0,7.m4v,6.0
2024-02-27 15:59:51.555437,1709045991.5554366,-44.43359375,-35.64453125,-38.57421875,-27.83203125,1.0,1.0,1.0,1.0,7.m4v,6.0
2024-02-27 15:59:51.559341,1709045991.5593412,-73.2421875,-36.1328125,-36.1328125,-26.3671875,1.0,1.0,1.0,1.0,7.m4v,6.0
2024-02-27 15:59:51.563246,1709045991.5632458,-29.78515625,-39.55078125,-29.296875,-69.3359375,1.0,1.0,1.0,1.0,7.m4v,6.0
2024-02-27 15:59:51.567151,1709045991.5671506,-69.82421875,-35.64453125,-23.4375,-78.61328125,1.0,1.0,1.0,1.0,7.m4v,6.0
2024-02-27 15:59:51.571055,1709045991.5710552,-9.765625,-25.390625,-24.4140625,-39.0625,1.0,1.0,1.0,1.0,7.m4v,6.0
2024-02-27 15:59:51.574960,1709045991.57496,20.5078125,-25.87890625,-28.80859375,-19.04296875,1.0,1.0,1.0,1.0,7.m4v,6.0
2024-02-27 15:59:51.578865,1709045991.5788646,-7.8125,-27.34375,-24.90234375,-28.3203125,1.0,1.0,1.0,1.0,7.m4v,6.0
2024-02-27 15:59:51.582769,1709045991.5827692,-19.04296875,-19.04296875,-25.87890625,-28.80859375,1.0,1.0,1.0,1.0,7.m4v,6.0
2024-02-27 15:59:51.586689,1709045991.5866897,-88.8671875,-24.4140625,-33.203125,-29.296875,1.0,1.0,1.0,1.0,7.m4v,6.0
2024-02-27 15:59:51.590594,1709045991.5905943,-99.609375,-39.55078125,-31.25,-14.6484375,1.0,1.0,1.0,1.0,7.m4v,6.0
2024-02-27 15:59:51.594499,1709045991.5944989,-56.15234375,-38.0859375,-30.76171875,-13.18359375,1.0,1.0,1.0,1.0,7.m4v,6.0
2024-02-27 15:59:51.598403,1709045991.5984037,-26.3671875,-29.78515625,-35.15625,-52.24609375,1.0,1.0,1.0,1.0,7.m4v,6.0
2024-02-27 15:59:51.602308,1709045991.6023085,-79.1015625,-35.64453125,-34.1796875,-61.5234375,1.0,1.0,1.0,1.0,7.m4v,6.0
2024-02-27 15:59:51.606213,1709045991.6062129,-65.91796875,-35.64453125,-39.0625,-53.22265625,1.0,1.0,1.0,1.0,7.m4v,6.0
2024-02-27 15:59:51.610117,1709045991.6101174,34.1796875,-30.76171875,-44.921875,-36.62109375,1.0,1.0,1.0,1.0,7.m4v,6.0
2024-02-27 15:59:51.614022,1709045991.6140225,6.34765625,-34.66796875,-41.50390625,-63.4765625,1.0,1.0,1.0,1.0,7.m4v,6.0
2024-02-27 15:59:51.617927,1709045991.6179268,-13.18359375,-36.62109375,-41.9921875,-60.05859375,1.0,1.0,1.0,1.0,7.m4v,6.0
2024-02-27 15:59:51.621831,1709045991.6218314,-68.359375,-42.96875,-38.57421875,-31.25,1.0,1.0,1.0,1.0,7.m4v,6.0
2024-02-27 15:59:51.625736,1709045991.6257362,-103.02734375,-37.109375,-28.80859375,-32.71484375,1.0,1.0,1.0,1.0,7.m4v,6.0
2024-02-27 15:59:51.629641,1709045991.6296408,-53.7109375,-30.76171875,-28.3203125,-31.25,1.0,1.0,1.0,1.0,7.m4v,6.0
2024-02-27 15:59:51.633560,1709045991.6335597,-23.4375,-34.1796875,-37.59765625,-24.4140625,1.0,1.0,1.0,1.0,7.m4v,6.0
2024-02-27 15:59:51.637464,1709045991.6374643,-18.06640625,-33.203125,-38.57421875,-18.5546875,1.0,1.0,1.0,1.0,7.m4v,6.0
2024-02-27 15:59:51.641369,1709045991.6413689,-1.953125,-28.3203125,-34.1796875,-23.92578125,1.0,1.0,1.0,1.0,7.m4v,6.0
2024-02-27 15:59:51.645274,1709045991.6452737,0.9765625,-25.87890625,-33.69140625,-44.43359375,1.0,1.0,1.0,1.0,7.m4v,6.0
2024-02-27 15:59:51.649178,1709045991.6491785,-76.66015625,-29.78515625,-34.66796875,-81.0546875,1.0,1.0,1.0,1.0,7.m4v,6.0
2024-02-27 15:59:51.653083,1709045991.6530828,-102.5390625,-27.83203125,-33.203125,-58.10546875,1.0,1.0,1.0,1.0,7.m4v,6.0
2024-02-27 15:59:51.656988,1709045991.6569877,12.20703125,-28.3203125,-37.109375,-45.8984375,1.0,1.0,1.0,1.0,7.m4v,6.0
2024-02-27 15:59:51.660892,1709045991.6608922,37.109375,-32.2265625,-40.0390625,-43.9453125,1.0,1.0,1.0,1.0,7.m4v,6.0
2024-02-27 15:59:51.664797,1709045991.664797,-57.6171875,-33.69140625,-38.0859375,-24.90234375,1.0,1.0,1.0,1.0,7.m4v,6.0
2024-02-27 15:59:51.668702,1709045991.6687016,-64.94140625,-36.1328125,-39.55078125,-33.69140625,1.0,1.0,1.0,1.0,7.m4v,6.0
2024-02-27 15:59:51.672606,1709045991.6726062,28.3203125,-33.69140625,-33.69140625,-23.92578125,1.0,1.0,1.0,1.0,7.m4v,6.0
2024-02-27 15:59:51.676511,1709045991.676511,3.41796875,-34.66796875,-34.66796875,-27.34375,1.0,1.0,1.0,1.0,7.m4v,6.0
2024-02-27 15:59:51.680428,1709045991.680428,-114.2578125,-42.96875,-37.109375,-52.24609375,1.0,1.0,1.0,1.0,7.m4v,6.0
2024-02-27 15:59:51.684333,1709045991.6843328,-112.79296875,-37.59765625,-33.203125,-39.0625,1.0,1.0,1.0,1.0,7.m4v,6.0
2024-02-27 15:59:51.688237,1709045991.6882374,-40.0390625,-30.2734375,-39.0625,-20.99609375,1.0,1.0,1.0,1.0,7.m4v,6.0
2024-02-27 15:59:51.692142,1709045991.692142,9.27734375,-31.25,-39.55078125,-42.96875,1.0,1.0,1.0,1.0,7.m4v,6.0
2024-02-27 15:59:51.696047,1709045991.6960468,-0.48828125,-36.62109375,-33.69140625,-51.7578125,1.0,1.0,1.0,1.0,7.m4v,6.0
2024-02-27 15:59:51.699951,1709045991.6999514,-80.56640625,-34.66796875,-32.2265625,-36.1328125,1.0,1.0,1.0,1.0,7.m4v,6.0
2024-02-27 15:59:51.703856,1709045991.703856,-41.50390625,-30.76171875,-32.2265625,-76.171875,1.0,1.0,1.0,1.0,7.m4v,6.0
2024-02-27 15:59:51.707761,1709045991.7077608,7.8125,-39.55078125,-37.109375,-83.0078125,1.0,1.0,1.0,1.0,7.m4v,6.0
2024-02-27 15:59:51.711665,1709045991.7116654,-2.9296875,-41.9921875,-40.0390625,-34.1796875,1.0,1.0,1.0,1.0,7.m4v,6.0
2024-02-27 15:59:51.715570,1709045991.71557,-31.25,-37.59765625,-35.15625,-17.578125,1.0,1.0,1.0,1.0,7.m4v,6.0
2024-02-27 15:59:51.719475,1709045991.7194748,-55.17578125,-36.62109375,-34.1796875,-26.3671875,1.0,1.0,1.0,1.0,7.m4v,6.0
2024-02-27 15:59:51.723379,1709045991.7233794,-60.05859375,-35.15625,-34.1796875,-37.59765625,1.0,1.0,1.0,1.0,7.m4v,6.0
2024-02-27 15:59:51.727295,1709045991.7272952,-136.71875,-35.15625,-32.2265625,-51.26953125,1.0,1.0,1.0,1.0,7.m4v,6.0
2024-02-27 15:59:51.731200,1709045991.7311995,-83.0078125,-35.15625,-32.2265625,-34.1796875,1.0,1.0,1.0,1.0,7.m4v,6.0
2024-02-27 15:59:51.735104,1709045991.7351043,0.0,-32.2265625,-35.15625,-19.53125,1.0,1.0,1.0,1.0,7.m4v,6.0
2024-02-27 15:59:51.739009,1709045991.7390091,-26.85546875,-30.2734375,-35.15625,-46.38671875,1.0,1.0,1.0,1.0,7.m4v,6.0
2024-02-27 15:59:51.742914,1709045991.7429135,-47.8515625,-32.71484375,-35.15625,-60.546875,1.0,1.0,1.0,1.0,7.m4v,6.0
2024-02-27 15:59:51.746818,1709045991.7468183,-65.91796875,-33.203125,-37.109375,-64.453125,1.0,1.0,1.0,1.0,7.m4v,6.0
2024-02-27 15:59:51.750723,1709045991.7507231,-61.5234375,-38.57421875,-41.9921875,-85.9375,1.0,1.0,1.0,1.0,7.m4v,6.0
2024-02-27 15:59:51.754628,1709045991.7546277,8.30078125,-38.57421875,-42.96875,-67.87109375,1.0,1.0,1.0,1.0,7.m4v,6.0
2024-02-27 15:59:51.758533,1709045991.7585323,47.8515625,-32.71484375,-35.64453125,3.90625,1.0,1.0,1.0,1.0,7.m4v,6.0
2024-02-27 15:59:51.762437,1709045991.762437,-78.61328125,-27.83203125,-30.2734375,16.6015625,1.0,1.0,1.0,1.0,7.m4v,6.0
2024-02-27 15:59:51.766342,1709045991.7663417,-160.15625,-23.4375,-32.2265625,-13.18359375,1.0,1.0,1.0,1.0,7.m4v,6.0
2024-02-27 15:59:51.770247,1709045991.7702465,-46.875,-21.97265625,-35.64453125,-10.7421875,1.0,1.0,1.0,1.0,7.m4v,6.0
2024-02-27 15:59:51.774161,1709045991.774161,54.6875,-23.92578125,-32.71484375,-31.25,1.0,1.0,1.0,1.0,7.m4v,6.0
2024-02-27 15:59:51.778066,1709045991.778066,-6.34765625,-27.34375,-29.296875,-52.24609375,1.0,1.0,1.0,1.0,7.m4v,6.0
2024-02-27 15:59:51.781971,1709045991.7819707,-52.24609375,-32.71484375,-35.64453125,-41.9921875,1.0,1.0,1.0,1.0,7.m4v,6.0
2024-02-27 15:59:51.785875,1709045991.785875,-23.4375,-32.71484375,-33.69140625,-34.1796875,1.0,1.0,1.0,1.0,7.m4v,6.0
2024-02-27 15:59:51.789780,1709045991.78978,-64.453125,-31.73828125,-24.90234375,-37.59765625,1.0,1.0,1.0,1.0,7.m4v,6.0
2024-02-27 15:59:51.793685,1709045991.7936847,-62.01171875,-32.2265625,-26.3671875,-40.52734375,1.0,1.0,1.0,1.0,7.m4v,6.0
2024-02-27 15:59:51.797589,1709045991.7975893,-32.71484375,-33.69140625,-27.83203125,-33.69140625,1.0,1.0,1.0,1.0,7.m4v,6.0
2024-02-27 15:59:51.801494,1709045991.801494,-48.33984375,-34.1796875,-34.1796875,-66.89453125,1.0,1.0,1.0,1.0,7.m4v,6.0
2024-02-27 15:59:51.805399,1709045991.8053987,-73.2421875,-34.1796875,-33.203125,-91.796875,1.0,1.0,1.0,1.0,7.m4v,6.0
2024-02-27 15:59:51.809303,1709045991.8093033,-80.56640625,-35.64453125,-28.80859375,-34.1796875,1.0,1.0,1.0,1.0,7.m4v,6.0
2024-02-27 15:59:51.813208,1709045991.813208,-111.328125,-32.2265625,-29.78515625,-4.8828125,1.0,1.0,1.0,1.0,7.m4v,6.0
2024-02-27 15:59:51.817113,1709045991.8171127,-112.3046875,-32.71484375,-31.25,-38.0859375,1.0,1.0,1.0,1.0,7.m4v,6.0
2024-02-27 15:59:51.821026,1709045991.8210256,27.83203125,-33.203125,-31.73828125,-63.4765625,1.0,1.0,1.0,1.0,7.m4v,6.0
2024-02-27 15:59:51.824930,1709045991.8249302,53.7109375,-26.85546875,-35.64453125,-47.8515625,1.0,1.0,1.0,1.0,7.m4v,6.0
2024-02-27 15:59:51.828835,1709045991.828835,19.53125,-20.5078125,-35.64453125,-10.25390625,1.0,1.0,1.0,1.0,7.m4v,6.0
2024-02-27 15:59:51.832740,1709045991.8327396,24.4140625,-20.01953125,-30.2734375,-14.16015625,1.0,1.0,1.0,1.0,7.m4v,6.0
2024-02-27 15:59:51.836644,1709045991.8366442,4.8828125,-22.4609375,-30.76171875,-25.390625,1.0,1.0,1.0,1.0,7.m4v,6.0
2024-02-27 15:59:51.840549,1709045991.840549,-44.43359375,-29.78515625,-36.62109375,-59.5703125,1.0,1.0,1.0,1.0,7.m4v,6.0
2024-02-27 15:59:51.844454,1709045991.8444536,-134.27734375,-32.71484375,-42.48046875,-93.75,1.0,1.0,1.0,1.0,7.m4v,6.0
2024-02-27 15:59:51.848358,1709045991.8483584,-43.45703125,-21.97265625,-41.015625,-12.6953125,1.0,1.0,1.0,1.0,7.m4v,6.0
2024-02-27 15:59:51.852263,1709045991.852263,20.5078125,-28.80859375,-35.64453125,24.90234375,1.0,1.0,1.0,1.0,7.m4v,6.0
2024-02-27 15:59:51.856168,1709045991.8561676,12.20703125,-41.015625,-33.203125,0.48828125,1.0,1.0,1.0,1.0,7.m4v,6.0
2024-02-27 15:59:51.860072,1709045991.8600724,18.5546875,-37.59765625,-38.0859375,-3.90625,1.0,1.0,1.0,1.0,7.m4v,6.0
2024-02-27 15:59:51.863977,1709045991.863977,-60.05859375,-36.1328125,-39.0625,-28.3203125,1.0,1.0,1.0,1.0,7.m4v,6.0
2024-02-27 15:59:51.867900,1709045991.8678997,-102.05078125,-33.69140625,-22.94921875,-48.33984375,1.0,1.0,1.0,1.0,7.m4v,6.0
2024-02-27 15:59:51.871804,1709045991.8718042,-73.2421875,-34.1796875,-25.87890625,-37.109375,1.0,1.0,1.0,1.0,7.m4v,6.0
2024-02-27 15:59:51.875709,1709045991.8757088,-18.06640625,-37.109375,-41.015625,-43.9453125,1.0,1.0,1.0,1.0,7.m4v,6.0
2024-02-27 15:59:51.879614,1709045991.8796136,-44.43359375,-34.66796875,-38.57421875,-52.24609375,1.0,1.0,1.0,1.0,7.m4v,6.0
2024-02-27 15:59:51.883518,1709045991.8835182,-59.08203125,-29.296875,-33.69140625,-34.1796875,1.0,1.0,1.0,1.0,7.m4v,6.0
2024-02-27 15:59:51.887423,1709045991.8874228,-29.296875,-33.203125,-35.15625,-35.15625,1.0,1.0,1.0,1.0,7.m4v,6.0
2024-02-27 15:59:51.891328,1709045991.8913276,-33.69140625,-35.64453125,-30.2734375,-36.62109375,1.0,1.0,1.0,1.0,7.m4v,6.0
2024-02-27 15:59:51.895232,1709045991.8952322,-38.57421875,-31.25,-31.73828125,-13.671875,1.0,1.0,1.0,1.0,7.m4v,6.0
2024-02-27 15:59:51.899137,1709045991.8991368,11.23046875,-31.73828125,-39.0625,-28.80859375,1.0,1.0,1.0,1.0,7.m4v,6.0
2024-02-27 15:59:51.903042,1709045991.9030416,17.578125,-32.2265625,-38.57421875,-28.3203125,1.0,1.0,1.0,1.0,7.m4v,6.0
2024-02-27 15:59:51.906946,1709045991.9069462,-56.640625,-32.2265625,-38.0859375,-8.30078125,1.0,1.0,1.0,1.0,7.m4v,6.0
2024-02-27 15:59:51.910851,1709045991.9108508,-57.6171875,-32.2265625,-35.15625,-35.15625,1.0,1.0,1.0,1.0,7.m4v,6.0
2024-02-27 15:59:51.914773,1709045991.9147725,0.9765625,-31.73828125,-30.76171875,-33.69140625,1.0,1.0,1.0,1.0,7.m4v,6.0
2024-02-27 15:59:51.918677,1709045991.918677,-24.4140625,-32.2265625,-23.92578125,-29.78515625,1.0,1.0,1.0,1.0,7.m4v,6.0
