Timestamp,Timestamp_UNIX,TP9,AF7,AF8,TP10,Valence,Arousal,Dominace,Viewed,Video,Participant
2024-02-28 14:00:40.002698,1709125240.002698,-15.625,-29.78515625,-28.3203125,-33.203125,-1.0,1.0,-1.0,0.0,8.m4v,10.0
2024-02-28 14:00:40.006603,1709125240.0066032,-26.85546875,-27.83203125,-37.59765625,-29.296875,-1.0,1.0,-1.0,0.0,8.m4v,10.0
2024-02-28 14:00:40.010509,1709125240.0105088,-31.73828125,-30.76171875,-47.36328125,-25.87890625,-1.0,1.0,-1.0,0.0,8.m4v,10.0
2024-02-28 14:00:40.014414,1709125240.0144143,-34.1796875,-24.4140625,-35.64453125,-27.83203125,-1.0,1.0,-1.0,0.0,8.m4v,10.0
2024-02-28 14:00:40.018320,1709125240.0183198,-36.1328125,-29.78515625,-41.50390625,-39.0625,-1.0,1.0,-1.0,0.0,8.m4v,10.0
2024-02-28 14:00:40.022225,1709125240.0222254,-29.296875,-50.78125,-42.96875,-38.57421875,-1.0,1.0,-1.0,0.0,8.m4v,10.0
2024-02-28 14:00:40.026136,1709125240.0261357,-27.34375,-34.1796875,-34.1796875,-35.64453125,-1.0,1.0,-1.0,0.0,8.m4v,10.0
2024-02-28 14:00:40.030041,1709125240.0300412,-22.4609375,-18.06640625,-37.59765625,-43.9453125,-1.0,1.0,-1.0,0.0,8.m4v,10.0
2024-02-28 14:00:40.033947,1709125240.0339468,-28.3203125,-24.90234375,-44.43359375,-43.9453125,-1.0,1.0,-1.0,0.0,8.m4v,10.0
2024-02-28 14:00:40.037852,1709125240.0378523,-41.015625,-31.73828125,-36.1328125,-40.0390625,-1.0,1.0,-1.0,0.0,8.m4v,10.0
2024-02-28 14:00:40.041758,1709125240.0417576,-42.48046875,-40.52734375,-34.66796875,-31.25,-1.0,1.0,-1.0,0.0,8.m4v,10.0
2024-02-28 14:00:40.045663,1709125240.045663,-29.78515625,-26.85546875,-36.1328125,-24.4140625,-1.0,1.0,-1.0,0.0,8.m4v,10.0
2024-02-28 14:00:40.049569,1709125240.049569,-24.4140625,-24.90234375,-24.4140625,-36.62109375,-1.0,1.0,-1.0,0.0,8.m4v,10.0
2024-02-28 14:00:40.053474,1709125240.0534742,-47.36328125,-36.62109375,-33.69140625,-54.19921875,-1.0,1.0,-1.0,0.0,8.m4v,10.0
2024-02-28 14:00:40.057380,1709125240.0573795,-52.734375,-33.203125,-37.59765625,-48.33984375,-1.0,1.0,-1.0,0.0,8.m4v,10.0
2024-02-28 14:00:40.061285,1709125240.0612853,-37.109375,-26.85546875,-29.296875,-36.1328125,-1.0,1.0,-1.0,0.0,8.m4v,10.0
2024-02-28 14:00:40.065191,1709125240.0651906,-24.4140625,-25.87890625,-35.15625,-23.4375,-1.0,1.0,-1.0,0.0,8.m4v,10.0
2024-02-28 14:00:40.069096,1709125240.069096,-33.203125,-43.9453125,-39.0625,-18.06640625,-1.0,1.0,-1.0,0.0,8.m4v,10.0
2024-02-28 14:00:40.073006,1709125240.0730064,-38.57421875,-49.8046875,-33.203125,-27.34375,-1.0,1.0,-1.0,0.0,8.m4v,10.0
2024-02-28 14:00:40.076912,1709125240.076912,-18.5546875,-29.296875,-29.296875,-15.13671875,-1.0,1.0,-1.0,0.0,8.m4v,10.0
2024-02-28 14:00:40.080817,1709125240.0808177,-21.97265625,-26.3671875,-37.59765625,-8.30078125,-1.0,1.0,-1.0,0.0,8.m4v,10.0
2024-02-28 14:00:40.084723,1709125240.084723,-37.59765625,-36.1328125,-37.59765625,-19.04296875,-1.0,1.0,-1.0,0.0,8.m4v,10.0
2024-02-28 14:00:40.088629,1709125240.0886283,-29.78515625,-47.8515625,-33.203125,-24.4140625,-1.0,1.0,-1.0,0.0,8.m4v,10.0
2024-02-28 14:00:40.092534,1709125240.0925338,-30.2734375,-45.41015625,-28.80859375,-29.296875,-1.0,1.0,-1.0,0.0,8.m4v,10.0
2024-02-28 14:00:40.096439,1709125240.0964394,-44.43359375,-37.109375,-25.87890625,-38.57421875,-1.0,1.0,-1.0,0.0,8.m4v,10.0
2024-02-28 14:00:40.100345,1709125240.100345,-41.015625,-43.45703125,-24.4140625,-33.203125,-1.0,1.0,-1.0,0.0,8.m4v,10.0
2024-02-28 14:00:40.104250,1709125240.1042504,-32.71484375,-38.0859375,-22.94921875,-36.62109375,-1.0,1.0,-1.0,0.0,8.m4v,10.0
2024-02-28 14:00:40.108156,1709125240.108156,-36.62109375,-33.69140625,-29.78515625,-41.50390625,-1.0,1.0,-1.0,0.0,8.m4v,10.0
2024-02-28 14:00:40.112061,1709125240.1120613,-31.25,-35.64453125,-29.296875,-36.62109375,-1.0,1.0,-1.0,0.0,8.m4v,10.0
2024-02-28 14:00:40.115967,1709125240.1159668,-33.203125,-29.296875,-27.34375,-45.41015625,-1.0,1.0,-1.0,0.0,8.m4v,10.0
2024-02-28 14:00:40.119877,1709125240.1198769,-29.296875,-33.203125,-40.0390625,-38.57421875,-1.0,1.0,-1.0,0.0,8.m4v,10.0
2024-02-28 14:00:40.123782,1709125240.1237824,-13.18359375,-43.9453125,-46.875,-21.484375,-1.0,1.0,-1.0,0.0,8.m4v,10.0
2024-02-28 14:00:40.127688,1709125240.127688,-9.765625,-42.96875,-41.9921875,-15.625,-1.0,1.0,-1.0,0.0,8.m4v,10.0
2024-02-28 14:00:40.131593,1709125240.1315937,-22.94921875,-34.1796875,-40.52734375,-29.296875,-1.0,1.0,-1.0,0.0,8.m4v,10.0
2024-02-28 14:00:40.135499,1709125240.135499,-31.25,-37.109375,-34.1796875,-30.76171875,-1.0,1.0,-1.0,0.0,8.m4v,10.0
2024-02-28 14:00:40.139405,1709125240.1394043,-33.203125,-36.62109375,-35.64453125,-22.4609375,-1.0,1.0,-1.0,0.0,8.m4v,10.0
2024-02-28 14:00:40.143310,1709125240.1433098,-39.0625,-34.1796875,-29.78515625,-29.296875,-1.0,1.0,-1.0,0.0,8.m4v,10.0
2024-02-28 14:00:40.147215,1709125240.1472154,-39.0625,-40.0390625,-22.4609375,-26.3671875,-1.0,1.0,-1.0,0.0,8.m4v,10.0
2024-02-28 14:00:40.151121,1709125240.151121,-36.1328125,-29.296875,-30.76171875,-21.484375,-1.0,1.0,-1.0,0.0,8.m4v,10.0
2024-02-28 14:00:40.155026,1709125240.1550264,-44.43359375,-31.73828125,-40.0390625,-30.76171875,-1.0,1.0,-1.0,0.0,8.m4v,10.0
2024-02-28 14:00:40.158932,1709125240.158932,-42.48046875,-36.1328125,-41.015625,-34.66796875,-1.0,1.0,-1.0,0.0,8.m4v,10.0
2024-02-28 14:00:40.162837,1709125240.1628373,-25.87890625,-20.01953125,-30.76171875,-23.92578125,-1.0,1.0,-1.0,0.0,8.m4v,10.0
2024-02-28 14:00:40.166747,1709125240.166747,-33.203125,-25.390625,-33.203125,-18.5546875,-1.0,1.0,-1.0,0.0,8.m4v,10.0
2024-02-28 14:00:40.170653,1709125240.1706529,-40.52734375,-38.57421875,-42.96875,-26.3671875,-1.0,1.0,-1.0,0.0,8.m4v,10.0
2024-02-28 14:00:40.174558,1709125240.1745584,-35.15625,-35.64453125,-35.15625,-34.66796875,-1.0,1.0,-1.0,0.0,8.m4v,10.0
2024-02-28 14:00:40.178464,1709125240.178464,-35.15625,-38.57421875,-41.50390625,-33.203125,-1.0,1.0,-1.0,0.0,8.m4v,10.0
2024-02-28 14:00:40.182369,1709125240.1823697,-37.109375,-40.52734375,-33.69140625,-38.0859375,-1.0,1.0,-1.0,0.0,8.m4v,10.0
2024-02-28 14:00:40.186275,1709125240.1862748,-40.52734375,-31.25,-18.06640625,-40.0390625,-1.0,1.0,-1.0,0.0,8.m4v,10.0
2024-02-28 14:00:40.190180,1709125240.1901803,-37.109375,-44.921875,-22.4609375,-27.83203125,-1.0,1.0,-1.0,0.0,8.m4v,10.0
2024-02-28 14:00:40.194086,1709125240.1940858,-26.3671875,-39.55078125,-21.97265625,-17.578125,-1.0,1.0,-1.0,0.0,8.m4v,10.0
2024-02-28 14:00:40.197991,1709125240.1979914,-35.15625,-21.484375,-34.1796875,-26.3671875,-1.0,1.0,-1.0,0.0,8.m4v,10.0
2024-02-28 14:00:40.201897,1709125240.201897,-38.0859375,-27.34375,-43.45703125,-37.109375,-1.0,1.0,-1.0,0.0,8.m4v,10.0
2024-02-28 14:00:40.205802,1709125240.2058022,-24.4140625,-21.97265625,-33.69140625,-36.1328125,-1.0,1.0,-1.0,0.0,8.m4v,10.0
2024-02-28 14:00:40.342511,1709125240.342511,-26.3671875,-41.9921875,-45.8984375,-14.16015625,-1.0,1.0,-1.0,0.0,8.m4v,10.0
2024-02-28 14:00:40.350322,1709125240.350322,-20.99609375,-23.92578125,-25.87890625,-17.08984375,-1.0,1.0,-1.0,0.0,8.m4v,10.0
2024-02-28 14:00:40.358138,1709125240.358138,-32.2265625,-23.92578125,-41.9921875,-29.78515625,-1.0,1.0,-1.0,0.0,8.m4v,10.0
2024-02-28 14:00:40.365949,1709125240.3659492,-37.109375,-36.62109375,-24.4140625,-29.78515625,-1.0,1.0,-1.0,0.0,8.m4v,10.0
2024-02-28 14:00:40.373760,1709125240.3737602,-31.73828125,-31.73828125,-20.01953125,-25.87890625,-1.0,1.0,-1.0,0.0,8.m4v,10.0
2024-02-28 14:00:40.381571,1709125240.381571,-21.97265625,-66.89453125,-28.80859375,-13.18359375,-1.0,1.0,-1.0,0.0,8.m4v,10.0
2024-02-28 14:00:40.389382,1709125240.389382,-28.3203125,-23.92578125,-23.4375,-11.71875,-1.0,1.0,-1.0,0.0,8.m4v,10.0
2024-02-28 14:00:40.397193,1709125240.397193,-38.57421875,-29.296875,-32.71484375,-21.484375,-1.0,1.0,-1.0,0.0,8.m4v,10.0
2024-02-28 14:00:40.405009,1709125240.405009,-34.1796875,-27.83203125,-46.38671875,-34.66796875,-1.0,1.0,-1.0,0.0,8.m4v,10.0
2024-02-28 14:00:40.412820,1709125240.41282,-33.69140625,-38.0859375,-37.59765625,-40.52734375,-1.0,1.0,-1.0,0.0,8.m4v,10.0
2024-02-28 14:00:40.420631,1709125240.420631,-16.6015625,-31.73828125,-33.203125,-26.3671875,-1.0,1.0,-1.0,0.0,8.m4v,10.0
2024-02-28 14:00:40.428442,1709125240.428442,-29.296875,-43.45703125,-16.6015625,-32.2265625,-1.0,1.0,-1.0,0.0,8.m4v,10.0
2024-02-28 14:00:40.436253,1709125240.436253,-23.92578125,-67.3828125,-29.296875,-34.66796875,-1.0,1.0,-1.0,0.0,8.m4v,10.0
2024-02-28 14:00:40.444064,1709125240.444064,-35.15625,-14.6484375,-46.875,-49.8046875,-1.0,1.0,-1.0,0.0,8.m4v,10.0
2024-02-28 14:00:40.451880,1709125240.4518795,-29.78515625,-24.4140625,-43.45703125,-50.78125,-1.0,1.0,-1.0,0.0,8.m4v,10.0
2024-02-28 14:00:40.455785,1709125240.4557853,-37.59765625,-27.83203125,-40.52734375,-48.828125,-1.0,1.0,-1.0,0.0,8.m4v,10.0
2024-02-28 14:00:40.463596,1709125240.4635963,-30.2734375,-29.78515625,-24.4140625,-29.78515625,-1.0,1.0,-1.0,0.0,8.m4v,10.0
2024-02-28 14:00:40.467502,1709125240.4675016,-42.96875,-35.15625,-30.2734375,-41.9921875,-1.0,1.0,-1.0,0.0,8.m4v,10.0
2024-02-28 14:00:40.471407,1709125240.4714072,-46.38671875,-34.66796875,-33.203125,-54.6875,-1.0,1.0,-1.0,0.0,8.m4v,10.0
2024-02-28 14:00:40.479218,1709125240.4792182,-40.52734375,-31.73828125,-31.73828125,-38.0859375,-1.0,1.0,-1.0,0.0,8.m4v,10.0
2024-02-28 14:00:40.483124,1709125240.4831238,-41.50390625,-43.45703125,-41.50390625,-44.921875,-1.0,1.0,-1.0,0.0,8.m4v,10.0
2024-02-28 14:00:40.487029,1709125240.4870293,-36.62109375,-56.15234375,-40.0390625,-48.828125,-1.0,1.0,-1.0,0.0,8.m4v,10.0
2024-02-28 14:00:40.494845,1709125240.4948452,-41.9921875,-33.203125,-51.26953125,-54.19921875,-1.0,1.0,-1.0,0.0,8.m4v,10.0
2024-02-28 14:00:40.498751,1709125240.4987507,-39.55078125,-24.90234375,-47.36328125,-52.734375,-1.0,1.0,-1.0,0.0,8.m4v,10.0
2024-02-28 14:00:40.502656,1709125240.502656,-33.69140625,-12.20703125,-33.69140625,-50.78125,-1.0,1.0,-1.0,0.0,8.m4v,10.0
2024-02-28 14:00:40.510467,1709125240.510467,-30.76171875,-33.69140625,-21.484375,-49.8046875,-1.0,1.0,-1.0,0.0,8.m4v,10.0
2024-02-28 14:00:40.514373,1709125240.5143726,-37.59765625,-22.94921875,-20.5078125,-55.17578125,-1.0,1.0,-1.0,0.0,8.m4v,10.0
2024-02-28 14:00:40.518278,1709125240.518278,-43.45703125,-34.66796875,-31.25,-51.26953125,-1.0,1.0,-1.0,0.0,8.m4v,10.0
2024-02-28 14:00:40.522183,1709125240.5221834,-45.8984375,-31.73828125,-35.15625,-46.875,-1.0,1.0,-1.0,0.0,8.m4v,10.0
2024-02-28 14:00:40.526089,1709125240.526089,-42.96875,-23.4375,-37.59765625,-46.38671875,-1.0,1.0,-1.0,0.0,8.m4v,10.0
2024-02-28 14:00:40.529994,1709125240.5299945,-41.015625,-38.57421875,-41.015625,-55.17578125,-1.0,1.0,-1.0,0.0,8.m4v,10.0
2024-02-28 14:00:40.533900,1709125240.5339,-41.50390625,-45.8984375,-36.62109375,-56.640625,-1.0,1.0,-1.0,0.0,8.m4v,10.0
2024-02-28 14:00:40.537806,1709125240.5378056,-37.109375,-38.0859375,-46.38671875,-43.45703125,-1.0,1.0,-1.0,0.0,8.m4v,10.0
2024-02-28 14:00:40.541715,1709125240.5417154,-26.3671875,-35.15625,-35.64453125,-30.2734375,-1.0,1.0,-1.0,0.0,8.m4v,10.0
2024-02-28 14:00:40.545621,1709125240.545621,-37.59765625,-37.59765625,-10.25390625,-41.50390625,-1.0,1.0,-1.0,0.0,8.m4v,10.0
2024-02-28 14:00:40.549526,1709125240.5495265,-55.17578125,-38.0859375,-16.11328125,-56.15234375,-1.0,1.0,-1.0,0.0,8.m4v,10.0
2024-02-28 14:00:40.553432,1709125240.553432,-48.828125,-26.85546875,-28.80859375,-45.41015625,-1.0,1.0,-1.0,0.0,8.m4v,10.0
2024-02-28 14:00:40.557338,1709125240.5573375,-39.55078125,-35.64453125,-27.34375,-38.57421875,-1.0,1.0,-1.0,0.0,8.m4v,10.0
2024-02-28 14:00:40.561243,1709125240.5612428,-36.62109375,-37.109375,-23.92578125,-42.48046875,-1.0,1.0,-1.0,0.0,8.m4v,10.0
2024-02-28 14:00:40.565148,1709125240.5651484,-46.38671875,-35.64453125,-32.2265625,-46.38671875,-1.0,1.0,-1.0,0.0,8.m4v,10.0
2024-02-28 14:00:40.569054,1709125240.569054,-44.43359375,-54.19921875,-42.48046875,-43.9453125,-1.0,1.0,-1.0,0.0,8.m4v,10.0
2024-02-28 14:00:40.572959,1709125240.5729594,-35.64453125,-48.33984375,-37.59765625,-41.9921875,-1.0,1.0,-1.0,0.0,8.m4v,10.0
2024-02-28 14:00:40.576865,1709125240.576865,-33.69140625,-42.48046875,-43.9453125,-34.66796875,-1.0,1.0,-1.0,0.0,8.m4v,10.0
2024-02-28 14:00:40.580770,1709125240.5807705,-39.0625,-44.43359375,-43.9453125,-39.0625,-1.0,1.0,-1.0,0.0,8.m4v,10.0
2024-02-28 14:00:40.584676,1709125240.5846758,-45.8984375,-37.109375,-28.80859375,-44.921875,-1.0,1.0,-1.0,0.0,8.m4v,10.0
2024-02-28 14:00:40.651080,1709125240.65108,-26.85546875,-21.484375,-20.01953125,-37.59765625,-1.0,1.0,-1.0,0.0,8.m4v,10.0
2024-02-28 14:00:40.654986,1709125240.6549857,-28.3203125,-35.64453125,-24.4140625,-33.203125,-1.0,1.0,-1.0,0.0,8.m4v,10.0
2024-02-28 14:00:40.658891,1709125240.6588912,-27.83203125,-40.0390625,-28.3203125,-30.2734375,-1.0,1.0,-1.0,0.0,8.m4v,10.0
2024-02-28 14:00:40.662797,1709125240.6627967,-24.4140625,-24.4140625,-29.296875,-33.203125,-1.0,1.0,-1.0,0.0,8.m4v,10.0
2024-02-28 14:00:40.666702,1709125240.6667025,-18.5546875,-32.71484375,-36.62109375,-31.25,-1.0,1.0,-1.0,0.0,8.m4v,10.0
2024-02-28 14:00:40.670608,1709125240.6706076,-20.01953125,-50.78125,-42.96875,-36.1328125,-1.0,1.0,-1.0,0.0,8.m4v,10.0
2024-02-28 14:00:40.674513,1709125240.674513,-19.53125,-39.0625,-43.45703125,-40.0390625,-1.0,1.0,-1.0,0.0,8.m4v,10.0
2024-02-28 14:00:40.678419,1709125240.6784186,-26.3671875,-20.01953125,-33.203125,-36.1328125,-1.0,1.0,-1.0,0.0,8.m4v,10.0
2024-02-28 14:00:40.682329,1709125240.6823294,-26.85546875,-22.94921875,-34.66796875,-33.203125,-1.0,1.0,-1.0,0.0,8.m4v,10.0
2024-02-28 14:00:40.686235,1709125240.686235,-30.76171875,-23.92578125,-37.59765625,-34.1796875,-1.0,1.0,-1.0,0.0,8.m4v,10.0
2024-02-28 14:00:40.690140,1709125240.6901405,-32.2265625,-24.90234375,-23.92578125,-27.83203125,-1.0,1.0,-1.0,0.0,8.m4v,10.0
2024-02-28 14:00:40.694046,1709125240.694046,-27.83203125,-52.24609375,-15.625,-23.4375,-1.0,1.0,-1.0,0.0,8.m4v,10.0
2024-02-28 14:00:40.697952,1709125240.6979516,-32.71484375,-52.24609375,-22.4609375,-35.64453125,-1.0,1.0,-1.0,0.0,8.m4v,10.0
2024-02-28 14:00:40.701857,1709125240.7018569,-34.66796875,-31.73828125,-29.296875,-34.1796875,-1.0,1.0,-1.0,0.0,8.m4v,10.0
2024-02-28 14:00:40.705762,1709125240.7057624,-46.38671875,-26.85546875,-32.2265625,-29.296875,-1.0,1.0,-1.0,0.0,8.m4v,10.0
2024-02-28 14:00:40.709668,1709125240.709668,-45.8984375,-35.64453125,-33.69140625,-44.921875,-1.0,1.0,-1.0,0.0,8.m4v,10.0
2024-02-28 14:00:40.713573,1709125240.7135737,-35.64453125,-30.2734375,-35.64453125,-47.8515625,-1.0,1.0,-1.0,0.0,8.m4v,10.0
2024-02-28 14:00:40.717479,1709125240.717479,-33.69140625,-17.578125,-38.0859375,-38.0859375,-1.0,1.0,-1.0,0.0,8.m4v,10.0
2024-02-28 14:00:40.721384,1709125240.7213843,-30.2734375,-22.94921875,-37.109375,-37.59765625,-1.0,1.0,-1.0,0.0,8.m4v,10.0
2024-02-28 14:00:40.725290,1709125240.7252898,-30.76171875,-38.57421875,-37.59765625,-39.55078125,-1.0,1.0,-1.0,0.0,8.m4v,10.0
2024-02-28 14:00:40.729201,1709125240.7292006,-37.109375,-36.1328125,-29.296875,-43.45703125,-1.0,1.0,-1.0,0.0,8.m4v,10.0
2024-02-28 14:00:40.733106,1709125240.733106,-38.57421875,-20.99609375,-16.11328125,-39.0625,-1.0,1.0,-1.0,0.0,8.m4v,10.0
2024-02-28 14:00:40.737012,1709125240.7370117,-45.41015625,-29.78515625,-12.20703125,-45.41015625,-1.0,1.0,-1.0,0.0,8.m4v,10.0
2024-02-28 14:00:40.740917,1709125240.7409172,-55.6640625,-32.2265625,-11.23046875,-52.24609375,-1.0,1.0,-1.0,0.0,8.m4v,10.0
2024-02-28 14:00:40.744823,1709125240.7448225,-54.19921875,-20.5078125,-15.13671875,-56.640625,-1.0,1.0,-1.0,0.0,8.m4v,10.0
2024-02-28 14:00:40.748728,1709125240.748728,-39.55078125,-14.6484375,-9.765625,-52.24609375,-1.0,1.0,-1.0,0.0,8.m4v,10.0
2024-02-28 14:00:40.752634,1709125240.7526336,-52.24609375,-32.2265625,-20.01953125,-60.05859375,-1.0,1.0,-1.0,0.0,8.m4v,10.0
2024-02-28 14:00:40.756539,1709125240.756539,-79.58984375,-40.52734375,-30.76171875,-82.03125,-1.0,1.0,-1.0,0.0,8.m4v,10.0
2024-02-28 14:00:40.760445,1709125240.7604446,-86.42578125,-30.76171875,-20.01953125,-83.984375,-1.0,1.0,-1.0,0.0,8.m4v,10.0
2024-02-28 14:00:40.764350,1709125240.76435,-96.19140625,-30.2734375,-26.85546875,-96.19140625,-1.0,1.0,-1.0,0.0,8.m4v,10.0
2024-02-28 14:00:40.768255,1709125240.7682557,-117.1875,-35.15625,-31.25,-118.1640625,-1.0,1.0,-1.0,0.0,8.m4v,10.0
2024-02-28 14:00:40.772161,1709125240.772161,-123.046875,-22.94921875,-32.2265625,-135.7421875,-1.0,1.0,-1.0,0.0,8.m4v,10.0
2024-02-28 14:00:40.776072,1709125240.7760715,-127.44140625,-22.4609375,-36.62109375,-147.94921875,-1.0,1.0,-1.0,0.0,8.m4v,10.0
2024-02-28 14:00:40.779977,1709125240.7799768,-153.80859375,-44.921875,-31.25,-151.3671875,-1.0,1.0,-1.0,0.0,8.m4v,10.0
2024-02-28 14:00:40.783882,1709125240.7838824,-166.50390625,-45.8984375,-27.34375,-155.76171875,-1.0,1.0,-1.0,0.0,8.m4v,10.0
2024-02-28 14:00:40.787788,1709125240.787788,-172.8515625,-41.015625,-25.390625,-163.57421875,-1.0,1.0,-1.0,0.0,8.m4v,10.0
2024-02-28 14:00:40.791693,1709125240.7916934,-179.6875,-46.38671875,-23.92578125,-175.78125,-1.0,1.0,-1.0,0.0,8.m4v,10.0
2024-02-28 14:00:40.795599,1709125240.795599,-177.734375,-39.55078125,-35.15625,-177.24609375,-1.0,1.0,-1.0,0.0,8.m4v,10.0
2024-02-28 14:00:40.799504,1709125240.7995045,-174.8046875,-33.69140625,-37.59765625,-174.8046875,-1.0,1.0,-1.0,0.0,8.m4v,10.0
2024-02-28 14:00:40.803410,1709125240.8034098,-177.24609375,-36.1328125,-23.4375,-171.875,-1.0,1.0,-1.0,0.0,8.m4v,10.0
2024-02-28 14:00:40.807315,1709125240.807315,-166.015625,-34.1796875,-22.94921875,-153.80859375,-1.0,1.0,-1.0,0.0,8.m4v,10.0
2024-02-28 14:00:40.811221,1709125240.811221,-159.1796875,-27.34375,-35.15625,-144.53125,-1.0,1.0,-1.0,0.0,8.m4v,10.0
2024-02-28 14:00:40.815126,1709125240.8151264,-162.109375,-20.01953125,-34.1796875,-150.87890625,-1.0,1.0,-1.0,0.0,8.m4v,10.0
2024-02-28 14:00:40.819032,1709125240.819032,-157.2265625,-38.0859375,-24.4140625,-149.4140625,-1.0,1.0,-1.0,0.0,8.m4v,10.0
2024-02-28 14:00:40.822942,1709125240.822942,-133.7890625,-53.22265625,-26.85546875,-138.671875,-1.0,1.0,-1.0,0.0,8.m4v,10.0
2024-02-28 14:00:40.826848,1709125240.8268476,-128.41796875,-63.4765625,-40.0390625,-130.859375,-1.0,1.0,-1.0,0.0,8.m4v,10.0
2024-02-28 14:00:40.830753,1709125240.830753,-127.44140625,-51.7578125,-37.109375,-111.81640625,-1.0,1.0,-1.0,0.0,8.m4v,10.0
2024-02-28 14:00:40.834659,1709125240.8346586,-103.515625,-30.76171875,-35.15625,-94.7265625,-1.0,1.0,-1.0,0.0,8.m4v,10.0
2024-02-28 14:00:40.838564,1709125240.8385642,-81.54296875,-28.80859375,-35.64453125,-78.61328125,-1.0,1.0,-1.0,0.0,8.m4v,10.0
2024-02-28 14:00:40.842469,1709125240.8424697,-59.5703125,-24.90234375,-27.83203125,-54.19921875,-1.0,1.0,-1.0,0.0,8.m4v,10.0
2024-02-28 14:00:40.846375,1709125240.846375,-40.0390625,-23.92578125,-30.2734375,-41.015625,-1.0,1.0,-1.0,0.0,8.m4v,10.0
2024-02-28 14:00:40.850281,1709125240.8502803,-26.85546875,-33.69140625,-42.96875,-38.0859375,-1.0,1.0,-1.0,0.0,8.m4v,10.0
2024-02-28 14:00:40.854186,1709125240.854186,-24.90234375,-37.59765625,-46.875,-35.64453125,-1.0,1.0,-1.0,0.0,8.m4v,10.0
2024-02-28 14:00:40.858092,1709125240.8580916,-10.25390625,-26.3671875,-31.25,-17.578125,-1.0,1.0,-1.0,0.0,8.m4v,10.0
2024-02-28 14:00:40.861997,1709125240.8619971,-3.90625,-28.80859375,-23.92578125,-10.7421875,-1.0,1.0,-1.0,0.0,8.m4v,10.0
2024-02-28 14:00:40.865902,1709125240.8659024,-13.18359375,-45.8984375,-37.109375,-7.8125,-1.0,1.0,-1.0,0.0,8.m4v,10.0
2024-02-28 14:00:40.869813,1709125240.8698127,-8.30078125,-41.50390625,-42.96875,-5.37109375,-1.0,1.0,-1.0,0.0,8.m4v,10.0
2024-02-28 14:00:40.873718,1709125240.8737185,3.41796875,-40.0390625,-36.1328125,-4.39453125,-1.0,1.0,-1.0,0.0,8.m4v,10.0
2024-02-28 14:00:40.877624,1709125240.8776238,21.484375,-38.57421875,-33.203125,7.8125,-1.0,1.0,-1.0,0.0,8.m4v,10.0
2024-02-28 14:00:40.881529,1709125240.881529,19.04296875,-37.109375,-35.15625,14.16015625,-1.0,1.0,-1.0,0.0,8.m4v,10.0
2024-02-28 14:00:40.885435,1709125240.8854346,10.25390625,-37.109375,-41.015625,12.20703125,-1.0,1.0,-1.0,0.0,8.m4v,10.0
2024-02-28 14:00:40.889340,1709125240.8893402,17.578125,-22.4609375,-45.8984375,17.08984375,-1.0,1.0,-1.0,0.0,8.m4v,10.0
2024-02-28 14:00:40.893246,1709125240.8932457,17.08984375,-34.1796875,-37.59765625,18.06640625,-1.0,1.0,-1.0,0.0,8.m4v,10.0
2024-02-28 14:00:40.897151,1709125240.8971512,12.20703125,-41.9921875,-27.34375,19.04296875,-1.0,1.0,-1.0,0.0,8.m4v,10.0
2024-02-28 14:00:40.901057,1709125240.9010563,14.6484375,-35.64453125,-29.78515625,17.578125,-1.0,1.0,-1.0,0.0,8.m4v,10.0
2024-02-28 14:00:40.904962,1709125240.904962,15.13671875,-35.64453125,-33.203125,15.13671875,-1.0,1.0,-1.0,0.0,8.m4v,10.0
2024-02-28 14:00:40.908868,1709125240.9088676,10.25390625,-31.25,-34.1796875,14.16015625,-1.0,1.0,-1.0,0.0,8.m4v,10.0
2024-02-28 14:00:40.912773,1709125240.9127731,19.04296875,-38.57421875,-28.80859375,15.13671875,-1.0,1.0,-1.0,0.0,8.m4v,10.0
2024-02-28 14:00:40.916683,1709125240.9166832,20.99609375,-32.2265625,-30.76171875,19.53125,-1.0,1.0,-1.0,0.0,8.m4v,10.0
2024-02-28 14:00:40.920589,1709125240.9205887,11.23046875,-23.4375,-40.52734375,17.08984375,-1.0,1.0,-1.0,0.0,8.m4v,10.0
2024-02-28 14:00:40.924494,1709125240.9244945,10.25390625,-45.41015625,-44.921875,16.6015625,-1.0,1.0,-1.0,0.0,8.m4v,10.0
2024-02-28 14:00:40.928400,1709125240.9283998,7.8125,-44.921875,-41.9921875,10.25390625,-1.0,1.0,-1.0,0.0,8.m4v,10.0
2024-02-28 14:00:40.932305,1709125240.932305,5.859375,-35.64453125,-29.78515625,0.48828125,-1.0,1.0,-1.0,0.0,8.m4v,10.0
2024-02-28 14:00:40.936211,1709125240.9362106,-4.8828125,-47.8515625,-30.2734375,-4.8828125,-1.0,1.0,-1.0,0.0,8.m4v,10.0
2024-02-28 14:00:40.940116,1709125240.9401162,-11.71875,-39.55078125,-38.0859375,-1.46484375,-1.0,1.0,-1.0,0.0,8.m4v,10.0
2024-02-28 14:00:40.944022,1709125240.9440217,-1.46484375,-22.94921875,-31.25,5.37109375,-1.0,1.0,-1.0,0.0,8.m4v,10.0
2024-02-28 14:00:40.947927,1709125240.9479272,3.90625,-16.11328125,-28.3203125,4.39453125,-1.0,1.0,-1.0,0.0,8.m4v,10.0
2024-02-28 14:00:40.951833,1709125240.9518323,6.8359375,-25.87890625,-30.2734375,1.953125,-1.0,1.0,-1.0,0.0,8.m4v,10.0
2024-02-28 14:00:40.955738,1709125240.955738,13.671875,-36.62109375,-27.83203125,12.6953125,-1.0,1.0,-1.0,0.0,8.m4v,10.0
2024-02-28 14:00:40.959644,1709125240.9596436,7.8125,-36.1328125,-26.85546875,13.18359375,-1.0,1.0,-1.0,0.0,8.m4v,10.0
2024-02-28 14:00:40.963555,1709125240.9635549,3.41796875,-30.76171875,-28.3203125,3.41796875,-1.0,1.0,-1.0,0.0,8.m4v,10.0
2024-02-28 14:00:40.967460,1709125240.9674604,-1.953125,-28.80859375,-35.15625,-0.48828125,-1.0,1.0,-1.0,0.0,8.m4v,10.0
2024-02-28 14:00:40.971366,1709125240.971366,-6.34765625,-40.0390625,-46.38671875,-4.39453125,-1.0,1.0,-1.0,0.0,8.m4v,10.0
2024-02-28 14:00:40.975271,1709125240.9752712,-2.9296875,-43.45703125,-49.8046875,-4.39453125,-1.0,1.0,-1.0,0.0,8.m4v,10.0
2024-02-28 14:00:40.979177,1709125240.9791768,3.90625,-34.66796875,-36.1328125,4.8828125,-1.0,1.0,-1.0,0.0,8.m4v,10.0
2024-02-28 14:00:40.983082,1709125240.9830823,1.953125,-36.1328125,-28.3203125,4.39453125,-1.0,1.0,-1.0,0.0,8.m4v,10.0
2024-02-28 14:00:40.986988,1709125240.9869878,-0.9765625,-40.0390625,-30.76171875,-1.953125,-1.0,1.0,-1.0,0.0,8.m4v,10.0
2024-02-28 14:00:40.990893,1709125240.9908934,1.953125,-23.4375,-29.78515625,-4.39453125,-1.0,1.0,-1.0,0.0,8.m4v,10.0
2024-02-28 14:00:40.994799,1709125240.994799,4.8828125,-11.23046875,-22.4609375,-3.41796875,-1.0,1.0,-1.0,0.0,8.m4v,10.0
2024-02-28 14:00:40.998704,1709125240.9987042,0.0,-16.6015625,-21.484375,-3.90625,-1.0,1.0,-1.0,0.0,8.m4v,10.0
2024-02-28 14:00:41.002610,1709125241.0026095,-8.30078125,-28.80859375,-33.69140625,-5.37109375,-1.0,1.0,-1.0,0.0,8.m4v,10.0
2024-02-28 14:00:41.006515,1709125241.0065153,-6.8359375,-41.015625,-37.109375,-8.7890625,-1.0,1.0,-1.0,0.0,8.m4v,10.0
2024-02-28 14:00:41.010426,1709125241.0104263,-9.765625,-38.0859375,-36.1328125,-10.25390625,-1.0,1.0,-1.0,0.0,8.m4v,10.0
2024-02-28 14:00:41.014332,1709125241.0143316,-14.6484375,-32.2265625,-35.64453125,-8.7890625,-1.0,1.0,-1.0,0.0,8.m4v,10.0
2024-02-28 14:00:41.018237,1709125241.018237,-22.4609375,-23.4375,-35.64453125,-2.9296875,-1.0,1.0,-1.0,0.0,8.m4v,10.0
2024-02-28 14:00:41.022143,1709125241.0221426,-22.4609375,-20.5078125,-48.33984375,-10.7421875,-1.0,1.0,-1.0,0.0,8.m4v,10.0
2024-02-28 14:00:41.026048,1709125241.0260482,-20.99609375,-23.92578125,-57.6171875,-12.6953125,-1.0,1.0,-1.0,0.0,8.m4v,10.0
2024-02-28 14:00:41.029954,1709125241.0299537,-27.83203125,-34.1796875,-40.52734375,-12.20703125,-1.0,1.0,-1.0,0.0,8.m4v,10.0
2024-02-28 14:00:41.033859,1709125241.0338593,-26.85546875,-40.52734375,-27.34375,-17.08984375,-1.0,1.0,-1.0,0.0,8.m4v,10.0
2024-02-28 14:00:41.037765,1709125241.0377643,-20.01953125,-37.59765625,-29.296875,-14.16015625,-1.0,1.0,-1.0,0.0,8.m4v,10.0
2024-02-28 14:00:41.041670,1709125241.04167,-16.6015625,-24.90234375,-31.73828125,-3.90625,-1.0,1.0,-1.0,0.0,8.m4v,10.0
2024-02-28 14:00:41.045576,1709125241.0455756,-17.578125,-20.99609375,-29.78515625,-4.8828125,-1.0,1.0,-1.0,0.0,8.m4v,10.0
2024-02-28 14:00:41.049481,1709125241.0494812,-23.92578125,-22.94921875,-34.1796875,-15.13671875,-1.0,1.0,-1.0,0.0,8.m4v,10.0
2024-02-28 14:00:41.053387,1709125241.0533867,-28.3203125,-23.92578125,-40.0390625,-20.5078125,-1.0,1.0,-1.0,0.0,8.m4v,10.0
2024-02-28 14:00:41.057297,1709125241.0572977,-25.390625,-28.80859375,-38.57421875,-22.94921875,-1.0,1.0,-1.0,0.0,8.m4v,10.0
2024-02-28 14:00:41.061203,1709125241.0612028,-20.99609375,-32.2265625,-40.0390625,-15.625,-1.0,1.0,-1.0,0.0,8.m4v,10.0
2024-02-28 14:00:41.065108,1709125241.0651083,-14.6484375,-27.34375,-45.41015625,-15.625,-1.0,1.0,-1.0,0.0,8.m4v,10.0
2024-02-28 14:00:41.069014,1709125241.0690138,-20.5078125,-25.87890625,-41.9921875,-18.06640625,-1.0,1.0,-1.0,0.0,8.m4v,10.0
2024-02-28 14:00:41.072919,1709125241.0729194,-28.3203125,-38.0859375,-36.1328125,-27.83203125,-1.0,1.0,-1.0,0.0,8.m4v,10.0
2024-02-28 14:00:41.076825,1709125241.076825,-20.5078125,-42.48046875,-29.296875,-29.78515625,-1.0,1.0,-1.0,0.0,8.m4v,10.0
2024-02-28 14:00:41.080730,1709125241.0807302,-23.92578125,-43.9453125,-28.80859375,-24.4140625,-1.0,1.0,-1.0,0.0,8.m4v,10.0
2024-02-28 14:00:41.084636,1709125241.0846355,-32.2265625,-45.8984375,-33.69140625,-31.25,-1.0,1.0,-1.0,0.0,8.m4v,10.0
2024-02-28 14:00:41.088541,1709125241.0885413,-26.85546875,-45.41015625,-33.69140625,-27.34375,-1.0,1.0,-1.0,0.0,8.m4v,10.0
2024-02-28 14:00:41.092447,1709125241.0924468,-20.01953125,-46.875,-33.203125,-16.11328125,-1.0,1.0,-1.0,0.0,8.m4v,10.0
2024-02-28 14:00:41.096352,1709125241.0963523,-11.71875,-29.78515625,-31.73828125,-10.25390625,-1.0,1.0,-1.0,0.0,8.m4v,10.0
2024-02-28 14:00:41.100258,1709125241.100258,-12.6953125,-15.625,-39.0625,-17.578125,-1.0,1.0,-1.0,0.0,8.m4v,10.0
2024-02-28 14:00:41.104168,1709125241.1041684,-20.01953125,-28.80859375,-57.6171875,-29.78515625,-1.0,1.0,-1.0,0.0,8.m4v,10.0
2024-02-28 14:00:41.108074,1709125241.108074,-18.06640625,-31.73828125,-44.43359375,-24.4140625,-1.0,1.0,-1.0,0.0,8.m4v,10.0
2024-02-28 14:00:41.111979,1709125241.1119795,-27.34375,-37.59765625,-31.25,-28.3203125,-1.0,1.0,-1.0,0.0,8.m4v,10.0
2024-02-28 14:00:41.115885,1709125241.115885,-41.9921875,-51.7578125,-31.73828125,-37.109375,-1.0,1.0,-1.0,0.0,8.m4v,10.0
2024-02-28 14:00:41.119791,1709125241.1197906,-35.64453125,-42.48046875,-33.203125,-38.0859375,-1.0,1.0,-1.0,0.0,8.m4v,10.0
2024-02-28 14:00:41.123696,1709125241.123696,-27.34375,-26.3671875,-40.0390625,-34.66796875,-1.0,1.0,-1.0,0.0,8.m4v,10.0
2024-02-28 14:00:41.127601,1709125241.1276014,-32.2265625,-31.25,-29.78515625,-34.1796875,-1.0,1.0,-1.0,0.0,8.m4v,10.0
2024-02-28 14:00:41.131507,1709125241.131507,-34.1796875,-35.15625,-20.5078125,-34.66796875,-1.0,1.0,-1.0,0.0,8.m4v,10.0
2024-02-28 14:00:41.135412,1709125241.1354125,-28.3203125,-25.87890625,-34.1796875,-33.203125,-1.0,1.0,-1.0,0.0,8.m4v,10.0
2024-02-28 14:00:41.139318,1709125241.139318,-22.94921875,-18.5546875,-34.1796875,-21.97265625,-1.0,1.0,-1.0,0.0,8.m4v,10.0
2024-02-28 14:00:41.143224,1709125241.1432235,-23.4375,-29.296875,-34.66796875,-23.4375,-1.0,1.0,-1.0,0.0,8.m4v,10.0
2024-02-28 14:00:41.147129,1709125241.1471288,-20.99609375,-32.2265625,-36.62109375,-26.3671875,-1.0,1.0,-1.0,0.0,8.m4v,10.0
2024-02-28 14:00:41.151040,1709125241.1510396,-20.5078125,-35.64453125,-34.66796875,-18.06640625,-1.0,1.0,-1.0,0.0,8.m4v,10.0
2024-02-28 14:00:41.154945,1709125241.1549451,-33.203125,-39.55078125,-30.76171875,-15.13671875,-1.0,1.0,-1.0,0.0,8.m4v,10.0
2024-02-28 14:00:41.158851,1709125241.158851,-33.203125,-33.203125,-32.71484375,-13.18359375,-1.0,1.0,-1.0,0.0,8.m4v,10.0
2024-02-28 14:00:41.162756,1709125241.162756,-31.25,-39.55078125,-42.96875,-18.5546875,-1.0,1.0,-1.0,0.0,8.m4v,10.0
2024-02-28 14:00:41.166662,1709125241.1666615,-36.1328125,-37.59765625,-41.9921875,-28.3203125,-1.0,1.0,-1.0,0.0,8.m4v,10.0
2024-02-28 14:00:41.170567,1709125241.170567,-32.71484375,-32.2265625,-39.55078125,-39.0625,-1.0,1.0,-1.0,0.0,8.m4v,10.0
2024-02-28 14:00:41.174473,1709125241.1744726,-30.76171875,-30.2734375,-26.85546875,-43.45703125,-1.0,1.0,-1.0,0.0,8.m4v,10.0
2024-02-28 14:00:41.178378,1709125241.178378,-37.109375,-31.25,-24.4140625,-44.43359375,-1.0,1.0,-1.0,0.0,8.m4v,10.0
2024-02-28 14:00:41.182283,1709125241.1822834,-32.2265625,-39.0625,-41.50390625,-43.9453125,-1.0,1.0,-1.0,0.0,8.m4v,10.0
2024-02-28 14:00:41.186189,1709125241.186189,-25.87890625,-52.734375,-40.0390625,-40.52734375,-1.0,1.0,-1.0,0.0,8.m4v,10.0
2024-02-28 14:00:41.190094,1709125241.1900945,-32.2265625,-45.8984375,-30.2734375,-40.0390625,-1.0,1.0,-1.0,0.0,8.m4v,10.0
2024-02-28 14:00:41.194000,1709125241.194,-25.390625,-27.83203125,-34.1796875,-31.73828125,-1.0,1.0,-1.0,0.0,8.m4v,10.0
2024-02-28 14:00:41.197910,1709125241.1979103,-27.83203125,-34.1796875,-42.48046875,-31.25,-1.0,1.0,-1.0,0.0,8.m4v,10.0
2024-02-28 14:00:41.201816,1709125241.2018158,-41.015625,-43.9453125,-42.48046875,-42.48046875,-1.0,1.0,-1.0,0.0,8.m4v,10.0
2024-02-28 14:00:41.205721,1709125241.2057214,-37.59765625,-34.1796875,-31.25,-37.59765625,-1.0,1.0,-1.0,0.0,8.m4v,10.0
2024-02-28 14:00:41.209627,1709125241.209627,-40.0390625,-20.01953125,-24.4140625,-33.203125,-1.0,1.0,-1.0,0.0,8.m4v,10.0
2024-02-28 14:00:41.213532,1709125241.2135324,-41.50390625,-22.4609375,-28.80859375,-40.52734375,-1.0,1.0,-1.0,0.0,8.m4v,10.0
2024-02-28 14:00:41.217438,1709125241.2174375,-40.0390625,-29.78515625,-30.76171875,-38.57421875,-1.0,1.0,-1.0,0.0,8.m4v,10.0
2024-02-28 14:00:41.221343,1709125241.2213433,-35.15625,-30.2734375,-27.83203125,-22.94921875,-1.0,1.0,-1.0,0.0,8.m4v,10.0
2024-02-28 14:00:41.225249,1709125241.2252488,-31.73828125,-27.83203125,-31.25,-15.13671875,-1.0,1.0,-1.0,0.0,8.m4v,10.0
2024-02-28 14:00:41.229154,1709125241.2291543,-19.04296875,-32.71484375,-31.25,-9.27734375,-1.0,1.0,-1.0,0.0,8.m4v,10.0
2024-02-28 14:00:41.233060,1709125241.23306,-11.23046875,-27.83203125,-25.390625,-8.30078125,-1.0,1.0,-1.0,0.0,8.m4v,10.0
2024-02-28 14:00:41.236965,1709125241.2369652,-26.85546875,-22.4609375,-32.2265625,-27.34375,-1.0,1.0,-1.0,0.0,8.m4v,10.0
2024-02-28 14:00:41.240871,1709125241.2408707,-24.4140625,-31.25,-35.15625,-24.4140625,-1.0,1.0,-1.0,0.0,8.m4v,10.0
2024-02-28 14:00:41.244782,1709125241.2447824,-15.625,-39.0625,-36.1328125,-14.6484375,-1.0,1.0,-1.0,0.0,8.m4v,10.0
2024-02-28 14:00:41.244782,1709125241.2447824,-15.625,-39.0625,-36.1328125,-14.6484375,-1.0,1.0,-1.0,0.0,8.m4v,10.0
2024-02-28 14:00:41.248688,1709125241.2486875,-22.4609375,-39.0625,-38.0859375,-34.1796875,-1.0,1.0,-1.0,0.0,8.m4v,10.0
2024-02-28 14:00:41.248688,1709125241.2486875,-22.4609375,-39.0625,-38.0859375,-34.1796875,-1.0,1.0,-1.0,0.0,8.m4v,10.0
2024-02-28 14:00:41.252593,1709125241.2525933,-20.5078125,-42.96875,-30.2734375,-36.1328125,-1.0,1.0,-1.0,0.0,8.m4v,10.0
2024-02-28 14:00:41.252593,1709125241.2525933,-20.5078125,-42.96875,-30.2734375,-36.1328125,-1.0,1.0,-1.0,0.0,8.m4v,10.0
2024-02-28 14:00:41.256499,1709125241.2564988,-29.78515625,-31.73828125,-31.73828125,-32.2265625,-1.0,1.0,-1.0,0.0,8.m4v,10.0
2024-02-28 14:00:41.256499,1709125241.2564988,-29.78515625,-31.73828125,-31.73828125,-32.2265625,-1.0,1.0,-1.0,0.0,8.m4v,10.0
2024-02-28 14:00:41.260404,1709125241.2604043,-29.296875,-26.85546875,-40.52734375,-42.96875,-1.0,1.0,-1.0,0.0,8.m4v,10.0
2024-02-28 14:00:41.260404,1709125241.2604043,-29.296875,-26.85546875,-40.52734375,-42.96875,-1.0,1.0,-1.0,0.0,8.m4v,10.0
2024-02-28 14:00:41.295558,1709125241.2955582,-32.2265625,-23.92578125,-26.3671875,-17.08984375,-1.0,1.0,-1.0,0.0,8.m4v,10.0
2024-02-28 14:00:41.299464,1709125241.2994635,-35.64453125,-47.8515625,-35.64453125,-23.92578125,-1.0,1.0,-1.0,0.0,8.m4v,10.0
2024-02-28 14:00:41.303369,1709125241.3033693,-32.71484375,-45.8984375,-43.45703125,-24.90234375,-1.0,1.0,-1.0,0.0,8.m4v,10.0
2024-02-28 14:00:41.307275,1709125241.3072748,-33.203125,-48.828125,-39.0625,-25.390625,-1.0,1.0,-1.0,0.0,8.m4v,10.0
2024-02-28 14:00:41.311180,1709125241.31118,-27.34375,-41.50390625,-23.92578125,-21.97265625,-1.0,1.0,-1.0,0.0,8.m4v,10.0
2024-02-28 14:00:41.315086,1709125241.3150856,-33.203125,-23.4375,-31.73828125,-19.53125,-1.0,1.0,-1.0,0.0,8.m4v,10.0
2024-02-28 14:00:41.318991,1709125241.3189912,-41.015625,-32.2265625,-39.0625,-24.4140625,-1.0,1.0,-1.0,0.0,8.m4v,10.0
2024-02-28 14:00:41.322897,1709125241.3228967,-44.43359375,-41.50390625,-36.62109375,-34.66796875,-1.0,1.0,-1.0,0.0,8.m4v,10.0
2024-02-28 14:00:41.326802,1709125241.3268025,-47.36328125,-38.57421875,-37.59765625,-42.48046875,-1.0,1.0,-1.0,0.0,8.m4v,10.0
2024-02-28 14:00:41.330708,1709125241.3307078,-50.78125,-32.2265625,-32.2265625,-32.2265625,-1.0,1.0,-1.0,0.0,8.m4v,10.0
2024-02-28 14:00:41.334613,1709125241.334613,-48.33984375,-25.390625,-37.59765625,-31.73828125,-1.0,1.0,-1.0,0.0,8.m4v,10.0
2024-02-28 14:00:41.338525,1709125241.3385246,-51.26953125,-14.16015625,-41.50390625,-35.15625,-1.0,1.0,-1.0,0.0,8.m4v,10.0
2024-02-28 14:00:41.342430,1709125241.34243,-48.828125,-15.13671875,-38.0859375,-29.296875,-1.0,1.0,-1.0,0.0,8.m4v,10.0
2024-02-28 14:00:41.346336,1709125241.3463356,-38.0859375,-25.390625,-35.15625,-31.25,-1.0,1.0,-1.0,0.0,8.m4v,10.0
2024-02-28 14:00:41.350241,1709125241.350241,-37.109375,-33.69140625,-29.296875,-30.2734375,-1.0,1.0,-1.0,0.0,8.m4v,10.0
2024-02-28 14:00:41.354146,1709125241.3541465,-32.2265625,-39.0625,-26.85546875,-29.296875,-1.0,1.0,-1.0,0.0,8.m4v,10.0
2024-02-28 14:00:41.358052,1709125241.358052,-30.2734375,-34.66796875,-29.78515625,-29.78515625,-1.0,1.0,-1.0,0.0,8.m4v,10.0
2024-02-28 14:00:41.361958,1709125241.3619576,-33.203125,-41.9921875,-37.109375,-28.3203125,-1.0,1.0,-1.0,0.0,8.m4v,10.0
2024-02-28 14:00:41.365863,1709125241.365863,-47.8515625,-59.08203125,-42.96875,-35.15625,-1.0,1.0,-1.0,0.0,8.m4v,10.0
2024-02-28 14:00:41.369768,1709125241.3697684,-48.828125,-50.78125,-33.203125,-37.59765625,-1.0,1.0,-1.0,0.0,8.m4v,10.0
2024-02-28 14:00:41.373674,1709125241.373674,-46.38671875,-33.203125,-29.78515625,-31.73828125,-1.0,1.0,-1.0,0.0,8.m4v,10.0
2024-02-28 14:00:41.377579,1709125241.3775797,-47.36328125,-35.64453125,-37.59765625,-33.69140625,-1.0,1.0,-1.0,0.0,8.m4v,10.0
2024-02-28 14:00:41.381485,1709125241.381485,-34.1796875,-21.484375,-29.78515625,-24.90234375,-1.0,1.0,-1.0,0.0,8.m4v,10.0
2024-02-28 14:00:41.385396,1709125241.3853962,-30.76171875,-13.18359375,-21.97265625,-15.625,-1.0,1.0,-1.0,0.0,8.m4v,10.0
2024-02-28 14:00:41.389302,1709125241.3893015,-29.78515625,-25.87890625,-33.69140625,-20.01953125,-1.0,1.0,-1.0,0.0,8.m4v,10.0
2024-02-28 14:00:41.393207,1709125241.393207,-22.94921875,-28.3203125,-44.43359375,-29.296875,-1.0,1.0,-1.0,0.0,8.m4v,10.0
2024-02-28 14:00:41.397113,1709125241.3971126,-19.04296875,-22.4609375,-33.203125,-34.1796875,-1.0,1.0,-1.0,0.0,8.m4v,10.0
2024-02-28 14:00:41.401018,1709125241.401018,-18.06640625,-27.34375,-25.87890625,-29.296875,-1.0,1.0,-1.0,0.0,8.m4v,10.0
2024-02-28 14:00:41.404924,1709125241.4049237,-12.6953125,-24.90234375,-33.203125,-31.73828125,-1.0,1.0,-1.0,0.0,8.m4v,10.0
2024-02-28 14:00:41.408829,1709125241.4088292,-16.6015625,-27.83203125,-25.87890625,-36.1328125,-1.0,1.0,-1.0,0.0,8.m4v,10.0
2024-02-28 14:00:41.412735,1709125241.4127345,-23.92578125,-32.71484375,-26.3671875,-40.52734375,-1.0,1.0,-1.0,0.0,8.m4v,10.0
2024-02-28 14:00:41.416640,1709125241.41664,-16.6015625,-30.2734375,-41.015625,-37.109375,-1.0,1.0,-1.0,0.0,8.m4v,10.0
2024-02-28 14:00:41.420546,1709125241.4205456,-16.11328125,-46.875,-38.0859375,-33.69140625,-1.0,1.0,-1.0,0.0,8.m4v,10.0
2024-02-28 14:00:41.424451,1709125241.424451,-20.5078125,-41.015625,-31.73828125,-44.921875,-1.0,1.0,-1.0,0.0,8.m4v,10.0
2024-02-28 14:00:41.428357,1709125241.4283566,-21.484375,-18.06640625,-34.1796875,-44.43359375,-1.0,1.0,-1.0,0.0,8.m4v,10.0
2024-02-28 14:00:41.432267,1709125241.4322674,-21.484375,-13.18359375,-38.0859375,-38.57421875,-1.0,1.0,-1.0,0.0,8.m4v,10.0
2024-02-28 14:00:41.436173,1709125241.436173,-27.83203125,-24.90234375,-39.0625,-36.62109375,-1.0,1.0,-1.0,0.0,8.m4v,10.0
2024-02-28 14:00:41.440078,1709125241.4400785,-28.80859375,-27.34375,-40.52734375,-35.15625,-1.0,1.0,-1.0,0.0,8.m4v,10.0
2024-02-28 14:00:41.443984,1709125241.4439838,-26.85546875,-30.2734375,-43.9453125,-35.15625,-1.0,1.0,-1.0,0.0,8.m4v,10.0
2024-02-28 14:00:41.447889,1709125241.447889,-34.66796875,-41.50390625,-39.55078125,-44.921875,-1.0,1.0,-1.0,0.0,8.m4v,10.0
2024-02-28 14:00:41.451795,1709125241.4517949,-31.25,-22.94921875,-32.2265625,-50.29296875,-1.0,1.0,-1.0,0.0,8.m4v,10.0
2024-02-28 14:00:41.455700,1709125241.4557004,-20.01953125,-17.578125,-29.78515625,-33.203125,-1.0,1.0,-1.0,0.0,8.m4v,10.0
2024-02-28 14:00:41.459606,1709125241.459606,-12.6953125,-23.4375,-33.203125,-17.08984375,-1.0,1.0,-1.0,0.0,8.m4v,10.0
2024-02-28 14:00:41.463511,1709125241.4635112,-27.83203125,-29.296875,-43.9453125,-24.4140625,-1.0,1.0,-1.0,0.0,8.m4v,10.0
2024-02-28 14:00:41.467417,1709125241.4674168,-46.38671875,-41.50390625,-42.96875,-35.64453125,-1.0,1.0,-1.0,0.0,8.m4v,10.0
2024-02-28 14:00:41.471322,1709125241.4713223,-36.1328125,-44.921875,-34.66796875,-42.96875,-1.0,1.0,-1.0,0.0,8.m4v,10.0
2024-02-28 14:00:41.475228,1709125241.4752278,-26.85546875,-36.62109375,-31.73828125,-44.921875,-1.0,1.0,-1.0,0.0,8.m4v,10.0
2024-02-28 14:00:41.479139,1709125241.479139,-24.90234375,-31.25,-32.2265625,-41.015625,-1.0,1.0,-1.0,0.0,8.m4v,10.0
2024-02-28 14:00:41.483045,1709125241.4830446,-26.85546875,-30.76171875,-32.71484375,-37.59765625,-1.0,1.0,-1.0,0.0,8.m4v,10.0
2024-02-28 14:00:41.486950,1709125241.48695,-25.87890625,-21.484375,-28.3203125,-39.0625,-1.0,1.0,-1.0,0.0,8.m4v,10.0
2024-02-28 14:00:41.490855,1709125241.4908557,-16.6015625,-21.484375,-31.73828125,-32.2265625,-1.0,1.0,-1.0,0.0,8.m4v,10.0
2024-02-28 14:00:41.494761,1709125241.494761,-17.578125,-29.78515625,-34.1796875,-26.3671875,-1.0,1.0,-1.0,0.0,8.m4v,10.0
2024-02-28 14:00:41.498667,1709125241.4986663,-33.69140625,-22.94921875,-23.92578125,-38.57421875,-1.0,1.0,-1.0,0.0,8.m4v,10.0
2024-02-28 14:00:41.502572,1709125241.502572,-54.19921875,-35.15625,-27.83203125,-55.6640625,-1.0,1.0,-1.0,0.0,8.m4v,10.0
2024-02-28 14:00:41.506478,1709125241.5064776,-60.05859375,-38.0859375,-38.57421875,-57.12890625,-1.0,1.0,-1.0,0.0,8.m4v,10.0
2024-02-28 14:00:41.510383,1709125241.510383,-49.31640625,-35.15625,-35.15625,-49.31640625,-1.0,1.0,-1.0,0.0,8.m4v,10.0
2024-02-28 14:00:41.514288,1709125241.5142884,-52.24609375,-34.66796875,-31.25,-60.546875,-1.0,1.0,-1.0,0.0,8.m4v,10.0
2024-02-28 14:00:41.518194,1709125241.518194,-59.5703125,-36.62109375,-36.62109375,-67.3828125,-1.0,1.0,-1.0,0.0,8.m4v,10.0
2024-02-28 14:00:41.522099,1709125241.5220995,-42.96875,-48.828125,-41.015625,-53.22265625,-1.0,1.0,-1.0,0.0,8.m4v,10.0
2024-02-28 14:00:41.526011,1709125241.5260112,-25.87890625,-38.0859375,-35.64453125,-45.8984375,-1.0,1.0,-1.0,0.0,8.m4v,10.0
2024-02-28 14:00:41.529917,1709125241.5299168,-29.78515625,-24.90234375,-27.34375,-43.9453125,-1.0,1.0,-1.0,0.0,8.m4v,10.0
2024-02-28 14:00:41.533822,1709125241.5338223,-39.55078125,-21.97265625,-29.78515625,-41.50390625,-1.0,1.0,-1.0,0.0,8.m4v,10.0
2024-02-28 14:00:41.537728,1709125241.5377276,-45.41015625,-14.16015625,-32.2265625,-37.59765625,-1.0,1.0,-1.0,0.0,8.m4v,10.0
2024-02-28 14:00:41.541633,1709125241.5416331,-49.8046875,-23.4375,-37.59765625,-40.52734375,-1.0,1.0,-1.0,0.0,8.m4v,10.0
2024-02-28 14:00:41.545539,1709125241.545539,-50.78125,-26.85546875,-37.59765625,-38.0859375,-1.0,1.0,-1.0,0.0,8.m4v,10.0
2024-02-28 14:00:41.549444,1709125241.5494442,-47.8515625,-27.34375,-40.0390625,-38.0859375,-1.0,1.0,-1.0,0.0,8.m4v,10.0
2024-02-28 14:00:41.553350,1709125241.5533495,-52.24609375,-39.55078125,-38.57421875,-43.45703125,-1.0,1.0,-1.0,0.0,8.m4v,10.0
2024-02-28 14:00:41.557255,1709125241.557255,-51.26953125,-35.15625,-34.1796875,-42.48046875,-1.0,1.0,-1.0,0.0,8.m4v,10.0
2024-02-28 14:00:41.561161,1709125241.5611606,-47.8515625,-31.73828125,-32.2265625,-45.8984375,-1.0,1.0,-1.0,0.0,8.m4v,10.0
2024-02-28 14:00:41.565066,1709125241.565066,-36.62109375,-33.69140625,-33.69140625,-41.9921875,-1.0,1.0,-1.0,0.0,8.m4v,10.0
2024-02-28 14:00:41.568972,1709125241.5689716,-35.64453125,-41.9921875,-38.57421875,-43.9453125,-1.0,1.0,-1.0,0.0,8.m4v,10.0
2024-02-28 14:00:41.572882,1709125241.572882,-46.38671875,-42.96875,-34.1796875,-50.78125,-1.0,1.0,-1.0,0.0,8.m4v,10.0
2024-02-28 14:00:41.576787,1709125241.5767877,-44.43359375,-20.99609375,-33.69140625,-43.45703125,-1.0,1.0,-1.0,0.0,8.m4v,10.0
2024-02-28 14:00:41.580693,1709125241.580693,-40.0390625,-24.4140625,-41.9921875,-28.80859375,-1.0,1.0,-1.0,0.0,8.m4v,10.0
2024-02-28 14:00:41.584599,1709125241.5845983,-41.015625,-40.0390625,-42.96875,-28.3203125,-1.0,1.0,-1.0,0.0,8.m4v,10.0
2024-02-28 14:00:41.588504,1709125241.588504,-39.55078125,-31.73828125,-33.69140625,-31.73828125,-1.0,1.0,-1.0,0.0,8.m4v,10.0
2024-02-28 14:00:41.592409,1709125241.5924094,-40.0390625,-23.92578125,-29.78515625,-27.34375,-1.0,1.0,-1.0,0.0,8.m4v,10.0
2024-02-28 14:00:41.596315,1709125241.596315,-47.8515625,-24.4140625,-43.9453125,-42.48046875,-1.0,1.0,-1.0,0.0,8.m4v,10.0
2024-02-28 14:00:41.600220,1709125241.6002204,-53.7109375,-28.3203125,-48.828125,-62.5,-1.0,1.0,-1.0,0.0,8.m4v,10.0
2024-02-28 14:00:41.604126,1709125241.604126,-45.8984375,-34.1796875,-36.62109375,-56.640625,-1.0,1.0,-1.0,0.0,8.m4v,10.0
2024-02-28 14:00:41.608032,1709125241.6080315,-41.015625,-36.1328125,-31.25,-48.828125,-1.0,1.0,-1.0,0.0,8.m4v,10.0
2024-02-28 14:00:41.635375,1709125241.6353743,-24.4140625,-36.1328125,-31.25,-23.92578125,-1.0,1.0,-1.0,0.0,8.m4v,10.0
2024-02-28 14:00:41.639280,1709125241.63928,-26.3671875,-38.57421875,-27.83203125,-23.92578125,-1.0,1.0,-1.0,0.0,8.m4v,10.0
2024-02-28 14:00:41.721304,1709125241.7213042,-29.296875,-37.59765625,-41.9921875,-32.2265625,-1.0,1.0,-1.0,0.0,8.m4v,10.0
2024-02-28 14:00:41.725210,1709125241.7252097,-33.203125,-46.38671875,-26.3671875,-38.0859375,-1.0,1.0,-1.0,0.0,8.m4v,10.0
2024-02-28 14:00:41.729115,1709125241.729115,-26.85546875,-33.203125,-23.92578125,-34.66796875,-1.0,1.0,-1.0,0.0,8.m4v,10.0
2024-02-28 14:00:41.733021,1709125241.7330203,-36.1328125,-23.4375,-34.66796875,-37.59765625,-1.0,1.0,-1.0,0.0,8.m4v,10.0
2024-02-28 14:00:41.736926,1709125241.736926,-39.55078125,-35.15625,-28.3203125,-37.109375,-1.0,1.0,-1.0,0.0,8.m4v,10.0
2024-02-28 14:00:41.740832,1709125241.7408316,-32.2265625,-40.0390625,-22.4609375,-35.64453125,-1.0,1.0,-1.0,0.0,8.m4v,10.0
2024-02-28 14:00:41.748642,1709125241.7486424,-34.66796875,-37.109375,-40.52734375,-44.43359375,-1.0,1.0,-1.0,0.0,8.m4v,10.0
2024-02-28 14:00:41.756454,1709125241.7564535,-18.5546875,-22.4609375,-42.96875,-29.78515625,-1.0,1.0,-1.0,0.0,8.m4v,10.0
2024-02-28 14:00:41.764270,1709125241.76427,-35.64453125,-37.109375,-39.0625,-47.36328125,-1.0,1.0,-1.0,0.0,8.m4v,10.0
2024-02-28 14:00:41.772081,1709125241.7720811,-25.390625,-21.97265625,-31.73828125,-38.0859375,-1.0,1.0,-1.0,0.0,8.m4v,10.0
2024-02-28 14:00:41.779892,1709125241.779892,-40.0390625,-28.80859375,-28.80859375,-43.45703125,-1.0,1.0,-1.0,0.0,8.m4v,10.0
2024-02-28 14:00:41.787703,1709125241.787703,-43.45703125,-40.0390625,-38.0859375,-40.52734375,-1.0,1.0,-1.0,0.0,8.m4v,10.0
2024-02-28 14:00:41.795514,1709125241.795514,-41.50390625,-37.59765625,-43.45703125,-51.26953125,-1.0,1.0,-1.0,0.0,8.m4v,10.0
2024-02-28 14:00:41.799419,1709125241.7994194,-39.0625,-34.1796875,-41.9921875,-47.36328125,-1.0,1.0,-1.0,0.0,8.m4v,10.0
2024-02-28 14:00:41.803325,1709125241.803325,-43.9453125,-33.203125,-35.64453125,-44.43359375,-1.0,1.0,-1.0,0.0,8.m4v,10.0
2024-02-28 14:00:41.807236,1709125241.807236,-41.50390625,-31.73828125,-33.69140625,-43.45703125,-1.0,1.0,-1.0,0.0,8.m4v,10.0
2024-02-28 14:00:41.811141,1709125241.8111415,-44.43359375,-32.2265625,-30.2734375,-49.31640625,-1.0,1.0,-1.0,0.0,8.m4v,10.0
2024-02-28 14:00:41.815047,1709125241.8150468,-42.48046875,-27.83203125,-27.83203125,-57.12890625,-1.0,1.0,-1.0,0.0,8.m4v,10.0
2024-02-28 14:00:41.818952,1709125241.8189523,-38.57421875,-30.2734375,-18.5546875,-50.78125,-1.0,1.0,-1.0,0.0,8.m4v,10.0
2024-02-28 14:00:41.822858,1709125241.822858,-49.8046875,-38.0859375,-22.94921875,-58.10546875,-1.0,1.0,-1.0,0.0,8.m4v,10.0
2024-02-28 14:00:41.826763,1709125241.8267634,-56.640625,-38.57421875,-32.2265625,-71.77734375,-1.0,1.0,-1.0,0.0,8.m4v,10.0
2024-02-28 14:00:41.830669,1709125241.830669,-60.546875,-36.62109375,-30.2734375,-77.63671875,-1.0,1.0,-1.0,0.0,8.m4v,10.0
2024-02-28 14:00:41.834574,1709125241.8345742,-73.73046875,-33.69140625,-25.390625,-80.078125,-1.0,1.0,-1.0,0.0,8.m4v,10.0
2024-02-28 14:00:41.838480,1709125241.8384798,-108.88671875,-42.48046875,-29.78515625,-96.19140625,-1.0,1.0,-1.0,0.0,8.m4v,10.0
2024-02-28 14:00:41.842385,1709125241.8423853,-128.41796875,-57.12890625,-30.76171875,-116.69921875,-1.0,1.0,-1.0,0.0,8.m4v,10.0
2024-02-28 14:00:41.846291,1709125241.8462908,-123.046875,-50.78125,-24.4140625,-130.859375,-1.0,1.0,-1.0,0.0,8.m4v,10.0
2024-02-28 14:00:41.850196,1709125241.8501964,-133.7890625,-40.52734375,-30.76171875,-139.16015625,-1.0,1.0,-1.0,0.0,8.m4v,10.0
2024-02-28 14:00:41.854107,1709125241.854107,-145.5078125,-45.41015625,-24.4140625,-140.625,-1.0,1.0,-1.0,0.0,8.m4v,10.0
2024-02-28 14:00:41.858012,1709125241.8580124,-153.80859375,-49.31640625,-15.13671875,-146.97265625,-1.0,1.0,-1.0,0.0,8.m4v,10.0
2024-02-28 14:00:41.861918,1709125241.861918,-157.71484375,-49.8046875,-21.484375,-150.390625,-1.0,1.0,-1.0,0.0,8.m4v,10.0
2024-02-28 14:00:41.865823,1709125241.8658233,-163.57421875,-56.640625,-32.71484375,-158.69140625,-1.0,1.0,-1.0,0.0,8.m4v,10.0
2024-02-28 14:00:41.869729,1709125241.8697288,-165.52734375,-61.03515625,-34.1796875,-165.52734375,-1.0,1.0,-1.0,0.0,8.m4v,10.0
2024-02-28 14:00:41.873634,1709125241.8736343,-150.87890625,-38.57421875,-38.57421875,-155.76171875,-1.0,1.0,-1.0,0.0,8.m4v,10.0
2024-02-28 14:00:41.877540,1709125241.87754,-136.23046875,-34.66796875,-44.43359375,-152.34375,-1.0,1.0,-1.0,0.0,8.m4v,10.0
2024-02-28 14:00:41.881445,1709125241.8814454,-132.32421875,-30.76171875,-24.4140625,-148.92578125,-1.0,1.0,-1.0,0.0,8.m4v,10.0
2024-02-28 14:00:41.885351,1709125241.885351,-135.7421875,-31.73828125,-11.71875,-145.01953125,-1.0,1.0,-1.0,0.0,8.m4v,10.0
2024-02-28 14:00:41.889256,1709125241.8892562,-130.859375,-39.55078125,-27.83203125,-135.7421875,-1.0,1.0,-1.0,0.0,8.m4v,10.0
2024-02-28 14:00:41.893162,1709125241.8931618,-118.65234375,-32.2265625,-29.78515625,-127.44140625,-1.0,1.0,-1.0,0.0,8.m4v,10.0
2024-02-28 14:00:41.897067,1709125241.8970673,-104.00390625,-33.69140625,-28.80859375,-110.3515625,-1.0,1.0,-1.0,0.0,8.m4v,10.0
2024-02-28 14:00:41.900978,1709125241.9009778,-85.44921875,-33.69140625,-40.0390625,-86.42578125,-1.0,1.0,-1.0,0.0,8.m4v,10.0
2024-02-28 14:00:41.904883,1709125241.9048831,-73.2421875,-40.52734375,-34.66796875,-75.68359375,-1.0,1.0,-1.0,0.0,8.m4v,10.0
2024-02-28 14:00:41.908789,1709125241.9087887,-68.84765625,-38.57421875,-28.3203125,-67.87109375,-1.0,1.0,-1.0,0.0,8.m4v,10.0
2024-02-28 14:00:41.912694,1709125241.9126942,-53.22265625,-37.59765625,-26.85546875,-60.05859375,-1.0,1.0,-1.0,0.0,8.m4v,10.0
2024-02-28 14:00:41.916600,1709125241.9165998,-43.9453125,-39.0625,-34.1796875,-60.05859375,-1.0,1.0,-1.0,0.0,8.m4v,10.0
2024-02-28 14:00:41.920505,1709125241.9205053,-34.1796875,-36.1328125,-30.2734375,-41.015625,-1.0,1.0,-1.0,0.0,8.m4v,10.0
2024-02-28 14:00:41.924411,1709125241.9244106,-19.53125,-42.96875,-30.2734375,-31.25,-1.0,1.0,-1.0,0.0,8.m4v,10.0
2024-02-28 14:00:41.928316,1709125241.928316,-19.04296875,-33.203125,-45.41015625,-42.48046875,-1.0,1.0,-1.0,0.0,8.m4v,10.0
2024-02-28 14:00:41.932222,1709125241.9322217,-14.16015625,-29.296875,-43.45703125,-37.59765625,-1.0,1.0,-1.0,0.0,8.m4v,10.0
2024-02-28 14:00:41.936127,1709125241.9361272,-8.7890625,-39.0625,-37.59765625,-18.06640625,-1.0,1.0,-1.0,0.0,8.m4v,10.0
2024-02-28 14:00:41.940033,1709125241.9400327,-6.34765625,-38.0859375,-32.2265625,-3.90625,-1.0,1.0,-1.0,0.0,8.m4v,10.0
2024-02-28 14:00:41.943938,1709125241.9439385,-1.953125,-24.90234375,-33.69140625,-5.859375,-1.0,1.0,-1.0,0.0,8.m4v,10.0
2024-02-28 14:00:41.947849,1709125241.9478486,4.8828125,-19.04296875,-51.7578125,-13.18359375,-1.0,1.0,-1.0,0.0,8.m4v,10.0
2024-02-28 14:00:41.951754,1709125241.951754,1.953125,-28.80859375,-47.8515625,-10.7421875,-1.0,1.0,-1.0,0.0,8.m4v,10.0
2024-02-28 14:00:41.955659,1709125241.9556594,-4.8828125,-31.25,-41.50390625,-7.8125,-1.0,1.0,-1.0,0.0,8.m4v,10.0
2024-02-28 14:00:41.959565,1709125241.959565,8.7890625,-22.94921875,-55.6640625,4.39453125,-1.0,1.0,-1.0,0.0,8.m4v,10.0
2024-02-28 14:00:41.963470,1709125241.9634705,24.4140625,-20.5078125,-43.45703125,15.625,-1.0,1.0,-1.0,0.0,8.m4v,10.0
2024-02-28 14:00:41.967376,1709125241.967376,22.94921875,-27.83203125,-25.87890625,20.99609375,-1.0,1.0,-1.0,0.0,8.m4v,10.0
2024-02-28 14:00:41.971282,1709125241.9712815,20.99609375,-43.45703125,-24.90234375,18.5546875,-1.0,1.0,-1.0,0.0,8.m4v,10.0
2024-02-28 14:00:41.975187,1709125241.975187,21.484375,-34.1796875,-28.80859375,9.765625,-1.0,1.0,-1.0,0.0,8.m4v,10.0
2024-02-28 14:00:41.979092,1709125241.9790924,18.5546875,-26.3671875,-29.296875,8.7890625,-1.0,1.0,-1.0,0.0,8.m4v,10.0
2024-02-28 14:00:41.982998,1709125241.982998,13.671875,-36.1328125,-30.76171875,11.23046875,-1.0,1.0,-1.0,0.0,8.m4v,10.0
2024-02-28 14:00:41.986903,1709125241.9869034,5.859375,-17.578125,-39.55078125,8.7890625,-1.0,1.0,-1.0,0.0,8.m4v,10.0
2024-02-28 14:00:41.990809,1709125241.990809,-0.48828125,-16.6015625,-42.96875,2.9296875,-1.0,1.0,-1.0,0.0,8.m4v,10.0
2024-02-28 14:00:41.994719,1709125241.9947193,4.39453125,-21.484375,-43.9453125,0.9765625,-1.0,1.0,-1.0,0.0,8.m4v,10.0
2024-02-28 14:00:41.998625,1709125241.9986246,8.30078125,-20.99609375,-41.9921875,9.27734375,-1.0,1.0,-1.0,0.0,8.m4v,10.0
2024-02-28 14:00:42.002530,1709125242.00253,8.30078125,-27.34375,-39.55078125,10.25390625,-1.0,1.0,-1.0,0.0,8.m4v,10.0
2024-02-28 14:00:42.006436,1709125242.0064356,0.9765625,-34.66796875,-45.8984375,1.46484375,-1.0,1.0,-1.0,0.0,8.m4v,10.0
2024-02-28 14:00:42.010341,1709125242.0103412,-6.34765625,-36.62109375,-43.9453125,-5.37109375,-1.0,1.0,-1.0,0.0,8.m4v,10.0
2024-02-28 14:00:42.014247,1709125242.0142467,-4.39453125,-37.109375,-39.0625,-7.32421875,-1.0,1.0,-1.0,0.0,8.m4v,10.0
2024-02-28 14:00:42.018152,1709125242.0181522,-1.953125,-38.57421875,-38.0859375,4.39453125,-1.0,1.0,-1.0,0.0,8.m4v,10.0
2024-02-28 14:00:42.022058,1709125242.0220575,1.46484375,-39.55078125,-29.78515625,3.90625,-1.0,1.0,-1.0,0.0,8.m4v,10.0
2024-02-28 14:00:42.025963,1709125242.025963,7.32421875,-38.57421875,-24.4140625,-0.48828125,-1.0,1.0,-1.0,0.0,8.m4v,10.0
2024-02-28 14:00:42.029869,1709125242.0298686,3.41796875,-25.87890625,-28.3203125,2.9296875,-1.0,1.0,-1.0,0.0,8.m4v,10.0
2024-02-28 14:00:42.033774,1709125242.033774,5.37109375,-22.4609375,-38.0859375,4.8828125,-1.0,1.0,-1.0,0.0,8.m4v,10.0
2024-02-28 14:00:42.037680,1709125242.0376797,5.37109375,-20.99609375,-41.015625,1.46484375,-1.0,1.0,-1.0,0.0,8.m4v,10.0
2024-02-28 14:00:42.041589,1709125242.0415895,-10.25390625,-27.34375,-47.36328125,-8.30078125,-1.0,1.0,-1.0,0.0,8.m4v,10.0
2024-02-28 14:00:42.045495,1709125242.045495,-18.06640625,-47.36328125,-51.26953125,-12.6953125,-1.0,1.0,-1.0,0.0,8.m4v,10.0
2024-02-28 14:00:42.049401,1709125242.0494006,-4.8828125,-37.59765625,-41.50390625,-5.859375,-1.0,1.0,-1.0,0.0,8.m4v,10.0
2024-02-28 14:00:42.053306,1709125242.053306,16.6015625,-24.90234375,-38.0859375,-1.46484375,-1.0,1.0,-1.0,0.0,8.m4v,10.0
2024-02-28 14:00:42.057211,1709125242.0572114,18.06640625,-31.25,-35.15625,-6.8359375,-1.0,1.0,-1.0,0.0,8.m4v,10.0
2024-02-28 14:00:42.061117,1709125242.061117,0.48828125,-27.83203125,-23.92578125,-16.11328125,-1.0,1.0,-1.0,0.0,8.m4v,10.0
2024-02-28 14:00:42.065022,1709125242.0650225,-7.8125,-23.92578125,-28.3203125,-17.08984375,-1.0,1.0,-1.0,0.0,8.m4v,10.0
2024-02-28 14:00:42.068928,1709125242.068928,-3.90625,-20.01953125,-37.59765625,-17.578125,-1.0,1.0,-1.0,0.0,8.m4v,10.0
2024-02-28 14:00:42.072834,1709125242.0728335,-1.953125,-19.04296875,-34.1796875,-15.13671875,-1.0,1.0,-1.0,0.0,8.m4v,10.0
2024-02-28 14:00:42.076739,1709125242.0767388,4.39453125,-21.484375,-28.80859375,-3.41796875,-1.0,1.0,-1.0,0.0,8.m4v,10.0
2024-02-28 14:00:42.080644,1709125242.0806444,5.859375,-32.2265625,-29.78515625,1.46484375,-1.0,1.0,-1.0,0.0,8.m4v,10.0
2024-02-28 14:00:42.084550,1709125242.08455,-1.953125,-48.33984375,-36.1328125,-11.71875,-1.0,1.0,-1.0,0.0,8.m4v,10.0
2024-02-28 14:00:42.088460,1709125242.0884595,-8.30078125,-39.55078125,-36.1328125,-19.04296875,-1.0,1.0,-1.0,0.0,8.m4v,10.0
2024-02-28 14:00:42.092365,1709125242.0923653,-3.90625,-26.85546875,-37.59765625,-14.16015625,-1.0,1.0,-1.0,0.0,8.m4v,10.0
2024-02-28 14:00:42.096271,1709125242.0962706,0.48828125,-35.64453125,-33.69140625,-13.18359375,-1.0,1.0,-1.0,0.0,8.m4v,10.0
2024-02-28 14:00:42.100176,1709125242.100176,-1.953125,-29.78515625,-34.66796875,-17.578125,-1.0,1.0,-1.0,0.0,8.m4v,10.0
2024-02-28 14:00:42.104082,1709125242.1040816,-0.9765625,-22.4609375,-41.9921875,-17.08984375,-1.0,1.0,-1.0,0.0,8.m4v,10.0
2024-02-28 14:00:42.107987,1709125242.1079872,-12.20703125,-28.3203125,-43.9453125,-19.04296875,-1.0,1.0,-1.0,0.0,8.m4v,10.0
2024-02-28 14:00:42.111893,1709125242.1118927,-21.484375,-38.57421875,-33.69140625,-19.53125,-1.0,1.0,-1.0,0.0,8.m4v,10.0
2024-02-28 14:00:42.115798,1709125242.115798,-16.11328125,-27.83203125,-18.5546875,-17.08984375,-1.0,1.0,-1.0,0.0,8.m4v,10.0
2024-02-28 14:00:42.119704,1709125242.1197035,-20.01953125,-19.04296875,-21.97265625,-18.5546875,-1.0,1.0,-1.0,0.0,8.m4v,10.0
2024-02-28 14:00:42.123609,1709125242.123609,-27.34375,-32.2265625,-39.55078125,-17.08984375,-1.0,1.0,-1.0,0.0,8.m4v,10.0
2024-02-28 14:00:42.127515,1709125242.1275146,-18.5546875,-37.59765625,-34.66796875,-19.53125,-1.0,1.0,-1.0,0.0,8.m4v,10.0
2024-02-28 14:00:42.131420,1709125242.13142,-10.7421875,-37.109375,-24.90234375,-11.71875,-1.0,1.0,-1.0,0.0,8.m4v,10.0
2024-02-28 14:00:42.135331,1709125242.135331,-14.6484375,-40.0390625,-38.57421875,-8.30078125,-1.0,1.0,-1.0,0.0,8.m4v,10.0
2024-02-28 14:00:42.139236,1709125242.1392365,-16.11328125,-31.25,-42.48046875,-10.7421875,-1.0,1.0,-1.0,0.0,8.m4v,10.0
2024-02-28 14:00:42.143142,1709125242.143142,-6.8359375,-25.87890625,-36.1328125,-12.20703125,-1.0,1.0,-1.0,0.0,8.m4v,10.0
2024-02-28 14:00:42.147048,1709125242.1470475,4.39453125,-21.484375,-42.96875,-16.11328125,-1.0,1.0,-1.0,0.0,8.m4v,10.0
2024-02-28 14:00:42.150953,1709125242.150953,0.9765625,-23.92578125,-44.921875,-20.5078125,-1.0,1.0,-1.0,0.0,8.m4v,10.0
2024-02-28 14:00:42.154858,1709125242.1548584,-16.11328125,-31.73828125,-35.64453125,-26.85546875,-1.0,1.0,-1.0,0.0,8.m4v,10.0
2024-02-28 14:00:42.190013,1709125242.1900132,-12.6953125,-33.69140625,-34.1796875,-26.85546875,-1.0,1.0,-1.0,0.0,8.m4v,10.0
2024-02-28 14:00:42.193919,1709125242.1939187,-16.6015625,-45.41015625,-40.52734375,-35.64453125,-1.0,1.0,-1.0,0.0,8.m4v,10.0
2024-02-28 14:00:42.197824,1709125242.1978242,-33.203125,-39.0625,-41.9921875,-40.0390625,-1.0,1.0,-1.0,0.0,8.m4v,10.0
2024-02-28 14:00:42.201730,1709125242.2017298,-37.59765625,-29.78515625,-36.1328125,-34.1796875,-1.0,1.0,-1.0,0.0,8.m4v,10.0
2024-02-28 14:00:42.205635,1709125242.2056353,-40.52734375,-42.96875,-29.296875,-38.0859375,-1.0,1.0,-1.0,0.0,8.m4v,10.0
2024-02-28 14:00:42.209541,1709125242.2095406,-51.7578125,-41.015625,-25.87890625,-45.8984375,-1.0,1.0,-1.0,0.0,8.m4v,10.0
2024-02-28 14:00:42.213446,1709125242.213446,-57.12890625,-29.78515625,-33.69140625,-41.015625,-1.0,1.0,-1.0,0.0,8.m4v,10.0
2024-02-28 14:00:42.217352,1709125242.2173517,-54.6875,-16.11328125,-40.0390625,-31.73828125,-1.0,1.0,-1.0,0.0,8.m4v,10.0
2024-02-28 14:00:42.221257,1709125242.2212572,-45.8984375,-19.53125,-34.1796875,-32.71484375,-1.0,1.0,-1.0,0.0,8.m4v,10.0
2024-02-28 14:00:42.225163,1709125242.2251627,-32.71484375,-26.85546875,-31.25,-29.78515625,-1.0,1.0,-1.0,0.0,8.m4v,10.0
2024-02-28 14:00:42.229074,1709125242.2290735,-29.296875,-20.5078125,-41.015625,-26.85546875,-1.0,1.0,-1.0,0.0,8.m4v,10.0
2024-02-28 14:00:42.232979,1709125242.2329788,-32.71484375,-36.62109375,-38.57421875,-29.78515625,-1.0,1.0,-1.0,0.0,8.m4v,10.0
2024-02-28 14:00:42.236884,1709125242.2368844,-28.3203125,-51.7578125,-34.66796875,-29.296875,-1.0,1.0,-1.0,0.0,8.m4v,10.0
2024-02-28 14:00:42.240790,1709125242.24079,-31.25,-24.4140625,-46.875,-34.1796875,-1.0,1.0,-1.0,0.0,8.m4v,10.0
2024-02-28 14:00:42.244695,1709125242.2446954,-28.80859375,-18.5546875,-41.9921875,-29.78515625,-1.0,1.0,-1.0,0.0,8.m4v,10.0
2024-02-28 14:00:42.248601,1709125242.248601,-24.4140625,-33.69140625,-20.5078125,-32.2265625,-1.0,1.0,-1.0,0.0,8.m4v,10.0
2024-02-28 14:00:42.252506,1709125242.2525065,-32.2265625,-28.80859375,-19.04296875,-40.52734375,-1.0,1.0,-1.0,0.0,8.m4v,10.0
2024-02-28 14:00:42.256412,1709125242.2564118,-28.3203125,-27.83203125,-33.203125,-33.69140625,-1.0,1.0,-1.0,0.0,8.m4v,10.0
2024-02-28 14:00:42.260317,1709125242.260317,-28.80859375,-30.2734375,-41.9921875,-32.71484375,-1.0,1.0,-1.0,0.0,8.m4v,10.0
2024-02-28 14:00:42.264223,1709125242.2642229,-28.3203125,-29.78515625,-37.109375,-39.0625,-1.0,1.0,-1.0,0.0,8.m4v,10.0
2024-02-28 14:00:42.268128,1709125242.2681284,-20.01953125,-24.90234375,-34.1796875,-32.2265625,-1.0,1.0,-1.0,0.0,8.m4v,10.0
2024-02-28 14:00:42.272034,1709125242.272034,-23.4375,-26.85546875,-34.1796875,-28.80859375,-1.0,1.0,-1.0,0.0,8.m4v,10.0
2024-02-28 14:00:42.275944,1709125242.2759442,-32.71484375,-35.64453125,-32.2265625,-41.015625,-1.0,1.0,-1.0,0.0,8.m4v,10.0
2024-02-28 14:00:42.279850,1709125242.2798498,-27.34375,-34.1796875,-29.296875,-32.2265625,-1.0,1.0,-1.0,0.0,8.m4v,10.0
2024-02-28 14:00:42.283755,1709125242.2837553,-23.92578125,-32.71484375,-25.87890625,-26.85546875,-1.0,1.0,-1.0,0.0,8.m4v,10.0
2024-02-28 14:00:42.287661,1709125242.2876608,-26.3671875,-32.2265625,-25.87890625,-29.78515625,-1.0,1.0,-1.0,0.0,8.m4v,10.0
2024-02-28 14:00:42.291566,1709125242.291566,-13.18359375,-27.83203125,-36.62109375,-14.16015625,-1.0,1.0,-1.0,0.0,8.m4v,10.0
2024-02-28 14:00:42.295472,1709125242.2954717,-17.08984375,-31.73828125,-44.43359375,-14.16015625,-1.0,1.0,-1.0,0.0,8.m4v,10.0
2024-02-28 14:00:42.299377,1709125242.2993772,-32.71484375,-30.76171875,-40.52734375,-22.94921875,-1.0,1.0,-1.0,0.0,8.m4v,10.0
2024-02-28 14:00:42.303283,1709125242.3032827,-28.3203125,-34.1796875,-31.25,-22.4609375,-1.0,1.0,-1.0,0.0,8.m4v,10.0
2024-02-28 14:00:42.307188,1709125242.3071885,-23.4375,-34.1796875,-22.94921875,-25.390625,-1.0,1.0,-1.0,0.0,8.m4v,10.0
2024-02-28 14:00:42.311094,1709125242.3110936,-25.390625,-26.3671875,-27.83203125,-28.3203125,-1.0,1.0,-1.0,0.0,8.m4v,10.0
2024-02-28 14:00:42.314999,1709125242.314999,-40.52734375,-28.80859375,-33.203125,-43.9453125,-1.0,1.0,-1.0,0.0,8.m4v,10.0
2024-02-28 14:00:42.318905,1709125242.3189046,-36.62109375,-28.80859375,-22.4609375,-36.62109375,-1.0,1.0,-1.0,0.0,8.m4v,10.0
2024-02-28 14:00:42.322815,1709125242.322815,-28.80859375,-37.109375,-27.83203125,-28.3203125,-1.0,1.0,-1.0,0.0,8.m4v,10.0
2024-02-28 14:00:42.326720,1709125242.3267205,-35.64453125,-33.203125,-42.48046875,-42.96875,-1.0,1.0,-1.0,0.0,8.m4v,10.0
2024-02-28 14:00:42.510298,1709125242.5102975,-36.62109375,-58.59375,-29.296875,-41.015625,-1.0,1.0,-1.0,0.0,8.m4v,10.0
2024-02-28 14:00:42.514203,1709125242.514203,-35.15625,-56.15234375,-28.3203125,-31.25,-1.0,1.0,-1.0,0.0,8.m4v,10.0
2024-02-28 14:00:42.518109,1709125242.5181086,-41.50390625,-40.0390625,-34.66796875,-32.71484375,-1.0,1.0,-1.0,0.0,8.m4v,10.0
2024-02-28 14:00:42.522014,1709125242.522014,-43.9453125,-16.6015625,-41.015625,-43.45703125,-1.0,1.0,-1.0,0.0,8.m4v,10.0
2024-02-28 14:00:42.525919,1709125242.5259194,-37.59765625,-16.11328125,-36.1328125,-40.52734375,-1.0,1.0,-1.0,0.0,8.m4v,10.0
2024-02-28 14:00:42.529825,1709125242.529825,-40.52734375,-27.34375,-33.69140625,-38.0859375,-1.0,1.0,-1.0,0.0,8.m4v,10.0
2024-02-28 14:00:42.533731,1709125242.5337305,-41.015625,-26.3671875,-40.52734375,-41.9921875,-1.0,1.0,-1.0,0.0,8.m4v,10.0
2024-02-28 14:00:42.537636,1709125242.537636,-31.73828125,-29.78515625,-41.015625,-39.55078125,-1.0,1.0,-1.0,0.0,8.m4v,10.0
2024-02-28 14:00:42.541542,1709125242.5415416,-25.87890625,-25.87890625,-40.52734375,-39.0625,-1.0,1.0,-1.0,0.0,8.m4v,10.0
2024-02-28 14:00:42.545447,1709125242.545447,-31.73828125,-17.578125,-35.64453125,-34.66796875,-1.0,1.0,-1.0,0.0,8.m4v,10.0
2024-02-28 14:00:42.549352,1709125242.5493524,-27.83203125,-37.59765625,-34.66796875,-29.78515625,-1.0,1.0,-1.0,0.0,8.m4v,10.0
2024-02-28 14:00:42.553258,1709125242.553258,-19.04296875,-39.55078125,-33.69140625,-35.15625,-1.0,1.0,-1.0,0.0,8.m4v,10.0
2024-02-28 14:00:42.557169,1709125242.5571687,-21.97265625,-21.484375,-24.4140625,-41.015625,-1.0,1.0,-1.0,0.0,8.m4v,10.0
2024-02-28 14:00:42.561074,1709125242.5610745,-31.25,-22.94921875,-26.3671875,-43.9453125,-1.0,1.0,-1.0,0.0,8.m4v,10.0
2024-02-28 14:00:42.564980,1709125242.5649798,-35.15625,-33.203125,-25.390625,-47.36328125,-1.0,1.0,-1.0,0.0,8.m4v,10.0
2024-02-28 14:00:42.568885,1709125242.568885,-38.0859375,-46.875,-30.2734375,-52.24609375,-1.0,1.0,-1.0,0.0,8.m4v,10.0
2024-02-28 14:00:42.572791,1709125242.5727906,-43.9453125,-48.828125,-31.25,-51.7578125,-1.0,1.0,-1.0,0.0,8.m4v,10.0
2024-02-28 14:00:42.576696,1709125242.5766962,-43.45703125,-39.55078125,-32.71484375,-40.0390625,-1.0,1.0,-1.0,0.0,8.m4v,10.0
2024-02-28 14:00:42.580602,1709125242.5806017,-32.2265625,-23.4375,-47.36328125,-30.2734375,-1.0,1.0,-1.0,0.0,8.m4v,10.0
2024-02-28 14:00:42.584507,1709125242.5845072,-26.85546875,-23.4375,-49.8046875,-25.87890625,-1.0,1.0,-1.0,0.0,8.m4v,10.0
2024-02-28 14:00:42.588413,1709125242.5884128,-31.25,-30.2734375,-40.0390625,-25.390625,-1.0,1.0,-1.0,0.0,8.m4v,10.0
2024-02-28 14:00:42.979010,1709125242.97901,-1.953125,-25.87890625,-45.41015625,-30.2734375,-1.0,1.0,-1.0,0.0,8.m4v,10.0
2024-02-28 14:00:42.986821,1709125242.9868207,-5.37109375,-30.2734375,-36.62109375,-18.5546875,-1.0,1.0,-1.0,0.0,8.m4v,10.0
2024-02-28 14:00:42.994632,1709125242.9946318,-14.16015625,-23.4375,-48.33984375,-12.6953125,-1.0,1.0,-1.0,0.0,8.m4v,10.0
2024-02-28 14:00:43.002443,1709125243.0024426,-17.578125,-35.64453125,-42.96875,-13.18359375,-1.0,1.0,-1.0,0.0,8.m4v,10.0
2024-02-28 14:00:43.010254,1709125243.0102537,-28.80859375,-34.1796875,-37.59765625,-21.484375,-1.0,1.0,-1.0,0.0,8.m4v,10.0
2024-02-28 14:00:43.018065,1709125243.0180647,-28.80859375,-32.71484375,-29.296875,-21.97265625,-1.0,1.0,-1.0,0.0,8.m4v,10.0
2024-02-28 14:00:43.025881,1709125243.0258808,-32.71484375,-15.625,-29.296875,-23.92578125,-1.0,1.0,-1.0,0.0,8.m4v,10.0
2024-02-28 14:00:43.033692,1709125243.0336916,-35.64453125,-32.71484375,-31.25,-34.66796875,-1.0,1.0,-1.0,0.0,8.m4v,10.0
2024-02-28 14:00:43.041503,1709125243.0415027,-39.0625,-43.9453125,-42.48046875,-26.3671875,-1.0,1.0,-1.0,0.0,8.m4v,10.0
2024-02-28 14:00:43.049314,1709125243.0493135,-39.55078125,-34.66796875,-31.73828125,-25.390625,-1.0,1.0,-1.0,0.0,8.m4v,10.0
2024-02-28 14:00:43.057125,1709125243.0571246,-38.0859375,-34.66796875,-30.76171875,-21.484375,-1.0,1.0,-1.0,0.0,8.m4v,10.0
2024-02-28 14:00:43.064936,1709125243.0649357,-31.73828125,-20.99609375,-30.76171875,-29.296875,-1.0,1.0,-1.0,0.0,8.m4v,10.0
2024-02-28 14:00:43.072752,1709125243.0727515,-21.484375,-34.1796875,-26.85546875,-8.7890625,-1.0,1.0,-1.0,0.0,8.m4v,10.0
2024-02-28 14:00:43.080563,1709125243.0805626,-36.1328125,-43.45703125,-35.15625,-26.85546875,-1.0,1.0,-1.0,0.0,8.m4v,10.0
2024-02-28 14:00:43.088373,1709125243.0883734,-22.94921875,-30.2734375,-28.3203125,-25.390625,-1.0,1.0,-1.0,0.0,8.m4v,10.0
2024-02-28 14:00:43.096184,1709125243.0961845,-30.2734375,-26.85546875,-27.34375,-39.55078125,-1.0,1.0,-1.0,0.0,8.m4v,10.0
2024-02-28 14:00:43.103996,1709125243.1039956,-38.57421875,-31.73828125,-26.85546875,-41.50390625,-1.0,1.0,-1.0,0.0,8.m4v,10.0
2024-02-28 14:00:43.111806,1709125243.1118064,-20.99609375,-37.109375,-36.1328125,-21.484375,-1.0,1.0,-1.0,0.0,8.m4v,10.0
2024-02-28 14:00:43.119622,1709125243.119622,-14.6484375,-37.59765625,-18.5546875,-14.16015625,-1.0,1.0,-1.0,0.0,8.m4v,10.0
2024-02-28 14:00:43.127433,1709125243.127433,-19.04296875,-25.87890625,-38.0859375,-26.85546875,-1.0,1.0,-1.0,0.0,8.m4v,10.0
2024-02-28 14:00:43.174304,1709125243.1743035,-21.97265625,-27.83203125,-32.2265625,-24.4140625,-1.0,1.0,-1.0,0.0,8.m4v,10.0
2024-02-28 14:00:43.178209,1709125243.178209,-29.78515625,-34.66796875,-36.1328125,-24.4140625,-1.0,1.0,-1.0,0.0,8.m4v,10.0
2024-02-28 14:00:43.182115,1709125243.1821146,-26.85546875,-31.25,-35.64453125,-19.53125,-1.0,1.0,-1.0,0.0,8.m4v,10.0
2024-02-28 14:00:43.186020,1709125243.18602,-16.11328125,-21.484375,-35.15625,-11.23046875,-1.0,1.0,-1.0,0.0,8.m4v,10.0
2024-02-28 14:00:43.189925,1709125243.1899254,-26.85546875,-24.90234375,-37.59765625,-20.01953125,-1.0,1.0,-1.0,0.0,8.m4v,10.0
2024-02-28 14:00:43.193831,1709125243.193831,-33.203125,-32.71484375,-36.62109375,-27.34375,-1.0,1.0,-1.0,0.0,8.m4v,10.0
2024-02-28 14:00:43.197737,1709125243.1977365,-21.97265625,-26.3671875,-26.85546875,-16.11328125,-1.0,1.0,-1.0,0.0,8.m4v,10.0
2024-02-28 14:00:43.201642,1709125243.201642,-19.53125,-25.390625,-28.3203125,-14.16015625,-1.0,1.0,-1.0,0.0,8.m4v,10.0
2024-02-28 14:00:43.205548,1709125243.2055476,-26.3671875,-28.3203125,-34.1796875,-26.85546875,-1.0,1.0,-1.0,0.0,8.m4v,10.0
2024-02-28 14:00:43.209453,1709125243.2094529,-22.94921875,-37.59765625,-26.85546875,-20.5078125,-1.0,1.0,-1.0,0.0,8.m4v,10.0
2024-02-28 14:00:43.213363,1709125243.213363,-15.13671875,-42.96875,-24.4140625,-12.6953125,-1.0,1.0,-1.0,0.0,8.m4v,10.0
2024-02-28 14:00:43.217268,1709125243.2172682,-11.71875,-24.4140625,-39.55078125,-18.06640625,-1.0,1.0,-1.0,0.0,8.m4v,10.0
2024-02-28 14:00:43.221174,1709125243.2211738,-12.6953125,-26.3671875,-29.78515625,-24.4140625,-1.0,1.0,-1.0,0.0,8.m4v,10.0
2024-02-28 14:00:43.225079,1709125243.2250793,-20.5078125,-34.1796875,-17.08984375,-25.390625,-1.0,1.0,-1.0,0.0,8.m4v,10.0
2024-02-28 14:00:43.228985,1709125243.2289848,-25.87890625,-20.01953125,-25.390625,-23.92578125,-1.0,1.0,-1.0,0.0,8.m4v,10.0
2024-02-28 14:00:43.232890,1709125243.2328904,-18.5546875,-17.578125,-27.34375,-21.484375,-1.0,1.0,-1.0,0.0,8.m4v,10.0
2024-02-28 14:00:43.236796,1709125243.2367957,-10.7421875,-19.53125,-28.80859375,-19.04296875,-1.0,1.0,-1.0,0.0,8.m4v,10.0
2024-02-28 14:00:43.240701,1709125243.2407012,-15.13671875,-20.99609375,-35.64453125,-27.34375,-1.0,1.0,-1.0,0.0,8.m4v,10.0
2024-02-28 14:00:43.244607,1709125243.2446067,-21.484375,-25.87890625,-44.921875,-41.50390625,-1.0,1.0,-1.0,0.0,8.m4v,10.0
2024-02-28 14:00:43.248512,1709125243.2485125,-13.671875,-29.78515625,-39.55078125,-34.66796875,-1.0,1.0,-1.0,0.0,8.m4v,10.0
2024-02-28 14:00:43.252418,1709125243.2524178,-17.578125,-31.25,-37.109375,-21.97265625,-1.0,1.0,-1.0,0.0,8.m4v,10.0
2024-02-28 14:00:43.256323,1709125243.256323,-26.85546875,-30.2734375,-40.0390625,-27.83203125,-1.0,1.0,-1.0,0.0,8.m4v,10.0
2024-02-28 14:00:43.260234,1709125243.2602344,-28.3203125,-27.34375,-32.71484375,-26.85546875,-1.0,1.0,-1.0,0.0,8.m4v,10.0
2024-02-28 14:00:43.264140,1709125243.2641397,-26.85546875,-38.0859375,-34.1796875,-19.04296875,-1.0,1.0,-1.0,0.0,8.m4v,10.0
2024-02-28 14:00:43.268045,1709125243.2680452,-16.11328125,-39.55078125,-33.203125,-19.04296875,-1.0,1.0,-1.0,0.0,8.m4v,10.0
2024-02-28 14:00:43.271951,1709125243.2719507,-16.6015625,-43.45703125,-24.4140625,-13.18359375,-1.0,1.0,-1.0,0.0,8.m4v,10.0
2024-02-28 14:00:43.275856,1709125243.2758565,-12.6953125,-58.59375,-28.80859375,-17.08984375,-1.0,1.0,-1.0,0.0,8.m4v,10.0
2024-02-28 14:00:43.279762,1709125243.2797618,-3.90625,-23.4375,-33.203125,-20.01953125,-1.0,1.0,-1.0,0.0,8.m4v,10.0
2024-02-28 14:00:43.365693,1709125243.365693,-34.1796875,-19.53125,-44.921875,-51.26953125,-1.0,1.0,-1.0,0.0,8.m4v,10.0
2024-02-28 14:00:43.369599,1709125243.3695986,-39.55078125,-20.01953125,-45.41015625,-50.78125,-1.0,1.0,-1.0,0.0,8.m4v,10.0
2024-02-28 14:00:43.373504,1709125243.3735042,-40.52734375,-36.1328125,-43.45703125,-48.33984375,-1.0,1.0,-1.0,0.0,8.m4v,10.0
2024-02-28 14:00:43.377410,1709125243.3774097,-41.015625,-39.55078125,-43.45703125,-47.8515625,-1.0,1.0,-1.0,0.0,8.m4v,10.0
2024-02-28 14:00:43.381315,1709125243.381315,-35.64453125,-33.203125,-51.7578125,-41.015625,-1.0,1.0,-1.0,0.0,8.m4v,10.0
2024-02-28 14:00:43.385221,1709125243.3852203,-33.203125,-35.15625,-56.15234375,-35.15625,-1.0,1.0,-1.0,0.0,8.m4v,10.0
2024-02-28 14:00:43.389126,1709125243.389126,-38.0859375,-35.64453125,-48.33984375,-43.9453125,-1.0,1.0,-1.0,0.0,8.m4v,10.0
2024-02-28 14:00:43.393032,1709125243.3930316,-25.87890625,-35.15625,-47.36328125,-39.0625,-1.0,1.0,-1.0,0.0,8.m4v,10.0
2024-02-28 14:00:43.701601,1709125243.701601,-34.1796875,-37.59765625,-28.3203125,-31.73828125,-1.0,1.0,-1.0,0.0,8.m4v,10.0
2024-02-28 14:00:43.705507,1709125243.7055066,-30.2734375,-35.15625,-41.015625,-38.0859375,-1.0,1.0,-1.0,0.0,8.m4v,10.0
2024-02-28 14:00:43.709412,1709125243.709412,-27.83203125,-30.2734375,-43.9453125,-51.26953125,-1.0,1.0,-1.0,0.0,8.m4v,10.0
2024-02-28 14:00:43.713318,1709125243.7133176,-27.34375,-20.01953125,-35.15625,-52.24609375,-1.0,1.0,-1.0,0.0,8.m4v,10.0
2024-02-28 14:00:43.717223,1709125243.717223,-28.80859375,-24.90234375,-42.96875,-47.8515625,-1.0,1.0,-1.0,0.0,8.m4v,10.0
2024-02-28 14:00:43.721128,1709125243.7211285,-20.5078125,-27.34375,-47.36328125,-36.1328125,-1.0,1.0,-1.0,0.0,8.m4v,10.0
2024-02-28 14:00:43.721128,1709125243.7211285,-20.5078125,-27.34375,-47.36328125,-36.1328125,-1.0,1.0,-1.0,0.0,8.m4v,10.0
2024-02-28 14:00:43.721128,1709125243.7211285,-20.5078125,-27.34375,-47.36328125,-36.1328125,-1.0,1.0,-1.0,0.0,8.m4v,10.0
2024-02-28 14:00:43.725034,1709125243.725034,-21.97265625,-16.11328125,-36.62109375,-34.1796875,-1.0,1.0,-1.0,0.0,8.m4v,10.0
2024-02-28 14:00:43.725034,1709125243.725034,-21.97265625,-16.11328125,-36.62109375,-34.1796875,-1.0,1.0,-1.0,0.0,8.m4v,10.0
2024-02-28 14:00:43.725034,1709125243.725034,-21.97265625,-16.11328125,-36.62109375,-34.1796875,-1.0,1.0,-1.0,0.0,8.m4v,10.0
2024-02-28 14:00:43.728945,1709125243.728945,-22.4609375,-20.5078125,-34.1796875,-33.203125,-1.0,1.0,-1.0,0.0,8.m4v,10.0
2024-02-28 14:00:43.728945,1709125243.728945,-22.4609375,-20.5078125,-34.1796875,-33.203125,-1.0,1.0,-1.0,0.0,8.m4v,10.0
2024-02-28 14:00:43.728945,1709125243.728945,-22.4609375,-20.5078125,-34.1796875,-33.203125,-1.0,1.0,-1.0,0.0,8.m4v,10.0
2024-02-28 14:00:43.732850,1709125243.7328503,-23.4375,-39.0625,-39.0625,-29.296875,-1.0,1.0,-1.0,0.0,8.m4v,10.0
2024-02-28 14:00:43.732850,1709125243.7328503,-23.4375,-39.0625,-39.0625,-29.296875,-1.0,1.0,-1.0,0.0,8.m4v,10.0
2024-02-28 14:00:43.732850,1709125243.7328503,-23.4375,-39.0625,-39.0625,-29.296875,-1.0,1.0,-1.0,0.0,8.m4v,10.0
2024-02-28 14:00:43.736756,1709125243.7367558,-27.83203125,-57.12890625,-33.203125,-31.73828125,-1.0,1.0,-1.0,0.0,8.m4v,10.0
2024-02-28 14:00:43.736756,1709125243.7367558,-27.83203125,-57.12890625,-33.203125,-31.73828125,-1.0,1.0,-1.0,0.0,8.m4v,10.0
2024-02-28 14:00:43.736756,1709125243.7367558,-27.83203125,-57.12890625,-33.203125,-31.73828125,-1.0,1.0,-1.0,0.0,8.m4v,10.0
2024-02-28 14:00:43.740661,1709125243.7406614,-28.80859375,-45.8984375,-32.2265625,-40.0390625,-1.0,1.0,-1.0,0.0,8.m4v,10.0
2024-02-28 14:00:43.740661,1709125243.7406614,-28.80859375,-45.8984375,-32.2265625,-40.0390625,-1.0,1.0,-1.0,0.0,8.m4v,10.0
2024-02-28 14:00:43.740661,1709125243.7406614,-28.80859375,-45.8984375,-32.2265625,-40.0390625,-1.0,1.0,-1.0,0.0,8.m4v,10.0
2024-02-28 14:00:43.744567,1709125243.744567,-37.109375,-40.0390625,-38.0859375,-49.31640625,-1.0,1.0,-1.0,0.0,8.m4v,10.0
2024-02-28 14:00:43.744567,1709125243.744567,-37.109375,-40.0390625,-38.0859375,-49.31640625,-1.0,1.0,-1.0,0.0,8.m4v,10.0
2024-02-28 14:00:43.744567,1709125243.744567,-37.109375,-40.0390625,-38.0859375,-49.31640625,-1.0,1.0,-1.0,0.0,8.m4v,10.0
2024-02-28 14:00:43.748472,1709125243.7484725,-40.0390625,-43.9453125,-42.96875,-44.921875,-1.0,1.0,-1.0,0.0,8.m4v,10.0
2024-02-28 14:00:43.748472,1709125243.7484725,-40.0390625,-43.9453125,-42.96875,-44.921875,-1.0,1.0,-1.0,0.0,8.m4v,10.0
2024-02-28 14:00:43.748472,1709125243.7484725,-40.0390625,-43.9453125,-42.96875,-44.921875,-1.0,1.0,-1.0,0.0,8.m4v,10.0
2024-02-28 14:00:43.752378,1709125243.7523775,-37.59765625,-41.50390625,-42.96875,-38.0859375,-1.0,1.0,-1.0,0.0,8.m4v,10.0
2024-02-28 14:00:43.752378,1709125243.7523775,-37.59765625,-41.50390625,-42.96875,-38.0859375,-1.0,1.0,-1.0,0.0,8.m4v,10.0
2024-02-28 14:00:43.752378,1709125243.7523775,-37.59765625,-41.50390625,-42.96875,-38.0859375,-1.0,1.0,-1.0,0.0,8.m4v,10.0
2024-02-28 14:00:43.756283,1709125243.7562833,-36.1328125,-41.015625,-36.62109375,-36.1328125,-1.0,1.0,-1.0,0.0,8.m4v,10.0
2024-02-28 14:00:43.756283,1709125243.7562833,-36.1328125,-41.015625,-36.62109375,-36.1328125,-1.0,1.0,-1.0,0.0,8.m4v,10.0
2024-02-28 14:00:43.756283,1709125243.7562833,-36.1328125,-41.015625,-36.62109375,-36.1328125,-1.0,1.0,-1.0,0.0,8.m4v,10.0
2024-02-28 14:00:43.760189,1709125243.7601888,-36.1328125,-43.9453125,-35.15625,-38.0859375,-1.0,1.0,-1.0,0.0,8.m4v,10.0
2024-02-28 14:00:43.760189,1709125243.7601888,-36.1328125,-43.9453125,-35.15625,-38.0859375,-1.0,1.0,-1.0,0.0,8.m4v,10.0
2024-02-28 14:00:43.760189,1709125243.7601888,-36.1328125,-43.9453125,-35.15625,-38.0859375,-1.0,1.0,-1.0,0.0,8.m4v,10.0
2024-02-28 14:00:43.768000,1709125243.768,-25.87890625,-32.2265625,-20.5078125,-36.62109375,-1.0,1.0,-1.0,0.0,8.m4v,10.0
2024-02-28 14:00:43.775816,1709125243.775816,-31.73828125,-45.8984375,-39.55078125,-29.296875,-1.0,1.0,-1.0,0.0,8.m4v,10.0
2024-02-28 14:00:43.783627,1709125243.7836268,-34.66796875,-17.578125,-25.390625,-38.0859375,-1.0,1.0,-1.0,0.0,8.m4v,10.0
2024-02-28 14:00:43.791438,1709125243.791438,-43.9453125,-37.59765625,-33.69140625,-41.9921875,-1.0,1.0,-1.0,0.0,8.m4v,10.0
2024-02-28 14:00:43.799249,1709125243.799249,-57.12890625,-27.34375,-31.25,-46.875,-1.0,1.0,-1.0,0.0,8.m4v,10.0
2024-02-28 14:00:43.978920,1709125243.97892,-17.08984375,-24.4140625,-31.25,6.34765625,-1.0,1.0,-1.0,0.0,8.m4v,10.0
2024-02-28 14:00:43.978920,1709125243.97892,-17.08984375,-24.4140625,-31.25,6.34765625,-1.0,1.0,-1.0,0.0,8.m4v,10.0
2024-02-28 14:00:43.986731,1709125243.9867308,-5.37109375,-41.015625,-36.62109375,7.8125,-1.0,1.0,-1.0,0.0,8.m4v,10.0
2024-02-28 14:00:43.986731,1709125243.9867308,-5.37109375,-41.015625,-36.62109375,7.8125,-1.0,1.0,-1.0,0.0,8.m4v,10.0
2024-02-28 14:00:43.998447,1709125243.9984474,12.20703125,-35.15625,-51.26953125,17.08984375,-1.0,1.0,-1.0,0.0,8.m4v,10.0
2024-02-28 14:00:43.998447,1709125243.9984474,12.20703125,-35.15625,-51.26953125,17.08984375,-1.0,1.0,-1.0,0.0,8.m4v,10.0
2024-02-28 14:00:44.006258,1709125244.0062582,0.48828125,-30.76171875,-32.2265625,15.13671875,-1.0,1.0,-1.0,0.0,8.m4v,10.0
2024-02-28 14:00:44.006258,1709125244.0062582,0.48828125,-30.76171875,-32.2265625,15.13671875,-1.0,1.0,-1.0,0.0,8.m4v,10.0
2024-02-28 14:00:44.017980,1709125244.0179803,-3.41796875,-12.20703125,-29.78515625,11.23046875,-1.0,1.0,-1.0,0.0,8.m4v,10.0
2024-02-28 14:00:44.017980,1709125244.0179803,-3.41796875,-12.20703125,-29.78515625,11.23046875,-1.0,1.0,-1.0,0.0,8.m4v,10.0
2024-02-28 14:00:44.057041,1709125244.0570407,2.44140625,-32.71484375,-37.109375,9.27734375,-1.0,1.0,-1.0,0.0,8.m4v,10.0
2024-02-28 14:00:44.060946,1709125244.060946,19.04296875,-28.3203125,-26.85546875,25.87890625,-1.0,1.0,-1.0,0.0,8.m4v,10.0
2024-02-28 14:00:44.064852,1709125244.0648515,16.11328125,-9.765625,-32.71484375,18.06640625,-1.0,1.0,-1.0,0.0,8.m4v,10.0
2024-02-28 14:00:44.068757,1709125244.068757,15.13671875,-18.5546875,-29.78515625,12.6953125,-1.0,1.0,-1.0,0.0,8.m4v,10.0
2024-02-28 14:00:44.072663,1709125244.0726626,16.6015625,-30.2734375,-27.83203125,14.16015625,-1.0,1.0,-1.0,0.0,8.m4v,10.0
2024-02-28 14:00:44.076568,1709125244.076568,8.30078125,-34.1796875,-39.55078125,15.13671875,-1.0,1.0,-1.0,0.0,8.m4v,10.0
2024-02-28 14:00:44.080473,1709125244.0804734,1.46484375,-30.2734375,-53.22265625,12.20703125,-1.0,1.0,-1.0,0.0,8.m4v,10.0
2024-02-28 14:00:44.084379,1709125244.084379,-1.953125,-30.76171875,-55.6640625,6.34765625,-1.0,1.0,-1.0,0.0,8.m4v,10.0
2024-02-28 14:00:44.088284,1709125244.0882845,-0.48828125,-43.9453125,-35.64453125,16.11328125,-1.0,1.0,-1.0,0.0,8.m4v,10.0
2024-02-28 14:00:44.092190,1709125244.09219,-3.90625,-38.57421875,-28.3203125,19.53125,-1.0,1.0,-1.0,0.0,8.m4v,10.0
2024-02-28 14:00:44.096096,1709125244.0960956,-2.44140625,-34.66796875,-28.3203125,8.30078125,-1.0,1.0,-1.0,0.0,8.m4v,10.0
2024-02-28 14:00:44.100001,1709125244.100001,0.48828125,-37.109375,-24.90234375,6.34765625,-1.0,1.0,-1.0,0.0,8.m4v,10.0
2024-02-28 14:00:44.103912,1709125244.103912,-2.9296875,-31.25,-27.83203125,7.8125,-1.0,1.0,-1.0,0.0,8.m4v,10.0
2024-02-28 14:00:44.107817,1709125244.1078172,-10.25390625,-29.296875,-29.78515625,2.9296875,-1.0,1.0,-1.0,0.0,8.m4v,10.0
2024-02-28 14:00:44.111723,1709125244.1117227,-19.53125,-28.80859375,-21.484375,-4.39453125,-1.0,1.0,-1.0,0.0,8.m4v,10.0
2024-02-28 14:00:44.115628,1709125244.1156282,-14.6484375,-31.25,-16.11328125,-6.34765625,-1.0,1.0,-1.0,0.0,8.m4v,10.0
2024-02-28 14:00:44.119534,1709125244.1195338,-12.20703125,-31.73828125,-22.94921875,-7.32421875,-1.0,1.0,-1.0,0.0,8.m4v,10.0
2024-02-28 14:00:44.123439,1709125244.1234393,-15.625,-28.80859375,-37.59765625,-18.06640625,-1.0,1.0,-1.0,0.0,8.m4v,10.0
2024-02-28 14:00:44.127345,1709125244.1273446,-15.13671875,-30.2734375,-41.9921875,-23.92578125,-1.0,1.0,-1.0,0.0,8.m4v,10.0
2024-02-28 14:00:44.131250,1709125244.13125,-10.25390625,-41.50390625,-36.1328125,-10.7421875,-1.0,1.0,-1.0,0.0,8.m4v,10.0
2024-02-28 14:00:44.135156,1709125244.1351557,-12.6953125,-40.52734375,-35.64453125,-11.23046875,-1.0,1.0,-1.0,0.0,8.m4v,10.0
2024-02-28 14:00:44.139061,1709125244.1390612,-14.16015625,-32.2265625,-33.203125,-14.16015625,-1.0,1.0,-1.0,0.0,8.m4v,10.0
2024-02-28 14:00:44.142967,1709125244.1429667,-13.18359375,-32.2265625,-36.62109375,-12.20703125,-1.0,1.0,-1.0,0.0,8.m4v,10.0
2024-02-28 14:00:44.146872,1709125244.1468723,-19.04296875,-23.92578125,-36.62109375,-12.6953125,-1.0,1.0,-1.0,0.0,8.m4v,10.0
2024-02-28 14:00:44.150783,1709125244.1507828,-11.23046875,-15.625,-18.5546875,-15.625,-1.0,1.0,-1.0,0.0,8.m4v,10.0
2024-02-28 14:00:44.154688,1709125244.1546884,0.0,-18.06640625,-19.53125,-20.99609375,-1.0,1.0,-1.0,0.0,8.m4v,10.0
2024-02-28 14:00:44.158594,1709125244.158594,-2.44140625,-26.85546875,-30.76171875,-24.90234375,-1.0,1.0,-1.0,0.0,8.m4v,10.0
2024-02-28 14:00:44.162499,1709125244.1624994,-1.46484375,-31.25,-37.59765625,-24.4140625,-1.0,1.0,-1.0,0.0,8.m4v,10.0
2024-02-28 14:00:44.166405,1709125244.1664047,-4.39453125,-41.015625,-38.57421875,-23.4375,-1.0,1.0,-1.0,0.0,8.m4v,10.0
2024-02-28 14:00:44.170310,1709125244.1703105,-16.11328125,-39.55078125,-34.1796875,-30.2734375,-1.0,1.0,-1.0,0.0,8.m4v,10.0
2024-02-28 14:00:44.174216,1709125244.1742158,-20.99609375,-34.66796875,-42.96875,-26.3671875,-1.0,1.0,-1.0,0.0,8.m4v,10.0
2024-02-28 14:00:44.178121,1709125244.178121,-20.99609375,-36.1328125,-39.55078125,-20.01953125,-1.0,1.0,-1.0,0.0,8.m4v,10.0
2024-02-28 14:00:44.185932,1709125244.1859322,-17.578125,-33.203125,-37.59765625,-29.78515625,-1.0,1.0,-1.0,0.0,8.m4v,10.0
2024-02-28 14:00:44.189838,1709125244.1898377,-28.3203125,-42.96875,-36.1328125,-25.87890625,-1.0,1.0,-1.0,0.0,8.m4v,10.0
2024-02-28 14:00:44.193743,1709125244.1937432,-30.76171875,-54.6875,-39.55078125,-23.92578125,-1.0,1.0,-1.0,0.0,8.m4v,10.0
2024-02-28 14:00:44.201559,1709125244.201559,-23.92578125,-16.6015625,-33.203125,-15.625,-1.0,1.0,-1.0,0.0,8.m4v,10.0
2024-02-28 14:00:44.205465,1709125244.2054646,-20.99609375,-22.94921875,-35.15625,-18.06640625,-1.0,1.0,-1.0,0.0,8.m4v,10.0
2024-02-28 14:00:44.209370,1709125244.20937,-13.671875,-29.78515625,-30.76171875,-19.53125,-1.0,1.0,-1.0,0.0,8.m4v,10.0
2024-02-28 14:00:44.217181,1709125244.217181,-27.34375,-26.3671875,-39.55078125,-35.15625,-1.0,1.0,-1.0,0.0,8.m4v,10.0
2024-02-28 14:00:44.221087,1709125244.2210865,-26.85546875,-26.85546875,-42.48046875,-29.296875,-1.0,1.0,-1.0,0.0,8.m4v,10.0
2024-02-28 14:00:44.224992,1709125244.224992,-23.92578125,-37.109375,-39.0625,-21.97265625,-1.0,1.0,-1.0,0.0,8.m4v,10.0
2024-02-28 14:00:44.232803,1709125244.2328029,-20.99609375,-36.62109375,-34.1796875,-35.15625,-1.0,1.0,-1.0,0.0,8.m4v,10.0
2024-02-28 14:00:44.236708,1709125244.2367084,-19.53125,-25.390625,-39.0625,-34.1796875,-1.0,1.0,-1.0,0.0,8.m4v,10.0
2024-02-28 14:00:44.240614,1709125244.240614,-25.390625,-32.71484375,-44.921875,-31.25,-1.0,1.0,-1.0,0.0,8.m4v,10.0
2024-02-28 14:00:44.248430,1709125244.2484295,-28.80859375,-35.64453125,-41.9921875,-28.80859375,-1.0,1.0,-1.0,0.0,8.m4v,10.0
2024-02-28 14:00:44.252335,1709125244.252335,-42.96875,-46.875,-37.59765625,-33.69140625,-1.0,1.0,-1.0,0.0,8.m4v,10.0
2024-02-28 14:00:44.256241,1709125244.2562406,-43.45703125,-37.109375,-41.015625,-31.25,-1.0,1.0,-1.0,0.0,8.m4v,10.0
2024-02-28 14:00:44.264051,1709125244.2640514,-30.76171875,-39.55078125,-40.52734375,-41.50390625,-1.0,1.0,-1.0,0.0,8.m4v,10.0
2024-02-28 14:00:44.267957,1709125244.267957,-33.69140625,-33.203125,-32.2265625,-30.2734375,-1.0,1.0,-1.0,0.0,8.m4v,10.0
2024-02-28 14:00:44.271863,1709125244.2718625,-35.15625,-25.390625,-32.71484375,-23.92578125,-1.0,1.0,-1.0,0.0,8.m4v,10.0
2024-02-28 14:00:44.279674,1709125244.2796736,-33.203125,-33.69140625,-30.76171875,-26.85546875,-1.0,1.0,-1.0,0.0,8.m4v,10.0
2024-02-28 14:00:44.283579,1709125244.283579,-35.64453125,-32.2265625,-28.3203125,-27.83203125,-1.0,1.0,-1.0,0.0,8.m4v,10.0
2024-02-28 14:00:44.287484,1709125244.2874844,-40.0390625,-31.73828125,-34.1796875,-33.203125,-1.0,1.0,-1.0,0.0,8.m4v,10.0
2024-02-28 14:00:44.295300,1709125244.2953,-31.73828125,-24.90234375,-36.1328125,-31.73828125,-1.0,1.0,-1.0,0.0,8.m4v,10.0
2024-02-28 14:00:44.299206,1709125244.2992055,-30.2734375,-34.1796875,-53.7109375,-37.59765625,-1.0,1.0,-1.0,0.0,8.m4v,10.0
2024-02-28 14:00:44.303111,1709125244.303111,-28.80859375,-38.57421875,-40.0390625,-33.203125,-1.0,1.0,-1.0,0.0,8.m4v,10.0
2024-02-28 14:00:44.310922,1709125244.310922,-39.55078125,-32.71484375,-44.921875,-36.1328125,-1.0,1.0,-1.0,0.0,8.m4v,10.0
2024-02-28 14:00:44.314827,1709125244.3148274,-35.15625,-26.85546875,-32.71484375,-27.83203125,-1.0,1.0,-1.0,0.0,8.m4v,10.0
2024-02-28 14:00:44.318733,1709125244.318733,-34.1796875,-25.390625,-24.4140625,-23.92578125,-1.0,1.0,-1.0,0.0,8.m4v,10.0
2024-02-28 14:00:44.330450,1709125244.3304496,-30.2734375,-10.25390625,-32.71484375,-31.25,-1.0,1.0,-1.0,0.0,8.m4v,10.0
2024-02-28 14:00:44.697606,1709125244.6976058,-30.2734375,-42.96875,-46.38671875,-36.1328125,-1.0,1.0,-1.0,0.0,8.m4v,10.0
2024-02-28 14:00:44.697606,1709125244.6976058,-30.2734375,-42.96875,-46.38671875,-36.1328125,-1.0,1.0,-1.0,0.0,8.m4v,10.0
2024-02-28 14:00:44.701511,1709125244.7015111,-29.296875,-44.43359375,-38.0859375,-42.96875,-1.0,1.0,-1.0,0.0,8.m4v,10.0
2024-02-28 14:00:44.705417,1709125244.705417,-20.01953125,-33.203125,-24.90234375,-38.57421875,-1.0,1.0,-1.0,0.0,8.m4v,10.0
2024-02-28 14:00:44.705417,1709125244.705417,-20.01953125,-33.203125,-24.90234375,-38.57421875,-1.0,1.0,-1.0,0.0,8.m4v,10.0
2024-02-28 14:00:44.709322,1709125244.7093222,-28.3203125,-36.62109375,-38.0859375,-39.0625,-1.0,1.0,-1.0,0.0,8.m4v,10.0
2024-02-28 14:00:44.748382,1709125244.7483816,-38.57421875,-41.50390625,-35.64453125,-38.57421875,-1.0,1.0,-1.0,0.0,8.m4v,10.0
2024-02-28 14:00:44.752287,1709125244.752287,-33.203125,-36.1328125,-39.0625,-31.73828125,-1.0,1.0,-1.0,0.0,8.m4v,10.0
2024-02-28 14:00:44.756192,1709125244.7561924,-28.3203125,-41.9921875,-34.66796875,-28.80859375,-1.0,1.0,-1.0,0.0,8.m4v,10.0
2024-02-28 14:00:44.760103,1709125244.7601037,-24.4140625,-46.38671875,-28.80859375,-20.99609375,-1.0,1.0,-1.0,0.0,8.m4v,10.0
2024-02-28 14:00:44.764009,1709125244.764009,-35.15625,-38.57421875,-22.94921875,-19.04296875,-1.0,1.0,-1.0,0.0,8.m4v,10.0
2024-02-28 14:00:44.771820,1709125244.77182,-32.2265625,-29.296875,-31.25,-26.3671875,-1.0,1.0,-1.0,0.0,8.m4v,10.0
2024-02-28 14:00:44.779631,1709125244.779631,-36.1328125,-30.2734375,-28.3203125,-37.59765625,-1.0,1.0,-1.0,0.0,8.m4v,10.0
2024-02-28 14:00:44.787442,1709125244.787442,-33.203125,-36.62109375,-29.78515625,-36.62109375,-1.0,1.0,-1.0,0.0,8.m4v,10.0
2024-02-28 14:00:45.033513,1709125245.0335133,-33.203125,-33.69140625,-40.0390625,-26.85546875,-1.0,1.0,-1.0,0.0,8.m4v,10.0
2024-02-28 14:00:45.041329,1709125245.041329,-41.015625,-50.29296875,-18.06640625,-45.8984375,-1.0,1.0,-1.0,0.0,8.m4v,10.0
2024-02-28 14:00:45.049140,1709125245.0491395,-45.8984375,-39.0625,-27.83203125,-51.7578125,-1.0,1.0,-1.0,0.0,8.m4v,10.0
2024-02-28 14:00:45.056951,1709125245.0569508,-31.25,-28.80859375,-32.71484375,-54.19921875,-1.0,1.0,-1.0,0.0,8.m4v,10.0
2024-02-28 14:00:45.064762,1709125245.0647616,-43.45703125,-33.69140625,-44.43359375,-45.8984375,-1.0,1.0,-1.0,0.0,8.m4v,10.0
2024-02-28 14:00:45.103821,1709125245.103821,-33.203125,-22.94921875,-27.83203125,-27.83203125,-1.0,1.0,-1.0,0.0,8.m4v,10.0
2024-02-28 14:00:45.103821,1709125245.103821,-33.203125,-22.94921875,-27.83203125,-27.83203125,-1.0,1.0,-1.0,0.0,8.m4v,10.0
2024-02-28 14:00:45.111632,1709125245.111632,-35.15625,-29.78515625,-36.62109375,-44.921875,-1.0,1.0,-1.0,0.0,8.m4v,10.0
2024-02-28 14:00:45.111632,1709125245.111632,-35.15625,-29.78515625,-36.62109375,-44.921875,-1.0,1.0,-1.0,0.0,8.m4v,10.0
2024-02-28 14:00:45.119443,1709125245.119443,-34.1796875,-24.90234375,-36.1328125,-40.0390625,-1.0,1.0,-1.0,0.0,8.m4v,10.0
2024-02-28 14:00:45.119443,1709125245.119443,-34.1796875,-24.90234375,-36.1328125,-40.0390625,-1.0,1.0,-1.0,0.0,8.m4v,10.0
2024-02-28 14:00:45.127254,1709125245.127254,-25.390625,-28.80859375,-37.109375,-32.2265625,-1.0,1.0,-1.0,0.0,8.m4v,10.0
2024-02-28 14:00:45.127254,1709125245.127254,-25.390625,-28.80859375,-37.109375,-32.2265625,-1.0,1.0,-1.0,0.0,8.m4v,10.0
2024-02-28 14:00:45.135070,1709125245.1350703,-33.203125,-35.64453125,-44.43359375,-40.52734375,-1.0,1.0,-1.0,0.0,8.m4v,10.0
2024-02-28 14:00:45.135070,1709125245.1350703,-33.203125,-35.64453125,-44.43359375,-40.52734375,-1.0,1.0,-1.0,0.0,8.m4v,10.0
2024-02-28 14:00:45.142881,1709125245.1428814,-32.71484375,-33.203125,-30.76171875,-44.43359375,-1.0,1.0,-1.0,0.0,8.m4v,10.0
2024-02-28 14:00:45.142881,1709125245.1428814,-32.71484375,-33.203125,-30.76171875,-44.43359375,-1.0,1.0,-1.0,0.0,8.m4v,10.0
2024-02-28 14:00:45.150692,1709125245.1506922,-27.34375,-31.25,-38.57421875,-28.80859375,-1.0,1.0,-1.0,0.0,8.m4v,10.0
2024-02-28 14:00:45.150692,1709125245.1506922,-27.34375,-31.25,-38.57421875,-28.80859375,-1.0,1.0,-1.0,0.0,8.m4v,10.0
2024-02-28 14:00:45.158503,1709125245.1585033,-26.85546875,-43.45703125,-39.0625,-32.2265625,-1.0,1.0,-1.0,0.0,8.m4v,10.0
2024-02-28 14:00:45.158503,1709125245.1585033,-26.85546875,-43.45703125,-39.0625,-32.2265625,-1.0,1.0,-1.0,0.0,8.m4v,10.0
2024-02-28 14:00:45.166314,1709125245.1663144,-30.2734375,-18.06640625,-19.04296875,-34.66796875,-1.0,1.0,-1.0,0.0,8.m4v,10.0
2024-02-28 14:00:45.166314,1709125245.1663144,-30.2734375,-18.06640625,-19.04296875,-34.66796875,-1.0,1.0,-1.0,0.0,8.m4v,10.0
2024-02-28 14:00:45.174125,1709125245.1741252,-26.85546875,-30.2734375,-37.59765625,-28.80859375,-1.0,1.0,-1.0,0.0,8.m4v,10.0
2024-02-28 14:00:45.174125,1709125245.1741252,-26.85546875,-30.2734375,-37.59765625,-28.80859375,-1.0,1.0,-1.0,0.0,8.m4v,10.0
2024-02-28 14:00:45.181942,1709125245.1819415,-19.53125,-8.7890625,-27.34375,-19.04296875,-1.0,1.0,-1.0,0.0,8.m4v,10.0
2024-02-28 14:00:45.181942,1709125245.1819415,-19.53125,-8.7890625,-27.34375,-19.04296875,-1.0,1.0,-1.0,0.0,8.m4v,10.0
2024-02-28 14:00:45.189753,1709125245.1897526,-36.62109375,-38.0859375,-50.78125,-34.1796875,-1.0,1.0,-1.0,0.0,8.m4v,10.0
2024-02-28 14:00:45.189753,1709125245.1897526,-36.62109375,-38.0859375,-50.78125,-34.1796875,-1.0,1.0,-1.0,0.0,8.m4v,10.0
2024-02-28 14:00:45.197564,1709125245.1975636,-24.4140625,-37.59765625,-24.90234375,-38.57421875,-1.0,1.0,-1.0,0.0,8.m4v,10.0
2024-02-28 14:00:45.197564,1709125245.1975636,-24.4140625,-37.59765625,-24.90234375,-38.57421875,-1.0,1.0,-1.0,0.0,8.m4v,10.0
2024-02-28 14:00:45.205375,1709125245.2053747,-33.69140625,-45.8984375,-29.78515625,-38.57421875,-1.0,1.0,-1.0,0.0,8.m4v,10.0
2024-02-28 14:00:45.213186,1709125245.2131855,-30.2734375,-42.96875,-29.78515625,-40.0390625,-1.0,1.0,-1.0,0.0,8.m4v,10.0
2024-02-28 14:00:45.220997,1709125245.2209966,-33.69140625,-38.0859375,-30.76171875,-44.43359375,-1.0,1.0,-1.0,0.0,8.m4v,10.0
2024-02-28 14:00:45.228813,1709125245.228813,-40.52734375,-32.2265625,-29.296875,-35.15625,-1.0,1.0,-1.0,0.0,8.m4v,10.0
2024-02-28 14:00:45.236624,1709125245.236624,-48.828125,-41.9921875,-41.9921875,-31.73828125,-1.0,1.0,-1.0,0.0,8.m4v,10.0
2024-02-28 14:00:45.244435,1709125245.2444348,-26.3671875,-39.55078125,-41.015625,-8.7890625,-1.0,1.0,-1.0,0.0,8.m4v,10.0
2024-02-28 14:00:45.252246,1709125245.252246,-32.2265625,-29.296875,-33.203125,-34.1796875,-1.0,1.0,-1.0,0.0,8.m4v,10.0
2024-02-28 14:00:45.256151,1709125245.2561514,-31.25,-24.4140625,-27.83203125,-25.87890625,-1.0,1.0,-1.0,0.0,8.m4v,10.0
2024-02-28 14:00:45.260057,1709125245.260057,-44.921875,-31.73828125,-26.85546875,-28.3203125,-1.0,1.0,-1.0,0.0,8.m4v,10.0
2024-02-28 14:00:45.263962,1709125245.2639625,-52.24609375,-38.57421875,-30.2734375,-39.0625,-1.0,1.0,-1.0,0.0,8.m4v,10.0
2024-02-28 14:00:45.267868,1709125245.2678678,-40.0390625,-29.78515625,-29.296875,-30.2734375,-1.0,1.0,-1.0,0.0,8.m4v,10.0
2024-02-28 14:00:45.271773,1709125245.271773,-25.390625,-24.90234375,-29.78515625,-26.85546875,-1.0,1.0,-1.0,0.0,8.m4v,10.0
2024-02-28 14:00:45.275684,1709125245.275684,-29.296875,-36.1328125,-30.2734375,-36.1328125,-1.0,1.0,-1.0,0.0,8.m4v,10.0
2024-02-28 14:00:45.279589,1709125245.2795894,-36.1328125,-42.48046875,-31.25,-34.66796875,-1.0,1.0,-1.0,0.0,8.m4v,10.0
2024-02-28 14:00:45.283495,1709125245.283495,-33.203125,-39.55078125,-30.2734375,-38.57421875,-1.0,1.0,-1.0,0.0,8.m4v,10.0
2024-02-28 14:00:45.287400,1709125245.2874005,-26.85546875,-48.33984375,-35.64453125,-34.66796875,-1.0,1.0,-1.0,0.0,8.m4v,10.0
2024-02-28 14:00:45.291306,1709125245.291306,-20.5078125,-53.22265625,-28.3203125,-21.484375,-1.0,1.0,-1.0,0.0,8.m4v,10.0
2024-02-28 14:00:45.295212,1709125245.2952116,-20.01953125,-39.55078125,-25.87890625,-20.99609375,-1.0,1.0,-1.0,0.0,8.m4v,10.0
2024-02-28 14:00:45.299117,1709125245.2991168,-27.83203125,-33.203125,-35.64453125,-26.85546875,-1.0,1.0,-1.0,0.0,8.m4v,10.0
2024-02-28 14:00:45.303022,1709125245.3030224,-21.484375,-25.87890625,-34.1796875,-26.85546875,-1.0,1.0,-1.0,0.0,8.m4v,10.0
2024-02-28 14:00:45.517848,1709125245.5178485,-37.59765625,-42.48046875,-22.4609375,-24.4140625,-1.0,1.0,-1.0,0.0,8.m4v,10.0
2024-02-28 14:00:45.521754,1709125245.521754,-37.109375,-35.64453125,-34.66796875,-18.06640625,-1.0,1.0,-1.0,0.0,8.m4v,10.0
2024-02-28 14:00:45.525660,1709125245.5256596,-34.66796875,-13.671875,-31.73828125,-21.484375,-1.0,1.0,-1.0,0.0,8.m4v,10.0
2024-02-28 14:00:45.529565,1709125245.529565,-35.15625,-14.6484375,-33.203125,-28.80859375,-1.0,1.0,-1.0,0.0,8.m4v,10.0
2024-02-28 14:00:45.533470,1709125245.5334704,-41.50390625,-34.66796875,-40.0390625,-35.15625,-1.0,1.0,-1.0,0.0,8.m4v,10.0
2024-02-28 14:00:45.537376,1709125245.537376,-41.9921875,-42.48046875,-33.69140625,-37.109375,-1.0,1.0,-1.0,0.0,8.m4v,10.0
2024-02-28 14:00:45.541281,1709125245.5412817,-36.1328125,-35.64453125,-30.76171875,-37.59765625,-1.0,1.0,-1.0,0.0,8.m4v,10.0
2024-02-28 14:00:45.545187,1709125245.545187,-41.015625,-38.57421875,-36.62109375,-40.52734375,-1.0,1.0,-1.0,0.0,8.m4v,10.0
2024-02-28 14:00:45.549093,1709125245.5490923,-48.828125,-41.9921875,-42.96875,-43.9453125,-1.0,1.0,-1.0,0.0,8.m4v,10.0
2024-02-28 14:00:45.552998,1709125245.552998,-41.9921875,-37.109375,-48.33984375,-42.48046875,-1.0,1.0,-1.0,0.0,8.m4v,10.0
2024-02-28 14:00:45.556909,1709125245.5569088,-37.59765625,-38.57421875,-33.69140625,-35.15625,-1.0,1.0,-1.0,0.0,8.m4v,10.0
2024-02-28 14:00:45.560814,1709125245.560814,-40.0390625,-42.48046875,-23.92578125,-41.015625,-1.0,1.0,-1.0,0.0,8.m4v,10.0
2024-02-28 14:00:45.564720,1709125245.5647197,-27.83203125,-45.41015625,-35.15625,-38.57421875,-1.0,1.0,-1.0,0.0,8.m4v,10.0
2024-02-28 14:00:45.568625,1709125245.5686252,-17.08984375,-35.15625,-36.62109375,-30.2734375,-1.0,1.0,-1.0,0.0,8.m4v,10.0
2024-02-28 14:00:45.572531,1709125245.5725307,-25.390625,-25.390625,-28.3203125,-32.2265625,-1.0,1.0,-1.0,0.0,8.m4v,10.0
2024-02-28 14:00:45.576436,1709125245.5764363,-45.8984375,-39.0625,-29.296875,-47.36328125,-1.0,1.0,-1.0,0.0,8.m4v,10.0
2024-02-28 14:00:45.580342,1709125245.5803418,-62.01171875,-35.64453125,-31.25,-57.12890625,-1.0,1.0,-1.0,0.0,8.m4v,10.0
2024-02-28 14:00:45.584247,1709125245.584247,-57.12890625,-33.203125,-30.76171875,-49.31640625,-1.0,1.0,-1.0,0.0,8.m4v,10.0
2024-02-28 14:00:45.588153,1709125245.5881526,-46.38671875,-42.96875,-24.4140625,-38.0859375,-1.0,1.0,-1.0,0.0,8.m4v,10.0
2024-02-28 14:00:45.611591,1709125245.6115909,-42.48046875,-39.0625,-31.73828125,-36.1328125,-1.0,1.0,-1.0,0.0,8.m4v,10.0
2024-02-28 14:00:45.611591,1709125245.6115909,-42.48046875,-39.0625,-31.73828125,-36.1328125,-1.0,1.0,-1.0,0.0,8.m4v,10.0
2024-02-28 14:00:45.615496,1709125245.6154964,-46.875,-55.17578125,-20.99609375,-27.34375,-1.0,1.0,-1.0,0.0,8.m4v,10.0
2024-02-28 14:00:45.615496,1709125245.6154964,-46.875,-55.17578125,-20.99609375,-27.34375,-1.0,1.0,-1.0,0.0,8.m4v,10.0
2024-02-28 14:00:45.619402,1709125245.619402,-46.875,-52.734375,-17.578125,-14.6484375,-1.0,1.0,-1.0,0.0,8.m4v,10.0
2024-02-28 14:00:45.619402,1709125245.619402,-46.875,-52.734375,-17.578125,-14.6484375,-1.0,1.0,-1.0,0.0,8.m4v,10.0
2024-02-28 14:00:45.623307,1709125245.6233077,-40.0390625,-22.94921875,-22.4609375,-23.4375,-1.0,1.0,-1.0,0.0,8.m4v,10.0
2024-02-28 14:00:45.623307,1709125245.6233077,-40.0390625,-22.94921875,-22.4609375,-23.4375,-1.0,1.0,-1.0,0.0,8.m4v,10.0
2024-02-28 14:00:45.627213,1709125245.6272128,-40.0390625,-19.53125,-28.3203125,-30.2734375,-1.0,1.0,-1.0,0.0,8.m4v,10.0
2024-02-28 14:00:45.627213,1709125245.6272128,-40.0390625,-19.53125,-28.3203125,-30.2734375,-1.0,1.0,-1.0,0.0,8.m4v,10.0
2024-02-28 14:00:45.631118,1709125245.6311183,-36.1328125,-33.203125,-39.0625,-19.53125,-1.0,1.0,-1.0,0.0,8.m4v,10.0
2024-02-28 14:00:45.631118,1709125245.6311183,-36.1328125,-33.203125,-39.0625,-19.53125,-1.0,1.0,-1.0,0.0,8.m4v,10.0
2024-02-28 14:00:45.635024,1709125245.6350238,-38.57421875,-34.1796875,-35.64453125,-26.3671875,-1.0,1.0,-1.0,0.0,8.m4v,10.0
2024-02-28 14:00:45.635024,1709125245.6350238,-38.57421875,-34.1796875,-35.64453125,-26.3671875,-1.0,1.0,-1.0,0.0,8.m4v,10.0
2024-02-28 14:00:45.638929,1709125245.6389294,-46.875,-36.62109375,-27.34375,-29.78515625,-1.0,1.0,-1.0,0.0,8.m4v,10.0
2024-02-28 14:00:45.638929,1709125245.6389294,-46.875,-36.62109375,-27.34375,-29.78515625,-1.0,1.0,-1.0,0.0,8.m4v,10.0
2024-02-28 14:00:45.642835,1709125245.642835,-43.45703125,-52.24609375,-18.5546875,-20.01953125,-1.0,1.0,-1.0,0.0,8.m4v,10.0
2024-02-28 14:00:45.642835,1709125245.642835,-43.45703125,-52.24609375,-18.5546875,-20.01953125,-1.0,1.0,-1.0,0.0,8.m4v,10.0
2024-02-28 14:00:45.646740,1709125245.6467404,-46.875,-37.109375,-26.3671875,-30.2734375,-1.0,1.0,-1.0,0.0,8.m4v,10.0
2024-02-28 14:00:45.646740,1709125245.6467404,-46.875,-37.109375,-26.3671875,-30.2734375,-1.0,1.0,-1.0,0.0,8.m4v,10.0
2024-02-28 14:00:45.650651,1709125245.6506512,-49.8046875,-24.4140625,-32.71484375,-41.50390625,-1.0,1.0,-1.0,0.0,8.m4v,10.0
2024-02-28 14:00:45.650651,1709125245.6506512,-49.8046875,-24.4140625,-32.71484375,-41.50390625,-1.0,1.0,-1.0,0.0,8.m4v,10.0
2024-02-28 14:00:45.650651,1709125245.6506512,-49.8046875,-24.4140625,-32.71484375,-41.50390625,-1.0,1.0,-1.0,0.0,8.m4v,10.0
2024-02-28 14:00:45.654557,1709125245.6545568,-41.015625,-26.85546875,-24.4140625,-33.69140625,-1.0,1.0,-1.0,0.0,8.m4v,10.0
2024-02-28 14:00:45.654557,1709125245.6545568,-41.015625,-26.85546875,-24.4140625,-33.69140625,-1.0,1.0,-1.0,0.0,8.m4v,10.0
2024-02-28 14:00:45.654557,1709125245.6545568,-41.015625,-26.85546875,-24.4140625,-33.69140625,-1.0,1.0,-1.0,0.0,8.m4v,10.0
2024-02-28 14:00:45.658462,1709125245.6584623,-36.1328125,-36.62109375,-22.4609375,-28.3203125,-1.0,1.0,-1.0,0.0,8.m4v,10.0
2024-02-28 14:00:45.658462,1709125245.6584623,-36.1328125,-36.62109375,-22.4609375,-28.3203125,-1.0,1.0,-1.0,0.0,8.m4v,10.0
2024-02-28 14:00:45.662368,1709125245.6623678,-34.1796875,-42.96875,-27.83203125,-30.2734375,-1.0,1.0,-1.0,0.0,8.m4v,10.0
2024-02-28 14:00:45.662368,1709125245.6623678,-34.1796875,-42.96875,-27.83203125,-30.2734375,-1.0,1.0,-1.0,0.0,8.m4v,10.0
2024-02-28 14:00:45.666273,1709125245.6662734,-31.25,-31.25,-35.15625,-24.90234375,-1.0,1.0,-1.0,0.0,8.m4v,10.0
2024-02-28 14:00:45.666273,1709125245.6662734,-31.25,-31.25,-35.15625,-24.90234375,-1.0,1.0,-1.0,0.0,8.m4v,10.0
2024-02-28 14:00:45.670179,1709125245.670179,-30.76171875,-28.80859375,-32.71484375,-21.97265625,-1.0,1.0,-1.0,0.0,8.m4v,10.0
2024-02-28 14:00:45.670179,1709125245.670179,-30.76171875,-28.80859375,-32.71484375,-21.97265625,-1.0,1.0,-1.0,0.0,8.m4v,10.0
2024-02-28 14:00:45.674084,1709125245.6740842,-32.2265625,-29.296875,-28.3203125,-25.87890625,-1.0,1.0,-1.0,0.0,8.m4v,10.0
2024-02-28 14:00:45.674084,1709125245.6740842,-32.2265625,-29.296875,-28.3203125,-25.87890625,-1.0,1.0,-1.0,0.0,8.m4v,10.0
2024-02-28 14:00:45.677990,1709125245.6779895,-32.2265625,-33.69140625,-32.2265625,-24.4140625,-1.0,1.0,-1.0,0.0,8.m4v,10.0
2024-02-28 14:00:45.689706,1709125245.6897063,-30.2734375,-44.43359375,-31.25,-21.97265625,-1.0,1.0,-1.0,0.0,8.m4v,10.0
2024-02-28 14:00:45.701427,1709125245.7014277,-34.1796875,-42.48046875,-38.0859375,-23.92578125,-1.0,1.0,-1.0,0.0,8.m4v,10.0
2024-02-28 14:00:45.713144,1709125245.713144,-25.87890625,-39.0625,-37.109375,-26.85546875,-1.0,1.0,-1.0,0.0,8.m4v,10.0
2024-02-28 14:00:45.717050,1709125245.7170496,-25.390625,-30.76171875,-37.109375,-32.71484375,-1.0,1.0,-1.0,0.0,8.m4v,10.0
2024-02-28 14:00:45.720955,1709125245.720955,-35.64453125,-30.76171875,-32.71484375,-40.0390625,-1.0,1.0,-1.0,0.0,8.m4v,10.0
2024-02-28 14:00:45.724860,1709125245.7248604,-40.52734375,-43.45703125,-42.96875,-41.9921875,-1.0,1.0,-1.0,0.0,8.m4v,10.0
2024-02-28 14:00:45.728766,1709125245.728766,-41.015625,-37.59765625,-44.43359375,-46.38671875,-1.0,1.0,-1.0,0.0,8.m4v,10.0
2024-02-28 14:00:45.732671,1709125245.7326715,-32.2265625,-32.71484375,-32.71484375,-49.8046875,-1.0,1.0,-1.0,0.0,8.m4v,10.0
2024-02-28 14:00:45.736577,1709125245.736577,-29.78515625,-43.9453125,-36.62109375,-46.38671875,-1.0,1.0,-1.0,0.0,8.m4v,10.0
2024-02-28 14:00:45.740483,1709125245.7404826,-27.83203125,-30.76171875,-40.0390625,-34.66796875,-1.0,1.0,-1.0,0.0,8.m4v,10.0
2024-02-28 14:00:45.744393,1709125245.7443926,-30.2734375,-22.94921875,-39.0625,-32.71484375,-1.0,1.0,-1.0,0.0,8.m4v,10.0
2024-02-28 14:00:45.748298,1709125245.7482982,-35.15625,-33.69140625,-36.1328125,-41.50390625,-1.0,1.0,-1.0,0.0,8.m4v,10.0
2024-02-28 14:00:45.752203,1709125245.7522037,-36.1328125,-43.9453125,-33.69140625,-50.29296875,-1.0,1.0,-1.0,0.0,8.m4v,10.0
2024-02-28 14:00:45.756109,1709125245.756109,-39.55078125,-41.9921875,-38.57421875,-52.24609375,-1.0,1.0,-1.0,0.0,8.m4v,10.0
2024-02-28 14:00:45.760015,1709125245.7600143,-41.015625,-45.8984375,-39.55078125,-46.38671875,-1.0,1.0,-1.0,0.0,8.m4v,10.0
2024-02-28 14:00:45.763920,1709125245.76392,-42.96875,-36.62109375,-34.1796875,-47.36328125,-1.0,1.0,-1.0,0.0,8.m4v,10.0
2024-02-28 14:00:45.767826,1709125245.7678256,-49.31640625,-20.01953125,-36.62109375,-62.01171875,-1.0,1.0,-1.0,0.0,8.m4v,10.0
2024-02-28 14:00:45.771731,1709125245.7717311,-58.10546875,-26.85546875,-43.45703125,-68.84765625,-1.0,1.0,-1.0,0.0,8.m4v,10.0
2024-02-28 14:00:45.775636,1709125245.7756364,-48.33984375,-34.66796875,-38.57421875,-63.96484375,-1.0,1.0,-1.0,0.0,8.m4v,10.0
2024-02-28 14:00:45.779542,1709125245.779542,-55.6640625,-35.64453125,-35.64453125,-69.82421875,-1.0,1.0,-1.0,0.0,8.m4v,10.0
2024-02-28 14:00:45.783448,1709125245.7834475,-72.265625,-34.1796875,-29.78515625,-76.171875,-1.0,1.0,-1.0,0.0,8.m4v,10.0
2024-02-28 14:00:45.787353,1709125245.787353,-79.1015625,-39.0625,-24.90234375,-77.1484375,-1.0,1.0,-1.0,0.0,8.m4v,10.0
2024-02-28 14:00:45.791263,1709125245.791263,-90.33203125,-51.7578125,-29.78515625,-91.796875,-1.0,1.0,-1.0,0.0,8.m4v,10.0
2024-02-28 14:00:45.795169,1709125245.7951686,-105.46875,-53.7109375,-31.25,-108.88671875,-1.0,1.0,-1.0,0.0,8.m4v,10.0
2024-02-28 14:00:45.799074,1709125245.799074,-100.5859375,-49.8046875,-14.16015625,-104.00390625,-1.0,1.0,-1.0,0.0,8.m4v,10.0
2024-02-28 14:00:45.802979,1709125245.8029797,-106.4453125,-44.43359375,-13.18359375,-109.375,-1.0,1.0,-1.0,0.0,8.m4v,10.0
2024-02-28 14:00:45.806885,1709125245.806885,-131.8359375,-39.55078125,-20.5078125,-130.37109375,-1.0,1.0,-1.0,0.0,8.m4v,10.0
2024-02-28 14:00:45.810791,1709125245.8107903,-146.97265625,-39.55078125,-19.53125,-142.08984375,-1.0,1.0,-1.0,0.0,8.m4v,10.0
2024-02-28 14:00:45.814696,1709125245.814696,-152.83203125,-42.48046875,-27.34375,-155.76171875,-1.0,1.0,-1.0,0.0,8.m4v,10.0
2024-02-28 14:00:45.818602,1709125245.8186016,-159.66796875,-44.921875,-25.390625,-163.0859375,-1.0,1.0,-1.0,0.0,8.m4v,10.0
2024-02-28 14:00:45.822507,1709125245.822507,-166.9921875,-50.29296875,-28.3203125,-162.109375,-1.0,1.0,-1.0,0.0,8.m4v,10.0
2024-02-28 14:00:45.826412,1709125245.8264124,-170.8984375,-70.80078125,-53.22265625,-173.33984375,-1.0,1.0,-1.0,0.0,8.m4v,10.0
2024-02-28 14:00:45.830318,1709125245.830318,-168.45703125,-61.03515625,-32.71484375,-175.78125,-1.0,1.0,-1.0,0.0,8.m4v,10.0
2024-02-28 14:00:45.834224,1709125245.8342235,-171.875,-43.45703125,-6.8359375,-174.31640625,-1.0,1.0,-1.0,0.0,8.m4v,10.0
2024-02-28 14:00:45.838134,1709125245.8381336,-173.828125,-37.109375,-16.11328125,-166.9921875,-1.0,1.0,-1.0,0.0,8.m4v,10.0
2024-02-28 14:00:45.842039,1709125245.842039,-165.0390625,-25.87890625,-20.01953125,-153.80859375,-1.0,1.0,-1.0,0.0,8.m4v,10.0
2024-02-28 14:00:45.845945,1709125245.8459446,-148.92578125,-32.2265625,-24.90234375,-138.671875,-1.0,1.0,-1.0,0.0,8.m4v,10.0
2024-02-28 14:00:45.849850,1709125245.84985,-133.30078125,-41.9921875,-33.69140625,-133.7890625,-1.0,1.0,-1.0,0.0,8.m4v,10.0
2024-02-28 14:00:45.853755,1709125245.8537557,-117.1875,-41.50390625,-33.203125,-128.90625,-1.0,1.0,-1.0,0.0,8.m4v,10.0
2024-02-28 14:00:45.857661,1709125245.857661,-103.02734375,-44.921875,-33.203125,-109.375,-1.0,1.0,-1.0,0.0,8.m4v,10.0
2024-02-28 14:00:45.861567,1709125245.8615663,-91.796875,-46.38671875,-39.55078125,-93.75,-1.0,1.0,-1.0,0.0,8.m4v,10.0
2024-02-28 14:00:45.865472,1709125245.865472,-80.56640625,-41.015625,-34.66796875,-87.40234375,-1.0,1.0,-1.0,0.0,8.m4v,10.0
2024-02-28 14:00:45.869377,1709125245.8693774,-77.1484375,-35.64453125,-30.2734375,-81.54296875,-1.0,1.0,-1.0,0.0,8.m4v,10.0
2024-02-28 14:00:45.873283,1709125245.873283,-75.68359375,-32.2265625,-28.3203125,-62.01171875,-1.0,1.0,-1.0,0.0,8.m4v,10.0
2024-02-28 14:00:45.877188,1709125245.8771884,-65.91796875,-34.1796875,-32.2265625,-42.96875,-1.0,1.0,-1.0,0.0,8.m4v,10.0
2024-02-28 14:00:45.881094,1709125245.881094,-49.31640625,-33.69140625,-37.109375,-37.109375,-1.0,1.0,-1.0,0.0,8.m4v,10.0
2024-02-28 14:00:45.885005,1709125245.885005,-38.0859375,-39.55078125,-36.1328125,-26.85546875,-1.0,1.0,-1.0,0.0,8.m4v,10.0
2024-02-28 14:00:45.888910,1709125245.8889103,-30.76171875,-37.109375,-33.69140625,-14.6484375,-1.0,1.0,-1.0,0.0,8.m4v,10.0
2024-02-28 14:00:45.892816,1709125245.8928158,-20.5078125,-27.34375,-26.85546875,-12.6953125,-1.0,1.0,-1.0,0.0,8.m4v,10.0
2024-02-28 14:00:45.896721,1709125245.8967214,-11.23046875,-22.4609375,-26.85546875,-5.859375,-1.0,1.0,-1.0,0.0,8.m4v,10.0
2024-02-28 14:00:45.900627,1709125245.900627,-3.41796875,-19.04296875,-32.2265625,0.0,-1.0,1.0,-1.0,0.0,8.m4v,10.0
2024-02-28 14:00:45.904532,1709125245.9045324,-0.48828125,-32.71484375,-41.9921875,-13.671875,-1.0,1.0,-1.0,0.0,8.m4v,10.0
2024-02-28 14:00:45.908438,1709125245.908438,-2.9296875,-45.8984375,-52.24609375,-9.27734375,-1.0,1.0,-1.0,0.0,8.m4v,10.0
2024-02-28 14:00:45.912343,1709125245.9123433,7.8125,-41.9921875,-54.6875,11.23046875,-1.0,1.0,-1.0,0.0,8.m4v,10.0
2024-02-28 14:00:45.916249,1709125245.9162488,2.44140625,-35.15625,-41.50390625,8.30078125,-1.0,1.0,-1.0,0.0,8.m4v,10.0
2024-02-28 14:00:45.920154,1709125245.9201543,-13.671875,-21.97265625,-39.0625,4.8828125,-1.0,1.0,-1.0,0.0,8.m4v,10.0
2024-02-28 14:00:45.924060,1709125245.92406,0.48828125,-28.80859375,-39.0625,9.765625,-1.0,1.0,-1.0,0.0,8.m4v,10.0
2024-02-28 14:00:45.927965,1709125245.9279654,0.9765625,-29.296875,-29.78515625,5.37109375,-1.0,1.0,-1.0,0.0,8.m4v,10.0
2024-02-28 14:00:45.931876,1709125245.9318762,-16.6015625,-23.92578125,-28.80859375,-6.8359375,-1.0,1.0,-1.0,0.0,8.m4v,10.0
2024-02-28 14:00:45.935782,1709125245.9357817,-6.34765625,-32.2265625,-27.34375,-4.8828125,-1.0,1.0,-1.0,0.0,8.m4v,10.0
2024-02-28 14:00:45.939687,1709125245.939687,-6.34765625,-31.73828125,-33.69140625,-0.9765625,-1.0,1.0,-1.0,0.0,8.m4v,10.0
2024-02-28 14:00:45.943593,1709125245.9435923,-17.08984375,-29.78515625,-48.828125,-8.30078125,-1.0,1.0,-1.0,0.0,8.m4v,10.0
2024-02-28 14:00:45.947498,1709125245.947498,-6.8359375,-39.55078125,-49.31640625,-2.44140625,-1.0,1.0,-1.0,0.0,8.m4v,10.0
2024-02-28 14:00:45.951404,1709125245.9514036,-0.48828125,-37.59765625,-38.0859375,3.90625,-1.0,1.0,-1.0,0.0,8.m4v,10.0
2024-02-28 14:00:45.955309,1709125245.9553092,-3.41796875,-26.85546875,-44.43359375,2.44140625,-1.0,1.0,-1.0,0.0,8.m4v,10.0
2024-02-28 14:00:45.959215,1709125245.9592147,-3.41796875,-34.66796875,-53.22265625,-3.41796875,-1.0,1.0,-1.0,0.0,8.m4v,10.0
2024-02-28 14:00:45.963120,1709125245.96312,2.9296875,-33.69140625,-45.8984375,1.953125,-1.0,1.0,-1.0,0.0,8.m4v,10.0
2024-02-28 14:00:45.970931,1709125245.970931,0.48828125,-25.87890625,-29.78515625,12.6953125,-1.0,1.0,-1.0,0.0,8.m4v,10.0
2024-02-28 14:00:45.974837,1709125245.9748366,-4.8828125,-4.39453125,-23.92578125,3.90625,-1.0,1.0,-1.0,0.0,8.m4v,10.0
2024-02-28 14:00:45.978747,1709125245.9787471,-3.41796875,-6.34765625,-36.1328125,-8.7890625,-1.0,1.0,-1.0,0.0,8.m4v,10.0
2024-02-28 14:00:45.986558,1709125245.9865582,-15.13671875,-31.25,-48.33984375,-17.08984375,-1.0,1.0,-1.0,0.0,8.m4v,10.0
2024-02-28 14:00:45.990464,1709125245.9904635,-9.765625,-26.85546875,-41.015625,-20.5078125,-1.0,1.0,-1.0,0.0,8.m4v,10.0
2024-02-28 14:00:45.994369,1709125245.994369,-3.41796875,-25.87890625,-38.0859375,-19.53125,-1.0,1.0,-1.0,0.0,8.m4v,10.0
2024-02-28 14:00:46.002180,1709125246.00218,-5.37109375,-45.8984375,-32.2265625,-16.11328125,-1.0,1.0,-1.0,0.0,8.m4v,10.0
2024-02-28 14:00:46.006086,1709125246.0060856,-7.32421875,-24.4140625,-38.57421875,-15.13671875,-1.0,1.0,-1.0,0.0,8.m4v,10.0
2024-02-28 14:00:46.009991,1709125246.0099912,-6.34765625,-23.4375,-41.015625,-13.671875,-1.0,1.0,-1.0,0.0,8.m4v,10.0
2024-02-28 14:00:46.017802,1709125246.017802,-3.90625,-19.04296875,-28.3203125,-18.06640625,-1.0,1.0,-1.0,0.0,8.m4v,10.0
2024-02-28 14:00:46.021708,1709125246.0217075,-5.37109375,-22.4609375,-38.0859375,-21.97265625,-1.0,1.0,-1.0,0.0,8.m4v,10.0
2024-02-28 14:00:46.025618,1709125246.025618,-3.41796875,-19.53125,-54.6875,-21.484375,-1.0,1.0,-1.0,0.0,8.m4v,10.0
2024-02-28 14:00:46.033429,1709125246.0334291,-16.6015625,-27.34375,-38.0859375,-30.76171875,-1.0,1.0,-1.0,0.0,8.m4v,10.0
2024-02-28 14:00:46.037335,1709125246.037335,-17.08984375,-37.109375,-27.83203125,-23.4375,-1.0,1.0,-1.0,0.0,8.m4v,10.0
2024-02-28 14:00:46.041240,1709125246.0412402,-20.01953125,-35.15625,-35.64453125,-21.97265625,-1.0,1.0,-1.0,0.0,8.m4v,10.0
2024-02-28 14:00:46.049051,1709125246.049051,-16.11328125,-25.390625,-29.78515625,-28.3203125,-1.0,1.0,-1.0,0.0,8.m4v,10.0
2024-02-28 14:00:46.052957,1709125246.0529566,-21.97265625,-35.64453125,-29.78515625,-30.76171875,-1.0,1.0,-1.0,0.0,8.m4v,10.0
2024-02-28 14:00:46.056862,1709125246.056862,-22.4609375,-35.64453125,-32.71484375,-29.78515625,-1.0,1.0,-1.0,0.0,8.m4v,10.0
2024-02-28 14:00:46.064673,1709125246.064673,-18.5546875,-37.59765625,-31.73828125,-28.3203125,-1.0,1.0,-1.0,0.0,8.m4v,10.0
2024-02-28 14:00:46.068578,1709125246.0685785,-24.4140625,-44.43359375,-41.50390625,-33.69140625,-1.0,1.0,-1.0,0.0,8.m4v,10.0
2024-02-28 14:00:46.084206,1709125246.0842056,-18.5546875,-24.4140625,-24.90234375,-23.92578125,-1.0,1.0,-1.0,0.0,8.m4v,10.0
2024-02-28 14:00:46.099828,1709125246.0998275,-35.64453125,-44.43359375,-33.203125,-39.55078125,-1.0,1.0,-1.0,0.0,8.m4v,10.0
2024-02-28 14:00:46.115450,1709125246.1154497,-13.671875,-25.390625,-20.5078125,-23.4375,-1.0,1.0,-1.0,0.0,8.m4v,10.0
2024-02-28 14:00:46.127171,1709125246.1271708,-17.08984375,-40.0390625,-39.0625,-17.578125,-1.0,1.0,-1.0,0.0,8.m4v,10.0
2024-02-28 14:00:46.134982,1709125246.134982,-23.92578125,-30.2734375,-21.97265625,-17.578125,-1.0,1.0,-1.0,0.0,8.m4v,10.0
2024-02-28 14:00:46.142793,1709125246.1427927,-27.34375,-35.15625,-34.66796875,-29.78515625,-1.0,1.0,-1.0,0.0,8.m4v,10.0
2024-02-28 14:00:46.150604,1709125246.1506038,-29.296875,-36.1328125,-38.0859375,-36.62109375,-1.0,1.0,-1.0,0.0,8.m4v,10.0
2024-02-28 14:00:46.158415,1709125246.1584148,-35.15625,-27.34375,-22.4609375,-36.1328125,-1.0,1.0,-1.0,0.0,8.m4v,10.0
2024-02-28 14:00:46.170136,1709125246.1701355,-34.1796875,-32.71484375,-35.15625,-32.2265625,-1.0,1.0,-1.0,0.0,8.m4v,10.0
2024-02-28 14:00:46.377147,1709125246.3771474,-26.3671875,-37.59765625,-19.53125,-35.15625,-1.0,1.0,-1.0,0.0,8.m4v,10.0
2024-02-28 14:00:46.392770,1709125246.3927696,-42.96875,-37.59765625,-28.80859375,-47.8515625,-1.0,1.0,-1.0,0.0,8.m4v,10.0
2024-02-28 14:00:46.408396,1709125246.4083965,-24.4140625,-38.0859375,-25.390625,-32.71484375,-1.0,1.0,-1.0,0.0,8.m4v,10.0
2024-02-28 14:00:46.424018,1709125246.4240184,-38.57421875,-30.2734375,-42.48046875,-47.36328125,-1.0,1.0,-1.0,0.0,8.m4v,10.0
2024-02-28 14:00:46.439641,1709125246.4396403,-45.8984375,-34.1796875,-28.3203125,-35.64453125,-1.0,1.0,-1.0,0.0,8.m4v,10.0
2024-02-28 14:00:46.455267,1709125246.4552674,-26.3671875,-38.0859375,-45.8984375,-40.52734375,-1.0,1.0,-1.0,0.0,8.m4v,10.0
2024-02-28 14:00:46.470889,1709125246.470889,-26.85546875,-44.43359375,-31.73828125,-38.57421875,-1.0,1.0,-1.0,0.0,8.m4v,10.0
2024-02-28 14:00:46.486511,1709125246.4865112,-24.90234375,-32.71484375,-34.1796875,-33.69140625,-1.0,1.0,-1.0,0.0,8.m4v,10.0
2024-02-28 14:00:46.779461,1709125246.779461,-40.52734375,-39.0625,-36.1328125,-39.0625,-1.0,1.0,-1.0,0.0,8.m4v,10.0
2024-02-28 14:00:46.783366,1709125246.7833662,-37.59765625,-37.109375,-45.41015625,-42.96875,-1.0,1.0,-1.0,0.0,8.m4v,10.0
2024-02-28 14:00:46.787271,1709125246.7872715,-44.43359375,-35.15625,-42.96875,-44.43359375,-1.0,1.0,-1.0,0.0,8.m4v,10.0
2024-02-28 14:00:46.791177,1709125246.791177,-45.41015625,-45.8984375,-29.296875,-42.48046875,-1.0,1.0,-1.0,0.0,8.m4v,10.0
2024-02-28 14:00:46.795083,1709125246.7950826,-36.62109375,-60.05859375,-30.76171875,-49.8046875,-1.0,1.0,-1.0,0.0,8.m4v,10.0
2024-02-28 14:00:46.798988,1709125246.798988,-40.52734375,-52.24609375,-32.71484375,-54.6875,-1.0,1.0,-1.0,0.0,8.m4v,10.0
2024-02-28 14:00:46.802894,1709125246.8028936,-51.26953125,-29.78515625,-35.15625,-58.10546875,-1.0,1.0,-1.0,0.0,8.m4v,10.0
2024-02-28 14:00:46.806799,1709125246.806799,-46.38671875,-23.4375,-38.57421875,-61.03515625,-1.0,1.0,-1.0,0.0,8.m4v,10.0
2024-02-28 14:00:46.810704,1709125246.8107045,-38.57421875,-29.296875,-33.69140625,-58.10546875,-1.0,1.0,-1.0,0.0,8.m4v,10.0
2024-02-28 14:00:46.814610,1709125246.81461,-39.55078125,-22.94921875,-32.71484375,-51.26953125,-1.0,1.0,-1.0,0.0,8.m4v,10.0
2024-02-28 14:00:46.818516,1709125246.8185155,-36.1328125,-23.4375,-39.55078125,-46.875,-1.0,1.0,-1.0,0.0,8.m4v,10.0
2024-02-28 14:00:46.822426,1709125246.8224258,-31.73828125,-32.71484375,-41.015625,-41.9921875,-1.0,1.0,-1.0,0.0,8.m4v,10.0
2024-02-28 14:00:46.826331,1709125246.8263314,-25.390625,-27.34375,-38.0859375,-37.59765625,-1.0,1.0,-1.0,0.0,8.m4v,10.0
2024-02-28 14:00:46.830237,1709125246.830237,-25.87890625,-30.76171875,-38.0859375,-41.015625,-1.0,1.0,-1.0,0.0,8.m4v,10.0
2024-02-28 14:00:46.834142,1709125246.8341424,-35.64453125,-39.0625,-33.203125,-45.41015625,-1.0,1.0,-1.0,0.0,8.m4v,10.0
2024-02-28 14:00:46.838048,1709125246.838048,-34.66796875,-37.59765625,-21.484375,-42.96875,-1.0,1.0,-1.0,0.0,8.m4v,10.0
2024-02-28 14:00:46.841953,1709125246.8419533,-28.3203125,-22.94921875,-23.92578125,-37.59765625,-1.0,1.0,-1.0,0.0,8.m4v,10.0
2024-02-28 14:00:46.845859,1709125246.8458588,-31.73828125,-38.0859375,-31.25,-39.0625,-1.0,1.0,-1.0,0.0,8.m4v,10.0
2024-02-28 14:00:46.849764,1709125246.8497643,-38.57421875,-43.45703125,-29.78515625,-42.96875,-1.0,1.0,-1.0,0.0,8.m4v,10.0
2024-02-28 14:00:46.853670,1709125246.85367,-41.015625,-27.34375,-29.78515625,-44.43359375,-1.0,1.0,-1.0,0.0,8.m4v,10.0
2024-02-28 14:00:46.861481,1709125246.861481,-35.64453125,-39.55078125,-33.203125,-37.109375,-1.0,1.0,-1.0,0.0,8.m4v,10.0
2024-02-28 14:00:46.869297,1709125246.8692966,-30.2734375,-31.25,-25.390625,-28.3203125,-1.0,1.0,-1.0,0.0,8.m4v,10.0
2024-02-28 14:00:46.877108,1709125246.8771076,-36.1328125,-28.80859375,-44.921875,-29.296875,-1.0,1.0,-1.0,0.0,8.m4v,10.0
2024-02-28 14:00:46.884918,1709125246.8849185,-33.69140625,-31.73828125,-33.69140625,-30.2734375,-1.0,1.0,-1.0,0.0,8.m4v,10.0
2024-02-28 14:00:46.892730,1709125246.8927295,-44.921875,-35.64453125,-28.3203125,-42.96875,-1.0,1.0,-1.0,0.0,8.m4v,10.0
2024-02-28 14:00:46.900541,1709125246.9005406,-50.78125,-35.64453125,-36.62109375,-34.66796875,-1.0,1.0,-1.0,0.0,8.m4v,10.0
2024-02-28 14:00:46.908351,1709125246.9083514,-37.109375,-32.2265625,-25.87890625,-31.73828125,-1.0,1.0,-1.0,0.0,8.m4v,10.0
2024-02-28 14:00:46.916167,1709125246.9161673,-34.66796875,-20.99609375,-40.0390625,-34.1796875,-1.0,1.0,-1.0,0.0,8.m4v,10.0
2024-02-28 14:00:46.923978,1709125246.923978,-42.96875,-27.83203125,-37.59765625,-46.38671875,-1.0,1.0,-1.0,0.0,8.m4v,10.0
2024-02-28 14:00:46.931789,1709125246.9317892,-30.76171875,-23.92578125,-43.45703125,-33.69140625,-1.0,1.0,-1.0,0.0,8.m4v,10.0
2024-02-28 14:00:46.939600,1709125246.9396002,-36.1328125,-43.9453125,-38.57421875,-30.2734375,-1.0,1.0,-1.0,0.0,8.m4v,10.0
2024-02-28 14:00:46.947411,1709125246.947411,-47.36328125,-32.2265625,-27.83203125,-38.0859375,-1.0,1.0,-1.0,0.0,8.m4v,10.0
2024-02-28 14:00:46.955222,1709125246.955222,-34.1796875,-25.390625,-36.62109375,-30.2734375,-1.0,1.0,-1.0,0.0,8.m4v,10.0
2024-02-28 14:00:46.959128,1709125246.9591277,-27.83203125,-28.3203125,-48.33984375,-28.80859375,-1.0,1.0,-1.0,0.0,8.m4v,10.0
2024-02-28 14:00:46.963037,1709125246.9630375,-36.62109375,-44.43359375,-52.734375,-27.83203125,-1.0,1.0,-1.0,0.0,8.m4v,10.0
2024-02-28 14:00:46.966943,1709125246.9669428,-37.109375,-37.59765625,-46.38671875,-30.2734375,-1.0,1.0,-1.0,0.0,8.m4v,10.0
2024-02-28 14:00:46.970848,1709125246.9708483,-40.0390625,-22.4609375,-34.66796875,-32.71484375,-1.0,1.0,-1.0,0.0,8.m4v,10.0
2024-02-28 14:00:46.974754,1709125246.974754,-48.828125,-20.01953125,-35.15625,-29.78515625,-1.0,1.0,-1.0,0.0,8.m4v,10.0
2024-02-28 14:00:46.978659,1709125246.9786594,-38.57421875,-31.73828125,-30.2734375,-30.2734375,-1.0,1.0,-1.0,0.0,8.m4v,10.0
2024-02-28 14:00:46.982565,1709125246.982565,-39.55078125,-35.64453125,-27.34375,-44.43359375,-1.0,1.0,-1.0,0.0,8.m4v,10.0
2024-02-28 14:00:46.986470,1709125246.9864702,-50.78125,-30.76171875,-31.73828125,-54.6875,-1.0,1.0,-1.0,0.0,8.m4v,10.0
2024-02-28 14:00:46.990376,1709125246.9903758,-44.921875,-31.73828125,-31.73828125,-56.15234375,-1.0,1.0,-1.0,0.0,8.m4v,10.0
2024-02-28 14:00:46.994281,1709125246.9942813,-39.0625,-32.71484375,-30.2734375,-50.78125,-1.0,1.0,-1.0,0.0,8.m4v,10.0
2024-02-28 14:00:46.998187,1709125246.9981868,-38.0859375,-38.57421875,-31.73828125,-42.48046875,-1.0,1.0,-1.0,0.0,8.m4v,10.0
2024-02-28 14:00:47.002092,1709125247.0020924,-39.55078125,-51.26953125,-40.0390625,-40.0390625,-1.0,1.0,-1.0,0.0,8.m4v,10.0
2024-02-28 14:00:47.005998,1709125247.005998,-41.015625,-49.31640625,-49.8046875,-37.59765625,-1.0,1.0,-1.0,0.0,8.m4v,10.0
2024-02-28 14:00:47.009909,1709125247.009909,-42.48046875,-35.15625,-39.0625,-35.64453125,-1.0,1.0,-1.0,0.0,8.m4v,10.0
2024-02-28 14:00:47.013814,1709125247.0138144,-49.8046875,-28.3203125,-25.87890625,-35.15625,-1.0,1.0,-1.0,0.0,8.m4v,10.0
2024-02-28 14:00:47.017720,1709125247.0177195,-48.828125,-31.73828125,-29.78515625,-37.59765625,-1.0,1.0,-1.0,0.0,8.m4v,10.0
2024-02-28 14:00:47.021625,1709125247.0216253,-41.9921875,-35.15625,-34.1796875,-45.8984375,-1.0,1.0,-1.0,0.0,8.m4v,10.0
2024-02-28 14:00:47.025531,1709125247.0255308,-39.55078125,-40.0390625,-44.43359375,-48.33984375,-1.0,1.0,-1.0,0.0,8.m4v,10.0
2024-02-28 14:00:47.029436,1709125247.0294363,-34.66796875,-36.62109375,-41.015625,-44.921875,-1.0,1.0,-1.0,0.0,8.m4v,10.0
2024-02-28 14:00:47.033342,1709125247.033342,-35.64453125,-29.78515625,-28.3203125,-40.0390625,-1.0,1.0,-1.0,0.0,8.m4v,10.0
2024-02-28 14:00:47.037247,1709125247.0372474,-41.50390625,-33.203125,-27.34375,-45.41015625,-1.0,1.0,-1.0,0.0,8.m4v,10.0
2024-02-28 14:00:47.041153,1709125247.0411527,-33.69140625,-35.15625,-37.109375,-44.43359375,-1.0,1.0,-1.0,0.0,8.m4v,10.0
2024-02-28 14:00:47.045058,1709125247.0450585,-31.25,-33.69140625,-44.43359375,-40.52734375,-1.0,1.0,-1.0,0.0,8.m4v,10.0
2024-02-28 14:00:47.048964,1709125247.0489638,-39.0625,-28.80859375,-44.43359375,-46.875,-1.0,1.0,-1.0,0.0,8.m4v,10.0
2024-02-28 14:00:47.052869,1709125247.052869,-46.38671875,-36.62109375,-33.203125,-53.7109375,-1.0,1.0,-1.0,0.0,8.m4v,10.0
2024-02-28 14:00:47.056780,1709125247.05678,-43.45703125,-57.6171875,-22.4609375,-43.45703125,-1.0,1.0,-1.0,0.0,8.m4v,10.0
2024-02-28 14:00:47.060686,1709125247.0606856,-36.1328125,-39.0625,-28.3203125,-36.1328125,-1.0,1.0,-1.0,0.0,8.m4v,10.0
2024-02-28 14:00:47.064591,1709125247.0645912,-38.57421875,-29.78515625,-36.62109375,-41.015625,-1.0,1.0,-1.0,0.0,8.m4v,10.0
2024-02-28 14:00:47.068496,1709125247.0684965,-40.0390625,-45.41015625,-41.50390625,-40.0390625,-1.0,1.0,-1.0,0.0,8.m4v,10.0
2024-02-28 14:00:47.072402,1709125247.072402,-39.0625,-53.7109375,-37.59765625,-41.9921875,-1.0,1.0,-1.0,0.0,8.m4v,10.0
2024-02-28 14:00:47.076308,1709125247.0763075,-40.0390625,-31.73828125,-36.62109375,-43.45703125,-1.0,1.0,-1.0,0.0,8.m4v,10.0
2024-02-28 14:00:47.080213,1709125247.080213,-32.2265625,-17.578125,-37.109375,-42.96875,-1.0,1.0,-1.0,0.0,8.m4v,10.0
2024-02-28 14:00:47.084119,1709125247.0841186,-31.25,-27.34375,-40.52734375,-48.33984375,-1.0,1.0,-1.0,0.0,8.m4v,10.0
2024-02-28 14:00:47.088024,1709125247.088024,-36.1328125,-19.04296875,-41.9921875,-42.96875,-1.0,1.0,-1.0,0.0,8.m4v,10.0
2024-02-28 14:00:47.091929,1709125247.0919294,-38.57421875,-23.4375,-39.55078125,-41.50390625,-1.0,1.0,-1.0,0.0,8.m4v,10.0
2024-02-28 14:00:47.095835,1709125247.095835,-38.0859375,-38.57421875,-43.9453125,-46.875,-1.0,1.0,-1.0,0.0,8.m4v,10.0
2024-02-28 14:00:47.099741,1709125247.0997405,-33.203125,-34.1796875,-43.45703125,-35.64453125,-1.0,1.0,-1.0,0.0,8.m4v,10.0
2024-02-28 14:00:47.103651,1709125247.1036513,-32.71484375,-31.25,-34.1796875,-34.66796875,-1.0,1.0,-1.0,0.0,8.m4v,10.0
2024-02-28 14:00:47.107557,1709125247.1075568,-35.15625,-36.1328125,-22.94921875,-48.33984375,-1.0,1.0,-1.0,0.0,8.m4v,10.0
2024-02-28 14:00:47.111462,1709125247.1114624,-34.1796875,-41.015625,-25.87890625,-47.36328125,-1.0,1.0,-1.0,0.0,8.m4v,10.0
2024-02-28 14:00:47.115368,1709125247.1153677,-34.1796875,-37.59765625,-34.1796875,-48.33984375,-1.0,1.0,-1.0,0.0,8.m4v,10.0
2024-02-28 14:00:47.119273,1709125247.1192732,-35.15625,-24.4140625,-37.109375,-52.734375,-1.0,1.0,-1.0,0.0,8.m4v,10.0
2024-02-28 14:00:47.123179,1709125247.1231787,-33.203125,-29.296875,-38.0859375,-48.828125,-1.0,1.0,-1.0,0.0,8.m4v,10.0
2024-02-28 14:00:47.127084,1709125247.1270845,-33.203125,-36.1328125,-28.3203125,-42.48046875,-1.0,1.0,-1.0,0.0,8.m4v,10.0
2024-02-28 14:00:47.130990,1709125247.1309898,-33.69140625,-23.92578125,-30.76171875,-34.66796875,-1.0,1.0,-1.0,0.0,8.m4v,10.0
2024-02-28 14:00:47.134895,1709125247.134895,-41.9921875,-29.296875,-43.45703125,-33.69140625,-1.0,1.0,-1.0,0.0,8.m4v,10.0
2024-02-28 14:00:47.138801,1709125247.1388006,-46.38671875,-38.0859375,-34.1796875,-36.62109375,-1.0,1.0,-1.0,0.0,8.m4v,10.0
