Timestamp,Timestamp_UNIX,TP9,AF7,AF8,TP10,Valence,Arousal,Dominace,Viewed,Video,Participant
2024-02-28 13:42:16.001912,1709124136.001912,-21.484375,-33.69140625,-40.52734375,-36.1328125,1.0,1.0,1.0,0.0,5.m4v,10.0
2024-02-28 13:42:16.005816,1709124136.0058165,-31.25,-33.69140625,-33.69140625,-37.109375,1.0,1.0,1.0,0.0,5.m4v,10.0
2024-02-28 13:42:16.009721,1709124136.009721,-38.0859375,-35.15625,-32.2265625,-41.015625,1.0,1.0,1.0,0.0,5.m4v,10.0
2024-02-28 13:42:16.412019,1709124136.4120195,-36.1328125,-33.69140625,-36.1328125,-38.0859375,1.0,1.0,1.0,0.0,5.m4v,10.0
2024-02-28 13:42:16.415924,1709124136.415924,-40.52734375,-32.71484375,-33.69140625,-44.43359375,1.0,1.0,1.0,0.0,5.m4v,10.0
2024-02-28 13:42:16.419829,1709124136.419829,-35.15625,-32.71484375,-31.73828125,-41.015625,1.0,1.0,1.0,0.0,5.m4v,10.0
2024-02-28 13:42:16.423733,1709124136.4237337,-36.62109375,-32.71484375,-29.78515625,-38.0859375,1.0,1.0,1.0,0.0,5.m4v,10.0
2024-02-28 13:42:16.427638,1709124136.427638,-43.9453125,-36.62109375,-34.1796875,-40.0390625,1.0,1.0,1.0,0.0,5.m4v,10.0
2024-02-28 13:42:16.431543,1709124136.4315426,-41.9921875,-37.59765625,-37.109375,-41.9921875,1.0,1.0,1.0,0.0,5.m4v,10.0
2024-02-28 13:42:16.435447,1709124136.4354472,-49.8046875,-35.64453125,-32.71484375,-37.109375,1.0,1.0,1.0,0.0,5.m4v,10.0
2024-02-28 13:42:16.439352,1709124136.4393518,-55.6640625,-32.2265625,-28.80859375,-33.203125,1.0,1.0,1.0,0.0,5.m4v,10.0
2024-02-28 13:42:16.443256,1709124136.4432564,-54.6875,-27.34375,-29.296875,-41.50390625,1.0,1.0,1.0,0.0,5.m4v,10.0
2024-02-28 13:42:16.447161,1709124136.4471612,-48.33984375,-26.3671875,-35.64453125,-41.50390625,1.0,1.0,1.0,0.0,5.m4v,10.0
2024-02-28 13:42:16.451066,1709124136.4510658,-44.921875,-31.25,-38.0859375,-35.64453125,1.0,1.0,1.0,0.0,5.m4v,10.0
2024-02-28 13:42:16.454970,1709124136.4549704,-56.640625,-33.203125,-39.0625,-36.1328125,1.0,1.0,1.0,0.0,5.m4v,10.0
2024-02-28 13:42:16.458887,1709124136.458887,-58.59375,-32.71484375,-40.52734375,-40.52734375,1.0,1.0,1.0,0.0,5.m4v,10.0
2024-02-28 13:42:16.462792,1709124136.4627922,-44.43359375,-34.1796875,-35.64453125,-37.59765625,1.0,1.0,1.0,0.0,5.m4v,10.0
2024-02-28 13:42:16.466697,1709124136.4666967,-31.73828125,-32.2265625,-30.76171875,-29.296875,1.0,1.0,1.0,0.0,5.m4v,10.0
2024-02-28 13:42:16.470601,1709124136.470601,-33.203125,-32.71484375,-28.3203125,-27.83203125,1.0,1.0,1.0,0.0,5.m4v,10.0
2024-02-28 13:42:16.474506,1709124136.474506,-40.52734375,-34.1796875,-24.4140625,-28.80859375,1.0,1.0,1.0,0.0,5.m4v,10.0
2024-02-28 13:42:16.478410,1709124136.4784105,-40.0390625,-34.66796875,-26.85546875,-26.85546875,1.0,1.0,1.0,0.0,5.m4v,10.0
2024-02-28 13:42:16.482315,1709124136.482315,-38.0859375,-33.203125,-25.390625,-22.94921875,1.0,1.0,1.0,0.0,5.m4v,10.0
2024-02-28 13:42:16.486220,1709124136.48622,-46.38671875,-30.2734375,-26.85546875,-24.90234375,1.0,1.0,1.0,0.0,5.m4v,10.0
2024-02-28 13:42:16.490124,1709124136.4901245,-47.8515625,-35.64453125,-34.1796875,-24.4140625,1.0,1.0,1.0,0.0,5.m4v,10.0
2024-02-28 13:42:16.494029,1709124136.494029,-45.41015625,-35.15625,-31.73828125,-22.94921875,1.0,1.0,1.0,0.0,5.m4v,10.0
2024-02-28 13:42:16.497934,1709124136.4979336,-55.17578125,-28.80859375,-33.203125,-27.83203125,1.0,1.0,1.0,0.0,5.m4v,10.0
2024-02-28 13:42:16.501838,1709124136.5018382,-61.5234375,-32.71484375,-37.59765625,-34.1796875,1.0,1.0,1.0,0.0,5.m4v,10.0
2024-02-28 13:42:16.505755,1709124136.5057547,-50.29296875,-30.2734375,-34.1796875,-39.0625,1.0,1.0,1.0,0.0,5.m4v,10.0
2024-02-28 13:42:16.509660,1709124136.5096595,-40.0390625,-26.85546875,-31.25,-36.62109375,1.0,1.0,1.0,0.0,5.m4v,10.0
2024-02-28 13:42:16.513564,1709124136.513564,-39.55078125,-34.1796875,-34.66796875,-38.57421875,1.0,1.0,1.0,0.0,5.m4v,10.0
2024-02-28 13:42:16.517469,1709124136.5174687,-32.71484375,-37.59765625,-35.64453125,-39.55078125,1.0,1.0,1.0,0.0,5.m4v,10.0
2024-02-28 13:42:16.521373,1709124136.5213733,-23.92578125,-37.109375,-37.59765625,-33.203125,1.0,1.0,1.0,0.0,5.m4v,10.0
2024-02-28 13:42:16.525278,1709124136.525278,-20.99609375,-31.73828125,-33.203125,-35.15625,1.0,1.0,1.0,0.0,5.m4v,10.0
2024-02-28 13:42:16.529182,1709124136.5291824,-19.04296875,-31.73828125,-33.69140625,-40.0390625,1.0,1.0,1.0,0.0,5.m4v,10.0
2024-02-28 13:42:16.533087,1709124136.5330873,-26.85546875,-34.66796875,-45.41015625,-41.50390625,1.0,1.0,1.0,0.0,5.m4v,10.0
2024-02-28 13:42:16.536992,1709124136.5369918,-36.1328125,-34.66796875,-44.921875,-46.38671875,1.0,1.0,1.0,0.0,5.m4v,10.0
2024-02-28 13:42:16.540896,1709124136.5408964,-37.109375,-40.52734375,-37.59765625,-44.43359375,1.0,1.0,1.0,0.0,5.m4v,10.0
2024-02-28 13:42:16.544801,1709124136.544801,-39.0625,-39.0625,-35.64453125,-44.921875,1.0,1.0,1.0,0.0,5.m4v,10.0
2024-02-28 13:42:16.548706,1709124136.5487056,-36.1328125,-39.55078125,-34.66796875,-50.78125,1.0,1.0,1.0,0.0,5.m4v,10.0
2024-02-28 13:42:16.552622,1709124136.5526223,-29.78515625,-41.015625,-32.2265625,-48.33984375,1.0,1.0,1.0,0.0,5.m4v,10.0
2024-02-28 13:42:16.556527,1709124136.556527,-36.1328125,-38.57421875,-37.59765625,-51.7578125,1.0,1.0,1.0,0.0,5.m4v,10.0
2024-02-28 13:42:16.560432,1709124136.5604317,-35.64453125,-34.66796875,-38.57421875,-57.12890625,1.0,1.0,1.0,0.0,5.m4v,10.0
2024-02-28 13:42:16.564336,1709124136.5643363,-31.25,-35.64453125,-35.64453125,-51.7578125,1.0,1.0,1.0,0.0,5.m4v,10.0
2024-02-28 13:42:16.568241,1709124136.568241,-23.92578125,-34.66796875,-35.64453125,-46.38671875,1.0,1.0,1.0,0.0,5.m4v,10.0
2024-02-28 13:42:16.572145,1709124136.5721457,-20.5078125,-32.2265625,-37.59765625,-45.8984375,1.0,1.0,1.0,0.0,5.m4v,10.0
2024-02-28 13:42:16.576050,1709124136.57605,-21.484375,-33.203125,-41.015625,-44.43359375,1.0,1.0,1.0,0.0,5.m4v,10.0
2024-02-28 13:42:16.579955,1709124136.5799546,-10.7421875,-33.203125,-40.52734375,-41.015625,1.0,1.0,1.0,0.0,5.m4v,10.0
2024-02-28 13:42:16.583859,1709124136.5838594,-2.9296875,-32.2265625,-39.55078125,-38.0859375,1.0,1.0,1.0,0.0,5.m4v,10.0
2024-02-28 13:42:16.587764,1709124136.587764,-5.859375,-36.1328125,-38.57421875,-37.109375,1.0,1.0,1.0,0.0,5.m4v,10.0
2024-02-28 13:42:16.591669,1709124136.5916686,-7.8125,-35.15625,-38.0859375,-36.62109375,1.0,1.0,1.0,0.0,5.m4v,10.0
2024-02-28 13:42:16.595573,1709124136.5955732,-4.8828125,-31.25,-34.1796875,-34.1796875,1.0,1.0,1.0,0.0,5.m4v,10.0
2024-02-28 13:42:16.599488,1709124136.5994885,-0.9765625,-29.78515625,-30.2734375,-28.3203125,1.0,1.0,1.0,0.0,5.m4v,10.0
2024-02-28 13:42:16.603393,1709124136.603393,4.8828125,-28.3203125,-29.296875,-26.3671875,1.0,1.0,1.0,0.0,5.m4v,10.0
2024-02-28 13:42:16.607298,1709124136.6072977,0.9765625,-30.76171875,-31.73828125,-29.296875,1.0,1.0,1.0,0.0,5.m4v,10.0
2024-02-28 13:42:16.611202,1709124136.6112022,-4.39453125,-29.78515625,-34.1796875,-27.83203125,1.0,1.0,1.0,0.0,5.m4v,10.0
2024-02-28 13:42:16.615107,1709124136.6151068,-8.30078125,-31.25,-34.1796875,-27.83203125,1.0,1.0,1.0,0.0,5.m4v,10.0
2024-02-28 13:42:16.619011,1709124136.6190114,-11.71875,-28.3203125,-33.69140625,-24.90234375,1.0,1.0,1.0,0.0,5.m4v,10.0
2024-02-28 13:42:16.622916,1709124136.6229162,-15.625,-27.34375,-36.62109375,-27.83203125,1.0,1.0,1.0,0.0,5.m4v,10.0
2024-02-28 13:42:16.626821,1709124136.6268208,-26.3671875,-30.2734375,-38.0859375,-31.73828125,1.0,1.0,1.0,0.0,5.m4v,10.0
2024-02-28 13:42:16.630725,1709124136.6307254,-26.85546875,-31.73828125,-34.66796875,-29.296875,1.0,1.0,1.0,0.0,5.m4v,10.0
2024-02-28 13:42:16.634630,1709124136.63463,-25.87890625,-27.34375,-33.69140625,-24.4140625,1.0,1.0,1.0,0.0,5.m4v,10.0
2024-02-28 13:42:16.638535,1709124136.6385343,-36.1328125,-21.97265625,-33.69140625,-25.87890625,1.0,1.0,1.0,0.0,5.m4v,10.0
2024-02-28 13:42:16.642439,1709124136.6424391,-34.66796875,-24.90234375,-30.76171875,-29.78515625,1.0,1.0,1.0,0.0,5.m4v,10.0
2024-02-28 13:42:16.646358,1709124136.6463585,-31.25,-28.80859375,-27.83203125,-25.390625,1.0,1.0,1.0,0.0,5.m4v,10.0
2024-02-28 13:42:16.650263,1709124136.6502628,-30.2734375,-27.34375,-26.85546875,-18.5546875,1.0,1.0,1.0,0.0,5.m4v,10.0
2024-02-28 13:42:16.654167,1709124136.6541674,-38.0859375,-28.80859375,-29.78515625,-20.5078125,1.0,1.0,1.0,0.0,5.m4v,10.0
2024-02-28 13:42:16.658072,1709124136.658072,-45.8984375,-30.2734375,-31.25,-21.484375,1.0,1.0,1.0,0.0,5.m4v,10.0
2024-02-28 13:42:16.661977,1709124136.6619766,-44.921875,-29.78515625,-31.25,-25.87890625,1.0,1.0,1.0,0.0,5.m4v,10.0
2024-02-28 13:42:16.665881,1709124136.6658814,-46.875,-35.64453125,-26.3671875,-31.73828125,1.0,1.0,1.0,0.0,5.m4v,10.0
2024-02-28 13:42:16.669786,1709124136.669786,-47.36328125,-34.1796875,-27.34375,-35.15625,1.0,1.0,1.0,0.0,5.m4v,10.0
2024-02-28 13:42:16.673691,1709124136.6736906,-52.24609375,-33.203125,-33.203125,-41.015625,1.0,1.0,1.0,0.0,5.m4v,10.0
2024-02-28 13:42:16.677595,1709124136.6775951,-53.22265625,-31.25,-26.3671875,-38.57421875,1.0,1.0,1.0,0.0,5.m4v,10.0
2024-02-28 13:42:16.681500,1709124136.6814995,-46.38671875,-30.2734375,-29.296875,-37.109375,1.0,1.0,1.0,0.0,5.m4v,10.0
2024-02-28 13:42:16.685404,1709124136.6854043,-40.0390625,-32.2265625,-38.0859375,-39.55078125,1.0,1.0,1.0,0.0,5.m4v,10.0
2024-02-28 13:42:16.689309,1709124136.6893091,-34.1796875,-27.83203125,-32.2265625,-37.59765625,1.0,1.0,1.0,0.0,5.m4v,10.0
2024-02-28 13:42:16.693228,1709124136.6932275,-28.3203125,-27.83203125,-30.76171875,-30.76171875,1.0,1.0,1.0,0.0,5.m4v,10.0
2024-02-28 13:42:16.697132,1709124136.697132,-28.80859375,-33.69140625,-29.78515625,-34.1796875,1.0,1.0,1.0,0.0,5.m4v,10.0
2024-02-28 13:42:16.701037,1709124136.7010367,-28.3203125,-36.1328125,-33.69140625,-39.0625,1.0,1.0,1.0,0.0,5.m4v,10.0
2024-02-28 13:42:16.704941,1709124136.7049413,-33.69140625,-36.1328125,-37.109375,-35.64453125,1.0,1.0,1.0,0.0,5.m4v,10.0
2024-02-28 13:42:16.708846,1709124136.708846,-36.1328125,-34.1796875,-30.76171875,-33.69140625,1.0,1.0,1.0,0.0,5.m4v,10.0
2024-02-28 13:42:16.712751,1709124136.712751,-31.25,-33.69140625,-33.69140625,-34.1796875,1.0,1.0,1.0,0.0,5.m4v,10.0
2024-02-28 13:42:16.716655,1709124136.7166553,-41.50390625,-31.25,-40.0390625,-38.57421875,1.0,1.0,1.0,0.0,5.m4v,10.0
2024-02-28 13:42:16.720560,1709124136.7205598,-46.38671875,-32.71484375,-36.62109375,-37.59765625,1.0,1.0,1.0,0.0,5.m4v,10.0
2024-02-28 13:42:16.724464,1709124136.7244644,-42.96875,-37.109375,-36.62109375,-34.66796875,1.0,1.0,1.0,0.0,5.m4v,10.0
2024-02-28 13:42:16.728369,1709124136.728369,-41.015625,-34.66796875,-38.0859375,-36.62109375,1.0,1.0,1.0,0.0,5.m4v,10.0
2024-02-28 13:42:16.732274,1709124136.7322738,-38.57421875,-28.80859375,-32.71484375,-40.0390625,1.0,1.0,1.0,0.0,5.m4v,10.0
2024-02-28 13:42:16.736178,1709124136.7361784,-41.50390625,-28.3203125,-28.80859375,-41.50390625,1.0,1.0,1.0,0.0,5.m4v,10.0
2024-02-28 13:42:16.740097,1709124136.7400966,-32.71484375,-29.78515625,-27.83203125,-28.3203125,1.0,1.0,1.0,0.0,5.m4v,10.0
2024-02-28 13:42:16.744001,1709124136.7440012,-34.1796875,-32.71484375,-27.83203125,-26.3671875,1.0,1.0,1.0,0.0,5.m4v,10.0
2024-02-28 13:42:16.747906,1709124136.7479055,-40.0390625,-33.203125,-30.2734375,-30.76171875,1.0,1.0,1.0,0.0,5.m4v,10.0
2024-02-28 13:42:16.751810,1709124136.7518103,-38.57421875,-31.25,-30.76171875,-31.73828125,1.0,1.0,1.0,0.0,5.m4v,10.0
2024-02-28 13:42:16.755715,1709124136.7557151,-39.55078125,-33.69140625,-30.2734375,-35.64453125,1.0,1.0,1.0,0.0,5.m4v,10.0
2024-02-28 13:42:16.759620,1709124136.7596197,-41.9921875,-34.66796875,-36.1328125,-36.1328125,1.0,1.0,1.0,0.0,5.m4v,10.0
2024-02-28 13:42:16.763524,1709124136.7635243,-38.0859375,-35.64453125,-42.48046875,-34.1796875,1.0,1.0,1.0,0.0,5.m4v,10.0
2024-02-28 13:42:16.767429,1709124136.7674289,-33.69140625,-37.59765625,-41.015625,-29.296875,1.0,1.0,1.0,0.0,5.m4v,10.0
2024-02-28 13:42:16.771333,1709124136.7713337,-40.52734375,-33.69140625,-41.50390625,-32.71484375,1.0,1.0,1.0,0.0,5.m4v,10.0
2024-02-28 13:42:16.775238,1709124136.775238,-41.015625,-30.76171875,-41.9921875,-36.62109375,1.0,1.0,1.0,0.0,5.m4v,10.0
2024-02-28 13:42:16.779143,1709124136.7791429,-39.0625,-35.15625,-37.109375,-35.64453125,1.0,1.0,1.0,0.0,5.m4v,10.0
2024-02-28 13:42:16.783047,1709124136.7830474,-35.15625,-38.0859375,-37.59765625,-35.64453125,1.0,1.0,1.0,0.0,5.m4v,10.0
2024-02-28 13:42:16.786965,1709124136.786965,-25.87890625,-33.69140625,-37.109375,-34.66796875,1.0,1.0,1.0,0.0,5.m4v,10.0
2024-02-28 13:42:16.790869,1709124136.7908697,-25.390625,-35.15625,-33.203125,-34.66796875,1.0,1.0,1.0,0.0,5.m4v,10.0
2024-02-28 13:42:16.794774,1709124136.794774,-30.76171875,-37.59765625,-32.2265625,-34.1796875,1.0,1.0,1.0,0.0,5.m4v,10.0
2024-02-28 13:42:16.798679,1709124136.7986786,-35.15625,-38.0859375,-40.0390625,-38.57421875,1.0,1.0,1.0,0.0,5.m4v,10.0
2024-02-28 13:42:16.802583,1709124136.8025832,-27.34375,-37.109375,-39.55078125,-37.109375,1.0,1.0,1.0,0.0,5.m4v,10.0
2024-02-28 13:42:16.806488,1709124136.8064878,-27.34375,-34.1796875,-33.203125,-35.15625,1.0,1.0,1.0,0.0,5.m4v,10.0
2024-02-28 13:42:16.810392,1709124136.8103924,-30.76171875,-34.66796875,-34.66796875,-41.9921875,1.0,1.0,1.0,0.0,5.m4v,10.0
2024-02-28 13:42:16.814297,1709124136.8142972,-30.2734375,-30.76171875,-36.62109375,-43.9453125,1.0,1.0,1.0,0.0,5.m4v,10.0
2024-02-28 13:42:16.818202,1709124136.8182018,-41.9921875,-30.76171875,-33.203125,-48.33984375,1.0,1.0,1.0,0.0,5.m4v,10.0
2024-02-28 13:42:16.822106,1709124136.8221064,-40.52734375,-34.66796875,-28.3203125,-47.8515625,1.0,1.0,1.0,0.0,5.m4v,10.0
2024-02-28 13:42:16.826011,1709124136.826011,-38.57421875,-37.109375,-29.296875,-44.921875,1.0,1.0,1.0,0.0,5.m4v,10.0
2024-02-28 13:42:16.829916,1709124136.8299155,-39.55078125,-32.71484375,-23.92578125,-44.921875,1.0,1.0,1.0,0.0,5.m4v,10.0
2024-02-28 13:42:16.833833,1709124136.8338327,-41.015625,-29.78515625,-25.87890625,-46.875,1.0,1.0,1.0,0.0,5.m4v,10.0
2024-02-28 13:42:16.837737,1709124136.837737,-47.8515625,-39.55078125,-29.78515625,-54.6875,1.0,1.0,1.0,0.0,5.m4v,10.0
2024-02-28 13:42:16.841642,1709124136.841642,-52.24609375,-43.9453125,-27.83203125,-58.10546875,1.0,1.0,1.0,0.0,5.m4v,10.0
2024-02-28 13:42:16.845546,1709124136.8455465,-57.12890625,-41.9921875,-27.34375,-64.94140625,1.0,1.0,1.0,0.0,5.m4v,10.0
2024-02-28 13:42:16.849451,1709124136.8494513,-74.21875,-40.52734375,-24.90234375,-78.61328125,1.0,1.0,1.0,0.0,5.m4v,10.0
2024-02-28 13:42:16.853356,1709124136.853356,-88.8671875,-42.48046875,-22.94921875,-101.07421875,1.0,1.0,1.0,0.0,5.m4v,10.0
2024-02-28 13:42:16.857260,1709124136.8572605,-111.81640625,-49.31640625,-19.04296875,-118.65234375,1.0,1.0,1.0,0.0,5.m4v,10.0
2024-02-28 13:42:16.861165,1709124136.861165,-136.71875,-53.7109375,-17.578125,-129.8828125,1.0,1.0,1.0,0.0,5.m4v,10.0
2024-02-28 13:42:16.865070,1709124136.8650696,-145.99609375,-49.31640625,-20.01953125,-142.08984375,1.0,1.0,1.0,0.0,5.m4v,10.0
2024-02-28 13:42:16.868974,1709124136.8689742,-156.73828125,-49.8046875,-17.08984375,-158.203125,1.0,1.0,1.0,0.0,5.m4v,10.0
2024-02-28 13:42:16.872879,1709124136.872879,-172.8515625,-51.26953125,-21.97265625,-177.734375,1.0,1.0,1.0,0.0,5.m4v,10.0
2024-02-28 13:42:16.876784,1709124136.8767836,-178.7109375,-49.8046875,-22.4609375,-186.5234375,1.0,1.0,1.0,0.0,5.m4v,10.0
2024-02-28 13:42:16.880700,1709124136.8807,-179.6875,-52.24609375,-21.97265625,-185.05859375,1.0,1.0,1.0,0.0,5.m4v,10.0
2024-02-28 13:42:16.884605,1709124136.8846047,-185.546875,-53.22265625,-26.3671875,-189.453125,1.0,1.0,1.0,0.0,5.m4v,10.0
2024-02-28 13:42:16.888509,1709124136.8885093,-189.453125,-48.33984375,-28.3203125,-191.89453125,1.0,1.0,1.0,0.0,5.m4v,10.0
2024-02-28 13:42:16.892414,1709124136.892414,-184.5703125,-47.8515625,-23.92578125,-189.453125,1.0,1.0,1.0,0.0,5.m4v,10.0
2024-02-28 13:42:16.896319,1709124136.896319,-186.03515625,-44.921875,-25.87890625,-186.03515625,1.0,1.0,1.0,0.0,5.m4v,10.0
2024-02-28 13:42:16.900223,1709124136.9002233,-179.19921875,-38.57421875,-31.73828125,-177.24609375,1.0,1.0,1.0,0.0,5.m4v,10.0
2024-02-28 13:42:16.904128,1709124136.9041278,-167.48046875,-42.48046875,-34.66796875,-171.38671875,1.0,1.0,1.0,0.0,5.m4v,10.0
2024-02-28 13:42:16.908032,1709124136.9080324,-166.50390625,-40.0390625,-39.0625,-169.921875,1.0,1.0,1.0,0.0,5.m4v,10.0
2024-02-28 13:42:16.911937,1709124136.911937,-157.71484375,-35.15625,-37.59765625,-162.109375,1.0,1.0,1.0,0.0,5.m4v,10.0
2024-02-28 13:42:16.915842,1709124136.9158416,-139.16015625,-31.25,-33.203125,-138.671875,1.0,1.0,1.0,0.0,5.m4v,10.0
2024-02-28 13:42:16.919746,1709124136.9197464,-125.9765625,-26.85546875,-33.203125,-122.55859375,1.0,1.0,1.0,0.0,5.m4v,10.0
2024-02-28 13:42:16.923651,1709124136.923651,-120.1171875,-31.73828125,-38.57421875,-120.1171875,1.0,1.0,1.0,0.0,5.m4v,10.0
2024-02-28 13:42:16.927567,1709124136.927567,-103.515625,-31.25,-38.0859375,-104.4921875,1.0,1.0,1.0,0.0,5.m4v,10.0
2024-02-28 13:42:16.931472,1709124136.9314716,-83.984375,-23.92578125,-33.69140625,-90.33203125,1.0,1.0,1.0,0.0,5.m4v,10.0
2024-02-28 13:42:16.935376,1709124136.9353762,-79.1015625,-28.80859375,-38.57421875,-82.51953125,1.0,1.0,1.0,0.0,5.m4v,10.0
2024-02-28 13:42:16.939281,1709124136.939281,-66.40625,-38.0859375,-37.109375,-65.91796875,1.0,1.0,1.0,0.0,5.m4v,10.0
2024-02-28 13:42:16.943186,1709124136.9431856,-54.19921875,-37.109375,-34.66796875,-54.19921875,1.0,1.0,1.0,0.0,5.m4v,10.0
2024-02-28 13:42:16.947090,1709124136.94709,-40.52734375,-30.76171875,-35.64453125,-44.921875,1.0,1.0,1.0,0.0,5.m4v,10.0
2024-02-28 13:42:16.950995,1709124136.9509947,-31.25,-32.2265625,-35.64453125,-33.69140625,1.0,1.0,1.0,0.0,5.m4v,10.0
2024-02-28 13:42:16.954899,1709124136.9548993,-29.78515625,-36.1328125,-36.1328125,-24.4140625,1.0,1.0,1.0,0.0,5.m4v,10.0
2024-02-28 13:42:16.958804,1709124136.958804,-21.97265625,-34.1796875,-32.2265625,-11.23046875,1.0,1.0,1.0,0.0,5.m4v,10.0
2024-02-28 13:42:16.962709,1709124136.9627087,-10.7421875,-33.69140625,-33.203125,0.48828125,1.0,1.0,1.0,0.0,5.m4v,10.0
2024-02-28 13:42:16.966613,1709124136.9666133,-3.90625,-35.64453125,-32.2265625,4.8828125,1.0,1.0,1.0,0.0,5.m4v,10.0
2024-02-28 13:42:16.970518,1709124136.970518,-2.44140625,-35.64453125,-28.3203125,10.7421875,1.0,1.0,1.0,0.0,5.m4v,10.0
2024-02-28 13:42:16.974433,1709124136.9744334,7.8125,-33.203125,-30.76171875,14.6484375,1.0,1.0,1.0,0.0,5.m4v,10.0
2024-02-28 13:42:16.978338,1709124136.978338,13.671875,-34.1796875,-33.69140625,14.6484375,1.0,1.0,1.0,0.0,5.m4v,10.0
2024-02-28 13:42:16.982243,1709124136.9822428,7.32421875,-36.1328125,-34.1796875,11.71875,1.0,1.0,1.0,0.0,5.m4v,10.0
2024-02-28 13:42:16.986147,1709124136.9861474,9.765625,-34.66796875,-35.15625,7.8125,1.0,1.0,1.0,0.0,5.m4v,10.0
2024-02-28 13:42:16.990052,1709124136.990052,19.53125,-36.1328125,-36.1328125,13.18359375,1.0,1.0,1.0,0.0,5.m4v,10.0
2024-02-28 13:42:16.993957,1709124136.9939566,20.01953125,-35.64453125,-33.69140625,18.5546875,1.0,1.0,1.0,0.0,5.m4v,10.0
2024-02-28 13:42:17.443111,1709124137.4431112,-29.78515625,-32.71484375,-36.1328125,-31.73828125,1.0,1.0,1.0,0.0,5.m4v,10.0
2024-02-28 13:42:17.447016,1709124137.4470158,-33.203125,-29.78515625,-39.0625,-33.69140625,1.0,1.0,1.0,0.0,5.m4v,10.0
2024-02-28 13:42:17.450920,1709124137.4509203,-48.33984375,-31.73828125,-42.48046875,-42.96875,1.0,1.0,1.0,0.0,5.m4v,10.0
2024-02-28 13:42:17.454825,1709124137.454825,-44.921875,-34.66796875,-39.55078125,-42.96875,1.0,1.0,1.0,0.0,5.m4v,10.0
2024-02-28 13:42:17.458730,1709124137.4587295,-40.0390625,-38.0859375,-37.109375,-43.9453125,1.0,1.0,1.0,0.0,5.m4v,10.0
2024-02-28 13:42:17.462634,1709124137.462634,-47.8515625,-37.59765625,-38.57421875,-43.9453125,1.0,1.0,1.0,0.0,5.m4v,10.0
2024-02-28 13:42:17.466539,1709124137.466539,-45.8984375,-35.15625,-36.1328125,-38.57421875,1.0,1.0,1.0,0.0,5.m4v,10.0
2024-02-28 13:42:17.470443,1709124137.4704435,-28.80859375,-33.203125,-26.3671875,-33.69140625,1.0,1.0,1.0,0.0,5.m4v,10.0
2024-02-28 13:42:17.474348,1709124137.474348,-23.92578125,-27.83203125,-27.34375,-31.73828125,1.0,1.0,1.0,0.0,5.m4v,10.0
2024-02-28 13:42:17.478253,1709124137.4782526,-32.71484375,-28.3203125,-30.76171875,-28.80859375,1.0,1.0,1.0,0.0,5.m4v,10.0
2024-02-28 13:42:17.482157,1709124137.4821572,-18.06640625,-25.390625,-26.85546875,-21.97265625,1.0,1.0,1.0,0.0,5.m4v,10.0
2024-02-28 13:42:17.486062,1709124137.4860618,-12.6953125,-22.94921875,-27.34375,-18.06640625,1.0,1.0,1.0,0.0,5.m4v,10.0
2024-02-28 13:42:17.489980,1709124137.4899795,-22.4609375,-26.85546875,-30.76171875,-23.4375,1.0,1.0,1.0,0.0,5.m4v,10.0
2024-02-28 13:42:17.493884,1709124137.4938843,-27.83203125,-30.76171875,-31.25,-30.2734375,1.0,1.0,1.0,0.0,5.m4v,10.0
2024-02-28 13:42:17.497789,1709124137.4977891,-38.57421875,-36.1328125,-32.71484375,-34.66796875,1.0,1.0,1.0,0.0,5.m4v,10.0
2024-02-28 13:42:17.501694,1709124137.5016935,-37.59765625,-40.0390625,-32.2265625,-34.1796875,1.0,1.0,1.0,0.0,5.m4v,10.0
2024-02-28 13:42:17.505598,1709124137.5055983,-33.203125,-37.109375,-30.2734375,-28.80859375,1.0,1.0,1.0,0.0,5.m4v,10.0
2024-02-28 13:42:17.509503,1709124137.509503,-37.109375,-33.69140625,-29.78515625,-33.203125,1.0,1.0,1.0,0.0,5.m4v,10.0
2024-02-28 13:42:17.513407,1709124137.5134077,-37.59765625,-31.73828125,-32.2265625,-41.9921875,1.0,1.0,1.0,0.0,5.m4v,10.0
2024-02-28 13:42:17.517312,1709124137.5173123,-35.64453125,-34.66796875,-33.203125,-43.9453125,1.0,1.0,1.0,0.0,5.m4v,10.0
2024-02-28 13:42:17.521217,1709124137.5212169,-34.66796875,-34.1796875,-37.59765625,-47.8515625,1.0,1.0,1.0,0.0,5.m4v,10.0
2024-02-28 13:42:17.525121,1709124137.5251217,-34.1796875,-32.2265625,-41.50390625,-44.921875,1.0,1.0,1.0,0.0,5.m4v,10.0
2024-02-28 13:42:17.529026,1709124137.529026,-38.57421875,-33.69140625,-38.0859375,-39.0625,1.0,1.0,1.0,0.0,5.m4v,10.0
2024-02-28 13:42:17.532931,1709124137.5329306,-37.59765625,-33.203125,-35.64453125,-41.9921875,1.0,1.0,1.0,0.0,5.m4v,10.0
2024-02-28 13:42:17.536848,1709124137.536848,-30.2734375,-30.76171875,-29.78515625,-39.55078125,1.0,1.0,1.0,0.0,5.m4v,10.0
2024-02-28 13:42:17.540753,1709124137.5407526,-31.25,-30.76171875,-30.2734375,-42.96875,1.0,1.0,1.0,0.0,5.m4v,10.0
2024-02-28 13:42:17.544657,1709124137.5446572,-34.1796875,-35.15625,-39.55078125,-44.921875,1.0,1.0,1.0,0.0,5.m4v,10.0
2024-02-28 13:42:17.548562,1709124137.5485618,-34.1796875,-34.66796875,-38.0859375,-35.64453125,1.0,1.0,1.0,0.0,5.m4v,10.0
2024-02-28 13:42:17.552466,1709124137.5524664,-32.2265625,-32.2265625,-31.25,-26.85546875,1.0,1.0,1.0,0.0,5.m4v,10.0
2024-02-28 13:42:17.556371,1709124137.5563712,-24.90234375,-29.296875,-30.2734375,-24.90234375,1.0,1.0,1.0,0.0,5.m4v,10.0
2024-02-28 13:42:17.560276,1709124137.5602758,-21.97265625,-29.78515625,-31.25,-23.4375,1.0,1.0,1.0,0.0,5.m4v,10.0
2024-02-28 13:42:17.564180,1709124137.5641804,-29.78515625,-31.25,-31.73828125,-26.3671875,1.0,1.0,1.0,0.0,5.m4v,10.0
2024-02-28 13:42:17.568085,1709124137.568085,-28.80859375,-31.73828125,-28.3203125,-24.4140625,1.0,1.0,1.0,0.0,5.m4v,10.0
2024-02-28 13:42:17.571990,1709124137.5719895,-21.484375,-39.0625,-27.83203125,-23.92578125,1.0,1.0,1.0,0.0,5.m4v,10.0
2024-02-28 13:42:17.575894,1709124137.575894,-30.2734375,-45.8984375,-35.15625,-31.25,1.0,1.0,1.0,0.0,5.m4v,10.0
2024-02-28 13:42:17.579799,1709124137.579799,-28.3203125,-42.96875,-35.15625,-32.71484375,1.0,1.0,1.0,0.0,5.m4v,10.0
2024-02-28 13:42:17.583716,1709124137.583716,-17.08984375,-43.45703125,-33.203125,-27.83203125,1.0,1.0,1.0,0.0,5.m4v,10.0
2024-02-28 13:42:17.587621,1709124137.5876207,-21.97265625,-43.9453125,-32.2265625,-27.83203125,1.0,1.0,1.0,0.0,5.m4v,10.0
2024-02-28 13:42:17.591525,1709124137.5915253,-33.69140625,-42.96875,-35.15625,-33.203125,1.0,1.0,1.0,0.0,5.m4v,10.0
2024-02-28 13:42:17.595430,1709124137.59543,-28.3203125,-40.52734375,-32.71484375,-26.3671875,1.0,1.0,1.0,0.0,5.m4v,10.0
2024-02-28 13:42:17.599334,1709124137.5993345,-23.92578125,-35.15625,-30.76171875,-22.94921875,1.0,1.0,1.0,0.0,5.m4v,10.0
2024-02-28 13:42:17.603239,1709124137.603239,-27.34375,-31.73828125,-37.109375,-34.1796875,1.0,1.0,1.0,0.0,5.m4v,10.0
2024-02-28 13:42:17.607144,1709124137.6071436,-20.99609375,-29.296875,-36.1328125,-38.57421875,1.0,1.0,1.0,0.0,5.m4v,10.0
2024-02-28 13:42:17.611048,1709124137.6110485,-23.92578125,-24.90234375,-36.1328125,-35.64453125,1.0,1.0,1.0,0.0,5.m4v,10.0
2024-02-28 13:42:17.614953,1709124137.614953,-29.296875,-28.3203125,-37.109375,-31.73828125,1.0,1.0,1.0,0.0,5.m4v,10.0
2024-02-28 13:42:17.618858,1709124137.6188576,-25.390625,-34.66796875,-34.66796875,-34.66796875,1.0,1.0,1.0,0.0,5.m4v,10.0
2024-02-28 13:42:17.622762,1709124137.6227622,-25.87890625,-36.1328125,-31.73828125,-38.57421875,1.0,1.0,1.0,0.0,5.m4v,10.0
2024-02-28 13:42:17.626667,1709124137.6266668,-28.3203125,-38.57421875,-27.83203125,-36.1328125,1.0,1.0,1.0,0.0,5.m4v,10.0
2024-02-28 13:42:17.630583,1709124137.6305833,-27.34375,-38.0859375,-26.3671875,-26.85546875,1.0,1.0,1.0,0.0,5.m4v,10.0
2024-02-28 13:42:17.634488,1709124137.634488,-24.4140625,-33.69140625,-26.85546875,-27.34375,1.0,1.0,1.0,0.0,5.m4v,10.0
2024-02-28 13:42:17.638392,1709124137.6383924,-21.97265625,-34.1796875,-28.3203125,-39.55078125,1.0,1.0,1.0,0.0,5.m4v,10.0
2024-02-28 13:42:17.642297,1709124137.642297,-23.92578125,-39.0625,-30.76171875,-43.45703125,1.0,1.0,1.0,0.0,5.m4v,10.0
2024-02-28 13:42:17.646202,1709124137.6462016,-23.92578125,-39.55078125,-32.71484375,-46.38671875,1.0,1.0,1.0,0.0,5.m4v,10.0
2024-02-28 13:42:17.650106,1709124137.6501062,-22.94921875,-35.64453125,-32.71484375,-47.8515625,1.0,1.0,1.0,0.0,5.m4v,10.0
2024-02-28 13:42:17.654011,1709124137.654011,-25.390625,-37.109375,-35.64453125,-43.9453125,1.0,1.0,1.0,0.0,5.m4v,10.0
2024-02-28 13:42:17.657916,1709124137.6579156,-36.62109375,-42.48046875,-40.52734375,-44.921875,1.0,1.0,1.0,0.0,5.m4v,10.0
2024-02-28 13:42:17.661820,1709124137.6618202,-41.015625,-40.0390625,-38.0859375,-42.48046875,1.0,1.0,1.0,0.0,5.m4v,10.0
2024-02-28 13:42:17.665725,1709124137.6657248,-31.25,-35.64453125,-30.76171875,-29.78515625,1.0,1.0,1.0,0.0,5.m4v,10.0
2024-02-28 13:42:17.669629,1709124137.669629,-28.3203125,-34.66796875,-30.76171875,-25.87890625,1.0,1.0,1.0,0.0,5.m4v,10.0
2024-02-28 13:42:17.673534,1709124137.673534,-26.85546875,-28.3203125,-35.64453125,-26.85546875,1.0,1.0,1.0,0.0,5.m4v,10.0
2024-02-28 13:42:17.677450,1709124137.6774497,-27.83203125,-29.78515625,-32.71484375,-25.390625,1.0,1.0,1.0,0.0,5.m4v,10.0
2024-02-28 13:42:17.681355,1709124137.6813543,-28.80859375,-32.2265625,-29.78515625,-23.92578125,1.0,1.0,1.0,0.0,5.m4v,10.0
2024-02-28 13:42:17.685259,1709124137.685259,-21.484375,-26.3671875,-30.76171875,-26.3671875,1.0,1.0,1.0,0.0,5.m4v,10.0
2024-02-28 13:42:17.689164,1709124137.6891637,-14.16015625,-32.71484375,-33.69140625,-27.83203125,1.0,1.0,1.0,0.0,5.m4v,10.0
2024-02-28 13:42:17.693068,1709124137.6930685,-13.671875,-38.0859375,-38.57421875,-22.94921875,1.0,1.0,1.0,0.0,5.m4v,10.0
2024-02-28 13:42:17.696973,1709124137.6969728,-6.8359375,-33.69140625,-37.109375,-18.06640625,1.0,1.0,1.0,0.0,5.m4v,10.0
2024-02-28 13:42:17.700877,1709124137.7008774,-17.08984375,-34.1796875,-38.0859375,-32.2265625,1.0,1.0,1.0,0.0,5.m4v,10.0
2024-02-28 13:42:17.704782,1709124137.7047822,-37.109375,-43.9453125,-41.50390625,-51.26953125,1.0,1.0,1.0,0.0,5.m4v,10.0
2024-02-28 13:42:17.708687,1709124137.7086868,-37.109375,-43.45703125,-35.64453125,-44.921875,1.0,1.0,1.0,0.0,5.m4v,10.0
2024-02-28 13:42:17.712591,1709124137.7125914,-36.1328125,-39.0625,-31.25,-35.64453125,1.0,1.0,1.0,0.0,5.m4v,10.0
2024-02-28 13:42:17.716496,1709124137.716496,-41.015625,-38.0859375,-32.71484375,-38.57421875,1.0,1.0,1.0,0.0,5.m4v,10.0
2024-02-28 13:42:17.720401,1709124137.7204006,-51.7578125,-40.0390625,-40.0390625,-41.9921875,1.0,1.0,1.0,0.0,5.m4v,10.0
2024-02-28 13:42:17.724316,1709124137.724316,-47.36328125,-41.015625,-41.015625,-37.59765625,1.0,1.0,1.0,0.0,5.m4v,10.0
2024-02-28 13:42:17.728220,1709124137.7282205,-39.0625,-34.1796875,-38.57421875,-29.296875,1.0,1.0,1.0,0.0,5.m4v,10.0
2024-02-28 13:42:17.732125,1709124137.732125,-36.62109375,-35.64453125,-39.55078125,-29.78515625,1.0,1.0,1.0,0.0,5.m4v,10.0
2024-02-28 13:42:17.736030,1709124137.73603,-41.015625,-37.109375,-38.57421875,-33.203125,1.0,1.0,1.0,0.0,5.m4v,10.0
2024-02-28 13:42:17.739934,1709124137.7399344,-41.015625,-36.1328125,-38.57421875,-29.296875,1.0,1.0,1.0,0.0,5.m4v,10.0
2024-02-28 13:42:17.743839,1709124137.743839,-31.73828125,-41.015625,-37.109375,-21.484375,1.0,1.0,1.0,0.0,5.m4v,10.0
2024-02-28 13:42:17.747744,1709124137.7477436,-30.2734375,-34.66796875,-36.1328125,-22.4609375,1.0,1.0,1.0,0.0,5.m4v,10.0
2024-02-28 13:42:17.751648,1709124137.7516482,-24.4140625,-31.73828125,-34.66796875,-20.99609375,1.0,1.0,1.0,0.0,5.m4v,10.0
2024-02-28 13:42:17.755553,1709124137.7555528,-29.78515625,-32.2265625,-33.203125,-21.484375,1.0,1.0,1.0,0.0,5.m4v,10.0
2024-02-28 13:42:17.759458,1709124137.7594576,-35.64453125,-32.71484375,-31.73828125,-28.3203125,1.0,1.0,1.0,0.0,5.m4v,10.0
2024-02-28 13:42:17.763362,1709124137.7633622,-31.25,-37.109375,-35.64453125,-34.66796875,1.0,1.0,1.0,0.0,5.m4v,10.0
2024-02-28 13:42:17.767267,1709124137.7672668,-38.57421875,-38.57421875,-37.109375,-39.0625,1.0,1.0,1.0,0.0,5.m4v,10.0
2024-02-28 13:42:17.771182,1709124137.7711816,-35.15625,-35.64453125,-29.78515625,-27.34375,1.0,1.0,1.0,0.0,5.m4v,10.0
2024-02-28 13:42:17.775086,1709124137.7750862,-25.87890625,-32.71484375,-28.80859375,-19.53125,1.0,1.0,1.0,0.0,5.m4v,10.0
2024-02-28 13:42:17.778991,1709124137.778991,-20.01953125,-35.15625,-25.87890625,-20.5078125,1.0,1.0,1.0,0.0,5.m4v,10.0
2024-02-28 13:42:17.782896,1709124137.7828956,-17.08984375,-38.57421875,-24.90234375,-23.92578125,1.0,1.0,1.0,0.0,5.m4v,10.0
2024-02-28 13:42:17.786800,1709124137.7868,-23.92578125,-40.0390625,-24.4140625,-28.80859375,1.0,1.0,1.0,0.0,5.m4v,10.0
2024-02-28 13:42:17.790705,1709124137.7907047,-22.94921875,-38.57421875,-24.90234375,-33.69140625,1.0,1.0,1.0,0.0,5.m4v,10.0
2024-02-28 13:42:17.794609,1709124137.7946093,-29.296875,-37.59765625,-33.203125,-44.43359375,1.0,1.0,1.0,0.0,5.m4v,10.0
2024-02-28 13:42:17.798514,1709124137.798514,-42.48046875,-35.64453125,-33.69140625,-53.22265625,1.0,1.0,1.0,0.0,5.m4v,10.0
2024-02-28 13:42:17.802419,1709124137.8024187,-37.109375,-31.73828125,-29.78515625,-46.38671875,1.0,1.0,1.0,0.0,5.m4v,10.0
2024-02-28 13:42:17.806323,1709124137.8063233,-26.85546875,-29.296875,-28.3203125,-44.43359375,1.0,1.0,1.0,0.0,5.m4v,10.0
2024-02-28 13:42:17.810228,1709124137.810228,-28.3203125,-28.3203125,-27.83203125,-47.8515625,1.0,1.0,1.0,0.0,5.m4v,10.0
2024-02-28 13:42:17.814132,1709124137.8141325,-28.3203125,-32.71484375,-34.1796875,-44.921875,1.0,1.0,1.0,0.0,5.m4v,10.0
2024-02-28 13:42:17.818051,1709124137.818051,-20.5078125,-32.71484375,-37.109375,-36.62109375,1.0,1.0,1.0,0.0,5.m4v,10.0
2024-02-28 13:42:17.821956,1709124137.821956,-22.94921875,-25.87890625,-32.71484375,-32.2265625,1.0,1.0,1.0,0.0,5.m4v,10.0
2024-02-28 13:42:17.825861,1709124137.8258605,-25.87890625,-33.203125,-29.78515625,-33.203125,1.0,1.0,1.0,0.0,5.m4v,10.0
2024-02-28 13:42:17.829765,1709124137.829765,-21.97265625,-41.9921875,-25.87890625,-33.203125,1.0,1.0,1.0,0.0,5.m4v,10.0
2024-02-28 13:42:17.833670,1709124137.8336697,-30.76171875,-39.55078125,-31.73828125,-39.0625,1.0,1.0,1.0,0.0,5.m4v,10.0
2024-02-28 13:42:17.837574,1709124137.8375742,-39.55078125,-35.64453125,-37.109375,-46.875,1.0,1.0,1.0,0.0,5.m4v,10.0
2024-02-28 13:42:17.841479,1709124137.841479,-32.2265625,-30.2734375,-28.3203125,-45.8984375,1.0,1.0,1.0,0.0,5.m4v,10.0
2024-02-28 13:42:17.845384,1709124137.8453836,-20.01953125,-28.3203125,-22.4609375,-37.59765625,1.0,1.0,1.0,0.0,5.m4v,10.0
2024-02-28 13:42:17.849288,1709124137.8492882,-18.06640625,-25.390625,-24.4140625,-35.15625,1.0,1.0,1.0,0.0,5.m4v,10.0
2024-02-28 13:42:17.853193,1709124137.8531928,-28.3203125,-23.92578125,-31.73828125,-44.921875,1.0,1.0,1.0,0.0,5.m4v,10.0
2024-02-28 13:42:17.857097,1709124137.8570974,-32.71484375,-26.3671875,-32.71484375,-50.29296875,1.0,1.0,1.0,0.0,5.m4v,10.0
2024-02-28 13:42:17.861002,1709124137.861002,-33.203125,-29.78515625,-32.2265625,-47.36328125,1.0,1.0,1.0,0.0,5.m4v,10.0
2024-02-28 13:42:17.864920,1709124137.86492,-36.62109375,-33.203125,-35.64453125,-50.78125,1.0,1.0,1.0,0.0,5.m4v,10.0
2024-02-28 13:42:17.868824,1709124137.8688245,-39.0625,-33.69140625,-32.2265625,-51.26953125,1.0,1.0,1.0,0.0,5.m4v,10.0
2024-02-28 13:42:17.872729,1709124137.8727293,-34.1796875,-33.203125,-28.80859375,-49.31640625,1.0,1.0,1.0,0.0,5.m4v,10.0
2024-02-28 13:42:17.876634,1709124137.876634,-37.59765625,-31.25,-30.76171875,-56.640625,1.0,1.0,1.0,0.0,5.m4v,10.0
2024-02-28 13:42:17.880538,1709124137.8805385,-53.7109375,-27.83203125,-32.71484375,-58.59375,1.0,1.0,1.0,0.0,5.m4v,10.0
2024-02-28 13:42:17.884443,1709124137.884443,-49.8046875,-32.2265625,-27.83203125,-56.640625,1.0,1.0,1.0,0.0,5.m4v,10.0
2024-02-28 13:42:17.888348,1709124137.8883476,-48.33984375,-33.69140625,-21.484375,-65.91796875,1.0,1.0,1.0,0.0,5.m4v,10.0
2024-02-28 13:42:17.892252,1709124137.8922524,-57.6171875,-28.3203125,-22.4609375,-72.75390625,1.0,1.0,1.0,0.0,5.m4v,10.0
2024-02-28 13:42:17.896157,1709124137.896157,-69.3359375,-27.83203125,-25.390625,-81.0546875,1.0,1.0,1.0,0.0,5.m4v,10.0
2024-02-28 13:42:17.900062,1709124137.9000616,-93.26171875,-31.73828125,-29.296875,-90.8203125,1.0,1.0,1.0,0.0,5.m4v,10.0
2024-02-28 13:42:17.903966,1709124137.9039662,-104.98046875,-30.2734375,-29.296875,-94.7265625,1.0,1.0,1.0,0.0,5.m4v,10.0
2024-02-28 13:42:17.907871,1709124137.9078708,-113.76953125,-36.1328125,-24.4140625,-105.46875,1.0,1.0,1.0,0.0,5.m4v,10.0
2024-02-28 13:42:17.911788,1709124137.9117882,-126.46484375,-40.52734375,-22.4609375,-120.1171875,1.0,1.0,1.0,0.0,5.m4v,10.0
2024-02-28 13:42:17.915693,1709124137.9156928,-135.7421875,-39.55078125,-22.94921875,-131.8359375,1.0,1.0,1.0,0.0,5.m4v,10.0
2024-02-28 13:42:17.919597,1709124137.9195974,-143.06640625,-40.0390625,-21.484375,-140.625,1.0,1.0,1.0,0.0,5.m4v,10.0
2024-02-28 13:42:17.923502,1709124137.923502,-151.3671875,-38.57421875,-22.4609375,-151.85546875,1.0,1.0,1.0,0.0,5.m4v,10.0
2024-02-28 13:42:17.927407,1709124137.9274068,-167.96875,-43.45703125,-28.3203125,-166.015625,1.0,1.0,1.0,0.0,5.m4v,10.0
2024-02-28 13:42:17.931311,1709124137.9313114,-180.6640625,-44.921875,-30.2734375,-177.734375,1.0,1.0,1.0,0.0,5.m4v,10.0
2024-02-28 13:42:17.935216,1709124137.935216,-187.01171875,-37.109375,-28.80859375,-185.05859375,1.0,1.0,1.0,0.0,5.m4v,10.0
2024-02-28 13:42:17.939121,1709124137.9391203,-193.359375,-38.57421875,-33.203125,-195.3125,1.0,1.0,1.0,0.0,5.m4v,10.0
2024-02-28 13:42:17.943025,1709124137.943025,-198.2421875,-42.48046875,-39.0625,-192.3828125,1.0,1.0,1.0,0.0,5.m4v,10.0
2024-02-28 13:42:17.946930,1709124137.94693,-198.2421875,-37.59765625,-34.66796875,-190.4296875,1.0,1.0,1.0,0.0,5.m4v,10.0
2024-02-28 13:42:17.950835,1709124137.9508345,-183.59375,-34.1796875,-30.2734375,-183.59375,1.0,1.0,1.0,0.0,5.m4v,10.0
2024-02-28 13:42:17.954739,1709124137.954739,-170.41015625,-34.66796875,-37.109375,-174.31640625,1.0,1.0,1.0,0.0,5.m4v,10.0
2024-02-28 13:42:17.958656,1709124137.958656,-170.41015625,-28.80859375,-37.59765625,-167.48046875,1.0,1.0,1.0,0.0,5.m4v,10.0
2024-02-28 13:42:17.962561,1709124137.962561,-165.52734375,-29.296875,-32.71484375,-160.15625,1.0,1.0,1.0,0.0,5.m4v,10.0
2024-02-28 13:42:17.966465,1709124137.9664652,-158.69140625,-28.80859375,-30.2734375,-158.69140625,1.0,1.0,1.0,0.0,5.m4v,10.0
2024-02-28 13:42:17.970370,1709124137.9703698,-150.390625,-28.80859375,-32.71484375,-152.83203125,1.0,1.0,1.0,0.0,5.m4v,10.0
2024-02-28 13:42:17.974274,1709124137.9742744,-149.4140625,-28.80859375,-36.62109375,-151.85546875,1.0,1.0,1.0,0.0,5.m4v,10.0
2024-02-28 13:42:17.978179,1709124137.9781792,-134.765625,-27.83203125,-35.15625,-143.06640625,1.0,1.0,1.0,0.0,5.m4v,10.0
2024-02-28 13:42:17.982084,1709124137.9820838,-115.234375,-32.71484375,-33.69140625,-130.859375,1.0,1.0,1.0,0.0,5.m4v,10.0
2024-02-28 13:42:17.985988,1709124137.9859884,-108.88671875,-35.15625,-33.203125,-116.2109375,1.0,1.0,1.0,0.0,5.m4v,10.0
2024-02-28 13:42:17.989893,1709124137.989893,-102.5390625,-37.59765625,-34.1796875,-100.09765625,1.0,1.0,1.0,0.0,5.m4v,10.0
2024-02-28 13:42:17.993798,1709124137.9937975,-88.37890625,-38.57421875,-33.69140625,-89.35546875,1.0,1.0,1.0,0.0,5.m4v,10.0
2024-02-28 13:42:17.997702,1709124137.9977024,-75.68359375,-38.57421875,-29.78515625,-81.0546875,1.0,1.0,1.0,0.0,5.m4v,10.0
2024-02-28 13:42:18.001607,1709124138.001607,-62.01171875,-37.59765625,-29.296875,-65.91796875,1.0,1.0,1.0,0.0,5.m4v,10.0
2024-02-28 13:42:18.005523,1709124138.0055234,-56.640625,-34.1796875,-34.1796875,-54.19921875,1.0,1.0,1.0,0.0,5.m4v,10.0
2024-02-28 13:42:18.009428,1709124138.009428,-54.6875,-34.66796875,-36.62109375,-55.6640625,1.0,1.0,1.0,0.0,5.m4v,10.0
2024-02-28 13:42:18.013333,1709124138.0133326,-54.19921875,-33.203125,-38.57421875,-48.828125,1.0,1.0,1.0,0.0,5.m4v,10.0
2024-02-28 13:42:18.017237,1709124138.0172374,-49.8046875,-28.3203125,-36.1328125,-34.66796875,1.0,1.0,1.0,0.0,5.m4v,10.0
2024-02-28 13:42:18.021142,1709124138.021142,-37.109375,-28.80859375,-32.71484375,-19.53125,1.0,1.0,1.0,0.0,5.m4v,10.0
2024-02-28 13:42:18.025047,1709124138.0250466,-30.76171875,-31.73828125,-34.1796875,-18.06640625,1.0,1.0,1.0,0.0,5.m4v,10.0
2024-02-28 13:42:18.474203,1709124138.4742029,-46.38671875,-27.34375,-33.69140625,-51.7578125,1.0,1.0,1.0,0.0,5.m4v,10.0
2024-02-28 13:42:18.478107,1709124138.4781077,-34.66796875,-28.3203125,-35.64453125,-44.43359375,1.0,1.0,1.0,0.0,5.m4v,10.0
2024-02-28 13:42:18.482012,1709124138.482012,-38.57421875,-31.73828125,-35.15625,-43.45703125,1.0,1.0,1.0,0.0,5.m4v,10.0
2024-02-28 13:42:18.485917,1709124138.4859166,-51.26953125,-33.203125,-34.66796875,-56.15234375,1.0,1.0,1.0,0.0,5.m4v,10.0
2024-02-28 13:42:18.489821,1709124138.4898212,-47.8515625,-30.2734375,-35.15625,-57.12890625,1.0,1.0,1.0,0.0,5.m4v,10.0
2024-02-28 13:42:18.493726,1709124138.4937258,-43.9453125,-30.2734375,-34.1796875,-46.38671875,1.0,1.0,1.0,0.0,5.m4v,10.0
2024-02-28 13:42:18.497631,1709124138.4976306,-42.96875,-32.2265625,-29.78515625,-42.96875,1.0,1.0,1.0,0.0,5.m4v,10.0
2024-02-28 13:42:18.501535,1709124138.5015352,-41.015625,-28.3203125,-28.3203125,-44.921875,1.0,1.0,1.0,0.0,5.m4v,10.0
2024-02-28 13:42:18.505440,1709124138.5054398,-41.9921875,-29.296875,-33.69140625,-46.38671875,1.0,1.0,1.0,0.0,5.m4v,10.0
2024-02-28 13:42:18.509344,1709124138.5093443,-42.96875,-29.296875,-34.66796875,-46.38671875,1.0,1.0,1.0,0.0,5.m4v,10.0
2024-02-28 13:42:18.513249,1709124138.513249,-41.015625,-29.78515625,-35.15625,-47.36328125,1.0,1.0,1.0,0.0,5.m4v,10.0
2024-02-28 13:42:18.517154,1709124138.5171535,-37.109375,-33.69140625,-40.52734375,-47.8515625,1.0,1.0,1.0,0.0,5.m4v,10.0
2024-02-28 13:42:18.521073,1709124138.5210726,-31.73828125,-33.69140625,-37.59765625,-42.96875,1.0,1.0,1.0,0.0,5.m4v,10.0
2024-02-28 13:42:18.524977,1709124138.5249772,-35.15625,-34.66796875,-36.62109375,-37.59765625,1.0,1.0,1.0,0.0,5.m4v,10.0
2024-02-28 13:42:18.528882,1709124138.5288818,-41.9921875,-36.1328125,-39.0625,-36.1328125,1.0,1.0,1.0,0.0,5.m4v,10.0
2024-02-28 13:42:18.532786,1709124138.5327864,-39.0625,-34.1796875,-36.62109375,-34.1796875,1.0,1.0,1.0,0.0,5.m4v,10.0
2024-02-28 13:42:18.536691,1709124138.5366912,-32.2265625,-35.15625,-30.2734375,-35.15625,1.0,1.0,1.0,0.0,5.m4v,10.0
2024-02-28 13:42:18.540596,1709124138.5405958,-31.73828125,-33.69140625,-30.76171875,-36.1328125,1.0,1.0,1.0,0.0,5.m4v,10.0
2024-02-28 13:42:18.544500,1709124138.5445004,-32.71484375,-34.1796875,-33.203125,-33.203125,1.0,1.0,1.0,0.0,5.m4v,10.0
2024-02-28 13:42:18.548405,1709124138.548405,-27.83203125,-30.2734375,-30.2734375,-32.71484375,1.0,1.0,1.0,0.0,5.m4v,10.0
2024-02-28 13:42:18.552310,1709124138.5523095,-28.3203125,-26.3671875,-30.76171875,-29.78515625,1.0,1.0,1.0,0.0,5.m4v,10.0
2024-02-28 13:42:18.556214,1709124138.5562143,-34.1796875,-36.62109375,-30.76171875,-27.83203125,1.0,1.0,1.0,0.0,5.m4v,10.0
2024-02-28 13:42:18.560119,1709124138.560119,-30.76171875,-39.0625,-29.78515625,-29.296875,1.0,1.0,1.0,0.0,5.m4v,10.0
2024-02-28 13:42:18.564023,1709124138.5640235,-31.73828125,-37.109375,-32.71484375,-28.3203125,1.0,1.0,1.0,0.0,5.m4v,10.0
2024-02-28 13:42:18.567942,1709124138.567942,-40.52734375,-40.0390625,-36.1328125,-36.1328125,1.0,1.0,1.0,0.0,5.m4v,10.0
2024-02-28 13:42:18.571847,1709124138.5718467,-40.52734375,-38.57421875,-41.015625,-42.48046875,1.0,1.0,1.0,0.0,5.m4v,10.0
2024-02-28 13:42:18.575751,1709124138.5757513,-44.43359375,-34.66796875,-45.41015625,-36.1328125,1.0,1.0,1.0,0.0,5.m4v,10.0
2024-02-28 13:42:18.579656,1709124138.579656,-47.8515625,-36.62109375,-42.96875,-35.64453125,1.0,1.0,1.0,0.0,5.m4v,10.0
2024-02-28 13:42:18.583560,1709124138.5835605,-41.50390625,-37.109375,-39.0625,-34.66796875,1.0,1.0,1.0,0.0,5.m4v,10.0
2024-02-28 13:42:18.587465,1709124138.587465,-35.15625,-32.2265625,-30.2734375,-27.34375,1.0,1.0,1.0,0.0,5.m4v,10.0
2024-02-28 13:42:18.591370,1709124138.59137,-30.2734375,-29.296875,-26.3671875,-20.5078125,1.0,1.0,1.0,0.0,5.m4v,10.0
2024-02-28 13:42:18.595274,1709124138.5952744,-19.53125,-29.296875,-31.25,-20.5078125,1.0,1.0,1.0,0.0,5.m4v,10.0
2024-02-28 13:42:18.599179,1709124138.599179,-23.92578125,-29.296875,-32.71484375,-25.87890625,1.0,1.0,1.0,0.0,5.m4v,10.0
2024-02-28 13:42:18.603084,1709124138.6030836,-41.015625,-34.66796875,-31.73828125,-33.203125,1.0,1.0,1.0,0.0,5.m4v,10.0
2024-02-28 13:42:18.606988,1709124138.6069882,-40.0390625,-34.66796875,-32.71484375,-31.73828125,1.0,1.0,1.0,0.0,5.m4v,10.0
2024-02-28 13:42:18.610893,1709124138.6108928,-34.66796875,-35.64453125,-31.73828125,-32.71484375,1.0,1.0,1.0,0.0,5.m4v,10.0
2024-02-28 13:42:18.614811,1709124138.6148107,-36.62109375,-41.9921875,-32.2265625,-35.15625,1.0,1.0,1.0,0.0,5.m4v,10.0
2024-02-28 13:42:18.618716,1709124138.6187155,-29.296875,-39.0625,-33.203125,-27.34375,1.0,1.0,1.0,0.0,5.m4v,10.0
2024-02-28 13:42:18.622620,1709124138.62262,-20.99609375,-36.62109375,-29.78515625,-21.484375,1.0,1.0,1.0,0.0,5.m4v,10.0
2024-02-28 13:42:18.626525,1709124138.6265247,-25.87890625,-35.15625,-29.296875,-20.5078125,1.0,1.0,1.0,0.0,5.m4v,10.0
2024-02-28 13:42:18.630429,1709124138.6304293,-31.73828125,-33.203125,-31.25,-23.4375,1.0,1.0,1.0,0.0,5.m4v,10.0
2024-02-28 13:42:18.634334,1709124138.6343338,-29.296875,-33.69140625,-28.3203125,-24.4140625,1.0,1.0,1.0,0.0,5.m4v,10.0
2024-02-28 13:42:18.638239,1709124138.638239,-24.90234375,-32.2265625,-22.4609375,-21.97265625,1.0,1.0,1.0,0.0,5.m4v,10.0
2024-02-28 13:42:18.642143,1709124138.6421432,-30.76171875,-34.66796875,-25.87890625,-20.99609375,1.0,1.0,1.0,0.0,5.m4v,10.0
2024-02-28 13:42:18.646048,1709124138.6460478,-40.52734375,-38.57421875,-32.71484375,-27.83203125,1.0,1.0,1.0,0.0,5.m4v,10.0
2024-02-28 13:42:18.649952,1709124138.6499524,-40.0390625,-38.57421875,-34.66796875,-36.1328125,1.0,1.0,1.0,0.0,5.m4v,10.0
2024-02-28 13:42:18.653857,1709124138.653857,-32.71484375,-38.57421875,-39.0625,-34.66796875,1.0,1.0,1.0,0.0,5.m4v,10.0
2024-02-28 13:42:18.657762,1709124138.6577616,-28.80859375,-38.0859375,-36.1328125,-33.203125,1.0,1.0,1.0,0.0,5.m4v,10.0
2024-02-28 13:42:18.661680,1709124138.6616795,-18.5546875,-33.203125,-31.73828125,-31.73828125,1.0,1.0,1.0,0.0,5.m4v,10.0
2024-02-28 13:42:18.665584,1709124138.665584,-13.671875,-29.296875,-31.73828125,-26.85546875,1.0,1.0,1.0,0.0,5.m4v,10.0
2024-02-28 13:42:18.669489,1709124138.669489,-23.4375,-34.66796875,-35.15625,-33.69140625,1.0,1.0,1.0,0.0,5.m4v,10.0
2024-02-28 13:42:18.673393,1709124138.6733932,-23.92578125,-38.0859375,-37.109375,-33.203125,1.0,1.0,1.0,0.0,5.m4v,10.0
2024-02-28 13:42:18.677298,1709124138.6772978,-18.5546875,-34.1796875,-30.2734375,-22.4609375,1.0,1.0,1.0,0.0,5.m4v,10.0
2024-02-28 13:42:18.681202,1709124138.6812024,-8.30078125,-29.78515625,-23.92578125,-18.06640625,1.0,1.0,1.0,0.0,5.m4v,10.0
2024-02-28 13:42:18.685107,1709124138.6851072,-2.44140625,-33.69140625,-27.83203125,-23.4375,1.0,1.0,1.0,0.0,5.m4v,10.0
2024-02-28 13:42:18.689012,1709124138.6890118,-5.859375,-37.109375,-29.296875,-21.97265625,1.0,1.0,1.0,0.0,5.m4v,10.0
2024-02-28 13:42:18.692916,1709124138.6929164,-14.16015625,-35.64453125,-32.71484375,-26.85546875,1.0,1.0,1.0,0.0,5.m4v,10.0
2024-02-28 13:42:18.696821,1709124138.696821,-16.6015625,-32.71484375,-28.80859375,-29.296875,1.0,1.0,1.0,0.0,5.m4v,10.0
2024-02-28 13:42:18.700726,1709124138.7007256,-6.34765625,-26.3671875,-20.5078125,-21.97265625,1.0,1.0,1.0,0.0,5.m4v,10.0
2024-02-28 13:42:18.704630,1709124138.7046304,-13.671875,-26.3671875,-24.4140625,-26.3671875,1.0,1.0,1.0,0.0,5.m4v,10.0
2024-02-28 13:42:18.708547,1709124138.708547,-18.5546875,-35.15625,-29.78515625,-28.80859375,1.0,1.0,1.0,0.0,5.m4v,10.0
2024-02-28 13:42:18.712452,1709124138.7124517,-15.13671875,-41.015625,-31.25,-19.53125,1.0,1.0,1.0,0.0,5.m4v,10.0
2024-02-28 13:42:18.716356,1709124138.7163565,-25.390625,-41.9921875,-29.78515625,-18.5546875,1.0,1.0,1.0,0.0,5.m4v,10.0
2024-02-28 13:42:18.720261,1709124138.720261,-29.296875,-41.50390625,-28.80859375,-27.34375,1.0,1.0,1.0,0.0,5.m4v,10.0
2024-02-28 13:42:18.724166,1709124138.7241657,-21.97265625,-36.62109375,-29.296875,-31.25,1.0,1.0,1.0,0.0,5.m4v,10.0
2024-02-28 13:42:18.728070,1709124138.7280705,-20.99609375,-31.25,-31.73828125,-30.76171875,1.0,1.0,1.0,0.0,5.m4v,10.0
2024-02-28 13:42:18.731975,1709124138.7319748,-26.3671875,-31.73828125,-39.0625,-35.64453125,1.0,1.0,1.0,0.0,5.m4v,10.0
2024-02-28 13:42:18.735879,1709124138.7358794,-33.203125,-29.296875,-38.57421875,-35.64453125,1.0,1.0,1.0,0.0,5.m4v,10.0
2024-02-28 13:42:18.739784,1709124138.7397842,-32.2265625,-22.94921875,-32.71484375,-36.62109375,1.0,1.0,1.0,0.0,5.m4v,10.0
2024-02-28 13:42:18.743689,1709124138.7436888,-24.4140625,-25.390625,-36.62109375,-36.62109375,1.0,1.0,1.0,0.0,5.m4v,10.0
2024-02-28 13:42:18.747593,1709124138.7475934,-26.3671875,-39.55078125,-42.96875,-40.0390625,1.0,1.0,1.0,0.0,5.m4v,10.0
2024-02-28 13:42:18.751498,1709124138.751498,-27.83203125,-39.0625,-37.109375,-45.41015625,1.0,1.0,1.0,0.0,5.m4v,10.0
2024-02-28 13:42:18.755414,1709124138.7554142,-22.94921875,-33.203125,-30.76171875,-39.55078125,1.0,1.0,1.0,0.0,5.m4v,10.0
2024-02-28 13:42:18.759319,1709124138.7593188,-19.53125,-30.2734375,-30.2734375,-33.203125,1.0,1.0,1.0,0.0,5.m4v,10.0
2024-02-28 13:42:18.763224,1709124138.7632236,-27.34375,-33.203125,-29.296875,-32.71484375,1.0,1.0,1.0,0.0,5.m4v,10.0
2024-02-28 13:42:18.767128,1709124138.7671282,-29.78515625,-33.203125,-30.2734375,-36.62109375,1.0,1.0,1.0,0.0,5.m4v,10.0
2024-02-28 13:42:18.771033,1709124138.7710328,-24.4140625,-33.203125,-32.71484375,-36.1328125,1.0,1.0,1.0,0.0,5.m4v,10.0
2024-02-28 13:42:18.774937,1709124138.7749374,-24.90234375,-36.62109375,-29.78515625,-36.1328125,1.0,1.0,1.0,0.0,5.m4v,10.0
2024-02-28 13:42:18.778842,1709124138.778842,-27.83203125,-36.62109375,-31.25,-38.57421875,1.0,1.0,1.0,0.0,5.m4v,10.0
2024-02-28 13:42:18.782747,1709124138.7827468,-26.85546875,-35.15625,-33.203125,-38.0859375,1.0,1.0,1.0,0.0,5.m4v,10.0
2024-02-28 13:42:18.786651,1709124138.7866514,-22.4609375,-34.1796875,-29.296875,-36.62109375,1.0,1.0,1.0,0.0,5.m4v,10.0
2024-02-28 13:42:18.790556,1709124138.790556,-20.5078125,-36.1328125,-27.83203125,-31.73828125,1.0,1.0,1.0,0.0,5.m4v,10.0
2024-02-28 13:42:18.794461,1709124138.7944603,-19.53125,-38.57421875,-28.80859375,-32.71484375,1.0,1.0,1.0,0.0,5.m4v,10.0
2024-02-28 13:42:18.798365,1709124138.798365,-22.94921875,-37.109375,-30.76171875,-33.203125,1.0,1.0,1.0,0.0,5.m4v,10.0
2024-02-28 13:42:18.802281,1709124138.802281,-30.76171875,-32.71484375,-37.109375,-30.76171875,1.0,1.0,1.0,0.0,5.m4v,10.0
2024-02-28 13:42:18.806185,1709124138.8061855,-36.1328125,-34.66796875,-34.1796875,-26.3671875,1.0,1.0,1.0,0.0,5.m4v,10.0
2024-02-28 13:42:18.810090,1709124138.8100903,-35.64453125,-39.0625,-32.71484375,-27.83203125,1.0,1.0,1.0,0.0,5.m4v,10.0
2024-02-28 13:42:18.813995,1709124138.813995,-31.73828125,-38.57421875,-34.1796875,-33.203125,1.0,1.0,1.0,0.0,5.m4v,10.0
2024-02-28 13:42:18.817899,1709124138.8178997,-26.85546875,-37.59765625,-30.76171875,-35.15625,1.0,1.0,1.0,0.0,5.m4v,10.0
2024-02-28 13:42:18.821804,1709124138.821804,-8.30078125,-33.69140625,-31.25,-31.25,1.0,1.0,1.0,0.0,5.m4v,10.0
2024-02-28 13:42:18.825709,1709124138.8257086,-11.71875,-28.80859375,-38.0859375,-33.69140625,1.0,1.0,1.0,0.0,5.m4v,10.0
2024-02-28 13:42:18.829613,1709124138.8296134,-17.578125,-34.1796875,-35.64453125,-39.55078125,1.0,1.0,1.0,0.0,5.m4v,10.0
2024-02-28 13:42:18.833518,1709124138.833518,-9.765625,-37.109375,-31.73828125,-39.0625,1.0,1.0,1.0,0.0,5.m4v,10.0
2024-02-28 13:42:18.837423,1709124138.8374226,-15.13671875,-33.69140625,-33.203125,-40.0390625,1.0,1.0,1.0,0.0,5.m4v,10.0
2024-02-28 13:42:18.841327,1709124138.8413272,-16.11328125,-38.57421875,-33.203125,-32.2265625,1.0,1.0,1.0,0.0,5.m4v,10.0
2024-02-28 13:42:18.845232,1709124138.8452318,-17.578125,-40.0390625,-32.2265625,-27.34375,1.0,1.0,1.0,0.0,5.m4v,10.0
2024-02-28 13:42:18.849147,1709124138.849147,-17.08984375,-38.0859375,-29.78515625,-32.71484375,1.0,1.0,1.0,0.0,5.m4v,10.0
2024-02-28 13:42:18.853052,1709124138.853052,-21.484375,-34.1796875,-32.71484375,-31.73828125,1.0,1.0,1.0,0.0,5.m4v,10.0
2024-02-28 13:42:18.856957,1709124138.8569567,-30.2734375,-34.1796875,-31.73828125,-26.85546875,1.0,1.0,1.0,0.0,5.m4v,10.0
2024-02-28 13:42:18.860861,1709124138.8608613,-29.78515625,-36.62109375,-33.69140625,-29.78515625,1.0,1.0,1.0,0.0,5.m4v,10.0
2024-02-28 13:42:18.864766,1709124138.864766,-26.3671875,-37.109375,-36.62109375,-30.2734375,1.0,1.0,1.0,0.0,5.m4v,10.0
2024-02-28 13:42:18.868670,1709124138.8686705,-22.4609375,-36.62109375,-29.78515625,-29.296875,1.0,1.0,1.0,0.0,5.m4v,10.0
2024-02-28 13:42:18.872575,1709124138.872575,-25.87890625,-36.62109375,-30.2734375,-33.203125,1.0,1.0,1.0,0.0,5.m4v,10.0
2024-02-28 13:42:18.876480,1709124138.87648,-30.2734375,-38.57421875,-35.64453125,-35.15625,1.0,1.0,1.0,0.0,5.m4v,10.0
2024-02-28 13:42:18.880384,1709124138.8803844,-36.1328125,-40.52734375,-32.71484375,-33.203125,1.0,1.0,1.0,0.0,5.m4v,10.0
2024-02-28 13:42:18.884289,1709124138.884289,-41.50390625,-41.9921875,-29.78515625,-29.78515625,1.0,1.0,1.0,0.0,5.m4v,10.0
2024-02-28 13:42:18.888194,1709124138.8881936,-44.921875,-37.109375,-33.203125,-36.62109375,1.0,1.0,1.0,0.0,5.m4v,10.0
2024-02-28 13:42:18.892098,1709124138.8920982,-47.36328125,-35.15625,-34.1796875,-36.1328125,1.0,1.0,1.0,0.0,5.m4v,10.0
2024-02-28 13:42:18.896014,1709124138.8960135,-43.45703125,-34.66796875,-29.78515625,-32.2265625,1.0,1.0,1.0,0.0,5.m4v,10.0
2024-02-28 13:42:18.899919,1709124138.8999186,-42.48046875,-34.1796875,-30.2734375,-35.15625,1.0,1.0,1.0,0.0,5.m4v,10.0
2024-02-28 13:42:18.903823,1709124138.9038231,-39.0625,-40.0390625,-32.71484375,-33.203125,1.0,1.0,1.0,0.0,5.m4v,10.0
2024-02-28 13:42:18.907728,1709124138.9077277,-43.45703125,-38.0859375,-33.203125,-29.78515625,1.0,1.0,1.0,0.0,5.m4v,10.0
2024-02-28 13:42:18.911632,1709124138.9116323,-51.7578125,-38.57421875,-33.203125,-35.64453125,1.0,1.0,1.0,0.0,5.m4v,10.0
2024-02-28 13:42:18.915537,1709124138.9155369,-43.9453125,-41.9921875,-30.2734375,-32.71484375,1.0,1.0,1.0,0.0,5.m4v,10.0
2024-02-28 13:42:18.919441,1709124138.9194417,-34.66796875,-35.64453125,-28.3203125,-21.97265625,1.0,1.0,1.0,0.0,5.m4v,10.0
2024-02-28 13:42:18.923346,1709124138.9233463,-43.9453125,-25.390625,-30.76171875,-36.62109375,1.0,1.0,1.0,0.0,5.m4v,10.0
2024-02-28 13:42:18.927251,1709124138.9272509,-57.12890625,-21.484375,-33.203125,-60.546875,1.0,1.0,1.0,0.0,5.m4v,10.0
2024-02-28 13:42:18.931155,1709124138.9311554,-57.6171875,-20.99609375,-34.1796875,-66.89453125,1.0,1.0,1.0,0.0,5.m4v,10.0
2024-02-28 13:42:18.935060,1709124138.93506,-59.5703125,-24.4140625,-33.69140625,-60.546875,1.0,1.0,1.0,0.0,5.m4v,10.0
2024-02-28 13:42:18.938965,1709124138.9389646,-52.24609375,-30.76171875,-36.1328125,-53.7109375,1.0,1.0,1.0,0.0,5.m4v,10.0
2024-02-28 13:42:18.942883,1709124138.9428833,-52.24609375,-33.69140625,-41.015625,-58.59375,1.0,1.0,1.0,0.0,5.m4v,10.0
2024-02-28 13:42:18.946788,1709124138.9467878,-51.26953125,-31.73828125,-43.45703125,-59.5703125,1.0,1.0,1.0,0.0,5.m4v,10.0
2024-02-28 13:42:18.950692,1709124138.9506924,-34.66796875,-29.296875,-41.9921875,-52.734375,1.0,1.0,1.0,0.0,5.m4v,10.0
2024-02-28 13:42:18.954597,1709124138.954597,-28.80859375,-27.34375,-39.0625,-50.29296875,1.0,1.0,1.0,0.0,5.m4v,10.0
2024-02-28 13:42:18.958502,1709124138.9585016,-32.71484375,-24.90234375,-41.9921875,-49.8046875,1.0,1.0,1.0,0.0,5.m4v,10.0
2024-02-28 13:42:18.962406,1709124138.9624064,-36.1328125,-28.3203125,-42.48046875,-51.26953125,1.0,1.0,1.0,0.0,5.m4v,10.0
2024-02-28 13:42:18.966311,1709124138.966311,-44.43359375,-35.15625,-43.45703125,-50.29296875,1.0,1.0,1.0,0.0,5.m4v,10.0
2024-02-28 13:42:18.970216,1709124138.9702156,-52.24609375,-36.1328125,-45.8984375,-48.828125,1.0,1.0,1.0,0.0,5.m4v,10.0
2024-02-28 13:42:18.974120,1709124138.97412,-46.38671875,-34.1796875,-41.9921875,-48.828125,1.0,1.0,1.0,0.0,5.m4v,10.0
2024-02-28 13:42:18.978025,1709124138.9780247,-35.15625,-27.83203125,-36.1328125,-40.0390625,1.0,1.0,1.0,0.0,5.m4v,10.0
2024-02-28 13:42:18.981930,1709124138.9819295,-40.0390625,-26.85546875,-37.59765625,-37.109375,1.0,1.0,1.0,0.0,5.m4v,10.0
2024-02-28 13:42:18.985834,1709124138.985834,-46.38671875,-27.83203125,-42.48046875,-41.9921875,1.0,1.0,1.0,0.0,5.m4v,10.0
2024-02-28 13:42:18.989752,1709124138.989752,-42.96875,-27.83203125,-42.96875,-37.59765625,1.0,1.0,1.0,0.0,5.m4v,10.0
2024-02-28 13:42:18.993657,1709124138.9936566,-38.57421875,-26.3671875,-41.50390625,-40.0390625,1.0,1.0,1.0,0.0,5.m4v,10.0
2024-02-28 13:42:18.997561,1709124138.9975612,-39.0625,-27.83203125,-36.62109375,-38.57421875,1.0,1.0,1.0,0.0,5.m4v,10.0
2024-02-28 13:42:19.001466,1709124139.0014658,-38.57421875,-29.78515625,-33.69140625,-36.62109375,1.0,1.0,1.0,0.0,5.m4v,10.0
2024-02-28 13:42:19.005371,1709124139.0053706,-41.50390625,-31.73828125,-36.1328125,-41.50390625,1.0,1.0,1.0,0.0,5.m4v,10.0
2024-02-28 13:42:19.009275,1709124139.0092752,-46.38671875,-33.203125,-39.0625,-42.96875,1.0,1.0,1.0,0.0,5.m4v,10.0
2024-02-28 13:42:19.013180,1709124139.0131798,-48.828125,-33.69140625,-40.0390625,-47.36328125,1.0,1.0,1.0,0.0,5.m4v,10.0
2024-02-28 13:42:19.017084,1709124139.0170844,-49.31640625,-35.15625,-38.57421875,-48.33984375,1.0,1.0,1.0,0.0,5.m4v,10.0
2024-02-28 13:42:19.020989,1709124139.020989,-53.22265625,-40.52734375,-41.9921875,-52.24609375,1.0,1.0,1.0,0.0,5.m4v,10.0
2024-02-28 13:42:19.024894,1709124139.0248935,-56.15234375,-41.9921875,-42.48046875,-52.24609375,1.0,1.0,1.0,0.0,5.m4v,10.0
2024-02-28 13:42:19.028798,1709124139.0287983,-49.31640625,-39.0625,-40.0390625,-47.8515625,1.0,1.0,1.0,0.0,5.m4v,10.0
2024-02-28 13:42:19.032703,1709124139.032703,-49.31640625,-37.109375,-40.0390625,-44.921875,1.0,1.0,1.0,0.0,5.m4v,10.0
2024-02-28 13:42:19.036620,1709124139.0366204,-43.45703125,-35.64453125,-39.55078125,-41.015625,1.0,1.0,1.0,0.0,5.m4v,10.0
2024-02-28 13:42:19.040525,1709124139.040525,-35.15625,-34.1796875,-42.48046875,-40.52734375,1.0,1.0,1.0,0.0,5.m4v,10.0
2024-02-28 13:42:19.044430,1709124139.0444295,-33.203125,-28.80859375,-40.52734375,-44.43359375,1.0,1.0,1.0,0.0,5.m4v,10.0
2024-02-28 13:42:19.048334,1709124139.048334,-29.78515625,-27.34375,-35.64453125,-41.015625,1.0,1.0,1.0,0.0,5.m4v,10.0
2024-02-28 13:42:19.052239,1709124139.0522387,-27.83203125,-33.69140625,-32.71484375,-37.59765625,1.0,1.0,1.0,0.0,5.m4v,10.0
2024-02-28 13:42:19.056144,1709124139.0561435,-27.83203125,-36.1328125,-31.73828125,-39.0625,1.0,1.0,1.0,0.0,5.m4v,10.0
2024-02-28 13:42:19.458443,1709124139.458443,-28.80859375,-36.62109375,-23.4375,-23.4375,1.0,1.0,1.0,0.0,5.m4v,10.0
2024-02-28 13:42:19.462348,1709124139.4623475,-46.38671875,-37.109375,-26.85546875,-32.71484375,1.0,1.0,1.0,0.0,5.m4v,10.0
2024-02-28 13:42:19.466252,1709124139.4662523,-50.29296875,-41.015625,-31.73828125,-38.0859375,1.0,1.0,1.0,0.0,5.m4v,10.0
2024-02-28 13:42:19.470157,1709124139.470157,-39.0625,-41.9921875,-28.80859375,-35.64453125,1.0,1.0,1.0,0.0,5.m4v,10.0
2024-02-28 13:42:19.474061,1709124139.4740615,-34.1796875,-43.45703125,-27.34375,-34.66796875,1.0,1.0,1.0,0.0,5.m4v,10.0
2024-02-28 13:42:19.477966,1709124139.477966,-41.015625,-41.9921875,-27.34375,-38.57421875,1.0,1.0,1.0,0.0,5.m4v,10.0
2024-02-28 13:42:19.481871,1709124139.481871,-47.8515625,-46.875,-24.4140625,-36.62109375,1.0,1.0,1.0,0.0,5.m4v,10.0
2024-02-28 13:42:19.485775,1709124139.4857757,-51.26953125,-50.29296875,-23.92578125,-40.0390625,1.0,1.0,1.0,0.0,5.m4v,10.0
2024-02-28 13:42:19.489680,1709124139.48968,-52.24609375,-46.38671875,-24.90234375,-42.48046875,1.0,1.0,1.0,0.0,5.m4v,10.0
2024-02-28 13:42:19.493585,1709124139.4935846,-50.78125,-46.38671875,-25.87890625,-40.52734375,1.0,1.0,1.0,0.0,5.m4v,10.0
2024-02-28 13:42:19.497489,1709124139.4974892,-50.29296875,-48.828125,-31.73828125,-42.96875,1.0,1.0,1.0,0.0,5.m4v,10.0
2024-02-28 13:42:19.501394,1709124139.5013938,-46.38671875,-50.78125,-35.15625,-46.38671875,1.0,1.0,1.0,0.0,5.m4v,10.0
2024-02-28 13:42:19.505311,1709124139.5053108,-44.921875,-46.875,-33.203125,-46.875,1.0,1.0,1.0,0.0,5.m4v,10.0
2024-02-28 13:42:19.509215,1709124139.5092154,-33.69140625,-43.45703125,-27.83203125,-38.0859375,1.0,1.0,1.0,0.0,5.m4v,10.0
2024-02-28 13:42:19.513120,1709124139.5131202,-28.80859375,-41.9921875,-26.85546875,-30.76171875,1.0,1.0,1.0,0.0,5.m4v,10.0
2024-02-28 13:42:19.517025,1709124139.5170248,-41.50390625,-40.0390625,-28.3203125,-33.203125,1.0,1.0,1.0,0.0,5.m4v,10.0
2024-02-28 13:42:19.520929,1709124139.520929,-40.52734375,-38.0859375,-34.1796875,-34.1796875,1.0,1.0,1.0,0.0,5.m4v,10.0
2024-02-28 13:42:19.524834,1709124139.524834,-35.64453125,-33.203125,-36.1328125,-31.73828125,1.0,1.0,1.0,0.0,5.m4v,10.0
2024-02-28 13:42:19.528738,1709124139.5287385,-36.1328125,-36.62109375,-32.2265625,-34.66796875,1.0,1.0,1.0,0.0,5.m4v,10.0
2024-02-28 13:42:19.532643,1709124139.5326433,-32.2265625,-37.109375,-30.76171875,-34.66796875,1.0,1.0,1.0,0.0,5.m4v,10.0
2024-02-28 13:42:19.536548,1709124139.536548,-35.64453125,-35.64453125,-32.71484375,-34.66796875,1.0,1.0,1.0,0.0,5.m4v,10.0
2024-02-28 13:42:19.540452,1709124139.5404525,-41.9921875,-37.59765625,-32.2265625,-33.69140625,1.0,1.0,1.0,0.0,5.m4v,10.0
2024-02-28 13:42:19.544357,1709124139.544357,-41.9921875,-40.52734375,-30.2734375,-33.69140625,1.0,1.0,1.0,0.0,5.m4v,10.0
2024-02-28 13:42:19.548262,1709124139.5482616,-39.0625,-40.0390625,-31.25,-39.55078125,1.0,1.0,1.0,0.0,5.m4v,10.0
2024-02-28 13:42:19.552178,1709124139.552178,-40.0390625,-41.015625,-32.71484375,-44.921875,1.0,1.0,1.0,0.0,5.m4v,10.0
2024-02-28 13:42:19.556083,1709124139.5560827,-40.0390625,-42.96875,-30.2734375,-44.43359375,1.0,1.0,1.0,0.0,5.m4v,10.0
2024-02-28 13:42:19.559987,1709124139.5599873,-33.203125,-38.0859375,-26.3671875,-40.0390625,1.0,1.0,1.0,0.0,5.m4v,10.0
2024-02-28 13:42:19.563892,1709124139.563892,-33.69140625,-35.64453125,-29.78515625,-33.69140625,1.0,1.0,1.0,0.0,5.m4v,10.0
2024-02-28 13:42:19.567797,1709124139.5677967,-33.69140625,-37.59765625,-27.83203125,-36.1328125,1.0,1.0,1.0,0.0,5.m4v,10.0
2024-02-28 13:42:19.571701,1709124139.5717013,-33.69140625,-37.59765625,-23.4375,-42.96875,1.0,1.0,1.0,0.0,5.m4v,10.0
2024-02-28 13:42:19.575606,1709124139.575606,-36.1328125,-34.1796875,-24.90234375,-40.52734375,1.0,1.0,1.0,0.0,5.m4v,10.0
2024-02-28 13:42:19.579510,1709124139.5795105,-39.55078125,-33.69140625,-22.4609375,-38.57421875,1.0,1.0,1.0,0.0,5.m4v,10.0
2024-02-28 13:42:19.583415,1709124139.5834153,-48.33984375,-38.0859375,-19.53125,-46.38671875,1.0,1.0,1.0,0.0,5.m4v,10.0
2024-02-28 13:42:19.587320,1709124139.58732,-44.921875,-37.109375,-20.99609375,-49.31640625,1.0,1.0,1.0,0.0,5.m4v,10.0
2024-02-28 13:42:19.591224,1709124139.5912244,-45.41015625,-33.203125,-25.390625,-44.43359375,1.0,1.0,1.0,0.0,5.m4v,10.0
2024-02-28 13:42:19.595129,1709124139.595129,-53.22265625,-38.57421875,-21.97265625,-51.7578125,1.0,1.0,1.0,0.0,5.m4v,10.0
2024-02-28 13:42:19.599045,1709124139.5990448,-61.03515625,-34.1796875,-19.53125,-66.40625,1.0,1.0,1.0,0.0,5.m4v,10.0
2024-02-28 13:42:19.602949,1709124139.6029494,-77.63671875,-36.62109375,-15.625,-77.63671875,1.0,1.0,1.0,0.0,5.m4v,10.0
2024-02-28 13:42:19.606854,1709124139.606854,-85.44921875,-45.8984375,-13.671875,-82.03125,1.0,1.0,1.0,0.0,5.m4v,10.0
2024-02-28 13:42:19.610759,1709124139.6107588,-104.98046875,-49.8046875,-19.53125,-103.02734375,1.0,1.0,1.0,0.0,5.m4v,10.0
2024-02-28 13:42:19.614663,1709124139.6146634,-126.46484375,-49.31640625,-23.92578125,-126.953125,1.0,1.0,1.0,0.0,5.m4v,10.0
2024-02-28 13:42:19.618568,1709124139.618568,-136.23046875,-47.36328125,-27.83203125,-136.23046875,1.0,1.0,1.0,0.0,5.m4v,10.0
2024-02-28 13:42:19.622473,1709124139.6224723,-151.85546875,-52.734375,-28.80859375,-148.4375,1.0,1.0,1.0,0.0,5.m4v,10.0
2024-02-28 13:42:19.626377,1709124139.626377,-162.109375,-52.734375,-26.3671875,-152.83203125,1.0,1.0,1.0,0.0,5.m4v,10.0
2024-02-28 13:42:19.630282,1709124139.630282,-162.109375,-51.7578125,-24.90234375,-157.71484375,1.0,1.0,1.0,0.0,5.m4v,10.0
2024-02-28 13:42:19.634187,1709124139.6341865,-164.0625,-47.8515625,-27.83203125,-168.45703125,1.0,1.0,1.0,0.0,5.m4v,10.0
2024-02-28 13:42:19.638091,1709124139.638091,-158.69140625,-40.52734375,-28.3203125,-159.1796875,1.0,1.0,1.0,0.0,5.m4v,10.0
2024-02-28 13:42:19.641996,1709124139.6419957,-156.73828125,-40.0390625,-35.64453125,-159.1796875,1.0,1.0,1.0,0.0,5.m4v,10.0
2024-02-28 13:42:19.645910,1709124139.6459105,-154.296875,-41.9921875,-42.96875,-168.45703125,1.0,1.0,1.0,0.0,5.m4v,10.0
2024-02-28 13:42:19.649815,1709124139.6498148,-154.296875,-37.59765625,-41.50390625,-171.38671875,1.0,1.0,1.0,0.0,5.m4v,10.0
2024-02-28 13:42:19.653720,1709124139.6537197,-154.296875,-34.1796875,-44.921875,-175.78125,1.0,1.0,1.0,0.0,5.m4v,10.0
2024-02-28 13:42:19.657624,1709124139.6576242,-148.92578125,-38.0859375,-51.7578125,-166.015625,1.0,1.0,1.0,0.0,5.m4v,10.0
2024-02-28 13:42:19.661529,1709124139.6615288,-145.5078125,-34.66796875,-52.24609375,-164.0625,1.0,1.0,1.0,0.0,5.m4v,10.0
2024-02-28 13:42:19.665433,1709124139.6654334,-136.23046875,-26.85546875,-50.29296875,-156.73828125,1.0,1.0,1.0,0.0,5.m4v,10.0
2024-02-28 13:42:19.669338,1709124139.669338,-128.41796875,-25.87890625,-50.29296875,-142.578125,1.0,1.0,1.0,0.0,5.m4v,10.0
2024-02-28 13:42:19.673243,1709124139.6732428,-114.2578125,-22.4609375,-49.31640625,-138.671875,1.0,1.0,1.0,0.0,5.m4v,10.0
2024-02-28 13:42:19.677147,1709124139.6771474,-93.75,-16.6015625,-51.7578125,-127.44140625,1.0,1.0,1.0,0.0,5.m4v,10.0
2024-02-28 13:42:19.681052,1709124139.681052,-90.33203125,-16.6015625,-58.59375,-124.51171875,1.0,1.0,1.0,0.0,5.m4v,10.0
2024-02-28 13:42:19.684957,1709124139.6849566,-83.0078125,-20.01953125,-58.59375,-116.2109375,1.0,1.0,1.0,0.0,5.m4v,10.0
2024-02-28 13:42:19.688861,1709124139.6888611,-69.82421875,-25.87890625,-56.640625,-102.5390625,1.0,1.0,1.0,0.0,5.m4v,10.0
2024-02-28 13:42:19.692780,1709124139.6927798,-65.4296875,-29.78515625,-56.15234375,-89.35546875,1.0,1.0,1.0,0.0,5.m4v,10.0
2024-02-28 13:42:19.696684,1709124139.6966844,-57.12890625,-22.4609375,-53.22265625,-71.77734375,1.0,1.0,1.0,0.0,5.m4v,10.0
2024-02-28 13:42:19.700589,1709124139.700589,-46.875,-18.06640625,-53.7109375,-58.59375,1.0,1.0,1.0,0.0,5.m4v,10.0
2024-02-28 13:42:19.704494,1709124139.7044935,-39.55078125,-19.04296875,-50.78125,-54.19921875,1.0,1.0,1.0,0.0,5.m4v,10.0
2024-02-28 13:42:19.708398,1709124139.708398,-36.1328125,-20.01953125,-51.7578125,-51.7578125,1.0,1.0,1.0,0.0,5.m4v,10.0
2024-02-28 13:42:19.712303,1709124139.712303,-28.3203125,-20.99609375,-56.640625,-46.38671875,1.0,1.0,1.0,0.0,5.m4v,10.0
2024-02-28 13:42:19.716208,1709124139.7162075,-21.484375,-21.97265625,-54.19921875,-34.66796875,1.0,1.0,1.0,0.0,5.m4v,10.0
2024-02-28 13:42:19.720112,1709124139.720112,-6.8359375,-20.5078125,-50.78125,-20.99609375,1.0,1.0,1.0,0.0,5.m4v,10.0
2024-02-28 13:42:19.724017,1709124139.724017,-3.90625,-22.94921875,-50.78125,-20.99609375,1.0,1.0,1.0,0.0,5.m4v,10.0
2024-02-28 13:42:19.727921,1709124139.7279212,2.9296875,-26.3671875,-48.828125,-13.671875,1.0,1.0,1.0,0.0,5.m4v,10.0
2024-02-28 13:42:19.731826,1709124139.7318258,11.23046875,-27.83203125,-46.38671875,-2.9296875,1.0,1.0,1.0,0.0,5.m4v,10.0
2024-02-28 13:42:19.735731,1709124139.7357306,3.90625,-32.2265625,-41.50390625,4.8828125,1.0,1.0,1.0,0.0,5.m4v,10.0
2024-02-28 13:42:19.739649,1709124139.7396488,9.27734375,-32.2265625,-41.9921875,10.7421875,1.0,1.0,1.0,0.0,5.m4v,10.0
2024-02-28 13:42:19.743553,1709124139.7435534,18.06640625,-31.25,-44.43359375,12.6953125,1.0,1.0,1.0,0.0,5.m4v,10.0
2024-02-28 13:42:19.747458,1709124139.747458,20.5078125,-29.296875,-40.0390625,18.06640625,1.0,1.0,1.0,0.0,5.m4v,10.0
2024-02-28 13:42:19.751363,1709124139.7513626,16.6015625,-28.3203125,-41.9921875,15.625,1.0,1.0,1.0,0.0,5.m4v,10.0
2024-02-28 13:42:19.755267,1709124139.7552674,18.5546875,-26.3671875,-41.9921875,17.578125,1.0,1.0,1.0,0.0,5.m4v,10.0
2024-02-28 13:42:19.759172,1709124139.759172,25.390625,-19.53125,-37.59765625,27.83203125,1.0,1.0,1.0,0.0,5.m4v,10.0
2024-02-28 13:42:19.763077,1709124139.7630763,28.80859375,-19.04296875,-37.59765625,27.34375,1.0,1.0,1.0,0.0,5.m4v,10.0
2024-02-28 13:42:19.766981,1709124139.7669811,27.83203125,-27.83203125,-37.59765625,21.97265625,1.0,1.0,1.0,0.0,5.m4v,10.0
2024-02-28 13:42:19.770886,1709124139.7708857,28.3203125,-29.78515625,-36.1328125,20.01953125,1.0,1.0,1.0,0.0,5.m4v,10.0
2024-02-28 13:42:19.774790,1709124139.7747903,33.69140625,-30.2734375,-35.64453125,17.578125,1.0,1.0,1.0,0.0,5.m4v,10.0
2024-02-28 13:42:19.778695,1709124139.778695,32.2265625,-31.73828125,-38.57421875,14.6484375,1.0,1.0,1.0,0.0,5.m4v,10.0
2024-02-28 13:42:19.782600,1709124139.7825997,33.203125,-30.2734375,-38.0859375,17.08984375,1.0,1.0,1.0,0.0,5.m4v,10.0
2024-02-28 13:42:19.786517,1709124139.7865171,30.76171875,-29.78515625,-37.109375,19.53125,1.0,1.0,1.0,0.0,5.m4v,10.0
2024-02-28 13:42:19.790422,1709124139.7904215,20.01953125,-34.1796875,-38.0859375,16.11328125,1.0,1.0,1.0,0.0,5.m4v,10.0
2024-02-28 13:42:19.794326,1709124139.7943263,15.13671875,-36.62109375,-38.0859375,10.25390625,1.0,1.0,1.0,0.0,5.m4v,10.0
2024-02-28 13:42:19.798231,1709124139.798231,6.34765625,-39.55078125,-43.9453125,2.44140625,1.0,1.0,1.0,0.0,5.m4v,10.0
2024-02-28 13:42:19.802135,1709124139.8021357,5.37109375,-38.57421875,-43.9453125,1.46484375,1.0,1.0,1.0,0.0,5.m4v,10.0
2024-02-28 13:42:19.806040,1709124139.80604,14.16015625,-34.1796875,-37.109375,3.90625,1.0,1.0,1.0,0.0,5.m4v,10.0
2024-02-28 13:42:19.809945,1709124139.8099449,10.25390625,-33.203125,-34.66796875,-2.9296875,1.0,1.0,1.0,0.0,5.m4v,10.0
2024-02-28 13:42:19.813849,1709124139.8138494,7.32421875,-31.73828125,-34.1796875,0.9765625,1.0,1.0,1.0,0.0,5.m4v,10.0
2024-02-28 13:42:19.817754,1709124139.817754,8.30078125,-32.71484375,-35.15625,8.30078125,1.0,1.0,1.0,0.0,5.m4v,10.0
2024-02-28 13:42:19.821659,1709124139.8216586,0.9765625,-31.25,-38.0859375,3.41796875,1.0,1.0,1.0,0.0,5.m4v,10.0
2024-02-28 13:42:19.825563,1709124139.8255632,-2.44140625,-32.71484375,-39.0625,3.90625,1.0,1.0,1.0,0.0,5.m4v,10.0
2024-02-28 13:42:19.829468,1709124139.829468,-3.41796875,-36.1328125,-37.109375,-1.46484375,1.0,1.0,1.0,0.0,5.m4v,10.0
2024-02-28 13:42:19.833389,1709124139.833389,-6.8359375,-33.203125,-38.57421875,-4.39453125,1.0,1.0,1.0,0.0,5.m4v,10.0
2024-02-28 13:42:19.837294,1709124139.8372936,-4.39453125,-35.15625,-37.109375,1.953125,1.0,1.0,1.0,0.0,5.m4v,10.0
2024-02-28 13:42:19.841198,1709124139.8411982,1.46484375,-30.2734375,-37.109375,0.0,1.0,1.0,1.0,0.0,5.m4v,10.0
2024-02-28 13:42:19.845103,1709124139.845103,-2.9296875,-20.99609375,-39.55078125,-9.27734375,1.0,1.0,1.0,0.0,5.m4v,10.0
2024-02-28 13:42:19.849008,1709124139.8490076,-3.90625,-23.92578125,-39.0625,-13.671875,1.0,1.0,1.0,0.0,5.m4v,10.0
2024-02-28 13:42:19.852912,1709124139.8529122,-1.46484375,-25.390625,-39.55078125,-12.6953125,1.0,1.0,1.0,0.0,5.m4v,10.0
2024-02-28 13:42:19.856817,1709124139.8568168,-5.37109375,-31.25,-38.57421875,-6.34765625,1.0,1.0,1.0,0.0,5.m4v,10.0
2024-02-28 13:42:19.860721,1709124139.860721,-6.34765625,-42.48046875,-39.0625,-4.8828125,1.0,1.0,1.0,0.0,5.m4v,10.0
2024-02-28 13:42:19.864626,1709124139.8646262,-5.859375,-40.52734375,-40.0390625,-9.27734375,1.0,1.0,1.0,0.0,5.m4v,10.0
2024-02-28 13:42:19.868531,1709124139.8685308,-3.41796875,-42.96875,-35.64453125,-3.41796875,1.0,1.0,1.0,0.0,5.m4v,10.0
2024-02-28 13:42:19.872435,1709124139.872435,-1.46484375,-45.8984375,-34.1796875,0.0,1.0,1.0,1.0,0.0,5.m4v,10.0
2024-02-28 13:42:19.876340,1709124139.87634,-3.41796875,-42.48046875,-37.59765625,-1.953125,1.0,1.0,1.0,0.0,5.m4v,10.0
2024-02-28 13:42:19.880257,1709124139.880257,-5.859375,-38.0859375,-36.62109375,-6.8359375,1.0,1.0,1.0,0.0,5.m4v,10.0
2024-02-28 13:42:19.884161,1709124139.8841612,0.0,-31.25,-36.62109375,-4.8828125,1.0,1.0,1.0,0.0,5.m4v,10.0
2024-02-28 13:42:19.888066,1709124139.8880658,3.41796875,-23.4375,-37.109375,-2.9296875,1.0,1.0,1.0,0.0,5.m4v,10.0
2024-02-28 13:42:19.891970,1709124139.8919704,-3.41796875,-24.90234375,-33.203125,-3.90625,1.0,1.0,1.0,0.0,5.m4v,10.0
2024-02-28 13:42:19.895875,1709124139.895875,-8.7890625,-31.25,-38.0859375,-6.8359375,1.0,1.0,1.0,0.0,5.m4v,10.0
2024-02-28 13:42:19.899780,1709124139.8997798,-6.8359375,-32.71484375,-39.0625,-3.41796875,1.0,1.0,1.0,0.0,5.m4v,10.0
2024-02-28 13:42:19.903684,1709124139.9036844,-15.13671875,-36.62109375,-34.66796875,-2.44140625,1.0,1.0,1.0,0.0,5.m4v,10.0
2024-02-28 13:42:19.907589,1709124139.907589,-22.94921875,-41.9921875,-33.203125,-3.41796875,1.0,1.0,1.0,0.0,5.m4v,10.0
2024-02-28 13:42:19.911494,1709124139.9114935,-17.578125,-39.0625,-32.71484375,-5.859375,1.0,1.0,1.0,0.0,5.m4v,10.0
2024-02-28 13:42:19.915398,1709124139.915398,-13.18359375,-37.59765625,-32.2265625,-10.7421875,1.0,1.0,1.0,0.0,5.m4v,10.0
2024-02-28 13:42:19.919303,1709124139.919303,-7.32421875,-33.69140625,-30.76171875,-5.859375,1.0,1.0,1.0,0.0,5.m4v,10.0
2024-02-28 13:42:19.923208,1709124139.9232075,-7.32421875,-29.296875,-36.1328125,-5.37109375,1.0,1.0,1.0,0.0,5.m4v,10.0
2024-02-28 13:42:19.927124,1709124139.9271235,-11.71875,-29.78515625,-40.0390625,-7.32421875,1.0,1.0,1.0,0.0,5.m4v,10.0
2024-02-28 13:42:19.931028,1709124139.9310284,-12.20703125,-25.390625,-36.1328125,-5.859375,1.0,1.0,1.0,0.0,5.m4v,10.0
2024-02-28 13:42:19.934933,1709124139.934933,-18.06640625,-21.484375,-33.203125,-9.765625,1.0,1.0,1.0,0.0,5.m4v,10.0
2024-02-28 13:42:19.938838,1709124139.9388375,-24.90234375,-25.390625,-34.66796875,-19.53125,1.0,1.0,1.0,0.0,5.m4v,10.0
2024-02-28 13:42:19.942742,1709124139.942742,-23.4375,-30.2734375,-36.1328125,-20.5078125,1.0,1.0,1.0,0.0,5.m4v,10.0
2024-02-28 13:42:19.946647,1709124139.9466467,-18.06640625,-33.69140625,-35.15625,-22.4609375,1.0,1.0,1.0,0.0,5.m4v,10.0
2024-02-28 13:42:19.950552,1709124139.9505515,-20.5078125,-32.71484375,-34.1796875,-25.390625,1.0,1.0,1.0,0.0,5.m4v,10.0
2024-02-28 13:42:19.954456,1709124139.954456,-22.4609375,-35.15625,-34.1796875,-12.20703125,1.0,1.0,1.0,0.0,5.m4v,10.0
2024-02-28 13:42:19.958361,1709124139.958361,-19.53125,-39.0625,-32.71484375,-4.39453125,1.0,1.0,1.0,0.0,5.m4v,10.0
2024-02-28 13:42:19.962265,1709124139.9622653,-17.578125,-31.73828125,-30.2734375,-6.34765625,1.0,1.0,1.0,0.0,5.m4v,10.0
2024-02-28 13:42:19.966170,1709124139.9661698,-17.578125,-30.2734375,-30.2734375,-7.8125,1.0,1.0,1.0,0.0,5.m4v,10.0
2024-02-28 13:42:19.970075,1709124139.970075,-22.4609375,-36.1328125,-29.78515625,-11.23046875,1.0,1.0,1.0,0.0,5.m4v,10.0
2024-02-28 13:42:19.973991,1709124139.973991,-25.87890625,-35.15625,-29.78515625,-20.99609375,1.0,1.0,1.0,0.0,5.m4v,10.0
2024-02-28 13:42:19.977895,1709124139.9778953,-21.484375,-36.62109375,-27.83203125,-25.87890625,1.0,1.0,1.0,0.0,5.m4v,10.0
2024-02-28 13:42:19.981800,1709124139.9817998,-24.90234375,-34.66796875,-33.69140625,-33.69140625,1.0,1.0,1.0,0.0,5.m4v,10.0
2024-02-28 13:42:19.985705,1709124139.985705,-27.83203125,-29.78515625,-40.52734375,-37.59765625,1.0,1.0,1.0,0.0,5.m4v,10.0
2024-02-28 13:42:19.989609,1709124139.9896092,-29.296875,-28.3203125,-34.66796875,-27.83203125,1.0,1.0,1.0,0.0,5.m4v,10.0
2024-02-28 13:42:19.993514,1709124139.9935138,-27.83203125,-31.73828125,-28.3203125,-22.94921875,1.0,1.0,1.0,0.0,5.m4v,10.0
2024-02-28 13:42:19.997418,1709124139.9974184,-21.97265625,-36.1328125,-31.73828125,-23.4375,1.0,1.0,1.0,0.0,5.m4v,10.0
2024-02-28 13:42:20.001323,1709124140.001323,-16.11328125,-33.69140625,-35.15625,-16.11328125,1.0,1.0,1.0,0.0,5.m4v,10.0
2024-02-28 13:42:20.005228,1709124140.0052276,-13.671875,-27.83203125,-32.2265625,-13.18359375,1.0,1.0,1.0,0.0,5.m4v,10.0
2024-02-28 13:42:20.009132,1709124140.0091324,-15.625,-29.78515625,-30.2734375,-16.11328125,1.0,1.0,1.0,0.0,5.m4v,10.0
2024-02-28 13:42:20.013037,1709124140.013037,-19.53125,-37.109375,-32.71484375,-15.13671875,1.0,1.0,1.0,0.0,5.m4v,10.0
2024-02-28 13:42:20.016942,1709124140.0169415,-17.578125,-33.69140625,-35.15625,-18.06640625,1.0,1.0,1.0,0.0,5.m4v,10.0
2024-02-28 13:42:20.020857,1709124140.0208566,-12.20703125,-28.80859375,-31.73828125,-17.08984375,1.0,1.0,1.0,0.0,5.m4v,10.0
2024-02-28 13:42:20.024761,1709124140.0247612,-3.90625,-32.2265625,-28.3203125,-16.11328125,1.0,1.0,1.0,0.0,5.m4v,10.0
2024-02-28 13:42:20.028666,1709124140.0286658,-8.7890625,-37.59765625,-32.2265625,-21.484375,1.0,1.0,1.0,0.0,5.m4v,10.0
2024-02-28 13:42:20.032570,1709124140.0325704,-18.06640625,-40.52734375,-35.15625,-27.34375,1.0,1.0,1.0,0.0,5.m4v,10.0
2024-02-28 13:42:20.036475,1709124140.036475,-30.76171875,-32.71484375,-38.57421875,-38.57421875,1.0,1.0,1.0,0.0,5.m4v,10.0
2024-02-28 13:42:20.040380,1709124140.0403795,-39.0625,-25.87890625,-41.9921875,-41.015625,1.0,1.0,1.0,0.0,5.m4v,10.0
2024-02-28 13:42:20.489542,1709124140.489542,-39.0625,-40.0390625,-32.71484375,-31.73828125,1.0,1.0,1.0,0.0,5.m4v,10.0
2024-02-28 13:42:20.493447,1709124140.4934466,-35.15625,-38.0859375,-32.71484375,-30.2734375,1.0,1.0,1.0,0.0,5.m4v,10.0
2024-02-28 13:42:20.497351,1709124140.4973514,-43.9453125,-38.57421875,-32.2265625,-39.55078125,1.0,1.0,1.0,0.0,5.m4v,10.0
2024-02-28 13:42:20.501256,1709124140.501256,-43.45703125,-36.62109375,-30.76171875,-44.921875,1.0,1.0,1.0,0.0,5.m4v,10.0
2024-02-28 13:42:20.505161,1709124140.5051606,-36.1328125,-29.296875,-26.85546875,-38.0859375,1.0,1.0,1.0,0.0,5.m4v,10.0
2024-02-28 13:42:20.509065,1709124140.5090652,-31.25,-23.4375,-30.76171875,-37.109375,1.0,1.0,1.0,0.0,5.m4v,10.0
2024-02-28 13:42:20.512970,1709124140.5129695,-29.78515625,-16.6015625,-38.57421875,-40.0390625,1.0,1.0,1.0,0.0,5.m4v,10.0
2024-02-28 13:42:20.516875,1709124140.5168746,-31.73828125,-22.94921875,-37.59765625,-40.0390625,1.0,1.0,1.0,0.0,5.m4v,10.0
2024-02-28 13:42:20.520779,1709124140.5207791,-28.3203125,-32.71484375,-31.73828125,-39.55078125,1.0,1.0,1.0,0.0,5.m4v,10.0
2024-02-28 13:42:20.524684,1709124140.5246837,-33.69140625,-29.296875,-33.203125,-41.015625,1.0,1.0,1.0,0.0,5.m4v,10.0
2024-02-28 13:42:20.528588,1709124140.5285883,-34.66796875,-28.80859375,-34.1796875,-32.2265625,1.0,1.0,1.0,0.0,5.m4v,10.0
2024-02-28 13:42:20.532493,1709124140.532493,-31.73828125,-32.2265625,-32.71484375,-24.90234375,1.0,1.0,1.0,0.0,5.m4v,10.0
2024-02-28 13:42:20.536411,1709124140.536411,-39.55078125,-35.15625,-30.76171875,-27.34375,1.0,1.0,1.0,0.0,5.m4v,10.0
2024-02-28 13:42:20.540316,1709124140.5403156,-38.57421875,-36.1328125,-28.80859375,-25.390625,1.0,1.0,1.0,0.0,5.m4v,10.0
2024-02-28 13:42:20.544220,1709124140.5442202,-37.109375,-33.69140625,-28.80859375,-24.4140625,1.0,1.0,1.0,0.0,5.m4v,10.0
2024-02-28 13:42:20.548125,1709124140.5481248,-25.390625,-34.66796875,-27.34375,-19.04296875,1.0,1.0,1.0,0.0,5.m4v,10.0
2024-02-28 13:42:20.552030,1709124140.5520296,-27.83203125,-34.1796875,-31.25,-25.87890625,1.0,1.0,1.0,0.0,5.m4v,10.0
2024-02-28 13:42:20.555934,1709124140.5559342,-36.1328125,-35.64453125,-30.76171875,-30.2734375,1.0,1.0,1.0,0.0,5.m4v,10.0
2024-02-28 13:42:20.559839,1709124140.5598388,-30.76171875,-39.0625,-27.83203125,-21.484375,1.0,1.0,1.0,0.0,5.m4v,10.0
2024-02-28 13:42:20.563743,1709124140.5637434,-33.203125,-36.62109375,-25.87890625,-20.01953125,1.0,1.0,1.0,0.0,5.m4v,10.0
2024-02-28 13:42:20.567648,1709124140.567648,-38.0859375,-37.109375,-24.90234375,-16.6015625,1.0,1.0,1.0,0.0,5.m4v,10.0
2024-02-28 13:42:20.571553,1709124140.5715528,-39.55078125,-34.1796875,-31.25,-22.94921875,1.0,1.0,1.0,0.0,5.m4v,10.0
2024-02-28 13:42:20.575457,1709124140.575457,-37.109375,-30.76171875,-34.66796875,-30.76171875,1.0,1.0,1.0,0.0,5.m4v,10.0
2024-02-28 13:42:20.579362,1709124140.579362,-39.55078125,-30.2734375,-33.69140625,-23.4375,1.0,1.0,1.0,0.0,5.m4v,10.0
2024-02-28 13:42:20.583279,1709124140.5832791,-37.59765625,-28.80859375,-28.80859375,-21.484375,1.0,1.0,1.0,0.0,5.m4v,10.0
2024-02-28 13:42:20.587184,1709124140.5871837,-36.62109375,-34.66796875,-32.71484375,-28.80859375,1.0,1.0,1.0,0.0,5.m4v,10.0
2024-02-28 13:42:20.591088,1709124140.5910883,-34.1796875,-35.64453125,-36.1328125,-25.87890625,1.0,1.0,1.0,0.0,5.m4v,10.0
2024-02-28 13:42:20.594993,1709124140.5949929,-34.1796875,-32.71484375,-35.15625,-24.4140625,1.0,1.0,1.0,0.0,5.m4v,10.0
2024-02-28 13:42:20.598898,1709124140.5988977,-34.66796875,-38.0859375,-36.62109375,-36.62109375,1.0,1.0,1.0,0.0,5.m4v,10.0
2024-02-28 13:42:20.602802,1709124140.6028025,-29.78515625,-37.59765625,-34.66796875,-37.59765625,1.0,1.0,1.0,0.0,5.m4v,10.0
2024-02-28 13:42:20.606707,1709124140.6067069,-26.3671875,-38.0859375,-33.203125,-28.80859375,1.0,1.0,1.0,0.0,5.m4v,10.0
2024-02-28 13:42:20.610611,1709124140.6106114,-22.4609375,-36.62109375,-33.69140625,-27.34375,1.0,1.0,1.0,0.0,5.m4v,10.0
2024-02-28 13:42:20.614516,1709124140.614516,-25.87890625,-28.3203125,-29.78515625,-20.99609375,1.0,1.0,1.0,0.0,5.m4v,10.0
2024-02-28 13:42:20.618421,1709124140.6184208,-25.87890625,-30.76171875,-28.3203125,-15.625,1.0,1.0,1.0,0.0,5.m4v,10.0
2024-02-28 13:42:20.622325,1709124140.6223254,-22.94921875,-32.2265625,-32.71484375,-20.99609375,1.0,1.0,1.0,0.0,5.m4v,10.0
2024-02-28 13:42:20.626230,1709124140.62623,-27.34375,-32.71484375,-32.71484375,-33.69140625,1.0,1.0,1.0,0.0,5.m4v,10.0
2024-02-28 13:42:20.630151,1709124140.6301506,-29.296875,-30.2734375,-32.2265625,-36.62109375,1.0,1.0,1.0,0.0,5.m4v,10.0
2024-02-28 13:42:20.634055,1709124140.6340551,-28.3203125,-27.34375,-30.76171875,-34.1796875,1.0,1.0,1.0,0.0,5.m4v,10.0
2024-02-28 13:42:20.637960,1709124140.6379597,-32.71484375,-27.34375,-34.1796875,-41.015625,1.0,1.0,1.0,0.0,5.m4v,10.0
2024-02-28 13:42:20.641865,1709124140.6418643,-35.15625,-28.80859375,-34.66796875,-43.9453125,1.0,1.0,1.0,0.0,5.m4v,10.0
2024-02-28 13:42:20.645769,1709124140.6457691,-26.85546875,-27.34375,-29.78515625,-32.2265625,1.0,1.0,1.0,0.0,5.m4v,10.0
2024-02-28 13:42:20.649674,1709124140.6496737,-17.08984375,-25.87890625,-24.90234375,-21.97265625,1.0,1.0,1.0,0.0,5.m4v,10.0
2024-02-28 13:42:20.653578,1709124140.6535783,-25.390625,-30.76171875,-22.94921875,-29.296875,1.0,1.0,1.0,0.0,5.m4v,10.0
2024-02-28 13:42:20.657483,1709124140.6574829,-37.59765625,-35.64453125,-28.80859375,-38.0859375,1.0,1.0,1.0,0.0,5.m4v,10.0
2024-02-28 13:42:20.661388,1709124140.6613877,-40.0390625,-38.0859375,-31.25,-39.55078125,1.0,1.0,1.0,0.0,5.m4v,10.0
2024-02-28 13:42:20.665292,1709124140.6652925,-34.1796875,-35.15625,-31.25,-40.0390625,1.0,1.0,1.0,0.0,5.m4v,10.0
2024-02-28 13:42:20.669197,1709124140.6691968,-32.71484375,-31.73828125,-33.203125,-44.921875,1.0,1.0,1.0,0.0,5.m4v,10.0
2024-02-28 13:42:20.673101,1709124140.6731014,-31.73828125,-30.2734375,-33.203125,-44.43359375,1.0,1.0,1.0,0.0,5.m4v,10.0
2024-02-28 13:42:20.677018,1709124140.6770177,-32.71484375,-27.34375,-28.3203125,-41.50390625,1.0,1.0,1.0,0.0,5.m4v,10.0
2024-02-28 13:42:20.680922,1709124140.6809225,-35.15625,-29.296875,-28.3203125,-40.0390625,1.0,1.0,1.0,0.0,5.m4v,10.0
2024-02-28 13:42:20.684827,1709124140.6848269,-40.0390625,-30.76171875,-32.71484375,-39.55078125,1.0,1.0,1.0,0.0,5.m4v,10.0
2024-02-28 13:42:20.688731,1709124140.6887314,-38.57421875,-29.78515625,-34.1796875,-35.64453125,1.0,1.0,1.0,0.0,5.m4v,10.0
2024-02-28 13:42:20.692636,1709124140.692636,-31.73828125,-26.3671875,-33.203125,-29.78515625,1.0,1.0,1.0,0.0,5.m4v,10.0
2024-02-28 13:42:20.696541,1709124140.6965408,-38.57421875,-28.3203125,-37.109375,-38.0859375,1.0,1.0,1.0,0.0,5.m4v,10.0
2024-02-28 13:42:20.700445,1709124140.7004454,-46.38671875,-32.71484375,-38.57421875,-45.41015625,1.0,1.0,1.0,0.0,5.m4v,10.0
2024-02-28 13:42:20.704350,1709124140.70435,-41.50390625,-35.64453125,-35.64453125,-39.0625,1.0,1.0,1.0,0.0,5.m4v,10.0
2024-02-28 13:42:20.708255,1709124140.7082546,-40.52734375,-37.59765625,-36.62109375,-38.57421875,1.0,1.0,1.0,0.0,5.m4v,10.0
2024-02-28 13:42:20.712159,1709124140.7121592,-40.52734375,-36.62109375,-36.1328125,-41.015625,1.0,1.0,1.0,0.0,5.m4v,10.0
2024-02-28 13:42:20.716064,1709124140.716064,-36.1328125,-32.71484375,-30.2734375,-32.2265625,1.0,1.0,1.0,0.0,5.m4v,10.0
2024-02-28 13:42:20.719969,1709124140.7199686,-32.71484375,-25.390625,-26.3671875,-22.4609375,1.0,1.0,1.0,0.0,5.m4v,10.0
2024-02-28 13:42:20.723884,1709124140.723884,-35.64453125,-23.92578125,-29.296875,-26.3671875,1.0,1.0,1.0,0.0,5.m4v,10.0
2024-02-28 13:42:20.727789,1709124140.7277887,-42.48046875,-33.203125,-31.25,-27.83203125,1.0,1.0,1.0,0.0,5.m4v,10.0
2024-02-28 13:42:20.731694,1709124140.7316935,-36.62109375,-34.66796875,-30.2734375,-17.08984375,1.0,1.0,1.0,0.0,5.m4v,10.0
2024-02-28 13:42:20.735598,1709124140.735598,-34.66796875,-36.1328125,-34.1796875,-20.5078125,1.0,1.0,1.0,0.0,5.m4v,10.0
2024-02-28 13:42:20.739503,1709124140.739503,-41.9921875,-37.59765625,-34.1796875,-29.78515625,1.0,1.0,1.0,0.0,5.m4v,10.0
2024-02-28 13:42:20.743407,1709124140.7434072,-39.55078125,-35.15625,-34.66796875,-26.85546875,1.0,1.0,1.0,0.0,5.m4v,10.0
2024-02-28 13:42:20.747312,1709124140.7473118,-32.71484375,-36.1328125,-34.1796875,-25.390625,1.0,1.0,1.0,0.0,5.m4v,10.0
2024-02-28 13:42:20.751217,1709124140.751217,-39.0625,-29.78515625,-31.25,-25.390625,1.0,1.0,1.0,0.0,5.m4v,10.0
2024-02-28 13:42:20.755121,1709124140.7551212,-42.48046875,-32.71484375,-31.25,-25.390625,1.0,1.0,1.0,0.0,5.m4v,10.0
2024-02-28 13:42:20.759026,1709124140.7590258,-37.109375,-37.59765625,-32.2265625,-24.4140625,1.0,1.0,1.0,0.0,5.m4v,10.0
2024-02-28 13:42:20.762930,1709124140.7629304,-37.59765625,-30.2734375,-39.0625,-28.80859375,1.0,1.0,1.0,0.0,5.m4v,10.0
2024-02-28 13:42:20.766835,1709124140.766835,-34.66796875,-29.296875,-39.0625,-29.78515625,1.0,1.0,1.0,0.0,5.m4v,10.0
2024-02-28 13:42:20.770750,1709124140.77075,-30.76171875,-34.1796875,-37.109375,-32.71484375,1.0,1.0,1.0,0.0,5.m4v,10.0
2024-02-28 13:42:20.774655,1709124140.7746546,-34.66796875,-37.59765625,-35.15625,-33.203125,1.0,1.0,1.0,0.0,5.m4v,10.0
2024-02-28 13:42:20.778559,1709124140.7785592,-28.80859375,-34.1796875,-36.1328125,-28.80859375,1.0,1.0,1.0,0.0,5.m4v,10.0
2024-02-28 13:42:20.782464,1709124140.7824638,-27.34375,-33.203125,-34.1796875,-28.80859375,1.0,1.0,1.0,0.0,5.m4v,10.0
2024-02-28 13:42:20.786369,1709124140.7863686,-32.71484375,-37.59765625,-30.2734375,-31.73828125,1.0,1.0,1.0,0.0,5.m4v,10.0
2024-02-28 13:42:20.790273,1709124140.7902732,-26.85546875,-32.2265625,-34.1796875,-38.0859375,1.0,1.0,1.0,0.0,5.m4v,10.0
2024-02-28 13:42:20.794178,1709124140.7941778,-22.94921875,-33.69140625,-34.66796875,-35.64453125,1.0,1.0,1.0,0.0,5.m4v,10.0
2024-02-28 13:42:20.798082,1709124140.7980824,-23.92578125,-41.015625,-34.66796875,-33.203125,1.0,1.0,1.0,0.0,5.m4v,10.0
2024-02-28 13:42:20.801987,1709124140.801987,-24.90234375,-40.52734375,-37.109375,-37.109375,1.0,1.0,1.0,0.0,5.m4v,10.0
2024-02-28 13:42:20.805892,1709124140.8058918,-22.94921875,-41.015625,-37.59765625,-39.0625,1.0,1.0,1.0,0.0,5.m4v,10.0
2024-02-28 13:42:20.809796,1709124140.8097963,-22.4609375,-40.0390625,-35.64453125,-32.71484375,1.0,1.0,1.0,0.0,5.m4v,10.0
2024-02-28 13:42:20.813701,1709124140.813701,-22.94921875,-32.2265625,-33.69140625,-25.390625,1.0,1.0,1.0,0.0,5.m4v,10.0
2024-02-28 13:42:20.817620,1709124140.8176198,-25.87890625,-36.1328125,-32.2265625,-29.78515625,1.0,1.0,1.0,0.0,5.m4v,10.0
2024-02-28 13:42:20.821524,1709124140.8215244,-24.4140625,-41.015625,-29.78515625,-36.62109375,1.0,1.0,1.0,0.0,5.m4v,10.0
2024-02-28 13:42:20.825429,1709124140.825429,-24.90234375,-33.69140625,-30.76171875,-35.64453125,1.0,1.0,1.0,0.0,5.m4v,10.0
2024-02-28 13:42:20.829334,1709124140.8293335,-28.3203125,-30.2734375,-29.78515625,-39.0625,1.0,1.0,1.0,0.0,5.m4v,10.0
2024-02-28 13:42:20.833238,1709124140.8332384,-23.92578125,-25.87890625,-27.34375,-30.76171875,1.0,1.0,1.0,0.0,5.m4v,10.0
2024-02-28 13:42:20.837143,1709124140.837143,-25.87890625,-25.87890625,-27.83203125,-25.390625,1.0,1.0,1.0,0.0,5.m4v,10.0
2024-02-28 13:42:20.841048,1709124140.8410475,-29.296875,-22.4609375,-28.3203125,-34.1796875,1.0,1.0,1.0,0.0,5.m4v,10.0
2024-02-28 13:42:20.844952,1709124140.844952,-25.87890625,-23.92578125,-30.2734375,-34.1796875,1.0,1.0,1.0,0.0,5.m4v,10.0
2024-02-28 13:42:20.848857,1709124140.8488567,-27.83203125,-35.64453125,-32.71484375,-38.0859375,1.0,1.0,1.0,0.0,5.m4v,10.0
2024-02-28 13:42:20.852762,1709124140.8527615,-35.15625,-33.203125,-31.73828125,-38.57421875,1.0,1.0,1.0,0.0,5.m4v,10.0
2024-02-28 13:42:20.856666,1709124140.856666,-37.59765625,-28.80859375,-32.2265625,-38.57421875,1.0,1.0,1.0,0.0,5.m4v,10.0
2024-02-28 13:42:20.860571,1709124140.860571,-40.0390625,-25.87890625,-26.85546875,-37.109375,1.0,1.0,1.0,0.0,5.m4v,10.0
2024-02-28 13:42:20.864489,1709124140.8644886,-34.1796875,-29.296875,-24.90234375,-38.0859375,1.0,1.0,1.0,0.0,5.m4v,10.0
2024-02-28 13:42:20.868393,1709124140.8683932,-29.296875,-34.1796875,-29.78515625,-47.8515625,1.0,1.0,1.0,0.0,5.m4v,10.0
2024-02-28 13:42:20.872298,1709124140.8722978,-38.0859375,-38.0859375,-32.71484375,-42.96875,1.0,1.0,1.0,0.0,5.m4v,10.0
2024-02-28 13:42:20.876202,1709124140.8762023,-40.0390625,-35.15625,-28.80859375,-36.62109375,1.0,1.0,1.0,0.0,5.m4v,10.0
2024-02-28 13:42:20.880107,1709124140.8801072,-42.48046875,-29.78515625,-30.76171875,-38.0859375,1.0,1.0,1.0,0.0,5.m4v,10.0
2024-02-28 13:42:20.884012,1709124140.8840115,-41.50390625,-26.3671875,-32.2265625,-31.25,1.0,1.0,1.0,0.0,5.m4v,10.0
2024-02-28 13:42:20.887916,1709124140.8879163,-39.55078125,-29.78515625,-33.69140625,-31.73828125,1.0,1.0,1.0,0.0,5.m4v,10.0
2024-02-28 13:42:20.891821,1709124140.891821,-41.9921875,-32.2265625,-37.109375,-38.0859375,1.0,1.0,1.0,0.0,5.m4v,10.0
2024-02-28 13:42:20.895725,1709124140.8957255,-44.43359375,-29.78515625,-37.109375,-36.62109375,1.0,1.0,1.0,0.0,5.m4v,10.0
2024-02-28 13:42:20.899630,1709124140.8996303,-49.31640625,-27.34375,-35.15625,-35.15625,1.0,1.0,1.0,0.0,5.m4v,10.0
2024-02-28 13:42:20.903535,1709124140.903535,-41.015625,-26.3671875,-29.78515625,-40.0390625,1.0,1.0,1.0,0.0,5.m4v,10.0
2024-02-28 13:42:20.907439,1709124140.9074397,-38.57421875,-28.3203125,-29.78515625,-47.36328125,1.0,1.0,1.0,0.0,5.m4v,10.0
2024-02-28 13:42:20.911357,1709124140.911357,-44.43359375,-31.25,-31.25,-41.015625,1.0,1.0,1.0,0.0,5.m4v,10.0
2024-02-28 13:42:20.915262,1709124140.9152615,-42.96875,-32.71484375,-32.71484375,-37.109375,1.0,1.0,1.0,0.0,5.m4v,10.0
2024-02-28 13:42:20.919166,1709124140.919166,-42.96875,-35.64453125,-33.203125,-38.57421875,1.0,1.0,1.0,0.0,5.m4v,10.0
2024-02-28 13:42:20.923071,1709124140.923071,-46.875,-32.2265625,-31.73828125,-39.55078125,1.0,1.0,1.0,0.0,5.m4v,10.0
2024-02-28 13:42:20.926975,1709124140.9269755,-45.8984375,-20.99609375,-33.203125,-36.1328125,1.0,1.0,1.0,0.0,5.m4v,10.0
2024-02-28 13:42:20.930880,1709124140.93088,-49.31640625,-25.87890625,-36.1328125,-38.57421875,1.0,1.0,1.0,0.0,5.m4v,10.0
2024-02-28 13:42:20.934785,1709124140.934785,-47.8515625,-33.203125,-35.64453125,-41.50390625,1.0,1.0,1.0,0.0,5.m4v,10.0
2024-02-28 13:42:20.938689,1709124140.9386892,-45.41015625,-29.296875,-35.64453125,-39.0625,1.0,1.0,1.0,0.0,5.m4v,10.0
2024-02-28 13:42:20.942594,1709124140.9425938,-49.31640625,-27.83203125,-38.57421875,-47.36328125,1.0,1.0,1.0,0.0,5.m4v,10.0
2024-02-28 13:42:20.946499,1709124140.9464986,-45.8984375,-29.78515625,-36.1328125,-50.78125,1.0,1.0,1.0,0.0,5.m4v,10.0
2024-02-28 13:42:20.950403,1709124140.9504032,-39.55078125,-29.78515625,-30.76171875,-46.875,1.0,1.0,1.0,0.0,5.m4v,10.0
2024-02-28 13:42:20.954308,1709124140.9543078,-44.43359375,-33.69140625,-33.203125,-43.45703125,1.0,1.0,1.0,0.0,5.m4v,10.0
2024-02-28 13:42:20.958225,1709124140.9582248,-48.828125,-32.2265625,-33.203125,-37.59765625,1.0,1.0,1.0,0.0,5.m4v,10.0
2024-02-28 13:42:20.962129,1709124140.9621294,-46.875,-28.80859375,-30.76171875,-31.73828125,1.0,1.0,1.0,0.0,5.m4v,10.0
2024-02-28 13:42:20.966034,1709124140.966034,-43.45703125,-36.1328125,-30.2734375,-32.71484375,1.0,1.0,1.0,0.0,5.m4v,10.0
2024-02-28 13:42:20.969939,1709124140.9699385,-41.9921875,-40.0390625,-33.203125,-41.50390625,1.0,1.0,1.0,0.0,5.m4v,10.0
2024-02-28 13:42:20.973843,1709124140.973843,-44.43359375,-34.66796875,-36.1328125,-43.9453125,1.0,1.0,1.0,0.0,5.m4v,10.0
2024-02-28 13:42:20.977748,1709124140.977748,-44.43359375,-33.69140625,-35.64453125,-40.52734375,1.0,1.0,1.0,0.0,5.m4v,10.0
2024-02-28 13:42:20.981652,1709124140.9816525,-41.50390625,-39.0625,-37.109375,-38.57421875,1.0,1.0,1.0,0.0,5.m4v,10.0
2024-02-28 13:42:20.985557,1709124140.985557,-46.38671875,-41.9921875,-41.50390625,-41.015625,1.0,1.0,1.0,0.0,5.m4v,10.0
2024-02-28 13:42:20.989462,1709124140.9894617,-35.15625,-38.0859375,-38.57421875,-38.57421875,1.0,1.0,1.0,0.0,5.m4v,10.0
2024-02-28 13:42:20.993366,1709124140.9933662,-23.92578125,-34.66796875,-38.0859375,-33.69140625,1.0,1.0,1.0,0.0,5.m4v,10.0
2024-02-28 13:42:20.997271,1709124140.997271,-37.59765625,-34.1796875,-35.64453125,-40.52734375,1.0,1.0,1.0,0.0,5.m4v,10.0
2024-02-28 13:42:21.001176,1709124141.0011756,-49.8046875,-33.69140625,-34.1796875,-43.45703125,1.0,1.0,1.0,0.0,5.m4v,10.0
2024-02-28 13:42:21.005092,1709124141.005092,-51.7578125,-35.64453125,-34.66796875,-38.57421875,1.0,1.0,1.0,0.0,5.m4v,10.0
2024-02-28 13:42:21.008997,1709124141.008997,-50.78125,-36.62109375,-34.66796875,-40.52734375,1.0,1.0,1.0,0.0,5.m4v,10.0
2024-02-28 13:42:21.012902,1709124141.0129015,-43.45703125,-36.1328125,-30.76171875,-41.50390625,1.0,1.0,1.0,0.0,5.m4v,10.0
2024-02-28 13:42:21.016806,1709124141.016806,-37.59765625,-38.0859375,-27.34375,-38.57421875,1.0,1.0,1.0,0.0,5.m4v,10.0
2024-02-28 13:42:21.020711,1709124141.0207107,-43.45703125,-35.64453125,-31.73828125,-42.48046875,1.0,1.0,1.0,0.0,5.m4v,10.0
2024-02-28 13:42:21.024615,1709124141.0246153,-42.96875,-35.64453125,-31.25,-41.9921875,1.0,1.0,1.0,0.0,5.m4v,10.0
2024-02-28 13:42:21.028520,1709124141.02852,-40.52734375,-33.203125,-31.25,-42.96875,1.0,1.0,1.0,0.0,5.m4v,10.0
2024-02-28 13:42:21.032425,1709124141.0324247,-47.8515625,-32.2265625,-34.1796875,-39.55078125,1.0,1.0,1.0,0.0,5.m4v,10.0
2024-02-28 13:42:21.036329,1709124141.0363293,-49.8046875,-33.203125,-30.76171875,-26.3671875,1.0,1.0,1.0,0.0,5.m4v,10.0
2024-02-28 13:42:21.040234,1709124141.040234,-45.8984375,-33.203125,-28.80859375,-31.25,1.0,1.0,1.0,0.0,5.m4v,10.0
2024-02-28 13:42:21.044138,1709124141.0441384,-44.921875,-38.57421875,-31.73828125,-35.64453125,1.0,1.0,1.0,0.0,5.m4v,10.0
2024-02-28 13:42:21.048043,1709124141.0480433,-48.33984375,-40.52734375,-28.3203125,-30.2734375,1.0,1.0,1.0,0.0,5.m4v,10.0
2024-02-28 13:42:21.051959,1709124141.051959,-47.8515625,-35.15625,-24.90234375,-27.34375,1.0,1.0,1.0,0.0,5.m4v,10.0
2024-02-28 13:42:21.055864,1709124141.0558636,-40.0390625,-30.76171875,-25.87890625,-28.80859375,1.0,1.0,1.0,0.0,5.m4v,10.0
2024-02-28 13:42:21.059768,1709124141.0597682,-40.0390625,-28.80859375,-26.85546875,-37.59765625,1.0,1.0,1.0,0.0,5.m4v,10.0
2024-02-28 13:42:21.063673,1709124141.0636728,-44.921875,-30.76171875,-24.4140625,-39.55078125,1.0,1.0,1.0,0.0,5.m4v,10.0
2024-02-28 13:42:21.067578,1709124141.0675776,-36.62109375,-28.80859375,-27.83203125,-30.76171875,1.0,1.0,1.0,0.0,5.m4v,10.0
2024-02-28 13:42:21.071482,1709124141.0714822,-27.83203125,-27.34375,-28.80859375,-29.296875,1.0,1.0,1.0,0.0,5.m4v,10.0
2024-02-28 13:42:21.520635,1709124141.5206354,-41.50390625,-34.1796875,-33.203125,-31.25,1.0,1.0,1.0,0.0,5.m4v,10.0
2024-02-28 13:42:21.524540,1709124141.52454,-44.921875,-35.64453125,-35.64453125,-34.1796875,1.0,1.0,1.0,0.0,5.m4v,10.0
2024-02-28 13:42:21.528445,1709124141.5284443,-46.38671875,-35.15625,-37.109375,-35.64453125,1.0,1.0,1.0,0.0,5.m4v,10.0
2024-02-28 13:42:21.532349,1709124141.532349,-47.36328125,-31.73828125,-35.15625,-31.25,1.0,1.0,1.0,0.0,5.m4v,10.0
2024-02-28 13:42:21.536254,1709124141.536254,-43.45703125,-30.76171875,-39.55078125,-31.25,1.0,1.0,1.0,0.0,5.m4v,10.0
2024-02-28 13:42:21.540159,1709124141.5401585,-45.41015625,-30.76171875,-43.45703125,-34.66796875,1.0,1.0,1.0,0.0,5.m4v,10.0
2024-02-28 13:42:21.544063,1709124141.544063,-45.8984375,-28.80859375,-41.015625,-42.48046875,1.0,1.0,1.0,0.0,5.m4v,10.0
2024-02-28 13:42:21.547968,1709124141.5479677,-43.45703125,-28.80859375,-35.15625,-46.875,1.0,1.0,1.0,0.0,5.m4v,10.0
2024-02-28 13:42:21.551872,1709124141.5518725,-45.8984375,-26.85546875,-33.69140625,-43.45703125,1.0,1.0,1.0,0.0,5.m4v,10.0
2024-02-28 13:42:21.555777,1709124141.555777,-45.8984375,-24.90234375,-32.71484375,-38.0859375,1.0,1.0,1.0,0.0,5.m4v,10.0
2024-02-28 13:42:21.559682,1709124141.5596817,-38.0859375,-26.3671875,-34.66796875,-33.69140625,1.0,1.0,1.0,0.0,5.m4v,10.0
2024-02-28 13:42:21.563586,1709124141.5635862,-31.25,-29.296875,-38.57421875,-36.62109375,1.0,1.0,1.0,0.0,5.m4v,10.0
2024-02-28 13:42:21.567505,1709124141.5675046,-33.69140625,-31.25,-38.57421875,-41.50390625,1.0,1.0,1.0,0.0,5.m4v,10.0
2024-02-28 13:42:21.571409,1709124141.5714092,-36.62109375,-30.76171875,-37.109375,-45.41015625,1.0,1.0,1.0,0.0,5.m4v,10.0
2024-02-28 13:42:21.575314,1709124141.575314,-35.64453125,-34.1796875,-38.0859375,-41.9921875,1.0,1.0,1.0,0.0,5.m4v,10.0
2024-02-28 13:42:21.579219,1709124141.5792186,-40.0390625,-34.66796875,-42.96875,-36.62109375,1.0,1.0,1.0,0.0,5.m4v,10.0
2024-02-28 13:42:21.583123,1709124141.5831232,-38.57421875,-35.15625,-43.9453125,-45.8984375,1.0,1.0,1.0,0.0,5.m4v,10.0
2024-02-28 13:42:21.587028,1709124141.5870278,-37.59765625,-36.1328125,-39.0625,-44.921875,1.0,1.0,1.0,0.0,5.m4v,10.0
2024-02-28 13:42:21.590933,1709124141.5909326,-43.9453125,-37.59765625,-37.109375,-39.55078125,1.0,1.0,1.0,0.0,5.m4v,10.0
2024-02-28 13:42:21.594837,1709124141.5948372,-42.48046875,-42.96875,-34.66796875,-41.9921875,1.0,1.0,1.0,0.0,5.m4v,10.0
2024-02-28 13:42:21.598742,1709124141.5987418,-34.66796875,-43.9453125,-31.73828125,-36.1328125,1.0,1.0,1.0,0.0,5.m4v,10.0
2024-02-28 13:42:21.602646,1709124141.6026464,-24.90234375,-44.43359375,-36.62109375,-35.64453125,1.0,1.0,1.0,0.0,5.m4v,10.0
2024-02-28 13:42:21.606551,1709124141.606551,-25.87890625,-34.66796875,-37.59765625,-38.57421875,1.0,1.0,1.0,0.0,5.m4v,10.0
2024-02-28 13:42:21.610456,1709124141.6104558,-32.2265625,-28.3203125,-35.15625,-36.1328125,1.0,1.0,1.0,0.0,5.m4v,10.0
2024-02-28 13:42:21.614374,1709124141.6143737,-31.25,-33.69140625,-31.73828125,-30.2734375,1.0,1.0,1.0,0.0,5.m4v,10.0
2024-02-28 13:42:21.618278,1709124141.6182785,-31.73828125,-35.15625,-29.296875,-27.34375,1.0,1.0,1.0,0.0,5.m4v,10.0
2024-02-28 13:42:21.622183,1709124141.6221828,-32.2265625,-33.203125,-28.3203125,-27.83203125,1.0,1.0,1.0,0.0,5.m4v,10.0
2024-02-28 13:42:21.626087,1709124141.6260874,-29.78515625,-29.78515625,-26.85546875,-27.34375,1.0,1.0,1.0,0.0,5.m4v,10.0
2024-02-28 13:42:21.629992,1709124141.629992,-40.0390625,-32.2265625,-32.2265625,-33.69140625,1.0,1.0,1.0,0.0,5.m4v,10.0
2024-02-28 13:42:21.633897,1709124141.6338968,-47.36328125,-32.71484375,-32.71484375,-33.203125,1.0,1.0,1.0,0.0,5.m4v,10.0
2024-02-28 13:42:21.637801,1709124141.6378014,-37.109375,-33.69140625,-26.3671875,-24.4140625,1.0,1.0,1.0,0.0,5.m4v,10.0
2024-02-28 13:42:21.641706,1709124141.641706,-27.83203125,-34.1796875,-27.34375,-21.484375,1.0,1.0,1.0,0.0,5.m4v,10.0
2024-02-28 13:42:21.645611,1709124141.6456106,-28.80859375,-35.64453125,-35.15625,-24.4140625,1.0,1.0,1.0,0.0,5.m4v,10.0
2024-02-28 13:42:21.649515,1709124141.6495152,-31.25,-34.66796875,-32.71484375,-30.76171875,1.0,1.0,1.0,0.0,5.m4v,10.0
2024-02-28 13:42:21.653420,1709124141.65342,-37.109375,-33.203125,-29.78515625,-35.15625,1.0,1.0,1.0,0.0,5.m4v,10.0
2024-02-28 13:42:21.657325,1709124141.6573246,-46.875,-32.2265625,-34.1796875,-34.66796875,1.0,1.0,1.0,0.0,5.m4v,10.0
2024-02-28 13:42:21.661242,1709124141.6612422,-50.78125,-30.76171875,-32.71484375,-32.2265625,1.0,1.0,1.0,0.0,5.m4v,10.0
2024-02-28 13:42:21.665147,1709124141.6651468,-47.8515625,-31.25,-33.69140625,-32.2265625,1.0,1.0,1.0,0.0,5.m4v,10.0
2024-02-28 13:42:21.669051,1709124141.6690514,-54.19921875,-32.71484375,-35.64453125,-39.55078125,1.0,1.0,1.0,0.0,5.m4v,10.0
2024-02-28 13:42:21.672956,1709124141.6729562,-56.15234375,-29.296875,-33.69140625,-34.66796875,1.0,1.0,1.0,0.0,5.m4v,10.0
2024-02-28 13:42:21.676861,1709124141.6768608,-44.921875,-30.2734375,-32.2265625,-25.390625,1.0,1.0,1.0,0.0,5.m4v,10.0
2024-02-28 13:42:21.680765,1709124141.6807654,-44.43359375,-30.2734375,-31.25,-26.85546875,1.0,1.0,1.0,0.0,5.m4v,10.0
2024-02-28 13:42:21.684670,1709124141.68467,-40.52734375,-26.85546875,-32.2265625,-30.2734375,1.0,1.0,1.0,0.0,5.m4v,10.0
2024-02-28 13:42:21.688575,1709124141.6885746,-39.55078125,-38.0859375,-35.15625,-32.71484375,1.0,1.0,1.0,0.0,5.m4v,10.0
2024-02-28 13:42:21.692479,1709124141.6924794,-42.96875,-41.50390625,-32.71484375,-35.64453125,1.0,1.0,1.0,0.0,5.m4v,10.0
2024-02-28 13:42:21.696384,1709124141.696384,-40.0390625,-36.62109375,-31.73828125,-36.62109375,1.0,1.0,1.0,0.0,5.m4v,10.0
2024-02-28 13:42:21.700289,1709124141.7002883,-44.921875,-40.0390625,-33.203125,-39.55078125,1.0,1.0,1.0,0.0,5.m4v,10.0
2024-02-28 13:42:21.704193,1709124141.704193,-43.9453125,-38.0859375,-34.66796875,-38.0859375,1.0,1.0,1.0,0.0,5.m4v,10.0
2024-02-28 13:42:21.708110,1709124141.70811,-46.875,-31.25,-38.0859375,-37.59765625,1.0,1.0,1.0,0.0,5.m4v,10.0
2024-02-28 13:42:21.712015,1709124141.712015,-50.29296875,-35.64453125,-37.59765625,-39.0625,1.0,1.0,1.0,0.0,5.m4v,10.0
2024-02-28 13:42:21.715919,1709124141.7159193,-49.31640625,-38.57421875,-35.64453125,-39.55078125,1.0,1.0,1.0,0.0,5.m4v,10.0
2024-02-28 13:42:21.719824,1709124141.7198238,-42.48046875,-39.0625,-34.1796875,-44.43359375,1.0,1.0,1.0,0.0,5.m4v,10.0
2024-02-28 13:42:21.723728,1709124141.7237284,-36.62109375,-35.64453125,-32.71484375,-43.45703125,1.0,1.0,1.0,0.0,5.m4v,10.0
2024-02-28 13:42:21.727633,1709124141.7276332,-36.62109375,-33.69140625,-30.2734375,-42.96875,1.0,1.0,1.0,0.0,5.m4v,10.0
2024-02-28 13:42:21.731538,1709124141.7315378,-31.73828125,-34.1796875,-26.85546875,-34.1796875,1.0,1.0,1.0,0.0,5.m4v,10.0
2024-02-28 13:42:21.735442,1709124141.7354424,-36.62109375,-36.62109375,-32.2265625,-30.2734375,1.0,1.0,1.0,0.0,5.m4v,10.0
2024-02-28 13:42:21.739347,1709124141.739347,-44.43359375,-40.52734375,-37.59765625,-40.52734375,1.0,1.0,1.0,0.0,5.m4v,10.0
2024-02-28 13:42:21.743252,1709124141.7432518,-42.96875,-39.0625,-36.1328125,-40.0390625,1.0,1.0,1.0,0.0,5.m4v,10.0
2024-02-28 13:42:21.747156,1709124141.7471564,-35.64453125,-36.62109375,-34.1796875,-31.73828125,1.0,1.0,1.0,0.0,5.m4v,10.0
2024-02-28 13:42:21.751061,1709124141.751061,-38.0859375,-38.0859375,-33.203125,-33.69140625,1.0,1.0,1.0,0.0,5.m4v,10.0
2024-02-28 13:42:21.754977,1709124141.7549772,-40.0390625,-33.69140625,-31.25,-37.109375,1.0,1.0,1.0,0.0,5.m4v,10.0
2024-02-28 13:42:21.758882,1709124141.758882,-40.52734375,-32.71484375,-29.296875,-39.55078125,1.0,1.0,1.0,0.0,5.m4v,10.0
2024-02-28 13:42:21.762787,1709124141.7627866,-42.48046875,-38.0859375,-32.2265625,-41.9921875,1.0,1.0,1.0,0.0,5.m4v,10.0
2024-02-28 13:42:21.766691,1709124141.7666912,-39.55078125,-39.55078125,-32.71484375,-35.64453125,1.0,1.0,1.0,0.0,5.m4v,10.0
2024-02-28 13:42:21.770596,1709124141.7705958,-36.62109375,-33.69140625,-26.85546875,-32.71484375,1.0,1.0,1.0,0.0,5.m4v,10.0
2024-02-28 13:42:21.774500,1709124141.7745004,-32.2265625,-32.2265625,-29.296875,-33.69140625,1.0,1.0,1.0,0.0,5.m4v,10.0
2024-02-28 13:42:21.778405,1709124141.7784052,-37.109375,-35.15625,-33.69140625,-28.80859375,1.0,1.0,1.0,0.0,5.m4v,10.0
2024-02-28 13:42:21.782310,1709124141.7823098,-44.921875,-38.0859375,-40.52734375,-29.296875,1.0,1.0,1.0,0.0,5.m4v,10.0
2024-02-28 13:42:21.786214,1709124141.7862144,-50.78125,-40.52734375,-46.38671875,-34.66796875,1.0,1.0,1.0,0.0,5.m4v,10.0
2024-02-28 13:42:21.790119,1709124141.790119,-50.29296875,-36.62109375,-39.55078125,-35.15625,1.0,1.0,1.0,0.0,5.m4v,10.0
2024-02-28 13:42:21.794024,1709124141.7940235,-41.9921875,-34.1796875,-36.62109375,-32.71484375,1.0,1.0,1.0,0.0,5.m4v,10.0
2024-02-28 13:42:21.797928,1709124141.7979283,-41.015625,-33.69140625,-37.109375,-33.69140625,1.0,1.0,1.0,0.0,5.m4v,10.0
2024-02-28 13:42:21.801844,1709124141.801844,-42.96875,-39.55078125,-35.15625,-32.2265625,1.0,1.0,1.0,0.0,5.m4v,10.0
2024-02-28 13:42:21.805749,1709124141.8057487,-42.48046875,-41.9921875,-33.203125,-31.73828125,1.0,1.0,1.0,0.0,5.m4v,10.0
2024-02-28 13:42:21.809653,1709124141.8096533,-42.48046875,-34.66796875,-32.71484375,-35.64453125,1.0,1.0,1.0,0.0,5.m4v,10.0
2024-02-28 13:42:21.813558,1709124141.813558,-33.69140625,-34.66796875,-28.3203125,-30.76171875,1.0,1.0,1.0,0.0,5.m4v,10.0
2024-02-28 13:42:21.817463,1709124141.8174627,-25.87890625,-35.64453125,-27.34375,-31.73828125,1.0,1.0,1.0,0.0,5.m4v,10.0
2024-02-28 13:42:21.821367,1709124141.8213673,-27.83203125,-26.3671875,-32.2265625,-33.69140625,1.0,1.0,1.0,0.0,5.m4v,10.0
2024-02-28 13:42:21.825272,1709124141.8252718,-28.80859375,-24.4140625,-30.2734375,-26.3671875,1.0,1.0,1.0,0.0,5.m4v,10.0
2024-02-28 13:42:21.829176,1709124141.8291764,-35.15625,-27.34375,-29.78515625,-28.3203125,1.0,1.0,1.0,0.0,5.m4v,10.0
2024-02-28 13:42:21.833081,1709124141.833081,-41.50390625,-30.76171875,-36.62109375,-35.15625,1.0,1.0,1.0,0.0,5.m4v,10.0
2024-02-28 13:42:21.836986,1709124141.8369858,-45.41015625,-27.83203125,-36.1328125,-39.0625,1.0,1.0,1.0,0.0,5.m4v,10.0
2024-02-28 13:42:21.840890,1709124141.8408904,-49.31640625,-27.83203125,-32.2265625,-42.48046875,1.0,1.0,1.0,0.0,5.m4v,10.0
2024-02-28 13:42:21.844795,1709124141.844795,-41.015625,-34.1796875,-32.71484375,-37.59765625,1.0,1.0,1.0,0.0,5.m4v,10.0
2024-02-28 13:42:21.848711,1709124141.8487103,-42.96875,-32.71484375,-32.2265625,-37.109375,1.0,1.0,1.0,0.0,5.m4v,10.0
2024-02-28 13:42:21.852615,1709124141.8526154,-52.24609375,-35.15625,-37.59765625,-43.45703125,1.0,1.0,1.0,0.0,5.m4v,10.0
2024-02-28 13:42:21.856520,1709124141.85652,-47.8515625,-36.62109375,-37.59765625,-46.38671875,1.0,1.0,1.0,0.0,5.m4v,10.0
2024-02-28 13:42:21.860425,1709124141.8604245,-45.41015625,-31.25,-39.0625,-44.921875,1.0,1.0,1.0,0.0,5.m4v,10.0
2024-02-28 13:42:21.864329,1709124141.864329,-46.875,-33.203125,-41.50390625,-44.921875,1.0,1.0,1.0,0.0,5.m4v,10.0
2024-02-28 13:42:21.868234,1709124141.8682337,-45.41015625,-34.66796875,-38.0859375,-45.8984375,1.0,1.0,1.0,0.0,5.m4v,10.0
2024-02-28 13:42:21.872139,1709124141.8721385,-44.43359375,-39.55078125,-36.62109375,-43.9453125,1.0,1.0,1.0,0.0,5.m4v,10.0
2024-02-28 13:42:21.876043,1709124141.876043,-46.875,-44.43359375,-36.62109375,-45.41015625,1.0,1.0,1.0,0.0,5.m4v,10.0
2024-02-28 13:42:21.879948,1709124141.8799477,-37.59765625,-39.0625,-27.83203125,-33.203125,1.0,1.0,1.0,0.0,5.m4v,10.0
2024-02-28 13:42:21.883852,1709124141.8838522,-29.78515625,-33.203125,-22.94921875,-25.87890625,1.0,1.0,1.0,0.0,5.m4v,10.0
2024-02-28 13:42:21.887757,1709124141.8877568,-21.97265625,-31.73828125,-25.87890625,-32.71484375,1.0,1.0,1.0,0.0,5.m4v,10.0
2024-02-28 13:42:21.891662,1709124141.8916616,-13.18359375,-30.2734375,-26.3671875,-30.2734375,1.0,1.0,1.0,0.0,5.m4v,10.0
2024-02-28 13:42:21.895577,1709124141.895577,-20.5078125,-26.85546875,-25.87890625,-32.71484375,1.0,1.0,1.0,0.0,5.m4v,10.0
2024-02-28 13:42:21.899482,1709124141.8994818,-28.80859375,-29.78515625,-27.83203125,-36.1328125,1.0,1.0,1.0,0.0,5.m4v,10.0
2024-02-28 13:42:21.903386,1709124141.9033864,-35.15625,-30.76171875,-34.1796875,-34.1796875,1.0,1.0,1.0,0.0,5.m4v,10.0
2024-02-28 13:42:21.907291,1709124141.907291,-34.66796875,-27.83203125,-34.1796875,-27.83203125,1.0,1.0,1.0,0.0,5.m4v,10.0
2024-02-28 13:42:21.911196,1709124141.9111955,-30.76171875,-30.2734375,-29.78515625,-21.97265625,1.0,1.0,1.0,0.0,5.m4v,10.0
2024-02-28 13:42:21.915100,1709124141.9151,-32.71484375,-32.71484375,-30.2734375,-27.83203125,1.0,1.0,1.0,0.0,5.m4v,10.0
2024-02-28 13:42:21.919005,1709124141.919005,-28.3203125,-33.203125,-32.2265625,-35.64453125,1.0,1.0,1.0,0.0,5.m4v,10.0
2024-02-28 13:42:21.922909,1709124141.9229095,-23.4375,-35.64453125,-31.73828125,-32.2265625,1.0,1.0,1.0,0.0,5.m4v,10.0
2024-02-28 13:42:21.926814,1709124141.926814,-27.34375,-31.73828125,-30.76171875,-31.25,1.0,1.0,1.0,0.0,5.m4v,10.0
2024-02-28 13:42:21.930719,1709124141.930719,-26.3671875,-29.78515625,-32.2265625,-35.15625,1.0,1.0,1.0,0.0,5.m4v,10.0
2024-02-28 13:42:21.934623,1709124141.9346232,-27.83203125,-30.76171875,-32.71484375,-36.62109375,1.0,1.0,1.0,0.0,5.m4v,10.0
2024-02-28 13:42:21.938528,1709124141.938528,-26.3671875,-28.3203125,-31.73828125,-36.62109375,1.0,1.0,1.0,0.0,5.m4v,10.0
2024-02-28 13:42:21.942446,1709124141.9424465,-26.3671875,-31.25,-32.71484375,-39.0625,1.0,1.0,1.0,0.0,5.m4v,10.0
2024-02-28 13:42:21.946351,1709124141.946351,-24.90234375,-32.2265625,-31.25,-41.9921875,1.0,1.0,1.0,0.0,5.m4v,10.0
2024-02-28 13:42:21.950256,1709124141.9502556,-24.90234375,-30.2734375,-28.3203125,-38.0859375,1.0,1.0,1.0,0.0,5.m4v,10.0
2024-02-28 13:42:21.954160,1709124141.9541605,-20.99609375,-31.73828125,-29.296875,-28.3203125,1.0,1.0,1.0,0.0,5.m4v,10.0
2024-02-28 13:42:21.958065,1709124141.958065,-18.5546875,-30.2734375,-33.203125,-26.85546875,1.0,1.0,1.0,0.0,5.m4v,10.0
2024-02-28 13:42:21.961970,1709124141.9619696,-18.5546875,-31.25,-32.2265625,-20.01953125,1.0,1.0,1.0,0.0,5.m4v,10.0
2024-02-28 13:42:21.965874,1709124141.9658742,-11.71875,-34.66796875,-31.73828125,-21.484375,1.0,1.0,1.0,0.0,5.m4v,10.0
2024-02-28 13:42:21.969779,1709124141.9697788,-20.99609375,-29.296875,-32.2265625,-38.0859375,1.0,1.0,1.0,0.0,5.m4v,10.0
2024-02-28 13:42:21.973684,1709124141.9736836,-27.34375,-26.85546875,-32.71484375,-44.921875,1.0,1.0,1.0,0.0,5.m4v,10.0
2024-02-28 13:42:21.977588,1709124141.9775882,-25.87890625,-30.2734375,-37.59765625,-47.36328125,1.0,1.0,1.0,0.0,5.m4v,10.0
2024-02-28 13:42:21.981493,1709124141.9814928,-35.64453125,-25.87890625,-39.55078125,-50.29296875,1.0,1.0,1.0,0.0,5.m4v,10.0
2024-02-28 13:42:21.985397,1709124141.985397,-32.2265625,-21.97265625,-38.57421875,-43.45703125,1.0,1.0,1.0,0.0,5.m4v,10.0
2024-02-28 13:42:21.989315,1709124141.9893153,-38.57421875,-24.90234375,-35.15625,-45.8984375,1.0,1.0,1.0,0.0,5.m4v,10.0
2024-02-28 13:42:21.993220,1709124141.99322,-44.43359375,-27.83203125,-39.0625,-49.8046875,1.0,1.0,1.0,0.0,5.m4v,10.0
2024-02-28 13:42:21.997125,1709124141.997125,-32.2265625,-27.83203125,-40.0390625,-42.96875,1.0,1.0,1.0,0.0,5.m4v,10.0
2024-02-28 13:42:22.001029,1709124142.0010293,-27.83203125,-29.78515625,-37.59765625,-40.0390625,1.0,1.0,1.0,0.0,5.m4v,10.0
2024-02-28 13:42:22.004934,1709124142.0049338,-24.90234375,-28.80859375,-37.109375,-37.59765625,1.0,1.0,1.0,0.0,5.m4v,10.0
2024-02-28 13:42:22.008838,1709124142.0088384,-26.3671875,-32.71484375,-36.62109375,-36.1328125,1.0,1.0,1.0,0.0,5.m4v,10.0
2024-02-28 13:42:22.012743,1709124142.0127432,-37.59765625,-34.66796875,-41.50390625,-39.0625,1.0,1.0,1.0,0.0,5.m4v,10.0
2024-02-28 13:42:22.016648,1709124142.0166478,-36.62109375,-31.73828125,-39.55078125,-34.1796875,1.0,1.0,1.0,0.0,5.m4v,10.0
2024-02-28 13:42:22.020552,1709124142.0205524,-31.25,-34.1796875,-33.69140625,-34.1796875,1.0,1.0,1.0,0.0,5.m4v,10.0
2024-02-28 13:42:22.024457,1709124142.024457,-34.66796875,-36.1328125,-33.203125,-38.57421875,1.0,1.0,1.0,0.0,5.m4v,10.0
2024-02-28 13:42:22.028362,1709124142.0283618,-40.0390625,-40.0390625,-35.64453125,-41.9921875,1.0,1.0,1.0,0.0,5.m4v,10.0
2024-02-28 13:42:22.032266,1709124142.0322664,-46.38671875,-41.015625,-41.50390625,-48.33984375,1.0,1.0,1.0,0.0,5.m4v,10.0
2024-02-28 13:42:22.036184,1709124142.0361838,-44.921875,-40.0390625,-37.59765625,-43.9453125,1.0,1.0,1.0,0.0,5.m4v,10.0
2024-02-28 13:42:22.040088,1709124142.0400884,-37.59765625,-36.62109375,-29.78515625,-37.59765625,1.0,1.0,1.0,0.0,5.m4v,10.0
2024-02-28 13:42:22.043993,1709124142.043993,-40.0390625,-29.78515625,-27.34375,-30.76171875,1.0,1.0,1.0,0.0,5.m4v,10.0
2024-02-28 13:42:22.047898,1709124142.0478976,-39.55078125,-31.73828125,-29.78515625,-26.3671875,1.0,1.0,1.0,0.0,5.m4v,10.0
2024-02-28 13:42:22.051802,1709124142.0518022,-34.1796875,-38.0859375,-35.64453125,-29.78515625,1.0,1.0,1.0,0.0,5.m4v,10.0
2024-02-28 13:42:22.055707,1709124142.055707,-28.80859375,-38.0859375,-32.71484375,-32.71484375,1.0,1.0,1.0,0.0,5.m4v,10.0
2024-02-28 13:42:22.059612,1709124142.0596116,-29.296875,-33.69140625,-29.78515625,-31.25,1.0,1.0,1.0,0.0,5.m4v,10.0
2024-02-28 13:42:22.063516,1709124142.063516,-24.4140625,-31.73828125,-30.76171875,-32.2265625,1.0,1.0,1.0,0.0,5.m4v,10.0
2024-02-28 13:42:22.067421,1709124142.0674207,-29.78515625,-35.64453125,-29.296875,-31.25,1.0,1.0,1.0,0.0,5.m4v,10.0
2024-02-28 13:42:22.071325,1709124142.0713253,-34.66796875,-36.1328125,-28.3203125,-35.15625,1.0,1.0,1.0,0.0,5.m4v,10.0
2024-02-28 13:42:22.075230,1709124142.07523,-28.80859375,-34.1796875,-30.2734375,-40.0390625,1.0,1.0,1.0,0.0,5.m4v,10.0
2024-02-28 13:42:22.079135,1709124142.0791347,-36.62109375,-34.1796875,-34.66796875,-40.0390625,1.0,1.0,1.0,0.0,5.m4v,10.0
2024-02-28 13:42:22.083053,1709124142.0830526,-40.52734375,-33.69140625,-33.203125,-37.59765625,1.0,1.0,1.0,0.0,5.m4v,10.0
2024-02-28 13:42:22.086957,1709124142.0869572,-38.57421875,-34.1796875,-33.203125,-40.52734375,1.0,1.0,1.0,0.0,5.m4v,10.0
2024-02-28 13:42:22.090862,1709124142.0908618,-37.59765625,-29.296875,-38.57421875,-37.59765625,1.0,1.0,1.0,0.0,5.m4v,10.0
2024-02-28 13:42:22.094766,1709124142.0947664,-37.109375,-29.296875,-39.55078125,-30.2734375,1.0,1.0,1.0,0.0,5.m4v,10.0
2024-02-28 13:42:22.098671,1709124142.098671,-35.15625,-38.57421875,-35.15625,-35.15625,1.0,1.0,1.0,0.0,5.m4v,10.0
2024-02-28 13:42:22.102576,1709124142.1025758,-35.15625,-36.62109375,-33.69140625,-35.15625,1.0,1.0,1.0,0.0,5.m4v,10.0
2024-02-28 13:42:22.508767,1709124142.508767,-35.64453125,-37.59765625,-38.0859375,-42.48046875,1.0,1.0,1.0,0.0,5.m4v,10.0
2024-02-28 13:42:22.520481,1709124142.5204806,-41.015625,-42.48046875,-38.0859375,-42.48046875,1.0,1.0,1.0,0.0,5.m4v,10.0
2024-02-28 13:42:22.528290,1709124142.5282898,-47.8515625,-34.66796875,-29.296875,-44.921875,1.0,1.0,1.0,0.0,5.m4v,10.0
2024-02-28 13:42:22.540004,1709124142.5400038,-48.33984375,-29.296875,-23.92578125,-33.69140625,1.0,1.0,1.0,0.0,5.m4v,10.0
2024-02-28 13:42:22.551729,1709124142.551729,-43.9453125,-36.62109375,-34.66796875,-40.52734375,1.0,1.0,1.0,0.0,5.m4v,10.0
2024-02-28 13:42:22.559538,1709124142.559538,-49.8046875,-42.48046875,-35.15625,-33.69140625,1.0,1.0,1.0,0.0,5.m4v,10.0
2024-02-28 13:42:22.571252,1709124142.571252,-42.96875,-34.1796875,-36.1328125,-28.3203125,1.0,1.0,1.0,0.0,5.m4v,10.0
2024-02-28 13:42:22.579061,1709124142.5790613,-37.109375,-40.52734375,-32.2265625,-34.66796875,1.0,1.0,1.0,0.0,5.m4v,10.0
2024-02-28 13:42:22.590775,1709124142.5907753,-36.62109375,-37.109375,-27.83203125,-35.15625,1.0,1.0,1.0,0.0,5.m4v,10.0
2024-02-28 13:42:22.602500,1709124142.6024995,-24.4140625,-38.0859375,-32.2265625,-32.71484375,1.0,1.0,1.0,0.0,5.m4v,10.0
2024-02-28 13:42:22.610309,1709124142.6103091,-28.80859375,-39.55078125,-33.69140625,-36.62109375,1.0,1.0,1.0,0.0,5.m4v,10.0
2024-02-28 13:42:22.622023,1709124142.622023,-20.5078125,-28.80859375,-30.2734375,-37.109375,1.0,1.0,1.0,0.0,5.m4v,10.0
2024-02-28 13:42:22.633737,1709124142.6337368,-23.4375,-27.83203125,-30.2734375,-41.015625,1.0,1.0,1.0,0.0,5.m4v,10.0
2024-02-28 13:42:22.641546,1709124142.6415462,-20.5078125,-33.203125,-32.2265625,-35.64453125,1.0,1.0,1.0,0.0,5.m4v,10.0
2024-02-28 13:42:22.641546,1709124142.6415462,-20.5078125,-33.203125,-32.2265625,-35.64453125,1.0,1.0,1.0,0.0,5.m4v,10.0
2024-02-28 13:42:22.653270,1709124142.6532705,-27.83203125,-34.66796875,-31.73828125,-41.015625,1.0,1.0,1.0,0.0,5.m4v,10.0
2024-02-28 13:42:22.653270,1709124142.6532705,-27.83203125,-34.66796875,-31.73828125,-41.015625,1.0,1.0,1.0,0.0,5.m4v,10.0
2024-02-28 13:42:22.661080,1709124142.6610796,-25.87890625,-28.3203125,-27.34375,-41.015625,1.0,1.0,1.0,0.0,5.m4v,10.0
2024-02-28 13:42:22.661080,1709124142.6610796,-25.87890625,-28.3203125,-27.34375,-41.015625,1.0,1.0,1.0,0.0,5.m4v,10.0
2024-02-28 13:42:22.672794,1709124142.6727936,-21.97265625,-27.83203125,-35.64453125,-35.64453125,1.0,1.0,1.0,0.0,5.m4v,10.0
2024-02-28 13:42:22.672794,1709124142.6727936,-21.97265625,-27.83203125,-35.64453125,-35.64453125,1.0,1.0,1.0,0.0,5.m4v,10.0
2024-02-28 13:42:22.684507,1709124142.6845074,-24.90234375,-24.90234375,-38.57421875,-32.71484375,1.0,1.0,1.0,0.0,5.m4v,10.0
2024-02-28 13:42:22.684507,1709124142.6845074,-24.90234375,-24.90234375,-38.57421875,-32.71484375,1.0,1.0,1.0,0.0,5.m4v,10.0
2024-02-28 13:42:22.692331,1709124142.6923306,-17.578125,-25.390625,-32.71484375,-24.90234375,1.0,1.0,1.0,0.0,5.m4v,10.0
2024-02-28 13:42:22.692331,1709124142.6923306,-17.578125,-25.390625,-32.71484375,-24.90234375,1.0,1.0,1.0,0.0,5.m4v,10.0
2024-02-28 13:42:22.704045,1709124142.7040446,-30.76171875,-31.73828125,-37.59765625,-32.71484375,1.0,1.0,1.0,0.0,5.m4v,10.0
2024-02-28 13:42:22.704045,1709124142.7040446,-30.76171875,-31.73828125,-37.59765625,-32.71484375,1.0,1.0,1.0,0.0,5.m4v,10.0
2024-02-28 13:42:22.711854,1709124142.7118535,-20.01953125,-31.73828125,-40.0390625,-31.25,1.0,1.0,1.0,0.0,5.m4v,10.0
2024-02-28 13:42:22.711854,1709124142.7118535,-20.01953125,-31.73828125,-40.0390625,-31.25,1.0,1.0,1.0,0.0,5.m4v,10.0
2024-02-28 13:42:22.715758,1709124142.7157583,-27.34375,-31.25,-36.62109375,-38.57421875,1.0,1.0,1.0,0.0,5.m4v,10.0
2024-02-28 13:42:22.719663,1709124142.719663,-24.4140625,-25.87890625,-32.71484375,-31.25,1.0,1.0,1.0,0.0,5.m4v,10.0
2024-02-28 13:42:22.723568,1709124142.7235675,-23.92578125,-30.2734375,-35.15625,-33.203125,1.0,1.0,1.0,0.0,5.m4v,10.0
2024-02-28 13:42:22.727472,1709124142.7274723,-30.2734375,-36.1328125,-38.57421875,-42.96875,1.0,1.0,1.0,0.0,5.m4v,10.0
2024-02-28 13:42:22.731377,1709124142.731377,-24.4140625,-36.62109375,-36.1328125,-38.0859375,1.0,1.0,1.0,0.0,5.m4v,10.0
2024-02-28 13:42:22.735281,1709124142.7352817,-29.296875,-34.66796875,-34.1796875,-41.9921875,1.0,1.0,1.0,0.0,5.m4v,10.0
2024-02-28 13:42:22.739200,1709124142.7392,-36.62109375,-34.1796875,-34.66796875,-48.828125,1.0,1.0,1.0,0.0,5.m4v,10.0
2024-02-28 13:42:22.743104,1709124142.7431045,-33.203125,-40.0390625,-36.62109375,-41.50390625,1.0,1.0,1.0,0.0,5.m4v,10.0
2024-02-28 13:42:22.747009,1709124142.747009,-31.73828125,-35.64453125,-36.62109375,-41.9921875,1.0,1.0,1.0,0.0,5.m4v,10.0
2024-02-28 13:42:22.750914,1709124142.7509136,-22.4609375,-34.66796875,-34.66796875,-42.96875,1.0,1.0,1.0,0.0,5.m4v,10.0
2024-02-28 13:42:22.754818,1709124142.7548182,-20.5078125,-41.9921875,-32.71484375,-41.50390625,1.0,1.0,1.0,0.0,5.m4v,10.0
2024-02-28 13:42:22.758723,1709124142.758723,-20.5078125,-39.0625,-31.73828125,-39.0625,1.0,1.0,1.0,0.0,5.m4v,10.0
2024-02-28 13:42:22.762628,1709124142.7626276,-22.4609375,-38.57421875,-34.1796875,-39.55078125,1.0,1.0,1.0,0.0,5.m4v,10.0
2024-02-28 13:42:22.766532,1709124142.7665322,-28.3203125,-40.0390625,-33.203125,-43.9453125,1.0,1.0,1.0,0.0,5.m4v,10.0
2024-02-28 13:42:22.770437,1709124142.7704368,-29.78515625,-42.48046875,-34.66796875,-41.9921875,1.0,1.0,1.0,0.0,5.m4v,10.0
2024-02-28 13:42:22.774342,1709124142.7743416,-37.109375,-38.57421875,-36.62109375,-39.0625,1.0,1.0,1.0,0.0,5.m4v,10.0
2024-02-28 13:42:22.778246,1709124142.7782462,-41.015625,-37.109375,-29.296875,-41.50390625,1.0,1.0,1.0,0.0,5.m4v,10.0
2024-02-28 13:42:22.782151,1709124142.7821507,-33.203125,-40.0390625,-30.76171875,-37.109375,1.0,1.0,1.0,0.0,5.m4v,10.0
2024-02-28 13:42:22.786068,1709124142.7860684,-33.203125,-38.0859375,-30.2734375,-33.69140625,1.0,1.0,1.0,0.0,5.m4v,10.0
2024-02-28 13:42:22.789973,1709124142.789973,-31.73828125,-36.1328125,-27.83203125,-36.1328125,1.0,1.0,1.0,0.0,5.m4v,10.0
2024-02-28 13:42:22.793878,1709124142.7938778,-25.87890625,-36.62109375,-30.2734375,-34.66796875,1.0,1.0,1.0,0.0,5.m4v,10.0
2024-02-28 13:42:22.797782,1709124142.7977824,-26.3671875,-35.15625,-26.85546875,-33.69140625,1.0,1.0,1.0,0.0,5.m4v,10.0
2024-02-28 13:42:22.801687,1709124142.801687,-23.92578125,-28.3203125,-24.90234375,-28.80859375,1.0,1.0,1.0,0.0,5.m4v,10.0
2024-02-28 13:42:22.805592,1709124142.8055916,-15.625,-26.85546875,-26.3671875,-27.34375,1.0,1.0,1.0,0.0,5.m4v,10.0
2024-02-28 13:42:22.809496,1709124142.8094962,-19.04296875,-34.1796875,-24.4140625,-31.73828125,1.0,1.0,1.0,0.0,5.m4v,10.0
2024-02-28 13:42:22.813401,1709124142.813401,-32.2265625,-37.109375,-23.92578125,-31.73828125,1.0,1.0,1.0,0.0,5.m4v,10.0
2024-02-28 13:42:22.817306,1709124142.8173056,-30.2734375,-33.203125,-23.4375,-25.87890625,1.0,1.0,1.0,0.0,5.m4v,10.0
2024-02-28 13:42:22.821210,1709124142.82121,-25.87890625,-29.296875,-19.53125,-21.484375,1.0,1.0,1.0,0.0,5.m4v,10.0
2024-02-28 13:42:22.825115,1709124142.8251147,-29.78515625,-31.25,-17.08984375,-25.87890625,1.0,1.0,1.0,0.0,5.m4v,10.0
2024-02-28 13:42:22.829020,1709124142.8290195,-36.1328125,-25.87890625,-22.94921875,-28.3203125,1.0,1.0,1.0,0.0,5.m4v,10.0
2024-02-28 13:42:22.832936,1709124142.8329363,-32.2265625,-25.87890625,-29.296875,-29.296875,1.0,1.0,1.0,0.0,5.m4v,10.0
2024-02-28 13:42:22.836841,1709124142.8368409,-21.97265625,-33.203125,-27.83203125,-27.34375,1.0,1.0,1.0,0.0,5.m4v,10.0
2024-02-28 13:42:22.840746,1709124142.8407457,-27.83203125,-28.80859375,-25.87890625,-24.90234375,1.0,1.0,1.0,0.0,5.m4v,10.0
2024-02-28 13:42:22.844650,1709124142.8446505,-34.1796875,-27.34375,-33.69140625,-34.1796875,1.0,1.0,1.0,0.0,5.m4v,10.0
2024-02-28 13:42:22.848555,1709124142.8485548,-39.0625,-30.2734375,-41.015625,-39.55078125,1.0,1.0,1.0,0.0,5.m4v,10.0
2024-02-28 13:42:22.852459,1709124142.8524594,-39.55078125,-33.69140625,-36.1328125,-30.76171875,1.0,1.0,1.0,0.0,5.m4v,10.0
2024-02-28 13:42:22.856364,1709124142.8563645,-42.96875,-34.66796875,-30.76171875,-33.203125,1.0,1.0,1.0,0.0,5.m4v,10.0
2024-02-28 13:42:22.860269,1709124142.8602688,-44.921875,-27.83203125,-28.80859375,-40.0390625,1.0,1.0,1.0,0.0,5.m4v,10.0
2024-02-28 13:42:22.864173,1709124142.8641734,-44.921875,-32.71484375,-35.15625,-42.48046875,1.0,1.0,1.0,0.0,5.m4v,10.0
2024-02-28 13:42:22.868078,1709124142.868078,-45.8984375,-32.2265625,-33.69140625,-47.36328125,1.0,1.0,1.0,0.0,5.m4v,10.0
2024-02-28 13:42:22.871983,1709124142.8719826,-37.109375,-23.92578125,-25.390625,-36.1328125,1.0,1.0,1.0,0.0,5.m4v,10.0
2024-02-28 13:42:22.875887,1709124142.8758874,-32.71484375,-23.92578125,-32.71484375,-27.34375,1.0,1.0,1.0,0.0,5.m4v,10.0
2024-02-28 13:42:22.879804,1709124142.8798037,-28.3203125,-26.3671875,-35.15625,-31.73828125,1.0,1.0,1.0,0.0,5.m4v,10.0
2024-02-28 13:42:22.883708,1709124142.8837082,-26.3671875,-27.83203125,-32.2265625,-38.0859375,1.0,1.0,1.0,0.0,5.m4v,10.0
2024-02-28 13:42:22.887613,1709124142.887613,-30.2734375,-25.87890625,-33.69140625,-38.0859375,1.0,1.0,1.0,0.0,5.m4v,10.0
2024-02-28 13:42:22.891518,1709124142.8915176,-31.25,-30.2734375,-36.62109375,-32.2265625,1.0,1.0,1.0,0.0,5.m4v,10.0
2024-02-28 13:42:22.895422,1709124142.8954222,-35.64453125,-31.25,-38.0859375,-34.66796875,1.0,1.0,1.0,0.0,5.m4v,10.0
2024-02-28 13:42:22.899327,1709124142.8993268,-36.62109375,-30.76171875,-33.203125,-31.25,1.0,1.0,1.0,0.0,5.m4v,10.0
2024-02-28 13:42:22.903231,1709124142.9032314,-26.85546875,-36.1328125,-32.2265625,-26.3671875,1.0,1.0,1.0,0.0,5.m4v,10.0
2024-02-28 13:42:22.907136,1709124142.9071362,-24.4140625,-33.69140625,-34.66796875,-27.34375,1.0,1.0,1.0,0.0,5.m4v,10.0
2024-02-28 13:42:22.911041,1709124142.9110408,-34.1796875,-36.1328125,-33.203125,-31.25,1.0,1.0,1.0,0.0,5.m4v,10.0
2024-02-28 13:42:22.914945,1709124142.9149454,-34.1796875,-40.52734375,-32.71484375,-30.2734375,1.0,1.0,1.0,0.0,5.m4v,10.0
2024-02-28 13:42:22.918850,1709124142.91885,-34.66796875,-34.66796875,-35.15625,-30.76171875,1.0,1.0,1.0,0.0,5.m4v,10.0
2024-02-28 13:42:22.922755,1709124142.9227548,-38.57421875,-36.1328125,-36.1328125,-36.62109375,1.0,1.0,1.0,0.0,5.m4v,10.0
2024-02-28 13:42:22.926671,1709124142.9266708,-33.203125,-42.48046875,-33.203125,-30.2734375,1.0,1.0,1.0,0.0,5.m4v,10.0
2024-02-28 13:42:22.930575,1709124142.9305754,-37.59765625,-39.55078125,-31.73828125,-27.34375,1.0,1.0,1.0,0.0,5.m4v,10.0
2024-02-28 13:42:22.934480,1709124142.9344802,-42.96875,-39.0625,-32.71484375,-26.85546875,1.0,1.0,1.0,0.0,5.m4v,10.0
2024-02-28 13:42:22.938385,1709124142.9383848,-32.2265625,-38.57421875,-32.71484375,-21.484375,1.0,1.0,1.0,0.0,5.m4v,10.0
2024-02-28 13:42:22.942289,1709124142.9422894,-18.06640625,-34.1796875,-35.15625,-10.7421875,1.0,1.0,1.0,0.0,5.m4v,10.0
2024-02-28 13:42:22.946194,1709124142.946194,-28.3203125,-27.34375,-42.96875,-21.484375,1.0,1.0,1.0,0.0,5.m4v,10.0
