Timestamp,Timestamp_UNIX,TP9,AF7,AF8,TP10,Valence,Arousal,Dominace,Viewed,Video,Participant
2024-02-28 13:46:55.002136,1709124415.002136,18.5546875,-33.203125,-36.1328125,-2.9296875,0.0,1.0,-1.0,0.0,6.m4v,10.0
2024-02-28 13:46:55.006041,1709124415.006041,13.671875,-38.0859375,-38.57421875,-4.8828125,0.0,1.0,-1.0,0.0,6.m4v,10.0
2024-02-28 13:46:55.009946,1709124415.009946,8.30078125,-35.64453125,-31.25,7.32421875,0.0,1.0,-1.0,0.0,6.m4v,10.0
2024-02-28 13:46:55.013851,1709124415.0138512,6.8359375,-33.203125,-31.73828125,4.39453125,0.0,1.0,-1.0,0.0,6.m4v,10.0
2024-02-28 13:46:55.017756,1709124415.0177562,-0.48828125,-35.15625,-37.59765625,-2.9296875,0.0,1.0,-1.0,0.0,6.m4v,10.0
2024-02-28 13:46:55.021661,1709124415.0216613,-7.8125,-39.55078125,-33.69140625,-5.859375,0.0,1.0,-1.0,0.0,6.m4v,10.0
2024-02-28 13:46:55.025566,1709124415.0255663,-8.7890625,-36.1328125,-32.2265625,-3.41796875,0.0,1.0,-1.0,0.0,6.m4v,10.0
2024-02-28 13:46:55.029471,1709124415.0294714,0.0,-31.25,-28.3203125,-3.41796875,0.0,1.0,-1.0,0.0,6.m4v,10.0
2024-02-28 13:46:55.033376,1709124415.0333765,4.39453125,-34.66796875,-29.78515625,-16.11328125,0.0,1.0,-1.0,0.0,6.m4v,10.0
2024-02-28 13:46:55.037281,1709124415.0372813,-5.37109375,-37.59765625,-34.1796875,-20.01953125,0.0,1.0,-1.0,0.0,6.m4v,10.0
2024-02-28 13:46:55.041186,1709124415.0411863,-9.765625,-38.57421875,-31.73828125,-15.625,0.0,1.0,-1.0,0.0,6.m4v,10.0
2024-02-28 13:46:55.045091,1709124415.0450914,-10.25390625,-32.71484375,-29.296875,-14.16015625,0.0,1.0,-1.0,0.0,6.m4v,10.0
2024-02-28 13:46:55.049007,1709124415.0490067,-13.18359375,-28.3203125,-27.83203125,-16.6015625,0.0,1.0,-1.0,0.0,6.m4v,10.0
2024-02-28 13:46:55.498183,1709124415.498183,-23.92578125,-34.1796875,-27.83203125,-26.3671875,0.0,1.0,-1.0,0.0,6.m4v,10.0
2024-02-28 13:46:55.502088,1709124415.502088,-27.34375,-40.52734375,-32.2265625,-32.71484375,0.0,1.0,-1.0,0.0,6.m4v,10.0
2024-02-28 13:46:55.505993,1709124415.5059931,-39.0625,-41.015625,-36.62109375,-41.50390625,0.0,1.0,-1.0,0.0,6.m4v,10.0
2024-02-28 13:46:55.509898,1709124415.5098982,-37.59765625,-35.15625,-31.73828125,-45.41015625,0.0,1.0,-1.0,0.0,6.m4v,10.0
2024-02-28 13:46:55.513803,1709124415.5138032,-39.0625,-40.0390625,-32.71484375,-41.9921875,0.0,1.0,-1.0,0.0,6.m4v,10.0
2024-02-28 13:46:55.517718,1709124415.5177178,-45.8984375,-43.45703125,-33.69140625,-37.59765625,0.0,1.0,-1.0,0.0,6.m4v,10.0
2024-02-28 13:46:55.521623,1709124415.521623,-50.78125,-46.875,-37.109375,-46.875,0.0,1.0,-1.0,0.0,6.m4v,10.0
2024-02-28 13:46:55.525528,1709124415.525528,-59.08203125,-47.36328125,-42.48046875,-47.8515625,0.0,1.0,-1.0,0.0,6.m4v,10.0
2024-02-28 13:46:55.529433,1709124415.529433,-52.24609375,-38.57421875,-37.109375,-47.8515625,0.0,1.0,-1.0,0.0,6.m4v,10.0
2024-02-28 13:46:55.533338,1709124415.533338,-45.41015625,-33.69140625,-32.2265625,-41.9921875,0.0,1.0,-1.0,0.0,6.m4v,10.0
2024-02-28 13:46:55.537243,1709124415.5372431,-46.875,-41.015625,-32.71484375,-36.1328125,0.0,1.0,-1.0,0.0,6.m4v,10.0
2024-02-28 13:46:55.541148,1709124415.5411482,-41.015625,-41.015625,-30.76171875,-32.71484375,0.0,1.0,-1.0,0.0,6.m4v,10.0
2024-02-28 13:46:55.545053,1709124415.5450532,-41.9921875,-37.59765625,-35.64453125,-47.8515625,0.0,1.0,-1.0,0.0,6.m4v,10.0
2024-02-28 13:46:55.548958,1709124415.5489583,-37.109375,-38.0859375,-40.0390625,-59.08203125,0.0,1.0,-1.0,0.0,6.m4v,10.0
2024-02-28 13:46:55.552863,1709124415.5528631,-28.80859375,-34.1796875,-41.015625,-52.734375,0.0,1.0,-1.0,0.0,6.m4v,10.0
2024-02-28 13:46:55.556768,1709124415.5567682,-24.4140625,-34.1796875,-41.9921875,-50.78125,0.0,1.0,-1.0,0.0,6.m4v,10.0
2024-02-28 13:46:55.560673,1709124415.5606732,-22.4609375,-32.2265625,-37.109375,-46.875,0.0,1.0,-1.0,0.0,6.m4v,10.0
2024-02-28 13:46:55.564590,1709124415.56459,-24.90234375,-29.296875,-33.203125,-39.0625,0.0,1.0,-1.0,0.0,6.m4v,10.0
2024-02-28 13:46:55.568495,1709124415.568495,-21.484375,-37.109375,-31.73828125,-35.64453125,0.0,1.0,-1.0,0.0,6.m4v,10.0
2024-02-28 13:46:55.572400,1709124415.5724,-16.11328125,-43.9453125,-33.203125,-35.64453125,0.0,1.0,-1.0,0.0,6.m4v,10.0
2024-02-28 13:46:55.576305,1709124415.5763052,-20.99609375,-40.0390625,-40.0390625,-24.4140625,0.0,1.0,-1.0,0.0,6.m4v,10.0
2024-02-28 13:46:55.580210,1709124415.5802102,-25.87890625,-35.64453125,-42.96875,-32.71484375,0.0,1.0,-1.0,0.0,6.m4v,10.0
2024-02-28 13:46:55.584115,1709124415.5841153,-27.83203125,-38.0859375,-39.0625,-39.0625,0.0,1.0,-1.0,0.0,6.m4v,10.0
2024-02-28 13:46:55.588020,1709124415.5880203,-26.3671875,-39.0625,-38.57421875,-32.2265625,0.0,1.0,-1.0,0.0,6.m4v,10.0
2024-02-28 13:46:55.591925,1709124415.5919251,-20.5078125,-35.15625,-37.59765625,-32.71484375,0.0,1.0,-1.0,0.0,6.m4v,10.0
2024-02-28 13:46:55.595830,1709124415.5958302,-29.296875,-32.2265625,-34.1796875,-34.66796875,0.0,1.0,-1.0,0.0,6.m4v,10.0
2024-02-28 13:46:55.599735,1709124415.5997353,-34.66796875,-31.25,-33.69140625,-34.1796875,0.0,1.0,-1.0,0.0,6.m4v,10.0
2024-02-28 13:46:55.603640,1709124415.6036403,-30.2734375,-33.69140625,-40.0390625,-20.01953125,0.0,1.0,-1.0,0.0,6.m4v,10.0
2024-02-28 13:46:55.607545,1709124415.6075454,-31.25,-41.50390625,-42.48046875,-35.15625,0.0,1.0,-1.0,0.0,6.m4v,10.0
2024-02-28 13:46:55.611462,1709124415.6114616,-28.80859375,-40.0390625,-33.69140625,-55.6640625,0.0,1.0,-1.0,0.0,6.m4v,10.0
2024-02-28 13:46:55.615367,1709124415.6153667,-23.92578125,-35.64453125,-30.76171875,-30.2734375,0.0,1.0,-1.0,0.0,6.m4v,10.0
2024-02-28 13:46:55.619272,1709124415.6192718,-27.83203125,-41.9921875,-38.57421875,-24.90234375,0.0,1.0,-1.0,0.0,6.m4v,10.0
2024-02-28 13:46:55.623177,1709124415.6231768,-31.25,-36.1328125,-39.55078125,-36.1328125,0.0,1.0,-1.0,0.0,6.m4v,10.0
2024-02-28 13:46:55.627082,1709124415.627082,-25.87890625,-31.25,-29.296875,-35.64453125,0.0,1.0,-1.0,0.0,6.m4v,10.0
2024-02-28 13:46:55.630987,1709124415.630987,-24.4140625,-38.0859375,-32.71484375,-40.52734375,0.0,1.0,-1.0,0.0,6.m4v,10.0
2024-02-28 13:46:55.634892,1709124415.634892,-16.11328125,-34.1796875,-35.64453125,-29.296875,0.0,1.0,-1.0,0.0,6.m4v,10.0
2024-02-28 13:46:55.638797,1709124415.638797,-26.85546875,-20.5078125,-36.1328125,-35.15625,0.0,1.0,-1.0,0.0,6.m4v,10.0
2024-02-28 13:46:55.642702,1709124415.642702,-41.015625,-25.87890625,-37.59765625,-50.29296875,0.0,1.0,-1.0,0.0,6.m4v,10.0
2024-02-28 13:46:55.646607,1709124415.6466072,-31.73828125,-35.15625,-33.69140625,-41.9921875,0.0,1.0,-1.0,0.0,6.m4v,10.0
2024-02-28 13:46:55.650512,1709124415.650512,-32.71484375,-35.64453125,-28.80859375,-34.66796875,0.0,1.0,-1.0,0.0,6.m4v,10.0
2024-02-28 13:46:55.654417,1709124415.654417,-30.76171875,-32.71484375,-27.34375,-38.0859375,0.0,1.0,-1.0,0.0,6.m4v,10.0
2024-02-28 13:46:55.658333,1709124415.658333,-24.4140625,-31.73828125,-31.73828125,-48.828125,0.0,1.0,-1.0,0.0,6.m4v,10.0
2024-02-28 13:46:55.662238,1709124415.662238,-30.2734375,-39.0625,-35.64453125,-46.38671875,0.0,1.0,-1.0,0.0,6.m4v,10.0
2024-02-28 13:46:55.666143,1709124415.6661432,-36.62109375,-44.43359375,-30.76171875,-41.015625,0.0,1.0,-1.0,0.0,6.m4v,10.0
2024-02-28 13:46:55.670048,1709124415.6700482,-29.78515625,-35.15625,-33.203125,-33.203125,0.0,1.0,-1.0,0.0,6.m4v,10.0
2024-02-28 13:46:55.673953,1709124415.6739533,-29.78515625,-26.3671875,-32.2265625,-29.296875,0.0,1.0,-1.0,0.0,6.m4v,10.0
2024-02-28 13:46:55.677858,1709124415.6778584,-27.34375,-28.80859375,-25.390625,-31.73828125,0.0,1.0,-1.0,0.0,6.m4v,10.0
2024-02-28 13:46:55.681763,1709124415.6817634,-29.78515625,-27.83203125,-31.73828125,-44.921875,0.0,1.0,-1.0,0.0,6.m4v,10.0
2024-02-28 13:46:55.685668,1709124415.6856685,-33.69140625,-24.90234375,-35.15625,-46.38671875,0.0,1.0,-1.0,0.0,6.m4v,10.0
2024-02-28 13:46:55.689573,1709124415.6895733,-32.71484375,-31.73828125,-36.62109375,-40.52734375,0.0,1.0,-1.0,0.0,6.m4v,10.0
2024-02-28 13:46:55.693478,1709124415.6934783,-30.76171875,-29.78515625,-39.55078125,-49.31640625,0.0,1.0,-1.0,0.0,6.m4v,10.0
2024-02-28 13:46:55.697383,1709124415.6973834,-24.4140625,-24.4140625,-36.62109375,-36.1328125,0.0,1.0,-1.0,0.0,6.m4v,10.0
2024-02-28 13:46:55.701288,1709124415.7012885,-23.4375,-29.78515625,-33.203125,-28.3203125,0.0,1.0,-1.0,0.0,6.m4v,10.0
2024-02-28 13:46:55.705204,1709124415.7052045,-35.15625,-37.109375,-31.25,-40.0390625,0.0,1.0,-1.0,0.0,6.m4v,10.0
2024-02-28 13:46:55.709109,1709124415.7091093,-37.59765625,-38.57421875,-30.2734375,-42.48046875,0.0,1.0,-1.0,0.0,6.m4v,10.0
2024-02-28 13:46:55.713014,1709124415.7130144,-26.85546875,-35.15625,-30.76171875,-36.62109375,0.0,1.0,-1.0,0.0,6.m4v,10.0
2024-02-28 13:46:55.716919,1709124415.7169194,-27.34375,-36.62109375,-36.62109375,-37.59765625,0.0,1.0,-1.0,0.0,6.m4v,10.0
2024-02-28 13:46:55.720824,1709124415.7208245,-39.0625,-37.59765625,-36.1328125,-36.62109375,0.0,1.0,-1.0,0.0,6.m4v,10.0
2024-02-28 13:46:55.724730,1709124415.7247295,-31.73828125,-32.71484375,-33.203125,-27.34375,0.0,1.0,-1.0,0.0,6.m4v,10.0
2024-02-28 13:46:55.728635,1709124415.7286346,-32.71484375,-37.59765625,-31.25,-17.578125,0.0,1.0,-1.0,0.0,6.m4v,10.0
2024-02-28 13:46:55.732540,1709124415.7325397,-39.55078125,-36.1328125,-31.73828125,-17.08984375,0.0,1.0,-1.0,0.0,6.m4v,10.0
2024-02-28 13:46:55.736445,1709124415.7364447,-41.50390625,-30.2734375,-37.59765625,-26.3671875,0.0,1.0,-1.0,0.0,6.m4v,10.0
2024-02-28 13:46:55.740350,1709124415.7403498,-49.31640625,-31.25,-38.57421875,-29.296875,0.0,1.0,-1.0,0.0,6.m4v,10.0
2024-02-28 13:46:55.744255,1709124415.7442546,-45.41015625,-35.64453125,-28.3203125,-23.92578125,0.0,1.0,-1.0,0.0,6.m4v,10.0
2024-02-28 13:46:55.748160,1709124415.7481596,-35.15625,-33.203125,-26.3671875,-20.5078125,0.0,1.0,-1.0,0.0,6.m4v,10.0
2024-02-28 13:46:55.752075,1709124415.7520754,-24.4140625,-27.83203125,-30.2734375,-21.484375,0.0,1.0,-1.0,0.0,6.m4v,10.0
2024-02-28 13:46:55.755980,1709124415.7559805,-20.01953125,-31.25,-35.15625,-33.203125,0.0,1.0,-1.0,0.0,6.m4v,10.0
2024-02-28 13:46:55.759886,1709124415.7598855,-39.0625,-33.69140625,-37.109375,-39.0625,0.0,1.0,-1.0,0.0,6.m4v,10.0
2024-02-28 13:46:55.763791,1709124415.7637906,-46.875,-31.25,-35.15625,-44.43359375,0.0,1.0,-1.0,0.0,6.m4v,10.0
2024-02-28 13:46:55.767696,1709124415.7676957,-36.62109375,-29.296875,-28.80859375,-38.57421875,0.0,1.0,-1.0,0.0,6.m4v,10.0
2024-02-28 13:46:55.771601,1709124415.7716007,-41.015625,-31.73828125,-28.3203125,-26.85546875,0.0,1.0,-1.0,0.0,6.m4v,10.0
2024-02-28 13:46:56.084078,1709124416.0840776,24.4140625,-27.83203125,-38.0859375,27.83203125,0.0,1.0,-1.0,0.0,6.m4v,10.0
2024-02-28 13:46:56.087983,1709124416.087983,26.3671875,-29.78515625,-36.62109375,25.87890625,0.0,1.0,-1.0,0.0,6.m4v,10.0
2024-02-28 13:46:56.091887,1709124416.0918877,32.71484375,-27.34375,-35.15625,18.06640625,0.0,1.0,-1.0,0.0,6.m4v,10.0
2024-02-28 13:46:56.095793,1709124416.0957923,33.69140625,-30.2734375,-28.80859375,23.92578125,0.0,1.0,-1.0,0.0,6.m4v,10.0
2024-02-28 13:46:56.099698,1709124416.0996976,31.25,-28.80859375,-21.97265625,40.52734375,0.0,1.0,-1.0,0.0,6.m4v,10.0
2024-02-28 13:46:56.103603,1709124416.1036026,29.78515625,-28.3203125,-21.484375,44.921875,0.0,1.0,-1.0,0.0,6.m4v,10.0
2024-02-28 13:46:56.107508,1709124416.1075077,27.34375,-37.109375,-26.85546875,38.0859375,0.0,1.0,-1.0,0.0,6.m4v,10.0
2024-02-28 13:46:56.111413,1709124416.1114128,26.85546875,-43.45703125,-31.25,33.203125,0.0,1.0,-1.0,0.0,6.m4v,10.0
2024-02-28 13:46:56.115318,1709124416.1153178,25.390625,-38.0859375,-35.64453125,19.04296875,0.0,1.0,-1.0,0.0,6.m4v,10.0
2024-02-28 13:46:56.119223,1709124416.1192229,17.08984375,-37.59765625,-39.0625,4.8828125,0.0,1.0,-1.0,0.0,6.m4v,10.0
2024-02-28 13:46:56.123128,1709124416.123128,19.53125,-38.0859375,-34.1796875,10.25390625,0.0,1.0,-1.0,0.0,6.m4v,10.0
2024-02-28 13:46:56.127043,1709124416.1270435,20.99609375,-39.0625,-30.2734375,20.01953125,0.0,1.0,-1.0,0.0,6.m4v,10.0
2024-02-28 13:46:56.130949,1709124416.1309483,10.7421875,-41.015625,-37.59765625,7.32421875,0.0,1.0,-1.0,0.0,6.m4v,10.0
2024-02-28 13:46:56.134854,1709124416.1348536,11.71875,-39.0625,-35.15625,2.9296875,0.0,1.0,-1.0,0.0,6.m4v,10.0
2024-02-28 13:46:56.138758,1709124416.1387584,18.06640625,-35.15625,-26.85546875,7.8125,0.0,1.0,-1.0,0.0,6.m4v,10.0
2024-02-28 13:46:56.142663,1709124416.1426637,21.484375,-32.2265625,-27.34375,10.7421875,0.0,1.0,-1.0,0.0,6.m4v,10.0
2024-02-28 13:46:56.146569,1709124416.1465683,20.01953125,-34.1796875,-32.71484375,9.27734375,0.0,1.0,-1.0,0.0,6.m4v,10.0
2024-02-28 13:46:56.150474,1709124416.1504736,10.7421875,-38.57421875,-37.59765625,0.0,0.0,1.0,-1.0,0.0,6.m4v,10.0
2024-02-28 13:46:56.154379,1709124416.154379,8.30078125,-45.41015625,-35.64453125,8.7890625,0.0,1.0,-1.0,0.0,6.m4v,10.0
2024-02-28 13:46:56.158284,1709124416.1582837,7.32421875,-42.48046875,-37.109375,12.6953125,0.0,1.0,-1.0,0.0,6.m4v,10.0
2024-02-28 13:46:56.162189,1709124416.1621888,0.0,-30.2734375,-33.203125,7.32421875,0.0,1.0,-1.0,0.0,6.m4v,10.0
2024-02-28 13:46:56.166094,1709124416.1660938,-4.39453125,-26.85546875,-28.80859375,4.8828125,0.0,1.0,-1.0,0.0,6.m4v,10.0
2024-02-28 13:46:56.169999,1709124416.169999,-6.34765625,-36.1328125,-28.3203125,-6.34765625,0.0,1.0,-1.0,0.0,6.m4v,10.0
2024-02-28 13:46:56.173914,1709124416.1739142,-8.7890625,-50.29296875,-29.78515625,-15.13671875,0.0,1.0,-1.0,0.0,6.m4v,10.0
2024-02-28 13:46:56.177819,1709124416.1778193,-16.6015625,-43.9453125,-34.66796875,-20.01953125,0.0,1.0,-1.0,0.0,6.m4v,10.0
2024-02-28 13:46:56.181724,1709124416.1817243,-23.4375,-36.62109375,-36.62109375,-27.34375,0.0,1.0,-1.0,0.0,6.m4v,10.0
2024-02-28 13:46:56.185629,1709124416.1856294,-36.1328125,-49.8046875,-46.38671875,-38.57421875,0.0,1.0,-1.0,0.0,6.m4v,10.0
2024-02-28 13:46:56.189534,1709124416.1895344,-31.25,-50.29296875,-45.41015625,-25.87890625,0.0,1.0,-1.0,0.0,6.m4v,10.0
2024-02-28 13:46:56.193439,1709124416.1934392,-17.08984375,-30.76171875,-33.203125,-16.11328125,0.0,1.0,-1.0,0.0,6.m4v,10.0
2024-02-28 13:46:56.193439,1709124416.1934392,-17.08984375,-30.76171875,-33.203125,-16.11328125,0.0,1.0,-1.0,0.0,6.m4v,10.0
2024-02-28 13:46:56.197344,1709124416.1973443,-11.71875,-28.3203125,-33.69140625,-11.71875,0.0,1.0,-1.0,0.0,6.m4v,10.0
2024-02-28 13:46:56.197344,1709124416.1973443,-11.71875,-28.3203125,-33.69140625,-11.71875,0.0,1.0,-1.0,0.0,6.m4v,10.0
2024-02-28 13:46:56.201249,1709124416.2012494,-8.30078125,-31.25,-39.55078125,-3.90625,0.0,1.0,-1.0,0.0,6.m4v,10.0
2024-02-28 13:46:56.201249,1709124416.2012494,-8.30078125,-31.25,-39.55078125,-3.90625,0.0,1.0,-1.0,0.0,6.m4v,10.0
2024-02-28 13:46:56.205154,1709124416.2051544,-7.8125,-32.2265625,-41.015625,-6.8359375,0.0,1.0,-1.0,0.0,6.m4v,10.0
2024-02-28 13:46:56.205154,1709124416.2051544,-7.8125,-32.2265625,-41.015625,-6.8359375,0.0,1.0,-1.0,0.0,6.m4v,10.0
2024-02-28 13:46:56.209059,1709124416.2090597,-12.6953125,-34.66796875,-40.52734375,-11.71875,0.0,1.0,-1.0,0.0,6.m4v,10.0
2024-02-28 13:46:56.209059,1709124416.2090597,-12.6953125,-34.66796875,-40.52734375,-11.71875,0.0,1.0,-1.0,0.0,6.m4v,10.0
2024-02-28 13:46:56.212965,1709124416.2129643,-17.08984375,-37.59765625,-38.0859375,-15.13671875,0.0,1.0,-1.0,0.0,6.m4v,10.0
2024-02-28 13:46:56.212965,1709124416.2129643,-17.08984375,-37.59765625,-38.0859375,-15.13671875,0.0,1.0,-1.0,0.0,6.m4v,10.0
2024-02-28 13:46:56.216870,1709124416.2168696,-22.94921875,-37.59765625,-36.62109375,-21.97265625,0.0,1.0,-1.0,0.0,6.m4v,10.0
2024-02-28 13:46:56.216870,1709124416.2168696,-22.94921875,-37.59765625,-36.62109375,-21.97265625,0.0,1.0,-1.0,0.0,6.m4v,10.0
2024-02-28 13:46:56.220784,1709124416.2207842,-21.97265625,-29.78515625,-32.71484375,-23.92578125,0.0,1.0,-1.0,0.0,6.m4v,10.0
2024-02-28 13:46:56.220784,1709124416.2207842,-21.97265625,-29.78515625,-32.71484375,-23.92578125,0.0,1.0,-1.0,0.0,6.m4v,10.0
2024-02-28 13:46:56.224689,1709124416.2246892,-24.4140625,-29.78515625,-33.69140625,-26.3671875,0.0,1.0,-1.0,0.0,6.m4v,10.0
2024-02-28 13:46:56.224689,1709124416.2246892,-24.4140625,-29.78515625,-33.69140625,-26.3671875,0.0,1.0,-1.0,0.0,6.m4v,10.0
2024-02-28 13:46:56.228594,1709124416.2285943,-25.87890625,-23.92578125,-37.109375,-26.3671875,0.0,1.0,-1.0,0.0,6.m4v,10.0
2024-02-28 13:46:56.228594,1709124416.2285943,-25.87890625,-23.92578125,-37.109375,-26.3671875,0.0,1.0,-1.0,0.0,6.m4v,10.0
2024-02-28 13:46:56.232499,1709124416.2324994,-26.3671875,-30.76171875,-34.66796875,-25.87890625,0.0,1.0,-1.0,0.0,6.m4v,10.0
2024-02-28 13:46:56.232499,1709124416.2324994,-26.3671875,-30.76171875,-34.66796875,-25.87890625,0.0,1.0,-1.0,0.0,6.m4v,10.0
2024-02-28 13:46:56.236404,1709124416.2364044,-25.390625,-47.8515625,-37.59765625,-25.87890625,0.0,1.0,-1.0,0.0,6.m4v,10.0
2024-02-28 13:46:56.236404,1709124416.2364044,-25.390625,-47.8515625,-37.59765625,-25.87890625,0.0,1.0,-1.0,0.0,6.m4v,10.0
2024-02-28 13:46:56.240309,1709124416.2403097,-18.06640625,-41.50390625,-36.1328125,-22.94921875,0.0,1.0,-1.0,0.0,6.m4v,10.0
2024-02-28 13:46:56.240309,1709124416.2403097,-18.06640625,-41.50390625,-36.1328125,-22.94921875,0.0,1.0,-1.0,0.0,6.m4v,10.0
2024-02-28 13:46:56.244215,1709124416.2442143,-29.78515625,-40.0390625,-36.62109375,-26.85546875,0.0,1.0,-1.0,0.0,6.m4v,10.0
2024-02-28 13:46:56.244215,1709124416.2442143,-29.78515625,-40.0390625,-36.62109375,-26.85546875,0.0,1.0,-1.0,0.0,6.m4v,10.0
2024-02-28 13:46:56.248119,1709124416.2481194,-35.15625,-42.48046875,-45.8984375,-35.15625,0.0,1.0,-1.0,0.0,6.m4v,10.0
2024-02-28 13:46:56.248119,1709124416.2481194,-35.15625,-42.48046875,-45.8984375,-35.15625,0.0,1.0,-1.0,0.0,6.m4v,10.0
2024-02-28 13:46:56.252024,1709124416.2520244,-30.76171875,-37.59765625,-44.921875,-28.3203125,0.0,1.0,-1.0,0.0,6.m4v,10.0
2024-02-28 13:46:56.252024,1709124416.2520244,-30.76171875,-37.59765625,-44.921875,-28.3203125,0.0,1.0,-1.0,0.0,6.m4v,10.0
2024-02-28 13:46:56.255929,1709124416.2559297,-21.97265625,-32.2265625,-40.0390625,-6.8359375,0.0,1.0,-1.0,0.0,6.m4v,10.0
2024-02-28 13:46:56.255929,1709124416.2559297,-21.97265625,-32.2265625,-40.0390625,-6.8359375,0.0,1.0,-1.0,0.0,6.m4v,10.0
2024-02-28 13:46:56.259835,1709124416.2598343,-17.08984375,-31.25,-37.59765625,-3.90625,0.0,1.0,-1.0,0.0,6.m4v,10.0
2024-02-28 13:46:56.259835,1709124416.2598343,-17.08984375,-31.25,-37.59765625,-3.90625,0.0,1.0,-1.0,0.0,6.m4v,10.0
2024-02-28 13:46:56.263740,1709124416.2637396,-19.04296875,-40.0390625,-35.64453125,-9.27734375,0.0,1.0,-1.0,0.0,6.m4v,10.0
2024-02-28 13:46:56.263740,1709124416.2637396,-19.04296875,-40.0390625,-35.64453125,-9.27734375,0.0,1.0,-1.0,0.0,6.m4v,10.0
2024-02-28 13:46:56.267654,1709124416.267654,-6.34765625,-38.0859375,-36.1328125,-8.30078125,0.0,1.0,-1.0,0.0,6.m4v,10.0
2024-02-28 13:46:56.267654,1709124416.267654,-6.34765625,-38.0859375,-36.1328125,-8.30078125,0.0,1.0,-1.0,0.0,6.m4v,10.0
2024-02-28 13:46:56.271559,1709124416.271559,-7.32421875,-36.1328125,-38.0859375,-17.08984375,0.0,1.0,-1.0,0.0,6.m4v,10.0
2024-02-28 13:46:56.271559,1709124416.271559,-7.32421875,-36.1328125,-38.0859375,-17.08984375,0.0,1.0,-1.0,0.0,6.m4v,10.0
2024-02-28 13:46:56.275464,1709124416.2754638,-24.4140625,-41.015625,-37.109375,-28.80859375,0.0,1.0,-1.0,0.0,6.m4v,10.0
2024-02-28 13:46:56.275464,1709124416.2754638,-24.4140625,-41.015625,-37.109375,-28.80859375,0.0,1.0,-1.0,0.0,6.m4v,10.0
2024-02-28 13:46:56.279369,1709124416.2793689,-27.34375,-40.0390625,-37.59765625,-37.59765625,0.0,1.0,-1.0,0.0,6.m4v,10.0
2024-02-28 13:46:56.279369,1709124416.2793689,-27.34375,-40.0390625,-37.59765625,-37.59765625,0.0,1.0,-1.0,0.0,6.m4v,10.0
2024-02-28 13:46:56.283274,1709124416.283274,-23.4375,-35.64453125,-42.48046875,-41.9921875,0.0,1.0,-1.0,0.0,6.m4v,10.0
2024-02-28 13:46:56.283274,1709124416.283274,-23.4375,-35.64453125,-42.48046875,-41.9921875,0.0,1.0,-1.0,0.0,6.m4v,10.0
2024-02-28 13:46:56.287179,1709124416.287179,-23.92578125,-28.80859375,-34.66796875,-34.1796875,0.0,1.0,-1.0,0.0,6.m4v,10.0
2024-02-28 13:46:56.287179,1709124416.287179,-23.92578125,-28.80859375,-34.66796875,-34.1796875,0.0,1.0,-1.0,0.0,6.m4v,10.0
2024-02-28 13:46:56.291084,1709124416.291084,-26.85546875,-32.2265625,-34.1796875,-32.71484375,0.0,1.0,-1.0,0.0,6.m4v,10.0
2024-02-28 13:46:56.291084,1709124416.291084,-26.85546875,-32.2265625,-34.1796875,-32.71484375,0.0,1.0,-1.0,0.0,6.m4v,10.0
2024-02-28 13:46:56.294989,1709124416.294989,-33.203125,-32.2265625,-35.15625,-30.2734375,0.0,1.0,-1.0,0.0,6.m4v,10.0
2024-02-28 13:46:56.294989,1709124416.294989,-33.203125,-32.2265625,-35.15625,-30.2734375,0.0,1.0,-1.0,0.0,6.m4v,10.0
2024-02-28 13:46:56.298894,1709124416.2988942,-39.0625,-26.3671875,-35.64453125,-26.85546875,0.0,1.0,-1.0,0.0,6.m4v,10.0
2024-02-28 13:46:56.298894,1709124416.2988942,-39.0625,-26.3671875,-35.64453125,-26.85546875,0.0,1.0,-1.0,0.0,6.m4v,10.0
2024-02-28 13:46:56.302799,1709124416.3027992,-33.203125,-37.109375,-34.66796875,-23.92578125,0.0,1.0,-1.0,0.0,6.m4v,10.0
2024-02-28 13:46:56.302799,1709124416.3027992,-33.203125,-37.109375,-34.66796875,-23.92578125,0.0,1.0,-1.0,0.0,6.m4v,10.0
2024-02-28 13:46:56.306704,1709124416.3067043,-27.34375,-39.55078125,-29.296875,-21.97265625,0.0,1.0,-1.0,0.0,6.m4v,10.0
2024-02-28 13:46:56.306704,1709124416.3067043,-27.34375,-39.55078125,-29.296875,-21.97265625,0.0,1.0,-1.0,0.0,6.m4v,10.0
2024-02-28 13:46:56.310609,1709124416.310609,-35.15625,-32.71484375,-29.78515625,-33.203125,0.0,1.0,-1.0,0.0,6.m4v,10.0
2024-02-28 13:46:56.310609,1709124416.310609,-35.15625,-32.71484375,-29.78515625,-33.203125,0.0,1.0,-1.0,0.0,6.m4v,10.0
2024-02-28 13:46:56.314523,1709124416.3145237,-32.71484375,-32.2265625,-31.25,-40.0390625,0.0,1.0,-1.0,0.0,6.m4v,10.0
2024-02-28 13:46:56.314523,1709124416.3145237,-32.71484375,-32.2265625,-31.25,-40.0390625,0.0,1.0,-1.0,0.0,6.m4v,10.0
2024-02-28 13:46:56.318428,1709124416.3184285,-27.34375,-33.69140625,-30.76171875,-33.69140625,0.0,1.0,-1.0,0.0,6.m4v,10.0
2024-02-28 13:46:56.318428,1709124416.3184285,-27.34375,-33.69140625,-30.76171875,-33.69140625,0.0,1.0,-1.0,0.0,6.m4v,10.0
2024-02-28 13:46:56.322333,1709124416.322333,-32.71484375,-33.203125,-31.73828125,-27.34375,0.0,1.0,-1.0,0.0,6.m4v,10.0
2024-02-28 13:46:56.322333,1709124416.322333,-32.71484375,-33.203125,-31.73828125,-27.34375,0.0,1.0,-1.0,0.0,6.m4v,10.0
2024-02-28 13:46:56.326238,1709124416.3262384,-33.69140625,-29.78515625,-29.78515625,-30.2734375,0.0,1.0,-1.0,0.0,6.m4v,10.0
2024-02-28 13:46:56.326238,1709124416.3262384,-33.69140625,-29.78515625,-29.78515625,-30.2734375,0.0,1.0,-1.0,0.0,6.m4v,10.0
2024-02-28 13:46:56.330143,1709124416.3301437,-35.15625,-29.296875,-29.78515625,-28.3203125,0.0,1.0,-1.0,0.0,6.m4v,10.0
2024-02-28 13:46:56.330143,1709124416.3301437,-35.15625,-29.296875,-29.78515625,-28.3203125,0.0,1.0,-1.0,0.0,6.m4v,10.0
2024-02-28 13:46:56.334049,1709124416.3340485,-31.25,-32.2265625,-33.69140625,-27.83203125,0.0,1.0,-1.0,0.0,6.m4v,10.0
2024-02-28 13:46:56.334049,1709124416.3340485,-31.25,-32.2265625,-33.69140625,-27.83203125,0.0,1.0,-1.0,0.0,6.m4v,10.0
2024-02-28 13:46:56.337954,1709124416.3379536,-24.90234375,-28.80859375,-25.87890625,-47.36328125,0.0,1.0,-1.0,0.0,6.m4v,10.0
2024-02-28 13:46:56.337954,1709124416.3379536,-24.90234375,-28.80859375,-25.87890625,-47.36328125,0.0,1.0,-1.0,0.0,6.m4v,10.0
2024-02-28 13:46:56.341859,1709124416.3418586,-30.76171875,-29.296875,-24.4140625,-46.38671875,0.0,1.0,-1.0,0.0,6.m4v,10.0
2024-02-28 13:46:56.341859,1709124416.3418586,-30.76171875,-29.296875,-24.4140625,-46.38671875,0.0,1.0,-1.0,0.0,6.m4v,10.0
2024-02-28 13:46:56.345764,1709124416.3457637,-35.15625,-30.76171875,-27.34375,-37.59765625,0.0,1.0,-1.0,0.0,6.m4v,10.0
2024-02-28 13:46:56.345764,1709124416.3457637,-35.15625,-30.76171875,-27.34375,-37.59765625,0.0,1.0,-1.0,0.0,6.m4v,10.0
2024-02-28 13:46:56.349669,1709124416.3496687,-38.57421875,-30.76171875,-29.78515625,-32.2265625,0.0,1.0,-1.0,0.0,6.m4v,10.0
2024-02-28 13:46:56.349669,1709124416.3496687,-38.57421875,-30.76171875,-29.78515625,-32.2265625,0.0,1.0,-1.0,0.0,6.m4v,10.0
2024-02-28 13:46:56.353574,1709124416.3535738,-42.96875,-31.73828125,-38.0859375,-27.34375,0.0,1.0,-1.0,0.0,6.m4v,10.0
2024-02-28 13:46:56.353574,1709124416.3535738,-42.96875,-31.73828125,-38.0859375,-27.34375,0.0,1.0,-1.0,0.0,6.m4v,10.0
2024-02-28 13:46:56.357479,1709124416.3574786,-43.9453125,-31.73828125,-45.41015625,-39.55078125,0.0,1.0,-1.0,0.0,6.m4v,10.0
2024-02-28 13:46:56.357479,1709124416.3574786,-43.9453125,-31.73828125,-45.41015625,-39.55078125,0.0,1.0,-1.0,0.0,6.m4v,10.0
2024-02-28 13:46:56.361395,1709124416.3613954,-41.50390625,-33.203125,-43.9453125,-40.52734375,0.0,1.0,-1.0,0.0,6.m4v,10.0
2024-02-28 13:46:56.361395,1709124416.3613954,-41.50390625,-33.203125,-43.9453125,-40.52734375,0.0,1.0,-1.0,0.0,6.m4v,10.0
2024-02-28 13:46:56.365300,1709124416.3653004,-40.0390625,-43.9453125,-38.0859375,-19.53125,0.0,1.0,-1.0,0.0,6.m4v,10.0
2024-02-28 13:46:56.365300,1709124416.3653004,-40.0390625,-43.9453125,-38.0859375,-19.53125,0.0,1.0,-1.0,0.0,6.m4v,10.0
2024-02-28 13:46:56.369205,1709124416.3692052,-43.9453125,-46.875,-32.2265625,-24.4140625,0.0,1.0,-1.0,0.0,6.m4v,10.0
2024-02-28 13:46:56.369205,1709124416.3692052,-43.9453125,-46.875,-32.2265625,-24.4140625,0.0,1.0,-1.0,0.0,6.m4v,10.0
2024-02-28 13:46:56.373110,1709124416.3731103,-49.8046875,-40.52734375,-26.3671875,-37.109375,0.0,1.0,-1.0,0.0,6.m4v,10.0
2024-02-28 13:46:56.373110,1709124416.3731103,-49.8046875,-40.52734375,-26.3671875,-37.109375,0.0,1.0,-1.0,0.0,6.m4v,10.0
2024-02-28 13:46:56.377015,1709124416.3770154,-47.8515625,-32.71484375,-25.87890625,-41.015625,0.0,1.0,-1.0,0.0,6.m4v,10.0
2024-02-28 13:46:56.377015,1709124416.3770154,-47.8515625,-32.71484375,-25.87890625,-41.015625,0.0,1.0,-1.0,0.0,6.m4v,10.0
2024-02-28 13:46:56.380920,1709124416.3809204,-28.80859375,-28.3203125,-24.90234375,-40.0390625,0.0,1.0,-1.0,0.0,6.m4v,10.0
2024-02-28 13:46:56.380920,1709124416.3809204,-28.80859375,-28.3203125,-24.90234375,-40.0390625,0.0,1.0,-1.0,0.0,6.m4v,10.0
2024-02-28 13:46:56.384825,1709124416.3848257,-22.4609375,-27.34375,-23.92578125,-39.55078125,0.0,1.0,-1.0,0.0,6.m4v,10.0
2024-02-28 13:46:56.384825,1709124416.3848257,-22.4609375,-27.34375,-23.92578125,-39.55078125,0.0,1.0,-1.0,0.0,6.m4v,10.0
2024-02-28 13:46:56.388731,1709124416.3887303,-36.62109375,-31.73828125,-29.296875,-37.109375,0.0,1.0,-1.0,0.0,6.m4v,10.0
2024-02-28 13:46:56.388731,1709124416.3887303,-36.62109375,-31.73828125,-29.296875,-37.109375,0.0,1.0,-1.0,0.0,6.m4v,10.0
2024-02-28 13:46:56.392636,1709124416.3926356,-36.62109375,-36.1328125,-32.71484375,-24.90234375,0.0,1.0,-1.0,0.0,6.m4v,10.0
2024-02-28 13:46:56.392636,1709124416.3926356,-36.62109375,-36.1328125,-32.71484375,-24.90234375,0.0,1.0,-1.0,0.0,6.m4v,10.0
2024-02-28 13:46:56.396541,1709124416.3965406,-25.390625,-33.203125,-37.109375,-17.578125,0.0,1.0,-1.0,0.0,6.m4v,10.0
2024-02-28 13:46:56.396541,1709124416.3965406,-25.390625,-33.203125,-37.109375,-17.578125,0.0,1.0,-1.0,0.0,6.m4v,10.0
2024-02-28 13:46:56.400446,1709124416.4004457,-26.3671875,-28.80859375,-37.59765625,-15.13671875,0.0,1.0,-1.0,0.0,6.m4v,10.0
2024-02-28 13:46:56.400446,1709124416.4004457,-26.3671875,-28.80859375,-37.59765625,-15.13671875,0.0,1.0,-1.0,0.0,6.m4v,10.0
2024-02-28 13:46:56.404351,1709124416.4043505,-32.71484375,-29.78515625,-42.96875,-22.94921875,0.0,1.0,-1.0,0.0,6.m4v,10.0
2024-02-28 13:46:56.404351,1709124416.4043505,-32.71484375,-29.78515625,-42.96875,-22.94921875,0.0,1.0,-1.0,0.0,6.m4v,10.0
2024-02-28 13:46:56.408267,1709124416.4082668,-25.87890625,-34.1796875,-41.9921875,-37.109375,0.0,1.0,-1.0,0.0,6.m4v,10.0
2024-02-28 13:46:56.408267,1709124416.4082668,-25.87890625,-34.1796875,-41.9921875,-37.109375,0.0,1.0,-1.0,0.0,6.m4v,10.0
2024-02-28 13:46:56.412172,1709124416.4121718,-18.5546875,-33.203125,-34.1796875,-44.43359375,0.0,1.0,-1.0,0.0,6.m4v,10.0
2024-02-28 13:46:56.412172,1709124416.4121718,-18.5546875,-33.203125,-34.1796875,-44.43359375,0.0,1.0,-1.0,0.0,6.m4v,10.0
2024-02-28 13:46:56.416077,1709124416.416077,-31.25,-37.59765625,-34.1796875,-52.24609375,0.0,1.0,-1.0,0.0,6.m4v,10.0
2024-02-28 13:46:56.416077,1709124416.416077,-31.25,-37.59765625,-34.1796875,-52.24609375,0.0,1.0,-1.0,0.0,6.m4v,10.0
2024-02-28 13:46:56.419982,1709124416.4199817,-34.66796875,-40.0390625,-28.80859375,-41.50390625,0.0,1.0,-1.0,0.0,6.m4v,10.0
2024-02-28 13:46:56.419982,1709124416.4199817,-34.66796875,-40.0390625,-28.80859375,-41.50390625,0.0,1.0,-1.0,0.0,6.m4v,10.0
2024-02-28 13:46:56.423887,1709124416.4238868,-26.85546875,-33.69140625,-32.71484375,-22.94921875,0.0,1.0,-1.0,0.0,6.m4v,10.0
2024-02-28 13:46:56.423887,1709124416.4238868,-26.85546875,-33.69140625,-32.71484375,-22.94921875,0.0,1.0,-1.0,0.0,6.m4v,10.0
2024-02-28 13:46:56.427792,1709124416.4277918,-25.390625,-30.76171875,-42.96875,-26.3671875,0.0,1.0,-1.0,0.0,6.m4v,10.0
2024-02-28 13:46:56.427792,1709124416.4277918,-25.390625,-30.76171875,-42.96875,-26.3671875,0.0,1.0,-1.0,0.0,6.m4v,10.0
2024-02-28 13:46:56.431697,1709124416.431697,-21.484375,-26.85546875,-40.52734375,-25.390625,0.0,1.0,-1.0,0.0,6.m4v,10.0
2024-02-28 13:46:56.431697,1709124416.431697,-21.484375,-26.85546875,-40.52734375,-25.390625,0.0,1.0,-1.0,0.0,6.m4v,10.0
2024-02-28 13:46:56.435602,1709124416.435602,-25.87890625,-28.3203125,-35.15625,-31.25,0.0,1.0,-1.0,0.0,6.m4v,10.0
2024-02-28 13:46:56.435602,1709124416.435602,-25.87890625,-28.3203125,-35.15625,-31.25,0.0,1.0,-1.0,0.0,6.m4v,10.0
2024-02-28 13:46:56.439507,1709124416.439507,-35.64453125,-36.1328125,-39.0625,-49.31640625,0.0,1.0,-1.0,0.0,6.m4v,10.0
2024-02-28 13:46:56.439507,1709124416.439507,-35.64453125,-36.1328125,-39.0625,-49.31640625,0.0,1.0,-1.0,0.0,6.m4v,10.0
2024-02-28 13:46:56.443412,1709124416.443412,-39.0625,-38.0859375,-41.9921875,-62.01171875,0.0,1.0,-1.0,0.0,6.m4v,10.0
2024-02-28 13:46:56.443412,1709124416.443412,-39.0625,-38.0859375,-41.9921875,-62.01171875,0.0,1.0,-1.0,0.0,6.m4v,10.0
2024-02-28 13:46:56.447317,1709124416.4473171,-39.0625,-35.64453125,-43.45703125,-64.453125,0.0,1.0,-1.0,0.0,6.m4v,10.0
2024-02-28 13:46:56.447317,1709124416.4473171,-39.0625,-35.64453125,-43.45703125,-64.453125,0.0,1.0,-1.0,0.0,6.m4v,10.0
2024-02-28 13:46:56.451222,1709124416.4512222,-35.64453125,-35.64453125,-40.52734375,-57.6171875,0.0,1.0,-1.0,0.0,6.m4v,10.0
2024-02-28 13:46:56.451222,1709124416.4512222,-35.64453125,-35.64453125,-40.52734375,-57.6171875,0.0,1.0,-1.0,0.0,6.m4v,10.0
2024-02-28 13:46:56.455138,1709124416.4551375,-31.73828125,-41.9921875,-33.203125,-44.43359375,0.0,1.0,-1.0,0.0,6.m4v,10.0
2024-02-28 13:46:56.459043,1709124416.4590428,-27.83203125,-38.57421875,-35.64453125,-30.76171875,0.0,1.0,-1.0,0.0,6.m4v,10.0
2024-02-28 13:46:56.462948,1709124416.4629478,-30.2734375,-35.64453125,-39.55078125,-34.66796875,0.0,1.0,-1.0,0.0,6.m4v,10.0
2024-02-28 13:46:56.466853,1709124416.466853,-28.3203125,-37.109375,-34.1796875,-33.69140625,0.0,1.0,-1.0,0.0,6.m4v,10.0
2024-02-28 13:46:56.470758,1709124416.470758,-27.34375,-32.2265625,-26.85546875,-22.4609375,0.0,1.0,-1.0,0.0,6.m4v,10.0
2024-02-28 13:46:56.474663,1709124416.474663,-29.78515625,-32.2265625,-34.66796875,-21.97265625,0.0,1.0,-1.0,0.0,6.m4v,10.0
2024-02-28 13:46:56.478568,1709124416.478568,-26.3671875,-33.203125,-37.109375,-20.99609375,0.0,1.0,-1.0,0.0,6.m4v,10.0
2024-02-28 13:46:56.482473,1709124416.482473,-23.92578125,-27.34375,-33.203125,-15.13671875,0.0,1.0,-1.0,0.0,6.m4v,10.0
2024-02-28 13:46:56.486378,1709124416.486378,-29.296875,-32.2265625,-35.64453125,-13.18359375,0.0,1.0,-1.0,0.0,6.m4v,10.0
2024-02-28 13:46:56.490283,1709124416.490283,-26.3671875,-30.76171875,-36.1328125,-12.20703125,0.0,1.0,-1.0,0.0,6.m4v,10.0
2024-02-28 13:46:56.494188,1709124416.494188,-15.625,-31.25,-33.69140625,-10.25390625,0.0,1.0,-1.0,0.0,6.m4v,10.0
2024-02-28 13:46:56.498093,1709124416.4980931,-15.13671875,-36.1328125,-26.85546875,-15.13671875,0.0,1.0,-1.0,0.0,6.m4v,10.0
2024-02-28 13:46:56.502008,1709124416.5020084,-29.78515625,-37.59765625,-21.97265625,-22.4609375,0.0,1.0,-1.0,0.0,6.m4v,10.0
2024-02-28 13:46:56.505913,1709124416.5059135,-32.2265625,-38.57421875,-23.92578125,-21.97265625,0.0,1.0,-1.0,0.0,6.m4v,10.0
2024-02-28 13:46:56.509819,1709124416.5098186,-29.296875,-29.78515625,-28.80859375,-26.85546875,0.0,1.0,-1.0,0.0,6.m4v,10.0
2024-02-28 13:46:56.513724,1709124416.5137236,-35.15625,-28.80859375,-26.85546875,-26.85546875,0.0,1.0,-1.0,0.0,6.m4v,10.0
2024-02-28 13:46:56.517629,1709124416.517629,-31.73828125,-34.1796875,-29.296875,-25.87890625,0.0,1.0,-1.0,0.0,6.m4v,10.0
2024-02-28 13:46:56.521534,1709124416.5215335,-26.3671875,-31.25,-31.25,-27.34375,0.0,1.0,-1.0,0.0,6.m4v,10.0
2024-02-28 13:46:56.525439,1709124416.5254388,-20.5078125,-27.83203125,-31.25,-17.08984375,0.0,1.0,-1.0,0.0,6.m4v,10.0
2024-02-28 13:46:57.205069,1709124417.2050686,-34.1796875,-37.109375,-43.45703125,-31.25,0.0,1.0,-1.0,0.0,6.m4v,10.0
2024-02-28 13:46:57.208974,1709124417.2089736,-36.62109375,-33.203125,-43.45703125,-45.41015625,0.0,1.0,-1.0,0.0,6.m4v,10.0
2024-02-28 13:46:57.212879,1709124417.2128787,-34.1796875,-30.2734375,-39.55078125,-45.41015625,0.0,1.0,-1.0,0.0,6.m4v,10.0
2024-02-28 13:46:57.216784,1709124417.2167838,-39.55078125,-39.0625,-36.1328125,-45.41015625,0.0,1.0,-1.0,0.0,6.m4v,10.0
2024-02-28 13:46:57.220689,1709124417.2206888,-42.48046875,-38.57421875,-35.15625,-41.015625,0.0,1.0,-1.0,0.0,6.m4v,10.0
2024-02-28 13:46:57.224594,1709124417.224594,-41.50390625,-29.78515625,-32.71484375,-32.71484375,0.0,1.0,-1.0,0.0,6.m4v,10.0
2024-02-28 13:46:57.228499,1709124417.228499,-39.0625,-35.15625,-32.71484375,-34.1796875,0.0,1.0,-1.0,0.0,6.m4v,10.0
2024-02-28 13:46:57.232404,1709124417.232404,-39.55078125,-41.9921875,-29.296875,-45.41015625,0.0,1.0,-1.0,0.0,6.m4v,10.0
2024-02-28 13:46:57.236309,1709124417.236309,-34.1796875,-39.0625,-25.390625,-44.921875,0.0,1.0,-1.0,0.0,6.m4v,10.0
2024-02-28 13:46:57.240214,1709124417.240214,-31.25,-32.71484375,-29.78515625,-33.203125,0.0,1.0,-1.0,0.0,6.m4v,10.0
2024-02-28 13:46:57.244119,1709124417.244119,-32.2265625,-30.76171875,-33.203125,-33.69140625,0.0,1.0,-1.0,0.0,6.m4v,10.0
2024-02-28 13:46:57.248024,1709124417.248024,-29.296875,-34.1796875,-34.1796875,-34.1796875,0.0,1.0,-1.0,0.0,6.m4v,10.0
2024-02-28 13:46:57.251940,1709124417.25194,-27.83203125,-40.0390625,-31.25,-35.15625,0.0,1.0,-1.0,0.0,6.m4v,10.0
2024-02-28 13:46:57.255845,1709124417.255845,-38.57421875,-39.55078125,-30.76171875,-52.24609375,0.0,1.0,-1.0,0.0,6.m4v,10.0
2024-02-28 13:46:57.259750,1709124417.25975,-41.50390625,-33.69140625,-34.1796875,-53.7109375,0.0,1.0,-1.0,0.0,6.m4v,10.0
2024-02-28 13:46:57.263655,1709124417.2636552,-34.1796875,-35.15625,-35.64453125,-41.50390625,0.0,1.0,-1.0,0.0,6.m4v,10.0
2024-02-28 13:46:57.267560,1709124417.2675602,-35.15625,-36.62109375,-36.62109375,-48.828125,0.0,1.0,-1.0,0.0,6.m4v,10.0
2024-02-28 13:46:57.271465,1709124417.2714653,-44.43359375,-31.73828125,-31.73828125,-47.8515625,0.0,1.0,-1.0,0.0,6.m4v,10.0
2024-02-28 13:46:57.275370,1709124417.27537,-41.9921875,-32.2265625,-28.3203125,-35.15625,0.0,1.0,-1.0,0.0,6.m4v,10.0
2024-02-28 13:46:57.279275,1709124417.2792752,-41.9921875,-38.57421875,-29.78515625,-30.2734375,0.0,1.0,-1.0,0.0,6.m4v,10.0
2024-02-28 13:46:57.283180,1709124417.2831802,-48.33984375,-40.52734375,-29.78515625,-23.4375,0.0,1.0,-1.0,0.0,6.m4v,10.0
2024-02-28 13:46:57.287085,1709124417.2870853,-44.921875,-37.59765625,-27.34375,-21.484375,0.0,1.0,-1.0,0.0,6.m4v,10.0
2024-02-28 13:46:57.290990,1709124417.2909904,-39.55078125,-40.0390625,-27.83203125,-31.73828125,0.0,1.0,-1.0,0.0,6.m4v,10.0
2024-02-28 13:46:57.294895,1709124417.2948954,-40.0390625,-42.48046875,-35.64453125,-32.2265625,0.0,1.0,-1.0,0.0,6.m4v,10.0
2024-02-28 13:46:57.298811,1709124417.2988107,-45.41015625,-40.52734375,-35.15625,-28.80859375,0.0,1.0,-1.0,0.0,6.m4v,10.0
2024-02-28 13:46:57.302716,1709124417.3027158,-36.62109375,-39.55078125,-30.76171875,-22.94921875,0.0,1.0,-1.0,0.0,6.m4v,10.0
2024-02-28 13:46:57.306621,1709124417.3066208,-35.15625,-40.0390625,-28.3203125,-21.97265625,0.0,1.0,-1.0,0.0,6.m4v,10.0
2024-02-28 13:46:57.310526,1709124417.310526,-36.1328125,-41.015625,-32.71484375,-29.296875,0.0,1.0,-1.0,0.0,6.m4v,10.0
2024-02-28 13:46:57.314431,1709124417.314431,-39.55078125,-34.1796875,-37.59765625,-25.87890625,0.0,1.0,-1.0,0.0,6.m4v,10.0
2024-02-28 13:46:57.318336,1709124417.318336,-46.875,-28.3203125,-35.64453125,-28.80859375,0.0,1.0,-1.0,0.0,6.m4v,10.0
2024-02-28 13:46:57.322241,1709124417.322241,-32.71484375,-35.15625,-35.64453125,-36.62109375,0.0,1.0,-1.0,0.0,6.m4v,10.0
2024-02-28 13:46:57.326146,1709124417.326146,-28.3203125,-42.48046875,-37.109375,-39.0625,0.0,1.0,-1.0,0.0,6.m4v,10.0
2024-02-28 13:46:57.330051,1709124417.330051,-35.64453125,-39.0625,-40.0390625,-49.8046875,0.0,1.0,-1.0,0.0,6.m4v,10.0
2024-02-28 13:46:57.333956,1709124417.333956,-24.4140625,-35.15625,-37.109375,-38.57421875,0.0,1.0,-1.0,0.0,6.m4v,10.0
2024-02-28 13:46:57.337861,1709124417.337861,-22.4609375,-26.3671875,-35.15625,-31.25,0.0,1.0,-1.0,0.0,6.m4v,10.0
2024-02-28 13:46:57.341766,1709124417.341766,-23.92578125,-21.484375,-34.66796875,-36.1328125,0.0,1.0,-1.0,0.0,6.m4v,10.0
2024-02-28 13:46:57.345681,1709124417.345681,-25.390625,-30.2734375,-36.1328125,-45.41015625,0.0,1.0,-1.0,0.0,6.m4v,10.0
2024-02-28 13:46:57.349586,1709124417.3495858,-26.3671875,-37.59765625,-34.1796875,-53.7109375,0.0,1.0,-1.0,0.0,6.m4v,10.0
2024-02-28 13:46:57.353491,1709124417.3534908,-22.4609375,-36.62109375,-31.25,-41.50390625,0.0,1.0,-1.0,0.0,6.m4v,10.0
2024-02-28 13:46:57.357396,1709124417.357396,-22.94921875,-34.1796875,-34.1796875,-29.78515625,0.0,1.0,-1.0,0.0,6.m4v,10.0
2024-02-28 13:46:57.361301,1709124417.361301,-26.85546875,-35.64453125,-33.69140625,-29.78515625,0.0,1.0,-1.0,0.0,6.m4v,10.0
2024-02-28 13:46:57.365206,1709124417.365206,-25.390625,-32.2265625,-30.76171875,-25.87890625,0.0,1.0,-1.0,0.0,6.m4v,10.0
2024-02-28 13:46:57.369111,1709124417.369111,-25.87890625,-33.203125,-31.25,-21.484375,0.0,1.0,-1.0,0.0,6.m4v,10.0
2024-02-28 13:46:57.373016,1709124417.373016,-25.390625,-41.9921875,-30.76171875,-20.5078125,0.0,1.0,-1.0,0.0,6.m4v,10.0
2024-02-28 13:46:57.376921,1709124417.3769212,-20.01953125,-38.0859375,-31.73828125,-22.4609375,0.0,1.0,-1.0,0.0,6.m4v,10.0
2024-02-28 13:46:57.380826,1709124417.3808262,-8.7890625,-30.76171875,-30.2734375,-21.97265625,0.0,1.0,-1.0,0.0,6.m4v,10.0
2024-02-28 13:46:57.384731,1709124417.3847313,0.0,-37.59765625,-33.203125,-18.5546875,0.0,1.0,-1.0,0.0,6.m4v,10.0
2024-02-28 13:46:57.388636,1709124417.388636,2.9296875,-40.0390625,-38.57421875,-20.01953125,0.0,1.0,-1.0,0.0,6.m4v,10.0
2024-02-28 13:46:57.392551,1709124417.3925507,-19.04296875,-33.69140625,-37.59765625,-42.96875,0.0,1.0,-1.0,0.0,6.m4v,10.0
2024-02-28 13:46:57.396456,1709124417.3964558,-54.19921875,-39.0625,-40.0390625,-69.3359375,0.0,1.0,-1.0,0.0,6.m4v,10.0
2024-02-28 13:46:57.400361,1709124417.4003608,-55.6640625,-38.57421875,-44.921875,-70.80078125,0.0,1.0,-1.0,0.0,6.m4v,10.0
2024-02-28 13:46:57.404266,1709124417.404266,-58.59375,-33.69140625,-41.50390625,-63.96484375,0.0,1.0,-1.0,0.0,6.m4v,10.0
2024-02-28 13:46:57.408171,1709124417.408171,-75.1953125,-38.0859375,-39.0625,-74.21875,0.0,1.0,-1.0,0.0,6.m4v,10.0
2024-02-28 13:46:57.412076,1709124417.412076,-67.3828125,-35.64453125,-40.0390625,-66.89453125,0.0,1.0,-1.0,0.0,6.m4v,10.0
2024-02-28 13:46:57.415981,1709124417.415981,-75.1953125,-42.48046875,-37.59765625,-63.96484375,0.0,1.0,-1.0,0.0,6.m4v,10.0
2024-02-28 13:46:57.419886,1709124417.419886,-83.984375,-50.78125,-37.109375,-73.73046875,0.0,1.0,-1.0,0.0,6.m4v,10.0
2024-02-28 13:46:57.423791,1709124417.423791,-72.265625,-44.43359375,-38.0859375,-60.05859375,0.0,1.0,-1.0,0.0,6.m4v,10.0
2024-02-28 13:46:57.427696,1709124417.427696,-61.5234375,-41.50390625,-36.62109375,-55.17578125,0.0,1.0,-1.0,0.0,6.m4v,10.0
2024-02-28 13:46:57.431601,1709124417.431601,-53.7109375,-35.15625,-33.69140625,-56.640625,0.0,1.0,-1.0,0.0,6.m4v,10.0
2024-02-28 13:46:57.435506,1709124417.435506,-48.33984375,-35.64453125,-33.203125,-54.19921875,0.0,1.0,-1.0,0.0,6.m4v,10.0
2024-02-28 13:46:57.439421,1709124417.4394207,-40.0390625,-39.0625,-39.0625,-51.26953125,0.0,1.0,-1.0,0.0,6.m4v,10.0
2024-02-28 13:46:57.443326,1709124417.4433255,-42.96875,-37.109375,-38.0859375,-59.08203125,0.0,1.0,-1.0,0.0,6.m4v,10.0
2024-02-28 13:46:57.447231,1709124417.4472306,-53.22265625,-35.15625,-34.1796875,-63.96484375,0.0,1.0,-1.0,0.0,6.m4v,10.0
2024-02-28 13:46:57.451136,1709124417.4511356,-57.12890625,-34.66796875,-38.0859375,-58.10546875,0.0,1.0,-1.0,0.0,6.m4v,10.0
2024-02-28 13:46:57.455041,1709124417.4550407,-51.26953125,-32.2265625,-37.59765625,-57.12890625,0.0,1.0,-1.0,0.0,6.m4v,10.0
2024-02-28 13:46:57.458946,1709124417.4589458,-40.52734375,-27.83203125,-33.203125,-48.828125,0.0,1.0,-1.0,0.0,6.m4v,10.0
2024-02-28 13:46:57.462851,1709124417.4628508,-45.41015625,-37.59765625,-34.1796875,-36.1328125,0.0,1.0,-1.0,0.0,6.m4v,10.0
2024-02-28 13:46:57.466756,1709124417.466756,-44.921875,-40.0390625,-34.1796875,-40.0390625,0.0,1.0,-1.0,0.0,6.m4v,10.0
2024-02-28 13:46:57.470661,1709124417.470661,-40.0390625,-38.57421875,-30.76171875,-53.22265625,0.0,1.0,-1.0,0.0,6.m4v,10.0
2024-02-28 13:46:57.474566,1709124417.474566,-41.9921875,-34.66796875,-30.2734375,-57.12890625,0.0,1.0,-1.0,0.0,6.m4v,10.0
2024-02-28 13:46:57.478471,1709124417.478471,-39.55078125,-29.296875,-34.1796875,-46.38671875,0.0,1.0,-1.0,0.0,6.m4v,10.0
2024-02-28 13:46:57.482376,1709124417.482376,-37.59765625,-28.3203125,-33.69140625,-39.0625,0.0,1.0,-1.0,0.0,6.m4v,10.0
2024-02-28 13:46:57.486292,1709124417.4862924,-40.52734375,-27.83203125,-30.2734375,-37.109375,0.0,1.0,-1.0,0.0,6.m4v,10.0
2024-02-28 13:46:57.490197,1709124417.4901974,-36.62109375,-31.25,-25.87890625,-29.296875,0.0,1.0,-1.0,0.0,6.m4v,10.0
2024-02-28 13:46:57.494102,1709124417.4941025,-36.1328125,-32.71484375,-23.92578125,-21.97265625,0.0,1.0,-1.0,0.0,6.m4v,10.0
2024-02-28 13:46:57.498008,1709124417.4980075,-31.25,-24.4140625,-27.34375,-23.4375,0.0,1.0,-1.0,0.0,6.m4v,10.0
2024-02-28 13:46:57.501913,1709124417.5019126,-21.97265625,-18.06640625,-27.34375,-24.90234375,0.0,1.0,-1.0,0.0,6.m4v,10.0
2024-02-28 13:46:57.505818,1709124417.5058177,-27.83203125,-28.80859375,-28.3203125,-22.4609375,0.0,1.0,-1.0,0.0,6.m4v,10.0
2024-02-28 13:46:57.509723,1709124417.5097227,-20.5078125,-35.15625,-29.78515625,-29.296875,0.0,1.0,-1.0,0.0,6.m4v,10.0
2024-02-28 13:46:57.513628,1709124417.5136275,-17.578125,-32.71484375,-31.73828125,-34.1796875,0.0,1.0,-1.0,0.0,6.m4v,10.0
2024-02-28 13:46:57.513628,1709124417.5136275,-17.578125,-32.71484375,-31.73828125,-34.1796875,0.0,1.0,-1.0,0.0,6.m4v,10.0
2024-02-28 13:46:57.517533,1709124417.5175326,-28.3203125,-34.66796875,-30.76171875,-35.64453125,0.0,1.0,-1.0,0.0,6.m4v,10.0
2024-02-28 13:46:57.517533,1709124417.5175326,-28.3203125,-34.66796875,-30.76171875,-35.64453125,0.0,1.0,-1.0,0.0,6.m4v,10.0
2024-02-28 13:46:57.521438,1709124417.5214376,-30.76171875,-34.1796875,-32.71484375,-36.1328125,0.0,1.0,-1.0,0.0,6.m4v,10.0
2024-02-28 13:46:57.521438,1709124417.5214376,-30.76171875,-34.1796875,-32.71484375,-36.1328125,0.0,1.0,-1.0,0.0,6.m4v,10.0
2024-02-28 13:46:57.525343,1709124417.5253427,-30.76171875,-36.62109375,-31.25,-28.3203125,0.0,1.0,-1.0,0.0,6.m4v,10.0
2024-02-28 13:46:57.525343,1709124417.5253427,-30.76171875,-36.62109375,-31.25,-28.3203125,0.0,1.0,-1.0,0.0,6.m4v,10.0
2024-02-28 13:46:57.529248,1709124417.5292478,-31.73828125,-34.66796875,-32.2265625,-31.25,0.0,1.0,-1.0,0.0,6.m4v,10.0
2024-02-28 13:46:57.529248,1709124417.5292478,-31.73828125,-34.66796875,-32.2265625,-31.25,0.0,1.0,-1.0,0.0,6.m4v,10.0
2024-02-28 13:46:57.533164,1709124417.5331638,-29.78515625,-27.34375,-34.1796875,-35.15625,0.0,1.0,-1.0,0.0,6.m4v,10.0
2024-02-28 13:46:57.533164,1709124417.5331638,-29.78515625,-27.34375,-34.1796875,-35.15625,0.0,1.0,-1.0,0.0,6.m4v,10.0
2024-02-28 13:46:57.537069,1709124417.5370688,-32.71484375,-28.3203125,-33.69140625,-31.73828125,0.0,1.0,-1.0,0.0,6.m4v,10.0
2024-02-28 13:46:57.537069,1709124417.5370688,-32.71484375,-28.3203125,-33.69140625,-31.73828125,0.0,1.0,-1.0,0.0,6.m4v,10.0
2024-02-28 13:46:57.540974,1709124417.540974,-37.59765625,-28.80859375,-36.62109375,-37.59765625,0.0,1.0,-1.0,0.0,6.m4v,10.0
2024-02-28 13:46:57.540974,1709124417.540974,-37.59765625,-28.80859375,-36.62109375,-37.59765625,0.0,1.0,-1.0,0.0,6.m4v,10.0
2024-02-28 13:46:57.544879,1709124417.544879,-34.1796875,-30.76171875,-34.66796875,-50.29296875,0.0,1.0,-1.0,0.0,6.m4v,10.0
2024-02-28 13:46:57.544879,1709124417.544879,-34.1796875,-30.76171875,-34.66796875,-50.29296875,0.0,1.0,-1.0,0.0,6.m4v,10.0
2024-02-28 13:46:57.548784,1709124417.548784,-43.45703125,-36.1328125,-35.64453125,-49.31640625,0.0,1.0,-1.0,0.0,6.m4v,10.0
2024-02-28 13:46:57.548784,1709124417.548784,-43.45703125,-36.1328125,-35.64453125,-49.31640625,0.0,1.0,-1.0,0.0,6.m4v,10.0
2024-02-28 13:46:57.552689,1709124417.552689,-41.50390625,-34.1796875,-34.1796875,-38.57421875,0.0,1.0,-1.0,0.0,6.m4v,10.0
2024-02-28 13:46:57.552689,1709124417.552689,-41.50390625,-34.1796875,-34.1796875,-38.57421875,0.0,1.0,-1.0,0.0,6.m4v,10.0
2024-02-28 13:46:57.556594,1709124417.556594,-29.78515625,-31.25,-30.76171875,-36.62109375,0.0,1.0,-1.0,0.0,6.m4v,10.0
2024-02-28 13:46:57.556594,1709124417.556594,-29.78515625,-31.25,-30.76171875,-36.62109375,0.0,1.0,-1.0,0.0,6.m4v,10.0
2024-02-28 13:46:57.560499,1709124417.560499,-33.69140625,-32.71484375,-36.1328125,-29.296875,0.0,1.0,-1.0,0.0,6.m4v,10.0
2024-02-28 13:46:57.560499,1709124417.560499,-33.69140625,-32.71484375,-36.1328125,-29.296875,0.0,1.0,-1.0,0.0,6.m4v,10.0
2024-02-28 13:46:57.564404,1709124417.564404,-43.9453125,-34.66796875,-37.59765625,-23.92578125,0.0,1.0,-1.0,0.0,6.m4v,10.0
2024-02-28 13:46:57.564404,1709124417.564404,-43.9453125,-34.66796875,-37.59765625,-23.92578125,0.0,1.0,-1.0,0.0,6.m4v,10.0
2024-02-28 13:46:57.568309,1709124417.568309,-42.48046875,-34.66796875,-34.66796875,-22.4609375,0.0,1.0,-1.0,0.0,6.m4v,10.0
2024-02-28 13:46:57.568309,1709124417.568309,-42.48046875,-34.66796875,-34.66796875,-22.4609375,0.0,1.0,-1.0,0.0,6.m4v,10.0
2024-02-28 13:46:57.572214,1709124417.572214,-35.15625,-29.78515625,-35.15625,-30.76171875,0.0,1.0,-1.0,0.0,6.m4v,10.0
2024-02-28 13:46:57.572214,1709124417.572214,-35.15625,-29.78515625,-35.15625,-30.76171875,0.0,1.0,-1.0,0.0,6.m4v,10.0
2024-02-28 13:46:57.576119,1709124417.5761192,-38.0859375,-35.15625,-30.2734375,-26.85546875,0.0,1.0,-1.0,0.0,6.m4v,10.0
2024-02-28 13:46:57.576119,1709124417.5761192,-38.0859375,-35.15625,-30.2734375,-26.85546875,0.0,1.0,-1.0,0.0,6.m4v,10.0
2024-02-28 13:46:57.580035,1709124417.580035,-51.26953125,-42.48046875,-28.3203125,-25.390625,0.0,1.0,-1.0,0.0,6.m4v,10.0
2024-02-28 13:46:57.580035,1709124417.580035,-51.26953125,-42.48046875,-28.3203125,-25.390625,0.0,1.0,-1.0,0.0,6.m4v,10.0
2024-02-28 13:46:57.583940,1709124417.58394,-41.015625,-40.0390625,-34.1796875,-31.25,0.0,1.0,-1.0,0.0,6.m4v,10.0
2024-02-28 13:46:57.587845,1709124417.587845,-37.59765625,-42.48046875,-36.1328125,-31.73828125,0.0,1.0,-1.0,0.0,6.m4v,10.0
2024-02-28 13:46:57.591750,1709124417.59175,-51.26953125,-38.57421875,-38.57421875,-40.52734375,0.0,1.0,-1.0,0.0,6.m4v,10.0
2024-02-28 13:46:57.595655,1709124417.595655,-43.45703125,-33.203125,-40.52734375,-34.66796875,0.0,1.0,-1.0,0.0,6.m4v,10.0
2024-02-28 13:46:57.599560,1709124417.59956,-35.64453125,-35.64453125,-35.64453125,-27.83203125,0.0,1.0,-1.0,0.0,6.m4v,10.0
2024-02-28 13:46:57.603465,1709124417.603465,-29.78515625,-34.66796875,-28.80859375,-26.3671875,0.0,1.0,-1.0,0.0,6.m4v,10.0
2024-02-28 13:46:57.611275,1709124417.6112752,-17.08984375,-34.1796875,-34.1796875,-36.62109375,0.0,1.0,-1.0,0.0,6.m4v,10.0
2024-02-28 13:46:57.622990,1709124417.6229904,-20.5078125,-34.1796875,-43.45703125,-40.0390625,0.0,1.0,-1.0,0.0,6.m4v,10.0
2024-02-28 13:46:57.634716,1709124417.6347158,-28.80859375,-33.69140625,-42.48046875,-37.109375,0.0,1.0,-1.0,0.0,6.m4v,10.0
2024-02-28 13:46:57.646431,1709124417.646431,-26.85546875,-35.64453125,-36.1328125,-43.9453125,0.0,1.0,-1.0,0.0,6.m4v,10.0
2024-02-28 13:46:57.658146,1709124417.658146,-31.73828125,-41.50390625,-32.71484375,-26.3671875,0.0,1.0,-1.0,0.0,6.m4v,10.0
2024-02-28 13:46:57.669861,1709124417.6698613,-38.0859375,-36.1328125,-33.203125,-42.96875,0.0,1.0,-1.0,0.0,6.m4v,10.0
2024-02-28 13:46:57.681587,1709124417.6815867,-35.64453125,-38.0859375,-35.15625,-40.52734375,0.0,1.0,-1.0,0.0,6.m4v,10.0
2024-02-28 13:46:57.693302,1709124417.6933017,-41.9921875,-40.0390625,-26.85546875,-28.3203125,0.0,1.0,-1.0,0.0,6.m4v,10.0
2024-02-28 13:46:57.705017,1709124417.7050169,-38.0859375,-24.90234375,-30.2734375,-25.390625,0.0,1.0,-1.0,0.0,6.m4v,10.0
2024-02-28 13:46:57.716732,1709124417.716732,-40.0390625,-22.94921875,-44.921875,-39.55078125,0.0,1.0,-1.0,0.0,6.m4v,10.0
2024-02-28 13:46:57.728457,1709124417.7284567,-37.109375,-38.57421875,-41.015625,-30.76171875,0.0,1.0,-1.0,0.0,6.m4v,10.0
2024-02-28 13:46:57.740172,1709124417.740172,-41.9921875,-33.69140625,-34.66796875,-24.4140625,0.0,1.0,-1.0,0.0,6.m4v,10.0
2024-02-28 13:46:57.751887,1709124417.751887,-52.24609375,-37.109375,-36.62109375,-43.45703125,0.0,1.0,-1.0,0.0,6.m4v,10.0
2024-02-28 13:46:57.763602,1709124417.763602,-37.109375,-25.87890625,-27.34375,-37.59765625,0.0,1.0,-1.0,0.0,6.m4v,10.0
2024-02-28 13:46:57.775326,1709124417.7753265,-30.2734375,-33.69140625,-30.76171875,-41.9921875,0.0,1.0,-1.0,0.0,6.m4v,10.0
2024-02-28 13:46:57.787042,1709124417.7870417,-20.5078125,-31.25,-35.64453125,-46.875,0.0,1.0,-1.0,0.0,6.m4v,10.0
2024-02-28 13:46:58.193256,1709124418.1932564,-38.57421875,-29.296875,-28.3203125,-20.5078125,0.0,1.0,-1.0,0.0,6.m4v,10.0
2024-02-28 13:46:58.201066,1709124418.2010665,-36.62109375,-31.73828125,-34.1796875,-34.1796875,0.0,1.0,-1.0,0.0,6.m4v,10.0
2024-02-28 13:46:58.208877,1709124418.2088766,-40.0390625,-25.87890625,-31.73828125,-28.3203125,0.0,1.0,-1.0,0.0,6.m4v,10.0
2024-02-28 13:46:58.216687,1709124418.2166867,-32.71484375,-32.71484375,-35.15625,-41.50390625,0.0,1.0,-1.0,0.0,6.m4v,10.0
2024-02-28 13:46:58.224497,1709124418.2244966,-23.4375,-26.85546875,-33.203125,-42.96875,0.0,1.0,-1.0,0.0,6.m4v,10.0
2024-02-28 13:46:58.232307,1709124418.2323067,-23.4375,-32.71484375,-30.76171875,-59.08203125,0.0,1.0,-1.0,0.0,6.m4v,10.0
2024-02-28 13:46:58.240128,1709124418.2401285,-25.390625,-27.83203125,-36.62109375,-32.2265625,0.0,1.0,-1.0,0.0,6.m4v,10.0
2024-02-28 13:46:58.240128,1709124418.2401285,-25.390625,-27.83203125,-36.62109375,-32.2265625,0.0,1.0,-1.0,0.0,6.m4v,10.0
2024-02-28 13:46:58.247938,1709124418.2479382,-7.8125,-30.2734375,-38.0859375,-37.109375,0.0,1.0,-1.0,0.0,6.m4v,10.0
2024-02-28 13:46:58.247938,1709124418.2479382,-7.8125,-30.2734375,-38.0859375,-37.109375,0.0,1.0,-1.0,0.0,6.m4v,10.0
2024-02-28 13:46:58.255748,1709124418.2557485,-12.20703125,-31.73828125,-36.62109375,-27.83203125,0.0,1.0,-1.0,0.0,6.m4v,10.0
2024-02-28 13:46:58.255748,1709124418.2557485,-12.20703125,-31.73828125,-36.62109375,-27.83203125,0.0,1.0,-1.0,0.0,6.m4v,10.0
2024-02-28 13:46:58.263558,1709124418.2635584,-11.71875,-31.73828125,-41.015625,-47.36328125,0.0,1.0,-1.0,0.0,6.m4v,10.0
2024-02-28 13:46:58.263558,1709124418.2635584,-11.71875,-31.73828125,-41.015625,-47.36328125,0.0,1.0,-1.0,0.0,6.m4v,10.0
2024-02-28 13:46:58.271369,1709124418.2713685,-17.08984375,-42.48046875,-40.52734375,-30.2734375,0.0,1.0,-1.0,0.0,6.m4v,10.0
2024-02-28 13:46:58.271369,1709124418.2713685,-17.08984375,-42.48046875,-40.52734375,-30.2734375,0.0,1.0,-1.0,0.0,6.m4v,10.0
2024-02-28 13:46:58.279179,1709124418.2791786,-20.99609375,-32.71484375,-32.2265625,-29.296875,0.0,1.0,-1.0,0.0,6.m4v,10.0
2024-02-28 13:46:58.279179,1709124418.2791786,-20.99609375,-32.71484375,-32.2265625,-29.296875,0.0,1.0,-1.0,0.0,6.m4v,10.0
2024-02-28 13:46:58.287000,1709124418.287,-33.203125,-38.0859375,-33.69140625,-24.90234375,0.0,1.0,-1.0,0.0,6.m4v,10.0
2024-02-28 13:46:58.287000,1709124418.287,-33.203125,-38.0859375,-33.69140625,-24.90234375,0.0,1.0,-1.0,0.0,6.m4v,10.0
2024-02-28 13:46:58.294810,1709124418.2948098,-26.85546875,-38.0859375,-36.62109375,-18.06640625,0.0,1.0,-1.0,0.0,6.m4v,10.0
2024-02-28 13:46:58.294810,1709124418.2948098,-26.85546875,-38.0859375,-36.62109375,-18.06640625,0.0,1.0,-1.0,0.0,6.m4v,10.0
2024-02-28 13:46:58.302620,1709124418.30262,-35.64453125,-30.76171875,-29.296875,-36.62109375,0.0,1.0,-1.0,0.0,6.m4v,10.0
2024-02-28 13:46:58.302620,1709124418.30262,-35.64453125,-30.76171875,-29.296875,-36.62109375,0.0,1.0,-1.0,0.0,6.m4v,10.0
2024-02-28 13:46:58.310430,1709124418.31043,-43.9453125,-42.96875,-32.71484375,-37.59765625,0.0,1.0,-1.0,0.0,6.m4v,10.0
2024-02-28 13:46:58.310430,1709124418.31043,-43.9453125,-42.96875,-32.71484375,-37.59765625,0.0,1.0,-1.0,0.0,6.m4v,10.0
2024-02-28 13:46:58.318240,1709124418.3182402,-44.43359375,-48.828125,-31.25,-31.25,0.0,1.0,-1.0,0.0,6.m4v,10.0
2024-02-28 13:46:58.318240,1709124418.3182402,-44.43359375,-48.828125,-31.25,-31.25,0.0,1.0,-1.0,0.0,6.m4v,10.0
2024-02-28 13:46:58.326050,1709124418.3260503,-56.15234375,-40.0390625,-37.109375,-34.66796875,0.0,1.0,-1.0,0.0,6.m4v,10.0
2024-02-28 13:46:58.326050,1709124418.3260503,-56.15234375,-40.0390625,-37.109375,-34.66796875,0.0,1.0,-1.0,0.0,6.m4v,10.0
2024-02-28 13:46:58.333871,1709124418.333871,-44.921875,-26.3671875,-32.71484375,-38.57421875,0.0,1.0,-1.0,0.0,6.m4v,10.0
2024-02-28 13:46:58.333871,1709124418.333871,-44.921875,-26.3671875,-32.71484375,-38.57421875,0.0,1.0,-1.0,0.0,6.m4v,10.0
2024-02-28 13:46:58.357301,1709124418.3573012,-28.3203125,-33.69140625,-29.78515625,-37.109375,0.0,1.0,-1.0,0.0,6.m4v,10.0
2024-02-28 13:46:58.361206,1709124418.3612063,-23.4375,-34.66796875,-36.1328125,-29.78515625,0.0,1.0,-1.0,0.0,6.m4v,10.0
2024-02-28 13:46:58.365111,1709124418.3651114,-16.11328125,-29.296875,-37.59765625,-29.296875,0.0,1.0,-1.0,0.0,6.m4v,10.0
2024-02-28 13:46:58.369016,1709124418.3690164,-21.97265625,-28.3203125,-35.64453125,-32.71484375,0.0,1.0,-1.0,0.0,6.m4v,10.0
2024-02-28 13:46:58.372921,1709124418.3729212,-36.1328125,-28.3203125,-35.64453125,-26.3671875,0.0,1.0,-1.0,0.0,6.m4v,10.0
2024-02-28 13:46:58.376839,1709124418.3768394,-27.34375,-20.99609375,-34.66796875,-22.4609375,0.0,1.0,-1.0,0.0,6.m4v,10.0
2024-02-28 13:46:58.380744,1709124418.3807445,-17.08984375,-25.87890625,-40.0390625,-21.97265625,0.0,1.0,-1.0,0.0,6.m4v,10.0
2024-02-28 13:46:58.384650,1709124418.3846495,-17.578125,-37.109375,-41.015625,-12.6953125,0.0,1.0,-1.0,0.0,6.m4v,10.0
2024-02-28 13:46:58.388555,1709124418.3885546,-21.484375,-33.203125,-36.62109375,-17.08984375,0.0,1.0,-1.0,0.0,6.m4v,10.0
2024-02-28 13:46:58.392460,1709124418.3924596,-27.83203125,-31.73828125,-30.76171875,-35.15625,0.0,1.0,-1.0,0.0,6.m4v,10.0
2024-02-28 13:46:58.396365,1709124418.3963647,-42.48046875,-34.66796875,-25.87890625,-35.64453125,0.0,1.0,-1.0,0.0,6.m4v,10.0
2024-02-28 13:46:58.400270,1709124418.4002695,-48.33984375,-29.78515625,-27.34375,-34.1796875,0.0,1.0,-1.0,0.0,6.m4v,10.0
2024-02-28 13:46:58.404175,1709124418.4041748,-43.9453125,-31.25,-32.2265625,-37.59765625,0.0,1.0,-1.0,0.0,6.m4v,10.0
2024-02-28 13:46:58.408080,1709124418.4080796,-42.96875,-38.57421875,-37.59765625,-31.73828125,0.0,1.0,-1.0,0.0,6.m4v,10.0
2024-02-28 13:46:58.411985,1709124418.4119847,-45.41015625,-37.59765625,-38.0859375,-21.484375,0.0,1.0,-1.0,0.0,6.m4v,10.0
2024-02-28 13:46:58.415890,1709124418.4158895,-43.9453125,-32.71484375,-39.0625,-23.4375,0.0,1.0,-1.0,0.0,6.m4v,10.0
2024-02-28 13:46:58.419795,1709124418.4197948,-34.1796875,-31.25,-39.0625,-35.15625,0.0,1.0,-1.0,0.0,6.m4v,10.0
2024-02-28 13:46:58.423710,1709124418.42371,-36.1328125,-33.203125,-35.64453125,-42.96875,0.0,1.0,-1.0,0.0,6.m4v,10.0
2024-02-28 13:46:58.427615,1709124418.427615,-40.52734375,-35.15625,-35.64453125,-41.015625,0.0,1.0,-1.0,0.0,6.m4v,10.0
2024-02-28 13:46:58.431520,1709124418.43152,-40.52734375,-33.69140625,-37.59765625,-30.2734375,0.0,1.0,-1.0,0.0,6.m4v,10.0
2024-02-28 13:46:58.435425,1709124418.435425,-33.69140625,-34.1796875,-35.64453125,-19.53125,0.0,1.0,-1.0,0.0,6.m4v,10.0
2024-02-28 13:46:58.439330,1709124418.43933,-32.71484375,-33.203125,-37.59765625,-23.4375,0.0,1.0,-1.0,0.0,6.m4v,10.0
2024-02-28 13:46:58.443235,1709124418.443235,-33.203125,-25.390625,-34.1796875,-24.4140625,0.0,1.0,-1.0,0.0,6.m4v,10.0
2024-02-28 13:46:58.447140,1709124418.44714,-27.34375,-24.4140625,-24.90234375,-22.94921875,0.0,1.0,-1.0,0.0,6.m4v,10.0
2024-02-28 13:46:58.451045,1709124418.451045,-29.78515625,-24.90234375,-25.87890625,-36.1328125,0.0,1.0,-1.0,0.0,6.m4v,10.0
2024-02-28 13:46:58.454950,1709124418.45495,-32.2265625,-21.97265625,-30.2734375,-41.9921875,0.0,1.0,-1.0,0.0,6.m4v,10.0
2024-02-28 13:46:58.458855,1709124418.4588552,-28.80859375,-19.53125,-31.73828125,-41.9921875,0.0,1.0,-1.0,0.0,6.m4v,10.0
2024-02-28 13:46:58.462760,1709124418.4627602,-34.66796875,-26.3671875,-39.0625,-42.48046875,0.0,1.0,-1.0,0.0,6.m4v,10.0
2024-02-28 13:46:58.466665,1709124418.4666653,-40.52734375,-35.15625,-40.0390625,-28.80859375,0.0,1.0,-1.0,0.0,6.m4v,10.0
2024-02-28 13:46:58.470580,1709124418.47058,-35.15625,-35.64453125,-32.2265625,-36.62109375,0.0,1.0,-1.0,0.0,6.m4v,10.0
2024-02-28 13:46:58.474485,1709124418.4744852,-34.66796875,-32.2265625,-27.83203125,-38.57421875,0.0,1.0,-1.0,0.0,6.m4v,10.0
2024-02-28 13:46:58.478390,1709124418.4783902,-42.48046875,-28.3203125,-33.69140625,-27.83203125,0.0,1.0,-1.0,0.0,6.m4v,10.0
2024-02-28 13:46:58.482295,1709124418.4822953,-45.41015625,-30.2734375,-37.59765625,-31.73828125,0.0,1.0,-1.0,0.0,6.m4v,10.0
2024-02-28 13:46:58.486200,1709124418.4862003,-45.41015625,-32.71484375,-29.296875,-39.55078125,0.0,1.0,-1.0,0.0,6.m4v,10.0
2024-02-28 13:46:58.490105,1709124418.4901054,-43.9453125,-34.1796875,-27.83203125,-36.1328125,0.0,1.0,-1.0,0.0,6.m4v,10.0
2024-02-28 13:46:58.494010,1709124418.4940104,-49.31640625,-32.2265625,-34.66796875,-31.73828125,0.0,1.0,-1.0,0.0,6.m4v,10.0
2024-02-28 13:46:58.497916,1709124418.4979155,-48.33984375,-30.2734375,-38.57421875,-35.15625,0.0,1.0,-1.0,0.0,6.m4v,10.0
2024-02-28 13:46:58.501821,1709124418.5018206,-39.55078125,-34.66796875,-33.69140625,-44.921875,0.0,1.0,-1.0,0.0,6.m4v,10.0
2024-02-28 13:46:58.505726,1709124418.5057256,-42.96875,-38.0859375,-29.78515625,-41.50390625,0.0,1.0,-1.0,0.0,6.m4v,10.0
2024-02-28 13:46:58.509630,1709124418.5096304,-46.875,-40.0390625,-30.76171875,-30.76171875,0.0,1.0,-1.0,0.0,6.m4v,10.0
2024-02-28 13:46:58.513535,1709124418.5135355,-51.26953125,-47.36328125,-29.296875,-30.2734375,0.0,1.0,-1.0,0.0,6.m4v,10.0
2024-02-28 13:46:58.517450,1709124418.5174503,-46.875,-42.48046875,-27.83203125,-34.1796875,0.0,1.0,-1.0,0.0,6.m4v,10.0
2024-02-28 13:46:58.521355,1709124418.5213554,-40.0390625,-33.203125,-32.2265625,-29.78515625,0.0,1.0,-1.0,0.0,6.m4v,10.0
2024-02-28 13:46:58.525260,1709124418.5252604,-40.0390625,-42.48046875,-33.69140625,-29.78515625,0.0,1.0,-1.0,0.0,6.m4v,10.0
2024-02-28 13:46:58.529166,1709124418.5291655,-33.69140625,-35.64453125,-33.203125,-43.9453125,0.0,1.0,-1.0,0.0,6.m4v,10.0
2024-02-28 13:46:58.533071,1709124418.5330706,-32.71484375,-28.3203125,-32.71484375,-34.1796875,0.0,1.0,-1.0,0.0,6.m4v,10.0
2024-02-28 13:46:58.536976,1709124418.5369756,-32.71484375,-32.71484375,-28.80859375,-12.20703125,0.0,1.0,-1.0,0.0,6.m4v,10.0
2024-02-28 13:46:58.540881,1709124418.540881,-29.296875,-35.15625,-32.71484375,-24.90234375,0.0,1.0,-1.0,0.0,6.m4v,10.0
2024-02-28 13:46:58.544786,1709124418.5447855,-34.1796875,-30.76171875,-39.0625,-40.0390625,0.0,1.0,-1.0,0.0,6.m4v,10.0
2024-02-28 13:46:58.548691,1709124418.5486906,-39.0625,-29.296875,-41.9921875,-41.50390625,0.0,1.0,-1.0,0.0,6.m4v,10.0
2024-02-28 13:46:58.552596,1709124418.5525956,-35.64453125,-36.1328125,-43.9453125,-41.50390625,0.0,1.0,-1.0,0.0,6.m4v,10.0
2024-02-28 13:46:58.556501,1709124418.556501,-33.69140625,-41.015625,-37.59765625,-45.8984375,0.0,1.0,-1.0,0.0,6.m4v,10.0
2024-02-28 13:46:58.560406,1709124418.5604055,-36.1328125,-34.1796875,-30.2734375,-51.26953125,0.0,1.0,-1.0,0.0,6.m4v,10.0
2024-02-28 13:46:58.564320,1709124418.5643198,-44.43359375,-33.203125,-31.73828125,-50.29296875,0.0,1.0,-1.0,0.0,6.m4v,10.0
2024-02-28 13:46:58.568225,1709124418.568225,-46.875,-36.62109375,-37.59765625,-42.96875,0.0,1.0,-1.0,0.0,6.m4v,10.0
2024-02-28 13:46:58.572130,1709124418.5721295,-36.62109375,-34.1796875,-37.59765625,-36.1328125,0.0,1.0,-1.0,0.0,6.m4v,10.0
2024-02-28 13:46:58.576035,1709124418.5760348,-38.57421875,-32.71484375,-34.66796875,-36.62109375,0.0,1.0,-1.0,0.0,6.m4v,10.0
2024-02-28 13:46:58.579940,1709124418.5799398,-37.59765625,-29.78515625,-33.203125,-37.59765625,0.0,1.0,-1.0,0.0,6.m4v,10.0
2024-02-28 13:46:58.583845,1709124418.583845,-37.59765625,-28.80859375,-33.203125,-40.52734375,0.0,1.0,-1.0,0.0,6.m4v,10.0
2024-02-28 13:46:58.587750,1709124418.58775,-46.38671875,-34.1796875,-31.73828125,-46.875,0.0,1.0,-1.0,0.0,6.m4v,10.0
2024-02-28 13:46:58.591655,1709124418.591655,-46.38671875,-33.69140625,-28.3203125,-53.7109375,0.0,1.0,-1.0,0.0,6.m4v,10.0
2024-02-28 13:46:58.595560,1709124418.59556,-54.6875,-32.71484375,-28.3203125,-62.01171875,0.0,1.0,-1.0,0.0,6.m4v,10.0
2024-02-28 13:46:58.599465,1709124418.5994651,-55.17578125,-32.71484375,-30.76171875,-62.01171875,0.0,1.0,-1.0,0.0,6.m4v,10.0
2024-02-28 13:46:58.603370,1709124418.6033702,-55.6640625,-36.1328125,-31.73828125,-61.5234375,0.0,1.0,-1.0,0.0,6.m4v,10.0
2024-02-28 13:46:58.607275,1709124418.6072752,-69.3359375,-42.96875,-31.25,-62.01171875,0.0,1.0,-1.0,0.0,6.m4v,10.0
2024-02-28 13:46:58.611192,1709124418.6111915,-73.73046875,-38.57421875,-26.85546875,-60.546875,0.0,1.0,-1.0,0.0,6.m4v,10.0
2024-02-28 13:46:58.615097,1709124418.6150966,-87.890625,-38.0859375,-23.92578125,-74.21875,0.0,1.0,-1.0,0.0,6.m4v,10.0
2024-02-28 13:46:58.619002,1709124418.6190016,-95.21484375,-41.50390625,-25.390625,-89.84375,0.0,1.0,-1.0,0.0,6.m4v,10.0
2024-02-28 13:46:58.622907,1709124418.6229067,-99.609375,-40.52734375,-30.2734375,-101.5625,0.0,1.0,-1.0,0.0,6.m4v,10.0
2024-02-28 13:46:58.626812,1709124418.6268115,-104.98046875,-40.52734375,-29.296875,-120.60546875,0.0,1.0,-1.0,0.0,6.m4v,10.0
2024-02-28 13:46:58.630717,1709124418.6307168,-113.28125,-48.33984375,-23.4375,-134.765625,0.0,1.0,-1.0,0.0,6.m4v,10.0
2024-02-28 13:46:58.634622,1709124418.634622,-122.0703125,-51.7578125,-25.390625,-143.5546875,0.0,1.0,-1.0,0.0,6.m4v,10.0
2024-02-28 13:46:58.638527,1709124418.638527,-130.37109375,-50.29296875,-29.296875,-151.85546875,0.0,1.0,-1.0,0.0,6.m4v,10.0
2024-02-28 13:46:58.642432,1709124418.6424315,-143.06640625,-55.17578125,-27.83203125,-150.390625,0.0,1.0,-1.0,0.0,6.m4v,10.0
2024-02-28 13:46:58.646337,1709124418.6463368,-151.85546875,-55.17578125,-22.94921875,-144.04296875,0.0,1.0,-1.0,0.0,6.m4v,10.0
2024-02-28 13:46:58.650242,1709124418.650242,-153.80859375,-45.8984375,-25.390625,-154.78515625,0.0,1.0,-1.0,0.0,6.m4v,10.0
2024-02-28 13:46:58.654147,1709124418.654147,-148.92578125,-45.41015625,-27.34375,-149.4140625,0.0,1.0,-1.0,0.0,6.m4v,10.0
2024-02-28 13:46:58.658063,1709124418.658063,-145.99609375,-42.96875,-22.94921875,-144.04296875,0.0,1.0,-1.0,0.0,6.m4v,10.0
2024-02-28 13:46:58.661968,1709124418.661968,-138.671875,-43.9453125,-26.85546875,-141.11328125,0.0,1.0,-1.0,0.0,6.m4v,10.0
2024-02-28 13:46:58.665873,1709124418.665873,-134.765625,-41.9921875,-28.3203125,-137.20703125,0.0,1.0,-1.0,0.0,6.m4v,10.0
2024-02-28 13:46:58.669778,1709124418.669778,-124.51171875,-45.8984375,-25.390625,-126.953125,0.0,1.0,-1.0,0.0,6.m4v,10.0
2024-02-28 13:46:58.673683,1709124418.6736832,-109.86328125,-51.26953125,-31.25,-107.421875,0.0,1.0,-1.0,0.0,6.m4v,10.0
2024-02-28 13:46:58.677588,1709124418.6775882,-101.5625,-41.50390625,-34.1796875,-91.30859375,0.0,1.0,-1.0,0.0,6.m4v,10.0
2024-02-28 13:46:58.681493,1709124418.6814933,-82.51953125,-38.57421875,-39.55078125,-80.078125,0.0,1.0,-1.0,0.0,6.m4v,10.0
2024-02-28 13:46:58.685398,1709124418.6853983,-64.453125,-46.38671875,-42.96875,-79.1015625,0.0,1.0,-1.0,0.0,6.m4v,10.0
2024-02-28 13:46:58.689303,1709124418.6893032,-60.546875,-46.875,-40.52734375,-72.75390625,0.0,1.0,-1.0,0.0,6.m4v,10.0
2024-02-28 13:46:58.693208,1709124418.6932082,-53.22265625,-45.8984375,-41.50390625,-66.89453125,0.0,1.0,-1.0,0.0,6.m4v,10.0
2024-02-28 13:46:58.697113,1709124418.6971133,-32.2265625,-42.96875,-38.0859375,-55.6640625,0.0,1.0,-1.0,0.0,6.m4v,10.0
2024-02-28 13:46:58.701018,1709124418.7010183,-28.3203125,-35.15625,-39.55078125,-44.921875,0.0,1.0,-1.0,0.0,6.m4v,10.0
2024-02-28 13:46:58.704934,1709124418.7049344,-32.71484375,-27.83203125,-43.45703125,-36.1328125,0.0,1.0,-1.0,0.0,6.m4v,10.0
2024-02-28 13:46:58.708839,1709124418.7088394,-33.203125,-33.203125,-40.0390625,-23.92578125,0.0,1.0,-1.0,0.0,6.m4v,10.0
2024-02-28 13:46:58.712744,1709124418.7127445,-27.83203125,-42.96875,-37.59765625,-26.3671875,0.0,1.0,-1.0,0.0,6.m4v,10.0
2024-02-28 13:46:58.716649,1709124418.7166493,-14.6484375,-35.15625,-44.43359375,-21.97265625,0.0,1.0,-1.0,0.0,6.m4v,10.0
2024-02-28 13:46:58.720554,1709124418.7205544,-14.16015625,-30.2734375,-41.015625,-24.90234375,0.0,1.0,-1.0,0.0,6.m4v,10.0
2024-02-28 13:46:58.724459,1709124418.7244594,-8.7890625,-29.296875,-36.1328125,-21.484375,0.0,1.0,-1.0,0.0,6.m4v,10.0
2024-02-28 13:46:58.728364,1709124418.7283645,0.9765625,-29.296875,-39.55078125,-12.20703125,0.0,1.0,-1.0,0.0,6.m4v,10.0
2024-02-28 13:46:58.732270,1709124418.7322695,0.9765625,-34.1796875,-41.9921875,-10.25390625,0.0,1.0,-1.0,0.0,6.m4v,10.0
2024-02-28 13:46:58.736175,1709124418.7361746,0.48828125,-37.59765625,-47.36328125,-6.8359375,0.0,1.0,-1.0,0.0,6.m4v,10.0
2024-02-28 13:46:58.740080,1709124418.7400796,6.34765625,-30.76171875,-45.41015625,-4.8828125,0.0,1.0,-1.0,0.0,6.m4v,10.0
2024-02-28 13:46:58.743985,1709124418.7439847,10.25390625,-24.4140625,-44.43359375,-0.9765625,0.0,1.0,-1.0,0.0,6.m4v,10.0
2024-02-28 13:46:58.747890,1709124418.7478898,13.18359375,-24.4140625,-46.38671875,-1.953125,0.0,1.0,-1.0,0.0,6.m4v,10.0
2024-02-28 13:46:58.751806,1709124418.7518055,17.578125,-25.87890625,-45.8984375,-5.37109375,0.0,1.0,-1.0,0.0,6.m4v,10.0
2024-02-28 13:46:58.755711,1709124418.7557106,18.5546875,-29.296875,-40.52734375,2.9296875,0.0,1.0,-1.0,0.0,6.m4v,10.0
2024-02-28 13:46:58.759615,1709124418.7596154,11.71875,-25.87890625,-40.0390625,3.90625,0.0,1.0,-1.0,0.0,6.m4v,10.0
2024-02-28 13:46:58.763520,1709124418.7635205,9.765625,-22.94921875,-36.62109375,3.90625,0.0,1.0,-1.0,0.0,6.m4v,10.0
2024-02-28 13:46:58.767426,1709124418.7674255,9.27734375,-23.4375,-36.1328125,7.8125,0.0,1.0,-1.0,0.0,6.m4v,10.0
2024-02-28 13:46:58.771331,1709124418.7713306,6.8359375,-25.390625,-39.55078125,-0.48828125,0.0,1.0,-1.0,0.0,6.m4v,10.0
2024-02-28 13:46:58.775236,1709124418.7752357,0.0,-27.34375,-33.69140625,-2.44140625,0.0,1.0,-1.0,0.0,6.m4v,10.0
2024-02-28 13:46:58.779141,1709124418.7791407,-10.7421875,-26.85546875,-31.73828125,0.48828125,0.0,1.0,-1.0,0.0,6.m4v,10.0
2024-02-28 13:46:58.783046,1709124418.7830458,-7.32421875,-28.3203125,-37.109375,1.953125,0.0,1.0,-1.0,0.0,6.m4v,10.0
2024-02-28 13:46:58.786951,1709124418.7869508,1.953125,-29.296875,-33.203125,5.859375,0.0,1.0,-1.0,0.0,6.m4v,10.0
2024-02-28 13:46:58.790856,1709124418.790856,0.9765625,-29.296875,-29.296875,3.41796875,0.0,1.0,-1.0,0.0,6.m4v,10.0
2024-02-28 13:46:58.794761,1709124418.794761,-5.859375,-25.390625,-29.296875,11.23046875,0.0,1.0,-1.0,0.0,6.m4v,10.0
2024-02-28 13:46:58.798676,1709124418.798676,-16.11328125,-27.34375,-30.2734375,10.25390625,0.0,1.0,-1.0,0.0,6.m4v,10.0
2024-02-28 13:46:58.802581,1709124418.8025808,-22.94921875,-35.15625,-37.59765625,-10.7421875,0.0,1.0,-1.0,0.0,6.m4v,10.0
2024-02-28 13:46:58.806486,1709124418.806486,-16.11328125,-35.64453125,-41.015625,-16.6015625,0.0,1.0,-1.0,0.0,6.m4v,10.0
2024-02-28 13:46:58.810391,1709124418.810391,-11.71875,-35.64453125,-34.66796875,-4.39453125,0.0,1.0,-1.0,0.0,6.m4v,10.0
2024-02-28 13:46:58.814296,1709124418.814296,-21.484375,-41.50390625,-34.1796875,-6.8359375,0.0,1.0,-1.0,0.0,6.m4v,10.0
2024-02-28 13:46:58.818201,1709124418.818201,-14.6484375,-32.2265625,-33.69140625,-2.44140625,0.0,1.0,-1.0,0.0,6.m4v,10.0
2024-02-28 13:46:59.220512,1709124419.2205122,-24.90234375,-41.50390625,-24.4140625,-18.5546875,0.0,1.0,-1.0,0.0,6.m4v,10.0
2024-02-28 13:46:59.232227,1709124419.232227,-25.87890625,-35.15625,-28.80859375,-24.90234375,0.0,1.0,-1.0,0.0,6.m4v,10.0
2024-02-28 13:46:59.243942,1709124419.2439425,-29.78515625,-33.69140625,-38.0859375,-21.97265625,0.0,1.0,-1.0,0.0,6.m4v,10.0
2024-02-28 13:46:59.251752,1709124419.2517524,-29.78515625,-36.62109375,-30.2734375,-31.25,0.0,1.0,-1.0,0.0,6.m4v,10.0
2024-02-28 13:46:59.263468,1709124419.2634676,-27.83203125,-31.73828125,-31.73828125,-33.203125,0.0,1.0,-1.0,0.0,6.m4v,10.0
2024-02-28 13:46:59.275192,1709124419.275192,-27.34375,-31.73828125,-27.34375,-23.4375,0.0,1.0,-1.0,0.0,6.m4v,10.0
2024-02-28 13:46:59.283002,1709124419.283002,-31.25,-26.85546875,-33.69140625,-45.8984375,0.0,1.0,-1.0,0.0,6.m4v,10.0
2024-02-28 13:46:59.294717,1709124419.294717,-37.109375,-31.25,-42.48046875,-42.96875,0.0,1.0,-1.0,0.0,6.m4v,10.0
2024-02-28 13:46:59.306432,1709124419.3064322,-19.53125,-33.203125,-24.4140625,-32.71484375,0.0,1.0,-1.0,0.0,6.m4v,10.0
2024-02-28 13:46:59.314251,1709124419.3142514,-37.109375,-31.73828125,-24.4140625,-35.64453125,0.0,1.0,-1.0,0.0,6.m4v,10.0
2024-02-28 13:46:59.325967,1709124419.3259666,-44.921875,-33.203125,-33.203125,-48.33984375,0.0,1.0,-1.0,0.0,6.m4v,10.0
2024-02-28 13:46:59.333777,1709124419.3337767,-57.6171875,-28.80859375,-31.25,-43.9453125,0.0,1.0,-1.0,0.0,6.m4v,10.0
2024-02-28 13:46:59.345492,1709124419.345492,-37.59765625,-37.59765625,-32.71484375,-40.52734375,0.0,1.0,-1.0,0.0,6.m4v,10.0
2024-02-28 13:46:59.353302,1709124419.3533018,-29.78515625,-30.2734375,-33.203125,-30.2734375,0.0,1.0,-1.0,0.0,6.m4v,10.0
2024-02-28 13:46:59.365029,1709124419.3650286,-51.26953125,-47.36328125,-34.1796875,-31.73828125,0.0,1.0,-1.0,0.0,6.m4v,10.0
2024-02-28 13:46:59.372839,1709124419.3728387,-60.05859375,-38.0859375,-36.62109375,-49.31640625,0.0,1.0,-1.0,0.0,6.m4v,10.0
2024-02-28 13:46:59.384554,1709124419.3845537,-35.15625,-31.73828125,-26.85546875,-32.71484375,0.0,1.0,-1.0,0.0,6.m4v,10.0
2024-02-28 13:46:59.392364,1709124419.3923638,-37.109375,-44.921875,-31.25,-24.4140625,0.0,1.0,-1.0,0.0,6.m4v,10.0
2024-02-28 13:46:59.404079,1709124419.404079,-31.73828125,-38.0859375,-31.25,-47.36328125,0.0,1.0,-1.0,0.0,6.m4v,10.0
2024-02-28 13:46:59.411900,1709124419.4119,-32.71484375,-41.50390625,-27.83203125,-32.71484375,0.0,1.0,-1.0,0.0,6.m4v,10.0
2024-02-28 13:46:59.423615,1709124419.4236152,-36.1328125,-40.52734375,-31.73828125,-30.2734375,0.0,1.0,-1.0,0.0,6.m4v,10.0
2024-02-28 13:46:59.431425,1709124419.431425,-21.97265625,-36.1328125,-25.390625,-11.23046875,0.0,1.0,-1.0,0.0,6.m4v,10.0
2024-02-28 13:46:59.443140,1709124419.4431405,-50.29296875,-39.0625,-43.45703125,-48.828125,0.0,1.0,-1.0,0.0,6.m4v,10.0
2024-02-28 13:46:59.450950,1709124419.4509504,-60.546875,-35.64453125,-40.52734375,-53.22265625,0.0,1.0,-1.0,0.0,6.m4v,10.0
2024-02-28 13:46:59.462676,1709124419.4626763,-56.640625,-32.71484375,-39.55078125,-48.828125,0.0,1.0,-1.0,0.0,6.m4v,10.0
2024-02-28 13:46:59.470486,1709124419.4704864,-57.12890625,-32.71484375,-45.8984375,-41.015625,0.0,1.0,-1.0,0.0,6.m4v,10.0
2024-02-28 13:46:59.482201,1709124419.482201,-41.9921875,-26.85546875,-38.0859375,-58.59375,0.0,1.0,-1.0,0.0,6.m4v,10.0
2024-02-28 13:46:59.490011,1709124419.4900117,-30.76171875,-24.4140625,-36.62109375,-45.41015625,0.0,1.0,-1.0,0.0,6.m4v,10.0
2024-02-28 13:46:59.501737,1709124419.5017369,-31.73828125,-36.62109375,-36.62109375,-36.1328125,0.0,1.0,-1.0,0.0,6.m4v,10.0
2024-02-28 13:46:59.509547,1709124419.509547,-37.59765625,-31.25,-44.921875,-52.24609375,0.0,1.0,-1.0,0.0,6.m4v,10.0
2024-02-28 13:46:59.521262,1709124419.5212622,-31.25,-32.2265625,-31.25,-54.6875,0.0,1.0,-1.0,0.0,6.m4v,10.0
2024-02-28 13:46:59.521262,1709124419.5212622,-31.25,-32.2265625,-31.25,-54.6875,0.0,1.0,-1.0,0.0,6.m4v,10.0
2024-02-28 13:46:59.529072,1709124419.5290723,-53.22265625,-33.69140625,-36.62109375,-51.7578125,0.0,1.0,-1.0,0.0,6.m4v,10.0
2024-02-28 13:46:59.529072,1709124419.5290723,-53.22265625,-33.69140625,-36.62109375,-51.7578125,0.0,1.0,-1.0,0.0,6.m4v,10.0
2024-02-28 13:46:59.540787,1709124419.5407877,-28.80859375,-36.1328125,-26.85546875,-35.15625,0.0,1.0,-1.0,0.0,6.m4v,10.0
2024-02-28 13:46:59.540787,1709124419.5407877,-28.80859375,-36.1328125,-26.85546875,-35.15625,0.0,1.0,-1.0,0.0,6.m4v,10.0
2024-02-28 13:46:59.548608,1709124419.5486076,-26.85546875,-34.1796875,-31.25,-38.0859375,0.0,1.0,-1.0,0.0,6.m4v,10.0
2024-02-28 13:46:59.548608,1709124419.5486076,-26.85546875,-34.1796875,-31.25,-38.0859375,0.0,1.0,-1.0,0.0,6.m4v,10.0
2024-02-28 13:46:59.560323,1709124419.5603228,-41.015625,-29.78515625,-39.0625,-34.1796875,0.0,1.0,-1.0,0.0,6.m4v,10.0
2024-02-28 13:46:59.560323,1709124419.5603228,-41.015625,-29.78515625,-39.0625,-34.1796875,0.0,1.0,-1.0,0.0,6.m4v,10.0
2024-02-28 13:46:59.568133,1709124419.5681329,-37.109375,-32.2265625,-39.55078125,-41.015625,0.0,1.0,-1.0,0.0,6.m4v,10.0
2024-02-28 13:46:59.568133,1709124419.5681329,-37.109375,-32.2265625,-39.55078125,-41.015625,0.0,1.0,-1.0,0.0,6.m4v,10.0
2024-02-28 13:46:59.579848,1709124419.5798478,-30.76171875,-36.62109375,-37.109375,-28.3203125,0.0,1.0,-1.0,0.0,6.m4v,10.0
2024-02-28 13:46:59.579848,1709124419.5798478,-30.76171875,-36.62109375,-37.109375,-28.3203125,0.0,1.0,-1.0,0.0,6.m4v,10.0
2024-02-28 13:46:59.587658,1709124419.587658,-26.85546875,-30.2734375,-36.1328125,-27.83203125,0.0,1.0,-1.0,0.0,6.m4v,10.0
2024-02-28 13:46:59.587658,1709124419.587658,-26.85546875,-30.2734375,-36.1328125,-27.83203125,0.0,1.0,-1.0,0.0,6.m4v,10.0
2024-02-28 13:46:59.599383,1709124419.599383,-30.2734375,-30.76171875,-40.52734375,-40.52734375,0.0,1.0,-1.0,0.0,6.m4v,10.0
2024-02-28 13:46:59.599383,1709124419.599383,-30.2734375,-30.76171875,-40.52734375,-40.52734375,0.0,1.0,-1.0,0.0,6.m4v,10.0
2024-02-28 13:46:59.607193,1709124419.6071932,-37.59765625,-33.69140625,-37.109375,-35.64453125,0.0,1.0,-1.0,0.0,6.m4v,10.0
2024-02-28 13:46:59.607193,1709124419.6071932,-37.59765625,-33.69140625,-37.109375,-35.64453125,0.0,1.0,-1.0,0.0,6.m4v,10.0
2024-02-28 13:46:59.618908,1709124419.6189084,-35.15625,-32.71484375,-25.390625,-30.2734375,0.0,1.0,-1.0,0.0,6.m4v,10.0
2024-02-28 13:46:59.618908,1709124419.6189084,-35.15625,-32.71484375,-25.390625,-30.2734375,0.0,1.0,-1.0,0.0,6.m4v,10.0
2024-02-28 13:46:59.626719,1709124419.6267183,-35.64453125,-37.109375,-28.3203125,-29.296875,0.0,1.0,-1.0,0.0,6.m4v,10.0
2024-02-28 13:46:59.626719,1709124419.6267183,-35.64453125,-37.109375,-28.3203125,-29.296875,0.0,1.0,-1.0,0.0,6.m4v,10.0
2024-02-28 13:46:59.638433,1709124419.6384337,-45.41015625,-33.69140625,-37.109375,-34.66796875,0.0,1.0,-1.0,0.0,6.m4v,10.0
2024-02-28 13:46:59.638433,1709124419.6384337,-45.41015625,-33.69140625,-37.109375,-34.66796875,0.0,1.0,-1.0,0.0,6.m4v,10.0
2024-02-28 13:46:59.646253,1709124419.646253,-49.8046875,-25.87890625,-35.64453125,-26.3671875,0.0,1.0,-1.0,0.0,6.m4v,10.0
2024-02-28 13:46:59.646253,1709124419.646253,-49.8046875,-25.87890625,-35.64453125,-26.3671875,0.0,1.0,-1.0,0.0,6.m4v,10.0
2024-02-28 13:46:59.657968,1709124419.657968,-29.78515625,-31.73828125,-35.64453125,-28.3203125,0.0,1.0,-1.0,0.0,6.m4v,10.0
2024-02-28 13:46:59.657968,1709124419.657968,-29.78515625,-31.73828125,-35.64453125,-28.3203125,0.0,1.0,-1.0,0.0,6.m4v,10.0
2024-02-28 13:46:59.665778,1709124419.6657782,-32.71484375,-35.64453125,-36.1328125,-26.85546875,0.0,1.0,-1.0,0.0,6.m4v,10.0
2024-02-28 13:46:59.665778,1709124419.6657782,-32.71484375,-35.64453125,-36.1328125,-26.85546875,0.0,1.0,-1.0,0.0,6.m4v,10.0
2024-02-28 13:46:59.673588,1709124419.6735885,-27.83203125,-34.1796875,-32.71484375,-28.3203125,0.0,1.0,-1.0,0.0,6.m4v,10.0
2024-02-28 13:46:59.677493,1709124419.677493,-28.80859375,-29.296875,-31.25,-31.25,0.0,1.0,-1.0,0.0,6.m4v,10.0
2024-02-28 13:46:59.681398,1709124419.6813984,-27.34375,-24.4140625,-28.3203125,-26.3671875,0.0,1.0,-1.0,0.0,6.m4v,10.0
2024-02-28 13:46:59.685303,1709124419.6853034,-26.85546875,-26.3671875,-27.83203125,-29.296875,0.0,1.0,-1.0,0.0,6.m4v,10.0
2024-02-28 13:46:59.689217,1709124419.689217,-29.78515625,-29.78515625,-28.3203125,-40.52734375,0.0,1.0,-1.0,0.0,6.m4v,10.0
2024-02-28 13:46:59.693122,1709124419.6931224,-36.62109375,-30.76171875,-27.34375,-39.55078125,0.0,1.0,-1.0,0.0,6.m4v,10.0
2024-02-28 13:46:59.697027,1709124419.6970274,-46.875,-33.69140625,-26.3671875,-35.15625,0.0,1.0,-1.0,0.0,6.m4v,10.0
2024-02-28 13:46:59.700933,1709124419.7009325,-53.22265625,-36.62109375,-27.83203125,-38.0859375,0.0,1.0,-1.0,0.0,6.m4v,10.0
2024-02-28 13:46:59.704838,1709124419.7048376,-42.48046875,-31.73828125,-30.2734375,-42.48046875,0.0,1.0,-1.0,0.0,6.m4v,10.0
2024-02-28 13:46:59.708743,1709124419.7087426,-37.59765625,-28.3203125,-39.55078125,-45.41015625,0.0,1.0,-1.0,0.0,6.m4v,10.0
2024-02-28 13:46:59.712648,1709124419.7126477,-42.48046875,-34.66796875,-42.96875,-46.38671875,0.0,1.0,-1.0,0.0,6.m4v,10.0
2024-02-28 13:46:59.716552,1709124419.7165525,-34.66796875,-33.203125,-31.73828125,-40.52734375,0.0,1.0,-1.0,0.0,6.m4v,10.0
2024-02-28 13:46:59.720458,1709124419.7204576,-21.97265625,-31.25,-32.2265625,-31.25,0.0,1.0,-1.0,0.0,6.m4v,10.0
2024-02-28 13:46:59.724363,1709124419.7243626,-23.92578125,-31.73828125,-41.50390625,-37.109375,0.0,1.0,-1.0,0.0,6.m4v,10.0
2024-02-28 13:46:59.728268,1709124419.7282677,-28.80859375,-32.71484375,-37.59765625,-41.9921875,0.0,1.0,-1.0,0.0,6.m4v,10.0
2024-02-28 13:46:59.732173,1709124419.7321727,-23.92578125,-40.0390625,-32.2265625,-34.66796875,0.0,1.0,-1.0,0.0,6.m4v,10.0
2024-02-28 13:46:59.736089,1709124419.7360892,-26.3671875,-38.0859375,-31.73828125,-35.64453125,0.0,1.0,-1.0,0.0,6.m4v,10.0
2024-02-28 13:46:59.739994,1709124419.7399943,-32.71484375,-38.0859375,-32.71484375,-46.875,0.0,1.0,-1.0,0.0,6.m4v,10.0
2024-02-28 13:46:59.743899,1709124419.743899,-30.2734375,-43.45703125,-34.66796875,-46.875,0.0,1.0,-1.0,0.0,6.m4v,10.0
2024-02-28 13:46:59.747804,1709124419.7478042,-29.78515625,-39.0625,-31.73828125,-36.62109375,0.0,1.0,-1.0,0.0,6.m4v,10.0
2024-02-28 13:46:59.751709,1709124419.7517092,-27.83203125,-40.0390625,-30.2734375,-28.80859375,0.0,1.0,-1.0,0.0,6.m4v,10.0
2024-02-28 13:46:59.755614,1709124419.7556145,-27.83203125,-41.015625,-28.3203125,-31.73828125,0.0,1.0,-1.0,0.0,6.m4v,10.0
2024-02-28 13:46:59.759519,1709124419.759519,-27.34375,-40.0390625,-26.85546875,-36.62109375,0.0,1.0,-1.0,0.0,6.m4v,10.0
2024-02-28 13:46:59.763424,1709124419.7634244,-29.78515625,-40.0390625,-36.1328125,-29.78515625,0.0,1.0,-1.0,0.0,6.m4v,10.0
2024-02-28 13:46:59.767329,1709124419.7673297,-40.52734375,-32.71484375,-39.0625,-34.1796875,0.0,1.0,-1.0,0.0,6.m4v,10.0
2024-02-28 13:46:59.771235,1709124419.7712345,-43.9453125,-34.66796875,-35.64453125,-45.41015625,0.0,1.0,-1.0,0.0,6.m4v,10.0
2024-02-28 13:46:59.775140,1709124419.7751396,-42.48046875,-38.0859375,-37.109375,-48.33984375,0.0,1.0,-1.0,0.0,6.m4v,10.0
2024-02-28 13:46:59.779045,1709124419.7790446,-44.921875,-31.25,-37.109375,-44.921875,0.0,1.0,-1.0,0.0,6.m4v,10.0
2024-02-28 13:46:59.782961,1709124419.782961,-47.8515625,-25.390625,-36.1328125,-41.9921875,0.0,1.0,-1.0,0.0,6.m4v,10.0
2024-02-28 13:46:59.786866,1709124419.786866,-43.9453125,-20.5078125,-35.64453125,-47.8515625,0.0,1.0,-1.0,0.0,6.m4v,10.0
2024-02-28 13:46:59.790771,1709124419.7907708,-40.0390625,-24.4140625,-32.2265625,-39.0625,0.0,1.0,-1.0,0.0,6.m4v,10.0
2024-02-28 13:46:59.794676,1709124419.7946758,-34.1796875,-29.296875,-25.390625,-36.1328125,0.0,1.0,-1.0,0.0,6.m4v,10.0
2024-02-28 13:46:59.798581,1709124419.798581,-23.4375,-24.90234375,-24.90234375,-55.6640625,0.0,1.0,-1.0,0.0,6.m4v,10.0
2024-02-28 13:46:59.802486,1709124419.802486,-11.71875,-29.78515625,-27.34375,-53.7109375,0.0,1.0,-1.0,0.0,6.m4v,10.0
2024-02-28 13:47:00.251669,1709124420.251669,-168.45703125,-52.24609375,-16.6015625,-146.484375,0.0,1.0,-1.0,0.0,6.m4v,10.0
2024-02-28 13:47:00.255574,1709124420.255574,-159.66796875,-60.05859375,-18.06640625,-133.7890625,0.0,1.0,-1.0,0.0,6.m4v,10.0
2024-02-28 13:47:00.259479,1709124420.259479,-138.18359375,-56.640625,-15.625,-118.65234375,0.0,1.0,-1.0,0.0,6.m4v,10.0
2024-02-28 13:47:00.259479,1709124420.259479,-138.18359375,-56.640625,-15.625,-118.65234375,0.0,1.0,-1.0,0.0,6.m4v,10.0
2024-02-28 13:47:00.263384,1709124420.263384,-128.41796875,-57.6171875,-20.01953125,-117.67578125,0.0,1.0,-1.0,0.0,6.m4v,10.0
2024-02-28 13:47:00.263384,1709124420.263384,-128.41796875,-57.6171875,-20.01953125,-117.67578125,0.0,1.0,-1.0,0.0,6.m4v,10.0
2024-02-28 13:47:00.267289,1709124420.2672892,-119.140625,-61.03515625,-24.4140625,-106.93359375,0.0,1.0,-1.0,0.0,6.m4v,10.0
2024-02-28 13:47:00.267289,1709124420.2672892,-119.140625,-61.03515625,-24.4140625,-106.93359375,0.0,1.0,-1.0,0.0,6.m4v,10.0
2024-02-28 13:47:00.271194,1709124420.271194,-104.98046875,-52.24609375,-18.06640625,-94.23828125,0.0,1.0,-1.0,0.0,6.m4v,10.0
2024-02-28 13:47:00.271194,1709124420.271194,-104.98046875,-52.24609375,-18.06640625,-94.23828125,0.0,1.0,-1.0,0.0,6.m4v,10.0
2024-02-28 13:47:00.275099,1709124420.275099,-101.5625,-46.875,-18.06640625,-83.0078125,0.0,1.0,-1.0,0.0,6.m4v,10.0
2024-02-28 13:47:00.275099,1709124420.275099,-101.5625,-46.875,-18.06640625,-83.0078125,0.0,1.0,-1.0,0.0,6.m4v,10.0
2024-02-28 13:47:00.279004,1709124420.279004,-89.35546875,-51.7578125,-20.5078125,-66.89453125,0.0,1.0,-1.0,0.0,6.m4v,10.0
2024-02-28 13:47:00.279004,1709124420.279004,-89.35546875,-51.7578125,-20.5078125,-66.89453125,0.0,1.0,-1.0,0.0,6.m4v,10.0
2024-02-28 13:47:00.282909,1709124420.2829092,-66.89453125,-38.57421875,-20.99609375,-55.6640625,0.0,1.0,-1.0,0.0,6.m4v,10.0
2024-02-28 13:47:00.282909,1709124420.2829092,-66.89453125,-38.57421875,-20.99609375,-55.6640625,0.0,1.0,-1.0,0.0,6.m4v,10.0
2024-02-28 13:47:00.286814,1709124420.2868142,-44.43359375,-26.3671875,-20.99609375,-47.8515625,0.0,1.0,-1.0,0.0,6.m4v,10.0
2024-02-28 13:47:00.286814,1709124420.2868142,-44.43359375,-26.3671875,-20.99609375,-47.8515625,0.0,1.0,-1.0,0.0,6.m4v,10.0
2024-02-28 13:47:00.290719,1709124420.2907193,-37.59765625,-32.71484375,-22.94921875,-37.109375,0.0,1.0,-1.0,0.0,6.m4v,10.0
2024-02-28 13:47:00.290719,1709124420.2907193,-37.59765625,-32.71484375,-22.94921875,-37.109375,0.0,1.0,-1.0,0.0,6.m4v,10.0
2024-02-28 13:47:00.294624,1709124420.2946243,-49.31640625,-38.57421875,-26.3671875,-23.92578125,0.0,1.0,-1.0,0.0,6.m4v,10.0
2024-02-28 13:47:00.294624,1709124420.2946243,-49.31640625,-38.57421875,-26.3671875,-23.92578125,0.0,1.0,-1.0,0.0,6.m4v,10.0
2024-02-28 13:47:00.298539,1709124420.2985394,-34.66796875,-36.62109375,-28.3203125,-25.87890625,0.0,1.0,-1.0,0.0,6.m4v,10.0
2024-02-28 13:47:00.298539,1709124420.2985394,-34.66796875,-36.62109375,-28.3203125,-25.87890625,0.0,1.0,-1.0,0.0,6.m4v,10.0
2024-02-28 13:47:00.302444,1709124420.3024445,-12.20703125,-38.0859375,-27.34375,-20.99609375,0.0,1.0,-1.0,0.0,6.m4v,10.0
2024-02-28 13:47:00.302444,1709124420.3024445,-12.20703125,-38.0859375,-27.34375,-20.99609375,0.0,1.0,-1.0,0.0,6.m4v,10.0
2024-02-28 13:47:00.306350,1709124420.3063495,-12.20703125,-40.52734375,-28.80859375,-10.7421875,0.0,1.0,-1.0,0.0,6.m4v,10.0
2024-02-28 13:47:00.306350,1709124420.3063495,-12.20703125,-40.52734375,-28.80859375,-10.7421875,0.0,1.0,-1.0,0.0,6.m4v,10.0
2024-02-28 13:47:00.310255,1709124420.3102546,-12.6953125,-33.69140625,-28.3203125,-14.16015625,0.0,1.0,-1.0,0.0,6.m4v,10.0
2024-02-28 13:47:00.310255,1709124420.3102546,-12.6953125,-33.69140625,-28.3203125,-14.16015625,0.0,1.0,-1.0,0.0,6.m4v,10.0
2024-02-28 13:47:00.314160,1709124420.3141596,-5.859375,-33.203125,-27.83203125,-10.25390625,0.0,1.0,-1.0,0.0,6.m4v,10.0
2024-02-28 13:47:00.314160,1709124420.3141596,-5.859375,-33.203125,-27.83203125,-10.25390625,0.0,1.0,-1.0,0.0,6.m4v,10.0
2024-02-28 13:47:00.318064,1709124420.3180645,-0.9765625,-31.25,-26.85546875,7.32421875,0.0,1.0,-1.0,0.0,6.m4v,10.0
2024-02-28 13:47:00.318064,1709124420.3180645,-0.9765625,-31.25,-26.85546875,7.32421875,0.0,1.0,-1.0,0.0,6.m4v,10.0
2024-02-28 13:47:00.321970,1709124420.3219695,2.9296875,-31.25,-25.87890625,13.671875,0.0,1.0,-1.0,0.0,6.m4v,10.0
2024-02-28 13:47:00.321970,1709124420.3219695,2.9296875,-31.25,-25.87890625,13.671875,0.0,1.0,-1.0,0.0,6.m4v,10.0
2024-02-28 13:47:00.325875,1709124420.3258746,6.34765625,-31.25,-24.4140625,1.46484375,0.0,1.0,-1.0,0.0,6.m4v,10.0
2024-02-28 13:47:00.325875,1709124420.3258746,6.34765625,-31.25,-24.4140625,1.46484375,0.0,1.0,-1.0,0.0,6.m4v,10.0
2024-02-28 13:47:00.329780,1709124420.3297796,11.23046875,-28.80859375,-34.1796875,-1.46484375,0.0,1.0,-1.0,0.0,6.m4v,10.0
2024-02-28 13:47:00.329780,1709124420.3297796,11.23046875,-28.80859375,-34.1796875,-1.46484375,0.0,1.0,-1.0,0.0,6.m4v,10.0
2024-02-28 13:47:00.333685,1709124420.3336847,7.8125,-34.1796875,-41.015625,3.41796875,0.0,1.0,-1.0,0.0,6.m4v,10.0
2024-02-28 13:47:00.333685,1709124420.3336847,7.8125,-34.1796875,-41.015625,3.41796875,0.0,1.0,-1.0,0.0,6.m4v,10.0
2024-02-28 13:47:00.337590,1709124420.3375895,7.32421875,-36.62109375,-39.55078125,16.6015625,0.0,1.0,-1.0,0.0,6.m4v,10.0
2024-02-28 13:47:00.337590,1709124420.3375895,7.32421875,-36.62109375,-39.55078125,16.6015625,0.0,1.0,-1.0,0.0,6.m4v,10.0
2024-02-28 13:47:00.341495,1709124420.3414948,10.25390625,-35.15625,-36.1328125,20.5078125,0.0,1.0,-1.0,0.0,6.m4v,10.0
2024-02-28 13:47:00.341495,1709124420.3414948,10.25390625,-35.15625,-36.1328125,20.5078125,0.0,1.0,-1.0,0.0,6.m4v,10.0
2024-02-28 13:47:00.345409,1709124420.3454094,9.27734375,-34.1796875,-36.1328125,12.6953125,0.0,1.0,-1.0,0.0,6.m4v,10.0
2024-02-28 13:47:00.345409,1709124420.3454094,9.27734375,-34.1796875,-36.1328125,12.6953125,0.0,1.0,-1.0,0.0,6.m4v,10.0
2024-02-28 13:47:00.349314,1709124420.3493145,7.32421875,-32.2265625,-38.57421875,4.8828125,0.0,1.0,-1.0,0.0,6.m4v,10.0
2024-02-28 13:47:00.349314,1709124420.3493145,7.32421875,-32.2265625,-38.57421875,4.8828125,0.0,1.0,-1.0,0.0,6.m4v,10.0
2024-02-28 13:47:00.353220,1709124420.3532195,11.71875,-27.83203125,-40.52734375,5.37109375,0.0,1.0,-1.0,0.0,6.m4v,10.0
2024-02-28 13:47:00.353220,1709124420.3532195,11.71875,-27.83203125,-40.52734375,5.37109375,0.0,1.0,-1.0,0.0,6.m4v,10.0
2024-02-28 13:47:00.357125,1709124420.3571246,16.6015625,-30.76171875,-38.57421875,15.625,0.0,1.0,-1.0,0.0,6.m4v,10.0
2024-02-28 13:47:00.357125,1709124420.3571246,16.6015625,-30.76171875,-38.57421875,15.625,0.0,1.0,-1.0,0.0,6.m4v,10.0
2024-02-28 13:47:00.361030,1709124420.3610296,16.6015625,-33.69140625,-29.78515625,12.6953125,0.0,1.0,-1.0,0.0,6.m4v,10.0
2024-02-28 13:47:00.361030,1709124420.3610296,16.6015625,-33.69140625,-29.78515625,12.6953125,0.0,1.0,-1.0,0.0,6.m4v,10.0
2024-02-28 13:47:00.364935,1709124420.3649347,18.06640625,-27.34375,-29.78515625,3.90625,0.0,1.0,-1.0,0.0,6.m4v,10.0
2024-02-28 13:47:00.364935,1709124420.3649347,18.06640625,-27.34375,-29.78515625,3.90625,0.0,1.0,-1.0,0.0,6.m4v,10.0
2024-02-28 13:47:00.368840,1709124420.3688395,18.06640625,-28.80859375,-34.1796875,0.0,0.0,1.0,-1.0,0.0,6.m4v,10.0
2024-02-28 13:47:00.368840,1709124420.3688395,18.06640625,-28.80859375,-34.1796875,0.0,0.0,1.0,-1.0,0.0,6.m4v,10.0
2024-02-28 13:47:00.372745,1709124420.3727448,12.20703125,-33.203125,-35.64453125,6.8359375,0.0,1.0,-1.0,0.0,6.m4v,10.0
2024-02-28 13:47:00.372745,1709124420.3727448,12.20703125,-33.203125,-35.64453125,6.8359375,0.0,1.0,-1.0,0.0,6.m4v,10.0
2024-02-28 13:47:00.376650,1709124420.37665,15.625,-33.69140625,-31.25,12.20703125,0.0,1.0,-1.0,0.0,6.m4v,10.0
2024-02-28 13:47:00.376650,1709124420.37665,15.625,-33.69140625,-31.25,12.20703125,0.0,1.0,-1.0,0.0,6.m4v,10.0
2024-02-28 13:47:00.380555,1709124420.380555,19.53125,-34.66796875,-27.83203125,13.671875,0.0,1.0,-1.0,0.0,6.m4v,10.0
2024-02-28 13:47:00.380555,1709124420.380555,19.53125,-34.66796875,-27.83203125,13.671875,0.0,1.0,-1.0,0.0,6.m4v,10.0
2024-02-28 13:47:00.384460,1709124420.38446,13.671875,-28.3203125,-34.1796875,3.90625,0.0,1.0,-1.0,0.0,6.m4v,10.0
2024-02-28 13:47:00.384460,1709124420.38446,13.671875,-28.3203125,-34.1796875,3.90625,0.0,1.0,-1.0,0.0,6.m4v,10.0
2024-02-28 13:47:00.388365,1709124420.388365,8.30078125,-23.92578125,-39.0625,-7.8125,0.0,1.0,-1.0,0.0,6.m4v,10.0
2024-02-28 13:47:00.388365,1709124420.388365,8.30078125,-23.92578125,-39.0625,-7.8125,0.0,1.0,-1.0,0.0,6.m4v,10.0
2024-02-28 13:47:00.392279,1709124420.3922794,7.8125,-28.3203125,-39.0625,-3.41796875,0.0,1.0,-1.0,0.0,6.m4v,10.0
2024-02-28 13:47:00.392279,1709124420.3922794,7.8125,-28.3203125,-39.0625,-3.41796875,0.0,1.0,-1.0,0.0,6.m4v,10.0
2024-02-28 13:47:00.396184,1709124420.3961844,15.13671875,-28.3203125,-34.66796875,2.9296875,0.0,1.0,-1.0,0.0,6.m4v,10.0
2024-02-28 13:47:00.396184,1709124420.3961844,15.13671875,-28.3203125,-34.66796875,2.9296875,0.0,1.0,-1.0,0.0,6.m4v,10.0
2024-02-28 13:47:00.400090,1709124420.4000895,13.18359375,-28.3203125,-37.59765625,9.27734375,0.0,1.0,-1.0,0.0,6.m4v,10.0
2024-02-28 13:47:00.400090,1709124420.4000895,13.18359375,-28.3203125,-37.59765625,9.27734375,0.0,1.0,-1.0,0.0,6.m4v,10.0
2024-02-28 13:47:00.403995,1709124420.4039946,6.34765625,-27.34375,-35.64453125,17.08984375,0.0,1.0,-1.0,0.0,6.m4v,10.0
2024-02-28 13:47:00.403995,1709124420.4039946,6.34765625,-27.34375,-35.64453125,17.08984375,0.0,1.0,-1.0,0.0,6.m4v,10.0
2024-02-28 13:47:00.407900,1709124420.4078996,9.765625,-26.3671875,-25.390625,12.20703125,0.0,1.0,-1.0,0.0,6.m4v,10.0
2024-02-28 13:47:00.407900,1709124420.4078996,9.765625,-26.3671875,-25.390625,12.20703125,0.0,1.0,-1.0,0.0,6.m4v,10.0
2024-02-28 13:47:00.411805,1709124420.411805,20.01953125,-24.90234375,-24.90234375,1.953125,0.0,1.0,-1.0,0.0,6.m4v,10.0
2024-02-28 13:47:00.411805,1709124420.411805,20.01953125,-24.90234375,-24.90234375,1.953125,0.0,1.0,-1.0,0.0,6.m4v,10.0
2024-02-28 13:47:00.415710,1709124420.4157095,19.53125,-26.85546875,-31.73828125,-2.44140625,0.0,1.0,-1.0,0.0,6.m4v,10.0
2024-02-28 13:47:00.415710,1709124420.4157095,19.53125,-26.85546875,-31.73828125,-2.44140625,0.0,1.0,-1.0,0.0,6.m4v,10.0
2024-02-28 13:47:00.611004,1709124420.611004,-34.1796875,-34.66796875,-41.9921875,-40.0390625,0.0,1.0,-1.0,0.0,6.m4v,10.0
2024-02-28 13:47:00.614909,1709124420.6149092,-38.0859375,-37.109375,-37.59765625,-34.1796875,0.0,1.0,-1.0,0.0,6.m4v,10.0
2024-02-28 13:47:00.618814,1709124420.6188142,-35.64453125,-41.50390625,-32.71484375,-30.76171875,0.0,1.0,-1.0,0.0,6.m4v,10.0
2024-02-28 13:47:00.622719,1709124420.6227193,-31.73828125,-39.55078125,-35.15625,-25.87890625,0.0,1.0,-1.0,0.0,6.m4v,10.0
2024-02-28 13:47:00.626635,1709124420.6266348,-30.76171875,-33.203125,-40.0390625,-33.203125,0.0,1.0,-1.0,0.0,6.m4v,10.0
2024-02-28 13:47:00.630540,1709124420.63054,-24.4140625,-31.73828125,-38.57421875,-39.0625,0.0,1.0,-1.0,0.0,6.m4v,10.0
2024-02-28 13:47:00.634445,1709124420.634445,-14.6484375,-29.78515625,-34.66796875,-21.97265625,0.0,1.0,-1.0,0.0,6.m4v,10.0
2024-02-28 13:47:00.638350,1709124420.63835,-19.04296875,-21.97265625,-33.203125,-14.6484375,0.0,1.0,-1.0,0.0,6.m4v,10.0
2024-02-28 13:47:00.642255,1709124420.642255,-36.1328125,-29.296875,-34.66796875,-29.78515625,0.0,1.0,-1.0,0.0,6.m4v,10.0
2024-02-28 13:47:00.646160,1709124420.64616,-42.96875,-38.0859375,-35.64453125,-28.80859375,0.0,1.0,-1.0,0.0,6.m4v,10.0
2024-02-28 13:47:00.650065,1709124420.6500652,-43.45703125,-35.64453125,-37.109375,-27.34375,0.0,1.0,-1.0,0.0,6.m4v,10.0
2024-02-28 13:47:00.653970,1709124420.65397,-34.1796875,-31.73828125,-31.73828125,-22.4609375,0.0,1.0,-1.0,0.0,6.m4v,10.0
2024-02-28 13:47:00.657875,1709124420.657875,-21.97265625,-31.25,-29.296875,-16.6015625,0.0,1.0,-1.0,0.0,6.m4v,10.0
2024-02-28 13:47:00.661780,1709124420.66178,-32.71484375,-33.203125,-36.62109375,-34.1796875,0.0,1.0,-1.0,0.0,6.m4v,10.0
2024-02-28 13:47:00.665685,1709124420.6656852,-33.203125,-26.85546875,-37.109375,-35.64453125,0.0,1.0,-1.0,0.0,6.m4v,10.0
2024-02-28 13:47:00.669590,1709124420.6695902,-20.5078125,-23.92578125,-33.69140625,-27.83203125,0.0,1.0,-1.0,0.0,6.m4v,10.0
2024-02-28 13:47:00.673506,1709124420.6735055,-26.3671875,-29.78515625,-31.73828125,-30.2734375,0.0,1.0,-1.0,0.0,6.m4v,10.0
2024-02-28 13:47:00.677411,1709124420.6774106,-45.8984375,-31.25,-41.50390625,-35.64453125,0.0,1.0,-1.0,0.0,6.m4v,10.0
2024-02-28 13:47:00.681316,1709124420.6813157,-52.24609375,-36.1328125,-50.78125,-42.96875,0.0,1.0,-1.0,0.0,6.m4v,10.0
2024-02-28 13:47:00.685221,1709124420.6852207,-50.78125,-32.71484375,-43.9453125,-47.8515625,0.0,1.0,-1.0,0.0,6.m4v,10.0
2024-02-28 13:47:00.689126,1709124420.6891258,-47.36328125,-29.78515625,-41.50390625,-51.26953125,0.0,1.0,-1.0,0.0,6.m4v,10.0
2024-02-28 13:47:00.693031,1709124420.6930308,-40.0390625,-33.69140625,-43.45703125,-44.921875,0.0,1.0,-1.0,0.0,6.m4v,10.0
2024-02-28 13:47:00.696936,1709124420.696936,-47.36328125,-30.76171875,-44.43359375,-39.0625,0.0,1.0,-1.0,0.0,6.m4v,10.0
2024-02-28 13:47:00.700841,1709124420.700841,-55.17578125,-27.34375,-41.9921875,-30.2734375,0.0,1.0,-1.0,0.0,6.m4v,10.0
2024-02-28 13:47:00.704746,1709124420.704746,-37.59765625,-31.73828125,-36.62109375,-12.20703125,0.0,1.0,-1.0,0.0,6.m4v,10.0
2024-02-28 13:47:00.708651,1709124420.708651,-34.66796875,-30.76171875,-38.0859375,-6.8359375,0.0,1.0,-1.0,0.0,6.m4v,10.0
2024-02-28 13:47:00.712556,1709124420.712556,-38.57421875,-24.90234375,-42.48046875,-25.390625,0.0,1.0,-1.0,0.0,6.m4v,10.0
2024-02-28 13:47:00.716461,1709124420.716461,-36.1328125,-25.87890625,-39.0625,-34.66796875,0.0,1.0,-1.0,0.0,6.m4v,10.0
2024-02-28 13:47:00.720376,1709124420.7203758,-35.64453125,-27.83203125,-35.64453125,-30.2734375,0.0,1.0,-1.0,0.0,6.m4v,10.0
2024-02-28 13:47:00.724281,1709124420.7242808,-30.76171875,-28.80859375,-39.0625,-37.109375,0.0,1.0,-1.0,0.0,6.m4v,10.0
2024-02-28 13:47:00.728186,1709124420.728186,-34.66796875,-29.78515625,-41.9921875,-38.0859375,0.0,1.0,-1.0,0.0,6.m4v,10.0
2024-02-28 13:47:00.732091,1709124420.732091,-34.1796875,-34.66796875,-38.0859375,-23.92578125,0.0,1.0,-1.0,0.0,6.m4v,10.0
2024-02-28 13:47:00.732091,1709124420.732091,-34.1796875,-34.66796875,-38.0859375,-23.92578125,0.0,1.0,-1.0,0.0,6.m4v,10.0
2024-02-28 13:47:00.735996,1709124420.735996,-30.2734375,-39.55078125,-35.64453125,-20.01953125,0.0,1.0,-1.0,0.0,6.m4v,10.0
2024-02-28 13:47:00.735996,1709124420.735996,-30.2734375,-39.55078125,-35.64453125,-20.01953125,0.0,1.0,-1.0,0.0,6.m4v,10.0
2024-02-28 13:47:00.739901,1709124420.739901,-25.87890625,-29.78515625,-39.0625,-24.90234375,0.0,1.0,-1.0,0.0,6.m4v,10.0
2024-02-28 13:47:00.743806,1709124420.743806,-27.34375,-28.80859375,-37.109375,-29.296875,0.0,1.0,-1.0,0.0,6.m4v,10.0
2024-02-28 13:47:00.743806,1709124420.743806,-27.34375,-28.80859375,-37.109375,-29.296875,0.0,1.0,-1.0,0.0,6.m4v,10.0
2024-02-28 13:47:00.747711,1709124420.747711,-32.71484375,-39.0625,-35.64453125,-27.83203125,0.0,1.0,-1.0,0.0,6.m4v,10.0
2024-02-28 13:47:00.747711,1709124420.747711,-32.71484375,-39.0625,-35.64453125,-27.83203125,0.0,1.0,-1.0,0.0,6.m4v,10.0
2024-02-28 13:47:00.751616,1709124420.751616,-35.15625,-35.15625,-36.62109375,-27.83203125,0.0,1.0,-1.0,0.0,6.m4v,10.0
2024-02-28 13:47:00.755521,1709124420.755521,-33.69140625,-31.73828125,-31.25,-31.73828125,0.0,1.0,-1.0,0.0,6.m4v,10.0
2024-02-28 13:47:00.755521,1709124420.755521,-33.69140625,-31.73828125,-31.25,-31.73828125,0.0,1.0,-1.0,0.0,6.m4v,10.0
2024-02-28 13:47:00.790676,1709124420.790676,-37.59765625,-31.25,-34.66796875,-29.296875,0.0,1.0,-1.0,0.0,6.m4v,10.0
2024-02-28 13:47:00.794581,1709124420.794581,-36.62109375,-33.69140625,-35.15625,-32.71484375,0.0,1.0,-1.0,0.0,6.m4v,10.0
2024-02-28 13:47:00.798486,1709124420.798486,-31.25,-30.76171875,-35.15625,-34.66796875,0.0,1.0,-1.0,0.0,6.m4v,10.0
2024-02-28 13:47:00.802391,1709124420.802391,-41.50390625,-30.76171875,-37.109375,-39.55078125,0.0,1.0,-1.0,0.0,6.m4v,10.0
2024-02-28 13:47:00.806296,1709124420.806296,-50.78125,-30.76171875,-38.57421875,-40.52734375,0.0,1.0,-1.0,0.0,6.m4v,10.0
2024-02-28 13:47:00.810201,1709124420.810201,-44.921875,-34.66796875,-39.0625,-41.015625,0.0,1.0,-1.0,0.0,6.m4v,10.0
2024-02-28 13:47:00.814115,1709124420.8141153,-45.8984375,-31.73828125,-35.15625,-36.1328125,0.0,1.0,-1.0,0.0,6.m4v,10.0
2024-02-28 13:47:00.818020,1709124420.81802,-42.96875,-30.2734375,-32.2265625,-29.78515625,0.0,1.0,-1.0,0.0,6.m4v,10.0
2024-02-28 13:47:00.821925,1709124420.8219252,-39.55078125,-35.64453125,-32.71484375,-33.203125,0.0,1.0,-1.0,0.0,6.m4v,10.0
2024-02-28 13:47:00.825830,1709124420.8258302,-39.55078125,-34.1796875,-36.62109375,-41.015625,0.0,1.0,-1.0,0.0,6.m4v,10.0
2024-02-28 13:47:00.829735,1709124420.8297353,-43.45703125,-30.76171875,-38.0859375,-40.52734375,0.0,1.0,-1.0,0.0,6.m4v,10.0
2024-02-28 13:47:00.833640,1709124420.8336403,-47.36328125,-25.390625,-32.2265625,-34.1796875,0.0,1.0,-1.0,0.0,6.m4v,10.0
2024-02-28 13:47:01.263288,1709124421.2632885,-32.2265625,-38.57421875,-21.484375,-23.92578125,0.0,1.0,-1.0,0.0,6.m4v,10.0
2024-02-28 13:47:01.267193,1709124421.2671933,-25.87890625,-43.9453125,-24.90234375,-30.2734375,0.0,1.0,-1.0,0.0,6.m4v,10.0
2024-02-28 13:47:01.271098,1709124421.2710984,-27.83203125,-44.43359375,-24.90234375,-36.62109375,0.0,1.0,-1.0,0.0,6.m4v,10.0
2024-02-28 13:47:01.275003,1709124421.2750034,-22.4609375,-37.109375,-27.34375,-34.1796875,0.0,1.0,-1.0,0.0,6.m4v,10.0
2024-02-28 13:47:01.278908,1709124421.2789085,-22.94921875,-29.296875,-36.62109375,-36.1328125,0.0,1.0,-1.0,0.0,6.m4v,10.0
2024-02-28 13:47:01.282825,1709124421.2828248,-34.1796875,-32.71484375,-35.64453125,-40.52734375,0.0,1.0,-1.0,0.0,6.m4v,10.0
2024-02-28 13:47:01.282825,1709124421.2828248,-34.1796875,-32.71484375,-35.64453125,-40.52734375,0.0,1.0,-1.0,0.0,6.m4v,10.0
2024-02-28 13:47:01.286730,1709124421.2867298,-31.25,-35.15625,-29.78515625,-27.34375,0.0,1.0,-1.0,0.0,6.m4v,10.0
2024-02-28 13:47:01.286730,1709124421.2867298,-31.25,-35.15625,-29.78515625,-27.34375,0.0,1.0,-1.0,0.0,6.m4v,10.0
2024-02-28 13:47:01.290635,1709124421.2906349,-29.78515625,-34.1796875,-30.76171875,-23.4375,0.0,1.0,-1.0,0.0,6.m4v,10.0
2024-02-28 13:47:01.290635,1709124421.2906349,-29.78515625,-34.1796875,-30.76171875,-23.4375,0.0,1.0,-1.0,0.0,6.m4v,10.0
2024-02-28 13:47:01.294540,1709124421.29454,-31.73828125,-39.55078125,-33.69140625,-34.1796875,0.0,1.0,-1.0,0.0,6.m4v,10.0
2024-02-28 13:47:01.294540,1709124421.29454,-31.73828125,-39.55078125,-33.69140625,-34.1796875,0.0,1.0,-1.0,0.0,6.m4v,10.0
2024-02-28 13:47:01.298445,1709124421.298445,-29.296875,-41.015625,-28.80859375,-33.69140625,0.0,1.0,-1.0,0.0,6.m4v,10.0
2024-02-28 13:47:01.298445,1709124421.298445,-29.296875,-41.015625,-28.80859375,-33.69140625,0.0,1.0,-1.0,0.0,6.m4v,10.0
2024-02-28 13:47:01.302350,1709124421.30235,-27.83203125,-38.0859375,-27.34375,-31.25,0.0,1.0,-1.0,0.0,6.m4v,10.0
2024-02-28 13:47:01.302350,1709124421.30235,-27.83203125,-38.0859375,-27.34375,-31.25,0.0,1.0,-1.0,0.0,6.m4v,10.0
2024-02-28 13:47:01.306255,1709124421.306255,-32.71484375,-39.0625,-28.80859375,-35.64453125,0.0,1.0,-1.0,0.0,6.m4v,10.0
2024-02-28 13:47:01.306255,1709124421.306255,-32.71484375,-39.0625,-28.80859375,-35.64453125,0.0,1.0,-1.0,0.0,6.m4v,10.0
2024-02-28 13:47:01.310160,1709124421.3101602,-34.66796875,-38.0859375,-30.2734375,-34.1796875,0.0,1.0,-1.0,0.0,6.m4v,10.0
2024-02-28 13:47:01.310160,1709124421.3101602,-34.66796875,-38.0859375,-30.2734375,-34.1796875,0.0,1.0,-1.0,0.0,6.m4v,10.0
2024-02-28 13:47:01.314065,1709124421.3140652,-37.59765625,-38.0859375,-36.62109375,-35.64453125,0.0,1.0,-1.0,0.0,6.m4v,10.0
2024-02-28 13:47:01.314065,1709124421.3140652,-37.59765625,-38.0859375,-36.62109375,-35.64453125,0.0,1.0,-1.0,0.0,6.m4v,10.0
2024-02-28 13:47:01.317970,1709124421.3179705,-40.52734375,-39.55078125,-35.64453125,-43.45703125,0.0,1.0,-1.0,0.0,6.m4v,10.0
2024-02-28 13:47:01.317970,1709124421.3179705,-40.52734375,-39.55078125,-35.64453125,-43.45703125,0.0,1.0,-1.0,0.0,6.m4v,10.0
2024-02-28 13:47:01.321875,1709124421.321875,-34.66796875,-35.64453125,-32.2265625,-46.38671875,0.0,1.0,-1.0,0.0,6.m4v,10.0
2024-02-28 13:47:01.321875,1709124421.321875,-34.66796875,-35.64453125,-32.2265625,-46.38671875,0.0,1.0,-1.0,0.0,6.m4v,10.0
2024-02-28 13:47:01.325780,1709124421.3257802,-35.15625,-35.15625,-36.62109375,-44.43359375,0.0,1.0,-1.0,0.0,6.m4v,10.0
2024-02-28 13:47:01.325780,1709124421.3257802,-35.15625,-35.15625,-36.62109375,-44.43359375,0.0,1.0,-1.0,0.0,6.m4v,10.0
2024-02-28 13:47:01.329696,1709124421.329696,-33.69140625,-33.203125,-39.0625,-35.64453125,0.0,1.0,-1.0,0.0,6.m4v,10.0
2024-02-28 13:47:01.329696,1709124421.329696,-33.69140625,-33.203125,-39.0625,-35.64453125,0.0,1.0,-1.0,0.0,6.m4v,10.0
2024-02-28 13:47:01.333601,1709124421.333601,-34.66796875,-36.1328125,-36.1328125,-31.25,0.0,1.0,-1.0,0.0,6.m4v,10.0
2024-02-28 13:47:01.333601,1709124421.333601,-34.66796875,-36.1328125,-36.1328125,-31.25,0.0,1.0,-1.0,0.0,6.m4v,10.0
2024-02-28 13:47:01.337506,1709124421.337506,-35.15625,-34.1796875,-38.0859375,-30.2734375,0.0,1.0,-1.0,0.0,6.m4v,10.0
2024-02-28 13:47:01.337506,1709124421.337506,-35.15625,-34.1796875,-38.0859375,-30.2734375,0.0,1.0,-1.0,0.0,6.m4v,10.0
2024-02-28 13:47:01.341411,1709124421.341411,-29.78515625,-31.73828125,-38.57421875,-26.85546875,0.0,1.0,-1.0,0.0,6.m4v,10.0
2024-02-28 13:47:01.341411,1709124421.341411,-29.78515625,-31.73828125,-38.57421875,-26.85546875,0.0,1.0,-1.0,0.0,6.m4v,10.0
2024-02-28 13:47:01.345316,1709124421.3453162,-27.34375,-38.0859375,-33.203125,-25.87890625,0.0,1.0,-1.0,0.0,6.m4v,10.0
2024-02-28 13:47:01.345316,1709124421.3453162,-27.34375,-38.0859375,-33.203125,-25.87890625,0.0,1.0,-1.0,0.0,6.m4v,10.0
2024-02-28 13:47:01.349221,1709124421.3492212,-35.64453125,-32.2265625,-29.296875,-35.64453125,0.0,1.0,-1.0,0.0,6.m4v,10.0
2024-02-28 13:47:01.349221,1709124421.3492212,-35.64453125,-32.2265625,-29.296875,-35.64453125,0.0,1.0,-1.0,0.0,6.m4v,10.0
2024-02-28 13:47:01.353126,1709124421.3531263,-36.1328125,-34.66796875,-26.3671875,-38.57421875,0.0,1.0,-1.0,0.0,6.m4v,10.0
2024-02-28 13:47:01.353126,1709124421.3531263,-36.1328125,-34.66796875,-26.3671875,-38.57421875,0.0,1.0,-1.0,0.0,6.m4v,10.0
2024-02-28 13:47:01.357031,1709124421.357031,-36.62109375,-42.48046875,-29.78515625,-38.0859375,0.0,1.0,-1.0,0.0,6.m4v,10.0
2024-02-28 13:47:01.357031,1709124421.357031,-36.62109375,-42.48046875,-29.78515625,-38.0859375,0.0,1.0,-1.0,0.0,6.m4v,10.0
2024-02-28 13:47:01.360936,1709124421.3609364,-39.0625,-37.59765625,-33.203125,-34.1796875,0.0,1.0,-1.0,0.0,6.m4v,10.0
2024-02-28 13:47:01.360936,1709124421.3609364,-39.0625,-37.59765625,-33.203125,-34.1796875,0.0,1.0,-1.0,0.0,6.m4v,10.0
2024-02-28 13:47:01.364841,1709124421.3648412,-38.57421875,-32.71484375,-34.66796875,-29.78515625,0.0,1.0,-1.0,0.0,6.m4v,10.0
2024-02-28 13:47:01.364841,1709124421.3648412,-38.57421875,-32.71484375,-34.66796875,-29.78515625,0.0,1.0,-1.0,0.0,6.m4v,10.0
2024-02-28 13:47:01.368746,1709124421.3687465,-38.57421875,-32.71484375,-32.71484375,-34.1796875,0.0,1.0,-1.0,0.0,6.m4v,10.0
2024-02-28 13:47:01.368746,1709124421.3687465,-38.57421875,-32.71484375,-32.71484375,-34.1796875,0.0,1.0,-1.0,0.0,6.m4v,10.0
2024-02-28 13:47:01.372651,1709124421.372651,-32.2265625,-35.64453125,-29.78515625,-42.96875,0.0,1.0,-1.0,0.0,6.m4v,10.0
2024-02-28 13:47:01.372651,1709124421.372651,-32.2265625,-35.64453125,-29.78515625,-42.96875,0.0,1.0,-1.0,0.0,6.m4v,10.0
2024-02-28 13:47:01.376567,1709124421.376567,-28.3203125,-32.71484375,-33.69140625,-40.0390625,0.0,1.0,-1.0,0.0,6.m4v,10.0
2024-02-28 13:47:01.376567,1709124421.376567,-28.3203125,-32.71484375,-33.69140625,-40.0390625,0.0,1.0,-1.0,0.0,6.m4v,10.0
2024-02-28 13:47:01.380472,1709124421.380472,-26.85546875,-35.15625,-35.15625,-33.69140625,0.0,1.0,-1.0,0.0,6.m4v,10.0
2024-02-28 13:47:01.380472,1709124421.380472,-26.85546875,-35.15625,-35.15625,-33.69140625,0.0,1.0,-1.0,0.0,6.m4v,10.0
2024-02-28 13:47:01.384377,1709124421.384377,-33.69140625,-36.62109375,-36.62109375,-30.76171875,0.0,1.0,-1.0,0.0,6.m4v,10.0
2024-02-28 13:47:01.384377,1709124421.384377,-33.69140625,-36.62109375,-36.62109375,-30.76171875,0.0,1.0,-1.0,0.0,6.m4v,10.0
2024-02-28 13:47:01.388282,1709124421.3882818,-32.2265625,-34.1796875,-38.57421875,-27.34375,0.0,1.0,-1.0,0.0,6.m4v,10.0
2024-02-28 13:47:01.388282,1709124421.3882818,-32.2265625,-34.1796875,-38.57421875,-27.34375,0.0,1.0,-1.0,0.0,6.m4v,10.0
2024-02-28 13:47:01.392187,1709124421.3921869,-20.99609375,-43.45703125,-36.62109375,-33.69140625,0.0,1.0,-1.0,0.0,6.m4v,10.0
2024-02-28 13:47:01.392187,1709124421.3921869,-20.99609375,-43.45703125,-36.62109375,-33.69140625,0.0,1.0,-1.0,0.0,6.m4v,10.0
2024-02-28 13:47:01.396092,1709124421.396092,-19.04296875,-44.921875,-33.203125,-35.15625,0.0,1.0,-1.0,0.0,6.m4v,10.0
2024-02-28 13:47:01.396092,1709124421.396092,-19.04296875,-44.921875,-33.203125,-35.15625,0.0,1.0,-1.0,0.0,6.m4v,10.0
2024-02-28 13:47:01.399997,1709124421.399997,-31.25,-35.15625,-30.2734375,-20.99609375,0.0,1.0,-1.0,0.0,6.m4v,10.0
2024-02-28 13:47:01.399997,1709124421.399997,-31.25,-35.15625,-30.2734375,-20.99609375,0.0,1.0,-1.0,0.0,6.m4v,10.0
2024-02-28 13:47:01.403902,1709124421.403902,-41.015625,-39.55078125,-32.71484375,-29.296875,0.0,1.0,-1.0,0.0,6.m4v,10.0
2024-02-28 13:47:01.403902,1709124421.403902,-41.015625,-39.55078125,-32.71484375,-29.296875,0.0,1.0,-1.0,0.0,6.m4v,10.0
2024-02-28 13:47:01.407807,1709124421.407807,-46.38671875,-43.45703125,-35.64453125,-40.0390625,0.0,1.0,-1.0,0.0,6.m4v,10.0
2024-02-28 13:47:01.407807,1709124421.407807,-46.38671875,-43.45703125,-35.64453125,-40.0390625,0.0,1.0,-1.0,0.0,6.m4v,10.0
2024-02-28 13:47:01.411712,1709124421.4117122,-42.96875,-37.109375,-31.25,-35.64453125,0.0,1.0,-1.0,0.0,6.m4v,10.0
2024-02-28 13:47:01.411712,1709124421.4117122,-42.96875,-37.109375,-31.25,-35.64453125,0.0,1.0,-1.0,0.0,6.m4v,10.0
2024-02-28 13:47:01.415617,1709124421.4156172,-45.8984375,-38.57421875,-33.203125,-45.41015625,0.0,1.0,-1.0,0.0,6.m4v,10.0
2024-02-28 13:47:01.415617,1709124421.4156172,-45.8984375,-38.57421875,-33.203125,-45.41015625,0.0,1.0,-1.0,0.0,6.m4v,10.0
2024-02-28 13:47:01.419522,1709124421.4195223,-47.8515625,-35.15625,-32.2265625,-37.59765625,0.0,1.0,-1.0,0.0,6.m4v,10.0
2024-02-28 13:47:01.419522,1709124421.4195223,-47.8515625,-35.15625,-32.2265625,-37.59765625,0.0,1.0,-1.0,0.0,6.m4v,10.0
2024-02-28 13:47:01.423437,1709124421.4234374,-43.45703125,-30.76171875,-26.3671875,-28.80859375,0.0,1.0,-1.0,0.0,6.m4v,10.0
2024-02-28 13:47:01.423437,1709124421.4234374,-43.45703125,-30.76171875,-26.3671875,-28.80859375,0.0,1.0,-1.0,0.0,6.m4v,10.0
2024-02-28 13:47:01.427342,1709124421.4273424,-39.0625,-32.71484375,-27.83203125,-41.015625,0.0,1.0,-1.0,0.0,6.m4v,10.0
2024-02-28 13:47:01.427342,1709124421.4273424,-39.0625,-32.71484375,-27.83203125,-41.015625,0.0,1.0,-1.0,0.0,6.m4v,10.0
2024-02-28 13:47:01.431247,1709124421.4312477,-37.109375,-35.64453125,-37.109375,-36.62109375,0.0,1.0,-1.0,0.0,6.m4v,10.0
2024-02-28 13:47:01.431247,1709124421.4312477,-37.109375,-35.64453125,-37.109375,-36.62109375,0.0,1.0,-1.0,0.0,6.m4v,10.0
2024-02-28 13:47:01.435153,1709124421.4351523,-42.96875,-40.52734375,-39.0625,-23.92578125,0.0,1.0,-1.0,0.0,6.m4v,10.0
2024-02-28 13:47:01.435153,1709124421.4351523,-42.96875,-40.52734375,-39.0625,-23.92578125,0.0,1.0,-1.0,0.0,6.m4v,10.0
2024-02-28 13:47:01.439057,1709124421.4390574,-41.015625,-40.0390625,-30.2734375,-21.484375,0.0,1.0,-1.0,0.0,6.m4v,10.0
2024-02-28 13:47:01.439057,1709124421.4390574,-41.015625,-40.0390625,-30.2734375,-21.484375,0.0,1.0,-1.0,0.0,6.m4v,10.0
2024-02-28 13:47:01.442962,1709124421.4429624,-37.59765625,-36.1328125,-33.203125,-25.390625,0.0,1.0,-1.0,0.0,6.m4v,10.0
2024-02-28 13:47:01.442962,1709124421.4429624,-37.59765625,-36.1328125,-33.203125,-25.390625,0.0,1.0,-1.0,0.0,6.m4v,10.0
2024-02-28 13:47:01.446867,1709124421.4468677,-37.109375,-34.66796875,-35.64453125,-33.69140625,0.0,1.0,-1.0,0.0,6.m4v,10.0
2024-02-28 13:47:01.446867,1709124421.4468677,-37.109375,-34.66796875,-35.64453125,-33.69140625,0.0,1.0,-1.0,0.0,6.m4v,10.0
2024-02-28 13:47:01.450773,1709124421.4507723,-34.66796875,-34.66796875,-29.78515625,-34.66796875,0.0,1.0,-1.0,0.0,6.m4v,10.0
2024-02-28 13:47:01.450773,1709124421.4507723,-34.66796875,-34.66796875,-29.78515625,-34.66796875,0.0,1.0,-1.0,0.0,6.m4v,10.0
2024-02-28 13:47:01.454678,1709124421.4546776,-38.0859375,-35.64453125,-28.80859375,-34.1796875,0.0,1.0,-1.0,0.0,6.m4v,10.0
2024-02-28 13:47:01.454678,1709124421.4546776,-38.0859375,-35.64453125,-28.80859375,-34.1796875,0.0,1.0,-1.0,0.0,6.m4v,10.0
2024-02-28 13:47:01.458583,1709124421.4585826,-38.0859375,-41.015625,-28.80859375,-39.0625,0.0,1.0,-1.0,0.0,6.m4v,10.0
2024-02-28 13:47:01.458583,1709124421.4585826,-38.0859375,-41.015625,-28.80859375,-39.0625,0.0,1.0,-1.0,0.0,6.m4v,10.0
2024-02-28 13:47:01.462488,1709124421.4624877,-37.109375,-42.48046875,-27.83203125,-32.2265625,0.0,1.0,-1.0,0.0,6.m4v,10.0
2024-02-28 13:47:01.462488,1709124421.4624877,-37.109375,-42.48046875,-27.83203125,-32.2265625,0.0,1.0,-1.0,0.0,6.m4v,10.0
2024-02-28 13:47:01.466393,1709124421.4663928,-37.59765625,-34.1796875,-26.85546875,-34.1796875,0.0,1.0,-1.0,0.0,6.m4v,10.0
2024-02-28 13:47:01.466393,1709124421.4663928,-37.59765625,-34.1796875,-26.85546875,-34.1796875,0.0,1.0,-1.0,0.0,6.m4v,10.0
2024-02-28 13:47:01.470308,1709124421.4703076,-39.55078125,-34.66796875,-32.71484375,-47.36328125,0.0,1.0,-1.0,0.0,6.m4v,10.0
2024-02-28 13:47:01.470308,1709124421.4703076,-39.55078125,-34.66796875,-32.71484375,-47.36328125,0.0,1.0,-1.0,0.0,6.m4v,10.0
2024-02-28 13:47:01.474213,1709124421.4742126,-35.64453125,-38.57421875,-40.52734375,-44.921875,0.0,1.0,-1.0,0.0,6.m4v,10.0
2024-02-28 13:47:01.474213,1709124421.4742126,-35.64453125,-38.57421875,-40.52734375,-44.921875,0.0,1.0,-1.0,0.0,6.m4v,10.0
2024-02-28 13:47:01.478118,1709124421.4781177,-26.85546875,-34.66796875,-33.69140625,-38.0859375,0.0,1.0,-1.0,0.0,6.m4v,10.0
2024-02-28 13:47:01.478118,1709124421.4781177,-26.85546875,-34.66796875,-33.69140625,-38.0859375,0.0,1.0,-1.0,0.0,6.m4v,10.0
2024-02-28 13:47:01.482023,1709124421.4820228,-30.2734375,-31.25,-35.15625,-39.0625,0.0,1.0,-1.0,0.0,6.m4v,10.0
2024-02-28 13:47:01.482023,1709124421.4820228,-30.2734375,-31.25,-35.15625,-39.0625,0.0,1.0,-1.0,0.0,6.m4v,10.0
2024-02-28 13:47:01.485928,1709124421.4859278,-43.9453125,-27.34375,-44.921875,-40.52734375,0.0,1.0,-1.0,0.0,6.m4v,10.0
2024-02-28 13:47:01.485928,1709124421.4859278,-43.9453125,-27.34375,-44.921875,-40.52734375,0.0,1.0,-1.0,0.0,6.m4v,10.0
2024-02-28 13:47:01.489833,1709124421.4898329,-43.45703125,-30.76171875,-37.59765625,-43.9453125,0.0,1.0,-1.0,0.0,6.m4v,10.0
2024-02-28 13:47:01.489833,1709124421.4898329,-43.45703125,-30.76171875,-37.59765625,-43.9453125,0.0,1.0,-1.0,0.0,6.m4v,10.0
2024-02-28 13:47:01.493738,1709124421.493738,-29.296875,-41.015625,-29.78515625,-33.69140625,0.0,1.0,-1.0,0.0,6.m4v,10.0
2024-02-28 13:47:01.493738,1709124421.493738,-29.296875,-41.015625,-29.78515625,-33.69140625,0.0,1.0,-1.0,0.0,6.m4v,10.0
2024-02-28 13:47:01.497643,1709124421.497643,-27.34375,-41.50390625,-34.66796875,-38.0859375,0.0,1.0,-1.0,0.0,6.m4v,10.0
2024-02-28 13:47:01.497643,1709124421.497643,-27.34375,-41.50390625,-34.66796875,-38.0859375,0.0,1.0,-1.0,0.0,6.m4v,10.0
2024-02-28 13:47:01.501548,1709124421.501548,-21.484375,-35.64453125,-31.73828125,-39.55078125,0.0,1.0,-1.0,0.0,6.m4v,10.0
2024-02-28 13:47:01.501548,1709124421.501548,-21.484375,-35.64453125,-31.73828125,-39.55078125,0.0,1.0,-1.0,0.0,6.m4v,10.0
2024-02-28 13:47:01.505453,1709124421.505453,-15.13671875,-33.203125,-36.1328125,-33.203125,0.0,1.0,-1.0,0.0,6.m4v,10.0
2024-02-28 13:47:01.505453,1709124421.505453,-15.13671875,-33.203125,-36.1328125,-33.203125,0.0,1.0,-1.0,0.0,6.m4v,10.0
2024-02-28 13:47:01.509358,1709124421.5093582,-14.6484375,-32.71484375,-39.55078125,-42.96875,0.0,1.0,-1.0,0.0,6.m4v,10.0
2024-02-28 13:47:01.509358,1709124421.5093582,-14.6484375,-32.71484375,-39.55078125,-42.96875,0.0,1.0,-1.0,0.0,6.m4v,10.0
2024-02-28 13:47:01.513263,1709124421.5132632,-15.13671875,-32.71484375,-33.69140625,-39.0625,0.0,1.0,-1.0,0.0,6.m4v,10.0
2024-02-28 13:47:01.513263,1709124421.5132632,-15.13671875,-32.71484375,-33.69140625,-39.0625,0.0,1.0,-1.0,0.0,6.m4v,10.0
2024-02-28 13:47:01.517178,1709124421.5171778,-16.6015625,-33.203125,-32.2265625,-24.90234375,0.0,1.0,-1.0,0.0,6.m4v,10.0
2024-02-28 13:47:01.517178,1709124421.5171778,-16.6015625,-33.203125,-32.2265625,-24.90234375,0.0,1.0,-1.0,0.0,6.m4v,10.0
2024-02-28 13:47:01.521083,1709124421.5210829,-20.01953125,-25.87890625,-32.71484375,-15.625,0.0,1.0,-1.0,0.0,6.m4v,10.0
2024-02-28 13:47:01.521083,1709124421.5210829,-20.01953125,-25.87890625,-32.71484375,-15.625,0.0,1.0,-1.0,0.0,6.m4v,10.0
2024-02-28 13:47:01.524988,1709124421.524988,-26.85546875,-26.3671875,-36.1328125,-20.5078125,0.0,1.0,-1.0,0.0,6.m4v,10.0
2024-02-28 13:47:01.524988,1709124421.524988,-26.85546875,-26.3671875,-36.1328125,-20.5078125,0.0,1.0,-1.0,0.0,6.m4v,10.0
2024-02-28 13:47:01.528893,1709124421.528893,-22.4609375,-32.71484375,-35.15625,-38.57421875,0.0,1.0,-1.0,0.0,6.m4v,10.0
2024-02-28 13:47:01.528893,1709124421.528893,-22.4609375,-32.71484375,-35.15625,-38.57421875,0.0,1.0,-1.0,0.0,6.m4v,10.0
2024-02-28 13:47:01.532798,1709124421.532798,-14.6484375,-31.73828125,-33.203125,-35.15625,0.0,1.0,-1.0,0.0,6.m4v,10.0
2024-02-28 13:47:01.532798,1709124421.532798,-14.6484375,-31.73828125,-33.203125,-35.15625,0.0,1.0,-1.0,0.0,6.m4v,10.0
2024-02-28 13:47:01.536703,1709124421.536703,-10.25390625,-30.76171875,-29.78515625,-27.34375,0.0,1.0,-1.0,0.0,6.m4v,10.0
2024-02-28 13:47:01.536703,1709124421.536703,-10.25390625,-30.76171875,-29.78515625,-27.34375,0.0,1.0,-1.0,0.0,6.m4v,10.0
2024-02-28 13:47:01.540608,1709124421.5406082,-13.671875,-38.0859375,-30.76171875,-28.80859375,0.0,1.0,-1.0,0.0,6.m4v,10.0
2024-02-28 13:47:01.540608,1709124421.5406082,-13.671875,-38.0859375,-30.76171875,-28.80859375,0.0,1.0,-1.0,0.0,6.m4v,10.0
2024-02-28 13:47:01.544513,1709124421.5445132,-13.18359375,-45.41015625,-30.2734375,-22.4609375,0.0,1.0,-1.0,0.0,6.m4v,10.0
2024-02-28 13:47:01.544513,1709124421.5445132,-13.18359375,-45.41015625,-30.2734375,-22.4609375,0.0,1.0,-1.0,0.0,6.m4v,10.0
2024-02-28 13:47:01.548418,1709124421.5484183,-18.06640625,-44.921875,-26.3671875,-27.83203125,0.0,1.0,-1.0,0.0,6.m4v,10.0
2024-02-28 13:47:01.548418,1709124421.5484183,-18.06640625,-44.921875,-26.3671875,-27.83203125,0.0,1.0,-1.0,0.0,6.m4v,10.0
2024-02-28 13:47:01.552323,1709124421.552323,-22.94921875,-37.59765625,-32.2265625,-42.96875,0.0,1.0,-1.0,0.0,6.m4v,10.0
2024-02-28 13:47:01.552323,1709124421.552323,-22.94921875,-37.59765625,-32.2265625,-42.96875,0.0,1.0,-1.0,0.0,6.m4v,10.0
2024-02-28 13:47:01.556228,1709124421.5562282,-22.4609375,-28.80859375,-34.1796875,-38.57421875,0.0,1.0,-1.0,0.0,6.m4v,10.0
2024-02-28 13:47:01.556228,1709124421.5562282,-22.4609375,-28.80859375,-34.1796875,-38.57421875,0.0,1.0,-1.0,0.0,6.m4v,10.0
2024-02-28 13:47:01.560133,1709124421.5601332,-34.66796875,-28.3203125,-33.203125,-23.92578125,0.0,1.0,-1.0,0.0,6.m4v,10.0
2024-02-28 13:47:01.560133,1709124421.5601332,-34.66796875,-28.3203125,-33.203125,-23.92578125,0.0,1.0,-1.0,0.0,6.m4v,10.0
2024-02-28 13:47:01.564047,1709124421.564047,-33.69140625,-32.71484375,-35.64453125,-20.01953125,0.0,1.0,-1.0,0.0,6.m4v,10.0
2024-02-28 13:47:01.564047,1709124421.564047,-33.69140625,-32.71484375,-35.64453125,-20.01953125,0.0,1.0,-1.0,0.0,6.m4v,10.0
2024-02-28 13:47:01.567952,1709124421.5679524,-29.296875,-35.15625,-36.62109375,-23.92578125,0.0,1.0,-1.0,0.0,6.m4v,10.0
2024-02-28 13:47:01.567952,1709124421.5679524,-29.296875,-35.15625,-36.62109375,-23.92578125,0.0,1.0,-1.0,0.0,6.m4v,10.0
2024-02-28 13:47:01.571857,1709124421.5718577,-35.64453125,-37.109375,-33.69140625,-25.87890625,0.0,1.0,-1.0,0.0,6.m4v,10.0
2024-02-28 13:47:01.571857,1709124421.5718577,-35.64453125,-37.109375,-33.69140625,-25.87890625,0.0,1.0,-1.0,0.0,6.m4v,10.0
2024-02-28 13:47:01.575763,1709124421.5757625,-43.9453125,-44.43359375,-33.69140625,-28.3203125,0.0,1.0,-1.0,0.0,6.m4v,10.0
2024-02-28 13:47:01.575763,1709124421.5757625,-43.9453125,-44.43359375,-33.69140625,-28.3203125,0.0,1.0,-1.0,0.0,6.m4v,10.0
2024-02-28 13:47:01.579667,1709124421.579667,-39.0625,-44.921875,-32.2265625,-33.203125,0.0,1.0,-1.0,0.0,6.m4v,10.0
2024-02-28 13:47:01.579667,1709124421.579667,-39.0625,-44.921875,-32.2265625,-33.203125,0.0,1.0,-1.0,0.0,6.m4v,10.0
2024-02-28 13:47:01.583572,1709124421.5835724,-38.57421875,-37.109375,-32.71484375,-36.1328125,0.0,1.0,-1.0,0.0,6.m4v,10.0
2024-02-28 13:47:01.583572,1709124421.5835724,-38.57421875,-37.109375,-32.71484375,-36.1328125,0.0,1.0,-1.0,0.0,6.m4v,10.0
2024-02-28 13:47:01.587477,1709124421.5874774,-47.8515625,-38.0859375,-33.69140625,-47.36328125,0.0,1.0,-1.0,0.0,6.m4v,10.0
2024-02-28 13:47:01.587477,1709124421.5874774,-47.8515625,-38.0859375,-33.69140625,-47.36328125,0.0,1.0,-1.0,0.0,6.m4v,10.0
2024-02-28 13:47:01.591383,1709124421.5913825,-41.9921875,-41.015625,-30.76171875,-41.50390625,0.0,1.0,-1.0,0.0,6.m4v,10.0
2024-02-28 13:47:01.591383,1709124421.5913825,-41.9921875,-41.015625,-30.76171875,-41.50390625,0.0,1.0,-1.0,0.0,6.m4v,10.0
2024-02-28 13:47:01.595288,1709124421.5952876,-32.71484375,-46.875,-33.203125,-31.25,0.0,1.0,-1.0,0.0,6.m4v,10.0
2024-02-28 13:47:01.595288,1709124421.5952876,-32.71484375,-46.875,-33.203125,-31.25,0.0,1.0,-1.0,0.0,6.m4v,10.0
2024-02-28 13:47:01.599193,1709124421.5991926,-29.78515625,-41.015625,-35.64453125,-30.76171875,0.0,1.0,-1.0,0.0,6.m4v,10.0
2024-02-28 13:47:01.599193,1709124421.5991926,-29.78515625,-41.015625,-35.64453125,-30.76171875,0.0,1.0,-1.0,0.0,6.m4v,10.0
2024-02-28 13:47:01.603098,1709124421.6030977,-31.73828125,-30.2734375,-38.57421875,-26.3671875,0.0,1.0,-1.0,0.0,6.m4v,10.0
2024-02-28 13:47:01.603098,1709124421.6030977,-31.73828125,-30.2734375,-38.57421875,-26.3671875,0.0,1.0,-1.0,0.0,6.m4v,10.0
2024-02-28 13:47:01.607003,1709124421.6070027,-29.296875,-25.390625,-36.1328125,-27.83203125,0.0,1.0,-1.0,0.0,6.m4v,10.0
2024-02-28 13:47:01.607003,1709124421.6070027,-29.296875,-25.390625,-36.1328125,-27.83203125,0.0,1.0,-1.0,0.0,6.m4v,10.0
2024-02-28 13:47:01.610919,1709124421.6109192,-32.2265625,-28.80859375,-30.76171875,-33.203125,0.0,1.0,-1.0,0.0,6.m4v,10.0
2024-02-28 13:47:01.610919,1709124421.6109192,-32.2265625,-28.80859375,-30.76171875,-33.203125,0.0,1.0,-1.0,0.0,6.m4v,10.0
2024-02-28 13:47:01.614824,1709124421.6148243,-40.52734375,-32.71484375,-34.66796875,-27.34375,0.0,1.0,-1.0,0.0,6.m4v,10.0
2024-02-28 13:47:01.614824,1709124421.6148243,-40.52734375,-32.71484375,-34.66796875,-27.34375,0.0,1.0,-1.0,0.0,6.m4v,10.0
2024-02-28 13:47:01.618729,1709124421.618729,-40.52734375,-32.2265625,-35.64453125,-13.671875,0.0,1.0,-1.0,0.0,6.m4v,10.0
2024-02-28 13:47:01.618729,1709124421.618729,-40.52734375,-32.2265625,-35.64453125,-13.671875,0.0,1.0,-1.0,0.0,6.m4v,10.0
2024-02-28 13:47:01.622634,1709124421.6226342,-30.76171875,-30.76171875,-31.73828125,-18.06640625,0.0,1.0,-1.0,0.0,6.m4v,10.0
2024-02-28 13:47:01.622634,1709124421.6226342,-30.76171875,-30.76171875,-31.73828125,-18.06640625,0.0,1.0,-1.0,0.0,6.m4v,10.0
2024-02-28 13:47:01.626539,1709124421.6265392,-28.3203125,-32.2265625,-35.64453125,-31.25,0.0,1.0,-1.0,0.0,6.m4v,10.0
2024-02-28 13:47:01.626539,1709124421.6265392,-28.3203125,-32.2265625,-35.64453125,-31.25,0.0,1.0,-1.0,0.0,6.m4v,10.0
2024-02-28 13:47:01.630444,1709124421.6304443,-33.203125,-37.59765625,-40.52734375,-24.4140625,0.0,1.0,-1.0,0.0,6.m4v,10.0
2024-02-28 13:47:01.630444,1709124421.6304443,-33.203125,-37.59765625,-40.52734375,-24.4140625,0.0,1.0,-1.0,0.0,6.m4v,10.0
2024-02-28 13:47:01.634349,1709124421.634349,-23.92578125,-32.71484375,-37.59765625,-9.27734375,0.0,1.0,-1.0,0.0,6.m4v,10.0
2024-02-28 13:47:01.634349,1709124421.634349,-23.92578125,-32.71484375,-37.59765625,-9.27734375,0.0,1.0,-1.0,0.0,6.m4v,10.0
2024-02-28 13:47:01.638254,1709124421.6382544,-22.4609375,-27.83203125,-32.2265625,-5.37109375,0.0,1.0,-1.0,0.0,6.m4v,10.0
2024-02-28 13:47:01.638254,1709124421.6382544,-22.4609375,-27.83203125,-32.2265625,-5.37109375,0.0,1.0,-1.0,0.0,6.m4v,10.0
2024-02-28 13:47:01.642159,1709124421.6421597,-23.4375,-33.203125,-33.203125,-13.18359375,0.0,1.0,-1.0,0.0,6.m4v,10.0
2024-02-28 13:47:01.642159,1709124421.6421597,-23.4375,-33.203125,-33.203125,-13.18359375,0.0,1.0,-1.0,0.0,6.m4v,10.0
2024-02-28 13:47:01.646065,1709124421.6460643,-26.85546875,-36.62109375,-35.64453125,-35.64453125,0.0,1.0,-1.0,0.0,6.m4v,10.0
2024-02-28 13:47:01.646065,1709124421.6460643,-26.85546875,-36.62109375,-35.64453125,-35.64453125,0.0,1.0,-1.0,0.0,6.m4v,10.0
2024-02-28 13:47:01.649970,1709124421.6499696,-30.2734375,-34.1796875,-31.73828125,-36.1328125,0.0,1.0,-1.0,0.0,6.m4v,10.0
2024-02-28 13:47:01.649970,1709124421.6499696,-30.2734375,-34.1796875,-31.73828125,-36.1328125,0.0,1.0,-1.0,0.0,6.m4v,10.0
2024-02-28 13:47:01.653875,1709124421.6538746,-30.2734375,-34.66796875,-31.73828125,-37.109375,0.0,1.0,-1.0,0.0,6.m4v,10.0
2024-02-28 13:47:01.653875,1709124421.6538746,-30.2734375,-34.66796875,-31.73828125,-37.109375,0.0,1.0,-1.0,0.0,6.m4v,10.0
2024-02-28 13:47:01.657791,1709124421.657791,-31.73828125,-30.2734375,-34.1796875,-41.015625,0.0,1.0,-1.0,0.0,6.m4v,10.0
2024-02-28 13:47:01.657791,1709124421.657791,-31.73828125,-30.2734375,-34.1796875,-41.015625,0.0,1.0,-1.0,0.0,6.m4v,10.0
