Timestamp,Timestamp_UNIX,TP9,AF7,AF8,TP10,Valence,Arousal,Dominace,Viewed,Video,Participant
2024-02-28 11:59:39.030428,1709117979.0304282,-16.6015625,-18.5546875,-26.3671875,-3.90625,-1.0,1.0,-1.0,1.0,9.m4v,9.0
2024-02-28 11:59:39.034334,1709117979.0343337,-19.53125,-24.90234375,-13.18359375,-7.8125,-1.0,1.0,-1.0,1.0,9.m4v,9.0
2024-02-28 11:59:39.038239,1709117979.0382392,-19.53125,-36.1328125,-12.20703125,-16.6015625,-1.0,1.0,-1.0,1.0,9.m4v,9.0
2024-02-28 11:59:39.042145,1709117979.0421443,-13.671875,-42.48046875,-23.92578125,-42.96875,-1.0,1.0,-1.0,1.0,9.m4v,9.0
2024-02-28 11:59:39.046050,1709117979.04605,-20.01953125,-47.36328125,-33.203125,-43.45703125,-1.0,1.0,-1.0,1.0,9.m4v,9.0
2024-02-28 11:59:39.049961,1709117979.0499606,-20.01953125,-41.50390625,-20.01953125,-20.01953125,-1.0,1.0,-1.0,1.0,9.m4v,9.0
2024-02-28 11:59:39.053866,1709117979.053866,-18.5546875,-39.55078125,-19.04296875,-13.18359375,-1.0,1.0,-1.0,1.0,9.m4v,9.0
2024-02-28 11:59:39.057772,1709117979.0577717,-21.97265625,-34.66796875,-26.85546875,-7.8125,-1.0,1.0,-1.0,1.0,9.m4v,9.0
2024-02-28 11:59:39.061677,1709117979.061677,-27.34375,-39.55078125,-22.4609375,-14.16015625,-1.0,1.0,-1.0,1.0,9.m4v,9.0
2024-02-28 11:59:39.065583,1709117979.0655825,-47.36328125,-41.9921875,-28.3203125,-20.01953125,-1.0,1.0,-1.0,1.0,9.m4v,9.0
2024-02-28 11:59:39.069488,1709117979.069488,-34.66796875,-20.5078125,-42.96875,-24.4140625,-1.0,1.0,-1.0,1.0,9.m4v,9.0
2024-02-28 11:59:39.073393,1709117979.073393,-13.671875,-13.18359375,-46.875,-27.34375,-1.0,1.0,-1.0,1.0,9.m4v,9.0
2024-02-28 11:59:39.077299,1709117979.0772989,-20.01953125,-27.34375,-27.83203125,-28.3203125,-1.0,1.0,-1.0,1.0,9.m4v,9.0
2024-02-28 11:59:39.081204,1709117979.0812044,-43.45703125,-31.73828125,-11.71875,-24.90234375,-1.0,1.0,-1.0,1.0,9.m4v,9.0
2024-02-28 11:59:39.085110,1709117979.0851097,-46.38671875,-30.2734375,-25.87890625,-24.90234375,-1.0,1.0,-1.0,1.0,9.m4v,9.0
2024-02-28 11:59:39.089015,1709117979.0890152,-33.69140625,-36.62109375,-35.15625,-22.4609375,-1.0,1.0,-1.0,1.0,9.m4v,9.0
2024-02-28 11:59:39.092921,1709117979.0929208,-38.0859375,-35.64453125,-39.0625,-30.76171875,-1.0,1.0,-1.0,1.0,9.m4v,9.0
2024-02-28 11:59:39.096831,1709117979.0968308,-38.57421875,-31.73828125,-35.64453125,-28.80859375,-1.0,1.0,-1.0,1.0,9.m4v,9.0
2024-02-28 11:59:39.100736,1709117979.1007364,-36.1328125,-39.55078125,-17.578125,-14.6484375,-1.0,1.0,-1.0,1.0,9.m4v,9.0
2024-02-28 11:59:39.104642,1709117979.1046417,-30.2734375,-29.78515625,-21.484375,-15.625,-1.0,1.0,-1.0,1.0,9.m4v,9.0
2024-02-28 11:59:39.108547,1709117979.1085472,-24.4140625,-31.25,-36.1328125,-22.4609375,-1.0,1.0,-1.0,1.0,9.m4v,9.0
2024-02-28 11:59:39.112453,1709117979.1124527,-26.3671875,-44.43359375,-23.92578125,-26.85546875,-1.0,1.0,-1.0,1.0,9.m4v,9.0
2024-02-28 11:59:39.116358,1709117979.116358,-23.92578125,-40.52734375,-20.5078125,-31.73828125,-1.0,1.0,-1.0,1.0,9.m4v,9.0
2024-02-28 11:59:39.120264,1709117979.1202636,-23.92578125,-31.25,-27.34375,-69.3359375,-1.0,1.0,-1.0,1.0,9.m4v,9.0
2024-02-28 11:59:39.124169,1709117979.124169,-20.01953125,-25.390625,-23.4375,-41.015625,-1.0,1.0,-1.0,1.0,9.m4v,9.0
2024-02-28 11:59:39.128074,1709117979.1280744,-23.92578125,-19.04296875,-6.8359375,8.30078125,-1.0,1.0,-1.0,1.0,9.m4v,9.0
2024-02-28 11:59:39.131980,1709117979.13198,-31.73828125,-33.69140625,-5.37109375,-28.80859375,-1.0,1.0,-1.0,1.0,9.m4v,9.0
2024-02-28 11:59:39.135885,1709117979.1358857,-31.73828125,-42.48046875,-29.78515625,-35.15625,-1.0,1.0,-1.0,1.0,9.m4v,9.0
2024-02-28 11:59:39.139791,1709117979.1397908,-34.1796875,-39.0625,-37.59765625,-36.1328125,-1.0,1.0,-1.0,1.0,9.m4v,9.0
2024-02-28 11:59:39.143701,1709117979.143701,-32.71484375,-36.1328125,-34.66796875,-49.31640625,-1.0,1.0,-1.0,1.0,9.m4v,9.0
2024-02-28 11:59:39.147607,1709117979.1476066,-46.875,-25.390625,-48.33984375,-41.015625,-1.0,1.0,-1.0,1.0,9.m4v,9.0
2024-02-28 11:59:39.151512,1709117979.151512,-49.31640625,-12.20703125,-47.36328125,-32.2265625,-1.0,1.0,-1.0,1.0,9.m4v,9.0
2024-02-28 11:59:39.155417,1709117979.1554174,-35.64453125,-11.71875,-34.1796875,-34.1796875,-1.0,1.0,-1.0,1.0,9.m4v,9.0
2024-02-28 11:59:39.159323,1709117979.159323,-50.29296875,-21.97265625,-33.203125,-44.921875,-1.0,1.0,-1.0,1.0,9.m4v,9.0
2024-02-28 11:59:39.163228,1709117979.1632285,-45.41015625,-9.765625,-40.52734375,-31.25,-1.0,1.0,-1.0,1.0,9.m4v,9.0
2024-02-28 11:59:39.167134,1709117979.1671338,-33.69140625,-3.41796875,-40.52734375,-2.9296875,-1.0,1.0,-1.0,1.0,9.m4v,9.0
2024-02-28 11:59:39.171039,1709117979.171039,-30.76171875,-26.85546875,-37.59765625,-23.4375,-1.0,1.0,-1.0,1.0,9.m4v,9.0
2024-02-28 11:59:39.174945,1709117979.1749446,-36.1328125,-29.296875,-34.1796875,-62.01171875,-1.0,1.0,-1.0,1.0,9.m4v,9.0
2024-02-28 11:59:39.178850,1709117979.1788502,-39.55078125,-20.99609375,-18.06640625,-75.68359375,-1.0,1.0,-1.0,1.0,9.m4v,9.0
2024-02-28 11:59:39.182756,1709117979.1827557,-39.0625,-37.59765625,-28.80859375,-37.59765625,-1.0,1.0,-1.0,1.0,9.m4v,9.0
2024-02-28 11:59:39.186661,1709117979.186661,-38.0859375,-31.25,-38.0859375,-13.18359375,-1.0,1.0,-1.0,1.0,9.m4v,9.0
2024-02-28 11:59:39.190571,1709117979.1905706,-36.1328125,-34.66796875,-14.6484375,-27.34375,-1.0,1.0,-1.0,1.0,9.m4v,9.0
2024-02-28 11:59:39.194476,1709117979.194476,-36.1328125,-66.40625,-8.30078125,-51.26953125,-1.0,1.0,-1.0,1.0,9.m4v,9.0
2024-02-28 11:59:39.198381,1709117979.1983814,-29.78515625,-71.2890625,-23.4375,-66.40625,-1.0,1.0,-1.0,1.0,9.m4v,9.0
2024-02-28 11:59:39.202287,1709117979.202287,-24.4140625,-46.875,-27.83203125,-53.22265625,-1.0,1.0,-1.0,1.0,9.m4v,9.0
2024-02-28 11:59:39.206192,1709117979.2061925,-31.73828125,-26.85546875,-34.66796875,-32.71484375,-1.0,1.0,-1.0,1.0,9.m4v,9.0
2024-02-28 11:59:39.210098,1709117979.2100978,-36.62109375,-20.99609375,-43.45703125,-28.3203125,-1.0,1.0,-1.0,1.0,9.m4v,9.0
2024-02-28 11:59:39.214003,1709117979.214003,-35.15625,-37.109375,-45.8984375,-21.97265625,-1.0,1.0,-1.0,1.0,9.m4v,9.0
2024-02-28 11:59:39.217909,1709117979.2179089,-43.9453125,-53.22265625,-63.4765625,-19.04296875,-1.0,1.0,-1.0,1.0,9.m4v,9.0
2024-02-28 11:59:39.221814,1709117979.2218142,-49.31640625,-41.015625,-58.10546875,-47.8515625,-1.0,1.0,-1.0,1.0,9.m4v,9.0
2024-02-28 11:59:39.225720,1709117979.2257197,-42.96875,-35.15625,-22.94921875,-62.5,-1.0,1.0,-1.0,1.0,9.m4v,9.0
2024-02-28 11:59:39.229625,1709117979.2296252,-31.25,-32.71484375,-4.39453125,-43.45703125,-1.0,1.0,-1.0,1.0,9.m4v,9.0
2024-02-28 11:59:39.233531,1709117979.2335303,-29.296875,-26.3671875,-16.6015625,-38.57421875,-1.0,1.0,-1.0,1.0,9.m4v,9.0
2024-02-28 11:59:39.237440,1709117979.2374396,-37.59765625,-32.2265625,-33.69140625,-45.41015625,-1.0,1.0,-1.0,1.0,9.m4v,9.0
2024-02-28 11:59:39.241345,1709117979.2413452,-54.6875,-43.45703125,-34.66796875,-39.0625,-1.0,1.0,-1.0,1.0,9.m4v,9.0
2024-02-28 11:59:39.245251,1709117979.2452507,-33.203125,-55.6640625,-28.3203125,-57.12890625,-1.0,1.0,-1.0,1.0,9.m4v,9.0
2024-02-28 11:59:39.249156,1709117979.249156,-30.2734375,-56.640625,-25.87890625,-35.64453125,-1.0,1.0,-1.0,1.0,9.m4v,9.0
2024-02-28 11:59:39.253062,1709117979.2530615,-35.15625,-35.64453125,-22.94921875,-17.08984375,-1.0,1.0,-1.0,1.0,9.m4v,9.0
2024-02-28 11:59:39.256967,1709117979.256967,-21.97265625,-29.78515625,-21.97265625,-23.4375,-1.0,1.0,-1.0,1.0,9.m4v,9.0
2024-02-28 11:59:39.260872,1709117979.2608724,-35.64453125,-35.15625,-37.59765625,-16.6015625,-1.0,1.0,-1.0,1.0,9.m4v,9.0
2024-02-28 11:59:39.264778,1709117979.264778,-55.6640625,-43.45703125,-49.31640625,-27.34375,-1.0,1.0,-1.0,1.0,9.m4v,9.0
2024-02-28 11:59:39.268683,1709117979.2686834,-54.19921875,-48.828125,-39.55078125,-44.921875,-1.0,1.0,-1.0,1.0,9.m4v,9.0
2024-02-28 11:59:39.272589,1709117979.2725887,-54.19921875,-44.921875,-33.203125,-47.36328125,-1.0,1.0,-1.0,1.0,9.m4v,9.0
2024-02-28 11:59:39.276494,1709117979.2764945,-55.17578125,-50.29296875,-44.43359375,-41.50390625,-1.0,1.0,-1.0,1.0,9.m4v,9.0
2024-02-28 11:59:39.280400,1709117979.2803996,-44.43359375,-47.8515625,-39.0625,-41.015625,-1.0,1.0,-1.0,1.0,9.m4v,9.0
2024-02-28 11:59:39.284309,1709117979.284309,-51.26953125,-36.1328125,-30.76171875,-24.4140625,-1.0,1.0,-1.0,1.0,9.m4v,9.0
2024-02-28 11:59:39.288214,1709117979.2882142,-49.8046875,-32.71484375,-27.34375,-30.76171875,-1.0,1.0,-1.0,1.0,9.m4v,9.0
2024-02-28 11:59:39.292120,1709117979.2921195,-37.59765625,-28.3203125,-15.13671875,-61.5234375,-1.0,1.0,-1.0,1.0,9.m4v,9.0
2024-02-28 11:59:39.296025,1709117979.296025,-20.01953125,-27.83203125,-9.27734375,-48.33984375,-1.0,1.0,-1.0,1.0,9.m4v,9.0
2024-02-28 11:59:39.299931,1709117979.2999306,-29.296875,-46.38671875,-37.109375,-46.38671875,-1.0,1.0,-1.0,1.0,9.m4v,9.0
2024-02-28 11:59:39.303836,1709117979.303836,-41.015625,-53.22265625,-45.8984375,-33.203125,-1.0,1.0,-1.0,1.0,9.m4v,9.0
2024-02-28 11:59:39.307741,1709117979.3077414,-47.36328125,-39.55078125,-34.66796875,-27.83203125,-1.0,1.0,-1.0,1.0,9.m4v,9.0
2024-02-28 11:59:39.311647,1709117979.311647,-48.33984375,-39.0625,-37.59765625,-48.828125,-1.0,1.0,-1.0,1.0,9.m4v,9.0
2024-02-28 11:59:39.315552,1709117979.3155522,-24.90234375,-41.015625,-32.2265625,-41.50390625,-1.0,1.0,-1.0,1.0,9.m4v,9.0
2024-02-28 11:59:39.319458,1709117979.3194578,-53.22265625,-39.55078125,-30.2734375,-45.8984375,-1.0,1.0,-1.0,1.0,9.m4v,9.0
2024-02-28 11:59:39.323363,1709117979.3233633,-62.98828125,-34.66796875,-33.69140625,-68.84765625,-1.0,1.0,-1.0,1.0,9.m4v,9.0
2024-02-28 11:59:39.327269,1709117979.3272686,-55.6640625,-33.203125,-31.73828125,-61.03515625,-1.0,1.0,-1.0,1.0,9.m4v,9.0
2024-02-28 11:59:39.331180,1709117979.3311803,-41.015625,-43.9453125,-23.92578125,-13.18359375,-1.0,1.0,-1.0,1.0,9.m4v,9.0
2024-02-28 11:59:39.335086,1709117979.3350856,-15.13671875,-56.15234375,-34.66796875,-7.32421875,-1.0,1.0,-1.0,1.0,9.m4v,9.0
2024-02-28 11:59:39.338991,1709117979.3389912,-28.80859375,-54.19921875,-49.31640625,-20.99609375,-1.0,1.0,-1.0,1.0,9.m4v,9.0
2024-02-28 11:59:39.342897,1709117979.3428967,-33.69140625,-30.2734375,-52.24609375,-9.27734375,-1.0,1.0,-1.0,1.0,9.m4v,9.0
2024-02-28 11:59:39.346802,1709117979.346802,-42.48046875,-27.83203125,-35.15625,-27.83203125,-1.0,1.0,-1.0,1.0,9.m4v,9.0
2024-02-28 11:59:39.350708,1709117979.3507075,-35.64453125,-20.5078125,-15.13671875,-43.9453125,-1.0,1.0,-1.0,1.0,9.m4v,9.0
2024-02-28 11:59:39.354613,1709117979.354613,-24.90234375,-23.4375,-12.20703125,-32.2265625,-1.0,1.0,-1.0,1.0,9.m4v,9.0
2024-02-28 11:59:39.358518,1709117979.3585184,-35.15625,-63.96484375,-23.4375,-40.0390625,-1.0,1.0,-1.0,1.0,9.m4v,9.0
2024-02-28 11:59:39.362424,1709117979.362424,-32.2265625,-66.40625,-33.69140625,-51.7578125,-1.0,1.0,-1.0,1.0,9.m4v,9.0
2024-02-28 11:59:39.366329,1709117979.3663294,-32.2265625,-52.24609375,-43.9453125,-46.38671875,-1.0,1.0,-1.0,1.0,9.m4v,9.0
2024-02-28 11:59:39.370235,1709117979.3702347,-49.8046875,-34.66796875,-44.43359375,-39.55078125,-1.0,1.0,-1.0,1.0,9.m4v,9.0
2024-02-28 11:59:39.374140,1709117979.3741405,-41.50390625,-19.53125,-24.4140625,-43.45703125,-1.0,1.0,-1.0,1.0,9.m4v,9.0
2024-02-28 11:59:39.378052,1709117979.378052,-32.71484375,-30.76171875,-14.6484375,-33.203125,-1.0,1.0,-1.0,1.0,9.m4v,9.0
2024-02-28 11:59:39.381958,1709117979.3819575,-36.1328125,-49.31640625,-5.859375,-28.3203125,-1.0,1.0,-1.0,1.0,9.m4v,9.0
2024-02-28 11:59:39.385863,1709117979.3858628,-37.109375,-59.5703125,-19.53125,-62.01171875,-1.0,1.0,-1.0,1.0,9.m4v,9.0
2024-02-28 11:59:39.389768,1709117979.3897684,-40.52734375,-46.875,-42.48046875,-39.55078125,-1.0,1.0,-1.0,1.0,9.m4v,9.0
2024-02-28 11:59:39.393674,1709117979.393674,-40.52734375,-29.78515625,-44.921875,-26.3671875,-1.0,1.0,-1.0,1.0,9.m4v,9.0
2024-02-28 11:59:39.397579,1709117979.3975792,-38.0859375,-29.78515625,-38.0859375,-63.4765625,-1.0,1.0,-1.0,1.0,9.m4v,9.0
2024-02-28 11:59:39.401485,1709117979.4014847,-25.87890625,-33.203125,-39.55078125,-43.45703125,-1.0,1.0,-1.0,1.0,9.m4v,9.0
2024-02-28 11:59:39.405390,1709117979.4053905,-32.71484375,-41.9921875,-58.59375,-30.76171875,-1.0,1.0,-1.0,1.0,9.m4v,9.0
2024-02-28 11:59:39.409296,1709117979.4092956,-44.43359375,-45.41015625,-52.24609375,-29.78515625,-1.0,1.0,-1.0,1.0,9.m4v,9.0
2024-02-28 11:59:39.413201,1709117979.413201,-45.41015625,-44.43359375,-25.87890625,-32.2265625,-1.0,1.0,-1.0,1.0,9.m4v,9.0
2024-02-28 11:59:39.417107,1709117979.4171066,-42.48046875,-40.52734375,-26.85546875,-38.0859375,-1.0,1.0,-1.0,1.0,9.m4v,9.0
2024-02-28 11:59:39.421012,1709117979.421012,-39.0625,-26.85546875,-31.25,-6.34765625,-1.0,1.0,-1.0,1.0,9.m4v,9.0
2024-02-28 11:59:39.424923,1709117979.4249227,-28.80859375,-24.4140625,-27.34375,-3.41796875,-1.0,1.0,-1.0,1.0,9.m4v,9.0
2024-02-28 11:59:39.428828,1709117979.428828,-14.6484375,-28.80859375,-22.94921875,-40.0390625,-1.0,1.0,-1.0,1.0,9.m4v,9.0
2024-02-28 11:59:39.432734,1709117979.4327335,-29.78515625,-45.8984375,-21.484375,-41.015625,-1.0,1.0,-1.0,1.0,9.m4v,9.0
2024-02-28 11:59:39.436639,1709117979.436639,-44.43359375,-61.5234375,-33.69140625,-34.1796875,-1.0,1.0,-1.0,1.0,9.m4v,9.0
2024-02-28 11:59:39.440544,1709117979.4405444,-26.3671875,-48.828125,-49.8046875,-35.64453125,-1.0,1.0,-1.0,1.0,9.m4v,9.0
2024-02-28 11:59:39.444450,1709117979.44445,-16.6015625,-34.66796875,-32.71484375,-41.50390625,-1.0,1.0,-1.0,1.0,9.m4v,9.0
2024-02-28 11:59:39.448355,1709117979.4483554,-25.87890625,-50.78125,-11.23046875,-33.69140625,-1.0,1.0,-1.0,1.0,9.m4v,9.0
2024-02-28 11:59:39.452261,1709117979.4522607,-37.59765625,-48.33984375,-14.16015625,-23.92578125,-1.0,1.0,-1.0,1.0,9.m4v,9.0
2024-02-28 11:59:39.456166,1709117979.4561665,-32.71484375,-18.5546875,-14.16015625,-51.7578125,-1.0,1.0,-1.0,1.0,9.m4v,9.0
2024-02-28 11:59:39.460072,1709117979.4600718,-34.1796875,-27.83203125,-24.90234375,-83.49609375,-1.0,1.0,-1.0,1.0,9.m4v,9.0
2024-02-28 11:59:39.463977,1709117979.463977,-36.62109375,-33.203125,-38.57421875,-46.38671875,-1.0,1.0,-1.0,1.0,9.m4v,9.0
2024-02-28 11:59:39.467883,1709117979.4678826,-32.71484375,-53.22265625,-41.015625,-18.5546875,-1.0,1.0,-1.0,1.0,9.m4v,9.0
2024-02-28 11:59:39.471793,1709117979.4717932,-29.78515625,-89.35546875,-50.29296875,-32.71484375,-1.0,1.0,-1.0,1.0,9.m4v,9.0
2024-02-28 11:59:39.475699,1709117979.4756987,-38.57421875,-65.91796875,-43.45703125,-47.36328125,-1.0,1.0,-1.0,1.0,9.m4v,9.0
2024-02-28 11:59:39.479604,1709117979.479604,-38.0859375,-23.92578125,-19.53125,-39.0625,-1.0,1.0,-1.0,1.0,9.m4v,9.0
2024-02-28 11:59:39.483510,1709117979.4835095,-30.2734375,-7.8125,-14.6484375,-35.15625,-1.0,1.0,-1.0,1.0,9.m4v,9.0
2024-02-28 11:59:39.487415,1709117979.487415,-40.0390625,-16.6015625,-30.2734375,-33.203125,-1.0,1.0,-1.0,1.0,9.m4v,9.0
2024-02-28 11:59:39.491320,1709117979.4913204,-50.29296875,-30.76171875,-52.734375,-26.85546875,-1.0,1.0,-1.0,1.0,9.m4v,9.0
2024-02-28 11:59:39.741291,1709117979.7412908,-50.78125,-57.6171875,-43.9453125,-33.203125,-1.0,1.0,-1.0,1.0,9.m4v,9.0
2024-02-28 11:59:39.745196,1709117979.745196,-31.25,-52.24609375,-18.5546875,-25.390625,-1.0,1.0,-1.0,1.0,9.m4v,9.0
2024-02-28 11:59:39.749102,1709117979.7491016,-40.0390625,-30.2734375,-31.25,-31.25,-1.0,1.0,-1.0,1.0,9.m4v,9.0
2024-02-28 11:59:39.753013,1709117979.753013,-53.22265625,-33.203125,-40.0390625,-47.8515625,-1.0,1.0,-1.0,1.0,9.m4v,9.0
2024-02-28 11:59:39.756918,1709117979.7569182,-38.57421875,-41.015625,-35.64453125,-67.87109375,-1.0,1.0,-1.0,1.0,9.m4v,9.0
2024-02-28 11:59:39.760824,1709117979.7608235,-32.71484375,-58.59375,-37.109375,-35.15625,-1.0,1.0,-1.0,1.0,9.m4v,9.0
2024-02-28 11:59:39.764729,1709117979.7647293,-48.33984375,-66.89453125,-38.0859375,-30.76171875,-1.0,1.0,-1.0,1.0,9.m4v,9.0
2024-02-28 11:59:39.768635,1709117979.7686346,-36.62109375,-37.59765625,-18.5546875,-11.23046875,-1.0,1.0,-1.0,1.0,9.m4v,9.0
2024-02-28 11:59:39.772540,1709117979.77254,-29.296875,-30.2734375,-15.13671875,-19.04296875,-1.0,1.0,-1.0,1.0,9.m4v,9.0
2024-02-28 11:59:39.776446,1709117979.7764456,-56.15234375,-44.43359375,-48.828125,-62.98828125,-1.0,1.0,-1.0,1.0,9.m4v,9.0
2024-02-28 11:59:39.780351,1709117979.780351,-52.24609375,-32.71484375,-48.33984375,-61.5234375,-1.0,1.0,-1.0,1.0,9.m4v,9.0
2024-02-28 11:59:39.792067,1709117979.7920673,-33.69140625,-36.62109375,-44.921875,-25.87890625,-1.0,1.0,-1.0,1.0,9.m4v,9.0
2024-02-28 11:59:39.799884,1709117979.799884,-45.8984375,-45.8984375,-28.3203125,-16.6015625,-1.0,1.0,-1.0,1.0,9.m4v,9.0
2024-02-28 11:59:39.811600,1709117979.8116004,-43.9453125,-40.52734375,-33.203125,-54.6875,-1.0,1.0,-1.0,1.0,9.m4v,9.0
2024-02-28 11:59:39.819411,1709117979.8194113,-22.4609375,-49.31640625,-44.43359375,-37.109375,-1.0,1.0,-1.0,1.0,9.m4v,9.0
2024-02-28 11:59:39.831128,1709117979.8311276,-30.2734375,-25.390625,-19.53125,-14.16015625,-1.0,1.0,-1.0,1.0,9.m4v,9.0
2024-02-28 11:59:39.842844,1709117979.842844,-41.50390625,-54.6875,-42.48046875,-13.18359375,-1.0,1.0,-1.0,1.0,9.m4v,9.0
2024-02-28 11:59:39.850660,1709117979.8506603,-42.48046875,-37.109375,-55.17578125,-36.62109375,-1.0,1.0,-1.0,1.0,9.m4v,9.0
2024-02-28 11:59:39.862377,1709117979.8623767,-24.90234375,-34.1796875,-34.66796875,-35.64453125,-1.0,1.0,-1.0,1.0,9.m4v,9.0
2024-02-28 11:59:39.874093,1709117979.874093,-36.62109375,-56.640625,-48.828125,-32.2265625,-1.0,1.0,-1.0,1.0,9.m4v,9.0
2024-02-28 11:59:39.881904,1709117979.881904,-32.2265625,-41.50390625,-24.90234375,-21.97265625,-1.0,1.0,-1.0,1.0,9.m4v,9.0
2024-02-28 11:59:39.893625,1709117979.893625,-35.64453125,-28.80859375,-37.59765625,-12.20703125,-1.0,1.0,-1.0,1.0,9.m4v,9.0
2024-02-28 11:59:39.893625,1709117979.893625,-35.64453125,-28.80859375,-37.59765625,-12.20703125,-1.0,1.0,-1.0,1.0,9.m4v,9.0
2024-02-28 11:59:39.901436,1709117979.901436,-5.37109375,-12.6953125,-14.16015625,-12.20703125,-1.0,1.0,-1.0,1.0,9.m4v,9.0
2024-02-28 11:59:39.901436,1709117979.901436,-5.37109375,-12.6953125,-14.16015625,-12.20703125,-1.0,1.0,-1.0,1.0,9.m4v,9.0
2024-02-28 11:59:39.913152,1709117979.9131525,-37.109375,-33.203125,-15.625,-29.296875,-1.0,1.0,-1.0,1.0,9.m4v,9.0
2024-02-28 11:59:39.913152,1709117979.9131525,-37.109375,-33.203125,-15.625,-29.296875,-1.0,1.0,-1.0,1.0,9.m4v,9.0
2024-02-28 11:59:39.924869,1709117979.9248688,-22.94921875,-28.80859375,-29.78515625,-29.296875,-1.0,1.0,-1.0,1.0,9.m4v,9.0
2024-02-28 11:59:39.924869,1709117979.9248688,-22.94921875,-28.80859375,-29.78515625,-29.296875,-1.0,1.0,-1.0,1.0,9.m4v,9.0
2024-02-28 11:59:39.932680,1709117979.9326797,-10.7421875,-39.0625,-61.5234375,-1.953125,-1.0,1.0,-1.0,1.0,9.m4v,9.0
2024-02-28 11:59:39.932680,1709117979.9326797,-10.7421875,-39.0625,-61.5234375,-1.953125,-1.0,1.0,-1.0,1.0,9.m4v,9.0
2024-02-28 11:59:39.944400,1709117979.9444003,-39.55078125,-42.48046875,-20.99609375,-59.08203125,-1.0,1.0,-1.0,1.0,9.m4v,9.0
2024-02-28 11:59:39.944400,1709117979.9444003,-39.55078125,-42.48046875,-20.99609375,-59.08203125,-1.0,1.0,-1.0,1.0,9.m4v,9.0
2024-02-28 11:59:39.952211,1709117979.9522114,-24.4140625,-24.90234375,-41.50390625,-12.20703125,-1.0,1.0,-1.0,1.0,9.m4v,9.0
2024-02-28 11:59:39.952211,1709117979.9522114,-24.4140625,-24.90234375,-41.50390625,-12.20703125,-1.0,1.0,-1.0,1.0,9.m4v,9.0
2024-02-28 11:59:39.963928,1709117979.9639275,-30.76171875,-38.0859375,-28.3203125,-45.8984375,-1.0,1.0,-1.0,1.0,9.m4v,9.0
2024-02-28 11:59:39.963928,1709117979.9639275,-30.76171875,-38.0859375,-28.3203125,-45.8984375,-1.0,1.0,-1.0,1.0,9.m4v,9.0
2024-02-28 11:59:39.975644,1709117979.975644,-34.1796875,-27.34375,-38.57421875,-45.8984375,-1.0,1.0,-1.0,1.0,9.m4v,9.0
2024-02-28 11:59:39.975644,1709117979.975644,-34.1796875,-27.34375,-38.57421875,-45.8984375,-1.0,1.0,-1.0,1.0,9.m4v,9.0
2024-02-28 11:59:39.983455,1709117979.983455,-40.0390625,-48.828125,-44.921875,-44.43359375,-1.0,1.0,-1.0,1.0,9.m4v,9.0
2024-02-28 11:59:39.983455,1709117979.983455,-40.0390625,-48.828125,-44.921875,-44.43359375,-1.0,1.0,-1.0,1.0,9.m4v,9.0
2024-02-28 11:59:39.995175,1709117979.9951751,-27.83203125,-28.80859375,-34.1796875,-13.18359375,-1.0,1.0,-1.0,1.0,9.m4v,9.0
2024-02-28 11:59:39.995175,1709117979.9951751,-27.83203125,-28.80859375,-34.1796875,-13.18359375,-1.0,1.0,-1.0,1.0,9.m4v,9.0
2024-02-28 11:59:40.006891,1709117980.0068915,-34.66796875,-12.6953125,-37.109375,-9.27734375,-1.0,1.0,-1.0,1.0,9.m4v,9.0
2024-02-28 11:59:40.006891,1709117980.0068915,-34.66796875,-12.6953125,-37.109375,-9.27734375,-1.0,1.0,-1.0,1.0,9.m4v,9.0
2024-02-28 11:59:40.014702,1709117980.0147023,-13.671875,-46.38671875,-33.69140625,-41.015625,-1.0,1.0,-1.0,1.0,9.m4v,9.0
2024-02-28 11:59:40.014702,1709117980.0147023,-13.671875,-46.38671875,-33.69140625,-41.015625,-1.0,1.0,-1.0,1.0,9.m4v,9.0
2024-02-28 11:59:40.022513,1709117980.0225134,-36.1328125,-39.0625,-44.921875,-48.33984375,-1.0,1.0,-1.0,1.0,9.m4v,9.0
2024-02-28 11:59:40.022513,1709117980.0225134,-36.1328125,-39.0625,-44.921875,-48.33984375,-1.0,1.0,-1.0,1.0,9.m4v,9.0
2024-02-28 11:59:40.030324,1709117980.0303242,-34.66796875,-37.59765625,-42.48046875,1.953125,-1.0,1.0,-1.0,1.0,9.m4v,9.0
2024-02-28 11:59:40.030324,1709117980.0303242,-34.66796875,-37.59765625,-42.48046875,1.953125,-1.0,1.0,-1.0,1.0,9.m4v,9.0
2024-02-28 11:59:40.038145,1709117980.0381448,-42.96875,-65.91796875,-30.2734375,-60.546875,-1.0,1.0,-1.0,1.0,9.m4v,9.0
2024-02-28 11:59:40.038145,1709117980.0381448,-42.96875,-65.91796875,-30.2734375,-60.546875,-1.0,1.0,-1.0,1.0,9.m4v,9.0
2024-02-28 11:59:40.045956,1709117980.045956,-27.34375,-27.83203125,-68.84765625,-43.45703125,-1.0,1.0,-1.0,1.0,9.m4v,9.0
2024-02-28 11:59:40.045956,1709117980.045956,-27.34375,-27.83203125,-68.84765625,-43.45703125,-1.0,1.0,-1.0,1.0,9.m4v,9.0
2024-02-28 11:59:40.053767,1709117980.0537667,-36.1328125,-29.78515625,-23.92578125,-60.546875,-1.0,1.0,-1.0,1.0,9.m4v,9.0
2024-02-28 11:59:40.053767,1709117980.0537667,-36.1328125,-29.78515625,-23.92578125,-60.546875,-1.0,1.0,-1.0,1.0,9.m4v,9.0
2024-02-28 11:59:40.061578,1709117980.0615776,-32.2265625,-38.0859375,-17.578125,-32.2265625,-1.0,1.0,-1.0,1.0,9.m4v,9.0
2024-02-28 11:59:40.061578,1709117980.0615776,-32.2265625,-38.0859375,-17.578125,-32.2265625,-1.0,1.0,-1.0,1.0,9.m4v,9.0
2024-02-28 11:59:40.069389,1709117980.0693886,-19.53125,-29.78515625,-20.99609375,-23.92578125,-1.0,1.0,-1.0,1.0,9.m4v,9.0
2024-02-28 11:59:40.069389,1709117980.0693886,-19.53125,-29.78515625,-20.99609375,-23.92578125,-1.0,1.0,-1.0,1.0,9.m4v,9.0
2024-02-28 11:59:40.077199,1709117980.0771997,-42.48046875,-56.15234375,-28.3203125,-64.453125,-1.0,1.0,-1.0,1.0,9.m4v,9.0
2024-02-28 11:59:40.077199,1709117980.0771997,-42.48046875,-56.15234375,-28.3203125,-64.453125,-1.0,1.0,-1.0,1.0,9.m4v,9.0
2024-02-28 11:59:40.085016,1709117980.0850165,-33.203125,-54.19921875,-42.96875,-39.0625,-1.0,1.0,-1.0,1.0,9.m4v,9.0
2024-02-28 11:59:40.085016,1709117980.0850165,-33.203125,-54.19921875,-42.96875,-39.0625,-1.0,1.0,-1.0,1.0,9.m4v,9.0
2024-02-28 11:59:40.092828,1709117980.0928276,-33.69140625,-71.77734375,-46.38671875,-42.96875,-1.0,1.0,-1.0,1.0,9.m4v,9.0
2024-02-28 11:59:40.092828,1709117980.0928276,-33.69140625,-71.77734375,-46.38671875,-42.96875,-1.0,1.0,-1.0,1.0,9.m4v,9.0
2024-02-28 11:59:40.100638,1709117980.1006384,-38.57421875,-10.25390625,-32.71484375,-39.55078125,-1.0,1.0,-1.0,1.0,9.m4v,9.0
2024-02-28 11:59:40.100638,1709117980.1006384,-38.57421875,-10.25390625,-32.71484375,-39.55078125,-1.0,1.0,-1.0,1.0,9.m4v,9.0
2024-02-28 11:59:40.108449,1709117980.1084492,-45.41015625,-7.32421875,-19.04296875,-59.08203125,-1.0,1.0,-1.0,1.0,9.m4v,9.0
2024-02-28 11:59:40.108449,1709117980.1084492,-45.41015625,-7.32421875,-19.04296875,-59.08203125,-1.0,1.0,-1.0,1.0,9.m4v,9.0
2024-02-28 11:59:40.116260,1709117980.1162603,-14.6484375,-38.57421875,-19.53125,-1.46484375,-1.0,1.0,-1.0,1.0,9.m4v,9.0
2024-02-28 11:59:40.116260,1709117980.1162603,-14.6484375,-38.57421875,-19.53125,-1.46484375,-1.0,1.0,-1.0,1.0,9.m4v,9.0
2024-02-28 11:59:40.124071,1709117980.1240711,-45.8984375,-43.45703125,-53.7109375,-44.43359375,-1.0,1.0,-1.0,1.0,9.m4v,9.0
2024-02-28 11:59:40.124071,1709117980.1240711,-45.8984375,-43.45703125,-53.7109375,-44.43359375,-1.0,1.0,-1.0,1.0,9.m4v,9.0
2024-02-28 11:59:40.131888,1709117980.131888,-37.109375,-60.05859375,-56.640625,-47.36328125,-1.0,1.0,-1.0,1.0,9.m4v,9.0
2024-02-28 11:59:40.131888,1709117980.131888,-37.109375,-60.05859375,-56.640625,-47.36328125,-1.0,1.0,-1.0,1.0,9.m4v,9.0
2024-02-28 11:59:40.139699,1709117980.1396987,-23.92578125,-26.85546875,-30.76171875,-22.4609375,-1.0,1.0,-1.0,1.0,9.m4v,9.0
2024-02-28 11:59:40.139699,1709117980.1396987,-23.92578125,-26.85546875,-30.76171875,-22.4609375,-1.0,1.0,-1.0,1.0,9.m4v,9.0
2024-02-28 11:59:40.147510,1709117980.1475098,-26.85546875,-40.52734375,-45.8984375,-18.06640625,-1.0,1.0,-1.0,1.0,9.m4v,9.0
2024-02-28 11:59:40.147510,1709117980.1475098,-26.85546875,-40.52734375,-45.8984375,-18.06640625,-1.0,1.0,-1.0,1.0,9.m4v,9.0
2024-02-28 11:59:40.155321,1709117980.1553206,-39.55078125,-46.875,-24.90234375,-58.10546875,-1.0,1.0,-1.0,1.0,9.m4v,9.0
2024-02-28 11:59:40.155321,1709117980.1553206,-39.55078125,-46.875,-24.90234375,-58.10546875,-1.0,1.0,-1.0,1.0,9.m4v,9.0
2024-02-28 11:59:40.163131,1709117980.1631317,-37.59765625,-38.57421875,-36.62109375,-54.19921875,-1.0,1.0,-1.0,1.0,9.m4v,9.0
2024-02-28 11:59:40.163131,1709117980.1631317,-37.59765625,-38.57421875,-36.62109375,-54.19921875,-1.0,1.0,-1.0,1.0,9.m4v,9.0
2024-02-28 11:59:40.170943,1709117980.1709423,-41.50390625,-24.90234375,-28.80859375,-40.0390625,-1.0,1.0,-1.0,1.0,9.m4v,9.0
2024-02-28 11:59:40.170943,1709117980.1709423,-41.50390625,-24.90234375,-28.80859375,-40.0390625,-1.0,1.0,-1.0,1.0,9.m4v,9.0
2024-02-28 11:59:40.178759,1709117980.1787586,-46.38671875,-38.57421875,-27.34375,-18.06640625,-1.0,1.0,-1.0,1.0,9.m4v,9.0
2024-02-28 11:59:40.178759,1709117980.1787586,-46.38671875,-38.57421875,-27.34375,-18.06640625,-1.0,1.0,-1.0,1.0,9.m4v,9.0
2024-02-28 11:59:40.186569,1709117980.1865697,-28.3203125,-44.921875,-33.69140625,-5.859375,-1.0,1.0,-1.0,1.0,9.m4v,9.0
2024-02-28 11:59:40.186569,1709117980.1865697,-28.3203125,-44.921875,-33.69140625,-5.859375,-1.0,1.0,-1.0,1.0,9.m4v,9.0
2024-02-28 11:59:40.194380,1709117980.1943803,-23.92578125,-44.921875,-35.64453125,-46.38671875,-1.0,1.0,-1.0,1.0,9.m4v,9.0
2024-02-28 11:59:40.194380,1709117980.1943803,-23.92578125,-44.921875,-35.64453125,-46.38671875,-1.0,1.0,-1.0,1.0,9.m4v,9.0
2024-02-28 11:59:40.202191,1709117980.2021914,-38.57421875,-26.3671875,-31.73828125,-34.66796875,-1.0,1.0,-1.0,1.0,9.m4v,9.0
2024-02-28 11:59:40.202191,1709117980.2021914,-38.57421875,-26.3671875,-31.73828125,-34.66796875,-1.0,1.0,-1.0,1.0,9.m4v,9.0
2024-02-28 11:59:40.210002,1709117980.2100022,-51.7578125,-49.31640625,-66.40625,-61.5234375,-1.0,1.0,-1.0,1.0,9.m4v,9.0
2024-02-28 11:59:40.210002,1709117980.2100022,-51.7578125,-49.31640625,-66.40625,-61.5234375,-1.0,1.0,-1.0,1.0,9.m4v,9.0
2024-02-28 11:59:40.217813,1709117980.217813,-27.83203125,-24.90234375,-16.6015625,-17.08984375,-1.0,1.0,-1.0,1.0,9.m4v,9.0
2024-02-28 11:59:40.217813,1709117980.217813,-27.83203125,-24.90234375,-16.6015625,-17.08984375,-1.0,1.0,-1.0,1.0,9.m4v,9.0
2024-02-28 11:59:40.225629,1709117980.225629,-39.55078125,-45.8984375,-24.4140625,-46.38671875,-1.0,1.0,-1.0,1.0,9.m4v,9.0
2024-02-28 11:59:40.225629,1709117980.225629,-39.55078125,-45.8984375,-24.4140625,-46.38671875,-1.0,1.0,-1.0,1.0,9.m4v,9.0
2024-02-28 11:59:40.233440,1709117980.23344,-42.96875,-41.9921875,-22.4609375,-41.50390625,-1.0,1.0,-1.0,1.0,9.m4v,9.0
2024-02-28 11:59:40.233440,1709117980.23344,-42.96875,-41.9921875,-22.4609375,-41.50390625,-1.0,1.0,-1.0,1.0,9.m4v,9.0
2024-02-28 11:59:40.241251,1709117980.241251,-32.2265625,-25.390625,-47.36328125,-38.0859375,-1.0,1.0,-1.0,1.0,9.m4v,9.0
2024-02-28 11:59:40.241251,1709117980.241251,-32.2265625,-25.390625,-47.36328125,-38.0859375,-1.0,1.0,-1.0,1.0,9.m4v,9.0
2024-02-28 11:59:40.249062,1709117980.2490618,-48.828125,-37.59765625,-44.43359375,-60.546875,-1.0,1.0,-1.0,1.0,9.m4v,9.0
2024-02-28 11:59:40.249062,1709117980.2490618,-48.828125,-37.59765625,-44.43359375,-60.546875,-1.0,1.0,-1.0,1.0,9.m4v,9.0
2024-02-28 11:59:40.256873,1709117980.256873,-39.55078125,-49.31640625,-23.4375,-21.484375,-1.0,1.0,-1.0,1.0,9.m4v,9.0
2024-02-28 11:59:40.256873,1709117980.256873,-39.55078125,-49.31640625,-23.4375,-21.484375,-1.0,1.0,-1.0,1.0,9.m4v,9.0
2024-02-28 11:59:40.264684,1709117980.2646835,-34.1796875,-59.08203125,-48.33984375,-15.625,-1.0,1.0,-1.0,1.0,9.m4v,9.0
2024-02-28 11:59:40.264684,1709117980.2646835,-34.1796875,-59.08203125,-48.33984375,-15.625,-1.0,1.0,-1.0,1.0,9.m4v,9.0
2024-02-28 11:59:40.272499,1709117980.2724988,-44.921875,-47.8515625,-25.390625,-60.05859375,-1.0,1.0,-1.0,1.0,9.m4v,9.0
2024-02-28 11:59:40.272499,1709117980.2724988,-44.921875,-47.8515625,-25.390625,-60.05859375,-1.0,1.0,-1.0,1.0,9.m4v,9.0
2024-02-28 11:59:40.280310,1709117980.2803097,-28.3203125,-20.5078125,-36.62109375,-51.7578125,-1.0,1.0,-1.0,1.0,9.m4v,9.0
2024-02-28 11:59:40.280310,1709117980.2803097,-28.3203125,-20.5078125,-36.62109375,-51.7578125,-1.0,1.0,-1.0,1.0,9.m4v,9.0
2024-02-28 11:59:40.288121,1709117980.2881207,-36.62109375,-28.3203125,-31.73828125,-19.53125,-1.0,1.0,-1.0,1.0,9.m4v,9.0
2024-02-28 11:59:40.288121,1709117980.2881207,-36.62109375,-28.3203125,-31.73828125,-19.53125,-1.0,1.0,-1.0,1.0,9.m4v,9.0
2024-02-28 11:59:40.295932,1709117980.2959316,-41.9921875,-41.015625,-36.62109375,-28.3203125,-1.0,1.0,-1.0,1.0,9.m4v,9.0
2024-02-28 11:59:40.295932,1709117980.2959316,-41.9921875,-41.015625,-36.62109375,-28.3203125,-1.0,1.0,-1.0,1.0,9.m4v,9.0
2024-02-28 11:59:40.303742,1709117980.3037424,-27.83203125,-39.0625,-34.1796875,-24.4140625,-1.0,1.0,-1.0,1.0,9.m4v,9.0
2024-02-28 11:59:40.303742,1709117980.3037424,-27.83203125,-39.0625,-34.1796875,-24.4140625,-1.0,1.0,-1.0,1.0,9.m4v,9.0
2024-02-28 11:59:40.311553,1709117980.3115537,-44.921875,-36.1328125,-28.80859375,-46.875,-1.0,1.0,-1.0,1.0,9.m4v,9.0
2024-02-28 11:59:40.311553,1709117980.3115537,-44.921875,-36.1328125,-28.80859375,-46.875,-1.0,1.0,-1.0,1.0,9.m4v,9.0
2024-02-28 11:59:40.319369,1709117980.3193686,-43.9453125,-41.015625,-57.12890625,-49.8046875,-1.0,1.0,-1.0,1.0,9.m4v,9.0
2024-02-28 11:59:40.319369,1709117980.3193686,-43.9453125,-41.015625,-57.12890625,-49.8046875,-1.0,1.0,-1.0,1.0,9.m4v,9.0
2024-02-28 11:59:40.327179,1709117980.3271794,-51.7578125,-39.0625,-19.53125,-43.45703125,-1.0,1.0,-1.0,1.0,9.m4v,9.0
2024-02-28 11:59:40.327179,1709117980.3271794,-51.7578125,-39.0625,-19.53125,-43.45703125,-1.0,1.0,-1.0,1.0,9.m4v,9.0
2024-02-28 11:59:40.334991,1709117980.3349905,-29.78515625,-25.87890625,-19.53125,-27.83203125,-1.0,1.0,-1.0,1.0,9.m4v,9.0
2024-02-28 11:59:40.334991,1709117980.3349905,-29.78515625,-25.87890625,-19.53125,-27.83203125,-1.0,1.0,-1.0,1.0,9.m4v,9.0
2024-02-28 11:59:40.342801,1709117980.342801,-32.71484375,-49.31640625,-39.0625,-39.0625,-1.0,1.0,-1.0,1.0,9.m4v,9.0
2024-02-28 11:59:40.342801,1709117980.342801,-32.71484375,-49.31640625,-39.0625,-39.0625,-1.0,1.0,-1.0,1.0,9.m4v,9.0
2024-02-28 11:59:40.350612,1709117980.3506122,-26.3671875,-23.92578125,-39.0625,-44.921875,-1.0,1.0,-1.0,1.0,9.m4v,9.0
2024-02-28 11:59:40.350612,1709117980.3506122,-26.3671875,-23.92578125,-39.0625,-44.921875,-1.0,1.0,-1.0,1.0,9.m4v,9.0
2024-02-28 11:59:40.358423,1709117980.3584232,-41.50390625,-32.71484375,-22.94921875,-7.32421875,-1.0,1.0,-1.0,1.0,9.m4v,9.0
2024-02-28 11:59:40.358423,1709117980.3584232,-41.50390625,-32.71484375,-22.94921875,-7.32421875,-1.0,1.0,-1.0,1.0,9.m4v,9.0
2024-02-28 11:59:40.366238,1709117980.366238,-13.18359375,-48.33984375,-22.94921875,-43.45703125,-1.0,1.0,-1.0,1.0,9.m4v,9.0
2024-02-28 11:59:40.366238,1709117980.366238,-13.18359375,-48.33984375,-22.94921875,-43.45703125,-1.0,1.0,-1.0,1.0,9.m4v,9.0
2024-02-28 11:59:40.374049,1709117980.3740487,-48.33984375,-44.921875,-40.0390625,-29.296875,-1.0,1.0,-1.0,1.0,9.m4v,9.0
2024-02-28 11:59:40.374049,1709117980.3740487,-48.33984375,-44.921875,-40.0390625,-29.296875,-1.0,1.0,-1.0,1.0,9.m4v,9.0
2024-02-28 11:59:40.381860,1709117980.3818595,-42.96875,-32.2265625,-38.0859375,-26.85546875,-1.0,1.0,-1.0,1.0,9.m4v,9.0
2024-02-28 11:59:40.381860,1709117980.3818595,-42.96875,-32.2265625,-38.0859375,-26.85546875,-1.0,1.0,-1.0,1.0,9.m4v,9.0
2024-02-28 11:59:40.389671,1709117980.3896706,-42.96875,-48.828125,-43.9453125,-42.96875,-1.0,1.0,-1.0,1.0,9.m4v,9.0
2024-02-28 11:59:40.389671,1709117980.3896706,-42.96875,-48.828125,-43.9453125,-42.96875,-1.0,1.0,-1.0,1.0,9.m4v,9.0
2024-02-28 11:59:40.459979,1709117980.4599786,-41.015625,-20.5078125,-18.06640625,-48.828125,-1.0,1.0,-1.0,1.0,9.m4v,9.0
2024-02-28 11:59:40.463884,1709117980.463884,-39.55078125,-36.62109375,-19.53125,-37.109375,-1.0,1.0,-1.0,1.0,9.m4v,9.0
2024-02-28 11:59:40.467789,1709117980.4677894,-37.59765625,-58.10546875,-20.01953125,-55.17578125,-1.0,1.0,-1.0,1.0,9.m4v,9.0
2024-02-28 11:59:40.471695,1709117980.471695,-35.15625,-67.87109375,-10.25390625,-45.8984375,-1.0,1.0,-1.0,1.0,9.m4v,9.0
2024-02-28 11:59:40.475600,1709117980.4756002,-22.4609375,-51.26953125,-28.80859375,-28.3203125,-1.0,1.0,-1.0,1.0,9.m4v,9.0
2024-02-28 11:59:40.924777,1709117980.9247768,-36.62109375,-46.38671875,-26.85546875,-26.3671875,-1.0,1.0,-1.0,1.0,9.m4v,9.0
2024-02-28 11:59:40.928682,1709117980.9286823,-19.53125,-14.6484375,-22.94921875,-29.296875,-1.0,1.0,-1.0,1.0,9.m4v,9.0
2024-02-28 11:59:40.932588,1709117980.932588,-17.578125,-8.7890625,-46.38671875,-40.0390625,-1.0,1.0,-1.0,1.0,9.m4v,9.0
2024-02-28 11:59:40.936493,1709117980.9364932,-19.04296875,-18.5546875,-64.94140625,-44.921875,-1.0,1.0,-1.0,1.0,9.m4v,9.0
2024-02-28 11:59:40.940399,1709117980.9403987,-20.5078125,-36.62109375,-33.203125,-35.64453125,-1.0,1.0,-1.0,1.0,9.m4v,9.0
2024-02-28 11:59:40.944304,1709117980.9443042,-22.4609375,-33.203125,-22.94921875,-35.15625,-1.0,1.0,-1.0,1.0,9.m4v,9.0
2024-02-28 11:59:40.948210,1709117980.9482095,-30.76171875,-31.25,-42.96875,-56.15234375,-1.0,1.0,-1.0,1.0,9.m4v,9.0
2024-02-28 11:59:40.952115,1709117980.952115,-35.64453125,-40.52734375,-44.43359375,-52.24609375,-1.0,1.0,-1.0,1.0,9.m4v,9.0
2024-02-28 11:59:40.956021,1709117980.9560206,-28.80859375,-22.94921875,-29.78515625,-58.10546875,-1.0,1.0,-1.0,1.0,9.m4v,9.0
2024-02-28 11:59:40.959926,1709117980.959926,-28.80859375,-22.4609375,-33.69140625,-24.4140625,-1.0,1.0,-1.0,1.0,9.m4v,9.0
2024-02-28 11:59:40.963831,1709117980.9638314,-25.390625,-32.2265625,-37.109375,-31.73828125,-1.0,1.0,-1.0,1.0,9.m4v,9.0
2024-02-28 11:59:40.967737,1709117980.967737,-14.16015625,-33.203125,-20.99609375,-25.87890625,-1.0,1.0,-1.0,1.0,9.m4v,9.0
2024-02-28 11:59:40.971648,1709117980.9716475,-9.765625,-50.29296875,-21.484375,-13.18359375,-1.0,1.0,-1.0,1.0,9.m4v,9.0
2024-02-28 11:59:40.975553,1709117980.975553,-31.25,-48.828125,-43.9453125,-31.25,-1.0,1.0,-1.0,1.0,9.m4v,9.0
2024-02-28 11:59:40.979459,1709117980.9794586,-38.57421875,-35.64453125,-45.41015625,-24.90234375,-1.0,1.0,-1.0,1.0,9.m4v,9.0
2024-02-28 11:59:40.983364,1709117980.983364,-34.66796875,-54.19921875,-30.76171875,-46.875,-1.0,1.0,-1.0,1.0,9.m4v,9.0
2024-02-28 11:59:40.987269,1709117980.9872694,-35.15625,-41.015625,-34.66796875,-41.50390625,-1.0,1.0,-1.0,1.0,9.m4v,9.0
2024-02-28 11:59:40.991175,1709117980.991175,-30.76171875,-5.859375,-33.69140625,-22.94921875,-1.0,1.0,-1.0,1.0,9.m4v,9.0
2024-02-28 11:59:40.995080,1709117980.9950802,-35.15625,-19.53125,-24.90234375,-34.66796875,-1.0,1.0,-1.0,1.0,9.m4v,9.0
2024-02-28 11:59:40.998986,1709117980.9989858,-50.29296875,-41.9921875,-32.2265625,-47.8515625,-1.0,1.0,-1.0,1.0,9.m4v,9.0
2024-02-28 11:59:41.002891,1709117981.0028913,-49.31640625,-42.48046875,-40.52734375,-71.77734375,-1.0,1.0,-1.0,1.0,9.m4v,9.0
2024-02-28 11:59:41.006797,1709117981.0067966,-26.3671875,-41.015625,-42.48046875,-30.76171875,-1.0,1.0,-1.0,1.0,9.m4v,9.0
2024-02-28 11:59:41.010702,1709117981.010702,-32.2265625,-48.828125,-60.05859375,-5.37109375,-1.0,1.0,-1.0,1.0,9.m4v,9.0
2024-02-28 11:59:41.014608,1709117981.0146077,-32.71484375,-65.91796875,-51.26953125,-20.5078125,-1.0,1.0,-1.0,1.0,9.m4v,9.0
2024-02-28 11:59:41.018518,1709117981.0185175,-34.1796875,-54.19921875,-28.80859375,-15.625,-1.0,1.0,-1.0,1.0,9.m4v,9.0
2024-02-28 11:59:41.022423,1709117981.022423,-48.828125,-40.52734375,-23.4375,-50.78125,-1.0,1.0,-1.0,1.0,9.m4v,9.0
2024-02-28 11:59:41.026329,1709117981.0263286,-40.52734375,-40.52734375,-21.97265625,-58.59375,-1.0,1.0,-1.0,1.0,9.m4v,9.0
2024-02-28 11:59:41.030234,1709117981.030234,-18.06640625,-27.34375,-33.203125,-24.4140625,-1.0,1.0,-1.0,1.0,9.m4v,9.0
2024-02-28 11:59:41.034139,1709117981.0341394,-27.83203125,-16.6015625,-54.19921875,-39.0625,-1.0,1.0,-1.0,1.0,9.m4v,9.0
2024-02-28 11:59:41.038045,1709117981.038045,-42.48046875,-24.90234375,-53.22265625,-48.33984375,-1.0,1.0,-1.0,1.0,9.m4v,9.0
2024-02-28 11:59:41.041950,1709117981.0419505,-45.8984375,-69.3359375,-36.62109375,-53.22265625,-1.0,1.0,-1.0,1.0,9.m4v,9.0
2024-02-28 11:59:41.045856,1709117981.0458558,-43.9453125,-53.22265625,-30.2734375,-34.66796875,-1.0,1.0,-1.0,1.0,9.m4v,9.0
2024-02-28 11:59:41.045856,1709117981.0458558,-43.9453125,-53.22265625,-30.2734375,-34.66796875,-1.0,1.0,-1.0,1.0,9.m4v,9.0
2024-02-28 11:59:41.049761,1709117981.0497613,-41.9921875,-11.23046875,-26.3671875,-25.390625,-1.0,1.0,-1.0,1.0,9.m4v,9.0
2024-02-28 11:59:41.049761,1709117981.0497613,-41.9921875,-11.23046875,-26.3671875,-25.390625,-1.0,1.0,-1.0,1.0,9.m4v,9.0
2024-02-28 11:59:41.053667,1709117981.0536668,-46.875,-30.76171875,-35.15625,-56.15234375,-1.0,1.0,-1.0,1.0,9.m4v,9.0
2024-02-28 11:59:41.053667,1709117981.0536668,-46.875,-30.76171875,-35.15625,-56.15234375,-1.0,1.0,-1.0,1.0,9.m4v,9.0
2024-02-28 11:59:41.057572,1709117981.057572,-47.8515625,-61.03515625,-48.33984375,-42.48046875,-1.0,1.0,-1.0,1.0,9.m4v,9.0
2024-02-28 11:59:41.057572,1709117981.057572,-47.8515625,-61.03515625,-48.33984375,-42.48046875,-1.0,1.0,-1.0,1.0,9.m4v,9.0
2024-02-28 11:59:41.061478,1709117981.0614777,-40.0390625,-59.5703125,-47.36328125,-28.3203125,-1.0,1.0,-1.0,1.0,9.m4v,9.0
2024-02-28 11:59:41.061478,1709117981.0614777,-40.0390625,-59.5703125,-47.36328125,-28.3203125,-1.0,1.0,-1.0,1.0,9.m4v,9.0
2024-02-28 11:59:41.065387,1709117981.0653875,-36.62109375,-38.0859375,-52.734375,-26.3671875,-1.0,1.0,-1.0,1.0,9.m4v,9.0
2024-02-28 11:59:41.065387,1709117981.0653875,-36.62109375,-38.0859375,-52.734375,-26.3671875,-1.0,1.0,-1.0,1.0,9.m4v,9.0
2024-02-28 11:59:41.069293,1709117981.069293,-27.83203125,-38.0859375,-45.8984375,-24.90234375,-1.0,1.0,-1.0,1.0,9.m4v,9.0
2024-02-28 11:59:41.069293,1709117981.069293,-27.83203125,-38.0859375,-45.8984375,-24.90234375,-1.0,1.0,-1.0,1.0,9.m4v,9.0
2024-02-28 11:59:41.073198,1709117981.0731983,-31.25,-48.828125,-34.66796875,-25.390625,-1.0,1.0,-1.0,1.0,9.m4v,9.0
2024-02-28 11:59:41.073198,1709117981.0731983,-31.25,-48.828125,-34.66796875,-25.390625,-1.0,1.0,-1.0,1.0,9.m4v,9.0
2024-02-28 11:59:41.077104,1709117981.077104,-43.9453125,-39.0625,-28.3203125,-30.76171875,-1.0,1.0,-1.0,1.0,9.m4v,9.0
2024-02-28 11:59:41.077104,1709117981.077104,-43.9453125,-39.0625,-28.3203125,-30.76171875,-1.0,1.0,-1.0,1.0,9.m4v,9.0
2024-02-28 11:59:41.081009,1709117981.0810094,-39.0625,-47.36328125,-19.53125,-58.10546875,-1.0,1.0,-1.0,1.0,9.m4v,9.0
2024-02-28 11:59:41.081009,1709117981.0810094,-39.0625,-47.36328125,-19.53125,-58.10546875,-1.0,1.0,-1.0,1.0,9.m4v,9.0
2024-02-28 11:59:41.084915,1709117981.0849147,-26.85546875,-49.31640625,-24.90234375,-48.828125,-1.0,1.0,-1.0,1.0,9.m4v,9.0
2024-02-28 11:59:41.084915,1709117981.0849147,-26.85546875,-49.31640625,-24.90234375,-48.828125,-1.0,1.0,-1.0,1.0,9.m4v,9.0
2024-02-28 11:59:41.088820,1709117981.0888202,-28.3203125,-57.12890625,-17.08984375,-24.90234375,-1.0,1.0,-1.0,1.0,9.m4v,9.0
2024-02-28 11:59:41.088820,1709117981.0888202,-28.3203125,-57.12890625,-17.08984375,-24.90234375,-1.0,1.0,-1.0,1.0,9.m4v,9.0
2024-02-28 11:59:41.092726,1709117981.0927258,-45.8984375,-48.33984375,-9.765625,-22.4609375,-1.0,1.0,-1.0,1.0,9.m4v,9.0
2024-02-28 11:59:41.092726,1709117981.0927258,-45.8984375,-48.33984375,-9.765625,-22.4609375,-1.0,1.0,-1.0,1.0,9.m4v,9.0
2024-02-28 11:59:41.096631,1709117981.096631,-48.33984375,-18.5546875,-20.99609375,-59.5703125,-1.0,1.0,-1.0,1.0,9.m4v,9.0
2024-02-28 11:59:41.096631,1709117981.096631,-48.33984375,-18.5546875,-20.99609375,-59.5703125,-1.0,1.0,-1.0,1.0,9.m4v,9.0
2024-02-28 11:59:41.100537,1709117981.1005366,-38.0859375,-23.92578125,-36.1328125,-26.3671875,-1.0,1.0,-1.0,1.0,9.m4v,9.0
2024-02-28 11:59:41.100537,1709117981.1005366,-38.0859375,-23.92578125,-36.1328125,-26.3671875,-1.0,1.0,-1.0,1.0,9.m4v,9.0
2024-02-28 11:59:41.104442,1709117981.104442,-38.0859375,-48.828125,-44.43359375,-7.32421875,-1.0,1.0,-1.0,1.0,9.m4v,9.0
2024-02-28 11:59:41.104442,1709117981.104442,-38.0859375,-48.828125,-44.43359375,-7.32421875,-1.0,1.0,-1.0,1.0,9.m4v,9.0
2024-02-28 11:59:41.108347,1709117981.1083474,-38.57421875,-56.15234375,-63.4765625,-38.57421875,-1.0,1.0,-1.0,1.0,9.m4v,9.0
2024-02-28 11:59:41.108347,1709117981.1083474,-38.57421875,-56.15234375,-63.4765625,-38.57421875,-1.0,1.0,-1.0,1.0,9.m4v,9.0
2024-02-28 11:59:41.116163,1709117981.1161633,-40.52734375,-31.73828125,-67.87109375,-45.8984375,-1.0,1.0,-1.0,1.0,9.m4v,9.0
2024-02-28 11:59:41.116163,1709117981.1161633,-40.52734375,-31.73828125,-67.87109375,-45.8984375,-1.0,1.0,-1.0,1.0,9.m4v,9.0
2024-02-28 11:59:41.123974,1709117981.123974,-40.52734375,-38.57421875,-44.921875,-56.640625,-1.0,1.0,-1.0,1.0,9.m4v,9.0
2024-02-28 11:59:41.123974,1709117981.123974,-40.52734375,-38.57421875,-44.921875,-56.640625,-1.0,1.0,-1.0,1.0,9.m4v,9.0
2024-02-28 11:59:41.131785,1709117981.1317852,-31.73828125,-55.17578125,-33.69140625,-18.06640625,-1.0,1.0,-1.0,1.0,9.m4v,9.0
2024-02-28 11:59:41.131785,1709117981.1317852,-31.73828125,-55.17578125,-33.69140625,-18.06640625,-1.0,1.0,-1.0,1.0,9.m4v,9.0
2024-02-28 11:59:41.143502,1709117981.1435015,-35.64453125,-25.390625,-25.87890625,-54.6875,-1.0,1.0,-1.0,1.0,9.m4v,9.0
2024-02-28 11:59:41.143502,1709117981.1435015,-35.64453125,-25.390625,-25.87890625,-54.6875,-1.0,1.0,-1.0,1.0,9.m4v,9.0
2024-02-28 11:59:41.155218,1709117981.155218,-41.50390625,-35.15625,-32.71484375,-29.296875,-1.0,1.0,-1.0,1.0,9.m4v,9.0
2024-02-28 11:59:41.155218,1709117981.155218,-41.50390625,-35.15625,-32.71484375,-29.296875,-1.0,1.0,-1.0,1.0,9.m4v,9.0
2024-02-28 11:59:41.166937,1709117981.166937,-39.0625,-45.8984375,-42.96875,-29.296875,-1.0,1.0,-1.0,1.0,9.m4v,9.0
2024-02-28 11:59:41.166937,1709117981.166937,-39.0625,-45.8984375,-42.96875,-29.296875,-1.0,1.0,-1.0,1.0,9.m4v,9.0
2024-02-28 11:59:41.178653,1709117981.1786537,-26.3671875,-38.57421875,-41.015625,-6.8359375,-1.0,1.0,-1.0,1.0,9.m4v,9.0
2024-02-28 11:59:41.178653,1709117981.1786537,-26.3671875,-38.57421875,-41.015625,-6.8359375,-1.0,1.0,-1.0,1.0,9.m4v,9.0
2024-02-28 11:59:41.190370,1709117981.1903698,-23.92578125,-57.12890625,-29.78515625,-65.91796875,-1.0,1.0,-1.0,1.0,9.m4v,9.0
2024-02-28 11:59:41.190370,1709117981.1903698,-23.92578125,-57.12890625,-29.78515625,-65.91796875,-1.0,1.0,-1.0,1.0,9.m4v,9.0
2024-02-28 11:59:41.202086,1709117981.2020862,-49.31640625,-52.24609375,-57.12890625,-48.33984375,-1.0,1.0,-1.0,1.0,9.m4v,9.0
2024-02-28 11:59:41.202086,1709117981.2020862,-49.31640625,-52.24609375,-57.12890625,-48.33984375,-1.0,1.0,-1.0,1.0,9.m4v,9.0
2024-02-28 11:59:41.213809,1709117981.2138093,-40.52734375,-29.78515625,-18.06640625,-29.296875,-1.0,1.0,-1.0,1.0,9.m4v,9.0
2024-02-28 11:59:41.213809,1709117981.2138093,-40.52734375,-29.78515625,-18.06640625,-29.296875,-1.0,1.0,-1.0,1.0,9.m4v,9.0
2024-02-28 11:59:41.225526,1709117981.2255256,-46.875,-25.87890625,-14.6484375,-41.9921875,-1.0,1.0,-1.0,1.0,9.m4v,9.0
2024-02-28 11:59:41.225526,1709117981.2255256,-46.875,-25.87890625,-14.6484375,-41.9921875,-1.0,1.0,-1.0,1.0,9.m4v,9.0
2024-02-28 11:59:41.237242,1709117981.237242,-36.1328125,-25.390625,-39.0625,-72.265625,-1.0,1.0,-1.0,1.0,9.m4v,9.0
2024-02-28 11:59:41.237242,1709117981.237242,-36.1328125,-25.390625,-39.0625,-72.265625,-1.0,1.0,-1.0,1.0,9.m4v,9.0
2024-02-28 11:59:41.248958,1709117981.2489583,-40.52734375,-20.01953125,-21.97265625,-7.32421875,-1.0,1.0,-1.0,1.0,9.m4v,9.0
2024-02-28 11:59:41.248958,1709117981.2489583,-40.52734375,-20.01953125,-21.97265625,-7.32421875,-1.0,1.0,-1.0,1.0,9.m4v,9.0
2024-02-28 11:59:41.260681,1709117981.260681,-37.59765625,-47.36328125,-40.0390625,-63.4765625,-1.0,1.0,-1.0,1.0,9.m4v,9.0
2024-02-28 11:59:41.260681,1709117981.260681,-37.59765625,-47.36328125,-40.0390625,-63.4765625,-1.0,1.0,-1.0,1.0,9.m4v,9.0
2024-02-28 11:59:41.272397,1709117981.272397,-48.828125,-43.45703125,-40.52734375,-43.9453125,-1.0,1.0,-1.0,1.0,9.m4v,9.0
2024-02-28 11:59:41.272397,1709117981.272397,-48.828125,-43.45703125,-40.52734375,-43.9453125,-1.0,1.0,-1.0,1.0,9.m4v,9.0
2024-02-28 11:59:41.284113,1709117981.2841134,-29.296875,-29.78515625,-28.80859375,-37.59765625,-1.0,1.0,-1.0,1.0,9.m4v,9.0
2024-02-28 11:59:41.284113,1709117981.2841134,-29.296875,-29.78515625,-28.80859375,-37.59765625,-1.0,1.0,-1.0,1.0,9.m4v,9.0
2024-02-28 11:59:41.295830,1709117981.2958298,-26.3671875,-14.16015625,-25.87890625,-22.4609375,-1.0,1.0,-1.0,1.0,9.m4v,9.0
2024-02-28 11:59:41.295830,1709117981.2958298,-26.3671875,-14.16015625,-25.87890625,-22.4609375,-1.0,1.0,-1.0,1.0,9.m4v,9.0
2024-02-28 11:59:41.307552,1709117981.307552,-58.10546875,-22.4609375,-38.57421875,-54.6875,-1.0,1.0,-1.0,1.0,9.m4v,9.0
2024-02-28 11:59:41.307552,1709117981.307552,-58.10546875,-22.4609375,-38.57421875,-54.6875,-1.0,1.0,-1.0,1.0,9.m4v,9.0
2024-02-28 11:59:41.319268,1709117981.3192682,-46.875,-35.15625,-41.50390625,-66.40625,-1.0,1.0,-1.0,1.0,9.m4v,9.0
2024-02-28 11:59:41.319268,1709117981.3192682,-46.875,-35.15625,-41.50390625,-66.40625,-1.0,1.0,-1.0,1.0,9.m4v,9.0
2024-02-28 11:59:41.330985,1709117981.3309846,-28.80859375,-35.64453125,-39.55078125,-17.08984375,-1.0,1.0,-1.0,1.0,9.m4v,9.0
2024-02-28 11:59:41.330985,1709117981.3309846,-28.80859375,-35.64453125,-39.55078125,-17.08984375,-1.0,1.0,-1.0,1.0,9.m4v,9.0
2024-02-28 11:59:41.342701,1709117981.342701,-47.8515625,-26.3671875,-39.0625,-6.8359375,-1.0,1.0,-1.0,1.0,9.m4v,9.0
2024-02-28 11:59:41.342701,1709117981.342701,-47.8515625,-26.3671875,-39.0625,-6.8359375,-1.0,1.0,-1.0,1.0,9.m4v,9.0
2024-02-28 11:59:41.354422,1709117981.3544223,-41.50390625,-64.453125,-27.83203125,-37.109375,-1.0,1.0,-1.0,1.0,9.m4v,9.0
2024-02-28 11:59:41.354422,1709117981.3544223,-41.50390625,-64.453125,-27.83203125,-37.109375,-1.0,1.0,-1.0,1.0,9.m4v,9.0
2024-02-28 11:59:41.366139,1709117981.3661387,-31.73828125,-7.8125,-5.37109375,-4.8828125,-1.0,1.0,-1.0,1.0,9.m4v,9.0
2024-02-28 11:59:41.366139,1709117981.3661387,-31.73828125,-7.8125,-5.37109375,-4.8828125,-1.0,1.0,-1.0,1.0,9.m4v,9.0
2024-02-28 11:59:41.377855,1709117981.377855,-38.57421875,-31.25,-41.50390625,-66.89453125,-1.0,1.0,-1.0,1.0,9.m4v,9.0
2024-02-28 11:59:41.377855,1709117981.377855,-38.57421875,-31.25,-41.50390625,-66.89453125,-1.0,1.0,-1.0,1.0,9.m4v,9.0
2024-02-28 11:59:41.389571,1709117981.3895714,-35.64453125,-51.7578125,-43.45703125,-64.94140625,-1.0,1.0,-1.0,1.0,9.m4v,9.0
2024-02-28 11:59:41.389571,1709117981.3895714,-35.64453125,-51.7578125,-43.45703125,-64.94140625,-1.0,1.0,-1.0,1.0,9.m4v,9.0
2024-02-28 11:59:41.401292,1709117981.401292,-8.30078125,-45.8984375,-71.2890625,-28.80859375,-1.0,1.0,-1.0,1.0,9.m4v,9.0
2024-02-28 11:59:41.401292,1709117981.401292,-8.30078125,-45.8984375,-71.2890625,-28.80859375,-1.0,1.0,-1.0,1.0,9.m4v,9.0
2024-02-28 11:59:41.413008,1709117981.4130085,-20.01953125,-44.921875,-34.66796875,-36.62109375,-1.0,1.0,-1.0,1.0,9.m4v,9.0
2024-02-28 11:59:41.413008,1709117981.4130085,-20.01953125,-44.921875,-34.66796875,-36.62109375,-1.0,1.0,-1.0,1.0,9.m4v,9.0
2024-02-28 11:59:41.424725,1709117981.4247248,-45.8984375,-30.2734375,-29.78515625,-46.875,-1.0,1.0,-1.0,1.0,9.m4v,9.0
2024-02-28 11:59:41.424725,1709117981.4247248,-45.8984375,-30.2734375,-29.78515625,-46.875,-1.0,1.0,-1.0,1.0,9.m4v,9.0
2024-02-28 11:59:41.436441,1709117981.4364412,-32.2265625,-47.36328125,-58.59375,-59.5703125,-1.0,1.0,-1.0,1.0,9.m4v,9.0
2024-02-28 11:59:41.436441,1709117981.4364412,-32.2265625,-47.36328125,-58.59375,-59.5703125,-1.0,1.0,-1.0,1.0,9.m4v,9.0
2024-02-28 11:59:41.448162,1709117981.4481616,-21.484375,-60.546875,-35.64453125,-10.25390625,-1.0,1.0,-1.0,1.0,9.m4v,9.0
2024-02-28 11:59:41.448162,1709117981.4481616,-21.484375,-60.546875,-35.64453125,-10.25390625,-1.0,1.0,-1.0,1.0,9.m4v,9.0
2024-02-28 11:59:41.459878,1709117981.459878,-25.390625,-7.8125,-35.15625,-40.52734375,-1.0,1.0,-1.0,1.0,9.m4v,9.0
2024-02-28 11:59:41.459878,1709117981.459878,-25.390625,-7.8125,-35.15625,-40.52734375,-1.0,1.0,-1.0,1.0,9.m4v,9.0
2024-02-28 11:59:41.471594,1709117981.4715943,-11.71875,-43.45703125,-18.06640625,-26.85546875,-1.0,1.0,-1.0,1.0,9.m4v,9.0
2024-02-28 11:59:41.471594,1709117981.4715943,-11.71875,-43.45703125,-18.06640625,-26.85546875,-1.0,1.0,-1.0,1.0,9.m4v,9.0
2024-02-28 11:59:41.483311,1709117981.4833107,-29.78515625,-48.33984375,-23.92578125,-58.59375,-1.0,1.0,-1.0,1.0,9.m4v,9.0
2024-02-28 11:59:41.483311,1709117981.4833107,-29.78515625,-48.33984375,-23.92578125,-58.59375,-1.0,1.0,-1.0,1.0,9.m4v,9.0
2024-02-28 11:59:41.495031,1709117981.4950314,-20.01953125,-40.52734375,-28.3203125,2.44140625,-1.0,1.0,-1.0,1.0,9.m4v,9.0
2024-02-28 11:59:41.495031,1709117981.4950314,-20.01953125,-40.52734375,-28.3203125,2.44140625,-1.0,1.0,-1.0,1.0,9.m4v,9.0
2024-02-28 11:59:41.506748,1709117981.5067475,-29.78515625,-30.76171875,-54.6875,-29.296875,-1.0,1.0,-1.0,1.0,9.m4v,9.0
2024-02-28 11:59:41.506748,1709117981.5067475,-29.78515625,-30.76171875,-54.6875,-29.296875,-1.0,1.0,-1.0,1.0,9.m4v,9.0
2024-02-28 11:59:41.518464,1709117981.518464,-33.69140625,-28.80859375,-30.76171875,-42.96875,-1.0,1.0,-1.0,1.0,9.m4v,9.0
2024-02-28 11:59:41.530180,1709117981.5301805,-18.5546875,-50.29296875,-29.78515625,-25.87890625,-1.0,1.0,-1.0,1.0,9.m4v,9.0
2024-02-28 11:59:41.541903,1709117981.5419033,-15.625,-30.76171875,-42.48046875,-28.3203125,-1.0,1.0,-1.0,1.0,9.m4v,9.0
2024-02-28 11:59:41.553620,1709117981.5536196,-18.06640625,-17.08984375,-42.48046875,-41.9921875,-1.0,1.0,-1.0,1.0,9.m4v,9.0
2024-02-28 11:59:41.565336,1709117981.565336,-47.36328125,-41.9921875,-46.38671875,-56.15234375,-1.0,1.0,-1.0,1.0,9.m4v,9.0
2024-02-28 11:59:41.577052,1709117981.5770524,-24.4140625,-33.203125,-8.30078125,-5.37109375,-1.0,1.0,-1.0,1.0,9.m4v,9.0
2024-02-28 11:59:41.588775,1709117981.5887747,-31.25,-24.90234375,-32.2265625,-83.0078125,-1.0,1.0,-1.0,1.0,9.m4v,9.0
2024-02-28 11:59:41.600491,1709117981.600491,-23.4375,-9.765625,-29.296875,-25.390625,-1.0,1.0,-1.0,1.0,9.m4v,9.0
2024-02-28 11:59:41.612207,1709117981.6122074,-43.45703125,-47.36328125,-53.7109375,-53.7109375,-1.0,1.0,-1.0,1.0,9.m4v,9.0
2024-02-28 11:59:41.623924,1709117981.6239238,-25.87890625,-63.4765625,4.39453125,-30.2734375,-1.0,1.0,-1.0,1.0,9.m4v,9.0
2024-02-28 11:59:41.635646,1709117981.635646,-48.828125,-41.50390625,-43.9453125,-61.03515625,-1.0,1.0,-1.0,1.0,9.m4v,9.0
2024-02-28 11:59:41.647362,1709117981.6473625,-26.85546875,0.48828125,-16.6015625,-11.71875,-1.0,1.0,-1.0,1.0,9.m4v,9.0
2024-02-28 11:59:41.659079,1709117981.6590788,-36.62109375,-42.96875,-41.50390625,-29.78515625,-1.0,1.0,-1.0,1.0,9.m4v,9.0
2024-02-28 11:59:41.670795,1709117981.6707952,-15.13671875,-38.0859375,-34.66796875,-31.73828125,-1.0,1.0,-1.0,1.0,9.m4v,9.0
2024-02-28 11:59:41.682517,1709117981.682517,-39.0625,-56.640625,-21.97265625,-61.5234375,-1.0,1.0,-1.0,1.0,9.m4v,9.0
2024-02-28 11:59:41.694233,1709117981.6942334,-36.62109375,-30.2734375,-27.34375,-4.8828125,-1.0,1.0,-1.0,1.0,9.m4v,9.0
2024-02-28 11:59:41.705950,1709117981.7059498,-42.48046875,-26.85546875,-56.640625,-20.5078125,-1.0,1.0,-1.0,1.0,9.m4v,9.0
2024-02-28 11:59:41.717666,1709117981.717666,-35.15625,-44.921875,-6.8359375,-45.8984375,-1.0,1.0,-1.0,1.0,9.m4v,9.0
2024-02-28 11:59:41.729388,1709117981.7293878,-42.48046875,-49.8046875,-37.109375,-47.8515625,-1.0,1.0,-1.0,1.0,9.m4v,9.0
2024-02-28 11:59:41.741104,1709117981.741104,-43.9453125,-47.36328125,-38.57421875,-60.05859375,-1.0,1.0,-1.0,1.0,9.m4v,9.0
2024-02-28 11:59:41.752820,1709117981.7528205,-29.78515625,-49.31640625,-18.5546875,-27.34375,-1.0,1.0,-1.0,1.0,9.m4v,9.0
2024-02-28 11:59:41.764537,1709117981.7645369,-40.0390625,-27.34375,-50.29296875,-39.0625,-1.0,1.0,-1.0,1.0,9.m4v,9.0
2024-02-28 11:59:41.776258,1709117981.7762575,-25.390625,-24.90234375,-27.34375,-41.015625,-1.0,1.0,-1.0,1.0,9.m4v,9.0
2024-02-28 11:59:41.955926,1709117981.9559264,-24.4140625,-44.43359375,-28.3203125,-32.2265625,-1.0,1.0,-1.0,1.0,9.m4v,9.0
2024-02-28 11:59:41.959832,1709117981.959832,-28.3203125,-21.484375,-16.6015625,-20.99609375,-1.0,1.0,-1.0,1.0,9.m4v,9.0
2024-02-28 11:59:41.963737,1709117981.9637372,-27.34375,-26.85546875,-26.3671875,-41.015625,-1.0,1.0,-1.0,1.0,9.m4v,9.0
2024-02-28 11:59:41.967643,1709117981.9676428,-25.87890625,-49.31640625,-27.34375,-44.43359375,-1.0,1.0,-1.0,1.0,9.m4v,9.0
2024-02-28 11:59:41.971548,1709117981.9715483,-14.16015625,-35.64453125,-28.3203125,-30.2734375,-1.0,1.0,-1.0,1.0,9.m4v,9.0
2024-02-28 11:59:41.975454,1709117981.9754536,-10.7421875,-27.34375,-42.96875,-12.20703125,-1.0,1.0,-1.0,1.0,9.m4v,9.0
2024-02-28 11:59:41.979359,1709117981.9793591,-27.83203125,-40.0390625,-41.015625,-46.38671875,-1.0,1.0,-1.0,1.0,9.m4v,9.0
2024-02-28 11:59:41.983265,1709117981.9832647,-39.0625,-22.94921875,-30.76171875,-72.265625,-1.0,1.0,-1.0,1.0,9.m4v,9.0
2024-02-28 11:59:41.987170,1709117981.98717,-25.87890625,-12.6953125,-25.87890625,-40.52734375,-1.0,1.0,-1.0,1.0,9.m4v,9.0
2024-02-28 11:59:41.991076,1709117981.9910755,-18.5546875,-22.4609375,-27.34375,-37.109375,-1.0,1.0,-1.0,1.0,9.m4v,9.0
2024-02-28 11:59:41.994981,1709117981.994981,-22.4609375,-37.59765625,-17.08984375,10.25390625,-1.0,1.0,-1.0,1.0,9.m4v,9.0
2024-02-28 11:59:41.998886,1709117981.9988863,-21.484375,-52.24609375,-23.4375,-2.9296875,-1.0,1.0,-1.0,1.0,9.m4v,9.0
2024-02-28 11:59:42.002798,1709117982.0027976,-22.4609375,-53.22265625,-31.73828125,-59.08203125,-1.0,1.0,-1.0,1.0,9.m4v,9.0
2024-02-28 11:59:42.006703,1709117982.0067031,-37.59765625,-47.36328125,-31.73828125,-30.2734375,-1.0,1.0,-1.0,1.0,9.m4v,9.0
2024-02-28 11:59:42.010609,1709117982.010609,-25.87890625,-33.69140625,-30.2734375,-27.34375,-1.0,1.0,-1.0,1.0,9.m4v,9.0
2024-02-28 11:59:42.014514,1709117982.014514,-10.25390625,-21.97265625,-30.76171875,-41.9921875,-1.0,1.0,-1.0,1.0,9.m4v,9.0
2024-02-28 11:59:42.018420,1709117982.0184195,-35.64453125,-28.80859375,-36.1328125,-26.85546875,-1.0,1.0,-1.0,1.0,9.m4v,9.0
2024-02-28 11:59:42.022325,1709117982.022325,-41.9921875,-37.109375,-26.85546875,-20.5078125,-1.0,1.0,-1.0,1.0,9.m4v,9.0
2024-02-28 11:59:42.026230,1709117982.0262303,-35.64453125,-38.57421875,-41.015625,-18.06640625,-1.0,1.0,-1.0,1.0,9.m4v,9.0
2024-02-28 11:59:42.030136,1709117982.030136,-39.55078125,-30.76171875,-66.40625,-43.45703125,-1.0,1.0,-1.0,1.0,9.m4v,9.0
2024-02-28 11:59:42.034041,1709117982.0340414,-44.921875,-33.69140625,-52.734375,-63.4765625,-1.0,1.0,-1.0,1.0,9.m4v,9.0
2024-02-28 11:59:42.037947,1709117982.0379467,-49.8046875,-41.9921875,-32.71484375,-31.73828125,-1.0,1.0,-1.0,1.0,9.m4v,9.0
2024-02-28 11:59:42.041852,1709117982.0418522,-46.38671875,-48.33984375,-32.71484375,-51.7578125,-1.0,1.0,-1.0,1.0,9.m4v,9.0
2024-02-28 11:59:42.045758,1709117982.0457578,-30.76171875,-48.828125,-32.2265625,-68.84765625,-1.0,1.0,-1.0,1.0,9.m4v,9.0
2024-02-28 11:59:42.049668,1709117982.0496683,-36.1328125,-39.55078125,-26.85546875,-19.53125,-1.0,1.0,-1.0,1.0,9.m4v,9.0
2024-02-28 11:59:42.053574,1709117982.0535738,-39.55078125,-25.390625,-15.625,-8.30078125,-1.0,1.0,-1.0,1.0,9.m4v,9.0
2024-02-28 11:59:42.057479,1709117982.0574791,-33.69140625,-19.04296875,-24.4140625,-32.2265625,-1.0,1.0,-1.0,1.0,9.m4v,9.0
2024-02-28 11:59:42.061385,1709117982.061385,-41.015625,-33.69140625,-40.52734375,-33.203125,-1.0,1.0,-1.0,1.0,9.m4v,9.0
2024-02-28 11:59:42.065290,1709117982.0652902,-50.78125,-41.9921875,-58.59375,-22.94921875,-1.0,1.0,-1.0,1.0,9.m4v,9.0
2024-02-28 11:59:42.069196,1709117982.0691955,-50.29296875,-41.9921875,-46.38671875,-28.80859375,-1.0,1.0,-1.0,1.0,9.m4v,9.0
2024-02-28 11:59:42.073101,1709117982.073101,-54.19921875,-51.7578125,-37.59765625,-47.8515625,-1.0,1.0,-1.0,1.0,9.m4v,9.0
2024-02-28 11:59:42.077007,1709117982.0770066,-30.2734375,-34.1796875,-41.015625,-39.0625,-1.0,1.0,-1.0,1.0,9.m4v,9.0
2024-02-28 11:59:42.080912,1709117982.080912,-17.08984375,-22.94921875,-26.3671875,-38.57421875,-1.0,1.0,-1.0,1.0,9.m4v,9.0
2024-02-28 11:59:42.084817,1709117982.0848174,-19.53125,-40.52734375,-31.25,-38.57421875,-1.0,1.0,-1.0,1.0,9.m4v,9.0
2024-02-28 11:59:42.088723,1709117982.088723,-2.9296875,-40.52734375,-43.45703125,-34.1796875,-1.0,1.0,-1.0,1.0,9.m4v,9.0
2024-02-28 11:59:42.092628,1709117982.0926282,-24.90234375,-45.41015625,-41.9921875,-33.69140625,-1.0,1.0,-1.0,1.0,9.m4v,9.0
2024-02-28 11:59:42.096539,1709117982.0965388,-47.36328125,-51.26953125,-34.1796875,11.71875,-1.0,1.0,-1.0,1.0,9.m4v,9.0
2024-02-28 11:59:42.100444,1709117982.1004443,-51.7578125,-30.76171875,-31.25,-4.8828125,-1.0,1.0,-1.0,1.0,9.m4v,9.0
2024-02-28 11:59:42.104350,1709117982.10435,-50.78125,-26.85546875,-37.109375,-58.59375,-1.0,1.0,-1.0,1.0,9.m4v,9.0
2024-02-28 11:59:42.108255,1709117982.1082551,-44.921875,-27.34375,-20.01953125,-53.7109375,-1.0,1.0,-1.0,1.0,9.m4v,9.0
2024-02-28 11:59:42.112161,1709117982.1121607,-39.55078125,-27.34375,-24.4140625,-48.828125,-1.0,1.0,-1.0,1.0,9.m4v,9.0
2024-02-28 11:59:42.116066,1709117982.1160662,-27.34375,-37.59765625,-37.109375,-50.29296875,-1.0,1.0,-1.0,1.0,9.m4v,9.0
2024-02-28 11:59:42.119972,1709117982.1199715,-29.78515625,-49.8046875,-25.390625,-44.43359375,-1.0,1.0,-1.0,1.0,9.m4v,9.0
2024-02-28 11:59:42.123877,1709117982.123877,-27.83203125,-51.7578125,-34.1796875,-55.6640625,-1.0,1.0,-1.0,1.0,9.m4v,9.0
2024-02-28 11:59:42.127783,1709117982.1277826,-9.765625,-37.59765625,-33.203125,-36.1328125,-1.0,1.0,-1.0,1.0,9.m4v,9.0
2024-02-28 11:59:42.131688,1709117982.131688,-19.04296875,-38.57421875,-26.3671875,-34.66796875,-1.0,1.0,-1.0,1.0,9.m4v,9.0
2024-02-28 11:59:42.135593,1709117982.1355934,-35.64453125,-37.59765625,-41.50390625,-52.24609375,-1.0,1.0,-1.0,1.0,9.m4v,9.0
2024-02-28 11:59:42.139499,1709117982.139499,-28.80859375,-38.0859375,-55.17578125,-62.5,-1.0,1.0,-1.0,1.0,9.m4v,9.0
2024-02-28 11:59:42.143409,1709117982.143409,-27.83203125,-34.1796875,-44.43359375,-24.90234375,-1.0,1.0,-1.0,1.0,9.m4v,9.0
2024-02-28 11:59:42.147315,1709117982.1473143,-33.69140625,-35.15625,-18.5546875,-4.39453125,-1.0,1.0,-1.0,1.0,9.m4v,9.0
2024-02-28 11:59:42.151220,1709117982.1512198,-40.52734375,-46.875,-44.43359375,-40.0390625,-1.0,1.0,-1.0,1.0,9.m4v,9.0
2024-02-28 11:59:42.155125,1709117982.1551254,-43.9453125,-36.62109375,-62.01171875,-40.52734375,-1.0,1.0,-1.0,1.0,9.m4v,9.0
2024-02-28 11:59:42.159031,1709117982.159031,-41.50390625,-39.0625,-27.34375,-31.73828125,-1.0,1.0,-1.0,1.0,9.m4v,9.0
2024-02-28 11:59:42.162936,1709117982.1629362,-32.71484375,-36.1328125,2.44140625,-31.25,-1.0,1.0,-1.0,1.0,9.m4v,9.0
2024-02-28 11:59:42.166842,1709117982.1668415,-31.25,-19.04296875,-0.48828125,-29.296875,-1.0,1.0,-1.0,1.0,9.m4v,9.0
2024-02-28 11:59:42.170747,1709117982.1707473,-26.3671875,-24.4140625,-32.2265625,-47.36328125,-1.0,1.0,-1.0,1.0,9.m4v,9.0
2024-02-28 11:59:42.174653,1709117982.1746528,-10.25390625,-35.64453125,-41.9921875,-71.2890625,-1.0,1.0,-1.0,1.0,9.m4v,9.0
2024-02-28 11:59:42.178558,1709117982.178558,-22.94921875,-40.52734375,-32.2265625,-38.57421875,-1.0,1.0,-1.0,1.0,9.m4v,9.0
2024-02-28 11:59:42.182464,1709117982.1824636,-34.66796875,-36.1328125,-31.25,-7.32421875,-1.0,1.0,-1.0,1.0,9.m4v,9.0
2024-02-28 11:59:42.186369,1709117982.1863692,-43.9453125,-18.06640625,-33.69140625,-40.0390625,-1.0,1.0,-1.0,1.0,9.m4v,9.0
2024-02-28 11:59:42.190279,1709117982.1902783,-43.9453125,-20.99609375,-43.9453125,-45.8984375,-1.0,1.0,-1.0,1.0,9.m4v,9.0
2024-02-28 11:59:42.194184,1709117982.1941838,-39.55078125,-36.1328125,-60.05859375,-16.11328125,-1.0,1.0,-1.0,1.0,9.m4v,9.0
2024-02-28 11:59:42.198089,1709117982.1980894,-29.296875,-30.2734375,-39.55078125,-27.83203125,-1.0,1.0,-1.0,1.0,9.m4v,9.0
2024-02-28 11:59:42.201995,1709117982.201995,-30.2734375,-38.0859375,-9.27734375,-28.80859375,-1.0,1.0,-1.0,1.0,9.m4v,9.0
2024-02-28 11:59:42.205900,1709117982.2059002,-29.296875,-45.41015625,-2.44140625,-25.390625,-1.0,1.0,-1.0,1.0,9.m4v,9.0
2024-02-28 11:59:42.209806,1709117982.2098055,-23.92578125,-39.0625,-19.53125,-27.34375,-1.0,1.0,-1.0,1.0,9.m4v,9.0
2024-02-28 11:59:42.213711,1709117982.2137113,-31.25,-50.78125,-39.55078125,-36.1328125,-1.0,1.0,-1.0,1.0,9.m4v,9.0
2024-02-28 11:59:42.217617,1709117982.2176166,-39.55078125,-48.828125,-22.4609375,-36.62109375,-1.0,1.0,-1.0,1.0,9.m4v,9.0
2024-02-28 11:59:42.221522,1709117982.221522,-47.8515625,-26.3671875,-15.13671875,-36.62109375,-1.0,1.0,-1.0,1.0,9.m4v,9.0
2024-02-28 11:59:42.225428,1709117982.2254276,-30.76171875,-7.8125,-39.0625,-31.73828125,-1.0,1.0,-1.0,1.0,9.m4v,9.0
2024-02-28 11:59:42.229333,1709117982.229333,-28.3203125,-18.5546875,-48.828125,-31.25,-1.0,1.0,-1.0,1.0,9.m4v,9.0
2024-02-28 11:59:42.233238,1709117982.2332385,-27.83203125,-37.59765625,-23.4375,-39.0625,-1.0,1.0,-1.0,1.0,9.m4v,9.0
2024-02-28 11:59:42.237148,1709117982.2371476,-25.390625,-43.9453125,-10.7421875,-45.8984375,-1.0,1.0,-1.0,1.0,9.m4v,9.0
2024-02-28 11:59:42.241053,1709117982.2410529,-44.43359375,-53.22265625,-30.76171875,-48.828125,-1.0,1.0,-1.0,1.0,9.m4v,9.0
2024-02-28 11:59:42.244958,1709117982.2449584,-46.38671875,-64.453125,-36.62109375,-25.87890625,-1.0,1.0,-1.0,1.0,9.m4v,9.0
2024-02-28 11:59:42.248864,1709117982.248864,-29.296875,-32.2265625,-28.80859375,-28.80859375,-1.0,1.0,-1.0,1.0,9.m4v,9.0
2024-02-28 11:59:42.252769,1709117982.2527692,-36.62109375,-17.08984375,-24.90234375,-37.109375,-1.0,1.0,-1.0,1.0,9.m4v,9.0
2024-02-28 11:59:42.256675,1709117982.2566748,-44.921875,-58.59375,-32.2265625,-41.9921875,-1.0,1.0,-1.0,1.0,9.m4v,9.0
2024-02-28 11:59:42.260580,1709117982.2605803,-48.33984375,-64.453125,-42.48046875,-46.875,-1.0,1.0,-1.0,1.0,9.m4v,9.0
2024-02-28 11:59:42.264486,1709117982.2644856,-52.734375,-44.43359375,-56.15234375,-54.6875,-1.0,1.0,-1.0,1.0,9.m4v,9.0
2024-02-28 11:59:42.268391,1709117982.2683911,-36.1328125,-42.48046875,-35.64453125,-42.96875,-1.0,1.0,-1.0,1.0,9.m4v,9.0
2024-02-28 11:59:42.272297,1709117982.272297,-15.13671875,-40.52734375,1.953125,3.90625,-1.0,1.0,-1.0,1.0,9.m4v,9.0
2024-02-28 11:59:42.276202,1709117982.276202,-25.87890625,-44.921875,-6.34765625,-10.7421875,-1.0,1.0,-1.0,1.0,9.m4v,9.0
2024-02-28 11:59:42.280107,1709117982.2801075,-42.48046875,-32.71484375,-25.390625,-39.0625,-1.0,1.0,-1.0,1.0,9.m4v,9.0
2024-02-28 11:59:42.284016,1709117982.284016,-41.50390625,-14.6484375,-43.45703125,-35.15625,-1.0,1.0,-1.0,1.0,9.m4v,9.0
2024-02-28 11:59:42.287922,1709117982.2879217,-28.80859375,-20.01953125,-41.50390625,-59.08203125,-1.0,1.0,-1.0,1.0,9.m4v,9.0
2024-02-28 11:59:42.291827,1709117982.2918272,-25.87890625,-37.109375,-26.85546875,-35.15625,-1.0,1.0,-1.0,1.0,9.m4v,9.0
2024-02-28 11:59:42.295732,1709117982.2957325,-42.48046875,-38.0859375,-20.01953125,-13.671875,-1.0,1.0,-1.0,1.0,9.m4v,9.0
2024-02-28 11:59:42.299638,1709117982.299638,-36.1328125,-30.2734375,-16.6015625,-29.78515625,-1.0,1.0,-1.0,1.0,9.m4v,9.0
2024-02-28 11:59:42.303544,1709117982.3035436,-41.9921875,-38.0859375,-26.85546875,-36.62109375,-1.0,1.0,-1.0,1.0,9.m4v,9.0
2024-02-28 11:59:42.307449,1709117982.3074489,-46.38671875,-49.31640625,-25.87890625,-22.4609375,-1.0,1.0,-1.0,1.0,9.m4v,9.0
2024-02-28 11:59:42.311354,1709117982.3113544,-43.9453125,-45.41015625,-14.6484375,-15.625,-1.0,1.0,-1.0,1.0,9.m4v,9.0
2024-02-28 11:59:42.315260,1709117982.31526,-32.2265625,-32.71484375,-23.4375,-16.6015625,-1.0,1.0,-1.0,1.0,9.m4v,9.0
2024-02-28 11:59:42.319165,1709117982.3191652,-24.4140625,-44.921875,-45.8984375,-50.78125,-1.0,1.0,-1.0,1.0,9.m4v,9.0
2024-02-28 11:59:42.323071,1709117982.3230708,-46.38671875,-47.36328125,-41.50390625,-50.29296875,-1.0,1.0,-1.0,1.0,9.m4v,9.0
2024-02-28 11:59:42.326976,1709117982.3269763,-47.8515625,-23.92578125,-15.13671875,-21.97265625,-1.0,1.0,-1.0,1.0,9.m4v,9.0
2024-02-28 11:59:42.330888,1709117982.3308885,-38.57421875,-13.671875,-15.13671875,-30.76171875,-1.0,1.0,-1.0,1.0,9.m4v,9.0
2024-02-28 11:59:42.334794,1709117982.3347936,-21.484375,-13.18359375,-8.7890625,-30.2734375,-1.0,1.0,-1.0,1.0,9.m4v,9.0
2024-02-28 11:59:42.338699,1709117982.338699,-17.08984375,-25.390625,-7.32421875,-20.99609375,-1.0,1.0,-1.0,1.0,9.m4v,9.0
2024-02-28 11:59:42.342605,1709117982.3426046,-45.41015625,-30.76171875,-23.4375,-51.7578125,-1.0,1.0,-1.0,1.0,9.m4v,9.0
2024-02-28 11:59:42.346510,1709117982.34651,-50.78125,-34.1796875,-32.71484375,-42.48046875,-1.0,1.0,-1.0,1.0,9.m4v,9.0
2024-02-28 11:59:42.350415,1709117982.3504157,-52.24609375,-36.62109375,-36.62109375,-17.08984375,-1.0,1.0,-1.0,1.0,9.m4v,9.0
2024-02-28 11:59:42.354321,1709117982.354321,-49.8046875,-39.0625,-21.97265625,-39.0625,-1.0,1.0,-1.0,1.0,9.m4v,9.0
2024-02-28 11:59:42.358226,1709117982.3582263,-43.45703125,-37.109375,-12.6953125,-27.34375,-1.0,1.0,-1.0,1.0,9.m4v,9.0
2024-02-28 11:59:42.362132,1709117982.3621318,-40.0390625,-28.3203125,-31.25,-11.71875,-1.0,1.0,-1.0,1.0,9.m4v,9.0
2024-02-28 11:59:42.366037,1709117982.3660374,-38.57421875,-33.203125,-53.7109375,-34.1796875,-1.0,1.0,-1.0,1.0,9.m4v,9.0
2024-02-28 11:59:42.369943,1709117982.369943,-41.50390625,-29.78515625,-46.875,-43.45703125,-1.0,1.0,-1.0,1.0,9.m4v,9.0
2024-02-28 11:59:42.369943,1709117982.369943,-41.50390625,-29.78515625,-46.875,-43.45703125,-1.0,1.0,-1.0,1.0,9.m4v,9.0
2024-02-28 11:59:42.373848,1709117982.3738482,-39.55078125,-38.0859375,-35.15625,-14.6484375,-1.0,1.0,-1.0,1.0,9.m4v,9.0
2024-02-28 11:59:42.373848,1709117982.3738482,-39.55078125,-38.0859375,-35.15625,-14.6484375,-1.0,1.0,-1.0,1.0,9.m4v,9.0
2024-02-28 11:59:42.377760,1709117982.3777597,-47.36328125,-39.55078125,-38.0859375,-16.11328125,-1.0,1.0,-1.0,1.0,9.m4v,9.0
2024-02-28 11:59:42.377760,1709117982.3777597,-47.36328125,-39.55078125,-38.0859375,-16.11328125,-1.0,1.0,-1.0,1.0,9.m4v,9.0
2024-02-28 11:59:42.381665,1709117982.3816652,-46.875,-19.04296875,-15.13671875,-31.73828125,-1.0,1.0,-1.0,1.0,9.m4v,9.0
2024-02-28 11:59:42.381665,1709117982.3816652,-46.875,-19.04296875,-15.13671875,-31.73828125,-1.0,1.0,-1.0,1.0,9.m4v,9.0
2024-02-28 11:59:42.385571,1709117982.3855703,-37.59765625,-15.13671875,1.46484375,-31.73828125,-1.0,1.0,-1.0,1.0,9.m4v,9.0
2024-02-28 11:59:42.385571,1709117982.3855703,-37.59765625,-15.13671875,1.46484375,-31.73828125,-1.0,1.0,-1.0,1.0,9.m4v,9.0
2024-02-28 11:59:42.389476,1709117982.389476,-32.71484375,-23.92578125,-15.625,-30.76171875,-1.0,1.0,-1.0,1.0,9.m4v,9.0
2024-02-28 11:59:42.389476,1709117982.389476,-32.71484375,-23.92578125,-15.625,-30.76171875,-1.0,1.0,-1.0,1.0,9.m4v,9.0
2024-02-28 11:59:42.393382,1709117982.3933816,-28.80859375,-16.6015625,-32.2265625,-45.8984375,-1.0,1.0,-1.0,1.0,9.m4v,9.0
2024-02-28 11:59:42.393382,1709117982.3933816,-28.80859375,-16.6015625,-32.2265625,-45.8984375,-1.0,1.0,-1.0,1.0,9.m4v,9.0
2024-02-28 11:59:42.397287,1709117982.397287,-18.5546875,-12.20703125,-32.71484375,-78.125,-1.0,1.0,-1.0,1.0,9.m4v,9.0
2024-02-28 11:59:42.397287,1709117982.397287,-18.5546875,-12.20703125,-32.71484375,-78.125,-1.0,1.0,-1.0,1.0,9.m4v,9.0
2024-02-28 11:59:42.401192,1709117982.4011924,-31.25,-58.10546875,-20.01953125,-31.73828125,-1.0,1.0,-1.0,1.0,9.m4v,9.0
2024-02-28 11:59:42.401192,1709117982.4011924,-31.25,-58.10546875,-20.01953125,-31.73828125,-1.0,1.0,-1.0,1.0,9.m4v,9.0
2024-02-28 11:59:42.405098,1709117982.405098,-45.8984375,-75.1953125,-29.296875,-9.27734375,-1.0,1.0,-1.0,1.0,9.m4v,9.0
2024-02-28 11:59:42.409003,1709117982.4090033,-50.78125,-41.50390625,-45.41015625,-29.296875,-1.0,1.0,-1.0,1.0,9.m4v,9.0
2024-02-28 11:59:42.412909,1709117982.4129088,-40.52734375,-31.25,-39.55078125,-37.59765625,-1.0,1.0,-1.0,1.0,9.m4v,9.0
2024-02-28 11:59:42.416814,1709117982.4168143,-31.73828125,-33.203125,-29.78515625,-44.43359375,-1.0,1.0,-1.0,1.0,9.m4v,9.0
2024-02-28 11:59:42.420720,1709117982.4207196,-37.59765625,-33.69140625,-34.1796875,-52.24609375,-1.0,1.0,-1.0,1.0,9.m4v,9.0
2024-02-28 11:59:42.424630,1709117982.4246304,-40.0390625,-33.69140625,-26.85546875,-32.71484375,-1.0,1.0,-1.0,1.0,9.m4v,9.0
2024-02-28 11:59:42.428536,1709117982.4285357,-25.390625,-50.29296875,-21.484375,-12.20703125,-1.0,1.0,-1.0,1.0,9.m4v,9.0
2024-02-28 11:59:42.432441,1709117982.4324412,-13.18359375,-47.36328125,-18.5546875,-16.11328125,-1.0,1.0,-1.0,1.0,9.m4v,9.0
2024-02-28 11:59:42.436347,1709117982.4363468,-27.83203125,-31.25,-17.578125,-37.109375,-1.0,1.0,-1.0,1.0,9.m4v,9.0
2024-02-28 11:59:42.440252,1709117982.4402523,-30.2734375,-32.2265625,-22.94921875,-41.015625,-1.0,1.0,-1.0,1.0,9.m4v,9.0
2024-02-28 11:59:42.444158,1709117982.4441576,-24.90234375,-41.50390625,-20.99609375,-34.66796875,-1.0,1.0,-1.0,1.0,9.m4v,9.0
2024-02-28 11:59:42.448063,1709117982.4480631,-27.34375,-48.828125,-26.85546875,-31.25,-1.0,1.0,-1.0,1.0,9.m4v,9.0
2024-02-28 11:59:42.451969,1709117982.451969,-30.2734375,-42.48046875,-35.64453125,0.9765625,-1.0,1.0,-1.0,1.0,9.m4v,9.0
2024-02-28 11:59:42.455874,1709117982.455874,-32.2265625,-31.73828125,-43.45703125,-22.94921875,-1.0,1.0,-1.0,1.0,9.m4v,9.0
2024-02-28 11:59:42.459780,1709117982.4597795,-26.3671875,-27.83203125,-36.62109375,-44.43359375,-1.0,1.0,-1.0,1.0,9.m4v,9.0
2024-02-28 11:59:42.463685,1709117982.463685,-19.04296875,-23.92578125,-10.25390625,-11.71875,-1.0,1.0,-1.0,1.0,9.m4v,9.0
2024-02-28 11:59:42.467590,1709117982.4675903,-33.203125,-28.80859375,-16.6015625,-19.53125,-1.0,1.0,-1.0,1.0,9.m4v,9.0
2024-02-28 11:59:42.471501,1709117982.4715006,-47.36328125,-35.64453125,-40.0390625,-46.875,-1.0,1.0,-1.0,1.0,9.m4v,9.0
2024-02-28 11:59:42.475406,1709117982.475406,-36.1328125,-33.203125,-33.69140625,-47.36328125,-1.0,1.0,-1.0,1.0,9.m4v,9.0
2024-02-28 11:59:42.479311,1709117982.4793117,-40.52734375,-34.1796875,-29.78515625,-88.8671875,-1.0,1.0,-1.0,1.0,9.m4v,9.0
2024-02-28 11:59:42.483217,1709117982.483217,-44.921875,-42.96875,-21.484375,-56.15234375,-1.0,1.0,-1.0,1.0,9.m4v,9.0
2024-02-28 11:59:42.487123,1709117982.4871223,-22.4609375,-49.31640625,-24.4140625,-5.859375,-1.0,1.0,-1.0,1.0,9.m4v,9.0
2024-02-28 11:59:42.491028,1709117982.4910278,-36.62109375,-42.96875,-34.1796875,-11.71875,-1.0,1.0,-1.0,1.0,9.m4v,9.0
2024-02-28 11:59:42.494933,1709117982.4949334,-43.45703125,-40.52734375,-35.15625,-22.94921875,-1.0,1.0,-1.0,1.0,9.m4v,9.0
2024-02-28 11:59:42.498839,1709117982.498839,-25.87890625,-30.2734375,-39.0625,-51.7578125,-1.0,1.0,-1.0,1.0,9.m4v,9.0
2024-02-28 11:59:42.502744,1709117982.5027442,-28.3203125,-22.94921875,-32.71484375,-13.18359375,-1.0,1.0,-1.0,1.0,9.m4v,9.0
2024-02-28 11:59:42.506650,1709117982.5066495,-27.83203125,-33.203125,-39.55078125,-2.9296875,-1.0,1.0,-1.0,1.0,9.m4v,9.0
2024-02-28 11:59:42.510555,1709117982.5105553,-23.4375,-42.96875,-42.96875,-21.97265625,-1.0,1.0,-1.0,1.0,9.m4v,9.0
2024-02-28 11:59:42.514461,1709117982.5144606,-28.3203125,-65.91796875,-23.92578125,-44.43359375,-1.0,1.0,-1.0,1.0,9.m4v,9.0
2024-02-28 11:59:42.518374,1709117982.518374,-41.9921875,-70.80078125,-14.6484375,-52.24609375,-1.0,1.0,-1.0,1.0,9.m4v,9.0
2024-02-28 11:59:42.858182,1709117982.858182,-42.48046875,-38.57421875,-27.83203125,-36.1328125,-1.0,1.0,-1.0,1.0,9.m4v,9.0
2024-02-28 11:59:42.865993,1709117982.8659928,-36.62109375,-12.6953125,-28.3203125,-38.0859375,-1.0,1.0,-1.0,1.0,9.m4v,9.0
2024-02-28 11:59:42.873804,1709117982.873804,-43.9453125,-22.4609375,-41.9921875,-33.203125,-1.0,1.0,-1.0,1.0,9.m4v,9.0
2024-02-28 11:59:42.881615,1709117982.8816147,-57.6171875,-20.5078125,-44.43359375,-52.734375,-1.0,1.0,-1.0,1.0,9.m4v,9.0
2024-02-28 11:59:42.889426,1709117982.8894258,-42.96875,-27.83203125,-18.06640625,-35.15625,-1.0,1.0,-1.0,1.0,9.m4v,9.0
2024-02-28 11:59:42.897241,1709117982.897241,-50.29296875,-24.90234375,-15.13671875,-4.39453125,-1.0,1.0,-1.0,1.0,9.m4v,9.0
2024-02-28 11:59:42.905052,1709117982.9050522,-22.4609375,-41.9921875,-40.52734375,-58.59375,-1.0,1.0,-1.0,1.0,9.m4v,9.0
2024-02-28 11:59:42.912863,1709117982.912863,-24.4140625,-27.34375,-17.08984375,-29.78515625,-1.0,1.0,-1.0,1.0,9.m4v,9.0
2024-02-28 11:59:42.920674,1709117982.9206738,-37.109375,-41.50390625,-42.48046875,-27.34375,-1.0,1.0,-1.0,1.0,9.m4v,9.0
2024-02-28 11:59:42.928485,1709117982.928485,-40.52734375,-26.85546875,-22.4609375,-52.734375,-1.0,1.0,-1.0,1.0,9.m4v,9.0
2024-02-28 11:59:42.936296,1709117982.9362955,-55.17578125,-1.46484375,-28.80859375,-43.45703125,-1.0,1.0,-1.0,1.0,9.m4v,9.0
2024-02-28 11:59:42.944111,1709117982.944111,-47.36328125,-20.99609375,-33.203125,-13.671875,-1.0,1.0,-1.0,1.0,9.m4v,9.0
2024-02-28 11:59:42.944111,1709117982.944111,-47.36328125,-20.99609375,-33.203125,-13.671875,-1.0,1.0,-1.0,1.0,9.m4v,9.0
2024-02-28 11:59:42.951922,1709117982.9519222,-25.390625,-37.109375,-47.8515625,-44.921875,-1.0,1.0,-1.0,1.0,9.m4v,9.0
2024-02-28 11:59:42.951922,1709117982.9519222,-25.390625,-37.109375,-47.8515625,-44.921875,-1.0,1.0,-1.0,1.0,9.m4v,9.0
2024-02-28 11:59:42.959733,1709117982.959733,-36.62109375,-13.18359375,-14.16015625,-27.34375,-1.0,1.0,-1.0,1.0,9.m4v,9.0
2024-02-28 11:59:42.959733,1709117982.959733,-36.62109375,-13.18359375,-14.16015625,-27.34375,-1.0,1.0,-1.0,1.0,9.m4v,9.0
2024-02-28 11:59:42.967544,1709117982.9675438,-13.671875,-26.3671875,0.9765625,-27.34375,-1.0,1.0,-1.0,1.0,9.m4v,9.0
2024-02-28 11:59:42.967544,1709117982.9675438,-13.671875,-26.3671875,0.9765625,-27.34375,-1.0,1.0,-1.0,1.0,9.m4v,9.0
2024-02-28 11:59:42.975355,1709117982.975355,-44.43359375,-39.55078125,-40.0390625,-41.50390625,-1.0,1.0,-1.0,1.0,9.m4v,9.0
2024-02-28 11:59:42.975355,1709117982.975355,-44.43359375,-39.55078125,-40.0390625,-41.50390625,-1.0,1.0,-1.0,1.0,9.m4v,9.0
2024-02-28 11:59:42.983166,1709117982.9831655,-42.48046875,-28.80859375,-42.48046875,-32.71484375,-1.0,1.0,-1.0,1.0,9.m4v,9.0
2024-02-28 11:59:42.983166,1709117982.9831655,-42.48046875,-28.80859375,-42.48046875,-32.71484375,-1.0,1.0,-1.0,1.0,9.m4v,9.0
2024-02-28 11:59:42.990981,1709117982.9909809,-45.41015625,-22.94921875,-26.3671875,-56.15234375,-1.0,1.0,-1.0,1.0,9.m4v,9.0
2024-02-28 11:59:42.990981,1709117982.9909809,-45.41015625,-22.94921875,-26.3671875,-56.15234375,-1.0,1.0,-1.0,1.0,9.m4v,9.0
2024-02-28 11:59:42.998792,1709117982.9987917,-15.13671875,-30.2734375,-33.69140625,-31.25,-1.0,1.0,-1.0,1.0,9.m4v,9.0
2024-02-28 11:59:42.998792,1709117982.9987917,-15.13671875,-30.2734375,-33.69140625,-31.25,-1.0,1.0,-1.0,1.0,9.m4v,9.0
2024-02-28 11:59:43.006603,1709117983.0066028,-36.62109375,-29.296875,-27.34375,-7.32421875,-1.0,1.0,-1.0,1.0,9.m4v,9.0
2024-02-28 11:59:43.006603,1709117983.0066028,-36.62109375,-29.296875,-27.34375,-7.32421875,-1.0,1.0,-1.0,1.0,9.m4v,9.0
2024-02-28 11:59:43.014414,1709117983.0144136,-42.96875,-9.27734375,-37.109375,-39.0625,-1.0,1.0,-1.0,1.0,9.m4v,9.0
2024-02-28 11:59:43.014414,1709117983.0144136,-42.96875,-9.27734375,-37.109375,-39.0625,-1.0,1.0,-1.0,1.0,9.m4v,9.0
2024-02-28 11:59:43.022224,1709117983.0222244,-38.0859375,-29.78515625,-51.7578125,-37.59765625,-1.0,1.0,-1.0,1.0,9.m4v,9.0
2024-02-28 11:59:43.022224,1709117983.0222244,-38.0859375,-29.78515625,-51.7578125,-37.59765625,-1.0,1.0,-1.0,1.0,9.m4v,9.0
2024-02-28 11:59:43.030035,1709117983.0300355,-18.5546875,-47.36328125,-7.32421875,-28.80859375,-1.0,1.0,-1.0,1.0,9.m4v,9.0
2024-02-28 11:59:43.030035,1709117983.0300355,-18.5546875,-47.36328125,-7.32421875,-28.80859375,-1.0,1.0,-1.0,1.0,9.m4v,9.0
2024-02-28 11:59:43.037849,1709117983.0378494,-41.015625,-6.34765625,-28.80859375,-35.15625,-1.0,1.0,-1.0,1.0,9.m4v,9.0
2024-02-28 11:59:43.037849,1709117983.0378494,-41.015625,-6.34765625,-28.80859375,-35.15625,-1.0,1.0,-1.0,1.0,9.m4v,9.0
2024-02-28 11:59:43.045660,1709117983.0456605,-35.64453125,-11.23046875,-16.6015625,-29.296875,-1.0,1.0,-1.0,1.0,9.m4v,9.0
2024-02-28 11:59:43.045660,1709117983.0456605,-35.64453125,-11.23046875,-16.6015625,-29.296875,-1.0,1.0,-1.0,1.0,9.m4v,9.0
2024-02-28 11:59:43.053471,1709117983.053471,-45.41015625,-40.52734375,-58.59375,-41.015625,-1.0,1.0,-1.0,1.0,9.m4v,9.0
2024-02-28 11:59:43.053471,1709117983.053471,-45.41015625,-40.52734375,-58.59375,-41.015625,-1.0,1.0,-1.0,1.0,9.m4v,9.0
2024-02-28 11:59:43.061282,1709117983.0612822,-32.2265625,-34.1796875,-61.5234375,-95.21484375,-1.0,1.0,-1.0,1.0,9.m4v,9.0
2024-02-28 11:59:43.061282,1709117983.0612822,-32.2265625,-34.1796875,-61.5234375,-95.21484375,-1.0,1.0,-1.0,1.0,9.m4v,9.0
2024-02-28 11:59:43.069093,1709117983.069093,-27.83203125,-11.23046875,-34.66796875,-5.37109375,-1.0,1.0,-1.0,1.0,9.m4v,9.0
2024-02-28 11:59:43.069093,1709117983.069093,-27.83203125,-11.23046875,-34.66796875,-5.37109375,-1.0,1.0,-1.0,1.0,9.m4v,9.0
2024-02-28 11:59:43.076904,1709117983.0769038,-23.92578125,-40.52734375,-24.4140625,-3.41796875,-1.0,1.0,-1.0,1.0,9.m4v,9.0
2024-02-28 11:59:43.076904,1709117983.0769038,-23.92578125,-40.52734375,-24.4140625,-3.41796875,-1.0,1.0,-1.0,1.0,9.m4v,9.0
2024-02-28 11:59:43.080816,1709117983.0808156,-26.3671875,-27.83203125,-26.85546875,9.27734375,-1.0,1.0,-1.0,1.0,9.m4v,9.0
2024-02-28 11:59:43.084721,1709117983.084721,-36.62109375,-20.99609375,-45.41015625,-36.62109375,-1.0,1.0,-1.0,1.0,9.m4v,9.0
2024-02-28 11:59:43.088626,1709117983.0886264,-39.0625,-18.5546875,-28.80859375,-52.24609375,-1.0,1.0,-1.0,1.0,9.m4v,9.0
2024-02-28 11:59:43.092532,1709117983.092532,-45.41015625,-23.4375,-18.06640625,-45.8984375,-1.0,1.0,-1.0,1.0,9.m4v,9.0
2024-02-28 11:59:43.096437,1709117983.0964377,-37.109375,-26.3671875,-28.80859375,-41.50390625,-1.0,1.0,-1.0,1.0,9.m4v,9.0
2024-02-28 11:59:43.100343,1709117983.1003428,-16.6015625,-17.578125,-28.3203125,-36.62109375,-1.0,1.0,-1.0,1.0,9.m4v,9.0
2024-02-28 11:59:43.104248,1709117983.1042483,-8.30078125,-7.8125,-14.16015625,-34.66796875,-1.0,1.0,-1.0,1.0,9.m4v,9.0
2024-02-28 11:59:43.108154,1709117983.1081538,-10.7421875,-12.6953125,-18.5546875,-33.203125,-1.0,1.0,-1.0,1.0,9.m4v,9.0
2024-02-28 11:59:43.112059,1709117983.112059,-5.37109375,-28.3203125,-30.2734375,-25.390625,-1.0,1.0,-1.0,1.0,9.m4v,9.0
2024-02-28 11:59:43.115965,1709117983.115965,-11.71875,-40.52734375,-26.85546875,-30.76171875,-1.0,1.0,-1.0,1.0,9.m4v,9.0
2024-02-28 11:59:43.119870,1709117983.1198702,-24.90234375,-47.8515625,-42.48046875,-48.828125,-1.0,1.0,-1.0,1.0,9.m4v,9.0
2024-02-28 11:59:43.123775,1709117983.1237755,-33.203125,-37.59765625,-46.875,-33.203125,-1.0,1.0,-1.0,1.0,9.m4v,9.0
2024-02-28 11:59:43.127687,1709117983.1276867,-36.62109375,-24.90234375,-45.41015625,-47.36328125,-1.0,1.0,-1.0,1.0,9.m4v,9.0
2024-02-28 11:59:43.131592,1709117983.131592,-36.62109375,-35.64453125,-55.17578125,-81.54296875,-1.0,1.0,-1.0,1.0,9.m4v,9.0
2024-02-28 11:59:43.135498,1709117983.1354976,-35.15625,-29.296875,-47.8515625,-22.94921875,-1.0,1.0,-1.0,1.0,9.m4v,9.0
2024-02-28 11:59:43.139403,1709117983.139403,-19.04296875,-19.53125,-38.0859375,-9.765625,-1.0,1.0,-1.0,1.0,9.m4v,9.0
2024-02-28 11:59:43.143308,1709117983.1433084,-15.13671875,-21.97265625,-37.109375,-19.04296875,-1.0,1.0,-1.0,1.0,9.m4v,9.0
2024-02-28 11:59:43.147214,1709117983.147214,-27.83203125,-20.01953125,-35.15625,-22.94921875,-1.0,1.0,-1.0,1.0,9.m4v,9.0
2024-02-28 11:59:43.151119,1709117983.1511197,-29.78515625,-20.5078125,-21.484375,-38.57421875,-1.0,1.0,-1.0,1.0,9.m4v,9.0
2024-02-28 11:59:43.155025,1709117983.1550248,-32.2265625,-36.62109375,-21.484375,-24.4140625,-1.0,1.0,-1.0,1.0,9.m4v,9.0
2024-02-28 11:59:43.158930,1709117983.1589303,-44.43359375,-47.8515625,-42.96875,-46.38671875,-1.0,1.0,-1.0,1.0,9.m4v,9.0
2024-02-28 11:59:43.162836,1709117983.1628358,-41.015625,-37.109375,-38.57421875,-47.36328125,-1.0,1.0,-1.0,1.0,9.m4v,9.0
2024-02-28 11:59:43.166741,1709117983.1667411,-30.76171875,-31.73828125,-19.04296875,-36.62109375,-1.0,1.0,-1.0,1.0,9.m4v,9.0
2024-02-28 11:59:43.170647,1709117983.170647,-28.80859375,-37.109375,-20.5078125,-44.43359375,-1.0,1.0,-1.0,1.0,9.m4v,9.0
2024-02-28 11:59:43.174558,1709117983.1745577,-26.3671875,-49.8046875,-38.57421875,-43.9453125,-1.0,1.0,-1.0,1.0,9.m4v,9.0
2024-02-28 11:59:43.178463,1709117983.178463,-19.53125,-56.640625,-40.0390625,-41.9921875,-1.0,1.0,-1.0,1.0,9.m4v,9.0
2024-02-28 11:59:43.182369,1709117983.1823685,-17.578125,-34.66796875,-28.80859375,-46.38671875,-1.0,1.0,-1.0,1.0,9.m4v,9.0
2024-02-28 11:59:43.186274,1709117983.186274,-39.0625,-27.83203125,-38.0859375,-55.6640625,-1.0,1.0,-1.0,1.0,9.m4v,9.0
2024-02-28 11:59:43.190179,1709117983.190179,-60.05859375,-38.0859375,-54.19921875,-49.8046875,-1.0,1.0,-1.0,1.0,9.m4v,9.0
2024-02-28 11:59:43.194085,1709117983.194085,-51.7578125,-30.2734375,-39.55078125,-51.26953125,-1.0,1.0,-1.0,1.0,9.m4v,9.0
2024-02-28 11:59:43.197990,1709117983.1979904,-50.29296875,-33.69140625,-23.4375,-62.01171875,-1.0,1.0,-1.0,1.0,9.m4v,9.0
2024-02-28 11:59:43.201896,1709117983.2018957,-44.43359375,-61.5234375,-16.11328125,-47.8515625,-1.0,1.0,-1.0,1.0,9.m4v,9.0
2024-02-28 11:59:43.205801,1709117983.2058012,-39.0625,-79.58984375,-25.390625,-35.15625,-1.0,1.0,-1.0,1.0,9.m4v,9.0
2024-02-28 11:59:43.209707,1709117983.2097068,-34.66796875,-62.5,-42.96875,-27.83203125,-1.0,1.0,-1.0,1.0,9.m4v,9.0
2024-02-28 11:59:43.213612,1709117983.213612,-22.94921875,-33.203125,-45.41015625,-27.34375,-1.0,1.0,-1.0,1.0,9.m4v,9.0
2024-02-28 11:59:43.217518,1709117983.2175176,-8.30078125,-24.90234375,-41.9921875,-33.203125,-1.0,1.0,-1.0,1.0,9.m4v,9.0
2024-02-28 11:59:43.221428,1709117983.2214284,-7.32421875,-16.11328125,-15.13671875,-14.6484375,-1.0,1.0,-1.0,1.0,9.m4v,9.0
2024-02-28 11:59:43.225334,1709117983.2253337,-21.97265625,-29.296875,-3.41796875,-33.69140625,-1.0,1.0,-1.0,1.0,9.m4v,9.0
2024-02-28 11:59:43.229239,1709117983.2292392,-29.296875,-35.64453125,-18.06640625,-55.6640625,-1.0,1.0,-1.0,1.0,9.m4v,9.0
2024-02-28 11:59:43.233145,1709117983.2331448,-29.296875,-23.4375,-31.25,-35.64453125,-1.0,1.0,-1.0,1.0,9.m4v,9.0
2024-02-28 11:59:43.237050,1709117983.23705,-33.69140625,-29.78515625,-24.4140625,-40.0390625,-1.0,1.0,-1.0,1.0,9.m4v,9.0
2024-02-28 11:59:43.240956,1709117983.2409556,-47.8515625,-24.90234375,-20.01953125,-69.3359375,-1.0,1.0,-1.0,1.0,9.m4v,9.0
2024-02-28 11:59:43.244861,1709117983.2448611,-43.9453125,-27.34375,-25.87890625,-56.640625,-1.0,1.0,-1.0,1.0,9.m4v,9.0
2024-02-28 11:59:43.248767,1709117983.248767,-38.57421875,-50.29296875,-27.83203125,-45.41015625,-1.0,1.0,-1.0,1.0,9.m4v,9.0
2024-02-28 11:59:43.252672,1709117983.252672,-41.015625,-57.12890625,-35.15625,-51.7578125,-1.0,1.0,-1.0,1.0,9.m4v,9.0
2024-02-28 11:59:43.256577,1709117983.2565775,-20.5078125,-43.9453125,-20.01953125,-33.203125,-1.0,1.0,-1.0,1.0,9.m4v,9.0
2024-02-28 11:59:43.260483,1709117983.260483,-17.578125,-21.97265625,-15.13671875,-19.53125,-1.0,1.0,-1.0,1.0,9.m4v,9.0
2024-02-28 11:59:43.264388,1709117983.2643883,-16.6015625,-23.4375,-24.4140625,-10.25390625,-1.0,1.0,-1.0,1.0,9.m4v,9.0
2024-02-28 11:59:43.268298,1709117983.268298,-20.5078125,-42.96875,-17.578125,-51.7578125,-1.0,1.0,-1.0,1.0,9.m4v,9.0
2024-02-28 11:59:43.272204,1709117983.2722037,-29.78515625,-46.875,-26.3671875,-56.15234375,-1.0,1.0,-1.0,1.0,9.m4v,9.0
2024-02-28 11:59:43.276109,1709117983.2761092,-11.71875,-30.76171875,-36.1328125,-2.44140625,-1.0,1.0,-1.0,1.0,9.m4v,9.0
2024-02-28 11:59:43.280015,1709117983.2800145,-26.3671875,-25.87890625,-36.62109375,-21.484375,-1.0,1.0,-1.0,1.0,9.m4v,9.0
2024-02-28 11:59:43.283920,1709117983.28392,-47.36328125,-36.62109375,-30.76171875,-43.45703125,-1.0,1.0,-1.0,1.0,9.m4v,9.0
2024-02-28 11:59:43.287826,1709117983.2878256,-31.73828125,-30.76171875,-31.73828125,-27.34375,-1.0,1.0,-1.0,1.0,9.m4v,9.0
2024-02-28 11:59:43.291731,1709117983.2917309,-19.53125,-34.1796875,-41.015625,-15.13671875,-1.0,1.0,-1.0,1.0,9.m4v,9.0
2024-02-28 11:59:43.295636,1709117983.2956364,-34.1796875,-52.734375,-34.1796875,-41.015625,-1.0,1.0,-1.0,1.0,9.m4v,9.0
2024-02-28 11:59:43.299542,1709117983.299542,-39.0625,-47.36328125,-17.08984375,-40.0390625,-1.0,1.0,-1.0,1.0,9.m4v,9.0
2024-02-28 11:59:43.303447,1709117983.3034472,-41.9921875,-28.3203125,-18.5546875,-35.64453125,-1.0,1.0,-1.0,1.0,9.m4v,9.0
2024-02-28 11:59:43.307353,1709117983.3073528,-46.875,-25.390625,-17.578125,-49.8046875,-1.0,1.0,-1.0,1.0,9.m4v,9.0
2024-02-28 11:59:43.311258,1709117983.3112583,-35.64453125,-28.3203125,-21.484375,-29.78515625,-1.0,1.0,-1.0,1.0,9.m4v,9.0
2024-02-28 11:59:43.315168,1709117983.3151677,-30.76171875,-29.296875,-44.921875,-16.6015625,-1.0,1.0,-1.0,1.0,9.m4v,9.0
2024-02-28 11:59:43.319073,1709117983.3190732,-35.15625,-39.0625,-50.29296875,-41.9921875,-1.0,1.0,-1.0,1.0,9.m4v,9.0
2024-02-28 11:59:43.322978,1709117983.3229785,-41.9921875,-50.29296875,-31.73828125,-63.96484375,-1.0,1.0,-1.0,1.0,9.m4v,9.0
2024-02-28 11:59:43.326884,1709117983.326884,-39.55078125,-53.7109375,-23.92578125,-24.4140625,-1.0,1.0,-1.0,1.0,9.m4v,9.0
2024-02-28 11:59:43.330790,1709117983.3307896,-26.85546875,-29.296875,-12.6953125,-11.23046875,-1.0,1.0,-1.0,1.0,9.m4v,9.0
2024-02-28 11:59:43.334695,1709117983.334695,-26.3671875,-8.7890625,-13.671875,-41.50390625,-1.0,1.0,-1.0,1.0,9.m4v,9.0
2024-02-28 11:59:43.338600,1709117983.3386004,-36.62109375,-20.99609375,-29.78515625,-39.55078125,-1.0,1.0,-1.0,1.0,9.m4v,9.0
2024-02-28 11:59:43.342506,1709117983.342506,-44.43359375,-51.7578125,-40.0390625,-32.2265625,-1.0,1.0,-1.0,1.0,9.m4v,9.0
2024-02-28 11:59:43.346411,1709117983.3464117,-45.41015625,-55.17578125,-29.78515625,-35.64453125,-1.0,1.0,-1.0,1.0,9.m4v,9.0
2024-02-28 11:59:43.350317,1709117983.3503168,-49.31640625,-30.2734375,-28.3203125,-40.0390625,-1.0,1.0,-1.0,1.0,9.m4v,9.0
2024-02-28 11:59:43.354222,1709117983.3542223,-38.0859375,-13.671875,-36.1328125,-32.71484375,-1.0,1.0,-1.0,1.0,9.m4v,9.0
2024-02-28 11:59:43.358128,1709117983.3581278,-31.25,-20.01953125,-49.8046875,-30.76171875,-1.0,1.0,-1.0,1.0,9.m4v,9.0
2024-02-28 11:59:43.362037,1709117983.3620372,-28.3203125,-46.875,-42.48046875,-37.59765625,-1.0,1.0,-1.0,1.0,9.m4v,9.0
2024-02-28 11:59:43.365943,1709117983.3659427,-27.83203125,-47.8515625,-19.04296875,-35.64453125,-1.0,1.0,-1.0,1.0,9.m4v,9.0
2024-02-28 11:59:43.369848,1709117983.369848,-35.64453125,-26.3671875,-32.2265625,-41.9921875,-1.0,1.0,-1.0,1.0,9.m4v,9.0
2024-02-28 11:59:43.373754,1709117983.3737535,-35.64453125,-26.3671875,-28.80859375,-24.90234375,-1.0,1.0,-1.0,1.0,9.m4v,9.0
2024-02-28 11:59:43.377659,1709117983.377659,-40.0390625,-18.5546875,-13.18359375,-37.109375,-1.0,1.0,-1.0,1.0,9.m4v,9.0
2024-02-28 11:59:43.381564,1709117983.3815644,-36.1328125,-10.25390625,-19.53125,-74.21875,-1.0,1.0,-1.0,1.0,9.m4v,9.0
2024-02-28 11:59:43.385470,1709117983.38547,-42.96875,-30.76171875,-30.2734375,-32.2265625,-1.0,1.0,-1.0,1.0,9.m4v,9.0
2024-02-28 11:59:43.389375,1709117983.3893754,-45.8984375,-42.96875,-27.83203125,-20.99609375,-1.0,1.0,-1.0,1.0,9.m4v,9.0
2024-02-28 11:59:43.393281,1709117983.3932807,-42.96875,-42.96875,-14.6484375,-37.59765625,-1.0,1.0,-1.0,1.0,9.m4v,9.0
2024-02-28 11:59:43.397186,1709117983.3971865,-44.43359375,-31.73828125,-8.7890625,-46.38671875,-1.0,1.0,-1.0,1.0,9.m4v,9.0
2024-02-28 11:59:43.401092,1709117983.4010918,-30.2734375,-26.3671875,-28.3203125,-86.42578125,-1.0,1.0,-1.0,1.0,9.m4v,9.0
2024-02-28 11:59:43.404997,1709117983.404997,-24.90234375,-41.50390625,-41.50390625,-35.64453125,-1.0,1.0,-1.0,1.0,9.m4v,9.0
2024-02-28 11:59:43.408906,1709117983.4089065,-34.1796875,-30.76171875,-42.96875,-1.953125,-1.0,1.0,-1.0,1.0,9.m4v,9.0
2024-02-28 11:59:43.412812,1709117983.4128118,-31.73828125,-20.01953125,-28.80859375,-22.94921875,-1.0,1.0,-1.0,1.0,9.m4v,9.0
2024-02-28 11:59:43.416717,1709117983.4167173,-17.578125,-35.15625,-12.20703125,-1.46484375,-1.0,1.0,-1.0,1.0,9.m4v,9.0
2024-02-28 11:59:43.420623,1709117983.4206228,-9.765625,-44.921875,-16.6015625,-3.41796875,-1.0,1.0,-1.0,1.0,9.m4v,9.0
2024-02-28 11:59:43.424528,1709117983.424528,-31.73828125,-44.921875,-21.484375,-17.578125,-1.0,1.0,-1.0,1.0,9.m4v,9.0
2024-02-28 11:59:43.428434,1709117983.4284337,-28.3203125,-27.34375,-20.01953125,-17.578125,-1.0,1.0,-1.0,1.0,9.m4v,9.0
2024-02-28 11:59:43.432339,1709117983.4323392,-4.8828125,-13.671875,-40.0390625,-12.6953125,-1.0,1.0,-1.0,1.0,9.m4v,9.0
2024-02-28 11:59:43.436244,1709117983.4362445,-28.3203125,-36.62109375,-39.0625,-38.0859375,-1.0,1.0,-1.0,1.0,9.m4v,9.0
2024-02-28 11:59:43.440150,1709117983.44015,-47.36328125,-43.9453125,-14.6484375,-73.73046875,-1.0,1.0,-1.0,1.0,9.m4v,9.0
2024-02-28 11:59:43.444056,1709117983.4440556,-41.015625,-45.8984375,-23.92578125,-39.55078125,-1.0,1.0,-1.0,1.0,9.m4v,9.0
2024-02-28 11:59:43.447961,1709117983.4479609,-36.1328125,-45.8984375,-33.203125,-15.13671875,-1.0,1.0,-1.0,1.0,9.m4v,9.0
2024-02-28 11:59:43.451866,1709117983.4518664,-45.41015625,-25.87890625,-34.1796875,-32.2265625,-1.0,1.0,-1.0,1.0,9.m4v,9.0
2024-02-28 11:59:43.455779,1709117983.4557786,-32.71484375,-25.390625,-33.203125,-29.78515625,-1.0,1.0,-1.0,1.0,9.m4v,9.0
2024-02-28 11:59:43.459684,1709117983.459684,-33.203125,-29.296875,-17.578125,-28.80859375,-1.0,1.0,-1.0,1.0,9.m4v,9.0
2024-02-28 11:59:43.463589,1709117983.4635894,-61.03515625,-22.4609375,-21.97265625,-58.10546875,-1.0,1.0,-1.0,1.0,9.m4v,9.0
2024-02-28 11:59:43.467495,1709117983.467495,-50.29296875,-32.71484375,-46.38671875,-31.25,-1.0,1.0,-1.0,1.0,9.m4v,9.0
2024-02-28 11:59:43.471400,1709117983.4714005,-25.390625,-43.45703125,-42.48046875,-7.32421875,-1.0,1.0,-1.0,1.0,9.m4v,9.0
2024-02-28 11:59:43.475306,1709117983.4753058,-32.2265625,-42.48046875,-26.3671875,-20.99609375,-1.0,1.0,-1.0,1.0,9.m4v,9.0
2024-02-28 11:59:43.479211,1709117983.479211,-52.734375,-44.43359375,-21.97265625,-35.15625,-1.0,1.0,-1.0,1.0,9.m4v,9.0
2024-02-28 11:59:43.483117,1709117983.4831166,-42.48046875,-28.3203125,-12.20703125,-32.71484375,-1.0,1.0,-1.0,1.0,9.m4v,9.0
2024-02-28 11:59:43.487022,1709117983.4870222,-38.0859375,-19.53125,-13.671875,-30.76171875,-1.0,1.0,-1.0,1.0,9.m4v,9.0
2024-02-28 11:59:43.490928,1709117983.4909277,-41.50390625,-29.78515625,-23.92578125,-27.34375,-1.0,1.0,-1.0,1.0,9.m4v,9.0
2024-02-28 11:59:43.494833,1709117983.494833,-42.48046875,-29.78515625,-41.9921875,-24.90234375,-1.0,1.0,-1.0,1.0,9.m4v,9.0
2024-02-28 11:59:43.498739,1709117983.4987383,-41.50390625,-40.52734375,-50.29296875,-34.66796875,-1.0,1.0,-1.0,1.0,9.m4v,9.0
2024-02-28 11:59:43.502650,1709117983.5026498,-22.4609375,-49.31640625,-40.0390625,-25.390625,-1.0,1.0,-1.0,1.0,9.m4v,9.0
2024-02-28 11:59:43.506555,1709117983.5065553,-24.4140625,-47.36328125,-37.109375,-41.015625,-1.0,1.0,-1.0,1.0,9.m4v,9.0
2024-02-28 11:59:43.510461,1709117983.5104606,-22.4609375,-41.015625,-21.97265625,-26.85546875,-1.0,1.0,-1.0,1.0,9.m4v,9.0
2024-02-28 11:59:43.514366,1709117983.514366,-20.5078125,-24.90234375,-20.01953125,-3.41796875,-1.0,1.0,-1.0,1.0,9.m4v,9.0
2024-02-28 11:59:43.518272,1709117983.5182717,-24.4140625,-28.80859375,-48.828125,-39.55078125,-1.0,1.0,-1.0,1.0,9.m4v,9.0
2024-02-28 11:59:43.522177,1709117983.522177,-36.1328125,-55.17578125,-41.50390625,-46.875,-1.0,1.0,-1.0,1.0,9.m4v,9.0
2024-02-28 11:59:43.666696,1709117983.6666958,-35.64453125,-21.484375,-16.11328125,-4.8828125,-1.0,1.0,-1.0,1.0,9.m4v,9.0
2024-02-28 11:59:43.670601,1709117983.6706014,-45.41015625,-25.87890625,-25.390625,-17.578125,-1.0,1.0,-1.0,1.0,9.m4v,9.0
2024-02-28 11:59:43.674507,1709117983.674507,-40.52734375,-29.78515625,-30.2734375,-35.15625,-1.0,1.0,-1.0,1.0,9.m4v,9.0
2024-02-28 11:59:43.678412,1709117983.6784122,-28.3203125,-26.3671875,-43.9453125,-38.57421875,-1.0,1.0,-1.0,1.0,9.m4v,9.0
2024-02-28 11:59:43.682318,1709117983.6823175,-29.78515625,-36.1328125,-47.8515625,-40.0390625,-1.0,1.0,-1.0,1.0,9.m4v,9.0
2024-02-28 11:59:43.686223,1709117983.686223,-39.0625,-56.640625,-27.34375,-38.57421875,-1.0,1.0,-1.0,1.0,9.m4v,9.0
2024-02-28 11:59:43.690133,1709117983.6901329,-40.52734375,-64.453125,-5.859375,-28.3203125,-1.0,1.0,-1.0,1.0,9.m4v,9.0
2024-02-28 11:59:43.694038,1709117983.6940382,-33.69140625,-47.36328125,-4.8828125,-27.83203125,-1.0,1.0,-1.0,1.0,9.m4v,9.0
2024-02-28 11:59:43.697944,1709117983.6979437,-17.08984375,-40.0390625,-29.296875,-15.13671875,-1.0,1.0,-1.0,1.0,9.m4v,9.0
2024-02-28 11:59:43.701849,1709117983.7018492,-27.34375,-50.78125,-37.59765625,-6.34765625,-1.0,1.0,-1.0,1.0,9.m4v,9.0
2024-02-28 11:59:43.705755,1709117983.7057548,-54.6875,-41.9921875,-39.55078125,-20.99609375,-1.0,1.0,-1.0,1.0,9.m4v,9.0
2024-02-28 11:59:43.709660,1709117983.70966,-61.03515625,-31.73828125,-38.0859375,-57.12890625,-1.0,1.0,-1.0,1.0,9.m4v,9.0
2024-02-28 11:59:43.713566,1709117983.7135656,-47.8515625,-37.59765625,-37.59765625,-80.56640625,-1.0,1.0,-1.0,1.0,9.m4v,9.0
2024-02-28 11:59:43.717471,1709117983.7174711,-45.41015625,-31.73828125,-57.6171875,-52.734375,-1.0,1.0,-1.0,1.0,9.m4v,9.0
2024-02-28 11:59:43.721376,1709117983.7213764,-49.8046875,-37.109375,-63.4765625,-66.40625,-1.0,1.0,-1.0,1.0,9.m4v,9.0
2024-02-28 11:59:43.725282,1709117983.725282,-37.59765625,-45.8984375,-52.24609375,-45.8984375,-1.0,1.0,-1.0,1.0,9.m4v,9.0
2024-02-28 11:59:43.729187,1709117983.7291875,-19.53125,-37.109375,-32.71484375,-13.18359375,-1.0,1.0,-1.0,1.0,9.m4v,9.0
2024-02-28 11:59:43.733093,1709117983.7330928,-13.18359375,-20.5078125,-1.46484375,-41.50390625,-1.0,1.0,-1.0,1.0,9.m4v,9.0
2024-02-28 11:59:43.924485,1709117983.9244852,-39.0625,-41.9921875,-43.9453125,-33.69140625,-1.0,1.0,-1.0,1.0,9.m4v,9.0
2024-02-28 11:59:43.928391,1709117983.9283905,-48.828125,-54.6875,-33.203125,-34.1796875,-1.0,1.0,-1.0,1.0,9.m4v,9.0
2024-02-28 11:59:43.932296,1709117983.932296,-44.43359375,-39.55078125,-31.25,-21.97265625,-1.0,1.0,-1.0,1.0,9.m4v,9.0
2024-02-28 11:59:43.936202,1709117983.9362016,-43.9453125,-24.90234375,-41.9921875,-39.55078125,-1.0,1.0,-1.0,1.0,9.m4v,9.0
2024-02-28 11:59:43.940107,1709117983.9401069,-30.2734375,-26.3671875,-52.734375,-35.64453125,-1.0,1.0,-1.0,1.0,9.m4v,9.0
2024-02-28 11:59:43.944012,1709117983.9440124,-30.2734375,-30.76171875,-52.24609375,-23.4375,-1.0,1.0,-1.0,1.0,9.m4v,9.0
2024-02-28 11:59:43.947918,1709117983.947918,-45.41015625,-32.71484375,-44.43359375,-19.53125,-1.0,1.0,-1.0,1.0,9.m4v,9.0
2024-02-28 11:59:43.951823,1709117983.9518232,-48.33984375,-41.50390625,-34.1796875,-27.83203125,-1.0,1.0,-1.0,1.0,9.m4v,9.0
2024-02-28 11:59:43.955729,1709117983.9557288,-41.015625,-36.62109375,-10.25390625,-16.6015625,-1.0,1.0,-1.0,1.0,9.m4v,9.0
2024-02-28 11:59:43.959634,1709117983.9596343,-27.83203125,-35.15625,-16.11328125,-19.53125,-1.0,1.0,-1.0,1.0,9.m4v,9.0
2024-02-28 11:59:43.963540,1709117983.9635398,-30.2734375,-51.26953125,-41.9921875,-28.3203125,-1.0,1.0,-1.0,1.0,9.m4v,9.0
2024-02-28 11:59:43.967445,1709117983.9674451,-31.73828125,-50.29296875,-54.6875,-23.4375,-1.0,1.0,-1.0,1.0,9.m4v,9.0
2024-02-28 11:59:43.971356,1709117983.971356,-27.34375,-36.1328125,-42.48046875,-6.8359375,-1.0,1.0,-1.0,1.0,9.m4v,9.0
2024-02-28 11:59:43.975261,1709117983.9752612,-48.828125,-29.296875,-16.11328125,-10.7421875,-1.0,1.0,-1.0,1.0,9.m4v,9.0
2024-02-28 11:59:43.979167,1709117983.9791667,-42.96875,-32.71484375,-11.71875,-42.96875,-1.0,1.0,-1.0,1.0,9.m4v,9.0
2024-02-28 11:59:43.983072,1709117983.9830723,-30.2734375,-45.41015625,-21.97265625,-59.08203125,-1.0,1.0,-1.0,1.0,9.m4v,9.0
2024-02-28 11:59:43.986978,1709117983.9869776,-48.828125,-40.52734375,-47.8515625,-46.38671875,-1.0,1.0,-1.0,1.0,9.m4v,9.0
2024-02-28 11:59:43.990883,1709117983.990883,-50.78125,-19.04296875,-45.41015625,-25.390625,-1.0,1.0,-1.0,1.0,9.m4v,9.0
2024-02-28 11:59:43.994789,1709117983.9947886,-43.45703125,-24.90234375,-19.53125,-29.78515625,-1.0,1.0,-1.0,1.0,9.m4v,9.0
2024-02-28 11:59:44.397093,1709117984.397093,-47.36328125,-55.6640625,-10.7421875,-49.31640625,-1.0,1.0,-1.0,1.0,9.m4v,9.0
2024-02-28 11:59:44.400999,1709117984.4009986,-56.15234375,-59.08203125,-18.5546875,-38.57421875,-1.0,1.0,-1.0,1.0,9.m4v,9.0
2024-02-28 11:59:44.404904,1709117984.404904,-46.875,-40.0390625,-37.109375,-37.109375,-1.0,1.0,-1.0,1.0,9.m4v,9.0
2024-02-28 11:59:44.408809,1709117984.4088094,-39.0625,-35.64453125,-38.57421875,-49.8046875,-1.0,1.0,-1.0,1.0,9.m4v,9.0
2024-02-28 11:59:44.412715,1709117984.412715,-26.85546875,-23.92578125,-27.34375,-22.4609375,-1.0,1.0,-1.0,1.0,9.m4v,9.0
2024-02-28 11:59:44.416620,1709117984.4166205,-41.50390625,-30.2734375,-32.71484375,-0.48828125,-1.0,1.0,-1.0,1.0,9.m4v,9.0
2024-02-28 11:59:44.420526,1709117984.4205258,-57.6171875,-48.828125,-34.1796875,-14.6484375,-1.0,1.0,-1.0,1.0,9.m4v,9.0
2024-02-28 11:59:44.424431,1709117984.424431,-38.0859375,-50.78125,-27.83203125,-21.484375,-1.0,1.0,-1.0,1.0,9.m4v,9.0
2024-02-28 11:59:44.428337,1709117984.4283369,-27.83203125,-40.52734375,-29.296875,-24.90234375,-1.0,1.0,-1.0,1.0,9.m4v,9.0
2024-02-28 11:59:44.432242,1709117984.4322422,-48.33984375,-43.45703125,-45.41015625,-43.9453125,-1.0,1.0,-1.0,1.0,9.m4v,9.0
2024-02-28 11:59:44.436148,1709117984.4361477,-42.96875,-63.96484375,-56.640625,-36.1328125,-1.0,1.0,-1.0,1.0,9.m4v,9.0
2024-02-28 11:59:44.440057,1709117984.4400573,-42.48046875,-62.01171875,-56.640625,-20.01953125,-1.0,1.0,-1.0,1.0,9.m4v,9.0
2024-02-28 11:59:44.443963,1709117984.4439628,-54.6875,-58.10546875,-54.6875,-34.66796875,-1.0,1.0,-1.0,1.0,9.m4v,9.0
2024-02-28 11:59:44.447868,1709117984.4478683,-35.64453125,-56.640625,-28.3203125,-24.4140625,-1.0,1.0,-1.0,1.0,9.m4v,9.0
2024-02-28 11:59:44.451774,1709117984.4517736,-36.1328125,-71.2890625,-11.71875,-41.015625,-1.0,1.0,-1.0,1.0,9.m4v,9.0
2024-02-28 11:59:44.455679,1709117984.4556792,-42.48046875,-67.3828125,-21.484375,-34.1796875,-1.0,1.0,-1.0,1.0,9.m4v,9.0
2024-02-28 11:59:44.459585,1709117984.4595847,-23.4375,-46.875,-41.015625,-20.99609375,-1.0,1.0,-1.0,1.0,9.m4v,9.0
2024-02-28 11:59:44.463490,1709117984.4634902,-28.80859375,-36.1328125,-34.66796875,-22.4609375,-1.0,1.0,-1.0,1.0,9.m4v,9.0
2024-02-28 11:59:44.467396,1709117984.4673955,-35.15625,-18.06640625,-29.78515625,-25.390625,-1.0,1.0,-1.0,1.0,9.m4v,9.0
2024-02-28 11:59:44.471301,1709117984.471301,-49.8046875,-19.04296875,-41.50390625,-57.6171875,-1.0,1.0,-1.0,1.0,9.m4v,9.0
2024-02-28 11:59:44.475207,1709117984.4752066,-45.8984375,-33.203125,-37.109375,-34.1796875,-1.0,1.0,-1.0,1.0,9.m4v,9.0
2024-02-28 11:59:44.479112,1709117984.479112,-28.3203125,-38.0859375,-38.0859375,-6.8359375,-1.0,1.0,-1.0,1.0,9.m4v,9.0
2024-02-28 11:59:44.483017,1709117984.4830174,-24.4140625,-29.296875,-38.57421875,-6.8359375,-1.0,1.0,-1.0,1.0,9.m4v,9.0
2024-02-28 11:59:44.486927,1709117984.4869268,-7.8125,-28.3203125,-34.66796875,-0.48828125,-1.0,1.0,-1.0,1.0,9.m4v,9.0
2024-02-28 11:59:44.490832,1709117984.4908323,-23.4375,-36.1328125,-27.34375,-19.04296875,-1.0,1.0,-1.0,1.0,9.m4v,9.0
2024-02-28 11:59:44.494738,1709117984.494738,-29.296875,-30.76171875,-10.7421875,-39.0625,-1.0,1.0,-1.0,1.0,9.m4v,9.0
2024-02-28 11:59:44.498643,1709117984.4986432,-17.08984375,-25.390625,-16.6015625,-35.15625,-1.0,1.0,-1.0,1.0,9.m4v,9.0
2024-02-28 11:59:44.502549,1709117984.5025487,-11.23046875,-22.94921875,-21.97265625,-30.2734375,-1.0,1.0,-1.0,1.0,9.m4v,9.0
2024-02-28 11:59:44.506454,1709117984.5064542,-22.4609375,-16.6015625,-26.85546875,-18.5546875,-1.0,1.0,-1.0,1.0,9.m4v,9.0
2024-02-28 11:59:44.955632,1709117984.9556324,-8.30078125,-35.15625,-48.828125,-39.0625,-1.0,1.0,-1.0,1.0,9.m4v,9.0
2024-02-28 11:59:44.959538,1709117984.9595375,-9.765625,-20.99609375,-37.59765625,-21.97265625,-1.0,1.0,-1.0,1.0,9.m4v,9.0
2024-02-28 11:59:44.963443,1709117984.9634433,7.32421875,-6.8359375,-27.83203125,18.5546875,-1.0,1.0,-1.0,1.0,9.m4v,9.0
2024-02-28 11:59:44.967349,1709117984.9673488,7.8125,-20.5078125,-18.06640625,22.4609375,-1.0,1.0,-1.0,1.0,9.m4v,9.0
2024-02-28 11:59:44.971254,1709117984.971254,-19.53125,-33.203125,-12.20703125,-10.7421875,-1.0,1.0,-1.0,1.0,9.m4v,9.0
2024-02-28 11:59:44.975160,1709117984.9751596,-17.08984375,-23.4375,-9.765625,-17.08984375,-1.0,1.0,-1.0,1.0,9.m4v,9.0
2024-02-28 11:59:44.979065,1709117984.9790652,-12.6953125,-33.203125,-10.7421875,-3.41796875,-1.0,1.0,-1.0,1.0,9.m4v,9.0
2024-02-28 11:59:44.982970,1709117984.9829705,-3.41796875,-38.0859375,-11.23046875,7.8125,-1.0,1.0,-1.0,1.0,9.m4v,9.0
2024-02-28 11:59:44.986876,1709117984.986876,2.44140625,-17.578125,-19.53125,-3.41796875,-1.0,1.0,-1.0,1.0,9.m4v,9.0
2024-02-28 11:59:44.990782,1709117984.9907815,-3.41796875,-18.06640625,-36.1328125,11.23046875,-1.0,1.0,-1.0,1.0,9.m4v,9.0
2024-02-28 11:59:44.994687,1709117984.9946868,-12.20703125,-45.41015625,-63.96484375,5.37109375,-1.0,1.0,-1.0,1.0,9.m4v,9.0
2024-02-28 11:59:44.998592,1709117984.9985924,-28.80859375,-48.33984375,-67.87109375,-44.43359375,-1.0,1.0,-1.0,1.0,9.m4v,9.0
2024-02-28 11:59:45.002504,1709117985.0025036,-19.04296875,-35.15625,-45.41015625,-20.01953125,-1.0,1.0,-1.0,1.0,9.m4v,9.0
2024-02-28 11:59:45.006409,1709117985.006409,-13.671875,-40.52734375,-11.71875,-11.71875,-1.0,1.0,-1.0,1.0,9.m4v,9.0
2024-02-28 11:59:45.010314,1709117985.0103145,-37.59765625,-38.57421875,0.0,-43.45703125,-1.0,1.0,-1.0,1.0,9.m4v,9.0
2024-02-28 11:59:45.014220,1709117985.01422,-37.109375,-33.203125,-4.8828125,-39.55078125,-1.0,1.0,-1.0,1.0,9.m4v,9.0
2024-02-28 11:59:45.018125,1709117985.0181253,-12.6953125,-19.53125,-12.20703125,7.32421875,-1.0,1.0,-1.0,1.0,9.m4v,9.0
2024-02-28 11:59:45.022031,1709117985.0220308,-22.4609375,-15.13671875,-29.296875,12.20703125,-1.0,1.0,-1.0,1.0,9.m4v,9.0
2024-02-28 11:59:45.025936,1709117985.0259364,-25.390625,-36.1328125,-36.62109375,-38.0859375,-1.0,1.0,-1.0,1.0,9.m4v,9.0
2024-02-28 11:59:45.029842,1709117985.0298417,-12.20703125,-58.59375,-41.9921875,-44.921875,-1.0,1.0,-1.0,1.0,9.m4v,9.0
2024-02-28 11:59:45.033747,1709117985.0337472,-34.1796875,-57.6171875,-52.734375,-18.06640625,-1.0,1.0,-1.0,1.0,9.m4v,9.0
2024-02-28 11:59:45.037653,1709117985.0376527,-43.45703125,-43.9453125,-46.875,-20.99609375,-1.0,1.0,-1.0,1.0,9.m4v,9.0
2024-02-28 11:59:45.041558,1709117985.041558,-41.015625,-30.76171875,-24.90234375,-15.625,-1.0,1.0,-1.0,1.0,9.m4v,9.0
2024-02-28 11:59:45.045464,1709117985.0454636,-37.109375,-22.4609375,-3.90625,-20.99609375,-1.0,1.0,-1.0,1.0,9.m4v,9.0
2024-02-28 11:59:45.049374,1709117985.0493743,-44.43359375,-31.73828125,-3.90625,-32.71484375,-1.0,1.0,-1.0,1.0,9.m4v,9.0
2024-02-28 11:59:45.053280,1709117985.0532796,-5.37109375,-49.8046875,-16.11328125,-16.6015625,-1.0,1.0,-1.0,1.0,9.m4v,9.0
2024-02-28 11:59:45.057185,1709117985.0571852,-0.9765625,-51.26953125,-33.69140625,-20.99609375,-1.0,1.0,-1.0,1.0,9.m4v,9.0
2024-02-28 11:59:45.061091,1709117985.0610907,-40.0390625,-44.921875,-44.43359375,-40.52734375,-1.0,1.0,-1.0,1.0,9.m4v,9.0
2024-02-28 11:59:45.064996,1709117985.064996,-35.64453125,-29.296875,-41.015625,-33.69140625,-1.0,1.0,-1.0,1.0,9.m4v,9.0
2024-02-28 11:59:45.068902,1709117985.0689015,-27.34375,-14.16015625,-44.921875,-18.06640625,-1.0,1.0,-1.0,1.0,9.m4v,9.0
2024-02-28 11:59:45.072807,1709117985.072807,-31.25,-28.3203125,-40.0390625,-5.859375,-1.0,1.0,-1.0,1.0,9.m4v,9.0
2024-02-28 11:59:45.076712,1709117985.0767124,-45.8984375,-56.640625,-24.4140625,-39.0625,-1.0,1.0,-1.0,1.0,9.m4v,9.0
2024-02-28 11:59:45.080618,1709117985.080618,-55.17578125,-48.828125,-18.5546875,-56.15234375,-1.0,1.0,-1.0,1.0,9.m4v,9.0
2024-02-28 11:59:45.084523,1709117985.0845234,-46.38671875,-34.1796875,-22.94921875,-14.6484375,-1.0,1.0,-1.0,1.0,9.m4v,9.0
2024-02-28 11:59:45.088429,1709117985.088429,-34.66796875,-23.4375,-16.6015625,-7.32421875,-1.0,1.0,-1.0,1.0,9.m4v,9.0
2024-02-28 11:59:45.092334,1709117985.0923345,-44.43359375,-17.08984375,-24.90234375,-46.38671875,-1.0,1.0,-1.0,1.0,9.m4v,9.0
2024-02-28 11:59:45.096245,1709117985.0962448,-52.24609375,-36.62109375,-41.015625,-35.15625,-1.0,1.0,-1.0,1.0,9.m4v,9.0
2024-02-28 11:59:45.100150,1709117985.1001503,-53.22265625,-49.31640625,-36.62109375,-14.6484375,-1.0,1.0,-1.0,1.0,9.m4v,9.0
2024-02-28 11:59:45.104056,1709117985.1040556,-44.921875,-47.8515625,-30.76171875,-20.5078125,-1.0,1.0,-1.0,1.0,9.m4v,9.0
2024-02-28 11:59:45.107961,1709117985.1079612,-29.296875,-45.41015625,-46.875,-19.53125,-1.0,1.0,-1.0,1.0,9.m4v,9.0
2024-02-28 11:59:45.111867,1709117985.1118667,-31.25,-39.0625,-58.59375,-9.27734375,-1.0,1.0,-1.0,1.0,9.m4v,9.0
2024-02-28 11:59:45.115772,1709117985.115772,-26.85546875,-28.3203125,-30.2734375,-8.30078125,-1.0,1.0,-1.0,1.0,9.m4v,9.0
2024-02-28 11:59:45.119678,1709117985.1196775,-1.953125,-23.4375,0.9765625,-19.04296875,-1.0,1.0,-1.0,1.0,9.m4v,9.0
2024-02-28 11:59:45.119678,1709117985.1196775,-1.953125,-23.4375,0.9765625,-19.04296875,-1.0,1.0,-1.0,1.0,9.m4v,9.0
2024-02-28 11:59:45.123583,1709117985.123583,-11.71875,-28.80859375,0.9765625,-41.9921875,-1.0,1.0,-1.0,1.0,9.m4v,9.0
2024-02-28 11:59:45.123583,1709117985.123583,-11.71875,-28.80859375,0.9765625,-41.9921875,-1.0,1.0,-1.0,1.0,9.m4v,9.0
2024-02-28 11:59:45.127488,1709117985.1274884,-46.875,-26.85546875,-20.5078125,-53.22265625,-1.0,1.0,-1.0,1.0,9.m4v,9.0
2024-02-28 11:59:45.127488,1709117985.1274884,-46.875,-26.85546875,-20.5078125,-53.22265625,-1.0,1.0,-1.0,1.0,9.m4v,9.0
2024-02-28 11:59:45.131394,1709117985.131394,-62.98828125,-27.34375,-31.25,-40.52734375,-1.0,1.0,-1.0,1.0,9.m4v,9.0
2024-02-28 11:59:45.131394,1709117985.131394,-62.98828125,-27.34375,-31.25,-40.52734375,-1.0,1.0,-1.0,1.0,9.m4v,9.0
2024-02-28 11:59:45.135299,1709117985.1352994,-54.6875,-24.90234375,-30.76171875,-39.0625,-1.0,1.0,-1.0,1.0,9.m4v,9.0
2024-02-28 11:59:45.135299,1709117985.1352994,-54.6875,-24.90234375,-30.76171875,-39.0625,-1.0,1.0,-1.0,1.0,9.m4v,9.0
2024-02-28 11:59:45.139205,1709117985.139205,-48.33984375,-20.5078125,-46.875,-32.2265625,-1.0,1.0,-1.0,1.0,9.m4v,9.0
2024-02-28 11:59:45.139205,1709117985.139205,-48.33984375,-20.5078125,-46.875,-32.2265625,-1.0,1.0,-1.0,1.0,9.m4v,9.0
2024-02-28 11:59:45.143116,1709117985.1431155,-59.5703125,-38.57421875,-54.19921875,-47.8515625,-1.0,1.0,-1.0,1.0,9.m4v,9.0
2024-02-28 11:59:45.143116,1709117985.1431155,-59.5703125,-38.57421875,-54.19921875,-47.8515625,-1.0,1.0,-1.0,1.0,9.m4v,9.0
2024-02-28 11:59:45.147021,1709117985.147021,-60.05859375,-52.734375,-32.71484375,-59.5703125,-1.0,1.0,-1.0,1.0,9.m4v,9.0
2024-02-28 11:59:45.147021,1709117985.147021,-60.05859375,-52.734375,-32.71484375,-59.5703125,-1.0,1.0,-1.0,1.0,9.m4v,9.0
2024-02-28 11:59:45.150926,1709117985.1509264,-42.48046875,-30.76171875,-26.85546875,-27.34375,-1.0,1.0,-1.0,1.0,9.m4v,9.0
2024-02-28 11:59:45.150926,1709117985.1509264,-42.48046875,-30.76171875,-26.85546875,-27.34375,-1.0,1.0,-1.0,1.0,9.m4v,9.0
2024-02-28 11:59:45.154832,1709117985.154832,-23.4375,-4.8828125,-26.85546875,-35.64453125,-1.0,1.0,-1.0,1.0,9.m4v,9.0
2024-02-28 11:59:45.154832,1709117985.154832,-23.4375,-4.8828125,-26.85546875,-35.64453125,-1.0,1.0,-1.0,1.0,9.m4v,9.0
2024-02-28 11:59:45.158737,1709117985.1587374,-14.6484375,-19.53125,-33.203125,-29.296875,-1.0,1.0,-1.0,1.0,9.m4v,9.0
2024-02-28 11:59:45.158737,1709117985.1587374,-14.6484375,-19.53125,-33.203125,-29.296875,-1.0,1.0,-1.0,1.0,9.m4v,9.0
2024-02-28 11:59:45.162643,1709117985.1626427,-37.59765625,-40.0390625,-43.45703125,-22.94921875,-1.0,1.0,-1.0,1.0,9.m4v,9.0
2024-02-28 11:59:45.162643,1709117985.1626427,-37.59765625,-40.0390625,-43.45703125,-22.94921875,-1.0,1.0,-1.0,1.0,9.m4v,9.0
2024-02-28 11:59:45.166548,1709117985.1665485,-50.29296875,-35.64453125,-60.05859375,-38.0859375,-1.0,1.0,-1.0,1.0,9.m4v,9.0
2024-02-28 11:59:45.166548,1709117985.1665485,-50.29296875,-35.64453125,-60.05859375,-38.0859375,-1.0,1.0,-1.0,1.0,9.m4v,9.0
2024-02-28 11:59:45.170454,1709117985.1704538,-43.9453125,-41.9921875,-54.19921875,-28.3203125,-1.0,1.0,-1.0,1.0,9.m4v,9.0
2024-02-28 11:59:45.170454,1709117985.1704538,-43.9453125,-41.9921875,-54.19921875,-28.3203125,-1.0,1.0,-1.0,1.0,9.m4v,9.0
2024-02-28 11:59:45.174359,1709117985.174359,-45.8984375,-49.31640625,-16.6015625,-34.1796875,-1.0,1.0,-1.0,1.0,9.m4v,9.0
2024-02-28 11:59:45.174359,1709117985.174359,-45.8984375,-49.31640625,-16.6015625,-34.1796875,-1.0,1.0,-1.0,1.0,9.m4v,9.0
2024-02-28 11:59:45.178265,1709117985.1782646,-53.7109375,-49.8046875,-9.765625,-56.640625,-1.0,1.0,-1.0,1.0,9.m4v,9.0
2024-02-28 11:59:45.178265,1709117985.1782646,-53.7109375,-49.8046875,-9.765625,-56.640625,-1.0,1.0,-1.0,1.0,9.m4v,9.0
2024-02-28 11:59:45.182170,1709117985.1821702,-43.9453125,-42.96875,-14.6484375,-29.78515625,-1.0,1.0,-1.0,1.0,9.m4v,9.0
2024-02-28 11:59:45.182170,1709117985.1821702,-43.9453125,-42.96875,-14.6484375,-29.78515625,-1.0,1.0,-1.0,1.0,9.m4v,9.0
2024-02-28 11:59:45.186075,1709117985.1860754,-32.2265625,-45.41015625,-32.71484375,-14.16015625,-1.0,1.0,-1.0,1.0,9.m4v,9.0
2024-02-28 11:59:45.186075,1709117985.1860754,-32.2265625,-45.41015625,-32.71484375,-14.16015625,-1.0,1.0,-1.0,1.0,9.m4v,9.0
2024-02-28 11:59:45.193891,1709117985.1938906,-40.52734375,-40.52734375,-24.4140625,-36.1328125,-1.0,1.0,-1.0,1.0,9.m4v,9.0
2024-02-28 11:59:45.193891,1709117985.1938906,-40.52734375,-40.52734375,-24.4140625,-36.1328125,-1.0,1.0,-1.0,1.0,9.m4v,9.0
2024-02-28 11:59:45.201702,1709117985.2017016,-31.25,-10.25390625,-28.80859375,-0.48828125,-1.0,1.0,-1.0,1.0,9.m4v,9.0
2024-02-28 11:59:45.201702,1709117985.2017016,-31.25,-10.25390625,-28.80859375,-0.48828125,-1.0,1.0,-1.0,1.0,9.m4v,9.0
2024-02-28 11:59:45.209512,1709117985.2095125,-54.6875,-30.2734375,-45.8984375,-46.875,-1.0,1.0,-1.0,1.0,9.m4v,9.0
2024-02-28 11:59:45.209512,1709117985.2095125,-54.6875,-30.2734375,-45.8984375,-46.875,-1.0,1.0,-1.0,1.0,9.m4v,9.0
2024-02-28 11:59:45.217324,1709117985.2173235,-39.0625,-51.26953125,-46.875,-58.10546875,-1.0,1.0,-1.0,1.0,9.m4v,9.0
2024-02-28 11:59:45.217324,1709117985.2173235,-39.0625,-51.26953125,-46.875,-58.10546875,-1.0,1.0,-1.0,1.0,9.m4v,9.0
2024-02-28 11:59:45.225134,1709117985.2251344,-40.0390625,-29.296875,-51.26953125,-51.26953125,-1.0,1.0,-1.0,1.0,9.m4v,9.0
2024-02-28 11:59:45.225134,1709117985.2251344,-40.0390625,-29.296875,-51.26953125,-51.26953125,-1.0,1.0,-1.0,1.0,9.m4v,9.0
2024-02-28 11:59:45.232945,1709117985.2329452,-23.4375,-36.62109375,-35.64453125,-21.484375,-1.0,1.0,-1.0,1.0,9.m4v,9.0
2024-02-28 11:59:45.232945,1709117985.2329452,-23.4375,-36.62109375,-35.64453125,-21.484375,-1.0,1.0,-1.0,1.0,9.m4v,9.0
2024-02-28 11:59:45.240760,1709117985.2407598,-35.64453125,-33.69140625,-18.5546875,-32.2265625,-1.0,1.0,-1.0,1.0,9.m4v,9.0
2024-02-28 11:59:45.240760,1709117985.2407598,-35.64453125,-33.69140625,-18.5546875,-32.2265625,-1.0,1.0,-1.0,1.0,9.m4v,9.0
2024-02-28 11:59:45.248571,1709117985.248571,-24.4140625,-24.4140625,-20.99609375,-10.25390625,-1.0,1.0,-1.0,1.0,9.m4v,9.0
2024-02-28 11:59:45.248571,1709117985.248571,-24.4140625,-24.4140625,-20.99609375,-10.25390625,-1.0,1.0,-1.0,1.0,9.m4v,9.0
2024-02-28 11:59:45.256382,1709117985.2563815,-11.71875,-19.53125,-38.57421875,-49.31640625,-1.0,1.0,-1.0,1.0,9.m4v,9.0
2024-02-28 11:59:45.256382,1709117985.2563815,-11.71875,-19.53125,-38.57421875,-49.31640625,-1.0,1.0,-1.0,1.0,9.m4v,9.0
2024-02-28 11:59:45.264193,1709117985.2641926,-35.15625,-61.03515625,-44.921875,-13.18359375,-1.0,1.0,-1.0,1.0,9.m4v,9.0
2024-02-28 11:59:45.264193,1709117985.2641926,-35.15625,-61.03515625,-44.921875,-13.18359375,-1.0,1.0,-1.0,1.0,9.m4v,9.0
2024-02-28 11:59:45.272003,1709117985.2720034,-43.9453125,-54.19921875,-54.6875,-51.7578125,-1.0,1.0,-1.0,1.0,9.m4v,9.0
2024-02-28 11:59:45.272003,1709117985.2720034,-43.9453125,-54.19921875,-54.6875,-51.7578125,-1.0,1.0,-1.0,1.0,9.m4v,9.0
2024-02-28 11:59:45.279814,1709117985.2798142,-31.73828125,-31.25,-31.73828125,-36.1328125,-1.0,1.0,-1.0,1.0,9.m4v,9.0
2024-02-28 11:59:45.279814,1709117985.2798142,-31.73828125,-31.25,-31.73828125,-36.1328125,-1.0,1.0,-1.0,1.0,9.m4v,9.0
2024-02-28 11:59:45.287629,1709117985.287629,-36.1328125,-24.4140625,-44.43359375,-58.59375,-1.0,1.0,-1.0,1.0,9.m4v,9.0
2024-02-28 11:59:45.287629,1709117985.287629,-36.1328125,-24.4140625,-44.43359375,-58.59375,-1.0,1.0,-1.0,1.0,9.m4v,9.0
2024-02-28 11:59:45.295440,1709117985.2954395,-25.390625,-31.25,-39.0625,-25.390625,-1.0,1.0,-1.0,1.0,9.m4v,9.0
2024-02-28 11:59:45.295440,1709117985.2954395,-25.390625,-31.25,-39.0625,-25.390625,-1.0,1.0,-1.0,1.0,9.m4v,9.0
2024-02-28 11:59:45.303251,1709117985.3032508,-18.06640625,-13.18359375,-18.06640625,-20.99609375,-1.0,1.0,-1.0,1.0,9.m4v,9.0
2024-02-28 11:59:45.303251,1709117985.3032508,-18.06640625,-13.18359375,-18.06640625,-20.99609375,-1.0,1.0,-1.0,1.0,9.m4v,9.0
2024-02-28 11:59:45.311062,1709117985.3110616,-21.484375,-31.73828125,-40.0390625,-22.4609375,-1.0,1.0,-1.0,1.0,9.m4v,9.0
2024-02-28 11:59:45.311062,1709117985.3110616,-21.484375,-31.73828125,-40.0390625,-22.4609375,-1.0,1.0,-1.0,1.0,9.m4v,9.0
2024-02-28 11:59:45.318872,1709117985.3188725,-5.859375,-43.9453125,-34.66796875,-55.6640625,-1.0,1.0,-1.0,1.0,9.m4v,9.0
2024-02-28 11:59:45.318872,1709117985.3188725,-5.859375,-43.9453125,-34.66796875,-55.6640625,-1.0,1.0,-1.0,1.0,9.m4v,9.0
2024-02-28 11:59:45.326684,1709117985.3266835,-21.97265625,-40.52734375,-62.01171875,-34.1796875,-1.0,1.0,-1.0,1.0,9.m4v,9.0
2024-02-28 11:59:45.326684,1709117985.3266835,-21.97265625,-40.52734375,-62.01171875,-34.1796875,-1.0,1.0,-1.0,1.0,9.m4v,9.0
2024-02-28 11:59:45.334498,1709117985.3344977,-17.08984375,-53.7109375,-33.203125,-8.7890625,-1.0,1.0,-1.0,1.0,9.m4v,9.0
2024-02-28 11:59:45.334498,1709117985.3344977,-17.08984375,-53.7109375,-33.203125,-8.7890625,-1.0,1.0,-1.0,1.0,9.m4v,9.0
2024-02-28 11:59:45.342309,1709117985.3423088,-31.25,-15.625,-29.296875,-32.2265625,-1.0,1.0,-1.0,1.0,9.m4v,9.0
2024-02-28 11:59:45.342309,1709117985.3423088,-31.25,-15.625,-29.296875,-32.2265625,-1.0,1.0,-1.0,1.0,9.m4v,9.0
2024-02-28 11:59:45.350120,1709117985.3501196,-35.15625,-23.92578125,-73.2421875,-54.6875,-1.0,1.0,-1.0,1.0,9.m4v,9.0
2024-02-28 11:59:45.350120,1709117985.3501196,-35.15625,-23.92578125,-73.2421875,-54.6875,-1.0,1.0,-1.0,1.0,9.m4v,9.0
2024-02-28 11:59:45.357930,1709117985.3579304,-5.859375,-14.6484375,-30.2734375,-20.01953125,-1.0,1.0,-1.0,1.0,9.m4v,9.0
2024-02-28 11:59:45.357930,1709117985.3579304,-5.859375,-14.6484375,-30.2734375,-20.01953125,-1.0,1.0,-1.0,1.0,9.m4v,9.0
2024-02-28 11:59:45.365741,1709117985.3657415,-48.828125,-30.2734375,-7.32421875,-37.109375,-1.0,1.0,-1.0,1.0,9.m4v,9.0
2024-02-28 11:59:45.365741,1709117985.3657415,-48.828125,-30.2734375,-7.32421875,-37.109375,-1.0,1.0,-1.0,1.0,9.m4v,9.0
2024-02-28 11:59:45.373552,1709117985.3735523,-34.1796875,-39.55078125,-17.08984375,-30.2734375,-1.0,1.0,-1.0,1.0,9.m4v,9.0
2024-02-28 11:59:45.373552,1709117985.3735523,-34.1796875,-39.55078125,-17.08984375,-30.2734375,-1.0,1.0,-1.0,1.0,9.m4v,9.0
2024-02-28 11:59:45.381369,1709117985.3813694,-39.55078125,-27.34375,-62.5,-92.7734375,-1.0,1.0,-1.0,1.0,9.m4v,9.0
2024-02-28 11:59:45.381369,1709117985.3813694,-39.55078125,-27.34375,-62.5,-92.7734375,-1.0,1.0,-1.0,1.0,9.m4v,9.0
2024-02-28 11:59:45.389180,1709117985.3891804,-31.73828125,-41.50390625,-22.4609375,-10.25390625,-1.0,1.0,-1.0,1.0,9.m4v,9.0
2024-02-28 11:59:45.389180,1709117985.3891804,-31.73828125,-41.50390625,-22.4609375,-10.25390625,-1.0,1.0,-1.0,1.0,9.m4v,9.0
2024-02-28 11:59:45.396991,1709117985.3969913,-25.87890625,-50.78125,-48.828125,-22.94921875,-1.0,1.0,-1.0,1.0,9.m4v,9.0
2024-02-28 11:59:45.396991,1709117985.3969913,-25.87890625,-50.78125,-48.828125,-22.94921875,-1.0,1.0,-1.0,1.0,9.m4v,9.0
2024-02-28 11:59:45.404802,1709117985.404802,-27.83203125,-15.13671875,-16.6015625,-45.41015625,-1.0,1.0,-1.0,1.0,9.m4v,9.0
2024-02-28 11:59:45.404802,1709117985.404802,-27.83203125,-15.13671875,-16.6015625,-45.41015625,-1.0,1.0,-1.0,1.0,9.m4v,9.0
2024-02-28 11:59:45.412613,1709117985.4126132,-49.31640625,-31.73828125,-40.52734375,-30.76171875,-1.0,1.0,-1.0,1.0,9.m4v,9.0
2024-02-28 11:59:45.412613,1709117985.4126132,-49.31640625,-31.73828125,-40.52734375,-30.76171875,-1.0,1.0,-1.0,1.0,9.m4v,9.0
2024-02-28 11:59:45.420424,1709117985.420424,-38.0859375,-25.390625,-29.78515625,-48.33984375,-1.0,1.0,-1.0,1.0,9.m4v,9.0
2024-02-28 11:59:45.420424,1709117985.420424,-38.0859375,-25.390625,-29.78515625,-48.33984375,-1.0,1.0,-1.0,1.0,9.m4v,9.0
2024-02-28 11:59:45.428240,1709117985.4282403,-48.33984375,-24.4140625,-17.578125,-59.5703125,-1.0,1.0,-1.0,1.0,9.m4v,9.0
2024-02-28 11:59:45.428240,1709117985.4282403,-48.33984375,-24.4140625,-17.578125,-59.5703125,-1.0,1.0,-1.0,1.0,9.m4v,9.0
2024-02-28 11:59:45.436051,1709117985.4360511,-31.73828125,-61.03515625,-55.17578125,-23.4375,-1.0,1.0,-1.0,1.0,9.m4v,9.0
2024-02-28 11:59:45.436051,1709117985.4360511,-31.73828125,-61.03515625,-55.17578125,-23.4375,-1.0,1.0,-1.0,1.0,9.m4v,9.0
2024-02-28 11:59:45.443862,1709117985.4438622,-32.2265625,-23.4375,-41.015625,-33.69140625,-1.0,1.0,-1.0,1.0,9.m4v,9.0
2024-02-28 11:59:45.443862,1709117985.4438622,-32.2265625,-23.4375,-41.015625,-33.69140625,-1.0,1.0,-1.0,1.0,9.m4v,9.0
2024-02-28 11:59:45.451673,1709117985.451673,-33.203125,-32.2265625,-18.5546875,-16.11328125,-1.0,1.0,-1.0,1.0,9.m4v,9.0
2024-02-28 11:59:45.451673,1709117985.451673,-33.203125,-32.2265625,-18.5546875,-16.11328125,-1.0,1.0,-1.0,1.0,9.m4v,9.0
2024-02-28 11:59:45.459484,1709117985.459484,-23.92578125,-41.015625,-22.4609375,-37.59765625,-1.0,1.0,-1.0,1.0,9.m4v,9.0
2024-02-28 11:59:45.459484,1709117985.459484,-23.92578125,-41.015625,-22.4609375,-37.59765625,-1.0,1.0,-1.0,1.0,9.m4v,9.0
2024-02-28 11:59:45.467295,1709117985.467295,-46.38671875,-33.69140625,-55.17578125,-48.33984375,-1.0,1.0,-1.0,1.0,9.m4v,9.0
2024-02-28 11:59:45.467295,1709117985.467295,-46.38671875,-33.69140625,-55.17578125,-48.33984375,-1.0,1.0,-1.0,1.0,9.m4v,9.0
2024-02-28 11:59:45.475111,1709117985.4751108,-39.0625,-17.578125,-17.08984375,-34.1796875,-1.0,1.0,-1.0,1.0,9.m4v,9.0
2024-02-28 11:59:45.475111,1709117985.4751108,-39.0625,-17.578125,-17.08984375,-34.1796875,-1.0,1.0,-1.0,1.0,9.m4v,9.0
2024-02-28 11:59:45.482922,1709117985.4829216,-26.3671875,-23.92578125,-27.83203125,-18.06640625,-1.0,1.0,-1.0,1.0,9.m4v,9.0
2024-02-28 11:59:45.482922,1709117985.4829216,-26.3671875,-23.92578125,-27.83203125,-18.06640625,-1.0,1.0,-1.0,1.0,9.m4v,9.0
2024-02-28 11:59:45.490733,1709117985.490733,-39.0625,-36.62109375,-36.62109375,-57.6171875,-1.0,1.0,-1.0,1.0,9.m4v,9.0
2024-02-28 11:59:45.490733,1709117985.490733,-39.0625,-36.62109375,-36.62109375,-57.6171875,-1.0,1.0,-1.0,1.0,9.m4v,9.0
2024-02-28 11:59:45.498544,1709117985.4985435,-48.33984375,-29.78515625,-73.2421875,-10.7421875,-1.0,1.0,-1.0,1.0,9.m4v,9.0
2024-02-28 11:59:45.498544,1709117985.4985435,-48.33984375,-29.78515625,-73.2421875,-10.7421875,-1.0,1.0,-1.0,1.0,9.m4v,9.0
2024-02-28 11:59:45.506354,1709117985.5063543,-57.12890625,-39.55078125,-23.92578125,-46.38671875,-1.0,1.0,-1.0,1.0,9.m4v,9.0
2024-02-28 11:59:45.506354,1709117985.5063543,-57.12890625,-39.55078125,-23.92578125,-46.38671875,-1.0,1.0,-1.0,1.0,9.m4v,9.0
2024-02-28 11:59:45.514165,1709117985.5141654,-41.015625,-39.0625,-13.18359375,-33.69140625,-1.0,1.0,-1.0,1.0,9.m4v,9.0
2024-02-28 11:59:45.514165,1709117985.5141654,-41.015625,-39.0625,-13.18359375,-33.69140625,-1.0,1.0,-1.0,1.0,9.m4v,9.0
2024-02-28 11:59:45.521981,1709117985.5219812,-30.76171875,-54.19921875,-54.19921875,-34.1796875,-1.0,1.0,-1.0,1.0,9.m4v,9.0
2024-02-28 11:59:45.521981,1709117985.5219812,-30.76171875,-54.19921875,-54.19921875,-34.1796875,-1.0,1.0,-1.0,1.0,9.m4v,9.0
2024-02-28 11:59:45.529792,1709117985.529792,-28.80859375,-30.76171875,-47.8515625,-25.87890625,-1.0,1.0,-1.0,1.0,9.m4v,9.0
2024-02-28 11:59:45.529792,1709117985.529792,-28.80859375,-30.76171875,-47.8515625,-25.87890625,-1.0,1.0,-1.0,1.0,9.m4v,9.0
2024-02-28 11:59:45.537603,1709117985.537603,-52.24609375,-16.6015625,-27.34375,-48.828125,-1.0,1.0,-1.0,1.0,9.m4v,9.0
2024-02-28 11:59:45.537603,1709117985.537603,-52.24609375,-16.6015625,-27.34375,-48.828125,-1.0,1.0,-1.0,1.0,9.m4v,9.0
2024-02-28 11:59:45.545414,1709117985.545414,-62.01171875,-32.71484375,-26.3671875,-39.55078125,-1.0,1.0,-1.0,1.0,9.m4v,9.0
2024-02-28 11:59:45.553225,1709117985.5532248,-27.34375,-52.24609375,-24.90234375,-39.0625,-1.0,1.0,-1.0,1.0,9.m4v,9.0
2024-02-28 11:59:45.561036,1709117985.5610356,-43.9453125,-25.87890625,-56.15234375,-40.0390625,-1.0,1.0,-1.0,1.0,9.m4v,9.0
2024-02-28 11:59:45.568851,1709117985.5688517,-21.484375,-21.97265625,-20.99609375,-21.484375,-1.0,1.0,-1.0,1.0,9.m4v,9.0
2024-02-28 11:59:45.986779,1709117985.986779,-0.48828125,-15.625,-49.31640625,-24.90234375,-1.0,1.0,-1.0,1.0,9.m4v,9.0
2024-02-28 11:59:45.990685,1709117985.9906845,-24.4140625,-27.34375,-25.87890625,-38.0859375,-1.0,1.0,-1.0,1.0,9.m4v,9.0
2024-02-28 11:59:45.994590,1709117985.9945898,-36.1328125,-70.3125,-39.55078125,-44.921875,-1.0,1.0,-1.0,1.0,9.m4v,9.0
2024-02-28 11:59:45.998495,1709117985.998495,0.0,-69.82421875,-51.26953125,-15.625,-1.0,1.0,-1.0,1.0,9.m4v,9.0
2024-02-28 11:59:46.002401,1709117986.0024009,-7.8125,-24.90234375,-48.33984375,-10.25390625,-1.0,1.0,-1.0,1.0,9.m4v,9.0
2024-02-28 11:59:46.006306,1709117986.0063062,-39.55078125,-6.34765625,-36.62109375,-40.52734375,-1.0,1.0,-1.0,1.0,9.m4v,9.0
2024-02-28 11:59:46.010212,1709117986.0102117,-36.1328125,-0.9765625,-20.5078125,-42.96875,-1.0,1.0,-1.0,1.0,9.m4v,9.0
2024-02-28 11:59:46.014117,1709117986.0141172,-33.203125,-7.32421875,-24.90234375,-35.15625,-1.0,1.0,-1.0,1.0,9.m4v,9.0
