Timestamp,Timestamp_UNIX,TP9,AF7,AF8,TP10,Valence,Arousal,Dominace,Viewed,Video,Participant
2024-02-27 16:07:51.235285,1709046471.2352853,-23.92578125,-28.80859375,-42.96875,-35.15625,-1.0,1.0,0.0,1.0,8.m4v,6.0
2024-02-27 16:07:51.239191,1709046471.2391908,-50.29296875,-34.1796875,-31.25,-31.73828125,-1.0,1.0,0.0,1.0,8.m4v,6.0
2024-02-27 16:07:51.243096,1709046471.2430964,-65.4296875,-40.0390625,-25.390625,-22.94921875,-1.0,1.0,0.0,1.0,8.m4v,6.0
2024-02-27 16:07:51.247002,1709046471.247002,-39.0625,-43.45703125,-26.3671875,-25.87890625,-1.0,1.0,0.0,1.0,8.m4v,6.0
2024-02-27 16:07:51.250907,1709046471.2509072,-17.578125,-30.76171875,-20.99609375,-25.390625,-1.0,1.0,0.0,1.0,8.m4v,6.0
2024-02-27 16:07:51.254818,1709046471.2548182,-31.25,-27.83203125,-19.04296875,-25.390625,-1.0,1.0,0.0,1.0,8.m4v,6.0
2024-02-27 16:07:51.258724,1709046471.2587235,-55.17578125,-44.43359375,-26.85546875,-30.2734375,-1.0,1.0,0.0,1.0,8.m4v,6.0
2024-02-27 16:07:51.262629,1709046471.262629,-69.3359375,-42.96875,-33.69140625,-22.94921875,-1.0,1.0,0.0,1.0,8.m4v,6.0
2024-02-27 16:07:51.266535,1709046471.2665346,-48.33984375,-37.109375,-30.2734375,-14.16015625,-1.0,1.0,0.0,1.0,8.m4v,6.0
2024-02-27 16:07:51.270440,1709046471.27044,-26.3671875,-45.41015625,-29.296875,-12.20703125,-1.0,1.0,0.0,1.0,8.m4v,6.0
2024-02-27 16:07:51.274346,1709046471.2743456,-20.01953125,-55.17578125,-30.2734375,-22.94921875,-1.0,1.0,0.0,1.0,8.m4v,6.0
2024-02-27 16:07:51.278251,1709046471.278251,-38.0859375,-48.33984375,-31.25,-25.390625,-1.0,1.0,0.0,1.0,8.m4v,6.0
2024-02-27 16:07:51.282156,1709046471.2821565,-54.19921875,-36.1328125,-26.85546875,-15.13671875,-1.0,1.0,0.0,1.0,8.m4v,6.0
2024-02-27 16:07:51.286062,1709046471.286062,-41.015625,-39.0625,-23.92578125,-19.53125,-1.0,1.0,0.0,1.0,8.m4v,6.0
2024-02-27 16:07:51.289968,1709046471.2899675,-27.34375,-33.69140625,-29.78515625,-24.4140625,-1.0,1.0,0.0,1.0,8.m4v,6.0
2024-02-27 16:07:51.293873,1709046471.2938728,-20.99609375,-29.78515625,-30.2734375,-22.4609375,-1.0,1.0,0.0,1.0,8.m4v,6.0
2024-02-27 16:07:51.297778,1709046471.2977784,-46.38671875,-35.15625,-21.97265625,-30.2734375,-1.0,1.0,0.0,1.0,8.m4v,6.0
2024-02-27 16:07:51.301692,1709046471.3016915,-65.4296875,-32.71484375,-19.04296875,-30.76171875,-1.0,1.0,0.0,1.0,8.m4v,6.0
2024-02-27 16:07:51.305597,1709046471.305597,-38.0859375,-29.296875,-23.92578125,-18.5546875,-1.0,1.0,0.0,1.0,8.m4v,6.0
2024-02-27 16:07:51.309503,1709046471.3095026,-22.94921875,-29.296875,-35.15625,-19.04296875,-1.0,1.0,0.0,1.0,8.m4v,6.0
2024-02-27 16:07:51.313408,1709046471.313408,-39.55078125,-41.015625,-43.45703125,-41.015625,-1.0,1.0,0.0,1.0,8.m4v,6.0
2024-02-27 16:07:51.317314,1709046471.3173137,-62.98828125,-38.57421875,-38.0859375,-49.8046875,-1.0,1.0,0.0,1.0,8.m4v,6.0
2024-02-27 16:07:51.321219,1709046471.321219,-56.640625,-28.3203125,-30.76171875,-21.97265625,-1.0,1.0,0.0,1.0,8.m4v,6.0
2024-02-27 16:07:51.325125,1709046471.3251245,-30.76171875,-28.3203125,-28.3203125,-15.13671875,-1.0,1.0,0.0,1.0,8.m4v,6.0
2024-02-27 16:07:51.329030,1709046471.32903,-18.5546875,-38.57421875,-29.296875,-33.69140625,-1.0,1.0,0.0,1.0,8.m4v,6.0
2024-02-27 16:07:51.332936,1709046471.3329356,-14.16015625,-44.921875,-31.25,-39.55078125,-1.0,1.0,0.0,1.0,8.m4v,6.0
2024-02-27 16:07:51.336841,1709046471.3368409,-25.87890625,-45.41015625,-29.78515625,-35.64453125,-1.0,1.0,0.0,1.0,8.m4v,6.0
2024-02-27 16:07:51.340746,1709046471.3407464,-60.05859375,-55.6640625,-26.85546875,-32.71484375,-1.0,1.0,0.0,1.0,8.m4v,6.0
2024-02-27 16:07:51.344652,1709046471.344652,-54.6875,-45.8984375,-27.83203125,-35.64453125,-1.0,1.0,0.0,1.0,8.m4v,6.0
2024-02-27 16:07:51.348565,1709046471.348565,-16.6015625,-23.4375,-27.83203125,-38.57421875,-1.0,1.0,0.0,1.0,8.m4v,6.0
2024-02-27 16:07:51.352471,1709046471.3524706,-8.30078125,-17.578125,-24.90234375,-33.203125,-1.0,1.0,0.0,1.0,8.m4v,6.0
2024-02-27 16:07:51.356376,1709046471.356376,-20.99609375,-19.53125,-27.83203125,-32.2265625,-1.0,1.0,0.0,1.0,8.m4v,6.0
2024-02-27 16:07:51.360281,1709046471.3602817,-61.5234375,-31.25,-26.85546875,-31.25,-1.0,1.0,0.0,1.0,8.m4v,6.0
2024-02-27 16:07:51.364187,1709046471.364187,-70.3125,-31.73828125,-22.4609375,-22.4609375,-1.0,1.0,0.0,1.0,8.m4v,6.0
2024-02-27 16:07:51.368093,1709046471.3680923,-27.34375,-22.94921875,-36.1328125,-24.90234375,-1.0,1.0,0.0,1.0,8.m4v,6.0
2024-02-27 16:07:51.371998,1709046471.3719978,-19.53125,-26.85546875,-45.8984375,-39.0625,-1.0,1.0,0.0,1.0,8.m4v,6.0
2024-02-27 16:07:51.375903,1709046471.3759034,-41.9921875,-27.34375,-36.62109375,-45.41015625,-1.0,1.0,0.0,1.0,8.m4v,6.0
2024-02-27 16:07:51.379809,1709046471.379809,-60.546875,-30.2734375,-35.15625,-42.48046875,-1.0,1.0,0.0,1.0,8.m4v,6.0
2024-02-27 16:07:51.383714,1709046471.3837144,-69.82421875,-42.96875,-42.48046875,-34.66796875,-1.0,1.0,0.0,1.0,8.m4v,6.0
2024-02-27 16:07:51.387620,1709046471.3876195,-50.78125,-44.921875,-35.64453125,-27.83203125,-1.0,1.0,0.0,1.0,8.m4v,6.0
2024-02-27 16:07:51.391525,1709046471.3915253,-23.92578125,-48.33984375,-30.2734375,-37.59765625,-1.0,1.0,0.0,1.0,8.m4v,6.0
2024-02-27 16:07:51.395438,1709046471.395438,-33.203125,-47.8515625,-25.87890625,-49.8046875,-1.0,1.0,0.0,1.0,8.m4v,6.0
2024-02-27 16:07:51.399343,1709046471.3993435,-60.546875,-31.73828125,-27.83203125,-40.52734375,-1.0,1.0,0.0,1.0,8.m4v,6.0
2024-02-27 16:07:51.403249,1709046471.403249,-62.5,-19.04296875,-32.2265625,-33.203125,-1.0,1.0,0.0,1.0,8.m4v,6.0
2024-02-27 16:07:51.407155,1709046471.4071546,-29.296875,-22.4609375,-20.5078125,-26.85546875,-1.0,1.0,0.0,1.0,8.m4v,6.0
2024-02-27 16:07:51.411060,1709046471.41106,-16.11328125,-41.9921875,-22.4609375,-32.71484375,-1.0,1.0,0.0,1.0,8.m4v,6.0
2024-02-27 16:07:51.414965,1709046471.4149654,-13.671875,-28.80859375,-30.2734375,-32.71484375,-1.0,1.0,0.0,1.0,8.m4v,6.0
2024-02-27 16:07:51.418871,1709046471.418871,-39.0625,-9.765625,-24.4140625,-28.80859375,-1.0,1.0,0.0,1.0,8.m4v,6.0
2024-02-27 16:07:51.422776,1709046471.4227765,-79.1015625,-22.94921875,-26.3671875,-40.52734375,-1.0,1.0,0.0,1.0,8.m4v,6.0
2024-02-27 16:07:51.426682,1709046471.426682,-56.640625,-37.59765625,-28.3203125,-41.9921875,-1.0,1.0,0.0,1.0,8.m4v,6.0
2024-02-27 16:07:51.430587,1709046471.4305873,-20.5078125,-33.69140625,-26.85546875,-35.15625,-1.0,1.0,0.0,1.0,8.m4v,6.0
2024-02-27 16:07:51.434493,1709046471.4344928,-18.06640625,-29.78515625,-30.76171875,-37.59765625,-1.0,1.0,0.0,1.0,8.m4v,6.0
2024-02-27 16:07:51.438398,1709046471.4383984,-40.0390625,-41.015625,-37.109375,-42.48046875,-1.0,1.0,0.0,1.0,8.m4v,6.0
2024-02-27 16:07:51.442311,1709046471.4423108,-67.3828125,-41.50390625,-44.43359375,-40.52734375,-1.0,1.0,0.0,1.0,8.m4v,6.0
2024-02-27 16:07:51.446216,1709046471.446216,-50.78125,-35.15625,-38.57421875,-38.57421875,-1.0,1.0,0.0,1.0,8.m4v,6.0
2024-02-27 16:07:51.450122,1709046471.4501216,-13.671875,-31.25,-19.53125,-42.96875,-1.0,1.0,0.0,1.0,8.m4v,6.0
2024-02-27 16:07:51.454027,1709046471.4540272,-19.53125,-24.4140625,-20.5078125,-50.29296875,-1.0,1.0,0.0,1.0,8.m4v,6.0
2024-02-27 16:07:51.457933,1709046471.4579327,-62.01171875,-22.4609375,-31.25,-59.5703125,-1.0,1.0,0.0,1.0,8.m4v,6.0
2024-02-27 16:07:51.461838,1709046471.461838,-80.56640625,-33.203125,-32.71484375,-52.24609375,-1.0,1.0,0.0,1.0,8.m4v,6.0
2024-02-27 16:07:51.465744,1709046471.4657435,-44.921875,-27.34375,-28.3203125,-32.2265625,-1.0,1.0,0.0,1.0,8.m4v,6.0
2024-02-27 16:07:51.469649,1709046471.469649,-17.578125,-20.01953125,-34.1796875,-30.2734375,-1.0,1.0,0.0,1.0,8.m4v,6.0
2024-02-27 16:07:51.473555,1709046471.4735546,-32.71484375,-26.85546875,-38.57421875,-37.59765625,-1.0,1.0,0.0,1.0,8.m4v,6.0
2024-02-27 16:07:51.477460,1709046471.47746,-64.453125,-32.2265625,-34.66796875,-36.62109375,-1.0,1.0,0.0,1.0,8.m4v,6.0
2024-02-27 16:07:51.481365,1709046471.4813654,-75.1953125,-34.66796875,-29.78515625,-29.78515625,-1.0,1.0,0.0,1.0,8.m4v,6.0
2024-02-27 16:07:51.485271,1709046471.485271,-58.10546875,-28.3203125,-25.390625,-30.76171875,-1.0,1.0,0.0,1.0,8.m4v,6.0
2024-02-27 16:07:51.489183,1709046471.4891832,-36.1328125,-31.25,-31.25,-37.109375,-1.0,1.0,0.0,1.0,8.m4v,6.0
2024-02-27 16:07:51.493088,1709046471.4930885,-27.83203125,-35.15625,-28.80859375,-36.62109375,-1.0,1.0,0.0,1.0,8.m4v,6.0
2024-02-27 16:07:51.496994,1709046471.496994,-37.59765625,-26.85546875,-32.2265625,-38.57421875,-1.0,1.0,0.0,1.0,8.m4v,6.0
2024-02-27 16:07:51.500900,1709046471.5008996,-57.12890625,-16.11328125,-36.62109375,-35.15625,-1.0,1.0,0.0,1.0,8.m4v,6.0
2024-02-27 16:07:51.504805,1709046471.504805,-49.8046875,-15.625,-30.2734375,-31.25,-1.0,1.0,0.0,1.0,8.m4v,6.0
2024-02-27 16:07:51.508711,1709046471.5087106,-18.06640625,-23.4375,-31.25,-28.3203125,-1.0,1.0,0.0,1.0,8.m4v,6.0
2024-02-27 16:07:51.512616,1709046471.512616,-16.11328125,-32.71484375,-30.2734375,-41.015625,-1.0,1.0,0.0,1.0,8.m4v,6.0
2024-02-27 16:07:51.516521,1709046471.5165217,-50.78125,-30.76171875,-28.80859375,-49.8046875,-1.0,1.0,0.0,1.0,8.m4v,6.0
2024-02-27 16:07:51.520427,1709046471.520427,-86.42578125,-22.4609375,-35.15625,-40.52734375,-1.0,1.0,0.0,1.0,8.m4v,6.0
2024-02-27 16:07:51.524333,1709046471.5243323,-67.87109375,-33.203125,-34.1796875,-43.9453125,-1.0,1.0,0.0,1.0,8.m4v,6.0
2024-02-27 16:07:51.528238,1709046471.5282378,-22.94921875,-41.015625,-30.76171875,-31.73828125,-1.0,1.0,0.0,1.0,8.m4v,6.0
2024-02-27 16:07:51.532143,1709046471.5321434,-15.625,-40.52734375,-35.64453125,-29.296875,-1.0,1.0,0.0,1.0,8.m4v,6.0
2024-02-27 16:07:51.536055,1709046471.536055,-31.25,-28.3203125,-33.69140625,-41.9921875,-1.0,1.0,0.0,1.0,8.m4v,6.0
2024-02-27 16:07:51.539961,1709046471.5399606,-48.33984375,-12.20703125,-24.4140625,-41.015625,-1.0,1.0,0.0,1.0,8.m4v,6.0
2024-02-27 16:07:51.543866,1709046471.5438662,-59.08203125,-32.2265625,-26.3671875,-43.9453125,-1.0,1.0,0.0,1.0,8.m4v,6.0
2024-02-27 16:07:51.547771,1709046471.5477717,-29.78515625,-36.62109375,-26.85546875,-35.64453125,-1.0,1.0,0.0,1.0,8.m4v,6.0
2024-02-27 16:07:51.551677,1709046471.551677,-1.953125,-17.08984375,-27.34375,-32.71484375,-1.0,1.0,0.0,1.0,8.m4v,6.0
2024-02-27 16:07:51.555583,1709046471.5555823,-15.13671875,-24.4140625,-45.41015625,-46.875,-1.0,1.0,0.0,1.0,8.m4v,6.0
2024-02-27 16:07:51.559488,1709046471.559488,-41.50390625,-42.48046875,-52.24609375,-43.45703125,-1.0,1.0,0.0,1.0,8.m4v,6.0
2024-02-27 16:07:51.563394,1709046471.5633936,-62.01171875,-42.48046875,-35.15625,-38.0859375,-1.0,1.0,0.0,1.0,8.m4v,6.0
2024-02-27 16:07:51.567299,1709046471.567299,-45.8984375,-34.66796875,-24.90234375,-38.57421875,-1.0,1.0,0.0,1.0,8.m4v,6.0
2024-02-27 16:07:51.571204,1709046471.5712044,-25.87890625,-36.1328125,-28.3203125,-44.43359375,-1.0,1.0,0.0,1.0,8.m4v,6.0
2024-02-27 16:07:51.575110,1709046471.57511,-41.50390625,-41.50390625,-31.25,-47.36328125,-1.0,1.0,0.0,1.0,8.m4v,6.0
2024-02-27 16:07:51.579015,1709046471.5790155,-77.1484375,-43.9453125,-29.78515625,-37.59765625,-1.0,1.0,0.0,1.0,8.m4v,6.0
2024-02-27 16:07:51.582927,1709046471.5829268,-65.4296875,-35.15625,-28.80859375,-25.87890625,-1.0,1.0,0.0,1.0,8.m4v,6.0
2024-02-27 16:07:51.586832,1709046471.5868323,-23.4375,-33.203125,-36.62109375,-19.04296875,-1.0,1.0,0.0,1.0,8.m4v,6.0
2024-02-27 16:07:51.590738,1709046471.5907378,-20.5078125,-42.48046875,-38.57421875,-34.1796875,-1.0,1.0,0.0,1.0,8.m4v,6.0
2024-02-27 16:07:51.594643,1709046471.5946434,-29.78515625,-29.296875,-35.15625,-41.9921875,-1.0,1.0,0.0,1.0,8.m4v,6.0
2024-02-27 16:07:51.598549,1709046471.598549,-53.7109375,-24.4140625,-39.55078125,-36.1328125,-1.0,1.0,0.0,1.0,8.m4v,6.0
2024-02-27 16:07:51.602454,1709046471.6024542,-65.4296875,-45.8984375,-30.76171875,-36.62109375,-1.0,1.0,0.0,1.0,8.m4v,6.0
2024-02-27 16:07:51.606360,1709046471.6063595,-39.0625,-47.8515625,-41.015625,-38.0859375,-1.0,1.0,0.0,1.0,8.m4v,6.0
2024-02-27 16:07:51.610265,1709046471.6102653,-25.390625,-34.1796875,-52.734375,-45.8984375,-1.0,1.0,0.0,1.0,8.m4v,6.0
2024-02-27 16:07:51.614171,1709046471.6141708,-19.53125,-34.1796875,-31.25,-48.828125,-1.0,1.0,0.0,1.0,8.m4v,6.0
2024-02-27 16:07:51.618076,1709046471.618076,-44.921875,-41.50390625,-29.78515625,-48.828125,-1.0,1.0,0.0,1.0,8.m4v,6.0
2024-02-27 16:07:51.621982,1709046471.6219816,-82.03125,-47.8515625,-33.69140625,-48.33984375,-1.0,1.0,0.0,1.0,8.m4v,6.0
2024-02-27 16:07:51.625887,1709046471.6258872,-62.01171875,-52.734375,-31.25,-35.15625,-1.0,1.0,0.0,1.0,8.m4v,6.0
2024-02-27 16:07:51.629798,1709046471.629798,-24.90234375,-42.48046875,-32.71484375,-41.015625,-1.0,1.0,0.0,1.0,8.m4v,6.0
2024-02-27 16:07:51.633703,1709046471.6337037,-21.97265625,-22.4609375,-33.203125,-66.89453125,-1.0,1.0,0.0,1.0,8.m4v,6.0
2024-02-27 16:07:51.637609,1709046471.637609,-48.33984375,-26.85546875,-32.71484375,-68.84765625,-1.0,1.0,0.0,1.0,8.m4v,6.0
2024-02-27 16:07:51.641515,1709046471.6415143,-57.6171875,-32.71484375,-33.69140625,-45.8984375,-1.0,1.0,0.0,1.0,8.m4v,6.0
2024-02-27 16:07:51.645420,1709046471.6454198,-34.1796875,-32.2265625,-33.69140625,-38.57421875,-1.0,1.0,0.0,1.0,8.m4v,6.0
2024-02-27 16:07:51.649325,1709046471.6493254,-5.859375,-45.8984375,-24.90234375,-35.64453125,-1.0,1.0,0.0,1.0,8.m4v,6.0
2024-02-27 16:07:52.102431,1709046472.102431,-62.98828125,-20.01953125,-36.62109375,-36.62109375,-1.0,1.0,0.0,1.0,8.m4v,6.0
2024-02-27 16:07:52.110242,1709046472.110242,-7.8125,-23.4375,-33.203125,-22.94921875,-1.0,1.0,0.0,1.0,8.m4v,6.0
2024-02-27 16:07:52.118053,1709046472.118053,-23.4375,-33.69140625,-28.80859375,-33.203125,-1.0,1.0,0.0,1.0,8.m4v,6.0
2024-02-27 16:07:52.125864,1709046472.1258638,-40.52734375,-28.3203125,-26.3671875,-13.18359375,-1.0,1.0,0.0,1.0,8.m4v,6.0
2024-02-27 16:07:52.133675,1709046472.1336749,-25.87890625,-41.9921875,-34.66796875,-30.2734375,-1.0,1.0,0.0,1.0,8.m4v,6.0
2024-02-27 16:07:52.141486,1709046472.141486,-77.63671875,-31.73828125,-29.296875,-35.15625,-1.0,1.0,0.0,1.0,8.m4v,6.0
2024-02-27 16:07:52.149304,1709046472.1493042,-10.25390625,-34.1796875,-33.69140625,-31.73828125,-1.0,1.0,0.0,1.0,8.m4v,6.0
2024-02-27 16:07:52.157115,1709046472.157115,-26.85546875,-28.3203125,-26.3671875,-29.78515625,-1.0,1.0,0.0,1.0,8.m4v,6.0
2024-02-27 16:07:52.164926,1709046472.164926,-62.5,-37.109375,-20.99609375,-25.87890625,-1.0,1.0,0.0,1.0,8.m4v,6.0
2024-02-27 16:07:52.172737,1709046472.172737,-16.6015625,-59.08203125,-30.76171875,-32.2265625,-1.0,1.0,0.0,1.0,8.m4v,6.0
2024-02-27 16:07:52.180548,1709046472.180548,-50.78125,-33.69140625,-24.4140625,-38.0859375,-1.0,1.0,0.0,1.0,8.m4v,6.0
2024-02-27 16:07:52.188359,1709046472.1883588,-18.06640625,-28.3203125,-33.203125,-25.390625,-1.0,1.0,0.0,1.0,8.m4v,6.0
2024-02-27 16:07:52.196177,1709046472.1961763,-41.9921875,-21.97265625,-43.45703125,-45.41015625,-1.0,1.0,0.0,1.0,8.m4v,6.0
2024-02-27 16:07:52.203987,1709046472.2039874,-45.8984375,-20.5078125,-34.1796875,-19.53125,-1.0,1.0,0.0,1.0,8.m4v,6.0
2024-02-27 16:07:52.211798,1709046472.2117984,0.48828125,-33.69140625,-28.80859375,-20.99609375,-1.0,1.0,0.0,1.0,8.m4v,6.0
2024-02-27 16:07:52.219609,1709046472.2196093,-53.22265625,-21.484375,-28.3203125,-36.1328125,-1.0,1.0,0.0,1.0,8.m4v,6.0
2024-02-27 16:07:52.227420,1709046472.2274203,-36.1328125,-32.2265625,-43.9453125,-38.57421875,-1.0,1.0,0.0,1.0,8.m4v,6.0
2024-02-27 16:07:52.235231,1709046472.2352314,-17.578125,-26.3671875,-27.34375,-41.50390625,-1.0,1.0,0.0,1.0,8.m4v,6.0
2024-02-27 16:07:52.243049,1709046472.243049,-36.62109375,-19.53125,-28.80859375,-29.296875,-1.0,1.0,0.0,1.0,8.m4v,6.0
2024-02-27 16:07:52.250860,1709046472.25086,-22.94921875,-43.9453125,-36.62109375,-39.0625,-1.0,1.0,0.0,1.0,8.m4v,6.0
2024-02-27 16:07:52.258671,1709046472.2586708,-36.1328125,-29.78515625,-33.69140625,-39.55078125,-1.0,1.0,0.0,1.0,8.m4v,6.0
2024-02-27 16:07:52.266482,1709046472.266482,-20.01953125,-29.296875,-24.90234375,-22.4609375,-1.0,1.0,0.0,1.0,8.m4v,6.0
2024-02-27 16:07:52.274293,1709046472.2742927,-11.71875,-21.484375,-27.83203125,-38.0859375,-1.0,1.0,0.0,1.0,8.m4v,6.0
2024-02-27 16:07:52.282104,1709046472.2821038,-76.171875,-24.90234375,-29.296875,-25.390625,-1.0,1.0,0.0,1.0,8.m4v,6.0
2024-02-27 16:07:52.289920,1709046472.2899203,-9.27734375,-32.71484375,-32.2265625,-33.203125,-1.0,1.0,0.0,1.0,8.m4v,6.0
2024-02-27 16:07:52.297731,1709046472.2977314,-42.96875,-27.34375,-32.71484375,-40.0390625,-1.0,1.0,0.0,1.0,8.m4v,6.0
2024-02-27 16:07:52.305542,1709046472.3055422,-39.0625,-27.83203125,-26.3671875,-34.1796875,-1.0,1.0,0.0,1.0,8.m4v,6.0
2024-02-27 16:07:52.313353,1709046472.3133533,-39.0625,-37.59765625,-47.36328125,-31.73828125,-1.0,1.0,0.0,1.0,8.m4v,6.0
2024-02-27 16:07:52.321164,1709046472.3211644,-67.87109375,-29.78515625,-33.203125,-38.0859375,-1.0,1.0,0.0,1.0,8.m4v,6.0
2024-02-27 16:07:52.328975,1709046472.3289752,-15.13671875,-28.3203125,-28.3203125,-25.390625,-1.0,1.0,0.0,1.0,8.m4v,6.0
2024-02-27 16:07:52.336792,1709046472.336792,-29.78515625,-20.01953125,-20.99609375,-22.4609375,-1.0,1.0,0.0,1.0,8.m4v,6.0
2024-02-27 16:07:52.344603,1709046472.344603,-58.10546875,-42.96875,-31.25,-24.90234375,-1.0,1.0,0.0,1.0,8.m4v,6.0
2024-02-27 16:07:52.352414,1709046472.352414,-1.46484375,-27.83203125,-32.71484375,-28.80859375,-1.0,1.0,0.0,1.0,8.m4v,6.0
2024-02-27 16:07:52.360225,1709046472.360225,-58.10546875,-35.64453125,-31.73828125,-34.1796875,-1.0,1.0,0.0,1.0,8.m4v,6.0
2024-02-27 16:07:52.368036,1709046472.3680358,-11.71875,-38.0859375,-42.96875,-16.6015625,-1.0,1.0,0.0,1.0,8.m4v,6.0
2024-02-27 16:07:52.375847,1709046472.3758469,-13.18359375,-33.203125,-29.78515625,-33.203125,-1.0,1.0,0.0,1.0,8.m4v,6.0
2024-02-27 16:07:52.383663,1709046472.3836632,-54.6875,-28.80859375,-26.85546875,-20.99609375,-1.0,1.0,0.0,1.0,8.m4v,6.0
2024-02-27 16:07:52.391474,1709046472.391474,-1.953125,-34.1796875,-35.15625,-48.33984375,-1.0,1.0,0.0,1.0,8.m4v,6.0
2024-02-27 16:07:52.399285,1709046472.399285,-37.109375,-42.48046875,-25.87890625,-34.1796875,-1.0,1.0,0.0,1.0,8.m4v,6.0
2024-02-27 16:07:52.407096,1709046472.407096,-16.6015625,-25.390625,-26.3671875,-20.01953125,-1.0,1.0,0.0,1.0,8.m4v,6.0
2024-02-27 16:07:52.407096,1709046472.407096,-16.6015625,-25.390625,-26.3671875,-20.01953125,-1.0,1.0,0.0,1.0,8.m4v,6.0
2024-02-27 16:07:52.414907,1709046472.414907,6.34765625,-18.06640625,-32.71484375,-36.62109375,-1.0,1.0,0.0,1.0,8.m4v,6.0
2024-02-27 16:07:52.414907,1709046472.414907,6.34765625,-18.06640625,-32.71484375,-36.62109375,-1.0,1.0,0.0,1.0,8.m4v,6.0
2024-02-27 16:07:52.422718,1709046472.4227178,-42.48046875,-21.97265625,-34.66796875,-38.0859375,-1.0,1.0,0.0,1.0,8.m4v,6.0
2024-02-27 16:07:52.422718,1709046472.4227178,-42.48046875,-21.97265625,-34.66796875,-38.0859375,-1.0,1.0,0.0,1.0,8.m4v,6.0
2024-02-27 16:07:52.430534,1709046472.4305344,-0.9765625,-29.78515625,-30.76171875,-20.99609375,-1.0,1.0,0.0,1.0,8.m4v,6.0
2024-02-27 16:07:52.430534,1709046472.4305344,-0.9765625,-29.78515625,-30.76171875,-20.99609375,-1.0,1.0,0.0,1.0,8.m4v,6.0
2024-02-27 16:07:52.438345,1709046472.4383452,-40.52734375,-30.2734375,-21.97265625,-31.25,-1.0,1.0,0.0,1.0,8.m4v,6.0
2024-02-27 16:07:52.438345,1709046472.4383452,-40.52734375,-30.2734375,-21.97265625,-31.25,-1.0,1.0,0.0,1.0,8.m4v,6.0
2024-02-27 16:07:52.446156,1709046472.4461565,-41.9921875,-28.80859375,-31.25,-20.5078125,-1.0,1.0,0.0,1.0,8.m4v,6.0
2024-02-27 16:07:52.446156,1709046472.4461565,-41.9921875,-28.80859375,-31.25,-20.5078125,-1.0,1.0,0.0,1.0,8.m4v,6.0
2024-02-27 16:07:52.453967,1709046472.453967,-57.6171875,-41.9921875,-27.83203125,-51.7578125,-1.0,1.0,0.0,1.0,8.m4v,6.0
2024-02-27 16:07:52.453967,1709046472.453967,-57.6171875,-41.9921875,-27.83203125,-51.7578125,-1.0,1.0,0.0,1.0,8.m4v,6.0
2024-02-27 16:07:52.461778,1709046472.4617782,-76.171875,-41.015625,-29.296875,-37.59765625,-1.0,1.0,0.0,1.0,8.m4v,6.0
2024-02-27 16:07:52.461778,1709046472.4617782,-76.171875,-41.015625,-29.296875,-37.59765625,-1.0,1.0,0.0,1.0,8.m4v,6.0
2024-02-27 16:07:52.469589,1709046472.469589,-13.671875,-37.109375,-32.2265625,-23.92578125,-1.0,1.0,0.0,1.0,8.m4v,6.0
2024-02-27 16:07:52.469589,1709046472.469589,-13.671875,-37.109375,-32.2265625,-23.92578125,-1.0,1.0,0.0,1.0,8.m4v,6.0
2024-02-27 16:07:52.477408,1709046472.4774077,-54.19921875,-32.71484375,-46.38671875,-48.828125,-1.0,1.0,0.0,1.0,8.m4v,6.0
2024-02-27 16:07:52.477408,1709046472.4774077,-54.19921875,-32.71484375,-46.38671875,-48.828125,-1.0,1.0,0.0,1.0,8.m4v,6.0
2024-02-27 16:07:52.485219,1709046472.4852188,-58.10546875,-35.64453125,-26.3671875,-42.48046875,-1.0,1.0,0.0,1.0,8.m4v,6.0
2024-02-27 16:07:52.485219,1709046472.4852188,-58.10546875,-35.64453125,-26.3671875,-42.48046875,-1.0,1.0,0.0,1.0,8.m4v,6.0
2024-02-27 16:07:52.493030,1709046472.4930296,-21.484375,-37.59765625,-26.85546875,-35.15625,-1.0,1.0,0.0,1.0,8.m4v,6.0
2024-02-27 16:07:52.493030,1709046472.4930296,-21.484375,-37.59765625,-26.85546875,-35.15625,-1.0,1.0,0.0,1.0,8.m4v,6.0
2024-02-27 16:07:52.496935,1709046472.4969351,-43.9453125,-29.296875,-28.80859375,-40.0390625,-1.0,1.0,0.0,1.0,8.m4v,6.0
2024-02-27 16:07:52.500841,1709046472.500841,-89.35546875,-20.01953125,-35.15625,-53.22265625,-1.0,1.0,0.0,1.0,8.m4v,6.0
2024-02-27 16:07:52.504746,1709046472.504746,-79.58984375,-29.296875,-39.0625,-42.96875,-1.0,1.0,0.0,1.0,8.m4v,6.0
2024-02-27 16:07:52.508651,1709046472.5086515,-33.203125,-34.1796875,-39.0625,-34.1796875,-1.0,1.0,0.0,1.0,8.m4v,6.0
2024-02-27 16:07:52.512557,1709046472.512557,-33.203125,-30.76171875,-40.0390625,-44.921875,-1.0,1.0,0.0,1.0,8.m4v,6.0
2024-02-27 16:07:52.516463,1709046472.5164626,-62.98828125,-36.62109375,-38.57421875,-49.31640625,-1.0,1.0,0.0,1.0,8.m4v,6.0
2024-02-27 16:07:52.520375,1709046472.5203753,-65.4296875,-39.0625,-32.71484375,-40.0390625,-1.0,1.0,0.0,1.0,8.m4v,6.0
2024-02-27 16:07:52.524281,1709046472.5242808,-32.71484375,-27.34375,-35.15625,-26.3671875,-1.0,1.0,0.0,1.0,8.m4v,6.0
2024-02-27 16:07:52.528186,1709046472.5281863,-12.6953125,-22.4609375,-46.875,-34.1796875,-1.0,1.0,0.0,1.0,8.m4v,6.0
2024-02-27 16:07:52.532092,1709046472.5320916,-23.4375,-33.69140625,-52.734375,-50.78125,-1.0,1.0,0.0,1.0,8.m4v,6.0
2024-02-27 16:07:52.535997,1709046472.5359972,-35.15625,-38.57421875,-47.36328125,-46.875,-1.0,1.0,0.0,1.0,8.m4v,6.0
2024-02-27 16:07:52.539903,1709046472.5399027,-53.7109375,-36.1328125,-39.0625,-39.0625,-1.0,1.0,0.0,1.0,8.m4v,6.0
2024-02-27 16:07:52.543808,1709046472.5438082,-52.734375,-40.52734375,-30.2734375,-33.203125,-1.0,1.0,0.0,1.0,8.m4v,6.0
2024-02-27 16:07:52.547714,1709046472.5477135,-24.90234375,-44.921875,-26.3671875,-31.73828125,-1.0,1.0,0.0,1.0,8.m4v,6.0
2024-02-27 16:07:52.551619,1709046472.551619,-14.16015625,-30.2734375,-33.69140625,-35.15625,-1.0,1.0,0.0,1.0,8.m4v,6.0
2024-02-27 16:07:52.555525,1709046472.5555246,-32.71484375,-28.80859375,-44.43359375,-40.0390625,-1.0,1.0,0.0,1.0,8.m4v,6.0
2024-02-27 16:07:52.559430,1709046472.55943,-69.3359375,-30.2734375,-46.875,-44.43359375,-1.0,1.0,0.0,1.0,8.m4v,6.0
2024-02-27 16:07:52.563335,1709046472.5633354,-65.91796875,-25.390625,-37.59765625,-34.1796875,-1.0,1.0,0.0,1.0,8.m4v,6.0
2024-02-27 16:07:52.567248,1709046472.567248,-37.109375,-27.83203125,-36.1328125,-21.97265625,-1.0,1.0,0.0,1.0,8.m4v,6.0
2024-02-27 16:07:52.571153,1709046472.5711534,-30.2734375,-30.76171875,-44.43359375,-41.015625,-1.0,1.0,0.0,1.0,8.m4v,6.0
2024-02-27 16:07:52.575059,1709046472.575059,-26.85546875,-31.73828125,-39.55078125,-52.734375,-1.0,1.0,0.0,1.0,8.m4v,6.0
2024-02-27 16:07:52.578964,1709046472.5789642,-44.921875,-26.85546875,-35.64453125,-46.875,-1.0,1.0,0.0,1.0,8.m4v,6.0
2024-02-27 16:07:52.582870,1709046472.5828698,-58.59375,-33.203125,-31.73828125,-37.59765625,-1.0,1.0,0.0,1.0,8.m4v,6.0
2024-02-27 16:07:52.586775,1709046472.5867753,-31.73828125,-32.2265625,-25.390625,-20.5078125,-1.0,1.0,0.0,1.0,8.m4v,6.0
2024-02-27 16:07:52.590681,1709046472.5906808,-21.97265625,-27.34375,-28.80859375,-27.83203125,-1.0,1.0,0.0,1.0,8.m4v,6.0
2024-02-27 16:07:52.594586,1709046472.5945864,-26.85546875,-36.1328125,-30.76171875,-33.69140625,-1.0,1.0,0.0,1.0,8.m4v,6.0
2024-02-27 16:07:52.598492,1709046472.5984917,-41.9921875,-34.66796875,-30.76171875,-19.04296875,-1.0,1.0,0.0,1.0,8.m4v,6.0
2024-02-27 16:07:52.602397,1709046472.6023972,-61.03515625,-37.109375,-34.1796875,-24.90234375,-1.0,1.0,0.0,1.0,8.m4v,6.0
2024-02-27 16:07:52.606303,1709046472.6063027,-37.59765625,-40.52734375,-31.25,-27.34375,-1.0,1.0,0.0,1.0,8.m4v,6.0
2024-02-27 16:07:52.610208,1709046472.6102085,-20.99609375,-38.57421875,-32.71484375,-21.484375,-1.0,1.0,0.0,1.0,8.m4v,6.0
2024-02-27 16:07:52.614120,1709046472.6141202,-27.83203125,-35.64453125,-37.109375,-25.390625,-1.0,1.0,0.0,1.0,8.m4v,6.0
2024-02-27 16:07:52.618026,1709046472.6180258,-45.8984375,-18.06640625,-29.78515625,-22.94921875,-1.0,1.0,0.0,1.0,8.m4v,6.0
2024-02-27 16:07:52.621931,1709046472.6219313,-64.453125,-25.390625,-22.4609375,-22.94921875,-1.0,1.0,0.0,1.0,8.m4v,6.0
2024-02-27 16:07:52.625837,1709046472.6258368,-41.015625,-41.015625,-23.4375,-28.3203125,-1.0,1.0,0.0,1.0,8.m4v,6.0
2024-02-27 16:07:52.629742,1709046472.629742,-18.06640625,-34.1796875,-37.59765625,-32.2265625,-1.0,1.0,0.0,1.0,8.m4v,6.0
2024-02-27 16:07:52.633648,1709046472.6336477,-23.92578125,-42.48046875,-38.0859375,-39.0625,-1.0,1.0,0.0,1.0,8.m4v,6.0
2024-02-27 16:07:52.637553,1709046472.6375532,-50.78125,-43.45703125,-28.3203125,-44.43359375,-1.0,1.0,0.0,1.0,8.m4v,6.0
2024-02-27 16:07:52.641459,1709046472.6414587,-71.2890625,-39.0625,-28.80859375,-36.62109375,-1.0,1.0,0.0,1.0,8.m4v,6.0
2024-02-27 16:07:52.645364,1709046472.6453643,-43.45703125,-35.15625,-31.73828125,-24.4140625,-1.0,1.0,0.0,1.0,8.m4v,6.0
2024-02-27 16:07:52.649270,1709046472.6492696,-15.625,-26.85546875,-25.87890625,-23.92578125,-1.0,1.0,0.0,1.0,8.m4v,6.0
2024-02-27 16:07:52.653175,1709046472.653175,-5.859375,-30.76171875,-18.5546875,-31.25,-1.0,1.0,0.0,1.0,8.m4v,6.0
2024-02-27 16:07:52.657081,1709046472.657081,-25.87890625,-26.85546875,-26.3671875,-34.1796875,-1.0,1.0,0.0,1.0,8.m4v,6.0
2024-02-27 16:07:52.660993,1709046472.6609926,-67.87109375,-30.76171875,-34.66796875,-38.0859375,-1.0,1.0,0.0,1.0,8.m4v,6.0
2024-02-27 16:07:52.664898,1709046472.6648982,-47.36328125,-39.0625,-38.0859375,-34.66796875,-1.0,1.0,0.0,1.0,8.m4v,6.0
2024-02-27 16:07:52.668803,1709046472.6688037,-9.765625,-42.48046875,-41.015625,-29.78515625,-1.0,1.0,0.0,1.0,8.m4v,6.0
2024-02-27 16:07:52.672709,1709046472.672709,-20.5078125,-45.41015625,-39.0625,-49.8046875,-1.0,1.0,0.0,1.0,8.m4v,6.0
2024-02-27 16:07:52.676615,1709046472.6766143,-38.0859375,-43.45703125,-44.43359375,-67.3828125,-1.0,1.0,0.0,1.0,8.m4v,6.0
2024-02-27 16:07:52.680520,1709046472.68052,-55.6640625,-39.55078125,-49.8046875,-53.22265625,-1.0,1.0,0.0,1.0,8.m4v,6.0
2024-02-27 16:07:53.082844,1709046473.082844,-50.29296875,-24.90234375,-30.76171875,-30.76171875,-1.0,1.0,0.0,1.0,8.m4v,6.0
2024-02-27 16:07:53.082844,1709046473.082844,-50.29296875,-24.90234375,-30.76171875,-30.76171875,-1.0,1.0,0.0,1.0,8.m4v,6.0
2024-02-27 16:07:53.086750,1709046473.0867496,-22.94921875,-28.80859375,-29.296875,-24.4140625,-1.0,1.0,0.0,1.0,8.m4v,6.0
2024-02-27 16:07:53.086750,1709046473.0867496,-22.94921875,-28.80859375,-29.296875,-24.4140625,-1.0,1.0,0.0,1.0,8.m4v,6.0
2024-02-27 16:07:53.090655,1709046473.0906549,-25.87890625,-27.83203125,-33.203125,-43.45703125,-1.0,1.0,0.0,1.0,8.m4v,6.0
2024-02-27 16:07:53.090655,1709046473.0906549,-25.87890625,-27.83203125,-33.203125,-43.45703125,-1.0,1.0,0.0,1.0,8.m4v,6.0
2024-02-27 16:07:53.094560,1709046473.0945604,-36.1328125,-31.25,-35.64453125,-55.17578125,-1.0,1.0,0.0,1.0,8.m4v,6.0
2024-02-27 16:07:53.094560,1709046473.0945604,-36.1328125,-31.25,-35.64453125,-55.17578125,-1.0,1.0,0.0,1.0,8.m4v,6.0
2024-02-27 16:07:53.098466,1709046473.098466,-64.453125,-41.50390625,-32.2265625,-52.24609375,-1.0,1.0,0.0,1.0,8.m4v,6.0
2024-02-27 16:07:53.098466,1709046473.098466,-64.453125,-41.50390625,-32.2265625,-52.24609375,-1.0,1.0,0.0,1.0,8.m4v,6.0
2024-02-27 16:07:53.102371,1709046473.1023717,-77.63671875,-42.48046875,-32.71484375,-51.7578125,-1.0,1.0,0.0,1.0,8.m4v,6.0
2024-02-27 16:07:53.102371,1709046473.1023717,-77.63671875,-42.48046875,-32.71484375,-51.7578125,-1.0,1.0,0.0,1.0,8.m4v,6.0
2024-02-27 16:07:53.106277,1709046473.1062768,-37.59765625,-33.69140625,-41.015625,-41.015625,-1.0,1.0,0.0,1.0,8.m4v,6.0
2024-02-27 16:07:53.106277,1709046473.1062768,-37.59765625,-33.69140625,-41.015625,-41.015625,-1.0,1.0,0.0,1.0,8.m4v,6.0
2024-02-27 16:07:53.110182,1709046473.1101823,-14.16015625,-33.203125,-39.55078125,-34.1796875,-1.0,1.0,0.0,1.0,8.m4v,6.0
2024-02-27 16:07:53.110182,1709046473.1101823,-14.16015625,-33.203125,-39.55078125,-34.1796875,-1.0,1.0,0.0,1.0,8.m4v,6.0
2024-02-27 16:07:53.114088,1709046473.1140878,-29.78515625,-33.69140625,-34.66796875,-34.66796875,-1.0,1.0,0.0,1.0,8.m4v,6.0
2024-02-27 16:07:53.114088,1709046473.1140878,-29.78515625,-33.69140625,-34.66796875,-34.66796875,-1.0,1.0,0.0,1.0,8.m4v,6.0
2024-02-27 16:07:53.117993,1709046473.1179934,-49.8046875,-32.71484375,-36.1328125,-36.1328125,-1.0,1.0,0.0,1.0,8.m4v,6.0
2024-02-27 16:07:53.117993,1709046473.1179934,-49.8046875,-32.71484375,-36.1328125,-36.1328125,-1.0,1.0,0.0,1.0,8.m4v,6.0
2024-02-27 16:07:53.121899,1709046473.121899,-61.03515625,-33.69140625,-32.71484375,-28.80859375,-1.0,1.0,0.0,1.0,8.m4v,6.0
2024-02-27 16:07:53.121899,1709046473.121899,-61.03515625,-33.69140625,-32.71484375,-28.80859375,-1.0,1.0,0.0,1.0,8.m4v,6.0
2024-02-27 16:07:53.125804,1709046473.1258042,-39.0625,-31.25,-30.76171875,-16.6015625,-1.0,1.0,0.0,1.0,8.m4v,6.0
2024-02-27 16:07:53.125804,1709046473.1258042,-39.0625,-31.25,-30.76171875,-16.6015625,-1.0,1.0,0.0,1.0,8.m4v,6.0
2024-02-27 16:07:53.129715,1709046473.1297152,-8.7890625,-33.203125,-28.3203125,-16.11328125,-1.0,1.0,0.0,1.0,8.m4v,6.0
2024-02-27 16:07:53.129715,1709046473.1297152,-8.7890625,-33.203125,-28.3203125,-16.11328125,-1.0,1.0,0.0,1.0,8.m4v,6.0
2024-02-27 16:07:53.133621,1709046473.1336207,-13.671875,-40.0390625,-24.90234375,-25.390625,-1.0,1.0,0.0,1.0,8.m4v,6.0
2024-02-27 16:07:53.133621,1709046473.1336207,-13.671875,-40.0390625,-24.90234375,-25.390625,-1.0,1.0,0.0,1.0,8.m4v,6.0
2024-02-27 16:07:53.137526,1709046473.137526,-43.9453125,-37.109375,-21.97265625,-36.1328125,-1.0,1.0,0.0,1.0,8.m4v,6.0
2024-02-27 16:07:53.137526,1709046473.137526,-43.9453125,-37.109375,-21.97265625,-36.1328125,-1.0,1.0,0.0,1.0,8.m4v,6.0
2024-02-27 16:07:53.141432,1709046473.1414316,-67.3828125,-36.62109375,-29.296875,-34.66796875,-1.0,1.0,0.0,1.0,8.m4v,6.0
2024-02-27 16:07:53.141432,1709046473.1414316,-67.3828125,-36.62109375,-29.296875,-34.66796875,-1.0,1.0,0.0,1.0,8.m4v,6.0
2024-02-27 16:07:53.145337,1709046473.145337,-44.921875,-53.7109375,-32.2265625,-27.34375,-1.0,1.0,0.0,1.0,8.m4v,6.0
2024-02-27 16:07:53.145337,1709046473.145337,-44.921875,-53.7109375,-32.2265625,-27.34375,-1.0,1.0,0.0,1.0,8.m4v,6.0
2024-02-27 16:07:53.149243,1709046473.1492426,-22.94921875,-51.26953125,-22.94921875,-29.296875,-1.0,1.0,0.0,1.0,8.m4v,6.0
2024-02-27 16:07:53.149243,1709046473.1492426,-22.94921875,-51.26953125,-22.94921875,-29.296875,-1.0,1.0,0.0,1.0,8.m4v,6.0
2024-02-27 16:07:53.153148,1709046473.1531482,-33.203125,-38.57421875,-31.73828125,-37.109375,-1.0,1.0,0.0,1.0,8.m4v,6.0
2024-02-27 16:07:53.153148,1709046473.1531482,-33.203125,-38.57421875,-31.73828125,-37.109375,-1.0,1.0,0.0,1.0,8.m4v,6.0
2024-02-27 16:07:53.157053,1709046473.1570537,-59.08203125,-42.96875,-41.015625,-57.12890625,-1.0,1.0,0.0,1.0,8.m4v,6.0
2024-02-27 16:07:53.157053,1709046473.1570537,-59.08203125,-42.96875,-41.015625,-57.12890625,-1.0,1.0,0.0,1.0,8.m4v,6.0
2024-02-27 16:07:53.160959,1709046473.160959,-73.73046875,-36.62109375,-36.62109375,-45.41015625,-1.0,1.0,0.0,1.0,8.m4v,6.0
2024-02-27 16:07:53.160959,1709046473.160959,-73.73046875,-36.62109375,-36.62109375,-45.41015625,-1.0,1.0,0.0,1.0,8.m4v,6.0
2024-02-27 16:07:53.164865,1709046473.1648643,-50.78125,-27.83203125,-28.80859375,-18.5546875,-1.0,1.0,0.0,1.0,8.m4v,6.0
2024-02-27 16:07:53.164865,1709046473.1648643,-50.78125,-27.83203125,-28.80859375,-18.5546875,-1.0,1.0,0.0,1.0,8.m4v,6.0
2024-02-27 16:07:53.168770,1709046473.16877,-21.97265625,-27.83203125,-31.73828125,-25.390625,-1.0,1.0,0.0,1.0,8.m4v,6.0
2024-02-27 16:07:53.168770,1709046473.16877,-21.97265625,-27.83203125,-31.73828125,-25.390625,-1.0,1.0,0.0,1.0,8.m4v,6.0
2024-02-27 16:07:53.172675,1709046473.1726754,-22.4609375,-32.2265625,-41.015625,-33.69140625,-1.0,1.0,0.0,1.0,8.m4v,6.0
2024-02-27 16:07:53.172675,1709046473.1726754,-22.4609375,-32.2265625,-41.015625,-33.69140625,-1.0,1.0,0.0,1.0,8.m4v,6.0
2024-02-27 16:07:53.176589,1709046473.176589,-61.5234375,-34.66796875,-41.9921875,-38.0859375,-1.0,1.0,0.0,1.0,8.m4v,6.0
2024-02-27 16:07:53.176589,1709046473.176589,-61.5234375,-34.66796875,-41.9921875,-38.0859375,-1.0,1.0,0.0,1.0,8.m4v,6.0
2024-02-27 16:07:53.180494,1709046473.1804943,-79.58984375,-31.73828125,-28.80859375,-30.76171875,-1.0,1.0,0.0,1.0,8.m4v,6.0
2024-02-27 16:07:53.180494,1709046473.1804943,-79.58984375,-31.73828125,-28.80859375,-30.76171875,-1.0,1.0,0.0,1.0,8.m4v,6.0
2024-02-27 16:07:53.184400,1709046473.1843998,-54.6875,-38.57421875,-20.5078125,-25.87890625,-1.0,1.0,0.0,1.0,8.m4v,6.0
2024-02-27 16:07:53.184400,1709046473.1843998,-54.6875,-38.57421875,-20.5078125,-25.87890625,-1.0,1.0,0.0,1.0,8.m4v,6.0
2024-02-27 16:07:53.188305,1709046473.1883054,-27.34375,-43.9453125,-34.1796875,-28.3203125,-1.0,1.0,0.0,1.0,8.m4v,6.0
2024-02-27 16:07:53.188305,1709046473.1883054,-27.34375,-43.9453125,-34.1796875,-28.3203125,-1.0,1.0,0.0,1.0,8.m4v,6.0
2024-02-27 16:07:53.192211,1709046473.192211,-19.04296875,-32.2265625,-31.73828125,-36.1328125,-1.0,1.0,0.0,1.0,8.m4v,6.0
2024-02-27 16:07:53.192211,1709046473.192211,-19.04296875,-32.2265625,-31.73828125,-36.1328125,-1.0,1.0,0.0,1.0,8.m4v,6.0
2024-02-27 16:07:53.196116,1709046473.1961164,-31.73828125,-27.34375,-23.4375,-41.015625,-1.0,1.0,0.0,1.0,8.m4v,6.0
2024-02-27 16:07:53.196116,1709046473.1961164,-31.73828125,-27.34375,-23.4375,-41.015625,-1.0,1.0,0.0,1.0,8.m4v,6.0
2024-02-27 16:07:53.200022,1709046473.2000215,-64.94140625,-32.2265625,-30.2734375,-37.59765625,-1.0,1.0,0.0,1.0,8.m4v,6.0
2024-02-27 16:07:53.200022,1709046473.2000215,-64.94140625,-32.2265625,-30.2734375,-37.59765625,-1.0,1.0,0.0,1.0,8.m4v,6.0
2024-02-27 16:07:53.203927,1709046473.2039273,-66.40625,-32.2265625,-37.59765625,-35.64453125,-1.0,1.0,0.0,1.0,8.m4v,6.0
2024-02-27 16:07:53.203927,1709046473.2039273,-66.40625,-32.2265625,-37.59765625,-35.64453125,-1.0,1.0,0.0,1.0,8.m4v,6.0
2024-02-27 16:07:53.207833,1709046473.2078328,-22.94921875,-19.04296875,-37.109375,-31.25,-1.0,1.0,0.0,1.0,8.m4v,6.0
2024-02-27 16:07:53.207833,1709046473.2078328,-22.94921875,-19.04296875,-37.109375,-31.25,-1.0,1.0,0.0,1.0,8.m4v,6.0
2024-02-27 16:07:53.211738,1709046473.2117383,-4.39453125,-24.4140625,-35.15625,-30.2734375,-1.0,1.0,0.0,1.0,8.m4v,6.0
2024-02-27 16:07:53.211738,1709046473.2117383,-4.39453125,-24.4140625,-35.15625,-30.2734375,-1.0,1.0,0.0,1.0,8.m4v,6.0
2024-02-27 16:07:53.215644,1709046473.2156436,-27.34375,-36.1328125,-37.109375,-38.57421875,-1.0,1.0,0.0,1.0,8.m4v,6.0
2024-02-27 16:07:53.215644,1709046473.2156436,-27.34375,-36.1328125,-37.109375,-38.57421875,-1.0,1.0,0.0,1.0,8.m4v,6.0
2024-02-27 16:07:53.219549,1709046473.2195492,-66.40625,-29.78515625,-38.0859375,-48.828125,-1.0,1.0,0.0,1.0,8.m4v,6.0
2024-02-27 16:07:53.219549,1709046473.2195492,-66.40625,-29.78515625,-38.0859375,-48.828125,-1.0,1.0,0.0,1.0,8.m4v,6.0
2024-02-27 16:07:53.223462,1709046473.2234623,-71.77734375,-25.87890625,-39.0625,-39.0625,-1.0,1.0,0.0,1.0,8.m4v,6.0
2024-02-27 16:07:53.223462,1709046473.2234623,-71.77734375,-25.87890625,-39.0625,-39.0625,-1.0,1.0,0.0,1.0,8.m4v,6.0
2024-02-27 16:07:53.227368,1709046473.227368,-29.78515625,-30.76171875,-35.15625,-21.97265625,-1.0,1.0,0.0,1.0,8.m4v,6.0
2024-02-27 16:07:53.227368,1709046473.227368,-29.78515625,-30.76171875,-35.15625,-21.97265625,-1.0,1.0,0.0,1.0,8.m4v,6.0
2024-02-27 16:07:53.231273,1709046473.2312732,1.46484375,-30.2734375,-31.25,-25.390625,-1.0,1.0,0.0,1.0,8.m4v,6.0
2024-02-27 16:07:53.231273,1709046473.2312732,1.46484375,-30.2734375,-31.25,-25.390625,-1.0,1.0,0.0,1.0,8.m4v,6.0
2024-02-27 16:07:53.235179,1709046473.2351787,-11.71875,-18.06640625,-20.99609375,-40.0390625,-1.0,1.0,0.0,1.0,8.m4v,6.0
2024-02-27 16:07:53.235179,1709046473.2351787,-11.71875,-18.06640625,-20.99609375,-40.0390625,-1.0,1.0,0.0,1.0,8.m4v,6.0
2024-02-27 16:07:53.239084,1709046473.2390842,-41.9921875,-11.71875,-16.11328125,-37.59765625,-1.0,1.0,0.0,1.0,8.m4v,6.0
2024-02-27 16:07:53.239084,1709046473.2390842,-41.9921875,-11.71875,-16.11328125,-37.59765625,-1.0,1.0,0.0,1.0,8.m4v,6.0
2024-02-27 16:07:53.242990,1709046473.2429898,-38.57421875,-21.484375,-16.6015625,-25.87890625,-1.0,1.0,0.0,1.0,8.m4v,6.0
2024-02-27 16:07:53.242990,1709046473.2429898,-38.57421875,-21.484375,-16.6015625,-25.87890625,-1.0,1.0,0.0,1.0,8.m4v,6.0
2024-02-27 16:07:53.246895,1709046473.2468953,-24.4140625,-39.0625,-27.83203125,-22.94921875,-1.0,1.0,0.0,1.0,8.m4v,6.0
2024-02-27 16:07:53.246895,1709046473.2468953,-24.4140625,-39.0625,-27.83203125,-22.94921875,-1.0,1.0,0.0,1.0,8.m4v,6.0
2024-02-27 16:07:54.114041,1709046474.1140409,-0.9765625,-31.73828125,-22.94921875,-23.92578125,-1.0,1.0,0.0,1.0,8.m4v,6.0
2024-02-27 16:07:54.117946,1709046474.1179464,-31.73828125,-23.4375,-17.578125,-26.85546875,-1.0,1.0,0.0,1.0,8.m4v,6.0
2024-02-27 16:07:54.121852,1709046474.121852,-47.8515625,-22.4609375,-22.94921875,-21.484375,-1.0,1.0,0.0,1.0,8.m4v,6.0
2024-02-27 16:07:54.125757,1709046474.1257577,-21.97265625,-29.78515625,-32.2265625,-16.6015625,-1.0,1.0,0.0,1.0,8.m4v,6.0
2024-02-27 16:07:54.129663,1709046474.1296628,-8.7890625,-31.25,-32.71484375,-25.87890625,-1.0,1.0,0.0,1.0,8.m4v,6.0
2024-02-27 16:07:54.133568,1709046474.1335683,3.41796875,-26.85546875,-27.83203125,-33.203125,-1.0,1.0,0.0,1.0,8.m4v,6.0
2024-02-27 16:07:54.137474,1709046474.1374738,-19.53125,-30.2734375,-28.3203125,-30.2734375,-1.0,1.0,0.0,1.0,8.m4v,6.0
2024-02-27 16:07:54.141379,1709046474.1413794,-66.89453125,-34.66796875,-38.0859375,-24.4140625,-1.0,1.0,0.0,1.0,8.m4v,6.0
2024-02-27 16:07:54.145285,1709046474.145285,-44.921875,-34.1796875,-41.015625,-35.15625,-1.0,1.0,0.0,1.0,8.m4v,6.0
2024-02-27 16:07:54.149190,1709046474.1491902,-14.16015625,-32.2265625,-35.64453125,-48.33984375,-1.0,1.0,0.0,1.0,8.m4v,6.0
2024-02-27 16:07:54.153096,1709046474.1530955,-8.30078125,-24.4140625,-32.71484375,-49.31640625,-1.0,1.0,0.0,1.0,8.m4v,6.0
2024-02-27 16:07:54.157001,1709046474.1570013,-31.25,-25.87890625,-34.1796875,-49.8046875,-1.0,1.0,0.0,1.0,8.m4v,6.0
2024-02-27 16:07:54.160913,1709046474.160913,-64.453125,-25.87890625,-37.59765625,-46.38671875,-1.0,1.0,0.0,1.0,8.m4v,6.0
2024-02-27 16:07:54.164819,1709046474.1648183,-39.0625,-34.66796875,-33.69140625,-39.55078125,-1.0,1.0,0.0,1.0,8.m4v,6.0
2024-02-27 16:07:54.168724,1709046474.168724,-9.765625,-49.31640625,-32.2265625,-37.59765625,-1.0,1.0,0.0,1.0,8.m4v,6.0
2024-02-27 16:07:54.172630,1709046474.1726296,-27.34375,-47.36328125,-31.25,-41.50390625,-1.0,1.0,0.0,1.0,8.m4v,6.0
2024-02-27 16:07:54.176535,1709046474.176535,-63.96484375,-43.45703125,-26.3671875,-44.43359375,-1.0,1.0,0.0,1.0,8.m4v,6.0
2024-02-27 16:07:54.180440,1709046474.1804404,-64.453125,-35.64453125,-32.71484375,-47.8515625,-1.0,1.0,0.0,1.0,8.m4v,6.0
2024-02-27 16:07:54.184346,1709046474.184346,-30.76171875,-21.97265625,-40.0390625,-35.15625,-1.0,1.0,0.0,1.0,8.m4v,6.0
2024-02-27 16:07:54.188251,1709046474.1882515,-9.765625,-17.08984375,-33.203125,-29.296875,-1.0,1.0,0.0,1.0,8.m4v,6.0
2024-02-27 16:07:54.192157,1709046474.192157,-7.8125,-16.11328125,-38.0859375,-38.0859375,-1.0,1.0,0.0,1.0,8.m4v,6.0
2024-02-27 16:07:54.196062,1709046474.1960623,-27.34375,-24.4140625,-47.36328125,-37.109375,-1.0,1.0,0.0,1.0,8.m4v,6.0
2024-02-27 16:07:54.199968,1709046474.199968,-62.01171875,-32.2265625,-40.0390625,-41.50390625,-1.0,1.0,0.0,1.0,8.m4v,6.0
2024-02-27 16:07:54.203873,1709046474.2038734,-61.5234375,-32.71484375,-33.69140625,-43.45703125,-1.0,1.0,0.0,1.0,8.m4v,6.0
2024-02-27 16:07:54.207785,1709046474.207785,-32.2265625,-42.96875,-32.2265625,-39.0625,-1.0,1.0,0.0,1.0,8.m4v,6.0
2024-02-27 16:07:54.211690,1709046474.2116902,-27.34375,-45.8984375,-28.3203125,-37.59765625,-1.0,1.0,0.0,1.0,8.m4v,6.0
2024-02-27 16:07:54.215596,1709046474.2155955,-36.62109375,-33.203125,-27.34375,-43.45703125,-1.0,1.0,0.0,1.0,8.m4v,6.0
2024-02-27 16:07:54.219501,1709046474.2195013,-45.41015625,-30.76171875,-22.4609375,-38.57421875,-1.0,1.0,0.0,1.0,8.m4v,6.0
2024-02-27 16:07:54.223407,1709046474.2234068,-38.57421875,-33.69140625,-26.3671875,-29.296875,-1.0,1.0,0.0,1.0,8.m4v,6.0
2024-02-27 16:07:54.227312,1709046474.227312,-11.71875,-27.34375,-30.2734375,-22.4609375,-1.0,1.0,0.0,1.0,8.m4v,6.0
2024-02-27 16:07:54.231218,1709046474.2312176,2.44140625,-33.203125,-28.3203125,-22.4609375,-1.0,1.0,0.0,1.0,8.m4v,6.0
2024-02-27 16:07:54.235123,1709046474.2351232,-12.20703125,-35.15625,-28.80859375,-26.85546875,-1.0,1.0,0.0,1.0,8.m4v,6.0
2024-02-27 16:07:54.239029,1709046474.2390287,-52.24609375,-29.296875,-30.2734375,-30.2734375,-1.0,1.0,0.0,1.0,8.m4v,6.0
2024-02-27 16:07:54.242934,1709046474.242934,-57.12890625,-40.0390625,-29.296875,-23.92578125,-1.0,1.0,0.0,1.0,8.m4v,6.0
2024-02-27 16:07:54.246840,1709046474.2468395,-28.3203125,-47.8515625,-40.0390625,-6.8359375,-1.0,1.0,0.0,1.0,8.m4v,6.0
2024-02-27 16:07:54.250745,1709046474.250745,-25.87890625,-43.9453125,-43.9453125,-19.04296875,-1.0,1.0,0.0,1.0,8.m4v,6.0
2024-02-27 16:07:54.254656,1709046474.254656,-27.83203125,-36.1328125,-27.34375,-33.69140625,-1.0,1.0,0.0,1.0,8.m4v,6.0
2024-02-27 16:07:54.258561,1709046474.2585614,-41.9921875,-22.4609375,-14.6484375,-33.69140625,-1.0,1.0,0.0,1.0,8.m4v,6.0
2024-02-27 16:07:54.262467,1709046474.262467,-54.19921875,-22.94921875,-7.8125,-35.15625,-1.0,1.0,0.0,1.0,8.m4v,6.0
2024-02-27 16:07:54.266372,1709046474.2663724,-21.484375,-34.66796875,-15.625,-20.5078125,-1.0,1.0,0.0,1.0,8.m4v,6.0
2024-02-27 16:07:54.270278,1709046474.270278,10.7421875,-35.15625,-24.4140625,-18.5546875,-1.0,1.0,0.0,1.0,8.m4v,6.0
2024-02-27 16:07:54.274183,1709046474.2741833,10.25390625,-32.71484375,-27.34375,-24.4140625,-1.0,1.0,0.0,1.0,8.m4v,6.0
2024-02-27 16:07:54.278089,1709046474.2780888,-32.71484375,-37.109375,-35.15625,-22.94921875,-1.0,1.0,0.0,1.0,8.m4v,6.0
2024-02-27 16:07:54.281994,1709046474.2819943,-54.6875,-35.64453125,-34.1796875,-17.578125,-1.0,1.0,0.0,1.0,8.m4v,6.0
2024-02-27 16:07:54.281994,1709046474.2819943,-54.6875,-35.64453125,-34.1796875,-17.578125,-1.0,1.0,0.0,1.0,8.m4v,6.0
2024-02-27 16:07:54.285900,1709046474.2859,-28.3203125,-29.296875,-26.3671875,-18.06640625,-1.0,1.0,0.0,1.0,8.m4v,6.0
2024-02-27 16:07:54.285900,1709046474.2859,-28.3203125,-29.296875,-26.3671875,-18.06640625,-1.0,1.0,0.0,1.0,8.m4v,6.0
2024-02-27 16:07:54.289805,1709046474.2898054,-19.04296875,-35.15625,-30.2734375,-29.78515625,-1.0,1.0,0.0,1.0,8.m4v,6.0
2024-02-27 16:07:54.289805,1709046474.2898054,-19.04296875,-35.15625,-30.2734375,-29.78515625,-1.0,1.0,0.0,1.0,8.m4v,6.0
2024-02-27 16:07:54.293711,1709046474.2937107,-27.34375,-39.0625,-37.59765625,-49.8046875,-1.0,1.0,0.0,1.0,8.m4v,6.0
2024-02-27 16:07:54.293711,1709046474.2937107,-27.34375,-39.0625,-37.59765625,-49.8046875,-1.0,1.0,0.0,1.0,8.m4v,6.0
2024-02-27 16:07:54.297616,1709046474.2976162,-55.17578125,-32.71484375,-41.9921875,-49.31640625,-1.0,1.0,0.0,1.0,8.m4v,6.0
2024-02-27 16:07:54.297616,1709046474.2976162,-55.17578125,-32.71484375,-41.9921875,-49.31640625,-1.0,1.0,0.0,1.0,8.m4v,6.0
2024-02-27 16:07:54.301530,1709046474.30153,-69.3359375,-30.2734375,-33.69140625,-31.25,-1.0,1.0,0.0,1.0,8.m4v,6.0
2024-02-27 16:07:54.301530,1709046474.30153,-69.3359375,-30.2734375,-33.69140625,-31.25,-1.0,1.0,0.0,1.0,8.m4v,6.0
2024-02-27 16:07:54.305435,1709046474.3054352,-46.38671875,-35.64453125,-28.3203125,-25.390625,-1.0,1.0,0.0,1.0,8.m4v,6.0
2024-02-27 16:07:54.305435,1709046474.3054352,-46.38671875,-35.64453125,-28.3203125,-25.390625,-1.0,1.0,0.0,1.0,8.m4v,6.0
2024-02-27 16:07:54.309341,1709046474.3093407,-24.90234375,-44.921875,-31.25,-35.64453125,-1.0,1.0,0.0,1.0,8.m4v,6.0
2024-02-27 16:07:54.309341,1709046474.3093407,-24.90234375,-44.921875,-31.25,-35.64453125,-1.0,1.0,0.0,1.0,8.m4v,6.0
2024-02-27 16:07:54.313246,1709046474.3132465,-30.2734375,-51.26953125,-24.4140625,-42.96875,-1.0,1.0,0.0,1.0,8.m4v,6.0
2024-02-27 16:07:54.313246,1709046474.3132465,-30.2734375,-51.26953125,-24.4140625,-42.96875,-1.0,1.0,0.0,1.0,8.m4v,6.0
2024-02-27 16:07:54.317152,1709046474.3171518,-59.08203125,-55.6640625,-23.4375,-39.0625,-1.0,1.0,0.0,1.0,8.m4v,6.0
2024-02-27 16:07:54.317152,1709046474.3171518,-59.08203125,-55.6640625,-23.4375,-39.0625,-1.0,1.0,0.0,1.0,8.m4v,6.0
2024-02-27 16:07:54.321057,1709046474.321057,-61.03515625,-42.48046875,-18.5546875,-41.50390625,-1.0,1.0,0.0,1.0,8.m4v,6.0
2024-02-27 16:07:54.321057,1709046474.321057,-61.03515625,-42.48046875,-18.5546875,-41.50390625,-1.0,1.0,0.0,1.0,8.m4v,6.0
2024-02-27 16:07:54.324963,1709046474.3249626,-36.62109375,-37.59765625,-18.06640625,-32.2265625,-1.0,1.0,0.0,1.0,8.m4v,6.0
2024-02-27 16:07:54.324963,1709046474.3249626,-36.62109375,-37.59765625,-18.06640625,-32.2265625,-1.0,1.0,0.0,1.0,8.m4v,6.0
2024-02-27 16:07:54.328868,1709046474.3288682,-26.3671875,-45.41015625,-34.1796875,-29.78515625,-1.0,1.0,0.0,1.0,8.m4v,6.0
2024-02-27 16:07:54.328868,1709046474.3288682,-26.3671875,-45.41015625,-34.1796875,-29.78515625,-1.0,1.0,0.0,1.0,8.m4v,6.0
2024-02-27 16:07:54.332774,1709046474.3327737,-32.71484375,-23.92578125,-36.62109375,-42.48046875,-1.0,1.0,0.0,1.0,8.m4v,6.0
2024-02-27 16:07:54.332774,1709046474.3327737,-32.71484375,-23.92578125,-36.62109375,-42.48046875,-1.0,1.0,0.0,1.0,8.m4v,6.0
2024-02-27 16:07:54.336679,1709046474.3366792,-52.734375,-17.08984375,-29.78515625,-45.41015625,-1.0,1.0,0.0,1.0,8.m4v,6.0
2024-02-27 16:07:54.336679,1709046474.3366792,-52.734375,-17.08984375,-29.78515625,-45.41015625,-1.0,1.0,0.0,1.0,8.m4v,6.0
2024-02-27 16:07:54.340585,1709046474.3405845,-67.87109375,-17.578125,-36.62109375,-43.45703125,-1.0,1.0,0.0,1.0,8.m4v,6.0
2024-02-27 16:07:54.340585,1709046474.3405845,-67.87109375,-17.578125,-36.62109375,-43.45703125,-1.0,1.0,0.0,1.0,8.m4v,6.0
2024-02-27 16:07:54.344490,1709046474.34449,-65.4296875,-21.484375,-46.875,-38.0859375,-1.0,1.0,0.0,1.0,8.m4v,6.0
2024-02-27 16:07:54.344490,1709046474.34449,-65.4296875,-21.484375,-46.875,-38.0859375,-1.0,1.0,0.0,1.0,8.m4v,6.0
2024-02-27 16:07:54.348403,1709046474.3484037,-41.015625,-34.1796875,-47.8515625,-37.109375,-1.0,1.0,0.0,1.0,8.m4v,6.0
2024-02-27 16:07:54.348403,1709046474.3484037,-41.015625,-34.1796875,-47.8515625,-37.109375,-1.0,1.0,0.0,1.0,8.m4v,6.0
2024-02-27 16:07:54.352309,1709046474.3523088,-30.76171875,-36.1328125,-46.875,-47.36328125,-1.0,1.0,0.0,1.0,8.m4v,6.0
2024-02-27 16:07:54.352309,1709046474.3523088,-30.76171875,-36.1328125,-46.875,-47.36328125,-1.0,1.0,0.0,1.0,8.m4v,6.0
2024-02-27 16:07:54.356214,1709046474.3562143,-42.96875,-34.1796875,-39.55078125,-47.8515625,-1.0,1.0,0.0,1.0,8.m4v,6.0
2024-02-27 16:07:54.356214,1709046474.3562143,-42.96875,-34.1796875,-39.55078125,-47.8515625,-1.0,1.0,0.0,1.0,8.m4v,6.0
2024-02-27 16:07:54.360120,1709046474.3601198,-73.2421875,-34.1796875,-32.71484375,-36.62109375,-1.0,1.0,0.0,1.0,8.m4v,6.0
2024-02-27 16:07:54.360120,1709046474.3601198,-73.2421875,-34.1796875,-32.71484375,-36.62109375,-1.0,1.0,0.0,1.0,8.m4v,6.0
2024-02-27 16:07:54.364025,1709046474.3640254,-61.5234375,-33.69140625,-32.2265625,-37.59765625,-1.0,1.0,0.0,1.0,8.m4v,6.0
2024-02-27 16:07:54.364025,1709046474.3640254,-61.5234375,-33.69140625,-32.2265625,-37.59765625,-1.0,1.0,0.0,1.0,8.m4v,6.0
2024-02-27 16:07:54.367931,1709046474.367931,-17.08984375,-40.0390625,-22.4609375,-44.921875,-1.0,1.0,0.0,1.0,8.m4v,6.0
2024-02-27 16:07:54.367931,1709046474.367931,-17.08984375,-40.0390625,-22.4609375,-44.921875,-1.0,1.0,0.0,1.0,8.m4v,6.0
2024-02-27 16:07:54.371836,1709046474.3718362,-0.48828125,-52.734375,-22.94921875,-41.015625,-1.0,1.0,0.0,1.0,8.m4v,6.0
2024-02-27 16:07:54.371836,1709046474.3718362,-0.48828125,-52.734375,-22.94921875,-41.015625,-1.0,1.0,0.0,1.0,8.m4v,6.0
2024-02-27 16:07:54.375742,1709046474.3757415,-27.34375,-45.41015625,-31.25,-37.109375,-1.0,1.0,0.0,1.0,8.m4v,6.0
2024-02-27 16:07:54.375742,1709046474.3757415,-27.34375,-45.41015625,-31.25,-37.109375,-1.0,1.0,0.0,1.0,8.m4v,6.0
2024-02-27 16:07:54.379647,1709046474.3796473,-68.84765625,-33.203125,-27.83203125,-39.55078125,-1.0,1.0,0.0,1.0,8.m4v,6.0
2024-02-27 16:07:54.379647,1709046474.3796473,-68.84765625,-33.203125,-27.83203125,-39.55078125,-1.0,1.0,0.0,1.0,8.m4v,6.0
2024-02-27 16:07:54.383553,1709046474.3835528,-64.94140625,-28.80859375,-31.25,-30.2734375,-1.0,1.0,0.0,1.0,8.m4v,6.0
2024-02-27 16:07:54.383553,1709046474.3835528,-64.94140625,-28.80859375,-31.25,-30.2734375,-1.0,1.0,0.0,1.0,8.m4v,6.0
2024-02-27 16:07:54.387458,1709046474.387458,-38.0859375,-31.25,-42.48046875,-41.50390625,-1.0,1.0,0.0,1.0,8.m4v,6.0
2024-02-27 16:07:54.387458,1709046474.387458,-38.0859375,-31.25,-42.48046875,-41.50390625,-1.0,1.0,0.0,1.0,8.m4v,6.0
2024-02-27 16:07:54.391364,1709046474.3913636,-24.4140625,-34.1796875,-45.8984375,-62.5,-1.0,1.0,0.0,1.0,8.m4v,6.0
2024-02-27 16:07:54.391364,1709046474.3913636,-24.4140625,-34.1796875,-45.8984375,-62.5,-1.0,1.0,0.0,1.0,8.m4v,6.0
2024-02-27 16:07:54.395276,1709046474.3952763,-41.50390625,-30.76171875,-49.31640625,-48.33984375,-1.0,1.0,0.0,1.0,8.m4v,6.0
2024-02-27 16:07:54.395276,1709046474.3952763,-41.50390625,-30.76171875,-49.31640625,-48.33984375,-1.0,1.0,0.0,1.0,8.m4v,6.0
2024-02-27 16:07:54.399182,1709046474.3991818,-69.3359375,-28.80859375,-50.78125,-35.15625,-1.0,1.0,0.0,1.0,8.m4v,6.0
2024-02-27 16:07:54.399182,1709046474.3991818,-69.3359375,-28.80859375,-50.78125,-35.15625,-1.0,1.0,0.0,1.0,8.m4v,6.0
2024-02-27 16:07:54.403087,1709046474.4030874,-57.12890625,-34.66796875,-41.015625,-31.25,-1.0,1.0,0.0,1.0,8.m4v,6.0
2024-02-27 16:07:54.403087,1709046474.4030874,-57.12890625,-34.66796875,-41.015625,-31.25,-1.0,1.0,0.0,1.0,8.m4v,6.0
2024-02-27 16:07:54.406993,1709046474.406993,-19.53125,-41.9921875,-21.97265625,-34.1796875,-1.0,1.0,0.0,1.0,8.m4v,6.0
2024-02-27 16:07:54.406993,1709046474.406993,-19.53125,-41.9921875,-21.97265625,-34.1796875,-1.0,1.0,0.0,1.0,8.m4v,6.0
2024-02-27 16:07:54.410898,1709046474.4108984,-5.859375,-37.109375,-23.4375,-43.45703125,-1.0,1.0,0.0,1.0,8.m4v,6.0
2024-02-27 16:07:54.410898,1709046474.4108984,-5.859375,-37.109375,-23.4375,-43.45703125,-1.0,1.0,0.0,1.0,8.m4v,6.0
2024-02-27 16:07:54.414804,1709046474.4148035,-15.13671875,-30.2734375,-27.83203125,-41.9921875,-1.0,1.0,0.0,1.0,8.m4v,6.0
2024-02-27 16:07:54.414804,1709046474.4148035,-15.13671875,-30.2734375,-27.83203125,-41.9921875,-1.0,1.0,0.0,1.0,8.m4v,6.0
2024-02-27 16:07:54.418709,1709046474.4187093,-51.7578125,-26.3671875,-29.296875,-43.45703125,-1.0,1.0,0.0,1.0,8.m4v,6.0
2024-02-27 16:07:54.418709,1709046474.4187093,-51.7578125,-26.3671875,-29.296875,-43.45703125,-1.0,1.0,0.0,1.0,8.m4v,6.0
2024-02-27 16:07:54.422615,1709046474.4226148,-68.359375,-29.78515625,-41.50390625,-45.8984375,-1.0,1.0,0.0,1.0,8.m4v,6.0
2024-02-27 16:07:54.422615,1709046474.4226148,-68.359375,-29.78515625,-41.50390625,-45.8984375,-1.0,1.0,0.0,1.0,8.m4v,6.0
2024-02-27 16:07:54.426520,1709046474.4265203,-41.50390625,-37.109375,-37.59765625,-36.62109375,-1.0,1.0,0.0,1.0,8.m4v,6.0
2024-02-27 16:07:54.426520,1709046474.4265203,-41.50390625,-37.109375,-37.59765625,-36.62109375,-1.0,1.0,0.0,1.0,8.m4v,6.0
2024-02-27 16:07:54.430426,1709046474.4304256,-24.4140625,-39.0625,-28.80859375,-33.203125,-1.0,1.0,0.0,1.0,8.m4v,6.0
2024-02-27 16:07:54.430426,1709046474.4304256,-24.4140625,-39.0625,-28.80859375,-33.203125,-1.0,1.0,0.0,1.0,8.m4v,6.0
2024-02-27 16:07:54.434331,1709046474.4343312,-38.0859375,-37.59765625,-20.5078125,-41.50390625,-1.0,1.0,0.0,1.0,8.m4v,6.0
2024-02-27 16:07:54.434331,1709046474.4343312,-38.0859375,-37.59765625,-20.5078125,-41.50390625,-1.0,1.0,0.0,1.0,8.m4v,6.0
2024-02-27 16:07:54.438237,1709046474.4382367,-63.96484375,-31.73828125,-17.08984375,-40.52734375,-1.0,1.0,0.0,1.0,8.m4v,6.0
2024-02-27 16:07:54.438237,1709046474.4382367,-63.96484375,-31.73828125,-17.08984375,-40.52734375,-1.0,1.0,0.0,1.0,8.m4v,6.0
2024-02-27 16:07:54.442149,1709046474.4421492,-72.75390625,-30.2734375,-27.83203125,-34.1796875,-1.0,1.0,0.0,1.0,8.m4v,6.0
2024-02-27 16:07:54.442149,1709046474.4421492,-72.75390625,-30.2734375,-27.83203125,-34.1796875,-1.0,1.0,0.0,1.0,8.m4v,6.0
2024-02-27 16:07:54.446054,1709046474.4460545,-39.0625,-30.2734375,-34.66796875,-29.296875,-1.0,1.0,0.0,1.0,8.m4v,6.0
2024-02-27 16:07:54.446054,1709046474.4460545,-39.0625,-30.2734375,-34.66796875,-29.296875,-1.0,1.0,0.0,1.0,8.m4v,6.0
2024-02-27 16:07:54.449960,1709046474.44996,-22.4609375,-31.73828125,-41.9921875,-34.1796875,-1.0,1.0,0.0,1.0,8.m4v,6.0
2024-02-27 16:07:54.449960,1709046474.44996,-22.4609375,-31.73828125,-41.9921875,-34.1796875,-1.0,1.0,0.0,1.0,8.m4v,6.0
2024-02-27 16:07:54.453866,1709046474.4538655,-29.296875,-27.34375,-45.41015625,-39.55078125,-1.0,1.0,0.0,1.0,8.m4v,6.0
2024-02-27 16:07:54.453866,1709046474.4538655,-29.296875,-27.34375,-45.41015625,-39.55078125,-1.0,1.0,0.0,1.0,8.m4v,6.0
2024-02-27 16:07:54.457771,1709046474.457771,-38.0859375,-27.83203125,-25.390625,-35.64453125,-1.0,1.0,0.0,1.0,8.m4v,6.0
2024-02-27 16:07:54.457771,1709046474.457771,-38.0859375,-27.83203125,-25.390625,-35.64453125,-1.0,1.0,0.0,1.0,8.m4v,6.0
2024-02-27 16:07:54.461676,1709046474.4616764,-54.6875,-27.34375,-17.578125,-36.1328125,-1.0,1.0,0.0,1.0,8.m4v,6.0
2024-02-27 16:07:54.461676,1709046474.4616764,-54.6875,-27.34375,-17.578125,-36.1328125,-1.0,1.0,0.0,1.0,8.m4v,6.0
2024-02-27 16:07:54.465582,1709046474.465582,-24.90234375,-29.296875,-26.85546875,-32.71484375,-1.0,1.0,0.0,1.0,8.m4v,6.0
2024-02-27 16:07:54.465582,1709046474.465582,-24.90234375,-29.296875,-26.85546875,-32.71484375,-1.0,1.0,0.0,1.0,8.m4v,6.0
2024-02-27 16:07:54.469487,1709046474.4694874,6.34765625,-38.0859375,-37.109375,-32.71484375,-1.0,1.0,0.0,1.0,8.m4v,6.0
2024-02-27 16:07:54.469487,1709046474.4694874,6.34765625,-38.0859375,-37.109375,-32.71484375,-1.0,1.0,0.0,1.0,8.m4v,6.0
2024-02-27 16:07:54.473393,1709046474.473393,-9.765625,-32.2265625,-46.875,-48.33984375,-1.0,1.0,0.0,1.0,8.m4v,6.0
2024-02-27 16:07:54.473393,1709046474.473393,-9.765625,-32.2265625,-46.875,-48.33984375,-1.0,1.0,0.0,1.0,8.m4v,6.0
2024-02-27 16:07:54.477298,1709046474.4772985,-36.62109375,-22.4609375,-46.875,-44.921875,-1.0,1.0,0.0,1.0,8.m4v,6.0
2024-02-27 16:07:54.477298,1709046474.4772985,-36.62109375,-22.4609375,-46.875,-44.921875,-1.0,1.0,0.0,1.0,8.m4v,6.0
2024-02-27 16:07:54.481204,1709046474.4812038,-68.84765625,-25.87890625,-41.015625,-30.76171875,-1.0,1.0,0.0,1.0,8.m4v,6.0
2024-02-27 16:07:54.481204,1709046474.4812038,-68.84765625,-25.87890625,-41.015625,-30.76171875,-1.0,1.0,0.0,1.0,8.m4v,6.0
2024-02-27 16:07:54.485109,1709046474.485109,-71.77734375,-43.9453125,-33.69140625,-36.1328125,-1.0,1.0,0.0,1.0,8.m4v,6.0
2024-02-27 16:07:54.485109,1709046474.485109,-71.77734375,-43.9453125,-33.69140625,-36.1328125,-1.0,1.0,0.0,1.0,8.m4v,6.0
2024-02-27 16:07:54.489021,1709046474.489021,-32.71484375,-46.875,-29.296875,-34.1796875,-1.0,1.0,0.0,1.0,8.m4v,6.0
2024-02-27 16:07:54.489021,1709046474.489021,-32.71484375,-46.875,-29.296875,-34.1796875,-1.0,1.0,0.0,1.0,8.m4v,6.0
2024-02-27 16:07:54.492927,1709046474.4929266,-26.85546875,-32.71484375,-28.80859375,-40.52734375,-1.0,1.0,0.0,1.0,8.m4v,6.0
2024-02-27 16:07:54.492927,1709046474.4929266,-26.85546875,-32.71484375,-28.80859375,-40.52734375,-1.0,1.0,0.0,1.0,8.m4v,6.0
2024-02-27 16:07:54.496832,1709046474.496832,-61.03515625,-28.3203125,-16.6015625,-47.8515625,-1.0,1.0,0.0,1.0,8.m4v,6.0
2024-02-27 16:07:54.496832,1709046474.496832,-61.03515625,-28.3203125,-16.6015625,-47.8515625,-1.0,1.0,0.0,1.0,8.m4v,6.0
2024-02-27 16:07:54.500738,1709046474.5007377,-77.63671875,-27.34375,-15.625,-30.76171875,-1.0,1.0,0.0,1.0,8.m4v,6.0
2024-02-27 16:07:54.500738,1709046474.5007377,-77.63671875,-27.34375,-15.625,-30.76171875,-1.0,1.0,0.0,1.0,8.m4v,6.0
2024-02-27 16:07:54.504643,1709046474.504643,-56.15234375,-25.87890625,-38.57421875,-19.04296875,-1.0,1.0,0.0,1.0,8.m4v,6.0
2024-02-27 16:07:54.504643,1709046474.504643,-56.15234375,-25.87890625,-38.57421875,-19.04296875,-1.0,1.0,0.0,1.0,8.m4v,6.0
2024-02-27 16:07:54.508548,1709046474.5085485,-23.4375,-28.3203125,-51.7578125,-24.90234375,-1.0,1.0,0.0,1.0,8.m4v,6.0
2024-02-27 16:07:54.508548,1709046474.5085485,-23.4375,-28.3203125,-51.7578125,-24.90234375,-1.0,1.0,0.0,1.0,8.m4v,6.0
2024-02-27 16:07:54.512454,1709046474.512454,-15.13671875,-36.62109375,-42.48046875,-39.55078125,-1.0,1.0,0.0,1.0,8.m4v,6.0
2024-02-27 16:07:54.512454,1709046474.512454,-15.13671875,-36.62109375,-42.48046875,-39.55078125,-1.0,1.0,0.0,1.0,8.m4v,6.0
2024-02-27 16:07:54.516360,1709046474.5163596,-49.31640625,-40.0390625,-36.62109375,-48.828125,-1.0,1.0,0.0,1.0,8.m4v,6.0
2024-02-27 16:07:54.516360,1709046474.5163596,-49.31640625,-40.0390625,-36.62109375,-48.828125,-1.0,1.0,0.0,1.0,8.m4v,6.0
2024-02-27 16:07:54.520265,1709046474.5202649,-84.47265625,-34.66796875,-38.57421875,-46.875,-1.0,1.0,0.0,1.0,8.m4v,6.0
2024-02-27 16:07:54.520265,1709046474.5202649,-84.47265625,-34.66796875,-38.57421875,-46.875,-1.0,1.0,0.0,1.0,8.m4v,6.0
2024-02-27 16:07:54.524170,1709046474.5241704,-68.84765625,-34.66796875,-38.0859375,-40.52734375,-1.0,1.0,0.0,1.0,8.m4v,6.0
2024-02-27 16:07:54.524170,1709046474.5241704,-68.84765625,-34.66796875,-38.0859375,-40.52734375,-1.0,1.0,0.0,1.0,8.m4v,6.0
2024-02-27 16:07:54.528076,1709046474.528076,-32.71484375,-43.45703125,-30.2734375,-39.55078125,-1.0,1.0,0.0,1.0,8.m4v,6.0
2024-02-27 16:07:54.528076,1709046474.528076,-32.71484375,-43.45703125,-30.2734375,-39.55078125,-1.0,1.0,0.0,1.0,8.m4v,6.0
2024-02-27 16:07:54.531981,1709046474.5319817,-23.4375,-35.15625,-31.25,-46.875,-1.0,1.0,0.0,1.0,8.m4v,6.0
2024-02-27 16:07:54.531981,1709046474.5319817,-23.4375,-35.15625,-31.25,-46.875,-1.0,1.0,0.0,1.0,8.m4v,6.0
2024-02-27 16:07:54.535893,1709046474.535893,-43.45703125,-30.2734375,-33.203125,-49.31640625,-1.0,1.0,0.0,1.0,8.m4v,6.0
2024-02-27 16:07:54.535893,1709046474.535893,-43.45703125,-30.2734375,-33.203125,-49.31640625,-1.0,1.0,0.0,1.0,8.m4v,6.0
2024-02-27 16:07:54.539798,1709046474.5397985,-71.77734375,-37.109375,-22.4609375,-51.26953125,-1.0,1.0,0.0,1.0,8.m4v,6.0
2024-02-27 16:07:54.539798,1709046474.5397985,-71.77734375,-37.109375,-22.4609375,-51.26953125,-1.0,1.0,0.0,1.0,8.m4v,6.0
2024-02-27 16:07:54.543704,1709046474.543704,-65.91796875,-38.57421875,-26.85546875,-49.8046875,-1.0,1.0,0.0,1.0,8.m4v,6.0
2024-02-27 16:07:54.543704,1709046474.543704,-65.91796875,-38.57421875,-26.85546875,-49.8046875,-1.0,1.0,0.0,1.0,8.m4v,6.0
2024-02-27 16:07:54.547609,1709046474.547609,-31.25,-40.52734375,-33.203125,-44.43359375,-1.0,1.0,0.0,1.0,8.m4v,6.0
2024-02-27 16:07:54.547609,1709046474.547609,-31.25,-40.52734375,-33.203125,-44.43359375,-1.0,1.0,0.0,1.0,8.m4v,6.0
2024-02-27 16:07:54.551515,1709046474.5515149,-16.11328125,-39.0625,-25.87890625,-52.24609375,-1.0,1.0,0.0,1.0,8.m4v,6.0
2024-02-27 16:07:54.551515,1709046474.5515149,-16.11328125,-39.0625,-25.87890625,-52.24609375,-1.0,1.0,0.0,1.0,8.m4v,6.0
2024-02-27 16:07:54.555420,1709046474.5554204,-29.296875,-36.1328125,-39.0625,-57.12890625,-1.0,1.0,0.0,1.0,8.m4v,6.0
2024-02-27 16:07:54.555420,1709046474.5554204,-29.296875,-36.1328125,-39.0625,-57.12890625,-1.0,1.0,0.0,1.0,8.m4v,6.0
2024-02-27 16:07:54.559326,1709046474.559326,-65.4296875,-36.62109375,-51.7578125,-53.22265625,-1.0,1.0,0.0,1.0,8.m4v,6.0
2024-02-27 16:07:54.559326,1709046474.559326,-65.4296875,-36.62109375,-51.7578125,-53.22265625,-1.0,1.0,0.0,1.0,8.m4v,6.0
2024-02-27 16:07:54.563231,1709046474.5632317,-77.63671875,-39.0625,-42.48046875,-48.33984375,-1.0,1.0,0.0,1.0,8.m4v,6.0
2024-02-27 16:07:54.563231,1709046474.5632317,-77.63671875,-39.0625,-42.48046875,-48.33984375,-1.0,1.0,0.0,1.0,8.m4v,6.0
2024-02-27 16:07:54.567137,1709046474.5671368,-32.2265625,-29.78515625,-34.1796875,-36.1328125,-1.0,1.0,0.0,1.0,8.m4v,6.0
2024-02-27 16:07:54.567137,1709046474.5671368,-32.2265625,-29.78515625,-34.1796875,-36.1328125,-1.0,1.0,0.0,1.0,8.m4v,6.0
2024-02-27 16:07:54.571042,1709046474.5710423,-14.16015625,-30.76171875,-38.57421875,-39.0625,-1.0,1.0,0.0,1.0,8.m4v,6.0
2024-02-27 16:07:54.571042,1709046474.5710423,-14.16015625,-30.76171875,-38.57421875,-39.0625,-1.0,1.0,0.0,1.0,8.m4v,6.0
2024-02-27 16:07:54.574948,1709046474.5749478,-41.015625,-39.55078125,-34.1796875,-56.15234375,-1.0,1.0,0.0,1.0,8.m4v,6.0
2024-02-27 16:07:54.574948,1709046474.5749478,-41.015625,-39.55078125,-34.1796875,-56.15234375,-1.0,1.0,0.0,1.0,8.m4v,6.0
2024-02-27 16:07:54.578853,1709046474.5788534,-67.87109375,-38.57421875,-30.76171875,-53.22265625,-1.0,1.0,0.0,1.0,8.m4v,6.0
2024-02-27 16:07:54.578853,1709046474.5788534,-67.87109375,-38.57421875,-30.76171875,-53.22265625,-1.0,1.0,0.0,1.0,8.m4v,6.0
2024-02-27 16:07:54.582765,1709046474.5827649,-75.1953125,-26.3671875,-41.015625,-39.55078125,-1.0,1.0,0.0,1.0,8.m4v,6.0
2024-02-27 16:07:54.582765,1709046474.5827649,-75.1953125,-26.3671875,-41.015625,-39.55078125,-1.0,1.0,0.0,1.0,8.m4v,6.0
2024-02-27 16:07:54.586670,1709046474.5866704,-41.50390625,-25.87890625,-38.0859375,-29.296875,-1.0,1.0,0.0,1.0,8.m4v,6.0
2024-02-27 16:07:54.586670,1709046474.5866704,-41.50390625,-25.87890625,-38.0859375,-29.296875,-1.0,1.0,0.0,1.0,8.m4v,6.0
2024-02-27 16:07:54.590576,1709046474.5905757,-19.53125,-34.1796875,-30.76171875,-33.69140625,-1.0,1.0,0.0,1.0,8.m4v,6.0
2024-02-27 16:07:54.590576,1709046474.5905757,-19.53125,-34.1796875,-30.76171875,-33.69140625,-1.0,1.0,0.0,1.0,8.m4v,6.0
2024-02-27 16:07:54.594481,1709046474.5944812,-36.1328125,-34.1796875,-26.3671875,-44.43359375,-1.0,1.0,0.0,1.0,8.m4v,6.0
2024-02-27 16:07:54.594481,1709046474.5944812,-36.1328125,-34.1796875,-26.3671875,-44.43359375,-1.0,1.0,0.0,1.0,8.m4v,6.0
2024-02-27 16:07:54.598387,1709046474.5983868,-65.4296875,-33.69140625,-27.83203125,-42.48046875,-1.0,1.0,0.0,1.0,8.m4v,6.0
2024-02-27 16:07:54.598387,1709046474.5983868,-65.4296875,-33.69140625,-27.83203125,-42.48046875,-1.0,1.0,0.0,1.0,8.m4v,6.0
2024-02-27 16:07:54.602292,1709046474.6022923,-65.4296875,-37.59765625,-32.71484375,-39.0625,-1.0,1.0,0.0,1.0,8.m4v,6.0
2024-02-27 16:07:54.602292,1709046474.6022923,-65.4296875,-37.59765625,-32.71484375,-39.0625,-1.0,1.0,0.0,1.0,8.m4v,6.0
2024-02-27 16:07:54.606198,1709046474.6061976,-35.15625,-48.828125,-31.25,-44.921875,-1.0,1.0,0.0,1.0,8.m4v,6.0
2024-02-27 16:07:54.606198,1709046474.6061976,-35.15625,-48.828125,-31.25,-44.921875,-1.0,1.0,0.0,1.0,8.m4v,6.0
2024-02-27 16:07:54.610103,1709046474.6101031,-17.578125,-43.45703125,-37.109375,-41.50390625,-1.0,1.0,0.0,1.0,8.m4v,6.0
2024-02-27 16:07:54.610103,1709046474.6101031,-17.578125,-43.45703125,-37.109375,-41.50390625,-1.0,1.0,0.0,1.0,8.m4v,6.0
2024-02-27 16:07:54.614009,1709046474.614009,-27.34375,-30.2734375,-38.57421875,-31.25,-1.0,1.0,0.0,1.0,8.m4v,6.0
2024-02-27 16:07:54.614009,1709046474.614009,-27.34375,-30.2734375,-38.57421875,-31.25,-1.0,1.0,0.0,1.0,8.m4v,6.0
2024-02-27 16:07:54.617914,1709046474.6179142,-53.22265625,-25.87890625,-40.52734375,-32.2265625,-1.0,1.0,0.0,1.0,8.m4v,6.0
2024-02-27 16:07:54.617914,1709046474.6179142,-53.22265625,-25.87890625,-40.52734375,-32.2265625,-1.0,1.0,0.0,1.0,8.m4v,6.0
2024-02-27 16:07:54.621820,1709046474.6218195,-66.40625,-24.4140625,-45.8984375,-39.55078125,-1.0,1.0,0.0,1.0,8.m4v,6.0
2024-02-27 16:07:54.621820,1709046474.6218195,-66.40625,-24.4140625,-45.8984375,-39.55078125,-1.0,1.0,0.0,1.0,8.m4v,6.0
2024-02-27 16:07:54.625725,1709046474.625725,-42.96875,-29.296875,-32.71484375,-36.62109375,-1.0,1.0,0.0,1.0,8.m4v,6.0
2024-02-27 16:07:54.625725,1709046474.625725,-42.96875,-29.296875,-32.71484375,-36.62109375,-1.0,1.0,0.0,1.0,8.m4v,6.0
2024-02-27 16:07:54.629636,1709046474.629636,-7.32421875,-30.76171875,-19.04296875,-29.78515625,-1.0,1.0,0.0,1.0,8.m4v,6.0
2024-02-27 16:07:54.629636,1709046474.629636,-7.32421875,-30.76171875,-19.04296875,-29.78515625,-1.0,1.0,0.0,1.0,8.m4v,6.0
2024-02-27 16:07:54.633542,1709046474.6335416,-5.37109375,-30.76171875,-19.04296875,-37.109375,-1.0,1.0,0.0,1.0,8.m4v,6.0
2024-02-27 16:07:54.633542,1709046474.6335416,-5.37109375,-30.76171875,-19.04296875,-37.109375,-1.0,1.0,0.0,1.0,8.m4v,6.0
2024-02-27 16:07:54.637447,1709046474.6374469,-43.45703125,-32.71484375,-31.25,-46.38671875,-1.0,1.0,0.0,1.0,8.m4v,6.0
2024-02-27 16:07:54.637447,1709046474.6374469,-43.45703125,-32.71484375,-31.25,-46.38671875,-1.0,1.0,0.0,1.0,8.m4v,6.0
2024-02-27 16:07:54.641352,1709046474.6413524,-75.1953125,-30.76171875,-48.828125,-44.921875,-1.0,1.0,0.0,1.0,8.m4v,6.0
2024-02-27 16:07:54.641352,1709046474.6413524,-75.1953125,-30.76171875,-48.828125,-44.921875,-1.0,1.0,0.0,1.0,8.m4v,6.0
2024-02-27 16:07:54.645258,1709046474.645258,-43.45703125,-30.2734375,-38.57421875,-34.1796875,-1.0,1.0,0.0,1.0,8.m4v,6.0
2024-02-27 16:07:54.645258,1709046474.645258,-43.45703125,-30.2734375,-38.57421875,-34.1796875,-1.0,1.0,0.0,1.0,8.m4v,6.0
2024-02-27 16:07:54.649163,1709046474.6491635,-0.9765625,-41.9921875,-20.01953125,-28.3203125,-1.0,1.0,0.0,1.0,8.m4v,6.0
2024-02-27 16:07:54.649163,1709046474.6491635,-0.9765625,-41.9921875,-20.01953125,-28.3203125,-1.0,1.0,0.0,1.0,8.m4v,6.0
2024-02-27 16:07:54.653069,1709046474.653069,-17.578125,-47.36328125,-25.87890625,-44.43359375,-1.0,1.0,0.0,1.0,8.m4v,6.0
2024-02-27 16:07:54.656974,1709046474.6569743,-67.87109375,-33.69140625,-32.2265625,-55.17578125,-1.0,1.0,0.0,1.0,8.m4v,6.0
2024-02-27 16:07:54.660880,1709046474.66088,-80.078125,-27.83203125,-26.3671875,-44.921875,-1.0,1.0,0.0,1.0,8.m4v,6.0
2024-02-27 16:07:54.664785,1709046474.6647854,-47.36328125,-36.62109375,-27.83203125,-37.109375,-1.0,1.0,0.0,1.0,8.m4v,6.0
2024-02-27 16:07:54.668691,1709046474.668691,-15.13671875,-35.15625,-29.78515625,-27.83203125,-1.0,1.0,0.0,1.0,8.m4v,6.0
2024-02-27 16:07:54.672596,1709046474.6725962,-3.90625,-34.66796875,-35.15625,-26.3671875,-1.0,1.0,0.0,1.0,8.m4v,6.0
2024-02-27 16:07:54.676510,1709046474.67651,-21.97265625,-43.9453125,-37.109375,-35.64453125,-1.0,1.0,0.0,1.0,8.m4v,6.0
2024-02-27 16:07:55.098360,1709046475.09836,-53.22265625,-19.04296875,-29.296875,-43.9453125,-1.0,1.0,0.0,1.0,8.m4v,6.0
2024-02-27 16:07:55.102265,1709046475.1022654,-43.9453125,-17.578125,-22.94921875,-27.34375,-1.0,1.0,0.0,1.0,8.m4v,6.0
2024-02-27 16:07:55.106171,1709046475.106171,-18.5546875,-28.3203125,-27.34375,-21.97265625,-1.0,1.0,0.0,1.0,8.m4v,6.0
2024-02-27 16:07:55.110076,1709046475.1100764,-17.578125,-39.0625,-34.66796875,-32.71484375,-1.0,1.0,0.0,1.0,8.m4v,6.0
2024-02-27 16:07:55.113982,1709046475.113982,-18.5546875,-41.9921875,-38.57421875,-41.50390625,-1.0,1.0,0.0,1.0,8.m4v,6.0
2024-02-27 16:07:55.117887,1709046475.1178875,-29.296875,-36.62109375,-41.015625,-35.64453125,-1.0,1.0,0.0,1.0,8.m4v,6.0
2024-02-27 16:07:55.121793,1709046475.1217928,-39.55078125,-33.69140625,-45.8984375,-24.90234375,-1.0,1.0,0.0,1.0,8.m4v,6.0
2024-02-27 16:07:55.125698,1709046475.1256983,-24.4140625,-32.71484375,-48.828125,-30.76171875,-1.0,1.0,0.0,1.0,8.m4v,6.0
2024-02-27 16:07:55.129604,1709046475.129604,-2.9296875,-28.80859375,-38.57421875,-36.62109375,-1.0,1.0,0.0,1.0,8.m4v,6.0
2024-02-27 16:07:55.133509,1709046475.1335094,-17.578125,-29.78515625,-29.296875,-44.921875,-1.0,1.0,0.0,1.0,8.m4v,6.0
2024-02-27 16:07:55.137415,1709046475.1374147,-51.7578125,-34.1796875,-38.0859375,-47.8515625,-1.0,1.0,0.0,1.0,8.m4v,6.0
2024-02-27 16:07:55.141320,1709046475.1413202,-64.94140625,-37.59765625,-53.7109375,-46.38671875,-1.0,1.0,0.0,1.0,8.m4v,6.0
2024-02-27 16:07:55.145233,1709046475.145233,-34.1796875,-33.69140625,-43.45703125,-40.0390625,-1.0,1.0,0.0,1.0,8.m4v,6.0
2024-02-27 16:07:55.149138,1709046475.1491385,-8.7890625,-23.4375,-36.62109375,-28.3203125,-1.0,1.0,0.0,1.0,8.m4v,6.0
2024-02-27 16:07:55.153044,1709046475.153044,-11.71875,-27.83203125,-37.109375,-37.109375,-1.0,1.0,0.0,1.0,8.m4v,6.0
2024-02-27 16:07:55.156950,1709046475.1569495,-28.3203125,-26.85546875,-39.0625,-45.41015625,-1.0,1.0,0.0,1.0,8.m4v,6.0
2024-02-27 16:07:55.160855,1709046475.160855,-47.36328125,-26.3671875,-39.55078125,-35.15625,-1.0,1.0,0.0,1.0,8.m4v,6.0
2024-02-27 16:07:55.164760,1709046475.1647604,-21.484375,-34.66796875,-38.0859375,-27.83203125,-1.0,1.0,0.0,1.0,8.m4v,6.0
2024-02-27 16:07:55.168666,1709046475.168666,-0.48828125,-34.1796875,-43.45703125,-32.71484375,-1.0,1.0,0.0,1.0,8.m4v,6.0
2024-02-27 16:07:55.172571,1709046475.1725714,-8.7890625,-28.3203125,-41.50390625,-33.203125,-1.0,1.0,0.0,1.0,8.m4v,6.0
2024-02-27 16:07:55.176477,1709046475.176477,-21.484375,-31.73828125,-31.73828125,-33.203125,-1.0,1.0,0.0,1.0,8.m4v,6.0
2024-02-27 16:07:55.180382,1709046475.1803825,-52.24609375,-32.2265625,-23.92578125,-33.69140625,-1.0,1.0,0.0,1.0,8.m4v,6.0
2024-02-27 16:07:55.184288,1709046475.1842878,-43.9453125,-34.1796875,-22.94921875,-25.87890625,-1.0,1.0,0.0,1.0,8.m4v,6.0
2024-02-27 16:07:55.188193,1709046475.188193,-10.7421875,-32.71484375,-33.203125,-35.64453125,-1.0,1.0,0.0,1.0,8.m4v,6.0
2024-02-27 16:07:55.192106,1709046475.1921055,-10.25390625,-29.296875,-45.41015625,-46.38671875,-1.0,1.0,0.0,1.0,8.m4v,6.0
2024-02-27 16:07:55.196011,1709046475.196011,-27.34375,-35.64453125,-46.875,-37.109375,-1.0,1.0,0.0,1.0,8.m4v,6.0
2024-02-27 16:07:55.199917,1709046475.1999166,-53.22265625,-40.0390625,-37.59765625,-48.33984375,-1.0,1.0,0.0,1.0,8.m4v,6.0
2024-02-27 16:07:55.203822,1709046475.203822,-44.921875,-36.62109375,-33.69140625,-51.7578125,-1.0,1.0,0.0,1.0,8.m4v,6.0
2024-02-27 16:07:55.207728,1709046475.2077277,-25.87890625,-27.83203125,-32.2265625,-34.66796875,-1.0,1.0,0.0,1.0,8.m4v,6.0
2024-02-27 16:07:55.211633,1709046475.211633,-23.4375,-19.53125,-25.87890625,-36.1328125,-1.0,1.0,0.0,1.0,8.m4v,6.0
2024-02-27 16:07:55.215539,1709046475.2155385,-18.5546875,-20.99609375,-17.578125,-39.0625,-1.0,1.0,0.0,1.0,8.m4v,6.0
2024-02-27 16:07:55.219444,1709046475.219444,-52.24609375,-25.390625,-26.85546875,-31.73828125,-1.0,1.0,0.0,1.0,8.m4v,6.0
2024-02-27 16:07:55.223350,1709046475.2233496,-69.82421875,-31.73828125,-44.921875,-23.92578125,-1.0,1.0,0.0,1.0,8.m4v,6.0
2024-02-27 16:07:55.227255,1709046475.2272549,-41.50390625,-39.0625,-40.52734375,-28.3203125,-1.0,1.0,0.0,1.0,8.m4v,6.0
2024-02-27 16:07:55.231160,1709046475.2311604,-24.4140625,-36.1328125,-38.0859375,-42.48046875,-1.0,1.0,0.0,1.0,8.m4v,6.0
2024-02-27 16:07:55.235066,1709046475.235066,-46.38671875,-35.15625,-38.57421875,-48.828125,-1.0,1.0,0.0,1.0,8.m4v,6.0
2024-02-27 16:07:55.238978,1709046475.238978,-88.37890625,-44.43359375,-24.90234375,-45.8984375,-1.0,1.0,0.0,1.0,8.m4v,6.0
2024-02-27 16:07:55.242883,1709046475.2428834,-70.3125,-38.57421875,-19.04296875,-37.59765625,-1.0,1.0,0.0,1.0,8.m4v,6.0
2024-02-27 16:07:55.246789,1709046475.246789,-26.3671875,-25.87890625,-28.3203125,-28.3203125,-1.0,1.0,0.0,1.0,8.m4v,6.0
2024-02-27 16:07:55.250695,1709046475.2506945,-28.3203125,-24.4140625,-38.0859375,-41.50390625,-1.0,1.0,0.0,1.0,8.m4v,6.0
2024-02-27 16:07:55.254600,1709046475.2545998,-37.109375,-28.3203125,-34.1796875,-49.8046875,-1.0,1.0,0.0,1.0,8.m4v,6.0
2024-02-27 16:07:55.258505,1709046475.258505,-53.7109375,-36.1328125,-33.203125,-44.43359375,-1.0,1.0,0.0,1.0,8.m4v,6.0
2024-02-27 16:07:55.262411,1709046475.2624109,-53.7109375,-32.71484375,-30.2734375,-44.921875,-1.0,1.0,0.0,1.0,8.m4v,6.0
2024-02-27 16:07:55.266316,1709046475.2663164,-28.3203125,-19.53125,-27.34375,-44.43359375,-1.0,1.0,0.0,1.0,8.m4v,6.0
2024-02-27 16:07:55.270222,1709046475.2702217,-11.71875,-23.92578125,-22.94921875,-35.64453125,-1.0,1.0,0.0,1.0,8.m4v,6.0
2024-02-27 16:07:55.274127,1709046475.2741272,-22.4609375,-34.66796875,-25.390625,-40.52734375,-1.0,1.0,0.0,1.0,8.m4v,6.0
2024-02-27 16:07:55.278033,1709046475.2780328,-65.91796875,-36.1328125,-37.59765625,-41.50390625,-1.0,1.0,0.0,1.0,8.m4v,6.0
2024-02-27 16:07:55.281938,1709046475.2819383,-64.94140625,-32.71484375,-36.62109375,-32.2265625,-1.0,1.0,0.0,1.0,8.m4v,6.0
2024-02-27 16:07:55.285850,1709046475.2858498,-29.296875,-23.4375,-31.25,-35.15625,-1.0,1.0,0.0,1.0,8.m4v,6.0
2024-02-27 16:07:55.289755,1709046475.289755,-20.01953125,-27.83203125,-24.4140625,-38.57421875,-1.0,1.0,0.0,1.0,8.m4v,6.0
2024-02-27 16:07:55.293661,1709046475.2936609,-13.671875,-24.4140625,-20.01953125,-27.83203125,-1.0,1.0,0.0,1.0,8.m4v,6.0
2024-02-27 16:07:55.297566,1709046475.2975664,-27.83203125,-20.01953125,-31.25,-23.92578125,-1.0,1.0,0.0,1.0,8.m4v,6.0
2024-02-27 16:07:55.301472,1709046475.3014717,-56.640625,-28.80859375,-37.59765625,-24.4140625,-1.0,1.0,0.0,1.0,8.m4v,6.0
2024-02-27 16:07:55.305377,1709046475.3053772,-39.55078125,-29.296875,-28.80859375,-24.4140625,-1.0,1.0,0.0,1.0,8.m4v,6.0
2024-02-27 16:07:55.309283,1709046475.3092828,-10.25390625,-34.1796875,-22.4609375,-32.71484375,-1.0,1.0,0.0,1.0,8.m4v,6.0
2024-02-27 16:07:55.313188,1709046475.3131883,-20.01953125,-56.15234375,-27.83203125,-36.62109375,-1.0,1.0,0.0,1.0,8.m4v,6.0
2024-02-27 16:07:55.317094,1709046475.3170938,-51.26953125,-46.875,-31.73828125,-37.109375,-1.0,1.0,0.0,1.0,8.m4v,6.0
2024-02-27 16:07:55.320999,1709046475.3209991,-70.80078125,-27.83203125,-26.3671875,-36.62109375,-1.0,1.0,0.0,1.0,8.m4v,6.0
2024-02-27 16:07:55.324905,1709046475.324905,-53.22265625,-34.66796875,-24.90234375,-39.0625,-1.0,1.0,0.0,1.0,8.m4v,6.0
2024-02-27 16:07:55.328810,1709046475.3288102,-36.62109375,-33.69140625,-27.34375,-43.45703125,-1.0,1.0,0.0,1.0,8.m4v,6.0
2024-02-27 16:07:55.332722,1709046475.3327217,-34.1796875,-36.62109375,-28.80859375,-38.57421875,-1.0,1.0,0.0,1.0,8.m4v,6.0
2024-02-27 16:07:55.336627,1709046475.336627,-46.38671875,-47.36328125,-36.62109375,-46.38671875,-1.0,1.0,0.0,1.0,8.m4v,6.0
2024-02-27 16:07:55.340533,1709046475.3405323,-63.4765625,-40.52734375,-36.62109375,-43.9453125,-1.0,1.0,0.0,1.0,8.m4v,6.0
2024-02-27 16:07:55.344438,1709046475.344438,-55.6640625,-25.390625,-38.57421875,-27.34375,-1.0,1.0,0.0,1.0,8.m4v,6.0
2024-02-27 16:07:55.348344,1709046475.3483436,-31.25,-25.87890625,-38.0859375,-27.83203125,-1.0,1.0,0.0,1.0,8.m4v,6.0
2024-02-27 16:07:55.352249,1709046475.352249,-19.04296875,-31.73828125,-29.78515625,-43.45703125,-1.0,1.0,0.0,1.0,8.m4v,6.0
2024-02-27 16:07:55.356154,1709046475.3561544,-27.83203125,-32.2265625,-30.2734375,-44.43359375,-1.0,1.0,0.0,1.0,8.m4v,6.0
2024-02-27 16:07:55.360060,1709046475.36006,-53.22265625,-22.4609375,-31.73828125,-34.66796875,-1.0,1.0,0.0,1.0,8.m4v,6.0
2024-02-27 16:07:55.363966,1709046475.3639655,-32.2265625,-16.11328125,-35.64453125,-28.3203125,-1.0,1.0,0.0,1.0,8.m4v,6.0
2024-02-27 16:07:55.367871,1709046475.367871,-9.765625,-24.90234375,-33.203125,-29.296875,-1.0,1.0,0.0,1.0,8.m4v,6.0
2024-02-27 16:07:55.371776,1709046475.3717763,-31.73828125,-37.109375,-25.87890625,-39.0625,-1.0,1.0,0.0,1.0,8.m4v,6.0
2024-02-27 16:07:55.375682,1709046475.375682,-42.48046875,-33.69140625,-22.4609375,-43.9453125,-1.0,1.0,0.0,1.0,8.m4v,6.0
2024-02-27 16:07:55.379593,1709046475.379593,-58.10546875,-34.66796875,-20.99609375,-36.1328125,-1.0,1.0,0.0,1.0,8.m4v,6.0
2024-02-27 16:07:55.383498,1709046475.3834982,-54.19921875,-40.0390625,-22.4609375,-20.5078125,-1.0,1.0,0.0,1.0,8.m4v,6.0
2024-02-27 16:07:55.387404,1709046475.3874035,-20.01953125,-24.90234375,-23.92578125,-18.5546875,-1.0,1.0,0.0,1.0,8.m4v,6.0
2024-02-27 16:07:55.391309,1709046475.3913093,-14.16015625,-22.4609375,-27.34375,-33.203125,-1.0,1.0,0.0,1.0,8.m4v,6.0
2024-02-27 16:07:55.395215,1709046475.3952148,-41.015625,-30.76171875,-30.2734375,-39.0625,-1.0,1.0,0.0,1.0,8.m4v,6.0
2024-02-27 16:07:55.399120,1709046475.3991203,-53.7109375,-32.2265625,-23.92578125,-36.62109375,-1.0,1.0,0.0,1.0,8.m4v,6.0
2024-02-27 16:07:55.403026,1709046475.4030256,-45.8984375,-23.92578125,-20.01953125,-26.3671875,-1.0,1.0,0.0,1.0,8.m4v,6.0
2024-02-27 16:07:55.406931,1709046475.4069312,-31.25,-24.4140625,-23.92578125,-24.90234375,-1.0,1.0,0.0,1.0,8.m4v,6.0
2024-02-27 16:07:55.410837,1709046475.4108367,-18.06640625,-24.90234375,-28.80859375,-26.85546875,-1.0,1.0,0.0,1.0,8.m4v,6.0
2024-02-27 16:07:55.414742,1709046475.4147422,-28.3203125,-21.97265625,-28.80859375,-39.55078125,-1.0,1.0,0.0,1.0,8.m4v,6.0
2024-02-27 16:07:55.418648,1709046475.4186475,-51.7578125,-23.4375,-26.85546875,-43.9453125,-1.0,1.0,0.0,1.0,8.m4v,6.0
2024-02-27 16:07:55.422553,1709046475.422553,-56.15234375,-29.296875,-26.3671875,-29.296875,-1.0,1.0,0.0,1.0,8.m4v,6.0
2024-02-27 16:07:55.426467,1709046475.4264667,-42.48046875,-41.015625,-23.4375,-31.25,-1.0,1.0,0.0,1.0,8.m4v,6.0
2024-02-27 16:07:55.430372,1709046475.4303722,-31.25,-32.2265625,-21.484375,-39.55078125,-1.0,1.0,0.0,1.0,8.m4v,6.0
2024-02-27 16:07:55.434278,1709046475.4342778,-41.50390625,-37.59765625,-30.76171875,-45.41015625,-1.0,1.0,0.0,1.0,8.m4v,6.0
2024-02-27 16:07:55.438183,1709046475.4381833,-68.359375,-45.41015625,-27.34375,-44.43359375,-1.0,1.0,0.0,1.0,8.m4v,6.0
2024-02-27 16:07:55.442089,1709046475.4420886,-83.49609375,-25.390625,-21.484375,-42.96875,-1.0,1.0,0.0,1.0,8.m4v,6.0
2024-02-27 16:07:55.445994,1709046475.445994,-58.59375,-33.203125,-27.34375,-34.1796875,-1.0,1.0,0.0,1.0,8.m4v,6.0
2024-02-27 16:07:55.449900,1709046475.4498997,-17.578125,-48.828125,-33.203125,-34.1796875,-1.0,1.0,0.0,1.0,8.m4v,6.0
2024-02-27 16:07:55.453805,1709046475.4538052,-24.4140625,-34.1796875,-42.48046875,-43.9453125,-1.0,1.0,0.0,1.0,8.m4v,6.0
2024-02-27 16:07:55.457711,1709046475.4577105,-56.15234375,-32.2265625,-41.015625,-46.38671875,-1.0,1.0,0.0,1.0,8.m4v,6.0
2024-02-27 16:07:55.461616,1709046475.461616,-65.91796875,-26.3671875,-37.59765625,-49.8046875,-1.0,1.0,0.0,1.0,8.m4v,6.0
2024-02-27 16:07:55.465522,1709046475.4655216,-48.33984375,-12.6953125,-37.109375,-50.78125,-1.0,1.0,0.0,1.0,8.m4v,6.0
2024-02-27 16:07:55.469427,1709046475.469427,-26.85546875,-20.5078125,-29.78515625,-43.9453125,-1.0,1.0,0.0,1.0,8.m4v,6.0
2024-02-27 16:07:55.473340,1709046475.47334,-28.80859375,-26.85546875,-30.76171875,-44.43359375,-1.0,1.0,0.0,1.0,8.m4v,6.0
2024-02-27 16:07:55.477246,1709046475.4772456,-51.26953125,-34.66796875,-35.64453125,-45.8984375,-1.0,1.0,0.0,1.0,8.m4v,6.0
2024-02-27 16:07:55.481151,1709046475.481151,-62.5,-33.69140625,-29.296875,-39.0625,-1.0,1.0,0.0,1.0,8.m4v,6.0
2024-02-27 16:07:55.485057,1709046475.4850566,-29.296875,-19.53125,-24.4140625,-28.3203125,-1.0,1.0,0.0,1.0,8.m4v,6.0
2024-02-27 16:07:55.488962,1709046475.4889622,-4.8828125,-21.484375,-32.71484375,-29.78515625,-1.0,1.0,0.0,1.0,8.m4v,6.0
2024-02-27 16:07:55.492867,1709046475.4928677,-30.76171875,-27.83203125,-35.15625,-46.38671875,-1.0,1.0,0.0,1.0,8.m4v,6.0
2024-02-27 16:07:55.496773,1709046475.496773,-40.0390625,-35.15625,-35.15625,-46.875,-1.0,1.0,0.0,1.0,8.m4v,6.0
2024-02-27 16:07:55.500679,1709046475.5006783,-55.6640625,-40.52734375,-45.8984375,-42.96875,-1.0,1.0,0.0,1.0,8.m4v,6.0
2024-02-27 16:07:55.504584,1709046475.504584,-46.875,-38.0859375,-41.9921875,-29.296875,-1.0,1.0,0.0,1.0,8.m4v,6.0
2024-02-27 16:07:55.508489,1709046475.5084894,-16.6015625,-34.66796875,-32.2265625,-16.11328125,-1.0,1.0,0.0,1.0,8.m4v,6.0
2024-02-27 16:07:55.512395,1709046475.512395,-17.578125,-31.25,-30.76171875,-20.99609375,-1.0,1.0,0.0,1.0,8.m4v,6.0
2024-02-27 16:07:55.516300,1709046475.5163004,-38.57421875,-26.3671875,-19.53125,-32.2265625,-1.0,1.0,0.0,1.0,8.m4v,6.0
2024-02-27 16:07:55.520213,1709046475.5202131,-78.61328125,-29.78515625,-6.8359375,-31.73828125,-1.0,1.0,0.0,1.0,8.m4v,6.0
2024-02-27 16:07:55.524119,1709046475.524119,-68.84765625,-31.25,-14.16015625,-20.5078125,-1.0,1.0,0.0,1.0,8.m4v,6.0
2024-02-27 16:07:55.528024,1709046475.5280242,-29.78515625,-33.69140625,-23.92578125,-16.11328125,-1.0,1.0,0.0,1.0,8.m4v,6.0
2024-02-27 16:07:55.531930,1709046475.5319295,-43.45703125,-40.0390625,-26.85546875,-34.1796875,-1.0,1.0,0.0,1.0,8.m4v,6.0
2024-02-27 16:07:55.535835,1709046475.5358353,-62.98828125,-30.76171875,-30.2734375,-42.48046875,-1.0,1.0,0.0,1.0,8.m4v,6.0
2024-02-27 16:07:55.539741,1709046475.5397406,-58.59375,-32.2265625,-31.73828125,-30.76171875,-1.0,1.0,0.0,1.0,8.m4v,6.0
2024-02-27 16:07:55.543646,1709046475.543646,-47.8515625,-25.390625,-34.66796875,-26.3671875,-1.0,1.0,0.0,1.0,8.m4v,6.0
2024-02-27 16:07:55.547552,1709046475.5475516,-29.296875,-7.8125,-41.015625,-31.73828125,-1.0,1.0,0.0,1.0,8.m4v,6.0
2024-02-27 16:07:55.551457,1709046475.5514572,-18.5546875,-16.6015625,-47.36328125,-34.1796875,-1.0,1.0,0.0,1.0,8.m4v,6.0
2024-02-27 16:07:55.555362,1709046475.5553625,-33.203125,-21.97265625,-34.1796875,-33.203125,-1.0,1.0,0.0,1.0,8.m4v,6.0
2024-02-27 16:07:55.559268,1709046475.559268,-64.453125,-19.04296875,-19.53125,-33.203125,-1.0,1.0,0.0,1.0,8.m4v,6.0
2024-02-27 16:07:55.563174,1709046475.5631735,-63.96484375,-22.94921875,-27.34375,-28.80859375,-1.0,1.0,0.0,1.0,8.m4v,6.0
2024-02-27 16:07:55.567086,1709046475.5670855,-27.83203125,-31.73828125,-27.83203125,-25.390625,-1.0,1.0,0.0,1.0,8.m4v,6.0
2024-02-27 16:07:55.570991,1709046475.5709913,-16.6015625,-31.25,-25.390625,-29.78515625,-1.0,1.0,0.0,1.0,8.m4v,6.0
2024-02-27 16:07:55.574897,1709046475.5748968,-34.1796875,-26.3671875,-28.3203125,-45.41015625,-1.0,1.0,0.0,1.0,8.m4v,6.0
2024-02-27 16:07:55.578802,1709046475.578802,-59.5703125,-30.2734375,-32.2265625,-45.8984375,-1.0,1.0,0.0,1.0,8.m4v,6.0
2024-02-27 16:07:55.582708,1709046475.5827076,-63.96484375,-29.78515625,-35.64453125,-31.25,-1.0,1.0,0.0,1.0,8.m4v,6.0
2024-02-27 16:07:55.586613,1709046475.5866132,-15.625,-23.92578125,-38.0859375,-17.578125,-1.0,1.0,0.0,1.0,8.m4v,6.0
2024-02-27 16:07:55.590519,1709046475.5905187,1.46484375,-27.34375,-36.1328125,-25.390625,-1.0,1.0,0.0,1.0,8.m4v,6.0
2024-02-27 16:07:55.594424,1709046475.594424,-35.15625,-32.71484375,-29.296875,-52.734375,-1.0,1.0,0.0,1.0,8.m4v,6.0
2024-02-27 16:07:55.598330,1709046475.5983295,-57.6171875,-32.71484375,-35.64453125,-50.29296875,-1.0,1.0,0.0,1.0,8.m4v,6.0
2024-02-27 16:07:55.602235,1709046475.602235,-57.12890625,-33.203125,-32.71484375,-38.0859375,-1.0,1.0,0.0,1.0,8.m4v,6.0
2024-02-27 16:07:55.606141,1709046475.6061406,-24.4140625,-35.64453125,-16.11328125,-35.15625,-1.0,1.0,0.0,1.0,8.m4v,6.0
2024-02-27 16:07:55.610046,1709046475.610046,-5.859375,-45.41015625,-12.20703125,-33.203125,-1.0,1.0,0.0,1.0,8.m4v,6.0
2024-02-27 16:07:55.613958,1709046475.613958,-19.04296875,-39.0625,-19.53125,-37.59765625,-1.0,1.0,0.0,1.0,8.m4v,6.0
2024-02-27 16:07:55.617863,1709046475.6178634,-53.22265625,-34.1796875,-34.66796875,-44.921875,-1.0,1.0,0.0,1.0,8.m4v,6.0
2024-02-27 16:07:55.621769,1709046475.621769,-82.03125,-47.36328125,-36.1328125,-45.8984375,-1.0,1.0,0.0,1.0,8.m4v,6.0
2024-02-27 16:07:55.625674,1709046475.6256745,-45.41015625,-51.7578125,-28.3203125,-35.64453125,-1.0,1.0,0.0,1.0,8.m4v,6.0
2024-02-27 16:07:55.629580,1709046475.62958,-12.20703125,-37.109375,-27.34375,-35.64453125,-1.0,1.0,0.0,1.0,8.m4v,6.0
2024-02-27 16:07:55.633485,1709046475.6334853,-8.7890625,-21.97265625,-21.97265625,-39.0625,-1.0,1.0,0.0,1.0,8.m4v,6.0
2024-02-27 16:07:55.637391,1709046475.6373909,-26.85546875,-29.78515625,-28.3203125,-36.62109375,-1.0,1.0,0.0,1.0,8.m4v,6.0
2024-02-27 16:07:55.641296,1709046475.6412964,-73.2421875,-32.2265625,-38.57421875,-34.66796875,-1.0,1.0,0.0,1.0,8.m4v,6.0
2024-02-27 16:07:55.645202,1709046475.645202,-62.98828125,-36.1328125,-41.015625,-35.64453125,-1.0,1.0,0.0,1.0,8.m4v,6.0
2024-02-27 16:07:55.649107,1709046475.6491077,-21.484375,-44.921875,-33.69140625,-38.0859375,-1.0,1.0,0.0,1.0,8.m4v,6.0
2024-02-27 16:07:55.653013,1709046475.6530128,-34.66796875,-40.52734375,-23.92578125,-37.109375,-1.0,1.0,0.0,1.0,8.m4v,6.0
2024-02-27 16:07:55.656918,1709046475.6569183,-52.24609375,-28.3203125,-31.25,-27.34375,-1.0,1.0,0.0,1.0,8.m4v,6.0
2024-02-27 16:07:55.660830,1709046475.66083,-61.03515625,-21.97265625,-38.57421875,-21.97265625,-1.0,1.0,0.0,1.0,8.m4v,6.0
2024-02-27 16:07:55.664736,1709046475.6647356,-38.57421875,-26.3671875,-24.90234375,-26.3671875,-1.0,1.0,0.0,1.0,8.m4v,6.0
2024-02-27 16:07:55.664736,1709046475.6647356,-38.57421875,-26.3671875,-24.90234375,-26.3671875,-1.0,1.0,0.0,1.0,8.m4v,6.0
2024-02-27 16:07:55.668641,1709046475.668641,-5.37109375,-40.0390625,-16.11328125,-30.2734375,-1.0,1.0,0.0,1.0,8.m4v,6.0
2024-02-27 16:07:55.668641,1709046475.668641,-5.37109375,-40.0390625,-16.11328125,-30.2734375,-1.0,1.0,0.0,1.0,8.m4v,6.0
2024-02-27 16:07:55.672547,1709046475.6725466,-20.5078125,-36.1328125,-24.4140625,-34.66796875,-1.0,1.0,0.0,1.0,8.m4v,6.0
2024-02-27 16:07:55.672547,1709046475.6725466,-20.5078125,-36.1328125,-24.4140625,-34.66796875,-1.0,1.0,0.0,1.0,8.m4v,6.0
2024-02-27 16:07:55.676452,1709046475.6764522,-43.45703125,-20.5078125,-34.1796875,-34.66796875,-1.0,1.0,0.0,1.0,8.m4v,6.0
2024-02-27 16:07:55.676452,1709046475.6764522,-43.45703125,-20.5078125,-34.1796875,-34.66796875,-1.0,1.0,0.0,1.0,8.m4v,6.0
2024-02-27 16:07:55.680357,1709046475.6803577,-53.7109375,-22.4609375,-36.62109375,-36.62109375,-1.0,1.0,0.0,1.0,8.m4v,6.0
2024-02-27 16:07:55.680357,1709046475.6803577,-53.7109375,-22.4609375,-36.62109375,-36.62109375,-1.0,1.0,0.0,1.0,8.m4v,6.0
2024-02-27 16:07:55.684263,1709046475.684263,-42.48046875,-42.48046875,-37.59765625,-33.203125,-1.0,1.0,0.0,1.0,8.m4v,6.0
2024-02-27 16:07:55.688169,1709046475.6881683,-24.90234375,-54.6875,-30.2734375,-23.4375,-1.0,1.0,0.0,1.0,8.m4v,6.0
2024-02-27 16:07:55.692074,1709046475.692074,-14.6484375,-41.9921875,-21.97265625,-28.3203125,-1.0,1.0,0.0,1.0,8.m4v,6.0
2024-02-27 16:07:55.695979,1709046475.6959794,-31.25,-38.0859375,-26.85546875,-43.9453125,-1.0,1.0,0.0,1.0,8.m4v,6.0
2024-02-27 16:07:55.699885,1709046475.699885,-62.5,-33.203125,-28.80859375,-36.62109375,-1.0,1.0,0.0,1.0,8.m4v,6.0
2024-02-27 16:07:55.703790,1709046475.7037904,-32.71484375,-21.97265625,-36.62109375,-20.99609375,-1.0,1.0,0.0,1.0,8.m4v,6.0
2024-02-27 16:07:55.707702,1709046475.7077017,0.0,-24.4140625,-37.59765625,-27.83203125,-1.0,1.0,0.0,1.0,8.m4v,6.0
2024-02-27 16:07:55.711607,1709046475.7116072,-3.90625,-27.83203125,-32.71484375,-30.2734375,-1.0,1.0,0.0,1.0,8.m4v,6.0
2024-02-27 16:07:55.715513,1709046475.7155128,-14.6484375,-24.90234375,-29.78515625,-29.78515625,-1.0,1.0,0.0,1.0,8.m4v,6.0
2024-02-27 16:07:55.719418,1709046475.7194183,-42.96875,-23.4375,-17.578125,-30.76171875,-1.0,1.0,0.0,1.0,8.m4v,6.0
2024-02-27 16:07:55.723324,1709046475.7233236,-46.875,-25.390625,-12.20703125,-17.08984375,-1.0,1.0,0.0,1.0,8.m4v,6.0
2024-02-27 16:07:55.727229,1709046475.727229,-4.8828125,-31.25,-20.01953125,-12.20703125,-1.0,1.0,0.0,1.0,8.m4v,6.0
2024-02-27 16:07:55.731135,1709046475.731135,3.90625,-40.0390625,-39.0625,-44.921875,-1.0,1.0,0.0,1.0,8.m4v,6.0
2024-02-27 16:07:55.735040,1709046475.7350402,-30.76171875,-49.8046875,-43.9453125,-56.15234375,-1.0,1.0,0.0,1.0,8.m4v,6.0
2024-02-27 16:07:55.738945,1709046475.7389455,-58.59375,-43.9453125,-33.69140625,-38.0859375,-1.0,1.0,0.0,1.0,8.m4v,6.0
2024-02-27 16:07:55.742851,1709046475.742851,-58.10546875,-36.62109375,-30.2734375,-25.390625,-1.0,1.0,0.0,1.0,8.m4v,6.0
2024-02-27 16:07:55.746757,1709046475.7467566,-27.34375,-43.45703125,-31.73828125,-22.4609375,-1.0,1.0,0.0,1.0,8.m4v,6.0
2024-02-27 16:07:55.750662,1709046475.750662,-13.671875,-42.96875,-39.55078125,-37.59765625,-1.0,1.0,0.0,1.0,8.m4v,6.0
2024-02-27 16:07:55.754573,1709046475.7545729,-31.25,-27.83203125,-41.015625,-38.57421875,-1.0,1.0,0.0,1.0,8.m4v,6.0
2024-02-27 16:07:55.758478,1709046475.7584784,-71.2890625,-29.78515625,-25.390625,-38.0859375,-1.0,1.0,0.0,1.0,8.m4v,6.0
2024-02-27 16:07:55.762384,1709046475.762384,-68.84765625,-31.25,-16.11328125,-29.296875,-1.0,1.0,0.0,1.0,8.m4v,6.0
2024-02-27 16:07:55.766289,1709046475.7662897,-24.4140625,-24.90234375,-23.4375,-28.80859375,-1.0,1.0,0.0,1.0,8.m4v,6.0
2024-02-27 16:07:55.770195,1709046475.770195,-11.71875,-26.3671875,-29.78515625,-32.2265625,-1.0,1.0,0.0,1.0,8.m4v,6.0
2024-02-27 16:07:55.774100,1709046475.7741003,-23.92578125,-31.25,-34.1796875,-25.87890625,-1.0,1.0,0.0,1.0,8.m4v,6.0
2024-02-27 16:07:55.778006,1709046475.7780058,-53.7109375,-35.15625,-34.1796875,-31.73828125,-1.0,1.0,0.0,1.0,8.m4v,6.0
2024-02-27 16:07:55.781911,1709046475.7819114,-80.078125,-44.921875,-38.57421875,-40.0390625,-1.0,1.0,0.0,1.0,8.m4v,6.0
2024-02-27 16:07:55.785817,1709046475.785817,-53.7109375,-38.57421875,-40.52734375,-36.62109375,-1.0,1.0,0.0,1.0,8.m4v,6.0
2024-02-27 16:07:55.789722,1709046475.7897222,-28.80859375,-35.64453125,-39.0625,-39.0625,-1.0,1.0,0.0,1.0,8.m4v,6.0
2024-02-27 16:07:55.793628,1709046475.7936275,-33.69140625,-47.36328125,-42.96875,-44.43359375,-1.0,1.0,0.0,1.0,8.m4v,6.0
2024-02-27 16:07:55.797533,1709046475.7975333,-49.8046875,-38.57421875,-38.0859375,-36.62109375,-1.0,1.0,0.0,1.0,8.m4v,6.0
2024-02-27 16:07:55.801447,1709046475.801447,-59.5703125,-23.4375,-41.50390625,-29.296875,-1.0,1.0,0.0,1.0,8.m4v,6.0
2024-02-27 16:07:55.805352,1709046475.8053522,-45.41015625,-35.64453125,-35.15625,-26.3671875,-1.0,1.0,0.0,1.0,8.m4v,6.0
2024-02-27 16:07:55.809258,1709046475.8092575,-25.87890625,-44.921875,-19.04296875,-27.34375,-1.0,1.0,0.0,1.0,8.m4v,6.0
2024-02-27 16:07:55.813163,1709046475.8131633,-9.27734375,-40.0390625,-24.4140625,-33.203125,-1.0,1.0,0.0,1.0,8.m4v,6.0
2024-02-27 16:07:55.817069,1709046475.8170686,-31.73828125,-37.109375,-29.296875,-39.55078125,-1.0,1.0,0.0,1.0,8.m4v,6.0
2024-02-27 16:07:55.820974,1709046475.820974,-48.828125,-29.296875,-25.390625,-34.66796875,-1.0,1.0,0.0,1.0,8.m4v,6.0
2024-02-27 16:07:55.824880,1709046475.8248796,-19.53125,-24.4140625,-22.94921875,-17.08984375,-1.0,1.0,0.0,1.0,8.m4v,6.0
2024-02-27 16:07:55.828785,1709046475.8287852,-14.16015625,-29.78515625,-30.2734375,-23.4375,-1.0,1.0,0.0,1.0,8.m4v,6.0
2024-02-27 16:07:55.832691,1709046475.8326907,-27.83203125,-22.94921875,-38.57421875,-46.38671875,-1.0,1.0,0.0,1.0,8.m4v,6.0
2024-02-27 16:07:55.836596,1709046475.836596,-46.38671875,-22.4609375,-34.66796875,-46.38671875,-1.0,1.0,0.0,1.0,8.m4v,6.0
2024-02-27 16:07:55.840502,1709046475.8405015,-58.10546875,-24.4140625,-34.1796875,-30.2734375,-1.0,1.0,0.0,1.0,8.m4v,6.0
2024-02-27 16:07:55.844407,1709046475.844407,-40.0390625,-21.484375,-40.52734375,-27.34375,-1.0,1.0,0.0,1.0,8.m4v,6.0
2024-02-27 16:07:55.848320,1709046475.8483202,-20.01953125,-25.390625,-52.734375,-32.71484375,-1.0,1.0,0.0,1.0,8.m4v,6.0
2024-02-27 16:07:55.852226,1709046475.8522258,-13.671875,-28.3203125,-36.62109375,-34.66796875,-1.0,1.0,0.0,1.0,8.m4v,6.0
2024-02-27 16:07:55.856131,1709046475.856131,-20.01953125,-31.25,-17.578125,-28.80859375,-1.0,1.0,0.0,1.0,8.m4v,6.0
2024-02-27 16:07:55.860037,1709046475.8600366,-46.875,-31.73828125,-25.87890625,-33.203125,-1.0,1.0,0.0,1.0,8.m4v,6.0
2024-02-27 16:07:55.863942,1709046475.863942,-36.62109375,-34.66796875,-21.97265625,-27.83203125,-1.0,1.0,0.0,1.0,8.m4v,6.0
2024-02-27 16:07:55.867848,1709046475.8678477,1.46484375,-29.296875,-24.90234375,-20.01953125,-1.0,1.0,0.0,1.0,8.m4v,6.0
2024-02-27 16:07:55.871753,1709046475.871753,-3.41796875,-17.578125,-42.48046875,-41.50390625,-1.0,1.0,0.0,1.0,8.m4v,6.0
2024-02-27 16:07:55.875659,1709046475.8756585,-30.2734375,-11.71875,-40.0390625,-41.015625,-1.0,1.0,0.0,1.0,8.m4v,6.0
2024-02-27 16:07:55.879564,1709046475.879564,-52.734375,-14.16015625,-30.76171875,-32.71484375,-1.0,1.0,0.0,1.0,8.m4v,6.0
2024-02-27 16:07:55.883470,1709046475.8834696,-57.12890625,-24.4140625,-35.64453125,-35.15625,-1.0,1.0,0.0,1.0,8.m4v,6.0
2024-02-27 16:07:55.887375,1709046475.887375,-37.109375,-32.71484375,-40.0390625,-29.78515625,-1.0,1.0,0.0,1.0,8.m4v,6.0
2024-02-27 16:07:55.891280,1709046475.8912804,-20.01953125,-40.52734375,-42.48046875,-40.0390625,-1.0,1.0,0.0,1.0,8.m4v,6.0
2024-02-27 16:07:55.895193,1709046475.895193,-31.25,-34.66796875,-40.0390625,-46.38671875,-1.0,1.0,0.0,1.0,8.m4v,6.0
2024-02-27 16:07:55.899099,1709046475.8990986,-63.96484375,-27.34375,-37.59765625,-46.875,-1.0,1.0,0.0,1.0,8.m4v,6.0
2024-02-27 16:07:55.903004,1709046475.9030042,-64.453125,-31.73828125,-42.48046875,-43.45703125,-1.0,1.0,0.0,1.0,8.m4v,6.0
2024-02-27 16:07:55.906910,1709046475.9069097,-27.34375,-30.2734375,-39.0625,-37.109375,-1.0,1.0,0.0,1.0,8.m4v,6.0
2024-02-27 16:07:55.910815,1709046475.9108152,-11.23046875,-34.66796875,-33.69140625,-44.921875,-1.0,1.0,0.0,1.0,8.m4v,6.0
2024-02-27 16:07:55.914721,1709046475.9147208,-11.23046875,-35.15625,-27.34375,-44.921875,-1.0,1.0,0.0,1.0,8.m4v,6.0
2024-02-27 16:07:55.918626,1709046475.918626,-43.45703125,-38.0859375,-26.3671875,-51.7578125,-1.0,1.0,0.0,1.0,8.m4v,6.0
2024-02-27 16:07:55.922532,1709046475.9225316,-60.546875,-39.0625,-41.9921875,-53.7109375,-1.0,1.0,0.0,1.0,8.m4v,6.0
2024-02-27 16:07:55.926437,1709046475.9264371,-25.87890625,-30.76171875,-46.875,-33.69140625,-1.0,1.0,0.0,1.0,8.m4v,6.0
2024-02-27 16:07:55.930343,1709046475.930343,-14.16015625,-45.8984375,-42.48046875,-36.1328125,-1.0,1.0,0.0,1.0,8.m4v,6.0
2024-02-27 16:07:55.934248,1709046475.934248,-26.3671875,-43.9453125,-34.1796875,-49.8046875,-1.0,1.0,0.0,1.0,8.m4v,6.0
2024-02-27 16:07:55.938154,1709046475.9381535,-55.6640625,-28.80859375,-30.2734375,-55.6640625,-1.0,1.0,0.0,1.0,8.m4v,6.0
2024-02-27 16:07:55.942066,1709046475.9420657,-64.453125,-27.83203125,-33.203125,-41.9921875,-1.0,1.0,0.0,1.0,8.m4v,6.0
2024-02-27 16:07:56.137363,1709046476.1373632,-48.828125,-34.66796875,-22.4609375,-30.76171875,-1.0,1.0,0.0,1.0,8.m4v,6.0
2024-02-27 16:07:56.149080,1709046476.1490798,-9.27734375,-34.1796875,-38.57421875,-24.4140625,-1.0,1.0,0.0,1.0,8.m4v,6.0
2024-02-27 16:07:56.160796,1709046476.1607962,-72.75390625,-28.80859375,-34.1796875,-29.296875,-1.0,1.0,0.0,1.0,8.m4v,6.0
2024-02-27 16:07:56.172513,1709046476.1725123,1.46484375,-17.08984375,-23.92578125,-25.87890625,-1.0,1.0,0.0,1.0,8.m4v,6.0
2024-02-27 16:07:56.184237,1709046476.184237,-29.296875,-28.3203125,-27.34375,-21.484375,-1.0,1.0,0.0,1.0,8.m4v,6.0
2024-02-27 16:07:56.195953,1709046476.1959534,-27.83203125,-39.0625,-29.78515625,-34.1796875,-1.0,1.0,0.0,1.0,8.m4v,6.0
2024-02-27 16:07:56.207670,1709046476.2076695,-1.46484375,-34.1796875,-39.55078125,-27.34375,-1.0,1.0,0.0,1.0,8.m4v,6.0
2024-02-27 16:07:56.219386,1709046476.2193863,-61.03515625,-43.45703125,-21.97265625,-38.57421875,-1.0,1.0,0.0,1.0,8.m4v,6.0
2024-02-27 16:07:56.231110,1709046476.2311103,-10.25390625,-32.2265625,-46.875,-34.66796875,-1.0,1.0,0.0,1.0,8.m4v,6.0
2024-02-27 16:07:56.242827,1709046476.2428267,-39.55078125,-29.296875,-35.64453125,-36.1328125,-1.0,1.0,0.0,1.0,8.m4v,6.0
2024-02-27 16:07:56.254543,1709046476.2545433,-14.16015625,-26.3671875,-43.9453125,-40.52734375,-1.0,1.0,0.0,1.0,8.m4v,6.0
2024-02-27 16:07:56.266260,1709046476.2662597,-14.16015625,-37.109375,-23.4375,-15.13671875,-1.0,1.0,0.0,1.0,8.m4v,6.0
2024-02-27 16:07:56.277983,1709046476.2779834,-62.5,-32.71484375,-32.2265625,-42.96875,-1.0,1.0,0.0,1.0,8.m4v,6.0
2024-02-27 16:07:56.289700,1709046476.2896998,-2.9296875,-28.80859375,-20.5078125,-20.5078125,-1.0,1.0,0.0,1.0,8.m4v,6.0
2024-02-27 16:07:56.301416,1709046476.3014164,-72.265625,-29.296875,-45.41015625,-38.0859375,-1.0,1.0,0.0,1.0,8.m4v,6.0
2024-02-27 16:07:56.313133,1709046476.3131328,-9.27734375,-40.52734375,-16.6015625,-40.52734375,-1.0,1.0,0.0,1.0,8.m4v,6.0
2024-02-27 16:07:56.324856,1709046476.324856,-41.9921875,-23.4375,-25.87890625,-42.96875,-1.0,1.0,0.0,1.0,8.m4v,6.0
2024-02-27 16:07:56.336573,1709046476.3365726,-32.71484375,-20.99609375,-28.3203125,-40.52734375,-1.0,1.0,0.0,1.0,8.m4v,6.0
2024-02-27 16:07:56.348289,1709046476.348289,-17.08984375,-45.41015625,-21.97265625,-34.1796875,-1.0,1.0,0.0,1.0,8.m4v,6.0
2024-02-27 16:07:56.360005,1709046476.3600054,-50.78125,-31.73828125,-32.2265625,-33.69140625,-1.0,1.0,0.0,1.0,8.m4v,6.0
2024-02-27 16:07:56.371729,1709046476.371729,-19.53125,-40.52734375,-44.921875,-45.8984375,-1.0,1.0,0.0,1.0,8.m4v,6.0
2024-02-27 16:07:56.383445,1709046476.383445,-50.78125,-33.203125,-25.87890625,-33.203125,-1.0,1.0,0.0,1.0,8.m4v,6.0
2024-02-27 16:07:56.395161,1709046476.3951614,-32.2265625,-41.50390625,-38.0859375,-44.921875,-1.0,1.0,0.0,1.0,8.m4v,6.0
2024-02-27 16:07:56.406878,1709046476.406878,-20.01953125,-48.828125,-24.4140625,-32.71484375,-1.0,1.0,0.0,1.0,8.m4v,6.0
2024-02-27 16:07:56.418601,1709046476.4186006,-48.33984375,-18.5546875,-38.57421875,-47.36328125,-1.0,1.0,0.0,1.0,8.m4v,6.0
2024-02-27 16:07:56.430317,1709046476.4303172,-19.53125,-37.109375,-31.73828125,-33.203125,-1.0,1.0,0.0,1.0,8.m4v,6.0
2024-02-27 16:07:56.555309,1709046476.5553088,-81.54296875,-12.6953125,-13.18359375,-123.53515625,-1.0,1.0,0.0,1.0,8.m4v,6.0
2024-02-27 16:07:56.559214,1709046476.5592144,-99.12109375,-11.71875,-19.53125,-105.95703125,-1.0,1.0,0.0,1.0,8.m4v,6.0
2024-02-27 16:07:56.563120,1709046476.56312,-98.6328125,-20.99609375,-29.296875,-88.37890625,-1.0,1.0,0.0,1.0,8.m4v,6.0
2024-02-27 16:07:56.567025,1709046476.5670254,-69.82421875,-20.99609375,-29.78515625,-75.68359375,-1.0,1.0,0.0,1.0,8.m4v,6.0
2024-02-27 16:07:56.570931,1709046476.570931,-54.19921875,-28.3203125,-21.484375,-78.61328125,-1.0,1.0,0.0,1.0,8.m4v,6.0
2024-02-27 16:07:56.574836,1709046476.5748365,-62.98828125,-47.36328125,-19.53125,-85.9375,-1.0,1.0,0.0,1.0,8.m4v,6.0
2024-02-27 16:07:56.578742,1709046476.5787418,-93.75,-41.015625,-22.4609375,-79.1015625,-1.0,1.0,0.0,1.0,8.m4v,6.0
2024-02-27 16:07:56.582647,1709046476.582647,-93.75,-26.3671875,-26.85546875,-68.84765625,-1.0,1.0,0.0,1.0,8.m4v,6.0
2024-02-27 16:07:56.586553,1709046476.5865529,-48.828125,-28.80859375,-38.0859375,-58.59375,-1.0,1.0,0.0,1.0,8.m4v,6.0
2024-02-27 16:07:56.590458,1709046476.5904584,-36.62109375,-37.109375,-45.41015625,-60.05859375,-1.0,1.0,0.0,1.0,8.m4v,6.0
2024-02-27 16:07:56.594364,1709046476.5943637,-54.19921875,-39.55078125,-45.41015625,-62.01171875,-1.0,1.0,0.0,1.0,8.m4v,6.0
2024-02-27 16:07:56.598277,1709046476.5982766,-73.2421875,-41.015625,-34.66796875,-59.5703125,-1.0,1.0,0.0,1.0,8.m4v,6.0
2024-02-27 16:07:56.602182,1709046476.602182,-68.84765625,-39.55078125,-30.76171875,-57.12890625,-1.0,1.0,0.0,1.0,8.m4v,6.0
2024-02-27 16:07:56.606088,1709046476.6060877,-46.38671875,-44.43359375,-40.52734375,-41.50390625,-1.0,1.0,0.0,1.0,8.m4v,6.0
2024-02-27 16:07:56.609993,1709046476.6099932,-21.97265625,-41.9921875,-35.64453125,-28.80859375,-1.0,1.0,0.0,1.0,8.m4v,6.0
2024-02-27 16:07:56.613899,1709046476.6138985,-13.18359375,-44.43359375,-31.25,-31.25,-1.0,1.0,0.0,1.0,8.m4v,6.0
2024-02-27 16:07:56.617804,1709046476.617804,-34.66796875,-52.734375,-46.875,-32.71484375,-1.0,1.0,0.0,1.0,8.m4v,6.0
2024-02-27 16:07:56.621710,1709046476.6217096,-38.0859375,-40.52734375,-47.8515625,-17.578125,-1.0,1.0,0.0,1.0,8.m4v,6.0
2024-02-27 16:07:56.625615,1709046476.6256151,-8.30078125,-37.109375,-42.48046875,-15.13671875,-1.0,1.0,0.0,1.0,8.m4v,6.0
2024-02-27 16:07:56.629521,1709046476.629521,11.23046875,-40.0390625,-43.45703125,-13.18359375,-1.0,1.0,0.0,1.0,8.m4v,6.0
2024-02-27 16:07:56.633426,1709046476.633426,-1.46484375,-28.3203125,-39.55078125,-14.16015625,-1.0,1.0,0.0,1.0,8.m4v,6.0
2024-02-27 16:07:56.637331,1709046476.6373315,-24.4140625,-34.66796875,-48.33984375,-27.34375,-1.0,1.0,0.0,1.0,8.m4v,6.0
2024-02-27 16:07:56.641237,1709046476.641237,-35.15625,-46.875,-49.8046875,-15.625,-1.0,1.0,0.0,1.0,8.m4v,6.0
2024-02-27 16:07:56.645149,1709046476.6451492,-7.32421875,-44.43359375,-34.66796875,-1.953125,-1.0,1.0,0.0,1.0,8.m4v,6.0
2024-02-27 16:07:56.649055,1709046476.6490548,21.97265625,-35.64453125,-31.25,-2.44140625,-1.0,1.0,0.0,1.0,8.m4v,6.0
2024-02-27 16:07:56.652960,1709046476.6529603,23.4375,-35.64453125,-40.0390625,-4.39453125,-1.0,1.0,0.0,1.0,8.m4v,6.0
2024-02-27 16:07:56.656866,1709046476.6568658,-16.11328125,-40.0390625,-44.921875,-15.13671875,-1.0,1.0,0.0,1.0,8.m4v,6.0
2024-02-27 16:07:56.660771,1709046476.6607711,-49.8046875,-43.45703125,-45.41015625,-16.6015625,-1.0,1.0,0.0,1.0,8.m4v,6.0
2024-02-27 16:07:56.664677,1709046476.664677,-9.27734375,-34.1796875,-45.41015625,2.9296875,-1.0,1.0,0.0,1.0,8.m4v,6.0
2024-02-27 16:07:56.668582,1709046476.6685822,24.4140625,-31.73828125,-47.36328125,-1.953125,-1.0,1.0,0.0,1.0,8.m4v,6.0
2024-02-27 16:07:56.672488,1709046476.6724875,5.859375,-41.015625,-38.0859375,-14.6484375,-1.0,1.0,0.0,1.0,8.m4v,6.0
2024-02-27 16:07:56.676393,1709046476.6763933,-36.62109375,-53.7109375,-35.64453125,-19.04296875,-1.0,1.0,0.0,1.0,8.m4v,6.0
2024-02-27 16:07:56.680299,1709046476.6802986,-59.5703125,-46.875,-39.55078125,-14.16015625,-1.0,1.0,0.0,1.0,8.m4v,6.0
2024-02-27 16:07:56.684204,1709046476.684204,-19.04296875,-30.2734375,-41.9921875,-0.48828125,-1.0,1.0,0.0,1.0,8.m4v,6.0
2024-02-27 16:07:56.688110,1709046476.6881096,19.53125,-47.8515625,-56.15234375,-4.8828125,-1.0,1.0,0.0,1.0,8.m4v,6.0
2024-02-27 16:07:56.692022,1709046476.6920218,6.34765625,-56.640625,-51.26953125,-16.6015625,-1.0,1.0,0.0,1.0,8.m4v,6.0
2024-02-27 16:07:56.695927,1709046476.6959271,-18.5546875,-38.57421875,-38.0859375,-17.578125,-1.0,1.0,0.0,1.0,8.m4v,6.0
2024-02-27 16:07:56.699833,1709046476.699833,-42.48046875,-35.15625,-41.50390625,-12.20703125,-1.0,1.0,0.0,1.0,8.m4v,6.0
2024-02-27 16:07:56.703738,1709046476.7037382,-41.9921875,-47.36328125,-39.55078125,-3.90625,-1.0,1.0,0.0,1.0,8.m4v,6.0
2024-02-27 16:07:56.707644,1709046476.7076435,-13.18359375,-42.48046875,-35.64453125,-3.41796875,-1.0,1.0,0.0,1.0,8.m4v,6.0
2024-02-27 16:07:56.711549,1709046476.7115493,8.30078125,-31.25,-40.0390625,-7.8125,-1.0,1.0,0.0,1.0,8.m4v,6.0
2024-02-27 16:07:57.164648,1709046477.164648,-47.8515625,-15.13671875,-40.52734375,-30.2734375,-1.0,1.0,0.0,1.0,8.m4v,6.0
2024-02-27 16:07:57.172459,1709046477.1724591,-16.6015625,-31.25,-33.69140625,-39.0625,-1.0,1.0,0.0,1.0,8.m4v,6.0
2024-02-27 16:07:57.180270,1709046477.1802702,-59.5703125,-38.57421875,-38.57421875,-33.203125,-1.0,1.0,0.0,1.0,8.m4v,6.0
2024-02-27 16:07:57.188081,1709046477.188081,-31.25,-40.52734375,-39.0625,-34.66796875,-1.0,1.0,0.0,1.0,8.m4v,6.0
2024-02-27 16:07:57.195892,1709046477.195892,-50.78125,-31.25,-19.53125,-37.59765625,-1.0,1.0,0.0,1.0,8.m4v,6.0
2024-02-27 16:07:57.203703,1709046477.203703,-58.59375,-37.109375,-26.85546875,-34.1796875,-1.0,1.0,0.0,1.0,8.m4v,6.0
2024-02-27 16:07:57.211519,1709046477.2115197,-44.921875,-35.15625,-41.50390625,-39.55078125,-1.0,1.0,0.0,1.0,8.m4v,6.0
2024-02-27 16:07:57.219331,1709046477.2193303,-67.3828125,-35.15625,-39.0625,-35.64453125,-1.0,1.0,0.0,1.0,8.m4v,6.0
2024-02-27 16:07:57.227141,1709046477.2271414,-9.27734375,-40.0390625,-32.2265625,-32.2265625,-1.0,1.0,0.0,1.0,8.m4v,6.0
2024-02-27 16:07:57.234952,1709046477.2349524,-33.203125,-48.33984375,-45.8984375,-40.52734375,-1.0,1.0,0.0,1.0,8.m4v,6.0
2024-02-27 16:07:57.242763,1709046477.2427633,-61.03515625,-24.90234375,-23.4375,-22.94921875,-1.0,1.0,0.0,1.0,8.m4v,6.0
2024-02-27 16:07:57.250574,1709046477.2505744,-23.4375,-44.43359375,-28.80859375,-33.203125,-1.0,1.0,0.0,1.0,8.m4v,6.0
2024-02-27 16:07:57.258390,1709046477.2583904,-59.08203125,-33.69140625,-28.80859375,-26.85546875,-1.0,1.0,0.0,1.0,8.m4v,6.0
2024-02-27 16:07:57.266201,1709046477.2662015,-37.59765625,-30.76171875,-32.71484375,-23.4375,-1.0,1.0,0.0,1.0,8.m4v,6.0
2024-02-27 16:07:57.274013,1709046477.2740126,-32.2265625,-34.1796875,-29.296875,-43.9453125,-1.0,1.0,0.0,1.0,8.m4v,6.0
2024-02-27 16:07:57.281823,1709046477.2818234,-69.3359375,-45.8984375,-31.73828125,-36.1328125,-1.0,1.0,0.0,1.0,8.m4v,6.0
2024-02-27 16:07:57.289634,1709046477.2896345,-0.9765625,-37.109375,-31.73828125,-33.203125,-1.0,1.0,0.0,1.0,8.m4v,6.0
2024-02-27 16:07:57.297445,1709046477.2974453,-48.33984375,-47.8515625,-44.921875,-43.9453125,-1.0,1.0,0.0,1.0,8.m4v,6.0
2024-02-27 16:07:57.305261,1709046477.3052611,-32.2265625,-35.15625,-23.92578125,-36.1328125,-1.0,1.0,0.0,1.0,8.m4v,6.0
2024-02-27 16:07:57.313072,1709046477.313072,-13.671875,-31.25,-26.3671875,-41.9921875,-1.0,1.0,0.0,1.0,8.m4v,6.0
2024-02-27 16:07:57.320883,1709046477.320883,-43.9453125,-36.1328125,-39.55078125,-24.4140625,-1.0,1.0,0.0,1.0,8.m4v,6.0
2024-02-27 16:07:57.328694,1709046477.328694,-26.3671875,-38.57421875,-34.1796875,-32.71484375,-1.0,1.0,0.0,1.0,8.m4v,6.0
2024-02-27 16:07:57.336505,1709046477.336505,-35.64453125,-29.296875,-31.73828125,-38.57421875,-1.0,1.0,0.0,1.0,8.m4v,6.0
2024-02-27 16:07:57.344316,1709046477.344316,-44.921875,-35.64453125,-27.83203125,-25.390625,-1.0,1.0,0.0,1.0,8.m4v,6.0
2024-02-27 16:07:57.352134,1709046477.3521345,-4.8828125,-36.1328125,-26.85546875,-46.875,-1.0,1.0,0.0,1.0,8.m4v,6.0
2024-02-27 16:07:57.359946,1709046477.3599455,-65.4296875,-39.55078125,-19.04296875,-35.64453125,-1.0,1.0,0.0,1.0,8.m4v,6.0
2024-02-27 16:07:57.367756,1709046477.3677564,9.27734375,-26.3671875,-29.78515625,-25.390625,-1.0,1.0,0.0,1.0,8.m4v,6.0
2024-02-27 16:07:57.375567,1709046477.3755674,-34.1796875,-32.2265625,-33.69140625,-36.1328125,-1.0,1.0,0.0,1.0,8.m4v,6.0
2024-02-27 16:07:57.383378,1709046477.3833785,-52.734375,-33.69140625,-29.78515625,-33.69140625,-1.0,1.0,0.0,1.0,8.m4v,6.0
2024-02-27 16:07:57.391189,1709046477.391189,-4.39453125,-35.15625,-27.34375,-35.64453125,-1.0,1.0,0.0,1.0,8.m4v,6.0
2024-02-27 16:07:57.399008,1709046477.3990076,-58.10546875,-23.92578125,-29.296875,-41.015625,-1.0,1.0,0.0,1.0,8.m4v,6.0
2024-02-27 16:07:57.406819,1709046477.4068186,-24.4140625,-20.5078125,-46.38671875,-32.71484375,-1.0,1.0,0.0,1.0,8.m4v,6.0
2024-02-27 16:07:57.414629,1709046477.4146297,-31.73828125,-37.109375,-31.73828125,-59.5703125,-1.0,1.0,0.0,1.0,8.m4v,6.0
2024-02-27 16:07:57.422441,1709046477.4224403,-65.4296875,-27.34375,-26.85546875,-29.296875,-1.0,1.0,0.0,1.0,8.m4v,6.0
2024-02-27 16:07:57.430251,1709046477.4302514,-19.04296875,-28.80859375,-30.2734375,-27.83203125,-1.0,1.0,0.0,1.0,8.m4v,6.0
2024-02-27 16:07:57.438062,1709046477.4380624,-61.03515625,-30.76171875,-26.3671875,-42.48046875,-1.0,1.0,0.0,1.0,8.m4v,6.0
2024-02-27 16:07:57.445880,1709046477.4458802,-26.85546875,-26.3671875,-32.2265625,-33.203125,-1.0,1.0,0.0,1.0,8.m4v,6.0
2024-02-27 16:07:57.453691,1709046477.4536912,-8.30078125,-48.828125,-37.109375,-49.8046875,-1.0,1.0,0.0,1.0,8.m4v,6.0
2024-02-27 16:07:57.461502,1709046477.461502,-59.08203125,-26.85546875,-45.8984375,-44.43359375,-1.0,1.0,0.0,1.0,8.m4v,6.0
2024-02-27 16:07:57.469313,1709046477.4693131,-2.9296875,-22.94921875,-37.59765625,-32.71484375,-1.0,1.0,0.0,1.0,8.m4v,6.0
2024-02-27 16:07:57.477124,1709046477.4771242,-58.10546875,-29.78515625,-41.015625,-43.45703125,-1.0,1.0,0.0,1.0,8.m4v,6.0
2024-02-27 16:07:57.484935,1709046477.484935,-43.45703125,-51.26953125,-26.3671875,-28.80859375,-1.0,1.0,0.0,1.0,8.m4v,6.0
2024-02-27 16:07:57.492753,1709046477.4927526,-21.97265625,-21.484375,-23.92578125,-41.9921875,-1.0,1.0,0.0,1.0,8.m4v,6.0
2024-02-27 16:07:57.500564,1709046477.5005636,-76.171875,-37.59765625,-35.15625,-44.921875,-1.0,1.0,0.0,1.0,8.m4v,6.0
2024-02-27 16:07:57.508374,1709046477.5083745,-13.671875,-30.76171875,-33.203125,-44.921875,-1.0,1.0,0.0,1.0,8.m4v,6.0
2024-02-27 16:07:57.516186,1709046477.5161855,-43.45703125,-34.1796875,-44.921875,-34.1796875,-1.0,1.0,0.0,1.0,8.m4v,6.0
2024-02-27 16:07:57.523996,1709046477.5239964,-35.15625,-29.296875,-21.484375,-27.83203125,-1.0,1.0,0.0,1.0,8.m4v,6.0
2024-02-27 16:07:57.531807,1709046477.5318074,-26.85546875,-31.25,-38.57421875,-44.43359375,-1.0,1.0,0.0,1.0,8.m4v,6.0
2024-02-27 16:07:57.539624,1709046477.5396245,-57.6171875,-35.64453125,-30.76171875,-31.73828125,-1.0,1.0,0.0,1.0,8.m4v,6.0
2024-02-27 16:07:57.547436,1709046477.5474355,-14.6484375,-36.62109375,-36.62109375,-19.04296875,-1.0,1.0,0.0,1.0,8.m4v,6.0
2024-02-27 16:07:57.555247,1709046477.5552466,-18.5546875,-35.64453125,-26.3671875,-33.203125,-1.0,1.0,0.0,1.0,8.m4v,6.0
2024-02-27 16:07:57.563057,1709046477.5630574,-68.359375,-32.71484375,-38.57421875,-40.52734375,-1.0,1.0,0.0,1.0,8.m4v,6.0
2024-02-27 16:07:57.570868,1709046477.5708685,-5.37109375,-39.0625,-35.64453125,-28.80859375,-1.0,1.0,0.0,1.0,8.m4v,6.0
2024-02-27 16:07:57.578679,1709046477.578679,-52.734375,-40.0390625,-38.57421875,-40.0390625,-1.0,1.0,0.0,1.0,8.m4v,6.0
2024-02-27 16:07:57.586496,1709046477.5864964,-33.69140625,-44.921875,-33.69140625,-31.25,-1.0,1.0,0.0,1.0,8.m4v,6.0
2024-02-27 16:07:57.594307,1709046477.5943074,-29.78515625,-38.57421875,-31.25,-48.33984375,-1.0,1.0,0.0,1.0,8.m4v,6.0
2024-02-27 16:07:57.602118,1709046477.6021185,-62.5,-38.0859375,-36.1328125,-52.24609375,-1.0,1.0,0.0,1.0,8.m4v,6.0
2024-02-27 16:07:57.609929,1709046477.609929,-25.87890625,-58.59375,-42.48046875,-42.48046875,-1.0,1.0,0.0,1.0,8.m4v,6.0
2024-02-27 16:07:57.617740,1709046477.6177402,-73.73046875,-40.0390625,-43.9453125,-47.8515625,-1.0,1.0,0.0,1.0,8.m4v,6.0
2024-02-27 16:07:57.625551,1709046477.6255512,-34.1796875,-36.62109375,-26.3671875,-38.57421875,-1.0,1.0,0.0,1.0,8.m4v,6.0
2024-02-27 16:07:57.633368,1709046477.6333675,-17.578125,-38.57421875,-42.48046875,-42.96875,-1.0,1.0,0.0,1.0,8.m4v,6.0
2024-02-27 16:07:57.641178,1709046477.6411784,-68.84765625,-43.45703125,-28.80859375,-37.109375,-1.0,1.0,0.0,1.0,8.m4v,6.0
2024-02-27 16:07:57.648989,1709046477.6489894,-8.30078125,-30.2734375,-31.25,-23.4375,-1.0,1.0,0.0,1.0,8.m4v,6.0
2024-02-27 16:07:57.656800,1709046477.6568005,-61.03515625,-48.828125,-54.19921875,-38.57421875,-1.0,1.0,0.0,1.0,8.m4v,6.0
2024-02-27 16:07:57.664611,1709046477.664611,-52.734375,-41.9921875,-37.109375,-28.80859375,-1.0,1.0,0.0,1.0,8.m4v,6.0
2024-02-27 16:07:57.672422,1709046477.6724222,-28.3203125,-31.73828125,-26.3671875,-35.15625,-1.0,1.0,0.0,1.0,8.m4v,6.0
2024-02-27 16:07:57.680238,1709046477.6802382,-52.734375,-41.015625,-24.4140625,-26.3671875,-1.0,1.0,0.0,1.0,8.m4v,6.0
2024-02-27 16:07:57.688049,1709046477.6880493,-9.27734375,-30.76171875,-22.4609375,-26.3671875,-1.0,1.0,0.0,1.0,8.m4v,6.0
2024-02-27 16:07:57.695860,1709046477.69586,-31.73828125,-32.71484375,-38.57421875,-39.55078125,-1.0,1.0,0.0,1.0,8.m4v,6.0
2024-02-27 16:07:57.703671,1709046477.7036712,-52.734375,-45.8984375,-34.1796875,-34.66796875,-1.0,1.0,0.0,1.0,8.m4v,6.0
2024-02-27 16:07:57.711482,1709046477.711482,-2.9296875,-32.2265625,-23.92578125,-20.5078125,-1.0,1.0,0.0,1.0,8.m4v,6.0
2024-02-27 16:07:57.719293,1709046477.719293,-65.4296875,-40.0390625,-25.390625,-34.1796875,-1.0,1.0,0.0,1.0,8.m4v,6.0
2024-02-27 16:07:57.727111,1709046477.727111,-33.69140625,-38.0859375,-42.48046875,-40.52734375,-1.0,1.0,0.0,1.0,8.m4v,6.0
2024-02-27 16:07:57.734922,1709046477.7349222,-30.2734375,-35.15625,-31.73828125,-35.15625,-1.0,1.0,0.0,1.0,8.m4v,6.0
2024-02-27 16:07:57.922412,1709046477.9224122,-50.78125,-39.55078125,-18.5546875,-20.01953125,-1.0,1.0,0.0,1.0,8.m4v,6.0
2024-02-27 16:07:57.930223,1709046477.930223,-17.578125,-37.109375,-41.50390625,-43.9453125,-1.0,1.0,0.0,1.0,8.m4v,6.0
2024-02-27 16:07:57.941939,1709046477.9419394,-88.37890625,-41.9921875,-27.83203125,-37.59765625,-1.0,1.0,0.0,1.0,8.m4v,6.0
2024-02-27 16:07:57.949750,1709046477.9497504,-19.53125,-30.2734375,-37.109375,-37.109375,-1.0,1.0,0.0,1.0,8.m4v,6.0
2024-02-27 16:07:57.961473,1709046477.9614727,-46.38671875,-33.69140625,-39.55078125,-16.11328125,-1.0,1.0,0.0,1.0,8.m4v,6.0
2024-02-27 16:07:57.969284,1709046477.9692838,3.90625,-42.48046875,-30.2734375,-11.23046875,-1.0,1.0,0.0,1.0,8.m4v,6.0
2024-02-27 16:07:57.981000,1709046477.9810002,-51.7578125,-32.71484375,-32.2265625,-13.671875,-1.0,1.0,0.0,1.0,8.m4v,6.0
2024-02-27 16:07:57.988811,1709046477.9888113,2.44140625,-20.01953125,-21.97265625,-15.625,-1.0,1.0,0.0,1.0,8.m4v,6.0
2024-02-27 16:07:58.145059,1709046478.1450589,-36.62109375,-36.62109375,-22.4609375,-24.90234375,-1.0,1.0,0.0,1.0,8.m4v,6.0
2024-02-27 16:07:58.148964,1709046478.1489644,-13.671875,-35.64453125,-25.87890625,-32.2265625,-1.0,1.0,0.0,1.0,8.m4v,6.0
2024-02-27 16:07:58.152870,1709046478.15287,-29.78515625,-42.96875,-35.15625,-47.36328125,-1.0,1.0,0.0,1.0,8.m4v,6.0
2024-02-27 16:07:58.156775,1709046478.1567757,-46.875,-34.66796875,-28.80859375,-39.55078125,-1.0,1.0,0.0,1.0,8.m4v,6.0
2024-02-27 16:07:58.160681,1709046478.160681,-65.91796875,-28.3203125,-26.85546875,-30.76171875,-1.0,1.0,0.0,1.0,8.m4v,6.0
2024-02-27 16:07:58.164586,1709046478.1645863,-49.8046875,-39.0625,-34.66796875,-29.78515625,-1.0,1.0,0.0,1.0,8.m4v,6.0
2024-02-27 16:07:58.168492,1709046478.1684918,-27.34375,-44.921875,-37.109375,-29.78515625,-1.0,1.0,0.0,1.0,8.m4v,6.0
2024-02-27 16:07:58.172397,1709046478.1723974,-36.1328125,-44.921875,-35.64453125,-33.203125,-1.0,1.0,0.0,1.0,8.m4v,6.0
2024-02-27 16:07:58.176303,1709046478.176303,-43.45703125,-41.50390625,-35.64453125,-34.66796875,-1.0,1.0,0.0,1.0,8.m4v,6.0
2024-02-27 16:07:58.180208,1709046478.1802084,-57.12890625,-40.0390625,-42.48046875,-28.80859375,-1.0,1.0,0.0,1.0,8.m4v,6.0
2024-02-27 16:07:58.184114,1709046478.1841135,-33.69140625,-28.3203125,-44.43359375,-20.5078125,-1.0,1.0,0.0,1.0,8.m4v,6.0
2024-02-27 16:07:58.188019,1709046478.1880193,-0.48828125,-20.99609375,-34.66796875,-27.83203125,-1.0,1.0,0.0,1.0,8.m4v,6.0
2024-02-27 16:07:58.191931,1709046478.1919315,-8.30078125,-30.2734375,-23.92578125,-39.0625,-1.0,1.0,0.0,1.0,8.m4v,6.0
2024-02-27 16:07:58.195837,1709046478.195837,-35.15625,-30.76171875,-19.04296875,-35.64453125,-1.0,1.0,0.0,1.0,8.m4v,6.0
2024-02-27 16:07:58.199743,1709046478.1997426,-62.01171875,-30.76171875,-20.99609375,-30.76171875,-1.0,1.0,0.0,1.0,8.m4v,6.0
2024-02-27 16:07:58.203648,1709046478.203648,-50.78125,-32.71484375,-28.80859375,-31.25,-1.0,1.0,0.0,1.0,8.m4v,6.0
2024-02-27 16:07:58.207553,1709046478.2075534,-19.53125,-29.78515625,-28.80859375,-33.203125,-1.0,1.0,0.0,1.0,8.m4v,6.0
2024-02-27 16:07:58.211459,1709046478.211459,-19.53125,-38.0859375,-28.3203125,-40.52734375,-1.0,1.0,0.0,1.0,8.m4v,6.0
2024-02-27 16:07:58.215364,1709046478.2153645,-37.109375,-38.57421875,-32.71484375,-43.9453125,-1.0,1.0,0.0,1.0,8.m4v,6.0
2024-02-27 16:07:58.219270,1709046478.21927,-60.546875,-31.25,-28.3203125,-31.25,-1.0,1.0,0.0,1.0,8.m4v,6.0
2024-02-27 16:07:58.223175,1709046478.2231753,-48.33984375,-37.59765625,-31.25,-19.04296875,-1.0,1.0,0.0,1.0,8.m4v,6.0
2024-02-27 16:07:58.227081,1709046478.2270808,-19.04296875,-38.0859375,-42.48046875,-35.64453125,-1.0,1.0,0.0,1.0,8.m4v,6.0
2024-02-27 16:07:58.230986,1709046478.2309864,-12.6953125,-37.59765625,-38.57421875,-42.48046875,-1.0,1.0,0.0,1.0,8.m4v,6.0
2024-02-27 16:07:58.234892,1709046478.234892,-20.01953125,-41.9921875,-27.34375,-39.55078125,-1.0,1.0,0.0,1.0,8.m4v,6.0
2024-02-27 16:07:58.238804,1709046478.2388036,-58.10546875,-36.62109375,-36.1328125,-44.43359375,-1.0,1.0,0.0,1.0,8.m4v,6.0
2024-02-27 16:07:58.242709,1709046478.2427092,-56.15234375,-23.92578125,-39.55078125,-37.109375,-1.0,1.0,0.0,1.0,8.m4v,6.0
2024-02-27 16:07:58.246615,1709046478.2466147,-10.25390625,-19.53125,-14.16015625,-32.71484375,-1.0,1.0,0.0,1.0,8.m4v,6.0
2024-02-27 16:07:58.250520,1709046478.25052,-4.39453125,-31.25,-8.30078125,-38.0859375,-1.0,1.0,0.0,1.0,8.m4v,6.0
2024-02-27 16:07:58.254426,1709046478.2544255,-27.83203125,-35.15625,-20.99609375,-43.9453125,-1.0,1.0,0.0,1.0,8.m4v,6.0
2024-02-27 16:07:58.258331,1709046478.258331,-41.50390625,-21.97265625,-25.390625,-35.64453125,-1.0,1.0,0.0,1.0,8.m4v,6.0
2024-02-27 16:07:58.262237,1709046478.2622366,-53.7109375,-28.80859375,-30.2734375,-32.2265625,-1.0,1.0,0.0,1.0,8.m4v,6.0
2024-02-27 16:07:58.266142,1709046478.266142,-48.828125,-42.48046875,-34.1796875,-39.0625,-1.0,1.0,0.0,1.0,8.m4v,6.0
2024-02-27 16:07:58.270047,1709046478.2700474,-21.97265625,-47.36328125,-34.66796875,-42.96875,-1.0,1.0,0.0,1.0,8.m4v,6.0
2024-02-27 16:07:58.273953,1709046478.273953,-20.5078125,-41.015625,-35.64453125,-45.8984375,-1.0,1.0,0.0,1.0,8.m4v,6.0
2024-02-27 16:07:58.277858,1709046478.2778585,-61.5234375,-29.296875,-36.1328125,-45.8984375,-1.0,1.0,0.0,1.0,8.m4v,6.0
2024-02-27 16:07:58.281764,1709046478.281764,-66.89453125,-21.97265625,-32.71484375,-40.0390625,-1.0,1.0,0.0,1.0,8.m4v,6.0
2024-02-27 16:07:58.285675,1709046478.2856753,-22.4609375,-21.97265625,-33.203125,-34.1796875,-1.0,1.0,0.0,1.0,8.m4v,6.0
2024-02-27 16:07:58.289581,1709046478.2895808,-0.9765625,-28.80859375,-34.66796875,-32.71484375,-1.0,1.0,0.0,1.0,8.m4v,6.0
2024-02-27 16:07:58.293486,1709046478.2934864,-5.859375,-32.2265625,-37.109375,-36.1328125,-1.0,1.0,0.0,1.0,8.m4v,6.0
2024-02-27 16:07:58.297392,1709046478.297392,-35.64453125,-29.296875,-42.96875,-42.96875,-1.0,1.0,0.0,1.0,8.m4v,6.0
2024-02-27 16:07:58.301297,1709046478.3012972,-56.15234375,-40.0390625,-32.71484375,-40.0390625,-1.0,1.0,0.0,1.0,8.m4v,6.0
2024-02-27 16:07:58.305203,1709046478.3052027,-29.78515625,-48.33984375,-26.3671875,-30.76171875,-1.0,1.0,0.0,1.0,8.m4v,6.0
2024-02-27 16:07:58.309108,1709046478.3091085,-4.39453125,-42.48046875,-41.9921875,-32.2265625,-1.0,1.0,0.0,1.0,8.m4v,6.0
2024-02-27 16:07:58.313014,1709046478.3130138,-22.4609375,-40.52734375,-40.52734375,-41.9921875,-1.0,1.0,0.0,1.0,8.m4v,6.0
2024-02-27 16:07:58.316919,1709046478.316919,-59.5703125,-33.69140625,-30.2734375,-48.828125,-1.0,1.0,0.0,1.0,8.m4v,6.0
2024-02-27 16:07:58.320825,1709046478.3208246,-77.1484375,-27.34375,-30.76171875,-48.828125,-1.0,1.0,0.0,1.0,8.m4v,6.0
2024-02-27 16:07:58.324730,1709046478.3247302,-45.8984375,-29.296875,-34.1796875,-34.1796875,-1.0,1.0,0.0,1.0,8.m4v,6.0
2024-02-27 16:07:58.328636,1709046478.3286357,-23.92578125,-32.2265625,-38.57421875,-37.109375,-1.0,1.0,0.0,1.0,8.m4v,6.0
2024-02-27 16:07:58.332547,1709046478.3325467,-37.109375,-31.25,-35.64453125,-50.29296875,-1.0,1.0,0.0,1.0,8.m4v,6.0
2024-02-27 16:07:58.336452,1709046478.3364522,-55.17578125,-41.50390625,-27.83203125,-50.29296875,-1.0,1.0,0.0,1.0,8.m4v,6.0
2024-02-27 16:07:58.340358,1709046478.3403578,-72.75390625,-44.43359375,-24.90234375,-45.41015625,-1.0,1.0,0.0,1.0,8.m4v,6.0
2024-02-27 16:07:58.344263,1709046478.344263,-55.6640625,-33.203125,-30.76171875,-36.1328125,-1.0,1.0,0.0,1.0,8.m4v,6.0
2024-02-27 16:07:58.348169,1709046478.3481686,-29.78515625,-34.66796875,-37.59765625,-39.55078125,-1.0,1.0,0.0,1.0,8.m4v,6.0
2024-02-27 16:07:58.352074,1709046478.352074,-20.01953125,-36.62109375,-36.1328125,-47.36328125,-1.0,1.0,0.0,1.0,8.m4v,6.0
2024-02-27 16:07:58.355980,1709046478.3559797,-40.0390625,-38.0859375,-36.1328125,-49.31640625,-1.0,1.0,0.0,1.0,8.m4v,6.0
2024-02-27 16:07:58.359885,1709046478.3598852,-72.265625,-38.57421875,-35.15625,-41.9921875,-1.0,1.0,0.0,1.0,8.m4v,6.0
2024-02-27 16:07:58.363791,1709046478.3637905,-59.5703125,-35.15625,-31.25,-37.59765625,-1.0,1.0,0.0,1.0,8.m4v,6.0
2024-02-27 16:07:58.367696,1709046478.367696,-18.06640625,-36.1328125,-38.57421875,-32.71484375,-1.0,1.0,0.0,1.0,8.m4v,6.0
2024-02-27 16:07:58.371602,1709046478.3716016,-21.484375,-40.52734375,-43.45703125,-42.48046875,-1.0,1.0,0.0,1.0,8.m4v,6.0
2024-02-27 16:07:58.375507,1709046478.375507,-52.734375,-50.29296875,-29.296875,-48.828125,-1.0,1.0,0.0,1.0,8.m4v,6.0
2024-02-27 16:07:58.379418,1709046478.3794177,-69.3359375,-45.41015625,-22.4609375,-44.43359375,-1.0,1.0,0.0,1.0,8.m4v,6.0
2024-02-27 16:07:58.383323,1709046478.3833232,-53.7109375,-34.66796875,-27.83203125,-39.55078125,-1.0,1.0,0.0,1.0,8.m4v,6.0
2024-02-27 16:07:58.387229,1709046478.3872287,-16.11328125,-36.1328125,-25.87890625,-30.76171875,-1.0,1.0,0.0,1.0,8.m4v,6.0
2024-02-27 16:07:58.391134,1709046478.3911345,-7.32421875,-31.25,-20.5078125,-31.73828125,-1.0,1.0,0.0,1.0,8.m4v,6.0
2024-02-27 16:07:58.395040,1709046478.3950398,-36.1328125,-30.2734375,-21.97265625,-36.62109375,-1.0,1.0,0.0,1.0,8.m4v,6.0
2024-02-27 16:07:58.398945,1709046478.398945,-61.03515625,-28.3203125,-31.25,-33.203125,-1.0,1.0,0.0,1.0,8.m4v,6.0
2024-02-27 16:07:58.402851,1709046478.4028506,-46.38671875,-31.73828125,-41.50390625,-23.4375,-1.0,1.0,0.0,1.0,8.m4v,6.0
2024-02-27 16:07:58.406756,1709046478.4067562,-22.4609375,-34.66796875,-43.45703125,-27.83203125,-1.0,1.0,0.0,1.0,8.m4v,6.0
2024-02-27 16:07:58.410662,1709046478.4106617,-16.11328125,-30.2734375,-35.15625,-32.71484375,-1.0,1.0,0.0,1.0,8.m4v,6.0
2024-02-27 16:07:58.414567,1709046478.4145672,-29.296875,-30.2734375,-26.85546875,-39.0625,-1.0,1.0,0.0,1.0,8.m4v,6.0
2024-02-27 16:07:58.418473,1709046478.4184723,-55.17578125,-36.1328125,-25.87890625,-46.875,-1.0,1.0,0.0,1.0,8.m4v,6.0
2024-02-27 16:07:58.422378,1709046478.422378,-51.26953125,-41.9921875,-24.90234375,-26.85546875,-1.0,1.0,0.0,1.0,8.m4v,6.0
2024-02-27 16:07:58.426289,1709046478.4262888,-14.6484375,-29.78515625,-18.5546875,-16.11328125,-1.0,1.0,0.0,1.0,8.m4v,6.0
2024-02-27 16:07:58.430194,1709046478.4301944,-12.6953125,-28.3203125,-26.85546875,-29.78515625,-1.0,1.0,0.0,1.0,8.m4v,6.0
2024-02-27 16:07:58.434100,1709046478.4340997,-41.9921875,-33.203125,-40.0390625,-40.0390625,-1.0,1.0,0.0,1.0,8.m4v,6.0
2024-02-27 16:07:58.438005,1709046478.4380052,-67.87109375,-34.1796875,-33.203125,-42.96875,-1.0,1.0,0.0,1.0,8.m4v,6.0
2024-02-27 16:07:58.441911,1709046478.4419107,-61.5234375,-32.2265625,-25.390625,-25.390625,-1.0,1.0,0.0,1.0,8.m4v,6.0
2024-02-27 16:07:58.445816,1709046478.4458165,-19.04296875,-33.69140625,-27.34375,-18.06640625,-1.0,1.0,0.0,1.0,8.m4v,6.0
2024-02-27 16:07:58.449722,1709046478.4497218,-9.27734375,-35.64453125,-36.62109375,-33.203125,-1.0,1.0,0.0,1.0,8.m4v,6.0
2024-02-27 16:07:58.453627,1709046478.453627,-28.3203125,-26.85546875,-33.203125,-35.15625,-1.0,1.0,0.0,1.0,8.m4v,6.0
2024-02-27 16:07:58.457533,1709046478.4575326,-44.43359375,-22.94921875,-25.87890625,-31.25,-1.0,1.0,0.0,1.0,8.m4v,6.0
