Timestamp,Timestamp_UNIX,TP9,AF7,AF8,TP10,Valence,Arousal,Dominace,Viewed,Video,Participant
2024-02-27 11:46:21.002255,1709030781.0022552,-45.8984375,-45.41015625,-39.0625,-41.9921875,1.0,-1.0,1.0,1.0,7.m4v,3.0
2024-02-27 11:46:21.006160,1709030781.0061605,-45.8984375,-32.2265625,-34.66796875,-34.66796875,1.0,-1.0,1.0,1.0,7.m4v,3.0
2024-02-27 11:46:21.010066,1709030781.0100658,-49.8046875,-35.64453125,-27.83203125,-32.2265625,1.0,-1.0,1.0,1.0,7.m4v,3.0
2024-02-27 11:46:21.013971,1709030781.013971,-46.38671875,-35.64453125,-34.66796875,-35.15625,1.0,-1.0,1.0,1.0,7.m4v,3.0
2024-02-27 11:46:21.017877,1709030781.0178766,-38.57421875,-35.64453125,-47.36328125,-52.734375,1.0,-1.0,1.0,1.0,7.m4v,3.0
2024-02-27 11:46:21.021782,1709030781.021782,-34.1796875,-28.80859375,-38.0859375,-54.6875,1.0,-1.0,1.0,1.0,7.m4v,3.0
2024-02-27 11:46:21.025687,1709030781.0256872,-46.875,-31.25,-32.71484375,-52.24609375,1.0,-1.0,1.0,1.0,7.m4v,3.0
2024-02-27 11:46:21.029593,1709030781.0295928,-51.26953125,-41.015625,-31.73828125,-42.48046875,1.0,-1.0,1.0,1.0,7.m4v,3.0
2024-02-27 11:46:21.033498,1709030781.033498,-40.0390625,-35.15625,-22.94921875,-32.2265625,1.0,-1.0,1.0,1.0,7.m4v,3.0
2024-02-27 11:46:21.037403,1709030781.037403,-46.38671875,-48.33984375,-27.83203125,-37.109375,1.0,-1.0,1.0,1.0,7.m4v,3.0
2024-02-27 11:46:21.041309,1709030781.0413089,-53.22265625,-61.03515625,-33.69140625,-41.50390625,1.0,-1.0,1.0,1.0,7.m4v,3.0
2024-02-27 11:46:21.045214,1709030781.0452142,-48.828125,-64.453125,-33.69140625,-40.0390625,1.0,-1.0,1.0,1.0,7.m4v,3.0
2024-02-27 11:46:21.049135,1709030781.0491347,-37.109375,-49.31640625,-37.109375,-20.5078125,1.0,-1.0,1.0,1.0,7.m4v,3.0
2024-02-27 11:46:21.053040,1709030781.05304,-33.69140625,-37.59765625,-31.73828125,-20.5078125,1.0,-1.0,1.0,1.0,7.m4v,3.0
2024-02-27 11:46:21.056946,1709030781.0569456,-30.2734375,-39.0625,-27.34375,-33.69140625,1.0,-1.0,1.0,1.0,7.m4v,3.0
2024-02-27 11:46:21.060851,1709030781.0608509,-21.97265625,-29.296875,-28.80859375,-41.015625,1.0,-1.0,1.0,1.0,7.m4v,3.0
2024-02-27 11:46:21.064756,1709030781.0647562,-27.34375,-18.5546875,-29.78515625,-41.015625,1.0,-1.0,1.0,1.0,7.m4v,3.0
2024-02-27 11:46:21.068662,1709030781.0686617,-31.73828125,-8.30078125,-38.0859375,-23.4375,1.0,-1.0,1.0,1.0,7.m4v,3.0
2024-02-27 11:46:21.072567,1709030781.072567,-34.66796875,-29.78515625,-39.55078125,-28.3203125,1.0,-1.0,1.0,1.0,7.m4v,3.0
2024-02-27 11:46:21.076472,1709030781.0764723,-32.2265625,-48.33984375,-34.1796875,-45.8984375,1.0,-1.0,1.0,1.0,7.m4v,3.0
2024-02-27 11:46:21.080378,1709030781.0803778,-40.0390625,-47.8515625,-33.203125,-55.6640625,1.0,-1.0,1.0,1.0,7.m4v,3.0
2024-02-27 11:46:21.084283,1709030781.084283,-61.5234375,-50.29296875,-34.1796875,-57.12890625,1.0,-1.0,1.0,1.0,7.m4v,3.0
2024-02-27 11:46:21.088188,1709030781.0881884,-64.94140625,-50.29296875,-34.66796875,-46.38671875,1.0,-1.0,1.0,1.0,7.m4v,3.0
2024-02-27 11:46:21.092094,1709030781.0920937,-51.26953125,-33.203125,-31.73828125,-44.921875,1.0,-1.0,1.0,1.0,7.m4v,3.0
2024-02-27 11:46:21.096009,1709030781.0960095,-43.9453125,-19.04296875,-34.1796875,-49.8046875,1.0,-1.0,1.0,1.0,7.m4v,3.0
2024-02-27 11:46:21.099915,1709030781.099915,-39.55078125,-22.4609375,-41.50390625,-49.8046875,1.0,-1.0,1.0,1.0,7.m4v,3.0
2024-02-27 11:46:21.103820,1709030781.1038203,-40.0390625,-31.73828125,-33.203125,-50.78125,1.0,-1.0,1.0,1.0,7.m4v,3.0
2024-02-27 11:46:21.107726,1709030781.1077256,-47.8515625,-40.0390625,-21.484375,-42.96875,1.0,-1.0,1.0,1.0,7.m4v,3.0
2024-02-27 11:46:21.111631,1709030781.1116312,-49.31640625,-38.57421875,-27.34375,-33.69140625,1.0,-1.0,1.0,1.0,7.m4v,3.0
2024-02-27 11:46:21.115536,1709030781.1155365,-32.71484375,-18.5546875,-28.3203125,-33.69140625,1.0,-1.0,1.0,1.0,7.m4v,3.0
2024-02-27 11:46:21.119442,1709030781.1194415,-32.2265625,-20.5078125,-20.01953125,-42.48046875,1.0,-1.0,1.0,1.0,7.m4v,3.0
2024-02-27 11:46:21.123347,1709030781.123347,-45.41015625,-38.57421875,-34.66796875,-45.41015625,1.0,-1.0,1.0,1.0,7.m4v,3.0
2024-02-27 11:46:21.127253,1709030781.1272526,-53.22265625,-40.52734375,-45.41015625,-47.36328125,1.0,-1.0,1.0,1.0,7.m4v,3.0
2024-02-27 11:46:21.131158,1709030781.131158,-53.22265625,-34.66796875,-33.69140625,-39.0625,1.0,-1.0,1.0,1.0,7.m4v,3.0
2024-02-27 11:46:21.135063,1709030781.1350632,-39.0625,-29.78515625,-25.87890625,-31.25,1.0,-1.0,1.0,1.0,7.m4v,3.0
2024-02-27 11:46:21.138969,1709030781.1389687,-27.83203125,-28.3203125,-21.484375,-36.62109375,1.0,-1.0,1.0,1.0,7.m4v,3.0
2024-02-27 11:46:21.142884,1709030781.142884,-16.11328125,-19.53125,-19.53125,-27.83203125,1.0,-1.0,1.0,1.0,7.m4v,3.0
2024-02-27 11:46:21.146789,1709030781.1467893,-15.625,-19.53125,-32.71484375,-22.4609375,1.0,-1.0,1.0,1.0,7.m4v,3.0
2024-02-27 11:46:21.150695,1709030781.1506948,-16.6015625,-24.4140625,-32.2265625,-15.625,1.0,-1.0,1.0,1.0,7.m4v,3.0
2024-02-27 11:46:21.154600,1709030781.1546,-13.671875,-16.11328125,-21.97265625,-14.6484375,1.0,-1.0,1.0,1.0,7.m4v,3.0
2024-02-27 11:46:21.158505,1709030781.1585054,-19.53125,-18.5546875,-26.85546875,-26.85546875,1.0,-1.0,1.0,1.0,7.m4v,3.0
2024-02-27 11:46:21.162411,1709030781.162411,-31.25,-8.30078125,-25.87890625,-36.62109375,1.0,-1.0,1.0,1.0,7.m4v,3.0
2024-02-27 11:46:21.166316,1709030781.1663165,-33.69140625,-5.859375,-30.76171875,-29.296875,1.0,-1.0,1.0,1.0,7.m4v,3.0
2024-02-27 11:46:21.170222,1709030781.1702216,-30.2734375,-35.15625,-36.1328125,-28.3203125,1.0,-1.0,1.0,1.0,7.m4v,3.0
2024-02-27 11:46:21.174127,1709030781.174127,-37.59765625,-55.17578125,-37.59765625,-45.8984375,1.0,-1.0,1.0,1.0,7.m4v,3.0
2024-02-27 11:46:21.178032,1709030781.1780324,-38.0859375,-53.7109375,-37.109375,-57.12890625,1.0,-1.0,1.0,1.0,7.m4v,3.0
2024-02-27 11:46:21.181938,1709030781.1819377,-40.52734375,-44.921875,-33.69140625,-62.98828125,1.0,-1.0,1.0,1.0,7.m4v,3.0
2024-02-27 11:46:21.185843,1709030781.1858432,-47.36328125,-41.9921875,-36.1328125,-57.6171875,1.0,-1.0,1.0,1.0,7.m4v,3.0
2024-02-27 11:46:21.189759,1709030781.1897588,-39.0625,-33.203125,-39.0625,-38.57421875,1.0,-1.0,1.0,1.0,7.m4v,3.0
2024-02-27 11:46:21.193664,1709030781.193664,-32.2265625,-31.73828125,-41.015625,-31.73828125,1.0,-1.0,1.0,1.0,7.m4v,3.0
2024-02-27 11:46:21.197569,1709030781.1975694,-33.203125,-40.0390625,-48.828125,-41.015625,1.0,-1.0,1.0,1.0,7.m4v,3.0
2024-02-27 11:46:21.201475,1709030781.201475,-33.69140625,-40.0390625,-43.9453125,-39.0625,1.0,-1.0,1.0,1.0,7.m4v,3.0
2024-02-27 11:46:21.205380,1709030781.2053802,-39.55078125,-41.9921875,-32.71484375,-34.66796875,1.0,-1.0,1.0,1.0,7.m4v,3.0
2024-02-27 11:46:21.521789,1709030781.5217893,-48.828125,-56.640625,-30.76171875,-50.78125,1.0,-1.0,1.0,1.0,7.m4v,3.0
2024-02-27 11:46:21.529600,1709030781.5296,-52.24609375,-49.31640625,-32.2265625,-26.85546875,1.0,-1.0,1.0,1.0,7.m4v,3.0
2024-02-27 11:46:21.537411,1709030781.5374107,-36.1328125,-35.64453125,-39.0625,-41.50390625,1.0,-1.0,1.0,1.0,7.m4v,3.0
2024-02-27 11:46:21.545222,1709030781.5452216,-40.0390625,-56.640625,-32.71484375,-54.19921875,1.0,-1.0,1.0,1.0,7.m4v,3.0
2024-02-27 11:46:21.553032,1709030781.5530322,-27.34375,-28.3203125,-30.2734375,-44.921875,1.0,-1.0,1.0,1.0,7.m4v,3.0
2024-02-27 11:46:21.560843,1709030781.560843,-27.83203125,-22.4609375,-38.57421875,-58.59375,1.0,-1.0,1.0,1.0,7.m4v,3.0
2024-02-27 11:46:21.568664,1709030781.5686636,-52.734375,-43.9453125,-43.45703125,-41.9921875,1.0,-1.0,1.0,1.0,7.m4v,3.0
2024-02-27 11:46:21.576474,1709030781.5764742,-40.0390625,-32.2265625,-36.62109375,-38.57421875,1.0,-1.0,1.0,1.0,7.m4v,3.0
2024-02-27 11:46:21.584285,1709030781.584285,-41.50390625,-36.1328125,-35.64453125,-47.36328125,1.0,-1.0,1.0,1.0,7.m4v,3.0
2024-02-27 11:46:21.592096,1709030781.592096,-27.34375,-38.57421875,-41.015625,-31.25,1.0,-1.0,1.0,1.0,7.m4v,3.0
2024-02-27 11:46:21.599906,1709030781.5999064,-23.92578125,-41.015625,-28.80859375,-45.8984375,1.0,-1.0,1.0,1.0,7.m4v,3.0
2024-02-27 11:46:21.607717,1709030781.6077173,-36.62109375,-25.87890625,-26.3671875,-47.8515625,1.0,-1.0,1.0,1.0,7.m4v,3.0
2024-02-27 11:46:21.615538,1709030781.6155376,-25.390625,-41.50390625,-31.25,-56.15234375,1.0,-1.0,1.0,1.0,7.m4v,3.0
2024-02-27 11:46:21.623348,1709030781.6233482,-26.85546875,-37.109375,-41.9921875,-56.640625,1.0,-1.0,1.0,1.0,7.m4v,3.0
2024-02-27 11:46:21.631159,1709030781.631159,-40.0390625,-14.6484375,-30.2734375,-35.64453125,1.0,-1.0,1.0,1.0,7.m4v,3.0
2024-02-27 11:46:21.638970,1709030781.6389697,-40.52734375,-38.57421875,-48.828125,-46.875,1.0,-1.0,1.0,1.0,7.m4v,3.0
2024-02-27 11:46:21.646780,1709030781.6467805,-41.9921875,-49.31640625,-25.390625,-28.3203125,1.0,-1.0,1.0,1.0,7.m4v,3.0
2024-02-27 11:46:21.654591,1709030781.654591,-28.80859375,-40.52734375,-12.20703125,-21.484375,1.0,-1.0,1.0,1.0,7.m4v,3.0
2024-02-27 11:46:21.662411,1709030781.6624112,-32.2265625,-38.57421875,-21.484375,-33.69140625,1.0,-1.0,1.0,1.0,7.m4v,3.0
2024-02-27 11:46:21.670222,1709030781.670222,-37.109375,-33.203125,-26.85546875,-15.625,1.0,-1.0,1.0,1.0,7.m4v,3.0
2024-02-27 11:46:21.678033,1709030781.6780326,-24.4140625,-11.71875,-33.69140625,-22.94921875,1.0,-1.0,1.0,1.0,7.m4v,3.0
2024-02-27 11:46:21.685843,1709030781.6858437,-34.1796875,-45.8984375,-36.62109375,-39.55078125,1.0,-1.0,1.0,1.0,7.m4v,3.0
2024-02-27 11:46:21.693654,1709030781.693654,-30.2734375,-28.3203125,-52.24609375,-30.76171875,1.0,-1.0,1.0,1.0,7.m4v,3.0
2024-02-27 11:46:21.697560,1709030781.6975596,-21.484375,-37.59765625,-41.9921875,-32.71484375,1.0,-1.0,1.0,1.0,7.m4v,3.0
2024-02-27 11:46:21.701465,1709030781.701465,-27.34375,-48.828125,-22.94921875,-35.15625,1.0,-1.0,1.0,1.0,7.m4v,3.0
2024-02-27 11:46:21.705381,1709030781.7053814,-45.8984375,-44.921875,-28.80859375,-39.55078125,1.0,-1.0,1.0,1.0,7.m4v,3.0
2024-02-27 11:46:21.709287,1709030781.7092867,-43.9453125,-35.15625,-42.96875,-29.296875,1.0,-1.0,1.0,1.0,7.m4v,3.0
2024-02-27 11:46:21.713192,1709030781.7131922,-37.109375,-20.99609375,-37.109375,-14.6484375,1.0,-1.0,1.0,1.0,7.m4v,3.0
2024-02-27 11:46:21.717098,1709030781.7170975,-43.9453125,-25.390625,-26.85546875,-23.92578125,1.0,-1.0,1.0,1.0,7.m4v,3.0
2024-02-27 11:46:21.721003,1709030781.7210028,-52.734375,-39.55078125,-18.5546875,-41.9921875,1.0,-1.0,1.0,1.0,7.m4v,3.0
2024-02-27 11:46:21.724908,1709030781.7249084,-48.828125,-33.203125,-11.23046875,-35.15625,1.0,-1.0,1.0,1.0,7.m4v,3.0
2024-02-27 11:46:21.728814,1709030781.7288136,-34.66796875,-47.8515625,-16.6015625,-17.578125,1.0,-1.0,1.0,1.0,7.m4v,3.0
2024-02-27 11:46:21.732719,1709030781.732719,-26.85546875,-67.87109375,-23.92578125,-17.578125,1.0,-1.0,1.0,1.0,7.m4v,3.0
2024-02-27 11:46:21.736624,1709030781.7366245,-35.64453125,-56.640625,-24.90234375,-27.34375,1.0,-1.0,1.0,1.0,7.m4v,3.0
2024-02-27 11:46:21.740530,1709030781.7405298,-41.50390625,-41.9921875,-23.92578125,-29.296875,1.0,-1.0,1.0,1.0,7.m4v,3.0
2024-02-27 11:46:21.744435,1709030781.744435,-36.1328125,-40.52734375,-26.3671875,-20.01953125,1.0,-1.0,1.0,1.0,7.m4v,3.0
2024-02-27 11:46:21.748341,1709030781.7483406,-30.76171875,-37.109375,-36.1328125,-9.27734375,1.0,-1.0,1.0,1.0,7.m4v,3.0
2024-02-27 11:46:21.752257,1709030781.7522569,-31.73828125,-26.3671875,-45.41015625,-9.27734375,1.0,-1.0,1.0,1.0,7.m4v,3.0
2024-02-27 11:46:21.756162,1709030781.7561622,-37.109375,-18.06640625,-46.38671875,-18.06640625,1.0,-1.0,1.0,1.0,7.m4v,3.0
2024-02-27 11:46:21.760067,1709030781.7600677,-35.15625,-23.4375,-38.57421875,-25.390625,1.0,-1.0,1.0,1.0,7.m4v,3.0
2024-02-27 11:46:21.763973,1709030781.7639728,-41.50390625,-41.015625,-35.64453125,-36.62109375,1.0,-1.0,1.0,1.0,7.m4v,3.0
2024-02-27 11:46:21.767878,1709030781.7678783,-45.41015625,-39.55078125,-25.390625,-24.90234375,1.0,-1.0,1.0,1.0,7.m4v,3.0
2024-02-27 11:46:21.771784,1709030781.7717836,-38.57421875,-20.99609375,-17.08984375,0.48828125,1.0,-1.0,1.0,1.0,7.m4v,3.0
2024-02-27 11:46:21.775689,1709030781.775689,-37.109375,-37.109375,-23.92578125,-15.13671875,1.0,-1.0,1.0,1.0,7.m4v,3.0
2024-02-27 11:46:21.779594,1709030781.7795944,-33.69140625,-61.5234375,-20.01953125,-39.0625,1.0,-1.0,1.0,1.0,7.m4v,3.0
2024-02-27 11:46:21.783500,1709030781.7834997,-28.3203125,-50.78125,-20.01953125,-35.64453125,1.0,-1.0,1.0,1.0,7.m4v,3.0
2024-02-27 11:46:21.787405,1709030781.787405,-31.25,-36.62109375,-21.484375,-26.85546875,1.0,-1.0,1.0,1.0,7.m4v,3.0
2024-02-27 11:46:21.791311,1709030781.7913103,-31.73828125,-32.71484375,-28.80859375,-28.3203125,1.0,-1.0,1.0,1.0,7.m4v,3.0
2024-02-27 11:46:21.795216,1709030781.7952158,-30.76171875,-24.4140625,-35.64453125,-31.25,1.0,-1.0,1.0,1.0,7.m4v,3.0
2024-02-27 11:46:21.799132,1709030781.7991316,-37.109375,-31.25,-25.390625,-40.52734375,1.0,-1.0,1.0,1.0,7.m4v,3.0
2024-02-27 11:46:21.803037,1709030781.803037,-47.8515625,-40.0390625,-23.92578125,-45.41015625,1.0,-1.0,1.0,1.0,7.m4v,3.0
2024-02-27 11:46:21.806942,1709030781.8069425,-51.7578125,-36.1328125,-40.0390625,-36.62109375,1.0,-1.0,1.0,1.0,7.m4v,3.0
2024-02-27 11:46:21.810848,1709030781.8108478,-39.0625,-37.109375,-41.50390625,-22.4609375,1.0,-1.0,1.0,1.0,7.m4v,3.0
2024-02-27 11:46:21.814753,1709030781.814753,-28.80859375,-38.0859375,-42.48046875,-23.92578125,1.0,-1.0,1.0,1.0,7.m4v,3.0
2024-02-27 11:46:21.818658,1709030781.8186584,-29.296875,-27.34375,-41.015625,-31.25,1.0,-1.0,1.0,1.0,7.m4v,3.0
2024-02-27 11:46:21.822564,1709030781.822564,-46.38671875,-21.97265625,-28.3203125,-36.62109375,1.0,-1.0,1.0,1.0,7.m4v,3.0
2024-02-27 11:46:21.826469,1709030781.8264692,-53.7109375,-32.2265625,-23.92578125,-46.38671875,1.0,-1.0,1.0,1.0,7.m4v,3.0
2024-02-27 11:46:21.830374,1709030781.8303745,-46.38671875,-36.1328125,-30.2734375,-42.96875,1.0,-1.0,1.0,1.0,7.m4v,3.0
2024-02-27 11:46:21.834280,1709030781.83428,-48.33984375,-38.0859375,-34.1796875,-41.50390625,1.0,-1.0,1.0,1.0,7.m4v,3.0
2024-02-27 11:46:21.838185,1709030781.8381853,-47.8515625,-44.921875,-38.0859375,-58.59375,1.0,-1.0,1.0,1.0,7.m4v,3.0
2024-02-27 11:46:21.842091,1709030781.8420906,-45.8984375,-51.26953125,-42.96875,-60.546875,1.0,-1.0,1.0,1.0,7.m4v,3.0
2024-02-27 11:46:21.846006,1709030781.8460064,-46.38671875,-53.22265625,-41.9921875,-40.0390625,1.0,-1.0,1.0,1.0,7.m4v,3.0
2024-02-27 11:46:21.849912,1709030781.8499117,-42.96875,-41.015625,-39.0625,-34.1796875,1.0,-1.0,1.0,1.0,7.m4v,3.0
2024-02-27 11:46:21.853817,1709030781.8538172,-40.52734375,-38.57421875,-45.41015625,-36.62109375,1.0,-1.0,1.0,1.0,7.m4v,3.0
2024-02-27 11:46:21.947566,1709030781.947566,-46.875,-32.71484375,-1.46484375,-25.390625,1.0,-1.0,1.0,1.0,7.m4v,3.0
2024-02-27 11:46:21.951471,1709030781.951471,-50.78125,-25.87890625,-15.625,-25.390625,1.0,-1.0,1.0,1.0,7.m4v,3.0
2024-02-27 11:46:21.955377,1709030781.9553766,-52.24609375,-37.109375,-28.80859375,-40.0390625,1.0,-1.0,1.0,1.0,7.m4v,3.0
2024-02-27 11:46:21.959282,1709030781.9592822,-49.31640625,-30.2734375,-31.25,-45.8984375,1.0,-1.0,1.0,1.0,7.m4v,3.0
2024-02-27 11:46:21.963187,1709030781.9631877,-53.7109375,-31.73828125,-29.296875,-41.9921875,1.0,-1.0,1.0,1.0,7.m4v,3.0
2024-02-27 11:46:21.967093,1709030781.9670928,-48.828125,-37.59765625,-33.69140625,-27.83203125,1.0,-1.0,1.0,1.0,7.m4v,3.0
2024-02-27 11:46:21.970998,1709030781.9709983,-45.8984375,-45.8984375,-36.1328125,-26.85546875,1.0,-1.0,1.0,1.0,7.m4v,3.0
2024-02-27 11:46:21.974904,1709030781.9749036,-44.43359375,-51.26953125,-26.3671875,-32.2265625,1.0,-1.0,1.0,1.0,7.m4v,3.0
2024-02-27 11:46:21.978809,1709030781.9788089,-41.9921875,-46.38671875,-16.11328125,-40.52734375,1.0,-1.0,1.0,1.0,7.m4v,3.0
2024-02-27 11:46:21.982714,1709030781.9827144,-54.6875,-48.33984375,-20.01953125,-51.26953125,1.0,-1.0,1.0,1.0,7.m4v,3.0
2024-02-27 11:46:21.986629,1709030781.986629,-57.12890625,-48.33984375,-26.3671875,-40.0390625,1.0,-1.0,1.0,1.0,7.m4v,3.0
2024-02-27 11:46:21.990535,1709030781.9905343,-47.8515625,-41.9921875,-28.3203125,-31.25,1.0,-1.0,1.0,1.0,7.m4v,3.0
2024-02-27 11:46:21.994440,1709030781.9944398,-36.62109375,-17.08984375,-21.97265625,-32.2265625,1.0,-1.0,1.0,1.0,7.m4v,3.0
2024-02-27 11:46:21.998345,1709030781.9983451,-28.3203125,-20.01953125,-20.99609375,-30.76171875,1.0,-1.0,1.0,1.0,7.m4v,3.0
2024-02-27 11:46:22.002251,1709030782.002251,-28.3203125,-41.015625,-20.99609375,-32.71484375,1.0,-1.0,1.0,1.0,7.m4v,3.0
2024-02-27 11:46:22.006156,1709030782.006156,-29.296875,-33.203125,-27.34375,-30.2734375,1.0,-1.0,1.0,1.0,7.m4v,3.0
2024-02-27 11:46:22.010061,1709030782.0100613,-16.11328125,-42.96875,-35.15625,-15.625,1.0,-1.0,1.0,1.0,7.m4v,3.0
2024-02-27 11:46:22.013967,1709030782.0139668,-7.8125,-54.19921875,-30.76171875,-19.04296875,1.0,-1.0,1.0,1.0,7.m4v,3.0
2024-02-27 11:46:22.017872,1709030782.017872,-21.484375,-35.15625,-25.390625,-35.15625,1.0,-1.0,1.0,1.0,7.m4v,3.0
2024-02-27 11:46:22.021777,1709030782.0217774,-34.1796875,-40.52734375,-27.83203125,-41.50390625,1.0,-1.0,1.0,1.0,7.m4v,3.0
2024-02-27 11:46:22.025683,1709030782.025683,-33.203125,-44.43359375,-22.4609375,-23.92578125,1.0,-1.0,1.0,1.0,7.m4v,3.0
2024-02-27 11:46:22.029588,1709030782.0295882,-29.78515625,-35.64453125,-25.390625,-9.765625,1.0,-1.0,1.0,1.0,7.m4v,3.0
2024-02-27 11:46:22.033503,1709030782.0335028,-25.390625,-39.0625,-33.69140625,-13.18359375,1.0,-1.0,1.0,1.0,7.m4v,3.0
2024-02-27 11:46:22.037408,1709030782.037408,-22.4609375,-36.62109375,-28.80859375,-19.04296875,1.0,-1.0,1.0,1.0,7.m4v,3.0
2024-02-27 11:46:22.041313,1709030782.0413134,-28.80859375,-43.9453125,-25.390625,-26.85546875,1.0,-1.0,1.0,1.0,7.m4v,3.0
2024-02-27 11:46:22.045219,1709030782.045219,-34.66796875,-51.26953125,-27.34375,-30.2734375,1.0,-1.0,1.0,1.0,7.m4v,3.0
2024-02-27 11:46:22.049124,1709030782.0491242,-29.296875,-45.41015625,-35.15625,-19.53125,1.0,-1.0,1.0,1.0,7.m4v,3.0
2024-02-27 11:46:22.053030,1709030782.0530295,-18.06640625,-31.25,-35.64453125,-11.71875,1.0,-1.0,1.0,1.0,7.m4v,3.0
2024-02-27 11:46:22.056935,1709030782.0569348,-19.53125,-27.83203125,-29.78515625,-23.4375,1.0,-1.0,1.0,1.0,7.m4v,3.0
2024-02-27 11:46:22.060840,1709030782.0608404,-26.85546875,-51.7578125,-25.390625,-39.0625,1.0,-1.0,1.0,1.0,7.m4v,3.0
2024-02-27 11:46:22.064746,1709030782.0647457,-32.71484375,-57.6171875,-24.4140625,-41.015625,1.0,-1.0,1.0,1.0,7.m4v,3.0
2024-02-27 11:46:22.068651,1709030782.068651,-38.57421875,-44.43359375,-34.1796875,-27.83203125,1.0,-1.0,1.0,1.0,7.m4v,3.0
2024-02-27 11:46:22.072556,1709030782.0725565,-40.0390625,-42.96875,-40.0390625,-22.94921875,1.0,-1.0,1.0,1.0,7.m4v,3.0
2024-02-27 11:46:22.076462,1709030782.0764618,-33.69140625,-41.9921875,-39.55078125,-29.78515625,1.0,-1.0,1.0,1.0,7.m4v,3.0
2024-02-27 11:46:22.080378,1709030782.0803783,-24.90234375,-42.96875,-33.69140625,-36.62109375,1.0,-1.0,1.0,1.0,7.m4v,3.0
2024-02-27 11:46:22.084284,1709030782.0842838,-26.85546875,-57.12890625,-28.80859375,-41.015625,1.0,-1.0,1.0,1.0,7.m4v,3.0
2024-02-27 11:46:22.088189,1709030782.0881891,-32.71484375,-43.9453125,-32.71484375,-24.90234375,1.0,-1.0,1.0,1.0,7.m4v,3.0
2024-02-27 11:46:22.092094,1709030782.0920944,-29.78515625,-37.59765625,-36.62109375,-22.4609375,1.0,-1.0,1.0,1.0,7.m4v,3.0
2024-02-27 11:46:22.096000,1709030782.0959997,-15.625,-48.828125,-40.0390625,-38.0859375,1.0,-1.0,1.0,1.0,7.m4v,3.0
2024-02-27 11:46:22.099905,1709030782.0999053,-13.18359375,-32.71484375,-45.8984375,-43.45703125,1.0,-1.0,1.0,1.0,7.m4v,3.0
2024-02-27 11:46:22.549128,1709030782.5491283,-43.9453125,-18.5546875,-31.73828125,-28.3203125,1.0,-1.0,1.0,1.0,7.m4v,3.0
2024-02-27 11:46:22.553034,1709030782.5530338,-36.62109375,-20.5078125,-35.64453125,-24.90234375,1.0,-1.0,1.0,1.0,7.m4v,3.0
2024-02-27 11:46:22.556939,1709030782.5569391,-43.45703125,-27.83203125,-33.69140625,-31.25,1.0,-1.0,1.0,1.0,7.m4v,3.0
2024-02-27 11:46:22.560844,1709030782.5608444,-42.48046875,-33.203125,-32.2265625,-35.64453125,1.0,-1.0,1.0,1.0,7.m4v,3.0
2024-02-27 11:46:22.564750,1709030782.56475,-43.45703125,-35.15625,-34.1796875,-34.1796875,1.0,-1.0,1.0,1.0,7.m4v,3.0
2024-02-27 11:46:22.568655,1709030782.5686553,-44.43359375,-12.20703125,-28.3203125,-22.4609375,1.0,-1.0,1.0,1.0,7.m4v,3.0
2024-02-27 11:46:22.592088,1709030782.5920875,-32.71484375,-26.3671875,-43.45703125,-31.73828125,1.0,-1.0,1.0,1.0,7.m4v,3.0
2024-02-27 11:46:22.596004,1709030782.5960035,-37.109375,-25.390625,-52.24609375,-39.0625,1.0,-1.0,1.0,1.0,7.m4v,3.0
2024-02-27 11:46:22.599909,1709030782.5999088,-38.57421875,-33.203125,-41.9921875,-50.78125,1.0,-1.0,1.0,1.0,7.m4v,3.0
2024-02-27 11:46:22.603814,1709030782.603814,-42.96875,-31.25,-34.66796875,-57.6171875,1.0,-1.0,1.0,1.0,7.m4v,3.0
2024-02-27 11:46:22.607720,1709030782.6077197,-50.78125,-34.66796875,-33.69140625,-49.31640625,1.0,-1.0,1.0,1.0,7.m4v,3.0
2024-02-27 11:46:22.611625,1709030782.611625,-41.9921875,-40.0390625,-26.3671875,-33.69140625,1.0,-1.0,1.0,1.0,7.m4v,3.0
2024-02-27 11:46:22.615530,1709030782.6155305,-40.0390625,-31.25,-24.4140625,-35.15625,1.0,-1.0,1.0,1.0,7.m4v,3.0
2024-02-27 11:46:22.619436,1709030782.6194358,-50.29296875,-31.25,-34.1796875,-48.33984375,1.0,-1.0,1.0,1.0,7.m4v,3.0
2024-02-27 11:46:22.623341,1709030782.623341,-55.6640625,-46.875,-37.59765625,-57.6171875,1.0,-1.0,1.0,1.0,7.m4v,3.0
2024-02-27 11:46:22.627246,1709030782.6272464,-46.875,-47.8515625,-32.71484375,-44.43359375,1.0,-1.0,1.0,1.0,7.m4v,3.0
2024-02-27 11:46:22.631152,1709030782.6311517,-41.015625,-43.45703125,-43.45703125,-25.390625,1.0,-1.0,1.0,1.0,7.m4v,3.0
2024-02-27 11:46:22.635057,1709030782.6350572,-43.45703125,-38.57421875,-52.734375,-33.203125,1.0,-1.0,1.0,1.0,7.m4v,3.0
2024-02-27 11:46:22.638963,1709030782.6389625,-43.9453125,-32.2265625,-38.57421875,-40.52734375,1.0,-1.0,1.0,1.0,7.m4v,3.0
2024-02-27 11:46:22.642878,1709030782.642878,-33.69140625,-31.25,-30.2734375,-41.015625,1.0,-1.0,1.0,1.0,7.m4v,3.0
2024-02-27 11:46:22.646783,1709030782.6467834,-26.85546875,-33.69140625,-29.296875,-35.64453125,1.0,-1.0,1.0,1.0,7.m4v,3.0
2024-02-27 11:46:22.650689,1709030782.6506886,-35.64453125,-33.69140625,-32.71484375,-25.87890625,1.0,-1.0,1.0,1.0,7.m4v,3.0
2024-02-27 11:46:22.654594,1709030782.6545942,-30.76171875,-10.25390625,-36.62109375,-23.4375,1.0,-1.0,1.0,1.0,7.m4v,3.0
2024-02-27 11:46:22.658499,1709030782.6584997,-26.3671875,-2.44140625,-35.64453125,-33.203125,1.0,-1.0,1.0,1.0,7.m4v,3.0
2024-02-27 11:46:22.662405,1709030782.6624048,-24.4140625,-12.6953125,-33.203125,-38.0859375,1.0,-1.0,1.0,1.0,7.m4v,3.0
2024-02-27 11:46:22.666310,1709030782.6663103,-24.90234375,-26.3671875,-33.203125,-34.66796875,1.0,-1.0,1.0,1.0,7.m4v,3.0
2024-02-27 11:46:22.670216,1709030782.6702156,-35.15625,-46.875,-38.57421875,-45.8984375,1.0,-1.0,1.0,1.0,7.m4v,3.0
2024-02-27 11:46:22.674121,1709030782.674121,-37.109375,-44.921875,-43.45703125,-58.59375,1.0,-1.0,1.0,1.0,7.m4v,3.0
2024-02-27 11:46:22.678026,1709030782.6780264,-32.71484375,-34.1796875,-43.45703125,-60.05859375,1.0,-1.0,1.0,1.0,7.m4v,3.0
2024-02-27 11:46:22.681932,1709030782.6819315,-25.390625,-26.85546875,-35.15625,-57.6171875,1.0,-1.0,1.0,1.0,7.m4v,3.0
2024-02-27 11:46:22.943660,1709030782.94366,-41.9921875,-21.484375,-41.50390625,-52.24609375,1.0,-1.0,1.0,1.0,7.m4v,3.0
2024-02-27 11:46:22.947566,1709030782.9475656,-39.55078125,-34.66796875,-41.015625,-48.33984375,1.0,-1.0,1.0,1.0,7.m4v,3.0
2024-02-27 11:46:22.951471,1709030782.9514709,-36.1328125,-41.50390625,-44.921875,-40.52734375,1.0,-1.0,1.0,1.0,7.m4v,3.0
2024-02-27 11:46:22.955376,1709030782.955376,-32.2265625,-39.55078125,-51.26953125,-43.9453125,1.0,-1.0,1.0,1.0,7.m4v,3.0
2024-02-27 11:46:22.959281,1709030782.9592814,-27.34375,-47.36328125,-45.8984375,-54.6875,1.0,-1.0,1.0,1.0,7.m4v,3.0
2024-02-27 11:46:22.963187,1709030782.963187,-23.4375,-43.9453125,-39.55078125,-50.29296875,1.0,-1.0,1.0,1.0,7.m4v,3.0
2024-02-27 11:46:22.967092,1709030782.9670925,-20.01953125,-41.9921875,-36.62109375,-48.33984375,1.0,-1.0,1.0,1.0,7.m4v,3.0
2024-02-27 11:46:22.971008,1709030782.971008,-27.34375,-39.0625,-33.203125,-41.50390625,1.0,-1.0,1.0,1.0,7.m4v,3.0
2024-02-27 11:46:22.974913,1709030782.9749134,-27.34375,-24.4140625,-27.83203125,-42.96875,1.0,-1.0,1.0,1.0,7.m4v,3.0
2024-02-27 11:46:22.978819,1709030782.978819,-28.3203125,-26.3671875,-25.87890625,-47.36328125,1.0,-1.0,1.0,1.0,7.m4v,3.0
2024-02-27 11:46:22.982724,1709030782.9827242,-36.62109375,-43.9453125,-31.73828125,-46.38671875,1.0,-1.0,1.0,1.0,7.m4v,3.0
2024-02-27 11:46:22.986629,1709030782.9866295,-40.0390625,-34.66796875,-39.0625,-40.52734375,1.0,-1.0,1.0,1.0,7.m4v,3.0
2024-02-27 11:46:22.990535,1709030782.9905348,-45.8984375,-13.671875,-41.50390625,-23.92578125,1.0,-1.0,1.0,1.0,7.m4v,3.0
2024-02-27 11:46:22.994440,1709030782.9944403,-47.36328125,-21.97265625,-41.9921875,-28.3203125,1.0,-1.0,1.0,1.0,7.m4v,3.0
2024-02-27 11:46:22.998346,1709030782.9983456,-33.69140625,-26.85546875,-31.25,-40.52734375,1.0,-1.0,1.0,1.0,7.m4v,3.0
2024-02-27 11:46:23.002251,1709030783.002251,-23.4375,-30.2734375,-39.0625,-42.96875,1.0,-1.0,1.0,1.0,7.m4v,3.0
2024-02-27 11:46:23.006156,1709030783.0061564,-12.6953125,-36.62109375,-39.0625,-38.57421875,1.0,-1.0,1.0,1.0,7.m4v,3.0
2024-02-27 11:46:23.010062,1709030783.0100615,-22.4609375,-36.62109375,-23.92578125,-35.64453125,1.0,-1.0,1.0,1.0,7.m4v,3.0
2024-02-27 11:46:23.013967,1709030783.013967,-34.66796875,-29.78515625,-27.34375,-38.0859375,1.0,-1.0,1.0,1.0,7.m4v,3.0
2024-02-27 11:46:23.017883,1709030783.0178828,-25.390625,-21.484375,-31.73828125,-37.109375,1.0,-1.0,1.0,1.0,7.m4v,3.0
2024-02-27 11:46:23.021788,1709030783.021788,-23.4375,-21.97265625,-31.73828125,-47.8515625,1.0,-1.0,1.0,1.0,7.m4v,3.0
2024-02-27 11:46:23.025693,1709030783.0256934,-39.55078125,-28.3203125,-31.73828125,-63.96484375,1.0,-1.0,1.0,1.0,7.m4v,3.0
2024-02-27 11:46:23.029599,1709030783.029599,-48.33984375,-29.296875,-32.2265625,-53.22265625,1.0,-1.0,1.0,1.0,7.m4v,3.0
2024-02-27 11:46:23.033504,1709030783.0335042,-42.96875,-25.390625,-32.71484375,-37.109375,1.0,-1.0,1.0,1.0,7.m4v,3.0
2024-02-27 11:46:23.037410,1709030783.0374095,-41.9921875,-12.6953125,-27.34375,-36.1328125,1.0,-1.0,1.0,1.0,7.m4v,3.0
2024-02-27 11:46:23.041315,1709030783.041315,-52.24609375,-12.6953125,-20.99609375,-41.015625,1.0,-1.0,1.0,1.0,7.m4v,3.0
2024-02-27 11:46:23.045220,1709030783.0452204,-73.2421875,-42.48046875,-30.2734375,-45.8984375,1.0,-1.0,1.0,1.0,7.m4v,3.0
2024-02-27 11:46:23.049126,1709030783.0491257,-73.2421875,-47.8515625,-40.0390625,-37.109375,1.0,-1.0,1.0,1.0,7.m4v,3.0
2024-02-27 11:46:23.053031,1709030783.0530312,-59.08203125,-42.48046875,-40.52734375,-28.3203125,1.0,-1.0,1.0,1.0,7.m4v,3.0
2024-02-27 11:46:23.056937,1709030783.0569365,-59.08203125,-50.78125,-42.48046875,-32.71484375,1.0,-1.0,1.0,1.0,7.m4v,3.0
2024-02-27 11:46:23.060842,1709030783.0608418,-48.33984375,-38.57421875,-27.34375,-31.25,1.0,-1.0,1.0,1.0,7.m4v,3.0
2024-02-27 11:46:23.064757,1709030783.064757,-34.66796875,-31.25,-16.6015625,-23.4375,1.0,-1.0,1.0,1.0,7.m4v,3.0
2024-02-27 11:46:23.068662,1709030783.0686624,-31.73828125,-35.64453125,-20.99609375,-16.6015625,1.0,-1.0,1.0,1.0,7.m4v,3.0
2024-02-27 11:46:23.072568,1709030783.0725677,-18.06640625,-21.484375,-24.90234375,-7.32421875,1.0,-1.0,1.0,1.0,7.m4v,3.0
2024-02-27 11:46:23.076473,1709030783.076473,-22.94921875,-11.23046875,-31.73828125,-15.625,1.0,-1.0,1.0,1.0,7.m4v,3.0
2024-02-27 11:46:23.080379,1709030783.0803783,-33.203125,-18.5546875,-35.15625,-38.57421875,1.0,-1.0,1.0,1.0,7.m4v,3.0
2024-02-27 11:46:23.084284,1709030783.0842838,-29.296875,-10.7421875,-31.73828125,-52.734375,1.0,-1.0,1.0,1.0,7.m4v,3.0
2024-02-27 11:46:23.088189,1709030783.0881891,-33.69140625,-32.71484375,-43.9453125,-59.08203125,1.0,-1.0,1.0,1.0,7.m4v,3.0
2024-02-27 11:46:23.092095,1709030783.092095,-33.69140625,-52.24609375,-52.734375,-55.6640625,1.0,-1.0,1.0,1.0,7.m4v,3.0
2024-02-27 11:46:23.096000,1709030783.096,-29.296875,-26.85546875,-41.50390625,-48.828125,1.0,-1.0,1.0,1.0,7.m4v,3.0
2024-02-27 11:46:23.099905,1709030783.0999053,-35.64453125,-25.390625,-36.62109375,-52.734375,1.0,-1.0,1.0,1.0,7.m4v,3.0
2024-02-27 11:46:23.103811,1709030783.1038108,-42.48046875,-35.64453125,-34.66796875,-70.80078125,1.0,-1.0,1.0,1.0,7.m4v,3.0
2024-02-27 11:46:23.107716,1709030783.107716,-50.78125,-23.92578125,-32.2265625,-54.19921875,1.0,-1.0,1.0,1.0,7.m4v,3.0
2024-02-27 11:46:23.111631,1709030783.111631,-51.7578125,-11.71875,-31.25,-32.2265625,1.0,-1.0,1.0,1.0,7.m4v,3.0
2024-02-27 11:46:23.115536,1709030783.1155362,-43.9453125,-22.94921875,-31.73828125,-36.62109375,1.0,-1.0,1.0,1.0,7.m4v,3.0
2024-02-27 11:46:23.119442,1709030783.1194415,-47.8515625,-37.109375,-35.64453125,-42.48046875,1.0,-1.0,1.0,1.0,7.m4v,3.0
2024-02-27 11:46:23.123347,1709030783.123347,-56.15234375,-28.3203125,-34.1796875,-49.31640625,1.0,-1.0,1.0,1.0,7.m4v,3.0
2024-02-27 11:46:23.127252,1709030783.1272523,-58.10546875,-36.1328125,-32.71484375,-50.78125,1.0,-1.0,1.0,1.0,7.m4v,3.0
2024-02-27 11:46:23.131158,1709030783.1311576,-40.0390625,-39.0625,-28.3203125,-31.73828125,1.0,-1.0,1.0,1.0,7.m4v,3.0
2024-02-27 11:46:23.135063,1709030783.1350632,-37.59765625,-24.90234375,-33.203125,-27.83203125,1.0,-1.0,1.0,1.0,7.m4v,3.0
2024-02-27 11:46:23.138968,1709030783.1389685,-56.15234375,-37.109375,-41.50390625,-41.015625,1.0,-1.0,1.0,1.0,7.m4v,3.0
2024-02-27 11:46:23.142874,1709030783.1428738,-56.640625,-49.8046875,-40.52734375,-48.33984375,1.0,-1.0,1.0,1.0,7.m4v,3.0
2024-02-27 11:46:23.146779,1709030783.1467793,-57.6171875,-40.52734375,-29.296875,-47.36328125,1.0,-1.0,1.0,1.0,7.m4v,3.0
2024-02-27 11:46:23.150685,1709030783.1506846,-59.5703125,-41.9921875,-23.4375,-36.62109375,1.0,-1.0,1.0,1.0,7.m4v,3.0
2024-02-27 11:46:23.154590,1709030783.15459,-54.19921875,-47.8515625,-28.80859375,-33.203125,1.0,-1.0,1.0,1.0,7.m4v,3.0
2024-02-27 11:46:23.158504,1709030783.1585045,-55.17578125,-36.1328125,-34.1796875,-40.0390625,1.0,-1.0,1.0,1.0,7.m4v,3.0
2024-02-27 11:46:23.162410,1709030783.16241,-62.01171875,-48.828125,-35.64453125,-43.9453125,1.0,-1.0,1.0,1.0,7.m4v,3.0
2024-02-27 11:46:23.166315,1709030783.1663153,-56.640625,-62.5,-33.203125,-34.1796875,1.0,-1.0,1.0,1.0,7.m4v,3.0
2024-02-27 11:46:23.170221,1709030783.1702206,-42.48046875,-41.015625,-28.80859375,-15.13671875,1.0,-1.0,1.0,1.0,7.m4v,3.0
2024-02-27 11:46:23.174126,1709030783.174126,-40.52734375,-27.34375,-26.85546875,-19.04296875,1.0,-1.0,1.0,1.0,7.m4v,3.0
2024-02-27 11:46:23.178031,1709030783.1780314,-45.41015625,-7.8125,-32.71484375,-41.015625,1.0,-1.0,1.0,1.0,7.m4v,3.0
2024-02-27 11:46:23.181937,1709030783.1819367,-45.8984375,-19.04296875,-33.203125,-52.24609375,1.0,-1.0,1.0,1.0,7.m4v,3.0
2024-02-27 11:46:23.185842,1709030783.185842,-46.875,-49.31640625,-34.66796875,-50.78125,1.0,-1.0,1.0,1.0,7.m4v,3.0
2024-02-27 11:46:23.189748,1709030783.1897476,-38.0859375,-55.6640625,-37.109375,-40.52734375,1.0,-1.0,1.0,1.0,7.m4v,3.0
2024-02-27 11:46:23.193653,1709030783.1936529,-31.73828125,-43.9453125,-40.52734375,-36.62109375,1.0,-1.0,1.0,1.0,7.m4v,3.0
2024-02-27 11:46:23.197558,1709030783.1975582,-24.4140625,-32.2265625,-47.8515625,-45.41015625,1.0,-1.0,1.0,1.0,7.m4v,3.0
2024-02-27 11:46:23.201464,1709030783.2014637,-18.06640625,-44.43359375,-43.45703125,-53.22265625,1.0,-1.0,1.0,1.0,7.m4v,3.0
2024-02-27 11:46:23.205378,1709030783.205378,-24.4140625,-44.43359375,-36.1328125,-54.19921875,1.0,-1.0,1.0,1.0,7.m4v,3.0
2024-02-27 11:46:23.209283,1709030783.2092834,-32.71484375,-42.96875,-35.64453125,-45.41015625,1.0,-1.0,1.0,1.0,7.m4v,3.0
2024-02-27 11:46:23.213189,1709030783.213189,-26.3671875,-40.0390625,-35.64453125,-37.59765625,1.0,-1.0,1.0,1.0,7.m4v,3.0
2024-02-27 11:46:23.217094,1709030783.2170942,-24.4140625,-34.66796875,-39.55078125,-46.38671875,1.0,-1.0,1.0,1.0,7.m4v,3.0
2024-02-27 11:46:23.220999,1709030783.2209997,-37.109375,-34.66796875,-41.50390625,-55.17578125,1.0,-1.0,1.0,1.0,7.m4v,3.0
2024-02-27 11:46:23.623332,1709030783.6233318,-45.8984375,-53.7109375,-43.9453125,-51.26953125,1.0,-1.0,1.0,1.0,7.m4v,3.0
2024-02-27 11:46:23.627248,1709030783.6272483,-42.96875,-53.22265625,-33.69140625,-49.8046875,1.0,-1.0,1.0,1.0,7.m4v,3.0
2024-02-27 11:46:23.631154,1709030783.6311536,-36.62109375,-27.34375,-22.94921875,-30.76171875,1.0,-1.0,1.0,1.0,7.m4v,3.0
2024-02-27 11:46:23.635059,1709030783.6350589,-32.2265625,-14.16015625,-32.2265625,-28.80859375,1.0,-1.0,1.0,1.0,7.m4v,3.0
2024-02-27 11:46:23.638964,1709030783.6389644,-41.50390625,-32.2265625,-41.9921875,-44.43359375,1.0,-1.0,1.0,1.0,7.m4v,3.0
2024-02-27 11:46:23.642870,1709030783.6428697,-48.33984375,-35.15625,-36.1328125,-52.24609375,1.0,-1.0,1.0,1.0,7.m4v,3.0
2024-02-27 11:46:23.646775,1709030783.646775,-47.36328125,-17.08984375,-31.25,-42.48046875,1.0,-1.0,1.0,1.0,7.m4v,3.0
2024-02-27 11:46:23.650681,1709030783.6506803,-39.55078125,-21.484375,-27.34375,-20.99609375,1.0,-1.0,1.0,1.0,7.m4v,3.0
2024-02-27 11:46:23.654586,1709030783.6545858,-31.73828125,-33.203125,-35.15625,-18.06640625,1.0,-1.0,1.0,1.0,7.m4v,3.0
2024-02-27 11:46:23.658491,1709030783.6584911,-39.0625,-35.64453125,-45.41015625,-36.62109375,1.0,-1.0,1.0,1.0,7.m4v,3.0
2024-02-27 11:46:23.662397,1709030783.662397,-42.96875,-31.73828125,-39.0625,-42.96875,1.0,-1.0,1.0,1.0,7.m4v,3.0
2024-02-27 11:46:23.666302,1709030783.666302,-41.9921875,-29.296875,-30.2734375,-42.48046875,1.0,-1.0,1.0,1.0,7.m4v,3.0
2024-02-27 11:46:23.670207,1709030783.6702073,-41.015625,-32.71484375,-21.97265625,-40.0390625,1.0,-1.0,1.0,1.0,7.m4v,3.0
2024-02-27 11:46:23.674125,1709030783.6741247,-31.25,-21.97265625,-14.6484375,-28.80859375,1.0,-1.0,1.0,1.0,7.m4v,3.0
2024-02-27 11:46:23.678030,1709030783.6780305,-35.15625,-21.484375,-23.92578125,-36.1328125,1.0,-1.0,1.0,1.0,7.m4v,3.0
2024-02-27 11:46:23.681936,1709030783.6819355,-28.3203125,-22.94921875,-25.87890625,-44.921875,1.0,-1.0,1.0,1.0,7.m4v,3.0
2024-02-27 11:46:23.685841,1709030783.6858408,-27.34375,-19.53125,-20.99609375,-38.0859375,1.0,-1.0,1.0,1.0,7.m4v,3.0
2024-02-27 11:46:23.689746,1709030783.6897464,-38.57421875,-32.71484375,-22.94921875,-31.25,1.0,-1.0,1.0,1.0,7.m4v,3.0
2024-02-27 11:46:23.693652,1709030783.6936517,-34.1796875,-31.25,-30.2734375,-24.90234375,1.0,-1.0,1.0,1.0,7.m4v,3.0
2024-02-27 11:46:23.697557,1709030783.697557,-32.2265625,-26.3671875,-42.96875,-27.83203125,1.0,-1.0,1.0,1.0,7.m4v,3.0
2024-02-27 11:46:23.701463,1709030783.7014625,-37.109375,-43.45703125,-42.96875,-53.22265625,1.0,-1.0,1.0,1.0,7.m4v,3.0
2024-02-27 11:46:23.705368,1709030783.7053678,-34.1796875,-53.7109375,-44.921875,-63.96484375,1.0,-1.0,1.0,1.0,7.m4v,3.0
2024-02-27 11:46:23.709273,1709030783.709273,-33.203125,-49.31640625,-43.45703125,-38.57421875,1.0,-1.0,1.0,1.0,7.m4v,3.0
2024-02-27 11:46:23.713179,1709030783.7131786,-31.25,-38.57421875,-28.3203125,-14.6484375,1.0,-1.0,1.0,1.0,7.m4v,3.0
2024-02-27 11:46:23.717084,1709030783.717084,-38.57421875,-33.69140625,-23.92578125,-26.85546875,1.0,-1.0,1.0,1.0,7.m4v,3.0
2024-02-27 11:46:23.721000,1709030783.721,-47.36328125,-32.71484375,-29.296875,-45.8984375,1.0,-1.0,1.0,1.0,7.m4v,3.0
2024-02-27 11:46:23.724905,1709030783.7249053,-28.3203125,-31.73828125,-31.73828125,-36.1328125,1.0,-1.0,1.0,1.0,7.m4v,3.0
2024-02-27 11:46:23.728811,1709030783.7288108,-20.99609375,-40.52734375,-30.76171875,-20.99609375,1.0,-1.0,1.0,1.0,7.m4v,3.0
2024-02-27 11:46:23.732716,1709030783.732716,-31.73828125,-43.45703125,-33.203125,-21.97265625,1.0,-1.0,1.0,1.0,7.m4v,3.0
2024-02-27 11:46:23.736621,1709030783.7366214,-34.66796875,-29.296875,-34.1796875,-27.83203125,1.0,-1.0,1.0,1.0,7.m4v,3.0
2024-02-27 11:46:23.740527,1709030783.740527,-38.57421875,-21.484375,-30.2734375,-38.0859375,1.0,-1.0,1.0,1.0,7.m4v,3.0
2024-02-27 11:46:23.744432,1709030783.7444322,-47.8515625,-35.64453125,-31.73828125,-44.921875,1.0,-1.0,1.0,1.0,7.m4v,3.0
2024-02-27 11:46:23.748338,1709030783.7483375,-48.33984375,-57.12890625,-34.66796875,-44.921875,1.0,-1.0,1.0,1.0,7.m4v,3.0
2024-02-27 11:46:23.752243,1709030783.752243,-38.0859375,-52.24609375,-33.69140625,-29.78515625,1.0,-1.0,1.0,1.0,7.m4v,3.0
2024-02-27 11:46:23.756148,1709030783.7561483,-38.57421875,-47.36328125,-32.2265625,-22.94921875,1.0,-1.0,1.0,1.0,7.m4v,3.0
2024-02-27 11:46:23.760054,1709030783.7600536,-31.73828125,-45.8984375,-40.52734375,-40.52734375,1.0,-1.0,1.0,1.0,7.m4v,3.0
2024-02-27 11:46:23.763959,1709030783.7639592,-28.80859375,-39.55078125,-36.62109375,-41.015625,1.0,-1.0,1.0,1.0,7.m4v,3.0
2024-02-27 11:46:23.767874,1709030783.7678745,-33.69140625,-50.29296875,-30.2734375,-23.92578125,1.0,-1.0,1.0,1.0,7.m4v,3.0
2024-02-27 11:46:23.771780,1709030783.77178,-39.0625,-47.8515625,-44.921875,-19.04296875,1.0,-1.0,1.0,1.0,7.m4v,3.0
2024-02-27 11:46:23.775685,1709030783.7756853,-38.57421875,-35.64453125,-41.9921875,-34.66796875,1.0,-1.0,1.0,1.0,7.m4v,3.0
2024-02-27 11:46:23.779591,1709030783.7795906,-24.90234375,-37.59765625,-32.2265625,-36.1328125,1.0,-1.0,1.0,1.0,7.m4v,3.0
2024-02-27 11:46:23.783496,1709030783.783496,-29.296875,-40.52734375,-30.76171875,-36.62109375,1.0,-1.0,1.0,1.0,7.m4v,3.0
2024-02-27 11:46:23.787401,1709030783.7874014,-38.57421875,-22.4609375,-26.85546875,-45.41015625,1.0,-1.0,1.0,1.0,7.m4v,3.0
2024-02-27 11:46:23.791307,1709030783.7913067,-28.3203125,-15.625,-20.99609375,-27.34375,1.0,-1.0,1.0,1.0,7.m4v,3.0
2024-02-27 11:46:23.795212,1709030783.7952125,-26.85546875,-34.66796875,-30.2734375,-27.34375,1.0,-1.0,1.0,1.0,7.m4v,3.0
2024-02-27 11:46:23.799118,1709030783.7991176,-33.69140625,-60.546875,-37.109375,-41.9921875,1.0,-1.0,1.0,1.0,7.m4v,3.0
2024-02-27 11:46:23.803023,1709030783.8030229,-35.64453125,-64.94140625,-33.203125,-44.921875,1.0,-1.0,1.0,1.0,7.m4v,3.0
2024-02-27 11:46:23.806928,1709030783.8069284,-22.94921875,-47.36328125,-33.203125,-33.69140625,1.0,-1.0,1.0,1.0,7.m4v,3.0
2024-02-27 11:46:23.810834,1709030783.8108337,-23.4375,-33.69140625,-39.0625,-18.06640625,1.0,-1.0,1.0,1.0,7.m4v,3.0
2024-02-27 11:46:23.814749,1709030783.8147488,-25.87890625,-35.15625,-35.64453125,-16.6015625,1.0,-1.0,1.0,1.0,7.m4v,3.0
2024-02-27 11:46:23.818654,1709030783.8186543,-25.87890625,-46.875,-33.69140625,-27.83203125,1.0,-1.0,1.0,1.0,7.m4v,3.0
2024-02-27 11:46:23.822560,1709030783.8225596,-34.1796875,-36.62109375,-47.36328125,-37.59765625,1.0,-1.0,1.0,1.0,7.m4v,3.0
2024-02-27 11:46:23.826465,1709030783.826465,-35.15625,-24.4140625,-43.9453125,-37.109375,1.0,-1.0,1.0,1.0,7.m4v,3.0
2024-02-27 11:46:23.830370,1709030783.8303702,-30.2734375,-32.2265625,-27.34375,-15.625,1.0,-1.0,1.0,1.0,7.m4v,3.0
2024-02-27 11:46:23.834276,1709030783.8342755,-23.92578125,-29.296875,-21.484375,-9.765625,1.0,-1.0,1.0,1.0,7.m4v,3.0
2024-02-27 11:46:23.838181,1709030783.838181,-21.97265625,-32.71484375,-27.34375,-28.80859375,1.0,-1.0,1.0,1.0,7.m4v,3.0
2024-02-27 11:46:23.842086,1709030783.8420863,-29.296875,-44.921875,-33.203125,-42.48046875,1.0,-1.0,1.0,1.0,7.m4v,3.0
2024-02-27 11:46:23.845992,1709030783.8459918,-29.78515625,-43.45703125,-30.76171875,-39.0625,1.0,-1.0,1.0,1.0,7.m4v,3.0
2024-02-27 11:46:23.849897,1709030783.8498971,-28.3203125,-40.52734375,-26.3671875,-26.3671875,1.0,-1.0,1.0,1.0,7.m4v,3.0
2024-02-27 11:46:23.853802,1709030783.8538024,-27.34375,-25.87890625,-29.296875,-22.4609375,1.0,-1.0,1.0,1.0,7.m4v,3.0
2024-02-27 11:46:23.857708,1709030783.857708,-19.04296875,-27.34375,-35.64453125,-37.109375,1.0,-1.0,1.0,1.0,7.m4v,3.0
2024-02-27 11:46:23.861623,1709030783.8616228,-23.92578125,-52.734375,-38.0859375,-57.12890625,1.0,-1.0,1.0,1.0,7.m4v,3.0
2024-02-27 11:46:23.865528,1709030783.865528,-39.55078125,-44.921875,-43.45703125,-59.08203125,1.0,-1.0,1.0,1.0,7.m4v,3.0
2024-02-27 11:46:23.869434,1709030783.8694336,-40.0390625,-28.3203125,-44.43359375,-37.59765625,1.0,-1.0,1.0,1.0,7.m4v,3.0
2024-02-27 11:46:23.873339,1709030783.873339,-43.45703125,-31.73828125,-39.0625,-32.71484375,1.0,-1.0,1.0,1.0,7.m4v,3.0
2024-02-27 11:46:23.877244,1709030783.8772442,-41.015625,-40.52734375,-37.109375,-46.38671875,1.0,-1.0,1.0,1.0,7.m4v,3.0
2024-02-27 11:46:23.881150,1709030783.8811498,-34.66796875,-23.92578125,-35.64453125,-48.828125,1.0,-1.0,1.0,1.0,7.m4v,3.0
2024-02-27 11:46:23.885055,1709030783.885055,-44.921875,-23.92578125,-34.1796875,-47.8515625,1.0,-1.0,1.0,1.0,7.m4v,3.0
2024-02-27 11:46:23.888960,1709030783.8889604,-50.78125,-34.66796875,-35.64453125,-44.921875,1.0,-1.0,1.0,1.0,7.m4v,3.0
2024-02-27 11:46:23.892866,1709030783.892866,-38.57421875,-27.34375,-33.69140625,-24.4140625,1.0,-1.0,1.0,1.0,7.m4v,3.0
2024-02-27 11:46:23.896771,1709030783.8967712,-38.0859375,-33.69140625,-33.69140625,-30.2734375,1.0,-1.0,1.0,1.0,7.m4v,3.0
2024-02-27 11:46:23.900676,1709030783.9006765,-41.50390625,-30.76171875,-34.1796875,-40.52734375,1.0,-1.0,1.0,1.0,7.m4v,3.0
2024-02-27 11:46:23.904582,1709030783.904582,-40.52734375,-26.3671875,-30.2734375,-39.0625,1.0,-1.0,1.0,1.0,7.m4v,3.0
2024-02-27 11:46:23.908496,1709030783.9084964,-41.9921875,-31.25,-31.73828125,-36.1328125,1.0,-1.0,1.0,1.0,7.m4v,3.0
2024-02-27 11:46:23.912402,1709030783.912402,-46.38671875,-21.97265625,-36.1328125,-23.92578125,1.0,-1.0,1.0,1.0,7.m4v,3.0
2024-02-27 11:46:23.916307,1709030783.9163072,-44.43359375,-9.27734375,-31.73828125,-29.78515625,1.0,-1.0,1.0,1.0,7.m4v,3.0
2024-02-27 11:46:23.920213,1709030783.9202125,-39.55078125,-34.1796875,-34.66796875,-50.78125,1.0,-1.0,1.0,1.0,7.m4v,3.0
2024-02-27 11:46:23.924118,1709030783.924118,-39.55078125,-44.921875,-42.48046875,-62.01171875,1.0,-1.0,1.0,1.0,7.m4v,3.0
2024-02-27 11:46:23.928023,1709030783.928023,-45.8984375,-20.01953125,-39.0625,-44.921875,1.0,-1.0,1.0,1.0,7.m4v,3.0
2024-02-27 11:46:23.931929,1709030783.9319286,-45.41015625,-35.15625,-32.2265625,-34.66796875,1.0,-1.0,1.0,1.0,7.m4v,3.0
2024-02-27 11:46:23.935834,1709030783.935834,-32.71484375,-48.828125,-30.2734375,-37.109375,1.0,-1.0,1.0,1.0,7.m4v,3.0
2024-02-27 11:46:23.939739,1709030783.9397397,-35.64453125,-30.76171875,-34.66796875,-41.015625,1.0,-1.0,1.0,1.0,7.m4v,3.0
2024-02-27 11:46:23.943645,1709030783.9436448,-35.64453125,-27.83203125,-33.203125,-38.57421875,1.0,-1.0,1.0,1.0,7.m4v,3.0
2024-02-27 11:46:23.947550,1709030783.94755,-33.203125,-34.66796875,-29.78515625,-32.71484375,1.0,-1.0,1.0,1.0,7.m4v,3.0
2024-02-27 11:46:23.951456,1709030783.9514556,-29.78515625,-22.94921875,-31.25,-27.83203125,1.0,-1.0,1.0,1.0,7.m4v,3.0
2024-02-27 11:46:23.955372,1709030783.955372,-20.5078125,-21.484375,-36.62109375,-27.83203125,1.0,-1.0,1.0,1.0,7.m4v,3.0
2024-02-27 11:46:23.959277,1709030783.9592774,-24.4140625,-30.76171875,-36.62109375,-44.921875,1.0,-1.0,1.0,1.0,7.m4v,3.0
2024-02-27 11:46:23.963183,1709030783.963183,-27.83203125,-37.59765625,-31.73828125,-50.29296875,1.0,-1.0,1.0,1.0,7.m4v,3.0
2024-02-27 11:46:23.967088,1709030783.9670882,-23.4375,-40.0390625,-33.203125,-41.015625,1.0,-1.0,1.0,1.0,7.m4v,3.0
2024-02-27 11:46:23.970994,1709030783.9709935,-20.99609375,-33.203125,-25.390625,-19.53125,1.0,-1.0,1.0,1.0,7.m4v,3.0
2024-02-27 11:46:23.974899,1709030783.974899,-21.97265625,-18.06640625,-23.92578125,-16.11328125,1.0,-1.0,1.0,1.0,7.m4v,3.0
2024-02-27 11:46:23.978804,1709030783.9788043,-27.83203125,-7.8125,-34.66796875,-33.69140625,1.0,-1.0,1.0,1.0,7.m4v,3.0
2024-02-27 11:46:23.982710,1709030783.9827096,-34.66796875,-27.34375,-43.45703125,-41.9921875,1.0,-1.0,1.0,1.0,7.m4v,3.0
2024-02-27 11:46:23.986615,1709030783.986615,-33.203125,-52.734375,-41.9921875,-37.59765625,1.0,-1.0,1.0,1.0,7.m4v,3.0
2024-02-27 11:46:23.990520,1709030783.9905205,-39.0625,-55.17578125,-32.2265625,-20.5078125,1.0,-1.0,1.0,1.0,7.m4v,3.0
2024-02-27 11:46:23.994426,1709030783.9944258,-35.64453125,-44.921875,-33.69140625,-18.5546875,1.0,-1.0,1.0,1.0,7.m4v,3.0
2024-02-27 11:46:23.998331,1709030783.998331,-30.76171875,-40.0390625,-46.875,-35.15625,1.0,-1.0,1.0,1.0,7.m4v,3.0
2024-02-27 11:46:24.002248,1709030784.0022478,-30.76171875,-38.57421875,-40.0390625,-39.55078125,1.0,-1.0,1.0,1.0,7.m4v,3.0
2024-02-27 11:46:24.006153,1709030784.006153,-30.2734375,-46.38671875,-25.87890625,-38.57421875,1.0,-1.0,1.0,1.0,7.m4v,3.0
2024-02-27 11:46:24.010058,1709030784.0100584,-31.73828125,-39.0625,-25.390625,-24.4140625,1.0,-1.0,1.0,1.0,7.m4v,3.0
2024-02-27 11:46:24.013964,1709030784.013964,-34.66796875,-28.3203125,-30.2734375,-22.94921875,1.0,-1.0,1.0,1.0,7.m4v,3.0
2024-02-27 11:46:24.017869,1709030784.0178692,-38.0859375,-33.203125,-39.0625,-40.52734375,1.0,-1.0,1.0,1.0,7.m4v,3.0
2024-02-27 11:46:24.021775,1709030784.0217743,-36.1328125,-23.4375,-41.9921875,-39.55078125,1.0,-1.0,1.0,1.0,7.m4v,3.0
2024-02-27 11:46:24.025680,1709030784.02568,-43.9453125,-36.1328125,-34.66796875,-36.1328125,1.0,-1.0,1.0,1.0,7.m4v,3.0
2024-02-27 11:46:24.029585,1709030784.0295854,-52.24609375,-60.05859375,-31.25,-35.15625,1.0,-1.0,1.0,1.0,7.m4v,3.0
2024-02-27 11:46:24.033491,1709030784.033491,-48.828125,-45.41015625,-44.921875,-24.4140625,1.0,-1.0,1.0,1.0,7.m4v,3.0
2024-02-27 11:46:24.037396,1709030784.0373962,-39.55078125,-33.69140625,-48.828125,-29.296875,1.0,-1.0,1.0,1.0,7.m4v,3.0
2024-02-27 11:46:24.041301,1709030784.0413015,-38.57421875,-49.31640625,-35.15625,-43.45703125,1.0,-1.0,1.0,1.0,7.m4v,3.0
2024-02-27 11:46:24.064744,1709030784.0647442,-58.10546875,-34.66796875,-40.0390625,-55.17578125,1.0,-1.0,1.0,1.0,7.m4v,3.0
2024-02-27 11:46:24.076460,1709030784.0764604,-36.62109375,-39.0625,-34.66796875,-31.25,1.0,-1.0,1.0,1.0,7.m4v,3.0
2024-02-27 11:46:24.088176,1709030784.0881765,-44.43359375,-53.7109375,-26.85546875,-30.2734375,1.0,-1.0,1.0,1.0,7.m4v,3.0
2024-02-27 11:46:24.095998,1709030784.0959978,-39.55078125,-23.92578125,-35.64453125,-20.01953125,1.0,-1.0,1.0,1.0,7.m4v,3.0
2024-02-27 11:46:24.103808,1709030784.1038084,-31.73828125,-40.0390625,-35.15625,-49.8046875,1.0,-1.0,1.0,1.0,7.m4v,3.0
2024-02-27 11:46:24.111619,1709030784.1116192,-34.66796875,-51.7578125,-27.34375,-14.6484375,1.0,-1.0,1.0,1.0,7.m4v,3.0
2024-02-27 11:46:24.564744,1709030784.5647435,-26.85546875,-50.29296875,-34.1796875,-34.1796875,1.0,-1.0,1.0,1.0,7.m4v,3.0
2024-02-27 11:46:24.572554,1709030784.5725543,-6.34765625,-13.671875,-24.4140625,-6.8359375,1.0,-1.0,1.0,1.0,7.m4v,3.0
2024-02-27 11:46:24.580365,1709030784.5803652,-23.92578125,-29.78515625,-30.2734375,-41.50390625,1.0,-1.0,1.0,1.0,7.m4v,3.0
2024-02-27 11:46:24.584270,1709030784.5842705,-29.78515625,-20.99609375,-26.3671875,-48.828125,1.0,-1.0,1.0,1.0,7.m4v,3.0
2024-02-27 11:46:24.588176,1709030784.5881758,-39.0625,-19.53125,-27.34375,-37.109375,1.0,-1.0,1.0,1.0,7.m4v,3.0
2024-02-27 11:46:24.592081,1709030784.5920813,-38.57421875,-44.921875,-32.71484375,-29.296875,1.0,-1.0,1.0,1.0,7.m4v,3.0
2024-02-27 11:46:24.595987,1709030784.5959866,-39.55078125,-41.015625,-33.69140625,-37.59765625,1.0,-1.0,1.0,1.0,7.m4v,3.0
2024-02-27 11:46:24.599892,1709030784.599892,-31.25,-26.3671875,-29.78515625,-40.0390625,1.0,-1.0,1.0,1.0,7.m4v,3.0
2024-02-27 11:46:24.603797,1709030784.6037974,-32.2265625,-33.203125,-29.78515625,-44.921875,1.0,-1.0,1.0,1.0,7.m4v,3.0
2024-02-27 11:46:24.607703,1709030784.6077027,-49.8046875,-50.78125,-29.78515625,-51.26953125,1.0,-1.0,1.0,1.0,7.m4v,3.0
2024-02-27 11:46:24.611618,1709030784.6116176,-41.9921875,-38.57421875,-30.2734375,-37.109375,1.0,-1.0,1.0,1.0,7.m4v,3.0
2024-02-27 11:46:24.615523,1709030784.6155229,-31.73828125,-25.390625,-34.1796875,-33.69140625,1.0,-1.0,1.0,1.0,7.m4v,3.0
2024-02-27 11:46:24.619428,1709030784.6194284,-32.2265625,-32.2265625,-34.66796875,-36.1328125,1.0,-1.0,1.0,1.0,7.m4v,3.0
2024-02-27 11:46:24.623334,1709030784.6233337,-25.390625,-26.3671875,-38.57421875,-28.3203125,1.0,-1.0,1.0,1.0,7.m4v,3.0
2024-02-27 11:46:24.627239,1709030784.627239,-30.76171875,-29.78515625,-37.109375,-26.3671875,1.0,-1.0,1.0,1.0,7.m4v,3.0
2024-02-27 11:46:24.631145,1709030784.6311443,-36.62109375,-26.85546875,-29.296875,-22.94921875,1.0,-1.0,1.0,1.0,7.m4v,3.0
2024-02-27 11:46:24.635050,1709030784.6350498,-26.3671875,-19.53125,-29.78515625,-16.11328125,1.0,-1.0,1.0,1.0,7.m4v,3.0
2024-02-27 11:46:24.638955,1709030784.638955,-20.5078125,-36.62109375,-30.76171875,-27.83203125,1.0,-1.0,1.0,1.0,7.m4v,3.0
2024-02-27 11:46:24.642861,1709030784.642861,-30.76171875,-61.5234375,-32.2265625,-43.9453125,1.0,-1.0,1.0,1.0,7.m4v,3.0
2024-02-27 11:46:24.646766,1709030784.646766,-44.43359375,-60.546875,-29.296875,-41.9921875,1.0,-1.0,1.0,1.0,7.m4v,3.0
2024-02-27 11:46:24.650671,1709030784.6506712,-41.9921875,-40.0390625,-22.94921875,-22.94921875,1.0,-1.0,1.0,1.0,7.m4v,3.0
2024-02-27 11:46:24.654577,1709030784.6545763,-40.0390625,-34.1796875,-34.1796875,-28.3203125,1.0,-1.0,1.0,1.0,7.m4v,3.0
2024-02-27 11:46:24.658491,1709030784.6584911,-46.875,-44.921875,-40.0390625,-48.828125,1.0,-1.0,1.0,1.0,7.m4v,3.0
2024-02-27 11:46:24.662397,1709030784.662397,-51.7578125,-50.29296875,-38.0859375,-58.59375,1.0,-1.0,1.0,1.0,7.m4v,3.0
2024-02-27 11:46:24.666302,1709030784.666302,-39.55078125,-43.9453125,-41.015625,-54.6875,1.0,-1.0,1.0,1.0,7.m4v,3.0
2024-02-27 11:46:24.670207,1709030784.6702073,-41.015625,-38.57421875,-32.71484375,-38.0859375,1.0,-1.0,1.0,1.0,7.m4v,3.0
2024-02-27 11:46:24.674113,1709030784.6741128,-43.45703125,-44.43359375,-26.85546875,-23.92578125,1.0,-1.0,1.0,1.0,7.m4v,3.0
2024-02-27 11:46:24.678018,1709030784.678018,-43.45703125,-26.3671875,-27.34375,-32.2265625,1.0,-1.0,1.0,1.0,7.m4v,3.0
2024-02-27 11:46:24.681923,1709030784.6819234,-51.7578125,-25.390625,-30.76171875,-42.96875,1.0,-1.0,1.0,1.0,7.m4v,3.0
2024-02-27 11:46:24.685829,1709030784.6858287,-52.24609375,-48.33984375,-33.69140625,-40.0390625,1.0,-1.0,1.0,1.0,7.m4v,3.0
2024-02-27 11:46:24.689734,1709030784.6897342,-46.38671875,-50.29296875,-34.1796875,-24.4140625,1.0,-1.0,1.0,1.0,7.m4v,3.0
2024-02-27 11:46:24.693640,1709030784.6936395,-27.83203125,-32.71484375,-34.1796875,-9.27734375,1.0,-1.0,1.0,1.0,7.m4v,3.0
2024-02-27 11:46:24.763959,1709030784.7639587,-29.296875,-51.7578125,-33.69140625,-40.0390625,1.0,-1.0,1.0,1.0,7.m4v,3.0
2024-02-27 11:46:24.767864,1709030784.7678642,-33.69140625,-43.9453125,-25.87890625,-34.1796875,1.0,-1.0,1.0,1.0,7.m4v,3.0
2024-02-27 11:46:24.771770,1709030784.7717695,-41.9921875,-21.97265625,-25.390625,-21.97265625,1.0,-1.0,1.0,1.0,7.m4v,3.0
2024-02-27 11:46:24.775675,1709030784.7756748,-46.38671875,-33.203125,-30.76171875,-32.2265625,1.0,-1.0,1.0,1.0,7.m4v,3.0
2024-02-27 11:46:24.779580,1709030784.7795804,-45.8984375,-43.45703125,-28.80859375,-41.9921875,1.0,-1.0,1.0,1.0,7.m4v,3.0
2024-02-27 11:46:24.783486,1709030784.7834857,-36.1328125,-29.78515625,-22.94921875,-34.66796875,1.0,-1.0,1.0,1.0,7.m4v,3.0
2024-02-27 11:46:24.787391,1709030784.787391,-38.0859375,-21.97265625,-27.34375,-31.73828125,1.0,-1.0,1.0,1.0,7.m4v,3.0
2024-02-27 11:46:24.791296,1709030784.7912962,-36.62109375,-20.99609375,-33.69140625,-25.87890625,1.0,-1.0,1.0,1.0,7.m4v,3.0
2024-02-27 11:46:24.795202,1709030784.7952018,-30.2734375,-20.01953125,-35.15625,-30.2734375,1.0,-1.0,1.0,1.0,7.m4v,3.0
2024-02-27 11:46:24.799118,1709030784.7991178,-23.4375,-20.99609375,-33.203125,-33.69140625,1.0,-1.0,1.0,1.0,7.m4v,3.0
2024-02-27 11:46:24.803023,1709030784.803023,-25.390625,-30.2734375,-24.90234375,-38.57421875,1.0,-1.0,1.0,1.0,7.m4v,3.0
2024-02-27 11:46:24.806929,1709030784.8069286,-35.64453125,-34.1796875,-25.87890625,-41.50390625,1.0,-1.0,1.0,1.0,7.m4v,3.0
2024-02-27 11:46:24.810834,1709030784.810834,-35.64453125,-33.203125,-26.3671875,-23.4375,1.0,-1.0,1.0,1.0,7.m4v,3.0
2024-02-27 11:46:24.814739,1709030784.8147392,-36.1328125,-29.296875,-21.484375,-27.83203125,1.0,-1.0,1.0,1.0,7.m4v,3.0
2024-02-27 11:46:24.818645,1709030784.8186443,-33.203125,-20.99609375,-23.92578125,-41.9921875,1.0,-1.0,1.0,1.0,7.m4v,3.0
2024-02-27 11:46:24.822550,1709030784.82255,-24.4140625,-26.3671875,-26.85546875,-46.38671875,1.0,-1.0,1.0,1.0,7.m4v,3.0
2024-02-27 11:46:24.826455,1709030784.8264554,-31.25,-36.1328125,-27.34375,-40.0390625,1.0,-1.0,1.0,1.0,7.m4v,3.0
2024-02-27 11:46:24.830361,1709030784.830361,-38.57421875,-34.66796875,-30.2734375,-22.94921875,1.0,-1.0,1.0,1.0,7.m4v,3.0
2024-02-27 11:46:24.834266,1709030784.8342662,-32.2265625,-40.0390625,-32.71484375,-16.11328125,1.0,-1.0,1.0,1.0,7.m4v,3.0
2024-02-27 11:46:24.838171,1709030784.8381715,-27.34375,-45.8984375,-33.203125,-30.2734375,1.0,-1.0,1.0,1.0,7.m4v,3.0
2024-02-27 11:46:24.842077,1709030784.8420768,-30.2734375,-40.52734375,-37.59765625,-38.57421875,1.0,-1.0,1.0,1.0,7.m4v,3.0
2024-02-27 11:46:24.845993,1709030784.8459928,-32.2265625,-32.2265625,-32.71484375,-33.69140625,1.0,-1.0,1.0,1.0,7.m4v,3.0
2024-02-27 11:46:24.849898,1709030784.849898,-34.1796875,-30.2734375,-25.390625,-20.5078125,1.0,-1.0,1.0,1.0,7.m4v,3.0
2024-02-27 11:46:24.853803,1709030784.8538034,-25.87890625,-34.1796875,-28.3203125,-5.859375,1.0,-1.0,1.0,1.0,7.m4v,3.0
2024-02-27 11:46:24.857709,1709030784.857709,-14.6484375,-32.71484375,-25.390625,-12.20703125,1.0,-1.0,1.0,1.0,7.m4v,3.0
2024-02-27 11:46:24.861614,1709030784.8616142,-22.94921875,-32.2265625,-20.5078125,-26.3671875,1.0,-1.0,1.0,1.0,7.m4v,3.0
2024-02-27 11:46:24.865520,1709030784.8655195,-30.2734375,-20.5078125,-22.4609375,-32.71484375,1.0,-1.0,1.0,1.0,7.m4v,3.0
2024-02-27 11:46:24.869425,1709030784.869425,-28.80859375,-20.5078125,-22.94921875,-24.4140625,1.0,-1.0,1.0,1.0,7.m4v,3.0
2024-02-27 11:46:24.873330,1709030784.8733304,-28.3203125,-33.69140625,-28.3203125,-13.671875,1.0,-1.0,1.0,1.0,7.m4v,3.0
2024-02-27 11:46:24.877236,1709030784.8772357,-28.3203125,-25.87890625,-28.3203125,-22.94921875,1.0,-1.0,1.0,1.0,7.m4v,3.0
2024-02-27 11:46:24.881141,1709030784.8811412,-29.296875,-36.1328125,-29.296875,-35.64453125,1.0,-1.0,1.0,1.0,7.m4v,3.0
2024-02-27 11:46:24.885046,1709030784.8850465,-34.1796875,-47.8515625,-39.55078125,-34.66796875,1.0,-1.0,1.0,1.0,7.m4v,3.0
2024-02-27 11:46:24.888952,1709030784.8889518,-27.34375,-43.45703125,-40.52734375,-13.18359375,1.0,-1.0,1.0,1.0,7.m4v,3.0
2024-02-27 11:46:24.892867,1709030784.892867,-22.4609375,-38.0859375,-35.15625,-1.46484375,1.0,-1.0,1.0,1.0,7.m4v,3.0
2024-02-27 11:46:24.896773,1709030784.8967726,-29.78515625,-21.97265625,-30.2734375,-16.6015625,1.0,-1.0,1.0,1.0,7.m4v,3.0
2024-02-27 11:46:24.900678,1709030784.900678,-33.69140625,-16.11328125,-30.76171875,-38.57421875,1.0,-1.0,1.0,1.0,7.m4v,3.0
2024-02-27 11:46:24.904583,1709030784.9045837,-30.76171875,-34.1796875,-27.34375,-46.38671875,1.0,-1.0,1.0,1.0,7.m4v,3.0
2024-02-27 11:46:24.908489,1709030784.9084888,-31.25,-31.73828125,-24.4140625,-37.59765625,1.0,-1.0,1.0,1.0,7.m4v,3.0
2024-02-27 11:46:24.912394,1709030784.912394,-37.109375,-20.5078125,-23.4375,-24.90234375,1.0,-1.0,1.0,1.0,7.m4v,3.0
2024-02-27 11:46:24.916300,1709030784.9162996,-34.66796875,-28.80859375,-21.484375,-28.80859375,1.0,-1.0,1.0,1.0,7.m4v,3.0
2024-02-27 11:46:24.920205,1709030784.9202049,-39.0625,-43.9453125,-31.25,-49.31640625,1.0,-1.0,1.0,1.0,7.m4v,3.0
2024-02-27 11:46:24.924110,1709030784.9241102,-41.50390625,-46.875,-35.64453125,-53.7109375,1.0,-1.0,1.0,1.0,7.m4v,3.0
2024-02-27 11:46:24.928015,1709030784.9280157,-38.57421875,-33.69140625,-28.80859375,-39.0625,1.0,-1.0,1.0,1.0,7.m4v,3.0
2024-02-27 11:46:24.931921,1709030784.931921,-36.1328125,-24.90234375,-21.97265625,-18.06640625,1.0,-1.0,1.0,1.0,7.m4v,3.0
2024-02-27 11:46:24.935826,1709030784.9358263,-36.1328125,-15.625,-23.4375,-19.04296875,1.0,-1.0,1.0,1.0,7.m4v,3.0
2024-02-27 11:46:24.939744,1709030784.939744,-38.57421875,-25.390625,-21.484375,-34.1796875,1.0,-1.0,1.0,1.0,7.m4v,3.0
2024-02-27 11:46:24.943649,1709030784.9436493,-40.0390625,-44.921875,-19.04296875,-43.9453125,1.0,-1.0,1.0,1.0,7.m4v,3.0
2024-02-27 11:46:24.947555,1709030784.9475548,-41.50390625,-43.9453125,-26.3671875,-41.50390625,1.0,-1.0,1.0,1.0,7.m4v,3.0
2024-02-27 11:46:24.951460,1709030784.95146,-46.38671875,-50.29296875,-38.0859375,-32.71484375,1.0,-1.0,1.0,1.0,7.m4v,3.0
2024-02-27 11:46:24.955365,1709030784.9553654,-48.33984375,-62.01171875,-38.57421875,-31.25,1.0,-1.0,1.0,1.0,7.m4v,3.0
2024-02-27 11:46:24.959271,1709030784.959271,-45.41015625,-43.9453125,-35.15625,-39.0625,1.0,-1.0,1.0,1.0,7.m4v,3.0
2024-02-27 11:46:24.963176,1709030784.9631765,-43.45703125,-32.71484375,-35.64453125,-53.7109375,1.0,-1.0,1.0,1.0,7.m4v,3.0
2024-02-27 11:46:24.967082,1709030784.9670815,-47.36328125,-50.78125,-39.0625,-59.5703125,1.0,-1.0,1.0,1.0,7.m4v,3.0
2024-02-27 11:46:24.970987,1709030784.970987,-41.50390625,-45.41015625,-33.69140625,-42.48046875,1.0,-1.0,1.0,1.0,7.m4v,3.0
2024-02-27 11:46:24.974892,1709030784.9748924,-37.109375,-47.8515625,-30.2734375,-38.0859375,1.0,-1.0,1.0,1.0,7.m4v,3.0
2024-02-27 11:46:24.978798,1709030784.9787977,-24.90234375,-41.9921875,-25.87890625,-41.50390625,1.0,-1.0,1.0,1.0,7.m4v,3.0
2024-02-27 11:46:24.982703,1709030784.9827032,-29.296875,-51.26953125,-28.80859375,-46.875,1.0,-1.0,1.0,1.0,7.m4v,3.0
2024-02-27 11:46:24.986618,1709030784.9866185,-44.43359375,-60.546875,-40.52734375,-47.8515625,1.0,-1.0,1.0,1.0,7.m4v,3.0
2024-02-27 11:46:24.990524,1709030784.9905236,-41.9921875,-42.96875,-39.55078125,-35.64453125,1.0,-1.0,1.0,1.0,7.m4v,3.0
2024-02-27 11:46:24.994429,1709030784.9944289,-35.64453125,-19.53125,-30.76171875,-25.87890625,1.0,-1.0,1.0,1.0,7.m4v,3.0
2024-02-27 11:46:24.998334,1709030784.9983344,-22.94921875,-19.04296875,-34.66796875,-32.71484375,1.0,-1.0,1.0,1.0,7.m4v,3.0
2024-02-27 11:46:25.002240,1709030785.0022397,-20.5078125,-52.24609375,-51.7578125,-41.50390625,1.0,-1.0,1.0,1.0,7.m4v,3.0
2024-02-27 11:46:25.006145,1709030785.006145,-29.78515625,-31.25,-41.9921875,-32.71484375,1.0,-1.0,1.0,1.0,7.m4v,3.0
2024-02-27 11:46:25.010051,1709030785.0100503,-31.25,-20.99609375,-29.78515625,-26.3671875,1.0,-1.0,1.0,1.0,7.m4v,3.0
2024-02-27 11:46:25.013956,1709030785.0139558,-26.3671875,-57.6171875,-23.4375,-29.296875,1.0,-1.0,1.0,1.0,7.m4v,3.0
2024-02-27 11:46:25.017861,1709030785.0178611,-23.4375,-50.78125,-13.671875,-26.85546875,1.0,-1.0,1.0,1.0,7.m4v,3.0
2024-02-27 11:46:25.021767,1709030785.021767,-29.78515625,-40.0390625,-25.390625,-36.62109375,1.0,-1.0,1.0,1.0,7.m4v,3.0
2024-02-27 11:46:25.025672,1709030785.025672,-43.45703125,-50.29296875,-33.69140625,-38.57421875,1.0,-1.0,1.0,1.0,7.m4v,3.0
2024-02-27 11:46:25.029577,1709030785.0295773,-45.41015625,-48.33984375,-24.4140625,-23.92578125,1.0,-1.0,1.0,1.0,7.m4v,3.0
2024-02-27 11:46:25.033492,1709030785.0334918,-41.015625,-41.015625,-23.92578125,-19.04296875,1.0,-1.0,1.0,1.0,7.m4v,3.0
2024-02-27 11:46:25.037397,1709030785.0373971,-37.59765625,-40.52734375,-37.59765625,-22.4609375,1.0,-1.0,1.0,1.0,7.m4v,3.0
2024-02-27 11:46:25.041302,1709030785.0413024,-37.109375,-43.9453125,-43.45703125,-29.78515625,1.0,-1.0,1.0,1.0,7.m4v,3.0
2024-02-27 11:46:25.045208,1709030785.045208,-36.1328125,-44.921875,-38.57421875,-40.52734375,1.0,-1.0,1.0,1.0,7.m4v,3.0
2024-02-27 11:46:25.049113,1709030785.0491133,-30.76171875,-40.52734375,-46.875,-38.57421875,1.0,-1.0,1.0,1.0,7.m4v,3.0
2024-02-27 11:46:25.053019,1709030785.0530186,-27.83203125,-21.97265625,-39.0625,-32.2265625,1.0,-1.0,1.0,1.0,7.m4v,3.0
2024-02-27 11:46:25.056924,1709030785.056924,-24.4140625,-11.71875,-28.80859375,-33.69140625,1.0,-1.0,1.0,1.0,7.m4v,3.0
2024-02-27 11:46:25.060829,1709030785.0608294,-27.34375,-32.2265625,-23.92578125,-42.48046875,1.0,-1.0,1.0,1.0,7.m4v,3.0
2024-02-27 11:46:25.064735,1709030785.0647347,-38.0859375,-45.41015625,-19.04296875,-50.29296875,1.0,-1.0,1.0,1.0,7.m4v,3.0
2024-02-27 11:46:25.068640,1709030785.0686402,-38.57421875,-36.1328125,-29.296875,-37.59765625,1.0,-1.0,1.0,1.0,7.m4v,3.0
2024-02-27 11:46:25.072546,1709030785.0725455,-40.0390625,-21.97265625,-37.109375,-25.390625,1.0,-1.0,1.0,1.0,7.m4v,3.0
2024-02-27 11:46:25.076451,1709030785.0764508,-31.73828125,-22.94921875,-35.64453125,-26.3671875,1.0,-1.0,1.0,1.0,7.m4v,3.0
2024-02-27 11:46:25.080365,1709030785.0803652,-19.53125,-30.76171875,-32.71484375,-44.43359375,1.0,-1.0,1.0,1.0,7.m4v,3.0
2024-02-27 11:46:25.084270,1709030785.0842705,-26.3671875,-25.390625,-33.69140625,-48.33984375,1.0,-1.0,1.0,1.0,7.m4v,3.0
2024-02-27 11:46:25.088176,1709030785.0881758,-31.25,-40.0390625,-36.62109375,-27.34375,1.0,-1.0,1.0,1.0,7.m4v,3.0
2024-02-27 11:46:25.092081,1709030785.0920813,-27.83203125,-46.875,-34.66796875,-13.18359375,1.0,-1.0,1.0,1.0,7.m4v,3.0
2024-02-27 11:46:25.095987,1709030785.0959866,-32.71484375,-29.78515625,-41.9921875,-23.4375,1.0,-1.0,1.0,1.0,7.m4v,3.0
2024-02-27 11:46:25.099892,1709030785.099892,-33.69140625,-19.53125,-45.8984375,-33.69140625,1.0,-1.0,1.0,1.0,7.m4v,3.0
2024-02-27 11:46:25.103797,1709030785.1037974,-30.2734375,-33.203125,-35.15625,-46.38671875,1.0,-1.0,1.0,1.0,7.m4v,3.0
2024-02-27 11:46:25.107703,1709030785.1077027,-34.1796875,-42.48046875,-25.390625,-49.31640625,1.0,-1.0,1.0,1.0,7.m4v,3.0
2024-02-27 11:46:25.111608,1709030785.111608,-36.62109375,-33.69140625,-27.83203125,-41.50390625,1.0,-1.0,1.0,1.0,7.m4v,3.0
2024-02-27 11:46:25.115513,1709030785.115513,-30.76171875,-24.90234375,-33.69140625,-47.36328125,1.0,-1.0,1.0,1.0,7.m4v,3.0
2024-02-27 11:46:25.119419,1709030785.1194189,-28.3203125,-19.53125,-25.390625,-53.7109375,1.0,-1.0,1.0,1.0,7.m4v,3.0
2024-02-27 11:46:25.123324,1709030785.1233242,-35.64453125,-38.0859375,-23.4375,-61.03515625,1.0,-1.0,1.0,1.0,7.m4v,3.0
2024-02-27 11:46:25.127240,1709030785.1272404,-46.875,-40.52734375,-34.66796875,-65.4296875,1.0,-1.0,1.0,1.0,7.m4v,3.0
2024-02-27 11:46:25.131146,1709030785.1311457,-45.8984375,-33.203125,-42.96875,-54.6875,1.0,-1.0,1.0,1.0,7.m4v,3.0
2024-02-27 11:46:25.135051,1709030785.1350513,-36.1328125,-31.25,-38.57421875,-40.52734375,1.0,-1.0,1.0,1.0,7.m4v,3.0
2024-02-27 11:46:25.138957,1709030785.1389563,-27.83203125,-25.87890625,-35.64453125,-40.0390625,1.0,-1.0,1.0,1.0,7.m4v,3.0
2024-02-27 11:46:25.142862,1709030785.1428618,-27.83203125,-24.90234375,-28.3203125,-34.66796875,1.0,-1.0,1.0,1.0,7.m4v,3.0
2024-02-27 11:46:25.146767,1709030785.1467674,-32.2265625,-15.13671875,-17.578125,-32.71484375,1.0,-1.0,1.0,1.0,7.m4v,3.0
2024-02-27 11:46:25.283487,1709030785.2834866,-38.0859375,-36.1328125,-30.2734375,-83.49609375,1.0,-1.0,1.0,1.0,7.m4v,3.0
2024-02-27 11:46:25.287392,1709030785.287392,-31.73828125,-2.9296875,-30.76171875,-63.4765625,1.0,-1.0,1.0,1.0,7.m4v,3.0
2024-02-27 11:46:25.291297,1709030785.2912974,-22.94921875,-3.41796875,-35.64453125,-40.52734375,1.0,-1.0,1.0,1.0,7.m4v,3.0
2024-02-27 11:46:25.295203,1709030785.2952027,-17.578125,-26.85546875,-32.71484375,-24.4140625,1.0,-1.0,1.0,1.0,7.m4v,3.0
2024-02-27 11:46:25.299108,1709030785.299108,-13.671875,-28.80859375,-26.85546875,-25.87890625,1.0,-1.0,1.0,1.0,7.m4v,3.0
2024-02-27 11:46:25.303014,1709030785.3030136,-22.94921875,-39.0625,-26.3671875,-37.109375,1.0,-1.0,1.0,1.0,7.m4v,3.0
2024-02-27 11:46:25.306919,1709030785.3069189,-42.48046875,-41.9921875,-26.85546875,-28.3203125,1.0,-1.0,1.0,1.0,7.m4v,3.0
2024-02-27 11:46:25.310824,1709030785.3108242,-71.77734375,-40.52734375,-23.92578125,-12.6953125,1.0,-1.0,1.0,1.0,7.m4v,3.0
2024-02-27 11:46:25.314739,1709030785.3147392,-99.609375,-46.875,-21.484375,-8.30078125,1.0,-1.0,1.0,1.0,7.m4v,3.0
2024-02-27 11:46:25.318645,1709030785.3186448,-97.65625,-48.33984375,-14.6484375,-13.671875,1.0,-1.0,1.0,1.0,7.m4v,3.0
2024-02-27 11:46:25.322550,1709030785.32255,-85.9375,-43.45703125,-18.06640625,-28.3203125,1.0,-1.0,1.0,1.0,7.m4v,3.0
2024-02-27 11:46:25.326455,1709030785.3264554,-76.66015625,-50.78125,-25.390625,-39.55078125,1.0,-1.0,1.0,1.0,7.m4v,3.0
2024-02-27 11:46:25.330361,1709030785.330361,-59.08203125,-39.55078125,-22.4609375,-27.34375,1.0,-1.0,1.0,1.0,7.m4v,3.0
2024-02-27 11:46:25.334266,1709030785.3342662,-41.50390625,-3.90625,-24.90234375,-20.99609375,1.0,-1.0,1.0,1.0,7.m4v,3.0
2024-02-27 11:46:25.338171,1709030785.3381715,-25.87890625,-6.34765625,-36.62109375,-36.62109375,1.0,-1.0,1.0,1.0,7.m4v,3.0
2024-02-27 11:46:25.342077,1709030785.342077,-11.71875,-30.76171875,-43.45703125,-45.8984375,1.0,-1.0,1.0,1.0,7.m4v,3.0
2024-02-27 11:46:25.345982,1709030785.3459823,-3.90625,-42.48046875,-41.015625,-43.45703125,1.0,-1.0,1.0,1.0,7.m4v,3.0
2024-02-27 11:46:25.349888,1709030785.3498876,0.9765625,-39.0625,-41.50390625,-37.109375,1.0,-1.0,1.0,1.0,7.m4v,3.0
2024-02-27 11:46:25.353793,1709030785.353793,6.8359375,-34.66796875,-42.96875,-24.90234375,1.0,-1.0,1.0,1.0,7.m4v,3.0
2024-02-27 11:46:25.357698,1709030785.3576984,8.7890625,-30.76171875,-35.64453125,-26.3671875,1.0,-1.0,1.0,1.0,7.m4v,3.0
2024-02-27 11:46:25.361614,1709030785.3616135,-0.48828125,-38.57421875,-29.78515625,-44.43359375,1.0,-1.0,1.0,1.0,7.m4v,3.0
2024-02-27 11:46:25.365519,1709030785.3655188,-18.5546875,-46.38671875,-24.4140625,-47.36328125,1.0,-1.0,1.0,1.0,7.m4v,3.0
2024-02-27 11:46:25.369424,1709030785.369424,-36.1328125,-40.52734375,-19.04296875,-40.0390625,1.0,-1.0,1.0,1.0,7.m4v,3.0
2024-02-27 11:46:25.373330,1709030785.3733296,-39.55078125,-30.2734375,-20.5078125,-29.78515625,1.0,-1.0,1.0,1.0,7.m4v,3.0
2024-02-27 11:46:25.377235,1709030785.377235,-39.0625,-32.71484375,-20.99609375,-31.73828125,1.0,-1.0,1.0,1.0,7.m4v,3.0
2024-02-27 11:46:25.381140,1709030785.3811402,-40.0390625,-25.390625,-21.97265625,-26.85546875,1.0,-1.0,1.0,1.0,7.m4v,3.0
2024-02-27 11:46:25.385046,1709030785.3850458,-65.91796875,-37.109375,-34.66796875,-33.203125,1.0,-1.0,1.0,1.0,7.m4v,3.0
2024-02-27 11:46:25.388951,1709030785.388951,-87.40234375,-61.03515625,-44.921875,-44.43359375,1.0,-1.0,1.0,1.0,7.m4v,3.0
2024-02-27 11:46:25.392856,1709030785.3928564,-78.61328125,-49.31640625,-43.9453125,-29.296875,1.0,-1.0,1.0,1.0,7.m4v,3.0
2024-02-27 11:46:25.396762,1709030785.396762,-74.70703125,-41.015625,-44.921875,-20.99609375,1.0,-1.0,1.0,1.0,7.m4v,3.0
2024-02-27 11:46:25.400667,1709030785.4006672,-72.75390625,-48.828125,-45.41015625,-27.83203125,1.0,-1.0,1.0,1.0,7.m4v,3.0
2024-02-27 11:46:25.404572,1709030785.4045725,-79.58984375,-49.31640625,-34.1796875,-33.203125,1.0,-1.0,1.0,1.0,7.m4v,3.0
2024-02-27 11:46:25.408487,1709030785.408487,-90.8203125,-55.17578125,-22.4609375,-27.83203125,1.0,-1.0,1.0,1.0,7.m4v,3.0
2024-02-27 11:46:25.412392,1709030785.4123924,-82.03125,-51.26953125,-24.90234375,-17.578125,1.0,-1.0,1.0,1.0,7.m4v,3.0
2024-02-27 11:46:25.416298,1709030785.416298,-75.68359375,-34.66796875,-24.90234375,-24.90234375,1.0,-1.0,1.0,1.0,7.m4v,3.0
2024-02-27 11:46:25.420203,1709030785.4202032,-85.9375,-52.734375,-20.5078125,-43.9453125,1.0,-1.0,1.0,1.0,7.m4v,3.0
2024-02-27 11:46:25.424109,1709030785.4241085,-88.37890625,-64.453125,-20.5078125,-44.43359375,1.0,-1.0,1.0,1.0,7.m4v,3.0
2024-02-27 11:46:25.428014,1709030785.428014,-83.984375,-40.52734375,-24.90234375,-26.3671875,1.0,-1.0,1.0,1.0,7.m4v,3.0
2024-02-27 11:46:25.431919,1709030785.431919,-83.49609375,-54.19921875,-35.15625,-17.08984375,1.0,-1.0,1.0,1.0,7.m4v,3.0
2024-02-27 11:46:25.435825,1709030785.4358246,-75.1953125,-64.453125,-28.3203125,-15.625,1.0,-1.0,1.0,1.0,7.m4v,3.0
2024-02-27 11:46:25.439730,1709030785.4397302,-65.91796875,-45.8984375,-19.53125,-15.625,1.0,-1.0,1.0,1.0,7.m4v,3.0
2024-02-27 11:46:25.443635,1709030785.4436357,-65.91796875,-50.29296875,-24.4140625,-23.92578125,1.0,-1.0,1.0,1.0,7.m4v,3.0
2024-02-27 11:46:25.447541,1709030785.4475408,-64.94140625,-63.4765625,-37.59765625,-24.4140625,1.0,-1.0,1.0,1.0,7.m4v,3.0
2024-02-27 11:46:25.451446,1709030785.4514463,-75.1953125,-53.22265625,-40.52734375,-18.5546875,1.0,-1.0,1.0,1.0,7.m4v,3.0
2024-02-27 11:46:25.455360,1709030785.4553602,-76.171875,-35.64453125,-29.296875,-18.06640625,1.0,-1.0,1.0,1.0,7.m4v,3.0
2024-02-27 11:46:25.459266,1709030785.4592657,-65.91796875,-25.87890625,-28.80859375,-37.59765625,1.0,-1.0,1.0,1.0,7.m4v,3.0
2024-02-27 11:46:25.463171,1709030785.463171,-63.96484375,-20.5078125,-36.1328125,-48.33984375,1.0,-1.0,1.0,1.0,7.m4v,3.0
2024-02-27 11:46:25.467076,1709030785.4670763,-57.6171875,-20.5078125,-41.015625,-46.38671875,1.0,-1.0,1.0,1.0,7.m4v,3.0
2024-02-27 11:46:25.470982,1709030785.4709816,-41.9921875,-23.4375,-29.78515625,-31.73828125,1.0,-1.0,1.0,1.0,7.m4v,3.0
2024-02-27 11:46:25.474887,1709030785.4748871,-31.73828125,-10.25390625,-20.5078125,-17.578125,1.0,-1.0,1.0,1.0,7.m4v,3.0
2024-02-27 11:46:25.478792,1709030785.4787924,-22.94921875,-1.46484375,-21.97265625,-21.97265625,1.0,-1.0,1.0,1.0,7.m4v,3.0
2024-02-27 11:46:25.482698,1709030785.4826975,-13.671875,-29.78515625,-23.92578125,-28.80859375,1.0,-1.0,1.0,1.0,7.m4v,3.0
2024-02-27 11:46:25.486603,1709030785.4866033,-15.625,-50.78125,-33.69140625,-26.85546875,1.0,-1.0,1.0,1.0,7.m4v,3.0
2024-02-27 11:46:25.490509,1709030785.4905086,-28.80859375,-39.0625,-36.62109375,-16.6015625,1.0,-1.0,1.0,1.0,7.m4v,3.0
2024-02-27 11:46:25.494414,1709030785.494414,-38.0859375,-29.78515625,-36.1328125,-18.5546875,1.0,-1.0,1.0,1.0,7.m4v,3.0
2024-02-27 11:46:25.498319,1709030785.4983194,-37.59765625,-19.53125,-40.0390625,-32.2265625,1.0,-1.0,1.0,1.0,7.m4v,3.0
2024-02-27 11:46:25.502236,1709030785.5022357,-49.8046875,-28.80859375,-40.52734375,-40.52734375,1.0,-1.0,1.0,1.0,7.m4v,3.0
2024-02-27 11:46:25.506141,1709030785.506141,-54.19921875,-37.59765625,-37.109375,-38.0859375,1.0,-1.0,1.0,1.0,7.m4v,3.0
2024-02-27 11:46:25.510046,1709030785.5100462,-41.50390625,-25.390625,-26.85546875,-27.83203125,1.0,-1.0,1.0,1.0,7.m4v,3.0
2024-02-27 11:46:25.513952,1709030785.5139518,-47.8515625,-25.390625,-23.92578125,-25.390625,1.0,-1.0,1.0,1.0,7.m4v,3.0
2024-02-27 11:46:25.517857,1709030785.517857,-65.4296875,-44.43359375,-41.015625,-43.45703125,1.0,-1.0,1.0,1.0,7.m4v,3.0
2024-02-27 11:46:25.521762,1709030785.5217624,-58.10546875,-41.9921875,-37.59765625,-49.31640625,1.0,-1.0,1.0,1.0,7.m4v,3.0
2024-02-27 11:46:25.525668,1709030785.525668,-48.33984375,-44.43359375,-31.25,-38.57421875,1.0,-1.0,1.0,1.0,7.m4v,3.0
2024-02-27 11:46:25.529573,1709030785.5295732,-43.45703125,-63.96484375,-31.73828125,-23.4375,1.0,-1.0,1.0,1.0,7.m4v,3.0
2024-02-27 11:46:25.533478,1709030785.5334785,-30.2734375,-62.5,-27.34375,-14.16015625,1.0,-1.0,1.0,1.0,7.m4v,3.0
2024-02-27 11:46:25.537384,1709030785.537384,-13.671875,-40.0390625,-24.90234375,-13.671875,1.0,-1.0,1.0,1.0,7.m4v,3.0
2024-02-27 11:46:25.541289,1709030785.541289,-5.37109375,-22.94921875,-30.2734375,-17.578125,1.0,-1.0,1.0,1.0,7.m4v,3.0
2024-02-27 11:46:25.545195,1709030785.5451946,-5.37109375,-27.83203125,-28.80859375,-24.90234375,1.0,-1.0,1.0,1.0,7.m4v,3.0
2024-02-27 11:46:25.549111,1709030785.549111,0.9765625,-39.55078125,-22.94921875,-20.99609375,1.0,-1.0,1.0,1.0,7.m4v,3.0
2024-02-27 11:46:25.638945,1709030785.6389449,26.85546875,-4.39453125,-47.36328125,-52.734375,1.0,-1.0,1.0,1.0,7.m4v,3.0
2024-02-27 11:46:25.646766,1709030785.6467657,10.7421875,-2.44140625,-37.59765625,-55.6640625,1.0,-1.0,1.0,1.0,7.m4v,3.0
2024-02-27 11:46:25.658482,1709030785.6584818,-14.6484375,-7.8125,-52.734375,-52.734375,1.0,-1.0,1.0,1.0,7.m4v,3.0
2024-02-27 11:46:25.666293,1709030785.666293,-9.765625,-17.08984375,-56.640625,-48.828125,1.0,-1.0,1.0,1.0,7.m4v,3.0
2024-02-27 11:46:25.670198,1709030785.670198,-18.06640625,-28.80859375,-54.19921875,-38.0859375,1.0,-1.0,1.0,1.0,7.m4v,3.0
2024-02-27 11:46:25.674103,1709030785.6741035,-29.78515625,-32.71484375,-46.875,-35.64453125,1.0,-1.0,1.0,1.0,7.m4v,3.0
2024-02-27 11:46:25.678009,1709030785.6780088,-29.78515625,-35.64453125,-44.43359375,-44.43359375,1.0,-1.0,1.0,1.0,7.m4v,3.0
2024-02-27 11:46:25.681914,1709030785.681914,-30.2734375,-33.203125,-41.50390625,-47.36328125,1.0,-1.0,1.0,1.0,7.m4v,3.0
2024-02-27 11:46:25.685820,1709030785.6858196,-41.9921875,-36.62109375,-39.0625,-46.38671875,1.0,-1.0,1.0,1.0,7.m4v,3.0
2024-02-27 11:46:25.689735,1709030785.6897347,-50.29296875,-46.875,-34.66796875,-38.0859375,1.0,-1.0,1.0,1.0,7.m4v,3.0
2024-02-27 11:46:25.693640,1709030785.69364,-40.52734375,-30.2734375,-27.34375,-25.87890625,1.0,-1.0,1.0,1.0,7.m4v,3.0
2024-02-27 11:46:25.697545,1709030785.6975453,-34.1796875,-18.5546875,-29.296875,-32.71484375,1.0,-1.0,1.0,1.0,7.m4v,3.0
2024-02-27 11:46:25.701451,1709030785.7014508,-39.55078125,-39.55078125,-36.1328125,-45.8984375,1.0,-1.0,1.0,1.0,7.m4v,3.0
2024-02-27 11:46:25.705356,1709030785.705356,-26.3671875,-50.29296875,-33.69140625,-44.921875,1.0,-1.0,1.0,1.0,7.m4v,3.0
2024-02-27 11:46:25.709261,1709030785.7092614,-14.16015625,-32.2265625,-27.34375,-22.4609375,1.0,-1.0,1.0,1.0,7.m4v,3.0
2024-02-27 11:46:25.713167,1709030785.713167,-10.25390625,-20.99609375,-20.5078125,-5.37109375,1.0,-1.0,1.0,1.0,7.m4v,3.0
2024-02-27 11:46:25.717072,1709030785.7170722,-3.90625,-30.76171875,-29.296875,-14.6484375,1.0,-1.0,1.0,1.0,7.m4v,3.0
2024-02-27 11:46:25.720978,1709030785.7209775,-2.44140625,-51.7578125,-31.73828125,-26.85546875,1.0,-1.0,1.0,1.0,7.m4v,3.0
2024-02-27 11:46:25.724883,1709030785.724883,-9.27734375,-62.5,-26.85546875,-34.66796875,1.0,-1.0,1.0,1.0,7.m4v,3.0
2024-02-27 11:46:25.728788,1709030785.7287884,-8.30078125,-44.921875,-35.15625,-24.90234375,1.0,-1.0,1.0,1.0,7.m4v,3.0
2024-02-27 11:46:25.732694,1709030785.7326937,2.9296875,-11.71875,-28.3203125,-9.27734375,1.0,-1.0,1.0,1.0,7.m4v,3.0
2024-02-27 11:46:25.736609,1709030785.7366085,-3.41796875,-13.18359375,-26.3671875,-16.6015625,1.0,-1.0,1.0,1.0,7.m4v,3.0
2024-02-27 11:46:25.740514,1709030785.7405138,-18.06640625,-32.2265625,-29.296875,-34.66796875,1.0,-1.0,1.0,1.0,7.m4v,3.0
2024-02-27 11:46:25.744419,1709030785.744419,-23.92578125,-21.97265625,-23.4375,-44.43359375,1.0,-1.0,1.0,1.0,7.m4v,3.0
2024-02-27 11:46:25.748325,1709030785.7483246,-33.203125,-29.296875,-23.4375,-43.45703125,1.0,-1.0,1.0,1.0,7.m4v,3.0
2024-02-27 11:46:25.752230,1709030785.75223,-25.390625,-29.78515625,-31.25,-32.2265625,1.0,-1.0,1.0,1.0,7.m4v,3.0
2024-02-27 11:46:25.756135,1709030785.7561357,-13.18359375,-10.7421875,-39.55078125,-22.4609375,1.0,-1.0,1.0,1.0,7.m4v,3.0
2024-02-27 11:46:25.760041,1709030785.7600408,-20.5078125,-27.83203125,-39.0625,-27.83203125,1.0,-1.0,1.0,1.0,7.m4v,3.0
2024-02-27 11:46:25.763946,1709030785.763946,-30.76171875,-52.24609375,-25.390625,-38.0859375,1.0,-1.0,1.0,1.0,7.m4v,3.0
2024-02-27 11:46:25.767851,1709030785.7678514,-27.34375,-41.015625,-13.671875,-30.76171875,1.0,-1.0,1.0,1.0,7.m4v,3.0
2024-02-27 11:46:25.771757,1709030785.771757,-29.296875,-36.1328125,-16.11328125,-10.7421875,1.0,-1.0,1.0,1.0,7.m4v,3.0
2024-02-27 11:46:25.775662,1709030785.7756622,-25.87890625,-22.94921875,-20.01953125,-8.7890625,1.0,-1.0,1.0,1.0,7.m4v,3.0
2024-02-27 11:46:25.779567,1709030785.7795677,-23.92578125,-31.25,-20.99609375,-22.94921875,1.0,-1.0,1.0,1.0,7.m4v,3.0
2024-02-27 11:46:25.783482,1709030785.7834823,-35.64453125,-50.29296875,-29.296875,-28.3203125,1.0,-1.0,1.0,1.0,7.m4v,3.0
2024-02-27 11:46:25.787388,1709030785.7873878,-35.64453125,-52.24609375,-33.69140625,-32.71484375,1.0,-1.0,1.0,1.0,7.m4v,3.0
2024-02-27 11:46:25.791293,1709030785.7912931,-29.296875,-51.26953125,-26.85546875,-26.85546875,1.0,-1.0,1.0,1.0,7.m4v,3.0
2024-02-27 11:46:25.795198,1709030785.7951984,-27.34375,-35.64453125,-26.85546875,-23.92578125,1.0,-1.0,1.0,1.0,7.m4v,3.0
2024-02-27 11:46:25.799104,1709030785.799104,-33.69140625,-27.34375,-40.0390625,-41.015625,1.0,-1.0,1.0,1.0,7.m4v,3.0
2024-02-27 11:46:25.803009,1709030785.8030093,-27.34375,-10.7421875,-45.41015625,-45.41015625,1.0,-1.0,1.0,1.0,7.m4v,3.0
2024-02-27 11:46:25.806915,1709030785.8069146,-33.203125,-19.53125,-41.50390625,-46.38671875,1.0,-1.0,1.0,1.0,7.m4v,3.0
2024-02-27 11:46:25.814725,1709030785.8147254,-36.62109375,-45.8984375,-42.96875,-40.0390625,1.0,-1.0,1.0,1.0,7.m4v,3.0
2024-02-27 11:46:25.822536,1709030785.822536,-31.73828125,-30.2734375,-24.90234375,-53.22265625,1.0,-1.0,1.0,1.0,7.m4v,3.0
2024-02-27 11:46:25.834263,1709030785.834263,-39.0625,-56.15234375,-33.203125,-50.78125,1.0,-1.0,1.0,1.0,7.m4v,3.0
2024-02-27 11:46:25.842074,1709030785.8420742,-29.296875,-35.15625,-53.7109375,-42.48046875,1.0,-1.0,1.0,1.0,7.m4v,3.0
2024-02-27 11:46:25.853790,1709030785.8537903,-41.015625,-31.25,-30.2734375,-26.85546875,1.0,-1.0,1.0,1.0,7.m4v,3.0
2024-02-27 11:46:25.861601,1709030785.861601,-50.78125,-51.7578125,-31.73828125,-46.38671875,1.0,-1.0,1.0,1.0,7.m4v,3.0
2024-02-27 11:46:25.873317,1709030785.8733172,-67.3828125,-47.8515625,-25.390625,-34.1796875,1.0,-1.0,1.0,1.0,7.m4v,3.0
2024-02-27 11:46:25.881139,1709030785.8811388,-34.66796875,-37.109375,-37.59765625,-37.109375,1.0,-1.0,1.0,1.0,7.m4v,3.0
2024-02-27 11:46:25.892855,1709030785.892855,-30.76171875,-37.59765625,-46.875,-43.45703125,1.0,-1.0,1.0,1.0,7.m4v,3.0
2024-02-27 11:46:25.900666,1709030785.9006655,-20.01953125,-37.59765625,-27.34375,-44.921875,1.0,-1.0,1.0,1.0,7.m4v,3.0
2024-02-27 11:46:25.912382,1709030785.9123816,-29.296875,-59.5703125,-30.2734375,-31.25,1.0,-1.0,1.0,1.0,7.m4v,3.0
2024-02-27 11:46:25.916287,1709030785.9162872,-17.08984375,-51.7578125,-30.76171875,-26.85546875,1.0,-1.0,1.0,1.0,7.m4v,3.0
2024-02-27 11:46:25.920192,1709030785.9201925,-23.4375,-47.8515625,-38.57421875,-33.69140625,1.0,-1.0,1.0,1.0,7.m4v,3.0
2024-02-27 11:46:25.924108,1709030785.9241085,-29.78515625,-43.9453125,-38.0859375,-29.78515625,1.0,-1.0,1.0,1.0,7.m4v,3.0
2024-02-27 11:46:25.928014,1709030785.9280138,-31.73828125,-45.8984375,-36.1328125,-24.4140625,1.0,-1.0,1.0,1.0,7.m4v,3.0
2024-02-27 11:46:25.931919,1709030785.931919,-30.76171875,-39.55078125,-33.69140625,-19.53125,1.0,-1.0,1.0,1.0,7.m4v,3.0
2024-02-27 11:46:25.935824,1709030785.9358244,-27.34375,-41.015625,-30.76171875,-22.94921875,1.0,-1.0,1.0,1.0,7.m4v,3.0
2024-02-27 11:46:25.939730,1709030785.93973,-35.64453125,-44.921875,-30.2734375,-29.78515625,1.0,-1.0,1.0,1.0,7.m4v,3.0
2024-02-27 11:46:25.943635,1709030785.9436352,-41.50390625,-31.73828125,-34.66796875,-38.0859375,1.0,-1.0,1.0,1.0,7.m4v,3.0
2024-02-27 11:46:25.947541,1709030785.9475403,-42.96875,-37.59765625,-38.57421875,-34.66796875,1.0,-1.0,1.0,1.0,7.m4v,3.0
2024-02-27 11:46:25.951446,1709030785.951446,-35.64453125,-44.921875,-33.203125,-22.4609375,1.0,-1.0,1.0,1.0,7.m4v,3.0
2024-02-27 11:46:25.955351,1709030785.9553514,-19.04296875,-28.80859375,-25.390625,-20.5078125,1.0,-1.0,1.0,1.0,7.m4v,3.0
2024-02-27 11:46:25.959257,1709030785.9592566,-29.78515625,-41.50390625,-32.2265625,-44.43359375,1.0,-1.0,1.0,1.0,7.m4v,3.0
2024-02-27 11:46:25.963162,1709030785.9631622,-42.96875,-50.29296875,-37.59765625,-63.4765625,1.0,-1.0,1.0,1.0,7.m4v,3.0
2024-02-27 11:46:25.967067,1709030785.9670677,-35.15625,-45.8984375,-31.25,-56.640625,1.0,-1.0,1.0,1.0,7.m4v,3.0
2024-02-27 11:46:25.970988,1709030785.9709878,-28.3203125,-56.640625,-31.73828125,-34.66796875,1.0,-1.0,1.0,1.0,7.m4v,3.0
2024-02-27 11:46:25.974893,1709030785.974893,-18.06640625,-44.921875,-36.1328125,-25.87890625,1.0,-1.0,1.0,1.0,7.m4v,3.0
2024-02-27 11:46:25.978798,1709030785.9787984,-32.2265625,-26.85546875,-33.203125,-54.6875,1.0,-1.0,1.0,1.0,7.m4v,3.0
2024-02-27 11:46:25.982704,1709030785.982704,-52.734375,-35.15625,-33.69140625,-76.171875,1.0,-1.0,1.0,1.0,7.m4v,3.0
2024-02-27 11:46:25.986609,1709030785.9866092,-49.31640625,-35.15625,-34.66796875,-69.82421875,1.0,-1.0,1.0,1.0,7.m4v,3.0
2024-02-27 11:46:25.990515,1709030785.9905145,-40.52734375,-14.16015625,-38.57421875,-45.41015625,1.0,-1.0,1.0,1.0,7.m4v,3.0
2024-02-27 11:46:25.994420,1709030785.99442,-38.0859375,-22.94921875,-42.48046875,-28.80859375,1.0,-1.0,1.0,1.0,7.m4v,3.0
2024-02-27 11:46:25.998325,1709030785.998325,-42.48046875,-33.203125,-52.24609375,-32.71484375,1.0,-1.0,1.0,1.0,7.m4v,3.0
2024-02-27 11:46:26.002231,1709030786.0022306,-53.22265625,-32.2265625,-55.17578125,-49.8046875,1.0,-1.0,1.0,1.0,7.m4v,3.0
2024-02-27 11:46:26.006136,1709030786.0061362,-62.01171875,-31.73828125,-48.33984375,-62.5,1.0,-1.0,1.0,1.0,7.m4v,3.0
2024-02-27 11:46:26.010041,1709030786.0100417,-68.359375,-34.66796875,-39.55078125,-56.640625,1.0,-1.0,1.0,1.0,7.m4v,3.0
2024-02-27 11:46:26.013947,1709030786.0139468,-65.91796875,-26.3671875,-33.69140625,-44.43359375,1.0,-1.0,1.0,1.0,7.m4v,3.0
2024-02-27 11:46:26.017864,1709030786.0178645,-58.59375,-14.16015625,-33.69140625,-43.9453125,1.0,-1.0,1.0,1.0,7.m4v,3.0
2024-02-27 11:46:26.021770,1709030786.0217698,-54.6875,-36.62109375,-31.73828125,-61.03515625,1.0,-1.0,1.0,1.0,7.m4v,3.0
2024-02-27 11:46:26.025675,1709030786.0256753,-65.91796875,-47.36328125,-33.203125,-66.40625,1.0,-1.0,1.0,1.0,7.m4v,3.0
2024-02-27 11:46:26.029581,1709030786.0295806,-69.82421875,-46.38671875,-44.921875,-58.10546875,1.0,-1.0,1.0,1.0,7.m4v,3.0
2024-02-27 11:46:26.033486,1709030786.033486,-51.7578125,-26.3671875,-40.0390625,-36.1328125,1.0,-1.0,1.0,1.0,7.m4v,3.0
2024-02-27 11:46:26.037391,1709030786.0373914,-30.76171875,7.32421875,-27.83203125,-17.578125,1.0,-1.0,1.0,1.0,7.m4v,3.0
2024-02-27 11:46:26.041297,1709030786.0412967,-25.390625,-13.18359375,-30.2734375,-27.34375,1.0,-1.0,1.0,1.0,7.m4v,3.0
2024-02-27 11:46:26.045202,1709030786.045202,-22.4609375,-37.109375,-28.3203125,-44.43359375,1.0,-1.0,1.0,1.0,7.m4v,3.0
2024-02-27 11:46:26.049108,1709030786.0491076,-15.625,-40.0390625,-22.4609375,-33.69140625,1.0,-1.0,1.0,1.0,7.m4v,3.0
2024-02-27 11:46:26.053013,1709030786.0530128,-17.08984375,-42.96875,-20.01953125,-8.7890625,1.0,-1.0,1.0,1.0,7.m4v,3.0
2024-02-27 11:46:26.056918,1709030786.056918,-20.5078125,-41.50390625,-28.3203125,-14.16015625,1.0,-1.0,1.0,1.0,7.m4v,3.0
2024-02-27 11:46:26.060824,1709030786.0608237,-20.5078125,-49.31640625,-43.9453125,-34.1796875,1.0,-1.0,1.0,1.0,7.m4v,3.0
2024-02-27 11:46:26.064739,1709030786.0647388,-16.6015625,-43.45703125,-41.9921875,-37.59765625,1.0,-1.0,1.0,1.0,7.m4v,3.0
2024-02-27 11:46:26.068644,1709030786.0686443,-18.06640625,-21.484375,-34.66796875,-34.66796875,1.0,-1.0,1.0,1.0,7.m4v,3.0
2024-02-27 11:46:26.072550,1709030786.0725496,-21.484375,-24.90234375,-33.203125,-29.296875,1.0,-1.0,1.0,1.0,7.m4v,3.0
2024-02-27 11:46:26.076455,1709030786.0764549,-18.06640625,-25.390625,-36.62109375,-28.3203125,1.0,-1.0,1.0,1.0,7.m4v,3.0
2024-02-27 11:46:26.080360,1709030786.0803604,-23.4375,-27.83203125,-40.52734375,-30.2734375,1.0,-1.0,1.0,1.0,7.m4v,3.0
2024-02-27 11:46:26.084266,1709030786.0842657,-29.296875,-21.97265625,-38.57421875,-38.0859375,1.0,-1.0,1.0,1.0,7.m4v,3.0
2024-02-27 11:46:26.088171,1709030786.088171,-40.0390625,-20.01953125,-37.109375,-39.55078125,1.0,-1.0,1.0,1.0,7.m4v,3.0
2024-02-27 11:46:26.092077,1709030786.0920763,-38.0859375,-39.55078125,-36.62109375,-22.4609375,1.0,-1.0,1.0,1.0,7.m4v,3.0
2024-02-27 11:46:26.095982,1709030786.0959818,-35.15625,-37.109375,-32.2265625,-20.5078125,1.0,-1.0,1.0,1.0,7.m4v,3.0
2024-02-27 11:46:26.099887,1709030786.0998871,-40.52734375,-36.1328125,-37.109375,-34.1796875,1.0,-1.0,1.0,1.0,7.m4v,3.0
2024-02-27 11:46:26.103793,1709030786.103793,-36.1328125,-44.43359375,-45.8984375,-33.69140625,1.0,-1.0,1.0,1.0,7.m4v,3.0
2024-02-27 11:46:26.107698,1709030786.107698,-36.62109375,-42.96875,-42.96875,-23.92578125,1.0,-1.0,1.0,1.0,7.m4v,3.0
2024-02-27 11:46:26.111613,1709030786.1116128,-34.66796875,-27.83203125,-35.15625,-18.06640625,1.0,-1.0,1.0,1.0,7.m4v,3.0
2024-02-27 11:46:26.115518,1709030786.115518,-27.83203125,-21.484375,-25.87890625,-11.71875,1.0,-1.0,1.0,1.0,7.m4v,3.0
2024-02-27 11:46:26.119424,1709030786.1194236,-21.97265625,-38.0859375,-25.390625,-26.85546875,1.0,-1.0,1.0,1.0,7.m4v,3.0
2024-02-27 11:46:26.123329,1709030786.123329,-24.4140625,-42.48046875,-33.69140625,-45.8984375,1.0,-1.0,1.0,1.0,7.m4v,3.0
2024-02-27 11:46:26.127234,1709030786.1272342,-33.203125,-35.15625,-32.2265625,-39.55078125,1.0,-1.0,1.0,1.0,7.m4v,3.0
2024-02-27 11:46:26.131140,1709030786.1311398,-28.80859375,-26.3671875,-29.78515625,-24.4140625,1.0,-1.0,1.0,1.0,7.m4v,3.0
2024-02-27 11:46:26.135045,1709030786.135045,-27.83203125,-22.4609375,-39.0625,-25.87890625,1.0,-1.0,1.0,1.0,7.m4v,3.0
2024-02-27 11:46:26.138950,1709030786.1389503,-29.78515625,-26.3671875,-46.38671875,-35.15625,1.0,-1.0,1.0,1.0,7.m4v,3.0
2024-02-27 11:46:26.142856,1709030786.142856,-21.484375,-29.296875,-43.45703125,-49.31640625,1.0,-1.0,1.0,1.0,7.m4v,3.0
2024-02-27 11:46:26.146761,1709030786.1467612,-22.94921875,-31.73828125,-42.48046875,-50.29296875,1.0,-1.0,1.0,1.0,7.m4v,3.0
2024-02-27 11:46:26.150666,1709030786.1506665,-46.38671875,-29.78515625,-36.62109375,-46.38671875,1.0,-1.0,1.0,1.0,7.m4v,3.0
2024-02-27 11:46:26.154572,1709030786.154572,-49.8046875,-31.73828125,-30.76171875,-49.31640625,1.0,-1.0,1.0,1.0,7.m4v,3.0
2024-02-27 11:46:26.170207,1709030786.170207,-49.8046875,-25.390625,-38.57421875,-37.59765625,1.0,-1.0,1.0,1.0,7.m4v,3.0
2024-02-27 11:46:26.174113,1709030786.1741126,-42.48046875,-35.15625,-46.38671875,-33.69140625,1.0,-1.0,1.0,1.0,7.m4v,3.0
2024-02-27 11:46:26.178018,1709030786.178018,-33.69140625,-25.390625,-42.48046875,-30.76171875,1.0,-1.0,1.0,1.0,7.m4v,3.0
2024-02-27 11:46:26.756135,1709030786.756135,-39.0625,-39.0625,-36.62109375,-46.875,1.0,-1.0,1.0,1.0,7.m4v,3.0
2024-02-27 11:46:26.760041,1709030786.7600403,-43.45703125,-27.34375,-36.1328125,-58.59375,1.0,-1.0,1.0,1.0,7.m4v,3.0
2024-02-27 11:46:26.763946,1709030786.7639458,-52.734375,-31.25,-38.57421875,-66.40625,1.0,-1.0,1.0,1.0,7.m4v,3.0
2024-02-27 11:46:26.767861,1709030786.7678611,-54.19921875,-33.69140625,-40.0390625,-65.4296875,1.0,-1.0,1.0,1.0,7.m4v,3.0
2024-02-27 11:46:26.771766,1709030786.7717664,-51.7578125,-41.015625,-33.203125,-50.78125,1.0,-1.0,1.0,1.0,7.m4v,3.0
2024-02-27 11:46:26.775672,1709030786.775672,-45.41015625,-34.66796875,-28.80859375,-41.015625,1.0,-1.0,1.0,1.0,7.m4v,3.0
2024-02-27 11:46:26.779577,1709030786.7795773,-37.109375,-26.3671875,-29.78515625,-48.828125,1.0,-1.0,1.0,1.0,7.m4v,3.0
2024-02-27 11:46:26.783483,1709030786.7834826,-29.296875,-35.15625,-29.78515625,-50.29296875,1.0,-1.0,1.0,1.0,7.m4v,3.0
2024-02-27 11:46:26.787388,1709030786.787388,-38.57421875,-29.296875,-27.34375,-39.0625,1.0,-1.0,1.0,1.0,7.m4v,3.0
2024-02-27 11:46:26.791293,1709030786.7912934,-44.43359375,-18.5546875,-28.3203125,-33.203125,1.0,-1.0,1.0,1.0,7.m4v,3.0
2024-02-27 11:46:26.795199,1709030786.795199,-30.2734375,-19.53125,-24.4140625,-27.34375,1.0,-1.0,1.0,1.0,7.m4v,3.0
2024-02-27 11:46:26.799104,1709030786.7991042,-37.109375,-19.53125,-30.76171875,-28.80859375,1.0,-1.0,1.0,1.0,7.m4v,3.0
2024-02-27 11:46:26.803010,1709030786.8030095,-51.7578125,-41.9921875,-34.1796875,-51.7578125,1.0,-1.0,1.0,1.0,7.m4v,3.0
2024-02-27 11:46:26.806915,1709030786.8069148,-50.78125,-52.24609375,-25.87890625,-57.12890625,1.0,-1.0,1.0,1.0,7.m4v,3.0
2024-02-27 11:46:26.810820,1709030786.8108203,-45.41015625,-40.0390625,-26.85546875,-48.828125,1.0,-1.0,1.0,1.0,7.m4v,3.0
2024-02-27 11:46:26.814735,1709030786.8147354,-46.875,-37.59765625,-36.62109375,-49.31640625,1.0,-1.0,1.0,1.0,7.m4v,3.0
2024-02-27 11:46:26.818641,1709030786.8186407,-36.62109375,-39.0625,-35.15625,-41.50390625,1.0,-1.0,1.0,1.0,7.m4v,3.0
2024-02-27 11:46:26.822546,1709030786.822546,-19.04296875,-28.80859375,-30.2734375,-40.52734375,1.0,-1.0,1.0,1.0,7.m4v,3.0
2024-02-27 11:46:26.826452,1709030786.8264515,-19.53125,-18.5546875,-27.83203125,-36.62109375,1.0,-1.0,1.0,1.0,7.m4v,3.0
2024-02-27 11:46:26.830357,1709030786.8303568,-29.296875,-26.3671875,-26.85546875,-26.3671875,1.0,-1.0,1.0,1.0,7.m4v,3.0
2024-02-27 11:46:26.834262,1709030786.834262,-25.390625,-19.04296875,-26.85546875,-16.11328125,1.0,-1.0,1.0,1.0,7.m4v,3.0
2024-02-27 11:46:26.838168,1709030786.8381677,-20.01953125,-9.27734375,-21.484375,-18.5546875,1.0,-1.0,1.0,1.0,7.m4v,3.0
2024-02-27 11:46:26.842073,1709030786.842073,-34.1796875,-27.83203125,-24.90234375,-36.62109375,1.0,-1.0,1.0,1.0,7.m4v,3.0
2024-02-27 11:46:26.845978,1709030786.8459785,-44.43359375,-29.296875,-21.484375,-40.0390625,1.0,-1.0,1.0,1.0,7.m4v,3.0
2024-02-27 11:46:26.849884,1709030786.8498838,-35.15625,-20.99609375,-20.99609375,-25.87890625,1.0,-1.0,1.0,1.0,7.m4v,3.0
2024-02-27 11:46:26.853789,1709030786.853789,-21.484375,-15.625,-26.85546875,-7.8125,1.0,-1.0,1.0,1.0,7.m4v,3.0
2024-02-27 11:46:26.857694,1709030786.8576944,-18.5546875,-19.04296875,-26.3671875,-12.6953125,1.0,-1.0,1.0,1.0,7.m4v,3.0
2024-02-27 11:46:26.861609,1709030786.8616097,-32.2265625,-39.55078125,-29.296875,-28.80859375,1.0,-1.0,1.0,1.0,7.m4v,3.0
2024-02-27 11:46:26.865515,1709030786.8655148,-43.9453125,-43.9453125,-29.78515625,-37.109375,1.0,-1.0,1.0,1.0,7.m4v,3.0
2024-02-27 11:46:26.869420,1709030786.8694203,-47.36328125,-38.0859375,-34.1796875,-35.64453125,1.0,-1.0,1.0,1.0,7.m4v,3.0
2024-02-27 11:46:26.873326,1709030786.8733256,-45.41015625,-37.109375,-33.69140625,-23.92578125,1.0,-1.0,1.0,1.0,7.m4v,3.0
2024-02-27 11:46:26.877231,1709030786.877231,-34.66796875,-31.25,-21.484375,-27.34375,1.0,-1.0,1.0,1.0,7.m4v,3.0
2024-02-27 11:46:26.881136,1709030786.8811364,-30.2734375,-20.5078125,-34.1796875,-29.78515625,1.0,-1.0,1.0,1.0,7.m4v,3.0
2024-02-27 11:46:26.885042,1709030786.8850417,-28.3203125,-30.76171875,-33.203125,-24.90234375,1.0,-1.0,1.0,1.0,7.m4v,3.0
2024-02-27 11:46:26.888947,1709030786.888947,-22.4609375,-38.57421875,-22.94921875,-30.2734375,1.0,-1.0,1.0,1.0,7.m4v,3.0
2024-02-27 11:46:26.892853,1709030786.8928523,-23.92578125,-41.50390625,-29.78515625,-36.62109375,1.0,-1.0,1.0,1.0,7.m4v,3.0
2024-02-27 11:46:26.896758,1709030786.8967578,-32.71484375,-43.45703125,-32.2265625,-30.76171875,1.0,-1.0,1.0,1.0,7.m4v,3.0
2024-02-27 11:46:26.900663,1709030786.9006631,-37.109375,-41.50390625,-33.69140625,-33.69140625,1.0,-1.0,1.0,1.0,7.m4v,3.0
2024-02-27 11:46:26.904569,1709030786.904569,-40.52734375,-47.8515625,-31.73828125,-39.0625,1.0,-1.0,1.0,1.0,7.m4v,3.0
2024-02-27 11:46:26.908483,1709030786.908483,-41.015625,-47.36328125,-29.296875,-36.1328125,1.0,-1.0,1.0,1.0,7.m4v,3.0
2024-02-27 11:46:26.912389,1709030786.9123886,-36.1328125,-43.45703125,-35.15625,-25.87890625,1.0,-1.0,1.0,1.0,7.m4v,3.0
2024-02-27 11:46:26.916294,1709030786.916294,-38.0859375,-26.3671875,-40.0390625,-23.4375,1.0,-1.0,1.0,1.0,7.m4v,3.0
2024-02-27 11:46:26.920199,1709030786.9201992,-41.015625,-31.73828125,-39.55078125,-39.55078125,1.0,-1.0,1.0,1.0,7.m4v,3.0
2024-02-27 11:46:26.924105,1709030786.9241047,-44.921875,-45.8984375,-43.45703125,-56.15234375,1.0,-1.0,1.0,1.0,7.m4v,3.0
2024-02-27 11:46:26.928010,1709030786.92801,-55.6640625,-23.4375,-36.1328125,-52.734375,1.0,-1.0,1.0,1.0,7.m4v,3.0
2024-02-27 11:46:26.967072,1709030786.9670725,-36.62109375,-29.296875,-20.99609375,-31.25,1.0,-1.0,1.0,1.0,7.m4v,3.0
2024-02-27 11:46:26.970978,1709030786.970978,-40.0390625,-27.34375,-23.92578125,-23.92578125,1.0,-1.0,1.0,1.0,7.m4v,3.0
2024-02-27 11:46:26.974883,1709030786.9748833,-33.69140625,-10.7421875,-38.0859375,-12.20703125,1.0,-1.0,1.0,1.0,7.m4v,3.0
2024-02-27 11:46:26.978789,1709030786.9787886,-23.92578125,-1.46484375,-41.015625,-17.578125,1.0,-1.0,1.0,1.0,7.m4v,3.0
2024-02-27 11:46:26.982694,1709030786.982694,-22.4609375,-31.25,-31.73828125,-41.015625,1.0,-1.0,1.0,1.0,7.m4v,3.0
2024-02-27 11:46:26.986599,1709030786.9865994,-36.1328125,-53.7109375,-32.2265625,-51.26953125,1.0,-1.0,1.0,1.0,7.m4v,3.0
2024-02-27 11:46:26.990505,1709030786.9905047,-46.38671875,-36.62109375,-42.48046875,-44.921875,1.0,-1.0,1.0,1.0,7.m4v,3.0
2024-02-27 11:46:26.994410,1709030786.9944105,-43.9453125,-25.390625,-44.43359375,-37.59765625,1.0,-1.0,1.0,1.0,7.m4v,3.0
2024-02-27 11:46:26.998316,1709030786.9983156,-33.69140625,-36.62109375,-41.9921875,-45.41015625,1.0,-1.0,1.0,1.0,7.m4v,3.0
2024-02-27 11:46:27.002232,1709030787.0022318,-29.78515625,-29.78515625,-39.55078125,-45.8984375,1.0,-1.0,1.0,1.0,7.m4v,3.0
2024-02-27 11:46:27.006137,1709030787.0061371,-24.90234375,-12.20703125,-35.15625,-33.69140625,1.0,-1.0,1.0,1.0,7.m4v,3.0
2024-02-27 11:46:27.010042,1709030787.0100424,-33.203125,-23.92578125,-34.66796875,-29.296875,1.0,-1.0,1.0,1.0,7.m4v,3.0
2024-02-27 11:46:27.013948,1709030787.013948,-37.109375,-34.1796875,-35.64453125,-24.4140625,1.0,-1.0,1.0,1.0,7.m4v,3.0
2024-02-27 11:46:27.017853,1709030787.0178533,-32.71484375,-25.390625,-33.203125,-27.34375,1.0,-1.0,1.0,1.0,7.m4v,3.0
2024-02-27 11:46:27.021759,1709030787.0217586,-40.0390625,-17.578125,-39.55078125,-42.48046875,1.0,-1.0,1.0,1.0,7.m4v,3.0
2024-02-27 11:46:27.025664,1709030787.025664,-49.8046875,-30.76171875,-51.26953125,-54.6875,1.0,-1.0,1.0,1.0,7.m4v,3.0
2024-02-27 11:46:27.029569,1709030787.0295694,-47.36328125,-42.96875,-59.5703125,-48.33984375,1.0,-1.0,1.0,1.0,7.m4v,3.0
2024-02-27 11:46:27.033475,1709030787.0334747,-40.52734375,-36.1328125,-54.6875,-32.2265625,1.0,-1.0,1.0,1.0,7.m4v,3.0
2024-02-27 11:46:27.037380,1709030787.0373802,-42.96875,-32.71484375,-41.50390625,-39.55078125,1.0,-1.0,1.0,1.0,7.m4v,3.0
2024-02-27 11:46:27.041286,1709030787.0412855,-38.57421875,-43.45703125,-36.62109375,-49.8046875,1.0,-1.0,1.0,1.0,7.m4v,3.0
2024-02-27 11:46:27.045191,1709030787.0451908,-32.71484375,-48.33984375,-35.64453125,-44.921875,1.0,-1.0,1.0,1.0,7.m4v,3.0
2024-02-27 11:46:27.049109,1709030787.049109,-41.015625,-40.0390625,-37.59765625,-41.50390625,1.0,-1.0,1.0,1.0,7.m4v,3.0
2024-02-27 11:46:27.053015,1709030787.0530145,-37.109375,-34.1796875,-44.43359375,-39.55078125,1.0,-1.0,1.0,1.0,7.m4v,3.0
2024-02-27 11:46:27.056920,1709030787.0569198,-29.78515625,-27.83203125,-47.36328125,-33.203125,1.0,-1.0,1.0,1.0,7.m4v,3.0
2024-02-27 11:46:27.060825,1709030787.060825,-28.3203125,-29.78515625,-44.921875,-44.43359375,1.0,-1.0,1.0,1.0,7.m4v,3.0
2024-02-27 11:46:27.064731,1709030787.0647306,-29.296875,-35.64453125,-46.875,-55.17578125,1.0,-1.0,1.0,1.0,7.m4v,3.0
2024-02-27 11:46:27.068636,1709030787.068636,-34.66796875,-21.484375,-37.109375,-47.36328125,1.0,-1.0,1.0,1.0,7.m4v,3.0
2024-02-27 11:46:27.072541,1709030787.0725412,-29.78515625,-19.53125,-30.76171875,-37.59765625,1.0,-1.0,1.0,1.0,7.m4v,3.0
2024-02-27 11:46:27.076447,1709030787.0764468,-30.2734375,-33.203125,-31.73828125,-33.203125,1.0,-1.0,1.0,1.0,7.m4v,3.0
2024-02-27 11:46:27.080352,1709030787.080352,-32.71484375,-30.2734375,-30.76171875,-35.64453125,1.0,-1.0,1.0,1.0,7.m4v,3.0
2024-02-27 11:46:27.084257,1709030787.0842574,-39.0625,-32.71484375,-34.1796875,-48.828125,1.0,-1.0,1.0,1.0,7.m4v,3.0
2024-02-27 11:46:27.088163,1709030787.088163,-41.015625,-40.0390625,-24.90234375,-51.7578125,1.0,-1.0,1.0,1.0,7.m4v,3.0
2024-02-27 11:46:27.092068,1709030787.0920682,-35.15625,-47.36328125,-25.390625,-30.76171875,1.0,-1.0,1.0,1.0,7.m4v,3.0
2024-02-27 11:46:27.095984,1709030787.095984,-36.62109375,-37.59765625,-32.71484375,-22.4609375,1.0,-1.0,1.0,1.0,7.m4v,3.0
2024-02-27 11:46:27.099890,1709030787.0998895,-40.52734375,-19.53125,-28.80859375,-34.1796875,1.0,-1.0,1.0,1.0,7.m4v,3.0
2024-02-27 11:46:27.103795,1709030787.1037948,-40.0390625,-28.3203125,-25.87890625,-40.0390625,1.0,-1.0,1.0,1.0,7.m4v,3.0
2024-02-27 11:46:27.107700,1709030787.1077,-44.43359375,-43.9453125,-34.1796875,-39.55078125,1.0,-1.0,1.0,1.0,7.m4v,3.0
2024-02-27 11:46:27.111606,1709030787.1116056,-41.50390625,-47.36328125,-42.96875,-20.5078125,1.0,-1.0,1.0,1.0,7.m4v,3.0
2024-02-27 11:46:27.115511,1709030787.115511,-34.1796875,-29.296875,-36.62109375,-3.90625,1.0,-1.0,1.0,1.0,7.m4v,3.0
2024-02-27 11:46:27.119416,1709030787.1194162,-28.3203125,-27.34375,-34.1796875,-15.625,1.0,-1.0,1.0,1.0,7.m4v,3.0
2024-02-27 11:46:27.123322,1709030787.1233218,-20.99609375,-40.0390625,-33.203125,-17.578125,1.0,-1.0,1.0,1.0,7.m4v,3.0
2024-02-27 11:46:27.127227,1709030787.127227,-33.203125,-43.9453125,-35.64453125,-25.390625,1.0,-1.0,1.0,1.0,7.m4v,3.0
2024-02-27 11:46:27.131132,1709030787.1311324,-43.9453125,-53.22265625,-38.0859375,-31.73828125,1.0,-1.0,1.0,1.0,7.m4v,3.0
2024-02-27 11:46:27.135038,1709030787.135038,-37.59765625,-38.0859375,-27.83203125,-21.484375,1.0,-1.0,1.0,1.0,7.m4v,3.0
2024-02-27 11:46:27.138943,1709030787.1389432,-38.0859375,-38.0859375,-20.01953125,-30.2734375,1.0,-1.0,1.0,1.0,7.m4v,3.0
2024-02-27 11:46:27.142859,1709030787.1428585,-41.9921875,-55.17578125,-33.203125,-41.015625,1.0,-1.0,1.0,1.0,7.m4v,3.0
2024-02-27 11:46:27.146764,1709030787.1467638,-41.015625,-44.43359375,-43.45703125,-40.52734375,1.0,-1.0,1.0,1.0,7.m4v,3.0
2024-02-27 11:46:27.150669,1709030787.150669,-49.31640625,-40.52734375,-32.2265625,-38.57421875,1.0,-1.0,1.0,1.0,7.m4v,3.0
2024-02-27 11:46:27.154575,1709030787.1545746,-43.45703125,-36.1328125,-27.34375,-21.97265625,1.0,-1.0,1.0,1.0,7.m4v,3.0
2024-02-27 11:46:27.158480,1709030787.15848,-35.64453125,-29.78515625,-32.2265625,-21.484375,1.0,-1.0,1.0,1.0,7.m4v,3.0
2024-02-27 11:46:27.162385,1709030787.1623857,-31.73828125,-27.34375,-32.71484375,-30.2734375,1.0,-1.0,1.0,1.0,7.m4v,3.0
2024-02-27 11:46:27.166291,1709030787.1662908,-28.3203125,-33.69140625,-33.203125,-31.73828125,1.0,-1.0,1.0,1.0,7.m4v,3.0
2024-02-27 11:46:27.170196,1709030787.170196,-35.64453125,-62.98828125,-33.69140625,-30.2734375,1.0,-1.0,1.0,1.0,7.m4v,3.0
2024-02-27 11:46:27.174102,1709030787.1741016,-35.64453125,-69.82421875,-36.62109375,-20.01953125,1.0,-1.0,1.0,1.0,7.m4v,3.0
2024-02-27 11:46:27.178007,1709030787.178007,-18.5546875,-40.52734375,-35.64453125,-16.6015625,1.0,-1.0,1.0,1.0,7.m4v,3.0
2024-02-27 11:46:27.181912,1709030787.1819122,-16.6015625,-28.80859375,-38.0859375,-15.13671875,1.0,-1.0,1.0,1.0,7.m4v,3.0
2024-02-27 11:46:27.771751,1709030787.7717512,-48.828125,-42.96875,-33.69140625,-36.62109375,1.0,-1.0,1.0,1.0,7.m4v,3.0
2024-02-27 11:46:27.775657,1709030787.7756567,-42.48046875,-30.76171875,-35.15625,-27.83203125,1.0,-1.0,1.0,1.0,7.m4v,3.0
2024-02-27 11:46:27.779562,1709030787.779562,-41.50390625,-50.78125,-33.69140625,-35.15625,1.0,-1.0,1.0,1.0,7.m4v,3.0
2024-02-27 11:46:27.783467,1709030787.7834673,-38.57421875,-51.26953125,-40.52734375,-41.9921875,1.0,-1.0,1.0,1.0,7.m4v,3.0
2024-02-27 11:46:27.787373,1709030787.7873728,-40.0390625,-40.0390625,-43.45703125,-46.38671875,1.0,-1.0,1.0,1.0,7.m4v,3.0
2024-02-27 11:46:27.791278,1709030787.791278,-36.62109375,-35.64453125,-31.73828125,-35.15625,1.0,-1.0,1.0,1.0,7.m4v,3.0
2024-02-27 11:46:27.795183,1709030787.7951834,-32.2265625,-35.15625,-31.73828125,-25.87890625,1.0,-1.0,1.0,1.0,7.m4v,3.0
2024-02-27 11:46:27.799099,1709030787.7990994,-31.25,-36.62109375,-32.2265625,-23.4375,1.0,-1.0,1.0,1.0,7.m4v,3.0
2024-02-27 11:46:27.803005,1709030787.8030047,-27.83203125,-48.33984375,-27.34375,-37.109375,1.0,-1.0,1.0,1.0,7.m4v,3.0
2024-02-27 11:46:27.806910,1709030787.8069105,-40.52734375,-52.734375,-31.25,-43.9453125,1.0,-1.0,1.0,1.0,7.m4v,3.0
2024-02-27 11:46:27.810816,1709030787.8108156,-38.57421875,-41.50390625,-37.59765625,-32.71484375,1.0,-1.0,1.0,1.0,7.m4v,3.0
2024-02-27 11:46:27.814721,1709030787.8147209,-28.3203125,-41.9921875,-36.62109375,-25.87890625,1.0,-1.0,1.0,1.0,7.m4v,3.0
2024-02-27 11:46:27.818626,1709030787.8186264,-33.69140625,-39.0625,-36.1328125,-33.69140625,1.0,-1.0,1.0,1.0,7.m4v,3.0
2024-02-27 11:46:27.822532,1709030787.8225317,-27.83203125,-25.87890625,-36.1328125,-33.69140625,1.0,-1.0,1.0,1.0,7.m4v,3.0
2024-02-27 11:46:27.826437,1709030787.826437,-26.3671875,-39.55078125,-31.73828125,-37.59765625,1.0,-1.0,1.0,1.0,7.m4v,3.0
2024-02-27 11:46:27.830343,1709030787.8303423,-34.1796875,-52.734375,-35.64453125,-41.9921875,1.0,-1.0,1.0,1.0,7.m4v,3.0
2024-02-27 11:46:27.834248,1709030787.8342478,-34.66796875,-54.6875,-41.9921875,-33.69140625,1.0,-1.0,1.0,1.0,7.m4v,3.0
2024-02-27 11:46:27.838153,1709030787.8381531,-28.80859375,-44.921875,-40.0390625,-41.9921875,1.0,-1.0,1.0,1.0,7.m4v,3.0
2024-02-27 11:46:27.842059,1709030787.842059,-26.85546875,-39.0625,-32.71484375,-48.828125,1.0,-1.0,1.0,1.0,7.m4v,3.0
2024-02-27 11:46:27.845974,1709030787.8459742,-31.25,-43.45703125,-27.83203125,-43.9453125,1.0,-1.0,1.0,1.0,7.m4v,3.0
2024-02-27 11:46:27.849880,1709030787.8498795,-31.73828125,-46.38671875,-26.3671875,-43.45703125,1.0,-1.0,1.0,1.0,7.m4v,3.0
2024-02-27 11:46:27.853785,1709030787.853785,-23.92578125,-48.828125,-27.83203125,-26.85546875,1.0,-1.0,1.0,1.0,7.m4v,3.0
2024-02-27 11:46:27.857690,1709030787.8576903,-19.53125,-45.41015625,-33.69140625,-20.5078125,1.0,-1.0,1.0,1.0,7.m4v,3.0
2024-02-27 11:46:27.861596,1709030787.8615956,-29.296875,-45.41015625,-31.73828125,-25.390625,1.0,-1.0,1.0,1.0,7.m4v,3.0
2024-02-27 11:46:27.865501,1709030787.8655012,-23.92578125,-33.69140625,-24.4140625,-15.13671875,1.0,-1.0,1.0,1.0,7.m4v,3.0
2024-02-27 11:46:27.869406,1709030787.8694065,-24.90234375,-44.43359375,-22.94921875,-15.13671875,1.0,-1.0,1.0,1.0,7.m4v,3.0
2024-02-27 11:46:27.873312,1709030787.8733118,-29.296875,-57.6171875,-27.83203125,-16.11328125,1.0,-1.0,1.0,1.0,7.m4v,3.0
2024-02-27 11:46:27.877217,1709030787.8772173,-30.76171875,-39.0625,-36.62109375,-22.94921875,1.0,-1.0,1.0,1.0,7.m4v,3.0
2024-02-27 11:46:27.881123,1709030787.8811226,-34.66796875,-47.36328125,-41.015625,-42.48046875,1.0,-1.0,1.0,1.0,7.m4v,3.0
2024-02-27 11:46:27.885028,1709030787.885028,-29.78515625,-52.734375,-40.0390625,-48.33984375,1.0,-1.0,1.0,1.0,7.m4v,3.0
2024-02-27 11:46:27.888933,1709030787.8889334,-27.34375,-40.0390625,-35.15625,-39.0625,1.0,-1.0,1.0,1.0,7.m4v,3.0
2024-02-27 11:46:27.892849,1709030787.8928487,-28.80859375,-36.62109375,-40.0390625,-25.87890625,1.0,-1.0,1.0,1.0,7.m4v,3.0
2024-02-27 11:46:27.896754,1709030787.896754,-20.5078125,-31.73828125,-40.52734375,-19.04296875,1.0,-1.0,1.0,1.0,7.m4v,3.0
2024-02-27 11:46:27.900659,1709030787.900659,-15.625,-19.04296875,-32.71484375,-24.90234375,1.0,-1.0,1.0,1.0,7.m4v,3.0
2024-02-27 11:46:27.904565,1709030787.9045649,-33.69140625,-22.94921875,-24.90234375,-38.0859375,1.0,-1.0,1.0,1.0,7.m4v,3.0
2024-02-27 11:46:27.908470,1709030787.9084702,-46.875,-48.828125,-21.484375,-41.015625,1.0,-1.0,1.0,1.0,7.m4v,3.0
2024-02-27 11:46:27.912375,1709030787.9123757,-46.38671875,-37.59765625,-28.3203125,-35.15625,1.0,-1.0,1.0,1.0,7.m4v,3.0
2024-02-27 11:46:27.916281,1709030787.916281,-40.52734375,-23.92578125,-28.80859375,-23.92578125,1.0,-1.0,1.0,1.0,7.m4v,3.0
2024-02-27 11:46:27.920186,1709030787.9201863,-39.55078125,-32.2265625,-33.69140625,-32.2265625,1.0,-1.0,1.0,1.0,7.m4v,3.0
2024-02-27 11:46:27.924092,1709030787.9240916,-42.48046875,-42.48046875,-45.8984375,-49.8046875,1.0,-1.0,1.0,1.0,7.m4v,3.0
2024-02-27 11:46:27.927997,1709030787.927997,-36.1328125,-46.38671875,-41.015625,-36.1328125,1.0,-1.0,1.0,1.0,7.m4v,3.0
2024-02-27 11:46:27.931902,1709030787.9319024,-37.59765625,-30.76171875,-31.73828125,-24.90234375,1.0,-1.0,1.0,1.0,7.m4v,3.0
2024-02-27 11:46:27.935808,1709030787.9358077,-23.92578125,-16.11328125,-28.80859375,-25.87890625,1.0,-1.0,1.0,1.0,7.m4v,3.0
2024-02-27 11:46:27.939723,1709030787.939723,-20.5078125,-9.27734375,-27.34375,-35.64453125,1.0,-1.0,1.0,1.0,7.m4v,3.0
2024-02-27 11:46:27.943629,1709030787.9436283,-36.62109375,-27.34375,-40.52734375,-54.6875,1.0,-1.0,1.0,1.0,7.m4v,3.0
2024-02-27 11:46:27.947534,1709030787.9475338,-45.41015625,-46.875,-46.875,-60.546875,1.0,-1.0,1.0,1.0,7.m4v,3.0
2024-02-27 11:46:27.951439,1709030787.9514391,-50.78125,-45.8984375,-42.96875,-49.31640625,1.0,-1.0,1.0,1.0,7.m4v,3.0
2024-02-27 11:46:27.955345,1709030787.955345,-38.57421875,-34.66796875,-46.38671875,-35.64453125,1.0,-1.0,1.0,1.0,7.m4v,3.0
2024-02-27 11:46:27.959250,1709030787.95925,-20.01953125,-15.625,-44.43359375,-32.2265625,1.0,-1.0,1.0,1.0,7.m4v,3.0
2024-02-27 11:46:27.963155,1709030787.9631553,-24.4140625,-17.578125,-36.1328125,-44.921875,1.0,-1.0,1.0,1.0,7.m4v,3.0
2024-02-27 11:46:27.967061,1709030787.9670608,-34.66796875,-41.9921875,-31.25,-49.31640625,1.0,-1.0,1.0,1.0,7.m4v,3.0
2024-02-27 11:46:27.970966,1709030787.970966,-36.62109375,-43.9453125,-36.1328125,-38.0859375,1.0,-1.0,1.0,1.0,7.m4v,3.0
2024-02-27 11:46:27.974871,1709030787.9748714,-32.71484375,-34.66796875,-31.25,-26.3671875,1.0,-1.0,1.0,1.0,7.m4v,3.0
2024-02-27 11:46:27.978777,1709030787.978777,-30.76171875,-30.76171875,-26.85546875,-29.78515625,1.0,-1.0,1.0,1.0,7.m4v,3.0
2024-02-27 11:46:27.982682,1709030787.9826822,-39.0625,-41.9921875,-42.96875,-44.921875,1.0,-1.0,1.0,1.0,7.m4v,3.0
2024-02-27 11:46:27.986597,1709030787.986597,-42.48046875,-43.9453125,-43.45703125,-43.45703125,1.0,-1.0,1.0,1.0,7.m4v,3.0
2024-02-27 11:46:27.990502,1709030787.9905024,-44.43359375,-34.1796875,-32.2265625,-33.69140625,1.0,-1.0,1.0,1.0,7.m4v,3.0
2024-02-27 11:46:27.994408,1709030787.9944077,-43.45703125,-32.2265625,-30.76171875,-26.85546875,1.0,-1.0,1.0,1.0,7.m4v,3.0
2024-02-27 11:46:27.998313,1709030787.9983132,-33.203125,-17.578125,-38.57421875,-23.4375,1.0,-1.0,1.0,1.0,7.m4v,3.0
2024-02-27 11:46:28.002218,1709030788.0022185,-29.296875,-25.87890625,-45.41015625,-29.296875,1.0,-1.0,1.0,1.0,7.m4v,3.0
2024-02-27 11:46:28.006124,1709030788.0061238,-36.62109375,-36.1328125,-42.48046875,-34.66796875,1.0,-1.0,1.0,1.0,7.m4v,3.0
2024-02-27 11:46:28.010029,1709030788.0100293,-46.38671875,-34.66796875,-48.33984375,-37.109375,1.0,-1.0,1.0,1.0,7.m4v,3.0
2024-02-27 11:46:28.013935,1709030788.0139346,-44.43359375,-57.12890625,-42.48046875,-30.76171875,1.0,-1.0,1.0,1.0,7.m4v,3.0
2024-02-27 11:46:28.017840,1709030788.01784,-38.0859375,-54.19921875,-33.69140625,-31.25,1.0,-1.0,1.0,1.0,7.m4v,3.0
2024-02-27 11:46:28.021745,1709030788.0217454,-40.0390625,-38.57421875,-37.59765625,-38.57421875,1.0,-1.0,1.0,1.0,7.m4v,3.0
2024-02-27 11:46:28.025651,1709030788.0256507,-31.73828125,-33.203125,-34.66796875,-40.0390625,1.0,-1.0,1.0,1.0,7.m4v,3.0
2024-02-27 11:46:28.029556,1709030788.0295565,-30.76171875,-28.3203125,-30.76171875,-37.59765625,1.0,-1.0,1.0,1.0,7.m4v,3.0
2024-02-27 11:46:28.033471,1709030788.0334706,-30.76171875,-24.4140625,-31.73828125,-30.76171875,1.0,-1.0,1.0,1.0,7.m4v,3.0
2024-02-27 11:46:28.037376,1709030788.0373762,-28.3203125,-24.4140625,-23.92578125,-28.3203125,1.0,-1.0,1.0,1.0,7.m4v,3.0
2024-02-27 11:46:28.041281,1709030788.0412817,-29.296875,-23.92578125,-18.5546875,-28.3203125,1.0,-1.0,1.0,1.0,7.m4v,3.0
2024-02-27 11:46:28.045187,1709030788.0451868,-29.296875,-27.83203125,-26.85546875,-31.73828125,1.0,-1.0,1.0,1.0,7.m4v,3.0
2024-02-27 11:46:28.049092,1709030788.0490923,-35.15625,-33.69140625,-36.62109375,-34.1796875,1.0,-1.0,1.0,1.0,7.m4v,3.0
2024-02-27 11:46:28.052998,1709030788.0529976,-41.015625,-19.53125,-31.73828125,-30.76171875,1.0,-1.0,1.0,1.0,7.m4v,3.0
2024-02-27 11:46:28.056903,1709030788.056903,-36.62109375,-6.34765625,-37.59765625,-26.3671875,1.0,-1.0,1.0,1.0,7.m4v,3.0
2024-02-27 11:46:28.060808,1709030788.0608084,-30.2734375,-18.5546875,-48.828125,-33.69140625,1.0,-1.0,1.0,1.0,7.m4v,3.0
2024-02-27 11:46:28.064714,1709030788.0647137,-32.2265625,-36.1328125,-40.52734375,-46.38671875,1.0,-1.0,1.0,1.0,7.m4v,3.0
2024-02-27 11:46:28.068619,1709030788.068619,-39.55078125,-43.9453125,-36.1328125,-46.875,1.0,-1.0,1.0,1.0,7.m4v,3.0
2024-02-27 11:46:28.072525,1709030788.0725243,-40.0390625,-41.9921875,-31.73828125,-34.1796875,1.0,-1.0,1.0,1.0,7.m4v,3.0
2024-02-27 11:46:28.076430,1709030788.0764298,-32.71484375,-25.87890625,-28.80859375,-31.25,1.0,-1.0,1.0,1.0,7.m4v,3.0
2024-02-27 11:46:28.080346,1709030788.0803463,-32.2265625,-17.578125,-41.9921875,-36.62109375,1.0,-1.0,1.0,1.0,7.m4v,3.0
2024-02-27 11:46:28.084252,1709030788.0842516,-37.59765625,-27.83203125,-45.41015625,-41.50390625,1.0,-1.0,1.0,1.0,7.m4v,3.0
2024-02-27 11:46:28.181908,1709030788.1819077,-30.76171875,-27.83203125,-38.0859375,-36.62109375,1.0,-1.0,1.0,1.0,7.m4v,3.0
2024-02-27 11:46:28.185813,1709030788.185813,-41.015625,-31.25,-40.0390625,-47.36328125,1.0,-1.0,1.0,1.0,7.m4v,3.0
2024-02-27 11:46:28.189718,1709030788.1897185,-43.45703125,-18.5546875,-32.2265625,-38.57421875,1.0,-1.0,1.0,1.0,7.m4v,3.0
2024-02-27 11:46:28.193624,1709030788.1936238,-42.48046875,-17.08984375,-30.76171875,-18.06640625,1.0,-1.0,1.0,1.0,7.m4v,3.0
2024-02-27 11:46:28.197529,1709030788.197529,-41.50390625,-26.3671875,-31.25,-17.578125,1.0,-1.0,1.0,1.0,7.m4v,3.0
2024-02-27 11:46:28.201435,1709030788.2014346,-35.15625,-40.0390625,-31.73828125,-37.59765625,1.0,-1.0,1.0,1.0,7.m4v,3.0
2024-02-27 11:46:28.205340,1709030788.20534,-37.109375,-45.8984375,-37.59765625,-38.57421875,1.0,-1.0,1.0,1.0,7.m4v,3.0
2024-02-27 11:46:28.209245,1709030788.2092452,-46.38671875,-40.0390625,-36.1328125,-32.71484375,1.0,-1.0,1.0,1.0,7.m4v,3.0
2024-02-27 11:46:28.213151,1709030788.2131507,-43.9453125,-26.85546875,-27.83203125,-25.390625,1.0,-1.0,1.0,1.0,7.m4v,3.0
2024-02-27 11:46:28.217056,1709030788.217056,-31.73828125,-20.01953125,-31.25,-16.6015625,1.0,-1.0,1.0,1.0,7.m4v,3.0
2024-02-27 11:46:28.220972,1709030788.2209716,-24.90234375,-17.08984375,-38.0859375,-30.2734375,1.0,-1.0,1.0,1.0,7.m4v,3.0
2024-02-27 11:46:28.646749,1709030788.646749,-93.75,-40.52734375,-28.80859375,-89.84375,1.0,-1.0,1.0,1.0,7.m4v,3.0
2024-02-27 11:46:28.654560,1709030788.65456,-91.796875,-36.62109375,-32.2265625,-72.265625,1.0,-1.0,1.0,1.0,7.m4v,3.0
2024-02-27 11:46:28.662371,1709030788.6623707,-71.77734375,-11.71875,-23.92578125,-71.2890625,1.0,-1.0,1.0,1.0,7.m4v,3.0
2024-02-27 11:46:28.670181,1709030788.6701813,-71.2890625,-35.64453125,-30.76171875,-76.171875,1.0,-1.0,1.0,1.0,7.m4v,3.0
2024-02-27 11:46:28.677992,1709030788.677992,-56.15234375,-39.55078125,-40.0390625,-36.1328125,1.0,-1.0,1.0,1.0,7.m4v,3.0
2024-02-27 11:46:28.685803,1709030788.685803,-36.62109375,-38.0859375,-37.59765625,-47.36328125,1.0,-1.0,1.0,1.0,7.m4v,3.0
2024-02-27 11:46:28.693623,1709030788.6936233,-37.109375,-44.921875,-29.296875,-13.671875,1.0,-1.0,1.0,1.0,7.m4v,3.0
2024-02-27 11:46:28.885025,1709030788.885025,-30.2734375,-51.7578125,-28.3203125,-48.828125,1.0,-1.0,1.0,1.0,7.m4v,3.0
2024-02-27 11:46:28.892836,1709030788.892836,-25.390625,-34.1796875,-31.25,-30.76171875,1.0,-1.0,1.0,1.0,7.m4v,3.0
2024-02-27 11:46:28.900646,1709030788.9006464,-18.5546875,-6.8359375,-31.73828125,-27.34375,1.0,-1.0,1.0,1.0,7.m4v,3.0
2024-02-27 11:46:28.908457,1709030788.9084573,-31.73828125,-40.52734375,-34.1796875,-31.73828125,1.0,-1.0,1.0,1.0,7.m4v,3.0
2024-02-27 11:46:28.916268,1709030788.916268,-31.25,-40.0390625,-37.59765625,-28.80859375,1.0,-1.0,1.0,1.0,7.m4v,3.0
2024-02-27 11:46:28.924089,1709030788.9240892,-20.5078125,-36.1328125,-29.296875,-33.69140625,1.0,-1.0,1.0,1.0,7.m4v,3.0
2024-02-27 11:46:28.931900,1709030788.9319,-25.87890625,-29.78515625,-38.0859375,-34.66796875,1.0,-1.0,1.0,1.0,7.m4v,3.0
2024-02-27 11:46:28.939711,1709030788.9397109,-25.390625,-11.71875,-33.203125,-17.578125,1.0,-1.0,1.0,1.0,7.m4v,3.0
2024-02-27 11:46:28.947521,1709030788.9475214,-32.2265625,-8.30078125,-34.1796875,-27.83203125,1.0,-1.0,1.0,1.0,7.m4v,3.0
2024-02-27 11:46:28.955332,1709030788.9553325,-32.71484375,-33.69140625,-29.78515625,-22.4609375,1.0,-1.0,1.0,1.0,7.m4v,3.0
2024-02-27 11:46:28.963143,1709030788.963143,-18.06640625,-30.2734375,-30.76171875,-28.80859375,1.0,-1.0,1.0,1.0,7.m4v,3.0
2024-02-27 11:46:28.970964,1709030788.970964,-25.390625,-16.6015625,-26.3671875,-27.34375,1.0,-1.0,1.0,1.0,7.m4v,3.0
2024-02-27 11:46:28.978775,1709030788.9787748,-24.90234375,-19.04296875,-23.4375,-25.87890625,1.0,-1.0,1.0,1.0,7.m4v,3.0
2024-02-27 11:46:28.986586,1709030788.9865856,-35.15625,-27.83203125,-45.8984375,-57.6171875,1.0,-1.0,1.0,1.0,7.m4v,3.0
2024-02-27 11:46:28.994396,1709030788.9943962,-27.34375,-3.90625,-28.80859375,-20.99609375,1.0,-1.0,1.0,1.0,7.m4v,3.0
2024-02-27 11:46:29.002207,1709030789.002207,-25.87890625,-27.83203125,-29.296875,-28.3203125,1.0,-1.0,1.0,1.0,7.m4v,3.0
2024-02-27 11:46:29.010018,1709030789.010018,-37.59765625,-33.203125,-25.390625,-32.2265625,1.0,-1.0,1.0,1.0,7.m4v,3.0
2024-02-27 11:46:29.017839,1709030789.0178387,-35.15625,-11.71875,-36.62109375,-25.87890625,1.0,-1.0,1.0,1.0,7.m4v,3.0
2024-02-27 11:46:29.025650,1709030789.0256495,-33.69140625,-16.6015625,-32.2265625,-39.55078125,1.0,-1.0,1.0,1.0,7.m4v,3.0
2024-02-27 11:46:29.033460,1709030789.0334604,-34.66796875,-18.5546875,-32.2265625,-31.73828125,1.0,-1.0,1.0,1.0,7.m4v,3.0
2024-02-27 11:46:29.041271,1709030789.0412712,-26.3671875,-18.5546875,-28.3203125,-17.578125,1.0,-1.0,1.0,1.0,7.m4v,3.0
2024-02-27 11:46:29.049082,1709030789.0490818,-47.36328125,-43.9453125,-37.59765625,-41.9921875,1.0,-1.0,1.0,1.0,7.m4v,3.0
2024-02-27 11:46:29.056893,1709030789.0568926,-23.92578125,-20.99609375,-29.296875,-11.23046875,1.0,-1.0,1.0,1.0,7.m4v,3.0
2024-02-27 11:46:29.064713,1709030789.064713,-28.80859375,-32.2265625,-38.57421875,-30.76171875,1.0,-1.0,1.0,1.0,7.m4v,3.0
2024-02-27 11:46:29.068618,1709030789.0686183,-25.390625,-30.76171875,-28.3203125,-31.25,1.0,-1.0,1.0,1.0,7.m4v,3.0
2024-02-27 11:46:29.072524,1709030789.0725238,-20.01953125,-35.15625,-29.78515625,-29.296875,1.0,-1.0,1.0,1.0,7.m4v,3.0
2024-02-27 11:46:29.076429,1709030789.0764291,-22.4609375,-23.92578125,-37.59765625,-27.83203125,1.0,-1.0,1.0,1.0,7.m4v,3.0
2024-02-27 11:46:29.080334,1709030789.0803344,-22.4609375,-9.765625,-29.296875,-28.3203125,1.0,-1.0,1.0,1.0,7.m4v,3.0
2024-02-27 11:46:29.084240,1709030789.08424,-19.04296875,-1.46484375,-22.4609375,-29.78515625,1.0,-1.0,1.0,1.0,7.m4v,3.0
2024-02-27 11:46:29.088145,1709030789.0881453,-30.2734375,-15.13671875,-25.390625,-41.9921875,1.0,-1.0,1.0,1.0,7.m4v,3.0
2024-02-27 11:46:29.092051,1709030789.0920506,-35.64453125,-47.36328125,-37.109375,-53.7109375,1.0,-1.0,1.0,1.0,7.m4v,3.0
2024-02-27 11:46:29.095956,1709030789.095956,-32.71484375,-43.45703125,-47.8515625,-43.45703125,1.0,-1.0,1.0,1.0,7.m4v,3.0
2024-02-27 11:46:29.099861,1709030789.0998614,-28.3203125,-30.76171875,-43.45703125,-38.0859375,1.0,-1.0,1.0,1.0,7.m4v,3.0
2024-02-27 11:46:29.103767,1709030789.103767,-26.3671875,-30.2734375,-41.9921875,-43.45703125,1.0,-1.0,1.0,1.0,7.m4v,3.0
2024-02-27 11:46:29.107672,1709030789.1076722,-32.2265625,-32.71484375,-40.0390625,-44.921875,1.0,-1.0,1.0,1.0,7.m4v,3.0
2024-02-27 11:46:29.111587,1709030789.111587,-42.96875,-35.64453125,-44.43359375,-37.109375,1.0,-1.0,1.0,1.0,7.m4v,3.0
2024-02-27 11:46:29.115492,1709030789.1154923,-35.15625,-25.390625,-43.9453125,-24.4140625,1.0,-1.0,1.0,1.0,7.m4v,3.0
2024-02-27 11:46:29.119398,1709030789.1193976,-26.85546875,-11.71875,-33.69140625,-24.4140625,1.0,-1.0,1.0,1.0,7.m4v,3.0
2024-02-27 11:46:29.123303,1709030789.1233032,-31.25,-23.92578125,-36.1328125,-38.57421875,1.0,-1.0,1.0,1.0,7.m4v,3.0
2024-02-27 11:46:29.127208,1709030789.1272085,-27.34375,-28.3203125,-38.57421875,-42.48046875,1.0,-1.0,1.0,1.0,7.m4v,3.0
2024-02-27 11:46:29.131114,1709030789.1311138,-23.92578125,-8.30078125,-33.69140625,-31.25,1.0,-1.0,1.0,1.0,7.m4v,3.0
2024-02-27 11:46:29.135019,1709030789.1350193,-29.296875,-16.6015625,-36.1328125,-23.92578125,1.0,-1.0,1.0,1.0,7.m4v,3.0
2024-02-27 11:46:29.138925,1709030789.1389246,-37.59765625,-45.8984375,-42.96875,-39.55078125,1.0,-1.0,1.0,1.0,7.m4v,3.0
2024-02-27 11:46:29.142830,1709030789.14283,-31.73828125,-48.33984375,-39.55078125,-48.33984375,1.0,-1.0,1.0,1.0,7.m4v,3.0
2024-02-27 11:46:29.146735,1709030789.1467354,-32.2265625,-44.921875,-29.296875,-49.8046875,1.0,-1.0,1.0,1.0,7.m4v,3.0
2024-02-27 11:46:29.150641,1709030789.1506407,-38.57421875,-43.45703125,-29.296875,-41.9921875,1.0,-1.0,1.0,1.0,7.m4v,3.0
2024-02-27 11:46:29.154546,1709030789.154546,-35.15625,-42.96875,-31.25,-29.78515625,1.0,-1.0,1.0,1.0,7.m4v,3.0
2024-02-27 11:46:29.158463,1709030789.1584628,-29.296875,-34.66796875,-24.90234375,-39.0625,1.0,-1.0,1.0,1.0,7.m4v,3.0
2024-02-27 11:46:29.162368,1709030789.162368,-29.296875,-28.80859375,-35.64453125,-50.78125,1.0,-1.0,1.0,1.0,7.m4v,3.0
2024-02-27 11:46:29.166274,1709030789.1662736,-26.85546875,-41.50390625,-52.734375,-54.6875,1.0,-1.0,1.0,1.0,7.m4v,3.0
2024-02-27 11:46:29.170179,1709030789.170179,-31.25,-34.1796875,-42.96875,-44.921875,1.0,-1.0,1.0,1.0,7.m4v,3.0
2024-02-27 11:46:29.174084,1709030789.1740842,-43.45703125,-33.69140625,-29.78515625,-30.76171875,1.0,-1.0,1.0,1.0,7.m4v,3.0
2024-02-27 11:46:29.177990,1709030789.1779895,-38.57421875,-27.83203125,-27.34375,-34.66796875,1.0,-1.0,1.0,1.0,7.m4v,3.0
2024-02-27 11:46:29.181895,1709030789.181895,-36.1328125,-26.3671875,-33.203125,-49.8046875,1.0,-1.0,1.0,1.0,7.m4v,3.0
2024-02-27 11:46:29.185800,1709030789.1858003,-41.9921875,-49.8046875,-33.203125,-57.6171875,1.0,-1.0,1.0,1.0,7.m4v,3.0
2024-02-27 11:46:29.189706,1709030789.1897058,-40.0390625,-49.31640625,-20.5078125,-44.43359375,1.0,-1.0,1.0,1.0,7.m4v,3.0
2024-02-27 11:46:29.193611,1709030789.1936111,-41.015625,-34.66796875,-10.25390625,-47.36328125,1.0,-1.0,1.0,1.0,7.m4v,3.0
2024-02-27 11:46:29.197517,1709030789.197517,-42.48046875,-20.99609375,-23.4375,-34.1796875,1.0,-1.0,1.0,1.0,7.m4v,3.0
2024-02-27 11:46:29.201422,1709030789.201422,-45.41015625,-18.06640625,-30.76171875,-30.2734375,1.0,-1.0,1.0,1.0,7.m4v,3.0
2024-02-27 11:46:29.205336,1709030789.2053363,-47.36328125,-42.48046875,-37.59765625,-53.7109375,1.0,-1.0,1.0,1.0,7.m4v,3.0
2024-02-27 11:46:29.209242,1709030789.2092416,-46.875,-47.8515625,-40.52734375,-60.546875,1.0,-1.0,1.0,1.0,7.m4v,3.0
2024-02-27 11:46:29.213147,1709030789.2131472,-40.52734375,-38.0859375,-32.2265625,-47.36328125,1.0,-1.0,1.0,1.0,7.m4v,3.0
2024-02-27 11:46:29.217052,1709030789.2170525,-30.76171875,-38.0859375,-35.64453125,-43.45703125,1.0,-1.0,1.0,1.0,7.m4v,3.0
2024-02-27 11:46:29.220958,1709030789.2209578,-32.71484375,-35.64453125,-36.62109375,-46.38671875,1.0,-1.0,1.0,1.0,7.m4v,3.0
2024-02-27 11:46:29.224863,1709030789.2248633,-41.50390625,-21.484375,-37.109375,-52.24609375,1.0,-1.0,1.0,1.0,7.m4v,3.0
2024-02-27 11:46:29.447521,1709030789.447521,-52.734375,-43.9453125,-50.29296875,-62.01171875,1.0,-1.0,1.0,1.0,7.m4v,3.0
2024-02-27 11:46:29.451426,1709030789.4514265,-42.96875,-38.57421875,-36.62109375,-47.8515625,1.0,-1.0,1.0,1.0,7.m4v,3.0
2024-02-27 11:46:29.455332,1709030789.4553318,-39.55078125,-32.2265625,-45.41015625,-37.59765625,1.0,-1.0,1.0,1.0,7.m4v,3.0
2024-02-27 11:46:29.459237,1709030789.459237,-34.1796875,-15.625,-48.33984375,-32.71484375,1.0,-1.0,1.0,1.0,7.m4v,3.0
2024-02-27 11:46:29.463142,1709030789.4631424,-36.1328125,-20.99609375,-39.55078125,-35.15625,1.0,-1.0,1.0,1.0,7.m4v,3.0
2024-02-27 11:46:29.467048,1709030789.467048,-39.0625,-50.78125,-41.50390625,-41.50390625,1.0,-1.0,1.0,1.0,7.m4v,3.0
2024-02-27 11:46:29.470953,1709030789.4709532,-44.921875,-48.33984375,-36.62109375,-31.25,1.0,-1.0,1.0,1.0,7.m4v,3.0
2024-02-27 11:46:29.474859,1709030789.4748583,-47.36328125,-39.0625,-32.2265625,-17.578125,1.0,-1.0,1.0,1.0,7.m4v,3.0
2024-02-27 11:46:29.478764,1709030789.478764,-34.66796875,-37.109375,-37.109375,-20.99609375,1.0,-1.0,1.0,1.0,7.m4v,3.0
2024-02-27 11:46:29.482669,1709030789.4826694,-20.5078125,-36.1328125,-46.875,-36.1328125,1.0,-1.0,1.0,1.0,7.m4v,3.0
2024-02-27 11:46:29.486584,1709030789.4865842,-34.66796875,-41.50390625,-47.8515625,-44.43359375,1.0,-1.0,1.0,1.0,7.m4v,3.0
2024-02-27 11:46:29.490489,1709030789.4904895,-40.0390625,-39.0625,-40.0390625,-33.203125,1.0,-1.0,1.0,1.0,7.m4v,3.0
2024-02-27 11:46:29.494395,1709030789.4943948,-30.76171875,-45.8984375,-33.203125,-19.53125,1.0,-1.0,1.0,1.0,7.m4v,3.0
2024-02-27 11:46:29.498300,1709030789.4983003,-31.25,-47.8515625,-40.0390625,-24.4140625,1.0,-1.0,1.0,1.0,7.m4v,3.0
2024-02-27 11:46:29.502206,1709030789.5022056,-34.1796875,-40.0390625,-41.9921875,-29.296875,1.0,-1.0,1.0,1.0,7.m4v,3.0
2024-02-27 11:46:29.506111,1709030789.506111,-34.66796875,-30.76171875,-32.71484375,-26.3671875,1.0,-1.0,1.0,1.0,7.m4v,3.0
2024-02-27 11:46:29.510016,1709030789.5100164,-32.2265625,-26.85546875,-38.0859375,-29.296875,1.0,-1.0,1.0,1.0,7.m4v,3.0
2024-02-27 11:46:29.513922,1709030789.5139215,-38.57421875,-38.57421875,-44.921875,-20.99609375,1.0,-1.0,1.0,1.0,7.m4v,3.0
2024-02-27 11:46:29.517827,1709030789.517827,-38.57421875,-34.1796875,-36.62109375,-10.25390625,1.0,-1.0,1.0,1.0,7.m4v,3.0
2024-02-27 11:46:29.521733,1709030789.5217326,-35.64453125,-36.1328125,-23.92578125,-30.76171875,1.0,-1.0,1.0,1.0,7.m4v,3.0
2024-02-27 11:46:29.525638,1709030789.525638,-39.0625,-41.015625,-23.4375,-49.31640625,1.0,-1.0,1.0,1.0,7.m4v,3.0
2024-02-27 11:46:29.529543,1709030789.5295432,-43.45703125,-46.875,-31.25,-46.875,1.0,-1.0,1.0,1.0,7.m4v,3.0
2024-02-27 11:46:29.533458,1709030789.5334578,-39.55078125,-47.8515625,-34.66796875,-30.2734375,1.0,-1.0,1.0,1.0,7.m4v,3.0
2024-02-27 11:46:29.537363,1709030789.537363,-33.203125,-40.0390625,-30.2734375,-10.7421875,1.0,-1.0,1.0,1.0,7.m4v,3.0
2024-02-27 11:46:29.541269,1709030789.5412686,-27.34375,-37.59765625,-29.296875,-17.08984375,1.0,-1.0,1.0,1.0,7.m4v,3.0
2024-02-27 11:46:29.545174,1709030789.545174,-15.625,-28.3203125,-29.296875,-25.87890625,1.0,-1.0,1.0,1.0,7.m4v,3.0
2024-02-27 11:46:29.549079,1709030789.5490792,-13.18359375,-24.4140625,-31.25,-19.53125,1.0,-1.0,1.0,1.0,7.m4v,3.0
2024-02-27 11:46:29.552985,1709030789.5529847,-20.01953125,-19.04296875,-35.15625,-5.859375,1.0,-1.0,1.0,1.0,7.m4v,3.0
2024-02-27 11:46:29.556890,1709030789.55689,-23.4375,-13.671875,-35.64453125,8.30078125,1.0,-1.0,1.0,1.0,7.m4v,3.0
2024-02-27 11:46:29.560795,1709030789.5607953,-20.01953125,-20.99609375,-39.55078125,-1.953125,1.0,-1.0,1.0,1.0,7.m4v,3.0
2024-02-27 11:46:29.564701,1709030789.5647008,-17.578125,-38.57421875,-49.31640625,-24.90234375,1.0,-1.0,1.0,1.0,7.m4v,3.0
2024-02-27 11:46:29.568606,1709030789.568606,-26.3671875,-40.0390625,-42.96875,-19.53125,1.0,-1.0,1.0,1.0,7.m4v,3.0
2024-02-27 11:46:29.572511,1709030789.5725114,-28.3203125,-29.78515625,-28.80859375,-5.859375,1.0,-1.0,1.0,1.0,7.m4v,3.0
2024-02-27 11:46:29.576417,1709030789.576417,-19.53125,-39.55078125,-27.83203125,-7.8125,1.0,-1.0,1.0,1.0,7.m4v,3.0
2024-02-27 11:46:29.580331,1709030789.580331,-18.5546875,-36.1328125,-24.4140625,-11.23046875,1.0,-1.0,1.0,1.0,7.m4v,3.0
2024-02-27 11:46:29.584236,1709030789.5842364,-17.578125,-20.99609375,-23.92578125,-11.23046875,1.0,-1.0,1.0,1.0,7.m4v,3.0
2024-02-27 11:46:29.588142,1709030789.5881417,-21.97265625,-28.3203125,-33.203125,-20.01953125,1.0,-1.0,1.0,1.0,7.m4v,3.0
2024-02-27 11:46:29.592047,1709030789.5920472,-24.4140625,-40.0390625,-36.1328125,-15.625,1.0,-1.0,1.0,1.0,7.m4v,3.0
2024-02-27 11:46:29.595953,1709030789.5959525,-12.6953125,-40.52734375,-35.15625,-6.8359375,1.0,-1.0,1.0,1.0,7.m4v,3.0
2024-02-27 11:46:29.599858,1709030789.5998578,-20.5078125,-14.16015625,-34.66796875,-8.7890625,1.0,-1.0,1.0,1.0,7.m4v,3.0
