Timestamp,Timestamp_UNIX,TP9,AF7,AF8,TP10,Valence,Arousal,Dominace,Viewed,Video,Participant
2024-02-28 11:28:23.295508,1709116103.2955077,-43.9453125,-35.64453125,-46.38671875,-29.78515625,1.0,1.0,1.0,1.0,3.m4v,9.0
2024-02-28 11:28:23.299414,1709116103.2994137,-11.71875,-33.69140625,-49.31640625,-32.71484375,1.0,1.0,1.0,1.0,3.m4v,9.0
2024-02-28 11:28:23.303320,1709116103.30332,-35.64453125,-37.59765625,-37.109375,-48.33984375,1.0,1.0,1.0,1.0,3.m4v,9.0
2024-02-28 11:28:23.307226,1709116103.3072257,-49.8046875,-41.015625,-28.80859375,-48.828125,1.0,1.0,1.0,1.0,3.m4v,9.0
2024-02-28 11:28:23.311132,1709116103.3111317,-34.1796875,-41.50390625,-24.4140625,-35.15625,1.0,1.0,1.0,1.0,3.m4v,9.0
2024-02-28 11:28:23.315038,1709116103.3150375,-28.3203125,-46.38671875,-30.76171875,-30.2734375,1.0,1.0,1.0,1.0,3.m4v,9.0
2024-02-28 11:28:23.318944,1709116103.3189435,-7.32421875,-47.8515625,-41.50390625,-34.66796875,1.0,1.0,1.0,1.0,3.m4v,9.0
2024-02-28 11:28:23.322850,1709116103.3228495,-21.484375,-37.59765625,-37.109375,-32.71484375,1.0,1.0,1.0,1.0,3.m4v,9.0
2024-02-28 11:28:23.326756,1709116103.3267555,-64.453125,-37.109375,-29.296875,-29.78515625,1.0,1.0,1.0,1.0,3.m4v,9.0
2024-02-28 11:28:23.330661,1709116103.3306613,-44.43359375,-40.0390625,-27.83203125,-23.92578125,1.0,1.0,1.0,1.0,3.m4v,9.0
2024-02-28 11:28:23.334567,1709116103.3345673,-42.48046875,-42.96875,-32.2265625,-28.80859375,1.0,1.0,1.0,1.0,3.m4v,9.0
2024-02-28 11:28:23.338473,1709116103.338473,-49.31640625,-41.9921875,-30.76171875,-34.1796875,1.0,1.0,1.0,1.0,3.m4v,9.0
2024-02-28 11:28:23.342379,1709116103.342379,-39.0625,-42.48046875,-29.78515625,-34.1796875,1.0,1.0,1.0,1.0,3.m4v,9.0
2024-02-28 11:28:23.346285,1709116103.346285,-41.9921875,-41.50390625,-33.69140625,-45.8984375,1.0,1.0,1.0,1.0,3.m4v,9.0
2024-02-28 11:28:23.350191,1709116103.350191,-41.9921875,-27.83203125,-36.62109375,-43.9453125,1.0,1.0,1.0,1.0,3.m4v,9.0
2024-02-28 11:28:23.354097,1709116103.3540971,-40.52734375,-34.66796875,-33.203125,-37.109375,1.0,1.0,1.0,1.0,3.m4v,9.0
2024-02-28 11:28:23.358003,1709116103.3580031,-37.59765625,-48.828125,-31.73828125,-34.66796875,1.0,1.0,1.0,1.0,3.m4v,9.0
2024-02-28 11:28:23.361909,1709116103.361909,-41.015625,-40.52734375,-42.48046875,-35.15625,1.0,1.0,1.0,1.0,3.m4v,9.0
2024-02-28 11:28:23.365815,1709116103.365815,-42.96875,-31.73828125,-41.50390625,-43.9453125,1.0,1.0,1.0,1.0,3.m4v,9.0
2024-02-28 11:28:23.369721,1709116103.369721,-37.59765625,-37.59765625,-34.1796875,-42.96875,1.0,1.0,1.0,1.0,3.m4v,9.0
2024-02-28 11:28:23.373627,1709116103.3736267,-31.25,-36.62109375,-34.1796875,-35.15625,1.0,1.0,1.0,1.0,3.m4v,9.0
2024-02-28 11:28:23.377533,1709116103.3775327,-25.87890625,-32.71484375,-29.78515625,-17.578125,1.0,1.0,1.0,1.0,3.m4v,9.0
2024-02-28 11:28:23.381438,1709116103.3814385,-49.31640625,-35.15625,-24.90234375,-17.08984375,1.0,1.0,1.0,1.0,3.m4v,9.0
2024-02-28 11:28:23.385345,1709116103.3853445,-47.36328125,-33.69140625,-25.87890625,-25.390625,1.0,1.0,1.0,1.0,3.m4v,9.0
2024-02-28 11:28:23.389251,1709116103.3892505,-51.26953125,-27.83203125,-31.25,-34.1796875,1.0,1.0,1.0,1.0,3.m4v,9.0
2024-02-28 11:28:23.393156,1709116103.3931563,-41.9921875,-32.2265625,-27.34375,-48.33984375,1.0,1.0,1.0,1.0,3.m4v,9.0
2024-02-28 11:28:23.397064,1709116103.3970642,-5.859375,-35.64453125,-19.53125,-38.0859375,1.0,1.0,1.0,1.0,3.m4v,9.0
2024-02-28 11:28:23.400970,1709116103.40097,-30.2734375,-30.76171875,-30.2734375,-31.73828125,1.0,1.0,1.0,1.0,3.m4v,9.0
2024-02-28 11:28:23.404876,1709116103.404876,-46.875,-32.71484375,-43.9453125,-27.34375,1.0,1.0,1.0,1.0,3.m4v,9.0
2024-02-28 11:28:23.408782,1709116103.4087818,-27.83203125,-31.25,-43.9453125,-29.78515625,1.0,1.0,1.0,1.0,3.m4v,9.0
2024-02-28 11:28:23.412688,1709116103.4126878,-29.296875,-29.296875,-34.66796875,-47.36328125,1.0,1.0,1.0,1.0,3.m4v,9.0
2024-02-28 11:28:23.416594,1709116103.4165938,-31.73828125,-33.203125,-29.296875,-39.0625,1.0,1.0,1.0,1.0,3.m4v,9.0
2024-02-28 11:28:23.420500,1709116103.4204996,-36.1328125,-41.50390625,-37.59765625,-24.90234375,1.0,1.0,1.0,1.0,3.m4v,9.0
2024-02-28 11:28:23.424406,1709116103.4244056,-47.36328125,-43.45703125,-43.45703125,-42.48046875,1.0,1.0,1.0,1.0,3.m4v,9.0
2024-02-28 11:28:23.428312,1709116103.4283116,-42.48046875,-37.59765625,-29.296875,-38.0859375,1.0,1.0,1.0,1.0,3.m4v,9.0
2024-02-28 11:28:23.432217,1709116103.4322174,-31.73828125,-32.2265625,-20.99609375,-23.92578125,1.0,1.0,1.0,1.0,3.m4v,9.0
2024-02-28 11:28:23.436123,1709116103.4361234,-27.83203125,-34.66796875,-19.53125,-39.55078125,1.0,1.0,1.0,1.0,3.m4v,9.0
2024-02-28 11:28:23.440029,1709116103.4400294,-30.2734375,-33.69140625,-24.4140625,-33.69140625,1.0,1.0,1.0,1.0,3.m4v,9.0
2024-02-28 11:28:23.443935,1709116103.443935,-30.2734375,-36.1328125,-36.62109375,-39.55078125,1.0,1.0,1.0,1.0,3.m4v,9.0
2024-02-28 11:28:23.447841,1709116103.4478407,-27.34375,-46.38671875,-31.25,-62.98828125,1.0,1.0,1.0,1.0,3.m4v,9.0
2024-02-28 11:28:23.451746,1709116103.4517465,-33.203125,-41.9921875,-28.80859375,-51.7578125,1.0,1.0,1.0,1.0,3.m4v,9.0
2024-02-28 11:28:23.455652,1709116103.4556525,-24.4140625,-26.3671875,-38.0859375,-37.59765625,1.0,1.0,1.0,1.0,3.m4v,9.0
2024-02-28 11:28:23.459558,1709116103.4595585,-28.80859375,-26.85546875,-37.59765625,-41.015625,1.0,1.0,1.0,1.0,3.m4v,9.0
2024-02-28 11:28:23.463464,1709116103.4634645,-39.0625,-34.66796875,-32.2265625,-38.0859375,1.0,1.0,1.0,1.0,3.m4v,9.0
2024-02-28 11:28:23.467370,1709116103.4673705,-27.83203125,-31.73828125,-35.64453125,-23.4375,1.0,1.0,1.0,1.0,3.m4v,9.0
2024-02-28 11:28:23.471276,1709116103.4712763,-40.0390625,-35.15625,-36.1328125,-3.90625,1.0,1.0,1.0,1.0,3.m4v,9.0
2024-02-28 11:28:23.475182,1709116103.475182,-49.31640625,-32.71484375,-28.80859375,-30.76171875,1.0,1.0,1.0,1.0,3.m4v,9.0
2024-02-28 11:28:23.479088,1709116103.479088,-28.80859375,-22.4609375,-30.2734375,-58.10546875,1.0,1.0,1.0,1.0,3.m4v,9.0
2024-02-28 11:28:23.482994,1709116103.482994,-6.8359375,-20.5078125,-27.83203125,-48.828125,1.0,1.0,1.0,1.0,3.m4v,9.0
2024-02-28 11:28:23.486900,1709116103.4869,-27.83203125,-30.2734375,-26.85546875,-43.9453125,1.0,1.0,1.0,1.0,3.m4v,9.0
2024-02-28 11:28:23.490805,1709116103.490805,-46.38671875,-36.1328125,-29.296875,-44.921875,1.0,1.0,1.0,1.0,3.m4v,9.0
2024-02-28 11:28:23.494711,1709116103.494711,-45.41015625,-31.73828125,-35.64453125,-40.0390625,1.0,1.0,1.0,1.0,3.m4v,9.0
2024-02-28 11:28:23.498617,1709116103.498617,-42.48046875,-41.015625,-43.45703125,-38.57421875,1.0,1.0,1.0,1.0,3.m4v,9.0
2024-02-28 11:28:23.502523,1709116103.5025227,-42.48046875,-44.921875,-35.15625,-41.015625,1.0,1.0,1.0,1.0,3.m4v,9.0
2024-02-28 11:28:23.506429,1709116103.5064287,-17.08984375,-34.1796875,-25.87890625,-29.78515625,1.0,1.0,1.0,1.0,3.m4v,9.0
2024-02-28 11:28:23.510334,1709116103.5103345,-25.87890625,-26.3671875,-23.92578125,-38.0859375,1.0,1.0,1.0,1.0,3.m4v,9.0
2024-02-28 11:28:24.197776,1709116104.1977763,-39.55078125,-34.66796875,-46.875,-30.76171875,1.0,1.0,1.0,1.0,3.m4v,9.0
2024-02-28 11:28:24.205588,1709116104.205588,-41.50390625,-32.2265625,-38.0859375,-57.6171875,1.0,1.0,1.0,1.0,3.m4v,9.0
2024-02-28 11:28:24.213400,1709116104.2134,-20.5078125,-41.9921875,-40.52734375,-48.828125,1.0,1.0,1.0,1.0,3.m4v,9.0
2024-02-28 11:28:24.221212,1709116104.221212,-41.50390625,-32.71484375,-44.43359375,-14.16015625,1.0,1.0,1.0,1.0,3.m4v,9.0
2024-02-28 11:28:24.229024,1709116104.2290237,-50.78125,-30.2734375,-42.96875,-52.24609375,1.0,1.0,1.0,1.0,3.m4v,9.0
2024-02-28 11:28:24.236835,1709116104.2368357,-43.9453125,-34.66796875,-31.73828125,-47.8515625,1.0,1.0,1.0,1.0,3.m4v,9.0
2024-02-28 11:28:24.350106,1709116104.350106,-41.50390625,-41.9921875,-31.73828125,-29.296875,1.0,1.0,1.0,1.0,3.m4v,9.0
2024-02-28 11:28:24.354012,1709116104.354012,-40.0390625,-34.1796875,-29.296875,-20.01953125,1.0,1.0,1.0,1.0,3.m4v,9.0
2024-02-28 11:28:24.357918,1709116104.3579178,-23.4375,-31.25,-26.3671875,-25.87890625,1.0,1.0,1.0,1.0,3.m4v,9.0
2024-02-28 11:28:24.361824,1709116104.3618238,-23.92578125,-42.96875,-26.3671875,-41.9921875,1.0,1.0,1.0,1.0,3.m4v,9.0
2024-02-28 11:28:24.365730,1709116104.3657298,-51.26953125,-50.29296875,-34.66796875,-30.2734375,1.0,1.0,1.0,1.0,3.m4v,9.0
2024-02-28 11:28:24.369636,1709116104.3696356,-50.78125,-45.8984375,-33.69140625,-12.20703125,1.0,1.0,1.0,1.0,3.m4v,9.0
2024-02-28 11:28:24.373542,1709116104.3735416,-29.296875,-55.17578125,-25.390625,-9.27734375,1.0,1.0,1.0,1.0,3.m4v,9.0
2024-02-28 11:28:24.377447,1709116104.3774474,-30.2734375,-54.6875,-21.97265625,-21.484375,1.0,1.0,1.0,1.0,3.m4v,9.0
2024-02-28 11:28:24.381354,1709116104.381354,-39.55078125,-43.45703125,-23.4375,-33.69140625,1.0,1.0,1.0,1.0,3.m4v,9.0
2024-02-28 11:28:24.385260,1709116104.38526,-26.3671875,-44.43359375,-27.83203125,-36.62109375,1.0,1.0,1.0,1.0,3.m4v,9.0
2024-02-28 11:28:24.389166,1709116104.389166,-15.625,-51.7578125,-26.85546875,-26.3671875,1.0,1.0,1.0,1.0,3.m4v,9.0
2024-02-28 11:28:24.393072,1709116104.3930717,-21.97265625,-49.8046875,-36.1328125,-35.15625,1.0,1.0,1.0,1.0,3.m4v,9.0
2024-02-28 11:28:24.396978,1709116104.3969777,-20.01953125,-35.64453125,-43.45703125,-34.1796875,1.0,1.0,1.0,1.0,3.m4v,9.0
2024-02-28 11:28:24.400884,1709116104.4008837,-23.92578125,-20.5078125,-35.15625,-30.2734375,1.0,1.0,1.0,1.0,3.m4v,9.0
2024-02-28 11:28:24.404789,1709116104.4047894,-26.3671875,-19.53125,-31.73828125,-24.4140625,1.0,1.0,1.0,1.0,3.m4v,9.0
2024-02-28 11:28:24.408695,1709116104.4086957,-30.76171875,-29.296875,-30.2734375,-19.53125,1.0,1.0,1.0,1.0,3.m4v,9.0
2024-02-28 11:28:24.412601,1709116104.4126017,-43.45703125,-32.2265625,-26.85546875,-31.25,1.0,1.0,1.0,1.0,3.m4v,9.0
2024-02-28 11:28:24.416507,1709116104.4165072,-40.0390625,-40.52734375,-29.78515625,-40.52734375,1.0,1.0,1.0,1.0,3.m4v,9.0
2024-02-28 11:28:24.420413,1709116104.4204133,-41.9921875,-40.0390625,-31.25,-44.43359375,1.0,1.0,1.0,1.0,3.m4v,9.0
2024-02-28 11:28:24.424319,1709116104.424319,-48.33984375,-32.71484375,-32.71484375,-43.9453125,1.0,1.0,1.0,1.0,3.m4v,9.0
2024-02-28 11:28:24.428226,1709116104.4282255,-37.109375,-26.3671875,-25.87890625,-33.69140625,1.0,1.0,1.0,1.0,3.m4v,9.0
2024-02-28 11:28:24.432132,1709116104.4321315,-20.01953125,-24.4140625,-22.4609375,-24.90234375,1.0,1.0,1.0,1.0,3.m4v,9.0
2024-02-28 11:28:24.436038,1709116104.4360375,-32.2265625,-25.87890625,-25.390625,-43.9453125,1.0,1.0,1.0,1.0,3.m4v,9.0
2024-02-28 11:28:24.439943,1709116104.4399433,-40.52734375,-32.2265625,-28.3203125,-49.8046875,1.0,1.0,1.0,1.0,3.m4v,9.0
2024-02-28 11:28:24.443849,1709116104.443849,-37.109375,-45.8984375,-36.62109375,-37.59765625,1.0,1.0,1.0,1.0,3.m4v,9.0
2024-02-28 11:28:25.201599,1709116105.2015986,-39.0625,-31.73828125,-31.73828125,-44.43359375,1.0,1.0,1.0,1.0,3.m4v,9.0
2024-02-28 11:28:25.209410,1709116105.2094104,-38.57421875,-43.9453125,-32.71484375,-53.22265625,1.0,1.0,1.0,1.0,3.m4v,9.0
2024-02-28 11:28:25.217222,1709116105.2172222,-44.921875,-48.828125,-28.80859375,-35.15625,1.0,1.0,1.0,1.0,3.m4v,9.0
2024-02-28 11:28:25.225034,1709116105.2250342,-33.69140625,-29.78515625,-35.15625,-21.484375,1.0,1.0,1.0,1.0,3.m4v,9.0
2024-02-28 11:28:25.232846,1709116105.232846,-36.1328125,-28.80859375,-31.73828125,-39.0625,1.0,1.0,1.0,1.0,3.m4v,9.0
2024-02-28 11:28:25.240658,1709116105.2406578,-21.97265625,-41.015625,-9.27734375,-14.6484375,1.0,1.0,1.0,1.0,3.m4v,9.0
2024-02-28 11:28:25.248470,1709116105.2484698,-43.45703125,-30.2734375,-31.73828125,-44.921875,1.0,1.0,1.0,1.0,3.m4v,9.0
2024-02-28 11:28:25.256282,1709116105.2562816,-30.2734375,-26.3671875,-39.0625,-32.71484375,1.0,1.0,1.0,1.0,3.m4v,9.0
2024-02-28 11:28:25.264093,1709116105.2640934,-31.25,-24.90234375,-38.0859375,-46.875,1.0,1.0,1.0,1.0,3.m4v,9.0
2024-02-28 11:28:25.271907,1709116105.271907,-26.3671875,-44.921875,-27.83203125,-31.25,1.0,1.0,1.0,1.0,3.m4v,9.0
2024-02-28 11:28:25.279719,1709116105.279719,-39.0625,-30.76171875,-41.015625,-28.3203125,1.0,1.0,1.0,1.0,3.m4v,9.0
2024-02-28 11:28:25.287531,1709116105.2875311,-10.7421875,-34.66796875,-48.33984375,-20.99609375,1.0,1.0,1.0,1.0,3.m4v,9.0
2024-02-28 11:28:25.295343,1709116105.295343,-57.12890625,-36.1328125,-39.0625,-50.78125,1.0,1.0,1.0,1.0,3.m4v,9.0
2024-02-28 11:28:25.303155,1709116105.3031547,-36.1328125,-32.71484375,-36.62109375,-24.4140625,1.0,1.0,1.0,1.0,3.m4v,9.0
2024-02-28 11:28:25.310966,1709116105.3109665,-33.203125,-35.64453125,-20.01953125,-36.62109375,1.0,1.0,1.0,1.0,3.m4v,9.0
2024-02-28 11:28:25.318778,1709116105.3187778,-21.484375,-37.109375,-35.15625,-40.0390625,1.0,1.0,1.0,1.0,3.m4v,9.0
2024-02-28 11:28:25.326590,1709116105.3265896,-19.04296875,-32.71484375,-28.80859375,-20.5078125,1.0,1.0,1.0,1.0,3.m4v,9.0
2024-02-28 11:28:25.334402,1709116105.3344016,-27.34375,-28.80859375,-28.3203125,-22.94921875,1.0,1.0,1.0,1.0,3.m4v,9.0
2024-02-28 11:28:25.342213,1709116105.3422134,-29.78515625,-32.2265625,-36.1328125,-36.62109375,1.0,1.0,1.0,1.0,3.m4v,9.0
2024-02-28 11:28:25.350025,1709116105.3500252,-37.59765625,-20.99609375,-24.4140625,-6.34765625,1.0,1.0,1.0,1.0,3.m4v,9.0
2024-02-28 11:28:25.357837,1709116105.357837,-33.69140625,-42.48046875,-40.52734375,-39.55078125,1.0,1.0,1.0,1.0,3.m4v,9.0
2024-02-28 11:28:25.365648,1709116105.365648,-29.296875,-34.66796875,-22.4609375,-45.8984375,1.0,1.0,1.0,1.0,3.m4v,9.0
2024-02-28 11:28:25.373460,1709116105.3734598,-27.34375,-26.85546875,-31.25,-15.13671875,1.0,1.0,1.0,1.0,3.m4v,9.0
2024-02-28 11:28:25.381272,1709116105.3812718,-41.50390625,-28.3203125,-39.55078125,-51.7578125,1.0,1.0,1.0,1.0,3.m4v,9.0
2024-02-28 11:28:25.389084,1709116105.3890836,-32.2265625,-43.9453125,-24.4140625,-35.15625,1.0,1.0,1.0,1.0,3.m4v,9.0
2024-02-28 11:28:25.396895,1709116105.3968954,-17.578125,-19.04296875,-26.3671875,-22.94921875,1.0,1.0,1.0,1.0,3.m4v,9.0
2024-02-28 11:28:25.404707,1709116105.4047074,-21.484375,-22.4609375,-34.66796875,-28.80859375,1.0,1.0,1.0,1.0,3.m4v,9.0
2024-02-28 11:28:25.412518,1709116105.412518,-49.31640625,-26.85546875,-41.015625,-49.31640625,1.0,1.0,1.0,1.0,3.m4v,9.0
2024-02-28 11:28:25.420330,1709116105.42033,-24.90234375,-25.390625,-39.55078125,-47.36328125,1.0,1.0,1.0,1.0,3.m4v,9.0
2024-02-28 11:28:25.428142,1709116105.4281418,-24.90234375,-17.578125,-51.7578125,-49.31640625,1.0,1.0,1.0,1.0,3.m4v,9.0
2024-02-28 11:28:25.435954,1709116105.4359536,-39.0625,-35.15625,-43.9453125,-38.57421875,1.0,1.0,1.0,1.0,3.m4v,9.0
2024-02-28 11:28:25.443766,1709116105.4437656,-41.015625,-51.7578125,-46.38671875,-36.1328125,1.0,1.0,1.0,1.0,3.m4v,9.0
2024-02-28 11:28:25.451577,1709116105.4515774,-41.015625,-26.3671875,-41.9921875,-44.921875,1.0,1.0,1.0,1.0,3.m4v,9.0
2024-02-28 11:28:25.467202,1709116105.467202,-28.3203125,-32.2265625,-36.62109375,-40.0390625,1.0,1.0,1.0,1.0,3.m4v,9.0
2024-02-28 11:28:25.471108,1709116105.471108,-45.41015625,-39.55078125,-35.15625,-40.0390625,1.0,1.0,1.0,1.0,3.m4v,9.0
2024-02-28 11:28:25.475014,1709116105.4750135,-49.8046875,-39.55078125,-42.48046875,-51.7578125,1.0,1.0,1.0,1.0,3.m4v,9.0
2024-02-28 11:28:25.478920,1709116105.4789195,-43.9453125,-34.66796875,-37.59765625,-41.9921875,1.0,1.0,1.0,1.0,3.m4v,9.0
2024-02-28 11:28:25.482826,1709116105.4828258,-50.78125,-33.203125,-29.78515625,-30.76171875,1.0,1.0,1.0,1.0,3.m4v,9.0
2024-02-28 11:28:25.486732,1709116105.4867315,-43.9453125,-41.015625,-39.0625,-46.38671875,1.0,1.0,1.0,1.0,3.m4v,9.0
2024-02-28 11:28:25.490638,1709116105.4906375,-41.015625,-30.76171875,-41.50390625,-43.9453125,1.0,1.0,1.0,1.0,3.m4v,9.0
2024-02-28 11:28:25.494544,1709116105.4945436,-34.66796875,-27.34375,-39.55078125,-44.921875,1.0,1.0,1.0,1.0,3.m4v,9.0
2024-02-28 11:28:25.498449,1709116105.498449,-21.484375,-33.69140625,-43.45703125,-41.50390625,1.0,1.0,1.0,1.0,3.m4v,9.0
2024-02-28 11:28:25.502355,1709116105.502355,-24.4140625,-26.3671875,-39.55078125,-16.11328125,1.0,1.0,1.0,1.0,3.m4v,9.0
2024-02-28 11:28:25.506262,1709116105.506262,-33.69140625,-29.296875,-29.296875,-30.2734375,1.0,1.0,1.0,1.0,3.m4v,9.0
2024-02-28 11:28:25.510168,1709116105.5101678,-27.83203125,-33.203125,-32.2265625,-59.08203125,1.0,1.0,1.0,1.0,3.m4v,9.0
2024-02-28 11:28:25.514074,1709116105.5140738,-32.2265625,-28.80859375,-33.203125,-52.734375,1.0,1.0,1.0,1.0,3.m4v,9.0
2024-02-28 11:28:25.517980,1709116105.51798,-37.109375,-26.3671875,-41.50390625,-55.6640625,1.0,1.0,1.0,1.0,3.m4v,9.0
2024-02-28 11:28:25.521886,1709116105.5218856,-39.0625,-36.62109375,-42.96875,-68.84765625,1.0,1.0,1.0,1.0,3.m4v,9.0
2024-02-28 11:28:25.525792,1709116105.5257916,-60.546875,-43.45703125,-35.64453125,-46.875,1.0,1.0,1.0,1.0,3.m4v,9.0
2024-02-28 11:28:25.767958,1709116105.7679577,-31.73828125,-39.0625,-27.34375,-38.57421875,1.0,1.0,1.0,1.0,3.m4v,9.0
2024-02-28 11:28:25.771864,1709116105.7718637,-24.90234375,-43.9453125,-31.25,-23.4375,1.0,1.0,1.0,1.0,3.m4v,9.0
2024-02-28 11:28:25.775770,1709116105.7757697,-9.765625,-35.15625,-34.66796875,-23.4375,1.0,1.0,1.0,1.0,3.m4v,9.0
2024-02-28 11:28:25.779675,1709116105.7796755,-19.04296875,-16.6015625,-39.55078125,-23.92578125,1.0,1.0,1.0,1.0,3.m4v,9.0
2024-02-28 11:28:25.783581,1709116105.7835815,-54.6875,-25.87890625,-32.2265625,-4.8828125,1.0,1.0,1.0,1.0,3.m4v,9.0
2024-02-28 11:28:25.787486,1709116105.7874863,-49.31640625,-30.76171875,-31.73828125,-10.25390625,1.0,1.0,1.0,1.0,3.m4v,9.0
2024-02-28 11:28:25.791392,1709116105.791392,-26.3671875,-28.80859375,-33.203125,-8.7890625,1.0,1.0,1.0,1.0,3.m4v,9.0
2024-02-28 11:28:25.795298,1709116105.795298,-23.4375,-33.203125,-25.390625,-11.23046875,1.0,1.0,1.0,1.0,3.m4v,9.0
2024-02-28 11:28:25.799204,1709116105.799204,-23.92578125,-36.62109375,-27.34375,-29.78515625,1.0,1.0,1.0,1.0,3.m4v,9.0
2024-02-28 11:28:25.803110,1709116105.80311,-20.01953125,-30.76171875,-24.90234375,-27.34375,1.0,1.0,1.0,1.0,3.m4v,9.0
2024-02-28 11:28:25.807016,1709116105.807016,-20.5078125,-28.3203125,-23.4375,-29.78515625,1.0,1.0,1.0,1.0,3.m4v,9.0
2024-02-28 11:28:25.810922,1709116105.8109217,-16.6015625,-31.73828125,-23.4375,-23.4375,1.0,1.0,1.0,1.0,3.m4v,9.0
2024-02-28 11:28:25.814828,1709116105.8148277,-21.97265625,-37.59765625,-23.92578125,-23.4375,1.0,1.0,1.0,1.0,3.m4v,9.0
2024-02-28 11:28:25.818734,1709116105.8187337,-35.15625,-40.52734375,-27.83203125,-29.78515625,1.0,1.0,1.0,1.0,3.m4v,9.0
2024-02-28 11:28:25.822639,1709116105.8226397,-35.15625,-36.62109375,-39.0625,-35.15625,1.0,1.0,1.0,1.0,3.m4v,9.0
2024-02-28 11:28:25.826545,1709116105.8265457,-43.9453125,-31.25,-43.45703125,-21.97265625,1.0,1.0,1.0,1.0,3.m4v,9.0
2024-02-28 11:28:25.830451,1709116105.8304515,-44.921875,-24.4140625,-31.73828125,-12.6953125,1.0,1.0,1.0,1.0,3.m4v,9.0
2024-02-28 11:28:25.834358,1709116105.834358,-35.64453125,-14.6484375,-25.390625,-21.97265625,1.0,1.0,1.0,1.0,3.m4v,9.0
2024-02-28 11:28:25.838264,1709116105.838264,-26.85546875,-16.6015625,-25.390625,-16.6015625,1.0,1.0,1.0,1.0,3.m4v,9.0
2024-02-28 11:28:25.842170,1709116105.84217,-6.8359375,-28.80859375,-26.85546875,-26.85546875,1.0,1.0,1.0,1.0,3.m4v,9.0
2024-02-28 11:28:25.846076,1709116105.8460758,-18.5546875,-39.0625,-27.34375,-33.69140625,1.0,1.0,1.0,1.0,3.m4v,9.0
2024-02-28 11:28:25.849982,1709116105.8499818,-56.640625,-46.38671875,-29.78515625,-32.2265625,1.0,1.0,1.0,1.0,3.m4v,9.0
2024-02-28 11:28:25.853888,1709116105.8538876,-57.12890625,-40.0390625,-29.296875,-24.4140625,1.0,1.0,1.0,1.0,3.m4v,9.0
2024-02-28 11:28:25.974973,1709116105.974973,-41.015625,-38.0859375,-30.2734375,-25.390625,1.0,1.0,1.0,1.0,3.m4v,9.0
2024-02-28 11:28:25.982785,1709116105.9827847,-23.4375,-23.92578125,-16.6015625,-24.4140625,1.0,1.0,1.0,1.0,3.m4v,9.0
2024-02-28 11:28:25.986691,1709116105.9866903,-44.43359375,-22.4609375,-27.34375,-41.9921875,1.0,1.0,1.0,1.0,3.m4v,9.0
2024-02-28 11:28:25.994503,1709116105.9945023,-42.96875,-32.2265625,-32.71484375,-39.55078125,1.0,1.0,1.0,1.0,3.m4v,9.0
2024-02-28 11:28:25.998408,1709116105.9984083,-38.0859375,-38.0859375,-21.484375,-41.9921875,1.0,1.0,1.0,1.0,3.m4v,9.0
2024-02-28 11:28:26.006220,1709116106.0062203,-24.90234375,-30.76171875,-32.71484375,-35.15625,1.0,1.0,1.0,1.0,3.m4v,9.0
2024-02-28 11:28:26.010126,1709116106.010126,-59.08203125,-27.83203125,-40.52734375,-37.109375,1.0,1.0,1.0,1.0,3.m4v,9.0
2024-02-28 11:28:26.017938,1709116106.017938,-28.3203125,-32.2265625,-27.34375,-40.52734375,1.0,1.0,1.0,1.0,3.m4v,9.0
2024-02-28 11:28:26.021844,1709116106.0218437,-36.62109375,-28.3203125,-21.484375,-6.34765625,1.0,1.0,1.0,1.0,3.m4v,9.0
2024-02-28 11:28:26.029655,1709116106.0296557,-48.33984375,-44.43359375,-31.73828125,-59.08203125,1.0,1.0,1.0,1.0,3.m4v,9.0
2024-02-28 11:28:26.033561,1709116106.0335617,-22.94921875,-22.94921875,-36.62109375,-37.59765625,1.0,1.0,1.0,1.0,3.m4v,9.0
2024-02-28 11:28:26.041373,1709116106.0413733,-34.66796875,-22.94921875,-20.99609375,-32.71484375,1.0,1.0,1.0,1.0,3.m4v,9.0
2024-02-28 11:28:26.045279,1709116106.0452793,-40.52734375,-36.1328125,-22.4609375,-35.64453125,1.0,1.0,1.0,1.0,3.m4v,9.0
2024-02-28 11:28:26.053091,1709116106.053091,-29.296875,-44.43359375,-31.25,-40.0390625,1.0,1.0,1.0,1.0,3.m4v,9.0
2024-02-28 11:28:26.056997,1709116106.056997,-30.76171875,-22.4609375,-28.80859375,-19.53125,1.0,1.0,1.0,1.0,3.m4v,9.0
2024-02-28 11:28:26.064809,1709116106.0648088,-26.85546875,-34.1796875,-34.66796875,-36.62109375,1.0,1.0,1.0,1.0,3.m4v,9.0
2024-02-28 11:28:26.068714,1709116106.0687144,-8.7890625,-20.99609375,-38.0859375,-37.109375,1.0,1.0,1.0,1.0,3.m4v,9.0
2024-02-28 11:28:26.076526,1709116106.0765262,-41.50390625,-28.3203125,-45.8984375,-27.83203125,1.0,1.0,1.0,1.0,3.m4v,9.0
2024-02-28 11:28:26.080432,1709116106.080432,-42.96875,-40.0390625,-43.9453125,-20.5078125,1.0,1.0,1.0,1.0,3.m4v,9.0
2024-02-28 11:28:26.088244,1709116106.088244,-38.0859375,-26.3671875,-36.1328125,-39.55078125,1.0,1.0,1.0,1.0,3.m4v,9.0
2024-02-28 11:28:26.092150,1709116106.0921495,-36.62109375,-32.71484375,-26.85546875,-22.4609375,1.0,1.0,1.0,1.0,3.m4v,9.0
2024-02-28 11:28:26.099962,1709116106.0999618,-7.8125,-34.1796875,-19.53125,-31.25,1.0,1.0,1.0,1.0,3.m4v,9.0
2024-02-28 11:28:26.103868,1709116106.1038675,-33.203125,-32.71484375,-25.87890625,-22.4609375,1.0,1.0,1.0,1.0,3.m4v,9.0
2024-02-28 11:28:26.111680,1709116106.1116796,-24.4140625,-29.296875,-25.87890625,-34.1796875,1.0,1.0,1.0,1.0,3.m4v,9.0
2024-02-28 11:28:26.115586,1709116106.1155858,-20.01953125,-18.5546875,-37.109375,-44.921875,1.0,1.0,1.0,1.0,3.m4v,9.0
2024-02-28 11:28:26.123398,1709116106.1233976,-29.296875,-28.80859375,-41.50390625,-37.109375,1.0,1.0,1.0,1.0,3.m4v,9.0
2024-02-28 11:28:26.127304,1709116106.1273036,-18.5546875,-39.55078125,-44.921875,-30.2734375,1.0,1.0,1.0,1.0,3.m4v,9.0
2024-02-28 11:28:26.135115,1709116106.1351154,-24.4140625,-44.921875,-34.66796875,-34.1796875,1.0,1.0,1.0,1.0,3.m4v,9.0
2024-02-28 11:28:26.139021,1709116106.1390214,-8.7890625,-43.9453125,-41.9921875,-30.2734375,1.0,1.0,1.0,1.0,3.m4v,9.0
2024-02-28 11:28:26.146833,1709116106.1468332,-54.19921875,-24.4140625,-29.296875,-28.80859375,1.0,1.0,1.0,1.0,3.m4v,9.0
2024-02-28 11:28:26.150739,1709116106.1507392,-43.45703125,-31.25,-32.2265625,-49.31640625,1.0,1.0,1.0,1.0,3.m4v,9.0
2024-02-28 11:28:26.158551,1709116106.158551,-35.15625,-22.94921875,-35.15625,-48.33984375,1.0,1.0,1.0,1.0,3.m4v,9.0
2024-02-28 11:28:26.162456,1709116106.1624558,-33.203125,-27.83203125,-34.66796875,-50.78125,1.0,1.0,1.0,1.0,3.m4v,9.0
2024-02-28 11:28:26.170268,1709116106.1702676,-31.73828125,-36.62109375,-45.8984375,-27.83203125,1.0,1.0,1.0,1.0,3.m4v,9.0
2024-02-28 11:28:26.174174,1709116106.1741736,-25.87890625,-41.50390625,-38.57421875,-27.34375,1.0,1.0,1.0,1.0,3.m4v,9.0
2024-02-28 11:28:26.181985,1709116106.1819854,-37.59765625,-43.45703125,-29.78515625,-52.734375,1.0,1.0,1.0,1.0,3.m4v,9.0
2024-02-28 11:28:26.185891,1709116106.1858912,-54.6875,-58.10546875,-33.69140625,-54.6875,1.0,1.0,1.0,1.0,3.m4v,9.0
2024-02-28 11:28:26.193703,1709116106.1937032,-27.83203125,-28.80859375,-38.57421875,-23.4375,1.0,1.0,1.0,1.0,3.m4v,9.0
2024-02-28 11:28:26.197609,1709116106.197609,-22.4609375,-23.4375,-38.0859375,-12.6953125,1.0,1.0,1.0,1.0,3.m4v,9.0
2024-02-28 11:28:26.205421,1709116106.205421,-37.109375,-30.2734375,-35.64453125,-64.453125,1.0,1.0,1.0,1.0,3.m4v,9.0
2024-02-28 11:28:26.209328,1709116106.2093277,-51.7578125,-33.69140625,-46.875,-62.01171875,1.0,1.0,1.0,1.0,3.m4v,9.0
2024-02-28 11:28:26.217139,1709116106.2171395,-46.38671875,-37.109375,-40.0390625,-41.015625,1.0,1.0,1.0,1.0,3.m4v,9.0
2024-02-28 11:28:26.221045,1709116106.2210453,-39.55078125,-43.45703125,-33.69140625,-31.73828125,1.0,1.0,1.0,1.0,3.m4v,9.0
2024-02-28 11:28:26.228857,1709116106.2288573,-14.6484375,-30.76171875,-39.55078125,-9.765625,1.0,1.0,1.0,1.0,3.m4v,9.0
2024-02-28 11:28:26.232763,1709116106.232763,-35.15625,-26.85546875,-32.71484375,-8.7890625,1.0,1.0,1.0,1.0,3.m4v,9.0
2024-02-28 11:28:26.240575,1709116106.240575,-36.62109375,-30.76171875,-29.78515625,-16.11328125,1.0,1.0,1.0,1.0,3.m4v,9.0
2024-02-28 11:28:26.244481,1709116106.2444808,-28.3203125,-37.109375,-31.73828125,-36.1328125,1.0,1.0,1.0,1.0,3.m4v,9.0
2024-02-28 11:28:26.252293,1709116106.2522929,-35.64453125,-33.69140625,-26.85546875,-21.484375,1.0,1.0,1.0,1.0,3.m4v,9.0
2024-02-28 11:28:26.256199,1709116106.2561991,-25.87890625,-29.296875,-30.76171875,-7.8125,1.0,1.0,1.0,1.0,3.m4v,9.0
2024-02-28 11:28:26.264011,1709116106.264011,-20.99609375,-33.69140625,-41.9921875,-28.3203125,1.0,1.0,1.0,1.0,3.m4v,9.0
2024-02-28 11:28:26.267917,1709116106.267917,-4.39453125,-18.06640625,-32.2265625,-16.6015625,1.0,1.0,1.0,1.0,3.m4v,9.0
2024-02-28 11:28:26.275729,1709116106.2757287,-41.015625,-36.1328125,-28.3203125,-26.3671875,1.0,1.0,1.0,1.0,3.m4v,9.0
2024-02-28 11:28:26.279635,1709116106.2796347,-23.4375,-36.62109375,-27.34375,-39.0625,1.0,1.0,1.0,1.0,3.m4v,9.0
2024-02-28 11:28:26.287446,1709116106.2874465,-16.6015625,-39.55078125,-38.57421875,-40.0390625,1.0,1.0,1.0,1.0,3.m4v,9.0
2024-02-28 11:28:26.291353,1709116106.2913525,-27.83203125,-20.99609375,-34.1796875,-41.015625,1.0,1.0,1.0,1.0,3.m4v,9.0
2024-02-28 11:28:26.299164,1709116106.2991643,-33.69140625,-24.90234375,-26.85546875,-21.97265625,1.0,1.0,1.0,1.0,3.m4v,9.0
2024-02-28 11:28:26.303071,1709116106.3030703,-24.90234375,-31.73828125,-30.2734375,-19.04296875,1.0,1.0,1.0,1.0,3.m4v,9.0
2024-02-28 11:28:26.310882,1709116106.3108823,-29.78515625,-43.45703125,-36.1328125,-20.99609375,1.0,1.0,1.0,1.0,3.m4v,9.0
2024-02-28 11:28:26.314788,1709116106.3147883,-22.94921875,-39.0625,-29.296875,-25.390625,1.0,1.0,1.0,1.0,3.m4v,9.0
2024-02-28 11:28:26.322600,1709116106.3226,-35.15625,-29.296875,-27.34375,-46.875,1.0,1.0,1.0,1.0,3.m4v,9.0
2024-02-28 11:28:26.326506,1709116106.326506,-45.41015625,-31.25,-27.83203125,-42.48046875,1.0,1.0,1.0,1.0,3.m4v,9.0
2024-02-28 11:28:26.334318,1709116106.334318,-36.62109375,-34.1796875,-38.0859375,-39.0625,1.0,1.0,1.0,1.0,3.m4v,9.0
2024-02-28 11:28:26.338224,1709116106.338224,-41.015625,-32.71484375,-35.15625,-34.66796875,1.0,1.0,1.0,1.0,3.m4v,9.0
2024-02-28 11:28:26.346036,1709116106.3460357,-33.203125,-32.2265625,-45.41015625,-59.5703125,1.0,1.0,1.0,1.0,3.m4v,9.0
2024-02-28 11:28:26.349944,1709116106.349944,-41.50390625,-43.9453125,-39.55078125,-44.921875,1.0,1.0,1.0,1.0,3.m4v,9.0
2024-02-28 11:28:26.357756,1709116106.3577557,-37.109375,-26.3671875,-43.45703125,-36.62109375,1.0,1.0,1.0,1.0,3.m4v,9.0
2024-02-28 11:28:26.361662,1709116106.3616617,-37.59765625,-17.578125,-39.0625,-18.5546875,1.0,1.0,1.0,1.0,3.m4v,9.0
2024-02-28 11:28:26.369473,1709116106.3694737,-38.57421875,-38.57421875,-32.71484375,-37.109375,1.0,1.0,1.0,1.0,3.m4v,9.0
2024-02-28 11:28:26.373379,1709116106.3733797,-27.83203125,-32.2265625,-32.71484375,-29.78515625,1.0,1.0,1.0,1.0,3.m4v,9.0
2024-02-28 11:28:26.381191,1709116106.3811913,-28.80859375,-31.25,-34.1796875,-41.015625,1.0,1.0,1.0,1.0,3.m4v,9.0
2024-02-28 11:28:26.385097,1709116106.3850973,-59.08203125,-38.57421875,-36.62109375,-44.921875,1.0,1.0,1.0,1.0,3.m4v,9.0
2024-02-28 11:28:26.389003,1709116106.3890033,-50.29296875,-43.45703125,-41.9921875,-56.15234375,1.0,1.0,1.0,1.0,3.m4v,9.0
2024-02-28 11:28:26.392909,1709116106.392909,-38.57421875,-42.96875,-40.0390625,-49.31640625,1.0,1.0,1.0,1.0,3.m4v,9.0
2024-02-28 11:28:26.396817,1709116106.3968167,-54.19921875,-41.015625,-33.203125,-38.57421875,1.0,1.0,1.0,1.0,3.m4v,9.0
2024-02-28 11:28:26.400723,1709116106.4007227,-21.97265625,-30.76171875,-31.73828125,-33.203125,1.0,1.0,1.0,1.0,3.m4v,9.0
2024-02-28 11:28:26.404629,1709116106.4046288,-4.39453125,-31.73828125,-32.2265625,-22.4609375,1.0,1.0,1.0,1.0,3.m4v,9.0
2024-02-28 11:28:26.408535,1709116106.4085343,-38.0859375,-39.55078125,-31.73828125,-20.01953125,1.0,1.0,1.0,1.0,3.m4v,9.0
2024-02-28 11:28:26.412441,1709116106.4124403,-35.64453125,-36.1328125,-35.64453125,-24.90234375,1.0,1.0,1.0,1.0,3.m4v,9.0
2024-02-28 11:28:26.416347,1709116106.4163463,-38.57421875,-28.80859375,-36.1328125,-7.8125,1.0,1.0,1.0,1.0,3.m4v,9.0
2024-02-28 11:28:26.420252,1709116106.4202523,-40.52734375,-32.71484375,-36.1328125,-17.08984375,1.0,1.0,1.0,1.0,3.m4v,9.0
2024-02-28 11:28:26.424158,1709116106.4241583,-35.15625,-35.15625,-40.0390625,-46.38671875,1.0,1.0,1.0,1.0,3.m4v,9.0
2024-02-28 11:28:26.428064,1709116106.428064,-37.59765625,-30.2734375,-37.109375,-49.8046875,1.0,1.0,1.0,1.0,3.m4v,9.0
2024-02-28 11:28:26.431970,1709116106.43197,-38.0859375,-32.71484375,-39.0625,-43.9453125,1.0,1.0,1.0,1.0,3.m4v,9.0
2024-02-28 11:28:26.435876,1709116106.435876,-41.50390625,-34.1796875,-40.0390625,-43.45703125,1.0,1.0,1.0,1.0,3.m4v,9.0
2024-02-28 11:28:26.439782,1709116106.439782,-45.8984375,-39.55078125,-37.109375,-53.7109375,1.0,1.0,1.0,1.0,3.m4v,9.0
2024-02-28 11:28:26.443687,1709116106.4436874,-41.015625,-40.0390625,-31.25,-27.83203125,1.0,1.0,1.0,1.0,3.m4v,9.0
2024-02-28 11:28:26.447593,1709116106.4475937,-36.1328125,-34.1796875,-26.85546875,-23.92578125,1.0,1.0,1.0,1.0,3.m4v,9.0
2024-02-28 11:28:26.451499,1709116106.4514992,-30.76171875,-36.62109375,-24.4140625,-51.7578125,1.0,1.0,1.0,1.0,3.m4v,9.0
2024-02-28 11:28:26.455405,1709116106.4554052,-33.203125,-30.2734375,-26.3671875,-52.734375,1.0,1.0,1.0,1.0,3.m4v,9.0
2024-02-28 11:28:26.459311,1709116106.4593112,-41.015625,-26.3671875,-33.69140625,-33.203125,1.0,1.0,1.0,1.0,3.m4v,9.0
2024-02-28 11:28:26.463217,1709116106.463217,-20.99609375,-27.83203125,-28.80859375,-13.18359375,1.0,1.0,1.0,1.0,3.m4v,9.0
2024-02-28 11:28:26.467123,1709116106.467123,-9.27734375,-29.296875,-34.1796875,-36.62109375,1.0,1.0,1.0,1.0,3.m4v,9.0
2024-02-28 11:28:26.471029,1709116106.471029,-41.015625,-36.1328125,-43.45703125,-57.12890625,1.0,1.0,1.0,1.0,3.m4v,9.0
2024-02-28 11:28:26.474935,1709116106.4749348,-55.6640625,-37.109375,-36.1328125,-48.33984375,1.0,1.0,1.0,1.0,3.m4v,9.0
2024-02-28 11:28:26.478841,1709116106.4788408,-32.2265625,-30.2734375,-33.203125,-37.59765625,1.0,1.0,1.0,1.0,3.m4v,9.0
2024-02-28 11:28:26.482747,1709116106.4827468,-38.0859375,-36.62109375,-35.15625,-59.08203125,1.0,1.0,1.0,1.0,3.m4v,9.0
2024-02-28 11:28:26.486653,1709116106.4866526,-56.15234375,-47.8515625,-36.1328125,-63.96484375,1.0,1.0,1.0,1.0,3.m4v,9.0
2024-02-28 11:28:26.490558,1709116106.490558,-57.6171875,-34.66796875,-35.15625,-40.52734375,1.0,1.0,1.0,1.0,3.m4v,9.0
2024-02-28 11:28:26.494464,1709116106.494464,-53.7109375,-31.25,-31.73828125,-15.13671875,1.0,1.0,1.0,1.0,3.m4v,9.0
2024-02-28 11:28:26.498370,1709116106.4983697,-38.57421875,-39.0625,-29.78515625,-7.32421875,1.0,1.0,1.0,1.0,3.m4v,9.0
2024-02-28 11:28:26.502276,1709116106.5022757,-23.4375,-30.76171875,-29.296875,-42.48046875,1.0,1.0,1.0,1.0,3.m4v,9.0
2024-02-28 11:28:26.506181,1709116106.5061817,-36.62109375,-30.2734375,-37.109375,-71.2890625,1.0,1.0,1.0,1.0,3.m4v,9.0
2024-02-28 11:28:26.510087,1709116106.5100875,-57.6171875,-23.92578125,-43.45703125,-67.3828125,1.0,1.0,1.0,1.0,3.m4v,9.0
2024-02-28 11:28:26.513994,1709116106.5139935,-49.8046875,-18.5546875,-42.48046875,-50.78125,1.0,1.0,1.0,1.0,3.m4v,9.0
2024-02-28 11:28:26.517899,1709116106.5178993,-35.64453125,-28.3203125,-36.1328125,-42.96875,1.0,1.0,1.0,1.0,3.m4v,9.0
2024-02-28 11:28:26.521805,1709116106.5218053,-23.4375,-25.390625,-32.2265625,-31.73828125,1.0,1.0,1.0,1.0,3.m4v,9.0
2024-02-28 11:28:26.525711,1709116106.5257113,-18.5546875,-15.13671875,-29.296875,-39.0625,1.0,1.0,1.0,1.0,3.m4v,9.0
2024-02-28 11:28:26.529617,1709116106.529617,-21.97265625,-21.97265625,-29.78515625,-46.875,1.0,1.0,1.0,1.0,3.m4v,9.0
2024-02-28 11:28:26.533523,1709116106.533523,-28.3203125,-35.15625,-36.1328125,-34.66796875,1.0,1.0,1.0,1.0,3.m4v,9.0
2024-02-28 11:28:26.537428,1709116106.537428,-45.41015625,-32.2265625,-40.0390625,-25.87890625,1.0,1.0,1.0,1.0,3.m4v,9.0
2024-02-28 11:28:26.541334,1709116106.5413342,-43.45703125,-26.85546875,-43.45703125,-42.96875,1.0,1.0,1.0,1.0,3.m4v,9.0
2024-02-28 11:28:26.545240,1709116106.5452402,-40.0390625,-24.4140625,-37.59765625,-55.17578125,1.0,1.0,1.0,1.0,3.m4v,9.0
2024-02-28 11:28:26.549146,1709116106.549146,-59.5703125,-30.2734375,-32.2265625,-46.875,1.0,1.0,1.0,1.0,3.m4v,9.0
2024-02-28 11:28:26.553052,1709116106.553052,-41.9921875,-41.9921875,-30.2734375,-42.48046875,1.0,1.0,1.0,1.0,3.m4v,9.0
2024-02-28 11:28:26.560864,1709116106.5608635,-34.66796875,-24.90234375,-32.2265625,-33.69140625,1.0,1.0,1.0,1.0,3.m4v,9.0
2024-02-28 11:28:26.568676,1709116106.5686755,-31.73828125,-31.73828125,-28.80859375,-22.4609375,1.0,1.0,1.0,1.0,3.m4v,9.0
2024-02-28 11:28:26.576488,1709116106.5764875,-21.97265625,-25.87890625,-32.71484375,-23.92578125,1.0,1.0,1.0,1.0,3.m4v,9.0
2024-02-28 11:28:26.584300,1709116106.5843,-63.96484375,-30.76171875,-39.55078125,-67.87109375,1.0,1.0,1.0,1.0,3.m4v,9.0
2024-02-28 11:28:26.592112,1709116106.5921118,-55.17578125,-33.69140625,-28.80859375,-43.45703125,1.0,1.0,1.0,1.0,3.m4v,9.0
2024-02-28 11:28:26.599924,1709116106.5999238,-30.2734375,-35.64453125,-23.92578125,-39.0625,1.0,1.0,1.0,1.0,3.m4v,9.0
2024-02-28 11:28:26.607736,1709116106.6077356,-43.9453125,-34.66796875,-29.78515625,-45.41015625,1.0,1.0,1.0,1.0,3.m4v,9.0
2024-02-28 11:28:26.615547,1709116106.6155474,-41.015625,-31.73828125,-32.2265625,-37.59765625,1.0,1.0,1.0,1.0,3.m4v,9.0
2024-02-28 11:28:26.623359,1709116106.6233592,-52.734375,-39.55078125,-31.25,-48.828125,1.0,1.0,1.0,1.0,3.m4v,9.0
2024-02-28 11:28:26.631172,1709116106.6311717,-35.64453125,-36.1328125,-26.85546875,-15.625,1.0,1.0,1.0,1.0,3.m4v,9.0
2024-02-28 11:28:26.638983,1709116106.6389835,-28.80859375,-26.85546875,-35.15625,-66.40625,1.0,1.0,1.0,1.0,3.m4v,9.0
2024-02-28 11:28:26.963176,1709116106.9631765,-4.8828125,-36.1328125,-30.2734375,-34.66796875,1.0,1.0,1.0,1.0,3.m4v,9.0
2024-02-28 11:28:26.967082,1709116106.967082,-39.55078125,-37.109375,-33.203125,-47.8515625,1.0,1.0,1.0,1.0,3.m4v,9.0
2024-02-28 11:28:26.970988,1709116106.970988,-81.0546875,-34.66796875,-28.80859375,-44.921875,1.0,1.0,1.0,1.0,3.m4v,9.0
2024-02-28 11:28:26.974894,1709116106.974894,-61.5234375,-41.9921875,-21.97265625,-19.53125,1.0,1.0,1.0,1.0,3.m4v,9.0
2024-02-28 11:28:26.978800,1709116106.9787998,-44.921875,-36.1328125,-29.78515625,-37.109375,1.0,1.0,1.0,1.0,3.m4v,9.0
2024-02-28 11:28:26.982706,1709116106.9827058,-46.38671875,-32.71484375,-40.52734375,-67.87109375,1.0,1.0,1.0,1.0,3.m4v,9.0
2024-02-28 11:28:26.986612,1709116106.9866116,-45.41015625,-38.57421875,-37.59765625,-54.6875,1.0,1.0,1.0,1.0,3.m4v,9.0
2024-02-28 11:28:26.990518,1709116106.9905176,-35.15625,-41.50390625,-36.62109375,-44.921875,1.0,1.0,1.0,1.0,3.m4v,9.0
2024-02-28 11:28:26.994424,1709116106.9944236,-38.57421875,-44.921875,-36.62109375,-26.85546875,1.0,1.0,1.0,1.0,3.m4v,9.0
2024-02-28 11:28:26.998329,1709116106.9983294,-33.69140625,-37.59765625,-30.76171875,-17.08984375,1.0,1.0,1.0,1.0,3.m4v,9.0
2024-02-28 11:28:27.002235,1709116107.0022354,-31.25,-26.85546875,-24.4140625,-28.80859375,1.0,1.0,1.0,1.0,3.m4v,9.0
2024-02-28 11:28:27.006142,1709116107.006142,-28.3203125,-40.0390625,-25.87890625,-30.76171875,1.0,1.0,1.0,1.0,3.m4v,9.0
2024-02-28 11:28:27.010048,1709116107.0100477,-28.80859375,-47.8515625,-28.80859375,-22.4609375,1.0,1.0,1.0,1.0,3.m4v,9.0
2024-02-28 11:28:27.013954,1709116107.0139537,-31.73828125,-29.296875,-32.71484375,-33.203125,1.0,1.0,1.0,1.0,3.m4v,9.0
2024-02-28 11:28:27.017860,1709116107.0178597,-35.15625,-22.94921875,-35.15625,-48.828125,1.0,1.0,1.0,1.0,3.m4v,9.0
2024-02-28 11:28:27.021765,1709116107.0217657,-47.8515625,-29.296875,-45.8984375,-58.59375,1.0,1.0,1.0,1.0,3.m4v,9.0
2024-02-28 11:28:27.025671,1709116107.0256715,-43.45703125,-29.78515625,-44.921875,-50.78125,1.0,1.0,1.0,1.0,3.m4v,9.0
2024-02-28 11:28:27.029577,1709116107.0295775,-61.5234375,-28.80859375,-36.62109375,-32.71484375,1.0,1.0,1.0,1.0,3.m4v,9.0
2024-02-28 11:28:27.033483,1709116107.0334833,-69.3359375,-28.80859375,-34.66796875,-30.76171875,1.0,1.0,1.0,1.0,3.m4v,9.0
2024-02-28 11:28:27.037389,1709116107.0373893,-48.828125,-37.109375,-28.80859375,-45.8984375,1.0,1.0,1.0,1.0,3.m4v,9.0
2024-02-28 11:28:27.041295,1709116107.041295,-38.57421875,-36.1328125,-29.296875,-31.73828125,1.0,1.0,1.0,1.0,3.m4v,9.0
2024-02-28 11:28:27.045201,1709116107.045201,-40.52734375,-26.3671875,-25.390625,-16.11328125,1.0,1.0,1.0,1.0,3.m4v,9.0
2024-02-28 11:28:27.049107,1709116107.049107,-47.36328125,-27.34375,-25.390625,-29.78515625,1.0,1.0,1.0,1.0,3.m4v,9.0
2024-02-28 11:28:27.053013,1709116107.053013,-25.87890625,-33.203125,-30.76171875,-33.203125,1.0,1.0,1.0,1.0,3.m4v,9.0
2024-02-28 11:28:27.056919,1709116107.056919,-28.3203125,-39.55078125,-32.2265625,-18.5546875,1.0,1.0,1.0,1.0,3.m4v,9.0
2024-02-28 11:28:27.060825,1709116107.060825,-49.8046875,-46.38671875,-31.25,-6.8359375,1.0,1.0,1.0,1.0,3.m4v,9.0
2024-02-28 11:28:27.064731,1709116107.064731,-38.0859375,-53.22265625,-33.203125,-50.78125,1.0,1.0,1.0,1.0,3.m4v,9.0
2024-02-28 11:28:27.068637,1709116107.068637,-44.43359375,-45.8984375,-39.0625,-44.921875,1.0,1.0,1.0,1.0,3.m4v,9.0
2024-02-28 11:28:27.072543,1709116107.072543,-48.828125,-33.203125,-35.15625,-19.04296875,1.0,1.0,1.0,1.0,3.m4v,9.0
2024-02-28 11:28:27.076449,1709116107.076449,-3.90625,-25.87890625,-29.78515625,-26.85546875,1.0,1.0,1.0,1.0,3.m4v,9.0
2024-02-28 11:28:27.080355,1709116107.0803547,-6.8359375,-29.296875,-33.69140625,-24.90234375,1.0,1.0,1.0,1.0,3.m4v,9.0
2024-02-28 11:28:27.084260,1709116107.0842605,-45.8984375,-39.0625,-34.66796875,-20.5078125,1.0,1.0,1.0,1.0,3.m4v,9.0
2024-02-28 11:28:27.088166,1709116107.0881665,-59.08203125,-37.109375,-29.78515625,-5.37109375,1.0,1.0,1.0,1.0,3.m4v,9.0
2024-02-28 11:28:27.092072,1709116107.0920725,-42.48046875,-31.73828125,-33.203125,-18.06640625,1.0,1.0,1.0,1.0,3.m4v,9.0
2024-02-28 11:28:27.095978,1709116107.0959785,-12.20703125,-42.96875,-33.203125,-39.55078125,1.0,1.0,1.0,1.0,3.m4v,9.0
2024-02-28 11:28:27.099885,1709116107.0998845,-37.109375,-45.41015625,-27.34375,-35.64453125,1.0,1.0,1.0,1.0,3.m4v,9.0
2024-02-28 11:28:27.103791,1709116107.1037903,-53.22265625,-33.203125,-27.83203125,-30.76171875,1.0,1.0,1.0,1.0,3.m4v,9.0
2024-02-28 11:28:27.107697,1709116107.1076963,-49.31640625,-36.1328125,-29.296875,-34.66796875,1.0,1.0,1.0,1.0,3.m4v,9.0
2024-02-28 11:28:27.111602,1709116107.1116023,-53.7109375,-42.96875,-33.203125,-45.41015625,1.0,1.0,1.0,1.0,3.m4v,9.0
2024-02-28 11:28:27.115508,1709116107.1155083,-54.6875,-34.66796875,-34.66796875,-30.2734375,1.0,1.0,1.0,1.0,3.m4v,9.0
2024-02-28 11:28:27.119414,1709116107.119414,-34.1796875,-20.5078125,-34.1796875,-31.25,1.0,1.0,1.0,1.0,3.m4v,9.0
2024-02-28 11:28:27.123320,1709116107.12332,-16.11328125,-22.4609375,-34.1796875,-47.8515625,1.0,1.0,1.0,1.0,3.m4v,9.0
2024-02-28 11:28:27.127226,1709116107.127226,-46.38671875,-37.59765625,-31.25,-38.0859375,1.0,1.0,1.0,1.0,3.m4v,9.0
2024-02-28 11:28:27.131132,1709116107.131132,-41.015625,-38.0859375,-23.92578125,-34.1796875,1.0,1.0,1.0,1.0,3.m4v,9.0
2024-02-28 11:28:27.135038,1709116107.135038,-22.4609375,-34.1796875,-23.92578125,-26.85546875,1.0,1.0,1.0,1.0,3.m4v,9.0
2024-02-28 11:28:27.138944,1709116107.138944,-32.2265625,-36.1328125,-29.78515625,-22.94921875,1.0,1.0,1.0,1.0,3.m4v,9.0
2024-02-28 11:28:27.142850,1709116107.1428497,-25.87890625,-32.71484375,-31.73828125,-36.1328125,1.0,1.0,1.0,1.0,3.m4v,9.0
2024-02-28 11:28:27.146755,1709116107.1467557,-31.73828125,-26.85546875,-33.203125,-37.109375,1.0,1.0,1.0,1.0,3.m4v,9.0
2024-02-28 11:28:27.150661,1709116107.1506617,-40.0390625,-23.92578125,-29.296875,-36.62109375,1.0,1.0,1.0,1.0,3.m4v,9.0
2024-02-28 11:28:27.154567,1709116107.1545677,-23.4375,-18.5546875,-22.4609375,-24.4140625,1.0,1.0,1.0,1.0,3.m4v,9.0
2024-02-28 11:28:27.158473,1709116107.1584733,-3.41796875,-10.7421875,-15.13671875,-7.32421875,1.0,1.0,1.0,1.0,3.m4v,9.0
2024-02-28 11:28:27.162379,1709116107.1623793,-17.08984375,-18.06640625,-20.99609375,-20.5078125,1.0,1.0,1.0,1.0,3.m4v,9.0
2024-02-28 11:28:27.166285,1709116107.166285,-49.8046875,-31.73828125,-32.2265625,-26.3671875,1.0,1.0,1.0,1.0,3.m4v,9.0
2024-02-28 11:28:27.170191,1709116107.170191,-53.7109375,-33.69140625,-34.1796875,-28.3203125,1.0,1.0,1.0,1.0,3.m4v,9.0
2024-02-28 11:28:27.174097,1709116107.174097,-58.10546875,-35.64453125,-30.2734375,-35.15625,1.0,1.0,1.0,1.0,3.m4v,9.0
2024-02-28 11:28:27.178003,1709116107.1780028,-62.01171875,-35.64453125,-31.25,-59.5703125,1.0,1.0,1.0,1.0,3.m4v,9.0
2024-02-28 11:28:27.181909,1709116107.1819088,-52.24609375,-21.97265625,-38.57421875,-74.70703125,1.0,1.0,1.0,1.0,3.m4v,9.0
2024-02-28 11:28:27.185815,1709116107.1858149,-45.8984375,-11.23046875,-37.59765625,-61.03515625,1.0,1.0,1.0,1.0,3.m4v,9.0
2024-02-28 11:28:27.189721,1709116107.1897206,-64.453125,-22.4609375,-34.66796875,-74.21875,1.0,1.0,1.0,1.0,3.m4v,9.0
2024-02-28 11:28:27.193626,1709116107.1936264,-79.1015625,-32.71484375,-47.36328125,-90.33203125,1.0,1.0,1.0,1.0,3.m4v,9.0
2024-02-28 11:28:27.197532,1709116107.1975322,-87.40234375,-31.73828125,-50.78125,-93.75,1.0,1.0,1.0,1.0,3.m4v,9.0
2024-02-28 11:28:27.201438,1709116107.2014382,-104.4921875,-28.3203125,-41.9921875,-102.05078125,1.0,1.0,1.0,1.0,3.m4v,9.0
2024-02-28 11:28:27.205344,1709116107.2053442,-109.375,-33.203125,-42.48046875,-101.07421875,1.0,1.0,1.0,1.0,3.m4v,9.0
2024-02-28 11:28:27.209250,1709116107.20925,-106.93359375,-36.62109375,-44.43359375,-104.00390625,1.0,1.0,1.0,1.0,3.m4v,9.0
2024-02-28 11:28:27.213156,1709116107.213156,-111.81640625,-33.69140625,-45.41015625,-122.55859375,1.0,1.0,1.0,1.0,3.m4v,9.0
2024-02-28 11:28:27.217062,1709116107.217062,-120.1171875,-37.59765625,-49.31640625,-138.18359375,1.0,1.0,1.0,1.0,3.m4v,9.0
2024-02-28 11:28:27.220968,1709116107.2209678,-125.48828125,-42.48046875,-48.828125,-131.34765625,1.0,1.0,1.0,1.0,3.m4v,9.0
2024-02-28 11:28:27.224874,1709116107.2248738,-133.30078125,-46.38671875,-48.33984375,-133.30078125,1.0,1.0,1.0,1.0,3.m4v,9.0
2024-02-28 11:28:27.228780,1709116107.2287796,-139.6484375,-46.875,-48.828125,-153.80859375,1.0,1.0,1.0,1.0,3.m4v,9.0
2024-02-28 11:28:27.232686,1709116107.2326856,-145.99609375,-36.1328125,-57.12890625,-172.36328125,1.0,1.0,1.0,1.0,3.m4v,9.0
2024-02-28 11:28:27.236592,1709116107.2365916,-153.3203125,-31.25,-59.08203125,-171.875,1.0,1.0,1.0,1.0,3.m4v,9.0
2024-02-28 11:28:27.244403,1709116107.2444026,-136.23046875,-40.0390625,-59.5703125,-174.31640625,1.0,1.0,1.0,1.0,3.m4v,9.0
2024-02-28 11:28:27.248308,1709116107.2483084,-161.1328125,-40.0390625,-55.17578125,-149.90234375,1.0,1.0,1.0,1.0,3.m4v,9.0
2024-02-28 11:28:27.252214,1709116107.2522144,-163.0859375,-33.69140625,-47.8515625,-150.390625,1.0,1.0,1.0,1.0,3.m4v,9.0
2024-02-28 11:28:27.256120,1709116107.2561202,-147.94921875,-35.15625,-53.22265625,-170.41015625,1.0,1.0,1.0,1.0,3.m4v,9.0
2024-02-28 11:28:27.260026,1709116107.2600262,-146.484375,-36.62109375,-52.24609375,-151.85546875,1.0,1.0,1.0,1.0,3.m4v,9.0
2024-02-28 11:28:27.263932,1709116107.2639322,-152.34375,-34.66796875,-53.22265625,-168.9453125,1.0,1.0,1.0,1.0,3.m4v,9.0
2024-02-28 11:28:27.267838,1709116107.267838,-166.9921875,-43.9453125,-56.15234375,-158.203125,1.0,1.0,1.0,1.0,3.m4v,9.0
2024-02-28 11:28:27.271744,1709116107.271744,-158.69140625,-47.36328125,-52.24609375,-164.0625,1.0,1.0,1.0,1.0,3.m4v,9.0
2024-02-28 11:28:27.275650,1709116107.27565,-157.2265625,-41.015625,-57.6171875,-175.78125,1.0,1.0,1.0,1.0,3.m4v,9.0
2024-02-28 11:28:27.279556,1709116107.2795558,-139.6484375,-36.62109375,-59.08203125,-162.109375,1.0,1.0,1.0,1.0,3.m4v,9.0
2024-02-28 11:28:27.283462,1709116107.2834618,-127.9296875,-36.1328125,-55.6640625,-161.1328125,1.0,1.0,1.0,1.0,3.m4v,9.0
2024-02-28 11:28:27.287367,1709116107.2873666,-155.2734375,-37.109375,-60.05859375,-169.43359375,1.0,1.0,1.0,1.0,3.m4v,9.0
2024-02-28 11:28:27.291272,1709116107.2912724,-170.41015625,-52.24609375,-55.6640625,-151.3671875,1.0,1.0,1.0,1.0,3.m4v,9.0
2024-02-28 11:28:27.295178,1709116107.2951784,-163.57421875,-58.10546875,-53.22265625,-151.3671875,1.0,1.0,1.0,1.0,3.m4v,9.0
2024-02-28 11:28:27.299084,1709116107.2990844,-135.7421875,-41.50390625,-53.7109375,-144.53125,1.0,1.0,1.0,1.0,3.m4v,9.0
2024-02-28 11:28:27.302990,1709116107.3029902,-117.67578125,-26.85546875,-47.36328125,-132.32421875,1.0,1.0,1.0,1.0,3.m4v,9.0
2024-02-28 11:28:27.306896,1709116107.3068962,-118.1640625,-30.76171875,-49.8046875,-125.0,1.0,1.0,1.0,1.0,3.m4v,9.0
2024-02-28 11:28:27.310802,1709116107.3108022,-127.9296875,-41.9921875,-58.59375,-125.48828125,1.0,1.0,1.0,1.0,3.m4v,9.0
2024-02-28 11:28:27.314708,1709116107.314708,-97.65625,-38.0859375,-57.12890625,-94.7265625,1.0,1.0,1.0,1.0,3.m4v,9.0
2024-02-28 11:28:27.318614,1709116107.318614,-65.91796875,-31.25,-49.8046875,-84.47265625,1.0,1.0,1.0,1.0,3.m4v,9.0
2024-02-28 11:28:27.322520,1709116107.32252,-77.63671875,-28.3203125,-46.38671875,-93.26171875,1.0,1.0,1.0,1.0,3.m4v,9.0
2024-02-28 11:28:27.326426,1709116107.3264258,-61.03515625,-36.1328125,-49.31640625,-52.734375,1.0,1.0,1.0,1.0,3.m4v,9.0
2024-02-28 11:28:27.330332,1709116107.3303318,-44.921875,-38.0859375,-44.921875,-54.19921875,1.0,1.0,1.0,1.0,3.m4v,9.0
2024-02-28 11:28:27.334239,1709116107.3342383,-47.8515625,-34.66796875,-32.71484375,-60.05859375,1.0,1.0,1.0,1.0,3.m4v,9.0
2024-02-28 11:28:27.338144,1709116107.3381443,-37.59765625,-34.1796875,-26.85546875,-45.41015625,1.0,1.0,1.0,1.0,3.m4v,9.0
2024-02-28 11:28:27.342050,1709116107.3420503,-21.484375,-28.80859375,-25.390625,-31.73828125,1.0,1.0,1.0,1.0,3.m4v,9.0
2024-02-28 11:28:27.345956,1709116107.3459563,-4.8828125,-27.83203125,-27.83203125,-14.16015625,1.0,1.0,1.0,1.0,3.m4v,9.0
2024-02-28 11:28:27.349862,1709116107.349862,8.7890625,-34.1796875,-23.4375,21.97265625,1.0,1.0,1.0,1.0,3.m4v,9.0
2024-02-28 11:28:27.353768,1709116107.353768,16.11328125,-31.25,-25.390625,2.44140625,1.0,1.0,1.0,1.0,3.m4v,9.0
2024-02-28 11:28:27.357674,1709116107.357674,18.06640625,-19.53125,-29.296875,-16.11328125,1.0,1.0,1.0,1.0,3.m4v,9.0
2024-02-28 11:28:27.361580,1709116107.36158,27.83203125,-20.5078125,-22.4609375,3.41796875,1.0,1.0,1.0,1.0,3.m4v,9.0
2024-02-28 11:28:27.365486,1709116107.365486,28.80859375,-25.390625,-17.578125,17.578125,1.0,1.0,1.0,1.0,3.m4v,9.0
2024-02-28 11:28:27.369392,1709116107.3693917,12.6953125,-23.92578125,-14.6484375,29.78515625,1.0,1.0,1.0,1.0,3.m4v,9.0
2024-02-28 11:28:27.373298,1709116107.3732977,20.99609375,-23.4375,-16.6015625,39.55078125,1.0,1.0,1.0,1.0,3.m4v,9.0
2024-02-28 11:28:27.377204,1709116107.3772037,40.52734375,-24.90234375,-22.94921875,37.109375,1.0,1.0,1.0,1.0,3.m4v,9.0
2024-02-28 11:28:27.381111,1709116107.381111,48.33984375,-26.85546875,-18.06640625,32.2265625,1.0,1.0,1.0,1.0,3.m4v,9.0
2024-02-28 11:28:27.385016,1709116107.3850164,58.10546875,-31.73828125,-19.53125,41.9921875,1.0,1.0,1.0,1.0,3.m4v,9.0
2024-02-28 11:28:27.388922,1709116107.3889225,54.19921875,-32.71484375,-25.390625,39.0625,1.0,1.0,1.0,1.0,3.m4v,9.0
2024-02-28 11:28:27.392828,1709116107.3928282,41.9921875,-32.71484375,-21.97265625,41.50390625,1.0,1.0,1.0,1.0,3.m4v,9.0
2024-02-28 11:28:27.396734,1709116107.3967342,49.31640625,-30.2734375,-18.5546875,68.84765625,1.0,1.0,1.0,1.0,3.m4v,9.0
2024-02-28 11:28:27.400640,1709116107.4006402,43.9453125,-20.5078125,-23.92578125,41.50390625,1.0,1.0,1.0,1.0,3.m4v,9.0
2024-02-28 11:28:27.404546,1709116107.404546,39.0625,-22.94921875,-24.4140625,33.203125,1.0,1.0,1.0,1.0,3.m4v,9.0
2024-02-28 11:28:27.408452,1709116107.408452,45.41015625,-27.34375,-16.11328125,62.98828125,1.0,1.0,1.0,1.0,3.m4v,9.0
2024-02-28 11:28:27.412358,1709116107.412358,43.45703125,-29.78515625,-11.71875,17.08984375,1.0,1.0,1.0,1.0,3.m4v,9.0
2024-02-28 11:28:27.416264,1709116107.4162638,49.8046875,-30.76171875,-10.7421875,8.7890625,1.0,1.0,1.0,1.0,3.m4v,9.0
2024-02-28 11:28:27.420170,1709116107.4201698,46.38671875,-16.6015625,-2.9296875,30.2734375,1.0,1.0,1.0,1.0,3.m4v,9.0
2024-02-28 11:28:27.424076,1709116107.4240758,59.5703125,-14.16015625,-3.90625,23.92578125,1.0,1.0,1.0,1.0,3.m4v,9.0
2024-02-28 11:28:27.427982,1709116107.4279823,40.52734375,-30.76171875,-18.06640625,24.90234375,1.0,1.0,1.0,1.0,3.m4v,9.0
2024-02-28 11:28:27.431888,1709116107.4318883,24.4140625,-25.87890625,-22.4609375,33.69140625,1.0,1.0,1.0,1.0,3.m4v,9.0
2024-02-28 11:28:27.435794,1709116107.435794,41.50390625,-18.5546875,-20.5078125,32.71484375,1.0,1.0,1.0,1.0,3.m4v,9.0
2024-02-28 11:28:27.439700,1709116107.4397,32.2265625,-22.4609375,-22.4609375,47.8515625,1.0,1.0,1.0,1.0,3.m4v,9.0
2024-02-28 11:28:27.443606,1709116107.443606,26.85546875,-23.92578125,-18.5546875,49.8046875,1.0,1.0,1.0,1.0,3.m4v,9.0
2024-02-28 11:28:27.447512,1709116107.447512,39.0625,-33.69140625,-18.5546875,3.90625,1.0,1.0,1.0,1.0,3.m4v,9.0
2024-02-28 11:28:27.451418,1709116107.451418,24.4140625,-38.57421875,-25.390625,-0.48828125,1.0,1.0,1.0,1.0,3.m4v,9.0
2024-02-28 11:28:27.455324,1709116107.455324,4.39453125,-42.48046875,-26.3671875,7.32421875,1.0,1.0,1.0,1.0,3.m4v,9.0
2024-02-28 11:28:27.459230,1709116107.4592297,18.06640625,-40.52734375,-22.4609375,9.27734375,1.0,1.0,1.0,1.0,3.m4v,9.0
2024-02-28 11:28:27.463136,1709116107.4631355,16.6015625,-32.71484375,-17.578125,16.11328125,1.0,1.0,1.0,1.0,3.m4v,9.0
2024-02-28 11:28:27.467041,1709116107.4670415,12.20703125,-28.3203125,-17.578125,19.53125,1.0,1.0,1.0,1.0,3.m4v,9.0
2024-02-28 11:28:27.470948,1709116107.4709475,13.671875,-26.85546875,-24.90234375,17.08984375,1.0,1.0,1.0,1.0,3.m4v,9.0
2024-02-28 11:28:27.474854,1709116107.4748535,28.3203125,-31.25,-21.484375,17.578125,1.0,1.0,1.0,1.0,3.m4v,9.0
2024-02-28 11:28:27.990434,1709116107.9904337,-31.73828125,-30.2734375,-28.80859375,-37.109375,1.0,1.0,1.0,1.0,3.m4v,9.0
2024-02-28 11:28:27.994340,1709116107.9943397,-31.25,-44.43359375,-30.76171875,-19.53125,1.0,1.0,1.0,1.0,3.m4v,9.0
2024-02-28 11:28:27.998246,1709116107.9982457,-47.36328125,-55.6640625,-49.31640625,-30.2734375,1.0,1.0,1.0,1.0,3.m4v,9.0
2024-02-28 11:28:28.002151,1709116108.0021515,-42.48046875,-39.55078125,-57.12890625,-51.7578125,1.0,1.0,1.0,1.0,3.m4v,9.0
2024-02-28 11:28:28.006058,1709116108.0060575,-1.953125,-40.0390625,-37.59765625,-49.31640625,1.0,1.0,1.0,1.0,3.m4v,9.0
2024-02-28 11:28:28.009964,1709116108.0099635,-24.90234375,-44.43359375,-30.76171875,-50.29296875,1.0,1.0,1.0,1.0,3.m4v,9.0
2024-02-28 11:28:28.013869,1709116108.0138693,-81.0546875,-27.34375,-32.71484375,-35.64453125,1.0,1.0,1.0,1.0,3.m4v,9.0
2024-02-28 11:28:28.017775,1709116108.0177753,-67.3828125,-36.62109375,-31.73828125,-22.94921875,1.0,1.0,1.0,1.0,3.m4v,9.0
2024-02-28 11:28:28.021681,1709116108.0216813,-48.828125,-44.43359375,-35.15625,-44.921875,1.0,1.0,1.0,1.0,3.m4v,9.0
2024-02-28 11:28:28.025587,1709116108.025587,-39.55078125,-38.57421875,-33.69140625,-36.1328125,1.0,1.0,1.0,1.0,3.m4v,9.0
2024-02-28 11:28:28.029493,1709116108.029493,-32.2265625,-34.1796875,-36.1328125,-26.3671875,1.0,1.0,1.0,1.0,3.m4v,9.0
2024-02-28 11:28:28.033399,1709116108.033399,-32.71484375,-28.3203125,-41.50390625,-41.9921875,1.0,1.0,1.0,1.0,3.m4v,9.0
2024-02-28 11:28:28.037304,1709116108.0373042,-38.0859375,-38.0859375,-37.109375,-41.9921875,1.0,1.0,1.0,1.0,3.m4v,9.0
2024-02-28 11:28:28.041210,1709116108.0412102,-41.9921875,-55.6640625,-30.76171875,-30.2734375,1.0,1.0,1.0,1.0,3.m4v,9.0
2024-02-28 11:28:28.045116,1709116108.045116,-43.45703125,-51.26953125,-32.71484375,-29.78515625,1.0,1.0,1.0,1.0,3.m4v,9.0
2024-02-28 11:28:28.049022,1709116108.049022,-33.69140625,-38.0859375,-31.25,-20.01953125,1.0,1.0,1.0,1.0,3.m4v,9.0
2024-02-28 11:28:28.052928,1709116108.052928,-36.62109375,-38.57421875,-32.2265625,-12.20703125,1.0,1.0,1.0,1.0,3.m4v,9.0
2024-02-28 11:28:28.056834,1709116108.0568335,-39.0625,-34.1796875,-42.48046875,-48.33984375,1.0,1.0,1.0,1.0,3.m4v,9.0
2024-02-28 11:28:28.060740,1709116108.0607398,-22.94921875,-38.0859375,-39.0625,-77.1484375,1.0,1.0,1.0,1.0,3.m4v,9.0
2024-02-28 11:28:28.064646,1709116108.0646455,-13.18359375,-43.9453125,-32.2265625,-46.875,1.0,1.0,1.0,1.0,3.m4v,9.0
2024-02-28 11:28:28.068552,1709116108.0685515,-20.01953125,-45.8984375,-32.71484375,-30.76171875,1.0,1.0,1.0,1.0,3.m4v,9.0
2024-02-28 11:28:28.072458,1709116108.0724576,-29.296875,-41.50390625,-38.0859375,-33.69140625,1.0,1.0,1.0,1.0,3.m4v,9.0
2024-02-28 11:28:28.076363,1709116108.076363,-36.62109375,-37.59765625,-29.296875,-36.62109375,1.0,1.0,1.0,1.0,3.m4v,9.0
2024-02-28 11:28:28.080269,1709116108.080269,-38.0859375,-44.43359375,-16.11328125,-31.25,1.0,1.0,1.0,1.0,3.m4v,9.0
2024-02-28 11:28:28.084176,1709116108.084176,-23.4375,-44.43359375,-20.5078125,-15.625,1.0,1.0,1.0,1.0,3.m4v,9.0
2024-02-28 11:28:28.088082,1709116108.088082,-44.43359375,-42.96875,-29.78515625,-35.64453125,1.0,1.0,1.0,1.0,3.m4v,9.0
2024-02-28 11:28:28.091988,1709116108.0919878,-53.22265625,-40.52734375,-32.71484375,-41.015625,1.0,1.0,1.0,1.0,3.m4v,9.0
2024-02-28 11:28:28.095894,1709116108.095894,-52.734375,-30.76171875,-32.2265625,-34.66796875,1.0,1.0,1.0,1.0,3.m4v,9.0
2024-02-28 11:28:28.099800,1709116108.0997996,-43.9453125,-21.97265625,-29.78515625,-41.50390625,1.0,1.0,1.0,1.0,3.m4v,9.0
2024-02-28 11:28:28.959104,1709116108.959104,-23.4375,-46.875,-48.828125,-70.80078125,1.0,1.0,1.0,1.0,3.m4v,9.0
2024-02-28 11:28:28.963010,1709116108.9630098,-17.578125,-42.48046875,-40.52734375,-48.33984375,1.0,1.0,1.0,1.0,3.m4v,9.0
2024-02-28 11:28:28.966916,1709116108.9669158,-45.41015625,-31.25,-32.71484375,-35.64453125,1.0,1.0,1.0,1.0,3.m4v,9.0
2024-02-28 11:28:28.970822,1709116108.970822,-62.98828125,-26.85546875,-26.85546875,-34.1796875,1.0,1.0,1.0,1.0,3.m4v,9.0
2024-02-28 11:28:28.974728,1709116108.974728,-51.26953125,-29.78515625,-32.2265625,-48.33984375,1.0,1.0,1.0,1.0,3.m4v,9.0
2024-02-28 11:28:28.978634,1709116108.978634,-36.62109375,-37.109375,-40.0390625,-44.921875,1.0,1.0,1.0,1.0,3.m4v,9.0
2024-02-28 11:28:28.982540,1709116108.98254,-29.296875,-42.48046875,-34.66796875,-26.3671875,1.0,1.0,1.0,1.0,3.m4v,9.0
2024-02-28 11:28:28.986446,1709116108.986446,-46.38671875,-38.57421875,-31.73828125,-6.34765625,1.0,1.0,1.0,1.0,3.m4v,9.0
2024-02-28 11:28:28.990352,1709116108.9903517,-52.734375,-39.55078125,-38.57421875,-34.1796875,1.0,1.0,1.0,1.0,3.m4v,9.0
2024-02-28 11:28:28.994258,1709116108.9942577,-45.41015625,-31.73828125,-35.64453125,-69.3359375,1.0,1.0,1.0,1.0,3.m4v,9.0
2024-02-28 11:28:28.998164,1709116108.9981637,-56.15234375,-34.1796875,-33.69140625,-46.38671875,1.0,1.0,1.0,1.0,3.m4v,9.0
2024-02-28 11:28:29.002069,1709116109.0020697,-59.5703125,-52.734375,-39.0625,-33.203125,1.0,1.0,1.0,1.0,3.m4v,9.0
2024-02-28 11:28:29.005975,1709116109.0059755,-40.52734375,-38.57421875,-32.2265625,-32.71484375,1.0,1.0,1.0,1.0,3.m4v,9.0
2024-02-28 11:28:29.009881,1709116109.0098815,-31.25,-19.53125,-19.04296875,-20.99609375,1.0,1.0,1.0,1.0,3.m4v,9.0
2024-02-28 11:28:29.013787,1709116109.0137873,-28.80859375,-26.3671875,-28.3203125,-16.6015625,1.0,1.0,1.0,1.0,3.m4v,9.0
2024-02-28 11:28:29.017693,1709116109.0176933,-30.76171875,-37.109375,-40.0390625,-43.9453125,1.0,1.0,1.0,1.0,3.m4v,9.0
2024-02-28 11:28:29.021599,1709116109.0215988,-42.96875,-41.015625,-39.55078125,-53.7109375,1.0,1.0,1.0,1.0,3.m4v,9.0
2024-02-28 11:28:29.025505,1709116109.0255048,-42.96875,-39.0625,-27.34375,-33.203125,1.0,1.0,1.0,1.0,3.m4v,9.0
2024-02-28 11:28:29.029411,1709116109.0294108,-51.7578125,-34.66796875,-27.34375,-17.08984375,1.0,1.0,1.0,1.0,3.m4v,9.0
2024-02-28 11:28:29.107529,1709116109.107529,-44.921875,-31.73828125,-37.109375,-66.89453125,1.0,1.0,1.0,1.0,3.m4v,9.0
2024-02-28 11:28:29.115340,1709116109.1153402,-24.90234375,-48.828125,-30.76171875,-46.875,1.0,1.0,1.0,1.0,3.m4v,9.0
2024-02-28 11:28:29.119246,1709116109.1192462,-34.66796875,-35.15625,-29.78515625,-49.8046875,1.0,1.0,1.0,1.0,3.m4v,9.0
2024-02-28 11:28:29.127058,1709116109.127058,-60.05859375,-27.83203125,-31.25,-32.71484375,1.0,1.0,1.0,1.0,3.m4v,9.0
2024-02-28 11:28:29.134870,1709116109.1348698,-24.4140625,-24.90234375,-16.6015625,-32.2265625,1.0,1.0,1.0,1.0,3.m4v,9.0
2024-02-28 11:28:29.138776,1709116109.1387758,-28.80859375,-31.25,-30.2734375,-38.57421875,1.0,1.0,1.0,1.0,3.m4v,9.0
2024-02-28 11:28:29.142682,1709116109.1426816,-40.0390625,-47.8515625,-41.50390625,-17.08984375,1.0,1.0,1.0,1.0,3.m4v,9.0
2024-02-28 11:28:29.146588,1709116109.1465876,-44.43359375,-41.9921875,-39.55078125,-38.57421875,1.0,1.0,1.0,1.0,3.m4v,9.0
2024-02-28 11:28:29.150494,1709116109.1504936,-60.546875,-26.85546875,-33.69140625,-56.640625,1.0,1.0,1.0,1.0,3.m4v,9.0
2024-02-28 11:28:29.154399,1709116109.1543994,-43.45703125,-24.90234375,-28.80859375,-37.109375,1.0,1.0,1.0,1.0,3.m4v,9.0
2024-02-28 11:28:29.158305,1709116109.1583054,-29.296875,-23.4375,-39.55078125,-57.6171875,1.0,1.0,1.0,1.0,3.m4v,9.0
2024-02-28 11:28:29.162212,1709116109.1622117,-41.50390625,-33.69140625,-41.015625,-62.5,1.0,1.0,1.0,1.0,3.m4v,9.0
2024-02-28 11:28:29.166117,1709116109.1661174,-46.38671875,-38.57421875,-30.76171875,-43.9453125,1.0,1.0,1.0,1.0,3.m4v,9.0
2024-02-28 11:28:29.170023,1709116109.1700234,-37.59765625,-35.64453125,-30.76171875,-19.04296875,1.0,1.0,1.0,1.0,3.m4v,9.0
2024-02-28 11:28:29.173929,1709116109.1739297,-36.62109375,-37.109375,-26.3671875,-20.01953125,1.0,1.0,1.0,1.0,3.m4v,9.0
2024-02-28 11:28:29.177835,1709116109.1778352,-28.3203125,-36.62109375,-20.99609375,-54.6875,1.0,1.0,1.0,1.0,3.m4v,9.0
2024-02-28 11:28:29.181741,1709116109.1817412,-33.203125,-36.62109375,-20.5078125,-35.64453125,1.0,1.0,1.0,1.0,3.m4v,9.0
2024-02-28 11:28:29.185647,1709116109.185647,-52.734375,-50.29296875,-19.53125,26.85546875,1.0,1.0,1.0,1.0,3.m4v,9.0
2024-02-28 11:28:29.189553,1709116109.189553,-43.45703125,-46.875,-25.87890625,-9.765625,1.0,1.0,1.0,1.0,3.m4v,9.0
2024-02-28 11:28:29.193459,1709116109.193459,-42.48046875,-33.69140625,-38.0859375,-70.3125,1.0,1.0,1.0,1.0,3.m4v,9.0
2024-02-28 11:28:29.197365,1709116109.1973648,-53.22265625,-32.71484375,-40.0390625,-60.546875,1.0,1.0,1.0,1.0,3.m4v,9.0
2024-02-28 11:28:29.201271,1709116109.2012708,-37.109375,-30.76171875,-29.78515625,-52.24609375,1.0,1.0,1.0,1.0,3.m4v,9.0
2024-02-28 11:28:29.205177,1709116109.2051768,-21.97265625,-34.66796875,-28.3203125,-43.45703125,1.0,1.0,1.0,1.0,3.m4v,9.0
2024-02-28 11:28:29.209084,1709116109.2090836,-19.04296875,-32.71484375,-28.3203125,-41.015625,1.0,1.0,1.0,1.0,3.m4v,9.0
2024-02-28 11:28:29.212989,1709116109.212989,-22.4609375,-32.2265625,-28.3203125,-35.64453125,1.0,1.0,1.0,1.0,3.m4v,9.0
2024-02-28 11:28:29.216895,1709116109.216895,-27.83203125,-40.52734375,-36.1328125,-36.1328125,1.0,1.0,1.0,1.0,3.m4v,9.0
2024-02-28 11:28:29.220801,1709116109.2208014,-21.97265625,-34.1796875,-29.78515625,-39.55078125,1.0,1.0,1.0,1.0,3.m4v,9.0
2024-02-28 11:28:29.494216,1709116109.494216,-62.5,-52.24609375,-34.1796875,-50.29296875,1.0,1.0,1.0,1.0,3.m4v,9.0
2024-02-28 11:28:29.498122,1709116109.4981215,-49.31640625,-25.390625,-37.59765625,-44.43359375,1.0,1.0,1.0,1.0,3.m4v,9.0
2024-02-28 11:28:29.502028,1709116109.5020278,-22.94921875,-16.6015625,-40.0390625,-32.2265625,1.0,1.0,1.0,1.0,3.m4v,9.0
2024-02-28 11:28:29.505934,1709116109.5059335,-18.5546875,-23.4375,-37.59765625,-36.62109375,1.0,1.0,1.0,1.0,3.m4v,9.0
2024-02-28 11:28:29.509840,1709116109.5098395,-22.94921875,-18.06640625,-32.2265625,-35.15625,1.0,1.0,1.0,1.0,3.m4v,9.0
2024-02-28 11:28:29.513746,1709116109.5137455,-31.73828125,-21.97265625,-30.2734375,-27.34375,1.0,1.0,1.0,1.0,3.m4v,9.0
2024-02-28 11:28:29.517651,1709116109.517651,-42.48046875,-39.55078125,-30.76171875,6.34765625,1.0,1.0,1.0,1.0,3.m4v,9.0
2024-02-28 11:28:29.521557,1709116109.521557,-47.8515625,-41.50390625,-29.296875,-18.06640625,1.0,1.0,1.0,1.0,3.m4v,9.0
2024-02-28 11:28:29.525463,1709116109.525463,-45.41015625,-34.66796875,-35.15625,-73.73046875,1.0,1.0,1.0,1.0,3.m4v,9.0
2024-02-28 11:28:29.529369,1709116109.529369,-22.94921875,-26.3671875,-37.59765625,-38.0859375,1.0,1.0,1.0,1.0,3.m4v,9.0
2024-02-28 11:28:29.533275,1709116109.5332751,8.7890625,-26.3671875,-32.2265625,-20.99609375,1.0,1.0,1.0,1.0,3.m4v,9.0
2024-02-28 11:28:29.537180,1709116109.5371804,-22.4609375,-49.8046875,-30.2734375,-20.99609375,1.0,1.0,1.0,1.0,3.m4v,9.0
2024-02-28 11:28:29.541086,1709116109.5410862,-56.640625,-52.24609375,-31.25,-31.25,1.0,1.0,1.0,1.0,3.m4v,9.0
2024-02-28 11:28:29.544992,1709116109.5449922,-46.875,-34.1796875,-36.62109375,-48.828125,1.0,1.0,1.0,1.0,3.m4v,9.0
2024-02-28 11:28:29.548898,1709116109.5488982,-28.80859375,-25.87890625,-37.109375,-31.25,1.0,1.0,1.0,1.0,3.m4v,9.0
2024-02-28 11:28:29.552804,1709116109.552804,-35.64453125,-23.92578125,-29.78515625,-20.01953125,1.0,1.0,1.0,1.0,3.m4v,9.0
2024-02-28 11:28:29.556710,1709116109.55671,-42.48046875,-26.3671875,-30.76171875,-43.45703125,1.0,1.0,1.0,1.0,3.m4v,9.0
2024-02-28 11:28:30.005893,1709116110.0058925,-34.66796875,-25.87890625,-34.1796875,-46.875,1.0,1.0,1.0,1.0,3.m4v,9.0
2024-02-28 11:28:30.009799,1709116110.0097983,-41.9921875,-37.59765625,-27.83203125,-62.5,1.0,1.0,1.0,1.0,3.m4v,9.0
2024-02-28 11:28:30.013704,1709116110.0137043,-48.33984375,-38.0859375,-31.25,-47.36328125,1.0,1.0,1.0,1.0,3.m4v,9.0
2024-02-28 11:28:30.017610,1709116110.0176103,-41.50390625,-29.296875,-39.55078125,-35.15625,1.0,1.0,1.0,1.0,3.m4v,9.0
2024-02-28 11:28:30.021516,1709116110.021516,-36.62109375,-33.203125,-44.921875,-27.83203125,1.0,1.0,1.0,1.0,3.m4v,9.0
2024-02-28 11:28:30.025422,1709116110.025422,-38.57421875,-37.109375,-36.62109375,-20.01953125,1.0,1.0,1.0,1.0,3.m4v,9.0
2024-02-28 11:28:30.029328,1709116110.029328,-32.2265625,-29.296875,-19.53125,-17.08984375,1.0,1.0,1.0,1.0,3.m4v,9.0
2024-02-28 11:28:30.033234,1709116110.033234,-30.76171875,-21.97265625,-21.97265625,-27.34375,1.0,1.0,1.0,1.0,3.m4v,9.0
2024-02-28 11:28:30.037140,1709116110.03714,-25.87890625,-24.4140625,-25.390625,-37.59765625,1.0,1.0,1.0,1.0,3.m4v,9.0
2024-02-28 11:28:30.041046,1709116110.041046,-24.90234375,-32.2265625,-27.34375,-21.484375,1.0,1.0,1.0,1.0,3.m4v,9.0
2024-02-28 11:28:30.044952,1709116110.0449517,-52.734375,-29.78515625,-23.92578125,-30.2734375,1.0,1.0,1.0,1.0,3.m4v,9.0
2024-02-28 11:28:30.048858,1709116110.0488577,-63.4765625,-21.97265625,-28.80859375,-25.390625,1.0,1.0,1.0,1.0,3.m4v,9.0
2024-02-28 11:28:30.052764,1709116110.052764,-39.55078125,-30.2734375,-39.0625,-24.90234375,1.0,1.0,1.0,1.0,3.m4v,9.0
2024-02-28 11:28:30.056670,1709116110.0566697,-38.57421875,-34.1796875,-34.1796875,-31.73828125,1.0,1.0,1.0,1.0,3.m4v,9.0
2024-02-28 11:28:30.060576,1709116110.0605755,-43.45703125,-31.25,-24.90234375,-24.90234375,1.0,1.0,1.0,1.0,3.m4v,9.0
2024-02-28 11:28:30.064482,1709116110.0644815,-36.62109375,-40.0390625,-20.01953125,-21.97265625,1.0,1.0,1.0,1.0,3.m4v,9.0
2024-02-28 11:28:30.068388,1709116110.0683875,-22.94921875,-30.2734375,-23.92578125,-40.0390625,1.0,1.0,1.0,1.0,3.m4v,9.0
2024-02-28 11:28:30.072294,1709116110.0722935,-18.5546875,-16.6015625,-32.2265625,-62.5,1.0,1.0,1.0,1.0,3.m4v,9.0
2024-02-28 11:28:30.076200,1709116110.0761995,-32.2265625,-20.01953125,-27.83203125,-34.66796875,1.0,1.0,1.0,1.0,3.m4v,9.0
2024-02-28 11:28:30.080105,1709116110.0801053,-45.41015625,-32.71484375,-26.85546875,-20.99609375,1.0,1.0,1.0,1.0,3.m4v,9.0
2024-02-28 11:28:30.084011,1709116110.0840113,-42.48046875,-44.43359375,-38.0859375,-48.33984375,1.0,1.0,1.0,1.0,3.m4v,9.0
2024-02-28 11:28:30.087917,1709116110.087917,-39.0625,-48.33984375,-38.0859375,-45.8984375,1.0,1.0,1.0,1.0,3.m4v,9.0
2024-02-28 11:28:30.091823,1709116110.091823,-46.38671875,-41.9921875,-30.76171875,-22.94921875,1.0,1.0,1.0,1.0,3.m4v,9.0
2024-02-28 11:28:30.095729,1709116110.095729,-31.73828125,-34.66796875,-32.2265625,-29.296875,1.0,1.0,1.0,1.0,3.m4v,9.0
2024-02-28 11:28:30.107447,1709116110.107447,-34.66796875,-23.4375,-38.0859375,-41.015625,1.0,1.0,1.0,1.0,3.m4v,9.0
2024-02-28 11:28:30.119165,1709116110.1191647,-39.55078125,-23.4375,-25.87890625,28.80859375,1.0,1.0,1.0,1.0,3.m4v,9.0
2024-02-28 11:28:30.123070,1709116110.1230705,-35.64453125,-22.94921875,-35.15625,-26.3671875,1.0,1.0,1.0,1.0,3.m4v,9.0
2024-02-28 11:28:30.126976,1709116110.1269765,-30.2734375,-26.3671875,-54.19921875,-66.89453125,1.0,1.0,1.0,1.0,3.m4v,9.0
2024-02-28 11:28:30.130883,1709116110.1308825,-22.4609375,-33.69140625,-49.8046875,-42.48046875,1.0,1.0,1.0,1.0,3.m4v,9.0
2024-02-28 11:28:30.134788,1709116110.1347885,-25.390625,-31.73828125,-38.0859375,-42.96875,1.0,1.0,1.0,1.0,3.m4v,9.0
2024-02-28 11:28:30.138694,1709116110.1386943,-23.4375,-35.15625,-30.76171875,-38.0859375,1.0,1.0,1.0,1.0,3.m4v,9.0
2024-02-28 11:28:30.142600,1709116110.1426003,-25.87890625,-39.0625,-28.3203125,-36.62109375,1.0,1.0,1.0,1.0,3.m4v,9.0
2024-02-28 11:28:30.146506,1709116110.146506,-44.921875,-38.0859375,-30.76171875,-32.2265625,1.0,1.0,1.0,1.0,3.m4v,9.0
2024-02-28 11:28:30.150412,1709116110.150412,-45.41015625,-39.0625,-30.2734375,-18.5546875,1.0,1.0,1.0,1.0,3.m4v,9.0
2024-02-28 11:28:30.154318,1709116110.154318,-34.66796875,-32.71484375,-22.94921875,-19.04296875,1.0,1.0,1.0,1.0,3.m4v,9.0
2024-02-28 11:28:30.158224,1709116110.158224,-30.2734375,-31.25,-28.3203125,-25.87890625,1.0,1.0,1.0,1.0,3.m4v,9.0
2024-02-28 11:28:30.162130,1709116110.1621296,-25.390625,-43.9453125,-35.15625,-27.83203125,1.0,1.0,1.0,1.0,3.m4v,9.0
2024-02-28 11:28:30.166036,1709116110.1660357,-13.671875,-39.0625,-31.25,-36.62109375,1.0,1.0,1.0,1.0,3.m4v,9.0
2024-02-28 11:28:30.169942,1709116110.1699417,-15.13671875,-23.92578125,-34.1796875,-48.828125,1.0,1.0,1.0,1.0,3.m4v,9.0
2024-02-28 11:28:30.173847,1709116110.1738474,-27.34375,-24.90234375,-33.203125,-46.875,1.0,1.0,1.0,1.0,3.m4v,9.0
2024-02-28 11:28:30.177753,1709116110.1777534,-36.62109375,-42.48046875,-25.390625,-12.6953125,1.0,1.0,1.0,1.0,3.m4v,9.0
2024-02-28 11:28:30.181659,1709116110.1816597,-35.15625,-51.26953125,-29.78515625,-14.16015625,1.0,1.0,1.0,1.0,3.m4v,9.0
2024-02-28 11:28:30.185565,1709116110.1855652,-40.52734375,-27.83203125,-41.50390625,-37.59765625,1.0,1.0,1.0,1.0,3.m4v,9.0
2024-02-28 11:28:30.189471,1709116110.1894712,-35.64453125,-22.94921875,-43.45703125,-29.78515625,1.0,1.0,1.0,1.0,3.m4v,9.0
2024-02-28 11:28:30.193377,1709116110.1933768,-36.1328125,-28.80859375,-40.52734375,-23.4375,1.0,1.0,1.0,1.0,3.m4v,9.0
2024-02-28 11:28:30.197283,1709116110.1972828,-54.19921875,-32.71484375,-38.0859375,-22.4609375,1.0,1.0,1.0,1.0,3.m4v,9.0
2024-02-28 11:28:30.201189,1709116110.2011888,-48.828125,-36.62109375,-35.15625,-44.921875,1.0,1.0,1.0,1.0,3.m4v,9.0
2024-02-28 11:28:30.205095,1709116110.2050946,-47.8515625,-34.66796875,-27.83203125,-22.94921875,1.0,1.0,1.0,1.0,3.m4v,9.0
2024-02-28 11:28:30.209001,1709116110.2090006,-40.52734375,-34.1796875,-36.1328125,-25.390625,1.0,1.0,1.0,1.0,3.m4v,9.0
2024-02-28 11:28:30.212907,1709116110.2129066,-31.73828125,-40.52734375,-46.38671875,-55.17578125,1.0,1.0,1.0,1.0,3.m4v,9.0
2024-02-28 11:28:30.216812,1709116110.2168124,-22.94921875,-37.109375,-37.109375,-46.38671875,1.0,1.0,1.0,1.0,3.m4v,9.0
2024-02-28 11:28:30.220718,1709116110.2207184,-27.83203125,-29.296875,-28.80859375,-33.69140625,1.0,1.0,1.0,1.0,3.m4v,9.0
2024-02-28 11:28:30.224624,1709116110.2246244,-44.921875,-34.1796875,-27.83203125,-41.015625,1.0,1.0,1.0,1.0,3.m4v,9.0
2024-02-28 11:28:30.228530,1709116110.2285302,-29.296875,-34.1796875,-28.3203125,-17.578125,1.0,1.0,1.0,1.0,3.m4v,9.0
2024-02-28 11:28:30.232436,1709116110.2324362,-35.64453125,-29.296875,-29.78515625,-1.953125,1.0,1.0,1.0,1.0,3.m4v,9.0
2024-02-28 11:28:30.236342,1709116110.2363422,-53.7109375,-30.2734375,-23.4375,-25.390625,1.0,1.0,1.0,1.0,3.m4v,9.0
2024-02-28 11:28:30.240247,1709116110.2402472,-36.62109375,-35.64453125,-20.99609375,-57.12890625,1.0,1.0,1.0,1.0,3.m4v,9.0
2024-02-28 11:28:30.244153,1709116110.244153,-32.2265625,-44.921875,-24.90234375,-32.2265625,1.0,1.0,1.0,1.0,3.m4v,9.0
2024-02-28 11:28:30.248059,1709116110.248059,-32.2265625,-40.52734375,-34.66796875,-20.99609375,1.0,1.0,1.0,1.0,3.m4v,9.0
2024-02-28 11:28:30.251965,1709116110.251965,-27.34375,-27.83203125,-40.52734375,-43.9453125,1.0,1.0,1.0,1.0,3.m4v,9.0
2024-02-28 11:28:30.255871,1709116110.2558708,-53.7109375,-23.4375,-37.59765625,-34.66796875,1.0,1.0,1.0,1.0,3.m4v,9.0
2024-02-28 11:28:30.259777,1709116110.2597768,-62.5,-23.92578125,-29.78515625,-36.1328125,1.0,1.0,1.0,1.0,3.m4v,9.0
2024-02-28 11:28:30.263683,1709116110.2636828,-58.59375,-30.76171875,-26.85546875,-43.9453125,1.0,1.0,1.0,1.0,3.m4v,9.0
2024-02-28 11:28:30.267589,1709116110.2675886,-52.734375,-36.1328125,-29.296875,-29.78515625,1.0,1.0,1.0,1.0,3.m4v,9.0
2024-02-28 11:28:30.271495,1709116110.2714946,-30.76171875,-25.87890625,-27.83203125,-17.08984375,1.0,1.0,1.0,1.0,3.m4v,9.0
2024-02-28 11:28:30.275401,1709116110.2754006,-34.1796875,-22.94921875,-31.25,-39.0625,1.0,1.0,1.0,1.0,3.m4v,9.0
2024-02-28 11:28:30.279306,1709116110.2793064,-36.62109375,-24.90234375,-30.2734375,-41.015625,1.0,1.0,1.0,1.0,3.m4v,9.0
2024-02-28 11:28:30.283212,1709116110.2832124,-38.57421875,-26.3671875,-30.76171875,-35.64453125,1.0,1.0,1.0,1.0,3.m4v,9.0
2024-02-28 11:28:30.287117,1709116110.2871172,-21.97265625,-28.80859375,-27.34375,-32.71484375,1.0,1.0,1.0,1.0,3.m4v,9.0
2024-02-28 11:28:30.291023,1709116110.291023,-16.11328125,-30.76171875,-20.01953125,-40.52734375,1.0,1.0,1.0,1.0,3.m4v,9.0
2024-02-28 11:28:30.294929,1709116110.294929,-29.296875,-34.66796875,-28.3203125,-40.0390625,1.0,1.0,1.0,1.0,3.m4v,9.0
2024-02-28 11:28:30.298835,1709116110.298835,-30.2734375,-32.71484375,-44.43359375,-38.0859375,1.0,1.0,1.0,1.0,3.m4v,9.0
2024-02-28 11:28:30.302741,1709116110.3027408,-38.57421875,-31.25,-39.55078125,-27.83203125,1.0,1.0,1.0,1.0,3.m4v,9.0
2024-02-28 11:28:30.306647,1709116110.3066468,-34.1796875,-37.59765625,-33.69140625,-6.34765625,1.0,1.0,1.0,1.0,3.m4v,9.0
2024-02-28 11:28:30.310553,1709116110.3105528,-41.015625,-41.50390625,-41.9921875,-22.94921875,1.0,1.0,1.0,1.0,3.m4v,9.0
2024-02-28 11:28:30.314459,1709116110.3144586,-51.7578125,-25.87890625,-40.0390625,-41.50390625,1.0,1.0,1.0,1.0,3.m4v,9.0
2024-02-28 11:28:30.318365,1709116110.3183646,-52.24609375,-25.87890625,-31.25,-36.62109375,1.0,1.0,1.0,1.0,3.m4v,9.0
2024-02-28 11:28:30.322271,1709116110.3222706,-30.2734375,-36.1328125,-29.296875,-31.25,1.0,1.0,1.0,1.0,3.m4v,9.0
2024-02-28 11:28:30.326176,1709116110.3261764,-11.71875,-37.59765625,-21.484375,-24.4140625,1.0,1.0,1.0,1.0,3.m4v,9.0
2024-02-28 11:28:30.330082,1709116110.3300824,-29.296875,-34.66796875,-17.578125,-21.484375,1.0,1.0,1.0,1.0,3.m4v,9.0
2024-02-28 11:28:30.333989,1709116110.3339891,-13.671875,-24.4140625,-26.85546875,-41.9921875,1.0,1.0,1.0,1.0,3.m4v,9.0
2024-02-28 11:28:30.337895,1709116110.337895,-16.11328125,-21.97265625,-33.69140625,-67.87109375,1.0,1.0,1.0,1.0,3.m4v,9.0
2024-02-28 11:28:30.341801,1709116110.341801,-37.59765625,-21.97265625,-35.64453125,-56.15234375,1.0,1.0,1.0,1.0,3.m4v,9.0
2024-02-28 11:28:30.345707,1709116110.345707,-37.59765625,-23.92578125,-33.203125,-44.43359375,1.0,1.0,1.0,1.0,3.m4v,9.0
2024-02-28 11:28:30.349613,1709116110.3496127,-38.0859375,-30.76171875,-32.71484375,-32.2265625,1.0,1.0,1.0,1.0,3.m4v,9.0
2024-02-28 11:28:30.353519,1709116110.3535187,-21.484375,-24.90234375,-35.64453125,-20.01953125,1.0,1.0,1.0,1.0,3.m4v,9.0
2024-02-28 11:28:30.357425,1709116110.3574247,-29.296875,-35.15625,-33.203125,-41.50390625,1.0,1.0,1.0,1.0,3.m4v,9.0
2024-02-28 11:28:30.412108,1709116110.4121082,-31.25,-26.85546875,-28.3203125,-22.4609375,1.0,1.0,1.0,1.0,3.m4v,9.0
2024-02-28 11:28:30.416014,1709116110.4160142,-35.15625,-29.78515625,-23.92578125,-30.2734375,1.0,1.0,1.0,1.0,3.m4v,9.0
2024-02-28 11:28:30.419920,1709116110.4199202,-39.55078125,-27.34375,-20.5078125,-50.78125,1.0,1.0,1.0,1.0,3.m4v,9.0
2024-02-28 11:28:30.423826,1709116110.423826,-39.0625,-29.78515625,-30.76171875,-59.08203125,1.0,1.0,1.0,1.0,3.m4v,9.0
2024-02-28 11:28:30.427732,1709116110.4277322,-53.22265625,-30.2734375,-34.66796875,-41.9921875,1.0,1.0,1.0,1.0,3.m4v,9.0
2024-02-28 11:28:30.431638,1709116110.4316382,-46.38671875,-27.83203125,-29.296875,-27.34375,1.0,1.0,1.0,1.0,3.m4v,9.0
2024-02-28 11:28:30.435544,1709116110.435544,-18.06640625,-20.5078125,-20.01953125,-21.484375,1.0,1.0,1.0,1.0,3.m4v,9.0
2024-02-28 11:28:30.439450,1709116110.43945,-27.83203125,-26.3671875,-21.97265625,-24.90234375,1.0,1.0,1.0,1.0,3.m4v,9.0
2024-02-28 11:28:30.443356,1709116110.443356,-45.8984375,-35.64453125,-31.73828125,-33.203125,1.0,1.0,1.0,1.0,3.m4v,9.0
2024-02-28 11:28:30.447262,1709116110.4472618,-46.875,-26.85546875,-24.4140625,-35.64453125,1.0,1.0,1.0,1.0,3.m4v,9.0
2024-02-28 11:28:30.451168,1709116110.4511678,-50.78125,-28.80859375,-20.99609375,-40.52734375,1.0,1.0,1.0,1.0,3.m4v,9.0
2024-02-28 11:28:30.455074,1709116110.4550738,-49.8046875,-33.69140625,-30.2734375,-37.59765625,1.0,1.0,1.0,1.0,3.m4v,9.0
2024-02-28 11:28:30.458980,1709116110.4589796,-52.24609375,-26.3671875,-36.1328125,-70.3125,1.0,1.0,1.0,1.0,3.m4v,9.0
2024-02-28 11:28:30.462886,1709116110.4628856,-47.36328125,-26.3671875,-29.78515625,-70.80078125,1.0,1.0,1.0,1.0,3.m4v,9.0
2024-02-28 11:28:30.466792,1709116110.4667916,-72.265625,-31.25,-27.34375,-57.12890625,1.0,1.0,1.0,1.0,3.m4v,9.0
2024-02-28 11:28:30.470697,1709116110.4706974,-90.8203125,-24.4140625,-37.109375,-83.984375,1.0,1.0,1.0,1.0,3.m4v,9.0
2024-02-28 11:28:30.474604,1709116110.4746037,-89.35546875,-27.34375,-48.33984375,-103.02734375,1.0,1.0,1.0,1.0,3.m4v,9.0
2024-02-28 11:28:30.478509,1709116110.4785094,-114.2578125,-40.0390625,-55.17578125,-101.5625,1.0,1.0,1.0,1.0,3.m4v,9.0
2024-02-28 11:28:30.482415,1709116110.4824154,-122.55859375,-35.64453125,-49.31640625,-82.03125,1.0,1.0,1.0,1.0,3.m4v,9.0
2024-02-28 11:28:30.486321,1709116110.4863212,-110.3515625,-28.80859375,-49.8046875,-129.39453125,1.0,1.0,1.0,1.0,3.m4v,9.0
2024-02-28 11:28:30.490227,1709116110.4902272,-99.12109375,-29.296875,-54.19921875,-142.578125,1.0,1.0,1.0,1.0,3.m4v,9.0
2024-02-28 11:28:30.494133,1709116110.4941332,-134.27734375,-32.2265625,-49.8046875,-125.9765625,1.0,1.0,1.0,1.0,3.m4v,9.0
2024-02-28 11:28:30.498039,1709116110.498039,-164.55078125,-38.0859375,-52.734375,-156.73828125,1.0,1.0,1.0,1.0,3.m4v,9.0
2024-02-28 11:28:30.501945,1709116110.501945,-159.1796875,-42.96875,-62.98828125,-162.109375,1.0,1.0,1.0,1.0,3.m4v,9.0
2024-02-28 11:28:30.505851,1709116110.505851,-165.52734375,-39.55078125,-58.10546875,-151.3671875,1.0,1.0,1.0,1.0,3.m4v,9.0
2024-02-28 11:28:30.509757,1709116110.5097568,-170.8984375,-31.25,-53.7109375,-173.828125,1.0,1.0,1.0,1.0,3.m4v,9.0
2024-02-28 11:28:30.513663,1709116110.5136628,-155.76171875,-25.87890625,-61.5234375,-167.96875,1.0,1.0,1.0,1.0,3.m4v,9.0
2024-02-28 11:28:30.517569,1709116110.5175688,-147.94921875,-28.80859375,-60.05859375,-154.78515625,1.0,1.0,1.0,1.0,3.m4v,9.0
2024-02-28 11:28:30.521474,1709116110.5214744,-161.1328125,-32.71484375,-61.03515625,-148.4375,1.0,1.0,1.0,1.0,3.m4v,9.0
2024-02-28 11:28:30.525380,1709116110.5253804,-156.73828125,-30.2734375,-58.59375,-139.16015625,1.0,1.0,1.0,1.0,3.m4v,9.0
2024-02-28 11:28:30.529286,1709116110.529286,-166.50390625,-35.15625,-62.98828125,-191.40625,1.0,1.0,1.0,1.0,3.m4v,9.0
2024-02-28 11:28:30.533192,1709116110.5331922,-187.01171875,-41.9921875,-71.77734375,-198.73046875,1.0,1.0,1.0,1.0,3.m4v,9.0
2024-02-28 11:28:30.537098,1709116110.5370982,-175.78125,-42.48046875,-72.75390625,-186.03515625,1.0,1.0,1.0,1.0,3.m4v,9.0
2024-02-28 11:28:30.541004,1709116110.541004,-175.29296875,-35.15625,-67.87109375,-187.98828125,1.0,1.0,1.0,1.0,3.m4v,9.0
2024-02-28 11:28:30.544910,1709116110.54491,-176.7578125,-27.83203125,-67.3828125,-169.921875,1.0,1.0,1.0,1.0,3.m4v,9.0
2024-02-28 11:28:30.548816,1709116110.548816,-181.15234375,-33.203125,-71.2890625,-153.80859375,1.0,1.0,1.0,1.0,3.m4v,9.0
2024-02-28 11:28:30.552722,1709116110.5527215,-169.43359375,-34.66796875,-67.87109375,-158.203125,1.0,1.0,1.0,1.0,3.m4v,9.0
2024-02-28 11:28:30.556628,1709116110.5566278,-144.04296875,-32.2265625,-69.82421875,-163.0859375,1.0,1.0,1.0,1.0,3.m4v,9.0
2024-02-28 11:28:30.560534,1709116110.5605335,-142.08984375,-35.64453125,-64.94140625,-152.34375,1.0,1.0,1.0,1.0,3.m4v,9.0
2024-02-28 11:28:30.564440,1709116110.5644395,-143.06640625,-31.73828125,-61.03515625,-143.5546875,1.0,1.0,1.0,1.0,3.m4v,9.0
2024-02-28 11:28:30.568345,1709116110.568345,-155.76171875,-37.109375,-68.84765625,-148.4375,1.0,1.0,1.0,1.0,3.m4v,9.0
2024-02-28 11:28:30.572251,1709116110.572251,-139.16015625,-47.8515625,-63.96484375,-149.4140625,1.0,1.0,1.0,1.0,3.m4v,9.0
2024-02-28 11:28:30.576157,1709116110.5761569,-126.46484375,-52.24609375,-57.6171875,-128.90625,1.0,1.0,1.0,1.0,3.m4v,9.0
2024-02-28 11:28:30.580063,1709116110.5800629,-124.0234375,-52.24609375,-59.08203125,-119.140625,1.0,1.0,1.0,1.0,3.m4v,9.0
2024-02-28 11:28:30.583969,1709116110.5839689,-115.234375,-30.76171875,-66.40625,-110.83984375,1.0,1.0,1.0,1.0,3.m4v,9.0
2024-02-28 11:28:30.587875,1709116110.587875,-92.28515625,-25.87890625,-67.3828125,-87.890625,1.0,1.0,1.0,1.0,3.m4v,9.0
2024-02-28 11:28:30.876914,1709116110.8769138,-16.11328125,-57.12890625,-22.94921875,-4.8828125,1.0,1.0,1.0,1.0,3.m4v,9.0
2024-02-28 11:28:30.880820,1709116110.8808198,-10.7421875,-44.921875,-27.34375,-16.6015625,1.0,1.0,1.0,1.0,3.m4v,9.0
2024-02-28 11:28:30.884726,1709116110.8847256,-14.16015625,-29.296875,-31.73828125,-31.73828125,1.0,1.0,1.0,1.0,3.m4v,9.0
2024-02-28 11:28:30.888632,1709116110.8886316,-22.94921875,-25.87890625,-36.1328125,-45.41015625,1.0,1.0,1.0,1.0,3.m4v,9.0
2024-02-28 11:28:30.892538,1709116110.8925376,-35.64453125,-28.3203125,-36.62109375,-35.64453125,1.0,1.0,1.0,1.0,3.m4v,9.0
2024-02-28 11:28:30.896443,1709116110.8964431,-23.4375,-26.3671875,-30.2734375,-20.5078125,1.0,1.0,1.0,1.0,3.m4v,9.0
2024-02-28 11:28:30.900349,1709116110.9003491,-16.6015625,-22.4609375,-24.4140625,-32.2265625,1.0,1.0,1.0,1.0,3.m4v,9.0
2024-02-28 11:28:30.904255,1709116110.9042552,-20.99609375,-26.3671875,-29.296875,-28.3203125,1.0,1.0,1.0,1.0,3.m4v,9.0
2024-02-28 11:28:30.908161,1709116110.908161,-36.1328125,-26.3671875,-30.2734375,2.44140625,1.0,1.0,1.0,1.0,3.m4v,9.0
2024-02-28 11:28:30.912067,1709116110.912067,-32.2265625,-27.34375,-24.4140625,2.44140625,1.0,1.0,1.0,1.0,3.m4v,9.0
2024-02-28 11:28:30.915973,1709116110.915973,-15.625,-30.76171875,-28.80859375,-5.37109375,1.0,1.0,1.0,1.0,3.m4v,9.0
2024-02-28 11:28:30.919879,1709116110.9198787,-29.78515625,-50.78125,-34.66796875,-25.87890625,1.0,1.0,1.0,1.0,3.m4v,9.0
2024-02-28 11:28:30.923785,1709116110.9237847,-29.78515625,-60.546875,-45.8984375,-51.7578125,1.0,1.0,1.0,1.0,3.m4v,9.0
2024-02-28 11:28:30.927691,1709116110.9276905,-18.5546875,-38.57421875,-48.828125,-45.41015625,1.0,1.0,1.0,1.0,3.m4v,9.0
2024-02-28 11:28:30.931597,1709116110.9315965,-21.484375,-24.90234375,-32.71484375,-16.6015625,1.0,1.0,1.0,1.0,3.m4v,9.0
2024-02-28 11:28:30.935503,1709116110.9355023,-17.08984375,-29.296875,-31.25,-38.0859375,1.0,1.0,1.0,1.0,3.m4v,9.0
2024-02-28 11:28:30.939408,1709116110.9394083,-25.390625,-35.64453125,-32.2265625,-48.828125,1.0,1.0,1.0,1.0,3.m4v,9.0
2024-02-28 11:28:30.943314,1709116110.943314,-38.57421875,-33.203125,-27.34375,-23.4375,1.0,1.0,1.0,1.0,3.m4v,9.0
2024-02-28 11:28:30.947220,1709116110.9472198,-37.59765625,-25.87890625,-30.76171875,-38.0859375,1.0,1.0,1.0,1.0,3.m4v,9.0
2024-02-28 11:28:30.951126,1709116110.951126,-21.484375,-32.2265625,-37.59765625,-49.31640625,1.0,1.0,1.0,1.0,3.m4v,9.0
2024-02-28 11:28:30.955032,1709116110.955032,-25.87890625,-35.15625,-30.76171875,-43.45703125,1.0,1.0,1.0,1.0,3.m4v,9.0
2024-02-28 11:28:30.958938,1709116110.9589376,-46.38671875,-27.34375,-27.83203125,-34.66796875,1.0,1.0,1.0,1.0,3.m4v,9.0
2024-02-28 11:28:30.962844,1709116110.9628437,-56.15234375,-22.94921875,-37.109375,-26.85546875,1.0,1.0,1.0,1.0,3.m4v,9.0
2024-02-28 11:28:30.966750,1709116110.9667497,-47.36328125,-25.390625,-41.50390625,-24.90234375,1.0,1.0,1.0,1.0,3.m4v,9.0
2024-02-28 11:28:30.970655,1709116110.9706554,-22.94921875,-35.15625,-37.109375,-30.2734375,1.0,1.0,1.0,1.0,3.m4v,9.0
2024-02-28 11:28:30.974561,1709116110.9745617,-15.625,-33.69140625,-32.71484375,-40.0390625,1.0,1.0,1.0,1.0,3.m4v,9.0
2024-02-28 11:28:30.978467,1709116110.9784677,-37.59765625,-33.203125,-35.15625,-39.55078125,1.0,1.0,1.0,1.0,3.m4v,9.0
2024-02-28 11:28:30.982373,1709116110.9823732,-42.96875,-36.1328125,-34.1796875,-22.4609375,1.0,1.0,1.0,1.0,3.m4v,9.0
2024-02-28 11:28:30.986279,1709116110.9862792,-50.29296875,-38.0859375,-28.3203125,-27.83203125,1.0,1.0,1.0,1.0,3.m4v,9.0
2024-02-28 11:28:30.990185,1709116110.9901843,-56.15234375,-37.109375,-25.390625,-15.625,1.0,1.0,1.0,1.0,3.m4v,9.0
2024-02-28 11:28:30.994090,1709116110.9940903,-39.55078125,-37.59765625,-28.3203125,-25.390625,1.0,1.0,1.0,1.0,3.m4v,9.0
2024-02-28 11:28:30.997996,1709116110.9979963,-39.0625,-50.78125,-26.3671875,-61.03515625,1.0,1.0,1.0,1.0,3.m4v,9.0
2024-02-28 11:28:31.001902,1709116111.0019023,-12.6953125,-57.12890625,-24.90234375,-39.0625,1.0,1.0,1.0,1.0,3.m4v,9.0
2024-02-28 11:28:31.005808,1709116111.005808,-14.16015625,-40.52734375,-30.76171875,-24.4140625,1.0,1.0,1.0,1.0,3.m4v,9.0
2024-02-28 11:28:31.009714,1709116111.009714,-31.25,-25.87890625,-36.62109375,-28.80859375,1.0,1.0,1.0,1.0,3.m4v,9.0
2024-02-28 11:28:31.013620,1709116111.01362,-30.2734375,-28.3203125,-45.41015625,-36.1328125,1.0,1.0,1.0,1.0,3.m4v,9.0
2024-02-28 11:28:31.017526,1709116111.017526,-54.6875,-30.2734375,-42.96875,-49.31640625,1.0,1.0,1.0,1.0,3.m4v,9.0
2024-02-28 11:28:31.021432,1709116111.021432,-52.24609375,-19.53125,-38.0859375,-38.0859375,1.0,1.0,1.0,1.0,3.m4v,9.0
2024-02-28 11:28:31.025338,1709116111.025338,-42.48046875,-25.390625,-41.50390625,-32.2265625,1.0,1.0,1.0,1.0,3.m4v,9.0
2024-02-28 11:28:31.029244,1709116111.0292437,-32.2265625,-34.66796875,-30.76171875,-33.203125,1.0,1.0,1.0,1.0,3.m4v,9.0
2024-02-28 11:28:31.033150,1709116111.0331495,-26.3671875,-35.64453125,-23.92578125,-20.5078125,1.0,1.0,1.0,1.0,3.m4v,9.0
2024-02-28 11:28:31.037055,1709116111.037055,-36.1328125,-25.87890625,-27.83203125,-39.0625,1.0,1.0,1.0,1.0,3.m4v,9.0
2024-02-28 11:28:31.040961,1709116111.0409608,-37.59765625,-19.04296875,-21.97265625,-22.4609375,1.0,1.0,1.0,1.0,3.m4v,9.0
2024-02-28 11:28:31.044867,1709116111.0448668,-37.59765625,-22.4609375,-22.94921875,-10.7421875,1.0,1.0,1.0,1.0,3.m4v,9.0
2024-02-28 11:28:31.048773,1709116111.0487726,-27.34375,-35.15625,-20.01953125,-21.484375,1.0,1.0,1.0,1.0,3.m4v,9.0
2024-02-28 11:28:31.052679,1709116111.0526786,-20.01953125,-37.59765625,-21.484375,-25.390625,1.0,1.0,1.0,1.0,3.m4v,9.0
2024-02-28 11:28:31.056585,1709116111.0565846,-22.4609375,-31.25,-36.1328125,-55.17578125,1.0,1.0,1.0,1.0,3.m4v,9.0
2024-02-28 11:28:31.060490,1709116111.0604904,-38.0859375,-33.69140625,-32.71484375,-41.9921875,1.0,1.0,1.0,1.0,3.m4v,9.0
2024-02-28 11:28:31.064396,1709116111.0643964,-58.10546875,-39.55078125,-20.01953125,-17.08984375,1.0,1.0,1.0,1.0,3.m4v,9.0
2024-02-28 11:28:31.068302,1709116111.0683024,-59.5703125,-51.26953125,-18.5546875,-21.484375,1.0,1.0,1.0,1.0,3.m4v,9.0
2024-02-28 11:28:31.072208,1709116111.0722082,-53.22265625,-53.7109375,-23.4375,-40.52734375,1.0,1.0,1.0,1.0,3.m4v,9.0
2024-02-28 11:28:31.279224,1709116111.2792242,-24.90234375,-42.96875,-25.87890625,-19.04296875,1.0,1.0,1.0,1.0,3.m4v,9.0
2024-02-28 11:28:31.287036,1709116111.287036,-41.50390625,-36.1328125,-33.69140625,-1.46484375,1.0,1.0,1.0,1.0,3.m4v,9.0
2024-02-28 11:28:31.294848,1709116111.294848,-24.4140625,-23.4375,-34.66796875,-44.921875,1.0,1.0,1.0,1.0,3.m4v,9.0
2024-02-28 11:28:31.298754,1709116111.2987535,-26.3671875,-24.90234375,-33.69140625,-49.31640625,1.0,1.0,1.0,1.0,3.m4v,9.0
2024-02-28 11:28:31.306566,1709116111.3065655,-18.06640625,-8.30078125,-44.43359375,-45.8984375,1.0,1.0,1.0,1.0,3.m4v,9.0
2024-02-28 11:28:31.314378,1709116111.3143775,-20.01953125,-16.6015625,-46.875,-37.109375,1.0,1.0,1.0,1.0,3.m4v,9.0
2024-02-28 11:28:31.318283,1709116111.3182828,-28.3203125,-24.90234375,-36.62109375,-44.43359375,1.0,1.0,1.0,1.0,3.m4v,9.0
2024-02-28 11:28:31.326095,1709116111.3260949,-19.04296875,-12.6953125,-39.0625,-13.18359375,1.0,1.0,1.0,1.0,3.m4v,9.0
2024-02-28 11:28:31.330001,1709116111.3300006,-39.0625,-21.484375,-33.69140625,-18.5546875,1.0,1.0,1.0,1.0,3.m4v,9.0
2024-02-28 11:28:31.337813,1709116111.337813,-32.2265625,-22.4609375,-34.1796875,-60.546875,1.0,1.0,1.0,1.0,3.m4v,9.0
2024-02-28 11:28:31.345624,1709116111.3456244,-42.96875,-23.4375,-35.15625,-38.57421875,1.0,1.0,1.0,1.0,3.m4v,9.0
2024-02-28 11:28:31.349530,1709116111.3495302,-21.97265625,-21.484375,-29.78515625,-29.78515625,1.0,1.0,1.0,1.0,3.m4v,9.0
2024-02-28 11:28:31.353436,1709116111.3534362,-11.23046875,-26.85546875,-39.0625,-45.41015625,1.0,1.0,1.0,1.0,3.m4v,9.0
2024-02-28 11:28:31.357342,1709116111.3573422,-16.6015625,-28.3203125,-40.52734375,-31.73828125,1.0,1.0,1.0,1.0,3.m4v,9.0
2024-02-28 11:28:31.361248,1709116111.361248,-41.50390625,-26.85546875,-32.71484375,-11.71875,1.0,1.0,1.0,1.0,3.m4v,9.0
2024-02-28 11:28:31.365153,1709116111.3651533,-54.6875,-46.875,-27.34375,-19.04296875,1.0,1.0,1.0,1.0,3.m4v,9.0
2024-02-28 11:28:31.369059,1709116111.369059,-28.80859375,-45.41015625,-30.2734375,-19.04296875,1.0,1.0,1.0,1.0,3.m4v,9.0
2024-02-28 11:28:31.372965,1709116111.372965,-30.2734375,-28.3203125,-36.62109375,-28.3203125,1.0,1.0,1.0,1.0,3.m4v,9.0
2024-02-28 11:28:31.376871,1709116111.376871,-32.2265625,-33.203125,-46.38671875,-31.73828125,1.0,1.0,1.0,1.0,3.m4v,9.0
2024-02-28 11:28:31.380777,1709116111.380777,-38.0859375,-28.80859375,-47.8515625,-44.43359375,1.0,1.0,1.0,1.0,3.m4v,9.0
2024-02-28 11:28:31.384683,1709116111.384683,-26.85546875,-14.16015625,-40.0390625,-63.4765625,1.0,1.0,1.0,1.0,3.m4v,9.0
2024-02-28 11:28:31.388589,1709116111.388589,-23.4375,-20.99609375,-37.59765625,-48.33984375,1.0,1.0,1.0,1.0,3.m4v,9.0
2024-02-28 11:28:31.392495,1709116111.392495,-44.921875,-33.69140625,-33.203125,-46.38671875,1.0,1.0,1.0,1.0,3.m4v,9.0
2024-02-28 11:28:31.396401,1709116111.3964007,-36.1328125,-39.0625,-28.80859375,-34.1796875,1.0,1.0,1.0,1.0,3.m4v,9.0
2024-02-28 11:28:31.400306,1709116111.4003065,-32.71484375,-36.1328125,-28.3203125,-25.390625,1.0,1.0,1.0,1.0,3.m4v,9.0
2024-02-28 11:28:31.404212,1709116111.4042125,-39.0625,-24.4140625,-26.85546875,-27.83203125,1.0,1.0,1.0,1.0,3.m4v,9.0
2024-02-28 11:28:31.408118,1709116111.4081185,-20.99609375,-23.92578125,-27.34375,-20.99609375,1.0,1.0,1.0,1.0,3.m4v,9.0
2024-02-28 11:28:31.412024,1709116111.4120235,-18.5546875,-34.66796875,-36.62109375,-17.578125,1.0,1.0,1.0,1.0,3.m4v,9.0
2024-02-28 11:28:31.415929,1709116111.4159293,-28.80859375,-40.52734375,-37.109375,-35.64453125,1.0,1.0,1.0,1.0,3.m4v,9.0
2024-02-28 11:28:31.419835,1709116111.419835,-30.76171875,-37.59765625,-37.59765625,-51.26953125,1.0,1.0,1.0,1.0,3.m4v,9.0
2024-02-28 11:28:31.423741,1709116111.423741,-11.71875,-31.73828125,-45.8984375,-36.62109375,1.0,1.0,1.0,1.0,3.m4v,9.0
2024-02-28 11:28:31.427647,1709116111.427647,1.46484375,-32.71484375,-40.0390625,-10.7421875,1.0,1.0,1.0,1.0,3.m4v,9.0
2024-02-28 11:28:31.431553,1709116111.4315531,-32.2265625,-30.2734375,-30.76171875,-12.20703125,1.0,1.0,1.0,1.0,3.m4v,9.0
2024-02-28 11:28:31.435459,1709116111.435459,-40.52734375,-28.3203125,-39.0625,-47.36328125,1.0,1.0,1.0,1.0,3.m4v,9.0
2024-02-28 11:28:31.439365,1709116111.439365,-31.25,-36.1328125,-50.78125,-63.96484375,1.0,1.0,1.0,1.0,3.m4v,9.0
2024-02-28 11:28:31.443271,1709116111.443271,-57.12890625,-30.76171875,-48.828125,-53.7109375,1.0,1.0,1.0,1.0,3.m4v,9.0
2024-02-28 11:28:31.447177,1709116111.4471767,-50.78125,-23.92578125,-34.1796875,-11.23046875,1.0,1.0,1.0,1.0,3.m4v,9.0
2024-02-28 11:28:31.451083,1709116111.4510827,-6.8359375,-25.87890625,-24.4140625,-23.4375,1.0,1.0,1.0,1.0,3.m4v,9.0
2024-02-28 11:28:31.454989,1709116111.4549887,-18.5546875,-25.390625,-33.203125,-64.94140625,1.0,1.0,1.0,1.0,3.m4v,9.0
2024-02-28 11:28:31.458895,1709116111.4588954,-45.8984375,-34.1796875,-39.0625,-47.36328125,1.0,1.0,1.0,1.0,3.m4v,9.0
2024-02-28 11:28:31.462801,1709116111.4628017,-34.66796875,-41.015625,-36.62109375,-30.2734375,1.0,1.0,1.0,1.0,3.m4v,9.0
2024-02-28 11:28:31.466707,1709116111.4667077,-23.92578125,-40.52734375,-33.69140625,-38.0859375,1.0,1.0,1.0,1.0,3.m4v,9.0
2024-02-28 11:28:31.470613,1709116111.4706132,-34.66796875,-48.33984375,-30.2734375,-12.20703125,1.0,1.0,1.0,1.0,3.m4v,9.0
2024-02-28 11:28:31.474519,1709116111.4745193,-38.57421875,-37.59765625,-30.2734375,-8.30078125,1.0,1.0,1.0,1.0,3.m4v,9.0
2024-02-28 11:28:31.478425,1709116111.478425,-36.1328125,-18.5546875,-32.2265625,-50.29296875,1.0,1.0,1.0,1.0,3.m4v,9.0
2024-02-28 11:28:31.482331,1709116111.482331,-36.1328125,-22.4609375,-35.64453125,-47.8515625,1.0,1.0,1.0,1.0,3.m4v,9.0
2024-02-28 11:28:31.486237,1709116111.486237,-34.66796875,-24.4140625,-40.0390625,-44.921875,1.0,1.0,1.0,1.0,3.m4v,9.0
2024-02-28 11:28:31.490143,1709116111.4901428,-34.1796875,-26.3671875,-41.50390625,-33.69140625,1.0,1.0,1.0,1.0,3.m4v,9.0
2024-02-28 11:28:31.494049,1709116111.4940488,-50.78125,-30.2734375,-38.0859375,-38.57421875,1.0,1.0,1.0,1.0,3.m4v,9.0
2024-02-28 11:28:31.497955,1709116111.4979548,-45.41015625,-31.25,-26.85546875,-44.921875,1.0,1.0,1.0,1.0,3.m4v,9.0
2024-02-28 11:28:31.501861,1709116111.5018606,-22.94921875,-39.55078125,-28.80859375,-23.92578125,1.0,1.0,1.0,1.0,3.m4v,9.0
2024-02-28 11:28:31.505767,1709116111.505767,-36.1328125,-30.2734375,-42.96875,-25.390625,1.0,1.0,1.0,1.0,3.m4v,9.0
2024-02-28 11:28:31.509673,1709116111.509673,-24.4140625,-16.6015625,-47.36328125,-31.73828125,1.0,1.0,1.0,1.0,3.m4v,9.0
2024-02-28 11:28:31.513579,1709116111.5135791,-34.66796875,-17.578125,-45.8984375,-34.66796875,1.0,1.0,1.0,1.0,3.m4v,9.0
2024-02-28 11:28:31.517485,1709116111.517485,-57.6171875,-18.06640625,-37.109375,-41.50390625,1.0,1.0,1.0,1.0,3.m4v,9.0
2024-02-28 11:28:31.521391,1709116111.521391,-49.31640625,-29.78515625,-29.296875,-56.15234375,1.0,1.0,1.0,1.0,3.m4v,9.0
2024-02-28 11:28:31.525297,1709116111.525297,-37.109375,-43.9453125,-26.3671875,-32.71484375,1.0,1.0,1.0,1.0,3.m4v,9.0
2024-02-28 11:28:31.529203,1709116111.5292027,-27.34375,-41.50390625,-24.90234375,-30.2734375,1.0,1.0,1.0,1.0,3.m4v,9.0
2024-02-28 11:28:31.533109,1709116111.5331087,-32.2265625,-25.87890625,-30.76171875,-44.921875,1.0,1.0,1.0,1.0,3.m4v,9.0
2024-02-28 11:28:31.537014,1709116111.5370145,-49.31640625,-28.80859375,-35.64453125,-35.64453125,1.0,1.0,1.0,1.0,3.m4v,9.0
2024-02-28 11:28:31.540920,1709116111.5409205,-50.78125,-43.45703125,-34.66796875,-61.5234375,1.0,1.0,1.0,1.0,3.m4v,9.0
2024-02-28 11:28:31.544827,1709116111.5448265,-53.22265625,-42.48046875,-27.34375,-30.2734375,1.0,1.0,1.0,1.0,3.m4v,9.0
2024-02-28 11:28:31.548732,1709116111.5487325,-49.8046875,-41.50390625,-27.83203125,-21.484375,1.0,1.0,1.0,1.0,3.m4v,9.0
2024-02-28 11:28:31.552639,1709116111.5526383,-45.8984375,-48.828125,-35.15625,-71.2890625,1.0,1.0,1.0,1.0,3.m4v,9.0
2024-02-28 11:28:31.556545,1709116111.5565443,-48.828125,-56.15234375,-30.2734375,-68.84765625,1.0,1.0,1.0,1.0,3.m4v,9.0
2024-02-28 11:28:31.560450,1709116111.5604503,-51.26953125,-62.01171875,-28.80859375,-56.15234375,1.0,1.0,1.0,1.0,3.m4v,9.0
2024-02-28 11:28:31.564356,1709116111.5643563,-53.7109375,-59.5703125,-30.2734375,-41.50390625,1.0,1.0,1.0,1.0,3.m4v,9.0
2024-02-28 11:28:31.568262,1709116111.5682623,-48.33984375,-60.05859375,-23.92578125,-39.0625,1.0,1.0,1.0,1.0,3.m4v,9.0
2024-02-28 11:28:31.572168,1709116111.572168,-39.0625,-50.78125,-19.53125,-36.62109375,1.0,1.0,1.0,1.0,3.m4v,9.0
2024-02-28 11:28:31.576074,1709116111.576074,-38.57421875,-37.59765625,-22.94921875,-13.18359375,1.0,1.0,1.0,1.0,3.m4v,9.0
2024-02-28 11:28:32.021352,1709116112.0213516,-63.96484375,-45.8984375,-24.90234375,-8.30078125,1.0,1.0,1.0,1.0,3.m4v,9.0
2024-02-28 11:28:32.025258,1709116112.0252576,-62.5,-51.26953125,-26.3671875,-39.55078125,1.0,1.0,1.0,1.0,3.m4v,9.0
2024-02-28 11:28:32.029163,1709116112.0291634,-43.45703125,-50.29296875,-38.57421875,-42.96875,1.0,1.0,1.0,1.0,3.m4v,9.0
2024-02-28 11:28:32.033069,1709116112.0330694,-47.36328125,-50.29296875,-43.9453125,-29.78515625,1.0,1.0,1.0,1.0,3.m4v,9.0
2024-02-28 11:28:32.036975,1709116112.0369754,-45.8984375,-52.734375,-29.78515625,-30.2734375,1.0,1.0,1.0,1.0,3.m4v,9.0
2024-02-28 11:28:32.040881,1709116112.0408812,-46.875,-45.8984375,-17.08984375,-19.53125,1.0,1.0,1.0,1.0,3.m4v,9.0
2024-02-28 11:28:32.044787,1709116112.0447872,-37.109375,-50.29296875,-10.7421875,-26.3671875,1.0,1.0,1.0,1.0,3.m4v,9.0
2024-02-28 11:28:32.048693,1709116112.0486932,-30.2734375,-47.8515625,-24.90234375,-41.9921875,1.0,1.0,1.0,1.0,3.m4v,9.0
2024-02-28 11:28:32.052599,1709116112.052599,-26.3671875,-45.41015625,-36.1328125,-30.76171875,1.0,1.0,1.0,1.0,3.m4v,9.0
2024-02-28 11:28:32.056505,1709116112.056505,-27.34375,-50.29296875,-21.97265625,-29.78515625,1.0,1.0,1.0,1.0,3.m4v,9.0
2024-02-28 11:28:32.060411,1709116112.0604107,-46.875,-54.6875,-29.296875,-15.13671875,1.0,1.0,1.0,1.0,3.m4v,9.0
2024-02-28 11:28:32.064317,1709116112.0643167,-57.6171875,-49.31640625,-36.62109375,-11.71875,1.0,1.0,1.0,1.0,3.m4v,9.0
2024-02-28 11:28:32.068223,1709116112.0682223,-53.22265625,-40.0390625,-31.73828125,-38.57421875,1.0,1.0,1.0,1.0,3.m4v,9.0
2024-02-28 11:28:32.072128,1709116112.0721283,-43.9453125,-41.50390625,-28.80859375,-27.34375,1.0,1.0,1.0,1.0,3.m4v,9.0
2024-02-28 11:28:32.076034,1709116112.0760343,-18.06640625,-33.69140625,-31.25,-35.15625,1.0,1.0,1.0,1.0,3.m4v,9.0
2024-02-28 11:28:32.079940,1709116112.0799403,-17.08984375,-32.71484375,-34.1796875,-39.0625,1.0,1.0,1.0,1.0,3.m4v,9.0
2024-02-28 11:28:32.083846,1709116112.083846,-34.66796875,-30.2734375,-33.69140625,-23.4375,1.0,1.0,1.0,1.0,3.m4v,9.0
2024-02-28 11:28:32.087752,1709116112.087752,-51.7578125,-25.390625,-41.50390625,-35.15625,1.0,1.0,1.0,1.0,3.m4v,9.0
2024-02-28 11:28:32.091658,1709116112.091658,-47.8515625,-38.0859375,-43.9453125,-37.59765625,1.0,1.0,1.0,1.0,3.m4v,9.0
2024-02-28 11:28:32.095564,1709116112.095564,-29.78515625,-46.875,-38.0859375,-24.90234375,1.0,1.0,1.0,1.0,3.m4v,9.0
2024-02-28 11:28:32.099470,1709116112.09947,-28.80859375,-42.48046875,-30.76171875,-21.97265625,1.0,1.0,1.0,1.0,3.m4v,9.0
2024-02-28 11:28:32.103376,1709116112.103376,-14.6484375,-38.0859375,-26.3671875,-18.5546875,1.0,1.0,1.0,1.0,3.m4v,9.0
2024-02-28 11:28:32.107282,1709116112.1072817,-36.62109375,-38.57421875,-24.90234375,3.90625,1.0,1.0,1.0,1.0,3.m4v,9.0
2024-02-28 11:28:32.111188,1709116112.1111877,-62.98828125,-43.45703125,-30.2734375,-22.94921875,1.0,1.0,1.0,1.0,3.m4v,9.0
2024-02-28 11:28:32.115093,1709116112.1150932,-40.52734375,-47.8515625,-35.64453125,-63.4765625,1.0,1.0,1.0,1.0,3.m4v,9.0
2024-02-28 11:28:32.118999,1709116112.1189992,-38.0859375,-53.7109375,-39.0625,-40.52734375,1.0,1.0,1.0,1.0,3.m4v,9.0
2024-02-28 11:28:32.122905,1709116112.122905,-23.92578125,-39.55078125,-36.62109375,-20.01953125,1.0,1.0,1.0,1.0,3.m4v,9.0
2024-02-28 11:28:32.126811,1709116112.126811,0.0,-21.484375,-26.3671875,-18.06640625,1.0,1.0,1.0,1.0,3.m4v,9.0
2024-02-28 11:28:32.130717,1709116112.130717,-27.34375,-29.78515625,-18.5546875,-16.11328125,1.0,1.0,1.0,1.0,3.m4v,9.0
2024-02-28 11:28:32.134623,1709116112.1346228,-52.24609375,-50.29296875,-24.90234375,-36.62109375,1.0,1.0,1.0,1.0,3.m4v,9.0
2024-02-28 11:28:32.138529,1709116112.1385288,-38.0859375,-40.52734375,-37.109375,-41.9921875,1.0,1.0,1.0,1.0,3.m4v,9.0
2024-02-28 11:28:32.142435,1709116112.1424346,-30.76171875,-28.80859375,-35.64453125,-41.015625,1.0,1.0,1.0,1.0,3.m4v,9.0
2024-02-28 11:28:32.146341,1709116112.1463406,-46.38671875,-29.78515625,-27.83203125,-36.62109375,1.0,1.0,1.0,1.0,3.m4v,9.0
2024-02-28 11:28:32.150247,1709116112.1502466,-40.52734375,-29.296875,-26.85546875,-30.2734375,1.0,1.0,1.0,1.0,3.m4v,9.0
2024-02-28 11:28:32.154152,1709116112.1541524,-20.01953125,-30.2734375,-31.25,-13.18359375,1.0,1.0,1.0,1.0,3.m4v,9.0
2024-02-28 11:28:32.158058,1709116112.1580584,-21.97265625,-28.3203125,-25.390625,-16.6015625,1.0,1.0,1.0,1.0,3.m4v,9.0
2024-02-28 11:28:32.161963,1709116112.1619632,-28.80859375,-38.0859375,-12.20703125,-41.015625,1.0,1.0,1.0,1.0,3.m4v,9.0
2024-02-28 11:28:32.165869,1709116112.1658692,-29.78515625,-41.9921875,-19.53125,-11.23046875,1.0,1.0,1.0,1.0,3.m4v,9.0
2024-02-28 11:28:32.169775,1709116112.169775,-28.80859375,-32.71484375,-32.71484375,-17.08984375,1.0,1.0,1.0,1.0,3.m4v,9.0
2024-02-28 11:28:32.173681,1709116112.173681,-12.6953125,-31.73828125,-31.25,-6.34765625,1.0,1.0,1.0,1.0,3.m4v,9.0
2024-02-28 11:28:32.177587,1709116112.177587,-5.37109375,-28.3203125,-30.2734375,-5.859375,1.0,1.0,1.0,1.0,3.m4v,9.0
2024-02-28 11:28:32.181493,1709116112.1814928,-22.4609375,-17.08984375,-33.203125,-50.78125,1.0,1.0,1.0,1.0,3.m4v,9.0
2024-02-28 11:28:32.185399,1709116112.1853988,-38.0859375,-16.11328125,-36.1328125,-43.45703125,1.0,1.0,1.0,1.0,3.m4v,9.0
2024-02-28 11:28:32.189305,1709116112.1893048,-41.50390625,-22.94921875,-35.64453125,-55.6640625,1.0,1.0,1.0,1.0,3.m4v,9.0
2024-02-28 11:28:32.193211,1709116112.1932106,-34.1796875,-16.6015625,-40.0390625,-58.59375,1.0,1.0,1.0,1.0,3.m4v,9.0
2024-02-28 11:28:32.197117,1709116112.1971166,-34.1796875,-20.5078125,-48.33984375,-42.96875,1.0,1.0,1.0,1.0,3.m4v,9.0
2024-02-28 11:28:32.201023,1709116112.2010226,-38.57421875,-26.3671875,-44.921875,-44.921875,1.0,1.0,1.0,1.0,3.m4v,9.0
2024-02-28 11:28:32.204928,1709116112.2049284,-33.203125,-18.06640625,-39.0625,-11.71875,1.0,1.0,1.0,1.0,3.m4v,9.0
2024-02-28 11:28:32.208835,1709116112.2088351,-22.94921875,-15.625,-35.64453125,-7.32421875,1.0,1.0,1.0,1.0,3.m4v,9.0
2024-02-28 11:28:32.212741,1709116112.2127411,-12.6953125,-19.53125,-40.52734375,-59.5703125,1.0,1.0,1.0,1.0,3.m4v,9.0
2024-02-28 11:28:32.216647,1709116112.2166471,-22.4609375,-28.3203125,-45.8984375,-65.91796875,1.0,1.0,1.0,1.0,3.m4v,9.0
2024-02-28 11:28:32.220553,1709116112.220553,-34.66796875,-29.296875,-46.875,-46.875,1.0,1.0,1.0,1.0,3.m4v,9.0
2024-02-28 11:28:32.224459,1709116112.224459,-33.203125,-25.87890625,-44.43359375,-44.921875,1.0,1.0,1.0,1.0,3.m4v,9.0
2024-02-28 11:28:32.228365,1709116112.228365,-30.76171875,-21.97265625,-39.0625,-37.109375,1.0,1.0,1.0,1.0,3.m4v,9.0
2024-02-28 11:28:32.232271,1709116112.2322707,-27.83203125,-16.6015625,-36.62109375,-31.25,1.0,1.0,1.0,1.0,3.m4v,9.0
2024-02-28 11:28:32.236177,1709116112.2361767,-30.76171875,-23.4375,-38.0859375,-35.15625,1.0,1.0,1.0,1.0,3.m4v,9.0
2024-02-28 11:28:32.240083,1709116112.2400827,-36.1328125,-16.11328125,-39.55078125,-40.0390625,1.0,1.0,1.0,1.0,3.m4v,9.0
2024-02-28 11:28:32.243989,1709116112.2439885,-36.62109375,-16.11328125,-46.875,-49.31640625,1.0,1.0,1.0,1.0,3.m4v,9.0
2024-02-28 11:28:32.247895,1709116112.2478943,-37.59765625,-28.3203125,-41.50390625,-34.66796875,1.0,1.0,1.0,1.0,3.m4v,9.0
2024-02-28 11:28:32.251800,1709116112.2518003,-28.80859375,-31.25,-42.48046875,-22.94921875,1.0,1.0,1.0,1.0,3.m4v,9.0
2024-02-28 11:28:32.255707,1709116112.2557068,-31.73828125,-42.48046875,-57.12890625,-55.6640625,1.0,1.0,1.0,1.0,3.m4v,9.0
2024-02-28 11:28:32.259613,1709116112.2596128,-31.25,-45.8984375,-43.45703125,-51.7578125,1.0,1.0,1.0,1.0,3.m4v,9.0
2024-02-28 11:28:32.263519,1709116112.2635188,-37.109375,-28.3203125,-34.1796875,-38.0859375,1.0,1.0,1.0,1.0,3.m4v,9.0
2024-02-28 11:28:32.267425,1709116112.2674246,-46.875,-20.5078125,-39.55078125,-52.734375,1.0,1.0,1.0,1.0,3.m4v,9.0
2024-02-28 11:28:32.271331,1709116112.2713306,-30.76171875,-21.484375,-37.59765625,-45.8984375,1.0,1.0,1.0,1.0,3.m4v,9.0
2024-02-28 11:28:32.275237,1709116112.2752366,-43.45703125,-17.08984375,-41.015625,-24.90234375,1.0,1.0,1.0,1.0,3.m4v,9.0
2024-02-28 11:28:32.279142,1709116112.2791424,-49.31640625,-22.4609375,-38.0859375,-27.83203125,1.0,1.0,1.0,1.0,3.m4v,9.0
2024-02-28 11:28:32.283048,1709116112.2830484,-24.90234375,-37.59765625,-37.109375,-52.24609375,1.0,1.0,1.0,1.0,3.m4v,9.0
2024-02-28 11:28:32.286954,1709116112.2869544,-16.11328125,-28.80859375,-35.64453125,-39.0625,1.0,1.0,1.0,1.0,3.m4v,9.0
2024-02-28 11:28:32.290860,1709116112.2908602,-43.45703125,-21.97265625,-33.203125,-28.80859375,1.0,1.0,1.0,1.0,3.m4v,9.0
2024-02-28 11:28:32.294766,1709116112.2947662,-40.52734375,-19.04296875,-37.59765625,-41.015625,1.0,1.0,1.0,1.0,3.m4v,9.0
2024-02-28 11:28:32.298672,1709116112.2986722,-37.59765625,-16.11328125,-28.3203125,-47.36328125,1.0,1.0,1.0,1.0,3.m4v,9.0
2024-02-28 11:28:32.302578,1709116112.3025784,-42.48046875,-27.34375,-23.4375,-56.15234375,1.0,1.0,1.0,1.0,3.m4v,9.0
2024-02-28 11:28:32.306484,1709116112.3064845,-42.48046875,-30.2734375,-35.64453125,-24.90234375,1.0,1.0,1.0,1.0,3.m4v,9.0
2024-02-28 11:28:32.310390,1709116112.3103902,-34.1796875,-29.78515625,-41.9921875,2.9296875,1.0,1.0,1.0,1.0,3.m4v,9.0
2024-02-28 11:28:32.314296,1709116112.3142962,-3.41796875,-32.71484375,-35.15625,-17.578125,1.0,1.0,1.0,1.0,3.m4v,9.0
2024-02-28 11:28:32.318202,1709116112.3182025,-22.94921875,-39.0625,-29.296875,-38.57421875,1.0,1.0,1.0,1.0,3.m4v,9.0
2024-02-28 11:28:33.072044,1709116113.0720444,-29.296875,-28.80859375,-35.15625,-29.78515625,1.0,1.0,1.0,1.0,3.m4v,9.0
2024-02-28 11:28:33.075950,1709116113.07595,-13.671875,-37.109375,-37.109375,-26.85546875,1.0,1.0,1.0,1.0,3.m4v,9.0
2024-02-28 11:28:33.079856,1709116113.0798562,-22.4609375,-57.12890625,-37.109375,-19.04296875,1.0,1.0,1.0,1.0,3.m4v,9.0
2024-02-28 11:28:33.083762,1709116113.0837622,-38.0859375,-51.7578125,-35.15625,-30.2734375,1.0,1.0,1.0,1.0,3.m4v,9.0
2024-02-28 11:28:33.087668,1709116113.087668,-31.25,-26.85546875,-38.0859375,-33.203125,1.0,1.0,1.0,1.0,3.m4v,9.0
2024-02-28 11:28:33.091574,1709116113.091574,-25.87890625,-20.99609375,-36.1328125,-40.0390625,1.0,1.0,1.0,1.0,3.m4v,9.0
2024-02-28 11:28:33.095480,1709116113.09548,-22.4609375,-19.53125,-34.66796875,-45.41015625,1.0,1.0,1.0,1.0,3.m4v,9.0
2024-02-28 11:28:33.400142,1709116113.400142,-49.31640625,-44.921875,-26.85546875,-53.22265625,1.0,1.0,1.0,1.0,3.m4v,9.0
2024-02-28 11:28:33.411860,1709116113.4118598,-22.94921875,-28.80859375,-32.71484375,-9.765625,1.0,1.0,1.0,1.0,3.m4v,9.0
2024-02-28 11:28:33.423578,1709116113.4235775,-36.62109375,-37.109375,-35.64453125,-45.41015625,1.0,1.0,1.0,1.0,3.m4v,9.0
2024-02-28 11:28:33.435296,1709116113.4352956,-41.50390625,-39.55078125,-29.296875,-40.52734375,1.0,1.0,1.0,1.0,3.m4v,9.0
2024-02-28 11:28:33.447013,1709116113.4470134,-26.85546875,-41.9921875,-33.69140625,-38.0859375,1.0,1.0,1.0,1.0,3.m4v,9.0
2024-02-28 11:28:33.458731,1709116113.4587312,-7.32421875,-48.33984375,-31.25,-43.45703125,1.0,1.0,1.0,1.0,3.m4v,9.0
2024-02-28 11:28:33.470449,1709116113.470449,-53.22265625,-39.55078125,-40.52734375,-14.6484375,1.0,1.0,1.0,1.0,3.m4v,9.0
2024-02-28 11:28:33.482167,1709116113.482167,-30.2734375,-27.34375,-32.2265625,-10.7421875,1.0,1.0,1.0,1.0,3.m4v,9.0
2024-02-28 11:28:33.493885,1709116113.4938848,-34.66796875,-29.296875,-25.87890625,-30.2734375,1.0,1.0,1.0,1.0,3.m4v,9.0
2024-02-28 11:28:33.505603,1709116113.5056026,-54.19921875,-32.2265625,-20.01953125,-70.80078125,1.0,1.0,1.0,1.0,3.m4v,9.0
2024-02-28 11:28:33.509509,1709116113.5095086,-41.9921875,-33.203125,-31.25,-36.1328125,1.0,1.0,1.0,1.0,3.m4v,9.0
2024-02-28 11:28:33.513414,1709116113.5134144,-32.2265625,-29.78515625,-41.9921875,-30.2734375,1.0,1.0,1.0,1.0,3.m4v,9.0
2024-02-28 11:28:33.517320,1709116113.5173204,-45.8984375,-39.0625,-34.66796875,-21.484375,1.0,1.0,1.0,1.0,3.m4v,9.0
2024-02-28 11:28:33.521226,1709116113.5212262,-42.96875,-49.8046875,-24.4140625,-7.32421875,1.0,1.0,1.0,1.0,3.m4v,9.0
2024-02-28 11:28:33.525132,1709116113.525132,-41.50390625,-49.8046875,-20.01953125,-29.296875,1.0,1.0,1.0,1.0,3.m4v,9.0
2024-02-28 11:28:33.529038,1709116113.529038,-31.25,-41.50390625,-18.06640625,-21.97265625,1.0,1.0,1.0,1.0,3.m4v,9.0
2024-02-28 11:28:33.532944,1709116113.532944,-35.15625,-36.62109375,-26.85546875,-41.50390625,1.0,1.0,1.0,1.0,3.m4v,9.0
2024-02-28 11:28:33.536850,1709116113.5368495,-27.34375,-27.83203125,-37.109375,-46.38671875,1.0,1.0,1.0,1.0,3.m4v,9.0
2024-02-28 11:28:33.540756,1709116113.5407555,-26.3671875,-29.296875,-36.62109375,-7.8125,1.0,1.0,1.0,1.0,3.m4v,9.0
2024-02-28 11:28:33.544662,1709116113.5446618,-48.828125,-38.57421875,-39.55078125,-37.109375,1.0,1.0,1.0,1.0,3.m4v,9.0
2024-02-28 11:28:33.548568,1709116113.5485675,-48.33984375,-40.0390625,-42.96875,-59.5703125,1.0,1.0,1.0,1.0,3.m4v,9.0
2024-02-28 11:28:33.552474,1709116113.5524735,-31.73828125,-43.9453125,-33.203125,-49.8046875,1.0,1.0,1.0,1.0,3.m4v,9.0
2024-02-28 11:28:33.556379,1709116113.5563793,-43.45703125,-32.71484375,-33.69140625,-47.36328125,1.0,1.0,1.0,1.0,3.m4v,9.0
2024-02-28 11:28:33.560285,1709116113.560285,-59.5703125,-22.94921875,-37.109375,-38.0859375,1.0,1.0,1.0,1.0,3.m4v,9.0
2024-02-28 11:28:33.564191,1709116113.564191,-55.6640625,-27.83203125,-26.3671875,-33.69140625,1.0,1.0,1.0,1.0,3.m4v,9.0
2024-02-28 11:28:33.568097,1709116113.5680969,-31.25,-27.83203125,-23.92578125,-26.85546875,1.0,1.0,1.0,1.0,3.m4v,9.0
2024-02-28 11:28:33.572003,1709116113.572003,-15.625,-28.80859375,-28.3203125,-23.4375,1.0,1.0,1.0,1.0,3.m4v,9.0
2024-02-28 11:28:33.575909,1709116113.575909,-38.0859375,-27.34375,-31.73828125,-31.25,1.0,1.0,1.0,1.0,3.m4v,9.0
2024-02-28 11:28:33.579815,1709116113.579815,-62.01171875,-26.3671875,-30.76171875,-34.66796875,1.0,1.0,1.0,1.0,3.m4v,9.0
2024-02-28 11:28:33.583721,1709116113.5837207,-46.875,-37.109375,-36.1328125,-6.8359375,1.0,1.0,1.0,1.0,3.m4v,9.0
2024-02-28 11:28:33.587626,1709116113.5876265,-33.69140625,-39.0625,-39.0625,-26.3671875,1.0,1.0,1.0,1.0,3.m4v,9.0
2024-02-28 11:28:33.591532,1709116113.5915325,-47.36328125,-34.1796875,-46.38671875,-63.96484375,1.0,1.0,1.0,1.0,3.m4v,9.0
2024-02-28 11:28:33.595438,1709116113.5954385,-44.921875,-41.9921875,-45.41015625,-43.45703125,1.0,1.0,1.0,1.0,3.m4v,9.0
2024-02-28 11:28:33.599344,1709116113.5993445,-37.59765625,-55.17578125,-31.73828125,-35.64453125,1.0,1.0,1.0,1.0,3.m4v,9.0
2024-02-28 11:28:33.603250,1709116113.6032505,-43.9453125,-51.7578125,-33.203125,-42.48046875,1.0,1.0,1.0,1.0,3.m4v,9.0
2024-02-28 11:28:33.607156,1709116113.6071565,-46.875,-35.15625,-34.1796875,-45.8984375,1.0,1.0,1.0,1.0,3.m4v,9.0
2024-02-28 11:28:33.611062,1709116113.611062,-55.17578125,-26.85546875,-35.64453125,-46.38671875,1.0,1.0,1.0,1.0,3.m4v,9.0
2024-02-28 11:28:33.614968,1709116113.6149676,-23.92578125,-25.390625,-40.0390625,-39.55078125,1.0,1.0,1.0,1.0,3.m4v,9.0
2024-02-28 11:28:33.618874,1709116113.6188736,-25.390625,-26.3671875,-33.69140625,-34.1796875,1.0,1.0,1.0,1.0,3.m4v,9.0
2024-02-28 11:28:33.622779,1709116113.6227794,-60.546875,-36.1328125,-35.64453125,-43.9453125,1.0,1.0,1.0,1.0,3.m4v,9.0
2024-02-28 11:28:33.626685,1709116113.6266854,-52.734375,-46.38671875,-36.1328125,-28.80859375,1.0,1.0,1.0,1.0,3.m4v,9.0
2024-02-28 11:28:33.630591,1709116113.6305914,-39.55078125,-36.62109375,-32.71484375,-34.1796875,1.0,1.0,1.0,1.0,3.m4v,9.0
2024-02-28 11:28:33.634497,1709116113.6344972,-42.48046875,-21.97265625,-38.0859375,-35.64453125,1.0,1.0,1.0,1.0,3.m4v,9.0
2024-02-28 11:28:33.864948,1709116113.864948,-50.29296875,-36.62109375,-40.0390625,-27.83203125,1.0,1.0,1.0,1.0,3.m4v,9.0
2024-02-28 11:28:33.868854,1709116113.868854,-16.11328125,-24.90234375,-31.25,-39.0625,1.0,1.0,1.0,1.0,3.m4v,9.0
2024-02-28 11:28:33.872760,1709116113.87276,-13.18359375,-23.4375,-34.66796875,-51.7578125,1.0,1.0,1.0,1.0,3.m4v,9.0
2024-02-28 11:28:33.876666,1709116113.8766658,-55.17578125,-37.109375,-49.8046875,-60.05859375,1.0,1.0,1.0,1.0,3.m4v,9.0
2024-02-28 11:28:33.880572,1709116113.8805718,-74.70703125,-51.26953125,-41.015625,-36.62109375,1.0,1.0,1.0,1.0,3.m4v,9.0
2024-02-28 11:28:33.884478,1709116113.884478,-57.6171875,-36.1328125,-28.3203125,-27.34375,1.0,1.0,1.0,1.0,3.m4v,9.0
2024-02-28 11:28:33.888384,1709116113.8883836,-40.52734375,-18.06640625,-25.390625,-41.015625,1.0,1.0,1.0,1.0,3.m4v,9.0
2024-02-28 11:28:33.892290,1709116113.8922896,-45.8984375,-21.97265625,-29.296875,-50.29296875,1.0,1.0,1.0,1.0,3.m4v,9.0
2024-02-28 11:28:33.896195,1709116113.8961954,-43.9453125,-35.15625,-26.85546875,-44.43359375,1.0,1.0,1.0,1.0,3.m4v,9.0
2024-02-28 11:28:33.900101,1709116113.9001012,-39.55078125,-37.109375,-27.34375,-38.57421875,1.0,1.0,1.0,1.0,3.m4v,9.0
2024-02-28 11:28:33.904007,1709116113.9040072,-23.4375,-28.80859375,-34.1796875,-24.4140625,1.0,1.0,1.0,1.0,3.m4v,9.0
2024-02-28 11:28:33.907913,1709116113.9079132,-31.25,-30.76171875,-37.59765625,-28.80859375,1.0,1.0,1.0,1.0,3.m4v,9.0
2024-02-28 11:28:33.911819,1709116113.911819,-44.43359375,-46.875,-37.59765625,-3.41796875,1.0,1.0,1.0,1.0,3.m4v,9.0
2024-02-28 11:28:33.915725,1709116113.915725,-29.296875,-42.96875,-34.66796875,3.41796875,1.0,1.0,1.0,1.0,3.m4v,9.0
2024-02-28 11:28:33.919631,1709116113.919631,-25.390625,-17.08984375,-37.59765625,-62.01171875,1.0,1.0,1.0,1.0,3.m4v,9.0
2024-02-28 11:28:34.083679,1709116114.083679,-39.55078125,-31.73828125,-29.78515625,-24.4140625,1.0,1.0,1.0,1.0,3.m4v,9.0
2024-02-28 11:28:34.087585,1709116114.087585,-48.828125,-42.96875,-18.5546875,-17.578125,1.0,1.0,1.0,1.0,3.m4v,9.0
2024-02-28 11:28:34.091491,1709116114.0914907,-35.15625,-43.45703125,-23.92578125,-28.80859375,1.0,1.0,1.0,1.0,3.m4v,9.0
2024-02-28 11:28:34.095397,1709116114.0953968,-35.15625,-25.87890625,-32.71484375,-32.71484375,1.0,1.0,1.0,1.0,3.m4v,9.0
2024-02-28 11:28:34.099303,1709116114.0993028,-38.57421875,-23.92578125,-34.1796875,-38.57421875,1.0,1.0,1.0,1.0,3.m4v,9.0
2024-02-28 11:28:34.103209,1709116114.1032083,-40.0390625,-23.92578125,-41.015625,-44.921875,1.0,1.0,1.0,1.0,3.m4v,9.0
2024-02-28 11:28:34.107115,1709116114.1071146,-50.29296875,-23.92578125,-37.109375,-26.3671875,1.0,1.0,1.0,1.0,3.m4v,9.0
2024-02-28 11:28:34.111020,1709116114.1110203,-32.71484375,-30.2734375,-27.83203125,-23.92578125,1.0,1.0,1.0,1.0,3.m4v,9.0
2024-02-28 11:28:34.114926,1709116114.1149263,-17.578125,-28.80859375,-23.92578125,-12.6953125,1.0,1.0,1.0,1.0,3.m4v,9.0
2024-02-28 11:28:34.118832,1709116114.1188323,-27.34375,-30.76171875,-20.99609375,-23.4375,1.0,1.0,1.0,1.0,3.m4v,9.0
2024-02-28 11:28:34.122738,1709116114.122738,-31.25,-38.57421875,-21.97265625,-36.62109375,1.0,1.0,1.0,1.0,3.m4v,9.0
2024-02-28 11:28:34.126644,1709116114.126644,-19.53125,-41.9921875,-23.92578125,-31.73828125,1.0,1.0,1.0,1.0,3.m4v,9.0
2024-02-28 11:28:34.130551,1709116114.1305509,-9.765625,-34.1796875,-32.2265625,-41.50390625,1.0,1.0,1.0,1.0,3.m4v,9.0
2024-02-28 11:28:34.134457,1709116114.1344566,-13.18359375,-39.0625,-28.80859375,-27.34375,1.0,1.0,1.0,1.0,3.m4v,9.0
2024-02-28 11:28:34.138363,1709116114.1383626,-36.62109375,-48.828125,-27.83203125,-15.625,1.0,1.0,1.0,1.0,3.m4v,9.0
2024-02-28 11:28:34.142269,1709116114.142269,-41.50390625,-33.69140625,-36.62109375,-39.55078125,1.0,1.0,1.0,1.0,3.m4v,9.0
2024-02-28 11:28:34.146174,1709116114.1461744,-38.0859375,-18.06640625,-36.1328125,-37.59765625,1.0,1.0,1.0,1.0,3.m4v,9.0
2024-02-28 11:28:34.150080,1709116114.1500804,-43.9453125,-18.06640625,-33.69140625,-41.015625,1.0,1.0,1.0,1.0,3.m4v,9.0
2024-02-28 11:28:34.153986,1709116114.1539865,-17.578125,-19.53125,-35.15625,-57.6171875,1.0,1.0,1.0,1.0,3.m4v,9.0
2024-02-28 11:28:34.157892,1709116114.1578922,-4.8828125,-18.06640625,-34.66796875,-53.22265625,1.0,1.0,1.0,1.0,3.m4v,9.0
2024-02-28 11:28:34.161798,1709116114.1617982,-35.15625,-23.4375,-27.83203125,-47.8515625,1.0,1.0,1.0,1.0,3.m4v,9.0
2024-02-28 11:28:34.165704,1709116114.1657045,-54.19921875,-42.48046875,-30.2734375,-47.8515625,1.0,1.0,1.0,1.0,3.m4v,9.0
2024-02-28 11:28:34.169610,1709116114.16961,-44.43359375,-47.36328125,-33.203125,-43.45703125,1.0,1.0,1.0,1.0,3.m4v,9.0
2024-02-28 11:28:34.173516,1709116114.173516,-27.34375,-27.83203125,-33.203125,-51.7578125,1.0,1.0,1.0,1.0,3.m4v,9.0
2024-02-28 11:28:34.177422,1709116114.1774223,-38.0859375,-21.484375,-38.57421875,-57.12890625,1.0,1.0,1.0,1.0,3.m4v,9.0
2024-02-28 11:28:34.181328,1709116114.1813283,-41.015625,-19.53125,-33.69140625,-5.859375,1.0,1.0,1.0,1.0,3.m4v,9.0
2024-02-28 11:28:34.185234,1709116114.185234,-30.76171875,-20.01953125,-34.1796875,-17.578125,1.0,1.0,1.0,1.0,3.m4v,9.0
2024-02-28 11:28:34.189140,1709116114.18914,-19.04296875,-38.57421875,-46.875,-53.22265625,1.0,1.0,1.0,1.0,3.m4v,9.0
2024-02-28 11:28:34.193046,1709116114.193046,-19.04296875,-39.0625,-46.875,-60.05859375,1.0,1.0,1.0,1.0,3.m4v,9.0
2024-02-28 11:28:34.196952,1709116114.196952,-31.25,-23.92578125,-32.2265625,-62.98828125,1.0,1.0,1.0,1.0,3.m4v,9.0
2024-02-28 11:28:34.200858,1709116114.200858,-27.83203125,-36.1328125,-29.296875,-41.50390625,1.0,1.0,1.0,1.0,3.m4v,9.0
2024-02-28 11:28:34.204764,1709116114.2047637,-25.390625,-43.45703125,-25.87890625,-36.62109375,1.0,1.0,1.0,1.0,3.m4v,9.0
2024-02-28 11:28:34.208670,1709116114.2086697,-43.9453125,-42.96875,-21.97265625,-34.1796875,1.0,1.0,1.0,1.0,3.m4v,9.0
2024-02-28 11:28:34.212576,1709116114.2125757,-30.76171875,-47.36328125,-24.90234375,-27.34375,1.0,1.0,1.0,1.0,3.m4v,9.0
2024-02-28 11:28:34.216481,1709116114.2164814,-39.55078125,-40.52734375,-28.3203125,-29.78515625,1.0,1.0,1.0,1.0,3.m4v,9.0
2024-02-28 11:28:34.220387,1709116114.2203877,-56.15234375,-37.59765625,-35.15625,-27.34375,1.0,1.0,1.0,1.0,3.m4v,9.0
2024-02-28 11:28:34.224294,1709116114.224294,-59.08203125,-42.48046875,-40.0390625,-27.83203125,1.0,1.0,1.0,1.0,3.m4v,9.0
2024-02-28 11:28:34.228200,1709116114.2282,-40.0390625,-39.55078125,-35.64453125,-37.109375,1.0,1.0,1.0,1.0,3.m4v,9.0
2024-02-28 11:28:34.232106,1709116114.2321055,-14.16015625,-38.57421875,-31.73828125,-20.99609375,1.0,1.0,1.0,1.0,3.m4v,9.0
2024-02-28 11:28:34.236012,1709116114.2360115,-27.83203125,-37.109375,-35.15625,-16.6015625,1.0,1.0,1.0,1.0,3.m4v,9.0
2024-02-28 11:28:34.239918,1709116114.2399178,-42.96875,-28.3203125,-33.69140625,-36.62109375,1.0,1.0,1.0,1.0,3.m4v,9.0
2024-02-28 11:28:34.243824,1709116114.2438235,-37.109375,-25.390625,-27.83203125,-53.7109375,1.0,1.0,1.0,1.0,3.m4v,9.0
2024-02-28 11:28:34.247730,1709116114.2477295,-20.5078125,-28.3203125,-31.25,-38.0859375,1.0,1.0,1.0,1.0,3.m4v,9.0
2024-02-28 11:28:34.298507,1709116114.2985067,-50.78125,-58.59375,-25.87890625,-57.6171875,1.0,1.0,1.0,1.0,3.m4v,9.0
2024-02-28 11:28:34.302413,1709116114.3024127,-54.6875,-56.15234375,-22.94921875,-49.8046875,1.0,1.0,1.0,1.0,3.m4v,9.0
2024-02-28 11:28:34.306319,1709116114.3063183,-47.36328125,-47.8515625,-24.90234375,-42.96875,1.0,1.0,1.0,1.0,3.m4v,9.0
2024-02-28 11:28:34.310225,1709116114.3102243,-43.45703125,-33.69140625,-28.80859375,-25.87890625,1.0,1.0,1.0,1.0,3.m4v,9.0
2024-02-28 11:28:34.314130,1709116114.3141303,-27.34375,-31.25,-27.34375,-34.66796875,1.0,1.0,1.0,1.0,3.m4v,9.0
2024-02-28 11:28:34.318036,1709116114.3180358,-25.390625,-38.0859375,-32.71484375,-55.17578125,1.0,1.0,1.0,1.0,3.m4v,9.0
2024-02-28 11:28:34.321942,1709116114.321942,-36.62109375,-37.109375,-33.203125,-40.0390625,1.0,1.0,1.0,1.0,3.m4v,9.0
2024-02-28 11:28:34.325848,1709116114.3258476,-34.1796875,-37.109375,-31.25,-10.7421875,1.0,1.0,1.0,1.0,3.m4v,9.0
2024-02-28 11:28:34.329754,1709116114.3297536,-41.50390625,-35.15625,-30.76171875,-3.41796875,1.0,1.0,1.0,1.0,3.m4v,9.0
2024-02-28 11:28:34.333660,1709116114.3336596,-36.62109375,-32.2265625,-16.11328125,-20.99609375,1.0,1.0,1.0,1.0,3.m4v,9.0
2024-02-28 11:28:34.337565,1709116114.3375654,-41.9921875,-31.73828125,-16.6015625,-42.96875,1.0,1.0,1.0,1.0,3.m4v,9.0
2024-02-28 11:28:34.341471,1709116114.3414714,-55.17578125,-31.73828125,-28.80859375,-52.24609375,1.0,1.0,1.0,1.0,3.m4v,9.0
2024-02-28 11:28:34.345377,1709116114.3453774,-44.43359375,-37.109375,-31.25,-20.99609375,1.0,1.0,1.0,1.0,3.m4v,9.0
2024-02-28 11:28:34.349283,1709116114.3492832,-48.33984375,-39.55078125,-30.2734375,-10.25390625,1.0,1.0,1.0,1.0,3.m4v,9.0
2024-02-28 11:28:34.353189,1709116114.3531892,-57.6171875,-37.109375,-25.390625,-50.29296875,1.0,1.0,1.0,1.0,3.m4v,9.0
2024-02-28 11:28:34.357095,1709116114.3570952,-50.29296875,-36.1328125,-20.99609375,-51.7578125,1.0,1.0,1.0,1.0,3.m4v,9.0
2024-02-28 11:28:34.361001,1709116114.361001,-39.55078125,-36.62109375,-20.99609375,-37.59765625,1.0,1.0,1.0,1.0,3.m4v,9.0
2024-02-28 11:28:34.364906,1709116114.3649063,-39.0625,-34.1796875,-27.83203125,-33.69140625,1.0,1.0,1.0,1.0,3.m4v,9.0
2024-02-28 11:28:34.368812,1709116114.3688123,-29.296875,-34.66796875,-39.55078125,-31.25,1.0,1.0,1.0,1.0,3.m4v,9.0
2024-02-28 11:28:34.372718,1709116114.372718,-20.99609375,-39.0625,-40.52734375,-20.99609375,1.0,1.0,1.0,1.0,3.m4v,9.0
2024-02-28 11:28:34.376624,1709116114.376624,-33.203125,-32.2265625,-31.73828125,-23.4375,1.0,1.0,1.0,1.0,3.m4v,9.0
2024-02-28 11:28:34.380530,1709116114.38053,-33.69140625,-36.62109375,-26.3671875,-41.50390625,1.0,1.0,1.0,1.0,3.m4v,9.0
2024-02-28 11:28:34.384436,1709116114.384436,-33.69140625,-34.1796875,-21.484375,-48.828125,1.0,1.0,1.0,1.0,3.m4v,9.0
2024-02-28 11:28:34.388342,1709116114.388342,-48.828125,-19.53125,-37.109375,-45.41015625,1.0,1.0,1.0,1.0,3.m4v,9.0
2024-02-28 11:28:34.392248,1709116114.3922477,-54.19921875,-22.4609375,-44.43359375,-43.9453125,1.0,1.0,1.0,1.0,3.m4v,9.0
2024-02-28 11:28:34.396154,1709116114.3961537,-41.9921875,-28.3203125,-34.1796875,-29.296875,1.0,1.0,1.0,1.0,3.m4v,9.0
2024-02-28 11:28:34.400060,1709116114.4000597,-39.55078125,-30.76171875,-32.2265625,-29.78515625,1.0,1.0,1.0,1.0,3.m4v,9.0
2024-02-28 11:28:34.403965,1709116114.4039657,-28.80859375,-30.76171875,-33.203125,-24.4140625,1.0,1.0,1.0,1.0,3.m4v,9.0
2024-02-28 11:28:34.407871,1709116114.4078715,-15.625,-25.87890625,-28.3203125,-20.99609375,1.0,1.0,1.0,1.0,3.m4v,9.0
2024-02-28 11:28:34.411777,1709116114.4117763,-28.80859375,-21.97265625,-20.5078125,-19.04296875,1.0,1.0,1.0,1.0,3.m4v,9.0
2024-02-28 11:28:34.415683,1709116114.4156826,-10.7421875,-19.53125,-20.01953125,-10.25390625,1.0,1.0,1.0,1.0,3.m4v,9.0
2024-02-28 11:28:34.419588,1709116114.4195883,-4.39453125,-33.203125,-24.4140625,-18.5546875,1.0,1.0,1.0,1.0,3.m4v,9.0
2024-02-28 11:28:34.423494,1709116114.4234943,-29.296875,-44.921875,-25.87890625,-32.2265625,1.0,1.0,1.0,1.0,3.m4v,9.0
2024-02-28 11:28:34.427400,1709116114.4274004,-31.25,-30.2734375,-31.25,-27.34375,1.0,1.0,1.0,1.0,3.m4v,9.0
2024-02-28 11:28:34.431306,1709116114.431306,-43.45703125,-23.92578125,-35.15625,-29.78515625,1.0,1.0,1.0,1.0,3.m4v,9.0
2024-02-28 11:28:34.435212,1709116114.435212,-32.71484375,-28.80859375,-32.71484375,-43.45703125,1.0,1.0,1.0,1.0,3.m4v,9.0
2024-02-28 11:28:34.439118,1709116114.439118,-15.13671875,-30.2734375,-29.296875,-41.9921875,1.0,1.0,1.0,1.0,3.m4v,9.0
2024-02-28 11:28:34.443024,1709116114.443024,-29.78515625,-31.25,-30.2734375,-36.62109375,1.0,1.0,1.0,1.0,3.m4v,9.0
2024-02-28 11:28:34.446930,1709116114.44693,-54.19921875,-33.69140625,-40.52734375,-45.8984375,1.0,1.0,1.0,1.0,3.m4v,9.0
2024-02-28 11:28:34.450836,1709116114.4508357,-49.31640625,-37.109375,-44.921875,-54.19921875,1.0,1.0,1.0,1.0,3.m4v,9.0
2024-02-28 11:28:34.454742,1709116114.4547417,-35.15625,-28.80859375,-30.2734375,-23.92578125,1.0,1.0,1.0,1.0,3.m4v,9.0
2024-02-28 11:28:34.458647,1709116114.4586468,-37.109375,-25.87890625,-20.99609375,-10.7421875,1.0,1.0,1.0,1.0,3.m4v,9.0
2024-02-28 11:28:34.462553,1709116114.4625523,-34.66796875,-28.80859375,-22.4609375,-27.34375,1.0,1.0,1.0,1.0,3.m4v,9.0
2024-02-28 11:28:34.466459,1709116114.4664586,-32.71484375,-31.73828125,-19.04296875,-12.6953125,1.0,1.0,1.0,1.0,3.m4v,9.0
2024-02-28 11:28:34.470365,1709116114.4703646,-44.43359375,-41.50390625,-19.53125,-15.13671875,1.0,1.0,1.0,1.0,3.m4v,9.0
2024-02-28 11:28:34.474270,1709116114.4742703,-40.0390625,-38.57421875,-19.53125,-50.29296875,1.0,1.0,1.0,1.0,3.m4v,9.0
2024-02-28 11:28:34.478176,1709116114.4781764,-41.9921875,-31.73828125,-18.5546875,-41.015625,1.0,1.0,1.0,1.0,3.m4v,9.0
2024-02-28 11:28:34.482082,1709116114.4820824,-35.64453125,-46.875,-31.25,-11.71875,1.0,1.0,1.0,1.0,3.m4v,9.0
2024-02-28 11:28:34.485988,1709116114.485988,-24.4140625,-49.8046875,-38.57421875,-35.64453125,1.0,1.0,1.0,1.0,3.m4v,9.0
2024-02-28 11:28:34.489894,1709116114.4898942,-46.875,-31.73828125,-36.62109375,-62.01171875,1.0,1.0,1.0,1.0,3.m4v,9.0
2024-02-28 11:28:34.493800,1709116114.4938002,-56.15234375,-25.390625,-41.50390625,-33.203125,1.0,1.0,1.0,1.0,3.m4v,9.0
2024-02-28 11:28:34.497706,1709116114.497706,-47.8515625,-27.83203125,-39.55078125,-41.50390625,1.0,1.0,1.0,1.0,3.m4v,9.0
2024-02-28 11:28:34.501612,1709116114.501612,-48.828125,-28.3203125,-37.59765625,-48.33984375,1.0,1.0,1.0,1.0,3.m4v,9.0
2024-02-28 11:28:34.505518,1709116114.5055184,-44.43359375,-30.76171875,-35.64453125,-35.15625,1.0,1.0,1.0,1.0,3.m4v,9.0
2024-02-28 11:28:34.509424,1709116114.5094244,-49.31640625,-34.66796875,-32.2265625,-42.96875,1.0,1.0,1.0,1.0,3.m4v,9.0
2024-02-28 11:28:34.513330,1709116114.5133302,-43.9453125,-38.57421875,-39.0625,-21.484375,1.0,1.0,1.0,1.0,3.m4v,9.0
