Timestamp,Timestamp_UNIX,TP9,AF7,AF8,TP10,Valence,Arousal,Dominace,Viewed,Video,Participant
2024-02-28 10:41:02.000391,1709113262.0003915,-89.35546875,-28.80859375,-27.34375,-113.28125,1.0,1.0,1.0,1.0,7.m4v,8.0
2024-02-28 10:41:02.000391,1709113262.0003915,-89.35546875,-28.80859375,-27.34375,-113.28125,1.0,1.0,1.0,1.0,7.m4v,8.0
2024-02-28 10:41:02.000391,1709113262.0003915,-89.35546875,-28.80859375,-27.34375,-113.28125,1.0,1.0,1.0,1.0,7.m4v,8.0
2024-02-28 10:41:02.004297,1709113262.0042973,-72.265625,-30.2734375,-36.62109375,-76.171875,1.0,1.0,1.0,1.0,7.m4v,8.0
2024-02-28 10:41:02.004297,1709113262.0042973,-72.265625,-30.2734375,-36.62109375,-76.171875,1.0,1.0,1.0,1.0,7.m4v,8.0
2024-02-28 10:41:02.004297,1709113262.0042973,-72.265625,-30.2734375,-36.62109375,-76.171875,1.0,1.0,1.0,1.0,7.m4v,8.0
2024-02-28 10:41:02.008203,1709113262.008203,-53.7109375,-39.0625,-69.82421875,-41.50390625,1.0,1.0,1.0,1.0,7.m4v,8.0
2024-02-28 10:41:02.008203,1709113262.008203,-53.7109375,-39.0625,-69.82421875,-41.50390625,1.0,1.0,1.0,1.0,7.m4v,8.0
2024-02-28 10:41:02.008203,1709113262.008203,-53.7109375,-39.0625,-69.82421875,-41.50390625,1.0,1.0,1.0,1.0,7.m4v,8.0
2024-02-28 10:41:02.012109,1709113262.0121088,-83.984375,-33.203125,-67.87109375,-60.05859375,1.0,1.0,1.0,1.0,7.m4v,8.0
2024-02-28 10:41:02.012109,1709113262.0121088,-83.984375,-33.203125,-67.87109375,-60.05859375,1.0,1.0,1.0,1.0,7.m4v,8.0
2024-02-28 10:41:02.012109,1709113262.0121088,-83.984375,-33.203125,-67.87109375,-60.05859375,1.0,1.0,1.0,1.0,7.m4v,8.0
2024-02-28 10:41:02.016016,1709113262.0160155,-89.84375,-33.203125,-20.01953125,-106.93359375,1.0,1.0,1.0,1.0,7.m4v,8.0
2024-02-28 10:41:02.016016,1709113262.0160155,-89.84375,-33.203125,-20.01953125,-106.93359375,1.0,1.0,1.0,1.0,7.m4v,8.0
2024-02-28 10:41:02.016016,1709113262.0160155,-89.84375,-33.203125,-20.01953125,-106.93359375,1.0,1.0,1.0,1.0,7.m4v,8.0
2024-02-28 10:41:02.019921,1709113262.0199213,-89.84375,-43.45703125,-25.390625,-95.21484375,1.0,1.0,1.0,1.0,7.m4v,8.0
2024-02-28 10:41:02.019921,1709113262.0199213,-89.84375,-43.45703125,-25.390625,-95.21484375,1.0,1.0,1.0,1.0,7.m4v,8.0
2024-02-28 10:41:02.019921,1709113262.0199213,-89.84375,-43.45703125,-25.390625,-95.21484375,1.0,1.0,1.0,1.0,7.m4v,8.0
2024-02-28 10:41:02.023827,1709113262.023827,-113.76953125,-38.57421875,-46.875,-85.44921875,1.0,1.0,1.0,1.0,7.m4v,8.0
2024-02-28 10:41:02.023827,1709113262.023827,-113.76953125,-38.57421875,-46.875,-85.44921875,1.0,1.0,1.0,1.0,7.m4v,8.0
2024-02-28 10:41:02.023827,1709113262.023827,-113.76953125,-38.57421875,-46.875,-85.44921875,1.0,1.0,1.0,1.0,7.m4v,8.0
2024-02-28 10:41:02.027733,1709113262.0277328,-121.09375,-29.296875,-27.34375,-72.265625,1.0,1.0,1.0,1.0,7.m4v,8.0
2024-02-28 10:41:02.027733,1709113262.0277328,-121.09375,-29.296875,-27.34375,-72.265625,1.0,1.0,1.0,1.0,7.m4v,8.0
2024-02-28 10:41:02.027733,1709113262.0277328,-121.09375,-29.296875,-27.34375,-72.265625,1.0,1.0,1.0,1.0,7.m4v,8.0
2024-02-28 10:41:02.031639,1709113262.0316386,-104.00390625,-31.25,-20.5078125,-76.66015625,1.0,1.0,1.0,1.0,7.m4v,8.0
2024-02-28 10:41:02.031639,1709113262.0316386,-104.00390625,-31.25,-20.5078125,-76.66015625,1.0,1.0,1.0,1.0,7.m4v,8.0
2024-02-28 10:41:02.031639,1709113262.0316386,-104.00390625,-31.25,-20.5078125,-76.66015625,1.0,1.0,1.0,1.0,7.m4v,8.0
2024-02-28 10:41:02.035544,1709113262.0355444,-90.33203125,-37.59765625,-41.015625,-25.390625,1.0,1.0,1.0,1.0,7.m4v,8.0
2024-02-28 10:41:02.035544,1709113262.0355444,-90.33203125,-37.59765625,-41.015625,-25.390625,1.0,1.0,1.0,1.0,7.m4v,8.0
2024-02-28 10:41:02.035544,1709113262.0355444,-90.33203125,-37.59765625,-41.015625,-25.390625,1.0,1.0,1.0,1.0,7.m4v,8.0
2024-02-28 10:41:02.039450,1709113262.0394502,-65.91796875,-36.1328125,-65.91796875,-64.94140625,1.0,1.0,1.0,1.0,7.m4v,8.0
2024-02-28 10:41:02.039450,1709113262.0394502,-65.91796875,-36.1328125,-65.91796875,-64.94140625,1.0,1.0,1.0,1.0,7.m4v,8.0
2024-02-28 10:41:02.039450,1709113262.0394502,-65.91796875,-36.1328125,-65.91796875,-64.94140625,1.0,1.0,1.0,1.0,7.m4v,8.0
2024-02-28 10:41:02.043356,1709113262.043356,-79.1015625,-37.109375,-53.22265625,-171.875,1.0,1.0,1.0,1.0,7.m4v,8.0
2024-02-28 10:41:02.043356,1709113262.043356,-79.1015625,-37.109375,-53.22265625,-171.875,1.0,1.0,1.0,1.0,7.m4v,8.0
2024-02-28 10:41:02.043356,1709113262.043356,-79.1015625,-37.109375,-53.22265625,-171.875,1.0,1.0,1.0,1.0,7.m4v,8.0
2024-02-28 10:41:02.047262,1709113262.047262,-165.0390625,-56.640625,-25.390625,-158.69140625,1.0,1.0,1.0,1.0,7.m4v,8.0
2024-02-28 10:41:02.047262,1709113262.047262,-165.0390625,-56.640625,-25.390625,-158.69140625,1.0,1.0,1.0,1.0,7.m4v,8.0
2024-02-28 10:41:02.047262,1709113262.047262,-165.0390625,-56.640625,-25.390625,-158.69140625,1.0,1.0,1.0,1.0,7.m4v,8.0
2024-02-28 10:41:02.051168,1709113262.0511675,-147.94921875,-48.828125,-16.11328125,-123.046875,1.0,1.0,1.0,1.0,7.m4v,8.0
2024-02-28 10:41:02.051168,1709113262.0511675,-147.94921875,-48.828125,-16.11328125,-123.046875,1.0,1.0,1.0,1.0,7.m4v,8.0
2024-02-28 10:41:02.051168,1709113262.0511675,-147.94921875,-48.828125,-16.11328125,-123.046875,1.0,1.0,1.0,1.0,7.m4v,8.0
2024-02-28 10:41:02.055073,1709113262.0550735,-124.0234375,-25.87890625,-9.765625,-61.5234375,1.0,1.0,1.0,1.0,7.m4v,8.0
2024-02-28 10:41:02.055073,1709113262.0550735,-124.0234375,-25.87890625,-9.765625,-61.5234375,1.0,1.0,1.0,1.0,7.m4v,8.0
2024-02-28 10:41:02.055073,1709113262.0550735,-124.0234375,-25.87890625,-9.765625,-61.5234375,1.0,1.0,1.0,1.0,7.m4v,8.0
2024-02-28 10:41:02.055073,1709113262.0550735,-124.0234375,-25.87890625,-9.765625,-61.5234375,1.0,1.0,1.0,1.0,7.m4v,8.0
2024-02-28 10:41:02.058979,1709113262.0589793,-129.8828125,-27.34375,-17.08984375,-97.16796875,1.0,1.0,1.0,1.0,7.m4v,8.0
2024-02-28 10:41:02.062886,1709113262.0628858,-77.1484375,-29.296875,-36.62109375,-98.6328125,1.0,1.0,1.0,1.0,7.m4v,8.0
2024-02-28 10:41:02.066792,1709113262.0667915,-73.73046875,-36.1328125,-49.8046875,-77.1484375,1.0,1.0,1.0,1.0,7.m4v,8.0
2024-02-28 10:41:02.070697,1709113262.0706973,-94.7265625,-33.203125,-25.87890625,-47.8515625,1.0,1.0,1.0,1.0,7.m4v,8.0
2024-02-28 10:41:02.074603,1709113262.074603,-85.9375,-25.390625,-28.3203125,-3.41796875,1.0,1.0,1.0,1.0,7.m4v,8.0
2024-02-28 10:41:02.074603,1709113262.074603,-85.9375,-25.390625,-28.3203125,-3.41796875,1.0,1.0,1.0,1.0,7.m4v,8.0
2024-02-28 10:41:02.078509,1709113262.0785089,-91.796875,-21.97265625,-66.40625,-64.453125,1.0,1.0,1.0,1.0,7.m4v,8.0
2024-02-28 10:41:02.082415,1709113262.0824146,-59.5703125,-32.2265625,-39.55078125,-119.62890625,1.0,1.0,1.0,1.0,7.m4v,8.0
2024-02-28 10:41:02.082415,1709113262.0824146,-59.5703125,-32.2265625,-39.55078125,-119.62890625,1.0,1.0,1.0,1.0,7.m4v,8.0
2024-02-28 10:41:02.086320,1709113262.0863204,-26.85546875,-40.0390625,-13.671875,-80.078125,1.0,1.0,1.0,1.0,7.m4v,8.0
2024-02-28 10:41:02.090226,1709113262.0902262,-62.01171875,-40.52734375,-17.08984375,-50.29296875,1.0,1.0,1.0,1.0,7.m4v,8.0
2024-02-28 10:41:02.090226,1709113262.0902262,-62.01171875,-40.52734375,-17.08984375,-50.29296875,1.0,1.0,1.0,1.0,7.m4v,8.0
2024-02-28 10:41:02.094132,1709113262.094132,-54.6875,-44.921875,-34.66796875,-40.0390625,1.0,1.0,1.0,1.0,7.m4v,8.0
2024-02-28 10:41:02.101944,1709113262.1019435,-8.7890625,-35.64453125,-46.875,8.30078125,1.0,1.0,1.0,1.0,7.m4v,8.0
2024-02-28 10:41:02.105850,1709113262.1058495,-41.50390625,-41.9921875,-42.96875,6.8359375,1.0,1.0,1.0,1.0,7.m4v,8.0
2024-02-28 10:41:02.109756,1709113262.1097558,-37.109375,-62.98828125,-49.8046875,-36.1328125,1.0,1.0,1.0,1.0,7.m4v,8.0
2024-02-28 10:41:02.195684,1709113262.1956837,-19.53125,-36.62109375,-48.828125,-62.01171875,1.0,1.0,1.0,1.0,7.m4v,8.0
2024-02-28 10:41:02.203496,1709113262.2034955,-48.33984375,-39.55078125,-47.8515625,-41.015625,1.0,1.0,1.0,1.0,7.m4v,8.0
2024-02-28 10:41:02.211307,1709113262.2113073,-27.34375,-33.203125,-31.25,-33.69140625,1.0,1.0,1.0,1.0,7.m4v,8.0
2024-02-28 10:41:02.219119,1709113262.2191188,-22.4609375,-44.43359375,-7.32421875,-30.2734375,1.0,1.0,1.0,1.0,7.m4v,8.0
2024-02-28 10:41:02.226930,1709113262.2269304,-32.2265625,-31.25,-66.40625,-28.80859375,1.0,1.0,1.0,1.0,7.m4v,8.0
2024-02-28 10:41:02.242553,1709113262.2425537,-31.25,-32.2265625,-51.7578125,-35.15625,1.0,1.0,1.0,1.0,7.m4v,8.0
2024-02-28 10:41:02.265989,1709113262.2659886,-23.92578125,-32.71484375,-78.61328125,-16.11328125,1.0,1.0,1.0,1.0,7.m4v,8.0
2024-02-28 10:41:02.289423,1709113262.2894232,-53.7109375,-51.7578125,-60.546875,-34.66796875,1.0,1.0,1.0,1.0,7.m4v,8.0
2024-02-28 10:41:02.297235,1709113262.297235,-49.31640625,-20.5078125,-3.90625,-20.99609375,1.0,1.0,1.0,1.0,7.m4v,8.0
2024-02-28 10:41:02.305047,1709113262.3050466,-36.1328125,-58.59375,3.90625,-48.33984375,1.0,1.0,1.0,1.0,7.m4v,8.0
2024-02-28 10:41:02.312858,1709113262.312858,-26.85546875,-33.203125,-42.96875,-44.43359375,1.0,1.0,1.0,1.0,7.m4v,8.0
2024-02-28 10:41:02.320670,1709113262.3206697,-48.33984375,-61.5234375,-22.94921875,-46.38671875,1.0,1.0,1.0,1.0,7.m4v,8.0
2024-02-28 10:41:02.328481,1709113262.3284812,-48.33984375,-18.5546875,-67.87109375,-21.97265625,1.0,1.0,1.0,1.0,7.m4v,8.0
2024-02-28 10:41:02.336293,1709113262.3362927,-12.6953125,-20.01953125,-38.0859375,-54.6875,1.0,1.0,1.0,1.0,7.m4v,8.0
2024-02-28 10:41:02.340199,1709113262.3401985,-17.08984375,-30.76171875,-33.69140625,-50.29296875,1.0,1.0,1.0,1.0,7.m4v,8.0
2024-02-28 10:41:02.344105,1709113262.3441043,-25.390625,-35.15625,-27.83203125,-3.41796875,1.0,1.0,1.0,1.0,7.m4v,8.0
2024-02-28 10:41:02.348010,1709113262.3480103,-40.52734375,-37.59765625,-25.390625,-43.45703125,1.0,1.0,1.0,1.0,7.m4v,8.0
2024-02-28 10:41:02.351916,1709113262.351916,-39.55078125,-43.45703125,-11.23046875,-41.50390625,1.0,1.0,1.0,1.0,7.m4v,8.0
2024-02-28 10:41:02.355822,1709113262.3558218,3.41796875,-37.59765625,-24.90234375,-12.6953125,1.0,1.0,1.0,1.0,7.m4v,8.0
2024-02-28 10:41:02.359728,1709113262.3597276,-21.484375,-35.15625,-45.41015625,-4.39453125,1.0,1.0,1.0,1.0,7.m4v,8.0
2024-02-28 10:41:02.363633,1709113262.3636334,-55.17578125,-36.62109375,-33.69140625,-17.578125,1.0,1.0,1.0,1.0,7.m4v,8.0
2024-02-28 10:41:02.367539,1709113262.3675392,-59.08203125,-38.57421875,-14.6484375,-70.3125,1.0,1.0,1.0,1.0,7.m4v,8.0
2024-02-28 10:41:02.371445,1709113262.371445,-48.33984375,-38.0859375,-23.4375,-70.80078125,1.0,1.0,1.0,1.0,7.m4v,8.0
2024-02-28 10:41:02.375351,1709113262.3753507,-28.80859375,-21.484375,-67.3828125,-51.26953125,1.0,1.0,1.0,1.0,7.m4v,8.0
2024-02-28 10:41:02.379256,1709113262.3792565,-20.01953125,-25.390625,-62.5,-2.9296875,1.0,1.0,1.0,1.0,7.m4v,8.0
2024-02-28 10:41:02.383162,1709113262.3831625,-16.11328125,-37.109375,-22.4609375,-20.99609375,1.0,1.0,1.0,1.0,7.m4v,8.0
2024-02-28 10:41:02.387068,1709113262.387068,-11.23046875,-38.0859375,-12.6953125,-82.03125,1.0,1.0,1.0,1.0,7.m4v,8.0
2024-02-28 10:41:02.390975,1709113262.3909748,-63.96484375,-25.390625,-15.13671875,-68.359375,1.0,1.0,1.0,1.0,7.m4v,8.0
2024-02-28 10:41:02.394881,1709113262.3948803,-62.98828125,-22.4609375,-20.01953125,-44.921875,1.0,1.0,1.0,1.0,7.m4v,8.0
2024-02-28 10:41:02.398786,1709113262.3987863,-23.92578125,-38.57421875,-48.33984375,-29.78515625,1.0,1.0,1.0,1.0,7.m4v,8.0
2024-02-28 10:41:02.402692,1709113262.402692,-18.5546875,-33.203125,-47.8515625,10.7421875,1.0,1.0,1.0,1.0,7.m4v,8.0
2024-02-28 10:41:02.406598,1709113262.406598,-21.484375,-35.15625,-33.69140625,38.57421875,1.0,1.0,1.0,1.0,7.m4v,8.0
2024-02-28 10:41:02.410504,1709113262.4105036,-26.85546875,-51.26953125,-49.8046875,-39.0625,1.0,1.0,1.0,1.0,7.m4v,8.0
2024-02-28 10:41:02.418315,1709113262.4183154,-20.99609375,-34.1796875,-35.64453125,-30.2734375,1.0,1.0,1.0,1.0,7.m4v,8.0
2024-02-28 10:41:02.422221,1709113262.4222212,-22.4609375,-40.0390625,-5.859375,-50.78125,1.0,1.0,1.0,1.0,7.m4v,8.0
2024-02-28 10:41:02.422221,1709113262.4222212,-22.4609375,-40.0390625,-5.859375,-50.78125,1.0,1.0,1.0,1.0,7.m4v,8.0
2024-02-28 10:41:02.426127,1709113262.426127,-20.5078125,-45.41015625,6.8359375,-42.96875,1.0,1.0,1.0,1.0,7.m4v,8.0
2024-02-28 10:41:02.426127,1709113262.426127,-20.5078125,-45.41015625,6.8359375,-42.96875,1.0,1.0,1.0,1.0,7.m4v,8.0
2024-02-28 10:41:02.430033,1709113262.4300327,-10.7421875,-43.9453125,-10.25390625,-28.80859375,1.0,1.0,1.0,1.0,7.m4v,8.0
2024-02-28 10:41:02.430033,1709113262.4300327,-10.7421875,-43.9453125,-10.25390625,-28.80859375,1.0,1.0,1.0,1.0,7.m4v,8.0
2024-02-28 10:41:02.437845,1709113262.437845,-1.953125,-28.3203125,-78.61328125,-12.20703125,1.0,1.0,1.0,1.0,7.m4v,8.0
2024-02-28 10:41:02.437845,1709113262.437845,-1.953125,-28.3203125,-78.61328125,-12.20703125,1.0,1.0,1.0,1.0,7.m4v,8.0
2024-02-28 10:41:02.445657,1709113262.4456563,7.8125,-32.2265625,-12.20703125,21.484375,1.0,1.0,1.0,1.0,7.m4v,8.0
2024-02-28 10:41:02.445657,1709113262.4456563,7.8125,-32.2265625,-12.20703125,21.484375,1.0,1.0,1.0,1.0,7.m4v,8.0
2024-02-28 10:41:02.453468,1709113262.453468,-2.9296875,-33.69140625,-37.109375,-38.0859375,1.0,1.0,1.0,1.0,7.m4v,8.0
2024-02-28 10:41:02.453468,1709113262.453468,-2.9296875,-33.69140625,-37.109375,-38.0859375,1.0,1.0,1.0,1.0,7.m4v,8.0
2024-02-28 10:41:02.461280,1709113262.4612796,-2.9296875,-42.96875,-28.80859375,-40.52734375,1.0,1.0,1.0,1.0,7.m4v,8.0
2024-02-28 10:41:02.461280,1709113262.4612796,-2.9296875,-42.96875,-28.80859375,-40.52734375,1.0,1.0,1.0,1.0,7.m4v,8.0
2024-02-28 10:41:02.469091,1709113262.4690912,19.04296875,-32.71484375,-31.73828125,22.94921875,1.0,1.0,1.0,1.0,7.m4v,8.0
2024-02-28 10:41:02.469091,1709113262.4690912,19.04296875,-32.71484375,-31.73828125,22.94921875,1.0,1.0,1.0,1.0,7.m4v,8.0
2024-02-28 10:41:02.476903,1709113262.476903,4.39453125,-1.953125,-69.82421875,8.30078125,1.0,1.0,1.0,1.0,7.m4v,8.0
2024-02-28 10:41:02.476903,1709113262.476903,4.39453125,-1.953125,-69.82421875,8.30078125,1.0,1.0,1.0,1.0,7.m4v,8.0
2024-02-28 10:41:02.484715,1709113262.4847152,30.2734375,-23.4375,-49.31640625,2.9296875,1.0,1.0,1.0,1.0,7.m4v,8.0
2024-02-28 10:41:02.484715,1709113262.4847152,30.2734375,-23.4375,-49.31640625,2.9296875,1.0,1.0,1.0,1.0,7.m4v,8.0
2024-02-28 10:41:02.492527,1709113262.4925268,-2.44140625,-41.015625,-27.34375,-5.859375,1.0,1.0,1.0,1.0,7.m4v,8.0
2024-02-28 10:41:02.492527,1709113262.4925268,-2.44140625,-41.015625,-27.34375,-5.859375,1.0,1.0,1.0,1.0,7.m4v,8.0
2024-02-28 10:41:02.500338,1709113262.5003383,6.8359375,-11.71875,-13.18359375,-26.3671875,1.0,1.0,1.0,1.0,7.m4v,8.0
2024-02-28 10:41:02.500338,1709113262.5003383,6.8359375,-11.71875,-13.18359375,-26.3671875,1.0,1.0,1.0,1.0,7.m4v,8.0
2024-02-28 10:41:02.508150,1709113262.50815,0.0,-19.53125,-54.19921875,-30.76171875,1.0,1.0,1.0,1.0,7.m4v,8.0
2024-02-28 10:41:02.508150,1709113262.50815,0.0,-19.53125,-54.19921875,-30.76171875,1.0,1.0,1.0,1.0,7.m4v,8.0
2024-02-28 10:41:02.515961,1709113262.5159614,-25.87890625,-17.08984375,-38.57421875,-44.921875,1.0,1.0,1.0,1.0,7.m4v,8.0
2024-02-28 10:41:02.515961,1709113262.5159614,-25.87890625,-17.08984375,-38.57421875,-44.921875,1.0,1.0,1.0,1.0,7.m4v,8.0
2024-02-28 10:41:02.523773,1709113262.523773,12.20703125,-38.57421875,-54.19921875,-25.87890625,1.0,1.0,1.0,1.0,7.m4v,8.0
2024-02-28 10:41:02.523773,1709113262.523773,12.20703125,-38.57421875,-54.19921875,-25.87890625,1.0,1.0,1.0,1.0,7.m4v,8.0
2024-02-28 10:41:02.531585,1709113262.5315852,-16.6015625,-35.64453125,-41.50390625,-6.34765625,1.0,1.0,1.0,1.0,7.m4v,8.0
2024-02-28 10:41:02.531585,1709113262.5315852,-16.6015625,-35.64453125,-41.50390625,-6.34765625,1.0,1.0,1.0,1.0,7.m4v,8.0
2024-02-28 10:41:02.535491,1709113262.535491,-21.484375,-34.66796875,-27.83203125,-34.66796875,1.0,1.0,1.0,1.0,7.m4v,8.0
2024-02-28 10:41:02.539397,1709113262.5393968,-38.0859375,-38.57421875,-16.11328125,-58.10546875,1.0,1.0,1.0,1.0,7.m4v,8.0
2024-02-28 10:41:02.543303,1709113262.5433023,-50.29296875,-39.55078125,0.9765625,-84.9609375,1.0,1.0,1.0,1.0,7.m4v,8.0
2024-02-28 10:41:02.547208,1709113262.5472083,-52.24609375,-49.31640625,-25.87890625,-28.3203125,1.0,1.0,1.0,1.0,7.m4v,8.0
2024-02-28 10:41:02.551114,1709113262.551114,-37.109375,-37.59765625,-48.828125,-10.7421875,1.0,1.0,1.0,1.0,7.m4v,8.0
2024-02-28 10:41:02.555020,1709113262.55502,-74.70703125,-16.11328125,-41.50390625,-69.3359375,1.0,1.0,1.0,1.0,7.m4v,8.0
2024-02-28 10:41:02.558926,1709113262.5589256,-58.59375,-10.7421875,-48.33984375,-40.0390625,1.0,1.0,1.0,1.0,7.m4v,8.0
2024-02-28 10:41:02.562831,1709113262.5628314,-22.4609375,-22.94921875,-59.08203125,21.484375,1.0,1.0,1.0,1.0,7.m4v,8.0
2024-02-28 10:41:02.566737,1709113262.5667372,-27.83203125,-37.59765625,-50.29296875,-19.04296875,1.0,1.0,1.0,1.0,7.m4v,8.0
2024-02-28 10:41:02.570643,1709113262.570643,-45.8984375,-48.33984375,-25.87890625,-65.91796875,1.0,1.0,1.0,1.0,7.m4v,8.0
2024-02-28 10:41:02.574549,1709113262.5745487,-42.48046875,-49.8046875,-28.3203125,-47.36328125,1.0,1.0,1.0,1.0,7.m4v,8.0
2024-02-28 10:41:02.578455,1709113262.5784552,-70.3125,-55.6640625,-37.109375,-83.984375,1.0,1.0,1.0,1.0,7.m4v,8.0
2024-02-28 10:41:02.582361,1709113262.582361,-92.7734375,-47.8515625,-21.484375,-83.0078125,1.0,1.0,1.0,1.0,7.m4v,8.0
2024-02-28 10:41:02.586267,1709113262.5862668,-82.51953125,-31.25,-34.66796875,-50.78125,1.0,1.0,1.0,1.0,7.m4v,8.0
2024-02-28 10:41:02.590173,1709113262.5901723,-50.29296875,-30.76171875,-37.109375,-57.12890625,1.0,1.0,1.0,1.0,7.m4v,8.0
2024-02-28 10:41:02.594078,1709113262.5940783,-42.48046875,-39.0625,-44.43359375,-60.05859375,1.0,1.0,1.0,1.0,7.m4v,8.0
2024-02-28 10:41:02.597984,1709113262.597984,-62.98828125,-44.43359375,-72.265625,-51.26953125,1.0,1.0,1.0,1.0,7.m4v,8.0
2024-02-28 10:41:02.601890,1709113262.6018898,-83.49609375,-53.22265625,-57.6171875,-48.828125,1.0,1.0,1.0,1.0,7.m4v,8.0
2024-02-28 10:41:02.605796,1709113262.6057956,-76.171875,-53.22265625,-34.1796875,-69.82421875,1.0,1.0,1.0,1.0,7.m4v,8.0
2024-02-28 10:41:02.609701,1709113262.6097014,-60.05859375,-43.45703125,-26.3671875,-30.76171875,1.0,1.0,1.0,1.0,7.m4v,8.0
2024-02-28 10:41:02.613607,1709113262.6136072,-53.22265625,-42.48046875,-33.69140625,-67.3828125,1.0,1.0,1.0,1.0,7.m4v,8.0
2024-02-28 10:41:02.617513,1709113262.617513,-63.96484375,-35.64453125,-39.0625,-87.890625,1.0,1.0,1.0,1.0,7.m4v,8.0
2024-02-28 10:41:02.621419,1709113262.6214187,-67.3828125,-35.15625,-35.15625,-20.5078125,1.0,1.0,1.0,1.0,7.m4v,8.0
2024-02-28 10:41:02.625326,1709113262.625326,-60.546875,-35.64453125,-47.8515625,-54.6875,1.0,1.0,1.0,1.0,7.m4v,8.0
2024-02-28 10:41:02.629232,1709113262.6292317,-41.9921875,-35.15625,-53.7109375,-67.87109375,1.0,1.0,1.0,1.0,7.m4v,8.0
2024-02-28 10:41:02.633137,1709113262.6331377,-39.55078125,-41.50390625,-39.55078125,-32.2265625,1.0,1.0,1.0,1.0,7.m4v,8.0
2024-02-28 10:41:02.637043,1709113262.6370432,-68.84765625,-31.25,-59.08203125,-59.5703125,1.0,1.0,1.0,1.0,7.m4v,8.0
2024-02-28 10:41:02.640949,1709113262.640949,-78.125,-20.5078125,-73.2421875,-78.125,1.0,1.0,1.0,1.0,7.m4v,8.0
2024-02-28 10:41:02.644855,1709113262.6448548,-87.40234375,-17.08984375,-34.1796875,-71.2890625,1.0,1.0,1.0,1.0,7.m4v,8.0
2024-02-28 10:41:02.648761,1709113262.6487606,-78.125,-19.53125,2.44140625,-69.82421875,1.0,1.0,1.0,1.0,7.m4v,8.0
2024-02-28 10:41:02.652666,1709113262.6526663,-43.45703125,-25.390625,-0.48828125,-34.1796875,1.0,1.0,1.0,1.0,7.m4v,8.0
2024-02-28 10:41:02.656572,1709113262.656572,-63.96484375,-36.1328125,-28.3203125,-35.64453125,1.0,1.0,1.0,1.0,7.m4v,8.0
2024-02-28 10:41:02.660478,1709113262.660478,-82.51953125,-55.6640625,-58.10546875,-121.58203125,1.0,1.0,1.0,1.0,7.m4v,8.0
2024-02-28 10:41:02.664384,1709113262.6643836,-106.4453125,-63.96484375,-62.5,-124.0234375,1.0,1.0,1.0,1.0,7.m4v,8.0
2024-02-28 10:41:02.668289,1709113262.6682894,-103.515625,-44.921875,-63.4765625,-95.703125,1.0,1.0,1.0,1.0,7.m4v,8.0
2024-02-28 10:41:02.672196,1709113262.672196,-88.37890625,-25.87890625,-74.70703125,-90.33203125,1.0,1.0,1.0,1.0,7.m4v,8.0
2024-02-28 10:41:02.676102,1709113262.676102,-80.078125,-39.55078125,-39.55078125,-51.7578125,1.0,1.0,1.0,1.0,7.m4v,8.0
2024-02-28 10:41:02.680008,1709113262.6800077,-104.4921875,-59.08203125,3.41796875,-72.265625,1.0,1.0,1.0,1.0,7.m4v,8.0
2024-02-28 10:41:02.683913,1709113262.6839137,-123.53515625,-41.9921875,-1.46484375,-102.5390625,1.0,1.0,1.0,1.0,7.m4v,8.0
2024-02-28 10:41:02.687819,1709113262.6878192,-85.9375,-19.53125,-21.97265625,-103.515625,1.0,1.0,1.0,1.0,7.m4v,8.0
2024-02-28 10:41:02.691725,1709113262.691725,-101.07421875,-28.3203125,-40.52734375,-66.89453125,1.0,1.0,1.0,1.0,7.m4v,8.0
2024-02-28 10:41:02.695631,1709113262.6956308,-154.78515625,-47.8515625,-37.59765625,-83.0078125,1.0,1.0,1.0,1.0,7.m4v,8.0
2024-02-28 10:41:02.699537,1709113262.6995366,-138.18359375,-42.48046875,-45.8984375,-154.78515625,1.0,1.0,1.0,1.0,7.m4v,8.0
2024-02-28 10:41:02.703442,1709113262.7034423,-128.41796875,-40.0390625,-93.26171875,-136.71875,1.0,1.0,1.0,1.0,7.m4v,8.0
2024-02-28 10:41:02.707348,1709113262.707348,-139.6484375,-43.9453125,-75.68359375,-122.55859375,1.0,1.0,1.0,1.0,7.m4v,8.0
2024-02-28 10:41:02.711254,1709113262.711254,-158.69140625,-40.0390625,-11.71875,-134.765625,1.0,1.0,1.0,1.0,7.m4v,8.0
2024-02-28 10:41:02.715160,1709113262.7151597,-152.83203125,-52.24609375,-7.8125,-129.39453125,1.0,1.0,1.0,1.0,7.m4v,8.0
2024-02-28 10:41:02.719065,1709113262.7190654,-133.30078125,-60.05859375,-27.34375,-104.4921875,1.0,1.0,1.0,1.0,7.m4v,8.0
2024-02-28 10:41:02.722971,1709113262.7229712,-111.328125,-59.5703125,-28.80859375,-62.98828125,1.0,1.0,1.0,1.0,7.m4v,8.0
2024-02-28 10:41:02.726877,1709113262.726877,-48.828125,-55.17578125,-38.57421875,-83.984375,1.0,1.0,1.0,1.0,7.m4v,8.0
2024-02-28 10:41:02.730783,1709113262.7307827,-81.0546875,-38.57421875,-45.41015625,-84.47265625,1.0,1.0,1.0,1.0,7.m4v,8.0
2024-02-28 10:41:02.734689,1709113262.7346883,-116.2109375,-14.16015625,-52.734375,-91.30859375,1.0,1.0,1.0,1.0,7.m4v,8.0
2024-02-28 10:41:02.738594,1709113262.7385943,-100.09765625,-20.5078125,-44.921875,-91.796875,1.0,1.0,1.0,1.0,7.m4v,8.0
2024-02-28 10:41:02.742500,1709113262.7425,-83.0078125,-41.9921875,-40.52734375,-54.6875,1.0,1.0,1.0,1.0,7.m4v,8.0
2024-02-28 10:41:02.746406,1709113262.7464058,-45.41015625,-51.7578125,-48.33984375,-50.29296875,1.0,1.0,1.0,1.0,7.m4v,8.0
2024-02-28 10:41:02.750312,1709113262.750312,-2.9296875,-41.9921875,-34.1796875,-64.453125,1.0,1.0,1.0,1.0,7.m4v,8.0
2024-02-28 10:41:02.754218,1709113262.7542176,-21.97265625,-27.34375,-40.0390625,-28.3203125,1.0,1.0,1.0,1.0,7.m4v,8.0
2024-02-28 10:41:02.758123,1709113262.7581234,-39.0625,-35.64453125,-64.453125,32.71484375,1.0,1.0,1.0,1.0,7.m4v,8.0
2024-02-28 10:41:02.762029,1709113262.7620292,-14.6484375,-42.48046875,-47.36328125,35.15625,1.0,1.0,1.0,1.0,7.m4v,8.0
2024-02-28 10:41:02.765936,1709113262.765936,-15.625,-33.69140625,-25.390625,-12.6953125,1.0,1.0,1.0,1.0,7.m4v,8.0
2024-02-28 10:41:02.769842,1709113262.7698417,-27.34375,-41.015625,-44.43359375,-66.40625,1.0,1.0,1.0,1.0,7.m4v,8.0
2024-02-28 10:41:02.773747,1709113262.7737474,-32.2265625,-42.96875,-39.0625,-37.59765625,1.0,1.0,1.0,1.0,7.m4v,8.0
2024-02-28 10:41:02.777653,1709113262.7776532,-19.04296875,-40.52734375,-8.30078125,-3.41796875,1.0,1.0,1.0,1.0,7.m4v,8.0
2024-02-28 10:41:02.781559,1709113262.781559,-14.16015625,-47.36328125,-19.53125,-19.04296875,1.0,1.0,1.0,1.0,7.m4v,8.0
2024-02-28 10:41:02.785465,1709113262.7854648,-10.25390625,-47.36328125,-20.5078125,-18.06640625,1.0,1.0,1.0,1.0,7.m4v,8.0
2024-02-28 10:41:02.789371,1709113262.7893703,-22.4609375,-40.0390625,-25.87890625,-14.16015625,1.0,1.0,1.0,1.0,7.m4v,8.0
2024-02-28 10:41:02.793276,1709113262.7932763,-30.2734375,-34.66796875,-85.9375,7.32421875,1.0,1.0,1.0,1.0,7.m4v,8.0
2024-02-28 10:41:02.797182,1709113262.797182,-27.83203125,-28.3203125,-68.84765625,-15.13671875,1.0,1.0,1.0,1.0,7.m4v,8.0
2024-02-28 10:41:02.801088,1709113262.801088,-19.04296875,-25.390625,-21.97265625,-85.44921875,1.0,1.0,1.0,1.0,7.m4v,8.0
2024-02-28 10:41:02.804994,1709113262.804994,-20.01953125,-27.83203125,-19.53125,-62.01171875,1.0,1.0,1.0,1.0,7.m4v,8.0
2024-02-28 10:41:02.808900,1709113262.8088996,-44.921875,-37.109375,-18.06640625,-16.11328125,1.0,1.0,1.0,1.0,7.m4v,8.0
2024-02-28 10:41:02.812806,1709113262.812806,-19.53125,-34.1796875,-15.13671875,-40.0390625,1.0,1.0,1.0,1.0,7.m4v,8.0
2024-02-28 10:41:02.816712,1709113262.816712,-24.90234375,-36.1328125,-1.46484375,-32.2265625,1.0,1.0,1.0,1.0,7.m4v,8.0
2024-02-28 10:41:02.820618,1709113262.820618,-51.26953125,-48.33984375,-10.7421875,7.8125,1.0,1.0,1.0,1.0,7.m4v,8.0
2024-02-28 10:41:02.824524,1709113262.8245237,-13.18359375,-45.41015625,-35.64453125,0.9765625,1.0,1.0,1.0,1.0,7.m4v,8.0
2024-02-28 10:41:02.914358,1709113262.914358,-20.01953125,-56.15234375,-41.9921875,-7.32421875,1.0,1.0,1.0,1.0,7.m4v,8.0
2024-02-28 10:41:02.914358,1709113262.914358,-20.01953125,-56.15234375,-41.9921875,-7.32421875,1.0,1.0,1.0,1.0,7.m4v,8.0
2024-02-28 10:41:02.918264,1709113262.9182637,-3.41796875,-34.66796875,-22.94921875,-6.34765625,1.0,1.0,1.0,1.0,7.m4v,8.0
2024-02-28 10:41:02.918264,1709113262.9182637,-3.41796875,-34.66796875,-22.94921875,-6.34765625,1.0,1.0,1.0,1.0,7.m4v,8.0
2024-02-28 10:41:02.922169,1709113262.9221694,-32.2265625,-0.9765625,-7.8125,-57.12890625,1.0,1.0,1.0,1.0,7.m4v,8.0
2024-02-28 10:41:02.922169,1709113262.9221694,-32.2265625,-0.9765625,-7.8125,-57.12890625,1.0,1.0,1.0,1.0,7.m4v,8.0
2024-02-28 10:41:02.926075,1709113262.9260752,-38.0859375,-10.7421875,-9.765625,-37.109375,1.0,1.0,1.0,1.0,7.m4v,8.0
2024-02-28 10:41:02.926075,1709113262.9260752,-38.0859375,-10.7421875,-9.765625,-37.109375,1.0,1.0,1.0,1.0,7.m4v,8.0
2024-02-28 10:41:02.929981,1709113262.929981,-5.859375,-28.3203125,-34.66796875,-37.109375,1.0,1.0,1.0,1.0,7.m4v,8.0
2024-02-28 10:41:02.929981,1709113262.929981,-5.859375,-28.3203125,-34.66796875,-37.109375,1.0,1.0,1.0,1.0,7.m4v,8.0
2024-02-28 10:41:02.933887,1709113262.9338868,-17.08984375,-25.390625,-46.875,-67.3828125,1.0,1.0,1.0,1.0,7.m4v,8.0
2024-02-28 10:41:02.937793,1709113262.9377923,-44.921875,-24.4140625,-44.921875,-25.87890625,1.0,1.0,1.0,1.0,7.m4v,8.0
2024-02-28 10:41:02.941698,1709113262.9416983,-38.57421875,-21.97265625,-59.08203125,-36.62109375,1.0,1.0,1.0,1.0,7.m4v,8.0
2024-02-28 10:41:02.945604,1709113262.945604,-20.99609375,-22.94921875,-54.6875,-43.45703125,1.0,1.0,1.0,1.0,7.m4v,8.0
2024-02-28 10:41:02.949510,1709113262.94951,-3.41796875,-40.52734375,-37.59765625,18.06640625,1.0,1.0,1.0,1.0,7.m4v,8.0
2024-02-28 10:41:02.953416,1709113262.953416,-27.83203125,-57.6171875,-16.6015625,-22.94921875,1.0,1.0,1.0,1.0,7.m4v,8.0
2024-02-28 10:41:02.957322,1709113262.957322,-24.90234375,-40.52734375,-5.37109375,-32.2265625,1.0,1.0,1.0,1.0,7.m4v,8.0
2024-02-28 10:41:02.961228,1709113262.9612277,-34.66796875,-45.41015625,-11.71875,-25.87890625,1.0,1.0,1.0,1.0,7.m4v,8.0
2024-02-28 10:41:02.965133,1709113262.9651334,-59.08203125,-79.1015625,-14.6484375,-79.58984375,1.0,1.0,1.0,1.0,7.m4v,8.0
2024-02-28 10:41:02.969039,1709113262.9690392,-50.29296875,-64.94140625,-24.90234375,-70.3125,1.0,1.0,1.0,1.0,7.m4v,8.0
2024-02-28 10:41:02.972945,1709113262.972945,-53.22265625,-26.85546875,-32.2265625,-47.36328125,1.0,1.0,1.0,1.0,7.m4v,8.0
2024-02-28 10:41:02.976851,1709113262.9768507,-41.9921875,-14.16015625,-30.2734375,-39.55078125,1.0,1.0,1.0,1.0,7.m4v,8.0
2024-02-28 10:41:02.980757,1709113262.9807563,-30.76171875,-15.625,-41.9921875,-13.18359375,1.0,1.0,1.0,1.0,7.m4v,8.0
2024-02-28 10:41:02.984663,1709113262.9846623,-28.3203125,-13.671875,-57.12890625,9.765625,1.0,1.0,1.0,1.0,7.m4v,8.0
2024-02-28 10:41:02.988568,1709113262.9885683,-3.41796875,-13.671875,-90.8203125,-12.20703125,1.0,1.0,1.0,1.0,7.m4v,8.0
2024-02-28 10:41:02.992474,1709113262.992474,26.3671875,-15.625,-84.9609375,14.16015625,1.0,1.0,1.0,1.0,7.m4v,8.0
2024-02-28 10:41:02.996380,1709113262.99638,-19.53125,-26.85546875,-17.578125,-26.85546875,1.0,1.0,1.0,1.0,7.m4v,8.0
2024-02-28 10:41:03.000286,1709113263.000286,-58.59375,-55.17578125,15.13671875,-66.40625,1.0,1.0,1.0,1.0,7.m4v,8.0
2024-02-28 10:41:03.004192,1709113263.004192,-51.26953125,-69.3359375,2.9296875,-68.359375,1.0,1.0,1.0,1.0,7.m4v,8.0
2024-02-28 10:41:03.008098,1709113263.0080976,-28.3203125,-56.15234375,-11.71875,-94.23828125,1.0,1.0,1.0,1.0,7.m4v,8.0
2024-02-28 10:41:03.012003,1709113263.0120034,-8.30078125,-51.7578125,-26.85546875,-63.4765625,1.0,1.0,1.0,1.0,7.m4v,8.0
2024-02-28 10:41:03.015909,1709113263.0159092,-37.109375,-62.01171875,-52.734375,-12.6953125,1.0,1.0,1.0,1.0,7.m4v,8.0
2024-02-28 10:41:03.019815,1709113263.019815,-48.828125,-49.8046875,-49.8046875,-37.109375,1.0,1.0,1.0,1.0,7.m4v,8.0
2024-02-28 10:41:03.023721,1709113263.0237207,-22.94921875,-24.4140625,-46.875,-75.1953125,1.0,1.0,1.0,1.0,7.m4v,8.0
2024-02-28 10:41:03.027627,1709113263.0276265,-21.484375,-12.6953125,-75.1953125,5.37109375,1.0,1.0,1.0,1.0,7.m4v,8.0
2024-02-28 10:41:03.031532,1709113263.0315323,-25.87890625,-19.04296875,-42.96875,-18.5546875,1.0,1.0,1.0,1.0,7.m4v,8.0
2024-02-28 10:41:03.047156,1709113263.0471556,-52.24609375,-26.3671875,-24.90234375,-32.2265625,1.0,1.0,1.0,1.0,7.m4v,8.0
2024-02-28 10:41:03.051061,1709113263.0510614,-62.98828125,-28.3203125,-13.671875,-44.921875,1.0,1.0,1.0,1.0,7.m4v,8.0
2024-02-28 10:41:03.054967,1709113263.0549672,-30.76171875,-32.71484375,-8.30078125,-65.91796875,1.0,1.0,1.0,1.0,7.m4v,8.0
2024-02-28 10:41:03.058873,1709113263.058873,-29.296875,-32.2265625,-19.04296875,-49.31640625,1.0,1.0,1.0,1.0,7.m4v,8.0
2024-02-28 10:41:03.062779,1709113263.0627787,-25.390625,-41.015625,-27.34375,10.25390625,1.0,1.0,1.0,1.0,7.m4v,8.0
2024-02-28 10:41:03.066684,1709113263.0666845,1.953125,-42.96875,-55.17578125,-3.90625,1.0,1.0,1.0,1.0,7.m4v,8.0
2024-02-28 10:41:03.070590,1709113263.0705905,-1.953125,-39.0625,-75.68359375,-39.55078125,1.0,1.0,1.0,1.0,7.m4v,8.0
2024-02-28 10:41:03.074496,1709113263.074496,-15.625,-38.0859375,-23.4375,22.94921875,1.0,1.0,1.0,1.0,7.m4v,8.0
2024-02-28 10:41:03.078402,1709113263.0784018,-33.69140625,-24.90234375,-6.34765625,21.484375,1.0,1.0,1.0,1.0,7.m4v,8.0
2024-02-28 10:41:03.082308,1709113263.0823076,-30.76171875,-21.484375,-20.01953125,-42.48046875,1.0,1.0,1.0,1.0,7.m4v,8.0
2024-02-28 10:41:03.086214,1709113263.0862136,1.953125,-41.9921875,-27.83203125,-92.7734375,1.0,1.0,1.0,1.0,7.m4v,8.0
2024-02-28 10:41:03.090119,1709113263.0901194,-8.7890625,-53.22265625,-25.87890625,-71.2890625,1.0,1.0,1.0,1.0,7.m4v,8.0
2024-02-28 10:41:03.160424,1709113263.1604245,-1.953125,-21.97265625,-27.34375,-13.671875,1.0,1.0,1.0,1.0,7.m4v,8.0
2024-02-28 10:41:03.164330,1709113263.1643302,-16.11328125,-29.78515625,-32.2265625,-10.7421875,1.0,1.0,1.0,1.0,7.m4v,8.0
2024-02-28 10:41:03.168236,1709113263.168236,12.20703125,-40.0390625,-37.59765625,20.5078125,1.0,1.0,1.0,1.0,7.m4v,8.0
2024-02-28 10:41:03.172142,1709113263.1721418,-8.30078125,-57.12890625,-43.45703125,50.78125,1.0,1.0,1.0,1.0,7.m4v,8.0
2024-02-28 10:41:03.176048,1709113263.1760476,-35.15625,-42.48046875,-59.08203125,-12.6953125,1.0,1.0,1.0,1.0,7.m4v,8.0
2024-02-28 10:41:03.179953,1709113263.179953,-34.1796875,-20.99609375,-59.5703125,-54.19921875,1.0,1.0,1.0,1.0,7.m4v,8.0
2024-02-28 10:41:03.183859,1709113263.183859,-39.55078125,-17.08984375,-61.03515625,-35.64453125,1.0,1.0,1.0,1.0,7.m4v,8.0
2024-02-28 10:41:03.187766,1709113263.1877656,-34.66796875,-24.4140625,-49.8046875,-52.734375,1.0,1.0,1.0,1.0,7.m4v,8.0
2024-02-28 10:41:03.191671,1709113263.1916714,-25.390625,-41.9921875,-16.11328125,-52.734375,1.0,1.0,1.0,1.0,7.m4v,8.0
2024-02-28 10:41:03.195577,1709113263.1955771,-15.625,-42.96875,3.41796875,-57.6171875,1.0,1.0,1.0,1.0,7.m4v,8.0
2024-02-28 10:41:03.199483,1709113263.199483,-12.6953125,-34.1796875,-5.37109375,-32.2265625,1.0,1.0,1.0,1.0,7.m4v,8.0
2024-02-28 10:41:03.203389,1709113263.2033887,-11.23046875,-23.92578125,-42.48046875,34.66796875,1.0,1.0,1.0,1.0,7.m4v,8.0
2024-02-28 10:41:03.207295,1709113263.2072947,-30.76171875,-17.08984375,-70.3125,-25.87890625,1.0,1.0,1.0,1.0,7.m4v,8.0
2024-02-28 10:41:03.211200,1709113263.2112005,-41.9921875,-30.2734375,-47.8515625,-100.5859375,1.0,1.0,1.0,1.0,7.m4v,8.0
2024-02-28 10:41:03.215106,1709113263.2151062,-43.9453125,-44.921875,-13.18359375,-85.9375,1.0,1.0,1.0,1.0,7.m4v,8.0
2024-02-28 10:41:03.219012,1709113263.219012,-69.82421875,-36.1328125,-28.80859375,-41.9921875,1.0,1.0,1.0,1.0,7.m4v,8.0
2024-02-28 10:41:03.222918,1709113263.2229178,-61.5234375,-37.109375,-54.6875,-40.52734375,1.0,1.0,1.0,1.0,7.m4v,8.0
2024-02-28 10:41:03.226824,1709113263.2268236,-31.73828125,-43.9453125,-43.45703125,-70.3125,1.0,1.0,1.0,1.0,7.m4v,8.0
2024-02-28 10:41:03.230729,1709113263.230729,-25.390625,-37.59765625,-34.66796875,-63.96484375,1.0,1.0,1.0,1.0,7.m4v,8.0
2024-02-28 10:41:03.234637,1709113263.2346368,-54.19921875,-33.203125,-28.3203125,-11.71875,1.0,1.0,1.0,1.0,7.m4v,8.0
2024-02-28 10:41:03.238543,1709113263.2385426,-51.7578125,-24.4140625,-26.3671875,27.34375,1.0,1.0,1.0,1.0,7.m4v,8.0
2024-02-28 10:41:03.242448,1709113263.2424483,-56.15234375,-21.97265625,-37.109375,-77.1484375,1.0,1.0,1.0,1.0,7.m4v,8.0
2024-02-28 10:41:03.246354,1709113263.246354,-55.6640625,-34.1796875,-20.99609375,-119.62890625,1.0,1.0,1.0,1.0,7.m4v,8.0
2024-02-28 10:41:03.250260,1709113263.25026,-40.0390625,-52.734375,-6.8359375,-72.75390625,1.0,1.0,1.0,1.0,7.m4v,8.0
2024-02-28 10:41:03.254166,1709113263.2541656,-54.19921875,-57.12890625,-25.390625,-71.2890625,1.0,1.0,1.0,1.0,7.m4v,8.0
2024-02-28 10:41:03.258071,1709113263.2580714,-80.078125,-50.29296875,-61.03515625,-70.80078125,1.0,1.0,1.0,1.0,7.m4v,8.0
2024-02-28 10:41:03.261977,1709113263.2619772,-55.6640625,-32.71484375,-81.0546875,-40.52734375,1.0,1.0,1.0,1.0,7.m4v,8.0
2024-02-28 10:41:03.265883,1709113263.265883,-42.96875,-22.94921875,-38.57421875,-1.953125,1.0,1.0,1.0,1.0,7.m4v,8.0
2024-02-28 10:41:03.269789,1709113263.2697887,-70.80078125,-30.76171875,-26.85546875,-69.3359375,1.0,1.0,1.0,1.0,7.m4v,8.0
2024-02-28 10:41:03.273695,1709113263.2736945,-82.51953125,-42.48046875,-35.64453125,-86.9140625,1.0,1.0,1.0,1.0,7.m4v,8.0
2024-02-28 10:41:03.277601,1709113263.2776003,-57.12890625,-57.12890625,-13.18359375,-18.5546875,1.0,1.0,1.0,1.0,7.m4v,8.0
2024-02-28 10:41:03.281507,1709113263.2815068,-47.36328125,-49.31640625,-31.25,-82.03125,1.0,1.0,1.0,1.0,7.m4v,8.0
2024-02-28 10:41:03.285413,1709113263.2854123,-61.03515625,-21.484375,-52.24609375,-121.58203125,1.0,1.0,1.0,1.0,7.m4v,8.0
2024-02-28 10:41:03.289318,1709113263.2893183,-61.03515625,-17.578125,-60.546875,-85.44921875,1.0,1.0,1.0,1.0,7.m4v,8.0
2024-02-28 10:41:03.293224,1709113263.293224,-67.3828125,-29.78515625,-69.3359375,-67.87109375,1.0,1.0,1.0,1.0,7.m4v,8.0
2024-02-28 10:41:03.297130,1709113263.29713,-68.359375,-24.4140625,-46.875,-33.203125,1.0,1.0,1.0,1.0,7.m4v,8.0
2024-02-28 10:41:03.301036,1709113263.3010356,-69.82421875,-34.1796875,-6.8359375,-38.0859375,1.0,1.0,1.0,1.0,7.m4v,8.0
2024-02-28 10:41:03.304941,1709113263.3049414,-83.49609375,-53.7109375,1.953125,-113.28125,1.0,1.0,1.0,1.0,7.m4v,8.0
2024-02-28 10:41:03.308847,1709113263.3088472,-77.63671875,-41.015625,-13.671875,-107.91015625,1.0,1.0,1.0,1.0,7.m4v,8.0
2024-02-28 10:41:03.312753,1709113263.312753,-63.96484375,-25.390625,-41.50390625,-62.5,1.0,1.0,1.0,1.0,7.m4v,8.0
2024-02-28 10:41:03.316659,1709113263.3166587,-51.26953125,-33.69140625,-51.7578125,-73.2421875,1.0,1.0,1.0,1.0,7.m4v,8.0
2024-02-28 10:41:03.320565,1709113263.3205645,-57.12890625,-40.0390625,-40.0390625,-69.82421875,1.0,1.0,1.0,1.0,7.m4v,8.0
2024-02-28 10:41:03.324470,1709113263.3244703,-104.4921875,-38.57421875,-35.15625,-82.03125,1.0,1.0,1.0,1.0,7.m4v,8.0
2024-02-28 10:41:03.328377,1709113263.3283763,-126.953125,-44.43359375,-34.66796875,-109.86328125,1.0,1.0,1.0,1.0,7.m4v,8.0
2024-02-28 10:41:03.332282,1709113263.3322823,-113.76953125,-42.96875,-40.52734375,-76.66015625,1.0,1.0,1.0,1.0,7.m4v,8.0
2024-02-28 10:41:03.336188,1709113263.336188,-75.1953125,-30.2734375,-59.5703125,-40.52734375,1.0,1.0,1.0,1.0,7.m4v,8.0
2024-02-28 10:41:03.340094,1709113263.340094,-94.7265625,-26.3671875,-63.4765625,-76.66015625,1.0,1.0,1.0,1.0,7.m4v,8.0
2024-02-28 10:41:03.344000,1709113263.344,-120.1171875,-41.50390625,-18.5546875,-151.3671875,1.0,1.0,1.0,1.0,7.m4v,8.0
2024-02-28 10:41:03.347906,1709113263.3479056,-139.6484375,-45.8984375,-1.953125,-150.87890625,1.0,1.0,1.0,1.0,7.m4v,8.0
2024-02-28 10:41:03.351811,1709113263.3518114,-142.578125,-29.78515625,-33.203125,-94.7265625,1.0,1.0,1.0,1.0,7.m4v,8.0
2024-02-28 10:41:03.355717,1709113263.3557172,-110.83984375,-20.01953125,-42.96875,-88.8671875,1.0,1.0,1.0,1.0,7.m4v,8.0
2024-02-28 10:41:03.359623,1709113263.359623,-117.1875,-28.80859375,-27.83203125,-124.51171875,1.0,1.0,1.0,1.0,7.m4v,8.0
2024-02-28 10:41:03.363529,1709113263.3635287,-127.9296875,-45.41015625,-20.99609375,-102.5390625,1.0,1.0,1.0,1.0,7.m4v,8.0
2024-02-28 10:41:03.367435,1709113263.3674345,-109.375,-38.57421875,-28.80859375,-62.98828125,1.0,1.0,1.0,1.0,7.m4v,8.0
2024-02-28 10:41:03.371340,1709113263.3713405,-89.35546875,-27.34375,-39.55078125,-79.58984375,1.0,1.0,1.0,1.0,7.m4v,8.0
2024-02-28 10:41:03.375246,1709113263.3752463,-63.4765625,-39.55078125,-49.31640625,-82.03125,1.0,1.0,1.0,1.0,7.m4v,8.0
2024-02-28 10:41:03.480703,1709113263.4807029,-11.23046875,-71.77734375,-20.99609375,-28.3203125,1.0,1.0,1.0,1.0,7.m4v,8.0
2024-02-28 10:41:03.484609,1709113263.484609,-24.90234375,-46.875,-35.15625,-25.87890625,1.0,1.0,1.0,1.0,7.m4v,8.0
2024-02-28 10:41:03.488514,1709113263.4885144,-51.26953125,-26.85546875,-43.9453125,-41.015625,1.0,1.0,1.0,1.0,7.m4v,8.0
2024-02-28 10:41:03.492420,1709113263.4924202,-44.921875,-40.52734375,-41.015625,-51.26953125,1.0,1.0,1.0,1.0,7.m4v,8.0
2024-02-28 10:41:03.496326,1709113263.496326,-31.73828125,-43.45703125,-37.109375,-19.53125,1.0,1.0,1.0,1.0,7.m4v,8.0
2024-02-28 10:41:03.500232,1709113263.5002315,-23.92578125,-25.390625,-61.5234375,3.90625,1.0,1.0,1.0,1.0,7.m4v,8.0
2024-02-28 10:41:03.504138,1709113263.5041375,-25.390625,-12.6953125,-56.640625,-52.734375,1.0,1.0,1.0,1.0,7.m4v,8.0
2024-02-28 10:41:03.508043,1709113263.5080433,-50.78125,-23.4375,-35.64453125,-61.03515625,1.0,1.0,1.0,1.0,7.m4v,8.0
2024-02-28 10:41:03.511949,1709113263.511949,-24.90234375,-36.1328125,-40.0390625,2.9296875,1.0,1.0,1.0,1.0,7.m4v,8.0
2024-02-28 10:41:03.515856,1709113263.515856,-35.15625,-38.0859375,-42.96875,-30.76171875,1.0,1.0,1.0,1.0,7.m4v,8.0
2024-02-28 10:41:03.519762,1709113263.5197618,-42.48046875,-45.41015625,-34.66796875,-52.734375,1.0,1.0,1.0,1.0,7.m4v,8.0
2024-02-28 10:41:03.523668,1709113263.5236676,-32.71484375,-58.10546875,-26.85546875,-41.9921875,1.0,1.0,1.0,1.0,7.m4v,8.0
2024-02-28 10:41:03.527573,1709113263.527573,-29.296875,-49.31640625,-31.25,-46.38671875,1.0,1.0,1.0,1.0,7.m4v,8.0
2024-02-28 10:41:03.531479,1709113263.5314791,-29.296875,-42.96875,-36.62109375,-26.85546875,1.0,1.0,1.0,1.0,7.m4v,8.0
2024-02-28 10:41:03.535385,1709113263.535385,-24.4140625,-47.36328125,-35.15625,11.71875,1.0,1.0,1.0,1.0,7.m4v,8.0
2024-02-28 10:41:03.539291,1709113263.539291,-10.7421875,-43.45703125,-36.62109375,-30.76171875,1.0,1.0,1.0,1.0,7.m4v,8.0
2024-02-28 10:41:03.543196,1709113263.5431964,-54.19921875,-44.921875,-50.78125,-51.26953125,1.0,1.0,1.0,1.0,7.m4v,8.0
2024-02-28 10:41:03.547102,1709113263.5471022,-68.84765625,-41.50390625,-47.36328125,-40.0390625,1.0,1.0,1.0,1.0,7.m4v,8.0
2024-02-28 10:41:03.551008,1709113263.551008,-30.2734375,-33.203125,-37.59765625,-37.109375,1.0,1.0,1.0,1.0,7.m4v,8.0
2024-02-28 10:41:03.554914,1709113263.5549138,-2.44140625,-29.296875,-34.66796875,-7.32421875,1.0,1.0,1.0,1.0,7.m4v,8.0
2024-02-28 10:41:03.558820,1709113263.5588195,-26.85546875,-37.59765625,-28.80859375,-30.2734375,1.0,1.0,1.0,1.0,7.m4v,8.0
2024-02-28 10:41:03.562726,1709113263.5627265,-62.01171875,-47.8515625,-30.2734375,-68.84765625,1.0,1.0,1.0,1.0,7.m4v,8.0
2024-02-28 10:41:03.566632,1709113263.566632,-70.3125,-44.43359375,-32.2265625,-52.734375,1.0,1.0,1.0,1.0,7.m4v,8.0
2024-02-28 10:41:03.570538,1709113263.5705378,-47.36328125,-35.15625,-48.33984375,-35.64453125,1.0,1.0,1.0,1.0,7.m4v,8.0
2024-02-28 10:41:03.574444,1709113263.5744436,-49.31640625,-36.1328125,-61.03515625,-39.55078125,1.0,1.0,1.0,1.0,7.m4v,8.0
2024-02-28 10:41:03.578349,1709113263.5783494,-14.16015625,-52.24609375,-56.15234375,-39.0625,1.0,1.0,1.0,1.0,7.m4v,8.0
2024-02-28 10:41:03.582255,1709113263.5822551,-3.90625,-49.8046875,-78.61328125,2.9296875,1.0,1.0,1.0,1.0,7.m4v,8.0
2024-02-28 10:41:03.586161,1709113263.586161,-49.31640625,-34.1796875,-56.640625,15.13671875,1.0,1.0,1.0,1.0,7.m4v,8.0
2024-02-28 10:41:03.590067,1709113263.590067,-41.015625,-36.62109375,-12.6953125,-92.28515625,1.0,1.0,1.0,1.0,7.m4v,8.0
2024-02-28 10:41:03.593972,1709113263.5939724,-33.203125,-46.38671875,-19.04296875,-103.02734375,1.0,1.0,1.0,1.0,7.m4v,8.0
2024-02-28 10:41:03.597878,1709113263.5978782,-25.390625,-41.9921875,-16.6015625,-61.03515625,1.0,1.0,1.0,1.0,7.m4v,8.0
2024-02-28 10:41:03.609596,1709113263.6095965,-61.5234375,-31.25,-49.31640625,-45.41015625,1.0,1.0,1.0,1.0,7.m4v,8.0
2024-02-28 10:41:03.613502,1709113263.613502,-38.57421875,-43.45703125,-28.3203125,-12.6953125,1.0,1.0,1.0,1.0,7.m4v,8.0
2024-02-28 10:41:03.617408,1709113263.6174078,-16.11328125,-53.22265625,-42.48046875,-2.9296875,1.0,1.0,1.0,1.0,7.m4v,8.0
2024-02-28 10:41:03.621314,1709113263.6213136,-3.41796875,-47.36328125,-75.1953125,-46.38671875,1.0,1.0,1.0,1.0,7.m4v,8.0
2024-02-28 10:41:03.625219,1709113263.625219,-7.8125,-51.7578125,-46.38671875,-46.38671875,1.0,1.0,1.0,1.0,7.m4v,8.0
2024-02-28 10:41:03.629125,1709113263.629125,-44.921875,-41.015625,-0.48828125,-19.04296875,1.0,1.0,1.0,1.0,7.m4v,8.0
2024-02-28 10:41:03.633031,1709113263.633031,-20.5078125,-24.90234375,-4.39453125,-36.1328125,1.0,1.0,1.0,1.0,7.m4v,8.0
2024-02-28 10:41:03.691618,1709113263.6916184,-4.39453125,-65.4296875,-61.5234375,18.06640625,1.0,1.0,1.0,1.0,7.m4v,8.0
2024-02-28 10:41:03.695524,1709113263.6955242,-11.23046875,-55.17578125,-74.21875,-4.39453125,1.0,1.0,1.0,1.0,7.m4v,8.0
2024-02-28 10:41:03.699430,1709113263.69943,12.20703125,-48.33984375,-44.43359375,-19.53125,1.0,1.0,1.0,1.0,7.m4v,8.0
2024-02-28 10:41:03.703336,1709113263.7033362,23.92578125,-55.6640625,-16.11328125,-38.57421875,1.0,1.0,1.0,1.0,7.m4v,8.0
2024-02-28 10:41:03.707242,1709113263.707242,-5.37109375,-43.9453125,3.41796875,-24.90234375,1.0,1.0,1.0,1.0,7.m4v,8.0
2024-02-28 10:41:03.711148,1709113263.7111478,-1.46484375,-7.32421875,-21.97265625,-23.4375,1.0,1.0,1.0,1.0,7.m4v,8.0
2024-02-28 10:41:03.715054,1709113263.7150536,7.8125,2.44140625,-43.9453125,-14.6484375,1.0,1.0,1.0,1.0,7.m4v,8.0
2024-02-28 10:41:03.718959,1709113263.718959,-33.69140625,-26.3671875,-40.0390625,0.0,1.0,1.0,1.0,1.0,7.m4v,8.0
2024-02-28 10:41:03.722865,1709113263.722865,-44.921875,-51.7578125,-61.5234375,-49.8046875,1.0,1.0,1.0,1.0,7.m4v,8.0
2024-02-28 10:41:03.726771,1709113263.7267709,-8.7890625,-55.6640625,-51.26953125,-45.8984375,1.0,1.0,1.0,1.0,7.m4v,8.0
2024-02-28 10:41:03.730677,1709113263.730677,6.34765625,-41.9921875,-34.1796875,-10.25390625,1.0,1.0,1.0,1.0,7.m4v,8.0
2024-02-28 10:41:03.734582,1709113263.7345824,-8.30078125,-39.55078125,-24.4140625,-18.5546875,1.0,1.0,1.0,1.0,7.m4v,8.0
2024-02-28 10:41:03.738488,1709113263.7384882,-29.296875,-54.6875,-10.7421875,-47.36328125,1.0,1.0,1.0,1.0,7.m4v,8.0
2024-02-28 10:41:03.742394,1709113263.7423942,-37.109375,-52.734375,-28.80859375,-25.390625,1.0,1.0,1.0,1.0,7.m4v,8.0
2024-02-28 10:41:03.746300,1709113263.7463,-51.26953125,-31.25,-30.2734375,-42.48046875,1.0,1.0,1.0,1.0,7.m4v,8.0
2024-02-28 10:41:03.750206,1709113263.750206,-41.50390625,-18.5546875,-37.59765625,-45.41015625,1.0,1.0,1.0,1.0,7.m4v,8.0
2024-02-28 10:41:03.754112,1709113263.7541118,-22.4609375,-20.01953125,-56.640625,-6.8359375,1.0,1.0,1.0,1.0,7.m4v,8.0
2024-02-28 10:41:03.758018,1709113263.7580175,-25.390625,-24.90234375,-45.8984375,-27.83203125,1.0,1.0,1.0,1.0,7.m4v,8.0
2024-02-28 10:41:03.761923,1709113263.7619233,-22.94921875,-28.80859375,-34.66796875,-21.97265625,1.0,1.0,1.0,1.0,7.m4v,8.0
2024-02-28 10:41:03.765829,1709113263.765829,-24.90234375,-34.1796875,-59.5703125,-43.9453125,1.0,1.0,1.0,1.0,7.m4v,8.0
2024-02-28 10:41:03.769735,1709113263.7697349,-29.296875,-52.734375,-29.78515625,-20.5078125,1.0,1.0,1.0,1.0,7.m4v,8.0
2024-02-28 10:41:03.773641,1709113263.7736406,-39.0625,-61.03515625,-1.46484375,-7.32421875,1.0,1.0,1.0,1.0,7.m4v,8.0
2024-02-28 10:41:03.777546,1709113263.7775464,-53.7109375,-39.0625,-24.90234375,-68.359375,1.0,1.0,1.0,1.0,7.m4v,8.0
2024-02-28 10:41:03.781452,1709113263.7814522,-24.90234375,-39.55078125,-33.69140625,-50.29296875,1.0,1.0,1.0,1.0,7.m4v,8.0
2024-02-28 10:41:03.785358,1709113263.785358,-49.31640625,-51.26953125,-40.0390625,-40.0390625,1.0,1.0,1.0,1.0,7.m4v,8.0
2024-02-28 10:41:03.789264,1709113263.7892635,-86.9140625,-29.296875,-42.96875,-75.68359375,1.0,1.0,1.0,1.0,7.m4v,8.0
2024-02-28 10:41:03.793169,1709113263.7931695,-77.1484375,-14.6484375,-39.55078125,-103.02734375,1.0,1.0,1.0,1.0,7.m4v,8.0
2024-02-28 10:41:03.797076,1709113263.7970755,-65.91796875,-18.5546875,-54.19921875,-86.9140625,1.0,1.0,1.0,1.0,7.m4v,8.0
2024-02-28 10:41:03.800981,1709113263.8009813,-70.80078125,-27.83203125,-66.89453125,-66.89453125,1.0,1.0,1.0,1.0,7.m4v,8.0
2024-02-28 10:41:03.804887,1709113263.804887,-65.4296875,-31.25,-35.64453125,-48.828125,1.0,1.0,1.0,1.0,7.m4v,8.0
2024-02-28 10:41:03.808793,1709113263.8087928,-10.25390625,-37.109375,-10.25390625,-30.76171875,1.0,1.0,1.0,1.0,7.m4v,8.0
2024-02-28 10:41:03.812699,1709113263.8126986,-23.92578125,-55.17578125,-28.3203125,-16.11328125,1.0,1.0,1.0,1.0,7.m4v,8.0
2024-02-28 10:41:03.816604,1709113263.8166044,-79.1015625,-62.98828125,-44.43359375,-58.59375,1.0,1.0,1.0,1.0,7.m4v,8.0
2024-02-28 10:41:03.820510,1709113263.8205104,-89.35546875,-41.9921875,-51.26953125,-62.5,1.0,1.0,1.0,1.0,7.m4v,8.0
2024-02-28 10:41:03.824416,1709113263.8244162,-65.4296875,-28.3203125,-45.8984375,-19.04296875,1.0,1.0,1.0,1.0,7.m4v,8.0
2024-02-28 10:41:03.828322,1709113263.828322,-52.24609375,-32.2265625,-44.921875,-73.73046875,1.0,1.0,1.0,1.0,7.m4v,8.0
2024-02-28 10:41:03.832228,1709113263.8322277,-55.6640625,-28.3203125,-48.828125,-84.47265625,1.0,1.0,1.0,1.0,7.m4v,8.0
2024-02-28 10:41:03.836133,1709113263.8361337,-46.875,-26.85546875,-39.55078125,-47.8515625,1.0,1.0,1.0,1.0,7.m4v,8.0
2024-02-28 10:41:03.840039,1709113263.8400393,-37.59765625,-29.78515625,-22.94921875,-102.05078125,1.0,1.0,1.0,1.0,7.m4v,8.0
2024-02-28 10:41:03.843945,1709113263.8439453,-90.8203125,-36.62109375,-26.85546875,-114.2578125,1.0,1.0,1.0,1.0,7.m4v,8.0
2024-02-28 10:41:03.847851,1709113263.847851,-90.33203125,-35.15625,-32.71484375,-76.171875,1.0,1.0,1.0,1.0,7.m4v,8.0
2024-02-28 10:41:03.851757,1709113263.8517568,-82.51953125,-41.9921875,-46.38671875,-77.63671875,1.0,1.0,1.0,1.0,7.m4v,8.0
2024-02-28 10:41:03.855663,1709113263.8556626,-103.02734375,-57.12890625,-51.7578125,-45.41015625,1.0,1.0,1.0,1.0,7.m4v,8.0
2024-02-28 10:41:03.859568,1709113263.8595684,-66.89453125,-44.43359375,-46.875,8.7890625,1.0,1.0,1.0,1.0,7.m4v,8.0
2024-02-28 10:41:03.863474,1709113263.863474,-66.40625,-21.97265625,-55.17578125,-69.82421875,1.0,1.0,1.0,1.0,7.m4v,8.0
2024-02-28 10:41:03.867380,1709113263.86738,-100.09765625,-30.2734375,-59.08203125,-140.625,1.0,1.0,1.0,1.0,7.m4v,8.0
2024-02-28 10:41:03.871286,1709113263.8712857,-104.4921875,-39.0625,-41.50390625,-115.72265625,1.0,1.0,1.0,1.0,7.m4v,8.0
2024-02-28 10:41:03.875191,1709113263.8751917,-95.21484375,-37.109375,-22.94921875,-122.0703125,1.0,1.0,1.0,1.0,7.m4v,8.0
2024-02-28 10:41:03.879097,1709113263.8790972,-105.46875,-40.52734375,-10.7421875,-113.28125,1.0,1.0,1.0,1.0,7.m4v,8.0
2024-02-28 10:41:03.883003,1709113263.883003,-142.578125,-37.59765625,-26.3671875,-91.796875,1.0,1.0,1.0,1.0,7.m4v,8.0
2024-02-28 10:41:03.886909,1709113263.8869088,-149.90234375,-34.1796875,-37.59765625,-122.0703125,1.0,1.0,1.0,1.0,7.m4v,8.0
2024-02-28 10:41:03.890815,1709113263.8908155,-131.34765625,-41.50390625,-30.2734375,-114.74609375,1.0,1.0,1.0,1.0,7.m4v,8.0
2024-02-28 10:41:03.894721,1709113263.8947213,-120.1171875,-47.36328125,-48.828125,-105.95703125,1.0,1.0,1.0,1.0,7.m4v,8.0
2024-02-28 10:41:03.898627,1709113263.898627,-116.2109375,-39.0625,-61.5234375,-97.65625,1.0,1.0,1.0,1.0,7.m4v,8.0
2024-02-28 10:41:03.902533,1709113263.9025328,-109.86328125,-37.109375,-50.78125,-58.10546875,1.0,1.0,1.0,1.0,7.m4v,8.0
2024-02-28 10:41:03.906439,1709113263.9064386,-110.83984375,-36.1328125,-37.109375,-45.41015625,1.0,1.0,1.0,1.0,7.m4v,8.0
2024-02-28 10:41:03.910344,1709113263.9103444,-124.51171875,-25.87890625,-31.73828125,-133.30078125,1.0,1.0,1.0,1.0,7.m4v,8.0
2024-02-28 10:41:03.914250,1709113263.91425,-98.14453125,-30.2734375,-59.5703125,-128.41796875,1.0,1.0,1.0,1.0,7.m4v,8.0
2024-02-28 10:41:03.918156,1709113263.918156,-87.890625,-48.828125,-39.55078125,-106.93359375,1.0,1.0,1.0,1.0,7.m4v,8.0
2024-02-28 10:41:03.922062,1709113263.922062,-108.3984375,-35.64453125,-0.9765625,-114.74609375,1.0,1.0,1.0,1.0,7.m4v,8.0
2024-02-28 10:41:03.925968,1709113263.9259677,-77.63671875,-17.578125,-12.20703125,-66.89453125,1.0,1.0,1.0,1.0,7.m4v,8.0
2024-02-28 10:41:03.933779,1709113263.9337792,-40.52734375,-31.25,-43.9453125,10.25390625,1.0,1.0,1.0,1.0,7.m4v,8.0
2024-02-28 10:41:03.941592,1709113263.9415915,-11.23046875,-47.36328125,-76.171875,-38.0859375,1.0,1.0,1.0,1.0,7.m4v,8.0
2024-02-28 10:41:03.945497,1709113263.9454973,-74.21875,-40.0390625,-28.3203125,-114.74609375,1.0,1.0,1.0,1.0,7.m4v,8.0
2024-02-28 10:41:03.953309,1709113263.9533088,-47.36328125,-27.83203125,0.0,-45.8984375,1.0,1.0,1.0,1.0,7.m4v,8.0
2024-02-28 10:41:03.957215,1709113263.9572148,-25.87890625,-32.2265625,-19.53125,-47.8515625,1.0,1.0,1.0,1.0,7.m4v,8.0
2024-02-28 10:41:03.965026,1709113263.9650264,-26.3671875,-28.80859375,-39.0625,-15.625,1.0,1.0,1.0,1.0,7.m4v,8.0
2024-02-28 10:41:03.968932,1709113263.9689322,-15.625,-33.203125,-57.12890625,-33.203125,1.0,1.0,1.0,1.0,7.m4v,8.0
2024-02-28 10:41:03.976744,1709113263.9767437,-25.87890625,-34.66796875,-32.2265625,9.27734375,1.0,1.0,1.0,1.0,7.m4v,8.0
2024-02-28 10:41:03.980649,1709113263.9806497,-23.92578125,-33.69140625,-38.57421875,28.3203125,1.0,1.0,1.0,1.0,7.m4v,8.0
2024-02-28 10:41:03.988462,1709113263.9884615,-30.76171875,-54.6875,-56.640625,-49.31640625,1.0,1.0,1.0,1.0,7.m4v,8.0
2024-02-28 10:41:03.992368,1709113263.9923675,-18.5546875,-56.15234375,-52.734375,-55.6640625,1.0,1.0,1.0,1.0,7.m4v,8.0
2024-02-28 10:41:04.000179,1709113264.000179,-19.53125,-24.90234375,-4.8828125,-16.11328125,1.0,1.0,1.0,1.0,7.m4v,8.0
2024-02-28 10:41:04.004085,1709113264.0040848,-10.7421875,-23.92578125,-31.73828125,12.20703125,1.0,1.0,1.0,1.0,7.m4v,8.0
2024-02-28 10:41:04.011896,1709113264.0118964,-29.296875,-31.25,-42.96875,-42.96875,1.0,1.0,1.0,1.0,7.m4v,8.0
2024-02-28 10:41:04.015802,1709113264.015802,-43.45703125,-32.71484375,-27.83203125,-13.671875,1.0,1.0,1.0,1.0,7.m4v,8.0
2024-02-28 10:41:04.019708,1709113264.019708,-47.8515625,-34.66796875,-4.8828125,-32.71484375,1.0,1.0,1.0,1.0,7.m4v,8.0
2024-02-28 10:41:04.023614,1709113264.0236137,-53.22265625,-47.36328125,-17.08984375,-36.62109375,1.0,1.0,1.0,1.0,7.m4v,8.0
2024-02-28 10:41:04.027519,1709113264.0275197,-47.36328125,-54.19921875,-50.78125,-18.5546875,1.0,1.0,1.0,1.0,7.m4v,8.0
2024-02-28 10:41:04.031426,1709113264.031426,-27.83203125,-41.50390625,-42.96875,-16.6015625,1.0,1.0,1.0,1.0,7.m4v,8.0
2024-02-28 10:41:04.035332,1709113264.0353315,6.34765625,-54.19921875,-23.92578125,-44.921875,1.0,1.0,1.0,1.0,7.m4v,8.0
2024-02-28 10:41:04.039237,1709113264.0392375,-3.90625,-48.33984375,-30.76171875,-27.34375,1.0,1.0,1.0,1.0,7.m4v,8.0
2024-02-28 10:41:04.043143,1709113264.0431433,-9.765625,-22.4609375,-26.85546875,12.6953125,1.0,1.0,1.0,1.0,7.m4v,8.0
2024-02-28 10:41:04.047049,1709113264.047049,-26.3671875,-14.6484375,-26.3671875,2.44140625,1.0,1.0,1.0,1.0,7.m4v,8.0
2024-02-28 10:41:04.050955,1709113264.0509548,-62.01171875,-12.6953125,-64.453125,6.34765625,1.0,1.0,1.0,1.0,7.m4v,8.0
2024-02-28 10:41:04.062672,1709113264.062672,-41.015625,-46.875,-40.52734375,-41.015625,1.0,1.0,1.0,1.0,7.m4v,8.0
2024-02-28 10:41:04.074389,1709113264.0743897,-5.37109375,-31.25,-28.80859375,-13.671875,1.0,1.0,1.0,1.0,7.m4v,8.0
2024-02-28 10:41:04.086107,1709113264.0861075,-42.48046875,-41.50390625,-40.52734375,-37.59765625,1.0,1.0,1.0,1.0,7.m4v,8.0
2024-02-28 10:41:04.097825,1709113264.0978248,-4.39453125,-42.96875,-20.5078125,-36.1328125,1.0,1.0,1.0,1.0,7.m4v,8.0
2024-02-28 10:41:04.109542,1709113264.109542,-18.5546875,-23.4375,-75.1953125,4.39453125,1.0,1.0,1.0,1.0,7.m4v,8.0
2024-02-28 10:41:04.121259,1709113264.1212597,-9.27734375,-41.50390625,-12.6953125,-23.92578125,1.0,1.0,1.0,1.0,7.m4v,8.0
2024-02-28 10:41:04.132977,1709113264.1329772,-21.97265625,-40.0390625,-36.62109375,-3.41796875,1.0,1.0,1.0,1.0,7.m4v,8.0
2024-02-28 10:41:04.140789,1709113264.1407888,-40.0390625,-39.55078125,-67.3828125,-48.828125,1.0,1.0,1.0,1.0,7.m4v,8.0
2024-02-28 10:41:04.144695,1709113264.1446946,-58.10546875,-37.59765625,-32.71484375,-82.03125,1.0,1.0,1.0,1.0,7.m4v,8.0
2024-02-28 10:41:04.156412,1709113264.156412,-15.13671875,-33.69140625,-30.2734375,-6.8359375,1.0,1.0,1.0,1.0,7.m4v,8.0
2024-02-28 10:41:04.164223,1709113264.1642234,1.46484375,-26.85546875,-83.0078125,-21.484375,1.0,1.0,1.0,1.0,7.m4v,8.0
2024-02-28 10:41:04.172035,1709113264.1720352,-26.3671875,-36.62109375,-45.8984375,-52.734375,1.0,1.0,1.0,1.0,7.m4v,8.0
2024-02-28 10:41:04.179847,1709113264.1798468,-36.62109375,-50.29296875,-46.875,-20.01953125,1.0,1.0,1.0,1.0,7.m4v,8.0
2024-02-28 10:41:04.187658,1709113264.1876583,-14.16015625,-35.64453125,1.953125,-14.6484375,1.0,1.0,1.0,1.0,7.m4v,8.0
2024-02-28 10:41:04.191564,1709113264.191564,-10.25390625,-35.15625,-12.20703125,-23.92578125,1.0,1.0,1.0,1.0,7.m4v,8.0
2024-02-28 10:41:04.191564,1709113264.191564,-10.25390625,-35.15625,-12.20703125,-23.92578125,1.0,1.0,1.0,1.0,7.m4v,8.0
2024-02-28 10:41:04.195470,1709113264.19547,-17.578125,-41.015625,-36.1328125,-62.01171875,1.0,1.0,1.0,1.0,7.m4v,8.0
2024-02-28 10:41:04.199376,1709113264.1993756,-32.2265625,-50.78125,-34.66796875,-26.85546875,1.0,1.0,1.0,1.0,7.m4v,8.0
2024-02-28 10:41:04.199376,1709113264.1993756,-32.2265625,-50.78125,-34.66796875,-26.85546875,1.0,1.0,1.0,1.0,7.m4v,8.0
2024-02-28 10:41:04.203281,1709113264.2032814,-9.765625,-39.55078125,-63.96484375,7.8125,1.0,1.0,1.0,1.0,7.m4v,8.0
2024-02-28 10:41:04.207187,1709113264.2071872,16.11328125,-17.578125,-103.02734375,12.20703125,1.0,1.0,1.0,1.0,7.m4v,8.0
2024-02-28 10:41:04.207187,1709113264.2071872,16.11328125,-17.578125,-103.02734375,12.20703125,1.0,1.0,1.0,1.0,7.m4v,8.0
2024-02-28 10:41:04.211093,1709113264.2110932,30.2734375,-16.11328125,-61.03515625,9.27734375,1.0,1.0,1.0,1.0,7.m4v,8.0
2024-02-28 10:41:04.214999,1709113264.214999,11.23046875,-24.90234375,-6.8359375,0.0,1.0,1.0,1.0,1.0,7.m4v,8.0
2024-02-28 10:41:04.214999,1709113264.214999,11.23046875,-24.90234375,-6.8359375,0.0,1.0,1.0,1.0,1.0,7.m4v,8.0
2024-02-28 10:41:04.218905,1709113264.2189047,-36.62109375,-18.5546875,-8.7890625,-20.01953125,1.0,1.0,1.0,1.0,7.m4v,8.0
2024-02-28 10:41:04.222811,1709113264.2228105,8.30078125,-15.625,-38.57421875,-22.4609375,1.0,1.0,1.0,1.0,7.m4v,8.0
2024-02-28 10:41:04.222811,1709113264.2228105,8.30078125,-15.625,-38.57421875,-22.4609375,1.0,1.0,1.0,1.0,7.m4v,8.0
2024-02-28 10:41:04.222811,1709113264.2228105,8.30078125,-15.625,-38.57421875,-22.4609375,1.0,1.0,1.0,1.0,7.m4v,8.0
2024-02-28 10:41:04.222811,1709113264.2228105,8.30078125,-15.625,-38.57421875,-22.4609375,1.0,1.0,1.0,1.0,7.m4v,8.0
2024-02-28 10:41:04.226716,1709113264.2267165,7.8125,-35.64453125,-45.41015625,-43.9453125,1.0,1.0,1.0,1.0,7.m4v,8.0
2024-02-28 10:41:04.230622,1709113264.230622,-9.765625,-53.7109375,-30.2734375,-26.3671875,1.0,1.0,1.0,1.0,7.m4v,8.0
2024-02-28 10:41:04.230622,1709113264.230622,-9.765625,-53.7109375,-30.2734375,-26.3671875,1.0,1.0,1.0,1.0,7.m4v,8.0
2024-02-28 10:41:04.230622,1709113264.230622,-9.765625,-53.7109375,-30.2734375,-26.3671875,1.0,1.0,1.0,1.0,7.m4v,8.0
2024-02-28 10:41:04.230622,1709113264.230622,-9.765625,-53.7109375,-30.2734375,-26.3671875,1.0,1.0,1.0,1.0,7.m4v,8.0
2024-02-28 10:41:04.234528,1709113264.2345278,-1.953125,-51.26953125,-36.1328125,45.8984375,1.0,1.0,1.0,1.0,7.m4v,8.0
2024-02-28 10:41:04.238434,1709113264.2384336,14.6484375,-31.73828125,-44.43359375,1.953125,1.0,1.0,1.0,1.0,7.m4v,8.0
2024-02-28 10:41:04.242339,1709113264.2423394,32.2265625,-31.73828125,-32.2265625,-0.9765625,1.0,1.0,1.0,1.0,7.m4v,8.0
2024-02-28 10:41:04.242339,1709113264.2423394,32.2265625,-31.73828125,-32.2265625,-0.9765625,1.0,1.0,1.0,1.0,7.m4v,8.0
2024-02-28 10:41:04.242339,1709113264.2423394,32.2265625,-31.73828125,-32.2265625,-0.9765625,1.0,1.0,1.0,1.0,7.m4v,8.0
2024-02-28 10:41:04.242339,1709113264.2423394,32.2265625,-31.73828125,-32.2265625,-0.9765625,1.0,1.0,1.0,1.0,7.m4v,8.0
2024-02-28 10:41:04.246245,1709113264.2462451,-2.9296875,-49.31640625,-50.78125,32.2265625,1.0,1.0,1.0,1.0,7.m4v,8.0
2024-02-28 10:41:04.246245,1709113264.2462451,-2.9296875,-49.31640625,-50.78125,32.2265625,1.0,1.0,1.0,1.0,7.m4v,8.0
2024-02-28 10:41:04.246245,1709113264.2462451,-2.9296875,-49.31640625,-50.78125,32.2265625,1.0,1.0,1.0,1.0,7.m4v,8.0
2024-02-28 10:41:04.246245,1709113264.2462451,-2.9296875,-49.31640625,-50.78125,32.2265625,1.0,1.0,1.0,1.0,7.m4v,8.0
2024-02-28 10:41:04.250151,1709113264.250151,8.30078125,-21.484375,-69.3359375,-9.27734375,1.0,1.0,1.0,1.0,7.m4v,8.0
2024-02-28 10:41:04.250151,1709113264.250151,8.30078125,-21.484375,-69.3359375,-9.27734375,1.0,1.0,1.0,1.0,7.m4v,8.0
2024-02-28 10:41:04.250151,1709113264.250151,8.30078125,-21.484375,-69.3359375,-9.27734375,1.0,1.0,1.0,1.0,7.m4v,8.0
2024-02-28 10:41:04.250151,1709113264.250151,8.30078125,-21.484375,-69.3359375,-9.27734375,1.0,1.0,1.0,1.0,7.m4v,8.0
2024-02-28 10:41:04.254057,1709113264.2540567,47.36328125,6.34765625,-43.45703125,-15.13671875,1.0,1.0,1.0,1.0,7.m4v,8.0
2024-02-28 10:41:04.254057,1709113264.2540567,47.36328125,6.34765625,-43.45703125,-15.13671875,1.0,1.0,1.0,1.0,7.m4v,8.0
2024-02-28 10:41:04.254057,1709113264.2540567,47.36328125,6.34765625,-43.45703125,-15.13671875,1.0,1.0,1.0,1.0,7.m4v,8.0
2024-02-28 10:41:04.254057,1709113264.2540567,47.36328125,6.34765625,-43.45703125,-15.13671875,1.0,1.0,1.0,1.0,7.m4v,8.0
2024-02-28 10:41:04.257962,1709113264.2579625,42.96875,-13.18359375,-16.6015625,12.6953125,1.0,1.0,1.0,1.0,7.m4v,8.0
2024-02-28 10:41:04.257962,1709113264.2579625,42.96875,-13.18359375,-16.6015625,12.6953125,1.0,1.0,1.0,1.0,7.m4v,8.0
2024-02-28 10:41:04.257962,1709113264.2579625,42.96875,-13.18359375,-16.6015625,12.6953125,1.0,1.0,1.0,1.0,7.m4v,8.0
2024-02-28 10:41:04.257962,1709113264.2579625,42.96875,-13.18359375,-16.6015625,12.6953125,1.0,1.0,1.0,1.0,7.m4v,8.0
2024-02-28 10:41:04.261868,1709113264.2618682,5.37109375,-40.52734375,-26.3671875,0.9765625,1.0,1.0,1.0,1.0,7.m4v,8.0
2024-02-28 10:41:04.261868,1709113264.2618682,5.37109375,-40.52734375,-26.3671875,0.9765625,1.0,1.0,1.0,1.0,7.m4v,8.0
2024-02-28 10:41:04.261868,1709113264.2618682,5.37109375,-40.52734375,-26.3671875,0.9765625,1.0,1.0,1.0,1.0,7.m4v,8.0
2024-02-28 10:41:04.265775,1709113264.265775,-24.90234375,-42.48046875,-21.97265625,-9.27734375,1.0,1.0,1.0,1.0,7.m4v,8.0
2024-02-28 10:41:04.265775,1709113264.265775,-24.90234375,-42.48046875,-21.97265625,-9.27734375,1.0,1.0,1.0,1.0,7.m4v,8.0
2024-02-28 10:41:04.265775,1709113264.265775,-24.90234375,-42.48046875,-21.97265625,-9.27734375,1.0,1.0,1.0,1.0,7.m4v,8.0
2024-02-28 10:41:04.265775,1709113264.265775,-24.90234375,-42.48046875,-21.97265625,-9.27734375,1.0,1.0,1.0,1.0,7.m4v,8.0
2024-02-28 10:41:04.269681,1709113264.2696807,0.0,-41.015625,-13.671875,-14.6484375,1.0,1.0,1.0,1.0,7.m4v,8.0
2024-02-28 10:41:04.269681,1709113264.2696807,0.0,-41.015625,-13.671875,-14.6484375,1.0,1.0,1.0,1.0,7.m4v,8.0
2024-02-28 10:41:04.269681,1709113264.2696807,0.0,-41.015625,-13.671875,-14.6484375,1.0,1.0,1.0,1.0,7.m4v,8.0
2024-02-28 10:41:04.269681,1709113264.2696807,0.0,-41.015625,-13.671875,-14.6484375,1.0,1.0,1.0,1.0,7.m4v,8.0
2024-02-28 10:41:04.273587,1709113264.2735865,11.23046875,-35.64453125,-50.78125,0.0,1.0,1.0,1.0,1.0,7.m4v,8.0
2024-02-28 10:41:04.273587,1709113264.2735865,11.23046875,-35.64453125,-50.78125,0.0,1.0,1.0,1.0,1.0,7.m4v,8.0
2024-02-28 10:41:04.273587,1709113264.2735865,11.23046875,-35.64453125,-50.78125,0.0,1.0,1.0,1.0,1.0,7.m4v,8.0
2024-02-28 10:41:04.277492,1709113264.2774923,-2.9296875,-27.34375,-88.8671875,33.203125,1.0,1.0,1.0,1.0,7.m4v,8.0
2024-02-28 10:41:04.281398,1709113264.281398,-22.94921875,-18.06640625,-79.58984375,-20.01953125,1.0,1.0,1.0,1.0,7.m4v,8.0
2024-02-28 10:41:04.281398,1709113264.281398,-22.94921875,-18.06640625,-79.58984375,-20.01953125,1.0,1.0,1.0,1.0,7.m4v,8.0
2024-02-28 10:41:04.285304,1709113264.2853038,-27.83203125,-14.16015625,-35.64453125,-74.70703125,1.0,1.0,1.0,1.0,7.m4v,8.0
2024-02-28 10:41:04.293116,1709113264.2931156,-39.0625,-13.18359375,-16.6015625,-17.08984375,1.0,1.0,1.0,1.0,7.m4v,8.0
2024-02-28 10:41:04.297021,1709113264.2970214,-27.83203125,-29.296875,0.9765625,-50.29296875,1.0,1.0,1.0,1.0,7.m4v,8.0
2024-02-28 10:41:04.300927,1709113264.3009272,-33.203125,-40.0390625,-4.39453125,-20.01953125,1.0,1.0,1.0,1.0,7.m4v,8.0
2024-02-28 10:41:04.304833,1709113264.304833,-9.27734375,-48.828125,-34.66796875,16.11328125,1.0,1.0,1.0,1.0,7.m4v,8.0
2024-02-28 10:41:04.308739,1709113264.3087387,-2.9296875,-57.6171875,-55.17578125,-25.87890625,1.0,1.0,1.0,1.0,7.m4v,8.0
2024-02-28 10:41:04.312645,1709113264.3126454,-4.8828125,-37.109375,-70.3125,-18.5546875,1.0,1.0,1.0,1.0,7.m4v,8.0
2024-02-28 10:41:04.316551,1709113264.3165512,-41.015625,-22.94921875,-63.4765625,-9.765625,1.0,1.0,1.0,1.0,7.m4v,8.0
2024-02-28 10:41:04.320457,1709113264.320457,-81.54296875,-31.73828125,-28.80859375,-18.5546875,1.0,1.0,1.0,1.0,7.m4v,8.0
2024-02-28 10:41:04.324363,1709113264.3243628,-81.54296875,-41.015625,-19.04296875,-27.83203125,1.0,1.0,1.0,1.0,7.m4v,8.0
2024-02-28 10:41:04.328269,1709113264.3282683,-57.6171875,-49.31640625,-8.30078125,-63.4765625,1.0,1.0,1.0,1.0,7.m4v,8.0
2024-02-28 10:41:04.332174,1709113264.3321743,-39.55078125,-46.875,-13.18359375,-65.4296875,1.0,1.0,1.0,1.0,7.m4v,8.0
2024-02-28 10:41:04.336080,1709113264.33608,-55.17578125,-47.36328125,-27.34375,-41.50390625,1.0,1.0,1.0,1.0,7.m4v,8.0
2024-02-28 10:41:04.406385,1709113264.4063854,-78.61328125,-29.296875,-28.3203125,-80.56640625,1.0,1.0,1.0,1.0,7.m4v,8.0
2024-02-28 10:41:04.410291,1709113264.4102912,-104.00390625,-41.9921875,11.23046875,-82.51953125,1.0,1.0,1.0,1.0,7.m4v,8.0
2024-02-28 10:41:04.414197,1709113264.414197,-87.40234375,-44.921875,2.9296875,-73.2421875,1.0,1.0,1.0,1.0,7.m4v,8.0
2024-02-28 10:41:04.418103,1709113264.4181027,-69.82421875,-53.7109375,-15.625,-81.54296875,1.0,1.0,1.0,1.0,7.m4v,8.0
2024-02-28 10:41:04.422009,1709113264.4220085,-50.29296875,-60.546875,-27.34375,-59.08203125,1.0,1.0,1.0,1.0,7.m4v,8.0
2024-02-28 10:41:04.445443,1709113264.4454434,-56.640625,-21.97265625,-39.55078125,-68.359375,1.0,1.0,1.0,1.0,7.m4v,8.0
2024-02-28 10:41:04.449349,1709113264.4493492,-81.54296875,-41.9921875,-36.62109375,-108.88671875,1.0,1.0,1.0,1.0,7.m4v,8.0
2024-02-28 10:41:04.453255,1709113264.4532554,-89.35546875,-35.64453125,-24.4140625,-96.19140625,1.0,1.0,1.0,1.0,7.m4v,8.0
2024-02-28 10:41:04.457161,1709113264.4571612,-81.0546875,-22.4609375,-32.2265625,-88.37890625,1.0,1.0,1.0,1.0,7.m4v,8.0
2024-02-28 10:41:04.461067,1709113264.461067,-93.26171875,-29.78515625,-38.0859375,-64.453125,1.0,1.0,1.0,1.0,7.m4v,8.0
2024-02-28 10:41:04.464973,1709113264.4649727,-91.796875,-32.2265625,-59.08203125,-77.63671875,1.0,1.0,1.0,1.0,7.m4v,8.0
2024-02-28 10:41:04.468879,1709113264.4688785,-80.56640625,-25.390625,-47.36328125,-94.23828125,1.0,1.0,1.0,1.0,7.m4v,8.0
2024-02-28 10:41:04.472784,1709113264.4727845,-100.5859375,-36.62109375,-46.38671875,-72.265625,1.0,1.0,1.0,1.0,7.m4v,8.0
2024-02-28 10:41:04.476690,1709113264.47669,-98.14453125,-46.875,-38.57421875,-106.4453125,1.0,1.0,1.0,1.0,7.m4v,8.0
2024-02-28 10:41:04.480596,1709113264.4805958,-131.8359375,-34.66796875,-5.859375,-140.13671875,1.0,1.0,1.0,1.0,7.m4v,8.0
2024-02-28 10:41:04.484502,1709113264.4845016,-162.59765625,-28.80859375,-8.7890625,-128.41796875,1.0,1.0,1.0,1.0,7.m4v,8.0
2024-02-28 10:41:04.488407,1709113264.4884074,-164.0625,-48.33984375,-4.39453125,-130.37109375,1.0,1.0,1.0,1.0,7.m4v,8.0
2024-02-28 10:41:04.492313,1709113264.4923131,-170.8984375,-52.734375,-21.97265625,-148.92578125,1.0,1.0,1.0,1.0,7.m4v,8.0
2024-02-28 10:41:04.496219,1709113264.496219,-147.4609375,-34.66796875,-69.3359375,-138.671875,1.0,1.0,1.0,1.0,7.m4v,8.0
2024-02-28 10:41:04.500125,1709113264.5001252,-122.55859375,-17.08984375,-90.33203125,-92.28515625,1.0,1.0,1.0,1.0,7.m4v,8.0
2024-02-28 10:41:04.504031,1709113264.504031,-136.23046875,-27.34375,-48.33984375,-127.44140625,1.0,1.0,1.0,1.0,7.m4v,8.0
2024-02-28 10:41:04.507937,1709113264.5079367,-131.8359375,-47.8515625,3.41796875,-146.484375,1.0,1.0,1.0,1.0,7.m4v,8.0
2024-02-28 10:41:04.511842,1709113264.5118425,-137.20703125,-53.22265625,-14.16015625,-87.40234375,1.0,1.0,1.0,1.0,7.m4v,8.0
2024-02-28 10:41:04.515748,1709113264.5157485,-114.74609375,-35.15625,-26.3671875,-82.51953125,1.0,1.0,1.0,1.0,7.m4v,8.0
2024-02-28 10:41:04.519654,1709113264.519654,-93.75,-20.5078125,-19.04296875,-87.890625,1.0,1.0,1.0,1.0,7.m4v,8.0
2024-02-28 10:41:04.523560,1709113264.5235598,-64.94140625,-23.92578125,-20.5078125,-61.5234375,1.0,1.0,1.0,1.0,7.m4v,8.0
2024-02-28 10:41:04.527466,1709113264.5274656,-38.0859375,-35.15625,-23.92578125,-56.15234375,1.0,1.0,1.0,1.0,7.m4v,8.0
2024-02-28 10:41:04.531371,1709113264.5313714,-23.92578125,-42.96875,-36.1328125,-22.4609375,1.0,1.0,1.0,1.0,7.m4v,8.0
2024-02-28 10:41:04.535277,1709113264.5352771,-5.859375,-39.0625,-43.45703125,3.41796875,1.0,1.0,1.0,1.0,7.m4v,8.0
2024-02-28 10:41:04.539183,1709113264.539183,-23.4375,-42.48046875,-46.38671875,-8.30078125,1.0,1.0,1.0,1.0,7.m4v,8.0
2024-02-28 10:41:04.543089,1709113264.543089,-18.5546875,-57.12890625,-72.75390625,7.8125,1.0,1.0,1.0,1.0,7.m4v,8.0
2024-02-28 10:41:04.546995,1709113264.5469947,21.484375,-49.31640625,-57.6171875,9.27734375,1.0,1.0,1.0,1.0,7.m4v,8.0
2024-02-28 10:41:04.550900,1709113264.5509005,-10.7421875,-43.45703125,-15.625,-20.99609375,1.0,1.0,1.0,1.0,7.m4v,8.0
2024-02-28 10:41:04.554806,1709113264.5548062,-35.64453125,-47.36328125,-18.06640625,-41.015625,1.0,1.0,1.0,1.0,7.m4v,8.0
2024-02-28 10:41:04.558712,1709113264.558712,-27.83203125,-41.015625,-35.64453125,-39.0625,1.0,1.0,1.0,1.0,7.m4v,8.0
2024-02-28 10:41:04.562618,1709113264.562618,-37.109375,-30.76171875,-32.2265625,-30.2734375,1.0,1.0,1.0,1.0,7.m4v,8.0
2024-02-28 10:41:04.566524,1709113264.5665238,-15.13671875,-20.99609375,-39.55078125,-27.83203125,1.0,1.0,1.0,1.0,7.m4v,8.0
2024-02-28 10:41:04.570430,1709113264.5704296,-12.6953125,-38.57421875,-45.41015625,-13.18359375,1.0,1.0,1.0,1.0,7.m4v,8.0
2024-02-28 10:41:04.574335,1709113264.574335,-32.71484375,-53.22265625,-45.41015625,7.32421875,1.0,1.0,1.0,1.0,7.m4v,8.0
2024-02-28 10:41:04.578241,1709113264.578241,-27.83203125,-40.0390625,-43.9453125,12.6953125,1.0,1.0,1.0,1.0,7.m4v,8.0
2024-02-28 10:41:04.582147,1709113264.582147,2.44140625,-26.85546875,-35.64453125,-23.92578125,1.0,1.0,1.0,1.0,7.m4v,8.0
2024-02-28 10:41:04.586053,1709113264.586053,-5.859375,-37.109375,-38.57421875,-70.3125,1.0,1.0,1.0,1.0,7.m4v,8.0
2024-02-28 10:41:04.589958,1709113264.5899584,-50.78125,-38.57421875,-37.109375,-58.10546875,1.0,1.0,1.0,1.0,7.m4v,8.0
2024-02-28 10:41:04.593864,1709113264.5938642,-43.9453125,-33.69140625,-27.83203125,-36.1328125,1.0,1.0,1.0,1.0,7.m4v,8.0
2024-02-28 10:41:04.597770,1709113264.59777,-1.46484375,-31.73828125,-24.90234375,-33.203125,1.0,1.0,1.0,1.0,7.m4v,8.0
2024-02-28 10:41:04.601676,1709113264.6016755,1.953125,-27.83203125,-34.1796875,9.27734375,1.0,1.0,1.0,1.0,7.m4v,8.0
2024-02-28 10:41:04.605582,1709113264.6055815,-9.765625,-28.3203125,-50.29296875,-12.20703125,1.0,1.0,1.0,1.0,7.m4v,8.0
2024-02-28 10:41:04.609487,1709113264.6094873,-12.6953125,-39.0625,-51.26953125,-27.83203125,1.0,1.0,1.0,1.0,7.m4v,8.0
2024-02-28 10:41:04.613393,1709113264.613393,20.5078125,-46.38671875,-31.25,-1.953125,1.0,1.0,1.0,1.0,7.m4v,8.0
2024-02-28 10:41:04.617299,1709113264.6172988,11.71875,-30.2734375,-26.3671875,-8.30078125,1.0,1.0,1.0,1.0,7.m4v,8.0
2024-02-28 10:41:04.621205,1709113264.6212046,-21.484375,-33.203125,-44.43359375,-21.97265625,1.0,1.0,1.0,1.0,7.m4v,8.0
2024-02-28 10:41:04.625110,1709113264.6251104,-4.39453125,-53.22265625,-42.96875,-25.87890625,1.0,1.0,1.0,1.0,7.m4v,8.0
2024-02-28 10:41:04.629016,1709113264.6290162,-21.484375,-45.8984375,-24.4140625,-39.55078125,1.0,1.0,1.0,1.0,7.m4v,8.0
2024-02-28 10:41:04.632922,1709113264.6329222,-32.2265625,-30.2734375,-22.94921875,-31.25,1.0,1.0,1.0,1.0,7.m4v,8.0
2024-02-28 10:41:04.636828,1709113264.636828,-24.4140625,-21.97265625,-72.265625,-5.859375,1.0,1.0,1.0,1.0,7.m4v,8.0
2024-02-28 10:41:04.640735,1709113264.640735,-4.8828125,-21.97265625,-69.82421875,-16.6015625,1.0,1.0,1.0,1.0,7.m4v,8.0
2024-02-28 10:41:04.644640,1709113264.6446404,20.99609375,-29.296875,-17.578125,-7.32421875,1.0,1.0,1.0,1.0,7.m4v,8.0
2024-02-28 10:41:04.648546,1709113264.6485462,1.46484375,-23.4375,-34.1796875,-0.9765625,1.0,1.0,1.0,1.0,7.m4v,8.0
2024-02-28 10:41:04.652452,1709113264.652452,-10.7421875,-21.97265625,-47.8515625,-8.7890625,1.0,1.0,1.0,1.0,7.m4v,8.0
2024-02-28 10:41:04.656358,1709113264.6563578,-27.83203125,-32.71484375,-31.25,-28.80859375,1.0,1.0,1.0,1.0,7.m4v,8.0
2024-02-28 10:41:04.660264,1709113264.6602635,-34.1796875,-41.50390625,-19.04296875,-53.22265625,1.0,1.0,1.0,1.0,7.m4v,8.0
2024-02-28 10:41:04.664169,1709113264.6641693,-22.94921875,-46.38671875,-17.578125,-51.26953125,1.0,1.0,1.0,1.0,7.m4v,8.0
2024-02-28 10:41:04.668075,1709113264.668075,-48.828125,-48.828125,-18.5546875,-22.94921875,1.0,1.0,1.0,1.0,7.m4v,8.0
2024-02-28 10:41:04.671981,1709113264.6719809,-49.8046875,-52.24609375,-38.57421875,-20.99609375,1.0,1.0,1.0,1.0,7.m4v,8.0
2024-02-28 10:41:04.675887,1709113264.6758866,-30.2734375,-48.828125,-51.7578125,-63.4765625,1.0,1.0,1.0,1.0,7.m4v,8.0
2024-02-28 10:41:04.679792,1709113264.6797924,-17.578125,-43.9453125,-36.1328125,-49.31640625,1.0,1.0,1.0,1.0,7.m4v,8.0
2024-02-28 10:41:04.683698,1709113264.6836982,-20.01953125,-37.59765625,-56.640625,-30.76171875,1.0,1.0,1.0,1.0,7.m4v,8.0
2024-02-28 10:41:04.687606,1709113264.687606,-37.59765625,-27.34375,-74.21875,-26.3671875,1.0,1.0,1.0,1.0,7.m4v,8.0
2024-02-28 10:41:04.726664,1709113264.7266636,-33.69140625,-38.57421875,-59.08203125,-15.13671875,1.0,1.0,1.0,1.0,7.m4v,8.0
2024-02-28 10:41:04.730569,1709113264.7305694,-58.10546875,-50.78125,-44.43359375,-27.34375,1.0,1.0,1.0,1.0,7.m4v,8.0
2024-02-28 10:41:04.734476,1709113264.734476,-43.45703125,-54.19921875,-18.06640625,-14.6484375,1.0,1.0,1.0,1.0,7.m4v,8.0
2024-02-28 10:41:04.738382,1709113264.738382,-24.4140625,-35.15625,-29.78515625,-17.578125,1.0,1.0,1.0,1.0,7.m4v,8.0
2024-02-28 10:41:04.742288,1709113264.7422876,-16.11328125,-30.2734375,-38.57421875,-6.34765625,1.0,1.0,1.0,1.0,7.m4v,8.0
2024-02-28 10:41:04.746193,1709113264.7461934,-27.34375,-34.66796875,-50.78125,-8.30078125,1.0,1.0,1.0,1.0,7.m4v,8.0
2024-02-28 10:41:04.750099,1709113264.7500992,-12.6953125,-29.78515625,-55.17578125,-52.24609375,1.0,1.0,1.0,1.0,7.m4v,8.0
2024-02-28 10:41:04.754005,1709113264.754005,-2.44140625,-22.4609375,-28.80859375,-68.84765625,1.0,1.0,1.0,1.0,7.m4v,8.0
2024-02-28 10:41:04.757911,1709113264.7579107,-42.96875,-29.296875,-19.53125,-41.50390625,1.0,1.0,1.0,1.0,7.m4v,8.0
2024-02-28 10:41:04.761817,1709113264.7618165,-28.3203125,-41.015625,-22.94921875,-47.8515625,1.0,1.0,1.0,1.0,7.m4v,8.0
2024-02-28 10:41:04.765722,1709113264.7657225,-30.76171875,-36.62109375,-19.04296875,-42.96875,1.0,1.0,1.0,1.0,7.m4v,8.0
2024-02-28 10:41:04.769628,1709113264.769628,-41.015625,-26.3671875,-33.203125,-8.30078125,1.0,1.0,1.0,1.0,7.m4v,8.0
2024-02-28 10:41:04.773534,1709113264.7735338,-12.20703125,-31.73828125,-39.0625,-8.30078125,1.0,1.0,1.0,1.0,7.m4v,8.0
2024-02-28 10:41:04.886803,1709113264.886803,-4.8828125,-34.66796875,-43.9453125,-43.9453125,1.0,1.0,1.0,1.0,7.m4v,8.0
2024-02-28 10:41:04.890709,1709113264.8907087,-23.4375,-36.1328125,-25.87890625,-11.71875,1.0,1.0,1.0,1.0,7.m4v,8.0
2024-02-28 10:41:04.894614,1709113264.8946145,-41.9921875,-30.2734375,-29.296875,-17.08984375,1.0,1.0,1.0,1.0,7.m4v,8.0
2024-02-28 10:41:04.898520,1709113264.8985202,-33.69140625,-23.92578125,-50.78125,-33.203125,1.0,1.0,1.0,1.0,7.m4v,8.0
2024-02-28 10:41:04.902426,1709113264.902426,-16.6015625,-37.59765625,-57.12890625,-18.5546875,1.0,1.0,1.0,1.0,7.m4v,8.0
2024-02-28 10:41:04.906332,1709113264.906332,-20.01953125,-40.0390625,-27.83203125,-22.4609375,1.0,1.0,1.0,1.0,7.m4v,8.0
2024-02-28 10:41:04.910238,1709113264.9102378,-33.203125,-42.48046875,-5.37109375,-12.20703125,1.0,1.0,1.0,1.0,7.m4v,8.0
2024-02-28 10:41:04.914144,1709113264.9141436,-13.18359375,-35.15625,-37.109375,-14.16015625,1.0,1.0,1.0,1.0,7.m4v,8.0
2024-02-28 10:41:04.918049,1709113264.918049,6.34765625,-25.390625,-41.50390625,-37.59765625,1.0,1.0,1.0,1.0,7.m4v,8.0
2024-02-28 10:41:04.921955,1709113264.921955,-48.33984375,-36.62109375,-23.92578125,-75.1953125,1.0,1.0,1.0,1.0,7.m4v,8.0
2024-02-28 10:41:04.925861,1709113264.9258611,-71.2890625,-41.9921875,-29.296875,-72.265625,1.0,1.0,1.0,1.0,7.m4v,8.0
2024-02-28 10:41:04.929767,1709113264.929767,-36.1328125,-42.48046875,-52.734375,-26.85546875,1.0,1.0,1.0,1.0,7.m4v,8.0
2024-02-28 10:41:04.933673,1709113264.933673,-36.62109375,-52.734375,-69.82421875,-17.08984375,1.0,1.0,1.0,1.0,7.m4v,8.0
2024-02-28 10:41:04.937578,1709113264.9375784,-22.94921875,-53.7109375,-50.29296875,15.13671875,1.0,1.0,1.0,1.0,7.m4v,8.0
2024-02-28 10:41:04.941484,1709113264.9414842,-8.30078125,-39.0625,-23.4375,-18.06640625,1.0,1.0,1.0,1.0,7.m4v,8.0
2024-02-28 10:41:04.961013,1709113264.961013,-45.41015625,-27.34375,-77.1484375,-38.57421875,1.0,1.0,1.0,1.0,7.m4v,8.0
2024-02-28 10:41:04.968825,1709113264.9688249,-70.3125,-26.3671875,-25.390625,-15.13671875,1.0,1.0,1.0,1.0,7.m4v,8.0
2024-02-28 10:41:04.976636,1709113264.9766364,-89.84375,-40.0390625,-16.6015625,-110.3515625,1.0,1.0,1.0,1.0,7.m4v,8.0
2024-02-28 10:41:04.980542,1709113264.9805422,-70.3125,-34.66796875,-18.06640625,-108.88671875,1.0,1.0,1.0,1.0,7.m4v,8.0
2024-02-28 10:41:04.988354,1709113264.9883535,-74.70703125,-47.8515625,-20.99609375,-51.7578125,1.0,1.0,1.0,1.0,7.m4v,8.0
2024-02-28 10:41:04.992260,1709113264.9922595,-84.47265625,-53.22265625,-43.9453125,-75.1953125,1.0,1.0,1.0,1.0,7.m4v,8.0
2024-02-28 10:41:05.000071,1709113265.000071,-93.75,-29.296875,-44.43359375,-109.375,1.0,1.0,1.0,1.0,7.m4v,8.0
2024-02-28 10:41:05.003977,1709113265.0039768,-90.8203125,-24.4140625,-14.6484375,-106.4453125,1.0,1.0,1.0,1.0,7.m4v,8.0
2024-02-28 10:41:05.011788,1709113265.0117884,-85.9375,-24.90234375,-36.62109375,-43.9453125,1.0,1.0,1.0,1.0,7.m4v,8.0
2024-02-28 10:41:05.015695,1709113265.015695,-113.76953125,-30.2734375,-19.04296875,-75.68359375,1.0,1.0,1.0,1.0,7.m4v,8.0
2024-02-28 10:41:05.023507,1709113265.0235069,-91.796875,-37.109375,-45.41015625,-102.05078125,1.0,1.0,1.0,1.0,7.m4v,8.0
2024-02-28 10:41:05.027413,1709113265.027413,-88.8671875,-43.45703125,-71.77734375,-100.5859375,1.0,1.0,1.0,1.0,7.m4v,8.0
2024-02-28 10:41:05.035224,1709113265.0352242,-105.46875,-65.91796875,-24.90234375,-93.75,1.0,1.0,1.0,1.0,7.m4v,8.0
2024-02-28 10:41:05.039130,1709113265.03913,-99.609375,-52.24609375,-9.765625,-101.5625,1.0,1.0,1.0,1.0,7.m4v,8.0
2024-02-28 10:41:05.046942,1709113265.0469415,-126.953125,-37.109375,-38.57421875,-101.5625,1.0,1.0,1.0,1.0,7.m4v,8.0
2024-02-28 10:41:05.050847,1709113265.0508473,-116.69921875,-50.29296875,-41.9921875,-125.48828125,1.0,1.0,1.0,1.0,7.m4v,8.0
2024-02-28 10:41:05.058659,1709113265.0586588,-47.36328125,-26.3671875,-42.48046875,-8.7890625,1.0,1.0,1.0,1.0,7.m4v,8.0
2024-02-28 10:41:05.062566,1709113265.0625656,-73.73046875,-17.08984375,-44.921875,-16.6015625,1.0,1.0,1.0,1.0,7.m4v,8.0
2024-02-28 10:41:05.070377,1709113265.070377,-48.828125,-37.109375,-34.1796875,-77.63671875,1.0,1.0,1.0,1.0,7.m4v,8.0
2024-02-28 10:41:05.074283,1709113265.074283,-48.33984375,-54.19921875,-49.31640625,-51.26953125,1.0,1.0,1.0,1.0,7.m4v,8.0
2024-02-28 10:41:05.078189,1709113265.078189,-34.1796875,-64.453125,-45.41015625,-37.59765625,1.0,1.0,1.0,1.0,7.m4v,8.0
2024-02-28 10:41:05.230516,1709113265.2305162,-21.484375,-41.50390625,-35.15625,-53.22265625,1.0,1.0,1.0,1.0,7.m4v,8.0
2024-02-28 10:41:05.234422,1709113265.234422,-29.296875,-35.64453125,-69.82421875,-20.5078125,1.0,1.0,1.0,1.0,7.m4v,8.0
2024-02-28 10:41:05.238328,1709113265.2383275,-42.48046875,-41.50390625,-49.8046875,-55.17578125,1.0,1.0,1.0,1.0,7.m4v,8.0
2024-02-28 10:41:05.242234,1709113265.2422335,-40.52734375,-51.26953125,-18.06640625,-68.359375,1.0,1.0,1.0,1.0,7.m4v,8.0
2024-02-28 10:41:05.246139,1709113265.2461393,-33.69140625,-52.734375,-32.2265625,-41.9921875,1.0,1.0,1.0,1.0,7.m4v,8.0
2024-02-28 10:41:05.250046,1709113265.2500455,-33.203125,-35.15625,-41.9921875,-39.0625,1.0,1.0,1.0,1.0,7.m4v,8.0
2024-02-28 10:41:05.253951,1709113265.2539513,-35.64453125,-18.06640625,-35.15625,-22.4609375,1.0,1.0,1.0,1.0,7.m4v,8.0
2024-02-28 10:41:05.257857,1709113265.257857,-42.48046875,-21.484375,-61.5234375,-31.73828125,1.0,1.0,1.0,1.0,7.m4v,8.0
2024-02-28 10:41:05.261763,1709113265.2617629,-61.03515625,-34.1796875,-75.68359375,-46.875,1.0,1.0,1.0,1.0,7.m4v,8.0
2024-02-28 10:41:05.355502,1709113265.355502,-29.296875,-25.87890625,-37.109375,-31.25,1.0,1.0,1.0,1.0,7.m4v,8.0
2024-02-28 10:41:05.359408,1709113265.359408,-22.4609375,-32.2265625,-50.78125,-10.7421875,1.0,1.0,1.0,1.0,7.m4v,8.0
2024-02-28 10:41:05.363314,1709113265.3633137,-10.7421875,-41.50390625,-70.3125,30.76171875,1.0,1.0,1.0,1.0,7.m4v,8.0
2024-02-28 10:41:05.367219,1709113265.3672194,21.484375,-47.8515625,-83.984375,0.9765625,1.0,1.0,1.0,1.0,7.m4v,8.0
2024-02-28 10:41:05.371125,1709113265.3711252,-11.23046875,-35.64453125,-49.8046875,-64.453125,1.0,1.0,1.0,1.0,7.m4v,8.0
2024-02-28 10:41:05.375031,1709113265.375031,-61.03515625,-21.484375,-14.6484375,-59.5703125,1.0,1.0,1.0,1.0,7.m4v,8.0
2024-02-28 10:41:05.378937,1709113265.3789368,-62.01171875,-17.578125,-6.34765625,-76.171875,1.0,1.0,1.0,1.0,7.m4v,8.0
2024-02-28 10:41:05.382843,1709113265.3828423,-35.64453125,-19.04296875,-23.92578125,-64.453125,1.0,1.0,1.0,1.0,7.m4v,8.0
2024-02-28 10:41:05.386748,1709113265.3867483,-24.4140625,-36.62109375,-31.25,8.7890625,1.0,1.0,1.0,1.0,7.m4v,8.0
2024-02-28 10:41:05.390655,1709113265.390655,-34.1796875,-45.8984375,-29.296875,-3.90625,1.0,1.0,1.0,1.0,7.m4v,8.0
2024-02-28 10:41:05.394561,1709113265.3945608,-8.30078125,-36.62109375,-43.9453125,-35.64453125,1.0,1.0,1.0,1.0,7.m4v,8.0
2024-02-28 10:41:05.398467,1709113265.3984666,-16.6015625,-39.0625,-40.0390625,-26.3671875,1.0,1.0,1.0,1.0,7.m4v,8.0
2024-02-28 10:41:05.402372,1709113265.4023724,-34.1796875,-32.71484375,-25.390625,-5.859375,1.0,1.0,1.0,1.0,7.m4v,8.0
2024-02-28 10:41:05.406278,1709113265.406278,-32.71484375,-22.94921875,-35.64453125,-31.25,1.0,1.0,1.0,1.0,7.m4v,8.0
2024-02-28 10:41:05.410184,1709113265.410184,-21.97265625,-39.0625,-39.55078125,-41.9921875,1.0,1.0,1.0,1.0,7.m4v,8.0
2024-02-28 10:41:05.414090,1709113265.4140897,-9.27734375,-63.4765625,-22.4609375,-6.34765625,1.0,1.0,1.0,1.0,7.m4v,8.0
2024-02-28 10:41:05.417996,1709113265.4179957,-9.765625,-49.31640625,-33.69140625,-27.34375,1.0,1.0,1.0,1.0,7.m4v,8.0
2024-02-28 10:41:05.421901,1709113265.4219017,-1.953125,-22.4609375,-51.26953125,-9.765625,1.0,1.0,1.0,1.0,7.m4v,8.0
2024-02-28 10:41:05.425807,1709113265.4258072,-14.16015625,-29.296875,-40.0390625,-12.20703125,1.0,1.0,1.0,1.0,7.m4v,8.0
2024-02-28 10:41:05.429713,1709113265.429713,-33.69140625,-41.015625,-26.85546875,-42.48046875,1.0,1.0,1.0,1.0,7.m4v,8.0
2024-02-28 10:41:05.433619,1709113265.4336188,-29.296875,-40.52734375,-25.390625,-50.78125,1.0,1.0,1.0,1.0,7.m4v,8.0
2024-02-28 10:41:05.437525,1709113265.4375253,-16.11328125,-24.4140625,-36.1328125,-39.0625,1.0,1.0,1.0,1.0,7.m4v,8.0
2024-02-28 10:41:05.441431,1709113265.441431,-12.20703125,-15.625,-43.9453125,-15.625,1.0,1.0,1.0,1.0,7.m4v,8.0
2024-02-28 10:41:05.445337,1709113265.445337,18.06640625,-35.15625,-53.22265625,-13.18359375,1.0,1.0,1.0,1.0,7.m4v,8.0
2024-02-28 10:41:05.449243,1709113265.4492428,7.32421875,-54.6875,-55.6640625,-2.9296875,1.0,1.0,1.0,1.0,7.m4v,8.0
2024-02-28 10:41:05.453149,1709113265.4531486,12.6953125,-51.26953125,-34.66796875,-3.41796875,1.0,1.0,1.0,1.0,7.m4v,8.0
2024-02-28 10:41:05.457054,1709113265.4570544,16.11328125,-42.96875,-27.34375,-20.5078125,1.0,1.0,1.0,1.0,7.m4v,8.0
2024-02-28 10:41:05.460960,1709113265.46096,-17.578125,-40.52734375,-26.3671875,-25.87890625,1.0,1.0,1.0,1.0,7.m4v,8.0
2024-02-28 10:41:05.464866,1709113265.464866,-8.7890625,-24.4140625,-46.38671875,-40.0390625,1.0,1.0,1.0,1.0,7.m4v,8.0
2024-02-28 10:41:05.468772,1709113265.4687717,19.53125,-13.18359375,-51.7578125,-6.34765625,1.0,1.0,1.0,1.0,7.m4v,8.0
2024-02-28 10:41:05.472677,1709113265.4726777,21.484375,-24.90234375,-41.50390625,23.92578125,1.0,1.0,1.0,1.0,7.m4v,8.0
2024-02-28 10:41:05.476583,1709113265.4765832,-0.48828125,-31.73828125,-27.34375,-31.73828125,1.0,1.0,1.0,1.0,7.m4v,8.0
2024-02-28 10:41:05.480489,1709113265.480489,5.37109375,-40.0390625,-32.2265625,-27.34375,1.0,1.0,1.0,1.0,7.m4v,8.0
2024-02-28 10:41:05.484396,1709113265.4843955,21.97265625,-42.96875,-74.21875,26.85546875,1.0,1.0,1.0,1.0,7.m4v,8.0
2024-02-28 10:41:05.488301,1709113265.4883013,33.203125,-38.0859375,-59.5703125,29.78515625,1.0,1.0,1.0,1.0,7.m4v,8.0
2024-02-28 10:41:05.492207,1709113265.492207,-0.9765625,-37.109375,-17.08984375,-8.30078125,1.0,1.0,1.0,1.0,7.m4v,8.0
2024-02-28 10:41:05.496113,1709113265.4961128,-5.859375,-53.22265625,-25.87890625,-50.29296875,1.0,1.0,1.0,1.0,7.m4v,8.0
2024-02-28 10:41:05.500019,1709113265.5000186,10.25390625,-58.59375,-25.390625,-39.0625,1.0,1.0,1.0,1.0,7.m4v,8.0
2024-02-28 10:41:05.503924,1709113265.5039244,0.0,-40.0390625,-44.43359375,24.90234375,1.0,1.0,1.0,1.0,7.m4v,8.0
2024-02-28 10:41:05.507830,1709113265.50783,31.73828125,-25.87890625,-72.75390625,85.44921875,1.0,1.0,1.0,1.0,7.m4v,8.0
2024-02-28 10:41:05.511736,1709113265.511736,8.7890625,-17.578125,-54.19921875,20.5078125,1.0,1.0,1.0,1.0,7.m4v,8.0
2024-02-28 10:41:05.515642,1709113265.5156417,-6.8359375,-28.80859375,-38.57421875,-34.66796875,1.0,1.0,1.0,1.0,7.m4v,8.0
2024-02-28 10:41:05.519547,1709113265.5195477,0.0,-47.36328125,-39.0625,-53.7109375,1.0,1.0,1.0,1.0,7.m4v,8.0
2024-02-28 10:41:05.523453,1709113265.5234532,-23.4375,-56.15234375,-19.04296875,-59.08203125,1.0,1.0,1.0,1.0,7.m4v,8.0
2024-02-28 10:41:05.527359,1709113265.527359,-18.06640625,-48.828125,-19.04296875,-20.01953125,1.0,1.0,1.0,1.0,7.m4v,8.0
2024-02-28 10:41:05.531265,1709113265.5312655,-5.37109375,-54.6875,-31.25,-34.66796875,1.0,1.0,1.0,1.0,7.m4v,8.0
2024-02-28 10:41:05.535171,1709113265.5351713,-15.625,-57.12890625,-13.671875,-57.6171875,1.0,1.0,1.0,1.0,7.m4v,8.0
2024-02-28 10:41:05.539077,1709113265.539077,-35.64453125,-46.875,-31.25,-25.390625,1.0,1.0,1.0,1.0,7.m4v,8.0
2024-02-28 10:41:05.542983,1709113265.5429828,-37.109375,-36.62109375,-66.89453125,9.765625,1.0,1.0,1.0,1.0,7.m4v,8.0
2024-02-28 10:41:05.546889,1709113265.5468886,-11.71875,-32.2265625,-56.640625,-39.0625,1.0,1.0,1.0,1.0,7.m4v,8.0
2024-02-28 10:41:05.550794,1709113265.5507944,5.37109375,-34.66796875,-46.38671875,-57.6171875,1.0,1.0,1.0,1.0,7.m4v,8.0
2024-02-28 10:41:05.617193,1709113265.6171937,-59.08203125,-44.43359375,-26.3671875,-25.87890625,1.0,1.0,1.0,1.0,7.m4v,8.0
2024-02-28 10:41:05.621099,1709113265.6210992,-75.68359375,-51.7578125,-20.99609375,-45.41015625,1.0,1.0,1.0,1.0,7.m4v,8.0
2024-02-28 10:41:05.625005,1709113265.6250055,-59.08203125,-33.69140625,-19.53125,-99.12109375,1.0,1.0,1.0,1.0,7.m4v,8.0
2024-02-28 10:41:05.628911,1709113265.6289113,-26.3671875,-18.5546875,-31.25,-78.61328125,1.0,1.0,1.0,1.0,7.m4v,8.0
2024-02-28 10:41:05.632817,1709113265.632817,-46.875,-30.2734375,-48.828125,-35.64453125,1.0,1.0,1.0,1.0,7.m4v,8.0
2024-02-28 10:41:05.636723,1709113265.6367228,-63.4765625,-43.45703125,-34.66796875,-41.50390625,1.0,1.0,1.0,1.0,7.m4v,8.0
2024-02-28 10:41:05.640629,1709113265.6406286,-61.5234375,-43.45703125,-23.4375,-27.83203125,1.0,1.0,1.0,1.0,7.m4v,8.0
2024-02-28 10:41:05.644534,1709113265.6445343,-46.38671875,-36.1328125,-55.17578125,-16.6015625,1.0,1.0,1.0,1.0,7.m4v,8.0
2024-02-28 10:41:05.648440,1709113265.64844,-30.76171875,-32.2265625,-69.82421875,-43.45703125,1.0,1.0,1.0,1.0,7.m4v,8.0
2024-02-28 10:41:05.652346,1709113265.652346,-48.828125,-42.96875,-46.875,-64.94140625,1.0,1.0,1.0,1.0,7.m4v,8.0
2024-02-28 10:41:05.656252,1709113265.6562517,-65.4296875,-50.29296875,-26.3671875,-53.7109375,1.0,1.0,1.0,1.0,7.m4v,8.0
2024-02-28 10:41:05.660157,1709113265.6601574,-43.9453125,-57.6171875,-11.71875,-57.6171875,1.0,1.0,1.0,1.0,7.m4v,8.0
2024-02-28 10:41:05.664063,1709113265.6640632,-55.6640625,-49.31640625,-25.390625,-95.21484375,1.0,1.0,1.0,1.0,7.m4v,8.0
2024-02-28 10:41:05.667969,1709113265.667969,-66.89453125,-28.80859375,-46.38671875,-57.12890625,1.0,1.0,1.0,1.0,7.m4v,8.0
2024-02-28 10:41:05.671875,1709113265.671875,-62.98828125,-26.3671875,-45.8984375,-10.25390625,1.0,1.0,1.0,1.0,7.m4v,8.0
2024-02-28 10:41:05.675781,1709113265.6757808,-50.29296875,-38.57421875,-61.03515625,-22.94921875,1.0,1.0,1.0,1.0,7.m4v,8.0
2024-02-28 10:41:05.679687,1709113265.6796868,-23.92578125,-34.1796875,-57.6171875,-41.015625,1.0,1.0,1.0,1.0,7.m4v,8.0
2024-02-28 10:41:05.683593,1709113265.6835926,-45.8984375,-20.99609375,-23.4375,-74.70703125,1.0,1.0,1.0,1.0,7.m4v,8.0
2024-02-28 10:41:05.687498,1709113265.6874983,-67.3828125,-26.3671875,-12.20703125,-93.26171875,1.0,1.0,1.0,1.0,7.m4v,8.0
2024-02-28 10:41:05.691404,1709113265.691404,-63.4765625,-32.71484375,-38.57421875,-43.9453125,1.0,1.0,1.0,1.0,7.m4v,8.0
2024-02-28 10:41:05.695310,1709113265.69531,-55.17578125,-31.25,-46.875,-45.41015625,1.0,1.0,1.0,1.0,7.m4v,8.0
2024-02-28 10:41:05.699216,1709113265.6992157,-43.9453125,-29.78515625,-38.0859375,-17.578125,1.0,1.0,1.0,1.0,7.m4v,8.0
2024-02-28 10:41:05.832014,1709113265.8320138,-52.734375,-50.29296875,-47.36328125,-76.171875,1.0,1.0,1.0,1.0,7.m4v,8.0
2024-02-28 10:41:05.835920,1709113265.8359196,-30.76171875,-41.015625,-57.12890625,-43.45703125,1.0,1.0,1.0,1.0,7.m4v,8.0
2024-02-28 10:41:05.839825,1709113265.8398254,-28.3203125,-42.48046875,-68.359375,14.6484375,1.0,1.0,1.0,1.0,7.m4v,8.0
2024-02-28 10:41:05.843731,1709113265.8437312,-25.87890625,-64.94140625,-67.3828125,13.671875,1.0,1.0,1.0,1.0,7.m4v,8.0
2024-02-28 10:41:05.847637,1709113265.847637,-32.71484375,-49.31640625,-35.64453125,-10.25390625,1.0,1.0,1.0,1.0,7.m4v,8.0
2024-02-28 10:41:05.851543,1709113265.8515427,-26.3671875,-25.87890625,-13.671875,-47.8515625,1.0,1.0,1.0,1.0,7.m4v,8.0
2024-02-28 10:41:05.855448,1709113265.8554485,-24.90234375,-23.4375,-24.90234375,-94.23828125,1.0,1.0,1.0,1.0,7.m4v,8.0
2024-02-28 10:41:05.859355,1709113265.859355,-50.29296875,-22.4609375,-20.01953125,-75.1953125,1.0,1.0,1.0,1.0,7.m4v,8.0
2024-02-28 10:41:05.863261,1709113265.8632607,-54.6875,-27.83203125,-8.7890625,-20.99609375,1.0,1.0,1.0,1.0,7.m4v,8.0
2024-02-28 10:41:05.867167,1709113265.8671665,-51.26953125,-31.25,-19.53125,-24.90234375,1.0,1.0,1.0,1.0,7.m4v,8.0
2024-02-28 10:41:05.871072,1709113265.8710723,-33.69140625,-34.66796875,-38.0859375,-14.6484375,1.0,1.0,1.0,1.0,7.m4v,8.0
2024-02-28 10:41:05.874978,1709113265.874978,-21.97265625,-38.0859375,-63.4765625,20.99609375,1.0,1.0,1.0,1.0,7.m4v,8.0
2024-02-28 10:41:05.878884,1709113265.8788838,-52.24609375,-41.015625,-66.40625,-20.5078125,1.0,1.0,1.0,1.0,7.m4v,8.0
2024-02-28 10:41:05.882790,1709113265.8827896,-57.6171875,-46.38671875,-37.59765625,-53.7109375,1.0,1.0,1.0,1.0,7.m4v,8.0
2024-02-28 10:41:05.886695,1709113265.8866954,-36.1328125,-44.43359375,1.953125,-40.52734375,1.0,1.0,1.0,1.0,7.m4v,8.0
2024-02-28 10:41:05.890601,1709113265.8906012,-27.83203125,-57.6171875,17.08984375,-11.71875,1.0,1.0,1.0,1.0,7.m4v,8.0
2024-02-28 10:41:05.894507,1709113265.894507,-47.36328125,-57.6171875,-15.625,-50.78125,1.0,1.0,1.0,1.0,7.m4v,8.0
2024-02-28 10:41:05.898413,1709113265.8984127,-63.4765625,-35.15625,-34.66796875,-63.4765625,1.0,1.0,1.0,1.0,7.m4v,8.0
2024-02-28 10:41:05.902318,1709113265.9023185,-55.6640625,-39.0625,-38.57421875,-34.66796875,1.0,1.0,1.0,1.0,7.m4v,8.0
2024-02-28 10:41:05.906225,1709113265.906225,-34.1796875,-35.15625,-59.08203125,-40.52734375,1.0,1.0,1.0,1.0,7.m4v,8.0
2024-02-28 10:41:05.910131,1709113265.9101307,-42.48046875,-14.16015625,-60.05859375,-38.0859375,1.0,1.0,1.0,1.0,7.m4v,8.0
2024-02-28 10:41:05.914037,1709113265.9140365,-38.57421875,-0.9765625,-41.50390625,-33.69140625,1.0,1.0,1.0,1.0,7.m4v,8.0
2024-02-28 10:41:05.917942,1709113265.9179423,-17.578125,-18.5546875,-10.7421875,-41.015625,1.0,1.0,1.0,1.0,7.m4v,8.0
2024-02-28 10:41:05.921848,1709113265.921848,-44.43359375,-36.62109375,-4.8828125,-8.30078125,1.0,1.0,1.0,1.0,7.m4v,8.0
2024-02-28 10:41:05.925754,1709113265.9257538,-58.10546875,-34.1796875,-11.23046875,-12.6953125,1.0,1.0,1.0,1.0,7.m4v,8.0
2024-02-28 10:41:05.929660,1709113265.9296596,-27.34375,-42.48046875,-16.11328125,-52.734375,1.0,1.0,1.0,1.0,7.m4v,8.0
2024-02-28 10:41:05.933565,1709113265.9335654,-36.62109375,-63.4765625,-33.203125,-54.6875,1.0,1.0,1.0,1.0,7.m4v,8.0
2024-02-28 10:41:05.937471,1709113265.9374712,-59.5703125,-71.77734375,-42.96875,-45.8984375,1.0,1.0,1.0,1.0,7.m4v,8.0
2024-02-28 10:41:05.941377,1709113265.941377,-52.734375,-68.84765625,-41.9921875,-84.47265625,1.0,1.0,1.0,1.0,7.m4v,8.0
2024-02-28 10:41:05.945283,1709113265.9452827,-55.6640625,-48.828125,-32.71484375,-53.22265625,1.0,1.0,1.0,1.0,7.m4v,8.0
2024-02-28 10:41:05.949188,1709113265.9491885,-42.96875,-24.90234375,-49.31640625,18.5546875,1.0,1.0,1.0,1.0,7.m4v,8.0
2024-02-28 10:41:05.953095,1709113265.9530947,-30.76171875,0.48828125,-70.3125,-12.6953125,1.0,1.0,1.0,1.0,7.m4v,8.0
2024-02-28 10:41:05.957000,1709113265.9570005,-20.5078125,2.44140625,-53.7109375,-47.36328125,1.0,1.0,1.0,1.0,7.m4v,8.0
2024-02-28 10:41:05.960906,1709113265.9609065,-50.29296875,-33.69140625,-35.15625,-59.08203125,1.0,1.0,1.0,1.0,7.m4v,8.0
2024-02-28 10:41:05.964812,1709113265.964812,-65.4296875,-50.29296875,-14.6484375,-68.359375,1.0,1.0,1.0,1.0,7.m4v,8.0
2024-02-28 10:41:05.968718,1709113265.9687178,-38.57421875,-39.0625,-9.27734375,-30.2734375,1.0,1.0,1.0,1.0,7.m4v,8.0
2024-02-28 10:41:05.972624,1709113265.9726236,-42.48046875,-33.69140625,-32.2265625,-7.8125,1.0,1.0,1.0,1.0,7.m4v,8.0
2024-02-28 10:41:05.976529,1709113265.9765294,-41.015625,-38.0859375,-44.921875,-42.96875,1.0,1.0,1.0,1.0,7.m4v,8.0
2024-02-28 10:41:05.980435,1709113265.9804351,-36.1328125,-43.9453125,-71.2890625,-55.6640625,1.0,1.0,1.0,1.0,7.m4v,8.0
2024-02-28 10:41:05.984341,1709113265.984341,-33.203125,-31.25,-70.80078125,-29.78515625,1.0,1.0,1.0,1.0,7.m4v,8.0
2024-02-28 10:41:05.988247,1709113265.988247,-10.7421875,-9.765625,-34.66796875,-41.015625,1.0,1.0,1.0,1.0,7.m4v,8.0
2024-02-28 10:41:05.992153,1709113265.9921527,-49.31640625,-7.32421875,-21.484375,-24.4140625,1.0,1.0,1.0,1.0,7.m4v,8.0
2024-02-28 10:41:05.996058,1709113265.9960585,-50.29296875,-12.6953125,-33.69140625,19.53125,1.0,1.0,1.0,1.0,7.m4v,8.0
2024-02-28 10:41:05.999965,1709113265.9999647,-46.875,-18.5546875,-49.8046875,-26.85546875,1.0,1.0,1.0,1.0,7.m4v,8.0
2024-02-28 10:41:06.003870,1709113266.0038705,-59.5703125,-26.85546875,-31.25,-80.56640625,1.0,1.0,1.0,1.0,7.m4v,8.0
2024-02-28 10:41:06.007776,1709113266.0077765,-45.41015625,-45.41015625,-14.16015625,-55.17578125,1.0,1.0,1.0,1.0,7.m4v,8.0
2024-02-28 10:41:06.011682,1709113266.011682,-50.78125,-71.77734375,-23.4375,-56.15234375,1.0,1.0,1.0,1.0,7.m4v,8.0
2024-02-28 10:41:06.015588,1709113266.0155878,-41.015625,-83.0078125,-38.0859375,-20.99609375,1.0,1.0,1.0,1.0,7.m4v,8.0
2024-02-28 10:41:06.019494,1709113266.0194936,-34.66796875,-52.734375,-35.15625,-35.64453125,1.0,1.0,1.0,1.0,7.m4v,8.0
2024-02-28 10:41:06.023399,1709113266.0233994,-53.22265625,-18.5546875,-33.203125,-67.3828125,1.0,1.0,1.0,1.0,7.m4v,8.0
2024-02-28 10:41:06.027305,1709113266.0273051,-45.8984375,-20.5078125,-62.01171875,-44.921875,1.0,1.0,1.0,1.0,7.m4v,8.0
2024-02-28 10:41:06.031211,1709113266.031211,-57.6171875,-28.80859375,-44.921875,-41.9921875,1.0,1.0,1.0,1.0,7.m4v,8.0
2024-02-28 10:41:06.035117,1709113266.035117,-64.453125,-43.45703125,-10.7421875,-57.12890625,1.0,1.0,1.0,1.0,7.m4v,8.0
2024-02-28 10:41:06.039022,1709113266.0390224,-51.7578125,-40.0390625,-8.7890625,-45.8984375,1.0,1.0,1.0,1.0,7.m4v,8.0
2024-02-28 10:41:06.042928,1709113266.0429282,-41.015625,-28.3203125,-35.15625,-50.78125,1.0,1.0,1.0,1.0,7.m4v,8.0
2024-02-28 10:41:06.046834,1709113266.0468342,-40.0390625,-27.83203125,-57.6171875,-60.05859375,1.0,1.0,1.0,1.0,7.m4v,8.0
2024-02-28 10:41:06.050740,1709113266.05074,-41.9921875,-37.109375,-57.6171875,-33.69140625,1.0,1.0,1.0,1.0,7.m4v,8.0
2024-02-28 10:41:06.054646,1709113266.0546458,-14.6484375,-71.2890625,-38.57421875,-12.20703125,1.0,1.0,1.0,1.0,7.m4v,8.0
2024-02-28 10:41:06.058552,1709113266.0585515,-15.625,-65.4296875,-32.71484375,-22.4609375,1.0,1.0,1.0,1.0,7.m4v,8.0
2024-02-28 10:41:06.062457,1709113266.062457,-60.05859375,-17.578125,-62.98828125,-35.64453125,1.0,1.0,1.0,1.0,7.m4v,8.0
2024-02-28 10:41:06.066363,1709113266.066363,-73.2421875,-2.9296875,-71.77734375,-54.19921875,1.0,1.0,1.0,1.0,7.m4v,8.0
2024-02-28 10:41:06.101515,1709113266.1015153,-31.73828125,-15.625,-84.47265625,-55.6640625,1.0,1.0,1.0,1.0,7.m4v,8.0
2024-02-28 10:41:06.105421,1709113266.105421,-21.484375,-30.2734375,-67.3828125,-47.36328125,1.0,1.0,1.0,1.0,7.m4v,8.0
2024-02-28 10:41:06.109327,1709113266.1093268,-58.10546875,-37.59765625,-30.2734375,-84.9609375,1.0,1.0,1.0,1.0,7.m4v,8.0
2024-02-28 10:41:06.113233,1709113266.1132326,-88.37890625,-34.66796875,0.48828125,-72.265625,1.0,1.0,1.0,1.0,7.m4v,8.0
2024-02-28 10:41:06.117138,1709113266.1171384,-73.2421875,-40.52734375,-16.11328125,-48.33984375,1.0,1.0,1.0,1.0,7.m4v,8.0
2024-02-28 10:41:06.121044,1709113266.1210442,-44.921875,-44.921875,-42.96875,-50.29296875,1.0,1.0,1.0,1.0,7.m4v,8.0
2024-02-28 10:41:06.124950,1709113266.12495,-24.4140625,-53.22265625,-45.8984375,-13.671875,1.0,1.0,1.0,1.0,7.m4v,8.0
2024-02-28 10:41:06.257750,1709113266.2577496,-35.64453125,-12.6953125,-56.15234375,-31.25,1.0,1.0,1.0,1.0,7.m4v,8.0
2024-02-28 10:41:06.261655,1709113266.261655,-55.17578125,-30.76171875,-8.30078125,-64.453125,1.0,1.0,1.0,1.0,7.m4v,8.0
2024-02-28 10:41:06.265561,1709113266.265561,-53.22265625,-49.8046875,-18.06640625,-55.17578125,1.0,1.0,1.0,1.0,7.m4v,8.0
2024-02-28 10:41:06.269467,1709113266.2694669,-68.84765625,-56.15234375,-19.53125,-47.8515625,1.0,1.0,1.0,1.0,7.m4v,8.0
2024-02-28 10:41:06.273373,1709113266.273373,-66.40625,-43.9453125,-29.296875,-66.40625,1.0,1.0,1.0,1.0,7.m4v,8.0
2024-02-28 10:41:06.316337,1709113266.3163369,-8.30078125,-23.92578125,-39.0625,3.90625,1.0,1.0,1.0,1.0,7.m4v,8.0
2024-02-28 10:41:06.320243,1709113266.3202426,-18.06640625,-33.203125,-56.15234375,-2.44140625,1.0,1.0,1.0,1.0,7.m4v,8.0
2024-02-28 10:41:06.324148,1709113266.3241484,-28.3203125,-28.80859375,-66.89453125,-83.984375,1.0,1.0,1.0,1.0,7.m4v,8.0
2024-02-28 10:41:06.328055,1709113266.328055,-42.48046875,-25.87890625,-56.640625,-64.94140625,1.0,1.0,1.0,1.0,7.m4v,8.0
2024-02-28 10:41:06.331960,1709113266.3319604,-46.38671875,-21.484375,-44.921875,-11.71875,1.0,1.0,1.0,1.0,7.m4v,8.0
2024-02-28 10:41:06.335866,1709113266.3358662,-32.71484375,-22.94921875,-30.76171875,-63.96484375,1.0,1.0,1.0,1.0,7.m4v,8.0
2024-02-28 10:41:06.339772,1709113266.339772,-22.94921875,-38.57421875,-28.3203125,-62.5,1.0,1.0,1.0,1.0,7.m4v,8.0
2024-02-28 10:41:06.511627,1709113266.5116272,-41.50390625,-18.06640625,-22.4609375,-56.15234375,1.0,1.0,1.0,1.0,7.m4v,8.0
2024-02-28 10:41:06.511627,1709113266.5116272,-41.50390625,-18.06640625,-22.4609375,-56.15234375,1.0,1.0,1.0,1.0,7.m4v,8.0
2024-02-28 10:41:06.511627,1709113266.5116272,-41.50390625,-18.06640625,-22.4609375,-56.15234375,1.0,1.0,1.0,1.0,7.m4v,8.0
2024-02-28 10:41:06.511627,1709113266.5116272,-41.50390625,-18.06640625,-22.4609375,-56.15234375,1.0,1.0,1.0,1.0,7.m4v,8.0
2024-02-28 10:41:06.511627,1709113266.5116272,-41.50390625,-18.06640625,-22.4609375,-56.15234375,1.0,1.0,1.0,1.0,7.m4v,8.0
2024-02-28 10:41:06.663956,1709113266.6639562,-39.0625,-54.19921875,-49.8046875,-2.44140625,1.0,1.0,1.0,1.0,7.m4v,8.0
2024-02-28 10:41:06.667862,1709113266.667862,-35.64453125,-44.921875,-68.84765625,-8.30078125,1.0,1.0,1.0,1.0,7.m4v,8.0
2024-02-28 10:41:06.671768,1709113266.6717677,-1.953125,-41.015625,-54.6875,-55.6640625,1.0,1.0,1.0,1.0,7.m4v,8.0
2024-02-28 10:41:06.675673,1709113266.6756735,-23.4375,-31.73828125,-11.71875,-51.7578125,1.0,1.0,1.0,1.0,7.m4v,8.0
2024-02-28 10:41:06.679579,1709113266.6795793,-34.66796875,-26.3671875,-24.90234375,-18.5546875,1.0,1.0,1.0,1.0,7.m4v,8.0
2024-02-28 10:41:06.683485,1709113266.683485,-31.25,-30.76171875,-68.359375,-17.578125,1.0,1.0,1.0,1.0,7.m4v,8.0
2024-02-28 10:41:06.687391,1709113266.6873908,-37.59765625,-35.15625,-60.546875,-21.484375,1.0,1.0,1.0,1.0,7.m4v,8.0
2024-02-28 10:41:06.691297,1709113266.6912966,-18.5546875,-33.69140625,-42.96875,-34.1796875,1.0,1.0,1.0,1.0,7.m4v,8.0
2024-02-28 10:41:06.695202,1709113266.6952024,-29.78515625,-28.80859375,-27.83203125,-60.546875,1.0,1.0,1.0,1.0,7.m4v,8.0
2024-02-28 10:41:06.699108,1709113266.699108,-42.96875,-36.1328125,2.9296875,-64.94140625,1.0,1.0,1.0,1.0,7.m4v,8.0
2024-02-28 10:41:06.703015,1709113266.7030146,-41.50390625,-51.7578125,3.41796875,-55.17578125,1.0,1.0,1.0,1.0,7.m4v,8.0
2024-02-28 10:41:06.706920,1709113266.7069204,-41.9921875,-56.640625,-29.296875,-48.828125,1.0,1.0,1.0,1.0,7.m4v,8.0
2024-02-28 10:41:06.710826,1709113266.7108262,1.953125,-48.33984375,-38.57421875,0.9765625,1.0,1.0,1.0,1.0,7.m4v,8.0
2024-02-28 10:41:06.714732,1709113266.714732,0.0,-47.36328125,-22.4609375,21.97265625,1.0,1.0,1.0,1.0,7.m4v,8.0
2024-02-28 10:41:06.714732,1709113266.714732,0.0,-47.36328125,-22.4609375,21.97265625,1.0,1.0,1.0,1.0,7.m4v,8.0
2024-02-28 10:41:06.714732,1709113266.714732,0.0,-47.36328125,-22.4609375,21.97265625,1.0,1.0,1.0,1.0,7.m4v,8.0
2024-02-28 10:41:06.714732,1709113266.714732,0.0,-47.36328125,-22.4609375,21.97265625,1.0,1.0,1.0,1.0,7.m4v,8.0
2024-02-28 10:41:06.714732,1709113266.714732,0.0,-47.36328125,-22.4609375,21.97265625,1.0,1.0,1.0,1.0,7.m4v,8.0
2024-02-28 10:41:06.718638,1709113266.7186377,-29.296875,-32.71484375,-41.015625,-29.78515625,1.0,1.0,1.0,1.0,7.m4v,8.0
2024-02-28 10:41:06.718638,1709113266.7186377,-29.296875,-32.71484375,-41.015625,-29.78515625,1.0,1.0,1.0,1.0,7.m4v,8.0
2024-02-28 10:41:06.718638,1709113266.7186377,-29.296875,-32.71484375,-41.015625,-29.78515625,1.0,1.0,1.0,1.0,7.m4v,8.0
2024-02-28 10:41:06.718638,1709113266.7186377,-29.296875,-32.71484375,-41.015625,-29.78515625,1.0,1.0,1.0,1.0,7.m4v,8.0
2024-02-28 10:41:06.718638,1709113266.7186377,-29.296875,-32.71484375,-41.015625,-29.78515625,1.0,1.0,1.0,1.0,7.m4v,8.0
2024-02-28 10:41:06.722543,1709113266.7225437,-40.0390625,-13.18359375,-48.828125,-32.2265625,1.0,1.0,1.0,1.0,7.m4v,8.0
2024-02-28 10:41:06.722543,1709113266.7225437,-40.0390625,-13.18359375,-48.828125,-32.2265625,1.0,1.0,1.0,1.0,7.m4v,8.0
2024-02-28 10:41:06.722543,1709113266.7225437,-40.0390625,-13.18359375,-48.828125,-32.2265625,1.0,1.0,1.0,1.0,7.m4v,8.0
2024-02-28 10:41:06.722543,1709113266.7225437,-40.0390625,-13.18359375,-48.828125,-32.2265625,1.0,1.0,1.0,1.0,7.m4v,8.0
2024-02-28 10:41:06.722543,1709113266.7225437,-40.0390625,-13.18359375,-48.828125,-32.2265625,1.0,1.0,1.0,1.0,7.m4v,8.0
2024-02-28 10:41:06.726449,1709113266.7264493,-47.8515625,-13.18359375,-49.8046875,-33.69140625,1.0,1.0,1.0,1.0,7.m4v,8.0
2024-02-28 10:41:06.726449,1709113266.7264493,-47.8515625,-13.18359375,-49.8046875,-33.69140625,1.0,1.0,1.0,1.0,7.m4v,8.0
2024-02-28 10:41:06.726449,1709113266.7264493,-47.8515625,-13.18359375,-49.8046875,-33.69140625,1.0,1.0,1.0,1.0,7.m4v,8.0
2024-02-28 10:41:06.726449,1709113266.7264493,-47.8515625,-13.18359375,-49.8046875,-33.69140625,1.0,1.0,1.0,1.0,7.m4v,8.0
2024-02-28 10:41:06.726449,1709113266.7264493,-47.8515625,-13.18359375,-49.8046875,-33.69140625,1.0,1.0,1.0,1.0,7.m4v,8.0
2024-02-28 10:41:06.730355,1709113266.730355,-45.8984375,-23.92578125,-52.734375,-51.26953125,1.0,1.0,1.0,1.0,7.m4v,8.0
2024-02-28 10:41:06.730355,1709113266.730355,-45.8984375,-23.92578125,-52.734375,-51.26953125,1.0,1.0,1.0,1.0,7.m4v,8.0
2024-02-28 10:41:06.730355,1709113266.730355,-45.8984375,-23.92578125,-52.734375,-51.26953125,1.0,1.0,1.0,1.0,7.m4v,8.0
2024-02-28 10:41:06.730355,1709113266.730355,-45.8984375,-23.92578125,-52.734375,-51.26953125,1.0,1.0,1.0,1.0,7.m4v,8.0
2024-02-28 10:41:06.730355,1709113266.730355,-45.8984375,-23.92578125,-52.734375,-51.26953125,1.0,1.0,1.0,1.0,7.m4v,8.0
2024-02-28 10:41:06.734261,1709113266.7342608,-41.50390625,-26.3671875,-40.0390625,-22.94921875,1.0,1.0,1.0,1.0,7.m4v,8.0
2024-02-28 10:41:06.734261,1709113266.7342608,-41.50390625,-26.3671875,-40.0390625,-22.94921875,1.0,1.0,1.0,1.0,7.m4v,8.0
2024-02-28 10:41:06.734261,1709113266.7342608,-41.50390625,-26.3671875,-40.0390625,-22.94921875,1.0,1.0,1.0,1.0,7.m4v,8.0
2024-02-28 10:41:06.734261,1709113266.7342608,-41.50390625,-26.3671875,-40.0390625,-22.94921875,1.0,1.0,1.0,1.0,7.m4v,8.0
2024-02-28 10:41:06.734261,1709113266.7342608,-41.50390625,-26.3671875,-40.0390625,-22.94921875,1.0,1.0,1.0,1.0,7.m4v,8.0
2024-02-28 10:41:06.738167,1709113266.7381666,-18.06640625,-23.4375,-56.640625,-6.34765625,1.0,1.0,1.0,1.0,7.m4v,8.0
2024-02-28 10:41:06.738167,1709113266.7381666,-18.06640625,-23.4375,-56.640625,-6.34765625,1.0,1.0,1.0,1.0,7.m4v,8.0
2024-02-28 10:41:06.738167,1709113266.7381666,-18.06640625,-23.4375,-56.640625,-6.34765625,1.0,1.0,1.0,1.0,7.m4v,8.0
2024-02-28 10:41:06.738167,1709113266.7381666,-18.06640625,-23.4375,-56.640625,-6.34765625,1.0,1.0,1.0,1.0,7.m4v,8.0
2024-02-28 10:41:06.738167,1709113266.7381666,-18.06640625,-23.4375,-56.640625,-6.34765625,1.0,1.0,1.0,1.0,7.m4v,8.0
2024-02-28 10:41:06.742072,1709113266.7420723,-9.27734375,-41.015625,-63.96484375,-22.94921875,1.0,1.0,1.0,1.0,7.m4v,8.0
2024-02-28 10:41:06.742072,1709113266.7420723,-9.27734375,-41.015625,-63.96484375,-22.94921875,1.0,1.0,1.0,1.0,7.m4v,8.0
2024-02-28 10:41:06.742072,1709113266.7420723,-9.27734375,-41.015625,-63.96484375,-22.94921875,1.0,1.0,1.0,1.0,7.m4v,8.0
2024-02-28 10:41:06.745978,1709113266.745978,-33.69140625,-48.33984375,-28.80859375,-34.1796875,1.0,1.0,1.0,1.0,7.m4v,8.0
2024-02-28 10:41:06.745978,1709113266.745978,-33.69140625,-48.33984375,-28.80859375,-34.1796875,1.0,1.0,1.0,1.0,7.m4v,8.0
2024-02-28 10:41:06.745978,1709113266.745978,-33.69140625,-48.33984375,-28.80859375,-34.1796875,1.0,1.0,1.0,1.0,7.m4v,8.0
2024-02-28 10:41:06.749884,1709113266.7498844,-41.50390625,-30.2734375,-11.71875,-51.26953125,1.0,1.0,1.0,1.0,7.m4v,8.0
2024-02-28 10:41:06.749884,1709113266.7498844,-41.50390625,-30.2734375,-11.71875,-51.26953125,1.0,1.0,1.0,1.0,7.m4v,8.0
2024-02-28 10:41:06.749884,1709113266.7498844,-41.50390625,-30.2734375,-11.71875,-51.26953125,1.0,1.0,1.0,1.0,7.m4v,8.0
2024-02-28 10:41:06.753790,1709113266.75379,-33.69140625,-31.25,-29.78515625,-41.50390625,1.0,1.0,1.0,1.0,7.m4v,8.0
2024-02-28 10:41:06.753790,1709113266.75379,-33.69140625,-31.25,-29.78515625,-41.50390625,1.0,1.0,1.0,1.0,7.m4v,8.0
2024-02-28 10:41:06.753790,1709113266.75379,-33.69140625,-31.25,-29.78515625,-41.50390625,1.0,1.0,1.0,1.0,7.m4v,8.0
2024-02-28 10:41:06.757696,1709113266.757696,-25.87890625,-37.59765625,-53.7109375,-35.64453125,1.0,1.0,1.0,1.0,7.m4v,8.0
2024-02-28 10:41:06.757696,1709113266.757696,-25.87890625,-37.59765625,-53.7109375,-35.64453125,1.0,1.0,1.0,1.0,7.m4v,8.0
2024-02-28 10:41:06.757696,1709113266.757696,-25.87890625,-37.59765625,-53.7109375,-35.64453125,1.0,1.0,1.0,1.0,7.m4v,8.0
2024-02-28 10:41:06.761602,1709113266.7616017,-29.78515625,-22.4609375,-43.9453125,-40.0390625,1.0,1.0,1.0,1.0,7.m4v,8.0
2024-02-28 10:41:06.761602,1709113266.7616017,-29.78515625,-22.4609375,-43.9453125,-40.0390625,1.0,1.0,1.0,1.0,7.m4v,8.0
2024-02-28 10:41:06.761602,1709113266.7616017,-29.78515625,-22.4609375,-43.9453125,-40.0390625,1.0,1.0,1.0,1.0,7.m4v,8.0
2024-02-28 10:41:06.765507,1709113266.7655077,-31.25,-29.296875,-28.3203125,-20.01953125,1.0,1.0,1.0,1.0,7.m4v,8.0
2024-02-28 10:41:06.765507,1709113266.7655077,-31.25,-29.296875,-28.3203125,-20.01953125,1.0,1.0,1.0,1.0,7.m4v,8.0
2024-02-28 10:41:06.765507,1709113266.7655077,-31.25,-29.296875,-28.3203125,-20.01953125,1.0,1.0,1.0,1.0,7.m4v,8.0
2024-02-28 10:41:06.769413,1709113266.7694132,-33.69140625,-45.8984375,-33.69140625,-46.875,1.0,1.0,1.0,1.0,7.m4v,8.0
2024-02-28 10:41:06.769413,1709113266.7694132,-33.69140625,-45.8984375,-33.69140625,-46.875,1.0,1.0,1.0,1.0,7.m4v,8.0
2024-02-28 10:41:06.769413,1709113266.7694132,-33.69140625,-45.8984375,-33.69140625,-46.875,1.0,1.0,1.0,1.0,7.m4v,8.0
2024-02-28 10:41:06.773319,1709113266.773319,-46.38671875,-34.66796875,-40.52734375,-54.6875,1.0,1.0,1.0,1.0,7.m4v,8.0
2024-02-28 10:41:06.773319,1709113266.773319,-46.38671875,-34.66796875,-40.52734375,-54.6875,1.0,1.0,1.0,1.0,7.m4v,8.0
2024-02-28 10:41:06.773319,1709113266.773319,-46.38671875,-34.66796875,-40.52734375,-54.6875,1.0,1.0,1.0,1.0,7.m4v,8.0
2024-02-28 10:41:06.777225,1709113266.7772248,-50.29296875,-24.4140625,-42.48046875,-20.01953125,1.0,1.0,1.0,1.0,7.m4v,8.0
2024-02-28 10:41:06.777225,1709113266.7772248,-50.29296875,-24.4140625,-42.48046875,-20.01953125,1.0,1.0,1.0,1.0,7.m4v,8.0
2024-02-28 10:41:06.777225,1709113266.7772248,-50.29296875,-24.4140625,-42.48046875,-20.01953125,1.0,1.0,1.0,1.0,7.m4v,8.0
2024-02-28 10:41:06.781131,1709113266.7811306,-40.52734375,-28.3203125,-42.96875,-46.875,1.0,1.0,1.0,1.0,7.m4v,8.0
2024-02-28 10:41:06.781131,1709113266.7811306,-40.52734375,-28.3203125,-42.96875,-46.875,1.0,1.0,1.0,1.0,7.m4v,8.0
2024-02-28 10:41:06.781131,1709113266.7811306,-40.52734375,-28.3203125,-42.96875,-46.875,1.0,1.0,1.0,1.0,7.m4v,8.0
2024-02-28 10:41:06.785036,1709113266.7850363,-39.55078125,-34.66796875,-46.875,-45.41015625,1.0,1.0,1.0,1.0,7.m4v,8.0
2024-02-28 10:41:06.785036,1709113266.7850363,-39.55078125,-34.66796875,-46.875,-45.41015625,1.0,1.0,1.0,1.0,7.m4v,8.0
2024-02-28 10:41:06.785036,1709113266.7850363,-39.55078125,-34.66796875,-46.875,-45.41015625,1.0,1.0,1.0,1.0,7.m4v,8.0
2024-02-28 10:41:06.788942,1709113266.7889423,-47.36328125,-48.828125,-34.1796875,-11.71875,1.0,1.0,1.0,1.0,7.m4v,8.0
2024-02-28 10:41:06.792848,1709113266.792848,-48.828125,-50.78125,-45.8984375,-42.48046875,1.0,1.0,1.0,1.0,7.m4v,8.0
2024-02-28 10:41:06.792848,1709113266.792848,-48.828125,-50.78125,-45.8984375,-42.48046875,1.0,1.0,1.0,1.0,7.m4v,8.0
2024-02-28 10:41:06.792848,1709113266.792848,-48.828125,-50.78125,-45.8984375,-42.48046875,1.0,1.0,1.0,1.0,7.m4v,8.0
2024-02-28 10:41:06.796755,1709113266.796755,-30.76171875,-24.4140625,-45.8984375,-30.2734375,1.0,1.0,1.0,1.0,7.m4v,8.0
2024-02-28 10:41:06.800661,1709113266.8006608,-31.73828125,-16.6015625,-14.6484375,-28.3203125,1.0,1.0,1.0,1.0,7.m4v,8.0
2024-02-28 10:41:06.804567,1709113266.8045666,-55.6640625,-38.0859375,-1.953125,-46.38671875,1.0,1.0,1.0,1.0,7.m4v,8.0
2024-02-28 10:41:06.808472,1709113266.8084724,-49.31640625,-35.64453125,-22.94921875,-48.828125,1.0,1.0,1.0,1.0,7.m4v,8.0
2024-02-28 10:41:06.812378,1709113266.8123782,-42.48046875,-35.15625,-48.828125,-58.10546875,1.0,1.0,1.0,1.0,7.m4v,8.0
2024-02-28 10:41:06.816284,1709113266.816284,-34.1796875,-39.55078125,-38.0859375,-42.48046875,1.0,1.0,1.0,1.0,7.m4v,8.0
2024-02-28 10:41:06.820190,1709113266.8201897,-36.1328125,-41.015625,-37.109375,-26.3671875,1.0,1.0,1.0,1.0,7.m4v,8.0
2024-02-28 10:41:06.824095,1709113266.8240955,-41.50390625,-25.390625,-62.98828125,-47.8515625,1.0,1.0,1.0,1.0,7.m4v,8.0
2024-02-28 10:41:06.828001,1709113266.8280013,-22.94921875,-39.55078125,-71.77734375,-46.38671875,1.0,1.0,1.0,1.0,7.m4v,8.0
2024-02-28 10:41:06.831907,1709113266.831907,-20.5078125,-67.3828125,-30.76171875,-34.1796875,1.0,1.0,1.0,1.0,7.m4v,8.0
2024-02-28 10:41:06.835813,1709113266.8358128,-41.015625,-34.66796875,4.8828125,-22.4609375,1.0,1.0,1.0,1.0,7.m4v,8.0
2024-02-28 10:41:06.839719,1709113266.8397186,-49.8046875,-9.765625,-3.90625,-41.9921875,1.0,1.0,1.0,1.0,7.m4v,8.0
2024-02-28 10:41:06.843625,1709113266.8436246,-37.59765625,-30.2734375,-17.08984375,-54.6875,1.0,1.0,1.0,1.0,7.m4v,8.0
2024-02-28 10:41:06.847530,1709113266.8475304,-34.1796875,-27.83203125,-20.01953125,-40.0390625,1.0,1.0,1.0,1.0,7.m4v,8.0
2024-02-28 10:41:06.851436,1709113266.851436,-31.25,-15.625,-24.90234375,-14.16015625,1.0,1.0,1.0,1.0,7.m4v,8.0
2024-02-28 10:41:06.855342,1709113266.855342,-8.30078125,-25.390625,-30.76171875,-3.41796875,1.0,1.0,1.0,1.0,7.m4v,8.0
2024-02-28 10:41:06.859248,1709113266.8592477,-23.4375,-37.59765625,-32.71484375,-51.26953125,1.0,1.0,1.0,1.0,7.m4v,8.0
2024-02-28 10:41:06.863153,1709113266.8631537,-20.5078125,-36.62109375,-58.10546875,-39.0625,1.0,1.0,1.0,1.0,7.m4v,8.0
2024-02-28 10:41:06.867059,1709113266.8670592,9.27734375,-28.80859375,-81.0546875,37.109375,1.0,1.0,1.0,1.0,7.m4v,8.0
2024-02-28 10:41:06.870965,1709113266.870965,-28.80859375,-30.2734375,-64.94140625,-0.48828125,1.0,1.0,1.0,1.0,7.m4v,8.0
2024-02-28 10:41:06.874871,1709113266.8748708,-37.109375,-45.8984375,-36.62109375,-28.3203125,1.0,1.0,1.0,1.0,7.m4v,8.0
2024-02-28 10:41:06.878777,1709113266.8787766,-34.1796875,-44.43359375,-4.8828125,-58.10546875,1.0,1.0,1.0,1.0,7.m4v,8.0
2024-02-28 10:41:06.882682,1709113266.8826823,-62.98828125,-23.4375,-2.44140625,-96.6796875,1.0,1.0,1.0,1.0,7.m4v,8.0
2024-02-28 10:41:06.886588,1709113266.8865883,-53.22265625,-16.11328125,-14.6484375,-65.4296875,1.0,1.0,1.0,1.0,7.m4v,8.0
2024-02-28 10:41:06.890495,1709113266.890495,-15.625,-17.08984375,-45.8984375,-41.015625,1.0,1.0,1.0,1.0,7.m4v,8.0
2024-02-28 10:41:06.894401,1709113266.8944008,-20.5078125,-22.4609375,-84.47265625,-38.57421875,1.0,1.0,1.0,1.0,7.m4v,8.0
2024-02-28 10:41:06.898307,1709113266.8983066,-39.55078125,-28.3203125,-78.61328125,-18.06640625,1.0,1.0,1.0,1.0,7.m4v,8.0
2024-02-28 10:41:06.902212,1709113266.9022124,-21.97265625,-36.1328125,-37.59765625,3.41796875,1.0,1.0,1.0,1.0,7.m4v,8.0
2024-02-28 10:41:06.906118,1709113266.9061182,-14.16015625,-48.828125,-21.97265625,-40.52734375,1.0,1.0,1.0,1.0,7.m4v,8.0
2024-02-28 10:41:06.910024,1709113266.910024,-74.70703125,-60.546875,-29.78515625,-75.68359375,1.0,1.0,1.0,1.0,7.m4v,8.0
2024-02-28 10:41:06.913930,1709113266.9139297,-73.2421875,-46.875,-16.11328125,-59.08203125,1.0,1.0,1.0,1.0,7.m4v,8.0
2024-02-28 10:41:06.917835,1709113266.9178357,-55.6640625,-34.1796875,-14.6484375,-39.0625,1.0,1.0,1.0,1.0,7.m4v,8.0
2024-02-28 10:41:06.921741,1709113266.9217412,-45.8984375,-39.55078125,-29.296875,-34.1796875,1.0,1.0,1.0,1.0,7.m4v,8.0
2024-02-28 10:41:06.925647,1709113266.925647,-33.69140625,-27.83203125,-54.6875,-36.1328125,1.0,1.0,1.0,1.0,7.m4v,8.0
2024-02-28 10:41:06.929553,1709113266.9295528,-40.0390625,-15.13671875,-76.66015625,-28.80859375,1.0,1.0,1.0,1.0,7.m4v,8.0
2024-02-28 10:41:06.933459,1709113266.9334586,-41.50390625,-23.92578125,-54.6875,-37.109375,1.0,1.0,1.0,1.0,7.m4v,8.0
2024-02-28 10:41:06.937365,1709113266.937365,-4.39453125,-33.203125,-22.94921875,-61.5234375,1.0,1.0,1.0,1.0,7.m4v,8.0
2024-02-28 10:41:06.941271,1709113266.9412708,-17.08984375,-43.9453125,-31.73828125,-58.10546875,1.0,1.0,1.0,1.0,7.m4v,8.0
2024-02-28 10:41:06.972517,1709113266.9725173,-23.4375,-48.33984375,-41.50390625,-9.765625,1.0,1.0,1.0,1.0,7.m4v,8.0
2024-02-28 10:41:06.976423,1709113266.976423,-43.45703125,-57.12890625,-23.92578125,2.9296875,1.0,1.0,1.0,1.0,7.m4v,8.0
2024-02-28 10:41:06.980329,1709113266.9803288,-25.390625,-50.29296875,-19.04296875,-51.7578125,1.0,1.0,1.0,1.0,7.m4v,8.0
2024-02-28 10:41:06.984235,1709113266.9842353,-49.8046875,-44.921875,-16.6015625,-83.0078125,1.0,1.0,1.0,1.0,7.m4v,8.0
2024-02-28 10:41:06.988141,1709113266.988141,-62.5,-38.57421875,-32.71484375,-79.1015625,1.0,1.0,1.0,1.0,7.m4v,8.0
2024-02-28 10:41:06.992047,1709113266.9920468,-43.9453125,-17.578125,-56.640625,-55.6640625,1.0,1.0,1.0,1.0,7.m4v,8.0
2024-02-28 10:41:06.995953,1709113266.9959526,-21.484375,-19.53125,-57.12890625,-24.90234375,1.0,1.0,1.0,1.0,7.m4v,8.0
2024-02-28 10:41:06.999858,1709113266.9998584,-19.04296875,-45.8984375,-30.76171875,6.34765625,1.0,1.0,1.0,1.0,7.m4v,8.0
2024-02-28 10:41:07.003764,1709113267.0037642,-37.59765625,-39.0625,-43.45703125,-26.3671875,1.0,1.0,1.0,1.0,7.m4v,8.0
2024-02-28 10:41:07.007670,1709113267.00767,-18.5546875,-35.64453125,-66.40625,-15.13671875,1.0,1.0,1.0,1.0,7.m4v,8.0
2024-02-28 10:41:07.011576,1709113267.0115757,-10.25390625,-45.8984375,-37.109375,-14.16015625,1.0,1.0,1.0,1.0,7.m4v,8.0
2024-02-28 10:41:07.015481,1709113267.0154817,-41.015625,-25.390625,-9.27734375,-69.3359375,1.0,1.0,1.0,1.0,7.m4v,8.0
2024-02-28 10:41:07.019387,1709113267.0193872,-42.96875,-5.37109375,-6.34765625,-75.68359375,1.0,1.0,1.0,1.0,7.m4v,8.0
2024-02-28 10:41:07.023293,1709113267.023293,-29.296875,-19.53125,-20.5078125,-62.01171875,1.0,1.0,1.0,1.0,7.m4v,8.0
2024-02-28 10:41:07.027199,1709113267.0271988,-37.59765625,-44.921875,-35.15625,-51.7578125,1.0,1.0,1.0,1.0,7.m4v,8.0
2024-02-28 10:41:07.031105,1709113267.0311053,-47.36328125,-54.6875,-33.69140625,-40.52734375,1.0,1.0,1.0,1.0,7.m4v,8.0
2024-02-28 10:41:07.035011,1709113267.035011,-20.99609375,-49.31640625,-58.10546875,0.9765625,1.0,1.0,1.0,1.0,7.m4v,8.0
2024-02-28 10:41:07.038917,1709113267.0389168,-5.859375,-27.34375,-72.265625,37.59765625,1.0,1.0,1.0,1.0,7.m4v,8.0
2024-02-28 10:41:07.120939,1709113267.120939,-40.52734375,-23.4375,-9.27734375,-50.29296875,1.0,1.0,1.0,1.0,7.m4v,8.0
2024-02-28 10:41:07.120939,1709113267.120939,-40.52734375,-23.4375,-9.27734375,-50.29296875,1.0,1.0,1.0,1.0,7.m4v,8.0
2024-02-28 10:41:07.120939,1709113267.120939,-40.52734375,-23.4375,-9.27734375,-50.29296875,1.0,1.0,1.0,1.0,7.m4v,8.0
2024-02-28 10:41:07.136562,1709113267.1365623,-37.109375,-42.48046875,-63.4765625,-44.43359375,1.0,1.0,1.0,1.0,7.m4v,8.0
2024-02-28 10:41:07.136562,1709113267.1365623,-37.109375,-42.48046875,-63.4765625,-44.43359375,1.0,1.0,1.0,1.0,7.m4v,8.0
2024-02-28 10:41:07.136562,1709113267.1365623,-37.109375,-42.48046875,-63.4765625,-44.43359375,1.0,1.0,1.0,1.0,7.m4v,8.0
2024-02-28 10:41:07.152186,1709113267.1521857,-27.83203125,-47.8515625,-37.109375,-7.8125,1.0,1.0,1.0,1.0,7.m4v,8.0
2024-02-28 10:41:07.152186,1709113267.1521857,-27.83203125,-47.8515625,-37.109375,-7.8125,1.0,1.0,1.0,1.0,7.m4v,8.0
2024-02-28 10:41:07.152186,1709113267.1521857,-27.83203125,-47.8515625,-37.109375,-7.8125,1.0,1.0,1.0,1.0,7.m4v,8.0
2024-02-28 10:41:07.167809,1709113267.1678088,-39.0625,-14.16015625,-67.87109375,-10.25390625,1.0,1.0,1.0,1.0,7.m4v,8.0
2024-02-28 10:41:07.167809,1709113267.1678088,-39.0625,-14.16015625,-67.87109375,-10.25390625,1.0,1.0,1.0,1.0,7.m4v,8.0
2024-02-28 10:41:07.167809,1709113267.1678088,-39.0625,-14.16015625,-67.87109375,-10.25390625,1.0,1.0,1.0,1.0,7.m4v,8.0
2024-02-28 10:41:07.175621,1709113267.1756206,-32.2265625,-42.96875,-13.18359375,-44.921875,1.0,1.0,1.0,1.0,7.m4v,8.0
2024-02-28 10:41:07.179526,1709113267.1795263,-15.625,-36.1328125,-18.06640625,-34.1796875,1.0,1.0,1.0,1.0,7.m4v,8.0
2024-02-28 10:41:07.183432,1709113267.183432,-50.78125,-33.203125,-44.43359375,-69.82421875,1.0,1.0,1.0,1.0,7.m4v,8.0
2024-02-28 10:41:07.183432,1709113267.183432,-50.78125,-33.203125,-44.43359375,-69.82421875,1.0,1.0,1.0,1.0,7.m4v,8.0
2024-02-28 10:41:07.183432,1709113267.183432,-50.78125,-33.203125,-44.43359375,-69.82421875,1.0,1.0,1.0,1.0,7.m4v,8.0
2024-02-28 10:41:07.187338,1709113267.187338,-40.52734375,-52.734375,-44.43359375,-52.24609375,1.0,1.0,1.0,1.0,7.m4v,8.0
2024-02-28 10:41:07.191244,1709113267.1912436,-28.80859375,-75.68359375,-36.1328125,-21.484375,1.0,1.0,1.0,1.0,7.m4v,8.0
2024-02-28 10:41:07.195149,1709113267.1951494,-55.17578125,-61.03515625,-41.50390625,-66.40625,1.0,1.0,1.0,1.0,7.m4v,8.0
2024-02-28 10:41:07.199055,1709113267.1990552,-43.9453125,-27.34375,-58.59375,-60.05859375,1.0,1.0,1.0,1.0,7.m4v,8.0
2024-02-28 10:41:07.199055,1709113267.1990552,-43.9453125,-27.34375,-58.59375,-60.05859375,1.0,1.0,1.0,1.0,7.m4v,8.0
2024-02-28 10:41:07.199055,1709113267.1990552,-43.9453125,-27.34375,-58.59375,-60.05859375,1.0,1.0,1.0,1.0,7.m4v,8.0
2024-02-28 10:41:07.202961,1709113267.202961,-41.50390625,-23.4375,-55.6640625,-58.59375,1.0,1.0,1.0,1.0,7.m4v,8.0
2024-02-28 10:41:07.206867,1709113267.2068667,-66.40625,-23.4375,-32.71484375,-61.5234375,1.0,1.0,1.0,1.0,7.m4v,8.0
2024-02-28 10:41:07.210773,1709113267.2107725,-75.68359375,-31.73828125,-12.6953125,-29.296875,1.0,1.0,1.0,1.0,7.m4v,8.0
2024-02-28 10:41:07.210773,1709113267.2107725,-75.68359375,-31.73828125,-12.6953125,-29.296875,1.0,1.0,1.0,1.0,7.m4v,8.0
2024-02-28 10:41:07.210773,1709113267.2107725,-75.68359375,-31.73828125,-12.6953125,-29.296875,1.0,1.0,1.0,1.0,7.m4v,8.0
2024-02-28 10:41:07.214678,1709113267.2146783,-41.015625,-36.1328125,-24.90234375,-1.953125,1.0,1.0,1.0,1.0,7.m4v,8.0
2024-02-28 10:41:07.218584,1709113267.2185843,-7.8125,-22.4609375,-70.80078125,-2.44140625,1.0,1.0,1.0,1.0,7.m4v,8.0
2024-02-28 10:41:07.222490,1709113267.22249,-33.203125,-28.80859375,-53.7109375,-12.6953125,1.0,1.0,1.0,1.0,7.m4v,8.0
2024-02-28 10:41:07.226396,1709113267.2263958,-14.16015625,-45.41015625,-15.625,-52.24609375,1.0,1.0,1.0,1.0,7.m4v,8.0
2024-02-28 10:41:07.226396,1709113267.2263958,-14.16015625,-45.41015625,-15.625,-52.24609375,1.0,1.0,1.0,1.0,7.m4v,8.0
2024-02-28 10:41:07.226396,1709113267.2263958,-14.16015625,-45.41015625,-15.625,-52.24609375,1.0,1.0,1.0,1.0,7.m4v,8.0
2024-02-28 10:41:07.230302,1709113267.2303016,-36.62109375,-59.5703125,-17.578125,-35.15625,1.0,1.0,1.0,1.0,7.m4v,8.0
2024-02-28 10:41:07.234207,1709113267.2342074,-64.94140625,-57.6171875,-17.578125,-28.3203125,1.0,1.0,1.0,1.0,7.m4v,8.0
2024-02-28 10:41:07.238113,1709113267.2381132,-51.7578125,-47.36328125,-22.94921875,-55.17578125,1.0,1.0,1.0,1.0,7.m4v,8.0
2024-02-28 10:41:07.238113,1709113267.2381132,-51.7578125,-47.36328125,-22.94921875,-55.17578125,1.0,1.0,1.0,1.0,7.m4v,8.0
2024-02-28 10:41:07.238113,1709113267.2381132,-51.7578125,-47.36328125,-22.94921875,-55.17578125,1.0,1.0,1.0,1.0,7.m4v,8.0
2024-02-28 10:41:07.242019,1709113267.242019,-23.4375,-40.52734375,-46.38671875,-8.30078125,1.0,1.0,1.0,1.0,7.m4v,8.0
2024-02-28 10:41:07.253736,1709113267.2537365,-28.3203125,-20.5078125,-35.15625,-34.1796875,1.0,1.0,1.0,1.0,7.m4v,8.0
2024-02-28 10:41:07.253736,1709113267.2537365,-28.3203125,-20.5078125,-35.15625,-34.1796875,1.0,1.0,1.0,1.0,7.m4v,8.0
2024-02-28 10:41:07.253736,1709113267.2537365,-28.3203125,-20.5078125,-35.15625,-34.1796875,1.0,1.0,1.0,1.0,7.m4v,8.0
2024-02-28 10:41:07.265455,1709113267.2654548,-16.11328125,-48.828125,-14.6484375,-60.546875,1.0,1.0,1.0,1.0,7.m4v,8.0
2024-02-28 10:41:07.265455,1709113267.2654548,-16.11328125,-48.828125,-14.6484375,-60.546875,1.0,1.0,1.0,1.0,7.m4v,8.0
2024-02-28 10:41:07.265455,1709113267.2654548,-16.11328125,-48.828125,-14.6484375,-60.546875,1.0,1.0,1.0,1.0,7.m4v,8.0
2024-02-28 10:41:07.277172,1709113267.277172,-14.6484375,-16.11328125,-14.16015625,12.20703125,1.0,1.0,1.0,1.0,7.m4v,8.0
2024-02-28 10:41:07.277172,1709113267.277172,-14.6484375,-16.11328125,-14.16015625,12.20703125,1.0,1.0,1.0,1.0,7.m4v,8.0
2024-02-28 10:41:07.277172,1709113267.277172,-14.6484375,-16.11328125,-14.16015625,12.20703125,1.0,1.0,1.0,1.0,7.m4v,8.0
2024-02-28 10:41:07.281078,1709113267.281078,-37.59765625,-17.08984375,-24.90234375,-24.90234375,1.0,1.0,1.0,1.0,7.m4v,8.0
2024-02-28 10:41:07.281078,1709113267.281078,-37.59765625,-17.08984375,-24.90234375,-24.90234375,1.0,1.0,1.0,1.0,7.m4v,8.0
2024-02-28 10:41:07.281078,1709113267.281078,-37.59765625,-17.08984375,-24.90234375,-24.90234375,1.0,1.0,1.0,1.0,7.m4v,8.0
2024-02-28 10:41:07.284984,1709113267.2849836,-17.08984375,-23.92578125,-65.91796875,-47.8515625,1.0,1.0,1.0,1.0,7.m4v,8.0
2024-02-28 10:41:07.284984,1709113267.2849836,-17.08984375,-23.92578125,-65.91796875,-47.8515625,1.0,1.0,1.0,1.0,7.m4v,8.0
2024-02-28 10:41:07.284984,1709113267.2849836,-17.08984375,-23.92578125,-65.91796875,-47.8515625,1.0,1.0,1.0,1.0,7.m4v,8.0
2024-02-28 10:41:07.288889,1709113267.2888894,-38.0859375,-37.59765625,-64.94140625,-19.04296875,1.0,1.0,1.0,1.0,7.m4v,8.0
2024-02-28 10:41:07.288889,1709113267.2888894,-38.0859375,-37.59765625,-64.94140625,-19.04296875,1.0,1.0,1.0,1.0,7.m4v,8.0
2024-02-28 10:41:07.288889,1709113267.2888894,-38.0859375,-37.59765625,-64.94140625,-19.04296875,1.0,1.0,1.0,1.0,7.m4v,8.0
2024-02-28 10:41:07.292795,1709113267.2927952,-46.875,-51.7578125,-53.7109375,-41.50390625,1.0,1.0,1.0,1.0,7.m4v,8.0
2024-02-28 10:41:07.292795,1709113267.2927952,-46.875,-51.7578125,-53.7109375,-41.50390625,1.0,1.0,1.0,1.0,7.m4v,8.0
2024-02-28 10:41:07.296701,1709113267.296701,-21.484375,-50.29296875,-38.57421875,-27.34375,1.0,1.0,1.0,1.0,7.m4v,8.0
