Timestamp,Timestamp_UNIX,TP9,AF7,AF8,TP10,Valence,Arousal,Dominace,Viewed,Video,Participant
2024-02-28 10:54:39.359112,1709114079.3591115,-58.10546875,-54.19921875,-26.3671875,-54.19921875,-1.0,-1.0,1.0,0.0,9.m4v,8.0
2024-02-28 10:54:39.366923,1709114079.366923,-64.453125,-25.390625,-20.99609375,-7.8125,-1.0,-1.0,1.0,0.0,9.m4v,8.0
2024-02-28 10:54:39.374735,1709114079.3747349,-31.25,-18.06640625,-98.14453125,-78.125,-1.0,-1.0,1.0,0.0,9.m4v,8.0
2024-02-28 10:54:39.382546,1709114079.3825464,-43.9453125,-30.76171875,-6.8359375,-71.77734375,-1.0,-1.0,1.0,0.0,9.m4v,8.0
2024-02-28 10:54:39.390358,1709114079.390358,-56.640625,-26.85546875,5.859375,-80.078125,-1.0,-1.0,1.0,0.0,9.m4v,8.0
2024-02-28 10:54:39.398170,1709114079.3981698,-84.9609375,-48.33984375,-39.55078125,-10.7421875,-1.0,-1.0,1.0,0.0,9.m4v,8.0
2024-02-28 10:54:39.405984,1709114079.4059844,28.3203125,-54.19921875,-100.09765625,-25.390625,-1.0,-1.0,1.0,0.0,9.m4v,8.0
2024-02-28 10:54:39.413796,1709114079.413796,-95.21484375,-46.38671875,-18.06640625,-105.46875,-1.0,-1.0,1.0,0.0,9.m4v,8.0
2024-02-28 10:54:39.421608,1709114079.4216075,-80.078125,-26.3671875,5.37109375,-61.03515625,-1.0,-1.0,1.0,0.0,9.m4v,8.0
2024-02-28 10:54:39.429419,1709114079.4294193,-62.98828125,-38.0859375,-39.0625,-41.50390625,-1.0,-1.0,1.0,0.0,9.m4v,8.0
2024-02-28 10:54:39.437231,1709114079.4372308,-61.5234375,-37.59765625,-90.8203125,-83.0078125,-1.0,-1.0,1.0,0.0,9.m4v,8.0
2024-02-28 10:54:39.445043,1709114079.4450426,-76.66015625,-31.73828125,-13.18359375,-101.07421875,-1.0,-1.0,1.0,0.0,9.m4v,8.0
2024-02-28 10:54:39.452857,1709114079.452857,-54.6875,-40.0390625,-45.41015625,-55.17578125,-1.0,-1.0,1.0,0.0,9.m4v,8.0
2024-02-28 10:54:39.554414,1709114079.5544138,-27.83203125,3.90625,-96.19140625,-29.78515625,-1.0,-1.0,1.0,0.0,9.m4v,8.0
2024-02-28 10:54:39.562225,1709114079.562225,-3.90625,-67.87109375,2.44140625,-80.078125,-1.0,-1.0,1.0,0.0,9.m4v,8.0
2024-02-28 10:54:39.570037,1709114079.5700371,-45.8984375,-37.109375,-7.8125,-47.36328125,-1.0,-1.0,1.0,0.0,9.m4v,8.0
2024-02-28 10:54:39.570037,1709114079.5700371,-45.8984375,-37.109375,-7.8125,-47.36328125,-1.0,-1.0,1.0,0.0,9.m4v,8.0
2024-02-28 10:54:39.573943,1709114079.573943,-39.0625,-10.7421875,-38.57421875,-36.62109375,-1.0,-1.0,1.0,0.0,9.m4v,8.0
2024-02-28 10:54:39.573943,1709114079.573943,-39.0625,-10.7421875,-38.57421875,-36.62109375,-1.0,-1.0,1.0,0.0,9.m4v,8.0
2024-02-28 10:54:39.581754,1709114079.5817544,-11.71875,-14.16015625,-55.17578125,-18.06640625,-1.0,-1.0,1.0,0.0,9.m4v,8.0
2024-02-28 10:54:39.589569,1709114079.5895686,-6.34765625,-42.48046875,-35.15625,4.39453125,-1.0,-1.0,1.0,0.0,9.m4v,8.0
2024-02-28 10:54:39.593475,1709114079.5934746,-67.87109375,-45.41015625,-63.4765625,-70.3125,-1.0,-1.0,1.0,0.0,9.m4v,8.0
2024-02-28 10:54:39.601286,1709114079.6012862,28.3203125,-53.22265625,-26.3671875,37.109375,-1.0,-1.0,1.0,0.0,9.m4v,8.0
2024-02-28 10:54:39.609098,1709114079.6090977,-91.796875,-17.08984375,-8.30078125,-133.7890625,-1.0,-1.0,1.0,0.0,9.m4v,8.0
2024-02-28 10:54:39.613004,1709114079.6130035,-22.4609375,-8.30078125,-9.27734375,-96.19140625,-1.0,-1.0,1.0,0.0,9.m4v,8.0
2024-02-28 10:54:39.616910,1709114079.6169095,-10.25390625,-12.6953125,-31.25,-92.28515625,-1.0,-1.0,1.0,0.0,9.m4v,8.0
2024-02-28 10:54:39.620815,1709114079.6208153,-40.0390625,-16.6015625,-81.0546875,-0.48828125,-1.0,-1.0,1.0,0.0,9.m4v,8.0
2024-02-28 10:54:39.624721,1709114079.624721,-16.11328125,-20.99609375,-63.4765625,16.11328125,-1.0,-1.0,1.0,0.0,9.m4v,8.0
2024-02-28 10:54:39.628627,1709114079.628627,-30.2734375,-43.45703125,-33.69140625,20.99609375,-1.0,-1.0,1.0,0.0,9.m4v,8.0
2024-02-28 10:54:39.632533,1709114079.6325328,20.01953125,-61.5234375,-76.66015625,36.1328125,-1.0,-1.0,1.0,0.0,9.m4v,8.0
2024-02-28 10:54:39.636441,1709114079.6364412,50.29296875,-59.5703125,-45.8984375,-67.3828125,-1.0,-1.0,1.0,0.0,9.m4v,8.0
2024-02-28 10:54:39.640347,1709114079.640347,-68.84765625,-45.8984375,26.3671875,-93.26171875,-1.0,-1.0,1.0,0.0,9.m4v,8.0
2024-02-28 10:54:39.644253,1709114079.6442528,-100.09765625,-26.3671875,21.484375,-96.6796875,-1.0,-1.0,1.0,0.0,9.m4v,8.0
2024-02-28 10:54:39.648159,1709114079.6481586,-72.75390625,-15.13671875,-11.23046875,-83.0078125,-1.0,-1.0,1.0,0.0,9.m4v,8.0
2024-02-28 10:54:39.652065,1709114079.6520646,-77.63671875,-17.578125,-47.8515625,-47.8515625,-1.0,-1.0,1.0,0.0,9.m4v,8.0
2024-02-28 10:54:39.655970,1709114079.6559703,-21.484375,-22.4609375,-63.4765625,-51.26953125,-1.0,-1.0,1.0,0.0,9.m4v,8.0
2024-02-28 10:54:39.659876,1709114079.659876,15.13671875,-22.94921875,-46.38671875,-45.41015625,-1.0,-1.0,1.0,0.0,9.m4v,8.0
2024-02-28 10:54:39.663782,1709114079.663782,-41.50390625,-22.94921875,-59.5703125,-14.6484375,-1.0,-1.0,1.0,0.0,9.m4v,8.0
2024-02-28 10:54:39.667688,1709114079.6676877,-5.859375,-29.296875,-100.5859375,44.43359375,-1.0,-1.0,1.0,0.0,9.m4v,8.0
2024-02-28 10:54:39.671594,1709114079.6715937,12.6953125,-36.1328125,-88.8671875,-13.18359375,-1.0,-1.0,1.0,0.0,9.m4v,8.0
2024-02-28 10:54:39.675499,1709114079.6754994,-72.265625,-44.43359375,-26.85546875,-59.08203125,-1.0,-1.0,1.0,0.0,9.m4v,8.0
2024-02-28 10:54:39.679405,1709114079.6794052,-76.171875,-52.734375,5.37109375,-84.9609375,-1.0,-1.0,1.0,0.0,9.m4v,8.0
2024-02-28 10:54:39.683313,1709114079.6833134,-43.9453125,-45.8984375,-11.23046875,-115.72265625,-1.0,-1.0,1.0,0.0,9.m4v,8.0
2024-02-28 10:54:39.687219,1709114079.6872191,-58.10546875,-44.921875,-21.97265625,-44.921875,-1.0,-1.0,1.0,0.0,9.m4v,8.0
2024-02-28 10:54:39.691125,1709114079.691125,-14.6484375,-36.1328125,-28.80859375,32.71484375,-1.0,-1.0,1.0,0.0,9.m4v,8.0
2024-02-28 10:54:39.695031,1709114079.695031,21.97265625,-34.66796875,-55.6640625,14.16015625,-1.0,-1.0,1.0,0.0,9.m4v,8.0
2024-02-28 10:54:39.698937,1709114079.6989367,-49.8046875,-46.875,-41.015625,-57.6171875,-1.0,-1.0,1.0,0.0,9.m4v,8.0
2024-02-28 10:54:39.702842,1709114079.7028425,-75.68359375,-32.71484375,-21.97265625,-58.59375,-1.0,-1.0,1.0,0.0,9.m4v,8.0
2024-02-28 10:54:39.706748,1709114079.7067482,-32.71484375,-28.80859375,-42.96875,-46.875,-1.0,-1.0,1.0,0.0,9.m4v,8.0
2024-02-28 10:54:39.710654,1709114079.7106545,-18.5546875,-40.52734375,-48.33984375,-36.1328125,-1.0,-1.0,1.0,0.0,9.m4v,8.0
2024-02-28 10:54:39.714560,1709114079.71456,-41.015625,-34.66796875,-47.8515625,-25.87890625,-1.0,-1.0,1.0,0.0,9.m4v,8.0
2024-02-28 10:54:39.718466,1709114079.7184658,-61.03515625,-17.08984375,-39.55078125,-56.640625,-1.0,-1.0,1.0,0.0,9.m4v,8.0
2024-02-28 10:54:39.722372,1709114079.7223716,-60.05859375,-14.16015625,-26.85546875,-69.82421875,-1.0,-1.0,1.0,0.0,9.m4v,8.0
2024-02-28 10:54:39.726277,1709114079.7262774,-35.64453125,-9.765625,-32.71484375,-18.06640625,-1.0,-1.0,1.0,0.0,9.m4v,8.0
2024-02-28 10:54:39.730186,1709114079.7301855,-27.83203125,-25.390625,-37.59765625,15.625,-1.0,-1.0,1.0,0.0,9.m4v,8.0
2024-02-28 10:54:39.734091,1709114079.7340913,-0.48828125,-79.1015625,-39.0625,-1.953125,-1.0,-1.0,1.0,0.0,9.m4v,8.0
2024-02-28 10:54:39.737997,1709114079.737997,-31.73828125,-101.07421875,-15.625,-46.875,-1.0,-1.0,1.0,0.0,9.m4v,8.0
2024-02-28 10:54:39.741903,1709114079.741903,-38.57421875,-53.22265625,2.44140625,-98.6328125,-1.0,-1.0,1.0,0.0,9.m4v,8.0
2024-02-28 10:54:39.745809,1709114079.7458088,-5.37109375,-10.25390625,-29.78515625,-9.27734375,-1.0,-1.0,1.0,0.0,9.m4v,8.0
2024-02-28 10:54:39.749715,1709114079.7497146,-61.5234375,-6.34765625,-87.40234375,20.5078125,-1.0,-1.0,1.0,0.0,9.m4v,8.0
2024-02-28 10:54:39.753620,1709114079.7536204,-46.38671875,-12.6953125,-100.5859375,-105.95703125,-1.0,-1.0,1.0,0.0,9.m4v,8.0
2024-02-28 10:54:39.757526,1709114079.7575264,-22.4609375,-45.8984375,-46.875,-120.1171875,-1.0,-1.0,1.0,0.0,9.m4v,8.0
2024-02-28 10:54:39.761432,1709114079.7614322,-62.5,-48.33984375,3.41796875,-37.59765625,-1.0,-1.0,1.0,0.0,9.m4v,8.0
2024-02-28 10:54:39.765338,1709114079.765338,-46.875,-7.32421875,9.27734375,0.9765625,-1.0,-1.0,1.0,0.0,9.m4v,8.0
2024-02-28 10:54:39.769244,1709114079.7692437,-49.8046875,0.48828125,-3.90625,-68.84765625,-1.0,-1.0,1.0,0.0,9.m4v,8.0
2024-02-28 10:54:39.773149,1709114079.7731495,-51.7578125,-33.69140625,-8.30078125,-96.19140625,-1.0,-1.0,1.0,0.0,9.m4v,8.0
2024-02-28 10:54:39.862988,1709114079.862988,-22.94921875,-26.3671875,-58.10546875,-16.11328125,-1.0,-1.0,1.0,0.0,9.m4v,8.0
2024-02-28 10:54:39.866894,1709114079.8668938,-49.8046875,-10.7421875,-60.05859375,-31.73828125,-1.0,-1.0,1.0,0.0,9.m4v,8.0
2024-02-28 10:54:39.870802,1709114079.8708024,-90.8203125,0.9765625,-36.62109375,-128.41796875,-1.0,-1.0,1.0,0.0,9.m4v,8.0
2024-02-28 10:54:39.874708,1709114079.8747082,-98.14453125,10.25390625,-20.99609375,-129.39453125,-1.0,-1.0,1.0,0.0,9.m4v,8.0
2024-02-28 10:54:39.878614,1709114079.878614,-69.3359375,-1.953125,-11.23046875,-104.4921875,-1.0,-1.0,1.0,0.0,9.m4v,8.0
2024-02-28 10:54:39.882520,1709114079.88252,-33.69140625,-15.625,-25.87890625,-78.125,-1.0,-1.0,1.0,0.0,9.m4v,8.0
2024-02-28 10:54:39.886426,1709114079.8864255,-77.63671875,-4.8828125,-30.2734375,-81.54296875,-1.0,-1.0,1.0,0.0,9.m4v,8.0
2024-02-28 10:54:39.890332,1709114079.8903315,-124.0234375,4.39453125,-14.6484375,-130.859375,-1.0,-1.0,1.0,0.0,9.m4v,8.0
2024-02-28 10:54:39.894237,1709114079.8942373,-121.09375,12.20703125,-32.71484375,-135.25390625,-1.0,-1.0,1.0,0.0,9.m4v,8.0
2024-02-28 10:54:39.898143,1709114079.8981433,-104.00390625,11.71875,-39.0625,-104.4921875,-1.0,-1.0,1.0,0.0,9.m4v,8.0
2024-02-28 10:54:39.902049,1709114079.902049,-94.7265625,-12.20703125,-8.7890625,-95.21484375,-1.0,-1.0,1.0,0.0,9.m4v,8.0
2024-02-28 10:54:39.905955,1709114079.9059548,-110.83984375,-24.90234375,-53.7109375,-99.609375,-1.0,-1.0,1.0,0.0,9.m4v,8.0
2024-02-28 10:54:39.909861,1709114079.9098606,-116.69921875,-12.20703125,-60.05859375,-131.8359375,-1.0,-1.0,1.0,0.0,9.m4v,8.0
2024-02-28 10:54:39.913766,1709114079.9137664,-123.53515625,-4.39453125,0.0,-121.09375,-1.0,-1.0,1.0,0.0,9.m4v,8.0
2024-02-28 10:54:39.917675,1709114079.917675,-77.63671875,3.90625,-3.90625,-77.1484375,-1.0,-1.0,1.0,0.0,9.m4v,8.0
2024-02-28 10:54:39.921581,1709114079.9215808,-40.52734375,-6.34765625,-14.6484375,-99.12109375,-1.0,-1.0,1.0,0.0,9.m4v,8.0
2024-02-28 10:54:39.925487,1709114079.9254866,-92.28515625,-24.4140625,-41.9921875,-134.765625,-1.0,-1.0,1.0,0.0,9.m4v,8.0
2024-02-28 10:54:39.929392,1709114079.9293923,-109.86328125,-6.8359375,-40.0390625,-111.328125,-1.0,-1.0,1.0,0.0,9.m4v,8.0
2024-02-28 10:54:39.933298,1709114079.933298,-119.140625,10.25390625,3.90625,-120.1171875,-1.0,-1.0,1.0,0.0,9.m4v,8.0
2024-02-28 10:54:39.937204,1709114079.937204,-120.1171875,-10.25390625,-5.859375,-154.296875,-1.0,-1.0,1.0,0.0,9.m4v,8.0
2024-02-28 10:54:39.952827,1709114079.9528277,-52.24609375,-23.92578125,-15.13671875,-39.0625,-1.0,-1.0,1.0,0.0,9.m4v,8.0
2024-02-28 10:54:40.413740,1709114080.4137404,-29.78515625,-44.921875,-27.34375,-63.4765625,-1.0,-1.0,1.0,0.0,9.m4v,8.0
2024-02-28 10:54:40.425458,1709114080.425458,-13.18359375,-27.34375,-55.6640625,0.9765625,-1.0,-1.0,1.0,0.0,9.m4v,8.0
2024-02-28 10:54:40.437178,1709114080.437178,-56.640625,-28.80859375,-8.7890625,-155.2734375,-1.0,-1.0,1.0,0.0,9.m4v,8.0
2024-02-28 10:54:40.448895,1709114080.4488952,-49.31640625,-51.7578125,-50.29296875,-43.45703125,-1.0,-1.0,1.0,0.0,9.m4v,8.0
2024-02-28 10:54:40.460613,1709114080.4606128,-56.640625,-32.2265625,-25.390625,-62.01171875,-1.0,-1.0,1.0,0.0,9.m4v,8.0
2024-02-28 10:54:40.472330,1709114080.4723303,-57.6171875,-48.828125,-37.109375,-90.33203125,-1.0,-1.0,1.0,0.0,9.m4v,8.0
2024-02-28 10:54:40.484051,1709114080.4840508,-41.015625,-41.9921875,-54.6875,-82.51953125,-1.0,-1.0,1.0,0.0,9.m4v,8.0
2024-02-28 10:54:40.495768,1709114080.495768,-39.55078125,-25.87890625,-39.0625,-61.5234375,-1.0,-1.0,1.0,0.0,9.m4v,8.0
2024-02-28 10:54:40.507486,1709114080.5074856,-76.171875,-14.16015625,-47.36328125,-63.4765625,-1.0,-1.0,1.0,0.0,9.m4v,8.0
2024-02-28 10:54:40.519203,1709114080.5192032,-78.61328125,-26.3671875,2.9296875,-86.42578125,-1.0,-1.0,1.0,0.0,9.m4v,8.0
2024-02-28 10:54:40.530923,1709114080.530923,-53.22265625,-47.8515625,-26.85546875,-100.09765625,-1.0,-1.0,1.0,0.0,9.m4v,8.0
2024-02-28 10:54:40.542640,1709114080.5426402,-95.703125,-47.36328125,-25.87890625,-87.890625,-1.0,-1.0,1.0,0.0,9.m4v,8.0
2024-02-28 10:54:40.554358,1709114080.5543578,-31.25,-36.62109375,-91.30859375,-68.84765625,-1.0,-1.0,1.0,0.0,9.m4v,8.0
2024-02-28 10:54:40.562169,1709114080.5621693,-36.1328125,-17.578125,-27.83203125,-23.4375,-1.0,-1.0,1.0,0.0,9.m4v,8.0
2024-02-28 10:54:40.573890,1709114080.5738895,-66.40625,-42.96875,-2.9296875,-48.828125,-1.0,-1.0,1.0,0.0,9.m4v,8.0
2024-02-28 10:54:40.585607,1709114080.585607,-61.03515625,-45.8984375,-40.0390625,-26.85546875,-1.0,-1.0,1.0,0.0,9.m4v,8.0
2024-02-28 10:54:40.593419,1709114080.5934188,-60.546875,-30.76171875,-11.71875,-63.4765625,-1.0,-1.0,1.0,0.0,9.m4v,8.0
2024-02-28 10:54:40.601230,1709114080.6012304,-27.83203125,-34.1796875,-68.359375,-44.921875,-1.0,-1.0,1.0,0.0,9.m4v,8.0
2024-02-28 10:54:40.609042,1709114080.6090422,-23.4375,-66.40625,-33.69140625,-9.765625,-1.0,-1.0,1.0,0.0,9.m4v,8.0
2024-02-28 10:54:40.616854,1709114080.6168537,-53.22265625,-7.8125,-36.1328125,-54.6875,-1.0,-1.0,1.0,0.0,9.m4v,8.0
2024-02-28 10:54:40.624668,1709114080.624668,-48.828125,-18.5546875,-13.671875,-70.3125,-1.0,-1.0,1.0,0.0,9.m4v,8.0
2024-02-28 10:54:40.628574,1709114080.628574,-43.45703125,-29.78515625,-43.45703125,-62.01171875,-1.0,-1.0,1.0,0.0,9.m4v,8.0
2024-02-28 10:54:40.632480,1709114080.6324797,-21.484375,-47.36328125,-56.15234375,-20.01953125,-1.0,-1.0,1.0,0.0,9.m4v,8.0
2024-02-28 10:54:40.636386,1709114080.6363857,-16.6015625,-50.29296875,-36.62109375,-53.22265625,-1.0,-1.0,1.0,0.0,9.m4v,8.0
2024-02-28 10:54:40.640291,1709114080.6402917,-51.26953125,-42.48046875,-8.30078125,-86.42578125,-1.0,-1.0,1.0,0.0,9.m4v,8.0
2024-02-28 10:54:40.644197,1709114080.6441972,-51.26953125,-45.8984375,-13.671875,-69.82421875,-1.0,-1.0,1.0,0.0,9.m4v,8.0
2024-02-28 10:54:40.679352,1709114080.6793523,-70.3125,-45.41015625,-0.48828125,-65.91796875,-1.0,-1.0,1.0,0.0,9.m4v,8.0
2024-02-28 10:54:40.687164,1709114080.687164,-8.30078125,-32.2265625,-26.85546875,61.03515625,-1.0,-1.0,1.0,0.0,9.m4v,8.0
2024-02-28 10:54:40.847310,1709114080.84731,-47.8515625,-57.12890625,-71.2890625,-70.3125,-1.0,-1.0,1.0,0.0,9.m4v,8.0
2024-02-28 10:54:40.851216,1709114080.851216,-43.45703125,-51.26953125,-30.76171875,-39.55078125,-1.0,-1.0,1.0,0.0,9.m4v,8.0
2024-02-28 10:54:40.855124,1709114080.855124,-72.265625,-32.71484375,-20.5078125,-51.26953125,-1.0,-1.0,1.0,0.0,9.m4v,8.0
2024-02-28 10:54:40.859030,1709114080.85903,-33.203125,-34.66796875,-33.69140625,-42.96875,-1.0,-1.0,1.0,0.0,9.m4v,8.0
2024-02-28 10:54:40.913714,1709114080.9137137,-20.5078125,-36.62109375,-16.11328125,-21.484375,-1.0,-1.0,1.0,0.0,9.m4v,8.0
2024-02-28 10:54:40.917620,1709114080.9176197,-50.29296875,-20.99609375,-43.45703125,-64.453125,-1.0,-1.0,1.0,0.0,9.m4v,8.0
2024-02-28 10:54:40.921525,1709114080.9215257,-53.7109375,-10.25390625,-45.41015625,-45.8984375,-1.0,-1.0,1.0,0.0,9.m4v,8.0
2024-02-28 10:54:40.925431,1709114080.9254313,-20.5078125,-22.4609375,-39.0625,-58.10546875,-1.0,-1.0,1.0,0.0,9.m4v,8.0
2024-02-28 10:54:40.929337,1709114080.929337,-22.94921875,-33.69140625,-43.9453125,-71.2890625,-1.0,-1.0,1.0,0.0,9.m4v,8.0
2024-02-28 10:54:40.933243,1709114080.9332428,-51.7578125,-34.66796875,-33.69140625,-62.01171875,-1.0,-1.0,1.0,0.0,9.m4v,8.0
2024-02-28 10:54:40.937149,1709114080.9371488,-51.7578125,-36.62109375,-15.13671875,-44.921875,-1.0,-1.0,1.0,0.0,9.m4v,8.0
2024-02-28 10:54:40.941055,1709114080.9410546,-43.9453125,-40.52734375,-26.3671875,-27.34375,-1.0,-1.0,1.0,0.0,9.m4v,8.0
2024-02-28 10:54:40.944960,1709114080.9449604,-32.2265625,-42.96875,-51.7578125,-59.5703125,-1.0,-1.0,1.0,0.0,9.m4v,8.0
2024-02-28 10:54:40.948869,1709114080.948869,-3.90625,-35.15625,-54.6875,57.12890625,-1.0,-1.0,1.0,0.0,9.m4v,8.0
2024-02-28 10:54:40.952775,1709114080.9527748,-6.34765625,-30.2734375,-61.03515625,44.43359375,-1.0,-1.0,1.0,0.0,9.m4v,8.0
2024-02-28 10:54:40.956681,1709114080.9566803,-51.7578125,-40.0390625,-57.12890625,-125.0,-1.0,-1.0,1.0,0.0,9.m4v,8.0
2024-02-28 10:54:40.960587,1709114080.9605863,-84.9609375,-49.31640625,-45.8984375,-108.88671875,-1.0,-1.0,1.0,0.0,9.m4v,8.0
2024-02-28 10:54:41.015271,1709114081.0152707,-33.69140625,-53.7109375,-55.6640625,-12.6953125,-1.0,-1.0,1.0,0.0,9.m4v,8.0
2024-02-28 10:54:41.019176,1709114081.0191765,-24.4140625,-50.29296875,-41.9921875,-12.20703125,-1.0,-1.0,1.0,0.0,9.m4v,8.0
2024-02-28 10:54:41.023082,1709114081.0230825,-49.31640625,-58.10546875,-40.0390625,-66.40625,-1.0,-1.0,1.0,0.0,9.m4v,8.0
2024-02-28 10:54:41.026988,1709114081.0269885,-106.93359375,-67.3828125,-31.73828125,-126.46484375,-1.0,-1.0,1.0,0.0,9.m4v,8.0
2024-02-28 10:54:41.030894,1709114081.030894,-105.95703125,-48.828125,-17.578125,-93.75,-1.0,-1.0,1.0,0.0,9.m4v,8.0
2024-02-28 10:54:41.034800,1709114081.0347998,-51.7578125,-33.203125,-50.78125,-46.875,-1.0,-1.0,1.0,0.0,9.m4v,8.0
2024-02-28 10:54:41.038706,1709114081.0387056,15.625,-15.13671875,-70.3125,-34.1796875,-1.0,-1.0,1.0,0.0,9.m4v,8.0
2024-02-28 10:54:41.042614,1709114081.042614,-24.4140625,-9.27734375,-43.9453125,-38.57421875,-1.0,-1.0,1.0,0.0,9.m4v,8.0
2024-02-28 10:54:41.046520,1709114081.04652,-87.890625,-27.83203125,-37.59765625,-87.40234375,-1.0,-1.0,1.0,0.0,9.m4v,8.0
2024-02-28 10:54:41.050426,1709114081.0504258,-65.4296875,-41.015625,-43.45703125,-51.26953125,-1.0,-1.0,1.0,0.0,9.m4v,8.0
2024-02-28 10:54:41.054332,1709114081.0543315,-58.10546875,-41.015625,-35.15625,-17.08984375,-1.0,-1.0,1.0,0.0,9.m4v,8.0
2024-02-28 10:54:41.066049,1709114081.066049,-26.3671875,-41.9921875,-73.73046875,-3.41796875,-1.0,-1.0,1.0,0.0,9.m4v,8.0
2024-02-28 10:54:41.069955,1709114081.0699549,-36.1328125,-46.38671875,-30.76171875,-48.828125,-1.0,-1.0,1.0,0.0,9.m4v,8.0
2024-02-28 10:54:41.073861,1709114081.0738606,-58.10546875,-37.109375,-4.8828125,-104.98046875,-1.0,-1.0,1.0,0.0,9.m4v,8.0
2024-02-28 10:54:41.077766,1709114081.0777664,-76.66015625,-45.8984375,-8.30078125,-81.54296875,-1.0,-1.0,1.0,0.0,9.m4v,8.0
2024-02-28 10:54:41.081672,1709114081.0816724,-69.82421875,-48.33984375,-13.18359375,-16.6015625,-1.0,-1.0,1.0,0.0,9.m4v,8.0
2024-02-28 10:54:41.085578,1709114081.0855782,-45.41015625,-36.1328125,-38.0859375,51.26953125,-1.0,-1.0,1.0,0.0,9.m4v,8.0
2024-02-28 10:54:41.089487,1709114081.0894866,-23.4375,-29.296875,-59.08203125,-44.921875,-1.0,-1.0,1.0,0.0,9.m4v,8.0
2024-02-28 10:54:41.093392,1709114081.0933924,-39.55078125,-26.3671875,-33.69140625,-127.9296875,-1.0,-1.0,1.0,0.0,9.m4v,8.0
2024-02-28 10:54:41.097298,1709114081.097298,-40.52734375,-27.83203125,-0.9765625,-79.1015625,-1.0,-1.0,1.0,0.0,9.m4v,8.0
2024-02-28 10:54:41.101204,1709114081.101204,-73.2421875,-33.203125,-14.16015625,-38.0859375,-1.0,-1.0,1.0,0.0,9.m4v,8.0
2024-02-28 10:54:41.105110,1709114081.10511,-79.1015625,-38.57421875,-53.22265625,-19.04296875,-1.0,-1.0,1.0,0.0,9.m4v,8.0
2024-02-28 10:54:41.109016,1709114081.1090157,-56.640625,-34.1796875,-64.453125,-66.40625,-1.0,-1.0,1.0,0.0,9.m4v,8.0
2024-02-28 10:54:41.112921,1709114081.1129217,-49.31640625,-33.203125,-56.640625,-68.359375,-1.0,-1.0,1.0,0.0,9.m4v,8.0
2024-02-28 10:54:41.116827,1709114081.1168272,-61.03515625,-51.7578125,-43.9453125,-73.2421875,-1.0,-1.0,1.0,0.0,9.m4v,8.0
2024-02-28 10:54:41.120733,1709114081.1207333,-54.6875,-58.10546875,-24.4140625,-86.42578125,-1.0,-1.0,1.0,0.0,9.m4v,8.0
2024-02-28 10:54:41.124639,1709114081.124639,-30.2734375,-38.0859375,-12.20703125,-17.578125,-1.0,-1.0,1.0,0.0,9.m4v,8.0
2024-02-28 10:54:41.128545,1709114081.1285448,-27.34375,-29.296875,-40.52734375,-29.78515625,-1.0,-1.0,1.0,0.0,9.m4v,8.0
2024-02-28 10:54:41.132451,1709114081.1324506,-43.9453125,-42.96875,-51.7578125,-83.0078125,-1.0,-1.0,1.0,0.0,9.m4v,8.0
2024-02-28 10:54:41.136359,1709114081.136359,-74.21875,-46.875,-8.7890625,-81.54296875,-1.0,-1.0,1.0,0.0,9.m4v,8.0
2024-02-28 10:54:41.140265,1709114081.1402647,-68.359375,-44.43359375,6.34765625,-78.61328125,-1.0,-1.0,1.0,0.0,9.m4v,8.0
2024-02-28 10:54:41.144171,1709114081.1441708,-32.2265625,-50.29296875,-18.5546875,-64.453125,-1.0,-1.0,1.0,0.0,9.m4v,8.0
2024-02-28 10:54:41.148077,1709114081.1480763,-39.0625,-36.1328125,-36.1328125,-57.6171875,-1.0,-1.0,1.0,0.0,9.m4v,8.0
2024-02-28 10:54:41.151982,1709114081.1519823,-70.80078125,-16.6015625,-25.390625,-62.5,-1.0,-1.0,1.0,0.0,9.m4v,8.0
2024-02-28 10:54:41.155888,1709114081.155888,-64.453125,-1.46484375,-30.76171875,-59.5703125,-1.0,-1.0,1.0,0.0,9.m4v,8.0
2024-02-28 10:54:41.159794,1709114081.159794,-52.734375,7.8125,-49.8046875,-38.57421875,-1.0,-1.0,1.0,0.0,9.m4v,8.0
2024-02-28 10:54:41.163700,1709114081.1637,-50.78125,-6.34765625,-45.8984375,-68.84765625,-1.0,-1.0,1.0,0.0,9.m4v,8.0
2024-02-28 10:54:41.167606,1709114081.1676056,-43.45703125,-16.6015625,-26.85546875,-89.84375,-1.0,-1.0,1.0,0.0,9.m4v,8.0
2024-02-28 10:54:41.171511,1709114081.1715114,-67.3828125,-17.578125,-17.08984375,-81.54296875,-1.0,-1.0,1.0,0.0,9.m4v,8.0
2024-02-28 10:54:41.175417,1709114081.1754172,-77.63671875,-23.4375,-28.3203125,-85.44921875,-1.0,-1.0,1.0,0.0,9.m4v,8.0
2024-02-28 10:54:41.179323,1709114081.1793232,-59.5703125,-21.97265625,-26.85546875,-71.2890625,-1.0,-1.0,1.0,0.0,9.m4v,8.0
2024-02-28 10:54:41.183231,1709114081.183231,-70.3125,-20.01953125,-22.94921875,-94.7265625,-1.0,-1.0,1.0,0.0,9.m4v,8.0
2024-02-28 10:54:41.273067,1709114081.2730677,-108.88671875,3.90625,4.39453125,-97.16796875,-1.0,-1.0,1.0,0.0,9.m4v,8.0
2024-02-28 10:54:41.280881,1709114081.2808814,-62.5,-10.25390625,-45.8984375,-70.80078125,-1.0,-1.0,1.0,0.0,9.m4v,8.0
2024-02-28 10:54:41.292599,1709114081.2925987,-89.84375,-59.08203125,0.48828125,-83.49609375,-1.0,-1.0,1.0,0.0,9.m4v,8.0
2024-02-28 10:54:41.300411,1709114081.3004105,-36.62109375,-39.0625,27.34375,25.87890625,-1.0,-1.0,1.0,0.0,9.m4v,8.0
2024-02-28 10:54:41.312128,1709114081.3121278,-80.56640625,-60.546875,-62.5,-15.13671875,-1.0,-1.0,1.0,0.0,9.m4v,8.0
2024-02-28 10:54:41.319940,1709114081.3199396,-23.92578125,-27.34375,-79.1015625,12.20703125,-1.0,-1.0,1.0,0.0,9.m4v,8.0
2024-02-28 10:54:41.331659,1709114081.3316593,-6.34765625,-28.3203125,-3.90625,8.7890625,-1.0,-1.0,1.0,0.0,9.m4v,8.0
2024-02-28 10:54:41.339471,1709114081.3394709,-32.71484375,-41.9921875,-29.296875,-56.15234375,-1.0,-1.0,1.0,0.0,9.m4v,8.0
2024-02-28 10:54:41.351188,1709114081.3511884,4.8828125,-60.546875,-61.03515625,38.57421875,-1.0,-1.0,1.0,0.0,9.m4v,8.0
2024-02-28 10:54:41.359000,1709114081.359,15.625,-55.6640625,-69.82421875,-15.625,-1.0,-1.0,1.0,0.0,9.m4v,8.0
2024-02-28 10:54:41.370720,1709114081.37072,7.8125,-43.9453125,-12.20703125,61.5234375,-1.0,-1.0,1.0,0.0,9.m4v,8.0
2024-02-28 10:54:41.378532,1709114081.378532,17.578125,-85.44921875,-42.96875,-86.9140625,-1.0,-1.0,1.0,0.0,9.m4v,8.0
2024-02-28 10:54:41.390249,1709114081.3902493,-44.921875,-58.10546875,-29.78515625,-36.62109375,-1.0,-1.0,1.0,0.0,9.m4v,8.0
2024-02-28 10:54:41.398061,1709114081.398061,-6.8359375,-40.0390625,-20.5078125,-34.1796875,-1.0,-1.0,1.0,0.0,9.m4v,8.0
2024-02-28 10:54:41.417593,1709114081.4175928,-24.4140625,-59.08203125,-14.16015625,6.34765625,-1.0,-1.0,1.0,0.0,9.m4v,8.0
2024-02-28 10:54:41.437122,1709114081.437122,-7.8125,-39.0625,-43.45703125,17.08984375,-1.0,-1.0,1.0,0.0,9.m4v,8.0
2024-02-28 10:54:41.456651,1709114081.456651,-15.625,-38.57421875,-24.4140625,-70.3125,-1.0,-1.0,1.0,0.0,9.m4v,8.0
2024-02-28 10:54:41.476183,1709114081.4761827,-6.8359375,-29.78515625,-42.48046875,-10.7421875,-1.0,-1.0,1.0,0.0,9.m4v,8.0
2024-02-28 10:54:41.495712,1709114081.4957118,-15.13671875,-37.109375,-53.22265625,-25.87890625,-1.0,-1.0,1.0,0.0,9.m4v,8.0
2024-02-28 10:54:41.515243,1709114081.5152433,-19.04296875,-49.31640625,-42.96875,5.859375,-1.0,-1.0,1.0,0.0,9.m4v,8.0
2024-02-28 10:54:41.534773,1709114081.5347726,-14.6484375,-66.89453125,-42.96875,-36.62109375,-1.0,-1.0,1.0,0.0,9.m4v,8.0
2024-02-28 10:54:41.554302,1709114081.5543015,-18.5546875,-0.48828125,-23.4375,-17.08984375,-1.0,-1.0,1.0,0.0,9.m4v,8.0
2024-02-28 10:54:41.562116,1709114081.562116,-61.03515625,-28.80859375,-3.41796875,-89.35546875,-1.0,-1.0,1.0,0.0,9.m4v,8.0
2024-02-28 10:54:41.577739,1709114081.5777392,1.953125,-30.76171875,-72.265625,5.37109375,-1.0,-1.0,1.0,0.0,9.m4v,8.0
2024-02-28 10:54:41.589457,1709114081.5894568,-24.4140625,-39.55078125,-67.3828125,0.48828125,-1.0,-1.0,1.0,0.0,9.m4v,8.0
2024-02-28 10:54:41.608988,1709114081.608988,-13.18359375,-40.52734375,-38.57421875,-34.1796875,-1.0,-1.0,1.0,0.0,9.m4v,8.0
2024-02-28 10:54:41.616800,1709114081.6167998,-62.5,-45.8984375,-34.1796875,-67.87109375,-1.0,-1.0,1.0,0.0,9.m4v,8.0
2024-02-28 10:54:41.636329,1709114081.636329,-32.2265625,-59.5703125,-40.0390625,11.71875,-1.0,-1.0,1.0,0.0,9.m4v,8.0
2024-02-28 10:54:41.655860,1709114081.6558602,-59.08203125,-20.5078125,-25.87890625,-23.4375,-1.0,-1.0,1.0,0.0,9.m4v,8.0
2024-02-28 10:54:41.847256,1709114081.8472557,4.39453125,-65.4296875,16.6015625,-4.8828125,-1.0,-1.0,1.0,0.0,9.m4v,8.0
2024-02-28 10:54:41.847256,1709114081.8472557,4.39453125,-65.4296875,16.6015625,-4.8828125,-1.0,-1.0,1.0,0.0,9.m4v,8.0
2024-02-28 10:54:41.851161,1709114081.8511617,-18.06640625,-77.1484375,-1.46484375,13.671875,-1.0,-1.0,1.0,0.0,9.m4v,8.0
2024-02-28 10:54:41.855067,1709114081.8550673,3.90625,-79.58984375,17.08984375,-10.7421875,-1.0,-1.0,1.0,0.0,9.m4v,8.0
2024-02-28 10:54:41.855067,1709114081.8550673,3.90625,-79.58984375,17.08984375,-10.7421875,-1.0,-1.0,1.0,0.0,9.m4v,8.0
2024-02-28 10:54:41.858973,1709114081.8589733,8.7890625,-61.5234375,24.4140625,-27.34375,-1.0,-1.0,1.0,0.0,9.m4v,8.0
2024-02-28 10:54:41.862879,1709114081.862879,-7.32421875,-48.33984375,15.13671875,10.25390625,-1.0,-1.0,1.0,0.0,9.m4v,8.0
2024-02-28 10:54:41.862879,1709114081.862879,-7.32421875,-48.33984375,15.13671875,10.25390625,-1.0,-1.0,1.0,0.0,9.m4v,8.0
2024-02-28 10:54:41.866785,1709114081.8667848,2.44140625,-45.41015625,-4.39453125,4.39453125,-1.0,-1.0,1.0,0.0,9.m4v,8.0
2024-02-28 10:54:41.870691,1709114081.8706906,12.6953125,-54.19921875,-11.23046875,34.66796875,-1.0,-1.0,1.0,0.0,9.m4v,8.0
2024-02-28 10:54:41.870691,1709114081.8706906,12.6953125,-54.19921875,-11.23046875,34.66796875,-1.0,-1.0,1.0,0.0,9.m4v,8.0
2024-02-28 10:54:41.874596,1709114081.8745964,24.90234375,-60.546875,-40.0390625,55.17578125,-1.0,-1.0,1.0,0.0,9.m4v,8.0
2024-02-28 10:54:41.878502,1709114081.8785024,32.2265625,-45.8984375,-109.375,23.4375,-1.0,-1.0,1.0,0.0,9.m4v,8.0
2024-02-28 10:54:41.878502,1709114081.8785024,32.2265625,-45.8984375,-109.375,23.4375,-1.0,-1.0,1.0,0.0,9.m4v,8.0
2024-02-28 10:54:41.882408,1709114081.882408,8.7890625,-46.38671875,-48.33984375,43.9453125,-1.0,-1.0,1.0,0.0,9.m4v,8.0
2024-02-28 10:54:41.890222,1709114081.890222,-5.859375,-59.5703125,64.453125,-40.52734375,-1.0,-1.0,1.0,0.0,9.m4v,8.0
2024-02-28 10:54:41.894128,1709114081.894128,-6.34765625,-49.8046875,59.08203125,-22.94921875,-1.0,-1.0,1.0,0.0,9.m4v,8.0
2024-02-28 10:54:41.898034,1709114081.898034,14.6484375,-55.17578125,10.25390625,11.71875,-1.0,-1.0,1.0,0.0,9.m4v,8.0
2024-02-28 10:54:41.901940,1709114081.9019396,13.671875,-60.05859375,-25.390625,17.578125,-1.0,-1.0,1.0,0.0,9.m4v,8.0
2024-02-28 10:54:41.905845,1709114081.9058454,-21.484375,-59.08203125,12.6953125,-6.34765625,-1.0,-1.0,1.0,0.0,9.m4v,8.0
2024-02-28 10:54:41.909751,1709114081.9097514,-12.6953125,-35.64453125,-24.4140625,25.87890625,-1.0,-1.0,1.0,0.0,9.m4v,8.0
2024-02-28 10:54:41.913657,1709114081.9136572,8.7890625,-29.296875,-68.359375,28.3203125,-1.0,-1.0,1.0,0.0,9.m4v,8.0
2024-02-28 10:54:41.917563,1709114081.917563,-31.25,-65.91796875,-5.37109375,-36.1328125,-1.0,-1.0,1.0,0.0,9.m4v,8.0
2024-02-28 10:54:41.921469,1709114081.9214687,-38.57421875,-77.63671875,61.5234375,-31.25,-1.0,-1.0,1.0,0.0,9.m4v,8.0
2024-02-28 10:54:41.925375,1709114081.9253745,-30.2734375,-69.3359375,47.8515625,-17.578125,-1.0,-1.0,1.0,0.0,9.m4v,8.0
2024-02-28 10:54:41.929281,1709114081.9292803,-68.84765625,-88.8671875,-13.671875,-37.59765625,-1.0,-1.0,1.0,0.0,9.m4v,8.0
2024-02-28 10:54:41.933189,1709114081.933189,-37.59765625,-99.609375,-28.80859375,61.03515625,-1.0,-1.0,1.0,0.0,9.m4v,8.0
2024-02-28 10:54:41.937094,1709114081.9370944,-26.85546875,-66.89453125,-18.5546875,20.5078125,-1.0,-1.0,1.0,0.0,9.m4v,8.0
2024-02-28 10:54:41.941000,1709114081.9410002,-60.05859375,-52.24609375,-6.8359375,-129.39453125,-1.0,-1.0,1.0,0.0,9.m4v,8.0
2024-02-28 10:54:41.944906,1709114081.9449062,-60.05859375,-59.5703125,12.6953125,-40.0390625,-1.0,-1.0,1.0,0.0,9.m4v,8.0
2024-02-28 10:54:41.948812,1709114081.948812,-35.64453125,-63.96484375,16.11328125,9.27734375,-1.0,-1.0,1.0,0.0,9.m4v,8.0
2024-02-28 10:54:41.956624,1709114081.9566236,-32.2265625,-33.203125,9.27734375,11.23046875,-1.0,-1.0,1.0,0.0,9.m4v,8.0
2024-02-28 10:54:41.960529,1709114081.960529,-44.43359375,-54.6875,5.37109375,-35.15625,-1.0,-1.0,1.0,0.0,9.m4v,8.0
2024-02-28 10:54:41.964435,1709114081.964435,-47.8515625,-57.6171875,16.11328125,-59.08203125,-1.0,-1.0,1.0,0.0,9.m4v,8.0
2024-02-28 10:54:41.968341,1709114081.968341,-32.2265625,-46.875,24.90234375,-43.9453125,-1.0,-1.0,1.0,0.0,9.m4v,8.0
2024-02-28 10:54:41.972247,1709114081.972247,-41.015625,-37.109375,-8.7890625,-34.66796875,-1.0,-1.0,1.0,0.0,9.m4v,8.0
2024-02-28 10:54:41.976153,1709114081.976153,-37.109375,-23.4375,-69.3359375,-6.8359375,-1.0,-1.0,1.0,0.0,9.m4v,8.0
2024-02-28 10:54:41.980061,1709114081.9800608,-24.90234375,-27.83203125,-56.640625,56.640625,-1.0,-1.0,1.0,0.0,9.m4v,8.0
2024-02-28 10:54:41.983967,1709114081.9839668,-27.83203125,-45.8984375,-62.5,17.578125,-1.0,-1.0,1.0,0.0,9.m4v,8.0
2024-02-28 10:54:41.987873,1709114081.9878726,-4.8828125,-77.63671875,-61.03515625,23.4375,-1.0,-1.0,1.0,0.0,9.m4v,8.0
2024-02-28 10:54:41.991778,1709114081.9917784,-60.546875,-85.44921875,19.04296875,-46.875,-1.0,-1.0,1.0,0.0,9.m4v,8.0
2024-02-28 10:54:41.995684,1709114081.995684,-123.046875,-60.546875,45.41015625,-135.25390625,-1.0,-1.0,1.0,0.0,9.m4v,8.0
2024-02-28 10:54:41.999590,1709114081.9995902,-88.37890625,-38.0859375,15.625,-96.19140625,-1.0,-1.0,1.0,0.0,9.m4v,8.0
2024-02-28 10:54:42.003496,1709114082.003496,-68.359375,-32.2265625,-8.7890625,-58.59375,-1.0,-1.0,1.0,0.0,9.m4v,8.0
2024-02-28 10:54:42.007402,1709114082.0074017,-66.89453125,-43.45703125,-42.48046875,-27.83203125,-1.0,-1.0,1.0,0.0,9.m4v,8.0
2024-02-28 10:54:42.011307,1709114082.0113077,-63.96484375,-38.0859375,-46.875,-37.109375,-1.0,-1.0,1.0,0.0,9.m4v,8.0
2024-02-28 10:54:42.015213,1709114082.0152133,-79.58984375,-29.296875,-30.76171875,-36.62109375,-1.0,-1.0,1.0,0.0,9.m4v,8.0
2024-02-28 10:54:42.019119,1709114082.0191193,-69.82421875,-27.83203125,-44.43359375,-39.55078125,-1.0,-1.0,1.0,0.0,9.m4v,8.0
2024-02-28 10:54:42.023025,1709114082.023025,-62.98828125,-26.85546875,-61.5234375,-68.359375,-1.0,-1.0,1.0,0.0,9.m4v,8.0
2024-02-28 10:54:42.026933,1709114082.026933,-87.40234375,-33.69140625,-30.76171875,-83.984375,-1.0,-1.0,1.0,0.0,9.m4v,8.0
2024-02-28 10:54:42.030839,1709114082.0308387,-104.4921875,-42.96875,11.71875,-50.78125,-1.0,-1.0,1.0,0.0,9.m4v,8.0
2024-02-28 10:54:42.034745,1709114082.0347447,-95.703125,-52.24609375,-27.34375,-47.36328125,-1.0,-1.0,1.0,0.0,9.m4v,8.0
2024-02-28 10:54:42.038651,1709114082.0386505,-89.84375,-56.15234375,-48.828125,-108.88671875,-1.0,-1.0,1.0,0.0,9.m4v,8.0
2024-02-28 10:54:42.042556,1709114082.0425563,-96.19140625,-59.08203125,-20.01953125,-40.0390625,-1.0,-1.0,1.0,0.0,9.m4v,8.0
2024-02-28 10:54:42.046462,1709114082.046462,-69.82421875,-40.0390625,-43.45703125,22.4609375,-1.0,-1.0,1.0,0.0,9.m4v,8.0
2024-02-28 10:54:42.089428,1709114082.0894282,-77.63671875,-37.59765625,-28.80859375,-41.50390625,-1.0,-1.0,1.0,0.0,9.m4v,8.0
2024-02-28 10:54:42.093334,1709114082.093334,-83.0078125,-37.109375,-2.44140625,-63.4765625,-1.0,-1.0,1.0,0.0,9.m4v,8.0
2024-02-28 10:54:42.097240,1709114082.09724,-88.37890625,-41.9921875,-5.37109375,-66.40625,-1.0,-1.0,1.0,0.0,9.m4v,8.0
2024-02-28 10:54:42.101146,1709114082.1011455,-71.77734375,-46.875,-41.015625,-47.36328125,-1.0,-1.0,1.0,0.0,9.m4v,8.0
2024-02-28 10:54:42.105052,1709114082.1050515,-51.26953125,-20.01953125,-83.0078125,-13.18359375,-1.0,-1.0,1.0,0.0,9.m4v,8.0
2024-02-28 10:54:42.108957,1709114082.1089573,-33.203125,-14.6484375,-81.0546875,-22.4609375,-1.0,-1.0,1.0,0.0,9.m4v,8.0
2024-02-28 10:54:42.112863,1709114082.112863,-41.015625,-32.71484375,-37.109375,-70.80078125,-1.0,-1.0,1.0,0.0,9.m4v,8.0
2024-02-28 10:54:42.116769,1709114082.116769,-52.734375,-33.69140625,-0.48828125,-58.59375,-1.0,-1.0,1.0,0.0,9.m4v,8.0
2024-02-28 10:54:42.120677,1709114082.1206777,-20.99609375,-49.31640625,-4.8828125,-4.8828125,-1.0,-1.0,1.0,0.0,9.m4v,8.0
2024-02-28 10:54:42.124583,1709114082.1245835,-2.9296875,-63.4765625,-24.4140625,-36.1328125,-1.0,-1.0,1.0,0.0,9.m4v,8.0
2024-02-28 10:54:42.128489,1709114082.1284893,-29.296875,-48.828125,-34.66796875,-27.34375,-1.0,-1.0,1.0,0.0,9.m4v,8.0
2024-02-28 10:54:42.132395,1709114082.132395,-25.390625,-16.6015625,-59.08203125,8.30078125,-1.0,-1.0,1.0,0.0,9.m4v,8.0
2024-02-28 10:54:42.136301,1709114082.1363008,-19.04296875,-3.41796875,-54.19921875,-55.6640625,-1.0,-1.0,1.0,0.0,9.m4v,8.0
2024-02-28 10:54:42.140207,1709114082.1402068,-28.80859375,-17.08984375,-37.109375,-70.80078125,-1.0,-1.0,1.0,0.0,9.m4v,8.0
2024-02-28 10:54:42.144113,1709114082.1441126,-36.62109375,-22.94921875,-47.8515625,-17.578125,-1.0,-1.0,1.0,0.0,9.m4v,8.0
2024-02-28 10:54:42.148018,1709114082.1480184,-27.34375,-30.76171875,-53.7109375,-30.2734375,-1.0,-1.0,1.0,0.0,9.m4v,8.0
2024-02-28 10:54:42.151924,1709114082.151924,1.953125,-42.48046875,-22.4609375,-32.2265625,-1.0,-1.0,1.0,0.0,9.m4v,8.0
2024-02-28 10:54:42.155830,1709114082.15583,0.0,-35.15625,-17.08984375,4.39453125,-1.0,-1.0,1.0,0.0,9.m4v,8.0
2024-02-28 10:54:42.159736,1709114082.159736,-19.04296875,-35.64453125,-61.5234375,-6.8359375,-1.0,-1.0,1.0,0.0,9.m4v,8.0
2024-02-28 10:54:42.218328,1709114082.2183285,22.4609375,-20.01953125,-20.01953125,15.13671875,-1.0,-1.0,1.0,0.0,9.m4v,8.0
2024-02-28 10:54:42.222234,1709114082.2222342,32.71484375,-24.90234375,-41.015625,-2.9296875,-1.0,-1.0,1.0,0.0,9.m4v,8.0
2024-02-28 10:54:42.226140,1709114082.2261405,27.34375,-40.52734375,-37.109375,40.52734375,-1.0,-1.0,1.0,0.0,9.m4v,8.0
2024-02-28 10:54:42.230046,1709114082.230046,31.73828125,-52.24609375,-64.453125,-5.37109375,-1.0,-1.0,1.0,0.0,9.m4v,8.0
2024-02-28 10:54:42.233952,1709114082.2339518,21.484375,-39.55078125,-68.359375,18.06640625,-1.0,-1.0,1.0,0.0,9.m4v,8.0
2024-02-28 10:54:42.237858,1709114082.2378576,-22.4609375,-37.59765625,6.34765625,38.57421875,-1.0,-1.0,1.0,0.0,9.m4v,8.0
2024-02-28 10:54:42.241764,1709114082.2417636,5.859375,-53.22265625,32.71484375,-47.36328125,-1.0,-1.0,1.0,0.0,9.m4v,8.0
2024-02-28 10:54:42.245669,1709114082.2456694,10.25390625,-55.17578125,10.7421875,-50.29296875,-1.0,-1.0,1.0,0.0,9.m4v,8.0
2024-02-28 10:54:42.249575,1709114082.2495751,1.953125,-37.109375,-61.03515625,-25.390625,-1.0,-1.0,1.0,0.0,9.m4v,8.0
2024-02-28 10:54:42.253481,1709114082.253481,40.52734375,-20.5078125,-81.0546875,-1.46484375,-1.0,-1.0,1.0,0.0,9.m4v,8.0
2024-02-28 10:54:42.257387,1709114082.2573867,27.83203125,-35.64453125,-45.41015625,20.5078125,-1.0,-1.0,1.0,0.0,9.m4v,8.0
2024-02-28 10:54:42.261295,1709114082.261295,31.25,-34.1796875,-78.61328125,81.0546875,-1.0,-1.0,1.0,0.0,9.m4v,8.0
2024-02-28 10:54:42.265201,1709114082.2652009,21.484375,-30.2734375,-51.7578125,54.6875,-1.0,-1.0,1.0,0.0,9.m4v,8.0
2024-02-28 10:54:42.269107,1709114082.2691066,-10.25390625,-40.52734375,21.97265625,-45.8984375,-1.0,-1.0,1.0,0.0,9.m4v,8.0
2024-02-28 10:54:42.273012,1709114082.2730124,-39.55078125,-71.2890625,35.64453125,-54.19921875,-1.0,-1.0,1.0,0.0,9.m4v,8.0
2024-02-28 10:54:42.276918,1709114082.2769184,-59.08203125,-79.1015625,4.39453125,-39.55078125,-1.0,-1.0,1.0,0.0,9.m4v,8.0
2024-02-28 10:54:42.280824,1709114082.2808242,-39.0625,-38.0859375,-23.4375,-82.03125,-1.0,-1.0,1.0,0.0,9.m4v,8.0
2024-02-28 10:54:42.284730,1709114082.28473,-27.34375,-11.23046875,-43.45703125,-41.9921875,-1.0,-1.0,1.0,0.0,9.m4v,8.0
2024-02-28 10:54:42.288636,1709114082.2886355,16.6015625,4.8828125,-124.0234375,58.10546875,-1.0,-1.0,1.0,0.0,9.m4v,8.0
2024-02-28 10:54:42.292542,1709114082.2925415,5.859375,-12.6953125,-121.09375,20.5078125,-1.0,-1.0,1.0,0.0,9.m4v,8.0
2024-02-28 10:54:42.296448,1709114082.2964475,-27.34375,-49.8046875,-9.765625,-58.59375,-1.0,-1.0,1.0,0.0,9.m4v,8.0
2024-02-28 10:54:42.300353,1709114082.3003533,-44.43359375,-54.19921875,-5.859375,-76.171875,-1.0,-1.0,1.0,0.0,9.m4v,8.0
2024-02-28 10:54:42.304259,1709114082.304259,-63.4765625,-41.50390625,-32.2265625,-84.47265625,-1.0,-1.0,1.0,0.0,9.m4v,8.0
2024-02-28 10:54:42.308167,1709114082.3081672,-59.5703125,-30.2734375,-20.99609375,-70.3125,-1.0,-1.0,1.0,0.0,9.m4v,8.0
2024-02-28 10:54:42.312073,1709114082.312073,-50.78125,-22.4609375,-29.78515625,-30.2734375,-1.0,-1.0,1.0,0.0,9.m4v,8.0
2024-02-28 10:54:42.315979,1709114082.315979,-35.64453125,-26.85546875,-34.66796875,-22.94921875,-1.0,-1.0,1.0,0.0,9.m4v,8.0
2024-02-28 10:54:42.319885,1709114082.3198848,-20.5078125,-47.36328125,-21.97265625,-31.73828125,-1.0,-1.0,1.0,0.0,9.m4v,8.0
2024-02-28 10:54:42.323791,1709114082.3237906,-21.484375,-41.50390625,-34.1796875,-38.0859375,-1.0,-1.0,1.0,0.0,9.m4v,8.0
2024-02-28 10:54:42.327696,1709114082.3276963,-56.640625,-25.87890625,-35.64453125,-40.0390625,-1.0,-1.0,1.0,0.0,9.m4v,8.0
2024-02-28 10:54:42.331602,1709114082.3316023,-83.49609375,-29.296875,-42.96875,-54.6875,-1.0,-1.0,1.0,0.0,9.m4v,8.0
2024-02-28 10:54:42.335508,1709114082.335508,-76.171875,-32.2265625,-66.89453125,-87.40234375,-1.0,-1.0,1.0,0.0,9.m4v,8.0
2024-02-28 10:54:42.339414,1709114082.339414,-77.1484375,-49.8046875,-36.62109375,-41.9921875,-1.0,-1.0,1.0,0.0,9.m4v,8.0
2024-02-28 10:54:42.390192,1709114082.3901918,-60.546875,-30.76171875,-59.08203125,-61.03515625,-1.0,-1.0,1.0,0.0,9.m4v,8.0
2024-02-28 10:54:42.394098,1709114082.3940978,-85.9375,-33.203125,-39.0625,-68.84765625,-1.0,-1.0,1.0,0.0,9.m4v,8.0
2024-02-28 10:54:42.398004,1709114082.3980036,-101.07421875,-47.36328125,-5.37109375,-91.796875,-1.0,-1.0,1.0,0.0,9.m4v,8.0
2024-02-28 10:54:42.401912,1709114082.4019115,-83.984375,-52.24609375,-34.1796875,-54.6875,-1.0,-1.0,1.0,0.0,9.m4v,8.0
2024-02-28 10:54:42.405818,1709114082.4058175,-74.21875,-46.38671875,-86.9140625,0.48828125,-1.0,-1.0,1.0,0.0,9.m4v,8.0
2024-02-28 10:54:42.499563,1709114082.4995627,-36.1328125,-22.4609375,-39.55078125,-45.8984375,-1.0,-1.0,1.0,0.0,9.m4v,8.0
2024-02-28 10:54:42.511280,1709114082.5112803,-1.46484375,3.41796875,-88.8671875,38.0859375,-1.0,-1.0,1.0,0.0,9.m4v,8.0
2024-02-28 10:54:42.519092,1709114082.5190918,-78.125,-50.78125,-1.46484375,-120.1171875,-1.0,-1.0,1.0,0.0,9.m4v,8.0
2024-02-28 10:54:42.530809,1709114082.5308094,-39.55078125,-62.01171875,-26.3671875,-36.1328125,-1.0,-1.0,1.0,0.0,9.m4v,8.0
2024-02-28 10:54:42.542530,1709114082.5425296,-33.69140625,-24.90234375,-57.12890625,-4.39453125,-1.0,-1.0,1.0,0.0,9.m4v,8.0
2024-02-28 10:54:42.550341,1709114082.5503411,-54.19921875,-18.5546875,-66.89453125,-40.52734375,-1.0,-1.0,1.0,0.0,9.m4v,8.0
2024-02-28 10:54:42.562059,1709114082.5620587,-65.91796875,-43.45703125,-12.20703125,-60.05859375,-1.0,-1.0,1.0,0.0,9.m4v,8.0
2024-02-28 10:54:42.573776,1709114082.573776,-31.73828125,-49.31640625,-52.734375,-65.91796875,-1.0,-1.0,1.0,0.0,9.m4v,8.0
2024-02-28 10:54:42.581588,1709114082.5815878,19.53125,-69.82421875,-94.7265625,35.64453125,-1.0,-1.0,1.0,0.0,9.m4v,8.0
2024-02-28 10:54:42.589402,1709114082.589402,-3.41796875,-27.83203125,5.37109375,-55.6640625,-1.0,-1.0,1.0,0.0,9.m4v,8.0
2024-02-28 10:54:42.593308,1709114082.5933075,-17.578125,-23.4375,21.97265625,-34.1796875,-1.0,-1.0,1.0,0.0,9.m4v,8.0
2024-02-28 10:54:42.597214,1709114082.5972135,-27.34375,-29.78515625,-4.8828125,-30.76171875,-1.0,-1.0,1.0,0.0,9.m4v,8.0
2024-02-28 10:54:42.608931,1709114082.608931,-12.6953125,-30.76171875,-69.3359375,-19.53125,-1.0,-1.0,1.0,0.0,9.m4v,8.0
2024-02-28 10:54:42.620649,1709114082.6206486,-10.25390625,-27.34375,6.34765625,18.5546875,-1.0,-1.0,1.0,0.0,9.m4v,8.0
2024-02-28 10:54:42.628460,1709114082.6284602,6.34765625,-31.25,-17.08984375,-7.8125,-1.0,-1.0,1.0,0.0,9.m4v,8.0
2024-02-28 10:54:42.640180,1709114082.6401803,5.859375,-73.2421875,-56.15234375,-2.44140625,-1.0,-1.0,1.0,0.0,9.m4v,8.0
2024-02-28 10:54:42.651898,1709114082.6518977,-20.99609375,-12.6953125,-16.6015625,-46.875,-1.0,-1.0,1.0,0.0,9.m4v,8.0
2024-02-28 10:54:42.659709,1709114082.6597097,-5.37109375,-11.23046875,-31.25,6.8359375,-1.0,-1.0,1.0,0.0,9.m4v,8.0
2024-02-28 10:54:42.671427,1709114082.6714268,-13.671875,-47.36328125,-88.8671875,-29.78515625,-1.0,-1.0,1.0,0.0,9.m4v,8.0
2024-02-28 10:54:42.683147,1709114082.6831467,-24.4140625,-25.390625,-20.99609375,-37.59765625,-1.0,-1.0,1.0,0.0,9.m4v,8.0
2024-02-28 10:54:42.690958,1709114082.6909585,-19.04296875,-7.8125,-39.55078125,-13.18359375,-1.0,-1.0,1.0,0.0,9.m4v,8.0
2024-02-28 10:54:42.702676,1709114082.7026758,13.18359375,-52.734375,-75.1953125,-46.875,-1.0,-1.0,1.0,0.0,9.m4v,8.0
2024-02-28 10:54:42.714393,1709114082.7143934,-38.0859375,-6.34765625,-69.3359375,-21.484375,-1.0,-1.0,1.0,0.0,9.m4v,8.0
2024-02-28 10:54:42.718299,1709114082.7182992,-0.9765625,-12.20703125,-73.73046875,-21.97265625,-1.0,-1.0,1.0,0.0,9.m4v,8.0
2024-02-28 10:54:42.726111,1709114082.7261107,-72.265625,-59.5703125,-4.8828125,-62.98828125,-1.0,-1.0,1.0,0.0,9.m4v,8.0
2024-02-28 10:54:42.968286,1709114082.9682865,-17.578125,-24.90234375,-76.66015625,-62.5,-1.0,-1.0,1.0,0.0,9.m4v,8.0
2024-02-28 10:54:42.972192,1709114082.9721923,-40.0390625,-57.12890625,-51.7578125,-50.29296875,-1.0,-1.0,1.0,0.0,9.m4v,8.0
2024-02-28 10:54:42.976098,1709114082.976098,-53.22265625,-73.2421875,-27.83203125,-33.69140625,-1.0,-1.0,1.0,0.0,9.m4v,8.0
2024-02-28 10:54:42.980004,1709114082.9800038,-66.40625,-49.31640625,-33.69140625,-54.6875,-1.0,-1.0,1.0,0.0,9.m4v,8.0
2024-02-28 10:54:42.983910,1709114082.9839096,-56.640625,-25.87890625,-31.73828125,-41.015625,-1.0,-1.0,1.0,0.0,9.m4v,8.0
2024-02-28 10:54:42.987815,1709114082.9878154,-49.31640625,-16.11328125,-39.55078125,-34.1796875,-1.0,-1.0,1.0,0.0,9.m4v,8.0
2024-02-28 10:54:42.991721,1709114082.9917214,-45.8984375,-7.8125,-56.15234375,-65.4296875,-1.0,-1.0,1.0,0.0,9.m4v,8.0
2024-02-28 10:54:42.995627,1709114082.9956272,-41.9921875,-13.671875,-82.03125,-64.94140625,-1.0,-1.0,1.0,0.0,9.m4v,8.0
2024-02-28 10:54:42.999533,1709114082.999533,-62.98828125,-38.57421875,-63.96484375,-66.89453125,-1.0,-1.0,1.0,0.0,9.m4v,8.0
2024-02-28 10:54:43.003439,1709114083.0034387,-56.15234375,-51.7578125,-3.41796875,-26.3671875,-1.0,-1.0,1.0,0.0,9.m4v,8.0
2024-02-28 10:54:43.007345,1709114083.0073447,-42.96875,-50.78125,-10.7421875,24.90234375,-1.0,-1.0,1.0,0.0,9.m4v,8.0
2024-02-28 10:54:43.011253,1709114083.0112529,-41.9921875,-39.0625,-42.48046875,-41.50390625,-1.0,-1.0,1.0,0.0,9.m4v,8.0
2024-02-28 10:54:43.015159,1709114083.015159,-51.26953125,-57.6171875,-2.9296875,-104.98046875,-1.0,-1.0,1.0,0.0,9.m4v,8.0
2024-02-28 10:54:43.019065,1709114083.019065,-37.59765625,-84.9609375,8.7890625,-87.890625,-1.0,-1.0,1.0,0.0,9.m4v,8.0
2024-02-28 10:54:43.022970,1709114083.0229704,-36.1328125,-58.10546875,-66.40625,-54.19921875,-1.0,-1.0,1.0,0.0,9.m4v,8.0
2024-02-28 10:54:43.026876,1709114083.0268762,-58.59375,-12.20703125,-91.30859375,-39.55078125,-1.0,-1.0,1.0,0.0,9.m4v,8.0
2024-02-28 10:54:43.030782,1709114083.030782,-67.87109375,3.41796875,-11.23046875,-76.66015625,-1.0,-1.0,1.0,0.0,9.m4v,8.0
2024-02-28 10:54:43.034688,1709114083.0346878,-85.9375,-2.9296875,21.484375,-79.58984375,-1.0,-1.0,1.0,0.0,9.m4v,8.0
2024-02-28 10:54:43.038594,1709114083.0385938,-72.75390625,-7.32421875,-16.6015625,-44.43359375,-1.0,-1.0,1.0,0.0,9.m4v,8.0
2024-02-28 10:54:43.085466,1709114083.085466,-86.9140625,-19.53125,-104.00390625,-93.75,-1.0,-1.0,1.0,0.0,9.m4v,8.0
2024-02-28 10:54:43.089372,1709114083.089372,-95.703125,-41.9921875,-44.921875,-119.140625,-1.0,-1.0,1.0,0.0,9.m4v,8.0
2024-02-28 10:54:43.093278,1709114083.0932777,-96.19140625,-41.015625,10.7421875,-124.51171875,-1.0,-1.0,1.0,0.0,9.m4v,8.0
2024-02-28 10:54:43.116715,1709114083.116715,-95.21484375,-27.34375,-76.66015625,-83.984375,-1.0,-1.0,1.0,0.0,9.m4v,8.0
2024-02-28 10:54:43.120621,1709114083.1206207,-64.94140625,-37.59765625,-87.40234375,-54.6875,-1.0,-1.0,1.0,0.0,9.m4v,8.0
2024-02-28 10:54:43.124527,1709114083.1245265,-51.26953125,-32.71484375,-48.828125,-74.21875,-1.0,-1.0,1.0,0.0,9.m4v,8.0
2024-02-28 10:54:43.147962,1709114083.1479616,-56.640625,-47.8515625,-41.50390625,13.18359375,-1.0,-1.0,1.0,0.0,9.m4v,8.0
2024-02-28 10:54:43.167493,1709114083.1674929,-14.16015625,-23.4375,-59.08203125,-8.7890625,-1.0,-1.0,1.0,0.0,9.m4v,8.0
2024-02-28 10:54:43.194834,1709114083.1948335,-29.78515625,-16.6015625,-8.7890625,-42.48046875,-1.0,-1.0,1.0,0.0,9.m4v,8.0
2024-02-28 10:54:43.198741,1709114083.1987414,-39.0625,-42.48046875,-12.6953125,-74.70703125,-1.0,-1.0,1.0,0.0,9.m4v,8.0
2024-02-28 10:54:43.226082,1709114083.2260823,-26.85546875,-47.8515625,-6.34765625,-6.8359375,-1.0,-1.0,1.0,0.0,9.m4v,8.0
2024-02-28 10:54:43.229988,1709114083.229988,-51.26953125,-24.4140625,-14.16015625,-12.20703125,-1.0,-1.0,1.0,0.0,9.m4v,8.0
2024-02-28 10:54:43.233894,1709114083.233894,-62.01171875,-19.53125,-20.01953125,-74.70703125,-1.0,-1.0,1.0,0.0,9.m4v,8.0
2024-02-28 10:54:43.237800,1709114083.2378,-33.203125,-21.97265625,-24.4140625,-86.9140625,-1.0,-1.0,1.0,0.0,9.m4v,8.0
2024-02-28 10:54:43.241706,1709114083.2417057,-27.34375,-23.4375,-20.01953125,-50.29296875,-1.0,-1.0,1.0,0.0,9.m4v,8.0
2024-02-28 10:54:43.245614,1709114083.2456143,-12.20703125,-28.80859375,-17.08984375,-28.80859375,-1.0,-1.0,1.0,0.0,9.m4v,8.0
2024-02-28 10:54:43.249520,1709114083.24952,-6.8359375,-34.66796875,-22.94921875,-41.50390625,-1.0,-1.0,1.0,0.0,9.m4v,8.0
2024-02-28 10:54:43.257332,1709114083.2573316,-43.45703125,-64.453125,-41.50390625,-22.94921875,-1.0,-1.0,1.0,0.0,9.m4v,8.0
2024-02-28 10:54:43.269049,1709114083.2690492,2.44140625,-12.6953125,-22.94921875,17.578125,-1.0,-1.0,1.0,0.0,9.m4v,8.0
2024-02-28 10:54:43.276861,1709114083.2768607,-20.5078125,-24.4140625,-41.50390625,-61.5234375,-1.0,-1.0,1.0,0.0,9.m4v,8.0
2024-02-28 10:54:43.288578,1709114083.2885785,-59.08203125,-14.16015625,-56.640625,-42.96875,-1.0,-1.0,1.0,0.0,9.m4v,8.0
2024-02-28 10:54:43.296393,1709114083.2963934,-49.31640625,-5.37109375,-47.36328125,-86.9140625,-1.0,-1.0,1.0,0.0,9.m4v,8.0
2024-02-28 10:54:43.300299,1709114083.3002992,-71.77734375,-7.8125,-41.50390625,-91.796875,-1.0,-1.0,1.0,0.0,9.m4v,8.0
2024-02-28 10:54:43.304205,1709114083.304205,-74.21875,-9.27734375,-53.22265625,-65.4296875,-1.0,-1.0,1.0,0.0,9.m4v,8.0
2024-02-28 10:54:43.308111,1709114083.308111,-65.4296875,-4.8828125,-56.15234375,-63.4765625,-1.0,-1.0,1.0,0.0,9.m4v,8.0
2024-02-28 10:54:43.312017,1709114083.3120167,-61.03515625,11.23046875,-60.05859375,-99.12109375,-1.0,-1.0,1.0,0.0,9.m4v,8.0
2024-02-28 10:54:43.315922,1709114083.3159225,-70.80078125,16.6015625,-67.87109375,-128.41796875,-1.0,-1.0,1.0,0.0,9.m4v,8.0
2024-02-28 10:54:43.319828,1709114083.3198285,-102.05078125,12.20703125,-49.8046875,-133.30078125,-1.0,-1.0,1.0,0.0,9.m4v,8.0
2024-02-28 10:54:43.323734,1709114083.3237343,-111.81640625,13.18359375,-14.16015625,-145.99609375,-1.0,-1.0,1.0,0.0,9.m4v,8.0
2024-02-28 10:54:43.327640,1709114083.32764,-115.72265625,5.859375,-7.32421875,-157.71484375,-1.0,-1.0,1.0,0.0,9.m4v,8.0
2024-02-28 10:54:43.331546,1709114083.3315458,-142.08984375,0.0,-18.06640625,-161.1328125,-1.0,-1.0,1.0,0.0,9.m4v,8.0
2024-02-28 10:54:43.335452,1709114083.3354516,-147.4609375,6.8359375,-38.57421875,-164.55078125,-1.0,-1.0,1.0,0.0,9.m4v,8.0
2024-02-28 10:54:43.339360,1709114083.33936,-130.37109375,22.94921875,-73.73046875,-143.06640625,-1.0,-1.0,1.0,0.0,9.m4v,8.0
2024-02-28 10:54:43.343266,1709114083.3432658,-127.9296875,4.39453125,-74.21875,-100.09765625,-1.0,-1.0,1.0,0.0,9.m4v,8.0
2024-02-28 10:54:43.347172,1709114083.3471718,-127.44140625,-4.8828125,-60.05859375,-83.984375,-1.0,-1.0,1.0,0.0,9.m4v,8.0
2024-02-28 10:54:43.351078,1709114083.3510776,-140.625,22.4609375,-52.24609375,-173.828125,-1.0,-1.0,1.0,0.0,9.m4v,8.0
2024-02-28 10:54:43.354983,1709114083.354983,-149.90234375,38.0859375,-31.25,-219.7265625,-1.0,-1.0,1.0,0.0,9.m4v,8.0
2024-02-28 10:54:43.358889,1709114083.358889,-165.52734375,17.578125,-45.41015625,-182.6171875,-1.0,-1.0,1.0,0.0,9.m4v,8.0
2024-02-28 10:54:43.362795,1709114083.362795,-139.6484375,2.9296875,-66.89453125,-155.76171875,-1.0,-1.0,1.0,0.0,9.m4v,8.0
2024-02-28 10:54:43.366701,1709114083.366701,-120.60546875,24.90234375,-64.94140625,-120.1171875,-1.0,-1.0,1.0,0.0,9.m4v,8.0
2024-02-28 10:54:43.370607,1709114083.370607,-143.5546875,33.69140625,-32.71484375,-135.25390625,-1.0,-1.0,1.0,0.0,9.m4v,8.0
2024-02-28 10:54:43.374512,1709114083.3745124,-137.6953125,17.578125,-20.5078125,-165.52734375,-1.0,-1.0,1.0,0.0,9.m4v,8.0
2024-02-28 10:54:43.378418,1709114083.3784182,-123.046875,20.99609375,-55.17578125,-164.0625,-1.0,-1.0,1.0,0.0,9.m4v,8.0
2024-02-28 10:54:43.382324,1709114083.3823242,-132.32421875,10.25390625,-41.9921875,-155.76171875,-1.0,-1.0,1.0,0.0,9.m4v,8.0
2024-02-28 10:54:43.386232,1709114083.3862324,-123.046875,-19.04296875,-55.6640625,-159.1796875,-1.0,-1.0,1.0,0.0,9.m4v,8.0
2024-02-28 10:54:43.390138,1709114083.390138,-84.47265625,-0.9765625,-57.6171875,-140.625,-1.0,-1.0,1.0,0.0,9.m4v,8.0
2024-02-28 10:54:43.394044,1709114083.3940442,-138.671875,5.859375,-5.37109375,-147.4609375,-1.0,-1.0,1.0,0.0,9.m4v,8.0
2024-02-28 10:54:43.397950,1709114083.39795,-147.4609375,-25.390625,-22.4609375,-157.71484375,-1.0,-1.0,1.0,0.0,9.m4v,8.0
2024-02-28 10:54:43.401856,1709114083.4018557,-118.65234375,-21.484375,-60.546875,-162.109375,-1.0,-1.0,1.0,0.0,9.m4v,8.0
2024-02-28 10:54:43.405761,1709114083.4057617,-125.48828125,18.5546875,-61.03515625,-149.4140625,-1.0,-1.0,1.0,0.0,9.m4v,8.0
2024-02-28 10:54:43.409667,1709114083.4096673,-75.68359375,38.57421875,-63.96484375,-93.26171875,-1.0,-1.0,1.0,0.0,9.m4v,8.0
2024-02-28 10:54:43.413573,1709114083.4135733,-70.3125,17.578125,-78.61328125,-115.234375,-1.0,-1.0,1.0,0.0,9.m4v,8.0
2024-02-28 10:54:43.417479,1709114083.417479,-118.1640625,-6.8359375,-75.68359375,-155.2734375,-1.0,-1.0,1.0,0.0,9.m4v,8.0
2024-02-28 10:54:43.421385,1709114083.4213848,-89.35546875,-28.80859375,-50.29296875,-114.2578125,-1.0,-1.0,1.0,0.0,9.m4v,8.0
2024-02-28 10:54:43.425291,1709114083.4252906,-66.40625,-39.0625,-76.66015625,-24.90234375,-1.0,-1.0,1.0,0.0,9.m4v,8.0
2024-02-28 10:54:43.429196,1709114083.4291964,-75.1953125,0.0,-106.4453125,-38.57421875,-1.0,-1.0,1.0,0.0,9.m4v,8.0
2024-02-28 10:54:43.433105,1709114083.4331048,-76.66015625,6.34765625,-74.21875,-121.09375,-1.0,-1.0,1.0,0.0,9.m4v,8.0
2024-02-28 10:54:43.437011,1709114083.4370103,-67.3828125,2.44140625,-83.0078125,-115.72265625,-1.0,-1.0,1.0,0.0,9.m4v,8.0
2024-02-28 10:54:43.440916,1709114083.4409163,-53.7109375,17.578125,-93.75,-45.8984375,-1.0,-1.0,1.0,0.0,9.m4v,8.0
2024-02-28 10:54:43.444822,1709114083.444822,-62.01171875,-7.32421875,-72.75390625,-33.69140625,-1.0,-1.0,1.0,0.0,9.m4v,8.0
2024-02-28 10:54:43.448728,1709114083.448728,-49.8046875,-29.78515625,-55.6640625,-86.9140625,-1.0,-1.0,1.0,0.0,9.m4v,8.0
2024-02-28 10:54:43.452634,1709114083.452634,-54.19921875,-33.203125,-58.10546875,-111.328125,-1.0,-1.0,1.0,0.0,9.m4v,8.0
2024-02-28 10:54:43.456540,1709114083.4565396,-81.54296875,-53.7109375,-67.87109375,-96.6796875,-1.0,-1.0,1.0,0.0,9.m4v,8.0
2024-02-28 10:54:43.460445,1709114083.4604454,-63.4765625,-60.546875,-75.68359375,-101.07421875,-1.0,-1.0,1.0,0.0,9.m4v,8.0
2024-02-28 10:54:43.464351,1709114083.4643512,-63.4765625,-41.015625,-95.21484375,-90.8203125,-1.0,-1.0,1.0,0.0,9.m4v,8.0
2024-02-28 10:54:43.468257,1709114083.4682572,-33.69140625,-33.69140625,-95.21484375,-72.75390625,-1.0,-1.0,1.0,0.0,9.m4v,8.0
2024-02-28 10:54:43.472163,1709114083.472163,-3.90625,-39.55078125,-95.703125,-33.203125,-1.0,-1.0,1.0,0.0,9.m4v,8.0
2024-02-28 10:54:43.476069,1709114083.4760687,-56.15234375,-18.06640625,-104.98046875,-9.765625,-1.0,-1.0,1.0,0.0,9.m4v,8.0
2024-02-28 10:54:43.479977,1709114083.479977,-41.015625,-7.32421875,-81.54296875,-41.50390625,-1.0,-1.0,1.0,0.0,9.m4v,8.0
2024-02-28 10:54:43.495600,1709114083.4956002,4.8828125,-43.45703125,-53.22265625,-72.265625,-1.0,-1.0,1.0,0.0,9.m4v,8.0
2024-02-28 10:54:43.499506,1709114083.499506,-4.8828125,-72.265625,-48.33984375,-56.15234375,-1.0,-1.0,1.0,0.0,9.m4v,8.0
2024-02-28 10:54:43.503412,1709114083.503412,-46.38671875,-66.40625,-63.4765625,-75.68359375,-1.0,-1.0,1.0,0.0,9.m4v,8.0
2024-02-28 10:54:43.507318,1709114083.5073178,-27.34375,-52.24609375,-101.07421875,-32.71484375,-1.0,-1.0,1.0,0.0,9.m4v,8.0
2024-02-28 10:54:43.511224,1709114083.5112236,38.0859375,-55.6640625,-112.3046875,36.62109375,-1.0,-1.0,1.0,0.0,9.m4v,8.0
2024-02-28 10:54:43.515129,1709114083.515129,22.94921875,-53.22265625,-76.171875,-11.23046875,-1.0,-1.0,1.0,0.0,9.m4v,8.0
2024-02-28 10:54:43.519035,1709114083.519035,-45.41015625,-31.73828125,-42.48046875,-27.34375,-1.0,-1.0,1.0,0.0,9.m4v,8.0
2024-02-28 10:54:43.522941,1709114083.522941,-20.99609375,-21.484375,-22.94921875,10.25390625,-1.0,-1.0,1.0,0.0,9.m4v,8.0
2024-02-28 10:54:43.526849,1709114083.526849,23.92578125,-20.5078125,-42.96875,0.48828125,-1.0,-1.0,1.0,0.0,9.m4v,8.0
2024-02-28 10:54:43.530755,1709114083.5307548,-3.41796875,-31.25,-62.5,-22.4609375,-1.0,-1.0,1.0,0.0,9.m4v,8.0
2024-02-28 10:54:43.632311,1709114083.632311,5.859375,-28.80859375,-80.56640625,-1.46484375,-1.0,-1.0,1.0,0.0,9.m4v,8.0
2024-02-28 10:54:43.636217,1709114083.6362169,-22.94921875,-39.55078125,-41.50390625,-33.203125,-1.0,-1.0,1.0,0.0,9.m4v,8.0
2024-02-28 10:54:43.640123,1709114083.640123,-14.6484375,-42.48046875,-5.37109375,-22.94921875,-1.0,-1.0,1.0,0.0,9.m4v,8.0
2024-02-28 10:54:43.644029,1709114083.644029,9.765625,-51.26953125,-20.01953125,-21.484375,-1.0,-1.0,1.0,0.0,9.m4v,8.0
2024-02-28 10:54:43.644029,1709114083.644029,9.765625,-51.26953125,-20.01953125,-21.484375,-1.0,-1.0,1.0,0.0,9.m4v,8.0
2024-02-28 10:54:43.647934,1709114083.6479344,32.2265625,-75.1953125,-47.8515625,-10.25390625,-1.0,-1.0,1.0,0.0,9.m4v,8.0
2024-02-28 10:54:43.909639,1709114083.9096394,-55.17578125,-24.90234375,-3.41796875,-17.578125,-1.0,-1.0,1.0,0.0,9.m4v,8.0
2024-02-28 10:54:43.917451,1709114083.917451,-40.52734375,-36.62109375,-17.08984375,-68.359375,-1.0,-1.0,1.0,0.0,9.m4v,8.0
2024-02-28 10:54:43.925263,1709114083.9252627,-57.12890625,-45.41015625,-15.625,-85.44921875,-1.0,-1.0,1.0,0.0,9.m4v,8.0
2024-02-28 10:54:43.933074,1709114083.9330742,-54.6875,-26.3671875,-39.0625,-34.66796875,-1.0,-1.0,1.0,0.0,9.m4v,8.0
2024-02-28 10:54:43.940886,1709114083.940886,-28.80859375,-39.0625,-28.80859375,-53.7109375,-1.0,-1.0,1.0,0.0,9.m4v,8.0
2024-02-28 10:54:43.948700,1709114083.9486997,-78.61328125,-46.875,-41.50390625,-42.96875,-1.0,-1.0,1.0,0.0,9.m4v,8.0
2024-02-28 10:54:43.956511,1709114083.9565113,-60.05859375,-39.0625,-68.359375,-78.61328125,-1.0,-1.0,1.0,0.0,9.m4v,8.0
2024-02-28 10:54:43.964323,1709114083.964323,-42.48046875,-44.921875,-14.6484375,-26.85546875,-1.0,-1.0,1.0,0.0,9.m4v,8.0
2024-02-28 10:54:43.972135,1709114083.9721346,-61.5234375,-38.57421875,-35.15625,-56.15234375,-1.0,-1.0,1.0,0.0,9.m4v,8.0
2024-02-28 10:54:43.979946,1709114083.9799464,-47.8515625,-39.0625,-25.390625,-28.80859375,-1.0,-1.0,1.0,0.0,9.m4v,8.0
2024-02-28 10:54:43.987758,1709114083.987758,-51.26953125,-65.4296875,-79.1015625,-49.31640625,-1.0,-1.0,1.0,0.0,9.m4v,8.0
2024-02-28 10:54:43.995572,1709114083.9955723,-78.61328125,-15.13671875,-18.5546875,-22.4609375,-1.0,-1.0,1.0,0.0,9.m4v,8.0
2024-02-28 10:54:44.003384,1709114084.003384,-55.6640625,-24.4140625,-39.55078125,-92.7734375,-1.0,-1.0,1.0,0.0,9.m4v,8.0
2024-02-28 10:54:44.011196,1709114084.0111957,-68.84765625,-37.59765625,-15.625,-30.2734375,-1.0,-1.0,1.0,0.0,9.m4v,8.0
2024-02-28 10:54:44.019007,1709114084.0190072,-61.03515625,-34.1796875,-49.31640625,-36.62109375,-1.0,-1.0,1.0,0.0,9.m4v,8.0
2024-02-28 10:54:44.026819,1709114084.0268188,-84.9609375,-64.453125,-20.99609375,-75.1953125,-1.0,-1.0,1.0,0.0,9.m4v,8.0
2024-02-28 10:54:44.034631,1709114084.0346303,-83.984375,-47.36328125,-39.55078125,-60.546875,-1.0,-1.0,1.0,0.0,9.m4v,8.0
2024-02-28 10:54:44.042445,1709114084.0424447,-85.44921875,-10.25390625,-85.9375,-61.5234375,-1.0,-1.0,1.0,0.0,9.m4v,8.0
2024-02-28 10:54:44.050256,1709114084.0502565,-89.35546875,-35.64453125,-3.41796875,-19.04296875,-1.0,-1.0,1.0,0.0,9.m4v,8.0
2024-02-28 10:54:44.202591,1709114084.2025912,-94.7265625,-15.13671875,-43.9453125,-96.19140625,-1.0,-1.0,1.0,0.0,9.m4v,8.0
2024-02-28 10:54:44.206497,1709114084.206497,-110.83984375,-5.37109375,-38.57421875,-97.65625,-1.0,-1.0,1.0,0.0,9.m4v,8.0
2024-02-28 10:54:44.210403,1709114084.2104027,-117.1875,-11.23046875,-16.11328125,-109.86328125,-1.0,-1.0,1.0,0.0,9.m4v,8.0
2024-02-28 10:54:44.214309,1709114084.2143085,-112.3046875,-14.6484375,-16.11328125,-135.25390625,-1.0,-1.0,1.0,0.0,9.m4v,8.0
2024-02-28 10:54:44.358831,1709114084.3588307,-6.34765625,-42.96875,-48.33984375,-39.0625,-1.0,-1.0,1.0,0.0,9.m4v,8.0
2024-02-28 10:54:44.421329,1709114084.4213293,46.875,-87.890625,-36.1328125,27.34375,-1.0,-1.0,1.0,0.0,9.m4v,8.0
2024-02-28 10:54:44.425235,1709114084.425235,23.92578125,-80.078125,-13.671875,31.73828125,-1.0,-1.0,1.0,0.0,9.m4v,8.0
2024-02-28 10:54:44.429141,1709114084.4291408,1.46484375,-38.0859375,-45.8984375,92.7734375,-1.0,-1.0,1.0,0.0,9.m4v,8.0
2024-02-28 10:54:44.433047,1709114084.4330468,18.5546875,-18.5546875,-71.2890625,57.6171875,-1.0,-1.0,1.0,0.0,9.m4v,8.0
2024-02-28 10:54:44.436953,1709114084.4369526,37.59765625,-25.87890625,-39.55078125,-0.48828125,-1.0,-1.0,1.0,0.0,9.m4v,8.0
2024-02-28 10:54:44.440858,1709114084.4408584,28.80859375,-49.8046875,-45.41015625,9.765625,-1.0,-1.0,1.0,0.0,9.m4v,8.0
2024-02-28 10:54:44.444764,1709114084.444764,26.85546875,-50.29296875,-98.14453125,24.90234375,-1.0,-1.0,1.0,0.0,9.m4v,8.0
2024-02-28 10:54:44.448670,1709114084.44867,44.921875,-44.921875,-80.078125,16.6015625,-1.0,-1.0,1.0,0.0,9.m4v,8.0
2024-02-28 10:54:44.452576,1709114084.452576,44.43359375,-53.22265625,-29.78515625,83.0078125,-1.0,-1.0,1.0,0.0,9.m4v,8.0
2024-02-28 10:54:44.456482,1709114084.4564817,58.10546875,-65.4296875,-9.765625,91.30859375,-1.0,-1.0,1.0,0.0,9.m4v,8.0
2024-02-28 10:54:44.460387,1709114084.4603877,41.50390625,-84.9609375,-18.5546875,1.46484375,-1.0,-1.0,1.0,0.0,9.m4v,8.0
2024-02-28 10:54:44.464296,1709114084.464296,24.4140625,-96.6796875,-20.01953125,-2.9296875,-1.0,-1.0,1.0,0.0,9.m4v,8.0
2024-02-28 10:54:44.468202,1709114084.4682016,37.109375,-71.77734375,-2.9296875,26.85546875,-1.0,-1.0,1.0,0.0,9.m4v,8.0
2024-02-28 10:54:44.472107,1709114084.4721074,26.3671875,-33.203125,-16.11328125,28.3203125,-1.0,-1.0,1.0,0.0,9.m4v,8.0
2024-02-28 10:54:44.476013,1709114084.4760134,24.4140625,-25.390625,-50.78125,14.6484375,-1.0,-1.0,1.0,0.0,9.m4v,8.0
2024-02-28 10:54:44.479919,1709114084.4799192,20.01953125,-20.5078125,-58.10546875,14.16015625,-1.0,-1.0,1.0,0.0,9.m4v,8.0
2024-02-28 10:54:44.483825,1709114084.483825,20.99609375,-35.64453125,-52.24609375,45.41015625,-1.0,-1.0,1.0,0.0,9.m4v,8.0
2024-02-28 10:54:44.487731,1709114084.4877307,30.2734375,-56.640625,-56.640625,44.921875,-1.0,-1.0,1.0,0.0,9.m4v,8.0
2024-02-28 10:54:44.491637,1709114084.4916365,37.109375,-47.36328125,-37.109375,52.734375,-1.0,-1.0,1.0,0.0,9.m4v,8.0
2024-02-28 10:54:44.495543,1709114084.4955423,40.52734375,-41.015625,-17.08984375,19.53125,-1.0,-1.0,1.0,0.0,9.m4v,8.0
2024-02-28 10:54:44.499448,1709114084.4994483,24.90234375,-50.78125,-25.390625,-26.3671875,-1.0,-1.0,1.0,0.0,9.m4v,8.0
2024-02-28 10:54:44.503354,1709114084.503354,15.625,-68.359375,-47.36328125,30.76171875,-1.0,-1.0,1.0,0.0,9.m4v,8.0
2024-02-28 10:54:44.507260,1709114084.5072598,28.3203125,-57.6171875,-47.8515625,53.22265625,-1.0,-1.0,1.0,0.0,9.m4v,8.0
2024-02-28 10:54:44.511168,1709114084.5111682,39.55078125,-45.8984375,-23.4375,24.4140625,-1.0,-1.0,1.0,0.0,9.m4v,8.0
2024-02-28 10:54:44.515074,1709114084.515074,42.48046875,-64.94140625,-30.2734375,13.18359375,-1.0,-1.0,1.0,0.0,9.m4v,8.0
2024-02-28 10:54:44.518980,1709114084.5189798,44.921875,-61.03515625,-52.24609375,45.8984375,-1.0,-1.0,1.0,0.0,9.m4v,8.0
2024-02-28 10:54:44.522886,1709114084.5228858,42.48046875,-37.59765625,-52.734375,33.203125,-1.0,-1.0,1.0,0.0,9.m4v,8.0
2024-02-28 10:54:44.526792,1709114084.5267916,13.671875,-21.484375,-47.8515625,-14.16015625,-1.0,-1.0,1.0,0.0,9.m4v,8.0
2024-02-28 10:54:44.530697,1709114084.530697,-3.41796875,-21.97265625,-38.0859375,-20.01953125,-1.0,-1.0,1.0,0.0,9.m4v,8.0
2024-02-28 10:54:44.534603,1709114084.534603,-7.8125,-41.9921875,-15.625,-24.4140625,-1.0,-1.0,1.0,0.0,9.m4v,8.0
2024-02-28 10:54:44.538509,1709114084.538509,5.37109375,-47.36328125,-30.76171875,52.734375,-1.0,-1.0,1.0,0.0,9.m4v,8.0
2024-02-28 10:54:44.542415,1709114084.542415,13.671875,-49.8046875,-69.82421875,54.6875,-1.0,-1.0,1.0,0.0,9.m4v,8.0
2024-02-28 10:54:44.550226,1709114084.5502264,-14.6484375,-36.62109375,-35.64453125,-24.90234375,-1.0,-1.0,1.0,0.0,9.m4v,8.0
2024-02-28 10:54:44.554132,1709114084.5541322,3.41796875,-31.73828125,-33.203125,-42.96875,-1.0,-1.0,1.0,0.0,9.m4v,8.0
2024-02-28 10:54:44.561946,1709114084.5619464,-33.203125,-35.15625,-54.6875,71.77734375,-1.0,-1.0,1.0,0.0,9.m4v,8.0
2024-02-28 10:54:44.569758,1709114084.5697582,-35.64453125,-71.77734375,-65.91796875,-65.4296875,-1.0,-1.0,1.0,0.0,9.m4v,8.0
2024-02-28 10:54:44.577570,1709114084.5775695,-42.48046875,-57.12890625,26.3671875,-66.89453125,-1.0,-1.0,1.0,0.0,9.m4v,8.0
2024-02-28 10:54:44.581475,1709114084.5814755,-34.66796875,-49.8046875,-1.953125,-83.49609375,-1.0,-1.0,1.0,0.0,9.m4v,8.0
2024-02-28 10:54:44.585381,1709114084.5853813,-37.59765625,-52.734375,-24.4140625,-50.29296875,-1.0,-1.0,1.0,0.0,9.m4v,8.0
2024-02-28 10:54:44.589287,1709114084.5892873,-20.99609375,-55.6640625,-9.765625,-12.20703125,-1.0,-1.0,1.0,0.0,9.m4v,8.0
2024-02-28 10:54:44.593193,1709114084.593193,-42.96875,-45.41015625,-26.85546875,-10.7421875,-1.0,-1.0,1.0,0.0,9.m4v,8.0
2024-02-28 10:54:44.667408,1709114084.6674085,-28.80859375,-40.52734375,-81.0546875,-32.71484375,-1.0,-1.0,1.0,0.0,9.m4v,8.0
2024-02-28 10:54:44.671314,1709114084.6713142,-91.30859375,-21.484375,-85.9375,-33.69140625,-1.0,-1.0,1.0,0.0,9.m4v,8.0
2024-02-28 10:54:44.718186,1709114084.718186,-42.96875,-40.0390625,-46.875,-33.203125,-1.0,-1.0,1.0,0.0,9.m4v,8.0
2024-02-28 10:54:44.725998,1709114084.725998,-40.0390625,-29.296875,-68.359375,-17.08984375,-1.0,-1.0,1.0,0.0,9.m4v,8.0
2024-02-28 10:54:44.733809,1709114084.7338097,-37.109375,-9.765625,-17.08984375,-46.875,-1.0,-1.0,1.0,0.0,9.m4v,8.0
2024-02-28 10:54:44.741621,1709114084.7416213,-41.9921875,-34.66796875,-9.765625,-35.64453125,-1.0,-1.0,1.0,0.0,9.m4v,8.0
2024-02-28 10:54:44.753341,1709114084.7533414,-47.36328125,-54.19921875,-36.62109375,-11.23046875,-1.0,-1.0,1.0,0.0,9.m4v,8.0
2024-02-28 10:54:44.757247,1709114084.7572472,-41.50390625,-37.109375,-8.7890625,-30.2734375,-1.0,-1.0,1.0,0.0,9.m4v,8.0
2024-02-28 10:54:44.761153,1709114084.761153,-29.296875,-27.83203125,-9.765625,-60.05859375,-1.0,-1.0,1.0,0.0,9.m4v,8.0
2024-02-28 10:54:44.765059,1709114084.765059,-29.78515625,-43.45703125,-22.4609375,-57.12890625,-1.0,-1.0,1.0,0.0,9.m4v,8.0
2024-02-28 10:54:44.768965,1709114084.7689648,-28.80859375,-46.38671875,-31.73828125,-22.94921875,-1.0,-1.0,1.0,0.0,9.m4v,8.0
2024-02-28 10:54:44.772871,1709114084.7728703,-34.1796875,-20.99609375,-34.1796875,-20.5078125,-1.0,-1.0,1.0,0.0,9.m4v,8.0
2024-02-28 10:54:44.776776,1709114084.7767763,-23.92578125,-12.6953125,-55.17578125,-12.20703125,-1.0,-1.0,1.0,0.0,9.m4v,8.0
2024-02-28 10:54:44.780682,1709114084.780682,-14.16015625,-28.80859375,-51.7578125,-18.06640625,-1.0,-1.0,1.0,0.0,9.m4v,8.0
2024-02-28 10:54:44.784588,1709114084.784588,-27.34375,-23.92578125,-26.85546875,-57.12890625,-1.0,-1.0,1.0,0.0,9.m4v,8.0
2024-02-28 10:54:44.788494,1709114084.788494,-37.109375,-26.3671875,-14.6484375,-60.05859375,-1.0,-1.0,1.0,0.0,9.m4v,8.0
2024-02-28 10:54:44.792402,1709114084.7924025,-41.50390625,-46.38671875,-15.13671875,-45.41015625,-1.0,-1.0,1.0,0.0,9.m4v,8.0
2024-02-28 10:54:44.796308,1709114084.796308,-43.45703125,-50.78125,-41.50390625,-13.671875,-1.0,-1.0,1.0,0.0,9.m4v,8.0
2024-02-28 10:54:44.800214,1709114084.8002138,-28.80859375,-34.1796875,-63.96484375,-12.6953125,-1.0,-1.0,1.0,0.0,9.m4v,8.0
2024-02-28 10:54:44.804120,1709114084.8041198,-28.80859375,-21.97265625,-54.19921875,-36.62109375,-1.0,-1.0,1.0,0.0,9.m4v,8.0
2024-02-28 10:54:44.808026,1709114084.8080256,-20.5078125,-26.85546875,-26.85546875,-44.921875,-1.0,-1.0,1.0,0.0,9.m4v,8.0
2024-02-28 10:54:44.811931,1709114084.8119314,-23.92578125,-27.34375,-18.5546875,-35.15625,-1.0,-1.0,1.0,0.0,9.m4v,8.0
2024-02-28 10:54:44.815837,1709114084.8158371,-20.99609375,-29.296875,-41.50390625,2.9296875,-1.0,-1.0,1.0,0.0,9.m4v,8.0
2024-02-28 10:54:44.819743,1709114084.8197432,-5.37109375,-33.69140625,-40.52734375,30.2734375,-1.0,-1.0,1.0,0.0,9.m4v,8.0
2024-02-28 10:54:44.823649,1709114084.823649,-8.7890625,-26.3671875,-32.71484375,-6.8359375,-1.0,-1.0,1.0,0.0,9.m4v,8.0
2024-02-28 10:54:44.827555,1709114084.8275547,-20.99609375,-33.203125,-24.4140625,-31.25,-1.0,-1.0,1.0,0.0,9.m4v,8.0
2024-02-28 10:54:44.831460,1709114084.8314605,-55.6640625,-42.48046875,-15.625,-38.57421875,-1.0,-1.0,1.0,0.0,9.m4v,8.0
2024-02-28 10:54:44.835366,1709114084.8353662,-20.01953125,-29.78515625,-20.5078125,-65.4296875,-1.0,-1.0,1.0,0.0,9.m4v,8.0
2024-02-28 10:54:45.214253,1709114085.2142534,-51.7578125,-7.32421875,-60.05859375,-40.0390625,-1.0,-1.0,1.0,0.0,9.m4v,8.0
2024-02-28 10:54:45.218159,1709114085.2181592,-52.24609375,-19.53125,-86.42578125,-61.5234375,-1.0,-1.0,1.0,0.0,9.m4v,8.0
2024-02-28 10:54:45.222065,1709114085.222065,-39.55078125,-25.390625,-47.36328125,-49.31640625,-1.0,-1.0,1.0,0.0,9.m4v,8.0
2024-02-28 10:54:45.225971,1709114085.225971,-53.7109375,-33.69140625,-23.4375,-53.22265625,-1.0,-1.0,1.0,0.0,9.m4v,8.0
2024-02-28 10:54:45.229877,1709114085.2298768,-62.98828125,-37.59765625,-2.44140625,-60.05859375,-1.0,-1.0,1.0,0.0,9.m4v,8.0
2024-02-28 10:54:45.233783,1709114085.2337823,-45.8984375,-40.0390625,-0.48828125,-54.6875,-1.0,-1.0,1.0,0.0,9.m4v,8.0
2024-02-28 10:54:45.237688,1709114085.2376883,-51.26953125,-50.29296875,-29.296875,-59.5703125,-1.0,-1.0,1.0,0.0,9.m4v,8.0
2024-02-28 10:54:45.241594,1709114085.241594,-59.08203125,-42.48046875,-41.015625,-42.96875,-1.0,-1.0,1.0,0.0,9.m4v,8.0
2024-02-28 10:54:45.245500,1709114085.2455,-43.9453125,-29.296875,-46.875,-15.625,-1.0,-1.0,1.0,0.0,9.m4v,8.0
2024-02-28 10:54:45.249406,1709114085.249406,-47.36328125,-33.203125,-39.0625,-71.77734375,-1.0,-1.0,1.0,0.0,9.m4v,8.0
2024-02-28 10:54:45.253312,1709114085.2533116,-48.33984375,-34.1796875,-62.5,-78.125,-1.0,-1.0,1.0,0.0,9.m4v,8.0
2024-02-28 10:54:45.257217,1709114085.2572174,-36.62109375,-23.92578125,-76.171875,-47.36328125,-1.0,-1.0,1.0,0.0,9.m4v,8.0
2024-02-28 10:54:45.261126,1709114085.2611258,-75.1953125,-27.83203125,-40.0390625,-23.92578125,-1.0,-1.0,1.0,0.0,9.m4v,8.0
2024-02-28 10:54:45.265032,1709114085.2650316,-85.9375,-27.83203125,-24.90234375,-49.8046875,-1.0,-1.0,1.0,0.0,9.m4v,8.0
2024-02-28 10:54:45.268937,1709114085.268937,-81.54296875,-24.4140625,-14.6484375,-113.76953125,-1.0,-1.0,1.0,0.0,9.m4v,8.0
2024-02-28 10:54:45.272843,1709114085.2728431,-82.03125,-27.34375,-3.41796875,-96.6796875,-1.0,-1.0,1.0,0.0,9.m4v,8.0
2024-02-28 10:54:45.276749,1709114085.2767491,-86.9140625,-29.78515625,-20.5078125,-88.37890625,-1.0,-1.0,1.0,0.0,9.m4v,8.0
2024-02-28 10:54:45.280655,1709114085.280655,-76.171875,-23.4375,-50.78125,-86.9140625,-1.0,-1.0,1.0,0.0,9.m4v,8.0
2024-02-28 10:54:45.284561,1709114085.284561,-70.80078125,-18.5546875,-79.58984375,-47.8515625,-1.0,-1.0,1.0,0.0,9.m4v,8.0
2024-02-28 10:54:45.417366,1709114085.4173658,-12.6953125,-32.2265625,-82.51953125,-21.484375,-1.0,-1.0,1.0,0.0,9.m4v,8.0
2024-02-28 10:54:45.421272,1709114085.4212716,6.34765625,-45.8984375,-49.8046875,-8.30078125,-1.0,-1.0,1.0,0.0,9.m4v,8.0
2024-02-28 10:54:45.425177,1709114085.425177,13.18359375,-46.38671875,-41.015625,-33.203125,-1.0,-1.0,1.0,0.0,9.m4v,8.0
2024-02-28 10:54:45.429083,1709114085.429083,-4.39453125,-63.4765625,-20.99609375,-6.8359375,-1.0,-1.0,1.0,0.0,9.m4v,8.0
2024-02-28 10:54:45.436895,1709114085.436895,-0.9765625,-61.5234375,-25.87890625,37.59765625,-1.0,-1.0,1.0,0.0,9.m4v,8.0
2024-02-28 10:54:45.440801,1709114085.440801,18.5546875,-41.015625,-76.171875,21.484375,-1.0,-1.0,1.0,0.0,9.m4v,8.0
2024-02-28 10:54:45.444706,1709114085.4447064,24.4140625,-28.80859375,-75.68359375,-27.83203125,-1.0,-1.0,1.0,0.0,9.m4v,8.0
2024-02-28 10:54:45.448614,1709114085.4486144,21.484375,-42.48046875,-65.4296875,26.3671875,-1.0,-1.0,1.0,0.0,9.m4v,8.0
2024-02-28 10:54:45.452520,1709114085.45252,33.69140625,-45.8984375,-80.078125,73.73046875,-1.0,-1.0,1.0,0.0,9.m4v,8.0
2024-02-28 10:54:45.456426,1709114085.456426,31.25,-36.62109375,-53.22265625,48.828125,-1.0,-1.0,1.0,0.0,9.m4v,8.0
2024-02-28 10:54:45.460332,1709114085.460332,22.94921875,-39.55078125,-16.6015625,-24.4140625,-1.0,-1.0,1.0,0.0,9.m4v,8.0
2024-02-28 10:54:45.464238,1709114085.4642377,11.71875,-49.31640625,-8.30078125,4.8828125,-1.0,-1.0,1.0,0.0,9.m4v,8.0
2024-02-28 10:54:45.468143,1709114085.4681437,23.4375,-61.03515625,-20.5078125,53.22265625,-1.0,-1.0,1.0,0.0,9.m4v,8.0
2024-02-28 10:54:45.472049,1709114085.4720492,31.73828125,-67.3828125,-51.7578125,44.921875,-1.0,-1.0,1.0,0.0,9.m4v,8.0
2024-02-28 10:54:45.475955,1709114085.475955,39.0625,-53.22265625,-104.98046875,26.85546875,-1.0,-1.0,1.0,0.0,9.m4v,8.0
2024-02-28 10:54:45.479861,1709114085.479861,54.6875,-43.45703125,-113.76953125,7.32421875,-1.0,-1.0,1.0,0.0,9.m4v,8.0
2024-02-28 10:54:45.483767,1709114085.4837668,21.97265625,-40.52734375,-43.9453125,6.8359375,-1.0,-1.0,1.0,0.0,9.m4v,8.0
2024-02-28 10:54:45.487673,1709114085.4876726,18.5546875,-35.15625,-3.90625,29.296875,-1.0,-1.0,1.0,0.0,9.m4v,8.0
2024-02-28 10:54:45.491578,1709114085.4915783,29.296875,-33.203125,-9.27734375,21.97265625,-1.0,-1.0,1.0,0.0,9.m4v,8.0
2024-02-28 10:54:45.495487,1709114085.495487,-3.90625,-29.78515625,-20.01953125,-11.23046875,-1.0,-1.0,1.0,0.0,9.m4v,8.0
2024-02-28 10:54:45.499393,1709114085.4993927,-12.20703125,-31.25,-37.59765625,-53.22265625,-1.0,-1.0,1.0,0.0,9.m4v,8.0
2024-02-28 10:54:45.503299,1709114085.5032983,27.83203125,-46.38671875,-27.83203125,-32.71484375,-1.0,-1.0,1.0,0.0,9.m4v,8.0
2024-02-28 10:54:45.507205,1709114085.5072043,36.1328125,-59.08203125,-20.99609375,-18.5546875,-1.0,-1.0,1.0,0.0,9.m4v,8.0
2024-02-28 10:54:45.511110,1709114085.5111103,41.50390625,-40.0390625,-83.0078125,65.91796875,-1.0,-1.0,1.0,0.0,9.m4v,8.0
2024-02-28 10:54:45.534545,1709114085.5345452,4.8828125,-87.890625,-12.20703125,-4.39453125,-1.0,-1.0,1.0,0.0,9.m4v,8.0
2024-02-28 10:54:45.542359,1709114085.5423594,8.30078125,2.44140625,-71.2890625,27.34375,-1.0,-1.0,1.0,0.0,9.m4v,8.0
2024-02-28 10:54:45.546265,1709114085.5462654,-19.04296875,-19.53125,-54.6875,35.64453125,-1.0,-1.0,1.0,0.0,9.m4v,8.0
2024-02-28 10:54:45.554077,1709114085.554077,16.11328125,-58.10546875,-69.82421875,0.0,-1.0,-1.0,1.0,0.0,9.m4v,8.0
2024-02-28 10:54:45.561889,1709114085.5618887,4.8828125,-16.6015625,-28.80859375,23.4375,-1.0,-1.0,1.0,0.0,9.m4v,8.0
2024-02-28 10:54:45.565794,1709114085.5657945,12.20703125,-33.69140625,-22.4609375,12.6953125,-1.0,-1.0,1.0,0.0,9.m4v,8.0
2024-02-28 10:54:45.573606,1709114085.573606,-1.46484375,-33.69140625,-51.26953125,-16.6015625,-1.0,-1.0,1.0,0.0,9.m4v,8.0
2024-02-28 10:54:45.577512,1709114085.5775118,-18.06640625,-45.41015625,0.48828125,-45.41015625,-1.0,-1.0,1.0,0.0,9.m4v,8.0
2024-02-28 10:54:45.581418,1709114085.5814178,-19.04296875,-56.15234375,-6.8359375,-31.25,-1.0,-1.0,1.0,0.0,9.m4v,8.0
2024-02-28 10:54:45.585324,1709114085.5853236,-14.16015625,-34.66796875,-53.7109375,-12.20703125,-1.0,-1.0,1.0,0.0,9.m4v,8.0
2024-02-28 10:54:45.589232,1709114085.589232,-13.671875,-25.87890625,-48.33984375,-23.92578125,-1.0,-1.0,1.0,0.0,9.m4v,8.0
2024-02-28 10:54:45.593138,1709114085.5931375,-11.23046875,-32.71484375,-36.62109375,-7.8125,-1.0,-1.0,1.0,0.0,9.m4v,8.0
2024-02-28 10:54:45.597044,1709114085.5970435,-2.9296875,-33.203125,-57.6171875,9.765625,-1.0,-1.0,1.0,0.0,9.m4v,8.0
2024-02-28 10:54:45.600950,1709114085.6009495,-9.765625,-58.59375,-70.80078125,6.8359375,-1.0,-1.0,1.0,0.0,9.m4v,8.0
2024-02-28 10:54:45.604855,1709114085.6048553,3.41796875,-75.1953125,-23.92578125,10.25390625,-1.0,-1.0,1.0,0.0,9.m4v,8.0
2024-02-28 10:54:45.608761,1709114085.608761,-24.4140625,-55.17578125,11.71875,-45.41015625,-1.0,-1.0,1.0,0.0,9.m4v,8.0
2024-02-28 10:54:45.612667,1709114085.6126668,-63.4765625,-33.69140625,-15.13671875,-22.4609375,-1.0,-1.0,1.0,0.0,9.m4v,8.0
2024-02-28 10:54:45.616573,1709114085.6165726,-31.73828125,-20.99609375,-50.78125,27.34375,-1.0,-1.0,1.0,0.0,9.m4v,8.0
2024-02-28 10:54:45.620479,1709114085.6204786,-9.27734375,-24.90234375,-55.17578125,-5.37109375,-1.0,-1.0,1.0,0.0,9.m4v,8.0
2024-02-28 10:54:45.628290,1709114085.6282902,4.8828125,-39.55078125,-17.578125,-36.1328125,-1.0,-1.0,1.0,0.0,9.m4v,8.0
2024-02-28 10:54:45.636105,1709114085.636105,0.48828125,-50.29296875,-87.40234375,-3.41796875,-1.0,-1.0,1.0,0.0,9.m4v,8.0
2024-02-28 10:54:45.643917,1709114085.6439168,-41.50390625,-62.01171875,-9.27734375,-46.875,-1.0,-1.0,1.0,0.0,9.m4v,8.0
2024-02-28 10:54:45.651728,1709114085.6517284,3.90625,-13.671875,-39.55078125,-12.20703125,-1.0,-1.0,1.0,0.0,9.m4v,8.0
2024-02-28 10:54:45.659540,1709114085.6595402,-21.484375,-14.6484375,-47.8515625,-6.8359375,-1.0,-1.0,1.0,0.0,9.m4v,8.0
2024-02-28 10:54:45.667352,1709114085.6673515,-27.34375,-29.296875,-31.73828125,-23.4375,-1.0,-1.0,1.0,0.0,9.m4v,8.0
2024-02-28 10:54:45.675164,1709114085.6751635,-1.46484375,-34.66796875,-59.5703125,-37.109375,-1.0,-1.0,1.0,0.0,9.m4v,8.0
2024-02-28 10:54:45.682977,1709114085.6829774,-25.390625,-43.9453125,-16.6015625,-38.0859375,-1.0,-1.0,1.0,0.0,9.m4v,8.0
2024-02-28 10:54:45.690789,1709114085.690789,13.18359375,-37.59765625,-31.25,26.85546875,-1.0,-1.0,1.0,0.0,9.m4v,8.0
2024-02-28 10:54:45.694695,1709114085.694695,-10.7421875,-29.296875,-40.0390625,-38.57421875,-1.0,-1.0,1.0,0.0,9.m4v,8.0
2024-02-28 10:54:45.698601,1709114085.6986008,-35.15625,-33.69140625,-64.453125,-25.87890625,-1.0,-1.0,1.0,0.0,9.m4v,8.0
2024-02-28 10:54:45.702507,1709114085.7025063,-26.85546875,-22.94921875,-72.75390625,-28.3203125,-1.0,-1.0,1.0,0.0,9.m4v,8.0
2024-02-28 10:54:45.706412,1709114085.7064123,-31.73828125,-17.08984375,-53.22265625,-11.23046875,-1.0,-1.0,1.0,0.0,9.m4v,8.0
2024-02-28 10:54:45.706412,1709114085.7064123,-31.73828125,-17.08984375,-53.22265625,-11.23046875,-1.0,-1.0,1.0,0.0,9.m4v,8.0
2024-02-28 10:54:45.710318,1709114085.7103183,-10.7421875,-24.4140625,-66.40625,31.73828125,-1.0,-1.0,1.0,0.0,9.m4v,8.0
2024-02-28 10:54:45.714224,1709114085.714224,-3.41796875,-41.50390625,-65.91796875,-20.99609375,-1.0,-1.0,1.0,0.0,9.m4v,8.0
2024-02-28 10:54:45.718130,1709114085.71813,0.0,-47.36328125,-38.0859375,-32.2265625,-1.0,-1.0,1.0,0.0,9.m4v,8.0
2024-02-28 10:54:45.722036,1709114085.7220356,-6.8359375,-51.26953125,-16.6015625,-70.80078125,-1.0,-1.0,1.0,0.0,9.m4v,8.0
2024-02-28 10:54:45.725941,1709114085.7259414,-26.3671875,-48.828125,8.7890625,-62.01171875,-1.0,-1.0,1.0,0.0,9.m4v,8.0
2024-02-28 10:54:45.729850,1709114085.7298496,-18.5546875,-43.45703125,11.71875,-48.828125,-1.0,-1.0,1.0,0.0,9.m4v,8.0
2024-02-28 10:54:45.729850,1709114085.7298496,-18.5546875,-43.45703125,11.71875,-48.828125,-1.0,-1.0,1.0,0.0,9.m4v,8.0
2024-02-28 10:54:45.733755,1709114085.7337554,-7.8125,-33.69140625,-16.11328125,-52.24609375,-1.0,-1.0,1.0,0.0,9.m4v,8.0
2024-02-28 10:54:45.737661,1709114085.7376614,-18.06640625,-27.83203125,-43.9453125,21.484375,-1.0,-1.0,1.0,0.0,9.m4v,8.0
2024-02-28 10:54:45.741567,1709114085.7415671,-6.8359375,-39.0625,-34.66796875,13.18359375,-1.0,-1.0,1.0,0.0,9.m4v,8.0
2024-02-28 10:54:45.745473,1709114085.745473,-15.625,-37.109375,-47.8515625,7.8125,-1.0,-1.0,1.0,0.0,9.m4v,8.0
2024-02-28 10:54:45.749379,1709114085.7493787,-11.71875,-18.5546875,-90.33203125,31.73828125,-1.0,-1.0,1.0,0.0,9.m4v,8.0
2024-02-28 10:54:45.753284,1709114085.7532845,17.578125,-24.4140625,-44.43359375,-32.71484375,-1.0,-1.0,1.0,0.0,9.m4v,8.0
2024-02-28 10:54:45.753284,1709114085.7532845,17.578125,-24.4140625,-44.43359375,-32.71484375,-1.0,-1.0,1.0,0.0,9.m4v,8.0
2024-02-28 10:54:45.761096,1709114085.7610962,12.6953125,-54.6875,13.18359375,6.34765625,-1.0,-1.0,1.0,0.0,9.m4v,8.0
2024-02-28 10:54:45.768908,1709114085.7689078,13.18359375,-34.1796875,-67.3828125,-15.13671875,-1.0,-1.0,1.0,0.0,9.m4v,8.0
2024-02-28 10:54:45.776722,1709114085.7767217,-9.27734375,-27.83203125,-14.6484375,-28.80859375,-1.0,-1.0,1.0,0.0,9.m4v,8.0
2024-02-28 10:54:45.776722,1709114085.7767217,-9.27734375,-27.83203125,-14.6484375,-28.80859375,-1.0,-1.0,1.0,0.0,9.m4v,8.0
2024-02-28 10:54:45.784533,1709114085.7845333,11.71875,-31.73828125,-17.578125,-13.18359375,-1.0,-1.0,1.0,0.0,9.m4v,8.0
2024-02-28 10:54:45.788439,1709114085.7884393,-2.44140625,-35.64453125,-28.80859375,0.48828125,-1.0,-1.0,1.0,0.0,9.m4v,8.0
2024-02-28 10:54:45.792345,1709114085.792345,-16.11328125,-34.66796875,-40.52734375,-20.99609375,-1.0,-1.0,1.0,0.0,9.m4v,8.0
2024-02-28 10:54:45.796251,1709114085.7962508,-5.859375,-30.76171875,-64.94140625,-4.39453125,-1.0,-1.0,1.0,0.0,9.m4v,8.0
2024-02-28 10:54:45.800157,1709114085.8001566,-2.44140625,-23.92578125,-76.171875,43.9453125,-1.0,-1.0,1.0,0.0,9.m4v,8.0
2024-02-28 10:54:45.804062,1709114085.8040624,-4.39453125,-24.4140625,-57.12890625,11.71875,-1.0,-1.0,1.0,0.0,9.m4v,8.0
2024-02-28 10:54:45.807968,1709114085.8079684,-4.39453125,-33.69140625,-13.18359375,-46.875,-1.0,-1.0,1.0,0.0,9.m4v,8.0
2024-02-28 10:54:45.811874,1709114085.8118742,-18.5546875,-50.78125,3.41796875,-48.33984375,-1.0,-1.0,1.0,0.0,9.m4v,8.0
2024-02-28 10:54:45.815780,1709114085.81578,5.37109375,-53.22265625,-61.03515625,-6.34765625,-1.0,-1.0,1.0,0.0,9.m4v,8.0
2024-02-28 10:54:45.819686,1709114085.8196857,5.37109375,-33.69140625,-89.35546875,7.32421875,-1.0,-1.0,1.0,0.0,9.m4v,8.0
2024-02-28 10:54:45.823594,1709114085.823594,-23.4375,-20.01953125,-32.71484375,-26.85546875,-1.0,-1.0,1.0,0.0,9.m4v,8.0
2024-02-28 10:54:45.827500,1709114085.8274996,-27.34375,-25.87890625,13.671875,-60.05859375,-1.0,-1.0,1.0,0.0,9.m4v,8.0
2024-02-28 10:54:45.831405,1709114085.8314054,-39.55078125,-44.921875,-5.37109375,-76.171875,-1.0,-1.0,1.0,0.0,9.m4v,8.0
2024-02-28 10:54:45.835311,1709114085.8353112,-42.48046875,-49.8046875,-35.64453125,-65.91796875,-1.0,-1.0,1.0,0.0,9.m4v,8.0
2024-02-28 10:54:45.839217,1709114085.8392172,-43.9453125,-33.203125,-42.48046875,-41.50390625,-1.0,-1.0,1.0,0.0,9.m4v,8.0
2024-02-28 10:54:45.843123,1709114085.843123,-43.45703125,-26.85546875,-30.76171875,-41.50390625,-1.0,-1.0,1.0,0.0,9.m4v,8.0
2024-02-28 10:54:45.847029,1709114085.8470287,-39.0625,-46.38671875,-28.3203125,-59.08203125,-1.0,-1.0,1.0,0.0,9.m4v,8.0
2024-02-28 10:54:45.850935,1709114085.8509345,-48.33984375,-53.7109375,-41.015625,-29.78515625,-1.0,-1.0,1.0,0.0,9.m4v,8.0
2024-02-28 10:54:46.432935,1709114086.4329343,-21.97265625,-12.6953125,-46.38671875,64.453125,-1.0,-1.0,1.0,0.0,9.m4v,8.0
2024-02-28 10:54:46.511054,1709114086.5110536,-60.05859375,-32.71484375,-2.44140625,-54.19921875,-1.0,-1.0,1.0,0.0,9.m4v,8.0
2024-02-28 10:54:46.514959,1709114086.514959,-52.734375,-15.13671875,0.48828125,-77.1484375,-1.0,-1.0,1.0,0.0,9.m4v,8.0
2024-02-28 10:54:46.518865,1709114086.518865,-67.87109375,-22.94921875,8.7890625,-91.796875,-1.0,-1.0,1.0,0.0,9.m4v,8.0
2024-02-28 10:54:46.522771,1709114086.522771,-52.24609375,-16.6015625,-13.671875,-59.5703125,-1.0,-1.0,1.0,0.0,9.m4v,8.0
2024-02-28 10:54:46.526679,1709114086.526679,-32.2265625,-9.765625,-36.1328125,-21.484375,-1.0,-1.0,1.0,0.0,9.m4v,8.0
2024-02-28 10:54:46.530585,1709114086.5305848,-40.0390625,-24.4140625,-62.98828125,-21.484375,-1.0,-1.0,1.0,0.0,9.m4v,8.0
2024-02-28 10:54:46.534491,1709114086.5344906,-58.10546875,-36.1328125,-66.40625,-70.3125,-1.0,-1.0,1.0,0.0,9.m4v,8.0
2024-02-28 10:54:46.538396,1709114086.5383964,-79.58984375,-37.59765625,-29.296875,-51.7578125,-1.0,-1.0,1.0,0.0,9.m4v,8.0
2024-02-28 10:54:46.542302,1709114086.5423024,-34.66796875,-25.87890625,-46.38671875,-24.90234375,-1.0,-1.0,1.0,0.0,9.m4v,8.0
2024-02-28 10:54:46.546208,1709114086.546208,0.0,-41.015625,-83.49609375,-20.01953125,-1.0,-1.0,1.0,0.0,9.m4v,8.0
2024-02-28 10:54:46.550114,1709114086.550114,-50.29296875,-65.4296875,-42.96875,-37.59765625,-1.0,-1.0,1.0,0.0,9.m4v,8.0
2024-02-28 10:54:46.554020,1709114086.5540197,-73.73046875,-41.50390625,5.37109375,-51.7578125,-1.0,-1.0,1.0,0.0,9.m4v,8.0
2024-02-28 10:54:46.557926,1709114086.5579257,-68.84765625,-25.390625,3.90625,-82.03125,-1.0,-1.0,1.0,0.0,9.m4v,8.0
2024-02-28 10:54:46.561831,1709114086.5618317,-80.56640625,-35.15625,4.8828125,-96.19140625,-1.0,-1.0,1.0,0.0,9.m4v,8.0
2024-02-28 10:54:46.565737,1709114086.5657372,-83.984375,-16.6015625,-4.8828125,-28.3203125,-1.0,-1.0,1.0,0.0,9.m4v,8.0
2024-02-28 10:54:46.569643,1709114086.569643,-81.54296875,-10.25390625,-26.3671875,-43.9453125,-1.0,-1.0,1.0,0.0,9.m4v,8.0
2024-02-28 10:54:46.573551,1709114086.573551,-76.171875,-32.2265625,-52.734375,-72.265625,-1.0,-1.0,1.0,0.0,9.m4v,8.0
2024-02-28 10:54:46.577457,1709114086.5774567,-61.5234375,-48.33984375,-78.61328125,-67.87109375,-1.0,-1.0,1.0,0.0,9.m4v,8.0
2024-02-28 10:54:46.581362,1709114086.5813625,-42.96875,-51.7578125,-53.22265625,-56.640625,-1.0,-1.0,1.0,0.0,9.m4v,8.0
2024-02-28 10:54:46.585268,1709114086.5852685,-28.3203125,-45.41015625,-35.64453125,-27.83203125,-1.0,-1.0,1.0,0.0,9.m4v,8.0
2024-02-28 10:54:46.589174,1709114086.5891745,-64.94140625,-47.36328125,-30.76171875,-43.9453125,-1.0,-1.0,1.0,0.0,9.m4v,8.0
2024-02-28 10:54:46.593080,1709114086.59308,-93.75,-30.2734375,0.48828125,-50.78125,-1.0,-1.0,1.0,0.0,9.m4v,8.0
2024-02-28 10:54:46.596986,1709114086.5969858,-68.84765625,-12.6953125,-18.5546875,-26.85546875,-1.0,-1.0,1.0,0.0,9.m4v,8.0
2024-02-28 10:54:46.600892,1709114086.6008918,-68.359375,-34.66796875,-78.61328125,-33.69140625,-1.0,-1.0,1.0,0.0,9.m4v,8.0
2024-02-28 10:54:46.604798,1709114086.6047976,-77.1484375,-40.0390625,-91.796875,-89.35546875,-1.0,-1.0,1.0,0.0,9.m4v,8.0
2024-02-28 10:54:46.608703,1709114086.6087034,-97.16796875,-42.48046875,-42.48046875,-108.88671875,-1.0,-1.0,1.0,0.0,9.m4v,8.0
2024-02-28 10:54:46.620424,1709114086.620424,-105.46875,-29.78515625,-19.53125,-86.9140625,-1.0,-1.0,1.0,0.0,9.m4v,8.0
2024-02-28 10:54:46.624330,1709114086.6243298,-91.30859375,-28.80859375,-36.1328125,-62.98828125,-1.0,-1.0,1.0,0.0,9.m4v,8.0
2024-02-28 10:54:46.628236,1709114086.6282356,-70.80078125,-33.203125,-61.03515625,-50.29296875,-1.0,-1.0,1.0,0.0,9.m4v,8.0
2024-02-28 10:54:46.632142,1709114086.6321416,-105.46875,-41.50390625,-44.43359375,-46.875,-1.0,-1.0,1.0,0.0,9.m4v,8.0
2024-02-28 10:54:46.636047,1709114086.6360474,-131.34765625,-26.3671875,-18.5546875,-70.3125,-1.0,-1.0,1.0,0.0,9.m4v,8.0
2024-02-28 10:54:46.639953,1709114086.6399531,-108.88671875,-20.01953125,-53.7109375,-87.890625,-1.0,-1.0,1.0,0.0,9.m4v,8.0
2024-02-28 10:54:46.643859,1709114086.643859,-110.3515625,-32.2265625,-93.75,-77.63671875,-1.0,-1.0,1.0,0.0,9.m4v,8.0
2024-02-28 10:54:46.647765,1709114086.6477647,-99.12109375,-32.2265625,-76.171875,-111.81640625,-1.0,-1.0,1.0,0.0,9.m4v,8.0
2024-02-28 10:54:46.651671,1709114086.6516707,-99.12109375,-26.85546875,-1.953125,-139.16015625,-1.0,-1.0,1.0,0.0,9.m4v,8.0
2024-02-28 10:54:46.655576,1709114086.6555765,-106.4453125,-24.4140625,39.0625,-115.72265625,-1.0,-1.0,1.0,0.0,9.m4v,8.0
2024-02-28 10:54:46.659482,1709114086.6594822,-86.42578125,-17.578125,11.71875,-58.10546875,-1.0,-1.0,1.0,0.0,9.m4v,8.0
2024-02-28 10:54:46.663388,1709114086.663388,-54.6875,-21.97265625,-35.15625,-46.38671875,-1.0,-1.0,1.0,0.0,9.m4v,8.0
2024-02-28 10:54:46.667297,1709114086.6672966,-47.36328125,-34.66796875,-45.8984375,-85.9375,-1.0,-1.0,1.0,0.0,9.m4v,8.0
2024-02-28 10:54:46.671202,1709114086.6712024,-54.6875,-41.015625,-29.296875,-79.1015625,-1.0,-1.0,1.0,0.0,9.m4v,8.0
2024-02-28 10:54:46.675108,1709114086.6751082,-58.10546875,-47.36328125,-34.66796875,-59.5703125,-1.0,-1.0,1.0,0.0,9.m4v,8.0
2024-02-28 10:54:46.679014,1709114086.679014,-43.9453125,-40.52734375,-36.1328125,-40.52734375,-1.0,-1.0,1.0,0.0,9.m4v,8.0
2024-02-28 10:54:46.682920,1709114086.68292,-17.08984375,-31.73828125,-30.76171875,-2.9296875,-1.0,-1.0,1.0,0.0,9.m4v,8.0
2024-02-28 10:54:46.686826,1709114086.6868258,2.44140625,-23.4375,-49.31640625,-9.27734375,-1.0,-1.0,1.0,0.0,9.m4v,8.0
2024-02-28 10:54:46.690732,1709114086.6907315,-17.08984375,-18.5546875,-47.36328125,-6.8359375,-1.0,-1.0,1.0,0.0,9.m4v,8.0
2024-02-28 10:54:46.694637,1709114086.6946373,-30.76171875,-25.87890625,-20.01953125,5.859375,-1.0,-1.0,1.0,0.0,9.m4v,8.0
2024-02-28 10:54:46.698543,1709114086.698543,-5.37109375,-29.296875,-20.01953125,-24.90234375,-1.0,-1.0,1.0,0.0,9.m4v,8.0
2024-02-28 10:54:46.702449,1709114086.702449,3.90625,-22.94921875,-40.0390625,-31.25,-1.0,-1.0,1.0,0.0,9.m4v,8.0
2024-02-28 10:54:46.706355,1709114086.7063549,-20.99609375,-27.83203125,-41.015625,-31.25,-1.0,-1.0,1.0,0.0,9.m4v,8.0
2024-02-28 10:54:46.710261,1709114086.7102606,-11.71875,-38.0859375,-20.99609375,-32.2265625,-1.0,-1.0,1.0,0.0,9.m4v,8.0
2024-02-28 10:54:46.714169,1709114086.714169,-21.97265625,-34.66796875,-12.20703125,-34.66796875,-1.0,-1.0,1.0,0.0,9.m4v,8.0
2024-02-28 10:54:46.718075,1709114086.7180748,-34.1796875,-37.59765625,-12.20703125,-22.4609375,-1.0,-1.0,1.0,0.0,9.m4v,8.0
2024-02-28 10:54:46.721981,1709114086.7219808,3.90625,-44.43359375,-47.36328125,-1.953125,-1.0,-1.0,1.0,0.0,9.m4v,8.0
2024-02-28 10:54:46.725887,1709114086.7258866,26.85546875,-33.69140625,-77.1484375,29.78515625,-1.0,-1.0,1.0,0.0,9.m4v,8.0
2024-02-28 10:54:46.729792,1709114086.7297924,9.27734375,-22.94921875,-34.1796875,23.4375,-1.0,-1.0,1.0,0.0,9.m4v,8.0
2024-02-28 10:54:46.733698,1709114086.733698,-2.9296875,-40.52734375,-31.25,-49.31640625,-1.0,-1.0,1.0,0.0,9.m4v,8.0
2024-02-28 10:54:46.737604,1709114086.737604,-19.53125,-52.24609375,-25.87890625,-76.66015625,-1.0,-1.0,1.0,0.0,9.m4v,8.0
2024-02-28 10:54:46.741510,1709114086.74151,-69.3359375,-35.15625,-13.671875,-60.05859375,-1.0,-1.0,1.0,0.0,9.m4v,8.0
2024-02-28 10:54:46.745416,1709114086.7454157,-68.359375,-9.765625,-34.1796875,-79.1015625,-1.0,-1.0,1.0,0.0,9.m4v,8.0
2024-02-28 10:54:46.749321,1709114086.7493217,-39.55078125,0.0,-33.203125,-74.70703125,-1.0,-1.0,1.0,0.0,9.m4v,8.0
2024-02-28 10:54:46.753227,1709114086.7532272,-19.04296875,-4.39453125,-48.33984375,18.5546875,-1.0,-1.0,1.0,0.0,9.m4v,8.0
2024-02-28 10:54:46.757133,1709114086.7571332,-0.48828125,-25.390625,-55.6640625,62.98828125,-1.0,-1.0,1.0,0.0,9.m4v,8.0
2024-02-28 10:54:46.761041,1709114086.7610414,17.578125,-28.3203125,-50.29296875,30.2734375,-1.0,-1.0,1.0,0.0,9.m4v,8.0
2024-02-28 10:54:46.764947,1709114086.7649472,3.41796875,-40.0390625,-29.296875,-58.59375,-1.0,-1.0,1.0,0.0,9.m4v,8.0
2024-02-28 10:54:46.768853,1709114086.768853,-30.2734375,-63.96484375,17.578125,-87.890625,-1.0,-1.0,1.0,0.0,9.m4v,8.0
2024-02-28 10:54:46.772759,1709114086.772759,-52.24609375,-53.7109375,3.41796875,-47.8515625,-1.0,-1.0,1.0,0.0,9.m4v,8.0
2024-02-28 10:54:46.776665,1709114086.7766647,-48.828125,-34.66796875,-43.9453125,-37.109375,-1.0,-1.0,1.0,0.0,9.m4v,8.0
2024-02-28 10:54:46.780571,1709114086.7805705,-34.66796875,-16.11328125,-37.59765625,-56.640625,-1.0,-1.0,1.0,0.0,9.m4v,8.0
2024-02-28 10:54:46.784476,1709114086.7844765,-34.66796875,-23.4375,-32.71484375,-22.94921875,-1.0,-1.0,1.0,0.0,9.m4v,8.0
2024-02-28 10:54:46.788382,1709114086.788382,-23.4375,-35.15625,-39.0625,-24.90234375,-1.0,-1.0,1.0,0.0,9.m4v,8.0
2024-02-28 10:54:46.792288,1709114086.792288,-8.30078125,-24.4140625,-35.64453125,-31.73828125,-1.0,-1.0,1.0,0.0,9.m4v,8.0
2024-02-28 10:54:46.796194,1709114086.7961938,-40.52734375,-17.578125,-34.66796875,-17.578125,-1.0,-1.0,1.0,0.0,9.m4v,8.0
2024-02-28 10:54:46.800100,1709114086.8000996,-45.41015625,-25.390625,-32.2265625,-25.87890625,-1.0,-1.0,1.0,0.0,9.m4v,8.0
2024-02-28 10:54:46.804005,1709114086.8040054,2.44140625,-29.78515625,-29.296875,-5.37109375,-1.0,-1.0,1.0,0.0,9.m4v,8.0
2024-02-28 10:54:46.807914,1709114086.8079135,-7.32421875,-32.71484375,-32.2265625,4.8828125,-1.0,-1.0,1.0,0.0,9.m4v,8.0
2024-02-28 10:54:46.811820,1709114086.8118196,-16.6015625,-28.80859375,-30.2734375,4.39453125,-1.0,-1.0,1.0,0.0,9.m4v,8.0
2024-02-28 10:54:46.815725,1709114086.815725,4.8828125,-38.0859375,-40.52734375,-7.32421875,-1.0,-1.0,1.0,0.0,9.m4v,8.0
2024-02-28 10:54:46.819631,1709114086.819631,-1.46484375,-55.17578125,-52.734375,-12.6953125,-1.0,-1.0,1.0,0.0,9.m4v,8.0
2024-02-28 10:54:46.823537,1709114086.8235369,-27.83203125,-54.19921875,-58.59375,-12.6953125,-1.0,-1.0,1.0,0.0,9.m4v,8.0
2024-02-28 10:54:46.827443,1709114086.8274426,-18.06640625,-29.296875,-57.6171875,-39.0625,-1.0,-1.0,1.0,0.0,9.m4v,8.0
2024-02-28 10:54:46.831349,1709114086.831349,-3.90625,-3.41796875,-31.73828125,23.92578125,-1.0,-1.0,1.0,0.0,9.m4v,8.0
2024-02-28 10:54:46.835254,1709114086.8352544,-20.01953125,-19.53125,-8.30078125,63.96484375,-1.0,-1.0,1.0,0.0,9.m4v,8.0
2024-02-28 10:54:46.839160,1709114086.8391602,-28.80859375,-39.55078125,-24.4140625,-47.36328125,-1.0,-1.0,1.0,0.0,9.m4v,8.0
2024-02-28 10:54:46.843066,1709114086.843066,-43.45703125,-53.7109375,-27.83203125,-104.00390625,-1.0,-1.0,1.0,0.0,9.m4v,8.0
2024-02-28 10:54:46.846972,1709114086.846972,-52.734375,-54.19921875,-8.7890625,-90.8203125,-1.0,-1.0,1.0,0.0,9.m4v,8.0
2024-02-28 10:54:46.850878,1709114086.8508778,-51.7578125,-31.73828125,1.953125,-61.03515625,-1.0,-1.0,1.0,0.0,9.m4v,8.0
2024-02-28 10:54:46.854786,1709114086.854786,-38.0859375,-24.90234375,-30.2734375,-49.8046875,-1.0,-1.0,1.0,0.0,9.m4v,8.0
2024-02-28 10:54:46.858692,1709114086.8586917,-7.32421875,-29.78515625,-84.9609375,-24.90234375,-1.0,-1.0,1.0,0.0,9.m4v,8.0
2024-02-28 10:54:46.862597,1709114086.8625977,-5.37109375,-39.55078125,-54.6875,28.80859375,-1.0,-1.0,1.0,0.0,9.m4v,8.0
2024-02-28 10:54:46.866503,1709114086.8665032,-0.48828125,-50.78125,-5.37109375,16.6015625,-1.0,-1.0,1.0,0.0,9.m4v,8.0
2024-02-28 10:54:46.870409,1709114086.8704093,-12.20703125,-39.55078125,0.48828125,-46.38671875,-1.0,-1.0,1.0,0.0,9.m4v,8.0
2024-02-28 10:54:46.878221,1709114086.8782208,-48.33984375,-17.578125,-38.57421875,-58.10546875,-1.0,-1.0,1.0,0.0,9.m4v,8.0
2024-02-28 10:54:46.882127,1709114086.8821266,-31.73828125,-29.78515625,-65.91796875,-46.875,-1.0,-1.0,1.0,0.0,9.m4v,8.0
2024-02-28 10:54:46.886032,1709114086.8860323,-31.73828125,-30.2734375,-49.31640625,-16.6015625,-1.0,-1.0,1.0,0.0,9.m4v,8.0
2024-02-28 10:54:46.889938,1709114086.8899384,-32.71484375,-34.66796875,-36.62109375,-22.94921875,-1.0,-1.0,1.0,0.0,9.m4v,8.0
2024-02-28 10:54:46.893844,1709114086.893844,-16.6015625,-54.6875,-48.33984375,-31.25,-1.0,-1.0,1.0,0.0,9.m4v,8.0
2024-02-28 10:54:46.897750,1709114086.89775,-4.8828125,-62.5,-28.3203125,-6.8359375,-1.0,-1.0,1.0,0.0,9.m4v,8.0
2024-02-28 10:54:46.901658,1709114086.901658,-18.5546875,-47.8515625,-55.17578125,6.34765625,-1.0,-1.0,1.0,0.0,9.m4v,8.0
2024-02-28 10:54:46.905564,1709114086.9055638,-46.38671875,-29.296875,-66.89453125,-25.87890625,-1.0,-1.0,1.0,0.0,9.m4v,8.0
2024-02-28 10:54:46.909470,1709114086.9094696,-62.5,-27.83203125,-8.7890625,-73.73046875,-1.0,-1.0,1.0,0.0,9.m4v,8.0
2024-02-28 10:54:46.913375,1709114086.9133754,-44.43359375,-35.15625,-2.9296875,-43.45703125,-1.0,-1.0,1.0,0.0,9.m4v,8.0
2024-02-28 10:54:46.917281,1709114086.9172814,-38.57421875,-57.12890625,-22.4609375,-20.01953125,-1.0,-1.0,1.0,0.0,9.m4v,8.0
2024-02-28 10:54:46.921187,1709114086.9211872,-25.87890625,-47.8515625,-26.3671875,-39.0625,-1.0,-1.0,1.0,0.0,9.m4v,8.0
2024-02-28 10:54:46.925093,1709114086.925093,-21.97265625,-24.4140625,-39.55078125,-20.01953125,-1.0,-1.0,1.0,0.0,9.m4v,8.0
2024-02-28 10:54:46.928999,1709114086.9289987,-8.7890625,-13.18359375,-64.94140625,25.390625,-1.0,-1.0,1.0,0.0,9.m4v,8.0
2024-02-28 10:54:46.932905,1709114086.9329047,-9.765625,0.0,-88.8671875,-10.25390625,-1.0,-1.0,1.0,0.0,9.m4v,8.0
2024-02-28 10:54:46.936810,1709114086.9368105,-25.87890625,-12.20703125,-64.94140625,-40.0390625,-1.0,-1.0,1.0,0.0,9.m4v,8.0
2024-02-28 10:54:46.940716,1709114086.9407165,-35.15625,-33.203125,-1.953125,0.0,-1.0,-1.0,1.0,0.0,9.m4v,8.0
2024-02-28 10:54:46.944622,1709114086.944622,-38.57421875,-44.43359375,9.765625,-5.859375,-1.0,-1.0,1.0,0.0,9.m4v,8.0
2024-02-28 10:54:46.948530,1709114086.94853,-57.6171875,-49.31640625,-10.7421875,-60.05859375,-1.0,-1.0,1.0,0.0,9.m4v,8.0
2024-02-28 10:54:46.952436,1709114086.9524355,-70.80078125,-53.22265625,-4.8828125,-45.41015625,-1.0,-1.0,1.0,0.0,9.m4v,8.0
2024-02-28 10:54:46.956342,1709114086.9563415,-39.55078125,-48.33984375,-6.34765625,-27.83203125,-1.0,-1.0,1.0,0.0,9.m4v,8.0
2024-02-28 10:54:46.960248,1709114086.9602475,-6.34765625,-36.62109375,-34.1796875,-15.625,-1.0,-1.0,1.0,0.0,9.m4v,8.0
2024-02-28 10:54:46.964153,1709114086.9641533,3.90625,-28.80859375,-60.05859375,-15.13671875,-1.0,-1.0,1.0,0.0,9.m4v,8.0
2024-02-28 10:54:46.968059,1709114086.968059,-20.99609375,-22.4609375,-61.03515625,-3.90625,-1.0,-1.0,1.0,0.0,9.m4v,8.0
2024-02-28 10:54:46.971965,1709114086.9719648,-24.4140625,-38.0859375,-46.875,0.0,-1.0,-1.0,1.0,0.0,9.m4v,8.0
2024-02-28 10:54:46.975871,1709114086.9758708,-27.83203125,-45.41015625,-39.55078125,-5.859375,-1.0,-1.0,1.0,0.0,9.m4v,8.0
2024-02-28 10:54:46.979777,1709114086.9797766,-52.24609375,-34.66796875,-50.78125,-15.625,-1.0,-1.0,1.0,0.0,9.m4v,8.0
2024-02-28 10:54:46.983682,1709114086.9836824,-35.15625,-27.83203125,-54.19921875,-78.61328125,-1.0,-1.0,1.0,0.0,9.m4v,8.0
2024-02-28 10:54:46.987588,1709114086.9875882,-18.5546875,-33.69140625,-34.1796875,-73.73046875,-1.0,-1.0,1.0,0.0,9.m4v,8.0
2024-02-28 10:54:46.991494,1709114086.991494,-16.6015625,-39.55078125,-13.18359375,-16.6015625,-1.0,-1.0,1.0,0.0,9.m4v,8.0
2024-02-28 10:54:46.995403,1709114086.9954026,-32.2265625,-44.921875,-11.23046875,-46.875,-1.0,-1.0,1.0,0.0,9.m4v,8.0
2024-02-28 10:54:46.999308,1709114086.9993083,-44.43359375,-47.8515625,-21.484375,-61.03515625,-1.0,-1.0,1.0,0.0,9.m4v,8.0
2024-02-28 10:54:47.003214,1709114087.003214,-19.53125,-23.92578125,-20.01953125,-14.6484375,-1.0,-1.0,1.0,0.0,9.m4v,8.0
2024-02-28 10:54:47.007120,1709114087.00712,-21.97265625,-9.765625,-36.1328125,-19.04296875,-1.0,-1.0,1.0,0.0,9.m4v,8.0
2024-02-28 10:54:47.011026,1709114087.011026,-28.80859375,-29.78515625,-44.43359375,3.41796875,-1.0,-1.0,1.0,0.0,9.m4v,8.0
2024-02-28 10:54:47.014932,1709114087.0149317,-4.8828125,-29.78515625,-71.2890625,41.015625,-1.0,-1.0,1.0,0.0,9.m4v,8.0
2024-02-28 10:54:47.018837,1709114087.0188377,16.6015625,-21.484375,-86.9140625,19.53125,-1.0,-1.0,1.0,0.0,9.m4v,8.0
2024-02-28 10:54:47.022743,1709114087.0227437,-3.90625,-35.64453125,-11.23046875,-5.859375,-1.0,-1.0,1.0,0.0,9.m4v,8.0
2024-02-28 10:54:47.026649,1709114087.0266492,-14.6484375,-41.9921875,-8.7890625,-7.8125,-1.0,-1.0,1.0,0.0,9.m4v,8.0
2024-02-28 10:54:47.030555,1709114087.030555,16.11328125,-38.57421875,-55.17578125,-22.4609375,-1.0,-1.0,1.0,0.0,9.m4v,8.0
2024-02-28 10:54:47.034461,1709114087.0344608,6.8359375,-42.48046875,-23.4375,-36.62109375,-1.0,-1.0,1.0,0.0,9.m4v,8.0
2024-02-28 10:54:47.038367,1709114087.0383666,-27.34375,-49.31640625,-3.90625,-22.4609375,-1.0,-1.0,1.0,0.0,9.m4v,8.0
2024-02-28 10:54:47.042275,1709114087.0422752,-16.6015625,-39.55078125,-9.765625,-21.97265625,-1.0,-1.0,1.0,0.0,9.m4v,8.0
2024-02-28 10:54:47.046181,1709114087.046181,-16.11328125,-43.9453125,-14.16015625,-25.390625,-1.0,-1.0,1.0,0.0,9.m4v,8.0
2024-02-28 10:54:47.050087,1709114087.0500867,-13.18359375,-57.12890625,-37.109375,-11.23046875,-1.0,-1.0,1.0,0.0,9.m4v,8.0
2024-02-28 10:54:47.053993,1709114087.0539925,5.37109375,-52.734375,-52.24609375,3.41796875,-1.0,-1.0,1.0,0.0,9.m4v,8.0
2024-02-28 10:54:47.057899,1709114087.0578983,-10.25390625,-38.57421875,-39.55078125,0.0,-1.0,-1.0,1.0,0.0,9.m4v,8.0
2024-02-28 10:54:47.073522,1709114087.0735216,-1.46484375,-35.15625,-30.2734375,18.5546875,-1.0,-1.0,1.0,0.0,9.m4v,8.0
2024-02-28 10:54:47.077428,1709114087.0774276,-7.8125,-27.34375,-34.66796875,4.39453125,-1.0,-1.0,1.0,0.0,9.m4v,8.0
2024-02-28 10:54:47.081333,1709114087.0813334,-14.16015625,-34.1796875,-55.6640625,17.08984375,-1.0,-1.0,1.0,0.0,9.m4v,8.0
2024-02-28 10:54:47.085239,1709114087.0852392,0.48828125,-37.59765625,-40.52734375,-14.6484375,-1.0,-1.0,1.0,0.0,9.m4v,8.0
2024-02-28 10:54:47.089148,1709114087.0891476,-14.6484375,-38.57421875,1.953125,-43.45703125,-1.0,-1.0,1.0,0.0,9.m4v,8.0
2024-02-28 10:54:47.093053,1709114087.093053,-22.94921875,-36.1328125,-31.25,-15.625,-1.0,-1.0,1.0,0.0,9.m4v,8.0
2024-02-28 10:54:47.096959,1709114087.0969594,-4.39453125,-32.71484375,-60.05859375,-17.578125,-1.0,-1.0,1.0,0.0,9.m4v,8.0
2024-02-28 10:54:47.100865,1709114087.1008651,-9.765625,-31.73828125,-44.43359375,-19.53125,-1.0,-1.0,1.0,0.0,9.m4v,8.0
2024-02-28 10:54:47.104771,1709114087.104771,-8.30078125,-33.203125,-27.83203125,-28.3203125,-1.0,-1.0,1.0,0.0,9.m4v,8.0
2024-02-28 10:54:47.108677,1709114087.108677,-25.87890625,-42.48046875,-10.7421875,-20.01953125,-1.0,-1.0,1.0,0.0,9.m4v,8.0
2024-02-28 10:54:47.112582,1709114087.1125824,-41.015625,-38.57421875,-20.01953125,-15.625,-1.0,-1.0,1.0,0.0,9.m4v,8.0
2024-02-28 10:54:47.116488,1709114087.1164885,-46.875,-32.71484375,-31.25,-39.55078125,-1.0,-1.0,1.0,0.0,9.m4v,8.0
2024-02-28 10:54:47.120394,1709114087.1203942,-35.64453125,-26.85546875,-31.73828125,-44.43359375,-1.0,-1.0,1.0,0.0,9.m4v,8.0
2024-02-28 10:54:47.124300,1709114087.1243,-7.32421875,-30.2734375,-52.24609375,-21.484375,-1.0,-1.0,1.0,0.0,9.m4v,8.0
2024-02-28 10:54:47.128206,1709114087.1282058,-9.27734375,-35.64453125,-56.640625,2.9296875,-1.0,-1.0,1.0,0.0,9.m4v,8.0
2024-02-28 10:54:47.132112,1709114087.1321118,-29.296875,-21.484375,-29.78515625,-8.30078125,-1.0,-1.0,1.0,0.0,9.m4v,8.0
2024-02-28 10:54:47.136020,1709114087.13602,-29.296875,-35.15625,-43.45703125,14.16015625,-1.0,-1.0,1.0,0.0,9.m4v,8.0
2024-02-28 10:54:47.139926,1709114087.139926,-20.01953125,-44.43359375,-85.9375,-20.99609375,-1.0,-1.0,1.0,0.0,9.m4v,8.0
2024-02-28 10:54:47.143832,1709114087.1438315,-24.4140625,-24.4140625,-48.33984375,-44.921875,-1.0,-1.0,1.0,0.0,9.m4v,8.0
2024-02-28 10:54:47.147738,1709114087.1477375,-30.2734375,-20.01953125,0.48828125,-28.3203125,-1.0,-1.0,1.0,0.0,9.m4v,8.0
2024-02-28 10:54:47.151643,1709114087.1516433,-31.73828125,-22.4609375,-14.6484375,-67.3828125,-1.0,-1.0,1.0,0.0,9.m4v,8.0
2024-02-28 10:54:47.155549,1709114087.1555493,-50.29296875,-11.23046875,-34.66796875,-51.7578125,-1.0,-1.0,1.0,0.0,9.m4v,8.0
2024-02-28 10:54:47.159455,1709114087.159455,-71.2890625,-14.6484375,-23.4375,-26.85546875,-1.0,-1.0,1.0,0.0,9.m4v,8.0
2024-02-28 10:54:47.163361,1709114087.1633608,-54.6875,-39.55078125,-11.71875,-69.82421875,-1.0,-1.0,1.0,0.0,9.m4v,8.0
2024-02-28 10:54:47.167267,1709114087.1672666,-33.203125,-48.33984375,-33.69140625,-63.96484375,-1.0,-1.0,1.0,0.0,9.m4v,8.0
2024-02-28 10:54:47.479750,1709114087.4797497,-11.71875,-28.80859375,-54.6875,10.25390625,-1.0,-1.0,1.0,0.0,9.m4v,8.0
2024-02-28 10:54:47.483655,1709114087.4836557,-1.953125,-35.64453125,-56.15234375,-27.34375,-1.0,-1.0,1.0,0.0,9.m4v,8.0
2024-02-28 10:54:47.487561,1709114087.4875612,-35.15625,-35.64453125,-29.296875,-28.80859375,-1.0,-1.0,1.0,0.0,9.m4v,8.0
2024-02-28 10:54:47.491467,1709114087.4914672,-44.43359375,-24.4140625,-17.08984375,-9.765625,-1.0,-1.0,1.0,0.0,9.m4v,8.0
2024-02-28 10:54:47.495373,1709114087.495373,-39.0625,-23.92578125,-22.94921875,-50.78125,-1.0,-1.0,1.0,0.0,9.m4v,8.0
2024-02-28 10:54:47.499279,1709114087.4992788,-40.52734375,-18.06640625,-27.34375,-69.82421875,-1.0,-1.0,1.0,0.0,9.m4v,8.0
2024-02-28 10:54:47.503185,1709114087.5031846,-16.11328125,-16.11328125,-51.26953125,-2.44140625,-1.0,-1.0,1.0,0.0,9.m4v,8.0
2024-02-28 10:54:47.507090,1709114087.5070903,-17.08984375,-23.92578125,-45.8984375,13.671875,-1.0,-1.0,1.0,0.0,9.m4v,8.0
2024-02-28 10:54:47.510999,1709114087.5109987,-55.6640625,-41.50390625,-10.7421875,-41.50390625,-1.0,-1.0,1.0,0.0,9.m4v,8.0
2024-02-28 10:54:47.514904,1709114087.5149045,-54.6875,-57.12890625,-16.11328125,-87.890625,-1.0,-1.0,1.0,0.0,9.m4v,8.0
2024-02-28 10:54:47.518811,1709114087.5188105,-39.55078125,-52.734375,-33.69140625,-49.31640625,-1.0,-1.0,1.0,0.0,9.m4v,8.0
2024-02-28 10:54:47.522716,1709114087.5227163,-27.83203125,-46.38671875,-27.83203125,-7.32421875,-1.0,-1.0,1.0,0.0,9.m4v,8.0
2024-02-28 10:54:47.526622,1709114087.526622,-14.6484375,-32.2265625,-30.76171875,-9.27734375,-1.0,-1.0,1.0,0.0,9.m4v,8.0
2024-02-28 10:54:47.530528,1709114087.5305278,-22.94921875,-30.76171875,-24.4140625,-3.90625,-1.0,-1.0,1.0,0.0,9.m4v,8.0
2024-02-28 10:54:47.534434,1709114087.5344338,-44.43359375,-23.92578125,-7.32421875,-8.30078125,-1.0,-1.0,1.0,0.0,9.m4v,8.0
2024-02-28 10:54:47.538340,1709114087.5383396,-66.40625,-15.13671875,-12.6953125,-25.87890625,-1.0,-1.0,1.0,0.0,9.m4v,8.0
2024-02-28 10:54:47.542245,1709114087.5422454,-43.45703125,-22.4609375,-44.921875,-62.5,-1.0,-1.0,1.0,0.0,9.m4v,8.0
2024-02-28 10:54:47.546151,1709114087.5461512,-20.99609375,-23.4375,-54.19921875,-30.76171875,-1.0,-1.0,1.0,0.0,9.m4v,8.0
2024-02-28 10:54:47.550057,1709114087.550057,-26.3671875,-28.80859375,-59.5703125,-22.4609375,-1.0,-1.0,1.0,0.0,9.m4v,8.0
2024-02-28 10:54:47.553963,1709114087.553963,-18.06640625,-31.73828125,-62.98828125,14.16015625,-1.0,-1.0,1.0,0.0,9.m4v,8.0
2024-02-28 10:54:47.557871,1709114087.557871,-28.3203125,-20.01953125,-27.83203125,21.484375,-1.0,-1.0,1.0,0.0,9.m4v,8.0
2024-02-28 10:54:47.561777,1709114087.561777,-42.48046875,-39.0625,-14.6484375,-49.31640625,-1.0,-1.0,1.0,0.0,9.m4v,8.0
2024-02-28 10:54:47.565683,1709114087.565683,-32.2265625,-53.7109375,-11.71875,-47.8515625,-1.0,-1.0,1.0,0.0,9.m4v,8.0
2024-02-28 10:54:47.569589,1709114087.569589,-36.62109375,-42.48046875,0.48828125,-85.44921875,-1.0,-1.0,1.0,0.0,9.m4v,8.0
2024-02-28 10:54:47.573494,1709114087.5734944,-33.69140625,-41.015625,-7.8125,-58.59375,-1.0,-1.0,1.0,0.0,9.m4v,8.0
2024-02-28 10:54:47.577400,1709114087.5774002,-19.04296875,-20.99609375,-23.92578125,-31.73828125,-1.0,-1.0,1.0,0.0,9.m4v,8.0
2024-02-28 10:54:47.581306,1709114087.5813062,-43.45703125,-4.8828125,-41.9921875,-17.08984375,-1.0,-1.0,1.0,0.0,9.m4v,8.0
2024-02-28 10:54:47.585212,1709114087.585212,-40.52734375,-20.99609375,-51.26953125,3.90625,-1.0,-1.0,1.0,0.0,9.m4v,8.0
2024-02-28 10:54:47.589118,1709114087.5891178,-25.87890625,-21.97265625,-57.6171875,4.39453125,-1.0,-1.0,1.0,0.0,9.m4v,8.0
2024-02-28 10:54:47.593024,1709114087.5930235,-48.33984375,-22.94921875,-22.94921875,-12.6953125,-1.0,-1.0,1.0,0.0,9.m4v,8.0
2024-02-28 10:54:47.596930,1709114087.5969296,-42.48046875,-36.1328125,-3.90625,-62.98828125,-1.0,-1.0,1.0,0.0,9.m4v,8.0
2024-02-28 10:54:47.600835,1709114087.600835,-41.9921875,-34.66796875,-30.76171875,-69.82421875,-1.0,-1.0,1.0,0.0,9.m4v,8.0
2024-02-28 10:54:47.604743,1709114087.6047432,-41.015625,-45.41015625,-46.875,-38.0859375,-1.0,-1.0,1.0,0.0,9.m4v,8.0
2024-02-28 10:54:47.608649,1709114087.6086493,-26.85546875,-48.33984375,-53.7109375,-19.04296875,-1.0,-1.0,1.0,0.0,9.m4v,8.0
2024-02-28 10:54:47.612555,1709114087.612555,-37.109375,-41.50390625,-42.96875,-26.3671875,-1.0,-1.0,1.0,0.0,9.m4v,8.0
2024-02-28 10:54:47.616461,1709114087.6164608,-52.734375,-32.71484375,-34.66796875,-61.03515625,-1.0,-1.0,1.0,0.0,9.m4v,8.0
2024-02-28 10:54:47.620367,1709114087.6203666,-32.71484375,-34.66796875,-23.92578125,2.44140625,-1.0,-1.0,1.0,0.0,9.m4v,8.0
2024-02-28 10:54:47.624273,1709114087.6242726,-14.6484375,-34.66796875,-22.4609375,46.38671875,-1.0,-1.0,1.0,0.0,9.m4v,8.0
2024-02-28 10:54:47.628178,1709114087.6281784,-20.5078125,-23.92578125,-36.62109375,-45.8984375,-1.0,-1.0,1.0,0.0,9.m4v,8.0
2024-02-28 10:54:47.632084,1709114087.632084,-44.43359375,-40.0390625,-22.94921875,-99.12109375,-1.0,-1.0,1.0,0.0,9.m4v,8.0
2024-02-28 10:54:47.635990,1709114087.63599,-48.33984375,-54.19921875,-24.4140625,-73.73046875,-1.0,-1.0,1.0,0.0,9.m4v,8.0
2024-02-28 10:54:47.639896,1709114087.6398957,-29.78515625,-31.73828125,-26.85546875,-37.59765625,-1.0,-1.0,1.0,0.0,9.m4v,8.0
2024-02-28 10:54:47.643802,1709114087.6438017,-30.76171875,-22.4609375,-35.64453125,-5.859375,-1.0,-1.0,1.0,0.0,9.m4v,8.0
2024-02-28 10:54:47.647707,1709114087.6477077,-32.2265625,-28.3203125,-46.38671875,2.44140625,-1.0,-1.0,1.0,0.0,9.m4v,8.0
2024-02-28 10:54:47.651616,1709114087.6516156,-25.390625,-33.69140625,-28.80859375,-53.7109375,-1.0,-1.0,1.0,0.0,9.m4v,8.0
2024-02-28 10:54:47.655521,1709114087.6555214,-43.45703125,-45.8984375,-29.78515625,-55.17578125,-1.0,-1.0,1.0,0.0,9.m4v,8.0
2024-02-28 10:54:47.659427,1709114087.6594274,-41.50390625,-31.25,-25.87890625,-46.38671875,-1.0,-1.0,1.0,0.0,9.m4v,8.0
2024-02-28 10:54:47.663333,1709114087.6633332,-29.296875,-26.85546875,-16.11328125,-51.26953125,-1.0,-1.0,1.0,0.0,9.m4v,8.0
2024-02-28 10:54:47.667239,1709114087.667239,-35.15625,-38.57421875,-39.55078125,-35.64453125,-1.0,-1.0,1.0,0.0,9.m4v,8.0
2024-02-28 10:54:47.671145,1709114087.6711447,-14.16015625,-38.57421875,-54.19921875,-9.27734375,-1.0,-1.0,1.0,0.0,9.m4v,8.0
2024-02-28 10:54:47.675050,1709114087.6750505,-16.6015625,-37.109375,-56.640625,6.8359375,-1.0,-1.0,1.0,0.0,9.m4v,8.0
2024-02-28 10:54:47.678957,1709114087.6789565,-9.27734375,-38.0859375,-45.8984375,-7.32421875,-1.0,-1.0,1.0,0.0,9.m4v,8.0
2024-02-28 10:54:47.682862,1709114087.6828623,-14.6484375,-46.875,-18.06640625,-47.36328125,-1.0,-1.0,1.0,0.0,9.m4v,8.0
2024-02-28 10:54:47.839105,1709114087.8391054,-64.94140625,-25.390625,-48.33984375,-50.29296875,-1.0,-1.0,1.0,0.0,9.m4v,8.0
2024-02-28 10:54:47.843011,1709114087.8430111,-75.68359375,-24.4140625,-53.7109375,-62.5,-1.0,-1.0,1.0,0.0,9.m4v,8.0
2024-02-28 10:54:47.846917,1709114087.846917,-77.63671875,-47.8515625,-21.484375,-73.73046875,-1.0,-1.0,1.0,0.0,9.m4v,8.0
2024-02-28 10:54:47.850823,1709114087.850823,-62.5,-44.921875,-17.08984375,-35.64453125,-1.0,-1.0,1.0,0.0,9.m4v,8.0
2024-02-28 10:54:47.854729,1709114087.8547287,-60.546875,-29.296875,-47.36328125,-7.32421875,-1.0,-1.0,1.0,0.0,9.m4v,8.0
2024-02-28 10:54:47.858634,1709114087.8586345,-46.38671875,-34.66796875,-53.22265625,-16.6015625,-1.0,-1.0,1.0,0.0,9.m4v,8.0
2024-02-28 10:54:47.862540,1709114087.8625402,-28.80859375,-43.45703125,-37.59765625,-55.17578125,-1.0,-1.0,1.0,0.0,9.m4v,8.0
2024-02-28 10:54:47.866446,1709114087.8664465,-65.4296875,-50.29296875,-3.90625,-81.0546875,-1.0,-1.0,1.0,0.0,9.m4v,8.0
2024-02-28 10:54:47.870352,1709114087.870352,-72.265625,-43.9453125,-3.41796875,-65.91796875,-1.0,-1.0,1.0,0.0,9.m4v,8.0
2024-02-28 10:54:47.874258,1709114087.8742578,-58.10546875,-29.78515625,-34.1796875,-49.8046875,-1.0,-1.0,1.0,0.0,9.m4v,8.0
2024-02-28 10:54:47.878164,1709114087.8781636,-86.42578125,-20.01953125,-40.52734375,-70.80078125,-1.0,-1.0,1.0,0.0,9.m4v,8.0
2024-02-28 10:54:47.882069,1709114087.882069,-104.00390625,-29.78515625,-30.76171875,-96.19140625,-1.0,-1.0,1.0,0.0,9.m4v,8.0
2024-02-28 10:54:47.885978,1709114087.8859775,-85.44921875,-26.85546875,-32.2265625,-73.2421875,-1.0,-1.0,1.0,0.0,9.m4v,8.0
2024-02-28 10:54:47.889884,1709114087.8898835,-86.42578125,-28.3203125,-29.296875,-58.59375,-1.0,-1.0,1.0,0.0,9.m4v,8.0
2024-02-28 10:54:47.893789,1709114087.8937893,-62.01171875,-35.15625,-3.90625,-77.1484375,-1.0,-1.0,1.0,0.0,9.m4v,8.0
2024-02-28 10:54:47.897695,1709114087.8976953,-45.8984375,-42.96875,-3.90625,-47.8515625,-1.0,-1.0,1.0,0.0,9.m4v,8.0
2024-02-28 10:54:47.901601,1709114087.901601,-61.5234375,-62.98828125,-64.94140625,-26.85546875,-1.0,-1.0,1.0,0.0,9.m4v,8.0
2024-02-28 10:54:47.905507,1709114087.9055068,-71.2890625,-65.4296875,-89.35546875,-47.8515625,-1.0,-1.0,1.0,0.0,9.m4v,8.0
2024-02-28 10:54:47.913319,1709114087.9133186,-67.3828125,-7.32421875,-27.83203125,-56.15234375,-1.0,-1.0,1.0,0.0,9.m4v,8.0
2024-02-28 10:54:47.917224,1709114087.9172244,-94.7265625,-16.6015625,8.7890625,-75.68359375,-1.0,-1.0,1.0,0.0,9.m4v,8.0
2024-02-28 10:54:47.921130,1709114087.9211302,-93.75,-23.92578125,-7.8125,-80.56640625,-1.0,-1.0,1.0,0.0,9.m4v,8.0
2024-02-28 10:54:47.925036,1709114087.925036,-94.23828125,-20.5078125,-38.0859375,-79.1015625,-1.0,-1.0,1.0,0.0,9.m4v,8.0
2024-02-28 10:54:47.928942,1709114087.9289415,-88.8671875,-10.25390625,-35.15625,-78.125,-1.0,-1.0,1.0,0.0,9.m4v,8.0
2024-02-28 10:54:47.932850,1709114087.93285,-78.61328125,-24.90234375,-34.66796875,-81.0546875,-1.0,-1.0,1.0,0.0,9.m4v,8.0
2024-02-28 10:54:47.936756,1709114087.936756,-70.3125,-38.0859375,-39.55078125,-45.41015625,-1.0,-1.0,1.0,0.0,9.m4v,8.0
2024-02-28 10:54:47.940662,1709114087.9406617,-65.4296875,-59.08203125,-42.48046875,-47.8515625,-1.0,-1.0,1.0,0.0,9.m4v,8.0
2024-02-28 10:54:47.944567,1709114087.9445674,-55.17578125,-85.9375,-48.33984375,-80.078125,-1.0,-1.0,1.0,0.0,9.m4v,8.0
2024-02-28 10:54:47.948473,1709114087.9484737,-51.7578125,-71.77734375,-52.24609375,-81.0546875,-1.0,-1.0,1.0,0.0,9.m4v,8.0
2024-02-28 10:54:47.952379,1709114087.9523792,-61.5234375,-28.80859375,-69.3359375,-42.96875,-1.0,-1.0,1.0,0.0,9.m4v,8.0
2024-02-28 10:54:47.956285,1709114087.956285,-41.9921875,-11.71875,-59.08203125,-14.6484375,-1.0,-1.0,1.0,0.0,9.m4v,8.0
2024-02-28 10:54:47.960191,1709114087.9601908,-27.34375,-4.8828125,-28.3203125,-18.06640625,-1.0,-1.0,1.0,0.0,9.m4v,8.0
2024-02-28 10:54:47.964097,1709114087.9640963,-7.8125,-1.46484375,-32.2265625,-41.015625,-1.0,-1.0,1.0,0.0,9.m4v,8.0
2024-02-28 10:54:47.968003,1709114087.9680026,-24.4140625,-26.85546875,-30.2734375,-64.453125,-1.0,-1.0,1.0,0.0,9.m4v,8.0
2024-02-28 10:54:47.971908,1709114087.9719083,-51.26953125,-33.69140625,-28.80859375,-39.0625,-1.0,-1.0,1.0,0.0,9.m4v,8.0
2024-02-28 10:54:47.979722,1709114087.9797225,-22.4609375,-42.48046875,-31.73828125,-5.859375,-1.0,-1.0,1.0,0.0,9.m4v,8.0
2024-02-28 10:54:47.983628,1709114087.983628,-55.6640625,-66.40625,-26.85546875,-29.296875,-1.0,-1.0,1.0,0.0,9.m4v,8.0
2024-02-28 10:54:47.995346,1709114087.9953456,-33.203125,-41.015625,-34.1796875,-72.265625,-1.0,-1.0,1.0,0.0,9.m4v,8.0
2024-02-28 10:54:48.003157,1709114088.0031574,-45.8984375,-27.34375,-32.2265625,-42.48046875,-1.0,-1.0,1.0,0.0,9.m4v,8.0
2024-02-28 10:54:48.007063,1709114088.0070632,-24.90234375,-30.2734375,-25.87890625,-32.2265625,-1.0,-1.0,1.0,0.0,9.m4v,8.0
2024-02-28 10:54:48.010969,1709114088.010969,-27.34375,-24.90234375,-34.1796875,-1.46484375,-1.0,-1.0,1.0,0.0,9.m4v,8.0
2024-02-28 10:54:48.014875,1709114088.0148747,-30.76171875,-16.11328125,-67.87109375,9.27734375,-1.0,-1.0,1.0,0.0,9.m4v,8.0
2024-02-28 10:54:48.018780,1709114088.0187805,-40.52734375,-23.4375,-22.94921875,-39.55078125,-1.0,-1.0,1.0,0.0,9.m4v,8.0
2024-02-28 10:54:48.022686,1709114088.0226865,-31.25,-34.1796875,-5.37109375,-51.7578125,-1.0,-1.0,1.0,0.0,9.m4v,8.0
2024-02-28 10:54:48.026594,1709114088.0265944,-35.64453125,-53.22265625,-60.05859375,-44.921875,-1.0,-1.0,1.0,0.0,9.m4v,8.0
2024-02-28 10:54:48.030500,1709114088.0305002,-50.29296875,-64.94140625,-49.8046875,-51.26953125,-1.0,-1.0,1.0,0.0,9.m4v,8.0
2024-02-28 10:54:48.034406,1709114088.034406,-59.5703125,-51.7578125,-9.27734375,-49.8046875,-1.0,-1.0,1.0,0.0,9.m4v,8.0
2024-02-28 10:54:48.038312,1709114088.038312,-30.76171875,-54.6875,-22.94921875,-41.9921875,-1.0,-1.0,1.0,0.0,9.m4v,8.0
2024-02-28 10:54:48.042218,1709114088.0422175,4.8828125,-48.33984375,-69.82421875,-4.8828125,-1.0,-1.0,1.0,0.0,9.m4v,8.0
2024-02-28 10:54:48.046124,1709114088.0461235,-16.6015625,-24.90234375,-59.5703125,-5.37109375,-1.0,-1.0,1.0,0.0,9.m4v,8.0
2024-02-28 10:54:48.050029,1709114088.0500293,-39.55078125,-19.53125,-10.25390625,-37.59765625,-1.0,-1.0,1.0,0.0,9.m4v,8.0
2024-02-28 10:54:48.053935,1709114088.0539353,-34.1796875,-26.3671875,3.41796875,-64.94140625,-1.0,-1.0,1.0,0.0,9.m4v,8.0
2024-02-28 10:54:48.057841,1709114088.057841,-21.97265625,-12.20703125,-25.390625,-36.1328125,-1.0,-1.0,1.0,0.0,9.m4v,8.0
2024-02-28 10:54:48.061747,1709114088.0617468,-18.06640625,-9.765625,-41.9921875,-34.1796875,-1.0,-1.0,1.0,0.0,9.m4v,8.0
2024-02-28 10:54:48.065653,1709114088.0656526,-35.15625,-42.96875,-51.7578125,-25.87890625,-1.0,-1.0,1.0,0.0,9.m4v,8.0
2024-02-28 10:54:48.069558,1709114088.0695584,-47.36328125,-62.5,-48.828125,-39.55078125,-1.0,-1.0,1.0,0.0,9.m4v,8.0
2024-02-28 10:54:48.073466,1709114088.0734663,-48.33984375,-47.8515625,-40.52734375,-58.10546875,-1.0,-1.0,1.0,0.0,9.m4v,8.0
2024-02-28 10:54:48.077372,1709114088.077372,-28.80859375,-40.0390625,-44.921875,-37.59765625,-1.0,-1.0,1.0,0.0,9.m4v,8.0
2024-02-28 10:54:48.081278,1709114088.081278,-22.4609375,-44.43359375,-39.55078125,-21.484375,-1.0,-1.0,1.0,0.0,9.m4v,8.0
2024-02-28 10:54:48.085184,1709114088.085184,-17.578125,-43.45703125,-52.734375,-4.39453125,-1.0,-1.0,1.0,0.0,9.m4v,8.0
2024-02-28 10:54:48.089090,1709114088.0890896,-9.765625,-36.62109375,-57.12890625,-26.3671875,-1.0,-1.0,1.0,0.0,9.m4v,8.0
2024-02-28 10:54:48.092995,1709114088.0929954,-24.90234375,-27.34375,-29.296875,-41.015625,-1.0,-1.0,1.0,0.0,9.m4v,8.0
2024-02-28 10:54:48.096901,1709114088.0969014,-40.0390625,-35.64453125,-5.37109375,-22.94921875,-1.0,-1.0,1.0,0.0,9.m4v,8.0
2024-02-28 10:54:48.100807,1709114088.1008072,-57.6171875,-48.33984375,-11.23046875,-42.48046875,-1.0,-1.0,1.0,0.0,9.m4v,8.0
2024-02-28 10:54:48.104713,1709114088.104713,1.953125,-40.0390625,-48.33984375,-7.8125,-1.0,-1.0,1.0,0.0,9.m4v,8.0
2024-02-28 10:54:48.108619,1709114088.1086187,44.921875,-31.73828125,-68.84765625,41.015625,-1.0,-1.0,1.0,0.0,9.m4v,8.0
2024-02-28 10:54:48.112525,1709114088.1125245,-18.06640625,-44.921875,-44.921875,-19.53125,-1.0,-1.0,1.0,0.0,9.m4v,8.0
2024-02-28 10:54:48.116431,1709114088.1164303,-63.96484375,-43.45703125,-12.6953125,-82.03125,-1.0,-1.0,1.0,0.0,9.m4v,8.0
2024-02-28 10:54:48.120339,1709114088.120339,-60.05859375,-27.83203125,3.90625,-86.42578125,-1.0,-1.0,1.0,0.0,9.m4v,8.0
2024-02-28 10:54:48.124245,1709114088.124245,-41.9921875,-22.94921875,-19.04296875,-68.359375,-1.0,-1.0,1.0,0.0,9.m4v,8.0
2024-02-28 10:54:48.128151,1709114088.1281507,-32.2265625,-25.390625,-29.78515625,-11.23046875,-1.0,-1.0,1.0,0.0,9.m4v,8.0
2024-02-28 10:54:48.132056,1709114088.1320565,-25.87890625,-22.94921875,-31.73828125,6.34765625,-1.0,-1.0,1.0,0.0,9.m4v,8.0
2024-02-28 10:54:48.135962,1709114088.1359622,-22.4609375,-21.97265625,-61.03515625,-10.7421875,-1.0,-1.0,1.0,0.0,9.m4v,8.0
2024-02-28 10:54:48.139868,1709114088.1398685,-8.30078125,-14.16015625,-78.61328125,-11.23046875,-1.0,-1.0,1.0,0.0,9.m4v,8.0
2024-02-28 10:54:48.143774,1709114088.143774,-20.99609375,-16.6015625,-34.66796875,-69.82421875,-1.0,-1.0,1.0,0.0,9.m4v,8.0
2024-02-28 10:54:48.147680,1709114088.1476798,-55.17578125,-43.45703125,20.99609375,-74.70703125,-1.0,-1.0,1.0,0.0,9.m4v,8.0
2024-02-28 10:54:48.151586,1709114088.1515856,-38.57421875,-64.94140625,30.2734375,-65.91796875,-1.0,-1.0,1.0,0.0,9.m4v,8.0
2024-02-28 10:54:48.155491,1709114088.1554914,-18.5546875,-67.3828125,-18.06640625,-38.0859375,-1.0,-1.0,1.0,0.0,9.m4v,8.0
2024-02-28 10:54:48.159397,1709114088.1593974,-10.25390625,-56.15234375,-88.37890625,28.80859375,-1.0,-1.0,1.0,0.0,9.m4v,8.0
2024-02-28 10:54:48.163303,1709114088.1633031,-18.5546875,-36.1328125,-93.75,4.8828125,-1.0,-1.0,1.0,0.0,9.m4v,8.0
2024-02-28 10:54:48.206270,1709114088.20627,-39.55078125,-29.296875,-11.23046875,-40.52734375,-1.0,-1.0,1.0,0.0,9.m4v,8.0
2024-02-28 10:54:48.221896,1709114088.2218957,0.9765625,-25.390625,-34.1796875,-25.87890625,-1.0,-1.0,1.0,0.0,9.m4v,8.0
2024-02-28 10:54:48.237519,1709114088.237519,4.39453125,-70.80078125,14.16015625,-43.45703125,-1.0,-1.0,1.0,0.0,9.m4v,8.0
2024-02-28 10:54:48.253142,1709114088.2531424,-20.5078125,-20.01953125,-32.2265625,-8.30078125,-1.0,-1.0,1.0,0.0,9.m4v,8.0
2024-02-28 10:54:48.268768,1709114088.268768,-4.8828125,-24.90234375,-38.57421875,-2.9296875,-1.0,-1.0,1.0,0.0,9.m4v,8.0
2024-02-28 10:54:48.284391,1709114088.2843914,-18.06640625,-14.16015625,-55.17578125,8.7890625,-1.0,-1.0,1.0,0.0,9.m4v,8.0
2024-02-28 10:54:48.315640,1709114088.3156404,-61.5234375,-43.45703125,-3.90625,-44.43359375,-1.0,-1.0,1.0,0.0,9.m4v,8.0
2024-02-28 10:54:48.331264,1709114088.3312635,-65.91796875,-35.15625,-81.54296875,-59.5703125,-1.0,-1.0,1.0,0.0,9.m4v,8.0
2024-02-28 10:54:48.346887,1709114088.3468869,-76.171875,-50.29296875,-47.8515625,-61.03515625,-1.0,-1.0,1.0,0.0,9.m4v,8.0
2024-02-28 10:54:48.358607,1709114088.3586068,-59.08203125,-20.99609375,-32.2265625,-72.265625,-1.0,-1.0,1.0,0.0,9.m4v,8.0
2024-02-28 10:54:48.370324,1709114088.370324,-63.4765625,-34.1796875,-34.1796875,-52.734375,-1.0,-1.0,1.0,0.0,9.m4v,8.0
2024-02-28 10:54:48.374230,1709114088.37423,-55.6640625,-23.92578125,-35.15625,-74.70703125,-1.0,-1.0,1.0,0.0,9.m4v,8.0
2024-02-28 10:54:48.378136,1709114088.378136,-47.36328125,-35.64453125,-29.296875,-71.77734375,-1.0,-1.0,1.0,0.0,9.m4v,8.0
2024-02-28 10:54:48.385947,1709114088.3859477,-33.69140625,-34.1796875,-35.15625,-15.13671875,-1.0,-1.0,1.0,0.0,9.m4v,8.0
2024-02-28 10:54:48.389853,1709114088.3898532,-47.8515625,-41.9921875,-40.0390625,-23.92578125,-1.0,-1.0,1.0,0.0,9.m4v,8.0
2024-02-28 10:54:48.393759,1709114088.3937593,-62.01171875,-27.34375,-62.5,-54.19921875,-1.0,-1.0,1.0,0.0,9.m4v,8.0
2024-02-28 10:54:48.401573,1709114088.4015732,-69.3359375,-3.41796875,-10.7421875,-91.30859375,-1.0,-1.0,1.0,0.0,9.m4v,8.0
2024-02-28 10:54:48.409385,1709114088.4093847,-74.70703125,-35.15625,2.44140625,-69.82421875,-1.0,-1.0,1.0,0.0,9.m4v,8.0
2024-02-28 10:54:48.417196,1709114088.4171965,-71.77734375,-41.015625,-52.24609375,-46.38671875,-1.0,-1.0,1.0,0.0,9.m4v,8.0
2024-02-28 10:54:48.425008,1709114088.425008,-26.3671875,-18.06640625,-86.9140625,-23.4375,-1.0,-1.0,1.0,0.0,9.m4v,8.0
2024-02-28 10:54:48.432820,1709114088.4328196,-72.75390625,-20.5078125,-40.0390625,-54.6875,-1.0,-1.0,1.0,0.0,9.m4v,8.0
2024-02-28 10:54:48.440631,1709114088.4406314,-63.4765625,-45.8984375,-18.5546875,-65.91796875,-1.0,-1.0,1.0,0.0,9.m4v,8.0
2024-02-28 10:54:48.448445,1709114088.448445,-50.29296875,-20.99609375,-34.66796875,-29.78515625,-1.0,-1.0,1.0,0.0,9.m4v,8.0
2024-02-28 10:54:48.456257,1709114088.4562566,-39.55078125,-25.390625,-36.62109375,-63.4765625,-1.0,-1.0,1.0,0.0,9.m4v,8.0
2024-02-28 10:54:48.464068,1709114088.4640684,-28.80859375,-48.33984375,-22.94921875,-37.109375,-1.0,-1.0,1.0,0.0,9.m4v,8.0
2024-02-28 10:54:48.471880,1709114088.47188,-57.12890625,-19.53125,-31.25,-57.12890625,-1.0,-1.0,1.0,0.0,9.m4v,8.0
2024-02-28 10:54:48.479692,1709114088.4796915,-17.578125,-35.64453125,-78.125,12.6953125,-1.0,-1.0,1.0,0.0,9.m4v,8.0
2024-02-28 10:54:48.487503,1709114088.4875033,-41.9921875,-27.83203125,6.34765625,-45.8984375,-1.0,-1.0,1.0,0.0,9.m4v,8.0
2024-02-28 10:54:48.495318,1709114088.4953177,-22.94921875,-21.484375,-12.6953125,-30.2734375,-1.0,-1.0,1.0,0.0,9.m4v,8.0
2024-02-28 10:54:48.510941,1709114088.510941,-60.546875,-48.33984375,-3.41796875,-76.66015625,-1.0,-1.0,1.0,0.0,9.m4v,8.0
2024-02-28 10:54:48.526564,1709114088.5265644,-50.29296875,-53.7109375,-49.31640625,-47.36328125,-1.0,-1.0,1.0,0.0,9.m4v,8.0
2024-02-28 10:54:48.542190,1709114088.54219,-39.0625,-20.99609375,-8.30078125,-76.66015625,-1.0,-1.0,1.0,0.0,9.m4v,8.0
2024-02-28 10:54:48.550002,1709114088.550002,-70.80078125,-54.19921875,-43.45703125,-79.1015625,-1.0,-1.0,1.0,0.0,9.m4v,8.0
2024-02-28 10:54:48.721866,1709114088.7218657,-14.16015625,-18.5546875,-45.8984375,-12.20703125,-1.0,-1.0,1.0,0.0,9.m4v,8.0
2024-02-28 10:54:48.725771,1709114088.7257714,-24.90234375,-11.23046875,-36.1328125,-27.34375,-1.0,-1.0,1.0,0.0,9.m4v,8.0
2024-02-28 10:54:48.729680,1709114088.7296796,-20.5078125,-15.13671875,-28.3203125,-57.12890625,-1.0,-1.0,1.0,0.0,9.m4v,8.0
2024-02-28 10:54:48.733585,1709114088.7335854,-13.671875,-39.55078125,-36.62109375,-49.8046875,-1.0,-1.0,1.0,0.0,9.m4v,8.0
2024-02-28 10:54:48.737491,1709114088.7374911,-36.62109375,-54.19921875,-20.99609375,-64.453125,-1.0,-1.0,1.0,0.0,9.m4v,8.0
2024-02-28 10:54:48.741397,1709114088.7413971,-40.0390625,-48.33984375,-15.625,-59.08203125,-1.0,-1.0,1.0,0.0,9.m4v,8.0
2024-02-28 10:54:48.745303,1709114088.745303,-31.73828125,-30.76171875,-29.78515625,-24.4140625,-1.0,-1.0,1.0,0.0,9.m4v,8.0
2024-02-28 10:54:48.749209,1709114088.7492087,-24.90234375,-15.13671875,-22.94921875,13.18359375,-1.0,-1.0,1.0,0.0,9.m4v,8.0
2024-02-28 10:54:48.753114,1709114088.7531145,-9.27734375,-26.3671875,-23.92578125,-13.671875,-1.0,-1.0,1.0,0.0,9.m4v,8.0
2024-02-28 10:54:48.757020,1709114088.7570205,-14.6484375,-42.48046875,-41.9921875,-26.3671875,-1.0,-1.0,1.0,0.0,9.m4v,8.0
2024-02-28 10:54:48.760926,1709114088.7609262,-21.97265625,-32.71484375,-46.875,-33.69140625,-1.0,-1.0,1.0,0.0,9.m4v,8.0
2024-02-28 10:54:48.764832,1709114088.764832,-33.203125,-17.578125,-38.57421875,-66.89453125,-1.0,-1.0,1.0,0.0,9.m4v,8.0
2024-02-28 10:54:48.776552,1709114088.7765524,-47.8515625,-53.22265625,-0.9765625,-37.59765625,-1.0,-1.0,1.0,0.0,9.m4v,8.0
