Timestamp,Timestamp_UNIX,TP9,AF7,AF8,TP10,Valence,Arousal,Dominace,Viewed,Video,Participant
2024-02-27 11:31:07.003897,1709029867.003897,-55.17578125,-23.92578125,-17.08984375,-46.875,-1.0,1.0,0.0,0.0,4.m4v,3.0
2024-02-27 11:31:07.007843,1709029867.0078433,-33.203125,-24.90234375,-28.3203125,-55.6640625,-1.0,1.0,0.0,0.0,4.m4v,3.0
2024-02-27 11:31:07.011789,1709029867.011789,-38.0859375,-23.4375,-45.41015625,-69.82421875,-1.0,1.0,0.0,0.0,4.m4v,3.0
2024-02-27 11:31:07.015736,1709029867.0157356,-38.57421875,-29.296875,-58.10546875,-53.7109375,-1.0,1.0,0.0,0.0,4.m4v,3.0
2024-02-27 11:31:07.019682,1709029867.019682,-31.73828125,-13.18359375,-54.6875,-10.25390625,-1.0,1.0,0.0,0.0,4.m4v,3.0
2024-02-27 11:31:07.023628,1709029867.023628,-33.69140625,-15.625,-55.17578125,-37.109375,-1.0,1.0,0.0,0.0,4.m4v,3.0
2024-02-27 11:31:07.027574,1709029867.0275743,-30.76171875,-46.38671875,-42.48046875,-69.82421875,-1.0,1.0,0.0,0.0,4.m4v,3.0
2024-02-27 11:31:07.031521,1709029867.0315206,-50.29296875,-46.875,-27.83203125,-61.03515625,-1.0,1.0,0.0,0.0,4.m4v,3.0
2024-02-27 11:31:07.035467,1709029867.035467,-68.84765625,-46.38671875,-26.3671875,-60.546875,-1.0,1.0,0.0,0.0,4.m4v,3.0
2024-02-27 11:31:07.039413,1709029867.039413,-51.26953125,-54.6875,-30.2734375,-46.38671875,-1.0,1.0,0.0,0.0,4.m4v,3.0
2024-02-27 11:31:07.043359,1709029867.0433593,-40.0390625,-49.8046875,-37.59765625,-39.0625,-1.0,1.0,0.0,0.0,4.m4v,3.0
2024-02-27 11:31:07.043937,1709029867.043937,-40.0390625,-38.0859375,-57.6171875,-37.59765625,-1.0,1.0,0.0,0.0,4.m4v,3.0
2024-02-27 11:31:07.047880,1709029867.04788,-40.0390625,-19.53125,-76.171875,-13.671875,-1.0,1.0,0.0,0.0,4.m4v,3.0
2024-02-27 11:31:07.051823,1709029867.051823,-53.7109375,-20.01953125,-55.17578125,-18.06640625,-1.0,1.0,0.0,0.0,4.m4v,3.0
2024-02-27 11:31:07.055766,1709029867.055766,-57.6171875,-27.83203125,-41.015625,-44.921875,-1.0,1.0,0.0,0.0,4.m4v,3.0
2024-02-27 11:31:07.059709,1709029867.0597088,-49.31640625,-23.92578125,-35.64453125,-47.36328125,-1.0,1.0,0.0,0.0,4.m4v,3.0
2024-02-27 11:31:07.063652,1709029867.0636518,-47.36328125,-11.71875,-23.4375,-56.640625,-1.0,1.0,0.0,0.0,4.m4v,3.0
2024-02-27 11:31:07.067595,1709029867.0675948,-40.0390625,-13.18359375,-29.296875,-67.87109375,-1.0,1.0,0.0,0.0,4.m4v,3.0
2024-02-27 11:31:07.071538,1709029867.0715375,-28.80859375,-21.97265625,-35.15625,-74.21875,-1.0,1.0,0.0,0.0,4.m4v,3.0
2024-02-27 11:31:07.075481,1709029867.0754807,-30.76171875,-21.97265625,-32.71484375,-57.12890625,-1.0,1.0,0.0,0.0,4.m4v,3.0
2024-02-27 11:31:07.079424,1709029867.0794237,-23.92578125,-47.36328125,-40.52734375,-25.390625,-1.0,1.0,0.0,0.0,4.m4v,3.0
2024-02-27 11:31:07.083367,1709029867.0833666,-20.5078125,-61.5234375,-56.640625,-30.76171875,-1.0,1.0,0.0,0.0,4.m4v,3.0
2024-02-27 11:31:07.087310,1709029867.0873096,-35.64453125,-37.109375,-74.21875,-48.33984375,-1.0,1.0,0.0,0.0,4.m4v,3.0
2024-02-27 11:31:07.088032,1709029867.0880325,-38.0859375,-31.73828125,-73.73046875,-29.296875,-1.0,1.0,0.0,0.0,4.m4v,3.0
2024-02-27 11:31:07.091972,1709029867.0919724,-41.015625,-29.78515625,-52.24609375,-22.94921875,-1.0,1.0,0.0,0.0,4.m4v,3.0
2024-02-27 11:31:07.095912,1709029867.0959122,-62.98828125,-31.73828125,-29.296875,-53.22265625,-1.0,1.0,0.0,0.0,4.m4v,3.0
2024-02-27 11:31:07.099852,1709029867.099852,-65.91796875,-30.2734375,-20.5078125,-71.2890625,-1.0,1.0,0.0,0.0,4.m4v,3.0
2024-02-27 11:31:07.103792,1709029867.103792,-64.94140625,-23.4375,-16.6015625,-68.359375,-1.0,1.0,0.0,0.0,4.m4v,3.0
2024-02-27 11:31:07.107732,1709029867.1077318,-57.6171875,-20.5078125,-11.23046875,-56.640625,-1.0,1.0,0.0,0.0,4.m4v,3.0
2024-02-27 11:31:07.111672,1709029867.1116717,-50.29296875,-23.4375,-19.53125,-51.26953125,-1.0,1.0,0.0,0.0,4.m4v,3.0
2024-02-27 11:31:07.115612,1709029867.1156116,-45.41015625,-42.96875,-27.83203125,-45.41015625,-1.0,1.0,0.0,0.0,4.m4v,3.0
2024-02-27 11:31:07.119551,1709029867.1195514,-33.203125,-46.38671875,-30.2734375,-39.0625,-1.0,1.0,0.0,0.0,4.m4v,3.0
2024-02-27 11:31:07.123491,1709029867.1234913,-20.5078125,-35.15625,-33.69140625,-42.96875,-1.0,1.0,0.0,0.0,4.m4v,3.0
2024-02-27 11:31:07.127431,1709029867.1274312,-6.34765625,-42.48046875,-46.38671875,-44.921875,-1.0,1.0,0.0,0.0,4.m4v,3.0
2024-02-27 11:31:07.131371,1709029867.1313713,-19.53125,-45.41015625,-53.22265625,-35.15625,-1.0,1.0,0.0,0.0,4.m4v,3.0
2024-02-27 11:31:07.132078,1709029867.1320784,-31.25,-42.48046875,-57.12890625,-11.23046875,-1.0,1.0,0.0,0.0,4.m4v,3.0
2024-02-27 11:31:07.136015,1709029867.1360152,-21.97265625,-56.640625,-60.05859375,-18.06640625,-1.0,1.0,0.0,0.0,4.m4v,3.0
2024-02-27 11:31:07.139952,1709029867.139952,-4.39453125,-51.26953125,-55.6640625,-19.53125,-1.0,1.0,0.0,0.0,4.m4v,3.0
2024-02-27 11:31:07.143889,1709029867.143889,1.953125,-40.52734375,-49.8046875,-25.390625,-1.0,1.0,0.0,0.0,4.m4v,3.0
2024-02-27 11:31:07.147826,1709029867.1478257,-36.1328125,-31.25,-50.78125,-49.8046875,-1.0,1.0,0.0,0.0,4.m4v,3.0
2024-02-27 11:31:07.151762,1709029867.1517625,-59.5703125,-11.71875,-30.76171875,-43.45703125,-1.0,1.0,0.0,0.0,4.m4v,3.0
2024-02-27 11:31:07.155699,1709029867.1556993,-42.96875,-17.578125,-5.37109375,-36.1328125,-1.0,1.0,0.0,0.0,4.m4v,3.0
2024-02-27 11:31:07.159636,1709029867.1596365,-41.9921875,-36.62109375,-19.53125,-59.08203125,-1.0,1.0,0.0,0.0,4.m4v,3.0
2024-02-27 11:31:07.163573,1709029867.163573,-25.87890625,-50.78125,-48.33984375,-60.05859375,-1.0,1.0,0.0,0.0,4.m4v,3.0
2024-02-27 11:31:07.167510,1709029867.1675098,-23.4375,-43.45703125,-40.52734375,-36.1328125,-1.0,1.0,0.0,0.0,4.m4v,3.0
2024-02-27 11:31:07.171447,1709029867.1714466,-40.52734375,-23.4375,-17.08984375,-44.43359375,-1.0,1.0,0.0,0.0,4.m4v,3.0
2024-02-27 11:31:07.175384,1709029867.1753836,-41.015625,-30.2734375,-33.69140625,-35.64453125,-1.0,1.0,0.0,0.0,4.m4v,3.0
2024-02-27 11:31:07.176142,1709029867.1761422,-38.0859375,-47.8515625,-62.01171875,-30.76171875,-1.0,1.0,0.0,0.0,4.m4v,3.0
2024-02-27 11:31:07.180076,1709029867.180076,-25.87890625,-68.359375,-50.78125,-38.0859375,-1.0,1.0,0.0,0.0,4.m4v,3.0
2024-02-27 11:31:07.184010,1709029867.1840098,-40.52734375,-51.26953125,-31.73828125,-38.57421875,-1.0,1.0,0.0,0.0,4.m4v,3.0
2024-02-27 11:31:07.187944,1709029867.1879437,-47.36328125,-21.484375,-16.6015625,-39.55078125,-1.0,1.0,0.0,0.0,4.m4v,3.0
2024-02-27 11:31:07.191878,1709029867.1918776,-35.15625,-16.6015625,-15.13671875,-41.015625,-1.0,1.0,0.0,0.0,4.m4v,3.0
2024-02-27 11:31:07.195811,1709029867.1958113,-40.0390625,-13.18359375,-33.203125,-45.41015625,-1.0,1.0,0.0,0.0,4.m4v,3.0
2024-02-27 11:31:07.199745,1709029867.1997452,-39.0625,-27.83203125,-38.0859375,-42.48046875,-1.0,1.0,0.0,0.0,4.m4v,3.0
2024-02-27 11:31:07.203679,1709029867.203679,-42.96875,-56.640625,-47.36328125,-34.1796875,-1.0,1.0,0.0,0.0,4.m4v,3.0
2024-02-27 11:31:07.207613,1709029867.207613,-35.64453125,-60.546875,-56.15234375,-4.8828125,-1.0,1.0,0.0,0.0,4.m4v,3.0
2024-02-27 11:31:07.211547,1709029867.211547,-21.97265625,-63.96484375,-58.59375,2.44140625,-1.0,1.0,0.0,0.0,4.m4v,3.0
2024-02-27 11:31:07.215481,1709029867.2154806,-30.2734375,-58.10546875,-52.24609375,-26.3671875,-1.0,1.0,0.0,0.0,4.m4v,3.0
2024-02-27 11:31:07.219414,1709029867.2194145,-48.828125,-45.41015625,-33.69140625,-50.29296875,-1.0,1.0,0.0,0.0,4.m4v,3.0
2024-02-27 11:31:07.220234,1709029867.2202337,-44.921875,-44.43359375,-24.4140625,-54.6875,-1.0,1.0,0.0,0.0,4.m4v,3.0
2024-02-27 11:31:07.224165,1709029867.2241647,-45.8984375,-48.33984375,-41.015625,-46.875,-1.0,1.0,0.0,0.0,4.m4v,3.0
2024-02-27 11:31:07.228096,1709029867.2280955,-33.69140625,-60.05859375,-61.03515625,-28.80859375,-1.0,1.0,0.0,0.0,4.m4v,3.0
2024-02-27 11:31:07.232027,1709029867.2320266,-13.18359375,-74.70703125,-50.29296875,-27.83203125,-1.0,1.0,0.0,0.0,4.m4v,3.0
2024-02-27 11:31:07.235958,1709029867.2359576,-36.62109375,-68.84765625,-35.64453125,-45.41015625,-1.0,1.0,0.0,0.0,4.m4v,3.0
2024-02-27 11:31:07.239888,1709029867.2398884,-58.59375,-53.7109375,-33.203125,-48.828125,-1.0,1.0,0.0,0.0,4.m4v,3.0
2024-02-27 11:31:07.243819,1709029867.2438197,-55.17578125,-51.26953125,-35.64453125,-32.71484375,-1.0,1.0,0.0,0.0,4.m4v,3.0
2024-02-27 11:31:07.247751,1709029867.2477503,-56.640625,-72.75390625,-48.828125,-24.4140625,-1.0,1.0,0.0,0.0,4.m4v,3.0
2024-02-27 11:31:07.251681,1709029867.251681,-48.828125,-78.61328125,-58.59375,-41.015625,-1.0,1.0,0.0,0.0,4.m4v,3.0
2024-02-27 11:31:07.255612,1709029867.2556124,-46.38671875,-57.12890625,-50.29296875,-62.01171875,-1.0,1.0,0.0,0.0,4.m4v,3.0
2024-02-27 11:31:07.259543,1709029867.2595434,-57.12890625,-51.7578125,-42.96875,-52.24609375,-1.0,1.0,0.0,0.0,4.m4v,3.0
2024-02-27 11:31:07.263474,1709029867.2634742,-62.98828125,-44.43359375,-41.50390625,-32.2265625,-1.0,1.0,0.0,0.0,4.m4v,3.0
2024-02-27 11:31:07.264349,1709029867.2643492,-56.15234375,-41.015625,-41.015625,-38.0859375,-1.0,1.0,0.0,0.0,4.m4v,3.0
2024-02-27 11:31:07.268277,1709029867.2682774,-47.36328125,-59.08203125,-28.3203125,-37.109375,-1.0,1.0,0.0,0.0,4.m4v,3.0
2024-02-27 11:31:07.272206,1709029867.2722056,-38.57421875,-75.1953125,-19.04296875,-35.64453125,-1.0,1.0,0.0,0.0,4.m4v,3.0
2024-02-27 11:31:07.276134,1709029867.2761338,-39.55078125,-64.453125,-27.83203125,-38.57421875,-1.0,1.0,0.0,0.0,4.m4v,3.0
2024-02-27 11:31:07.280062,1709029867.280062,-55.6640625,-45.41015625,-30.76171875,-22.94921875,-1.0,1.0,0.0,0.0,4.m4v,3.0
2024-02-27 11:31:07.283990,1709029867.28399,-43.45703125,-37.109375,-27.83203125,-0.9765625,-1.0,1.0,0.0,0.0,4.m4v,3.0
2024-02-27 11:31:07.287918,1709029867.2879183,-20.99609375,-43.45703125,-41.015625,-6.34765625,-1.0,1.0,0.0,0.0,4.m4v,3.0
2024-02-27 11:31:07.291847,1709029867.2918465,-29.296875,-64.94140625,-48.828125,-25.87890625,-1.0,1.0,0.0,0.0,4.m4v,3.0
2024-02-27 11:31:07.295774,1709029867.2957745,-27.34375,-66.40625,-35.64453125,-42.96875,-1.0,1.0,0.0,0.0,4.m4v,3.0
2024-02-27 11:31:07.299703,1709029867.2997026,-14.6484375,-55.17578125,-39.0625,-42.96875,-1.0,1.0,0.0,0.0,4.m4v,3.0
2024-02-27 11:31:07.303631,1709029867.3036308,-30.2734375,-52.734375,-41.9921875,-23.92578125,-1.0,1.0,0.0,0.0,4.m4v,3.0
2024-02-27 11:31:07.307559,1709029867.307559,-40.0390625,-52.734375,-27.34375,-20.99609375,-1.0,1.0,0.0,0.0,4.m4v,3.0
2024-02-27 11:31:07.308439,1709029867.3084388,-39.0625,-43.9453125,-25.87890625,-35.15625,-1.0,1.0,0.0,0.0,4.m4v,3.0
2024-02-27 11:31:07.312364,1709029867.312364,-33.203125,-35.15625,-43.45703125,-35.64453125,-1.0,1.0,0.0,0.0,4.m4v,3.0
2024-02-27 11:31:07.316290,1709029867.3162897,-16.11328125,-37.109375,-52.734375,-25.87890625,-1.0,1.0,0.0,0.0,4.m4v,3.0
2024-02-27 11:31:07.320215,1709029867.320215,-20.5078125,-52.734375,-46.875,-4.39453125,-1.0,1.0,0.0,0.0,4.m4v,3.0
2024-02-27 11:31:07.324140,1709029867.3241403,-18.5546875,-65.91796875,-57.6171875,-5.859375,-1.0,1.0,0.0,0.0,4.m4v,3.0
2024-02-27 11:31:07.328066,1709029867.328066,-27.83203125,-48.33984375,-57.12890625,-20.99609375,-1.0,1.0,0.0,0.0,4.m4v,3.0
2024-02-27 11:31:07.331991,1709029867.3319912,-44.43359375,-46.38671875,-44.921875,-31.25,-1.0,1.0,0.0,0.0,4.m4v,3.0
2024-02-27 11:31:07.335917,1709029867.3359165,-47.36328125,-50.78125,-37.59765625,-33.69140625,-1.0,1.0,0.0,0.0,4.m4v,3.0
2024-02-27 11:31:07.339842,1709029867.339842,-54.19921875,-39.0625,-24.90234375,-30.76171875,-1.0,1.0,0.0,0.0,4.m4v,3.0
2024-02-27 11:31:07.343767,1709029867.3437674,-53.7109375,-33.203125,-23.92578125,-32.71484375,-1.0,1.0,0.0,0.0,4.m4v,3.0
2024-02-27 11:31:07.347693,1709029867.347693,-47.36328125,-32.2265625,-34.1796875,-45.41015625,-1.0,1.0,0.0,0.0,4.m4v,3.0
2024-02-27 11:31:07.351618,1709029867.3516183,-41.50390625,-41.015625,-37.59765625,-58.59375,-1.0,1.0,0.0,0.0,4.m4v,3.0
2024-02-27 11:31:07.352599,1709029867.352599,-35.64453125,-51.7578125,-27.83203125,-50.29296875,-1.0,1.0,0.0,0.0,4.m4v,3.0
2024-02-27 11:31:07.356522,1709029867.3565216,-19.53125,-48.33984375,-29.296875,-32.2265625,-1.0,1.0,0.0,0.0,4.m4v,3.0
2024-02-27 11:31:07.360444,1709029867.3604443,-19.04296875,-42.48046875,-23.92578125,-23.4375,-1.0,1.0,0.0,0.0,4.m4v,3.0
2024-02-27 11:31:07.364367,1709029867.364367,-33.203125,-42.96875,-39.0625,-23.92578125,-1.0,1.0,0.0,0.0,4.m4v,3.0
2024-02-27 11:31:07.368290,1709029867.36829,-29.78515625,-43.9453125,-62.98828125,-25.390625,-1.0,1.0,0.0,0.0,4.m4v,3.0
2024-02-27 11:31:07.372213,1709029867.3722126,-42.96875,-27.83203125,-62.98828125,-3.41796875,-1.0,1.0,0.0,0.0,4.m4v,3.0
2024-02-27 11:31:07.376135,1709029867.376135,-36.1328125,-23.92578125,-50.29296875,-12.20703125,-1.0,1.0,0.0,0.0,4.m4v,3.0
2024-02-27 11:31:07.380058,1709029867.380058,-28.3203125,-45.8984375,-19.04296875,-39.0625,-1.0,1.0,0.0,0.0,4.m4v,3.0
2024-02-27 11:31:07.383981,1709029867.383981,-57.12890625,-45.41015625,-8.30078125,-45.8984375,-1.0,1.0,0.0,0.0,4.m4v,3.0
2024-02-27 11:31:07.387904,1709029867.3879037,-67.3828125,-33.203125,-24.90234375,-56.640625,-1.0,1.0,0.0,0.0,4.m4v,3.0
2024-02-27 11:31:07.391826,1709029867.3918264,-57.12890625,-37.109375,-30.76171875,-56.640625,-1.0,1.0,0.0,0.0,4.m4v,3.0
2024-02-27 11:31:07.395749,1709029867.395749,-32.71484375,-37.109375,-45.41015625,-22.94921875,-1.0,1.0,0.0,0.0,4.m4v,3.0
2024-02-27 11:31:07.397202,1709029867.397202,-14.6484375,-37.59765625,-67.3828125,-6.34765625,-1.0,1.0,0.0,0.0,4.m4v,3.0
2024-02-27 11:31:07.401123,1709029867.4011228,-10.25390625,-36.1328125,-43.9453125,-20.01953125,-1.0,1.0,0.0,0.0,4.m4v,3.0
2024-02-27 11:31:07.405043,1709029867.4050434,-26.3671875,-40.0390625,-22.4609375,-27.83203125,-1.0,1.0,0.0,0.0,4.m4v,3.0
2024-02-27 11:31:07.408964,1709029867.408964,-57.6171875,-52.24609375,-25.390625,-41.9921875,-1.0,1.0,0.0,0.0,4.m4v,3.0
2024-02-27 11:31:07.412884,1709029867.4128845,-76.171875,-40.52734375,-20.99609375,-50.78125,-1.0,1.0,0.0,0.0,4.m4v,3.0
2024-02-27 11:31:07.416805,1709029867.416805,-68.359375,-18.06640625,-39.55078125,-29.296875,-1.0,1.0,0.0,0.0,4.m4v,3.0
2024-02-27 11:31:07.420726,1709029867.4207256,-50.78125,-20.01953125,-34.66796875,-22.4609375,-1.0,1.0,0.0,0.0,4.m4v,3.0
2024-02-27 11:31:07.424646,1709029867.424646,-36.1328125,-30.2734375,-30.2734375,-31.73828125,-1.0,1.0,0.0,0.0,4.m4v,3.0
2024-02-27 11:31:07.428567,1709029867.4285667,-29.296875,-28.3203125,-61.5234375,-42.96875,-1.0,1.0,0.0,0.0,4.m4v,3.0
2024-02-27 11:31:07.432487,1709029867.4324872,-25.390625,-27.34375,-43.45703125,-35.64453125,-1.0,1.0,0.0,0.0,4.m4v,3.0
2024-02-27 11:31:07.436408,1709029867.4364078,-8.30078125,-44.921875,-15.13671875,-9.27734375,-1.0,1.0,0.0,0.0,4.m4v,3.0
2024-02-27 11:31:07.440328,1709029867.4403284,-17.578125,-37.59765625,-16.11328125,-18.5546875,-1.0,1.0,0.0,0.0,4.m4v,3.0
2024-02-27 11:31:07.441805,1709029867.4418051,-45.41015625,-25.390625,-11.23046875,-47.36328125,-1.0,1.0,0.0,0.0,4.m4v,3.0
2024-02-27 11:31:07.445724,1709029867.4457235,-45.41015625,-36.62109375,-26.85546875,-53.7109375,-1.0,1.0,0.0,0.0,4.m4v,3.0
2024-02-27 11:31:07.449642,1709029867.449642,-38.0859375,-41.50390625,-54.19921875,-42.48046875,-1.0,1.0,0.0,0.0,4.m4v,3.0
2024-02-27 11:31:07.453560,1709029867.4535604,-38.0859375,-34.66796875,-46.875,-20.01953125,-1.0,1.0,0.0,0.0,4.m4v,3.0
2024-02-27 11:31:07.457479,1709029867.4574788,-51.7578125,-41.50390625,-37.59765625,-23.92578125,-1.0,1.0,0.0,0.0,4.m4v,3.0
2024-02-27 11:31:07.461397,1709029867.4613972,-48.33984375,-38.0859375,-23.4375,-31.73828125,-1.0,1.0,0.0,0.0,4.m4v,3.0
2024-02-27 11:31:07.465316,1709029867.4653156,-34.66796875,-31.73828125,-25.390625,-40.0390625,-1.0,1.0,0.0,0.0,4.m4v,3.0
2024-02-27 11:31:07.469234,1709029867.4692342,-49.8046875,-37.59765625,-32.71484375,-47.8515625,-1.0,1.0,0.0,0.0,4.m4v,3.0
2024-02-27 11:31:07.473153,1709029867.4731526,-41.015625,-41.9921875,-33.69140625,-25.87890625,-1.0,1.0,0.0,0.0,4.m4v,3.0
2024-02-27 11:31:07.477071,1709029867.477071,-10.25390625,-50.78125,-46.875,-18.5546875,-1.0,1.0,0.0,0.0,4.m4v,3.0
2024-02-27 11:31:07.480989,1709029867.4809897,-15.625,-58.59375,-44.43359375,-38.0859375,-1.0,1.0,0.0,0.0,4.m4v,3.0
2024-02-27 11:31:07.484908,1709029867.484908,-34.66796875,-47.36328125,-32.2265625,-53.22265625,-1.0,1.0,0.0,0.0,4.m4v,3.0
2024-02-27 11:31:07.486476,1709029867.4864757,-45.41015625,-25.87890625,-32.2265625,-32.71484375,-1.0,1.0,0.0,0.0,4.m4v,3.0
2024-02-27 11:31:07.490392,1709029867.4903922,-45.41015625,-26.3671875,-43.9453125,-16.11328125,-1.0,1.0,0.0,0.0,4.m4v,3.0
2024-02-27 11:31:07.494308,1709029867.4943085,-50.29296875,-28.3203125,-42.48046875,-33.69140625,-1.0,1.0,0.0,0.0,4.m4v,3.0
2024-02-27 11:31:07.498225,1709029867.498225,-41.9921875,-24.4140625,-37.59765625,-55.6640625,-1.0,1.0,0.0,0.0,4.m4v,3.0
2024-02-27 11:31:07.502141,1709029867.5021412,-8.30078125,-40.52734375,-44.921875,-42.96875,-1.0,1.0,0.0,0.0,4.m4v,3.0
2024-02-27 11:31:07.506058,1709029867.5060575,-2.9296875,-50.29296875,-51.26953125,-29.296875,-1.0,1.0,0.0,0.0,4.m4v,3.0
2024-02-27 11:31:07.509974,1709029867.509974,-8.7890625,-41.9921875,-40.0390625,-27.83203125,-1.0,1.0,0.0,0.0,4.m4v,3.0
2024-02-27 11:31:07.513891,1709029867.5138905,-20.5078125,-40.0390625,-19.53125,-16.6015625,-1.0,1.0,0.0,0.0,4.m4v,3.0
2024-02-27 11:31:07.517807,1709029867.517807,-44.921875,-34.1796875,-21.97265625,-30.2734375,-1.0,1.0,0.0,0.0,4.m4v,3.0
2024-02-27 11:31:07.521723,1709029867.5217233,-38.0859375,-16.11328125,-33.203125,-44.43359375,-1.0,1.0,0.0,0.0,4.m4v,3.0
2024-02-27 11:31:07.525640,1709029867.5256398,-26.3671875,-12.6953125,-32.2265625,-53.22265625,-1.0,1.0,0.0,0.0,4.m4v,3.0
2024-02-27 11:31:07.529556,1709029867.529556,-38.0859375,-29.78515625,-33.69140625,-37.59765625,-1.0,1.0,0.0,0.0,4.m4v,3.0
2024-02-27 11:31:07.531097,1709029867.531097,-30.76171875,-40.0390625,-25.390625,-27.34375,-1.0,1.0,0.0,0.0,4.m4v,3.0
2024-02-27 11:31:07.535011,1709029867.5350113,-17.578125,-37.59765625,-26.85546875,-43.9453125,-1.0,1.0,0.0,0.0,4.m4v,3.0
2024-02-27 11:31:07.538926,1709029867.5389256,-30.76171875,-38.57421875,-52.734375,-55.17578125,-1.0,1.0,0.0,0.0,4.m4v,3.0
2024-02-27 11:31:07.542840,1709029867.54284,-50.29296875,-36.1328125,-58.59375,-46.875,-1.0,1.0,0.0,0.0,4.m4v,3.0
2024-02-27 11:31:07.546754,1709029867.546754,-35.15625,-32.71484375,-38.0859375,-31.73828125,-1.0,1.0,0.0,0.0,4.m4v,3.0
2024-02-27 11:31:07.550668,1709029867.5506685,-32.2265625,-22.4609375,-25.390625,-34.66796875,-1.0,1.0,0.0,0.0,4.m4v,3.0
2024-02-27 11:31:07.554583,1709029867.5545828,-45.41015625,-29.78515625,-34.1796875,-62.5,-1.0,1.0,0.0,0.0,4.m4v,3.0
2024-02-27 11:31:07.558497,1709029867.5584972,-39.55078125,-47.8515625,-39.55078125,-63.4765625,-1.0,1.0,0.0,0.0,4.m4v,3.0
2024-02-27 11:31:07.562412,1709029867.5624115,-37.59765625,-47.8515625,-32.71484375,-46.38671875,-1.0,1.0,0.0,0.0,4.m4v,3.0
2024-02-27 11:31:07.566326,1709029867.566326,-36.1328125,-44.921875,-41.9921875,-34.1796875,-1.0,1.0,0.0,0.0,4.m4v,3.0
2024-02-27 11:31:07.570240,1709029867.5702405,-36.62109375,-44.43359375,-56.640625,-12.20703125,-1.0,1.0,0.0,0.0,4.m4v,3.0
2024-02-27 11:31:07.574155,1709029867.5741546,-26.3671875,-37.109375,-47.8515625,-20.99609375,-1.0,1.0,0.0,0.0,4.m4v,3.0
2024-02-27 11:31:07.576548,1709029867.5765476,-27.34375,-35.64453125,-42.48046875,-42.48046875,-1.0,1.0,0.0,0.0,4.m4v,3.0
2024-02-27 11:31:07.580461,1709029867.5804603,-50.78125,-35.15625,-45.8984375,-45.41015625,-1.0,1.0,0.0,0.0,4.m4v,3.0
2024-02-27 11:31:07.584374,1709029867.5843737,-27.34375,-25.390625,-58.59375,-30.76171875,-1.0,1.0,0.0,0.0,4.m4v,3.0
2024-02-27 11:31:07.588287,1709029867.5882866,-2.9296875,-35.64453125,-53.7109375,-4.39453125,-1.0,1.0,0.0,0.0,4.m4v,3.0
2024-02-27 11:31:07.592200,1709029867.5921998,-35.64453125,-50.78125,-20.01953125,-15.13671875,-1.0,1.0,0.0,0.0,4.m4v,3.0
2024-02-27 11:31:07.596113,1709029867.596113,-33.69140625,-23.92578125,-14.16015625,-32.2265625,-1.0,1.0,0.0,0.0,4.m4v,3.0
2024-02-27 11:31:07.600026,1709029867.600026,-29.78515625,-23.4375,-31.25,-38.57421875,-1.0,1.0,0.0,0.0,4.m4v,3.0
2024-02-27 11:31:07.603939,1709029867.603939,-47.36328125,-39.55078125,-42.96875,-39.0625,-1.0,1.0,0.0,0.0,4.m4v,3.0
2024-02-27 11:31:07.607852,1709029867.607852,-35.64453125,-41.50390625,-37.109375,-6.8359375,-1.0,1.0,0.0,0.0,4.m4v,3.0
2024-02-27 11:31:07.611765,1709029867.6117651,-8.7890625,-53.22265625,-19.53125,-5.859375,-1.0,1.0,0.0,0.0,4.m4v,3.0
2024-02-27 11:31:07.615678,1709029867.615678,-4.8828125,-51.26953125,-18.06640625,-39.0625,-1.0,1.0,0.0,0.0,4.m4v,3.0
2024-02-27 11:31:07.619591,1709029867.6195912,-27.34375,-39.55078125,-41.9921875,-42.96875,-1.0,1.0,0.0,0.0,4.m4v,3.0
2024-02-27 11:31:07.621594,1709029867.6215937,-34.1796875,-35.15625,-50.29296875,-31.25,-1.0,1.0,0.0,0.0,4.m4v,3.0
2024-02-27 11:31:07.625505,1709029867.6255052,-40.0390625,-35.15625,-63.4765625,-10.7421875,-1.0,1.0,0.0,0.0,4.m4v,3.0
2024-02-27 11:31:07.629417,1709029867.6294167,-29.296875,-22.94921875,-99.12109375,-3.90625,-1.0,1.0,0.0,0.0,4.m4v,3.0
2024-02-27 11:31:07.633328,1709029867.633328,-40.52734375,-39.0625,-62.98828125,-41.015625,-1.0,1.0,0.0,0.0,4.m4v,3.0
2024-02-27 11:31:07.637239,1709029867.6372397,-44.43359375,-60.546875,-10.7421875,-66.40625,-1.0,1.0,0.0,0.0,4.m4v,3.0
2024-02-27 11:31:07.641151,1709029867.641151,-27.83203125,-37.59765625,-21.484375,-26.85546875,-1.0,1.0,0.0,0.0,4.m4v,3.0
2024-02-27 11:31:07.645062,1709029867.6450624,-31.73828125,-29.296875,-38.0859375,-5.859375,-1.0,1.0,0.0,0.0,4.m4v,3.0
2024-02-27 11:31:07.648974,1709029867.648974,-30.76171875,-34.66796875,-34.1796875,-25.390625,-1.0,1.0,0.0,0.0,4.m4v,3.0
2024-02-27 11:31:07.652885,1709029867.6528852,-33.69140625,-23.92578125,-37.109375,-28.80859375,-1.0,1.0,0.0,0.0,4.m4v,3.0
2024-02-27 11:31:07.656797,1709029867.6567967,-48.828125,-23.4375,-33.203125,-42.96875,-1.0,1.0,0.0,0.0,4.m4v,3.0
2024-02-27 11:31:07.660708,1709029867.6607082,-43.9453125,-32.2265625,-18.06640625,-39.55078125,-1.0,1.0,0.0,0.0,4.m4v,3.0
2024-02-27 11:31:07.664620,1709029867.6646197,-33.69140625,-17.578125,-36.62109375,-15.13671875,-1.0,1.0,0.0,0.0,4.m4v,3.0
2024-02-27 11:31:07.666267,1709029867.6662672,-29.296875,-16.6015625,-51.26953125,-14.6484375,-1.0,1.0,0.0,0.0,4.m4v,3.0
2024-02-27 11:31:07.670177,1709029867.6701767,-18.5546875,-32.2265625,-45.8984375,-32.71484375,-1.0,1.0,0.0,0.0,4.m4v,3.0
2024-02-27 11:31:07.674086,1709029867.6740863,-18.5546875,-46.38671875,-40.0390625,-48.33984375,-1.0,1.0,0.0,0.0,4.m4v,3.0
2024-02-27 11:31:07.677996,1709029867.677996,-19.04296875,-42.96875,-27.34375,-37.59765625,-1.0,1.0,0.0,0.0,4.m4v,3.0
2024-02-27 11:31:07.681905,1709029867.6819053,-1.46484375,-29.78515625,-32.2265625,-24.90234375,-1.0,1.0,0.0,0.0,4.m4v,3.0
2024-02-27 11:31:07.685815,1709029867.6858149,-9.27734375,-20.01953125,-38.57421875,-15.13671875,-1.0,1.0,0.0,0.0,4.m4v,3.0
2024-02-27 11:31:07.689724,1709029867.6897244,-38.0859375,-32.2265625,-45.8984375,-25.87890625,-1.0,1.0,0.0,0.0,4.m4v,3.0
2024-02-27 11:31:07.693634,1709029867.693634,-39.0625,-38.57421875,-40.52734375,-46.875,-1.0,1.0,0.0,0.0,4.m4v,3.0
2024-02-27 11:31:07.697544,1709029867.6975436,-38.0859375,-33.203125,-34.1796875,-40.52734375,-1.0,1.0,0.0,0.0,4.m4v,3.0
2024-02-27 11:31:07.701453,1709029867.7014532,-37.109375,-42.96875,-31.25,-24.4140625,-1.0,1.0,0.0,0.0,4.m4v,3.0
2024-02-27 11:31:07.705363,1709029867.7053628,-37.109375,-36.62109375,-38.0859375,-14.16015625,-1.0,1.0,0.0,0.0,4.m4v,3.0
2024-02-27 11:31:07.709272,1709029867.7092724,-30.76171875,-25.390625,-48.828125,-16.6015625,-1.0,1.0,0.0,0.0,4.m4v,3.0
2024-02-27 11:31:07.710897,1709029867.7108974,-18.06640625,-18.5546875,-38.57421875,-28.80859375,-1.0,1.0,0.0,0.0,4.m4v,3.0
2024-02-27 11:31:07.714805,1709029867.7148051,-38.57421875,-33.203125,-22.94921875,-55.6640625,-1.0,1.0,0.0,0.0,4.m4v,3.0
2024-02-27 11:31:07.718713,1709029867.7187128,-51.26953125,-29.296875,-32.2265625,-45.8984375,-1.0,1.0,0.0,0.0,4.m4v,3.0
2024-02-27 11:31:07.722620,1709029867.7226205,-36.62109375,-25.390625,-46.38671875,-16.6015625,-1.0,1.0,0.0,0.0,4.m4v,3.0
2024-02-27 11:31:07.726528,1709029867.7265282,-30.2734375,-40.0390625,-50.29296875,-45.8984375,-1.0,1.0,0.0,0.0,4.m4v,3.0
2024-02-27 11:31:07.730436,1709029867.7304358,-19.53125,-20.99609375,-57.12890625,-61.5234375,-1.0,1.0,0.0,0.0,4.m4v,3.0
2024-02-27 11:31:07.734343,1709029867.7343433,-20.01953125,-30.76171875,-49.8046875,-37.109375,-1.0,1.0,0.0,0.0,4.m4v,3.0
2024-02-27 11:31:07.738251,1709029867.738251,-35.64453125,-48.828125,-45.8984375,-44.43359375,-1.0,1.0,0.0,0.0,4.m4v,3.0
2024-02-27 11:31:07.742159,1709029867.742159,-36.62109375,-35.64453125,-40.52734375,-49.31640625,-1.0,1.0,0.0,0.0,4.m4v,3.0
2024-02-27 11:31:07.746066,1709029867.7460663,-39.0625,-33.69140625,-21.484375,-48.33984375,-1.0,1.0,0.0,0.0,4.m4v,3.0
2024-02-27 11:31:07.749974,1709029867.749974,-41.50390625,-43.45703125,-20.5078125,-59.5703125,-1.0,1.0,0.0,0.0,4.m4v,3.0
2024-02-27 11:31:07.753882,1709029867.7538817,-42.48046875,-46.38671875,-28.80859375,-57.6171875,-1.0,1.0,0.0,0.0,4.m4v,3.0
2024-02-27 11:31:07.755938,1709029867.7559376,-31.73828125,-40.0390625,-42.48046875,-39.55078125,-1.0,1.0,0.0,0.0,4.m4v,3.0
2024-02-27 11:31:07.759844,1709029867.7598436,-16.11328125,-37.109375,-50.78125,-29.296875,-1.0,1.0,0.0,0.0,4.m4v,3.0
2024-02-27 11:31:07.763750,1709029867.7637498,-10.7421875,-25.87890625,-48.33984375,-30.76171875,-1.0,1.0,0.0,0.0,4.m4v,3.0
2024-02-27 11:31:07.767656,1709029867.767656,-17.08984375,-19.04296875,-45.41015625,-37.109375,-1.0,1.0,0.0,0.0,4.m4v,3.0
2024-02-27 11:31:07.771562,1709029867.771562,-31.25,-32.2265625,-36.62109375,-47.8515625,-1.0,1.0,0.0,0.0,4.m4v,3.0
2024-02-27 11:31:07.775468,1709029867.7754683,-35.64453125,-29.296875,-31.25,-32.71484375,-1.0,1.0,0.0,0.0,4.m4v,3.0
2024-02-27 11:31:07.779375,1709029867.7793746,-37.59765625,-17.578125,-62.5,-17.578125,-1.0,1.0,0.0,0.0,4.m4v,3.0
2024-02-27 11:31:07.783281,1709029867.7832806,-37.109375,-30.2734375,-94.23828125,-22.94921875,-1.0,1.0,0.0,0.0,4.m4v,3.0
2024-02-27 11:31:07.787187,1709029867.7871869,-43.45703125,-41.9921875,-74.21875,-38.0859375,-1.0,1.0,0.0,0.0,4.m4v,3.0
2024-02-27 11:31:07.791093,1709029867.791093,-36.62109375,-53.7109375,-31.73828125,-60.05859375,-1.0,1.0,0.0,0.0,4.m4v,3.0
2024-02-27 11:31:07.794999,1709029867.7949991,-37.109375,-49.31640625,-0.9765625,-51.26953125,-1.0,1.0,0.0,0.0,4.m4v,3.0
2024-02-27 11:31:07.798905,1709029867.7989054,-49.31640625,-19.53125,-11.71875,-27.34375,-1.0,1.0,0.0,0.0,4.m4v,3.0
2024-02-27 11:31:07.800976,1709029867.8009758,-57.6171875,-8.7890625,-41.015625,-31.73828125,-1.0,1.0,0.0,0.0,4.m4v,3.0
2024-02-27 11:31:07.804881,1709029867.8048806,-58.59375,-27.83203125,-34.1796875,-42.48046875,-1.0,1.0,0.0,0.0,4.m4v,3.0
2024-02-27 11:31:07.808785,1709029867.8087852,-51.26953125,-34.66796875,-35.15625,-43.45703125,-1.0,1.0,0.0,0.0,4.m4v,3.0
2024-02-27 11:31:07.812690,1709029867.81269,-48.33984375,-33.203125,-41.015625,-31.25,-1.0,1.0,0.0,0.0,4.m4v,3.0
2024-02-27 11:31:07.816595,1709029867.8165946,-33.203125,-40.0390625,-46.38671875,-9.765625,-1.0,1.0,0.0,0.0,4.m4v,3.0
2024-02-27 11:31:07.820499,1709029867.8204992,-22.4609375,-40.52734375,-37.109375,3.41796875,-1.0,1.0,0.0,0.0,4.m4v,3.0
2024-02-27 11:31:07.824404,1709029867.824404,-33.203125,-40.52734375,-27.83203125,-11.71875,-1.0,1.0,0.0,0.0,4.m4v,3.0
2024-02-27 11:31:07.828309,1709029867.8283086,-34.66796875,-49.31640625,-50.78125,-42.48046875,-1.0,1.0,0.0,0.0,4.m4v,3.0
2024-02-27 11:31:07.832213,1709029867.8322134,-36.62109375,-47.36328125,-34.1796875,-31.25,-1.0,1.0,0.0,0.0,4.m4v,3.0
2024-02-27 11:31:07.836118,1709029867.836118,-40.52734375,-29.296875,-29.296875,-0.48828125,-1.0,1.0,0.0,0.0,4.m4v,3.0
2024-02-27 11:31:07.840023,1709029867.8400228,-31.73828125,-25.87890625,-51.7578125,-15.13671875,-1.0,1.0,0.0,0.0,4.m4v,3.0
2024-02-27 11:31:07.843927,1709029867.8439274,-30.76171875,-22.4609375,-55.6640625,-48.828125,-1.0,1.0,0.0,0.0,4.m4v,3.0
2024-02-27 11:31:07.846024,1709029867.846024,-20.01953125,-19.53125,-33.69140625,-33.203125,-1.0,1.0,0.0,0.0,4.m4v,3.0
2024-02-27 11:31:07.849927,1709029867.8499274,-35.15625,-32.2265625,-19.53125,-35.15625,-1.0,1.0,0.0,0.0,4.m4v,3.0
2024-02-27 11:31:07.853831,1709029867.8538306,-64.94140625,-39.55078125,-32.2265625,-28.3203125,-1.0,1.0,0.0,0.0,4.m4v,3.0
2024-02-27 11:31:07.857734,1709029867.8577335,-43.9453125,-49.8046875,-31.25,-12.20703125,-1.0,1.0,0.0,0.0,4.m4v,3.0
2024-02-27 11:31:07.861637,1709029867.861637,-23.4375,-49.8046875,-28.3203125,-38.0859375,-1.0,1.0,0.0,0.0,4.m4v,3.0
2024-02-27 11:31:07.865540,1709029867.8655405,-27.83203125,-24.90234375,-47.8515625,-39.0625,-1.0,1.0,0.0,0.0,4.m4v,3.0
2024-02-27 11:31:07.869443,1709029867.8694434,-40.0390625,-21.97265625,-63.96484375,-41.015625,-1.0,1.0,0.0,0.0,4.m4v,3.0
2024-02-27 11:31:07.873347,1709029867.8733468,-51.7578125,-33.69140625,-47.36328125,-47.8515625,-1.0,1.0,0.0,0.0,4.m4v,3.0
2024-02-27 11:31:07.877250,1709029867.87725,-55.17578125,-35.15625,-25.390625,-41.015625,-1.0,1.0,0.0,0.0,4.m4v,3.0
2024-02-27 11:31:07.881153,1709029867.881153,-48.828125,-42.48046875,-30.76171875,-42.48046875,-1.0,1.0,0.0,0.0,4.m4v,3.0
2024-02-27 11:31:07.885056,1709029867.8850565,-49.8046875,-43.9453125,-31.25,-58.10546875,-1.0,1.0,0.0,0.0,4.m4v,3.0
2024-02-27 11:31:07.888960,1709029867.8889596,-32.2265625,-56.15234375,-26.85546875,-55.17578125,-1.0,1.0,0.0,0.0,4.m4v,3.0
2024-02-27 11:31:07.891081,1709029867.8910809,-37.59765625,-67.3828125,-46.38671875,-22.4609375,-1.0,1.0,0.0,0.0,4.m4v,3.0
2024-02-27 11:31:07.894983,1709029867.8949828,-51.7578125,-63.4765625,-45.41015625,-20.5078125,-1.0,1.0,0.0,0.0,4.m4v,3.0
2024-02-27 11:31:07.898885,1709029867.8988843,-53.22265625,-46.875,-37.59765625,-27.83203125,-1.0,1.0,0.0,0.0,4.m4v,3.0
2024-02-27 11:31:07.902786,1709029867.9027865,-55.17578125,-20.99609375,-25.390625,-46.38671875,-1.0,1.0,0.0,0.0,4.m4v,3.0
2024-02-27 11:31:07.906688,1709029867.9066882,-59.08203125,-24.90234375,-13.18359375,-80.56640625,-1.0,1.0,0.0,0.0,4.m4v,3.0
2024-02-27 11:31:07.910590,1709029867.91059,-51.7578125,-30.76171875,-26.85546875,-62.98828125,-1.0,1.0,0.0,0.0,4.m4v,3.0
2024-02-27 11:31:07.914492,1709029867.914492,-26.85546875,-41.015625,-38.57421875,-39.0625,-1.0,1.0,0.0,0.0,4.m4v,3.0
2024-02-27 11:31:07.918394,1709029867.9183936,-23.92578125,-45.41015625,-61.5234375,-36.1328125,-1.0,1.0,0.0,0.0,4.m4v,3.0
2024-02-27 11:31:07.922295,1709029867.922295,-31.73828125,-41.50390625,-73.73046875,-31.25,-1.0,1.0,0.0,0.0,4.m4v,3.0
2024-02-27 11:31:07.926197,1709029867.9261973,-42.48046875,-52.24609375,-57.12890625,-50.78125,-1.0,1.0,0.0,0.0,4.m4v,3.0
2024-02-27 11:31:07.930099,1709029867.930099,-27.83203125,-66.89453125,-19.53125,-51.26953125,-1.0,1.0,0.0,0.0,4.m4v,3.0
2024-02-27 11:31:07.934001,1709029867.934001,-7.8125,-61.03515625,5.37109375,-26.3671875,-1.0,1.0,0.0,0.0,4.m4v,3.0
2024-02-27 11:31:07.936105,1709029867.936105,-46.38671875,-24.90234375,-13.671875,-37.59765625,-1.0,1.0,0.0,0.0,4.m4v,3.0
2024-02-27 11:31:07.940006,1709029867.9400055,-73.2421875,-2.9296875,-27.34375,-75.1953125,-1.0,1.0,0.0,0.0,4.m4v,3.0
2024-02-27 11:31:07.943906,1709029867.9439058,-58.59375,-23.4375,-25.390625,-91.30859375,-1.0,1.0,0.0,0.0,4.m4v,3.0
2024-02-27 11:31:07.947806,1709029867.9478064,-44.43359375,-36.1328125,-27.34375,-60.546875,-1.0,1.0,0.0,0.0,4.m4v,3.0
2024-02-27 11:31:07.951707,1709029867.9517066,-39.55078125,-32.71484375,-26.85546875,-32.2265625,-1.0,1.0,0.0,0.0,4.m4v,3.0
2024-02-27 11:31:07.955607,1709029867.9556072,-34.66796875,-31.25,-28.3203125,-21.484375,-1.0,1.0,0.0,0.0,4.m4v,3.0
2024-02-27 11:31:07.959507,1709029867.9595077,-19.53125,-40.52734375,-57.6171875,-25.87890625,-1.0,1.0,0.0,0.0,4.m4v,3.0
2024-02-27 11:31:07.963408,1709029867.9634078,0.9765625,-72.265625,-99.12109375,-19.53125,-1.0,1.0,0.0,0.0,4.m4v,3.0
2024-02-27 11:31:07.967308,1709029867.9673083,-14.6484375,-84.47265625,-79.58984375,-30.2734375,-1.0,1.0,0.0,0.0,4.m4v,3.0
2024-02-27 11:31:07.971209,1709029867.9712086,-44.921875,-51.7578125,-6.8359375,-50.29296875,-1.0,1.0,0.0,0.0,4.m4v,3.0
2024-02-27 11:31:07.975109,1709029867.975109,-49.31640625,-27.34375,14.6484375,-49.31640625,-1.0,1.0,0.0,0.0,4.m4v,3.0
2024-02-27 11:31:07.979009,1709029867.9790094,-43.9453125,-28.3203125,-9.765625,-55.17578125,-1.0,1.0,0.0,0.0,4.m4v,3.0
2024-02-27 11:31:07.981127,1709029867.981127,-36.1328125,-32.71484375,-36.1328125,-55.17578125,-1.0,1.0,0.0,0.0,4.m4v,3.0
2024-02-27 11:31:07.985026,1709029867.985026,-59.08203125,-36.62109375,-44.43359375,-54.19921875,-1.0,1.0,0.0,0.0,4.m4v,3.0
2024-02-27 11:31:07.988925,1709029867.9889252,-34.1796875,-54.19921875,-33.203125,-11.71875,-1.0,1.0,0.0,0.0,4.m4v,3.0
2024-02-27 11:31:07.992824,1709029867.992824,31.25,-67.87109375,-20.5078125,48.33984375,-1.0,1.0,0.0,0.0,4.m4v,3.0
2024-02-27 11:31:07.996723,1709029867.9967232,24.4140625,-71.2890625,-52.24609375,18.5546875,-1.0,1.0,0.0,0.0,4.m4v,3.0
2024-02-27 11:31:08.000622,1709029868.0006225,-30.2734375,-71.2890625,-100.5859375,-42.96875,-1.0,1.0,0.0,0.0,4.m4v,3.0
2024-02-27 11:31:08.004521,1709029868.0045211,-59.5703125,-70.3125,-94.7265625,-59.5703125,-1.0,1.0,0.0,0.0,4.m4v,3.0
2024-02-27 11:31:08.008420,1709029868.0084202,-82.03125,-62.98828125,-38.57421875,-75.1953125,-1.0,1.0,0.0,0.0,4.m4v,3.0
2024-02-27 11:31:08.012319,1709029868.012319,-88.8671875,-35.64453125,-4.39453125,-76.66015625,-1.0,1.0,0.0,0.0,4.m4v,3.0
2024-02-27 11:31:08.016218,1709029868.0162182,-52.734375,-57.6171875,-27.34375,-80.078125,-1.0,1.0,0.0,0.0,4.m4v,3.0
2024-02-27 11:31:08.020117,1709029868.0201173,-28.3203125,-133.30078125,-61.5234375,-79.1015625,-1.0,1.0,0.0,0.0,4.m4v,3.0
2024-02-27 11:31:08.024016,1709029868.0240164,-34.1796875,-116.2109375,-65.91796875,-58.59375,-1.0,1.0,0.0,0.0,4.m4v,3.0
2024-02-27 11:31:08.026157,1709029868.026157,-69.82421875,-8.30078125,-96.6796875,-83.0078125,-1.0,1.0,0.0,0.0,4.m4v,3.0
2024-02-27 11:31:08.030055,1709029868.0300546,-105.95703125,17.08984375,-135.25390625,-106.4453125,-1.0,1.0,0.0,0.0,4.m4v,3.0
2024-02-27 11:31:08.033952,1709029868.0339522,-104.4921875,-2.9296875,-53.7109375,-116.69921875,-1.0,1.0,0.0,0.0,4.m4v,3.0
2024-02-27 11:31:08.037850,1709029868.03785,-134.765625,-26.85546875,1.953125,-161.1328125,-1.0,1.0,0.0,0.0,4.m4v,3.0
2024-02-27 11:31:08.041748,1709029868.0417476,-185.05859375,-44.43359375,-18.5546875,-203.61328125,-1.0,1.0,0.0,0.0,4.m4v,3.0
2024-02-27 11:31:08.045645,1709029868.0456452,-162.59765625,9.27734375,-51.26953125,-161.1328125,-1.0,1.0,0.0,0.0,4.m4v,3.0
2024-02-27 11:31:08.049543,1709029868.049543,-157.71484375,47.36328125,-81.0546875,-130.37109375,-1.0,1.0,0.0,0.0,4.m4v,3.0
2024-02-27 11:31:08.053441,1709029868.0534406,-158.203125,21.97265625,-42.96875,-159.66796875,-1.0,1.0,0.0,0.0,4.m4v,3.0
2024-02-27 11:31:08.057338,1709029868.0573382,-104.98046875,29.78515625,-16.11328125,-118.1640625,-1.0,1.0,0.0,0.0,4.m4v,3.0
2024-02-27 11:31:08.061236,1709029868.061236,-94.7265625,57.12890625,5.37109375,-109.86328125,-1.0,1.0,0.0,0.0,4.m4v,3.0
2024-02-27 11:31:08.065134,1709029868.0651336,-79.58984375,64.453125,-32.71484375,-89.84375,-1.0,1.0,0.0,0.0,4.m4v,3.0
2024-02-27 11:31:08.069031,1709029868.0690312,-54.19921875,-5.859375,-128.41796875,-46.38671875,-1.0,1.0,0.0,0.0,4.m4v,3.0
2024-02-27 11:31:08.071250,1709029868.0712495,-61.03515625,64.453125,-107.421875,-42.96875,-1.0,1.0,0.0,0.0,4.m4v,3.0
2024-02-27 11:31:08.075146,1709029868.0751462,-143.5546875,247.0703125,-67.87109375,-117.1875,-1.0,1.0,0.0,0.0,4.m4v,3.0
2024-02-27 11:31:08.079042,1709029868.0790424,-107.91015625,295.41015625,-32.2265625,-124.0234375,-1.0,1.0,0.0,0.0,4.m4v,3.0
2024-02-27 11:31:08.082939,1709029868.082939,-46.875,330.56640625,-28.3203125,-71.2890625,-1.0,1.0,0.0,0.0,4.m4v,3.0
2024-02-27 11:31:08.086835,1709029868.0868351,-94.23828125,380.37109375,-59.5703125,-65.91796875,-1.0,1.0,0.0,0.0,4.m4v,3.0
2024-02-27 11:31:08.090732,1709029868.0907316,-136.23046875,520.5078125,-158.69140625,-80.078125,-1.0,1.0,0.0,0.0,4.m4v,3.0
2024-02-27 11:31:08.094628,1709029868.094628,-63.96484375,559.08203125,-268.06640625,-44.921875,-1.0,1.0,0.0,0.0,4.m4v,3.0
2024-02-27 11:31:08.098524,1709029868.0985243,-9.765625,654.78515625,-83.49609375,-13.671875,-1.0,1.0,0.0,0.0,4.m4v,3.0
2024-02-27 11:31:08.102421,1709029868.1024208,-129.39453125,805.6640625,98.14453125,-122.55859375,-1.0,1.0,0.0,0.0,4.m4v,3.0
2024-02-27 11:31:08.106317,1709029868.106317,-109.86328125,791.50390625,47.36328125,-136.23046875,-1.0,1.0,0.0,0.0,4.m4v,3.0
2024-02-27 11:31:08.110214,1709029868.1102135,-56.640625,826.171875,-65.4296875,-77.1484375,-1.0,1.0,0.0,0.0,4.m4v,3.0
2024-02-27 11:31:08.114110,1709029868.1141098,-59.5703125,930.6640625,-57.12890625,-29.78515625,-1.0,1.0,0.0,0.0,4.m4v,3.0
2024-02-27 11:31:08.116644,1709029868.116644,-5.37109375,969.7265625,31.25,3.41796875,-1.0,1.0,0.0,0.0,4.m4v,3.0
2024-02-27 11:31:08.120539,1709029868.1205394,-25.87890625,968.26171875,-41.50390625,-53.7109375,-1.0,1.0,0.0,0.0,4.m4v,3.0
2024-02-27 11:31:08.124435,1709029868.1244347,-128.41796875,969.23828125,-98.14453125,-124.0234375,-1.0,1.0,0.0,0.0,4.m4v,3.0
2024-02-27 11:31:08.128330,1709029868.12833,-151.3671875,970.21484375,-113.28125,-126.46484375,-1.0,1.0,0.0,0.0,4.m4v,3.0
2024-02-27 11:31:08.132226,1709029868.1322255,9.765625,969.7265625,-149.90234375,-19.04296875,-1.0,1.0,0.0,0.0,4.m4v,3.0
2024-02-27 11:31:08.136121,1709029868.1361208,96.19140625,969.7265625,-53.7109375,13.18359375,-1.0,1.0,0.0,0.0,4.m4v,3.0
2024-02-27 11:31:08.140016,1709029868.140016,36.1328125,969.7265625,-24.4140625,-7.32421875,-1.0,1.0,0.0,0.0,4.m4v,3.0
2024-02-27 11:31:08.143911,1709029868.1439114,-58.59375,969.7265625,-74.70703125,-65.4296875,-1.0,1.0,0.0,0.0,4.m4v,3.0
2024-02-27 11:31:08.147807,1709029868.147807,-146.484375,969.7265625,-59.5703125,-162.59765625,-1.0,1.0,0.0,0.0,4.m4v,3.0
2024-02-27 11:31:08.151702,1709029868.1517022,-88.8671875,969.7265625,-50.78125,-129.39453125,-1.0,1.0,0.0,0.0,4.m4v,3.0
2024-02-27 11:31:08.155597,1709029868.1555974,-83.984375,969.7265625,7.8125,-126.953125,-1.0,1.0,0.0,0.0,4.m4v,3.0
2024-02-27 11:31:08.159493,1709029868.1594927,-91.30859375,969.7265625,-41.50390625,-104.00390625,-1.0,1.0,0.0,0.0,4.m4v,3.0
2024-02-27 11:31:08.162011,1709029868.1620111,-1.953125,969.7265625,-145.5078125,-26.3671875,-1.0,1.0,0.0,0.0,4.m4v,3.0
2024-02-27 11:31:08.165905,1709029868.1659057,34.66796875,969.7265625,-62.5,-38.57421875,-1.0,1.0,0.0,0.0,4.m4v,3.0
2024-02-27 11:31:08.169800,1709029868.1697998,34.66796875,969.7265625,-14.6484375,-54.19921875,-1.0,1.0,0.0,0.0,4.m4v,3.0
2024-02-27 11:31:08.173694,1709029868.173694,-61.5234375,971.19140625,-54.6875,-104.00390625,-1.0,1.0,0.0,0.0,4.m4v,3.0
2024-02-27 11:31:08.177588,1709029868.1775885,-104.4921875,963.8671875,30.2734375,-154.78515625,-1.0,1.0,0.0,0.0,4.m4v,3.0
2024-02-27 11:31:08.181483,1709029868.1814828,-29.78515625,981.4453125,-8.7890625,-114.74609375,-1.0,1.0,0.0,0.0,4.m4v,3.0
2024-02-27 11:31:08.185377,1709029868.1853771,60.05859375,938.4765625,-57.6171875,3.90625,-1.0,1.0,0.0,0.0,4.m4v,3.0
2024-02-27 11:31:08.189271,1709029868.1892717,197.265625,854.98046875,-28.80859375,140.13671875,-1.0,1.0,0.0,0.0,4.m4v,3.0
2024-02-27 11:31:08.193166,1709029868.1931658,16.6015625,928.7109375,-70.80078125,-62.98828125,-1.0,1.0,0.0,0.0,4.m4v,3.0
2024-02-27 11:31:08.197060,1709029868.19706,-228.02734375,845.703125,-29.78515625,-311.5234375,-1.0,1.0,0.0,0.0,4.m4v,3.0
2024-02-27 11:31:08.200954,1709029868.2009544,-144.53125,624.0234375,69.3359375,-221.6796875,-1.0,1.0,0.0,0.0,4.m4v,3.0
2024-02-27 11:31:08.204849,1709029868.2048483,-14.16015625,488.76953125,103.515625,-88.37890625,-1.0,1.0,0.0,0.0,4.m4v,3.0
2024-02-27 11:31:08.207389,1709029868.207389,87.890625,425.78125,117.67578125,-27.34375,-1.0,1.0,0.0,0.0,4.m4v,3.0
2024-02-27 11:31:08.211282,1709029868.2112825,64.453125,342.7734375,140.13671875,-68.359375,-1.0,1.0,0.0,0.0,4.m4v,3.0
2024-02-27 11:31:08.215176,1709029868.2151756,-6.8359375,224.12109375,32.71484375,-116.69921875,-1.0,1.0,0.0,0.0,4.m4v,3.0
2024-02-27 11:31:08.219069,1709029868.219069,-10.25390625,311.5234375,36.1328125,-132.8125,-1.0,1.0,0.0,0.0,4.m4v,3.0
2024-02-27 11:31:08.222962,1709029868.2229624,-2.44140625,387.6953125,106.93359375,-120.1171875,-1.0,1.0,0.0,0.0,4.m4v,3.0
2024-02-27 11:31:08.226856,1709029868.2268555,62.5,361.81640625,168.45703125,-53.7109375,-1.0,1.0,0.0,0.0,4.m4v,3.0
2024-02-27 11:31:08.230749,1709029868.230749,42.96875,425.29296875,77.63671875,-95.21484375,-1.0,1.0,0.0,0.0,4.m4v,3.0
2024-02-27 11:31:08.234642,1709029868.2346425,-38.57421875,507.32421875,-36.1328125,-182.12890625,-1.0,1.0,0.0,0.0,4.m4v,3.0
2024-02-27 11:31:08.238535,1709029868.2385354,-54.6875,546.875,20.01953125,-165.52734375,-1.0,1.0,0.0,0.0,4.m4v,3.0
2024-02-27 11:31:08.242429,1709029868.2424288,0.9765625,547.8515625,79.1015625,-108.3984375,-1.0,1.0,0.0,0.0,4.m4v,3.0
2024-02-27 11:31:08.246322,1709029868.2463222,80.078125,472.65625,69.3359375,-72.265625,-1.0,1.0,0.0,0.0,4.m4v,3.0
2024-02-27 11:31:08.250215,1709029868.2502153,107.421875,507.32421875,-51.7578125,-29.78515625,-1.0,1.0,0.0,0.0,4.m4v,3.0
2024-02-27 11:31:08.253106,1709029868.2531056,102.05078125,598.14453125,-5.37109375,-18.06640625,-1.0,1.0,0.0,0.0,4.m4v,3.0
2024-02-27 11:31:08.256998,1709029868.2569983,43.9453125,597.16796875,151.85546875,-89.35546875,-1.0,1.0,0.0,0.0,4.m4v,3.0
2024-02-27 11:31:08.260891,1709029868.260891,20.01953125,590.8203125,61.03515625,-80.56640625,-1.0,1.0,0.0,0.0,4.m4v,3.0
2024-02-27 11:31:08.264783,1709029868.2647834,11.23046875,561.5234375,10.7421875,-54.6875,-1.0,1.0,0.0,0.0,4.m4v,3.0
2024-02-27 11:31:08.268676,1709029868.268676,-11.71875,656.73828125,109.375,-103.02734375,-1.0,1.0,0.0,0.0,4.m4v,3.0
2024-02-27 11:31:08.272568,1709029868.2725685,-47.8515625,767.08984375,111.81640625,-164.0625,-1.0,1.0,0.0,0.0,4.m4v,3.0
2024-02-27 11:31:08.276461,1709029868.2764611,-22.4609375,664.0625,50.78125,-145.01953125,-1.0,1.0,0.0,0.0,4.m4v,3.0
2024-02-27 11:31:08.280354,1709029868.2803538,77.63671875,589.84375,-42.96875,-31.73828125,-1.0,1.0,0.0,0.0,4.m4v,3.0
2024-02-27 11:31:08.284246,1709029868.2842462,53.7109375,687.01171875,-97.16796875,-41.015625,-1.0,1.0,0.0,0.0,4.m4v,3.0
2024-02-27 11:31:08.288139,1709029868.2881389,-64.94140625,734.86328125,20.5078125,-159.66796875,-1.0,1.0,0.0,0.0,4.m4v,3.0
2024-02-27 11:31:08.292031,1709029868.2920313,-61.5234375,680.17578125,169.921875,-148.92578125,-1.0,1.0,0.0,0.0,4.m4v,3.0
2024-02-27 11:31:08.295924,1709029868.295924,-10.25390625,606.93359375,153.80859375,-127.44140625,-1.0,1.0,0.0,0.0,4.m4v,3.0
2024-02-27 11:31:08.298493,1709029868.298493,-10.25390625,575.68359375,105.46875,-113.76953125,-1.0,1.0,0.0,0.0,4.m4v,3.0
2024-02-27 11:31:08.302384,1709029868.3023844,-10.7421875,532.2265625,114.74609375,-83.984375,-1.0,1.0,0.0,0.0,4.m4v,3.0
2024-02-27 11:31:08.306276,1709029868.306276,67.87109375,437.98828125,33.69140625,-46.38671875,-1.0,1.0,0.0,0.0,4.m4v,3.0
2024-02-27 11:31:08.310168,1709029868.3101676,107.421875,408.203125,-15.625,-13.18359375,-1.0,1.0,0.0,0.0,4.m4v,3.0
2024-02-27 11:31:08.314059,1709029868.3140593,46.38671875,398.4375,81.0546875,-66.40625,-1.0,1.0,0.0,0.0,4.m4v,3.0
2024-02-27 11:31:08.317951,1709029868.3179507,-6.8359375,419.43359375,-8.7890625,-84.9609375,-1.0,1.0,0.0,0.0,4.m4v,3.0
2024-02-27 11:31:08.321842,1709029868.3218424,35.15625,436.03515625,-99.12109375,-7.32421875,-1.0,1.0,0.0,0.0,4.m4v,3.0
2024-02-27 11:31:08.325734,1709029868.325734,14.6484375,392.08984375,11.71875,-34.66796875,-1.0,1.0,0.0,0.0,4.m4v,3.0
2024-02-27 11:31:08.329626,1709029868.3296256,-42.48046875,363.28125,39.55078125,-104.4921875,-1.0,1.0,0.0,0.0,4.m4v,3.0
2024-02-27 11:31:08.333517,1709029868.333517,-15.625,340.8203125,-5.859375,-77.1484375,-1.0,1.0,0.0,0.0,4.m4v,3.0
2024-02-27 11:31:08.337409,1709029868.3374088,-30.76171875,332.51953125,8.30078125,-57.12890625,-1.0,1.0,0.0,0.0,4.m4v,3.0
2024-02-27 11:31:08.341300,1709029868.3413002,-32.2265625,335.44921875,18.5546875,-65.4296875,-1.0,1.0,0.0,0.0,4.m4v,3.0
2024-02-27 11:31:08.343791,1709029868.3437908,-14.6484375,345.21484375,21.484375,-60.546875,-1.0,1.0,0.0,0.0,4.m4v,3.0
2024-02-27 11:31:08.347682,1709029868.3476815,-24.4140625,291.015625,0.48828125,-76.66015625,-1.0,1.0,0.0,0.0,4.m4v,3.0
2024-02-27 11:31:08.351572,1709029868.351572,-19.04296875,218.75,-27.83203125,-100.5859375,-1.0,1.0,0.0,0.0,4.m4v,3.0
2024-02-27 11:31:08.355463,1709029868.3554626,41.015625,283.203125,-53.7109375,13.18359375,-1.0,1.0,0.0,0.0,4.m4v,3.0
2024-02-27 11:31:08.359353,1709029868.3593533,-14.16015625,392.08984375,-75.68359375,9.765625,-1.0,1.0,0.0,0.0,4.m4v,3.0
2024-02-27 11:31:08.363244,1709029868.3632438,-108.88671875,426.7578125,-63.96484375,-131.8359375,-1.0,1.0,0.0,0.0,4.m4v,3.0
2024-02-27 11:31:08.367134,1709029868.3671343,-111.81640625,377.9296875,22.4609375,-157.2265625,-1.0,1.0,0.0,0.0,4.m4v,3.0
2024-02-27 11:31:08.371025,1709029868.3710248,-52.734375,296.38671875,-20.5078125,-92.28515625,-1.0,1.0,0.0,0.0,4.m4v,3.0
2024-02-27 11:31:08.374916,1709029868.3749156,-31.25,367.67578125,-23.4375,-42.96875,-1.0,1.0,0.0,0.0,4.m4v,3.0
2024-02-27 11:31:08.378806,1709029868.378806,-133.30078125,454.58984375,78.125,-97.16796875,-1.0,1.0,0.0,0.0,4.m4v,3.0
2024-02-27 11:31:08.382697,1709029868.3826966,-77.63671875,405.76171875,64.94140625,-61.03515625,-1.0,1.0,0.0,0.0,4.m4v,3.0
2024-02-27 11:31:08.386587,1709029868.3865871,40.52734375,378.41796875,-4.8828125,1.46484375,-1.0,1.0,0.0,0.0,4.m4v,3.0
2024-02-27 11:31:08.389119,1709029868.3891194,29.78515625,387.6953125,-167.48046875,4.39453125,-1.0,1.0,0.0,0.0,4.m4v,3.0
2024-02-27 11:31:08.393009,1709029868.393009,-56.640625,427.734375,-61.5234375,-37.109375,-1.0,1.0,0.0,0.0,4.m4v,3.0
2024-02-27 11:31:08.396899,1709029868.3968985,-83.49609375,453.61328125,120.1171875,-78.61328125,-1.0,1.0,0.0,0.0,4.m4v,3.0
2024-02-27 11:31:08.400788,1709029868.400788,-35.15625,394.53125,5.859375,-51.7578125,-1.0,1.0,0.0,0.0,4.m4v,3.0
2024-02-27 11:31:08.404678,1709029868.404678,-7.8125,412.59765625,-76.171875,-28.80859375,-1.0,1.0,0.0,0.0,4.m4v,3.0
2024-02-27 11:31:08.408567,1709029868.4085674,-20.99609375,447.75390625,-41.9921875,-27.83203125,-1.0,1.0,0.0,0.0,4.m4v,3.0
2024-02-27 11:31:08.412457,1709029868.412457,7.32421875,465.33203125,-1.46484375,33.203125,-1.0,1.0,0.0,0.0,4.m4v,3.0
2024-02-27 11:31:08.416347,1709029868.4163463,-59.5703125,541.50390625,88.8671875,-30.76171875,-1.0,1.0,0.0,0.0,4.m4v,3.0
2024-02-27 11:31:08.420236,1709029868.420236,-120.60546875,541.015625,60.546875,-101.07421875,-1.0,1.0,0.0,0.0,4.m4v,3.0
2024-02-27 11:31:08.424126,1709029868.4241257,-21.484375,473.14453125,-47.8515625,-8.7890625,-1.0,1.0,0.0,0.0,4.m4v,3.0
2024-02-27 11:31:08.428015,1709029868.4280157,-19.04296875,482.91015625,-63.4765625,-1.46484375,-1.0,1.0,0.0,0.0,4.m4v,3.0
2024-02-27 11:31:08.431905,1709029868.431905,-91.796875,533.69140625,21.484375,-101.5625,-1.0,1.0,0.0,0.0,4.m4v,3.0
2024-02-27 11:31:08.434432,1709029868.4344325,-94.7265625,516.11328125,80.56640625,-104.00390625,-1.0,1.0,0.0,0.0,4.m4v,3.0
2024-02-27 11:31:08.438321,1709029868.4383209,-43.9453125,457.51953125,40.0390625,-11.23046875,-1.0,1.0,0.0,0.0,4.m4v,3.0
2024-02-27 11:31:08.442210,1709029868.4422095,69.82421875,392.08984375,-90.8203125,70.80078125,-1.0,1.0,0.0,0.0,4.m4v,3.0
2024-02-27 11:31:08.446098,1709029868.4460983,89.84375,453.61328125,-97.16796875,105.95703125,-1.0,1.0,0.0,0.0,4.m4v,3.0
2024-02-27 11:31:08.449987,1709029868.449987,-58.10546875,560.546875,72.75390625,-0.9765625,-1.0,1.0,0.0,0.0,4.m4v,3.0
2024-02-27 11:31:08.453876,1709029868.4538755,-68.84765625,536.1328125,10.25390625,-51.26953125,-1.0,1.0,0.0,0.0,4.m4v,3.0
2024-02-27 11:31:08.457764,1709029868.457764,-2.44140625,541.015625,-92.7734375,17.08984375,-1.0,1.0,0.0,0.0,4.m4v,3.0
2024-02-27 11:31:08.461653,1709029868.4616528,-24.4140625,622.55859375,80.56640625,14.16015625,-1.0,1.0,0.0,0.0,4.m4v,3.0
2024-02-27 11:31:08.465541,1709029868.4655414,-67.3828125,620.1171875,125.0,-46.875,-1.0,1.0,0.0,0.0,4.m4v,3.0
2024-02-27 11:31:08.469430,1709029868.46943,-67.3828125,491.2109375,71.77734375,-57.12890625,-1.0,1.0,0.0,0.0,4.m4v,3.0
2024-02-27 11:31:08.473319,1709029868.4733186,65.91796875,465.33203125,4.39453125,55.6640625,-1.0,1.0,0.0,0.0,4.m4v,3.0
2024-02-27 11:31:08.477207,1709029868.4772074,68.84765625,584.47265625,-49.31640625,67.87109375,-1.0,1.0,0.0,0.0,4.m4v,3.0
2024-02-27 11:31:08.479790,1709029868.47979,-52.24609375,549.31640625,-35.15625,-17.578125,-1.0,1.0,0.0,0.0,4.m4v,3.0
2024-02-27 11:31:08.483678,1709029868.4836776,-44.43359375,461.42578125,53.7109375,-26.85546875,-1.0,1.0,0.0,0.0,4.m4v,3.0
2024-02-27 11:31:08.487565,1709029868.4875653,-7.32421875,474.609375,32.71484375,0.0,-1.0,1.0,0.0,0.0,4.m4v,3.0
2024-02-27 11:31:08.491453,1709029868.4914532,19.53125,456.54296875,-25.390625,77.63671875,-1.0,1.0,0.0,0.0,4.m4v,3.0
2024-02-27 11:31:08.495341,1709029868.4953408,-12.20703125,491.69921875,74.70703125,48.828125,-1.0,1.0,0.0,0.0,4.m4v,3.0
2024-02-27 11:31:08.499228,1709029868.4992285,-52.734375,597.16796875,69.82421875,-28.80859375,-1.0,1.0,0.0,0.0,4.m4v,3.0
2024-02-27 11:31:08.503116,1709029868.503116,-105.95703125,564.453125,24.90234375,-90.8203125,-1.0,1.0,0.0,0.0,4.m4v,3.0
2024-02-27 11:31:08.507004,1709029868.507004,-101.07421875,479.98046875,7.8125,-79.58984375,-1.0,1.0,0.0,0.0,4.m4v,3.0
2024-02-27 11:31:08.510892,1709029868.5108917,-41.015625,457.03125,2.9296875,-9.27734375,-1.0,1.0,0.0,0.0,4.m4v,3.0
2024-02-27 11:31:08.514779,1709029868.514779,-1.953125,430.6640625,24.90234375,11.71875,-1.0,1.0,0.0,0.0,4.m4v,3.0
2024-02-27 11:31:08.518667,1709029868.518667,11.23046875,393.5546875,-40.52734375,11.23046875,-1.0,1.0,0.0,0.0,4.m4v,3.0
2024-02-27 11:31:08.522555,1709029868.5225549,-8.7890625,464.35546875,-84.9609375,-1.46484375,-1.0,1.0,0.0,0.0,4.m4v,3.0
2024-02-27 11:31:08.525477,1709029868.5254772,-9.27734375,498.53515625,-62.01171875,6.34765625,-1.0,1.0,0.0,0.0,4.m4v,3.0
2024-02-27 11:31:08.529364,1709029868.529364,-39.0625,482.91015625,-14.16015625,-24.90234375,-1.0,1.0,0.0,0.0,4.m4v,3.0
2024-02-27 11:31:08.533251,1709029868.533251,-81.0546875,463.37890625,55.6640625,-57.12890625,-1.0,1.0,0.0,0.0,4.m4v,3.0
2024-02-27 11:31:08.537138,1709029868.5371382,-55.17578125,428.22265625,37.59765625,-32.71484375,-1.0,1.0,0.0,0.0,4.m4v,3.0
2024-02-27 11:31:08.541025,1709029868.5410252,-32.71484375,424.31640625,16.11328125,-43.45703125,-1.0,1.0,0.0,0.0,4.m4v,3.0
2024-02-27 11:31:08.544912,1709029868.5449123,-55.17578125,443.84765625,-21.484375,-42.96875,-1.0,1.0,0.0,0.0,4.m4v,3.0
2024-02-27 11:31:08.548799,1709029868.5487993,-15.13671875,352.5390625,3.90625,21.97265625,-1.0,1.0,0.0,0.0,4.m4v,3.0
2024-02-27 11:31:08.552686,1709029868.5526862,21.484375,328.61328125,-8.7890625,53.22265625,-1.0,1.0,0.0,0.0,4.m4v,3.0
2024-02-27 11:31:08.556573,1709029868.5565734,-77.1484375,373.046875,-55.17578125,-6.34765625,-1.0,1.0,0.0,0.0,4.m4v,3.0
2024-02-27 11:31:08.560460,1709029868.5604603,-92.7734375,371.58203125,-44.43359375,-24.4140625,-1.0,1.0,0.0,0.0,4.m4v,3.0
2024-02-27 11:31:08.564348,1709029868.5643475,-62.5,402.83203125,-56.15234375,-36.1328125,-1.0,1.0,0.0,0.0,4.m4v,3.0
2024-02-27 11:31:08.568234,1709029868.5682344,-64.453125,410.15625,13.18359375,-47.8515625,-1.0,1.0,0.0,0.0,4.m4v,3.0
2024-02-27 11:31:08.571113,1709029868.5711129,-76.66015625,359.86328125,25.390625,-32.71484375,-1.0,1.0,0.0,0.0,4.m4v,3.0
2024-02-27 11:31:08.574999,1709029868.574999,-16.11328125,333.49609375,55.6640625,18.06640625,-1.0,1.0,0.0,0.0,4.m4v,3.0
2024-02-27 11:31:08.578885,1709029868.5788853,10.7421875,374.51171875,2.44140625,14.6484375,-1.0,1.0,0.0,0.0,4.m4v,3.0
2024-02-27 11:31:08.582772,1709029868.5827718,-78.61328125,398.4375,-47.36328125,-54.6875,-1.0,1.0,0.0,0.0,4.m4v,3.0
2024-02-27 11:31:08.586658,1709029868.586658,-92.28515625,417.48046875,-4.39453125,-68.359375,-1.0,1.0,0.0,0.0,4.m4v,3.0
2024-02-27 11:31:08.590544,1709029868.5905445,-61.03515625,401.85546875,-9.765625,-37.109375,-1.0,1.0,0.0,0.0,4.m4v,3.0
2024-02-27 11:31:08.594431,1709029868.5944307,-34.1796875,377.44140625,-27.34375,-22.94921875,-1.0,1.0,0.0,0.0,4.m4v,3.0
2024-02-27 11:31:08.598317,1709029868.5983171,-30.76171875,359.86328125,-32.71484375,-45.8984375,-1.0,1.0,0.0,0.0,4.m4v,3.0
2024-02-27 11:31:08.602203,1709029868.6022034,-51.7578125,327.63671875,-11.23046875,-72.75390625,-1.0,1.0,0.0,0.0,4.m4v,3.0
2024-02-27 11:31:08.606090,1709029868.6060898,-53.7109375,298.33984375,-26.3671875,-56.640625,-1.0,1.0,0.0,0.0,4.m4v,3.0
2024-02-27 11:31:08.609976,1709029868.609976,-28.80859375,336.42578125,-38.57421875,-18.5546875,-1.0,1.0,0.0,0.0,4.m4v,3.0
2024-02-27 11:31:08.613863,1709029868.6138625,-27.83203125,354.98046875,1.953125,-11.23046875,-1.0,1.0,0.0,0.0,4.m4v,3.0
2024-02-27 11:31:08.616756,1709029868.6167562,-61.5234375,320.80078125,9.27734375,-49.31640625,-1.0,1.0,0.0,0.0,4.m4v,3.0
2024-02-27 11:31:08.620642,1709029868.620642,-79.1015625,277.34375,-14.16015625,-64.94140625,-1.0,1.0,0.0,0.0,4.m4v,3.0
2024-02-27 11:31:08.624528,1709029868.6245277,-109.86328125,276.3671875,-25.87890625,-63.4765625,-1.0,1.0,0.0,0.0,4.m4v,3.0
2024-02-27 11:31:08.628413,1709029868.6284132,-111.81640625,317.87109375,-87.40234375,-31.25,-1.0,1.0,0.0,0.0,4.m4v,3.0
2024-02-27 11:31:08.632299,1709029868.632299,-141.6015625,330.078125,-3.90625,-45.41015625,-1.0,1.0,0.0,0.0,4.m4v,3.0
2024-02-27 11:31:08.636184,1709029868.6361845,-208.0078125,305.6640625,28.80859375,-127.9296875,-1.0,1.0,0.0,0.0,4.m4v,3.0
2024-02-27 11:31:08.640070,1709029868.6400702,-193.84765625,250.9765625,-23.4375,-126.953125,-1.0,1.0,0.0,0.0,4.m4v,3.0
2024-02-27 11:31:08.643956,1709029868.643956,-214.84375,259.27734375,-1.46484375,-132.8125,-1.0,1.0,0.0,0.0,4.m4v,3.0
2024-02-27 11:31:08.647841,1709029868.6478417,-219.7265625,287.109375,17.578125,-136.71875,-1.0,1.0,0.0,0.0,4.m4v,3.0
2024-02-27 11:31:08.651727,1709029868.6517272,-206.54296875,269.53125,2.44140625,-126.953125,-1.0,1.0,0.0,0.0,4.m4v,3.0
2024-02-27 11:31:08.655613,1709029868.6556127,-162.109375,263.18359375,-20.01953125,-84.9609375,-1.0,1.0,0.0,0.0,4.m4v,3.0
2024-02-27 11:31:08.659498,1709029868.6594985,-137.20703125,256.34765625,-12.20703125,-84.47265625,-1.0,1.0,0.0,0.0,4.m4v,3.0
2024-02-27 11:31:08.662354,1709029868.662354,-207.51953125,218.75,25.390625,-183.59375,-1.0,1.0,0.0,0.0,4.m4v,3.0
2024-02-27 11:31:08.666239,1709029868.6662388,-190.4296875,210.9375,-15.13671875,-157.2265625,-1.0,1.0,0.0,0.0,4.m4v,3.0
2024-02-27 11:31:08.670124,1709029868.6701238,-135.7421875,210.9375,-57.12890625,-83.49609375,-1.0,1.0,0.0,0.0,4.m4v,3.0
2024-02-27 11:31:08.674009,1709029868.6740088,-145.01953125,206.54296875,8.7890625,-98.6328125,-1.0,1.0,0.0,0.0,4.m4v,3.0
2024-02-27 11:31:08.677894,1709029868.6778936,-96.19140625,192.3828125,75.68359375,-74.70703125,-1.0,1.0,0.0,0.0,4.m4v,3.0
2024-02-27 11:31:08.681779,1709029868.681779,-47.8515625,203.125,80.078125,-42.48046875,-1.0,1.0,0.0,0.0,4.m4v,3.0
2024-02-27 11:31:08.685664,1709029868.6856637,-130.37109375,180.17578125,12.20703125,-114.74609375,-1.0,1.0,0.0,0.0,4.m4v,3.0
2024-02-27 11:31:08.689548,1709029868.6895485,-113.76953125,99.12109375,23.4375,-73.2421875,-1.0,1.0,0.0,0.0,4.m4v,3.0
2024-02-27 11:31:08.693434,1709029868.6934335,-78.61328125,95.703125,1.953125,-29.296875,-1.0,1.0,0.0,0.0,4.m4v,3.0
2024-02-27 11:31:08.697318,1709029868.6973183,-114.74609375,157.71484375,-29.78515625,-71.77734375,-1.0,1.0,0.0,0.0,4.m4v,3.0
2024-02-27 11:31:08.701203,1709029868.701203,-98.6328125,162.59765625,45.8984375,-45.41015625,-1.0,1.0,0.0,0.0,4.m4v,3.0
2024-02-27 11:31:08.705088,1709029868.7050884,-73.73046875,146.97265625,45.41015625,-42.96875,-1.0,1.0,0.0,0.0,4.m4v,3.0
2024-02-27 11:31:08.707983,1709029868.707983,-88.8671875,126.953125,46.38671875,-70.3125,-1.0,1.0,0.0,0.0,4.m4v,3.0
2024-02-27 11:31:08.711867,1709029868.711867,-110.3515625,92.7734375,48.828125,-60.05859375,-1.0,1.0,0.0,0.0,4.m4v,3.0
2024-02-27 11:31:08.715751,1709029868.7157514,-66.40625,74.21875,5.859375,-23.92578125,-1.0,1.0,0.0,0.0,4.m4v,3.0
2024-02-27 11:31:08.719636,1709029868.7196355,-68.359375,54.6875,23.4375,9.27734375,-1.0,1.0,0.0,0.0,4.m4v,3.0
2024-02-27 11:31:08.723520,1709029868.72352,-92.28515625,24.90234375,31.25,7.8125,-1.0,1.0,0.0,0.0,4.m4v,3.0
2024-02-27 11:31:08.727404,1709029868.7274044,-58.59375,25.390625,12.20703125,25.390625,-1.0,1.0,0.0,0.0,4.m4v,3.0
2024-02-27 11:31:08.731289,1709029868.731289,-42.48046875,-13.18359375,33.203125,48.33984375,-1.0,1.0,0.0,0.0,4.m4v,3.0
2024-02-27 11:31:08.735173,1709029868.735173,11.23046875,-84.9609375,7.8125,47.36328125,-1.0,1.0,0.0,0.0,4.m4v,3.0
2024-02-27 11:31:08.739057,1709029868.739057,50.29296875,-112.3046875,-5.859375,60.05859375,-1.0,1.0,0.0,0.0,4.m4v,3.0
2024-02-27 11:31:08.742941,1709029868.7429414,56.640625,-161.62109375,14.6484375,90.8203125,-1.0,1.0,0.0,0.0,4.m4v,3.0
2024-02-27 11:31:08.746826,1709029868.7468257,64.453125,-262.20703125,-0.48828125,109.86328125,-1.0,1.0,0.0,0.0,4.m4v,3.0
2024-02-27 11:31:08.750710,1709029868.75071,88.8671875,-355.46875,-9.27734375,112.79296875,-1.0,1.0,0.0,0.0,4.m4v,3.0
2024-02-27 11:31:08.753557,1709029868.7535567,113.28125,-428.7109375,-12.20703125,123.53515625,-1.0,1.0,0.0,0.0,4.m4v,3.0
2024-02-27 11:31:08.757440,1709029868.7574403,103.02734375,-497.55859375,-35.64453125,118.1640625,-1.0,1.0,0.0,0.0,4.m4v,3.0
2024-02-27 11:31:08.761324,1709029868.761324,103.02734375,-570.3125,-48.828125,121.58203125,-1.0,1.0,0.0,0.0,4.m4v,3.0
2024-02-27 11:31:08.765208,1709029868.7652075,116.69921875,-664.0625,-13.671875,147.4609375,-1.0,1.0,0.0,0.0,4.m4v,3.0
2024-02-27 11:31:08.769091,1709029868.7690911,111.81640625,-765.13671875,-9.765625,119.62890625,-1.0,1.0,0.0,0.0,4.m4v,3.0
2024-02-27 11:31:08.772975,1709029868.7729747,109.86328125,-850.09765625,-17.08984375,98.14453125,-1.0,1.0,0.0,0.0,4.m4v,3.0
2024-02-27 11:31:08.776858,1709029868.7768583,126.46484375,-943.84765625,-70.80078125,109.86328125,-1.0,1.0,0.0,0.0,4.m4v,3.0
2024-02-27 11:31:08.780742,1709029868.780742,90.8203125,-995.60546875,-69.3359375,89.84375,-1.0,1.0,0.0,0.0,4.m4v,3.0
2024-02-27 11:31:08.784626,1709029868.7846255,46.875,-999.0234375,18.06640625,69.82421875,-1.0,1.0,0.0,0.0,4.m4v,3.0
2024-02-27 11:31:08.788509,1709029868.7885091,70.80078125,-999.51171875,-17.578125,102.05078125,-1.0,1.0,0.0,0.0,4.m4v,3.0
2024-02-27 11:31:08.792392,1709029868.7923925,112.79296875,-1000.0,-54.19921875,125.48828125,-1.0,1.0,0.0,0.0,4.m4v,3.0
2024-02-27 11:31:08.796276,1709029868.796276,57.6171875,-1000.0,-26.3671875,53.22265625,-1.0,1.0,0.0,0.0,4.m4v,3.0
2024-02-27 11:31:08.799454,1709029868.7994545,32.71484375,-1000.0,-24.90234375,31.73828125,-1.0,1.0,0.0,0.0,4.m4v,3.0
2024-02-27 11:31:08.803338,1709029868.8033376,31.73828125,-1000.0,11.71875,66.89453125,-1.0,1.0,0.0,0.0,4.m4v,3.0
2024-02-27 11:31:08.807221,1709029868.8072207,46.38671875,-1000.0,26.85546875,77.63671875,-1.0,1.0,0.0,0.0,4.m4v,3.0
2024-02-27 11:31:08.811104,1709029868.8111036,59.5703125,-1000.0,-12.6953125,62.5,-1.0,1.0,0.0,0.0,4.m4v,3.0
2024-02-27 11:31:08.814987,1709029868.8149867,-6.34765625,-1000.0,-0.48828125,-2.44140625,-1.0,1.0,0.0,0.0,4.m4v,3.0
2024-02-27 11:31:08.818870,1709029868.8188698,-35.64453125,-1000.0,-6.8359375,-34.66796875,-1.0,1.0,0.0,0.0,4.m4v,3.0
2024-02-27 11:31:08.822753,1709029868.822753,-4.8828125,-1000.0,-28.3203125,7.8125,-1.0,1.0,0.0,0.0,4.m4v,3.0
2024-02-27 11:31:08.826636,1709029868.826636,33.69140625,-1000.0,-31.73828125,35.64453125,-1.0,1.0,0.0,0.0,4.m4v,3.0
2024-02-27 11:31:08.830519,1709029868.8305192,21.97265625,-999.0234375,-10.7421875,30.76171875,-1.0,1.0,0.0,0.0,4.m4v,3.0
2024-02-27 11:31:08.834402,1709029868.8344023,57.12890625,-1000.0,-52.734375,61.5234375,-1.0,1.0,0.0,0.0,4.m4v,3.0
2024-02-27 11:31:08.838285,1709029868.8382854,74.70703125,-983.88671875,-91.796875,85.44921875,-1.0,1.0,0.0,0.0,4.m4v,3.0
2024-02-27 11:31:08.842169,1709029868.8421686,31.73828125,-947.265625,-22.94921875,53.7109375,-1.0,1.0,0.0,0.0,4.m4v,3.0
2024-02-27 11:31:08.845320,1709029868.8453195,37.109375,-921.38671875,4.39453125,35.15625,-1.0,1.0,0.0,0.0,4.m4v,3.0
2024-02-27 11:31:08.849202,1709029868.8492022,-6.8359375,-907.2265625,1.46484375,-9.27734375,-1.0,1.0,0.0,0.0,4.m4v,3.0
2024-02-27 11:31:08.853085,1709029868.8530848,-58.10546875,-910.64453125,-27.83203125,-26.85546875,-1.0,1.0,0.0,0.0,4.m4v,3.0
2024-02-27 11:31:08.856967,1709029868.8569674,-32.2265625,-907.2265625,-28.3203125,-1.46484375,-1.0,1.0,0.0,0.0,4.m4v,3.0
2024-02-27 11:31:08.860850,1709029868.86085,-6.34765625,-878.41796875,-20.99609375,31.25,-1.0,1.0,0.0,0.0,4.m4v,3.0
2024-02-27 11:31:08.864733,1709029868.8647327,-8.30078125,-812.01171875,-87.890625,54.19921875,-1.0,1.0,0.0,0.0,4.m4v,3.0
2024-02-27 11:31:08.868615,1709029868.8686154,23.4375,-742.67578125,-86.9140625,85.9375,-1.0,1.0,0.0,0.0,4.m4v,3.0
2024-02-27 11:31:08.872498,1709029868.872498,12.20703125,-743.65234375,-30.2734375,34.66796875,-1.0,1.0,0.0,0.0,4.m4v,3.0
2024-02-27 11:31:08.876380,1709029868.8763804,-41.9921875,-737.79296875,0.9765625,-64.94140625,-1.0,1.0,0.0,0.0,4.m4v,3.0
2024-02-27 11:31:08.880263,1709029868.880263,-78.61328125,-667.96875,-20.99609375,-66.40625,-1.0,1.0,0.0,0.0,4.m4v,3.0
2024-02-27 11:31:08.884146,1709029868.8841455,-73.73046875,-615.234375,-29.78515625,-37.109375,-1.0,1.0,0.0,0.0,4.m4v,3.0
2024-02-27 11:31:08.888028,1709029868.8880284,-55.17578125,-594.7265625,-61.03515625,-44.921875,-1.0,1.0,0.0,0.0,4.m4v,3.0
2024-02-27 11:31:08.891171,1709029868.8911712,-42.96875,-593.26171875,-74.70703125,-60.546875,-1.0,1.0,0.0,0.0,4.m4v,3.0
2024-02-27 11:31:08.895053,1709029868.8950534,-53.7109375,-607.421875,-33.203125,-64.453125,-1.0,1.0,0.0,0.0,4.m4v,3.0
2024-02-27 11:31:08.898936,1709029868.8989356,-52.24609375,-574.70703125,-18.5546875,-68.84765625,-1.0,1.0,0.0,0.0,4.m4v,3.0
2024-02-27 11:31:08.902818,1709029868.9028175,-48.828125,-555.6640625,-0.48828125,-53.7109375,-1.0,1.0,0.0,0.0,4.m4v,3.0
2024-02-27 11:31:08.906700,1709029868.9067,-41.9921875,-556.640625,-30.76171875,-40.52734375,-1.0,1.0,0.0,0.0,4.m4v,3.0
2024-02-27 11:31:08.910582,1709029868.9105818,-27.34375,-543.45703125,-73.73046875,-33.203125,-1.0,1.0,0.0,0.0,4.m4v,3.0
2024-02-27 11:31:08.914464,1709029868.914464,-19.53125,-527.83203125,-59.08203125,-41.015625,-1.0,1.0,0.0,0.0,4.m4v,3.0
2024-02-27 11:31:08.918346,1709029868.9183462,-34.1796875,-529.78515625,-17.08984375,-59.5703125,-1.0,1.0,0.0,0.0,4.m4v,3.0
2024-02-27 11:31:08.922228,1709029868.9222283,-50.78125,-533.203125,2.44140625,-45.8984375,-1.0,1.0,0.0,0.0,4.m4v,3.0
2024-02-27 11:31:08.926111,1709029868.9261105,-36.1328125,-525.87890625,-37.59765625,-18.5546875,-1.0,1.0,0.0,0.0,4.m4v,3.0
2024-02-27 11:31:08.929993,1709029868.929993,-47.36328125,-512.6953125,-52.24609375,-47.36328125,-1.0,1.0,0.0,0.0,4.m4v,3.0
2024-02-27 11:31:08.933875,1709029868.9338748,-53.7109375,-499.0234375,-15.625,-57.6171875,-1.0,1.0,0.0,0.0,4.m4v,3.0
2024-02-27 11:31:08.937041,1709029868.9370413,-41.015625,-506.8359375,-12.6953125,-41.50390625,-1.0,1.0,0.0,0.0,4.m4v,3.0
2024-02-27 11:31:08.940923,1709029868.940923,-48.33984375,-502.44140625,-56.640625,-30.2734375,-1.0,1.0,0.0,0.0,4.m4v,3.0
2024-02-27 11:31:08.944805,1709029868.944805,-48.828125,-480.95703125,-47.36328125,-0.9765625,-1.0,1.0,0.0,0.0,4.m4v,3.0
2024-02-27 11:31:08.948686,1709029868.9486864,-32.2265625,-496.09375,-28.3203125,-14.16015625,-1.0,1.0,0.0,0.0,4.m4v,3.0
2024-02-27 11:31:08.952568,1709029868.9525678,-47.36328125,-535.15625,-72.265625,-44.921875,-1.0,1.0,0.0,0.0,4.m4v,3.0
2024-02-27 11:31:08.956450,1709029868.9564495,-56.15234375,-505.37109375,-70.80078125,-48.33984375,-1.0,1.0,0.0,0.0,4.m4v,3.0
2024-02-27 11:31:08.960331,1709029868.9603312,-47.36328125,-474.12109375,-79.58984375,-36.1328125,-1.0,1.0,0.0,0.0,4.m4v,3.0
2024-02-27 11:31:08.964213,1709029868.964213,-66.89453125,-479.00390625,-100.09765625,-36.62109375,-1.0,1.0,0.0,0.0,4.m4v,3.0
2024-02-27 11:31:08.968095,1709029868.9680946,-76.171875,-430.6640625,-58.10546875,-48.33984375,-1.0,1.0,0.0,0.0,4.m4v,3.0
2024-02-27 11:31:08.971976,1709029868.9719765,-70.80078125,-380.859375,-38.57421875,-65.91796875,-1.0,1.0,0.0,0.0,4.m4v,3.0
2024-02-27 11:31:08.975858,1709029868.975858,-75.68359375,-347.65625,-57.12890625,-79.1015625,-1.0,1.0,0.0,0.0,4.m4v,3.0
2024-02-27 11:31:08.979740,1709029868.9797397,-82.51953125,-321.2890625,-79.1015625,-62.5,-1.0,1.0,0.0,0.0,4.m4v,3.0
2024-02-27 11:31:08.982856,1709029868.9828556,-56.640625,-294.921875,-66.89453125,-31.25,-1.0,1.0,0.0,0.0,4.m4v,3.0
2024-02-27 11:31:08.986737,1709029868.9867368,-54.6875,-196.2890625,-60.546875,-60.546875,-1.0,1.0,0.0,0.0,4.m4v,3.0
2024-02-27 11:31:08.990618,1709029868.990618,-109.86328125,-64.94140625,-84.9609375,-131.34765625,-1.0,1.0,0.0,0.0,4.m4v,3.0
2024-02-27 11:31:08.994499,1709029868.9944992,-120.1171875,-51.7578125,-91.796875,-109.86328125,-1.0,1.0,0.0,0.0,4.m4v,3.0
2024-02-27 11:31:08.998380,1709029868.9983804,-90.33203125,-79.58984375,-132.32421875,-54.19921875,-1.0,1.0,0.0,0.0,4.m4v,3.0
2024-02-27 11:31:09.002261,1709029869.0022614,-75.1953125,14.6484375,-115.234375,-40.0390625,-1.0,1.0,0.0,0.0,4.m4v,3.0
2024-02-27 11:31:09.006143,1709029869.0061426,-102.05078125,252.9296875,-74.70703125,-66.89453125,-1.0,1.0,0.0,0.0,4.m4v,3.0
2024-02-27 11:31:09.010024,1709029869.0100238,-134.765625,497.0703125,-62.5,-111.328125,-1.0,1.0,0.0,0.0,4.m4v,3.0
2024-02-27 11:31:09.013905,1709029869.013905,-139.16015625,658.69140625,-65.4296875,-112.3046875,-1.0,1.0,0.0,0.0,4.m4v,3.0
2024-02-27 11:31:09.017786,1709029869.0177865,-126.953125,746.58203125,-83.0078125,-86.42578125,-1.0,1.0,0.0,0.0,4.m4v,3.0
2024-02-27 11:31:09.021667,1709029869.0216677,-106.93359375,786.62109375,-87.40234375,-58.59375,-1.0,1.0,0.0,0.0,4.m4v,3.0
2024-02-27 11:31:09.025548,1709029869.0255485,-95.21484375,808.59375,-77.63671875,-38.0859375,-1.0,1.0,0.0,0.0,4.m4v,3.0
2024-02-27 11:31:09.028651,1709029869.0286512,-102.5390625,829.58984375,-57.6171875,-57.6171875,-1.0,1.0,0.0,0.0,4.m4v,3.0
2024-02-27 11:31:09.032532,1709029869.0325315,-98.14453125,830.56640625,-53.22265625,-83.0078125,-1.0,1.0,0.0,0.0,4.m4v,3.0
2024-02-27 11:31:09.036412,1709029869.0364125,-87.40234375,821.77734375,-78.125,-80.56640625,-1.0,1.0,0.0,0.0,4.m4v,3.0
2024-02-27 11:31:09.040293,1709029869.0402932,-86.42578125,811.03515625,-71.77734375,-64.94140625,-1.0,1.0,0.0,0.0,4.m4v,3.0
2024-02-27 11:31:09.044174,1709029869.044174,-63.96484375,784.66796875,-60.05859375,-54.6875,-1.0,1.0,0.0,0.0,4.m4v,3.0
2024-02-27 11:31:09.048054,1709029869.0480545,-61.5234375,755.859375,-47.36328125,-80.56640625,-1.0,1.0,0.0,0.0,4.m4v,3.0
2024-02-27 11:31:09.051935,1709029869.0519352,-71.77734375,737.79296875,-37.109375,-103.02734375,-1.0,1.0,0.0,0.0,4.m4v,3.0
2024-02-27 11:31:09.055816,1709029869.055816,-69.82421875,723.6328125,-57.12890625,-92.28515625,-1.0,1.0,0.0,0.0,4.m4v,3.0
2024-02-27 11:31:09.059697,1709029869.059697,-64.94140625,665.0390625,-84.47265625,-50.78125,-1.0,1.0,0.0,0.0,4.m4v,3.0
2024-02-27 11:31:09.063577,1709029869.0635772,-52.734375,616.2109375,-82.51953125,-32.71484375,-1.0,1.0,0.0,0.0,4.m4v,3.0
2024-02-27 11:31:09.067458,1709029869.067458,-50.29296875,628.41796875,-45.8984375,-41.015625,-1.0,1.0,0.0,0.0,4.m4v,3.0
2024-02-27 11:31:09.071339,1709029869.071339,-51.26953125,609.86328125,-22.4609375,-46.38671875,-1.0,1.0,0.0,0.0,4.m4v,3.0
2024-02-27 11:31:09.074429,1709029869.0744288,-77.1484375,573.73046875,-25.390625,-48.33984375,-1.0,1.0,0.0,0.0,4.m4v,3.0
2024-02-27 11:31:09.078309,1709029869.078309,-93.26171875,551.7578125,-25.87890625,-30.2734375,-1.0,1.0,0.0,0.0,4.m4v,3.0
2024-02-27 11:31:09.082189,1709029869.082189,-80.56640625,536.1328125,-53.22265625,-23.92578125,-1.0,1.0,0.0,0.0,4.m4v,3.0
2024-02-27 11:31:09.086069,1709029869.086069,-54.6875,518.5546875,-70.80078125,-9.765625,-1.0,1.0,0.0,0.0,4.m4v,3.0
2024-02-27 11:31:09.089950,1709029869.0899496,-33.69140625,504.8828125,-50.78125,-11.23046875,-1.0,1.0,0.0,0.0,4.m4v,3.0
2024-02-27 11:31:09.093830,1709029869.09383,-55.6640625,506.34765625,-36.1328125,-44.43359375,-1.0,1.0,0.0,0.0,4.m4v,3.0
2024-02-27 11:31:09.097710,1709029869.09771,-69.82421875,496.09375,-32.71484375,-49.8046875,-1.0,1.0,0.0,0.0,4.m4v,3.0
2024-02-27 11:31:09.101590,1709029869.1015902,-50.78125,458.0078125,-23.92578125,-40.0390625,-1.0,1.0,0.0,0.0,4.m4v,3.0
2024-02-27 11:31:09.105470,1709029869.1054704,-29.296875,416.9921875,-31.25,-35.64453125,-1.0,1.0,0.0,0.0,4.m4v,3.0
2024-02-27 11:31:09.109350,1709029869.1093504,-45.41015625,406.25,-22.94921875,-47.8515625,-1.0,1.0,0.0,0.0,4.m4v,3.0
2024-02-27 11:31:09.113231,1709029869.1132307,-55.17578125,411.62109375,-9.27734375,-63.96484375,-1.0,1.0,0.0,0.0,4.m4v,3.0
2024-02-27 11:31:09.117111,1709029869.1171107,-61.5234375,408.69140625,-19.04296875,-62.98828125,-1.0,1.0,0.0,0.0,4.m4v,3.0
2024-02-27 11:31:09.120226,1709029869.1202264,-74.70703125,383.30078125,-14.6484375,-71.2890625,-1.0,1.0,0.0,0.0,4.m4v,3.0
2024-02-27 11:31:09.124106,1709029869.1241062,-70.80078125,351.07421875,-14.6484375,-67.87109375,-1.0,1.0,0.0,0.0,4.m4v,3.0
2024-02-27 11:31:09.127986,1709029869.127986,-51.26953125,324.21875,-41.9921875,-41.9921875,-1.0,1.0,0.0,0.0,4.m4v,3.0
2024-02-27 11:31:09.131866,1709029869.1318655,-41.50390625,329.1015625,-66.40625,-24.90234375,-1.0,1.0,0.0,0.0,4.m4v,3.0
2024-02-27 11:31:09.135745,1709029869.1357453,-63.4765625,312.5,-32.71484375,-19.53125,-1.0,1.0,0.0,0.0,4.m4v,3.0
2024-02-27 11:31:09.139625,1709029869.1396248,-63.4765625,272.94921875,-11.23046875,-10.7421875,-1.0,1.0,0.0,0.0,4.m4v,3.0
2024-02-27 11:31:09.143505,1709029869.1435046,-59.5703125,236.328125,-43.9453125,-6.8359375,-1.0,1.0,0.0,0.0,4.m4v,3.0
2024-02-27 11:31:09.147384,1709029869.1473844,-53.7109375,205.078125,-35.15625,-32.2265625,-1.0,1.0,0.0,0.0,4.m4v,3.0
2024-02-27 11:31:09.151264,1709029869.151264,-15.13671875,191.89453125,-14.6484375,-22.94921875,-1.0,1.0,0.0,0.0,4.m4v,3.0
2024-02-27 11:31:09.155144,1709029869.1551435,-32.71484375,179.19921875,-26.3671875,-8.7890625,-1.0,1.0,0.0,0.0,4.m4v,3.0
2024-02-27 11:31:09.159023,1709029869.1590233,-92.28515625,161.1328125,-31.25,-46.875,-1.0,1.0,0.0,0.0,4.m4v,3.0
2024-02-27 11:31:09.162903,1709029869.162903,-69.3359375,133.30078125,-25.87890625,-47.36328125,-1.0,1.0,0.0,0.0,4.m4v,3.0
2024-02-27 11:31:09.165961,1709029869.165961,-44.921875,92.28515625,-13.18359375,-38.0859375,-1.0,1.0,0.0,0.0,4.m4v,3.0
2024-02-27 11:31:09.169840,1709029869.1698403,-41.50390625,42.48046875,-16.11328125,-37.109375,-1.0,1.0,0.0,0.0,4.m4v,3.0
2024-02-27 11:31:09.173719,1709029869.1737194,-31.73828125,1.953125,-12.20703125,-25.87890625,-1.0,1.0,0.0,0.0,4.m4v,3.0
2024-02-27 11:31:09.177599,1709029869.1775987,-58.10546875,-38.0859375,-10.7421875,-29.78515625,-1.0,1.0,0.0,0.0,4.m4v,3.0
2024-02-27 11:31:09.181478,1709029869.1814778,-77.63671875,-75.68359375,-13.18359375,-62.98828125,-1.0,1.0,0.0,0.0,4.m4v,3.0
2024-02-27 11:31:09.185357,1709029869.185357,-74.70703125,-94.7265625,-19.04296875,-80.56640625,-1.0,1.0,0.0,0.0,4.m4v,3.0
2024-02-27 11:31:09.189236,1709029869.1892362,-60.05859375,-126.46484375,-31.25,-73.2421875,-1.0,1.0,0.0,0.0,4.m4v,3.0
2024-02-27 11:31:09.193115,1709029869.1931157,-46.875,-172.36328125,-33.203125,-66.89453125,-1.0,1.0,0.0,0.0,4.m4v,3.0
2024-02-27 11:31:09.196995,1709029869.1969943,-41.9921875,-193.84765625,-22.94921875,-48.33984375,-1.0,1.0,0.0,0.0,4.m4v,3.0
2024-02-27 11:31:09.200874,1709029869.2008736,-48.828125,-202.63671875,-32.2265625,-53.7109375,-1.0,1.0,0.0,0.0,4.m4v,3.0
2024-02-27 11:31:09.204753,1709029869.204753,-59.08203125,-218.26171875,-41.9921875,-55.17578125,-1.0,1.0,0.0,0.0,4.m4v,3.0
2024-02-27 11:31:09.208632,1709029869.208632,-64.94140625,-235.3515625,-30.2734375,-51.26953125,-1.0,1.0,0.0,0.0,4.m4v,3.0
2024-02-27 11:31:09.211995,1709029869.2119946,-60.546875,-246.09375,-18.06640625,-52.24609375,-1.0,1.0,0.0,0.0,4.m4v,3.0
2024-02-27 11:31:09.215873,1709029869.2158737,-49.8046875,-259.27734375,-16.11328125,-35.64453125,-1.0,1.0,0.0,0.0,4.m4v,3.0
2024-02-27 11:31:09.219752,1709029869.2197523,-54.6875,-276.3671875,-41.9921875,-33.203125,-1.0,1.0,0.0,0.0,4.m4v,3.0
2024-02-27 11:31:09.223631,1709029869.2236311,-55.6640625,-271.97265625,-43.9453125,-50.78125,-1.0,1.0,0.0,0.0,4.m4v,3.0
2024-02-27 11:31:09.227510,1709029869.22751,-46.875,-261.23046875,-41.9921875,-62.01171875,-1.0,1.0,0.0,0.0,4.m4v,3.0
2024-02-27 11:31:09.231389,1709029869.2313888,-43.45703125,-262.6953125,-52.734375,-48.33984375,-1.0,1.0,0.0,0.0,4.m4v,3.0
2024-02-27 11:31:09.235268,1709029869.2352676,-40.0390625,-267.08984375,-23.92578125,-34.1796875,-1.0,1.0,0.0,0.0,4.m4v,3.0
2024-02-27 11:31:09.239147,1709029869.2391467,-23.92578125,-284.1796875,-12.20703125,-41.9921875,-1.0,1.0,0.0,0.0,4.m4v,3.0
2024-02-27 11:31:09.243026,1709029869.2430255,-10.25390625,-307.12890625,-38.57421875,-51.7578125,-1.0,1.0,0.0,0.0,4.m4v,3.0
2024-02-27 11:31:09.246904,1709029869.2469044,-25.390625,-324.21875,-43.45703125,-58.10546875,-1.0,1.0,0.0,0.0,4.m4v,3.0
2024-02-27 11:31:09.250783,1709029869.2507832,-45.8984375,-328.125,-38.0859375,-60.05859375,-1.0,1.0,0.0,0.0,4.m4v,3.0
2024-02-27 11:31:09.254662,1709029869.254662,-27.83203125,-330.078125,-23.92578125,-27.34375,-1.0,1.0,0.0,0.0,4.m4v,3.0
2024-02-27 11:31:09.258011,1709029869.2580109,-7.32421875,-352.5390625,3.41796875,-8.30078125,-1.0,1.0,0.0,0.0,4.m4v,3.0
2024-02-27 11:31:09.261889,1709029869.2618897,-22.94921875,-371.58203125,-8.7890625,-44.921875,-1.0,1.0,0.0,0.0,4.m4v,3.0
2024-02-27 11:31:09.265768,1709029869.265768,-34.1796875,-361.81640625,-24.90234375,-55.6640625,-1.0,1.0,0.0,0.0,4.m4v,3.0
2024-02-27 11:31:09.269646,1709029869.2696464,-45.41015625,-345.703125,-18.5546875,-50.29296875,-1.0,1.0,0.0,0.0,4.m4v,3.0
2024-02-27 11:31:09.273525,1709029869.273525,-45.8984375,-343.75,-27.34375,-31.73828125,-1.0,1.0,0.0,0.0,4.m4v,3.0
2024-02-27 11:31:09.277404,1709029869.2774036,-23.92578125,-340.33203125,-46.38671875,-4.39453125,-1.0,1.0,0.0,0.0,4.m4v,3.0
2024-02-27 11:31:09.281282,1709029869.2812822,-29.296875,-345.21484375,-42.96875,-7.32421875,-1.0,1.0,0.0,0.0,4.m4v,3.0
2024-02-27 11:31:09.285161,1709029869.2851603,-36.1328125,-360.3515625,-29.296875,-45.41015625,-1.0,1.0,0.0,0.0,4.m4v,3.0
2024-02-27 11:31:09.289039,1709029869.2890391,-34.66796875,-360.83984375,-15.13671875,-59.08203125,-1.0,1.0,0.0,0.0,4.m4v,3.0
2024-02-27 11:31:09.292918,1709029869.2929175,-31.73828125,-344.23828125,-16.6015625,-19.04296875,-1.0,1.0,0.0,0.0,4.m4v,3.0
2024-02-27 11:31:09.296796,1709029869.296796,-18.5546875,-332.03125,-44.43359375,1.46484375,-1.0,1.0,0.0,0.0,4.m4v,3.0
2024-02-27 11:31:09.300675,1709029869.300675,-14.6484375,-339.84375,-55.17578125,-7.8125,-1.0,1.0,0.0,0.0,4.m4v,3.0
2024-02-27 11:31:09.304001,1709029869.304001,-13.671875,-338.37890625,-30.76171875,-25.390625,-1.0,1.0,0.0,0.0,4.m4v,3.0
2024-02-27 11:31:09.307879,1709029869.3078794,-21.484375,-328.125,-25.390625,-39.0625,-1.0,1.0,0.0,0.0,4.m4v,3.0
2024-02-27 11:31:09.311758,1709029869.3117576,-17.08984375,-302.24609375,-30.76171875,-27.83203125,-1.0,1.0,0.0,0.0,4.m4v,3.0
2024-02-27 11:31:09.315636,1709029869.315636,-10.25390625,-278.80859375,-17.578125,3.90625,-1.0,1.0,0.0,0.0,4.m4v,3.0
2024-02-27 11:31:09.319514,1709029869.319514,-20.99609375,-264.16015625,-3.90625,9.27734375,-1.0,1.0,0.0,0.0,4.m4v,3.0
2024-02-27 11:31:09.323392,1709029869.3233922,-38.57421875,-236.328125,-17.578125,-25.87890625,-1.0,1.0,0.0,0.0,4.m4v,3.0
2024-02-27 11:31:09.327271,1709029869.3272705,-27.83203125,-243.65234375,-39.55078125,-32.2265625,-1.0,1.0,0.0,0.0,4.m4v,3.0
2024-02-27 11:31:09.331149,1709029869.3311486,-13.671875,-267.578125,-20.01953125,-16.6015625,-1.0,1.0,0.0,0.0,4.m4v,3.0
2024-02-27 11:31:09.335027,1709029869.3350267,-19.53125,-251.953125,-11.23046875,-11.71875,-1.0,1.0,0.0,0.0,4.m4v,3.0
2024-02-27 11:31:09.338905,1709029869.3389049,-13.671875,-234.86328125,-36.62109375,-11.71875,-1.0,1.0,0.0,0.0,4.m4v,3.0
2024-02-27 11:31:09.342783,1709029869.3427832,4.8828125,-232.421875,-42.96875,-15.13671875,-1.0,1.0,0.0,0.0,4.m4v,3.0
2024-02-27 11:31:09.346661,1709029869.346661,0.48828125,-238.28125,-22.4609375,-24.4140625,-1.0,1.0,0.0,0.0,4.m4v,3.0
2024-02-27 11:31:09.350016,1709029869.3500164,-30.2734375,-229.00390625,-20.01953125,-31.25,-1.0,1.0,0.0,0.0,4.m4v,3.0
2024-02-27 11:31:09.353894,1709029869.3538942,-43.9453125,-226.5625,-19.53125,-37.109375,-1.0,1.0,0.0,0.0,4.m4v,3.0
2024-02-27 11:31:09.357772,1709029869.357772,-42.96875,-235.3515625,-15.625,-30.2734375,-1.0,1.0,0.0,0.0,4.m4v,3.0
2024-02-27 11:31:09.361650,1709029869.36165,-42.96875,-227.05078125,-51.26953125,-31.25,-1.0,1.0,0.0,0.0,4.m4v,3.0
2024-02-27 11:31:09.365528,1709029869.3655276,-40.52734375,-226.07421875,-60.05859375,-30.76171875,-1.0,1.0,0.0,0.0,4.m4v,3.0
2024-02-27 11:31:09.369406,1709029869.3694055,-32.2265625,-225.09765625,-48.828125,-23.4375,-1.0,1.0,0.0,0.0,4.m4v,3.0
2024-02-27 11:31:09.373283,1709029869.3732834,-27.34375,-221.19140625,-66.40625,2.44140625,-1.0,1.0,0.0,0.0,4.m4v,3.0
2024-02-27 11:31:09.377161,1709029869.3771613,-37.109375,-232.91015625,-33.69140625,-6.8359375,-1.0,1.0,0.0,0.0,4.m4v,3.0
2024-02-27 11:31:09.381039,1709029869.3810391,-19.53125,-232.421875,-10.7421875,-31.73828125,-1.0,1.0,0.0,0.0,4.m4v,3.0
2024-02-27 11:31:09.384917,1709029869.384917,-4.8828125,-237.79296875,-26.3671875,-22.94921875,-1.0,1.0,0.0,0.0,4.m4v,3.0
2024-02-27 11:31:09.388795,1709029869.388795,-22.94921875,-247.55859375,-37.109375,-36.1328125,-1.0,1.0,0.0,0.0,4.m4v,3.0
2024-02-27 11:31:09.392673,1709029869.3926728,-17.08984375,-233.3984375,-53.22265625,-28.3203125,-1.0,1.0,0.0,0.0,4.m4v,3.0
2024-02-27 11:31:09.395971,1709029869.3959708,-1.46484375,-229.98046875,-38.0859375,-21.97265625,-1.0,1.0,0.0,0.0,4.m4v,3.0
2024-02-27 11:31:09.399848,1709029869.3998485,-5.859375,-237.3046875,-22.4609375,-27.83203125,-1.0,1.0,0.0,0.0,4.m4v,3.0
2024-02-27 11:31:09.403726,1709029869.403726,-9.765625,-225.09765625,-37.109375,-18.5546875,-1.0,1.0,0.0,0.0,4.m4v,3.0
2024-02-27 11:31:09.407604,1709029869.4076035,-9.765625,-213.37890625,-28.3203125,-35.64453125,-1.0,1.0,0.0,0.0,4.m4v,3.0
2024-02-27 11:31:09.411481,1709029869.411481,-23.4375,-202.63671875,-20.01953125,-30.2734375,-1.0,1.0,0.0,0.0,4.m4v,3.0
2024-02-27 11:31:09.415359,1709029869.4153583,-27.34375,-197.75390625,-61.03515625,-14.6484375,-1.0,1.0,0.0,0.0,4.m4v,3.0
2024-02-27 11:31:09.419236,1709029869.419236,-13.671875,-236.328125,-86.9140625,-21.97265625,-1.0,1.0,0.0,0.0,4.m4v,3.0
2024-02-27 11:31:09.423114,1709029869.4231136,-26.3671875,-271.97265625,-28.80859375,-50.29296875,-1.0,1.0,0.0,0.0,4.m4v,3.0
2024-02-27 11:31:09.426991,1709029869.426991,-51.26953125,-253.41796875,-4.39453125,-64.453125,-1.0,1.0,0.0,0.0,4.m4v,3.0
2024-02-27 11:31:09.430869,1709029869.4308686,-68.359375,-227.5390625,-31.73828125,-51.7578125,-1.0,1.0,0.0,0.0,4.m4v,3.0
2024-02-27 11:31:09.434746,1709029869.434746,-62.98828125,-220.21484375,-42.48046875,-42.48046875,-1.0,1.0,0.0,0.0,4.m4v,3.0
2024-02-27 11:31:09.438624,1709029869.4386237,-49.8046875,-223.6328125,-37.109375,-39.0625,-1.0,1.0,0.0,0.0,4.m4v,3.0
2024-02-27 11:31:09.441905,1709029869.4419043,-47.8515625,-222.16796875,-30.2734375,-51.7578125,-1.0,1.0,0.0,0.0,4.m4v,3.0
2024-02-27 11:31:09.445782,1709029869.4457817,-38.0859375,-205.078125,-41.50390625,-47.8515625,-1.0,1.0,0.0,0.0,4.m4v,3.0
2024-02-27 11:31:09.449659,1709029869.4496589,-30.76171875,-202.1484375,-54.19921875,-26.85546875,-1.0,1.0,0.0,0.0,4.m4v,3.0
2024-02-27 11:31:09.453536,1709029869.453536,-41.50390625,-213.8671875,-44.43359375,-24.4140625,-1.0,1.0,0.0,0.0,4.m4v,3.0
2024-02-27 11:31:09.457413,1709029869.4574132,-42.48046875,-218.75,-34.66796875,-38.57421875,-1.0,1.0,0.0,0.0,4.m4v,3.0
2024-02-27 11:31:09.461290,1709029869.4612904,-20.5078125,-210.9375,-63.4765625,-40.0390625,-1.0,1.0,0.0,0.0,4.m4v,3.0
2024-02-27 11:31:09.465168,1709029869.4651675,-15.13671875,-209.9609375,-82.03125,-51.7578125,-1.0,1.0,0.0,0.0,4.m4v,3.0
2024-02-27 11:31:09.469045,1709029869.4690447,-32.71484375,-218.26171875,-55.6640625,-47.36328125,-1.0,1.0,0.0,0.0,4.m4v,3.0
2024-02-27 11:31:09.472922,1709029869.4729218,-22.94921875,-214.84375,-34.66796875,-19.04296875,-1.0,1.0,0.0,0.0,4.m4v,3.0
2024-02-27 11:31:09.476799,1709029869.476799,-31.73828125,-193.359375,-26.85546875,-24.4140625,-1.0,1.0,0.0,0.0,4.m4v,3.0
2024-02-27 11:31:09.480676,1709029869.4806762,-49.8046875,-177.734375,-27.83203125,-51.26953125,-1.0,1.0,0.0,0.0,4.m4v,3.0
2024-02-27 11:31:09.484553,1709029869.484553,-48.828125,-171.38671875,-38.57421875,-59.5703125,-1.0,1.0,0.0,0.0,4.m4v,3.0
2024-02-27 11:31:09.487818,1709029869.4878178,-42.96875,-170.8984375,-40.0390625,-39.0625,-1.0,1.0,0.0,0.0,4.m4v,3.0
2024-02-27 11:31:09.491694,1709029869.4916945,-41.9921875,-178.7109375,-37.59765625,-25.87890625,-1.0,1.0,0.0,0.0,4.m4v,3.0
2024-02-27 11:31:09.495571,1709029869.4955714,-43.9453125,-183.59375,-61.03515625,-35.64453125,-1.0,1.0,0.0,0.0,4.m4v,3.0
2024-02-27 11:31:09.499448,1709029869.499448,-38.0859375,-178.22265625,-68.359375,-45.41015625,-1.0,1.0,0.0,0.0,4.m4v,3.0
2024-02-27 11:31:09.503325,1709029869.503325,-46.875,-170.41015625,-55.17578125,-52.734375,-1.0,1.0,0.0,0.0,4.m4v,3.0
2024-02-27 11:31:09.507202,1709029869.5072017,-58.10546875,-165.0390625,-58.59375,-47.8515625,-1.0,1.0,0.0,0.0,4.m4v,3.0
2024-02-27 11:31:09.511079,1709029869.5110786,-46.875,-148.92578125,-67.87109375,-21.484375,-1.0,1.0,0.0,0.0,4.m4v,3.0
2024-02-27 11:31:09.514955,1709029869.5149553,-32.71484375,-142.08984375,-47.8515625,-36.1328125,-1.0,1.0,0.0,0.0,4.m4v,3.0
2024-02-27 11:31:09.518832,1709029869.5188322,-29.296875,-134.765625,-15.625,-62.01171875,-1.0,1.0,0.0,0.0,4.m4v,3.0
2024-02-27 11:31:09.522709,1709029869.522709,-21.97265625,-129.8828125,-15.13671875,-51.26953125,-1.0,1.0,0.0,0.0,4.m4v,3.0
2024-02-27 11:31:09.526586,1709029869.5265856,-26.3671875,-122.0703125,-29.78515625,-49.31640625,-1.0,1.0,0.0,0.0,4.m4v,3.0
2024-02-27 11:31:09.530463,1709029869.5304625,-51.26953125,-126.953125,-39.55078125,-72.75390625,-1.0,1.0,0.0,0.0,4.m4v,3.0
2024-02-27 11:31:09.533752,1709029869.5337524,-55.17578125,-151.85546875,-46.875,-82.03125,-1.0,1.0,0.0,0.0,4.m4v,3.0
2024-02-27 11:31:09.537629,1709029869.537629,-38.57421875,-165.52734375,-50.78125,-65.91796875,-1.0,1.0,0.0,0.0,4.m4v,3.0
2024-02-27 11:31:09.541505,1709029869.541505,-30.2734375,-168.45703125,-52.24609375,-59.08203125,-1.0,1.0,0.0,0.0,4.m4v,3.0
2024-02-27 11:31:09.545382,1709029869.5453818,-27.34375,-169.43359375,-70.3125,-50.29296875,-1.0,1.0,0.0,0.0,4.m4v,3.0
2024-02-27 11:31:09.549258,1709029869.5492582,-28.3203125,-172.8515625,-74.21875,-40.0390625,-1.0,1.0,0.0,0.0,4.m4v,3.0
2024-02-27 11:31:09.553135,1709029869.553135,-40.0390625,-168.45703125,-65.91796875,-33.203125,-1.0,1.0,0.0,0.0,4.m4v,3.0
2024-02-27 11:31:09.557011,1709029869.5570111,-27.34375,-157.71484375,-75.68359375,-39.0625,-1.0,1.0,0.0,0.0,4.m4v,3.0
2024-02-27 11:31:09.560888,1709029869.5608876,-26.3671875,-163.0859375,-82.51953125,-56.640625,-1.0,1.0,0.0,0.0,4.m4v,3.0
2024-02-27 11:31:09.564764,1709029869.564764,-51.26953125,-165.52734375,-64.94140625,-58.10546875,-1.0,1.0,0.0,0.0,4.m4v,3.0
2024-02-27 11:31:09.568640,1709029869.5686405,-39.55078125,-157.71484375,-43.45703125,-37.109375,-1.0,1.0,0.0,0.0,4.m4v,3.0
2024-02-27 11:31:09.572517,1709029869.572517,-26.3671875,-155.76171875,-36.62109375,-39.0625,-1.0,1.0,0.0,0.0,4.m4v,3.0
2024-02-27 11:31:09.576393,1709029869.5763934,-25.390625,-149.90234375,-42.96875,-37.109375,-1.0,1.0,0.0,0.0,4.m4v,3.0
2024-02-27 11:31:09.579927,1709029869.579927,-40.0390625,-141.6015625,-55.17578125,-46.875,-1.0,1.0,0.0,0.0,4.m4v,3.0
2024-02-27 11:31:09.583803,1709029869.5838032,-45.8984375,-138.671875,-45.8984375,-73.2421875,-1.0,1.0,0.0,0.0,4.m4v,3.0
2024-02-27 11:31:09.587679,1709029869.5876794,-33.69140625,-122.0703125,-34.1796875,-49.31640625,-1.0,1.0,0.0,0.0,4.m4v,3.0
2024-02-27 11:31:09.591556,1709029869.5915558,-36.62109375,-105.95703125,-48.828125,-24.4140625,-1.0,1.0,0.0,0.0,4.m4v,3.0
2024-02-27 11:31:09.595432,1709029869.595432,-41.015625,-100.09765625,-62.5,-42.96875,-1.0,1.0,0.0,0.0,4.m4v,3.0
2024-02-27 11:31:09.599308,1709029869.5993085,-38.0859375,-88.37890625,-57.12890625,-73.73046875,-1.0,1.0,0.0,0.0,4.m4v,3.0
2024-02-27 11:31:09.603184,1709029869.6031845,-40.0390625,-81.54296875,-55.6640625,-77.1484375,-1.0,1.0,0.0,0.0,4.m4v,3.0
2024-02-27 11:31:09.607061,1709029869.607061,-47.36328125,-71.77734375,-54.19921875,-59.08203125,-1.0,1.0,0.0,0.0,4.m4v,3.0
2024-02-27 11:31:09.610937,1709029869.6109369,-50.78125,-56.640625,-48.828125,-46.38671875,-1.0,1.0,0.0,0.0,4.m4v,3.0
2024-02-27 11:31:09.614813,1709029869.614813,-37.109375,-43.45703125,-54.19921875,-52.24609375,-1.0,1.0,0.0,0.0,4.m4v,3.0
2024-02-27 11:31:09.618690,1709029869.6186895,-16.11328125,-36.62109375,-58.59375,-60.05859375,-1.0,1.0,0.0,0.0,4.m4v,3.0
2024-02-27 11:31:09.622566,1709029869.6225655,-19.04296875,-36.1328125,-48.828125,-59.08203125,-1.0,1.0,0.0,0.0,4.m4v,3.0
2024-02-27 11:31:09.626330,1709029869.62633,-21.97265625,-27.83203125,-43.45703125,-24.4140625,-1.0,1.0,0.0,0.0,4.m4v,3.0
2024-02-27 11:31:09.630206,1709029869.630206,-7.8125,-15.625,-44.921875,-1.46484375,-1.0,1.0,0.0,0.0,4.m4v,3.0
2024-02-27 11:31:09.634082,1709029869.6340823,-14.16015625,-11.71875,-45.8984375,-34.1796875,-1.0,1.0,0.0,0.0,4.m4v,3.0
2024-02-27 11:31:09.637959,1709029869.6379583,-16.6015625,-3.41796875,-47.36328125,-50.29296875,-1.0,1.0,0.0,0.0,4.m4v,3.0
2024-02-27 11:31:09.641835,1709029869.6418347,-22.94921875,17.08984375,-51.7578125,-52.734375,-1.0,1.0,0.0,0.0,4.m4v,3.0
2024-02-27 11:31:09.645711,1709029869.645711,-42.48046875,35.15625,-47.36328125,-54.19921875,-1.0,1.0,0.0,0.0,4.m4v,3.0
2024-02-27 11:31:09.649587,1709029869.6495872,-54.6875,43.9453125,-43.9453125,-46.38671875,-1.0,1.0,0.0,0.0,4.m4v,3.0
2024-02-27 11:31:09.653463,1709029869.6534634,-45.8984375,44.43359375,-44.43359375,-42.48046875,-1.0,1.0,0.0,0.0,4.m4v,3.0
2024-02-27 11:31:09.657340,1709029869.6573396,-32.2265625,42.48046875,-48.828125,-50.78125,-1.0,1.0,0.0,0.0,4.m4v,3.0
2024-02-27 11:31:09.661216,1709029869.6612155,-23.92578125,23.92578125,-62.5,-47.8515625,-1.0,1.0,0.0,0.0,4.m4v,3.0
2024-02-27 11:31:09.665092,1709029869.6650918,-16.11328125,12.20703125,-107.421875,-20.99609375,-1.0,1.0,0.0,0.0,4.m4v,3.0
2024-02-27 11:31:09.668968,1709029869.668968,-21.97265625,19.53125,-93.26171875,-21.484375,-1.0,1.0,0.0,0.0,4.m4v,3.0
2024-02-27 11:31:09.672449,1709029869.6724486,-31.73828125,31.73828125,-29.78515625,-35.15625,-1.0,1.0,0.0,0.0,4.m4v,3.0
2024-02-27 11:31:09.676325,1709029869.6763246,-24.4140625,34.1796875,-9.765625,-40.0390625,-1.0,1.0,0.0,0.0,4.m4v,3.0
2024-02-27 11:31:09.680201,1709029869.6802006,-29.78515625,35.15625,-23.4375,-51.7578125,-1.0,1.0,0.0,0.0,4.m4v,3.0
2024-02-27 11:31:09.684077,1709029869.6840763,-35.15625,60.05859375,-41.015625,-56.640625,-1.0,1.0,0.0,0.0,4.m4v,3.0
2024-02-27 11:31:09.687953,1709029869.6879525,-26.3671875,68.84765625,-29.296875,-45.41015625,-1.0,1.0,0.0,0.0,4.m4v,3.0
2024-02-27 11:31:09.691828,1709029869.6918285,-33.69140625,79.1015625,-37.109375,-32.71484375,-1.0,1.0,0.0,0.0,4.m4v,3.0
2024-02-27 11:31:09.695704,1709029869.6957045,-34.66796875,81.54296875,-55.17578125,-45.8984375,-1.0,1.0,0.0,0.0,4.m4v,3.0
2024-02-27 11:31:09.699580,1709029869.6995804,-39.55078125,55.17578125,-43.9453125,-67.87109375,-1.0,1.0,0.0,0.0,4.m4v,3.0
2024-02-27 11:31:09.703456,1709029869.7034562,-42.96875,48.828125,-41.9921875,-55.6640625,-1.0,1.0,0.0,0.0,4.m4v,3.0
2024-02-27 11:31:09.707332,1709029869.707332,-30.76171875,58.59375,-54.6875,-34.1796875,-1.0,1.0,0.0,0.0,4.m4v,3.0
2024-02-27 11:31:09.711208,1709029869.711208,-35.15625,59.5703125,-48.828125,-36.62109375,-1.0,1.0,0.0,0.0,4.m4v,3.0
2024-02-27 11:31:09.715084,1709029869.715084,-40.0390625,62.01171875,-54.6875,-59.08203125,-1.0,1.0,0.0,0.0,4.m4v,3.0
2024-02-27 11:31:09.718545,1709029869.7185447,-38.0859375,61.5234375,-53.7109375,-65.91796875,-1.0,1.0,0.0,0.0,4.m4v,3.0
2024-02-27 11:31:09.722420,1709029869.7224205,-54.6875,65.4296875,-41.50390625,-68.359375,-1.0,1.0,0.0,0.0,4.m4v,3.0
2024-02-27 11:31:09.726296,1709029869.7262962,-46.38671875,65.91796875,-43.45703125,-61.5234375,-1.0,1.0,0.0,0.0,4.m4v,3.0
2024-02-27 11:31:09.730172,1709029869.730172,-37.109375,55.17578125,-42.48046875,-43.9453125,-1.0,1.0,0.0,0.0,4.m4v,3.0
2024-02-27 11:31:09.734048,1709029869.7340477,-59.5703125,46.38671875,-38.0859375,-64.94140625,-1.0,1.0,0.0,0.0,4.m4v,3.0
2024-02-27 11:31:09.737923,1709029869.7379234,-60.546875,57.6171875,-40.52734375,-84.9609375,-1.0,1.0,0.0,0.0,4.m4v,3.0
2024-02-27 11:31:09.741799,1709029869.741799,-57.12890625,60.546875,-53.22265625,-84.47265625,-1.0,1.0,0.0,0.0,4.m4v,3.0
2024-02-27 11:31:09.745675,1709029869.7456748,-53.7109375,29.296875,-52.734375,-74.70703125,-1.0,1.0,0.0,0.0,4.m4v,3.0
2024-02-27 11:31:09.749551,1709029869.7495506,-42.96875,15.625,-51.26953125,-47.8515625,-1.0,1.0,0.0,0.0,4.m4v,3.0
2024-02-27 11:31:09.753426,1709029869.7534263,-34.1796875,33.203125,-82.51953125,-57.6171875,-1.0,1.0,0.0,0.0,4.m4v,3.0
2024-02-27 11:31:09.757302,1709029869.757302,-33.203125,34.1796875,-81.0546875,-72.265625,-1.0,1.0,0.0,0.0,4.m4v,3.0
2024-02-27 11:31:09.761178,1709029869.7611778,-38.0859375,18.06640625,-54.6875,-63.96484375,-1.0,1.0,0.0,0.0,4.m4v,3.0
2024-02-27 11:31:09.764659,1709029869.764659,-34.66796875,15.625,-49.8046875,-51.26953125,-1.0,1.0,0.0,0.0,4.m4v,3.0
2024-02-27 11:31:09.768534,1709029869.7685344,-45.41015625,8.30078125,-32.2265625,-65.91796875,-1.0,1.0,0.0,0.0,4.m4v,3.0
2024-02-27 11:31:09.772410,1709029869.77241,-78.61328125,-10.25390625,-29.78515625,-109.86328125,-1.0,1.0,0.0,0.0,4.m4v,3.0
2024-02-27 11:31:09.776285,1709029869.7762854,-61.5234375,-27.34375,-33.69140625,-106.4453125,-1.0,1.0,0.0,0.0,4.m4v,3.0
2024-02-27 11:31:09.780161,1709029869.780161,-60.546875,-44.43359375,-38.0859375,-96.6796875,-1.0,1.0,0.0,0.0,4.m4v,3.0
2024-02-27 11:31:09.784036,1709029869.7840364,-75.68359375,-42.48046875,-37.59765625,-78.61328125,-1.0,1.0,0.0,0.0,4.m4v,3.0
2024-02-27 11:31:09.787912,1709029869.787912,-51.26953125,-43.9453125,-37.109375,-51.7578125,-1.0,1.0,0.0,0.0,4.m4v,3.0
2024-02-27 11:31:09.791787,1709029869.7917874,-46.38671875,-69.3359375,-68.359375,-69.82421875,-1.0,1.0,0.0,0.0,4.m4v,3.0
2024-02-27 11:31:09.795663,1709029869.7956629,-70.3125,-89.84375,-88.8671875,-94.23828125,-1.0,1.0,0.0,0.0,4.m4v,3.0
2024-02-27 11:31:09.799538,1709029869.7995384,-72.265625,-103.515625,-71.77734375,-107.421875,-1.0,1.0,0.0,0.0,4.m4v,3.0
2024-02-27 11:31:09.803414,1709029869.803414,-73.73046875,-123.046875,-78.61328125,-100.09765625,-1.0,1.0,0.0,0.0,4.m4v,3.0
2024-02-27 11:31:09.807289,1709029869.8072894,-79.58984375,-143.06640625,-78.61328125,-74.21875,-1.0,1.0,0.0,0.0,4.m4v,3.0
2024-02-27 11:31:09.810718,1709029869.8107178,-70.3125,-153.3203125,-64.453125,-81.0546875,-1.0,1.0,0.0,0.0,4.m4v,3.0
2024-02-27 11:31:09.814593,1709029869.814593,-67.3828125,-142.08984375,-69.82421875,-103.02734375,-1.0,1.0,0.0,0.0,4.m4v,3.0
2024-02-27 11:31:09.818468,1709029869.8184683,-58.10546875,-125.48828125,-83.984375,-92.28515625,-1.0,1.0,0.0,0.0,4.m4v,3.0
2024-02-27 11:31:09.822344,1709029869.8223436,-54.6875,-120.60546875,-80.078125,-89.35546875,-1.0,1.0,0.0,0.0,4.m4v,3.0
2024-02-27 11:31:09.826219,1709029869.8262188,-53.7109375,-117.1875,-70.3125,-69.82421875,-1.0,1.0,0.0,0.0,4.m4v,3.0
2024-02-27 11:31:09.830094,1709029869.830094,-41.015625,-112.79296875,-45.8984375,-53.22265625,-1.0,1.0,0.0,0.0,4.m4v,3.0
2024-02-27 11:31:09.833969,1709029869.8339694,-38.57421875,-127.9296875,-25.87890625,-84.47265625,-1.0,1.0,0.0,0.0,4.m4v,3.0
2024-02-27 11:31:09.837845,1709029869.8378446,-38.0859375,-174.8046875,-51.7578125,-91.796875,-1.0,1.0,0.0,0.0,4.m4v,3.0
2024-02-27 11:31:09.841720,1709029869.84172,-56.640625,-221.6796875,-72.75390625,-71.2890625,-1.0,1.0,0.0,0.0,4.m4v,3.0
2024-02-27 11:31:09.845595,1709029869.8455951,-60.546875,-247.0703125,-72.75390625,-57.12890625,-1.0,1.0,0.0,0.0,4.m4v,3.0
2024-02-27 11:31:09.849470,1709029869.8494704,-53.7109375,-264.16015625,-50.29296875,-50.29296875,-1.0,1.0,0.0,0.0,4.m4v,3.0
2024-02-27 11:31:09.853346,1709029869.8533456,-64.453125,-295.8984375,-31.73828125,-65.91796875,-1.0,1.0,0.0,0.0,4.m4v,3.0
2024-02-27 11:31:09.856756,1709029869.856756,-75.68359375,-309.5703125,-32.71484375,-76.171875,-1.0,1.0,0.0,0.0,4.m4v,3.0
2024-02-27 11:31:09.860631,1709029869.860631,-96.6796875,-301.26953125,-33.203125,-85.9375,-1.0,1.0,0.0,0.0,4.m4v,3.0
2024-02-27 11:31:09.864506,1709029869.864506,-74.70703125,-296.38671875,-36.1328125,-60.546875,-1.0,1.0,0.0,0.0,4.m4v,3.0
2024-02-27 11:31:09.868381,1709029869.8683808,-52.734375,-312.98828125,-68.84765625,-30.76171875,-1.0,1.0,0.0,0.0,4.m4v,3.0
2024-02-27 11:31:09.872256,1709029869.8722558,-56.15234375,-334.9609375,-69.82421875,-57.6171875,-1.0,1.0,0.0,0.0,4.m4v,3.0
2024-02-27 11:31:09.876131,1709029869.8761308,-40.52734375,-323.2421875,-46.38671875,-66.40625,-1.0,1.0,0.0,0.0,4.m4v,3.0
2024-02-27 11:31:09.880006,1709029869.8800058,-41.015625,-309.08203125,-55.6640625,-61.03515625,-1.0,1.0,0.0,0.0,4.m4v,3.0
2024-02-27 11:31:09.883881,1709029869.8838809,-59.08203125,-312.98828125,-62.98828125,-48.828125,-1.0,1.0,0.0,0.0,4.m4v,3.0
2024-02-27 11:31:09.887756,1709029869.887756,-43.9453125,-326.66015625,-66.40625,-38.57421875,-1.0,1.0,0.0,0.0,4.m4v,3.0
2024-02-27 11:31:09.891631,1709029869.891631,-40.0390625,-334.9609375,-57.12890625,-48.828125,-1.0,1.0,0.0,0.0,4.m4v,3.0
2024-02-27 11:31:09.895506,1709029869.8955057,-55.6640625,-340.8203125,-52.734375,-66.89453125,-1.0,1.0,0.0,0.0,4.m4v,3.0
2024-02-27 11:31:09.899381,1709029869.8993807,-48.828125,-344.23828125,-59.5703125,-61.5234375,-1.0,1.0,0.0,0.0,4.m4v,3.0
2024-02-27 11:31:09.902768,1709029869.9027677,-49.8046875,-334.47265625,-53.22265625,-40.52734375,-1.0,1.0,0.0,0.0,4.m4v,3.0
2024-02-27 11:31:09.906642,1709029869.9066424,-48.33984375,-330.078125,-52.734375,-21.97265625,-1.0,1.0,0.0,0.0,4.m4v,3.0
2024-02-27 11:31:09.910517,1709029869.910517,-31.73828125,-336.9140625,-61.5234375,-23.4375,-1.0,1.0,0.0,0.0,4.m4v,3.0
2024-02-27 11:31:09.914392,1709029869.9143918,-33.69140625,-337.890625,-64.453125,-38.0859375,-1.0,1.0,0.0,0.0,4.m4v,3.0
2024-02-27 11:31:09.918267,1709029869.9182663,-48.828125,-336.9140625,-65.4296875,-41.9921875,-1.0,1.0,0.0,0.0,4.m4v,3.0
2024-02-27 11:31:09.922141,1709029869.922141,-41.9921875,-338.8671875,-58.59375,-24.90234375,-1.0,1.0,0.0,0.0,4.m4v,3.0
2024-02-27 11:31:09.926016,1709029869.926016,-26.85546875,-351.07421875,-49.31640625,-5.859375,-1.0,1.0,0.0,0.0,4.m4v,3.0
2024-02-27 11:31:09.929891,1709029869.9298906,-31.25,-357.421875,-44.43359375,-28.80859375,-1.0,1.0,0.0,0.0,4.m4v,3.0
2024-02-27 11:31:09.933765,1709029869.9337654,-32.71484375,-342.7734375,-44.921875,-50.78125,-1.0,1.0,0.0,0.0,4.m4v,3.0
2024-02-27 11:31:09.937640,1709029869.93764,-35.64453125,-341.796875,-60.05859375,-36.62109375,-1.0,1.0,0.0,0.0,4.m4v,3.0
2024-02-27 11:31:09.941515,1709029869.9415147,-35.64453125,-348.14453125,-81.54296875,-30.76171875,-1.0,1.0,0.0,0.0,4.m4v,3.0
2024-02-27 11:31:09.945390,1709029869.9453895,-35.64453125,-343.26171875,-79.58984375,-23.92578125,-1.0,1.0,0.0,0.0,4.m4v,3.0
2024-02-27 11:31:09.949040,1709029869.9490402,-32.2265625,-339.84375,-50.78125,-24.90234375,-1.0,1.0,0.0,0.0,4.m4v,3.0
2024-02-27 11:31:09.952915,1709029869.9529147,-41.50390625,-343.75,-30.2734375,-66.40625,-1.0,1.0,0.0,0.0,4.m4v,3.0
2024-02-27 11:31:09.956789,1709029869.9567893,-68.84765625,-346.19140625,-25.390625,-75.1953125,-1.0,1.0,0.0,0.0,4.m4v,3.0
2024-02-27 11:31:09.960664,1709029869.9606638,-70.80078125,-349.609375,-25.87890625,-38.57421875,-1.0,1.0,0.0,0.0,4.m4v,3.0
2024-02-27 11:31:09.964538,1709029869.9645383,-49.8046875,-340.8203125,-42.96875,-15.13671875,-1.0,1.0,0.0,0.0,4.m4v,3.0
2024-02-27 11:31:09.968413,1709029869.968413,-37.59765625,-301.7578125,-45.8984375,-20.5078125,-1.0,1.0,0.0,0.0,4.m4v,3.0
2024-02-27 11:31:09.972288,1709029869.9722877,-36.62109375,-296.875,-34.1796875,-36.62109375,-1.0,1.0,0.0,0.0,4.m4v,3.0
2024-02-27 11:31:09.976162,1709029869.9761622,-41.9921875,-301.26953125,-37.109375,-60.546875,-1.0,1.0,0.0,0.0,4.m4v,3.0
2024-02-27 11:31:09.980037,1709029869.9800367,-41.50390625,-311.5234375,-35.64453125,-45.8984375,-1.0,1.0,0.0,0.0,4.m4v,3.0
2024-02-27 11:31:09.983911,1709029869.9839113,-67.3828125,-336.9140625,-28.80859375,-14.16015625,-1.0,1.0,0.0,0.0,4.m4v,3.0
2024-02-27 11:31:09.987786,1709029869.987786,-70.80078125,-318.84765625,-45.41015625,-36.62109375,-1.0,1.0,0.0,0.0,4.m4v,3.0
2024-02-27 11:31:09.991661,1709029869.9916606,-36.1328125,-295.8984375,-64.453125,-62.98828125,-1.0,1.0,0.0,0.0,4.m4v,3.0
2024-02-27 11:31:09.995293,1709029869.995293,-36.62109375,-291.50390625,-42.96875,-50.78125,-1.0,1.0,0.0,0.0,4.m4v,3.0
2024-02-27 11:31:09.999167,1709029869.9991672,-34.66796875,-305.6640625,-30.76171875,-15.625,-1.0,1.0,0.0,0.0,4.m4v,3.0
2024-02-27 11:31:10.003042,1709029870.0030415,-19.53125,-306.640625,-46.38671875,-10.7421875,-1.0,1.0,0.0,0.0,4.m4v,3.0
2024-02-27 11:31:10.006916,1709029870.006916,-31.73828125,-304.6875,-47.36328125,-29.78515625,-1.0,1.0,0.0,0.0,4.m4v,3.0
2024-02-27 11:31:10.010791,1709029870.0107906,-44.921875,-308.59375,-41.015625,-42.48046875,-1.0,1.0,0.0,0.0,4.m4v,3.0
2024-02-27 11:31:10.014665,1709029870.0146651,-41.9921875,-290.52734375,-46.875,-39.0625,-1.0,1.0,0.0,0.0,4.m4v,3.0
2024-02-27 11:31:10.018539,1709029870.0185394,-30.76171875,-279.78515625,-48.33984375,-33.203125,-1.0,1.0,0.0,0.0,4.m4v,3.0
2024-02-27 11:31:10.022414,1709029870.022414,-37.59765625,-290.0390625,-31.25,-38.57421875,-1.0,1.0,0.0,0.0,4.m4v,3.0
2024-02-27 11:31:10.026288,1709029870.0262885,-48.33984375,-294.43359375,-29.78515625,-33.203125,-1.0,1.0,0.0,0.0,4.m4v,3.0
2024-02-27 11:31:10.030163,1709029870.0301628,-49.31640625,-286.1328125,-38.0859375,-42.48046875,-1.0,1.0,0.0,0.0,4.m4v,3.0
2024-02-27 11:31:10.034037,1709029870.0340374,-49.31640625,-275.390625,-35.64453125,-52.734375,-1.0,1.0,0.0,0.0,4.m4v,3.0
2024-02-27 11:31:10.037912,1709029870.0379117,-47.8515625,-269.53125,-35.15625,-38.57421875,-1.0,1.0,0.0,0.0,4.m4v,3.0
2024-02-27 11:31:10.041524,1709029870.041524,-45.8984375,-266.11328125,-42.48046875,-32.71484375,-1.0,1.0,0.0,0.0,4.m4v,3.0
2024-02-27 11:31:10.045398,1709029870.0453982,-38.57421875,-264.6484375,-41.9921875,-27.83203125,-1.0,1.0,0.0,0.0,4.m4v,3.0
2024-02-27 11:31:10.049273,1709029870.0492723,-19.53125,-254.8828125,-41.9921875,-36.1328125,-1.0,1.0,0.0,0.0,4.m4v,3.0
2024-02-27 11:31:10.053147,1709029870.0531468,-12.20703125,-240.234375,-45.8984375,-39.55078125,-1.0,1.0,0.0,0.0,4.m4v,3.0
2024-02-27 11:31:10.057021,1709029870.0570211,-30.2734375,-229.98046875,-39.55078125,-20.01953125,-1.0,1.0,0.0,0.0,4.m4v,3.0
2024-02-27 11:31:10.060895,1709029870.0608954,-32.71484375,-211.42578125,-37.109375,-10.25390625,-1.0,1.0,0.0,0.0,4.m4v,3.0
2024-02-27 11:31:10.064770,1709029870.0647695,-18.5546875,-185.546875,-42.48046875,-2.44140625,-1.0,1.0,0.0,0.0,4.m4v,3.0
2024-02-27 11:31:10.068644,1709029870.068644,-22.4609375,-188.96484375,-41.50390625,-9.765625,-1.0,1.0,0.0,0.0,4.m4v,3.0
2024-02-27 11:31:10.072518,1709029870.0725183,-29.78515625,-193.84765625,-42.96875,-29.78515625,-1.0,1.0,0.0,0.0,4.m4v,3.0
2024-02-27 11:31:10.076393,1709029870.076393,-21.97265625,-158.203125,-44.921875,-29.296875,-1.0,1.0,0.0,0.0,4.m4v,3.0
2024-02-27 11:31:10.080267,1709029870.080267,-15.13671875,-110.83984375,-43.45703125,-22.94921875,-1.0,1.0,0.0,0.0,4.m4v,3.0
2024-02-27 11:31:10.084141,1709029870.0841413,-7.8125,-92.7734375,-50.78125,-12.20703125,-1.0,1.0,0.0,0.0,4.m4v,3.0
2024-02-27 11:31:10.087727,1709029870.087727,5.37109375,-91.796875,-62.01171875,-8.7890625,-1.0,1.0,0.0,0.0,4.m4v,3.0
2024-02-27 11:31:10.091601,1709029870.0916011,6.34765625,-66.40625,-64.453125,-32.2265625,-1.0,1.0,0.0,0.0,4.m4v,3.0
2024-02-27 11:31:10.095475,1709029870.0954752,-20.01953125,-40.0390625,-50.78125,-50.78125,-1.0,1.0,0.0,0.0,4.m4v,3.0
2024-02-27 11:31:10.099349,1709029870.0993495,-43.9453125,17.578125,-33.69140625,-53.7109375,-1.0,1.0,0.0,0.0,4.m4v,3.0
2024-02-27 11:31:10.103224,1709029870.1032236,-25.390625,101.07421875,-24.4140625,-52.24609375,-1.0,1.0,0.0,0.0,4.m4v,3.0
2024-02-27 11:31:10.107098,1709029870.1070976,-24.4140625,166.50390625,-18.06640625,-44.43359375,-1.0,1.0,0.0,0.0,4.m4v,3.0
2024-02-27 11:31:10.110972,1709029870.110972,-59.5703125,217.28515625,-22.4609375,-42.48046875,-1.0,1.0,0.0,0.0,4.m4v,3.0
2024-02-27 11:31:10.114846,1709029870.114846,-57.12890625,261.71875,-44.921875,-73.2421875,-1.0,1.0,0.0,0.0,4.m4v,3.0
2024-02-27 11:31:10.118720,1709029870.11872,-37.59765625,315.4296875,-55.6640625,-52.734375,-1.0,1.0,0.0,0.0,4.m4v,3.0
2024-02-27 11:31:10.122594,1709029870.1225944,-63.96484375,359.86328125,-65.4296875,-26.85546875,-1.0,1.0,0.0,0.0,4.m4v,3.0
2024-02-27 11:31:10.126468,1709029870.1264684,-78.125,381.34765625,-56.640625,-40.52734375,-1.0,1.0,0.0,0.0,4.m4v,3.0
2024-02-27 11:31:10.130343,1709029870.1303427,-45.41015625,414.0625,-41.9921875,-53.22265625,-1.0,1.0,0.0,0.0,4.m4v,3.0
2024-02-27 11:31:10.133906,1709029870.133906,-38.57421875,430.6640625,-41.9921875,-60.546875,-1.0,1.0,0.0,0.0,4.m4v,3.0
2024-02-27 11:31:10.137780,1709029870.13778,-57.12890625,432.12890625,-30.76171875,-50.29296875,-1.0,1.0,0.0,0.0,4.m4v,3.0
2024-02-27 11:31:10.141654,1709029870.141654,-65.4296875,422.36328125,-21.97265625,-33.69140625,-1.0,1.0,0.0,0.0,4.m4v,3.0
2024-02-27 11:31:10.145528,1709029870.1455278,-26.85546875,433.10546875,-24.4140625,-27.83203125,-1.0,1.0,0.0,0.0,4.m4v,3.0
2024-02-27 11:31:10.149402,1709029870.149402,-22.4609375,458.0078125,-43.9453125,-64.94140625,-1.0,1.0,0.0,0.0,4.m4v,3.0
2024-02-27 11:31:10.153276,1709029870.1532755,-29.296875,473.14453125,-51.26953125,-45.8984375,-1.0,1.0,0.0,0.0,4.m4v,3.0
2024-02-27 11:31:10.157150,1709029870.1571498,-11.23046875,480.95703125,-37.59765625,-27.83203125,-1.0,1.0,0.0,0.0,4.m4v,3.0
2024-02-27 11:31:10.161024,1709029870.161024,-33.69140625,472.16796875,-20.99609375,-53.7109375,-1.0,1.0,0.0,0.0,4.m4v,3.0
2024-02-27 11:31:10.164898,1709029870.1648977,-50.29296875,457.03125,-12.6953125,-41.015625,-1.0,1.0,0.0,0.0,4.m4v,3.0
2024-02-27 11:31:10.168772,1709029870.1687715,-43.45703125,445.80078125,-24.90234375,-47.8515625,-1.0,1.0,0.0,0.0,4.m4v,3.0
2024-02-27 11:31:10.172646,1709029870.1726458,-51.7578125,447.265625,-40.52734375,-72.265625,-1.0,1.0,0.0,0.0,4.m4v,3.0
2024-02-27 11:31:10.176520,1709029870.1765196,-48.33984375,437.01171875,-48.33984375,-65.4296875,-1.0,1.0,0.0,0.0,4.m4v,3.0
2024-02-27 11:31:10.180105,1709029870.1801052,-46.38671875,436.03515625,-46.38671875,-45.8984375,-1.0,1.0,0.0,0.0,4.m4v,3.0
2024-02-27 11:31:10.183979,1709029870.183979,-57.6171875,430.17578125,-38.57421875,-51.7578125,-1.0,1.0,0.0,0.0,4.m4v,3.0
2024-02-27 11:31:10.187853,1709029870.1878529,-61.03515625,410.15625,-33.69140625,-75.1953125,-1.0,1.0,0.0,0.0,4.m4v,3.0
2024-02-27 11:31:10.191727,1709029870.1917267,-77.1484375,392.578125,-29.78515625,-67.87109375,-1.0,1.0,0.0,0.0,4.m4v,3.0
2024-02-27 11:31:10.195601,1709029870.1956005,-101.07421875,372.0703125,-41.015625,-85.44921875,-1.0,1.0,0.0,0.0,4.m4v,3.0
2024-02-27 11:31:10.199474,1709029870.1994743,-86.9140625,389.16015625,-41.50390625,-71.77734375,-1.0,1.0,0.0,0.0,4.m4v,3.0
2024-02-27 11:31:10.203348,1709029870.2033482,-75.1953125,392.08984375,-42.48046875,-51.26953125,-1.0,1.0,0.0,0.0,4.m4v,3.0
2024-02-27 11:31:10.207222,1709029870.207222,-95.703125,365.72265625,-46.38671875,-90.33203125,-1.0,1.0,0.0,0.0,4.m4v,3.0
2024-02-27 11:31:10.211096,1709029870.2110958,-107.91015625,363.28125,-42.96875,-126.953125,-1.0,1.0,0.0,0.0,4.m4v,3.0
2024-02-27 11:31:10.214970,1709029870.2149696,-134.765625,359.375,-39.55078125,-126.46484375,-1.0,1.0,0.0,0.0,4.m4v,3.0
2024-02-27 11:31:10.218843,1709029870.2188437,-146.484375,357.91015625,-31.25,-91.30859375,-1.0,1.0,0.0,0.0,4.m4v,3.0
2024-02-27 11:31:10.222717,1709029870.2227173,-127.44140625,364.74609375,-35.64453125,-90.33203125,-1.0,1.0,0.0,0.0,4.m4v,3.0
2024-02-27 11:31:10.226245,1709029870.2262452,-122.0703125,372.55859375,-45.8984375,-132.8125,-1.0,1.0,0.0,0.0,4.m4v,3.0
2024-02-27 11:31:10.230119,1709029870.2301188,-121.58203125,376.953125,-38.57421875,-145.5078125,-1.0,1.0,0.0,0.0,4.m4v,3.0
2024-02-27 11:31:10.233993,1709029870.2339926,-119.62890625,356.4453125,-25.390625,-110.83984375,-1.0,1.0,0.0,0.0,4.m4v,3.0
2024-02-27 11:31:10.237866,1709029870.2378662,-119.140625,350.5859375,-30.76171875,-106.93359375,-1.0,1.0,0.0,0.0,4.m4v,3.0
2024-02-27 11:31:10.241740,1709029870.2417395,-150.390625,365.234375,-33.203125,-127.9296875,-1.0,1.0,0.0,0.0,4.m4v,3.0
2024-02-27 11:31:10.245613,1709029870.245613,-166.015625,368.1640625,-32.71484375,-152.83203125,-1.0,1.0,0.0,0.0,4.m4v,3.0
2024-02-27 11:31:10.249487,1709029870.2494872,-152.83203125,363.76953125,-31.73828125,-159.66796875,-1.0,1.0,0.0,0.0,4.m4v,3.0
2024-02-27 11:31:10.253361,1709029870.2533607,-169.921875,342.28515625,-32.71484375,-162.109375,-1.0,1.0,0.0,0.0,4.m4v,3.0
2024-02-27 11:31:10.257234,1709029870.2572343,-168.9453125,344.23828125,-39.55078125,-165.0390625,-1.0,1.0,0.0,0.0,4.m4v,3.0
2024-02-27 11:31:10.261108,1709029870.261108,-155.2734375,359.86328125,-46.38671875,-152.34375,-1.0,1.0,0.0,0.0,4.m4v,3.0
2024-02-27 11:31:10.264982,1709029870.2649815,-193.84765625,342.28515625,-48.33984375,-154.296875,-1.0,1.0,0.0,0.0,4.m4v,3.0
2024-02-27 11:31:10.268855,1709029870.268855,-212.890625,330.078125,-49.8046875,-151.85546875,-1.0,1.0,0.0,0.0,4.m4v,3.0
2024-02-27 11:31:10.272367,1709029870.2723672,-159.66796875,322.75390625,-43.9453125,-121.09375,-1.0,1.0,0.0,0.0,4.m4v,3.0
2024-02-27 11:31:10.276241,1709029870.2762408,-134.27734375,330.56640625,-46.38671875,-114.74609375,-1.0,1.0,0.0,0.0,4.m4v,3.0
2024-02-27 11:31:10.280114,1709029870.2801142,-166.9921875,357.421875,-36.62109375,-133.7890625,-1.0,1.0,0.0,0.0,4.m4v,3.0
2024-02-27 11:31:10.283988,1709029870.2839875,-142.08984375,348.14453125,-18.06640625,-114.2578125,-1.0,1.0,0.0,0.0,4.m4v,3.0
2024-02-27 11:31:10.287861,1709029870.287861,-91.30859375,359.375,-3.41796875,-92.7734375,-1.0,1.0,0.0,0.0,4.m4v,3.0
2024-02-27 11:31:10.291734,1709029870.2917345,-115.72265625,394.53125,-29.78515625,-85.9375,-1.0,1.0,0.0,0.0,4.m4v,3.0
2024-02-27 11:31:10.295608,1709029870.295608,-140.625,388.671875,-86.42578125,-73.2421875,-1.0,1.0,0.0,0.0,4.m4v,3.0
2024-02-27 11:31:10.299481,1709029870.2994814,-99.609375,350.09765625,-66.40625,-42.48046875,-1.0,1.0,0.0,0.0,4.m4v,3.0
2024-02-27 11:31:10.303355,1709029870.303355,-89.35546875,315.91796875,-17.08984375,-47.8515625,-1.0,1.0,0.0,0.0,4.m4v,3.0
2024-02-27 11:31:10.307228,1709029870.3072283,-107.421875,316.40625,-11.23046875,-92.28515625,-1.0,1.0,0.0,0.0,4.m4v,3.0
2024-02-27 11:31:10.311102,1709029870.3111017,-40.0390625,305.6640625,-9.765625,-58.59375,-1.0,1.0,0.0,0.0,4.m4v,3.0
2024-02-27 11:31:10.314975,1709029870.3149753,-23.92578125,275.390625,-23.92578125,-23.92578125,-1.0,1.0,0.0,0.0,4.m4v,3.0
2024-02-27 11:31:10.318734,1709029870.318734,-41.50390625,273.92578125,-26.85546875,-9.765625,-1.0,1.0,0.0,0.0,4.m4v,3.0
2024-02-27 11:31:10.322607,1709029870.3226073,-35.15625,265.13671875,-29.296875,14.16015625,-1.0,1.0,0.0,0.0,4.m4v,3.0
2024-02-27 11:31:10.326481,1709029870.3264806,-7.8125,243.1640625,-54.6875,-5.859375,-1.0,1.0,0.0,0.0,4.m4v,3.0
2024-02-27 11:31:10.330354,1709029870.330354,-11.71875,224.609375,-34.1796875,-11.23046875,-1.0,1.0,0.0,0.0,4.m4v,3.0
2024-02-27 11:31:10.334227,1709029870.334227,-32.2265625,207.03125,-26.3671875,23.4375,-1.0,1.0,0.0,0.0,4.m4v,3.0
2024-02-27 11:31:10.338101,1709029870.338101,-9.765625,222.16796875,-46.38671875,37.109375,-1.0,1.0,0.0,0.0,4.m4v,3.0
2024-02-27 11:31:10.341974,1709029870.3419745,3.90625,196.77734375,-36.1328125,33.69140625,-1.0,1.0,0.0,0.0,4.m4v,3.0
2024-02-27 11:31:10.345848,1709029870.3458476,21.484375,140.625,-21.97265625,33.69140625,-1.0,1.0,0.0,0.0,4.m4v,3.0
2024-02-27 11:31:10.349721,1709029870.349721,46.38671875,150.390625,-31.25,60.05859375,-1.0,1.0,0.0,0.0,4.m4v,3.0
2024-02-27 11:31:10.353594,1709029870.3535943,18.5546875,173.33984375,-70.3125,68.359375,-1.0,1.0,0.0,0.0,4.m4v,3.0
2024-02-27 11:31:10.357468,1709029870.3574677,1.953125,177.24609375,-62.5,67.3828125,-1.0,1.0,0.0,0.0,4.m4v,3.0
2024-02-27 11:31:10.361341,1709029870.361341,2.44140625,166.50390625,-29.296875,64.94140625,-1.0,1.0,0.0,0.0,4.m4v,3.0
2024-02-27 11:31:10.365079,1709029870.3650792,-2.44140625,151.85546875,-22.94921875,30.76171875,-1.0,1.0,0.0,0.0,4.m4v,3.0
2024-02-27 11:31:10.368952,1709029870.3689525,1.953125,145.01953125,-21.97265625,8.30078125,-1.0,1.0,0.0,0.0,4.m4v,3.0
2024-02-27 11:31:10.372826,1709029870.3728256,18.5546875,128.90625,-30.76171875,11.71875,-1.0,1.0,0.0,0.0,4.m4v,3.0
2024-02-27 11:31:10.376699,1709029870.376699,-25.390625,106.4453125,-41.015625,23.4375,-1.0,1.0,0.0,0.0,4.m4v,3.0
2024-02-27 11:31:10.380572,1709029870.3805723,-18.06640625,103.02734375,-40.52734375,43.45703125,-1.0,1.0,0.0,0.0,4.m4v,3.0
2024-02-27 11:31:10.384446,1709029870.3844457,5.859375,111.81640625,-51.7578125,38.57421875,-1.0,1.0,0.0,0.0,4.m4v,3.0
2024-02-27 11:31:10.388319,1709029870.388319,-12.20703125,84.9609375,-55.17578125,20.01953125,-1.0,1.0,0.0,0.0,4.m4v,3.0
2024-02-27 11:31:10.392192,1709029870.3921924,9.765625,65.91796875,-44.921875,21.97265625,-1.0,1.0,0.0,0.0,4.m4v,3.0
2024-02-27 11:31:10.396065,1709029870.3960657,32.2265625,75.68359375,-40.52734375,31.25,-1.0,1.0,0.0,0.0,4.m4v,3.0
2024-02-27 11:31:10.399939,1709029870.3999388,11.23046875,63.4765625,-41.9921875,54.6875,-1.0,1.0,0.0,0.0,4.m4v,3.0
2024-02-27 11:31:10.403812,1709029870.4038122,-10.25390625,52.734375,-44.43359375,41.9921875,-1.0,1.0,0.0,0.0,4.m4v,3.0
2024-02-27 11:31:10.407686,1709029870.4076855,-3.41796875,46.38671875,-48.828125,14.16015625,-1.0,1.0,0.0,0.0,4.m4v,3.0
2024-02-27 11:31:10.411430,1709029870.41143,-19.53125,28.80859375,-53.7109375,-10.25390625,-1.0,1.0,0.0,0.0,4.m4v,3.0
2024-02-27 11:31:10.415303,1709029870.4153037,-4.8828125,29.78515625,-53.22265625,-4.8828125,-1.0,1.0,0.0,0.0,4.m4v,3.0
2024-02-27 11:31:10.419177,1709029870.4191766,23.4375,53.7109375,-69.3359375,21.484375,-1.0,1.0,0.0,0.0,4.m4v,3.0
2024-02-27 11:31:10.423050,1709029870.42305,23.92578125,17.08984375,-56.15234375,28.3203125,-1.0,1.0,0.0,0.0,4.m4v,3.0
2024-02-27 11:31:10.426923,1709029870.426923,42.96875,-15.625,-21.97265625,39.55078125,-1.0,1.0,0.0,0.0,4.m4v,3.0
2024-02-27 11:31:10.430796,1709029870.4307964,6.34765625,27.34375,-35.64453125,24.90234375,-1.0,1.0,0.0,0.0,4.m4v,3.0
2024-02-27 11:31:10.434670,1709029870.4346695,-15.625,56.640625,-61.03515625,-10.7421875,-1.0,1.0,0.0,0.0,4.m4v,3.0
2024-02-27 11:31:10.438543,1709029870.4385428,6.34765625,44.921875,-50.78125,-12.6953125,-1.0,1.0,0.0,0.0,4.m4v,3.0
2024-02-27 11:31:10.442416,1709029870.4424162,0.9765625,21.484375,-30.2734375,10.25390625,-1.0,1.0,0.0,0.0,4.m4v,3.0
2024-02-27 11:31:10.446289,1709029870.4462893,4.39453125,7.8125,-22.94921875,4.8828125,-1.0,1.0,0.0,0.0,4.m4v,3.0
2024-02-27 11:31:10.450163,1709029870.4501626,21.484375,9.27734375,-6.34765625,-13.18359375,-1.0,1.0,0.0,0.0,4.m4v,3.0
2024-02-27 11:31:10.454036,1709029870.454036,5.859375,6.8359375,-11.23046875,-20.5078125,-1.0,1.0,0.0,0.0,4.m4v,3.0
2024-02-27 11:31:10.457721,1709029870.457721,-15.13671875,8.30078125,-34.66796875,-18.06640625,-1.0,1.0,0.0,0.0,4.m4v,3.0
2024-02-27 11:31:10.461594,1709029870.4615943,-12.6953125,20.01953125,-42.96875,-14.6484375,-1.0,1.0,0.0,0.0,4.m4v,3.0
2024-02-27 11:31:10.465467,1709029870.4654677,17.08984375,12.6953125,-42.48046875,-8.7890625,-1.0,1.0,0.0,0.0,4.m4v,3.0
2024-02-27 11:31:10.469341,1709029870.4693406,12.20703125,-1.953125,-41.50390625,-10.25390625,-1.0,1.0,0.0,0.0,4.m4v,3.0
2024-02-27 11:31:10.473214,1709029870.4732137,-7.32421875,1.953125,-27.34375,8.7890625,-1.0,1.0,0.0,0.0,4.m4v,3.0
2024-02-27 11:31:10.477087,1709029870.4770868,-0.48828125,2.44140625,-43.9453125,24.4140625,-1.0,1.0,0.0,0.0,4.m4v,3.0
2024-02-27 11:31:10.480960,1709029870.48096,2.9296875,0.0,-68.359375,4.39453125,-1.0,1.0,0.0,0.0,4.m4v,3.0
2024-02-27 11:31:10.484833,1709029870.4848332,6.34765625,-1.46484375,-55.17578125,-26.3671875,-1.0,1.0,0.0,0.0,4.m4v,3.0
2024-02-27 11:31:10.488706,1709029870.4887064,-3.90625,-16.11328125,-45.41015625,-51.26953125,-1.0,1.0,0.0,0.0,4.m4v,3.0
2024-02-27 11:31:10.492579,1709029870.4925797,-21.484375,-14.6484375,-42.96875,-58.10546875,-1.0,1.0,0.0,0.0,4.m4v,3.0
2024-02-27 11:31:10.496453,1709029870.4964526,-24.4140625,-5.37109375,-41.015625,-30.76171875,-1.0,1.0,0.0,0.0,4.m4v,3.0
2024-02-27 11:31:10.500326,1709029870.5003257,-2.44140625,-17.08984375,-48.33984375,-7.8125,-1.0,1.0,0.0,0.0,4.m4v,3.0
2024-02-27 11:31:10.503993,1709029870.5039933,19.53125,-38.57421875,-61.03515625,-19.53125,-1.0,1.0,0.0,0.0,4.m4v,3.0
2024-02-27 11:31:10.507866,1709029870.5078664,9.765625,-19.53125,-77.1484375,-22.4609375,-1.0,1.0,0.0,0.0,4.m4v,3.0
2024-02-27 11:31:10.511739,1709029870.5117393,-17.08984375,7.32421875,-83.984375,-20.01953125,-1.0,1.0,0.0,0.0,4.m4v,3.0
2024-02-27 11:31:10.515612,1709029870.5156124,-38.0859375,3.41796875,-49.31640625,-18.06640625,-1.0,1.0,0.0,0.0,4.m4v,3.0
2024-02-27 11:31:10.519485,1709029870.5194857,-37.59765625,-13.671875,-27.34375,-20.5078125,-1.0,1.0,0.0,0.0,4.m4v,3.0
2024-02-27 11:31:10.523358,1709029870.5233583,-34.66796875,-10.7421875,-24.4140625,-30.2734375,-1.0,1.0,0.0,0.0,4.m4v,3.0
2024-02-27 11:31:10.527231,1709029870.5272317,-18.06640625,-3.90625,-17.578125,-42.48046875,-1.0,1.0,0.0,0.0,4.m4v,3.0
2024-02-27 11:31:10.531105,1709029870.5311046,-8.7890625,-18.06640625,-20.5078125,-44.921875,-1.0,1.0,0.0,0.0,4.m4v,3.0
2024-02-27 11:31:10.534978,1709029870.5349777,-26.3671875,-17.08984375,-34.1796875,-27.83203125,-1.0,1.0,0.0,0.0,4.m4v,3.0
2024-02-27 11:31:10.538851,1709029870.5388503,-30.76171875,-9.27734375,-40.0390625,-32.2265625,-1.0,1.0,0.0,0.0,4.m4v,3.0
2024-02-27 11:31:10.542724,1709029870.5427237,-24.90234375,-14.16015625,-36.1328125,-39.55078125,-1.0,1.0,0.0,0.0,4.m4v,3.0
2024-02-27 11:31:10.546597,1709029870.5465968,-25.390625,-10.7421875,-30.2734375,-41.015625,-1.0,1.0,0.0,0.0,4.m4v,3.0
2024-02-27 11:31:10.550250,1709029870.5502496,-44.921875,-18.06640625,-23.92578125,-42.96875,-1.0,1.0,0.0,0.0,4.m4v,3.0
2024-02-27 11:31:10.554122,1709029870.5541224,-39.55078125,-20.99609375,-25.87890625,-15.13671875,-1.0,1.0,0.0,0.0,4.m4v,3.0
2024-02-27 11:31:10.557996,1709029870.5579956,-21.97265625,-15.625,-31.25,-7.8125,-1.0,1.0,0.0,0.0,4.m4v,3.0
2024-02-27 11:31:10.561868,1709029870.5618684,-16.11328125,-6.34765625,-40.52734375,-42.96875,-1.0,1.0,0.0,0.0,4.m4v,3.0
2024-02-27 11:31:10.565741,1709029870.5657413,-23.4375,-7.32421875,-45.41015625,-49.31640625,-1.0,1.0,0.0,0.0,4.m4v,3.0
2024-02-27 11:31:10.569614,1709029870.5696142,-43.9453125,-10.7421875,-50.78125,-44.921875,-1.0,1.0,0.0,0.0,4.m4v,3.0
2024-02-27 11:31:10.573487,1709029870.5734873,-35.15625,-20.5078125,-47.8515625,-37.59765625,-1.0,1.0,0.0,0.0,4.m4v,3.0
2024-02-27 11:31:10.577360,1709029870.5773602,-12.6953125,-13.671875,-46.38671875,-19.53125,-1.0,1.0,0.0,0.0,4.m4v,3.0
2024-02-27 11:31:10.581233,1709029870.581233,-3.90625,-0.48828125,-61.03515625,-19.53125,-1.0,1.0,0.0,0.0,4.m4v,3.0
2024-02-27 11:31:10.585106,1709029870.585106,6.8359375,-4.39453125,-69.82421875,-35.15625,-1.0,1.0,0.0,0.0,4.m4v,3.0
2024-02-27 11:31:10.588979,1709029870.588979,-6.34765625,-8.7890625,-54.6875,-39.0625,-1.0,1.0,0.0,0.0,4.m4v,3.0
2024-02-27 11:31:10.592852,1709029870.592852,-24.90234375,1.953125,-30.2734375,-20.5078125,-1.0,1.0,0.0,0.0,4.m4v,3.0
2024-02-27 11:31:10.596754,1709029870.5967543,-10.25390625,16.6015625,-28.3203125,-12.20703125,-1.0,1.0,0.0,0.0,4.m4v,3.0
2024-02-27 11:31:10.600627,1709029870.6006272,-6.34765625,14.6484375,-29.296875,-22.4609375,-1.0,1.0,0.0,0.0,4.m4v,3.0
2024-02-27 11:31:10.604500,1709029870.6045003,-15.625,7.8125,-30.2734375,-51.26953125,-1.0,1.0,0.0,0.0,4.m4v,3.0
2024-02-27 11:31:10.608373,1709029870.6083732,-26.85546875,8.30078125,-44.43359375,-64.453125,-1.0,1.0,0.0,0.0,4.m4v,3.0
2024-02-27 11:31:10.612246,1709029870.612246,-41.015625,6.34765625,-42.48046875,-37.59765625,-1.0,1.0,0.0,0.0,4.m4v,3.0
2024-02-27 11:31:10.616119,1709029870.6161191,-37.109375,27.34375,-41.50390625,11.71875,-1.0,1.0,0.0,0.0,4.m4v,3.0
2024-02-27 11:31:10.619992,1709029870.619992,-26.85546875,32.2265625,-43.9453125,-13.671875,-1.0,1.0,0.0,0.0,4.m4v,3.0
2024-02-27 11:31:10.623865,1709029870.623865,-30.76171875,12.20703125,-33.203125,-76.66015625,-1.0,1.0,0.0,0.0,4.m4v,3.0
2024-02-27 11:31:10.627738,1709029870.627738,-35.15625,19.53125,-32.71484375,-65.91796875,-1.0,1.0,0.0,0.0,4.m4v,3.0
2024-02-27 11:31:10.631611,1709029870.6316109,-42.48046875,27.34375,-31.73828125,-50.29296875,-1.0,1.0,0.0,0.0,4.m4v,3.0
2024-02-27 11:31:10.635484,1709029870.6354835,-44.921875,34.66796875,-31.25,-29.296875,-1.0,1.0,0.0,0.0,4.m4v,3.0
2024-02-27 11:31:10.639357,1709029870.6393569,-38.57421875,27.34375,-33.203125,-25.390625,-1.0,1.0,0.0,0.0,4.m4v,3.0
2024-02-27 11:31:10.642963,1709029870.642963,-27.83203125,0.9765625,-51.26953125,-50.78125,-1.0,1.0,0.0,0.0,4.m4v,3.0
2024-02-27 11:31:10.646836,1709029870.6468358,-18.5546875,5.859375,-84.9609375,-55.17578125,-1.0,1.0,0.0,0.0,4.m4v,3.0
2024-02-27 11:31:10.650708,1709029870.6507084,-19.04296875,30.76171875,-67.3828125,-39.0625,-1.0,1.0,0.0,0.0,4.m4v,3.0
2024-02-27 11:31:10.654581,1709029870.6545813,-34.1796875,37.59765625,-61.5234375,-17.08984375,-1.0,1.0,0.0,0.0,4.m4v,3.0
2024-02-27 11:31:10.658454,1709029870.6584542,-37.109375,32.2265625,-61.03515625,-16.6015625,-1.0,1.0,0.0,0.0,4.m4v,3.0
2024-02-27 11:31:10.662327,1709029870.662327,-30.76171875,48.828125,-20.01953125,-32.2265625,-1.0,1.0,0.0,0.0,4.m4v,3.0
2024-02-27 11:31:10.666200,1709029870.6661997,-27.34375,63.4765625,-9.765625,-46.875,-1.0,1.0,0.0,0.0,4.m4v,3.0
2024-02-27 11:31:10.670073,1709029870.6700726,-39.55078125,31.25,-4.8828125,-50.78125,-1.0,1.0,0.0,0.0,4.m4v,3.0
2024-02-27 11:31:10.673945,1709029870.6739454,-43.45703125,17.08984375,-12.20703125,-25.87890625,-1.0,1.0,0.0,0.0,4.m4v,3.0
2024-02-27 11:31:10.677818,1709029870.6778183,-29.296875,29.78515625,-23.92578125,-20.5078125,-1.0,1.0,0.0,0.0,4.m4v,3.0
2024-02-27 11:31:10.681691,1709029870.681691,-25.390625,23.92578125,-17.578125,-25.390625,-1.0,1.0,0.0,0.0,4.m4v,3.0
2024-02-27 11:31:10.685564,1709029870.6855638,-14.16015625,13.671875,-25.87890625,-16.6015625,-1.0,1.0,0.0,0.0,4.m4v,3.0
2024-02-27 11:31:10.689402,1709029870.6894016,-32.71484375,16.11328125,-31.73828125,-45.41015625,-1.0,1.0,0.0,0.0,4.m4v,3.0
2024-02-27 11:31:10.693274,1709029870.6932745,-58.59375,17.578125,-27.83203125,-53.7109375,-1.0,1.0,0.0,0.0,4.m4v,3.0
2024-02-27 11:31:10.697147,1709029870.6971474,-52.24609375,19.04296875,-37.109375,-31.73828125,-1.0,1.0,0.0,0.0,4.m4v,3.0
2024-02-27 11:31:10.701020,1709029870.70102,-36.1328125,31.73828125,-44.43359375,-33.203125,-1.0,1.0,0.0,0.0,4.m4v,3.0
2024-02-27 11:31:10.704893,1709029870.7048929,-37.59765625,22.4609375,-50.29296875,-45.41015625,-1.0,1.0,0.0,0.0,4.m4v,3.0
2024-02-27 11:31:10.708766,1709029870.7087655,-48.33984375,29.296875,-49.8046875,-47.8515625,-1.0,1.0,0.0,0.0,4.m4v,3.0
2024-02-27 11:31:10.712639,1709029870.7126386,-54.6875,26.85546875,-49.31640625,-28.3203125,-1.0,1.0,0.0,0.0,4.m4v,3.0
2024-02-27 11:31:10.716511,1709029870.7165112,-37.59765625,-4.8828125,-54.19921875,-20.01953125,-1.0,1.0,0.0,0.0,4.m4v,3.0
2024-02-27 11:31:10.720384,1709029870.720384,-1.953125,-53.22265625,-51.26953125,-28.80859375,-1.0,1.0,0.0,0.0,4.m4v,3.0
2024-02-27 11:31:10.724257,1709029870.724257,-7.8125,-65.91796875,-47.8515625,-32.2265625,-1.0,1.0,0.0,0.0,4.m4v,3.0
2024-02-27 11:31:10.728130,1709029870.7281296,-43.9453125,-16.6015625,-52.734375,-38.0859375,-1.0,1.0,0.0,0.0,4.m4v,3.0
2024-02-27 11:31:10.732002,1709029870.7320025,-45.41015625,-5.37109375,-57.12890625,-29.78515625,-1.0,1.0,0.0,0.0,4.m4v,3.0
2024-02-27 11:31:10.735814,1709029870.7358136,-41.50390625,-8.30078125,-54.19921875,-43.9453125,-1.0,1.0,0.0,0.0,4.m4v,3.0
2024-02-27 11:31:10.739686,1709029870.7396865,-61.03515625,-0.9765625,-45.8984375,-73.73046875,-1.0,1.0,0.0,0.0,4.m4v,3.0
2024-02-27 11:31:10.743559,1709029870.7435591,-71.2890625,-6.34765625,-40.52734375,-83.49609375,-1.0,1.0,0.0,0.0,4.m4v,3.0
2024-02-27 11:31:10.747432,1709029870.7474318,-48.828125,-8.30078125,-33.69140625,-69.82421875,-1.0,1.0,0.0,0.0,4.m4v,3.0
2024-02-27 11:31:10.751305,1709029870.7513046,-35.64453125,-15.13671875,-28.80859375,-40.0390625,-1.0,1.0,0.0,0.0,4.m4v,3.0
2024-02-27 11:31:10.755177,1709029870.7551775,-23.92578125,-17.08984375,-48.33984375,-7.8125,-1.0,1.0,0.0,0.0,4.m4v,3.0
2024-02-27 11:31:10.759050,1709029870.75905,-14.16015625,-30.76171875,-56.15234375,4.39453125,-1.0,1.0,0.0,0.0,4.m4v,3.0
2024-02-27 11:31:10.762923,1709029870.762923,-14.16015625,-49.31640625,-33.69140625,-23.4375,-1.0,1.0,0.0,0.0,4.m4v,3.0
2024-02-27 11:31:10.766796,1709029870.7667956,-30.76171875,-61.03515625,-16.11328125,-50.78125,-1.0,1.0,0.0,0.0,4.m4v,3.0
2024-02-27 11:31:10.770669,1709029870.7706685,-47.8515625,-53.7109375,-24.4140625,-37.109375,-1.0,1.0,0.0,0.0,4.m4v,3.0
2024-02-27 11:31:10.774541,1709029870.7745411,-35.64453125,-42.48046875,-31.73828125,-7.32421875,-1.0,1.0,0.0,0.0,4.m4v,3.0
2024-02-27 11:31:10.778414,1709029870.778414,-29.78515625,-56.640625,-29.78515625,-2.9296875,-1.0,1.0,0.0,0.0,4.m4v,3.0
