Timestamp,Timestamp_UNIX,TP9,AF7,AF8,TP10,Valence,Arousal,Dominace,Viewed,Video,Participant
2024-02-27 15:28:32.003116,1709044112.003116,-55.17578125,-39.0625,-42.96875,-32.71484375,0.0,-1.0,1.0,0.0,1.m4v,6.0
2024-02-27 15:28:32.007021,1709044112.0070212,-22.94921875,-34.1796875,-47.8515625,-49.31640625,0.0,-1.0,1.0,0.0,1.m4v,6.0
2024-02-27 15:28:32.010926,1709044112.010926,-2.9296875,-31.25,-37.109375,-49.8046875,0.0,-1.0,1.0,0.0,1.m4v,6.0
2024-02-27 15:28:32.014831,1709044112.014831,-20.5078125,-38.0859375,-41.9921875,-39.0625,0.0,-1.0,1.0,0.0,1.m4v,6.0
2024-02-27 15:28:32.018736,1709044112.018736,-51.7578125,-37.59765625,-43.45703125,-22.4609375,0.0,-1.0,1.0,0.0,1.m4v,6.0
2024-02-27 15:28:32.022641,1709044112.022641,-60.546875,-32.71484375,-24.90234375,-26.85546875,0.0,-1.0,1.0,0.0,1.m4v,6.0
2024-02-27 15:28:32.026546,1709044112.0265458,-27.83203125,-29.78515625,-19.04296875,-41.50390625,0.0,-1.0,1.0,0.0,1.m4v,6.0
2024-02-27 15:28:32.030451,1709044112.0304508,-32.2265625,-31.73828125,-26.85546875,-39.55078125,0.0,-1.0,1.0,0.0,1.m4v,6.0
2024-02-27 15:28:32.034356,1709044112.034356,-58.59375,-34.66796875,-20.01953125,-27.34375,0.0,-1.0,1.0,0.0,1.m4v,6.0
2024-02-27 15:28:32.038261,1709044112.0382607,-76.66015625,-43.45703125,-25.87890625,-34.1796875,0.0,-1.0,1.0,0.0,1.m4v,6.0
2024-02-27 15:28:32.042178,1709044112.0421782,-59.08203125,-41.015625,-44.921875,-35.64453125,0.0,-1.0,1.0,0.0,1.m4v,6.0
2024-02-27 15:28:32.046083,1709044112.0460832,-20.5078125,-34.66796875,-37.59765625,-34.1796875,0.0,-1.0,1.0,0.0,1.m4v,6.0
2024-02-27 15:28:32.049988,1709044112.0499885,-12.20703125,-33.203125,-30.76171875,-42.96875,0.0,-1.0,1.0,0.0,1.m4v,6.0
2024-02-27 15:28:32.053893,1709044112.053893,-49.31640625,-22.94921875,-36.1328125,-42.48046875,0.0,-1.0,1.0,0.0,1.m4v,6.0
2024-02-27 15:28:32.057798,1709044112.057798,-88.8671875,-27.83203125,-41.9921875,-24.90234375,0.0,-1.0,1.0,0.0,1.m4v,6.0
2024-02-27 15:28:32.061703,1709044112.061703,-69.82421875,-32.2265625,-39.55078125,-16.11328125,0.0,-1.0,1.0,0.0,1.m4v,6.0
2024-02-27 15:28:32.065608,1709044112.065608,-41.015625,-43.45703125,-33.69140625,-56.15234375,0.0,-1.0,1.0,0.0,1.m4v,6.0
2024-02-27 15:28:32.069513,1709044112.0695128,-47.8515625,-54.19921875,-42.48046875,-74.70703125,0.0,-1.0,1.0,0.0,1.m4v,6.0
2024-02-27 15:28:32.073418,1709044112.073418,-90.8203125,-38.57421875,-47.8515625,-43.9453125,0.0,-1.0,1.0,0.0,1.m4v,6.0
2024-02-27 15:28:32.077323,1709044112.0773227,-118.1640625,-36.1328125,-39.55078125,-30.2734375,0.0,-1.0,1.0,0.0,1.m4v,6.0
2024-02-27 15:28:32.081228,1709044112.0812278,-74.21875,-38.0859375,-30.76171875,-32.2265625,0.0,-1.0,1.0,0.0,1.m4v,6.0
2024-02-27 15:28:32.085133,1709044112.0851326,-36.1328125,-27.83203125,-19.04296875,-41.015625,0.0,-1.0,1.0,0.0,1.m4v,6.0
2024-02-27 15:28:32.089049,1709044112.089049,-61.5234375,-30.2734375,-29.296875,-51.26953125,0.0,-1.0,1.0,0.0,1.m4v,6.0
2024-02-27 15:28:32.092954,1709044112.0929542,-74.70703125,-35.64453125,-46.38671875,-62.01171875,0.0,-1.0,1.0,0.0,1.m4v,6.0
2024-02-27 15:28:32.096859,1709044112.096859,-77.63671875,-32.2265625,-37.109375,-65.4296875,0.0,-1.0,1.0,0.0,1.m4v,6.0
2024-02-27 15:28:32.100764,1709044112.100764,-42.96875,-34.1796875,-35.15625,-40.52734375,0.0,-1.0,1.0,0.0,1.m4v,6.0
2024-02-27 15:28:32.104669,1709044112.104669,-6.34765625,-34.66796875,-47.36328125,-36.62109375,0.0,-1.0,1.0,0.0,1.m4v,6.0
2024-02-27 15:28:32.108574,1709044112.108574,-3.90625,-32.71484375,-47.8515625,-43.45703125,0.0,-1.0,1.0,0.0,1.m4v,6.0
2024-02-27 15:28:32.112479,1709044112.112479,-28.3203125,-33.69140625,-45.41015625,-38.0859375,0.0,-1.0,1.0,0.0,1.m4v,6.0
2024-02-27 15:28:32.116384,1709044112.1163838,-81.0546875,-26.85546875,-41.9921875,-45.8984375,0.0,-1.0,1.0,0.0,1.m4v,6.0
2024-02-27 15:28:32.120289,1709044112.1202888,-76.171875,-20.5078125,-37.59765625,-48.828125,0.0,-1.0,1.0,0.0,1.m4v,6.0
2024-02-27 15:28:32.124194,1709044112.1241937,-44.43359375,-32.2265625,-43.45703125,-43.9453125,0.0,-1.0,1.0,0.0,1.m4v,6.0
2024-02-27 15:28:32.128099,1709044112.1280987,-12.20703125,-38.57421875,-45.8984375,-44.921875,0.0,-1.0,1.0,0.0,1.m4v,6.0
2024-02-27 15:28:32.132004,1709044112.1320035,-19.53125,-37.59765625,-42.96875,-43.9453125,0.0,-1.0,1.0,0.0,1.m4v,6.0
2024-02-27 15:28:32.135926,1709044112.1359265,-66.89453125,-30.2734375,-36.62109375,-33.69140625,0.0,-1.0,1.0,0.0,1.m4v,6.0
2024-02-27 15:28:32.139832,1709044112.1398315,-64.453125,-20.01953125,-28.80859375,-26.3671875,0.0,-1.0,1.0,0.0,1.m4v,6.0
2024-02-27 15:28:32.143736,1709044112.1437364,-12.20703125,-18.5546875,-28.80859375,-49.8046875,0.0,-1.0,1.0,0.0,1.m4v,6.0
2024-02-27 15:28:32.147641,1709044112.1476414,12.20703125,-31.73828125,-35.64453125,-57.6171875,0.0,-1.0,1.0,0.0,1.m4v,6.0
2024-02-27 15:28:32.151546,1709044112.1515462,-2.9296875,-40.0390625,-40.0390625,-46.875,0.0,-1.0,1.0,0.0,1.m4v,6.0
2024-02-27 15:28:32.155451,1709044112.1554513,-29.296875,-45.8984375,-46.38671875,-47.8515625,0.0,-1.0,1.0,0.0,1.m4v,6.0
2024-02-27 15:28:32.159356,1709044112.1593564,-36.1328125,-39.55078125,-48.33984375,-40.52734375,0.0,-1.0,1.0,0.0,1.m4v,6.0
2024-02-27 15:28:32.163261,1709044112.1632612,-5.859375,-32.2265625,-46.875,-29.296875,0.0,-1.0,1.0,0.0,1.m4v,6.0
2024-02-27 15:28:32.167166,1709044112.1671662,6.34765625,-39.0625,-42.96875,-54.19921875,0.0,-1.0,1.0,0.0,1.m4v,6.0
2024-02-27 15:28:32.171071,1709044112.171071,-11.23046875,-36.62109375,-27.83203125,-54.6875,0.0,-1.0,1.0,0.0,1.m4v,6.0
2024-02-27 15:28:32.174976,1709044112.174976,-49.31640625,-33.69140625,-27.34375,-34.66796875,0.0,-1.0,1.0,0.0,1.m4v,6.0
2024-02-27 15:28:32.178881,1709044112.178881,-53.22265625,-33.203125,-20.99609375,-22.4609375,0.0,-1.0,1.0,0.0,1.m4v,6.0
2024-02-27 15:28:32.182795,1709044112.182795,8.7890625,-31.73828125,-13.18359375,-17.578125,0.0,-1.0,1.0,0.0,1.m4v,6.0
2024-02-27 15:28:32.186700,1709044112.1867,22.4609375,-24.4140625,-19.53125,-29.296875,0.0,-1.0,1.0,0.0,1.m4v,6.0
2024-02-27 15:28:32.190605,1709044112.190605,-18.5546875,-30.2734375,-16.6015625,-35.64453125,0.0,-1.0,1.0,0.0,1.m4v,6.0
2024-02-27 15:28:32.194510,1709044112.19451,-36.62109375,-37.59765625,-27.34375,-31.73828125,0.0,-1.0,1.0,0.0,1.m4v,6.0
2024-02-27 15:28:32.198415,1709044112.1984148,-39.0625,-34.66796875,-33.203125,-26.3671875,0.0,-1.0,1.0,0.0,1.m4v,6.0
2024-02-27 15:28:32.202320,1709044112.20232,-10.25390625,-31.25,-30.76171875,-24.4140625,0.0,-1.0,1.0,0.0,1.m4v,6.0
2024-02-27 15:28:32.206225,1709044112.206225,21.484375,-32.2265625,-36.1328125,-37.59765625,0.0,-1.0,1.0,0.0,1.m4v,6.0
2024-02-27 15:28:32.210130,1709044112.2101295,-3.90625,-42.48046875,-38.57421875,-53.7109375,0.0,-1.0,1.0,0.0,1.m4v,6.0
2024-02-27 15:28:32.214035,1709044112.2140348,-57.12890625,-41.50390625,-42.96875,-52.24609375,0.0,-1.0,1.0,0.0,1.m4v,6.0
2024-02-27 15:28:32.217940,1709044112.2179396,-74.21875,-33.203125,-39.0625,-40.0390625,0.0,-1.0,1.0,0.0,1.m4v,6.0
2024-02-27 15:28:32.221845,1709044112.221845,-58.10546875,-31.25,-39.55078125,-34.1796875,0.0,-1.0,1.0,0.0,1.m4v,6.0
2024-02-27 15:28:32.225749,1709044112.2257495,-31.73828125,-19.04296875,-37.59765625,-42.48046875,0.0,-1.0,1.0,0.0,1.m4v,6.0
2024-02-27 15:28:32.229662,1709044112.2296622,-3.90625,-11.23046875,-24.4140625,-40.0390625,0.0,-1.0,1.0,0.0,1.m4v,6.0
2024-02-27 15:28:32.233567,1709044112.2335672,-21.97265625,-20.5078125,-25.390625,-26.3671875,0.0,-1.0,1.0,0.0,1.m4v,6.0
2024-02-27 15:28:32.237472,1709044112.237472,-81.54296875,-28.80859375,-32.2265625,-14.16015625,0.0,-1.0,1.0,0.0,1.m4v,6.0
2024-02-27 15:28:32.241377,1709044112.241377,-63.96484375,-26.3671875,-34.66796875,-15.13671875,0.0,-1.0,1.0,0.0,1.m4v,6.0
2024-02-27 15:28:32.245282,1709044112.2452822,-8.7890625,-20.01953125,-27.83203125,-32.2265625,0.0,-1.0,1.0,0.0,1.m4v,6.0
2024-02-27 15:28:32.249187,1709044112.249187,26.3671875,-16.6015625,-20.99609375,-37.109375,0.0,-1.0,1.0,0.0,1.m4v,6.0
2024-02-27 15:28:32.253092,1709044112.253092,-14.16015625,-31.73828125,-25.87890625,-33.203125,0.0,-1.0,1.0,0.0,1.m4v,6.0
2024-02-27 15:28:32.256997,1709044112.2569969,-85.9375,-30.2734375,-38.0859375,-38.57421875,0.0,-1.0,1.0,0.0,1.m4v,6.0
2024-02-27 15:28:32.260902,1709044112.260902,-79.58984375,-28.80859375,-43.9453125,-41.015625,0.0,-1.0,1.0,0.0,1.m4v,6.0
2024-02-27 15:28:32.264807,1709044112.2648067,-62.01171875,-40.52734375,-50.29296875,-53.22265625,0.0,-1.0,1.0,0.0,1.m4v,6.0
2024-02-27 15:28:32.268712,1709044112.2687118,-52.24609375,-31.73828125,-46.38671875,-67.87109375,0.0,-1.0,1.0,0.0,1.m4v,6.0
2024-02-27 15:28:32.272617,1709044112.2726166,-55.17578125,-21.97265625,-38.0859375,-57.12890625,0.0,-1.0,1.0,0.0,1.m4v,6.0
2024-02-27 15:28:32.276529,1709044112.2765286,-88.8671875,-33.203125,-41.9921875,-30.76171875,0.0,-1.0,1.0,0.0,1.m4v,6.0
2024-02-27 15:28:32.280434,1709044112.2804337,-83.984375,-38.57421875,-39.55078125,-20.99609375,0.0,-1.0,1.0,0.0,1.m4v,6.0
2024-02-27 15:28:32.284338,1709044112.2843385,-33.203125,-32.71484375,-24.90234375,-28.80859375,0.0,-1.0,1.0,0.0,1.m4v,6.0
2024-02-27 15:28:32.288244,1709044112.2882435,-3.41796875,-27.34375,-21.484375,-27.34375,0.0,-1.0,1.0,0.0,1.m4v,6.0
2024-02-27 15:28:32.292148,1709044112.2921484,-26.85546875,-25.390625,-21.484375,-27.83203125,0.0,-1.0,1.0,0.0,1.m4v,6.0
2024-02-27 15:28:32.296053,1709044112.2960534,-47.36328125,-22.4609375,-21.484375,-22.94921875,0.0,-1.0,1.0,0.0,1.m4v,6.0
2024-02-27 15:28:32.299958,1709044112.2999585,-39.55078125,-26.3671875,-30.76171875,-23.4375,0.0,-1.0,1.0,0.0,1.m4v,6.0
2024-02-27 15:28:32.303863,1709044112.3038633,-41.015625,-42.96875,-41.015625,-38.57421875,0.0,-1.0,1.0,0.0,1.m4v,6.0
2024-02-27 15:28:32.307768,1709044112.3077683,5.37109375,-44.43359375,-41.9921875,-47.8515625,0.0,-1.0,1.0,0.0,1.m4v,6.0
2024-02-27 15:28:32.311673,1709044112.3116732,8.30078125,-33.69140625,-31.25,-36.62109375,0.0,-1.0,1.0,0.0,1.m4v,6.0
2024-02-27 15:28:32.315578,1709044112.3155782,-41.9921875,-25.87890625,-20.5078125,-19.53125,0.0,-1.0,1.0,0.0,1.m4v,6.0
2024-02-27 15:28:32.319483,1709044112.319483,-51.7578125,-32.2265625,-20.01953125,-18.06640625,0.0,-1.0,1.0,0.0,1.m4v,6.0
2024-02-27 15:28:32.323394,1709044112.3233936,-34.1796875,-28.3203125,-32.71484375,-28.3203125,0.0,-1.0,1.0,0.0,1.m4v,6.0
2024-02-27 15:28:32.327298,1709044112.3272984,-39.0625,-36.62109375,-42.48046875,-64.453125,0.0,-1.0,1.0,0.0,1.m4v,6.0
2024-02-27 15:28:32.331203,1709044112.3312037,-44.921875,-33.203125,-36.1328125,-67.87109375,0.0,-1.0,1.0,0.0,1.m4v,6.0
2024-02-27 15:28:32.335108,1709044112.3351085,-44.43359375,-17.08984375,-26.85546875,-30.2734375,0.0,-1.0,1.0,0.0,1.m4v,6.0
2024-02-27 15:28:32.339013,1709044112.339013,-46.875,-15.625,-30.2734375,-12.6953125,0.0,-1.0,1.0,0.0,1.m4v,6.0
2024-02-27 15:28:32.342918,1709044112.3429182,-22.94921875,-27.34375,-37.109375,-16.6015625,0.0,-1.0,1.0,0.0,1.m4v,6.0
2024-02-27 15:28:32.346823,1709044112.3468232,-7.32421875,-36.62109375,-33.203125,-26.3671875,0.0,-1.0,1.0,0.0,1.m4v,6.0
2024-02-27 15:28:32.350728,1709044112.3507285,-32.2265625,-37.109375,-30.76171875,-32.71484375,0.0,-1.0,1.0,0.0,1.m4v,6.0
2024-02-27 15:28:32.354633,1709044112.354633,-60.05859375,-39.55078125,-33.69140625,-37.109375,0.0,-1.0,1.0,0.0,1.m4v,6.0
2024-02-27 15:28:32.358538,1709044112.3585382,-76.66015625,-41.9921875,-35.15625,-41.9921875,0.0,-1.0,1.0,0.0,1.m4v,6.0
2024-02-27 15:28:32.362443,1709044112.362443,-55.17578125,-45.8984375,-28.80859375,-38.57421875,0.0,-1.0,1.0,0.0,1.m4v,6.0
2024-02-27 15:28:32.366348,1709044112.366348,-36.1328125,-44.43359375,-28.3203125,-54.19921875,0.0,-1.0,1.0,0.0,1.m4v,6.0
2024-02-27 15:28:32.370267,1709044112.370267,-38.0859375,-35.64453125,-34.1796875,-42.96875,0.0,-1.0,1.0,0.0,1.m4v,6.0
2024-02-27 15:28:32.374171,1709044112.3741715,-66.89453125,-34.1796875,-31.25,-35.64453125,0.0,-1.0,1.0,0.0,1.m4v,6.0
2024-02-27 15:28:32.378077,1709044112.3780766,-102.05078125,-33.69140625,-35.15625,-53.22265625,0.0,-1.0,1.0,0.0,1.m4v,6.0
2024-02-27 15:28:32.381981,1709044112.3819814,-78.61328125,-25.87890625,-41.015625,-35.64453125,0.0,-1.0,1.0,0.0,1.m4v,6.0
2024-02-27 15:28:32.385886,1709044112.3858864,-43.45703125,-33.69140625,-44.921875,-18.06640625,0.0,-1.0,1.0,0.0,1.m4v,6.0
2024-02-27 15:28:32.389791,1709044112.3897915,-33.203125,-38.0859375,-40.52734375,-24.4140625,0.0,-1.0,1.0,0.0,1.m4v,6.0
2024-02-27 15:28:32.393696,1709044112.3936963,-51.7578125,-33.203125,-35.64453125,-39.0625,0.0,-1.0,1.0,0.0,1.m4v,6.0
2024-02-27 15:28:32.397601,1709044112.3976014,-92.28515625,-27.34375,-23.4375,-34.66796875,0.0,-1.0,1.0,0.0,1.m4v,6.0
2024-02-27 15:28:32.401506,1709044112.4015062,-82.51953125,-29.78515625,-17.08984375,-33.69140625,0.0,-1.0,1.0,0.0,1.m4v,6.0
2024-02-27 15:28:32.405411,1709044112.4054112,-76.171875,-33.203125,-35.64453125,-55.6640625,0.0,-1.0,1.0,0.0,1.m4v,6.0
2024-02-27 15:28:32.409316,1709044112.409316,-52.24609375,-19.53125,-42.96875,-50.29296875,0.0,-1.0,1.0,0.0,1.m4v,6.0
2024-02-27 15:28:32.413221,1709044112.4132211,-34.66796875,-20.99609375,-32.71484375,-35.64453125,0.0,-1.0,1.0,0.0,1.m4v,6.0
2024-02-27 15:28:32.417139,1709044112.4171386,-90.8203125,-35.15625,-35.64453125,-39.0625,0.0,-1.0,1.0,0.0,1.m4v,6.0
2024-02-27 15:28:32.421044,1709044112.4210436,-87.40234375,-33.69140625,-40.52734375,-29.78515625,0.0,-1.0,1.0,0.0,1.m4v,6.0
2024-02-27 15:28:32.424948,1709044112.4249485,-28.80859375,-35.15625,-33.69140625,-35.64453125,0.0,-1.0,1.0,0.0,1.m4v,6.0
2024-02-27 15:28:32.428854,1709044112.4288535,-8.7890625,-34.66796875,-31.25,-54.19921875,0.0,-1.0,1.0,0.0,1.m4v,6.0
2024-02-27 15:28:32.432759,1709044112.4327586,-28.80859375,-22.4609375,-29.78515625,-42.48046875,0.0,-1.0,1.0,0.0,1.m4v,6.0
2024-02-27 15:28:32.436663,1709044112.4366634,-77.1484375,-17.578125,-24.4140625,-20.5078125,0.0,-1.0,1.0,0.0,1.m4v,6.0
2024-02-27 15:28:32.440568,1709044112.4405684,-90.8203125,-30.76171875,-35.15625,-24.4140625,0.0,-1.0,1.0,0.0,1.m4v,6.0
2024-02-27 15:28:32.444473,1709044112.4444733,-58.59375,-37.59765625,-41.015625,-44.921875,0.0,-1.0,1.0,0.0,1.m4v,6.0
2024-02-27 15:28:32.448378,1709044112.4483783,-20.5078125,-27.34375,-43.45703125,-57.6171875,0.0,-1.0,1.0,0.0,1.m4v,6.0
2024-02-27 15:28:32.452283,1709044112.4522831,-19.04296875,-24.90234375,-42.96875,-51.26953125,0.0,-1.0,1.0,0.0,1.m4v,6.0
2024-02-27 15:28:32.456188,1709044112.4561882,-72.75390625,-28.80859375,-29.78515625,-27.83203125,0.0,-1.0,1.0,0.0,1.m4v,6.0
2024-02-27 15:28:32.460093,1709044112.4600933,-92.7734375,-39.55078125,-36.62109375,-32.2265625,0.0,-1.0,1.0,0.0,1.m4v,6.0
2024-02-27 15:28:32.464010,1709044112.4640095,-41.9921875,-38.57421875,-40.0390625,-51.26953125,0.0,-1.0,1.0,0.0,1.m4v,6.0
2024-02-27 15:28:32.467915,1709044112.4679146,-2.9296875,-28.80859375,-28.80859375,-55.17578125,0.0,-1.0,1.0,0.0,1.m4v,6.0
2024-02-27 15:28:32.471819,1709044112.4718194,-20.01953125,-29.296875,-21.97265625,-46.38671875,0.0,-1.0,1.0,0.0,1.m4v,6.0
2024-02-27 15:28:32.475724,1709044112.4757245,-73.2421875,-24.4140625,-32.2265625,-32.71484375,0.0,-1.0,1.0,0.0,1.m4v,6.0
2024-02-27 15:28:32.479629,1709044112.4796293,-116.2109375,-21.97265625,-47.36328125,-42.48046875,0.0,-1.0,1.0,0.0,1.m4v,6.0
2024-02-27 15:28:32.483534,1709044112.4835343,-64.453125,-33.69140625,-47.36328125,-55.17578125,0.0,-1.0,1.0,0.0,1.m4v,6.0
2024-02-27 15:28:32.487439,1709044112.4874392,20.01953125,-38.0859375,-38.0859375,-49.31640625,0.0,-1.0,1.0,0.0,1.m4v,6.0
2024-02-27 15:28:32.491344,1709044112.4913442,-20.99609375,-37.109375,-38.57421875,-53.22265625,0.0,-1.0,1.0,0.0,1.m4v,6.0
2024-02-27 15:28:32.495249,1709044112.4952493,-94.23828125,-44.43359375,-45.8984375,-53.7109375,0.0,-1.0,1.0,0.0,1.m4v,6.0
2024-02-27 15:28:32.499154,1709044112.499154,-81.0546875,-32.71484375,-45.8984375,-38.57421875,0.0,-1.0,1.0,0.0,1.m4v,6.0
2024-02-27 15:28:32.503059,1709044112.5030591,-48.33984375,-17.08984375,-35.15625,-41.015625,0.0,-1.0,1.0,0.0,1.m4v,6.0
2024-02-27 15:28:32.506964,1709044112.506964,-14.16015625,-23.4375,-31.25,-52.734375,0.0,-1.0,1.0,0.0,1.m4v,6.0
2024-02-27 15:28:32.510879,1709044112.5108793,-14.16015625,-31.73828125,-41.015625,-54.6875,0.0,-1.0,1.0,0.0,1.m4v,6.0
2024-02-27 15:28:32.514784,1709044112.514784,-70.3125,-33.69140625,-44.43359375,-58.59375,0.0,-1.0,1.0,0.0,1.m4v,6.0
2024-02-27 15:28:32.518689,1709044112.5186892,-84.9609375,-24.4140625,-36.1328125,-55.17578125,0.0,-1.0,1.0,0.0,1.m4v,6.0
2024-02-27 15:28:32.522594,1709044112.5225942,-61.03515625,-22.4609375,-33.203125,-31.25,0.0,-1.0,1.0,0.0,1.m4v,6.0
2024-02-27 15:28:32.526499,1709044112.526499,-32.2265625,-33.69140625,-46.38671875,-41.015625,0.0,-1.0,1.0,0.0,1.m4v,6.0
2024-02-27 15:28:32.530404,1709044112.530404,-0.48828125,-35.15625,-47.36328125,-51.26953125,0.0,-1.0,1.0,0.0,1.m4v,6.0
2024-02-27 15:28:32.534309,1709044112.534309,-12.6953125,-24.90234375,-35.15625,-30.76171875,0.0,-1.0,1.0,0.0,1.m4v,6.0
2024-02-27 15:28:32.538214,1709044112.538214,-50.78125,-25.87890625,-34.1796875,-22.4609375,0.0,-1.0,1.0,0.0,1.m4v,6.0
2024-02-27 15:28:32.542119,1709044112.5421188,-61.5234375,-38.0859375,-47.8515625,-38.57421875,0.0,-1.0,1.0,0.0,1.m4v,6.0
2024-02-27 15:28:32.546024,1709044112.5460238,-31.25,-41.50390625,-46.875,-58.59375,0.0,-1.0,1.0,0.0,1.m4v,6.0
2024-02-27 15:28:32.549929,1709044112.549929,-2.9296875,-29.78515625,-36.1328125,-44.921875,0.0,-1.0,1.0,0.0,1.m4v,6.0
2024-02-27 15:28:32.553834,1709044112.5538335,-38.0859375,-28.3203125,-33.203125,-35.64453125,0.0,-1.0,1.0,0.0,1.m4v,6.0
2024-02-27 15:28:32.557748,1709044112.5577478,-87.40234375,-27.34375,-25.390625,-53.7109375,0.0,-1.0,1.0,0.0,1.m4v,6.0
2024-02-27 15:28:32.561653,1709044112.561653,-73.2421875,-29.296875,-32.2265625,-50.29296875,0.0,-1.0,1.0,0.0,1.m4v,6.0
2024-02-27 15:28:32.565558,1709044112.5655577,-9.27734375,-31.73828125,-39.55078125,-39.55078125,0.0,-1.0,1.0,0.0,1.m4v,6.0
2024-02-27 15:28:32.569463,1709044112.5694628,-21.97265625,-31.73828125,-40.0390625,-53.7109375,0.0,-1.0,1.0,0.0,1.m4v,6.0
2024-02-27 15:28:32.573368,1709044112.5733676,-100.09765625,-35.15625,-44.43359375,-55.6640625,0.0,-1.0,1.0,0.0,1.m4v,6.0
2024-02-27 15:28:32.577273,1709044112.577273,-52.734375,-34.66796875,-40.52734375,-35.15625,0.0,-1.0,1.0,0.0,1.m4v,6.0
2024-02-27 15:28:32.581177,1709044112.5811777,16.11328125,-28.80859375,-30.2734375,-22.4609375,0.0,-1.0,1.0,0.0,1.m4v,6.0
2024-02-27 15:28:32.585083,1709044112.5850823,13.18359375,-37.109375,-34.1796875,-28.3203125,0.0,-1.0,1.0,0.0,1.m4v,6.0
2024-02-27 15:28:32.588987,1709044112.5889874,-1.953125,-42.96875,-39.0625,-41.50390625,0.0,-1.0,1.0,0.0,1.m4v,6.0
2024-02-27 15:28:32.592892,1709044112.5928924,-35.64453125,-28.3203125,-34.1796875,-43.45703125,0.0,-1.0,1.0,0.0,1.m4v,6.0
2024-02-27 15:28:32.596797,1709044112.5967977,-77.1484375,-20.99609375,-28.80859375,-38.57421875,0.0,-1.0,1.0,0.0,1.m4v,6.0
2024-02-27 15:28:32.600702,1709044112.6007023,-56.640625,-23.92578125,-27.83203125,-43.45703125,0.0,-1.0,1.0,0.0,1.m4v,6.0
2024-02-27 15:28:32.604615,1709044112.6046152,-10.7421875,-42.96875,-26.3671875,-41.9921875,0.0,-1.0,1.0,0.0,1.m4v,6.0
2024-02-27 15:28:32.608520,1709044112.60852,5.859375,-42.96875,-29.296875,-40.0390625,0.0,-1.0,1.0,0.0,1.m4v,6.0
2024-02-27 15:28:32.612425,1709044112.612425,-28.80859375,-36.1328125,-39.55078125,-36.62109375,0.0,-1.0,1.0,0.0,1.m4v,6.0
2024-02-27 15:28:32.616330,1709044112.61633,-91.30859375,-41.9921875,-52.734375,-36.62109375,0.0,-1.0,1.0,0.0,1.m4v,6.0
2024-02-27 15:28:32.620235,1709044112.620235,-99.609375,-42.48046875,-51.7578125,-51.7578125,0.0,-1.0,1.0,0.0,1.m4v,6.0
2024-02-27 15:28:32.624140,1709044112.62414,-7.32421875,-36.1328125,-42.48046875,-41.50390625,0.0,-1.0,1.0,0.0,1.m4v,6.0
2024-02-27 15:28:32.628045,1709044112.6280448,36.1328125,-32.2265625,-38.0859375,-41.50390625,0.0,-1.0,1.0,0.0,1.m4v,6.0
2024-02-27 15:28:32.631950,1709044112.63195,-17.08984375,-22.4609375,-26.85546875,-53.22265625,0.0,-1.0,1.0,0.0,1.m4v,6.0
2024-02-27 15:28:32.635855,1709044112.6358547,-64.94140625,-17.578125,-14.16015625,-39.0625,0.0,-1.0,1.0,0.0,1.m4v,6.0
2024-02-27 15:28:32.639760,1709044112.6397598,-89.84375,-33.69140625,-25.87890625,-30.76171875,0.0,-1.0,1.0,0.0,1.m4v,6.0
2024-02-27 15:28:32.643665,1709044112.6436648,-33.203125,-42.48046875,-41.9921875,-35.64453125,0.0,-1.0,1.0,0.0,1.m4v,6.0
2024-02-27 15:28:32.647570,1709044112.6475697,19.53125,-48.33984375,-40.0390625,-49.8046875,0.0,-1.0,1.0,0.0,1.m4v,6.0
2024-02-27 15:28:32.651482,1709044112.6514816,1.953125,-45.8984375,-32.2265625,-32.2265625,0.0,-1.0,1.0,0.0,1.m4v,6.0
2024-02-27 15:28:32.655386,1709044112.6553864,-45.8984375,-43.45703125,-36.62109375,-16.6015625,0.0,-1.0,1.0,0.0,1.m4v,6.0
2024-02-27 15:28:32.659292,1709044112.6592915,-68.84765625,-35.15625,-43.45703125,-20.99609375,0.0,-1.0,1.0,0.0,1.m4v,6.0
2024-02-27 15:28:32.663197,1709044112.6631966,-38.0859375,-19.53125,-28.3203125,-1.953125,0.0,-1.0,1.0,0.0,1.m4v,6.0
2024-02-27 15:28:32.667101,1709044112.6671014,27.34375,-20.5078125,-16.6015625,-0.9765625,0.0,-1.0,1.0,0.0,1.m4v,6.0
2024-02-27 15:28:32.671006,1709044112.6710064,34.1796875,-31.25,-29.78515625,-12.6953125,0.0,-1.0,1.0,0.0,1.m4v,6.0
2024-02-27 15:28:32.674911,1709044112.6749113,-17.578125,-31.73828125,-33.69140625,-12.20703125,0.0,-1.0,1.0,0.0,1.m4v,6.0
2024-02-27 15:28:32.678816,1709044112.6788163,-51.26953125,-36.1328125,-32.71484375,-15.13671875,0.0,-1.0,1.0,0.0,1.m4v,6.0
2024-02-27 15:28:32.682721,1709044112.6827211,-41.9921875,-40.0390625,-38.0859375,-19.53125,0.0,-1.0,1.0,0.0,1.m4v,6.0
2024-02-27 15:28:32.686626,1709044112.6866262,-10.7421875,-43.45703125,-33.203125,-34.1796875,0.0,-1.0,1.0,0.0,1.m4v,6.0
2024-02-27 15:28:32.690531,1709044112.690531,16.11328125,-35.15625,-22.4609375,-37.109375,0.0,-1.0,1.0,0.0,1.m4v,6.0
2024-02-27 15:28:32.694436,1709044112.694436,-38.0859375,-25.87890625,-23.4375,-33.69140625,0.0,-1.0,1.0,0.0,1.m4v,6.0
2024-02-27 15:28:32.698356,1709044112.698356,-74.70703125,-28.80859375,-27.34375,-38.0859375,0.0,-1.0,1.0,0.0,1.m4v,6.0
2024-02-27 15:28:32.702261,1709044112.702261,-47.36328125,-28.80859375,-23.4375,-27.34375,0.0,-1.0,1.0,0.0,1.m4v,6.0
2024-02-27 15:28:32.706166,1709044112.706166,-7.8125,-26.85546875,-27.83203125,-38.0859375,0.0,-1.0,1.0,0.0,1.m4v,6.0
2024-02-27 15:28:32.710071,1709044112.7100708,18.5546875,-41.50390625,-34.66796875,-57.12890625,0.0,-1.0,1.0,0.0,1.m4v,6.0
2024-02-27 15:28:32.713976,1709044112.713976,-31.73828125,-49.8046875,-35.15625,-38.57421875,0.0,-1.0,1.0,0.0,1.m4v,6.0
2024-02-27 15:28:32.717881,1709044112.7178807,-54.6875,-35.15625,-35.15625,-8.7890625,0.0,-1.0,1.0,0.0,1.m4v,6.0
2024-02-27 15:28:32.721786,1709044112.7217858,-17.578125,-34.1796875,-44.43359375,-15.625,0.0,-1.0,1.0,0.0,1.m4v,6.0
2024-02-27 15:28:32.725691,1709044112.7256906,-10.25390625,-33.203125,-37.59765625,-34.1796875,0.0,-1.0,1.0,0.0,1.m4v,6.0
2024-02-27 15:28:32.729596,1709044112.7295957,-3.90625,-32.2265625,-28.3203125,-32.71484375,0.0,-1.0,1.0,0.0,1.m4v,6.0
2024-02-27 15:28:32.733500,1709044112.7335005,-43.45703125,-45.41015625,-41.015625,-38.0859375,0.0,-1.0,1.0,0.0,1.m4v,6.0
2024-02-27 15:28:32.737406,1709044112.7374055,-70.80078125,-41.015625,-45.41015625,-36.1328125,0.0,-1.0,1.0,0.0,1.m4v,6.0
2024-02-27 15:28:32.741311,1709044112.7413106,-41.50390625,-34.1796875,-38.0859375,-32.71484375,0.0,-1.0,1.0,0.0,1.m4v,6.0
2024-02-27 15:28:32.745228,1709044112.7452283,-11.23046875,-29.78515625,-29.78515625,-44.43359375,0.0,-1.0,1.0,0.0,1.m4v,6.0
2024-02-27 15:28:32.749133,1709044112.749133,11.23046875,-33.203125,-30.2734375,-40.0390625,0.0,-1.0,1.0,0.0,1.m4v,6.0
2024-02-27 15:28:32.753038,1709044112.7530382,-16.11328125,-34.1796875,-30.2734375,-24.4140625,0.0,-1.0,1.0,0.0,1.m4v,6.0
2024-02-27 15:28:32.756943,1709044112.7569432,-62.5,-17.578125,-22.94921875,-20.01953125,0.0,-1.0,1.0,0.0,1.m4v,6.0
2024-02-27 15:28:32.760848,1709044112.760848,-24.90234375,-20.01953125,-15.13671875,-7.8125,0.0,-1.0,1.0,0.0,1.m4v,6.0
2024-02-27 15:28:32.764753,1709044112.764753,34.66796875,-37.109375,-23.4375,-12.6953125,0.0,-1.0,1.0,0.0,1.m4v,6.0
2024-02-27 15:28:32.768658,1709044112.768658,30.76171875,-36.62109375,-36.62109375,-27.34375,0.0,-1.0,1.0,0.0,1.m4v,6.0
2024-02-27 15:28:32.772563,1709044112.772563,-30.2734375,-35.64453125,-29.78515625,-28.3203125,0.0,-1.0,1.0,0.0,1.m4v,6.0
2024-02-27 15:28:32.776468,1709044112.7764678,-65.4296875,-35.15625,-30.76171875,-16.6015625,0.0,-1.0,1.0,0.0,1.m4v,6.0
2024-02-27 15:28:32.780373,1709044112.7803729,-56.640625,-34.66796875,-48.33984375,-15.625,0.0,-1.0,1.0,0.0,1.m4v,6.0
2024-02-27 15:28:32.784278,1709044112.7842777,-19.04296875,-30.2734375,-43.9453125,-25.390625,0.0,-1.0,1.0,0.0,1.m4v,6.0
2024-02-27 15:28:32.788183,1709044112.7881827,18.5546875,-25.87890625,-39.0625,-35.15625,0.0,-1.0,1.0,0.0,1.m4v,6.0
2024-02-27 15:28:32.792110,1709044112.79211,-15.625,-21.484375,-41.50390625,-34.66796875,0.0,-1.0,1.0,0.0,1.m4v,6.0
2024-02-27 15:28:32.796015,1709044112.7960148,-50.29296875,-16.6015625,-35.15625,-22.94921875,0.0,-1.0,1.0,0.0,1.m4v,6.0
2024-02-27 15:28:32.799920,1709044112.7999198,-55.17578125,-35.15625,-34.66796875,-10.7421875,0.0,-1.0,1.0,0.0,1.m4v,6.0
2024-02-27 15:28:32.803825,1709044112.803825,-40.52734375,-45.41015625,-29.296875,-30.76171875,0.0,-1.0,1.0,0.0,1.m4v,6.0
2024-02-27 15:28:32.807730,1709044112.8077295,7.8125,-37.59765625,-12.20703125,-40.0390625,0.0,-1.0,1.0,0.0,1.m4v,6.0
2024-02-27 15:28:32.811635,1709044112.8116348,27.34375,-30.2734375,-25.390625,-26.85546875,0.0,-1.0,1.0,0.0,1.m4v,6.0
2024-02-27 15:28:32.815540,1709044112.8155396,-8.7890625,-27.34375,-47.36328125,-18.06640625,0.0,-1.0,1.0,0.0,1.m4v,6.0
2024-02-27 15:28:32.819445,1709044112.819445,-44.921875,-28.3203125,-40.52734375,-25.390625,0.0,-1.0,1.0,0.0,1.m4v,6.0
2024-02-27 15:28:32.823349,1709044112.8233497,-21.97265625,-20.5078125,-26.85546875,-32.71484375,0.0,-1.0,1.0,0.0,1.m4v,6.0
2024-02-27 15:28:32.827255,1709044112.8272543,1.953125,-20.99609375,-34.66796875,-35.64453125,0.0,-1.0,1.0,0.0,1.m4v,6.0
2024-02-27 15:28:32.831159,1709044112.8311594,-14.16015625,-26.3671875,-45.8984375,-48.33984375,0.0,-1.0,1.0,0.0,1.m4v,6.0
2024-02-27 15:28:32.835064,1709044112.8350644,-62.01171875,-36.62109375,-38.0859375,-40.0390625,0.0,-1.0,1.0,0.0,1.m4v,6.0
2024-02-27 15:28:32.838981,1709044112.838981,-65.91796875,-32.71484375,-30.76171875,-27.83203125,0.0,-1.0,1.0,0.0,1.m4v,6.0
2024-02-27 15:28:32.842886,1709044112.8428855,-19.04296875,-21.97265625,-24.4140625,-48.33984375,0.0,-1.0,1.0,0.0,1.m4v,6.0
2024-02-27 15:28:32.846791,1709044112.8467908,23.4375,-17.578125,-16.6015625,-45.8984375,0.0,-1.0,1.0,0.0,1.m4v,6.0
2024-02-27 15:28:32.850696,1709044112.8506956,33.69140625,-12.6953125,-20.01953125,-26.3671875,0.0,-1.0,1.0,0.0,1.m4v,6.0
2024-02-27 15:28:32.854601,1709044112.854601,-31.25,-20.5078125,-34.66796875,-25.390625,0.0,-1.0,1.0,0.0,1.m4v,6.0
2024-02-27 15:28:32.858505,1709044112.8585055,-87.890625,-29.78515625,-38.57421875,-10.7421875,0.0,-1.0,1.0,0.0,1.m4v,6.0
2024-02-27 15:28:32.862411,1709044112.8624103,-57.12890625,-30.76171875,-36.1328125,-24.90234375,0.0,-1.0,1.0,0.0,1.m4v,6.0
2024-02-27 15:28:32.866315,1709044112.8663154,-25.390625,-32.71484375,-37.109375,-48.33984375,0.0,-1.0,1.0,0.0,1.m4v,6.0
2024-02-27 15:28:32.870220,1709044112.8702204,-14.6484375,-32.71484375,-29.78515625,-38.0859375,0.0,-1.0,1.0,0.0,1.m4v,6.0
2024-02-27 15:28:32.874125,1709044112.8741257,-34.66796875,-31.25,-23.4375,-29.78515625,0.0,-1.0,1.0,0.0,1.m4v,6.0
2024-02-27 15:28:32.878030,1709044112.8780303,-75.1953125,-35.15625,-22.4609375,-33.69140625,0.0,-1.0,1.0,0.0,1.m4v,6.0
2024-02-27 15:28:32.881935,1709044112.8819354,-96.6796875,-35.64453125,-26.85546875,-30.2734375,0.0,-1.0,1.0,0.0,1.m4v,6.0
2024-02-27 15:28:32.885851,1709044112.885851,-48.828125,-26.85546875,-24.90234375,-28.80859375,0.0,-1.0,1.0,0.0,1.m4v,6.0
2024-02-27 15:28:32.889755,1709044112.8897555,9.27734375,-14.6484375,-15.625,-35.15625,0.0,-1.0,1.0,0.0,1.m4v,6.0
2024-02-27 15:28:32.893661,1709044112.8936603,-37.59765625,-12.6953125,-21.97265625,-47.8515625,0.0,-1.0,1.0,0.0,1.m4v,6.0
2024-02-27 15:28:32.897565,1709044112.8975654,-83.0078125,-28.80859375,-32.2265625,-38.57421875,0.0,-1.0,1.0,0.0,1.m4v,6.0
2024-02-27 15:28:32.901470,1709044112.9014704,-56.640625,-41.9921875,-37.109375,-27.34375,0.0,-1.0,1.0,0.0,1.m4v,6.0
2024-02-27 15:28:32.905375,1709044112.9053757,-42.48046875,-42.48046875,-40.0390625,-39.55078125,0.0,-1.0,1.0,0.0,1.m4v,6.0
2024-02-27 15:28:32.909280,1709044112.9092803,-8.30078125,-30.2734375,-38.0859375,-48.828125,0.0,-1.0,1.0,0.0,1.m4v,6.0
2024-02-27 15:28:32.913185,1709044112.9131854,-29.78515625,-20.99609375,-45.41015625,-51.7578125,0.0,-1.0,1.0,0.0,1.m4v,6.0
2024-02-27 15:28:32.917090,1709044112.9170902,-87.40234375,-31.73828125,-54.6875,-54.6875,0.0,-1.0,1.0,0.0,1.m4v,6.0
2024-02-27 15:28:32.920995,1709044112.9209952,-65.91796875,-25.87890625,-34.66796875,-48.33984375,0.0,-1.0,1.0,0.0,1.m4v,6.0
2024-02-27 15:28:32.924900,1709044112.9249,-15.13671875,-18.5546875,-14.6484375,-44.43359375,0.0,-1.0,1.0,0.0,1.m4v,6.0
2024-02-27 15:28:32.928805,1709044112.928805,-4.8828125,-25.87890625,-18.5546875,-59.08203125,0.0,-1.0,1.0,0.0,1.m4v,6.0
2024-02-27 15:28:32.932719,1709044112.9327192,-43.9453125,-38.0859375,-29.296875,-52.24609375,0.0,-1.0,1.0,0.0,1.m4v,6.0
2024-02-27 15:28:32.936624,1709044112.936624,-72.265625,-41.50390625,-34.66796875,-24.4140625,0.0,-1.0,1.0,0.0,1.m4v,6.0
2024-02-27 15:28:32.940529,1709044112.940529,-50.29296875,-31.73828125,-39.0625,-28.80859375,0.0,-1.0,1.0,0.0,1.m4v,6.0
2024-02-27 15:28:32.944434,1709044112.944434,-12.20703125,-21.97265625,-34.1796875,-43.45703125,0.0,-1.0,1.0,0.0,1.m4v,6.0
2024-02-27 15:28:32.948339,1709044112.948339,6.34765625,-21.97265625,-24.4140625,-45.8984375,0.0,-1.0,1.0,0.0,1.m4v,6.0
2024-02-27 15:28:32.952244,1709044112.9522438,18.5546875,-14.16015625,-33.203125,-35.15625,0.0,-1.0,1.0,0.0,1.m4v,6.0
2024-02-27 15:28:32.956149,1709044112.9561489,-55.6640625,-20.01953125,-41.015625,-24.90234375,0.0,-1.0,1.0,0.0,1.m4v,6.0
2024-02-27 15:28:32.960054,1709044112.960054,-72.265625,-38.0859375,-38.57421875,-27.34375,0.0,-1.0,1.0,0.0,1.m4v,6.0
2024-02-27 15:28:32.963959,1709044112.9639587,-22.94921875,-37.109375,-38.57421875,-35.64453125,0.0,-1.0,1.0,0.0,1.m4v,6.0
2024-02-27 15:28:32.967864,1709044112.9678638,-13.18359375,-27.83203125,-42.96875,-49.8046875,0.0,-1.0,1.0,0.0,1.m4v,6.0
2024-02-27 15:28:32.971769,1709044112.9717686,-17.08984375,-32.71484375,-38.0859375,-42.48046875,0.0,-1.0,1.0,0.0,1.m4v,6.0
2024-02-27 15:28:32.975674,1709044112.9756737,-55.6640625,-39.0625,-35.64453125,-26.3671875,0.0,-1.0,1.0,0.0,1.m4v,6.0
2024-02-27 15:28:32.979587,1709044112.9795866,-77.1484375,-39.55078125,-37.109375,-16.6015625,0.0,-1.0,1.0,0.0,1.m4v,6.0
2024-02-27 15:28:32.983492,1709044112.9834917,-29.78515625,-35.64453125,-26.85546875,-9.765625,0.0,-1.0,1.0,0.0,1.m4v,6.0
2024-02-27 15:28:32.987396,1709044112.9873965,3.90625,-24.4140625,-23.92578125,-19.53125,0.0,-1.0,1.0,0.0,1.m4v,6.0
2024-02-27 15:28:32.991302,1709044112.9913015,-28.3203125,-23.92578125,-32.71484375,-47.36328125,0.0,-1.0,1.0,0.0,1.m4v,6.0
2024-02-27 15:28:32.995206,1709044112.9952064,-69.3359375,-32.71484375,-40.52734375,-54.6875,0.0,-1.0,1.0,0.0,1.m4v,6.0
2024-02-27 15:28:32.999111,1709044112.9991114,-71.77734375,-33.69140625,-47.8515625,-33.69140625,0.0,-1.0,1.0,0.0,1.m4v,6.0
2024-02-27 15:28:33.003016,1709044113.0030162,-27.34375,-36.1328125,-50.78125,-28.3203125,0.0,-1.0,1.0,0.0,1.m4v,6.0
2024-02-27 15:28:33.006921,1709044113.0069213,-16.11328125,-39.0625,-43.9453125,-49.8046875,0.0,-1.0,1.0,0.0,1.m4v,6.0
2024-02-27 15:28:33.010826,1709044113.0108263,-39.0625,-38.0859375,-41.50390625,-59.08203125,0.0,-1.0,1.0,0.0,1.m4v,6.0
2024-02-27 15:28:33.014731,1709044113.0147312,-66.40625,-32.2265625,-41.50390625,-57.12890625,0.0,-1.0,1.0,0.0,1.m4v,6.0
2024-02-27 15:28:33.018636,1709044113.0186362,-84.47265625,-20.99609375,-42.96875,-39.0625,0.0,-1.0,1.0,0.0,1.m4v,6.0
2024-02-27 15:28:33.022541,1709044113.022541,-55.17578125,-18.06640625,-41.9921875,-18.06640625,0.0,-1.0,1.0,0.0,1.m4v,6.0
2024-02-27 15:28:33.026453,1709044113.0264528,-11.71875,-20.01953125,-36.62109375,-37.59765625,0.0,-1.0,1.0,0.0,1.m4v,6.0
2024-02-27 15:28:33.030358,1709044113.0303578,-16.6015625,-30.76171875,-37.109375,-46.38671875,0.0,-1.0,1.0,0.0,1.m4v,6.0
2024-02-27 15:28:33.034263,1709044113.034263,-117.67578125,-37.109375,-35.15625,-43.9453125,0.0,-1.0,1.0,0.0,1.m4v,6.0
2024-02-27 15:28:33.038168,1709044113.0381677,-109.86328125,-30.76171875,-36.1328125,-38.0859375,0.0,-1.0,1.0,0.0,1.m4v,6.0
2024-02-27 15:28:33.042073,1709044113.0420723,-18.06640625,-34.1796875,-43.9453125,-32.71484375,0.0,-1.0,1.0,0.0,1.m4v,6.0
2024-02-27 15:28:33.045978,1709044113.0459776,3.41796875,-35.15625,-43.45703125,-42.96875,0.0,-1.0,1.0,0.0,1.m4v,6.0
2024-02-27 15:28:33.049882,1709044113.0498824,17.578125,-30.2734375,-32.2265625,-55.17578125,0.0,-1.0,1.0,0.0,1.m4v,6.0
2024-02-27 15:28:33.053787,1709044113.0537877,-39.55078125,-37.109375,-30.76171875,-57.6171875,0.0,-1.0,1.0,0.0,1.m4v,6.0
2024-02-27 15:28:33.057693,1709044113.0576923,-97.16796875,-42.48046875,-40.0390625,-45.8984375,0.0,-1.0,1.0,0.0,1.m4v,6.0
2024-02-27 15:28:33.061597,1709044113.061597,-62.01171875,-38.57421875,-40.0390625,-33.69140625,0.0,-1.0,1.0,0.0,1.m4v,6.0
2024-02-27 15:28:33.065502,1709044113.0655024,-23.4375,-29.78515625,-31.25,-34.66796875,0.0,-1.0,1.0,0.0,1.m4v,6.0
2024-02-27 15:28:33.069407,1709044113.0694072,-18.06640625,-23.92578125,-28.80859375,-56.640625,0.0,-1.0,1.0,0.0,1.m4v,6.0
2024-02-27 15:28:33.073318,1709044113.0733175,-47.36328125,-22.94921875,-32.2265625,-51.7578125,0.0,-1.0,1.0,0.0,1.m4v,6.0
2024-02-27 15:28:33.077223,1709044113.0772226,-110.3515625,-24.4140625,-37.59765625,-35.15625,0.0,-1.0,1.0,0.0,1.m4v,6.0
2024-02-27 15:28:33.081127,1709044113.0811274,-83.49609375,-19.53125,-32.71484375,-41.015625,0.0,-1.0,1.0,0.0,1.m4v,6.0
2024-02-27 15:28:33.085032,1709044113.0850325,-27.34375,-15.625,-26.85546875,-30.76171875,0.0,-1.0,1.0,0.0,1.m4v,6.0
2024-02-27 15:28:33.088937,1709044113.0889373,-6.8359375,-17.578125,-21.484375,-22.94921875,0.0,-1.0,1.0,0.0,1.m4v,6.0
2024-02-27 15:28:33.092842,1709044113.0928423,-3.90625,-23.92578125,-20.99609375,-28.3203125,0.0,-1.0,1.0,0.0,1.m4v,6.0
2024-02-27 15:28:33.096747,1709044113.0967474,-67.87109375,-46.875,-35.15625,-26.85546875,0.0,-1.0,1.0,0.0,1.m4v,6.0
2024-02-27 15:28:33.100652,1709044113.1006522,-87.40234375,-42.96875,-39.55078125,-23.4375,0.0,-1.0,1.0,0.0,1.m4v,6.0
2024-02-27 15:28:33.104557,1709044113.1045573,-38.57421875,-31.25,-44.43359375,-34.1796875,0.0,-1.0,1.0,0.0,1.m4v,6.0
2024-02-27 15:28:33.108462,1709044113.108462,-19.04296875,-34.66796875,-55.6640625,-45.8984375,0.0,-1.0,1.0,0.0,1.m4v,6.0
2024-02-27 15:28:33.112367,1709044113.1123672,-40.0390625,-36.1328125,-43.45703125,-39.55078125,0.0,-1.0,1.0,0.0,1.m4v,6.0
2024-02-27 15:28:33.116272,1709044113.116272,-59.5703125,-39.55078125,-33.203125,-30.76171875,0.0,-1.0,1.0,0.0,1.m4v,6.0
2024-02-27 15:28:33.120191,1709044113.1201909,-39.0625,-33.203125,-31.25,-30.76171875,0.0,-1.0,1.0,0.0,1.m4v,6.0
2024-02-27 15:28:33.124096,1709044113.124096,-24.90234375,-20.99609375,-26.3671875,-39.55078125,0.0,-1.0,1.0,0.0,1.m4v,6.0
2024-02-27 15:28:33.128001,1709044113.1280007,-7.32421875,-21.484375,-21.484375,-47.8515625,0.0,-1.0,1.0,0.0,1.m4v,6.0
2024-02-27 15:28:33.131906,1709044113.1319058,-0.9765625,-30.76171875,-18.06640625,-41.50390625,0.0,-1.0,1.0,0.0,1.m4v,6.0
2024-02-27 15:28:33.135811,1709044113.1358106,-40.52734375,-35.15625,-30.2734375,-23.4375,0.0,-1.0,1.0,0.0,1.m4v,6.0
2024-02-27 15:28:33.139716,1709044113.1397157,-28.3203125,-32.71484375,-35.64453125,-20.01953125,0.0,-1.0,1.0,0.0,1.m4v,6.0
2024-02-27 15:28:33.143621,1709044113.1436207,0.0,-41.9921875,-40.0390625,-40.52734375,0.0,-1.0,1.0,0.0,1.m4v,6.0
2024-02-27 15:28:33.147526,1709044113.1475255,27.83203125,-32.2265625,-32.71484375,-41.50390625,0.0,-1.0,1.0,0.0,1.m4v,6.0
2024-02-27 15:28:33.151431,1709044113.1514306,37.109375,-16.11328125,-25.390625,-23.4375,0.0,-1.0,1.0,0.0,1.m4v,6.0
2024-02-27 15:28:33.155335,1709044113.1553354,-44.921875,-30.76171875,-47.8515625,-31.25,0.0,-1.0,1.0,0.0,1.m4v,6.0
2024-02-27 15:28:33.159240,1709044113.1592405,-97.65625,-45.41015625,-55.6640625,-39.0625,0.0,-1.0,1.0,0.0,1.m4v,6.0
2024-02-27 15:28:33.163145,1709044113.1631453,-53.22265625,-40.52734375,-34.66796875,-20.5078125,0.0,-1.0,1.0,0.0,1.m4v,6.0
2024-02-27 15:28:33.167063,1709044113.167063,14.6484375,-35.15625,-19.04296875,-39.0625,0.0,-1.0,1.0,0.0,1.m4v,6.0
2024-02-27 15:28:33.170968,1709044113.170968,2.9296875,-33.69140625,-24.90234375,-57.12890625,0.0,-1.0,1.0,0.0,1.m4v,6.0
2024-02-27 15:28:33.174873,1709044113.1748729,-53.7109375,-33.203125,-30.76171875,-23.92578125,0.0,-1.0,1.0,0.0,1.m4v,6.0
2024-02-27 15:28:33.178778,1709044113.178778,-42.48046875,-24.90234375,-29.296875,-4.39453125,0.0,-1.0,1.0,0.0,1.m4v,6.0
2024-02-27 15:28:33.182683,1709044113.182683,1.46484375,-26.3671875,-35.15625,-15.13671875,0.0,-1.0,1.0,0.0,1.m4v,6.0
2024-02-27 15:28:33.186588,1709044113.1865878,65.91796875,-26.3671875,-38.0859375,-22.94921875,0.0,-1.0,1.0,0.0,1.m4v,6.0
2024-02-27 15:28:33.190493,1709044113.1904929,64.453125,-16.6015625,-25.390625,-21.97265625,0.0,-1.0,1.0,0.0,1.m4v,6.0
2024-02-27 15:28:33.194398,1709044113.1943977,-18.06640625,-21.484375,-16.11328125,-19.04296875,0.0,-1.0,1.0,0.0,1.m4v,6.0
2024-02-27 15:28:33.198303,1709044113.1983027,-63.4765625,-37.59765625,-31.73828125,-12.6953125,0.0,-1.0,1.0,0.0,1.m4v,6.0
2024-02-27 15:28:33.202208,1709044113.2022076,-50.29296875,-41.50390625,-48.33984375,-26.3671875,0.0,-1.0,1.0,0.0,1.m4v,6.0
2024-02-27 15:28:33.206113,1709044113.2061126,-15.13671875,-33.69140625,-43.9453125,-39.55078125,0.0,-1.0,1.0,0.0,1.m4v,6.0
2024-02-27 15:28:33.210018,1709044113.2100177,3.90625,-26.3671875,-28.80859375,-35.15625,0.0,-1.0,1.0,0.0,1.m4v,6.0
2024-02-27 15:28:33.213934,1709044113.2139342,-49.31640625,-23.4375,-20.01953125,-25.390625,0.0,-1.0,1.0,0.0,1.m4v,6.0
2024-02-27 15:28:33.217839,1709044113.217839,-73.2421875,-23.92578125,-29.78515625,-20.5078125,0.0,-1.0,1.0,0.0,1.m4v,6.0
2024-02-27 15:28:33.221744,1709044113.221744,-30.76171875,-23.4375,-39.0625,-26.85546875,0.0,-1.0,1.0,0.0,1.m4v,6.0
2024-02-27 15:28:33.225649,1709044113.2256489,-12.6953125,-34.1796875,-35.64453125,-41.50390625,0.0,-1.0,1.0,0.0,1.m4v,6.0
2024-02-27 15:28:33.229554,1709044113.229554,-1.46484375,-41.015625,-36.62109375,-43.45703125,0.0,-1.0,1.0,0.0,1.m4v,6.0
2024-02-27 15:28:33.233459,1709044113.2334588,-12.6953125,-30.76171875,-37.109375,-31.25,0.0,-1.0,1.0,0.0,1.m4v,6.0
2024-02-27 15:28:33.237364,1709044113.2373638,-59.5703125,-31.25,-44.921875,-23.4375,0.0,-1.0,1.0,0.0,1.m4v,6.0
2024-02-27 15:28:33.241269,1709044113.2412689,-63.96484375,-32.2265625,-46.875,-25.390625,0.0,-1.0,1.0,0.0,1.m4v,6.0
2024-02-27 15:28:33.245174,1709044113.2451737,-40.0390625,-38.57421875,-29.296875,-46.38671875,0.0,-1.0,1.0,0.0,1.m4v,6.0
2024-02-27 15:28:33.249079,1709044113.2490788,-14.6484375,-41.015625,-25.87890625,-57.12890625,0.0,-1.0,1.0,0.0,1.m4v,6.0
2024-02-27 15:28:33.252984,1709044113.2529836,-5.37109375,-16.11328125,-35.15625,-32.71484375,0.0,-1.0,1.0,0.0,1.m4v,6.0
2024-02-27 15:28:33.256889,1709044113.2568886,-28.3203125,-6.34765625,-36.1328125,-16.11328125,0.0,-1.0,1.0,0.0,1.m4v,6.0
2024-02-27 15:28:33.260804,1709044113.2608037,-50.29296875,-28.3203125,-44.43359375,-25.87890625,0.0,-1.0,1.0,0.0,1.m4v,6.0
2024-02-27 15:28:33.264709,1709044113.2647088,-48.33984375,-43.9453125,-45.41015625,-45.41015625,0.0,-1.0,1.0,0.0,1.m4v,6.0
2024-02-27 15:28:33.268614,1709044113.2686138,1.46484375,-33.69140625,-36.1328125,-37.109375,0.0,-1.0,1.0,0.0,1.m4v,6.0
2024-02-27 15:28:33.272519,1709044113.2725186,17.08984375,-22.94921875,-23.4375,-34.66796875,0.0,-1.0,1.0,0.0,1.m4v,6.0
2024-02-27 15:28:33.276424,1709044113.2764237,-36.1328125,-19.04296875,-15.625,-28.80859375,0.0,-1.0,1.0,0.0,1.m4v,6.0
2024-02-27 15:28:33.280329,1709044113.2803285,-34.1796875,-18.06640625,-21.97265625,-5.37109375,0.0,-1.0,1.0,0.0,1.m4v,6.0
2024-02-27 15:28:33.284234,1709044113.2842336,10.25390625,-27.34375,-40.0390625,-10.25390625,0.0,-1.0,1.0,0.0,1.m4v,6.0
2024-02-27 15:28:33.288138,1709044113.2881384,24.4140625,-38.57421875,-48.33984375,-29.296875,0.0,-1.0,1.0,0.0,1.m4v,6.0
2024-02-27 15:28:33.292043,1709044113.2920434,9.27734375,-38.57421875,-35.64453125,-32.2265625,0.0,-1.0,1.0,0.0,1.m4v,6.0
2024-02-27 15:28:33.295949,1709044113.2959485,-51.7578125,-42.48046875,-29.78515625,-30.76171875,0.0,-1.0,1.0,0.0,1.m4v,6.0
2024-02-27 15:28:33.299853,1709044113.299853,-82.51953125,-39.0625,-30.76171875,-33.203125,0.0,-1.0,1.0,0.0,1.m4v,6.0
2024-02-27 15:28:33.303758,1709044113.3037584,-33.69140625,-27.34375,-33.203125,-41.50390625,0.0,-1.0,1.0,0.0,1.m4v,6.0
2024-02-27 15:28:33.307672,1709044113.3076715,-2.44140625,-21.97265625,-28.80859375,-54.19921875,0.0,-1.0,1.0,0.0,1.m4v,6.0
2024-02-27 15:28:33.311577,1709044113.3115766,-20.01953125,-28.3203125,-30.2734375,-45.8984375,0.0,-1.0,1.0,0.0,1.m4v,6.0
2024-02-27 15:28:33.315481,1709044113.3154814,-56.640625,-35.64453125,-41.9921875,-42.48046875,0.0,-1.0,1.0,0.0,1.m4v,6.0
2024-02-27 15:28:33.319386,1709044113.3193865,-76.66015625,-26.3671875,-36.62109375,-50.29296875,0.0,-1.0,1.0,0.0,1.m4v,6.0
2024-02-27 15:28:33.323291,1709044113.3232913,-37.109375,-24.4140625,-31.25,-43.45703125,0.0,-1.0,1.0,0.0,1.m4v,6.0
2024-02-27 15:28:33.327196,1709044113.3271964,0.9765625,-32.71484375,-36.1328125,-50.29296875,0.0,-1.0,1.0,0.0,1.m4v,6.0
2024-02-27 15:28:33.331101,1709044113.3311014,0.0,-31.25,-35.15625,-51.7578125,0.0,-1.0,1.0,0.0,1.m4v,6.0
2024-02-27 15:28:33.335006,1709044113.3350062,-55.6640625,-29.78515625,-33.203125,-50.78125,0.0,-1.0,1.0,0.0,1.m4v,6.0
2024-02-27 15:28:33.338911,1709044113.3389113,-110.83984375,-37.109375,-40.52734375,-54.6875,0.0,-1.0,1.0,0.0,1.m4v,6.0
2024-02-27 15:28:33.342816,1709044113.342816,-89.35546875,-37.109375,-47.36328125,-55.17578125,0.0,-1.0,1.0,0.0,1.m4v,6.0
2024-02-27 15:28:33.346721,1709044113.3467212,-55.6640625,-34.1796875,-45.41015625,-59.08203125,0.0,-1.0,1.0,0.0,1.m4v,6.0
2024-02-27 15:28:33.350626,1709044113.350626,-51.7578125,-32.2265625,-34.66796875,-67.87109375,0.0,-1.0,1.0,0.0,1.m4v,6.0
2024-02-27 15:28:33.354539,1709044113.354539,-70.80078125,-25.87890625,-26.3671875,-69.3359375,0.0,-1.0,1.0,0.0,1.m4v,6.0
2024-02-27 15:28:33.358444,1709044113.358444,-93.26171875,-26.3671875,-32.2265625,-47.36328125,0.0,-1.0,1.0,0.0,1.m4v,6.0
2024-02-27 15:28:33.362349,1709044113.362349,-65.4296875,-33.203125,-37.59765625,-27.83203125,0.0,-1.0,1.0,0.0,1.m4v,6.0
2024-02-27 15:28:33.366254,1709044113.366254,-20.01953125,-35.64453125,-39.55078125,-36.1328125,0.0,-1.0,1.0,0.0,1.m4v,6.0
2024-02-27 15:28:33.370159,1709044113.370159,-27.83203125,-36.62109375,-41.50390625,-56.640625,0.0,-1.0,1.0,0.0,1.m4v,6.0
2024-02-27 15:28:33.374064,1709044113.3740635,-61.03515625,-34.1796875,-27.83203125,-43.45703125,0.0,-1.0,1.0,0.0,1.m4v,6.0
2024-02-27 15:28:33.377969,1709044113.3779688,-121.09375,-34.66796875,-26.3671875,-29.296875,0.0,-1.0,1.0,0.0,1.m4v,6.0
2024-02-27 15:28:33.381874,1709044113.3818736,-80.078125,-37.59765625,-37.59765625,-35.64453125,0.0,-1.0,1.0,0.0,1.m4v,6.0
2024-02-27 15:28:33.385779,1709044113.385779,-13.671875,-28.3203125,-34.1796875,-46.875,0.0,-1.0,1.0,0.0,1.m4v,6.0
2024-02-27 15:28:33.389684,1709044113.3896835,-4.8828125,-21.97265625,-28.80859375,-52.24609375,0.0,-1.0,1.0,0.0,1.m4v,6.0
2024-02-27 15:28:33.393589,1709044113.3935883,-48.33984375,-27.83203125,-31.73828125,-45.8984375,0.0,-1.0,1.0,0.0,1.m4v,6.0
2024-02-27 15:28:33.397494,1709044113.3974936,-116.2109375,-32.71484375,-33.203125,-44.921875,0.0,-1.0,1.0,0.0,1.m4v,6.0
2024-02-27 15:28:33.401405,1709044113.401405,-88.8671875,-27.34375,-28.80859375,-42.48046875,0.0,-1.0,1.0,0.0,1.m4v,6.0
2024-02-27 15:28:33.405310,1709044113.4053102,-26.85546875,-22.4609375,-35.15625,-47.36328125,0.0,-1.0,1.0,0.0,1.m4v,6.0
2024-02-27 15:28:33.409215,1709044113.4092152,-2.9296875,-27.34375,-44.43359375,-51.26953125,0.0,-1.0,1.0,0.0,1.m4v,6.0
2024-02-27 15:28:33.413120,1709044113.41312,-21.484375,-35.64453125,-37.59765625,-37.109375,0.0,-1.0,1.0,0.0,1.m4v,6.0
2024-02-27 15:28:33.417025,1709044113.417025,-61.03515625,-31.25,-36.1328125,-40.52734375,0.0,-1.0,1.0,0.0,1.m4v,6.0
2024-02-27 15:28:33.420930,1709044113.42093,-74.70703125,-25.87890625,-42.48046875,-54.19921875,0.0,-1.0,1.0,0.0,1.m4v,6.0
2024-02-27 15:28:33.424835,1709044113.424835,-24.90234375,-38.0859375,-36.1328125,-54.6875,0.0,-1.0,1.0,0.0,1.m4v,6.0
2024-02-27 15:28:33.428740,1709044113.4287398,5.859375,-46.875,-34.1796875,-49.8046875,0.0,-1.0,1.0,0.0,1.m4v,6.0
2024-02-27 15:28:33.432645,1709044113.4326448,-45.8984375,-40.52734375,-32.71484375,-44.43359375,0.0,-1.0,1.0,0.0,1.m4v,6.0
2024-02-27 15:28:33.436550,1709044113.43655,-80.56640625,-40.0390625,-31.25,-37.59765625,0.0,-1.0,1.0,0.0,1.m4v,6.0
2024-02-27 15:28:33.440455,1709044113.4404547,-65.4296875,-43.45703125,-34.1796875,-37.59765625,0.0,-1.0,1.0,0.0,1.m4v,6.0
2024-02-27 15:28:33.444360,1709044113.4443598,-49.31640625,-40.52734375,-37.59765625,-53.7109375,0.0,-1.0,1.0,0.0,1.m4v,6.0
2024-02-27 15:28:33.448270,1709044113.4482703,-17.578125,-32.71484375,-37.109375,-51.7578125,0.0,-1.0,1.0,0.0,1.m4v,6.0
2024-02-27 15:28:33.452175,1709044113.4521751,7.32421875,-30.2734375,-28.3203125,-39.55078125,0.0,-1.0,1.0,0.0,1.m4v,6.0
2024-02-27 15:28:33.456080,1709044113.4560802,-40.0390625,-38.57421875,-19.04296875,-33.203125,0.0,-1.0,1.0,0.0,1.m4v,6.0
2024-02-27 15:28:33.459985,1709044113.459985,-70.3125,-36.62109375,-33.203125,-27.83203125,0.0,-1.0,1.0,0.0,1.m4v,6.0
2024-02-27 15:28:33.463890,1709044113.46389,-56.15234375,-45.8984375,-54.19921875,-47.8515625,0.0,-1.0,1.0,0.0,1.m4v,6.0
2024-02-27 15:28:33.467795,1709044113.467795,-7.32421875,-44.43359375,-49.8046875,-73.2421875,0.0,-1.0,1.0,0.0,1.m4v,6.0
2024-02-27 15:28:33.471700,1709044113.4717,1.953125,-30.76171875,-47.36328125,-51.26953125,0.0,-1.0,1.0,0.0,1.m4v,6.0
2024-02-27 15:28:33.475605,1709044113.475605,-55.17578125,-33.69140625,-47.8515625,-34.66796875,0.0,-1.0,1.0,0.0,1.m4v,6.0
2024-02-27 15:28:33.479510,1709044113.4795098,-64.453125,-27.83203125,-44.43359375,-34.66796875,0.0,-1.0,1.0,0.0,1.m4v,6.0
2024-02-27 15:28:33.483415,1709044113.483415,-27.83203125,-20.99609375,-41.50390625,-39.55078125,0.0,-1.0,1.0,0.0,1.m4v,6.0
2024-02-27 15:28:33.487320,1709044113.4873197,-22.4609375,-24.90234375,-38.57421875,-46.875,0.0,-1.0,1.0,0.0,1.m4v,6.0
2024-02-27 15:28:33.491225,1709044113.4912248,-21.97265625,-23.4375,-29.296875,-41.015625,0.0,-1.0,1.0,0.0,1.m4v,6.0
2024-02-27 15:28:33.495143,1709044113.4951434,-58.59375,-36.62109375,-28.3203125,-42.48046875,0.0,-1.0,1.0,0.0,1.m4v,6.0
2024-02-27 15:28:33.499048,1709044113.4990482,-97.16796875,-41.015625,-34.1796875,-34.66796875,0.0,-1.0,1.0,0.0,1.m4v,6.0
2024-02-27 15:28:33.502953,1709044113.5029533,-49.31640625,-25.87890625,-36.62109375,-36.62109375,0.0,-1.0,1.0,0.0,1.m4v,6.0
2024-02-27 15:28:33.506858,1709044113.506858,-35.15625,-14.16015625,-22.94921875,-53.7109375,0.0,-1.0,1.0,0.0,1.m4v,6.0
2024-02-27 15:28:33.510763,1709044113.5107632,-28.80859375,-18.5546875,-15.13671875,-53.7109375,0.0,-1.0,1.0,0.0,1.m4v,6.0
2024-02-27 15:28:33.514668,1709044113.5146682,-25.390625,-35.15625,-37.59765625,-39.0625,0.0,-1.0,1.0,0.0,1.m4v,6.0
2024-02-27 15:28:33.518573,1709044113.518573,-60.05859375,-37.109375,-47.8515625,-21.484375,0.0,-1.0,1.0,0.0,1.m4v,6.0
2024-02-27 15:28:33.522478,1709044113.522478,-58.10546875,-32.2265625,-39.55078125,-40.52734375,0.0,-1.0,1.0,0.0,1.m4v,6.0
2024-02-27 15:28:33.526383,1709044113.526383,-29.78515625,-32.71484375,-41.9921875,-58.59375,0.0,-1.0,1.0,0.0,1.m4v,6.0
2024-02-27 15:28:33.530288,1709044113.530288,-11.23046875,-42.48046875,-46.875,-33.69140625,0.0,-1.0,1.0,0.0,1.m4v,6.0
2024-02-27 15:28:33.534193,1709044113.5341928,-45.41015625,-42.48046875,-45.8984375,-24.90234375,0.0,-1.0,1.0,0.0,1.m4v,6.0
2024-02-27 15:28:33.538098,1709044113.538098,-59.5703125,-29.78515625,-33.203125,-26.3671875,0.0,-1.0,1.0,0.0,1.m4v,6.0
2024-02-27 15:28:33.542016,1709044113.542016,-38.0859375,-29.296875,-27.34375,-30.76171875,0.0,-1.0,1.0,0.0,1.m4v,6.0
2024-02-27 15:28:33.545921,1709044113.5459208,-24.90234375,-37.59765625,-39.55078125,-46.875,0.0,-1.0,1.0,0.0,1.m4v,6.0
2024-02-27 15:28:33.549826,1709044113.549826,-12.20703125,-42.48046875,-43.9453125,-54.6875,0.0,-1.0,1.0,0.0,1.m4v,6.0
2024-02-27 15:28:33.553731,1709044113.553731,-58.10546875,-35.64453125,-35.64453125,-43.45703125,0.0,-1.0,1.0,0.0,1.m4v,6.0
2024-02-27 15:28:33.557636,1709044113.5576358,-63.96484375,-27.83203125,-24.90234375,-34.1796875,0.0,-1.0,1.0,0.0,1.m4v,6.0
2024-02-27 15:28:33.561541,1709044113.5615408,-7.8125,-29.78515625,-13.671875,-34.1796875,0.0,-1.0,1.0,0.0,1.m4v,6.0
2024-02-27 15:28:33.565446,1709044113.5654457,1.46484375,-37.109375,-18.06640625,-30.76171875,0.0,-1.0,1.0,0.0,1.m4v,6.0
2024-02-27 15:28:33.569351,1709044113.5693507,-10.25390625,-40.0390625,-37.59765625,-29.78515625,0.0,-1.0,1.0,0.0,1.m4v,6.0
2024-02-27 15:28:33.573256,1709044113.5732555,-32.2265625,-37.59765625,-46.38671875,-44.43359375,0.0,-1.0,1.0,0.0,1.m4v,6.0
2024-02-27 15:28:33.577161,1709044113.5771606,-88.8671875,-40.0390625,-46.875,-35.15625,0.0,-1.0,1.0,0.0,1.m4v,6.0
2024-02-27 15:28:33.581066,1709044113.5810657,-78.125,-46.875,-41.50390625,-17.578125,0.0,-1.0,1.0,0.0,1.m4v,6.0
2024-02-27 15:28:33.584970,1709044113.5849705,11.71875,-29.78515625,-30.76171875,-25.390625,0.0,-1.0,1.0,0.0,1.m4v,6.0
2024-02-27 15:28:33.588887,1709044113.588887,40.0390625,-21.97265625,-32.2265625,-41.9921875,0.0,-1.0,1.0,0.0,1.m4v,6.0
2024-02-27 15:28:33.592792,1709044113.592792,3.90625,-30.2734375,-32.71484375,-42.48046875,0.0,-1.0,1.0,0.0,1.m4v,6.0
2024-02-27 15:28:33.596697,1709044113.596697,-31.73828125,-28.80859375,-29.78515625,-18.5546875,0.0,-1.0,1.0,0.0,1.m4v,6.0
2024-02-27 15:28:33.600602,1709044113.600602,-38.0859375,-28.80859375,-37.109375,-9.765625,0.0,-1.0,1.0,0.0,1.m4v,6.0
2024-02-27 15:28:33.604507,1709044113.604507,-38.57421875,-34.66796875,-34.1796875,-33.203125,0.0,-1.0,1.0,0.0,1.m4v,6.0
2024-02-27 15:28:33.608412,1709044113.6084118,23.92578125,-34.1796875,-27.34375,-36.62109375,0.0,-1.0,1.0,0.0,1.m4v,6.0
2024-02-27 15:28:33.612317,1709044113.6123168,47.36328125,-26.85546875,-22.4609375,-23.92578125,0.0,-1.0,1.0,0.0,1.m4v,6.0
2024-02-27 15:28:33.616222,1709044113.6162217,-23.4375,-13.18359375,-15.625,-12.20703125,0.0,-1.0,1.0,0.0,1.m4v,6.0
2024-02-27 15:28:33.620127,1709044113.6201267,-65.4296875,-18.5546875,-27.83203125,-1.46484375,0.0,-1.0,1.0,0.0,1.m4v,6.0
2024-02-27 15:28:33.624032,1709044113.6240318,-46.38671875,-32.2265625,-33.69140625,-15.13671875,0.0,-1.0,1.0,0.0,1.m4v,6.0
2024-02-27 15:28:33.627937,1709044113.6279366,-1.46484375,-40.0390625,-39.55078125,-35.15625,0.0,-1.0,1.0,0.0,1.m4v,6.0
2024-02-27 15:28:33.631842,1709044113.6318417,-12.6953125,-35.64453125,-40.52734375,-43.45703125,0.0,-1.0,1.0,0.0,1.m4v,6.0
2024-02-27 15:28:33.635757,1709044113.635757,-67.87109375,-27.83203125,-31.73828125,-42.48046875,0.0,-1.0,1.0,0.0,1.m4v,6.0
2024-02-27 15:28:33.639662,1709044113.6396618,-65.91796875,-30.76171875,-36.1328125,-32.71484375,0.0,-1.0,1.0,0.0,1.m4v,6.0
2024-02-27 15:28:33.643567,1709044113.6435668,-26.85546875,-34.1796875,-48.828125,-36.1328125,0.0,-1.0,1.0,0.0,1.m4v,6.0
2024-02-27 15:28:33.647472,1709044113.6474717,-37.59765625,-31.25,-44.921875,-51.7578125,0.0,-1.0,1.0,0.0,1.m4v,6.0
2024-02-27 15:28:33.651377,1709044113.6513767,-32.2265625,-23.92578125,-31.25,-50.78125,0.0,-1.0,1.0,0.0,1.m4v,6.0
2024-02-27 15:28:33.655282,1709044113.6552818,-20.5078125,-23.4375,-22.94921875,-42.96875,0.0,-1.0,1.0,0.0,1.m4v,6.0
2024-02-27 15:28:33.659187,1709044113.6591866,-41.9921875,-32.71484375,-33.203125,-42.48046875,0.0,-1.0,1.0,0.0,1.m4v,6.0
2024-02-27 15:28:33.663092,1709044113.6630917,-22.94921875,-29.296875,-43.45703125,-27.34375,0.0,-1.0,1.0,0.0,1.m4v,6.0
2024-02-27 15:28:33.666996,1709044113.6669965,-18.5546875,-30.2734375,-33.69140625,-37.59765625,0.0,-1.0,1.0,0.0,1.m4v,6.0
2024-02-27 15:28:33.670902,1709044113.6709015,-21.484375,-32.2265625,-26.3671875,-59.5703125,0.0,-1.0,1.0,0.0,1.m4v,6.0
2024-02-27 15:28:33.674806,1709044113.6748064,-51.7578125,-35.15625,-29.78515625,-43.45703125,0.0,-1.0,1.0,0.0,1.m4v,6.0
2024-02-27 15:28:33.678711,1709044113.6787114,-74.70703125,-23.92578125,-40.0390625,-23.92578125,0.0,-1.0,1.0,0.0,1.m4v,6.0
2024-02-27 15:28:33.682626,1709044113.6826255,-42.48046875,-13.671875,-48.828125,-20.99609375,0.0,-1.0,1.0,0.0,1.m4v,6.0
2024-02-27 15:28:33.686531,1709044113.6865306,-27.83203125,-19.53125,-38.0859375,-30.2734375,0.0,-1.0,1.0,0.0,1.m4v,6.0
2024-02-27 15:28:33.690435,1709044113.6904354,-21.97265625,-31.73828125,-28.3203125,-50.78125,0.0,-1.0,1.0,0.0,1.m4v,6.0
2024-02-27 15:28:33.694340,1709044113.6943405,-52.24609375,-34.66796875,-26.3671875,-58.10546875,0.0,-1.0,1.0,0.0,1.m4v,6.0
2024-02-27 15:28:33.698246,1709044113.6982455,-73.73046875,-33.203125,-31.73828125,-40.52734375,0.0,-1.0,1.0,0.0,1.m4v,6.0
2024-02-27 15:28:33.702150,1709044113.7021503,-27.83203125,-33.69140625,-33.203125,-29.296875,0.0,-1.0,1.0,0.0,1.m4v,6.0
2024-02-27 15:28:33.706055,1709044113.7060554,-0.48828125,-27.83203125,-34.66796875,-40.0390625,0.0,-1.0,1.0,0.0,1.m4v,6.0
2024-02-27 15:28:33.709960,1709044113.7099602,-27.34375,-32.71484375,-45.8984375,-44.43359375,0.0,-1.0,1.0,0.0,1.m4v,6.0
2024-02-27 15:28:33.713865,1709044113.7138653,-52.24609375,-29.78515625,-41.015625,-38.57421875,0.0,-1.0,1.0,0.0,1.m4v,6.0
2024-02-27 15:28:33.717770,1709044113.71777,-56.15234375,-13.18359375,-20.5078125,-38.0859375,0.0,-1.0,1.0,0.0,1.m4v,6.0
2024-02-27 15:28:33.721675,1709044113.7216752,-35.15625,-15.13671875,-21.97265625,-37.109375,0.0,-1.0,1.0,0.0,1.m4v,6.0
2024-02-27 15:28:33.725580,1709044113.7255802,-22.94921875,-33.203125,-36.62109375,-51.7578125,0.0,-1.0,1.0,0.0,1.m4v,6.0
2024-02-27 15:28:33.729494,1709044113.7294936,-36.62109375,-42.96875,-36.62109375,-63.96484375,0.0,-1.0,1.0,0.0,1.m4v,6.0
2024-02-27 15:28:33.733399,1709044113.733399,-40.52734375,-37.109375,-36.1328125,-50.78125,0.0,-1.0,1.0,0.0,1.m4v,6.0
2024-02-27 15:28:33.737303,1709044113.7373035,-55.6640625,-33.203125,-32.71484375,-47.8515625,0.0,-1.0,1.0,0.0,1.m4v,6.0
2024-02-27 15:28:33.741209,1709044113.7412086,-26.85546875,-28.3203125,-33.69140625,-41.50390625,0.0,-1.0,1.0,0.0,1.m4v,6.0
2024-02-27 15:28:33.745114,1709044113.7451136,9.765625,-31.25,-38.57421875,-29.296875,0.0,-1.0,1.0,0.0,1.m4v,6.0
2024-02-27 15:28:33.749018,1709044113.7490184,23.92578125,-39.55078125,-38.57421875,-32.2265625,0.0,-1.0,1.0,0.0,1.m4v,6.0
2024-02-27 15:28:33.752923,1709044113.7529235,0.9765625,-34.1796875,-49.8046875,-28.3203125,0.0,-1.0,1.0,0.0,1.m4v,6.0
2024-02-27 15:28:33.756828,1709044113.7568283,-62.98828125,-33.69140625,-49.31640625,-16.11328125,0.0,-1.0,1.0,0.0,1.m4v,6.0
2024-02-27 15:28:33.760733,1709044113.7607334,-50.78125,-27.83203125,-31.73828125,-9.765625,0.0,-1.0,1.0,0.0,1.m4v,6.0
2024-02-27 15:28:33.764638,1709044113.7646384,6.8359375,-23.4375,-19.53125,-24.90234375,0.0,-1.0,1.0,0.0,1.m4v,6.0
2024-02-27 15:28:33.768543,1709044113.7685432,24.4140625,-27.83203125,-25.390625,-43.45703125,0.0,-1.0,1.0,0.0,1.m4v,6.0
2024-02-27 15:28:33.772448,1709044113.7724483,-42.96875,-31.73828125,-29.296875,-51.26953125,0.0,-1.0,1.0,0.0,1.m4v,6.0
2024-02-27 15:28:33.776360,1709044113.77636,-88.8671875,-31.25,-27.83203125,-33.69140625,0.0,-1.0,1.0,0.0,1.m4v,6.0
2024-02-27 15:28:33.780265,1709044113.780265,-25.390625,-31.25,-33.203125,-9.27734375,0.0,-1.0,1.0,0.0,1.m4v,6.0
2024-02-27 15:28:33.784170,1709044113.78417,18.06640625,-29.296875,-33.203125,-19.53125,0.0,-1.0,1.0,0.0,1.m4v,6.0
2024-02-27 15:28:33.788075,1709044113.788075,18.5546875,-22.94921875,-32.71484375,-25.87890625,0.0,-1.0,1.0,0.0,1.m4v,6.0
2024-02-27 15:28:33.791980,1709044113.7919798,-15.625,-30.2734375,-34.66796875,-21.97265625,0.0,-1.0,1.0,0.0,1.m4v,6.0
2024-02-27 15:28:33.795885,1709044113.7958848,-61.03515625,-36.62109375,-32.71484375,-18.06640625,0.0,-1.0,1.0,0.0,1.m4v,6.0
2024-02-27 15:28:33.799790,1709044113.79979,-62.01171875,-35.64453125,-32.71484375,-16.6015625,0.0,-1.0,1.0,0.0,1.m4v,6.0
2024-02-27 15:28:33.803695,1709044113.8036947,-48.828125,-33.203125,-50.29296875,-35.15625,0.0,-1.0,1.0,0.0,1.m4v,6.0
2024-02-27 15:28:33.807600,1709044113.8075998,-22.4609375,-30.2734375,-48.828125,-47.36328125,0.0,-1.0,1.0,0.0,1.m4v,6.0
2024-02-27 15:28:33.811505,1709044113.8115046,-8.7890625,-30.2734375,-25.390625,-42.48046875,0.0,-1.0,1.0,0.0,1.m4v,6.0
2024-02-27 15:28:33.815410,1709044113.8154097,-61.03515625,-37.59765625,-27.34375,-43.45703125,0.0,-1.0,1.0,0.0,1.m4v,6.0
2024-02-27 15:28:33.819314,1709044113.8193145,-84.47265625,-41.9921875,-35.15625,-38.0859375,0.0,-1.0,1.0,0.0,1.m4v,6.0
2024-02-27 15:28:33.823225,1709044113.823225,-49.31640625,-39.55078125,-27.83203125,-37.59765625,0.0,-1.0,1.0,0.0,1.m4v,6.0
2024-02-27 15:28:33.827130,1709044113.82713,-43.9453125,-39.0625,-33.203125,-59.08203125,0.0,-1.0,1.0,0.0,1.m4v,6.0
2024-02-27 15:28:33.831035,1709044113.831035,-53.7109375,-38.0859375,-43.9453125,-66.40625,0.0,-1.0,1.0,0.0,1.m4v,6.0
2024-02-27 15:28:33.834940,1709044113.83494,-47.36328125,-31.73828125,-35.15625,-40.0390625,0.0,-1.0,1.0,0.0,1.m4v,6.0
2024-02-27 15:28:33.838845,1709044113.838845,-55.17578125,-30.2734375,-24.90234375,-15.625,0.0,-1.0,1.0,0.0,1.m4v,6.0
2024-02-27 15:28:33.842750,1709044113.8427498,-41.50390625,-35.64453125,-25.390625,-12.20703125,0.0,-1.0,1.0,0.0,1.m4v,6.0
2024-02-27 15:28:33.846655,1709044113.846655,15.625,-41.015625,-30.76171875,-28.80859375,0.0,-1.0,1.0,0.0,1.m4v,6.0
2024-02-27 15:28:33.850560,1709044113.8505597,8.7890625,-35.15625,-28.3203125,-38.0859375,0.0,-1.0,1.0,0.0,1.m4v,6.0
2024-02-27 15:28:33.854465,1709044113.8544648,-72.265625,-35.15625,-44.43359375,-41.015625,0.0,-1.0,1.0,0.0,1.m4v,6.0
2024-02-27 15:28:33.858370,1709044113.8583696,-107.91015625,-27.34375,-49.8046875,-34.1796875,0.0,-1.0,1.0,0.0,1.m4v,6.0
2024-02-27 15:28:33.862275,1709044113.8622746,-66.40625,-13.18359375,-29.296875,-30.2734375,0.0,-1.0,1.0,0.0,1.m4v,6.0
2024-02-27 15:28:33.866180,1709044113.8661797,-25.390625,-17.578125,-15.13671875,-44.43359375,0.0,-1.0,1.0,0.0,1.m4v,6.0
2024-02-27 15:28:33.870099,1709044113.8700986,11.71875,-20.01953125,-18.06640625,-36.1328125,0.0,-1.0,1.0,0.0,1.m4v,6.0
2024-02-27 15:28:33.874003,1709044113.8740034,-49.8046875,-30.2734375,-32.2265625,-33.203125,0.0,-1.0,1.0,0.0,1.m4v,6.0
2024-02-27 15:28:33.877908,1709044113.8779085,-115.72265625,-41.015625,-37.59765625,-40.0390625,0.0,-1.0,1.0,0.0,1.m4v,6.0
2024-02-27 15:28:33.881814,1709044113.8818135,-52.734375,-42.48046875,-42.96875,-36.62109375,0.0,-1.0,1.0,0.0,1.m4v,6.0
2024-02-27 15:28:33.885718,1709044113.8857183,-21.97265625,-46.38671875,-50.29296875,-40.52734375,0.0,-1.0,1.0,0.0,1.m4v,6.0
2024-02-27 15:28:33.889623,1709044113.8896234,0.48828125,-43.9453125,-42.48046875,-46.875,0.0,-1.0,1.0,0.0,1.m4v,6.0
2024-02-27 15:28:33.893528,1709044113.8935282,-12.20703125,-39.0625,-41.015625,-41.015625,0.0,-1.0,1.0,0.0,1.m4v,6.0
2024-02-27 15:28:33.897433,1709044113.8974333,-60.546875,-33.69140625,-44.43359375,-25.87890625,0.0,-1.0,1.0,0.0,1.m4v,6.0
2024-02-27 15:28:33.901338,1709044113.901338,-65.91796875,-32.71484375,-38.0859375,-29.78515625,0.0,-1.0,1.0,0.0,1.m4v,6.0
2024-02-27 15:28:33.905243,1709044113.9052432,-62.5,-28.80859375,-39.0625,-39.55078125,0.0,-1.0,1.0,0.0,1.m4v,6.0
2024-02-27 15:28:33.909148,1709044113.9091482,5.37109375,-16.11328125,-37.59765625,-42.96875,0.0,-1.0,1.0,0.0,1.m4v,6.0
2024-02-27 15:28:33.913053,1709044113.913053,1.46484375,-23.4375,-32.2265625,-55.6640625,0.0,-1.0,1.0,0.0,1.m4v,6.0
2024-02-27 15:28:33.916971,1709044113.916971,-58.59375,-31.25,-30.2734375,-37.109375,0.0,-1.0,1.0,0.0,1.m4v,6.0
2024-02-27 15:28:33.920876,1709044113.9208758,-77.1484375,-35.64453125,-41.9921875,-35.15625,0.0,-1.0,1.0,0.0,1.m4v,6.0
2024-02-27 15:28:33.924781,1709044113.9247808,-69.82421875,-37.109375,-50.29296875,-47.8515625,0.0,-1.0,1.0,0.0,1.m4v,6.0
2024-02-27 15:28:33.928686,1709044113.9286857,-44.921875,-33.69140625,-48.828125,-42.96875,0.0,-1.0,1.0,0.0,1.m4v,6.0
2024-02-27 15:28:33.932591,1709044113.9325907,-42.48046875,-44.43359375,-46.38671875,-41.015625,0.0,-1.0,1.0,0.0,1.m4v,6.0
2024-02-27 15:28:33.936496,1709044113.9364955,-54.19921875,-41.015625,-38.0859375,-39.0625,0.0,-1.0,1.0,0.0,1.m4v,6.0
2024-02-27 15:28:33.940401,1709044113.9404006,-37.109375,-24.90234375,-31.25,-27.34375,0.0,-1.0,1.0,0.0,1.m4v,6.0
2024-02-27 15:28:33.944306,1709044113.9443057,-24.4140625,-30.2734375,-41.015625,-32.71484375,0.0,-1.0,1.0,0.0,1.m4v,6.0
2024-02-27 15:28:33.948210,1709044113.9482105,3.41796875,-35.15625,-42.96875,-44.921875,0.0,-1.0,1.0,0.0,1.m4v,6.0
2024-02-27 15:28:33.952116,1709044113.9521155,4.39453125,-28.3203125,-31.25,-41.9921875,0.0,-1.0,1.0,0.0,1.m4v,6.0
2024-02-27 15:28:33.956020,1709044113.9560204,-67.87109375,-36.1328125,-35.15625,-32.2265625,0.0,-1.0,1.0,0.0,1.m4v,6.0
2024-02-27 15:28:33.959925,1709044113.9599254,-84.47265625,-41.50390625,-41.015625,-31.25,0.0,-1.0,1.0,0.0,1.m4v,6.0
2024-02-27 15:28:33.963842,1709044113.9638422,-18.5546875,-33.69140625,-33.69140625,-24.90234375,0.0,-1.0,1.0,0.0,1.m4v,6.0
2024-02-27 15:28:33.967747,1709044113.967747,7.32421875,-32.2265625,-23.92578125,-35.64453125,0.0,-1.0,1.0,0.0,1.m4v,6.0
2024-02-27 15:28:33.971652,1709044113.971652,-24.90234375,-39.0625,-38.0859375,-43.9453125,0.0,-1.0,1.0,0.0,1.m4v,6.0
2024-02-27 15:28:33.975557,1709044113.9755569,-64.453125,-34.1796875,-56.640625,-33.69140625,0.0,-1.0,1.0,0.0,1.m4v,6.0
2024-02-27 15:28:33.979462,1709044113.979462,-88.37890625,-25.390625,-44.921875,-26.3671875,0.0,-1.0,1.0,0.0,1.m4v,6.0
2024-02-27 15:28:33.983367,1709044113.983367,-66.89453125,-24.90234375,-34.1796875,-39.0625,0.0,-1.0,1.0,0.0,1.m4v,6.0
2024-02-27 15:28:33.987272,1709044113.9872718,12.6953125,-24.90234375,-30.2734375,-47.36328125,0.0,-1.0,1.0,0.0,1.m4v,6.0
2024-02-27 15:28:33.991177,1709044113.9911768,36.1328125,-24.4140625,-28.80859375,-31.73828125,0.0,-1.0,1.0,0.0,1.m4v,6.0
2024-02-27 15:28:33.995082,1709044113.9950817,-32.71484375,-35.64453125,-35.15625,-38.57421875,0.0,-1.0,1.0,0.0,1.m4v,6.0
2024-02-27 15:28:33.998987,1709044113.9989867,-65.4296875,-38.57421875,-35.64453125,-31.25,0.0,-1.0,1.0,0.0,1.m4v,6.0
2024-02-27 15:28:34.002892,1709044114.0028918,-37.59765625,-29.78515625,-24.90234375,-26.3671875,0.0,-1.0,1.0,0.0,1.m4v,6.0
2024-02-27 15:28:34.006797,1709044114.0067966,-10.7421875,-30.2734375,-23.4375,-46.875,0.0,-1.0,1.0,0.0,1.m4v,6.0
2024-02-27 15:28:34.010712,1709044114.010712,9.27734375,-30.2734375,-29.296875,-48.828125,0.0,-1.0,1.0,0.0,1.m4v,6.0
2024-02-27 15:28:34.014617,1709044114.0146167,-44.921875,-25.390625,-31.73828125,-38.57421875,0.0,-1.0,1.0,0.0,1.m4v,6.0
2024-02-27 15:28:34.018522,1709044114.0185218,-101.5625,-30.76171875,-32.71484375,-35.15625,0.0,-1.0,1.0,0.0,1.m4v,6.0
2024-02-27 15:28:34.022427,1709044114.0224266,-67.3828125,-28.80859375,-39.55078125,-33.69140625,0.0,-1.0,1.0,0.0,1.m4v,6.0
2024-02-27 15:28:34.026332,1709044114.0263317,-15.625,-22.4609375,-41.50390625,-34.66796875,0.0,-1.0,1.0,0.0,1.m4v,6.0
2024-02-27 15:28:34.030237,1709044114.0302367,27.34375,-29.296875,-29.78515625,-37.109375,0.0,-1.0,1.0,0.0,1.m4v,6.0
2024-02-27 15:28:34.034142,1709044114.0341415,-12.6953125,-35.15625,-28.80859375,-33.203125,0.0,-1.0,1.0,0.0,1.m4v,6.0
2024-02-27 15:28:34.038047,1709044114.0380466,-83.49609375,-33.203125,-33.69140625,-32.71484375,0.0,-1.0,1.0,0.0,1.m4v,6.0
2024-02-27 15:28:34.041951,1709044114.0419514,-74.21875,-36.1328125,-36.62109375,-42.96875,0.0,-1.0,1.0,0.0,1.m4v,6.0
2024-02-27 15:28:34.045856,1709044114.0458565,-57.12890625,-46.875,-34.1796875,-59.5703125,0.0,-1.0,1.0,0.0,1.m4v,6.0
2024-02-27 15:28:34.049762,1709044114.0497615,-49.31640625,-40.52734375,-34.66796875,-54.19921875,0.0,-1.0,1.0,0.0,1.m4v,6.0
2024-02-27 15:28:34.053666,1709044114.0536664,-36.1328125,-30.2734375,-36.62109375,-48.828125,0.0,-1.0,1.0,0.0,1.m4v,6.0
2024-02-27 15:28:34.057580,1709044114.0575805,-51.7578125,-27.83203125,-18.5546875,-46.875,0.0,-1.0,1.0,0.0,1.m4v,6.0
2024-02-27 15:28:34.061485,1709044114.0614853,-55.17578125,-24.4140625,-24.4140625,-39.0625,0.0,-1.0,1.0,0.0,1.m4v,6.0
2024-02-27 15:28:34.065390,1709044114.0653903,-48.828125,-29.78515625,-33.203125,-46.38671875,0.0,-1.0,1.0,0.0,1.m4v,6.0
2024-02-27 15:28:34.069295,1709044114.0692952,-47.36328125,-34.1796875,-23.4375,-59.08203125,0.0,-1.0,1.0,0.0,1.m4v,6.0
2024-02-27 15:28:34.073200,1709044114.0732002,-63.96484375,-35.64453125,-29.296875,-62.98828125,0.0,-1.0,1.0,0.0,1.m4v,6.0
2024-02-27 15:28:34.077105,1709044114.0771053,-91.30859375,-41.50390625,-32.71484375,-53.7109375,0.0,-1.0,1.0,0.0,1.m4v,6.0
2024-02-27 15:28:34.081010,1709044114.08101,-65.4296875,-37.109375,-27.34375,-39.0625,0.0,-1.0,1.0,0.0,1.m4v,6.0
2024-02-27 15:28:34.084915,1709044114.0849152,-11.71875,-29.78515625,-31.25,-48.828125,0.0,-1.0,1.0,0.0,1.m4v,6.0
2024-02-27 15:28:34.088820,1709044114.08882,-20.99609375,-36.62109375,-36.1328125,-75.68359375,0.0,-1.0,1.0,0.0,1.m4v,6.0
2024-02-27 15:28:34.092725,1709044114.092725,-43.45703125,-37.109375,-21.484375,-66.40625,0.0,-1.0,1.0,0.0,1.m4v,6.0
2024-02-27 15:28:34.096630,1709044114.09663,-62.5,-42.96875,-16.6015625,-42.96875,0.0,-1.0,1.0,0.0,1.m4v,6.0
2024-02-27 15:28:34.100535,1709044114.100535,-65.4296875,-52.734375,-17.08984375,-42.96875,0.0,-1.0,1.0,0.0,1.m4v,6.0
2024-02-27 15:28:34.104448,1709044114.1044478,-48.828125,-28.80859375,-12.20703125,-54.6875,0.0,-1.0,1.0,0.0,1.m4v,6.0
2024-02-27 15:28:34.108353,1709044114.108353,-24.4140625,-11.71875,-23.92578125,-41.015625,0.0,-1.0,1.0,0.0,1.m4v,6.0
2024-02-27 15:28:34.112258,1709044114.1122577,-42.48046875,-23.4375,-33.69140625,-36.1328125,0.0,-1.0,1.0,0.0,1.m4v,6.0
2024-02-27 15:28:34.116163,1709044114.1161623,-99.609375,-25.87890625,-30.76171875,-32.71484375,0.0,-1.0,1.0,0.0,1.m4v,6.0
2024-02-27 15:28:34.120068,1709044114.1200676,-110.83984375,-27.34375,-32.71484375,-29.296875,0.0,-1.0,1.0,0.0,1.m4v,6.0
2024-02-27 15:28:34.123972,1709044114.1239724,-55.17578125,-27.83203125,-43.45703125,-38.0859375,0.0,-1.0,1.0,0.0,1.m4v,6.0
2024-02-27 15:28:34.127877,1709044114.1278777,-31.25,-22.4609375,-39.55078125,-45.41015625,0.0,-1.0,1.0,0.0,1.m4v,6.0
2024-02-27 15:28:34.131783,1709044114.1317823,-54.19921875,-28.3203125,-37.109375,-53.7109375,0.0,-1.0,1.0,0.0,1.m4v,6.0
2024-02-27 15:28:34.135687,1709044114.1356874,-93.26171875,-33.69140625,-31.25,-43.45703125,0.0,-1.0,1.0,0.0,1.m4v,6.0
2024-02-27 15:28:34.139592,1709044114.1395924,-96.19140625,-22.94921875,-27.34375,-18.5546875,0.0,-1.0,1.0,0.0,1.m4v,6.0
2024-02-27 15:28:34.143497,1709044114.1434972,-43.45703125,-28.80859375,-37.109375,-32.71484375,0.0,-1.0,1.0,0.0,1.m4v,6.0
2024-02-27 15:28:34.147402,1709044114.1474023,-31.25,-42.96875,-41.015625,-71.77734375,0.0,-1.0,1.0,0.0,1.m4v,6.0
2024-02-27 15:28:34.151315,1709044114.1513147,-41.9921875,-38.57421875,-34.66796875,-73.2421875,0.0,-1.0,1.0,0.0,1.m4v,6.0
2024-02-27 15:28:34.155220,1709044114.1552196,-89.35546875,-39.0625,-33.69140625,-50.78125,0.0,-1.0,1.0,0.0,1.m4v,6.0
2024-02-27 15:28:34.159125,1709044114.1591246,-95.21484375,-46.875,-45.8984375,-37.59765625,0.0,-1.0,1.0,0.0,1.m4v,6.0
2024-02-27 15:28:34.163029,1709044114.1630294,-48.828125,-45.41015625,-50.29296875,-27.83203125,0.0,-1.0,1.0,0.0,1.m4v,6.0
2024-02-27 15:28:34.166934,1709044114.1669345,-28.3203125,-39.55078125,-35.15625,-40.52734375,0.0,-1.0,1.0,0.0,1.m4v,6.0
2024-02-27 15:28:34.170839,1709044114.1708393,0.48828125,-31.73828125,-23.4375,-41.9921875,0.0,-1.0,1.0,0.0,1.m4v,6.0
2024-02-27 15:28:34.174744,1709044114.1747444,-29.78515625,-30.76171875,-24.4140625,-31.25,0.0,-1.0,1.0,0.0,1.m4v,6.0
2024-02-27 15:28:34.178649,1709044114.1786494,-97.65625,-31.25,-34.1796875,-37.59765625,0.0,-1.0,1.0,0.0,1.m4v,6.0
2024-02-27 15:28:34.182554,1709044114.1825542,-67.3828125,-32.2265625,-41.015625,-45.41015625,0.0,-1.0,1.0,0.0,1.m4v,6.0
2024-02-27 15:28:34.186459,1709044114.1864593,-8.7890625,-32.71484375,-33.203125,-51.7578125,0.0,-1.0,1.0,0.0,1.m4v,6.0
2024-02-27 15:28:34.190364,1709044114.190364,-17.578125,-38.0859375,-29.78515625,-77.1484375,0.0,-1.0,1.0,0.0,1.m4v,6.0
2024-02-27 15:28:34.194269,1709044114.1942692,-46.875,-46.38671875,-37.109375,-62.5,0.0,-1.0,1.0,0.0,1.m4v,6.0
2024-02-27 15:28:34.198190,1709044114.1981895,-69.82421875,-50.78125,-38.57421875,-31.73828125,0.0,-1.0,1.0,0.0,1.m4v,6.0
2024-02-27 15:28:34.202095,1709044114.2020946,-44.921875,-38.0859375,-43.9453125,-32.2265625,0.0,-1.0,1.0,0.0,1.m4v,6.0
2024-02-27 15:28:34.206000,1709044114.2059996,30.2734375,-29.296875,-41.015625,-43.9453125,0.0,-1.0,1.0,0.0,1.m4v,6.0
2024-02-27 15:28:34.209904,1709044114.2099044,20.99609375,-34.1796875,-41.015625,-55.17578125,0.0,-1.0,1.0,0.0,1.m4v,6.0
2024-02-27 15:28:34.213809,1709044114.2138095,-23.4375,-34.66796875,-41.9921875,-46.38671875,0.0,-1.0,1.0,0.0,1.m4v,6.0
2024-02-27 15:28:34.217715,1709044114.2177143,-27.83203125,-39.55078125,-36.1328125,-36.1328125,0.0,-1.0,1.0,0.0,1.m4v,6.0
2024-02-27 15:28:34.221619,1709044114.2216194,-11.71875,-44.921875,-32.71484375,-37.109375,0.0,-1.0,1.0,0.0,1.m4v,6.0
2024-02-27 15:28:34.225524,1709044114.2255244,-2.9296875,-27.83203125,-23.92578125,-42.48046875,0.0,-1.0,1.0,0.0,1.m4v,6.0
2024-02-27 15:28:34.229429,1709044114.2294292,12.20703125,-13.18359375,-16.11328125,-40.52734375,0.0,-1.0,1.0,0.0,1.m4v,6.0
2024-02-27 15:28:34.233334,1709044114.2333343,-15.625,-22.4609375,-20.01953125,-33.203125,0.0,-1.0,1.0,0.0,1.m4v,6.0
2024-02-27 15:28:34.237239,1709044114.2372391,-57.6171875,-22.4609375,-27.83203125,-20.01953125,0.0,-1.0,1.0,0.0,1.m4v,6.0
2024-02-27 15:28:34.241144,1709044114.2411442,-62.98828125,-19.04296875,-37.59765625,-24.4140625,0.0,-1.0,1.0,0.0,1.m4v,6.0
2024-02-27 15:28:34.245063,1709044114.245063,-28.3203125,-32.71484375,-35.15625,-49.8046875,0.0,-1.0,1.0,0.0,1.m4v,6.0
2024-02-27 15:28:34.248968,1709044114.248968,26.3671875,-41.015625,-33.203125,-33.203125,0.0,-1.0,1.0,0.0,1.m4v,6.0
2024-02-27 15:28:34.252873,1709044114.252873,21.484375,-28.3203125,-39.0625,-10.25390625,0.0,-1.0,1.0,0.0,1.m4v,6.0
2024-02-27 15:28:34.256778,1709044114.256778,-33.69140625,-34.66796875,-37.109375,-14.6484375,0.0,-1.0,1.0,0.0,1.m4v,6.0
2024-02-27 15:28:34.260683,1709044114.2606828,-38.57421875,-36.62109375,-38.57421875,-8.30078125,0.0,-1.0,1.0,0.0,1.m4v,6.0
2024-02-27 15:28:34.264588,1709044114.264588,2.9296875,-24.90234375,-38.0859375,-14.16015625,0.0,-1.0,1.0,0.0,1.m4v,6.0
2024-02-27 15:28:34.268493,1709044114.268493,37.59765625,-14.16015625,-34.1796875,-30.76171875,0.0,-1.0,1.0,0.0,1.m4v,6.0
2024-02-27 15:28:34.272398,1709044114.2723978,-20.5078125,-19.04296875,-20.01953125,-30.76171875,0.0,-1.0,1.0,0.0,1.m4v,6.0
2024-02-27 15:28:34.276303,1709044114.2763028,-83.0078125,-41.015625,-12.20703125,-30.76171875,0.0,-1.0,1.0,0.0,1.m4v,6.0
2024-02-27 15:28:34.280208,1709044114.2802076,-52.24609375,-45.8984375,-29.296875,-34.66796875,0.0,-1.0,1.0,0.0,1.m4v,6.0
2024-02-27 15:28:34.284113,1709044114.2841127,-26.85546875,-37.59765625,-46.38671875,-45.41015625,0.0,-1.0,1.0,0.0,1.m4v,6.0
2024-02-27 15:28:34.288018,1709044114.2880175,9.27734375,-31.25,-42.48046875,-41.015625,0.0,-1.0,1.0,0.0,1.m4v,6.0
2024-02-27 15:28:34.291935,1709044114.2919352,13.18359375,-21.484375,-30.76171875,-31.73828125,0.0,-1.0,1.0,0.0,1.m4v,6.0
2024-02-27 15:28:34.295840,1709044114.2958405,-63.96484375,-28.80859375,-28.80859375,-33.203125,0.0,-1.0,1.0,0.0,1.m4v,6.0
2024-02-27 15:28:34.299745,1709044114.299745,-52.734375,-30.76171875,-24.4140625,-31.25,0.0,-1.0,1.0,0.0,1.m4v,6.0
2024-02-27 15:28:34.303650,1709044114.30365,16.6015625,-17.578125,-18.5546875,-28.3203125,0.0,-1.0,1.0,0.0,1.m4v,6.0
2024-02-27 15:28:34.307555,1709044114.3075552,30.2734375,-19.04296875,-20.99609375,-35.15625,0.0,-1.0,1.0,0.0,1.m4v,6.0
2024-02-27 15:28:34.311460,1709044114.31146,13.671875,-21.484375,-23.92578125,-30.76171875,0.0,-1.0,1.0,0.0,1.m4v,6.0
2024-02-27 15:28:34.315365,1709044114.315365,-61.03515625,-26.3671875,-24.4140625,-31.73828125,0.0,-1.0,1.0,0.0,1.m4v,6.0
2024-02-27 15:28:34.319270,1709044114.31927,-75.1953125,-31.73828125,-21.97265625,-22.4609375,0.0,-1.0,1.0,0.0,1.m4v,6.0
2024-02-27 15:28:34.323175,1709044114.323175,-32.71484375,-36.1328125,-34.1796875,-23.92578125,0.0,-1.0,1.0,0.0,1.m4v,6.0
2024-02-27 15:28:34.327080,1709044114.32708,-24.90234375,-42.48046875,-47.36328125,-46.38671875,0.0,-1.0,1.0,0.0,1.m4v,6.0
2024-02-27 15:28:34.330985,1709044114.3309848,-26.85546875,-41.015625,-36.1328125,-49.8046875,0.0,-1.0,1.0,0.0,1.m4v,6.0
2024-02-27 15:28:34.334890,1709044114.33489,-53.22265625,-29.78515625,-26.85546875,-40.0390625,0.0,-1.0,1.0,0.0,1.m4v,6.0
2024-02-27 15:28:34.338806,1709044114.3388062,-86.42578125,-24.4140625,-21.97265625,-33.203125,0.0,-1.0,1.0,0.0,1.m4v,6.0
2024-02-27 15:28:34.342711,1709044114.3427112,-69.82421875,-22.94921875,-15.625,-31.73828125,0.0,-1.0,1.0,0.0,1.m4v,6.0
2024-02-27 15:28:34.346616,1709044114.346616,-16.11328125,-25.87890625,-26.85546875,-44.921875,0.0,-1.0,1.0,0.0,1.m4v,6.0
2024-02-27 15:28:34.350521,1709044114.350521,-6.8359375,-27.34375,-31.73828125,-50.29296875,0.0,-1.0,1.0,0.0,1.m4v,6.0
2024-02-27 15:28:34.354426,1709044114.354426,-65.91796875,-27.34375,-26.85546875,-54.19921875,0.0,-1.0,1.0,0.0,1.m4v,6.0
2024-02-27 15:28:34.358331,1709044114.358331,-65.4296875,-31.73828125,-27.83203125,-48.33984375,0.0,-1.0,1.0,0.0,1.m4v,6.0
2024-02-27 15:28:34.362236,1709044114.362236,-30.2734375,-33.69140625,-28.80859375,-26.85546875,0.0,-1.0,1.0,0.0,1.m4v,6.0
2024-02-27 15:28:34.366141,1709044114.3661408,-38.57421875,-43.45703125,-29.296875,-45.8984375,0.0,-1.0,1.0,0.0,1.m4v,6.0
2024-02-27 15:28:34.370046,1709044114.370046,-34.66796875,-49.8046875,-32.71484375,-69.3359375,0.0,-1.0,1.0,0.0,1.m4v,6.0
2024-02-27 15:28:34.373951,1709044114.3739507,-39.0625,-35.15625,-29.296875,-55.17578125,0.0,-1.0,1.0,0.0,1.m4v,6.0
2024-02-27 15:28:34.377856,1709044114.3778558,-67.3828125,-22.94921875,-20.99609375,-32.2265625,0.0,-1.0,1.0,0.0,1.m4v,6.0
2024-02-27 15:28:34.381761,1709044114.3817608,-52.734375,-19.04296875,-21.97265625,-27.83203125,0.0,-1.0,1.0,0.0,1.m4v,6.0
2024-02-27 15:28:34.385676,1709044114.385676,-27.34375,-20.5078125,-31.73828125,-43.9453125,0.0,-1.0,1.0,0.0,1.m4v,6.0
2024-02-27 15:28:34.389581,1709044114.3895807,-41.9921875,-27.34375,-41.015625,-66.89453125,0.0,-1.0,1.0,0.0,1.m4v,6.0
2024-02-27 15:28:34.393486,1709044114.3934858,-61.03515625,-23.92578125,-40.0390625,-58.59375,0.0,-1.0,1.0,0.0,1.m4v,6.0
2024-02-27 15:28:34.397391,1709044114.3973908,-82.03125,-21.484375,-33.203125,-28.80859375,0.0,-1.0,1.0,0.0,1.m4v,6.0
2024-02-27 15:28:34.401296,1709044114.4012957,-49.8046875,-20.01953125,-22.4609375,-22.94921875,0.0,-1.0,1.0,0.0,1.m4v,6.0
2024-02-27 15:28:34.405201,1709044114.4052007,-5.37109375,-31.25,-30.76171875,-52.24609375,0.0,-1.0,1.0,0.0,1.m4v,6.0
2024-02-27 15:28:34.409106,1709044114.4091055,-15.13671875,-44.43359375,-48.33984375,-57.6171875,0.0,-1.0,1.0,0.0,1.m4v,6.0
2024-02-27 15:28:34.413011,1709044114.4130106,-55.6640625,-46.875,-44.43359375,-33.69140625,0.0,-1.0,1.0,0.0,1.m4v,6.0
2024-02-27 15:28:34.416916,1709044114.4169157,-104.98046875,-50.78125,-41.9921875,-28.80859375,0.0,-1.0,1.0,0.0,1.m4v,6.0
2024-02-27 15:28:34.420820,1709044114.4208205,-102.05078125,-34.1796875,-41.015625,-28.3203125,0.0,-1.0,1.0,0.0,1.m4v,6.0
2024-02-27 15:28:34.424726,1709044114.4247255,-75.68359375,-25.390625,-36.62109375,-30.2734375,0.0,-1.0,1.0,0.0,1.m4v,6.0
2024-02-27 15:28:34.428630,1709044114.4286304,-42.96875,-31.73828125,-35.64453125,-41.50390625,0.0,-1.0,1.0,0.0,1.m4v,6.0
2024-02-27 15:28:34.432545,1709044114.4325447,-24.4140625,-18.06640625,-33.69140625,-34.1796875,0.0,-1.0,1.0,0.0,1.m4v,6.0
2024-02-27 15:28:34.436450,1709044114.4364498,-88.37890625,-12.20703125,-28.80859375,-27.34375,0.0,-1.0,1.0,0.0,1.m4v,6.0
2024-02-27 15:28:34.440355,1709044114.4403546,-108.88671875,-22.4609375,-29.296875,-32.2265625,0.0,-1.0,1.0,0.0,1.m4v,6.0
2024-02-27 15:28:34.444260,1709044114.4442596,-27.34375,-22.94921875,-22.4609375,-44.921875,0.0,-1.0,1.0,0.0,1.m4v,6.0
2024-02-27 15:28:34.448165,1709044114.4481647,7.8125,-21.484375,-14.16015625,-52.24609375,0.0,-1.0,1.0,0.0,1.m4v,6.0
2024-02-27 15:28:34.452070,1709044114.4520695,-5.859375,-27.34375,-27.83203125,-45.8984375,0.0,-1.0,1.0,0.0,1.m4v,6.0
2024-02-27 15:28:34.455975,1709044114.4559746,-66.40625,-41.50390625,-48.828125,-54.6875,0.0,-1.0,1.0,0.0,1.m4v,6.0
2024-02-27 15:28:34.459879,1709044114.4598794,-100.09765625,-47.8515625,-47.8515625,-45.8984375,0.0,-1.0,1.0,0.0,1.m4v,6.0
2024-02-27 15:28:34.463784,1709044114.4637845,-55.6640625,-37.109375,-39.55078125,-32.71484375,0.0,-1.0,1.0,0.0,1.m4v,6.0
2024-02-27 15:28:34.467690,1709044114.4676895,-14.6484375,-23.92578125,-39.0625,-44.921875,0.0,-1.0,1.0,0.0,1.m4v,6.0
2024-02-27 15:28:34.471594,1709044114.4715943,-10.25390625,-21.484375,-38.0859375,-44.43359375,0.0,-1.0,1.0,0.0,1.m4v,6.0
2024-02-27 15:28:34.475499,1709044114.4754994,-50.78125,-37.59765625,-30.2734375,-45.8984375,0.0,-1.0,1.0,0.0,1.m4v,6.0
2024-02-27 15:28:34.479412,1709044114.4794123,-68.84765625,-36.1328125,-27.83203125,-50.78125,0.0,-1.0,1.0,0.0,1.m4v,6.0
2024-02-27 15:28:34.483317,1709044114.4833174,-49.31640625,-24.4140625,-32.2265625,-45.8984375,0.0,-1.0,1.0,0.0,1.m4v,6.0
2024-02-27 15:28:34.487222,1709044114.4872222,-31.73828125,-26.3671875,-32.71484375,-45.8984375,0.0,-1.0,1.0,0.0,1.m4v,6.0
2024-02-27 15:28:34.491127,1709044114.4911273,0.0,-24.90234375,-25.390625,-40.52734375,0.0,-1.0,1.0,0.0,1.m4v,6.0
2024-02-27 15:28:34.495032,1709044114.4950323,-31.25,-23.4375,-23.4375,-46.38671875,0.0,-1.0,1.0,0.0,1.m4v,6.0
2024-02-27 15:28:34.498937,1709044114.4989371,-81.54296875,-25.87890625,-45.41015625,-53.7109375,0.0,-1.0,1.0,0.0,1.m4v,6.0
2024-02-27 15:28:34.502842,1709044114.5028422,-66.89453125,-34.1796875,-49.31640625,-57.12890625,0.0,-1.0,1.0,0.0,1.m4v,6.0
2024-02-27 15:28:34.506747,1709044114.506747,-59.08203125,-46.875,-37.109375,-73.2421875,0.0,-1.0,1.0,0.0,1.m4v,6.0
2024-02-27 15:28:34.510652,1709044114.510652,-70.3125,-38.0859375,-41.015625,-85.9375,0.0,-1.0,1.0,0.0,1.m4v,6.0
2024-02-27 15:28:34.514557,1709044114.514557,-96.19140625,-27.34375,-48.828125,-79.58984375,0.0,-1.0,1.0,0.0,1.m4v,6.0
2024-02-27 15:28:34.518462,1709044114.518462,-107.91015625,-31.73828125,-33.69140625,-66.89453125,0.0,-1.0,1.0,0.0,1.m4v,6.0
2024-02-27 15:28:34.522367,1709044114.522367,-86.42578125,-39.0625,-24.90234375,-76.171875,0.0,-1.0,1.0,0.0,1.m4v,6.0
2024-02-27 15:28:34.526279,1709044114.526279,-68.359375,-35.64453125,-33.69140625,-85.9375,0.0,-1.0,1.0,0.0,1.m4v,6.0
2024-02-27 15:28:34.530184,1709044114.530184,-47.36328125,-33.69140625,-34.66796875,-76.66015625,0.0,-1.0,1.0,0.0,1.m4v,6.0
2024-02-27 15:28:34.534089,1709044114.5340889,-63.96484375,-32.2265625,-24.4140625,-59.08203125,0.0,-1.0,1.0,0.0,1.m4v,6.0
2024-02-27 15:28:34.537994,1709044114.537994,-80.078125,-29.296875,-24.4140625,-44.43359375,0.0,-1.0,1.0,0.0,1.m4v,6.0
2024-02-27 15:28:34.541899,1709044114.5418987,-43.45703125,-26.85546875,-34.66796875,-37.109375,0.0,-1.0,1.0,0.0,1.m4v,6.0
2024-02-27 15:28:34.545804,1709044114.5458038,10.7421875,-27.83203125,-31.73828125,-48.828125,0.0,-1.0,1.0,0.0,1.m4v,6.0
2024-02-27 15:28:34.549709,1709044114.5497088,32.2265625,-34.66796875,-25.87890625,-60.05859375,0.0,-1.0,1.0,0.0,1.m4v,6.0
2024-02-27 15:28:34.553614,1709044114.5536137,-26.3671875,-38.57421875,-30.2734375,-49.8046875,0.0,-1.0,1.0,0.0,1.m4v,6.0
2024-02-27 15:28:34.557519,1709044114.5575187,-66.40625,-31.25,-24.4140625,-38.0859375,0.0,-1.0,1.0,0.0,1.m4v,6.0
2024-02-27 15:28:34.561424,1709044114.5614235,-30.76171875,-25.390625,-30.76171875,-26.3671875,0.0,-1.0,1.0,0.0,1.m4v,6.0
2024-02-27 15:28:34.565329,1709044114.5653286,13.18359375,-28.3203125,-29.78515625,-31.73828125,0.0,-1.0,1.0,0.0,1.m4v,6.0
2024-02-27 15:28:34.569234,1709044114.5692337,8.7890625,-29.78515625,-21.97265625,-41.015625,0.0,-1.0,1.0,0.0,1.m4v,6.0
2024-02-27 15:28:34.573145,1709044114.573145,-24.4140625,-27.34375,-22.4609375,-32.2265625,0.0,-1.0,1.0,0.0,1.m4v,6.0
2024-02-27 15:28:34.577050,1709044114.5770495,-54.19921875,-26.3671875,-23.4375,-27.83203125,0.0,-1.0,1.0,0.0,1.m4v,6.0
2024-02-27 15:28:34.580955,1709044114.5809548,-64.94140625,-39.0625,-40.0390625,-33.69140625,0.0,-1.0,1.0,0.0,1.m4v,6.0
2024-02-27 15:28:34.584860,1709044114.5848596,-42.48046875,-42.48046875,-43.9453125,-40.52734375,0.0,-1.0,1.0,0.0,1.m4v,6.0
2024-02-27 15:28:34.588765,1709044114.588765,-19.04296875,-27.83203125,-31.73828125,-41.9921875,0.0,-1.0,1.0,0.0,1.m4v,6.0
2024-02-27 15:28:34.592669,1709044114.5926695,-25.87890625,-23.92578125,-19.53125,-29.78515625,0.0,-1.0,1.0,0.0,1.m4v,6.0
2024-02-27 15:28:34.596575,1709044114.5965743,-39.0625,-36.62109375,-18.06640625,-23.4375,0.0,-1.0,1.0,0.0,1.m4v,6.0
2024-02-27 15:28:34.600480,1709044114.6004796,-44.921875,-39.55078125,-33.203125,-31.25,0.0,-1.0,1.0,0.0,1.m4v,6.0
2024-02-27 15:28:34.604384,1709044114.6043844,-21.484375,-38.0859375,-38.0859375,-41.50390625,0.0,-1.0,1.0,0.0,1.m4v,6.0
2024-02-27 15:28:34.608289,1709044114.6082897,0.0,-38.0859375,-26.85546875,-43.45703125,0.0,-1.0,1.0,0.0,1.m4v,6.0
2024-02-27 15:28:34.612194,1709044114.6121943,-1.953125,-26.3671875,-11.71875,-36.62109375,0.0,-1.0,1.0,0.0,1.m4v,6.0
2024-02-27 15:28:34.616099,1709044114.6160994,-24.4140625,-21.484375,-9.765625,-34.1796875,0.0,-1.0,1.0,0.0,1.m4v,6.0
2024-02-27 15:28:34.620019,1709044114.6200187,-36.1328125,-36.1328125,-18.5546875,-16.6015625,0.0,-1.0,1.0,0.0,1.m4v,6.0
2024-02-27 15:28:34.623924,1709044114.6239238,0.0,-47.8515625,-30.76171875,-12.6953125,0.0,-1.0,1.0,0.0,1.m4v,6.0
2024-02-27 15:28:34.627829,1709044114.6278286,15.625,-40.0390625,-49.8046875,-32.71484375,0.0,-1.0,1.0,0.0,1.m4v,6.0
2024-02-27 15:28:34.631734,1709044114.6317337,-17.578125,-39.0625,-45.41015625,-44.921875,0.0,-1.0,1.0,0.0,1.m4v,6.0
2024-02-27 15:28:34.635639,1709044114.6356387,-46.38671875,-37.59765625,-27.83203125,-35.64453125,0.0,-1.0,1.0,0.0,1.m4v,6.0
2024-02-27 15:28:34.639544,1709044114.6395435,-34.66796875,-28.3203125,-28.80859375,-24.4140625,0.0,-1.0,1.0,0.0,1.m4v,6.0
2024-02-27 15:28:34.643449,1709044114.6434486,-33.203125,-33.203125,-36.1328125,-26.85546875,0.0,-1.0,1.0,0.0,1.m4v,6.0
2024-02-27 15:28:34.647353,1709044114.6473534,3.90625,-30.2734375,-35.15625,-31.73828125,0.0,-1.0,1.0,0.0,1.m4v,6.0
2024-02-27 15:28:34.651258,1709044114.6512585,7.8125,-24.4140625,-28.80859375,-40.52734375,0.0,-1.0,1.0,0.0,1.m4v,6.0
2024-02-27 15:28:34.655164,1709044114.6551635,-75.68359375,-31.25,-33.203125,-37.59765625,0.0,-1.0,1.0,0.0,1.m4v,6.0
2024-02-27 15:28:34.659068,1709044114.6590683,-84.9609375,-39.0625,-42.96875,-20.5078125,0.0,-1.0,1.0,0.0,1.m4v,6.0
2024-02-27 15:28:34.662973,1709044114.6629734,-43.9453125,-30.76171875,-38.0859375,-29.296875,0.0,-1.0,1.0,0.0,1.m4v,6.0
2024-02-27 15:28:34.666891,1709044114.6668909,9.765625,-17.08984375,-27.83203125,-38.0859375,0.0,-1.0,1.0,0.0,1.m4v,6.0
2024-02-27 15:28:34.670796,1709044114.670796,3.90625,-26.3671875,-21.97265625,-27.34375,0.0,-1.0,1.0,0.0,1.m4v,6.0
2024-02-27 15:28:34.674701,1709044114.6747007,-57.12890625,-31.73828125,-24.4140625,-16.6015625,0.0,-1.0,1.0,0.0,1.m4v,6.0
2024-02-27 15:28:34.678606,1709044114.6786058,-50.29296875,-27.34375,-30.76171875,-12.20703125,0.0,-1.0,1.0,0.0,1.m4v,6.0
2024-02-27 15:28:34.682511,1709044114.6825106,-15.625,-33.203125,-31.25,-17.08984375,0.0,-1.0,1.0,0.0,1.m4v,6.0
2024-02-27 15:28:34.686416,1709044114.6864157,19.04296875,-41.50390625,-41.015625,-30.2734375,0.0,-1.0,1.0,0.0,1.m4v,6.0
2024-02-27 15:28:34.690321,1709044114.6903207,21.484375,-38.57421875,-45.8984375,-40.0390625,0.0,-1.0,1.0,0.0,1.m4v,6.0
2024-02-27 15:28:34.694226,1709044114.6942255,-33.69140625,-27.83203125,-37.109375,-40.0390625,0.0,-1.0,1.0,0.0,1.m4v,6.0
2024-02-27 15:28:34.698131,1709044114.6981306,-77.1484375,-23.92578125,-34.1796875,-37.109375,0.0,-1.0,1.0,0.0,1.m4v,6.0
2024-02-27 15:28:34.702035,1709044114.7020354,-91.30859375,-29.296875,-47.8515625,-37.59765625,0.0,-1.0,1.0,0.0,1.m4v,6.0
2024-02-27 15:28:34.705940,1709044114.7059405,-52.24609375,-35.15625,-49.31640625,-40.0390625,0.0,-1.0,1.0,0.0,1.m4v,6.0
2024-02-27 15:28:34.709846,1709044114.7098455,17.578125,-25.87890625,-30.76171875,-49.8046875,0.0,-1.0,1.0,0.0,1.m4v,6.0
2024-02-27 15:28:34.713762,1709044114.7137618,8.7890625,-19.53125,-23.4375,-47.8515625,0.0,-1.0,1.0,0.0,1.m4v,6.0
2024-02-27 15:28:34.717667,1709044114.7176669,-39.55078125,-23.92578125,-31.25,-26.3671875,0.0,-1.0,1.0,0.0,1.m4v,6.0
2024-02-27 15:28:34.721572,1709044114.721572,-29.78515625,-29.78515625,-34.66796875,-13.671875,0.0,-1.0,1.0,0.0,1.m4v,6.0
2024-02-27 15:28:34.725477,1709044114.7254767,-11.71875,-32.71484375,-23.4375,-33.203125,0.0,-1.0,1.0,0.0,1.m4v,6.0
2024-02-27 15:28:34.729382,1709044114.7293818,0.0,-28.3203125,-17.578125,-47.36328125,0.0,-1.0,1.0,0.0,1.m4v,6.0
2024-02-27 15:28:34.733287,1709044114.7332866,9.27734375,-22.94921875,-26.3671875,-27.83203125,0.0,-1.0,1.0,0.0,1.m4v,6.0
2024-02-27 15:28:34.737192,1709044114.7371917,-40.52734375,-27.83203125,-29.78515625,-15.13671875,0.0,-1.0,1.0,0.0,1.m4v,6.0
2024-02-27 15:28:34.741097,1709044114.7410967,-68.84765625,-34.66796875,-25.87890625,-17.578125,0.0,-1.0,1.0,0.0,1.m4v,6.0
2024-02-27 15:28:34.745002,1709044114.7450016,-7.8125,-33.203125,-32.71484375,-36.62109375,0.0,-1.0,1.0,0.0,1.m4v,6.0
2024-02-27 15:28:34.748907,1709044114.7489066,-22.94921875,-33.203125,-41.50390625,-44.921875,0.0,-1.0,1.0,0.0,1.m4v,6.0
2024-02-27 15:28:34.752811,1709044114.7528114,-66.89453125,-30.2734375,-34.66796875,-31.73828125,0.0,-1.0,1.0,0.0,1.m4v,6.0
2024-02-27 15:28:34.756716,1709044114.7567165,-30.76171875,-35.15625,-25.390625,-20.5078125,0.0,-1.0,1.0,0.0,1.m4v,6.0
2024-02-27 15:28:34.760632,1709044114.7606318,-20.99609375,-41.9921875,-26.3671875,-19.04296875,0.0,-1.0,1.0,0.0,1.m4v,6.0
2024-02-27 15:28:34.764537,1709044114.7645369,1.953125,-22.94921875,-23.92578125,-24.4140625,0.0,-1.0,1.0,0.0,1.m4v,6.0
2024-02-27 15:28:34.768442,1709044114.7684417,33.69140625,-9.765625,-20.01953125,-47.36328125,0.0,-1.0,1.0,0.0,1.m4v,6.0
2024-02-27 15:28:34.772347,1709044114.7723467,-0.48828125,-19.53125,-23.4375,-53.22265625,0.0,-1.0,1.0,0.0,1.m4v,6.0
2024-02-27 15:28:34.776252,1709044114.7762516,-60.546875,-26.3671875,-20.99609375,-29.296875,0.0,-1.0,1.0,0.0,1.m4v,6.0
2024-02-27 15:28:34.780157,1709044114.7801566,-73.73046875,-36.62109375,-20.99609375,-26.3671875,0.0,-1.0,1.0,0.0,1.m4v,6.0
2024-02-27 15:28:34.784062,1709044114.7840617,-33.69140625,-35.64453125,-30.2734375,-29.78515625,0.0,-1.0,1.0,0.0,1.m4v,6.0
2024-02-27 15:28:34.787966,1709044114.7879665,-16.6015625,-30.76171875,-31.73828125,-48.33984375,0.0,-1.0,1.0,0.0,1.m4v,6.0
2024-02-27 15:28:34.791872,1709044114.7918715,-34.1796875,-36.62109375,-33.203125,-61.5234375,0.0,-1.0,1.0,0.0,1.m4v,6.0
2024-02-27 15:28:34.795776,1709044114.7957764,-67.3828125,-45.8984375,-41.50390625,-41.50390625,0.0,-1.0,1.0,0.0,1.m4v,6.0
2024-02-27 15:28:34.799681,1709044114.7996814,-95.21484375,-52.734375,-44.43359375,-39.0625,0.0,-1.0,1.0,0.0,1.m4v,6.0
2024-02-27 15:28:34.803586,1709044114.8035865,-77.1484375,-55.17578125,-48.828125,-49.31640625,0.0,-1.0,1.0,0.0,1.m4v,6.0
2024-02-27 15:28:34.807501,1709044114.8075008,-18.06640625,-45.8984375,-46.875,-56.15234375,0.0,-1.0,1.0,0.0,1.m4v,6.0
2024-02-27 15:28:34.811406,1709044114.811406,2.9296875,-21.97265625,-38.57421875,-52.734375,0.0,-1.0,1.0,0.0,1.m4v,6.0
2024-02-27 15:28:34.815311,1709044114.8153107,-37.109375,-24.90234375,-36.1328125,-45.8984375,0.0,-1.0,1.0,0.0,1.m4v,6.0
2024-02-27 15:28:34.819216,1709044114.8192158,-54.6875,-30.76171875,-33.203125,-40.52734375,0.0,-1.0,1.0,0.0,1.m4v,6.0
2024-02-27 15:28:34.823121,1709044114.8231206,-63.4765625,-30.76171875,-29.296875,-40.52734375,0.0,-1.0,1.0,0.0,1.m4v,6.0
2024-02-27 15:28:34.827026,1709044114.8270257,-26.85546875,-28.80859375,-24.4140625,-48.33984375,0.0,-1.0,1.0,0.0,1.m4v,6.0
2024-02-27 15:28:34.830931,1709044114.8309307,20.01953125,-28.3203125,-24.90234375,-56.15234375,0.0,-1.0,1.0,0.0,1.m4v,6.0
2024-02-27 15:28:34.834836,1709044114.8348355,-50.29296875,-34.66796875,-37.109375,-53.7109375,0.0,-1.0,1.0,0.0,1.m4v,6.0
2024-02-27 15:28:34.838741,1709044114.8387406,-92.28515625,-27.83203125,-41.9921875,-41.50390625,0.0,-1.0,1.0,0.0,1.m4v,6.0
2024-02-27 15:28:34.842645,1709044114.8426454,-49.8046875,-26.85546875,-40.0390625,-35.15625,0.0,-1.0,1.0,0.0,1.m4v,6.0
2024-02-27 15:28:34.846550,1709044114.8465505,-22.94921875,-34.1796875,-41.50390625,-48.33984375,0.0,-1.0,1.0,0.0,1.m4v,6.0
2024-02-27 15:28:34.850456,1709044114.8504555,-25.390625,-33.69140625,-43.9453125,-61.03515625,0.0,-1.0,1.0,0.0,1.m4v,6.0
2024-02-27 15:28:34.854369,1709044114.8543687,-48.33984375,-24.4140625,-41.015625,-63.96484375,0.0,-1.0,1.0,0.0,1.m4v,6.0
2024-02-27 15:28:34.858274,1709044114.8582735,-91.30859375,-21.484375,-38.57421875,-48.828125,0.0,-1.0,1.0,0.0,1.m4v,6.0
2024-02-27 15:28:34.862179,1709044114.8621786,-79.1015625,-30.76171875,-31.73828125,-32.71484375,0.0,-1.0,1.0,0.0,1.m4v,6.0
2024-02-27 15:28:34.866083,1709044114.8660834,-7.8125,-27.34375,-41.50390625,-40.52734375,0.0,-1.0,1.0,0.0,1.m4v,6.0
2024-02-27 15:28:34.869988,1709044114.8699884,-1.46484375,-26.3671875,-56.15234375,-47.8515625,0.0,-1.0,1.0,0.0,1.m4v,6.0
2024-02-27 15:28:34.873893,1709044114.8738935,-10.25390625,-25.390625,-43.9453125,-33.203125,0.0,-1.0,1.0,0.0,1.m4v,6.0
2024-02-27 15:28:34.877798,1709044114.8777983,-41.50390625,-27.34375,-43.45703125,-21.484375,0.0,-1.0,1.0,0.0,1.m4v,6.0
2024-02-27 15:28:34.881703,1709044114.8817034,-63.96484375,-32.2265625,-40.52734375,-38.0859375,0.0,-1.0,1.0,0.0,1.m4v,6.0
2024-02-27 15:28:34.885608,1709044114.8856082,-21.484375,-20.5078125,-24.90234375,-46.875,0.0,-1.0,1.0,0.0,1.m4v,6.0
2024-02-27 15:28:34.889513,1709044114.8895133,-5.37109375,-25.390625,-31.25,-40.0390625,0.0,-1.0,1.0,0.0,1.m4v,6.0
2024-02-27 15:28:34.893418,1709044114.8934183,-67.3828125,-43.9453125,-44.921875,-42.48046875,0.0,-1.0,1.0,0.0,1.m4v,6.0
2024-02-27 15:28:34.897323,1709044114.8973231,-98.14453125,-38.57421875,-38.0859375,-41.9921875,0.0,-1.0,1.0,0.0,1.m4v,6.0
2024-02-27 15:28:34.901245,1709044114.9012446,-80.56640625,-37.109375,-34.66796875,-35.15625,0.0,-1.0,1.0,0.0,1.m4v,6.0
2024-02-27 15:28:34.905149,1709044114.9051497,-50.78125,-46.875,-40.0390625,-38.0859375,0.0,-1.0,1.0,0.0,1.m4v,6.0
2024-02-27 15:28:34.909055,1709044114.9090545,-0.9765625,-34.66796875,-43.9453125,-37.109375,0.0,-1.0,1.0,0.0,1.m4v,6.0
2024-02-27 15:28:34.912959,1709044114.912959,-21.97265625,-22.94921875,-51.7578125,-41.015625,0.0,-1.0,1.0,0.0,1.m4v,6.0
2024-02-27 15:28:34.916864,1709044114.9168644,-78.125,-30.76171875,-48.828125,-40.0390625,0.0,-1.0,1.0,0.0,1.m4v,6.0
2024-02-27 15:28:34.920769,1709044114.9207697,-45.41015625,-19.53125,-38.0859375,-21.97265625,0.0,-1.0,1.0,0.0,1.m4v,6.0
2024-02-27 15:28:34.924674,1709044114.9246745,0.48828125,-18.06640625,-36.1328125,-23.4375,0.0,-1.0,1.0,0.0,1.m4v,6.0
2024-02-27 15:28:34.928579,1709044114.928579,-2.9296875,-27.83203125,-38.57421875,-41.50390625,0.0,-1.0,1.0,0.0,1.m4v,6.0
2024-02-27 15:28:34.932484,1709044114.932484,-34.1796875,-28.3203125,-37.59765625,-46.38671875,0.0,-1.0,1.0,0.0,1.m4v,6.0
2024-02-27 15:28:34.936389,1709044114.9363892,-79.1015625,-28.3203125,-36.1328125,-53.7109375,0.0,-1.0,1.0,0.0,1.m4v,6.0
2024-02-27 15:28:34.940294,1709044114.9402945,-86.9140625,-34.66796875,-37.59765625,-52.24609375,0.0,-1.0,1.0,0.0,1.m4v,6.0
2024-02-27 15:28:34.944199,1709044114.944199,-67.87109375,-41.015625,-45.8984375,-48.33984375,0.0,-1.0,1.0,0.0,1.m4v,6.0
2024-02-27 15:28:34.948110,1709044114.9481096,-51.26953125,-34.1796875,-47.36328125,-62.01171875,0.0,-1.0,1.0,0.0,1.m4v,6.0
2024-02-27 15:28:34.952014,1709044114.9520144,-66.40625,-26.3671875,-33.69140625,-58.10546875,0.0,-1.0,1.0,0.0,1.m4v,6.0
2024-02-27 15:28:34.955920,1709044114.9559195,-87.40234375,-29.296875,-24.4140625,-51.7578125,0.0,-1.0,1.0,0.0,1.m4v,6.0
2024-02-27 15:28:34.959824,1709044114.9598243,-60.05859375,-33.69140625,-25.87890625,-41.015625,0.0,-1.0,1.0,0.0,1.m4v,6.0
2024-02-27 15:28:34.963729,1709044114.9637294,-51.7578125,-31.73828125,-41.015625,-33.203125,0.0,-1.0,1.0,0.0,1.m4v,6.0
2024-02-27 15:28:34.967634,1709044114.9676344,-1.46484375,-27.83203125,-50.78125,-43.9453125,0.0,-1.0,1.0,0.0,1.m4v,6.0
2024-02-27 15:28:34.971539,1709044114.9715393,30.76171875,-28.80859375,-40.52734375,-43.9453125,0.0,-1.0,1.0,0.0,1.m4v,6.0
2024-02-27 15:28:34.975444,1709044114.9754443,-39.55078125,-30.2734375,-31.25,-33.203125,0.0,-1.0,1.0,0.0,1.m4v,6.0
2024-02-27 15:28:34.979349,1709044114.9793491,-62.5,-22.94921875,-38.0859375,-21.97265625,0.0,-1.0,1.0,0.0,1.m4v,6.0
2024-02-27 15:28:34.983254,1709044114.9832542,-28.80859375,-25.390625,-40.0390625,-27.34375,0.0,-1.0,1.0,0.0,1.m4v,6.0
2024-02-27 15:28:34.987159,1709044114.9871593,-24.4140625,-36.1328125,-37.109375,-44.43359375,0.0,-1.0,1.0,0.0,1.m4v,6.0
2024-02-27 15:28:34.991064,1709044114.991064,-34.1796875,-36.62109375,-35.64453125,-46.875,0.0,-1.0,1.0,0.0,1.m4v,6.0
2024-02-27 15:28:34.994982,1709044114.9949822,-49.8046875,-34.1796875,-32.71484375,-38.0859375,0.0,-1.0,1.0,0.0,1.m4v,6.0
2024-02-27 15:28:34.998887,1709044114.998887,-87.890625,-42.96875,-33.69140625,-28.3203125,0.0,-1.0,1.0,0.0,1.m4v,6.0
2024-02-27 15:28:35.002792,1709044115.002792,-86.9140625,-38.57421875,-28.80859375,-25.390625,0.0,-1.0,1.0,0.0,1.m4v,6.0
2024-02-27 15:28:35.006697,1709044115.006697,-30.2734375,-28.80859375,-25.87890625,-48.828125,0.0,-1.0,1.0,0.0,1.m4v,6.0
2024-02-27 15:28:35.010602,1709044115.010602,14.6484375,-30.76171875,-28.80859375,-40.52734375,0.0,-1.0,1.0,0.0,1.m4v,6.0
2024-02-27 15:28:35.014507,1709044115.014507,-4.39453125,-30.2734375,-38.0859375,-19.53125,0.0,-1.0,1.0,0.0,1.m4v,6.0
2024-02-27 15:28:35.018412,1709044115.018412,-51.7578125,-18.5546875,-41.50390625,-19.04296875,0.0,-1.0,1.0,0.0,1.m4v,6.0
2024-02-27 15:28:35.022317,1709044115.022317,-66.40625,-16.11328125,-30.2734375,-26.85546875,0.0,-1.0,1.0,0.0,1.m4v,6.0
2024-02-27 15:28:35.026222,1709044115.0262218,-38.57421875,-13.671875,-20.01953125,-38.57421875,0.0,-1.0,1.0,0.0,1.m4v,6.0
2024-02-27 15:28:35.030127,1709044115.0301268,-13.18359375,-13.671875,-25.87890625,-45.41015625,0.0,-1.0,1.0,0.0,1.m4v,6.0
2024-02-27 15:28:35.034032,1709044115.034032,-36.62109375,-24.4140625,-30.76171875,-42.48046875,0.0,-1.0,1.0,0.0,1.m4v,6.0
2024-02-27 15:28:35.037937,1709044115.0379367,-78.125,-39.0625,-31.73828125,-35.15625,0.0,-1.0,1.0,0.0,1.m4v,6.0
2024-02-27 15:28:35.041855,1709044115.0418549,-69.82421875,-41.9921875,-35.64453125,-35.64453125,0.0,-1.0,1.0,0.0,1.m4v,6.0
2024-02-27 15:28:35.045760,1709044115.04576,-18.5546875,-39.0625,-38.57421875,-56.15234375,0.0,-1.0,1.0,0.0,1.m4v,6.0
2024-02-27 15:28:35.049665,1709044115.0496647,-5.37109375,-34.66796875,-34.66796875,-55.17578125,0.0,-1.0,1.0,0.0,1.m4v,6.0
2024-02-27 15:28:35.053570,1709044115.0535698,-41.9921875,-39.0625,-30.2734375,-44.43359375,0.0,-1.0,1.0,0.0,1.m4v,6.0
2024-02-27 15:28:35.057475,1709044115.0574749,-61.5234375,-33.69140625,-35.15625,-43.9453125,0.0,-1.0,1.0,0.0,1.m4v,6.0
2024-02-27 15:28:35.061380,1709044115.0613797,-32.71484375,-24.4140625,-47.8515625,-30.2734375,0.0,-1.0,1.0,0.0,1.m4v,6.0
2024-02-27 15:28:35.065285,1709044115.0652847,-16.11328125,-28.80859375,-41.50390625,-33.69140625,0.0,-1.0,1.0,0.0,1.m4v,6.0
2024-02-27 15:28:35.069190,1709044115.0691895,9.27734375,-28.80859375,-30.76171875,-41.015625,0.0,-1.0,1.0,0.0,1.m4v,6.0
2024-02-27 15:28:35.073095,1709044115.0730946,20.5078125,-23.92578125,-34.1796875,-23.4375,0.0,-1.0,1.0,0.0,1.m4v,6.0
2024-02-27 15:28:35.077000,1709044115.0769997,-44.43359375,-31.25,-32.71484375,-14.6484375,0.0,-1.0,1.0,0.0,1.m4v,6.0
2024-02-27 15:28:35.080904,1709044115.0809045,-81.54296875,-45.41015625,-34.66796875,-30.2734375,0.0,-1.0,1.0,0.0,1.m4v,6.0
2024-02-27 15:28:35.084810,1709044115.0848095,-39.0625,-45.8984375,-34.66796875,-32.2265625,0.0,-1.0,1.0,0.0,1.m4v,6.0
2024-02-27 15:28:35.088726,1709044115.088726,11.71875,-34.1796875,-35.64453125,-39.0625,0.0,-1.0,1.0,0.0,1.m4v,6.0
2024-02-27 15:28:35.092631,1709044115.0926309,-9.27734375,-35.15625,-37.59765625,-45.8984375,0.0,-1.0,1.0,0.0,1.m4v,6.0
2024-02-27 15:28:35.096536,1709044115.096536,-54.6875,-35.64453125,-29.78515625,-36.62109375,0.0,-1.0,1.0,0.0,1.m4v,6.0
2024-02-27 15:28:35.100441,1709044115.100441,-47.36328125,-37.59765625,-33.69140625,-31.73828125,0.0,-1.0,1.0,0.0,1.m4v,6.0
2024-02-27 15:28:35.104346,1709044115.1043458,-38.0859375,-43.45703125,-45.8984375,-35.15625,0.0,-1.0,1.0,0.0,1.m4v,6.0
2024-02-27 15:28:35.108251,1709044115.1082509,-8.30078125,-34.66796875,-41.9921875,-62.01171875,0.0,-1.0,1.0,0.0,1.m4v,6.0
2024-02-27 15:28:35.112156,1709044115.1121557,17.08984375,-24.90234375,-33.69140625,-71.77734375,0.0,-1.0,1.0,0.0,1.m4v,6.0
2024-02-27 15:28:35.116061,1709044115.1160607,-38.0859375,-24.90234375,-40.0390625,-44.43359375,0.0,-1.0,1.0,0.0,1.m4v,6.0
2024-02-27 15:28:35.119966,1709044115.1199658,-66.40625,-31.25,-52.24609375,-20.01953125,0.0,-1.0,1.0,0.0,1.m4v,6.0
2024-02-27 15:28:35.123871,1709044115.1238706,-47.36328125,-33.69140625,-47.8515625,-19.53125,0.0,-1.0,1.0,0.0,1.m4v,6.0
2024-02-27 15:28:35.127776,1709044115.1277757,-21.97265625,-29.78515625,-36.1328125,-32.71484375,0.0,-1.0,1.0,0.0,1.m4v,6.0
2024-02-27 15:28:35.131680,1709044115.1316805,-22.94921875,-38.57421875,-35.15625,-44.921875,0.0,-1.0,1.0,0.0,1.m4v,6.0
2024-02-27 15:28:35.135596,1709044115.135596,-66.89453125,-41.015625,-36.1328125,-38.57421875,0.0,-1.0,1.0,0.0,1.m4v,6.0
2024-02-27 15:28:35.139501,1709044115.139501,-72.75390625,-32.2265625,-27.83203125,-26.85546875,0.0,-1.0,1.0,0.0,1.m4v,6.0
2024-02-27 15:28:35.143406,1709044115.143406,-49.31640625,-28.80859375,-31.25,-55.6640625,0.0,-1.0,1.0,0.0,1.m4v,6.0
2024-02-27 15:28:35.147311,1709044115.147311,-19.53125,-30.2734375,-38.57421875,-64.453125,0.0,-1.0,1.0,0.0,1.m4v,6.0
2024-02-27 15:28:35.151216,1709044115.151216,-33.203125,-34.66796875,-34.1796875,-52.24609375,0.0,-1.0,1.0,0.0,1.m4v,6.0
2024-02-27 15:28:35.155121,1709044115.1551208,-74.21875,-33.69140625,-31.25,-53.7109375,0.0,-1.0,1.0,0.0,1.m4v,6.0
2024-02-27 15:28:35.159026,1709044115.159026,-42.96875,-26.3671875,-30.2734375,-31.73828125,0.0,-1.0,1.0,0.0,1.m4v,6.0
2024-02-27 15:28:35.162931,1709044115.1629307,-17.08984375,-28.3203125,-30.2734375,-7.32421875,0.0,-1.0,1.0,0.0,1.m4v,6.0
2024-02-27 15:28:35.166836,1709044115.1668358,-3.41796875,-27.83203125,-36.1328125,-23.4375,0.0,-1.0,1.0,0.0,1.m4v,6.0
2024-02-27 15:28:35.170741,1709044115.1707408,-16.6015625,-35.64453125,-40.52734375,-42.48046875,0.0,-1.0,1.0,0.0,1.m4v,6.0
2024-02-27 15:28:35.174646,1709044115.1746457,-61.5234375,-33.69140625,-42.48046875,-38.57421875,0.0,-1.0,1.0,0.0,1.m4v,6.0
2024-02-27 15:28:35.178551,1709044115.1785507,-89.35546875,-27.83203125,-44.921875,-29.296875,0.0,-1.0,1.0,0.0,1.m4v,6.0
2024-02-27 15:28:35.182470,1709044115.18247,-73.73046875,-35.15625,-41.50390625,-35.64453125,0.0,-1.0,1.0,0.0,1.m4v,6.0
2024-02-27 15:28:35.186375,1709044115.1863751,-53.7109375,-48.33984375,-36.1328125,-58.59375,0.0,-1.0,1.0,0.0,1.m4v,6.0
2024-02-27 15:28:35.190280,1709044115.19028,-40.52734375,-47.8515625,-31.73828125,-62.01171875,0.0,-1.0,1.0,0.0,1.m4v,6.0
2024-02-27 15:28:35.194185,1709044115.194185,-43.45703125,-19.04296875,-24.90234375,-40.52734375,0.0,-1.0,1.0,0.0,1.m4v,6.0
2024-02-27 15:28:35.198090,1709044115.19809,-104.00390625,-23.92578125,-16.6015625,-36.62109375,0.0,-1.0,1.0,0.0,1.m4v,6.0
2024-02-27 15:28:35.201995,1709044115.201995,-123.53515625,-41.015625,-15.625,-43.9453125,0.0,-1.0,1.0,0.0,1.m4v,6.0
2024-02-27 15:28:35.205900,1709044115.2059,-22.4609375,-28.80859375,-15.13671875,-45.41015625,0.0,-1.0,1.0,0.0,1.m4v,6.0
2024-02-27 15:28:35.209805,1709044115.2098048,11.23046875,-32.2265625,-12.6953125,-58.10546875,0.0,-1.0,1.0,0.0,1.m4v,6.0
2024-02-27 15:28:35.213710,1709044115.2137098,-43.9453125,-40.52734375,-18.06640625,-56.640625,0.0,-1.0,1.0,0.0,1.m4v,6.0
2024-02-27 15:28:35.217615,1709044115.217615,-84.47265625,-22.4609375,-27.83203125,-46.875,0.0,-1.0,1.0,0.0,1.m4v,6.0
2024-02-27 15:28:35.221520,1709044115.2215197,-76.171875,-19.53125,-37.109375,-41.015625,0.0,-1.0,1.0,0.0,1.m4v,6.0
2024-02-27 15:28:35.225425,1709044115.2254248,-35.15625,-31.25,-41.50390625,-38.0859375,0.0,-1.0,1.0,0.0,1.m4v,6.0
2024-02-27 15:28:35.229338,1709044115.2293384,-15.13671875,-36.1328125,-37.59765625,-36.62109375,0.0,-1.0,1.0,0.0,1.m4v,6.0
2024-02-27 15:28:35.233243,1709044115.2332437,-39.0625,-35.64453125,-25.390625,-36.62109375,0.0,-1.0,1.0,0.0,1.m4v,6.0
2024-02-27 15:28:35.237148,1709044115.2371483,-99.12109375,-38.57421875,-25.390625,-21.97265625,0.0,-1.0,1.0,0.0,1.m4v,6.0
2024-02-27 15:28:35.241053,1709044115.241053,-60.546875,-31.73828125,-28.3203125,-10.7421875,0.0,-1.0,1.0,0.0,1.m4v,6.0
2024-02-27 15:28:35.244958,1709044115.2449582,-2.9296875,-20.5078125,-25.87890625,-27.34375,0.0,-1.0,1.0,0.0,1.m4v,6.0
2024-02-27 15:28:35.248863,1709044115.2488632,14.16015625,-23.92578125,-21.97265625,-38.0859375,0.0,-1.0,1.0,0.0,1.m4v,6.0
2024-02-27 15:28:35.252768,1709044115.2527685,0.48828125,-27.34375,-24.4140625,-32.71484375,0.0,-1.0,1.0,0.0,1.m4v,6.0
2024-02-27 15:28:35.256673,1709044115.256673,-69.82421875,-38.0859375,-27.83203125,-46.875,0.0,-1.0,1.0,0.0,1.m4v,6.0
2024-02-27 15:28:35.260578,1709044115.2605782,-86.42578125,-38.0859375,-24.90234375,-52.734375,0.0,-1.0,1.0,0.0,1.m4v,6.0
2024-02-27 15:28:35.264483,1709044115.264483,-38.0859375,-26.3671875,-26.3671875,-35.64453125,0.0,-1.0,1.0,0.0,1.m4v,6.0
2024-02-27 15:28:35.268388,1709044115.268388,11.71875,-32.2265625,-29.78515625,-34.1796875,0.0,-1.0,1.0,0.0,1.m4v,6.0
2024-02-27 15:28:35.272293,1709044115.272293,-2.44140625,-39.0625,-32.71484375,-37.109375,0.0,-1.0,1.0,0.0,1.m4v,6.0
2024-02-27 15:28:35.276205,1709044115.2762048,-63.4765625,-34.1796875,-29.78515625,-43.45703125,0.0,-1.0,1.0,0.0,1.m4v,6.0
2024-02-27 15:28:35.280110,1709044115.28011,-53.22265625,-31.25,-26.3671875,-30.2734375,0.0,-1.0,1.0,0.0,1.m4v,6.0
2024-02-27 15:28:35.284015,1709044115.2840147,24.4140625,-28.80859375,-13.671875,-5.37109375,0.0,-1.0,1.0,0.0,1.m4v,6.0
2024-02-27 15:28:35.287920,1709044115.2879198,32.2265625,-29.78515625,-18.5546875,-25.390625,0.0,-1.0,1.0,0.0,1.m4v,6.0
2024-02-27 15:28:35.291825,1709044115.2918246,7.8125,-34.66796875,-40.0390625,-45.41015625,0.0,-1.0,1.0,0.0,1.m4v,6.0
2024-02-27 15:28:35.295730,1709044115.2957296,-13.18359375,-31.73828125,-46.875,-21.97265625,0.0,-1.0,1.0,0.0,1.m4v,6.0
2024-02-27 15:28:35.299635,1709044115.2996347,-18.5546875,-33.69140625,-56.640625,-4.8828125,0.0,-1.0,1.0,0.0,1.m4v,6.0
2024-02-27 15:28:35.303540,1709044115.3035395,-16.6015625,-37.109375,-53.7109375,-29.296875,0.0,-1.0,1.0,0.0,1.m4v,6.0
2024-02-27 15:28:35.307445,1709044115.3074446,-4.39453125,-24.90234375,-24.4140625,-47.8515625,0.0,-1.0,1.0,0.0,1.m4v,6.0
2024-02-27 15:28:35.311350,1709044115.3113496,-9.765625,-32.2265625,-14.16015625,-41.9921875,0.0,-1.0,1.0,0.0,1.m4v,6.0
2024-02-27 15:28:35.315254,1709044115.3152544,-76.66015625,-33.69140625,-25.87890625,-29.78515625,0.0,-1.0,1.0,0.0,1.m4v,6.0
2024-02-27 15:28:35.319160,1709044115.3191595,-53.7109375,-29.296875,-29.296875,-15.13671875,0.0,-1.0,1.0,0.0,1.m4v,6.0
2024-02-27 15:28:35.323070,1709044115.3230698,-26.3671875,-33.203125,-28.80859375,-31.73828125,0.0,-1.0,1.0,0.0,1.m4v,6.0
2024-02-27 15:28:35.326975,1709044115.3269749,-3.41796875,-27.83203125,-23.4375,-56.640625,0.0,-1.0,1.0,0.0,1.m4v,6.0
2024-02-27 15:28:35.330880,1709044115.3308797,37.109375,-21.97265625,-30.76171875,-47.36328125,0.0,-1.0,1.0,0.0,1.m4v,6.0
2024-02-27 15:28:35.334785,1709044115.3347847,-14.16015625,-29.296875,-41.9921875,-33.69140625,0.0,-1.0,1.0,0.0,1.m4v,6.0
2024-02-27 15:28:35.338690,1709044115.3386898,-61.03515625,-36.62109375,-30.76171875,-24.90234375,0.0,-1.0,1.0,0.0,1.m4v,6.0
2024-02-27 15:28:35.342595,1709044115.3425946,-26.3671875,-28.3203125,-19.04296875,-26.3671875,0.0,-1.0,1.0,0.0,1.m4v,6.0
2024-02-27 15:28:35.346500,1709044115.3464997,-8.7890625,-30.76171875,-27.83203125,-44.921875,0.0,-1.0,1.0,0.0,1.m4v,6.0
2024-02-27 15:28:35.350405,1709044115.3504047,-19.53125,-31.73828125,-31.25,-60.546875,0.0,-1.0,1.0,0.0,1.m4v,6.0
2024-02-27 15:28:35.354310,1709044115.3543096,-56.640625,-21.484375,-25.390625,-41.015625,0.0,-1.0,1.0,0.0,1.m4v,6.0
2024-02-27 15:28:35.358215,1709044115.3582146,-95.703125,-20.5078125,-34.1796875,-21.484375,0.0,-1.0,1.0,0.0,1.m4v,6.0
2024-02-27 15:28:35.362119,1709044115.3621194,-101.5625,-31.73828125,-42.48046875,-33.69140625,0.0,-1.0,1.0,0.0,1.m4v,6.0
2024-02-27 15:28:35.366024,1709044115.3660245,-65.4296875,-35.64453125,-34.1796875,-42.96875,0.0,-1.0,1.0,0.0,1.m4v,6.0
2024-02-27 15:28:35.369943,1709044115.3699431,4.8828125,-27.34375,-23.92578125,-38.0859375,0.0,-1.0,1.0,0.0,1.m4v,6.0
2024-02-27 15:28:35.373848,1709044115.3738482,12.20703125,-27.34375,-28.80859375,-29.78515625,0.0,-1.0,1.0,0.0,1.m4v,6.0
2024-02-27 15:28:35.377753,1709044115.3777533,-46.38671875,-30.76171875,-35.64453125,-41.50390625,0.0,-1.0,1.0,0.0,1.m4v,6.0
2024-02-27 15:28:35.381658,1709044115.381658,-46.875,-28.80859375,-32.71484375,-36.1328125,0.0,-1.0,1.0,0.0,1.m4v,6.0
2024-02-27 15:28:35.385563,1709044115.3855631,-29.296875,-29.78515625,-34.66796875,-35.15625,0.0,-1.0,1.0,0.0,1.m4v,6.0
2024-02-27 15:28:35.389468,1709044115.389468,15.625,-30.76171875,-36.62109375,-43.9453125,0.0,-1.0,1.0,0.0,1.m4v,6.0
2024-02-27 15:28:35.393373,1709044115.393373,18.06640625,-33.69140625,-34.1796875,-39.0625,0.0,-1.0,1.0,0.0,1.m4v,6.0
2024-02-27 15:28:35.397278,1709044115.397278,-53.22265625,-27.83203125,-23.4375,-39.55078125,0.0,-1.0,1.0,0.0,1.m4v,6.0
2024-02-27 15:28:35.401183,1709044115.401183,-70.80078125,-15.625,-26.3671875,-20.99609375,0.0,-1.0,1.0,0.0,1.m4v,6.0
2024-02-27 15:28:35.405088,1709044115.405088,-28.80859375,-26.85546875,-36.1328125,-21.484375,0.0,-1.0,1.0,0.0,1.m4v,6.0
2024-02-27 15:28:35.408993,1709044115.408993,-14.16015625,-42.96875,-35.15625,-61.5234375,0.0,-1.0,1.0,0.0,1.m4v,6.0
2024-02-27 15:28:35.412898,1709044115.4128978,-42.48046875,-35.64453125,-35.64453125,-74.21875,0.0,-1.0,1.0,0.0,1.m4v,6.0
2024-02-27 15:28:35.416816,1709044115.4168155,-94.7265625,-22.94921875,-35.64453125,-52.24609375,0.0,-1.0,1.0,0.0,1.m4v,6.0
2024-02-27 15:28:35.420721,1709044115.4207206,-87.40234375,-29.296875,-38.57421875,-56.15234375,0.0,-1.0,1.0,0.0,1.m4v,6.0
2024-02-27 15:28:35.424625,1709044115.4246254,-45.41015625,-41.50390625,-41.50390625,-75.68359375,0.0,-1.0,1.0,0.0,1.m4v,6.0
2024-02-27 15:28:35.428530,1709044115.4285305,-10.25390625,-35.15625,-36.62109375,-73.2421875,0.0,-1.0,1.0,0.0,1.m4v,6.0
2024-02-27 15:28:35.432435,1709044115.4324353,5.37109375,-25.390625,-28.3203125,-65.91796875,0.0,-1.0,1.0,0.0,1.m4v,6.0
2024-02-27 15:28:35.436340,1709044115.4363403,-36.1328125,-30.76171875,-23.4375,-60.05859375,0.0,-1.0,1.0,0.0,1.m4v,6.0
2024-02-27 15:28:35.440245,1709044115.4402454,-62.5,-40.0390625,-35.15625,-42.96875,0.0,-1.0,1.0,0.0,1.m4v,6.0
2024-02-27 15:28:35.444150,1709044115.4441502,-61.5234375,-36.1328125,-37.59765625,-36.62109375,0.0,-1.0,1.0,0.0,1.m4v,6.0
2024-02-27 15:28:35.448055,1709044115.4480553,-36.62109375,-31.25,-23.92578125,-48.33984375,0.0,-1.0,1.0,0.0,1.m4v,6.0
2024-02-27 15:28:35.451960,1709044115.4519603,-39.55078125,-37.59765625,-28.3203125,-47.36328125,0.0,-1.0,1.0,0.0,1.m4v,6.0
2024-02-27 15:28:35.455865,1709044115.4558651,-105.95703125,-42.48046875,-31.73828125,-47.36328125,0.0,-1.0,1.0,0.0,1.m4v,6.0
2024-02-27 15:28:35.459770,1709044115.4597702,-70.80078125,-38.57421875,-31.25,-40.0390625,0.0,-1.0,1.0,0.0,1.m4v,6.0
2024-02-27 15:28:35.463687,1709044115.4636867,-15.13671875,-38.0859375,-30.2734375,-30.76171875,0.0,-1.0,1.0,0.0,1.m4v,6.0
2024-02-27 15:28:35.467592,1709044115.4675915,-17.08984375,-34.66796875,-31.25,-39.0625,0.0,-1.0,1.0,0.0,1.m4v,6.0
2024-02-27 15:28:35.471497,1709044115.4714966,-25.87890625,-28.80859375,-36.62109375,-42.96875,0.0,-1.0,1.0,0.0,1.m4v,6.0
2024-02-27 15:28:35.475401,1709044115.4754014,-65.4296875,-35.15625,-34.1796875,-34.66796875,0.0,-1.0,1.0,0.0,1.m4v,6.0
2024-02-27 15:28:35.479306,1709044115.4793065,-92.28515625,-37.109375,-30.76171875,-30.76171875,0.0,-1.0,1.0,0.0,1.m4v,6.0
2024-02-27 15:28:35.483212,1709044115.4832115,-59.5703125,-30.2734375,-31.25,-45.41015625,0.0,-1.0,1.0,0.0,1.m4v,6.0
2024-02-27 15:28:35.487116,1709044115.4871163,-34.1796875,-28.80859375,-28.80859375,-41.50390625,0.0,-1.0,1.0,0.0,1.m4v,6.0
2024-02-27 15:28:35.491021,1709044115.4910214,-43.45703125,-27.34375,-36.1328125,-22.4609375,0.0,-1.0,1.0,0.0,1.m4v,6.0
2024-02-27 15:28:35.494926,1709044115.4949262,-74.70703125,-24.90234375,-40.0390625,-22.94921875,0.0,-1.0,1.0,0.0,1.m4v,6.0
2024-02-27 15:28:35.498831,1709044115.4988313,-98.14453125,-27.34375,-29.296875,-30.76171875,0.0,-1.0,1.0,0.0,1.m4v,6.0
2024-02-27 15:28:35.502736,1709044115.5027363,-87.40234375,-32.71484375,-36.1328125,-35.15625,0.0,-1.0,1.0,0.0,1.m4v,6.0
2024-02-27 15:28:35.506641,1709044115.5066411,-56.640625,-45.41015625,-49.8046875,-51.7578125,0.0,-1.0,1.0,0.0,1.m4v,6.0
2024-02-27 15:28:35.510556,1709044115.5105565,-43.45703125,-46.875,-51.7578125,-60.546875,0.0,-1.0,1.0,0.0,1.m4v,6.0
2024-02-27 15:28:35.514462,1709044115.5144615,-33.203125,-28.80859375,-38.0859375,-34.66796875,0.0,-1.0,1.0,0.0,1.m4v,6.0
2024-02-27 15:28:35.518366,1709044115.5183663,-40.0390625,-29.78515625,-30.2734375,-24.4140625,0.0,-1.0,1.0,0.0,1.m4v,6.0
2024-02-27 15:28:35.522271,1709044115.5222714,-28.80859375,-39.0625,-32.2265625,-26.85546875,0.0,-1.0,1.0,0.0,1.m4v,6.0
2024-02-27 15:28:35.526176,1709044115.5261762,1.46484375,-25.390625,-28.80859375,-38.57421875,0.0,-1.0,1.0,0.0,1.m4v,6.0
2024-02-27 15:28:35.530081,1709044115.5300813,-11.23046875,-21.97265625,-33.203125,-57.6171875,0.0,-1.0,1.0,0.0,1.m4v,6.0
2024-02-27 15:28:35.533986,1709044115.5339863,-17.578125,-35.64453125,-41.50390625,-39.55078125,0.0,-1.0,1.0,0.0,1.m4v,6.0
2024-02-27 15:28:35.537891,1709044115.5378911,-48.828125,-32.71484375,-40.52734375,-17.08984375,0.0,-1.0,1.0,0.0,1.m4v,6.0
2024-02-27 15:28:35.541796,1709044115.5417962,-73.73046875,-32.2265625,-41.50390625,-27.83203125,0.0,-1.0,1.0,0.0,1.m4v,6.0
2024-02-27 15:28:35.545701,1709044115.545701,-26.3671875,-33.69140625,-36.1328125,-43.9453125,0.0,-1.0,1.0,0.0,1.m4v,6.0
2024-02-27 15:28:35.549606,1709044115.549606,5.37109375,-32.71484375,-30.76171875,-42.48046875,0.0,-1.0,1.0,0.0,1.m4v,6.0
2024-02-27 15:28:35.553511,1709044115.5535111,-45.41015625,-32.2265625,-32.71484375,-41.015625,0.0,-1.0,1.0,0.0,1.m4v,6.0
2024-02-27 15:28:35.557425,1709044115.5574253,-61.5234375,-35.15625,-33.69140625,-32.2265625,0.0,-1.0,1.0,0.0,1.m4v,6.0
2024-02-27 15:28:35.561330,1709044115.56133,-20.5078125,-36.62109375,-31.73828125,-26.85546875,0.0,-1.0,1.0,0.0,1.m4v,6.0
2024-02-27 15:28:35.565235,1709044115.5652351,-2.9296875,-32.2265625,-27.34375,-52.24609375,0.0,-1.0,1.0,0.0,1.m4v,6.0
2024-02-27 15:28:35.569140,1709044115.5691402,9.765625,-20.99609375,-16.6015625,-52.24609375,0.0,-1.0,1.0,0.0,1.m4v,6.0
2024-02-27 15:28:35.573045,1709044115.573045,-6.34765625,-18.5546875,-14.6484375,-42.96875,0.0,-1.0,1.0,0.0,1.m4v,6.0
2024-02-27 15:28:35.576950,1709044115.57695,-33.203125,-33.203125,-28.80859375,-42.96875,0.0,-1.0,1.0,0.0,1.m4v,6.0
2024-02-27 15:28:35.580855,1709044115.5808551,-37.59765625,-41.015625,-42.96875,-29.296875,0.0,-1.0,1.0,0.0,1.m4v,6.0
2024-02-27 15:28:35.584760,1709044115.58476,-15.13671875,-37.109375,-42.96875,-34.1796875,0.0,-1.0,1.0,0.0,1.m4v,6.0
2024-02-27 15:28:35.588665,1709044115.588665,-3.90625,-35.15625,-36.1328125,-54.19921875,0.0,-1.0,1.0,0.0,1.m4v,6.0
2024-02-27 15:28:35.592570,1709044115.5925698,-35.15625,-33.69140625,-37.109375,-60.546875,0.0,-1.0,1.0,0.0,1.m4v,6.0
2024-02-27 15:28:35.596475,1709044115.596475,-56.15234375,-28.80859375,-39.55078125,-40.52734375,0.0,-1.0,1.0,0.0,1.m4v,6.0
2024-02-27 15:28:35.600380,1709044115.60038,-66.40625,-32.71484375,-43.45703125,-24.90234375,0.0,-1.0,1.0,0.0,1.m4v,6.0
2024-02-27 15:28:35.604293,1709044115.6042929,-90.33203125,-35.15625,-41.9921875,-32.2265625,0.0,-1.0,1.0,0.0,1.m4v,6.0
2024-02-27 15:28:35.608198,1709044115.608198,3.90625,-22.4609375,-21.97265625,-34.66796875,0.0,-1.0,1.0,0.0,1.m4v,6.0
2024-02-27 15:28:35.612103,1709044115.6121027,49.8046875,-28.3203125,-24.90234375,-27.34375,0.0,-1.0,1.0,0.0,1.m4v,6.0
2024-02-27 15:28:35.616008,1709044115.6160078,-34.1796875,-42.48046875,-38.57421875,-24.90234375,0.0,-1.0,1.0,0.0,1.m4v,6.0
2024-02-27 15:28:35.619913,1709044115.6199126,-60.05859375,-46.875,-45.41015625,-25.87890625,0.0,-1.0,1.0,0.0,1.m4v,6.0
2024-02-27 15:28:35.623818,1709044115.6238177,-24.90234375,-43.9453125,-52.734375,-37.109375,0.0,-1.0,1.0,0.0,1.m4v,6.0
2024-02-27 15:28:35.627723,1709044115.6277227,-0.9765625,-45.41015625,-47.36328125,-38.0859375,0.0,-1.0,1.0,0.0,1.m4v,6.0
2024-02-27 15:28:35.631628,1709044115.6316276,-3.41796875,-42.96875,-24.90234375,-26.3671875,0.0,-1.0,1.0,0.0,1.m4v,6.0
2024-02-27 15:28:35.635533,1709044115.6355326,-49.8046875,-32.2265625,-21.97265625,-32.2265625,0.0,-1.0,1.0,0.0,1.m4v,6.0
2024-02-27 15:28:35.639437,1709044115.6394374,-94.7265625,-34.1796875,-40.0390625,-31.25,0.0,-1.0,1.0,0.0,1.m4v,6.0
2024-02-27 15:28:35.643342,1709044115.6433425,-61.03515625,-36.62109375,-35.64453125,-45.8984375,0.0,-1.0,1.0,0.0,1.m4v,6.0
2024-02-27 15:28:35.647248,1709044115.6472476,-9.765625,-40.52734375,-33.203125,-47.36328125,0.0,-1.0,1.0,0.0,1.m4v,6.0
2024-02-27 15:28:35.651160,1709044115.6511598,-15.625,-33.203125,-37.59765625,-32.2265625,0.0,-1.0,1.0,0.0,1.m4v,6.0
2024-02-27 15:28:35.655065,1709044115.6550648,-38.57421875,-23.4375,-27.34375,-25.390625,0.0,-1.0,1.0,0.0,1.m4v,6.0
2024-02-27 15:28:35.658970,1709044115.65897,-45.8984375,-27.34375,-28.3203125,-20.99609375,0.0,-1.0,1.0,0.0,1.m4v,6.0
2024-02-27 15:28:35.662875,1709044115.6628747,-31.73828125,-30.76171875,-37.109375,-27.83203125,0.0,-1.0,1.0,0.0,1.m4v,6.0
2024-02-27 15:28:35.666780,1709044115.6667798,-16.11328125,-38.57421875,-42.48046875,-53.22265625,0.0,-1.0,1.0,0.0,1.m4v,6.0
2024-02-27 15:28:35.670685,1709044115.6706846,-24.90234375,-42.96875,-43.9453125,-62.5,0.0,-1.0,1.0,0.0,1.m4v,6.0
2024-02-27 15:28:35.674590,1709044115.6745896,-36.1328125,-39.0625,-39.0625,-34.1796875,0.0,-1.0,1.0,0.0,1.m4v,6.0
2024-02-27 15:28:35.678495,1709044115.6784947,-67.3828125,-39.0625,-40.0390625,-22.94921875,0.0,-1.0,1.0,0.0,1.m4v,6.0
2024-02-27 15:28:35.682400,1709044115.6823995,-57.6171875,-32.2265625,-37.109375,-27.34375,0.0,-1.0,1.0,0.0,1.m4v,6.0
2024-02-27 15:28:35.686305,1709044115.6863046,-30.2734375,-30.2734375,-31.73828125,-40.0390625,0.0,-1.0,1.0,0.0,1.m4v,6.0
2024-02-27 15:28:35.690209,1709044115.6902094,-28.80859375,-41.9921875,-41.9921875,-47.8515625,0.0,-1.0,1.0,0.0,1.m4v,6.0
2024-02-27 15:28:35.694114,1709044115.6941144,-44.921875,-46.38671875,-45.8984375,-43.45703125,0.0,-1.0,1.0,0.0,1.m4v,6.0
2024-02-27 15:28:35.698025,1709044115.698025,-50.78125,-45.8984375,-29.296875,-28.80859375,0.0,-1.0,1.0,0.0,1.m4v,6.0
2024-02-27 15:28:35.701930,1709044115.70193,-20.5078125,-46.875,-15.13671875,-5.859375,0.0,-1.0,1.0,0.0,1.m4v,6.0
2024-02-27 15:28:35.705835,1709044115.7058349,-4.8828125,-42.48046875,-23.92578125,-18.06640625,0.0,-1.0,1.0,0.0,1.m4v,6.0
2024-02-27 15:28:35.709740,1709044115.70974,17.578125,-32.71484375,-27.83203125,-33.69140625,0.0,-1.0,1.0,0.0,1.m4v,6.0
2024-02-27 15:28:35.713645,1709044115.7136447,-18.5546875,-36.1328125,-19.53125,-35.15625,0.0,-1.0,1.0,0.0,1.m4v,6.0
2024-02-27 15:28:35.717550,1709044115.7175498,-45.8984375,-33.203125,-24.4140625,-11.23046875,0.0,-1.0,1.0,0.0,1.m4v,6.0
2024-02-27 15:28:35.721455,1709044115.7214549,-23.92578125,-20.01953125,-29.78515625,-0.9765625,0.0,-1.0,1.0,0.0,1.m4v,6.0
2024-02-27 15:28:35.725360,1709044115.7253597,-27.34375,-29.78515625,-22.94921875,-18.5546875,0.0,-1.0,1.0,0.0,1.m4v,6.0
2024-02-27 15:28:35.729265,1709044115.7292647,-25.390625,-42.48046875,-22.4609375,-42.96875,0.0,-1.0,1.0,0.0,1.m4v,6.0
2024-02-27 15:28:35.733170,1709044115.7331698,-33.69140625,-42.48046875,-30.2734375,-54.6875,0.0,-1.0,1.0,0.0,1.m4v,6.0
2024-02-27 15:28:35.737075,1709044115.7370746,-94.23828125,-42.96875,-39.0625,-38.57421875,0.0,-1.0,1.0,0.0,1.m4v,6.0
2024-02-27 15:28:35.740980,1709044115.7409797,-102.5390625,-41.015625,-42.96875,-30.2734375,0.0,-1.0,1.0,0.0,1.m4v,6.0
2024-02-27 15:28:35.744899,1709044115.7448986,-33.203125,-43.45703125,-35.15625,-34.66796875,0.0,-1.0,1.0,0.0,1.m4v,6.0
2024-02-27 15:28:35.748803,1709044115.7488034,-11.23046875,-49.31640625,-40.52734375,-54.6875,0.0,-1.0,1.0,0.0,1.m4v,6.0
2024-02-27 15:28:35.752708,1709044115.7527084,-10.7421875,-39.0625,-47.36328125,-45.8984375,0.0,-1.0,1.0,0.0,1.m4v,6.0
2024-02-27 15:28:35.756613,1709044115.7566135,-35.64453125,-23.4375,-31.25,-23.4375,0.0,-1.0,1.0,0.0,1.m4v,6.0
2024-02-27 15:28:35.760518,1709044115.7605183,-51.7578125,-17.578125,-24.4140625,-21.484375,0.0,-1.0,1.0,0.0,1.m4v,6.0
2024-02-27 15:28:35.764423,1709044115.7644234,-28.3203125,-24.4140625,-26.85546875,-35.64453125,0.0,-1.0,1.0,0.0,1.m4v,6.0
2024-02-27 15:28:35.768328,1709044115.7683282,-2.44140625,-29.78515625,-28.80859375,-58.10546875,0.0,-1.0,1.0,0.0,1.m4v,6.0
2024-02-27 15:28:35.772233,1709044115.7722332,-19.53125,-28.80859375,-37.59765625,-49.8046875,0.0,-1.0,1.0,0.0,1.m4v,6.0
2024-02-27 15:28:35.776138,1709044115.7761383,-83.49609375,-33.69140625,-37.109375,-27.34375,0.0,-1.0,1.0,0.0,1.m4v,6.0
2024-02-27 15:28:35.780043,1709044115.7800431,-91.30859375,-41.50390625,-40.0390625,-26.85546875,0.0,-1.0,1.0,0.0,1.m4v,6.0
2024-02-27 15:28:35.783948,1709044115.7839482,-55.6640625,-38.57421875,-43.9453125,-28.3203125,0.0,-1.0,1.0,0.0,1.m4v,6.0
2024-02-27 15:28:35.787853,1709044115.787853,-38.0859375,-32.2265625,-37.59765625,-43.9453125,0.0,-1.0,1.0,0.0,1.m4v,6.0
2024-02-27 15:28:35.791771,1709044115.7917707,-26.3671875,-29.296875,-24.90234375,-48.33984375,0.0,-1.0,1.0,0.0,1.m4v,6.0
2024-02-27 15:28:35.795676,1709044115.7956758,-41.9921875,-26.3671875,-28.3203125,-32.71484375,0.0,-1.0,1.0,0.0,1.m4v,6.0
2024-02-27 15:28:35.799581,1709044115.7995806,-70.80078125,-27.83203125,-45.8984375,-34.66796875,0.0,-1.0,1.0,0.0,1.m4v,6.0
2024-02-27 15:28:35.803486,1709044115.8034856,-74.70703125,-31.25,-50.29296875,-51.26953125,0.0,-1.0,1.0,0.0,1.m4v,6.0
2024-02-27 15:28:35.807391,1709044115.8073907,-32.71484375,-36.62109375,-41.015625,-58.10546875,0.0,-1.0,1.0,0.0,1.m4v,6.0
2024-02-27 15:28:35.811296,1709044115.8112955,14.16015625,-33.69140625,-35.15625,-46.875,0.0,-1.0,1.0,0.0,1.m4v,6.0
2024-02-27 15:28:35.815201,1709044115.8152006,-2.9296875,-23.4375,-30.76171875,-39.0625,0.0,-1.0,1.0,0.0,1.m4v,6.0
2024-02-27 15:28:35.819106,1709044115.8191056,-70.80078125,-29.78515625,-28.3203125,-45.41015625,0.0,-1.0,1.0,0.0,1.m4v,6.0
2024-02-27 15:28:35.823010,1709044115.8230104,-82.03125,-36.62109375,-34.66796875,-48.33984375,0.0,-1.0,1.0,0.0,1.m4v,6.0
2024-02-27 15:28:35.826916,1709044115.8269155,4.8828125,-40.0390625,-32.71484375,-44.43359375,0.0,-1.0,1.0,0.0,1.m4v,6.0
2024-02-27 15:28:35.830820,1709044115.8308203,10.7421875,-37.59765625,-30.2734375,-38.57421875,0.0,-1.0,1.0,0.0,1.m4v,6.0
2024-02-27 15:28:35.834725,1709044115.8347254,-46.875,-25.87890625,-33.203125,-34.66796875,0.0,-1.0,1.0,0.0,1.m4v,6.0
2024-02-27 15:28:35.838642,1709044115.838642,-69.3359375,-20.99609375,-33.203125,-25.390625,0.0,-1.0,1.0,0.0,1.m4v,6.0
2024-02-27 15:28:35.842547,1709044115.8425467,-54.19921875,-27.34375,-32.2265625,-18.5546875,0.0,-1.0,1.0,0.0,1.m4v,6.0
2024-02-27 15:28:35.846452,1709044115.8464518,-34.1796875,-31.73828125,-33.203125,-35.64453125,0.0,-1.0,1.0,0.0,1.m4v,6.0
2024-02-27 15:28:35.850357,1709044115.8503566,-7.8125,-27.83203125,-31.73828125,-43.45703125,0.0,-1.0,1.0,0.0,1.m4v,6.0
2024-02-27 15:28:35.854262,1709044115.8542616,-25.87890625,-23.4375,-25.390625,-39.0625,0.0,-1.0,1.0,0.0,1.m4v,6.0
2024-02-27 15:28:35.858167,1709044115.8581667,-43.45703125,-20.5078125,-26.85546875,-27.83203125,0.0,-1.0,1.0,0.0,1.m4v,6.0
2024-02-27 15:28:35.862072,1709044115.8620715,-25.87890625,-29.296875,-36.1328125,-20.99609375,0.0,-1.0,1.0,0.0,1.m4v,6.0
2024-02-27 15:28:35.865977,1709044115.8659766,-40.0390625,-34.66796875,-37.109375,-40.52734375,0.0,-1.0,1.0,0.0,1.m4v,6.0
2024-02-27 15:28:35.869882,1709044115.8698816,-33.69140625,-33.203125,-36.1328125,-50.78125,0.0,-1.0,1.0,0.0,1.m4v,6.0
2024-02-27 15:28:35.873786,1709044115.8737864,-61.5234375,-26.85546875,-34.1796875,-51.7578125,0.0,-1.0,1.0,0.0,1.m4v,6.0
2024-02-27 15:28:35.877692,1709044115.8776915,-107.421875,-24.4140625,-28.80859375,-32.71484375,0.0,-1.0,1.0,0.0,1.m4v,6.0
2024-02-27 15:28:35.881596,1709044115.8815963,-54.6875,-33.203125,-25.87890625,-14.16015625,0.0,-1.0,1.0,0.0,1.m4v,6.0
2024-02-27 15:28:35.885512,1709044115.885512,11.71875,-33.203125,-30.2734375,-27.34375,0.0,-1.0,1.0,0.0,1.m4v,6.0
2024-02-27 15:28:35.889417,1709044115.8894172,11.71875,-25.87890625,-24.90234375,-33.69140625,0.0,-1.0,1.0,0.0,1.m4v,6.0
