Timestamp,Timestamp_UNIX,TP9,AF7,AF8,TP10,Valence,Arousal,Dominace,Viewed,Video,Participant
2024-02-27 09:34:54.106090,1709022894.1060903,-43.45703125,-27.34375,-20.5078125,-37.59765625,-1.0,1.0,-1.0,0.0,4.m4v,1.0
2024-02-27 09:34:54.109996,1709022894.109996,-42.48046875,-31.25,-28.3203125,-44.921875,-1.0,1.0,-1.0,0.0,4.m4v,1.0
2024-02-27 09:34:54.113902,1709022894.113902,-38.57421875,-24.4140625,-18.06640625,-38.0859375,-1.0,1.0,-1.0,0.0,4.m4v,1.0
2024-02-27 09:34:54.117810,1709022894.11781,-29.296875,-29.296875,-21.97265625,-32.71484375,-1.0,1.0,-1.0,0.0,4.m4v,1.0
2024-02-27 09:34:54.121716,1709022894.1217158,-31.73828125,-33.69140625,-30.76171875,-31.25,-1.0,1.0,-1.0,0.0,4.m4v,1.0
2024-02-27 09:34:54.125622,1709022894.1256216,-21.484375,-28.3203125,-26.85546875,-28.80859375,-1.0,1.0,-1.0,0.0,4.m4v,1.0
2024-02-27 09:34:54.129527,1709022894.129527,-3.41796875,-26.85546875,-20.5078125,-19.53125,-1.0,1.0,-1.0,0.0,4.m4v,1.0
2024-02-27 09:34:54.133433,1709022894.133433,-44.43359375,-31.73828125,-31.73828125,-30.76171875,-1.0,1.0,-1.0,0.0,4.m4v,1.0
2024-02-27 09:34:54.137339,1709022894.1373389,-59.08203125,-36.62109375,-37.59765625,-40.52734375,-1.0,1.0,-1.0,0.0,4.m4v,1.0
2024-02-27 09:34:54.141245,1709022894.1412446,-31.73828125,-31.25,-15.625,-24.90234375,-1.0,1.0,-1.0,0.0,4.m4v,1.0
2024-02-27 09:34:54.145150,1709022894.1451502,-11.71875,-30.2734375,-3.90625,-20.5078125,-1.0,1.0,-1.0,0.0,4.m4v,1.0
2024-02-27 09:34:54.149056,1709022894.149056,-29.296875,-42.48046875,-29.78515625,-32.71484375,-1.0,1.0,-1.0,0.0,4.m4v,1.0
2024-02-27 09:34:54.152962,1709022894.1529615,-60.05859375,-46.875,-62.5,-45.41015625,-1.0,1.0,-1.0,0.0,4.m4v,1.0
2024-02-27 09:34:54.156868,1709022894.1568675,-35.15625,-21.484375,-44.921875,-18.06640625,-1.0,1.0,-1.0,0.0,4.m4v,1.0
2024-02-27 09:34:54.160773,1709022894.1607733,-27.34375,-21.484375,-27.83203125,-13.671875,-1.0,1.0,-1.0,0.0,4.m4v,1.0
2024-02-27 09:34:54.164681,1709022894.1646812,-41.9921875,-36.62109375,-35.15625,-68.359375,-1.0,1.0,-1.0,0.0,4.m4v,1.0
2024-02-27 09:34:54.168587,1709022894.168587,-41.015625,-27.34375,-28.3203125,-85.44921875,-1.0,1.0,-1.0,0.0,4.m4v,1.0
2024-02-27 09:34:54.172493,1709022894.1724927,-65.91796875,-25.87890625,-24.4140625,-62.01171875,-1.0,1.0,-1.0,0.0,4.m4v,1.0
2024-02-27 09:34:54.176399,1709022894.1763985,-57.6171875,-31.25,-12.6953125,-41.015625,-1.0,1.0,-1.0,0.0,4.m4v,1.0
2024-02-27 09:34:54.180304,1709022894.180304,-28.3203125,-33.203125,-12.20703125,-39.55078125,-1.0,1.0,-1.0,0.0,4.m4v,1.0
2024-02-27 09:34:54.184210,1709022894.1842098,-19.04296875,-43.9453125,-30.76171875,-37.59765625,-1.0,1.0,-1.0,0.0,4.m4v,1.0
2024-02-27 09:34:54.188116,1709022894.1881156,-20.01953125,-45.41015625,-23.4375,-20.01953125,-1.0,1.0,-1.0,0.0,4.m4v,1.0
2024-02-27 09:34:54.192021,1709022894.1920214,-34.1796875,-25.87890625,-12.20703125,-25.87890625,-1.0,1.0,-1.0,0.0,4.m4v,1.0
2024-02-27 09:34:54.195927,1709022894.1959271,-39.0625,-23.4375,-31.73828125,-46.875,-1.0,1.0,-1.0,0.0,4.m4v,1.0
2024-02-27 09:34:54.199833,1709022894.199833,-32.2265625,-20.99609375,-36.62109375,-47.36328125,-1.0,1.0,-1.0,0.0,4.m4v,1.0
2024-02-27 09:34:54.203739,1709022894.2037387,-34.1796875,-21.484375,-51.7578125,-33.203125,-1.0,1.0,-1.0,0.0,4.m4v,1.0
2024-02-27 09:34:54.207644,1709022894.2076445,-39.55078125,-36.62109375,-62.5,-41.9921875,-1.0,1.0,-1.0,0.0,4.m4v,1.0
2024-02-27 09:34:54.207644,1709022894.2076445,-39.55078125,-36.62109375,-62.5,-41.9921875,-1.0,1.0,-1.0,0.0,4.m4v,1.0
2024-02-27 09:34:54.211552,1709022894.211552,-23.92578125,-21.484375,-35.15625,-33.203125,-1.0,1.0,-1.0,0.0,4.m4v,1.0
2024-02-27 09:34:54.211552,1709022894.211552,-23.92578125,-21.484375,-35.15625,-33.203125,-1.0,1.0,-1.0,0.0,4.m4v,1.0
2024-02-27 09:34:54.215458,1709022894.215458,-18.06640625,-13.671875,-11.71875,-12.6953125,-1.0,1.0,-1.0,0.0,4.m4v,1.0
2024-02-27 09:34:54.215458,1709022894.215458,-18.06640625,-13.671875,-11.71875,-12.6953125,-1.0,1.0,-1.0,0.0,4.m4v,1.0
2024-02-27 09:34:54.219364,1709022894.2193637,-21.484375,-31.73828125,-9.27734375,-26.85546875,-1.0,1.0,-1.0,0.0,4.m4v,1.0
2024-02-27 09:34:54.219364,1709022894.2193637,-21.484375,-31.73828125,-9.27734375,-26.85546875,-1.0,1.0,-1.0,0.0,4.m4v,1.0
2024-02-27 09:34:54.223269,1709022894.2232697,-44.921875,-37.109375,-23.4375,-50.78125,-1.0,1.0,-1.0,0.0,4.m4v,1.0
2024-02-27 09:34:54.223269,1709022894.2232697,-44.921875,-37.109375,-23.4375,-50.78125,-1.0,1.0,-1.0,0.0,4.m4v,1.0
2024-02-27 09:34:54.227175,1709022894.2271752,-52.734375,-28.3203125,-31.73828125,-48.828125,-1.0,1.0,-1.0,0.0,4.m4v,1.0
2024-02-27 09:34:54.227175,1709022894.2271752,-52.734375,-28.3203125,-31.73828125,-48.828125,-1.0,1.0,-1.0,0.0,4.m4v,1.0
2024-02-27 09:34:54.231081,1709022894.231081,-49.8046875,-26.3671875,-33.203125,-56.15234375,-1.0,1.0,-1.0,0.0,4.m4v,1.0
2024-02-27 09:34:54.231081,1709022894.231081,-49.8046875,-26.3671875,-33.203125,-56.15234375,-1.0,1.0,-1.0,0.0,4.m4v,1.0
2024-02-27 09:34:54.234987,1709022894.2349863,-39.55078125,-37.109375,-34.1796875,-45.8984375,-1.0,1.0,-1.0,0.0,4.m4v,1.0
2024-02-27 09:34:54.234987,1709022894.2349863,-39.55078125,-37.109375,-34.1796875,-45.8984375,-1.0,1.0,-1.0,0.0,4.m4v,1.0
2024-02-27 09:34:54.238892,1709022894.2388923,-11.23046875,-33.203125,-28.3203125,-12.6953125,-1.0,1.0,-1.0,0.0,4.m4v,1.0
2024-02-27 09:34:54.238892,1709022894.2388923,-11.23046875,-33.203125,-28.3203125,-12.6953125,-1.0,1.0,-1.0,0.0,4.m4v,1.0
2024-02-27 09:34:54.242798,1709022894.242798,-26.85546875,-29.296875,-28.80859375,-25.87890625,-1.0,1.0,-1.0,0.0,4.m4v,1.0
2024-02-27 09:34:54.242798,1709022894.242798,-26.85546875,-29.296875,-28.80859375,-25.87890625,-1.0,1.0,-1.0,0.0,4.m4v,1.0
2024-02-27 09:34:54.246704,1709022894.246704,-57.12890625,-32.71484375,-27.34375,-35.15625,-1.0,1.0,-1.0,0.0,4.m4v,1.0
2024-02-27 09:34:54.246704,1709022894.246704,-57.12890625,-32.71484375,-27.34375,-35.15625,-1.0,1.0,-1.0,0.0,4.m4v,1.0
2024-02-27 09:34:54.250610,1709022894.2506096,-49.31640625,-35.64453125,-26.3671875,-28.80859375,-1.0,1.0,-1.0,0.0,4.m4v,1.0
2024-02-27 09:34:54.250610,1709022894.2506096,-49.31640625,-35.64453125,-26.3671875,-28.80859375,-1.0,1.0,-1.0,0.0,4.m4v,1.0
2024-02-27 09:34:54.254515,1709022894.2545154,-13.671875,-18.5546875,-6.8359375,-8.7890625,-1.0,1.0,-1.0,0.0,4.m4v,1.0
2024-02-27 09:34:54.254515,1709022894.2545154,-13.671875,-18.5546875,-6.8359375,-8.7890625,-1.0,1.0,-1.0,0.0,4.m4v,1.0
2024-02-27 09:34:54.258425,1709022894.2584243,-16.11328125,-14.6484375,-1.46484375,-4.39453125,-1.0,1.0,-1.0,0.0,4.m4v,1.0
2024-02-27 09:34:54.258425,1709022894.2584243,-16.11328125,-14.6484375,-1.46484375,-4.39453125,-1.0,1.0,-1.0,0.0,4.m4v,1.0
2024-02-27 09:34:54.262330,1709022894.2623303,-29.296875,-47.36328125,-13.671875,-12.6953125,-1.0,1.0,-1.0,0.0,4.m4v,1.0
2024-02-27 09:34:54.262330,1709022894.2623303,-29.296875,-47.36328125,-13.671875,-12.6953125,-1.0,1.0,-1.0,0.0,4.m4v,1.0
2024-02-27 09:34:54.266236,1709022894.266236,-35.64453125,-43.9453125,-12.20703125,-34.66796875,-1.0,1.0,-1.0,0.0,4.m4v,1.0
2024-02-27 09:34:54.266236,1709022894.266236,-35.64453125,-43.9453125,-12.20703125,-34.66796875,-1.0,1.0,-1.0,0.0,4.m4v,1.0
2024-02-27 09:34:54.270142,1709022894.2701418,-37.109375,-24.4140625,-8.7890625,-44.921875,-1.0,1.0,-1.0,0.0,4.m4v,1.0
2024-02-27 09:34:54.270142,1709022894.2701418,-37.109375,-24.4140625,-8.7890625,-44.921875,-1.0,1.0,-1.0,0.0,4.m4v,1.0
2024-02-27 09:34:54.274048,1709022894.2740476,-41.015625,-43.9453125,-36.62109375,-42.48046875,-1.0,1.0,-1.0,0.0,4.m4v,1.0
2024-02-27 09:34:54.274048,1709022894.2740476,-41.015625,-43.9453125,-36.62109375,-42.48046875,-1.0,1.0,-1.0,0.0,4.m4v,1.0
2024-02-27 09:34:54.277953,1709022894.2779534,-58.59375,-56.640625,-52.24609375,-51.26953125,-1.0,1.0,-1.0,0.0,4.m4v,1.0
2024-02-27 09:34:54.277953,1709022894.2779534,-58.59375,-56.640625,-52.24609375,-51.26953125,-1.0,1.0,-1.0,0.0,4.m4v,1.0
2024-02-27 09:34:54.281859,1709022894.2818592,-50.78125,-43.9453125,-41.50390625,-39.0625,-1.0,1.0,-1.0,0.0,4.m4v,1.0
2024-02-27 09:34:54.281859,1709022894.2818592,-50.78125,-43.9453125,-41.50390625,-39.0625,-1.0,1.0,-1.0,0.0,4.m4v,1.0
2024-02-27 09:34:54.285765,1709022894.285765,-27.83203125,-30.76171875,-27.83203125,-35.64453125,-1.0,1.0,-1.0,0.0,4.m4v,1.0
2024-02-27 09:34:54.285765,1709022894.285765,-27.83203125,-30.76171875,-27.83203125,-35.64453125,-1.0,1.0,-1.0,0.0,4.m4v,1.0
2024-02-27 09:34:54.289671,1709022894.2896707,-18.06640625,-35.15625,-16.11328125,-30.76171875,-1.0,1.0,-1.0,0.0,4.m4v,1.0
2024-02-27 09:34:54.289671,1709022894.2896707,-18.06640625,-35.15625,-16.11328125,-30.76171875,-1.0,1.0,-1.0,0.0,4.m4v,1.0
2024-02-27 09:34:54.293576,1709022894.2935765,-25.87890625,-38.0859375,-21.97265625,-10.25390625,-1.0,1.0,-1.0,0.0,4.m4v,1.0
2024-02-27 09:34:54.293576,1709022894.2935765,-25.87890625,-38.0859375,-21.97265625,-10.25390625,-1.0,1.0,-1.0,0.0,4.m4v,1.0
2024-02-27 09:34:54.297482,1709022894.2974825,-33.69140625,-24.90234375,-47.8515625,-17.578125,-1.0,1.0,-1.0,0.0,4.m4v,1.0
2024-02-27 09:34:54.297482,1709022894.2974825,-33.69140625,-24.90234375,-47.8515625,-17.578125,-1.0,1.0,-1.0,0.0,4.m4v,1.0
2024-02-27 09:34:54.301388,1709022894.3013878,-3.90625,-9.27734375,-20.99609375,-15.625,-1.0,1.0,-1.0,0.0,4.m4v,1.0
2024-02-27 09:34:54.301388,1709022894.3013878,-3.90625,-9.27734375,-20.99609375,-15.625,-1.0,1.0,-1.0,0.0,4.m4v,1.0
2024-02-27 09:34:54.305297,1709022894.305297,-1.46484375,-11.71875,-0.9765625,-12.20703125,-1.0,1.0,-1.0,0.0,4.m4v,1.0
2024-02-27 09:34:54.305297,1709022894.305297,-1.46484375,-11.71875,-0.9765625,-12.20703125,-1.0,1.0,-1.0,0.0,4.m4v,1.0
2024-02-27 09:34:54.309202,1709022894.3092024,-46.875,-33.69140625,-21.97265625,-37.59765625,-1.0,1.0,-1.0,0.0,4.m4v,1.0
2024-02-27 09:34:54.309202,1709022894.3092024,-46.875,-33.69140625,-21.97265625,-37.59765625,-1.0,1.0,-1.0,0.0,4.m4v,1.0
2024-02-27 09:34:54.313108,1709022894.3131082,-48.828125,-42.96875,-16.6015625,-39.55078125,-1.0,1.0,-1.0,0.0,4.m4v,1.0
2024-02-27 09:34:54.313108,1709022894.3131082,-48.828125,-42.96875,-16.6015625,-39.55078125,-1.0,1.0,-1.0,0.0,4.m4v,1.0
2024-02-27 09:34:54.317014,1709022894.317014,-24.4140625,-44.43359375,-7.8125,-13.671875,-1.0,1.0,-1.0,0.0,4.m4v,1.0
2024-02-27 09:34:54.317014,1709022894.317014,-24.4140625,-44.43359375,-7.8125,-13.671875,-1.0,1.0,-1.0,0.0,4.m4v,1.0
2024-02-27 09:34:54.320920,1709022894.3209198,-29.78515625,-42.48046875,-26.85546875,-7.8125,-1.0,1.0,-1.0,0.0,4.m4v,1.0
2024-02-27 09:34:54.320920,1709022894.3209198,-29.78515625,-42.48046875,-26.85546875,-7.8125,-1.0,1.0,-1.0,0.0,4.m4v,1.0
2024-02-27 09:34:54.324826,1709022894.3248255,-17.578125,-32.2265625,-36.1328125,-20.5078125,-1.0,1.0,-1.0,0.0,4.m4v,1.0
2024-02-27 09:34:54.324826,1709022894.3248255,-17.578125,-32.2265625,-36.1328125,-20.5078125,-1.0,1.0,-1.0,0.0,4.m4v,1.0
2024-02-27 09:34:54.328731,1709022894.3287313,-7.8125,-25.390625,-22.94921875,-35.15625,-1.0,1.0,-1.0,0.0,4.m4v,1.0
2024-02-27 09:34:54.328731,1709022894.3287313,-7.8125,-25.390625,-22.94921875,-35.15625,-1.0,1.0,-1.0,0.0,4.m4v,1.0
2024-02-27 09:34:54.332637,1709022894.332637,-40.0390625,-32.71484375,-29.78515625,-41.50390625,-1.0,1.0,-1.0,0.0,4.m4v,1.0
2024-02-27 09:34:54.336543,1709022894.3365428,-46.875,-35.15625,-38.0859375,-27.34375,-1.0,1.0,-1.0,0.0,4.m4v,1.0
2024-02-27 09:34:54.340449,1709022894.3404486,-19.04296875,-34.1796875,-12.20703125,-10.7421875,-1.0,1.0,-1.0,0.0,4.m4v,1.0
2024-02-27 09:34:54.344354,1709022894.3443542,-9.27734375,-25.87890625,4.39453125,-17.578125,-1.0,1.0,-1.0,0.0,4.m4v,1.0
2024-02-27 09:34:54.348260,1709022894.34826,-17.578125,-20.01953125,7.8125,-35.64453125,-1.0,1.0,-1.0,0.0,4.m4v,1.0
2024-02-27 09:34:54.352169,1709022894.3521688,-15.13671875,-26.85546875,8.7890625,-42.96875,-1.0,1.0,-1.0,0.0,4.m4v,1.0
2024-02-27 09:34:54.356074,1709022894.3560743,-35.64453125,-40.52734375,-6.8359375,-47.36328125,-1.0,1.0,-1.0,0.0,4.m4v,1.0
2024-02-27 09:34:54.359980,1709022894.35998,-20.5078125,-25.390625,-3.41796875,-32.71484375,-1.0,1.0,-1.0,0.0,4.m4v,1.0
2024-02-27 09:34:54.363886,1709022894.363886,-31.73828125,-15.625,-24.4140625,-47.36328125,-1.0,1.0,-1.0,0.0,4.m4v,1.0
2024-02-27 09:34:54.367792,1709022894.3677917,-65.91796875,-32.2265625,-49.31640625,-60.546875,-1.0,1.0,-1.0,0.0,4.m4v,1.0
2024-02-27 09:34:54.371697,1709022894.3716974,-51.26953125,-30.76171875,-28.3203125,-39.55078125,-1.0,1.0,-1.0,0.0,4.m4v,1.0
2024-02-27 09:34:54.375603,1709022894.3756032,-28.3203125,-19.04296875,-5.37109375,-12.6953125,-1.0,1.0,-1.0,0.0,4.m4v,1.0
2024-02-27 09:34:54.379509,1709022894.379509,-19.53125,-4.39453125,3.90625,-7.8125,-1.0,1.0,-1.0,0.0,4.m4v,1.0
2024-02-27 09:34:54.383415,1709022894.3834147,-1.953125,-0.9765625,10.25390625,-22.94921875,-1.0,1.0,-1.0,0.0,4.m4v,1.0
2024-02-27 09:34:54.387321,1709022894.3873205,-4.8828125,-28.3203125,-8.30078125,-36.62109375,-1.0,1.0,-1.0,0.0,4.m4v,1.0
2024-02-27 09:34:54.391226,1709022894.3912263,-55.17578125,-53.22265625,-27.34375,-62.98828125,-1.0,1.0,-1.0,0.0,4.m4v,1.0
2024-02-27 09:34:54.395132,1709022894.395132,-63.4765625,-36.62109375,-17.08984375,-65.91796875,-1.0,1.0,-1.0,0.0,4.m4v,1.0
2024-02-27 09:34:54.399040,1709022894.3990405,-38.0859375,-37.109375,-36.1328125,-56.15234375,-1.0,1.0,-1.0,0.0,4.m4v,1.0
2024-02-27 09:34:54.402946,1709022894.4029462,-20.99609375,-39.55078125,-47.8515625,-42.48046875,-1.0,1.0,-1.0,0.0,4.m4v,1.0
2024-02-27 09:34:54.406852,1709022894.406852,-29.78515625,-27.83203125,-29.296875,-41.50390625,-1.0,1.0,-1.0,0.0,4.m4v,1.0
2024-02-27 09:34:54.410758,1709022894.4107578,-45.41015625,-35.15625,-18.5546875,-49.8046875,-1.0,1.0,-1.0,0.0,4.m4v,1.0
2024-02-27 09:34:54.414664,1709022894.4146636,-24.90234375,-30.2734375,0.48828125,-32.71484375,-1.0,1.0,-1.0,0.0,4.m4v,1.0
2024-02-27 09:34:54.418569,1709022894.418569,-14.16015625,-12.20703125,13.671875,-19.53125,-1.0,1.0,-1.0,0.0,4.m4v,1.0
2024-02-27 09:34:54.422475,1709022894.4224749,7.32421875,-4.8828125,16.11328125,4.8828125,-1.0,1.0,-1.0,0.0,4.m4v,1.0
2024-02-27 09:34:54.426381,1709022894.4263806,6.8359375,-4.8828125,7.8125,5.37109375,-1.0,1.0,-1.0,0.0,4.m4v,1.0
2024-02-27 09:34:54.430286,1709022894.4302864,-24.90234375,-21.97265625,-11.23046875,-23.92578125,-1.0,1.0,-1.0,0.0,4.m4v,1.0
2024-02-27 09:34:54.434192,1709022894.4341922,-35.15625,-23.92578125,-22.94921875,-27.83203125,-1.0,1.0,-1.0,0.0,4.m4v,1.0
2024-02-27 09:34:54.438098,1709022894.438098,-41.50390625,-29.78515625,-39.55078125,-49.31640625,-1.0,1.0,-1.0,0.0,4.m4v,1.0
2024-02-27 09:34:54.442004,1709022894.4420035,-56.640625,-53.7109375,-49.8046875,-65.91796875,-1.0,1.0,-1.0,0.0,4.m4v,1.0
2024-02-27 09:34:54.445912,1709022894.445912,-51.7578125,-50.29296875,-36.62109375,-42.96875,-1.0,1.0,-1.0,0.0,4.m4v,1.0
2024-02-27 09:34:54.449818,1709022894.4498177,6.34765625,-14.6484375,7.8125,6.34765625,-1.0,1.0,-1.0,0.0,4.m4v,1.0
2024-02-27 09:34:54.453723,1709022894.4537234,7.8125,4.39453125,12.20703125,6.34765625,-1.0,1.0,-1.0,0.0,4.m4v,1.0
2024-02-27 09:34:54.457629,1709022894.4576292,-59.08203125,-16.6015625,-22.4609375,-42.96875,-1.0,1.0,-1.0,0.0,4.m4v,1.0
2024-02-27 09:34:54.594337,1709022894.5943372,-9.27734375,-12.20703125,-40.52734375,-10.25390625,-1.0,1.0,-1.0,0.0,4.m4v,1.0
2024-02-27 09:34:54.594337,1709022894.5943372,-9.27734375,-12.20703125,-40.52734375,-10.25390625,-1.0,1.0,-1.0,0.0,4.m4v,1.0
2024-02-27 09:34:54.598243,1709022894.598243,-5.37109375,-2.9296875,-37.109375,-10.7421875,-1.0,1.0,-1.0,0.0,4.m4v,1.0
2024-02-27 09:34:54.598243,1709022894.598243,-5.37109375,-2.9296875,-37.109375,-10.7421875,-1.0,1.0,-1.0,0.0,4.m4v,1.0
2024-02-27 09:34:54.602149,1709022894.6021488,-20.01953125,-18.06640625,-24.4140625,-32.71484375,-1.0,1.0,-1.0,0.0,4.m4v,1.0
2024-02-27 09:34:54.602149,1709022894.6021488,-20.01953125,-18.06640625,-24.4140625,-32.71484375,-1.0,1.0,-1.0,0.0,4.m4v,1.0
2024-02-27 09:34:54.606055,1709022894.6060543,-44.43359375,-44.43359375,-27.34375,-53.22265625,-1.0,1.0,-1.0,0.0,4.m4v,1.0
2024-02-27 09:34:54.606055,1709022894.6060543,-44.43359375,-44.43359375,-27.34375,-53.22265625,-1.0,1.0,-1.0,0.0,4.m4v,1.0
2024-02-27 09:34:54.609960,1709022894.6099603,-56.640625,-37.59765625,-34.66796875,-50.78125,-1.0,1.0,-1.0,0.0,4.m4v,1.0
2024-02-27 09:34:54.609960,1709022894.6099603,-56.640625,-37.59765625,-34.66796875,-50.78125,-1.0,1.0,-1.0,0.0,4.m4v,1.0
2024-02-27 09:34:54.613866,1709022894.613866,-50.29296875,-33.69140625,-28.80859375,-31.73828125,-1.0,1.0,-1.0,0.0,4.m4v,1.0
2024-02-27 09:34:54.613866,1709022894.613866,-50.29296875,-33.69140625,-28.80859375,-31.73828125,-1.0,1.0,-1.0,0.0,4.m4v,1.0
2024-02-27 09:34:54.617772,1709022894.6177716,-6.34765625,-32.71484375,-16.11328125,-22.94921875,-1.0,1.0,-1.0,0.0,4.m4v,1.0
2024-02-27 09:34:54.617772,1709022894.6177716,-6.34765625,-32.71484375,-16.11328125,-22.94921875,-1.0,1.0,-1.0,0.0,4.m4v,1.0
2024-02-27 09:34:54.621677,1709022894.6216774,-6.34765625,-27.34375,-33.203125,-38.0859375,-1.0,1.0,-1.0,0.0,4.m4v,1.0
2024-02-27 09:34:54.621677,1709022894.6216774,-6.34765625,-27.34375,-33.203125,-38.0859375,-1.0,1.0,-1.0,0.0,4.m4v,1.0
2024-02-27 09:34:54.625583,1709022894.6255832,-20.01953125,-26.3671875,-34.1796875,-38.0859375,-1.0,1.0,-1.0,0.0,4.m4v,1.0
2024-02-27 09:34:54.625583,1709022894.6255832,-20.01953125,-26.3671875,-34.1796875,-38.0859375,-1.0,1.0,-1.0,0.0,4.m4v,1.0
2024-02-27 09:34:54.629489,1709022894.629489,-11.71875,-18.5546875,-22.94921875,-21.484375,-1.0,1.0,-1.0,0.0,4.m4v,1.0
2024-02-27 09:34:54.629489,1709022894.629489,-11.71875,-18.5546875,-22.94921875,-21.484375,-1.0,1.0,-1.0,0.0,4.m4v,1.0
2024-02-27 09:34:54.633398,1709022894.633398,-24.90234375,-19.04296875,-20.99609375,-23.4375,-1.0,1.0,-1.0,0.0,4.m4v,1.0
2024-02-27 09:34:54.633398,1709022894.633398,-24.90234375,-19.04296875,-20.99609375,-23.4375,-1.0,1.0,-1.0,0.0,4.m4v,1.0
2024-02-27 09:34:54.637304,1709022894.6373038,-20.01953125,-20.01953125,-9.27734375,-23.92578125,-1.0,1.0,-1.0,0.0,4.m4v,1.0
2024-02-27 09:34:54.637304,1709022894.6373038,-20.01953125,-20.01953125,-9.27734375,-23.92578125,-1.0,1.0,-1.0,0.0,4.m4v,1.0
2024-02-27 09:34:54.641210,1709022894.6412096,-19.04296875,-29.78515625,-23.92578125,-32.71484375,-1.0,1.0,-1.0,0.0,4.m4v,1.0
2024-02-27 09:34:54.641210,1709022894.6412096,-19.04296875,-29.78515625,-23.92578125,-32.71484375,-1.0,1.0,-1.0,0.0,4.m4v,1.0
2024-02-27 09:34:54.645115,1709022894.6451154,-8.7890625,-25.87890625,-31.25,-31.73828125,-1.0,1.0,-1.0,0.0,4.m4v,1.0
2024-02-27 09:34:54.645115,1709022894.6451154,-8.7890625,-25.87890625,-31.25,-31.73828125,-1.0,1.0,-1.0,0.0,4.m4v,1.0
2024-02-27 09:34:54.649021,1709022894.6490211,-13.671875,-34.66796875,-27.34375,-26.3671875,-1.0,1.0,-1.0,0.0,4.m4v,1.0
2024-02-27 09:34:54.649021,1709022894.6490211,-13.671875,-34.66796875,-27.34375,-26.3671875,-1.0,1.0,-1.0,0.0,4.m4v,1.0
2024-02-27 09:34:54.652927,1709022894.652927,-51.7578125,-57.6171875,-34.1796875,-51.7578125,-1.0,1.0,-1.0,0.0,4.m4v,1.0
2024-02-27 09:34:54.652927,1709022894.652927,-51.7578125,-57.6171875,-34.1796875,-51.7578125,-1.0,1.0,-1.0,0.0,4.m4v,1.0
2024-02-27 09:34:54.656832,1709022894.6568325,-58.10546875,-57.12890625,-43.9453125,-69.82421875,-1.0,1.0,-1.0,0.0,4.m4v,1.0
2024-02-27 09:34:54.660738,1709022894.6607382,-46.875,-43.9453125,-44.43359375,-53.22265625,-1.0,1.0,-1.0,0.0,4.m4v,1.0
2024-02-27 09:34:54.664644,1709022894.664644,-33.69140625,-18.06640625,-42.48046875,-24.4140625,-1.0,1.0,-1.0,0.0,4.m4v,1.0
2024-02-27 09:34:54.668550,1709022894.6685498,-10.25390625,0.9765625,-31.25,-12.6953125,-1.0,1.0,-1.0,0.0,4.m4v,1.0
2024-02-27 09:34:54.672456,1709022894.6724555,-15.625,-12.6953125,-20.01953125,-15.625,-1.0,1.0,-1.0,0.0,4.m4v,1.0
2024-02-27 09:34:54.676361,1709022894.676361,-21.97265625,-24.90234375,-20.01953125,-24.4140625,-1.0,1.0,-1.0,0.0,4.m4v,1.0
2024-02-27 09:34:54.680269,1709022894.6802688,-6.8359375,-19.53125,-19.04296875,-29.78515625,-1.0,1.0,-1.0,0.0,4.m4v,1.0
2024-02-27 09:34:54.684175,1709022894.6841743,-16.11328125,-29.296875,-40.0390625,-51.26953125,-1.0,1.0,-1.0,0.0,4.m4v,1.0
2024-02-27 09:34:54.688080,1709022894.6880803,-51.26953125,-38.57421875,-51.26953125,-61.5234375,-1.0,1.0,-1.0,0.0,4.m4v,1.0
2024-02-27 09:34:54.691986,1709022894.691986,-65.4296875,-30.2734375,-41.015625,-51.26953125,-1.0,1.0,-1.0,0.0,4.m4v,1.0
2024-02-27 09:34:54.695892,1709022894.695892,-46.875,-33.203125,-39.0625,-47.8515625,-1.0,1.0,-1.0,0.0,4.m4v,1.0
2024-02-27 09:34:54.699798,1709022894.6997976,-56.15234375,-34.66796875,-34.66796875,-44.921875,-1.0,1.0,-1.0,0.0,4.m4v,1.0
2024-02-27 09:34:54.703703,1709022894.7037034,-55.17578125,-24.90234375,-41.9921875,-41.015625,-1.0,1.0,-1.0,0.0,4.m4v,1.0
2024-02-27 09:34:54.707609,1709022894.7076092,-33.69140625,-29.78515625,-46.875,-40.0390625,-1.0,1.0,-1.0,0.0,4.m4v,1.0
2024-02-27 09:34:54.738858,1709022894.738858,-46.875,-37.59765625,-46.875,-64.453125,-1.0,1.0,-1.0,0.0,4.m4v,1.0
2024-02-27 09:34:54.742764,1709022894.7427638,-15.13671875,-26.3671875,-36.62109375,-36.62109375,-1.0,1.0,-1.0,0.0,4.m4v,1.0
2024-02-27 09:34:54.746670,1709022894.7466695,-23.4375,-15.625,-27.83203125,-30.2734375,-1.0,1.0,-1.0,0.0,4.m4v,1.0
2024-02-27 09:34:54.754481,1709022894.754481,-4.8828125,-24.90234375,-20.01953125,1.46484375,-1.0,1.0,-1.0,0.0,4.m4v,1.0
2024-02-27 09:34:54.758387,1709022894.7583869,10.7421875,-15.625,-15.625,4.39453125,-1.0,1.0,-1.0,0.0,4.m4v,1.0
2024-02-27 09:34:54.809164,1709022894.8091643,-25.390625,-41.50390625,-26.85546875,-21.97265625,-1.0,1.0,-1.0,0.0,4.m4v,1.0
2024-02-27 09:34:54.813070,1709022894.81307,-27.83203125,-21.484375,-10.25390625,-14.16015625,-1.0,1.0,-1.0,0.0,4.m4v,1.0
2024-02-27 09:34:54.816976,1709022894.8169758,-41.9921875,-9.27734375,2.9296875,-16.6015625,-1.0,1.0,-1.0,0.0,4.m4v,1.0
2024-02-27 09:34:54.820884,1709022894.820884,-53.7109375,-8.30078125,-13.671875,-47.8515625,-1.0,1.0,-1.0,0.0,4.m4v,1.0
2024-02-27 09:34:54.824790,1709022894.8247898,-58.59375,-20.01953125,-35.64453125,-67.3828125,-1.0,1.0,-1.0,0.0,4.m4v,1.0
2024-02-27 09:34:54.828696,1709022894.8286955,-68.359375,-26.3671875,-51.7578125,-54.6875,-1.0,1.0,-1.0,0.0,4.m4v,1.0
2024-02-27 09:34:54.832601,1709022894.8326013,-67.3828125,-34.1796875,-51.7578125,-46.38671875,-1.0,1.0,-1.0,0.0,4.m4v,1.0
2024-02-27 09:34:54.836507,1709022894.836507,-33.69140625,-15.13671875,-39.0625,-21.97265625,-1.0,1.0,-1.0,0.0,4.m4v,1.0
2024-02-27 09:34:54.840413,1709022894.8404129,-9.27734375,1.953125,-27.83203125,-2.44140625,-1.0,1.0,-1.0,0.0,4.m4v,1.0
2024-02-27 09:34:54.844319,1709022894.8443186,-39.55078125,-29.78515625,-23.4375,-36.62109375,-1.0,1.0,-1.0,0.0,4.m4v,1.0
2024-02-27 09:34:54.848224,1709022894.8482244,-48.33984375,-34.1796875,-23.4375,-42.96875,-1.0,1.0,-1.0,0.0,4.m4v,1.0
2024-02-27 09:34:54.852130,1709022894.8521302,-34.1796875,-11.71875,-14.6484375,-21.484375,-1.0,1.0,-1.0,0.0,4.m4v,1.0
2024-02-27 09:34:54.856036,1709022894.8560357,-40.52734375,-19.04296875,-19.04296875,-20.5078125,-1.0,1.0,-1.0,0.0,4.m4v,1.0
2024-02-27 09:34:54.859941,1709022894.8599415,-26.3671875,-32.71484375,-32.71484375,-33.69140625,-1.0,1.0,-1.0,0.0,4.m4v,1.0
2024-02-27 09:34:54.863847,1709022894.8638473,-14.16015625,-18.06640625,-22.94921875,-30.76171875,-1.0,1.0,-1.0,0.0,4.m4v,1.0
2024-02-27 09:34:54.867755,1709022894.8677554,-30.2734375,-11.23046875,-26.85546875,-31.25,-1.0,1.0,-1.0,0.0,4.m4v,1.0
2024-02-27 09:34:54.871661,1709022894.8716612,-41.015625,-22.4609375,-31.25,-44.921875,-1.0,1.0,-1.0,0.0,4.m4v,1.0
2024-02-27 09:34:54.875567,1709022894.875567,-45.8984375,-27.83203125,-25.87890625,-34.66796875,-1.0,1.0,-1.0,0.0,4.m4v,1.0
2024-02-27 09:34:54.879473,1709022894.8794727,-39.55078125,-25.87890625,-33.203125,-17.08984375,-1.0,1.0,-1.0,0.0,4.m4v,1.0
2024-02-27 09:34:55.148983,1709022895.1489832,-3.90625,-20.01953125,938.96484375,-43.45703125,-1.0,1.0,-1.0,0.0,4.m4v,1.0
2024-02-27 09:34:55.152889,1709022895.152889,1.46484375,-1.46484375,974.609375,-11.23046875,-1.0,1.0,-1.0,0.0,4.m4v,1.0
2024-02-27 09:34:55.156795,1709022895.1567948,-15.13671875,-13.18359375,965.33203125,-24.90234375,-1.0,1.0,-1.0,0.0,4.m4v,1.0
2024-02-27 09:34:55.160701,1709022895.1607006,-24.90234375,-22.4609375,970.703125,-44.43359375,-1.0,1.0,-1.0,0.0,4.m4v,1.0
2024-02-27 09:34:55.164606,1709022895.164606,-36.62109375,-10.25390625,969.7265625,-48.828125,-1.0,1.0,-1.0,0.0,4.m4v,1.0
2024-02-27 09:34:55.168512,1709022895.168512,-28.80859375,36.62109375,969.7265625,-21.484375,-1.0,1.0,-1.0,0.0,4.m4v,1.0
2024-02-27 09:34:55.172418,1709022895.1724176,-41.015625,25.87890625,969.7265625,-35.15625,-1.0,1.0,-1.0,0.0,4.m4v,1.0
2024-02-27 09:34:55.176323,1709022895.1763234,-62.5,-30.76171875,969.7265625,-78.125,-1.0,1.0,-1.0,0.0,4.m4v,1.0
2024-02-27 09:34:55.180229,1709022895.1802292,-30.76171875,-35.64453125,970.21484375,-57.6171875,-1.0,1.0,-1.0,0.0,4.m4v,1.0
2024-02-27 09:34:55.184135,1709022895.184135,-26.85546875,-15.13671875,969.7265625,-38.57421875,-1.0,1.0,-1.0,0.0,4.m4v,1.0
2024-02-27 09:34:55.188041,1709022895.1880407,-38.57421875,-1.953125,969.7265625,-35.15625,-1.0,1.0,-1.0,0.0,4.m4v,1.0
2024-02-27 09:34:55.191947,1709022895.1919465,-48.33984375,-1.46484375,969.7265625,-38.57421875,-1.0,1.0,-1.0,0.0,4.m4v,1.0
2024-02-27 09:34:55.195855,1709022895.195855,-52.734375,-8.7890625,969.7265625,-38.0859375,-1.0,1.0,-1.0,0.0,4.m4v,1.0
2024-02-27 09:34:55.199760,1709022895.1997604,-40.52734375,3.90625,969.7265625,-42.96875,-1.0,1.0,-1.0,0.0,4.m4v,1.0
2024-02-27 09:34:55.203666,1709022895.2036662,-27.83203125,24.90234375,969.7265625,-23.4375,-1.0,1.0,-1.0,0.0,4.m4v,1.0
2024-02-27 09:34:55.207572,1709022895.207572,-18.5546875,5.37109375,969.7265625,-14.16015625,-1.0,1.0,-1.0,0.0,4.m4v,1.0
2024-02-27 09:34:55.211478,1709022895.2114778,-34.66796875,-14.6484375,969.7265625,-31.73828125,-1.0,1.0,-1.0,0.0,4.m4v,1.0
2024-02-27 09:34:55.215384,1709022895.2153835,-28.80859375,-1.46484375,970.21484375,-14.16015625,-1.0,1.0,-1.0,0.0,4.m4v,1.0
2024-02-27 09:34:55.219289,1709022895.2192893,-9.765625,-3.41796875,970.703125,-14.16015625,-1.0,1.0,-1.0,0.0,4.m4v,1.0
2024-02-27 09:34:55.223195,1709022895.223195,-46.875,-2.9296875,965.33203125,-41.50390625,-1.0,1.0,-1.0,0.0,4.m4v,1.0
2024-02-27 09:34:55.227101,1709022895.2271008,-74.70703125,6.8359375,974.12109375,-53.22265625,-1.0,1.0,-1.0,0.0,4.m4v,1.0
2024-02-27 09:34:55.231007,1709022895.2310066,-56.640625,3.90625,932.12890625,-53.7109375,-1.0,1.0,-1.0,0.0,4.m4v,1.0
2024-02-27 09:34:55.234912,1709022895.2349124,-59.5703125,7.8125,785.15625,-42.48046875,-1.0,1.0,-1.0,0.0,4.m4v,1.0
2024-02-27 09:34:55.238818,1709022895.238818,-63.96484375,10.7421875,663.57421875,-31.73828125,-1.0,1.0,-1.0,0.0,4.m4v,1.0
2024-02-27 09:34:55.242726,1709022895.242726,-49.31640625,6.34765625,563.4765625,-35.15625,-1.0,1.0,-1.0,0.0,4.m4v,1.0
2024-02-27 09:34:55.246632,1709022895.246632,-19.04296875,19.04296875,486.81640625,-15.13671875,-1.0,1.0,-1.0,0.0,4.m4v,1.0
2024-02-27 09:34:55.250538,1709022895.2505376,-13.671875,19.04296875,419.43359375,-10.25390625,-1.0,1.0,-1.0,0.0,4.m4v,1.0
2024-02-27 09:34:55.254443,1709022895.2544434,-71.2890625,-8.7890625,318.359375,-53.22265625,-1.0,1.0,-1.0,0.0,4.m4v,1.0
2024-02-27 09:34:55.258349,1709022895.258349,-98.14453125,0.48828125,230.95703125,-71.2890625,-1.0,1.0,-1.0,0.0,4.m4v,1.0
2024-02-27 09:34:55.262255,1709022895.2622547,-85.9375,32.71484375,160.64453125,-45.8984375,-1.0,1.0,-1.0,0.0,4.m4v,1.0
2024-02-27 09:34:55.266160,1709022895.2661605,-59.5703125,36.62109375,125.0,-7.8125,-1.0,1.0,-1.0,0.0,4.m4v,1.0
2024-02-27 09:34:55.270066,1709022895.2700665,-33.69140625,3.90625,94.23828125,0.9765625,-1.0,1.0,-1.0,0.0,4.m4v,1.0
2024-02-27 09:34:55.273972,1709022895.273972,-45.8984375,-10.25390625,31.25,-4.39453125,-1.0,1.0,-1.0,0.0,4.m4v,1.0
2024-02-27 09:34:55.277878,1709022895.2778778,-74.70703125,-2.9296875,9.27734375,-36.1328125,-1.0,1.0,-1.0,0.0,4.m4v,1.0
2024-02-27 09:34:55.281784,1709022895.2817836,-78.61328125,18.5546875,5.37109375,-61.5234375,-1.0,1.0,-1.0,0.0,4.m4v,1.0
2024-02-27 09:34:55.285689,1709022895.2856894,-54.6875,34.1796875,-12.6953125,-47.8515625,-1.0,1.0,-1.0,0.0,4.m4v,1.0
2024-02-27 09:34:55.289598,1709022895.2895975,-42.48046875,31.73828125,-30.2734375,-36.1328125,-1.0,1.0,-1.0,0.0,4.m4v,1.0
2024-02-27 09:34:55.293503,1709022895.2935033,-68.359375,16.6015625,-59.08203125,-46.38671875,-1.0,1.0,-1.0,0.0,4.m4v,1.0
2024-02-27 09:34:55.297409,1709022895.297409,-86.42578125,15.13671875,-94.23828125,-52.24609375,-1.0,1.0,-1.0,0.0,4.m4v,1.0
2024-02-27 09:34:55.301315,1709022895.3013148,-57.12890625,12.6953125,-102.05078125,-31.25,-1.0,1.0,-1.0,0.0,4.m4v,1.0
2024-02-27 09:34:55.305221,1709022895.3052206,-42.96875,12.20703125,-102.5390625,-24.4140625,-1.0,1.0,-1.0,0.0,4.m4v,1.0
2024-02-27 09:34:55.309126,1709022895.3091264,-53.7109375,28.3203125,-104.4921875,-37.59765625,-1.0,1.0,-1.0,0.0,4.m4v,1.0
2024-02-27 09:34:55.309126,1709022895.3091264,-53.7109375,28.3203125,-104.4921875,-37.59765625,-1.0,1.0,-1.0,0.0,4.m4v,1.0
2024-02-27 09:34:55.313032,1709022895.313032,-50.78125,14.6484375,-111.81640625,-32.71484375,-1.0,1.0,-1.0,0.0,4.m4v,1.0
2024-02-27 09:34:55.316938,1709022895.3169377,-31.73828125,-5.37109375,-121.09375,-24.4140625,-1.0,1.0,-1.0,0.0,4.m4v,1.0
2024-02-27 09:34:55.316938,1709022895.3169377,-31.73828125,-5.37109375,-121.09375,-24.4140625,-1.0,1.0,-1.0,0.0,4.m4v,1.0
2024-02-27 09:34:55.320843,1709022895.3208437,-21.484375,-4.39453125,-119.62890625,-17.578125,-1.0,1.0,-1.0,0.0,4.m4v,1.0
2024-02-27 09:34:55.320843,1709022895.3208437,-21.484375,-4.39453125,-119.62890625,-17.578125,-1.0,1.0,-1.0,0.0,4.m4v,1.0
2024-02-27 09:34:55.324749,1709022895.3247492,-20.99609375,10.25390625,-118.65234375,-22.94921875,-1.0,1.0,-1.0,0.0,4.m4v,1.0
2024-02-27 09:34:55.328655,1709022895.328655,-31.25,16.11328125,-110.3515625,-29.296875,-1.0,1.0,-1.0,0.0,4.m4v,1.0
2024-02-27 09:34:55.328655,1709022895.328655,-31.25,16.11328125,-110.3515625,-29.296875,-1.0,1.0,-1.0,0.0,4.m4v,1.0
2024-02-27 09:34:55.332561,1709022895.3325608,-51.7578125,-18.06640625,-122.0703125,-43.45703125,-1.0,1.0,-1.0,0.0,4.m4v,1.0
2024-02-27 09:34:55.332561,1709022895.3325608,-51.7578125,-18.06640625,-122.0703125,-43.45703125,-1.0,1.0,-1.0,0.0,4.m4v,1.0
2024-02-27 09:34:55.336469,1709022895.3364687,-48.828125,-24.4140625,-127.9296875,-32.2265625,-1.0,1.0,-1.0,0.0,4.m4v,1.0
2024-02-27 09:34:55.336469,1709022895.3364687,-48.828125,-24.4140625,-127.9296875,-32.2265625,-1.0,1.0,-1.0,0.0,4.m4v,1.0
2024-02-27 09:34:55.340374,1709022895.3403742,-34.1796875,-11.23046875,-124.0234375,-27.34375,-1.0,1.0,-1.0,0.0,4.m4v,1.0
2024-02-27 09:34:55.340374,1709022895.3403742,-34.1796875,-11.23046875,-124.0234375,-27.34375,-1.0,1.0,-1.0,0.0,4.m4v,1.0
2024-02-27 09:34:55.344280,1709022895.34428,-46.875,-8.30078125,-125.9765625,-49.31640625,-1.0,1.0,-1.0,0.0,4.m4v,1.0
2024-02-27 09:34:55.344280,1709022895.34428,-46.875,-8.30078125,-125.9765625,-49.31640625,-1.0,1.0,-1.0,0.0,4.m4v,1.0
2024-02-27 09:34:55.348186,1709022895.3481858,-75.68359375,-7.8125,-132.32421875,-49.31640625,-1.0,1.0,-1.0,0.0,4.m4v,1.0
2024-02-27 09:34:55.348186,1709022895.3481858,-75.68359375,-7.8125,-132.32421875,-49.31640625,-1.0,1.0,-1.0,0.0,4.m4v,1.0
2024-02-27 09:34:55.352092,1709022895.3520916,-56.640625,3.90625,-118.65234375,-19.04296875,-1.0,1.0,-1.0,0.0,4.m4v,1.0
2024-02-27 09:34:55.352092,1709022895.3520916,-56.640625,3.90625,-118.65234375,-19.04296875,-1.0,1.0,-1.0,0.0,4.m4v,1.0
2024-02-27 09:34:55.355997,1709022895.355997,-26.3671875,9.27734375,-103.515625,-20.99609375,-1.0,1.0,-1.0,0.0,4.m4v,1.0
2024-02-27 09:34:55.355997,1709022895.355997,-26.3671875,9.27734375,-103.515625,-20.99609375,-1.0,1.0,-1.0,0.0,4.m4v,1.0
2024-02-27 09:34:55.359903,1709022895.359903,-11.23046875,-1.46484375,-119.62890625,-36.1328125,-1.0,1.0,-1.0,0.0,4.m4v,1.0
2024-02-27 09:34:55.359903,1709022895.359903,-11.23046875,-1.46484375,-119.62890625,-36.1328125,-1.0,1.0,-1.0,0.0,4.m4v,1.0
2024-02-27 09:34:55.363809,1709022895.3638089,-10.25390625,9.765625,-111.81640625,-10.7421875,-1.0,1.0,-1.0,0.0,4.m4v,1.0
2024-02-27 09:34:55.363809,1709022895.3638089,-10.25390625,9.765625,-111.81640625,-10.7421875,-1.0,1.0,-1.0,0.0,4.m4v,1.0
2024-02-27 09:34:55.367715,1709022895.3677146,-8.7890625,10.7421875,-80.56640625,3.90625,-1.0,1.0,-1.0,0.0,4.m4v,1.0
2024-02-27 09:34:55.367715,1709022895.3677146,-8.7890625,10.7421875,-80.56640625,3.90625,-1.0,1.0,-1.0,0.0,4.m4v,1.0
2024-02-27 09:34:55.371620,1709022895.3716204,-17.08984375,-18.5546875,-92.7734375,-7.32421875,-1.0,1.0,-1.0,0.0,4.m4v,1.0
2024-02-27 09:34:55.371620,1709022895.3716204,-17.08984375,-18.5546875,-92.7734375,-7.32421875,-1.0,1.0,-1.0,0.0,4.m4v,1.0
2024-02-27 09:34:55.375526,1709022895.3755262,-38.57421875,-6.34765625,-105.95703125,-25.390625,-1.0,1.0,-1.0,0.0,4.m4v,1.0
2024-02-27 09:34:55.375526,1709022895.3755262,-38.57421875,-6.34765625,-105.95703125,-25.390625,-1.0,1.0,-1.0,0.0,4.m4v,1.0
2024-02-27 09:34:55.414586,1709022895.4145856,-47.8515625,-19.53125,-86.9140625,-31.25,-1.0,1.0,-1.0,0.0,4.m4v,1.0
2024-02-27 09:34:55.418491,1709022895.4184911,-48.33984375,-4.39453125,-73.73046875,-31.73828125,-1.0,1.0,-1.0,0.0,4.m4v,1.0
2024-02-27 09:34:55.422397,1709022895.422397,-40.52734375,18.5546875,-66.40625,-34.1796875,-1.0,1.0,-1.0,0.0,4.m4v,1.0
2024-02-27 09:34:55.426303,1709022895.426303,-53.7109375,7.8125,-82.51953125,-49.31640625,-1.0,1.0,-1.0,0.0,4.m4v,1.0
2024-02-27 09:34:55.430210,1709022895.43021,-68.359375,2.9296875,-90.33203125,-54.6875,-1.0,1.0,-1.0,0.0,4.m4v,1.0
2024-02-27 09:34:55.434116,1709022895.434116,-32.2265625,15.625,-71.77734375,-32.2265625,-1.0,1.0,-1.0,0.0,4.m4v,1.0
2024-02-27 09:34:55.438022,1709022895.4380217,1.953125,15.625,-47.8515625,-5.859375,-1.0,1.0,-1.0,0.0,4.m4v,1.0
2024-02-27 09:34:55.441927,1709022895.4419274,-8.30078125,2.9296875,-30.2734375,-14.16015625,-1.0,1.0,-1.0,0.0,4.m4v,1.0
2024-02-27 09:34:55.445833,1709022895.4458332,-21.484375,5.859375,-21.484375,-38.57421875,-1.0,1.0,-1.0,0.0,4.m4v,1.0
2024-02-27 09:34:55.449739,1709022895.449739,-39.55078125,-12.20703125,-29.296875,-58.10546875,-1.0,1.0,-1.0,0.0,4.m4v,1.0
2024-02-27 09:34:55.496611,1709022895.4966109,-36.1328125,-41.50390625,-18.06640625,-27.34375,-1.0,1.0,-1.0,0.0,4.m4v,1.0
2024-02-27 09:34:55.500517,1709022895.500517,-20.5078125,-10.7421875,-20.5078125,-11.71875,-1.0,1.0,-1.0,0.0,4.m4v,1.0
2024-02-27 09:34:55.504422,1709022895.5044224,-3.90625,-21.484375,-30.76171875,-15.13671875,-1.0,1.0,-1.0,0.0,4.m4v,1.0
2024-02-27 09:34:55.508328,1709022895.5083282,-7.8125,-36.1328125,-38.57421875,-20.5078125,-1.0,1.0,-1.0,0.0,4.m4v,1.0
2024-02-27 09:34:55.512234,1709022895.512234,-51.26953125,-24.90234375,-31.25,-39.55078125,-1.0,1.0,-1.0,0.0,4.m4v,1.0
2024-02-27 09:34:55.516140,1709022895.5161395,-26.3671875,6.34765625,8.7890625,-36.62109375,-1.0,1.0,-1.0,0.0,4.m4v,1.0
2024-02-27 09:34:55.520045,1709022895.5200453,3.90625,13.671875,17.578125,-16.11328125,-1.0,1.0,-1.0,0.0,4.m4v,1.0
2024-02-27 09:34:55.523954,1709022895.523954,12.20703125,-5.37109375,9.27734375,-6.34765625,-1.0,1.0,-1.0,0.0,4.m4v,1.0
2024-02-27 09:34:55.527860,1709022895.5278597,-24.4140625,-20.01953125,-18.5546875,-30.2734375,-1.0,1.0,-1.0,0.0,4.m4v,1.0
2024-02-27 09:34:55.531765,1709022895.5317657,-55.17578125,-36.62109375,-27.34375,-48.828125,-1.0,1.0,-1.0,0.0,4.m4v,1.0
2024-02-27 09:34:55.535671,1709022895.5356712,-37.59765625,-43.9453125,-5.37109375,-39.55078125,-1.0,1.0,-1.0,0.0,4.m4v,1.0
2024-02-27 09:34:55.539577,1709022895.5395768,-41.015625,-48.33984375,-12.6953125,-43.9453125,-1.0,1.0,-1.0,0.0,4.m4v,1.0
2024-02-27 09:34:55.543483,1709022895.5434823,-38.0859375,-49.31640625,-18.06640625,-45.41015625,-1.0,1.0,-1.0,0.0,4.m4v,1.0
2024-02-27 09:34:55.547388,1709022895.5473883,-35.15625,-35.15625,-4.8828125,-35.64453125,-1.0,1.0,-1.0,0.0,4.m4v,1.0
2024-02-27 09:34:55.551294,1709022895.551294,-30.2734375,-0.9765625,-5.859375,-33.203125,-1.0,1.0,-1.0,0.0,4.m4v,1.0
2024-02-27 09:34:55.555200,1709022895.5552,-44.921875,-0.48828125,-13.671875,-45.41015625,-1.0,1.0,-1.0,0.0,4.m4v,1.0
2024-02-27 09:34:55.555200,1709022895.5552,-44.921875,-0.48828125,-13.671875,-45.41015625,-1.0,1.0,-1.0,0.0,4.m4v,1.0
2024-02-27 09:34:55.559106,1709022895.5591056,-44.43359375,-27.83203125,-7.8125,-35.15625,-1.0,1.0,-1.0,0.0,4.m4v,1.0
2024-02-27 09:34:55.559106,1709022895.5591056,-44.43359375,-27.83203125,-7.8125,-35.15625,-1.0,1.0,-1.0,0.0,4.m4v,1.0
2024-02-27 09:34:55.563011,1709022895.5630114,-34.66796875,-30.2734375,-11.71875,-39.0625,-1.0,1.0,-1.0,0.0,4.m4v,1.0
2024-02-27 09:34:55.563011,1709022895.5630114,-34.66796875,-30.2734375,-11.71875,-39.0625,-1.0,1.0,-1.0,0.0,4.m4v,1.0
2024-02-27 09:34:55.566917,1709022895.5669172,-38.0859375,-26.85546875,-21.484375,-45.8984375,-1.0,1.0,-1.0,0.0,4.m4v,1.0
2024-02-27 09:34:55.570826,1709022895.5708256,-26.3671875,-25.87890625,9.27734375,-20.01953125,-1.0,1.0,-1.0,0.0,4.m4v,1.0
2024-02-27 09:34:55.574731,1709022895.574731,-28.80859375,-25.390625,20.5078125,-14.16015625,-1.0,1.0,-1.0,0.0,4.m4v,1.0
2024-02-27 09:34:55.578637,1709022895.578637,-28.3203125,-41.015625,-11.71875,-41.50390625,-1.0,1.0,-1.0,0.0,4.m4v,1.0
2024-02-27 09:34:55.582543,1709022895.582543,-32.2265625,-48.33984375,-21.97265625,-56.15234375,-1.0,1.0,-1.0,0.0,4.m4v,1.0
2024-02-27 09:34:55.586448,1709022895.5864484,-23.4375,-37.109375,-13.671875,-46.38671875,-1.0,1.0,-1.0,0.0,4.m4v,1.0
2024-02-27 09:34:55.590354,1709022895.5903542,-23.92578125,-20.99609375,-7.8125,-30.76171875,-1.0,1.0,-1.0,0.0,4.m4v,1.0
2024-02-27 09:34:55.594260,1709022895.59426,-23.4375,-22.4609375,-1.46484375,-5.37109375,-1.0,1.0,-1.0,0.0,4.m4v,1.0
2024-02-27 09:34:55.598166,1709022895.5981658,-10.25390625,-21.484375,3.41796875,-2.9296875,-1.0,1.0,-1.0,0.0,4.m4v,1.0
2024-02-27 09:34:55.602072,1709022895.6020715,-34.1796875,-15.13671875,-2.9296875,-34.1796875,-1.0,1.0,-1.0,0.0,4.m4v,1.0
2024-02-27 09:34:55.605977,1709022895.6059773,-48.33984375,-21.484375,5.859375,-47.8515625,-1.0,1.0,-1.0,0.0,4.m4v,1.0
2024-02-27 09:34:55.609883,1709022895.609883,-16.6015625,-22.4609375,12.6953125,-25.87890625,-1.0,1.0,-1.0,0.0,4.m4v,1.0
2024-02-27 09:34:55.613789,1709022895.6137886,-35.64453125,-18.5546875,0.0,-40.0390625,-1.0,1.0,-1.0,0.0,4.m4v,1.0
2024-02-27 09:34:55.617697,1709022895.617697,-69.3359375,-37.59765625,-10.25390625,-61.03515625,-1.0,1.0,-1.0,0.0,4.m4v,1.0
2024-02-27 09:34:55.621603,1709022895.6216023,-31.25,-55.17578125,-3.90625,-33.69140625,-1.0,1.0,-1.0,0.0,4.m4v,1.0
2024-02-27 09:34:55.625508,1709022895.6255083,-52.734375,-54.6875,-12.20703125,-54.6875,-1.0,1.0,-1.0,0.0,4.m4v,1.0
2024-02-27 09:34:55.629414,1709022895.629414,-51.26953125,-3.90625,6.8359375,-61.03515625,-1.0,1.0,-1.0,0.0,4.m4v,1.0
2024-02-27 09:34:55.633320,1709022895.63332,-41.015625,-1.46484375,-2.9296875,-39.55078125,-1.0,1.0,-1.0,0.0,4.m4v,1.0
2024-02-27 09:34:55.637226,1709022895.6372256,-63.96484375,-31.25,-27.83203125,-53.7109375,-1.0,1.0,-1.0,0.0,4.m4v,1.0
2024-02-27 09:34:55.641131,1709022895.6411314,-40.52734375,-24.4140625,-15.625,-55.17578125,-1.0,1.0,-1.0,0.0,4.m4v,1.0
2024-02-27 09:34:55.645037,1709022895.6450372,-15.13671875,-14.16015625,-4.39453125,-38.0859375,-1.0,1.0,-1.0,0.0,4.m4v,1.0
2024-02-27 09:34:55.648943,1709022895.648943,-50.29296875,-41.9921875,-21.484375,-57.6171875,-1.0,1.0,-1.0,0.0,4.m4v,1.0
2024-02-27 09:34:55.660660,1709022895.6606605,-12.20703125,-34.1796875,21.484375,-48.828125,-1.0,1.0,-1.0,0.0,4.m4v,1.0
2024-02-27 09:34:55.664568,1709022895.6645682,-6.34765625,-45.41015625,0.0,-49.31640625,-1.0,1.0,-1.0,0.0,4.m4v,1.0
2024-02-27 09:34:55.668474,1709022895.668474,-22.94921875,-35.15625,0.9765625,-24.4140625,-1.0,1.0,-1.0,0.0,4.m4v,1.0
2024-02-27 09:34:55.672380,1709022895.6723795,-39.55078125,-14.6484375,-6.8359375,-14.6484375,-1.0,1.0,-1.0,0.0,4.m4v,1.0
2024-02-27 09:34:55.676285,1709022895.6762853,-23.92578125,4.8828125,-15.13671875,-31.73828125,-1.0,1.0,-1.0,0.0,4.m4v,1.0
2024-02-27 09:34:55.680191,1709022895.680191,-16.11328125,-14.6484375,-12.20703125,-47.8515625,-1.0,1.0,-1.0,0.0,4.m4v,1.0
2024-02-27 09:34:55.684097,1709022895.6840968,-26.3671875,-13.671875,-5.37109375,-45.41015625,-1.0,1.0,-1.0,0.0,4.m4v,1.0
2024-02-27 09:34:55.688003,1709022895.6880026,-31.25,-15.13671875,-2.44140625,-54.19921875,-1.0,1.0,-1.0,0.0,4.m4v,1.0
2024-02-27 09:34:55.691908,1709022895.6919084,-47.36328125,-33.203125,-22.94921875,-72.265625,-1.0,1.0,-1.0,0.0,4.m4v,1.0
2024-02-27 09:34:55.695814,1709022895.695814,-49.31640625,-32.2265625,-31.25,-61.5234375,-1.0,1.0,-1.0,0.0,4.m4v,1.0
2024-02-27 09:34:55.699720,1709022895.69972,-21.484375,-32.2265625,-11.71875,-29.296875,-1.0,1.0,-1.0,0.0,4.m4v,1.0
2024-02-27 09:34:55.703626,1709022895.7036257,-9.27734375,-37.59765625,-10.7421875,-21.97265625,-1.0,1.0,-1.0,0.0,4.m4v,1.0
2024-02-27 09:34:55.707531,1709022895.7075317,-18.5546875,-42.48046875,-14.16015625,-37.59765625,-1.0,1.0,-1.0,0.0,4.m4v,1.0
2024-02-27 09:34:55.711439,1709022895.7114391,-26.85546875,-36.62109375,-5.37109375,-37.59765625,-1.0,1.0,-1.0,0.0,4.m4v,1.0
2024-02-27 09:34:55.715345,1709022895.715345,-26.85546875,-12.6953125,-13.18359375,-36.1328125,-1.0,1.0,-1.0,0.0,4.m4v,1.0
2024-02-27 09:34:55.719251,1709022895.719251,-3.41796875,-6.34765625,-10.7421875,-29.78515625,-1.0,1.0,-1.0,0.0,4.m4v,1.0
2024-02-27 09:34:55.723156,1709022895.7231565,-2.9296875,-16.11328125,-4.8828125,-25.87890625,-1.0,1.0,-1.0,0.0,4.m4v,1.0
2024-02-27 09:34:55.727062,1709022895.7270622,-21.97265625,-41.50390625,-23.4375,-49.8046875,-1.0,1.0,-1.0,0.0,4.m4v,1.0
2024-02-27 09:34:55.730968,1709022895.730968,-18.5546875,-39.0625,-25.87890625,-41.9921875,-1.0,1.0,-1.0,0.0,4.m4v,1.0
2024-02-27 09:34:56.090316,1709022896.0903158,9.765625,-31.25,-24.4140625,-11.71875,-1.0,1.0,-1.0,0.0,4.m4v,1.0
2024-02-27 09:34:56.094222,1709022896.0942216,5.37109375,-36.62109375,-19.04296875,-15.625,-1.0,1.0,-1.0,0.0,4.m4v,1.0
2024-02-27 09:34:56.098127,1709022896.0981274,-9.27734375,-11.23046875,-14.6484375,-4.8828125,-1.0,1.0,-1.0,0.0,4.m4v,1.0
2024-02-27 09:34:56.133281,1709022896.1332808,-41.50390625,-45.41015625,-33.203125,-39.0625,-1.0,1.0,-1.0,0.0,4.m4v,1.0
2024-02-27 09:34:56.137187,1709022896.1371863,-75.68359375,-44.921875,-49.31640625,-68.84765625,-1.0,1.0,-1.0,0.0,4.m4v,1.0
2024-02-27 09:34:56.141092,1709022896.1410923,-55.6640625,-40.0390625,-36.62109375,-73.2421875,-1.0,1.0,-1.0,0.0,4.m4v,1.0
2024-02-27 09:34:56.144998,1709022896.144998,-52.734375,-33.69140625,-26.3671875,-64.94140625,-1.0,1.0,-1.0,0.0,4.m4v,1.0
2024-02-27 09:34:56.148904,1709022896.1489038,-55.6640625,-13.671875,-7.8125,-43.9453125,-1.0,1.0,-1.0,0.0,4.m4v,1.0
2024-02-27 09:34:56.152810,1709022896.1528096,-26.3671875,1.46484375,-2.9296875,-28.3203125,-1.0,1.0,-1.0,0.0,4.m4v,1.0
2024-02-27 09:34:56.156715,1709022896.1567154,-9.27734375,-16.11328125,-14.16015625,-13.671875,-1.0,1.0,-1.0,0.0,4.m4v,1.0
2024-02-27 09:34:56.160621,1709022896.1606212,-6.8359375,-26.3671875,-7.32421875,-17.08984375,-1.0,1.0,-1.0,0.0,4.m4v,1.0
2024-02-27 09:34:56.164527,1709022896.164527,-9.765625,-17.08984375,-10.25390625,-31.73828125,-1.0,1.0,-1.0,0.0,4.m4v,1.0
2024-02-27 09:34:56.168433,1709022896.1684327,-21.484375,-36.62109375,-21.97265625,-36.1328125,-1.0,1.0,-1.0,0.0,4.m4v,1.0
2024-02-27 09:34:56.172338,1709022896.1723385,-40.0390625,-50.78125,-22.4609375,-28.3203125,-1.0,1.0,-1.0,0.0,4.m4v,1.0
2024-02-27 09:34:56.176244,1709022896.176244,-14.6484375,-35.64453125,-29.78515625,-25.390625,-1.0,1.0,-1.0,0.0,4.m4v,1.0
2024-02-27 09:34:56.180152,1709022896.1801517,8.30078125,-36.62109375,-25.87890625,-20.01953125,-1.0,1.0,-1.0,0.0,4.m4v,1.0
2024-02-27 09:34:56.184057,1709022896.1840577,-41.50390625,-49.31640625,-18.06640625,-30.76171875,-1.0,1.0,-1.0,0.0,4.m4v,1.0
2024-02-27 09:34:56.187963,1709022896.1879632,-55.17578125,-40.52734375,-17.578125,-52.24609375,-1.0,1.0,-1.0,0.0,4.m4v,1.0
2024-02-27 09:34:56.191869,1709022896.191869,-45.41015625,-20.99609375,-12.20703125,-44.921875,-1.0,1.0,-1.0,0.0,4.m4v,1.0
2024-02-27 09:34:56.195775,1709022896.1957748,-47.8515625,-7.8125,-23.4375,-28.3203125,-1.0,1.0,-1.0,0.0,4.m4v,1.0
2024-02-27 09:34:56.199681,1709022896.1996806,-21.97265625,0.48828125,-28.80859375,-21.484375,-1.0,1.0,-1.0,0.0,4.m4v,1.0
2024-02-27 09:34:56.203586,1709022896.203586,-17.578125,-13.18359375,-35.64453125,-38.57421875,-1.0,1.0,-1.0,0.0,4.m4v,1.0
2024-02-27 09:34:56.207492,1709022896.207492,-34.66796875,-34.1796875,-38.0859375,-25.87890625,-1.0,1.0,-1.0,0.0,4.m4v,1.0
2024-02-27 09:34:56.211398,1709022896.2113976,-37.109375,-60.546875,-46.38671875,-29.78515625,-1.0,1.0,-1.0,0.0,4.m4v,1.0
2024-02-27 09:34:56.215303,1709022896.2153034,-36.1328125,-66.89453125,-45.41015625,-51.26953125,-1.0,1.0,-1.0,0.0,4.m4v,1.0
2024-02-27 09:34:56.219209,1709022896.2192092,-25.390625,-41.50390625,-9.27734375,-42.96875,-1.0,1.0,-1.0,0.0,4.m4v,1.0
2024-02-27 09:34:56.223115,1709022896.223115,-0.48828125,-6.34765625,8.7890625,-33.203125,-1.0,1.0,-1.0,0.0,4.m4v,1.0
2024-02-27 09:34:56.227024,1709022896.2270236,15.625,-7.8125,17.08984375,11.71875,-1.0,1.0,-1.0,0.0,4.m4v,1.0
2024-02-27 09:34:56.230929,1709022896.2309294,19.53125,-16.11328125,15.13671875,31.73828125,-1.0,1.0,-1.0,0.0,4.m4v,1.0
2024-02-27 09:34:56.234835,1709022896.2348351,-25.87890625,-30.2734375,-22.4609375,-21.97265625,-1.0,1.0,-1.0,0.0,4.m4v,1.0
2024-02-27 09:34:56.269987,1709022896.2699869,-110.3515625,-62.01171875,-41.015625,-86.9140625,-1.0,1.0,-1.0,0.0,4.m4v,1.0
2024-02-27 09:34:56.273896,1709022896.2738955,-63.96484375,-63.96484375,-29.78515625,-53.22265625,-1.0,1.0,-1.0,0.0,4.m4v,1.0
2024-02-27 09:34:56.277801,1709022896.2778013,-36.1328125,-54.19921875,-30.2734375,-57.12890625,-1.0,1.0,-1.0,0.0,4.m4v,1.0
2024-02-27 09:34:56.281707,1709022896.281707,-62.98828125,-28.80859375,-20.01953125,-56.640625,-1.0,1.0,-1.0,0.0,4.m4v,1.0
2024-02-27 09:34:56.293424,1709022896.293424,-12.20703125,12.6953125,-3.41796875,-13.671875,-1.0,1.0,-1.0,0.0,4.m4v,1.0
2024-02-27 09:34:56.297330,1709022896.29733,-42.96875,-20.5078125,-17.08984375,-49.31640625,-1.0,1.0,-1.0,0.0,4.m4v,1.0
2024-02-27 09:34:56.301236,1709022896.3012357,-37.109375,-34.1796875,-18.5546875,-49.31640625,-1.0,1.0,-1.0,0.0,4.m4v,1.0
2024-02-27 09:34:56.305141,1709022896.3051414,-38.57421875,-43.45703125,-14.6484375,-42.48046875,-1.0,1.0,-1.0,0.0,4.m4v,1.0
2024-02-27 09:34:56.309047,1709022896.3090472,-37.109375,-41.50390625,-20.99609375,-43.45703125,-1.0,1.0,-1.0,0.0,4.m4v,1.0
2024-02-27 09:34:56.312953,1709022896.312953,-27.34375,-6.34765625,-21.97265625,-21.97265625,-1.0,1.0,-1.0,0.0,4.m4v,1.0
2024-02-27 09:34:56.316859,1709022896.3168588,-27.34375,4.39453125,-22.4609375,-11.23046875,-1.0,1.0,-1.0,0.0,4.m4v,1.0
2024-02-27 09:34:56.320767,1709022896.3207672,-10.7421875,-18.06640625,-27.34375,-25.87890625,-1.0,1.0,-1.0,0.0,4.m4v,1.0
2024-02-27 09:34:56.324673,1709022896.324673,-36.1328125,-42.96875,-29.296875,-51.7578125,-1.0,1.0,-1.0,0.0,4.m4v,1.0
2024-02-27 09:34:56.328578,1709022896.3285785,-59.5703125,-48.828125,-26.3671875,-47.8515625,-1.0,1.0,-1.0,0.0,4.m4v,1.0
2024-02-27 09:34:56.332484,1709022896.3324842,-37.109375,-26.85546875,-19.04296875,-10.25390625,-1.0,1.0,-1.0,0.0,4.m4v,1.0
2024-02-27 09:34:56.336390,1709022896.33639,-31.25,2.9296875,-17.08984375,-13.18359375,-1.0,1.0,-1.0,0.0,4.m4v,1.0
2024-02-27 09:34:56.340296,1709022896.3402958,-34.66796875,-6.8359375,-12.20703125,-40.0390625,-1.0,1.0,-1.0,0.0,4.m4v,1.0
2024-02-27 09:34:56.344202,1709022896.3442016,-29.78515625,-23.4375,-5.859375,-47.8515625,-1.0,1.0,-1.0,0.0,4.m4v,1.0
2024-02-27 09:34:56.348107,1709022896.348107,-14.16015625,-7.8125,0.48828125,-26.85546875,-1.0,1.0,-1.0,0.0,4.m4v,1.0
2024-02-27 09:34:56.352013,1709022896.352013,3.90625,7.8125,5.859375,1.953125,-1.0,1.0,-1.0,0.0,4.m4v,1.0
2024-02-27 09:34:56.355919,1709022896.355919,-37.109375,-35.64453125,-31.25,-47.8515625,-1.0,1.0,-1.0,0.0,4.m4v,1.0
2024-02-27 09:34:56.359825,1709022896.359825,-63.4765625,-44.921875,-42.48046875,-65.4296875,-1.0,1.0,-1.0,0.0,4.m4v,1.0
2024-02-27 09:34:56.363730,1709022896.3637304,-34.66796875,-14.6484375,-33.69140625,-37.59765625,-1.0,1.0,-1.0,0.0,4.m4v,1.0
2024-02-27 09:34:56.367640,1709022896.3676398,-16.11328125,-14.16015625,-40.0390625,-42.96875,-1.0,1.0,-1.0,0.0,4.m4v,1.0
2024-02-27 09:34:56.371546,1709022896.3715456,-41.50390625,-18.5546875,-38.0859375,-46.38671875,-1.0,1.0,-1.0,0.0,4.m4v,1.0
2024-02-27 09:34:56.375451,1709022896.375451,-62.5,-32.2265625,-20.01953125,-37.59765625,-1.0,1.0,-1.0,0.0,4.m4v,1.0
2024-02-27 09:34:56.379357,1709022896.3793569,-37.109375,-18.5546875,-3.90625,-29.78515625,-1.0,1.0,-1.0,0.0,4.m4v,1.0
2024-02-27 09:34:56.383263,1709022896.3832626,-33.203125,-8.7890625,-10.7421875,-44.921875,-1.0,1.0,-1.0,0.0,4.m4v,1.0
2024-02-27 09:34:56.387168,1709022896.3871684,-44.921875,-10.7421875,-18.06640625,-52.24609375,-1.0,1.0,-1.0,0.0,4.m4v,1.0
2024-02-27 09:34:56.391074,1709022896.3910742,-61.5234375,-31.73828125,-32.71484375,-56.640625,-1.0,1.0,-1.0,0.0,4.m4v,1.0
2024-02-27 09:34:56.394980,1709022896.39498,-47.36328125,-42.96875,-35.64453125,-42.96875,-1.0,1.0,-1.0,0.0,4.m4v,1.0
2024-02-27 09:34:56.398886,1709022896.3988855,-12.6953125,-12.6953125,-20.5078125,-0.48828125,-1.0,1.0,-1.0,0.0,4.m4v,1.0
2024-02-27 09:34:56.402792,1709022896.4027915,-20.01953125,2.44140625,-29.78515625,-25.87890625,-1.0,1.0,-1.0,0.0,4.m4v,1.0
2024-02-27 09:34:56.406697,1709022896.4066973,-48.33984375,-16.6015625,-35.15625,-60.05859375,-1.0,1.0,-1.0,0.0,4.m4v,1.0
2024-02-27 09:34:56.410603,1709022896.410603,-47.8515625,-21.97265625,-19.04296875,-41.9921875,-1.0,1.0,-1.0,0.0,4.m4v,1.0
2024-02-27 09:34:56.414511,1709022896.414511,-47.36328125,-16.11328125,-13.671875,-47.36328125,-1.0,1.0,-1.0,0.0,4.m4v,1.0
2024-02-27 09:34:56.418417,1709022896.4184167,-50.29296875,-20.99609375,-19.04296875,-62.01171875,-1.0,1.0,-1.0,0.0,4.m4v,1.0
2024-02-27 09:34:56.422323,1709022896.4223225,-29.78515625,-19.53125,-27.83203125,-62.98828125,-1.0,1.0,-1.0,0.0,4.m4v,1.0
2024-02-27 09:34:56.426228,1709022896.4262283,-30.2734375,-23.92578125,-25.87890625,-60.05859375,-1.0,1.0,-1.0,0.0,4.m4v,1.0
2024-02-27 09:34:56.430134,1709022896.430134,-32.71484375,-17.08984375,-14.16015625,-37.59765625,-1.0,1.0,-1.0,0.0,4.m4v,1.0
2024-02-27 09:34:56.477005,1709022896.477005,-43.45703125,-27.83203125,-44.43359375,-24.90234375,-1.0,1.0,-1.0,0.0,4.m4v,1.0
2024-02-27 09:34:56.480911,1709022896.4809108,-39.55078125,-3.90625,-26.85546875,-40.0390625,-1.0,1.0,-1.0,0.0,4.m4v,1.0
2024-02-27 09:34:56.484817,1709022896.4848166,-40.0390625,10.25390625,-22.94921875,-43.45703125,-1.0,1.0,-1.0,0.0,4.m4v,1.0
2024-02-27 09:34:56.488722,1709022896.4887223,-58.59375,-9.765625,-27.34375,-64.94140625,-1.0,1.0,-1.0,0.0,4.m4v,1.0
2024-02-27 09:34:56.492628,1709022896.492628,-47.36328125,-12.20703125,-20.01953125,-47.36328125,-1.0,1.0,-1.0,0.0,4.m4v,1.0
2024-02-27 09:34:56.496534,1709022896.496534,-52.24609375,-26.3671875,-39.0625,-31.25,-1.0,1.0,-1.0,0.0,4.m4v,1.0
2024-02-27 09:34:56.500440,1709022896.5004396,-41.50390625,-37.109375,-37.59765625,-37.109375,-1.0,1.0,-1.0,0.0,4.m4v,1.0
2024-02-27 09:34:56.504345,1709022896.5043452,-2.9296875,-0.48828125,-13.18359375,-21.97265625,-1.0,1.0,-1.0,0.0,4.m4v,1.0
2024-02-27 09:34:56.508253,1709022896.5082529,-29.296875,-4.8828125,-27.34375,-30.2734375,-1.0,1.0,-1.0,0.0,4.m4v,1.0
2024-02-27 09:34:56.512159,1709022896.5121586,-51.7578125,-24.90234375,-45.8984375,-32.71484375,-1.0,1.0,-1.0,0.0,4.m4v,1.0
2024-02-27 09:34:56.516064,1709022896.5160644,-36.1328125,-38.57421875,-44.921875,-41.9921875,-1.0,1.0,-1.0,0.0,4.m4v,1.0
2024-02-27 09:34:56.519970,1709022896.5199702,-37.59765625,-17.578125,-17.08984375,-36.62109375,-1.0,1.0,-1.0,0.0,4.m4v,1.0
2024-02-27 09:34:56.523876,1709022896.523876,-35.64453125,9.765625,-1.953125,-24.90234375,-1.0,1.0,-1.0,0.0,4.m4v,1.0
2024-02-27 09:34:56.527782,1709022896.5277815,-25.390625,-13.671875,-28.80859375,-31.25,-1.0,1.0,-1.0,0.0,4.m4v,1.0
2024-02-27 09:34:56.531687,1709022896.5316875,-28.80859375,-26.85546875,-47.36328125,-18.5546875,-1.0,1.0,-1.0,0.0,4.m4v,1.0
2024-02-27 09:34:56.535593,1709022896.5355933,-45.41015625,-24.4140625,-32.71484375,-24.4140625,-1.0,1.0,-1.0,0.0,4.m4v,1.0
2024-02-27 09:34:56.539499,1709022896.539499,-23.92578125,-10.7421875,-20.99609375,-10.25390625,-1.0,1.0,-1.0,0.0,4.m4v,1.0
2024-02-27 09:34:56.543405,1709022896.5434046,-7.32421875,-2.9296875,-17.08984375,9.765625,-1.0,1.0,-1.0,0.0,4.m4v,1.0
2024-02-27 09:34:56.547310,1709022896.5473104,-36.62109375,-30.76171875,-18.5546875,-40.0390625,-1.0,1.0,-1.0,0.0,4.m4v,1.0
2024-02-27 09:34:56.551216,1709022896.551216,-46.38671875,-36.62109375,-22.94921875,-64.453125,-1.0,1.0,-1.0,0.0,4.m4v,1.0
2024-02-27 09:34:56.555124,1709022896.5551236,-41.9921875,-29.78515625,-16.11328125,-36.62109375,-1.0,1.0,-1.0,0.0,4.m4v,1.0
2024-02-27 09:34:56.559029,1709022896.559029,-38.0859375,-21.484375,-29.296875,-31.73828125,-1.0,1.0,-1.0,0.0,4.m4v,1.0
2024-02-27 09:34:56.562935,1709022896.562935,-17.578125,-0.48828125,-32.2265625,-13.671875,-1.0,1.0,-1.0,0.0,4.m4v,1.0
2024-02-27 09:34:56.566841,1709022896.566841,-9.27734375,2.44140625,-19.04296875,-2.44140625,-1.0,1.0,-1.0,0.0,4.m4v,1.0
2024-02-27 09:34:56.570747,1709022896.570747,-20.01953125,-19.04296875,-28.3203125,-34.66796875,-1.0,1.0,-1.0,0.0,4.m4v,1.0
2024-02-27 09:34:56.574652,1709022896.5746524,-9.765625,10.25390625,-5.859375,-15.625,-1.0,1.0,-1.0,0.0,4.m4v,1.0
2024-02-27 09:34:56.578558,1709022896.5785582,-18.5546875,20.99609375,-13.18359375,-0.48828125,-1.0,1.0,-1.0,0.0,4.m4v,1.0
2024-02-27 09:34:56.582464,1709022896.582464,-37.59765625,-40.52734375,-51.7578125,-34.66796875,-1.0,1.0,-1.0,0.0,4.m4v,1.0
2024-02-27 09:34:56.586370,1709022896.5863695,-41.9921875,-61.5234375,-33.203125,-50.78125,-1.0,1.0,-1.0,0.0,4.m4v,1.0
2024-02-27 09:34:56.590275,1709022896.5902753,-46.875,-43.9453125,-28.80859375,-44.921875,-1.0,1.0,-1.0,0.0,4.m4v,1.0
2024-02-27 09:34:56.594181,1709022896.594181,-48.828125,-31.73828125,-31.25,-32.2265625,-1.0,1.0,-1.0,0.0,4.m4v,1.0
2024-02-27 09:34:56.598087,1709022896.5980868,-28.3203125,-19.04296875,-16.6015625,-29.296875,-1.0,1.0,-1.0,0.0,4.m4v,1.0
2024-02-27 09:34:56.601995,1709022896.6019957,-15.13671875,-9.27734375,-10.25390625,-28.3203125,-1.0,1.0,-1.0,0.0,4.m4v,1.0
2024-02-27 09:34:56.605901,1709022896.6059012,-24.90234375,-22.4609375,-14.16015625,-24.90234375,-1.0,1.0,-1.0,0.0,4.m4v,1.0
2024-02-27 09:34:56.609807,1709022896.609807,-43.9453125,-30.76171875,-21.484375,-36.62109375,-1.0,1.0,-1.0,0.0,4.m4v,1.0
2024-02-27 09:34:56.613713,1709022896.6137128,-47.8515625,-12.6953125,-28.3203125,-45.41015625,-1.0,1.0,-1.0,0.0,4.m4v,1.0
2024-02-27 09:34:56.617619,1709022896.6176186,-30.76171875,-7.32421875,-33.203125,-37.109375,-1.0,1.0,-1.0,0.0,4.m4v,1.0
2024-02-27 09:34:56.621524,1709022896.6215243,-40.0390625,-29.296875,-37.109375,-30.2734375,-1.0,1.0,-1.0,0.0,4.m4v,1.0
2024-02-27 09:34:56.625430,1709022896.62543,-39.0625,-28.80859375,-41.50390625,-16.11328125,-1.0,1.0,-1.0,0.0,4.m4v,1.0
2024-02-27 09:34:56.629336,1709022896.629336,-36.62109375,-23.92578125,-48.33984375,-31.73828125,-1.0,1.0,-1.0,0.0,4.m4v,1.0
2024-02-27 09:34:56.633242,1709022896.6332417,-6.34765625,-11.71875,-26.85546875,-32.2265625,-1.0,1.0,-1.0,0.0,4.m4v,1.0
2024-02-27 09:34:56.637147,1709022896.6371474,0.9765625,0.0,-19.53125,-16.6015625,-1.0,1.0,-1.0,0.0,4.m4v,1.0
2024-02-27 09:34:56.641053,1709022896.6410532,-38.57421875,-3.41796875,-15.625,-31.25,-1.0,1.0,-1.0,0.0,4.m4v,1.0
2024-02-27 09:34:56.644959,1709022896.6449587,-36.1328125,-14.6484375,-12.6953125,-47.36328125,-1.0,1.0,-1.0,0.0,4.m4v,1.0
2024-02-27 09:34:56.648867,1709022896.6488674,-18.5546875,-13.18359375,5.37109375,-18.5546875,-1.0,1.0,-1.0,0.0,4.m4v,1.0
2024-02-27 09:34:56.652773,1709022896.6527731,-15.13671875,-23.92578125,0.0,1.953125,-1.0,1.0,-1.0,0.0,4.m4v,1.0
2024-02-27 09:34:56.656679,1709022896.656679,-46.38671875,-59.5703125,-47.8515625,-48.828125,-1.0,1.0,-1.0,0.0,4.m4v,1.0
2024-02-27 09:34:56.660585,1709022896.6605847,-54.6875,-48.828125,-62.01171875,-66.89453125,-1.0,1.0,-1.0,0.0,4.m4v,1.0
2024-02-27 09:34:56.664490,1709022896.6644905,-20.01953125,-20.01953125,-42.48046875,-48.33984375,-1.0,1.0,-1.0,0.0,4.m4v,1.0
2024-02-27 09:34:56.668396,1709022896.6683962,-31.73828125,-14.6484375,-30.76171875,-39.0625,-1.0,1.0,-1.0,0.0,4.m4v,1.0
2024-02-27 09:34:56.672302,1709022896.6723018,-50.29296875,-5.859375,-24.90234375,-36.1328125,-1.0,1.0,-1.0,0.0,4.m4v,1.0
2024-02-27 09:34:56.676208,1709022896.6762075,-32.2265625,5.859375,-21.484375,-27.83203125,-1.0,1.0,-1.0,0.0,4.m4v,1.0
2024-02-27 09:34:56.680113,1709022896.6801133,-30.76171875,-12.6953125,-18.06640625,-24.4140625,-1.0,1.0,-1.0,0.0,4.m4v,1.0
2024-02-27 09:34:56.684019,1709022896.684019,-60.05859375,-50.78125,-34.1796875,-47.36328125,-1.0,1.0,-1.0,0.0,4.m4v,1.0
2024-02-27 09:34:56.687925,1709022896.6879249,-50.29296875,-41.50390625,-38.0859375,-39.0625,-1.0,1.0,-1.0,0.0,4.m4v,1.0
2024-02-27 09:34:56.691831,1709022896.6918306,-9.765625,-19.53125,-23.4375,-14.6484375,-1.0,1.0,-1.0,0.0,4.m4v,1.0
2024-02-27 09:34:56.695739,1709022896.695739,-23.4375,-26.85546875,-53.7109375,-19.53125,-1.0,1.0,-1.0,0.0,4.m4v,1.0
2024-02-27 09:34:56.699645,1709022896.6996448,-15.625,-13.18359375,-41.9921875,1.953125,-1.0,1.0,-1.0,0.0,4.m4v,1.0
2024-02-27 09:34:56.703551,1709022896.7035506,-0.48828125,-8.30078125,6.8359375,5.37109375,-1.0,1.0,-1.0,0.0,4.m4v,1.0
2024-02-27 09:34:56.707456,1709022896.7074564,-34.66796875,-35.64453125,-11.71875,-47.36328125,-1.0,1.0,-1.0,0.0,4.m4v,1.0
2024-02-27 09:34:56.711362,1709022896.711362,-73.2421875,-47.8515625,-34.66796875,-59.08203125,-1.0,1.0,-1.0,0.0,4.m4v,1.0
2024-02-27 09:34:56.715268,1709022896.7152677,-62.5,-30.76171875,-34.1796875,-36.62109375,-1.0,1.0,-1.0,0.0,4.m4v,1.0
2024-02-27 09:34:56.719173,1709022896.7191734,-37.59765625,-17.578125,-33.69140625,-37.109375,-1.0,1.0,-1.0,0.0,4.m4v,1.0
2024-02-27 09:34:56.723079,1709022896.7230792,-45.41015625,-28.80859375,-41.9921875,-39.0625,-1.0,1.0,-1.0,0.0,4.m4v,1.0
2024-02-27 09:34:56.726985,1709022896.726985,-48.828125,-39.0625,-29.78515625,-26.3671875,-1.0,1.0,-1.0,0.0,4.m4v,1.0
2024-02-27 09:34:56.730891,1709022896.7308908,-26.3671875,-36.1328125,-18.06640625,-29.296875,-1.0,1.0,-1.0,0.0,4.m4v,1.0
2024-02-27 09:34:56.734797,1709022896.7347963,-6.34765625,-15.13671875,-14.6484375,-13.671875,-1.0,1.0,-1.0,0.0,4.m4v,1.0
2024-02-27 09:34:56.738702,1709022896.7387023,-20.5078125,-10.7421875,-9.27734375,-12.20703125,-1.0,1.0,-1.0,0.0,4.m4v,1.0
2024-02-27 09:34:56.742610,1709022896.7426105,-55.6640625,-53.7109375,-44.43359375,-57.6171875,-1.0,1.0,-1.0,0.0,4.m4v,1.0
2024-02-27 09:34:56.746516,1709022896.7465162,-68.84765625,-51.26953125,-53.22265625,-67.3828125,-1.0,1.0,-1.0,0.0,4.m4v,1.0
2024-02-27 09:34:56.750422,1709022896.750422,-48.33984375,-19.04296875,-23.92578125,-48.828125,-1.0,1.0,-1.0,0.0,4.m4v,1.0
2024-02-27 09:34:56.754328,1709022896.7543278,-39.0625,-21.484375,-16.11328125,-40.0390625,-1.0,1.0,-1.0,0.0,4.m4v,1.0
2024-02-27 09:34:56.758233,1709022896.7582333,-39.55078125,-19.04296875,-30.2734375,-28.3203125,-1.0,1.0,-1.0,0.0,4.m4v,1.0
2024-02-27 09:34:56.762139,1709022896.762139,-11.23046875,-0.48828125,-36.1328125,-20.5078125,-1.0,1.0,-1.0,0.0,4.m4v,1.0
2024-02-27 09:34:56.766045,1709022896.7660449,-9.765625,-6.34765625,-38.0859375,-21.97265625,-1.0,1.0,-1.0,0.0,4.m4v,1.0
2024-02-27 09:34:56.769951,1709022896.7699506,-32.2265625,-40.52734375,-22.4609375,-19.04296875,-1.0,1.0,-1.0,0.0,4.m4v,1.0
2024-02-27 09:34:56.773856,1709022896.7738564,-35.64453125,-48.828125,-19.53125,-21.97265625,-1.0,1.0,-1.0,0.0,4.m4v,1.0
2024-02-27 09:34:56.777762,1709022896.7777622,-17.08984375,-22.4609375,-29.78515625,-18.06640625,-1.0,1.0,-1.0,0.0,4.m4v,1.0
2024-02-27 09:34:56.781668,1709022896.781668,0.9765625,6.34765625,-39.55078125,-12.6953125,-1.0,1.0,-1.0,0.0,4.m4v,1.0
2024-02-27 09:34:56.785574,1709022896.7855735,-31.73828125,-13.671875,-31.73828125,-34.66796875,-1.0,1.0,-1.0,0.0,4.m4v,1.0
2024-02-27 09:34:56.789482,1709022896.7894816,-70.80078125,-52.734375,-21.484375,-61.5234375,-1.0,1.0,-1.0,0.0,4.m4v,1.0
2024-02-27 09:34:56.793387,1709022896.7933874,-62.98828125,-53.7109375,-25.390625,-62.01171875,-1.0,1.0,-1.0,0.0,4.m4v,1.0
2024-02-27 09:34:56.797293,1709022896.7972932,-45.8984375,-38.0859375,-31.73828125,-49.8046875,-1.0,1.0,-1.0,0.0,4.m4v,1.0
2024-02-27 09:34:56.801199,1709022896.801199,-45.8984375,-25.390625,-41.015625,-52.734375,-1.0,1.0,-1.0,0.0,4.m4v,1.0
2024-02-27 09:34:56.809011,1709022896.8090105,2.44140625,-22.94921875,-20.5078125,-19.53125,-1.0,1.0,-1.0,0.0,4.m4v,1.0
2024-02-27 09:34:56.816822,1709022896.8168218,-38.57421875,-18.06640625,-22.4609375,-19.53125,-1.0,1.0,-1.0,0.0,4.m4v,1.0
2024-02-27 09:34:56.824633,1709022896.8246334,-27.34375,-52.734375,-24.4140625,-14.6484375,-1.0,1.0,-1.0,0.0,4.m4v,1.0
2024-02-27 09:34:56.832445,1709022896.832445,-53.22265625,-33.203125,-54.6875,-36.62109375,-1.0,1.0,-1.0,0.0,4.m4v,1.0
2024-02-27 09:34:56.840258,1709022896.8402584,-34.66796875,-18.5546875,-40.52734375,-69.82421875,-1.0,1.0,-1.0,0.0,4.m4v,1.0
2024-02-27 09:34:56.844164,1709022896.844164,-30.2734375,-18.5546875,-41.9921875,-53.22265625,-1.0,1.0,-1.0,0.0,4.m4v,1.0
2024-02-27 09:34:56.848070,1709022896.84807,-23.92578125,-21.97265625,-33.69140625,-44.43359375,-1.0,1.0,-1.0,0.0,4.m4v,1.0
2024-02-27 09:34:56.851976,1709022896.8519757,-25.390625,-12.6953125,-41.50390625,-39.0625,-1.0,1.0,-1.0,0.0,4.m4v,1.0
2024-02-27 09:34:56.855881,1709022896.8558817,-28.80859375,-17.08984375,-34.1796875,-32.71484375,-1.0,1.0,-1.0,0.0,4.m4v,1.0
2024-02-27 09:34:56.859787,1709022896.859787,-11.23046875,-23.92578125,-8.30078125,-9.765625,-1.0,1.0,-1.0,0.0,4.m4v,1.0
2024-02-27 09:34:56.863693,1709022896.8636928,-18.5546875,-39.0625,-10.7421875,0.48828125,-1.0,1.0,-1.0,0.0,4.m4v,1.0
2024-02-27 09:34:56.867599,1709022896.8675983,-58.59375,-50.78125,-39.0625,-30.76171875,-1.0,1.0,-1.0,0.0,4.m4v,1.0
2024-02-27 09:34:56.871504,1709022896.8715043,-71.2890625,-56.640625,-51.26953125,-66.40625,-1.0,1.0,-1.0,0.0,4.m4v,1.0
2024-02-27 09:34:56.875410,1709022896.87541,-46.875,-29.296875,-19.04296875,-44.43359375,-1.0,1.0,-1.0,0.0,4.m4v,1.0
2024-02-27 09:34:56.879316,1709022896.879316,0.48828125,7.8125,13.18359375,-0.9765625,-1.0,1.0,-1.0,0.0,4.m4v,1.0
2024-02-27 09:34:56.883224,1709022896.8832235,-3.90625,-23.92578125,-20.01953125,-38.0859375,-1.0,1.0,-1.0,0.0,4.m4v,1.0
2024-02-27 09:34:57.164452,1709022897.1644523,-41.015625,-41.50390625,-63.4765625,-47.36328125,-1.0,1.0,-1.0,0.0,4.m4v,1.0
2024-02-27 09:34:57.168358,1709022897.168358,-15.625,-29.296875,-32.71484375,-33.69140625,-1.0,1.0,-1.0,0.0,4.m4v,1.0
2024-02-27 09:34:57.172264,1709022897.172264,-15.13671875,-11.23046875,0.0,-28.3203125,-1.0,1.0,-1.0,0.0,4.m4v,1.0
2024-02-27 09:34:57.176170,1709022897.1761696,-32.71484375,-10.7421875,-3.41796875,-29.296875,-1.0,1.0,-1.0,0.0,4.m4v,1.0
2024-02-27 09:34:57.180075,1709022897.1800752,-36.62109375,-22.94921875,-22.94921875,-36.1328125,-1.0,1.0,-1.0,0.0,4.m4v,1.0
2024-02-27 09:34:57.183981,1709022897.183981,-51.26953125,-54.6875,-47.36328125,-55.17578125,-1.0,1.0,-1.0,0.0,4.m4v,1.0
2024-02-27 09:34:57.187887,1709022897.1878867,-24.4140625,-41.015625,-39.0625,-35.64453125,-1.0,1.0,-1.0,0.0,4.m4v,1.0
2024-02-27 09:34:57.191792,1709022897.1917925,-10.25390625,-6.34765625,-25.87890625,-23.4375,-1.0,1.0,-1.0,0.0,4.m4v,1.0
2024-02-27 09:34:57.195698,1709022897.1956985,-41.50390625,-11.23046875,-46.875,-35.15625,-1.0,1.0,-1.0,0.0,4.m4v,1.0
2024-02-27 09:34:57.199604,1709022897.199604,-64.453125,-38.0859375,-74.21875,-54.19921875,-1.0,1.0,-1.0,0.0,4.m4v,1.0
2024-02-27 09:34:57.203510,1709022897.2035098,-48.828125,-47.8515625,-49.31640625,-59.5703125,-1.0,1.0,-1.0,0.0,4.m4v,1.0
2024-02-27 09:34:57.207416,1709022897.2074156,-22.94921875,-41.015625,-3.90625,-35.64453125,-1.0,1.0,-1.0,0.0,4.m4v,1.0
2024-02-27 09:34:57.211323,1709022897.2113233,-2.9296875,-15.625,9.765625,-3.90625,-1.0,1.0,-1.0,0.0,4.m4v,1.0
2024-02-27 09:34:57.215229,1709022897.215229,-11.71875,-1.953125,-6.8359375,-13.18359375,-1.0,1.0,-1.0,0.0,4.m4v,1.0
2024-02-27 09:34:57.219135,1709022897.2191348,-48.33984375,-28.3203125,-23.92578125,-35.15625,-1.0,1.0,-1.0,0.0,4.m4v,1.0
2024-02-27 09:34:57.223041,1709022897.2230406,-60.546875,-62.5,-36.62109375,-44.43359375,-1.0,1.0,-1.0,0.0,4.m4v,1.0
2024-02-27 09:34:57.226946,1709022897.2269464,-59.5703125,-64.453125,-42.96875,-69.3359375,-1.0,1.0,-1.0,0.0,4.m4v,1.0
2024-02-27 09:34:57.230852,1709022897.230852,-49.8046875,-37.109375,-30.2734375,-59.08203125,-1.0,1.0,-1.0,0.0,4.m4v,1.0
2024-02-27 09:34:57.234758,1709022897.234758,-31.25,-15.625,-24.4140625,-39.0625,-1.0,1.0,-1.0,0.0,4.m4v,1.0
2024-02-27 09:34:57.238664,1709022897.2386637,-28.3203125,-7.8125,-30.76171875,-39.0625,-1.0,1.0,-1.0,0.0,4.m4v,1.0
2024-02-27 09:34:57.242569,1709022897.2425694,-56.15234375,-21.97265625,-37.109375,-44.921875,-1.0,1.0,-1.0,0.0,4.m4v,1.0
2024-02-27 09:34:57.246475,1709022897.2464752,-29.296875,-20.99609375,-19.53125,-22.4609375,-1.0,1.0,-1.0,0.0,4.m4v,1.0
2024-02-27 09:34:57.250381,1709022897.2503808,5.859375,-2.9296875,7.8125,1.46484375,-1.0,1.0,-1.0,0.0,4.m4v,1.0
2024-02-27 09:34:57.254287,1709022897.2542863,-6.34765625,-12.20703125,1.953125,-2.44140625,-1.0,1.0,-1.0,0.0,4.m4v,1.0
2024-02-27 09:34:57.297252,1709022897.2972517,-35.64453125,-30.76171875,-21.484375,-44.43359375,-1.0,1.0,-1.0,0.0,4.m4v,1.0
2024-02-27 09:34:57.301157,1709022897.3011577,-30.2734375,-30.2734375,-20.99609375,-40.52734375,-1.0,1.0,-1.0,0.0,4.m4v,1.0
2024-02-27 09:34:57.305065,1709022897.305065,-20.5078125,-31.25,-24.90234375,-36.62109375,-1.0,1.0,-1.0,0.0,4.m4v,1.0
2024-02-27 09:34:57.308971,1709022897.3089707,-37.59765625,-35.64453125,-46.38671875,-38.57421875,-1.0,1.0,-1.0,0.0,4.m4v,1.0
2024-02-27 09:34:57.312876,1709022897.3128762,-39.0625,-33.69140625,-37.109375,-28.3203125,-1.0,1.0,-1.0,0.0,4.m4v,1.0
2024-02-27 09:34:57.316782,1709022897.316782,-19.53125,-30.76171875,-23.92578125,-23.4375,-1.0,1.0,-1.0,0.0,4.m4v,1.0
2024-02-27 09:34:57.320688,1709022897.3206878,-21.97265625,-33.69140625,-42.48046875,-32.71484375,-1.0,1.0,-1.0,0.0,4.m4v,1.0
2024-02-27 09:34:57.324594,1709022897.3245935,-47.8515625,-39.0625,-41.9921875,-52.734375,-1.0,1.0,-1.0,0.0,4.m4v,1.0
2024-02-27 09:34:57.328499,1709022897.3284993,-51.7578125,-21.484375,-19.53125,-46.38671875,-1.0,1.0,-1.0,0.0,4.m4v,1.0
2024-02-27 09:34:57.332405,1709022897.332405,-48.33984375,-17.578125,-20.99609375,-41.50390625,-1.0,1.0,-1.0,0.0,4.m4v,1.0
2024-02-27 09:34:57.336311,1709022897.3363109,-35.15625,-34.66796875,-27.34375,-42.96875,-1.0,1.0,-1.0,0.0,4.m4v,1.0
2024-02-27 09:34:57.340217,1709022897.3402166,-10.25390625,-22.94921875,-25.390625,-19.53125,-1.0,1.0,-1.0,0.0,4.m4v,1.0
2024-02-27 09:34:57.344122,1709022897.3441224,-23.92578125,-34.66796875,-40.52734375,-20.01953125,-1.0,1.0,-1.0,0.0,4.m4v,1.0
2024-02-27 09:34:57.348028,1709022897.3480282,-44.43359375,-55.17578125,-54.19921875,-37.109375,-1.0,1.0,-1.0,0.0,4.m4v,1.0
2024-02-27 09:34:57.351937,1709022897.3519368,-25.87890625,-27.83203125,-38.0859375,-22.4609375,-1.0,1.0,-1.0,0.0,4.m4v,1.0
2024-02-27 09:34:57.355843,1709022897.3558426,-21.484375,-5.37109375,-16.11328125,-25.390625,-1.0,1.0,-1.0,0.0,4.m4v,1.0
2024-02-27 09:34:57.359748,1709022897.3597484,-28.80859375,-16.6015625,-22.4609375,-38.57421875,-1.0,1.0,-1.0,0.0,4.m4v,1.0
2024-02-27 09:34:57.363654,1709022897.363654,-18.06640625,-21.97265625,-20.99609375,-38.0859375,-1.0,1.0,-1.0,0.0,4.m4v,1.0
2024-02-27 09:34:57.367560,1709022897.36756,-23.4375,-20.99609375,-17.578125,-40.0390625,-1.0,1.0,-1.0,0.0,4.m4v,1.0
2024-02-27 09:34:57.371466,1709022897.3714657,-53.7109375,-30.76171875,-28.3203125,-42.96875,-1.0,1.0,-1.0,0.0,4.m4v,1.0
2024-02-27 09:34:57.375371,1709022897.3753717,-32.2265625,-39.0625,-49.8046875,-25.87890625,-1.0,1.0,-1.0,0.0,4.m4v,1.0
2024-02-27 09:34:57.379277,1709022897.379277,16.11328125,-13.18359375,-34.1796875,9.27734375,-1.0,1.0,-1.0,0.0,4.m4v,1.0
2024-02-27 09:34:57.383183,1709022897.3831828,-5.859375,-26.3671875,-15.625,-26.3671875,-1.0,1.0,-1.0,0.0,4.m4v,1.0
2024-02-27 09:34:57.387089,1709022897.3870883,-39.0625,-48.828125,-24.4140625,-75.68359375,-1.0,1.0,-1.0,0.0,4.m4v,1.0
2024-02-27 09:34:57.390994,1709022897.3909943,-31.25,-14.6484375,-14.6484375,-46.38671875,-1.0,1.0,-1.0,0.0,4.m4v,1.0
2024-02-27 09:34:57.394900,1709022897.3949,-34.1796875,-4.39453125,-15.13671875,-27.83203125,-1.0,1.0,-1.0,0.0,4.m4v,1.0
2024-02-27 09:34:57.398810,1709022897.39881,-43.9453125,-32.2265625,-46.875,-40.0390625,-1.0,1.0,-1.0,0.0,4.m4v,1.0
2024-02-27 09:34:57.402716,1709022897.402716,-50.29296875,-48.828125,-41.015625,-29.296875,-1.0,1.0,-1.0,0.0,4.m4v,1.0
2024-02-27 09:34:57.406622,1709022897.4066217,-49.8046875,-39.55078125,-26.3671875,-19.53125,-1.0,1.0,-1.0,0.0,4.m4v,1.0
2024-02-27 09:34:57.410527,1709022897.4105277,-26.85546875,-15.13671875,-24.4140625,-11.71875,-1.0,1.0,-1.0,0.0,4.m4v,1.0
2024-02-27 09:34:57.414433,1709022897.414433,0.9765625,-19.53125,-24.90234375,1.46484375,-1.0,1.0,-1.0,0.0,4.m4v,1.0
2024-02-27 09:34:57.418339,1709022897.4183388,-10.25390625,-41.50390625,-27.83203125,-13.671875,-1.0,1.0,-1.0,0.0,4.m4v,1.0
2024-02-27 09:34:57.422245,1709022897.4222443,-31.25,-49.31640625,-38.0859375,-41.50390625,-1.0,1.0,-1.0,0.0,4.m4v,1.0
2024-02-27 09:34:57.426150,1709022897.4261503,-17.578125,-31.25,-26.3671875,-23.92578125,-1.0,1.0,-1.0,0.0,4.m4v,1.0
2024-02-27 09:34:57.430056,1709022897.430056,-41.015625,-33.203125,-22.4609375,-37.59765625,-1.0,1.0,-1.0,0.0,4.m4v,1.0
2024-02-27 09:34:57.433962,1709022897.433962,-57.12890625,-31.73828125,-34.66796875,-58.59375,-1.0,1.0,-1.0,0.0,4.m4v,1.0
2024-02-27 09:34:57.437868,1709022897.4378676,-17.578125,-24.90234375,-22.4609375,-28.80859375,-1.0,1.0,-1.0,0.0,4.m4v,1.0
2024-02-27 09:34:57.441773,1709022897.4417734,-5.859375,-21.484375,-29.78515625,-18.06640625,-1.0,1.0,-1.0,0.0,4.m4v,1.0
2024-02-27 09:34:57.445682,1709022897.4456816,-33.203125,-21.484375,-45.41015625,-43.9453125,-1.0,1.0,-1.0,0.0,4.m4v,1.0
2024-02-27 09:34:57.449587,1709022897.449587,-33.203125,-22.4609375,-28.80859375,-38.57421875,-1.0,1.0,-1.0,0.0,4.m4v,1.0
2024-02-27 09:34:57.453493,1709022897.453493,-23.4375,-37.59765625,-19.04296875,-12.6953125,-1.0,1.0,-1.0,0.0,4.m4v,1.0
2024-02-27 09:34:57.457399,1709022897.457399,-34.66796875,-60.546875,-46.38671875,-38.57421875,-1.0,1.0,-1.0,0.0,4.m4v,1.0
2024-02-27 09:34:57.461305,1709022897.461305,-29.296875,-44.921875,-46.875,-41.50390625,-1.0,1.0,-1.0,0.0,4.m4v,1.0
2024-02-27 09:34:57.465210,1709022897.4652104,-19.04296875,-18.06640625,-34.1796875,-30.76171875,-1.0,1.0,-1.0,0.0,4.m4v,1.0
2024-02-27 09:34:57.469116,1709022897.4691162,-33.203125,-23.92578125,-32.2265625,-43.9453125,-1.0,1.0,-1.0,0.0,4.m4v,1.0
2024-02-27 09:34:57.473022,1709022897.473022,-27.83203125,-27.34375,-17.578125,-22.94921875,-1.0,1.0,-1.0,0.0,4.m4v,1.0
2024-02-27 09:34:57.476928,1709022897.4769278,13.671875,-19.04296875,-22.94921875,-4.39453125,-1.0,1.0,-1.0,0.0,4.m4v,1.0
2024-02-27 09:34:57.480834,1709022897.4808335,24.90234375,-18.5546875,-28.3203125,-20.01953125,-1.0,1.0,-1.0,0.0,4.m4v,1.0
2024-02-27 09:34:57.484739,1709022897.4847393,-34.66796875,-20.01953125,-34.1796875,-44.921875,-1.0,1.0,-1.0,0.0,4.m4v,1.0
2024-02-27 09:34:57.488645,1709022897.4886448,-61.03515625,-26.85546875,-50.29296875,-47.8515625,-1.0,1.0,-1.0,0.0,4.m4v,1.0
2024-02-27 09:34:57.492553,1709022897.4925532,-51.7578125,-39.0625,-51.26953125,-41.015625,-1.0,1.0,-1.0,0.0,4.m4v,1.0
2024-02-27 09:34:57.496459,1709022897.496459,-33.69140625,-56.15234375,-45.41015625,-42.48046875,-1.0,1.0,-1.0,0.0,4.m4v,1.0
2024-02-27 09:34:57.500365,1709022897.5003648,-28.80859375,-69.3359375,-54.19921875,-45.41015625,-1.0,1.0,-1.0,0.0,4.m4v,1.0
2024-02-27 09:34:57.504270,1709022897.5042703,-29.296875,-48.828125,-49.31640625,-30.76171875,-1.0,1.0,-1.0,0.0,4.m4v,1.0
2024-02-27 09:34:57.508176,1709022897.508176,-19.53125,-9.27734375,-33.69140625,-19.04296875,-1.0,1.0,-1.0,0.0,4.m4v,1.0
2024-02-27 09:34:57.512082,1709022897.512082,-12.6953125,8.7890625,-15.625,-9.765625,-1.0,1.0,-1.0,0.0,4.m4v,1.0
2024-02-27 09:34:57.676130,1709022897.6761298,-23.92578125,-33.69140625,-6.34765625,-11.23046875,-1.0,1.0,-1.0,0.0,4.m4v,1.0
2024-02-27 09:34:57.680039,1709022897.6800387,-22.4609375,-37.109375,-26.85546875,-21.97265625,-1.0,1.0,-1.0,0.0,4.m4v,1.0
2024-02-27 09:34:57.683944,1709022897.6839445,-19.53125,-36.1328125,-48.828125,-33.203125,-1.0,1.0,-1.0,0.0,4.m4v,1.0
2024-02-27 09:34:57.687850,1709022897.6878502,-34.1796875,-42.96875,-53.7109375,-34.1796875,-1.0,1.0,-1.0,0.0,4.m4v,1.0
2024-02-27 09:34:57.691756,1709022897.691756,-44.921875,-36.1328125,-64.94140625,-29.296875,-1.0,1.0,-1.0,0.0,4.m4v,1.0
2024-02-27 09:34:57.695662,1709022897.6956618,-47.8515625,-21.484375,-65.91796875,-27.83203125,-1.0,1.0,-1.0,0.0,4.m4v,1.0
2024-02-27 09:34:57.699568,1709022897.6995676,-53.22265625,-34.66796875,-47.8515625,-45.41015625,-1.0,1.0,-1.0,0.0,4.m4v,1.0
2024-02-27 09:34:57.703473,1709022897.703473,-50.29296875,-59.5703125,-29.78515625,-44.43359375,-1.0,1.0,-1.0,0.0,4.m4v,1.0
2024-02-27 09:34:57.707379,1709022897.7073789,-46.38671875,-48.828125,-28.3203125,-38.0859375,-1.0,1.0,-1.0,0.0,4.m4v,1.0
2024-02-27 09:34:57.711285,1709022897.7112846,-55.6640625,-20.01953125,-21.484375,-46.875,-1.0,1.0,-1.0,0.0,4.m4v,1.0
2024-02-27 09:34:57.715190,1709022897.7151904,-48.33984375,-20.5078125,-29.296875,-42.48046875,-1.0,1.0,-1.0,0.0,4.m4v,1.0
2024-02-27 09:34:57.719096,1709022897.7190962,-29.78515625,-33.203125,-35.15625,-37.109375,-1.0,1.0,-1.0,0.0,4.m4v,1.0
2024-02-27 09:34:57.723002,1709022897.723002,-22.4609375,-42.48046875,-36.62109375,-42.48046875,-1.0,1.0,-1.0,0.0,4.m4v,1.0
2024-02-27 09:34:57.726911,1709022897.7269108,-35.15625,-41.50390625,-48.828125,-40.0390625,-1.0,1.0,-1.0,0.0,4.m4v,1.0
2024-02-27 09:34:57.730816,1709022897.7308164,-59.08203125,-51.26953125,-68.359375,-49.31640625,-1.0,1.0,-1.0,0.0,4.m4v,1.0
2024-02-27 09:34:57.734722,1709022897.734722,-50.78125,-58.59375,-67.87109375,-44.921875,-1.0,1.0,-1.0,0.0,4.m4v,1.0
2024-02-27 09:34:57.738628,1709022897.738628,-33.203125,-38.0859375,-57.12890625,-36.62109375,-1.0,1.0,-1.0,0.0,4.m4v,1.0
2024-02-27 09:34:57.742534,1709022897.7425337,-38.57421875,-34.66796875,-46.38671875,-49.8046875,-1.0,1.0,-1.0,0.0,4.m4v,1.0
2024-02-27 09:34:57.746439,1709022897.7464397,-61.5234375,-38.57421875,-42.96875,-53.7109375,-1.0,1.0,-1.0,0.0,4.m4v,1.0
2024-02-27 09:34:57.887054,1709022897.8870542,-28.3203125,-41.015625,-45.8984375,-42.48046875,-1.0,1.0,-1.0,0.0,4.m4v,1.0
2024-02-27 09:34:57.894866,1709022897.8948658,-42.96875,-48.33984375,-28.80859375,-15.625,-1.0,1.0,-1.0,0.0,4.m4v,1.0
2024-02-27 09:34:57.906583,1709022897.906583,-23.4375,-51.7578125,-30.76171875,-25.87890625,-1.0,1.0,-1.0,0.0,4.m4v,1.0
2024-02-27 09:34:57.914397,1709022897.9143968,-22.4609375,-13.671875,-22.4609375,-28.80859375,-1.0,1.0,-1.0,0.0,4.m4v,1.0
2024-02-27 09:34:57.926114,1709022897.926114,-24.4140625,-20.99609375,-31.25,-28.3203125,-1.0,1.0,-1.0,0.0,4.m4v,1.0
2024-02-27 09:34:57.933926,1709022897.9339256,-24.4140625,-38.0859375,-39.0625,-10.7421875,-1.0,1.0,-1.0,0.0,4.m4v,1.0
2024-02-27 09:34:57.945643,1709022897.9456427,-39.55078125,-44.921875,-71.2890625,-35.15625,-1.0,1.0,-1.0,0.0,4.m4v,1.0
2024-02-27 09:34:57.953454,1709022897.9534545,-3.90625,-19.53125,-5.859375,-16.11328125,-1.0,1.0,-1.0,0.0,4.m4v,1.0
2024-02-27 09:34:57.965174,1709022897.9651735,-49.31640625,-52.734375,-43.45703125,-56.15234375,-1.0,1.0,-1.0,0.0,4.m4v,1.0
2024-02-27 09:34:57.972985,1709022897.9729853,-45.41015625,-33.203125,-48.828125,-37.109375,-1.0,1.0,-1.0,0.0,4.m4v,1.0
2024-02-27 09:34:57.984702,1709022897.9847023,-10.25390625,-33.203125,-41.015625,-12.20703125,-1.0,1.0,-1.0,0.0,4.m4v,1.0
2024-02-27 09:34:57.992514,1709022897.992514,-22.4609375,-23.4375,-21.484375,-3.90625,-1.0,1.0,-1.0,0.0,4.m4v,1.0
2024-02-27 09:34:58.004231,1709022898.0042312,-46.38671875,-48.828125,-47.8515625,-54.19921875,-1.0,1.0,-1.0,0.0,4.m4v,1.0
2024-02-27 09:34:58.012044,1709022898.0120444,-50.29296875,-43.9453125,-39.0625,-36.1328125,-1.0,1.0,-1.0,0.0,4.m4v,1.0
2024-02-27 09:34:58.023762,1709022898.0237615,-20.99609375,-27.34375,-34.66796875,-35.64453125,-1.0,1.0,-1.0,0.0,4.m4v,1.0
2024-02-27 09:34:58.031573,1709022898.0315733,-9.765625,-14.16015625,-22.4609375,-11.23046875,-1.0,1.0,-1.0,0.0,4.m4v,1.0
2024-02-27 09:34:58.043291,1709022898.0432906,-23.92578125,-46.875,-43.9453125,-37.109375,-1.0,1.0,-1.0,0.0,4.m4v,1.0
2024-02-27 09:34:58.051102,1709022898.0511022,-44.43359375,-38.57421875,-26.3671875,-30.76171875,-1.0,1.0,-1.0,0.0,4.m4v,1.0
2024-02-27 09:34:58.062821,1709022898.062821,-19.53125,-32.2265625,-32.2265625,-49.8046875,-1.0,1.0,-1.0,0.0,4.m4v,1.0
2024-02-27 09:34:58.070632,1709022898.0706325,-22.4609375,-10.7421875,-19.53125,-23.4375,-1.0,1.0,-1.0,0.0,4.m4v,1.0
2024-02-27 09:34:58.082350,1709022898.0823498,-37.59765625,-37.59765625,-34.66796875,-40.0390625,-1.0,1.0,-1.0,0.0,4.m4v,1.0
2024-02-27 09:34:58.090161,1709022898.090161,-22.94921875,-18.06640625,-25.390625,-28.80859375,-1.0,1.0,-1.0,0.0,4.m4v,1.0
2024-02-27 09:34:58.101882,1709022898.1018815,-22.94921875,-23.4375,-24.4140625,-30.2734375,-1.0,1.0,-1.0,0.0,4.m4v,1.0
2024-02-27 09:34:58.109693,1709022898.1096928,-32.71484375,-20.5078125,-20.99609375,-34.66796875,-1.0,1.0,-1.0,0.0,4.m4v,1.0
2024-02-27 09:34:58.121410,1709022898.12141,-18.5546875,-9.765625,-24.4140625,-28.3203125,-1.0,1.0,-1.0,0.0,4.m4v,1.0
2024-02-27 09:34:58.129222,1709022898.1292217,-36.1328125,-40.52734375,-41.9921875,-41.50390625,-1.0,1.0,-1.0,0.0,4.m4v,1.0
2024-02-27 09:34:58.140939,1709022898.140939,-31.73828125,-37.59765625,-35.64453125,-45.41015625,-1.0,1.0,-1.0,0.0,4.m4v,1.0
2024-02-27 09:34:58.148753,1709022898.1487532,-20.5078125,-33.203125,-7.32421875,-10.25390625,-1.0,1.0,-1.0,0.0,4.m4v,1.0
2024-02-27 09:34:58.148753,1709022898.1487532,-20.5078125,-33.203125,-7.32421875,-10.25390625,-1.0,1.0,-1.0,0.0,4.m4v,1.0
2024-02-27 09:34:58.160470,1709022898.1604705,-41.015625,-41.50390625,-28.80859375,-26.85546875,-1.0,1.0,-1.0,0.0,4.m4v,1.0
2024-02-27 09:34:58.160470,1709022898.1604705,-41.015625,-41.50390625,-28.80859375,-26.85546875,-1.0,1.0,-1.0,0.0,4.m4v,1.0
2024-02-27 09:34:58.168282,1709022898.168282,-22.4609375,-14.16015625,-41.50390625,-24.90234375,-1.0,1.0,-1.0,0.0,4.m4v,1.0
2024-02-27 09:34:58.168282,1709022898.168282,-22.4609375,-14.16015625,-41.50390625,-24.90234375,-1.0,1.0,-1.0,0.0,4.m4v,1.0
2024-02-27 09:34:58.179999,1709022898.179999,-48.828125,-36.1328125,-43.45703125,-53.22265625,-1.0,1.0,-1.0,0.0,4.m4v,1.0
2024-02-27 09:34:58.179999,1709022898.179999,-48.828125,-36.1328125,-43.45703125,-53.22265625,-1.0,1.0,-1.0,0.0,4.m4v,1.0
2024-02-27 09:34:58.187811,1709022898.187811,-36.1328125,-32.71484375,-26.85546875,-41.9921875,-1.0,1.0,-1.0,0.0,4.m4v,1.0
2024-02-27 09:34:58.195625,1709022898.1956248,-26.85546875,-51.7578125,-40.52734375,-21.484375,-1.0,1.0,-1.0,0.0,4.m4v,1.0
2024-02-27 09:34:58.203436,1709022898.2034364,-46.875,-47.8515625,-37.109375,-35.64453125,-1.0,1.0,-1.0,0.0,4.m4v,1.0
2024-02-27 09:34:58.211248,1709022898.211248,-32.71484375,2.9296875,-11.23046875,-31.73828125,-1.0,1.0,-1.0,0.0,4.m4v,1.0
2024-02-27 09:34:58.219059,1709022898.2190592,-23.92578125,-28.80859375,-14.16015625,-27.34375,-1.0,1.0,-1.0,0.0,4.m4v,1.0
2024-02-27 09:34:58.285460,1709022898.2854595,-49.31640625,-45.41015625,-54.6875,-55.17578125,-1.0,1.0,-1.0,0.0,4.m4v,1.0
2024-02-27 09:34:58.289368,1709022898.2893677,-40.52734375,-44.921875,-40.0390625,-21.97265625,-1.0,1.0,-1.0,0.0,4.m4v,1.0
2024-02-27 09:34:58.293273,1709022898.2932732,-63.4765625,-40.0390625,-34.66796875,-55.17578125,-1.0,1.0,-1.0,0.0,4.m4v,1.0
2024-02-27 09:34:58.297179,1709022898.297179,-63.4765625,-37.59765625,-40.52734375,-87.40234375,-1.0,1.0,-1.0,0.0,4.m4v,1.0
2024-02-27 09:34:58.301085,1709022898.3010848,-46.38671875,-29.78515625,-26.85546875,-62.01171875,-1.0,1.0,-1.0,0.0,4.m4v,1.0
2024-02-27 09:34:58.304991,1709022898.3049903,-41.9921875,-26.85546875,-17.578125,-54.19921875,-1.0,1.0,-1.0,0.0,4.m4v,1.0
2024-02-27 09:34:58.308896,1709022898.3088963,-41.015625,-34.1796875,-35.64453125,-59.5703125,-1.0,1.0,-1.0,0.0,4.m4v,1.0
2024-02-27 09:34:58.312802,1709022898.312802,-52.24609375,-40.52734375,-42.96875,-33.203125,-1.0,1.0,-1.0,0.0,4.m4v,1.0
2024-02-27 09:34:58.316708,1709022898.3167078,-42.96875,-46.38671875,-32.2265625,-21.484375,-1.0,1.0,-1.0,0.0,4.m4v,1.0
2024-02-27 09:34:58.320614,1709022898.3206136,-24.4140625,-34.66796875,-34.1796875,-41.015625,-1.0,1.0,-1.0,0.0,4.m4v,1.0
2024-02-27 09:34:58.324519,1709022898.3245194,-24.4140625,-18.06640625,-36.62109375,-35.64453125,-1.0,1.0,-1.0,0.0,4.m4v,1.0
2024-02-27 09:34:58.328425,1709022898.3284252,-40.0390625,-19.04296875,-32.71484375,-28.3203125,-1.0,1.0,-1.0,0.0,4.m4v,1.0
2024-02-27 09:34:58.332331,1709022898.332331,-48.33984375,-31.25,-41.9921875,-25.390625,-1.0,1.0,-1.0,0.0,4.m4v,1.0
2024-02-27 09:34:58.336239,1709022898.3362386,-26.3671875,-34.66796875,-64.94140625,-25.87890625,-1.0,1.0,-1.0,0.0,4.m4v,1.0
2024-02-27 09:34:58.340144,1709022898.3401444,-28.3203125,-27.83203125,-53.22265625,-42.48046875,-1.0,1.0,-1.0,0.0,4.m4v,1.0
2024-02-27 09:34:58.344050,1709022898.3440502,-52.24609375,-30.2734375,-37.59765625,-48.33984375,-1.0,1.0,-1.0,0.0,4.m4v,1.0
2024-02-27 09:34:58.347956,1709022898.347956,-51.7578125,-42.96875,-29.296875,-52.734375,-1.0,1.0,-1.0,0.0,4.m4v,1.0
2024-02-27 09:34:58.351862,1709022898.3518617,-38.57421875,-50.29296875,-27.34375,-56.15234375,-1.0,1.0,-1.0,0.0,4.m4v,1.0
2024-02-27 09:34:58.355767,1709022898.3557675,-32.71484375,-37.109375,-37.59765625,-41.50390625,-1.0,1.0,-1.0,0.0,4.m4v,1.0
2024-02-27 09:34:58.359673,1709022898.3596733,-30.2734375,-34.1796875,-35.15625,-19.53125,-1.0,1.0,-1.0,0.0,4.m4v,1.0
2024-02-27 09:34:58.363579,1709022898.3635788,-5.37109375,-32.71484375,-30.76171875,-19.04296875,-1.0,1.0,-1.0,0.0,4.m4v,1.0
2024-02-27 09:34:58.367485,1709022898.3674846,-17.578125,-19.53125,-30.2734375,-28.3203125,-1.0,1.0,-1.0,0.0,4.m4v,1.0
2024-02-27 09:34:58.371390,1709022898.3713903,-41.015625,-23.4375,-25.87890625,-37.109375,-1.0,1.0,-1.0,0.0,4.m4v,1.0
2024-02-27 09:34:58.375296,1709022898.375296,-32.2265625,-23.4375,-27.34375,-41.015625,-1.0,1.0,-1.0,0.0,4.m4v,1.0
2024-02-27 09:34:58.379202,1709022898.379202,-16.11328125,-29.296875,-43.9453125,-36.62109375,-1.0,1.0,-1.0,0.0,4.m4v,1.0
2024-02-27 09:34:58.383110,1709022898.3831096,-18.5546875,-46.38671875,-51.26953125,-47.36328125,-1.0,1.0,-1.0,0.0,4.m4v,1.0
2024-02-27 09:34:58.387015,1709022898.387015,-36.62109375,-50.29296875,-46.38671875,-49.8046875,-1.0,1.0,-1.0,0.0,4.m4v,1.0
2024-02-27 09:34:58.390921,1709022898.390921,-30.76171875,-36.62109375,-41.50390625,-33.69140625,-1.0,1.0,-1.0,0.0,4.m4v,1.0
2024-02-27 09:34:58.394827,1709022898.394827,-22.94921875,-29.78515625,-36.1328125,-22.4609375,-1.0,1.0,-1.0,0.0,4.m4v,1.0
2024-02-27 09:34:58.398733,1709022898.398733,-26.85546875,-30.2734375,-36.1328125,-28.3203125,-1.0,1.0,-1.0,0.0,4.m4v,1.0
2024-02-27 09:34:58.402638,1709022898.4026382,-20.99609375,-26.85546875,-39.55078125,-37.109375,-1.0,1.0,-1.0,0.0,4.m4v,1.0
2024-02-27 09:34:58.406544,1709022898.406544,-18.06640625,-36.1328125,-47.36328125,-15.13671875,-1.0,1.0,-1.0,0.0,4.m4v,1.0
2024-02-27 09:34:58.410450,1709022898.4104495,-28.80859375,-39.55078125,-46.38671875,-17.578125,-1.0,1.0,-1.0,0.0,4.m4v,1.0
2024-02-27 09:34:58.551064,1709022898.5510645,-47.36328125,-14.16015625,-33.203125,-13.18359375,-1.0,1.0,-1.0,0.0,4.m4v,1.0
2024-02-27 09:34:58.554970,1709022898.5549705,-46.38671875,-33.69140625,-40.0390625,-41.9921875,-1.0,1.0,-1.0,0.0,4.m4v,1.0
2024-02-27 09:34:58.558876,1709022898.558876,-39.55078125,-39.0625,-36.1328125,-47.8515625,-1.0,1.0,-1.0,0.0,4.m4v,1.0
2024-02-27 09:34:58.562782,1709022898.5627818,-42.48046875,-50.78125,-33.69140625,-41.9921875,-1.0,1.0,-1.0,0.0,4.m4v,1.0
2024-02-27 09:34:58.566687,1709022898.566687,-44.921875,-45.8984375,-47.36328125,-59.08203125,-1.0,1.0,-1.0,0.0,4.m4v,1.0
2024-02-27 09:34:58.570596,1709022898.5705955,-52.24609375,-33.203125,-49.8046875,-51.26953125,-1.0,1.0,-1.0,0.0,4.m4v,1.0
2024-02-27 09:34:58.574502,1709022898.5745015,-49.8046875,-37.59765625,-48.33984375,-35.15625,-1.0,1.0,-1.0,0.0,4.m4v,1.0
2024-02-27 09:34:58.578407,1709022898.5784073,-28.80859375,-35.15625,-35.64453125,-17.08984375,-1.0,1.0,-1.0,0.0,4.m4v,1.0
2024-02-27 09:34:58.582313,1709022898.582313,-30.76171875,-41.015625,-38.57421875,-8.30078125,-1.0,1.0,-1.0,0.0,4.m4v,1.0
2024-02-27 09:34:58.586219,1709022898.5862188,-24.90234375,-29.78515625,-45.41015625,-11.71875,-1.0,1.0,-1.0,0.0,4.m4v,1.0
2024-02-27 09:34:58.590125,1709022898.5901246,-15.625,-7.32421875,-34.1796875,-13.671875,-1.0,1.0,-1.0,0.0,4.m4v,1.0
2024-02-27 09:34:58.594030,1709022898.5940304,-37.59765625,-15.13671875,-29.296875,-13.671875,-1.0,1.0,-1.0,0.0,4.m4v,1.0
2024-02-27 09:34:58.597936,1709022898.5979362,-55.17578125,-20.01953125,-27.34375,-36.1328125,-1.0,1.0,-1.0,0.0,4.m4v,1.0
2024-02-27 09:34:58.601842,1709022898.601842,-53.7109375,-20.99609375,-33.203125,-49.8046875,-1.0,1.0,-1.0,0.0,4.m4v,1.0
2024-02-27 09:34:58.605748,1709022898.6057477,-54.19921875,-43.9453125,-47.36328125,-44.43359375,-1.0,1.0,-1.0,0.0,4.m4v,1.0
2024-02-27 09:34:58.609653,1709022898.6096537,-57.12890625,-49.8046875,-48.33984375,-43.9453125,-1.0,1.0,-1.0,0.0,4.m4v,1.0
2024-02-27 09:34:58.613559,1709022898.613559,-59.08203125,-29.296875,-39.0625,-47.36328125,-1.0,1.0,-1.0,0.0,4.m4v,1.0
2024-02-27 09:34:58.617467,1709022898.6174674,-40.52734375,-18.5546875,-28.3203125,-34.1796875,-1.0,1.0,-1.0,0.0,4.m4v,1.0
2024-02-27 09:34:58.621373,1709022898.621373,-9.765625,-6.8359375,-15.625,3.41796875,-1.0,1.0,-1.0,0.0,4.m4v,1.0
2024-02-27 09:34:58.625279,1709022898.6252787,-11.23046875,-11.71875,-13.18359375,-2.44140625,-1.0,1.0,-1.0,0.0,4.m4v,1.0
2024-02-27 09:34:58.629184,1709022898.6291845,-38.57421875,-29.296875,-25.390625,-47.36328125,-1.0,1.0,-1.0,0.0,4.m4v,1.0
2024-02-27 09:34:58.633090,1709022898.6330905,-56.15234375,-41.9921875,-39.0625,-44.43359375,-1.0,1.0,-1.0,0.0,4.m4v,1.0
2024-02-27 09:34:58.636996,1709022898.636996,-55.6640625,-48.828125,-49.8046875,-30.2734375,-1.0,1.0,-1.0,0.0,4.m4v,1.0
2024-02-27 09:34:58.640902,1709022898.6409018,-48.33984375,-44.921875,-65.4296875,-40.52734375,-1.0,1.0,-1.0,0.0,4.m4v,1.0
2024-02-27 09:34:58.644808,1709022898.6448076,-16.6015625,-24.4140625,-61.5234375,-42.48046875,-1.0,1.0,-1.0,0.0,4.m4v,1.0
2024-02-27 09:34:58.648713,1709022898.6487134,-21.97265625,-33.69140625,-39.55078125,-32.2265625,-1.0,1.0,-1.0,0.0,4.m4v,1.0
2024-02-27 09:34:58.652619,1709022898.6526191,-42.96875,-42.96875,-27.83203125,-37.109375,-1.0,1.0,-1.0,0.0,4.m4v,1.0
2024-02-27 09:34:58.656525,1709022898.656525,-33.203125,-38.0859375,-26.3671875,-37.59765625,-1.0,1.0,-1.0,0.0,4.m4v,1.0
2024-02-27 09:34:58.660430,1709022898.6604304,-43.9453125,-44.921875,-43.9453125,-42.48046875,-1.0,1.0,-1.0,0.0,4.m4v,1.0
2024-02-27 09:34:58.664339,1709022898.6643386,-41.015625,-39.55078125,-47.36328125,-41.50390625,-1.0,1.0,-1.0,0.0,4.m4v,1.0
2024-02-27 09:34:58.668244,1709022898.6682444,-31.73828125,-24.4140625,-32.2265625,-22.4609375,-1.0,1.0,-1.0,0.0,4.m4v,1.0
2024-02-27 09:34:58.672150,1709022898.67215,-53.7109375,-24.90234375,-34.66796875,-23.4375,-1.0,1.0,-1.0,0.0,4.m4v,1.0
2024-02-27 09:34:58.676056,1709022898.676056,-63.4765625,-25.87890625,-34.1796875,-48.33984375,-1.0,1.0,-1.0,0.0,4.m4v,1.0
2024-02-27 09:34:58.679961,1709022898.6799614,-42.48046875,-27.34375,-34.1796875,-43.45703125,-1.0,1.0,-1.0,0.0,4.m4v,1.0
2024-02-27 09:34:58.683867,1709022898.6838672,-26.85546875,-26.3671875,-40.52734375,-23.92578125,-1.0,1.0,-1.0,0.0,4.m4v,1.0
2024-02-27 09:34:58.687773,1709022898.687773,-26.85546875,-26.85546875,-39.55078125,-19.04296875,-1.0,1.0,-1.0,0.0,4.m4v,1.0
2024-02-27 09:34:58.691679,1709022898.6916788,-36.62109375,-33.69140625,-40.52734375,-14.6484375,-1.0,1.0,-1.0,0.0,4.m4v,1.0
2024-02-27 09:34:58.695585,1709022898.6955843,-30.2734375,-27.34375,-30.2734375,-7.8125,-1.0,1.0,-1.0,0.0,4.m4v,1.0
2024-02-27 09:34:58.699490,1709022898.6994903,-38.57421875,-36.1328125,-30.76171875,-34.66796875,-1.0,1.0,-1.0,0.0,4.m4v,1.0
2024-02-27 09:34:58.703396,1709022898.703396,-41.50390625,-42.96875,-25.390625,-38.0859375,-1.0,1.0,-1.0,0.0,4.m4v,1.0
2024-02-27 09:34:58.707302,1709022898.707302,-46.38671875,-40.0390625,-22.4609375,-37.59765625,-1.0,1.0,-1.0,0.0,4.m4v,1.0
2024-02-27 09:34:58.711210,1709022898.7112098,-57.6171875,-47.8515625,-38.0859375,-51.26953125,-1.0,1.0,-1.0,0.0,4.m4v,1.0
2024-02-27 09:34:58.715116,1709022898.7151155,-30.76171875,-37.109375,-24.4140625,-35.15625,-1.0,1.0,-1.0,0.0,4.m4v,1.0
2024-02-27 09:34:58.719021,1709022898.719021,-19.53125,-20.99609375,-28.3203125,-24.90234375,-1.0,1.0,-1.0,0.0,4.m4v,1.0
2024-02-27 09:34:58.722927,1709022898.7229269,-20.01953125,-9.765625,-50.78125,-21.484375,-1.0,1.0,-1.0,0.0,4.m4v,1.0
2024-02-27 09:34:58.726833,1709022898.7268326,-21.97265625,-12.6953125,-49.8046875,-16.11328125,-1.0,1.0,-1.0,0.0,4.m4v,1.0
2024-02-27 09:34:58.730738,1709022898.7307384,-39.0625,-30.2734375,-41.9921875,-25.87890625,-1.0,1.0,-1.0,0.0,4.m4v,1.0
2024-02-27 09:34:58.769798,1709022898.7697978,-43.9453125,-25.390625,-59.5703125,-35.15625,-1.0,1.0,-1.0,0.0,4.m4v,1.0
2024-02-27 09:34:59.011969,1709022899.0119689,-42.48046875,-15.625,-27.34375,-35.15625,-1.0,1.0,-1.0,0.0,4.m4v,1.0
2024-02-27 09:34:59.019780,1709022899.0197804,-15.625,-24.4140625,-27.34375,-16.6015625,-1.0,1.0,-1.0,0.0,4.m4v,1.0
2024-02-27 09:34:59.027592,1709022899.0275917,-30.2734375,-42.96875,-54.19921875,-35.15625,-1.0,1.0,-1.0,0.0,4.m4v,1.0
2024-02-27 09:34:59.035403,1709022899.0354033,-35.64453125,-41.9921875,-54.6875,-27.34375,-1.0,1.0,-1.0,0.0,4.m4v,1.0
2024-02-27 09:34:59.043219,1709022899.0432186,-27.34375,-35.15625,-38.0859375,-28.80859375,-1.0,1.0,-1.0,0.0,4.m4v,1.0
2024-02-27 09:34:59.051030,1709022899.05103,-40.52734375,-36.1328125,-52.24609375,-51.7578125,-1.0,1.0,-1.0,0.0,4.m4v,1.0
2024-02-27 09:34:59.230703,1709022899.2307034,-21.484375,-36.62109375,-48.33984375,-49.8046875,-1.0,1.0,-1.0,0.0,4.m4v,1.0
2024-02-27 09:34:59.234609,1709022899.2346091,-37.59765625,-39.0625,-50.78125,-31.25,-1.0,1.0,-1.0,0.0,4.m4v,1.0
2024-02-27 09:34:59.238515,1709022899.238515,-41.50390625,-37.109375,-54.6875,-25.390625,-1.0,1.0,-1.0,0.0,4.m4v,1.0
2024-02-27 09:34:59.242420,1709022899.2424204,-23.4375,-42.96875,-53.22265625,-43.45703125,-1.0,1.0,-1.0,0.0,4.m4v,1.0
2024-02-27 09:34:59.246326,1709022899.2463262,-20.01953125,-31.73828125,-34.1796875,-37.109375,-1.0,1.0,-1.0,0.0,4.m4v,1.0
2024-02-27 09:34:59.250232,1709022899.250232,-36.1328125,-20.5078125,-27.34375,-20.5078125,-1.0,1.0,-1.0,0.0,4.m4v,1.0
2024-02-27 09:34:59.254138,1709022899.2541378,-47.8515625,-31.73828125,-44.921875,-33.69140625,-1.0,1.0,-1.0,0.0,4.m4v,1.0
2024-02-27 09:34:59.258044,1709022899.2580435,-31.25,-43.9453125,-43.9453125,-33.69140625,-1.0,1.0,-1.0,0.0,4.m4v,1.0
2024-02-27 09:34:59.261949,1709022899.2619493,-21.484375,-38.0859375,-44.921875,-26.85546875,-1.0,1.0,-1.0,0.0,4.m4v,1.0
2024-02-27 09:34:59.265855,1709022899.265855,-25.390625,-12.6953125,-47.8515625,-30.76171875,-1.0,1.0,-1.0,0.0,4.m4v,1.0
2024-02-27 09:34:59.269761,1709022899.2697608,-21.484375,-28.80859375,-44.43359375,-37.109375,-1.0,1.0,-1.0,0.0,4.m4v,1.0
2024-02-27 09:34:59.273671,1709022899.273671,-15.625,-51.7578125,-42.48046875,-35.64453125,-1.0,1.0,-1.0,0.0,4.m4v,1.0
2024-02-27 09:34:59.277576,1709022899.2775764,-16.11328125,-56.15234375,-35.15625,-18.06640625,-1.0,1.0,-1.0,0.0,4.m4v,1.0
2024-02-27 09:34:59.281482,1709022899.2814822,-13.18359375,-50.29296875,-40.52734375,-13.671875,-1.0,1.0,-1.0,0.0,4.m4v,1.0
2024-02-27 09:34:59.285388,1709022899.285388,-19.53125,-38.57421875,-43.45703125,-32.71484375,-1.0,1.0,-1.0,0.0,4.m4v,1.0
2024-02-27 09:34:59.289294,1709022899.2892938,-50.78125,-31.73828125,-35.64453125,-45.41015625,-1.0,1.0,-1.0,0.0,4.m4v,1.0
2024-02-27 09:34:59.293200,1709022899.2931995,-44.921875,-21.484375,-37.59765625,-45.8984375,-1.0,1.0,-1.0,0.0,4.m4v,1.0
2024-02-27 09:34:59.297105,1709022899.2971053,-33.69140625,-14.16015625,-46.875,-48.33984375,-1.0,1.0,-1.0,0.0,4.m4v,1.0
2024-02-27 09:34:59.301011,1709022899.301011,-29.78515625,-19.53125,-41.9921875,-44.43359375,-1.0,1.0,-1.0,0.0,4.m4v,1.0
2024-02-27 09:34:59.304917,1709022899.3049169,-8.7890625,-29.78515625,-48.828125,-39.55078125,-1.0,1.0,-1.0,0.0,4.m4v,1.0
2024-02-27 09:34:59.308823,1709022899.3088226,-37.59765625,-38.57421875,-56.640625,-45.8984375,-1.0,1.0,-1.0,0.0,4.m4v,1.0
2024-02-27 09:34:59.312728,1709022899.3127284,-51.26953125,-34.1796875,-28.80859375,-33.203125,-1.0,1.0,-1.0,0.0,4.m4v,1.0
2024-02-27 09:34:59.316634,1709022899.316634,-31.73828125,-33.69140625,-25.87890625,-27.34375,-1.0,1.0,-1.0,0.0,4.m4v,1.0
2024-02-27 09:34:59.320544,1709022899.320544,-31.73828125,-40.0390625,-46.38671875,-35.64453125,-1.0,1.0,-1.0,0.0,4.m4v,1.0
2024-02-27 09:34:59.324450,1709022899.3244495,-21.97265625,-35.64453125,-38.0859375,-28.80859375,-1.0,1.0,-1.0,0.0,4.m4v,1.0
2024-02-27 09:34:59.328355,1709022899.3283553,-29.78515625,-49.8046875,-36.62109375,-29.78515625,-1.0,1.0,-1.0,0.0,4.m4v,1.0
2024-02-27 09:34:59.332261,1709022899.332261,-51.26953125,-64.94140625,-50.29296875,-38.0859375,-1.0,1.0,-1.0,0.0,4.m4v,1.0
2024-02-27 09:34:59.336167,1709022899.3361669,-41.50390625,-47.36328125,-51.26953125,-39.55078125,-1.0,1.0,-1.0,0.0,4.m4v,1.0
2024-02-27 09:34:59.340073,1709022899.3400726,-35.15625,-22.4609375,-54.19921875,-42.48046875,-1.0,1.0,-1.0,0.0,4.m4v,1.0
2024-02-27 09:34:59.343978,1709022899.3439784,-38.0859375,-20.5078125,-46.38671875,-54.19921875,-1.0,1.0,-1.0,0.0,4.m4v,1.0
2024-02-27 09:34:59.347884,1709022899.3478842,-40.52734375,-30.76171875,-30.76171875,-49.8046875,-1.0,1.0,-1.0,0.0,4.m4v,1.0
2024-02-27 09:34:59.351790,1709022899.35179,-49.31640625,-29.78515625,-45.8984375,-47.8515625,-1.0,1.0,-1.0,0.0,4.m4v,1.0
2024-02-27 09:34:59.355696,1709022899.3556955,-41.015625,-22.4609375,-50.29296875,-47.8515625,-1.0,1.0,-1.0,0.0,4.m4v,1.0
2024-02-27 09:34:59.359601,1709022899.3596015,-26.3671875,-16.6015625,-36.62109375,-25.390625,-1.0,1.0,-1.0,0.0,4.m4v,1.0
2024-02-27 09:34:59.363507,1709022899.363507,-35.15625,-26.85546875,-56.15234375,-47.8515625,-1.0,1.0,-1.0,0.0,4.m4v,1.0
2024-02-27 09:34:59.367415,1709022899.3674154,-37.59765625,-39.55078125,-51.7578125,-58.10546875,-1.0,1.0,-1.0,0.0,4.m4v,1.0
2024-02-27 09:34:59.371321,1709022899.3713212,-34.66796875,-44.921875,-31.73828125,-46.38671875,-1.0,1.0,-1.0,0.0,4.m4v,1.0
2024-02-27 09:34:59.375227,1709022899.375227,-34.66796875,-36.62109375,-31.25,-34.66796875,-1.0,1.0,-1.0,0.0,4.m4v,1.0
2024-02-27 09:34:59.379133,1709022899.3791327,-35.64453125,-36.62109375,-47.8515625,-26.3671875,-1.0,1.0,-1.0,0.0,4.m4v,1.0
2024-02-27 09:34:59.383039,1709022899.3830383,-56.15234375,-43.45703125,-55.17578125,-54.19921875,-1.0,1.0,-1.0,0.0,4.m4v,1.0
2024-02-27 09:34:59.386944,1709022899.3869443,-68.84765625,-41.50390625,-50.29296875,-78.125,-1.0,1.0,-1.0,0.0,4.m4v,1.0
2024-02-27 09:34:59.390850,1709022899.3908498,-63.4765625,-37.109375,-39.55078125,-59.08203125,-1.0,1.0,-1.0,0.0,4.m4v,1.0
2024-02-27 09:34:59.394756,1709022899.3947556,-51.7578125,-29.78515625,-39.0625,-36.62109375,-1.0,1.0,-1.0,0.0,4.m4v,1.0
2024-02-27 09:34:59.398661,1709022899.3986614,-20.5078125,-19.04296875,-41.50390625,-24.4140625,-1.0,1.0,-1.0,0.0,4.m4v,1.0
2024-02-27 09:34:59.402567,1709022899.4025671,-24.4140625,-21.97265625,-40.0390625,-31.25,-1.0,1.0,-1.0,0.0,4.m4v,1.0
2024-02-27 09:34:59.406473,1709022899.406473,-52.24609375,-30.76171875,-46.875,-39.0625,-1.0,1.0,-1.0,0.0,4.m4v,1.0
2024-02-27 09:34:59.410379,1709022899.4103787,-63.96484375,-45.41015625,-43.9453125,-53.7109375,-1.0,1.0,-1.0,0.0,4.m4v,1.0
2024-02-27 09:34:59.414288,1709022899.4142876,-42.48046875,-55.6640625,-51.7578125,-44.921875,-1.0,1.0,-1.0,0.0,4.m4v,1.0
2024-02-27 09:34:59.668175,1709022899.6681745,-10.7421875,-29.78515625,-25.87890625,-16.11328125,-1.0,1.0,-1.0,0.0,4.m4v,1.0
2024-02-27 09:34:59.672080,1709022899.6720805,-32.2265625,-43.45703125,-37.109375,-27.34375,-1.0,1.0,-1.0,0.0,4.m4v,1.0
2024-02-27 09:34:59.675986,1709022899.675986,-33.69140625,-54.6875,-39.0625,-26.85546875,-1.0,1.0,-1.0,0.0,4.m4v,1.0
2024-02-27 09:34:59.679892,1709022899.6798918,-19.04296875,-40.52734375,-42.96875,-15.13671875,-1.0,1.0,-1.0,0.0,4.m4v,1.0
2024-02-27 09:34:59.683798,1709022899.6837976,-42.96875,-39.55078125,-57.12890625,-10.7421875,-1.0,1.0,-1.0,0.0,4.m4v,1.0
2024-02-27 09:34:59.687703,1709022899.6877034,-70.80078125,-48.828125,-66.89453125,-31.73828125,-1.0,1.0,-1.0,0.0,4.m4v,1.0
2024-02-27 09:34:59.691609,1709022899.6916091,-47.8515625,-39.55078125,-52.24609375,-29.296875,-1.0,1.0,-1.0,0.0,4.m4v,1.0
2024-02-27 09:34:59.695518,1709022899.6955175,-27.83203125,-22.94921875,-34.66796875,-22.4609375,-1.0,1.0,-1.0,0.0,4.m4v,1.0
2024-02-27 09:34:59.695518,1709022899.6955175,-27.83203125,-22.94921875,-34.66796875,-22.4609375,-1.0,1.0,-1.0,0.0,4.m4v,1.0
2024-02-27 09:34:59.699423,1709022899.699423,-51.26953125,-22.94921875,-37.59765625,-42.48046875,-1.0,1.0,-1.0,0.0,4.m4v,1.0
2024-02-27 09:34:59.699423,1709022899.699423,-51.26953125,-22.94921875,-37.59765625,-42.48046875,-1.0,1.0,-1.0,0.0,4.m4v,1.0
2024-02-27 09:34:59.703329,1709022899.7033288,-44.43359375,-20.01953125,-27.83203125,-36.1328125,-1.0,1.0,-1.0,0.0,4.m4v,1.0
2024-02-27 09:34:59.703329,1709022899.7033288,-44.43359375,-20.01953125,-27.83203125,-36.1328125,-1.0,1.0,-1.0,0.0,4.m4v,1.0
2024-02-27 09:34:59.707235,1709022899.7072346,-28.80859375,-9.765625,-21.484375,-42.96875,-1.0,1.0,-1.0,0.0,4.m4v,1.0
2024-02-27 09:34:59.707235,1709022899.7072346,-28.80859375,-9.765625,-21.484375,-42.96875,-1.0,1.0,-1.0,0.0,4.m4v,1.0
2024-02-27 09:34:59.711140,1709022899.7111404,-29.78515625,-4.8828125,-33.69140625,-35.15625,-1.0,1.0,-1.0,0.0,4.m4v,1.0
2024-02-27 09:34:59.711140,1709022899.7111404,-29.78515625,-4.8828125,-33.69140625,-35.15625,-1.0,1.0,-1.0,0.0,4.m4v,1.0
2024-02-27 09:34:59.715046,1709022899.7150462,-33.203125,-15.625,-50.78125,-31.25,-1.0,1.0,-1.0,0.0,4.m4v,1.0
2024-02-27 09:34:59.715046,1709022899.7150462,-33.203125,-15.625,-50.78125,-31.25,-1.0,1.0,-1.0,0.0,4.m4v,1.0
2024-02-27 09:35:00.000181,1709022900.0001812,-46.38671875,-38.0859375,-43.9453125,-49.8046875,-1.0,1.0,-1.0,0.0,4.m4v,1.0
2024-02-27 09:35:00.004087,1709022900.0040867,-49.8046875,-25.87890625,-38.57421875,-44.921875,-1.0,1.0,-1.0,0.0,4.m4v,1.0
2024-02-27 09:35:00.007993,1709022900.0079925,-40.52734375,-7.8125,-27.34375,-29.78515625,-1.0,1.0,-1.0,0.0,4.m4v,1.0
2024-02-27 09:35:00.011898,1709022900.0118985,-39.0625,-16.6015625,-30.2734375,-29.296875,-1.0,1.0,-1.0,0.0,4.m4v,1.0
2024-02-27 09:35:00.015804,1709022900.015804,-33.69140625,-26.3671875,-38.57421875,-36.1328125,-1.0,1.0,-1.0,0.0,4.m4v,1.0
2024-02-27 09:35:00.019710,1709022900.0197098,-26.85546875,-17.08984375,-38.0859375,-30.2734375,-1.0,1.0,-1.0,0.0,4.m4v,1.0
2024-02-27 09:35:00.339998,1709022900.3399975,5.37109375,-25.87890625,-39.55078125,-18.5546875,-1.0,1.0,-1.0,0.0,4.m4v,1.0
2024-02-27 09:35:00.343903,1709022900.3439033,-18.5546875,-23.4375,-35.15625,-19.04296875,-1.0,1.0,-1.0,0.0,4.m4v,1.0
2024-02-27 09:35:00.343903,1709022900.3439033,-18.5546875,-23.4375,-35.15625,-19.04296875,-1.0,1.0,-1.0,0.0,4.m4v,1.0
2024-02-27 09:35:00.347809,1709022900.347809,-4.8828125,-33.203125,-19.53125,-11.71875,-1.0,1.0,-1.0,0.0,4.m4v,1.0
2024-02-27 09:35:00.347809,1709022900.347809,-4.8828125,-33.203125,-19.53125,-11.71875,-1.0,1.0,-1.0,0.0,4.m4v,1.0
2024-02-27 09:35:00.351718,1709022900.3517177,-19.53125,-56.640625,-38.57421875,-20.01953125,-1.0,1.0,-1.0,0.0,4.m4v,1.0
2024-02-27 09:35:00.351718,1709022900.3517177,-19.53125,-56.640625,-38.57421875,-20.01953125,-1.0,1.0,-1.0,0.0,4.m4v,1.0
2024-02-27 09:35:00.355623,1709022900.3556235,-48.33984375,-45.8984375,-45.41015625,-19.53125,-1.0,1.0,-1.0,0.0,4.m4v,1.0
2024-02-27 09:35:00.355623,1709022900.3556235,-48.33984375,-45.8984375,-45.41015625,-19.53125,-1.0,1.0,-1.0,0.0,4.m4v,1.0
2024-02-27 09:35:00.359529,1709022900.3595293,-55.17578125,-33.203125,-43.9453125,-33.69140625,-1.0,1.0,-1.0,0.0,4.m4v,1.0
2024-02-27 09:35:00.359529,1709022900.3595293,-55.17578125,-33.203125,-43.9453125,-33.69140625,-1.0,1.0,-1.0,0.0,4.m4v,1.0
2024-02-27 09:35:00.363435,1709022900.363435,-43.9453125,-34.66796875,-50.29296875,-56.15234375,-1.0,1.0,-1.0,0.0,4.m4v,1.0
2024-02-27 09:35:00.363435,1709022900.363435,-43.9453125,-34.66796875,-50.29296875,-56.15234375,-1.0,1.0,-1.0,0.0,4.m4v,1.0
2024-02-27 09:35:00.367341,1709022900.3673408,-47.8515625,-31.25,-55.17578125,-61.5234375,-1.0,1.0,-1.0,0.0,4.m4v,1.0
2024-02-27 09:35:00.367341,1709022900.3673408,-47.8515625,-31.25,-55.17578125,-61.5234375,-1.0,1.0,-1.0,0.0,4.m4v,1.0
2024-02-27 09:35:00.371247,1709022900.3712466,-59.08203125,-24.90234375,-50.78125,-48.828125,-1.0,1.0,-1.0,0.0,4.m4v,1.0
2024-02-27 09:35:00.371247,1709022900.3712466,-59.08203125,-24.90234375,-50.78125,-48.828125,-1.0,1.0,-1.0,0.0,4.m4v,1.0
2024-02-27 09:35:00.375152,1709022900.3751523,-39.0625,-22.94921875,-36.62109375,-13.671875,-1.0,1.0,-1.0,0.0,4.m4v,1.0
2024-02-27 09:35:00.375152,1709022900.3751523,-39.0625,-22.94921875,-36.62109375,-13.671875,-1.0,1.0,-1.0,0.0,4.m4v,1.0
2024-02-27 09:35:00.379058,1709022900.379058,-9.765625,-26.85546875,-28.80859375,-8.7890625,-1.0,1.0,-1.0,0.0,4.m4v,1.0
2024-02-27 09:35:00.379058,1709022900.379058,-9.765625,-26.85546875,-28.80859375,-8.7890625,-1.0,1.0,-1.0,0.0,4.m4v,1.0
2024-02-27 09:35:00.382964,1709022900.3829637,6.8359375,-16.6015625,-19.04296875,-21.484375,-1.0,1.0,-1.0,0.0,4.m4v,1.0
2024-02-27 09:35:00.382964,1709022900.3829637,6.8359375,-16.6015625,-19.04296875,-21.484375,-1.0,1.0,-1.0,0.0,4.m4v,1.0
2024-02-27 09:35:00.386869,1709022900.3868694,-10.7421875,-16.11328125,-16.11328125,-19.04296875,-1.0,1.0,-1.0,0.0,4.m4v,1.0
2024-02-27 09:35:00.386869,1709022900.3868694,-10.7421875,-16.11328125,-16.11328125,-19.04296875,-1.0,1.0,-1.0,0.0,4.m4v,1.0
2024-02-27 09:35:00.390775,1709022900.3907752,-21.97265625,-20.5078125,-16.6015625,-15.13671875,-1.0,1.0,-1.0,0.0,4.m4v,1.0
2024-02-27 09:35:00.390775,1709022900.3907752,-21.97265625,-20.5078125,-16.6015625,-15.13671875,-1.0,1.0,-1.0,0.0,4.m4v,1.0
2024-02-27 09:35:00.394681,1709022900.394681,-9.765625,-32.2265625,-33.69140625,-15.13671875,-1.0,1.0,-1.0,0.0,4.m4v,1.0
2024-02-27 09:35:00.394681,1709022900.394681,-9.765625,-32.2265625,-33.69140625,-15.13671875,-1.0,1.0,-1.0,0.0,4.m4v,1.0
2024-02-27 09:35:00.398590,1709022900.3985898,-28.3203125,-42.48046875,-56.640625,-35.15625,-1.0,1.0,-1.0,0.0,4.m4v,1.0
2024-02-27 09:35:00.398590,1709022900.3985898,-28.3203125,-42.48046875,-56.640625,-35.15625,-1.0,1.0,-1.0,0.0,4.m4v,1.0
2024-02-27 09:35:00.402496,1709022900.4024956,-52.24609375,-46.875,-57.6171875,-67.3828125,-1.0,1.0,-1.0,0.0,4.m4v,1.0
2024-02-27 09:35:00.500145,1709022900.5001447,-27.83203125,-13.18359375,-32.2265625,-45.41015625,-1.0,1.0,-1.0,0.0,4.m4v,1.0
2024-02-27 09:35:00.504050,1709022900.5040505,-22.94921875,-3.41796875,-17.578125,-24.90234375,-1.0,1.0,-1.0,0.0,4.m4v,1.0
2024-02-27 09:35:00.507956,1709022900.5079565,0.48828125,9.765625,0.9765625,4.8828125,-1.0,1.0,-1.0,0.0,4.m4v,1.0
2024-02-27 09:35:00.511862,1709022900.511862,-20.5078125,-16.11328125,-35.64453125,-15.13671875,-1.0,1.0,-1.0,0.0,4.m4v,1.0
2024-02-27 09:35:00.515768,1709022900.5157678,-40.52734375,-61.03515625,-70.80078125,-33.69140625,-1.0,1.0,-1.0,0.0,4.m4v,1.0
2024-02-27 09:35:00.519674,1709022900.5196736,-38.0859375,-56.640625,-62.5,-41.015625,-1.0,1.0,-1.0,0.0,4.m4v,1.0
2024-02-27 09:35:00.523579,1709022900.5235794,-57.12890625,-56.640625,-60.546875,-74.70703125,-1.0,1.0,-1.0,0.0,4.m4v,1.0
2024-02-27 09:35:00.527485,1709022900.5274851,-58.10546875,-60.546875,-49.8046875,-54.6875,-1.0,1.0,-1.0,0.0,4.m4v,1.0
2024-02-27 09:35:00.531391,1709022900.531391,-48.33984375,-54.6875,-45.8984375,-40.0390625,-1.0,1.0,-1.0,0.0,4.m4v,1.0
2024-02-27 09:35:00.535297,1709022900.535297,-35.15625,-26.3671875,-36.62109375,-51.7578125,-1.0,1.0,-1.0,0.0,4.m4v,1.0
2024-02-27 09:35:00.539205,1709022900.5392046,-16.6015625,-15.625,-21.484375,-44.43359375,-1.0,1.0,-1.0,0.0,4.m4v,1.0
2024-02-27 09:35:00.543110,1709022900.5431104,-15.625,-16.11328125,-24.90234375,-31.25,-1.0,1.0,-1.0,0.0,4.m4v,1.0
2024-02-27 09:35:00.547016,1709022900.547016,-4.8828125,15.625,-20.99609375,-10.7421875,-1.0,1.0,-1.0,0.0,4.m4v,1.0
2024-02-27 09:35:00.550922,1709022900.550922,-12.6953125,10.7421875,-26.85546875,-14.16015625,-1.0,1.0,-1.0,0.0,4.m4v,1.0
2024-02-27 09:35:00.554828,1709022900.5548277,-39.55078125,-11.23046875,-48.828125,-33.203125,-1.0,1.0,-1.0,0.0,4.m4v,1.0
2024-02-27 09:35:00.558733,1709022900.5587332,-36.1328125,-30.2734375,-66.89453125,-43.9453125,-1.0,1.0,-1.0,0.0,4.m4v,1.0
2024-02-27 09:35:00.562639,1709022900.562639,-29.296875,-48.828125,-85.9375,-48.33984375,-1.0,1.0,-1.0,0.0,4.m4v,1.0
2024-02-27 09:35:00.566545,1709022900.5665448,-40.52734375,-56.640625,-88.37890625,-42.48046875,-1.0,1.0,-1.0,0.0,4.m4v,1.0
2024-02-27 09:35:00.570451,1709022900.5704503,-39.55078125,-49.31640625,-54.6875,-41.015625,-1.0,1.0,-1.0,0.0,4.m4v,1.0
2024-02-27 09:35:00.574356,1709022900.5743563,-19.53125,-33.69140625,-21.97265625,-32.71484375,-1.0,1.0,-1.0,0.0,4.m4v,1.0
2024-02-27 09:35:00.578262,1709022900.578262,-17.578125,-39.0625,-32.71484375,-44.43359375,-1.0,1.0,-1.0,0.0,4.m4v,1.0
2024-02-27 09:35:00.582168,1709022900.582168,-28.80859375,-42.48046875,-41.015625,-50.29296875,-1.0,1.0,-1.0,0.0,4.m4v,1.0
2024-02-27 09:35:00.586076,1709022900.5860758,-25.390625,-25.390625,-23.92578125,-25.390625,-1.0,1.0,-1.0,0.0,4.m4v,1.0
2024-02-27 09:35:00.589982,1709022900.5899816,7.32421875,18.5546875,1.46484375,1.953125,-1.0,1.0,-1.0,0.0,4.m4v,1.0
2024-02-27 09:35:00.593887,1709022900.593887,6.34765625,-0.48828125,-12.6953125,-7.8125,-1.0,1.0,-1.0,0.0,4.m4v,1.0
2024-02-27 09:35:00.597793,1709022900.597793,-34.1796875,-43.9453125,-49.8046875,-36.1328125,-1.0,1.0,-1.0,0.0,4.m4v,1.0
2024-02-27 09:35:00.601699,1709022900.6016989,-34.1796875,-27.83203125,-58.10546875,-37.59765625,-1.0,1.0,-1.0,0.0,4.m4v,1.0
2024-02-27 09:35:00.605605,1709022900.6056046,-21.97265625,-20.5078125,-67.3828125,-27.34375,-1.0,1.0,-1.0,0.0,4.m4v,1.0
2024-02-27 09:35:00.609510,1709022900.6095104,-41.015625,-41.9921875,-66.89453125,-11.23046875,-1.0,1.0,-1.0,0.0,4.m4v,1.0
2024-02-27 09:35:00.613416,1709022900.6134162,-55.17578125,-41.015625,-48.33984375,-27.34375,-1.0,1.0,-1.0,0.0,4.m4v,1.0
2024-02-27 09:35:00.617322,1709022900.6173215,-44.43359375,-40.0390625,-43.45703125,-33.203125,-1.0,1.0,-1.0,0.0,4.m4v,1.0
2024-02-27 09:35:00.621228,1709022900.6212275,-27.34375,-35.15625,-19.53125,-9.27734375,-1.0,1.0,-1.0,0.0,4.m4v,1.0
2024-02-27 09:35:00.625133,1709022900.6251333,-34.66796875,-33.69140625,-15.13671875,-30.2734375,-1.0,1.0,-1.0,0.0,4.m4v,1.0
2024-02-27 09:35:00.629039,1709022900.629039,-20.99609375,-17.08984375,-26.3671875,-26.3671875,-1.0,1.0,-1.0,0.0,4.m4v,1.0
2024-02-27 09:35:00.632947,1709022900.6329467,-20.5078125,-7.32421875,-26.85546875,-20.01953125,-1.0,1.0,-1.0,0.0,4.m4v,1.0
2024-02-27 09:35:00.636853,1709022900.6368525,-52.734375,-27.83203125,-48.33984375,-43.9453125,-1.0,1.0,-1.0,0.0,4.m4v,1.0
2024-02-27 09:35:00.640758,1709022900.6407585,-54.6875,-39.55078125,-72.265625,-49.8046875,-1.0,1.0,-1.0,0.0,4.m4v,1.0
2024-02-27 09:35:00.644664,1709022900.644664,-37.59765625,-34.1796875,-61.03515625,-38.0859375,-1.0,1.0,-1.0,0.0,4.m4v,1.0
2024-02-27 09:35:00.648570,1709022900.6485698,-41.50390625,-22.94921875,-49.31640625,-29.296875,-1.0,1.0,-1.0,0.0,4.m4v,1.0
2024-02-27 09:35:00.652476,1709022900.6524756,-44.921875,-26.85546875,-43.9453125,-20.5078125,-1.0,1.0,-1.0,0.0,4.m4v,1.0
2024-02-27 09:35:00.656381,1709022900.6563814,-26.3671875,-39.55078125,-30.76171875,-14.6484375,-1.0,1.0,-1.0,0.0,4.m4v,1.0
2024-02-27 09:35:00.660287,1709022900.660287,-42.48046875,-49.31640625,-48.33984375,-49.31640625,-1.0,1.0,-1.0,0.0,4.m4v,1.0
2024-02-27 09:35:00.664193,1709022900.664193,-39.0625,-44.43359375,-41.015625,-36.1328125,-1.0,1.0,-1.0,0.0,4.m4v,1.0
2024-02-27 09:35:00.668098,1709022900.6680984,-16.11328125,-25.87890625,-16.11328125,5.859375,-1.0,1.0,-1.0,0.0,4.m4v,1.0
2024-02-27 09:35:00.672004,1709022900.6720042,-29.296875,-21.97265625,-20.5078125,-12.20703125,-1.0,1.0,-1.0,0.0,4.m4v,1.0
2024-02-27 09:35:00.675910,1709022900.67591,-33.69140625,-30.2734375,-37.109375,-31.25,-1.0,1.0,-1.0,0.0,4.m4v,1.0
2024-02-27 09:35:00.679817,1709022900.6798174,-40.52734375,-46.875,-55.6640625,-46.875,-1.0,1.0,-1.0,0.0,4.m4v,1.0
2024-02-27 09:35:00.683723,1709022900.6837232,-42.96875,-37.109375,-52.24609375,-37.109375,-1.0,1.0,-1.0,0.0,4.m4v,1.0
2024-02-27 09:35:00.687629,1709022900.687629,-33.69140625,-13.18359375,-41.9921875,-19.53125,-1.0,1.0,-1.0,0.0,4.m4v,1.0
2024-02-27 09:35:00.691535,1709022900.6915348,-49.8046875,-18.5546875,-48.33984375,-35.64453125,-1.0,1.0,-1.0,0.0,4.m4v,1.0
2024-02-27 09:35:00.695441,1709022900.6954403,-56.15234375,-32.71484375,-43.45703125,-45.41015625,-1.0,1.0,-1.0,0.0,4.m4v,1.0
2024-02-27 09:35:00.699346,1709022900.6993463,-25.87890625,-43.45703125,-31.25,-29.296875,-1.0,1.0,-1.0,0.0,4.m4v,1.0
2024-02-27 09:35:00.703252,1709022900.7032518,-11.23046875,-40.0390625,-31.25,-19.53125,-1.0,1.0,-1.0,0.0,4.m4v,1.0
2024-02-27 09:35:00.707158,1709022900.7071576,-28.3203125,-33.69140625,-39.0625,-18.06640625,-1.0,1.0,-1.0,0.0,4.m4v,1.0
2024-02-27 09:35:00.711063,1709022900.7110634,-39.0625,-37.59765625,-52.734375,-21.97265625,-1.0,1.0,-1.0,0.0,4.m4v,1.0
2024-02-27 09:35:00.714969,1709022900.7149692,-32.2265625,-40.0390625,-36.62109375,-24.4140625,-1.0,1.0,-1.0,0.0,4.m4v,1.0
2024-02-27 09:35:00.718875,1709022900.718875,-38.0859375,-39.0625,-41.9921875,-40.52734375,-1.0,1.0,-1.0,0.0,4.m4v,1.0
2024-02-27 09:35:00.722781,1709022900.7227807,-46.875,-30.76171875,-66.40625,-55.6640625,-1.0,1.0,-1.0,0.0,4.m4v,1.0
2024-02-27 09:35:00.726689,1709022900.726689,-40.0390625,-27.83203125,-61.03515625,-54.6875,-1.0,1.0,-1.0,0.0,4.m4v,1.0
2024-02-27 09:35:00.730595,1709022900.730595,-50.78125,-31.73828125,-55.17578125,-56.640625,-1.0,1.0,-1.0,0.0,4.m4v,1.0
2024-02-27 09:35:00.734501,1709022900.734501,-61.03515625,-32.71484375,-53.22265625,-41.9921875,-1.0,1.0,-1.0,0.0,4.m4v,1.0
2024-02-27 09:35:00.738407,1709022900.738407,-8.30078125,-35.15625,-30.2734375,-2.9296875,-1.0,1.0,-1.0,0.0,4.m4v,1.0
2024-02-27 09:35:00.742312,1709022900.7423124,17.578125,-37.109375,-17.08984375,9.765625,-1.0,1.0,-1.0,0.0,4.m4v,1.0
2024-02-27 09:35:00.746218,1709022900.7462182,-35.64453125,-43.45703125,-51.26953125,-46.875,-1.0,1.0,-1.0,0.0,4.m4v,1.0
2024-02-27 09:35:00.968859,1709022900.9688587,-49.31640625,-66.89453125,-50.29296875,-45.41015625,-1.0,1.0,-1.0,0.0,4.m4v,1.0
2024-02-27 09:35:00.972764,1709022900.9727645,-39.55078125,-51.7578125,-33.203125,-29.296875,-1.0,1.0,-1.0,0.0,4.m4v,1.0
2024-02-27 09:35:00.976670,1709022900.97667,-55.6640625,-46.875,-41.50390625,-51.26953125,-1.0,1.0,-1.0,0.0,4.m4v,1.0
2024-02-27 09:35:00.980576,1709022900.9805758,-62.98828125,-39.0625,-58.59375,-72.265625,-1.0,1.0,-1.0,0.0,4.m4v,1.0
2024-02-27 09:35:00.984482,1709022900.9844816,-52.734375,-34.66796875,-51.26953125,-65.4296875,-1.0,1.0,-1.0,0.0,4.m4v,1.0
2024-02-27 09:35:00.988387,1709022900.988387,-45.41015625,-26.3671875,-52.24609375,-45.41015625,-1.0,1.0,-1.0,0.0,4.m4v,1.0
2024-02-27 09:35:00.992293,1709022900.9922931,-10.7421875,3.90625,-55.6640625,-19.53125,-1.0,1.0,-1.0,0.0,4.m4v,1.0
2024-02-27 09:35:00.996199,1709022900.996199,14.6484375,-0.48828125,-41.015625,-15.13671875,-1.0,1.0,-1.0,0.0,4.m4v,1.0
2024-02-27 09:35:01.000105,1709022901.000105,10.7421875,-17.08984375,-29.78515625,-6.8359375,-1.0,1.0,-1.0,0.0,4.m4v,1.0
2024-02-27 09:35:01.004010,1709022901.0040104,-9.765625,-29.296875,-27.83203125,-19.53125,-1.0,1.0,-1.0,0.0,4.m4v,1.0
2024-02-27 09:35:01.007918,1709022901.007918,-51.7578125,-64.94140625,-30.2734375,-58.10546875,-1.0,1.0,-1.0,0.0,4.m4v,1.0
2024-02-27 09:35:01.011824,1709022901.011824,-75.68359375,-68.84765625,-32.71484375,-70.3125,-1.0,1.0,-1.0,0.0,4.m4v,1.0
2024-02-27 09:35:01.015730,1709022901.0157297,-57.12890625,-53.22265625,-35.64453125,-71.2890625,-1.0,1.0,-1.0,0.0,4.m4v,1.0
2024-02-27 09:35:01.019635,1709022901.0196354,-39.0625,-32.71484375,-34.1796875,-58.59375,-1.0,1.0,-1.0,0.0,4.m4v,1.0
2024-02-27 09:35:01.023541,1709022901.0235412,-53.7109375,-22.4609375,-39.0625,-56.640625,-1.0,1.0,-1.0,0.0,4.m4v,1.0
2024-02-27 09:35:01.027447,1709022901.027447,-54.19921875,-20.99609375,-47.8515625,-61.03515625,-1.0,1.0,-1.0,0.0,4.m4v,1.0
2024-02-27 09:35:01.031353,1709022901.0313528,-41.9921875,-31.25,-44.921875,-50.29296875,-1.0,1.0,-1.0,0.0,4.m4v,1.0
2024-02-27 09:35:01.035258,1709022901.0352583,-44.921875,-38.57421875,-46.38671875,-44.921875,-1.0,1.0,-1.0,0.0,4.m4v,1.0
2024-02-27 09:35:01.039164,1709022901.039164,-40.0390625,-22.94921875,-51.26953125,-35.64453125,-1.0,1.0,-1.0,0.0,4.m4v,1.0
2024-02-27 09:35:01.043070,1709022901.0430698,-34.1796875,-22.94921875,-47.36328125,-33.69140625,-1.0,1.0,-1.0,0.0,4.m4v,1.0
2024-02-27 09:35:01.046976,1709022901.0469756,-32.2265625,-51.26953125,-48.828125,-29.78515625,-1.0,1.0,-1.0,0.0,4.m4v,1.0
2024-02-27 09:35:01.050881,1709022901.0508814,-38.57421875,-58.59375,-51.26953125,-29.296875,-1.0,1.0,-1.0,0.0,4.m4v,1.0
2024-02-27 09:35:01.054789,1709022901.054789,-32.71484375,-36.62109375,-46.875,-43.9453125,-1.0,1.0,-1.0,0.0,4.m4v,1.0
2024-02-27 09:35:01.058695,1709022901.0586948,-33.69140625,-32.71484375,-51.7578125,-43.45703125,-1.0,1.0,-1.0,0.0,4.m4v,1.0
2024-02-27 09:35:01.062601,1709022901.0626006,-28.80859375,-22.94921875,-38.57421875,-22.4609375,-1.0,1.0,-1.0,0.0,4.m4v,1.0
2024-02-27 09:35:01.097752,1709022901.0977523,-38.57421875,-25.87890625,-41.50390625,-28.3203125,-1.0,1.0,-1.0,0.0,4.m4v,1.0
2024-02-27 09:35:01.101661,1709022901.1016614,-19.53125,-5.859375,-25.87890625,-25.390625,-1.0,1.0,-1.0,0.0,4.m4v,1.0
2024-02-27 09:35:01.105567,1709022901.105567,-11.23046875,-26.3671875,-37.109375,-16.6015625,-1.0,1.0,-1.0,0.0,4.m4v,1.0
2024-02-27 09:35:01.199312,1709022901.199312,-23.92578125,-34.1796875,-52.24609375,-28.80859375,-1.0,1.0,-1.0,0.0,4.m4v,1.0
2024-02-27 09:35:01.207124,1709022901.2071235,-13.18359375,-41.015625,-20.01953125,-13.18359375,-1.0,1.0,-1.0,0.0,4.m4v,1.0
2024-02-27 09:35:01.214935,1709022901.214935,-31.25,-27.34375,-56.640625,-22.4609375,-1.0,1.0,-1.0,0.0,4.m4v,1.0
2024-02-27 09:35:01.222747,1709022901.2227466,-55.17578125,-40.0390625,-33.203125,-50.29296875,-1.0,1.0,-1.0,0.0,4.m4v,1.0
2024-02-27 09:35:01.230558,1709022901.2305582,-57.12890625,-27.34375,-38.57421875,-40.52734375,-1.0,1.0,-1.0,0.0,4.m4v,1.0
2024-02-27 09:35:01.234464,1709022901.2344637,-49.8046875,-33.69140625,-44.43359375,-49.31640625,-1.0,1.0,-1.0,0.0,4.m4v,1.0
2024-02-27 09:35:01.238369,1709022901.2383697,-37.109375,-22.94921875,-37.109375,-39.55078125,-1.0,1.0,-1.0,0.0,4.m4v,1.0
2024-02-27 09:35:01.242278,1709022901.242278,-30.2734375,-20.5078125,-55.6640625,-23.4375,-1.0,1.0,-1.0,0.0,4.m4v,1.0
2024-02-27 09:35:01.246183,1709022901.2461834,-12.6953125,-32.2265625,-56.15234375,-33.203125,-1.0,1.0,-1.0,0.0,4.m4v,1.0
2024-02-27 09:35:01.250089,1709022901.2500892,-16.6015625,-33.203125,-41.015625,-31.73828125,-1.0,1.0,-1.0,0.0,4.m4v,1.0
2024-02-27 09:35:01.253995,1709022901.253995,-36.1328125,-56.640625,-36.62109375,-32.2265625,-1.0,1.0,-1.0,0.0,4.m4v,1.0
2024-02-27 09:35:01.257901,1709022901.2579007,-47.8515625,-62.98828125,-42.48046875,-57.12890625,-1.0,1.0,-1.0,0.0,4.m4v,1.0
2024-02-27 09:35:01.261806,1709022901.2618065,-35.15625,-27.83203125,-45.41015625,-50.29296875,-1.0,1.0,-1.0,0.0,4.m4v,1.0
2024-02-27 09:35:01.265712,1709022901.2657125,-21.484375,-8.7890625,-27.83203125,-18.5546875,-1.0,1.0,-1.0,0.0,4.m4v,1.0
2024-02-27 09:35:01.269618,1709022901.269618,-49.8046875,-24.4140625,-29.296875,-32.2265625,-1.0,1.0,-1.0,0.0,4.m4v,1.0
2024-02-27 09:35:01.308678,1709022901.308678,-20.5078125,-14.16015625,-32.71484375,-23.92578125,-1.0,1.0,-1.0,0.0,4.m4v,1.0
2024-02-27 09:35:01.312584,1709022901.3125837,-30.2734375,-35.64453125,-40.0390625,-37.59765625,-1.0,1.0,-1.0,0.0,4.m4v,1.0
2024-02-27 09:35:01.316489,1709022901.3164897,-35.15625,-46.38671875,-41.9921875,-34.66796875,-1.0,1.0,-1.0,0.0,4.m4v,1.0
2024-02-27 09:35:01.320395,1709022901.3203952,-18.06640625,-24.90234375,-53.22265625,-40.0390625,-1.0,1.0,-1.0,0.0,4.m4v,1.0
2024-02-27 09:35:01.324301,1709022901.324301,-20.01953125,-28.3203125,-57.6171875,-40.0390625,-1.0,1.0,-1.0,0.0,4.m4v,1.0
2024-02-27 09:35:01.328207,1709022901.3282068,-3.90625,-37.59765625,-48.33984375,-21.97265625,-1.0,1.0,-1.0,0.0,4.m4v,1.0
2024-02-27 09:35:01.332113,1709022901.3321126,-24.4140625,-33.203125,-46.875,-15.625,-1.0,1.0,-1.0,0.0,4.m4v,1.0
2024-02-27 09:35:01.336020,1709022901.3360202,-61.03515625,-34.66796875,-46.38671875,-44.921875,-1.0,1.0,-1.0,0.0,4.m4v,1.0
2024-02-27 09:35:01.339926,1709022901.339926,-45.41015625,-31.25,-28.80859375,-42.48046875,-1.0,1.0,-1.0,0.0,4.m4v,1.0
2024-02-27 09:35:01.343832,1709022901.3438318,-30.76171875,-35.64453125,-33.69140625,-25.87890625,-1.0,1.0,-1.0,0.0,4.m4v,1.0
2024-02-27 09:35:01.347738,1709022901.3477376,-52.24609375,-44.43359375,-46.38671875,-48.33984375,-1.0,1.0,-1.0,0.0,4.m4v,1.0
2024-02-27 09:35:01.351643,1709022901.351643,-34.66796875,-45.41015625,-31.25,-34.66796875,-1.0,1.0,-1.0,0.0,4.m4v,1.0
2024-02-27 09:35:01.355549,1709022901.355549,6.8359375,-25.87890625,-24.90234375,-13.671875,-1.0,1.0,-1.0,0.0,4.m4v,1.0
2024-02-27 09:35:01.359455,1709022901.3594549,-24.4140625,-17.08984375,-35.15625,-22.94921875,-1.0,1.0,-1.0,0.0,4.m4v,1.0
2024-02-27 09:35:01.363361,1709022901.3633606,-47.8515625,-45.41015625,-45.41015625,-36.1328125,-1.0,1.0,-1.0,0.0,4.m4v,1.0
2024-02-27 09:35:01.367266,1709022901.3672664,-58.10546875,-70.3125,-63.4765625,-41.015625,-1.0,1.0,-1.0,0.0,4.m4v,1.0
2024-02-27 09:35:01.371172,1709022901.371172,-56.640625,-54.6875,-75.68359375,-30.76171875,-1.0,1.0,-1.0,0.0,4.m4v,1.0
2024-02-27 09:35:01.375078,1709022901.3750775,-48.33984375,-53.22265625,-83.0078125,-36.62109375,-1.0,1.0,-1.0,0.0,4.m4v,1.0
2024-02-27 09:35:01.378983,1709022901.3789835,-40.0390625,-62.98828125,-69.3359375,-35.15625,-1.0,1.0,-1.0,0.0,4.m4v,1.0
2024-02-27 09:35:01.382891,1709022901.3828912,-35.15625,-42.96875,-46.875,-19.04296875,-1.0,1.0,-1.0,0.0,4.m4v,1.0
2024-02-27 09:35:01.386797,1709022901.386797,-45.41015625,-34.66796875,-26.3671875,-26.3671875,-1.0,1.0,-1.0,0.0,4.m4v,1.0
2024-02-27 09:35:01.390703,1709022901.3907027,-53.22265625,-37.109375,-29.296875,-43.9453125,-1.0,1.0,-1.0,0.0,4.m4v,1.0
2024-02-27 09:35:01.394608,1709022901.3946085,-49.31640625,-28.3203125,-36.62109375,-44.43359375,-1.0,1.0,-1.0,0.0,4.m4v,1.0
2024-02-27 09:35:01.398514,1709022901.3985145,-22.94921875,-30.2734375,-38.0859375,-26.3671875,-1.0,1.0,-1.0,0.0,4.m4v,1.0
2024-02-27 09:35:01.402420,1709022901.40242,-19.04296875,-41.9921875,-47.36328125,-25.390625,-1.0,1.0,-1.0,0.0,4.m4v,1.0
2024-02-27 09:35:01.406326,1709022901.4063258,-65.91796875,-51.26953125,-59.08203125,-45.41015625,-1.0,1.0,-1.0,0.0,4.m4v,1.0
2024-02-27 09:35:01.410232,1709022901.4102316,-63.4765625,-43.9453125,-53.22265625,-36.1328125,-1.0,1.0,-1.0,0.0,4.m4v,1.0
2024-02-27 09:35:01.414137,1709022901.4141374,-27.83203125,-30.76171875,-53.22265625,-14.6484375,-1.0,1.0,-1.0,0.0,4.m4v,1.0
2024-02-27 09:35:01.418043,1709022901.418043,-46.875,-35.15625,-83.984375,-26.85546875,-1.0,1.0,-1.0,0.0,4.m4v,1.0
2024-02-27 09:35:01.421949,1709022901.421949,-69.3359375,-50.78125,-78.61328125,-36.62109375,-1.0,1.0,-1.0,0.0,4.m4v,1.0
2024-02-27 09:35:01.425854,1709022901.4258544,-37.109375,-31.25,-24.4140625,-3.41796875,-1.0,1.0,-1.0,0.0,4.m4v,1.0
2024-02-27 09:35:01.429762,1709022901.429762,-31.73828125,-39.0625,-19.04296875,-9.27734375,-1.0,1.0,-1.0,0.0,4.m4v,1.0
2024-02-27 09:35:01.433668,1709022901.4336677,-28.80859375,-43.9453125,-35.15625,-26.3671875,-1.0,1.0,-1.0,0.0,4.m4v,1.0
2024-02-27 09:35:01.437573,1709022901.4375734,-5.37109375,-26.3671875,-11.23046875,-14.16015625,-1.0,1.0,-1.0,0.0,4.m4v,1.0
2024-02-27 09:35:01.441479,1709022901.4414792,-29.296875,-28.80859375,-6.34765625,-19.53125,-1.0,1.0,-1.0,0.0,4.m4v,1.0
2024-02-27 09:35:01.445385,1709022901.445385,-51.26953125,-16.11328125,-52.24609375,-23.92578125,-1.0,1.0,-1.0,0.0,4.m4v,1.0
2024-02-27 09:35:01.449291,1709022901.4492908,-59.5703125,-28.80859375,-81.0546875,-43.9453125,-1.0,1.0,-1.0,0.0,4.m4v,1.0
2024-02-27 09:35:01.453197,1709022901.4531963,-53.22265625,-41.50390625,-58.59375,-40.0390625,-1.0,1.0,-1.0,0.0,4.m4v,1.0
2024-02-27 09:35:01.457102,1709022901.4571023,-39.0625,-41.50390625,-52.734375,-31.25,-1.0,1.0,-1.0,0.0,4.m4v,1.0
2024-02-27 09:35:01.461008,1709022901.4610078,-39.55078125,-50.78125,-40.0390625,-44.43359375,-1.0,1.0,-1.0,0.0,4.m4v,1.0
2024-02-27 09:35:01.464914,1709022901.4649136,-35.64453125,-50.29296875,-11.23046875,-21.484375,-1.0,1.0,-1.0,0.0,4.m4v,1.0
2024-02-27 09:35:01.468819,1709022901.4688194,-20.99609375,-33.69140625,7.32421875,17.08984375,-1.0,1.0,-1.0,0.0,4.m4v,1.0
