Timestamp,Timestamp_UNIX,TP9,AF7,AF8,TP10,Valence,Arousal,Dominace,Viewed,Video,Participant
2024-02-28 10:22:48.009074,1709112168.0090744,-22.94921875,-42.48046875,-34.66796875,-4.8828125,1.0,1.0,0.0,0.0,3.m4v,8.0
2024-02-28 10:22:48.016886,1709112168.0168858,-22.94921875,-24.90234375,-15.13671875,-8.30078125,1.0,1.0,0.0,0.0,3.m4v,8.0
2024-02-28 10:22:48.028603,1709112168.0286026,-37.109375,-25.87890625,-21.484375,-35.15625,1.0,1.0,0.0,0.0,3.m4v,8.0
2024-02-28 10:22:48.040319,1709112168.0403194,-29.296875,-30.2734375,-35.15625,-39.0625,1.0,1.0,0.0,0.0,3.m4v,8.0
2024-02-28 10:22:48.048136,1709112168.0481355,-38.0859375,-36.1328125,-34.66796875,-23.4375,1.0,1.0,0.0,0.0,3.m4v,8.0
2024-02-28 10:22:48.700447,1709112168.7004466,-28.3203125,-37.59765625,-46.875,-41.50390625,1.0,1.0,0.0,0.0,3.m4v,8.0
2024-02-28 10:22:48.704352,1709112168.704352,-39.55078125,-36.62109375,-41.50390625,-54.6875,1.0,1.0,0.0,0.0,3.m4v,8.0
2024-02-28 10:22:48.708258,1709112168.708258,-43.45703125,-19.53125,-44.43359375,-58.10546875,1.0,1.0,0.0,0.0,3.m4v,8.0
2024-02-28 10:22:48.712163,1709112168.7121634,-39.55078125,-22.4609375,-49.8046875,-54.19921875,1.0,1.0,0.0,0.0,3.m4v,8.0
2024-02-28 10:22:48.716069,1709112168.716069,-30.76171875,-27.34375,-32.2265625,-52.734375,1.0,1.0,0.0,0.0,3.m4v,8.0
2024-02-28 10:22:48.719975,1709112168.7199748,-30.2734375,-19.53125,-16.6015625,-42.48046875,1.0,1.0,0.0,0.0,3.m4v,8.0
2024-02-28 10:22:48.723880,1709112168.7238803,-19.53125,-11.23046875,-30.2734375,-30.2734375,1.0,1.0,0.0,0.0,3.m4v,8.0
2024-02-28 10:22:48.727786,1709112168.727786,-24.4140625,-22.94921875,-44.921875,-41.50390625,1.0,1.0,0.0,0.0,3.m4v,8.0
2024-02-28 10:22:48.731692,1709112168.7316916,-20.99609375,-24.90234375,-29.78515625,-37.59765625,1.0,1.0,0.0,0.0,3.m4v,8.0
2024-02-28 10:22:48.735597,1709112168.7355971,-22.4609375,-26.3671875,-32.2265625,-29.78515625,1.0,1.0,0.0,0.0,3.m4v,8.0
2024-02-28 10:22:48.739503,1709112168.739503,-43.45703125,-44.921875,-39.0625,-46.875,1.0,1.0,0.0,0.0,3.m4v,8.0
2024-02-28 10:22:48.743408,1709112168.7434084,-47.8515625,-48.828125,-45.8984375,-44.921875,1.0,1.0,0.0,0.0,3.m4v,8.0
2024-02-28 10:22:48.747319,1709112168.747319,-47.8515625,-43.9453125,-56.640625,-36.62109375,1.0,1.0,0.0,0.0,3.m4v,8.0
2024-02-28 10:22:48.751225,1709112168.7512245,-18.06640625,-39.55078125,-43.9453125,-33.203125,1.0,1.0,0.0,0.0,3.m4v,8.0
2024-02-28 10:22:48.755130,1709112168.7551303,-8.7890625,-28.80859375,-27.34375,-26.3671875,1.0,1.0,0.0,0.0,3.m4v,8.0
2024-02-28 10:22:48.759036,1709112168.7590358,-33.203125,-20.5078125,-27.83203125,-33.69140625,1.0,1.0,0.0,0.0,3.m4v,8.0
2024-02-28 10:22:48.762942,1709112168.7629416,-39.55078125,-22.94921875,-20.5078125,-49.8046875,1.0,1.0,0.0,0.0,3.m4v,8.0
2024-02-28 10:22:48.766847,1709112168.7668471,-30.76171875,-26.3671875,-11.23046875,-44.921875,1.0,1.0,0.0,0.0,3.m4v,8.0
2024-02-28 10:22:48.770753,1709112168.770753,-27.34375,-27.34375,-32.2265625,-28.3203125,1.0,1.0,0.0,0.0,3.m4v,8.0
2024-02-28 10:22:48.774658,1709112168.7746584,-31.25,-17.578125,-18.5546875,-26.3671875,1.0,1.0,0.0,0.0,3.m4v,8.0
2024-02-28 10:22:48.778564,1709112168.778564,-29.296875,-16.11328125,-2.44140625,-32.2265625,1.0,1.0,0.0,0.0,3.m4v,8.0
2024-02-28 10:22:48.782470,1709112168.7824695,-20.01953125,-22.4609375,-25.390625,-34.66796875,1.0,1.0,0.0,0.0,3.m4v,8.0
2024-02-28 10:22:48.786375,1709112168.7863753,-23.92578125,-39.0625,-39.0625,-33.69140625,1.0,1.0,0.0,0.0,3.m4v,8.0
2024-02-28 10:22:48.790281,1709112168.7902808,-32.71484375,-45.8984375,-46.875,-30.2734375,1.0,1.0,0.0,0.0,3.m4v,8.0
2024-02-28 10:22:48.794191,1709112168.7941914,-32.2265625,-35.64453125,-58.59375,-22.94921875,1.0,1.0,0.0,0.0,3.m4v,8.0
2024-02-28 10:22:48.942618,1709112168.942618,-47.8515625,-40.0390625,-37.109375,-49.8046875,1.0,1.0,0.0,0.0,3.m4v,8.0
2024-02-28 10:22:48.946524,1709112168.9465237,-45.41015625,-33.69140625,-30.76171875,-38.57421875,1.0,1.0,0.0,0.0,3.m4v,8.0
2024-02-28 10:22:48.950429,1709112168.9504294,-39.55078125,-28.3203125,-26.85546875,-32.71484375,1.0,1.0,0.0,0.0,3.m4v,8.0
2024-02-28 10:22:48.954335,1709112168.954335,-57.6171875,-39.0625,-38.0859375,-33.69140625,1.0,1.0,0.0,0.0,3.m4v,8.0
2024-02-28 10:22:48.958241,1709112168.9582405,-56.640625,-51.26953125,-44.43359375,-43.45703125,1.0,1.0,0.0,0.0,3.m4v,8.0
2024-02-28 10:22:48.962146,1709112168.9621463,-30.76171875,-42.96875,-41.9921875,-55.6640625,1.0,1.0,0.0,0.0,3.m4v,8.0
2024-02-28 10:22:48.966052,1709112168.9660518,-34.66796875,-38.0859375,-40.52734375,-51.7578125,1.0,1.0,0.0,0.0,3.m4v,8.0
2024-02-28 10:22:48.969958,1709112168.9699576,-21.97265625,-25.87890625,-46.875,-37.109375,1.0,1.0,0.0,0.0,3.m4v,8.0
2024-02-28 10:22:48.973863,1709112168.9738631,-11.71875,-15.13671875,-42.48046875,-15.625,1.0,1.0,0.0,0.0,3.m4v,8.0
2024-02-28 10:22:48.977769,1709112168.977769,-25.87890625,-31.25,-24.4140625,-15.13671875,1.0,1.0,0.0,0.0,3.m4v,8.0
2024-02-28 10:22:48.981680,1709112168.9816802,-24.90234375,-34.1796875,-32.2265625,-35.15625,1.0,1.0,0.0,0.0,3.m4v,8.0
2024-02-28 10:22:48.985586,1709112168.9855857,-17.08984375,-29.78515625,-29.78515625,-25.87890625,1.0,1.0,0.0,0.0,3.m4v,8.0
2024-02-28 10:22:48.989491,1709112168.9894912,-30.76171875,-30.2734375,-15.625,-31.73828125,1.0,1.0,0.0,0.0,3.m4v,8.0
2024-02-28 10:22:48.993397,1709112168.993397,-45.41015625,-26.85546875,-30.76171875,-50.29296875,1.0,1.0,0.0,0.0,3.m4v,8.0
2024-02-28 10:22:48.997303,1709112168.9973023,-31.25,-34.1796875,-43.45703125,-42.48046875,1.0,1.0,0.0,0.0,3.m4v,8.0
2024-02-28 10:22:49.001208,1709112169.001208,-21.484375,-41.9921875,-40.52734375,-34.1796875,1.0,1.0,0.0,0.0,3.m4v,8.0
2024-02-28 10:22:49.005114,1709112169.0051138,-26.85546875,-29.296875,-36.1328125,-35.15625,1.0,1.0,0.0,0.0,3.m4v,8.0
2024-02-28 10:22:49.009019,1709112169.0090194,-33.203125,-16.6015625,-29.296875,-40.0390625,1.0,1.0,0.0,0.0,3.m4v,8.0
2024-02-28 10:22:49.012925,1709112169.0129251,-29.296875,-27.83203125,-39.0625,-37.109375,1.0,1.0,0.0,0.0,3.m4v,8.0
2024-02-28 10:22:49.016831,1709112169.0168307,-35.15625,-31.73828125,-43.9453125,-35.15625,1.0,1.0,0.0,0.0,3.m4v,8.0
2024-02-28 10:22:49.020736,1709112169.0207362,-28.3203125,-24.4140625,-41.50390625,-26.85546875,1.0,1.0,0.0,0.0,3.m4v,8.0
2024-02-28 10:22:49.024642,1709112169.024642,-33.203125,-27.83203125,-21.484375,-29.296875,1.0,1.0,0.0,0.0,3.m4v,8.0
2024-02-28 10:22:49.028553,1709112169.028553,-32.71484375,-28.3203125,-4.39453125,-36.62109375,1.0,1.0,0.0,0.0,3.m4v,8.0
2024-02-28 10:22:49.817569,1709112169.8175683,-38.57421875,-34.1796875,-36.1328125,-50.78125,1.0,1.0,0.0,0.0,3.m4v,8.0
2024-02-28 10:22:49.821474,1709112169.821474,-51.26953125,-46.875,-33.203125,-58.10546875,1.0,1.0,0.0,0.0,3.m4v,8.0
2024-02-28 10:22:49.825385,1709112169.825385,-50.29296875,-47.8515625,-39.55078125,-46.38671875,1.0,1.0,0.0,0.0,3.m4v,8.0
2024-02-28 10:22:49.829291,1709112169.8292909,-38.57421875,-42.96875,-53.22265625,-36.1328125,1.0,1.0,0.0,0.0,3.m4v,8.0
2024-02-28 10:22:49.833196,1709112169.8331964,-22.4609375,-38.57421875,-34.66796875,-34.1796875,1.0,1.0,0.0,0.0,3.m4v,8.0
2024-02-28 10:22:49.837102,1709112169.8371022,-35.15625,-42.48046875,-16.6015625,-28.80859375,1.0,1.0,0.0,0.0,3.m4v,8.0
2024-02-28 10:22:49.841008,1709112169.8410077,-45.41015625,-31.25,-22.94921875,-20.01953125,1.0,1.0,0.0,0.0,3.m4v,8.0
2024-02-28 10:22:49.844913,1709112169.8449132,-29.78515625,-30.2734375,-29.78515625,-13.18359375,1.0,1.0,0.0,0.0,3.m4v,8.0
2024-02-28 10:22:49.848819,1709112169.848819,-30.2734375,-42.48046875,-43.9453125,-26.85546875,1.0,1.0,0.0,0.0,3.m4v,8.0
2024-02-28 10:22:49.852725,1709112169.8527246,-25.87890625,-31.25,-44.43359375,-24.4140625,1.0,1.0,0.0,0.0,3.m4v,8.0
2024-02-28 10:22:49.856630,1709112169.8566303,-23.92578125,-14.6484375,-30.2734375,-23.4375,1.0,1.0,0.0,0.0,3.m4v,8.0
2024-02-28 10:22:49.860536,1709112169.860536,-34.66796875,-23.92578125,-25.390625,-45.8984375,1.0,1.0,0.0,0.0,3.m4v,8.0
2024-02-28 10:22:49.864441,1709112169.8644414,-51.26953125,-32.71484375,-32.71484375,-52.24609375,1.0,1.0,0.0,0.0,3.m4v,8.0
2024-02-28 10:22:49.868347,1709112169.8683472,-45.8984375,-21.97265625,-46.875,-41.50390625,1.0,1.0,0.0,0.0,3.m4v,8.0
2024-02-28 10:22:49.872258,1709112169.8722577,-32.2265625,-15.13671875,-46.38671875,-23.4375,1.0,1.0,0.0,0.0,3.m4v,8.0
2024-02-28 10:22:49.880069,1709112169.880069,-28.80859375,-35.64453125,-3.90625,-44.43359375,1.0,1.0,0.0,0.0,3.m4v,8.0
2024-02-28 10:22:49.887880,1709112169.8878803,-33.69140625,-18.06640625,-48.828125,-41.015625,1.0,1.0,0.0,0.0,3.m4v,8.0
2024-02-28 10:22:49.895692,1709112169.8956916,-19.04296875,-47.8515625,-21.484375,-36.1328125,1.0,1.0,0.0,0.0,3.m4v,8.0
2024-02-28 10:22:49.903503,1709112169.9035027,-43.9453125,-56.15234375,-33.203125,-51.26953125,1.0,1.0,0.0,0.0,3.m4v,8.0
2024-02-28 10:22:49.911314,1709112169.911314,-47.36328125,-13.671875,-17.578125,-40.0390625,1.0,1.0,0.0,0.0,3.m4v,8.0
2024-02-28 10:22:49.919130,1709112169.9191303,-40.0390625,-27.83203125,-42.96875,-38.0859375,1.0,1.0,0.0,0.0,3.m4v,8.0
2024-02-28 10:22:49.926941,1709112169.9269414,-36.1328125,-23.92578125,-9.27734375,-48.33984375,1.0,1.0,0.0,0.0,3.m4v,8.0
2024-02-28 10:22:49.934753,1709112169.9347527,-39.55078125,-31.25,-42.48046875,-48.828125,1.0,1.0,0.0,0.0,3.m4v,8.0
2024-02-28 10:22:49.942564,1709112169.942564,-42.48046875,-40.0390625,-52.734375,-22.4609375,1.0,1.0,0.0,0.0,3.m4v,8.0
2024-02-28 10:22:49.950375,1709112169.9503753,-41.015625,-38.0859375,-25.390625,-25.390625,1.0,1.0,0.0,0.0,3.m4v,8.0
2024-02-28 10:22:49.958187,1709112169.9581866,-33.69140625,-37.109375,-19.04296875,-16.6015625,1.0,1.0,0.0,0.0,3.m4v,8.0
2024-02-28 10:22:49.966004,1709112169.9660044,-34.1796875,-24.90234375,-33.203125,-20.99609375,1.0,1.0,0.0,0.0,3.m4v,8.0
2024-02-28 10:22:49.973815,1709112169.9738154,-36.62109375,-25.390625,-9.765625,-41.015625,1.0,1.0,0.0,0.0,3.m4v,8.0
2024-02-28 10:22:49.981627,1709112169.9816267,-41.9921875,-24.90234375,-48.33984375,-39.55078125,1.0,1.0,0.0,0.0,3.m4v,8.0
2024-02-28 10:22:49.989438,1709112169.989438,-48.828125,-43.9453125,-26.85546875,-51.26953125,1.0,1.0,0.0,0.0,3.m4v,8.0
2024-02-28 10:22:49.997249,1709112169.9972494,-39.0625,-44.43359375,-30.2734375,-20.5078125,1.0,1.0,0.0,0.0,3.m4v,8.0
2024-02-28 10:22:50.005061,1709112170.005061,-41.50390625,-44.43359375,-40.52734375,-47.8515625,1.0,1.0,0.0,0.0,3.m4v,8.0
2024-02-28 10:22:50.012876,1709112170.0128758,-21.97265625,-27.34375,-27.34375,-39.0625,1.0,1.0,0.0,0.0,3.m4v,8.0
2024-02-28 10:22:50.020687,1709112170.020687,-22.4609375,-38.0859375,-44.43359375,-39.55078125,1.0,1.0,0.0,0.0,3.m4v,8.0
2024-02-28 10:22:50.028498,1709112170.0284984,-42.96875,-44.43359375,-23.92578125,-48.33984375,1.0,1.0,0.0,0.0,3.m4v,8.0
2024-02-28 10:22:50.036310,1709112170.0363097,-27.34375,-30.76171875,-45.8984375,-42.48046875,1.0,1.0,0.0,0.0,3.m4v,8.0
2024-02-28 10:22:50.040215,1709112170.0402153,-31.25,-37.59765625,-66.40625,-39.55078125,1.0,1.0,0.0,0.0,3.m4v,8.0
2024-02-28 10:22:50.044121,1709112170.0441208,-41.9921875,-37.109375,-50.29296875,-27.83203125,1.0,1.0,0.0,0.0,3.m4v,8.0
2024-02-28 10:22:50.048027,1709112170.0480266,-36.1328125,-41.50390625,-46.38671875,-29.296875,1.0,1.0,0.0,0.0,3.m4v,8.0
2024-02-28 10:22:50.051932,1709112170.051932,-31.25,-49.31640625,-39.55078125,-34.1796875,1.0,1.0,0.0,0.0,3.m4v,8.0
2024-02-28 10:22:50.055838,1709112170.055838,-39.0625,-39.0625,-28.80859375,-21.97265625,1.0,1.0,0.0,0.0,3.m4v,8.0
2024-02-28 10:22:50.059749,1709112170.0597494,-46.875,-39.0625,-23.92578125,-23.4375,1.0,1.0,0.0,0.0,3.m4v,8.0
2024-02-28 10:22:50.063655,1709112170.063655,-33.69140625,-33.69140625,-16.11328125,-41.50390625,1.0,1.0,0.0,0.0,3.m4v,8.0
2024-02-28 10:22:50.067561,1709112170.067561,-28.3203125,-24.4140625,-19.04296875,-43.9453125,1.0,1.0,0.0,0.0,3.m4v,8.0
2024-02-28 10:22:50.071466,1709112170.0714662,-42.48046875,-26.85546875,-27.83203125,-37.109375,1.0,1.0,0.0,0.0,3.m4v,8.0
2024-02-28 10:22:50.075372,1709112170.075372,-45.8984375,-30.2734375,-36.62109375,-43.9453125,1.0,1.0,0.0,0.0,3.m4v,8.0
2024-02-28 10:22:50.079278,1709112170.0792775,-46.38671875,-34.1796875,-49.8046875,-50.78125,1.0,1.0,0.0,0.0,3.m4v,8.0
2024-02-28 10:22:50.083183,1709112170.083183,-52.734375,-26.85546875,-61.03515625,-41.015625,1.0,1.0,0.0,0.0,3.m4v,8.0
2024-02-28 10:22:50.087089,1709112170.0870888,-49.8046875,-26.85546875,-45.41015625,-42.48046875,1.0,1.0,0.0,0.0,3.m4v,8.0
2024-02-28 10:22:50.090994,1709112170.0909944,-32.71484375,-35.64453125,-28.3203125,-36.1328125,1.0,1.0,0.0,0.0,3.m4v,8.0
2024-02-28 10:22:50.094900,1709112170.0949,-22.94921875,-35.15625,-32.71484375,-26.85546875,1.0,1.0,0.0,0.0,3.m4v,8.0
2024-02-28 10:22:50.098806,1709112170.0988057,-19.04296875,-39.0625,-38.57421875,-38.0859375,1.0,1.0,0.0,0.0,3.m4v,8.0
2024-02-28 10:22:50.102711,1709112170.1027112,-28.3203125,-48.828125,-32.71484375,-34.66796875,1.0,1.0,0.0,0.0,3.m4v,8.0
2024-02-28 10:22:50.106623,1709112170.1066227,-49.31640625,-43.45703125,-32.2265625,-21.484375,1.0,1.0,0.0,0.0,3.m4v,8.0
2024-02-28 10:22:50.110528,1709112170.1105282,-38.0859375,-27.34375,-30.76171875,-42.96875,1.0,1.0,0.0,0.0,3.m4v,8.0
2024-02-28 10:22:50.114434,1709112170.114434,-37.109375,-21.484375,-17.578125,-53.22265625,1.0,1.0,0.0,0.0,3.m4v,8.0
2024-02-28 10:22:50.118340,1709112170.1183395,-38.0859375,-24.90234375,-5.859375,-43.9453125,1.0,1.0,0.0,0.0,3.m4v,8.0
2024-02-28 10:22:50.122245,1709112170.122245,-29.78515625,-26.85546875,-15.625,-43.9453125,1.0,1.0,0.0,0.0,3.m4v,8.0
2024-02-28 10:22:50.126151,1709112170.1261508,-34.66796875,-27.34375,-49.31640625,-38.0859375,1.0,1.0,0.0,0.0,3.m4v,8.0
2024-02-28 10:22:50.130056,1709112170.1300564,-33.203125,-38.0859375,-41.9921875,-36.1328125,1.0,1.0,0.0,0.0,3.m4v,8.0
2024-02-28 10:22:50.133962,1709112170.133962,-23.92578125,-37.59765625,-30.76171875,-29.296875,1.0,1.0,0.0,0.0,3.m4v,8.0
2024-02-28 10:22:50.137868,1709112170.1378677,-31.25,-30.2734375,-49.31640625,-19.53125,1.0,1.0,0.0,0.0,3.m4v,8.0
2024-02-28 10:22:50.141773,1709112170.1417732,-30.2734375,-39.0625,-43.9453125,-20.01953125,1.0,1.0,0.0,0.0,3.m4v,8.0
2024-02-28 10:22:50.145679,1709112170.145679,-23.4375,-47.8515625,-21.97265625,-28.80859375,1.0,1.0,0.0,0.0,3.m4v,8.0
2024-02-28 10:22:50.149585,1709112170.1495843,-36.1328125,-39.55078125,-13.18359375,-46.38671875,1.0,1.0,0.0,0.0,3.m4v,8.0
2024-02-28 10:22:50.153496,1709112170.1534956,-36.62109375,-24.4140625,-28.80859375,-41.015625,1.0,1.0,0.0,0.0,3.m4v,8.0
2024-02-28 10:22:50.157401,1709112170.157401,-24.4140625,-19.04296875,-38.0859375,-17.08984375,1.0,1.0,0.0,0.0,3.m4v,8.0
2024-02-28 10:22:50.161307,1709112170.1613069,-8.30078125,-21.97265625,-31.73828125,-27.34375,1.0,1.0,0.0,0.0,3.m4v,8.0
2024-02-28 10:22:50.165212,1709112170.1652124,-11.23046875,-32.2265625,-29.78515625,-34.66796875,1.0,1.0,0.0,0.0,3.m4v,8.0
2024-02-28 10:22:50.169118,1709112170.1691182,-9.27734375,-43.45703125,-49.31640625,-6.8359375,1.0,1.0,0.0,0.0,3.m4v,8.0
2024-02-28 10:22:50.173024,1709112170.1730237,0.48828125,-38.57421875,-45.8984375,5.37109375,1.0,1.0,0.0,0.0,3.m4v,8.0
2024-02-28 10:22:50.176929,1709112170.1769297,-14.6484375,-18.5546875,-30.2734375,-25.390625,1.0,1.0,0.0,0.0,3.m4v,8.0
2024-02-28 10:22:50.180835,1709112170.180835,-41.9921875,-17.578125,-34.66796875,-50.78125,1.0,1.0,0.0,0.0,3.m4v,8.0
2024-02-28 10:22:50.184741,1709112170.1847403,-51.7578125,-26.3671875,-30.76171875,-40.52734375,1.0,1.0,0.0,0.0,3.m4v,8.0
2024-02-28 10:22:50.188646,1709112170.1886463,-32.2265625,-34.66796875,-50.29296875,-30.76171875,1.0,1.0,0.0,0.0,3.m4v,8.0
2024-02-28 10:22:50.192552,1709112170.192552,-19.53125,-33.69140625,-61.5234375,-36.1328125,1.0,1.0,0.0,0.0,3.m4v,8.0
2024-02-28 10:22:50.196457,1709112170.1964574,-33.69140625,-40.52734375,-33.69140625,-45.8984375,1.0,1.0,0.0,0.0,3.m4v,8.0
2024-02-28 10:22:50.200368,1709112170.2003684,-45.8984375,-51.7578125,-25.390625,-50.29296875,1.0,1.0,0.0,0.0,3.m4v,8.0
2024-02-28 10:22:50.204274,1709112170.204274,-41.015625,-45.41015625,-39.0625,-43.45703125,1.0,1.0,0.0,0.0,3.m4v,8.0
2024-02-28 10:22:50.208179,1709112170.2081797,-20.5078125,-25.390625,-56.640625,-21.97265625,1.0,1.0,0.0,0.0,3.m4v,8.0
2024-02-28 10:22:50.212085,1709112170.2120852,-19.04296875,-7.32421875,-51.7578125,-11.71875,1.0,1.0,0.0,0.0,3.m4v,8.0
2024-02-28 10:22:50.215991,1709112170.2159908,-18.5546875,-11.23046875,-25.390625,-17.08984375,1.0,1.0,0.0,0.0,3.m4v,8.0
2024-02-28 10:22:50.219896,1709112170.2198963,-22.94921875,-20.01953125,-10.25390625,-16.6015625,1.0,1.0,0.0,0.0,3.m4v,8.0
2024-02-28 10:22:50.223802,1709112170.223802,-37.59765625,-34.66796875,-21.484375,-32.71484375,1.0,1.0,0.0,0.0,3.m4v,8.0
2024-02-28 10:22:50.227708,1709112170.2277076,-41.015625,-37.109375,-33.69140625,-47.8515625,1.0,1.0,0.0,0.0,3.m4v,8.0
2024-02-28 10:22:50.231613,1709112170.2316134,-38.0859375,-24.4140625,-31.73828125,-38.57421875,1.0,1.0,0.0,0.0,3.m4v,8.0
2024-02-28 10:22:50.235519,1709112170.235519,-40.0390625,-24.4140625,-45.41015625,-36.62109375,1.0,1.0,0.0,0.0,3.m4v,8.0
2024-02-28 10:22:50.239424,1709112170.2394245,-35.15625,-35.64453125,-46.875,-45.41015625,1.0,1.0,0.0,0.0,3.m4v,8.0
2024-02-28 10:22:50.243330,1709112170.2433302,-17.08984375,-47.36328125,-24.4140625,-42.48046875,1.0,1.0,0.0,0.0,3.m4v,8.0
2024-02-28 10:22:50.247241,1709112170.2472403,-13.18359375,-33.203125,-38.57421875,-11.71875,1.0,1.0,0.0,0.0,3.m4v,8.0
2024-02-28 10:22:50.251146,1709112170.251146,-23.4375,-20.5078125,-42.96875,-20.99609375,1.0,1.0,0.0,0.0,3.m4v,8.0
2024-02-28 10:22:50.762836,1709112170.7628355,-20.01953125,-18.5546875,-58.10546875,-19.04296875,1.0,1.0,0.0,0.0,3.m4v,8.0
2024-02-28 10:22:50.766741,1709112170.7667413,-19.04296875,-27.83203125,-47.8515625,-41.9921875,1.0,1.0,0.0,0.0,3.m4v,8.0
2024-02-28 10:22:50.770647,1709112170.7706468,-41.015625,-38.57421875,-34.1796875,-32.2265625,1.0,1.0,0.0,0.0,3.m4v,8.0
2024-02-28 10:22:50.774553,1709112170.7745526,-26.3671875,-21.97265625,-39.0625,-8.7890625,1.0,1.0,0.0,0.0,3.m4v,8.0
2024-02-28 10:22:50.778458,1709112170.778458,-14.6484375,-29.296875,-41.50390625,-12.20703125,1.0,1.0,0.0,0.0,3.m4v,8.0
2024-02-28 10:22:50.782364,1709112170.7823637,-31.73828125,-51.26953125,-34.1796875,-26.85546875,1.0,1.0,0.0,0.0,3.m4v,8.0
2024-02-28 10:22:50.786269,1709112170.7862694,-43.45703125,-39.0625,-21.97265625,-40.0390625,1.0,1.0,0.0,0.0,3.m4v,8.0
2024-02-28 10:22:50.790175,1709112170.790175,-48.828125,-23.4375,-30.2734375,-54.6875,1.0,1.0,0.0,0.0,3.m4v,8.0
2024-02-28 10:22:50.794081,1709112170.7940807,-39.55078125,-27.83203125,-38.0859375,-46.875,1.0,1.0,0.0,0.0,3.m4v,8.0
2024-02-28 10:22:50.797986,1709112170.7979865,-38.57421875,-31.73828125,-35.64453125,-39.55078125,1.0,1.0,0.0,0.0,3.m4v,8.0
2024-02-28 10:22:50.801892,1709112170.8018918,-46.875,-32.71484375,-39.55078125,-49.31640625,1.0,1.0,0.0,0.0,3.m4v,8.0
2024-02-28 10:22:50.805798,1709112170.8057976,-48.828125,-42.48046875,-30.76171875,-39.55078125,1.0,1.0,0.0,0.0,3.m4v,8.0
2024-02-28 10:22:50.809707,1709112170.809707,-34.1796875,-37.59765625,-27.34375,-24.90234375,1.0,1.0,0.0,0.0,3.m4v,8.0
2024-02-28 10:22:50.813612,1709112170.8136125,-29.78515625,-30.76171875,-40.52734375,-28.80859375,1.0,1.0,0.0,0.0,3.m4v,8.0
2024-02-28 10:22:50.817518,1709112170.8175182,-39.0625,-30.76171875,-46.875,-37.59765625,1.0,1.0,0.0,0.0,3.m4v,8.0
2024-02-28 10:22:50.821424,1709112170.8214238,-43.9453125,-40.52734375,-29.296875,-50.78125,1.0,1.0,0.0,0.0,3.m4v,8.0
2024-02-28 10:22:50.825330,1709112170.8253295,-52.24609375,-52.734375,-21.97265625,-43.9453125,1.0,1.0,0.0,0.0,3.m4v,8.0
2024-02-28 10:22:50.829235,1709112170.829235,-43.45703125,-45.41015625,-24.4140625,-31.25,1.0,1.0,0.0,0.0,3.m4v,8.0
2024-02-28 10:22:50.833141,1709112170.8331406,-31.73828125,-33.69140625,-23.92578125,-38.57421875,1.0,1.0,0.0,0.0,3.m4v,8.0
2024-02-28 10:22:50.837046,1709112170.8370464,-32.2265625,-32.2265625,-28.3203125,-45.8984375,1.0,1.0,0.0,0.0,3.m4v,8.0
2024-02-28 10:22:50.840952,1709112170.840952,-24.4140625,-38.0859375,-35.15625,-39.0625,1.0,1.0,0.0,0.0,3.m4v,8.0
2024-02-28 10:22:50.844857,1709112170.8448577,-23.92578125,-27.83203125,-33.203125,-33.69140625,1.0,1.0,0.0,0.0,3.m4v,8.0
2024-02-28 10:22:50.848763,1709112170.8487632,-36.1328125,-22.94921875,-31.25,-30.76171875,1.0,1.0,0.0,0.0,3.m4v,8.0
2024-02-28 10:22:50.852669,1709112170.8526688,-35.64453125,-32.2265625,-38.57421875,-35.15625,1.0,1.0,0.0,0.0,3.m4v,8.0
2024-02-28 10:22:50.856580,1709112170.8565805,-31.25,-28.80859375,-23.92578125,-29.78515625,1.0,1.0,0.0,0.0,3.m4v,8.0
2024-02-28 10:22:50.860486,1709112170.8604858,-34.1796875,-31.25,3.90625,-19.53125,1.0,1.0,0.0,0.0,3.m4v,8.0
2024-02-28 10:22:50.864392,1709112170.8643916,-39.55078125,-43.45703125,-9.27734375,-36.62109375,1.0,1.0,0.0,0.0,3.m4v,8.0
2024-02-28 10:22:50.868297,1709112170.868297,-45.41015625,-42.48046875,-30.76171875,-41.9921875,1.0,1.0,0.0,0.0,3.m4v,8.0
2024-02-28 10:22:50.872203,1709112170.8722026,-42.48046875,-34.66796875,-40.0390625,-42.48046875,1.0,1.0,0.0,0.0,3.m4v,8.0
2024-02-28 10:22:50.876108,1709112170.8761084,-33.203125,-29.296875,-54.19921875,-46.875,1.0,1.0,0.0,0.0,3.m4v,8.0
2024-02-28 10:22:50.880014,1709112170.880014,-35.64453125,-37.109375,-64.94140625,-39.0625,1.0,1.0,0.0,0.0,3.m4v,8.0
2024-02-28 10:22:50.883919,1709112170.8839197,-21.97265625,-43.9453125,-51.7578125,-40.0390625,1.0,1.0,0.0,0.0,3.m4v,8.0
2024-02-28 10:22:50.887825,1709112170.8878253,-23.92578125,-39.55078125,-26.3671875,-37.109375,1.0,1.0,0.0,0.0,3.m4v,8.0
2024-02-28 10:22:50.891731,1709112170.8917308,-43.9453125,-38.0859375,-23.4375,-42.48046875,1.0,1.0,0.0,0.0,3.m4v,8.0
2024-02-28 10:22:50.895637,1709112170.8956366,-45.41015625,-37.109375,-30.76171875,-49.8046875,1.0,1.0,0.0,0.0,3.m4v,8.0
2024-02-28 10:22:50.899542,1709112170.899542,-43.9453125,-19.04296875,-18.06640625,-32.71484375,1.0,1.0,0.0,0.0,3.m4v,8.0
2024-02-28 10:22:50.903453,1709112170.903453,-22.4609375,1.953125,-7.8125,-20.01953125,1.0,1.0,0.0,0.0,3.m4v,8.0
2024-02-28 10:22:50.907359,1709112170.907359,-30.2734375,-11.23046875,-24.4140625,-24.90234375,1.0,1.0,0.0,0.0,3.m4v,8.0
2024-02-28 10:22:50.911264,1709112170.9112644,-46.38671875,-26.3671875,-34.66796875,-30.76171875,1.0,1.0,0.0,0.0,3.m4v,8.0
2024-02-28 10:22:50.915170,1709112170.91517,-39.55078125,-29.296875,-46.38671875,-31.73828125,1.0,1.0,0.0,0.0,3.m4v,8.0
2024-02-28 10:22:50.919076,1709112170.9190755,-43.9453125,-35.15625,-56.15234375,-37.59765625,1.0,1.0,0.0,0.0,3.m4v,8.0
2024-02-28 10:22:50.922981,1709112170.9229813,-42.96875,-45.41015625,-46.38671875,-44.43359375,1.0,1.0,0.0,0.0,3.m4v,8.0
2024-02-28 10:22:50.926887,1709112170.926887,-41.9921875,-45.41015625,-29.296875,-39.0625,1.0,1.0,0.0,0.0,3.m4v,8.0
2024-02-28 10:22:50.930793,1709112170.9307926,-45.8984375,-47.36328125,-20.5078125,-37.59765625,1.0,1.0,0.0,0.0,3.m4v,8.0
2024-02-28 10:22:50.934698,1709112170.934698,-28.80859375,-51.26953125,-32.71484375,-40.52734375,1.0,1.0,0.0,0.0,3.m4v,8.0
2024-02-28 10:22:50.938604,1709112170.938604,-29.296875,-36.62109375,-28.3203125,-28.3203125,1.0,1.0,0.0,0.0,3.m4v,8.0
2024-02-28 10:22:50.942509,1709112170.9425094,-49.31640625,-31.73828125,-28.80859375,-35.64453125,1.0,1.0,0.0,0.0,3.m4v,8.0
2024-02-28 10:22:50.946415,1709112170.946415,-43.9453125,-33.69140625,-36.1328125,-28.3203125,1.0,1.0,0.0,0.0,3.m4v,8.0
2024-02-28 10:22:50.950326,1709112170.950326,-41.9921875,-22.4609375,-45.8984375,-15.13671875,1.0,1.0,0.0,0.0,3.m4v,8.0
2024-02-28 10:22:50.954232,1709112170.9542315,-46.38671875,-23.4375,-39.55078125,-42.96875,1.0,1.0,0.0,0.0,3.m4v,8.0
2024-02-28 10:22:50.958137,1709112170.9581373,-44.43359375,-28.3203125,-32.2265625,-47.8515625,1.0,1.0,0.0,0.0,3.m4v,8.0
2024-02-28 10:22:50.962043,1709112170.9620428,-43.45703125,-35.64453125,-42.96875,-30.2734375,1.0,1.0,0.0,0.0,3.m4v,8.0
2024-02-28 10:22:50.965948,1709112170.9659483,-44.921875,-38.0859375,-35.15625,-36.1328125,1.0,1.0,0.0,0.0,3.m4v,8.0
2024-02-28 10:22:50.969854,1709112170.969854,-31.25,-31.73828125,-4.8828125,-29.296875,1.0,1.0,0.0,0.0,3.m4v,8.0
2024-02-28 10:22:50.973760,1709112170.9737597,-17.578125,-40.0390625,-9.27734375,-6.34765625,1.0,1.0,0.0,0.0,3.m4v,8.0
2024-02-28 10:22:50.977665,1709112170.9776652,-29.78515625,-40.52734375,-37.109375,-18.5546875,1.0,1.0,0.0,0.0,3.m4v,8.0
2024-02-28 10:22:50.981571,1709112170.981571,-39.55078125,-31.73828125,-34.1796875,-34.1796875,1.0,1.0,0.0,0.0,3.m4v,8.0
2024-02-28 10:22:50.985476,1709112170.9854765,-41.9921875,-38.0859375,-29.296875,-39.0625,1.0,1.0,0.0,0.0,3.m4v,8.0
2024-02-28 10:22:50.989382,1709112170.9893825,-48.828125,-46.38671875,-27.34375,-36.62109375,1.0,1.0,0.0,0.0,3.m4v,8.0
2024-02-28 10:22:50.993288,1709112170.9932878,-50.78125,-41.015625,-29.296875,-19.53125,1.0,1.0,0.0,0.0,3.m4v,8.0
2024-02-28 10:22:50.997200,1709112170.9972005,-45.8984375,-35.15625,-19.53125,-38.57421875,1.0,1.0,0.0,0.0,3.m4v,8.0
2024-02-28 10:22:51.001106,1709112171.0011065,-40.0390625,-34.66796875,-22.4609375,-51.7578125,1.0,1.0,0.0,0.0,3.m4v,8.0
2024-02-28 10:22:51.005012,1709112171.0050118,-34.66796875,-16.6015625,-32.71484375,-36.1328125,1.0,1.0,0.0,0.0,3.m4v,8.0
2024-02-28 10:22:51.008917,1709112171.008917,-51.26953125,-11.71875,-35.15625,-40.52734375,1.0,1.0,0.0,0.0,3.m4v,8.0
2024-02-28 10:22:51.012823,1709112171.012823,-44.921875,-22.4609375,-46.38671875,-38.57421875,1.0,1.0,0.0,0.0,3.m4v,8.0
2024-02-28 10:22:51.016729,1709112171.0167286,-27.83203125,-34.66796875,-56.640625,-33.69140625,1.0,1.0,0.0,0.0,3.m4v,8.0
2024-02-28 10:22:51.020634,1709112171.0206344,-29.296875,-44.921875,-38.57421875,-28.80859375,1.0,1.0,0.0,0.0,3.m4v,8.0
2024-02-28 10:22:51.024540,1709112171.02454,-39.0625,-38.57421875,-35.15625,-19.53125,1.0,1.0,0.0,0.0,3.m4v,8.0
2024-02-28 10:22:51.028445,1709112171.0284455,-37.109375,-29.78515625,-49.8046875,-35.15625,1.0,1.0,0.0,0.0,3.m4v,8.0
2024-02-28 10:22:51.032351,1709112171.0323513,-30.76171875,-17.578125,-35.15625,-27.34375,1.0,1.0,0.0,0.0,3.m4v,8.0
2024-02-28 10:22:51.036257,1709112171.0362568,-46.38671875,-17.08984375,-7.32421875,-24.4140625,1.0,1.0,0.0,0.0,3.m4v,8.0
2024-02-28 10:22:51.040163,1709112171.0401626,-55.17578125,-41.9921875,-4.39453125,-64.453125,1.0,1.0,0.0,0.0,3.m4v,8.0
2024-02-28 10:22:51.044073,1709112171.0440726,-49.31640625,-67.3828125,-39.0625,-55.17578125,1.0,1.0,0.0,0.0,3.m4v,8.0
2024-02-28 10:22:51.047978,1709112171.0479784,-22.94921875,-36.1328125,-45.41015625,-15.13671875,1.0,1.0,0.0,0.0,3.m4v,8.0
2024-02-28 10:22:51.051884,1709112171.051884,-20.5078125,-7.32421875,-33.69140625,-14.6484375,1.0,1.0,0.0,0.0,3.m4v,8.0
2024-02-28 10:22:51.055790,1709112171.0557897,-41.50390625,-20.5078125,-47.36328125,-39.0625,1.0,1.0,0.0,0.0,3.m4v,8.0
2024-02-28 10:22:51.059695,1709112171.0596952,-41.015625,-31.73828125,-39.55078125,-41.015625,1.0,1.0,0.0,0.0,3.m4v,8.0
2024-02-28 10:22:51.063601,1709112171.0636008,-40.52734375,-38.0859375,-29.296875,-22.94921875,1.0,1.0,0.0,0.0,3.m4v,8.0
2024-02-28 10:22:51.067507,1709112171.0675066,-37.109375,-39.55078125,-47.36328125,-21.97265625,1.0,1.0,0.0,0.0,3.m4v,8.0
2024-02-28 10:22:51.071412,1709112171.071412,-29.296875,-47.36328125,-27.83203125,-39.55078125,1.0,1.0,0.0,0.0,3.m4v,8.0
2024-02-28 10:22:51.075318,1709112171.075318,-42.96875,-42.48046875,-23.92578125,-47.8515625,1.0,1.0,0.0,0.0,3.m4v,8.0
2024-02-28 10:22:51.079223,1709112171.0792234,-38.0859375,-39.55078125,-42.48046875,-42.48046875,1.0,1.0,0.0,0.0,3.m4v,8.0
2024-02-28 10:22:51.083129,1709112171.083129,-36.1328125,-47.36328125,-43.9453125,-45.41015625,1.0,1.0,0.0,0.0,3.m4v,8.0
2024-02-28 10:22:51.087035,1709112171.0870347,-46.38671875,-33.69140625,-43.45703125,-39.0625,1.0,1.0,0.0,0.0,3.m4v,8.0
2024-02-28 10:22:51.090945,1709112171.0909448,-39.0625,-22.4609375,-30.2734375,-34.66796875,1.0,1.0,0.0,0.0,3.m4v,8.0
2024-02-28 10:22:51.094850,1709112171.0948503,-32.2265625,-27.83203125,-44.43359375,-46.38671875,1.0,1.0,0.0,0.0,3.m4v,8.0
2024-02-28 10:22:51.098756,1709112171.0987558,-39.0625,-30.2734375,-52.734375,-47.36328125,1.0,1.0,0.0,0.0,3.m4v,8.0
2024-02-28 10:22:51.102662,1709112171.1026616,-33.69140625,-35.64453125,-46.875,-41.015625,1.0,1.0,0.0,0.0,3.m4v,8.0
2024-02-28 10:22:51.106567,1709112171.1065671,-23.92578125,-35.15625,-45.8984375,-25.87890625,1.0,1.0,0.0,0.0,3.m4v,8.0
2024-02-28 10:22:51.110473,1709112171.110473,-28.80859375,-25.87890625,-29.296875,-27.34375,1.0,1.0,0.0,0.0,3.m4v,8.0
2024-02-28 10:22:51.114378,1709112171.1143785,-34.66796875,-35.15625,-38.0859375,-41.50390625,1.0,1.0,0.0,0.0,3.m4v,8.0
2024-02-28 10:22:51.118284,1709112171.118284,-50.78125,-41.50390625,-57.6171875,-33.203125,1.0,1.0,0.0,0.0,3.m4v,8.0
2024-02-28 10:22:51.122190,1709112171.1221898,-40.52734375,-27.34375,-48.33984375,-26.3671875,1.0,1.0,0.0,0.0,3.m4v,8.0
2024-02-28 10:22:51.126095,1709112171.1260953,-34.1796875,-26.85546875,-16.6015625,-48.828125,1.0,1.0,0.0,0.0,3.m4v,8.0
2024-02-28 10:22:51.130001,1709112171.1300008,-50.29296875,-40.0390625,-10.7421875,-53.22265625,1.0,1.0,0.0,0.0,3.m4v,8.0
2024-02-28 10:22:51.133907,1709112171.1339066,-53.22265625,-49.31640625,-28.3203125,-40.52734375,1.0,1.0,0.0,0.0,3.m4v,8.0
2024-02-28 10:22:51.137816,1709112171.1378162,-51.7578125,-43.45703125,-20.01953125,-27.83203125,1.0,1.0,0.0,0.0,3.m4v,8.0
2024-02-28 10:22:51.141722,1709112171.141722,-41.015625,-29.78515625,-7.8125,-40.52734375,1.0,1.0,0.0,0.0,3.m4v,8.0
2024-02-28 10:22:51.145627,1709112171.1456275,-28.3203125,-26.3671875,-23.4375,-46.38671875,1.0,1.0,0.0,0.0,3.m4v,8.0
2024-02-28 10:22:51.149533,1709112171.149533,-22.94921875,-33.69140625,-46.38671875,-26.85546875,1.0,1.0,0.0,0.0,3.m4v,8.0
2024-02-28 10:22:51.153439,1709112171.1534388,-28.80859375,-24.90234375,-48.33984375,-26.3671875,1.0,1.0,0.0,0.0,3.m4v,8.0
2024-02-28 10:22:51.157344,1709112171.1573443,-32.71484375,-14.16015625,-46.38671875,-21.97265625,1.0,1.0,0.0,0.0,3.m4v,8.0
2024-02-28 10:22:51.161250,1709112171.16125,-38.0859375,-14.16015625,-34.1796875,-27.34375,1.0,1.0,0.0,0.0,3.m4v,8.0
2024-02-28 10:22:51.165156,1709112171.1651556,-28.3203125,-17.578125,-23.92578125,-23.92578125,1.0,1.0,0.0,0.0,3.m4v,8.0
2024-02-28 10:22:51.169061,1709112171.1690612,-7.32421875,-23.4375,-39.55078125,-5.37109375,1.0,1.0,0.0,0.0,3.m4v,8.0
2024-02-28 10:22:51.172967,1709112171.172967,-23.4375,-28.80859375,-30.76171875,-18.5546875,1.0,1.0,0.0,0.0,3.m4v,8.0
2024-02-28 10:22:51.176872,1709112171.1768725,-47.36328125,-36.1328125,-15.13671875,-49.31640625,1.0,1.0,0.0,0.0,3.m4v,8.0
2024-02-28 10:22:51.180778,1709112171.1807785,-44.921875,-34.1796875,-34.66796875,-45.8984375,1.0,1.0,0.0,0.0,3.m4v,8.0
2024-02-28 10:22:51.184688,1709112171.184688,-31.73828125,-37.59765625,-51.26953125,-32.2265625,1.0,1.0,0.0,0.0,3.m4v,8.0
2024-02-28 10:22:51.188594,1709112171.1885936,-33.203125,-52.24609375,-43.45703125,-28.3203125,1.0,1.0,0.0,0.0,3.m4v,8.0
2024-02-28 10:22:51.192499,1709112171.1924992,-31.25,-52.734375,-35.15625,-35.15625,1.0,1.0,0.0,0.0,3.m4v,8.0
2024-02-28 10:22:51.196405,1709112171.196405,-29.296875,-50.78125,-23.4375,-37.109375,1.0,1.0,0.0,0.0,3.m4v,8.0
2024-02-28 10:22:51.200310,1709112171.2003105,-36.62109375,-41.015625,-24.90234375,-22.94921875,1.0,1.0,0.0,0.0,3.m4v,8.0
2024-02-28 10:22:51.204216,1709112171.204216,-31.25,-17.08984375,-38.57421875,-24.4140625,1.0,1.0,0.0,0.0,3.m4v,8.0
2024-02-28 10:22:51.208122,1709112171.2081218,-41.015625,-8.30078125,-38.57421875,-42.48046875,1.0,1.0,0.0,0.0,3.m4v,8.0
2024-02-28 10:22:51.212027,1709112171.2120273,-50.29296875,-19.53125,-26.3671875,-61.03515625,1.0,1.0,0.0,0.0,3.m4v,8.0
2024-02-28 10:22:51.215933,1709112171.2159328,-41.015625,-26.85546875,-36.62109375,-60.546875,1.0,1.0,0.0,0.0,3.m4v,8.0
2024-02-28 10:22:51.219839,1709112171.2198386,-36.1328125,-32.2265625,-58.59375,-43.9453125,1.0,1.0,0.0,0.0,3.m4v,8.0
2024-02-28 10:22:51.223744,1709112171.2237442,-33.203125,-43.45703125,-64.453125,-39.55078125,1.0,1.0,0.0,0.0,3.m4v,8.0
2024-02-28 10:22:51.227650,1709112171.22765,-39.55078125,-49.8046875,-41.9921875,-23.92578125,1.0,1.0,0.0,0.0,3.m4v,8.0
2024-02-28 10:22:51.231561,1709112171.2315612,-39.55078125,-48.33984375,-17.578125,-7.32421875,1.0,1.0,0.0,0.0,3.m4v,8.0
2024-02-28 10:22:51.235467,1709112171.2354667,-36.62109375,-40.0390625,-27.34375,-32.71484375,1.0,1.0,0.0,0.0,3.m4v,8.0
2024-02-28 10:22:51.239372,1709112171.2393725,-54.6875,-33.203125,-40.52734375,-56.640625,1.0,1.0,0.0,0.0,3.m4v,8.0
2024-02-28 10:22:51.243278,1709112171.243278,-64.453125,-34.66796875,-34.1796875,-43.45703125,1.0,1.0,0.0,0.0,3.m4v,8.0
2024-02-28 10:22:51.247184,1709112171.2471838,-51.26953125,-33.69140625,-26.85546875,-26.85546875,1.0,1.0,0.0,0.0,3.m4v,8.0
2024-02-28 10:22:51.251089,1709112171.251089,-36.62109375,-27.34375,-30.76171875,-26.85546875,1.0,1.0,0.0,0.0,3.m4v,8.0
2024-02-28 10:22:51.254995,1709112171.2549949,-23.92578125,-14.6484375,-31.25,-15.13671875,1.0,1.0,0.0,0.0,3.m4v,8.0
2024-02-28 10:22:51.258901,1709112171.2589006,-34.66796875,-26.85546875,-35.64453125,-25.390625,1.0,1.0,0.0,0.0,3.m4v,8.0
2024-02-28 10:22:51.262806,1709112171.2628062,-42.48046875,-42.96875,-44.43359375,-37.109375,1.0,1.0,0.0,0.0,3.m4v,8.0
2024-02-28 10:22:51.266712,1709112171.2667117,-35.15625,-39.55078125,-46.38671875,-27.34375,1.0,1.0,0.0,0.0,3.m4v,8.0
2024-02-28 10:22:51.270617,1709112171.2706175,-26.85546875,-45.41015625,-51.26953125,-17.578125,1.0,1.0,0.0,0.0,3.m4v,8.0
2024-02-28 10:22:51.274523,1709112171.274523,-35.15625,-49.31640625,-33.203125,-33.203125,1.0,1.0,0.0,0.0,3.m4v,8.0
2024-02-28 10:22:51.278434,1709112171.278434,-48.828125,-27.83203125,-10.7421875,-59.08203125,1.0,1.0,0.0,0.0,3.m4v,8.0
2024-02-28 10:22:51.282340,1709112171.2823398,-48.828125,-14.6484375,-20.01953125,-45.41015625,1.0,1.0,0.0,0.0,3.m4v,8.0
2024-02-28 10:22:51.286245,1709112171.286245,-50.29296875,-22.94921875,-22.94921875,-34.1796875,1.0,1.0,0.0,0.0,3.m4v,8.0
2024-02-28 10:22:51.290151,1709112171.2901511,-37.109375,-26.85546875,-37.59765625,-28.80859375,1.0,1.0,0.0,0.0,3.m4v,8.0
2024-02-28 10:22:51.294057,1709112171.294057,-22.4609375,-23.92578125,-51.26953125,-26.3671875,1.0,1.0,0.0,0.0,3.m4v,8.0
2024-02-28 10:22:51.297962,1709112171.2979622,-25.87890625,-31.73828125,-32.2265625,-23.92578125,1.0,1.0,0.0,0.0,3.m4v,8.0
2024-02-28 10:22:51.301868,1709112171.301868,-41.015625,-52.24609375,-44.921875,-38.57421875,1.0,1.0,0.0,0.0,3.m4v,8.0
2024-02-28 10:22:51.305773,1709112171.3057735,-42.48046875,-48.828125,-44.43359375,-44.921875,1.0,1.0,0.0,0.0,3.m4v,8.0
2024-02-28 10:22:51.747160,1709112171.74716,-45.41015625,-35.15625,-51.7578125,-42.48046875,1.0,1.0,0.0,0.0,3.m4v,8.0
2024-02-28 10:22:51.751065,1709112171.7510655,-32.2265625,-34.66796875,-34.66796875,-40.0390625,1.0,1.0,0.0,0.0,3.m4v,8.0
2024-02-28 10:22:51.754971,1709112171.7549713,-28.3203125,-20.5078125,-52.734375,-20.99609375,1.0,1.0,0.0,0.0,3.m4v,8.0
2024-02-28 10:22:51.758877,1709112171.7588768,-27.34375,-8.7890625,-41.015625,-15.625,1.0,1.0,0.0,0.0,3.m4v,8.0
2024-02-28 10:22:51.762782,1709112171.7627823,-36.1328125,-22.4609375,-14.16015625,-39.55078125,1.0,1.0,0.0,0.0,3.m4v,8.0
2024-02-28 10:22:51.766688,1709112171.766688,-46.38671875,-39.0625,-17.08984375,-59.08203125,1.0,1.0,0.0,0.0,3.m4v,8.0
2024-02-28 10:22:51.770594,1709112171.7705936,-55.17578125,-37.59765625,-18.06640625,-64.453125,1.0,1.0,0.0,0.0,3.m4v,8.0
2024-02-28 10:22:51.774499,1709112171.7744994,-56.640625,-30.76171875,-24.90234375,-42.96875,1.0,1.0,0.0,0.0,3.m4v,8.0
2024-02-28 10:22:51.778405,1709112171.778405,-38.0859375,-28.3203125,-43.9453125,-25.390625,1.0,1.0,0.0,0.0,3.m4v,8.0
2024-02-28 10:22:51.782310,1709112171.7823105,-20.5078125,-28.80859375,-58.59375,-16.11328125,1.0,1.0,0.0,0.0,3.m4v,8.0
2024-02-28 10:22:51.786216,1709112171.7862165,-31.25,-47.36328125,-58.59375,-10.7421875,1.0,1.0,0.0,0.0,3.m4v,8.0
2024-02-28 10:22:51.790122,1709112171.7901218,-41.015625,-57.12890625,-45.41015625,-21.484375,1.0,1.0,0.0,0.0,3.m4v,8.0
2024-02-28 10:22:51.794032,1709112171.794032,-34.1796875,-51.26953125,-23.4375,-31.25,1.0,1.0,0.0,0.0,3.m4v,8.0
2024-02-28 10:22:51.797938,1709112171.797938,-28.3203125,-38.0859375,-24.90234375,-18.5546875,1.0,1.0,0.0,0.0,3.m4v,8.0
2024-02-28 10:22:51.801843,1709112171.8018434,-29.78515625,-22.4609375,-17.08984375,-17.578125,1.0,1.0,0.0,0.0,3.m4v,8.0
2024-02-28 10:22:51.805749,1709112171.805749,-44.921875,-19.04296875,-3.41796875,-37.109375,1.0,1.0,0.0,0.0,3.m4v,8.0
2024-02-28 10:22:51.809655,1709112171.8096547,-41.9921875,-23.4375,-23.4375,-49.8046875,1.0,1.0,0.0,0.0,3.m4v,8.0
2024-02-28 10:22:51.813560,1709112171.8135602,-42.48046875,-27.83203125,-42.96875,-41.015625,1.0,1.0,0.0,0.0,3.m4v,8.0
2024-02-28 10:22:51.817466,1709112171.8174658,-56.640625,-43.9453125,-49.31640625,-42.48046875,1.0,1.0,0.0,0.0,3.m4v,8.0
2024-02-28 10:22:51.821372,1709112171.8213716,-46.38671875,-45.41015625,-53.7109375,-38.0859375,1.0,1.0,0.0,0.0,3.m4v,8.0
2024-02-28 10:22:51.825277,1709112171.825277,-45.41015625,-36.62109375,-50.29296875,-34.66796875,1.0,1.0,0.0,0.0,3.m4v,8.0
2024-02-28 10:22:51.829183,1709112171.8291829,-34.1796875,-40.52734375,-34.1796875,-24.90234375,1.0,1.0,0.0,0.0,3.m4v,8.0
2024-02-28 10:22:51.833088,1709112171.8330884,-26.85546875,-50.78125,-22.94921875,-14.6484375,1.0,1.0,0.0,0.0,3.m4v,8.0
2024-02-28 10:22:51.836994,1709112171.836994,-40.0390625,-51.7578125,-33.69140625,-40.0390625,1.0,1.0,0.0,0.0,3.m4v,8.0
2024-02-28 10:22:51.840904,1709112171.8409042,-33.69140625,-33.69140625,-45.41015625,-49.8046875,1.0,1.0,0.0,0.0,3.m4v,8.0
2024-02-28 10:22:51.844810,1709112171.84481,-35.64453125,-20.01953125,-33.203125,-39.55078125,1.0,1.0,0.0,0.0,3.m4v,8.0
2024-02-28 10:22:51.848716,1709112171.8487155,-34.66796875,-19.53125,-19.04296875,-37.59765625,1.0,1.0,0.0,0.0,3.m4v,8.0
2024-02-28 10:22:51.852621,1709112171.852621,-23.4375,-14.6484375,-35.64453125,-33.203125,1.0,1.0,0.0,0.0,3.m4v,8.0
2024-02-28 10:22:51.856527,1709112171.8565269,-21.97265625,-12.6953125,-37.109375,-27.83203125,1.0,1.0,0.0,0.0,3.m4v,8.0
2024-02-28 10:22:51.860432,1709112171.8604324,-24.4140625,-22.4609375,-28.3203125,-41.50390625,1.0,1.0,0.0,0.0,3.m4v,8.0
2024-02-28 10:22:51.864338,1709112171.8643382,-27.83203125,-33.203125,-30.2734375,-31.25,1.0,1.0,0.0,0.0,3.m4v,8.0
2024-02-28 10:22:51.868244,1709112171.8682437,-23.92578125,-37.59765625,-29.78515625,-19.04296875,1.0,1.0,0.0,0.0,3.m4v,8.0
2024-02-28 10:22:51.872149,1709112171.8721492,-20.01953125,-37.59765625,-30.2734375,-31.25,1.0,1.0,0.0,0.0,3.m4v,8.0
2024-02-28 10:22:51.876055,1709112171.876055,-22.4609375,-43.45703125,-24.90234375,-42.96875,1.0,1.0,0.0,0.0,3.m4v,8.0
2024-02-28 10:22:51.879961,1709112171.8799603,-21.484375,-37.59765625,-27.34375,-36.1328125,1.0,1.0,0.0,0.0,3.m4v,8.0
2024-02-28 10:22:51.883866,1709112171.883866,-23.92578125,-24.4140625,-42.48046875,-20.99609375,1.0,1.0,0.0,0.0,3.m4v,8.0
2024-02-28 10:22:51.887776,1709112171.887776,-16.6015625,-31.73828125,-60.546875,-13.671875,1.0,1.0,0.0,0.0,3.m4v,8.0
2024-02-28 10:22:51.891681,1709112171.8916814,-13.671875,-28.80859375,-54.19921875,-18.06640625,1.0,1.0,0.0,0.0,3.m4v,8.0
2024-02-28 10:22:51.895587,1709112171.8955872,-19.04296875,-13.18359375,-25.87890625,-24.4140625,1.0,1.0,0.0,0.0,3.m4v,8.0
2024-02-28 10:22:51.899493,1709112171.8994927,-18.06640625,-10.25390625,-6.34765625,-30.76171875,1.0,1.0,0.0,0.0,3.m4v,8.0
2024-02-28 10:22:51.903399,1709112171.9033985,-25.87890625,-25.87890625,-17.578125,-37.109375,1.0,1.0,0.0,0.0,3.m4v,8.0
2024-02-28 10:22:51.907304,1709112171.907304,-42.48046875,-33.203125,-35.64453125,-38.57421875,1.0,1.0,0.0,0.0,3.m4v,8.0
2024-02-28 10:22:51.911210,1709112171.9112096,-41.50390625,-39.0625,-25.87890625,-41.50390625,1.0,1.0,0.0,0.0,3.m4v,8.0
2024-02-28 10:22:51.915115,1709112171.9151154,-38.57421875,-49.8046875,-20.01953125,-38.0859375,1.0,1.0,0.0,0.0,3.m4v,8.0
2024-02-28 10:22:51.919021,1709112171.919021,-32.71484375,-40.0390625,-34.66796875,-31.25,1.0,1.0,0.0,0.0,3.m4v,8.0
2024-02-28 10:22:51.922926,1709112171.9229264,-21.484375,-21.97265625,-60.05859375,-27.83203125,1.0,1.0,0.0,0.0,3.m4v,8.0
2024-02-28 10:22:51.926832,1709112171.9268322,-34.1796875,-24.4140625,-56.15234375,-30.2734375,1.0,1.0,0.0,0.0,3.m4v,8.0
2024-02-28 10:22:51.930738,1709112171.9307375,-36.62109375,-34.1796875,-29.78515625,-31.73828125,1.0,1.0,0.0,0.0,3.m4v,8.0
2024-02-28 10:22:51.934647,1709112171.934647,-21.97265625,-39.55078125,-36.62109375,-23.92578125,1.0,1.0,0.0,0.0,3.m4v,8.0
2024-02-28 10:22:51.938553,1709112171.9385529,-8.30078125,-28.80859375,-36.1328125,-10.25390625,1.0,1.0,0.0,0.0,3.m4v,8.0
2024-02-28 10:22:51.942458,1709112171.9424584,-5.859375,-23.92578125,-26.85546875,-13.671875,1.0,1.0,0.0,0.0,3.m4v,8.0
2024-02-28 10:22:51.946364,1709112171.9463642,-26.85546875,-36.62109375,-22.94921875,-37.59765625,1.0,1.0,0.0,0.0,3.m4v,8.0
2024-02-28 10:22:51.950270,1709112171.9502697,-51.7578125,-38.0859375,-32.2265625,-54.19921875,1.0,1.0,0.0,0.0,3.m4v,8.0
2024-02-28 10:22:51.954175,1709112171.9541757,-37.109375,-28.3203125,-34.1796875,-43.45703125,1.0,1.0,0.0,0.0,3.m4v,8.0
2024-02-28 10:22:51.958081,1709112171.958081,-25.390625,-32.2265625,-32.2265625,-32.2265625,1.0,1.0,0.0,0.0,3.m4v,8.0
2024-02-28 10:22:51.961987,1709112171.9619863,-33.203125,-47.36328125,-30.2734375,-37.109375,1.0,1.0,0.0,0.0,3.m4v,8.0
2024-02-28 10:22:51.965892,1709112171.9658923,-24.90234375,-47.8515625,-19.04296875,-31.25,1.0,1.0,0.0,0.0,3.m4v,8.0
2024-02-28 10:22:51.969798,1709112171.9697978,-19.53125,-42.96875,-28.80859375,-31.25,1.0,1.0,0.0,0.0,3.m4v,8.0
2024-02-28 10:22:51.973703,1709112171.9737034,-31.73828125,-34.1796875,-43.9453125,-32.71484375,1.0,1.0,0.0,0.0,3.m4v,8.0
2024-02-28 10:22:51.977609,1709112171.9776092,-23.92578125,-21.97265625,-44.921875,-22.4609375,1.0,1.0,0.0,0.0,3.m4v,8.0
2024-02-28 10:22:51.981520,1709112171.9815204,-10.25390625,-21.97265625,-49.31640625,-12.20703125,1.0,1.0,0.0,0.0,3.m4v,8.0
2024-02-28 10:22:51.985426,1709112171.9854262,-23.4375,-27.83203125,-50.78125,-10.7421875,1.0,1.0,0.0,0.0,3.m4v,8.0
2024-02-28 10:22:51.989332,1709112171.9893315,-25.87890625,-19.04296875,-20.5078125,-6.34765625,1.0,1.0,0.0,0.0,3.m4v,8.0
2024-02-28 10:22:51.993237,1709112171.9932373,-19.53125,-17.08984375,-3.90625,-9.27734375,1.0,1.0,0.0,0.0,3.m4v,8.0
2024-02-28 10:22:51.997143,1709112171.997143,-27.83203125,-30.76171875,-9.765625,-31.25,1.0,1.0,0.0,0.0,3.m4v,8.0
2024-02-28 10:22:52.001049,1709112172.0010486,-38.0859375,-40.0390625,-13.671875,-43.9453125,1.0,1.0,0.0,0.0,3.m4v,8.0
2024-02-28 10:22:52.004954,1709112172.0049543,-38.0859375,-41.015625,-17.08984375,-41.015625,1.0,1.0,0.0,0.0,3.m4v,8.0
2024-02-28 10:22:52.008860,1709112172.00886,-34.1796875,-37.109375,-16.6015625,-40.52734375,1.0,1.0,0.0,0.0,3.m4v,8.0
2024-02-28 10:22:52.012765,1709112172.0127654,-38.0859375,-33.203125,-45.41015625,-34.1796875,1.0,1.0,0.0,0.0,3.m4v,8.0
2024-02-28 10:22:52.016671,1709112172.0166712,-51.7578125,-30.76171875,-74.70703125,-20.5078125,1.0,1.0,0.0,0.0,3.m4v,8.0
2024-02-28 10:22:52.020577,1709112172.0205767,-63.4765625,-36.1328125,-47.8515625,-32.71484375,1.0,1.0,0.0,0.0,3.m4v,8.0
2024-02-28 10:22:52.024482,1709112172.0244825,-56.15234375,-41.50390625,-32.71484375,-40.52734375,1.0,1.0,0.0,0.0,3.m4v,8.0
2024-02-28 10:22:52.028394,1709112172.0283935,-26.3671875,-34.66796875,-43.45703125,-34.66796875,1.0,1.0,0.0,0.0,3.m4v,8.0
2024-02-28 10:22:52.032299,1709112172.032299,-33.203125,-32.71484375,-28.3203125,-35.64453125,1.0,1.0,0.0,0.0,3.m4v,8.0
2024-02-28 10:22:52.036205,1709112172.0362048,-50.29296875,-39.55078125,-14.16015625,-35.15625,1.0,1.0,0.0,0.0,3.m4v,8.0
2024-02-28 10:22:52.040110,1709112172.0401103,-48.33984375,-45.8984375,-14.6484375,-36.62109375,1.0,1.0,0.0,0.0,3.m4v,8.0
2024-02-28 10:22:52.044016,1709112172.044016,-41.9921875,-34.66796875,-16.11328125,-34.66796875,1.0,1.0,0.0,0.0,3.m4v,8.0
2024-02-28 10:22:52.047922,1709112172.0479217,-30.2734375,-29.78515625,-27.83203125,-22.94921875,1.0,1.0,0.0,0.0,3.m4v,8.0
2024-02-28 10:22:52.051827,1709112172.0518272,-33.69140625,-41.50390625,-45.41015625,-20.99609375,1.0,1.0,0.0,0.0,3.m4v,8.0
2024-02-28 10:22:52.055733,1709112172.0557327,-42.48046875,-41.015625,-44.43359375,-43.9453125,1.0,1.0,0.0,0.0,3.m4v,8.0
2024-02-28 10:22:52.059639,1709112172.0596385,-53.7109375,-27.34375,-34.1796875,-59.08203125,1.0,1.0,0.0,0.0,3.m4v,8.0
2024-02-28 10:22:52.063544,1709112172.063544,-58.10546875,-23.92578125,-36.1328125,-45.41015625,1.0,1.0,0.0,0.0,3.m4v,8.0
2024-02-28 10:22:52.067450,1709112172.0674498,-55.6640625,-37.59765625,-47.36328125,-41.50390625,1.0,1.0,0.0,0.0,3.m4v,8.0
2024-02-28 10:22:52.071355,1709112172.071355,-41.50390625,-36.1328125,-59.5703125,-30.76171875,1.0,1.0,0.0,0.0,3.m4v,8.0
2024-02-28 10:22:52.075266,1709112172.075266,-38.57421875,-25.87890625,-48.828125,-31.73828125,1.0,1.0,0.0,0.0,3.m4v,8.0
2024-02-28 10:22:52.079172,1709112172.079172,-38.57421875,-33.69140625,-30.76171875,-48.33984375,1.0,1.0,0.0,0.0,3.m4v,8.0
2024-02-28 10:22:52.083077,1709112172.0830774,-22.4609375,-31.25,-28.80859375,-35.64453125,1.0,1.0,0.0,0.0,3.m4v,8.0
2024-02-28 10:22:52.086983,1709112172.086983,-28.3203125,-15.625,-20.5078125,-35.64453125,1.0,1.0,0.0,0.0,3.m4v,8.0
2024-02-28 10:22:52.090889,1709112172.0908887,-31.73828125,-17.08984375,-27.34375,-35.64453125,1.0,1.0,0.0,0.0,3.m4v,8.0
2024-02-28 10:22:52.094794,1709112172.0947945,-30.2734375,-18.06640625,-37.109375,-31.25,1.0,1.0,0.0,0.0,3.m4v,8.0
2024-02-28 10:22:52.098700,1709112172.0987,-43.9453125,-23.92578125,-33.69140625,-50.78125,1.0,1.0,0.0,0.0,3.m4v,8.0
2024-02-28 10:22:52.102606,1709112172.1026056,-57.12890625,-32.71484375,-34.1796875,-55.6640625,1.0,1.0,0.0,0.0,3.m4v,8.0
2024-02-28 10:22:52.106511,1709112172.106511,-49.8046875,-36.1328125,-40.0390625,-51.26953125,1.0,1.0,0.0,0.0,3.m4v,8.0
2024-02-28 10:22:52.110417,1709112172.110417,-42.48046875,-41.015625,-57.6171875,-47.8515625,1.0,1.0,0.0,0.0,3.m4v,8.0
2024-02-28 10:22:52.114322,1709112172.1143224,-49.31640625,-40.52734375,-40.0390625,-46.875,1.0,1.0,0.0,0.0,3.m4v,8.0
2024-02-28 10:22:52.118228,1709112172.1182282,-48.33984375,-37.109375,-25.390625,-47.36328125,1.0,1.0,0.0,0.0,3.m4v,8.0
2024-02-28 10:22:52.122139,1709112172.1221387,-25.390625,-35.15625,-41.50390625,-29.296875,1.0,1.0,0.0,0.0,3.m4v,8.0
2024-02-28 10:22:52.126044,1709112172.1260445,-29.296875,-29.78515625,-26.3671875,-20.01953125,1.0,1.0,0.0,0.0,3.m4v,8.0
2024-02-28 10:22:52.129950,1709112172.1299498,-51.7578125,-25.87890625,-18.06640625,-38.0859375,1.0,1.0,0.0,0.0,3.m4v,8.0
2024-02-28 10:22:52.133856,1709112172.1338556,-41.015625,-25.87890625,-31.73828125,-42.48046875,1.0,1.0,0.0,0.0,3.m4v,8.0
2024-02-28 10:22:52.137761,1709112172.137761,-30.76171875,-30.76171875,-36.62109375,-39.55078125,1.0,1.0,0.0,0.0,3.m4v,8.0
2024-02-28 10:22:52.141667,1709112172.141667,-52.734375,-30.76171875,-37.59765625,-40.52734375,1.0,1.0,0.0,0.0,3.m4v,8.0
2024-02-28 10:22:52.145572,1709112172.1455724,-43.9453125,-32.2265625,-20.01953125,-29.78515625,1.0,1.0,0.0,0.0,3.m4v,8.0
2024-02-28 10:22:52.149478,1709112172.149478,-26.85546875,-29.296875,-22.94921875,-26.3671875,1.0,1.0,0.0,0.0,3.m4v,8.0
2024-02-28 10:22:52.153384,1709112172.1533835,-21.97265625,-20.5078125,-45.8984375,-16.6015625,1.0,1.0,0.0,0.0,3.m4v,8.0
2024-02-28 10:22:52.157289,1709112172.1572893,-23.4375,-22.4609375,-33.203125,-13.671875,1.0,1.0,0.0,0.0,3.m4v,8.0
2024-02-28 10:22:52.161195,1709112172.161195,-38.0859375,-30.76171875,-21.484375,-34.66796875,1.0,1.0,0.0,0.0,3.m4v,8.0
2024-02-28 10:22:52.165101,1709112172.1651006,-35.64453125,-29.78515625,-33.203125,-28.3203125,1.0,1.0,0.0,0.0,3.m4v,8.0
2024-02-28 10:22:52.169011,1709112172.1690109,-49.8046875,-31.25,-40.52734375,-38.57421875,1.0,1.0,0.0,0.0,3.m4v,8.0
2024-02-28 10:22:52.172916,1709112172.1729164,-58.10546875,-37.59765625,-32.2265625,-50.78125,1.0,1.0,0.0,0.0,3.m4v,8.0
2024-02-28 10:22:52.176822,1709112172.176822,-39.0625,-43.9453125,-18.5546875,-43.45703125,1.0,1.0,0.0,0.0,3.m4v,8.0
2024-02-28 10:22:52.180728,1709112172.1807275,-34.1796875,-38.0859375,-10.7421875,-31.73828125,1.0,1.0,0.0,0.0,3.m4v,8.0
2024-02-28 10:22:52.184633,1709112172.1846333,-41.50390625,-36.62109375,-17.08984375,-24.4140625,1.0,1.0,0.0,0.0,3.m4v,8.0
2024-02-28 10:22:52.188539,1709112172.188539,-21.484375,-34.66796875,-34.66796875,-18.5546875,1.0,1.0,0.0,0.0,3.m4v,8.0
2024-02-28 10:22:52.192445,1709112172.1924446,-33.203125,-21.484375,-55.6640625,-26.3671875,1.0,1.0,0.0,0.0,3.m4v,8.0
2024-02-28 10:22:52.196350,1709112172.19635,-45.8984375,-22.4609375,-57.6171875,-33.69140625,1.0,1.0,0.0,0.0,3.m4v,8.0
2024-02-28 10:22:52.200256,1709112172.200256,-35.15625,-34.66796875,-37.109375,-32.71484375,1.0,1.0,0.0,0.0,3.m4v,8.0
2024-02-28 10:22:52.204161,1709112172.2041614,-30.2734375,-49.31640625,-28.80859375,-35.64453125,1.0,1.0,0.0,0.0,3.m4v,8.0
2024-02-28 10:22:52.208067,1709112172.2080672,-25.390625,-54.19921875,-29.78515625,-28.3203125,1.0,1.0,0.0,0.0,3.m4v,8.0
2024-02-28 10:22:52.211973,1709112172.2119727,-28.3203125,-42.48046875,-20.5078125,-35.15625,1.0,1.0,0.0,0.0,3.m4v,8.0
2024-02-28 10:22:52.215883,1709112172.2158828,-49.8046875,-31.25,-21.97265625,-49.31640625,1.0,1.0,0.0,0.0,3.m4v,8.0
2024-02-28 10:22:52.219788,1709112172.2197883,-68.359375,-27.34375,-20.99609375,-42.48046875,1.0,1.0,0.0,0.0,3.m4v,8.0
2024-02-28 10:22:52.223694,1709112172.223694,-59.5703125,-35.64453125,-21.97265625,-41.015625,1.0,1.0,0.0,0.0,3.m4v,8.0
2024-02-28 10:22:52.227600,1709112172.2275996,-41.015625,-42.96875,-41.50390625,-31.25,1.0,1.0,0.0,0.0,3.m4v,8.0
2024-02-28 10:22:52.231505,1709112172.2315052,-29.78515625,-48.33984375,-69.82421875,-12.6953125,1.0,1.0,0.0,0.0,3.m4v,8.0
2024-02-28 10:22:52.235411,1709112172.235411,-29.78515625,-58.59375,-71.77734375,-14.16015625,1.0,1.0,0.0,0.0,3.m4v,8.0
2024-02-28 10:22:52.239316,1709112172.2393165,-42.48046875,-54.6875,-36.62109375,-41.015625,1.0,1.0,0.0,0.0,3.m4v,8.0
2024-02-28 10:22:52.243222,1709112172.2432222,-54.6875,-48.828125,-1.953125,-55.6640625,1.0,1.0,0.0,0.0,3.m4v,8.0
2024-02-28 10:22:52.247128,1709112172.2471278,-63.96484375,-38.57421875,-4.8828125,-44.43359375,1.0,1.0,0.0,0.0,3.m4v,8.0
2024-02-28 10:22:52.251033,1709112172.2510333,-53.7109375,-28.3203125,-26.3671875,-45.41015625,1.0,1.0,0.0,0.0,3.m4v,8.0
2024-02-28 10:22:52.254939,1709112172.254939,-49.31640625,-27.83203125,-25.87890625,-48.33984375,1.0,1.0,0.0,0.0,3.m4v,8.0
2024-02-28 10:22:52.258845,1709112172.2588446,-47.8515625,-32.2265625,-31.73828125,-43.45703125,1.0,1.0,0.0,0.0,3.m4v,8.0
2024-02-28 10:22:52.262755,1709112172.262755,-35.15625,-23.92578125,-33.203125,-21.97265625,1.0,1.0,0.0,0.0,3.m4v,8.0
2024-02-28 10:22:52.266660,1709112172.2666602,-41.9921875,-24.90234375,-34.1796875,-23.92578125,1.0,1.0,0.0,0.0,3.m4v,8.0
2024-02-28 10:22:52.270566,1709112172.270566,-46.38671875,-39.0625,-49.31640625,-43.9453125,1.0,1.0,0.0,0.0,3.m4v,8.0
2024-02-28 10:22:52.274472,1709112172.2744715,-31.73828125,-35.64453125,-54.6875,-37.59765625,1.0,1.0,0.0,0.0,3.m4v,8.0
2024-02-28 10:22:52.278377,1709112172.278377,-22.4609375,-30.2734375,-54.6875,-17.578125,1.0,1.0,0.0,0.0,3.m4v,8.0
2024-02-28 10:22:52.282283,1709112172.2822828,-27.83203125,-36.1328125,-45.8984375,-10.7421875,1.0,1.0,0.0,0.0,3.m4v,8.0
2024-02-28 10:22:52.286188,1709112172.2861884,-37.109375,-44.43359375,-39.0625,-23.4375,1.0,1.0,0.0,0.0,3.m4v,8.0
2024-02-28 10:22:52.290094,1709112172.290094,-32.71484375,-41.50390625,-32.2265625,-39.55078125,1.0,1.0,0.0,0.0,3.m4v,8.0
2024-02-28 10:22:52.294000,1709112172.2939997,-34.1796875,-40.52734375,-15.13671875,-47.36328125,1.0,1.0,0.0,0.0,3.m4v,8.0
2024-02-28 10:22:52.297905,1709112172.2979052,-43.9453125,-52.24609375,-10.7421875,-47.8515625,1.0,1.0,0.0,0.0,3.m4v,8.0
2024-02-28 10:22:52.301811,1709112172.301811,-29.78515625,-46.875,-12.20703125,-47.36328125,1.0,1.0,0.0,0.0,3.m4v,8.0
2024-02-28 10:22:52.305717,1709112172.3057165,-8.30078125,-31.73828125,-41.9921875,-28.3203125,1.0,1.0,0.0,0.0,3.m4v,8.0
2024-02-28 10:22:52.309626,1709112172.309626,-9.765625,-38.57421875,-77.1484375,-10.7421875,1.0,1.0,0.0,0.0,3.m4v,8.0
2024-02-28 10:22:52.313531,1709112172.3135314,-20.99609375,-36.1328125,-58.59375,-18.5546875,1.0,1.0,0.0,0.0,3.m4v,8.0
2024-02-28 10:22:52.317437,1709112172.317437,-19.04296875,-12.6953125,-35.15625,-17.08984375,1.0,1.0,0.0,0.0,3.m4v,8.0
2024-02-28 10:22:52.321343,1709112172.3213427,-34.66796875,-26.3671875,-21.97265625,-13.671875,1.0,1.0,0.0,0.0,3.m4v,8.0
2024-02-28 10:22:52.325248,1709112172.3252482,-40.52734375,-44.43359375,-7.8125,-41.015625,1.0,1.0,0.0,0.0,3.m4v,8.0
2024-02-28 10:22:52.329154,1709112172.329154,-27.34375,-27.34375,-20.01953125,-39.0625,1.0,1.0,0.0,0.0,3.m4v,8.0
2024-02-28 10:22:52.333060,1709112172.3330595,-35.64453125,-16.6015625,-31.73828125,-24.4140625,1.0,1.0,0.0,0.0,3.m4v,8.0
2024-02-28 10:22:52.336965,1709112172.336965,-40.0390625,-24.90234375,-35.64453125,-40.0390625,1.0,1.0,0.0,0.0,3.m4v,8.0
2024-02-28 10:22:52.340871,1709112172.3408709,-46.38671875,-35.15625,-41.015625,-46.875,1.0,1.0,0.0,0.0,3.m4v,8.0
2024-02-28 10:22:52.344776,1709112172.3447764,-59.08203125,-39.55078125,-37.109375,-39.55078125,1.0,1.0,0.0,0.0,3.m4v,8.0
2024-02-28 10:22:52.348682,1709112172.3486822,-57.6171875,-39.55078125,-32.2265625,-46.38671875,1.0,1.0,0.0,0.0,3.m4v,8.0
2024-02-28 10:22:52.352588,1709112172.3525877,-60.05859375,-36.62109375,-42.48046875,-43.9453125,1.0,1.0,0.0,0.0,3.m4v,8.0
2024-02-28 10:22:52.356499,1709112172.356499,-55.17578125,-45.8984375,-41.015625,-37.59765625,1.0,1.0,0.0,0.0,3.m4v,8.0
2024-02-28 10:22:52.360405,1709112172.3604047,-45.41015625,-54.6875,-35.64453125,-40.0390625,1.0,1.0,0.0,0.0,3.m4v,8.0
2024-02-28 10:22:52.364310,1709112172.3643105,-25.87890625,-33.69140625,-32.71484375,-20.5078125,1.0,1.0,0.0,0.0,3.m4v,8.0
2024-02-28 10:22:52.368216,1709112172.368216,-20.5078125,-20.01953125,-34.66796875,-7.32421875,1.0,1.0,0.0,0.0,3.m4v,8.0
2024-02-28 10:22:52.372122,1709112172.3721216,-31.25,-31.73828125,-37.109375,-19.53125,1.0,1.0,0.0,0.0,3.m4v,8.0
2024-02-28 10:22:52.376027,1709112172.376027,-41.9921875,-42.96875,-41.9921875,-23.92578125,1.0,1.0,0.0,0.0,3.m4v,8.0
2024-02-28 10:22:52.379933,1709112172.3799329,-41.9921875,-47.8515625,-44.43359375,-24.90234375,1.0,1.0,0.0,0.0,3.m4v,8.0
2024-02-28 10:22:52.383838,1709112172.3838384,-33.203125,-51.26953125,-16.6015625,-26.3671875,1.0,1.0,0.0,0.0,3.m4v,8.0
2024-02-28 10:22:52.387744,1709112172.387744,-26.85546875,-39.0625,-1.46484375,-40.52734375,1.0,1.0,0.0,0.0,3.m4v,8.0
2024-02-28 10:22:52.391650,1709112172.3916495,-22.4609375,-13.18359375,-12.6953125,-43.45703125,1.0,1.0,0.0,0.0,3.m4v,8.0
2024-02-28 10:22:52.395555,1709112172.3955553,-33.203125,-1.953125,-32.2265625,-32.2265625,1.0,1.0,0.0,0.0,3.m4v,8.0
2024-02-28 10:22:52.399461,1709112172.399461,-32.2265625,-16.11328125,-36.1328125,-35.64453125,1.0,1.0,0.0,0.0,3.m4v,8.0
2024-02-28 10:22:52.403372,1709112172.403372,-28.3203125,-23.92578125,-27.83203125,-38.57421875,1.0,1.0,0.0,0.0,3.m4v,8.0
2024-02-28 10:22:52.407278,1709112172.4072776,-27.34375,-25.390625,-36.62109375,-43.9453125,1.0,1.0,0.0,0.0,3.m4v,8.0
2024-02-28 10:22:52.411183,1709112172.4111834,-32.2265625,-36.1328125,-43.9453125,-42.96875,1.0,1.0,0.0,0.0,3.m4v,8.0
2024-02-28 10:22:52.415089,1709112172.415089,-34.66796875,-39.55078125,-35.15625,-33.203125,1.0,1.0,0.0,0.0,3.m4v,8.0
2024-02-28 10:22:52.422900,1709112172.4229002,-41.015625,-47.8515625,-20.01953125,-48.33984375,1.0,1.0,0.0,0.0,3.m4v,8.0
2024-02-28 10:22:52.430712,1709112172.4307115,-39.55078125,-30.76171875,-21.97265625,-21.97265625,1.0,1.0,0.0,0.0,3.m4v,8.0
2024-02-28 10:22:52.438523,1709112172.4385226,-44.921875,-48.33984375,-39.55078125,-48.33984375,1.0,1.0,0.0,0.0,3.m4v,8.0
2024-02-28 10:22:52.446334,1709112172.446334,-35.64453125,-29.78515625,-6.8359375,-48.828125,1.0,1.0,0.0,0.0,3.m4v,8.0
2024-02-28 10:22:52.454150,1709112172.4541504,-30.2734375,-40.52734375,-42.48046875,-15.13671875,1.0,1.0,0.0,0.0,3.m4v,8.0
2024-02-28 10:22:52.461962,1709112172.4619615,-34.66796875,-16.11328125,-44.921875,-23.92578125,1.0,1.0,0.0,0.0,3.m4v,8.0
2024-02-28 10:22:52.469773,1709112172.4697728,-30.2734375,-36.62109375,-53.7109375,-43.45703125,1.0,1.0,0.0,0.0,3.m4v,8.0
2024-02-28 10:22:52.477584,1709112172.477584,-31.25,-39.0625,-13.671875,-29.78515625,1.0,1.0,0.0,0.0,3.m4v,8.0
2024-02-28 10:22:52.485395,1709112172.4853954,-41.9921875,-34.66796875,-14.16015625,-48.33984375,1.0,1.0,0.0,0.0,3.m4v,8.0
2024-02-28 10:22:52.493207,1709112172.4932065,-25.87890625,-50.78125,-32.2265625,-38.57421875,1.0,1.0,0.0,0.0,3.m4v,8.0
2024-02-28 10:22:52.879908,1709112172.8799083,-42.48046875,-23.4375,-13.18359375,-30.76171875,1.0,1.0,0.0,0.0,3.m4v,8.0
2024-02-28 10:22:52.883814,1709112172.883814,-37.109375,-12.20703125,-28.80859375,-17.578125,1.0,1.0,0.0,0.0,3.m4v,8.0
2024-02-28 10:22:52.887720,1709112172.8877196,-37.59765625,-25.390625,-39.0625,-35.15625,1.0,1.0,0.0,0.0,3.m4v,8.0
2024-02-28 10:22:52.891625,1709112172.8916252,-55.17578125,-44.43359375,-33.69140625,-58.59375,1.0,1.0,0.0,0.0,3.m4v,8.0
2024-02-28 10:22:52.895531,1709112172.8955307,-54.6875,-45.8984375,-23.92578125,-66.89453125,1.0,1.0,0.0,0.0,3.m4v,8.0
2024-02-28 10:22:52.899436,1709112172.8994365,-42.96875,-43.45703125,-33.203125,-59.5703125,1.0,1.0,0.0,0.0,3.m4v,8.0
2024-02-28 10:22:52.903342,1709112172.903342,-42.48046875,-36.62109375,-36.1328125,-49.8046875,1.0,1.0,0.0,0.0,3.m4v,8.0
2024-02-28 10:22:52.907248,1709112172.9072478,-49.31640625,-30.76171875,-39.0625,-53.22265625,1.0,1.0,0.0,0.0,3.m4v,8.0
2024-02-28 10:22:52.911153,1709112172.9111533,-49.31640625,-27.34375,-56.640625,-60.05859375,1.0,1.0,0.0,0.0,3.m4v,8.0
2024-02-28 10:22:52.915059,1709112172.9150589,-53.7109375,-22.94921875,-49.8046875,-59.5703125,1.0,1.0,0.0,0.0,3.m4v,8.0
2024-02-28 10:22:52.918969,1709112172.9189692,-44.921875,-16.11328125,-31.73828125,-50.78125,1.0,1.0,0.0,0.0,3.m4v,8.0
2024-02-28 10:22:52.922875,1709112172.922875,-29.296875,-17.08984375,-35.64453125,-51.26953125,1.0,1.0,0.0,0.0,3.m4v,8.0
2024-02-28 10:22:52.926780,1709112172.9267805,-51.26953125,-30.76171875,-56.15234375,-59.08203125,1.0,1.0,0.0,0.0,3.m4v,8.0
2024-02-28 10:22:52.930686,1709112172.930686,-71.77734375,-42.96875,-44.921875,-77.63671875,1.0,1.0,0.0,0.0,3.m4v,8.0
2024-02-28 10:22:52.934592,1709112172.9345918,-70.3125,-44.43359375,-27.83203125,-85.44921875,1.0,1.0,0.0,0.0,3.m4v,8.0
2024-02-28 10:22:52.938497,1709112172.9384973,-71.77734375,-22.94921875,-35.64453125,-71.2890625,1.0,1.0,0.0,0.0,3.m4v,8.0
2024-02-28 10:22:52.942403,1709112172.942403,-59.5703125,-9.765625,-47.8515625,-57.6171875,1.0,1.0,0.0,0.0,3.m4v,8.0
2024-02-28 10:22:52.946309,1709112172.9463086,-51.7578125,-25.390625,-56.15234375,-63.96484375,1.0,1.0,0.0,0.0,3.m4v,8.0
2024-02-28 10:22:52.950214,1709112172.950214,-78.125,-37.59765625,-44.921875,-81.54296875,1.0,1.0,0.0,0.0,3.m4v,8.0
2024-02-28 10:22:52.954120,1709112172.95412,-80.078125,-29.78515625,-38.0859375,-62.5,1.0,1.0,0.0,0.0,3.m4v,8.0
2024-02-28 10:22:52.958025,1709112172.9580257,-53.22265625,-18.5546875,-43.45703125,-50.29296875,1.0,1.0,0.0,0.0,3.m4v,8.0
2024-02-28 10:22:52.961931,1709112172.961931,-47.8515625,-19.04296875,-18.06640625,-81.0546875,1.0,1.0,0.0,0.0,3.m4v,8.0
2024-02-28 10:22:52.965841,1709112172.965841,-68.359375,-20.99609375,8.30078125,-94.23828125,1.0,1.0,0.0,0.0,3.m4v,8.0
2024-02-28 10:22:52.969747,1709112172.9697468,-78.61328125,-14.16015625,-17.08984375,-97.16796875,1.0,1.0,0.0,0.0,3.m4v,8.0
2024-02-28 10:22:52.973652,1709112172.9736524,-75.1953125,-9.765625,-42.96875,-85.44921875,1.0,1.0,0.0,0.0,3.m4v,8.0
2024-02-28 10:22:53.270510,1709112173.27051,-32.71484375,-29.296875,-42.96875,-26.85546875,1.0,1.0,0.0,0.0,3.m4v,8.0
2024-02-28 10:22:53.274415,1709112173.2744155,-20.01953125,-34.1796875,-64.94140625,-1.953125,1.0,1.0,0.0,0.0,3.m4v,8.0
2024-02-28 10:22:53.278321,1709112173.278321,-21.97265625,-50.29296875,-42.48046875,-9.27734375,1.0,1.0,0.0,0.0,3.m4v,8.0
2024-02-28 10:22:53.282227,1709112173.2822268,-24.90234375,-37.109375,-22.94921875,-17.578125,1.0,1.0,0.0,0.0,3.m4v,8.0
2024-02-28 10:22:53.286132,1709112173.2861323,-29.296875,-31.25,-18.5546875,-28.80859375,1.0,1.0,0.0,0.0,3.m4v,8.0
2024-02-28 10:22:53.290038,1709112173.290038,-38.57421875,-40.52734375,-21.97265625,-30.76171875,1.0,1.0,0.0,0.0,3.m4v,8.0
2024-02-28 10:22:53.293948,1709112173.2939482,-35.64453125,-41.50390625,-34.66796875,-24.90234375,1.0,1.0,0.0,0.0,3.m4v,8.0
2024-02-28 10:22:53.297854,1709112173.297854,-30.76171875,-28.80859375,-38.0859375,-34.1796875,1.0,1.0,0.0,0.0,3.m4v,8.0
2024-02-28 10:22:53.301759,1709112173.3017595,-24.4140625,-33.69140625,-25.390625,-37.109375,1.0,1.0,0.0,0.0,3.m4v,8.0
2024-02-28 10:22:53.305665,1709112173.3056653,-12.6953125,-42.48046875,-13.18359375,-18.06640625,1.0,1.0,0.0,0.0,3.m4v,8.0
2024-02-28 10:22:53.309571,1709112173.3095708,-23.4375,-24.4140625,-38.57421875,-26.85546875,1.0,1.0,0.0,0.0,3.m4v,8.0
2024-02-28 10:22:53.313476,1709112173.3134763,-31.73828125,-25.390625,-47.8515625,-41.50390625,1.0,1.0,0.0,0.0,3.m4v,8.0
2024-02-28 10:22:53.317382,1709112173.317382,-37.59765625,-32.71484375,-33.69140625,-35.15625,1.0,1.0,0.0,0.0,3.m4v,8.0
2024-02-28 10:22:53.321288,1709112173.3212876,-44.43359375,-26.3671875,-43.45703125,-42.48046875,1.0,1.0,0.0,0.0,3.m4v,8.0
2024-02-28 10:22:53.325193,1709112173.3251934,-34.66796875,-33.203125,-41.9921875,-36.62109375,1.0,1.0,0.0,0.0,3.m4v,8.0
2024-02-28 10:22:53.329099,1709112173.329099,-36.62109375,-43.9453125,-31.25,-26.3671875,1.0,1.0,0.0,0.0,3.m4v,8.0
2024-02-28 10:22:53.333004,1709112173.3330045,-37.59765625,-44.43359375,-26.85546875,-25.390625,1.0,1.0,0.0,0.0,3.m4v,8.0
2024-02-28 10:22:53.336910,1709112173.3369102,-17.578125,-40.0390625,-27.83203125,-12.20703125,1.0,1.0,0.0,0.0,3.m4v,8.0
2024-02-28 10:22:53.340820,1709112173.3408203,-4.39453125,-28.3203125,-28.80859375,-3.90625,1.0,1.0,0.0,0.0,3.m4v,8.0
2024-02-28 10:22:53.344726,1709112173.3447258,-27.83203125,-22.94921875,-33.69140625,-26.85546875,1.0,1.0,0.0,0.0,3.m4v,8.0
2024-02-28 10:22:53.348631,1709112173.3486314,-32.2265625,-30.2734375,-39.55078125,-38.57421875,1.0,1.0,0.0,0.0,3.m4v,8.0
2024-02-28 10:22:53.352537,1709112173.3525372,-15.625,-23.92578125,-39.55078125,-35.15625,1.0,1.0,0.0,0.0,3.m4v,8.0
2024-02-28 10:22:53.356443,1709112173.3564427,-8.7890625,-19.53125,-39.55078125,-16.11328125,1.0,1.0,0.0,0.0,3.m4v,8.0
2024-02-28 10:22:53.360348,1709112173.3603482,-18.06640625,-20.99609375,-54.6875,-5.859375,1.0,1.0,0.0,0.0,3.m4v,8.0
2024-02-28 10:22:53.364254,1709112173.364254,-45.41015625,-13.671875,-76.171875,-27.34375,1.0,1.0,0.0,0.0,3.m4v,8.0
2024-02-28 10:22:53.368160,1709112173.3681595,-15.625,-17.08984375,-75.68359375,-42.96875,1.0,1.0,0.0,0.0,3.m4v,8.0
2024-02-28 10:22:53.375971,1709112173.3759708,-38.0859375,-45.41015625,-27.34375,-33.203125,1.0,1.0,0.0,0.0,3.m4v,8.0
2024-02-28 10:22:53.383782,1709112173.383782,-30.2734375,-29.78515625,-32.71484375,-5.37109375,1.0,1.0,0.0,0.0,3.m4v,8.0
2024-02-28 10:22:53.391598,1709112173.3915975,-28.80859375,-33.69140625,-35.15625,-32.71484375,1.0,1.0,0.0,0.0,3.m4v,8.0
2024-02-28 10:22:53.399409,1709112173.3994088,-14.6484375,-24.90234375,-12.20703125,-31.73828125,1.0,1.0,0.0,0.0,3.m4v,8.0
2024-02-28 10:22:53.407220,1709112173.40722,-61.03515625,-55.17578125,-39.0625,-35.15625,1.0,1.0,0.0,0.0,3.m4v,8.0
2024-02-28 10:22:53.415031,1709112173.4150312,-25.87890625,-36.1328125,-27.34375,-55.17578125,1.0,1.0,0.0,0.0,3.m4v,8.0
2024-02-28 10:22:53.954070,1709112173.9540696,-97.65625,-1.953125,-15.625,-107.421875,1.0,1.0,0.0,0.0,3.m4v,8.0
2024-02-28 10:22:53.957975,1709112173.9579751,-107.421875,6.34765625,2.9296875,-117.1875,1.0,1.0,0.0,0.0,3.m4v,8.0
2024-02-28 10:22:53.961881,1709112173.9618807,-84.9609375,12.20703125,-10.25390625,-101.5625,1.0,1.0,0.0,0.0,3.m4v,8.0
2024-02-28 10:22:53.965786,1709112173.9657865,-87.890625,10.25390625,-36.62109375,-73.73046875,1.0,1.0,0.0,0.0,3.m4v,8.0
2024-02-28 10:22:53.969692,1709112173.969692,-102.5390625,1.46484375,-20.01953125,-106.4453125,1.0,1.0,0.0,0.0,3.m4v,8.0
2024-02-28 10:22:53.973598,1709112173.9735978,-86.42578125,5.37109375,-36.1328125,-99.12109375,1.0,1.0,0.0,0.0,3.m4v,8.0
2024-02-28 10:22:53.977503,1709112173.9775033,-75.68359375,7.32421875,-47.8515625,-102.05078125,1.0,1.0,0.0,0.0,3.m4v,8.0
2024-02-28 10:22:53.981409,1709112173.9814088,-102.05078125,-8.7890625,-5.859375,-142.08984375,1.0,1.0,0.0,0.0,3.m4v,8.0
2024-02-28 10:22:53.985315,1709112173.9853146,-114.2578125,-21.97265625,2.9296875,-141.6015625,1.0,1.0,0.0,0.0,3.m4v,8.0
2024-02-28 10:22:53.989220,1709112173.98922,-96.6796875,-13.18359375,-27.83203125,-117.67578125,1.0,1.0,0.0,0.0,3.m4v,8.0
2024-02-28 10:22:53.993126,1709112173.993126,-62.01171875,18.5546875,-67.3828125,-67.3828125,1.0,1.0,0.0,0.0,3.m4v,8.0
2024-02-28 10:22:53.997036,1709112173.9970365,-50.78125,29.78515625,-85.44921875,-45.8984375,1.0,1.0,0.0,0.0,3.m4v,8.0
2024-02-28 10:22:54.000942,1709112174.000942,-73.73046875,-1.953125,-47.8515625,-85.44921875,1.0,1.0,0.0,0.0,3.m4v,8.0
2024-02-28 10:22:54.004848,1709112174.0048475,-59.08203125,-13.18359375,1.953125,-98.6328125,1.0,1.0,0.0,0.0,3.m4v,8.0
2024-02-28 10:22:54.008753,1709112174.0087533,-60.546875,-12.6953125,9.27734375,-99.12109375,1.0,1.0,0.0,0.0,3.m4v,8.0
2024-02-28 10:22:54.012659,1709112174.0126588,-81.54296875,-23.4375,0.9765625,-93.75,1.0,1.0,0.0,0.0,3.m4v,8.0
2024-02-28 10:22:54.016565,1709112174.0165646,-52.24609375,-23.92578125,-19.04296875,-41.015625,1.0,1.0,0.0,0.0,3.m4v,8.0
2024-02-28 10:22:54.020470,1709112174.02047,-18.5546875,-19.53125,-67.87109375,-9.765625,1.0,1.0,0.0,0.0,3.m4v,8.0
2024-02-28 10:22:54.024376,1709112174.0243757,-20.01953125,-18.06640625,-73.73046875,-31.73828125,1.0,1.0,0.0,0.0,3.m4v,8.0
2024-02-28 10:22:54.028281,1709112174.0282817,-29.296875,-13.671875,-45.8984375,-28.80859375,1.0,1.0,0.0,0.0,3.m4v,8.0
2024-02-28 10:22:54.032187,1709112174.032187,-31.73828125,-14.6484375,-47.8515625,-41.50390625,1.0,1.0,0.0,0.0,3.m4v,8.0
2024-02-28 10:22:54.036093,1709112174.0360928,-37.59765625,-37.109375,-36.62109375,-48.33984375,1.0,1.0,0.0,0.0,3.m4v,8.0
2024-02-28 10:22:54.039998,1709112174.0399983,-31.25,-49.31640625,-16.6015625,-7.8125,1.0,1.0,0.0,0.0,3.m4v,8.0
2024-02-28 10:22:54.043909,1709112174.0439086,-24.4140625,-55.17578125,-48.828125,-7.32421875,1.0,1.0,0.0,0.0,3.m4v,8.0
2024-02-28 10:22:54.047814,1709112174.047814,-7.32421875,-39.55078125,-89.84375,-11.71875,1.0,1.0,0.0,0.0,3.m4v,8.0
2024-02-28 10:22:54.051720,1709112174.05172,-14.6484375,-26.85546875,-48.828125,-11.71875,1.0,1.0,0.0,0.0,3.m4v,8.0
2024-02-28 10:22:54.055625,1709112174.0556254,-14.16015625,-39.0625,0.0,-11.23046875,1.0,1.0,0.0,0.0,3.m4v,8.0
2024-02-28 10:22:54.059531,1709112174.059531,6.34765625,-46.38671875,-41.015625,4.8828125,1.0,1.0,0.0,0.0,3.m4v,8.0
2024-02-28 10:22:54.063437,1709112174.0634367,-11.71875,-46.875,-67.3828125,-17.578125,1.0,1.0,0.0,0.0,3.m4v,8.0
2024-02-28 10:22:54.067342,1709112174.0673423,-25.390625,-51.26953125,-47.36328125,-41.9921875,1.0,1.0,0.0,0.0,3.m4v,8.0
2024-02-28 10:22:54.071248,1709112174.071248,-29.296875,-70.3125,-21.484375,-29.296875,1.0,1.0,0.0,0.0,3.m4v,8.0
2024-02-28 10:22:54.075154,1709112174.0751536,-31.25,-71.2890625,-8.7890625,-23.92578125,1.0,1.0,0.0,0.0,3.m4v,8.0
2024-02-28 10:22:54.079059,1709112174.0790591,-7.32421875,-48.828125,-33.69140625,-5.37109375,1.0,1.0,0.0,0.0,3.m4v,8.0
2024-02-28 10:22:54.082965,1709112174.082965,11.23046875,-28.3203125,-55.6640625,-3.41796875,1.0,1.0,0.0,0.0,3.m4v,8.0
2024-02-28 10:22:54.086870,1709112174.0868704,-2.9296875,-29.296875,-37.109375,-23.92578125,1.0,1.0,0.0,0.0,3.m4v,8.0
2024-02-28 10:22:54.090780,1709112174.0907805,-2.44140625,-29.296875,-36.62109375,6.34765625,1.0,1.0,0.0,0.0,3.m4v,8.0
2024-02-28 10:22:54.094686,1709112174.094686,-4.39453125,-19.53125,-60.05859375,8.7890625,1.0,1.0,0.0,0.0,3.m4v,8.0
2024-02-28 10:22:54.098592,1709112174.0985918,-5.37109375,-36.62109375,-47.36328125,-20.01953125,1.0,1.0,0.0,0.0,3.m4v,8.0
2024-02-28 10:22:54.102497,1709112174.102497,-2.9296875,-69.3359375,-16.6015625,-28.3203125,1.0,1.0,0.0,0.0,3.m4v,8.0
2024-02-28 10:22:54.106403,1709112174.106403,-2.44140625,-76.171875,-14.16015625,-20.99609375,1.0,1.0,0.0,0.0,3.m4v,8.0
2024-02-28 10:22:54.110309,1709112174.1103086,-7.32421875,-61.03515625,-36.1328125,1.46484375,1.0,1.0,0.0,0.0,3.m4v,8.0
2024-02-28 10:22:54.114214,1709112174.1142142,-11.71875,-60.546875,-50.29296875,0.48828125,1.0,1.0,0.0,0.0,3.m4v,8.0
2024-02-28 10:22:54.118120,1709112174.11812,-6.34765625,-47.8515625,-50.78125,-13.18359375,1.0,1.0,0.0,0.0,3.m4v,8.0
2024-02-28 10:22:54.122025,1709112174.1220255,3.90625,-32.71484375,-48.828125,14.6484375,1.0,1.0,0.0,0.0,3.m4v,8.0
2024-02-28 10:22:54.125931,1709112174.1259313,-2.44140625,-26.85546875,-60.546875,26.85546875,1.0,1.0,0.0,0.0,3.m4v,8.0
2024-02-28 10:22:54.129837,1709112174.1298368,-23.4375,-24.90234375,-45.41015625,-11.23046875,1.0,1.0,0.0,0.0,3.m4v,8.0
2024-02-28 10:22:54.133742,1709112174.1337423,-29.296875,-36.62109375,-34.1796875,-23.92578125,1.0,1.0,0.0,0.0,3.m4v,8.0
2024-02-28 10:22:54.137652,1709112174.1376522,-26.3671875,-47.8515625,-39.55078125,-20.99609375,1.0,1.0,0.0,0.0,3.m4v,8.0
2024-02-28 10:22:54.141558,1709112174.1415577,-23.4375,-51.7578125,-29.78515625,-11.23046875,1.0,1.0,0.0,0.0,3.m4v,8.0
2024-02-28 10:22:54.145463,1709112174.1454637,-5.37109375,-61.5234375,-44.921875,-4.8828125,1.0,1.0,0.0,0.0,3.m4v,8.0
2024-02-28 10:22:54.149369,1709112174.149369,12.20703125,-71.77734375,-61.5234375,36.62109375,1.0,1.0,0.0,0.0,3.m4v,8.0
2024-02-28 10:22:54.153275,1709112174.1532748,-5.859375,-51.26953125,-42.48046875,26.85546875,1.0,1.0,0.0,0.0,3.m4v,8.0
2024-02-28 10:22:54.157180,1709112174.1571803,-35.15625,-33.203125,-17.08984375,-65.4296875,1.0,1.0,0.0,0.0,3.m4v,8.0
2024-02-28 10:22:54.161086,1709112174.1610858,-39.0625,-55.6640625,-31.73828125,-57.12890625,1.0,1.0,0.0,0.0,3.m4v,8.0
2024-02-28 10:22:54.164992,1709112174.1649916,-17.08984375,-72.265625,-49.8046875,-23.92578125,1.0,1.0,0.0,0.0,3.m4v,8.0
2024-02-28 10:22:54.168897,1709112174.1688972,-31.73828125,-52.734375,-22.94921875,-0.9765625,1.0,1.0,0.0,0.0,3.m4v,8.0
2024-02-28 10:22:54.172803,1709112174.1728027,-52.734375,-35.15625,-28.80859375,14.6484375,1.0,1.0,0.0,0.0,3.m4v,8.0
2024-02-28 10:22:54.176708,1709112174.1767085,-44.921875,-45.41015625,-61.5234375,-0.9765625,1.0,1.0,0.0,0.0,3.m4v,8.0
2024-02-28 10:22:54.180614,1709112174.180614,-39.55078125,-60.546875,-39.0625,-30.76171875,1.0,1.0,0.0,0.0,3.m4v,8.0
2024-02-28 10:22:54.184524,1709112174.1845238,-35.15625,-46.38671875,-2.44140625,-43.45703125,1.0,1.0,0.0,0.0,3.m4v,8.0
2024-02-28 10:22:54.188429,1709112174.1884294,-29.78515625,-31.25,-7.8125,-40.52734375,1.0,1.0,0.0,0.0,3.m4v,8.0
2024-02-28 10:22:54.192335,1709112174.1923351,-27.83203125,-50.29296875,-37.59765625,-28.80859375,1.0,1.0,0.0,0.0,3.m4v,8.0
2024-02-28 10:22:54.196241,1709112174.196241,-20.5078125,-46.875,-46.875,0.48828125,1.0,1.0,0.0,0.0,3.m4v,8.0
2024-02-28 10:22:54.200146,1709112174.2001462,2.9296875,-20.99609375,-42.96875,-11.71875,1.0,1.0,0.0,0.0,3.m4v,8.0
2024-02-28 10:22:54.204052,1709112174.204052,-1.953125,-32.71484375,-41.9921875,-13.18359375,1.0,1.0,0.0,0.0,3.m4v,8.0
2024-02-28 10:22:54.207958,1709112174.2079575,3.41796875,-33.69140625,-46.875,35.15625,1.0,1.0,0.0,0.0,3.m4v,8.0
2024-02-28 10:22:54.387638,1709112174.387638,-50.78125,-47.36328125,-14.6484375,-38.57421875,1.0,1.0,0.0,0.0,3.m4v,8.0
2024-02-28 10:22:54.391543,1709112174.3915434,-39.55078125,-44.921875,-23.4375,-40.52734375,1.0,1.0,0.0,0.0,3.m4v,8.0
2024-02-28 10:22:55.079005,1709112175.0790052,-31.25,-21.484375,-41.015625,-5.859375,1.0,1.0,0.0,0.0,3.m4v,8.0
2024-02-28 10:22:55.082911,1709112175.082911,-27.83203125,-35.15625,-12.20703125,-16.11328125,1.0,1.0,0.0,0.0,3.m4v,8.0
2024-02-28 10:22:55.086817,1709112175.0868163,-30.76171875,-32.71484375,-15.625,-37.109375,1.0,1.0,0.0,0.0,3.m4v,8.0
2024-02-28 10:22:55.090722,1709112175.090722,-52.24609375,-19.53125,-30.76171875,-55.17578125,1.0,1.0,0.0,0.0,3.m4v,8.0
2024-02-28 10:22:55.094628,1709112175.094628,-60.05859375,-15.625,-20.5078125,-48.828125,1.0,1.0,0.0,0.0,3.m4v,8.0
2024-02-28 10:22:55.098533,1709112175.0985334,-48.828125,-13.18359375,-10.7421875,-15.13671875,1.0,1.0,0.0,0.0,3.m4v,8.0
2024-02-28 10:22:55.102439,1709112175.1024392,-42.48046875,-16.11328125,-18.06640625,11.23046875,1.0,1.0,0.0,0.0,3.m4v,8.0
2024-02-28 10:22:55.106345,1709112175.1063447,-45.8984375,-41.50390625,-31.73828125,-40.52734375,1.0,1.0,0.0,0.0,3.m4v,8.0
2024-02-28 10:22:55.110250,1709112175.1102502,-62.98828125,-55.6640625,-19.04296875,-70.3125,1.0,1.0,0.0,0.0,3.m4v,8.0
2024-02-28 10:22:55.114156,1709112175.114156,-55.6640625,-53.7109375,-29.78515625,-46.875,1.0,1.0,0.0,0.0,3.m4v,8.0
2024-02-28 10:22:55.118062,1709112175.1180615,-39.0625,-51.7578125,-54.19921875,-40.52734375,1.0,1.0,0.0,0.0,3.m4v,8.0
2024-02-28 10:22:55.121972,1709112175.121972,-40.52734375,-35.15625,-47.36328125,-39.0625,1.0,1.0,0.0,0.0,3.m4v,8.0
2024-02-28 10:22:55.125878,1709112175.1258776,-41.50390625,-27.83203125,-23.92578125,-21.484375,1.0,1.0,0.0,0.0,3.m4v,8.0
2024-02-28 10:22:55.129783,1709112175.1297834,-47.8515625,-26.85546875,-6.8359375,-40.0390625,1.0,1.0,0.0,0.0,3.m4v,8.0
2024-02-28 10:22:55.133689,1709112175.133689,-43.45703125,-25.87890625,-40.0390625,-23.92578125,1.0,1.0,0.0,0.0,3.m4v,8.0
2024-02-28 10:22:55.137595,1709112175.1375947,-28.3203125,-14.6484375,-42.96875,9.27734375,1.0,1.0,0.0,0.0,3.m4v,8.0
2024-02-28 10:22:55.141500,1709112175.1415002,-10.7421875,-11.23046875,-21.97265625,-41.9921875,1.0,1.0,0.0,0.0,3.m4v,8.0
2024-02-28 10:22:55.145406,1709112175.1454058,-28.3203125,-26.85546875,-24.90234375,-66.40625,1.0,1.0,0.0,0.0,3.m4v,8.0
2024-02-28 10:22:55.149312,1709112175.1493115,-38.57421875,-41.015625,-27.34375,-48.828125,1.0,1.0,0.0,0.0,3.m4v,8.0
2024-02-28 10:22:55.153217,1709112175.153217,-25.87890625,-49.31640625,-27.83203125,-32.2265625,1.0,1.0,0.0,0.0,3.m4v,8.0
2024-02-28 10:22:55.157123,1709112175.1571229,-36.1328125,-49.8046875,-32.71484375,16.11328125,1.0,1.0,0.0,0.0,3.m4v,8.0
2024-02-28 10:22:55.161028,1709112175.1610284,-38.57421875,-43.45703125,-39.55078125,-16.11328125,1.0,1.0,0.0,0.0,3.m4v,8.0
2024-02-28 10:22:55.164934,1709112175.164934,-28.3203125,-43.45703125,-43.9453125,-41.015625,1.0,1.0,0.0,0.0,3.m4v,8.0
2024-02-28 10:22:55.168844,1709112175.1688442,-20.99609375,-41.50390625,-68.359375,-8.30078125,1.0,1.0,0.0,0.0,3.m4v,8.0
2024-02-28 10:22:55.172750,1709112175.17275,-17.578125,-32.2265625,-63.96484375,-17.578125,1.0,1.0,0.0,0.0,3.m4v,8.0
2024-02-28 10:22:55.176656,1709112175.1766555,-19.04296875,-34.66796875,-43.9453125,-14.16015625,1.0,1.0,0.0,0.0,3.m4v,8.0
2024-02-28 10:22:55.180561,1709112175.180561,-24.4140625,-42.48046875,-45.8984375,-30.76171875,1.0,1.0,0.0,0.0,3.m4v,8.0
2024-02-28 10:22:55.184467,1709112175.1844668,-31.25,-32.71484375,-27.83203125,-23.92578125,1.0,1.0,0.0,0.0,3.m4v,8.0
2024-02-28 10:22:55.188372,1709112175.1883724,-34.66796875,-33.203125,-16.11328125,-21.484375,1.0,1.0,0.0,0.0,3.m4v,8.0
2024-02-28 10:22:55.192278,1709112175.192278,-38.0859375,-43.9453125,-31.73828125,-15.13671875,1.0,1.0,0.0,0.0,3.m4v,8.0
2024-02-28 10:22:55.196184,1709112175.1961837,-32.2265625,-39.0625,-37.109375,32.2265625,1.0,1.0,0.0,0.0,3.m4v,8.0
2024-02-28 10:22:55.200089,1709112175.2000892,-24.90234375,-30.2734375,-41.9921875,9.27734375,1.0,1.0,0.0,0.0,3.m4v,8.0
2024-02-28 10:22:55.203995,1709112175.203995,-47.36328125,-44.921875,-53.7109375,-99.609375,1.0,1.0,0.0,0.0,3.m4v,8.0
2024-02-28 10:22:55.207901,1709112175.2079003,-60.05859375,-58.10546875,-43.9453125,-90.33203125,1.0,1.0,0.0,0.0,3.m4v,8.0
2024-02-28 10:22:55.211806,1709112175.2118063,-51.26953125,-36.62109375,-36.62109375,-43.45703125,1.0,1.0,0.0,0.0,3.m4v,8.0
2024-02-28 10:22:55.215716,1709112175.2157164,-43.45703125,-22.94921875,-36.1328125,-60.546875,1.0,1.0,0.0,0.0,3.m4v,8.0
2024-02-28 10:22:55.219622,1709112175.219622,-36.1328125,-26.3671875,-35.64453125,-31.73828125,1.0,1.0,0.0,0.0,3.m4v,8.0
2024-02-28 10:22:55.223528,1709112175.2235277,-46.875,-22.94921875,-43.45703125,-32.2265625,1.0,1.0,0.0,0.0,3.m4v,8.0
2024-02-28 10:22:55.227433,1709112175.2274334,-41.9921875,-21.97265625,-48.33984375,-61.5234375,1.0,1.0,0.0,0.0,3.m4v,8.0
2024-02-28 10:22:55.231339,1709112175.231339,-40.0390625,-24.4140625,-36.62109375,-16.6015625,1.0,1.0,0.0,0.0,3.m4v,8.0
2024-02-28 10:22:55.235245,1709112175.2352445,-45.8984375,-21.484375,-30.76171875,-24.4140625,1.0,1.0,0.0,0.0,3.m4v,8.0
2024-02-28 10:22:55.239150,1709112175.2391503,-42.96875,-30.2734375,-27.83203125,-38.0859375,1.0,1.0,0.0,0.0,3.m4v,8.0
2024-02-28 10:22:55.243056,1709112175.2430558,-47.36328125,-37.59765625,-41.015625,-20.99609375,1.0,1.0,0.0,0.0,3.m4v,8.0
2024-02-28 10:22:55.246962,1709112175.2469616,-41.015625,-36.62109375,-56.640625,-20.99609375,1.0,1.0,0.0,0.0,3.m4v,8.0
2024-02-28 10:22:55.250867,1709112175.2508671,-42.96875,-40.0390625,-48.33984375,-12.20703125,1.0,1.0,0.0,0.0,3.m4v,8.0
2024-02-28 10:22:55.254773,1709112175.254773,-55.6640625,-48.828125,-42.48046875,-48.828125,1.0,1.0,0.0,0.0,3.m4v,8.0
2024-02-28 10:22:55.258678,1709112175.2586784,-33.203125,-47.8515625,-44.43359375,-48.828125,1.0,1.0,0.0,0.0,3.m4v,8.0
2024-02-28 10:22:55.262588,1709112175.2625885,-24.90234375,-33.203125,-46.875,-11.71875,1.0,1.0,0.0,0.0,3.m4v,8.0
2024-02-28 10:22:55.266494,1709112175.266494,-44.43359375,-38.0859375,-41.015625,-7.32421875,1.0,1.0,0.0,0.0,3.m4v,8.0
2024-02-28 10:22:55.270400,1709112175.2703996,-42.96875,-53.22265625,-56.15234375,-22.4609375,1.0,1.0,0.0,0.0,3.m4v,8.0
2024-02-28 10:22:55.274305,1709112175.274305,-45.41015625,-42.96875,-44.921875,-40.0390625,1.0,1.0,0.0,0.0,3.m4v,8.0
2024-02-28 10:22:55.278211,1709112175.2782109,-58.10546875,-29.78515625,-34.1796875,-35.64453125,1.0,1.0,0.0,0.0,3.m4v,8.0
2024-02-28 10:22:55.282116,1709112175.2821164,-81.54296875,-25.390625,-60.546875,-18.06640625,1.0,1.0,0.0,0.0,3.m4v,8.0
2024-02-28 10:22:55.286022,1709112175.2860222,-66.89453125,-22.94921875,-42.48046875,-27.83203125,1.0,1.0,0.0,0.0,3.m4v,8.0
2024-02-28 10:22:55.289928,1709112175.2899275,-19.53125,-34.66796875,-13.671875,-75.1953125,1.0,1.0,0.0,0.0,3.m4v,8.0
2024-02-28 10:22:55.293833,1709112175.2938335,-15.13671875,-39.0625,-33.203125,-51.7578125,1.0,1.0,0.0,0.0,3.m4v,8.0
2024-02-28 10:22:55.297739,1709112175.297739,-34.1796875,-30.2734375,-42.48046875,-19.53125,1.0,1.0,0.0,0.0,3.m4v,8.0
2024-02-28 10:22:55.301645,1709112175.3016446,-28.80859375,-37.109375,-17.578125,-34.66796875,1.0,1.0,0.0,0.0,3.m4v,8.0
2024-02-28 10:22:55.305550,1709112175.3055503,-31.73828125,-41.50390625,-2.9296875,-9.765625,1.0,1.0,0.0,0.0,3.m4v,8.0
2024-02-28 10:22:55.309460,1709112175.3094597,-26.3671875,-33.69140625,-25.87890625,-15.13671875,1.0,1.0,0.0,0.0,3.m4v,8.0
2024-02-28 10:22:55.313365,1709112175.3133652,-20.99609375,-20.01953125,-43.45703125,0.0,1.0,1.0,0.0,0.0,3.m4v,8.0
2024-02-28 10:22:55.317271,1709112175.317271,-48.33984375,-23.92578125,-37.59765625,-8.30078125,1.0,1.0,0.0,0.0,3.m4v,8.0
2024-02-28 10:22:55.321177,1709112175.3211763,-39.0625,-36.62109375,-43.9453125,-21.484375,1.0,1.0,0.0,0.0,3.m4v,8.0
2024-02-28 10:22:55.325082,1709112175.3250823,-23.92578125,-32.71484375,-39.55078125,27.83203125,1.0,1.0,0.0,0.0,3.m4v,8.0
2024-02-28 10:22:55.328988,1709112175.3289878,-40.52734375,-38.0859375,-16.11328125,-34.66796875,1.0,1.0,0.0,0.0,3.m4v,8.0
2024-02-28 10:22:55.332893,1709112175.3328934,-32.71484375,-38.57421875,2.44140625,-30.76171875,1.0,1.0,0.0,0.0,3.m4v,8.0
2024-02-28 10:22:55.336799,1709112175.3367991,-55.17578125,-30.76171875,-24.90234375,-22.4609375,1.0,1.0,0.0,0.0,3.m4v,8.0
2024-02-28 10:22:55.340705,1709112175.340705,-65.91796875,-27.83203125,-46.875,-82.03125,1.0,1.0,0.0,0.0,3.m4v,8.0
2024-02-28 10:22:55.344610,1709112175.3446105,-45.8984375,-26.3671875,-24.90234375,-85.9375,1.0,1.0,0.0,0.0,3.m4v,8.0
2024-02-28 10:22:55.348516,1709112175.348516,-38.0859375,-34.1796875,-18.06640625,-30.2734375,1.0,1.0,0.0,0.0,3.m4v,8.0
2024-02-28 10:22:55.352422,1709112175.3524215,-33.69140625,-32.2265625,-39.55078125,34.1796875,1.0,1.0,0.0,0.0,3.m4v,8.0
2024-02-28 10:22:55.356333,1709112175.356333,-73.2421875,-34.1796875,-46.875,-27.83203125,1.0,1.0,0.0,0.0,3.m4v,8.0
2024-02-28 10:22:55.360239,1709112175.3602386,-73.2421875,-39.55078125,-26.3671875,-98.6328125,1.0,1.0,0.0,0.0,3.m4v,8.0
2024-02-28 10:22:55.364144,1709112175.3641443,-67.87109375,-32.2265625,-18.5546875,-76.171875,1.0,1.0,0.0,0.0,3.m4v,8.0
2024-02-28 10:22:55.368050,1709112175.36805,-52.734375,-30.76171875,-26.3671875,-45.41015625,1.0,1.0,0.0,0.0,3.m4v,8.0
2024-02-28 10:22:55.371956,1709112175.3719556,-53.7109375,-32.71484375,-23.4375,-36.1328125,1.0,1.0,0.0,0.0,3.m4v,8.0
2024-02-28 10:22:55.375861,1709112175.3758612,-70.80078125,-31.73828125,-29.296875,-39.55078125,1.0,1.0,0.0,0.0,3.m4v,8.0
2024-02-28 10:22:55.387578,1709112175.387578,-38.57421875,-43.9453125,-54.6875,-33.203125,1.0,1.0,0.0,0.0,3.m4v,8.0
2024-02-28 10:22:55.391484,1709112175.3914838,-48.33984375,-23.92578125,-52.24609375,-68.84765625,1.0,1.0,0.0,0.0,3.m4v,8.0
2024-02-28 10:22:55.395389,1709112175.3953893,-37.59765625,-31.25,-25.390625,-33.69140625,1.0,1.0,0.0,0.0,3.m4v,8.0
2024-02-28 10:22:55.399295,1709112175.3992949,-68.84765625,-52.24609375,-24.90234375,-62.5,1.0,1.0,0.0,0.0,3.m4v,8.0
2024-02-28 10:22:55.403206,1709112175.403206,-59.08203125,-42.96875,-39.0625,-114.2578125,1.0,1.0,0.0,0.0,3.m4v,8.0
2024-02-28 10:22:55.407112,1709112175.4071116,-39.55078125,-25.390625,-45.8984375,-53.7109375,1.0,1.0,0.0,0.0,3.m4v,8.0
2024-02-28 10:22:55.411017,1709112175.4110172,-43.9453125,-25.390625,-56.640625,-5.859375,1.0,1.0,0.0,0.0,3.m4v,8.0
2024-02-28 10:22:55.414923,1709112175.414923,-59.5703125,-27.34375,-49.31640625,-42.48046875,1.0,1.0,0.0,0.0,3.m4v,8.0
2024-02-28 10:22:55.418828,1709112175.4188285,-57.12890625,-26.85546875,-49.8046875,-53.7109375,1.0,1.0,0.0,0.0,3.m4v,8.0
2024-02-28 10:22:55.422734,1709112175.4227345,-21.97265625,-20.99609375,-51.7578125,-42.96875,1.0,1.0,0.0,0.0,3.m4v,8.0
2024-02-28 10:22:55.426640,1709112175.4266398,-2.44140625,-19.53125,-37.109375,-49.31640625,1.0,1.0,0.0,0.0,3.m4v,8.0
2024-02-28 10:22:55.430545,1709112175.430545,-18.06640625,-33.69140625,-16.11328125,-68.84765625,1.0,1.0,0.0,0.0,3.m4v,8.0
2024-02-28 10:22:55.434451,1709112175.434451,-67.87109375,-49.8046875,-13.18359375,-35.15625,1.0,1.0,0.0,0.0,3.m4v,8.0
2024-02-28 10:22:55.438357,1709112175.4383566,-79.1015625,-49.8046875,-26.85546875,-12.6953125,1.0,1.0,0.0,0.0,3.m4v,8.0
2024-02-28 10:22:55.442262,1709112175.4422624,-33.203125,-34.66796875,-25.390625,-52.24609375,1.0,1.0,0.0,0.0,3.m4v,8.0
2024-02-28 10:22:55.446168,1709112175.446168,-31.73828125,-34.1796875,-8.30078125,-27.83203125,1.0,1.0,0.0,0.0,3.m4v,8.0
2024-02-28 10:22:55.450079,1709112175.4500787,-46.38671875,-39.55078125,-31.25,-34.1796875,1.0,1.0,0.0,0.0,3.m4v,8.0
2024-02-28 10:22:55.453984,1709112175.4539845,-62.98828125,-34.66796875,-81.54296875,-92.28515625,1.0,1.0,0.0,0.0,3.m4v,8.0
2024-02-28 10:22:55.457890,1709112175.45789,-50.78125,-30.76171875,-62.5,-19.04296875,1.0,1.0,0.0,0.0,3.m4v,8.0
2024-02-28 10:22:55.461796,1709112175.4617956,-25.87890625,-42.96875,-16.6015625,-7.32421875,1.0,1.0,0.0,0.0,3.m4v,8.0
2024-02-28 10:22:55.465701,1709112175.465701,-44.921875,-46.38671875,-14.16015625,-115.234375,1.0,1.0,0.0,0.0,3.m4v,8.0
2024-02-28 10:22:55.469607,1709112175.4696069,-46.38671875,-35.64453125,-15.625,-41.50390625,1.0,1.0,0.0,0.0,3.m4v,8.0
2024-02-28 10:22:55.473513,1709112175.4735126,-49.31640625,-29.296875,-8.7890625,-16.6015625,1.0,1.0,0.0,0.0,3.m4v,8.0
2024-02-28 10:22:55.477418,1709112175.4774182,-62.98828125,-28.80859375,-8.30078125,-105.46875,1.0,1.0,0.0,0.0,3.m4v,8.0
2024-02-28 10:22:55.481324,1709112175.4813237,-66.89453125,-26.3671875,-33.203125,-67.3828125,1.0,1.0,0.0,0.0,3.m4v,8.0
2024-02-28 10:22:55.485229,1709112175.4852295,-39.55078125,-24.90234375,-55.6640625,12.6953125,1.0,1.0,0.0,0.0,3.m4v,8.0
2024-02-28 10:22:55.489135,1709112175.489135,-24.90234375,-38.0859375,-52.734375,7.8125,1.0,1.0,0.0,0.0,3.m4v,8.0
2024-02-28 10:22:55.493041,1709112175.4930408,-46.875,-37.59765625,-60.546875,-97.16796875,1.0,1.0,0.0,0.0,3.m4v,8.0
2024-02-28 10:22:55.496951,1709112175.496951,-50.78125,-32.71484375,-54.19921875,-124.0234375,1.0,1.0,0.0,0.0,3.m4v,8.0
2024-02-28 10:22:55.500857,1709112175.5008569,-48.33984375,-47.8515625,-10.25390625,-57.6171875,1.0,1.0,0.0,0.0,3.m4v,8.0
2024-02-28 10:22:55.504762,1709112175.5047624,-47.8515625,-53.7109375,5.859375,2.44140625,1.0,1.0,0.0,0.0,3.m4v,8.0
2024-02-28 10:22:55.508668,1709112175.5086682,-59.08203125,-36.1328125,-29.78515625,3.90625,1.0,1.0,0.0,0.0,3.m4v,8.0
2024-02-28 10:22:55.512574,1709112175.5125737,-39.55078125,-26.3671875,-45.41015625,-59.5703125,1.0,1.0,0.0,0.0,3.m4v,8.0
2024-02-28 10:22:55.516479,1709112175.5164795,-19.04296875,-32.71484375,-29.296875,-97.65625,1.0,1.0,0.0,0.0,3.m4v,8.0
2024-02-28 10:22:55.520385,1709112175.520385,-46.875,-38.57421875,-22.4609375,-66.89453125,1.0,1.0,0.0,0.0,3.m4v,8.0
2024-02-28 10:22:55.524291,1709112175.5242906,-61.03515625,-49.31640625,-18.06640625,-35.15625,1.0,1.0,0.0,0.0,3.m4v,8.0
2024-02-28 10:22:55.528196,1709112175.5281963,-37.109375,-41.015625,-17.08984375,-4.8828125,1.0,1.0,0.0,0.0,3.m4v,8.0
2024-02-28 10:22:55.532102,1709112175.532102,-20.01953125,-20.01953125,-58.10546875,-64.94140625,1.0,1.0,0.0,0.0,3.m4v,8.0
2024-02-28 10:22:55.536007,1709112175.5360074,-59.08203125,-21.484375,-72.75390625,-78.125,1.0,1.0,0.0,0.0,3.m4v,8.0
2024-02-28 10:22:55.539913,1709112175.5399132,-60.05859375,-31.25,-23.4375,-24.90234375,1.0,1.0,0.0,0.0,3.m4v,8.0
2024-02-28 10:22:55.543823,1709112175.5438237,-35.15625,-29.78515625,-11.23046875,-18.06640625,1.0,1.0,0.0,0.0,3.m4v,8.0
2024-02-28 10:22:55.547729,1709112175.547729,-62.01171875,-30.2734375,-43.45703125,-26.85546875,1.0,1.0,0.0,0.0,3.m4v,8.0
2024-02-28 10:22:55.551635,1709112175.5516348,-62.01171875,-38.0859375,-36.1328125,-28.80859375,1.0,1.0,0.0,0.0,3.m4v,8.0
2024-02-28 10:22:55.555540,1709112175.5555403,-36.62109375,-35.15625,-6.8359375,-68.359375,1.0,1.0,0.0,0.0,3.m4v,8.0
2024-02-28 10:22:55.559446,1709112175.559446,-34.66796875,-26.3671875,-9.765625,-110.83984375,1.0,1.0,0.0,0.0,3.m4v,8.0
2024-02-28 10:22:55.563352,1709112175.5633516,-42.48046875,-28.3203125,-41.015625,-69.3359375,1.0,1.0,0.0,0.0,3.m4v,8.0
2024-02-28 10:22:55.567257,1709112175.5672572,-39.55078125,-36.62109375,-56.640625,-6.8359375,1.0,1.0,0.0,0.0,3.m4v,8.0
2024-02-28 10:22:55.571163,1709112175.571163,-35.15625,-35.64453125,-65.91796875,-43.9453125,1.0,1.0,0.0,0.0,3.m4v,8.0
2024-02-28 10:22:55.575068,1709112175.5750685,-50.78125,-27.83203125,-71.2890625,-105.95703125,1.0,1.0,0.0,0.0,3.m4v,8.0
2024-02-28 10:22:55.578974,1709112175.578974,-71.2890625,-23.4375,-24.90234375,-61.5234375,1.0,1.0,0.0,0.0,3.m4v,8.0
2024-02-28 10:22:55.582880,1709112175.5828798,-63.96484375,-28.80859375,-9.27734375,-8.30078125,1.0,1.0,0.0,0.0,3.m4v,8.0
2024-02-28 10:22:55.586785,1709112175.5867853,-24.4140625,-38.0859375,-21.97265625,-62.5,1.0,1.0,0.0,0.0,3.m4v,8.0
2024-02-28 10:22:55.590695,1709112175.5906954,-25.87890625,-34.1796875,-20.99609375,-51.26953125,1.0,1.0,0.0,0.0,3.m4v,8.0
2024-02-28 10:22:55.594601,1709112175.5946012,-58.59375,-22.4609375,-40.0390625,-9.27734375,1.0,1.0,0.0,0.0,3.m4v,8.0
2024-02-28 10:22:55.598507,1709112175.5985067,-53.7109375,-11.23046875,-35.64453125,-91.30859375,1.0,1.0,0.0,0.0,3.m4v,8.0
2024-02-28 10:22:55.602412,1709112175.6024122,-49.31640625,-21.97265625,-16.11328125,-98.6328125,1.0,1.0,0.0,0.0,3.m4v,8.0
2024-02-28 10:22:55.825059,1709112175.8250587,-15.625,-48.33984375,11.71875,0.0,1.0,1.0,0.0,0.0,3.m4v,8.0
2024-02-28 10:22:55.828964,1709112175.8289642,-44.921875,-48.828125,3.90625,-68.359375,1.0,1.0,0.0,0.0,3.m4v,8.0
2024-02-28 10:22:55.832870,1709112175.8328698,-35.15625,-34.1796875,-9.27734375,-47.36328125,1.0,1.0,0.0,0.0,3.m4v,8.0
2024-02-28 10:22:55.836776,1709112175.8367755,-28.3203125,-27.34375,-35.64453125,-47.8515625,1.0,1.0,0.0,0.0,3.m4v,8.0
2024-02-28 10:22:55.840681,1709112175.840681,-43.45703125,-22.94921875,-21.97265625,-48.828125,1.0,1.0,0.0,0.0,3.m4v,8.0
2024-02-28 10:22:55.844587,1709112175.8445868,-33.69140625,-18.06640625,-6.8359375,-6.8359375,1.0,1.0,0.0,0.0,3.m4v,8.0
2024-02-28 10:22:55.848492,1709112175.8484924,-30.2734375,-24.90234375,-26.85546875,28.80859375,1.0,1.0,0.0,0.0,3.m4v,8.0
2024-02-28 10:22:55.852398,1709112175.852398,-0.48828125,-21.97265625,-51.26953125,-26.85546875,1.0,1.0,0.0,0.0,3.m4v,8.0
2024-02-28 10:22:55.856304,1709112175.8563037,-2.44140625,-13.18359375,-36.1328125,-49.8046875,1.0,1.0,0.0,0.0,3.m4v,8.0
2024-02-28 10:22:55.860209,1709112175.8602092,-50.29296875,-8.30078125,-6.8359375,-21.97265625,1.0,1.0,0.0,0.0,3.m4v,8.0
2024-02-28 10:22:55.864115,1709112175.864115,-59.5703125,-12.6953125,-3.41796875,-30.2734375,1.0,1.0,0.0,0.0,3.m4v,8.0
2024-02-28 10:22:55.868021,1709112175.8680203,-38.57421875,-25.87890625,-25.390625,-77.1484375,1.0,1.0,0.0,0.0,3.m4v,8.0
2024-02-28 10:22:55.871931,1709112175.871931,-27.83203125,-37.59765625,-48.33984375,-57.6171875,1.0,1.0,0.0,0.0,3.m4v,8.0
2024-02-28 10:22:55.875837,1709112175.8758368,-36.1328125,-41.015625,-37.109375,-42.96875,1.0,1.0,0.0,0.0,3.m4v,8.0
2024-02-28 10:22:55.879742,1709112175.8797424,-44.43359375,-37.59765625,-20.5078125,-35.15625,1.0,1.0,0.0,0.0,3.m4v,8.0
2024-02-28 10:22:55.883648,1709112175.883648,-15.13671875,-34.66796875,-26.85546875,10.7421875,1.0,1.0,0.0,0.0,3.m4v,8.0
2024-02-28 10:22:55.887554,1709112175.8875537,-9.27734375,-37.59765625,-23.4375,0.0,1.0,1.0,0.0,0.0,3.m4v,8.0
2024-02-28 10:22:55.891459,1709112175.8914592,-47.8515625,-40.0390625,-13.18359375,-43.45703125,1.0,1.0,0.0,0.0,3.m4v,8.0
2024-02-28 10:22:55.895365,1709112175.895365,-54.19921875,-26.3671875,-21.484375,-11.23046875,1.0,1.0,0.0,0.0,3.m4v,8.0
2024-02-28 10:22:55.899271,1709112175.8992703,-55.6640625,-25.87890625,-22.4609375,-11.23046875,1.0,1.0,0.0,0.0,3.m4v,8.0
2024-02-28 10:22:55.903176,1709112175.903176,-40.0390625,-26.85546875,-36.1328125,-36.1328125,1.0,1.0,0.0,0.0,3.m4v,8.0
2024-02-28 10:22:56.075041,1709112176.0750408,11.71875,3.90625,-42.96875,0.0,1.0,1.0,0.0,0.0,3.m4v,8.0
2024-02-28 10:22:56.078946,1709112176.0789464,-13.671875,-10.25390625,-35.15625,25.87890625,1.0,1.0,0.0,0.0,3.m4v,8.0
2024-02-28 10:22:56.082852,1709112176.082852,-32.2265625,-37.109375,-18.06640625,-29.296875,1.0,1.0,0.0,0.0,3.m4v,8.0
2024-02-28 10:22:56.086758,1709112176.0867577,-37.109375,-42.48046875,-8.7890625,-25.390625,1.0,1.0,0.0,0.0,3.m4v,8.0
2024-02-28 10:22:56.090663,1709112176.0906632,-46.38671875,-37.59765625,-29.78515625,-46.38671875,1.0,1.0,0.0,0.0,3.m4v,8.0
2024-02-28 10:22:56.094569,1709112176.094569,-22.4609375,-37.109375,-47.8515625,-47.36328125,1.0,1.0,0.0,0.0,3.m4v,8.0
2024-02-28 10:22:56.098475,1709112176.0984745,-18.06640625,-24.4140625,-57.6171875,8.7890625,1.0,1.0,0.0,0.0,3.m4v,8.0
2024-02-28 10:22:56.102380,1709112176.1023805,-37.59765625,-17.08984375,-66.89453125,-7.8125,1.0,1.0,0.0,0.0,3.m4v,8.0
2024-02-28 10:22:56.106292,1709112176.1062915,-39.0625,-20.99609375,-37.109375,2.44140625,1.0,1.0,0.0,0.0,3.m4v,8.0
2024-02-28 10:22:56.110197,1709112176.110197,-38.0859375,-25.87890625,-2.9296875,-5.859375,1.0,1.0,0.0,0.0,3.m4v,8.0
2024-02-28 10:22:56.114103,1709112176.1141028,-5.37109375,-33.203125,-13.18359375,-82.51953125,1.0,1.0,0.0,0.0,3.m4v,8.0
2024-02-28 10:22:56.118008,1709112176.1180084,-7.32421875,-37.109375,-31.73828125,1.46484375,1.0,1.0,0.0,0.0,3.m4v,8.0
2024-02-28 10:22:56.121914,1709112176.121914,-11.71875,-39.0625,-43.9453125,46.38671875,1.0,1.0,0.0,0.0,3.m4v,8.0
2024-02-28 10:22:56.125820,1709112176.1258197,-26.3671875,-36.1328125,-27.83203125,-77.1484375,1.0,1.0,0.0,0.0,3.m4v,8.0
2024-02-28 10:22:56.129725,1709112176.1297252,-63.4765625,-32.2265625,-28.3203125,-97.16796875,1.0,1.0,0.0,0.0,3.m4v,8.0
2024-02-28 10:22:56.133631,1709112176.133631,-74.21875,-30.76171875,-39.0625,-39.0625,1.0,1.0,0.0,0.0,3.m4v,8.0
2024-02-28 10:22:56.137537,1709112176.1375363,-37.109375,-30.76171875,-51.7578125,-22.94921875,1.0,1.0,0.0,0.0,3.m4v,8.0
2024-02-28 10:22:56.141442,1709112176.1414423,-6.8359375,-43.45703125,-55.17578125,18.06640625,1.0,1.0,0.0,0.0,3.m4v,8.0
2024-02-28 10:22:56.145348,1709112176.1453478,-41.50390625,-49.31640625,-18.06640625,-42.96875,1.0,1.0,0.0,0.0,3.m4v,8.0
2024-02-28 10:22:56.149253,1709112176.1492534,-53.22265625,-34.66796875,-21.484375,-41.9921875,1.0,1.0,0.0,0.0,3.m4v,8.0
2024-02-28 10:22:56.153165,1709112176.1531646,-13.18359375,-16.11328125,-51.7578125,1.46484375,1.0,1.0,0.0,0.0,3.m4v,8.0
2024-02-28 10:22:56.157070,1709112176.1570702,-44.921875,-12.20703125,-24.4140625,-39.0625,1.0,1.0,0.0,0.0,3.m4v,8.0
2024-02-28 10:22:56.160976,1709112176.160976,-65.91796875,-23.4375,-0.9765625,-17.578125,1.0,1.0,0.0,0.0,3.m4v,8.0
2024-02-28 10:22:56.164881,1709112176.1648817,-36.1328125,-21.484375,-16.11328125,-38.57421875,1.0,1.0,0.0,0.0,3.m4v,8.0
2024-02-28 10:22:56.168787,1709112176.168787,-44.43359375,-17.578125,-45.8984375,-32.2265625,1.0,1.0,0.0,0.0,3.m4v,8.0
2024-02-28 10:22:56.172693,1709112176.1726928,-24.90234375,-25.87890625,-61.5234375,-36.1328125,1.0,1.0,0.0,0.0,3.m4v,8.0
2024-02-28 10:22:56.176598,1709112176.1765983,-18.06640625,-29.78515625,-42.48046875,-35.15625,1.0,1.0,0.0,0.0,3.m4v,8.0
2024-02-28 10:22:56.180504,1709112176.180504,-31.25,-38.57421875,-13.18359375,19.04296875,1.0,1.0,0.0,0.0,3.m4v,8.0
2024-02-28 10:22:56.184410,1709112176.1844096,-32.71484375,-41.50390625,-7.32421875,-42.48046875,1.0,1.0,0.0,0.0,3.m4v,8.0
2024-02-28 10:22:56.188315,1709112176.1883152,-37.59765625,-35.15625,-11.23046875,-70.80078125,1.0,1.0,0.0,0.0,3.m4v,8.0
2024-02-28 10:22:56.192221,1709112176.192221,-40.52734375,-31.73828125,-23.4375,-29.78515625,1.0,1.0,0.0,0.0,3.m4v,8.0
2024-02-28 10:22:56.196126,1709112176.1961265,-54.19921875,-31.25,-28.80859375,-12.6953125,1.0,1.0,0.0,0.0,3.m4v,8.0
2024-02-28 10:22:56.200037,1709112176.2000377,-20.01953125,-32.2265625,-34.66796875,13.18359375,1.0,1.0,0.0,0.0,3.m4v,8.0
2024-02-28 10:22:56.203943,1709112176.203943,4.39453125,-21.484375,-64.94140625,28.80859375,1.0,1.0,0.0,0.0,3.m4v,8.0
2024-02-28 10:22:56.207849,1709112176.2078488,-20.5078125,-13.671875,-54.19921875,-8.7890625,1.0,1.0,0.0,0.0,3.m4v,8.0
2024-02-28 10:22:56.211754,1709112176.2117543,-9.765625,-22.4609375,-24.90234375,-0.9765625,1.0,1.0,0.0,0.0,3.m4v,8.0
2024-02-28 10:22:56.215660,1709112176.21566,-17.08984375,-42.96875,-43.45703125,-22.94921875,1.0,1.0,0.0,0.0,3.m4v,8.0
2024-02-28 10:22:56.219566,1709112176.2195656,-53.22265625,-49.31640625,-53.22265625,-56.15234375,1.0,1.0,0.0,0.0,3.m4v,8.0
2024-02-28 10:22:56.223471,1709112176.2234712,-57.6171875,-32.2265625,-15.13671875,-31.25,1.0,1.0,0.0,0.0,3.m4v,8.0
2024-02-28 10:22:56.227377,1709112176.227377,-42.96875,-23.4375,-13.18359375,-39.55078125,1.0,1.0,0.0,0.0,3.m4v,8.0
2024-02-28 10:22:56.231282,1709112176.2312825,-2.44140625,-23.4375,-57.12890625,-17.578125,1.0,1.0,0.0,0.0,3.m4v,8.0
2024-02-28 10:22:56.235188,1709112176.2351882,-25.87890625,-24.90234375,-55.17578125,22.94921875,1.0,1.0,0.0,0.0,3.m4v,8.0
2024-02-28 10:22:56.239094,1709112176.2390938,-50.78125,-26.3671875,-42.48046875,-63.4765625,1.0,1.0,0.0,0.0,3.m4v,8.0
2024-02-28 10:22:56.242999,1709112176.2429993,-23.92578125,-47.8515625,-25.87890625,-105.46875,1.0,1.0,0.0,0.0,3.m4v,8.0
2024-02-28 10:22:56.246912,1709112176.2469122,-12.6953125,-64.453125,-0.9765625,1.46484375,1.0,1.0,0.0,0.0,3.m4v,8.0
2024-02-28 10:22:56.250818,1709112176.2508178,-2.9296875,-40.52734375,-16.6015625,42.48046875,1.0,1.0,0.0,0.0,3.m4v,8.0
2024-02-28 10:22:56.254723,1709112176.2547233,-57.6171875,-23.92578125,-48.33984375,-66.40625,1.0,1.0,0.0,0.0,3.m4v,8.0
2024-02-28 10:22:56.258629,1709112176.258629,-87.890625,-27.83203125,-42.96875,-52.734375,1.0,1.0,0.0,0.0,3.m4v,8.0
2024-02-28 10:22:56.262535,1709112176.2625346,-57.12890625,-42.96875,-33.203125,-33.69140625,1.0,1.0,0.0,0.0,3.m4v,8.0
2024-02-28 10:22:56.266440,1709112176.2664404,-22.4609375,-44.43359375,-21.97265625,-75.68359375,1.0,1.0,0.0,0.0,3.m4v,8.0
2024-02-28 10:22:56.270346,1709112176.270346,-19.04296875,-31.73828125,-32.2265625,-15.13671875,1.0,1.0,0.0,0.0,3.m4v,8.0
2024-02-28 10:22:56.274251,1709112176.2742517,-37.59765625,-32.71484375,-74.70703125,0.9765625,1.0,1.0,0.0,0.0,3.m4v,8.0
2024-02-28 10:22:56.278157,1709112176.2781572,-41.015625,-42.48046875,-62.01171875,-35.15625,1.0,1.0,0.0,0.0,3.m4v,8.0
2024-02-28 10:22:56.282063,1709112176.2820628,-12.6953125,-44.43359375,-27.34375,-3.90625,1.0,1.0,0.0,0.0,3.m4v,8.0
2024-02-28 10:22:56.285969,1709112176.2859683,-54.19921875,-38.57421875,-29.78515625,-54.6875,1.0,1.0,0.0,0.0,3.m4v,8.0
2024-02-28 10:22:56.289874,1709112176.289874,-35.15625,-28.3203125,-33.69140625,3.41796875,1.0,1.0,0.0,0.0,3.m4v,8.0
2024-02-28 10:22:56.293784,1709112176.2937844,2.9296875,-26.85546875,-69.3359375,40.0390625,1.0,1.0,0.0,0.0,3.m4v,8.0
2024-02-28 10:22:56.297690,1709112176.29769,-37.109375,-39.55078125,-78.125,-62.98828125,1.0,1.0,0.0,0.0,3.m4v,8.0
2024-02-28 10:22:56.301596,1709112176.3015957,-76.171875,-55.6640625,-15.13671875,-61.03515625,1.0,1.0,0.0,0.0,3.m4v,8.0
2024-02-28 10:22:56.305501,1709112176.3055012,-47.8515625,-50.78125,-5.859375,-5.859375,1.0,1.0,0.0,0.0,3.m4v,8.0
2024-02-28 10:22:56.309407,1709112176.309407,-15.625,-46.38671875,-31.73828125,-18.06640625,1.0,1.0,0.0,0.0,3.m4v,8.0
2024-02-28 10:22:56.313313,1709112176.3133123,-40.52734375,-42.96875,-26.85546875,-57.6171875,1.0,1.0,0.0,0.0,3.m4v,8.0
2024-02-28 10:22:56.317218,1709112176.317218,-17.578125,-28.3203125,-28.80859375,-31.25,1.0,1.0,0.0,0.0,3.m4v,8.0
2024-02-28 10:22:56.321124,1709112176.3211238,-32.2265625,-46.875,-13.671875,41.50390625,1.0,1.0,0.0,0.0,3.m4v,8.0
2024-02-28 10:22:56.325029,1709112176.3250294,-39.0625,-58.10546875,-46.875,8.30078125,1.0,1.0,0.0,0.0,3.m4v,8.0
2024-02-28 10:22:56.328935,1709112176.3289351,-11.23046875,-23.4375,-75.1953125,-63.96484375,1.0,1.0,0.0,0.0,3.m4v,8.0
2024-02-28 10:22:56.332841,1709112176.3328407,-32.2265625,-13.18359375,-46.38671875,-19.53125,1.0,1.0,0.0,0.0,3.m4v,8.0
2024-02-28 10:22:56.336746,1709112176.3367462,-5.37109375,-22.4609375,-48.828125,-2.9296875,1.0,1.0,0.0,0.0,3.m4v,8.0
2024-02-28 10:22:56.340656,1709112176.3406565,-54.19921875,-16.11328125,-19.53125,13.18359375,1.0,1.0,0.0,0.0,3.m4v,8.0
2024-02-28 10:22:56.344562,1709112176.344562,-24.4140625,-2.9296875,-26.3671875,-23.4375,1.0,1.0,0.0,0.0,3.m4v,8.0
2024-02-28 10:22:56.348468,1709112176.3484676,36.62109375,-16.6015625,-45.41015625,-92.7734375,1.0,1.0,0.0,0.0,3.m4v,8.0
2024-02-28 10:22:56.352373,1709112176.3523734,-48.828125,-47.36328125,-31.73828125,-38.57421875,1.0,1.0,0.0,0.0,3.m4v,8.0
2024-02-28 10:22:56.356279,1709112176.356279,-57.6171875,-34.66796875,-34.66796875,54.19921875,1.0,1.0,0.0,0.0,3.m4v,8.0
2024-02-28 10:22:56.360184,1709112176.3601844,-6.8359375,-7.8125,-7.32421875,-12.20703125,1.0,1.0,0.0,0.0,3.m4v,8.0
2024-02-28 10:22:56.364090,1709112176.3640902,-21.484375,-22.94921875,-18.06640625,-5.859375,1.0,1.0,0.0,0.0,3.m4v,8.0
2024-02-28 10:22:56.367996,1709112176.3679955,-69.82421875,-39.0625,-56.15234375,-25.87890625,1.0,1.0,0.0,0.0,3.m4v,8.0
2024-02-28 10:22:56.371901,1709112176.3719013,-51.26953125,-36.62109375,-38.0859375,-64.453125,1.0,1.0,0.0,0.0,3.m4v,8.0
2024-02-28 10:22:56.375807,1709112176.375807,-5.37109375,-43.45703125,-25.390625,35.64453125,1.0,1.0,0.0,0.0,3.m4v,8.0
2024-02-28 10:22:56.379713,1709112176.3797126,6.8359375,-40.0390625,-43.9453125,-12.20703125,1.0,1.0,0.0,0.0,3.m4v,8.0
2024-02-28 10:22:56.383618,1709112176.3836184,-27.83203125,-45.41015625,-49.8046875,-79.1015625,1.0,1.0,0.0,0.0,3.m4v,8.0
2024-02-28 10:22:56.387528,1709112176.387528,-37.59765625,-48.33984375,-50.29296875,-8.30078125,1.0,1.0,0.0,0.0,3.m4v,8.0
2024-02-28 10:22:56.391434,1709112176.3914337,-10.7421875,-36.1328125,-30.2734375,30.76171875,1.0,1.0,0.0,0.0,3.m4v,8.0
2024-02-28 10:22:56.395339,1709112176.3953393,-41.50390625,-44.43359375,-16.11328125,-27.83203125,1.0,1.0,0.0,0.0,3.m4v,8.0
2024-02-28 10:22:56.399245,1709112176.399245,-65.91796875,-45.8984375,-10.25390625,-33.69140625,1.0,1.0,0.0,0.0,3.m4v,8.0
2024-02-28 10:22:56.403151,1709112176.4031506,-35.64453125,-36.1328125,-7.8125,9.27734375,1.0,1.0,0.0,0.0,3.m4v,8.0
2024-02-28 10:22:56.407056,1709112176.407056,-24.4140625,-30.2734375,-23.4375,-36.62109375,1.0,1.0,0.0,0.0,3.m4v,8.0
2024-02-28 10:22:56.500801,1709112176.5008008,2.44140625,-24.90234375,-23.4375,13.671875,1.0,1.0,0.0,0.0,3.m4v,8.0
2024-02-28 10:22:56.504706,1709112176.5047064,-34.1796875,-33.203125,-13.18359375,-22.94921875,1.0,1.0,0.0,0.0,3.m4v,8.0
2024-02-28 10:22:56.508612,1709112176.5086122,-19.04296875,-36.1328125,-25.87890625,-15.625,1.0,1.0,0.0,0.0,3.m4v,8.0
2024-02-28 10:22:56.512518,1709112176.5125177,23.4375,-13.671875,-15.625,-1.953125,1.0,1.0,0.0,0.0,3.m4v,8.0
2024-02-28 10:22:56.516423,1709112176.5164237,-15.13671875,-11.23046875,-10.25390625,-17.578125,1.0,1.0,0.0,0.0,3.m4v,8.0
2024-02-28 10:22:56.520329,1709112176.520329,-58.59375,-30.76171875,-30.2734375,-1.953125,1.0,1.0,0.0,0.0,3.m4v,8.0
2024-02-28 10:22:56.524235,1709112176.5242343,-6.8359375,-50.78125,-66.40625,31.25,1.0,1.0,0.0,0.0,3.m4v,8.0
2024-02-28 10:22:56.528146,1709112176.5281458,32.71484375,-72.75390625,-97.16796875,71.77734375,1.0,1.0,0.0,0.0,3.m4v,8.0
2024-02-28 10:22:56.532051,1709112176.532051,-32.71484375,-43.45703125,-47.36328125,-34.66796875,1.0,1.0,0.0,0.0,3.m4v,8.0
2024-02-28 10:22:56.535957,1709112176.535957,-105.95703125,3.90625,17.578125,-91.796875,1.0,1.0,0.0,0.0,3.m4v,8.0
2024-02-28 10:22:56.539863,1709112176.5398626,-57.6171875,4.39453125,20.5078125,-17.578125,1.0,1.0,0.0,0.0,3.m4v,8.0
2024-02-28 10:22:56.543768,1709112176.5437682,-4.8828125,-13.18359375,-0.48828125,-37.59765625,1.0,1.0,0.0,0.0,3.m4v,8.0
2024-02-28 10:22:56.547674,1709112176.547674,-57.12890625,-22.94921875,-27.34375,-47.36328125,1.0,1.0,0.0,0.0,3.m4v,8.0
2024-02-28 10:22:56.551579,1709112176.5515797,-47.8515625,-20.5078125,-51.7578125,-18.5546875,1.0,1.0,0.0,0.0,3.m4v,8.0
2024-02-28 10:22:56.555485,1709112176.5554852,-10.25390625,-39.55078125,-44.43359375,0.9765625,1.0,1.0,0.0,0.0,3.m4v,8.0
2024-02-28 10:22:56.559391,1709112176.5593908,7.32421875,-58.59375,-47.36328125,13.18359375,1.0,1.0,0.0,0.0,3.m4v,8.0
2024-02-28 10:22:56.563296,1709112176.5632963,28.3203125,-49.31640625,-68.359375,-0.48828125,1.0,1.0,0.0,0.0,3.m4v,8.0
2024-02-28 10:22:56.567202,1709112176.567202,-32.2265625,-19.04296875,-41.50390625,10.25390625,1.0,1.0,0.0,0.0,3.m4v,8.0
2024-02-28 10:22:56.571108,1709112176.5711076,-65.4296875,-5.37109375,-10.7421875,-26.85546875,1.0,1.0,0.0,0.0,3.m4v,8.0
2024-02-28 10:22:56.575021,1709112176.5750206,-13.18359375,-15.13671875,2.9296875,-84.9609375,1.0,1.0,0.0,0.0,3.m4v,8.0
2024-02-28 10:22:56.578926,1709112176.5789263,23.92578125,-17.578125,-17.578125,-45.8984375,1.0,1.0,0.0,0.0,3.m4v,8.0
2024-02-28 10:22:56.582832,1709112176.582832,-4.8828125,-30.2734375,-42.48046875,-5.37109375,1.0,1.0,0.0,0.0,3.m4v,8.0
2024-02-28 10:22:56.586738,1709112176.5867376,-66.40625,-53.22265625,-25.390625,11.23046875,1.0,1.0,0.0,0.0,3.m4v,8.0
2024-02-28 10:22:56.590643,1709112176.5906432,-75.68359375,-50.29296875,-15.625,7.8125,1.0,1.0,0.0,0.0,3.m4v,8.0
2024-02-28 10:22:56.594549,1709112176.5945487,-8.30078125,-36.1328125,-40.52734375,59.5703125,1.0,1.0,0.0,0.0,3.m4v,8.0
2024-02-28 10:22:56.598454,1709112176.5984545,34.1796875,-35.15625,-58.59375,25.87890625,1.0,1.0,0.0,0.0,3.m4v,8.0
2024-02-28 10:22:56.602360,1709112176.60236,-13.671875,-42.96875,-41.50390625,-75.1953125,1.0,1.0,0.0,0.0,3.m4v,8.0
2024-02-28 10:22:56.606266,1709112176.6062658,-58.59375,-40.52734375,-37.59765625,-32.71484375,1.0,1.0,0.0,0.0,3.m4v,8.0
2024-02-28 10:22:56.610171,1709112176.6101713,-12.20703125,-27.34375,-37.59765625,-31.25,1.0,1.0,0.0,0.0,3.m4v,8.0
2024-02-28 10:22:56.614077,1709112176.6140769,-5.859375,-16.11328125,-34.66796875,-30.2734375,1.0,1.0,0.0,0.0,3.m4v,8.0
2024-02-28 10:22:56.617983,1709112176.6179826,-38.0859375,-30.2734375,-40.52734375,30.2734375,1.0,1.0,0.0,0.0,3.m4v,8.0
2024-02-28 10:22:56.621893,1709112176.6218932,-38.0859375,-45.8984375,-20.01953125,12.6953125,1.0,1.0,0.0,0.0,3.m4v,8.0
2024-02-28 10:22:56.625799,1709112176.6257987,-27.83203125,-36.62109375,-22.4609375,-55.17578125,1.0,1.0,0.0,0.0,3.m4v,8.0
2024-02-28 10:22:56.629704,1709112176.6297045,-1.46484375,-27.83203125,-53.22265625,-29.78515625,1.0,1.0,0.0,0.0,3.m4v,8.0
2024-02-28 10:22:56.633610,1709112176.63361,-15.13671875,-41.015625,-53.22265625,-10.25390625,1.0,1.0,0.0,0.0,3.m4v,8.0
2024-02-28 10:22:56.637516,1709112176.6375158,-25.87890625,-45.8984375,-27.83203125,-20.99609375,1.0,1.0,0.0,0.0,3.m4v,8.0
2024-02-28 10:22:56.641421,1709112176.6414213,-20.99609375,-37.109375,-13.18359375,-16.11328125,1.0,1.0,0.0,0.0,3.m4v,8.0
2024-02-28 10:22:56.645327,1709112176.6453269,-36.62109375,-39.0625,-21.484375,-17.578125,1.0,1.0,0.0,0.0,3.m4v,8.0
2024-02-28 10:22:56.649233,1709112176.6492326,-48.828125,-37.59765625,-32.2265625,-13.18359375,1.0,1.0,0.0,0.0,3.m4v,8.0
2024-02-28 10:22:56.653138,1709112176.6531382,-5.37109375,-32.2265625,-46.38671875,-1.46484375,1.0,1.0,0.0,0.0,3.m4v,8.0
2024-02-28 10:22:56.657044,1709112176.6570437,-11.23046875,-25.390625,-52.24609375,32.2265625,1.0,1.0,0.0,0.0,3.m4v,8.0
2024-02-28 10:22:56.660949,1709112176.6609497,-59.5703125,-15.13671875,-34.1796875,25.390625,1.0,1.0,0.0,0.0,3.m4v,8.0
2024-02-28 10:22:56.664855,1709112176.664855,-48.33984375,-26.3671875,-30.2734375,-29.296875,1.0,1.0,0.0,0.0,3.m4v,8.0
2024-02-28 10:22:56.668765,1709112176.6687653,-48.33984375,-44.921875,-20.5078125,-35.15625,1.0,1.0,0.0,0.0,3.m4v,8.0
2024-02-28 10:22:56.672671,1709112176.6726708,-54.19921875,-49.31640625,-12.20703125,-58.59375,1.0,1.0,0.0,0.0,3.m4v,8.0
2024-02-28 10:22:56.676576,1709112176.6765764,-68.84765625,-61.03515625,-4.39453125,-85.9375,1.0,1.0,0.0,0.0,3.m4v,8.0
2024-02-28 10:22:56.680482,1709112176.680482,-39.55078125,-66.40625,5.37109375,16.6015625,1.0,1.0,0.0,0.0,3.m4v,8.0
2024-02-28 10:22:56.684388,1709112176.6843877,2.44140625,-56.15234375,-17.578125,44.43359375,1.0,1.0,0.0,0.0,3.m4v,8.0
2024-02-28 10:22:56.688293,1709112176.6882937,-39.0625,-49.8046875,-38.0859375,-12.6953125,1.0,1.0,0.0,0.0,3.m4v,8.0
2024-02-28 10:22:56.692199,1709112176.692199,-44.43359375,-39.0625,-44.43359375,36.62109375,1.0,1.0,0.0,0.0,3.m4v,8.0
2024-02-28 10:22:56.696105,1709112176.6961043,-21.484375,-32.2265625,-58.10546875,-15.625,1.0,1.0,0.0,0.0,3.m4v,8.0
2024-02-28 10:22:56.700010,1709112176.7000103,-27.34375,-30.2734375,-42.96875,-75.1953125,1.0,1.0,0.0,0.0,3.m4v,8.0
2024-02-28 10:22:56.703916,1709112176.7039158,-35.15625,-24.90234375,-35.15625,-29.296875,1.0,1.0,0.0,0.0,3.m4v,8.0
2024-02-28 10:22:56.707821,1709112176.7078214,-20.5078125,-37.109375,-23.4375,16.6015625,1.0,1.0,0.0,0.0,3.m4v,8.0
2024-02-28 10:22:56.711727,1709112176.7117271,-0.9765625,-53.7109375,-19.04296875,60.05859375,1.0,1.0,0.0,0.0,3.m4v,8.0
2024-02-28 10:22:56.715637,1709112176.7156372,2.9296875,-53.7109375,-39.0625,16.11328125,1.0,1.0,0.0,0.0,3.m4v,8.0
2024-02-28 10:22:56.719543,1709112176.7195427,-35.15625,-47.8515625,-19.53125,-52.734375,1.0,1.0,0.0,0.0,3.m4v,8.0
2024-02-28 10:22:56.723448,1709112176.7234485,-34.1796875,-28.3203125,-5.37109375,-36.62109375,1.0,1.0,0.0,0.0,3.m4v,8.0
2024-02-28 10:22:56.727354,1709112176.727354,-11.71875,-4.39453125,-20.01953125,-28.80859375,1.0,1.0,0.0,0.0,3.m4v,8.0
2024-02-28 10:22:56.731260,1709112176.7312596,-34.66796875,-6.8359375,-40.0390625,-43.45703125,1.0,1.0,0.0,0.0,3.m4v,8.0
2024-02-28 10:22:56.735165,1709112176.7351654,-41.015625,-35.64453125,-70.80078125,-32.2265625,1.0,1.0,0.0,0.0,3.m4v,8.0
2024-02-28 10:22:56.739071,1709112176.739071,-10.7421875,-36.62109375,-62.01171875,0.48828125,1.0,1.0,0.0,0.0,3.m4v,8.0
2024-02-28 10:22:56.742976,1709112176.7429764,-5.37109375,-24.4140625,-25.87890625,-14.6484375,1.0,1.0,0.0,0.0,3.m4v,8.0
2024-02-28 10:22:56.746882,1709112176.7468822,-34.1796875,-27.34375,-11.71875,-48.33984375,1.0,1.0,0.0,0.0,3.m4v,8.0
2024-02-28 10:22:56.750788,1709112176.7507875,-41.015625,-28.3203125,-38.0859375,-21.97265625,1.0,1.0,0.0,0.0,3.m4v,8.0
2024-02-28 10:22:56.754694,1709112176.7546935,-13.671875,-18.5546875,-69.82421875,-22.94921875,1.0,1.0,0.0,0.0,3.m4v,8.0
2024-02-28 10:22:56.758599,1709112176.758599,-15.625,-21.97265625,-50.78125,-37.59765625,1.0,1.0,0.0,0.0,3.m4v,8.0
2024-02-28 10:22:56.762509,1709112176.7625089,-15.625,-21.97265625,-36.1328125,-18.06640625,1.0,1.0,0.0,0.0,3.m4v,8.0
2024-02-28 10:22:56.766414,1709112176.7664144,0.48828125,-20.5078125,-28.80859375,4.39453125,1.0,1.0,0.0,0.0,3.m4v,8.0
2024-02-28 10:22:56.770320,1709112176.7703202,-42.48046875,-37.109375,-25.87890625,-44.921875,1.0,1.0,0.0,0.0,3.m4v,8.0
2024-02-28 10:22:56.774226,1709112176.7742257,-62.98828125,-39.55078125,-36.1328125,-69.82421875,1.0,1.0,0.0,0.0,3.m4v,8.0
2024-02-28 10:22:56.778131,1709112176.7781312,-41.50390625,-25.390625,-38.0859375,-49.8046875,1.0,1.0,0.0,0.0,3.m4v,8.0
2024-02-28 10:22:56.782037,1709112176.782037,13.671875,-22.4609375,-41.015625,-1.953125,1.0,1.0,0.0,0.0,3.m4v,8.0
2024-02-28 10:22:56.785943,1709112176.7859426,11.71875,-27.83203125,-64.94140625,73.73046875,1.0,1.0,0.0,0.0,3.m4v,8.0
2024-02-28 10:22:56.789848,1709112176.7898483,24.4140625,-16.6015625,-56.15234375,29.78515625,1.0,1.0,0.0,0.0,3.m4v,8.0
2024-02-28 10:22:56.793754,1709112176.793754,9.765625,-17.578125,-28.80859375,-61.5234375,1.0,1.0,0.0,0.0,3.m4v,8.0
2024-02-28 10:22:56.797659,1709112176.7976594,-83.49609375,-49.8046875,-9.765625,-51.26953125,1.0,1.0,0.0,0.0,3.m4v,8.0
2024-02-28 10:22:56.801565,1709112176.8015652,-29.296875,-52.734375,-4.8828125,-39.55078125,1.0,1.0,0.0,0.0,3.m4v,8.0
2024-02-28 10:22:56.805471,1709112176.8054707,14.6484375,-27.34375,-43.9453125,-6.8359375,1.0,1.0,0.0,0.0,3.m4v,8.0
2024-02-28 10:22:56.809380,1709112176.8093803,-19.53125,-15.13671875,-45.41015625,23.4375,1.0,1.0,0.0,0.0,3.m4v,8.0
2024-02-28 10:22:56.813286,1709112176.813286,-1.953125,-12.6953125,-33.69140625,-30.2734375,1.0,1.0,0.0,0.0,3.m4v,8.0
2024-02-28 10:22:56.817192,1709112176.8171916,-0.9765625,-13.18359375,-33.203125,-41.015625,1.0,1.0,0.0,0.0,3.m4v,8.0
2024-02-28 10:22:56.821097,1709112176.8210974,-23.92578125,-26.85546875,-22.94921875,-41.50390625,1.0,1.0,0.0,0.0,3.m4v,8.0
2024-02-28 10:22:56.825003,1709112176.825003,-24.90234375,-28.3203125,-37.109375,-52.734375,1.0,1.0,0.0,0.0,3.m4v,8.0
2024-02-28 10:22:56.828908,1709112176.8289084,-37.59765625,-22.4609375,-45.41015625,-34.1796875,1.0,1.0,0.0,0.0,3.m4v,8.0
2024-02-28 10:22:56.832814,1709112176.8328142,-38.57421875,-26.3671875,-44.43359375,10.7421875,1.0,1.0,0.0,0.0,3.m4v,8.0
2024-02-28 10:22:56.836720,1709112176.8367198,-1.953125,-31.25,-33.203125,12.6953125,1.0,1.0,0.0,0.0,3.m4v,8.0
2024-02-28 10:22:56.840626,1709112176.8406255,18.5546875,-33.69140625,-23.92578125,-76.66015625,1.0,1.0,0.0,0.0,3.m4v,8.0
2024-02-28 10:22:56.844531,1709112176.844531,-38.57421875,-46.875,-11.23046875,-55.6640625,1.0,1.0,0.0,0.0,3.m4v,8.0
2024-02-28 10:22:56.848437,1709112176.8484366,-73.2421875,-47.36328125,4.39453125,-9.27734375,1.0,1.0,0.0,0.0,3.m4v,8.0
2024-02-28 10:22:56.852342,1709112176.8523424,-48.33984375,-20.99609375,-22.4609375,-41.50390625,1.0,1.0,0.0,0.0,3.m4v,8.0
2024-02-28 10:22:56.856254,1709112176.8562536,-24.90234375,-13.18359375,-39.55078125,-40.52734375,1.0,1.0,0.0,0.0,3.m4v,8.0
2024-02-28 10:22:56.867970,1709112176.8679705,-29.296875,-38.0859375,-29.78515625,-42.48046875,1.0,1.0,0.0,0.0,3.m4v,8.0
2024-02-28 10:22:56.879688,1709112176.8796875,-15.13671875,-16.11328125,-24.4140625,-22.94921875,1.0,1.0,0.0,0.0,3.m4v,8.0
2024-02-28 10:22:56.891404,1709112176.8914044,-11.71875,-51.26953125,-19.04296875,-20.5078125,1.0,1.0,0.0,0.0,3.m4v,8.0
2024-02-28 10:22:56.903127,1709112176.9031267,-2.44140625,-24.90234375,-47.8515625,3.41796875,1.0,1.0,0.0,0.0,3.m4v,8.0
2024-02-28 10:22:56.914844,1709112176.9148436,-16.11328125,-49.31640625,-37.59765625,-3.90625,1.0,1.0,0.0,0.0,3.m4v,8.0
2024-02-28 10:22:56.926560,1709112176.9265604,-42.48046875,-17.08984375,-42.96875,-23.92578125,1.0,1.0,0.0,0.0,3.m4v,8.0
2024-02-28 10:22:57.106239,1709112177.1062386,-25.390625,-21.97265625,-29.296875,-69.3359375,1.0,1.0,0.0,0.0,3.m4v,8.0
2024-02-28 10:22:57.110144,1709112177.1101444,-59.5703125,-33.69140625,-30.2734375,-45.8984375,1.0,1.0,0.0,0.0,3.m4v,8.0
2024-02-28 10:22:57.114050,1709112177.11405,-41.015625,-41.50390625,-28.3203125,-37.109375,1.0,1.0,0.0,0.0,3.m4v,8.0
2024-02-28 10:22:57.117955,1709112177.1179554,-38.0859375,-38.0859375,-27.34375,29.78515625,1.0,1.0,0.0,0.0,3.m4v,8.0
2024-02-28 10:22:57.121861,1709112177.1218612,2.44140625,-23.92578125,-30.2734375,-25.390625,1.0,1.0,0.0,0.0,3.m4v,8.0
2024-02-28 10:22:57.125767,1709112177.1257668,-10.7421875,-19.53125,-54.6875,-96.19140625,1.0,1.0,0.0,0.0,3.m4v,8.0
2024-02-28 10:22:57.129673,1709112177.1296723,-76.66015625,-22.4609375,-38.0859375,-63.96484375,1.0,1.0,0.0,0.0,3.m4v,8.0
2024-02-28 10:22:57.133578,1709112177.133578,-30.76171875,-20.01953125,-21.484375,-28.80859375,1.0,1.0,0.0,0.0,3.m4v,8.0
2024-02-28 10:22:57.137488,1709112177.1374876,7.32421875,-35.15625,-51.26953125,-13.671875,1.0,1.0,0.0,0.0,3.m4v,8.0
2024-02-28 10:22:57.141393,1709112177.1413932,17.08984375,-68.359375,-61.03515625,-30.2734375,1.0,1.0,0.0,0.0,3.m4v,8.0
2024-02-28 10:22:57.145299,1709112177.145299,-27.34375,-68.359375,-37.59765625,-74.21875,1.0,1.0,0.0,0.0,3.m4v,8.0
2024-02-28 10:22:57.149204,1709112177.1492045,-68.359375,-23.4375,-2.44140625,-67.3828125,1.0,1.0,0.0,0.0,3.m4v,8.0
2024-02-28 10:22:57.153110,1709112177.1531105,-33.203125,8.7890625,3.41796875,-31.73828125,1.0,1.0,0.0,0.0,3.m4v,8.0
2024-02-28 10:22:57.157016,1709112177.1570158,-58.59375,-12.20703125,-17.578125,-55.6640625,1.0,1.0,0.0,0.0,3.m4v,8.0
2024-02-28 10:22:57.160921,1709112177.160921,-29.296875,-27.34375,-39.0625,-80.56640625,1.0,1.0,0.0,0.0,3.m4v,8.0
2024-02-28 10:22:57.164827,1709112177.164827,-26.85546875,-28.3203125,-39.0625,-11.71875,1.0,1.0,0.0,0.0,3.m4v,8.0
2024-02-28 10:22:57.168733,1709112177.1687326,-81.54296875,-31.25,-41.50390625,7.8125,1.0,1.0,0.0,0.0,3.m4v,8.0
2024-02-28 10:22:57.430442,1709112177.430442,-1.46484375,-24.4140625,-65.91796875,-53.7109375,1.0,1.0,0.0,0.0,3.m4v,8.0
2024-02-28 10:22:57.434347,1709112177.4343474,-11.71875,-6.34765625,-20.5078125,-72.75390625,1.0,1.0,0.0,0.0,3.m4v,8.0
2024-02-28 10:22:57.438253,1709112177.4382532,-76.66015625,-44.43359375,-2.9296875,8.7890625,1.0,1.0,0.0,0.0,3.m4v,8.0
2024-02-28 10:22:57.567152,1709112177.5671515,-62.5,-35.15625,-16.6015625,-69.82421875,1.0,1.0,0.0,0.0,3.m4v,8.0
2024-02-28 10:22:57.571057,1709112177.571057,-17.578125,-42.48046875,11.23046875,-42.96875,1.0,1.0,0.0,0.0,3.m4v,8.0
2024-02-28 10:22:57.574963,1709112177.5749629,-13.671875,-45.8984375,-16.6015625,-50.29296875,1.0,1.0,0.0,0.0,3.m4v,8.0
2024-02-28 10:22:57.578868,1709112177.5788684,-61.5234375,-39.55078125,-47.8515625,-42.96875,1.0,1.0,0.0,0.0,3.m4v,8.0
2024-02-28 10:22:57.582774,1709112177.582774,-96.6796875,-58.59375,-36.1328125,-40.52734375,1.0,1.0,0.0,0.0,3.m4v,8.0
2024-02-28 10:22:57.586680,1709112177.5866797,-50.78125,-67.3828125,-6.8359375,-13.18359375,1.0,1.0,0.0,0.0,3.m4v,8.0
2024-02-28 10:22:57.590585,1709112177.5905852,-28.80859375,-47.36328125,-16.11328125,37.59765625,1.0,1.0,0.0,0.0,3.m4v,8.0
2024-02-28 10:22:57.594491,1709112177.594491,-51.7578125,-22.4609375,-67.3828125,2.9296875,1.0,1.0,0.0,0.0,3.m4v,8.0
2024-02-28 10:22:57.598397,1709112177.5983963,-30.76171875,-6.8359375,-80.078125,-30.2734375,1.0,1.0,0.0,0.0,3.m4v,8.0
2024-02-28 10:22:57.602302,1709112177.602302,-28.3203125,-15.625,-37.59765625,-62.5,1.0,1.0,0.0,0.0,3.m4v,8.0
2024-02-28 10:22:57.606214,1709112177.6062136,-22.94921875,-26.3671875,-23.92578125,-29.78515625,1.0,1.0,0.0,0.0,3.m4v,8.0
2024-02-28 10:22:57.610119,1709112177.610119,3.90625,-36.62109375,-3.41796875,43.9453125,1.0,1.0,0.0,0.0,3.m4v,8.0
2024-02-28 10:22:57.614025,1709112177.6140249,-23.92578125,-49.31640625,9.27734375,-25.390625,1.0,1.0,0.0,0.0,3.m4v,8.0
2024-02-28 10:22:57.617930,1709112177.6179304,-55.17578125,-47.36328125,0.0,-75.1953125,1.0,1.0,0.0,0.0,3.m4v,8.0
2024-02-28 10:22:57.621836,1709112177.621836,-65.4296875,-41.50390625,-20.99609375,-38.57421875,1.0,1.0,0.0,0.0,3.m4v,8.0
2024-02-28 10:22:57.625742,1709112177.6257415,-45.8984375,-50.78125,-58.59375,-30.2734375,1.0,1.0,0.0,0.0,3.m4v,8.0
2024-02-28 10:22:57.629647,1709112177.6296473,-13.671875,-34.66796875,-67.3828125,-70.3125,1.0,1.0,0.0,0.0,3.m4v,8.0
2024-02-28 10:22:57.633553,1709112177.633553,-31.73828125,-19.04296875,-49.8046875,33.69140625,1.0,1.0,0.0,0.0,3.m4v,8.0
2024-02-28 10:22:57.637459,1709112177.6374586,6.8359375,-50.78125,-41.015625,37.109375,1.0,1.0,0.0,0.0,3.m4v,8.0
2024-02-28 10:22:57.641364,1709112177.641364,-6.34765625,-52.734375,-19.53125,-90.8203125,1.0,1.0,0.0,0.0,3.m4v,8.0
2024-02-28 10:22:57.645270,1709112177.64527,-99.12109375,-37.59765625,10.7421875,-76.171875,1.0,1.0,0.0,0.0,3.m4v,8.0
2024-02-28 10:22:57.649175,1709112177.6491754,-74.21875,-36.62109375,5.37109375,-43.9453125,1.0,1.0,0.0,0.0,3.m4v,8.0
2024-02-28 10:22:57.653086,1709112177.6530864,-43.45703125,-27.83203125,-13.18359375,-68.84765625,1.0,1.0,0.0,0.0,3.m4v,8.0
2024-02-28 10:22:57.656992,1709112177.6569922,-46.38671875,-34.1796875,-23.4375,-19.04296875,1.0,1.0,0.0,0.0,3.m4v,8.0
2024-02-28 10:22:57.660898,1709112177.6608975,-14.6484375,-46.875,-51.26953125,31.73828125,1.0,1.0,0.0,0.0,3.m4v,8.0
2024-02-28 10:22:57.664804,1709112177.6648035,27.34375,-29.78515625,-114.2578125,-1.953125,1.0,1.0,0.0,0.0,3.m4v,8.0
2024-02-28 10:22:57.668709,1709112177.668709,0.0,-25.390625,-89.35546875,-11.71875,1.0,1.0,0.0,0.0,3.m4v,8.0
2024-02-28 10:22:57.672615,1709112177.6726146,-58.59375,-28.3203125,0.48828125,-36.1328125,1.0,1.0,0.0,0.0,3.m4v,8.0
2024-02-28 10:22:57.676520,1709112177.6765203,-56.640625,-23.92578125,7.8125,-58.59375,1.0,1.0,0.0,0.0,3.m4v,8.0
2024-02-28 10:22:57.680426,1709112177.680426,-57.12890625,-30.76171875,1.46484375,-44.43359375,1.0,1.0,0.0,0.0,3.m4v,8.0
2024-02-28 10:22:57.684332,1709112177.6843317,-62.5,-46.875,-12.20703125,-36.1328125,1.0,1.0,0.0,0.0,3.m4v,8.0
2024-02-28 10:22:57.688237,1709112177.6882372,-47.36328125,-57.6171875,-36.62109375,-43.9453125,1.0,1.0,0.0,0.0,3.m4v,8.0
2024-02-28 10:22:57.692143,1709112177.6921427,-44.921875,-43.9453125,-44.43359375,-90.33203125,1.0,1.0,0.0,0.0,3.m4v,8.0
2024-02-28 10:22:57.696048,1709112177.6960485,7.8125,-28.3203125,-52.734375,-57.12890625,1.0,1.0,0.0,0.0,3.m4v,8.0
2024-02-28 10:22:57.699959,1709112177.6999593,23.4375,-14.6484375,-75.1953125,-5.37109375,1.0,1.0,0.0,0.0,3.m4v,8.0
2024-02-28 10:22:57.703865,1709112177.703865,-63.4765625,-21.484375,-54.19921875,33.69140625,1.0,1.0,0.0,0.0,3.m4v,8.0
2024-02-28 10:22:57.707771,1709112177.7077706,-42.96875,-38.57421875,-6.34765625,59.08203125,1.0,1.0,0.0,0.0,3.m4v,8.0
2024-02-28 10:22:57.711676,1709112177.7116764,3.41796875,-36.1328125,-3.41796875,-39.0625,1.0,1.0,0.0,0.0,3.m4v,8.0
2024-02-28 10:22:57.715582,1709112177.715582,-23.92578125,-40.0390625,-19.53125,-67.87109375,1.0,1.0,0.0,0.0,3.m4v,8.0
2024-02-28 10:22:57.719487,1709112177.7194874,-48.828125,-44.43359375,-29.296875,4.39453125,1.0,1.0,0.0,0.0,3.m4v,8.0
2024-02-28 10:22:57.723393,1709112177.7233932,-14.16015625,-36.1328125,-43.45703125,-13.18359375,1.0,1.0,0.0,0.0,3.m4v,8.0
2024-02-28 10:22:57.727299,1709112177.7272987,-1.953125,-27.83203125,-40.52734375,0.48828125,1.0,1.0,0.0,0.0,3.m4v,8.0
2024-02-28 10:22:57.731205,1709112177.7312045,-36.62109375,-41.9921875,-13.671875,-46.38671875,1.0,1.0,0.0,0.0,3.m4v,8.0
2024-02-28 10:22:57.735110,1709112177.73511,-1.46484375,-55.17578125,-43.45703125,-84.47265625,1.0,1.0,0.0,0.0,3.m4v,8.0
2024-02-28 10:22:57.739016,1709112177.7390156,12.20703125,-51.7578125,-59.08203125,2.9296875,1.0,1.0,0.0,0.0,3.m4v,8.0
2024-02-28 10:22:57.742921,1709112177.7429214,-34.66796875,-47.36328125,-17.578125,24.90234375,1.0,1.0,0.0,0.0,3.m4v,8.0
2024-02-28 10:22:57.746832,1709112177.7468317,-21.97265625,-26.85546875,-41.015625,-21.484375,1.0,1.0,0.0,0.0,3.m4v,8.0
2024-02-28 10:22:57.750737,1709112177.7507372,-5.37109375,-20.01953125,-57.6171875,-62.01171875,1.0,1.0,0.0,0.0,3.m4v,8.0
2024-02-28 10:22:57.754643,1709112177.754643,-40.0390625,-44.921875,-15.13671875,-91.796875,1.0,1.0,0.0,0.0,3.m4v,8.0
2024-02-28 10:22:57.758548,1709112177.7585485,-51.26953125,-52.734375,5.859375,-23.4375,1.0,1.0,0.0,0.0,3.m4v,8.0
2024-02-28 10:22:57.762454,1709112177.7624545,-12.6953125,-34.1796875,-10.25390625,-12.6953125,1.0,1.0,0.0,0.0,3.m4v,8.0
2024-02-28 10:22:57.766360,1709112177.7663598,2.9296875,-14.16015625,-40.52734375,-83.0078125,1.0,1.0,0.0,0.0,3.m4v,8.0
2024-02-28 10:22:57.770265,1709112177.770265,-44.921875,-22.4609375,-44.43359375,-14.16015625,1.0,1.0,0.0,0.0,3.m4v,8.0
2024-02-28 10:22:57.774171,1709112177.774171,-53.22265625,-50.78125,-27.34375,0.0,1.0,1.0,0.0,0.0,3.m4v,8.0
2024-02-28 10:22:57.778077,1709112177.7780766,-20.5078125,-51.26953125,-25.390625,-50.29296875,1.0,1.0,0.0,0.0,3.m4v,8.0
2024-02-28 10:22:57.781982,1709112177.7819824,-39.55078125,-31.25,-43.45703125,-30.76171875,1.0,1.0,0.0,0.0,3.m4v,8.0
