Timestamp,Timestamp_UNIX,TP9,AF7,AF8,TP10,Valence,Arousal,Dominace,Viewed,Video,Participant
2024-02-28 11:37:24.002950,1709116644.0029497,-34.1796875,-28.3203125,-45.8984375,-36.1328125,1.0,1.0,1.0,1.0,5.m4v,9.0
2024-02-28 11:37:24.010761,1709116644.0107615,-40.0390625,-32.2265625,-44.921875,-35.64453125,1.0,1.0,1.0,1.0,5.m4v,9.0
2024-02-28 11:37:24.018574,1709116644.0185745,-43.45703125,-37.59765625,-30.2734375,-59.08203125,1.0,1.0,1.0,1.0,5.m4v,9.0
2024-02-28 11:37:24.026386,1709116644.0263865,-43.45703125,-30.76171875,-45.41015625,-33.203125,1.0,1.0,1.0,1.0,5.m4v,9.0
2024-02-28 11:37:24.034198,1709116644.0341983,-36.1328125,-52.24609375,-31.25,-23.92578125,1.0,1.0,1.0,1.0,5.m4v,9.0
2024-02-28 11:37:24.042010,1709116644.0420103,-37.59765625,-40.52734375,-31.73828125,-40.52734375,1.0,1.0,1.0,1.0,5.m4v,9.0
2024-02-28 11:37:24.049822,1709116644.049822,-49.31640625,-35.64453125,-32.2265625,-28.3203125,1.0,1.0,1.0,1.0,5.m4v,9.0
2024-02-28 11:37:24.057634,1709116644.057634,-34.66796875,-16.11328125,-34.1796875,-46.875,1.0,1.0,1.0,1.0,5.m4v,9.0
2024-02-28 11:37:24.065447,1709116644.065447,-47.36328125,-27.83203125,-43.45703125,-21.97265625,1.0,1.0,1.0,1.0,5.m4v,9.0
2024-02-28 11:37:24.073259,1709116644.0732589,-41.50390625,-15.13671875,-30.76171875,-32.2265625,1.0,1.0,1.0,1.0,5.m4v,9.0
2024-02-28 11:37:24.163100,1709116644.1630998,-38.57421875,-13.18359375,-35.15625,-32.2265625,1.0,1.0,1.0,1.0,5.m4v,9.0
2024-02-28 11:37:24.163100,1709116644.1630998,-38.57421875,-13.18359375,-35.15625,-32.2265625,1.0,1.0,1.0,1.0,5.m4v,9.0
2024-02-28 11:37:24.167006,1709116644.1670055,-41.9921875,3.90625,-34.66796875,-38.0859375,1.0,1.0,1.0,1.0,5.m4v,9.0
2024-02-28 11:37:24.167006,1709116644.1670055,-41.9921875,3.90625,-34.66796875,-38.0859375,1.0,1.0,1.0,1.0,5.m4v,9.0
2024-02-28 11:37:24.170912,1709116644.1709116,-50.29296875,-13.18359375,-28.80859375,-31.73828125,1.0,1.0,1.0,1.0,5.m4v,9.0
2024-02-28 11:37:24.174818,1709116644.1748176,-39.55078125,-11.71875,-29.296875,-32.71484375,1.0,1.0,1.0,1.0,5.m4v,9.0
2024-02-28 11:37:24.178724,1709116644.1787236,-37.109375,-27.83203125,-42.96875,-29.296875,1.0,1.0,1.0,1.0,5.m4v,9.0
2024-02-28 11:37:24.182629,1709116644.182629,-46.38671875,-44.921875,-43.45703125,-36.62109375,1.0,1.0,1.0,1.0,5.m4v,9.0
2024-02-28 11:37:24.186535,1709116644.1865354,-39.0625,-18.5546875,-33.69140625,-45.8984375,1.0,1.0,1.0,1.0,5.m4v,9.0
2024-02-28 11:37:24.190441,1709116644.1904414,-35.15625,-34.1796875,-28.80859375,-80.078125,1.0,1.0,1.0,1.0,5.m4v,9.0
2024-02-28 11:37:24.194347,1709116644.1943474,-24.90234375,-63.4765625,-17.08984375,-61.03515625,1.0,1.0,1.0,1.0,5.m4v,9.0
2024-02-28 11:37:24.198253,1709116644.1982532,-11.71875,-50.29296875,-32.2265625,-6.8359375,1.0,1.0,1.0,1.0,5.m4v,9.0
2024-02-28 11:37:24.202159,1709116644.2021592,-33.203125,-20.01953125,-62.98828125,-24.4140625,1.0,1.0,1.0,1.0,5.m4v,9.0
2024-02-28 11:37:24.206067,1709116644.206067,-47.36328125,5.37109375,-66.40625,-34.66796875,1.0,1.0,1.0,1.0,5.m4v,9.0
2024-02-28 11:37:24.209973,1709116644.209973,-45.8984375,3.41796875,-54.6875,-46.38671875,1.0,1.0,1.0,1.0,5.m4v,9.0
2024-02-28 11:37:24.213879,1709116644.2138789,-28.3203125,-14.16015625,-25.390625,-41.50390625,1.0,1.0,1.0,1.0,5.m4v,9.0
2024-02-28 11:37:24.217785,1709116644.217785,-19.53125,-3.41796875,-8.30078125,-28.80859375,1.0,1.0,1.0,1.0,5.m4v,9.0
2024-02-28 11:37:24.252940,1709116644.2529402,-32.71484375,20.99609375,-47.36328125,-28.80859375,1.0,1.0,1.0,1.0,5.m4v,9.0
2024-02-28 11:37:24.256846,1709116644.2568462,-48.828125,53.22265625,-63.96484375,-12.20703125,1.0,1.0,1.0,1.0,5.m4v,9.0
2024-02-28 11:37:24.260752,1709116644.260752,-36.62109375,40.52734375,-94.23828125,-0.9765625,1.0,1.0,1.0,1.0,5.m4v,9.0
2024-02-28 11:37:24.264658,1709116644.264658,-2.9296875,11.71875,-93.75,-0.48828125,1.0,1.0,1.0,1.0,5.m4v,9.0
2024-02-28 11:37:24.268564,1709116644.268564,7.8125,-37.109375,-12.6953125,4.39453125,1.0,1.0,1.0,1.0,5.m4v,9.0
2024-02-28 11:37:24.272470,1709116644.27247,-30.76171875,-17.578125,-1.953125,-17.08984375,1.0,1.0,1.0,1.0,5.m4v,9.0
2024-02-28 11:37:24.276376,1709116644.2763758,-58.10546875,86.9140625,-35.15625,-3.90625,1.0,1.0,1.0,1.0,5.m4v,9.0
2024-02-28 11:37:24.280282,1709116644.2802818,-37.59765625,91.30859375,3.41796875,-2.9296875,1.0,1.0,1.0,1.0,5.m4v,9.0
2024-02-28 11:37:24.284188,1709116644.2841878,-44.921875,79.58984375,12.6953125,3.90625,1.0,1.0,1.0,1.0,5.m4v,9.0
2024-02-28 11:37:24.288094,1709116644.2880938,-79.58984375,125.0,-33.203125,-12.6953125,1.0,1.0,1.0,1.0,5.m4v,9.0
2024-02-28 11:37:24.292000,1709116644.2919996,-71.2890625,167.96875,-33.69140625,-23.4375,1.0,1.0,1.0,1.0,5.m4v,9.0
2024-02-28 11:37:24.295906,1709116644.2959056,-43.45703125,138.18359375,3.41796875,-30.76171875,1.0,1.0,1.0,1.0,5.m4v,9.0
2024-02-28 11:37:24.299814,1709116644.2998145,-43.45703125,92.7734375,-11.23046875,-46.38671875,1.0,1.0,1.0,1.0,5.m4v,9.0
2024-02-28 11:37:24.303720,1709116644.3037205,0.9765625,107.421875,-50.78125,-35.15625,1.0,1.0,1.0,1.0,5.m4v,9.0
2024-02-28 11:37:24.307626,1709116644.3076262,-0.48828125,58.59375,-33.203125,18.06640625,1.0,1.0,1.0,1.0,5.m4v,9.0
2024-02-28 11:37:24.311532,1709116644.3115325,-62.5,123.53515625,-20.5078125,56.15234375,1.0,1.0,1.0,1.0,5.m4v,9.0
2024-02-28 11:37:24.315438,1709116644.3154385,-39.55078125,267.578125,-45.41015625,3.41796875,1.0,1.0,1.0,1.0,5.m4v,9.0
2024-02-28 11:37:24.319344,1709116644.3193443,-113.28125,258.30078125,-25.87890625,22.4609375,1.0,1.0,1.0,1.0,5.m4v,9.0
2024-02-28 11:37:24.397466,1709116644.397466,-813.4765625,-151.3671875,-379.39453125,-459.9609375,1.0,1.0,1.0,1.0,5.m4v,9.0
2024-02-28 11:37:24.401372,1709116644.401372,-971.6796875,-307.6171875,-454.58984375,-604.4921875,1.0,1.0,1.0,1.0,5.m4v,9.0
2024-02-28 11:37:24.405278,1709116644.405278,-985.83984375,-485.83984375,-527.83203125,-685.05859375,1.0,1.0,1.0,1.0,5.m4v,9.0
2024-02-28 11:37:24.409184,1709116644.4091835,-1000.0,-551.7578125,-576.66015625,-744.62890625,1.0,1.0,1.0,1.0,5.m4v,9.0
2024-02-28 11:37:24.413090,1709116644.4130898,-999.51171875,-557.12890625,-647.4609375,-802.734375,1.0,1.0,1.0,1.0,5.m4v,9.0
2024-02-28 11:37:24.416996,1709116644.4169958,-1000.0,-616.2109375,-711.9140625,-934.08203125,1.0,1.0,1.0,1.0,5.m4v,9.0
2024-02-28 11:37:24.420902,1709116644.4209018,-1000.0,-663.57421875,-703.125,-974.12109375,1.0,1.0,1.0,1.0,5.m4v,9.0
2024-02-28 11:37:24.424808,1709116644.4248075,-1000.0,-671.38671875,-688.96484375,-895.5078125,1.0,1.0,1.0,1.0,5.m4v,9.0
2024-02-28 11:37:24.428714,1709116644.4287136,-1000.0,-741.2109375,-712.890625,-825.68359375,1.0,1.0,1.0,1.0,5.m4v,9.0
2024-02-28 11:37:24.432620,1709116644.4326196,-1000.0,-830.56640625,-764.16015625,-914.55078125,1.0,1.0,1.0,1.0,5.m4v,9.0
2024-02-28 11:37:24.436526,1709116644.4365256,-1000.0,-848.6328125,-784.66796875,-927.734375,1.0,1.0,1.0,1.0,5.m4v,9.0
2024-02-28 11:37:24.499022,1709116644.4990225,-1000.0,-971.6796875,-817.3828125,-1000.0,1.0,1.0,1.0,1.0,5.m4v,9.0
2024-02-28 11:37:24.502928,1709116644.5029285,-1000.0,-992.67578125,-741.2109375,-993.1640625,1.0,1.0,1.0,1.0,5.m4v,9.0
2024-02-28 11:37:24.506835,1709116644.5068345,-1000.0,-919.43359375,-726.07421875,-989.2578125,1.0,1.0,1.0,1.0,5.m4v,9.0
2024-02-28 11:37:24.510741,1709116644.5107405,-1000.0,-921.875,-745.1171875,-1000.0,1.0,1.0,1.0,1.0,5.m4v,9.0
2024-02-28 11:37:24.514646,1709116644.5146463,-1000.0,-941.89453125,-814.94140625,-981.4453125,1.0,1.0,1.0,1.0,5.m4v,9.0
2024-02-28 11:37:24.518552,1709116644.5185523,-1000.0,-883.7890625,-781.25,-977.05078125,1.0,1.0,1.0,1.0,5.m4v,9.0
2024-02-28 11:37:24.686514,1709116644.6865144,-95.21484375,119.62890625,-24.90234375,-151.3671875,1.0,1.0,1.0,1.0,5.m4v,9.0
2024-02-28 11:37:24.694326,1709116644.6943262,-8.7890625,-89.35546875,91.796875,-148.4375,1.0,1.0,1.0,1.0,5.m4v,9.0
2024-02-28 11:37:24.702138,1709116644.7021382,9.27734375,124.0234375,125.0,-80.56640625,1.0,1.0,1.0,1.0,5.m4v,9.0
2024-02-28 11:37:24.709950,1709116644.70995,-135.25390625,94.7265625,-98.6328125,-241.2109375,1.0,1.0,1.0,1.0,5.m4v,9.0
2024-02-28 11:37:24.788072,1709116644.788072,219.23828125,188.4765625,187.01171875,101.5625,1.0,1.0,1.0,1.0,5.m4v,9.0
2024-02-28 11:37:24.803696,1709116644.803696,70.3125,120.1171875,130.37109375,-73.73046875,1.0,1.0,1.0,1.0,5.m4v,9.0
2024-02-28 11:37:24.819321,1709116644.819321,76.66015625,280.2734375,165.0390625,-12.20703125,1.0,1.0,1.0,1.0,5.m4v,9.0
2024-02-28 11:37:24.834944,1709116644.8349445,74.21875,116.2109375,162.59765625,-57.6171875,1.0,1.0,1.0,1.0,5.m4v,9.0
2024-02-28 11:37:24.850568,1709116644.8505683,108.3984375,248.046875,104.00390625,52.734375,1.0,1.0,1.0,1.0,5.m4v,9.0
2024-02-28 11:37:24.866193,1709116644.8661928,65.91796875,82.51953125,139.16015625,-13.18359375,1.0,1.0,1.0,1.0,5.m4v,9.0
2024-02-28 11:37:24.948220,1709116644.9482198,-104.00390625,86.9140625,161.62109375,-169.43359375,1.0,1.0,1.0,1.0,5.m4v,9.0
2024-02-28 11:37:24.952126,1709116644.9521258,-97.65625,108.3984375,127.9296875,-142.578125,1.0,1.0,1.0,1.0,5.m4v,9.0
2024-02-28 11:37:24.956033,1709116644.9560337,-53.22265625,24.90234375,108.3984375,-93.26171875,1.0,1.0,1.0,1.0,5.m4v,9.0
2024-02-28 11:37:24.959939,1709116644.9599397,-76.171875,-37.59765625,217.28515625,-126.46484375,1.0,1.0,1.0,1.0,5.m4v,9.0
2024-02-28 11:37:24.963845,1709116644.9638455,-87.890625,-46.38671875,273.92578125,-193.84765625,1.0,1.0,1.0,1.0,5.m4v,9.0
2024-02-28 11:37:24.967752,1709116644.9677515,-34.1796875,-152.83203125,316.89453125,-112.79296875,1.0,1.0,1.0,1.0,5.m4v,9.0
2024-02-28 11:37:25.041966,1709116645.0419664,-580.078125,72.75390625,27.34375,-461.9140625,1.0,1.0,1.0,1.0,5.m4v,9.0
2024-02-28 11:37:25.045872,1709116645.0458724,-406.73828125,116.2109375,-8.30078125,-390.13671875,1.0,1.0,1.0,1.0,5.m4v,9.0
2024-02-28 11:37:25.049780,1709116645.04978,-496.58203125,170.41015625,-112.79296875,-518.5546875,1.0,1.0,1.0,1.0,5.m4v,9.0
2024-02-28 11:37:25.053686,1709116645.0536857,-659.66796875,202.1484375,-74.21875,-618.65234375,1.0,1.0,1.0,1.0,5.m4v,9.0
2024-02-28 11:37:25.057592,1709116645.0575917,-539.55078125,197.265625,26.3671875,-526.85546875,1.0,1.0,1.0,1.0,5.m4v,9.0
2024-02-28 11:37:25.061498,1709116645.0614977,-506.34765625,205.078125,-12.20703125,-491.69921875,1.0,1.0,1.0,1.0,5.m4v,9.0
2024-02-28 11:37:25.065404,1709116645.0654037,-580.56640625,269.53125,-141.11328125,-578.61328125,1.0,1.0,1.0,1.0,5.m4v,9.0
2024-02-28 11:37:25.069309,1709116645.0693097,-582.03125,203.61328125,-108.3984375,-593.75,1.0,1.0,1.0,1.0,5.m4v,9.0
2024-02-28 11:37:25.073215,1709116645.0732155,-575.68359375,25.87890625,31.25,-604.00390625,1.0,1.0,1.0,1.0,5.m4v,9.0
2024-02-28 11:37:25.077121,1709116645.0771215,-670.41015625,96.19140625,21.484375,-679.19921875,1.0,1.0,1.0,1.0,5.m4v,9.0
2024-02-28 11:37:25.081028,1709116645.0810275,-681.15234375,260.25390625,-99.609375,-656.73828125,1.0,1.0,1.0,1.0,5.m4v,9.0
2024-02-28 11:37:25.084933,1709116645.0849333,-617.1875,180.6640625,-124.51171875,-595.21484375,1.0,1.0,1.0,1.0,5.m4v,9.0
2024-02-28 11:37:25.088839,1709116645.0888393,-600.5859375,176.26953125,-135.25390625,-559.5703125,1.0,1.0,1.0,1.0,5.m4v,9.0
2024-02-28 11:37:25.092745,1709116645.0927453,-616.2109375,251.953125,-118.1640625,-576.171875,1.0,1.0,1.0,1.0,5.m4v,9.0
2024-02-28 11:37:25.096653,1709116645.0966525,-690.91796875,221.19140625,-84.47265625,-655.2734375,1.0,1.0,1.0,1.0,5.m4v,9.0
2024-02-28 11:37:25.100559,1709116645.1005583,-701.66015625,201.171875,-84.47265625,-693.359375,1.0,1.0,1.0,1.0,5.m4v,9.0
2024-02-28 11:37:25.104465,1709116645.1044643,-698.2421875,181.640625,-79.58984375,-700.1953125,1.0,1.0,1.0,1.0,5.m4v,9.0
2024-02-28 11:37:25.108370,1709116645.1083703,-664.55078125,200.68359375,-47.8515625,-604.4921875,1.0,1.0,1.0,1.0,5.m4v,9.0
2024-02-28 11:37:25.112276,1709116645.1122763,-625.48828125,226.07421875,-53.7109375,-606.4453125,1.0,1.0,1.0,1.0,5.m4v,9.0
2024-02-28 11:37:25.116182,1709116645.1161823,-601.07421875,231.4453125,-106.4453125,-584.9609375,1.0,1.0,1.0,1.0,5.m4v,9.0
2024-02-28 11:37:25.120088,1709116645.1200883,-610.3515625,207.51953125,-102.05078125,-577.63671875,1.0,1.0,1.0,1.0,5.m4v,9.0
2024-02-28 11:37:25.123994,1709116645.123994,-614.74609375,172.8515625,-25.390625,-663.57421875,1.0,1.0,1.0,1.0,5.m4v,9.0
2024-02-28 11:37:25.127900,1709116645.1279,-619.62890625,130.859375,-46.875,-708.0078125,1.0,1.0,1.0,1.0,5.m4v,9.0
2024-02-28 11:37:25.131806,1709116645.131806,-616.69921875,113.76953125,-80.078125,-691.40625,1.0,1.0,1.0,1.0,5.m4v,9.0
2024-02-28 11:37:25.135712,1709116645.135712,-629.8828125,244.140625,-56.640625,-707.51953125,1.0,1.0,1.0,1.0,5.m4v,9.0
2024-02-28 11:37:25.139618,1709116645.139618,-699.21875,277.83203125,-100.5859375,-785.15625,1.0,1.0,1.0,1.0,5.m4v,9.0
2024-02-28 11:37:25.143525,1709116645.1435251,-689.94140625,164.55078125,-126.46484375,-803.22265625,1.0,1.0,1.0,1.0,5.m4v,9.0
2024-02-28 11:37:25.147431,1709116645.1474311,-602.5390625,230.46875,-41.9921875,-773.92578125,1.0,1.0,1.0,1.0,5.m4v,9.0
2024-02-28 11:37:25.151337,1709116645.1513371,-515.13671875,288.57421875,23.92578125,-653.80859375,1.0,1.0,1.0,1.0,5.m4v,9.0
2024-02-28 11:37:25.155243,1709116645.1552432,-555.6640625,198.2421875,-71.2890625,-696.77734375,1.0,1.0,1.0,1.0,5.m4v,9.0
2024-02-28 11:37:25.159149,1709116645.159149,-587.40234375,217.7734375,-164.0625,-771.97265625,1.0,1.0,1.0,1.0,5.m4v,9.0
2024-02-28 11:37:25.163055,1709116645.163055,-477.05078125,303.22265625,-87.40234375,-622.0703125,1.0,1.0,1.0,1.0,5.m4v,9.0
2024-02-28 11:37:25.166961,1709116645.166961,-491.69921875,286.1328125,-74.70703125,-620.60546875,1.0,1.0,1.0,1.0,5.m4v,9.0
2024-02-28 11:37:25.170867,1709116645.170867,-579.1015625,256.8359375,-93.75,-700.68359375,1.0,1.0,1.0,1.0,5.m4v,9.0
2024-02-28 11:37:25.174773,1709116645.1747727,-550.29296875,257.32421875,-22.94921875,-644.53125,1.0,1.0,1.0,1.0,5.m4v,9.0
2024-02-28 11:37:25.178679,1709116645.1786788,-458.49609375,254.39453125,4.39453125,-509.27734375,1.0,1.0,1.0,1.0,5.m4v,9.0
2024-02-28 11:37:25.182585,1709116645.1825848,-294.43359375,283.203125,82.03125,-354.00390625,1.0,1.0,1.0,1.0,5.m4v,9.0
2024-02-28 11:37:25.186491,1709116645.1864908,-252.9296875,319.3359375,82.03125,-262.20703125,1.0,1.0,1.0,1.0,5.m4v,9.0
2024-02-28 11:37:25.190398,1709116645.1903982,-373.53515625,342.28515625,-43.45703125,-272.4609375,1.0,1.0,1.0,1.0,5.m4v,9.0
2024-02-28 11:37:25.194304,1709116645.1943042,-409.66796875,407.71484375,-27.83203125,-200.1953125,1.0,1.0,1.0,1.0,5.m4v,9.0
2024-02-28 11:37:25.198210,1709116645.19821,-305.6640625,452.63671875,59.08203125,54.6875,1.0,1.0,1.0,1.0,5.m4v,9.0
2024-02-28 11:37:25.202116,1709116645.202116,-147.4609375,451.171875,56.640625,178.22265625,1.0,1.0,1.0,1.0,5.m4v,9.0
2024-02-28 11:37:25.206022,1709116645.206022,-132.8125,347.16796875,83.49609375,227.5390625,1.0,1.0,1.0,1.0,5.m4v,9.0
2024-02-28 11:37:25.209928,1709116645.209928,-200.68359375,327.63671875,100.09765625,305.6640625,1.0,1.0,1.0,1.0,5.m4v,9.0
2024-02-28 11:37:25.209928,1709116645.209928,-200.68359375,327.63671875,100.09765625,305.6640625,1.0,1.0,1.0,1.0,5.m4v,9.0
2024-02-28 11:37:25.213834,1709116645.2138338,-177.734375,440.4296875,16.11328125,399.4140625,1.0,1.0,1.0,1.0,5.m4v,9.0
2024-02-28 11:37:25.213834,1709116645.2138338,-177.734375,440.4296875,16.11328125,399.4140625,1.0,1.0,1.0,1.0,5.m4v,9.0
2024-02-28 11:37:25.217740,1709116645.2177398,-18.06640625,375.0,22.94921875,593.26171875,1.0,1.0,1.0,1.0,5.m4v,9.0
2024-02-28 11:37:25.217740,1709116645.2177398,-18.06640625,375.0,22.94921875,593.26171875,1.0,1.0,1.0,1.0,5.m4v,9.0
2024-02-28 11:37:25.221646,1709116645.2216458,37.59765625,373.53515625,75.1953125,783.69140625,1.0,1.0,1.0,1.0,5.m4v,9.0
2024-02-28 11:37:25.221646,1709116645.2216458,37.59765625,373.53515625,75.1953125,783.69140625,1.0,1.0,1.0,1.0,5.m4v,9.0
2024-02-28 11:37:25.225552,1709116645.2255518,-96.19140625,497.55859375,63.96484375,850.09765625,1.0,1.0,1.0,1.0,5.m4v,9.0
2024-02-28 11:37:25.225552,1709116645.2255518,-96.19140625,497.55859375,63.96484375,850.09765625,1.0,1.0,1.0,1.0,5.m4v,9.0
2024-02-28 11:37:25.229458,1709116645.2294576,-160.15625,509.765625,40.0390625,895.01953125,1.0,1.0,1.0,1.0,5.m4v,9.0
2024-02-28 11:37:25.229458,1709116645.2294576,-160.15625,509.765625,40.0390625,895.01953125,1.0,1.0,1.0,1.0,5.m4v,9.0
2024-02-28 11:37:25.233364,1709116645.2333636,-113.28125,473.6328125,66.89453125,970.21484375,1.0,1.0,1.0,1.0,5.m4v,9.0
2024-02-28 11:37:25.233364,1709116645.2333636,-113.28125,473.6328125,66.89453125,970.21484375,1.0,1.0,1.0,1.0,5.m4v,9.0
2024-02-28 11:37:25.237270,1709116645.2372704,17.578125,398.4375,107.91015625,969.7265625,1.0,1.0,1.0,1.0,5.m4v,9.0
2024-02-28 11:37:25.237270,1709116645.2372704,17.578125,398.4375,107.91015625,969.7265625,1.0,1.0,1.0,1.0,5.m4v,9.0
2024-02-28 11:37:25.241176,1709116645.2411764,88.8671875,419.43359375,79.58984375,967.7734375,1.0,1.0,1.0,1.0,5.m4v,9.0
2024-02-28 11:37:25.241176,1709116645.2411764,88.8671875,419.43359375,79.58984375,967.7734375,1.0,1.0,1.0,1.0,5.m4v,9.0
2024-02-28 11:37:25.245082,1709116645.2450824,18.06640625,450.1953125,23.4375,970.21484375,1.0,1.0,1.0,1.0,5.m4v,9.0
2024-02-28 11:37:25.245082,1709116645.2450824,18.06640625,450.1953125,23.4375,970.21484375,1.0,1.0,1.0,1.0,5.m4v,9.0
2024-02-28 11:37:25.248988,1709116645.2489882,-14.16015625,431.15234375,2.9296875,969.7265625,1.0,1.0,1.0,1.0,5.m4v,9.0
2024-02-28 11:37:25.248988,1709116645.2489882,-14.16015625,431.15234375,2.9296875,969.7265625,1.0,1.0,1.0,1.0,5.m4v,9.0
2024-02-28 11:37:25.252894,1709116645.2528942,-41.50390625,414.55078125,28.80859375,969.7265625,1.0,1.0,1.0,1.0,5.m4v,9.0
2024-02-28 11:37:25.252894,1709116645.2528942,-41.50390625,414.55078125,28.80859375,969.7265625,1.0,1.0,1.0,1.0,5.m4v,9.0
2024-02-28 11:37:25.256800,1709116645.2568002,-56.640625,405.2734375,142.08984375,969.7265625,1.0,1.0,1.0,1.0,5.m4v,9.0
2024-02-28 11:37:25.256800,1709116645.2568002,-56.640625,405.2734375,142.08984375,969.7265625,1.0,1.0,1.0,1.0,5.m4v,9.0
2024-02-28 11:37:25.272424,1709116645.272424,-61.5234375,464.35546875,165.0390625,969.7265625,1.0,1.0,1.0,1.0,5.m4v,9.0
2024-02-28 11:37:25.276330,1709116645.27633,-106.4453125,403.80859375,116.2109375,969.7265625,1.0,1.0,1.0,1.0,5.m4v,9.0
2024-02-28 11:37:25.280236,1709116645.2802358,-197.75390625,404.296875,99.12109375,969.7265625,1.0,1.0,1.0,1.0,5.m4v,9.0
2024-02-28 11:37:25.284144,1709116645.284144,-162.59765625,449.70703125,65.4296875,969.7265625,1.0,1.0,1.0,1.0,5.m4v,9.0
2024-02-28 11:37:25.288050,1709116645.2880497,-123.046875,422.36328125,53.22265625,969.7265625,1.0,1.0,1.0,1.0,5.m4v,9.0
2024-02-28 11:37:25.291956,1709116645.2919557,-140.625,402.83203125,101.5625,969.7265625,1.0,1.0,1.0,1.0,5.m4v,9.0
2024-02-28 11:37:25.295862,1709116645.2958615,-113.76953125,415.52734375,106.4453125,969.7265625,1.0,1.0,1.0,1.0,5.m4v,9.0
2024-02-28 11:37:25.299768,1709116645.2997675,-62.01171875,417.48046875,89.84375,969.7265625,1.0,1.0,1.0,1.0,5.m4v,9.0
2024-02-28 11:37:25.303674,1709116645.3036735,39.0625,354.98046875,96.6796875,969.7265625,1.0,1.0,1.0,1.0,5.m4v,9.0
2024-02-28 11:37:25.307580,1709116645.3075795,19.04296875,335.9375,119.140625,969.7265625,1.0,1.0,1.0,1.0,5.m4v,9.0
2024-02-28 11:37:25.311486,1709116645.3114855,-49.8046875,428.22265625,150.87890625,969.7265625,1.0,1.0,1.0,1.0,5.m4v,9.0
2024-02-28 11:37:25.315392,1709116645.3153915,-42.96875,458.49609375,97.16796875,969.7265625,1.0,1.0,1.0,1.0,5.m4v,9.0
2024-02-28 11:37:25.319297,1709116645.3192973,-57.6171875,407.2265625,71.2890625,969.7265625,1.0,1.0,1.0,1.0,5.m4v,9.0
2024-02-28 11:37:25.323203,1709116645.323203,-21.97265625,408.69140625,141.11328125,969.7265625,1.0,1.0,1.0,1.0,5.m4v,9.0
2024-02-28 11:37:25.327109,1709116645.327109,-172.8515625,423.33984375,137.20703125,969.7265625,1.0,1.0,1.0,1.0,5.m4v,9.0
2024-02-28 11:37:25.331017,1709116645.331017,-184.08203125,414.0625,124.51171875,969.7265625,1.0,1.0,1.0,1.0,5.m4v,9.0
2024-02-28 11:37:25.334923,1709116645.334923,-13.671875,407.71484375,117.1875,969.7265625,1.0,1.0,1.0,1.0,5.m4v,9.0
2024-02-28 11:37:25.338829,1709116645.338829,-81.0546875,419.921875,99.12109375,969.7265625,1.0,1.0,1.0,1.0,5.m4v,9.0
2024-02-28 11:37:25.342735,1709116645.342735,-126.953125,425.29296875,122.0703125,969.7265625,1.0,1.0,1.0,1.0,5.m4v,9.0
2024-02-28 11:37:25.346641,1709116645.3466408,126.46484375,427.734375,115.72265625,969.7265625,1.0,1.0,1.0,1.0,5.m4v,9.0
2024-02-28 11:37:25.350547,1709116645.3505468,13.671875,433.10546875,131.8359375,969.7265625,1.0,1.0,1.0,1.0,5.m4v,9.0
2024-02-28 11:37:25.354453,1709116645.3544528,-189.453125,422.8515625,158.69140625,969.7265625,1.0,1.0,1.0,1.0,5.m4v,9.0
2024-02-28 11:37:25.358359,1709116645.3583589,-104.00390625,369.62890625,131.8359375,969.7265625,1.0,1.0,1.0,1.0,5.m4v,9.0
2024-02-28 11:37:25.362265,1709116645.3622646,-115.234375,383.30078125,85.9375,969.7265625,1.0,1.0,1.0,1.0,5.m4v,9.0
2024-02-28 11:37:25.366171,1709116645.3661706,-96.19140625,430.6640625,68.359375,969.7265625,1.0,1.0,1.0,1.0,5.m4v,9.0
2024-02-28 11:37:25.370077,1709116645.370077,-21.97265625,413.0859375,186.03515625,969.7265625,1.0,1.0,1.0,1.0,5.m4v,9.0
2024-02-28 11:37:25.373983,1709116645.373983,42.48046875,383.30078125,187.5,969.7265625,1.0,1.0,1.0,1.0,5.m4v,9.0
2024-02-28 11:37:25.377890,1709116645.3778903,50.29296875,377.44140625,82.51953125,969.7265625,1.0,1.0,1.0,1.0,5.m4v,9.0
2024-02-28 11:37:25.381796,1709116645.3817964,-24.90234375,417.48046875,136.71875,969.7265625,1.0,1.0,1.0,1.0,5.m4v,9.0
2024-02-28 11:37:25.385702,1709116645.385702,-172.8515625,418.45703125,193.84765625,969.7265625,1.0,1.0,1.0,1.0,5.m4v,9.0
2024-02-28 11:37:25.389608,1709116645.389608,-306.640625,371.09375,143.5546875,969.7265625,1.0,1.0,1.0,1.0,5.m4v,9.0
2024-02-28 11:37:25.393514,1709116645.3935142,-236.328125,374.51171875,160.64453125,969.7265625,1.0,1.0,1.0,1.0,5.m4v,9.0
2024-02-28 11:37:25.397420,1709116645.3974202,-106.93359375,369.62890625,185.546875,969.7265625,1.0,1.0,1.0,1.0,5.m4v,9.0
2024-02-28 11:37:25.401326,1709116645.401326,-192.3828125,294.43359375,152.83203125,969.7265625,1.0,1.0,1.0,1.0,5.m4v,9.0
2024-02-28 11:37:25.405232,1709116645.405232,-339.84375,339.35546875,172.36328125,968.75,1.0,1.0,1.0,1.0,5.m4v,9.0
2024-02-28 11:37:25.409138,1709116645.409138,-257.8125,431.640625,157.2265625,972.16796875,1.0,1.0,1.0,1.0,5.m4v,9.0
2024-02-28 11:37:25.413044,1709116645.413044,-235.83984375,399.90234375,85.9375,958.984375,1.0,1.0,1.0,1.0,5.m4v,9.0
2024-02-28 11:37:25.416950,1709116645.4169495,-442.3828125,353.515625,141.11328125,949.21875,1.0,1.0,1.0,1.0,5.m4v,9.0
2024-02-28 11:37:25.420856,1709116645.4208558,-270.99609375,336.9140625,238.76953125,951.171875,1.0,1.0,1.0,1.0,5.m4v,9.0
2024-02-28 11:37:25.424763,1709116645.4247634,-295.8984375,326.171875,244.140625,999.51171875,1.0,1.0,1.0,1.0,5.m4v,9.0
2024-02-28 11:37:25.428669,1709116645.4286697,-415.0390625,353.02734375,216.796875,849.12109375,1.0,1.0,1.0,1.0,5.m4v,9.0
2024-02-28 11:37:25.432575,1709116645.4325757,-280.76171875,380.37109375,214.35546875,635.7421875,1.0,1.0,1.0,1.0,5.m4v,9.0
2024-02-28 11:37:25.436481,1709116645.4364812,-461.9140625,362.79296875,255.37109375,875.9765625,1.0,1.0,1.0,1.0,5.m4v,9.0
2024-02-28 11:37:25.440387,1709116645.4403872,-585.9375,347.16796875,251.46484375,914.55078125,1.0,1.0,1.0,1.0,5.m4v,9.0
2024-02-28 11:37:25.444293,1709116645.4442933,-517.08984375,322.75390625,231.93359375,651.3671875,1.0,1.0,1.0,1.0,5.m4v,9.0
2024-02-28 11:37:25.448199,1709116645.4481993,-413.0859375,327.63671875,215.33203125,602.05078125,1.0,1.0,1.0,1.0,5.m4v,9.0
2024-02-28 11:37:25.452105,1709116645.452105,-452.63671875,354.98046875,212.40234375,671.875,1.0,1.0,1.0,1.0,5.m4v,9.0
2024-02-28 11:37:25.456011,1709116645.456011,-460.9375,317.87109375,284.66796875,628.41796875,1.0,1.0,1.0,1.0,5.m4v,9.0
2024-02-28 11:37:25.459917,1709116645.459917,-508.30078125,254.8828125,315.4296875,624.51171875,1.0,1.0,1.0,1.0,5.m4v,9.0
2024-02-28 11:37:25.463823,1709116645.463823,-564.94140625,311.5234375,312.98828125,650.87890625,1.0,1.0,1.0,1.0,5.m4v,9.0
2024-02-28 11:37:25.467729,1709116645.4677289,-397.94921875,345.703125,304.19921875,622.0703125,1.0,1.0,1.0,1.0,5.m4v,9.0
2024-02-28 11:37:25.471636,1709116645.4716363,-321.2890625,350.5859375,264.16015625,588.8671875,1.0,1.0,1.0,1.0,5.m4v,9.0
2024-02-28 11:37:25.475542,1709116645.475542,-527.34375,369.140625,257.8125,408.69140625,1.0,1.0,1.0,1.0,5.m4v,9.0
2024-02-28 11:37:25.479448,1709116645.479448,-657.2265625,363.76953125,176.26953125,389.6484375,1.0,1.0,1.0,1.0,5.m4v,9.0
2024-02-28 11:37:25.483354,1709116645.483354,-342.28515625,375.0,147.94921875,375.0,1.0,1.0,1.0,1.0,5.m4v,9.0
2024-02-28 11:37:25.487260,1709116645.48726,-205.56640625,367.67578125,290.0390625,322.75390625,1.0,1.0,1.0,1.0,5.m4v,9.0
2024-02-28 11:37:25.491166,1709116645.491166,-507.8125,339.84375,374.0234375,380.37109375,1.0,1.0,1.0,1.0,5.m4v,9.0
2024-02-28 11:37:25.495072,1709116645.495072,-469.23828125,363.76953125,376.46484375,444.3359375,1.0,1.0,1.0,1.0,5.m4v,9.0
2024-02-28 11:37:25.498978,1709116645.498978,-382.32421875,393.06640625,296.38671875,275.87890625,1.0,1.0,1.0,1.0,5.m4v,9.0
2024-02-28 11:37:25.502884,1709116645.502884,-275.87890625,385.7421875,248.53515625,151.85546875,1.0,1.0,1.0,1.0,5.m4v,9.0
2024-02-28 11:37:25.506790,1709116645.5067897,-329.1015625,328.61328125,326.66015625,337.40234375,1.0,1.0,1.0,1.0,5.m4v,9.0
2024-02-28 11:37:25.510696,1709116645.5106957,-380.37109375,322.265625,366.69921875,198.2421875,1.0,1.0,1.0,1.0,5.m4v,9.0
2024-02-28 11:37:25.514602,1709116645.5146017,-332.51953125,339.84375,333.984375,76.171875,1.0,1.0,1.0,1.0,5.m4v,9.0
2024-02-28 11:37:25.518509,1709116645.518509,-248.53515625,359.86328125,287.59765625,245.60546875,1.0,1.0,1.0,1.0,5.m4v,9.0
2024-02-28 11:37:25.522415,1709116645.5224147,-113.28125,408.69140625,293.45703125,178.7109375,1.0,1.0,1.0,1.0,5.m4v,9.0
2024-02-28 11:37:25.526321,1709116645.5263207,-230.46875,359.86328125,353.02734375,54.19921875,1.0,1.0,1.0,1.0,5.m4v,9.0
2024-02-28 11:37:25.530227,1709116645.5302267,-206.54296875,364.74609375,393.5546875,94.23828125,1.0,1.0,1.0,1.0,5.m4v,9.0
2024-02-28 11:37:25.534132,1709116645.5341325,-27.34375,506.8359375,347.16796875,224.12109375,1.0,1.0,1.0,1.0,5.m4v,9.0
2024-02-28 11:37:25.538038,1709116645.5380385,-112.3046875,417.48046875,356.93359375,221.6796875,1.0,1.0,1.0,1.0,5.m4v,9.0
2024-02-28 11:37:25.541945,1709116645.5419445,-76.171875,312.98828125,345.21484375,125.9765625,1.0,1.0,1.0,1.0,5.m4v,9.0
2024-02-28 11:37:25.545851,1709116645.5458505,11.23046875,330.56640625,277.83203125,33.69140625,1.0,1.0,1.0,1.0,5.m4v,9.0
2024-02-28 11:37:25.549756,1709116645.5497563,-274.4140625,300.29296875,312.01171875,-128.41796875,1.0,1.0,1.0,1.0,5.m4v,9.0
2024-02-28 11:37:25.553662,1709116645.5536623,-236.328125,299.31640625,378.90625,-153.3203125,1.0,1.0,1.0,1.0,5.m4v,9.0
2024-02-28 11:37:25.557568,1709116645.5575683,91.30859375,320.80078125,339.84375,-178.22265625,1.0,1.0,1.0,1.0,5.m4v,9.0
2024-02-28 11:37:25.561474,1709116645.5614743,-72.75390625,338.37890625,355.95703125,-77.1484375,1.0,1.0,1.0,1.0,5.m4v,9.0
2024-02-28 11:37:25.565381,1709116645.5653813,-145.01953125,345.703125,395.01953125,-36.62109375,1.0,1.0,1.0,1.0,5.m4v,9.0
2024-02-28 11:37:25.569287,1709116645.5692873,67.87109375,337.40234375,369.140625,-70.80078125,1.0,1.0,1.0,1.0,5.m4v,9.0
2024-02-28 11:37:25.573193,1709116645.573193,140.13671875,344.23828125,382.32421875,14.6484375,1.0,1.0,1.0,1.0,5.m4v,9.0
2024-02-28 11:37:25.577099,1709116645.577099,166.9921875,357.91015625,395.99609375,10.7421875,1.0,1.0,1.0,1.0,5.m4v,9.0
2024-02-28 11:37:25.581005,1709116645.581005,290.0390625,365.72265625,325.1953125,79.58984375,1.0,1.0,1.0,1.0,5.m4v,9.0
2024-02-28 11:37:25.584911,1709116645.584911,423.828125,416.9921875,339.35546875,73.2421875,1.0,1.0,1.0,1.0,5.m4v,9.0
2024-02-28 11:37:25.588817,1709116645.588817,219.23828125,409.66796875,404.78515625,-84.47265625,1.0,1.0,1.0,1.0,5.m4v,9.0
2024-02-28 11:37:25.592723,1709116645.592723,63.4765625,347.16796875,362.3046875,-66.89453125,1.0,1.0,1.0,1.0,5.m4v,9.0
2024-02-28 11:37:25.596629,1709116645.596629,213.37890625,323.73046875,361.81640625,-95.703125,1.0,1.0,1.0,1.0,5.m4v,9.0
2024-02-28 11:37:25.600535,1709116645.600535,224.12109375,338.8671875,355.46875,-255.37109375,1.0,1.0,1.0,1.0,5.m4v,9.0
2024-02-28 11:37:25.604441,1709116645.6044407,389.16015625,371.09375,327.63671875,-209.47265625,1.0,1.0,1.0,1.0,5.m4v,9.0
2024-02-28 11:37:25.608347,1709116645.6083467,512.20703125,354.98046875,331.0546875,-100.5859375,1.0,1.0,1.0,1.0,5.m4v,9.0
2024-02-28 11:37:25.612254,1709116645.6122537,322.75390625,347.65625,433.10546875,89.84375,1.0,1.0,1.0,1.0,5.m4v,9.0
2024-02-28 11:37:25.616160,1709116645.6161597,560.05859375,320.3125,476.07421875,-62.98828125,1.0,1.0,1.0,1.0,5.m4v,9.0
2024-02-28 11:37:25.620066,1709116645.6200657,559.5703125,298.33984375,413.57421875,-206.54296875,1.0,1.0,1.0,1.0,5.m4v,9.0
2024-02-28 11:37:25.623972,1709116645.6239717,231.4453125,331.54296875,391.6015625,-193.84765625,1.0,1.0,1.0,1.0,5.m4v,9.0
2024-02-28 11:37:25.627877,1709116645.6278777,442.87109375,371.58203125,381.8359375,-145.99609375,1.0,1.0,1.0,1.0,5.m4v,9.0
2024-02-28 11:37:25.631783,1709116645.6317835,621.58203125,337.890625,354.00390625,3.90625,1.0,1.0,1.0,1.0,5.m4v,9.0
2024-02-28 11:37:25.635689,1709116645.6356895,534.66796875,290.0390625,331.0546875,30.76171875,1.0,1.0,1.0,1.0,5.m4v,9.0
2024-02-28 11:37:25.639596,1709116645.6395955,692.3828125,333.0078125,344.7265625,-186.03515625,1.0,1.0,1.0,1.0,5.m4v,9.0
2024-02-28 11:37:25.643501,1709116645.6435013,683.59375,335.9375,377.44140625,-156.73828125,1.0,1.0,1.0,1.0,5.m4v,9.0
2024-02-28 11:37:25.647407,1709116645.6474073,552.734375,361.81640625,339.35546875,-30.2734375,1.0,1.0,1.0,1.0,5.m4v,9.0
2024-02-28 11:37:25.651313,1709116645.6513133,713.37890625,397.94921875,345.21484375,-75.68359375,1.0,1.0,1.0,1.0,5.m4v,9.0
2024-02-28 11:37:25.655219,1709116645.6552193,588.37890625,314.453125,383.7890625,-265.13671875,1.0,1.0,1.0,1.0,5.m4v,9.0
2024-02-28 11:37:25.659127,1709116645.6591272,458.49609375,275.390625,362.79296875,-420.8984375,1.0,1.0,1.0,1.0,5.m4v,9.0
2024-02-28 11:37:25.663033,1709116645.6630332,708.49609375,281.25,379.39453125,-223.6328125,1.0,1.0,1.0,1.0,5.m4v,9.0
2024-02-28 11:37:25.666939,1709116645.666939,749.51171875,268.06640625,424.8046875,-219.7265625,1.0,1.0,1.0,1.0,5.m4v,9.0
2024-02-28 11:37:25.670845,1709116645.670845,610.3515625,248.046875,405.2734375,-237.79296875,1.0,1.0,1.0,1.0,5.m4v,9.0
2024-02-28 11:37:25.674751,1709116645.674751,817.87109375,284.1796875,382.8125,-103.515625,1.0,1.0,1.0,1.0,5.m4v,9.0
2024-02-28 11:37:25.678657,1709116645.678657,967.7734375,280.76171875,357.91015625,-202.63671875,1.0,1.0,1.0,1.0,5.m4v,9.0
2024-02-28 11:37:25.682563,1709116645.6825628,744.140625,240.72265625,319.82421875,-245.60546875,1.0,1.0,1.0,1.0,5.m4v,9.0
2024-02-28 11:37:25.686469,1709116645.6864688,713.8671875,270.99609375,296.875,-142.08984375,1.0,1.0,1.0,1.0,5.m4v,9.0
2024-02-28 11:37:25.690375,1709116645.6903749,873.046875,281.25,275.87890625,-184.08203125,1.0,1.0,1.0,1.0,5.m4v,9.0
2024-02-28 11:37:25.694281,1709116645.6942809,947.265625,326.66015625,291.50390625,-212.890625,1.0,1.0,1.0,1.0,5.m4v,9.0
2024-02-28 11:37:25.698187,1709116645.6981866,964.35546875,352.05078125,357.91015625,-157.2265625,1.0,1.0,1.0,1.0,5.m4v,9.0
2024-02-28 11:37:25.702093,1709116645.7020926,835.44921875,289.55078125,409.66796875,-197.265625,1.0,1.0,1.0,1.0,5.m4v,9.0
2024-02-28 11:37:25.709906,1709116645.7099063,917.48046875,222.65625,377.44140625,-255.859375,1.0,1.0,1.0,1.0,5.m4v,9.0
2024-02-28 11:37:25.717718,1709116645.7177184,898.4375,263.671875,351.07421875,-267.578125,1.0,1.0,1.0,1.0,5.m4v,9.0
2024-02-28 11:37:25.725530,1709116645.72553,938.96484375,291.50390625,364.2578125,-164.55078125,1.0,1.0,1.0,1.0,5.m4v,9.0
2024-02-28 11:37:25.733342,1709116645.7333422,897.4609375,275.87890625,367.1875,-180.17578125,1.0,1.0,1.0,1.0,5.m4v,9.0
2024-02-28 11:37:25.741154,1709116645.741154,957.03125,354.98046875,350.09765625,-60.546875,1.0,1.0,1.0,1.0,5.m4v,9.0
2024-02-28 11:37:25.748966,1709116645.748966,965.8203125,259.765625,325.1953125,-95.21484375,1.0,1.0,1.0,1.0,5.m4v,9.0
2024-02-28 11:37:25.756780,1709116645.7567797,969.23828125,295.41015625,379.8828125,30.2734375,1.0,1.0,1.0,1.0,5.m4v,9.0
2024-02-28 11:37:25.764591,1709116645.7645917,969.23828125,402.34375,325.1953125,39.0625,1.0,1.0,1.0,1.0,5.m4v,9.0
2024-02-28 11:37:25.772403,1709116645.7724037,968.75,250.0,422.8515625,118.1640625,1.0,1.0,1.0,1.0,5.m4v,9.0
2024-02-28 11:37:25.987237,1709116645.9872372,-173.828125,128.41796875,-118.1640625,85.44921875,1.0,1.0,1.0,1.0,5.m4v,9.0
2024-02-28 11:37:25.991143,1709116645.991143,-259.765625,148.92578125,-134.765625,-21.97265625,1.0,1.0,1.0,1.0,5.m4v,9.0
2024-02-28 11:37:25.995049,1709116645.995049,-353.515625,73.2421875,-119.62890625,-64.453125,1.0,1.0,1.0,1.0,5.m4v,9.0
2024-02-28 11:37:25.998955,1709116645.998955,-324.70703125,57.6171875,-121.58203125,-61.03515625,1.0,1.0,1.0,1.0,5.m4v,9.0
2024-02-28 11:37:26.002861,1709116646.002861,-281.25,40.0390625,-117.67578125,-58.59375,1.0,1.0,1.0,1.0,5.m4v,9.0
2024-02-28 11:37:26.006767,1709116646.0067668,-237.79296875,1.46484375,-119.62890625,-8.7890625,1.0,1.0,1.0,1.0,5.m4v,9.0
2024-02-28 11:37:26.010673,1709116646.0106728,-164.0625,18.5546875,-157.2265625,87.40234375,1.0,1.0,1.0,1.0,5.m4v,9.0
2024-02-28 11:37:26.014579,1709116646.0145788,-142.08984375,55.6640625,-209.47265625,132.32421875,1.0,1.0,1.0,1.0,5.m4v,9.0
2024-02-28 11:37:26.018485,1709116646.0184848,-233.3984375,-18.06640625,-190.91796875,42.96875,1.0,1.0,1.0,1.0,5.m4v,9.0
2024-02-28 11:37:26.022391,1709116646.0223906,-272.94921875,-52.734375,-141.11328125,-44.43359375,1.0,1.0,1.0,1.0,5.m4v,9.0
2024-02-28 11:37:26.026297,1709116646.0262966,-227.05078125,22.4609375,-160.15625,67.3828125,1.0,1.0,1.0,1.0,5.m4v,9.0
2024-02-28 11:37:26.030203,1709116646.0302026,-194.82421875,26.3671875,-197.265625,120.1171875,1.0,1.0,1.0,1.0,5.m4v,9.0
2024-02-28 11:37:26.034109,1709116646.0341094,-171.875,-45.8984375,-165.52734375,112.3046875,1.0,1.0,1.0,1.0,5.m4v,9.0
2024-02-28 11:37:26.038015,1709116646.0380154,-234.375,-90.8203125,-169.43359375,-47.8515625,1.0,1.0,1.0,1.0,5.m4v,9.0
2024-02-28 11:37:26.041921,1709116646.0419214,-299.31640625,-60.05859375,-199.70703125,-122.55859375,1.0,1.0,1.0,1.0,5.m4v,9.0
2024-02-28 11:37:26.045827,1709116646.0458274,-268.06640625,-23.92578125,-174.31640625,31.25,1.0,1.0,1.0,1.0,5.m4v,9.0
2024-02-28 11:37:26.049733,1709116646.0497332,-209.9609375,-30.2734375,-143.5546875,89.84375,1.0,1.0,1.0,1.0,5.m4v,9.0
2024-02-28 11:37:26.053639,1709116646.0536392,-220.703125,-58.10546875,-190.91796875,87.40234375,1.0,1.0,1.0,1.0,5.m4v,9.0
2024-02-28 11:37:26.057545,1709116646.0575452,-254.39453125,-102.05078125,-278.3203125,89.84375,1.0,1.0,1.0,1.0,5.m4v,9.0
2024-02-28 11:37:26.061451,1709116646.0614512,-248.046875,-96.19140625,-248.046875,76.171875,1.0,1.0,1.0,1.0,5.m4v,9.0
2024-02-28 11:37:26.065357,1709116646.065357,-208.0078125,-39.55078125,-166.015625,69.82421875,1.0,1.0,1.0,1.0,5.m4v,9.0
2024-02-28 11:37:26.069263,1709116646.069263,-180.17578125,-2.44140625,-141.11328125,83.49609375,1.0,1.0,1.0,1.0,5.m4v,9.0
2024-02-28 11:37:26.073169,1709116646.073169,-211.42578125,19.53125,-217.7734375,77.63671875,1.0,1.0,1.0,1.0,5.m4v,9.0
2024-02-28 11:37:26.077075,1709116646.077075,-262.20703125,-6.8359375,-269.53125,61.03515625,1.0,1.0,1.0,1.0,5.m4v,9.0
2024-02-28 11:37:26.080983,1709116646.080983,-296.875,-32.2265625,-224.12109375,9.27734375,1.0,1.0,1.0,1.0,5.m4v,9.0
2024-02-28 11:37:26.084889,1709116646.084889,-286.1328125,-30.76171875,-185.05859375,24.90234375,1.0,1.0,1.0,1.0,5.m4v,9.0
2024-02-28 11:37:26.088795,1709116646.088795,-240.234375,-19.53125,-173.33984375,66.40625,1.0,1.0,1.0,1.0,5.m4v,9.0
2024-02-28 11:37:26.092701,1709116646.0927007,-210.9375,-67.87109375,-170.41015625,65.4296875,1.0,1.0,1.0,1.0,5.m4v,9.0
2024-02-28 11:37:26.096607,1709116646.0966067,-213.37890625,-106.4453125,-159.66796875,41.50390625,1.0,1.0,1.0,1.0,5.m4v,9.0
2024-02-28 11:37:26.100513,1709116646.1005127,-205.56640625,-56.15234375,-176.26953125,82.03125,1.0,1.0,1.0,1.0,5.m4v,9.0
2024-02-28 11:37:26.104419,1709116646.1044188,-225.09765625,-10.7421875,-221.19140625,69.3359375,1.0,1.0,1.0,1.0,5.m4v,9.0
2024-02-28 11:37:26.163010,1709116646.1630096,-197.265625,-46.875,-169.921875,41.9921875,1.0,1.0,1.0,1.0,5.m4v,9.0
2024-02-28 11:37:26.166916,1709116646.1669157,-181.640625,-52.24609375,-140.13671875,52.24609375,1.0,1.0,1.0,1.0,5.m4v,9.0
2024-02-28 11:37:26.170821,1709116646.1708214,-127.9296875,-35.15625,-109.375,77.1484375,1.0,1.0,1.0,1.0,5.m4v,9.0
2024-02-28 11:37:26.174729,1709116646.1747289,-194.82421875,1.46484375,-162.59765625,58.10546875,1.0,1.0,1.0,1.0,5.m4v,9.0
2024-02-28 11:37:26.174729,1709116646.1747289,-194.82421875,1.46484375,-162.59765625,58.10546875,1.0,1.0,1.0,1.0,5.m4v,9.0
2024-02-28 11:37:26.178635,1709116646.178635,-345.703125,17.578125,-250.9765625,-76.171875,1.0,1.0,1.0,1.0,5.m4v,9.0
2024-02-28 11:37:26.178635,1709116646.178635,-345.703125,17.578125,-250.9765625,-76.171875,1.0,1.0,1.0,1.0,5.m4v,9.0
2024-02-28 11:37:26.182541,1709116646.182541,-347.65625,29.78515625,-207.51953125,-92.28515625,1.0,1.0,1.0,1.0,5.m4v,9.0
2024-02-28 11:37:26.182541,1709116646.182541,-347.65625,29.78515625,-207.51953125,-92.28515625,1.0,1.0,1.0,1.0,5.m4v,9.0
2024-02-28 11:37:26.186447,1709116646.186447,-329.1015625,1.46484375,-175.78125,-72.265625,1.0,1.0,1.0,1.0,5.m4v,9.0
2024-02-28 11:37:26.186447,1709116646.186447,-329.1015625,1.46484375,-175.78125,-72.265625,1.0,1.0,1.0,1.0,5.m4v,9.0
2024-02-28 11:37:26.190353,1709116646.190353,-321.2890625,-14.6484375,-198.73046875,-48.828125,1.0,1.0,1.0,1.0,5.m4v,9.0
2024-02-28 11:37:26.190353,1709116646.190353,-321.2890625,-14.6484375,-198.73046875,-48.828125,1.0,1.0,1.0,1.0,5.m4v,9.0
2024-02-28 11:37:26.194259,1709116646.1942587,-295.8984375,-23.4375,-206.0546875,-27.83203125,1.0,1.0,1.0,1.0,5.m4v,9.0
2024-02-28 11:37:26.194259,1709116646.1942587,-295.8984375,-23.4375,-206.0546875,-27.83203125,1.0,1.0,1.0,1.0,5.m4v,9.0
2024-02-28 11:37:26.198165,1709116646.1981647,-287.59765625,-23.4375,-176.26953125,-32.2265625,1.0,1.0,1.0,1.0,5.m4v,9.0
2024-02-28 11:37:26.198165,1709116646.1981647,-287.59765625,-23.4375,-176.26953125,-32.2265625,1.0,1.0,1.0,1.0,5.m4v,9.0
2024-02-28 11:37:26.202071,1709116646.2020707,-287.109375,-41.50390625,-190.4296875,-39.55078125,1.0,1.0,1.0,1.0,5.m4v,9.0
2024-02-28 11:37:26.202071,1709116646.2020707,-287.109375,-41.50390625,-190.4296875,-39.55078125,1.0,1.0,1.0,1.0,5.m4v,9.0
2024-02-28 11:37:26.205976,1709116646.2059765,-274.4140625,-36.62109375,-194.3359375,-32.2265625,1.0,1.0,1.0,1.0,5.m4v,9.0
2024-02-28 11:37:26.205976,1709116646.2059765,-274.4140625,-36.62109375,-194.3359375,-32.2265625,1.0,1.0,1.0,1.0,5.m4v,9.0
2024-02-28 11:37:26.209882,1709116646.2098825,-259.765625,-35.64453125,-183.59375,-13.671875,1.0,1.0,1.0,1.0,5.m4v,9.0
2024-02-28 11:37:26.209882,1709116646.2098825,-259.765625,-35.64453125,-183.59375,-13.671875,1.0,1.0,1.0,1.0,5.m4v,9.0
2024-02-28 11:37:26.213789,1709116646.2137885,-260.25390625,-33.203125,-202.1484375,-28.80859375,1.0,1.0,1.0,1.0,5.m4v,9.0
2024-02-28 11:37:26.213789,1709116646.2137885,-260.25390625,-33.203125,-202.1484375,-28.80859375,1.0,1.0,1.0,1.0,5.m4v,9.0
2024-02-28 11:37:26.217695,1709116646.2176943,-265.625,17.08984375,-177.734375,-74.21875,1.0,1.0,1.0,1.0,5.m4v,9.0
2024-02-28 11:37:26.217695,1709116646.2176943,-265.625,17.08984375,-177.734375,-74.21875,1.0,1.0,1.0,1.0,5.m4v,9.0
2024-02-28 11:37:26.221602,1709116646.2216015,-247.0703125,-13.18359375,-182.6171875,-20.01953125,1.0,1.0,1.0,1.0,5.m4v,9.0
2024-02-28 11:37:26.221602,1709116646.2216015,-247.0703125,-13.18359375,-182.6171875,-20.01953125,1.0,1.0,1.0,1.0,5.m4v,9.0
2024-02-28 11:37:26.225508,1709116646.2255075,-227.05078125,-63.4765625,-216.30859375,54.19921875,1.0,1.0,1.0,1.0,5.m4v,9.0
2024-02-28 11:37:26.225508,1709116646.2255075,-227.05078125,-63.4765625,-216.30859375,54.19921875,1.0,1.0,1.0,1.0,5.m4v,9.0
2024-02-28 11:37:26.229414,1709116646.2294135,-244.62890625,-22.4609375,-236.81640625,4.39453125,1.0,1.0,1.0,1.0,5.m4v,9.0
2024-02-28 11:37:26.229414,1709116646.2294135,-244.62890625,-22.4609375,-236.81640625,4.39453125,1.0,1.0,1.0,1.0,5.m4v,9.0
2024-02-28 11:37:26.233320,1709116646.2333198,-282.71484375,29.78515625,-257.8125,-57.6171875,1.0,1.0,1.0,1.0,5.m4v,9.0
2024-02-28 11:37:26.233320,1709116646.2333198,-282.71484375,29.78515625,-257.8125,-57.6171875,1.0,1.0,1.0,1.0,5.m4v,9.0
2024-02-28 11:37:26.237226,1709116646.2372255,-343.26171875,33.203125,-223.14453125,-77.63671875,1.0,1.0,1.0,1.0,5.m4v,9.0
2024-02-28 11:37:26.237226,1709116646.2372255,-343.26171875,33.203125,-223.14453125,-77.63671875,1.0,1.0,1.0,1.0,5.m4v,9.0
2024-02-28 11:37:26.241132,1709116646.2411315,-323.73046875,37.109375,-177.24609375,-54.6875,1.0,1.0,1.0,1.0,5.m4v,9.0
2024-02-28 11:37:26.241132,1709116646.2411315,-323.73046875,37.109375,-177.24609375,-54.6875,1.0,1.0,1.0,1.0,5.m4v,9.0
2024-02-28 11:37:26.245038,1709116646.2450376,-259.765625,4.39453125,-150.87890625,2.9296875,1.0,1.0,1.0,1.0,5.m4v,9.0
2024-02-28 11:37:26.245038,1709116646.2450376,-259.765625,4.39453125,-150.87890625,2.9296875,1.0,1.0,1.0,1.0,5.m4v,9.0
2024-02-28 11:37:26.248944,1709116646.2489436,-324.70703125,-62.01171875,-168.45703125,-54.6875,1.0,1.0,1.0,1.0,5.m4v,9.0
2024-02-28 11:37:26.248944,1709116646.2489436,-324.70703125,-62.01171875,-168.45703125,-54.6875,1.0,1.0,1.0,1.0,5.m4v,9.0
2024-02-28 11:37:26.252849,1709116646.252849,-356.4453125,-44.43359375,-191.40625,-98.14453125,1.0,1.0,1.0,1.0,5.m4v,9.0
2024-02-28 11:37:26.252849,1709116646.252849,-356.4453125,-44.43359375,-191.40625,-98.14453125,1.0,1.0,1.0,1.0,5.m4v,9.0
2024-02-28 11:37:26.256755,1709116646.2567554,-309.5703125,-7.8125,-174.8046875,-59.08203125,1.0,1.0,1.0,1.0,5.m4v,9.0
2024-02-28 11:37:26.256755,1709116646.2567554,-309.5703125,-7.8125,-174.8046875,-59.08203125,1.0,1.0,1.0,1.0,5.m4v,9.0
2024-02-28 11:37:26.260661,1709116646.2606614,-292.96875,-4.8828125,-163.57421875,-47.8515625,1.0,1.0,1.0,1.0,5.m4v,9.0
2024-02-28 11:37:26.260661,1709116646.2606614,-292.96875,-4.8828125,-163.57421875,-47.8515625,1.0,1.0,1.0,1.0,5.m4v,9.0
2024-02-28 11:37:26.264567,1709116646.2645674,-286.1328125,-25.390625,-208.49609375,-32.2265625,1.0,1.0,1.0,1.0,5.m4v,9.0
2024-02-28 11:37:26.264567,1709116646.2645674,-286.1328125,-25.390625,-208.49609375,-32.2265625,1.0,1.0,1.0,1.0,5.m4v,9.0
2024-02-28 11:37:26.264567,1709116646.2645674,-286.1328125,-25.390625,-208.49609375,-32.2265625,1.0,1.0,1.0,1.0,5.m4v,9.0
2024-02-28 11:37:26.268475,1709116646.2684746,-294.43359375,-24.4140625,-249.0234375,-55.17578125,1.0,1.0,1.0,1.0,5.m4v,9.0
2024-02-28 11:37:26.268475,1709116646.2684746,-294.43359375,-24.4140625,-249.0234375,-55.17578125,1.0,1.0,1.0,1.0,5.m4v,9.0
2024-02-28 11:37:26.268475,1709116646.2684746,-294.43359375,-24.4140625,-249.0234375,-55.17578125,1.0,1.0,1.0,1.0,5.m4v,9.0
2024-02-28 11:37:26.272381,1709116646.2723806,-312.01171875,26.85546875,-251.46484375,-81.0546875,1.0,1.0,1.0,1.0,5.m4v,9.0
2024-02-28 11:37:26.272381,1709116646.2723806,-312.01171875,26.85546875,-251.46484375,-81.0546875,1.0,1.0,1.0,1.0,5.m4v,9.0
2024-02-28 11:37:26.272381,1709116646.2723806,-312.01171875,26.85546875,-251.46484375,-81.0546875,1.0,1.0,1.0,1.0,5.m4v,9.0
2024-02-28 11:37:26.276287,1709116646.2762866,-304.6875,40.0390625,-216.796875,-63.96484375,1.0,1.0,1.0,1.0,5.m4v,9.0
2024-02-28 11:37:26.280192,1709116646.2801924,-289.0625,16.11328125,-178.7109375,-84.9609375,1.0,1.0,1.0,1.0,5.m4v,9.0
2024-02-28 11:37:26.284098,1709116646.2840984,-255.37109375,8.7890625,-197.75390625,-25.390625,1.0,1.0,1.0,1.0,5.m4v,9.0
2024-02-28 11:37:26.288004,1709116646.2880044,-189.94140625,16.6015625,-219.7265625,100.09765625,1.0,1.0,1.0,1.0,5.m4v,9.0
2024-02-28 11:37:26.291910,1709116646.2919104,-191.40625,-6.8359375,-169.43359375,62.5,1.0,1.0,1.0,1.0,5.m4v,9.0
2024-02-28 11:37:26.295816,1709116646.2958162,-207.03125,-10.25390625,-175.29296875,7.32421875,1.0,1.0,1.0,1.0,5.m4v,9.0
2024-02-28 11:37:26.299722,1709116646.2997222,-228.515625,2.44140625,-201.171875,-28.3203125,1.0,1.0,1.0,1.0,5.m4v,9.0
2024-02-28 11:37:26.323159,1709116646.323159,-188.96484375,-16.6015625,-162.109375,-27.83203125,1.0,1.0,1.0,1.0,5.m4v,9.0
2024-02-28 11:37:26.327065,1709116646.327065,-199.70703125,47.36328125,-223.14453125,-58.59375,1.0,1.0,1.0,1.0,5.m4v,9.0
2024-02-28 11:37:26.330971,1709116646.3309708,-189.453125,44.921875,-272.94921875,-35.15625,1.0,1.0,1.0,1.0,5.m4v,9.0
2024-02-28 11:37:26.338783,1709116646.3387828,-131.34765625,49.8046875,-149.4140625,7.32421875,1.0,1.0,1.0,1.0,5.m4v,9.0
2024-02-28 11:37:26.342689,1709116646.3426888,-220.703125,-20.5078125,-173.33984375,-72.265625,1.0,1.0,1.0,1.0,5.m4v,9.0
2024-02-28 11:37:26.346595,1709116646.3465946,-215.8203125,13.671875,-224.12109375,-117.1875,1.0,1.0,1.0,1.0,5.m4v,9.0
2024-02-28 11:37:26.354407,1709116646.3544066,-147.4609375,-39.0625,-230.95703125,-23.92578125,1.0,1.0,1.0,1.0,5.m4v,9.0
2024-02-28 11:37:26.358313,1709116646.3583126,-189.94140625,-71.2890625,-167.48046875,-66.40625,1.0,1.0,1.0,1.0,5.m4v,9.0
2024-02-28 11:37:26.362219,1709116646.362219,-159.1796875,-114.2578125,-129.8828125,-36.1328125,1.0,1.0,1.0,1.0,5.m4v,9.0
2024-02-28 11:37:26.370031,1709116646.370031,-58.59375,9.27734375,-187.01171875,87.890625,1.0,1.0,1.0,1.0,5.m4v,9.0
2024-02-28 11:37:26.373937,1709116646.3739371,-125.48828125,50.78125,-163.0859375,25.87890625,1.0,1.0,1.0,1.0,5.m4v,9.0
2024-02-28 11:37:26.377843,1709116646.3778431,-297.8515625,62.98828125,-242.67578125,-149.90234375,1.0,1.0,1.0,1.0,5.m4v,9.0
2024-02-28 11:37:26.381749,1709116646.381749,-294.43359375,96.19140625,-240.72265625,-156.73828125,1.0,1.0,1.0,1.0,5.m4v,9.0
2024-02-28 11:37:26.385655,1709116646.385655,-235.3515625,79.58984375,-155.2734375,-95.703125,1.0,1.0,1.0,1.0,5.m4v,9.0
2024-02-28 11:37:26.393467,1709116646.393467,-284.66796875,-59.5703125,-213.37890625,-158.69140625,1.0,1.0,1.0,1.0,5.m4v,9.0
2024-02-28 11:37:26.397373,1709116646.3973727,-143.06640625,93.75,-121.58203125,-27.34375,1.0,1.0,1.0,1.0,5.m4v,9.0
2024-02-28 11:37:26.401279,1709116646.4012787,-152.83203125,127.9296875,-133.7890625,-18.06640625,1.0,1.0,1.0,1.0,5.m4v,9.0
2024-02-28 11:37:26.405185,1709116646.4051847,-301.26953125,-26.3671875,-283.203125,-157.2265625,1.0,1.0,1.0,1.0,5.m4v,9.0
2024-02-28 11:37:26.409093,1709116646.409093,-189.94140625,83.0078125,-241.69921875,-47.36328125,1.0,1.0,1.0,1.0,5.m4v,9.0
2024-02-28 11:37:26.416904,1709116646.4169044,-312.01171875,-22.4609375,-248.046875,-190.91796875,1.0,1.0,1.0,1.0,5.m4v,9.0
2024-02-28 11:37:26.420810,1709116646.4208105,-302.24609375,-18.5546875,-209.9609375,-155.2734375,1.0,1.0,1.0,1.0,5.m4v,9.0
2024-02-28 11:37:26.424716,1709116646.4247165,-269.04296875,29.78515625,-182.6171875,-161.1328125,1.0,1.0,1.0,1.0,5.m4v,9.0
2024-02-28 11:37:26.428622,1709116646.4286225,-264.16015625,34.1796875,-145.5078125,-177.734375,1.0,1.0,1.0,1.0,5.m4v,9.0
2024-02-28 11:37:26.432528,1709116646.4325285,-225.5859375,45.41015625,-118.1640625,-143.5546875,1.0,1.0,1.0,1.0,5.m4v,9.0
2024-02-28 11:37:26.440340,1709116646.4403405,-288.0859375,60.546875,-266.11328125,-195.80078125,1.0,1.0,1.0,1.0,5.m4v,9.0
2024-02-28 11:37:26.444246,1709116646.4442463,-344.7265625,13.671875,-228.02734375,-246.58203125,1.0,1.0,1.0,1.0,5.m4v,9.0
2024-02-28 11:37:26.448152,1709116646.448152,-354.98046875,-26.85546875,-202.63671875,-276.3671875,1.0,1.0,1.0,1.0,5.m4v,9.0
2024-02-28 11:37:26.452058,1709116646.452058,-320.80078125,-33.203125,-216.796875,-251.46484375,1.0,1.0,1.0,1.0,5.m4v,9.0
2024-02-28 11:37:26.455966,1709116646.455966,-366.69921875,-6.34765625,-215.33203125,-296.38671875,1.0,1.0,1.0,1.0,5.m4v,9.0
2024-02-28 11:37:26.463778,1709116646.463778,-337.890625,4.39453125,-210.9375,-271.97265625,1.0,1.0,1.0,1.0,5.m4v,9.0
2024-02-28 11:37:26.467684,1709116646.4676838,-438.96484375,-44.43359375,-228.515625,-381.8359375,1.0,1.0,1.0,1.0,5.m4v,9.0
2024-02-28 11:37:26.471590,1709116646.4715898,-473.14453125,-4.39453125,-203.61328125,-441.40625,1.0,1.0,1.0,1.0,5.m4v,9.0
2024-02-28 11:37:26.475496,1709116646.4754958,-461.42578125,14.16015625,-252.44140625,-443.84765625,1.0,1.0,1.0,1.0,5.m4v,9.0
2024-02-28 11:37:26.479402,1709116646.4794018,-420.8984375,-26.3671875,-240.234375,-368.65234375,1.0,1.0,1.0,1.0,5.m4v,9.0
2024-02-28 11:37:26.487214,1709116646.4872136,-284.66796875,-20.99609375,-287.109375,-245.1171875,1.0,1.0,1.0,1.0,5.m4v,9.0
2024-02-28 11:37:26.491120,1709116646.4911196,-325.68359375,-43.9453125,-248.53515625,-300.29296875,1.0,1.0,1.0,1.0,5.m4v,9.0
2024-02-28 11:37:26.495026,1709116646.4950256,-395.5078125,-9.765625,-182.12890625,-343.26171875,1.0,1.0,1.0,1.0,5.m4v,9.0
2024-02-28 11:37:26.498931,1709116646.4989314,-461.9140625,8.30078125,-217.28515625,-390.625,1.0,1.0,1.0,1.0,5.m4v,9.0
2024-02-28 11:37:26.502839,1709116646.502839,-481.4453125,15.625,-234.86328125,-416.015625,1.0,1.0,1.0,1.0,5.m4v,9.0
2024-02-28 11:37:26.510651,1709116646.5106514,-435.546875,36.1328125,-174.31640625,-333.984375,1.0,1.0,1.0,1.0,5.m4v,9.0
2024-02-28 11:37:26.514557,1709116646.5145574,-392.578125,65.91796875,-184.08203125,-254.39453125,1.0,1.0,1.0,1.0,5.m4v,9.0
2024-02-28 11:37:26.518463,1709116646.5184631,-349.609375,40.0390625,-192.3828125,-182.6171875,1.0,1.0,1.0,1.0,5.m4v,9.0
2024-02-28 11:37:26.522369,1709116646.5223691,-350.5859375,0.9765625,-208.0078125,-156.73828125,1.0,1.0,1.0,1.0,5.m4v,9.0
2024-02-28 11:37:26.526275,1709116646.5262752,-396.484375,26.3671875,-248.046875,-175.78125,1.0,1.0,1.0,1.0,5.m4v,9.0
2024-02-28 11:37:26.534087,1709116646.534087,-375.9765625,23.92578125,-187.5,-95.703125,1.0,1.0,1.0,1.0,5.m4v,9.0
2024-02-28 11:37:26.537993,1709116646.537993,-350.09765625,13.671875,-161.1328125,-52.24609375,1.0,1.0,1.0,1.0,5.m4v,9.0
2024-02-28 11:37:26.541899,1709116646.541899,-380.37109375,13.671875,-174.31640625,-53.7109375,1.0,1.0,1.0,1.0,5.m4v,9.0
2024-02-28 11:37:26.545805,1709116646.545805,-389.6484375,12.6953125,-191.40625,-24.4140625,1.0,1.0,1.0,1.0,5.m4v,9.0
2024-02-28 11:37:26.549712,1709116646.5497124,-385.7421875,-22.4609375,-201.171875,6.8359375,1.0,1.0,1.0,1.0,5.m4v,9.0
2024-02-28 11:37:26.557524,1709116646.5575242,-414.0625,-27.34375,-194.3359375,57.6171875,1.0,1.0,1.0,1.0,5.m4v,9.0
2024-02-28 11:37:26.561430,1709116646.5614302,-446.77734375,-32.71484375,-192.87109375,74.21875,1.0,1.0,1.0,1.0,5.m4v,9.0
2024-02-28 11:37:26.565336,1709116646.5653362,-449.21875,-9.27734375,-196.77734375,100.5859375,1.0,1.0,1.0,1.0,5.m4v,9.0
2024-02-28 11:37:26.569242,1709116646.569242,-451.171875,-8.30078125,-194.82421875,98.14453125,1.0,1.0,1.0,1.0,5.m4v,9.0
2024-02-28 11:37:26.573148,1709116646.573148,-462.40234375,-16.6015625,-175.29296875,105.95703125,1.0,1.0,1.0,1.0,5.m4v,9.0
2024-02-28 11:37:26.580960,1709116646.58096,-477.5390625,-26.3671875,-185.05859375,160.64453125,1.0,1.0,1.0,1.0,5.m4v,9.0
2024-02-28 11:37:26.584866,1709116646.5848658,-503.41796875,-29.78515625,-202.1484375,166.9921875,1.0,1.0,1.0,1.0,5.m4v,9.0
2024-02-28 11:37:26.588772,1709116646.5887718,-532.71484375,-48.33984375,-184.08203125,157.71484375,1.0,1.0,1.0,1.0,5.m4v,9.0
2024-02-28 11:37:26.592678,1709116646.5926778,-552.734375,-54.19921875,-163.0859375,139.16015625,1.0,1.0,1.0,1.0,5.m4v,9.0
2024-02-28 11:37:26.596585,1709116646.596585,-556.15234375,-26.3671875,-161.62109375,149.90234375,1.0,1.0,1.0,1.0,5.m4v,9.0
2024-02-28 11:37:26.604397,1709116646.604397,-524.90234375,-22.94921875,-127.9296875,138.18359375,1.0,1.0,1.0,1.0,5.m4v,9.0
2024-02-28 11:37:26.608303,1709116646.608303,-550.29296875,-0.48828125,-127.44140625,113.28125,1.0,1.0,1.0,1.0,5.m4v,9.0
2024-02-28 11:37:26.612209,1709116646.6122088,-535.15625,22.4609375,-122.0703125,114.2578125,1.0,1.0,1.0,1.0,5.m4v,9.0
2024-02-28 11:37:26.616115,1709116646.6161149,-540.0390625,29.78515625,-105.95703125,119.62890625,1.0,1.0,1.0,1.0,5.m4v,9.0
2024-02-28 11:37:26.620021,1709116646.6200209,-557.6171875,1.46484375,-126.953125,116.2109375,1.0,1.0,1.0,1.0,5.m4v,9.0
2024-02-28 11:37:26.627833,1709116646.627833,-512.6953125,-11.23046875,-110.83984375,99.609375,1.0,1.0,1.0,1.0,5.m4v,9.0
2024-02-28 11:37:26.631739,1709116646.631739,-506.34765625,-1.953125,-116.2109375,66.40625,1.0,1.0,1.0,1.0,5.m4v,9.0
2024-02-28 11:37:26.635645,1709116646.635645,-488.28125,-13.18359375,-137.6953125,45.41015625,1.0,1.0,1.0,1.0,5.m4v,9.0
2024-02-28 11:37:26.639551,1709116646.6395507,-438.96484375,14.6484375,-136.23046875,51.26953125,1.0,1.0,1.0,1.0,5.m4v,9.0
2024-02-28 11:37:26.643458,1709116646.643458,-406.73828125,22.94921875,-90.33203125,49.8046875,1.0,1.0,1.0,1.0,5.m4v,9.0
2024-02-28 11:37:26.651270,1709116646.6512697,-460.44921875,-14.16015625,-68.359375,-2.9296875,1.0,1.0,1.0,1.0,5.m4v,9.0
2024-02-28 11:37:26.655176,1709116646.6551757,-468.75,38.57421875,-98.14453125,-28.80859375,1.0,1.0,1.0,1.0,5.m4v,9.0
2024-02-28 11:37:26.659082,1709116646.6590817,-443.84765625,78.125,-108.3984375,-68.359375,1.0,1.0,1.0,1.0,5.m4v,9.0
2024-02-28 11:37:26.662987,1709116646.6629877,-453.125,82.51953125,-95.21484375,-80.078125,1.0,1.0,1.0,1.0,5.m4v,9.0
2024-02-28 11:37:26.666893,1709116646.6668935,-467.28515625,70.80078125,-62.98828125,-84.47265625,1.0,1.0,1.0,1.0,5.m4v,9.0
2024-02-28 11:37:26.674706,1709116646.6747055,-450.68359375,41.50390625,-104.4921875,-129.8828125,1.0,1.0,1.0,1.0,5.m4v,9.0
2024-02-28 11:37:26.678611,1709116646.6786113,-402.34375,44.43359375,-125.9765625,-141.6015625,1.0,1.0,1.0,1.0,5.m4v,9.0
2024-02-28 11:37:26.682517,1709116646.6825173,-362.79296875,48.33984375,-188.4765625,-144.53125,1.0,1.0,1.0,1.0,5.m4v,9.0
2024-02-28 11:37:26.686423,1709116646.6864233,-325.68359375,44.921875,-267.08984375,-146.97265625,1.0,1.0,1.0,1.0,5.m4v,9.0
2024-02-28 11:37:26.690331,1709116646.6903305,-327.63671875,36.62109375,-341.796875,-157.2265625,1.0,1.0,1.0,1.0,5.m4v,9.0
2024-02-28 11:37:26.698142,1709116646.6981423,-348.14453125,39.55078125,-349.609375,-147.4609375,1.0,1.0,1.0,1.0,5.m4v,9.0
2024-02-28 11:37:26.702048,1709116646.7020483,-383.7890625,36.62109375,-375.48828125,-179.19921875,1.0,1.0,1.0,1.0,5.m4v,9.0
2024-02-28 11:37:26.705954,1709116646.7059543,-408.203125,27.34375,-419.43359375,-189.94140625,1.0,1.0,1.0,1.0,5.m4v,9.0
2024-02-28 11:37:26.709860,1709116646.7098603,-397.94921875,37.59765625,-464.84375,-192.3828125,1.0,1.0,1.0,1.0,5.m4v,9.0
2024-02-28 11:37:26.713766,1709116646.713766,-388.671875,40.0390625,-473.6328125,-216.796875,1.0,1.0,1.0,1.0,5.m4v,9.0
2024-02-28 11:37:26.721578,1709116646.721578,-333.984375,39.0625,-622.0703125,-185.546875,1.0,1.0,1.0,1.0,5.m4v,9.0
2024-02-28 11:37:26.725484,1709116646.725484,-325.68359375,28.80859375,-683.10546875,-192.87109375,1.0,1.0,1.0,1.0,5.m4v,9.0
2024-02-28 11:37:26.729390,1709116646.72939,-352.05078125,28.3203125,-713.37890625,-179.6875,1.0,1.0,1.0,1.0,5.m4v,9.0
2024-02-28 11:37:26.733296,1709116646.733296,-359.86328125,12.20703125,-756.8359375,-191.40625,1.0,1.0,1.0,1.0,5.m4v,9.0
2024-02-28 11:37:26.737203,1709116646.7372026,-377.9296875,-6.34765625,-780.2734375,-153.3203125,1.0,1.0,1.0,1.0,5.m4v,9.0
2024-02-28 11:37:26.745015,1709116646.745015,-430.6640625,31.25,-739.74609375,-177.24609375,1.0,1.0,1.0,1.0,5.m4v,9.0
2024-02-28 11:37:26.748920,1709116646.7489204,-424.8046875,26.3671875,-726.5625,-187.98828125,1.0,1.0,1.0,1.0,5.m4v,9.0
2024-02-28 11:37:26.752826,1709116646.7528265,-411.62109375,9.765625,-728.515625,-174.31640625,1.0,1.0,1.0,1.0,5.m4v,9.0
2024-02-28 11:37:26.756732,1709116646.7567325,-397.94921875,15.625,-714.35546875,-138.18359375,1.0,1.0,1.0,1.0,5.m4v,9.0
2024-02-28 11:37:26.760638,1709116646.7606385,-390.625,13.18359375,-688.4765625,-125.48828125,1.0,1.0,1.0,1.0,5.m4v,9.0
2024-02-28 11:37:26.768450,1709116646.7684505,-303.22265625,13.18359375,-629.8828125,-40.0390625,1.0,1.0,1.0,1.0,5.m4v,9.0
2024-02-28 11:37:26.772356,1709116646.7723565,-329.58984375,13.18359375,-573.2421875,-92.7734375,1.0,1.0,1.0,1.0,5.m4v,9.0
2024-02-28 11:37:26.776262,1709116646.7762623,-364.2578125,13.671875,-540.52734375,-192.87109375,1.0,1.0,1.0,1.0,5.m4v,9.0
2024-02-28 11:37:26.780168,1709116646.780168,-358.88671875,-5.859375,-491.69921875,-189.94140625,1.0,1.0,1.0,1.0,5.m4v,9.0
2024-02-28 11:37:26.784076,1709116646.7840762,-428.7109375,-45.8984375,-381.34765625,-185.546875,1.0,1.0,1.0,1.0,5.m4v,9.0
2024-02-28 11:37:26.791888,1709116646.791888,-353.515625,25.390625,-303.7109375,-142.08984375,1.0,1.0,1.0,1.0,5.m4v,9.0
2024-02-28 11:37:26.795794,1709116646.795794,-344.7265625,18.06640625,-286.62109375,-133.7890625,1.0,1.0,1.0,1.0,5.m4v,9.0
2024-02-28 11:37:26.799700,1709116646.7997,-399.90234375,24.4140625,-272.94921875,-155.76171875,1.0,1.0,1.0,1.0,5.m4v,9.0
2024-02-28 11:37:26.803606,1709116646.8036058,-361.81640625,37.109375,-241.2109375,-101.5625,1.0,1.0,1.0,1.0,5.m4v,9.0
2024-02-28 11:37:26.807512,1709116646.8075118,-238.76953125,23.92578125,-189.453125,-141.11328125,1.0,1.0,1.0,1.0,5.m4v,9.0
2024-02-28 11:37:26.815324,1709116646.8153238,-149.4140625,-8.7890625,-149.4140625,-211.9140625,1.0,1.0,1.0,1.0,5.m4v,9.0
2024-02-28 11:37:26.819230,1709116646.8192296,-313.4765625,0.9765625,-142.578125,-176.7578125,1.0,1.0,1.0,1.0,5.m4v,9.0
2024-02-28 11:37:26.823136,1709116646.8231356,-465.33203125,-7.32421875,-121.58203125,-153.3203125,1.0,1.0,1.0,1.0,5.m4v,9.0
2024-02-28 11:37:26.827042,1709116646.8270416,-384.765625,-13.18359375,-113.28125,-170.8984375,1.0,1.0,1.0,1.0,5.m4v,9.0
2024-02-28 11:37:26.830950,1709116646.8309495,-371.09375,-16.6015625,-107.421875,-192.3828125,1.0,1.0,1.0,1.0,5.m4v,9.0
2024-02-28 11:37:26.838761,1709116646.838761,-325.1953125,0.9765625,-79.1015625,-165.52734375,1.0,1.0,1.0,1.0,5.m4v,9.0
2024-02-28 11:37:26.842667,1709116646.842667,-311.5234375,-5.37109375,-72.265625,-76.66015625,1.0,1.0,1.0,1.0,5.m4v,9.0
2024-02-28 11:37:26.846573,1709116646.8465734,-257.8125,-9.765625,-64.94140625,-212.890625,1.0,1.0,1.0,1.0,5.m4v,9.0
2024-02-28 11:37:26.850479,1709116646.8504791,-271.484375,-4.39453125,-60.05859375,-316.40625,1.0,1.0,1.0,1.0,5.m4v,9.0
2024-02-28 11:37:26.854385,1709116646.8543851,-239.2578125,4.39453125,-60.546875,-283.69140625,1.0,1.0,1.0,1.0,5.m4v,9.0
2024-02-28 11:37:26.862197,1709116646.8621972,-533.203125,-20.5078125,-45.8984375,-241.69921875,1.0,1.0,1.0,1.0,5.m4v,9.0
2024-02-28 11:37:26.866103,1709116646.866103,-471.6796875,-15.625,-29.296875,-198.2421875,1.0,1.0,1.0,1.0,5.m4v,9.0
2024-02-28 11:37:26.870009,1709116646.870009,-488.28125,-6.8359375,-8.7890625,-345.21484375,1.0,1.0,1.0,1.0,5.m4v,9.0
2024-02-28 11:37:26.873915,1709116646.873915,-537.109375,-12.6953125,6.8359375,-370.1171875,1.0,1.0,1.0,1.0,5.m4v,9.0
2024-02-28 11:37:26.885635,1709116646.885635,-571.2890625,4.39453125,73.73046875,-529.78515625,1.0,1.0,1.0,1.0,5.m4v,9.0
2024-02-28 11:37:26.889541,1709116646.889541,-594.7265625,-13.671875,83.0078125,-573.2421875,1.0,1.0,1.0,1.0,5.m4v,9.0
2024-02-28 11:37:26.897352,1709116646.8973525,-538.0859375,-22.94921875,98.6328125,-616.2109375,1.0,1.0,1.0,1.0,5.m4v,9.0
2024-02-28 11:37:26.901258,1709116646.9012585,-538.57421875,-3.90625,142.578125,-647.4609375,1.0,1.0,1.0,1.0,5.m4v,9.0
2024-02-28 11:37:26.905164,1709116646.9051645,-537.59765625,6.34765625,216.796875,-659.66796875,1.0,1.0,1.0,1.0,5.m4v,9.0
2024-02-28 11:37:26.912976,1709116646.9129765,-610.83984375,36.1328125,383.30078125,-772.4609375,1.0,1.0,1.0,1.0,5.m4v,9.0
2024-02-28 11:37:26.916882,1709116646.9168825,-556.640625,50.29296875,493.1640625,-743.1640625,1.0,1.0,1.0,1.0,5.m4v,9.0
2024-02-28 11:37:26.920788,1709116646.9207883,-484.375,52.734375,565.4296875,-704.58984375,1.0,1.0,1.0,1.0,5.m4v,9.0
2024-02-28 11:37:26.928602,1709116646.9286015,-437.98828125,29.296875,617.1875,-731.4453125,1.0,1.0,1.0,1.0,5.m4v,9.0
2024-02-28 11:37:26.932508,1709116646.9325078,-430.17578125,36.1328125,593.75,-806.15234375,1.0,1.0,1.0,1.0,5.m4v,9.0
2024-02-28 11:37:26.936414,1709116646.9364138,-378.90625,24.4140625,565.91796875,-851.5625,1.0,1.0,1.0,1.0,5.m4v,9.0
2024-02-28 11:37:26.944226,1709116646.9442255,-348.14453125,-1.953125,535.15625,-736.328125,1.0,1.0,1.0,1.0,5.m4v,9.0
2024-02-28 11:37:26.948132,1709116646.9481316,-296.875,1.953125,569.82421875,-683.59375,1.0,1.0,1.0,1.0,5.m4v,9.0
2024-02-28 11:37:26.952038,1709116646.9520376,-212.40234375,57.6171875,551.7578125,-708.984375,1.0,1.0,1.0,1.0,5.m4v,9.0
2024-02-28 11:37:26.959849,1709116646.9598494,-78.125,83.49609375,484.375,-704.1015625,1.0,1.0,1.0,1.0,5.m4v,9.0
2024-02-28 11:37:26.963755,1709116646.9637554,-9.27734375,91.796875,546.38671875,-716.30859375,1.0,1.0,1.0,1.0,5.m4v,9.0
2024-02-28 11:37:26.967661,1709116646.9676614,-89.84375,44.921875,529.78515625,-674.8046875,1.0,1.0,1.0,1.0,5.m4v,9.0
2024-02-28 11:37:26.975475,1709116646.9754746,-25.87890625,62.98828125,496.58203125,-603.515625,1.0,1.0,1.0,1.0,5.m4v,9.0
2024-02-28 11:37:26.979381,1709116646.9793806,46.875,91.796875,491.2109375,-534.66796875,1.0,1.0,1.0,1.0,5.m4v,9.0
2024-02-28 11:37:26.983287,1709116646.9832866,97.65625,86.42578125,464.84375,-533.203125,1.0,1.0,1.0,1.0,5.m4v,9.0
2024-02-28 11:37:26.991098,1709116646.9910984,161.1328125,130.859375,416.50390625,-461.9140625,1.0,1.0,1.0,1.0,5.m4v,9.0
2024-02-28 11:37:26.998910,1709116646.9989104,250.48828125,66.40625,386.71875,-393.5546875,1.0,1.0,1.0,1.0,5.m4v,9.0
2024-02-28 11:37:27.155152,1709116647.1551518,666.50390625,600.5859375,318.359375,-11.71875,1.0,1.0,1.0,1.0,5.m4v,9.0
2024-02-28 11:37:27.159060,1709116647.1590598,709.9609375,697.265625,430.6640625,60.05859375,1.0,1.0,1.0,1.0,5.m4v,9.0
2024-02-28 11:37:27.162966,1709116647.1629658,700.68359375,771.484375,446.2890625,48.33984375,1.0,1.0,1.0,1.0,5.m4v,9.0
2024-02-28 11:37:27.166872,1709116647.1668715,684.08203125,817.87109375,380.37109375,41.015625,1.0,1.0,1.0,1.0,5.m4v,9.0
2024-02-28 11:37:27.170778,1709116647.1707776,703.61328125,868.65234375,302.24609375,42.48046875,1.0,1.0,1.0,1.0,5.m4v,9.0
2024-02-28 11:37:27.174684,1709116647.1746836,648.92578125,875.0,209.47265625,23.4375,1.0,1.0,1.0,1.0,5.m4v,9.0
2024-02-28 11:37:27.178590,1709116647.1785896,651.3671875,912.59765625,223.14453125,47.36328125,1.0,1.0,1.0,1.0,5.m4v,9.0
2024-02-28 11:37:27.182495,1709116647.1824954,683.10546875,972.16796875,262.20703125,58.10546875,1.0,1.0,1.0,1.0,5.m4v,9.0
2024-02-28 11:37:27.186401,1709116647.1864014,669.43359375,969.23828125,283.69140625,57.12890625,1.0,1.0,1.0,1.0,5.m4v,9.0
2024-02-28 11:37:27.190307,1709116647.1903074,691.40625,968.75,356.93359375,92.28515625,1.0,1.0,1.0,1.0,5.m4v,9.0
2024-02-28 11:37:27.194213,1709116647.1942134,709.47265625,970.21484375,369.140625,110.3515625,1.0,1.0,1.0,1.0,5.m4v,9.0
2024-02-28 11:37:27.198119,1709116647.1981192,635.25390625,969.7265625,245.1171875,53.7109375,1.0,1.0,1.0,1.0,5.m4v,9.0
2024-02-28 11:37:27.202025,1709116647.2020252,606.4453125,969.7265625,198.73046875,41.015625,1.0,1.0,1.0,1.0,5.m4v,9.0
2024-02-28 11:37:27.205934,1709116647.2059338,606.93359375,969.7265625,135.7421875,67.3828125,1.0,1.0,1.0,1.0,5.m4v,9.0
2024-02-28 11:37:27.209840,1709116647.2098398,575.1953125,969.7265625,37.59765625,76.171875,1.0,1.0,1.0,1.0,5.m4v,9.0
2024-02-28 11:37:27.213746,1709116647.2137458,590.8203125,970.21484375,36.1328125,111.81640625,1.0,1.0,1.0,1.0,5.m4v,9.0
2024-02-28 11:37:27.217652,1709116647.2176516,573.73046875,969.7265625,32.2265625,72.75390625,1.0,1.0,1.0,1.0,5.m4v,9.0
2024-02-28 11:37:27.221558,1709116647.2215576,530.2734375,969.7265625,1.953125,58.10546875,1.0,1.0,1.0,1.0,5.m4v,9.0
2024-02-28 11:37:27.225464,1709116647.2254636,525.87890625,969.7265625,-5.859375,106.93359375,1.0,1.0,1.0,1.0,5.m4v,9.0
2024-02-28 11:37:27.229370,1709116647.2293696,513.671875,969.7265625,-19.53125,98.14453125,1.0,1.0,1.0,1.0,5.m4v,9.0
2024-02-28 11:37:27.233275,1709116647.2332754,505.859375,969.7265625,10.25390625,91.796875,1.0,1.0,1.0,1.0,5.m4v,9.0
2024-02-28 11:37:27.237181,1709116647.2371814,498.046875,969.7265625,62.5,95.703125,1.0,1.0,1.0,1.0,5.m4v,9.0
2024-02-28 11:37:27.241087,1709116647.2410874,495.60546875,969.7265625,88.37890625,97.16796875,1.0,1.0,1.0,1.0,5.m4v,9.0
2024-02-28 11:37:27.244993,1709116647.2449934,494.140625,969.7265625,170.41015625,91.30859375,1.0,1.0,1.0,1.0,5.m4v,9.0
2024-02-28 11:37:27.248899,1709116647.2488992,491.69921875,969.7265625,256.34765625,102.5390625,1.0,1.0,1.0,1.0,5.m4v,9.0
2024-02-28 11:37:27.252807,1709116647.252807,502.9296875,969.7265625,279.78515625,115.72265625,1.0,1.0,1.0,1.0,5.m4v,9.0
2024-02-28 11:37:27.256713,1709116647.256713,478.515625,969.7265625,300.78125,100.09765625,1.0,1.0,1.0,1.0,5.m4v,9.0
2024-02-28 11:37:27.260619,1709116647.260619,464.35546875,969.7265625,302.734375,84.47265625,1.0,1.0,1.0,1.0,5.m4v,9.0
2024-02-28 11:37:27.264525,1709116647.2645247,457.51953125,969.7265625,257.8125,83.49609375,1.0,1.0,1.0,1.0,5.m4v,9.0
2024-02-28 11:37:27.268431,1709116647.2684307,431.15234375,969.7265625,258.30078125,63.4765625,1.0,1.0,1.0,1.0,5.m4v,9.0
2024-02-28 11:37:27.272337,1709116647.2723367,423.33984375,969.7265625,335.44921875,76.171875,1.0,1.0,1.0,1.0,5.m4v,9.0
2024-02-28 11:37:27.276243,1709116647.2762427,417.48046875,969.7265625,399.90234375,59.08203125,1.0,1.0,1.0,1.0,5.m4v,9.0
2024-02-28 11:37:27.280149,1709116647.2801485,425.29296875,969.7265625,378.90625,32.2265625,1.0,1.0,1.0,1.0,5.m4v,9.0
2024-02-28 11:37:27.284055,1709116647.2840545,406.73828125,969.7265625,320.80078125,46.875,1.0,1.0,1.0,1.0,5.m4v,9.0
2024-02-28 11:37:27.287961,1709116647.2879603,389.16015625,969.7265625,233.88671875,71.77734375,1.0,1.0,1.0,1.0,5.m4v,9.0
2024-02-28 11:37:27.291867,1709116647.2918663,385.25390625,969.7265625,111.81640625,110.3515625,1.0,1.0,1.0,1.0,5.m4v,9.0
2024-02-28 11:37:27.295772,1709116647.2957723,377.9296875,969.7265625,56.15234375,72.265625,1.0,1.0,1.0,1.0,5.m4v,9.0
2024-02-28 11:37:27.299680,1709116647.29968,343.26171875,970.21484375,60.546875,53.22265625,1.0,1.0,1.0,1.0,5.m4v,9.0
2024-02-28 11:37:27.303586,1709116647.303586,314.453125,969.7265625,33.69140625,55.6640625,1.0,1.0,1.0,1.0,5.m4v,9.0
2024-02-28 11:37:27.307492,1709116647.3074918,321.2890625,969.7265625,-11.71875,59.5703125,1.0,1.0,1.0,1.0,5.m4v,9.0
2024-02-28 11:37:27.311398,1709116647.3113978,303.22265625,969.7265625,-51.7578125,50.29296875,1.0,1.0,1.0,1.0,5.m4v,9.0
2024-02-28 11:37:27.315304,1709116647.3153038,292.96875,969.7265625,-71.77734375,40.52734375,1.0,1.0,1.0,1.0,5.m4v,9.0
2024-02-28 11:37:27.319210,1709116647.3192098,285.64453125,969.7265625,-87.890625,42.96875,1.0,1.0,1.0,1.0,5.m4v,9.0
2024-02-28 11:37:27.323116,1709116647.3231156,245.60546875,970.21484375,-130.37109375,63.4765625,1.0,1.0,1.0,1.0,5.m4v,9.0
2024-02-28 11:37:27.327022,1709116647.3270216,259.765625,968.75,-208.49609375,79.1015625,1.0,1.0,1.0,1.0,5.m4v,9.0
2024-02-28 11:37:27.330928,1709116647.3309276,276.3671875,972.16796875,-261.71875,21.484375,1.0,1.0,1.0,1.0,5.m4v,9.0
2024-02-28 11:37:27.334834,1709116647.3348336,248.53515625,956.0546875,-251.953125,36.62109375,1.0,1.0,1.0,1.0,5.m4v,9.0
2024-02-28 11:37:27.338739,1709116647.3387394,233.3984375,923.828125,-242.67578125,52.24609375,1.0,1.0,1.0,1.0,5.m4v,9.0
2024-02-28 11:37:27.342645,1709116647.3426454,205.078125,895.99609375,-267.578125,16.11328125,1.0,1.0,1.0,1.0,5.m4v,9.0
2024-02-28 11:37:27.346553,1709116647.346553,200.1953125,856.4453125,-253.90625,57.12890625,1.0,1.0,1.0,1.0,5.m4v,9.0
2024-02-28 11:37:27.350459,1709116647.3504589,214.84375,826.171875,-225.09765625,45.8984375,1.0,1.0,1.0,1.0,5.m4v,9.0
2024-02-28 11:37:27.354365,1709116647.3543649,209.47265625,787.59765625,-230.46875,35.64453125,1.0,1.0,1.0,1.0,5.m4v,9.0
2024-02-28 11:37:27.358271,1709116647.358271,189.453125,744.62890625,-208.49609375,41.015625,1.0,1.0,1.0,1.0,5.m4v,9.0
2024-02-28 11:37:27.362177,1709116647.362177,192.87109375,718.75,-182.6171875,32.2265625,1.0,1.0,1.0,1.0,5.m4v,9.0
2024-02-28 11:37:27.366083,1709116647.366083,199.70703125,690.4296875,-189.453125,58.59375,1.0,1.0,1.0,1.0,5.m4v,9.0
2024-02-28 11:37:27.369989,1709116647.369989,192.3828125,665.52734375,-227.05078125,35.15625,1.0,1.0,1.0,1.0,5.m4v,9.0
2024-02-28 11:37:27.373895,1709116647.3738947,203.125,621.58203125,-288.57421875,16.11328125,1.0,1.0,1.0,1.0,5.m4v,9.0
2024-02-28 11:37:27.377801,1709116647.3778007,128.90625,571.2890625,-301.7578125,67.87109375,1.0,1.0,1.0,1.0,5.m4v,9.0
2024-02-28 11:37:27.381706,1709116647.3817065,101.07421875,550.29296875,-250.48828125,67.3828125,1.0,1.0,1.0,1.0,5.m4v,9.0
2024-02-28 11:37:27.385612,1709116647.3856125,169.43359375,534.66796875,-225.5859375,45.8984375,1.0,1.0,1.0,1.0,5.m4v,9.0
2024-02-28 11:37:27.389518,1709116647.3895185,176.26953125,505.37109375,-213.8671875,7.32421875,1.0,1.0,1.0,1.0,5.m4v,9.0
2024-02-28 11:37:27.393426,1709116647.3934257,175.29296875,471.6796875,-191.40625,-27.34375,1.0,1.0,1.0,1.0,5.m4v,9.0
2024-02-28 11:37:27.397331,1709116647.3973317,148.92578125,460.44921875,-187.5,4.8828125,1.0,1.0,1.0,1.0,5.m4v,9.0
2024-02-28 11:37:27.401237,1709116647.4012375,121.09375,447.75390625,-161.1328125,48.33984375,1.0,1.0,1.0,1.0,5.m4v,9.0
2024-02-28 11:37:27.405143,1709116647.4051435,152.83203125,418.9453125,-103.02734375,59.08203125,1.0,1.0,1.0,1.0,5.m4v,9.0
2024-02-28 11:37:27.409050,1709116647.4090495,181.15234375,390.625,14.6484375,14.6484375,1.0,1.0,1.0,1.0,5.m4v,9.0
2024-02-28 11:37:27.412955,1709116647.4129553,182.12890625,363.76953125,168.45703125,-7.32421875,1.0,1.0,1.0,1.0,5.m4v,9.0
2024-02-28 11:37:27.416861,1709116647.4168613,146.484375,337.890625,274.90234375,-15.13671875,1.0,1.0,1.0,1.0,5.m4v,9.0
2024-02-28 11:37:27.420767,1709116647.4207673,105.95703125,297.8515625,344.7265625,-28.3203125,1.0,1.0,1.0,1.0,5.m4v,9.0
2024-02-28 11:37:27.424673,1709116647.4246733,142.08984375,282.71484375,368.65234375,9.27734375,1.0,1.0,1.0,1.0,5.m4v,9.0
2024-02-28 11:37:27.428579,1709116647.428579,160.15625,271.484375,375.9765625,-5.859375,1.0,1.0,1.0,1.0,5.m4v,9.0
2024-02-28 11:37:27.432485,1709116647.432485,115.234375,249.51171875,392.08984375,-11.71875,1.0,1.0,1.0,1.0,5.m4v,9.0
2024-02-28 11:37:27.436391,1709116647.436391,79.58984375,225.09765625,373.53515625,-32.2265625,1.0,1.0,1.0,1.0,5.m4v,9.0
2024-02-28 11:37:27.440298,1709116647.440298,28.80859375,199.70703125,362.3046875,-64.453125,1.0,1.0,1.0,1.0,5.m4v,9.0
2024-02-28 11:37:27.444204,1709116647.444204,10.25390625,180.17578125,366.69921875,-51.26953125,1.0,1.0,1.0,1.0,5.m4v,9.0
2024-02-28 11:37:27.448110,1709116647.44811,27.83203125,146.97265625,378.90625,-83.0078125,1.0,1.0,1.0,1.0,5.m4v,9.0
2024-02-28 11:37:27.452016,1709116647.452016,37.59765625,137.20703125,392.578125,-101.5625,1.0,1.0,1.0,1.0,5.m4v,9.0
2024-02-28 11:37:27.455922,1709116647.455922,18.06640625,127.44140625,397.94921875,-119.140625,1.0,1.0,1.0,1.0,5.m4v,9.0
2024-02-28 11:37:27.459828,1709116647.4598277,-18.5546875,121.09375,386.71875,-176.26953125,1.0,1.0,1.0,1.0,5.m4v,9.0
2024-02-28 11:37:27.463734,1709116647.4637337,-50.78125,104.4921875,359.375,-186.03515625,1.0,1.0,1.0,1.0,5.m4v,9.0
2024-02-28 11:37:27.467640,1709116647.4676397,-14.6484375,72.265625,328.125,-125.9765625,1.0,1.0,1.0,1.0,5.m4v,9.0
2024-02-28 11:37:27.471546,1709116647.4715457,78.61328125,81.54296875,310.546875,-68.84765625,1.0,1.0,1.0,1.0,5.m4v,9.0
2024-02-28 11:37:27.475451,1709116647.4754517,-22.94921875,92.7734375,351.07421875,-222.65625,1.0,1.0,1.0,1.0,5.m4v,9.0
2024-02-28 11:37:27.479357,1709116647.4793575,-99.12109375,35.64453125,369.62890625,-281.73828125,1.0,1.0,1.0,1.0,5.m4v,9.0
2024-02-28 11:37:27.483263,1709116647.4832635,-57.12890625,-50.29296875,324.70703125,-136.23046875,1.0,1.0,1.0,1.0,5.m4v,9.0
2024-02-28 11:37:27.487170,1709116647.4871702,-40.0390625,-130.37109375,324.21875,-151.85546875,1.0,1.0,1.0,1.0,5.m4v,9.0
2024-02-28 11:37:27.491076,1709116647.4910762,-57.12890625,-210.44921875,337.890625,-205.078125,1.0,1.0,1.0,1.0,5.m4v,9.0
2024-02-28 11:37:27.494982,1709116647.4949822,-48.828125,-236.328125,294.43359375,-218.75,1.0,1.0,1.0,1.0,5.m4v,9.0
2024-02-28 11:37:27.498888,1709116647.4988885,-20.5078125,-335.44921875,274.4140625,-201.66015625,1.0,1.0,1.0,1.0,5.m4v,9.0
2024-02-28 11:37:27.502794,1709116647.502794,-88.8671875,-431.15234375,288.57421875,-141.6015625,1.0,1.0,1.0,1.0,5.m4v,9.0
2024-02-28 11:37:27.506700,1709116647.5067,-89.35546875,-468.26171875,265.625,-169.43359375,1.0,1.0,1.0,1.0,5.m4v,9.0
2024-02-28 11:37:27.510606,1709116647.510606,-90.8203125,-458.49609375,192.87109375,-296.38671875,1.0,1.0,1.0,1.0,5.m4v,9.0
2024-02-28 11:37:27.514512,1709116647.514512,-233.88671875,-494.62890625,179.19921875,-196.2890625,1.0,1.0,1.0,1.0,5.m4v,9.0
2024-02-28 11:37:27.518418,1709116647.5184178,-88.8671875,-511.71875,185.546875,-74.70703125,1.0,1.0,1.0,1.0,5.m4v,9.0
2024-02-28 11:37:27.522324,1709116647.5223238,3.41796875,-492.1875,291.50390625,-190.91796875,1.0,1.0,1.0,1.0,5.m4v,9.0
2024-02-28 11:37:27.526230,1709116647.52623,-22.94921875,-517.578125,310.05859375,-129.39453125,1.0,1.0,1.0,1.0,5.m4v,9.0
2024-02-28 11:37:27.530136,1709116647.530136,-2.44140625,-458.49609375,164.0625,-46.875,1.0,1.0,1.0,1.0,5.m4v,9.0
2024-02-28 11:37:27.534043,1709116647.5340426,-19.53125,-489.74609375,195.3125,-142.08984375,1.0,1.0,1.0,1.0,5.m4v,9.0
2024-02-28 11:37:27.537949,1709116647.5379486,-61.5234375,-380.859375,152.34375,-106.93359375,1.0,1.0,1.0,1.0,5.m4v,9.0
2024-02-28 11:37:27.541855,1709116647.5418546,-125.9765625,-324.21875,146.484375,-112.3046875,1.0,1.0,1.0,1.0,5.m4v,9.0
2024-02-28 11:37:27.545760,1709116647.5457604,-6.34765625,-464.84375,261.71875,-168.9453125,1.0,1.0,1.0,1.0,5.m4v,9.0
2024-02-28 11:37:27.549666,1709116647.5496664,3.41796875,-466.796875,273.92578125,-115.72265625,1.0,1.0,1.0,1.0,5.m4v,9.0
2024-02-28 11:37:27.553572,1709116647.5535724,-140.13671875,-452.63671875,206.0546875,-76.66015625,1.0,1.0,1.0,1.0,5.m4v,9.0
2024-02-28 11:37:27.557478,1709116647.5574784,-162.109375,-479.4921875,225.09765625,-70.3125,1.0,1.0,1.0,1.0,5.m4v,9.0
2024-02-28 11:37:27.561384,1709116647.5613842,-17.08984375,-470.21484375,226.5625,-5.37109375,1.0,1.0,1.0,1.0,5.m4v,9.0
2024-02-28 11:37:27.565290,1709116647.5652902,65.91796875,-394.04296875,122.55859375,40.0390625,1.0,1.0,1.0,1.0,5.m4v,9.0
2024-02-28 11:37:27.569196,1709116647.5691962,18.5546875,-402.34375,145.99609375,32.71484375,1.0,1.0,1.0,1.0,5.m4v,9.0
2024-02-28 11:37:27.573102,1709116647.5731022,-143.06640625,-419.43359375,211.42578125,-54.6875,1.0,1.0,1.0,1.0,5.m4v,9.0
2024-02-28 11:37:27.577008,1709116647.577008,-2.44140625,-466.30859375,175.29296875,55.6640625,1.0,1.0,1.0,1.0,5.m4v,9.0
2024-02-28 11:37:27.815280,1709116647.8152802,166.50390625,-232.421875,-66.89453125,51.7578125,1.0,1.0,1.0,1.0,5.m4v,9.0
2024-02-28 11:37:27.819186,1709116647.8191862,180.17578125,-204.1015625,-101.5625,23.92578125,1.0,1.0,1.0,1.0,5.m4v,9.0
2024-02-28 11:37:27.823092,1709116647.823092,166.50390625,-219.7265625,-95.703125,-24.4140625,1.0,1.0,1.0,1.0,5.m4v,9.0
2024-02-28 11:37:27.826998,1709116647.826998,153.80859375,-219.23828125,-91.30859375,70.80078125,1.0,1.0,1.0,1.0,5.m4v,9.0
2024-02-28 11:37:27.830904,1709116647.830904,191.89453125,-190.4296875,-85.9375,96.6796875,1.0,1.0,1.0,1.0,5.m4v,9.0
2024-02-28 11:37:27.834810,1709116647.83481,162.59765625,-203.61328125,-62.5,44.921875,1.0,1.0,1.0,1.0,5.m4v,9.0
2024-02-28 11:37:27.838716,1709116647.8387158,126.953125,-197.265625,-38.57421875,-5.37109375,1.0,1.0,1.0,1.0,5.m4v,9.0
2024-02-28 11:37:27.842622,1709116647.8426218,160.15625,-176.26953125,-61.5234375,10.7421875,1.0,1.0,1.0,1.0,5.m4v,9.0
2024-02-28 11:37:27.846528,1709116647.8465278,167.96875,-169.921875,-88.8671875,50.29296875,1.0,1.0,1.0,1.0,5.m4v,9.0
2024-02-28 11:37:27.850434,1709116647.8504338,163.57421875,-198.73046875,-76.66015625,26.3671875,1.0,1.0,1.0,1.0,5.m4v,9.0
2024-02-28 11:37:27.854340,1709116647.8543396,158.203125,-225.5859375,-68.84765625,26.3671875,1.0,1.0,1.0,1.0,5.m4v,9.0
2024-02-28 11:37:27.858246,1709116647.8582456,119.140625,-166.9921875,-79.1015625,20.99609375,1.0,1.0,1.0,1.0,5.m4v,9.0
2024-02-28 11:37:27.862152,1709116647.8621523,104.98046875,-157.2265625,-76.66015625,5.859375,1.0,1.0,1.0,1.0,5.m4v,9.0
2024-02-28 11:37:27.866058,1709116647.8660583,144.04296875,-179.6875,-52.734375,23.92578125,1.0,1.0,1.0,1.0,5.m4v,9.0
2024-02-28 11:37:27.869964,1709116647.8699644,146.484375,-156.73828125,-46.875,27.34375,1.0,1.0,1.0,1.0,5.m4v,9.0
2024-02-28 11:37:27.873870,1709116647.8738704,138.18359375,-192.87109375,-33.69140625,23.4375,1.0,1.0,1.0,1.0,5.m4v,9.0
2024-02-28 11:37:27.877776,1709116647.877776,144.04296875,-183.10546875,-26.85546875,42.96875,1.0,1.0,1.0,1.0,5.m4v,9.0
2024-02-28 11:37:27.881682,1709116647.8816822,146.484375,-171.38671875,-30.2734375,44.43359375,1.0,1.0,1.0,1.0,5.m4v,9.0
2024-02-28 11:37:27.885588,1709116647.8855882,122.55859375,-172.8515625,-40.0390625,25.390625,1.0,1.0,1.0,1.0,5.m4v,9.0
2024-02-28 11:37:27.889494,1709116647.8894942,97.16796875,-169.921875,-56.640625,24.90234375,1.0,1.0,1.0,1.0,5.m4v,9.0
2024-02-28 11:37:27.893400,1709116647.8934,84.9609375,-183.59375,-50.78125,24.90234375,1.0,1.0,1.0,1.0,5.m4v,9.0
2024-02-28 11:37:27.897306,1709116647.897306,77.1484375,-192.87109375,-44.43359375,21.97265625,1.0,1.0,1.0,1.0,5.m4v,9.0
2024-02-28 11:37:27.901212,1709116647.901212,61.5234375,-179.6875,-51.7578125,23.92578125,1.0,1.0,1.0,1.0,5.m4v,9.0
2024-02-28 11:37:27.905118,1709116647.905118,59.08203125,-170.41015625,-58.59375,20.5078125,1.0,1.0,1.0,1.0,5.m4v,9.0
2024-02-28 11:37:27.909024,1709116647.9090245,54.19921875,-173.33984375,-48.828125,22.94921875,1.0,1.0,1.0,1.0,5.m4v,9.0
2024-02-28 11:37:27.912930,1709116647.9129305,37.59765625,-177.24609375,-36.1328125,17.08984375,1.0,1.0,1.0,1.0,5.m4v,9.0
2024-02-28 11:37:27.916837,1709116647.9168365,17.578125,-168.45703125,-43.45703125,5.859375,1.0,1.0,1.0,1.0,5.m4v,9.0
2024-02-28 11:37:27.920743,1709116647.9207425,15.625,-178.22265625,-56.15234375,1.953125,1.0,1.0,1.0,1.0,5.m4v,9.0
2024-02-28 11:37:27.924648,1709116647.9246483,-7.32421875,-160.15625,-56.15234375,-11.71875,1.0,1.0,1.0,1.0,5.m4v,9.0
2024-02-28 11:37:27.928554,1709116647.9285543,-40.52734375,-158.203125,-48.33984375,-26.3671875,1.0,1.0,1.0,1.0,5.m4v,9.0
2024-02-28 11:37:27.932460,1709116647.9324603,-20.01953125,-210.9375,-63.96484375,-7.32421875,1.0,1.0,1.0,1.0,5.m4v,9.0
2024-02-28 11:37:27.936366,1709116647.9363663,-18.5546875,-202.1484375,-94.7265625,4.8828125,1.0,1.0,1.0,1.0,5.m4v,9.0
2024-02-28 11:37:27.940272,1709116647.940272,-19.53125,-188.96484375,-64.94140625,-2.9296875,1.0,1.0,1.0,1.0,5.m4v,9.0
2024-02-28 11:37:27.944178,1709116647.944178,-39.0625,-182.12890625,-16.11328125,-16.11328125,1.0,1.0,1.0,1.0,5.m4v,9.0
2024-02-28 11:37:27.948084,1709116647.948084,-73.73046875,-175.29296875,-0.9765625,-31.25,1.0,1.0,1.0,1.0,5.m4v,9.0
2024-02-28 11:37:27.951990,1709116647.95199,-66.40625,-190.4296875,-9.765625,-25.390625,1.0,1.0,1.0,1.0,5.m4v,9.0
2024-02-28 11:37:27.955898,1709116647.9558978,-63.96484375,-209.47265625,-34.66796875,-57.12890625,1.0,1.0,1.0,1.0,5.m4v,9.0
2024-02-28 11:37:27.963710,1709116647.9637098,-85.9375,-231.93359375,-52.734375,-9.27734375,1.0,1.0,1.0,1.0,5.m4v,9.0
2024-02-28 11:37:27.971522,1709116647.9715216,-77.63671875,-240.234375,-71.2890625,-39.55078125,1.0,1.0,1.0,1.0,5.m4v,9.0
2024-02-28 11:37:27.979334,1709116647.9793336,-55.6640625,-235.3515625,-57.12890625,-25.390625,1.0,1.0,1.0,1.0,5.m4v,9.0
2024-02-28 11:37:27.987145,1709116647.9871454,-42.96875,-208.984375,-81.54296875,-61.5234375,1.0,1.0,1.0,1.0,5.m4v,9.0
2024-02-28 11:37:27.994957,1709116647.9949574,-59.5703125,-215.8203125,-59.08203125,-61.03515625,1.0,1.0,1.0,1.0,5.m4v,9.0
2024-02-28 11:37:28.002771,1709116648.0027714,-38.57421875,-221.19140625,-58.10546875,-58.59375,1.0,1.0,1.0,1.0,5.m4v,9.0
2024-02-28 11:37:28.010583,1709116648.0105832,-19.53125,-225.09765625,-69.82421875,-52.24609375,1.0,1.0,1.0,1.0,5.m4v,9.0
2024-02-28 11:37:28.018395,1709116648.0183952,-55.6640625,-244.62890625,-72.265625,-47.36328125,1.0,1.0,1.0,1.0,5.m4v,9.0
2024-02-28 11:37:28.026207,1709116648.026207,-4.8828125,-245.1171875,-68.84765625,-52.734375,1.0,1.0,1.0,1.0,5.m4v,9.0
2024-02-28 11:37:28.030113,1709116648.030113,3.90625,-253.41796875,-72.75390625,-88.8671875,1.0,1.0,1.0,1.0,5.m4v,9.0
2024-02-28 11:37:28.034019,1709116648.034019,4.39453125,-247.0703125,-53.22265625,-54.19921875,1.0,1.0,1.0,1.0,5.m4v,9.0
2024-02-28 11:37:28.037925,1709116648.0379248,-8.7890625,-241.2109375,-55.6640625,-19.04296875,1.0,1.0,1.0,1.0,5.m4v,9.0
2024-02-28 11:37:28.041831,1709116648.0418308,-28.80859375,-247.55859375,-69.82421875,-78.61328125,1.0,1.0,1.0,1.0,5.m4v,9.0
2024-02-28 11:37:28.045737,1709116648.0457368,8.7890625,-277.83203125,-72.75390625,-64.453125,1.0,1.0,1.0,1.0,5.m4v,9.0
2024-02-28 11:37:28.049644,1709116648.0496442,55.17578125,-294.43359375,-67.87109375,-35.15625,1.0,1.0,1.0,1.0,5.m4v,9.0
2024-02-28 11:37:28.053550,1709116648.0535502,45.8984375,-296.38671875,-64.453125,-55.6640625,1.0,1.0,1.0,1.0,5.m4v,9.0
2024-02-28 11:37:28.057456,1709116648.0574565,66.89453125,-306.15234375,-62.01171875,-38.57421875,1.0,1.0,1.0,1.0,5.m4v,9.0
2024-02-28 11:37:28.061362,1709116648.061362,71.77734375,-320.3125,-61.03515625,-16.6015625,1.0,1.0,1.0,1.0,5.m4v,9.0
2024-02-28 11:37:28.065268,1709116648.065268,47.36328125,-357.421875,-51.7578125,-47.36328125,1.0,1.0,1.0,1.0,5.m4v,9.0
2024-02-28 11:37:28.069174,1709116648.069174,64.453125,-399.4140625,-52.734375,-54.6875,1.0,1.0,1.0,1.0,5.m4v,9.0
2024-02-28 11:37:28.073080,1709116648.07308,50.29296875,-403.80859375,-69.3359375,-50.78125,1.0,1.0,1.0,1.0,5.m4v,9.0
2024-02-28 11:37:28.076986,1709116648.0769858,47.36328125,-412.59765625,-66.40625,-53.7109375,1.0,1.0,1.0,1.0,5.m4v,9.0
2024-02-28 11:37:28.080892,1709116648.0808918,86.42578125,-437.5,-61.5234375,-41.50390625,1.0,1.0,1.0,1.0,5.m4v,9.0
2024-02-28 11:37:28.084798,1709116648.084798,79.1015625,-441.89453125,-69.3359375,-83.49609375,1.0,1.0,1.0,1.0,5.m4v,9.0
2024-02-28 11:37:28.088704,1709116648.088704,48.33984375,-461.9140625,-65.4296875,-80.56640625,1.0,1.0,1.0,1.0,5.m4v,9.0
2024-02-28 11:37:28.092610,1709116648.0926096,54.19921875,-486.81640625,-54.6875,-22.94921875,1.0,1.0,1.0,1.0,5.m4v,9.0
2024-02-28 11:37:28.096517,1709116648.096517,28.80859375,-484.375,-58.10546875,-44.43359375,1.0,1.0,1.0,1.0,5.m4v,9.0
2024-02-28 11:37:28.100423,1709116648.1004229,58.10546875,-489.2578125,-62.5,-47.8515625,1.0,1.0,1.0,1.0,5.m4v,9.0
2024-02-28 11:37:28.104329,1709116648.1043289,104.4921875,-502.9296875,-65.91796875,-36.62109375,1.0,1.0,1.0,1.0,5.m4v,9.0
2024-02-28 11:37:28.108235,1709116648.108235,91.796875,-500.9765625,-73.2421875,-41.015625,1.0,1.0,1.0,1.0,5.m4v,9.0
2024-02-28 11:37:28.112141,1709116648.112141,81.0546875,-490.72265625,-72.75390625,-49.31640625,1.0,1.0,1.0,1.0,5.m4v,9.0
2024-02-28 11:37:28.116047,1709116648.116047,56.640625,-492.67578125,-74.21875,-49.8046875,1.0,1.0,1.0,1.0,5.m4v,9.0
2024-02-28 11:37:28.119953,1709116648.119953,59.5703125,-495.1171875,-68.359375,-36.62109375,1.0,1.0,1.0,1.0,5.m4v,9.0
2024-02-28 11:37:28.123859,1709116648.1238587,60.546875,-494.62890625,-67.87109375,-42.48046875,1.0,1.0,1.0,1.0,5.m4v,9.0
2024-02-28 11:37:28.127765,1709116648.1277647,67.87109375,-490.72265625,-72.265625,-45.41015625,1.0,1.0,1.0,1.0,5.m4v,9.0
2024-02-28 11:37:28.131670,1709116648.1316705,76.66015625,-490.72265625,-71.2890625,-45.8984375,1.0,1.0,1.0,1.0,5.m4v,9.0
2024-02-28 11:37:28.139482,1709116648.1394825,93.75,-473.6328125,-62.5,-52.24609375,1.0,1.0,1.0,1.0,5.m4v,9.0
2024-02-28 11:37:28.143390,1709116648.1433897,94.23828125,-475.09765625,-66.89453125,-68.84765625,1.0,1.0,1.0,1.0,5.m4v,9.0
2024-02-28 11:37:28.151201,1709116648.1512015,88.8671875,-475.5859375,-26.3671875,-0.48828125,1.0,1.0,1.0,1.0,5.m4v,9.0
2024-02-28 11:37:28.155107,1709116648.1551075,65.4296875,-457.51953125,-28.80859375,-21.484375,1.0,1.0,1.0,1.0,5.m4v,9.0
2024-02-28 11:37:28.162920,1709116648.1629195,86.42578125,-442.3828125,-32.2265625,-36.1328125,1.0,1.0,1.0,1.0,5.m4v,9.0
2024-02-28 11:37:28.166825,1709116648.1668253,84.47265625,-441.89453125,-43.9453125,-24.4140625,1.0,1.0,1.0,1.0,5.m4v,9.0
2024-02-28 11:37:28.174637,1709116648.1746373,81.0546875,-456.0546875,-36.1328125,3.41796875,1.0,1.0,1.0,1.0,5.m4v,9.0
2024-02-28 11:37:28.178543,1709116648.178543,80.078125,-453.125,-16.6015625,-19.04296875,1.0,1.0,1.0,1.0,5.m4v,9.0
2024-02-28 11:37:28.186355,1709116648.186355,14.16015625,-455.56640625,-36.1328125,-29.296875,1.0,1.0,1.0,1.0,5.m4v,9.0
2024-02-28 11:37:28.190262,1709116648.1902623,74.21875,-435.05859375,-37.59765625,4.8828125,1.0,1.0,1.0,1.0,5.m4v,9.0
2024-02-28 11:37:28.198074,1709116648.1980743,58.10546875,-423.33984375,-27.83203125,-16.11328125,1.0,1.0,1.0,1.0,5.m4v,9.0
2024-02-28 11:37:28.201980,1709116648.20198,42.48046875,-430.6640625,-11.23046875,-18.06640625,1.0,1.0,1.0,1.0,5.m4v,9.0
2024-02-28 11:37:28.209792,1709116648.209792,39.0625,-419.921875,-2.9296875,-0.48828125,1.0,1.0,1.0,1.0,5.m4v,9.0
2024-02-28 11:37:28.213698,1709116648.213698,40.52734375,-415.52734375,-18.06640625,-5.37109375,1.0,1.0,1.0,1.0,5.m4v,9.0
2024-02-28 11:37:28.221510,1709116648.22151,59.08203125,-395.01953125,-23.92578125,-14.16015625,1.0,1.0,1.0,1.0,5.m4v,9.0
2024-02-28 11:37:28.225416,1709116648.225416,75.68359375,-381.8359375,-25.390625,-27.34375,1.0,1.0,1.0,1.0,5.m4v,9.0
2024-02-28 11:37:28.233228,1709116648.2332275,26.85546875,-371.09375,-26.3671875,33.69140625,1.0,1.0,1.0,1.0,5.m4v,9.0
2024-02-28 11:37:28.237135,1709116648.2371352,67.3828125,-359.375,-43.9453125,31.25,1.0,1.0,1.0,1.0,5.m4v,9.0
2024-02-28 11:37:28.244947,1709116648.244947,56.15234375,-361.81640625,-27.83203125,-2.9296875,1.0,1.0,1.0,1.0,5.m4v,9.0
2024-02-28 11:37:28.248853,1709116648.248853,60.05859375,-378.90625,-30.2734375,2.44140625,1.0,1.0,1.0,1.0,5.m4v,9.0
2024-02-28 11:37:28.256665,1709116648.256665,50.78125,-336.9140625,-27.83203125,9.27734375,1.0,1.0,1.0,1.0,5.m4v,9.0
2024-02-28 11:37:28.260571,1709116648.2605708,62.98828125,-328.61328125,-19.53125,13.671875,1.0,1.0,1.0,1.0,5.m4v,9.0
2024-02-28 11:37:28.268383,1709116648.2683828,45.8984375,-335.9375,-29.296875,12.20703125,1.0,1.0,1.0,1.0,5.m4v,9.0
2024-02-28 11:37:28.373846,1709116648.373846,83.49609375,-333.0078125,-83.0078125,30.2734375,1.0,1.0,1.0,1.0,5.m4v,9.0
2024-02-28 11:37:28.377754,1709116648.3777535,68.359375,-343.26171875,-104.4921875,18.5546875,1.0,1.0,1.0,1.0,5.m4v,9.0
2024-02-28 11:37:28.381660,1709116648.3816595,54.19921875,-335.44921875,-100.5859375,-1.46484375,1.0,1.0,1.0,1.0,5.m4v,9.0
2024-02-28 11:37:28.385566,1709116648.3855655,59.08203125,-329.1015625,-94.7265625,-15.625,1.0,1.0,1.0,1.0,5.m4v,9.0
2024-02-28 11:37:28.389472,1709116648.3894715,62.5,-335.44921875,-98.14453125,4.8828125,1.0,1.0,1.0,1.0,5.m4v,9.0
2024-02-28 11:37:28.393378,1709116648.3933775,58.10546875,-346.6796875,-104.00390625,11.71875,1.0,1.0,1.0,1.0,5.m4v,9.0
2024-02-28 11:37:28.397284,1709116648.3972836,51.26953125,-353.02734375,-95.21484375,9.27734375,1.0,1.0,1.0,1.0,5.m4v,9.0
2024-02-28 11:37:28.401189,1709116648.401189,47.36328125,-363.28125,-88.8671875,16.11328125,1.0,1.0,1.0,1.0,5.m4v,9.0
2024-02-28 11:37:28.405095,1709116648.405095,48.828125,-376.953125,-85.44921875,-2.44140625,1.0,1.0,1.0,1.0,5.m4v,9.0
2024-02-28 11:37:28.409001,1709116648.4090014,41.50390625,-374.51171875,-89.35546875,-4.8828125,1.0,1.0,1.0,1.0,5.m4v,9.0
2024-02-28 11:37:28.412907,1709116648.4129074,31.73828125,-356.4453125,-99.609375,6.34765625,1.0,1.0,1.0,1.0,5.m4v,9.0
2024-02-28 11:37:28.416813,1709116648.4168131,29.78515625,-350.5859375,-99.12109375,14.16015625,1.0,1.0,1.0,1.0,5.m4v,9.0
2024-02-28 11:37:28.420719,1709116648.4207191,36.1328125,-358.88671875,-93.26171875,-21.97265625,1.0,1.0,1.0,1.0,5.m4v,9.0
2024-02-28 11:37:28.424627,1709116648.4246268,55.17578125,-378.90625,-88.8671875,-15.625,1.0,1.0,1.0,1.0,5.m4v,9.0
2024-02-28 11:37:28.428533,1709116648.4285328,47.36328125,-383.30078125,-96.19140625,26.3671875,1.0,1.0,1.0,1.0,5.m4v,9.0
2024-02-28 11:37:28.432439,1709116648.4324389,22.94921875,-357.421875,-121.09375,15.13671875,1.0,1.0,1.0,1.0,5.m4v,9.0
2024-02-28 11:37:28.436345,1709116648.4363449,24.4140625,-351.07421875,-120.60546875,8.7890625,1.0,1.0,1.0,1.0,5.m4v,9.0
2024-02-28 11:37:28.440251,1709116648.4402506,25.87890625,-351.07421875,-95.21484375,-3.90625,1.0,1.0,1.0,1.0,5.m4v,9.0
2024-02-28 11:37:28.444157,1709116648.4441566,19.53125,-347.16796875,-92.7734375,-18.06640625,1.0,1.0,1.0,1.0,5.m4v,9.0
2024-02-28 11:37:28.448063,1709116648.448063,34.1796875,-360.83984375,-96.6796875,-22.94921875,1.0,1.0,1.0,1.0,5.m4v,9.0
2024-02-28 11:37:28.451969,1709116648.451969,38.0859375,-382.32421875,-101.5625,-17.08984375,1.0,1.0,1.0,1.0,5.m4v,9.0
2024-02-28 11:37:28.455874,1709116648.4558744,41.015625,-381.34765625,-103.515625,-15.13671875,1.0,1.0,1.0,1.0,5.m4v,9.0
2024-02-28 11:37:28.459780,1709116648.4597805,51.7578125,-354.4921875,-99.609375,-11.71875,1.0,1.0,1.0,1.0,5.m4v,9.0
2024-02-28 11:37:28.463686,1709116648.4636865,40.52734375,-342.28515625,-104.4921875,-8.7890625,1.0,1.0,1.0,1.0,5.m4v,9.0
2024-02-28 11:37:28.467592,1709116648.4675925,23.4375,-350.5859375,-103.02734375,-34.66796875,1.0,1.0,1.0,1.0,5.m4v,9.0
2024-02-28 11:37:28.471500,1709116648.4714997,32.71484375,-368.65234375,-107.91015625,-73.2421875,1.0,1.0,1.0,1.0,5.m4v,9.0
2024-02-28 11:37:28.475406,1709116648.4754057,38.0859375,-374.51171875,-113.28125,-24.90234375,1.0,1.0,1.0,1.0,5.m4v,9.0
2024-02-28 11:37:28.479311,1709116648.4793117,22.4609375,-355.95703125,-104.98046875,16.11328125,1.0,1.0,1.0,1.0,5.m4v,9.0
2024-02-28 11:37:28.483217,1709116648.4832177,17.08984375,-345.703125,-105.95703125,-10.7421875,1.0,1.0,1.0,1.0,5.m4v,9.0
2024-02-28 11:37:28.487123,1709116648.4871235,19.04296875,-349.609375,-104.98046875,-20.01953125,1.0,1.0,1.0,1.0,5.m4v,9.0
2024-02-28 11:37:28.491030,1709116648.4910295,15.625,-341.30859375,-107.421875,-14.16015625,1.0,1.0,1.0,1.0,5.m4v,9.0
2024-02-28 11:37:28.494935,1709116648.4949353,17.08984375,-343.75,-113.76953125,-27.34375,1.0,1.0,1.0,1.0,5.m4v,9.0
2024-02-28 11:37:28.498841,1709116648.4988413,17.578125,-366.69921875,-111.81640625,-40.0390625,1.0,1.0,1.0,1.0,5.m4v,9.0
2024-02-28 11:37:28.502747,1709116648.5027473,28.3203125,-387.6953125,-116.2109375,-39.0625,1.0,1.0,1.0,1.0,5.m4v,9.0
2024-02-28 11:37:28.506653,1709116648.5066533,12.20703125,-377.44140625,-124.0234375,-52.24609375,1.0,1.0,1.0,1.0,5.m4v,9.0
2024-02-28 11:37:28.510559,1709116648.510559,-13.18359375,-359.375,-128.41796875,-53.7109375,1.0,1.0,1.0,1.0,5.m4v,9.0
2024-02-28 11:37:28.514465,1709116648.514465,-15.13671875,-351.5625,-126.953125,-58.10546875,1.0,1.0,1.0,1.0,5.m4v,9.0
2024-02-28 11:37:28.518372,1709116648.5183723,-18.5546875,-330.078125,-127.44140625,-57.6171875,1.0,1.0,1.0,1.0,5.m4v,9.0
2024-02-28 11:37:28.522278,1709116648.5222783,-0.9765625,-326.171875,-124.0234375,-66.89453125,1.0,1.0,1.0,1.0,5.m4v,9.0
2024-02-28 11:37:28.526184,1709116648.526184,9.27734375,-334.47265625,-112.79296875,-77.1484375,1.0,1.0,1.0,1.0,5.m4v,9.0
2024-02-28 11:37:28.600398,1709116648.6003983,-35.15625,-280.2734375,-109.375,-71.2890625,1.0,1.0,1.0,1.0,5.m4v,9.0
2024-02-28 11:37:28.604304,1709116648.6043043,-22.94921875,-277.34375,-111.81640625,-69.82421875,1.0,1.0,1.0,1.0,5.m4v,9.0
2024-02-28 11:37:28.608210,1709116648.6082103,-29.296875,-273.4375,-114.74609375,-68.84765625,1.0,1.0,1.0,1.0,5.m4v,9.0
2024-02-28 11:37:28.608210,1709116648.6082103,-29.296875,-273.4375,-114.74609375,-68.84765625,1.0,1.0,1.0,1.0,5.m4v,9.0
2024-02-28 11:37:28.608210,1709116648.6082103,-29.296875,-273.4375,-114.74609375,-68.84765625,1.0,1.0,1.0,1.0,5.m4v,9.0
2024-02-28 11:37:28.612117,1709116648.6121173,-36.1328125,-281.73828125,-106.4453125,-71.77734375,1.0,1.0,1.0,1.0,5.m4v,9.0
2024-02-28 11:37:28.612117,1709116648.6121173,-36.1328125,-281.73828125,-106.4453125,-71.77734375,1.0,1.0,1.0,1.0,5.m4v,9.0
2024-02-28 11:37:28.612117,1709116648.6121173,-36.1328125,-281.73828125,-106.4453125,-71.77734375,1.0,1.0,1.0,1.0,5.m4v,9.0
2024-02-28 11:37:28.616023,1709116648.6160233,-30.76171875,-280.2734375,-115.234375,-68.359375,1.0,1.0,1.0,1.0,5.m4v,9.0
2024-02-28 11:37:28.616023,1709116648.6160233,-30.76171875,-280.2734375,-115.234375,-68.359375,1.0,1.0,1.0,1.0,5.m4v,9.0
2024-02-28 11:37:28.616023,1709116648.6160233,-30.76171875,-280.2734375,-115.234375,-68.359375,1.0,1.0,1.0,1.0,5.m4v,9.0
2024-02-28 11:37:28.619929,1709116648.6199293,-23.92578125,-270.01953125,-137.20703125,-68.84765625,1.0,1.0,1.0,1.0,5.m4v,9.0
2024-02-28 11:37:28.619929,1709116648.6199293,-23.92578125,-270.01953125,-137.20703125,-68.84765625,1.0,1.0,1.0,1.0,5.m4v,9.0
2024-02-28 11:37:28.619929,1709116648.6199293,-23.92578125,-270.01953125,-137.20703125,-68.84765625,1.0,1.0,1.0,1.0,5.m4v,9.0
2024-02-28 11:37:28.623835,1709116648.623835,-17.578125,-266.6015625,-125.48828125,-75.1953125,1.0,1.0,1.0,1.0,5.m4v,9.0
2024-02-28 11:37:28.623835,1709116648.623835,-17.578125,-266.6015625,-125.48828125,-75.1953125,1.0,1.0,1.0,1.0,5.m4v,9.0
2024-02-28 11:37:28.623835,1709116648.623835,-17.578125,-266.6015625,-125.48828125,-75.1953125,1.0,1.0,1.0,1.0,5.m4v,9.0
2024-02-28 11:37:28.627741,1709116648.627741,-11.71875,-267.578125,-97.16796875,-75.68359375,1.0,1.0,1.0,1.0,5.m4v,9.0
2024-02-28 11:37:28.627741,1709116648.627741,-11.71875,-267.578125,-97.16796875,-75.68359375,1.0,1.0,1.0,1.0,5.m4v,9.0
2024-02-28 11:37:28.631647,1709116648.631647,-13.18359375,-270.01953125,-90.8203125,-68.359375,1.0,1.0,1.0,1.0,5.m4v,9.0
2024-02-28 11:37:28.631647,1709116648.631647,-13.18359375,-270.01953125,-90.8203125,-68.359375,1.0,1.0,1.0,1.0,5.m4v,9.0
2024-02-28 11:37:28.635553,1709116648.6355531,-23.4375,-288.57421875,-91.796875,-62.5,1.0,1.0,1.0,1.0,5.m4v,9.0
2024-02-28 11:37:28.635553,1709116648.6355531,-23.4375,-288.57421875,-91.796875,-62.5,1.0,1.0,1.0,1.0,5.m4v,9.0
2024-02-28 11:37:28.639459,1709116648.639459,-11.71875,-293.45703125,-112.79296875,-53.22265625,1.0,1.0,1.0,1.0,5.m4v,9.0
2024-02-28 11:37:28.639459,1709116648.639459,-11.71875,-293.45703125,-112.79296875,-53.22265625,1.0,1.0,1.0,1.0,5.m4v,9.0
2024-02-28 11:37:28.643365,1709116648.643365,-8.30078125,-261.23046875,-130.37109375,-56.15234375,1.0,1.0,1.0,1.0,5.m4v,9.0
2024-02-28 11:37:28.643365,1709116648.643365,-8.30078125,-261.23046875,-130.37109375,-56.15234375,1.0,1.0,1.0,1.0,5.m4v,9.0
2024-02-28 11:37:28.647271,1709116648.647271,-39.0625,-236.81640625,-112.79296875,-65.91796875,1.0,1.0,1.0,1.0,5.m4v,9.0
2024-02-28 11:37:28.647271,1709116648.647271,-39.0625,-236.81640625,-112.79296875,-65.91796875,1.0,1.0,1.0,1.0,5.m4v,9.0
2024-02-28 11:37:28.651177,1709116648.651177,-43.45703125,-240.72265625,-105.95703125,-82.03125,1.0,1.0,1.0,1.0,5.m4v,9.0
2024-02-28 11:37:28.651177,1709116648.651177,-43.45703125,-240.72265625,-105.95703125,-82.03125,1.0,1.0,1.0,1.0,5.m4v,9.0
2024-02-28 11:37:28.655083,1709116648.6550827,-37.59765625,-247.55859375,-101.5625,-90.8203125,1.0,1.0,1.0,1.0,5.m4v,9.0
2024-02-28 11:37:28.655083,1709116648.6550827,-37.59765625,-247.55859375,-101.5625,-90.8203125,1.0,1.0,1.0,1.0,5.m4v,9.0
2024-02-28 11:37:28.658989,1709116648.6589894,-48.33984375,-260.7421875,-111.328125,-76.171875,1.0,1.0,1.0,1.0,5.m4v,9.0
2024-02-28 11:37:28.658989,1709116648.6589894,-48.33984375,-260.7421875,-111.328125,-76.171875,1.0,1.0,1.0,1.0,5.m4v,9.0
2024-02-28 11:37:28.658989,1709116648.6589894,-48.33984375,-260.7421875,-111.328125,-76.171875,1.0,1.0,1.0,1.0,5.m4v,9.0
2024-02-28 11:37:28.662895,1709116648.6628952,-50.29296875,-267.08984375,-135.25390625,-67.87109375,1.0,1.0,1.0,1.0,5.m4v,9.0
2024-02-28 11:37:28.662895,1709116648.6628952,-50.29296875,-267.08984375,-135.25390625,-67.87109375,1.0,1.0,1.0,1.0,5.m4v,9.0
2024-02-28 11:37:28.662895,1709116648.6628952,-50.29296875,-267.08984375,-135.25390625,-67.87109375,1.0,1.0,1.0,1.0,5.m4v,9.0
2024-02-28 11:37:28.666801,1709116648.6668012,-50.29296875,-257.32421875,-129.8828125,-83.0078125,1.0,1.0,1.0,1.0,5.m4v,9.0
2024-02-28 11:37:28.666801,1709116648.6668012,-50.29296875,-257.32421875,-129.8828125,-83.0078125,1.0,1.0,1.0,1.0,5.m4v,9.0
2024-02-28 11:37:28.666801,1709116648.6668012,-50.29296875,-257.32421875,-129.8828125,-83.0078125,1.0,1.0,1.0,1.0,5.m4v,9.0
2024-02-28 11:37:28.670707,1709116648.6707072,-55.17578125,-256.8359375,-121.09375,-77.63671875,1.0,1.0,1.0,1.0,5.m4v,9.0
2024-02-28 11:37:28.670707,1709116648.6707072,-55.17578125,-256.8359375,-121.09375,-77.63671875,1.0,1.0,1.0,1.0,5.m4v,9.0
2024-02-28 11:37:28.670707,1709116648.6707072,-55.17578125,-256.8359375,-121.09375,-77.63671875,1.0,1.0,1.0,1.0,5.m4v,9.0
2024-02-28 11:37:28.674613,1709116648.6746132,-56.15234375,-257.32421875,-106.93359375,-79.58984375,1.0,1.0,1.0,1.0,5.m4v,9.0
2024-02-28 11:37:28.674613,1709116648.6746132,-56.15234375,-257.32421875,-106.93359375,-79.58984375,1.0,1.0,1.0,1.0,5.m4v,9.0
2024-02-28 11:37:28.674613,1709116648.6746132,-56.15234375,-257.32421875,-106.93359375,-79.58984375,1.0,1.0,1.0,1.0,5.m4v,9.0
2024-02-28 11:37:28.678519,1709116648.678519,-46.875,-253.90625,-90.33203125,-95.703125,1.0,1.0,1.0,1.0,5.m4v,9.0
2024-02-28 11:37:28.678519,1709116648.678519,-46.875,-253.90625,-90.33203125,-95.703125,1.0,1.0,1.0,1.0,5.m4v,9.0
2024-02-28 11:37:28.678519,1709116648.678519,-46.875,-253.90625,-90.33203125,-95.703125,1.0,1.0,1.0,1.0,5.m4v,9.0
2024-02-28 11:37:28.682425,1709116648.682425,-41.015625,-253.41796875,-110.3515625,-62.98828125,1.0,1.0,1.0,1.0,5.m4v,9.0
2024-02-28 11:37:28.682425,1709116648.682425,-41.015625,-253.41796875,-110.3515625,-62.98828125,1.0,1.0,1.0,1.0,5.m4v,9.0
2024-02-28 11:37:28.682425,1709116648.682425,-41.015625,-253.41796875,-110.3515625,-62.98828125,1.0,1.0,1.0,1.0,5.m4v,9.0
2024-02-28 11:37:28.686331,1709116648.686331,-59.5703125,-257.8125,-127.44140625,-60.05859375,1.0,1.0,1.0,1.0,5.m4v,9.0
2024-02-28 11:37:28.686331,1709116648.686331,-59.5703125,-257.8125,-127.44140625,-60.05859375,1.0,1.0,1.0,1.0,5.m4v,9.0
2024-02-28 11:37:28.690237,1709116648.690237,-70.3125,-260.25390625,-113.76953125,-66.40625,1.0,1.0,1.0,1.0,5.m4v,9.0
2024-02-28 11:37:28.690237,1709116648.690237,-70.3125,-260.25390625,-113.76953125,-66.40625,1.0,1.0,1.0,1.0,5.m4v,9.0
2024-02-28 11:37:28.694143,1709116648.6941428,-60.05859375,-251.953125,-104.4921875,-54.19921875,1.0,1.0,1.0,1.0,5.m4v,9.0
2024-02-28 11:37:28.694143,1709116648.6941428,-60.05859375,-251.953125,-104.4921875,-54.19921875,1.0,1.0,1.0,1.0,5.m4v,9.0
2024-02-28 11:37:28.698049,1709116648.6980488,-66.89453125,-253.90625,-109.86328125,-61.5234375,1.0,1.0,1.0,1.0,5.m4v,9.0
2024-02-28 11:37:28.698049,1709116648.6980488,-66.89453125,-253.90625,-109.86328125,-61.5234375,1.0,1.0,1.0,1.0,5.m4v,9.0
2024-02-28 11:37:28.701955,1709116648.7019548,-77.63671875,-257.8125,-118.1640625,-65.91796875,1.0,1.0,1.0,1.0,5.m4v,9.0
2024-02-28 11:37:28.701955,1709116648.7019548,-77.63671875,-257.8125,-118.1640625,-65.91796875,1.0,1.0,1.0,1.0,5.m4v,9.0
2024-02-28 11:37:28.705863,1709116648.7058623,-77.1484375,-237.79296875,-125.0,-88.37890625,1.0,1.0,1.0,1.0,5.m4v,9.0
2024-02-28 11:37:28.705863,1709116648.7058623,-77.1484375,-237.79296875,-125.0,-88.37890625,1.0,1.0,1.0,1.0,5.m4v,9.0
2024-02-28 11:37:28.709769,1709116648.7097683,-70.3125,-215.8203125,-125.9765625,-98.6328125,1.0,1.0,1.0,1.0,5.m4v,9.0
2024-02-28 11:37:28.709769,1709116648.7097683,-70.3125,-215.8203125,-125.9765625,-98.6328125,1.0,1.0,1.0,1.0,5.m4v,9.0
2024-02-28 11:37:28.713675,1709116648.7136743,-75.68359375,-229.4921875,-123.046875,-86.42578125,1.0,1.0,1.0,1.0,5.m4v,9.0
2024-02-28 11:37:28.713675,1709116648.7136743,-75.68359375,-229.4921875,-123.046875,-86.42578125,1.0,1.0,1.0,1.0,5.m4v,9.0
2024-02-28 11:37:28.717581,1709116648.7175806,-64.94140625,-245.1171875,-116.69921875,-70.80078125,1.0,1.0,1.0,1.0,5.m4v,9.0
2024-02-28 11:37:28.717581,1709116648.7175806,-64.94140625,-245.1171875,-116.69921875,-70.80078125,1.0,1.0,1.0,1.0,5.m4v,9.0
2024-02-28 11:37:28.721486,1709116648.7214863,-61.03515625,-224.12109375,-118.65234375,-82.51953125,1.0,1.0,1.0,1.0,5.m4v,9.0
2024-02-28 11:37:28.721486,1709116648.7214863,-61.03515625,-224.12109375,-118.65234375,-82.51953125,1.0,1.0,1.0,1.0,5.m4v,9.0
2024-02-28 11:37:28.725392,1709116648.7253923,-72.75390625,-221.19140625,-128.90625,-96.6796875,1.0,1.0,1.0,1.0,5.m4v,9.0
2024-02-28 11:37:28.725392,1709116648.7253923,-72.75390625,-221.19140625,-128.90625,-96.6796875,1.0,1.0,1.0,1.0,5.m4v,9.0
2024-02-28 11:37:28.729298,1709116648.7292984,-56.15234375,-235.3515625,-138.671875,-62.5,1.0,1.0,1.0,1.0,5.m4v,9.0
2024-02-28 11:37:28.729298,1709116648.7292984,-56.15234375,-235.3515625,-138.671875,-62.5,1.0,1.0,1.0,1.0,5.m4v,9.0
2024-02-28 11:37:28.733204,1709116648.7332044,-53.22265625,-241.69921875,-146.97265625,-73.2421875,1.0,1.0,1.0,1.0,5.m4v,9.0
2024-02-28 11:37:28.733204,1709116648.7332044,-53.22265625,-241.69921875,-146.97265625,-73.2421875,1.0,1.0,1.0,1.0,5.m4v,9.0
2024-02-28 11:37:28.737110,1709116648.73711,-49.8046875,-235.83984375,-134.765625,-87.40234375,1.0,1.0,1.0,1.0,5.m4v,9.0
2024-02-28 11:37:28.741016,1709116648.741016,-52.24609375,-215.33203125,-104.98046875,-84.9609375,1.0,1.0,1.0,1.0,5.m4v,9.0
2024-02-28 11:37:28.744922,1709116648.7449222,-51.26953125,-216.30859375,-102.5390625,-94.23828125,1.0,1.0,1.0,1.0,5.m4v,9.0
2024-02-28 11:37:28.748828,1709116648.7488282,-42.96875,-224.609375,-110.83984375,-83.0078125,1.0,1.0,1.0,1.0,5.m4v,9.0
2024-02-28 11:37:28.752736,1709116648.7527356,-38.0859375,-214.35546875,-108.3984375,-72.265625,1.0,1.0,1.0,1.0,5.m4v,9.0
2024-02-28 11:37:28.756642,1709116648.7566416,-21.484375,-212.40234375,-122.0703125,-79.1015625,1.0,1.0,1.0,1.0,5.m4v,9.0
2024-02-28 11:37:28.760548,1709116648.7605476,-13.671875,-212.890625,-124.51171875,-103.02734375,1.0,1.0,1.0,1.0,5.m4v,9.0
2024-02-28 11:37:28.764454,1709116648.7644536,-21.484375,-211.9140625,-116.2109375,-89.35546875,1.0,1.0,1.0,1.0,5.m4v,9.0
2024-02-28 11:37:28.768359,1709116648.7683594,-33.69140625,-225.09765625,-110.83984375,-62.01171875,1.0,1.0,1.0,1.0,5.m4v,9.0
2024-02-28 11:37:28.772265,1709116648.7722654,-34.66796875,-224.12109375,-105.95703125,-69.82421875,1.0,1.0,1.0,1.0,5.m4v,9.0
2024-02-28 11:37:28.776171,1709116648.7761714,-28.80859375,-224.609375,-114.74609375,-76.171875,1.0,1.0,1.0,1.0,5.m4v,9.0
2024-02-28 11:37:28.780077,1709116648.7800777,-22.4609375,-225.09765625,-114.74609375,-67.87109375,1.0,1.0,1.0,1.0,5.m4v,9.0
2024-02-28 11:37:28.783983,1709116648.7839832,-21.484375,-211.42578125,-117.1875,-63.96484375,1.0,1.0,1.0,1.0,5.m4v,9.0
2024-02-28 11:37:28.787889,1709116648.7878892,-35.64453125,-214.84375,-126.953125,-70.3125,1.0,1.0,1.0,1.0,5.m4v,9.0
2024-02-28 11:37:28.791795,1709116648.7917953,-40.52734375,-211.9140625,-129.8828125,-75.1953125,1.0,1.0,1.0,1.0,5.m4v,9.0
2024-02-28 11:37:28.795701,1709116648.7957013,-44.43359375,-200.68359375,-129.39453125,-83.984375,1.0,1.0,1.0,1.0,5.m4v,9.0
2024-02-28 11:37:28.799609,1709116648.7996087,-50.29296875,-208.49609375,-122.55859375,-86.9140625,1.0,1.0,1.0,1.0,5.m4v,9.0
2024-02-28 11:37:28.803515,1709116648.8035147,-60.05859375,-223.6328125,-120.60546875,-82.51953125,1.0,1.0,1.0,1.0,5.m4v,9.0
2024-02-28 11:37:28.807421,1709116648.8074207,-66.89453125,-224.12109375,-123.046875,-88.37890625,1.0,1.0,1.0,1.0,5.m4v,9.0
2024-02-28 11:37:28.811327,1709116648.8113265,-64.453125,-220.703125,-125.0,-92.7734375,1.0,1.0,1.0,1.0,5.m4v,9.0
2024-02-28 11:37:28.815233,1709116648.8152325,-63.96484375,-222.65625,-128.41796875,-102.5390625,1.0,1.0,1.0,1.0,5.m4v,9.0
2024-02-28 11:37:28.819139,1709116648.8191383,-69.82421875,-223.6328125,-134.765625,-106.4453125,1.0,1.0,1.0,1.0,5.m4v,9.0
2024-02-28 11:37:28.823045,1709116648.8230443,-78.61328125,-217.7734375,-136.71875,-102.5390625,1.0,1.0,1.0,1.0,5.m4v,9.0
2024-02-28 11:37:28.826950,1709116648.8269503,-81.54296875,-213.8671875,-128.41796875,-108.3984375,1.0,1.0,1.0,1.0,5.m4v,9.0
2024-02-28 11:37:28.830856,1709116648.8308563,-68.84765625,-212.890625,-117.67578125,-101.07421875,1.0,1.0,1.0,1.0,5.m4v,9.0
2024-02-28 11:37:28.834762,1709116648.8347623,-75.1953125,-214.84375,-117.1875,-101.5625,1.0,1.0,1.0,1.0,5.m4v,9.0
2024-02-28 11:37:28.838668,1709116648.8386683,-88.8671875,-218.26171875,-106.93359375,-105.46875,1.0,1.0,1.0,1.0,5.m4v,9.0
2024-02-28 11:37:28.842574,1709116648.842574,-78.125,-215.33203125,-90.33203125,-91.30859375,1.0,1.0,1.0,1.0,5.m4v,9.0
2024-02-28 11:37:28.846482,1709116648.8464818,-79.1015625,-201.66015625,-95.21484375,-88.8671875,1.0,1.0,1.0,1.0,5.m4v,9.0
2024-02-28 11:37:28.850388,1709116648.8503878,-77.1484375,-190.91796875,-103.515625,-111.81640625,1.0,1.0,1.0,1.0,5.m4v,9.0
2024-02-28 11:37:28.854294,1709116648.8542936,-71.2890625,-199.70703125,-110.3515625,-113.28125,1.0,1.0,1.0,1.0,5.m4v,9.0
2024-02-28 11:37:28.858200,1709116648.8581996,-62.01171875,-201.171875,-117.1875,-65.4296875,1.0,1.0,1.0,1.0,5.m4v,9.0
2024-02-28 11:37:28.862106,1709116648.8621056,-33.69140625,-198.2421875,-102.5390625,-61.03515625,1.0,1.0,1.0,1.0,5.m4v,9.0
2024-02-28 11:37:28.866012,1709116648.8660116,-43.9453125,-212.40234375,-85.44921875,-58.10546875,1.0,1.0,1.0,1.0,5.m4v,9.0
2024-02-28 11:37:28.869917,1709116648.8699174,-44.43359375,-229.98046875,-94.23828125,-25.390625,1.0,1.0,1.0,1.0,5.m4v,9.0
2024-02-28 11:37:28.873823,1709116648.8738234,-25.87890625,-212.40234375,-125.48828125,-26.3671875,1.0,1.0,1.0,1.0,5.m4v,9.0
2024-02-28 11:37:28.877729,1709116648.8777294,-11.23046875,-185.05859375,-144.53125,-30.2734375,1.0,1.0,1.0,1.0,5.m4v,9.0
2024-02-28 11:37:28.881635,1709116648.8816354,0.9765625,-201.171875,-128.41796875,-18.5546875,1.0,1.0,1.0,1.0,5.m4v,9.0
2024-02-28 11:37:28.885541,1709116648.8855412,-5.859375,-211.9140625,-101.5625,-18.5546875,1.0,1.0,1.0,1.0,5.m4v,9.0
2024-02-28 11:37:28.889447,1709116648.8894472,6.8359375,-179.6875,-80.56640625,-22.94921875,1.0,1.0,1.0,1.0,5.m4v,9.0
2024-02-28 11:37:28.893354,1709116648.8933544,3.41796875,-166.015625,-101.07421875,-21.484375,1.0,1.0,1.0,1.0,5.m4v,9.0
2024-02-28 11:37:28.897260,1709116648.8972604,0.0,-170.41015625,-128.90625,-16.11328125,1.0,1.0,1.0,1.0,5.m4v,9.0
2024-02-28 11:37:28.901166,1709116648.9011662,4.8828125,-177.24609375,-108.3984375,-9.765625,1.0,1.0,1.0,1.0,5.m4v,9.0
2024-02-28 11:37:28.905072,1709116648.9050722,20.99609375,-195.80078125,-87.890625,-33.203125,1.0,1.0,1.0,1.0,5.m4v,9.0
2024-02-28 11:37:28.908978,1709116648.9089782,36.1328125,-193.84765625,-82.03125,-5.37109375,1.0,1.0,1.0,1.0,5.m4v,9.0
2024-02-28 11:37:28.912884,1709116648.9128842,6.8359375,-193.359375,-83.984375,24.4140625,1.0,1.0,1.0,1.0,5.m4v,9.0
2024-02-28 11:37:28.916790,1709116648.91679,3.41796875,-213.37890625,-88.8671875,-1.953125,1.0,1.0,1.0,1.0,5.m4v,9.0
2024-02-28 11:37:28.920696,1709116648.920696,9.27734375,-230.46875,-107.421875,2.9296875,1.0,1.0,1.0,1.0,5.m4v,9.0
2024-02-28 11:37:28.924602,1709116648.924602,17.08984375,-227.05078125,-125.9765625,-24.4140625,1.0,1.0,1.0,1.0,5.m4v,9.0
2024-02-28 11:37:28.928508,1709116648.928508,13.671875,-200.68359375,-129.39453125,-33.203125,1.0,1.0,1.0,1.0,5.m4v,9.0
2024-02-28 11:37:28.932414,1709116648.9324138,-4.39453125,-180.17578125,-113.28125,13.671875,1.0,1.0,1.0,1.0,5.m4v,9.0
2024-02-28 11:37:28.936320,1709116648.9363198,4.8828125,-184.5703125,-93.26171875,3.90625,1.0,1.0,1.0,1.0,5.m4v,9.0
2024-02-28 11:37:28.940227,1709116648.9402268,3.90625,-184.5703125,-89.35546875,-16.11328125,1.0,1.0,1.0,1.0,5.m4v,9.0
2024-02-28 11:37:28.944133,1709116648.9441328,1.46484375,-177.24609375,-92.28515625,-4.39453125,1.0,1.0,1.0,1.0,5.m4v,9.0
2024-02-28 11:37:28.948039,1709116648.9480388,3.90625,-183.59375,-92.28515625,4.39453125,1.0,1.0,1.0,1.0,5.m4v,9.0
2024-02-28 11:37:28.951945,1709116648.9519446,3.41796875,-190.4296875,-87.40234375,-0.9765625,1.0,1.0,1.0,1.0,5.m4v,9.0
2024-02-28 11:37:28.955851,1709116648.9558506,19.53125,-203.125,-93.75,-5.859375,1.0,1.0,1.0,1.0,5.m4v,9.0
2024-02-28 11:37:28.959757,1709116648.9597566,24.4140625,-206.0546875,-96.6796875,-7.8125,1.0,1.0,1.0,1.0,5.m4v,9.0
2024-02-28 11:37:28.963663,1709116648.9636626,15.13671875,-198.2421875,-104.4921875,-17.578125,1.0,1.0,1.0,1.0,5.m4v,9.0
2024-02-28 11:37:28.967568,1709116648.9675684,21.97265625,-204.58984375,-114.2578125,4.39453125,1.0,1.0,1.0,1.0,5.m4v,9.0
2024-02-28 11:37:28.971474,1709116648.9714744,13.671875,-201.171875,-109.375,-10.25390625,1.0,1.0,1.0,1.0,5.m4v,9.0
2024-02-28 11:37:28.975380,1709116648.9753804,5.859375,-198.2421875,-105.95703125,-22.94921875,1.0,1.0,1.0,1.0,5.m4v,9.0
2024-02-28 11:37:28.979286,1709116648.9792864,4.39453125,-207.51953125,-108.3984375,30.2734375,1.0,1.0,1.0,1.0,5.m4v,9.0
2024-02-28 11:37:28.983192,1709116648.9831922,-0.48828125,-199.21875,-106.4453125,22.94921875,1.0,1.0,1.0,1.0,5.m4v,9.0
2024-02-28 11:37:28.987099,1709116648.9870994,0.48828125,-185.546875,-105.46875,7.32421875,1.0,1.0,1.0,1.0,5.m4v,9.0
2024-02-28 11:37:28.991005,1709116648.9910052,11.23046875,-189.453125,-118.65234375,-7.32421875,1.0,1.0,1.0,1.0,5.m4v,9.0
2024-02-28 11:37:28.994911,1709116648.9949112,16.11328125,-192.3828125,-124.0234375,-6.8359375,1.0,1.0,1.0,1.0,5.m4v,9.0
2024-02-28 11:37:28.998817,1709116648.9988172,17.08984375,-204.58984375,-125.0,-2.9296875,1.0,1.0,1.0,1.0,5.m4v,9.0
2024-02-28 11:37:29.002723,1709116649.0027232,13.671875,-211.9140625,-116.69921875,-19.04296875,1.0,1.0,1.0,1.0,5.m4v,9.0
2024-02-28 11:37:29.006629,1709116649.006629,25.87890625,-193.84765625,-103.515625,-10.25390625,1.0,1.0,1.0,1.0,5.m4v,9.0
2024-02-28 11:37:29.010535,1709116649.010535,24.4140625,-201.171875,-105.46875,-1.46484375,1.0,1.0,1.0,1.0,5.m4v,9.0
2024-02-28 11:37:29.014441,1709116649.014441,6.8359375,-199.70703125,-100.5859375,-4.8828125,1.0,1.0,1.0,1.0,5.m4v,9.0
2024-02-28 11:37:29.018347,1709116649.018347,6.8359375,-183.10546875,-96.6796875,-9.27734375,1.0,1.0,1.0,1.0,5.m4v,9.0
2024-02-28 11:37:29.022253,1709116649.0222528,0.48828125,-188.96484375,-109.375,-13.18359375,1.0,1.0,1.0,1.0,5.m4v,9.0
2024-02-28 11:37:29.026159,1709116649.0261588,9.27734375,-190.91796875,-118.65234375,-22.94921875,1.0,1.0,1.0,1.0,5.m4v,9.0
2024-02-28 11:37:29.030065,1709116649.0300648,20.5078125,-184.5703125,-116.2109375,-24.90234375,1.0,1.0,1.0,1.0,5.m4v,9.0
2024-02-28 11:37:29.033972,1709116649.0339715,14.6484375,-187.5,-108.88671875,-16.6015625,1.0,1.0,1.0,1.0,5.m4v,9.0
2024-02-28 11:37:29.037878,1709116649.0378776,16.11328125,-205.56640625,-107.421875,-16.6015625,1.0,1.0,1.0,1.0,5.m4v,9.0
2024-02-28 11:37:29.041784,1709116649.0417836,29.296875,-203.61328125,-103.515625,-11.71875,1.0,1.0,1.0,1.0,5.m4v,9.0
2024-02-28 11:37:29.045689,1709116649.045689,28.3203125,-187.98828125,-104.4921875,-9.765625,1.0,1.0,1.0,1.0,5.m4v,9.0
2024-02-28 11:37:29.049595,1709116649.0495954,19.04296875,-190.91796875,-113.76953125,-18.06640625,1.0,1.0,1.0,1.0,5.m4v,9.0
2024-02-28 11:37:29.053501,1709116649.0535014,27.83203125,-189.453125,-113.76953125,-23.4375,1.0,1.0,1.0,1.0,5.m4v,9.0
2024-02-28 11:37:29.057407,1709116649.0574074,17.578125,-184.5703125,-117.67578125,-18.5546875,1.0,1.0,1.0,1.0,5.m4v,9.0
2024-02-28 11:37:29.061313,1709116649.0613132,12.6953125,-184.08203125,-125.0,-25.390625,1.0,1.0,1.0,1.0,5.m4v,9.0
2024-02-28 11:37:29.065219,1709116649.0652192,29.78515625,-183.59375,-111.328125,-60.05859375,1.0,1.0,1.0,1.0,5.m4v,9.0
2024-02-28 11:37:29.069125,1709116649.0691252,9.765625,-205.078125,-92.28515625,3.41796875,1.0,1.0,1.0,1.0,5.m4v,9.0
2024-02-28 11:37:29.073031,1709116649.0730312,-14.6484375,-208.0078125,-90.33203125,19.04296875,1.0,1.0,1.0,1.0,5.m4v,9.0
2024-02-28 11:37:29.076937,1709116649.076937,-22.4609375,-197.265625,-104.98046875,-33.69140625,1.0,1.0,1.0,1.0,5.m4v,9.0
2024-02-28 11:37:29.080845,1709116649.0808449,-17.578125,-192.87109375,-113.76953125,-30.76171875,1.0,1.0,1.0,1.0,5.m4v,9.0
2024-02-28 11:37:29.084751,1709116649.084751,-3.41796875,-180.17578125,-115.72265625,-29.78515625,1.0,1.0,1.0,1.0,5.m4v,9.0
2024-02-28 11:37:29.088657,1709116649.088657,-3.41796875,-181.640625,-111.328125,-15.625,1.0,1.0,1.0,1.0,5.m4v,9.0
2024-02-28 11:37:29.092563,1709116649.092563,-6.8359375,-187.01171875,-101.07421875,-15.13671875,1.0,1.0,1.0,1.0,5.m4v,9.0
2024-02-28 11:37:29.096469,1709116649.0964687,7.32421875,-184.5703125,-101.07421875,-21.97265625,1.0,1.0,1.0,1.0,5.m4v,9.0
2024-02-28 11:37:29.100375,1709116649.1003747,4.8828125,-186.03515625,-103.02734375,-26.85546875,1.0,1.0,1.0,1.0,5.m4v,9.0
2024-02-28 11:37:29.104281,1709116649.1042807,-13.671875,-185.546875,-118.65234375,-30.2734375,1.0,1.0,1.0,1.0,5.m4v,9.0
2024-02-28 11:37:29.108186,1709116649.1081865,-18.5546875,-183.10546875,-118.65234375,-27.83203125,1.0,1.0,1.0,1.0,5.m4v,9.0
2024-02-28 11:37:29.112092,1709116649.1120925,-13.18359375,-194.82421875,-96.6796875,-30.76171875,1.0,1.0,1.0,1.0,5.m4v,9.0
2024-02-28 11:37:29.115999,1709116649.1159985,-0.9765625,-198.73046875,-102.5390625,-31.73828125,1.0,1.0,1.0,1.0,5.m4v,9.0
2024-02-28 11:37:29.119905,1709116649.1199045,-2.9296875,-185.05859375,-110.83984375,-22.4609375,1.0,1.0,1.0,1.0,5.m4v,9.0
2024-02-28 11:37:29.123810,1709116649.1238103,-21.484375,-177.734375,-95.703125,-23.4375,1.0,1.0,1.0,1.0,5.m4v,9.0
2024-02-28 11:37:29.127718,1709116649.127718,-34.66796875,-185.05859375,-96.19140625,-38.57421875,1.0,1.0,1.0,1.0,5.m4v,9.0
2024-02-28 11:37:29.131624,1709116649.131624,-33.69140625,-181.15234375,-100.09765625,-41.015625,1.0,1.0,1.0,1.0,5.m4v,9.0
2024-02-28 11:37:29.135530,1709116649.13553,-23.4375,-181.640625,-102.5390625,-25.87890625,1.0,1.0,1.0,1.0,5.m4v,9.0
2024-02-28 11:37:29.139436,1709116649.139436,-21.97265625,-191.89453125,-106.93359375,-15.13671875,1.0,1.0,1.0,1.0,5.m4v,9.0
2024-02-28 11:37:29.143342,1709116649.1433418,-11.71875,-194.3359375,-100.09765625,-16.11328125,1.0,1.0,1.0,1.0,5.m4v,9.0
2024-02-28 11:37:29.147248,1709116649.1472478,-19.04296875,-193.359375,-104.00390625,-18.5546875,1.0,1.0,1.0,1.0,5.m4v,9.0
2024-02-28 11:37:29.151154,1709116649.1511538,-25.87890625,-194.82421875,-103.515625,-24.90234375,1.0,1.0,1.0,1.0,5.m4v,9.0
2024-02-28 11:37:29.155060,1709116649.1550598,-13.18359375,-206.54296875,-103.515625,-20.99609375,1.0,1.0,1.0,1.0,5.m4v,9.0
2024-02-28 11:37:29.162872,1709116649.1628716,-8.7890625,-189.453125,-124.0234375,-16.6015625,1.0,1.0,1.0,1.0,5.m4v,9.0
2024-02-28 11:37:29.178497,1709116649.178497,-8.30078125,-176.26953125,-110.3515625,-25.390625,1.0,1.0,1.0,1.0,5.m4v,9.0
2024-02-28 11:37:29.194121,1709116649.194121,-3.41796875,-168.9453125,-93.26171875,-7.8125,1.0,1.0,1.0,1.0,5.m4v,9.0
2024-02-28 11:37:29.209745,1709116649.2097447,-12.20703125,-184.08203125,-109.375,-4.8828125,1.0,1.0,1.0,1.0,5.m4v,9.0
2024-02-28 11:37:29.225370,1709116649.22537,-22.4609375,-181.15234375,-127.44140625,-29.78515625,1.0,1.0,1.0,1.0,5.m4v,9.0
2024-02-28 11:37:29.240994,1709116649.2409935,-14.6484375,-170.41015625,-115.234375,-28.80859375,1.0,1.0,1.0,1.0,5.m4v,9.0
2024-02-28 11:37:29.256618,1709116649.2566175,-19.53125,-187.98828125,-105.95703125,-38.0859375,1.0,1.0,1.0,1.0,5.m4v,9.0
2024-02-28 11:37:29.268337,1709116649.2683368,-18.06640625,-175.78125,-123.53515625,-27.34375,1.0,1.0,1.0,1.0,5.m4v,9.0
2024-02-28 11:37:29.280055,1709116649.2800546,-17.08984375,-179.6875,-115.72265625,-28.80859375,1.0,1.0,1.0,1.0,5.m4v,9.0
2024-02-28 11:37:29.291772,1709116649.2917724,-27.34375,-187.5,-104.00390625,-31.73828125,1.0,1.0,1.0,1.0,5.m4v,9.0
2024-02-28 11:37:29.307396,1709116649.3073962,-11.23046875,-171.875,-108.88671875,-29.296875,1.0,1.0,1.0,1.0,5.m4v,9.0
2024-02-28 11:37:29.319115,1709116649.3191152,-0.9765625,-205.56640625,-102.5390625,-27.83203125,1.0,1.0,1.0,1.0,5.m4v,9.0
2024-02-28 11:37:29.549575,1709116649.5495746,-5.37109375,-139.16015625,-111.81640625,-52.24609375,1.0,1.0,1.0,1.0,5.m4v,9.0
2024-02-28 11:37:29.553481,1709116649.5534806,-16.6015625,-143.06640625,-103.02734375,-63.96484375,1.0,1.0,1.0,1.0,5.m4v,9.0
2024-02-28 11:37:29.557387,1709116649.5573866,-0.9765625,-144.53125,-96.6796875,-45.8984375,1.0,1.0,1.0,1.0,5.m4v,9.0
2024-02-28 11:37:29.561292,1709116649.5612924,-1.953125,-138.18359375,-107.421875,-24.90234375,1.0,1.0,1.0,1.0,5.m4v,9.0
2024-02-28 11:37:29.565198,1709116649.5651984,-5.37109375,-132.32421875,-120.60546875,-6.34765625,1.0,1.0,1.0,1.0,5.m4v,9.0
2024-02-28 11:37:29.569104,1709116649.5691044,-4.39453125,-134.27734375,-120.1171875,-13.671875,1.0,1.0,1.0,1.0,5.m4v,9.0
2024-02-28 11:37:29.573010,1709116649.5730104,-0.9765625,-138.671875,-121.09375,-20.5078125,1.0,1.0,1.0,1.0,5.m4v,9.0
2024-02-28 11:37:29.576916,1709116649.5769162,-8.7890625,-159.1796875,-123.046875,-20.01953125,1.0,1.0,1.0,1.0,5.m4v,9.0
2024-02-28 11:37:29.580822,1709116649.5808222,-21.97265625,-173.828125,-107.91015625,-28.3203125,1.0,1.0,1.0,1.0,5.m4v,9.0
2024-02-28 11:37:29.584728,1709116649.5847282,-15.625,-162.109375,-85.44921875,-19.53125,1.0,1.0,1.0,1.0,5.m4v,9.0
2024-02-28 11:37:29.588634,1709116649.5886345,-13.671875,-153.3203125,-75.1953125,-1.953125,1.0,1.0,1.0,1.0,5.m4v,9.0
2024-02-28 11:37:29.592540,1709116649.59254,-28.3203125,-138.671875,-92.28515625,-28.3203125,1.0,1.0,1.0,1.0,5.m4v,9.0
2024-02-28 11:37:29.596447,1709116649.5964477,-29.296875,-133.7890625,-107.91015625,-49.8046875,1.0,1.0,1.0,1.0,5.m4v,9.0
2024-02-28 11:37:29.600353,1709116649.6003537,-26.3671875,-150.390625,-104.4921875,-43.9453125,1.0,1.0,1.0,1.0,5.m4v,9.0
2024-02-28 11:37:29.604259,1709116649.6042595,-21.484375,-147.94921875,-100.5859375,-37.109375,1.0,1.0,1.0,1.0,5.m4v,9.0
2024-02-28 11:37:29.608165,1709116649.6081653,-28.80859375,-136.71875,-95.703125,-29.78515625,1.0,1.0,1.0,1.0,5.m4v,9.0
2024-02-28 11:37:29.612071,1709116649.6120713,-22.4609375,-129.8828125,-102.05078125,-53.7109375,1.0,1.0,1.0,1.0,5.m4v,9.0
2024-02-28 11:37:29.615977,1709116649.6159773,-9.27734375,-129.39453125,-100.5859375,-59.5703125,1.0,1.0,1.0,1.0,5.m4v,9.0
2024-02-28 11:37:29.619883,1709116649.6198833,-7.8125,-141.11328125,-101.07421875,-29.296875,1.0,1.0,1.0,1.0,5.m4v,9.0
2024-02-28 11:37:29.623789,1709116649.623789,-9.765625,-160.64453125,-103.02734375,0.0,1.0,1.0,1.0,1.0,5.m4v,9.0
2024-02-28 11:37:29.627695,1709116649.627695,-29.296875,-161.62109375,-102.5390625,5.859375,1.0,1.0,1.0,1.0,5.m4v,9.0
2024-02-28 11:37:29.631601,1709116649.631601,-34.66796875,-154.78515625,-104.00390625,-24.4140625,1.0,1.0,1.0,1.0,5.m4v,9.0
2024-02-28 11:37:29.635507,1709116649.635507,-20.01953125,-146.97265625,-92.28515625,-22.4609375,1.0,1.0,1.0,1.0,5.m4v,9.0
2024-02-28 11:37:29.639413,1709116649.6394129,-5.859375,-157.2265625,-84.47265625,-14.6484375,1.0,1.0,1.0,1.0,5.m4v,9.0
2024-02-28 11:37:29.643320,1709116649.64332,-35.15625,-168.45703125,-85.9375,-20.99609375,1.0,1.0,1.0,1.0,5.m4v,9.0
2024-02-28 11:37:29.647226,1709116649.647226,-46.38671875,-140.13671875,-94.7265625,-23.4375,1.0,1.0,1.0,1.0,5.m4v,9.0
2024-02-28 11:37:29.651132,1709116649.651132,-37.59765625,-131.8359375,-103.02734375,-30.2734375,1.0,1.0,1.0,1.0,5.m4v,9.0
2024-02-28 11:37:29.655038,1709116649.655038,-36.62109375,-146.484375,-101.07421875,-19.04296875,1.0,1.0,1.0,1.0,5.m4v,9.0
2024-02-28 11:37:29.658944,1709116649.658944,-29.78515625,-139.16015625,-102.5390625,-58.10546875,1.0,1.0,1.0,1.0,5.m4v,9.0
2024-02-28 11:37:29.662850,1709116649.66285,-29.296875,-123.046875,-110.83984375,-57.12890625,1.0,1.0,1.0,1.0,5.m4v,9.0
2024-02-28 11:37:29.666756,1709116649.666756,-39.55078125,-127.44140625,-134.27734375,-7.8125,1.0,1.0,1.0,1.0,5.m4v,9.0
2024-02-28 11:37:29.670662,1709116649.670662,-35.64453125,-143.5546875,-147.94921875,-29.296875,1.0,1.0,1.0,1.0,5.m4v,9.0
2024-02-28 11:37:29.674568,1709116649.6745677,-6.8359375,-139.6484375,-110.3515625,-31.25,1.0,1.0,1.0,1.0,5.m4v,9.0
2024-02-28 11:37:29.678474,1709116649.6784737,-26.85546875,-141.6015625,-82.51953125,-14.16015625,1.0,1.0,1.0,1.0,5.m4v,9.0
2024-02-28 11:37:29.682380,1709116649.6823795,-58.10546875,-151.3671875,-84.47265625,-20.5078125,1.0,1.0,1.0,1.0,5.m4v,9.0
2024-02-28 11:37:29.686286,1709116649.6862855,-46.38671875,-141.6015625,-88.8671875,-27.83203125,1.0,1.0,1.0,1.0,5.m4v,9.0
2024-02-28 11:37:29.690193,1709116649.690193,-42.48046875,-145.01953125,-93.75,-24.4140625,1.0,1.0,1.0,1.0,5.m4v,9.0
2024-02-28 11:37:29.694099,1709116649.694099,-33.69140625,-148.4375,-91.30859375,-38.0859375,1.0,1.0,1.0,1.0,5.m4v,9.0
2024-02-28 11:37:29.698005,1709116649.698005,-23.4375,-143.06640625,-90.33203125,-44.43359375,1.0,1.0,1.0,1.0,5.m4v,9.0
2024-02-28 11:37:29.701911,1709116649.7019107,-20.01953125,-156.25,-89.35546875,-13.671875,1.0,1.0,1.0,1.0,5.m4v,9.0
2024-02-28 11:37:29.705817,1709116649.7058167,-12.20703125,-166.9921875,-82.03125,-42.96875,1.0,1.0,1.0,1.0,5.m4v,9.0
2024-02-28 11:37:29.709723,1709116649.7097228,-18.06640625,-160.64453125,-96.19140625,-55.17578125,1.0,1.0,1.0,1.0,5.m4v,9.0
2024-02-28 11:37:29.713629,1709116649.7136288,-26.3671875,-166.015625,-115.234375,-0.48828125,1.0,1.0,1.0,1.0,5.m4v,9.0
2024-02-28 11:37:29.717535,1709116649.7175343,-7.8125,-175.29296875,-108.88671875,2.9296875,1.0,1.0,1.0,1.0,5.m4v,9.0
2024-02-28 11:37:29.721441,1709116649.7214406,-7.8125,-172.8515625,-121.58203125,-18.5546875,1.0,1.0,1.0,1.0,5.m4v,9.0
2024-02-28 11:37:29.725347,1709116649.7253466,-25.87890625,-156.73828125,-109.375,-30.2734375,1.0,1.0,1.0,1.0,5.m4v,9.0
2024-02-28 11:37:29.924557,1709116649.924557,-24.90234375,-109.86328125,-85.9375,-25.87890625,1.0,1.0,1.0,1.0,5.m4v,9.0
