Timestamp,Timestamp_UNIX,TP9,AF7,AF8,TP10,Valence,Arousal,Dominace,Viewed,Video,Participant
2024-02-27 11:41:03.002508,1709030463.0025077,-42.96875,-58.10546875,-51.26953125,-26.85546875,-1.0,1.0,0.0,0.0,6.m4v,3.0
2024-02-27 11:41:03.006413,1709030463.0064127,-36.62109375,-38.0859375,-34.1796875,-44.43359375,-1.0,1.0,0.0,0.0,6.m4v,3.0
2024-02-27 11:41:03.010318,1709030463.0103178,-46.875,-34.66796875,-47.36328125,-62.5,-1.0,1.0,0.0,0.0,6.m4v,3.0
2024-02-27 11:41:03.014223,1709030463.0142229,-61.03515625,-50.78125,-67.3828125,-57.12890625,-1.0,1.0,0.0,0.0,6.m4v,3.0
2024-02-27 11:41:03.018128,1709030463.018128,-50.29296875,-45.41015625,-46.875,-29.78515625,-1.0,1.0,0.0,0.0,6.m4v,3.0
2024-02-27 11:41:03.022042,1709030463.022042,-36.1328125,-48.33984375,-17.578125,-22.4609375,-1.0,1.0,0.0,0.0,6.m4v,3.0
2024-02-27 11:41:03.025947,1709030463.025947,-21.484375,-29.296875,-18.06640625,-18.06640625,-1.0,1.0,0.0,0.0,6.m4v,3.0
2024-02-27 11:41:03.029852,1709030463.0298522,-25.390625,-26.3671875,-38.57421875,-34.66796875,-1.0,1.0,0.0,0.0,6.m4v,3.0
2024-02-27 11:41:03.033757,1709030463.0337572,-38.57421875,-57.12890625,-40.0390625,-54.19921875,-1.0,1.0,0.0,0.0,6.m4v,3.0
2024-02-27 11:41:03.037662,1709030463.0376625,-27.34375,-42.48046875,-22.94921875,-25.87890625,-1.0,1.0,0.0,0.0,6.m4v,3.0
2024-02-27 11:41:03.041567,1709030463.041567,-20.5078125,-15.625,-25.87890625,-14.16015625,-1.0,1.0,0.0,0.0,6.m4v,3.0
2024-02-27 11:41:03.045472,1709030463.0454724,-28.80859375,-44.921875,-47.36328125,-44.43359375,-1.0,1.0,0.0,0.0,6.m4v,3.0
2024-02-27 11:41:03.049377,1709030463.0493772,-29.296875,-62.5,-48.828125,-53.7109375,-1.0,1.0,0.0,0.0,6.m4v,3.0
2024-02-27 11:41:03.053282,1709030463.0532825,-25.87890625,-24.90234375,-53.22265625,-39.0625,-1.0,1.0,0.0,0.0,6.m4v,3.0
2024-02-27 11:41:03.057187,1709030463.0571873,-30.2734375,-23.92578125,-44.921875,-22.4609375,-1.0,1.0,0.0,0.0,6.m4v,3.0
2024-02-27 11:41:03.061092,1709030463.0610924,-34.1796875,-23.4375,-14.6484375,-17.08984375,-1.0,1.0,0.0,0.0,6.m4v,3.0
2024-02-27 11:41:03.064997,1709030463.0649974,-39.0625,-23.4375,-9.27734375,-44.921875,-1.0,1.0,0.0,0.0,6.m4v,3.0
2024-02-27 11:41:03.068912,1709030463.0689116,-43.9453125,-27.83203125,-20.5078125,-63.96484375,-1.0,1.0,0.0,0.0,6.m4v,3.0
2024-02-27 11:41:03.072816,1709030463.0728164,-50.29296875,-33.69140625,-34.1796875,-62.98828125,-1.0,1.0,0.0,0.0,6.m4v,3.0
2024-02-27 11:41:03.076721,1709030463.0767214,-41.50390625,-40.0390625,-35.64453125,-34.66796875,-1.0,1.0,0.0,0.0,6.m4v,3.0
2024-02-27 11:41:03.080626,1709030463.0806265,-32.2265625,-23.92578125,-42.48046875,-7.32421875,-1.0,1.0,0.0,0.0,6.m4v,3.0
2024-02-27 11:41:03.084532,1709030463.0845315,-35.15625,-24.90234375,-44.921875,-30.76171875,-1.0,1.0,0.0,0.0,6.m4v,3.0
2024-02-27 11:41:03.088437,1709030463.0884366,-44.43359375,-34.1796875,-38.0859375,-59.08203125,-1.0,1.0,0.0,0.0,6.m4v,3.0
2024-02-27 11:41:03.092342,1709030463.0923417,-38.0859375,-25.87890625,-41.9921875,-41.9921875,-1.0,1.0,0.0,0.0,6.m4v,3.0
2024-02-27 11:41:03.096247,1709030463.0962467,-22.4609375,-28.3203125,-29.78515625,-6.8359375,-1.0,1.0,0.0,0.0,6.m4v,3.0
2024-02-27 11:41:03.100152,1709030463.1001518,-36.1328125,-47.36328125,-41.50390625,-9.765625,-1.0,1.0,0.0,0.0,6.m4v,3.0
2024-02-27 11:41:03.104057,1709030463.1040568,-52.24609375,-58.10546875,-57.12890625,-38.0859375,-1.0,1.0,0.0,0.0,6.m4v,3.0
2024-02-27 11:41:03.107962,1709030463.107962,-45.8984375,-34.1796875,-39.0625,-45.8984375,-1.0,1.0,0.0,0.0,6.m4v,3.0
2024-02-27 11:41:03.111867,1709030463.1118667,-40.52734375,-4.39453125,-29.296875,-48.33984375,-1.0,1.0,0.0,0.0,6.m4v,3.0
2024-02-27 11:41:03.115784,1709030463.115784,-48.828125,-28.3203125,-34.1796875,-44.43359375,-1.0,1.0,0.0,0.0,6.m4v,3.0
2024-02-27 11:41:03.119689,1709030463.119689,-47.36328125,-65.91796875,-27.83203125,-25.87890625,-1.0,1.0,0.0,0.0,6.m4v,3.0
2024-02-27 11:41:03.123594,1709030463.1235938,-41.015625,-57.6171875,-41.015625,-33.69140625,-1.0,1.0,0.0,0.0,6.m4v,3.0
2024-02-27 11:41:03.127499,1709030463.1274989,-30.76171875,-28.3203125,-49.8046875,-45.8984375,-1.0,1.0,0.0,0.0,6.m4v,3.0
2024-02-27 11:41:03.131404,1709030463.131404,-29.78515625,-24.90234375,-39.55078125,-49.8046875,-1.0,1.0,0.0,0.0,6.m4v,3.0
2024-02-27 11:41:03.135309,1709030463.135309,-30.76171875,-11.23046875,-33.69140625,-34.1796875,-1.0,1.0,0.0,0.0,6.m4v,3.0
2024-02-27 11:41:03.139214,1709030463.139214,-16.6015625,6.8359375,-24.4140625,0.0,-1.0,1.0,0.0,0.0,6.m4v,3.0
2024-02-27 11:41:03.143119,1709030463.143119,-40.52734375,-25.87890625,-30.2734375,-21.97265625,-1.0,1.0,0.0,0.0,6.m4v,3.0
2024-02-27 11:41:03.147024,1709030463.1470242,-60.546875,-39.0625,-32.71484375,-52.734375,-1.0,1.0,0.0,0.0,6.m4v,3.0
2024-02-27 11:41:03.150929,1709030463.1509292,-57.12890625,-39.0625,-38.57421875,-55.17578125,-1.0,1.0,0.0,0.0,6.m4v,3.0
2024-02-27 11:41:03.154834,1709030463.1548345,-48.828125,-35.15625,-46.875,-34.1796875,-1.0,1.0,0.0,0.0,6.m4v,3.0
2024-02-27 11:41:03.158739,1709030463.158739,-46.38671875,-32.2265625,-41.015625,-14.16015625,-1.0,1.0,0.0,0.0,6.m4v,3.0
2024-02-27 11:41:03.162656,1709030463.1626558,-42.48046875,-41.015625,-34.66796875,-18.5546875,-1.0,1.0,0.0,0.0,6.m4v,3.0
2024-02-27 11:41:03.166561,1709030463.166561,-40.52734375,-45.8984375,-34.66796875,-37.59765625,-1.0,1.0,0.0,0.0,6.m4v,3.0
2024-02-27 11:41:03.170466,1709030463.1704657,-55.6640625,-39.55078125,-28.80859375,-50.29296875,-1.0,1.0,0.0,0.0,6.m4v,3.0
2024-02-27 11:41:03.174371,1709030463.1743708,-53.22265625,-29.78515625,-23.92578125,-38.57421875,-1.0,1.0,0.0,0.0,6.m4v,3.0
2024-02-27 11:41:03.178276,1709030463.1782758,-29.78515625,-34.66796875,-26.85546875,-7.32421875,-1.0,1.0,0.0,0.0,6.m4v,3.0
2024-02-27 11:41:03.182181,1709030463.182181,-27.83203125,-13.18359375,-31.25,0.0,-1.0,1.0,0.0,0.0,6.m4v,3.0
2024-02-27 11:41:03.186086,1709030463.186086,-40.52734375,-16.6015625,-45.8984375,-35.64453125,-1.0,1.0,0.0,0.0,6.m4v,3.0
2024-02-27 11:41:03.189991,1709030463.189991,-33.69140625,-34.1796875,-35.15625,-51.26953125,-1.0,1.0,0.0,0.0,6.m4v,3.0
2024-02-27 11:41:03.193896,1709030463.193896,-22.94921875,-16.6015625,-24.90234375,-25.390625,-1.0,1.0,0.0,0.0,6.m4v,3.0
2024-02-27 11:41:03.197801,1709030463.197801,-33.203125,-25.87890625,-52.734375,-15.13671875,-1.0,1.0,0.0,0.0,6.m4v,3.0
2024-02-27 11:41:03.201706,1709030463.2017062,-29.296875,-25.87890625,-45.41015625,-9.27734375,-1.0,1.0,0.0,0.0,6.m4v,3.0
2024-02-27 11:41:03.205611,1709030463.205611,-22.94921875,-30.2734375,-18.06640625,-15.13671875,-1.0,1.0,0.0,0.0,6.m4v,3.0
2024-02-27 11:41:03.209527,1709030463.2095273,-28.3203125,-41.015625,-24.4140625,-35.64453125,-1.0,1.0,0.0,0.0,6.m4v,3.0
2024-02-27 11:41:03.209527,1709030463.2095273,-28.3203125,-41.015625,-24.4140625,-35.64453125,-1.0,1.0,0.0,0.0,6.m4v,3.0
2024-02-27 11:41:03.213432,1709030463.2134323,-36.1328125,-32.71484375,-38.0859375,-40.0390625,-1.0,1.0,0.0,0.0,6.m4v,3.0
2024-02-27 11:41:03.213432,1709030463.2134323,-36.1328125,-32.71484375,-38.0859375,-40.0390625,-1.0,1.0,0.0,0.0,6.m4v,3.0
2024-02-27 11:41:03.217337,1709030463.2173374,-41.9921875,-37.59765625,-47.8515625,-26.85546875,-1.0,1.0,0.0,0.0,6.m4v,3.0
2024-02-27 11:41:03.217337,1709030463.2173374,-41.9921875,-37.59765625,-47.8515625,-26.85546875,-1.0,1.0,0.0,0.0,6.m4v,3.0
2024-02-27 11:41:03.221242,1709030463.2212422,-44.921875,-45.41015625,-50.29296875,-16.11328125,-1.0,1.0,0.0,0.0,6.m4v,3.0
2024-02-27 11:41:03.221242,1709030463.2212422,-44.921875,-45.41015625,-50.29296875,-16.11328125,-1.0,1.0,0.0,0.0,6.m4v,3.0
2024-02-27 11:41:03.225147,1709030463.2251472,-36.62109375,-40.0390625,-38.57421875,-27.83203125,-1.0,1.0,0.0,0.0,6.m4v,3.0
2024-02-27 11:41:03.225147,1709030463.2251472,-36.62109375,-40.0390625,-38.57421875,-27.83203125,-1.0,1.0,0.0,0.0,6.m4v,3.0
2024-02-27 11:41:03.229052,1709030463.2290523,-24.4140625,-20.99609375,-24.4140625,-37.109375,-1.0,1.0,0.0,0.0,6.m4v,3.0
2024-02-27 11:41:03.229052,1709030463.2290523,-24.4140625,-20.99609375,-24.4140625,-37.109375,-1.0,1.0,0.0,0.0,6.m4v,3.0
2024-02-27 11:41:03.232957,1709030463.2329574,-20.99609375,8.7890625,-18.06640625,-23.4375,-1.0,1.0,0.0,0.0,6.m4v,3.0
2024-02-27 11:41:03.232957,1709030463.2329574,-20.99609375,8.7890625,-18.06640625,-23.4375,-1.0,1.0,0.0,0.0,6.m4v,3.0
2024-02-27 11:41:03.236862,1709030463.2368624,-37.109375,-20.99609375,-43.9453125,-17.08984375,-1.0,1.0,0.0,0.0,6.m4v,3.0
2024-02-27 11:41:03.236862,1709030463.2368624,-37.109375,-20.99609375,-43.9453125,-17.08984375,-1.0,1.0,0.0,0.0,6.m4v,3.0
2024-02-27 11:41:03.240767,1709030463.2407677,-38.0859375,-68.359375,-65.4296875,-13.18359375,-1.0,1.0,0.0,0.0,6.m4v,3.0
2024-02-27 11:41:03.240767,1709030463.2407677,-38.0859375,-68.359375,-65.4296875,-13.18359375,-1.0,1.0,0.0,0.0,6.m4v,3.0
2024-02-27 11:41:03.244673,1709030463.2446723,-18.06640625,-62.01171875,-55.17578125,-16.11328125,-1.0,1.0,0.0,0.0,6.m4v,3.0
2024-02-27 11:41:03.244673,1709030463.2446723,-18.06640625,-62.01171875,-55.17578125,-16.11328125,-1.0,1.0,0.0,0.0,6.m4v,3.0
2024-02-27 11:41:03.248578,1709030463.2485776,-15.625,-41.015625,-33.69140625,-31.73828125,-1.0,1.0,0.0,0.0,6.m4v,3.0
2024-02-27 11:41:03.248578,1709030463.2485776,-15.625,-41.015625,-33.69140625,-31.73828125,-1.0,1.0,0.0,0.0,6.m4v,3.0
2024-02-27 11:41:03.252483,1709030463.252483,-25.87890625,-33.69140625,-25.390625,-30.76171875,-1.0,1.0,0.0,0.0,6.m4v,3.0
2024-02-27 11:41:03.252483,1709030463.252483,-25.87890625,-33.69140625,-25.390625,-30.76171875,-1.0,1.0,0.0,0.0,6.m4v,3.0
2024-02-27 11:41:03.256398,1709030463.2563982,-28.80859375,-38.0859375,-31.73828125,-13.18359375,-1.0,1.0,0.0,0.0,6.m4v,3.0
2024-02-27 11:41:03.666510,1709030463.66651,-19.04296875,-56.640625,-46.875,-53.22265625,-1.0,1.0,0.0,0.0,6.m4v,3.0
2024-02-27 11:41:03.666510,1709030463.66651,-19.04296875,-56.640625,-46.875,-53.22265625,-1.0,1.0,0.0,0.0,6.m4v,3.0
2024-02-27 11:41:03.674320,1709030463.67432,-15.13671875,-26.3671875,-35.64453125,-39.55078125,-1.0,1.0,0.0,0.0,6.m4v,3.0
2024-02-27 11:41:03.674320,1709030463.67432,-15.13671875,-26.3671875,-35.64453125,-39.55078125,-1.0,1.0,0.0,0.0,6.m4v,3.0
2024-02-27 11:41:03.682140,1709030463.6821404,-25.390625,-40.0390625,-25.390625,-7.32421875,-1.0,1.0,0.0,0.0,6.m4v,3.0
2024-02-27 11:41:03.682140,1709030463.6821404,-25.390625,-40.0390625,-25.390625,-7.32421875,-1.0,1.0,0.0,0.0,6.m4v,3.0
2024-02-27 11:41:03.689950,1709030463.6899502,-48.828125,-50.78125,-49.31640625,-49.31640625,-1.0,1.0,0.0,0.0,6.m4v,3.0
2024-02-27 11:41:03.689950,1709030463.6899502,-48.828125,-50.78125,-49.31640625,-49.31640625,-1.0,1.0,0.0,0.0,6.m4v,3.0
2024-02-27 11:41:03.697760,1709030463.6977603,-59.5703125,1.953125,-14.16015625,-16.6015625,-1.0,1.0,0.0,0.0,6.m4v,3.0
2024-02-27 11:41:03.697760,1709030463.6977603,-59.5703125,1.953125,-14.16015625,-16.6015625,-1.0,1.0,0.0,0.0,6.m4v,3.0
2024-02-27 11:41:03.705570,1709030463.7055705,-58.10546875,-40.0390625,-27.83203125,-38.57421875,-1.0,1.0,0.0,0.0,6.m4v,3.0
2024-02-27 11:41:03.705570,1709030463.7055705,-58.10546875,-40.0390625,-27.83203125,-38.57421875,-1.0,1.0,0.0,0.0,6.m4v,3.0
2024-02-27 11:41:03.713381,1709030463.7133806,-51.26953125,-25.87890625,-24.90234375,-51.7578125,-1.0,1.0,0.0,0.0,6.m4v,3.0
2024-02-27 11:41:03.713381,1709030463.7133806,-51.26953125,-25.87890625,-24.90234375,-51.7578125,-1.0,1.0,0.0,0.0,6.m4v,3.0
2024-02-27 11:41:03.721191,1709030463.7211907,-35.15625,-37.59765625,-40.0390625,-22.4609375,-1.0,1.0,0.0,0.0,6.m4v,3.0
2024-02-27 11:41:03.721191,1709030463.7211907,-35.15625,-37.59765625,-40.0390625,-22.4609375,-1.0,1.0,0.0,0.0,6.m4v,3.0
2024-02-27 11:41:03.729010,1709030463.7290103,-21.484375,-36.62109375,-17.578125,-50.29296875,-1.0,1.0,0.0,0.0,6.m4v,3.0
2024-02-27 11:41:03.729010,1709030463.7290103,-21.484375,-36.62109375,-17.578125,-50.29296875,-1.0,1.0,0.0,0.0,6.m4v,3.0
2024-02-27 11:41:03.736820,1709030463.7368205,-12.20703125,-20.01953125,-23.92578125,-33.203125,-1.0,1.0,0.0,0.0,6.m4v,3.0
2024-02-27 11:41:03.736820,1709030463.7368205,-12.20703125,-20.01953125,-23.92578125,-33.203125,-1.0,1.0,0.0,0.0,6.m4v,3.0
2024-02-27 11:41:03.744631,1709030463.7446306,-12.6953125,10.7421875,-8.30078125,-29.78515625,-1.0,1.0,0.0,0.0,6.m4v,3.0
2024-02-27 11:41:03.744631,1709030463.7446306,-12.6953125,10.7421875,-8.30078125,-29.78515625,-1.0,1.0,0.0,0.0,6.m4v,3.0
2024-02-27 11:41:03.748535,1709030463.7485354,-21.484375,-30.76171875,-30.76171875,-54.19921875,-1.0,1.0,0.0,0.0,6.m4v,3.0
2024-02-27 11:41:03.752440,1709030463.7524405,-36.1328125,-64.453125,-40.0390625,-62.5,-1.0,1.0,0.0,0.0,6.m4v,3.0
2024-02-27 11:41:03.756346,1709030463.7563455,-45.8984375,-64.94140625,-22.4609375,-38.57421875,-1.0,1.0,0.0,0.0,6.m4v,3.0
2024-02-27 11:41:03.760251,1709030463.7602506,-51.26953125,-52.24609375,-27.34375,-17.578125,-1.0,1.0,0.0,0.0,6.m4v,3.0
2024-02-27 11:41:03.764156,1709030463.7641556,-49.8046875,-23.92578125,-27.83203125,-8.30078125,-1.0,1.0,0.0,0.0,6.m4v,3.0
2024-02-27 11:41:03.768061,1709030463.7680607,-58.10546875,-28.80859375,-39.0625,-24.4140625,-1.0,1.0,0.0,0.0,6.m4v,3.0
2024-02-27 11:41:03.771976,1709030463.7719755,-58.10546875,-23.4375,-33.203125,-24.90234375,-1.0,1.0,0.0,0.0,6.m4v,3.0
2024-02-27 11:41:03.775880,1709030463.7758803,-68.359375,-40.0390625,-22.4609375,-25.390625,-1.0,1.0,0.0,0.0,6.m4v,3.0
2024-02-27 11:41:03.779785,1709030463.7797854,-88.8671875,-59.08203125,-36.62109375,-33.203125,-1.0,1.0,0.0,0.0,6.m4v,3.0
2024-02-27 11:41:03.783690,1709030463.7836905,-77.1484375,-42.96875,-32.2265625,-30.2734375,-1.0,1.0,0.0,0.0,6.m4v,3.0
2024-02-27 11:41:03.787596,1709030463.7875955,-55.6640625,-57.12890625,-32.2265625,-37.109375,-1.0,1.0,0.0,0.0,6.m4v,3.0
2024-02-27 11:41:03.791501,1709030463.7915006,-57.12890625,-53.22265625,-33.69140625,-61.5234375,-1.0,1.0,0.0,0.0,6.m4v,3.0
2024-02-27 11:41:04.193815,1709030464.1938157,-29.78515625,-25.390625,-50.78125,-50.29296875,-1.0,1.0,0.0,0.0,6.m4v,3.0
2024-02-27 11:41:04.197721,1709030464.1977203,-35.15625,-7.32421875,-48.33984375,-20.5078125,-1.0,1.0,0.0,0.0,6.m4v,3.0
2024-02-27 11:41:04.201626,1709030464.2016256,-33.203125,0.9765625,-47.8515625,-15.13671875,-1.0,1.0,0.0,0.0,6.m4v,3.0
2024-02-27 11:41:04.205531,1709030464.2055306,-28.3203125,-2.9296875,-39.0625,-33.69140625,-1.0,1.0,0.0,0.0,6.m4v,3.0
2024-02-27 11:41:04.209436,1709030464.2094357,-22.4609375,0.48828125,-28.80859375,-42.48046875,-1.0,1.0,0.0,0.0,6.m4v,3.0
2024-02-27 11:41:04.213341,1709030464.2133408,-26.3671875,19.53125,-30.2734375,-31.73828125,-1.0,1.0,0.0,0.0,6.m4v,3.0
2024-02-27 11:41:04.217246,1709030464.2172458,-35.64453125,10.7421875,-33.69140625,-22.94921875,-1.0,1.0,0.0,0.0,6.m4v,3.0
2024-02-27 11:41:04.221151,1709030464.2211506,-45.41015625,-39.55078125,-32.71484375,-24.4140625,-1.0,1.0,0.0,0.0,6.m4v,3.0
2024-02-27 11:41:04.225056,1709030464.2250557,-40.0390625,-46.38671875,-38.57421875,-28.3203125,-1.0,1.0,0.0,0.0,6.m4v,3.0
2024-02-27 11:41:04.228961,1709030464.2289608,-35.64453125,-54.6875,-27.34375,-44.921875,-1.0,1.0,0.0,0.0,6.m4v,3.0
2024-02-27 11:41:04.232866,1709030464.2328658,-36.1328125,-52.734375,1.953125,-41.50390625,-1.0,1.0,0.0,0.0,6.m4v,3.0
2024-02-27 11:41:04.236771,1709030464.2367709,-29.78515625,-14.6484375,1.953125,-11.71875,-1.0,1.0,0.0,0.0,6.m4v,3.0
2024-02-27 11:41:04.240688,1709030464.2406878,-42.48046875,-0.48828125,-18.5546875,-1.953125,-1.0,1.0,0.0,0.0,6.m4v,3.0
2024-02-27 11:41:04.244593,1709030464.244593,-44.921875,-3.90625,-37.59765625,-20.01953125,-1.0,1.0,0.0,0.0,6.m4v,3.0
2024-02-27 11:41:04.248498,1709030464.248498,-36.62109375,-22.4609375,-47.8515625,-41.015625,-1.0,1.0,0.0,0.0,6.m4v,3.0
2024-02-27 11:41:04.252403,1709030464.252403,-39.0625,-24.90234375,-56.640625,-49.8046875,-1.0,1.0,0.0,0.0,6.m4v,3.0
2024-02-27 11:41:04.256308,1709030464.256308,-31.73828125,-15.625,-68.359375,-23.92578125,-1.0,1.0,0.0,0.0,6.m4v,3.0
2024-02-27 11:41:04.260213,1709030464.2602131,-10.25390625,-4.39453125,-67.3828125,19.04296875,-1.0,1.0,0.0,0.0,6.m4v,3.0
2024-02-27 11:41:04.264118,1709030464.264118,-5.859375,-24.90234375,-50.29296875,7.8125,-1.0,1.0,0.0,0.0,6.m4v,3.0
2024-02-27 11:41:04.268023,1709030464.268023,-16.6015625,-61.5234375,-26.85546875,-41.015625,-1.0,1.0,0.0,0.0,6.m4v,3.0
2024-02-27 11:41:04.271928,1709030464.271928,-17.578125,-52.734375,-11.71875,-49.8046875,-1.0,1.0,0.0,0.0,6.m4v,3.0
2024-02-27 11:41:04.275833,1709030464.2758331,-20.99609375,-39.55078125,-13.18359375,-31.73828125,-1.0,1.0,0.0,0.0,6.m4v,3.0
2024-02-27 11:41:04.279738,1709030464.2797382,-35.64453125,-38.57421875,-43.45703125,-28.80859375,-1.0,1.0,0.0,0.0,6.m4v,3.0
2024-02-27 11:41:04.283643,1709030464.2836432,-40.52734375,-26.3671875,-54.6875,-34.66796875,-1.0,1.0,0.0,0.0,6.m4v,3.0
2024-02-27 11:41:04.287560,1709030464.2875595,-29.296875,-26.85546875,-43.45703125,-45.8984375,-1.0,1.0,0.0,0.0,6.m4v,3.0
2024-02-27 11:41:04.291465,1709030464.2914648,-34.66796875,-47.36328125,-37.109375,-59.5703125,-1.0,1.0,0.0,0.0,6.m4v,3.0
2024-02-27 11:41:04.295370,1709030464.29537,-37.59765625,-37.59765625,-32.2265625,-44.921875,-1.0,1.0,0.0,0.0,6.m4v,3.0
2024-02-27 11:41:04.299275,1709030464.299275,-33.203125,-35.64453125,-36.62109375,-17.578125,-1.0,1.0,0.0,0.0,6.m4v,3.0
2024-02-27 11:41:04.303180,1709030464.30318,-33.203125,-41.50390625,-41.50390625,-17.578125,-1.0,1.0,0.0,0.0,6.m4v,3.0
2024-02-27 11:41:04.307085,1709030464.3070848,-18.5546875,-21.484375,-52.734375,-27.34375,-1.0,1.0,0.0,0.0,6.m4v,3.0
2024-02-27 11:41:04.310990,1709030464.31099,-19.53125,-22.4609375,-46.875,-28.3203125,-1.0,1.0,0.0,0.0,6.m4v,3.0
2024-02-27 11:41:04.314895,1709030464.314895,-37.59765625,-55.17578125,-26.3671875,-25.390625,-1.0,1.0,0.0,0.0,6.m4v,3.0
2024-02-27 11:41:04.318800,1709030464.3188,-38.0859375,-53.7109375,-16.11328125,-20.5078125,-1.0,1.0,0.0,0.0,6.m4v,3.0
2024-02-27 11:41:04.322705,1709030464.322705,-41.015625,-35.64453125,-28.3203125,-34.66796875,-1.0,1.0,0.0,0.0,6.m4v,3.0
2024-02-27 11:41:04.326610,1709030464.32661,-41.9921875,-42.48046875,-36.1328125,-58.59375,-1.0,1.0,0.0,0.0,6.m4v,3.0
2024-02-27 11:41:04.330515,1709030464.3305151,-31.73828125,-36.1328125,-13.18359375,-60.05859375,-1.0,1.0,0.0,0.0,6.m4v,3.0
2024-02-27 11:41:04.334431,1709030464.3344314,-41.9921875,-42.48046875,-22.94921875,-61.5234375,-1.0,1.0,0.0,0.0,6.m4v,3.0
2024-02-27 11:41:04.334431,1709030464.3344314,-41.9921875,-42.48046875,-22.94921875,-61.5234375,-1.0,1.0,0.0,0.0,6.m4v,3.0
2024-02-27 11:41:04.338336,1709030464.3383365,-48.33984375,-45.41015625,-46.875,-53.7109375,-1.0,1.0,0.0,0.0,6.m4v,3.0
2024-02-27 11:41:04.338336,1709030464.3383365,-48.33984375,-45.41015625,-46.875,-53.7109375,-1.0,1.0,0.0,0.0,6.m4v,3.0
2024-02-27 11:41:04.342242,1709030464.3422415,-47.8515625,-44.43359375,-47.36328125,-44.921875,-1.0,1.0,0.0,0.0,6.m4v,3.0
2024-02-27 11:41:04.342242,1709030464.3422415,-47.8515625,-44.43359375,-47.36328125,-44.921875,-1.0,1.0,0.0,0.0,6.m4v,3.0
2024-02-27 11:41:04.346147,1709030464.3461466,-47.36328125,-41.50390625,-37.59765625,-50.29296875,-1.0,1.0,0.0,0.0,6.m4v,3.0
2024-02-27 11:41:04.346147,1709030464.3461466,-47.36328125,-41.50390625,-37.59765625,-50.29296875,-1.0,1.0,0.0,0.0,6.m4v,3.0
2024-02-27 11:41:04.350052,1709030464.3500516,-40.52734375,-31.25,-36.62109375,-52.734375,-1.0,1.0,0.0,0.0,6.m4v,3.0
2024-02-27 11:41:04.350052,1709030464.3500516,-40.52734375,-31.25,-36.62109375,-52.734375,-1.0,1.0,0.0,0.0,6.m4v,3.0
2024-02-27 11:41:04.353956,1709030464.3539565,-36.1328125,-16.6015625,-37.109375,-41.015625,-1.0,1.0,0.0,0.0,6.m4v,3.0
2024-02-27 11:41:04.353956,1709030464.3539565,-36.1328125,-16.6015625,-37.109375,-41.015625,-1.0,1.0,0.0,0.0,6.m4v,3.0
2024-02-27 11:41:04.357862,1709030464.3578615,-38.0859375,-44.43359375,-45.8984375,-26.85546875,-1.0,1.0,0.0,0.0,6.m4v,3.0
2024-02-27 11:41:04.357862,1709030464.3578615,-38.0859375,-44.43359375,-45.8984375,-26.85546875,-1.0,1.0,0.0,0.0,6.m4v,3.0
2024-02-27 11:41:04.361767,1709030464.3617666,-35.64453125,-67.87109375,-63.4765625,-7.32421875,-1.0,1.0,0.0,0.0,6.m4v,3.0
2024-02-27 11:41:04.361767,1709030464.3617666,-35.64453125,-67.87109375,-63.4765625,-7.32421875,-1.0,1.0,0.0,0.0,6.m4v,3.0
2024-02-27 11:41:04.365672,1709030464.3656716,-32.71484375,-40.0390625,-49.31640625,0.9765625,-1.0,1.0,0.0,0.0,6.m4v,3.0
2024-02-27 11:41:04.365672,1709030464.3656716,-32.71484375,-40.0390625,-49.31640625,0.9765625,-1.0,1.0,0.0,0.0,6.m4v,3.0
2024-02-27 11:41:04.369577,1709030464.3695767,-35.64453125,-37.59765625,-15.625,-20.99609375,-1.0,1.0,0.0,0.0,6.m4v,3.0
2024-02-27 11:41:04.369577,1709030464.3695767,-35.64453125,-37.59765625,-15.625,-20.99609375,-1.0,1.0,0.0,0.0,6.m4v,3.0
2024-02-27 11:41:04.373482,1709030464.3734818,-41.50390625,-32.71484375,-13.18359375,-40.52734375,-1.0,1.0,0.0,0.0,6.m4v,3.0
2024-02-27 11:41:04.373482,1709030464.3734818,-41.50390625,-32.71484375,-13.18359375,-40.52734375,-1.0,1.0,0.0,0.0,6.m4v,3.0
2024-02-27 11:41:04.377387,1709030464.3773868,-41.015625,-30.76171875,-16.11328125,-25.390625,-1.0,1.0,0.0,0.0,6.m4v,3.0
2024-02-27 11:41:04.377387,1709030464.3773868,-41.015625,-30.76171875,-16.11328125,-25.390625,-1.0,1.0,0.0,0.0,6.m4v,3.0
2024-02-27 11:41:04.381302,1709030464.3813024,-32.2265625,-48.33984375,-22.4609375,-7.32421875,-1.0,1.0,0.0,0.0,6.m4v,3.0
2024-02-27 11:41:04.381302,1709030464.3813024,-32.2265625,-48.33984375,-22.4609375,-7.32421875,-1.0,1.0,0.0,0.0,6.m4v,3.0
2024-02-27 11:41:04.385207,1709030464.3852074,-36.62109375,-51.7578125,-39.0625,-27.34375,-1.0,1.0,0.0,0.0,6.m4v,3.0
2024-02-27 11:41:04.385207,1709030464.3852074,-36.62109375,-51.7578125,-39.0625,-27.34375,-1.0,1.0,0.0,0.0,6.m4v,3.0
2024-02-27 11:41:04.389112,1709030464.3891125,-39.0625,-44.921875,-57.12890625,-52.734375,-1.0,1.0,0.0,0.0,6.m4v,3.0
2024-02-27 11:41:04.389112,1709030464.3891125,-39.0625,-44.921875,-57.12890625,-52.734375,-1.0,1.0,0.0,0.0,6.m4v,3.0
2024-02-27 11:41:04.393018,1709030464.3930175,-39.0625,-45.41015625,-64.453125,-57.6171875,-1.0,1.0,0.0,0.0,6.m4v,3.0
2024-02-27 11:41:04.393018,1709030464.3930175,-39.0625,-45.41015625,-64.453125,-57.6171875,-1.0,1.0,0.0,0.0,6.m4v,3.0
2024-02-27 11:41:04.396923,1709030464.3969226,-34.66796875,-37.109375,-34.1796875,-34.66796875,-1.0,1.0,0.0,0.0,6.m4v,3.0
2024-02-27 11:41:04.396923,1709030464.3969226,-34.66796875,-37.109375,-34.1796875,-34.66796875,-1.0,1.0,0.0,0.0,6.m4v,3.0
2024-02-27 11:41:04.400828,1709030464.4008276,-27.34375,-17.578125,-17.08984375,-14.6484375,-1.0,1.0,0.0,0.0,6.m4v,3.0
2024-02-27 11:41:04.400828,1709030464.4008276,-27.34375,-17.578125,-17.08984375,-14.6484375,-1.0,1.0,0.0,0.0,6.m4v,3.0
2024-02-27 11:41:04.404733,1709030464.4047327,-34.66796875,-12.20703125,-24.4140625,-30.76171875,-1.0,1.0,0.0,0.0,6.m4v,3.0
2024-02-27 11:41:04.404733,1709030464.4047327,-34.66796875,-12.20703125,-24.4140625,-30.76171875,-1.0,1.0,0.0,0.0,6.m4v,3.0
2024-02-27 11:41:04.408638,1709030464.4086378,-43.9453125,-22.94921875,-29.78515625,-54.19921875,-1.0,1.0,0.0,0.0,6.m4v,3.0
2024-02-27 11:41:04.408638,1709030464.4086378,-43.9453125,-22.94921875,-29.78515625,-54.19921875,-1.0,1.0,0.0,0.0,6.m4v,3.0
2024-02-27 11:41:04.412543,1709030464.4125426,-49.31640625,-31.73828125,-47.36328125,-61.5234375,-1.0,1.0,0.0,0.0,6.m4v,3.0
2024-02-27 11:41:04.412543,1709030464.4125426,-49.31640625,-31.73828125,-47.36328125,-61.5234375,-1.0,1.0,0.0,0.0,6.m4v,3.0
2024-02-27 11:41:04.416448,1709030464.4164476,-41.015625,-33.203125,-41.9921875,-44.921875,-1.0,1.0,0.0,0.0,6.m4v,3.0
2024-02-27 11:41:04.416448,1709030464.4164476,-41.015625,-33.203125,-41.9921875,-44.921875,-1.0,1.0,0.0,0.0,6.m4v,3.0
2024-02-27 11:41:04.420353,1709030464.4203527,-39.0625,-42.48046875,-34.66796875,-25.390625,-1.0,1.0,0.0,0.0,6.m4v,3.0
2024-02-27 11:41:04.420353,1709030464.4203527,-39.0625,-42.48046875,-34.66796875,-25.390625,-1.0,1.0,0.0,0.0,6.m4v,3.0
2024-02-27 11:41:04.424258,1709030464.4242578,-48.33984375,-42.96875,-42.96875,-40.0390625,-1.0,1.0,0.0,0.0,6.m4v,3.0
2024-02-27 11:41:04.424258,1709030464.4242578,-48.33984375,-42.96875,-42.96875,-40.0390625,-1.0,1.0,0.0,0.0,6.m4v,3.0
2024-02-27 11:41:04.428173,1709030464.4281733,-46.38671875,-46.38671875,-43.45703125,-63.96484375,-1.0,1.0,0.0,0.0,6.m4v,3.0
2024-02-27 11:41:04.428173,1709030464.4281733,-46.38671875,-46.38671875,-43.45703125,-63.96484375,-1.0,1.0,0.0,0.0,6.m4v,3.0
2024-02-27 11:41:04.432078,1709030464.4320784,-48.33984375,-51.26953125,-46.875,-64.94140625,-1.0,1.0,0.0,0.0,6.m4v,3.0
2024-02-27 11:41:04.432078,1709030464.4320784,-48.33984375,-51.26953125,-46.875,-64.94140625,-1.0,1.0,0.0,0.0,6.m4v,3.0
2024-02-27 11:41:04.435983,1709030464.4359834,-52.24609375,-40.0390625,-27.34375,-58.10546875,-1.0,1.0,0.0,0.0,6.m4v,3.0
2024-02-27 11:41:04.435983,1709030464.4359834,-52.24609375,-40.0390625,-27.34375,-58.10546875,-1.0,1.0,0.0,0.0,6.m4v,3.0
2024-02-27 11:41:04.439888,1709030464.4398885,-36.1328125,-19.53125,-11.23046875,-36.62109375,-1.0,1.0,0.0,0.0,6.m4v,3.0
2024-02-27 11:41:04.439888,1709030464.4398885,-36.1328125,-19.53125,-11.23046875,-36.62109375,-1.0,1.0,0.0,0.0,6.m4v,3.0
2024-02-27 11:41:04.443794,1709030464.4437935,-24.90234375,-23.4375,-35.15625,-33.203125,-1.0,1.0,0.0,0.0,6.m4v,3.0
2024-02-27 11:41:04.443794,1709030464.4437935,-24.90234375,-23.4375,-35.15625,-33.203125,-1.0,1.0,0.0,0.0,6.m4v,3.0
2024-02-27 11:41:04.447699,1709030464.4476986,-10.25390625,-10.7421875,-26.3671875,-34.66796875,-1.0,1.0,0.0,0.0,6.m4v,3.0
2024-02-27 11:41:04.447699,1709030464.4476986,-10.25390625,-10.7421875,-26.3671875,-34.66796875,-1.0,1.0,0.0,0.0,6.m4v,3.0
2024-02-27 11:41:04.451604,1709030464.4516037,-16.11328125,-12.6953125,-7.32421875,-36.1328125,-1.0,1.0,0.0,0.0,6.m4v,3.0
2024-02-27 11:41:04.451604,1709030464.4516037,-16.11328125,-12.6953125,-7.32421875,-36.1328125,-1.0,1.0,0.0,0.0,6.m4v,3.0
2024-02-27 11:41:04.455509,1709030464.4555087,-37.109375,-51.7578125,-24.90234375,-32.2265625,-1.0,1.0,0.0,0.0,6.m4v,3.0
2024-02-27 11:41:04.455509,1709030464.4555087,-37.109375,-51.7578125,-24.90234375,-32.2265625,-1.0,1.0,0.0,0.0,6.m4v,3.0
2024-02-27 11:41:04.459414,1709030464.4594135,-46.38671875,-59.5703125,-45.8984375,-15.13671875,-1.0,1.0,0.0,0.0,6.m4v,3.0
2024-02-27 11:41:04.459414,1709030464.4594135,-46.38671875,-59.5703125,-45.8984375,-15.13671875,-1.0,1.0,0.0,0.0,6.m4v,3.0
2024-02-27 11:41:04.463319,1709030464.4633186,-46.38671875,-52.734375,-43.9453125,-15.625,-1.0,1.0,0.0,0.0,6.m4v,3.0
2024-02-27 11:41:04.463319,1709030464.4633186,-46.38671875,-52.734375,-43.9453125,-15.625,-1.0,1.0,0.0,0.0,6.m4v,3.0
2024-02-27 11:41:04.467224,1709030464.4672236,-54.19921875,-44.43359375,-38.57421875,-41.50390625,-1.0,1.0,0.0,0.0,6.m4v,3.0
2024-02-27 11:41:04.467224,1709030464.4672236,-54.19921875,-44.43359375,-38.57421875,-41.50390625,-1.0,1.0,0.0,0.0,6.m4v,3.0
2024-02-27 11:41:04.471129,1709030464.4711287,-61.5234375,-30.76171875,-47.8515625,-56.640625,-1.0,1.0,0.0,0.0,6.m4v,3.0
2024-02-27 11:41:04.471129,1709030464.4711287,-61.5234375,-30.76171875,-47.8515625,-56.640625,-1.0,1.0,0.0,0.0,6.m4v,3.0
2024-02-27 11:41:04.475044,1709030464.4750435,-47.8515625,-31.25,-45.41015625,-43.9453125,-1.0,1.0,0.0,0.0,6.m4v,3.0
2024-02-27 11:41:04.475044,1709030464.4750435,-47.8515625,-31.25,-45.41015625,-43.9453125,-1.0,1.0,0.0,0.0,6.m4v,3.0
2024-02-27 11:41:04.478949,1709030464.4789486,-47.36328125,-39.0625,-26.85546875,-23.92578125,-1.0,1.0,0.0,0.0,6.m4v,3.0
2024-02-27 11:41:04.478949,1709030464.4789486,-47.36328125,-39.0625,-26.85546875,-23.92578125,-1.0,1.0,0.0,0.0,6.m4v,3.0
2024-02-27 11:41:04.482854,1709030464.4828537,-49.31640625,-36.1328125,-17.578125,-26.3671875,-1.0,1.0,0.0,0.0,6.m4v,3.0
2024-02-27 11:41:04.482854,1709030464.4828537,-49.31640625,-36.1328125,-17.578125,-26.3671875,-1.0,1.0,0.0,0.0,6.m4v,3.0
2024-02-27 11:41:04.486758,1709030464.4867585,-43.9453125,-43.45703125,-22.94921875,-48.828125,-1.0,1.0,0.0,0.0,6.m4v,3.0
2024-02-27 11:41:04.486758,1709030464.4867585,-43.9453125,-43.45703125,-22.94921875,-48.828125,-1.0,1.0,0.0,0.0,6.m4v,3.0
2024-02-27 11:41:04.490664,1709030464.4906635,-31.25,-21.97265625,-28.3203125,-46.875,-1.0,1.0,0.0,0.0,6.m4v,3.0
2024-02-27 11:41:04.490664,1709030464.4906635,-31.25,-21.97265625,-28.3203125,-46.875,-1.0,1.0,0.0,0.0,6.m4v,3.0
2024-02-27 11:41:04.494569,1709030464.4945686,-24.4140625,-2.9296875,-30.76171875,-31.73828125,-1.0,1.0,0.0,0.0,6.m4v,3.0
2024-02-27 11:41:04.494569,1709030464.4945686,-24.4140625,-2.9296875,-30.76171875,-31.73828125,-1.0,1.0,0.0,0.0,6.m4v,3.0
2024-02-27 11:41:04.498474,1709030464.4984736,-18.06640625,-22.94921875,-35.15625,-10.7421875,-1.0,1.0,0.0,0.0,6.m4v,3.0
2024-02-27 11:41:04.498474,1709030464.4984736,-18.06640625,-22.94921875,-35.15625,-10.7421875,-1.0,1.0,0.0,0.0,6.m4v,3.0
2024-02-27 11:41:04.502379,1709030464.5023787,-11.23046875,-41.015625,-20.5078125,-4.39453125,-1.0,1.0,0.0,0.0,6.m4v,3.0
2024-02-27 11:41:04.502379,1709030464.5023787,-11.23046875,-41.015625,-20.5078125,-4.39453125,-1.0,1.0,0.0,0.0,6.m4v,3.0
2024-02-27 11:41:04.506284,1709030464.5062838,-17.578125,-39.0625,-18.06640625,-24.4140625,-1.0,1.0,0.0,0.0,6.m4v,3.0
2024-02-27 11:41:04.506284,1709030464.5062838,-17.578125,-39.0625,-18.06640625,-24.4140625,-1.0,1.0,0.0,0.0,6.m4v,3.0
2024-02-27 11:41:04.510189,1709030464.5101888,-31.25,-53.22265625,-35.64453125,-44.43359375,-1.0,1.0,0.0,0.0,6.m4v,3.0
2024-02-27 11:41:04.510189,1709030464.5101888,-31.25,-53.22265625,-35.64453125,-44.43359375,-1.0,1.0,0.0,0.0,6.m4v,3.0
2024-02-27 11:41:04.514094,1709030464.514094,-50.29296875,-66.40625,-42.96875,-51.7578125,-1.0,1.0,0.0,0.0,6.m4v,3.0
2024-02-27 11:41:04.514094,1709030464.514094,-50.29296875,-66.40625,-42.96875,-51.7578125,-1.0,1.0,0.0,0.0,6.m4v,3.0
2024-02-27 11:41:04.517999,1709030464.517999,-50.29296875,-41.50390625,-51.26953125,-32.71484375,-1.0,1.0,0.0,0.0,6.m4v,3.0
2024-02-27 11:41:04.517999,1709030464.517999,-50.29296875,-41.50390625,-51.26953125,-32.71484375,-1.0,1.0,0.0,0.0,6.m4v,3.0
2024-02-27 11:41:04.521914,1709030464.5219135,-37.59765625,-17.08984375,-42.48046875,-20.5078125,-1.0,1.0,0.0,0.0,6.m4v,3.0
2024-02-27 11:41:04.521914,1709030464.5219135,-37.59765625,-17.08984375,-42.48046875,-20.5078125,-1.0,1.0,0.0,0.0,6.m4v,3.0
2024-02-27 11:41:04.525818,1709030464.5258183,-43.45703125,-34.66796875,-36.1328125,-53.22265625,-1.0,1.0,0.0,0.0,6.m4v,3.0
2024-02-27 11:41:04.525818,1709030464.5258183,-43.45703125,-34.66796875,-36.1328125,-53.22265625,-1.0,1.0,0.0,0.0,6.m4v,3.0
2024-02-27 11:41:04.529723,1709030464.5297234,-35.15625,-43.45703125,-32.71484375,-59.5703125,-1.0,1.0,0.0,0.0,6.m4v,3.0
2024-02-27 11:41:04.529723,1709030464.5297234,-35.15625,-43.45703125,-32.71484375,-59.5703125,-1.0,1.0,0.0,0.0,6.m4v,3.0
2024-02-27 11:41:04.533628,1709030464.5336285,-37.59765625,-46.875,-28.3203125,-53.7109375,-1.0,1.0,0.0,0.0,6.m4v,3.0
2024-02-27 11:41:04.533628,1709030464.5336285,-37.59765625,-46.875,-28.3203125,-53.7109375,-1.0,1.0,0.0,0.0,6.m4v,3.0
2024-02-27 11:41:04.537534,1709030464.5375335,-54.6875,-49.31640625,-37.59765625,-43.9453125,-1.0,1.0,0.0,0.0,6.m4v,3.0
2024-02-27 11:41:04.537534,1709030464.5375335,-54.6875,-49.31640625,-37.59765625,-43.9453125,-1.0,1.0,0.0,0.0,6.m4v,3.0
2024-02-27 11:41:04.541439,1709030464.5414386,-38.0859375,-0.48828125,-36.1328125,-10.7421875,-1.0,1.0,0.0,0.0,6.m4v,3.0
2024-02-27 11:41:04.541439,1709030464.5414386,-38.0859375,-0.48828125,-36.1328125,-10.7421875,-1.0,1.0,0.0,0.0,6.m4v,3.0
2024-02-27 11:41:04.545344,1709030464.5453436,-33.69140625,-13.671875,-35.15625,-24.90234375,-1.0,1.0,0.0,0.0,6.m4v,3.0
2024-02-27 11:41:04.545344,1709030464.5453436,-33.69140625,-13.671875,-35.15625,-24.90234375,-1.0,1.0,0.0,0.0,6.m4v,3.0
2024-02-27 11:41:04.549249,1709030464.5492487,-35.15625,-62.5,-20.5078125,-49.8046875,-1.0,1.0,0.0,0.0,6.m4v,3.0
2024-02-27 11:41:04.549249,1709030464.5492487,-35.15625,-62.5,-20.5078125,-49.8046875,-1.0,1.0,0.0,0.0,6.m4v,3.0
2024-02-27 11:41:04.553154,1709030464.5531538,-41.9921875,-55.17578125,-20.99609375,-51.26953125,-1.0,1.0,0.0,0.0,6.m4v,3.0
2024-02-27 11:41:04.553154,1709030464.5531538,-41.9921875,-55.17578125,-20.99609375,-51.26953125,-1.0,1.0,0.0,0.0,6.m4v,3.0
2024-02-27 11:41:04.557059,1709030464.5570588,-37.59765625,-40.0390625,-38.0859375,-27.83203125,-1.0,1.0,0.0,0.0,6.m4v,3.0
2024-02-27 11:41:04.557059,1709030464.5570588,-37.59765625,-40.0390625,-38.0859375,-27.83203125,-1.0,1.0,0.0,0.0,6.m4v,3.0
2024-02-27 11:41:04.560964,1709030464.560964,-23.92578125,-25.87890625,-33.203125,-7.8125,-1.0,1.0,0.0,0.0,6.m4v,3.0
2024-02-27 11:41:04.564869,1709030464.5648687,-20.5078125,-32.71484375,-23.92578125,-20.99609375,-1.0,1.0,0.0,0.0,6.m4v,3.0
2024-02-27 11:41:04.568783,1709030464.568783,-27.83203125,-44.43359375,-42.48046875,-43.9453125,-1.0,1.0,0.0,0.0,6.m4v,3.0
2024-02-27 11:41:04.572688,1709030464.572688,-35.64453125,-38.0859375,-55.17578125,-49.8046875,-1.0,1.0,0.0,0.0,6.m4v,3.0
2024-02-27 11:41:04.576593,1709030464.576593,-31.73828125,-38.0859375,-34.1796875,-31.73828125,-1.0,1.0,0.0,0.0,6.m4v,3.0
2024-02-27 11:41:04.580498,1709030464.580498,-38.57421875,-36.1328125,-29.78515625,-14.6484375,-1.0,1.0,0.0,0.0,6.m4v,3.0
2024-02-27 11:41:04.584403,1709030464.584403,-39.0625,-19.04296875,-36.62109375,-23.4375,-1.0,1.0,0.0,0.0,6.m4v,3.0
2024-02-27 11:41:04.588308,1709030464.588308,-38.57421875,-5.37109375,-39.55078125,-39.0625,-1.0,1.0,0.0,0.0,6.m4v,3.0
2024-02-27 11:41:04.592213,1709030464.5922132,-46.875,-31.25,-35.15625,-36.1328125,-1.0,1.0,0.0,0.0,6.m4v,3.0
2024-02-27 11:41:04.596118,1709030464.5961182,-51.26953125,-64.453125,-35.15625,-22.4609375,-1.0,1.0,0.0,0.0,6.m4v,3.0
2024-02-27 11:41:04.600023,1709030464.6000233,-39.0625,-50.78125,-41.9921875,-11.71875,-1.0,1.0,0.0,0.0,6.m4v,3.0
2024-02-27 11:41:04.603928,1709030464.6039283,-33.69140625,-39.0625,-33.69140625,-23.92578125,-1.0,1.0,0.0,0.0,6.m4v,3.0
2024-02-27 11:41:04.607833,1709030464.6078334,-31.73828125,-41.015625,-23.92578125,-39.0625,-1.0,1.0,0.0,0.0,6.m4v,3.0
2024-02-27 11:41:04.611738,1709030464.6117382,-24.4140625,-22.4609375,-34.66796875,-42.48046875,-1.0,1.0,0.0,0.0,6.m4v,3.0
2024-02-27 11:41:04.615655,1709030464.615655,-41.9921875,-31.73828125,-41.015625,-49.31640625,-1.0,1.0,0.0,0.0,6.m4v,3.0
2024-02-27 11:41:04.619560,1709030464.61956,-42.48046875,-53.22265625,-26.85546875,-26.85546875,-1.0,1.0,0.0,0.0,6.m4v,3.0
2024-02-27 11:41:04.623465,1709030464.623465,-33.69140625,-49.31640625,-21.484375,-25.87890625,-1.0,1.0,0.0,0.0,6.m4v,3.0
2024-02-27 11:41:04.627370,1709030464.62737,-29.296875,-29.296875,-27.83203125,-50.78125,-1.0,1.0,0.0,0.0,6.m4v,3.0
2024-02-27 11:41:04.631275,1709030464.6312752,-30.76171875,-18.5546875,-39.0625,-60.546875,-1.0,1.0,0.0,0.0,6.m4v,3.0
2024-02-27 11:41:04.635180,1709030464.6351802,-46.875,-24.4140625,-36.62109375,-50.29296875,-1.0,1.0,0.0,0.0,6.m4v,3.0
2024-02-27 11:41:04.639085,1709030464.639085,-52.24609375,-37.109375,-31.73828125,-31.73828125,-1.0,1.0,0.0,0.0,6.m4v,3.0
2024-02-27 11:41:04.642990,1709030464.64299,-51.26953125,-45.8984375,-39.55078125,-32.2265625,-1.0,1.0,0.0,0.0,6.m4v,3.0
2024-02-27 11:41:04.646895,1709030464.6468952,-42.96875,-27.34375,-23.4375,-41.015625,-1.0,1.0,0.0,0.0,6.m4v,3.0
2024-02-27 11:41:04.650800,1709030464.6508002,-39.0625,-21.97265625,-7.32421875,-44.921875,-1.0,1.0,0.0,0.0,6.m4v,3.0
2024-02-27 11:41:04.654705,1709030464.6547053,-50.78125,-43.9453125,-22.4609375,-39.55078125,-1.0,1.0,0.0,0.0,6.m4v,3.0
2024-02-27 11:41:04.658610,1709030464.6586103,-52.734375,-45.8984375,-25.87890625,-22.4609375,-1.0,1.0,0.0,0.0,6.m4v,3.0
2024-02-27 11:41:04.662527,1709030464.6625268,-41.9921875,-33.203125,-21.97265625,-13.18359375,-1.0,1.0,0.0,0.0,6.m4v,3.0
2024-02-27 11:41:04.666432,1709030464.666432,-38.0859375,-52.734375,-41.50390625,-38.57421875,-1.0,1.0,0.0,0.0,6.m4v,3.0
2024-02-27 11:41:04.670337,1709030464.670337,-36.1328125,-50.78125,-43.45703125,-52.24609375,-1.0,1.0,0.0,0.0,6.m4v,3.0
2024-02-27 11:41:04.674242,1709030464.674242,-47.8515625,-36.62109375,-33.203125,-46.38671875,-1.0,1.0,0.0,0.0,6.m4v,3.0
2024-02-27 11:41:04.678147,1709030464.678147,-43.9453125,-37.109375,-40.0390625,-21.97265625,-1.0,1.0,0.0,0.0,6.m4v,3.0
2024-02-27 11:41:04.682052,1709030464.682052,-35.15625,-22.4609375,-48.828125,-13.18359375,-1.0,1.0,0.0,0.0,6.m4v,3.0
2024-02-27 11:41:04.685957,1709030464.6859572,-40.0390625,-27.34375,-40.52734375,-42.48046875,-1.0,1.0,0.0,0.0,6.m4v,3.0
2024-02-27 11:41:04.693767,1709030464.6937673,-22.94921875,-52.24609375,-31.73828125,-46.875,-1.0,1.0,0.0,0.0,6.m4v,3.0
2024-02-27 11:41:04.705482,1709030464.7054822,-26.85546875,-50.29296875,-27.83203125,-27.34375,-1.0,1.0,0.0,0.0,6.m4v,3.0
2024-02-27 11:41:05.224982,1709030465.2249825,-16.11328125,-29.296875,-19.53125,-18.5546875,-1.0,1.0,0.0,0.0,6.m4v,3.0
2024-02-27 11:41:05.228887,1709030465.228887,-22.94921875,-41.9921875,-23.92578125,-41.50390625,-1.0,1.0,0.0,0.0,6.m4v,3.0
2024-02-27 11:41:05.232792,1709030465.2327924,-37.109375,-42.96875,-35.15625,-51.7578125,-1.0,1.0,0.0,0.0,6.m4v,3.0
2024-02-27 11:41:05.236697,1709030465.2366974,-36.1328125,-42.96875,-45.41015625,-37.109375,-1.0,1.0,0.0,0.0,6.m4v,3.0
2024-02-27 11:41:05.240602,1709030465.2406025,-33.69140625,-44.921875,-45.8984375,-24.4140625,-1.0,1.0,0.0,0.0,6.m4v,3.0
2024-02-27 11:41:05.244508,1709030465.2445076,-38.57421875,-26.85546875,-36.62109375,-35.64453125,-1.0,1.0,0.0,0.0,6.m4v,3.0
2024-02-27 11:41:05.248413,1709030465.2484126,-49.8046875,-35.64453125,-42.48046875,-62.98828125,-1.0,1.0,0.0,0.0,6.m4v,3.0
2024-02-27 11:41:05.252318,1709030465.2523177,-57.12890625,-62.01171875,-46.875,-69.3359375,-1.0,1.0,0.0,0.0,6.m4v,3.0
2024-02-27 11:41:05.256223,1709030465.2562227,-55.6640625,-54.19921875,-35.64453125,-50.29296875,-1.0,1.0,0.0,0.0,6.m4v,3.0
2024-02-27 11:41:05.260128,1709030465.2601275,-51.26953125,-44.921875,-32.2265625,-31.73828125,-1.0,1.0,0.0,0.0,6.m4v,3.0
2024-02-27 11:41:05.264033,1709030465.2640326,-38.0859375,-31.73828125,-23.4375,-23.92578125,-1.0,1.0,0.0,0.0,6.m4v,3.0
2024-02-27 11:41:05.267938,1709030465.2679377,-36.1328125,-34.66796875,-30.76171875,-40.0390625,-1.0,1.0,0.0,0.0,6.m4v,3.0
2024-02-27 11:41:05.271852,1709030465.2718525,-45.8984375,-33.203125,-47.8515625,-55.6640625,-1.0,1.0,0.0,0.0,6.m4v,3.0
2024-02-27 11:41:05.275758,1709030465.2757576,-48.828125,-31.25,-49.31640625,-43.9453125,-1.0,1.0,0.0,0.0,6.m4v,3.0
2024-02-27 11:41:05.279663,1709030465.2796626,-37.109375,-39.55078125,-41.50390625,-20.5078125,-1.0,1.0,0.0,0.0,6.m4v,3.0
2024-02-27 11:41:05.283568,1709030465.2835677,-19.04296875,-44.43359375,-44.921875,-11.71875,-1.0,1.0,0.0,0.0,6.m4v,3.0
2024-02-27 11:41:05.287473,1709030465.2874727,-28.3203125,-55.6640625,-51.26953125,-43.45703125,-1.0,1.0,0.0,0.0,6.m4v,3.0
2024-02-27 11:41:05.291378,1709030465.2913778,-55.6640625,-41.50390625,-32.2265625,-62.98828125,-1.0,1.0,0.0,0.0,6.m4v,3.0
2024-02-27 11:41:05.295283,1709030465.2952828,-57.6171875,-27.34375,-21.97265625,-47.8515625,-1.0,1.0,0.0,0.0,6.m4v,3.0
2024-02-27 11:41:05.299188,1709030465.2991877,-54.6875,-44.921875,-28.80859375,-41.50390625,-1.0,1.0,0.0,0.0,6.m4v,3.0
2024-02-27 11:41:05.303093,1709030465.3030927,-51.26953125,-44.921875,-35.64453125,-43.45703125,-1.0,1.0,0.0,0.0,6.m4v,3.0
2024-02-27 11:41:05.306998,1709030465.3069978,-44.921875,-38.57421875,-30.2734375,-46.875,-1.0,1.0,0.0,0.0,6.m4v,3.0
2024-02-27 11:41:05.310903,1709030465.3109028,-47.36328125,-33.69140625,-21.484375,-55.17578125,-1.0,1.0,0.0,0.0,6.m4v,3.0
2024-02-27 11:41:05.314808,1709030465.314808,-41.50390625,-12.6953125,-9.27734375,-41.015625,-1.0,1.0,0.0,0.0,6.m4v,3.0
2024-02-27 11:41:05.318722,1709030465.3187218,-34.66796875,-16.11328125,-3.41796875,-15.625,-1.0,1.0,0.0,0.0,6.m4v,3.0
2024-02-27 11:41:05.322627,1709030465.3226268,-50.78125,-37.59765625,-24.90234375,-26.85546875,-1.0,1.0,0.0,0.0,6.m4v,3.0
2024-02-27 11:41:05.326532,1709030465.3265316,-64.453125,-29.296875,-40.0390625,-53.7109375,-1.0,1.0,0.0,0.0,6.m4v,3.0
2024-02-27 11:41:05.330437,1709030465.3304367,-58.10546875,-15.625,-47.36328125,-62.98828125,-1.0,1.0,0.0,0.0,6.m4v,3.0
2024-02-27 11:41:05.334342,1709030465.3343418,-46.38671875,-41.015625,-40.52734375,-51.7578125,-1.0,1.0,0.0,0.0,6.m4v,3.0
2024-02-27 11:41:05.338247,1709030465.3382468,-45.41015625,-34.1796875,-25.390625,-22.94921875,-1.0,1.0,0.0,0.0,6.m4v,3.0
2024-02-27 11:41:05.342152,1709030465.342152,-39.55078125,-13.18359375,-28.3203125,-6.8359375,-1.0,1.0,0.0,0.0,6.m4v,3.0
2024-02-27 11:41:05.346057,1709030465.346057,-38.57421875,-38.57421875,-27.34375,-31.73828125,-1.0,1.0,0.0,0.0,6.m4v,3.0
2024-02-27 11:41:05.349962,1709030465.349962,-40.0390625,-63.96484375,-23.4375,-47.8515625,-1.0,1.0,0.0,0.0,6.m4v,3.0
2024-02-27 11:41:05.353867,1709030465.353867,-33.69140625,-54.19921875,-12.6953125,-33.69140625,-1.0,1.0,0.0,0.0,6.m4v,3.0
2024-02-27 11:41:05.357772,1709030465.357772,-32.71484375,-24.90234375,-8.7890625,-19.04296875,-1.0,1.0,0.0,0.0,6.m4v,3.0
2024-02-27 11:41:05.361677,1709030465.3616772,-39.0625,-19.04296875,-18.5546875,-21.97265625,-1.0,1.0,0.0,0.0,6.m4v,3.0
2024-02-27 11:41:05.365594,1709030465.365594,-33.69140625,-16.11328125,-24.4140625,-33.69140625,-1.0,1.0,0.0,0.0,6.m4v,3.0
2024-02-27 11:41:05.369499,1709030465.369499,-34.1796875,-19.53125,-28.80859375,-47.36328125,-1.0,1.0,0.0,0.0,6.m4v,3.0
2024-02-27 11:41:05.373404,1709030465.373404,-40.0390625,-14.6484375,-29.78515625,-50.29296875,-1.0,1.0,0.0,0.0,6.m4v,3.0
2024-02-27 11:41:05.377309,1709030465.377309,-30.2734375,-5.859375,-28.3203125,-20.99609375,-1.0,1.0,0.0,0.0,6.m4v,3.0
2024-02-27 11:41:05.381214,1709030465.381214,-29.78515625,-19.53125,-37.109375,-7.8125,-1.0,1.0,0.0,0.0,6.m4v,3.0
2024-02-27 11:41:05.385119,1709030465.3851192,-33.203125,-22.4609375,-39.55078125,-21.484375,-1.0,1.0,0.0,0.0,6.m4v,3.0
2024-02-27 11:41:05.389024,1709030465.3890245,-32.71484375,-33.203125,-32.2265625,-34.1796875,-1.0,1.0,0.0,0.0,6.m4v,3.0
2024-02-27 11:41:05.392929,1709030465.3929293,-40.0390625,-51.26953125,-38.0859375,-46.38671875,-1.0,1.0,0.0,0.0,6.m4v,3.0
2024-02-27 11:41:05.396834,1709030465.3968344,-46.38671875,-49.8046875,-51.7578125,-32.2265625,-1.0,1.0,0.0,0.0,6.m4v,3.0
2024-02-27 11:41:05.400739,1709030465.4007394,-32.71484375,-55.6640625,-33.69140625,-1.953125,-1.0,1.0,0.0,0.0,6.m4v,3.0
2024-02-27 11:41:05.404644,1709030465.4046445,-18.06640625,-59.5703125,-18.06640625,-10.25390625,-1.0,1.0,0.0,0.0,6.m4v,3.0
2024-02-27 11:41:05.408549,1709030465.4085493,-20.01953125,-49.31640625,-23.92578125,-37.59765625,-1.0,1.0,0.0,0.0,6.m4v,3.0
2024-02-27 11:41:05.412466,1709030465.4124658,-23.4375,-42.96875,-22.4609375,-40.0390625,-1.0,1.0,0.0,0.0,6.m4v,3.0
2024-02-27 11:41:05.416371,1709030465.4163709,-33.203125,-40.52734375,-39.55078125,-26.85546875,-1.0,1.0,0.0,0.0,6.m4v,3.0
2024-02-27 11:41:05.420276,1709030465.420276,-32.2265625,-22.94921875,-65.91796875,-19.04296875,-1.0,1.0,0.0,0.0,6.m4v,3.0
2024-02-27 11:41:05.424181,1709030465.424181,-19.53125,-30.76171875,-45.8984375,-23.4375,-1.0,1.0,0.0,0.0,6.m4v,3.0
2024-02-27 11:41:05.428086,1709030465.428086,-17.08984375,-29.296875,-21.97265625,-39.0625,-1.0,1.0,0.0,0.0,6.m4v,3.0
2024-02-27 11:41:05.431991,1709030465.431991,-30.76171875,-12.6953125,-34.1796875,-58.59375,-1.0,1.0,0.0,0.0,6.m4v,3.0
2024-02-27 11:41:05.435896,1709030465.4358962,-36.62109375,-19.53125,-41.9921875,-49.8046875,-1.0,1.0,0.0,0.0,6.m4v,3.0
2024-02-27 11:41:05.439801,1709030465.4398012,-27.83203125,-43.45703125,-35.64453125,-33.69140625,-1.0,1.0,0.0,0.0,6.m4v,3.0
2024-02-27 11:41:05.443706,1709030465.4437065,-20.99609375,-52.734375,-27.34375,-35.15625,-1.0,1.0,0.0,0.0,6.m4v,3.0
2024-02-27 11:41:05.447611,1709030465.447611,-27.34375,-62.98828125,-29.78515625,-46.38671875,-1.0,1.0,0.0,0.0,6.m4v,3.0
2024-02-27 11:41:05.451516,1709030465.4515162,-48.33984375,-60.546875,-41.015625,-69.82421875,-1.0,1.0,0.0,0.0,6.m4v,3.0
2024-02-27 11:41:05.455421,1709030465.4554212,-45.41015625,-39.55078125,-31.73828125,-54.6875,-1.0,1.0,0.0,0.0,6.m4v,3.0
2024-02-27 11:41:05.459337,1709030465.4593372,-29.78515625,-33.203125,-14.6484375,-11.71875,-1.0,1.0,0.0,0.0,6.m4v,3.0
2024-02-27 11:41:05.463242,1709030465.4632423,-29.296875,-25.390625,-30.76171875,-7.32421875,-1.0,1.0,0.0,0.0,6.m4v,3.0
2024-02-27 11:41:05.467147,1709030465.4671474,-32.2265625,-23.92578125,-40.52734375,-29.78515625,-1.0,1.0,0.0,0.0,6.m4v,3.0
2024-02-27 11:41:05.471052,1709030465.4710524,-40.52734375,-36.62109375,-31.25,-47.36328125,-1.0,1.0,0.0,0.0,6.m4v,3.0
2024-02-27 11:41:05.474957,1709030465.4749577,-45.41015625,-37.109375,-24.4140625,-40.52734375,-1.0,1.0,0.0,0.0,6.m4v,3.0
2024-02-27 11:41:05.478863,1709030465.4788623,-35.64453125,0.9765625,-23.4375,-7.8125,-1.0,1.0,0.0,0.0,6.m4v,3.0
2024-02-27 11:41:05.482768,1709030465.4827676,-37.109375,-4.39453125,-43.9453125,-11.71875,-1.0,1.0,0.0,0.0,6.m4v,3.0
2024-02-27 11:41:05.486673,1709030465.4866726,-41.9921875,-49.31640625,-44.43359375,-44.921875,-1.0,1.0,0.0,0.0,6.m4v,3.0
2024-02-27 11:41:05.490578,1709030465.4905777,-49.8046875,-54.19921875,-29.296875,-62.5,-1.0,1.0,0.0,0.0,6.m4v,3.0
2024-02-27 11:41:05.494483,1709030465.4944825,-49.8046875,-34.1796875,-33.69140625,-56.15234375,-1.0,1.0,0.0,0.0,6.m4v,3.0
2024-02-27 11:41:05.498388,1709030465.4983876,-33.203125,-33.203125,-36.62109375,-20.01953125,-1.0,1.0,0.0,0.0,6.m4v,3.0
2024-02-27 11:41:05.502293,1709030465.5022926,-27.83203125,-42.48046875,-32.71484375,-5.37109375,-1.0,1.0,0.0,0.0,6.m4v,3.0
2024-02-27 11:41:05.506208,1709030465.5062084,-21.484375,-36.62109375,-36.62109375,-20.01953125,-1.0,1.0,0.0,0.0,6.m4v,3.0
2024-02-27 11:41:05.510113,1709030465.5101137,-17.578125,-21.97265625,-43.9453125,-29.78515625,-1.0,1.0,0.0,0.0,6.m4v,3.0
2024-02-27 11:41:05.514019,1709030465.5140183,-12.20703125,6.34765625,-37.59765625,-20.99609375,-1.0,1.0,0.0,0.0,6.m4v,3.0
2024-02-27 11:41:05.517924,1709030465.5179236,-15.13671875,0.48828125,-30.2734375,-5.859375,-1.0,1.0,0.0,0.0,6.m4v,3.0
2024-02-27 11:41:05.521829,1709030465.521829,-16.11328125,-31.73828125,-21.484375,3.90625,-1.0,1.0,0.0,0.0,6.m4v,3.0
2024-02-27 11:41:05.525733,1709030465.5257337,-7.32421875,-20.5078125,-6.34765625,3.41796875,-1.0,1.0,0.0,0.0,6.m4v,3.0
2024-02-27 11:41:05.529639,1709030465.5296383,-25.87890625,-23.4375,-21.484375,-29.78515625,-1.0,1.0,0.0,0.0,6.m4v,3.0
2024-02-27 11:41:05.533544,1709030465.5335436,-54.6875,-61.5234375,-44.43359375,-53.22265625,-1.0,1.0,0.0,0.0,6.m4v,3.0
2024-02-27 11:41:05.537449,1709030465.5374486,-55.17578125,-64.453125,-39.0625,-32.2265625,-1.0,1.0,0.0,0.0,6.m4v,3.0
2024-02-27 11:41:05.541354,1709030465.5413537,-45.41015625,-39.55078125,-36.62109375,-21.97265625,-1.0,1.0,0.0,0.0,6.m4v,3.0
2024-02-27 11:41:05.545259,1709030465.5452588,-33.69140625,-30.2734375,-37.59765625,-32.2265625,-1.0,1.0,0.0,0.0,6.m4v,3.0
2024-02-27 11:41:05.549164,1709030465.5491638,-24.90234375,-38.0859375,-43.9453125,-39.55078125,-1.0,1.0,0.0,0.0,6.m4v,3.0
2024-02-27 11:41:05.553079,1709030465.5530794,-23.4375,-26.85546875,-50.78125,-41.50390625,-1.0,1.0,0.0,0.0,6.m4v,3.0
2024-02-27 11:41:05.556984,1709030465.5569844,-30.2734375,-11.23046875,-42.48046875,-27.34375,-1.0,1.0,0.0,0.0,6.m4v,3.0
2024-02-27 11:41:05.560889,1709030465.5608895,-34.66796875,-3.41796875,-34.66796875,-9.27734375,-1.0,1.0,0.0,0.0,6.m4v,3.0
2024-02-27 11:41:05.564795,1709030465.5647943,-24.90234375,-14.6484375,-42.48046875,-19.04296875,-1.0,1.0,0.0,0.0,6.m4v,3.0
2024-02-27 11:41:05.568699,1709030465.5686994,-21.97265625,-30.76171875,-52.24609375,-45.41015625,-1.0,1.0,0.0,0.0,6.m4v,3.0
2024-02-27 11:41:05.572604,1709030465.5726044,-27.34375,-22.94921875,-36.62109375,-43.45703125,-1.0,1.0,0.0,0.0,6.m4v,3.0
2024-02-27 11:41:05.576509,1709030465.5765097,-32.2265625,-10.25390625,-21.97265625,-25.390625,-1.0,1.0,0.0,0.0,6.m4v,3.0
2024-02-27 11:41:05.580415,1709030465.5804143,-35.15625,-27.34375,-32.71484375,-25.390625,-1.0,1.0,0.0,0.0,6.m4v,3.0
2024-02-27 11:41:05.584320,1709030465.5843196,-23.4375,-46.38671875,-35.15625,-26.85546875,-1.0,1.0,0.0,0.0,6.m4v,3.0
2024-02-27 11:41:05.588225,1709030465.5882246,-12.20703125,-32.71484375,-14.6484375,-28.80859375,-1.0,1.0,0.0,0.0,6.m4v,3.0
2024-02-27 11:41:05.592130,1709030465.5921297,-29.296875,-34.1796875,-18.5546875,-50.29296875,-1.0,1.0,0.0,0.0,6.m4v,3.0
2024-02-27 11:41:05.596035,1709030465.5960348,-41.9921875,-46.38671875,-41.015625,-49.8046875,-1.0,1.0,0.0,0.0,6.m4v,3.0
2024-02-27 11:41:05.599949,1709030465.5999494,-30.76171875,-26.85546875,-36.62109375,-19.53125,-1.0,1.0,0.0,0.0,6.m4v,3.0
2024-02-27 11:41:05.603854,1709030465.6038544,-19.04296875,-19.04296875,-27.83203125,-14.6484375,-1.0,1.0,0.0,0.0,6.m4v,3.0
2024-02-27 11:41:05.607759,1709030465.6077592,-11.71875,-29.296875,-21.97265625,-31.73828125,-1.0,1.0,0.0,0.0,6.m4v,3.0
2024-02-27 11:41:05.611664,1709030465.6116643,-19.53125,-37.109375,-31.73828125,-48.828125,-1.0,1.0,0.0,0.0,6.m4v,3.0
2024-02-27 11:41:05.615569,1709030465.6155694,-30.76171875,-42.96875,-47.36328125,-41.9921875,-1.0,1.0,0.0,0.0,6.m4v,3.0
2024-02-27 11:41:05.619474,1709030465.6194744,-33.69140625,-18.5546875,-47.8515625,-18.06640625,-1.0,1.0,0.0,0.0,6.m4v,3.0
2024-02-27 11:41:05.623379,1709030465.6233797,-38.0859375,-12.20703125,-49.8046875,-30.76171875,-1.0,1.0,0.0,0.0,6.m4v,3.0
2024-02-27 11:41:05.627285,1709030465.6272843,-32.71484375,-37.109375,-42.48046875,-53.7109375,-1.0,1.0,0.0,0.0,6.m4v,3.0
2024-02-27 11:41:05.631190,1709030465.6311896,-27.34375,-22.4609375,-28.80859375,-50.29296875,-1.0,1.0,0.0,0.0,6.m4v,3.0
2024-02-27 11:41:05.635095,1709030465.6350946,-30.2734375,-32.71484375,-32.71484375,-34.66796875,-1.0,1.0,0.0,0.0,6.m4v,3.0
2024-02-27 11:41:05.639000,1709030465.6389997,-32.2265625,-58.59375,-43.9453125,-20.99609375,-1.0,1.0,0.0,0.0,6.m4v,3.0
2024-02-27 11:41:05.642905,1709030465.6429048,-28.80859375,-52.24609375,-39.55078125,-19.53125,-1.0,1.0,0.0,0.0,6.m4v,3.0
2024-02-27 11:41:05.646819,1709030465.6468189,-34.1796875,-47.8515625,-33.203125,-40.0390625,-1.0,1.0,0.0,0.0,6.m4v,3.0
2024-02-27 11:41:05.650724,1709030465.650724,-45.41015625,-47.8515625,-32.2265625,-54.19921875,-1.0,1.0,0.0,0.0,6.m4v,3.0
2024-02-27 11:41:05.654629,1709030465.654629,-38.57421875,-29.78515625,-27.83203125,-38.0859375,-1.0,1.0,0.0,0.0,6.m4v,3.0
2024-02-27 11:41:05.658534,1709030465.658534,-29.296875,-7.32421875,-25.87890625,-20.99609375,-1.0,1.0,0.0,0.0,6.m4v,3.0
2024-02-27 11:41:05.662439,1709030465.662439,-34.1796875,-8.7890625,-31.25,-18.06640625,-1.0,1.0,0.0,0.0,6.m4v,3.0
2024-02-27 11:41:05.666344,1709030465.6663442,-33.203125,-0.9765625,-42.96875,-36.62109375,-1.0,1.0,0.0,0.0,6.m4v,3.0
2024-02-27 11:41:05.670249,1709030465.6702492,-20.01953125,-8.30078125,-48.33984375,-55.17578125,-1.0,1.0,0.0,0.0,6.m4v,3.0
2024-02-27 11:41:05.674154,1709030465.6741543,-17.578125,-38.0859375,-42.48046875,-43.9453125,-1.0,1.0,0.0,0.0,6.m4v,3.0
2024-02-27 11:41:05.678059,1709030465.678059,-22.4609375,-37.59765625,-40.0390625,-20.01953125,-1.0,1.0,0.0,0.0,6.m4v,3.0
2024-02-27 11:41:05.681964,1709030465.6819644,-27.83203125,-35.64453125,-39.0625,-22.94921875,-1.0,1.0,0.0,0.0,6.m4v,3.0
2024-02-27 11:41:05.681964,1709030465.6819644,-27.83203125,-35.64453125,-39.0625,-22.94921875,-1.0,1.0,0.0,0.0,6.m4v,3.0
2024-02-27 11:41:05.685869,1709030465.6858692,-40.0390625,-35.64453125,-41.50390625,-47.8515625,-1.0,1.0,0.0,0.0,6.m4v,3.0
2024-02-27 11:41:05.685869,1709030465.6858692,-40.0390625,-35.64453125,-41.50390625,-47.8515625,-1.0,1.0,0.0,0.0,6.m4v,3.0
2024-02-27 11:41:05.689774,1709030465.6897745,-40.52734375,-30.76171875,-38.0859375,-54.6875,-1.0,1.0,0.0,0.0,6.m4v,3.0
2024-02-27 11:41:05.689774,1709030465.6897745,-40.52734375,-30.76171875,-38.0859375,-54.6875,-1.0,1.0,0.0,0.0,6.m4v,3.0
2024-02-27 11:41:05.693689,1709030465.6936886,-37.59765625,-37.109375,-40.0390625,-51.7578125,-1.0,1.0,0.0,0.0,6.m4v,3.0
2024-02-27 11:41:05.693689,1709030465.6936886,-37.59765625,-37.109375,-40.0390625,-51.7578125,-1.0,1.0,0.0,0.0,6.m4v,3.0
2024-02-27 11:41:05.697594,1709030465.6975937,-38.0859375,-49.31640625,-37.59765625,-42.96875,-1.0,1.0,0.0,0.0,6.m4v,3.0
2024-02-27 11:41:05.697594,1709030465.6975937,-38.0859375,-49.31640625,-37.59765625,-42.96875,-1.0,1.0,0.0,0.0,6.m4v,3.0
2024-02-27 11:41:05.701499,1709030465.7014987,-32.2265625,-36.62109375,-29.296875,-29.78515625,-1.0,1.0,0.0,0.0,6.m4v,3.0
2024-02-27 11:41:05.701499,1709030465.7014987,-32.2265625,-36.62109375,-29.296875,-29.78515625,-1.0,1.0,0.0,0.0,6.m4v,3.0
2024-02-27 11:41:05.705404,1709030465.7054038,-25.87890625,-20.01953125,-29.78515625,-32.2265625,-1.0,1.0,0.0,0.0,6.m4v,3.0
2024-02-27 11:41:05.709309,1709030465.7093089,-42.48046875,-34.66796875,-40.52734375,-54.6875,-1.0,1.0,0.0,0.0,6.m4v,3.0
2024-02-27 11:41:05.713214,1709030465.713214,-51.7578125,-23.4375,-41.015625,-55.17578125,-1.0,1.0,0.0,0.0,6.m4v,3.0
2024-02-27 11:41:05.717119,1709030465.717119,-39.0625,-2.44140625,-27.34375,-27.34375,-1.0,1.0,0.0,0.0,6.m4v,3.0
2024-02-27 11:41:05.721024,1709030465.7210238,-34.66796875,-22.94921875,-30.2734375,-16.11328125,-1.0,1.0,0.0,0.0,6.m4v,3.0
2024-02-27 11:41:05.724929,1709030465.7249289,-33.69140625,-33.203125,-38.57421875,-33.203125,-1.0,1.0,0.0,0.0,6.m4v,3.0
2024-02-27 11:41:05.728834,1709030465.728834,-33.203125,-38.0859375,-41.015625,-51.26953125,-1.0,1.0,0.0,0.0,6.m4v,3.0
2024-02-27 11:41:05.732739,1709030465.732739,-34.66796875,-57.12890625,-39.55078125,-43.9453125,-1.0,1.0,0.0,0.0,6.m4v,3.0
2024-02-27 11:41:05.736644,1709030465.736644,-46.38671875,-61.03515625,-46.38671875,-28.80859375,-1.0,1.0,0.0,0.0,6.m4v,3.0
2024-02-27 11:41:05.740561,1709030465.740561,-51.7578125,-36.1328125,-62.5,-31.25,-1.0,1.0,0.0,0.0,6.m4v,3.0
2024-02-27 11:41:05.744466,1709030465.744466,-51.7578125,-34.66796875,-63.4765625,-52.24609375,-1.0,1.0,0.0,0.0,6.m4v,3.0
2024-02-27 11:41:05.748371,1709030465.7483711,-48.33984375,-42.96875,-34.66796875,-54.19921875,-1.0,1.0,0.0,0.0,6.m4v,3.0
2024-02-27 11:41:05.752276,1709030465.7522762,-40.52734375,-26.3671875,-12.6953125,-42.96875,-1.0,1.0,0.0,0.0,6.m4v,3.0
2024-02-27 11:41:05.756181,1709030465.7561812,-45.8984375,-30.2734375,-19.04296875,-36.62109375,-1.0,1.0,0.0,0.0,6.m4v,3.0
2024-02-27 11:41:05.760086,1709030465.7600863,-49.31640625,-28.80859375,-25.390625,-13.18359375,-1.0,1.0,0.0,0.0,6.m4v,3.0
2024-02-27 11:41:05.763991,1709030465.763991,-36.1328125,-11.23046875,-23.92578125,-6.34765625,-1.0,1.0,0.0,0.0,6.m4v,3.0
2024-02-27 11:41:05.767896,1709030465.7678962,-32.2265625,-27.34375,-24.90234375,-37.59765625,-1.0,1.0,0.0,0.0,6.m4v,3.0
2024-02-27 11:41:05.771801,1709030465.7718012,-41.50390625,-45.41015625,-33.203125,-55.6640625,-1.0,1.0,0.0,0.0,6.m4v,3.0
2024-02-27 11:41:05.775706,1709030465.7757063,-47.8515625,-43.45703125,-40.0390625,-45.8984375,-1.0,1.0,0.0,0.0,6.m4v,3.0
2024-02-27 11:41:05.779611,1709030465.779611,-43.45703125,-45.41015625,-40.52734375,-26.3671875,-1.0,1.0,0.0,0.0,6.m4v,3.0
2024-02-27 11:41:05.783516,1709030465.7835164,-42.48046875,-39.0625,-31.73828125,-20.99609375,-1.0,1.0,0.0,0.0,6.m4v,3.0
2024-02-27 11:41:05.787433,1709030465.787433,-41.9921875,-29.78515625,-36.1328125,-34.66796875,-1.0,1.0,0.0,0.0,6.m4v,3.0
2024-02-27 11:41:05.791338,1709030465.791338,-43.45703125,-36.62109375,-44.43359375,-50.78125,-1.0,1.0,0.0,0.0,6.m4v,3.0
2024-02-27 11:41:05.795243,1709030465.795243,-61.03515625,-42.48046875,-43.9453125,-59.5703125,-1.0,1.0,0.0,0.0,6.m4v,3.0
2024-02-27 11:41:05.799148,1709030465.799148,-56.15234375,-34.66796875,-48.33984375,-40.52734375,-1.0,1.0,0.0,0.0,6.m4v,3.0
2024-02-27 11:41:05.803053,1709030465.8030531,-45.41015625,-18.5546875,-49.8046875,-29.78515625,-1.0,1.0,0.0,0.0,6.m4v,3.0
2024-02-27 11:41:05.806958,1709030465.8069582,-40.0390625,3.41796875,-33.69140625,-38.0859375,-1.0,1.0,0.0,0.0,6.m4v,3.0
2024-02-27 11:41:06.240512,1709030466.240512,-31.73828125,-36.62109375,-31.73828125,-17.578125,-1.0,1.0,0.0,0.0,6.m4v,3.0
2024-02-27 11:41:06.248322,1709030466.248322,-31.25,-51.26953125,-44.43359375,-45.41015625,-1.0,1.0,0.0,0.0,6.m4v,3.0
2024-02-27 11:41:06.260048,1709030466.2600477,-12.20703125,-4.8828125,-24.4140625,-6.34765625,-1.0,1.0,0.0,0.0,6.m4v,3.0
2024-02-27 11:41:06.267858,1709030466.2678578,-23.92578125,-50.78125,-28.3203125,-37.59765625,-1.0,1.0,0.0,0.0,6.m4v,3.0
2024-02-27 11:41:06.279573,1709030466.279573,-55.6640625,-32.2265625,-38.0859375,-26.3671875,-1.0,1.0,0.0,0.0,6.m4v,3.0
2024-02-27 11:41:06.291288,1709030466.291288,-64.453125,-24.4140625,-44.43359375,-73.2421875,-1.0,1.0,0.0,0.0,6.m4v,3.0
2024-02-27 11:41:06.299098,1709030466.299098,-56.15234375,-37.109375,-45.41015625,-29.78515625,-1.0,1.0,0.0,0.0,6.m4v,3.0
2024-02-27 11:41:06.310823,1709030466.3108232,-28.3203125,-40.0390625,-28.3203125,-48.828125,-1.0,1.0,0.0,0.0,6.m4v,3.0
2024-02-27 11:41:06.310823,1709030466.3108232,-28.3203125,-40.0390625,-28.3203125,-48.828125,-1.0,1.0,0.0,0.0,6.m4v,3.0
2024-02-27 11:41:06.322538,1709030466.3225384,-7.8125,-7.8125,-21.484375,3.90625,-1.0,1.0,0.0,0.0,6.m4v,3.0
2024-02-27 11:41:06.322538,1709030466.3225384,-7.8125,-7.8125,-21.484375,3.90625,-1.0,1.0,0.0,0.0,6.m4v,3.0
2024-02-27 11:41:06.330348,1709030466.3303485,-26.3671875,-75.1953125,-26.3671875,-59.08203125,-1.0,1.0,0.0,0.0,6.m4v,3.0
2024-02-27 11:41:06.330348,1709030466.3303485,-26.3671875,-75.1953125,-26.3671875,-59.08203125,-1.0,1.0,0.0,0.0,6.m4v,3.0
2024-02-27 11:41:06.342064,1709030466.3420637,-52.24609375,-9.27734375,-25.87890625,-18.06640625,-1.0,1.0,0.0,0.0,6.m4v,3.0
2024-02-27 11:41:06.342064,1709030466.3420637,-52.24609375,-9.27734375,-25.87890625,-18.06640625,-1.0,1.0,0.0,0.0,6.m4v,3.0
2024-02-27 11:41:06.353789,1709030466.3537889,-34.66796875,-12.20703125,-33.203125,-45.41015625,-1.0,1.0,0.0,0.0,6.m4v,3.0
2024-02-27 11:41:06.353789,1709030466.3537889,-34.66796875,-12.20703125,-33.203125,-45.41015625,-1.0,1.0,0.0,0.0,6.m4v,3.0
2024-02-27 11:41:06.361599,1709030466.361599,-36.62109375,-50.29296875,-41.50390625,-25.390625,-1.0,1.0,0.0,0.0,6.m4v,3.0
2024-02-27 11:41:06.361599,1709030466.361599,-36.62109375,-50.29296875,-41.50390625,-25.390625,-1.0,1.0,0.0,0.0,6.m4v,3.0
2024-02-27 11:41:06.373314,1709030466.373314,-40.0390625,-16.6015625,-41.015625,-68.359375,-1.0,1.0,0.0,0.0,6.m4v,3.0
2024-02-27 11:41:06.373314,1709030466.373314,-40.0390625,-16.6015625,-41.015625,-68.359375,-1.0,1.0,0.0,0.0,6.m4v,3.0
2024-02-27 11:41:06.564704,1709030466.5647044,-41.9921875,-41.50390625,-19.53125,-33.203125,-1.0,1.0,0.0,0.0,6.m4v,3.0
2024-02-27 11:41:06.568609,1709030466.5686097,-31.73828125,-36.1328125,-21.97265625,-40.0390625,-1.0,1.0,0.0,0.0,6.m4v,3.0
2024-02-27 11:41:06.572515,1709030466.5725143,-27.34375,-21.484375,-38.0859375,-40.52734375,-1.0,1.0,0.0,0.0,6.m4v,3.0
2024-02-27 11:41:06.576420,1709030466.5764196,-26.3671875,-11.71875,-37.59765625,-32.71484375,-1.0,1.0,0.0,0.0,6.m4v,3.0
2024-02-27 11:41:06.580325,1709030466.5803246,-17.578125,-16.11328125,-28.3203125,-6.8359375,-1.0,1.0,0.0,0.0,6.m4v,3.0
2024-02-27 11:41:06.584241,1709030466.584241,-11.23046875,-27.34375,-17.578125,1.46484375,-1.0,1.0,0.0,0.0,6.m4v,3.0
2024-02-27 11:41:06.588146,1709030466.5881455,-12.6953125,-36.62109375,-35.64453125,-21.97265625,-1.0,1.0,0.0,0.0,6.m4v,3.0
2024-02-27 11:41:06.592051,1709030466.5920508,-6.34765625,-13.18359375,-41.015625,-40.0390625,-1.0,1.0,0.0,0.0,6.m4v,3.0
2024-02-27 11:41:06.595956,1709030466.5959558,6.8359375,12.6953125,-22.94921875,-20.99609375,-1.0,1.0,0.0,0.0,6.m4v,3.0
2024-02-27 11:41:06.599861,1709030466.599861,2.44140625,-9.765625,-23.4375,-2.9296875,-1.0,1.0,0.0,0.0,6.m4v,3.0
2024-02-27 11:41:06.603766,1709030466.603766,-20.01953125,-9.27734375,-31.25,-17.08984375,-1.0,1.0,0.0,0.0,6.m4v,3.0
2024-02-27 11:41:06.607671,1709030466.607671,-40.0390625,-20.01953125,-45.41015625,-60.05859375,-1.0,1.0,0.0,0.0,6.m4v,3.0
2024-02-27 11:41:06.611576,1709030466.611576,-43.9453125,-46.875,-45.8984375,-77.63671875,-1.0,1.0,0.0,0.0,6.m4v,3.0
2024-02-27 11:41:06.615481,1709030466.6154811,-36.62109375,-25.390625,-46.38671875,-47.36328125,-1.0,1.0,0.0,0.0,6.m4v,3.0
2024-02-27 11:41:06.619386,1709030466.619386,-34.66796875,-29.78515625,-54.19921875,-24.4140625,-1.0,1.0,0.0,0.0,6.m4v,3.0
2024-02-27 11:41:06.623291,1709030466.623291,-29.78515625,-35.15625,-38.0859375,-21.484375,-1.0,1.0,0.0,0.0,6.m4v,3.0
2024-02-27 11:41:06.627196,1709030466.627196,-23.4375,-21.484375,-23.4375,-41.015625,-1.0,1.0,0.0,0.0,6.m4v,3.0
2024-02-27 11:41:06.631112,1709030466.631112,-31.25,-16.6015625,-31.25,-62.98828125,-1.0,1.0,0.0,0.0,6.m4v,3.0
2024-02-27 11:41:06.635017,1709030466.635017,-44.43359375,-27.83203125,-43.9453125,-60.546875,-1.0,1.0,0.0,0.0,6.m4v,3.0
2024-02-27 11:41:06.638922,1709030466.638922,-37.59765625,-43.45703125,-47.8515625,-38.57421875,-1.0,1.0,0.0,0.0,6.m4v,3.0
2024-02-27 11:41:06.642827,1709030466.642827,-31.25,-44.43359375,-43.45703125,-33.203125,-1.0,1.0,0.0,0.0,6.m4v,3.0
2024-02-27 11:41:06.646732,1709030466.646732,-29.78515625,-44.921875,-35.15625,-46.38671875,-1.0,1.0,0.0,0.0,6.m4v,3.0
2024-02-27 11:41:06.650637,1709030466.6506371,-33.203125,-52.734375,-40.0390625,-51.7578125,-1.0,1.0,0.0,0.0,6.m4v,3.0
2024-02-27 11:41:06.654542,1709030466.654542,-37.59765625,-43.9453125,-41.9921875,-36.1328125,-1.0,1.0,0.0,0.0,6.m4v,3.0
2024-02-27 11:41:06.658447,1709030466.658447,-33.203125,-38.0859375,-28.80859375,-9.765625,-1.0,1.0,0.0,0.0,6.m4v,3.0
2024-02-27 11:41:06.662352,1709030466.662352,-34.66796875,-41.9921875,-16.11328125,-10.7421875,-1.0,1.0,0.0,0.0,6.m4v,3.0
2024-02-27 11:41:06.666257,1709030466.6662571,-34.66796875,-37.59765625,-23.92578125,-30.2734375,-1.0,1.0,0.0,0.0,6.m4v,3.0
2024-02-27 11:41:06.670162,1709030466.6701622,-36.62109375,-36.62109375,-29.296875,-41.50390625,-1.0,1.0,0.0,0.0,6.m4v,3.0
2024-02-27 11:41:06.674067,1709030466.6740673,-28.80859375,-44.43359375,-20.01953125,-30.2734375,-1.0,1.0,0.0,0.0,6.m4v,3.0
2024-02-27 11:41:06.677982,1709030466.677982,-25.390625,-38.57421875,-22.4609375,-4.39453125,-1.0,1.0,0.0,0.0,6.m4v,3.0
2024-02-27 11:41:06.681887,1709030466.6818871,-27.34375,-23.4375,-34.66796875,-2.9296875,-1.0,1.0,0.0,0.0,6.m4v,3.0
2024-02-27 11:41:06.685792,1709030466.6857922,-24.90234375,-35.64453125,-41.9921875,-25.87890625,-1.0,1.0,0.0,0.0,6.m4v,3.0
2024-02-27 11:41:06.689697,1709030466.6896973,-40.0390625,-59.08203125,-42.96875,-55.6640625,-1.0,1.0,0.0,0.0,6.m4v,3.0
2024-02-27 11:41:06.693602,1709030466.6936023,-46.875,-41.50390625,-35.15625,-53.7109375,-1.0,1.0,0.0,0.0,6.m4v,3.0
2024-02-27 11:41:06.697507,1709030466.6975074,-44.43359375,-12.20703125,-39.55078125,-32.71484375,-1.0,1.0,0.0,0.0,6.m4v,3.0
2024-02-27 11:41:06.701412,1709030466.7014124,-48.33984375,-22.94921875,-45.41015625,-32.71484375,-1.0,1.0,0.0,0.0,6.m4v,3.0
2024-02-27 11:41:06.705317,1709030466.7053175,-49.31640625,-41.9921875,-51.7578125,-50.78125,-1.0,1.0,0.0,0.0,6.m4v,3.0
2024-02-27 11:41:06.709222,1709030466.7092223,-36.62109375,-45.41015625,-43.9453125,-58.59375,-1.0,1.0,0.0,0.0,6.m4v,3.0
2024-02-27 11:41:06.713127,1709030466.7131274,-16.11328125,-15.13671875,-17.578125,-49.8046875,-1.0,1.0,0.0,0.0,6.m4v,3.0
2024-02-27 11:41:06.717032,1709030466.7170324,-26.85546875,-5.37109375,-17.578125,-40.52734375,-1.0,1.0,0.0,0.0,6.m4v,3.0
2024-02-27 11:41:06.720937,1709030466.7209375,-54.19921875,-33.69140625,-23.4375,-42.48046875,-1.0,1.0,0.0,0.0,6.m4v,3.0
2024-02-27 11:41:06.724852,1709030466.7248523,-56.15234375,-44.43359375,-36.1328125,-60.546875,-1.0,1.0,0.0,0.0,6.m4v,3.0
2024-02-27 11:41:06.728757,1709030466.7287574,-45.8984375,-40.52734375,-52.24609375,-77.1484375,-1.0,1.0,0.0,0.0,6.m4v,3.0
2024-02-27 11:41:06.732662,1709030466.7326624,-50.78125,-30.2734375,-46.38671875,-77.1484375,-1.0,1.0,0.0,0.0,6.m4v,3.0
2024-02-27 11:41:06.736567,1709030466.7365675,-46.875,-33.203125,-30.2734375,-56.15234375,-1.0,1.0,0.0,0.0,6.m4v,3.0
2024-02-27 11:41:06.740472,1709030466.7404723,-36.1328125,-35.15625,-29.78515625,-30.2734375,-1.0,1.0,0.0,0.0,6.m4v,3.0
2024-02-27 11:41:06.744377,1709030466.7443774,-31.25,-21.484375,-38.0859375,-24.90234375,-1.0,1.0,0.0,0.0,6.m4v,3.0
2024-02-27 11:41:06.748282,1709030466.7482824,-26.3671875,-24.4140625,-35.64453125,-36.1328125,-1.0,1.0,0.0,0.0,6.m4v,3.0
2024-02-27 11:41:06.752187,1709030466.7521875,-41.9921875,-49.31640625,-33.69140625,-56.640625,-1.0,1.0,0.0,0.0,6.m4v,3.0
2024-02-27 11:41:06.756093,1709030466.7560923,-47.8515625,-53.7109375,-43.45703125,-45.8984375,-1.0,1.0,0.0,0.0,6.m4v,3.0
2024-02-27 11:41:06.759998,1709030466.7599976,-27.83203125,-41.9921875,-36.62109375,-13.18359375,-1.0,1.0,0.0,0.0,6.m4v,3.0
2024-02-27 11:41:06.763903,1709030466.763903,-3.90625,-33.69140625,-17.08984375,0.9765625,-1.0,1.0,0.0,0.0,6.m4v,3.0
2024-02-27 11:41:06.767808,1709030466.7678075,5.37109375,-52.24609375,-35.64453125,-8.7890625,-1.0,1.0,0.0,0.0,6.m4v,3.0
2024-02-27 11:41:06.771723,1709030466.7717226,1.953125,-55.17578125,-45.8984375,-8.30078125,-1.0,1.0,0.0,0.0,6.m4v,3.0
2024-02-27 11:41:06.775627,1709030466.7756274,-14.16015625,-23.92578125,-37.59765625,-5.37109375,-1.0,1.0,0.0,0.0,6.m4v,3.0
2024-02-27 11:41:06.779532,1709030466.7795324,-27.34375,-20.01953125,-23.4375,-4.39453125,-1.0,1.0,0.0,0.0,6.m4v,3.0
2024-02-27 11:41:06.783437,1709030466.7834375,-28.80859375,-27.34375,-20.01953125,-15.625,-1.0,1.0,0.0,0.0,6.m4v,3.0
2024-02-27 11:41:06.787343,1709030466.7873423,-34.66796875,-39.55078125,-41.9921875,-46.875,-1.0,1.0,0.0,0.0,6.m4v,3.0
2024-02-27 11:41:06.791248,1709030466.7912476,-36.1328125,-26.85546875,-40.52734375,-54.19921875,-1.0,1.0,0.0,0.0,6.m4v,3.0
2024-02-27 11:41:06.795153,1709030466.795153,-30.76171875,-31.73828125,-30.76171875,-41.50390625,-1.0,1.0,0.0,0.0,6.m4v,3.0
2024-02-27 11:41:06.799058,1709030466.7990575,-34.1796875,-60.05859375,-33.69140625,-31.73828125,-1.0,1.0,0.0,0.0,6.m4v,3.0
2024-02-27 11:41:06.802963,1709030466.8029628,-24.4140625,-39.55078125,-28.3203125,-20.99609375,-1.0,1.0,0.0,0.0,6.m4v,3.0
2024-02-27 11:41:06.806868,1709030466.8068678,-24.90234375,-51.26953125,-42.96875,-41.50390625,-1.0,1.0,0.0,0.0,6.m4v,3.0
2024-02-27 11:41:06.810773,1709030466.810773,-40.52734375,-61.5234375,-45.41015625,-61.03515625,-1.0,1.0,0.0,0.0,6.m4v,3.0
2024-02-27 11:41:06.814678,1709030466.814678,-53.22265625,-40.52734375,-23.92578125,-55.6640625,-1.0,1.0,0.0,0.0,6.m4v,3.0
2024-02-27 11:41:06.818592,1709030466.8185916,-66.89453125,-36.62109375,-22.4609375,-46.875,-1.0,1.0,0.0,0.0,6.m4v,3.0
2024-02-27 11:41:06.822497,1709030466.822497,-54.6875,-26.85546875,-40.0390625,-33.69140625,-1.0,1.0,0.0,0.0,6.m4v,3.0
2024-02-27 11:41:07.369320,1709030467.3693197,-23.92578125,-26.85546875,-24.90234375,-32.2265625,-1.0,1.0,0.0,0.0,6.m4v,3.0
2024-02-27 11:41:07.369320,1709030467.3693197,-23.92578125,-26.85546875,-24.90234375,-32.2265625,-1.0,1.0,0.0,0.0,6.m4v,3.0
2024-02-27 11:41:07.377130,1709030467.3771298,-35.64453125,-34.66796875,-27.83203125,-22.4609375,-1.0,1.0,0.0,0.0,6.m4v,3.0
2024-02-27 11:41:07.377130,1709030467.3771298,-35.64453125,-34.66796875,-27.83203125,-22.4609375,-1.0,1.0,0.0,0.0,6.m4v,3.0
2024-02-27 11:41:07.384950,1709030467.3849504,-44.43359375,-27.34375,-31.73828125,-19.04296875,-1.0,1.0,0.0,0.0,6.m4v,3.0
2024-02-27 11:41:07.384950,1709030467.3849504,-44.43359375,-27.34375,-31.73828125,-19.04296875,-1.0,1.0,0.0,0.0,6.m4v,3.0
2024-02-27 11:41:07.392761,1709030467.3927605,-50.29296875,-44.43359375,-28.3203125,-46.38671875,-1.0,1.0,0.0,0.0,6.m4v,3.0
2024-02-27 11:41:07.392761,1709030467.3927605,-50.29296875,-44.43359375,-28.3203125,-46.38671875,-1.0,1.0,0.0,0.0,6.m4v,3.0
2024-02-27 11:41:07.400571,1709030467.4005706,-51.7578125,-12.20703125,-28.3203125,-15.13671875,-1.0,1.0,0.0,0.0,6.m4v,3.0
2024-02-27 11:41:07.400571,1709030467.4005706,-51.7578125,-12.20703125,-28.3203125,-15.13671875,-1.0,1.0,0.0,0.0,6.m4v,3.0
2024-02-27 11:41:07.408381,1709030467.4083807,-57.12890625,-61.5234375,-38.0859375,-52.24609375,-1.0,1.0,0.0,0.0,6.m4v,3.0
2024-02-27 11:41:07.408381,1709030467.4083807,-57.12890625,-61.5234375,-38.0859375,-52.24609375,-1.0,1.0,0.0,0.0,6.m4v,3.0
2024-02-27 11:41:07.416191,1709030467.4161909,-65.4296875,-38.0859375,-31.25,-62.5,-1.0,1.0,0.0,0.0,6.m4v,3.0
2024-02-27 11:41:07.416191,1709030467.4161909,-65.4296875,-38.0859375,-31.25,-62.5,-1.0,1.0,0.0,0.0,6.m4v,3.0
2024-02-27 11:41:07.424001,1709030467.424001,-61.03515625,-29.296875,-27.34375,-51.26953125,-1.0,1.0,0.0,0.0,6.m4v,3.0
2024-02-27 11:41:07.424001,1709030467.424001,-61.03515625,-29.296875,-27.34375,-51.26953125,-1.0,1.0,0.0,0.0,6.m4v,3.0
2024-02-27 11:41:07.431822,1709030467.4318216,-92.7734375,-36.1328125,-34.66796875,-111.328125,-1.0,1.0,0.0,0.0,6.m4v,3.0
2024-02-27 11:41:07.431822,1709030467.4318216,-92.7734375,-36.1328125,-34.66796875,-111.328125,-1.0,1.0,0.0,0.0,6.m4v,3.0
2024-02-27 11:41:07.439632,1709030467.4396317,-69.3359375,-20.99609375,-22.4609375,-59.08203125,-1.0,1.0,0.0,0.0,6.m4v,3.0
2024-02-27 11:41:07.439632,1709030467.4396317,-69.3359375,-20.99609375,-22.4609375,-59.08203125,-1.0,1.0,0.0,0.0,6.m4v,3.0
2024-02-27 11:41:07.447442,1709030467.4474418,-76.171875,-1.953125,-19.53125,-74.70703125,-1.0,1.0,0.0,0.0,6.m4v,3.0
2024-02-27 11:41:07.447442,1709030467.4474418,-76.171875,-1.953125,-19.53125,-74.70703125,-1.0,1.0,0.0,0.0,6.m4v,3.0
2024-02-27 11:41:07.455252,1709030467.4552517,-95.703125,-39.55078125,-23.92578125,-105.46875,-1.0,1.0,0.0,0.0,6.m4v,3.0
2024-02-27 11:41:07.455252,1709030467.4552517,-95.703125,-39.55078125,-23.92578125,-105.46875,-1.0,1.0,0.0,0.0,6.m4v,3.0
2024-02-27 11:41:07.463062,1709030467.4630618,-106.93359375,-37.59765625,-40.52734375,-98.14453125,-1.0,1.0,0.0,0.0,6.m4v,3.0
2024-02-27 11:41:07.463062,1709030467.4630618,-106.93359375,-37.59765625,-40.52734375,-98.14453125,-1.0,1.0,0.0,0.0,6.m4v,3.0
2024-02-27 11:41:07.470872,1709030467.470872,-123.53515625,-42.96875,-36.62109375,-146.484375,-1.0,1.0,0.0,0.0,6.m4v,3.0
2024-02-27 11:41:07.470872,1709030467.470872,-123.53515625,-42.96875,-36.62109375,-146.484375,-1.0,1.0,0.0,0.0,6.m4v,3.0
2024-02-27 11:41:07.478692,1709030467.4786918,-117.1875,-5.37109375,-61.03515625,-99.12109375,-1.0,1.0,0.0,0.0,6.m4v,3.0
2024-02-27 11:41:07.478692,1709030467.4786918,-117.1875,-5.37109375,-61.03515625,-99.12109375,-1.0,1.0,0.0,0.0,6.m4v,3.0
2024-02-27 11:41:07.486502,1709030467.486502,-129.39453125,-35.64453125,-45.41015625,-132.8125,-1.0,1.0,0.0,0.0,6.m4v,3.0
2024-02-27 11:41:07.486502,1709030467.486502,-129.39453125,-35.64453125,-45.41015625,-132.8125,-1.0,1.0,0.0,0.0,6.m4v,3.0
2024-02-27 11:41:07.494312,1709030467.4943118,-114.74609375,-1.953125,-16.6015625,-123.046875,-1.0,1.0,0.0,0.0,6.m4v,3.0
2024-02-27 11:41:07.494312,1709030467.4943118,-114.74609375,-1.953125,-16.6015625,-123.046875,-1.0,1.0,0.0,0.0,6.m4v,3.0
2024-02-27 11:41:07.502122,1709030467.502122,-109.86328125,-41.50390625,-45.41015625,-94.23828125,-1.0,1.0,0.0,0.0,6.m4v,3.0
2024-02-27 11:41:07.502122,1709030467.502122,-109.86328125,-41.50390625,-45.41015625,-94.23828125,-1.0,1.0,0.0,0.0,6.m4v,3.0
2024-02-27 11:41:07.509932,1709030467.509932,-105.46875,-36.1328125,-27.34375,-125.9765625,-1.0,1.0,0.0,0.0,6.m4v,3.0
2024-02-27 11:41:07.509932,1709030467.509932,-105.46875,-36.1328125,-27.34375,-125.9765625,-1.0,1.0,0.0,0.0,6.m4v,3.0
2024-02-27 11:41:07.517742,1709030467.5177422,-80.078125,-20.5078125,-51.26953125,-78.61328125,-1.0,1.0,0.0,0.0,6.m4v,3.0
2024-02-27 11:41:07.517742,1709030467.5177422,-80.078125,-20.5078125,-51.26953125,-78.61328125,-1.0,1.0,0.0,0.0,6.m4v,3.0
2024-02-27 11:41:07.525562,1709030467.5255616,-46.38671875,-34.66796875,-26.3671875,-44.43359375,-1.0,1.0,0.0,0.0,6.m4v,3.0
2024-02-27 11:41:07.525562,1709030467.5255616,-46.38671875,-34.66796875,-26.3671875,-44.43359375,-1.0,1.0,0.0,0.0,6.m4v,3.0
2024-02-27 11:41:07.533372,1709030467.5333717,-54.6875,-63.96484375,-19.04296875,-63.4765625,-1.0,1.0,0.0,0.0,6.m4v,3.0
2024-02-27 11:41:07.533372,1709030467.5333717,-54.6875,-63.96484375,-19.04296875,-63.4765625,-1.0,1.0,0.0,0.0,6.m4v,3.0
2024-02-27 11:41:07.541182,1709030467.5411816,-30.76171875,10.7421875,-14.16015625,0.0,-1.0,1.0,0.0,0.0,6.m4v,3.0
2024-02-27 11:41:07.541182,1709030467.5411816,-30.76171875,10.7421875,-14.16015625,0.0,-1.0,1.0,0.0,0.0,6.m4v,3.0
2024-02-27 11:41:07.548992,1709030467.5489917,-2.9296875,-46.875,-35.15625,-15.625,-1.0,1.0,0.0,0.0,6.m4v,3.0
2024-02-27 11:41:07.548992,1709030467.5489917,-2.9296875,-46.875,-35.15625,-15.625,-1.0,1.0,0.0,0.0,6.m4v,3.0
2024-02-27 11:41:07.556802,1709030467.5568018,3.41796875,-36.62109375,-38.0859375,9.765625,-1.0,1.0,0.0,0.0,6.m4v,3.0
2024-02-27 11:41:07.556802,1709030467.5568018,3.41796875,-36.62109375,-38.0859375,9.765625,-1.0,1.0,0.0,0.0,6.m4v,3.0
2024-02-27 11:41:07.564612,1709030467.564612,20.99609375,-44.43359375,-25.390625,34.1796875,-1.0,1.0,0.0,0.0,6.m4v,3.0
2024-02-27 11:41:07.564612,1709030467.564612,20.99609375,-44.43359375,-25.390625,34.1796875,-1.0,1.0,0.0,0.0,6.m4v,3.0
2024-02-27 11:41:07.572431,1709030467.5724306,24.4140625,-56.640625,-31.73828125,16.6015625,-1.0,1.0,0.0,0.0,6.m4v,3.0
2024-02-27 11:41:07.572431,1709030467.5724306,24.4140625,-56.640625,-31.73828125,16.6015625,-1.0,1.0,0.0,0.0,6.m4v,3.0
2024-02-27 11:41:07.580241,1709030467.5802407,9.765625,-32.2265625,-38.0859375,33.203125,-1.0,1.0,0.0,0.0,6.m4v,3.0
2024-02-27 11:41:07.580241,1709030467.5802407,9.765625,-32.2265625,-38.0859375,33.203125,-1.0,1.0,0.0,0.0,6.m4v,3.0
2024-02-27 11:41:07.588051,1709030467.5880508,30.76171875,-20.99609375,-32.2265625,26.85546875,-1.0,1.0,0.0,0.0,6.m4v,3.0
2024-02-27 11:41:07.588051,1709030467.5880508,30.76171875,-20.99609375,-32.2265625,26.85546875,-1.0,1.0,0.0,0.0,6.m4v,3.0
2024-02-27 11:41:07.595861,1709030467.595861,23.4375,-54.19921875,-18.5546875,20.01953125,-1.0,1.0,0.0,0.0,6.m4v,3.0
2024-02-27 11:41:07.595861,1709030467.595861,23.4375,-54.19921875,-18.5546875,20.01953125,-1.0,1.0,0.0,0.0,6.m4v,3.0
2024-02-27 11:41:07.603671,1709030467.603671,19.53125,-36.1328125,-22.94921875,41.9921875,-1.0,1.0,0.0,0.0,6.m4v,3.0
2024-02-27 11:41:07.603671,1709030467.603671,19.53125,-36.1328125,-22.94921875,41.9921875,-1.0,1.0,0.0,0.0,6.m4v,3.0
2024-02-27 11:41:07.611481,1709030467.6114812,0.48828125,-30.2734375,-43.9453125,-12.6953125,-1.0,1.0,0.0,0.0,6.m4v,3.0
2024-02-27 11:41:07.611481,1709030467.6114812,0.48828125,-30.2734375,-43.9453125,-12.6953125,-1.0,1.0,0.0,0.0,6.m4v,3.0
2024-02-27 11:41:07.619303,1709030467.6193037,-11.23046875,-40.52734375,-22.94921875,17.578125,-1.0,1.0,0.0,0.0,6.m4v,3.0
2024-02-27 11:41:07.619303,1709030467.6193037,-11.23046875,-40.52734375,-22.94921875,17.578125,-1.0,1.0,0.0,0.0,6.m4v,3.0
2024-02-27 11:41:07.627113,1709030467.627113,20.5078125,-31.25,-28.80859375,20.01953125,-1.0,1.0,0.0,0.0,6.m4v,3.0
2024-02-27 11:41:07.627113,1709030467.627113,20.5078125,-31.25,-28.80859375,20.01953125,-1.0,1.0,0.0,0.0,6.m4v,3.0
2024-02-27 11:41:07.634923,1709030467.6349237,3.41796875,-31.25,-26.85546875,14.6484375,-1.0,1.0,0.0,0.0,6.m4v,3.0
2024-02-27 11:41:07.634923,1709030467.6349237,3.41796875,-31.25,-26.85546875,14.6484375,-1.0,1.0,0.0,0.0,6.m4v,3.0
2024-02-27 11:41:07.642734,1709030467.6427336,-7.32421875,-35.64453125,-32.2265625,21.484375,-1.0,1.0,0.0,0.0,6.m4v,3.0
2024-02-27 11:41:07.642734,1709030467.6427336,-7.32421875,-35.64453125,-32.2265625,21.484375,-1.0,1.0,0.0,0.0,6.m4v,3.0
2024-02-27 11:41:07.650544,1709030467.6505437,-10.7421875,-59.08203125,-23.92578125,-13.671875,-1.0,1.0,0.0,0.0,6.m4v,3.0
2024-02-27 11:41:07.650544,1709030467.6505437,-10.7421875,-59.08203125,-23.92578125,-13.671875,-1.0,1.0,0.0,0.0,6.m4v,3.0
2024-02-27 11:41:07.658354,1709030467.6583538,-9.765625,-29.296875,-21.97265625,4.8828125,-1.0,1.0,0.0,0.0,6.m4v,3.0
2024-02-27 11:41:07.658354,1709030467.6583538,-9.765625,-29.296875,-21.97265625,4.8828125,-1.0,1.0,0.0,0.0,6.m4v,3.0
2024-02-27 11:41:07.666175,1709030467.6661754,-0.48828125,-35.15625,-35.64453125,16.11328125,-1.0,1.0,0.0,0.0,6.m4v,3.0
2024-02-27 11:41:07.666175,1709030467.6661754,-0.48828125,-35.15625,-35.64453125,16.11328125,-1.0,1.0,0.0,0.0,6.m4v,3.0
2024-02-27 11:41:07.673985,1709030467.6739852,-1.46484375,-21.484375,-10.25390625,6.34765625,-1.0,1.0,0.0,0.0,6.m4v,3.0
2024-02-27 11:41:07.673985,1709030467.6739852,-1.46484375,-21.484375,-10.25390625,6.34765625,-1.0,1.0,0.0,0.0,6.m4v,3.0
2024-02-27 11:41:07.681795,1709030467.6817954,-37.59765625,-14.6484375,-43.45703125,13.671875,-1.0,1.0,0.0,0.0,6.m4v,3.0
2024-02-27 11:41:07.681795,1709030467.6817954,-37.59765625,-14.6484375,-43.45703125,13.671875,-1.0,1.0,0.0,0.0,6.m4v,3.0
2024-02-27 11:41:07.689605,1709030467.6896057,-49.8046875,-68.84765625,-25.390625,-51.7578125,-1.0,1.0,0.0,0.0,6.m4v,3.0
2024-02-27 11:41:07.689605,1709030467.6896057,-49.8046875,-68.84765625,-25.390625,-51.7578125,-1.0,1.0,0.0,0.0,6.m4v,3.0
2024-02-27 11:41:07.697416,1709030467.6974156,-49.31640625,-43.9453125,-40.0390625,-27.34375,-1.0,1.0,0.0,0.0,6.m4v,3.0
2024-02-27 11:41:07.697416,1709030467.6974156,-49.31640625,-43.9453125,-40.0390625,-27.34375,-1.0,1.0,0.0,0.0,6.m4v,3.0
2024-02-27 11:41:07.705226,1709030467.7052257,-7.32421875,-15.625,-13.671875,-3.90625,-1.0,1.0,0.0,0.0,6.m4v,3.0
2024-02-27 11:41:07.705226,1709030467.7052257,-7.32421875,-15.625,-13.671875,-3.90625,-1.0,1.0,0.0,0.0,6.m4v,3.0
2024-02-27 11:41:07.713047,1709030467.7130473,-12.6953125,-46.38671875,-60.05859375,-58.10546875,-1.0,1.0,0.0,0.0,6.m4v,3.0
2024-02-27 11:41:07.713047,1709030467.7130473,-12.6953125,-46.38671875,-60.05859375,-58.10546875,-1.0,1.0,0.0,0.0,6.m4v,3.0
2024-02-27 11:41:07.720857,1709030467.7208574,1.953125,-10.7421875,-47.8515625,-3.90625,-1.0,1.0,0.0,0.0,6.m4v,3.0
2024-02-27 11:41:07.720857,1709030467.7208574,1.953125,-10.7421875,-47.8515625,-3.90625,-1.0,1.0,0.0,0.0,6.m4v,3.0
2024-02-27 11:41:07.728667,1709030467.7286673,-32.2265625,-38.57421875,-28.80859375,-39.55078125,-1.0,1.0,0.0,0.0,6.m4v,3.0
2024-02-27 11:41:07.728667,1709030467.7286673,-32.2265625,-38.57421875,-28.80859375,-39.55078125,-1.0,1.0,0.0,0.0,6.m4v,3.0
2024-02-27 11:41:07.736477,1709030467.7364774,-13.671875,-11.71875,-11.71875,-5.37109375,-1.0,1.0,0.0,0.0,6.m4v,3.0
2024-02-27 11:41:07.736477,1709030467.7364774,-13.671875,-11.71875,-11.71875,-5.37109375,-1.0,1.0,0.0,0.0,6.m4v,3.0
2024-02-27 11:41:07.744287,1709030467.7442875,-52.24609375,-44.43359375,-39.55078125,-26.3671875,-1.0,1.0,0.0,0.0,6.m4v,3.0
2024-02-27 11:41:07.744287,1709030467.7442875,-52.24609375,-44.43359375,-39.55078125,-26.3671875,-1.0,1.0,0.0,0.0,6.m4v,3.0
2024-02-27 11:41:07.752098,1709030467.7520976,-71.2890625,-52.734375,-42.96875,-56.15234375,-1.0,1.0,0.0,0.0,6.m4v,3.0
2024-02-27 11:41:07.752098,1709030467.7520976,-71.2890625,-52.734375,-42.96875,-56.15234375,-1.0,1.0,0.0,0.0,6.m4v,3.0
2024-02-27 11:41:07.759918,1709030467.759918,-41.50390625,-15.13671875,-22.94921875,-2.44140625,-1.0,1.0,0.0,0.0,6.m4v,3.0
2024-02-27 11:41:07.759918,1709030467.759918,-41.50390625,-15.13671875,-22.94921875,-2.44140625,-1.0,1.0,0.0,0.0,6.m4v,3.0
2024-02-27 11:41:07.767728,1709030467.767728,-32.71484375,2.44140625,-18.5546875,-37.59765625,-1.0,1.0,0.0,0.0,6.m4v,3.0
2024-02-27 11:41:07.767728,1709030467.767728,-32.71484375,2.44140625,-18.5546875,-37.59765625,-1.0,1.0,0.0,0.0,6.m4v,3.0
2024-02-27 11:41:07.775538,1709030467.7755382,-25.87890625,-9.27734375,-66.40625,-48.828125,-1.0,1.0,0.0,0.0,6.m4v,3.0
2024-02-27 11:41:07.775538,1709030467.7755382,-25.87890625,-9.27734375,-66.40625,-48.828125,-1.0,1.0,0.0,0.0,6.m4v,3.0
2024-02-27 11:41:07.783348,1709030467.7833483,-35.15625,-36.62109375,-43.45703125,-40.52734375,-1.0,1.0,0.0,0.0,6.m4v,3.0
2024-02-27 11:41:07.783348,1709030467.7833483,-35.15625,-36.62109375,-43.45703125,-40.52734375,-1.0,1.0,0.0,0.0,6.m4v,3.0
2024-02-27 11:41:07.791158,1709030467.7911584,-24.4140625,-30.76171875,-36.62109375,-65.91796875,-1.0,1.0,0.0,0.0,6.m4v,3.0
2024-02-27 11:41:07.791158,1709030467.7911584,-24.4140625,-30.76171875,-36.62109375,-65.91796875,-1.0,1.0,0.0,0.0,6.m4v,3.0
2024-02-27 11:41:07.798969,1709030467.7989686,-6.34765625,-17.08984375,-27.34375,-11.71875,-1.0,1.0,0.0,0.0,6.m4v,3.0
2024-02-27 11:41:07.798969,1709030467.7989686,-6.34765625,-17.08984375,-27.34375,-11.71875,-1.0,1.0,0.0,0.0,6.m4v,3.0
2024-02-27 11:41:07.806789,1709030467.8067887,-16.11328125,-43.9453125,-31.25,-14.16015625,-1.0,1.0,0.0,0.0,6.m4v,3.0
2024-02-27 11:41:07.806789,1709030467.8067887,-16.11328125,-43.9453125,-31.25,-14.16015625,-1.0,1.0,0.0,0.0,6.m4v,3.0
2024-02-27 11:41:07.814599,1709030467.8145988,-42.96875,-32.71484375,-34.1796875,-41.015625,-1.0,1.0,0.0,0.0,6.m4v,3.0
2024-02-27 11:41:07.814599,1709030467.8145988,-42.96875,-32.71484375,-34.1796875,-41.015625,-1.0,1.0,0.0,0.0,6.m4v,3.0
2024-02-27 11:41:07.822409,1709030467.822409,-52.24609375,-10.7421875,-41.015625,-8.7890625,-1.0,1.0,0.0,0.0,6.m4v,3.0
2024-02-27 11:41:07.822409,1709030467.822409,-52.24609375,-10.7421875,-41.015625,-8.7890625,-1.0,1.0,0.0,0.0,6.m4v,3.0
2024-02-27 11:41:08.271598,1709030468.2715976,-37.59765625,-41.50390625,-36.1328125,-59.5703125,-1.0,1.0,0.0,0.0,6.m4v,3.0
2024-02-27 11:41:08.275503,1709030468.2755027,-27.34375,-19.53125,-26.3671875,-40.0390625,-1.0,1.0,0.0,0.0,6.m4v,3.0
2024-02-27 11:41:08.279408,1709030468.2794075,-20.5078125,-23.4375,-20.5078125,-10.25390625,-1.0,1.0,0.0,0.0,6.m4v,3.0
2024-02-27 11:41:08.283313,1709030468.2833128,-27.83203125,-24.90234375,-34.1796875,-7.32421875,-1.0,1.0,0.0,0.0,6.m4v,3.0
2024-02-27 11:41:08.287218,1709030468.287218,-36.1328125,-27.83203125,-28.80859375,-33.203125,-1.0,1.0,0.0,0.0,6.m4v,3.0
2024-02-27 11:41:08.291123,1709030468.291123,-51.26953125,-34.1796875,-21.97265625,-61.5234375,-1.0,1.0,0.0,0.0,6.m4v,3.0
2024-02-27 11:41:08.295028,1709030468.295028,-65.91796875,-58.59375,-51.7578125,-68.359375,-1.0,1.0,0.0,0.0,6.m4v,3.0
2024-02-27 11:41:08.298933,1709030468.298933,-62.5,-77.1484375,-76.171875,-50.29296875,-1.0,1.0,0.0,0.0,6.m4v,3.0
2024-02-27 11:41:08.302838,1709030468.302838,-43.45703125,-45.41015625,-49.8046875,-27.34375,-1.0,1.0,0.0,0.0,6.m4v,3.0
2024-02-27 11:41:08.306743,1709030468.306743,-31.25,-36.62109375,-38.0859375,-31.25,-1.0,1.0,0.0,0.0,6.m4v,3.0
2024-02-27 11:41:08.310648,1709030468.310648,-20.99609375,-23.92578125,-38.57421875,-40.52734375,-1.0,1.0,0.0,0.0,6.m4v,3.0
2024-02-27 11:41:08.314553,1709030468.314553,-28.80859375,-16.11328125,-29.78515625,-43.45703125,-1.0,1.0,0.0,0.0,6.m4v,3.0
2024-02-27 11:41:08.318467,1709030468.3184671,-36.1328125,-23.4375,-28.3203125,-27.34375,-1.0,1.0,0.0,0.0,6.m4v,3.0
2024-02-27 11:41:08.322372,1709030468.3223722,-26.3671875,-20.5078125,-31.73828125,-15.625,-1.0,1.0,0.0,0.0,6.m4v,3.0
2024-02-27 11:41:08.326277,1709030468.3262773,-25.390625,-21.484375,-43.45703125,-27.83203125,-1.0,1.0,0.0,0.0,6.m4v,3.0
2024-02-27 11:41:08.330182,1709030468.3301823,-32.71484375,-32.2265625,-43.9453125,-41.9921875,-1.0,1.0,0.0,0.0,6.m4v,3.0
2024-02-27 11:41:08.334087,1709030468.3340874,-44.43359375,-33.69140625,-47.36328125,-45.8984375,-1.0,1.0,0.0,0.0,6.m4v,3.0
2024-02-27 11:41:08.337992,1709030468.3379924,-38.0859375,-21.484375,-48.828125,-24.90234375,-1.0,1.0,0.0,0.0,6.m4v,3.0
2024-02-27 11:41:08.341897,1709030468.3418975,-27.34375,-30.76171875,-27.34375,-8.30078125,-1.0,1.0,0.0,0.0,6.m4v,3.0
2024-02-27 11:41:08.345803,1709030468.3458023,-35.15625,-60.05859375,-12.20703125,-34.1796875,-1.0,1.0,0.0,0.0,6.m4v,3.0
2024-02-27 11:41:08.349708,1709030468.3497076,-38.0859375,-57.6171875,-26.85546875,-58.10546875,-1.0,1.0,0.0,0.0,6.m4v,3.0
2024-02-27 11:41:08.353613,1709030468.353613,-34.1796875,-29.296875,-40.52734375,-52.734375,-1.0,1.0,0.0,0.0,6.m4v,3.0
2024-02-27 11:41:08.357518,1709030468.3575175,-36.1328125,-26.3671875,-38.0859375,-38.0859375,-1.0,1.0,0.0,0.0,6.m4v,3.0
2024-02-27 11:41:08.361423,1709030468.3614228,-51.7578125,-41.50390625,-41.9921875,-38.0859375,-1.0,1.0,0.0,0.0,6.m4v,3.0
2024-02-27 11:41:08.365340,1709030468.3653395,-47.36328125,-24.90234375,-40.52734375,-40.0390625,-1.0,1.0,0.0,0.0,6.m4v,3.0
2024-02-27 11:41:08.369245,1709030468.3692446,-40.0390625,-22.4609375,-55.6640625,-52.734375,-1.0,1.0,0.0,0.0,6.m4v,3.0
2024-02-27 11:41:08.373150,1709030468.3731496,-56.640625,-51.7578125,-79.1015625,-65.91796875,-1.0,1.0,0.0,0.0,6.m4v,3.0
2024-02-27 11:41:08.377055,1709030468.3770547,-48.828125,-47.8515625,-47.8515625,-48.33984375,-1.0,1.0,0.0,0.0,6.m4v,3.0
2024-02-27 11:41:08.380960,1709030468.3809595,-23.4375,-6.8359375,-24.90234375,-15.625,-1.0,1.0,0.0,0.0,6.m4v,3.0
2024-02-27 11:41:08.384865,1709030468.3848648,-21.97265625,14.6484375,-31.25,-11.23046875,-1.0,1.0,0.0,0.0,6.m4v,3.0
2024-02-27 11:41:08.388770,1709030468.38877,-44.921875,-35.64453125,-41.015625,-44.921875,-1.0,1.0,0.0,0.0,6.m4v,3.0
2024-02-27 11:41:08.392675,1709030468.392675,-59.5703125,-62.98828125,-41.9921875,-55.6640625,-1.0,1.0,0.0,0.0,6.m4v,3.0
2024-02-27 11:41:08.396580,1709030468.39658,-52.24609375,-34.66796875,-20.01953125,-27.34375,-1.0,1.0,0.0,0.0,6.m4v,3.0
2024-02-27 11:41:08.400485,1709030468.400485,-48.33984375,-35.15625,-17.08984375,-6.8359375,-1.0,1.0,0.0,0.0,6.m4v,3.0
2024-02-27 11:41:08.404390,1709030468.40439,-50.29296875,-54.6875,-25.390625,-12.20703125,-1.0,1.0,0.0,0.0,6.m4v,3.0
2024-02-27 11:41:08.408295,1709030468.4082952,-38.57421875,-31.73828125,-30.76171875,-37.59765625,-1.0,1.0,0.0,0.0,6.m4v,3.0
2024-02-27 11:41:08.412211,1709030468.4122114,-30.2734375,-17.08984375,-40.0390625,-52.734375,-1.0,1.0,0.0,0.0,6.m4v,3.0
2024-02-27 11:41:08.412211,1709030468.4122114,-30.2734375,-17.08984375,-40.0390625,-52.734375,-1.0,1.0,0.0,0.0,6.m4v,3.0
2024-02-27 11:41:08.416116,1709030468.4161165,-32.2265625,-30.76171875,-42.96875,-39.0625,-1.0,1.0,0.0,0.0,6.m4v,3.0
2024-02-27 11:41:08.416116,1709030468.4161165,-32.2265625,-30.76171875,-42.96875,-39.0625,-1.0,1.0,0.0,0.0,6.m4v,3.0
2024-02-27 11:41:08.420022,1709030468.4200215,-29.78515625,-18.06640625,-33.69140625,-18.5546875,-1.0,1.0,0.0,0.0,6.m4v,3.0
2024-02-27 11:41:08.420022,1709030468.4200215,-29.78515625,-18.06640625,-33.69140625,-18.5546875,-1.0,1.0,0.0,0.0,6.m4v,3.0
2024-02-27 11:41:08.423927,1709030468.4239266,-30.2734375,-37.109375,-26.85546875,-24.4140625,-1.0,1.0,0.0,0.0,6.m4v,3.0
2024-02-27 11:41:08.423927,1709030468.4239266,-30.2734375,-37.109375,-26.85546875,-24.4140625,-1.0,1.0,0.0,0.0,6.m4v,3.0
2024-02-27 11:41:08.427832,1709030468.4278316,-29.296875,-44.43359375,-21.97265625,-50.78125,-1.0,1.0,0.0,0.0,6.m4v,3.0
2024-02-27 11:41:08.427832,1709030468.4278316,-29.296875,-44.43359375,-21.97265625,-50.78125,-1.0,1.0,0.0,0.0,6.m4v,3.0
2024-02-27 11:41:08.431737,1709030468.4317367,-21.484375,-4.8828125,-26.3671875,-53.7109375,-1.0,1.0,0.0,0.0,6.m4v,3.0
2024-02-27 11:41:08.431737,1709030468.4317367,-21.484375,-4.8828125,-26.3671875,-53.7109375,-1.0,1.0,0.0,0.0,6.m4v,3.0
2024-02-27 11:41:08.435642,1709030468.4356418,-33.69140625,-22.94921875,-28.80859375,-47.36328125,-1.0,1.0,0.0,0.0,6.m4v,3.0
2024-02-27 11:41:08.435642,1709030468.4356418,-33.69140625,-22.94921875,-28.80859375,-47.36328125,-1.0,1.0,0.0,0.0,6.m4v,3.0
2024-02-27 11:41:08.439547,1709030468.4395468,-61.5234375,-67.87109375,-39.0625,-48.33984375,-1.0,1.0,0.0,0.0,6.m4v,3.0
2024-02-27 11:41:08.439547,1709030468.4395468,-61.5234375,-67.87109375,-39.0625,-48.33984375,-1.0,1.0,0.0,0.0,6.m4v,3.0
2024-02-27 11:41:08.443452,1709030468.443452,-73.73046875,-67.3828125,-42.48046875,-45.41015625,-1.0,1.0,0.0,0.0,6.m4v,3.0
2024-02-27 11:41:08.443452,1709030468.443452,-73.73046875,-67.3828125,-42.48046875,-45.41015625,-1.0,1.0,0.0,0.0,6.m4v,3.0
2024-02-27 11:41:08.447357,1709030468.447357,-68.359375,-48.828125,-33.69140625,-48.828125,-1.0,1.0,0.0,0.0,6.m4v,3.0
2024-02-27 11:41:08.447357,1709030468.447357,-68.359375,-48.828125,-33.69140625,-48.828125,-1.0,1.0,0.0,0.0,6.m4v,3.0
2024-02-27 11:41:08.451262,1709030468.451262,-75.68359375,-30.76171875,-28.80859375,-59.5703125,-1.0,1.0,0.0,0.0,6.m4v,3.0
2024-02-27 11:41:08.451262,1709030468.451262,-75.68359375,-30.76171875,-28.80859375,-59.5703125,-1.0,1.0,0.0,0.0,6.m4v,3.0
2024-02-27 11:41:08.455167,1709030468.455167,-74.70703125,-11.71875,-16.11328125,-40.52734375,-1.0,1.0,0.0,0.0,6.m4v,3.0
2024-02-27 11:41:08.455167,1709030468.455167,-74.70703125,-11.71875,-16.11328125,-40.52734375,-1.0,1.0,0.0,0.0,6.m4v,3.0
2024-02-27 11:41:08.459083,1709030468.459083,-61.03515625,-29.296875,-25.87890625,-14.6484375,-1.0,1.0,0.0,0.0,6.m4v,3.0
2024-02-27 11:41:08.459083,1709030468.459083,-61.03515625,-29.296875,-25.87890625,-14.6484375,-1.0,1.0,0.0,0.0,6.m4v,3.0
2024-02-27 11:41:08.462988,1709030468.462988,-56.640625,-38.57421875,-35.64453125,-9.27734375,-1.0,1.0,0.0,0.0,6.m4v,3.0
2024-02-27 11:41:08.462988,1709030468.462988,-56.640625,-38.57421875,-35.64453125,-9.27734375,-1.0,1.0,0.0,0.0,6.m4v,3.0
2024-02-27 11:41:08.466893,1709030468.4668932,-56.640625,-37.59765625,-29.296875,-26.85546875,-1.0,1.0,0.0,0.0,6.m4v,3.0
2024-02-27 11:41:08.466893,1709030468.4668932,-56.640625,-37.59765625,-29.296875,-26.85546875,-1.0,1.0,0.0,0.0,6.m4v,3.0
2024-02-27 11:41:08.470798,1709030468.470798,-48.828125,-48.828125,-22.94921875,-44.43359375,-1.0,1.0,0.0,0.0,6.m4v,3.0
2024-02-27 11:41:08.470798,1709030468.470798,-48.828125,-48.828125,-22.94921875,-44.43359375,-1.0,1.0,0.0,0.0,6.m4v,3.0
2024-02-27 11:41:08.474703,1709030468.474703,-35.15625,-38.0859375,-15.13671875,-44.921875,-1.0,1.0,0.0,0.0,6.m4v,3.0
2024-02-27 11:41:08.474703,1709030468.474703,-35.15625,-38.0859375,-15.13671875,-44.921875,-1.0,1.0,0.0,0.0,6.m4v,3.0
2024-02-27 11:41:08.478608,1709030468.478608,-35.15625,-18.06640625,-22.4609375,-29.78515625,-1.0,1.0,0.0,0.0,6.m4v,3.0
2024-02-27 11:41:08.478608,1709030468.478608,-35.15625,-18.06640625,-22.4609375,-29.78515625,-1.0,1.0,0.0,0.0,6.m4v,3.0
2024-02-27 11:41:08.482513,1709030468.4825132,-29.78515625,-25.87890625,-35.15625,-13.671875,-1.0,1.0,0.0,0.0,6.m4v,3.0
2024-02-27 11:41:08.482513,1709030468.4825132,-29.78515625,-25.87890625,-35.15625,-13.671875,-1.0,1.0,0.0,0.0,6.m4v,3.0
2024-02-27 11:41:08.486418,1709030468.4864182,2.9296875,-43.9453125,-21.484375,-16.6015625,-1.0,1.0,0.0,0.0,6.m4v,3.0
2024-02-27 11:41:08.486418,1709030468.4864182,2.9296875,-43.9453125,-21.484375,-16.6015625,-1.0,1.0,0.0,0.0,6.m4v,3.0
2024-02-27 11:41:08.490323,1709030468.4903233,9.27734375,-41.015625,-20.01953125,-37.59765625,-1.0,1.0,0.0,0.0,6.m4v,3.0
2024-02-27 11:41:08.490323,1709030468.4903233,9.27734375,-41.015625,-20.01953125,-37.59765625,-1.0,1.0,0.0,0.0,6.m4v,3.0
2024-02-27 11:41:08.494228,1709030468.4942284,-20.99609375,-54.6875,-26.3671875,-60.05859375,-1.0,1.0,0.0,0.0,6.m4v,3.0
2024-02-27 11:41:08.494228,1709030468.4942284,-20.99609375,-54.6875,-26.3671875,-60.05859375,-1.0,1.0,0.0,0.0,6.m4v,3.0
2024-02-27 11:41:08.498133,1709030468.4981334,-29.296875,-50.78125,-22.94921875,-54.6875,-1.0,1.0,0.0,0.0,6.m4v,3.0
2024-02-27 11:41:08.498133,1709030468.4981334,-29.296875,-50.78125,-22.94921875,-54.6875,-1.0,1.0,0.0,0.0,6.m4v,3.0
2024-02-27 11:41:08.502038,1709030468.5020385,-15.625,-18.06640625,-27.34375,-31.25,-1.0,1.0,0.0,0.0,6.m4v,3.0
2024-02-27 11:41:08.502038,1709030468.5020385,-15.625,-18.06640625,-27.34375,-31.25,-1.0,1.0,0.0,0.0,6.m4v,3.0
2024-02-27 11:41:08.505954,1709030468.505954,-11.71875,-7.8125,-46.38671875,-25.87890625,-1.0,1.0,0.0,0.0,6.m4v,3.0
2024-02-27 11:41:08.505954,1709030468.505954,-11.71875,-7.8125,-46.38671875,-25.87890625,-1.0,1.0,0.0,0.0,6.m4v,3.0
2024-02-27 11:41:08.509859,1709030468.509859,-38.0859375,-46.875,-71.77734375,-60.546875,-1.0,1.0,0.0,0.0,6.m4v,3.0
2024-02-27 11:41:08.509859,1709030468.509859,-38.0859375,-46.875,-71.77734375,-60.546875,-1.0,1.0,0.0,0.0,6.m4v,3.0
2024-02-27 11:41:08.513764,1709030468.513764,-53.22265625,-41.50390625,-64.453125,-74.70703125,-1.0,1.0,0.0,0.0,6.m4v,3.0
2024-02-27 11:41:08.513764,1709030468.513764,-53.22265625,-41.50390625,-64.453125,-74.70703125,-1.0,1.0,0.0,0.0,6.m4v,3.0
2024-02-27 11:41:08.517669,1709030468.5176692,-57.12890625,-14.6484375,-39.0625,-56.15234375,-1.0,1.0,0.0,0.0,6.m4v,3.0
2024-02-27 11:41:08.517669,1709030468.5176692,-57.12890625,-14.6484375,-39.0625,-56.15234375,-1.0,1.0,0.0,0.0,6.m4v,3.0
2024-02-27 11:41:08.521574,1709030468.5215745,-63.4765625,-22.94921875,-19.53125,-38.57421875,-1.0,1.0,0.0,0.0,6.m4v,3.0
2024-02-27 11:41:08.521574,1709030468.5215745,-63.4765625,-22.94921875,-19.53125,-38.57421875,-1.0,1.0,0.0,0.0,6.m4v,3.0
2024-02-27 11:41:08.525479,1709030468.5254793,-71.2890625,-16.6015625,-14.16015625,-39.0625,-1.0,1.0,0.0,0.0,6.m4v,3.0
2024-02-27 11:41:08.525479,1709030468.5254793,-71.2890625,-16.6015625,-14.16015625,-39.0625,-1.0,1.0,0.0,0.0,6.m4v,3.0
2024-02-27 11:41:08.529384,1709030468.5293844,-70.3125,-7.32421875,-17.578125,-44.921875,-1.0,1.0,0.0,0.0,6.m4v,3.0
2024-02-27 11:41:08.529384,1709030468.5293844,-70.3125,-7.32421875,-17.578125,-44.921875,-1.0,1.0,0.0,0.0,6.m4v,3.0
2024-02-27 11:41:08.533289,1709030468.5332894,-69.82421875,-26.3671875,-41.50390625,-54.6875,-1.0,1.0,0.0,0.0,6.m4v,3.0
2024-02-27 11:41:08.533289,1709030468.5332894,-69.82421875,-26.3671875,-41.50390625,-54.6875,-1.0,1.0,0.0,0.0,6.m4v,3.0
2024-02-27 11:41:08.537194,1709030468.5371945,-72.75390625,-38.57421875,-47.36328125,-50.29296875,-1.0,1.0,0.0,0.0,6.m4v,3.0
2024-02-27 11:41:08.537194,1709030468.5371945,-72.75390625,-38.57421875,-47.36328125,-50.29296875,-1.0,1.0,0.0,0.0,6.m4v,3.0
2024-02-27 11:41:08.541100,1709030468.5410995,-63.96484375,-35.64453125,-31.73828125,-33.203125,-1.0,1.0,0.0,0.0,6.m4v,3.0
2024-02-27 11:41:08.541100,1709030468.5410995,-63.96484375,-35.64453125,-31.73828125,-33.203125,-1.0,1.0,0.0,0.0,6.m4v,3.0
2024-02-27 11:41:08.545005,1709030468.5450046,-54.6875,-42.48046875,-39.0625,-52.24609375,-1.0,1.0,0.0,0.0,6.m4v,3.0
2024-02-27 11:41:08.545005,1709030468.5450046,-54.6875,-42.48046875,-39.0625,-52.24609375,-1.0,1.0,0.0,0.0,6.m4v,3.0
2024-02-27 11:41:08.548910,1709030468.5489097,-44.43359375,-39.55078125,-41.50390625,-70.80078125,-1.0,1.0,0.0,0.0,6.m4v,3.0
2024-02-27 11:41:08.548910,1709030468.5489097,-44.43359375,-39.55078125,-41.50390625,-70.80078125,-1.0,1.0,0.0,0.0,6.m4v,3.0
2024-02-27 11:41:08.552825,1709030468.5528247,-28.80859375,-23.4375,-33.69140625,-63.96484375,-1.0,1.0,0.0,0.0,6.m4v,3.0
2024-02-27 11:41:08.552825,1709030468.5528247,-28.80859375,-23.4375,-33.69140625,-63.96484375,-1.0,1.0,0.0,0.0,6.m4v,3.0
2024-02-27 11:41:08.556730,1709030468.5567298,-20.99609375,-17.578125,-20.99609375,-45.8984375,-1.0,1.0,0.0,0.0,6.m4v,3.0
2024-02-27 11:41:08.556730,1709030468.5567298,-20.99609375,-17.578125,-20.99609375,-45.8984375,-1.0,1.0,0.0,0.0,6.m4v,3.0
2024-02-27 11:41:08.560635,1709030468.5606349,-24.4140625,-25.87890625,-27.34375,-30.2734375,-1.0,1.0,0.0,0.0,6.m4v,3.0
2024-02-27 11:41:08.560635,1709030468.5606349,-24.4140625,-25.87890625,-27.34375,-30.2734375,-1.0,1.0,0.0,0.0,6.m4v,3.0
2024-02-27 11:41:08.564540,1709030468.56454,-24.4140625,-35.64453125,-43.45703125,-35.64453125,-1.0,1.0,0.0,0.0,6.m4v,3.0
2024-02-27 11:41:08.564540,1709030468.56454,-24.4140625,-35.64453125,-43.45703125,-35.64453125,-1.0,1.0,0.0,0.0,6.m4v,3.0
2024-02-27 11:41:08.568445,1709030468.568445,-1.953125,-24.90234375,-38.0859375,-39.55078125,-1.0,1.0,0.0,0.0,6.m4v,3.0
2024-02-27 11:41:08.568445,1709030468.568445,-1.953125,-24.90234375,-38.0859375,-39.55078125,-1.0,1.0,0.0,0.0,6.m4v,3.0
2024-02-27 11:41:08.572350,1709030468.57235,17.08984375,-11.71875,-22.4609375,-30.2734375,-1.0,1.0,0.0,0.0,6.m4v,3.0
2024-02-27 11:41:08.572350,1709030468.57235,17.08984375,-11.71875,-22.4609375,-30.2734375,-1.0,1.0,0.0,0.0,6.m4v,3.0
2024-02-27 11:41:08.576255,1709030468.576255,-9.27734375,-1.953125,-30.2734375,-25.87890625,-1.0,1.0,0.0,0.0,6.m4v,3.0
2024-02-27 11:41:08.576255,1709030468.576255,-9.27734375,-1.953125,-30.2734375,-25.87890625,-1.0,1.0,0.0,0.0,6.m4v,3.0
2024-02-27 11:41:08.580160,1709030468.58016,-30.76171875,-16.11328125,-42.96875,-11.71875,-1.0,1.0,0.0,0.0,6.m4v,3.0
2024-02-27 11:41:08.580160,1709030468.58016,-30.76171875,-16.11328125,-42.96875,-11.71875,-1.0,1.0,0.0,0.0,6.m4v,3.0
2024-02-27 11:41:08.584065,1709030468.5840652,-32.2265625,-55.6640625,-56.640625,-24.90234375,-1.0,1.0,0.0,0.0,6.m4v,3.0
2024-02-27 11:41:08.584065,1709030468.5840652,-32.2265625,-55.6640625,-56.640625,-24.90234375,-1.0,1.0,0.0,0.0,6.m4v,3.0
2024-02-27 11:41:08.587970,1709030468.5879705,-42.48046875,-57.6171875,-65.4296875,-59.08203125,-1.0,1.0,0.0,0.0,6.m4v,3.0
2024-02-27 11:41:08.587970,1709030468.5879705,-42.48046875,-57.6171875,-65.4296875,-59.08203125,-1.0,1.0,0.0,0.0,6.m4v,3.0
2024-02-27 11:41:08.591875,1709030468.5918753,-46.875,-35.15625,-47.8515625,-57.6171875,-1.0,1.0,0.0,0.0,6.m4v,3.0
2024-02-27 11:41:08.591875,1709030468.5918753,-46.875,-35.15625,-47.8515625,-57.6171875,-1.0,1.0,0.0,0.0,6.m4v,3.0
2024-02-27 11:41:08.595780,1709030468.5957804,-41.9921875,-25.390625,-31.25,-32.2265625,-1.0,1.0,0.0,0.0,6.m4v,3.0
2024-02-27 11:41:08.595780,1709030468.5957804,-41.9921875,-25.390625,-31.25,-32.2265625,-1.0,1.0,0.0,0.0,6.m4v,3.0
2024-02-27 11:41:08.599695,1709030468.599695,-48.33984375,-27.34375,-29.78515625,-21.97265625,-1.0,1.0,0.0,0.0,6.m4v,3.0
2024-02-27 11:41:08.599695,1709030468.599695,-48.33984375,-27.34375,-29.78515625,-21.97265625,-1.0,1.0,0.0,0.0,6.m4v,3.0
2024-02-27 11:41:08.603600,1709030468.6036,-55.6640625,-32.71484375,-34.66796875,-26.85546875,-1.0,1.0,0.0,0.0,6.m4v,3.0
2024-02-27 11:41:08.603600,1709030468.6036,-55.6640625,-32.71484375,-34.66796875,-26.85546875,-1.0,1.0,0.0,0.0,6.m4v,3.0
2024-02-27 11:41:08.607505,1709030468.607505,-48.33984375,-35.64453125,-38.0859375,-41.9921875,-1.0,1.0,0.0,0.0,6.m4v,3.0
2024-02-27 11:41:08.607505,1709030468.607505,-48.33984375,-35.64453125,-38.0859375,-41.9921875,-1.0,1.0,0.0,0.0,6.m4v,3.0
2024-02-27 11:41:08.611410,1709030468.61141,-43.45703125,-32.2265625,-30.76171875,-55.6640625,-1.0,1.0,0.0,0.0,6.m4v,3.0
2024-02-27 11:41:08.611410,1709030468.61141,-43.45703125,-32.2265625,-30.76171875,-55.6640625,-1.0,1.0,0.0,0.0,6.m4v,3.0
2024-02-27 11:41:08.615315,1709030468.6153152,-47.36328125,-36.1328125,-24.90234375,-58.59375,-1.0,1.0,0.0,0.0,6.m4v,3.0
2024-02-27 11:41:08.615315,1709030468.6153152,-47.36328125,-36.1328125,-24.90234375,-58.59375,-1.0,1.0,0.0,0.0,6.m4v,3.0
2024-02-27 11:41:08.619220,1709030468.6192205,-44.921875,-26.85546875,-25.390625,-41.015625,-1.0,1.0,0.0,0.0,6.m4v,3.0
2024-02-27 11:41:08.619220,1709030468.6192205,-44.921875,-26.85546875,-25.390625,-41.015625,-1.0,1.0,0.0,0.0,6.m4v,3.0
2024-02-27 11:41:08.623125,1709030468.6231253,-36.1328125,-31.73828125,-30.76171875,-35.64453125,-1.0,1.0,0.0,0.0,6.m4v,3.0
2024-02-27 11:41:08.623125,1709030468.6231253,-36.1328125,-31.73828125,-30.76171875,-35.64453125,-1.0,1.0,0.0,0.0,6.m4v,3.0
2024-02-27 11:41:09.302760,1709030469.3027604,-14.6484375,-15.625,-29.78515625,-9.27734375,-1.0,1.0,0.0,0.0,6.m4v,3.0
2024-02-27 11:41:09.306665,1709030469.3066654,-22.4609375,-38.0859375,-45.41015625,-41.015625,-1.0,1.0,0.0,0.0,6.m4v,3.0
2024-02-27 11:41:09.310570,1709030469.3105705,-28.3203125,-48.828125,-44.921875,-60.05859375,-1.0,1.0,0.0,0.0,6.m4v,3.0
2024-02-27 11:41:09.314476,1709030469.3144755,-33.203125,-39.0625,-44.43359375,-44.921875,-1.0,1.0,0.0,0.0,6.m4v,3.0
2024-02-27 11:41:09.318381,1709030469.3183806,-28.80859375,-10.25390625,-40.52734375,-18.5546875,-1.0,1.0,0.0,0.0,6.m4v,3.0
2024-02-27 11:41:09.322285,1709030469.3222854,-12.20703125,25.390625,-19.53125,7.32421875,-1.0,1.0,0.0,0.0,6.m4v,3.0
2024-02-27 11:41:09.326190,1709030469.3261905,-14.16015625,0.48828125,-9.27734375,-4.39453125,-1.0,1.0,0.0,0.0,6.m4v,3.0
2024-02-27 11:41:09.330096,1709030469.3300955,-32.2265625,-62.01171875,-20.5078125,-40.0390625,-1.0,1.0,0.0,0.0,6.m4v,3.0
2024-02-27 11:41:09.334001,1709030469.3340006,-53.7109375,-72.75390625,-58.10546875,-65.4296875,-1.0,1.0,0.0,0.0,6.m4v,3.0
2024-02-27 11:41:09.337906,1709030469.3379056,-54.6875,-46.38671875,-61.03515625,-50.29296875,-1.0,1.0,0.0,0.0,6.m4v,3.0
2024-02-27 11:41:09.341811,1709030469.3418107,-29.78515625,-31.73828125,-15.13671875,-18.06640625,-1.0,1.0,0.0,0.0,6.m4v,3.0
2024-02-27 11:41:09.345716,1709030469.3457158,-26.3671875,-48.828125,-32.2265625,-35.15625,-1.0,1.0,0.0,0.0,6.m4v,3.0
2024-02-27 11:41:09.349634,1709030469.349634,-33.203125,-53.7109375,-49.31640625,-60.05859375,-1.0,1.0,0.0,0.0,6.m4v,3.0
2024-02-27 11:41:09.353539,1709030469.353539,-34.1796875,-20.01953125,-17.08984375,-44.921875,-1.0,1.0,0.0,0.0,6.m4v,3.0
2024-02-27 11:41:09.357444,1709030469.357444,-36.62109375,-32.71484375,-11.71875,-19.53125,-1.0,1.0,0.0,0.0,6.m4v,3.0
2024-02-27 11:41:09.361349,1709030469.361349,-35.15625,-51.26953125,-26.85546875,-5.859375,-1.0,1.0,0.0,0.0,6.m4v,3.0
2024-02-27 11:41:09.365254,1709030469.3652542,-33.203125,-28.80859375,-30.2734375,-23.92578125,-1.0,1.0,0.0,0.0,6.m4v,3.0
2024-02-27 11:41:09.369159,1709030469.3691592,-35.15625,-31.25,-23.92578125,-41.015625,-1.0,1.0,0.0,0.0,6.m4v,3.0
2024-02-27 11:41:09.373064,1709030469.3730645,-47.36328125,-51.26953125,-31.73828125,-50.29296875,-1.0,1.0,0.0,0.0,6.m4v,3.0
2024-02-27 11:41:09.376969,1709030469.376969,-53.7109375,-68.359375,-33.203125,-50.78125,-1.0,1.0,0.0,0.0,6.m4v,3.0
2024-02-27 11:41:09.380874,1709030469.3808744,-45.8984375,-51.26953125,-36.1328125,-25.87890625,-1.0,1.0,0.0,0.0,6.m4v,3.0
2024-02-27 11:41:09.384779,1709030469.3847797,-44.43359375,-52.734375,-52.24609375,-27.83203125,-1.0,1.0,0.0,0.0,6.m4v,3.0
2024-02-27 11:41:09.388685,1709030469.3886845,-33.203125,-48.828125,-35.64453125,-34.66796875,-1.0,1.0,0.0,0.0,6.m4v,3.0
2024-02-27 11:41:09.392590,1709030469.3925896,-26.3671875,-29.296875,-18.5546875,-42.96875,-1.0,1.0,0.0,0.0,6.m4v,3.0
2024-02-27 11:41:09.396504,1709030469.396504,-34.66796875,-44.43359375,-19.04296875,-47.36328125,-1.0,1.0,0.0,0.0,6.m4v,3.0
2024-02-27 11:41:09.400409,1709030469.4004087,-32.71484375,-37.59765625,-22.4609375,-26.85546875,-1.0,1.0,0.0,0.0,6.m4v,3.0
2024-02-27 11:41:09.404314,1709030469.4043138,-27.34375,-11.71875,-36.62109375,-18.06640625,-1.0,1.0,0.0,0.0,6.m4v,3.0
2024-02-27 11:41:09.408219,1709030469.4082189,-22.4609375,-0.48828125,-43.9453125,-31.73828125,-1.0,1.0,0.0,0.0,6.m4v,3.0
2024-02-27 11:41:09.412124,1709030469.412124,-19.53125,-10.25390625,-30.76171875,-43.45703125,-1.0,1.0,0.0,0.0,6.m4v,3.0
2024-02-27 11:41:09.416029,1709030469.416029,-25.390625,-15.625,-45.8984375,-39.55078125,-1.0,1.0,0.0,0.0,6.m4v,3.0
2024-02-27 11:41:09.419934,1709030469.419934,-24.4140625,-20.5078125,-57.12890625,-18.06640625,-1.0,1.0,0.0,0.0,6.m4v,3.0
2024-02-27 11:41:09.423839,1709030469.423839,-26.85546875,-54.6875,-42.48046875,-28.3203125,-1.0,1.0,0.0,0.0,6.m4v,3.0
2024-02-27 11:41:09.427744,1709030469.4277442,-31.73828125,-58.59375,-39.55078125,-54.19921875,-1.0,1.0,0.0,0.0,6.m4v,3.0
2024-02-27 11:41:09.431649,1709030469.4316492,-28.80859375,-41.50390625,-54.6875,-52.24609375,-1.0,1.0,0.0,0.0,6.m4v,3.0
2024-02-27 11:41:09.435554,1709030469.4355545,-32.2265625,-53.7109375,-49.31640625,-46.38671875,-1.0,1.0,0.0,0.0,6.m4v,3.0
2024-02-27 11:41:09.439459,1709030469.439459,-27.83203125,-52.24609375,-19.53125,-22.4609375,-1.0,1.0,0.0,0.0,6.m4v,3.0
2024-02-27 11:41:09.443373,1709030469.4433732,-24.4140625,-23.92578125,-14.16015625,-7.32421875,-1.0,1.0,0.0,0.0,6.m4v,3.0
2024-02-27 11:41:09.447278,1709030469.4472785,-36.62109375,-14.16015625,-28.80859375,-24.90234375,-1.0,1.0,0.0,0.0,6.m4v,3.0
2024-02-27 11:41:09.451183,1709030469.4511833,-40.0390625,-7.32421875,-44.921875,-38.57421875,-1.0,1.0,0.0,0.0,6.m4v,3.0
2024-02-27 11:41:09.455088,1709030469.4550884,-44.43359375,-7.32421875,-35.64453125,-42.96875,-1.0,1.0,0.0,0.0,6.m4v,3.0
2024-02-27 11:41:09.458993,1709030469.4589934,-62.5,-39.55078125,-29.296875,-42.96875,-1.0,1.0,0.0,0.0,6.m4v,3.0
2024-02-27 11:41:09.462898,1709030469.4628985,-59.08203125,-36.62109375,-40.0390625,-30.76171875,-1.0,1.0,0.0,0.0,6.m4v,3.0
2024-02-27 11:41:09.466803,1709030469.4668033,-43.9453125,-38.57421875,-41.50390625,-37.109375,-1.0,1.0,0.0,0.0,6.m4v,3.0
2024-02-27 11:41:09.470708,1709030469.4707084,-47.36328125,-62.98828125,-32.71484375,-55.6640625,-1.0,1.0,0.0,0.0,6.m4v,3.0
2024-02-27 11:41:09.474613,1709030469.4746134,-65.4296875,-46.38671875,-43.45703125,-63.4765625,-1.0,1.0,0.0,0.0,6.m4v,3.0
2024-02-27 11:41:09.478518,1709030469.4785185,-62.01171875,-51.26953125,-56.640625,-48.828125,-1.0,1.0,0.0,0.0,6.m4v,3.0
2024-02-27 11:41:09.482424,1709030469.4824235,-40.52734375,-50.78125,-36.62109375,-23.92578125,-1.0,1.0,0.0,0.0,6.m4v,3.0
2024-02-27 11:41:09.486329,1709030469.4863286,-33.203125,-26.3671875,-31.73828125,-31.73828125,-1.0,1.0,0.0,0.0,6.m4v,3.0
2024-02-27 11:41:09.490246,1709030469.4902456,-20.5078125,-13.671875,-44.43359375,-47.36328125,-1.0,1.0,0.0,0.0,6.m4v,3.0
2024-02-27 11:41:09.494151,1709030469.4941506,-27.83203125,-31.25,-42.48046875,-54.6875,-1.0,1.0,0.0,0.0,6.m4v,3.0
2024-02-27 11:41:09.498056,1709030469.4980557,-41.9921875,-41.9921875,-41.50390625,-38.57421875,-1.0,1.0,0.0,0.0,6.m4v,3.0
2024-02-27 11:41:09.501961,1709030469.5019608,-23.4375,-22.94921875,-33.69140625,-4.8828125,-1.0,1.0,0.0,0.0,6.m4v,3.0
2024-02-27 11:41:09.505866,1709030469.5058658,-21.97265625,-32.71484375,-37.109375,-13.671875,-1.0,1.0,0.0,0.0,6.m4v,3.0
2024-02-27 11:41:09.509771,1709030469.5097709,-31.73828125,-33.203125,-46.38671875,-41.50390625,-1.0,1.0,0.0,0.0,6.m4v,3.0
2024-02-27 11:41:09.513676,1709030469.513676,-38.0859375,-38.0859375,-41.50390625,-52.734375,-1.0,1.0,0.0,0.0,6.m4v,3.0
2024-02-27 11:41:09.517581,1709030469.517581,-40.0390625,-58.59375,-45.8984375,-39.55078125,-1.0,1.0,0.0,0.0,6.m4v,3.0
2024-02-27 11:41:09.521486,1709030469.521486,-25.390625,-36.62109375,-37.59765625,-8.30078125,-1.0,1.0,0.0,0.0,6.m4v,3.0
2024-02-27 11:41:09.525391,1709030469.5253909,-11.23046875,-21.97265625,-18.5546875,-7.32421875,-1.0,1.0,0.0,0.0,6.m4v,3.0
2024-02-27 11:41:09.529296,1709030469.529296,-11.23046875,-37.109375,-33.203125,-37.109375,-1.0,1.0,0.0,0.0,6.m4v,3.0
2024-02-27 11:41:09.533201,1709030469.533201,-15.625,-44.921875,-56.15234375,-45.41015625,-1.0,1.0,0.0,0.0,6.m4v,3.0
2024-02-27 11:41:09.537117,1709030469.5371172,-34.1796875,-50.78125,-62.98828125,-37.59765625,-1.0,1.0,0.0,0.0,6.m4v,3.0
2024-02-27 11:41:09.541022,1709030469.5410223,-38.57421875,-60.05859375,-44.921875,-29.78515625,-1.0,1.0,0.0,0.0,6.m4v,3.0
2024-02-27 11:41:09.544927,1709030469.5449274,-22.4609375,-49.8046875,-36.1328125,-30.76171875,-1.0,1.0,0.0,0.0,6.m4v,3.0
2024-02-27 11:41:09.548832,1709030469.5488324,-20.5078125,-32.2265625,-40.0390625,-43.9453125,-1.0,1.0,0.0,0.0,6.m4v,3.0
2024-02-27 11:41:09.552737,1709030469.5527377,-41.50390625,-24.90234375,-42.48046875,-57.6171875,-1.0,1.0,0.0,0.0,6.m4v,3.0
2024-02-27 11:41:09.556643,1709030469.5566423,-39.0625,3.90625,-34.1796875,-35.15625,-1.0,1.0,0.0,0.0,6.m4v,3.0
2024-02-27 11:41:09.560548,1709030469.5605476,-28.3203125,-0.9765625,-32.2265625,2.44140625,-1.0,1.0,0.0,0.0,6.m4v,3.0
2024-02-27 11:41:09.564453,1709030469.5644526,-44.43359375,-35.64453125,-41.9921875,-11.23046875,-1.0,1.0,0.0,0.0,6.m4v,3.0
2024-02-27 11:41:09.568358,1709030469.5683577,-57.12890625,-41.015625,-35.15625,-50.29296875,-1.0,1.0,0.0,0.0,6.m4v,3.0
2024-02-27 11:41:09.572263,1709030469.5722628,-49.8046875,-29.78515625,-21.97265625,-54.6875,-1.0,1.0,0.0,0.0,6.m4v,3.0
2024-02-27 11:41:09.576168,1709030469.5761678,-41.015625,-23.4375,-20.5078125,-33.203125,-1.0,1.0,0.0,0.0,6.m4v,3.0
2024-02-27 11:41:09.580073,1709030469.5800729,-50.29296875,-36.62109375,-21.97265625,-20.99609375,-1.0,1.0,0.0,0.0,6.m4v,3.0
2024-02-27 11:41:09.583989,1709030469.583989,-50.78125,-35.15625,-41.50390625,-27.34375,-1.0,1.0,0.0,0.0,6.m4v,3.0
2024-02-27 11:41:09.587894,1709030469.587894,-38.57421875,-41.9921875,-56.15234375,-50.29296875,-1.0,1.0,0.0,0.0,6.m4v,3.0
2024-02-27 11:41:09.591799,1709030469.591799,-26.3671875,-37.59765625,-31.25,-52.734375,-1.0,1.0,0.0,0.0,6.m4v,3.0
2024-02-27 11:41:09.595704,1709030469.595704,-27.83203125,-0.48828125,-31.25,-41.015625,-1.0,1.0,0.0,0.0,6.m4v,3.0
2024-02-27 11:41:09.599609,1709030469.5996091,-36.62109375,-20.5078125,-47.8515625,-43.9453125,-1.0,1.0,0.0,0.0,6.m4v,3.0
2024-02-27 11:41:09.603514,1709030469.6035142,-42.96875,-23.92578125,-25.87890625,-44.43359375,-1.0,1.0,0.0,0.0,6.m4v,3.0
2024-02-27 11:41:09.607419,1709030469.607419,-48.828125,-35.15625,-27.34375,-56.15234375,-1.0,1.0,0.0,0.0,6.m4v,3.0
2024-02-27 11:41:09.611324,1709030469.611324,-50.78125,-65.91796875,-41.015625,-72.265625,-1.0,1.0,0.0,0.0,6.m4v,3.0
2024-02-27 11:41:09.611324,1709030469.611324,-50.78125,-65.91796875,-41.015625,-72.265625,-1.0,1.0,0.0,0.0,6.m4v,3.0
2024-02-27 11:41:09.615229,1709030469.6152291,-48.828125,-45.8984375,-29.296875,-60.546875,-1.0,1.0,0.0,0.0,6.m4v,3.0
2024-02-27 11:41:09.615229,1709030469.6152291,-48.828125,-45.8984375,-29.296875,-60.546875,-1.0,1.0,0.0,0.0,6.m4v,3.0
2024-02-27 11:41:09.619134,1709030469.6191342,-31.73828125,-13.18359375,-29.78515625,-26.3671875,-1.0,1.0,0.0,0.0,6.m4v,3.0
2024-02-27 11:41:09.619134,1709030469.6191342,-31.73828125,-13.18359375,-29.78515625,-26.3671875,-1.0,1.0,0.0,0.0,6.m4v,3.0
2024-02-27 11:41:09.623039,1709030469.6230392,-29.296875,-9.765625,-29.296875,-11.71875,-1.0,1.0,0.0,0.0,6.m4v,3.0
2024-02-27 11:41:09.623039,1709030469.6230392,-29.296875,-9.765625,-29.296875,-11.71875,-1.0,1.0,0.0,0.0,6.m4v,3.0
2024-02-27 11:41:09.626944,1709030469.6269443,-36.1328125,-26.85546875,-31.25,-26.3671875,-1.0,1.0,0.0,0.0,6.m4v,3.0
2024-02-27 11:41:09.626944,1709030469.6269443,-36.1328125,-26.85546875,-31.25,-26.3671875,-1.0,1.0,0.0,0.0,6.m4v,3.0
2024-02-27 11:41:09.630860,1709030469.63086,-29.78515625,-23.92578125,-45.8984375,-38.0859375,-1.0,1.0,0.0,0.0,6.m4v,3.0
2024-02-27 11:41:09.630860,1709030469.63086,-29.78515625,-23.92578125,-45.8984375,-38.0859375,-1.0,1.0,0.0,0.0,6.m4v,3.0
2024-02-27 11:41:09.634765,1709030469.634765,-40.0390625,-18.06640625,-32.2265625,-30.76171875,-1.0,1.0,0.0,0.0,6.m4v,3.0
2024-02-27 11:41:09.634765,1709030469.634765,-40.0390625,-18.06640625,-32.2265625,-30.76171875,-1.0,1.0,0.0,0.0,6.m4v,3.0
2024-02-27 11:41:09.638670,1709030469.63867,-49.8046875,-27.34375,-18.06640625,-18.5546875,-1.0,1.0,0.0,0.0,6.m4v,3.0
2024-02-27 11:41:09.638670,1709030469.63867,-49.8046875,-27.34375,-18.06640625,-18.5546875,-1.0,1.0,0.0,0.0,6.m4v,3.0
2024-02-27 11:41:09.642575,1709030469.642575,-52.24609375,-34.66796875,-27.34375,-20.5078125,-1.0,1.0,0.0,0.0,6.m4v,3.0
2024-02-27 11:41:09.642575,1709030469.642575,-52.24609375,-34.66796875,-27.34375,-20.5078125,-1.0,1.0,0.0,0.0,6.m4v,3.0
2024-02-27 11:41:09.646480,1709030469.64648,-60.05859375,-34.1796875,-39.0625,-44.43359375,-1.0,1.0,0.0,0.0,6.m4v,3.0
2024-02-27 11:41:09.646480,1709030469.64648,-60.05859375,-34.1796875,-39.0625,-44.43359375,-1.0,1.0,0.0,0.0,6.m4v,3.0
2024-02-27 11:41:09.650385,1709030469.6503851,-68.359375,-16.6015625,-43.45703125,-72.265625,-1.0,1.0,0.0,0.0,6.m4v,3.0
2024-02-27 11:41:09.650385,1709030469.6503851,-68.359375,-16.6015625,-43.45703125,-72.265625,-1.0,1.0,0.0,0.0,6.m4v,3.0
2024-02-27 11:41:09.654290,1709030469.6542902,-70.80078125,-16.11328125,-38.0859375,-70.3125,-1.0,1.0,0.0,0.0,6.m4v,3.0
2024-02-27 11:41:09.654290,1709030469.6542902,-70.80078125,-16.11328125,-38.0859375,-70.3125,-1.0,1.0,0.0,0.0,6.m4v,3.0
2024-02-27 11:41:09.658195,1709030469.6581953,-50.29296875,-36.62109375,-31.73828125,-35.64453125,-1.0,1.0,0.0,0.0,6.m4v,3.0
2024-02-27 11:41:09.658195,1709030469.6581953,-50.29296875,-36.62109375,-31.73828125,-35.64453125,-1.0,1.0,0.0,0.0,6.m4v,3.0
2024-02-27 11:41:09.662100,1709030469.6621003,-33.69140625,-37.109375,-22.94921875,-17.578125,-1.0,1.0,0.0,0.0,6.m4v,3.0
2024-02-27 11:41:09.662100,1709030469.6621003,-33.69140625,-37.109375,-22.94921875,-17.578125,-1.0,1.0,0.0,0.0,6.m4v,3.0
2024-02-27 11:41:09.666005,1709030469.6660054,-20.99609375,-27.83203125,-4.8828125,-27.34375,-1.0,1.0,0.0,0.0,6.m4v,3.0
2024-02-27 11:41:09.666005,1709030469.6660054,-20.99609375,-27.83203125,-4.8828125,-27.34375,-1.0,1.0,0.0,0.0,6.m4v,3.0
2024-02-27 11:41:09.669910,1709030469.6699104,-16.11328125,-25.390625,-6.8359375,-37.109375,-1.0,1.0,0.0,0.0,6.m4v,3.0
2024-02-27 11:41:09.669910,1709030469.6699104,-16.11328125,-25.390625,-6.8359375,-37.109375,-1.0,1.0,0.0,0.0,6.m4v,3.0
2024-02-27 11:41:09.673815,1709030469.6738155,-32.71484375,-25.390625,-40.52734375,-46.38671875,-1.0,1.0,0.0,0.0,6.m4v,3.0
2024-02-27 11:41:09.673815,1709030469.6738155,-32.71484375,-25.390625,-40.52734375,-46.38671875,-1.0,1.0,0.0,0.0,6.m4v,3.0
2024-02-27 11:41:09.677731,1709030469.6777306,-41.015625,-33.203125,-57.6171875,-36.62109375,-1.0,1.0,0.0,0.0,6.m4v,3.0
2024-02-27 11:41:09.677731,1709030469.6777306,-41.015625,-33.203125,-57.6171875,-36.62109375,-1.0,1.0,0.0,0.0,6.m4v,3.0
2024-02-27 11:41:09.681636,1709030469.6816356,-34.66796875,-40.0390625,-35.15625,-20.99609375,-1.0,1.0,0.0,0.0,6.m4v,3.0
2024-02-27 11:41:09.681636,1709030469.6816356,-34.66796875,-40.0390625,-35.15625,-20.99609375,-1.0,1.0,0.0,0.0,6.m4v,3.0
2024-02-27 11:41:09.685541,1709030469.685541,-29.296875,-43.45703125,-11.71875,-28.80859375,-1.0,1.0,0.0,0.0,6.m4v,3.0
2024-02-27 11:41:09.685541,1709030469.685541,-29.296875,-43.45703125,-11.71875,-28.80859375,-1.0,1.0,0.0,0.0,6.m4v,3.0
2024-02-27 11:41:09.689446,1709030469.6894455,-24.90234375,-36.1328125,-30.2734375,-44.921875,-1.0,1.0,0.0,0.0,6.m4v,3.0
2024-02-27 11:41:09.689446,1709030469.6894455,-24.90234375,-36.1328125,-30.2734375,-44.921875,-1.0,1.0,0.0,0.0,6.m4v,3.0
2024-02-27 11:41:09.693351,1709030469.6933508,-20.01953125,-39.55078125,-40.0390625,-40.0390625,-1.0,1.0,0.0,0.0,6.m4v,3.0
2024-02-27 11:41:09.693351,1709030469.6933508,-20.01953125,-39.55078125,-40.0390625,-40.0390625,-1.0,1.0,0.0,0.0,6.m4v,3.0
2024-02-27 11:41:09.697256,1709030469.6972558,-34.66796875,-38.0859375,-39.0625,-30.76171875,-1.0,1.0,0.0,0.0,6.m4v,3.0
2024-02-27 11:41:09.697256,1709030469.6972558,-34.66796875,-38.0859375,-39.0625,-30.76171875,-1.0,1.0,0.0,0.0,6.m4v,3.0
2024-02-27 11:41:09.701161,1709030469.701161,-52.24609375,-33.69140625,-41.015625,-29.296875,-1.0,1.0,0.0,0.0,6.m4v,3.0
2024-02-27 11:41:09.701161,1709030469.701161,-52.24609375,-33.69140625,-41.015625,-29.296875,-1.0,1.0,0.0,0.0,6.m4v,3.0
2024-02-27 11:41:09.705066,1709030469.705066,-36.62109375,-35.15625,-23.92578125,-25.390625,-1.0,1.0,0.0,0.0,6.m4v,3.0
2024-02-27 11:41:09.705066,1709030469.705066,-36.62109375,-35.15625,-23.92578125,-25.390625,-1.0,1.0,0.0,0.0,6.m4v,3.0
2024-02-27 11:41:09.708971,1709030469.708971,-30.76171875,-44.921875,-23.4375,-41.50390625,-1.0,1.0,0.0,0.0,6.m4v,3.0
2024-02-27 11:41:09.708971,1709030469.708971,-30.76171875,-44.921875,-23.4375,-41.50390625,-1.0,1.0,0.0,0.0,6.m4v,3.0
2024-02-27 11:41:09.712876,1709030469.712876,-46.875,-55.6640625,-30.76171875,-49.31640625,-1.0,1.0,0.0,0.0,6.m4v,3.0
2024-02-27 11:41:09.712876,1709030469.712876,-46.875,-55.6640625,-30.76171875,-49.31640625,-1.0,1.0,0.0,0.0,6.m4v,3.0
2024-02-27 11:41:09.716781,1709030469.7167811,-55.17578125,-46.38671875,-36.62109375,-37.109375,-1.0,1.0,0.0,0.0,6.m4v,3.0
2024-02-27 11:41:09.716781,1709030469.7167811,-55.17578125,-46.38671875,-36.62109375,-37.109375,-1.0,1.0,0.0,0.0,6.m4v,3.0
2024-02-27 11:41:09.720686,1709030469.7206862,-57.6171875,-51.26953125,-44.921875,-30.2734375,-1.0,1.0,0.0,0.0,6.m4v,3.0
2024-02-27 11:41:09.720686,1709030469.7206862,-57.6171875,-51.26953125,-44.921875,-30.2734375,-1.0,1.0,0.0,0.0,6.m4v,3.0
2024-02-27 11:41:09.724601,1709030469.7246008,-45.8984375,-34.1796875,-32.2265625,-27.34375,-1.0,1.0,0.0,0.0,6.m4v,3.0
2024-02-27 11:41:09.724601,1709030469.7246008,-45.8984375,-34.1796875,-32.2265625,-27.34375,-1.0,1.0,0.0,0.0,6.m4v,3.0
2024-02-27 11:41:09.728506,1709030469.7285058,-36.1328125,-14.6484375,-32.2265625,-36.62109375,-1.0,1.0,0.0,0.0,6.m4v,3.0
2024-02-27 11:41:09.728506,1709030469.7285058,-36.1328125,-14.6484375,-32.2265625,-36.62109375,-1.0,1.0,0.0,0.0,6.m4v,3.0
2024-02-27 11:41:09.732411,1709030469.732411,-27.34375,-28.3203125,-33.203125,-41.015625,-1.0,1.0,0.0,0.0,6.m4v,3.0
2024-02-27 11:41:09.732411,1709030469.732411,-27.34375,-28.3203125,-33.203125,-41.015625,-1.0,1.0,0.0,0.0,6.m4v,3.0
2024-02-27 11:41:09.736316,1709030469.736316,-35.64453125,-65.91796875,-26.85546875,-42.96875,-1.0,1.0,0.0,0.0,6.m4v,3.0
2024-02-27 11:41:09.736316,1709030469.736316,-35.64453125,-65.91796875,-26.85546875,-42.96875,-1.0,1.0,0.0,0.0,6.m4v,3.0
2024-02-27 11:41:09.740221,1709030469.740221,-48.828125,-76.171875,-20.5078125,-31.73828125,-1.0,1.0,0.0,0.0,6.m4v,3.0
2024-02-27 11:41:09.740221,1709030469.740221,-48.828125,-76.171875,-20.5078125,-31.73828125,-1.0,1.0,0.0,0.0,6.m4v,3.0
2024-02-27 11:41:09.744126,1709030469.744126,-38.57421875,-46.38671875,-15.625,-15.625,-1.0,1.0,0.0,0.0,6.m4v,3.0
2024-02-27 11:41:09.744126,1709030469.744126,-38.57421875,-46.38671875,-15.625,-15.625,-1.0,1.0,0.0,0.0,6.m4v,3.0
2024-02-27 11:41:09.748031,1709030469.7480311,-31.73828125,-37.59765625,-18.5546875,-27.34375,-1.0,1.0,0.0,0.0,6.m4v,3.0
2024-02-27 11:41:09.748031,1709030469.7480311,-31.73828125,-37.59765625,-18.5546875,-27.34375,-1.0,1.0,0.0,0.0,6.m4v,3.0
2024-02-27 11:41:09.751936,1709030469.7519362,-39.0625,-63.96484375,-31.73828125,-54.19921875,-1.0,1.0,0.0,0.0,6.m4v,3.0
2024-02-27 11:41:09.751936,1709030469.7519362,-39.0625,-63.96484375,-31.73828125,-54.19921875,-1.0,1.0,0.0,0.0,6.m4v,3.0
2024-02-27 11:41:09.755841,1709030469.7558413,-44.43359375,-68.359375,-37.109375,-57.12890625,-1.0,1.0,0.0,0.0,6.m4v,3.0
2024-02-27 11:41:09.755841,1709030469.7558413,-44.43359375,-68.359375,-37.109375,-57.12890625,-1.0,1.0,0.0,0.0,6.m4v,3.0
2024-02-27 11:41:09.759746,1709030469.7597463,-37.59765625,-55.17578125,-27.83203125,-25.390625,-1.0,1.0,0.0,0.0,6.m4v,3.0
2024-02-27 11:41:09.759746,1709030469.7597463,-37.59765625,-55.17578125,-27.83203125,-25.390625,-1.0,1.0,0.0,0.0,6.m4v,3.0
2024-02-27 11:41:09.763651,1709030469.7636514,-42.48046875,-44.43359375,-18.5546875,-18.06640625,-1.0,1.0,0.0,0.0,6.m4v,3.0
2024-02-27 11:41:09.767556,1709030469.7675564,-50.78125,-31.25,-9.765625,-44.921875,-1.0,1.0,0.0,0.0,6.m4v,3.0
2024-02-27 11:41:09.771471,1709030469.771471,-52.734375,-32.2265625,-25.87890625,-63.4765625,-1.0,1.0,0.0,0.0,6.m4v,3.0
2024-02-27 11:41:09.775376,1709030469.775376,-59.5703125,-29.296875,-39.55078125,-59.5703125,-1.0,1.0,0.0,0.0,6.m4v,3.0
2024-02-27 11:41:09.779281,1709030469.7792811,-52.24609375,-22.4609375,-32.71484375,-28.3203125,-1.0,1.0,0.0,0.0,6.m4v,3.0
2024-02-27 11:41:09.783186,1709030469.7831862,-48.33984375,-48.33984375,-50.29296875,-16.11328125,-1.0,1.0,0.0,0.0,6.m4v,3.0
2024-02-27 11:41:09.787091,1709030469.7870913,-47.36328125,-46.875,-59.5703125,-43.45703125,-1.0,1.0,0.0,0.0,6.m4v,3.0
2024-02-27 11:41:09.790996,1709030469.7909963,-45.8984375,-7.32421875,-54.6875,-62.98828125,-1.0,1.0,0.0,0.0,6.m4v,3.0
2024-02-27 11:41:09.794901,1709030469.7949014,-55.17578125,-22.94921875,-45.8984375,-54.6875,-1.0,1.0,0.0,0.0,6.m4v,3.0
2024-02-27 11:41:09.798806,1709030469.7988064,-60.05859375,-58.59375,-27.34375,-39.55078125,-1.0,1.0,0.0,0.0,6.m4v,3.0
2024-02-27 11:41:09.802711,1709030469.8027115,-65.91796875,-48.828125,-28.80859375,-39.0625,-1.0,1.0,0.0,0.0,6.m4v,3.0
2024-02-27 11:41:09.806617,1709030469.8066163,-53.22265625,-23.92578125,-30.76171875,-41.9921875,-1.0,1.0,0.0,0.0,6.m4v,3.0
2024-02-27 11:41:09.810522,1709030469.8105216,-39.55078125,-18.06640625,-26.3671875,-47.36328125,-1.0,1.0,0.0,0.0,6.m4v,3.0
2024-02-27 11:41:09.814427,1709030469.814427,-43.45703125,-23.92578125,-37.109375,-54.6875,-1.0,1.0,0.0,0.0,6.m4v,3.0
2024-02-27 11:41:09.818340,1709030469.8183403,-42.96875,-31.25,-56.15234375,-34.66796875,-1.0,1.0,0.0,0.0,6.m4v,3.0
2024-02-27 11:41:09.822245,1709030469.8222454,-26.85546875,-32.2265625,-45.41015625,-6.8359375,-1.0,1.0,0.0,0.0,6.m4v,3.0
2024-02-27 11:41:09.826150,1709030469.8261504,-22.4609375,-35.64453125,-34.66796875,-18.5546875,-1.0,1.0,0.0,0.0,6.m4v,3.0
2024-02-27 11:41:09.830055,1709030469.8300557,-36.62109375,-46.38671875,-47.8515625,-48.33984375,-1.0,1.0,0.0,0.0,6.m4v,3.0
2024-02-27 11:41:09.833961,1709030469.8339603,-26.85546875,-24.4140625,-39.55078125,-41.9921875,-1.0,1.0,0.0,0.0,6.m4v,3.0
2024-02-27 11:41:09.837866,1709030469.8378656,-16.6015625,-3.41796875,-32.2265625,-17.578125,-1.0,1.0,0.0,0.0,6.m4v,3.0
2024-02-27 11:41:09.841771,1709030469.8417706,-23.4375,-36.62109375,-32.71484375,-17.578125,-1.0,1.0,0.0,0.0,6.m4v,3.0
2024-02-27 11:41:09.845676,1709030469.8456757,-32.2265625,-72.265625,-36.1328125,-42.48046875,-1.0,1.0,0.0,0.0,6.m4v,3.0
2024-02-27 11:41:09.849581,1709030469.8495808,-30.2734375,-58.59375,-41.50390625,-55.6640625,-1.0,1.0,0.0,0.0,6.m4v,3.0
2024-02-27 11:41:09.853486,1709030469.8534858,-23.4375,-34.1796875,-30.2734375,-45.41015625,-1.0,1.0,0.0,0.0,6.m4v,3.0
2024-02-27 11:41:09.857391,1709030469.8573909,-27.34375,-7.8125,-33.69140625,-24.90234375,-1.0,1.0,0.0,0.0,6.m4v,3.0
2024-02-27 11:41:09.861296,1709030469.861296,-33.203125,3.41796875,-37.109375,-11.23046875,-1.0,1.0,0.0,0.0,6.m4v,3.0
2024-02-27 11:41:09.865213,1709030469.865213,-43.9453125,-13.671875,-32.2265625,-27.83203125,-1.0,1.0,0.0,0.0,6.m4v,3.0
2024-02-27 11:41:09.869118,1709030469.869118,-49.31640625,-26.3671875,-29.296875,-48.33984375,-1.0,1.0,0.0,0.0,6.m4v,3.0
2024-02-27 11:41:09.873023,1709030469.873023,-42.48046875,-26.85546875,-34.1796875,-52.734375,-1.0,1.0,0.0,0.0,6.m4v,3.0
2024-02-27 11:41:09.876928,1709030469.876928,-41.015625,-29.78515625,-41.50390625,-44.43359375,-1.0,1.0,0.0,0.0,6.m4v,3.0
2024-02-27 11:41:09.880833,1709030469.880833,-35.64453125,-37.59765625,-40.52734375,-20.5078125,-1.0,1.0,0.0,0.0,6.m4v,3.0
2024-02-27 11:41:09.884738,1709030469.884738,-24.90234375,-31.73828125,-30.76171875,-16.11328125,-1.0,1.0,0.0,0.0,6.m4v,3.0
