Timestamp,Timestamp_UNIX,TP9,AF7,AF8,TP10,Valence,Arousal,Dominace,Viewed,Video,Participant
2024-02-27 15:49:25.292594,1709045365.292594,-28.3203125,-32.71484375,-33.69140625,-55.17578125,1.0,1.0,1.0,1.0,5.m4v,6.0
2024-02-27 15:49:25.296499,1709045365.2964993,-56.15234375,-36.1328125,-32.2265625,-55.6640625,1.0,1.0,1.0,1.0,5.m4v,6.0
2024-02-27 15:49:25.300405,1709045365.3004043,-49.31640625,-22.94921875,-23.4375,-34.66796875,1.0,1.0,1.0,1.0,5.m4v,6.0
2024-02-27 15:49:25.304310,1709045365.30431,-27.34375,-24.90234375,-17.578125,-26.3671875,1.0,1.0,1.0,1.0,5.m4v,6.0
2024-02-27 15:49:25.308215,1709045365.3082154,-28.3203125,-32.2265625,-34.1796875,-37.59765625,1.0,1.0,1.0,1.0,5.m4v,6.0
2024-02-27 15:49:25.312121,1709045365.312121,-32.71484375,-31.25,-44.921875,-42.96875,1.0,1.0,1.0,1.0,5.m4v,6.0
2024-02-27 15:49:25.316026,1709045365.316026,-59.5703125,-37.59765625,-37.109375,-43.45703125,1.0,1.0,1.0,1.0,5.m4v,6.0
2024-02-27 15:49:25.319932,1709045365.3199315,-80.078125,-38.57421875,-36.1328125,-37.59765625,1.0,1.0,1.0,1.0,5.m4v,6.0
2024-02-27 15:49:25.323837,1709045365.3238368,-41.015625,-41.9921875,-39.0625,-36.62109375,1.0,1.0,1.0,1.0,5.m4v,6.0
2024-02-27 15:49:25.327742,1709045365.327742,-6.8359375,-33.69140625,-31.25,-37.109375,1.0,1.0,1.0,1.0,5.m4v,6.0
2024-02-27 15:49:25.331648,1709045365.3316476,-12.20703125,-22.4609375,-30.2734375,-31.73828125,1.0,1.0,1.0,1.0,5.m4v,6.0
2024-02-27 15:49:25.335553,1709045365.335553,-33.69140625,-28.3203125,-29.296875,-35.64453125,1.0,1.0,1.0,1.0,5.m4v,6.0
2024-02-27 15:49:25.339466,1709045365.3394656,-54.19921875,-28.80859375,-31.73828125,-41.9921875,1.0,1.0,1.0,1.0,5.m4v,6.0
2024-02-27 15:49:25.343371,1709045365.3433712,-25.87890625,-17.578125,-29.78515625,-31.73828125,1.0,1.0,1.0,1.0,5.m4v,6.0
2024-02-27 15:49:25.347276,1709045365.3472764,-5.37109375,-24.90234375,-28.3203125,-28.80859375,1.0,1.0,1.0,1.0,5.m4v,6.0
2024-02-27 15:49:25.351182,1709045365.3511815,-23.92578125,-33.203125,-32.71484375,-41.50390625,1.0,1.0,1.0,1.0,5.m4v,6.0
2024-02-27 15:49:25.355087,1709045365.3550873,-51.26953125,-28.3203125,-29.296875,-36.1328125,1.0,1.0,1.0,1.0,5.m4v,6.0
2024-02-27 15:49:25.358993,1709045365.3589926,-58.10546875,-31.25,-39.55078125,-27.83203125,1.0,1.0,1.0,1.0,5.m4v,6.0
2024-02-27 15:49:25.362898,1709045365.362898,-29.78515625,-36.62109375,-44.43359375,-30.2734375,1.0,1.0,1.0,1.0,5.m4v,6.0
2024-02-27 15:49:25.366803,1709045365.3668034,-22.4609375,-33.69140625,-38.0859375,-39.0625,1.0,1.0,1.0,1.0,5.m4v,6.0
2024-02-27 15:49:25.370709,1709045365.3707087,-42.96875,-38.0859375,-35.64453125,-43.9453125,1.0,1.0,1.0,1.0,5.m4v,6.0
2024-02-27 15:49:25.374614,1709045365.374614,-55.17578125,-37.109375,-26.85546875,-29.78515625,1.0,1.0,1.0,1.0,5.m4v,6.0
2024-02-27 15:49:25.378520,1709045365.3785195,-68.84765625,-27.34375,-29.78515625,-33.203125,1.0,1.0,1.0,1.0,5.m4v,6.0
2024-02-27 15:49:25.382425,1709045365.3824248,-44.921875,-26.3671875,-28.80859375,-43.9453125,1.0,1.0,1.0,1.0,5.m4v,6.0
2024-02-27 15:49:25.386337,1709045365.386337,-6.8359375,-32.71484375,-20.99609375,-43.9453125,1.0,1.0,1.0,1.0,5.m4v,6.0
2024-02-27 15:49:25.390242,1709045365.3902423,-19.04296875,-33.69140625,-27.34375,-50.29296875,1.0,1.0,1.0,1.0,5.m4v,6.0
2024-02-27 15:49:25.394148,1709045365.3941476,-43.9453125,-23.4375,-26.85546875,-53.22265625,1.0,1.0,1.0,1.0,5.m4v,6.0
2024-02-27 15:49:25.398053,1709045365.3980532,-65.91796875,-27.34375,-25.390625,-46.875,1.0,1.0,1.0,1.0,5.m4v,6.0
2024-02-27 15:49:25.401958,1709045365.4019585,-45.8984375,-31.73828125,-26.3671875,-40.52734375,1.0,1.0,1.0,1.0,5.m4v,6.0
2024-02-27 15:49:25.405864,1709045365.4058638,-20.01953125,-28.3203125,-24.90234375,-42.96875,1.0,1.0,1.0,1.0,5.m4v,6.0
2024-02-27 15:49:25.409769,1709045365.4097693,-24.90234375,-32.71484375,-26.85546875,-41.9921875,1.0,1.0,1.0,1.0,5.m4v,6.0
2024-02-27 15:49:25.413675,1709045365.4136746,-60.546875,-38.0859375,-31.73828125,-48.33984375,1.0,1.0,1.0,1.0,5.m4v,6.0
2024-02-27 15:49:25.417580,1709045365.41758,-81.54296875,-35.64453125,-31.73828125,-50.29296875,1.0,1.0,1.0,1.0,5.m4v,6.0
2024-02-27 15:49:25.421485,1709045365.4214854,-49.31640625,-32.2265625,-28.80859375,-35.64453125,1.0,1.0,1.0,1.0,5.m4v,6.0
2024-02-27 15:49:25.425391,1709045365.4253907,-25.87890625,-30.76171875,-29.78515625,-33.69140625,1.0,1.0,1.0,1.0,5.m4v,6.0
2024-02-27 15:49:25.429296,1709045365.429296,-43.9453125,-32.2265625,-37.59765625,-51.26953125,1.0,1.0,1.0,1.0,5.m4v,6.0
2024-02-27 15:49:25.433208,1709045365.4332078,-62.98828125,-28.80859375,-38.57421875,-52.734375,1.0,1.0,1.0,1.0,5.m4v,6.0
2024-02-27 15:49:25.437113,1709045365.437113,-63.4765625,-28.3203125,-36.1328125,-44.921875,1.0,1.0,1.0,1.0,5.m4v,6.0
2024-02-27 15:49:25.441019,1709045365.4410186,-38.0859375,-31.73828125,-33.203125,-35.64453125,1.0,1.0,1.0,1.0,5.m4v,6.0
2024-02-27 15:49:25.444924,1709045365.444924,-13.18359375,-28.3203125,-30.76171875,-33.69140625,1.0,1.0,1.0,1.0,5.m4v,6.0
2024-02-27 15:49:25.448829,1709045365.4488292,-21.97265625,-25.390625,-38.0859375,-56.640625,1.0,1.0,1.0,1.0,5.m4v,6.0
2024-02-27 15:49:25.452735,1709045365.4527347,-38.0859375,-35.15625,-41.015625,-60.05859375,1.0,1.0,1.0,1.0,5.m4v,6.0
2024-02-27 15:49:25.456640,1709045365.45664,-59.5703125,-41.015625,-40.52734375,-50.78125,1.0,1.0,1.0,1.0,5.m4v,6.0
2024-02-27 15:49:25.460545,1709045365.4605453,-60.546875,-35.64453125,-39.55078125,-55.17578125,1.0,1.0,1.0,1.0,5.m4v,6.0
2024-02-27 15:49:25.464451,1709045365.4644508,-31.25,-29.78515625,-37.109375,-53.7109375,1.0,1.0,1.0,1.0,5.m4v,6.0
2024-02-27 15:49:25.468356,1709045365.468356,-28.80859375,-34.66796875,-38.0859375,-54.19921875,1.0,1.0,1.0,1.0,5.m4v,6.0
2024-02-27 15:49:25.472261,1709045365.4722614,-59.08203125,-42.48046875,-44.921875,-60.05859375,1.0,1.0,1.0,1.0,5.m4v,6.0
2024-02-27 15:49:25.476167,1709045365.476167,-73.73046875,-40.52734375,-49.8046875,-57.12890625,1.0,1.0,1.0,1.0,5.m4v,6.0
2024-02-27 15:49:25.480078,1709045365.4800775,-57.12890625,-32.2265625,-49.8046875,-47.36328125,1.0,1.0,1.0,1.0,5.m4v,6.0
2024-02-27 15:49:25.483983,1709045365.483983,-33.203125,-27.34375,-44.43359375,-40.52734375,1.0,1.0,1.0,1.0,5.m4v,6.0
2024-02-27 15:49:25.487889,1709045365.4878886,-15.625,-28.3203125,-36.62109375,-43.45703125,1.0,1.0,1.0,1.0,5.m4v,6.0
2024-02-27 15:49:25.491794,1709045365.491794,-33.203125,-31.25,-33.203125,-52.734375,1.0,1.0,1.0,1.0,5.m4v,6.0
2024-02-27 15:49:25.495699,1709045365.4956992,-68.84765625,-41.015625,-34.66796875,-59.08203125,1.0,1.0,1.0,1.0,5.m4v,6.0
2024-02-27 15:49:25.499605,1709045365.4996047,-55.6640625,-46.38671875,-39.0625,-49.8046875,1.0,1.0,1.0,1.0,5.m4v,6.0
2024-02-27 15:49:25.503510,1709045365.50351,-28.3203125,-38.57421875,-41.50390625,-38.57421875,1.0,1.0,1.0,1.0,5.m4v,6.0
2024-02-27 15:49:25.507415,1709045365.5074153,-24.4140625,-32.2265625,-36.1328125,-40.52734375,1.0,1.0,1.0,1.0,5.m4v,6.0
2024-02-27 15:49:25.511321,1709045365.5113208,-33.69140625,-31.73828125,-30.76171875,-53.7109375,1.0,1.0,1.0,1.0,5.m4v,6.0
2024-02-27 15:49:25.515226,1709045365.515226,-67.87109375,-30.2734375,-32.71484375,-54.19921875,1.0,1.0,1.0,1.0,5.m4v,6.0
2024-02-27 15:49:25.519131,1709045365.5191314,-63.96484375,-29.78515625,-31.25,-41.50390625,1.0,1.0,1.0,1.0,5.m4v,6.0
2024-02-27 15:49:25.523037,1709045365.523037,-23.92578125,-23.92578125,-27.83203125,-35.15625,1.0,1.0,1.0,1.0,5.m4v,6.0
2024-02-27 15:49:25.526952,1709045365.526952,-18.06640625,-25.390625,-31.73828125,-36.62109375,1.0,1.0,1.0,1.0,5.m4v,6.0
2024-02-27 15:49:25.530857,1709045365.530857,-41.015625,-34.66796875,-36.62109375,-50.78125,1.0,1.0,1.0,1.0,5.m4v,6.0
2024-02-27 15:49:25.534763,1709045365.5347626,-70.3125,-33.203125,-35.64453125,-61.03515625,1.0,1.0,1.0,1.0,5.m4v,6.0
2024-02-27 15:49:25.538668,1709045365.5386682,-71.77734375,-34.1796875,-32.2265625,-51.26953125,1.0,1.0,1.0,1.0,5.m4v,6.0
2024-02-27 15:49:25.542573,1709045365.5425737,-44.921875,-33.203125,-24.4140625,-37.59765625,1.0,1.0,1.0,1.0,5.m4v,6.0
2024-02-27 15:49:25.546479,1709045365.5464787,-31.73828125,-35.64453125,-19.53125,-38.0859375,1.0,1.0,1.0,1.0,5.m4v,6.0
2024-02-27 15:49:25.550384,1709045365.5503843,-28.80859375,-32.2265625,-27.83203125,-41.50390625,1.0,1.0,1.0,1.0,5.m4v,6.0
2024-02-27 15:49:25.554290,1709045365.5542896,-55.17578125,-28.80859375,-34.66796875,-46.875,1.0,1.0,1.0,1.0,5.m4v,6.0
2024-02-27 15:49:25.558195,1709045365.5581949,-72.265625,-35.15625,-30.76171875,-54.6875,1.0,1.0,1.0,1.0,5.m4v,6.0
2024-02-27 15:49:25.562100,1709045365.5621004,-55.17578125,-39.0625,-26.85546875,-44.43359375,1.0,1.0,1.0,1.0,5.m4v,6.0
2024-02-27 15:49:25.566006,1709045365.5660057,-34.1796875,-35.15625,-21.97265625,-39.0625,1.0,1.0,1.0,1.0,5.m4v,6.0
2024-02-27 15:49:25.569911,1709045365.569911,-30.2734375,-32.71484375,-21.97265625,-48.33984375,1.0,1.0,1.0,1.0,5.m4v,6.0
2024-02-27 15:49:25.573826,1709045365.5738256,-54.6875,-30.76171875,-35.15625,-53.7109375,1.0,1.0,1.0,1.0,5.m4v,6.0
2024-02-27 15:49:25.577731,1709045365.577731,-71.77734375,-29.296875,-35.64453125,-43.45703125,1.0,1.0,1.0,1.0,5.m4v,6.0
2024-02-27 15:49:25.581636,1709045365.5816364,-47.8515625,-34.66796875,-26.85546875,-27.83203125,1.0,1.0,1.0,1.0,5.m4v,6.0
2024-02-27 15:49:25.585542,1709045365.5855415,-40.0390625,-37.109375,-34.66796875,-47.36328125,1.0,1.0,1.0,1.0,5.m4v,6.0
2024-02-27 15:49:25.589447,1709045365.589447,-51.7578125,-35.15625,-34.66796875,-67.87109375,1.0,1.0,1.0,1.0,5.m4v,6.0
2024-02-27 15:49:25.593353,1709045365.5933526,-59.5703125,-37.59765625,-30.76171875,-66.40625,1.0,1.0,1.0,1.0,5.m4v,6.0
2024-02-27 15:49:25.597258,1709045365.597258,-94.23828125,-46.38671875,-39.0625,-72.265625,1.0,1.0,1.0,1.0,5.m4v,6.0
2024-02-27 15:49:25.601163,1709045365.6011631,-82.51953125,-40.52734375,-43.45703125,-65.91796875,1.0,1.0,1.0,1.0,5.m4v,6.0
2024-02-27 15:49:25.605069,1709045365.6050687,-47.36328125,-34.66796875,-43.9453125,-63.96484375,1.0,1.0,1.0,1.0,5.m4v,6.0
2024-02-27 15:49:25.608974,1709045365.608974,-46.875,-41.015625,-41.9921875,-70.3125,1.0,1.0,1.0,1.0,5.m4v,6.0
2024-02-27 15:49:25.612879,1709045365.6128793,-44.921875,-41.015625,-41.015625,-65.91796875,1.0,1.0,1.0,1.0,5.m4v,6.0
2024-02-27 15:49:25.616785,1709045365.6167846,-62.01171875,-34.66796875,-43.9453125,-58.10546875,1.0,1.0,1.0,1.0,5.m4v,6.0
2024-02-27 15:49:25.620698,1709045365.6206985,-55.6640625,-34.1796875,-37.109375,-52.24609375,1.0,1.0,1.0,1.0,5.m4v,6.0
2024-02-27 15:49:25.624604,1709045365.624604,-17.08984375,-39.55078125,-31.73828125,-40.52734375,1.0,1.0,1.0,1.0,5.m4v,6.0
2024-02-27 15:49:25.628509,1709045365.6285093,-19.04296875,-40.0390625,-33.69140625,-44.921875,1.0,1.0,1.0,1.0,5.m4v,6.0
2024-02-27 15:49:25.632415,1709045365.6324146,-37.109375,-39.0625,-30.2734375,-48.33984375,1.0,1.0,1.0,1.0,5.m4v,6.0
2024-02-27 15:49:25.636320,1709045365.63632,-67.3828125,-41.9921875,-31.25,-46.38671875,1.0,1.0,1.0,1.0,5.m4v,6.0
2024-02-27 15:49:25.640225,1709045365.6402254,-60.05859375,-38.57421875,-35.15625,-40.0390625,1.0,1.0,1.0,1.0,5.m4v,6.0
2024-02-27 15:49:25.644131,1709045365.6441307,-19.04296875,-34.1796875,-31.73828125,-38.57421875,1.0,1.0,1.0,1.0,5.m4v,6.0
2024-02-27 15:49:25.648036,1709045365.6480362,-16.11328125,-35.15625,-27.34375,-42.48046875,1.0,1.0,1.0,1.0,5.m4v,6.0
2024-02-27 15:49:25.651942,1709045365.6519415,-34.66796875,-32.71484375,-29.296875,-47.36328125,1.0,1.0,1.0,1.0,5.m4v,6.0
2024-02-27 15:49:25.655847,1709045365.6558468,-69.82421875,-28.3203125,-29.78515625,-51.26953125,1.0,1.0,1.0,1.0,5.m4v,6.0
2024-02-27 15:49:25.659752,1709045365.6597524,-87.40234375,-32.71484375,-29.78515625,-55.6640625,1.0,1.0,1.0,1.0,5.m4v,6.0
2024-02-27 15:49:25.663658,1709045365.6636577,-45.8984375,-37.109375,-27.83203125,-52.734375,1.0,1.0,1.0,1.0,5.m4v,6.0
2024-02-27 15:49:25.667571,1709045365.667571,-20.01953125,-39.0625,-31.25,-52.734375,1.0,1.0,1.0,1.0,5.m4v,6.0
2024-02-27 15:49:25.671476,1709045365.6714764,-32.71484375,-34.66796875,-32.2265625,-56.15234375,1.0,1.0,1.0,1.0,5.m4v,6.0
2024-02-27 15:49:25.675382,1709045365.6753817,-60.05859375,-34.66796875,-29.78515625,-55.17578125,1.0,1.0,1.0,1.0,5.m4v,6.0
2024-02-27 15:49:25.679287,1709045365.6792872,-73.2421875,-36.62109375,-32.2265625,-49.8046875,1.0,1.0,1.0,1.0,5.m4v,6.0
2024-02-27 15:49:25.683192,1709045365.6831925,-39.0625,-33.69140625,-33.69140625,-43.45703125,1.0,1.0,1.0,1.0,5.m4v,6.0
2024-02-27 15:49:25.687098,1709045365.6870978,-21.97265625,-33.203125,-34.1796875,-47.8515625,1.0,1.0,1.0,1.0,5.m4v,6.0
2024-02-27 15:49:25.691003,1709045365.691003,-32.71484375,-28.3203125,-35.64453125,-46.875,1.0,1.0,1.0,1.0,5.m4v,6.0
2024-02-27 15:49:25.694909,1709045365.6949086,-51.26953125,-33.203125,-34.66796875,-42.96875,1.0,1.0,1.0,1.0,5.m4v,6.0
2024-02-27 15:49:25.698814,1709045365.698814,-53.22265625,-40.52734375,-30.76171875,-37.109375,1.0,1.0,1.0,1.0,5.m4v,6.0
2024-02-27 15:49:25.702719,1709045365.7027192,-20.99609375,-32.2265625,-29.78515625,-26.3671875,1.0,1.0,1.0,1.0,5.m4v,6.0
2024-02-27 15:49:25.706625,1709045365.7066247,-9.765625,-26.3671875,-24.90234375,-28.80859375,1.0,1.0,1.0,1.0,5.m4v,6.0
2024-02-27 15:49:25.710530,1709045365.71053,-23.92578125,-31.73828125,-28.3203125,-42.96875,1.0,1.0,1.0,1.0,5.m4v,6.0
2024-02-27 15:49:25.714443,1709045365.7144427,-41.9921875,-34.1796875,-37.109375,-46.38671875,1.0,1.0,1.0,1.0,5.m4v,6.0
2024-02-27 15:49:25.718348,1709045365.718348,-52.24609375,-28.80859375,-36.62109375,-40.0390625,1.0,1.0,1.0,1.0,5.m4v,6.0
2024-02-27 15:49:25.722254,1709045365.7222536,-36.1328125,-25.390625,-36.62109375,-36.1328125,1.0,1.0,1.0,1.0,5.m4v,6.0
2024-02-27 15:49:25.726159,1709045365.7261589,-18.06640625,-31.73828125,-32.71484375,-41.50390625,1.0,1.0,1.0,1.0,5.m4v,6.0
2024-02-27 15:49:25.730064,1709045365.7300642,-26.85546875,-37.59765625,-36.1328125,-46.38671875,1.0,1.0,1.0,1.0,5.m4v,6.0
2024-02-27 15:49:25.733970,1709045365.7339697,-35.64453125,-38.57421875,-40.52734375,-47.36328125,1.0,1.0,1.0,1.0,5.m4v,6.0
2024-02-27 15:49:25.737875,1709045365.737875,-49.8046875,-39.55078125,-40.52734375,-51.26953125,1.0,1.0,1.0,1.0,5.m4v,6.0
2024-02-27 15:49:25.741780,1709045365.7417803,-40.52734375,-38.0859375,-43.9453125,-46.875,1.0,1.0,1.0,1.0,5.m4v,6.0
2024-02-27 15:49:25.745686,1709045365.7456858,-21.484375,-36.62109375,-45.41015625,-46.875,1.0,1.0,1.0,1.0,5.m4v,6.0
2024-02-27 15:49:25.749591,1709045365.749591,-20.99609375,-36.62109375,-44.43359375,-47.36328125,1.0,1.0,1.0,1.0,5.m4v,6.0
2024-02-27 15:49:25.753496,1709045365.7534964,-41.50390625,-33.203125,-38.57421875,-55.6640625,1.0,1.0,1.0,1.0,5.m4v,6.0
2024-02-27 15:49:25.757402,1709045365.757402,-69.3359375,-35.64453125,-39.55078125,-54.19921875,1.0,1.0,1.0,1.0,5.m4v,6.0
2024-02-27 15:49:25.761314,1709045365.7613142,-59.5703125,-38.57421875,-46.875,-43.9453125,1.0,1.0,1.0,1.0,5.m4v,6.0
2024-02-27 15:49:25.765219,1709045365.7652194,-15.13671875,-33.203125,-41.50390625,-48.33984375,1.0,1.0,1.0,1.0,5.m4v,6.0
2024-02-27 15:49:25.769125,1709045365.7691247,10.25390625,-31.25,-33.203125,-53.7109375,1.0,1.0,1.0,1.0,5.m4v,6.0
2024-02-27 15:49:25.773030,1709045365.7730303,-28.80859375,-37.109375,-40.0390625,-58.59375,1.0,1.0,1.0,1.0,5.m4v,6.0
2024-02-27 15:49:25.776936,1709045365.7769356,-67.3828125,-37.109375,-38.57421875,-54.6875,1.0,1.0,1.0,1.0,5.m4v,6.0
2024-02-27 15:49:25.780841,1709045365.7808409,-37.59765625,-32.71484375,-39.0625,-43.45703125,1.0,1.0,1.0,1.0,5.m4v,6.0
2024-02-27 15:49:25.784746,1709045365.7847464,-15.13671875,-38.0859375,-44.43359375,-50.29296875,1.0,1.0,1.0,1.0,5.m4v,6.0
2024-02-27 15:49:25.788652,1709045365.7886517,-27.83203125,-39.55078125,-36.62109375,-55.17578125,1.0,1.0,1.0,1.0,5.m4v,6.0
2024-02-27 15:49:25.792557,1709045365.792557,-35.64453125,-28.3203125,-32.2265625,-57.6171875,1.0,1.0,1.0,1.0,5.m4v,6.0
2024-02-27 15:49:25.796463,1709045365.7964623,-52.734375,-22.94921875,-34.66796875,-57.6171875,1.0,1.0,1.0,1.0,5.m4v,6.0
2024-02-27 15:49:25.800368,1709045365.8003678,-49.31640625,-27.83203125,-39.0625,-44.921875,1.0,1.0,1.0,1.0,5.m4v,6.0
2024-02-27 15:49:25.804273,1709045365.8042731,-23.92578125,-30.76171875,-35.15625,-43.9453125,1.0,1.0,1.0,1.0,5.m4v,6.0
2024-02-27 15:49:25.808189,1709045365.8081894,-34.66796875,-28.80859375,-26.85546875,-50.78125,1.0,1.0,1.0,1.0,5.m4v,6.0
2024-02-27 15:49:25.812095,1709045365.8120947,-53.7109375,-25.87890625,-27.34375,-47.8515625,1.0,1.0,1.0,1.0,5.m4v,6.0
2024-02-27 15:49:25.816000,1709045365.816,-58.59375,-30.2734375,-37.109375,-51.26953125,1.0,1.0,1.0,1.0,5.m4v,6.0
2024-02-27 15:49:25.819906,1709045365.8199055,-47.36328125,-33.69140625,-43.45703125,-49.31640625,1.0,1.0,1.0,1.0,5.m4v,6.0
2024-02-27 15:49:25.823811,1709045365.8238108,-18.5546875,-25.87890625,-37.109375,-36.1328125,1.0,1.0,1.0,1.0,5.m4v,6.0
2024-02-27 15:49:25.827716,1709045365.827716,-0.48828125,-24.90234375,-33.203125,-32.71484375,1.0,1.0,1.0,1.0,5.m4v,6.0
2024-02-27 15:49:25.831622,1709045365.8316216,-12.6953125,-29.78515625,-35.64453125,-41.015625,1.0,1.0,1.0,1.0,5.m4v,6.0
2024-02-27 15:49:25.835527,1709045365.835527,-61.03515625,-31.73828125,-37.59765625,-58.10546875,1.0,1.0,1.0,1.0,5.m4v,6.0
2024-02-27 15:49:25.839432,1709045365.8394322,-83.984375,-38.0859375,-35.64453125,-56.15234375,1.0,1.0,1.0,1.0,5.m4v,6.0
2024-02-27 15:49:25.843338,1709045365.8433378,-41.50390625,-36.1328125,-32.71484375,-46.875,1.0,1.0,1.0,1.0,5.m4v,6.0
2024-02-27 15:49:25.847243,1709045365.847243,-14.6484375,-34.1796875,-31.73828125,-53.22265625,1.0,1.0,1.0,1.0,5.m4v,6.0
2024-02-27 15:49:25.851148,1709045365.8511484,-37.59765625,-32.71484375,-35.64453125,-59.5703125,1.0,1.0,1.0,1.0,5.m4v,6.0
2024-02-27 15:49:25.855059,1709045365.8550594,-60.05859375,-30.76171875,-40.0390625,-64.453125,1.0,1.0,1.0,1.0,5.m4v,6.0
2024-02-27 15:49:25.858965,1709045365.8589647,-62.5,-35.15625,-38.0859375,-62.5,1.0,1.0,1.0,1.0,5.m4v,6.0
2024-02-27 15:49:25.862870,1709045365.8628702,-18.5546875,-31.73828125,-30.76171875,-46.875,1.0,1.0,1.0,1.0,5.m4v,6.0
2024-02-27 15:49:25.866776,1709045365.8667755,5.37109375,-24.90234375,-34.1796875,-43.45703125,1.0,1.0,1.0,1.0,5.m4v,6.0
2024-02-27 15:49:25.870681,1709045365.8706808,-18.5546875,-24.90234375,-37.109375,-41.015625,1.0,1.0,1.0,1.0,5.m4v,6.0
2024-02-27 15:49:25.874586,1709045365.8745863,-41.50390625,-23.4375,-33.203125,-36.62109375,1.0,1.0,1.0,1.0,5.m4v,6.0
2024-02-27 15:49:26.323789,1709045366.323789,-20.01953125,-36.62109375,-33.69140625,-30.2734375,1.0,1.0,1.0,1.0,5.m4v,6.0
2024-02-27 15:49:26.327694,1709045366.3276944,-13.671875,-32.2265625,-35.64453125,-33.69140625,1.0,1.0,1.0,1.0,5.m4v,6.0
2024-02-27 15:49:26.331600,1709045366.3315997,-33.69140625,-32.2265625,-30.76171875,-38.57421875,1.0,1.0,1.0,1.0,5.m4v,6.0
2024-02-27 15:49:26.335505,1709045366.335505,-52.24609375,-33.203125,-28.3203125,-35.15625,1.0,1.0,1.0,1.0,5.m4v,6.0
2024-02-27 15:49:26.339411,1709045366.3394103,-61.5234375,-36.62109375,-34.1796875,-28.80859375,1.0,1.0,1.0,1.0,5.m4v,6.0
2024-02-27 15:49:26.343316,1709045366.3433158,-44.921875,-41.50390625,-32.2265625,-28.80859375,1.0,1.0,1.0,1.0,5.m4v,6.0
2024-02-27 15:49:26.347221,1709045366.3472211,-20.5078125,-37.109375,-28.80859375,-31.25,1.0,1.0,1.0,1.0,5.m4v,6.0
2024-02-27 15:49:26.351127,1709045366.351127,-26.3671875,-30.76171875,-29.78515625,-33.203125,1.0,1.0,1.0,1.0,5.m4v,6.0
2024-02-27 15:49:26.355032,1709045366.355032,-61.5234375,-35.15625,-25.390625,-39.0625,1.0,1.0,1.0,1.0,5.m4v,6.0
2024-02-27 15:49:26.358937,1709045366.3589373,-76.171875,-38.0859375,-27.83203125,-37.109375,1.0,1.0,1.0,1.0,5.m4v,6.0
2024-02-27 15:49:26.362843,1709045366.3628428,-48.828125,-40.52734375,-31.25,-30.2734375,1.0,1.0,1.0,1.0,5.m4v,6.0
2024-02-27 15:49:26.366748,1709045366.366748,-25.87890625,-41.9921875,-28.80859375,-34.1796875,1.0,1.0,1.0,1.0,5.m4v,6.0
2024-02-27 15:49:26.370662,1709045366.370662,-28.80859375,-37.59765625,-26.85546875,-41.50390625,1.0,1.0,1.0,1.0,5.m4v,6.0
2024-02-27 15:49:26.374567,1709045366.3745673,-58.59375,-37.59765625,-28.3203125,-47.8515625,1.0,1.0,1.0,1.0,5.m4v,6.0
2024-02-27 15:49:26.378473,1709045366.3784728,-82.03125,-37.109375,-38.57421875,-46.38671875,1.0,1.0,1.0,1.0,5.m4v,6.0
2024-02-27 15:49:26.382378,1709045366.382378,-59.5703125,-37.59765625,-42.96875,-38.57421875,1.0,1.0,1.0,1.0,5.m4v,6.0
2024-02-27 15:49:26.386283,1709045366.3862834,-18.5546875,-35.15625,-32.71484375,-32.2265625,1.0,1.0,1.0,1.0,5.m4v,6.0
2024-02-27 15:49:26.390189,1709045366.390189,-12.6953125,-31.25,-26.3671875,-33.69140625,1.0,1.0,1.0,1.0,5.m4v,6.0
2024-02-27 15:49:26.394094,1709045366.3940942,-40.52734375,-36.1328125,-34.1796875,-40.52734375,1.0,1.0,1.0,1.0,5.m4v,6.0
2024-02-27 15:49:26.398000,1709045366.3979995,-64.94140625,-38.0859375,-44.43359375,-45.8984375,1.0,1.0,1.0,1.0,5.m4v,6.0
2024-02-27 15:49:26.401905,1709045366.401905,-34.66796875,-33.69140625,-41.9921875,-37.59765625,1.0,1.0,1.0,1.0,5.m4v,6.0
2024-02-27 15:49:26.405810,1709045366.4058104,-0.9765625,-27.34375,-33.203125,-38.57421875,1.0,1.0,1.0,1.0,5.m4v,6.0
2024-02-27 15:49:26.409716,1709045366.4097157,-9.27734375,-23.4375,-28.80859375,-45.41015625,1.0,1.0,1.0,1.0,5.m4v,6.0
2024-02-27 15:49:26.413621,1709045366.4136212,-34.66796875,-28.80859375,-36.62109375,-48.33984375,1.0,1.0,1.0,1.0,5.m4v,6.0
2024-02-27 15:49:26.417534,1709045366.4175344,-50.29296875,-29.296875,-37.109375,-42.96875,1.0,1.0,1.0,1.0,5.m4v,6.0
2024-02-27 15:49:26.421440,1709045366.42144,-26.85546875,-23.4375,-28.80859375,-30.76171875,1.0,1.0,1.0,1.0,5.m4v,6.0
2024-02-27 15:49:26.425345,1709045366.4253452,-8.7890625,-25.87890625,-33.69140625,-33.203125,1.0,1.0,1.0,1.0,5.m4v,6.0
2024-02-27 15:49:26.429250,1709045366.4292505,-18.06640625,-32.71484375,-37.109375,-41.015625,1.0,1.0,1.0,1.0,5.m4v,6.0
2024-02-27 15:49:26.433156,1709045366.433156,-52.24609375,-38.0859375,-36.1328125,-43.45703125,1.0,1.0,1.0,1.0,5.m4v,6.0
2024-02-27 15:49:26.437061,1709045366.4370613,-75.1953125,-32.71484375,-36.1328125,-35.15625,1.0,1.0,1.0,1.0,5.m4v,6.0
2024-02-27 15:49:26.440967,1709045366.4409666,-41.50390625,-28.80859375,-35.64453125,-30.2734375,1.0,1.0,1.0,1.0,5.m4v,6.0
2024-02-27 15:49:26.444872,1709045366.444872,-14.6484375,-30.76171875,-36.1328125,-31.73828125,1.0,1.0,1.0,1.0,5.m4v,6.0
2024-02-27 15:49:26.448777,1709045366.4487774,-15.625,-32.71484375,-32.2265625,-36.1328125,1.0,1.0,1.0,1.0,5.m4v,6.0
2024-02-27 15:49:26.452683,1709045366.4526827,-33.69140625,-33.69140625,-32.71484375,-45.8984375,1.0,1.0,1.0,1.0,5.m4v,6.0
2024-02-27 15:49:26.456588,1709045366.456588,-51.7578125,-31.25,-40.52734375,-47.8515625,1.0,1.0,1.0,1.0,5.m4v,6.0
2024-02-27 15:49:26.460494,1709045366.4604936,-40.52734375,-34.66796875,-37.59765625,-36.62109375,1.0,1.0,1.0,1.0,5.m4v,6.0
2024-02-27 15:49:26.464406,1709045366.464406,-20.5078125,-41.9921875,-34.66796875,-38.57421875,1.0,1.0,1.0,1.0,5.m4v,6.0
2024-02-27 15:49:26.468311,1709045366.4683113,-4.8828125,-35.15625,-40.52734375,-40.0390625,1.0,1.0,1.0,1.0,5.m4v,6.0
2024-02-27 15:49:26.472217,1709045366.4722166,-17.578125,-35.15625,-39.55078125,-44.43359375,1.0,1.0,1.0,1.0,5.m4v,6.0
2024-02-27 15:49:26.476122,1709045366.476122,-54.19921875,-34.1796875,-36.1328125,-45.8984375,1.0,1.0,1.0,1.0,5.m4v,6.0
2024-02-27 15:49:26.480027,1709045366.4800274,-40.0390625,-29.78515625,-38.57421875,-33.69140625,1.0,1.0,1.0,1.0,5.m4v,6.0
2024-02-27 15:49:26.483933,1709045366.4839327,2.44140625,-33.203125,-34.1796875,-31.25,1.0,1.0,1.0,1.0,5.m4v,6.0
2024-02-27 15:49:26.487838,1709045366.4878385,8.30078125,-31.25,-34.66796875,-41.50390625,1.0,1.0,1.0,1.0,5.m4v,6.0
2024-02-27 15:49:26.491744,1709045366.4917436,-20.01953125,-40.52734375,-38.0859375,-45.41015625,1.0,1.0,1.0,1.0,5.m4v,6.0
2024-02-27 15:49:26.495649,1709045366.4956489,-65.91796875,-46.38671875,-33.203125,-43.9453125,1.0,1.0,1.0,1.0,5.m4v,6.0
2024-02-27 15:49:26.499554,1709045366.4995544,-66.89453125,-35.15625,-34.1796875,-41.015625,1.0,1.0,1.0,1.0,5.m4v,6.0
2024-02-27 15:49:26.503460,1709045366.5034597,-29.296875,-33.69140625,-36.1328125,-42.96875,1.0,1.0,1.0,1.0,5.m4v,6.0
2024-02-27 15:49:26.507365,1709045366.507365,-12.20703125,-30.76171875,-28.80859375,-40.52734375,1.0,1.0,1.0,1.0,5.m4v,6.0
2024-02-27 15:49:26.511277,1709045366.5112772,-17.08984375,-31.73828125,-26.85546875,-37.109375,1.0,1.0,1.0,1.0,5.m4v,6.0
2024-02-27 15:49:26.515183,1709045366.5151827,-53.7109375,-38.0859375,-34.1796875,-41.015625,1.0,1.0,1.0,1.0,5.m4v,6.0
2024-02-27 15:49:26.519088,1709045366.519088,-68.359375,-34.1796875,-36.62109375,-39.0625,1.0,1.0,1.0,1.0,5.m4v,6.0
2024-02-27 15:49:26.522993,1709045366.522993,-42.96875,-33.69140625,-32.2265625,-37.59765625,1.0,1.0,1.0,1.0,5.m4v,6.0
2024-02-27 15:49:26.526899,1709045366.5268989,-34.66796875,-33.69140625,-32.2265625,-47.8515625,1.0,1.0,1.0,1.0,5.m4v,6.0
2024-02-27 15:49:26.530804,1709045366.5308042,-35.15625,-24.90234375,-28.80859375,-47.36328125,1.0,1.0,1.0,1.0,5.m4v,6.0
2024-02-27 15:49:26.534709,1709045366.5347097,-62.98828125,-21.97265625,-30.2734375,-44.921875,1.0,1.0,1.0,1.0,5.m4v,6.0
2024-02-27 15:49:26.538615,1709045366.538615,-79.1015625,-33.203125,-33.69140625,-47.36328125,1.0,1.0,1.0,1.0,5.m4v,6.0
2024-02-27 15:49:26.542520,1709045366.5425203,-52.24609375,-31.73828125,-28.80859375,-40.52734375,1.0,1.0,1.0,1.0,5.m4v,6.0
2024-02-27 15:49:26.546426,1709045366.5464256,-41.9921875,-31.25,-32.2265625,-41.9921875,1.0,1.0,1.0,1.0,5.m4v,6.0
2024-02-27 15:49:26.550331,1709045366.550331,-37.59765625,-29.78515625,-35.15625,-43.9453125,1.0,1.0,1.0,1.0,5.m4v,6.0
2024-02-27 15:49:26.554236,1709045366.5542364,-50.78125,-28.3203125,-36.62109375,-51.26953125,1.0,1.0,1.0,1.0,5.m4v,6.0
2024-02-27 15:49:26.558148,1709045366.558148,-64.94140625,-35.15625,-34.66796875,-47.36328125,1.0,1.0,1.0,1.0,5.m4v,6.0
2024-02-27 15:49:26.562054,1709045366.5620537,-34.1796875,-26.85546875,-23.92578125,-39.55078125,1.0,1.0,1.0,1.0,5.m4v,6.0
2024-02-27 15:49:26.565959,1709045366.565959,-10.25390625,-24.90234375,-23.4375,-44.921875,1.0,1.0,1.0,1.0,5.m4v,6.0
2024-02-27 15:49:26.569864,1709045366.5698645,-16.11328125,-32.2265625,-34.66796875,-45.41015625,1.0,1.0,1.0,1.0,5.m4v,6.0
2024-02-27 15:49:26.573770,1709045366.5737698,-34.1796875,-29.296875,-41.9921875,-48.33984375,1.0,1.0,1.0,1.0,5.m4v,6.0
2024-02-27 15:49:26.577675,1709045366.577675,-53.7109375,-27.34375,-40.52734375,-50.78125,1.0,1.0,1.0,1.0,5.m4v,6.0
2024-02-27 15:49:26.581580,1709045366.5815804,-47.8515625,-29.296875,-33.203125,-40.52734375,1.0,1.0,1.0,1.0,5.m4v,6.0
2024-02-27 15:49:26.585486,1709045366.585486,-25.87890625,-32.71484375,-36.62109375,-44.921875,1.0,1.0,1.0,1.0,5.m4v,6.0
2024-02-27 15:49:26.589391,1709045366.5893912,-14.6484375,-33.203125,-41.015625,-55.6640625,1.0,1.0,1.0,1.0,5.m4v,6.0
2024-02-27 15:49:26.593297,1709045366.5932963,-35.64453125,-38.57421875,-40.52734375,-56.640625,1.0,1.0,1.0,1.0,5.m4v,6.0
2024-02-27 15:49:26.597202,1709045366.597202,-61.5234375,-40.52734375,-40.52734375,-51.26953125,1.0,1.0,1.0,1.0,5.m4v,6.0
2024-02-27 15:49:26.601107,1709045366.6011074,-53.7109375,-35.64453125,-39.0625,-40.52734375,1.0,1.0,1.0,1.0,5.m4v,6.0
2024-02-27 15:49:26.605023,1709045366.6050234,-28.3203125,-33.203125,-32.2265625,-40.52734375,1.0,1.0,1.0,1.0,5.m4v,6.0
2024-02-27 15:49:26.608929,1709045366.608929,-8.7890625,-29.296875,-26.85546875,-44.43359375,1.0,1.0,1.0,1.0,5.m4v,6.0
2024-02-27 15:49:26.612834,1709045366.6128342,-12.20703125,-29.78515625,-27.83203125,-40.0390625,1.0,1.0,1.0,1.0,5.m4v,6.0
2024-02-27 15:49:26.616740,1709045366.6167395,-37.109375,-30.2734375,-32.2265625,-32.2265625,1.0,1.0,1.0,1.0,5.m4v,6.0
2024-02-27 15:49:26.620645,1709045366.620645,-25.87890625,-22.94921875,-33.69140625,-29.78515625,1.0,1.0,1.0,1.0,5.m4v,6.0
2024-02-27 15:49:26.624550,1709045366.6245503,-13.671875,-28.3203125,-37.59765625,-28.80859375,1.0,1.0,1.0,1.0,5.m4v,6.0
2024-02-27 15:49:26.628456,1709045366.6284556,-35.64453125,-40.0390625,-37.109375,-37.109375,1.0,1.0,1.0,1.0,5.m4v,6.0
2024-02-27 15:49:26.632361,1709045366.6323612,-45.8984375,-32.71484375,-36.1328125,-45.8984375,1.0,1.0,1.0,1.0,5.m4v,6.0
2024-02-27 15:49:26.636266,1709045366.6362665,-62.5,-25.390625,-41.015625,-46.38671875,1.0,1.0,1.0,1.0,5.m4v,6.0
2024-02-27 15:49:26.640172,1709045366.6401718,-55.17578125,-25.390625,-36.62109375,-40.52734375,1.0,1.0,1.0,1.0,5.m4v,6.0
2024-02-27 15:49:26.644077,1709045366.6440773,-28.80859375,-31.25,-36.1328125,-34.1796875,1.0,1.0,1.0,1.0,5.m4v,6.0
2024-02-27 15:49:26.647983,1709045366.6479826,-27.34375,-36.62109375,-35.64453125,-39.0625,1.0,1.0,1.0,1.0,5.m4v,6.0
2024-02-27 15:49:26.651898,1709045366.6518977,-39.0625,-35.64453125,-30.2734375,-41.9921875,1.0,1.0,1.0,1.0,5.m4v,6.0
2024-02-27 15:49:26.655803,1709045366.655803,-63.4765625,-32.71484375,-26.3671875,-34.66796875,1.0,1.0,1.0,1.0,5.m4v,6.0
2024-02-27 15:49:26.659708,1709045366.6597085,-76.66015625,-28.3203125,-24.4140625,-35.64453125,1.0,1.0,1.0,1.0,5.m4v,6.0
2024-02-27 15:49:26.663614,1709045366.6636138,-49.8046875,-28.3203125,-26.3671875,-32.71484375,1.0,1.0,1.0,1.0,5.m4v,6.0
2024-02-27 15:49:26.667519,1709045366.667519,-26.85546875,-33.69140625,-32.2265625,-30.76171875,1.0,1.0,1.0,1.0,5.m4v,6.0
2024-02-27 15:49:26.671424,1709045366.6714244,-34.1796875,-37.109375,-37.59765625,-39.0625,1.0,1.0,1.0,1.0,5.m4v,6.0
2024-02-27 15:49:26.675330,1709045366.67533,-56.15234375,-36.62109375,-35.64453125,-41.50390625,1.0,1.0,1.0,1.0,5.m4v,6.0
2024-02-27 15:49:26.679235,1709045366.6792352,-66.89453125,-36.62109375,-33.203125,-41.50390625,1.0,1.0,1.0,1.0,5.m4v,6.0
2024-02-27 15:49:26.683141,1709045366.6831405,-47.36328125,-34.1796875,-31.73828125,-36.62109375,1.0,1.0,1.0,1.0,5.m4v,6.0
2024-02-27 15:49:26.687046,1709045366.687046,-26.85546875,-28.3203125,-25.87890625,-32.2265625,1.0,1.0,1.0,1.0,5.m4v,6.0
2024-02-27 15:49:26.690951,1709045366.690951,-34.1796875,-26.3671875,-26.85546875,-37.59765625,1.0,1.0,1.0,1.0,5.m4v,6.0
2024-02-27 15:49:26.694857,1709045366.6948566,-62.5,-29.78515625,-28.3203125,-44.921875,1.0,1.0,1.0,1.0,5.m4v,6.0
2024-02-27 15:49:26.698771,1709045366.6987712,-75.68359375,-36.62109375,-30.2734375,-43.9453125,1.0,1.0,1.0,1.0,5.m4v,6.0
2024-02-27 15:49:26.702677,1709045366.7026763,-44.921875,-35.64453125,-28.80859375,-33.203125,1.0,1.0,1.0,1.0,5.m4v,6.0
2024-02-27 15:49:26.706582,1709045366.7065818,-17.578125,-32.2265625,-22.4609375,-31.25,1.0,1.0,1.0,1.0,5.m4v,6.0
2024-02-27 15:49:26.710487,1709045366.7104874,-19.04296875,-33.203125,-31.73828125,-40.0390625,1.0,1.0,1.0,1.0,5.m4v,6.0
2024-02-27 15:49:26.714393,1709045366.714393,-41.9921875,-34.66796875,-32.71484375,-42.48046875,1.0,1.0,1.0,1.0,5.m4v,6.0
2024-02-27 15:49:26.718298,1709045366.718298,-64.94140625,-36.1328125,-28.3203125,-42.96875,1.0,1.0,1.0,1.0,5.m4v,6.0
2024-02-27 15:49:26.722203,1709045366.7222035,-53.7109375,-38.0859375,-31.73828125,-42.96875,1.0,1.0,1.0,1.0,5.m4v,6.0
2024-02-27 15:49:26.726109,1709045366.7261088,-24.4140625,-33.203125,-29.78515625,-33.203125,1.0,1.0,1.0,1.0,5.m4v,6.0
2024-02-27 15:49:26.730014,1709045366.730014,-17.578125,-27.83203125,-31.73828125,-37.59765625,1.0,1.0,1.0,1.0,5.m4v,6.0
2024-02-27 15:49:26.733920,1709045366.7339196,-47.8515625,-36.62109375,-36.1328125,-48.828125,1.0,1.0,1.0,1.0,5.m4v,6.0
2024-02-27 15:49:26.737825,1709045366.737825,-71.77734375,-39.0625,-34.66796875,-50.29296875,1.0,1.0,1.0,1.0,5.m4v,6.0
2024-02-27 15:49:26.741730,1709045366.7417302,-46.38671875,-31.73828125,-24.90234375,-41.015625,1.0,1.0,1.0,1.0,5.m4v,6.0
2024-02-27 15:49:26.745644,1709045366.7456443,-21.484375,-26.3671875,-16.6015625,-37.59765625,1.0,1.0,1.0,1.0,5.m4v,6.0
2024-02-27 15:49:26.749550,1709045366.7495496,-31.25,-35.64453125,-28.80859375,-51.26953125,1.0,1.0,1.0,1.0,5.m4v,6.0
2024-02-27 15:49:26.753455,1709045366.753455,-52.734375,-38.0859375,-33.69140625,-58.59375,1.0,1.0,1.0,1.0,5.m4v,6.0
2024-02-27 15:49:26.757360,1709045366.7573605,-73.2421875,-36.62109375,-32.2265625,-58.59375,1.0,1.0,1.0,1.0,5.m4v,6.0
2024-02-27 15:49:26.761266,1709045366.7612658,-60.546875,-41.015625,-34.66796875,-58.10546875,1.0,1.0,1.0,1.0,5.m4v,6.0
2024-02-27 15:49:26.765171,1709045366.765171,-13.671875,-30.2734375,-28.80859375,-52.24609375,1.0,1.0,1.0,1.0,5.m4v,6.0
2024-02-27 15:49:26.769077,1709045366.7690766,-10.25390625,-28.80859375,-27.83203125,-55.17578125,1.0,1.0,1.0,1.0,5.m4v,6.0
2024-02-27 15:49:26.772982,1709045366.772982,-44.921875,-40.0390625,-42.48046875,-68.84765625,1.0,1.0,1.0,1.0,5.m4v,6.0
2024-02-27 15:49:26.776887,1709045366.7768872,-70.3125,-38.0859375,-46.875,-68.359375,1.0,1.0,1.0,1.0,5.m4v,6.0
2024-02-27 15:49:26.780793,1709045366.7807927,-68.359375,-26.85546875,-48.33984375,-60.546875,1.0,1.0,1.0,1.0,5.m4v,6.0
2024-02-27 15:49:26.784698,1709045366.784698,-28.80859375,-26.3671875,-43.9453125,-57.6171875,1.0,1.0,1.0,1.0,5.m4v,6.0
2024-02-27 15:49:26.788603,1709045366.7886033,-6.8359375,-38.57421875,-27.34375,-63.4765625,1.0,1.0,1.0,1.0,5.m4v,6.0
2024-02-27 15:49:26.792517,1709045366.792517,-26.3671875,-47.36328125,-26.85546875,-58.10546875,1.0,1.0,1.0,1.0,5.m4v,6.0
2024-02-27 15:49:26.796422,1709045366.7964222,-65.4296875,-48.33984375,-34.66796875,-54.6875,1.0,1.0,1.0,1.0,5.m4v,6.0
2024-02-27 15:49:26.800328,1709045366.8003275,-61.03515625,-44.921875,-32.2265625,-49.8046875,1.0,1.0,1.0,1.0,5.m4v,6.0
2024-02-27 15:49:26.804233,1709045366.804233,-20.01953125,-38.0859375,-30.2734375,-38.57421875,1.0,1.0,1.0,1.0,5.m4v,6.0
2024-02-27 15:49:26.808138,1709045366.8081384,-14.16015625,-31.25,-30.2734375,-40.0390625,1.0,1.0,1.0,1.0,5.m4v,6.0
2024-02-27 15:49:26.812044,1709045366.8120437,-33.69140625,-37.59765625,-30.2734375,-47.8515625,1.0,1.0,1.0,1.0,5.m4v,6.0
2024-02-27 15:49:26.815949,1709045366.8159492,-52.24609375,-42.96875,-38.57421875,-51.26953125,1.0,1.0,1.0,1.0,5.m4v,6.0
2024-02-27 15:49:26.819854,1709045366.8198545,-61.5234375,-40.52734375,-41.015625,-45.41015625,1.0,1.0,1.0,1.0,5.m4v,6.0
2024-02-27 15:49:26.823760,1709045366.8237598,-36.1328125,-32.71484375,-36.62109375,-39.55078125,1.0,1.0,1.0,1.0,5.m4v,6.0
2024-02-27 15:49:26.827665,1709045366.827665,-23.92578125,-33.69140625,-29.78515625,-49.31640625,1.0,1.0,1.0,1.0,5.m4v,6.0
2024-02-27 15:49:26.831571,1709045366.8315706,-37.109375,-38.0859375,-31.25,-54.19921875,1.0,1.0,1.0,1.0,5.m4v,6.0
2024-02-27 15:49:26.835476,1709045366.835476,-71.2890625,-40.52734375,-30.76171875,-53.22265625,1.0,1.0,1.0,1.0,5.m4v,6.0
2024-02-27 15:49:26.839389,1709045366.8393888,-75.68359375,-38.0859375,-27.34375,-48.828125,1.0,1.0,1.0,1.0,5.m4v,6.0
2024-02-27 15:49:26.843294,1709045366.843294,-36.62109375,-34.66796875,-32.71484375,-50.78125,1.0,1.0,1.0,1.0,5.m4v,6.0
2024-02-27 15:49:26.847199,1709045366.8471994,-17.08984375,-34.1796875,-36.62109375,-60.546875,1.0,1.0,1.0,1.0,5.m4v,6.0
2024-02-27 15:49:26.851105,1709045366.851105,-20.5078125,-34.66796875,-34.66796875,-61.03515625,1.0,1.0,1.0,1.0,5.m4v,6.0
2024-02-27 15:49:26.855010,1709045366.8550105,-55.17578125,-34.66796875,-35.15625,-60.546875,1.0,1.0,1.0,1.0,5.m4v,6.0
2024-02-27 15:49:26.858916,1709045366.8589156,-62.98828125,-31.25,-35.64453125,-53.22265625,1.0,1.0,1.0,1.0,5.m4v,6.0
2024-02-27 15:49:26.862821,1709045366.862821,-25.390625,-27.83203125,-30.2734375,-44.921875,1.0,1.0,1.0,1.0,5.m4v,6.0
2024-02-27 15:49:26.866726,1709045366.8667264,-8.7890625,-25.87890625,-30.2734375,-41.9921875,1.0,1.0,1.0,1.0,5.m4v,6.0
2024-02-27 15:49:26.870632,1709045366.8706317,-27.34375,-26.85546875,-34.66796875,-48.828125,1.0,1.0,1.0,1.0,5.m4v,6.0
2024-02-27 15:49:26.874537,1709045366.8745372,-49.31640625,-27.83203125,-32.2265625,-47.36328125,1.0,1.0,1.0,1.0,5.m4v,6.0
2024-02-27 15:49:26.878443,1709045366.8784423,-62.5,-33.69140625,-35.64453125,-40.52734375,1.0,1.0,1.0,1.0,5.m4v,6.0
2024-02-27 15:49:26.882348,1709045366.8823478,-38.57421875,-36.1328125,-33.203125,-41.015625,1.0,1.0,1.0,1.0,5.m4v,6.0
2024-02-27 15:49:26.886260,1709045366.88626,-10.25390625,-31.73828125,-27.83203125,-45.8984375,1.0,1.0,1.0,1.0,5.m4v,6.0
2024-02-27 15:49:26.890166,1709045366.8901656,-17.578125,-34.1796875,-33.69140625,-47.8515625,1.0,1.0,1.0,1.0,5.m4v,6.0
2024-02-27 15:49:26.894071,1709045366.8940709,-41.015625,-29.78515625,-33.203125,-47.36328125,1.0,1.0,1.0,1.0,5.m4v,6.0
2024-02-27 15:49:26.897976,1709045366.8979762,-54.19921875,-28.3203125,-27.83203125,-42.48046875,1.0,1.0,1.0,1.0,5.m4v,6.0
2024-02-27 15:49:26.901882,1709045366.9018817,-23.4375,-31.25,-25.390625,-35.15625,1.0,1.0,1.0,1.0,5.m4v,6.0
2024-02-27 15:49:26.905787,1709045366.905787,7.32421875,-26.3671875,-29.78515625,-37.59765625,1.0,1.0,1.0,1.0,5.m4v,6.0
2024-02-27 15:49:27.308109,1709045367.3081088,-43.45703125,-26.85546875,-29.78515625,-51.7578125,1.0,1.0,1.0,1.0,5.m4v,6.0
2024-02-27 15:49:27.312014,1709045367.312014,-58.10546875,-33.69140625,-34.1796875,-58.59375,1.0,1.0,1.0,1.0,5.m4v,6.0
2024-02-27 15:49:27.315919,1709045367.3159194,-56.640625,-38.57421875,-34.1796875,-55.6640625,1.0,1.0,1.0,1.0,5.m4v,6.0
2024-02-27 15:49:27.319825,1709045367.319825,-48.828125,-30.76171875,-32.2265625,-48.828125,1.0,1.0,1.0,1.0,5.m4v,6.0
2024-02-27 15:49:27.323730,1709045367.3237302,-14.6484375,-30.76171875,-31.73828125,-41.50390625,1.0,1.0,1.0,1.0,5.m4v,6.0
2024-02-27 15:49:27.327636,1709045367.3276355,12.20703125,-31.73828125,-33.203125,-47.36328125,1.0,1.0,1.0,1.0,5.m4v,6.0
2024-02-27 15:49:27.331541,1709045367.331541,3.90625,-30.76171875,-39.55078125,-55.6640625,1.0,1.0,1.0,1.0,5.m4v,6.0
2024-02-27 15:49:27.335446,1709045367.3354464,-30.2734375,-30.76171875,-44.43359375,-53.7109375,1.0,1.0,1.0,1.0,5.m4v,6.0
2024-02-27 15:49:27.339352,1709045367.3393517,-47.8515625,-27.34375,-43.45703125,-45.8984375,1.0,1.0,1.0,1.0,5.m4v,6.0
2024-02-27 15:49:27.343257,1709045367.3432572,-19.04296875,-20.99609375,-40.52734375,-42.96875,1.0,1.0,1.0,1.0,5.m4v,6.0
2024-02-27 15:49:27.347162,1709045367.3471625,5.859375,-21.97265625,-39.0625,-53.22265625,1.0,1.0,1.0,1.0,5.m4v,6.0
2024-02-27 15:49:27.351068,1709045367.3510678,-15.625,-27.34375,-42.48046875,-60.05859375,1.0,1.0,1.0,1.0,5.m4v,6.0
2024-02-27 15:49:27.354979,1709045367.3549788,-60.546875,-31.73828125,-44.43359375,-61.03515625,1.0,1.0,1.0,1.0,5.m4v,6.0
2024-02-27 15:49:27.358884,1709045367.3588843,-59.5703125,-30.2734375,-39.55078125,-56.640625,1.0,1.0,1.0,1.0,5.m4v,6.0
2024-02-27 15:49:27.362790,1709045367.3627896,-23.92578125,-34.66796875,-32.71484375,-54.19921875,1.0,1.0,1.0,1.0,5.m4v,6.0
2024-02-27 15:49:27.366695,1709045367.366695,-12.6953125,-34.66796875,-34.66796875,-56.640625,1.0,1.0,1.0,1.0,5.m4v,6.0
2024-02-27 15:49:27.370600,1709045367.3706005,-26.3671875,-33.203125,-37.59765625,-64.453125,1.0,1.0,1.0,1.0,5.m4v,6.0
2024-02-27 15:49:27.374506,1709045367.3745058,-51.7578125,-35.64453125,-36.62109375,-67.87109375,1.0,1.0,1.0,1.0,5.m4v,6.0
2024-02-27 15:49:27.378411,1709045367.378411,-64.453125,-33.203125,-41.50390625,-62.5,1.0,1.0,1.0,1.0,5.m4v,6.0
2024-02-27 15:49:27.382317,1709045367.3823166,-46.38671875,-34.66796875,-42.48046875,-63.4765625,1.0,1.0,1.0,1.0,5.m4v,6.0
2024-02-27 15:49:27.386222,1709045367.386222,-37.59765625,-42.48046875,-35.15625,-59.5703125,1.0,1.0,1.0,1.0,5.m4v,6.0
2024-02-27 15:49:27.390127,1709045367.3901272,-37.109375,-41.9921875,-34.66796875,-55.17578125,1.0,1.0,1.0,1.0,5.m4v,6.0
2024-02-27 15:49:27.394033,1709045367.3940327,-50.78125,-32.2265625,-34.1796875,-56.640625,1.0,1.0,1.0,1.0,5.m4v,6.0
2024-02-27 15:49:27.397938,1709045367.397938,-74.70703125,-23.4375,-35.64453125,-53.7109375,1.0,1.0,1.0,1.0,5.m4v,6.0
2024-02-27 15:49:27.401853,1709045367.401853,-53.7109375,-29.78515625,-36.1328125,-42.48046875,1.0,1.0,1.0,1.0,5.m4v,6.0
2024-02-27 15:49:27.405758,1709045367.4057584,-18.06640625,-31.73828125,-27.83203125,-38.57421875,1.0,1.0,1.0,1.0,5.m4v,6.0
2024-02-27 15:49:27.409664,1709045367.4096637,-31.73828125,-28.80859375,-30.2734375,-49.31640625,1.0,1.0,1.0,1.0,5.m4v,6.0
2024-02-27 15:49:27.413569,1709045367.4135692,-61.03515625,-27.83203125,-25.87890625,-54.19921875,1.0,1.0,1.0,1.0,5.m4v,6.0
2024-02-27 15:49:27.417475,1709045367.4174745,-69.82421875,-30.2734375,-18.06640625,-52.24609375,1.0,1.0,1.0,1.0,5.m4v,6.0
2024-02-27 15:49:27.421380,1709045367.4213798,-49.31640625,-30.76171875,-22.4609375,-49.31640625,1.0,1.0,1.0,1.0,5.m4v,6.0
2024-02-27 15:49:27.425285,1709045367.425285,-35.15625,-33.69140625,-27.83203125,-45.8984375,1.0,1.0,1.0,1.0,5.m4v,6.0
2024-02-27 15:49:27.429191,1709045367.4291906,-37.109375,-38.57421875,-32.2265625,-53.7109375,1.0,1.0,1.0,1.0,5.m4v,6.0
2024-02-27 15:49:27.433096,1709045367.433096,-41.015625,-30.2734375,-34.66796875,-57.12890625,1.0,1.0,1.0,1.0,5.m4v,6.0
2024-02-27 15:49:27.437001,1709045367.4370017,-59.5703125,-28.3203125,-29.296875,-54.6875,1.0,1.0,1.0,1.0,5.m4v,6.0
2024-02-27 15:49:27.440907,1709045367.4409068,-58.10546875,-37.109375,-26.85546875,-57.12890625,1.0,1.0,1.0,1.0,5.m4v,6.0
2024-02-27 15:49:27.444812,1709045367.444812,-34.66796875,-39.0625,-31.25,-48.33984375,1.0,1.0,1.0,1.0,5.m4v,6.0
2024-02-27 15:49:27.448727,1709045367.448727,-27.34375,-39.0625,-30.76171875,-45.41015625,1.0,1.0,1.0,1.0,5.m4v,6.0
2024-02-27 15:49:27.452632,1709045367.4526322,-37.109375,-39.55078125,-27.34375,-52.734375,1.0,1.0,1.0,1.0,5.m4v,6.0
2024-02-27 15:49:27.456537,1709045367.4565375,-69.82421875,-36.1328125,-25.87890625,-42.96875,1.0,1.0,1.0,1.0,5.m4v,6.0
2024-02-27 15:49:27.460443,1709045367.460443,-77.1484375,-27.83203125,-27.83203125,-33.69140625,1.0,1.0,1.0,1.0,5.m4v,6.0
2024-02-27 15:49:27.464348,1709045367.4643483,-21.484375,-27.83203125,-29.78515625,-38.57421875,1.0,1.0,1.0,1.0,5.m4v,6.0
2024-02-27 15:49:27.468254,1709045367.4682536,7.8125,-31.25,-29.296875,-41.015625,1.0,1.0,1.0,1.0,5.m4v,6.0
2024-02-27 15:49:27.472159,1709045367.4721591,-13.671875,-30.2734375,-27.83203125,-41.50390625,1.0,1.0,1.0,1.0,5.m4v,6.0
2024-02-27 15:49:27.476064,1709045367.4760644,-50.78125,-34.66796875,-29.78515625,-44.921875,1.0,1.0,1.0,1.0,5.m4v,6.0
2024-02-27 15:49:27.479970,1709045367.4799695,-54.19921875,-35.15625,-36.62109375,-43.9453125,1.0,1.0,1.0,1.0,5.m4v,6.0
2024-02-27 15:49:27.483875,1709045367.4838753,-18.06640625,-30.2734375,-38.57421875,-35.64453125,1.0,1.0,1.0,1.0,5.m4v,6.0
2024-02-27 15:49:27.487781,1709045367.4877806,-20.01953125,-32.71484375,-33.203125,-46.875,1.0,1.0,1.0,1.0,5.m4v,6.0
2024-02-27 15:49:27.491686,1709045367.491686,-45.8984375,-32.71484375,-30.2734375,-52.734375,1.0,1.0,1.0,1.0,5.m4v,6.0
2024-02-27 15:49:27.495599,1709045367.4955993,-55.17578125,-29.78515625,-27.34375,-41.015625,1.0,1.0,1.0,1.0,5.m4v,6.0
2024-02-27 15:49:27.499505,1709045367.4995046,-55.6640625,-37.109375,-34.1796875,-44.921875,1.0,1.0,1.0,1.0,5.m4v,6.0
2024-02-27 15:49:27.503410,1709045367.50341,-28.3203125,-39.55078125,-42.48046875,-43.45703125,1.0,1.0,1.0,1.0,5.m4v,6.0
2024-02-27 15:49:27.507315,1709045367.5073154,-5.859375,-32.2265625,-34.1796875,-44.43359375,1.0,1.0,1.0,1.0,5.m4v,6.0
2024-02-27 15:49:27.511221,1709045367.5112207,-12.20703125,-23.92578125,-30.2734375,-50.78125,1.0,1.0,1.0,1.0,5.m4v,6.0
2024-02-27 15:49:27.515126,1709045367.5151262,-41.50390625,-30.2734375,-33.69140625,-51.7578125,1.0,1.0,1.0,1.0,5.m4v,6.0
2024-02-27 15:49:27.519032,1709045367.5190315,-62.98828125,-34.1796875,-32.71484375,-52.734375,1.0,1.0,1.0,1.0,5.m4v,6.0
2024-02-27 15:49:27.522937,1709045367.5229368,-51.26953125,-32.71484375,-32.71484375,-48.33984375,1.0,1.0,1.0,1.0,5.m4v,6.0
2024-02-27 15:49:27.526842,1709045367.5268424,-37.59765625,-35.15625,-33.203125,-51.7578125,1.0,1.0,1.0,1.0,5.m4v,6.0
2024-02-27 15:49:27.530748,1709045367.5307477,-27.34375,-22.4609375,-23.92578125,-47.8515625,1.0,1.0,1.0,1.0,5.m4v,6.0
2024-02-27 15:49:27.534653,1709045367.534653,-59.08203125,-22.94921875,-28.80859375,-48.33984375,1.0,1.0,1.0,1.0,5.m4v,6.0
2024-02-27 15:49:27.538558,1709045367.5385585,-82.03125,-36.62109375,-42.48046875,-49.31640625,1.0,1.0,1.0,1.0,5.m4v,6.0
2024-02-27 15:49:27.542471,1709045367.5424712,-40.0390625,-33.69140625,-38.0859375,-42.48046875,1.0,1.0,1.0,1.0,5.m4v,6.0
2024-02-27 15:49:27.546377,1709045367.5463767,-11.23046875,-26.3671875,-34.1796875,-44.43359375,1.0,1.0,1.0,1.0,5.m4v,6.0
2024-02-27 15:49:27.550282,1709045367.550282,-29.296875,-30.76171875,-36.1328125,-51.7578125,1.0,1.0,1.0,1.0,5.m4v,6.0
2024-02-27 15:49:27.554187,1709045367.5541873,-60.05859375,-34.66796875,-39.0625,-54.6875,1.0,1.0,1.0,1.0,5.m4v,6.0
2024-02-27 15:49:27.558093,1709045367.5580928,-80.56640625,-31.73828125,-39.0625,-50.29296875,1.0,1.0,1.0,1.0,5.m4v,6.0
2024-02-27 15:49:27.561998,1709045367.561998,-49.31640625,-32.2265625,-25.87890625,-41.015625,1.0,1.0,1.0,1.0,5.m4v,6.0
2024-02-27 15:49:27.565903,1709045367.5659034,-14.16015625,-35.15625,-23.4375,-42.96875,1.0,1.0,1.0,1.0,5.m4v,6.0
2024-02-27 15:49:27.569809,1709045367.569809,-24.4140625,-41.015625,-35.15625,-53.7109375,1.0,1.0,1.0,1.0,5.m4v,6.0
2024-02-27 15:49:27.573714,1709045367.5737145,-56.15234375,-31.73828125,-41.015625,-49.8046875,1.0,1.0,1.0,1.0,5.m4v,6.0
2024-02-27 15:49:27.577620,1709045367.5776196,-69.3359375,-21.97265625,-30.2734375,-41.9921875,1.0,1.0,1.0,1.0,5.m4v,6.0
2024-02-27 15:49:27.581525,1709045367.581525,-27.83203125,-30.76171875,-23.92578125,-39.0625,1.0,1.0,1.0,1.0,5.m4v,6.0
2024-02-27 15:49:27.585430,1709045367.5854304,-7.8125,-36.62109375,-35.15625,-44.921875,1.0,1.0,1.0,1.0,5.m4v,6.0
2024-02-27 15:49:27.589343,1709045367.589343,-19.53125,-38.0859375,-40.0390625,-58.10546875,1.0,1.0,1.0,1.0,5.m4v,6.0
2024-02-27 15:49:27.593249,1709045367.5932486,-30.76171875,-30.76171875,-33.69140625,-61.5234375,1.0,1.0,1.0,1.0,5.m4v,6.0
2024-02-27 15:49:27.597154,1709045367.597154,-51.7578125,-30.76171875,-29.296875,-51.26953125,1.0,1.0,1.0,1.0,5.m4v,6.0
2024-02-27 15:49:27.601059,1709045367.6010592,-45.41015625,-37.59765625,-34.66796875,-49.31640625,1.0,1.0,1.0,1.0,5.m4v,6.0
2024-02-27 15:49:27.604965,1709045367.6049647,-18.06640625,-34.66796875,-32.71484375,-53.7109375,1.0,1.0,1.0,1.0,5.m4v,6.0
2024-02-27 15:49:27.608870,1709045367.60887,-7.8125,-33.69140625,-27.34375,-42.96875,1.0,1.0,1.0,1.0,5.m4v,6.0
2024-02-27 15:49:27.612775,1709045367.612775,-32.2265625,-33.203125,-30.2734375,-42.48046875,1.0,1.0,1.0,1.0,5.m4v,6.0
2024-02-27 15:49:27.616681,1709045367.6166809,-58.10546875,-26.3671875,-26.85546875,-45.41015625,1.0,1.0,1.0,1.0,5.m4v,6.0
2024-02-27 15:49:27.620586,1709045367.6205862,-46.875,-33.203125,-29.296875,-38.0859375,1.0,1.0,1.0,1.0,5.m4v,6.0
2024-02-27 15:49:27.624491,1709045367.6244917,-30.76171875,-37.109375,-33.69140625,-44.921875,1.0,1.0,1.0,1.0,5.m4v,6.0
2024-02-27 15:49:27.628397,1709045367.628397,-16.6015625,-33.203125,-31.25,-52.734375,1.0,1.0,1.0,1.0,5.m4v,6.0
2024-02-27 15:49:27.632302,1709045367.6323023,-22.94921875,-35.15625,-28.3203125,-44.43359375,1.0,1.0,1.0,1.0,5.m4v,6.0
2024-02-27 15:49:27.636215,1709045367.6362147,-53.7109375,-34.66796875,-22.94921875,-36.62109375,1.0,1.0,1.0,1.0,5.m4v,6.0
2024-02-27 15:49:27.640120,1709045367.64012,-57.12890625,-32.2265625,-26.3671875,-37.109375,1.0,1.0,1.0,1.0,5.m4v,6.0
2024-02-27 15:49:27.644025,1709045367.644025,-30.2734375,-26.3671875,-36.62109375,-38.0859375,1.0,1.0,1.0,1.0,5.m4v,6.0
2024-02-27 15:49:27.647931,1709045367.6479309,-13.671875,-19.04296875,-33.203125,-38.57421875,1.0,1.0,1.0,1.0,5.m4v,6.0
2024-02-27 15:49:27.651836,1709045367.6518362,-36.1328125,-23.4375,-26.85546875,-47.36328125,1.0,1.0,1.0,1.0,5.m4v,6.0
2024-02-27 15:49:27.655741,1709045367.6557417,-58.59375,-26.3671875,-27.34375,-37.59765625,1.0,1.0,1.0,1.0,5.m4v,6.0
2024-02-27 15:49:27.659647,1709045367.659647,-53.7109375,-32.2265625,-34.1796875,-36.62109375,1.0,1.0,1.0,1.0,5.m4v,6.0
2024-02-27 15:49:27.663552,1709045367.6635523,-30.2734375,-36.62109375,-33.69140625,-40.52734375,1.0,1.0,1.0,1.0,5.m4v,6.0
2024-02-27 15:49:27.667458,1709045367.6674576,-8.30078125,-32.71484375,-29.78515625,-38.0859375,1.0,1.0,1.0,1.0,5.m4v,6.0
2024-02-27 15:49:27.671363,1709045367.671363,-22.94921875,-33.69140625,-34.66796875,-49.31640625,1.0,1.0,1.0,1.0,5.m4v,6.0
2024-02-27 15:49:27.675268,1709045367.6752684,-51.7578125,-37.59765625,-34.1796875,-50.78125,1.0,1.0,1.0,1.0,5.m4v,6.0
2024-02-27 15:49:27.679174,1709045367.6791737,-57.12890625,-33.203125,-27.34375,-41.015625,1.0,1.0,1.0,1.0,5.m4v,6.0
2024-02-27 15:49:27.683085,1709045367.6830854,-14.6484375,-29.78515625,-32.2265625,-43.45703125,1.0,1.0,1.0,1.0,5.m4v,6.0
2024-02-27 15:49:27.686991,1709045367.6869907,10.7421875,-21.484375,-33.69140625,-44.43359375,1.0,1.0,1.0,1.0,5.m4v,6.0
2024-02-27 15:49:27.690896,1709045367.6908965,-1.46484375,-19.04296875,-27.34375,-41.50390625,1.0,1.0,1.0,1.0,5.m4v,6.0
2024-02-27 15:49:27.694802,1709045367.6948016,-30.76171875,-34.1796875,-27.83203125,-47.36328125,1.0,1.0,1.0,1.0,5.m4v,6.0
2024-02-27 15:49:27.698707,1709045367.6987069,-56.15234375,-34.66796875,-27.83203125,-44.921875,1.0,1.0,1.0,1.0,5.m4v,6.0
2024-02-27 15:49:27.702612,1709045367.7026124,-25.87890625,-28.3203125,-26.3671875,-35.15625,1.0,1.0,1.0,1.0,5.m4v,6.0
2024-02-27 15:49:27.706518,1709045367.7065177,-0.9765625,-29.78515625,-28.80859375,-36.1328125,1.0,1.0,1.0,1.0,5.m4v,6.0
2024-02-27 15:49:27.710423,1709045367.710423,-23.4375,-24.4140625,-29.296875,-44.43359375,1.0,1.0,1.0,1.0,5.m4v,6.0
2024-02-27 15:49:27.714329,1709045367.7143283,-42.48046875,-25.390625,-29.78515625,-41.015625,1.0,1.0,1.0,1.0,5.m4v,6.0
2024-02-27 15:49:27.718234,1709045367.7182338,-44.43359375,-29.296875,-29.78515625,-27.83203125,1.0,1.0,1.0,1.0,5.m4v,6.0
2024-02-27 15:49:27.722139,1709045367.7221391,-25.390625,-31.25,-27.83203125,-25.390625,1.0,1.0,1.0,1.0,5.m4v,6.0
2024-02-27 15:49:27.726045,1709045367.726045,-15.13671875,-38.57421875,-25.87890625,-32.2265625,1.0,1.0,1.0,1.0,5.m4v,6.0
2024-02-27 15:49:27.729956,1709045367.7299557,-30.2734375,-34.1796875,-21.97265625,-40.0390625,1.0,1.0,1.0,1.0,5.m4v,6.0
2024-02-27 15:49:27.733861,1709045367.733861,-51.26953125,-31.25,-28.80859375,-42.48046875,1.0,1.0,1.0,1.0,5.m4v,6.0
2024-02-27 15:49:27.737767,1709045367.7377665,-69.82421875,-29.296875,-35.15625,-41.50390625,1.0,1.0,1.0,1.0,5.m4v,6.0
2024-02-27 15:49:27.741672,1709045367.7416718,-45.41015625,-26.3671875,-29.296875,-37.109375,1.0,1.0,1.0,1.0,5.m4v,6.0
2024-02-27 15:49:27.745577,1709045367.745577,-14.6484375,-30.2734375,-22.94921875,-28.80859375,1.0,1.0,1.0,1.0,5.m4v,6.0
2024-02-27 15:49:27.749483,1709045367.7494826,-13.671875,-31.25,-24.4140625,-31.73828125,1.0,1.0,1.0,1.0,5.m4v,6.0
2024-02-27 15:49:27.753388,1709045367.753388,-36.62109375,-28.3203125,-37.109375,-41.015625,1.0,1.0,1.0,1.0,5.m4v,6.0
2024-02-27 15:49:27.757293,1709045367.7572932,-70.3125,-29.78515625,-44.43359375,-43.9453125,1.0,1.0,1.0,1.0,5.m4v,6.0
2024-02-27 15:49:27.761199,1709045367.7611988,-52.24609375,-35.64453125,-40.0390625,-39.0625,1.0,1.0,1.0,1.0,5.m4v,6.0
2024-02-27 15:49:27.765104,1709045367.765104,-15.625,-34.1796875,-32.71484375,-31.25,1.0,1.0,1.0,1.0,5.m4v,6.0
2024-02-27 15:49:27.769009,1709045367.7690094,-18.06640625,-30.2734375,-27.83203125,-31.25,1.0,1.0,1.0,1.0,5.m4v,6.0
2024-02-27 15:49:27.772915,1709045367.772915,-32.2265625,-27.83203125,-27.83203125,-35.15625,1.0,1.0,1.0,1.0,5.m4v,6.0
2024-02-27 15:49:27.776830,1709045367.7768295,-46.38671875,-29.296875,-26.85546875,-33.203125,1.0,1.0,1.0,1.0,5.m4v,6.0
2024-02-27 15:49:27.780735,1709045367.7807353,-50.29296875,-34.66796875,-27.34375,-32.2265625,1.0,1.0,1.0,1.0,5.m4v,6.0
2024-02-27 15:49:27.784641,1709045367.7846406,-40.52734375,-36.1328125,-36.1328125,-32.71484375,1.0,1.0,1.0,1.0,5.m4v,6.0
2024-02-27 15:49:27.788546,1709045367.7885458,-22.94921875,-34.1796875,-39.55078125,-29.296875,1.0,1.0,1.0,1.0,5.m4v,6.0
2024-02-27 15:49:27.792451,1709045367.7924514,-23.92578125,-34.1796875,-37.59765625,-31.25,1.0,1.0,1.0,1.0,5.m4v,6.0
2024-02-27 15:49:27.796357,1709045367.796357,-35.15625,-28.80859375,-37.59765625,-25.390625,1.0,1.0,1.0,1.0,5.m4v,6.0
2024-02-27 15:49:27.800262,1709045367.800262,-38.57421875,-28.80859375,-41.50390625,-19.04296875,1.0,1.0,1.0,1.0,5.m4v,6.0
2024-02-27 15:49:27.804168,1709045367.8041675,-26.85546875,-31.73828125,-45.8984375,-30.2734375,1.0,1.0,1.0,1.0,5.m4v,6.0
2024-02-27 15:49:27.808073,1709045367.8080728,-18.06640625,-33.203125,-41.015625,-36.62109375,1.0,1.0,1.0,1.0,5.m4v,6.0
2024-02-27 15:49:27.811978,1709045367.811978,-25.390625,-35.64453125,-41.50390625,-38.0859375,1.0,1.0,1.0,1.0,5.m4v,6.0
2024-02-27 15:49:27.815884,1709045367.8158836,-56.640625,-37.109375,-40.52734375,-45.8984375,1.0,1.0,1.0,1.0,5.m4v,6.0
2024-02-27 15:49:27.819789,1709045367.819789,-61.03515625,-32.2265625,-35.64453125,-47.36328125,1.0,1.0,1.0,1.0,5.m4v,6.0
2024-02-27 15:49:27.823703,1709045367.8237033,-28.3203125,-31.73828125,-32.71484375,-37.59765625,1.0,1.0,1.0,1.0,5.m4v,6.0
2024-02-27 15:49:27.827609,1709045367.8276086,-24.90234375,-32.71484375,-26.3671875,-40.0390625,1.0,1.0,1.0,1.0,5.m4v,6.0
2024-02-27 15:49:27.831514,1709045367.831514,-33.69140625,-35.64453125,-30.2734375,-46.38671875,1.0,1.0,1.0,1.0,5.m4v,6.0
2024-02-27 15:49:27.835419,1709045367.8354194,-50.29296875,-38.0859375,-31.73828125,-41.9921875,1.0,1.0,1.0,1.0,5.m4v,6.0
2024-02-27 15:49:27.839325,1709045367.8393247,-61.03515625,-32.71484375,-32.2265625,-38.0859375,1.0,1.0,1.0,1.0,5.m4v,6.0
2024-02-27 15:49:27.843230,1709045367.8432302,-28.3203125,-30.2734375,-36.1328125,-39.55078125,1.0,1.0,1.0,1.0,5.m4v,6.0
2024-02-27 15:49:27.847136,1709045367.8471355,-16.11328125,-35.64453125,-33.203125,-42.48046875,1.0,1.0,1.0,1.0,5.m4v,6.0
2024-02-27 15:49:27.851041,1709045367.8510408,-48.828125,-36.1328125,-32.2265625,-46.875,1.0,1.0,1.0,1.0,5.m4v,6.0
2024-02-27 15:49:27.854946,1709045367.8549464,-79.58984375,-34.1796875,-39.55078125,-44.43359375,1.0,1.0,1.0,1.0,5.m4v,6.0
2024-02-27 15:49:27.858852,1709045367.8588517,-72.265625,-37.59765625,-40.52734375,-41.9921875,1.0,1.0,1.0,1.0,5.m4v,6.0
2024-02-27 15:49:27.862757,1709045367.862757,-29.78515625,-38.57421875,-40.0390625,-39.0625,1.0,1.0,1.0,1.0,5.m4v,6.0
2024-02-27 15:49:27.866663,1709045367.8666625,-13.18359375,-34.1796875,-45.8984375,-41.015625,1.0,1.0,1.0,1.0,5.m4v,6.0
2024-02-27 15:49:27.870577,1709045367.8705769,-17.08984375,-32.71484375,-51.7578125,-43.45703125,1.0,1.0,1.0,1.0,5.m4v,6.0
2024-02-27 15:49:27.874482,1709045367.8744822,-37.59765625,-31.25,-42.96875,-41.50390625,1.0,1.0,1.0,1.0,5.m4v,6.0
2024-02-27 15:49:27.878387,1709045367.8783877,-53.7109375,-17.578125,-33.69140625,-40.52734375,1.0,1.0,1.0,1.0,5.m4v,6.0
2024-02-27 15:49:27.882293,1709045367.882293,-17.578125,-20.5078125,-32.71484375,-32.71484375,1.0,1.0,1.0,1.0,5.m4v,6.0
2024-02-27 15:49:27.886198,1709045367.8861983,6.8359375,-31.25,-40.0390625,-31.73828125,1.0,1.0,1.0,1.0,5.m4v,6.0
2024-02-27 15:49:27.890104,1709045367.8901036,-4.39453125,-28.80859375,-47.36328125,-41.50390625,1.0,1.0,1.0,1.0,5.m4v,6.0
2024-02-27 15:49:28.339300,1709045368.3393002,-44.921875,-28.3203125,-31.25,-38.57421875,1.0,1.0,1.0,1.0,5.m4v,6.0
2024-02-27 15:49:28.343205,1709045368.3432057,-5.37109375,-27.83203125,-35.15625,-41.015625,1.0,1.0,1.0,1.0,5.m4v,6.0
2024-02-27 15:49:28.347111,1709045368.347111,11.23046875,-29.296875,-36.1328125,-46.875,1.0,1.0,1.0,1.0,5.m4v,6.0
2024-02-27 15:49:28.351016,1709045368.3510163,-0.9765625,-31.25,-33.69140625,-50.29296875,1.0,1.0,1.0,1.0,5.m4v,6.0
2024-02-27 15:49:28.354922,1709045368.3549216,-30.76171875,-36.62109375,-29.78515625,-49.31640625,1.0,1.0,1.0,1.0,5.m4v,6.0
2024-02-27 15:49:28.358827,1709045368.358827,-41.015625,-29.78515625,-28.3203125,-47.36328125,1.0,1.0,1.0,1.0,5.m4v,6.0
2024-02-27 15:49:28.362732,1709045368.3627324,-13.671875,-33.203125,-30.2734375,-40.52734375,1.0,1.0,1.0,1.0,5.m4v,6.0
2024-02-27 15:49:28.366638,1709045368.366638,-7.32421875,-39.55078125,-31.73828125,-39.55078125,1.0,1.0,1.0,1.0,5.m4v,6.0
2024-02-27 15:49:28.370543,1709045368.3705432,-24.90234375,-37.59765625,-32.2265625,-47.36328125,1.0,1.0,1.0,1.0,5.m4v,6.0
2024-02-27 15:49:28.374449,1709045368.3744483,-49.31640625,-40.0390625,-35.64453125,-59.08203125,1.0,1.0,1.0,1.0,5.m4v,6.0
2024-02-27 15:49:28.378354,1709045368.378354,-64.453125,-38.57421875,-41.50390625,-56.15234375,1.0,1.0,1.0,1.0,5.m4v,6.0
2024-02-27 15:49:28.382259,1709045368.3822594,-41.9921875,-35.64453125,-41.50390625,-45.41015625,1.0,1.0,1.0,1.0,5.m4v,6.0
2024-02-27 15:49:28.386172,1709045368.3861716,-9.765625,-38.57421875,-35.64453125,-45.41015625,1.0,1.0,1.0,1.0,5.m4v,6.0
2024-02-27 15:49:28.390077,1709045368.3900769,-20.01953125,-35.64453125,-34.1796875,-48.33984375,1.0,1.0,1.0,1.0,5.m4v,6.0
2024-02-27 15:49:28.393982,1709045368.3939824,-39.0625,-27.34375,-30.2734375,-49.31640625,1.0,1.0,1.0,1.0,5.m4v,6.0
2024-02-27 15:49:28.397888,1709045368.3978877,-49.31640625,-27.34375,-34.1796875,-50.78125,1.0,1.0,1.0,1.0,5.m4v,6.0
2024-02-27 15:49:28.401793,1709045368.401793,-18.5546875,-29.78515625,-37.109375,-39.0625,1.0,1.0,1.0,1.0,5.m4v,6.0
2024-02-27 15:49:28.405699,1709045368.4056983,6.34765625,-25.390625,-32.2265625,-41.50390625,1.0,1.0,1.0,1.0,5.m4v,6.0
2024-02-27 15:49:28.409604,1709045368.4096038,-9.27734375,-28.3203125,-36.62109375,-53.7109375,1.0,1.0,1.0,1.0,5.m4v,6.0
2024-02-27 15:49:28.413509,1709045368.4135091,-38.0859375,-34.1796875,-37.59765625,-57.12890625,1.0,1.0,1.0,1.0,5.m4v,6.0
2024-02-27 15:49:28.417415,1709045368.417415,-68.84765625,-35.64453125,-34.1796875,-62.5,1.0,1.0,1.0,1.0,5.m4v,6.0
2024-02-27 15:49:28.421320,1709045368.42132,-59.08203125,-37.59765625,-28.80859375,-60.05859375,1.0,1.0,1.0,1.0,5.m4v,6.0
2024-02-27 15:49:28.425225,1709045368.4252253,-33.69140625,-32.2265625,-26.85546875,-65.4296875,1.0,1.0,1.0,1.0,5.m4v,6.0
2024-02-27 15:49:28.429131,1709045368.4291308,-28.3203125,-24.90234375,-28.3203125,-66.40625,1.0,1.0,1.0,1.0,5.m4v,6.0
2024-02-27 15:49:28.433042,1709045368.4330423,-54.6875,-28.80859375,-29.78515625,-68.84765625,1.0,1.0,1.0,1.0,5.m4v,6.0
2024-02-27 15:49:28.436948,1709045368.4369476,-77.63671875,-29.296875,-24.90234375,-77.1484375,1.0,1.0,1.0,1.0,5.m4v,6.0
2024-02-27 15:49:28.440853,1709045368.440853,-58.59375,-18.06640625,-29.296875,-67.87109375,1.0,1.0,1.0,1.0,5.m4v,6.0
2024-02-27 15:49:28.444758,1709045368.4447584,-41.50390625,-7.8125,-37.109375,-72.265625,1.0,1.0,1.0,1.0,5.m4v,6.0
2024-02-27 15:49:28.448664,1709045368.4486637,-53.22265625,-3.90625,-25.390625,-85.44921875,1.0,1.0,1.0,1.0,5.m4v,6.0
2024-02-27 15:49:28.452569,1709045368.4525692,-69.82421875,-9.27734375,-18.06640625,-87.40234375,1.0,1.0,1.0,1.0,5.m4v,6.0
2024-02-27 15:49:28.456475,1709045368.4564743,-80.56640625,-20.01953125,-27.83203125,-84.47265625,1.0,1.0,1.0,1.0,5.m4v,6.0
2024-02-27 15:49:28.460380,1709045368.4603798,-77.63671875,-12.20703125,-36.1328125,-85.44921875,1.0,1.0,1.0,1.0,5.m4v,6.0
2024-02-27 15:49:28.464285,1709045368.4642854,-58.10546875,-5.859375,-30.2734375,-91.796875,1.0,1.0,1.0,1.0,5.m4v,6.0
2024-02-27 15:49:28.468191,1709045368.468191,-54.19921875,-18.06640625,-30.2734375,-98.14453125,1.0,1.0,1.0,1.0,5.m4v,6.0
2024-02-27 15:49:28.472096,1709045368.472096,-84.9609375,-23.92578125,-37.109375,-108.88671875,1.0,1.0,1.0,1.0,5.m4v,6.0
2024-02-27 15:49:28.476002,1709045368.4760015,-116.69921875,-19.53125,-36.1328125,-119.140625,1.0,1.0,1.0,1.0,5.m4v,6.0
2024-02-27 15:49:28.479913,1709045368.4799123,-107.91015625,-15.625,-40.0390625,-111.81640625,1.0,1.0,1.0,1.0,5.m4v,6.0
2024-02-27 15:49:28.483818,1709045368.4838178,-77.63671875,-18.06640625,-34.1796875,-102.5390625,1.0,1.0,1.0,1.0,5.m4v,6.0
2024-02-27 15:49:28.487723,1709045368.4877234,-78.125,-23.92578125,-25.390625,-114.74609375,1.0,1.0,1.0,1.0,5.m4v,6.0
2024-02-27 15:49:28.491629,1709045368.4916286,-96.19140625,-23.92578125,-25.87890625,-123.046875,1.0,1.0,1.0,1.0,5.m4v,6.0
2024-02-27 15:49:28.495534,1709045368.495534,-117.67578125,-19.04296875,-28.80859375,-126.953125,1.0,1.0,1.0,1.0,5.m4v,6.0
2024-02-27 15:49:28.499439,1709045368.4994397,-113.76953125,-26.85546875,-30.2734375,-123.53515625,1.0,1.0,1.0,1.0,5.m4v,6.0
2024-02-27 15:49:28.503345,1709045368.5033448,-90.33203125,-33.69140625,-31.25,-117.1875,1.0,1.0,1.0,1.0,5.m4v,6.0
2024-02-27 15:49:28.507250,1709045368.50725,-87.890625,-31.73828125,-27.83203125,-121.58203125,1.0,1.0,1.0,1.0,5.m4v,6.0
2024-02-27 15:49:28.511156,1709045368.5111556,-87.40234375,-33.69140625,-25.390625,-120.60546875,1.0,1.0,1.0,1.0,5.m4v,6.0
2024-02-27 15:49:28.515061,1709045368.515061,-108.3984375,-35.15625,-27.34375,-113.28125,1.0,1.0,1.0,1.0,5.m4v,6.0
2024-02-27 15:49:28.518966,1709045368.5189662,-104.4921875,-36.62109375,-30.2734375,-103.515625,1.0,1.0,1.0,1.0,5.m4v,6.0
2024-02-27 15:49:28.522872,1709045368.5228715,-57.6171875,-37.59765625,-38.0859375,-86.42578125,1.0,1.0,1.0,1.0,5.m4v,6.0
2024-02-27 15:49:28.526787,1709045368.526787,-28.80859375,-39.55078125,-43.45703125,-76.171875,1.0,1.0,1.0,1.0,5.m4v,6.0
2024-02-27 15:49:28.530692,1709045368.5306923,-23.4375,-38.0859375,-40.52734375,-74.21875,1.0,1.0,1.0,1.0,5.m4v,6.0
2024-02-27 15:49:28.534598,1709045368.5345976,-56.15234375,-38.0859375,-34.1796875,-75.1953125,1.0,1.0,1.0,1.0,5.m4v,6.0
2024-02-27 15:49:28.538503,1709045368.5385032,-63.4765625,-36.62109375,-29.78515625,-68.84765625,1.0,1.0,1.0,1.0,5.m4v,6.0
2024-02-27 15:49:28.542408,1709045368.5424085,-23.4375,-38.0859375,-31.73828125,-54.6875,1.0,1.0,1.0,1.0,5.m4v,6.0
2024-02-27 15:49:28.546314,1709045368.5463138,-2.44140625,-44.921875,-37.59765625,-51.7578125,1.0,1.0,1.0,1.0,5.m4v,6.0
2024-02-27 15:49:28.550219,1709045368.5502193,-14.6484375,-48.33984375,-39.55078125,-55.17578125,1.0,1.0,1.0,1.0,5.m4v,6.0
2024-02-27 15:49:28.554125,1709045368.5541246,-40.0390625,-45.41015625,-39.0625,-52.734375,1.0,1.0,1.0,1.0,5.m4v,6.0
2024-02-27 15:49:28.558030,1709045368.55803,-57.6171875,-44.43359375,-45.8984375,-51.7578125,1.0,1.0,1.0,1.0,5.m4v,6.0
2024-02-27 15:49:28.561935,1709045368.5619354,-37.109375,-40.52734375,-43.9453125,-44.921875,1.0,1.0,1.0,1.0,5.m4v,6.0
2024-02-27 15:49:28.565841,1709045368.5658407,-9.27734375,-43.45703125,-35.64453125,-27.34375,1.0,1.0,1.0,1.0,5.m4v,6.0
2024-02-27 15:49:28.569746,1709045368.569746,-5.37109375,-49.31640625,-37.59765625,-27.34375,1.0,1.0,1.0,1.0,5.m4v,6.0
2024-02-27 15:49:28.573661,1709045368.5736606,-28.80859375,-47.36328125,-37.59765625,-33.203125,1.0,1.0,1.0,1.0,5.m4v,6.0
2024-02-27 15:49:28.577566,1709045368.577566,-59.08203125,-49.8046875,-33.203125,-26.85546875,1.0,1.0,1.0,1.0,5.m4v,6.0
2024-02-27 15:49:28.581471,1709045368.5814712,-45.8984375,-45.41015625,-29.78515625,-20.99609375,1.0,1.0,1.0,1.0,5.m4v,6.0
2024-02-27 15:49:28.585377,1709045368.5853767,-1.46484375,-43.9453125,-32.2265625,-21.484375,1.0,1.0,1.0,1.0,5.m4v,6.0
2024-02-27 15:49:28.589282,1709045368.589282,15.13671875,-49.31640625,-38.57421875,-29.296875,1.0,1.0,1.0,1.0,5.m4v,6.0
2024-02-27 15:49:28.593187,1709045368.593187,6.8359375,-42.48046875,-39.55078125,-25.87890625,1.0,1.0,1.0,1.0,5.m4v,6.0
2024-02-27 15:49:28.597093,1709045368.5970929,-17.08984375,-43.9453125,-31.73828125,-13.671875,1.0,1.0,1.0,1.0,5.m4v,6.0
2024-02-27 15:49:28.600998,1709045368.6009982,-15.625,-44.43359375,-24.4140625,-9.765625,1.0,1.0,1.0,1.0,5.m4v,6.0
2024-02-27 15:49:28.604903,1709045368.6049037,9.765625,-37.59765625,-32.2265625,-8.30078125,1.0,1.0,1.0,1.0,5.m4v,6.0
2024-02-27 15:49:28.608809,1709045368.608809,11.71875,-47.36328125,-42.48046875,-11.71875,1.0,1.0,1.0,1.0,5.m4v,6.0
2024-02-27 15:49:28.612714,1709045368.6127143,-7.8125,-51.7578125,-42.96875,-20.01953125,1.0,1.0,1.0,1.0,5.m4v,6.0
2024-02-27 15:49:28.616620,1709045368.6166198,-34.1796875,-45.8984375,-41.015625,-16.11328125,1.0,1.0,1.0,1.0,5.m4v,6.0
2024-02-27 15:49:28.620533,1709045368.620533,-16.11328125,-40.0390625,-29.78515625,2.9296875,1.0,1.0,1.0,1.0,5.m4v,6.0
2024-02-27 15:49:28.624439,1709045368.6244383,18.06640625,-34.66796875,-22.94921875,7.8125,1.0,1.0,1.0,1.0,5.m4v,6.0
2024-02-27 15:49:28.628344,1709045368.6283438,13.671875,-30.76171875,-32.2265625,-2.44140625,1.0,1.0,1.0,1.0,5.m4v,6.0
2024-02-27 15:49:28.632249,1709045368.632249,-10.7421875,-33.203125,-33.69140625,-3.90625,1.0,1.0,1.0,1.0,5.m4v,6.0
2024-02-27 15:49:28.636155,1709045368.636155,-19.53125,-38.0859375,-32.2265625,1.46484375,1.0,1.0,1.0,1.0,5.m4v,6.0
2024-02-27 15:49:28.640060,1709045368.64006,4.39453125,-32.71484375,-32.2265625,-1.953125,1.0,1.0,1.0,1.0,5.m4v,6.0
2024-02-27 15:49:28.643965,1709045368.6439652,36.1328125,-30.76171875,-27.83203125,-2.9296875,1.0,1.0,1.0,1.0,5.m4v,6.0
2024-02-27 15:49:28.647871,1709045368.6478708,37.109375,-35.15625,-30.76171875,-10.25390625,1.0,1.0,1.0,1.0,5.m4v,6.0
2024-02-27 15:49:28.651776,1709045368.651776,13.18359375,-33.203125,-37.109375,-21.97265625,1.0,1.0,1.0,1.0,5.m4v,6.0
2024-02-27 15:49:28.655682,1709045368.6556816,-20.01953125,-31.73828125,-34.66796875,-23.92578125,1.0,1.0,1.0,1.0,5.m4v,6.0
2024-02-27 15:49:28.659587,1709045368.659587,-23.92578125,-33.203125,-31.73828125,-16.6015625,1.0,1.0,1.0,1.0,5.m4v,6.0
2024-02-27 15:49:28.663492,1709045368.6634922,2.44140625,-32.71484375,-37.59765625,-14.6484375,1.0,1.0,1.0,1.0,5.m4v,6.0
2024-02-27 15:49:28.667406,1709045368.6674056,10.25390625,-34.66796875,-40.0390625,-19.53125,1.0,1.0,1.0,1.0,5.m4v,6.0
2024-02-27 15:49:28.671311,1709045368.671311,3.41796875,-40.0390625,-29.296875,-18.06640625,1.0,1.0,1.0,1.0,5.m4v,6.0
2024-02-27 15:49:28.675216,1709045368.6752162,-19.04296875,-38.0859375,-32.2265625,-17.08984375,1.0,1.0,1.0,1.0,5.m4v,6.0
2024-02-27 15:49:28.679122,1709045368.6791215,-45.8984375,-33.69140625,-41.50390625,-11.71875,1.0,1.0,1.0,1.0,5.m4v,6.0
2024-02-27 15:49:28.683027,1709045368.683027,-32.2265625,-32.71484375,-38.0859375,-7.8125,1.0,1.0,1.0,1.0,5.m4v,6.0
2024-02-27 15:49:28.686932,1709045368.6869323,-1.46484375,-32.2265625,-35.15625,-12.6953125,1.0,1.0,1.0,1.0,5.m4v,6.0
2024-02-27 15:49:28.690838,1709045368.690838,4.8828125,-28.3203125,-26.85546875,-7.8125,1.0,1.0,1.0,1.0,5.m4v,6.0
2024-02-27 15:49:28.694743,1709045368.6947432,-25.390625,-31.73828125,-20.01953125,-7.32421875,1.0,1.0,1.0,1.0,5.m4v,6.0
2024-02-27 15:49:28.698648,1709045368.6986485,-57.12890625,-37.109375,-23.4375,-12.6953125,1.0,1.0,1.0,1.0,5.m4v,6.0
2024-02-27 15:49:28.702554,1709045368.702554,-33.203125,-32.2265625,-33.203125,-5.859375,1.0,1.0,1.0,1.0,5.m4v,6.0
2024-02-27 15:49:28.706459,1709045368.7064593,-1.46484375,-30.76171875,-33.69140625,-9.27734375,1.0,1.0,1.0,1.0,5.m4v,6.0
2024-02-27 15:49:28.710365,1709045368.7103646,0.0,-31.73828125,-24.4140625,-15.625,1.0,1.0,1.0,1.0,5.m4v,6.0
2024-02-27 15:49:28.714278,1709045368.7142775,-21.484375,-33.69140625,-30.2734375,-18.5546875,1.0,1.0,1.0,1.0,5.m4v,6.0
2024-02-27 15:49:28.718183,1709045368.718183,-47.8515625,-36.1328125,-42.96875,-23.4375,1.0,1.0,1.0,1.0,5.m4v,6.0
2024-02-27 15:49:28.722088,1709045368.7220883,-38.57421875,-39.0625,-42.48046875,-18.5546875,1.0,1.0,1.0,1.0,5.m4v,6.0
2024-02-27 15:49:28.725994,1709045368.7259936,-11.23046875,-37.109375,-42.96875,-22.94921875,1.0,1.0,1.0,1.0,5.m4v,6.0
2024-02-27 15:49:28.729899,1709045368.7298992,-8.30078125,-36.62109375,-39.0625,-30.76171875,1.0,1.0,1.0,1.0,5.m4v,6.0
2024-02-27 15:49:28.733804,1709045368.7338045,-28.3203125,-36.1328125,-38.0859375,-38.0859375,1.0,1.0,1.0,1.0,5.m4v,6.0
2024-02-27 15:49:28.737710,1709045368.7377098,-43.45703125,-39.0625,-33.203125,-32.71484375,1.0,1.0,1.0,1.0,5.m4v,6.0
2024-02-27 15:49:28.741615,1709045368.7416153,-26.85546875,-45.8984375,-28.80859375,-20.5078125,1.0,1.0,1.0,1.0,5.m4v,6.0
2024-02-27 15:49:28.745521,1709045368.7455206,-10.7421875,-35.64453125,-34.1796875,-21.97265625,1.0,1.0,1.0,1.0,5.m4v,6.0
2024-02-27 15:49:28.749426,1709045368.749426,-11.23046875,-31.73828125,-34.1796875,-29.78515625,1.0,1.0,1.0,1.0,5.m4v,6.0
2024-02-27 15:49:28.753331,1709045368.7533314,-26.85546875,-40.0390625,-32.71484375,-37.59765625,1.0,1.0,1.0,1.0,5.m4v,6.0
2024-02-27 15:49:28.757237,1709045368.7572367,-46.38671875,-42.48046875,-36.62109375,-33.69140625,1.0,1.0,1.0,1.0,5.m4v,6.0
2024-02-27 15:49:28.761149,1709045368.761149,-37.109375,-40.0390625,-36.1328125,-24.4140625,1.0,1.0,1.0,1.0,5.m4v,6.0
2024-02-27 15:49:28.765054,1709045368.7650542,-8.30078125,-30.76171875,-31.73828125,-22.4609375,1.0,1.0,1.0,1.0,5.m4v,6.0
2024-02-27 15:49:28.768960,1709045368.7689598,-10.7421875,-30.76171875,-28.80859375,-19.53125,1.0,1.0,1.0,1.0,5.m4v,6.0
2024-02-27 15:49:28.772865,1709045368.772865,-36.62109375,-35.15625,-29.296875,-21.484375,1.0,1.0,1.0,1.0,5.m4v,6.0
2024-02-27 15:49:28.776770,1709045368.7767704,-54.19921875,-38.0859375,-31.73828125,-31.25,1.0,1.0,1.0,1.0,5.m4v,6.0
2024-02-27 15:49:28.780676,1709045368.780676,-33.203125,-42.48046875,-37.59765625,-30.2734375,1.0,1.0,1.0,1.0,5.m4v,6.0
2024-02-27 15:49:28.784581,1709045368.7845812,-10.7421875,-41.50390625,-37.109375,-24.90234375,1.0,1.0,1.0,1.0,5.m4v,6.0
2024-02-27 15:49:28.788486,1709045368.7884865,-16.11328125,-38.57421875,-36.62109375,-28.3203125,1.0,1.0,1.0,1.0,5.m4v,6.0
2024-02-27 15:49:28.792392,1709045368.792392,-34.66796875,-40.0390625,-38.57421875,-31.73828125,1.0,1.0,1.0,1.0,5.m4v,6.0
2024-02-27 15:49:28.796297,1709045368.7962973,-60.05859375,-39.55078125,-31.73828125,-24.4140625,1.0,1.0,1.0,1.0,5.m4v,6.0
2024-02-27 15:49:28.800203,1709045368.8002026,-52.24609375,-39.0625,-33.203125,-23.4375,1.0,1.0,1.0,1.0,5.m4v,6.0
2024-02-27 15:49:28.804108,1709045368.804108,-23.4375,-38.57421875,-35.64453125,-20.01953125,1.0,1.0,1.0,1.0,5.m4v,6.0
2024-02-27 15:49:28.808020,1709045368.8080196,-16.6015625,-34.1796875,-30.2734375,-20.99609375,1.0,1.0,1.0,1.0,5.m4v,6.0
2024-02-27 15:49:28.811925,1709045368.8119252,-33.203125,-32.71484375,-28.80859375,-26.3671875,1.0,1.0,1.0,1.0,5.m4v,6.0
2024-02-27 15:49:28.815830,1709045368.8158305,-59.5703125,-36.62109375,-33.203125,-31.73828125,1.0,1.0,1.0,1.0,5.m4v,6.0
2024-02-27 15:49:28.819736,1709045368.8197358,-70.80078125,-36.1328125,-31.25,-33.69140625,1.0,1.0,1.0,1.0,5.m4v,6.0
2024-02-27 15:49:28.823641,1709045368.8236413,-51.26953125,-33.69140625,-34.1796875,-35.64453125,1.0,1.0,1.0,1.0,5.m4v,6.0
2024-02-27 15:49:28.827547,1709045368.8275466,-24.4140625,-36.1328125,-40.52734375,-39.55078125,1.0,1.0,1.0,1.0,5.m4v,6.0
2024-02-27 15:49:28.831452,1709045368.831452,-18.06640625,-39.0625,-40.52734375,-39.55078125,1.0,1.0,1.0,1.0,5.m4v,6.0
2024-02-27 15:49:28.835357,1709045368.8353574,-44.43359375,-37.59765625,-38.0859375,-39.0625,1.0,1.0,1.0,1.0,5.m4v,6.0
2024-02-27 15:49:28.839263,1709045368.8392627,-56.640625,-31.73828125,-27.34375,-32.2265625,1.0,1.0,1.0,1.0,5.m4v,6.0
2024-02-27 15:49:28.843168,1709045368.843168,-23.92578125,-31.73828125,-25.390625,-32.71484375,1.0,1.0,1.0,1.0,5.m4v,6.0
2024-02-27 15:49:28.847074,1709045368.8470736,-0.48828125,-30.2734375,-36.1328125,-31.73828125,1.0,1.0,1.0,1.0,5.m4v,6.0
2024-02-27 15:49:28.850979,1709045368.8509789,-15.625,-26.3671875,-41.9921875,-31.25,1.0,1.0,1.0,1.0,5.m4v,6.0
2024-02-27 15:49:28.854890,1709045368.8548896,-45.8984375,-33.69140625,-35.64453125,-39.0625,1.0,1.0,1.0,1.0,5.m4v,6.0
2024-02-27 15:49:28.858795,1709045368.8587952,-56.15234375,-40.52734375,-34.1796875,-38.57421875,1.0,1.0,1.0,1.0,5.m4v,6.0
2024-02-27 15:49:28.862700,1709045368.8627005,-35.64453125,-36.62109375,-36.1328125,-33.203125,1.0,1.0,1.0,1.0,5.m4v,6.0
2024-02-27 15:49:28.866606,1709045368.866606,-11.71875,-35.15625,-32.71484375,-28.80859375,1.0,1.0,1.0,1.0,5.m4v,6.0
2024-02-27 15:49:28.870511,1709045368.8705113,-10.25390625,-42.48046875,-31.25,-32.2265625,1.0,1.0,1.0,1.0,5.m4v,6.0
2024-02-27 15:49:28.874417,1709045368.8744166,-22.94921875,-39.55078125,-26.85546875,-30.76171875,1.0,1.0,1.0,1.0,5.m4v,6.0
2024-02-27 15:49:28.878322,1709045368.878322,-48.828125,-35.15625,-28.80859375,-28.3203125,1.0,1.0,1.0,1.0,5.m4v,6.0
2024-02-27 15:49:28.882227,1709045368.8822274,-45.41015625,-39.0625,-28.80859375,-22.4609375,1.0,1.0,1.0,1.0,5.m4v,6.0
2024-02-27 15:49:28.886133,1709045368.8861327,-12.6953125,-40.0390625,-22.94921875,-23.92578125,1.0,1.0,1.0,1.0,5.m4v,6.0
2024-02-27 15:49:28.890038,1709045368.8900385,-7.8125,-38.57421875,-26.85546875,-38.0859375,1.0,1.0,1.0,1.0,5.m4v,6.0
2024-02-27 15:49:28.893944,1709045368.8939435,-34.1796875,-39.0625,-34.1796875,-43.45703125,1.0,1.0,1.0,1.0,5.m4v,6.0
2024-02-27 15:49:28.897849,1709045368.8978488,-59.5703125,-38.57421875,-33.69140625,-40.52734375,1.0,1.0,1.0,1.0,5.m4v,6.0
2024-02-27 15:49:28.901764,1709045368.901764,-51.7578125,-38.0859375,-31.25,-31.25,1.0,1.0,1.0,1.0,5.m4v,6.0
2024-02-27 15:49:28.905669,1709045368.9056697,-20.99609375,-37.109375,-34.66796875,-33.203125,1.0,1.0,1.0,1.0,5.m4v,6.0
2024-02-27 15:49:28.909575,1709045368.9095747,-19.53125,-39.55078125,-34.66796875,-45.41015625,1.0,1.0,1.0,1.0,5.m4v,6.0
2024-02-27 15:49:28.913480,1709045368.91348,-44.43359375,-36.62109375,-35.15625,-45.8984375,1.0,1.0,1.0,1.0,5.m4v,6.0
2024-02-27 15:49:28.917386,1709045368.9173856,-56.15234375,-28.80859375,-40.52734375,-38.0859375,1.0,1.0,1.0,1.0,5.m4v,6.0
2024-02-27 15:49:28.921291,1709045368.9212909,-36.62109375,-23.4375,-41.9921875,-24.90234375,1.0,1.0,1.0,1.0,5.m4v,6.0
2024-02-27 15:49:29.327525,1709045369.327525,-27.83203125,-41.50390625,-34.66796875,-54.19921875,1.0,1.0,1.0,1.0,5.m4v,6.0
2024-02-27 15:49:29.331430,1709045369.3314302,-23.92578125,-25.390625,-30.76171875,-54.19921875,1.0,1.0,1.0,1.0,5.m4v,6.0
2024-02-27 15:49:29.335335,1709045369.3353355,-49.8046875,-24.4140625,-34.1796875,-47.36328125,1.0,1.0,1.0,1.0,5.m4v,6.0
2024-02-27 15:49:29.339241,1709045369.3392408,-59.08203125,-34.1796875,-31.25,-46.875,1.0,1.0,1.0,1.0,5.m4v,6.0
2024-02-27 15:49:29.343146,1709045369.3431463,-9.765625,-31.25,-26.3671875,-39.55078125,1.0,1.0,1.0,1.0,5.m4v,6.0
2024-02-27 15:49:29.347052,1709045369.3470516,-4.39453125,-35.64453125,-29.78515625,-42.48046875,1.0,1.0,1.0,1.0,5.m4v,6.0
2024-02-27 15:49:29.350957,1709045369.350957,-31.73828125,-35.64453125,-30.76171875,-48.33984375,1.0,1.0,1.0,1.0,5.m4v,6.0
2024-02-27 15:49:29.354862,1709045369.3548625,-37.59765625,-33.203125,-29.296875,-51.7578125,1.0,1.0,1.0,1.0,5.m4v,6.0
2024-02-27 15:49:29.358768,1709045369.3587675,-55.6640625,-36.1328125,-28.80859375,-57.6171875,1.0,1.0,1.0,1.0,5.m4v,6.0
2024-02-27 15:49:29.362673,1709045369.362673,-33.69140625,-30.2734375,-29.296875,-51.26953125,1.0,1.0,1.0,1.0,5.m4v,6.0
2024-02-27 15:49:29.366579,1709045369.3665786,-0.9765625,-26.85546875,-23.92578125,-45.8984375,1.0,1.0,1.0,1.0,5.m4v,6.0
2024-02-27 15:49:29.370493,1709045369.3704927,-18.5546875,-35.15625,-28.80859375,-59.5703125,1.0,1.0,1.0,1.0,5.m4v,6.0
2024-02-27 15:49:29.374398,1709045369.374398,-47.36328125,-39.0625,-35.64453125,-64.453125,1.0,1.0,1.0,1.0,5.m4v,6.0
2024-02-27 15:49:29.378304,1709045369.3783035,-56.640625,-35.64453125,-33.203125,-53.22265625,1.0,1.0,1.0,1.0,5.m4v,6.0
2024-02-27 15:49:29.382209,1709045369.3822088,-43.45703125,-33.203125,-35.15625,-51.26953125,1.0,1.0,1.0,1.0,5.m4v,6.0
2024-02-27 15:49:29.386114,1709045369.386114,-28.3203125,-32.71484375,-33.203125,-50.78125,1.0,1.0,1.0,1.0,5.m4v,6.0
2024-02-27 15:49:29.390020,1709045369.3900197,-18.5546875,-34.66796875,-36.1328125,-49.31640625,1.0,1.0,1.0,1.0,5.m4v,6.0
2024-02-27 15:49:29.393925,1709045369.393925,-37.59765625,-33.69140625,-37.109375,-45.41015625,1.0,1.0,1.0,1.0,5.m4v,6.0
2024-02-27 15:49:29.397830,1709045369.3978302,-65.91796875,-36.62109375,-35.64453125,-49.8046875,1.0,1.0,1.0,1.0,5.m4v,6.0
2024-02-27 15:49:29.401736,1709045369.4017358,-37.59765625,-32.2265625,-36.1328125,-43.9453125,1.0,1.0,1.0,1.0,5.m4v,6.0
2024-02-27 15:49:29.405641,1709045369.405641,-15.625,-31.25,-39.55078125,-41.9921875,1.0,1.0,1.0,1.0,5.m4v,6.0
2024-02-27 15:49:29.409546,1709045369.4095464,-32.71484375,-36.1328125,-40.0390625,-52.24609375,1.0,1.0,1.0,1.0,5.m4v,6.0
2024-02-27 15:49:29.413452,1709045369.413452,-47.8515625,-32.2265625,-32.71484375,-56.640625,1.0,1.0,1.0,1.0,5.m4v,6.0
2024-02-27 15:49:29.417365,1709045369.417365,-49.31640625,-31.25,-27.34375,-52.734375,1.0,1.0,1.0,1.0,5.m4v,6.0
2024-02-27 15:49:29.421270,1709045369.4212704,-33.203125,-33.203125,-30.76171875,-43.45703125,1.0,1.0,1.0,1.0,5.m4v,6.0
2024-02-27 15:49:29.425176,1709045369.425176,-18.06640625,-34.1796875,-39.0625,-47.36328125,1.0,1.0,1.0,1.0,5.m4v,6.0
2024-02-27 15:49:29.429081,1709045369.4290812,-20.01953125,-32.71484375,-38.0859375,-58.10546875,1.0,1.0,1.0,1.0,5.m4v,6.0
2024-02-27 15:49:29.432986,1709045369.4329865,-39.55078125,-32.71484375,-38.0859375,-62.98828125,1.0,1.0,1.0,1.0,5.m4v,6.0
2024-02-27 15:49:29.436892,1709045369.436892,-59.08203125,-30.76171875,-35.64453125,-55.6640625,1.0,1.0,1.0,1.0,5.m4v,6.0
2024-02-27 15:49:29.440797,1709045369.440797,-49.31640625,-31.73828125,-36.1328125,-49.8046875,1.0,1.0,1.0,1.0,5.m4v,6.0
2024-02-27 15:49:29.444703,1709045369.4447026,-34.66796875,-33.203125,-42.96875,-53.7109375,1.0,1.0,1.0,1.0,5.m4v,6.0
2024-02-27 15:49:29.448608,1709045369.4486082,-32.2265625,-33.203125,-41.015625,-53.22265625,1.0,1.0,1.0,1.0,5.m4v,6.0
2024-02-27 15:49:29.452513,1709045369.4525137,-32.71484375,-30.76171875,-36.62109375,-49.31640625,1.0,1.0,1.0,1.0,5.m4v,6.0
2024-02-27 15:49:29.456419,1709045369.4564188,-56.640625,-33.69140625,-30.76171875,-46.875,1.0,1.0,1.0,1.0,5.m4v,6.0
2024-02-27 15:49:29.460324,1709045369.4603243,-49.8046875,-39.0625,-30.76171875,-44.921875,1.0,1.0,1.0,1.0,5.m4v,6.0
2024-02-27 15:49:29.464237,1709045369.464237,-10.25390625,-35.64453125,-30.2734375,-44.43359375,1.0,1.0,1.0,1.0,5.m4v,6.0
2024-02-27 15:49:29.468143,1709045369.4681425,-0.9765625,-36.62109375,-29.296875,-41.9921875,1.0,1.0,1.0,1.0,5.m4v,6.0
2024-02-27 15:49:29.472048,1709045369.4720478,-28.80859375,-38.0859375,-26.3671875,-48.33984375,1.0,1.0,1.0,1.0,5.m4v,6.0
2024-02-27 15:49:29.475953,1709045369.475953,-62.5,-39.55078125,-25.87890625,-55.17578125,1.0,1.0,1.0,1.0,5.m4v,6.0
2024-02-27 15:49:29.479859,1709045369.4798586,-46.875,-29.78515625,-22.94921875,-41.015625,1.0,1.0,1.0,1.0,5.m4v,6.0
2024-02-27 15:49:29.483764,1709045369.483764,-13.18359375,-25.87890625,-23.92578125,-39.55078125,1.0,1.0,1.0,1.0,5.m4v,6.0
2024-02-27 15:49:29.487669,1709045369.4876692,-4.39453125,-37.109375,-31.73828125,-45.8984375,1.0,1.0,1.0,1.0,5.m4v,6.0
2024-02-27 15:49:29.491575,1709045369.4915748,-22.94921875,-39.55078125,-33.203125,-43.9453125,1.0,1.0,1.0,1.0,5.m4v,6.0
2024-02-27 15:49:29.495480,1709045369.49548,-58.10546875,-36.1328125,-34.1796875,-44.921875,1.0,1.0,1.0,1.0,5.m4v,6.0
2024-02-27 15:49:29.499386,1709045369.4993856,-61.5234375,-38.57421875,-33.203125,-42.96875,1.0,1.0,1.0,1.0,5.m4v,6.0
2024-02-27 15:49:29.503291,1709045369.503291,-27.83203125,-37.109375,-27.83203125,-36.62109375,1.0,1.0,1.0,1.0,5.m4v,6.0
2024-02-27 15:49:29.507196,1709045369.5071962,-26.3671875,-37.59765625,-29.78515625,-42.48046875,1.0,1.0,1.0,1.0,5.m4v,6.0
2024-02-27 15:49:29.511108,1709045369.5111084,-43.45703125,-36.1328125,-35.64453125,-51.26953125,1.0,1.0,1.0,1.0,5.m4v,6.0
2024-02-27 15:49:29.515014,1709045369.5150137,-50.78125,-30.76171875,-31.25,-51.7578125,1.0,1.0,1.0,1.0,5.m4v,6.0
2024-02-27 15:49:29.518919,1709045369.5189192,-57.6171875,-32.71484375,-27.83203125,-46.875,1.0,1.0,1.0,1.0,5.m4v,6.0
2024-02-27 15:49:29.522825,1709045369.5228243,-35.15625,-33.69140625,-31.73828125,-40.52734375,1.0,1.0,1.0,1.0,5.m4v,6.0
2024-02-27 15:49:29.526730,1709045369.5267298,-12.20703125,-35.15625,-32.71484375,-38.57421875,1.0,1.0,1.0,1.0,5.m4v,6.0
2024-02-27 15:49:29.530635,1709045369.5306354,-16.11328125,-31.25,-31.25,-41.50390625,1.0,1.0,1.0,1.0,5.m4v,6.0
2024-02-27 15:49:29.534541,1709045369.534541,-38.0859375,-24.4140625,-23.4375,-36.62109375,1.0,1.0,1.0,1.0,5.m4v,6.0
2024-02-27 15:49:29.538446,1709045369.538446,-60.546875,-25.390625,-20.99609375,-31.25,1.0,1.0,1.0,1.0,5.m4v,6.0
2024-02-27 15:49:29.542351,1709045369.5423515,-45.8984375,-23.4375,-30.2734375,-34.1796875,1.0,1.0,1.0,1.0,5.m4v,6.0
2024-02-27 15:49:29.546257,1709045369.5462568,-19.04296875,-26.85546875,-31.73828125,-34.1796875,1.0,1.0,1.0,1.0,5.m4v,6.0
2024-02-27 15:49:29.550162,1709045369.550162,-24.4140625,-27.83203125,-37.59765625,-40.0390625,1.0,1.0,1.0,1.0,5.m4v,6.0
2024-02-27 15:49:29.554068,1709045369.5540676,-63.4765625,-23.4375,-47.36328125,-43.45703125,1.0,1.0,1.0,1.0,5.m4v,6.0
2024-02-27 15:49:29.557980,1709045369.5579796,-72.75390625,-31.73828125,-41.015625,-39.55078125,1.0,1.0,1.0,1.0,5.m4v,6.0
2024-02-27 15:49:29.561885,1709045369.5618849,-40.0390625,-35.15625,-36.1328125,-35.64453125,1.0,1.0,1.0,1.0,5.m4v,6.0
2024-02-27 15:49:29.565790,1709045369.5657904,-12.6953125,-33.69140625,-37.59765625,-37.59765625,1.0,1.0,1.0,1.0,5.m4v,6.0
2024-02-27 15:49:29.569696,1709045369.5696957,-11.71875,-29.78515625,-32.71484375,-45.8984375,1.0,1.0,1.0,1.0,5.m4v,6.0
2024-02-27 15:49:29.573601,1709045369.573601,-34.66796875,-31.73828125,-31.73828125,-44.921875,1.0,1.0,1.0,1.0,5.m4v,6.0
2024-02-27 15:49:29.577507,1709045369.5775063,-51.7578125,-36.1328125,-34.1796875,-44.43359375,1.0,1.0,1.0,1.0,5.m4v,6.0
2024-02-27 15:49:29.581412,1709045369.5814118,-31.25,-27.34375,-31.25,-34.66796875,1.0,1.0,1.0,1.0,5.m4v,6.0
2024-02-27 15:49:29.585317,1709045369.5853171,-12.20703125,-27.34375,-26.85546875,-31.73828125,1.0,1.0,1.0,1.0,5.m4v,6.0
2024-02-27 15:49:29.589223,1709045369.589223,-16.11328125,-33.69140625,-35.15625,-39.0625,1.0,1.0,1.0,1.0,5.m4v,6.0
2024-02-27 15:49:29.593128,1709045369.593128,-32.2265625,-31.73828125,-43.9453125,-37.59765625,1.0,1.0,1.0,1.0,5.m4v,6.0
2024-02-27 15:49:29.597033,1709045369.5970333,-55.6640625,-30.76171875,-40.0390625,-32.71484375,1.0,1.0,1.0,1.0,5.m4v,6.0
2024-02-27 15:49:29.600939,1709045369.6009388,-49.8046875,-31.73828125,-33.69140625,-26.3671875,1.0,1.0,1.0,1.0,5.m4v,6.0
2024-02-27 15:49:29.604849,1709045369.604849,-10.25390625,-31.25,-28.3203125,-19.53125,1.0,1.0,1.0,1.0,5.m4v,6.0
2024-02-27 15:49:29.608755,1709045369.6087549,-12.6953125,-33.203125,-30.2734375,-27.34375,1.0,1.0,1.0,1.0,5.m4v,6.0
2024-02-27 15:49:29.612660,1709045369.6126602,-29.296875,-33.69140625,-32.71484375,-32.71484375,1.0,1.0,1.0,1.0,5.m4v,6.0
2024-02-27 15:49:29.616565,1709045369.6165657,-42.96875,-22.4609375,-23.4375,-26.85546875,1.0,1.0,1.0,1.0,5.m4v,6.0
2024-02-27 15:49:29.620471,1709045369.620471,-36.1328125,-21.484375,-26.3671875,-23.92578125,1.0,1.0,1.0,1.0,5.m4v,6.0
2024-02-27 15:49:29.624376,1709045369.6243763,-7.32421875,-30.2734375,-32.2265625,-25.390625,1.0,1.0,1.0,1.0,5.m4v,6.0
2024-02-27 15:49:29.628282,1709045369.6282816,-11.23046875,-33.69140625,-32.2265625,-35.64453125,1.0,1.0,1.0,1.0,5.m4v,6.0
2024-02-27 15:49:29.632187,1709045369.6321871,-38.57421875,-31.25,-30.76171875,-40.0390625,1.0,1.0,1.0,1.0,5.m4v,6.0
2024-02-27 15:49:29.636092,1709045369.6360924,-59.08203125,-31.73828125,-25.390625,-37.109375,1.0,1.0,1.0,1.0,5.m4v,6.0
2024-02-27 15:49:29.639998,1709045369.6399975,-55.6640625,-38.57421875,-27.83203125,-33.69140625,1.0,1.0,1.0,1.0,5.m4v,6.0
2024-02-27 15:49:29.643903,1709045369.6439033,-25.390625,-37.59765625,-33.203125,-31.73828125,1.0,1.0,1.0,1.0,5.m4v,6.0
2024-02-27 15:49:29.647809,1709045369.6478086,-16.11328125,-28.3203125,-32.71484375,-40.0390625,1.0,1.0,1.0,1.0,5.m4v,6.0
2024-02-27 15:49:29.651724,1709045369.6517236,-27.83203125,-25.87890625,-31.73828125,-36.62109375,1.0,1.0,1.0,1.0,5.m4v,6.0
2024-02-27 15:49:29.655629,1709045369.655629,-53.22265625,-29.296875,-34.1796875,-36.62109375,1.0,1.0,1.0,1.0,5.m4v,6.0
2024-02-27 15:49:29.659534,1709045369.6595345,-65.4296875,-32.2265625,-31.25,-34.66796875,1.0,1.0,1.0,1.0,5.m4v,6.0
2024-02-27 15:49:29.663440,1709045369.6634398,-29.78515625,-34.66796875,-26.3671875,-19.53125,1.0,1.0,1.0,1.0,5.m4v,6.0
2024-02-27 15:49:29.667345,1709045369.667345,-17.578125,-38.57421875,-31.73828125,-24.90234375,1.0,1.0,1.0,1.0,5.m4v,6.0
2024-02-27 15:49:29.671251,1709045369.6712506,-33.203125,-34.1796875,-35.15625,-35.64453125,1.0,1.0,1.0,1.0,5.m4v,6.0
2024-02-27 15:49:29.675156,1709045369.675156,-50.78125,-35.15625,-33.203125,-34.1796875,1.0,1.0,1.0,1.0,5.m4v,6.0
2024-02-27 15:49:29.679061,1709045369.6790612,-60.05859375,-41.50390625,-35.15625,-34.1796875,1.0,1.0,1.0,1.0,5.m4v,6.0
2024-02-27 15:49:29.682967,1709045369.6829667,-41.50390625,-40.0390625,-34.1796875,-33.69140625,1.0,1.0,1.0,1.0,5.m4v,6.0
2024-02-27 15:49:29.686872,1709045369.686872,-22.4609375,-34.66796875,-35.15625,-30.76171875,1.0,1.0,1.0,1.0,5.m4v,6.0
2024-02-27 15:49:29.690777,1709045369.6907773,-19.53125,-27.34375,-26.85546875,-37.109375,1.0,1.0,1.0,1.0,5.m4v,6.0
2024-02-27 15:49:29.694683,1709045369.6946828,-38.0859375,-27.83203125,-19.53125,-34.1796875,1.0,1.0,1.0,1.0,5.m4v,6.0
2024-02-27 15:49:29.698597,1709045369.6985967,-56.640625,-34.66796875,-23.92578125,-28.80859375,1.0,1.0,1.0,1.0,5.m4v,6.0
2024-02-27 15:49:29.702502,1709045369.7025025,-36.1328125,-36.1328125,-32.71484375,-29.296875,1.0,1.0,1.0,1.0,5.m4v,6.0
2024-02-27 15:49:29.706408,1709045369.7064075,-13.18359375,-33.203125,-40.0390625,-35.64453125,1.0,1.0,1.0,1.0,5.m4v,6.0
2024-02-27 15:49:29.710313,1709045369.7103128,-22.4609375,-29.78515625,-33.69140625,-36.62109375,1.0,1.0,1.0,1.0,5.m4v,6.0
2024-02-27 15:49:29.714218,1709045369.7142184,-32.71484375,-34.1796875,-31.25,-30.76171875,1.0,1.0,1.0,1.0,5.m4v,6.0
2024-02-27 15:49:29.718124,1709045369.7181237,-30.76171875,-37.109375,-30.76171875,-29.78515625,1.0,1.0,1.0,1.0,5.m4v,6.0
2024-02-27 15:49:29.722029,1709045369.722029,-16.6015625,-26.85546875,-32.2265625,-32.2265625,1.0,1.0,1.0,1.0,5.m4v,6.0
2024-02-27 15:49:29.725935,1709045369.7259345,-11.23046875,-28.80859375,-36.62109375,-33.203125,1.0,1.0,1.0,1.0,5.m4v,6.0
2024-02-27 15:49:29.729840,1709045369.7298398,-11.71875,-41.9921875,-36.1328125,-26.85546875,1.0,1.0,1.0,1.0,5.m4v,6.0
2024-02-27 15:49:29.733745,1709045369.733745,-27.83203125,-35.64453125,-37.59765625,-27.34375,1.0,1.0,1.0,1.0,5.m4v,6.0
2024-02-27 15:49:29.737651,1709045369.7376506,-62.98828125,-26.3671875,-37.59765625,-36.62109375,1.0,1.0,1.0,1.0,5.m4v,6.0
2024-02-27 15:49:29.741556,1709045369.741556,-52.24609375,-25.87890625,-27.83203125,-29.78515625,1.0,1.0,1.0,1.0,5.m4v,6.0
2024-02-27 15:49:29.745474,1709045369.7454743,-17.578125,-28.3203125,-22.4609375,-27.34375,1.0,1.0,1.0,1.0,5.m4v,6.0
2024-02-27 15:49:29.749380,1709045369.74938,-7.8125,-31.25,-26.85546875,-41.50390625,1.0,1.0,1.0,1.0,5.m4v,6.0
2024-02-27 15:49:29.753285,1709045369.7532852,-5.37109375,-34.1796875,-30.2734375,-48.33984375,1.0,1.0,1.0,1.0,5.m4v,6.0
2024-02-27 15:49:29.757190,1709045369.7571905,-9.27734375,-34.66796875,-26.85546875,-34.66796875,1.0,1.0,1.0,1.0,5.m4v,6.0
2024-02-27 15:49:29.761096,1709045369.761096,-18.06640625,-35.15625,-23.4375,-34.1796875,1.0,1.0,1.0,1.0,5.m4v,6.0
2024-02-27 15:49:29.765001,1709045369.7650013,-12.20703125,-36.1328125,-37.109375,-44.921875,1.0,1.0,1.0,1.0,5.m4v,6.0
2024-02-27 15:49:29.768907,1709045369.7689066,-8.7890625,-40.0390625,-36.1328125,-39.0625,1.0,1.0,1.0,1.0,5.m4v,6.0
2024-02-27 15:49:29.772812,1709045369.772812,-30.2734375,-39.0625,-27.83203125,-39.0625,1.0,1.0,1.0,1.0,5.m4v,6.0
2024-02-27 15:49:29.776717,1709045369.7767174,-45.41015625,-38.0859375,-30.2734375,-41.015625,1.0,1.0,1.0,1.0,5.m4v,6.0
2024-02-27 15:49:29.780623,1709045369.7806227,-32.71484375,-41.015625,-22.94921875,-30.76171875,1.0,1.0,1.0,1.0,5.m4v,6.0
2024-02-27 15:49:29.784528,1709045369.7845285,-6.34765625,-37.59765625,-16.6015625,-27.83203125,1.0,1.0,1.0,1.0,5.m4v,6.0
2024-02-27 15:49:29.788434,1709045369.7884336,-6.34765625,-37.109375,-22.94921875,-37.59765625,1.0,1.0,1.0,1.0,5.m4v,6.0
2024-02-27 15:49:29.792347,1709045369.7923474,-14.6484375,-42.96875,-22.4609375,-35.64453125,1.0,1.0,1.0,1.0,5.m4v,6.0
2024-02-27 15:49:29.796253,1709045369.7962527,-37.109375,-38.0859375,-26.85546875,-28.80859375,1.0,1.0,1.0,1.0,5.m4v,6.0
2024-02-27 15:49:29.800158,1709045369.8001585,-39.55078125,-33.69140625,-33.69140625,-27.83203125,1.0,1.0,1.0,1.0,5.m4v,6.0
2024-02-27 15:49:29.804064,1709045369.8040636,-11.23046875,-31.73828125,-33.203125,-29.78515625,1.0,1.0,1.0,1.0,5.m4v,6.0
2024-02-27 15:49:29.807969,1709045369.8079689,-4.39453125,-29.78515625,-28.80859375,-34.66796875,1.0,1.0,1.0,1.0,5.m4v,6.0
2024-02-27 15:49:29.811874,1709045369.8118744,-20.01953125,-30.76171875,-22.94921875,-29.296875,1.0,1.0,1.0,1.0,5.m4v,6.0
2024-02-27 15:49:29.815780,1709045369.8157797,-47.36328125,-28.3203125,-20.99609375,-28.80859375,1.0,1.0,1.0,1.0,5.m4v,6.0
2024-02-27 15:49:29.819685,1709045369.8196852,-50.29296875,-33.203125,-23.4375,-37.109375,1.0,1.0,1.0,1.0,5.m4v,6.0
2024-02-27 15:49:29.823591,1709045369.8235905,-25.390625,-38.0859375,-29.78515625,-36.1328125,1.0,1.0,1.0,1.0,5.m4v,6.0
2024-02-27 15:49:29.827496,1709045369.8274958,-17.08984375,-30.76171875,-27.34375,-39.55078125,1.0,1.0,1.0,1.0,5.m4v,6.0
2024-02-27 15:49:29.831401,1709045369.831401,-19.04296875,-31.25,-25.390625,-41.50390625,1.0,1.0,1.0,1.0,5.m4v,6.0
2024-02-27 15:49:29.835307,1709045369.8353066,-44.43359375,-46.875,-29.78515625,-41.9921875,1.0,1.0,1.0,1.0,5.m4v,6.0
2024-02-27 15:49:29.839224,1709045369.839224,-47.36328125,-47.36328125,-32.71484375,-35.64453125,1.0,1.0,1.0,1.0,5.m4v,6.0
2024-02-27 15:49:29.843129,1709045369.8431294,-22.4609375,-37.59765625,-31.73828125,-27.83203125,1.0,1.0,1.0,1.0,5.m4v,6.0
2024-02-27 15:49:29.847035,1709045369.8470347,-14.16015625,-39.0625,-31.25,-32.2265625,1.0,1.0,1.0,1.0,5.m4v,6.0
2024-02-27 15:49:29.850940,1709045369.85094,-18.06640625,-41.015625,-31.73828125,-37.109375,1.0,1.0,1.0,1.0,5.m4v,6.0
2024-02-27 15:49:29.854846,1709045369.8548455,-46.875,-39.0625,-30.76171875,-40.52734375,1.0,1.0,1.0,1.0,5.m4v,6.0
2024-02-27 15:49:29.858751,1709045369.8587508,-60.546875,-30.76171875,-28.80859375,-37.59765625,1.0,1.0,1.0,1.0,5.m4v,6.0
2024-02-27 15:49:29.862656,1709045369.862656,-32.71484375,-27.83203125,-27.83203125,-30.76171875,1.0,1.0,1.0,1.0,5.m4v,6.0
2024-02-27 15:49:29.866562,1709045369.8665617,-26.3671875,-36.1328125,-29.296875,-42.48046875,1.0,1.0,1.0,1.0,5.m4v,6.0
2024-02-27 15:49:29.870467,1709045369.870467,-35.15625,-40.0390625,-30.2734375,-44.43359375,1.0,1.0,1.0,1.0,5.m4v,6.0
2024-02-27 15:49:29.874372,1709045369.8743722,-50.78125,-33.203125,-32.71484375,-41.50390625,1.0,1.0,1.0,1.0,5.m4v,6.0
2024-02-27 15:49:29.878278,1709045369.8782778,-67.3828125,-35.64453125,-38.0859375,-41.9921875,1.0,1.0,1.0,1.0,5.m4v,6.0
2024-02-27 15:49:29.882183,1709045369.882183,-44.921875,-31.73828125,-34.1796875,-32.71484375,1.0,1.0,1.0,1.0,5.m4v,6.0
2024-02-27 15:49:29.886095,1709045369.8860953,-15.625,-21.97265625,-33.203125,-39.55078125,1.0,1.0,1.0,1.0,5.m4v,6.0
2024-02-27 15:49:29.890001,1709045369.8900006,-14.6484375,-28.3203125,-36.62109375,-50.78125,1.0,1.0,1.0,1.0,5.m4v,6.0
2024-02-27 15:49:29.893906,1709045369.893906,-29.78515625,-40.0390625,-31.73828125,-48.828125,1.0,1.0,1.0,1.0,5.m4v,6.0
2024-02-27 15:49:29.897811,1709045369.8978114,-48.33984375,-38.0859375,-26.85546875,-45.8984375,1.0,1.0,1.0,1.0,5.m4v,6.0
2024-02-27 15:49:29.901717,1709045369.9017167,-30.76171875,-30.2734375,-32.71484375,-42.96875,1.0,1.0,1.0,1.0,5.m4v,6.0
2024-02-27 15:49:29.905622,1709045369.905622,6.8359375,-29.78515625,-37.59765625,-40.0390625,1.0,1.0,1.0,1.0,5.m4v,6.0
2024-02-27 15:49:29.909528,1709045369.9095275,-0.9765625,-34.66796875,-33.69140625,-43.45703125,1.0,1.0,1.0,1.0,5.m4v,6.0
2024-02-27 15:49:30.354819,1709045370.3548193,-26.85546875,-34.66796875,-33.69140625,-44.921875,1.0,1.0,1.0,1.0,5.m4v,6.0
2024-02-27 15:49:30.358725,1709045370.3587246,-34.66796875,-33.69140625,-29.78515625,-38.57421875,1.0,1.0,1.0,1.0,5.m4v,6.0
2024-02-27 15:49:30.362630,1709045370.36263,-10.7421875,-31.25,-35.15625,-39.0625,1.0,1.0,1.0,1.0,5.m4v,6.0
2024-02-27 15:49:30.366535,1709045370.3665354,0.48828125,-30.2734375,-40.0390625,-45.8984375,1.0,1.0,1.0,1.0,5.m4v,6.0
2024-02-27 15:49:30.370441,1709045370.3704407,-8.30078125,-37.109375,-46.875,-53.22265625,1.0,1.0,1.0,1.0,5.m4v,6.0
2024-02-27 15:49:30.374346,1709045370.3743465,-16.6015625,-40.0390625,-40.0390625,-49.8046875,1.0,1.0,1.0,1.0,5.m4v,6.0
2024-02-27 15:49:30.378252,1709045370.3782516,-24.4140625,-39.0625,-34.1796875,-50.29296875,1.0,1.0,1.0,1.0,5.m4v,6.0
2024-02-27 15:49:30.382157,1709045370.3821568,-20.01953125,-38.0859375,-36.1328125,-48.33984375,1.0,1.0,1.0,1.0,5.m4v,6.0
2024-02-27 15:49:30.386062,1709045370.3860624,-14.6484375,-32.2265625,-30.76171875,-38.57421875,1.0,1.0,1.0,1.0,5.m4v,6.0
2024-02-27 15:49:30.389968,1709045370.3899677,-8.30078125,-26.3671875,-29.78515625,-39.0625,1.0,1.0,1.0,1.0,5.m4v,6.0
2024-02-27 15:49:30.393873,1709045370.393873,-16.6015625,-32.71484375,-32.71484375,-44.921875,1.0,1.0,1.0,1.0,5.m4v,6.0
2024-02-27 15:49:30.397779,1709045370.3977785,-34.66796875,-39.55078125,-38.0859375,-41.9921875,1.0,1.0,1.0,1.0,5.m4v,6.0
2024-02-27 15:49:30.401689,1709045370.4016893,-19.04296875,-39.55078125,-36.1328125,-37.109375,1.0,1.0,1.0,1.0,5.m4v,6.0
2024-02-27 15:49:30.405595,1709045370.4055948,-1.46484375,-38.57421875,-33.203125,-41.015625,1.0,1.0,1.0,1.0,5.m4v,6.0
2024-02-27 15:49:30.409500,1709045370.4095,3.90625,-35.15625,-30.76171875,-41.015625,1.0,1.0,1.0,1.0,5.m4v,6.0
2024-02-27 15:49:30.413406,1709045370.4134057,-19.53125,-30.2734375,-29.296875,-46.38671875,1.0,1.0,1.0,1.0,5.m4v,6.0
2024-02-27 15:49:30.417311,1709045370.417311,-52.24609375,-30.76171875,-37.59765625,-46.875,1.0,1.0,1.0,1.0,5.m4v,6.0
2024-02-27 15:49:30.421216,1709045370.4212162,-36.62109375,-33.69140625,-35.15625,-40.0390625,1.0,1.0,1.0,1.0,5.m4v,6.0
2024-02-27 15:49:30.425122,1709045370.4251218,-7.32421875,-40.0390625,-33.69140625,-37.109375,1.0,1.0,1.0,1.0,5.m4v,6.0
2024-02-27 15:49:30.429027,1709045370.429027,-28.80859375,-46.38671875,-40.52734375,-47.36328125,1.0,1.0,1.0,1.0,5.m4v,6.0
2024-02-27 15:49:30.432932,1709045370.4329324,-59.08203125,-39.55078125,-36.1328125,-59.08203125,1.0,1.0,1.0,1.0,5.m4v,6.0
2024-02-27 15:49:30.436838,1709045370.436838,-56.15234375,-44.921875,-37.109375,-56.15234375,1.0,1.0,1.0,1.0,5.m4v,6.0
2024-02-27 15:49:30.440743,1709045370.4407432,-35.15625,-42.48046875,-40.0390625,-41.015625,1.0,1.0,1.0,1.0,5.m4v,6.0
2024-02-27 15:49:30.444649,1709045370.4446485,-10.7421875,-38.0859375,-35.15625,-37.109375,1.0,1.0,1.0,1.0,5.m4v,6.0
2024-02-27 15:49:30.448564,1709045370.4485636,0.48828125,-41.50390625,-31.25,-44.921875,1.0,1.0,1.0,1.0,5.m4v,6.0
2024-02-27 15:49:30.452469,1709045370.4524689,-6.8359375,-37.109375,-32.2265625,-45.8984375,1.0,1.0,1.0,1.0,5.m4v,6.0
2024-02-27 15:49:30.456374,1709045370.4563742,-34.1796875,-36.62109375,-32.2265625,-43.45703125,1.0,1.0,1.0,1.0,5.m4v,6.0
2024-02-27 15:49:30.460280,1709045370.4602797,-34.66796875,-36.62109375,-25.87890625,-33.203125,1.0,1.0,1.0,1.0,5.m4v,6.0
2024-02-27 15:49:30.464185,1709045370.464185,-10.25390625,-37.109375,-20.01953125,-33.203125,1.0,1.0,1.0,1.0,5.m4v,6.0
2024-02-27 15:49:30.468090,1709045370.4680903,0.9765625,-39.0625,-25.87890625,-41.9921875,1.0,1.0,1.0,1.0,5.m4v,6.0
2024-02-27 15:49:30.471996,1709045370.4719958,-18.5546875,-39.55078125,-30.76171875,-44.43359375,1.0,1.0,1.0,1.0,5.m4v,6.0
2024-02-27 15:49:30.475901,1709045370.4759011,-51.26953125,-34.1796875,-31.73828125,-47.8515625,1.0,1.0,1.0,1.0,5.m4v,6.0
2024-02-27 15:49:30.479806,1709045370.4798064,-53.7109375,-34.66796875,-36.62109375,-41.015625,1.0,1.0,1.0,1.0,5.m4v,6.0
2024-02-27 15:49:30.483712,1709045370.483712,-23.4375,-36.62109375,-39.0625,-35.15625,1.0,1.0,1.0,1.0,5.m4v,6.0
2024-02-27 15:49:30.487617,1709045370.4876173,-3.90625,-34.1796875,-33.69140625,-36.62109375,1.0,1.0,1.0,1.0,5.m4v,6.0
2024-02-27 15:49:30.491523,1709045370.4915226,-16.6015625,-30.76171875,-24.4140625,-33.69140625,1.0,1.0,1.0,1.0,5.m4v,6.0
2024-02-27 15:49:30.495436,1709045370.4954364,-46.38671875,-29.296875,-26.85546875,-38.57421875,1.0,1.0,1.0,1.0,5.m4v,6.0
2024-02-27 15:49:30.499342,1709045370.499342,-49.8046875,-39.0625,-30.2734375,-37.59765625,1.0,1.0,1.0,1.0,5.m4v,6.0
2024-02-27 15:49:30.503247,1709045370.5032473,-13.18359375,-40.52734375,-34.66796875,-38.57421875,1.0,1.0,1.0,1.0,5.m4v,6.0
2024-02-27 15:49:30.507153,1709045370.5071526,-4.8828125,-40.0390625,-36.62109375,-50.29296875,1.0,1.0,1.0,1.0,5.m4v,6.0
2024-02-27 15:49:30.511058,1709045370.511058,-6.8359375,-40.0390625,-36.1328125,-48.33984375,1.0,1.0,1.0,1.0,5.m4v,6.0
2024-02-27 15:49:30.514963,1709045370.5149634,-21.97265625,-36.62109375,-34.1796875,-40.52734375,1.0,1.0,1.0,1.0,5.m4v,6.0
2024-02-27 15:49:30.518869,1709045370.5188687,-35.15625,-36.1328125,-26.3671875,-34.1796875,1.0,1.0,1.0,1.0,5.m4v,6.0
2024-02-27 15:49:30.522774,1709045370.5227742,-29.78515625,-35.15625,-24.4140625,-34.1796875,1.0,1.0,1.0,1.0,5.m4v,6.0
2024-02-27 15:49:30.526680,1709045370.5266795,-18.5546875,-33.69140625,-32.71484375,-45.41015625,1.0,1.0,1.0,1.0,5.m4v,6.0
2024-02-27 15:49:30.530585,1709045370.5305848,-7.8125,-32.71484375,-34.1796875,-49.31640625,1.0,1.0,1.0,1.0,5.m4v,6.0
2024-02-27 15:49:30.534490,1709045370.5344903,-33.203125,-32.71484375,-32.2265625,-48.828125,1.0,1.0,1.0,1.0,5.m4v,6.0
2024-02-27 15:49:30.538396,1709045370.5383956,-56.15234375,-34.66796875,-28.80859375,-47.36328125,1.0,1.0,1.0,1.0,5.m4v,6.0
2024-02-27 15:49:30.542309,1709045370.542309,-27.34375,-38.0859375,-28.3203125,-42.48046875,1.0,1.0,1.0,1.0,5.m4v,6.0
2024-02-27 15:49:30.546214,1709045370.5462143,0.48828125,-33.69140625,-30.2734375,-37.59765625,1.0,1.0,1.0,1.0,5.m4v,6.0
2024-02-27 15:49:30.550120,1709045370.55012,-14.16015625,-34.66796875,-36.62109375,-38.0859375,1.0,1.0,1.0,1.0,5.m4v,6.0
2024-02-27 15:49:30.554025,1709045370.5540252,-41.015625,-38.0859375,-41.015625,-43.45703125,1.0,1.0,1.0,1.0,5.m4v,6.0
2024-02-27 15:49:30.557930,1709045370.5579305,-48.828125,-37.109375,-42.48046875,-45.41015625,1.0,1.0,1.0,1.0,5.m4v,6.0
2024-02-27 15:49:30.561836,1709045370.561836,-18.06640625,-33.69140625,-43.45703125,-34.1796875,1.0,1.0,1.0,1.0,5.m4v,6.0
2024-02-27 15:49:30.565741,1709045370.5657413,-5.37109375,-32.71484375,-41.9921875,-38.57421875,1.0,1.0,1.0,1.0,5.m4v,6.0
2024-02-27 15:49:30.569647,1709045370.5696466,-18.06640625,-30.2734375,-39.0625,-48.33984375,1.0,1.0,1.0,1.0,5.m4v,6.0
2024-02-27 15:49:30.573552,1709045370.573552,-27.83203125,-36.1328125,-35.15625,-49.31640625,1.0,1.0,1.0,1.0,5.m4v,6.0
2024-02-27 15:49:30.577457,1709045370.5774574,-51.26953125,-35.64453125,-35.64453125,-48.828125,1.0,1.0,1.0,1.0,5.m4v,6.0
2024-02-27 15:49:30.581363,1709045370.5813627,-44.43359375,-34.66796875,-38.0859375,-40.52734375,1.0,1.0,1.0,1.0,5.m4v,6.0
2024-02-27 15:49:30.585268,1709045370.5852685,-11.71875,-38.57421875,-38.57421875,-36.62109375,1.0,1.0,1.0,1.0,5.m4v,6.0
2024-02-27 15:49:30.589181,1709045370.589181,-9.27734375,-41.015625,-43.9453125,-37.109375,1.0,1.0,1.0,1.0,5.m4v,6.0
2024-02-27 15:49:30.593086,1709045370.5930862,-35.64453125,-39.0625,-41.50390625,-42.96875,1.0,1.0,1.0,1.0,5.m4v,6.0
2024-02-27 15:49:30.596992,1709045370.5969918,-75.1953125,-36.62109375,-41.9921875,-62.01171875,1.0,1.0,1.0,1.0,5.m4v,6.0
2024-02-27 15:49:30.600897,1709045370.600897,-66.40625,-40.0390625,-45.41015625,-63.4765625,1.0,1.0,1.0,1.0,5.m4v,6.0
2024-02-27 15:49:30.604802,1709045370.6048024,-26.3671875,-43.9453125,-40.52734375,-60.546875,1.0,1.0,1.0,1.0,5.m4v,6.0
2024-02-27 15:49:30.608708,1709045370.608708,-11.71875,-37.59765625,-39.0625,-56.15234375,1.0,1.0,1.0,1.0,5.m4v,6.0
2024-02-27 15:49:30.612613,1709045370.6126132,-30.76171875,-34.1796875,-41.50390625,-61.5234375,1.0,1.0,1.0,1.0,5.m4v,6.0
2024-02-27 15:49:30.616518,1709045370.6165185,-57.12890625,-38.57421875,-41.015625,-68.359375,1.0,1.0,1.0,1.0,5.m4v,6.0
2024-02-27 15:49:30.620424,1709045370.620424,-60.05859375,-32.2265625,-38.57421875,-48.33984375,1.0,1.0,1.0,1.0,5.m4v,6.0
2024-02-27 15:49:30.624329,1709045370.624329,-24.90234375,-24.90234375,-34.66796875,-29.296875,1.0,1.0,1.0,1.0,5.m4v,6.0
2024-02-27 15:49:30.628235,1709045370.6282346,-0.48828125,-32.71484375,-29.296875,-38.0859375,1.0,1.0,1.0,1.0,5.m4v,6.0
2024-02-27 15:49:30.632140,1709045370.6321402,-11.71875,-35.64453125,-34.66796875,-41.50390625,1.0,1.0,1.0,1.0,5.m4v,6.0
2024-02-27 15:49:30.636053,1709045370.6360528,-37.59765625,-33.69140625,-40.0390625,-37.59765625,1.0,1.0,1.0,1.0,5.m4v,6.0
2024-02-27 15:49:30.639958,1709045370.639958,-38.57421875,-29.296875,-38.0859375,-34.66796875,1.0,1.0,1.0,1.0,5.m4v,6.0
2024-02-27 15:49:30.643864,1709045370.6438637,-9.27734375,-26.85546875,-34.66796875,-32.2265625,1.0,1.0,1.0,1.0,5.m4v,6.0
2024-02-27 15:49:30.647769,1709045370.647769,-1.46484375,-29.78515625,-30.76171875,-34.66796875,1.0,1.0,1.0,1.0,5.m4v,6.0
2024-02-27 15:49:30.651674,1709045370.6516745,-23.4375,-33.69140625,-33.69140625,-46.38671875,1.0,1.0,1.0,1.0,5.m4v,6.0
2024-02-27 15:49:30.655580,1709045370.6555798,-50.29296875,-35.64453125,-39.55078125,-55.17578125,1.0,1.0,1.0,1.0,5.m4v,6.0
2024-02-27 15:49:30.659485,1709045370.659485,-60.05859375,-40.52734375,-42.96875,-52.734375,1.0,1.0,1.0,1.0,5.m4v,6.0
2024-02-27 15:49:30.663390,1709045370.6633904,-49.31640625,-39.55078125,-43.9453125,-41.50390625,1.0,1.0,1.0,1.0,5.m4v,6.0
2024-02-27 15:49:30.667296,1709045370.667296,-36.1328125,-31.25,-38.0859375,-43.45703125,1.0,1.0,1.0,1.0,5.m4v,6.0
2024-02-27 15:49:30.671201,1709045370.6712012,-41.50390625,-38.57421875,-36.62109375,-56.15234375,1.0,1.0,1.0,1.0,5.m4v,6.0
2024-02-27 15:49:30.675107,1709045370.6751063,-57.6171875,-41.50390625,-31.73828125,-53.7109375,1.0,1.0,1.0,1.0,5.m4v,6.0
2024-02-27 15:49:30.679012,1709045370.679012,-54.19921875,-39.55078125,-31.73828125,-49.31640625,1.0,1.0,1.0,1.0,5.m4v,6.0
2024-02-27 15:49:30.682923,1709045370.6829233,-25.87890625,-36.1328125,-35.64453125,-44.43359375,1.0,1.0,1.0,1.0,5.m4v,6.0
2024-02-27 15:49:30.686829,1709045370.6868286,-11.71875,-28.80859375,-34.1796875,-44.921875,1.0,1.0,1.0,1.0,5.m4v,6.0
2024-02-27 15:49:30.690734,1709045370.690734,-20.99609375,-25.390625,-35.64453125,-54.6875,1.0,1.0,1.0,1.0,5.m4v,6.0
2024-02-27 15:49:30.694639,1709045370.6946394,-48.33984375,-35.64453125,-37.109375,-58.59375,1.0,1.0,1.0,1.0,5.m4v,6.0
2024-02-27 15:49:30.698545,1709045370.6985447,-69.82421875,-43.9453125,-37.59765625,-53.22265625,1.0,1.0,1.0,1.0,5.m4v,6.0
2024-02-27 15:49:30.702450,1709045370.70245,-31.25,-34.1796875,-38.57421875,-41.015625,1.0,1.0,1.0,1.0,5.m4v,6.0
2024-02-27 15:49:30.706356,1709045370.7063556,-5.37109375,-25.390625,-42.48046875,-35.15625,1.0,1.0,1.0,1.0,5.m4v,6.0
2024-02-27 15:49:30.710261,1709045370.7102609,-35.64453125,-29.296875,-44.43359375,-42.96875,1.0,1.0,1.0,1.0,5.m4v,6.0
2024-02-27 15:49:30.714166,1709045370.7141662,-61.5234375,-32.71484375,-41.50390625,-48.828125,1.0,1.0,1.0,1.0,5.m4v,6.0
2024-02-27 15:49:30.718072,1709045370.7180717,-71.2890625,-31.73828125,-39.55078125,-52.734375,1.0,1.0,1.0,1.0,5.m4v,6.0
2024-02-27 15:49:30.721977,1709045370.721977,-37.109375,-36.1328125,-41.015625,-49.31640625,1.0,1.0,1.0,1.0,5.m4v,6.0
2024-02-27 15:49:30.725883,1709045370.7258823,-0.9765625,-37.109375,-34.66796875,-43.9453125,1.0,1.0,1.0,1.0,5.m4v,6.0
2024-02-27 15:49:30.729793,1709045370.7297933,-9.27734375,-33.69140625,-28.80859375,-47.8515625,1.0,1.0,1.0,1.0,5.m4v,6.0
2024-02-27 15:49:30.733699,1709045370.7336988,-38.57421875,-31.25,-34.1796875,-55.17578125,1.0,1.0,1.0,1.0,5.m4v,6.0
2024-02-27 15:49:30.737604,1709045370.737604,-60.05859375,-33.69140625,-41.50390625,-53.22265625,1.0,1.0,1.0,1.0,5.m4v,6.0
2024-02-27 15:49:30.741509,1709045370.7415094,-41.9921875,-35.15625,-41.015625,-44.43359375,1.0,1.0,1.0,1.0,5.m4v,6.0
2024-02-27 15:49:30.745415,1709045370.745415,-12.6953125,-28.80859375,-30.76171875,-43.9453125,1.0,1.0,1.0,1.0,5.m4v,6.0
2024-02-27 15:49:30.749320,1709045370.7493205,0.48828125,-23.92578125,-27.34375,-41.9921875,1.0,1.0,1.0,1.0,5.m4v,6.0
2024-02-27 15:49:30.753226,1709045370.7532258,-31.73828125,-33.69140625,-39.0625,-47.36328125,1.0,1.0,1.0,1.0,5.m4v,6.0
2024-02-27 15:49:30.757131,1709045370.757131,-73.2421875,-36.62109375,-43.45703125,-55.6640625,1.0,1.0,1.0,1.0,5.m4v,6.0
2024-02-27 15:49:30.761036,1709045370.7610364,-47.36328125,-33.203125,-39.0625,-50.29296875,1.0,1.0,1.0,1.0,5.m4v,6.0
2024-02-27 15:49:30.764942,1709045370.764942,-18.5546875,-39.0625,-37.59765625,-45.41015625,1.0,1.0,1.0,1.0,5.m4v,6.0
2024-02-27 15:49:30.768847,1709045370.7688472,-26.3671875,-40.0390625,-42.96875,-55.6640625,1.0,1.0,1.0,1.0,5.m4v,6.0
2024-02-27 15:49:30.772753,1709045370.7727523,-51.7578125,-41.015625,-40.0390625,-60.546875,1.0,1.0,1.0,1.0,5.m4v,6.0
2024-02-27 15:49:30.776663,1709045370.7766633,-74.21875,-41.015625,-34.66796875,-54.19921875,1.0,1.0,1.0,1.0,5.m4v,6.0
2024-02-27 15:49:30.780569,1709045370.7805686,-51.7578125,-36.62109375,-32.71484375,-49.31640625,1.0,1.0,1.0,1.0,5.m4v,6.0
2024-02-27 15:49:30.784474,1709045370.784474,-17.08984375,-35.15625,-30.76171875,-45.41015625,1.0,1.0,1.0,1.0,5.m4v,6.0
2024-02-27 15:49:30.788379,1709045370.7883794,-15.625,-36.62109375,-32.71484375,-55.17578125,1.0,1.0,1.0,1.0,5.m4v,6.0
2024-02-27 15:49:30.792285,1709045370.7922847,-26.3671875,-31.25,-35.15625,-61.5234375,1.0,1.0,1.0,1.0,5.m4v,6.0
2024-02-27 15:49:30.796190,1709045370.79619,-48.33984375,-29.78515625,-32.71484375,-55.17578125,1.0,1.0,1.0,1.0,5.m4v,6.0
2024-02-27 15:49:30.800096,1709045370.8000956,-45.41015625,-26.3671875,-25.87890625,-41.50390625,1.0,1.0,1.0,1.0,5.m4v,6.0
2024-02-27 15:49:30.804001,1709045370.8040009,-31.73828125,-30.76171875,-28.3203125,-38.0859375,1.0,1.0,1.0,1.0,5.m4v,6.0
2024-02-27 15:49:30.807906,1709045370.8079064,-22.4609375,-35.64453125,-32.2265625,-42.96875,1.0,1.0,1.0,1.0,5.m4v,6.0
2024-02-27 15:49:30.811812,1709045370.8118117,-28.80859375,-37.59765625,-32.71484375,-44.921875,1.0,1.0,1.0,1.0,5.m4v,6.0
2024-02-27 15:49:30.815717,1709045370.815717,-57.6171875,-36.1328125,-32.2265625,-43.45703125,1.0,1.0,1.0,1.0,5.m4v,6.0
2024-02-27 15:49:30.819623,1709045370.8196225,-62.5,-31.73828125,-32.2265625,-42.96875,1.0,1.0,1.0,1.0,5.m4v,6.0
2024-02-27 15:49:30.823537,1709045370.8235369,-28.80859375,-29.78515625,-33.69140625,-31.25,1.0,1.0,1.0,1.0,5.m4v,6.0
2024-02-27 15:49:30.827442,1709045370.8274422,-15.13671875,-33.69140625,-32.71484375,-27.83203125,1.0,1.0,1.0,1.0,5.m4v,6.0
2024-02-27 15:49:30.831347,1709045370.8313477,-30.2734375,-34.66796875,-24.4140625,-32.2265625,1.0,1.0,1.0,1.0,5.m4v,6.0
2024-02-27 15:49:30.835253,1709045370.835253,-61.5234375,-32.2265625,-26.85546875,-37.59765625,1.0,1.0,1.0,1.0,5.m4v,6.0
2024-02-27 15:49:30.839158,1709045370.8391583,-59.5703125,-34.1796875,-33.69140625,-32.2265625,1.0,1.0,1.0,1.0,5.m4v,6.0
2024-02-27 15:49:30.843064,1709045370.8430636,-29.296875,-36.62109375,-35.64453125,-24.90234375,1.0,1.0,1.0,1.0,5.m4v,6.0
2024-02-27 15:49:30.846969,1709045370.8469691,-21.484375,-38.57421875,-36.62109375,-37.109375,1.0,1.0,1.0,1.0,5.m4v,6.0
2024-02-27 15:49:30.850874,1709045370.8508744,-22.4609375,-33.203125,-29.78515625,-41.015625,1.0,1.0,1.0,1.0,5.m4v,6.0
2024-02-27 15:49:30.854780,1709045370.8547795,-41.50390625,-36.62109375,-31.25,-36.1328125,1.0,1.0,1.0,1.0,5.m4v,6.0
2024-02-27 15:49:30.858685,1709045370.8586853,-46.875,-43.45703125,-32.71484375,-35.64453125,1.0,1.0,1.0,1.0,5.m4v,6.0
2024-02-27 15:49:30.862591,1709045370.8625906,-18.5546875,-38.0859375,-21.97265625,-29.296875,1.0,1.0,1.0,1.0,5.m4v,6.0
2024-02-27 15:49:30.866496,1709045370.866496,-6.8359375,-34.66796875,-20.5078125,-32.2265625,1.0,1.0,1.0,1.0,5.m4v,6.0
2024-02-27 15:49:30.870410,1709045370.8704104,-16.11328125,-33.203125,-26.3671875,-38.0859375,1.0,1.0,1.0,1.0,5.m4v,6.0
2024-02-27 15:49:30.874316,1709045370.8743155,-36.62109375,-28.80859375,-32.2265625,-32.2265625,1.0,1.0,1.0,1.0,5.m4v,6.0
2024-02-27 15:49:30.878221,1709045370.8782213,-53.22265625,-33.69140625,-37.59765625,-27.83203125,1.0,1.0,1.0,1.0,5.m4v,6.0
2024-02-27 15:49:30.882127,1709045370.8821266,-35.15625,-35.64453125,-40.0390625,-28.80859375,1.0,1.0,1.0,1.0,5.m4v,6.0
2024-02-27 15:49:30.886032,1709045370.886032,-18.5546875,-33.69140625,-38.0859375,-32.2265625,1.0,1.0,1.0,1.0,5.m4v,6.0
2024-02-27 15:49:30.889937,1709045370.8899374,-28.3203125,-37.59765625,-33.69140625,-27.83203125,1.0,1.0,1.0,1.0,5.m4v,6.0
2024-02-27 15:49:30.893843,1709045370.8938427,-38.0859375,-35.64453125,-35.64453125,-24.4140625,1.0,1.0,1.0,1.0,5.m4v,6.0
2024-02-27 15:49:30.897748,1709045370.8977482,-41.50390625,-28.3203125,-33.203125,-23.4375,1.0,1.0,1.0,1.0,5.m4v,6.0
2024-02-27 15:49:30.901654,1709045370.9016535,-26.85546875,-25.390625,-30.76171875,-22.4609375,1.0,1.0,1.0,1.0,5.m4v,6.0
2024-02-27 15:49:30.905559,1709045370.9055588,-7.8125,-24.90234375,-31.25,-28.80859375,1.0,1.0,1.0,1.0,5.m4v,6.0
2024-02-27 15:49:30.909464,1709045370.9094644,-2.9296875,-26.3671875,-27.83203125,-30.2734375,1.0,1.0,1.0,1.0,5.m4v,6.0
2024-02-27 15:49:30.913370,1709045370.9133697,-29.296875,-31.25,-32.2265625,-33.69140625,1.0,1.0,1.0,1.0,5.m4v,6.0
2024-02-27 15:49:30.917283,1709045370.9172828,-62.01171875,-31.73828125,-35.64453125,-41.015625,1.0,1.0,1.0,1.0,5.m4v,6.0
2024-02-27 15:49:30.921188,1709045370.9211884,-55.17578125,-27.34375,-34.66796875,-39.55078125,1.0,1.0,1.0,1.0,5.m4v,6.0
2024-02-27 15:49:30.925094,1709045370.9250937,-18.5546875,-23.92578125,-38.0859375,-37.109375,1.0,1.0,1.0,1.0,5.m4v,6.0
2024-02-27 15:49:30.928999,1709045370.928999,2.44140625,-24.90234375,-39.0625,-40.0390625,1.0,1.0,1.0,1.0,5.m4v,6.0
2024-02-27 15:49:30.932904,1709045370.9329045,-8.7890625,-26.85546875,-32.2265625,-35.64453125,1.0,1.0,1.0,1.0,5.m4v,6.0
2024-02-27 15:49:30.936810,1709045370.9368098,-47.8515625,-31.25,-33.69140625,-35.64453125,1.0,1.0,1.0,1.0,5.m4v,6.0
2024-02-27 15:49:31.386007,1709045371.3860068,-8.7890625,-34.1796875,-39.55078125,-49.31640625,1.0,1.0,1.0,1.0,5.m4v,6.0
2024-02-27 15:49:31.389912,1709045371.389912,-13.671875,-34.66796875,-38.0859375,-54.6875,1.0,1.0,1.0,1.0,5.m4v,6.0
2024-02-27 15:49:31.393818,1709045371.3938177,-42.48046875,-35.64453125,-32.71484375,-53.22265625,1.0,1.0,1.0,1.0,5.m4v,6.0
2024-02-27 15:49:31.397723,1709045371.397723,-51.7578125,-36.62109375,-36.1328125,-46.38671875,1.0,1.0,1.0,1.0,5.m4v,6.0
2024-02-27 15:49:31.401628,1709045371.4016285,-27.34375,-36.62109375,-41.9921875,-35.64453125,1.0,1.0,1.0,1.0,5.m4v,6.0
2024-02-27 15:49:31.405534,1709045371.4055338,1.46484375,-30.2734375,-40.0390625,-37.59765625,1.0,1.0,1.0,1.0,5.m4v,6.0
2024-02-27 15:49:31.409439,1709045371.409439,-7.8125,-26.3671875,-38.57421875,-47.8515625,1.0,1.0,1.0,1.0,5.m4v,6.0
2024-02-27 15:49:31.413345,1709045371.4133446,-39.55078125,-28.80859375,-42.96875,-52.734375,1.0,1.0,1.0,1.0,5.m4v,6.0
2024-02-27 15:49:31.417250,1709045371.41725,-57.6171875,-24.90234375,-39.55078125,-60.05859375,1.0,1.0,1.0,1.0,5.m4v,6.0
2024-02-27 15:49:31.421155,1709045371.4211552,-42.48046875,-30.2734375,-33.69140625,-51.26953125,1.0,1.0,1.0,1.0,5.m4v,6.0
2024-02-27 15:49:31.425061,1709045371.4250607,-20.5078125,-36.1328125,-34.66796875,-42.48046875,1.0,1.0,1.0,1.0,5.m4v,6.0
2024-02-27 15:49:31.428966,1709045371.428966,-28.3203125,-31.25,-34.66796875,-50.78125,1.0,1.0,1.0,1.0,5.m4v,6.0
2024-02-27 15:49:31.432878,1709045371.4328778,-41.50390625,-32.2265625,-27.34375,-43.45703125,1.0,1.0,1.0,1.0,5.m4v,6.0
2024-02-27 15:49:31.436783,1709045371.436783,-48.33984375,-31.25,-22.4609375,-35.15625,1.0,1.0,1.0,1.0,5.m4v,6.0
2024-02-27 15:49:31.440688,1709045371.4406884,-45.41015625,-28.3203125,-29.296875,-40.52734375,1.0,1.0,1.0,1.0,5.m4v,6.0
2024-02-27 15:49:31.444594,1709045371.444594,-23.92578125,-25.390625,-30.76171875,-36.62109375,1.0,1.0,1.0,1.0,5.m4v,6.0
2024-02-27 15:49:31.448499,1709045371.4484992,-5.859375,-22.94921875,-20.01953125,-36.1328125,1.0,1.0,1.0,1.0,5.m4v,6.0
2024-02-27 15:49:31.452404,1709045371.4524045,-12.20703125,-23.92578125,-18.5546875,-39.55078125,1.0,1.0,1.0,1.0,5.m4v,6.0
2024-02-27 15:49:31.456310,1709045371.45631,-57.6171875,-29.296875,-32.71484375,-51.26953125,1.0,1.0,1.0,1.0,5.m4v,6.0
2024-02-27 15:49:31.460215,1709045371.460215,-64.94140625,-30.2734375,-36.62109375,-48.33984375,1.0,1.0,1.0,1.0,5.m4v,6.0
2024-02-27 15:49:31.464121,1709045371.4641206,-14.6484375,-31.25,-33.203125,-37.109375,1.0,1.0,1.0,1.0,5.m4v,6.0
2024-02-27 15:49:31.468026,1709045371.4680262,-2.44140625,-36.62109375,-35.64453125,-44.921875,1.0,1.0,1.0,1.0,5.m4v,6.0
2024-02-27 15:49:31.471931,1709045371.4719317,-14.16015625,-33.203125,-30.76171875,-60.05859375,1.0,1.0,1.0,1.0,5.m4v,6.0
2024-02-27 15:49:31.475837,1709045371.4758368,-36.1328125,-29.78515625,-34.1796875,-50.78125,1.0,1.0,1.0,1.0,5.m4v,6.0
2024-02-27 15:49:31.479748,1709045371.4797482,-56.640625,-33.69140625,-40.0390625,-47.8515625,1.0,1.0,1.0,1.0,5.m4v,6.0
2024-02-27 15:49:31.483654,1709045371.4836538,-23.4375,-36.1328125,-31.25,-51.26953125,1.0,1.0,1.0,1.0,5.m4v,6.0
2024-02-27 15:49:31.487559,1709045371.487559,-5.37109375,-38.57421875,-31.73828125,-57.12890625,1.0,1.0,1.0,1.0,5.m4v,6.0
2024-02-27 15:49:31.491464,1709045371.4914644,-23.4375,-35.15625,-34.1796875,-60.546875,1.0,1.0,1.0,1.0,5.m4v,6.0
2024-02-27 15:49:31.495370,1709045371.49537,-57.12890625,-30.76171875,-34.66796875,-57.6171875,1.0,1.0,1.0,1.0,5.m4v,6.0
2024-02-27 15:49:31.499275,1709045371.4992752,-52.734375,-26.3671875,-34.66796875,-54.6875,1.0,1.0,1.0,1.0,5.m4v,6.0
2024-02-27 15:49:31.503181,1709045371.5031807,-22.4609375,-30.76171875,-24.90234375,-44.43359375,1.0,1.0,1.0,1.0,5.m4v,6.0
2024-02-27 15:49:31.507086,1709045371.507086,-28.80859375,-33.203125,-26.85546875,-52.734375,1.0,1.0,1.0,1.0,5.m4v,6.0
2024-02-27 15:49:31.510991,1709045371.510991,-49.31640625,-31.73828125,-40.0390625,-60.546875,1.0,1.0,1.0,1.0,5.m4v,6.0
2024-02-27 15:49:31.514897,1709045371.5148969,-69.82421875,-36.1328125,-43.9453125,-56.640625,1.0,1.0,1.0,1.0,5.m4v,6.0
2024-02-27 15:49:31.518802,1709045371.5188022,-66.40625,-33.203125,-39.0625,-55.6640625,1.0,1.0,1.0,1.0,5.m4v,6.0
2024-02-27 15:49:31.522707,1709045371.5227077,-38.57421875,-32.2265625,-32.2265625,-47.8515625,1.0,1.0,1.0,1.0,5.m4v,6.0
2024-02-27 15:49:31.526623,1709045371.5266223,-25.87890625,-34.1796875,-31.25,-51.26953125,1.0,1.0,1.0,1.0,5.m4v,6.0
2024-02-27 15:49:31.530528,1709045371.5305278,-28.3203125,-28.80859375,-31.73828125,-61.03515625,1.0,1.0,1.0,1.0,5.m4v,6.0
2024-02-27 15:49:31.534433,1709045371.5344334,-43.9453125,-29.78515625,-30.2734375,-57.6171875,1.0,1.0,1.0,1.0,5.m4v,6.0
2024-02-27 15:49:31.538339,1709045371.538339,-55.6640625,-32.71484375,-30.76171875,-51.26953125,1.0,1.0,1.0,1.0,5.m4v,6.0
2024-02-27 15:49:31.542244,1709045371.542244,-28.80859375,-29.296875,-30.2734375,-44.43359375,1.0,1.0,1.0,1.0,5.m4v,6.0
2024-02-27 15:49:31.546149,1709045371.5461495,6.34765625,-28.3203125,-27.34375,-39.0625,1.0,1.0,1.0,1.0,5.m4v,6.0
2024-02-27 15:49:31.550055,1709045371.5500548,0.0,-31.73828125,-34.1796875,-45.8984375,1.0,1.0,1.0,1.0,5.m4v,6.0
2024-02-27 15:49:31.553960,1709045371.55396,-34.1796875,-31.25,-42.48046875,-53.7109375,1.0,1.0,1.0,1.0,5.m4v,6.0
2024-02-27 15:49:31.557866,1709045371.5578656,-62.5,-37.109375,-45.41015625,-60.05859375,1.0,1.0,1.0,1.0,5.m4v,6.0
2024-02-27 15:49:31.561771,1709045371.561771,-36.62109375,-34.66796875,-42.96875,-54.6875,1.0,1.0,1.0,1.0,5.m4v,6.0
2024-02-27 15:49:31.565676,1709045371.5656762,-6.8359375,-28.3203125,-43.45703125,-48.828125,1.0,1.0,1.0,1.0,5.m4v,6.0
2024-02-27 15:49:31.569582,1709045371.5695815,-2.9296875,-27.34375,-35.15625,-52.24609375,1.0,1.0,1.0,1.0,5.m4v,6.0
2024-02-27 15:49:31.573496,1709045371.573496,-19.04296875,-33.203125,-31.25,-51.7578125,1.0,1.0,1.0,1.0,5.m4v,6.0
2024-02-27 15:49:31.577402,1709045371.5774016,-34.1796875,-30.76171875,-33.203125,-45.41015625,1.0,1.0,1.0,1.0,5.m4v,6.0
2024-02-27 15:49:31.581307,1709045371.581307,-17.08984375,-26.3671875,-31.73828125,-39.0625,1.0,1.0,1.0,1.0,5.m4v,6.0
2024-02-27 15:49:31.585212,1709045371.5852122,5.37109375,-25.87890625,-33.69140625,-34.1796875,1.0,1.0,1.0,1.0,5.m4v,6.0
2024-02-27 15:49:31.589118,1709045371.5891178,-2.9296875,-33.203125,-37.109375,-47.36328125,1.0,1.0,1.0,1.0,5.m4v,6.0
2024-02-27 15:49:31.593023,1709045371.593023,-36.1328125,-39.0625,-41.50390625,-60.05859375,1.0,1.0,1.0,1.0,5.m4v,6.0
2024-02-27 15:49:31.596928,1709045371.5969284,-51.7578125,-41.50390625,-45.41015625,-53.7109375,1.0,1.0,1.0,1.0,5.m4v,6.0
2024-02-27 15:49:31.600834,1709045371.600834,-31.25,-46.38671875,-47.36328125,-45.41015625,1.0,1.0,1.0,1.0,5.m4v,6.0
2024-02-27 15:49:31.604739,1709045371.6047392,-12.6953125,-41.50390625,-40.0390625,-52.24609375,1.0,1.0,1.0,1.0,5.m4v,6.0
2024-02-27 15:49:31.608644,1709045371.6086445,-6.8359375,-36.62109375,-27.34375,-44.921875,1.0,1.0,1.0,1.0,5.m4v,6.0
2024-02-27 15:49:31.612550,1709045371.61255,-36.1328125,-36.62109375,-23.92578125,-41.9921875,1.0,1.0,1.0,1.0,5.m4v,6.0
2024-02-27 15:49:31.616455,1709045371.6164553,-62.01171875,-37.109375,-23.4375,-43.45703125,1.0,1.0,1.0,1.0,5.m4v,6.0
2024-02-27 15:49:31.620369,1709045371.6203692,-41.50390625,-31.73828125,-24.90234375,-35.15625,1.0,1.0,1.0,1.0,5.m4v,6.0
2024-02-27 15:49:31.624274,1709045371.6242745,-15.625,-28.80859375,-21.484375,-35.64453125,1.0,1.0,1.0,1.0,5.m4v,6.0
2024-02-27 15:49:31.628180,1709045371.62818,-5.859375,-29.78515625,-22.94921875,-45.41015625,1.0,1.0,1.0,1.0,5.m4v,6.0
2024-02-27 15:49:31.632085,1709045371.632085,-27.34375,-37.109375,-33.69140625,-58.10546875,1.0,1.0,1.0,1.0,5.m4v,6.0
2024-02-27 15:49:31.635991,1709045371.6359906,-65.4296875,-33.203125,-39.55078125,-54.6875,1.0,1.0,1.0,1.0,5.m4v,6.0
2024-02-27 15:49:31.639896,1709045371.6398962,-53.22265625,-25.87890625,-39.0625,-50.78125,1.0,1.0,1.0,1.0,5.m4v,6.0
2024-02-27 15:49:31.643801,1709045371.6438017,-15.625,-35.15625,-40.52734375,-50.29296875,1.0,1.0,1.0,1.0,5.m4v,6.0
2024-02-27 15:49:31.647707,1709045371.6477067,-11.71875,-41.50390625,-42.48046875,-51.7578125,1.0,1.0,1.0,1.0,5.m4v,6.0
2024-02-27 15:49:31.651612,1709045371.6516123,-25.87890625,-37.109375,-41.50390625,-51.7578125,1.0,1.0,1.0,1.0,5.m4v,6.0
2024-02-27 15:49:31.655518,1709045371.6555176,-60.05859375,-32.71484375,-44.43359375,-56.15234375,1.0,1.0,1.0,1.0,5.m4v,6.0
2024-02-27 15:49:31.659423,1709045371.6594229,-69.3359375,-32.2265625,-39.0625,-54.19921875,1.0,1.0,1.0,1.0,5.m4v,6.0
2024-02-27 15:49:31.663328,1709045371.6633284,-36.1328125,-30.76171875,-32.71484375,-43.9453125,1.0,1.0,1.0,1.0,5.m4v,6.0
2024-02-27 15:49:31.667242,1709045371.667242,-35.64453125,-29.78515625,-37.109375,-50.29296875,1.0,1.0,1.0,1.0,5.m4v,6.0
2024-02-27 15:49:31.671148,1709045371.6711476,-56.15234375,-38.57421875,-40.0390625,-60.546875,1.0,1.0,1.0,1.0,5.m4v,6.0
2024-02-27 15:49:31.675053,1709045371.675053,-66.89453125,-40.0390625,-44.921875,-60.05859375,1.0,1.0,1.0,1.0,5.m4v,6.0
2024-02-27 15:49:31.678958,1709045371.6789584,-67.87109375,-35.64453125,-44.921875,-59.08203125,1.0,1.0,1.0,1.0,5.m4v,6.0
2024-02-27 15:49:31.682864,1709045371.6828637,-44.921875,-34.66796875,-34.1796875,-57.6171875,1.0,1.0,1.0,1.0,5.m4v,6.0
2024-02-27 15:49:31.686769,1709045371.686769,-8.7890625,-33.69140625,-34.1796875,-54.6875,1.0,1.0,1.0,1.0,5.m4v,6.0
2024-02-27 15:49:31.690675,1709045371.6906743,0.0,-35.15625,-37.59765625,-51.7578125,1.0,1.0,1.0,1.0,5.m4v,6.0
2024-02-27 15:49:31.694580,1709045371.6945798,-31.25,-30.2734375,-41.50390625,-52.734375,1.0,1.0,1.0,1.0,5.m4v,6.0
2024-02-27 15:49:31.698485,1709045371.6984851,-41.015625,-31.25,-45.41015625,-40.0390625,1.0,1.0,1.0,1.0,5.m4v,6.0
2024-02-27 15:49:31.702391,1709045371.702391,-13.18359375,-28.80859375,-35.64453125,-31.25,1.0,1.0,1.0,1.0,5.m4v,6.0
2024-02-27 15:49:31.706296,1709045371.706296,8.7890625,-30.2734375,-27.83203125,-34.66796875,1.0,1.0,1.0,1.0,5.m4v,6.0
2024-02-27 15:49:31.710201,1709045371.7102013,4.8828125,-33.69140625,-33.203125,-33.69140625,1.0,1.0,1.0,1.0,5.m4v,6.0
2024-02-27 15:49:31.714115,1709045371.714115,-16.11328125,-26.3671875,-37.109375,-36.62109375,1.0,1.0,1.0,1.0,5.m4v,6.0
2024-02-27 15:49:31.718020,1709045371.71802,-35.15625,-26.3671875,-32.71484375,-29.296875,1.0,1.0,1.0,1.0,5.m4v,6.0
2024-02-27 15:49:31.721925,1709045371.7219255,-41.9921875,-27.34375,-28.80859375,-30.76171875,1.0,1.0,1.0,1.0,5.m4v,6.0
2024-02-27 15:49:31.725831,1709045371.7258308,-44.43359375,-35.15625,-33.203125,-48.33984375,1.0,1.0,1.0,1.0,5.m4v,6.0
2024-02-27 15:49:31.729736,1709045371.729736,-39.0625,-46.875,-36.62109375,-52.734375,1.0,1.0,1.0,1.0,5.m4v,6.0
2024-02-27 15:49:31.733642,1709045371.7336416,-36.1328125,-42.48046875,-35.15625,-53.7109375,1.0,1.0,1.0,1.0,5.m4v,6.0
2024-02-27 15:49:31.737547,1709045371.737547,-48.828125,-35.15625,-36.62109375,-53.22265625,1.0,1.0,1.0,1.0,5.m4v,6.0
2024-02-27 15:49:31.741452,1709045371.7414522,-41.015625,-29.78515625,-40.0390625,-48.828125,1.0,1.0,1.0,1.0,5.m4v,6.0
2024-02-27 15:49:31.745358,1709045371.7453578,-12.6953125,-31.25,-36.62109375,-39.55078125,1.0,1.0,1.0,1.0,5.m4v,6.0
2024-02-27 15:49:31.749263,1709045371.749263,-5.859375,-37.109375,-39.55078125,-38.0859375,1.0,1.0,1.0,1.0,5.m4v,6.0
2024-02-27 15:49:31.753169,1709045371.7531686,-29.296875,-38.0859375,-41.50390625,-45.8984375,1.0,1.0,1.0,1.0,5.m4v,6.0
2024-02-27 15:49:31.757074,1709045371.757074,-58.59375,-33.69140625,-32.2265625,-43.45703125,1.0,1.0,1.0,1.0,5.m4v,6.0
2024-02-27 15:49:31.760986,1709045371.760986,-54.19921875,-30.2734375,-27.83203125,-28.80859375,1.0,1.0,1.0,1.0,5.m4v,6.0
2024-02-27 15:49:31.764891,1709045371.7648914,-13.671875,-33.203125,-27.34375,-26.85546875,1.0,1.0,1.0,1.0,5.m4v,6.0
2024-02-27 15:49:31.768797,1709045371.7687967,-21.97265625,-32.2265625,-22.4609375,-39.55078125,1.0,1.0,1.0,1.0,5.m4v,6.0
2024-02-27 15:49:31.772702,1709045371.7727022,-58.59375,-38.57421875,-26.3671875,-48.828125,1.0,1.0,1.0,1.0,5.m4v,6.0
2024-02-27 15:49:31.776608,1709045371.7766075,-69.3359375,-37.109375,-30.76171875,-46.38671875,1.0,1.0,1.0,1.0,5.m4v,6.0
2024-02-27 15:49:31.780513,1709045371.780513,-45.8984375,-31.25,-31.25,-37.109375,1.0,1.0,1.0,1.0,5.m4v,6.0
