Timestamp,Timestamp_UNIX,TP9,AF7,AF8,TP10,Valence,Arousal,Dominace,Viewed,Video,Participant
2024-02-28 09:14:41.002671,1709108081.002671,-322.75390625,-42.48046875,-33.69140625,-1000.0,0.0,-1.0,0.0,0.0,1.m4v,7.0
2024-02-28 09:14:41.006576,1709108081.0065763,-213.37890625,-35.15625,-31.73828125,-941.40625,0.0,-1.0,0.0,0.0,1.m4v,7.0
2024-02-28 09:14:41.010482,1709108081.0104816,-479.98046875,-35.15625,-42.96875,-1000.0,0.0,-1.0,0.0,0.0,1.m4v,7.0
2024-02-28 09:14:41.014387,1709108081.014387,-45.41015625,-32.71484375,-43.9453125,-555.6640625,0.0,-1.0,0.0,0.0,1.m4v,7.0
2024-02-28 09:14:41.018292,1709108081.0182922,877.9296875,-25.87890625,-29.78515625,809.5703125,0.0,-1.0,0.0,0.0,1.m4v,7.0
2024-02-28 09:14:41.022208,1709108081.0222085,999.51171875,-26.85546875,-29.78515625,999.51171875,0.0,-1.0,0.0,0.0,1.m4v,7.0
2024-02-28 09:14:41.026114,1709108081.0261135,905.76171875,-34.1796875,-33.69140625,916.015625,0.0,-1.0,0.0,0.0,1.m4v,7.0
2024-02-28 09:14:41.030019,1709108081.030019,463.8671875,-45.8984375,-28.3203125,985.3515625,0.0,-1.0,0.0,0.0,1.m4v,7.0
2024-02-28 09:14:41.033924,1709108081.0339243,109.375,-50.78125,-24.90234375,976.07421875,0.0,-1.0,0.0,0.0,1.m4v,7.0
2024-02-28 09:14:41.037830,1709108081.0378296,183.10546875,-51.26953125,-28.3203125,916.50390625,0.0,-1.0,0.0,0.0,1.m4v,7.0
2024-02-28 09:14:41.041735,1709108081.041735,322.265625,-47.36328125,-33.203125,999.51171875,0.0,-1.0,0.0,0.0,1.m4v,7.0
2024-02-28 09:14:41.045640,1709108081.0456402,-123.046875,-42.96875,-40.0390625,522.94921875,0.0,-1.0,0.0,0.0,1.m4v,7.0
2024-02-28 09:14:41.049546,1709108081.0495455,-917.96875,-37.59765625,-45.41015625,-815.91796875,0.0,-1.0,0.0,0.0,1.m4v,7.0
2024-02-28 09:14:41.053451,1709108081.0534508,-1000.0,-39.0625,-42.96875,-1000.0,0.0,-1.0,0.0,0.0,1.m4v,7.0
2024-02-28 09:14:41.057356,1709108081.057356,-918.9453125,-50.78125,-32.71484375,-947.265625,0.0,-1.0,0.0,0.0,1.m4v,7.0
2024-02-28 09:14:41.061261,1709108081.0612614,-509.27734375,-47.8515625,-20.01953125,-1000.0,0.0,-1.0,0.0,0.0,1.m4v,7.0
2024-02-28 09:14:41.065167,1709108081.0651667,-130.859375,-34.1796875,-34.1796875,-950.68359375,0.0,-1.0,0.0,0.0,1.m4v,7.0
2024-02-28 09:14:41.069082,1709108081.0690825,-373.53515625,-26.85546875,-57.12890625,-1000.0,0.0,-1.0,0.0,0.0,1.m4v,7.0
2024-02-28 09:14:41.072988,1709108081.0729876,-365.234375,-28.80859375,-56.15234375,-941.40625,0.0,-1.0,0.0,0.0,1.m4v,7.0
2024-02-28 09:14:41.076893,1709108081.0768929,673.33984375,-32.2265625,-42.96875,467.7734375,0.0,-1.0,0.0,0.0,1.m4v,7.0
2024-02-28 09:14:41.080798,1709108081.080798,999.51171875,-41.015625,-36.1328125,999.51171875,0.0,-1.0,0.0,0.0,1.m4v,7.0
2024-02-28 09:14:41.084703,1709108081.0847034,936.03515625,-49.8046875,-29.78515625,897.4609375,0.0,-1.0,0.0,0.0,1.m4v,7.0
2024-02-28 09:14:41.088609,1709108081.0886087,773.92578125,-34.1796875,-24.4140625,983.3984375,0.0,-1.0,0.0,0.0,1.m4v,7.0
2024-02-28 09:14:41.092514,1709108081.092514,265.13671875,-19.53125,-28.80859375,979.00390625,0.0,-1.0,0.0,0.0,1.m4v,7.0
2024-02-28 09:14:41.096419,1709108081.096419,112.3046875,-23.4375,-28.3203125,912.109375,0.0,-1.0,0.0,0.0,1.m4v,7.0
2024-02-28 09:14:41.100325,1709108081.1003246,278.3203125,-27.83203125,-31.25,999.51171875,0.0,-1.0,0.0,0.0,1.m4v,7.0
2024-02-28 09:14:41.104230,1709108081.10423,-74.70703125,-33.69140625,-47.36328125,566.40625,0.0,-1.0,0.0,0.0,1.m4v,7.0
2024-02-28 09:14:41.108135,1709108081.1081352,-893.06640625,-33.69140625,-40.52734375,-803.22265625,0.0,-1.0,0.0,0.0,1.m4v,7.0
2024-02-28 09:14:41.112041,1709108081.1120403,-1000.0,-35.64453125,-36.62109375,-1000.0,0.0,-1.0,0.0,0.0,1.m4v,7.0
2024-02-28 09:14:41.115956,1709108081.1159558,-964.84375,-34.66796875,-45.41015625,-944.3359375,0.0,-1.0,0.0,0.0,1.m4v,7.0
2024-02-28 09:14:41.119861,1709108081.1198611,-652.34375,-40.52734375,-43.45703125,-1000.0,0.0,-1.0,0.0,0.0,1.m4v,7.0
2024-02-28 09:14:41.123766,1709108081.1237664,-139.16015625,-49.8046875,-39.55078125,-958.984375,0.0,-1.0,0.0,0.0,1.m4v,7.0
2024-02-28 09:14:41.127672,1709108081.1276717,-208.0078125,-52.24609375,-35.64453125,-1000.0,0.0,-1.0,0.0,0.0,1.m4v,7.0
2024-02-28 09:14:41.131577,1709108081.131577,-385.25390625,-48.828125,-32.2265625,-992.1875,0.0,-1.0,0.0,0.0,1.m4v,7.0
2024-02-28 09:14:41.135482,1709108081.1354823,541.015625,-37.59765625,-31.25,355.95703125,0.0,-1.0,0.0,0.0,1.m4v,7.0
2024-02-28 09:14:41.139388,1709108081.1393876,999.51171875,-23.92578125,-18.5546875,999.51171875,0.0,-1.0,0.0,0.0,1.m4v,7.0
2024-02-28 09:14:41.143293,1709108081.143293,940.91796875,-31.25,-25.390625,901.85546875,0.0,-1.0,0.0,0.0,1.m4v,7.0
2024-02-28 09:14:41.147198,1709108081.1471982,756.8359375,-41.9921875,-37.59765625,977.05078125,0.0,-1.0,0.0,0.0,1.m4v,7.0
2024-02-28 09:14:41.151103,1709108081.1511035,188.4765625,-31.73828125,-27.34375,979.98046875,0.0,-1.0,0.0,0.0,1.m4v,7.0
2024-02-28 09:14:41.155009,1709108081.1550088,79.1015625,-28.3203125,-19.04296875,934.08203125,0.0,-1.0,0.0,0.0,1.m4v,7.0
2024-02-28 09:14:41.158914,1709108081.158914,288.0859375,-30.2734375,-29.296875,976.07421875,0.0,-1.0,0.0,0.0,1.m4v,7.0
2024-02-28 09:14:41.162828,1709108081.1628284,250.9765625,-28.3203125,-23.92578125,975.5859375,0.0,-1.0,0.0,0.0,1.m4v,7.0
2024-02-28 09:14:41.166734,1709108081.1667335,-619.62890625,-41.015625,-20.01953125,-306.640625,0.0,-1.0,0.0,0.0,1.m4v,7.0
2024-02-28 09:14:41.170639,1709108081.170639,-1000.0,-46.875,-25.87890625,-1000.0,0.0,-1.0,0.0,0.0,1.m4v,7.0
2024-02-28 09:14:41.174544,1709108081.1745443,-962.890625,-45.8984375,-36.1328125,-941.40625,0.0,-1.0,0.0,0.0,1.m4v,7.0
2024-02-28 09:14:41.178450,1709108081.1784496,-787.109375,-45.8984375,-44.921875,-1000.0,0.0,-1.0,0.0,0.0,1.m4v,7.0
2024-02-28 09:14:41.182355,1709108081.182355,-338.8671875,-31.25,-40.52734375,-1000.0,0.0,-1.0,0.0,0.0,1.m4v,7.0
2024-02-28 09:14:41.186260,1709108081.1862602,-178.7109375,-26.85546875,-32.2265625,-940.91796875,0.0,-1.0,0.0,0.0,1.m4v,7.0
2024-02-28 09:14:41.190166,1709108081.1901655,-430.17578125,-41.9921875,-40.0390625,-1000.0,0.0,-1.0,0.0,0.0,1.m4v,7.0
2024-02-28 09:14:41.194071,1709108081.1940708,-226.5625,-47.8515625,-52.734375,-853.02734375,0.0,-1.0,0.0,0.0,1.m4v,7.0
2024-02-28 09:14:41.197976,1709108081.197976,764.6484375,-30.2734375,-37.109375,599.609375,0.0,-1.0,0.0,0.0,1.m4v,7.0
2024-02-28 09:14:41.201881,1709108081.2018814,999.51171875,-19.04296875,-36.62109375,999.51171875,0.0,-1.0,0.0,0.0,1.m4v,7.0
2024-02-28 09:14:41.205787,1709108081.2057867,936.03515625,-22.4609375,-41.50390625,897.4609375,0.0,-1.0,0.0,0.0,1.m4v,7.0
2024-02-28 09:14:41.209701,1709108081.2097008,649.90234375,-25.390625,-35.64453125,996.09375,0.0,-1.0,0.0,0.0,1.m4v,7.0
2024-02-28 09:14:41.213606,1709108081.213606,244.62890625,-31.25,-31.73828125,932.6171875,0.0,-1.0,0.0,0.0,1.m4v,7.0
2024-02-28 09:14:41.217511,1709108081.2175114,345.703125,-37.59765625,-30.76171875,978.515625,0.0,-1.0,0.0,0.0,1.m4v,7.0
2024-02-28 09:14:41.221417,1709108081.2214167,307.6171875,-41.015625,-34.1796875,972.65625,0.0,-1.0,0.0,0.0,1.m4v,7.0
2024-02-28 09:14:41.225322,1709108081.225322,-607.91015625,-47.8515625,-38.0859375,-333.0078125,0.0,-1.0,0.0,0.0,1.m4v,7.0
2024-02-28 09:14:41.229227,1709108081.2292273,-1000.0,-46.38671875,-41.9921875,-1000.0,0.0,-1.0,0.0,0.0,1.m4v,7.0
2024-02-28 09:14:41.233133,1709108081.2331326,-964.84375,-40.0390625,-30.2734375,-937.98828125,0.0,-1.0,0.0,0.0,1.m4v,7.0
2024-02-28 09:14:41.237038,1709108081.237038,-835.9375,-44.921875,-36.1328125,-1000.0,0.0,-1.0,0.0,0.0,1.m4v,7.0
2024-02-28 09:14:41.240943,1709108081.2409432,-355.46875,-46.875,-52.24609375,-1000.0,0.0,-1.0,0.0,0.0,1.m4v,7.0
2024-02-28 09:14:41.244848,1709108081.2448485,-48.33984375,-46.38671875,-50.29296875,-943.84765625,0.0,-1.0,0.0,0.0,1.m4v,7.0
2024-02-28 09:14:41.248754,1709108081.2487538,-344.23828125,-46.875,-41.9921875,-1000.0,0.0,-1.0,0.0,0.0,1.m4v,7.0
2024-02-28 09:14:41.252659,1709108081.252659,-310.546875,-31.73828125,-30.76171875,-891.6015625,0.0,-1.0,0.0,0.0,1.m4v,7.0
2024-02-28 09:14:41.256578,1709108081.2565775,718.75,-28.80859375,-32.71484375,555.6640625,0.0,-1.0,0.0,0.0,1.m4v,7.0
2024-02-28 09:14:41.260483,1709108081.260483,999.51171875,-44.43359375,-36.62109375,999.51171875,0.0,-1.0,0.0,0.0,1.m4v,7.0
2024-02-28 09:14:41.264388,1709108081.2643883,937.98828125,-49.8046875,-34.66796875,895.99609375,0.0,-1.0,0.0,0.0,1.m4v,7.0
2024-02-28 09:14:41.268294,1709108081.2682936,681.640625,-45.41015625,-35.15625,985.3515625,0.0,-1.0,0.0,0.0,1.m4v,7.0
2024-02-28 09:14:41.272199,1709108081.272199,132.8125,-40.52734375,-47.36328125,982.421875,0.0,-1.0,0.0,0.0,1.m4v,7.0
2024-02-28 09:14:41.276104,1709108081.2761042,138.671875,-37.59765625,-41.9921875,909.66796875,0.0,-1.0,0.0,0.0,1.m4v,7.0
2024-02-28 09:14:41.280010,1709108081.2800095,422.8515625,-33.203125,-34.1796875,999.51171875,0.0,-1.0,0.0,0.0,1.m4v,7.0
2024-02-28 09:14:41.283915,1709108081.2839148,63.4765625,-36.1328125,-37.109375,671.38671875,0.0,-1.0,0.0,0.0,1.m4v,7.0
2024-02-28 09:14:41.287820,1709108081.28782,-851.07421875,-37.59765625,-30.76171875,-743.1640625,0.0,-1.0,0.0,0.0,1.m4v,7.0
2024-02-28 09:14:41.291725,1709108081.2917254,-1000.0,-38.0859375,-33.69140625,-1000.0,0.0,-1.0,0.0,0.0,1.m4v,7.0
2024-02-28 09:14:41.295631,1709108081.2956307,-955.078125,-43.9453125,-43.9453125,-937.5,0.0,-1.0,0.0,0.0,1.m4v,7.0
2024-02-28 09:14:41.299536,1709108081.299536,-632.32421875,-42.96875,-41.50390625,-1000.0,0.0,-1.0,0.0,0.0,1.m4v,7.0
2024-02-28 09:14:41.303449,1709108081.3034494,-170.41015625,-35.15625,-23.92578125,-994.140625,0.0,-1.0,0.0,0.0,1.m4v,7.0
2024-02-28 09:14:41.307355,1709108081.3073547,-217.7734375,-27.34375,-21.484375,-958.49609375,0.0,-1.0,0.0,0.0,1.m4v,7.0
2024-02-28 09:14:41.311260,1709108081.31126,-463.37890625,-25.390625,-32.2265625,-1000.0,0.0,-1.0,0.0,0.0,1.m4v,7.0
2024-02-28 09:14:41.315165,1709108081.3151653,222.16796875,-35.15625,-32.71484375,-218.75,0.0,-1.0,0.0,0.0,1.m4v,7.0
2024-02-28 09:14:41.319071,1709108081.3190706,972.65625,-39.0625,-26.85546875,963.37890625,0.0,-1.0,0.0,0.0,1.m4v,7.0
2024-02-28 09:14:41.322976,1709108081.322976,971.6796875,-43.9453125,-28.3203125,972.16796875,0.0,-1.0,0.0,0.0,1.m4v,7.0
2024-02-28 09:14:41.326881,1709108081.3268812,895.01953125,-51.7578125,-43.45703125,938.96484375,0.0,-1.0,0.0,0.0,1.m4v,7.0
2024-02-28 09:14:41.330786,1709108081.3307865,376.46484375,-38.0859375,-56.640625,994.62890625,0.0,-1.0,0.0,0.0,1.m4v,7.0
2024-02-28 09:14:41.334692,1709108081.3346918,51.26953125,-23.92578125,-47.36328125,908.69140625,0.0,-1.0,0.0,0.0,1.m4v,7.0
2024-02-28 09:14:41.338597,1709108081.338597,303.22265625,-20.99609375,-32.71484375,999.51171875,0.0,-1.0,0.0,0.0,1.m4v,7.0
2024-02-28 09:14:41.342502,1709108081.3425024,148.4375,-28.80859375,-29.78515625,782.71484375,0.0,-1.0,0.0,0.0,1.m4v,7.0
2024-02-28 09:14:41.346408,1709108081.3464077,-795.8984375,-41.50390625,-25.87890625,-668.9453125,0.0,-1.0,0.0,0.0,1.m4v,7.0
2024-02-28 09:14:41.350320,1709108081.3503196,-1000.0,-35.15625,-24.4140625,-1000.0,0.0,-1.0,0.0,0.0,1.m4v,7.0
2024-02-28 09:14:41.354225,1709108081.354225,-961.9140625,-29.296875,-32.71484375,-930.17578125,0.0,-1.0,0.0,0.0,1.m4v,7.0
2024-02-28 09:14:41.358130,1709108081.3581302,-786.1328125,-45.41015625,-48.33984375,-1000.0,0.0,-1.0,0.0,0.0,1.m4v,7.0
2024-02-28 09:14:41.362036,1709108081.3620355,-257.8125,-44.43359375,-36.62109375,-1000.0,0.0,-1.0,0.0,0.0,1.m4v,7.0
2024-02-28 09:14:41.365941,1709108081.3659408,-68.84765625,-38.0859375,-45.41015625,-940.91796875,0.0,-1.0,0.0,0.0,1.m4v,7.0
2024-02-28 09:14:41.369846,1709108081.369846,-359.86328125,-40.0390625,-62.98828125,-1000.0,0.0,-1.0,0.0,0.0,1.m4v,7.0
2024-02-28 09:14:41.373751,1709108081.3737514,-62.98828125,-45.41015625,-51.26953125,-641.11328125,0.0,-1.0,0.0,0.0,1.m4v,7.0
2024-02-28 09:14:41.377657,1709108081.3776567,838.8671875,-39.0625,-32.2265625,751.46484375,0.0,-1.0,0.0,0.0,1.m4v,7.0
2024-02-28 09:14:41.381562,1709108081.381562,999.51171875,-25.87890625,-17.08984375,999.51171875,0.0,-1.0,0.0,0.0,1.m4v,7.0
2024-02-28 09:14:41.385467,1709108081.3854673,927.24609375,-22.94921875,-15.625,911.1328125,0.0,-1.0,0.0,0.0,1.m4v,7.0
2024-02-28 09:14:41.389373,1709108081.3893726,494.140625,-24.90234375,-32.2265625,986.81640625,0.0,-1.0,0.0,0.0,1.m4v,7.0
2024-02-28 09:14:41.393278,1709108081.393278,80.078125,-28.3203125,-44.43359375,969.23828125,0.0,-1.0,0.0,0.0,1.m4v,7.0
2024-02-28 09:14:41.397189,1709108081.3971894,215.33203125,-37.59765625,-35.15625,921.38671875,0.0,-1.0,0.0,0.0,1.m4v,7.0
2024-02-28 09:14:41.401095,1709108081.401095,388.671875,-48.33984375,-28.3203125,999.51171875,0.0,-1.0,0.0,0.0,1.m4v,7.0
2024-02-28 09:14:41.405000,1709108081.405,-192.3828125,-44.921875,-28.80859375,309.5703125,0.0,-1.0,0.0,0.0,1.m4v,7.0
2024-02-28 09:14:41.408905,1709108081.4089053,-965.8203125,-32.71484375,-37.109375,-940.91796875,0.0,-1.0,0.0,0.0,1.m4v,7.0
2024-02-28 09:14:41.412811,1709108081.4128106,-1000.0,-33.203125,-32.71484375,-1000.0,0.0,-1.0,0.0,0.0,1.m4v,7.0
2024-02-28 09:14:41.416716,1709108081.416716,-882.8125,-44.921875,-29.78515625,-960.9375,0.0,-1.0,0.0,0.0,1.m4v,7.0
2024-02-28 09:14:41.420621,1709108081.4206212,-425.29296875,-50.29296875,-45.8984375,-1000.0,0.0,-1.0,0.0,0.0,1.m4v,7.0
2024-02-28 09:14:41.424526,1709108081.4245265,-175.78125,-42.96875,-39.0625,-983.88671875,0.0,-1.0,0.0,0.0,1.m4v,7.0
2024-02-28 09:14:41.428432,1709108081.4284315,-374.51171875,-43.45703125,-31.73828125,-973.6328125,0.0,-1.0,0.0,0.0,1.m4v,7.0
2024-02-28 09:14:41.432337,1709108081.432337,-477.05078125,-53.22265625,-42.96875,-1000.0,0.0,-1.0,0.0,0.0,1.m4v,7.0
2024-02-28 09:14:41.436242,1709108081.4362423,382.8125,-39.55078125,-45.8984375,-30.76171875,0.0,-1.0,0.0,0.0,1.m4v,7.0
2024-02-28 09:14:41.440148,1709108081.4401476,999.51171875,-25.87890625,-37.109375,999.51171875,0.0,-1.0,0.0,0.0,1.m4v,7.0
2024-02-28 09:14:41.444063,1709108081.4440634,961.9140625,-22.94921875,-30.76171875,946.2890625,0.0,-1.0,0.0,0.0,1.m4v,7.0
2024-02-28 09:14:41.447969,1709108081.4479687,844.7265625,-23.4375,-19.53125,952.1484375,0.0,-1.0,0.0,0.0,1.m4v,7.0
2024-02-28 09:14:41.451874,1709108081.451874,315.4296875,-20.99609375,-27.34375,990.72265625,0.0,-1.0,0.0,0.0,1.m4v,7.0
2024-02-28 09:14:41.455779,1709108081.4557793,116.2109375,-19.53125,-39.55078125,909.1796875,0.0,-1.0,0.0,0.0,1.m4v,7.0
2024-02-28 09:14:41.459685,1709108081.4596846,342.7734375,-31.25,-31.25,999.51171875,0.0,-1.0,0.0,0.0,1.m4v,7.0
2024-02-28 09:14:41.463590,1709108081.46359,159.1796875,-41.9921875,-32.71484375,753.90625,0.0,-1.0,0.0,0.0,1.m4v,7.0
2024-02-28 09:14:41.912785,1709108081.912785,109.86328125,-29.296875,-46.38671875,979.98046875,0.0,-1.0,0.0,0.0,1.m4v,7.0
2024-02-28 09:14:41.916690,1709108081.9166903,64.94140625,-30.76171875,-39.55078125,911.62109375,0.0,-1.0,0.0,0.0,1.m4v,7.0
2024-02-28 09:14:41.920596,1709108081.9205956,393.06640625,-34.1796875,-27.83203125,999.51171875,0.0,-1.0,0.0,0.0,1.m4v,7.0
2024-02-28 09:14:41.924501,1709108081.924501,73.73046875,-45.41015625,-33.69140625,611.328125,0.0,-1.0,0.0,0.0,1.m4v,7.0
2024-02-28 09:14:41.928406,1709108081.9284062,-854.00390625,-50.78125,-37.109375,-775.87890625,0.0,-1.0,0.0,0.0,1.m4v,7.0
2024-02-28 09:14:41.932312,1709108081.9323115,-1000.0,-42.48046875,-36.1328125,-1000.0,0.0,-1.0,0.0,0.0,1.m4v,7.0
2024-02-28 09:14:41.936217,1709108081.9362168,-941.89453125,-48.828125,-45.41015625,-941.40625,0.0,-1.0,0.0,0.0,1.m4v,7.0
2024-02-28 09:14:41.940122,1709108081.940122,-622.0703125,-63.4765625,-63.96484375,-1000.0,0.0,-1.0,0.0,0.0,1.m4v,7.0
2024-02-28 09:14:41.944027,1709108081.9440274,-235.83984375,-38.0859375,-56.15234375,-966.30859375,0.0,-1.0,0.0,0.0,1.m4v,7.0
2024-02-28 09:14:41.947933,1709108081.9479327,-286.62109375,-18.06640625,-37.59765625,-1000.0,0.0,-1.0,0.0,0.0,1.m4v,7.0
2024-02-28 09:14:41.951838,1709108081.951838,-320.80078125,-34.66796875,-28.3203125,-1000.0,0.0,-1.0,0.0,0.0,1.m4v,7.0
2024-02-28 09:14:41.955743,1709108081.9557433,558.10546875,-37.109375,-21.97265625,258.30078125,0.0,-1.0,0.0,0.0,1.m4v,7.0
2024-02-28 09:14:41.959658,1709108081.9596577,999.51171875,-26.3671875,-25.87890625,999.51171875,0.0,-1.0,0.0,0.0,1.m4v,7.0
2024-02-28 09:14:41.963563,1709108081.963563,945.3125,-20.99609375,-28.3203125,910.64453125,0.0,-1.0,0.0,0.0,1.m4v,7.0
2024-02-28 09:14:41.967468,1709108081.9674685,796.875,-23.4375,-32.71484375,971.19140625,0.0,-1.0,0.0,0.0,1.m4v,7.0
2024-02-28 09:14:41.971374,1709108081.9713736,234.86328125,-31.73828125,-48.828125,982.421875,0.0,-1.0,0.0,0.0,1.m4v,7.0
2024-02-28 09:14:41.975279,1709108081.9752789,66.89453125,-41.015625,-51.7578125,928.7109375,0.0,-1.0,0.0,0.0,1.m4v,7.0
2024-02-28 09:14:41.979184,1709108081.9791842,349.12109375,-39.0625,-39.0625,985.83984375,0.0,-1.0,0.0,0.0,1.m4v,7.0
2024-02-28 09:14:41.983089,1709108081.9830894,301.7578125,-36.62109375,-39.0625,955.078125,0.0,-1.0,0.0,0.0,1.m4v,7.0
2024-02-28 09:14:41.986995,1709108081.9869947,-668.45703125,-54.19921875,-47.8515625,-384.27734375,0.0,-1.0,0.0,0.0,1.m4v,7.0
2024-02-28 09:14:41.990900,1709108081.9909,-1000.0,-53.7109375,-62.01171875,-1000.0,0.0,-1.0,0.0,0.0,1.m4v,7.0
2024-02-28 09:14:41.994805,1709108081.994805,-961.42578125,-42.96875,-56.15234375,-934.08203125,0.0,-1.0,0.0,0.0,1.m4v,7.0
2024-02-28 09:14:41.998711,1709108081.9987106,-858.3984375,-42.48046875,-54.19921875,-1000.0,0.0,-1.0,0.0,0.0,1.m4v,7.0
2024-02-28 09:14:42.002616,1709108082.002616,-431.15234375,-33.69140625,-51.26953125,-1000.0,0.0,-1.0,0.0,0.0,1.m4v,7.0
2024-02-28 09:14:42.006529,1709108082.006529,-267.08984375,-26.3671875,-39.55078125,-945.80078125,0.0,-1.0,0.0,0.0,1.m4v,7.0
2024-02-28 09:14:42.010435,1709108082.0104346,-462.40234375,-30.2734375,-36.1328125,-1000.0,0.0,-1.0,0.0,0.0,1.m4v,7.0
2024-02-28 09:14:42.014340,1709108082.01434,67.87109375,-40.0390625,-27.34375,-381.8359375,0.0,-1.0,0.0,0.0,1.m4v,7.0
2024-02-28 09:14:42.018245,1709108082.0182452,930.6640625,-36.62109375,-24.90234375,909.1796875,0.0,-1.0,0.0,0.0,1.m4v,7.0
2024-02-28 09:14:42.022151,1709108082.0221505,977.05078125,-35.64453125,-34.66796875,994.62890625,0.0,-1.0,0.0,0.0,1.m4v,7.0
2024-02-28 09:14:42.026056,1709108082.0260558,942.87109375,-40.52734375,-28.80859375,928.22265625,0.0,-1.0,0.0,0.0,1.m4v,7.0
2024-02-28 09:14:42.029961,1709108082.029961,551.7578125,-39.55078125,-26.85546875,986.81640625,0.0,-1.0,0.0,0.0,1.m4v,7.0
2024-02-28 09:14:42.033866,1709108082.0338664,71.77734375,-46.38671875,-38.57421875,954.1015625,0.0,-1.0,0.0,0.0,1.m4v,7.0
2024-02-28 09:14:42.037772,1709108082.0377717,126.46484375,-50.78125,-50.78125,942.3828125,0.0,-1.0,0.0,0.0,1.m4v,7.0
2024-02-28 09:14:42.041677,1709108082.041677,290.52734375,-39.55078125,-46.875,999.51171875,0.0,-1.0,0.0,0.0,1.m4v,7.0
2024-02-28 09:14:42.045582,1709108082.0455823,-394.04296875,-36.62109375,-39.55078125,13.671875,0.0,-1.0,0.0,0.0,1.m4v,7.0
2024-02-28 09:14:42.049488,1709108082.0494876,-1000.0,-44.921875,-35.64453125,-1000.0,0.0,-1.0,0.0,0.0,1.m4v,7.0
2024-02-28 09:14:42.053400,1709108082.0534005,-995.1171875,-56.15234375,-31.73828125,-979.00390625,0.0,-1.0,0.0,0.0,1.m4v,7.0
2024-02-28 09:14:42.057306,1709108082.0573056,-866.69921875,-43.45703125,-30.76171875,-981.4453125,0.0,-1.0,0.0,0.0,1.m4v,7.0
2024-02-28 09:14:42.061211,1709108082.0612109,-411.1328125,-35.64453125,-35.64453125,-1000.0,0.0,-1.0,0.0,0.0,1.m4v,7.0
2024-02-28 09:14:42.065116,1709108082.0651162,-168.45703125,-48.33984375,-35.64453125,-943.84765625,0.0,-1.0,0.0,0.0,1.m4v,7.0
2024-02-28 09:14:42.069021,1709108082.0690217,-412.109375,-41.50390625,-39.0625,-1000.0,0.0,-1.0,0.0,0.0,1.m4v,7.0
2024-02-28 09:14:42.072927,1709108082.0729268,-280.76171875,-31.73828125,-49.8046875,-895.99609375,0.0,-1.0,0.0,0.0,1.m4v,7.0
2024-02-28 09:14:42.076832,1709108082.076832,725.5859375,-24.90234375,-44.43359375,550.78125,0.0,-1.0,0.0,0.0,1.m4v,7.0
2024-02-28 09:14:42.080737,1709108082.0807374,999.51171875,-24.90234375,-35.15625,999.51171875,0.0,-1.0,0.0,0.0,1.m4v,7.0
2024-02-28 09:14:42.084643,1709108082.0846426,939.94140625,-30.2734375,-41.015625,895.99609375,0.0,-1.0,0.0,0.0,1.m4v,7.0
2024-02-28 09:14:42.088548,1709108082.088548,640.13671875,-38.57421875,-31.73828125,986.81640625,0.0,-1.0,0.0,0.0,1.m4v,7.0
2024-02-28 09:14:42.092453,1709108082.0924532,98.14453125,-40.52734375,-31.73828125,977.05078125,0.0,-1.0,0.0,0.0,1.m4v,7.0
2024-02-28 09:14:42.096359,1709108082.0963583,156.73828125,-31.73828125,-37.59765625,912.109375,0.0,-1.0,0.0,0.0,1.m4v,7.0
2024-02-28 09:14:42.100271,1709108082.1002707,405.76171875,-21.97265625,-31.73828125,999.51171875,0.0,-1.0,0.0,0.0,1.m4v,7.0
2024-02-28 09:14:42.104176,1709108082.104176,-21.484375,-29.296875,-45.41015625,502.9296875,0.0,-1.0,0.0,0.0,1.m4v,7.0
2024-02-28 09:14:42.108081,1709108082.108081,-889.6484375,-42.48046875,-51.7578125,-848.6328125,0.0,-1.0,0.0,0.0,1.m4v,7.0
2024-02-28 09:14:42.111987,1709108082.1119866,-1000.0,-48.828125,-36.1328125,-1000.0,0.0,-1.0,0.0,0.0,1.m4v,7.0
2024-02-28 09:14:42.115892,1709108082.115892,-947.265625,-48.828125,-22.4609375,-948.2421875,0.0,-1.0,0.0,0.0,1.m4v,7.0
2024-02-28 09:14:42.119797,1709108082.1197972,-496.09375,-41.50390625,-30.2734375,-1000.0,0.0,-1.0,0.0,0.0,1.m4v,7.0
2024-02-28 09:14:42.123703,1709108082.1237023,-118.65234375,-40.52734375,-58.10546875,-987.79296875,0.0,-1.0,0.0,0.0,1.m4v,7.0
2024-02-28 09:14:42.127608,1709108082.1276078,-339.84375,-41.9921875,-37.59765625,-966.796875,0.0,-1.0,0.0,0.0,1.m4v,7.0
2024-02-28 09:14:42.131513,1709108082.131513,-511.23046875,-40.0390625,-24.4140625,-1000.0,0.0,-1.0,0.0,0.0,1.m4v,7.0
2024-02-28 09:14:42.135418,1709108082.1354184,301.26953125,-30.76171875,-37.109375,-97.65625,0.0,-1.0,0.0,0.0,1.m4v,7.0
2024-02-28 09:14:42.139324,1709108082.1393237,996.58203125,-29.78515625,-31.25,999.51171875,0.0,-1.0,0.0,0.0,1.m4v,7.0
2024-02-28 09:14:42.143229,1709108082.143229,966.796875,-34.66796875,-33.203125,954.1015625,0.0,-1.0,0.0,0.0,1.m4v,7.0
2024-02-28 09:14:42.147141,1709108082.1471412,828.61328125,-38.57421875,-36.1328125,947.75390625,0.0,-1.0,0.0,0.0,1.m4v,7.0
2024-02-28 09:14:42.151047,1709108082.1510465,320.80078125,-42.96875,-43.9453125,984.86328125,0.0,-1.0,0.0,0.0,1.m4v,7.0
2024-02-28 09:14:42.154952,1709108082.1549518,133.7890625,-39.0625,-47.36328125,943.359375,0.0,-1.0,0.0,0.0,1.m4v,7.0
2024-02-28 09:14:42.158857,1709108082.158857,295.8984375,-41.015625,-40.0390625,959.9609375,0.0,-1.0,0.0,0.0,1.m4v,7.0
2024-02-28 09:14:42.162762,1709108082.1627624,259.765625,-48.33984375,-33.69140625,999.51171875,0.0,-1.0,0.0,0.0,1.m4v,7.0
2024-02-28 09:14:42.166668,1709108082.1666677,-570.80078125,-48.828125,-36.62109375,-159.66796875,0.0,-1.0,0.0,0.0,1.m4v,7.0
2024-02-28 09:14:42.170573,1709108082.170573,-1000.0,-44.43359375,-41.9921875,-1000.0,0.0,-1.0,0.0,0.0,1.m4v,7.0
2024-02-28 09:14:42.174478,1709108082.1744783,-979.4921875,-38.57421875,-33.69140625,-958.0078125,0.0,-1.0,0.0,0.0,1.m4v,7.0
2024-02-28 09:14:42.178384,1709108082.1783836,-881.8359375,-37.59765625,-28.3203125,-993.1640625,0.0,-1.0,0.0,0.0,1.m4v,7.0
2024-02-28 09:14:42.182289,1709108082.182289,-420.8984375,-35.64453125,-36.1328125,-1000.0,0.0,-1.0,0.0,0.0,1.m4v,7.0
2024-02-28 09:14:42.186194,1709108082.1861942,-200.68359375,-41.50390625,-45.41015625,-938.96484375,0.0,-1.0,0.0,0.0,1.m4v,7.0
2024-02-28 09:14:42.190099,1709108082.1900997,-442.3828125,-50.78125,-41.015625,-1000.0,0.0,-1.0,0.0,0.0,1.m4v,7.0
2024-02-28 09:14:42.194015,1709108082.194015,-173.828125,-46.875,-37.109375,-738.28125,0.0,-1.0,0.0,0.0,1.m4v,7.0
2024-02-28 09:14:42.197920,1709108082.1979203,800.78125,-27.83203125,-35.64453125,692.87109375,0.0,-1.0,0.0,0.0,1.m4v,7.0
2024-02-28 09:14:42.201826,1709108082.2018256,999.51171875,-28.80859375,-24.4140625,999.51171875,0.0,-1.0,0.0,0.0,1.m4v,7.0
2024-02-28 09:14:42.205731,1709108082.205731,936.03515625,-27.83203125,-15.625,904.296875,0.0,-1.0,0.0,0.0,1.m4v,7.0
2024-02-28 09:14:42.209636,1709108082.2096362,597.16796875,-34.1796875,-26.85546875,990.234375,0.0,-1.0,0.0,0.0,1.m4v,7.0
2024-02-28 09:14:42.213542,1709108082.2135415,151.3671875,-53.22265625,-44.921875,957.03125,0.0,-1.0,0.0,0.0,1.m4v,7.0
2024-02-28 09:14:42.217447,1709108082.2174468,215.8203125,-43.45703125,-39.55078125,937.5,0.0,-1.0,0.0,0.0,1.m4v,7.0
2024-02-28 09:14:42.221352,1709108082.221352,307.12890625,-40.0390625,-34.66796875,999.51171875,0.0,-1.0,0.0,0.0,1.m4v,7.0
2024-02-28 09:14:42.225257,1709108082.2252574,-398.4375,-37.109375,-37.109375,59.5703125,0.0,-1.0,0.0,0.0,1.m4v,7.0
2024-02-28 09:14:42.229163,1709108082.2291627,-1000.0,-34.66796875,-37.59765625,-1000.0,0.0,-1.0,0.0,0.0,1.m4v,7.0
2024-02-28 09:14:42.233068,1709108082.233068,-991.69921875,-35.15625,-27.83203125,-984.375,0.0,-1.0,0.0,0.0,1.m4v,7.0
2024-02-28 09:14:42.236973,1709108082.2369733,-937.5,-28.3203125,-38.0859375,-978.515625,0.0,-1.0,0.0,0.0,1.m4v,7.0
2024-02-28 09:14:42.240889,1709108082.2408886,-507.8125,-26.3671875,-48.33984375,-1000.0,0.0,-1.0,0.0,0.0,1.m4v,7.0
2024-02-28 09:14:42.244794,1709108082.244794,-192.87109375,-24.90234375,-28.80859375,-1000.0,0.0,-1.0,0.0,0.0,1.m4v,7.0
2024-02-28 09:14:42.248699,1709108082.2486992,-272.4609375,-24.90234375,-22.94921875,-952.1484375,0.0,-1.0,0.0,0.0,1.m4v,7.0
2024-02-28 09:14:42.252604,1709108082.2526045,-384.27734375,-31.25,-34.1796875,-1000.0,0.0,-1.0,0.0,0.0,1.m4v,7.0
2024-02-28 09:14:42.256510,1709108082.2565098,250.9765625,-38.57421875,-31.25,-440.91796875,0.0,-1.0,0.0,0.0,1.m4v,7.0
2024-02-28 09:14:42.260415,1709108082.260415,947.265625,-37.109375,-27.34375,839.35546875,0.0,-1.0,0.0,0.0,1.m4v,7.0
2024-02-28 09:14:42.264320,1709108082.2643204,987.3046875,-45.8984375,-30.76171875,999.51171875,0.0,-1.0,0.0,0.0,1.m4v,7.0
2024-02-28 09:14:42.268226,1709108082.2682257,834.9609375,-46.38671875,-26.85546875,929.6875,0.0,-1.0,0.0,0.0,1.m4v,7.0
2024-02-28 09:14:42.272131,1709108082.272131,351.07421875,-31.25,-41.015625,963.37890625,0.0,-1.0,0.0,0.0,1.m4v,7.0
2024-02-28 09:14:42.276036,1709108082.2760365,230.95703125,-29.78515625,-51.26953125,944.82421875,0.0,-1.0,0.0,0.0,1.m4v,7.0
2024-02-28 09:14:42.279942,1709108082.2799416,446.2890625,-44.921875,-42.48046875,999.51171875,0.0,-1.0,0.0,0.0,1.m4v,7.0
2024-02-28 09:14:42.283847,1709108082.2838469,-275.87890625,-44.921875,-34.1796875,-37.59765625,0.0,-1.0,0.0,0.0,1.m4v,7.0
2024-02-28 09:14:42.287766,1709108082.2877662,-1000.0,-27.34375,-26.85546875,-1000.0,0.0,-1.0,0.0,0.0,1.m4v,7.0
2024-02-28 09:14:42.291672,1709108082.2916715,-991.2109375,-26.85546875,-30.2734375,-970.21484375,0.0,-1.0,0.0,0.0,1.m4v,7.0
2024-02-28 09:14:42.295577,1709108082.2955768,-926.7578125,-28.80859375,-29.78515625,-985.3515625,0.0,-1.0,0.0,0.0,1.m4v,7.0
2024-02-28 09:14:42.299482,1709108082.299482,-473.6328125,-22.94921875,-26.3671875,-1000.0,0.0,-1.0,0.0,0.0,1.m4v,7.0
2024-02-28 09:14:42.303387,1709108082.3033874,-107.421875,-22.94921875,-34.1796875,-1000.0,0.0,-1.0,0.0,0.0,1.m4v,7.0
2024-02-28 09:14:42.307293,1709108082.3072927,-161.62109375,-31.25,-37.59765625,-941.40625,0.0,-1.0,0.0,0.0,1.m4v,7.0
2024-02-28 09:14:42.311198,1709108082.311198,-430.17578125,-41.015625,-29.78515625,-1000.0,0.0,-1.0,0.0,0.0,1.m4v,7.0
2024-02-28 09:14:42.315103,1709108082.3151033,-113.76953125,-50.78125,-34.66796875,-702.1484375,0.0,-1.0,0.0,0.0,1.m4v,7.0
2024-02-28 09:14:42.319009,1709108082.3190086,814.94140625,-44.921875,-50.78125,706.54296875,0.0,-1.0,0.0,0.0,1.m4v,7.0
2024-02-28 09:14:42.322914,1709108082.322914,999.51171875,-31.25,-40.0390625,999.51171875,0.0,-1.0,0.0,0.0,1.m4v,7.0
2024-02-28 09:14:42.326819,1709108082.3268192,900.87890625,-30.2734375,-29.296875,906.73828125,0.0,-1.0,0.0,0.0,1.m4v,7.0
2024-02-28 09:14:42.330724,1709108082.3307245,445.80078125,-43.45703125,-27.83203125,999.0234375,0.0,-1.0,0.0,0.0,1.m4v,7.0
2024-02-28 09:14:42.334638,1709108082.3346384,63.4765625,-51.26953125,-35.64453125,917.96875,0.0,-1.0,0.0,0.0,1.m4v,7.0
2024-02-28 09:14:42.338544,1709108082.3385437,223.6328125,-44.921875,-30.2734375,999.51171875,0.0,-1.0,0.0,0.0,1.m4v,7.0
2024-02-28 09:14:42.342449,1709108082.342449,149.4140625,-30.2734375,-33.203125,891.6015625,0.0,-1.0,0.0,0.0,1.m4v,7.0
2024-02-28 09:14:42.346354,1709108082.3463542,-732.91015625,-19.04296875,-41.50390625,-530.76171875,0.0,-1.0,0.0,0.0,1.m4v,7.0
2024-02-28 09:14:42.350260,1709108082.3502595,-1000.0,-32.71484375,-28.80859375,-1000.0,0.0,-1.0,0.0,0.0,1.m4v,7.0
2024-02-28 09:14:42.354165,1709108082.3541648,-961.9140625,-34.1796875,-22.94921875,-927.734375,0.0,-1.0,0.0,0.0,1.m4v,7.0
2024-02-28 09:14:42.358070,1709108082.35807,-752.44140625,-37.59765625,-17.578125,-1000.0,0.0,-1.0,0.0,0.0,1.m4v,7.0
2024-02-28 09:14:42.361975,1709108082.3619754,-322.75390625,-49.8046875,-31.25,-1000.0,0.0,-1.0,0.0,0.0,1.m4v,7.0
2024-02-28 09:14:42.365881,1709108082.3658807,-210.44921875,-41.015625,-45.41015625,-940.4296875,0.0,-1.0,0.0,0.0,1.m4v,7.0
2024-02-28 09:14:42.369786,1709108082.369786,-423.828125,-25.87890625,-35.15625,-1000.0,0.0,-1.0,0.0,0.0,1.m4v,7.0
2024-02-28 09:14:42.373691,1709108082.373691,6.8359375,-16.11328125,-27.34375,-498.046875,0.0,-1.0,0.0,0.0,1.m4v,7.0
2024-02-28 09:14:42.377597,1709108082.3775966,897.94921875,-18.06640625,-36.62109375,854.00390625,0.0,-1.0,0.0,0.0,1.m4v,7.0
2024-02-28 09:14:42.381511,1709108082.3815107,985.83984375,-32.2265625,-47.36328125,999.51171875,0.0,-1.0,0.0,0.0,1.m4v,7.0
2024-02-28 09:14:42.385416,1709108082.385416,948.2421875,-39.0625,-39.55078125,919.921875,0.0,-1.0,0.0,0.0,1.m4v,7.0
2024-02-28 09:14:42.389321,1709108082.389321,590.33203125,-33.69140625,-35.64453125,983.3984375,0.0,-1.0,0.0,0.0,1.m4v,7.0
2024-02-28 09:14:42.393227,1709108082.3932266,145.01953125,-33.203125,-35.64453125,983.88671875,0.0,-1.0,0.0,0.0,1.m4v,7.0
2024-02-28 09:14:42.397132,1709108082.397132,202.63671875,-34.66796875,-36.62109375,912.109375,0.0,-1.0,0.0,0.0,1.m4v,7.0
2024-02-28 09:14:42.401037,1709108082.4010372,378.90625,-39.0625,-38.0859375,999.51171875,0.0,-1.0,0.0,0.0,1.m4v,7.0
2024-02-28 09:14:42.404943,1709108082.4049425,74.21875,-55.6640625,-30.76171875,788.0859375,0.0,-1.0,0.0,0.0,1.m4v,7.0
2024-02-28 09:14:42.408848,1709108082.4088478,-817.87109375,-51.26953125,-40.0390625,-644.53125,0.0,-1.0,0.0,0.0,1.m4v,7.0
2024-02-28 09:14:42.412753,1709108082.412753,-1000.0,-39.0625,-52.734375,-1000.0,0.0,-1.0,0.0,0.0,1.m4v,7.0
2024-02-28 09:14:42.416658,1709108082.4166584,-963.8671875,-40.52734375,-41.50390625,-930.6640625,0.0,-1.0,0.0,0.0,1.m4v,7.0
2024-02-28 09:14:42.420564,1709108082.4205637,-672.8515625,-28.80859375,-33.203125,-1000.0,0.0,-1.0,0.0,0.0,1.m4v,7.0
2024-02-28 09:14:42.424469,1709108082.424469,-256.8359375,-20.99609375,-39.55078125,-957.03125,0.0,-1.0,0.0,0.0,1.m4v,7.0
2024-02-28 09:14:42.428382,1709108082.4283817,-362.3046875,-23.4375,-39.0625,-1000.0,0.0,-1.0,0.0,0.0,1.m4v,7.0
2024-02-28 09:14:42.432287,1709108082.432287,-381.34765625,-25.87890625,-44.921875,-980.46875,0.0,-1.0,0.0,0.0,1.m4v,7.0
2024-02-28 09:14:42.436192,1709108082.4361925,600.5859375,-40.0390625,-49.8046875,384.765625,0.0,-1.0,0.0,0.0,1.m4v,7.0
2024-02-28 09:14:42.440098,1709108082.4400976,999.51171875,-43.9453125,-51.7578125,999.51171875,0.0,-1.0,0.0,0.0,1.m4v,7.0
2024-02-28 09:14:42.444003,1709108082.4440029,932.12890625,-35.64453125,-41.9921875,900.390625,0.0,-1.0,0.0,0.0,1.m4v,7.0
2024-02-28 09:14:42.447908,1709108082.4479082,881.8359375,-38.57421875,-19.53125,979.00390625,0.0,-1.0,0.0,0.0,1.m4v,7.0
2024-02-28 09:14:42.451813,1709108082.4518137,382.8125,-45.41015625,-20.99609375,984.86328125,0.0,-1.0,0.0,0.0,1.m4v,7.0
2024-02-28 09:14:42.455719,1709108082.4557188,62.98828125,-37.109375,-44.43359375,909.1796875,0.0,-1.0,0.0,0.0,1.m4v,7.0
2024-02-28 09:14:42.459624,1709108082.459624,231.4453125,-29.78515625,-42.48046875,999.51171875,0.0,-1.0,0.0,0.0,1.m4v,7.0
2024-02-28 09:14:42.463529,1709108082.463529,49.8046875,-35.64453125,-28.3203125,746.58203125,0.0,-1.0,0.0,0.0,1.m4v,7.0
2024-02-28 09:14:42.467435,1709108082.4674346,-820.80078125,-42.48046875,-37.109375,-692.87109375,0.0,-1.0,0.0,0.0,1.m4v,7.0
2024-02-28 09:14:42.471340,1709108082.47134,-1000.0,-44.921875,-54.19921875,-1000.0,0.0,-1.0,0.0,0.0,1.m4v,7.0
2024-02-28 09:14:42.475252,1709108082.4752522,-958.49609375,-34.66796875,-46.38671875,-932.6171875,0.0,-1.0,0.0,0.0,1.m4v,7.0
2024-02-28 09:14:42.479157,1709108082.4791574,-680.17578125,-33.203125,-33.69140625,-1000.0,0.0,-1.0,0.0,0.0,1.m4v,7.0
2024-02-28 09:14:42.483063,1709108082.4830627,-196.2890625,-42.48046875,-41.015625,-963.37890625,0.0,-1.0,0.0,0.0,1.m4v,7.0
2024-02-28 09:14:42.486968,1709108082.486968,-208.984375,-39.55078125,-38.0859375,-1000.0,0.0,-1.0,0.0,0.0,1.m4v,7.0
2024-02-28 09:14:42.490873,1709108082.490873,-420.41015625,-42.96875,-33.203125,-1000.0,0.0,-1.0,0.0,0.0,1.m4v,7.0
2024-02-28 09:14:42.494779,1709108082.4947786,462.890625,-48.828125,-36.1328125,300.78125,0.0,-1.0,0.0,0.0,1.m4v,7.0
2024-02-28 09:14:42.943976,1709108082.9439764,98.14453125,-24.90234375,-33.69140625,853.515625,0.0,-1.0,0.0,0.0,1.m4v,7.0
2024-02-28 09:14:42.947882,1709108082.9478817,-787.59765625,-38.57421875,-23.92578125,-585.9375,0.0,-1.0,0.0,0.0,1.m4v,7.0
2024-02-28 09:14:42.951787,1709108082.951787,-1000.0,-43.9453125,-20.01953125,-1000.0,0.0,-1.0,0.0,0.0,1.m4v,7.0
2024-02-28 09:14:42.955692,1709108082.9556923,-963.37890625,-38.57421875,-24.4140625,-927.734375,0.0,-1.0,0.0,0.0,1.m4v,7.0
2024-02-28 09:14:42.959598,1709108082.9595976,-689.94140625,-33.203125,-37.109375,-1000.0,0.0,-1.0,0.0,0.0,1.m4v,7.0
2024-02-28 09:14:42.963503,1709108082.963503,-229.00390625,-39.0625,-41.015625,-985.3515625,0.0,-1.0,0.0,0.0,1.m4v,7.0
2024-02-28 09:14:42.967408,1709108082.9674082,-204.1015625,-54.6875,-47.36328125,-970.703125,0.0,-1.0,0.0,0.0,1.m4v,7.0
2024-02-28 09:14:42.971313,1709108082.9713137,-437.98828125,-41.9921875,-38.0859375,-1000.0,0.0,-1.0,0.0,0.0,1.m4v,7.0
2024-02-28 09:14:42.975219,1709108082.9752188,293.9453125,-32.2265625,-21.484375,-48.33984375,0.0,-1.0,0.0,0.0,1.m4v,7.0
2024-02-28 09:14:42.979124,1709108082.979124,999.51171875,-45.8984375,-26.85546875,999.51171875,0.0,-1.0,0.0,0.0,1.m4v,7.0
2024-02-28 09:14:42.983029,1709108082.9830294,957.03125,-36.1328125,-33.203125,947.265625,0.0,-1.0,0.0,0.0,1.m4v,7.0
2024-02-28 09:14:42.986935,1709108082.986935,916.015625,-17.08984375,-40.0390625,952.1484375,0.0,-1.0,0.0,0.0,1.m4v,7.0
2024-02-28 09:14:42.990850,1709108082.99085,370.60546875,-26.85546875,-42.96875,985.3515625,0.0,-1.0,0.0,0.0,1.m4v,7.0
2024-02-28 09:14:42.994755,1709108082.9947553,19.53125,-39.0625,-38.0859375,912.109375,0.0,-1.0,0.0,0.0,1.m4v,7.0
2024-02-28 09:14:42.998661,1709108082.9986606,312.98828125,-43.45703125,-38.0859375,999.51171875,0.0,-1.0,0.0,0.0,1.m4v,7.0
2024-02-28 09:14:43.002566,1709108083.002566,102.05078125,-38.57421875,-42.48046875,584.47265625,0.0,-1.0,0.0,0.0,1.m4v,7.0
2024-02-28 09:14:43.006471,1709108083.0064712,-835.44921875,-36.62109375,-47.36328125,-791.9921875,0.0,-1.0,0.0,0.0,1.m4v,7.0
2024-02-28 09:14:43.010376,1709108083.0103765,-1000.0,-40.0390625,-50.78125,-1000.0,0.0,-1.0,0.0,0.0,1.m4v,7.0
2024-02-28 09:14:43.014282,1709108083.0142815,-952.63671875,-44.43359375,-47.36328125,-942.87109375,0.0,-1.0,0.0,0.0,1.m4v,7.0
2024-02-28 09:14:43.018187,1709108083.018187,-623.53515625,-40.0390625,-48.33984375,-1000.0,0.0,-1.0,0.0,0.0,1.m4v,7.0
2024-02-28 09:14:43.022092,1709108083.0220923,-172.8515625,-42.96875,-47.36328125,-1000.0,0.0,-1.0,0.0,0.0,1.m4v,7.0
2024-02-28 09:14:43.025998,1709108083.0259976,-135.7421875,-49.31640625,-39.55078125,-992.1875,0.0,-1.0,0.0,0.0,1.m4v,7.0
2024-02-28 09:14:43.029903,1709108083.029903,-345.21484375,-43.45703125,-29.78515625,-963.37890625,0.0,-1.0,0.0,0.0,1.m4v,7.0
2024-02-28 09:14:43.033808,1709108083.0338082,-319.82421875,-41.9921875,-30.76171875,-1000.0,0.0,-1.0,0.0,0.0,1.m4v,7.0
2024-02-28 09:14:43.037723,1709108083.0377228,482.421875,-42.96875,-30.2734375,-209.47265625,0.0,-1.0,0.0,0.0,1.m4v,7.0
2024-02-28 09:14:43.041628,1709108083.041628,995.60546875,-45.8984375,-30.76171875,948.2421875,0.0,-1.0,0.0,0.0,1.m4v,7.0
2024-02-28 09:14:43.045533,1709108083.0455334,967.7734375,-43.9453125,-48.33984375,974.609375,0.0,-1.0,0.0,0.0,1.m4v,7.0
2024-02-28 09:14:43.049439,1709108083.0494387,692.87109375,-34.1796875,-55.17578125,942.87109375,0.0,-1.0,0.0,0.0,1.m4v,7.0
2024-02-28 09:14:43.053344,1709108083.053344,204.58984375,-32.2265625,-41.50390625,973.6328125,0.0,-1.0,0.0,0.0,1.m4v,7.0
2024-02-28 09:14:43.057249,1709108083.0572493,296.38671875,-33.69140625,-34.1796875,926.26953125,0.0,-1.0,0.0,0.0,1.m4v,7.0
2024-02-28 09:14:43.061155,1709108083.0611546,483.88671875,-29.78515625,-22.94921875,999.51171875,0.0,-1.0,0.0,0.0,1.m4v,7.0
2024-02-28 09:14:43.065060,1709108083.06506,-253.90625,-31.73828125,-27.34375,198.73046875,0.0,-1.0,0.0,0.0,1.m4v,7.0
2024-02-28 09:14:43.068965,1709108083.0689652,-1000.0,-42.48046875,-47.8515625,-992.1875,0.0,-1.0,0.0,0.0,1.m4v,7.0
2024-02-28 09:14:43.072870,1709108083.0728705,-998.046875,-38.57421875,-38.57421875,-1000.0,0.0,-1.0,0.0,0.0,1.m4v,7.0
2024-02-28 09:14:43.076776,1709108083.0767758,-929.6875,-34.1796875,-27.83203125,-968.75,0.0,-1.0,0.0,0.0,1.m4v,7.0
2024-02-28 09:14:43.080681,1709108083.080681,-549.31640625,-37.59765625,-33.69140625,-1000.0,0.0,-1.0,0.0,0.0,1.m4v,7.0
2024-02-28 09:14:43.084595,1709108083.084595,-201.171875,-41.50390625,-38.0859375,-965.8203125,0.0,-1.0,0.0,0.0,1.m4v,7.0
2024-02-28 09:14:43.088500,1709108083.0885005,-362.3046875,-40.52734375,-50.78125,-1000.0,0.0,-1.0,0.0,0.0,1.m4v,7.0
2024-02-28 09:14:43.092406,1709108083.0924056,-454.1015625,-39.0625,-59.5703125,-1000.0,0.0,-1.0,0.0,0.0,1.m4v,7.0
2024-02-28 09:14:43.096311,1709108083.0963109,516.11328125,-42.48046875,-44.921875,263.18359375,0.0,-1.0,0.0,0.0,1.m4v,7.0
2024-02-28 09:14:43.100216,1709108083.1002162,999.51171875,-42.96875,-34.1796875,999.51171875,0.0,-1.0,0.0,0.0,1.m4v,7.0
2024-02-28 09:14:43.104121,1709108083.1041214,940.4296875,-29.296875,-36.1328125,910.64453125,0.0,-1.0,0.0,0.0,1.m4v,7.0
2024-02-28 09:14:43.108027,1709108083.1080267,835.9375,-14.6484375,-38.57421875,971.6796875,0.0,-1.0,0.0,0.0,1.m4v,7.0
2024-02-28 09:14:43.111932,1709108083.111932,289.0625,-25.390625,-42.48046875,985.83984375,0.0,-1.0,0.0,0.0,1.m4v,7.0
2024-02-28 09:14:43.115837,1709108083.115837,8.30078125,-41.9921875,-43.9453125,914.55078125,0.0,-1.0,0.0,0.0,1.m4v,7.0
2024-02-28 09:14:43.119743,1709108083.1197426,186.03515625,-46.875,-45.8984375,999.51171875,0.0,-1.0,0.0,0.0,1.m4v,7.0
2024-02-28 09:14:43.123648,1709108083.123648,122.55859375,-54.6875,-39.55078125,851.5625,0.0,-1.0,0.0,0.0,1.m4v,7.0
2024-02-28 09:14:43.127553,1709108083.1275532,-751.953125,-53.7109375,-33.203125,-579.1015625,0.0,-1.0,0.0,0.0,1.m4v,7.0
2024-02-28 09:14:43.131466,1709108083.1314664,-1000.0,-55.17578125,-45.41015625,-1000.0,0.0,-1.0,0.0,0.0,1.m4v,7.0
2024-02-28 09:14:43.135372,1709108083.1353717,-966.796875,-52.734375,-53.7109375,-928.7109375,0.0,-1.0,0.0,0.0,1.m4v,7.0
2024-02-28 09:14:43.139277,1709108083.139277,-727.05078125,-34.66796875,-44.43359375,-1000.0,0.0,-1.0,0.0,0.0,1.m4v,7.0
2024-02-28 09:14:43.143182,1709108083.1431825,-215.8203125,-13.671875,-35.15625,-968.75,0.0,-1.0,0.0,0.0,1.m4v,7.0
2024-02-28 09:14:43.147088,1709108083.1470876,-241.69921875,-9.27734375,-38.0859375,-997.55859375,0.0,-1.0,0.0,0.0,1.m4v,7.0
2024-02-28 09:14:43.150993,1709108083.1509929,-386.23046875,-16.6015625,-24.4140625,-1000.0,0.0,-1.0,0.0,0.0,1.m4v,7.0
2024-02-28 09:14:43.154898,1709108083.1548982,492.1875,-20.01953125,-19.04296875,220.703125,0.0,-1.0,0.0,0.0,1.m4v,7.0
2024-02-28 09:14:43.158803,1709108083.1588037,999.51171875,-34.66796875,-41.50390625,999.51171875,0.0,-1.0,0.0,0.0,1.m4v,7.0
2024-02-28 09:14:43.162709,1709108083.1627088,946.77734375,-46.875,-43.9453125,914.0625,0.0,-1.0,0.0,0.0,1.m4v,7.0
2024-02-28 09:14:43.166614,1709108083.166614,876.953125,-47.8515625,-28.3203125,969.23828125,0.0,-1.0,0.0,0.0,1.m4v,7.0
2024-02-28 09:14:43.170519,1709108083.1705194,267.08984375,-62.5,-22.94921875,982.91015625,0.0,-1.0,0.0,0.0,1.m4v,7.0
2024-02-28 09:14:43.174425,1709108083.1744246,-28.80859375,-68.359375,-42.96875,929.19921875,0.0,-1.0,0.0,0.0,1.m4v,7.0
2024-02-28 09:14:43.178338,1709108083.1783376,226.5625,-45.8984375,-59.08203125,985.3515625,0.0,-1.0,0.0,0.0,1.m4v,7.0
2024-02-28 09:14:43.182243,1709108083.1822429,270.5078125,-20.99609375,-41.9921875,956.54296875,0.0,-1.0,0.0,0.0,1.m4v,7.0
2024-02-28 09:14:43.186148,1709108083.1861482,-611.328125,-14.6484375,-20.5078125,-379.8828125,0.0,-1.0,0.0,0.0,1.m4v,7.0
2024-02-28 09:14:43.190053,1709108083.1900537,-1000.0,-18.5546875,-22.94921875,-1000.0,0.0,-1.0,0.0,0.0,1.m4v,7.0
2024-02-28 09:14:43.193959,1709108083.1939588,-971.19140625,-31.25,-29.78515625,-934.5703125,0.0,-1.0,0.0,0.0,1.m4v,7.0
2024-02-28 09:14:43.197864,1709108083.197864,-701.66015625,-29.296875,-21.97265625,-1000.0,0.0,-1.0,0.0,0.0,1.m4v,7.0
2024-02-28 09:14:43.201769,1709108083.2017694,-186.5234375,-25.87890625,-26.85546875,-1000.0,0.0,-1.0,0.0,0.0,1.m4v,7.0
2024-02-28 09:14:43.205675,1709108083.2056746,-159.66796875,-41.9921875,-36.62109375,-938.96484375,0.0,-1.0,0.0,0.0,1.m4v,7.0
2024-02-28 09:14:43.209580,1709108083.20958,-473.6328125,-47.36328125,-38.57421875,-1000.0,0.0,-1.0,0.0,0.0,1.m4v,7.0
2024-02-28 09:14:43.213485,1709108083.2134852,-266.11328125,-42.48046875,-39.0625,-809.5703125,0.0,-1.0,0.0,0.0,1.m4v,7.0
2024-02-28 09:14:43.217391,1709108083.2173903,756.8359375,-46.38671875,-44.921875,643.5546875,0.0,-1.0,0.0,0.0,1.m4v,7.0
2024-02-28 09:14:43.221296,1709108083.2212958,999.51171875,-47.8515625,-40.52734375,999.51171875,0.0,-1.0,0.0,0.0,1.m4v,7.0
2024-02-28 09:14:43.225209,1709108083.2252083,937.5,-30.76171875,-36.1328125,899.90234375,0.0,-1.0,0.0,0.0,1.m4v,7.0
2024-02-28 09:14:43.229114,1709108083.2291138,676.26953125,-24.4140625,-30.2734375,985.83984375,0.0,-1.0,0.0,0.0,1.m4v,7.0
2024-02-28 09:14:43.233019,1709108083.233019,153.80859375,-32.2265625,-22.94921875,969.7265625,0.0,-1.0,0.0,0.0,1.m4v,7.0
2024-02-28 09:14:43.236924,1709108083.2369244,136.71875,-38.0859375,-33.203125,969.7265625,0.0,-1.0,0.0,0.0,1.m4v,7.0
2024-02-28 09:14:43.240830,1709108083.2408297,236.81640625,-41.9921875,-38.57421875,969.7265625,0.0,-1.0,0.0,0.0,1.m4v,7.0
2024-02-28 09:14:43.244735,1709108083.244735,187.98828125,-32.2265625,-38.0859375,969.7265625,0.0,-1.0,0.0,0.0,1.m4v,7.0
2024-02-28 09:14:43.248640,1709108083.2486403,-41.9921875,-26.85546875,-46.38671875,984.375,0.0,-1.0,0.0,0.0,1.m4v,7.0
2024-02-28 09:14:43.252546,1709108083.2525456,-304.19921875,-44.43359375,-35.15625,917.48046875,0.0,-1.0,0.0,0.0,1.m4v,7.0
2024-02-28 09:14:43.256451,1709108083.256451,-39.0625,-41.9921875,-39.0625,999.51171875,0.0,-1.0,0.0,0.0,1.m4v,7.0
2024-02-28 09:14:43.260356,1709108083.2603562,104.00390625,-49.31640625,-40.0390625,891.6015625,0.0,-1.0,0.0,0.0,1.m4v,7.0
2024-02-28 09:14:43.264261,1709108083.2642615,-724.609375,-62.01171875,-38.57421875,-534.1796875,0.0,-1.0,0.0,0.0,1.m4v,7.0
2024-02-28 09:14:43.268167,1709108083.2681668,-1000.0,-35.64453125,-57.12890625,-1000.0,0.0,-1.0,0.0,0.0,1.m4v,7.0
2024-02-28 09:14:43.272078,1709108083.2720785,-967.7734375,-24.90234375,-47.8515625,-927.24609375,0.0,-1.0,0.0,0.0,1.m4v,7.0
2024-02-28 09:14:43.275984,1709108083.2759836,-899.90234375,-40.52734375,-39.0625,-1000.0,0.0,-1.0,0.0,0.0,1.m4v,7.0
2024-02-28 09:14:43.279889,1709108083.2798889,-416.9921875,-37.109375,-41.9921875,-1000.0,0.0,-1.0,0.0,0.0,1.m4v,7.0
2024-02-28 09:14:43.283794,1709108083.2837942,-35.64453125,-30.76171875,-26.85546875,-973.6328125,0.0,-1.0,0.0,0.0,1.m4v,7.0
2024-02-28 09:14:43.287699,1709108083.2876997,-161.1328125,-34.66796875,-21.97265625,-989.74609375,0.0,-1.0,0.0,0.0,1.m4v,7.0
2024-02-28 09:14:43.291605,1709108083.2916048,-366.2109375,-30.2734375,-31.25,-1000.0,0.0,-1.0,0.0,0.0,1.m4v,7.0
2024-02-28 09:14:43.295510,1709108083.29551,476.5625,-35.64453125,-46.38671875,144.04296875,0.0,-1.0,0.0,0.0,1.m4v,7.0
2024-02-28 09:14:43.299415,1709108083.299415,999.51171875,-51.7578125,-53.22265625,999.51171875,0.0,-1.0,0.0,0.0,1.m4v,7.0
2024-02-28 09:14:43.303321,1709108083.3033206,948.73046875,-54.6875,-34.66796875,923.33984375,0.0,-1.0,0.0,0.0,1.m4v,7.0
2024-02-28 09:14:43.307226,1709108083.307226,831.0546875,-46.875,-35.64453125,964.35546875,0.0,-1.0,0.0,0.0,1.m4v,7.0
2024-02-28 09:14:43.311131,1709108083.3111312,272.4609375,-38.57421875,-52.734375,988.76953125,0.0,-1.0,0.0,0.0,1.m4v,7.0
2024-02-28 09:14:43.315037,1709108083.3150363,47.8515625,-29.78515625,-36.1328125,909.66796875,0.0,-1.0,0.0,0.0,1.m4v,7.0
2024-02-28 09:14:43.318952,1709108083.3189523,312.01171875,-20.99609375,-25.87890625,999.51171875,0.0,-1.0,0.0,0.0,1.m4v,7.0
2024-02-28 09:14:43.322858,1709108083.3228576,152.34375,-24.4140625,-32.2265625,812.01171875,0.0,-1.0,0.0,0.0,1.m4v,7.0
2024-02-28 09:14:43.326763,1709108083.326763,-779.296875,-35.64453125,-32.2265625,-642.08984375,0.0,-1.0,0.0,0.0,1.m4v,7.0
2024-02-28 09:14:43.330668,1709108083.3306682,-1000.0,-34.66796875,-41.50390625,-1000.0,0.0,-1.0,0.0,0.0,1.m4v,7.0
2024-02-28 09:14:43.334574,1709108083.3345735,-956.54296875,-35.15625,-45.41015625,-928.22265625,0.0,-1.0,0.0,0.0,1.m4v,7.0
2024-02-28 09:14:43.338479,1709108083.3384788,-661.62109375,-36.1328125,-45.8984375,-1000.0,0.0,-1.0,0.0,0.0,1.m4v,7.0
2024-02-28 09:14:43.342384,1709108083.342384,-203.61328125,-42.96875,-43.45703125,-1000.0,0.0,-1.0,0.0,0.0,1.m4v,7.0
2024-02-28 09:14:43.346289,1709108083.3462894,-154.78515625,-53.22265625,-38.57421875,-946.77734375,0.0,-1.0,0.0,0.0,1.m4v,7.0
2024-02-28 09:14:43.350195,1709108083.3501947,-463.37890625,-38.0859375,-38.57421875,-1000.0,0.0,-1.0,0.0,0.0,1.m4v,7.0
2024-02-28 09:14:43.354100,1709108083.3541,-331.54296875,-33.203125,-47.8515625,-910.15625,0.0,-1.0,0.0,0.0,1.m4v,7.0
2024-02-28 09:14:43.358005,1709108083.3580053,702.63671875,-40.0390625,-37.59765625,519.04296875,0.0,-1.0,0.0,0.0,1.m4v,7.0
2024-02-28 09:14:43.361911,1709108083.3619106,999.51171875,-36.1328125,-28.3203125,999.51171875,0.0,-1.0,0.0,0.0,1.m4v,7.0
2024-02-28 09:14:43.365826,1709108083.3658257,928.22265625,-34.66796875,-36.62109375,896.97265625,0.0,-1.0,0.0,0.0,1.m4v,7.0
2024-02-28 09:14:43.369731,1709108083.369731,602.5390625,-36.62109375,-41.50390625,984.86328125,0.0,-1.0,0.0,0.0,1.m4v,7.0
2024-02-28 09:14:43.373636,1709108083.3736362,161.62109375,-37.109375,-37.59765625,977.5390625,0.0,-1.0,0.0,0.0,1.m4v,7.0
2024-02-28 09:14:43.377542,1709108083.3775415,154.78515625,-39.0625,-39.0625,916.015625,0.0,-1.0,0.0,0.0,1.m4v,7.0
2024-02-28 09:14:43.381447,1709108083.3814468,333.0078125,-37.109375,-33.203125,999.51171875,0.0,-1.0,0.0,0.0,1.m4v,7.0
2024-02-28 09:14:43.385352,1709108083.385352,5.859375,-38.57421875,-32.2265625,581.54296875,0.0,-1.0,0.0,0.0,1.m4v,7.0
2024-02-28 09:14:43.389257,1709108083.3892574,-860.83984375,-43.9453125,-43.45703125,-773.92578125,0.0,-1.0,0.0,0.0,1.m4v,7.0
2024-02-28 09:14:43.393163,1709108083.3931627,-1000.0,-38.0859375,-32.2265625,-1000.0,0.0,-1.0,0.0,0.0,1.m4v,7.0
2024-02-28 09:14:43.397068,1709108083.397068,-949.21875,-36.62109375,-30.76171875,-943.359375,0.0,-1.0,0.0,0.0,1.m4v,7.0
2024-02-28 09:14:43.400973,1709108083.400973,-560.05859375,-35.64453125,-35.64453125,-1000.0,0.0,-1.0,0.0,0.0,1.m4v,7.0
2024-02-28 09:14:43.404879,1709108083.4048786,-157.71484375,-26.85546875,-32.71484375,-994.140625,0.0,-1.0,0.0,0.0,1.m4v,7.0
2024-02-28 09:14:43.408784,1709108083.408784,-338.37890625,-32.71484375,-44.43359375,-958.984375,0.0,-1.0,0.0,0.0,1.m4v,7.0
2024-02-28 09:14:43.412699,1709108083.4126985,-517.578125,-36.1328125,-40.0390625,-1000.0,0.0,-1.0,0.0,0.0,1.m4v,7.0
2024-02-28 09:14:43.416604,1709108083.4166038,289.0625,-41.50390625,-35.64453125,-223.14453125,0.0,-1.0,0.0,0.0,1.m4v,7.0
2024-02-28 09:14:43.420509,1709108083.420509,989.74609375,-48.33984375,-54.19921875,957.03125,0.0,-1.0,0.0,0.0,1.m4v,7.0
2024-02-28 09:14:43.424414,1709108083.4244144,968.75,-42.48046875,-45.8984375,973.6328125,0.0,-1.0,0.0,0.0,1.m4v,7.0
2024-02-28 09:14:43.428320,1709108083.4283197,848.6328125,-43.9453125,-34.1796875,939.453125,0.0,-1.0,0.0,0.0,1.m4v,7.0
2024-02-28 09:14:43.432225,1709108083.432225,468.75,-42.96875,-26.85546875,990.234375,0.0,-1.0,0.0,0.0,1.m4v,7.0
2024-02-28 09:14:43.436130,1709108083.4361303,277.34375,-37.109375,-30.2734375,910.15625,0.0,-1.0,0.0,0.0,1.m4v,7.0
2024-02-28 09:14:43.440036,1709108083.4400356,325.1953125,-35.15625,-38.57421875,999.51171875,0.0,-1.0,0.0,0.0,1.m4v,7.0
2024-02-28 09:14:43.443941,1709108083.4439409,0.0,-41.50390625,-40.52734375,620.60546875,0.0,-1.0,0.0,0.0,1.m4v,7.0
2024-02-28 09:14:43.447846,1709108083.4478462,-847.16796875,-41.015625,-44.921875,-773.92578125,0.0,-1.0,0.0,0.0,1.m4v,7.0
2024-02-28 09:14:43.451751,1709108083.4517517,-1000.0,-39.0625,-37.59765625,-1000.0,0.0,-1.0,0.0,0.0,1.m4v,7.0
2024-02-28 09:14:43.455657,1709108083.4556568,-938.96484375,-30.2734375,-39.55078125,-940.4296875,0.0,-1.0,0.0,0.0,1.m4v,7.0
2024-02-28 09:14:43.459571,1709108083.4595714,-611.81640625,-39.0625,-47.36328125,-1000.0,0.0,-1.0,0.0,0.0,1.m4v,7.0
2024-02-28 09:14:43.463477,1709108083.463477,-212.40234375,-54.6875,-37.59765625,-997.0703125,0.0,-1.0,0.0,0.0,1.m4v,7.0
2024-02-28 09:14:43.467382,1709108083.467382,-199.70703125,-55.6640625,-34.66796875,-954.1015625,0.0,-1.0,0.0,0.0,1.m4v,7.0
2024-02-28 09:14:43.471287,1709108083.4712873,-422.8515625,-41.9921875,-38.57421875,-1000.0,0.0,-1.0,0.0,0.0,1.m4v,7.0
2024-02-28 09:14:43.475193,1709108083.4751923,174.31640625,-21.97265625,-37.109375,-264.6484375,0.0,-1.0,0.0,0.0,1.m4v,7.0
2024-02-28 09:14:43.479098,1709108083.4790978,958.0078125,-17.08984375,-34.1796875,950.68359375,0.0,-1.0,0.0,0.0,1.m4v,7.0
2024-02-28 09:14:43.483003,1709108083.4830031,982.421875,-21.484375,-34.66796875,978.02734375,0.0,-1.0,0.0,0.0,1.m4v,7.0
2024-02-28 09:14:43.486908,1709108083.4869084,846.19140625,-27.34375,-28.3203125,936.03515625,0.0,-1.0,0.0,0.0,1.m4v,7.0
2024-02-28 09:14:43.490814,1709108083.4908135,312.98828125,-34.66796875,-37.109375,991.2109375,0.0,-1.0,0.0,0.0,1.m4v,7.0
2024-02-28 09:14:43.494719,1709108083.494719,56.640625,-39.0625,-47.36328125,928.7109375,0.0,-1.0,0.0,0.0,1.m4v,7.0
2024-02-28 09:14:43.498624,1709108083.4986243,324.21875,-39.0625,-43.9453125,986.328125,0.0,-1.0,0.0,0.0,1.m4v,7.0
2024-02-28 09:14:43.502530,1709108083.5025296,288.57421875,-39.55078125,-33.69140625,956.0546875,0.0,-1.0,0.0,0.0,1.m4v,7.0
2024-02-28 09:14:43.506443,1709108083.506443,-649.4140625,-50.78125,-28.3203125,-387.20703125,0.0,-1.0,0.0,0.0,1.m4v,7.0
2024-02-28 09:14:43.510348,1709108083.5103483,-1000.0,-64.94140625,-38.0859375,-1000.0,0.0,-1.0,0.0,0.0,1.m4v,7.0
2024-02-28 09:14:43.514254,1709108083.5142536,-963.8671875,-59.08203125,-51.7578125,-933.59375,0.0,-1.0,0.0,0.0,1.m4v,7.0
2024-02-28 09:14:43.518159,1709108083.518159,-867.67578125,-42.96875,-50.29296875,-1000.0,0.0,-1.0,0.0,0.0,1.m4v,7.0
2024-02-28 09:14:43.522064,1709108083.5220642,-370.60546875,-27.34375,-40.52734375,-1000.0,0.0,-1.0,0.0,0.0,1.m4v,7.0
2024-02-28 09:14:43.525970,1709108083.5259695,-84.47265625,-22.4609375,-31.25,-939.453125,0.0,-1.0,0.0,0.0,1.m4v,7.0
2024-02-28 09:14:43.928294,1709108083.9282942,733.3984375,-26.85546875,-34.66796875,981.93359375,0.0,-1.0,0.0,0.0,1.m4v,7.0
2024-02-28 09:14:43.932199,1709108083.9321997,246.58203125,-37.59765625,-25.390625,976.5625,0.0,-1.0,0.0,0.0,1.m4v,7.0
2024-02-28 09:14:43.936105,1709108083.9361048,153.80859375,-50.29296875,-33.203125,914.0625,0.0,-1.0,0.0,0.0,1.m4v,7.0
2024-02-28 09:14:43.940010,1709108083.94001,341.796875,-52.24609375,-33.69140625,999.51171875,0.0,-1.0,0.0,0.0,1.m4v,7.0
2024-02-28 09:14:43.943915,1709108083.9439154,-47.36328125,-38.57421875,-27.83203125,495.60546875,0.0,-1.0,0.0,0.0,1.m4v,7.0
2024-02-28 09:14:43.947821,1709108083.947821,-892.578125,-37.59765625,-40.52734375,-845.21484375,0.0,-1.0,0.0,0.0,1.m4v,7.0
2024-02-28 09:14:43.951726,1709108083.951726,-1000.0,-43.45703125,-50.78125,-1000.0,0.0,-1.0,0.0,0.0,1.m4v,7.0
2024-02-28 09:14:43.955631,1709108083.9556313,-948.2421875,-41.9921875,-53.22265625,-948.73046875,0.0,-1.0,0.0,0.0,1.m4v,7.0
2024-02-28 09:14:43.959537,1709108083.9595366,-578.125,-47.36328125,-35.15625,-1000.0,0.0,-1.0,0.0,0.0,1.m4v,7.0
2024-02-28 09:14:43.963442,1709108083.9634418,-209.9609375,-58.10546875,-30.2734375,-1000.0,0.0,-1.0,0.0,0.0,1.m4v,7.0
2024-02-28 09:14:43.967347,1709108083.9673471,-207.03125,-48.33984375,-34.66796875,-941.40625,0.0,-1.0,0.0,0.0,1.m4v,7.0
2024-02-28 09:14:43.971252,1709108083.9712524,-380.37109375,-28.80859375,-28.3203125,-1000.0,0.0,-1.0,0.0,0.0,1.m4v,7.0
2024-02-28 09:14:43.975165,1709108083.975165,-13.671875,-31.73828125,-29.296875,-656.73828125,0.0,-1.0,0.0,0.0,1.m4v,7.0
2024-02-28 09:14:43.979070,1709108083.97907,843.26171875,-38.0859375,-51.26953125,738.28125,0.0,-1.0,0.0,0.0,1.m4v,7.0
2024-02-28 09:14:43.982975,1709108083.9829752,999.51171875,-28.3203125,-63.96484375,999.51171875,0.0,-1.0,0.0,0.0,1.m4v,7.0
2024-02-28 09:14:43.986881,1709108083.9868803,903.3203125,-31.25,-40.52734375,910.15625,0.0,-1.0,0.0,0.0,1.m4v,7.0
2024-02-28 09:14:43.990786,1709108083.9907858,478.515625,-37.59765625,-24.90234375,998.53515625,0.0,-1.0,0.0,0.0,1.m4v,7.0
2024-02-28 09:14:43.994691,1709108083.9946911,185.546875,-35.64453125,-21.97265625,908.69140625,0.0,-1.0,0.0,0.0,1.m4v,7.0
2024-02-28 09:14:43.998596,1709108083.9985964,298.33984375,-49.8046875,-27.83203125,999.51171875,0.0,-1.0,0.0,0.0,1.m4v,7.0
2024-02-28 09:14:44.002502,1709108084.0025015,-1.46484375,-53.7109375,-36.1328125,719.7265625,0.0,-1.0,0.0,0.0,1.m4v,7.0
2024-02-28 09:14:44.006407,1709108084.006407,-833.49609375,-53.7109375,-41.9921875,-714.35546875,0.0,-1.0,0.0,0.0,1.m4v,7.0
2024-02-28 09:14:44.010312,1709108084.0103123,-1000.0,-61.03515625,-46.875,-1000.0,0.0,-1.0,0.0,0.0,1.m4v,7.0
2024-02-28 09:14:44.014218,1709108084.0142176,-961.9140625,-46.875,-50.29296875,-934.08203125,0.0,-1.0,0.0,0.0,1.m4v,7.0
2024-02-28 09:14:44.018123,1709108084.018123,-661.62109375,-31.73828125,-48.828125,-1000.0,0.0,-1.0,0.0,0.0,1.m4v,7.0
2024-02-28 09:14:44.022034,1709108084.0220344,-273.92578125,-31.73828125,-41.9921875,-1000.0,0.0,-1.0,0.0,0.0,1.m4v,7.0
2024-02-28 09:14:44.025940,1709108084.0259397,-199.21875,-32.2265625,-38.0859375,-942.87109375,0.0,-1.0,0.0,0.0,1.m4v,7.0
2024-02-28 09:14:44.029845,1709108084.029845,-394.04296875,-37.109375,-36.62109375,-1000.0,0.0,-1.0,0.0,0.0,1.m4v,7.0
2024-02-28 09:14:44.033750,1709108084.0337503,-185.546875,-37.59765625,-27.83203125,-877.44140625,0.0,-1.0,0.0,0.0,1.m4v,7.0
2024-02-28 09:14:44.037656,1709108084.0376556,762.20703125,-37.109375,-35.64453125,569.82421875,0.0,-1.0,0.0,0.0,1.m4v,7.0
2024-02-28 09:14:44.041561,1709108084.041561,999.51171875,-30.76171875,-45.41015625,999.51171875,0.0,-1.0,0.0,0.0,1.m4v,7.0
2024-02-28 09:14:44.045466,1709108084.0454662,936.5234375,-25.390625,-41.9921875,896.97265625,0.0,-1.0,0.0,0.0,1.m4v,7.0
2024-02-28 09:14:44.049371,1709108084.0493715,626.953125,-40.0390625,-36.1328125,994.140625,0.0,-1.0,0.0,0.0,1.m4v,7.0
2024-02-28 09:14:44.053277,1709108084.0532768,143.06640625,-58.10546875,-24.4140625,936.5234375,0.0,-1.0,0.0,0.0,1.m4v,7.0
2024-02-28 09:14:44.057182,1709108084.057182,195.3125,-48.33984375,-20.99609375,970.21484375,0.0,-1.0,0.0,0.0,1.m4v,7.0
2024-02-28 09:14:44.061087,1709108084.0610874,318.359375,-38.0859375,-20.01953125,988.76953125,0.0,-1.0,0.0,0.0,1.m4v,7.0
2024-02-28 09:14:44.064993,1709108084.064993,-501.953125,-44.921875,-33.203125,-268.5546875,0.0,-1.0,0.0,0.0,1.m4v,7.0
2024-02-28 09:14:44.068908,1709108084.0689085,-1000.0,-49.8046875,-44.43359375,-1000.0,0.0,-1.0,0.0,0.0,1.m4v,7.0
2024-02-28 09:14:44.072814,1709108084.0728135,-977.05078125,-29.296875,-35.64453125,-943.84765625,0.0,-1.0,0.0,0.0,1.m4v,7.0
2024-02-28 09:14:44.076719,1709108084.076719,-886.23046875,-16.6015625,-35.64453125,-1000.0,0.0,-1.0,0.0,0.0,1.m4v,7.0
2024-02-28 09:14:44.080624,1709108084.0806243,-447.265625,-39.55078125,-33.203125,-1000.0,0.0,-1.0,0.0,0.0,1.m4v,7.0
2024-02-28 09:14:44.084530,1709108084.0845296,-196.2890625,-53.7109375,-26.3671875,-976.5625,0.0,-1.0,0.0,0.0,1.m4v,7.0
2024-02-28 09:14:44.088435,1709108084.088435,-285.64453125,-42.48046875,-28.80859375,-985.83984375,0.0,-1.0,0.0,0.0,1.m4v,7.0
2024-02-28 09:14:44.092340,1709108084.0923402,-313.4765625,-41.015625,-30.76171875,-1000.0,0.0,-1.0,0.0,0.0,1.m4v,7.0
2024-02-28 09:14:44.096246,1709108084.0962455,503.41796875,-35.64453125,-37.59765625,94.7265625,0.0,-1.0,0.0,0.0,1.m4v,7.0
2024-02-28 09:14:44.100151,1709108084.1001508,999.51171875,-33.203125,-42.48046875,999.51171875,0.0,-1.0,0.0,0.0,1.m4v,7.0
2024-02-28 09:14:44.104056,1709108084.104056,956.54296875,-39.55078125,-39.0625,930.6640625,0.0,-1.0,0.0,0.0,1.m4v,7.0
2024-02-28 09:14:44.107961,1709108084.1079614,761.71875,-34.1796875,-28.3203125,963.37890625,0.0,-1.0,0.0,0.0,1.m4v,7.0
2024-02-28 09:14:44.111867,1709108084.1118667,227.05078125,-36.62109375,-19.04296875,972.65625,0.0,-1.0,0.0,0.0,1.m4v,7.0
2024-02-28 09:14:44.115782,1709108084.115782,187.01171875,-32.71484375,-16.6015625,921.38671875,0.0,-1.0,0.0,0.0,1.m4v,7.0
2024-02-28 09:14:44.119687,1709108084.1196873,391.11328125,-28.80859375,-22.4609375,999.51171875,0.0,-1.0,0.0,0.0,1.m4v,7.0
2024-02-28 09:14:44.123593,1709108084.1235926,-182.12890625,-37.59765625,-28.80859375,281.73828125,0.0,-1.0,0.0,0.0,1.m4v,7.0
2024-02-28 09:14:44.127498,1709108084.127498,-959.9609375,-41.50390625,-29.78515625,-959.47265625,0.0,-1.0,0.0,0.0,1.m4v,7.0
2024-02-28 09:14:44.131403,1709108084.1314032,-1000.0,-43.45703125,-39.55078125,-1000.0,0.0,-1.0,0.0,0.0,1.m4v,7.0
2024-02-28 09:14:44.135309,1709108084.1353085,-899.4140625,-46.875,-39.0625,-963.37890625,0.0,-1.0,0.0,0.0,1.m4v,7.0
2024-02-28 09:14:44.139214,1709108084.1392138,-498.046875,-52.24609375,-29.78515625,-1000.0,0.0,-1.0,0.0,0.0,1.m4v,7.0
2024-02-28 09:14:44.143119,1709108084.143119,-260.7421875,-49.31640625,-50.78125,-1000.0,0.0,-1.0,0.0,0.0,1.m4v,7.0
2024-02-28 09:14:44.147024,1709108084.1470244,-237.79296875,-41.9921875,-48.33984375,-939.453125,0.0,-1.0,0.0,0.0,1.m4v,7.0
2024-02-28 09:14:44.150930,1709108084.1509297,-396.97265625,-35.15625,-34.1796875,-1000.0,0.0,-1.0,0.0,0.0,1.m4v,7.0
2024-02-28 09:14:44.154835,1709108084.154835,-140.13671875,-20.5078125,-36.62109375,-766.6015625,0.0,-1.0,0.0,0.0,1.m4v,7.0
2024-02-28 09:14:44.158740,1709108084.1587403,789.55078125,-11.71875,-30.2734375,670.41015625,0.0,-1.0,0.0,0.0,1.m4v,7.0
2024-02-28 09:14:44.162655,1709108084.1626549,999.51171875,-24.4140625,-33.69140625,999.51171875,0.0,-1.0,0.0,0.0,1.m4v,7.0
2024-02-28 09:14:44.166560,1709108084.1665602,909.66796875,-33.203125,-46.875,902.34375,0.0,-1.0,0.0,0.0,1.m4v,7.0
2024-02-28 09:14:44.170465,1709108084.1704657,499.0234375,-33.69140625,-45.8984375,987.79296875,0.0,-1.0,0.0,0.0,1.m4v,7.0
2024-02-28 09:14:44.174371,1709108084.1743708,172.8515625,-41.50390625,-39.55078125,973.6328125,0.0,-1.0,0.0,0.0,1.m4v,7.0
2024-02-28 09:14:44.178276,1709108084.178276,280.2734375,-42.48046875,-35.64453125,917.96875,0.0,-1.0,0.0,0.0,1.m4v,7.0
2024-02-28 09:14:44.182181,1709108084.1821814,398.92578125,-40.0390625,-39.55078125,999.51171875,0.0,-1.0,0.0,0.0,1.m4v,7.0
2024-02-28 09:14:44.186087,1709108084.186087,-135.7421875,-57.12890625,-42.48046875,429.19921875,0.0,-1.0,0.0,0.0,1.m4v,7.0
2024-02-28 09:14:44.189992,1709108084.189992,-940.91796875,-63.96484375,-38.57421875,-874.0234375,0.0,-1.0,0.0,0.0,1.m4v,7.0
2024-02-28 09:14:44.193897,1709108084.1938972,-1000.0,-46.38671875,-42.96875,-1000.0,0.0,-1.0,0.0,0.0,1.m4v,7.0
2024-02-28 09:14:44.197803,1709108084.1978023,-937.98828125,-33.69140625,-45.41015625,-953.125,0.0,-1.0,0.0,0.0,1.m4v,7.0
2024-02-28 09:14:44.201708,1709108084.2017078,-539.0625,-28.3203125,-48.828125,-1000.0,0.0,-1.0,0.0,0.0,1.m4v,7.0
2024-02-28 09:14:44.205613,1709108084.2056131,-150.87890625,-20.5078125,-52.734375,-948.2421875,0.0,-1.0,0.0,0.0,1.m4v,7.0
2024-02-28 09:14:44.209527,1709108084.2095273,-349.609375,-21.97265625,-53.22265625,-1000.0,0.0,-1.0,0.0,0.0,1.m4v,7.0
2024-02-28 09:14:44.213433,1709108084.2134326,-293.9453125,-28.3203125,-46.875,-927.24609375,0.0,-1.0,0.0,0.0,1.m4v,7.0
2024-02-28 09:14:44.217338,1709108084.2173378,699.70703125,-38.57421875,-34.1796875,495.1171875,0.0,-1.0,0.0,0.0,1.m4v,7.0
2024-02-28 09:14:44.221243,1709108084.2212431,999.51171875,-53.7109375,-27.83203125,999.51171875,0.0,-1.0,0.0,0.0,1.m4v,7.0
2024-02-28 09:14:44.225148,1709108084.2251484,931.640625,-51.7578125,-30.2734375,896.484375,0.0,-1.0,0.0,0.0,1.m4v,7.0
2024-02-28 09:14:44.229054,1709108084.2290535,731.4453125,-49.8046875,-25.87890625,983.88671875,0.0,-1.0,0.0,0.0,1.m4v,7.0
2024-02-28 09:14:44.232959,1709108084.232959,287.59765625,-44.43359375,-24.4140625,978.515625,0.0,-1.0,0.0,0.0,1.m4v,7.0
2024-02-28 09:14:44.236864,1709108084.2368643,167.96875,-29.296875,-49.31640625,915.0390625,0.0,-1.0,0.0,0.0,1.m4v,7.0
2024-02-28 09:14:44.240770,1709108084.2407696,269.53125,-30.76171875,-54.19921875,999.51171875,0.0,-1.0,0.0,0.0,1.m4v,7.0
2024-02-28 09:14:44.244675,1709108084.244675,-68.84765625,-31.25,-34.66796875,567.87109375,0.0,-1.0,0.0,0.0,1.m4v,7.0
2024-02-28 09:14:44.248580,1709108084.2485802,-874.51171875,-25.87890625,-23.92578125,-785.15625,0.0,-1.0,0.0,0.0,1.m4v,7.0
2024-02-28 09:14:44.252486,1709108084.2524855,-1000.0,-31.73828125,-23.4375,-1000.0,0.0,-1.0,0.0,0.0,1.m4v,7.0
2024-02-28 09:14:44.256399,1709108084.256399,-961.42578125,-33.69140625,-25.87890625,-943.84765625,0.0,-1.0,0.0,0.0,1.m4v,7.0
2024-02-28 09:14:44.260304,1709108084.260304,-578.125,-34.1796875,-21.97265625,-1000.0,0.0,-1.0,0.0,0.0,1.m4v,7.0
2024-02-28 09:14:44.264209,1709108084.2642093,-114.74609375,-35.64453125,-24.90234375,-942.87109375,0.0,-1.0,0.0,0.0,1.m4v,7.0
2024-02-28 09:14:44.268115,1709108084.2681146,-355.95703125,-40.0390625,-35.15625,-1000.0,0.0,-1.0,0.0,0.0,1.m4v,7.0
2024-02-28 09:14:44.272020,1709108084.27202,-344.7265625,-46.38671875,-33.203125,-887.20703125,0.0,-1.0,0.0,0.0,1.m4v,7.0
2024-02-28 09:14:44.275925,1709108084.2759252,700.68359375,-38.57421875,-26.85546875,566.89453125,0.0,-1.0,0.0,0.0,1.m4v,7.0
2024-02-28 09:14:44.279830,1709108084.2798305,999.51171875,-35.15625,-34.1796875,999.51171875,0.0,-1.0,0.0,0.0,1.m4v,7.0
2024-02-28 09:14:44.283736,1709108084.2837358,924.31640625,-39.0625,-55.6640625,895.5078125,0.0,-1.0,0.0,0.0,1.m4v,7.0
2024-02-28 09:14:44.287641,1709108084.287641,644.53125,-37.59765625,-47.36328125,985.3515625,0.0,-1.0,0.0,0.0,1.m4v,7.0
2024-02-28 09:14:44.291546,1709108084.2915463,125.0,-26.85546875,-29.78515625,974.12109375,0.0,-1.0,0.0,0.0,1.m4v,7.0
2024-02-28 09:14:44.295452,1709108084.2954516,103.515625,-16.11328125,-28.3203125,964.35546875,0.0,-1.0,0.0,0.0,1.m4v,7.0
2024-02-28 09:14:44.299357,1709108084.299357,229.00390625,-19.04296875,-28.80859375,931.15234375,0.0,-1.0,0.0,0.0,1.m4v,7.0
2024-02-28 09:14:44.303270,1709108084.3032703,191.89453125,-22.4609375,-24.90234375,999.51171875,0.0,-1.0,0.0,0.0,1.m4v,7.0
2024-02-28 09:14:44.307176,1709108084.3071756,-428.22265625,-35.15625,-21.484375,236.328125,0.0,-1.0,0.0,0.0,1.m4v,7.0
2024-02-28 09:14:44.311081,1709108084.311081,-1000.0,-54.6875,-36.62109375,-951.171875,0.0,-1.0,0.0,0.0,1.m4v,7.0
2024-02-28 09:14:44.314986,1709108084.3149862,-1000.0,-36.62109375,-50.78125,-1000.0,0.0,-1.0,0.0,0.0,1.m4v,7.0
2024-02-28 09:14:44.318892,1709108084.3188915,-931.640625,-41.50390625,-45.41015625,-966.30859375,0.0,-1.0,0.0,0.0,1.m4v,7.0
2024-02-28 09:14:44.322797,1709108084.3227968,-519.04296875,-51.7578125,-36.1328125,-1000.0,0.0,-1.0,0.0,0.0,1.m4v,7.0
2024-02-28 09:14:44.326702,1709108084.326702,-289.0625,-28.3203125,-38.0859375,-941.40625,0.0,-1.0,0.0,0.0,1.m4v,7.0
2024-02-28 09:14:44.330607,1709108084.3306074,-540.52734375,-26.85546875,-39.0625,-1000.0,0.0,-1.0,0.0,0.0,1.m4v,7.0
2024-02-28 09:14:44.334513,1709108084.3345127,-86.42578125,-31.25,-32.71484375,-563.96484375,0.0,-1.0,0.0,0.0,1.m4v,7.0
2024-02-28 09:14:44.338418,1709108084.338418,870.1171875,-31.25,-34.1796875,801.7578125,0.0,-1.0,0.0,0.0,1.m4v,7.0
2024-02-28 09:14:44.342323,1709108084.3423233,999.51171875,-29.296875,-38.0859375,999.51171875,0.0,-1.0,0.0,0.0,1.m4v,7.0
2024-02-28 09:14:44.346229,1709108084.3462286,910.64453125,-32.2265625,-43.45703125,916.015625,0.0,-1.0,0.0,0.0,1.m4v,7.0
2024-02-28 09:14:44.350141,1709108084.3501408,478.515625,-41.9921875,-41.9921875,983.3984375,0.0,-1.0,0.0,0.0,1.m4v,7.0
2024-02-28 09:14:44.354046,1709108084.354046,122.55859375,-47.36328125,-48.828125,977.5390625,0.0,-1.0,0.0,0.0,1.m4v,7.0
2024-02-28 09:14:44.357951,1709108084.3579514,192.87109375,-46.875,-45.41015625,942.87109375,0.0,-1.0,0.0,0.0,1.m4v,7.0
2024-02-28 09:14:44.361857,1709108084.3618567,284.66796875,-66.40625,-29.78515625,966.30859375,0.0,-1.0,0.0,0.0,1.m4v,7.0
2024-02-28 09:14:44.365762,1709108084.365762,139.16015625,-56.640625,-19.04296875,957.51953125,0.0,-1.0,0.0,0.0,1.m4v,7.0
2024-02-28 09:14:44.369667,1709108084.3696673,-688.4765625,-25.87890625,-36.1328125,-182.12890625,0.0,-1.0,0.0,0.0,1.m4v,7.0
2024-02-28 09:14:44.373573,1709108084.3735726,-1000.0,-28.80859375,-44.43359375,-1000.0,0.0,-1.0,0.0,0.0,1.m4v,7.0
2024-02-28 09:14:44.377478,1709108084.377478,-975.09765625,-37.109375,-33.203125,-963.37890625,0.0,-1.0,0.0,0.0,1.m4v,7.0
2024-02-28 09:14:44.381383,1709108084.3813832,-861.328125,-31.73828125,-38.0859375,-1000.0,0.0,-1.0,0.0,0.0,1.m4v,7.0
2024-02-28 09:14:44.385288,1709108084.3852885,-470.703125,-34.1796875,-44.921875,-950.68359375,0.0,-1.0,0.0,0.0,1.m4v,7.0
2024-02-28 09:14:44.389194,1709108084.3891938,-468.26171875,-37.109375,-42.96875,-1000.0,0.0,-1.0,0.0,0.0,1.m4v,7.0
2024-02-28 09:14:44.393099,1709108084.393099,-309.08203125,-37.59765625,-28.80859375,-912.109375,0.0,-1.0,0.0,0.0,1.m4v,7.0
2024-02-28 09:14:44.397016,1709108084.3970156,706.0546875,-48.828125,-22.4609375,520.99609375,0.0,-1.0,0.0,0.0,1.m4v,7.0
2024-02-28 09:14:44.400921,1709108084.4009209,999.51171875,-58.10546875,-31.25,999.51171875,0.0,-1.0,0.0,0.0,1.m4v,7.0
2024-02-28 09:14:44.404826,1709108084.4048262,937.01171875,-40.52734375,-33.203125,896.484375,0.0,-1.0,0.0,0.0,1.m4v,7.0
2024-02-28 09:14:44.408731,1709108084.4087317,716.30859375,-26.85546875,-34.66796875,983.88671875,0.0,-1.0,0.0,0.0,1.m4v,7.0
2024-02-28 09:14:44.412637,1709108084.4126368,229.98046875,-27.34375,-40.52734375,982.91015625,0.0,-1.0,0.0,0.0,1.m4v,7.0
2024-02-28 09:14:44.416542,1709108084.416542,207.03125,-32.2265625,-49.31640625,915.52734375,0.0,-1.0,0.0,0.0,1.m4v,7.0
2024-02-28 09:14:44.420447,1709108084.420447,374.0234375,-42.96875,-45.41015625,999.51171875,0.0,-1.0,0.0,0.0,1.m4v,7.0
2024-02-28 09:14:44.424353,1709108084.4243526,74.21875,-49.8046875,-22.94921875,808.59375,0.0,-1.0,0.0,0.0,1.m4v,7.0
2024-02-28 09:14:44.428258,1709108084.428258,-800.29296875,-65.91796875,-10.7421875,-605.46875,0.0,-1.0,0.0,0.0,1.m4v,7.0
2024-02-28 09:14:44.432163,1709108084.4321632,-1000.0,-54.19921875,-22.4609375,-1000.0,0.0,-1.0,0.0,0.0,1.m4v,7.0
2024-02-28 09:14:44.436069,1709108084.4360683,-966.796875,-31.25,-31.25,-931.15234375,0.0,-1.0,0.0,0.0,1.m4v,7.0
2024-02-28 09:14:44.439974,1709108084.4399738,-744.62890625,-42.48046875,-41.015625,-1000.0,0.0,-1.0,0.0,0.0,1.m4v,7.0
2024-02-28 09:14:44.443890,1709108084.44389,-337.890625,-43.9453125,-45.8984375,-980.95703125,0.0,-1.0,0.0,0.0,1.m4v,7.0
2024-02-28 09:14:44.447795,1709108084.4477952,-315.91796875,-22.4609375,-34.1796875,-977.5390625,0.0,-1.0,0.0,0.0,1.m4v,7.0
2024-02-28 09:14:44.451700,1709108084.4517004,-434.5703125,-24.90234375,-30.2734375,-1000.0,0.0,-1.0,0.0,0.0,1.m4v,7.0
2024-02-28 09:14:44.455606,1709108084.4556055,363.76953125,-36.1328125,-31.25,25.390625,0.0,-1.0,0.0,0.0,1.m4v,7.0
2024-02-28 09:14:44.459511,1709108084.459511,999.51171875,-38.0859375,-37.59765625,999.51171875,0.0,-1.0,0.0,0.0,1.m4v,7.0
2024-02-28 09:14:44.463416,1709108084.4634163,961.42578125,-36.1328125,-37.59765625,937.98828125,0.0,-1.0,0.0,0.0,1.m4v,7.0
2024-02-28 09:14:44.467322,1709108084.4673216,860.3515625,-40.52734375,-35.15625,956.0546875,0.0,-1.0,0.0,0.0,1.m4v,7.0
2024-02-28 09:14:44.471227,1709108084.471227,273.4375,-39.55078125,-33.203125,979.98046875,0.0,-1.0,0.0,0.0,1.m4v,7.0
2024-02-28 09:14:44.475132,1709108084.4751322,62.01171875,-46.875,-46.38671875,958.0078125,0.0,-1.0,0.0,0.0,1.m4v,7.0
2024-02-28 09:14:44.479038,1709108084.4790375,243.65234375,-53.22265625,-60.05859375,937.5,0.0,-1.0,0.0,0.0,1.m4v,7.0
2024-02-28 09:14:44.482943,1709108084.4829428,251.953125,-43.45703125,-39.55078125,999.51171875,0.0,-1.0,0.0,0.0,1.m4v,7.0
2024-02-28 09:14:44.486848,1709108084.486848,-427.24609375,-38.57421875,-31.73828125,98.6328125,0.0,-1.0,0.0,0.0,1.m4v,7.0
2024-02-28 09:14:44.490763,1709108084.4907632,-1000.0,-40.0390625,-51.26953125,-1000.0,0.0,-1.0,0.0,0.0,1.m4v,7.0
2024-02-28 09:14:44.494668,1709108084.4946685,-992.67578125,-33.69140625,-45.41015625,-992.67578125,0.0,-1.0,0.0,0.0,1.m4v,7.0
2024-02-28 09:14:44.498574,1709108084.4985738,-913.57421875,-31.73828125,-35.64453125,-978.02734375,0.0,-1.0,0.0,0.0,1.m4v,7.0
2024-02-28 09:14:44.502479,1709108084.502479,-532.71484375,-36.1328125,-41.9921875,-1000.0,0.0,-1.0,0.0,0.0,1.m4v,7.0
2024-02-28 09:14:44.506384,1709108084.5063844,-295.8984375,-35.64453125,-48.828125,-950.68359375,0.0,-1.0,0.0,0.0,1.m4v,7.0
2024-02-28 09:14:44.510290,1709108084.5102897,-424.31640625,-41.015625,-49.8046875,-1000.0,0.0,-1.0,0.0,0.0,1.m4v,7.0
2024-02-28 09:14:44.959485,1709108084.959485,344.7265625,-30.2734375,-37.59765625,999.51171875,0.0,-1.0,0.0,0.0,1.m4v,7.0
2024-02-28 09:14:44.963390,1709108084.9633904,87.40234375,-43.45703125,-31.25,686.5234375,0.0,-1.0,0.0,0.0,1.m4v,7.0
2024-02-28 09:14:44.967296,1709108084.9672956,-826.66015625,-49.8046875,-28.3203125,-731.4453125,0.0,-1.0,0.0,0.0,1.m4v,7.0
2024-02-28 09:14:44.971201,1709108084.971201,-1000.0,-37.109375,-32.2265625,-1000.0,0.0,-1.0,0.0,0.0,1.m4v,7.0
2024-02-28 09:14:44.975106,1709108084.9751062,-958.49609375,-24.4140625,-36.62109375,-936.5234375,0.0,-1.0,0.0,0.0,1.m4v,7.0
2024-02-28 09:14:44.979012,1709108084.9790115,-563.4765625,-25.87890625,-35.64453125,-1000.0,0.0,-1.0,0.0,0.0,1.m4v,7.0
2024-02-28 09:14:44.982917,1709108084.9829168,-63.4765625,-38.0859375,-32.71484375,-1000.0,0.0,-1.0,0.0,0.0,1.m4v,7.0
2024-02-28 09:14:44.986822,1709108084.986822,-180.6640625,-40.0390625,-31.73828125,-942.3828125,0.0,-1.0,0.0,0.0,1.m4v,7.0
2024-02-28 09:14:44.990727,1709108084.9907274,-517.08984375,-33.203125,-38.57421875,-1000.0,0.0,-1.0,0.0,0.0,1.m4v,7.0
2024-02-28 09:14:44.994633,1709108084.9946327,-28.80859375,-33.69140625,-48.828125,-560.546875,0.0,-1.0,0.0,0.0,1.m4v,7.0
2024-02-28 09:14:44.998538,1709108084.998538,882.32421875,-26.85546875,-49.8046875,799.8046875,0.0,-1.0,0.0,0.0,1.m4v,7.0
2024-02-28 09:14:45.002443,1709108085.0024433,993.65234375,-16.6015625,-44.43359375,999.51171875,0.0,-1.0,0.0,0.0,1.m4v,7.0
2024-02-28 09:14:45.006356,1709108085.0063562,931.15234375,-24.4140625,-26.3671875,916.015625,0.0,-1.0,0.0,0.0,1.m4v,7.0
2024-02-28 09:14:45.010262,1709108085.0102615,505.37109375,-30.76171875,-26.3671875,985.3515625,0.0,-1.0,0.0,0.0,1.m4v,7.0
2024-02-28 09:14:45.014167,1709108085.0141668,138.671875,-20.01953125,-36.62109375,976.07421875,0.0,-1.0,0.0,0.0,1.m4v,7.0
2024-02-28 09:14:45.018072,1709108085.018072,266.11328125,-14.6484375,-44.43359375,917.96875,0.0,-1.0,0.0,0.0,1.m4v,7.0
2024-02-28 09:14:45.021978,1709108085.0219777,361.328125,-34.1796875,-45.8984375,999.51171875,0.0,-1.0,0.0,0.0,1.m4v,7.0
2024-02-28 09:14:45.025883,1709108085.025883,-98.6328125,-38.57421875,-38.0859375,543.9453125,0.0,-1.0,0.0,0.0,1.m4v,7.0
2024-02-28 09:14:45.029788,1709108085.0297885,-893.5546875,-41.015625,-29.78515625,-791.9921875,0.0,-1.0,0.0,0.0,1.m4v,7.0
2024-02-28 09:14:45.033694,1709108085.0336936,-1000.0,-48.33984375,-43.45703125,-1000.0,0.0,-1.0,0.0,0.0,1.m4v,7.0
2024-02-28 09:14:45.037599,1709108085.0375988,-956.0546875,-52.24609375,-49.31640625,-945.80078125,0.0,-1.0,0.0,0.0,1.m4v,7.0
2024-02-28 09:14:45.041504,1709108085.041504,-607.421875,-52.734375,-33.203125,-1000.0,0.0,-1.0,0.0,0.0,1.m4v,7.0
2024-02-28 09:14:45.045409,1709108085.0454094,-213.8671875,-31.25,-27.34375,-938.4765625,0.0,-1.0,0.0,0.0,1.m4v,7.0
2024-02-28 09:14:45.049315,1709108085.0493147,-346.19140625,-22.4609375,-28.3203125,-1000.0,0.0,-1.0,0.0,0.0,1.m4v,7.0
2024-02-28 09:14:45.053227,1709108085.0532274,-164.55078125,-31.73828125,-44.921875,-777.83203125,0.0,-1.0,0.0,0.0,1.m4v,7.0
2024-02-28 09:14:45.057133,1709108085.0571327,781.73828125,-31.73828125,-54.6875,668.45703125,0.0,-1.0,0.0,0.0,1.m4v,7.0
2024-02-28 09:14:45.061038,1709108085.061038,999.51171875,-41.015625,-41.9921875,999.51171875,0.0,-1.0,0.0,0.0,1.m4v,7.0
2024-02-28 09:14:45.064943,1709108085.0649433,946.2890625,-41.015625,-32.2265625,901.85546875,0.0,-1.0,0.0,0.0,1.m4v,7.0
2024-02-28 09:14:45.068849,1709108085.0688486,672.36328125,-28.3203125,-43.45703125,985.83984375,0.0,-1.0,0.0,0.0,1.m4v,7.0
2024-02-28 09:14:45.072754,1709108085.072754,133.7890625,-32.2265625,-39.0625,972.16796875,0.0,-1.0,0.0,0.0,1.m4v,7.0
2024-02-28 09:14:45.076659,1709108085.0766592,197.75390625,-44.43359375,-35.15625,972.16796875,0.0,-1.0,0.0,0.0,1.m4v,7.0
2024-02-28 09:14:45.080564,1709108085.0805645,320.3125,-41.015625,-41.015625,921.38671875,0.0,-1.0,0.0,0.0,1.m4v,7.0
2024-02-28 09:14:45.084470,1709108085.0844698,201.66015625,-43.9453125,-26.85546875,999.51171875,0.0,-1.0,0.0,0.0,1.m4v,7.0
2024-02-28 09:14:45.088375,1709108085.088375,-395.01953125,-53.7109375,-32.2265625,419.43359375,0.0,-1.0,0.0,0.0,1.m4v,7.0
2024-02-28 09:14:45.092280,1709108085.0922804,-982.91015625,-41.015625,-43.9453125,-865.234375,0.0,-1.0,0.0,0.0,1.m4v,7.0
2024-02-28 09:14:45.096186,1709108085.0961857,-1000.0,-41.9921875,-30.76171875,-1000.0,0.0,-1.0,0.0,0.0,1.m4v,7.0
2024-02-28 09:14:45.100098,1709108085.100098,-919.43359375,-46.38671875,-26.85546875,-963.8671875,0.0,-1.0,0.0,0.0,1.m4v,7.0
2024-02-28 09:14:45.104003,1709108085.1040032,-559.08203125,-43.9453125,-43.9453125,-974.609375,0.0,-1.0,0.0,0.0,1.m4v,7.0
2024-02-28 09:14:45.107908,1709108085.1079085,-499.0234375,-48.828125,-38.57421875,-1000.0,0.0,-1.0,0.0,0.0,1.m4v,7.0
2024-02-28 09:14:45.111814,1709108085.1118138,-481.4453125,-26.85546875,-37.109375,-1000.0,0.0,-1.0,0.0,0.0,1.m4v,7.0
2024-02-28 09:14:45.115719,1709108085.115719,520.5078125,-16.6015625,-51.26953125,310.546875,0.0,-1.0,0.0,0.0,1.m4v,7.0
2024-02-28 09:14:45.119624,1709108085.1196244,999.51171875,-29.78515625,-44.921875,999.51171875,0.0,-1.0,0.0,0.0,1.m4v,7.0
2024-02-28 09:14:45.123530,1709108085.1235297,934.08203125,-36.1328125,-33.69140625,905.2734375,0.0,-1.0,0.0,0.0,1.m4v,7.0
2024-02-28 09:14:45.127435,1709108085.127435,745.60546875,-32.2265625,-20.99609375,974.609375,0.0,-1.0,0.0,0.0,1.m4v,7.0
2024-02-28 09:14:45.131340,1709108085.1313405,193.84765625,-31.25,-20.5078125,978.02734375,0.0,-1.0,0.0,0.0,1.m4v,7.0
2024-02-28 09:14:45.135246,1709108085.1352456,33.203125,-40.0390625,-31.25,945.80078125,0.0,-1.0,0.0,0.0,1.m4v,7.0
2024-02-28 09:14:45.139151,1709108085.1391509,234.375,-45.41015625,-30.2734375,956.54296875,0.0,-1.0,0.0,0.0,1.m4v,7.0
2024-02-28 09:14:45.143056,1709108085.1430562,197.75390625,-45.41015625,-34.1796875,999.51171875,0.0,-1.0,0.0,0.0,1.m4v,7.0
2024-02-28 09:14:45.146969,1709108085.1469686,-596.19140625,-48.33984375,-34.1796875,-121.09375,0.0,-1.0,0.0,0.0,1.m4v,7.0
2024-02-28 09:14:45.150874,1709108085.150874,-1000.0,-42.48046875,-34.66796875,-1000.0,0.0,-1.0,0.0,0.0,1.m4v,7.0
2024-02-28 09:14:45.154779,1709108085.1547792,-977.05078125,-28.80859375,-31.25,-963.8671875,0.0,-1.0,0.0,0.0,1.m4v,7.0
2024-02-28 09:14:45.158684,1709108085.1586845,-854.98046875,-24.90234375,-28.80859375,-990.72265625,0.0,-1.0,0.0,0.0,1.m4v,7.0
2024-02-28 09:14:45.162590,1709108085.1625898,-414.0625,-26.3671875,-33.203125,-1000.0,0.0,-1.0,0.0,0.0,1.m4v,7.0
2024-02-28 09:14:45.166495,1709108085.166495,-157.2265625,-27.34375,-47.36328125,-940.4296875,0.0,-1.0,0.0,0.0,1.m4v,7.0
2024-02-28 09:14:45.170400,1709108085.1704004,-409.1796875,-37.59765625,-72.265625,-1000.0,0.0,-1.0,0.0,0.0,1.m4v,7.0
2024-02-28 09:14:45.174306,1709108085.1743057,-142.08984375,-42.48046875,-41.50390625,-653.3203125,0.0,-1.0,0.0,0.0,1.m4v,7.0
2024-02-28 09:14:45.178211,1709108085.178211,827.63671875,-56.640625,-10.25390625,746.09375,0.0,-1.0,0.0,0.0,1.m4v,7.0
2024-02-28 09:14:45.182116,1709108085.1821165,999.51171875,-64.94140625,-18.5546875,999.51171875,0.0,-1.0,0.0,0.0,1.m4v,7.0
2024-02-28 09:14:45.186022,1709108085.1860216,933.10546875,-39.55078125,-16.11328125,910.15625,0.0,-1.0,0.0,0.0,1.m4v,7.0
2024-02-28 09:14:45.189927,1709108085.1899269,561.5234375,-28.3203125,-25.87890625,987.3046875,0.0,-1.0,0.0,0.0,1.m4v,7.0
2024-02-28 09:14:45.193843,1709108085.1938426,151.85546875,-35.15625,-34.66796875,970.703125,0.0,-1.0,0.0,0.0,1.m4v,7.0
2024-02-28 09:14:45.197748,1709108085.197748,267.08984375,-29.296875,-34.66796875,921.38671875,0.0,-1.0,0.0,0.0,1.m4v,7.0
2024-02-28 09:14:45.201653,1709108085.2016532,403.3203125,-24.90234375,-31.73828125,999.51171875,0.0,-1.0,0.0,0.0,1.m4v,7.0
2024-02-28 09:14:45.205559,1709108085.2055583,-229.00390625,-26.85546875,-34.66796875,357.91015625,0.0,-1.0,0.0,0.0,1.m4v,7.0
2024-02-28 09:14:45.209464,1709108085.2094638,-973.14453125,-20.99609375,-43.9453125,-908.203125,0.0,-1.0,0.0,0.0,1.m4v,7.0
2024-02-28 09:14:45.213369,1709108085.2133691,-1000.0,-26.85546875,-35.15625,-1000.0,0.0,-1.0,0.0,0.0,1.m4v,7.0
2024-02-28 09:14:45.217274,1709108085.2172744,-914.0625,-37.59765625,-29.296875,-957.51953125,0.0,-1.0,0.0,0.0,1.m4v,7.0
2024-02-28 09:14:45.221180,1709108085.2211795,-515.625,-42.96875,-27.34375,-1000.0,0.0,-1.0,0.0,0.0,1.m4v,7.0
2024-02-28 09:14:45.225085,1709108085.225085,-206.54296875,-48.33984375,-29.78515625,-947.265625,0.0,-1.0,0.0,0.0,1.m4v,7.0
2024-02-28 09:14:45.228990,1709108085.2289903,-430.17578125,-51.7578125,-41.9921875,-1000.0,0.0,-1.0,0.0,0.0,1.m4v,7.0
2024-02-28 09:14:45.232896,1709108085.2328956,-354.00390625,-52.24609375,-42.96875,-920.41015625,0.0,-1.0,0.0,0.0,1.m4v,7.0
2024-02-28 09:14:45.236801,1709108085.236801,684.08203125,-50.29296875,-41.015625,510.7421875,0.0,-1.0,0.0,0.0,1.m4v,7.0
2024-02-28 09:14:45.240716,1709108085.2407162,999.51171875,-45.8984375,-44.43359375,999.51171875,0.0,-1.0,0.0,0.0,1.m4v,7.0
2024-02-28 09:14:45.244622,1709108085.2446215,929.19921875,-51.26953125,-45.8984375,895.99609375,0.0,-1.0,0.0,0.0,1.m4v,7.0
2024-02-28 09:14:45.248527,1709108085.2485268,709.9609375,-50.29296875,-27.34375,983.88671875,0.0,-1.0,0.0,0.0,1.m4v,7.0
2024-02-28 09:14:45.252432,1709108085.252432,241.2109375,-40.0390625,-15.13671875,969.7265625,0.0,-1.0,0.0,0.0,1.m4v,7.0
2024-02-28 09:14:45.256337,1709108085.2563374,206.54296875,-31.25,-28.80859375,982.91015625,0.0,-1.0,0.0,0.0,1.m4v,7.0
2024-02-28 09:14:45.260243,1709108085.2602427,356.4453125,-25.390625,-34.1796875,917.48046875,0.0,-1.0,0.0,0.0,1.m4v,7.0
2024-02-28 09:14:45.264148,1709108085.264148,312.01171875,-30.76171875,-30.2734375,999.51171875,0.0,-1.0,0.0,0.0,1.m4v,7.0
2024-02-28 09:14:45.268053,1709108085.2680533,-164.0625,-44.921875,-32.71484375,840.8203125,0.0,-1.0,0.0,0.0,1.m4v,7.0
2024-02-28 09:14:45.271959,1709108085.2719586,-873.53515625,-53.22265625,-48.33984375,-568.359375,0.0,-1.0,0.0,0.0,1.m4v,7.0
2024-02-28 09:14:45.275864,1709108085.275864,-1000.0,-48.33984375,-48.33984375,-1000.0,0.0,-1.0,0.0,0.0,1.m4v,7.0
2024-02-28 09:14:45.279769,1709108085.2797692,-975.09765625,-33.69140625,-32.2265625,-932.12890625,0.0,-1.0,0.0,0.0,1.m4v,7.0
2024-02-28 09:14:45.283674,1709108085.2836745,-653.3203125,-25.87890625,-19.53125,-1000.0,0.0,-1.0,0.0,0.0,1.m4v,7.0
2024-02-28 09:14:45.287589,1709108085.287589,-385.25390625,-19.04296875,-12.6953125,-942.87109375,0.0,-1.0,0.0,0.0,1.m4v,7.0
2024-02-28 09:14:45.291494,1709108085.2914944,-596.6796875,-25.87890625,-24.90234375,-1000.0,0.0,-1.0,0.0,0.0,1.m4v,7.0
2024-02-28 09:14:45.295400,1709108085.2953997,-58.59375,-32.2265625,-34.1796875,-548.828125,0.0,-1.0,0.0,0.0,1.m4v,7.0
2024-02-28 09:14:45.299305,1709108085.299305,888.18359375,-22.94921875,-22.4609375,805.6640625,0.0,-1.0,0.0,0.0,1.m4v,7.0
2024-02-28 09:14:45.303210,1709108085.3032105,993.65234375,-21.484375,-33.203125,999.51171875,0.0,-1.0,0.0,0.0,1.m4v,7.0
2024-02-28 09:14:45.307116,1709108085.3071156,919.43359375,-29.78515625,-61.5234375,916.9921875,0.0,-1.0,0.0,0.0,1.m4v,7.0
2024-02-28 09:14:45.311021,1709108085.3110209,467.28515625,-44.43359375,-51.26953125,996.58203125,0.0,-1.0,0.0,0.0,1.m4v,7.0
2024-02-28 09:14:45.314926,1709108085.314926,54.19921875,-46.38671875,-36.1328125,921.875,0.0,-1.0,0.0,0.0,1.m4v,7.0
2024-02-28 09:14:45.318831,1709108085.3188314,221.19140625,-41.50390625,-45.41015625,999.51171875,0.0,-1.0,0.0,0.0,1.m4v,7.0
2024-02-28 09:14:45.322737,1709108085.3227367,158.203125,-41.9921875,-41.50390625,920.41015625,0.0,-1.0,0.0,0.0,1.m4v,7.0
2024-02-28 09:14:45.326642,1709108085.326642,-720.21484375,-44.921875,-24.4140625,-474.12109375,0.0,-1.0,0.0,0.0,1.m4v,7.0
2024-02-28 09:14:45.330547,1709108085.330547,-1000.0,-45.41015625,-21.97265625,-1000.0,0.0,-1.0,0.0,0.0,1.m4v,7.0
2024-02-28 09:14:45.334461,1709108085.3344617,-971.6796875,-45.8984375,-26.3671875,-929.19921875,0.0,-1.0,0.0,0.0,1.m4v,7.0
2024-02-28 09:14:45.338367,1709108085.3383667,-842.28515625,-49.8046875,-29.296875,-1000.0,0.0,-1.0,0.0,0.0,1.m4v,7.0
2024-02-28 09:14:45.342272,1709108085.342272,-381.34765625,-36.1328125,-32.2265625,-1000.0,0.0,-1.0,0.0,0.0,1.m4v,7.0
2024-02-28 09:14:45.346177,1709108085.346177,-204.1015625,-34.66796875,-26.85546875,-937.98828125,0.0,-1.0,0.0,0.0,1.m4v,7.0
2024-02-28 09:14:45.350083,1709108085.3500826,-421.38671875,-36.1328125,-32.2265625,-1000.0,0.0,-1.0,0.0,0.0,1.m4v,7.0
2024-02-28 09:14:45.353988,1709108085.353988,-41.9921875,-35.15625,-40.52734375,-594.7265625,0.0,-1.0,0.0,0.0,1.m4v,7.0
2024-02-28 09:14:45.357893,1709108085.3578932,863.76953125,-35.15625,-31.73828125,798.33984375,0.0,-1.0,0.0,0.0,1.m4v,7.0
2024-02-28 09:14:45.361799,1709108085.3617983,999.51171875,-36.62109375,-42.48046875,999.51171875,0.0,-1.0,0.0,0.0,1.m4v,7.0
2024-02-28 09:14:45.365704,1709108085.3657038,882.8125,-42.96875,-62.98828125,913.57421875,0.0,-1.0,0.0,0.0,1.m4v,7.0
2024-02-28 09:14:45.369609,1709108085.369609,421.38671875,-58.59375,-55.17578125,993.1640625,0.0,-1.0,0.0,0.0,1.m4v,7.0
2024-02-28 09:14:45.373514,1709108085.3735144,32.2265625,-54.19921875,-36.1328125,923.828125,0.0,-1.0,0.0,0.0,1.m4v,7.0
2024-02-28 09:14:45.377420,1709108085.3774197,246.58203125,-26.85546875,-31.25,999.51171875,0.0,-1.0,0.0,0.0,1.m4v,7.0
2024-02-28 09:14:45.381334,1709108085.3813336,229.4921875,-23.4375,-31.73828125,791.015625,0.0,-1.0,0.0,0.0,1.m4v,7.0
2024-02-28 09:14:45.385239,1709108085.385239,-686.03515625,-29.296875,-28.80859375,-566.40625,0.0,-1.0,0.0,0.0,1.m4v,7.0
2024-02-28 09:14:45.389144,1709108085.3891442,-1000.0,-32.71484375,-33.69140625,-1000.0,0.0,-1.0,0.0,0.0,1.m4v,7.0
2024-02-28 09:14:45.393049,1709108085.3930497,-960.44921875,-41.015625,-48.33984375,-935.546875,0.0,-1.0,0.0,0.0,1.m4v,7.0
2024-02-28 09:14:45.396955,1709108085.3969548,-822.265625,-36.62109375,-42.96875,-1000.0,0.0,-1.0,0.0,0.0,1.m4v,7.0
2024-02-28 09:14:45.400860,1709108085.40086,-310.546875,-31.73828125,-40.0390625,-1000.0,0.0,-1.0,0.0,0.0,1.m4v,7.0
2024-02-28 09:14:45.404766,1709108085.4047656,-36.62109375,-20.01953125,-42.96875,-1000.0,0.0,-1.0,0.0,0.0,1.m4v,7.0
2024-02-28 09:14:45.408671,1709108085.408671,-319.82421875,-20.01953125,-52.734375,-1000.0,0.0,-1.0,0.0,0.0,1.m4v,7.0
2024-02-28 09:14:45.412576,1709108085.4125762,-518.06640625,-34.66796875,-51.7578125,-1000.0,0.0,-1.0,0.0,0.0,1.m4v,7.0
2024-02-28 09:14:45.416481,1709108085.4164815,-155.2734375,-39.55078125,-46.38671875,-1000.0,0.0,-1.0,0.0,0.0,1.m4v,7.0
2024-02-28 09:14:45.420387,1709108085.4203868,182.6171875,-41.50390625,-45.41015625,-1000.0,0.0,-1.0,0.0,0.0,1.m4v,7.0
2024-02-28 09:14:45.424292,1709108085.424292,184.08203125,-42.96875,-45.41015625,-949.21875,0.0,-1.0,0.0,0.0,1.m4v,7.0
2024-02-28 09:14:45.428205,1709108085.4282048,-152.34375,-36.1328125,-46.875,-1000.0,0.0,-1.0,0.0,0.0,1.m4v,7.0
2024-02-28 09:14:45.432110,1709108085.43211,-262.6953125,-36.1328125,-30.76171875,-937.01171875,0.0,-1.0,0.0,0.0,1.m4v,7.0
2024-02-28 09:14:45.436015,1709108085.4360154,664.0625,-41.015625,-21.484375,483.3984375,0.0,-1.0,0.0,0.0,1.m4v,7.0
2024-02-28 09:14:45.439921,1709108085.439921,999.51171875,-35.64453125,-25.390625,999.51171875,0.0,-1.0,0.0,0.0,1.m4v,7.0
2024-02-28 09:14:45.443826,1709108085.443826,932.12890625,-36.62109375,-24.90234375,896.484375,0.0,-1.0,0.0,0.0,1.m4v,7.0
2024-02-28 09:14:45.447731,1709108085.4477313,785.15625,-41.015625,-26.3671875,982.91015625,0.0,-1.0,0.0,0.0,1.m4v,7.0
2024-02-28 09:14:45.451637,1709108085.4516366,250.0,-38.0859375,-38.0859375,985.3515625,0.0,-1.0,0.0,0.0,1.m4v,7.0
2024-02-28 09:14:45.455542,1709108085.4555418,-4.8828125,-42.96875,-41.50390625,910.15625,0.0,-1.0,0.0,0.0,1.m4v,7.0
2024-02-28 09:14:45.459447,1709108085.4594471,170.8984375,-47.36328125,-40.52734375,999.51171875,0.0,-1.0,0.0,0.0,1.m4v,7.0
2024-02-28 09:14:45.463352,1709108085.4633524,26.85546875,-43.45703125,-46.875,803.22265625,0.0,-1.0,0.0,0.0,1.m4v,7.0
2024-02-28 09:14:45.467258,1709108085.4672575,-811.03515625,-45.41015625,-39.0625,-644.53125,0.0,-1.0,0.0,0.0,1.m4v,7.0
2024-02-28 09:14:45.471163,1709108085.471163,-1000.0,-37.59765625,-31.25,-1000.0,0.0,-1.0,0.0,0.0,1.m4v,7.0
2024-02-28 09:14:45.475075,1709108085.4750752,-962.890625,-25.87890625,-25.87890625,-929.19921875,0.0,-1.0,0.0,0.0,1.m4v,7.0
2024-02-28 09:14:45.478981,1709108085.4789803,-724.12109375,-33.203125,-35.15625,-1000.0,0.0,-1.0,0.0,0.0,1.m4v,7.0
2024-02-28 09:14:45.482886,1709108085.4828858,-280.2734375,-33.69140625,-42.96875,-984.86328125,0.0,-1.0,0.0,0.0,1.m4v,7.0
2024-02-28 09:14:45.486791,1709108085.4867911,-250.0,-36.62109375,-35.15625,-970.703125,0.0,-1.0,0.0,0.0,1.m4v,7.0
2024-02-28 09:14:45.490696,1709108085.4906964,-441.40625,-46.38671875,-44.43359375,-1000.0,0.0,-1.0,0.0,0.0,1.m4v,7.0
2024-02-28 09:14:45.494602,1709108085.4946015,292.48046875,-46.875,-50.29296875,-31.25,0.0,-1.0,0.0,0.0,1.m4v,7.0
2024-02-28 09:14:45.498507,1709108085.498507,998.046875,-42.48046875,-49.31640625,999.51171875,0.0,-1.0,0.0,0.0,1.m4v,7.0
2024-02-28 09:14:45.502412,1709108085.5024123,963.37890625,-42.48046875,-38.57421875,943.359375,0.0,-1.0,0.0,0.0,1.m4v,7.0
2024-02-28 09:14:45.506318,1709108085.5063176,857.91015625,-34.1796875,-32.71484375,952.63671875,0.0,-1.0,0.0,0.0,1.m4v,7.0
2024-02-28 09:14:45.510223,1709108085.510223,270.99609375,-24.4140625,-33.203125,981.4453125,0.0,-1.0,0.0,0.0,1.m4v,7.0
2024-02-28 09:14:45.514128,1709108085.5141282,-21.484375,-28.3203125,-21.484375,950.68359375,0.0,-1.0,0.0,0.0,1.m4v,7.0
2024-02-28 09:14:45.518034,1709108085.5180335,221.19140625,-33.203125,-20.5078125,947.265625,0.0,-1.0,0.0,0.0,1.m4v,7.0
2024-02-28 09:14:45.521945,1709108085.521945,307.12890625,-36.1328125,-29.296875,999.51171875,0.0,-1.0,0.0,0.0,1.m4v,7.0
2024-02-28 09:14:45.525850,1709108085.5258503,-451.66015625,-35.64453125,-37.109375,-41.50390625,0.0,-1.0,0.0,0.0,1.m4v,7.0
2024-02-28 09:14:45.529756,1709108085.5297556,-1000.0,-40.52734375,-44.921875,-1000.0,0.0,-1.0,0.0,0.0,1.m4v,7.0
2024-02-28 09:14:45.533661,1709108085.533661,-989.2578125,-42.96875,-38.0859375,-971.19140625,0.0,-1.0,0.0,0.0,1.m4v,7.0
2024-02-28 09:14:45.537566,1709108085.5375662,-844.7265625,-39.55078125,-35.15625,-985.3515625,0.0,-1.0,0.0,0.0,1.m4v,7.0
2024-02-28 09:14:45.541471,1709108085.5414715,-326.66015625,-39.55078125,-47.36328125,-1000.0,0.0,-1.0,0.0,0.0,1.m4v,7.0
2024-02-28 09:14:45.951606,1709108085.951606,-1000.0,-36.1328125,-31.25,-1000.0,0.0,-1.0,0.0,0.0,1.m4v,7.0
2024-02-28 09:14:45.955511,1709108085.955511,-958.0078125,-18.06640625,-35.15625,-932.6171875,0.0,-1.0,0.0,0.0,1.m4v,7.0
2024-02-28 09:14:45.959417,1709108085.9594166,-664.55078125,-26.3671875,-38.57421875,-1000.0,0.0,-1.0,0.0,0.0,1.m4v,7.0
2024-02-28 09:14:45.963322,1709108085.963322,-169.43359375,-36.62109375,-38.0859375,-1000.0,0.0,-1.0,0.0,0.0,1.m4v,7.0
2024-02-28 09:14:45.967227,1709108085.9672272,-123.046875,-36.1328125,-30.2734375,-947.75390625,0.0,-1.0,0.0,0.0,1.m4v,7.0
2024-02-28 09:14:45.971133,1709108085.9711325,-428.22265625,-36.62109375,-34.66796875,-1000.0,0.0,-1.0,0.0,0.0,1.m4v,7.0
2024-02-28 09:14:45.975038,1709108085.9750378,92.28515625,-48.33984375,-52.24609375,-396.97265625,0.0,-1.0,0.0,0.0,1.m4v,7.0
2024-02-28 09:14:45.978943,1709108085.978943,937.5,-62.01171875,-47.36328125,890.625,0.0,-1.0,0.0,0.0,1.m4v,7.0
2024-02-28 09:14:45.982848,1709108085.9828484,977.5390625,-51.7578125,-50.29296875,999.0234375,0.0,-1.0,0.0,0.0,1.m4v,7.0
2024-02-28 09:14:45.986754,1709108085.9867537,937.01171875,-24.90234375,-44.43359375,926.7578125,0.0,-1.0,0.0,0.0,1.m4v,7.0
2024-02-28 09:14:45.990669,1709108085.990669,478.515625,-21.97265625,-27.34375,997.0703125,0.0,-1.0,0.0,0.0,1.m4v,7.0
2024-02-28 09:14:45.994574,1709108085.9945743,38.0859375,-31.25,-25.87890625,913.0859375,0.0,-1.0,0.0,0.0,1.m4v,7.0
2024-02-28 09:14:45.998480,1709108085.9984796,231.4453125,-40.52734375,-34.66796875,999.51171875,0.0,-1.0,0.0,0.0,1.m4v,7.0
2024-02-28 09:14:46.002385,1709108086.0023851,162.59765625,-39.55078125,-42.96875,852.05078125,0.0,-1.0,0.0,0.0,1.m4v,7.0
2024-02-28 09:14:46.006290,1709108086.0062904,-746.58203125,-30.76171875,-30.76171875,-592.7734375,0.0,-1.0,0.0,0.0,1.m4v,7.0
2024-02-28 09:14:46.010196,1709108086.0101955,-1000.0,-42.96875,-27.83203125,-1000.0,0.0,-1.0,0.0,0.0,1.m4v,7.0
2024-02-28 09:14:46.014101,1709108086.014101,-957.51953125,-57.12890625,-40.0390625,-927.24609375,0.0,-1.0,0.0,0.0,1.m4v,7.0
2024-02-28 09:14:46.018006,1709108086.0180063,-725.09765625,-47.36328125,-45.41015625,-1000.0,0.0,-1.0,0.0,0.0,1.m4v,7.0
2024-02-28 09:14:46.021912,1709108086.0219116,-285.15625,-34.66796875,-38.57421875,-1000.0,0.0,-1.0,0.0,0.0,1.m4v,7.0
2024-02-28 09:14:46.025817,1709108086.025817,-153.3203125,-24.90234375,-47.8515625,-941.89453125,0.0,-1.0,0.0,0.0,1.m4v,7.0
2024-02-28 09:14:46.029722,1709108086.0297222,-381.8359375,-23.92578125,-61.03515625,-1000.0,0.0,-1.0,0.0,0.0,1.m4v,7.0
2024-02-28 09:14:46.033628,1709108086.0336275,-224.12109375,-30.2734375,-39.0625,-875.0,0.0,-1.0,0.0,0.0,1.m4v,7.0
2024-02-28 09:14:46.037542,1709108086.037542,745.60546875,-32.2265625,-35.64453125,577.63671875,0.0,-1.0,0.0,0.0,1.m4v,7.0
2024-02-28 09:14:46.041447,1709108086.0414474,999.51171875,-39.0625,-37.109375,999.51171875,0.0,-1.0,0.0,0.0,1.m4v,7.0
2024-02-28 09:14:46.045353,1709108086.0453527,943.359375,-35.15625,-21.97265625,896.484375,0.0,-1.0,0.0,0.0,1.m4v,7.0
2024-02-28 09:14:46.049258,1709108086.049258,696.77734375,-27.34375,-20.01953125,985.83984375,0.0,-1.0,0.0,0.0,1.m4v,7.0
2024-02-28 09:14:46.053163,1709108086.0531633,190.91796875,-41.9921875,-33.69140625,981.4453125,0.0,-1.0,0.0,0.0,1.m4v,7.0
2024-02-28 09:14:46.057069,1709108086.0570686,238.28125,-47.8515625,-36.62109375,911.62109375,0.0,-1.0,0.0,0.0,1.m4v,7.0
2024-02-28 09:14:46.060974,1709108086.060974,464.35546875,-44.43359375,-31.73828125,999.51171875,0.0,-1.0,0.0,0.0,1.m4v,7.0
2024-02-28 09:14:46.064879,1709108086.0648792,18.06640625,-43.9453125,-33.69140625,655.76171875,0.0,-1.0,0.0,0.0,1.m4v,7.0
2024-02-28 09:14:46.068784,1709108086.0687845,-861.81640625,-42.48046875,-54.6875,-743.1640625,0.0,-1.0,0.0,0.0,1.m4v,7.0
2024-02-28 09:14:46.072690,1709108086.0726898,-1000.0,-40.0390625,-52.734375,-1000.0,0.0,-1.0,0.0,0.0,1.m4v,7.0
2024-02-28 09:14:46.076595,1709108086.076595,-942.3828125,-38.0859375,-36.1328125,-938.4765625,0.0,-1.0,0.0,0.0,1.m4v,7.0
2024-02-28 09:14:46.080500,1709108086.0805004,-580.078125,-27.34375,-35.64453125,-1000.0,0.0,-1.0,0.0,0.0,1.m4v,7.0
2024-02-28 09:14:46.084414,1709108086.0844138,-189.453125,-30.76171875,-39.55078125,-954.58984375,0.0,-1.0,0.0,0.0,1.m4v,7.0
2024-02-28 09:14:46.088319,1709108086.0883193,-314.453125,-43.9453125,-45.41015625,-1000.0,0.0,-1.0,0.0,0.0,1.m4v,7.0
2024-02-28 09:14:46.092225,1709108086.0922246,-342.7734375,-41.9921875,-39.0625,-969.7265625,0.0,-1.0,0.0,0.0,1.m4v,7.0
2024-02-28 09:14:46.096130,1709108086.09613,618.65234375,-24.90234375,-25.87890625,415.0390625,0.0,-1.0,0.0,0.0,1.m4v,7.0
2024-02-28 09:14:46.100035,1709108086.1000352,999.51171875,-31.25,-20.5078125,999.51171875,0.0,-1.0,0.0,0.0,1.m4v,7.0
2024-02-28 09:14:46.103940,1709108086.1039405,937.01171875,-47.36328125,-20.99609375,898.4375,0.0,-1.0,0.0,0.0,1.m4v,7.0
2024-02-28 09:14:46.107846,1709108086.1078458,872.0703125,-35.15625,-24.4140625,979.98046875,0.0,-1.0,0.0,0.0,1.m4v,7.0
2024-02-28 09:14:46.111751,1709108086.111751,307.6171875,-23.92578125,-37.109375,981.93359375,0.0,-1.0,0.0,0.0,1.m4v,7.0
2024-02-28 09:14:46.115656,1709108086.1156564,55.17578125,-20.01953125,-44.43359375,926.7578125,0.0,-1.0,0.0,0.0,1.m4v,7.0
2024-02-28 09:14:46.119562,1709108086.1195617,283.203125,-19.04296875,-36.62109375,990.72265625,0.0,-1.0,0.0,0.0,1.m4v,7.0
2024-02-28 09:14:46.123467,1709108086.123467,240.234375,-26.3671875,-32.71484375,940.4296875,0.0,-1.0,0.0,0.0,1.m4v,7.0
2024-02-28 09:14:46.127372,1709108086.1273725,-673.33984375,-42.96875,-47.8515625,-411.1328125,0.0,-1.0,0.0,0.0,1.m4v,7.0
2024-02-28 09:14:46.131286,1709108086.1312857,-1000.0,-63.96484375,-53.7109375,-1000.0,0.0,-1.0,0.0,0.0,1.m4v,7.0
2024-02-28 09:14:46.135191,1709108086.135191,-972.16796875,-60.546875,-35.15625,-933.59375,0.0,-1.0,0.0,0.0,1.m4v,7.0
2024-02-28 09:14:46.139096,1709108086.1390965,-799.31640625,-42.48046875,-12.6953125,-1000.0,0.0,-1.0,0.0,0.0,1.m4v,7.0
2024-02-28 09:14:46.143002,1709108086.1430016,-295.41015625,-36.62109375,-14.16015625,-1000.0,0.0,-1.0,0.0,0.0,1.m4v,7.0
2024-02-28 09:14:46.146907,1709108086.1469069,-215.33203125,-27.83203125,-34.66796875,-943.359375,0.0,-1.0,0.0,0.0,1.m4v,7.0
2024-02-28 09:14:46.150812,1709108086.150812,-384.27734375,-16.6015625,-41.015625,-1000.0,0.0,-1.0,0.0,0.0,1.m4v,7.0
2024-02-28 09:14:46.154717,1709108086.1547174,107.91015625,-16.11328125,-33.69140625,-588.37890625,0.0,-1.0,0.0,0.0,1.m4v,7.0
2024-02-28 09:14:46.158623,1709108086.1586227,893.5546875,-19.04296875,-38.0859375,775.87890625,0.0,-1.0,0.0,0.0,1.m4v,7.0
2024-02-28 09:14:46.162528,1709108086.162528,986.81640625,-18.5546875,-32.2265625,999.51171875,0.0,-1.0,0.0,0.0,1.m4v,7.0
2024-02-28 09:14:46.166433,1709108086.166433,940.4296875,-31.25,-20.5078125,916.015625,0.0,-1.0,0.0,0.0,1.m4v,7.0
2024-02-28 09:14:46.170339,1709108086.1703386,565.91796875,-40.0390625,-22.94921875,989.2578125,0.0,-1.0,0.0,0.0,1.m4v,7.0
2024-02-28 09:14:46.174244,1709108086.174244,115.234375,-40.0390625,-36.62109375,914.0625,0.0,-1.0,0.0,0.0,1.m4v,7.0
2024-02-28 09:14:46.178157,1709108086.1781566,283.203125,-45.41015625,-46.38671875,999.51171875,0.0,-1.0,0.0,0.0,1.m4v,7.0
2024-02-28 09:14:46.182062,1709108086.182062,49.31640625,-54.6875,-53.7109375,464.84375,0.0,-1.0,0.0,0.0,1.m4v,7.0
2024-02-28 09:14:46.185967,1709108086.1859672,-863.76953125,-46.38671875,-45.41015625,-866.69921875,0.0,-1.0,0.0,0.0,1.m4v,7.0
2024-02-28 09:14:46.189873,1709108086.1898727,-1000.0,-35.15625,-35.64453125,-1000.0,0.0,-1.0,0.0,0.0,1.m4v,7.0
2024-02-28 09:14:46.193778,1709108086.193778,-953.61328125,-26.85546875,-27.83203125,-950.68359375,0.0,-1.0,0.0,0.0,1.m4v,7.0
2024-02-28 09:14:46.197683,1709108086.197683,-500.9765625,-26.85546875,-26.85546875,-1000.0,0.0,-1.0,0.0,0.0,1.m4v,7.0
2024-02-28 09:14:46.201589,1709108086.2015886,-28.3203125,-34.1796875,-40.0390625,-1000.0,0.0,-1.0,0.0,0.0,1.m4v,7.0
2024-02-28 09:14:46.205494,1709108086.205494,-131.8359375,-33.203125,-46.38671875,-976.5625,0.0,-1.0,0.0,0.0,1.m4v,7.0
2024-02-28 09:14:46.209399,1709108086.2093992,-428.22265625,-31.73828125,-48.33984375,-985.3515625,0.0,-1.0,0.0,0.0,1.m4v,7.0
2024-02-28 09:14:46.213305,1709108086.2133043,-439.453125,-38.57421875,-42.48046875,-1000.0,0.0,-1.0,0.0,0.0,1.m4v,7.0
2024-02-28 09:14:46.217210,1709108086.2172098,517.08984375,-43.45703125,-21.484375,97.65625,0.0,-1.0,0.0,0.0,1.m4v,7.0
2024-02-28 09:14:46.221115,1709108086.221115,999.51171875,-32.2265625,-18.5546875,999.51171875,0.0,-1.0,0.0,0.0,1.m4v,7.0
2024-02-28 09:14:46.225028,1709108086.2250278,953.125,-31.25,-24.4140625,929.19921875,0.0,-1.0,0.0,0.0,1.m4v,7.0
2024-02-28 09:14:46.228933,1709108086.228933,766.6015625,-41.50390625,-27.34375,961.42578125,0.0,-1.0,0.0,0.0,1.m4v,7.0
2024-02-28 09:14:46.232838,1709108086.2328384,218.26171875,-44.43359375,-39.0625,987.3046875,0.0,-1.0,0.0,0.0,1.m4v,7.0
2024-02-28 09:14:46.236744,1709108086.2367437,146.97265625,-41.50390625,-41.50390625,911.62109375,0.0,-1.0,0.0,0.0,1.m4v,7.0
2024-02-28 09:14:46.240649,1709108086.240649,344.23828125,-39.0625,-41.50390625,999.51171875,0.0,-1.0,0.0,0.0,1.m4v,7.0
2024-02-28 09:14:46.244554,1709108086.2445543,61.03515625,-56.640625,-37.59765625,750.9765625,0.0,-1.0,0.0,0.0,1.m4v,7.0
2024-02-28 09:14:46.248460,1709108086.2484596,-815.4296875,-65.91796875,-31.25,-674.8046875,0.0,-1.0,0.0,0.0,1.m4v,7.0
2024-02-28 09:14:46.252365,1709108086.2523649,-1000.0,-39.55078125,-34.1796875,-1000.0,0.0,-1.0,0.0,0.0,1.m4v,7.0
2024-02-28 09:14:46.256270,1709108086.2562702,-966.30859375,-24.90234375,-35.64453125,-933.10546875,0.0,-1.0,0.0,0.0,1.m4v,7.0
2024-02-28 09:14:46.260175,1709108086.2601757,-730.95703125,-18.5546875,-34.1796875,-1000.0,0.0,-1.0,0.0,0.0,1.m4v,7.0
2024-02-28 09:14:46.264081,1709108086.2640808,-296.875,-13.671875,-30.2734375,-992.67578125,0.0,-1.0,0.0,0.0,1.m4v,7.0
2024-02-28 09:14:46.267986,1709108086.267986,-309.5703125,-24.4140625,-25.390625,-959.9609375,0.0,-1.0,0.0,0.0,1.m4v,7.0
2024-02-28 09:14:46.271898,1709108086.2718976,-491.2109375,-44.921875,-18.5546875,-1000.0,0.0,-1.0,0.0,0.0,1.m4v,7.0
2024-02-28 09:14:46.275803,1709108086.2758029,257.32421875,-44.43359375,-23.4375,-187.01171875,0.0,-1.0,0.0,0.0,1.m4v,7.0
2024-02-28 09:14:46.279708,1709108086.279708,985.3515625,-37.109375,-34.66796875,976.07421875,0.0,-1.0,0.0,0.0,1.m4v,7.0
2024-02-28 09:14:46.283613,1709108086.2836134,968.75,-49.31640625,-30.76171875,966.796875,0.0,-1.0,0.0,0.0,1.m4v,7.0
2024-02-28 09:14:46.287519,1709108086.2875187,880.37109375,-45.8984375,-28.3203125,941.40625,0.0,-1.0,0.0,0.0,1.m4v,7.0
2024-02-28 09:14:46.291424,1709108086.291424,410.64453125,-30.76171875,-39.55078125,990.234375,0.0,-1.0,0.0,0.0,1.m4v,7.0
2024-02-28 09:14:46.295329,1709108086.295329,121.58203125,-41.50390625,-62.98828125,926.7578125,0.0,-1.0,0.0,0.0,1.m4v,7.0
2024-02-28 09:14:46.299235,1709108086.2992346,239.74609375,-45.41015625,-49.31640625,990.234375,0.0,-1.0,0.0,0.0,1.m4v,7.0
2024-02-28 09:14:46.303140,1709108086.30314,214.84375,-28.3203125,-22.4609375,945.3125,0.0,-1.0,0.0,0.0,1.m4v,7.0
2024-02-28 09:14:46.307045,1709108086.3070452,-663.0859375,-33.203125,-25.87890625,-411.1328125,0.0,-1.0,0.0,0.0,1.m4v,7.0
2024-02-28 09:14:46.310951,1709108086.3109505,-1000.0,-44.43359375,-33.203125,-1000.0,0.0,-1.0,0.0,0.0,1.m4v,7.0
2024-02-28 09:14:46.314856,1709108086.3148558,-964.84375,-48.33984375,-41.50390625,-932.6171875,0.0,-1.0,0.0,0.0,1.m4v,7.0
2024-02-28 09:14:46.318772,1709108086.3187716,-786.1328125,-47.36328125,-48.828125,-1000.0,0.0,-1.0,0.0,0.0,1.m4v,7.0
2024-02-28 09:14:46.322677,1709108086.322677,-352.05078125,-37.59765625,-46.38671875,-1000.0,0.0,-1.0,0.0,0.0,1.m4v,7.0
2024-02-28 09:14:46.326582,1709108086.3265822,-228.515625,-34.1796875,-37.109375,-938.96484375,0.0,-1.0,0.0,0.0,1.m4v,7.0
2024-02-28 09:14:46.330487,1709108086.3304875,-474.609375,-38.57421875,-31.25,-1000.0,0.0,-1.0,0.0,0.0,1.m4v,7.0
2024-02-28 09:14:46.334393,1709108086.3343928,-103.02734375,-37.109375,-32.2265625,-647.4609375,0.0,-1.0,0.0,0.0,1.m4v,7.0
2024-02-28 09:14:46.338298,1709108086.338298,848.6328125,-32.2265625,-28.3203125,756.34765625,0.0,-1.0,0.0,0.0,1.m4v,7.0
2024-02-28 09:14:46.342203,1709108086.3422034,999.51171875,-41.9921875,-31.73828125,999.51171875,0.0,-1.0,0.0,0.0,1.m4v,7.0
2024-02-28 09:14:46.346109,1709108086.346109,937.5,-48.33984375,-26.3671875,910.15625,0.0,-1.0,0.0,0.0,1.m4v,7.0
2024-02-28 09:14:46.350014,1709108086.3500142,534.66796875,-41.50390625,-29.296875,984.86328125,0.0,-1.0,0.0,0.0,1.m4v,7.0
2024-02-28 09:14:46.353920,1709108086.3539195,89.35546875,-36.1328125,-45.41015625,982.91015625,0.0,-1.0,0.0,0.0,1.m4v,7.0
2024-02-28 09:14:46.357825,1709108086.3578248,174.8046875,-42.48046875,-40.0390625,912.59765625,0.0,-1.0,0.0,0.0,1.m4v,7.0
2024-02-28 09:14:46.361730,1709108086.36173,378.90625,-33.203125,-31.25,999.51171875,0.0,-1.0,0.0,0.0,1.m4v,7.0
2024-02-28 09:14:46.365645,1709108086.3656452,73.73046875,-27.83203125,-30.76171875,746.09375,0.0,-1.0,0.0,0.0,1.m4v,7.0
2024-02-28 09:14:46.369550,1709108086.3695505,-824.70703125,-38.0859375,-29.296875,-674.31640625,0.0,-1.0,0.0,0.0,1.m4v,7.0
2024-02-28 09:14:46.373456,1709108086.3734558,-1000.0,-42.48046875,-35.64453125,-1000.0,0.0,-1.0,0.0,0.0,1.m4v,7.0
2024-02-28 09:14:46.377361,1709108086.377361,-957.51953125,-43.45703125,-37.59765625,-933.10546875,0.0,-1.0,0.0,0.0,1.m4v,7.0
2024-02-28 09:14:46.381266,1709108086.3812664,-729.98046875,-50.78125,-40.52734375,-1000.0,0.0,-1.0,0.0,0.0,1.m4v,7.0
2024-02-28 09:14:46.385172,1709108086.3851717,-349.12109375,-44.921875,-49.31640625,-943.359375,0.0,-1.0,0.0,0.0,1.m4v,7.0
2024-02-28 09:14:46.389077,1709108086.389077,-390.13671875,-38.57421875,-37.59765625,-1000.0,0.0,-1.0,0.0,0.0,1.m4v,7.0
2024-02-28 09:14:46.392982,1709108086.3929822,-302.24609375,-47.36328125,-31.73828125,-887.20703125,0.0,-1.0,0.0,0.0,1.m4v,7.0
2024-02-28 09:14:46.396888,1709108086.3968875,692.87109375,-36.1328125,-35.64453125,560.546875,0.0,-1.0,0.0,0.0,1.m4v,7.0
2024-02-28 09:14:46.400793,1709108086.4007928,999.51171875,-19.04296875,-19.04296875,999.51171875,0.0,-1.0,0.0,0.0,1.m4v,7.0
2024-02-28 09:14:46.404698,1709108086.404698,938.4765625,-14.6484375,-18.06640625,895.99609375,0.0,-1.0,0.0,0.0,1.m4v,7.0
2024-02-28 09:14:46.408603,1709108086.4086034,723.6328125,-21.484375,-25.87890625,984.86328125,0.0,-1.0,0.0,0.0,1.m4v,7.0
2024-02-28 09:14:46.412518,1709108086.412518,162.59765625,-38.0859375,-30.76171875,984.375,0.0,-1.0,0.0,0.0,1.m4v,7.0
2024-02-28 09:14:46.416423,1709108086.416423,62.01171875,-46.875,-55.6640625,908.69140625,0.0,-1.0,0.0,0.0,1.m4v,7.0
2024-02-28 09:14:46.420329,1709108086.4203286,320.3125,-34.66796875,-49.31640625,999.51171875,0.0,-1.0,0.0,0.0,1.m4v,7.0
2024-02-28 09:14:46.424234,1709108086.424234,102.5390625,-32.71484375,-36.1328125,755.37109375,0.0,-1.0,0.0,0.0,1.m4v,7.0
2024-02-28 09:14:46.428139,1709108086.4281392,-812.5,-40.0390625,-42.48046875,-687.01171875,0.0,-1.0,0.0,0.0,1.m4v,7.0
2024-02-28 09:14:46.432045,1709108086.4320445,-1000.0,-36.1328125,-34.66796875,-1000.0,0.0,-1.0,0.0,0.0,1.m4v,7.0
2024-02-28 09:14:46.435950,1709108086.4359498,-960.9375,-24.4140625,-20.99609375,-932.12890625,0.0,-1.0,0.0,0.0,1.m4v,7.0
2024-02-28 09:14:46.439855,1709108086.439855,-719.23828125,-27.83203125,-31.25,-1000.0,0.0,-1.0,0.0,0.0,1.m4v,7.0
2024-02-28 09:14:46.443760,1709108086.4437604,-295.8984375,-38.0859375,-47.36328125,-1000.0,0.0,-1.0,0.0,0.0,1.m4v,7.0
2024-02-28 09:14:46.447666,1709108086.4476657,-224.12109375,-36.62109375,-32.71484375,-947.265625,0.0,-1.0,0.0,0.0,1.m4v,7.0
2024-02-28 09:14:46.451571,1709108086.451571,-403.3203125,-36.1328125,-29.296875,-1000.0,0.0,-1.0,0.0,0.0,1.m4v,7.0
2024-02-28 09:14:46.455476,1709108086.4554763,143.06640625,-32.71484375,-37.109375,-431.640625,0.0,-1.0,0.0,0.0,1.m4v,7.0
2024-02-28 09:14:46.459390,1709108086.4593904,931.640625,-38.57421875,-29.78515625,868.65234375,0.0,-1.0,0.0,0.0,1.m4v,7.0
2024-02-28 09:14:46.463296,1709108086.4632957,984.375,-39.0625,-28.80859375,999.51171875,0.0,-1.0,0.0,0.0,1.m4v,7.0
2024-02-28 09:14:46.467201,1709108086.467201,916.9921875,-38.0859375,-35.64453125,924.31640625,0.0,-1.0,0.0,0.0,1.m4v,7.0
2024-02-28 09:14:46.471106,1709108086.4711063,412.109375,-50.78125,-48.33984375,998.046875,0.0,-1.0,0.0,0.0,1.m4v,7.0
2024-02-28 09:14:46.475012,1709108086.4750116,56.640625,-38.0859375,-44.43359375,910.15625,0.0,-1.0,0.0,0.0,1.m4v,7.0
2024-02-28 09:14:46.478917,1709108086.478917,323.73046875,-28.3203125,-40.52734375,999.51171875,0.0,-1.0,0.0,0.0,1.m4v,7.0
2024-02-28 09:14:46.482822,1709108086.4828222,177.734375,-32.71484375,-46.38671875,820.3125,0.0,-1.0,0.0,0.0,1.m4v,7.0
2024-02-28 09:14:46.486727,1709108086.4867277,-780.76171875,-34.1796875,-47.36328125,-634.765625,0.0,-1.0,0.0,0.0,1.m4v,7.0
2024-02-28 09:14:46.490633,1709108086.4906328,-1000.0,-30.2734375,-39.0625,-1000.0,0.0,-1.0,0.0,0.0,1.m4v,7.0
2024-02-28 09:14:46.494538,1709108086.494538,-961.42578125,-32.2265625,-26.3671875,-927.734375,0.0,-1.0,0.0,0.0,1.m4v,7.0
2024-02-28 09:14:46.498443,1709108086.4984434,-727.5390625,-43.45703125,-25.390625,-1000.0,0.0,-1.0,0.0,0.0,1.m4v,7.0
2024-02-28 09:14:46.502349,1709108086.502349,-236.328125,-33.203125,-29.296875,-1000.0,0.0,-1.0,0.0,0.0,1.m4v,7.0
2024-02-28 09:14:46.506262,1709108086.506262,-158.203125,-23.4375,-40.0390625,-938.4765625,0.0,-1.0,0.0,0.0,1.m4v,7.0
2024-02-28 09:14:46.510167,1709108086.5101674,-467.28515625,-27.83203125,-41.015625,-1000.0,0.0,-1.0,0.0,0.0,1.m4v,7.0
2024-02-28 09:14:46.514073,1709108086.514073,-184.08203125,-32.2265625,-36.1328125,-735.83984375,0.0,-1.0,0.0,0.0,1.m4v,7.0
2024-02-28 09:14:46.517978,1709108086.517978,800.78125,-49.31640625,-32.2265625,697.75390625,0.0,-1.0,0.0,0.0,1.m4v,7.0
2024-02-28 09:14:46.521883,1709108086.5218832,999.51171875,-51.7578125,-21.484375,999.51171875,0.0,-1.0,0.0,0.0,1.m4v,7.0
2024-02-28 09:14:46.525789,1709108086.5257883,916.50390625,-32.2265625,-25.390625,904.296875,0.0,-1.0,0.0,0.0,1.m4v,7.0
2024-02-28 09:14:46.529694,1709108086.5296938,577.1484375,-30.76171875,-34.1796875,989.74609375,0.0,-1.0,0.0,0.0,1.m4v,7.0
2024-02-28 09:14:46.533599,1709108086.5335991,135.25390625,-41.015625,-42.48046875,961.42578125,0.0,-1.0,0.0,0.0,1.m4v,7.0
2024-02-28 09:14:46.974985,1709108086.9749846,-951.171875,-47.8515625,-29.78515625,-933.59375,0.0,-1.0,0.0,0.0,1.m4v,7.0
2024-02-28 09:14:46.978890,1709108086.97889,-604.98046875,-33.69140625,-39.55078125,-1000.0,0.0,-1.0,0.0,0.0,1.m4v,7.0
2024-02-28 09:14:46.982795,1709108086.9827952,-162.109375,-24.90234375,-56.15234375,-1000.0,0.0,-1.0,0.0,0.0,1.m4v,7.0
2024-02-28 09:14:46.986701,1709108086.9867003,-137.6953125,-37.109375,-55.6640625,-942.87109375,0.0,-1.0,0.0,0.0,1.m4v,7.0
2024-02-28 09:14:46.990606,1709108086.9906058,-343.75,-37.109375,-32.2265625,-1000.0,0.0,-1.0,0.0,0.0,1.m4v,7.0
2024-02-28 09:14:46.994511,1709108086.9945111,-67.3828125,-46.38671875,-14.6484375,-870.1171875,0.0,-1.0,0.0,0.0,1.m4v,7.0
2024-02-28 09:14:46.998416,1709108086.9984164,800.78125,-59.5703125,-32.71484375,576.66015625,0.0,-1.0,0.0,0.0,1.m4v,7.0
2024-02-28 09:14:47.002322,1709108087.0023215,999.51171875,-56.640625,-40.52734375,999.51171875,0.0,-1.0,0.0,0.0,1.m4v,7.0
2024-02-28 09:14:47.006227,1709108087.006227,939.94140625,-44.921875,-31.25,897.94921875,0.0,-1.0,0.0,0.0,1.m4v,7.0
2024-02-28 09:14:47.010132,1709108087.0101323,635.7421875,-32.2265625,-31.25,996.09375,0.0,-1.0,0.0,0.0,1.m4v,7.0
2024-02-28 09:14:47.014038,1709108087.0140376,169.43359375,-34.66796875,-46.875,910.15625,0.0,-1.0,0.0,0.0,1.m4v,7.0
2024-02-28 09:14:47.017943,1709108087.017943,315.4296875,-33.203125,-40.0390625,999.51171875,0.0,-1.0,0.0,0.0,1.m4v,7.0
2024-02-28 09:14:47.021855,1709108087.0218546,168.9453125,-22.4609375,-25.390625,621.09375,0.0,-1.0,0.0,0.0,1.m4v,7.0
2024-02-28 09:14:47.025760,1709108087.02576,-807.12890625,-33.69140625,-39.0625,-775.390625,0.0,-1.0,0.0,0.0,1.m4v,7.0
2024-02-28 09:14:47.029665,1709108087.0296652,-1000.0,-40.0390625,-49.8046875,-1000.0,0.0,-1.0,0.0,0.0,1.m4v,7.0
2024-02-28 09:14:47.033571,1709108087.0335703,-953.125,-35.64453125,-43.45703125,-940.4296875,0.0,-1.0,0.0,0.0,1.m4v,7.0
2024-02-28 09:14:47.037476,1709108087.0374758,-634.27734375,-51.7578125,-28.80859375,-1000.0,0.0,-1.0,0.0,0.0,1.m4v,7.0
2024-02-28 09:14:47.041381,1709108087.0413811,-88.8671875,-54.6875,-35.64453125,-1000.0,0.0,-1.0,0.0,0.0,1.m4v,7.0
2024-02-28 09:14:47.045286,1709108087.0452864,-54.6875,-43.9453125,-56.15234375,-1000.0,0.0,-1.0,0.0,0.0,1.m4v,7.0
2024-02-28 09:14:47.049192,1709108087.0491917,-361.328125,-47.36328125,-51.7578125,-951.66015625,0.0,-1.0,0.0,0.0,1.m4v,7.0
2024-02-28 09:14:47.053097,1709108087.053097,-452.1484375,-45.8984375,-36.1328125,-1000.0,0.0,-1.0,0.0,0.0,1.m4v,7.0
2024-02-28 09:14:47.057002,1709108087.0570023,240.72265625,-26.85546875,-28.80859375,-445.3125,0.0,-1.0,0.0,0.0,1.m4v,7.0
2024-02-28 09:14:47.060908,1709108087.0609076,939.453125,-14.16015625,-37.109375,838.37890625,0.0,-1.0,0.0,0.0,1.m4v,7.0
2024-02-28 09:14:47.064813,1709108087.064813,987.3046875,-20.99609375,-33.69140625,999.51171875,0.0,-1.0,0.0,0.0,1.m4v,7.0
2024-02-28 09:14:47.068729,1709108087.0687287,843.75,-34.66796875,-33.203125,925.29296875,0.0,-1.0,0.0,0.0,1.m4v,7.0
2024-02-28 09:14:47.072634,1709108087.072634,373.53515625,-41.50390625,-46.38671875,987.79296875,0.0,-1.0,0.0,0.0,1.m4v,7.0
2024-02-28 09:14:47.076539,1709108087.0765393,159.1796875,-38.57421875,-43.45703125,915.0390625,0.0,-1.0,0.0,0.0,1.m4v,7.0
2024-02-28 09:14:47.080445,1709108087.0804446,246.09375,-32.2265625,-34.66796875,999.51171875,0.0,-1.0,0.0,0.0,1.m4v,7.0
2024-02-28 09:14:47.084350,1709108087.08435,-176.26953125,-47.36328125,-29.296875,491.69921875,0.0,-1.0,0.0,0.0,1.m4v,7.0
2024-02-28 09:14:47.088255,1709108087.0882552,-920.41015625,-50.78125,-31.25,-843.75,0.0,-1.0,0.0,0.0,1.m4v,7.0
2024-02-28 09:14:47.092160,1709108087.0921605,-1000.0,-32.71484375,-34.1796875,-1000.0,0.0,-1.0,0.0,0.0,1.m4v,7.0
2024-02-28 09:14:47.096066,1709108087.0960658,-967.28515625,-32.2265625,-28.3203125,-949.21875,0.0,-1.0,0.0,0.0,1.m4v,7.0
2024-02-28 09:14:47.099971,1709108087.099971,-610.3515625,-41.50390625,-24.90234375,-1000.0,0.0,-1.0,0.0,0.0,1.m4v,7.0
2024-02-28 09:14:47.103876,1709108087.1038764,-131.8359375,-37.59765625,-40.52734375,-955.078125,0.0,-1.0,0.0,0.0,1.m4v,7.0
2024-02-28 09:14:47.107782,1709108087.1077816,-246.09375,-25.390625,-42.96875,-1000.0,0.0,-1.0,0.0,0.0,1.m4v,7.0
2024-02-28 09:14:47.111687,1709108087.111687,-379.8828125,-24.4140625,-35.15625,-972.65625,0.0,-1.0,0.0,0.0,1.m4v,7.0
2024-02-28 09:14:47.115602,1709108087.1156025,578.125,-34.66796875,-33.203125,409.66796875,0.0,-1.0,0.0,0.0,1.m4v,7.0
2024-02-28 09:14:47.119508,1709108087.1195076,999.51171875,-39.55078125,-35.15625,999.51171875,0.0,-1.0,0.0,0.0,1.m4v,7.0
2024-02-28 09:14:47.123413,1709108087.1234128,936.5234375,-37.109375,-42.96875,898.4375,0.0,-1.0,0.0,0.0,1.m4v,7.0
2024-02-28 09:14:47.127318,1709108087.127318,810.546875,-38.57421875,-56.640625,979.98046875,0.0,-1.0,0.0,0.0,1.m4v,7.0
2024-02-28 09:14:47.131223,1709108087.1312234,229.4921875,-46.875,-48.828125,985.83984375,0.0,-1.0,0.0,0.0,1.m4v,7.0
2024-02-28 09:14:47.135129,1709108087.1351287,80.078125,-45.8984375,-45.8984375,909.1796875,0.0,-1.0,0.0,0.0,1.m4v,7.0
2024-02-28 09:14:47.139034,1709108087.139034,337.40234375,-38.0859375,-45.41015625,999.51171875,0.0,-1.0,0.0,0.0,1.m4v,7.0
2024-02-28 09:14:47.142939,1709108087.142939,102.5390625,-50.29296875,-22.94921875,798.828125,0.0,-1.0,0.0,0.0,1.m4v,7.0
2024-02-28 09:14:47.146845,1709108087.1468446,-797.8515625,-61.03515625,-34.66796875,-655.2734375,0.0,-1.0,0.0,0.0,1.m4v,7.0
2024-02-28 09:14:47.150750,1709108087.15075,-1000.0,-49.31640625,-49.31640625,-1000.0,0.0,-1.0,0.0,0.0,1.m4v,7.0
2024-02-28 09:14:47.154655,1709108087.1546552,-963.37890625,-44.43359375,-42.96875,-929.19921875,0.0,-1.0,0.0,0.0,1.m4v,7.0
2024-02-28 09:14:47.158561,1709108087.1585605,-692.87109375,-39.0625,-38.57421875,-1000.0,0.0,-1.0,0.0,0.0,1.m4v,7.0
2024-02-28 09:14:47.162475,1709108087.1624746,-214.35546875,-33.69140625,-44.43359375,-1000.0,0.0,-1.0,0.0,0.0,1.m4v,7.0
2024-02-28 09:14:47.166380,1709108087.16638,-114.74609375,-26.3671875,-56.15234375,-939.94140625,0.0,-1.0,0.0,0.0,1.m4v,7.0
2024-02-28 09:14:47.170285,1709108087.1702852,-349.609375,-27.83203125,-38.0859375,-1000.0,0.0,-1.0,0.0,0.0,1.m4v,7.0
2024-02-28 09:14:47.174191,1709108087.1741903,17.08984375,-34.66796875,-24.90234375,-562.98828125,0.0,-1.0,0.0,0.0,1.m4v,7.0
2024-02-28 09:14:47.178096,1709108087.1780958,882.32421875,-35.15625,-30.76171875,810.546875,0.0,-1.0,0.0,0.0,1.m4v,7.0
2024-02-28 09:14:47.182001,1709108087.182001,993.65234375,-33.69140625,-25.87890625,999.51171875,0.0,-1.0,0.0,0.0,1.m4v,7.0
2024-02-28 09:14:47.185906,1709108087.1859064,939.453125,-35.64453125,-23.92578125,916.015625,0.0,-1.0,0.0,0.0,1.m4v,7.0
2024-02-28 09:14:47.189812,1709108087.1898117,505.859375,-49.31640625,-30.76171875,992.67578125,0.0,-1.0,0.0,0.0,1.m4v,7.0
2024-02-28 09:14:47.193717,1709108087.193717,38.57421875,-48.33984375,-29.296875,937.5,0.0,-1.0,0.0,0.0,1.m4v,7.0
2024-02-28 09:14:47.197622,1709108087.1976223,187.01171875,-29.78515625,-35.15625,969.23828125,0.0,-1.0,0.0,0.0,1.m4v,7.0
2024-02-28 09:14:47.201528,1709108087.2015276,232.91015625,-24.90234375,-39.55078125,990.234375,0.0,-1.0,0.0,0.0,1.m4v,7.0
2024-02-28 09:14:47.205433,1709108087.205433,-574.21875,-32.71484375,-37.109375,-256.34765625,0.0,-1.0,0.0,0.0,1.m4v,7.0
2024-02-28 09:14:47.209347,1709108087.209347,-1000.0,-40.52734375,-41.50390625,-1000.0,0.0,-1.0,0.0,0.0,1.m4v,7.0
2024-02-28 09:14:47.213252,1709108087.2132523,-975.5859375,-35.64453125,-45.8984375,-945.80078125,0.0,-1.0,0.0,0.0,1.m4v,7.0
2024-02-28 09:14:47.217158,1709108087.2171576,-854.4921875,-28.80859375,-43.45703125,-1000.0,0.0,-1.0,0.0,0.0,1.m4v,7.0
2024-02-28 09:14:47.221063,1709108087.221063,-428.7109375,-31.73828125,-30.76171875,-1000.0,0.0,-1.0,0.0,0.0,1.m4v,7.0
2024-02-28 09:14:47.224968,1709108087.2249682,-172.36328125,-33.69140625,-23.4375,-938.96484375,0.0,-1.0,0.0,0.0,1.m4v,7.0
2024-02-28 09:14:47.228873,1709108087.2288735,-317.3828125,-33.69140625,-37.109375,-1000.0,0.0,-1.0,0.0,0.0,1.m4v,7.0
2024-02-28 09:14:47.232779,1709108087.2327788,-123.53515625,-29.78515625,-46.38671875,-713.37890625,0.0,-1.0,0.0,0.0,1.m4v,7.0
2024-02-28 09:14:47.236684,1709108087.236684,789.0625,-26.3671875,-32.2265625,709.47265625,0.0,-1.0,0.0,0.0,1.m4v,7.0
2024-02-28 09:14:47.240589,1709108087.2405894,999.51171875,-41.015625,-29.78515625,999.51171875,0.0,-1.0,0.0,0.0,1.m4v,7.0
2024-02-28 09:14:47.244495,1709108087.244495,932.6171875,-51.26953125,-39.0625,905.76171875,0.0,-1.0,0.0,0.0,1.m4v,7.0
2024-02-28 09:14:47.248400,1709108087.2484,609.86328125,-31.73828125,-49.8046875,987.3046875,0.0,-1.0,0.0,0.0,1.m4v,7.0
2024-02-28 09:14:47.252305,1709108087.2523053,50.29296875,-19.04296875,-52.24609375,973.6328125,0.0,-1.0,0.0,0.0,1.m4v,7.0
2024-02-28 09:14:47.256219,1709108087.256219,14.16015625,-32.2265625,-46.875,916.50390625,0.0,-1.0,0.0,0.0,1.m4v,7.0
2024-02-28 09:14:47.260124,1709108087.260124,286.62109375,-41.015625,-39.55078125,999.51171875,0.0,-1.0,0.0,0.0,1.m4v,7.0
2024-02-28 09:14:47.264029,1709108087.2640293,-121.58203125,-46.38671875,-40.52734375,409.1796875,0.0,-1.0,0.0,0.0,1.m4v,7.0
2024-02-28 09:14:47.267935,1709108087.2679346,-927.24609375,-51.26953125,-38.0859375,-895.99609375,0.0,-1.0,0.0,0.0,1.m4v,7.0
2024-02-28 09:14:47.271840,1709108087.27184,-1000.0,-40.0390625,-30.76171875,-1000.0,0.0,-1.0,0.0,0.0,1.m4v,7.0
2024-02-28 09:14:47.275745,1709108087.2757452,-920.8984375,-37.109375,-28.80859375,-954.1015625,0.0,-1.0,0.0,0.0,1.m4v,7.0
2024-02-28 09:14:47.279650,1709108087.2796504,-493.65234375,-38.0859375,-26.85546875,-1000.0,0.0,-1.0,0.0,0.0,1.m4v,7.0
2024-02-28 09:14:47.283556,1709108087.2835555,-193.84765625,-55.6640625,-46.875,-1000.0,0.0,-1.0,0.0,0.0,1.m4v,7.0
2024-02-28 09:14:47.287461,1709108087.287461,-273.92578125,-55.17578125,-48.828125,-941.89453125,0.0,-1.0,0.0,0.0,1.m4v,7.0
2024-02-28 09:14:47.291366,1709108087.2913663,-454.1015625,-29.296875,-40.52734375,-1000.0,0.0,-1.0,0.0,0.0,1.m4v,7.0
2024-02-28 09:14:47.295272,1709108087.2952716,-40.52734375,-32.2265625,-38.57421875,-664.0625,0.0,-1.0,0.0,0.0,1.m4v,7.0
2024-02-28 09:14:47.299177,1709108087.2991772,841.30859375,-31.25,-35.15625,729.00390625,0.0,-1.0,0.0,0.0,1.m4v,7.0
2024-02-28 09:14:47.303090,1709108087.3030903,999.51171875,-29.296875,-32.71484375,999.51171875,0.0,-1.0,0.0,0.0,1.m4v,7.0
2024-02-28 09:14:47.306996,1709108087.3069956,925.29296875,-27.83203125,-30.76171875,909.1796875,0.0,-1.0,0.0,0.0,1.m4v,7.0
2024-02-28 09:14:47.310901,1709108087.310901,447.75390625,-30.76171875,-43.45703125,988.28125,0.0,-1.0,0.0,0.0,1.m4v,7.0
2024-02-28 09:14:47.314806,1709108087.3148062,12.6953125,-41.015625,-45.41015625,963.37890625,0.0,-1.0,0.0,0.0,1.m4v,7.0
2024-02-28 09:14:47.318712,1709108087.3187115,157.71484375,-39.55078125,-46.875,929.19921875,0.0,-1.0,0.0,0.0,1.m4v,7.0
2024-02-28 09:14:47.322617,1709108087.3226168,370.1171875,-38.0859375,-40.52734375,999.51171875,0.0,-1.0,0.0,0.0,1.m4v,7.0
2024-02-28 09:14:47.326522,1709108087.326522,-288.0859375,-41.9921875,-30.2734375,188.96484375,0.0,-1.0,0.0,0.0,1.m4v,7.0
2024-02-28 09:14:47.330427,1709108087.3304274,-1000.0,-55.6640625,-31.25,-987.3046875,0.0,-1.0,0.0,0.0,1.m4v,7.0
2024-02-28 09:14:47.334333,1709108087.3343327,-995.60546875,-50.29296875,-35.15625,-1000.0,0.0,-1.0,0.0,0.0,1.m4v,7.0
2024-02-28 09:14:47.338238,1709108087.338238,-937.98828125,-37.109375,-43.45703125,-969.23828125,0.0,-1.0,0.0,0.0,1.m4v,7.0
2024-02-28 09:14:47.342143,1709108087.3421433,-599.12109375,-42.48046875,-39.55078125,-1000.0,0.0,-1.0,0.0,0.0,1.m4v,7.0
2024-02-28 09:14:47.346049,1709108087.3460486,-328.125,-41.9921875,-38.57421875,-945.3125,0.0,-1.0,0.0,0.0,1.m4v,7.0
2024-02-28 09:14:47.349961,1709108087.3499608,-498.046875,-42.48046875,-33.69140625,-1000.0,0.0,-1.0,0.0,0.0,1.m4v,7.0
2024-02-28 09:14:47.353866,1709108087.353866,-306.640625,-36.1328125,-14.16015625,-899.90234375,0.0,-1.0,0.0,0.0,1.m4v,7.0
2024-02-28 09:14:47.357771,1709108087.3577714,717.7734375,-20.5078125,-28.3203125,537.59765625,0.0,-1.0,0.0,0.0,1.m4v,7.0
2024-02-28 09:14:47.361677,1709108087.3616767,999.51171875,-19.04296875,-44.921875,999.51171875,0.0,-1.0,0.0,0.0,1.m4v,7.0
2024-02-28 09:14:47.365582,1709108087.365582,928.7109375,-24.90234375,-30.2734375,896.484375,0.0,-1.0,0.0,0.0,1.m4v,7.0
2024-02-28 09:14:47.369487,1709108087.3694873,673.33984375,-24.4140625,-38.57421875,991.69921875,0.0,-1.0,0.0,0.0,1.m4v,7.0
2024-02-28 09:14:47.373393,1709108087.3733926,172.36328125,-27.34375,-61.03515625,943.84765625,0.0,-1.0,0.0,0.0,1.m4v,7.0
2024-02-28 09:14:47.377298,1709108087.377298,130.37109375,-52.24609375,-53.7109375,957.51953125,0.0,-1.0,0.0,0.0,1.m4v,7.0
2024-02-28 09:14:47.381203,1709108087.3812032,229.00390625,-65.4296875,-44.43359375,999.51171875,0.0,-1.0,0.0,0.0,1.m4v,7.0
2024-02-28 09:14:47.385108,1709108087.3851085,-508.30078125,-62.98828125,-41.9921875,-156.73828125,0.0,-1.0,0.0,0.0,1.m4v,7.0
2024-02-28 09:14:47.389014,1709108087.389014,-1000.0,-56.15234375,-36.62109375,-1000.0,0.0,-1.0,0.0,0.0,1.m4v,7.0
2024-02-28 09:14:47.392919,1709108087.3929193,-983.3984375,-32.71484375,-33.203125,-956.54296875,0.0,-1.0,0.0,0.0,1.m4v,7.0
2024-02-28 09:14:47.396831,1709108087.3968308,-895.99609375,-28.3203125,-30.76171875,-993.1640625,0.0,-1.0,0.0,0.0,1.m4v,7.0
2024-02-28 09:14:47.400736,1709108087.400736,-436.5234375,-29.78515625,-39.55078125,-1000.0,0.0,-1.0,0.0,0.0,1.m4v,7.0
2024-02-28 09:14:47.404641,1709108087.4046414,-155.76171875,-34.1796875,-37.109375,-962.40234375,0.0,-1.0,0.0,0.0,1.m4v,7.0
2024-02-28 09:14:47.408547,1709108087.4085467,-357.421875,-40.0390625,-38.0859375,-1000.0,0.0,-1.0,0.0,0.0,1.m4v,7.0
2024-02-28 09:14:47.412452,1709108087.412452,-406.25,-32.71484375,-32.71484375,-1000.0,0.0,-1.0,0.0,0.0,1.m4v,7.0
2024-02-28 09:14:47.416357,1709108087.4163573,560.05859375,-35.15625,-26.85546875,312.98828125,0.0,-1.0,0.0,0.0,1.m4v,7.0
2024-02-28 09:14:47.420263,1709108087.4202626,999.51171875,-35.64453125,-46.38671875,999.51171875,0.0,-1.0,0.0,0.0,1.m4v,7.0
2024-02-28 09:14:47.424168,1709108087.424168,941.40625,-40.52734375,-45.8984375,905.76171875,0.0,-1.0,0.0,0.0,1.m4v,7.0
2024-02-28 09:14:47.428073,1709108087.4280732,811.03515625,-42.96875,-25.87890625,975.5859375,0.0,-1.0,0.0,0.0,1.m4v,7.0
2024-02-28 09:14:47.431978,1709108087.4319785,319.82421875,-25.390625,-28.3203125,982.91015625,0.0,-1.0,0.0,0.0,1.m4v,7.0
2024-02-28 09:14:47.435884,1709108087.4358838,177.24609375,-27.83203125,-43.45703125,909.66796875,0.0,-1.0,0.0,0.0,1.m4v,7.0
2024-02-28 09:14:47.439789,1709108087.439789,353.02734375,-33.69140625,-38.0859375,999.51171875,0.0,-1.0,0.0,0.0,1.m4v,7.0
2024-02-28 09:14:47.443705,1709108087.4437048,21.484375,-30.76171875,-39.0625,653.80859375,0.0,-1.0,0.0,0.0,1.m4v,7.0
2024-02-28 09:14:47.447610,1709108087.44761,-854.4921875,-33.203125,-35.64453125,-756.34765625,0.0,-1.0,0.0,0.0,1.m4v,7.0
2024-02-28 09:14:47.451515,1709108087.4515154,-1000.0,-38.57421875,-30.2734375,-1000.0,0.0,-1.0,0.0,0.0,1.m4v,7.0
2024-02-28 09:14:47.455421,1709108087.4554207,-954.58984375,-46.875,-40.0390625,-938.4765625,0.0,-1.0,0.0,0.0,1.m4v,7.0
2024-02-28 09:14:47.459326,1709108087.459326,-602.05078125,-54.19921875,-33.203125,-1000.0,0.0,-1.0,0.0,0.0,1.m4v,7.0
2024-02-28 09:14:47.463231,1709108087.463231,-117.67578125,-56.15234375,-35.15625,-999.0234375,0.0,-1.0,0.0,0.0,1.m4v,7.0
2024-02-28 09:14:47.467137,1709108087.4671366,-162.59765625,-43.45703125,-43.45703125,-950.68359375,0.0,-1.0,0.0,0.0,1.m4v,7.0
2024-02-28 09:14:47.471042,1709108087.471042,-497.55859375,-30.2734375,-33.203125,-1000.0,0.0,-1.0,0.0,0.0,1.m4v,7.0
