Timestamp,Timestamp_UNIX,TP9,AF7,AF8,TP10,Valence,Arousal,Dominace,Viewed,Video,Participant
2024-02-27 13:24:18.002947,1709036658.002947,969.23828125,-1000.0,969.7265625,-32.2265625,0.0,-1.0,1.0,0.0,1.m4v,4.0
2024-02-27 13:24:18.006852,1709036658.0068524,969.23828125,-1000.0,969.7265625,-31.25,0.0,-1.0,1.0,0.0,1.m4v,4.0
2024-02-27 13:24:18.010765,1709036658.010765,969.23828125,-1000.0,969.7265625,-29.78515625,0.0,-1.0,1.0,0.0,1.m4v,4.0
2024-02-27 13:24:18.014670,1709036658.0146704,969.23828125,-1000.0,969.7265625,-34.66796875,0.0,-1.0,1.0,0.0,1.m4v,4.0
2024-02-27 13:24:18.018576,1709036658.0185757,969.23828125,-1000.0,969.7265625,-33.203125,0.0,-1.0,1.0,0.0,1.m4v,4.0
2024-02-27 13:24:18.022481,1709036658.022481,969.23828125,-1000.0,969.7265625,-30.2734375,0.0,-1.0,1.0,0.0,1.m4v,4.0
2024-02-27 13:24:18.026386,1709036658.0263865,969.23828125,-1000.0,969.7265625,-48.33984375,0.0,-1.0,1.0,0.0,1.m4v,4.0
2024-02-27 13:24:18.030292,1709036658.0302916,969.23828125,-1000.0,969.7265625,-38.57421875,0.0,-1.0,1.0,0.0,1.m4v,4.0
2024-02-27 13:24:18.034197,1709036658.0341969,969.23828125,-1000.0,969.7265625,-23.4375,0.0,-1.0,1.0,0.0,1.m4v,4.0
2024-02-27 13:24:18.038102,1709036658.038102,969.23828125,-1000.0,969.7265625,-30.76171875,0.0,-1.0,1.0,0.0,1.m4v,4.0
2024-02-27 13:24:18.042007,1709036658.0420074,969.23828125,-1000.0,969.7265625,-27.83203125,0.0,-1.0,1.0,0.0,1.m4v,4.0
2024-02-27 13:24:18.045913,1709036658.045913,969.23828125,-1000.0,969.7265625,-27.83203125,0.0,-1.0,1.0,0.0,1.m4v,4.0
2024-02-27 13:24:18.049818,1709036658.0498185,969.23828125,-1000.0,969.7265625,-38.57421875,0.0,-1.0,1.0,0.0,1.m4v,4.0
2024-02-27 13:24:18.053724,1709036658.0537236,969.23828125,-1000.0,969.7265625,-49.31640625,0.0,-1.0,1.0,0.0,1.m4v,4.0
2024-02-27 13:24:18.057636,1709036658.0576358,969.23828125,-1000.0,970.21484375,-37.109375,0.0,-1.0,1.0,0.0,1.m4v,4.0
2024-02-27 13:24:18.061541,1709036658.061541,969.23828125,-1000.0,969.7265625,-37.109375,0.0,-1.0,1.0,0.0,1.m4v,4.0
2024-02-27 13:24:18.065446,1709036658.0654464,969.23828125,-1000.0,969.7265625,-36.62109375,0.0,-1.0,1.0,0.0,1.m4v,4.0
2024-02-27 13:24:18.069352,1709036658.0693517,969.23828125,-1000.0,969.7265625,-35.15625,0.0,-1.0,1.0,0.0,1.m4v,4.0
2024-02-27 13:24:18.073257,1709036658.073257,969.23828125,-1000.0,969.7265625,-40.52734375,0.0,-1.0,1.0,0.0,1.m4v,4.0
2024-02-27 13:24:18.077162,1709036658.0771625,969.23828125,-1000.0,972.65625,-36.62109375,0.0,-1.0,1.0,0.0,1.m4v,4.0
2024-02-27 13:24:18.081068,1709036658.0810676,969.23828125,-1000.0,963.8671875,-45.41015625,0.0,-1.0,1.0,0.0,1.m4v,4.0
2024-02-27 13:24:18.084973,1709036658.084973,969.23828125,-1000.0,958.0078125,-36.1328125,0.0,-1.0,1.0,0.0,1.m4v,4.0
2024-02-27 13:24:18.088878,1709036658.0888784,969.23828125,-1000.0,982.91015625,-31.25,0.0,-1.0,1.0,0.0,1.m4v,4.0
2024-02-27 13:24:18.092784,1709036658.0927837,969.23828125,-1000.0,612.3046875,-50.78125,0.0,-1.0,1.0,0.0,1.m4v,4.0
2024-02-27 13:24:18.096689,1709036658.096689,969.23828125,-1000.0,34.1796875,-52.24609375,0.0,-1.0,1.0,0.0,1.m4v,4.0
2024-02-27 13:24:18.100594,1709036658.1005943,969.23828125,-1000.0,-86.42578125,-55.6640625,0.0,-1.0,1.0,0.0,1.m4v,4.0
2024-02-27 13:24:18.104510,1709036658.1045103,969.23828125,-1000.0,-131.34765625,-56.15234375,0.0,-1.0,1.0,0.0,1.m4v,4.0
2024-02-27 13:24:18.108416,1709036658.1084156,969.23828125,-1000.0,-298.828125,-49.31640625,0.0,-1.0,1.0,0.0,1.m4v,4.0
2024-02-27 13:24:18.112321,1709036658.112321,969.23828125,-1000.0,-785.64453125,-45.8984375,0.0,-1.0,1.0,0.0,1.m4v,4.0
2024-02-27 13:24:18.116226,1709036658.1162262,969.23828125,-1000.0,-1000.0,-46.38671875,0.0,-1.0,1.0,0.0,1.m4v,4.0
2024-02-27 13:24:18.120131,1709036658.1201315,969.23828125,-1000.0,-979.98046875,-36.62109375,0.0,-1.0,1.0,0.0,1.m4v,4.0
2024-02-27 13:24:18.124037,1709036658.1240368,969.23828125,-1000.0,-1000.0,-32.71484375,0.0,-1.0,1.0,0.0,1.m4v,4.0
2024-02-27 13:24:18.127942,1709036658.1279423,969.23828125,-1000.0,-1000.0,-47.36328125,0.0,-1.0,1.0,0.0,1.m4v,4.0
2024-02-27 13:24:18.131848,1709036658.1318476,969.23828125,-1000.0,-1000.0,-45.41015625,0.0,-1.0,1.0,0.0,1.m4v,4.0
2024-02-27 13:24:18.135753,1709036658.135753,969.23828125,-1000.0,-1000.0,-48.33984375,0.0,-1.0,1.0,0.0,1.m4v,4.0
2024-02-27 13:24:18.139658,1709036658.1396582,969.23828125,-1000.0,-1000.0,-45.8984375,0.0,-1.0,1.0,0.0,1.m4v,4.0
2024-02-27 13:24:18.143564,1709036658.1435635,969.23828125,-1000.0,-1000.0,-38.0859375,0.0,-1.0,1.0,0.0,1.m4v,4.0
2024-02-27 13:24:18.147469,1709036658.1474688,969.23828125,-1000.0,-1000.0,-45.8984375,0.0,-1.0,1.0,0.0,1.m4v,4.0
2024-02-27 13:24:18.151384,1709036658.151384,969.23828125,-1000.0,-1000.0,-31.25,0.0,-1.0,1.0,0.0,1.m4v,4.0
2024-02-27 13:24:18.155289,1709036658.1552894,969.23828125,-1000.0,-1000.0,-29.296875,0.0,-1.0,1.0,0.0,1.m4v,4.0
2024-02-27 13:24:18.159195,1709036658.1591947,969.23828125,-1000.0,-1000.0,-30.76171875,0.0,-1.0,1.0,0.0,1.m4v,4.0
2024-02-27 13:24:18.163100,1709036658.1631002,969.23828125,-1000.0,-1000.0,-11.71875,0.0,-1.0,1.0,0.0,1.m4v,4.0
2024-02-27 13:24:18.167006,1709036658.1670055,969.23828125,-1000.0,-1000.0,-8.7890625,0.0,-1.0,1.0,0.0,1.m4v,4.0
2024-02-27 13:24:18.170911,1709036658.1709108,969.23828125,-1000.0,-1000.0,-17.578125,0.0,-1.0,1.0,0.0,1.m4v,4.0
2024-02-27 13:24:18.573231,1709036658.5732312,-1000.0,-1000.0,958.0078125,-33.69140625,0.0,-1.0,1.0,0.0,1.m4v,4.0
2024-02-27 13:24:18.577137,1709036658.5771365,-1000.0,-1000.0,973.14453125,-29.78515625,0.0,-1.0,1.0,0.0,1.m4v,4.0
2024-02-27 13:24:18.581042,1709036658.5810418,-1000.0,-1000.0,969.7265625,-39.0625,0.0,-1.0,1.0,0.0,1.m4v,4.0
2024-02-27 13:24:18.584947,1709036658.584947,-1000.0,-1000.0,969.7265625,-27.34375,0.0,-1.0,1.0,0.0,1.m4v,4.0
2024-02-27 13:24:18.588852,1709036658.5888524,-1000.0,-1000.0,969.7265625,-18.5546875,0.0,-1.0,1.0,0.0,1.m4v,4.0
2024-02-27 13:24:18.592758,1709036658.5927577,-1000.0,-1000.0,970.21484375,-36.62109375,0.0,-1.0,1.0,0.0,1.m4v,4.0
2024-02-27 13:24:18.596663,1709036658.596663,-1000.0,-1000.0,969.7265625,-36.1328125,0.0,-1.0,1.0,0.0,1.m4v,4.0
2024-02-27 13:24:18.600568,1709036658.6005683,-1000.0,-1000.0,969.7265625,-42.96875,0.0,-1.0,1.0,0.0,1.m4v,4.0
2024-02-27 13:24:18.604474,1709036658.6044736,-1000.0,-1000.0,969.7265625,-40.0390625,0.0,-1.0,1.0,0.0,1.m4v,4.0
2024-02-27 13:24:18.608379,1709036658.6083791,-1000.0,-1000.0,969.7265625,-31.25,0.0,-1.0,1.0,0.0,1.m4v,4.0
2024-02-27 13:24:18.612284,1709036658.6122844,-1000.0,-1000.0,969.7265625,-36.62109375,0.0,-1.0,1.0,0.0,1.m4v,4.0
2024-02-27 13:24:18.616190,1709036658.6161897,-1000.0,-1000.0,969.7265625,-43.45703125,0.0,-1.0,1.0,0.0,1.m4v,4.0
2024-02-27 13:24:18.620103,1709036658.6201034,-1000.0,-1000.0,969.7265625,-41.9921875,0.0,-1.0,1.0,0.0,1.m4v,4.0
2024-02-27 13:24:18.624009,1709036658.624009,-1000.0,-1000.0,969.7265625,-34.66796875,0.0,-1.0,1.0,0.0,1.m4v,4.0
2024-02-27 13:24:18.627914,1709036658.6279142,-980.46875,-958.0078125,969.7265625,-28.80859375,0.0,-1.0,1.0,0.0,1.m4v,4.0
2024-02-27 13:24:18.631819,1709036658.6318195,-973.6328125,-1000.0,969.7265625,-47.8515625,0.0,-1.0,1.0,0.0,1.m4v,4.0
2024-02-27 13:24:18.635725,1709036658.6357248,-1000.0,-996.58203125,969.7265625,-43.45703125,0.0,-1.0,1.0,0.0,1.m4v,4.0
2024-02-27 13:24:18.639630,1709036658.63963,60.05859375,374.0234375,969.7265625,-16.6015625,0.0,-1.0,1.0,0.0,1.m4v,4.0
2024-02-27 13:24:18.643535,1709036658.6435354,999.51171875,999.51171875,969.7265625,-23.4375,0.0,-1.0,1.0,0.0,1.m4v,4.0
2024-02-27 13:24:18.647441,1709036658.647441,924.8046875,897.94921875,969.7265625,-29.78515625,0.0,-1.0,1.0,0.0,1.m4v,4.0
2024-02-27 13:24:18.651346,1709036658.651346,959.9609375,979.00390625,969.7265625,-22.94921875,0.0,-1.0,1.0,0.0,1.m4v,4.0
2024-02-27 13:24:18.655251,1709036658.6552513,972.16796875,969.7265625,969.7265625,-32.71484375,0.0,-1.0,1.0,0.0,1.m4v,4.0
2024-02-27 13:24:18.659157,1709036658.6591566,969.23828125,969.7265625,969.7265625,-41.9921875,0.0,-1.0,1.0,0.0,1.m4v,4.0
2024-02-27 13:24:18.663062,1709036658.663062,969.23828125,969.7265625,969.7265625,-44.921875,0.0,-1.0,1.0,0.0,1.m4v,4.0
2024-02-27 13:24:18.666975,1709036658.6669755,969.23828125,969.7265625,969.7265625,-26.85546875,0.0,-1.0,1.0,0.0,1.m4v,4.0
2024-02-27 13:24:18.670881,1709036658.670881,984.86328125,969.7265625,969.7265625,-38.57421875,0.0,-1.0,1.0,0.0,1.m4v,4.0
2024-02-27 13:24:18.674786,1709036658.6747863,909.66796875,970.21484375,969.7265625,-49.31640625,0.0,-1.0,1.0,0.0,1.m4v,4.0
2024-02-27 13:24:18.678692,1709036658.6786916,999.51171875,986.81640625,969.7265625,-22.94921875,0.0,-1.0,1.0,0.0,1.m4v,4.0
2024-02-27 13:24:18.682597,1709036658.682597,804.19921875,905.76171875,969.7265625,-21.484375,0.0,-1.0,1.0,0.0,1.m4v,4.0
2024-02-27 13:24:18.686502,1709036658.6865022,-645.5078125,999.51171875,969.7265625,-31.25,0.0,-1.0,1.0,0.0,1.m4v,4.0
2024-02-27 13:24:18.690408,1709036658.6904075,-1000.0,778.3203125,969.7265625,-33.203125,0.0,-1.0,1.0,0.0,1.m4v,4.0
2024-02-27 13:24:18.694313,1709036658.6943128,-929.19921875,-691.89453125,969.7265625,-43.9453125,0.0,-1.0,1.0,0.0,1.m4v,4.0
2024-02-27 13:24:18.698218,1709036658.698218,-1000.0,-1000.0,969.7265625,-43.9453125,0.0,-1.0,1.0,0.0,1.m4v,4.0
2024-02-27 13:24:18.702123,1709036658.7021234,-1000.0,-929.19921875,969.7265625,-32.2265625,0.0,-1.0,1.0,0.0,1.m4v,4.0
2024-02-27 13:24:18.706029,1709036658.7060287,-1000.0,-1000.0,969.7265625,-20.5078125,0.0,-1.0,1.0,0.0,1.m4v,4.0
2024-02-27 13:24:18.709934,1709036658.7099342,-1000.0,-1000.0,969.7265625,-25.390625,0.0,-1.0,1.0,0.0,1.m4v,4.0
2024-02-27 13:24:18.713848,1709036658.7138476,-1000.0,-1000.0,969.7265625,-40.52734375,0.0,-1.0,1.0,0.0,1.m4v,4.0
2024-02-27 13:24:18.717753,1709036658.717753,-1000.0,-1000.0,969.7265625,-30.76171875,0.0,-1.0,1.0,0.0,1.m4v,4.0
2024-02-27 13:24:18.721658,1709036658.7216582,-998.046875,-956.54296875,969.7265625,-32.2265625,0.0,-1.0,1.0,0.0,1.m4v,4.0
2024-02-27 13:24:18.725564,1709036658.7255635,-948.2421875,-1000.0,969.7265625,-28.80859375,0.0,-1.0,1.0,0.0,1.m4v,4.0
2024-02-27 13:24:18.729469,1709036658.7294688,-1000.0,-989.2578125,969.7265625,-24.4140625,0.0,-1.0,1.0,0.0,1.m4v,4.0
2024-02-27 13:24:18.733374,1709036658.733374,-244.140625,390.625,969.7265625,-16.6015625,0.0,-1.0,1.0,0.0,1.m4v,4.0
2024-02-27 13:24:18.737279,1709036658.7372794,984.86328125,999.51171875,970.21484375,-0.9765625,0.0,-1.0,1.0,0.0,1.m4v,4.0
2024-02-27 13:24:18.741185,1709036658.7411847,967.7734375,897.4609375,969.7265625,-1.953125,0.0,-1.0,1.0,0.0,1.m4v,4.0
2024-02-27 13:24:18.745090,1709036658.74509,937.98828125,979.98046875,969.7265625,-9.765625,0.0,-1.0,1.0,0.0,1.m4v,4.0
2024-02-27 13:24:18.748996,1709036658.7489955,980.46875,969.7265625,969.7265625,-19.04296875,0.0,-1.0,1.0,0.0,1.m4v,4.0
2024-02-27 13:24:18.752901,1709036658.7529008,969.7265625,986.328125,969.7265625,-17.578125,0.0,-1.0,1.0,0.0,1.m4v,4.0
2024-02-27 13:24:18.756806,1709036658.756806,919.921875,911.1328125,969.7265625,-25.390625,0.0,-1.0,1.0,0.0,1.m4v,4.0
2024-02-27 13:24:18.760718,1709036658.7607183,999.51171875,999.51171875,969.7265625,-30.76171875,0.0,-1.0,1.0,0.0,1.m4v,4.0
2024-02-27 13:24:18.764624,1709036658.7646236,348.6328125,852.05078125,969.7265625,-31.25,0.0,-1.0,1.0,0.0,1.m4v,4.0
2024-02-27 13:24:18.768529,1709036658.768529,-918.45703125,-608.3984375,969.7265625,-45.8984375,0.0,-1.0,1.0,0.0,1.m4v,4.0
2024-02-27 13:24:18.772434,1709036658.7724342,-1000.0,-1000.0,969.7265625,-48.33984375,0.0,-1.0,1.0,0.0,1.m4v,4.0
2024-02-27 13:24:18.776340,1709036658.7763395,-958.49609375,-925.78125,969.7265625,-41.015625,0.0,-1.0,1.0,0.0,1.m4v,4.0
2024-02-27 13:24:18.780245,1709036658.7802448,-1000.0,-1000.0,969.7265625,-25.390625,0.0,-1.0,1.0,0.0,1.m4v,4.0
2024-02-27 13:24:18.784150,1709036658.78415,-1000.0,-1000.0,969.7265625,-25.87890625,0.0,-1.0,1.0,0.0,1.m4v,4.0
2024-02-27 13:24:18.788055,1709036658.7880554,-1000.0,-1000.0,969.7265625,-24.90234375,0.0,-1.0,1.0,0.0,1.m4v,4.0
2024-02-27 13:24:18.791961,1709036658.7919607,-1000.0,-1000.0,969.7265625,-24.4140625,0.0,-1.0,1.0,0.0,1.m4v,4.0
2024-02-27 13:24:18.795866,1709036658.7958665,-1000.0,-1000.0,969.7265625,-34.1796875,0.0,-1.0,1.0,0.0,1.m4v,4.0
2024-02-27 13:24:18.799772,1709036658.7997715,-1000.0,-1000.0,969.7265625,-34.66796875,0.0,-1.0,1.0,0.0,1.m4v,4.0
2024-02-27 13:24:18.803677,1709036658.8036768,-1000.0,-1000.0,969.7265625,-20.99609375,0.0,-1.0,1.0,0.0,1.m4v,4.0
2024-02-27 13:24:18.807588,1709036658.8075883,-1000.0,-1000.0,969.7265625,-26.85546875,0.0,-1.0,1.0,0.0,1.m4v,4.0
2024-02-27 13:24:18.811494,1709036658.8114936,-1000.0,-956.54296875,969.7265625,-41.50390625,0.0,-1.0,1.0,0.0,1.m4v,4.0
2024-02-27 13:24:18.815399,1709036658.815399,-939.453125,-1000.0,969.7265625,-25.87890625,0.0,-1.0,1.0,0.0,1.m4v,4.0
2024-02-27 13:24:18.819304,1709036658.8193045,-1000.0,-985.3515625,969.7265625,-24.4140625,0.0,-1.0,1.0,0.0,1.m4v,4.0
2024-02-27 13:24:18.823210,1709036658.8232098,-429.19921875,394.53125,969.7265625,-17.08984375,0.0,-1.0,1.0,0.0,1.m4v,4.0
2024-02-27 13:24:18.827115,1709036658.827115,904.296875,999.51171875,970.21484375,4.39453125,0.0,-1.0,1.0,0.0,1.m4v,4.0
2024-02-27 13:24:18.831020,1709036658.8310204,998.53515625,897.94921875,970.21484375,-14.16015625,0.0,-1.0,1.0,0.0,1.m4v,4.0
2024-02-27 13:24:18.834926,1709036658.8349257,924.31640625,979.98046875,969.7265625,-31.73828125,0.0,-1.0,1.0,0.0,1.m4v,4.0
2024-02-27 13:24:18.838831,1709036658.838831,981.4453125,969.7265625,971.19140625,-28.3203125,0.0,-1.0,1.0,0.0,1.m4v,4.0
2024-02-27 13:24:18.842736,1709036658.8427362,969.23828125,969.7265625,965.33203125,-38.57421875,0.0,-1.0,1.0,0.0,1.m4v,4.0
2024-02-27 13:24:18.846642,1709036658.8466415,969.23828125,969.7265625,969.7265625,-47.8515625,0.0,-1.0,1.0,0.0,1.m4v,4.0
2024-02-27 13:24:18.850547,1709036658.8505468,969.23828125,969.7265625,972.65625,-41.015625,0.0,-1.0,1.0,0.0,1.m4v,4.0
2024-02-27 13:24:18.854461,1709036658.8544607,969.23828125,970.21484375,810.546875,-40.0390625,0.0,-1.0,1.0,0.0,1.m4v,4.0
2024-02-27 13:24:18.858366,1709036658.858366,968.75,969.7265625,713.8671875,-41.9921875,0.0,-1.0,1.0,0.0,1.m4v,4.0
2024-02-27 13:24:18.862271,1709036658.8622713,969.23828125,969.7265625,908.69140625,-29.296875,0.0,-1.0,1.0,0.0,1.m4v,4.0
2024-02-27 13:24:18.866177,1709036658.8661766,972.16796875,969.7265625,987.79296875,-24.4140625,0.0,-1.0,1.0,0.0,1.m4v,4.0
2024-02-27 13:24:18.870082,1709036658.870082,966.30859375,986.328125,959.47265625,-32.2265625,0.0,-1.0,1.0,0.0,1.m4v,4.0
2024-02-27 13:24:18.873987,1709036658.8739872,921.38671875,910.15625,971.6796875,-35.15625,0.0,-1.0,1.0,0.0,1.m4v,4.0
2024-02-27 13:24:18.877893,1709036658.8778927,999.51171875,999.51171875,970.21484375,-32.2265625,0.0,-1.0,1.0,0.0,1.m4v,4.0
2024-02-27 13:24:18.881798,1709036658.881798,236.328125,840.8203125,968.75,-42.96875,0.0,-1.0,1.0,0.0,1.m4v,4.0
2024-02-27 13:24:18.885703,1709036658.885703,-985.83984375,-621.58203125,963.37890625,-61.5234375,0.0,-1.0,1.0,0.0,1.m4v,4.0
2024-02-27 13:24:18.889609,1709036658.8896086,-1000.0,-1000.0,987.3046875,-49.8046875,0.0,-1.0,1.0,0.0,1.m4v,4.0
2024-02-27 13:24:18.893514,1709036658.893514,-966.30859375,-926.26953125,860.83984375,-49.31640625,0.0,-1.0,1.0,0.0,1.m4v,4.0
2024-02-27 13:24:18.897419,1709036658.8974192,-1000.0,-1000.0,777.83203125,-48.33984375,0.0,-1.0,1.0,0.0,1.m4v,4.0
2024-02-27 13:24:18.901330,1709036658.9013305,-1000.0,-1000.0,954.1015625,-45.8984375,0.0,-1.0,1.0,0.0,1.m4v,4.0
2024-02-27 13:24:18.905236,1709036658.9052358,-1000.0,-1000.0,970.703125,-43.9453125,0.0,-1.0,1.0,0.0,1.m4v,4.0
2024-02-27 13:24:18.909141,1709036658.909141,-1000.0,-953.61328125,980.95703125,-32.71484375,0.0,-1.0,1.0,0.0,1.m4v,4.0
2024-02-27 13:24:18.913046,1709036658.9130464,-939.453125,-1000.0,913.57421875,-35.64453125,0.0,-1.0,1.0,0.0,1.m4v,4.0
2024-02-27 13:24:18.916952,1709036658.9169517,-1000.0,-971.19140625,737.3046875,-49.31640625,0.0,-1.0,1.0,0.0,1.m4v,4.0
2024-02-27 13:24:18.920857,1709036658.920857,-509.765625,425.78125,902.83203125,-31.73828125,0.0,-1.0,1.0,0.0,1.m4v,4.0
2024-02-27 13:24:18.924762,1709036658.9247625,850.5859375,999.51171875,995.60546875,-7.8125,0.0,-1.0,1.0,0.0,1.m4v,4.0
2024-02-27 13:24:18.928668,1709036658.9286678,999.51171875,896.484375,953.125,-32.71484375,0.0,-1.0,1.0,0.0,1.m4v,4.0
2024-02-27 13:24:18.932573,1709036658.932573,919.921875,981.4453125,981.93359375,-34.66796875,0.0,-1.0,1.0,0.0,1.m4v,4.0
2024-02-27 13:24:18.936478,1709036658.9364784,990.72265625,973.14453125,932.6171875,-30.2734375,0.0,-1.0,1.0,0.0,1.m4v,4.0
2024-02-27 13:24:18.940384,1709036658.9403837,918.45703125,959.9609375,894.04296875,-36.62109375,0.0,-1.0,1.0,0.0,1.m4v,4.0
2024-02-27 13:24:18.944289,1709036658.944289,999.51171875,928.22265625,939.94140625,-38.57421875,0.0,-1.0,1.0,0.0,1.m4v,4.0
2024-02-27 13:24:18.948203,1709036658.948203,636.71875,999.51171875,999.51171875,-39.55078125,0.0,-1.0,1.0,0.0,1.m4v,4.0
2024-02-27 13:24:18.952109,1709036658.9521086,-719.23828125,69.3359375,586.42578125,-65.4296875,0.0,-1.0,1.0,0.0,1.m4v,4.0
2024-02-27 13:24:18.956014,1709036658.9560142,-1000.0,-1000.0,-251.953125,-86.9140625,0.0,-1.0,1.0,0.0,1.m4v,4.0
2024-02-27 13:24:18.959919,1709036658.9599197,-939.94140625,-976.5625,-346.19140625,-69.3359375,0.0,-1.0,1.0,0.0,1.m4v,4.0
2024-02-27 13:24:18.963825,1709036658.9638247,-1000.0,-981.93359375,-95.703125,-52.24609375,0.0,-1.0,1.0,0.0,1.m4v,4.0
2024-02-27 13:24:18.967730,1709036658.96773,-1000.0,-997.55859375,438.96484375,-46.875,0.0,-1.0,1.0,0.0,1.m4v,4.0
2024-02-27 13:24:18.971635,1709036658.971635,-1000.0,-990.72265625,167.48046875,-48.828125,0.0,-1.0,1.0,0.0,1.m4v,4.0
2024-02-27 13:24:18.975541,1709036658.9755406,-1000.0,-1000.0,-822.265625,-46.38671875,0.0,-1.0,1.0,0.0,1.m4v,4.0
2024-02-27 13:24:18.979446,1709036658.979446,-1000.0,-1000.0,-1000.0,-48.33984375,0.0,-1.0,1.0,0.0,1.m4v,4.0
2024-02-27 13:24:18.983351,1709036658.9833512,-1000.0,-1000.0,-615.72265625,-31.73828125,0.0,-1.0,1.0,0.0,1.m4v,4.0
2024-02-27 13:24:18.987257,1709036658.9872563,-1000.0,-1000.0,-230.46875,-23.4375,0.0,-1.0,1.0,0.0,1.m4v,4.0
2024-02-27 13:24:18.991162,1709036658.9911618,-1000.0,-1000.0,-471.19140625,-30.2734375,0.0,-1.0,1.0,0.0,1.m4v,4.0
2024-02-27 13:24:18.995076,1709036658.9950757,-1000.0,-1000.0,-921.38671875,-40.52734375,0.0,-1.0,1.0,0.0,1.m4v,4.0
2024-02-27 13:24:18.998981,1709036658.998981,-1000.0,-1000.0,-1000.0,-38.57421875,0.0,-1.0,1.0,0.0,1.m4v,4.0
2024-02-27 13:24:19.002887,1709036659.0028863,-979.98046875,-948.2421875,-774.4140625,-25.390625,0.0,-1.0,1.0,0.0,1.m4v,4.0
2024-02-27 13:24:19.006792,1709036659.0067918,-974.609375,-1000.0,-370.1171875,-13.18359375,0.0,-1.0,1.0,0.0,1.m4v,4.0
2024-02-27 13:24:19.010697,1709036659.0106971,-1000.0,-934.08203125,-446.77734375,-17.08984375,0.0,-1.0,1.0,0.0,1.m4v,4.0
2024-02-27 13:24:19.014602,1709036659.0146024,67.3828125,495.1171875,-514.6484375,-15.13671875,0.0,-1.0,1.0,0.0,1.m4v,4.0
2024-02-27 13:24:19.018508,1709036659.0185077,999.51171875,999.51171875,-329.58984375,-6.34765625,0.0,-1.0,1.0,0.0,1.m4v,4.0
2024-02-27 13:24:19.022413,1709036659.022413,924.31640625,895.5078125,-317.3828125,-15.13671875,0.0,-1.0,1.0,0.0,1.m4v,4.0
2024-02-27 13:24:19.026318,1709036659.0263183,960.44921875,983.88671875,-129.39453125,-19.04296875,0.0,-1.0,1.0,0.0,1.m4v,4.0
2024-02-27 13:24:19.030224,1709036659.0302236,972.16796875,969.7265625,-193.359375,-23.92578125,0.0,-1.0,1.0,0.0,1.m4v,4.0
2024-02-27 13:24:19.034129,1709036659.034129,969.23828125,970.21484375,-815.4296875,-28.3203125,0.0,-1.0,1.0,0.0,1.m4v,4.0
2024-02-27 13:24:19.038034,1709036659.0380342,969.23828125,970.21484375,-954.1015625,-34.66796875,0.0,-1.0,1.0,0.0,1.m4v,4.0
2024-02-27 13:24:19.041948,1709036659.0419478,969.23828125,969.7265625,-714.84375,-33.203125,0.0,-1.0,1.0,0.0,1.m4v,4.0
2024-02-27 13:24:19.045853,1709036659.0458531,969.23828125,969.7265625,-419.43359375,-20.5078125,0.0,-1.0,1.0,0.0,1.m4v,4.0
2024-02-27 13:24:19.049759,1709036659.049759,968.75,969.7265625,-240.234375,-25.87890625,0.0,-1.0,1.0,0.0,1.m4v,4.0
2024-02-27 13:24:19.053664,1709036659.053664,969.23828125,969.7265625,-583.984375,-47.36328125,0.0,-1.0,1.0,0.0,1.m4v,4.0
2024-02-27 13:24:19.057569,1709036659.0575693,969.23828125,969.7265625,-907.2265625,-45.41015625,0.0,-1.0,1.0,0.0,1.m4v,4.0
2024-02-27 13:24:19.061475,1709036659.0614746,985.83984375,986.328125,-472.65625,-27.34375,0.0,-1.0,1.0,0.0,1.m4v,4.0
2024-02-27 13:24:19.065380,1709036659.06538,907.71484375,912.109375,152.83203125,-25.390625,0.0,-1.0,1.0,0.0,1.m4v,4.0
2024-02-27 13:24:19.069285,1709036659.0692852,999.51171875,999.51171875,-16.6015625,-25.87890625,0.0,-1.0,1.0,0.0,1.m4v,4.0
2024-02-27 13:24:19.073190,1709036659.0731905,807.6171875,860.83984375,-665.52734375,-56.15234375,0.0,-1.0,1.0,0.0,1.m4v,4.0
2024-02-27 13:24:19.077096,1709036659.0770955,-652.83203125,-597.16796875,-985.3515625,-97.65625,0.0,-1.0,1.0,0.0,1.m4v,4.0
2024-02-27 13:24:19.081001,1709036659.081001,-1000.0,-1000.0,-1000.0,-70.80078125,0.0,-1.0,1.0,0.0,1.m4v,4.0
2024-02-27 13:24:19.084906,1709036659.0849063,-928.22265625,-925.78125,-918.9453125,-39.0625,0.0,-1.0,1.0,0.0,1.m4v,4.0
2024-02-27 13:24:19.088820,1709036659.0888195,-1000.0,-1000.0,-854.98046875,-43.45703125,0.0,-1.0,1.0,0.0,1.m4v,4.0
2024-02-27 13:24:19.092725,1709036659.092725,-1000.0,-1000.0,-987.3046875,-42.48046875,0.0,-1.0,1.0,0.0,1.m4v,4.0
2024-02-27 13:24:19.096630,1709036659.0966303,-1000.0,-1000.0,-996.58203125,-42.96875,0.0,-1.0,1.0,0.0,1.m4v,4.0
2024-02-27 13:24:19.100536,1709036659.1005356,-958.984375,-964.35546875,-994.140625,-43.9453125,0.0,-1.0,1.0,0.0,1.m4v,4.0
2024-02-27 13:24:19.104441,1709036659.104441,-1000.0,-1000.0,-1000.0,-42.96875,0.0,-1.0,1.0,0.0,1.m4v,4.0
2024-02-27 13:24:19.108346,1709036659.1083462,-993.65234375,-1000.0,-555.6640625,-20.99609375,0.0,-1.0,1.0,0.0,1.m4v,4.0
2024-02-27 13:24:19.112252,1709036659.1122515,364.2578125,295.8984375,-373.53515625,-14.6484375,0.0,-1.0,1.0,0.0,1.m4v,4.0
2024-02-27 13:24:19.116157,1709036659.1161568,999.51171875,999.51171875,-879.39453125,-25.87890625,0.0,-1.0,1.0,0.0,1.m4v,4.0
2024-02-27 13:24:19.120062,1709036659.1200624,899.90234375,901.3671875,-1000.0,-28.3203125,0.0,-1.0,1.0,0.0,1.m4v,4.0
2024-02-27 13:24:19.123968,1709036659.1239676,977.5390625,976.07421875,-769.53125,-28.80859375,0.0,-1.0,1.0,0.0,1.m4v,4.0
2024-02-27 13:24:19.127873,1709036659.127873,969.23828125,969.7265625,-524.90234375,-40.0390625,0.0,-1.0,1.0,0.0,1.m4v,4.0
2024-02-27 13:24:19.131778,1709036659.1317782,969.23828125,969.7265625,-809.5703125,-41.50390625,0.0,-1.0,1.0,0.0,1.m4v,4.0
2024-02-27 13:24:19.135700,1709036659.1357,969.23828125,970.21484375,-1000.0,-34.1796875,0.0,-1.0,1.0,0.0,1.m4v,4.0
2024-02-27 13:24:19.139605,1709036659.1396053,969.23828125,970.21484375,-843.75,-36.62109375,0.0,-1.0,1.0,0.0,1.m4v,4.0
2024-02-27 13:24:19.143511,1709036659.1435106,969.23828125,969.7265625,-580.078125,-28.3203125,0.0,-1.0,1.0,0.0,1.m4v,4.0
2024-02-27 13:24:19.147416,1709036659.147416,969.23828125,969.7265625,-335.44921875,-23.92578125,0.0,-1.0,1.0,0.0,1.m4v,4.0
2024-02-27 13:24:19.151321,1709036659.1513212,984.86328125,986.328125,-543.45703125,-30.2734375,0.0,-1.0,1.0,0.0,1.m4v,4.0
2024-02-27 13:24:19.155226,1709036659.1552265,914.0625,910.64453125,-867.1875,-39.55078125,0.0,-1.0,1.0,0.0,1.m4v,4.0
2024-02-27 13:24:19.604414,1709036659.6044142,-1000.0,-1000.0,-409.1796875,-21.97265625,0.0,-1.0,1.0,0.0,1.m4v,4.0
2024-02-27 13:24:19.608320,1709036659.6083195,-1000.0,-1000.0,-54.19921875,-25.87890625,0.0,-1.0,1.0,0.0,1.m4v,4.0
2024-02-27 13:24:19.612225,1709036659.6122248,-1000.0,-1000.0,-327.1484375,-43.9453125,0.0,-1.0,1.0,0.0,1.m4v,4.0
2024-02-27 13:24:19.616130,1709036659.61613,-937.5,-943.84765625,-644.04296875,-51.7578125,0.0,-1.0,1.0,0.0,1.m4v,4.0
2024-02-27 13:24:19.620035,1709036659.6200354,-1000.0,-1000.0,-352.5390625,-22.4609375,0.0,-1.0,1.0,0.0,1.m4v,4.0
2024-02-27 13:24:19.623941,1709036659.6239407,-814.94140625,-900.87890625,277.83203125,-4.39453125,0.0,-1.0,1.0,0.0,1.m4v,4.0
2024-02-27 13:24:19.627846,1709036659.627846,647.94921875,550.78125,834.47265625,16.6015625,0.0,-1.0,1.0,0.0,1.m4v,4.0
2024-02-27 13:24:19.631751,1709036659.6317513,999.51171875,999.51171875,446.2890625,0.9765625,0.0,-1.0,1.0,0.0,1.m4v,4.0
2024-02-27 13:24:19.635657,1709036659.6356568,905.76171875,911.62109375,-208.0078125,-41.9921875,0.0,-1.0,1.0,0.0,1.m4v,4.0
2024-02-27 13:24:19.639562,1709036659.639562,958.984375,923.33984375,-180.17578125,-32.2265625,0.0,-1.0,1.0,0.0,1.m4v,4.0
2024-02-27 13:24:19.643467,1709036659.6434674,957.03125,999.51171875,226.07421875,-14.16015625,0.0,-1.0,1.0,0.0,1.m4v,4.0
2024-02-27 13:24:19.647373,1709036659.6473727,999.51171875,808.10546875,664.0625,-8.7890625,0.0,-1.0,1.0,0.0,1.m4v,4.0
2024-02-27 13:24:19.651283,1709036659.651283,-186.5234375,-657.71484375,329.58984375,-38.57421875,0.0,-1.0,1.0,0.0,1.m4v,4.0
2024-02-27 13:24:19.655188,1709036659.6551883,-1000.0,-1000.0,-352.5390625,-65.4296875,0.0,-1.0,1.0,0.0,1.m4v,4.0
2024-02-27 13:24:19.659094,1709036659.659094,-949.70703125,-927.734375,-263.671875,-50.29296875,0.0,-1.0,1.0,0.0,1.m4v,4.0
2024-02-27 13:24:19.662999,1709036659.6629992,-996.09375,-1000.0,207.51953125,-26.85546875,0.0,-1.0,1.0,0.0,1.m4v,4.0
2024-02-27 13:24:19.666904,1709036659.6669044,-1000.0,-1000.0,590.33203125,-20.99609375,0.0,-1.0,1.0,0.0,1.m4v,4.0
2024-02-27 13:24:19.670810,1709036659.6708095,-1000.0,-1000.0,806.640625,-34.1796875,0.0,-1.0,1.0,0.0,1.m4v,4.0
2024-02-27 13:24:19.674715,1709036659.674715,-1000.0,-1000.0,516.11328125,-41.50390625,0.0,-1.0,1.0,0.0,1.m4v,4.0
2024-02-27 13:24:19.678620,1709036659.6786203,-1000.0,-1000.0,370.1171875,-31.73828125,0.0,-1.0,1.0,0.0,1.m4v,4.0
2024-02-27 13:24:19.682526,1709036659.6825256,-1000.0,-1000.0,713.8671875,-13.18359375,0.0,-1.0,1.0,0.0,1.m4v,4.0
2024-02-27 13:24:19.686431,1709036659.686431,-1000.0,-1000.0,943.359375,-10.25390625,0.0,-1.0,1.0,0.0,1.m4v,4.0
2024-02-27 13:24:19.690336,1709036659.6903362,-1000.0,-1000.0,974.609375,-16.11328125,0.0,-1.0,1.0,0.0,1.m4v,4.0
2024-02-27 13:24:19.694242,1709036659.6942415,-1000.0,-1000.0,666.9921875,-28.80859375,0.0,-1.0,1.0,0.0,1.m4v,4.0
2024-02-27 13:24:19.698156,1709036659.698156,-1000.0,-1000.0,520.5078125,-40.52734375,0.0,-1.0,1.0,0.0,1.m4v,4.0
2024-02-27 13:24:19.702061,1709036659.7020614,-988.28125,-1000.0,870.1171875,-28.80859375,0.0,-1.0,1.0,0.0,1.m4v,4.0
2024-02-27 13:24:19.705967,1709036659.7059667,-967.28515625,-940.91796875,998.046875,3.90625,0.0,-1.0,1.0,0.0,1.m4v,4.0
2024-02-27 13:24:19.709872,1709036659.709872,-1000.0,-1000.0,952.63671875,0.9765625,0.0,-1.0,1.0,0.0,1.m4v,4.0
2024-02-27 13:24:19.713777,1709036659.7137773,-113.28125,-871.09375,972.65625,-13.18359375,0.0,-1.0,1.0,0.0,1.m4v,4.0
2024-02-27 13:24:19.717683,1709036659.7176826,994.62890625,591.30859375,969.7265625,0.9765625,0.0,-1.0,1.0,0.0,1.m4v,4.0
2024-02-27 13:24:19.721588,1709036659.721588,957.51953125,999.51171875,969.7265625,-2.9296875,0.0,-1.0,1.0,0.0,1.m4v,4.0
2024-02-27 13:24:19.725493,1709036659.7254932,945.80078125,895.99609375,969.7265625,-11.23046875,0.0,-1.0,1.0,0.0,1.m4v,4.0
2024-02-27 13:24:19.729399,1709036659.7293987,976.5625,986.328125,969.7265625,-16.11328125,0.0,-1.0,1.0,0.0,1.m4v,4.0
2024-02-27 13:24:19.733304,1709036659.733304,969.23828125,969.7265625,969.7265625,-20.5078125,0.0,-1.0,1.0,0.0,1.m4v,4.0
2024-02-27 13:24:19.737209,1709036659.737209,969.23828125,969.7265625,969.7265625,-16.6015625,0.0,-1.0,1.0,0.0,1.m4v,4.0
2024-02-27 13:24:19.741115,1709036659.7411146,969.23828125,969.7265625,969.7265625,-23.92578125,0.0,-1.0,1.0,0.0,1.m4v,4.0
2024-02-27 13:24:19.745033,1709036659.7450328,969.23828125,969.7265625,969.7265625,-23.4375,0.0,-1.0,1.0,0.0,1.m4v,4.0
2024-02-27 13:24:19.748938,1709036659.7489383,969.23828125,969.7265625,969.7265625,-20.99609375,0.0,-1.0,1.0,0.0,1.m4v,4.0
2024-02-27 13:24:19.752844,1709036659.7528436,969.23828125,970.21484375,969.7265625,-32.2265625,0.0,-1.0,1.0,0.0,1.m4v,4.0
2024-02-27 13:24:19.756749,1709036659.756749,969.23828125,969.7265625,969.7265625,-39.0625,0.0,-1.0,1.0,0.0,1.m4v,4.0
2024-02-27 13:24:19.760654,1709036659.7606542,969.23828125,969.7265625,969.7265625,-41.50390625,0.0,-1.0,1.0,0.0,1.m4v,4.0
2024-02-27 13:24:19.764560,1709036659.7645595,969.23828125,969.7265625,969.7265625,-32.2265625,0.0,-1.0,1.0,0.0,1.m4v,4.0
2024-02-27 13:24:19.768465,1709036659.7684648,984.375,985.83984375,969.7265625,-23.92578125,0.0,-1.0,1.0,0.0,1.m4v,4.0
2024-02-27 13:24:19.772370,1709036659.77237,908.203125,912.109375,969.7265625,-32.2265625,0.0,-1.0,1.0,0.0,1.m4v,4.0
2024-02-27 13:24:19.776275,1709036659.7762754,999.51171875,999.51171875,969.7265625,-31.73828125,0.0,-1.0,1.0,0.0,1.m4v,4.0
2024-02-27 13:24:19.780181,1709036659.7801807,777.34375,860.3515625,971.6796875,-41.015625,0.0,-1.0,1.0,0.0,1.m4v,4.0
2024-02-27 13:24:19.784086,1709036659.784086,-671.38671875,-597.16796875,960.9375,-56.640625,0.0,-1.0,1.0,0.0,1.m4v,4.0
2024-02-27 13:24:19.787992,1709036659.7879915,-1000.0,-1000.0,980.95703125,-46.38671875,0.0,-1.0,1.0,0.0,1.m4v,4.0
2024-02-27 13:24:19.791905,1709036659.7919047,-930.17578125,-925.78125,958.0078125,-39.55078125,0.0,-1.0,1.0,0.0,1.m4v,4.0
2024-02-27 13:24:19.795810,1709036659.79581,-1000.0,-1000.0,753.41796875,-43.9453125,0.0,-1.0,1.0,0.0,1.m4v,4.0
2024-02-27 13:24:19.799715,1709036659.7997153,-1000.0,-1000.0,855.95703125,-44.43359375,0.0,-1.0,1.0,0.0,1.m4v,4.0
2024-02-27 13:24:19.803621,1709036659.8036206,-1000.0,-1000.0,999.0234375,-41.015625,0.0,-1.0,1.0,0.0,1.m4v,4.0
2024-02-27 13:24:19.807526,1709036659.807526,-1000.0,-1000.0,957.03125,-30.76171875,0.0,-1.0,1.0,0.0,1.m4v,4.0
2024-02-27 13:24:19.811431,1709036659.8114314,-1000.0,-1000.0,973.14453125,-24.4140625,0.0,-1.0,1.0,0.0,1.m4v,4.0
2024-02-27 13:24:19.815337,1709036659.8153367,-1000.0,-1000.0,964.84375,-27.83203125,0.0,-1.0,1.0,0.0,1.m4v,4.0
2024-02-27 13:24:19.819242,1709036659.819242,-1000.0,-1000.0,946.77734375,-29.78515625,0.0,-1.0,1.0,0.0,1.m4v,4.0
2024-02-27 13:24:19.823147,1709036659.8231473,-1000.0,-1000.0,965.33203125,-30.76171875,0.0,-1.0,1.0,0.0,1.m4v,4.0
2024-02-27 13:24:19.827053,1709036659.8270526,-967.7734375,-991.69921875,972.16796875,-25.87890625,0.0,-1.0,1.0,0.0,1.m4v,4.0
2024-02-27 13:24:19.830958,1709036659.830958,-1000.0,-955.56640625,968.26171875,-26.3671875,0.0,-1.0,1.0,0.0,1.m4v,4.0
2024-02-27 13:24:19.834863,1709036659.8348632,-1000.0,-1000.0,970.21484375,-30.2734375,0.0,-1.0,1.0,0.0,1.m4v,4.0
2024-02-27 13:24:19.838776,1709036659.838776,231.4453125,-110.3515625,969.7265625,-10.25390625,0.0,-1.0,1.0,0.0,1.m4v,4.0
2024-02-27 13:24:19.842681,1709036659.8426814,999.51171875,999.51171875,969.7265625,-11.23046875,0.0,-1.0,1.0,0.0,1.m4v,4.0
2024-02-27 13:24:19.846587,1709036659.8465867,914.55078125,946.2890625,969.7265625,-17.08984375,0.0,-1.0,1.0,0.0,1.m4v,4.0
2024-02-27 13:24:19.850492,1709036659.850492,968.75,949.21875,969.7265625,-13.671875,0.0,-1.0,1.0,0.0,1.m4v,4.0
2024-02-27 13:24:19.854397,1709036659.8543973,971.19140625,975.5859375,969.7265625,-30.2734375,0.0,-1.0,1.0,0.0,1.m4v,4.0
2024-02-27 13:24:19.858303,1709036659.8583026,969.23828125,969.7265625,969.7265625,-36.62109375,0.0,-1.0,1.0,0.0,1.m4v,4.0
2024-02-27 13:24:19.862208,1709036659.862208,969.23828125,969.7265625,969.7265625,-31.25,0.0,-1.0,1.0,0.0,1.m4v,4.0
2024-02-27 13:24:19.866113,1709036659.8661132,969.23828125,970.21484375,969.7265625,-24.90234375,0.0,-1.0,1.0,0.0,1.m4v,4.0
2024-02-27 13:24:19.870018,1709036659.8700185,968.75,969.7265625,969.7265625,-30.2734375,0.0,-1.0,1.0,0.0,1.m4v,4.0
2024-02-27 13:24:19.873924,1709036659.873924,968.75,969.7265625,969.7265625,-41.015625,0.0,-1.0,1.0,0.0,1.m4v,4.0
2024-02-27 13:24:19.877829,1709036659.8778293,969.23828125,969.7265625,969.7265625,-37.59765625,0.0,-1.0,1.0,0.0,1.m4v,4.0
2024-02-27 13:24:19.881735,1709036659.8817346,968.75,969.7265625,969.7265625,-22.94921875,0.0,-1.0,1.0,0.0,1.m4v,4.0
2024-02-27 13:24:19.885647,1709036659.885647,969.23828125,969.7265625,969.7265625,-20.5078125,0.0,-1.0,1.0,0.0,1.m4v,4.0
2024-02-27 13:24:19.889552,1709036659.8895524,969.23828125,969.7265625,969.7265625,-21.484375,0.0,-1.0,1.0,0.0,1.m4v,4.0
2024-02-27 13:24:19.893458,1709036659.8934577,968.75,969.7265625,969.7265625,-25.87890625,0.0,-1.0,1.0,0.0,1.m4v,4.0
2024-02-27 13:24:19.897363,1709036659.8973632,970.21484375,969.7265625,969.7265625,-34.1796875,0.0,-1.0,1.0,0.0,1.m4v,4.0
2024-02-27 13:24:19.901268,1709036659.9012685,966.30859375,969.7265625,970.21484375,-35.15625,0.0,-1.0,1.0,0.0,1.m4v,4.0
2024-02-27 13:24:19.905174,1709036659.9051738,963.8671875,969.7265625,967.7734375,-38.57421875,0.0,-1.0,1.0,0.0,1.m4v,4.0
2024-02-27 13:24:19.909079,1709036659.909079,985.83984375,986.328125,973.14453125,-34.1796875,0.0,-1.0,1.0,0.0,1.m4v,4.0
2024-02-27 13:24:19.912984,1709036659.9129844,908.69140625,911.1328125,964.35546875,-35.15625,0.0,-1.0,1.0,0.0,1.m4v,4.0
2024-02-27 13:24:19.916890,1709036659.9168897,999.51171875,999.51171875,941.89453125,-32.71484375,0.0,-1.0,1.0,0.0,1.m4v,4.0
2024-02-27 13:24:19.920795,1709036659.920795,815.91796875,848.14453125,959.47265625,-36.1328125,0.0,-1.0,1.0,0.0,1.m4v,4.0
2024-02-27 13:24:19.924700,1709036659.9247005,-643.06640625,-612.79296875,964.84375,-47.36328125,0.0,-1.0,1.0,0.0,1.m4v,4.0
2024-02-27 13:24:19.928606,1709036659.9286056,-1000.0,-1000.0,978.02734375,-44.921875,0.0,-1.0,1.0,0.0,1.m4v,4.0
2024-02-27 13:24:19.932518,1709036659.9325175,-927.734375,-925.78125,712.40234375,-49.31640625,0.0,-1.0,1.0,0.0,1.m4v,4.0
2024-02-27 13:24:19.936423,1709036659.936423,-1000.0,-1000.0,331.54296875,-38.0859375,0.0,-1.0,1.0,0.0,1.m4v,4.0
2024-02-27 13:24:19.940328,1709036659.9403284,-1000.0,-1000.0,387.6953125,-36.62109375,0.0,-1.0,1.0,0.0,1.m4v,4.0
2024-02-27 13:24:19.944234,1709036659.9442337,-1000.0,-1000.0,719.23828125,-34.1796875,0.0,-1.0,1.0,0.0,1.m4v,4.0
2024-02-27 13:24:19.948139,1709036659.948139,-1000.0,-1000.0,951.171875,-21.484375,0.0,-1.0,1.0,0.0,1.m4v,4.0
2024-02-27 13:24:19.952044,1709036659.9520442,-1000.0,-1000.0,983.88671875,-20.01953125,0.0,-1.0,1.0,0.0,1.m4v,4.0
2024-02-27 13:24:19.955950,1709036659.9559495,-1000.0,-1000.0,638.671875,-33.69140625,0.0,-1.0,1.0,0.0,1.m4v,4.0
2024-02-27 13:24:19.959855,1709036659.9598548,-991.2109375,-1000.0,245.60546875,-44.43359375,0.0,-1.0,1.0,0.0,1.m4v,4.0
2024-02-27 13:24:19.963760,1709036659.96376,-966.30859375,-930.6640625,479.00390625,-32.2265625,0.0,-1.0,1.0,0.0,1.m4v,4.0
2024-02-27 13:24:19.967665,1709036659.9676654,-1000.0,-1000.0,895.99609375,-20.5078125,0.0,-1.0,1.0,0.0,1.m4v,4.0
2024-02-27 13:24:19.971571,1709036659.9715707,-196.2890625,-713.8671875,776.85546875,-17.08984375,0.0,-1.0,1.0,0.0,1.m4v,4.0
2024-02-27 13:24:19.975476,1709036659.9754765,946.2890625,758.30078125,415.0390625,-18.5546875,0.0,-1.0,1.0,0.0,1.m4v,4.0
2024-02-27 13:24:19.979388,1709036659.9793878,973.6328125,999.51171875,605.95703125,-16.11328125,0.0,-1.0,1.0,0.0,1.m4v,4.0
2024-02-27 13:24:19.983293,1709036659.9832933,939.453125,904.296875,938.96484375,-15.13671875,0.0,-1.0,1.0,0.0,1.m4v,4.0
2024-02-27 13:24:19.987199,1709036659.9871986,978.515625,986.81640625,976.5625,-27.83203125,0.0,-1.0,1.0,0.0,1.m4v,4.0
2024-02-27 13:24:19.991104,1709036659.991104,969.23828125,969.7265625,933.59375,-32.71484375,0.0,-1.0,1.0,0.0,1.m4v,4.0
2024-02-27 13:24:19.995009,1709036659.9950092,968.75,969.7265625,522.4609375,-41.9921875,0.0,-1.0,1.0,0.0,1.m4v,4.0
2024-02-27 13:24:19.998914,1709036659.9989145,969.23828125,969.7265625,487.79296875,-42.48046875,0.0,-1.0,1.0,0.0,1.m4v,4.0
2024-02-27 13:24:20.002820,1709036660.0028198,985.3515625,986.328125,930.6640625,-36.62109375,0.0,-1.0,1.0,0.0,1.m4v,4.0
2024-02-27 13:24:20.006725,1709036660.006725,908.203125,912.109375,975.09765625,-27.34375,0.0,-1.0,1.0,0.0,1.m4v,4.0
2024-02-27 13:24:20.010630,1709036660.0106304,999.51171875,999.51171875,688.4765625,-23.4375,0.0,-1.0,1.0,0.0,1.m4v,4.0
2024-02-27 13:24:20.014536,1709036660.0145357,808.10546875,860.3515625,160.15625,-45.41015625,0.0,-1.0,1.0,0.0,1.m4v,4.0
2024-02-27 13:24:20.018441,1709036660.018441,-651.85546875,-597.16796875,-402.34375,-74.70703125,0.0,-1.0,1.0,0.0,1.m4v,4.0
2024-02-27 13:24:20.022346,1709036660.0223465,-1000.0,-1000.0,-520.01953125,-62.98828125,0.0,-1.0,1.0,0.0,1.m4v,4.0
2024-02-27 13:24:20.026257,1709036660.0262568,-928.22265625,-925.78125,-120.60546875,-34.66796875,0.0,-1.0,1.0,0.0,1.m4v,4.0
2024-02-27 13:24:20.030162,1709036660.030162,-1000.0,-1000.0,30.2734375,-32.2265625,0.0,-1.0,1.0,0.0,1.m4v,4.0
2024-02-27 13:24:20.034067,1709036660.0340674,-1000.0,-1000.0,-366.2109375,-41.015625,0.0,-1.0,1.0,0.0,1.m4v,4.0
2024-02-27 13:24:20.037973,1709036660.037973,-940.91796875,-941.89453125,-381.34765625,-31.25,0.0,-1.0,1.0,0.0,1.m4v,4.0
2024-02-27 13:24:20.041878,1709036660.0418782,-1000.0,-1000.0,-15.625,-17.08984375,0.0,-1.0,1.0,0.0,1.m4v,4.0
2024-02-27 13:24:20.045784,1709036660.0457835,-874.0234375,-884.765625,520.99609375,-3.90625,0.0,-1.0,1.0,0.0,1.m4v,4.0
2024-02-27 13:24:20.049689,1709036660.0496888,586.9140625,574.70703125,913.57421875,6.34765625,0.0,-1.0,1.0,0.0,1.m4v,4.0
2024-02-27 13:24:20.053594,1709036660.053594,999.51171875,999.51171875,286.62109375,-18.5546875,0.0,-1.0,1.0,0.0,1.m4v,4.0
2024-02-27 13:24:20.057499,1709036660.0574994,895.01953125,895.5078125,-312.98828125,-37.59765625,0.0,-1.0,1.0,0.0,1.m4v,4.0
2024-02-27 13:24:20.061405,1709036660.0614047,997.0703125,993.1640625,-311.5234375,-40.52734375,0.0,-1.0,1.0,0.0,1.m4v,4.0
2024-02-27 13:24:20.065310,1709036660.06531,925.78125,942.3828125,57.12890625,-25.87890625,0.0,-1.0,1.0,0.0,1.m4v,4.0
2024-02-27 13:24:20.069215,1709036660.0692153,988.28125,955.56640625,174.8046875,-24.4140625,0.0,-1.0,1.0,0.0,1.m4v,4.0
2024-02-27 13:24:20.073130,1709036660.07313,953.125,999.51171875,-319.82421875,-31.25,0.0,-1.0,1.0,0.0,1.m4v,4.0
2024-02-27 13:24:20.077035,1709036660.0770352,-417.48046875,-212.890625,-837.40234375,-70.3125,0.0,-1.0,1.0,0.0,1.m4v,4.0
2024-02-27 13:24:20.080940,1709036660.0809405,-1000.0,-1000.0,-1000.0,-69.3359375,0.0,-1.0,1.0,0.0,1.m4v,4.0
2024-02-27 13:24:20.084846,1709036660.0848458,-929.6875,-940.91796875,-621.09375,-44.43359375,0.0,-1.0,1.0,0.0,1.m4v,4.0
2024-02-27 13:24:20.088751,1709036660.088751,-1000.0,-1000.0,-297.8515625,-32.2265625,0.0,-1.0,1.0,0.0,1.m4v,4.0
2024-02-27 13:24:20.092656,1709036660.0926564,-1000.0,-1000.0,-473.14453125,-28.3203125,0.0,-1.0,1.0,0.0,1.m4v,4.0
2024-02-27 13:24:20.096562,1709036660.0965617,-1000.0,-1000.0,-647.4609375,-37.59765625,0.0,-1.0,1.0,0.0,1.m4v,4.0
2024-02-27 13:24:20.100467,1709036660.100467,-1000.0,-1000.0,-773.4375,-35.64453125,0.0,-1.0,1.0,0.0,1.m4v,4.0
2024-02-27 13:24:20.104372,1709036660.1043725,-1000.0,-1000.0,-770.99609375,-35.15625,0.0,-1.0,1.0,0.0,1.m4v,4.0
2024-02-27 13:24:20.108278,1709036660.1082778,-1000.0,-1000.0,-730.95703125,-33.69140625,0.0,-1.0,1.0,0.0,1.m4v,4.0
2024-02-27 13:24:20.112183,1709036660.112183,-1000.0,-1000.0,-944.82421875,-26.85546875,0.0,-1.0,1.0,0.0,1.m4v,4.0
2024-02-27 13:24:20.116088,1709036660.1160884,-1000.0,-1000.0,-1000.0,-28.80859375,0.0,-1.0,1.0,0.0,1.m4v,4.0
2024-02-27 13:24:20.120002,1709036660.1200025,-1000.0,-1000.0,-1000.0,-37.109375,0.0,-1.0,1.0,0.0,1.m4v,4.0
2024-02-27 13:24:20.123908,1709036660.1239076,-1000.0,-1000.0,-920.8984375,-21.97265625,0.0,-1.0,1.0,0.0,1.m4v,4.0
2024-02-27 13:24:20.127813,1709036660.1278129,-1000.0,-1000.0,-748.046875,-22.4609375,0.0,-1.0,1.0,0.0,1.m4v,4.0
2024-02-27 13:24:20.131718,1709036660.1317182,-1000.0,-1000.0,-896.484375,-34.66796875,0.0,-1.0,1.0,0.0,1.m4v,4.0
2024-02-27 13:24:20.135623,1709036660.1356237,-1000.0,-1000.0,-1000.0,-35.64453125,0.0,-1.0,1.0,0.0,1.m4v,4.0
2024-02-27 13:24:20.139529,1709036660.1395288,-1000.0,-999.0234375,-977.5390625,-26.3671875,0.0,-1.0,1.0,0.0,1.m4v,4.0
2024-02-27 13:24:20.143434,1709036660.143434,-1000.0,-1000.0,-767.08984375,-14.16015625,0.0,-1.0,1.0,0.0,1.m4v,4.0
2024-02-27 13:24:20.147339,1709036660.147339,-1000.0,-998.046875,-695.3125,-16.6015625,0.0,-1.0,1.0,0.0,1.m4v,4.0
2024-02-27 13:24:20.151245,1709036660.1512449,-931.640625,-947.265625,-916.50390625,-31.25,0.0,-1.0,1.0,0.0,1.m4v,4.0
2024-02-27 13:24:20.155150,1709036660.1551502,-1000.0,-1000.0,-1000.0,-30.76171875,0.0,-1.0,1.0,0.0,1.m4v,4.0
2024-02-27 13:24:20.159055,1709036660.1590557,-548.33984375,-231.4453125,-964.35546875,-14.6484375,0.0,-1.0,1.0,0.0,1.m4v,4.0
2024-02-27 13:24:20.162961,1709036660.1629608,863.28125,998.046875,-631.34765625,8.30078125,0.0,-1.0,1.0,0.0,1.m4v,4.0
2024-02-27 13:24:20.166874,1709036660.1668744,999.51171875,964.84375,-341.796875,-0.48828125,0.0,-1.0,1.0,0.0,1.m4v,4.0
2024-02-27 13:24:20.170780,1709036660.1707797,915.0390625,939.94140625,-654.78515625,-20.01953125,0.0,-1.0,1.0,0.0,1.m4v,4.0
2024-02-27 13:24:20.174685,1709036660.174685,984.375,978.515625,-976.5625,-31.25,0.0,-1.0,1.0,0.0,1.m4v,4.0
2024-02-27 13:24:20.178590,1709036660.1785903,969.7265625,970.21484375,-1000.0,-39.55078125,0.0,-1.0,1.0,0.0,1.m4v,4.0
2024-02-27 13:24:20.182496,1709036660.1824956,969.7265625,969.7265625,-1000.0,-13.671875,0.0,-1.0,1.0,0.0,1.m4v,4.0
2024-02-27 13:24:20.186401,1709036660.186401,969.23828125,969.7265625,-259.27734375,4.8828125,0.0,-1.0,1.0,0.0,1.m4v,4.0
2024-02-27 13:24:20.635589,1709036660.635589,-1000.0,-1000.0,-1000.0,-45.8984375,0.0,-1.0,1.0,0.0,1.m4v,4.0
2024-02-27 13:24:20.639494,1709036660.6394942,-1000.0,-1000.0,-1000.0,-32.71484375,0.0,-1.0,1.0,0.0,1.m4v,4.0
2024-02-27 13:24:20.643399,1709036660.6433997,-1000.0,-1000.0,-1000.0,-25.390625,0.0,-1.0,1.0,0.0,1.m4v,4.0
2024-02-27 13:24:20.647305,1709036660.6473048,-1000.0,-1000.0,-1000.0,-29.78515625,0.0,-1.0,1.0,0.0,1.m4v,4.0
2024-02-27 13:24:20.651210,1709036660.65121,-1000.0,-1000.0,-1000.0,-46.875,0.0,-1.0,1.0,0.0,1.m4v,4.0
2024-02-27 13:24:20.655116,1709036660.6551156,-1000.0,-1000.0,-1000.0,-49.8046875,0.0,-1.0,1.0,0.0,1.m4v,4.0
2024-02-27 13:24:20.659021,1709036660.659021,-1000.0,-1000.0,-1000.0,-40.0390625,0.0,-1.0,1.0,0.0,1.m4v,4.0
2024-02-27 13:24:20.662926,1709036660.6629262,-1000.0,-1000.0,-1000.0,-40.0390625,0.0,-1.0,1.0,0.0,1.m4v,4.0
2024-02-27 13:24:20.666831,1709036660.6668315,-1000.0,-1000.0,-1000.0,-30.76171875,0.0,-1.0,1.0,0.0,1.m4v,4.0
2024-02-27 13:24:20.670737,1709036660.6707368,-1000.0,-1000.0,-1000.0,-32.2265625,0.0,-1.0,1.0,0.0,1.m4v,4.0
2024-02-27 13:24:20.674642,1709036660.674642,-1000.0,-1000.0,-1000.0,-40.0390625,0.0,-1.0,1.0,0.0,1.m4v,4.0
2024-02-27 13:24:20.678547,1709036660.6785474,-1000.0,-1000.0,-1000.0,-34.1796875,0.0,-1.0,1.0,0.0,1.m4v,4.0
2024-02-27 13:24:20.682459,1709036660.682459,-1000.0,-1000.0,-1000.0,-28.3203125,0.0,-1.0,1.0,0.0,1.m4v,4.0
2024-02-27 13:24:20.686364,1709036660.6863644,-1000.0,-1000.0,-1000.0,-27.83203125,0.0,-1.0,1.0,0.0,1.m4v,4.0
2024-02-27 13:24:20.690270,1709036660.6902697,-1000.0,-1000.0,-1000.0,-29.296875,0.0,-1.0,1.0,0.0,1.m4v,4.0
2024-02-27 13:24:20.694175,1709036660.694175,-1000.0,-1000.0,-1000.0,-33.203125,0.0,-1.0,1.0,0.0,1.m4v,4.0
2024-02-27 13:24:20.698080,1709036660.6980803,-1000.0,-1000.0,-1000.0,-26.3671875,0.0,-1.0,1.0,0.0,1.m4v,4.0
2024-02-27 13:24:20.701986,1709036660.7019856,-1000.0,-1000.0,-1000.0,-14.16015625,0.0,-1.0,1.0,0.0,1.m4v,4.0
2024-02-27 13:24:20.705891,1709036660.7058911,-1000.0,-1000.0,-1000.0,-22.94921875,0.0,-1.0,1.0,0.0,1.m4v,4.0
2024-02-27 13:24:20.709796,1709036660.7097964,-1000.0,-1000.0,-1000.0,-45.41015625,0.0,-1.0,1.0,0.0,1.m4v,4.0
2024-02-27 13:24:20.713702,1709036660.7137015,-1000.0,-1000.0,-1000.0,-40.52734375,0.0,-1.0,1.0,0.0,1.m4v,4.0
2024-02-27 13:24:20.717607,1709036660.717607,-1000.0,-1000.0,-1000.0,-23.92578125,0.0,-1.0,1.0,0.0,1.m4v,4.0
2024-02-27 13:24:20.721512,1709036660.7215123,-1000.0,-1000.0,-1000.0,-34.1796875,0.0,-1.0,1.0,0.0,1.m4v,4.0
2024-02-27 13:24:20.725418,1709036660.7254176,-1000.0,-1000.0,-1000.0,-54.6875,0.0,-1.0,1.0,0.0,1.m4v,4.0
2024-02-27 13:24:20.729329,1709036660.7293286,-1000.0,-1000.0,-1000.0,-58.59375,0.0,-1.0,1.0,0.0,1.m4v,4.0
2024-02-27 13:24:20.733234,1709036660.7332342,-1000.0,-1000.0,-1000.0,-56.15234375,0.0,-1.0,1.0,0.0,1.m4v,4.0
2024-02-27 13:24:20.737139,1709036660.7371397,-1000.0,-1000.0,-1000.0,-53.7109375,0.0,-1.0,1.0,0.0,1.m4v,4.0
2024-02-27 13:24:20.741045,1709036660.7410448,-1000.0,-1000.0,-1000.0,-56.15234375,0.0,-1.0,1.0,0.0,1.m4v,4.0
2024-02-27 13:24:20.744950,1709036660.74495,-1000.0,-1000.0,-1000.0,-60.05859375,0.0,-1.0,1.0,0.0,1.m4v,4.0
2024-02-27 13:24:20.748855,1709036660.7488554,-1000.0,-1000.0,-988.76953125,-58.59375,0.0,-1.0,1.0,0.0,1.m4v,4.0
2024-02-27 13:24:20.752761,1709036660.7527606,-940.4296875,-969.23828125,-980.46875,-61.5234375,0.0,-1.0,1.0,0.0,1.m4v,4.0
2024-02-27 13:24:20.756666,1709036660.756666,-1000.0,-993.1640625,-1000.0,-63.4765625,0.0,-1.0,1.0,0.0,1.m4v,4.0
2024-02-27 13:24:20.760571,1709036660.7605712,-862.79296875,-1000.0,-329.1015625,-43.9453125,0.0,-1.0,1.0,0.0,1.m4v,4.0
2024-02-27 13:24:20.764477,1709036660.7644763,598.6328125,228.02734375,768.06640625,0.9765625,0.0,-1.0,1.0,0.0,1.m4v,4.0
2024-02-27 13:24:20.768382,1709036660.768382,999.51171875,999.51171875,999.51171875,7.8125,0.0,-1.0,1.0,0.0,1.m4v,4.0
2024-02-27 13:24:20.772287,1709036660.7722874,895.99609375,907.2265625,935.05859375,-15.625,0.0,-1.0,1.0,0.0,1.m4v,4.0
2024-02-27 13:24:20.776198,1709036660.776198,985.3515625,971.6796875,976.5625,-24.90234375,0.0,-1.0,1.0,0.0,1.m4v,4.0
2024-02-27 13:24:20.780103,1709036660.7801034,969.23828125,970.21484375,970.21484375,-34.1796875,0.0,-1.0,1.0,0.0,1.m4v,4.0
2024-02-27 13:24:20.784009,1709036660.7840087,969.23828125,969.7265625,969.7265625,-40.0390625,0.0,-1.0,1.0,0.0,1.m4v,4.0
2024-02-27 13:24:20.787914,1709036660.787914,969.23828125,969.7265625,969.7265625,-44.921875,0.0,-1.0,1.0,0.0,1.m4v,4.0
2024-02-27 13:24:20.791819,1709036660.791819,969.23828125,969.7265625,969.7265625,-37.59765625,0.0,-1.0,1.0,0.0,1.m4v,4.0
2024-02-27 13:24:20.795725,1709036660.7957246,969.23828125,969.7265625,969.7265625,-30.76171875,0.0,-1.0,1.0,0.0,1.m4v,4.0
2024-02-27 13:24:20.799630,1709036660.79963,969.23828125,969.7265625,969.7265625,-33.203125,0.0,-1.0,1.0,0.0,1.m4v,4.0
2024-02-27 13:24:20.803535,1709036660.8035352,969.23828125,969.7265625,969.7265625,-28.80859375,0.0,-1.0,1.0,0.0,1.m4v,4.0
2024-02-27 13:24:20.807441,1709036660.8074408,969.23828125,969.7265625,969.7265625,-27.34375,0.0,-1.0,1.0,0.0,1.m4v,4.0
2024-02-27 13:24:20.811346,1709036660.811346,969.23828125,969.7265625,969.7265625,-28.3203125,0.0,-1.0,1.0,0.0,1.m4v,4.0
2024-02-27 13:24:20.815251,1709036660.8152514,969.23828125,969.7265625,969.7265625,-26.3671875,0.0,-1.0,1.0,0.0,1.m4v,4.0
2024-02-27 13:24:20.819157,1709036660.8191566,969.23828125,969.7265625,969.7265625,-28.80859375,0.0,-1.0,1.0,0.0,1.m4v,4.0
2024-02-27 13:24:20.823071,1709036660.8230712,969.23828125,969.7265625,969.7265625,-31.73828125,0.0,-1.0,1.0,0.0,1.m4v,4.0
2024-02-27 13:24:20.826977,1709036660.8269763,969.23828125,969.7265625,969.7265625,-31.73828125,0.0,-1.0,1.0,0.0,1.m4v,4.0
2024-02-27 13:24:20.830882,1709036660.8308818,969.23828125,970.21484375,969.7265625,-31.73828125,0.0,-1.0,1.0,0.0,1.m4v,4.0
2024-02-27 13:24:20.834787,1709036660.8347871,969.23828125,969.7265625,969.7265625,-38.0859375,0.0,-1.0,1.0,0.0,1.m4v,4.0
2024-02-27 13:24:20.838692,1709036660.8386924,968.75,969.7265625,969.7265625,-43.45703125,0.0,-1.0,1.0,0.0,1.m4v,4.0
2024-02-27 13:24:20.842598,1709036660.842598,968.75,969.7265625,969.7265625,-24.4140625,0.0,-1.0,1.0,0.0,1.m4v,4.0
2024-02-27 13:24:20.846503,1709036660.8465033,968.75,969.7265625,969.7265625,-15.13671875,0.0,-1.0,1.0,0.0,1.m4v,4.0
2024-02-27 13:24:20.850409,1709036660.8504086,969.23828125,969.7265625,969.7265625,-29.78515625,0.0,-1.0,1.0,0.0,1.m4v,4.0
2024-02-27 13:24:20.854314,1709036660.854314,969.23828125,969.7265625,969.7265625,-38.57421875,0.0,-1.0,1.0,0.0,1.m4v,4.0
2024-02-27 13:24:20.858219,1709036660.8582191,969.23828125,969.7265625,969.7265625,-31.25,0.0,-1.0,1.0,0.0,1.m4v,4.0
2024-02-27 13:24:20.862124,1709036660.8621244,969.23828125,969.7265625,969.7265625,-24.4140625,0.0,-1.0,1.0,0.0,1.m4v,4.0
2024-02-27 13:24:20.866030,1709036660.8660295,969.23828125,969.7265625,969.7265625,-18.06640625,0.0,-1.0,1.0,0.0,1.m4v,4.0
2024-02-27 13:24:20.869946,1709036660.8699465,969.23828125,970.21484375,969.7265625,-24.90234375,0.0,-1.0,1.0,0.0,1.m4v,4.0
2024-02-27 13:24:20.873852,1709036660.8738518,969.23828125,969.7265625,969.7265625,-42.96875,0.0,-1.0,1.0,0.0,1.m4v,4.0
2024-02-27 13:24:20.877757,1709036660.877757,969.23828125,969.7265625,969.7265625,-37.109375,0.0,-1.0,1.0,0.0,1.m4v,4.0
2024-02-27 13:24:20.881662,1709036660.8816624,969.23828125,970.21484375,969.7265625,-22.94921875,0.0,-1.0,1.0,0.0,1.m4v,4.0
2024-02-27 13:24:20.885568,1709036660.8855677,969.23828125,969.7265625,969.7265625,-21.484375,0.0,-1.0,1.0,0.0,1.m4v,4.0
2024-02-27 13:24:20.889473,1709036660.889473,969.23828125,969.7265625,969.7265625,-32.2265625,0.0,-1.0,1.0,0.0,1.m4v,4.0
2024-02-27 13:24:20.893378,1709036660.8933785,969.23828125,969.7265625,969.7265625,-41.50390625,0.0,-1.0,1.0,0.0,1.m4v,4.0
2024-02-27 13:24:20.897284,1709036660.8972836,969.23828125,969.7265625,969.7265625,-36.62109375,0.0,-1.0,1.0,0.0,1.m4v,4.0
2024-02-27 13:24:20.901189,1709036660.9011889,968.75,969.7265625,969.7265625,-31.25,0.0,-1.0,1.0,0.0,1.m4v,4.0
2024-02-27 13:24:20.905094,1709036660.9050944,969.23828125,969.7265625,969.7265625,-23.92578125,0.0,-1.0,1.0,0.0,1.m4v,4.0
2024-02-27 13:24:20.909000,1709036660.9089997,969.23828125,969.7265625,969.7265625,-24.90234375,0.0,-1.0,1.0,0.0,1.m4v,4.0
2024-02-27 13:24:20.912905,1709036660.912905,969.23828125,970.21484375,969.7265625,-31.25,0.0,-1.0,1.0,0.0,1.m4v,4.0
2024-02-27 13:24:20.916818,1709036660.9168184,969.23828125,969.7265625,969.7265625,-29.78515625,0.0,-1.0,1.0,0.0,1.m4v,4.0
2024-02-27 13:24:20.920724,1709036660.9207237,969.23828125,969.7265625,969.7265625,-25.87890625,0.0,-1.0,1.0,0.0,1.m4v,4.0
2024-02-27 13:24:20.924629,1709036660.924629,969.23828125,969.7265625,969.7265625,-24.4140625,0.0,-1.0,1.0,0.0,1.m4v,4.0
2024-02-27 13:24:20.928534,1709036660.9285345,969.23828125,969.7265625,969.7265625,-24.4140625,0.0,-1.0,1.0,0.0,1.m4v,4.0
2024-02-27 13:24:20.932440,1709036660.9324396,969.23828125,969.7265625,969.7265625,-26.85546875,0.0,-1.0,1.0,0.0,1.m4v,4.0
2024-02-27 13:24:20.936345,1709036660.9363449,969.23828125,969.7265625,969.7265625,-26.3671875,0.0,-1.0,1.0,0.0,1.m4v,4.0
2024-02-27 13:24:20.940250,1709036660.9402502,969.23828125,969.7265625,969.7265625,-22.94921875,0.0,-1.0,1.0,0.0,1.m4v,4.0
2024-02-27 13:24:20.944156,1709036660.9441557,969.23828125,970.21484375,969.7265625,-21.484375,0.0,-1.0,1.0,0.0,1.m4v,4.0
2024-02-27 13:24:20.948061,1709036660.948061,969.23828125,969.7265625,969.7265625,-19.04296875,0.0,-1.0,1.0,0.0,1.m4v,4.0
2024-02-27 13:24:20.951966,1709036660.9519663,969.23828125,969.7265625,969.7265625,-22.94921875,0.0,-1.0,1.0,0.0,1.m4v,4.0
2024-02-27 13:24:20.955872,1709036660.9558716,969.23828125,969.7265625,969.7265625,-20.99609375,0.0,-1.0,1.0,0.0,1.m4v,4.0
2024-02-27 13:24:20.959777,1709036660.9597769,969.23828125,969.7265625,969.7265625,-23.4375,0.0,-1.0,1.0,0.0,1.m4v,4.0
2024-02-27 13:24:20.963690,1709036660.9636896,969.23828125,969.7265625,969.7265625,-20.01953125,0.0,-1.0,1.0,0.0,1.m4v,4.0
2024-02-27 13:24:20.967595,1709036660.967595,969.23828125,969.7265625,969.7265625,-20.5078125,0.0,-1.0,1.0,0.0,1.m4v,4.0
2024-02-27 13:24:20.971500,1709036660.9715004,969.23828125,969.7265625,969.7265625,-24.4140625,0.0,-1.0,1.0,0.0,1.m4v,4.0
2024-02-27 13:24:20.975406,1709036660.9754057,968.75,969.7265625,969.7265625,-31.73828125,0.0,-1.0,1.0,0.0,1.m4v,4.0
2024-02-27 13:24:20.979311,1709036660.979311,968.75,969.7265625,969.7265625,-28.3203125,0.0,-1.0,1.0,0.0,1.m4v,4.0
2024-02-27 13:24:20.983216,1709036660.9832163,969.23828125,969.7265625,969.7265625,-21.97265625,0.0,-1.0,1.0,0.0,1.m4v,4.0
2024-02-27 13:24:20.987122,1709036660.9871216,968.75,969.7265625,969.7265625,-18.5546875,0.0,-1.0,1.0,0.0,1.m4v,4.0
2024-02-27 13:24:20.991027,1709036660.9910269,969.23828125,969.7265625,969.7265625,-29.296875,0.0,-1.0,1.0,0.0,1.m4v,4.0
2024-02-27 13:24:20.994932,1709036660.9949322,969.23828125,969.7265625,969.7265625,-37.109375,0.0,-1.0,1.0,0.0,1.m4v,4.0
2024-02-27 13:24:20.998837,1709036660.9988377,968.75,969.7265625,969.7265625,-35.15625,0.0,-1.0,1.0,0.0,1.m4v,4.0
2024-02-27 13:24:21.002743,1709036661.002743,969.23828125,969.7265625,969.7265625,-23.92578125,0.0,-1.0,1.0,0.0,1.m4v,4.0
2024-02-27 13:24:21.006648,1709036661.0066483,969.23828125,969.7265625,969.7265625,-15.13671875,0.0,-1.0,1.0,0.0,1.m4v,4.0
2024-02-27 13:24:21.010561,1709036661.010561,969.23828125,969.7265625,969.7265625,-23.92578125,0.0,-1.0,1.0,0.0,1.m4v,4.0
2024-02-27 13:24:21.014466,1709036661.0144663,969.23828125,969.7265625,969.7265625,-15.625,0.0,-1.0,1.0,0.0,1.m4v,4.0
2024-02-27 13:24:21.018372,1709036661.0183716,969.23828125,969.7265625,969.7265625,-5.37109375,0.0,-1.0,1.0,0.0,1.m4v,4.0
2024-02-27 13:24:21.022277,1709036661.0222769,969.23828125,969.7265625,969.7265625,-31.73828125,0.0,-1.0,1.0,0.0,1.m4v,4.0
2024-02-27 13:24:21.026182,1709036661.0261822,969.23828125,970.703125,969.7265625,-36.1328125,0.0,-1.0,1.0,0.0,1.m4v,4.0
2024-02-27 13:24:21.030087,1709036661.0300877,968.75,978.515625,969.7265625,-23.4375,0.0,-1.0,1.0,0.0,1.m4v,4.0
2024-02-27 13:24:21.033993,1709036661.033993,968.75,904.296875,970.21484375,-37.109375,0.0,-1.0,1.0,0.0,1.m4v,4.0
2024-02-27 13:24:21.037898,1709036661.0378983,969.23828125,999.51171875,969.7265625,-37.59765625,0.0,-1.0,1.0,0.0,1.m4v,4.0
2024-02-27 13:24:21.041804,1709036661.0418036,969.23828125,428.7109375,969.7265625,-44.43359375,0.0,-1.0,1.0,0.0,1.m4v,4.0
2024-02-27 13:24:21.045709,1709036661.045709,969.23828125,-936.5234375,969.7265625,-54.19921875,0.0,-1.0,1.0,0.0,1.m4v,4.0
2024-02-27 13:24:21.049614,1709036661.0496142,969.23828125,-1000.0,969.7265625,-34.1796875,0.0,-1.0,1.0,0.0,1.m4v,4.0
2024-02-27 13:24:21.053519,1709036661.0535195,969.23828125,-953.125,969.7265625,-34.1796875,0.0,-1.0,1.0,0.0,1.m4v,4.0
2024-02-27 13:24:21.057432,1709036661.057432,969.23828125,-1000.0,969.7265625,-38.0859375,0.0,-1.0,1.0,0.0,1.m4v,4.0
2024-02-27 13:24:21.061337,1709036661.0613372,969.23828125,-1000.0,969.7265625,-31.25,0.0,-1.0,1.0,0.0,1.m4v,4.0
2024-02-27 13:24:21.065243,1709036661.0652423,969.23828125,-1000.0,969.7265625,-22.94921875,0.0,-1.0,1.0,0.0,1.m4v,4.0
2024-02-27 13:24:21.069148,1709036661.0691478,969.23828125,-945.80078125,969.7265625,-21.484375,0.0,-1.0,1.0,0.0,1.m4v,4.0
2024-02-27 13:24:21.073053,1709036661.0730531,969.23828125,-1000.0,969.7265625,-42.48046875,0.0,-1.0,1.0,0.0,1.m4v,4.0
2024-02-27 13:24:21.076958,1709036661.0769584,969.23828125,-915.52734375,969.7265625,-37.109375,0.0,-1.0,1.0,0.0,1.m4v,4.0
2024-02-27 13:24:21.080864,1709036661.0808637,968.75,527.34375,969.7265625,-18.5546875,0.0,-1.0,1.0,0.0,1.m4v,4.0
2024-02-27 13:24:21.084769,1709036661.084769,969.23828125,999.51171875,969.7265625,-24.90234375,0.0,-1.0,1.0,0.0,1.m4v,4.0
2024-02-27 13:24:21.088675,1709036661.0886743,969.23828125,895.01953125,969.7265625,-32.2265625,0.0,-1.0,1.0,0.0,1.m4v,4.0
2024-02-27 13:24:21.092580,1709036661.0925798,969.23828125,984.86328125,969.7265625,-41.9921875,0.0,-1.0,1.0,0.0,1.m4v,4.0
2024-02-27 13:24:21.096485,1709036661.0964851,969.23828125,969.7265625,969.7265625,-26.3671875,0.0,-1.0,1.0,0.0,1.m4v,4.0
2024-02-27 13:24:21.100390,1709036661.1003904,969.23828125,969.7265625,969.7265625,-16.6015625,0.0,-1.0,1.0,0.0,1.m4v,4.0
2024-02-27 13:24:21.104306,1709036661.1043065,968.75,969.7265625,969.7265625,-22.4609375,0.0,-1.0,1.0,0.0,1.m4v,4.0
2024-02-27 13:24:21.108212,1709036661.1082118,969.23828125,969.7265625,969.7265625,-21.97265625,0.0,-1.0,1.0,0.0,1.m4v,4.0
2024-02-27 13:24:21.112117,1709036661.112117,969.23828125,969.7265625,970.21484375,-27.83203125,0.0,-1.0,1.0,0.0,1.m4v,4.0
2024-02-27 13:24:21.116022,1709036661.1160223,969.23828125,969.7265625,969.7265625,-39.0625,0.0,-1.0,1.0,0.0,1.m4v,4.0
2024-02-27 13:24:21.119928,1709036661.1199276,969.23828125,969.7265625,969.7265625,-37.109375,0.0,-1.0,1.0,0.0,1.m4v,4.0
2024-02-27 13:24:21.123833,1709036661.123833,968.75,969.7265625,970.21484375,-23.92578125,0.0,-1.0,1.0,0.0,1.m4v,4.0
2024-02-27 13:24:21.127738,1709036661.1277382,969.7265625,973.14453125,969.7265625,-21.97265625,0.0,-1.0,1.0,0.0,1.m4v,4.0
2024-02-27 13:24:21.131644,1709036661.1316435,980.46875,959.9609375,969.7265625,-35.15625,0.0,-1.0,1.0,0.0,1.m4v,4.0
2024-02-27 13:24:21.135549,1709036661.1355488,901.3671875,927.734375,969.7265625,-35.64453125,0.0,-1.0,1.0,0.0,1.m4v,4.0
2024-02-27 13:24:21.139454,1709036661.1394544,999.51171875,999.51171875,969.7265625,-24.90234375,0.0,-1.0,1.0,0.0,1.m4v,4.0
2024-02-27 13:24:21.143360,1709036661.1433597,503.90625,75.1953125,969.7265625,-37.109375,0.0,-1.0,1.0,0.0,1.m4v,4.0
2024-02-27 13:24:21.147265,1709036661.147265,-898.4375,-1000.0,969.7265625,-45.8984375,0.0,-1.0,1.0,0.0,1.m4v,4.0
2024-02-27 13:24:21.151176,1709036661.1511755,-1000.0,-978.02734375,969.7265625,-37.59765625,0.0,-1.0,1.0,0.0,1.m4v,4.0
2024-02-27 13:24:21.155081,1709036661.155081,-947.75390625,-979.4921875,969.7265625,-44.43359375,0.0,-1.0,1.0,0.0,1.m4v,4.0
2024-02-27 13:24:21.158986,1709036661.1589863,-1000.0,-1000.0,969.7265625,-45.8984375,0.0,-1.0,1.0,0.0,1.m4v,4.0
2024-02-27 13:24:21.162892,1709036661.1628916,-994.62890625,-1000.0,969.7265625,-39.0625,0.0,-1.0,1.0,0.0,1.m4v,4.0
2024-02-27 13:24:21.166797,1709036661.166797,-958.984375,-948.2421875,969.7265625,-35.64453125,0.0,-1.0,1.0,0.0,1.m4v,4.0
2024-02-27 13:24:21.170702,1709036661.1707022,-1000.0,-1000.0,969.7265625,-41.50390625,0.0,-1.0,1.0,0.0,1.m4v,4.0
2024-02-27 13:24:21.174608,1709036661.1746075,-265.13671875,-786.1328125,970.21484375,-45.8984375,0.0,-1.0,1.0,0.0,1.m4v,4.0
2024-02-27 13:24:21.178513,1709036661.178513,924.8046875,607.421875,969.7265625,-27.34375,0.0,-1.0,1.0,0.0,1.m4v,4.0
2024-02-27 13:24:21.182418,1709036661.1824183,980.46875,999.51171875,970.21484375,-22.94921875,0.0,-1.0,1.0,0.0,1.m4v,4.0
2024-02-27 13:24:21.186324,1709036661.1863236,935.546875,903.3203125,969.7265625,-33.69140625,0.0,-1.0,1.0,0.0,1.m4v,4.0
2024-02-27 13:24:21.190229,1709036661.190229,978.02734375,983.3984375,969.7265625,-40.0390625,0.0,-1.0,1.0,0.0,1.m4v,4.0
2024-02-27 13:24:21.194134,1709036661.1941342,969.23828125,969.7265625,969.7265625,-52.734375,0.0,-1.0,1.0,0.0,1.m4v,4.0
2024-02-27 13:24:21.198049,1709036661.1980488,969.23828125,969.7265625,969.7265625,-52.734375,0.0,-1.0,1.0,0.0,1.m4v,4.0
2024-02-27 13:24:21.201954,1709036661.201954,969.23828125,969.7265625,969.7265625,-36.62109375,0.0,-1.0,1.0,0.0,1.m4v,4.0
2024-02-27 13:24:21.205859,1709036661.2058594,969.23828125,969.7265625,969.7265625,-33.203125,0.0,-1.0,1.0,0.0,1.m4v,4.0
2024-02-27 13:24:21.209765,1709036661.2097647,985.3515625,986.328125,969.7265625,-44.43359375,0.0,-1.0,1.0,0.0,1.m4v,4.0
2024-02-27 13:24:21.213670,1709036661.21367,913.0859375,911.62109375,969.7265625,-48.828125,0.0,-1.0,1.0,0.0,1.m4v,4.0
2024-02-27 13:24:21.217575,1709036661.2175753,999.51171875,999.51171875,969.7265625,-46.875,0.0,-1.0,1.0,0.0,1.m4v,4.0
2024-02-27 13:24:21.619892,1709036661.6198916,-1000.0,-1000.0,-1000.0,-37.59765625,0.0,-1.0,1.0,0.0,1.m4v,4.0
2024-02-27 13:24:21.623797,1709036661.6237972,-1000.0,-1000.0,-1000.0,-40.0390625,0.0,-1.0,1.0,0.0,1.m4v,4.0
2024-02-27 13:24:21.627702,1709036661.6277025,-1000.0,-1000.0,-1000.0,-41.50390625,0.0,-1.0,1.0,0.0,1.m4v,4.0
2024-02-27 13:24:21.631608,1709036661.6316078,-1000.0,-1000.0,-1000.0,-43.45703125,0.0,-1.0,1.0,0.0,1.m4v,4.0
2024-02-27 13:24:21.635513,1709036661.635513,-1000.0,-1000.0,-1000.0,-53.22265625,0.0,-1.0,1.0,0.0,1.m4v,4.0
2024-02-27 13:24:21.639418,1709036661.6394184,-1000.0,-1000.0,-1000.0,-46.875,0.0,-1.0,1.0,0.0,1.m4v,4.0
2024-02-27 13:24:21.643324,1709036661.6433237,-1000.0,-1000.0,-1000.0,-33.69140625,0.0,-1.0,1.0,0.0,1.m4v,4.0
2024-02-27 13:24:21.647229,1709036661.647229,-1000.0,-1000.0,-1000.0,-45.41015625,0.0,-1.0,1.0,0.0,1.m4v,4.0
2024-02-27 13:24:21.651134,1709036661.6511345,-1000.0,-1000.0,-1000.0,-54.19921875,0.0,-1.0,1.0,0.0,1.m4v,4.0
2024-02-27 13:24:21.655040,1709036661.6550395,-1000.0,-1000.0,-1000.0,-53.7109375,0.0,-1.0,1.0,0.0,1.m4v,4.0
2024-02-27 13:24:21.658945,1709036661.658945,-1000.0,-1000.0,-1000.0,-42.48046875,0.0,-1.0,1.0,0.0,1.m4v,4.0
2024-02-27 13:24:21.662850,1709036661.6628504,-1000.0,-1000.0,-1000.0,-41.9921875,0.0,-1.0,1.0,0.0,1.m4v,4.0
2024-02-27 13:24:21.666764,1709036661.666764,-1000.0,-1000.0,-1000.0,-44.43359375,0.0,-1.0,1.0,0.0,1.m4v,4.0
2024-02-27 13:24:21.670669,1709036661.6706693,-1000.0,-1000.0,-1000.0,-46.38671875,0.0,-1.0,1.0,0.0,1.m4v,4.0
2024-02-27 13:24:21.674575,1709036661.6745746,-1000.0,-1000.0,-1000.0,-49.31640625,0.0,-1.0,1.0,0.0,1.m4v,4.0
2024-02-27 13:24:21.678480,1709036661.67848,-1000.0,-1000.0,-1000.0,-41.9921875,0.0,-1.0,1.0,0.0,1.m4v,4.0
2024-02-27 13:24:21.682385,1709036661.6823852,-1000.0,-1000.0,-1000.0,-38.0859375,0.0,-1.0,1.0,0.0,1.m4v,4.0
2024-02-27 13:24:21.686291,1709036661.6862905,-1000.0,-1000.0,-1000.0,-29.296875,0.0,-1.0,1.0,0.0,1.m4v,4.0
2024-02-27 13:24:21.690196,1709036661.690196,-1000.0,-1000.0,-1000.0,-37.109375,0.0,-1.0,1.0,0.0,1.m4v,4.0
2024-02-27 13:24:21.694101,1709036661.694101,-1000.0,-1000.0,-1000.0,-42.48046875,0.0,-1.0,1.0,0.0,1.m4v,4.0
2024-02-27 13:24:21.698007,1709036661.6980066,-1000.0,-1000.0,-1000.0,-29.78515625,0.0,-1.0,1.0,0.0,1.m4v,4.0
2024-02-27 13:24:21.701912,1709036661.701912,-1000.0,-1000.0,-1000.0,-35.15625,0.0,-1.0,1.0,0.0,1.m4v,4.0
2024-02-27 13:24:21.705817,1709036661.7058172,-945.3125,-963.37890625,-1000.0,-31.73828125,0.0,-1.0,1.0,0.0,1.m4v,4.0
2024-02-27 13:24:21.709723,1709036661.7097225,-1000.0,-1000.0,-1000.0,-23.92578125,0.0,-1.0,1.0,0.0,1.m4v,4.0
2024-02-27 13:24:21.713636,1709036661.7136357,-871.58203125,-1000.0,-1000.0,-24.4140625,0.0,-1.0,1.0,0.0,1.m4v,4.0
2024-02-27 13:24:21.717541,1709036661.717541,557.12890625,305.6640625,-1000.0,-4.8828125,0.0,-1.0,1.0,0.0,1.m4v,4.0
2024-02-27 13:24:21.721446,1709036661.7214465,999.51171875,999.51171875,-1000.0,13.18359375,0.0,-1.0,1.0,0.0,1.m4v,4.0
2024-02-27 13:24:21.725352,1709036661.7253516,897.94921875,901.3671875,-1000.0,12.6953125,0.0,-1.0,1.0,0.0,1.m4v,4.0
2024-02-27 13:24:21.729257,1709036661.729257,983.3984375,976.5625,-1000.0,18.5546875,0.0,-1.0,1.0,0.0,1.m4v,4.0
2024-02-27 13:24:21.733162,1709036661.7331624,969.23828125,970.21484375,-1000.0,4.39453125,0.0,-1.0,1.0,0.0,1.m4v,4.0
2024-02-27 13:24:21.737068,1709036661.7370677,969.23828125,970.21484375,-1000.0,-2.44140625,0.0,-1.0,1.0,0.0,1.m4v,4.0
2024-02-27 13:24:21.740973,1709036661.740973,969.23828125,970.21484375,-1000.0,19.53125,0.0,-1.0,1.0,0.0,1.m4v,4.0
2024-02-27 13:24:21.744878,1709036661.7448783,969.23828125,970.21484375,-1000.0,9.27734375,0.0,-1.0,1.0,0.0,1.m4v,4.0
2024-02-27 13:24:21.748784,1709036661.7487836,969.23828125,970.21484375,-1000.0,-3.41796875,0.0,-1.0,1.0,0.0,1.m4v,4.0
2024-02-27 13:24:21.752689,1709036661.752689,969.23828125,970.21484375,-1000.0,2.44140625,0.0,-1.0,1.0,0.0,1.m4v,4.0
2024-02-27 13:24:21.756594,1709036661.7565942,969.23828125,969.7265625,-1000.0,1.953125,0.0,-1.0,1.0,0.0,1.m4v,4.0
2024-02-27 13:24:21.760507,1709036661.7605066,969.23828125,969.7265625,-1000.0,1.46484375,0.0,-1.0,1.0,0.0,1.m4v,4.0
2024-02-27 13:24:21.764412,1709036661.764412,969.23828125,970.21484375,-1000.0,1.953125,0.0,-1.0,1.0,0.0,1.m4v,4.0
2024-02-27 13:24:21.768317,1709036661.7683172,969.23828125,969.7265625,-1000.0,1.46484375,0.0,-1.0,1.0,0.0,1.m4v,4.0
2024-02-27 13:24:21.772223,1709036661.7722225,969.23828125,969.7265625,-1000.0,-8.7890625,0.0,-1.0,1.0,0.0,1.m4v,4.0
2024-02-27 13:24:21.776128,1709036661.7761278,984.375,986.328125,-1000.0,-20.01953125,0.0,-1.0,1.0,0.0,1.m4v,4.0
2024-02-27 13:24:21.780033,1709036661.780033,910.15625,911.1328125,-1000.0,-11.23046875,0.0,-1.0,1.0,0.0,1.m4v,4.0
2024-02-27 13:24:21.783938,1709036661.7839384,999.51171875,999.51171875,-1000.0,1.953125,0.0,-1.0,1.0,0.0,1.m4v,4.0
2024-02-27 13:24:21.787844,1709036661.7878437,797.8515625,852.05078125,-1000.0,-1.46484375,0.0,-1.0,1.0,0.0,1.m4v,4.0
2024-02-27 13:24:21.791749,1709036661.7917492,-646.484375,-608.3984375,-1000.0,-35.15625,0.0,-1.0,1.0,0.0,1.m4v,4.0
2024-02-27 13:24:21.795655,1709036661.7956543,-1000.0,-1000.0,-1000.0,-33.69140625,0.0,-1.0,1.0,0.0,1.m4v,4.0
2024-02-27 13:24:21.799560,1709036661.7995598,-929.19921875,-925.78125,-1000.0,-19.53125,0.0,-1.0,1.0,0.0,1.m4v,4.0
2024-02-27 13:24:21.803465,1709036661.8034651,-1000.0,-1000.0,-1000.0,-19.53125,0.0,-1.0,1.0,0.0,1.m4v,4.0
2024-02-27 13:24:21.807377,1709036661.8073769,-1000.0,-1000.0,-1000.0,-20.5078125,0.0,-1.0,1.0,0.0,1.m4v,4.0
2024-02-27 13:24:21.811282,1709036661.8112822,-1000.0,-1000.0,-1000.0,-23.4375,0.0,-1.0,1.0,0.0,1.m4v,4.0
2024-02-27 13:24:21.815187,1709036661.8151877,-1000.0,-1000.0,-995.60546875,-24.4140625,0.0,-1.0,1.0,0.0,1.m4v,4.0
2024-02-27 13:24:21.819093,1709036661.8190928,-937.98828125,-942.3828125,-989.2578125,-26.3671875,0.0,-1.0,1.0,0.0,1.m4v,4.0
2024-02-27 13:24:21.822998,1709036661.822998,-1000.0,-1000.0,-1000.0,-30.76171875,0.0,-1.0,1.0,0.0,1.m4v,4.0
2024-02-27 13:24:21.826903,1709036661.826903,-791.9921875,-890.13671875,-727.05078125,-13.671875,0.0,-1.0,1.0,0.0,1.m4v,4.0
2024-02-27 13:24:21.830809,1709036661.8308086,661.62109375,567.87109375,-450.1953125,9.765625,0.0,-1.0,1.0,0.0,1.m4v,4.0
2024-02-27 13:24:21.834714,1709036661.8347142,999.51171875,999.51171875,-913.57421875,-8.7890625,0.0,-1.0,1.0,0.0,1.m4v,4.0
2024-02-27 13:24:21.838619,1709036661.8386197,900.390625,895.01953125,-938.96484375,-20.99609375,0.0,-1.0,1.0,0.0,1.m4v,4.0
2024-02-27 13:24:21.842525,1709036661.8425248,985.3515625,985.83984375,-280.2734375,-2.9296875,0.0,-1.0,1.0,0.0,1.m4v,4.0
2024-02-27 13:24:21.846430,1709036661.84643,969.23828125,970.21484375,159.1796875,6.8359375,0.0,-1.0,1.0,0.0,1.m4v,4.0
2024-02-27 13:24:21.850335,1709036661.8503354,969.23828125,969.7265625,206.54296875,-11.71875,0.0,-1.0,1.0,0.0,1.m4v,4.0
2024-02-27 13:24:21.854247,1709036661.8542469,968.75,969.7265625,-161.62109375,-32.2265625,0.0,-1.0,1.0,0.0,1.m4v,4.0
2024-02-27 13:24:21.858152,1709036661.8581522,969.23828125,969.7265625,-305.17578125,-34.66796875,0.0,-1.0,1.0,0.0,1.m4v,4.0
2024-02-27 13:24:21.862057,1709036661.8620574,969.23828125,969.7265625,49.31640625,-25.390625,0.0,-1.0,1.0,0.0,1.m4v,4.0
2024-02-27 13:24:21.865963,1709036661.8659627,969.23828125,969.7265625,532.71484375,-3.90625,0.0,-1.0,1.0,0.0,1.m4v,4.0
2024-02-27 13:24:21.869868,1709036661.869868,968.75,970.21484375,689.453125,-11.23046875,0.0,-1.0,1.0,0.0,1.m4v,4.0
2024-02-27 13:24:21.873773,1709036661.873773,969.23828125,969.7265625,659.1796875,-32.2265625,0.0,-1.0,1.0,0.0,1.m4v,4.0
2024-02-27 13:24:21.877679,1709036661.8776789,968.75,969.7265625,664.0625,-22.94921875,0.0,-1.0,1.0,0.0,1.m4v,4.0
2024-02-27 13:24:21.881584,1709036661.8815842,968.75,969.7265625,515.13671875,-30.76171875,0.0,-1.0,1.0,0.0,1.m4v,4.0
2024-02-27 13:24:21.885489,1709036661.8854897,969.23828125,969.7265625,746.09375,-38.0859375,0.0,-1.0,1.0,0.0,1.m4v,4.0
2024-02-27 13:24:21.889395,1709036661.8893948,969.23828125,969.7265625,999.51171875,-20.01953125,0.0,-1.0,1.0,0.0,1.m4v,4.0
2024-02-27 13:24:21.893300,1709036661.8933,969.23828125,969.7265625,643.06640625,-34.1796875,0.0,-1.0,1.0,0.0,1.m4v,4.0
2024-02-27 13:24:21.897205,1709036661.8972054,969.23828125,969.7265625,337.890625,-40.0390625,0.0,-1.0,1.0,0.0,1.m4v,4.0
2024-02-27 13:24:21.901118,1709036661.9011176,985.3515625,986.328125,655.2734375,-18.5546875,0.0,-1.0,1.0,0.0,1.m4v,4.0
2024-02-27 13:24:21.905023,1709036661.9050229,909.66796875,912.109375,939.94140625,-16.11328125,0.0,-1.0,1.0,0.0,1.m4v,4.0
2024-02-27 13:24:21.908928,1709036661.9089282,999.51171875,999.51171875,945.3125,-22.94921875,0.0,-1.0,1.0,0.0,1.m4v,4.0
2024-02-27 13:24:21.912833,1709036661.9128337,838.8671875,860.3515625,510.25390625,-33.69140625,0.0,-1.0,1.0,0.0,1.m4v,4.0
2024-02-27 13:24:21.916739,1709036661.916739,-620.60546875,-597.16796875,-248.53515625,-64.453125,0.0,-1.0,1.0,0.0,1.m4v,4.0
2024-02-27 13:24:21.920644,1709036661.9206443,-1000.0,-1000.0,-74.21875,-65.4296875,0.0,-1.0,1.0,0.0,1.m4v,4.0
2024-02-27 13:24:21.924550,1709036661.9245496,-926.7578125,-925.78125,596.19140625,-30.2734375,0.0,-1.0,1.0,0.0,1.m4v,4.0
2024-02-27 13:24:21.928455,1709036661.9284549,-1000.0,-1000.0,593.75,-14.6484375,0.0,-1.0,1.0,0.0,1.m4v,4.0
2024-02-27 13:24:21.932360,1709036661.9323602,-1000.0,-1000.0,198.73046875,-31.25,0.0,-1.0,1.0,0.0,1.m4v,4.0
2024-02-27 13:24:21.936265,1709036661.9362657,-1000.0,-1000.0,-467.7734375,-52.24609375,0.0,-1.0,1.0,0.0,1.m4v,4.0
2024-02-27 13:24:21.940171,1709036661.9401708,-1000.0,-1000.0,-581.0546875,-41.015625,0.0,-1.0,1.0,0.0,1.m4v,4.0
2024-02-27 13:24:21.944076,1709036661.944076,-1000.0,-1000.0,3.90625,-14.16015625,0.0,-1.0,1.0,0.0,1.m4v,4.0
2024-02-27 13:24:21.947991,1709036661.947991,-1000.0,-1000.0,432.6171875,-16.11328125,0.0,-1.0,1.0,0.0,1.m4v,4.0
2024-02-27 13:24:21.951896,1709036661.951896,-1000.0,-1000.0,204.58984375,-34.66796875,0.0,-1.0,1.0,0.0,1.m4v,4.0
2024-02-27 13:24:21.955801,1709036661.9558012,-1000.0,-987.3046875,-346.19140625,-47.36328125,0.0,-1.0,1.0,0.0,1.m4v,4.0
2024-02-27 13:24:21.959707,1709036661.9597063,-937.5,-962.40234375,-223.14453125,-41.50390625,0.0,-1.0,1.0,0.0,1.m4v,4.0
2024-02-27 13:24:21.963612,1709036661.9636118,-1000.0,-1000.0,206.54296875,-24.90234375,0.0,-1.0,1.0,0.0,1.m4v,4.0
2024-02-27 13:24:21.967517,1709036661.9675174,-381.8359375,-46.875,770.5078125,-11.71875,0.0,-1.0,1.0,0.0,1.m4v,4.0
2024-02-27 13:24:21.971423,1709036661.971423,944.3359375,999.51171875,923.828125,-1.953125,0.0,-1.0,1.0,0.0,1.m4v,4.0
2024-02-27 13:24:21.975328,1709036661.975328,987.3046875,938.96484375,178.22265625,-30.76171875,0.0,-1.0,1.0,0.0,1.m4v,4.0
2024-02-27 13:24:21.979233,1709036661.9792333,927.734375,953.61328125,-118.1640625,-46.38671875,0.0,-1.0,1.0,0.0,1.m4v,4.0
2024-02-27 13:24:21.983139,1709036661.9831386,996.09375,980.46875,255.859375,-36.62109375,0.0,-1.0,1.0,0.0,1.m4v,4.0
2024-02-27 13:24:21.987044,1709036661.987044,913.57421875,947.265625,791.50390625,-18.06640625,0.0,-1.0,1.0,0.0,1.m4v,4.0
2024-02-27 13:24:21.990949,1709036661.9909492,999.51171875,946.77734375,684.08203125,-38.57421875,0.0,-1.0,1.0,0.0,1.m4v,4.0
2024-02-27 13:24:21.994863,1709036661.994863,874.0234375,999.51171875,14.6484375,-59.08203125,0.0,-1.0,1.0,0.0,1.m4v,4.0
2024-02-27 13:24:21.998769,1709036661.9987686,-570.3125,-133.7890625,-388.671875,-68.359375,0.0,-1.0,1.0,0.0,1.m4v,4.0
2024-02-27 13:24:22.002674,1709036662.002674,-1000.0,-1000.0,-346.6796875,-70.80078125,0.0,-1.0,1.0,0.0,1.m4v,4.0
2024-02-27 13:24:22.006579,1709036662.0065792,-926.26953125,-950.1953125,70.80078125,-43.9453125,0.0,-1.0,1.0,0.0,1.m4v,4.0
2024-02-27 13:24:22.010484,1709036662.0104845,-1000.0,-994.62890625,59.5703125,-51.26953125,0.0,-1.0,1.0,0.0,1.m4v,4.0
2024-02-27 13:24:22.014390,1709036662.0143898,-1000.0,-1000.0,-125.48828125,-66.89453125,0.0,-1.0,1.0,0.0,1.m4v,4.0
2024-02-27 13:24:22.018295,1709036662.018295,-1000.0,-1000.0,2.9296875,-37.109375,0.0,-1.0,1.0,0.0,1.m4v,4.0
2024-02-27 13:24:22.022200,1709036662.0222003,-1000.0,-1000.0,77.1484375,-26.3671875,0.0,-1.0,1.0,0.0,1.m4v,4.0
2024-02-27 13:24:22.026106,1709036662.0261056,-1000.0,-1000.0,154.296875,-35.15625,0.0,-1.0,1.0,0.0,1.m4v,4.0
2024-02-27 13:24:22.030011,1709036662.0300112,-1000.0,-1000.0,-35.15625,-30.76171875,0.0,-1.0,1.0,0.0,1.m4v,4.0
2024-02-27 13:24:22.033916,1709036662.0339165,-1000.0,-1000.0,-694.3359375,-51.7578125,0.0,-1.0,1.0,0.0,1.m4v,4.0
2024-02-27 13:24:22.037822,1709036662.0378218,-1000.0,-994.62890625,-972.65625,-56.640625,0.0,-1.0,1.0,0.0,1.m4v,4.0
2024-02-27 13:24:22.041735,1709036662.0417354,-942.3828125,-951.171875,-625.0,-41.50390625,0.0,-1.0,1.0,0.0,1.m4v,4.0
2024-02-27 13:24:22.045641,1709036662.0456407,-1000.0,-1000.0,-108.88671875,-33.203125,0.0,-1.0,1.0,0.0,1.m4v,4.0
2024-02-27 13:24:22.049546,1709036662.049546,-326.171875,-171.875,257.32421875,-16.11328125,0.0,-1.0,1.0,0.0,1.m4v,4.0
2024-02-27 13:24:22.053451,1709036662.0534513,958.984375,999.51171875,248.53515625,-19.04296875,0.0,-1.0,1.0,0.0,1.m4v,4.0
2024-02-27 13:24:22.057357,1709036662.0573568,979.98046875,955.56640625,-17.578125,-38.57421875,0.0,-1.0,1.0,0.0,1.m4v,4.0
2024-02-27 13:24:22.061262,1709036662.061262,932.12890625,944.3359375,502.44140625,-27.83203125,0.0,-1.0,1.0,0.0,1.m4v,4.0
2024-02-27 13:24:22.065167,1709036662.0651674,979.4921875,977.05078125,999.51171875,-20.5078125,0.0,-1.0,1.0,0.0,1.m4v,4.0
2024-02-27 13:24:22.069073,1709036662.0690727,969.23828125,969.7265625,913.0859375,-34.66796875,0.0,-1.0,1.0,0.0,1.m4v,4.0
2024-02-27 13:24:22.072978,1709036662.072978,969.23828125,969.7265625,470.703125,-55.17578125,0.0,-1.0,1.0,0.0,1.m4v,4.0
2024-02-27 13:24:22.076883,1709036662.0768833,969.23828125,969.7265625,-23.4375,-79.58984375,0.0,-1.0,1.0,0.0,1.m4v,4.0
2024-02-27 13:24:22.080789,1709036662.0807886,969.23828125,969.7265625,296.38671875,-60.05859375,0.0,-1.0,1.0,0.0,1.m4v,4.0
2024-02-27 13:24:22.084694,1709036662.084694,969.23828125,969.7265625,801.7578125,-51.26953125,0.0,-1.0,1.0,0.0,1.m4v,4.0
2024-02-27 13:24:22.088607,1709036662.088607,969.23828125,969.7265625,940.91796875,-79.58984375,0.0,-1.0,1.0,0.0,1.m4v,4.0
2024-02-27 13:24:22.092512,1709036662.0925124,969.23828125,969.7265625,611.328125,-106.4453125,0.0,-1.0,1.0,0.0,1.m4v,4.0
2024-02-27 13:24:22.096418,1709036662.0964177,969.23828125,969.7265625,452.63671875,-118.65234375,0.0,-1.0,1.0,0.0,1.m4v,4.0
2024-02-27 13:24:22.100323,1709036662.100323,968.75,969.7265625,853.02734375,-141.11328125,0.0,-1.0,1.0,0.0,1.m4v,4.0
2024-02-27 13:24:22.104228,1709036662.1042285,969.23828125,969.7265625,997.55859375,-117.67578125,0.0,-1.0,1.0,0.0,1.m4v,4.0
2024-02-27 13:24:22.108134,1709036662.1081338,969.23828125,969.7265625,952.1484375,-104.98046875,0.0,-1.0,1.0,0.0,1.m4v,4.0
2024-02-27 13:24:22.112039,1709036662.112039,968.75,969.7265625,972.16796875,-125.48828125,0.0,-1.0,1.0,0.0,1.m4v,4.0
2024-02-27 13:24:22.115944,1709036662.1159444,968.75,969.7265625,969.7265625,-112.3046875,0.0,-1.0,1.0,0.0,1.m4v,4.0
2024-02-27 13:24:22.119850,1709036662.1198497,969.7265625,977.5390625,969.7265625,-112.79296875,0.0,-1.0,1.0,0.0,1.m4v,4.0
2024-02-27 13:24:22.123755,1709036662.123755,980.95703125,941.89453125,969.7265625,-106.4453125,0.0,-1.0,1.0,0.0,1.m4v,4.0
2024-02-27 13:24:22.127660,1709036662.1276605,901.85546875,957.51953125,969.7265625,-103.515625,0.0,-1.0,1.0,0.0,1.m4v,4.0
2024-02-27 13:24:22.131566,1709036662.1315656,999.51171875,999.51171875,969.7265625,-108.3984375,0.0,-1.0,1.0,0.0,1.m4v,4.0
2024-02-27 13:24:22.135479,1709036662.1354787,524.90234375,-210.9375,969.7265625,-121.09375,0.0,-1.0,1.0,0.0,1.m4v,4.0
2024-02-27 13:24:22.139384,1709036662.139384,-882.32421875,-1000.0,969.7265625,-129.39453125,0.0,-1.0,1.0,0.0,1.m4v,4.0
2024-02-27 13:24:22.143289,1709036662.143289,-1000.0,-943.84765625,969.7265625,-93.75,0.0,-1.0,1.0,0.0,1.m4v,4.0
2024-02-27 13:24:22.147195,1709036662.1471946,-946.2890625,-999.0234375,970.21484375,-71.77734375,0.0,-1.0,1.0,0.0,1.m4v,4.0
2024-02-27 13:24:22.151100,1709036662.1511,-1000.0,-1000.0,969.7265625,-78.125,0.0,-1.0,1.0,0.0,1.m4v,4.0
2024-02-27 13:24:22.155005,1709036662.1550052,-1000.0,-1000.0,969.7265625,-62.98828125,0.0,-1.0,1.0,0.0,1.m4v,4.0
2024-02-27 13:24:22.158911,1709036662.1589105,-1000.0,-1000.0,969.7265625,-55.6640625,0.0,-1.0,1.0,0.0,1.m4v,4.0
2024-02-27 13:24:22.162816,1709036662.1628158,-1000.0,-1000.0,969.7265625,-60.05859375,0.0,-1.0,1.0,0.0,1.m4v,4.0
2024-02-27 13:24:22.166721,1709036662.166721,-1000.0,-1000.0,969.7265625,-51.7578125,0.0,-1.0,1.0,0.0,1.m4v,4.0
2024-02-27 13:24:22.170627,1709036662.1706266,-1000.0,-1000.0,969.7265625,-59.08203125,0.0,-1.0,1.0,0.0,1.m4v,4.0
2024-02-27 13:24:22.174532,1709036662.174532,-1000.0,-1000.0,970.21484375,-47.36328125,0.0,-1.0,1.0,0.0,1.m4v,4.0
2024-02-27 13:24:22.178437,1709036662.1784372,-1000.0,-1000.0,969.7265625,-33.203125,0.0,-1.0,1.0,0.0,1.m4v,4.0
2024-02-27 13:24:22.182349,1709036662.182349,-1000.0,-1000.0,969.7265625,-44.43359375,0.0,-1.0,1.0,0.0,1.m4v,4.0
2024-02-27 13:24:22.186254,1709036662.1862545,-939.453125,-986.81640625,969.7265625,-45.8984375,0.0,-1.0,1.0,0.0,1.m4v,4.0
2024-02-27 13:24:22.190160,1709036662.1901596,-1000.0,-963.8671875,970.21484375,-23.92578125,0.0,-1.0,1.0,0.0,1.m4v,4.0
2024-02-27 13:24:22.194065,1709036662.1940649,-764.6484375,-1000.0,969.7265625,-29.78515625,0.0,-1.0,1.0,0.0,1.m4v,4.0
2024-02-27 13:24:22.197970,1709036662.1979702,671.38671875,-47.36328125,969.7265625,-21.484375,0.0,-1.0,1.0,0.0,1.m4v,4.0
2024-02-27 13:24:22.201876,1709036662.2018757,999.51171875,999.51171875,970.703125,-7.32421875,0.0,-1.0,1.0,0.0,1.m4v,4.0
2024-02-27 13:24:22.651063,1709036662.6510634,-1000.0,970.21484375,-1000.0,-62.98828125,0.0,-1.0,1.0,0.0,1.m4v,4.0
2024-02-27 13:24:22.654969,1709036662.6549687,-938.96484375,970.21484375,-1000.0,-49.31640625,0.0,-1.0,1.0,0.0,1.m4v,4.0
2024-02-27 13:24:22.658874,1709036662.658874,-1000.0,970.21484375,-999.0234375,-47.36328125,0.0,-1.0,1.0,0.0,1.m4v,4.0
2024-02-27 13:24:22.662779,1709036662.662779,-958.984375,970.21484375,-998.53515625,-40.52734375,0.0,-1.0,1.0,0.0,1.m4v,4.0
2024-02-27 13:24:22.666685,1709036662.6666846,-1000.0,970.21484375,-1000.0,-40.52734375,0.0,-1.0,1.0,0.0,1.m4v,4.0
2024-02-27 13:24:22.670590,1709036662.67059,-989.2578125,970.21484375,-910.64453125,-40.52734375,0.0,-1.0,1.0,0.0,1.m4v,4.0
2024-02-27 13:24:22.674495,1709036662.6744952,354.4921875,970.21484375,-933.59375,-33.203125,0.0,-1.0,1.0,0.0,1.m4v,4.0
2024-02-27 13:24:22.678401,1709036662.6784008,999.51171875,969.7265625,-944.3359375,-34.66796875,0.0,-1.0,1.0,0.0,1.m4v,4.0
2024-02-27 13:24:22.682306,1709036662.682306,901.85546875,969.7265625,-294.43359375,-23.92578125,0.0,-1.0,1.0,0.0,1.m4v,4.0
2024-02-27 13:24:22.686211,1709036662.686211,976.07421875,969.7265625,460.44921875,-19.04296875,0.0,-1.0,1.0,0.0,1.m4v,4.0
2024-02-27 13:24:22.690117,1709036662.6901166,969.7265625,969.7265625,808.10546875,-21.484375,0.0,-1.0,1.0,0.0,1.m4v,4.0
2024-02-27 13:24:22.694022,1709036662.694022,969.23828125,969.7265625,736.81640625,-22.4609375,0.0,-1.0,1.0,0.0,1.m4v,4.0
2024-02-27 13:24:22.697936,1709036662.6979363,968.75,969.7265625,858.3984375,-20.01953125,0.0,-1.0,1.0,0.0,1.m4v,4.0
2024-02-27 13:24:22.701842,1709036662.7018418,969.23828125,969.7265625,992.1875,-30.76171875,0.0,-1.0,1.0,0.0,1.m4v,4.0
2024-02-27 13:24:22.705747,1709036662.7057471,969.23828125,969.7265625,961.42578125,-17.08984375,0.0,-1.0,1.0,0.0,1.m4v,4.0
2024-02-27 13:24:22.709652,1709036662.7096524,969.23828125,969.7265625,969.7265625,-0.9765625,0.0,-1.0,1.0,0.0,1.m4v,4.0
2024-02-27 13:24:22.713558,1709036662.7135575,969.23828125,969.7265625,970.21484375,-18.5546875,0.0,-1.0,1.0,0.0,1.m4v,4.0
2024-02-27 13:24:22.717463,1709036662.717463,969.23828125,969.7265625,969.7265625,-31.25,0.0,-1.0,1.0,0.0,1.m4v,4.0
2024-02-27 13:24:22.721368,1709036662.7213683,969.23828125,969.7265625,969.7265625,-33.203125,0.0,-1.0,1.0,0.0,1.m4v,4.0
2024-02-27 13:24:22.725274,1709036662.7252736,968.75,969.7265625,969.7265625,-28.80859375,0.0,-1.0,1.0,0.0,1.m4v,4.0
2024-02-27 13:24:22.729179,1709036662.729179,969.23828125,969.7265625,969.7265625,-20.01953125,0.0,-1.0,1.0,0.0,1.m4v,4.0
2024-02-27 13:24:22.733084,1709036662.7330844,969.23828125,969.7265625,969.7265625,-22.94921875,0.0,-1.0,1.0,0.0,1.m4v,4.0
2024-02-27 13:24:22.736990,1709036662.7369895,969.23828125,969.7265625,969.7265625,-30.76171875,0.0,-1.0,1.0,0.0,1.m4v,4.0
2024-02-27 13:24:22.740895,1709036662.740895,969.23828125,969.7265625,969.7265625,-19.53125,0.0,-1.0,1.0,0.0,1.m4v,4.0
2024-02-27 13:24:22.744809,1709036662.7448092,969.23828125,969.7265625,969.7265625,-17.578125,0.0,-1.0,1.0,0.0,1.m4v,4.0
2024-02-27 13:24:22.748714,1709036662.7487144,969.23828125,969.7265625,969.7265625,-20.5078125,0.0,-1.0,1.0,0.0,1.m4v,4.0
2024-02-27 13:24:22.752620,1709036662.75262,969.23828125,969.7265625,969.7265625,-20.01953125,0.0,-1.0,1.0,0.0,1.m4v,4.0
2024-02-27 13:24:22.756525,1709036662.7565253,969.23828125,969.7265625,969.7265625,-27.83203125,0.0,-1.0,1.0,0.0,1.m4v,4.0
2024-02-27 13:24:22.760431,1709036662.7604306,969.23828125,969.7265625,969.7265625,-19.04296875,0.0,-1.0,1.0,0.0,1.m4v,4.0
2024-02-27 13:24:22.764336,1709036662.764336,969.23828125,969.7265625,969.7265625,-3.41796875,0.0,-1.0,1.0,0.0,1.m4v,4.0
2024-02-27 13:24:22.768241,1709036662.7682412,969.23828125,969.7265625,969.7265625,-0.48828125,0.0,-1.0,1.0,0.0,1.m4v,4.0
2024-02-27 13:24:22.772146,1709036662.7721465,969.23828125,969.7265625,969.7265625,-25.390625,0.0,-1.0,1.0,0.0,1.m4v,4.0
2024-02-27 13:24:22.776052,1709036662.7760518,969.23828125,969.7265625,969.7265625,-27.34375,0.0,-1.0,1.0,0.0,1.m4v,4.0
2024-02-27 13:24:22.779957,1709036662.779957,969.23828125,969.7265625,969.7265625,-16.11328125,0.0,-1.0,1.0,0.0,1.m4v,4.0
2024-02-27 13:24:22.783862,1709036662.7838624,969.23828125,969.7265625,969.7265625,-18.06640625,0.0,-1.0,1.0,0.0,1.m4v,4.0
2024-02-27 13:24:22.787768,1709036662.787768,969.23828125,969.7265625,969.7265625,-5.859375,0.0,-1.0,1.0,0.0,1.m4v,4.0
2024-02-27 13:24:22.791681,1709036662.791681,969.23828125,969.7265625,969.7265625,-15.13671875,0.0,-1.0,1.0,0.0,1.m4v,4.0
2024-02-27 13:24:22.795587,1709036662.7955866,969.23828125,969.7265625,969.7265625,-26.3671875,0.0,-1.0,1.0,0.0,1.m4v,4.0
2024-02-27 13:24:22.799492,1709036662.799492,969.23828125,969.7265625,969.7265625,-27.34375,0.0,-1.0,1.0,0.0,1.m4v,4.0
2024-02-27 13:24:22.803397,1709036662.8033972,969.23828125,969.7265625,969.7265625,-17.578125,0.0,-1.0,1.0,0.0,1.m4v,4.0
2024-02-27 13:24:22.807302,1709036662.8073025,968.75,969.7265625,969.7265625,-10.7421875,0.0,-1.0,1.0,0.0,1.m4v,4.0
2024-02-27 13:24:22.811208,1709036662.8112078,971.6796875,969.7265625,969.7265625,-23.4375,0.0,-1.0,1.0,0.0,1.m4v,4.0
2024-02-27 13:24:22.815113,1709036662.815113,970.21484375,981.93359375,969.7265625,-28.80859375,0.0,-1.0,1.0,0.0,1.m4v,4.0
2024-02-27 13:24:22.819018,1709036662.8190184,926.26953125,926.7578125,969.7265625,-30.76171875,0.0,-1.0,1.0,0.0,1.m4v,4.0
2024-02-27 13:24:22.822924,1709036662.8229237,999.51171875,987.79296875,969.7265625,-17.578125,0.0,-1.0,1.0,0.0,1.m4v,4.0
2024-02-27 13:24:22.826829,1709036662.8268292,453.61328125,959.9609375,969.7265625,-13.18359375,0.0,-1.0,1.0,0.0,1.m4v,4.0
2024-02-27 13:24:22.830734,1709036662.8307345,-815.4296875,-416.015625,969.7265625,-42.96875,0.0,-1.0,1.0,0.0,1.m4v,4.0
2024-02-27 13:24:22.834640,1709036662.8346398,-1000.0,-1000.0,969.7265625,-46.38671875,0.0,-1.0,1.0,0.0,1.m4v,4.0
2024-02-27 13:24:22.838552,1709036662.8385525,-951.171875,-928.22265625,969.7265625,-25.87890625,0.0,-1.0,1.0,0.0,1.m4v,4.0
2024-02-27 13:24:22.842458,1709036662.8424578,-1000.0,-1000.0,969.7265625,-21.97265625,0.0,-1.0,1.0,0.0,1.m4v,4.0
2024-02-27 13:24:22.846363,1709036662.8463633,-1000.0,-1000.0,969.7265625,-26.85546875,0.0,-1.0,1.0,0.0,1.m4v,4.0
2024-02-27 13:24:22.850269,1709036662.8502686,-945.80078125,-935.05859375,969.7265625,-30.2734375,0.0,-1.0,1.0,0.0,1.m4v,4.0
2024-02-27 13:24:22.854174,1709036662.854174,-1000.0,-1000.0,969.7265625,-43.9453125,0.0,-1.0,1.0,0.0,1.m4v,4.0
2024-02-27 13:24:22.858079,1709036662.8580792,-915.52734375,-790.52734375,969.7265625,-39.0625,0.0,-1.0,1.0,0.0,1.m4v,4.0
2024-02-27 13:24:22.861984,1709036662.8619845,525.87890625,679.6875,969.7265625,2.44140625,0.0,-1.0,1.0,0.0,1.m4v,4.0
2024-02-27 13:24:22.865890,1709036662.8658898,999.51171875,999.51171875,969.7265625,0.48828125,0.0,-1.0,1.0,0.0,1.m4v,4.0
2024-02-27 13:24:22.869795,1709036662.869795,894.53125,899.90234375,969.7265625,-26.3671875,0.0,-1.0,1.0,0.0,1.m4v,4.0
2024-02-27 13:24:22.873700,1709036662.8737004,983.88671875,986.81640625,969.7265625,-28.80859375,0.0,-1.0,1.0,0.0,1.m4v,4.0
2024-02-27 13:24:22.877606,1709036662.877606,969.23828125,969.7265625,969.7265625,-29.296875,0.0,-1.0,1.0,0.0,1.m4v,4.0
2024-02-27 13:24:22.881511,1709036662.8815112,969.23828125,969.7265625,969.7265625,-19.53125,0.0,-1.0,1.0,0.0,1.m4v,4.0
2024-02-27 13:24:22.885423,1709036662.8854234,969.23828125,969.7265625,969.7265625,-20.5078125,0.0,-1.0,1.0,0.0,1.m4v,4.0
2024-02-27 13:24:22.889329,1709036662.8893287,969.23828125,969.7265625,970.21484375,-31.25,0.0,-1.0,1.0,0.0,1.m4v,4.0
2024-02-27 13:24:22.893234,1709036662.893234,969.23828125,969.7265625,969.7265625,-37.59765625,0.0,-1.0,1.0,0.0,1.m4v,4.0
2024-02-27 13:24:22.897140,1709036662.8971395,969.23828125,970.21484375,969.7265625,-46.875,0.0,-1.0,1.0,0.0,1.m4v,4.0
2024-02-27 13:24:22.901045,1709036662.9010448,969.23828125,970.21484375,969.7265625,-28.3203125,0.0,-1.0,1.0,0.0,1.m4v,4.0
2024-02-27 13:24:22.904950,1709036662.90495,969.23828125,969.7265625,969.7265625,-17.578125,0.0,-1.0,1.0,0.0,1.m4v,4.0
2024-02-27 13:24:22.908855,1709036662.9088554,983.88671875,976.5625,969.7265625,-23.92578125,0.0,-1.0,1.0,0.0,1.m4v,4.0
2024-02-27 13:24:22.912761,1709036662.9127607,915.52734375,943.84765625,969.7265625,-29.78515625,0.0,-1.0,1.0,0.0,1.m4v,4.0
2024-02-27 13:24:22.916666,1709036662.916666,999.51171875,952.63671875,969.7265625,-30.76171875,0.0,-1.0,1.0,0.0,1.m4v,4.0
2024-02-27 13:24:22.920571,1709036662.920571,888.671875,999.51171875,969.7265625,-34.66796875,0.0,-1.0,1.0,0.0,1.m4v,4.0
2024-02-27 13:24:22.924477,1709036662.9244766,-545.41015625,-187.01171875,969.7265625,-46.38671875,0.0,-1.0,1.0,0.0,1.m4v,4.0
2024-02-27 13:24:22.928382,1709036662.9283822,-1000.0,-1000.0,969.7265625,-52.24609375,0.0,-1.0,1.0,0.0,1.m4v,4.0
2024-02-27 13:24:22.932294,1709036662.932294,-926.26953125,-943.84765625,969.7265625,-51.7578125,0.0,-1.0,1.0,0.0,1.m4v,4.0
2024-02-27 13:24:22.936199,1709036662.9361994,-1000.0,-998.046875,969.7265625,-41.015625,0.0,-1.0,1.0,0.0,1.m4v,4.0
2024-02-27 13:24:22.940105,1709036662.9401047,-1000.0,-1000.0,969.7265625,-40.52734375,0.0,-1.0,1.0,0.0,1.m4v,4.0
2024-02-27 13:24:22.944010,1709036662.94401,-1000.0,-968.75,969.7265625,-30.76171875,0.0,-1.0,1.0,0.0,1.m4v,4.0
2024-02-27 13:24:22.947915,1709036662.9479153,-935.05859375,-994.140625,969.7265625,-27.34375,0.0,-1.0,1.0,0.0,1.m4v,4.0
2024-02-27 13:24:22.951821,1709036662.9518206,-1000.0,-1000.0,969.7265625,-34.1796875,0.0,-1.0,1.0,0.0,1.m4v,4.0
2024-02-27 13:24:22.955726,1709036662.955726,-520.5078125,237.3046875,969.7265625,-22.4609375,0.0,-1.0,1.0,0.0,1.m4v,4.0
2024-02-27 13:24:22.959631,1709036662.9596314,863.28125,999.51171875,969.7265625,-12.6953125,0.0,-1.0,1.0,0.0,1.m4v,4.0
2024-02-27 13:24:22.963537,1709036662.9635367,999.51171875,906.73828125,969.7265625,-24.4140625,0.0,-1.0,1.0,0.0,1.m4v,4.0
2024-02-27 13:24:22.967442,1709036662.967442,917.48046875,972.16796875,969.7265625,-22.94921875,0.0,-1.0,1.0,0.0,1.m4v,4.0
2024-02-27 13:24:22.971347,1709036662.971347,982.91015625,970.703125,969.7265625,-18.06640625,0.0,-1.0,1.0,0.0,1.m4v,4.0
2024-02-27 13:24:22.975253,1709036662.9752526,969.23828125,969.7265625,969.7265625,-33.203125,0.0,-1.0,1.0,0.0,1.m4v,4.0
2024-02-27 13:24:22.979165,1709036662.9791646,969.23828125,969.7265625,969.7265625,-36.1328125,0.0,-1.0,1.0,0.0,1.m4v,4.0
2024-02-27 13:24:22.983070,1709036662.98307,969.23828125,969.7265625,969.7265625,-18.5546875,0.0,-1.0,1.0,0.0,1.m4v,4.0
2024-02-27 13:24:22.986975,1709036662.9869752,969.23828125,969.7265625,969.7265625,-37.109375,0.0,-1.0,1.0,0.0,1.m4v,4.0
2024-02-27 13:24:22.990880,1709036662.9908805,984.86328125,986.328125,969.7265625,-43.9453125,0.0,-1.0,1.0,0.0,1.m4v,4.0
2024-02-27 13:24:22.994786,1709036662.9947858,907.2265625,911.1328125,969.7265625,-32.71484375,0.0,-1.0,1.0,0.0,1.m4v,4.0
2024-02-27 13:24:22.998691,1709036662.998691,999.51171875,999.51171875,969.7265625,-38.0859375,0.0,-1.0,1.0,0.0,1.m4v,4.0
2024-02-27 13:24:23.002597,1709036663.0025966,782.2265625,852.05078125,969.7265625,-37.59765625,0.0,-1.0,1.0,0.0,1.m4v,4.0
2024-02-27 13:24:23.006502,1709036663.006502,-672.36328125,-607.91015625,970.21484375,-54.6875,0.0,-1.0,1.0,0.0,1.m4v,4.0
2024-02-27 13:24:23.010407,1709036663.0104072,-1000.0,-1000.0,969.7265625,-53.7109375,0.0,-1.0,1.0,0.0,1.m4v,4.0
2024-02-27 13:24:23.014313,1709036663.0143125,-929.6875,-925.78125,969.7265625,-35.64453125,0.0,-1.0,1.0,0.0,1.m4v,4.0
2024-02-27 13:24:23.018218,1709036663.0182178,-1000.0,-1000.0,969.7265625,-33.203125,0.0,-1.0,1.0,0.0,1.m4v,4.0
2024-02-27 13:24:23.022123,1709036663.022123,-1000.0,-1000.0,969.7265625,-40.0390625,0.0,-1.0,1.0,0.0,1.m4v,4.0
2024-02-27 13:24:23.026034,1709036663.0260336,-1000.0,-1000.0,969.7265625,-35.64453125,0.0,-1.0,1.0,0.0,1.m4v,4.0
2024-02-27 13:24:23.029939,1709036663.0299392,-1000.0,-1000.0,969.7265625,-45.41015625,0.0,-1.0,1.0,0.0,1.m4v,4.0
2024-02-27 13:24:23.033844,1709036663.0338445,-1000.0,-1000.0,969.7265625,-65.4296875,0.0,-1.0,1.0,0.0,1.m4v,4.0
2024-02-27 13:24:23.037750,1709036663.0377498,-1000.0,-1000.0,976.07421875,-49.8046875,0.0,-1.0,1.0,0.0,1.m4v,4.0
2024-02-27 13:24:23.041655,1709036663.041655,-1000.0,-1000.0,949.70703125,-23.92578125,0.0,-1.0,1.0,0.0,1.m4v,4.0
2024-02-27 13:24:23.045560,1709036663.0455604,-1000.0,-1000.0,974.12109375,-15.625,0.0,-1.0,1.0,0.0,1.m4v,4.0
2024-02-27 13:24:23.049466,1709036663.0494657,-1000.0,-1000.0,933.59375,-28.3203125,0.0,-1.0,1.0,0.0,1.m4v,4.0
2024-02-27 13:24:23.053371,1709036663.053371,-1000.0,-1000.0,208.0078125,-49.31640625,0.0,-1.0,1.0,0.0,1.m4v,4.0
2024-02-27 13:24:23.057276,1709036663.0572762,-1000.0,-1000.0,-467.28515625,-60.546875,0.0,-1.0,1.0,0.0,1.m4v,4.0
2024-02-27 13:24:23.061182,1709036663.0611815,-1000.0,-1000.0,-508.30078125,-49.8046875,0.0,-1.0,1.0,0.0,1.m4v,4.0
2024-02-27 13:24:23.065087,1709036663.065087,-1000.0,-1000.0,-307.6171875,-33.203125,0.0,-1.0,1.0,0.0,1.m4v,4.0
2024-02-27 13:24:23.068992,1709036663.0689924,-1000.0,-1000.0,-266.11328125,-30.76171875,0.0,-1.0,1.0,0.0,1.m4v,4.0
2024-02-27 13:24:23.072907,1709036663.072907,-1000.0,-948.73046875,-777.83203125,-41.015625,0.0,-1.0,1.0,0.0,1.m4v,4.0
2024-02-27 13:24:23.076812,1709036663.0768125,-1000.0,-1000.0,-1000.0,-52.24609375,0.0,-1.0,1.0,0.0,1.m4v,4.0
2024-02-27 13:24:23.080718,1709036663.0807176,-1000.0,-937.98828125,-996.58203125,-26.3671875,0.0,-1.0,1.0,0.0,1.m4v,4.0
2024-02-27 13:24:23.084623,1709036663.0846229,-1000.0,487.79296875,-951.66015625,-12.20703125,0.0,-1.0,1.0,0.0,1.m4v,4.0
2024-02-27 13:24:23.088528,1709036663.0885282,-1000.0,999.51171875,-827.1484375,-13.671875,0.0,-1.0,1.0,0.0,1.m4v,4.0
2024-02-27 13:24:23.092433,1709036663.0924337,-1000.0,895.99609375,-961.9140625,-24.4140625,0.0,-1.0,1.0,0.0,1.m4v,4.0
2024-02-27 13:24:23.096339,1709036663.0963387,-1000.0,983.3984375,-1000.0,-27.83203125,0.0,-1.0,1.0,0.0,1.m4v,4.0
2024-02-27 13:24:23.100244,1709036663.1002443,-1000.0,970.21484375,-991.2109375,-29.78515625,0.0,-1.0,1.0,0.0,1.m4v,4.0
2024-02-27 13:24:23.104150,1709036663.1041496,-1000.0,970.21484375,-1000.0,-9.765625,0.0,-1.0,1.0,0.0,1.m4v,4.0
2024-02-27 13:24:23.108055,1709036663.1080549,-1000.0,969.7265625,-1000.0,-14.6484375,0.0,-1.0,1.0,0.0,1.m4v,4.0
2024-02-27 13:24:23.111960,1709036663.1119602,-1000.0,970.21484375,-1000.0,-34.66796875,0.0,-1.0,1.0,0.0,1.m4v,4.0
2024-02-27 13:24:23.115865,1709036663.1158657,-1000.0,970.21484375,-1000.0,-26.85546875,0.0,-1.0,1.0,0.0,1.m4v,4.0
2024-02-27 13:24:23.119779,1709036663.119779,-1000.0,970.21484375,-1000.0,-27.83203125,0.0,-1.0,1.0,0.0,1.m4v,4.0
2024-02-27 13:24:23.123685,1709036663.123685,-1000.0,970.21484375,-1000.0,-4.8828125,0.0,-1.0,1.0,0.0,1.m4v,4.0
2024-02-27 13:24:23.127590,1709036663.1275902,-1000.0,970.21484375,-1000.0,-0.48828125,0.0,-1.0,1.0,0.0,1.m4v,4.0
2024-02-27 13:24:23.131495,1709036663.1314957,-1000.0,970.21484375,-995.1171875,-19.53125,0.0,-1.0,1.0,0.0,1.m4v,4.0
2024-02-27 13:24:23.135401,1709036663.1354008,-1000.0,970.21484375,-1000.0,-23.4375,0.0,-1.0,1.0,0.0,1.m4v,4.0
2024-02-27 13:24:23.139306,1709036663.139306,-1000.0,970.21484375,-1000.0,-13.18359375,0.0,-1.0,1.0,0.0,1.m4v,4.0
2024-02-27 13:24:23.143211,1709036663.1432114,-1000.0,970.21484375,-822.75390625,-13.18359375,0.0,-1.0,1.0,0.0,1.m4v,4.0
2024-02-27 13:24:23.147117,1709036663.147117,-1000.0,970.21484375,-740.234375,-14.16015625,0.0,-1.0,1.0,0.0,1.m4v,4.0
2024-02-27 13:24:23.151022,1709036663.151022,-1000.0,970.21484375,-944.82421875,-15.625,0.0,-1.0,1.0,0.0,1.m4v,4.0
2024-02-27 13:24:23.154927,1709036663.1549275,-1000.0,970.21484375,-1000.0,-21.484375,0.0,-1.0,1.0,0.0,1.m4v,4.0
2024-02-27 13:24:23.158833,1709036663.1588328,-1000.0,970.21484375,-1000.0,-27.34375,0.0,-1.0,1.0,0.0,1.m4v,4.0
2024-02-27 13:24:23.162738,1709036663.162738,-1000.0,970.21484375,-833.49609375,-27.83203125,0.0,-1.0,1.0,0.0,1.m4v,4.0
2024-02-27 13:24:23.166652,1709036663.1666515,-1000.0,970.21484375,-578.125,-19.53125,0.0,-1.0,1.0,0.0,1.m4v,4.0
2024-02-27 13:24:23.170557,1709036663.170557,-1000.0,970.21484375,-742.67578125,-19.53125,0.0,-1.0,1.0,0.0,1.m4v,4.0
2024-02-27 13:24:23.174462,1709036663.1744623,-1000.0,970.21484375,-978.515625,-22.94921875,0.0,-1.0,1.0,0.0,1.m4v,4.0
2024-02-27 13:24:23.178368,1709036663.1783676,-1000.0,973.6328125,-1000.0,-13.671875,0.0,-1.0,1.0,0.0,1.m4v,4.0
2024-02-27 13:24:23.182273,1709036663.1822731,-1000.0,959.9609375,-960.44921875,-18.06640625,0.0,-1.0,1.0,0.0,1.m4v,4.0
2024-02-27 13:24:23.186178,1709036663.1861784,-1000.0,928.22265625,-407.2265625,-29.78515625,0.0,-1.0,1.0,0.0,1.m4v,4.0
2024-02-27 13:24:23.190084,1709036663.1900835,-1000.0,999.51171875,-301.26953125,-32.2265625,0.0,-1.0,1.0,0.0,1.m4v,4.0
2024-02-27 13:24:23.193989,1709036663.193989,-1000.0,68.84765625,-934.08203125,-63.96484375,0.0,-1.0,1.0,0.0,1.m4v,4.0
2024-02-27 13:24:23.197894,1709036663.1978943,-1000.0,-1000.0,-1000.0,-50.78125,0.0,-1.0,1.0,0.0,1.m4v,4.0
2024-02-27 13:24:23.201800,1709036663.2017996,-1000.0,-977.05078125,-974.609375,-31.73828125,0.0,-1.0,1.0,0.0,1.m4v,4.0
2024-02-27 13:24:23.205705,1709036663.205705,-1000.0,-979.98046875,-1000.0,-31.73828125,0.0,-1.0,1.0,0.0,1.m4v,4.0
2024-02-27 13:24:23.209610,1709036663.2096102,-1000.0,-1000.0,-1000.0,-19.04296875,0.0,-1.0,1.0,0.0,1.m4v,4.0
2024-02-27 13:24:23.213524,1709036663.2135236,-1000.0,-1000.0,-1000.0,-28.3203125,0.0,-1.0,1.0,0.0,1.m4v,4.0
2024-02-27 13:24:23.217429,1709036663.217429,-1000.0,-1000.0,-1000.0,-23.92578125,0.0,-1.0,1.0,0.0,1.m4v,4.0
2024-02-27 13:24:23.221334,1709036663.2213342,-1000.0,-999.0234375,-1000.0,-20.99609375,0.0,-1.0,1.0,0.0,1.m4v,4.0
2024-02-27 13:24:23.225240,1709036663.2252395,-1000.0,-946.77734375,-1000.0,-31.25,0.0,-1.0,1.0,0.0,1.m4v,4.0
2024-02-27 13:24:23.229145,1709036663.2291448,-1000.0,-1000.0,-1000.0,-28.3203125,0.0,-1.0,1.0,0.0,1.m4v,4.0
2024-02-27 13:24:23.233050,1709036663.23305,-1000.0,-252.44140625,-1000.0,-25.390625,0.0,-1.0,1.0,0.0,1.m4v,4.0
2024-02-27 13:24:23.682247,1709036663.6822472,-1000.0,-1000.0,-1000.0,29.296875,0.0,-1.0,1.0,0.0,1.m4v,4.0
2024-02-27 13:24:23.686152,1709036663.6861525,-1000.0,-1000.0,-1000.0,31.25,0.0,-1.0,1.0,0.0,1.m4v,4.0
2024-02-27 13:24:23.690058,1709036663.6900578,-1000.0,-1000.0,-1000.0,0.9765625,0.0,-1.0,1.0,0.0,1.m4v,4.0
2024-02-27 13:24:23.693963,1709036663.693963,-1000.0,-1000.0,-1000.0,-20.99609375,0.0,-1.0,1.0,0.0,1.m4v,4.0
2024-02-27 13:24:23.697868,1709036663.6978683,-1000.0,-1000.0,-1000.0,-14.16015625,0.0,-1.0,1.0,0.0,1.m4v,4.0
2024-02-27 13:24:23.701774,1709036663.7017736,-1000.0,-1000.0,-1000.0,-4.39453125,0.0,-1.0,1.0,0.0,1.m4v,4.0
2024-02-27 13:24:23.705679,1709036663.705679,-1000.0,-1000.0,-1000.0,1.953125,0.0,-1.0,1.0,0.0,1.m4v,4.0
2024-02-27 13:24:23.709584,1709036663.7095845,-1000.0,-1000.0,-1000.0,-19.04296875,0.0,-1.0,1.0,0.0,1.m4v,4.0
2024-02-27 13:24:23.713490,1709036663.7134898,-1000.0,-1000.0,-1000.0,-13.671875,0.0,-1.0,1.0,0.0,1.m4v,4.0
2024-02-27 13:24:23.717395,1709036663.717395,-1000.0,-1000.0,-1000.0,-24.90234375,0.0,-1.0,1.0,0.0,1.m4v,4.0
2024-02-27 13:24:23.721300,1709036663.7213004,-1000.0,-1000.0,-1000.0,-17.08984375,0.0,-1.0,1.0,0.0,1.m4v,4.0
2024-02-27 13:24:23.725206,1709036663.7252057,-1000.0,-1000.0,-1000.0,2.9296875,0.0,-1.0,1.0,0.0,1.m4v,4.0
2024-02-27 13:24:23.729117,1709036663.729117,-1000.0,-1000.0,-1000.0,-5.37109375,0.0,-1.0,1.0,0.0,1.m4v,4.0
2024-02-27 13:24:23.733022,1709036663.7330222,-1000.0,-1000.0,-1000.0,-19.53125,0.0,-1.0,1.0,0.0,1.m4v,4.0
2024-02-27 13:24:23.736928,1709036663.7369275,-1000.0,-1000.0,-1000.0,-26.85546875,0.0,-1.0,1.0,0.0,1.m4v,4.0
2024-02-27 13:24:23.740833,1709036663.7408328,-1000.0,-1000.0,-1000.0,-23.92578125,0.0,-1.0,1.0,0.0,1.m4v,4.0
2024-02-27 13:24:23.744738,1709036663.744738,-1000.0,-1000.0,-1000.0,-10.7421875,0.0,-1.0,1.0,0.0,1.m4v,4.0
2024-02-27 13:24:23.748643,1709036663.7486434,-1000.0,-1000.0,-1000.0,0.9765625,0.0,-1.0,1.0,0.0,1.m4v,4.0
2024-02-27 13:24:23.752549,1709036663.7525487,-1000.0,-1000.0,-1000.0,-12.20703125,0.0,-1.0,1.0,0.0,1.m4v,4.0
2024-02-27 13:24:23.756454,1709036663.7564542,-1000.0,-1000.0,-1000.0,-18.5546875,0.0,-1.0,1.0,0.0,1.m4v,4.0
2024-02-27 13:24:23.760360,1709036663.7603595,-1000.0,-1000.0,-1000.0,-35.15625,0.0,-1.0,1.0,0.0,1.m4v,4.0
2024-02-27 13:24:23.764265,1709036663.7642648,-1000.0,-1000.0,-1000.0,-21.97265625,0.0,-1.0,1.0,0.0,1.m4v,4.0
2024-02-27 13:24:23.768170,1709036663.76817,-1000.0,-1000.0,-1000.0,-2.44140625,0.0,-1.0,1.0,0.0,1.m4v,4.0
2024-02-27 13:24:23.772075,1709036663.7720754,-1000.0,-1000.0,-1000.0,-24.90234375,0.0,-1.0,1.0,0.0,1.m4v,4.0
2024-02-27 13:24:23.775986,1709036663.7759864,-1000.0,-1000.0,-1000.0,-16.11328125,0.0,-1.0,1.0,0.0,1.m4v,4.0
2024-02-27 13:24:23.779892,1709036663.7798915,-1000.0,-1000.0,-1000.0,-11.23046875,0.0,-1.0,1.0,0.0,1.m4v,4.0
2024-02-27 13:24:23.783797,1709036663.7837973,-1000.0,-1000.0,-1000.0,-14.16015625,0.0,-1.0,1.0,0.0,1.m4v,4.0
2024-02-27 13:24:23.787703,1709036663.7877026,-1000.0,-993.1640625,-1000.0,-1.46484375,0.0,-1.0,1.0,0.0,1.m4v,4.0
2024-02-27 13:24:23.791608,1709036663.791608,-1000.0,-1000.0,-1000.0,-17.08984375,0.0,-1.0,1.0,0.0,1.m4v,4.0
2024-02-27 13:24:23.795513,1709036663.7955132,-1000.0,-1000.0,-1000.0,-22.94921875,0.0,-1.0,1.0,0.0,1.m4v,4.0
2024-02-27 13:24:23.799418,1709036663.7994184,-1000.0,-770.99609375,-1000.0,-16.6015625,0.0,-1.0,1.0,0.0,1.m4v,4.0
2024-02-27 13:24:23.803324,1709036663.8033235,-1000.0,-859.375,-1000.0,-19.04296875,0.0,-1.0,1.0,0.0,1.m4v,4.0
2024-02-27 13:24:23.807229,1709036663.807229,-1000.0,-1000.0,-1000.0,-28.3203125,0.0,-1.0,1.0,0.0,1.m4v,4.0
2024-02-27 13:24:23.811134,1709036663.8111343,-1000.0,-985.83984375,-1000.0,-35.15625,0.0,-1.0,1.0,0.0,1.m4v,4.0
2024-02-27 13:24:23.815040,1709036663.81504,-1000.0,-1000.0,-1000.0,-48.828125,0.0,-1.0,1.0,0.0,1.m4v,4.0
2024-02-27 13:24:23.818945,1709036663.8189452,-1000.0,-1000.0,-1000.0,-34.1796875,0.0,-1.0,1.0,0.0,1.m4v,4.0
2024-02-27 13:24:23.822856,1709036663.822856,-1000.0,-1000.0,-1000.0,-23.4375,0.0,-1.0,1.0,0.0,1.m4v,4.0
2024-02-27 13:24:23.826761,1709036663.8267612,-1000.0,-1000.0,-1000.0,-27.34375,0.0,-1.0,1.0,0.0,1.m4v,4.0
2024-02-27 13:24:23.830667,1709036663.8306663,-1000.0,-1000.0,-1000.0,-26.3671875,0.0,-1.0,1.0,0.0,1.m4v,4.0
2024-02-27 13:24:23.834572,1709036663.8345718,-1000.0,-1000.0,-1000.0,-31.73828125,0.0,-1.0,1.0,0.0,1.m4v,4.0
2024-02-27 13:24:23.838477,1709036663.8384774,-1000.0,-1000.0,-1000.0,-30.2734375,0.0,-1.0,1.0,0.0,1.m4v,4.0
2024-02-27 13:24:23.842383,1709036663.842383,-1000.0,-1000.0,-1000.0,-21.484375,0.0,-1.0,1.0,0.0,1.m4v,4.0
2024-02-27 13:24:23.846288,1709036663.846288,-1000.0,-1000.0,-1000.0,-18.06640625,0.0,-1.0,1.0,0.0,1.m4v,4.0
2024-02-27 13:24:23.850193,1709036663.8501933,-1000.0,-1000.0,-1000.0,-36.62109375,0.0,-1.0,1.0,0.0,1.m4v,4.0
2024-02-27 13:24:23.854099,1709036663.8540986,-1000.0,-1000.0,-1000.0,-29.296875,0.0,-1.0,1.0,0.0,1.m4v,4.0
2024-02-27 13:24:23.858004,1709036663.858004,-1000.0,-1000.0,-1000.0,-24.4140625,0.0,-1.0,1.0,0.0,1.m4v,4.0
2024-02-27 13:24:23.861909,1709036663.8619092,-1000.0,-1000.0,-1000.0,-47.36328125,0.0,-1.0,1.0,0.0,1.m4v,4.0
2024-02-27 13:24:23.865815,1709036663.8658147,-1000.0,-1000.0,-1000.0,-34.1796875,0.0,-1.0,1.0,0.0,1.m4v,4.0
2024-02-27 13:24:23.869729,1709036663.8697286,-1000.0,-1000.0,-1000.0,-14.6484375,0.0,-1.0,1.0,0.0,1.m4v,4.0
2024-02-27 13:24:23.873634,1709036663.873634,-1000.0,-1000.0,-1000.0,-22.94921875,0.0,-1.0,1.0,0.0,1.m4v,4.0
2024-02-27 13:24:23.877539,1709036663.8775392,-1000.0,-1000.0,-1000.0,-37.59765625,0.0,-1.0,1.0,0.0,1.m4v,4.0
2024-02-27 13:24:23.881444,1709036663.8814445,-934.5703125,-938.96484375,-1000.0,-14.16015625,0.0,-1.0,1.0,0.0,1.m4v,4.0
2024-02-27 13:24:23.885350,1709036663.8853498,-1000.0,-1000.0,-1000.0,-15.625,0.0,-1.0,1.0,0.0,1.m4v,4.0
2024-02-27 13:24:23.889255,1709036663.889255,-785.64453125,-371.58203125,-1000.0,-18.5546875,0.0,-1.0,1.0,0.0,1.m4v,4.0
2024-02-27 13:24:23.893161,1709036663.8931606,684.5703125,945.3125,-1000.0,-2.44140625,0.0,-1.0,1.0,0.0,1.m4v,4.0
2024-02-27 13:24:23.897066,1709036663.897066,999.51171875,987.3046875,-1000.0,-28.3203125,0.0,-1.0,1.0,0.0,1.m4v,4.0
2024-02-27 13:24:23.900971,1709036663.9009712,899.90234375,929.19921875,-1000.0,-42.96875,0.0,-1.0,1.0,0.0,1.m4v,4.0
2024-02-27 13:24:23.904876,1709036663.9048765,986.328125,981.4453125,-1000.0,-38.0859375,0.0,-1.0,1.0,0.0,1.m4v,4.0
2024-02-27 13:24:23.908782,1709036663.9087818,969.23828125,970.21484375,-1000.0,-37.109375,0.0,-1.0,1.0,0.0,1.m4v,4.0
2024-02-27 13:24:23.912687,1709036663.912687,969.7265625,970.21484375,-1000.0,-33.203125,0.0,-1.0,1.0,0.0,1.m4v,4.0
2024-02-27 13:24:23.916603,1709036663.916603,969.7265625,970.21484375,-1000.0,-34.1796875,0.0,-1.0,1.0,0.0,1.m4v,4.0
2024-02-27 13:24:23.920509,1709036663.9205089,969.23828125,970.21484375,-1000.0,-37.59765625,0.0,-1.0,1.0,0.0,1.m4v,4.0
2024-02-27 13:24:23.924414,1709036663.9244142,969.23828125,970.21484375,-1000.0,-32.71484375,0.0,-1.0,1.0,0.0,1.m4v,4.0
2024-02-27 13:24:23.928319,1709036663.9283197,969.7265625,970.21484375,-1000.0,-31.25,0.0,-1.0,1.0,0.0,1.m4v,4.0
2024-02-27 13:24:23.932225,1709036663.9322248,969.23828125,970.21484375,-1000.0,-35.64453125,0.0,-1.0,1.0,0.0,1.m4v,4.0
2024-02-27 13:24:23.936130,1709036663.93613,970.21484375,981.93359375,-1000.0,-34.66796875,0.0,-1.0,1.0,0.0,1.m4v,4.0
2024-02-27 13:24:23.940035,1709036663.940035,979.00390625,927.734375,-1000.0,-39.55078125,0.0,-1.0,1.0,0.0,1.m4v,4.0
2024-02-27 13:24:23.943941,1709036663.9439406,906.73828125,986.81640625,-1000.0,-41.9921875,0.0,-1.0,1.0,0.0,1.m4v,4.0
2024-02-27 13:24:23.947846,1709036663.947846,999.51171875,963.37890625,-1000.0,-29.296875,0.0,-1.0,1.0,0.0,1.m4v,4.0
2024-02-27 13:24:23.951751,1709036663.9517517,502.44140625,-407.71484375,-1000.0,-49.8046875,0.0,-1.0,1.0,0.0,1.m4v,4.0
2024-02-27 13:24:23.955657,1709036663.9556568,-875.0,-1000.0,-1000.0,-77.1484375,0.0,-1.0,1.0,0.0,1.m4v,4.0
2024-02-27 13:24:23.959562,1709036663.959562,-1000.0,-928.7109375,-1000.0,-65.91796875,0.0,-1.0,1.0,0.0,1.m4v,4.0
2024-02-27 13:24:23.963475,1709036663.963475,-963.8671875,-1000.0,-1000.0,-21.484375,0.0,-1.0,1.0,0.0,1.m4v,4.0
2024-02-27 13:24:23.967380,1709036663.9673803,-956.54296875,-1000.0,-1000.0,-14.6484375,0.0,-1.0,1.0,0.0,1.m4v,4.0
2024-02-27 13:24:23.971286,1709036663.9712856,-1000.0,-962.40234375,-1000.0,-39.0625,0.0,-1.0,1.0,0.0,1.m4v,4.0
2024-02-27 13:24:23.975191,1709036663.9751909,-881.8359375,-1000.0,-1000.0,-40.52734375,0.0,-1.0,1.0,0.0,1.m4v,4.0
2024-02-27 13:24:23.979096,1709036663.9790962,569.3359375,-1000.0,-1000.0,-22.4609375,0.0,-1.0,1.0,0.0,1.m4v,4.0
2024-02-27 13:24:23.983001,1709036663.9830017,999.51171875,322.75390625,-1000.0,-10.7421875,0.0,-1.0,1.0,0.0,1.m4v,4.0
2024-02-27 13:24:23.986907,1709036663.9869068,895.99609375,999.51171875,-1000.0,-13.18359375,0.0,-1.0,1.0,0.0,1.m4v,4.0
2024-02-27 13:24:23.990812,1709036663.990812,984.86328125,900.390625,-1000.0,-34.66796875,0.0,-1.0,1.0,0.0,1.m4v,4.0
2024-02-27 13:24:23.994718,1709036663.9947176,969.7265625,977.05078125,-1000.0,-43.9453125,0.0,-1.0,1.0,0.0,1.m4v,4.0
2024-02-27 13:24:23.998623,1709036663.998623,969.23828125,970.21484375,-1000.0,-46.38671875,0.0,-1.0,1.0,0.0,1.m4v,4.0
2024-02-27 13:24:24.002528,1709036664.0025282,969.23828125,979.98046875,-1000.0,-46.875,0.0,-1.0,1.0,0.0,1.m4v,4.0
2024-02-27 13:24:24.006433,1709036664.0064335,969.23828125,933.10546875,-1000.0,-39.0625,0.0,-1.0,1.0,0.0,1.m4v,4.0
2024-02-27 13:24:24.010346,1709036664.0103462,969.23828125,974.12109375,-1000.0,-33.203125,0.0,-1.0,1.0,0.0,1.m4v,4.0
2024-02-27 13:24:24.014251,1709036664.0142517,969.23828125,992.1875,-1000.0,-36.1328125,0.0,-1.0,1.0,0.0,1.m4v,4.0
2024-02-27 13:24:24.018157,1709036664.0181568,969.23828125,-334.47265625,-1000.0,-48.33984375,0.0,-1.0,1.0,0.0,1.m4v,4.0
2024-02-27 13:24:24.022062,1709036664.022062,969.23828125,-1000.0,-1000.0,-43.9453125,0.0,-1.0,1.0,0.0,1.m4v,4.0
2024-02-27 13:24:24.025967,1709036664.0259674,969.23828125,-932.6171875,-1000.0,-34.66796875,0.0,-1.0,1.0,0.0,1.m4v,4.0
2024-02-27 13:24:24.029873,1709036664.029873,969.23828125,-1000.0,-1000.0,-41.015625,0.0,-1.0,1.0,0.0,1.m4v,4.0
2024-02-27 13:24:24.033778,1709036664.033778,969.23828125,-1000.0,-1000.0,-41.9921875,0.0,-1.0,1.0,0.0,1.m4v,4.0
2024-02-27 13:24:24.037683,1709036664.0376835,969.23828125,-1000.0,-1000.0,-32.71484375,0.0,-1.0,1.0,0.0,1.m4v,4.0
2024-02-27 13:24:24.041589,1709036664.0415888,969.7265625,-1000.0,-1000.0,-40.52734375,0.0,-1.0,1.0,0.0,1.m4v,4.0
2024-02-27 13:24:24.045494,1709036664.045494,969.23828125,-1000.0,-1000.0,-30.2734375,0.0,-1.0,1.0,0.0,1.m4v,4.0
2024-02-27 13:24:24.049399,1709036664.0493994,969.23828125,-1000.0,-1000.0,-25.390625,0.0,-1.0,1.0,0.0,1.m4v,4.0
2024-02-27 13:24:24.053305,1709036664.053305,969.23828125,-934.08203125,-1000.0,-31.25,0.0,-1.0,1.0,0.0,1.m4v,4.0
2024-02-27 13:24:24.057217,1709036664.0572174,969.7265625,-1000.0,-1000.0,-31.25,0.0,-1.0,1.0,0.0,1.m4v,4.0
2024-02-27 13:24:24.061123,1709036664.061123,969.23828125,-486.81640625,-1000.0,-18.5546875,0.0,-1.0,1.0,0.0,1.m4v,4.0
2024-02-27 13:24:24.065028,1709036664.065028,969.23828125,893.06640625,-1000.0,-4.39453125,0.0,-1.0,1.0,0.0,1.m4v,4.0
2024-02-27 13:24:24.068933,1709036664.0689332,969.23828125,999.51171875,-1000.0,-7.8125,0.0,-1.0,1.0,0.0,1.m4v,4.0
2024-02-27 13:24:24.072839,1709036664.0728388,969.23828125,920.8984375,-1000.0,-21.97265625,0.0,-1.0,1.0,0.0,1.m4v,4.0
2024-02-27 13:24:24.076744,1709036664.076744,969.23828125,983.3984375,-1000.0,-32.71484375,0.0,-1.0,1.0,0.0,1.m4v,4.0
2024-02-27 13:24:24.080649,1709036664.0806494,969.7265625,969.7265625,-1000.0,-20.5078125,0.0,-1.0,1.0,0.0,1.m4v,4.0
2024-02-27 13:24:24.084555,1709036664.084555,969.7265625,970.21484375,-1000.0,-22.4609375,0.0,-1.0,1.0,0.0,1.m4v,4.0
2024-02-27 13:24:24.088460,1709036664.08846,969.23828125,970.21484375,-1000.0,-18.5546875,0.0,-1.0,1.0,0.0,1.m4v,4.0
2024-02-27 13:24:24.092365,1709036664.0923653,969.23828125,969.7265625,-1000.0,-22.94921875,0.0,-1.0,1.0,0.0,1.m4v,4.0
2024-02-27 13:24:24.096271,1709036664.0962706,969.23828125,970.21484375,-1000.0,-33.69140625,0.0,-1.0,1.0,0.0,1.m4v,4.0
2024-02-27 13:24:24.100176,1709036664.100176,969.23828125,970.21484375,-1000.0,-28.3203125,0.0,-1.0,1.0,0.0,1.m4v,4.0
2024-02-27 13:24:24.104088,1709036664.1040876,969.23828125,969.7265625,-1000.0,-26.3671875,0.0,-1.0,1.0,0.0,1.m4v,4.0
2024-02-27 13:24:24.107993,1709036664.107993,969.23828125,970.21484375,-1000.0,-28.3203125,0.0,-1.0,1.0,0.0,1.m4v,4.0
2024-02-27 13:24:24.111898,1709036664.1118982,969.23828125,970.21484375,-1000.0,-24.4140625,0.0,-1.0,1.0,0.0,1.m4v,4.0
2024-02-27 13:24:24.115803,1709036664.1158037,969.23828125,970.703125,-1000.0,-22.4609375,0.0,-1.0,1.0,0.0,1.m4v,4.0
2024-02-27 13:24:24.119709,1709036664.1197088,969.23828125,979.00390625,-1000.0,-24.4140625,0.0,-1.0,1.0,0.0,1.m4v,4.0
2024-02-27 13:24:24.123614,1709036664.123614,969.23828125,904.78515625,-1000.0,-28.80859375,0.0,-1.0,1.0,0.0,1.m4v,4.0
2024-02-27 13:24:24.127520,1709036664.1275196,969.23828125,999.51171875,-1000.0,-26.3671875,0.0,-1.0,1.0,0.0,1.m4v,4.0
2024-02-27 13:24:24.131425,1709036664.131425,969.23828125,454.1015625,-1000.0,-42.48046875,0.0,-1.0,1.0,0.0,1.m4v,4.0
2024-02-27 13:24:24.135330,1709036664.1353302,969.23828125,-921.38671875,-1000.0,-57.12890625,0.0,-1.0,1.0,0.0,1.m4v,4.0
2024-02-27 13:24:24.139235,1709036664.1392355,969.23828125,-1000.0,-1000.0,-49.8046875,0.0,-1.0,1.0,0.0,1.m4v,4.0
2024-02-27 13:24:24.143141,1709036664.1431408,969.7265625,-951.171875,-1000.0,-31.25,0.0,-1.0,1.0,0.0,1.m4v,4.0
2024-02-27 13:24:24.147046,1709036664.147046,969.23828125,-1000.0,-1000.0,-36.1328125,0.0,-1.0,1.0,0.0,1.m4v,4.0
2024-02-27 13:24:24.150957,1709036664.1509569,969.23828125,-1000.0,-1000.0,-46.38671875,0.0,-1.0,1.0,0.0,1.m4v,4.0
2024-02-27 13:24:24.154862,1709036664.1548624,969.23828125,-1000.0,-1000.0,-46.875,0.0,-1.0,1.0,0.0,1.m4v,4.0
2024-02-27 13:24:24.158768,1709036664.1587677,969.23828125,-955.56640625,-1000.0,-54.19921875,0.0,-1.0,1.0,0.0,1.m4v,4.0
2024-02-27 13:24:24.162673,1709036664.162673,969.23828125,-1000.0,-1000.0,-41.50390625,0.0,-1.0,1.0,0.0,1.m4v,4.0
2024-02-27 13:24:24.166578,1709036664.1665783,969.23828125,-979.98046875,-1000.0,-29.296875,0.0,-1.0,1.0,0.0,1.m4v,4.0
2024-02-27 13:24:24.170484,1709036664.1704836,969.23828125,407.71484375,-1000.0,-30.2734375,0.0,-1.0,1.0,0.0,1.m4v,4.0
2024-02-27 13:24:24.174389,1709036664.174389,969.23828125,999.51171875,-1000.0,-47.8515625,0.0,-1.0,1.0,0.0,1.m4v,4.0
2024-02-27 13:24:24.178294,1709036664.1782942,969.7265625,897.4609375,-1000.0,-43.45703125,0.0,-1.0,1.0,0.0,1.m4v,4.0
2024-02-27 13:24:24.182200,1709036664.1821997,969.23828125,980.95703125,-1000.0,-39.55078125,0.0,-1.0,1.0,0.0,1.m4v,4.0
2024-02-27 13:24:24.186105,1709036664.186105,969.23828125,970.21484375,-1000.0,-53.7109375,0.0,-1.0,1.0,0.0,1.m4v,4.0
2024-02-27 13:24:24.190010,1709036664.1900103,969.23828125,970.21484375,-1000.0,-47.8515625,0.0,-1.0,1.0,0.0,1.m4v,4.0
2024-02-27 13:24:24.193916,1709036664.1939156,969.23828125,970.21484375,-1000.0,-63.4765625,0.0,-1.0,1.0,0.0,1.m4v,4.0
2024-02-27 13:24:24.197826,1709036664.197826,969.23828125,970.21484375,-1000.0,-75.68359375,0.0,-1.0,1.0,0.0,1.m4v,4.0
2024-02-27 13:24:24.201732,1709036664.2017317,969.23828125,970.21484375,-1000.0,-51.7578125,0.0,-1.0,1.0,0.0,1.m4v,4.0
2024-02-27 13:24:24.205637,1709036664.205637,969.23828125,970.21484375,-998.046875,-46.875,0.0,-1.0,1.0,0.0,1.m4v,4.0
2024-02-27 13:24:24.209542,1709036664.2095425,969.23828125,969.7265625,-992.67578125,-38.0859375,0.0,-1.0,1.0,0.0,1.m4v,4.0
2024-02-27 13:24:24.213448,1709036664.2134476,969.23828125,969.7265625,-1000.0,-39.0625,0.0,-1.0,1.0,0.0,1.m4v,4.0
2024-02-27 13:24:24.217353,1709036664.2173529,969.23828125,970.21484375,-1000.0,-38.57421875,0.0,-1.0,1.0,0.0,1.m4v,4.0
2024-02-27 13:24:24.221258,1709036664.2212582,969.23828125,970.21484375,-916.9921875,-37.109375,0.0,-1.0,1.0,0.0,1.m4v,4.0
2024-02-27 13:24:24.225163,1709036664.2251637,969.23828125,970.21484375,-955.56640625,-40.0390625,0.0,-1.0,1.0,0.0,1.m4v,4.0
2024-02-27 13:24:24.229069,1709036664.2290688,969.7265625,970.21484375,-1000.0,-42.48046875,0.0,-1.0,1.0,0.0,1.m4v,4.0
2024-02-27 13:24:24.232974,1709036664.2329743,969.7265625,970.21484375,-995.1171875,-62.5,0.0,-1.0,1.0,0.0,1.m4v,4.0
2024-02-27 13:24:24.236880,1709036664.2368796,969.23828125,986.328125,-1000.0,-53.7109375,0.0,-1.0,1.0,0.0,1.m4v,4.0
2024-02-27 13:24:24.240785,1709036664.240785,969.23828125,911.1328125,-1000.0,-39.0625,0.0,-1.0,1.0,0.0,1.m4v,4.0
2024-02-27 13:24:24.244699,1709036664.244699,969.23828125,999.51171875,-1000.0,-41.015625,0.0,-1.0,1.0,0.0,1.m4v,4.0
2024-02-27 13:24:24.248605,1709036664.2486043,969.23828125,849.609375,-1000.0,-52.24609375,0.0,-1.0,1.0,0.0,1.m4v,4.0
2024-02-27 13:24:24.252510,1709036664.2525098,969.23828125,-627.9296875,-1000.0,-59.08203125,0.0,-1.0,1.0,0.0,1.m4v,4.0
2024-02-27 13:24:24.256415,1709036664.2564151,969.23828125,-1000.0,-972.16796875,-51.7578125,0.0,-1.0,1.0,0.0,1.m4v,4.0
2024-02-27 13:24:24.260320,1709036664.2603204,969.7265625,-1000.0,-1000.0,-46.875,0.0,-1.0,1.0,0.0,1.m4v,4.0
2024-02-27 13:24:24.264226,1709036664.2642255,969.23828125,-795.41015625,-743.65234375,-41.50390625,0.0,-1.0,1.0,0.0,1.m4v,4.0
2024-02-27 13:24:24.666546,1709036664.6665463,-965.8203125,-1000.0,155.2734375,-39.0625,0.0,-1.0,1.0,0.0,1.m4v,4.0
2024-02-27 13:24:24.670452,1709036664.6704516,-988.76953125,-937.01171875,-35.64453125,-38.0859375,0.0,-1.0,1.0,0.0,1.m4v,4.0
2024-02-27 13:24:24.674357,1709036664.674357,-1000.0,-1000.0,-380.859375,-62.01171875,0.0,-1.0,1.0,0.0,1.m4v,4.0
2024-02-27 13:24:24.678262,1709036664.6782622,-928.7109375,-947.75390625,-555.6640625,-57.6171875,0.0,-1.0,1.0,0.0,1.m4v,4.0
2024-02-27 13:24:24.682168,1709036664.6821675,-1000.0,-1000.0,-475.09765625,-39.55078125,0.0,-1.0,1.0,0.0,1.m4v,4.0
2024-02-27 13:24:24.686073,1709036664.6860728,-612.79296875,-228.02734375,294.43359375,-20.01953125,0.0,-1.0,1.0,0.0,1.m4v,4.0
2024-02-27 13:24:24.689978,1709036664.689978,833.49609375,998.046875,946.77734375,-4.8828125,0.0,-1.0,1.0,0.0,1.m4v,4.0
2024-02-27 13:24:24.693884,1709036664.6938837,999.51171875,964.35546875,353.02734375,-30.2734375,0.0,-1.0,1.0,0.0,1.m4v,4.0
2024-02-27 13:24:24.697789,1709036664.697789,910.64453125,940.4296875,-197.75390625,-50.78125,0.0,-1.0,1.0,0.0,1.m4v,4.0
2024-02-27 13:24:24.701694,1709036664.7016945,985.3515625,978.515625,5.37109375,-38.0859375,0.0,-1.0,1.0,0.0,1.m4v,4.0
2024-02-27 13:24:24.705600,1709036664.7055995,969.23828125,969.7265625,424.8046875,-23.4375,0.0,-1.0,1.0,0.0,1.m4v,4.0
2024-02-27 13:24:24.709505,1709036664.7095048,968.75,969.7265625,609.86328125,-33.203125,0.0,-1.0,1.0,0.0,1.m4v,4.0
2024-02-27 13:24:24.713418,1709036664.7134182,969.23828125,969.7265625,308.59375,-49.8046875,0.0,-1.0,1.0,0.0,1.m4v,4.0
2024-02-27 13:24:24.717324,1709036664.7173235,969.23828125,969.7265625,63.4765625,-49.31640625,0.0,-1.0,1.0,0.0,1.m4v,4.0
2024-02-27 13:24:24.721229,1709036664.7212288,969.23828125,969.7265625,474.12109375,-38.57421875,0.0,-1.0,1.0,0.0,1.m4v,4.0
2024-02-27 13:24:24.725134,1709036664.725134,969.23828125,969.7265625,974.609375,-25.390625,0.0,-1.0,1.0,0.0,1.m4v,4.0
2024-02-27 13:24:24.729039,1709036664.7290394,969.23828125,970.21484375,916.015625,-20.01953125,0.0,-1.0,1.0,0.0,1.m4v,4.0
2024-02-27 13:24:24.732945,1709036664.7329447,969.23828125,969.7265625,787.59765625,-30.76171875,0.0,-1.0,1.0,0.0,1.m4v,4.0
2024-02-27 13:24:24.736850,1709036664.73685,969.23828125,969.7265625,634.765625,-36.1328125,0.0,-1.0,1.0,0.0,1.m4v,4.0
2024-02-27 13:24:24.740755,1709036664.740755,985.3515625,979.00390625,308.59375,-41.015625,0.0,-1.0,1.0,0.0,1.m4v,4.0
2024-02-27 13:24:24.744661,1709036664.7446609,910.15625,935.546875,406.25,-37.109375,0.0,-1.0,1.0,0.0,1.m4v,4.0
2024-02-27 13:24:24.748566,1709036664.7485662,999.51171875,968.26171875,581.54296875,-43.9453125,0.0,-1.0,1.0,0.0,1.m4v,4.0
2024-02-27 13:24:24.752471,1709036664.7524714,827.1484375,999.51171875,227.5390625,-48.33984375,0.0,-1.0,1.0,0.0,1.m4v,4.0
2024-02-27 13:24:24.756377,1709036664.7563767,-625.48828125,-307.12890625,-284.1796875,-59.5703125,0.0,-1.0,1.0,0.0,1.m4v,4.0
2024-02-27 13:24:24.760289,1709036664.7602894,-1000.0,-1000.0,-346.19140625,-67.3828125,0.0,-1.0,1.0,0.0,1.m4v,4.0
2024-02-27 13:24:24.764195,1709036664.7641947,-927.734375,-932.6171875,142.08984375,-41.50390625,0.0,-1.0,1.0,0.0,1.m4v,4.0
2024-02-27 13:24:24.768100,1709036664.7681,-1000.0,-1000.0,612.3046875,-23.4375,0.0,-1.0,1.0,0.0,1.m4v,4.0
2024-02-27 13:24:24.772005,1709036664.772005,-963.37890625,-946.2890625,373.53515625,-35.15625,0.0,-1.0,1.0,0.0,1.m4v,4.0
2024-02-27 13:24:24.775911,1709036664.7759106,-1000.0,-1000.0,-60.05859375,-50.29296875,0.0,-1.0,1.0,0.0,1.m4v,4.0
2024-02-27 13:24:24.779816,1709036664.7798162,-1000.0,-918.45703125,187.01171875,-38.57421875,0.0,-1.0,1.0,0.0,1.m4v,4.0
2024-02-27 13:24:24.783721,1709036664.7837214,309.08203125,522.94921875,838.8671875,-1.953125,0.0,-1.0,1.0,0.0,1.m4v,4.0
2024-02-27 13:24:24.787627,1709036664.7876267,999.51171875,999.51171875,999.51171875,-6.8359375,0.0,-1.0,1.0,0.0,1.m4v,4.0
2024-02-27 13:24:24.791532,1709036664.791532,900.390625,895.01953125,880.37109375,-27.83203125,0.0,-1.0,1.0,0.0,1.m4v,4.0
2024-02-27 13:24:24.795437,1709036664.795437,975.5859375,984.86328125,440.4296875,-37.109375,0.0,-1.0,1.0,0.0,1.m4v,4.0
2024-02-27 13:24:24.799343,1709036664.7993426,969.23828125,969.7265625,310.546875,-43.9453125,0.0,-1.0,1.0,0.0,1.m4v,4.0
2024-02-27 13:24:24.803248,1709036664.803248,969.23828125,969.7265625,699.70703125,-27.83203125,0.0,-1.0,1.0,0.0,1.m4v,4.0
2024-02-27 13:24:24.807160,1709036664.8071597,968.75,969.7265625,950.68359375,-22.94921875,0.0,-1.0,1.0,0.0,1.m4v,4.0
2024-02-27 13:24:24.811065,1709036664.8110652,969.23828125,969.7265625,974.12109375,-38.57421875,0.0,-1.0,1.0,0.0,1.m4v,4.0
2024-02-27 13:24:24.814970,1709036664.8149705,968.75,969.7265625,821.77734375,-39.55078125,0.0,-1.0,1.0,0.0,1.m4v,4.0
2024-02-27 13:24:24.818876,1709036664.8188758,968.75,969.7265625,782.71484375,-33.69140625,0.0,-1.0,1.0,0.0,1.m4v,4.0
2024-02-27 13:24:24.822781,1709036664.822781,971.6796875,969.7265625,951.66015625,-24.90234375,0.0,-1.0,1.0,0.0,1.m4v,4.0
2024-02-27 13:24:24.826686,1709036664.8266864,970.21484375,986.81640625,968.75,-18.5546875,0.0,-1.0,1.0,0.0,1.m4v,4.0
2024-02-27 13:24:24.830592,1709036664.8305917,916.9921875,908.203125,980.46875,-36.62109375,0.0,-1.0,1.0,0.0,1.m4v,4.0
2024-02-27 13:24:24.834497,1709036664.834497,999.51171875,999.51171875,914.55078125,-41.015625,0.0,-1.0,1.0,0.0,1.m4v,4.0
2024-02-27 13:24:24.838402,1709036664.8384025,332.03125,815.91796875,778.3203125,-36.62109375,0.0,-1.0,1.0,0.0,1.m4v,4.0
2024-02-27 13:24:24.842308,1709036664.8423078,-941.40625,-650.87890625,907.71484375,-49.8046875,0.0,-1.0,1.0,0.0,1.m4v,4.0
2024-02-27 13:24:24.846213,1709036664.846213,-1000.0,-1000.0,987.3046875,-46.875,0.0,-1.0,1.0,0.0,1.m4v,4.0
2024-02-27 13:24:24.850118,1709036664.8501184,-959.47265625,-927.24609375,960.9375,-37.59765625,0.0,-1.0,1.0,0.0,1.m4v,4.0
2024-02-27 13:24:24.854030,1709036664.85403,-1000.0,-1000.0,601.5625,-47.8515625,0.0,-1.0,1.0,0.0,1.m4v,4.0
2024-02-27 13:24:24.857935,1709036664.8579352,-1000.0,-1000.0,282.2265625,-61.03515625,0.0,-1.0,1.0,0.0,1.m4v,4.0
2024-02-27 13:24:24.861840,1709036664.8618405,-1000.0,-959.47265625,611.81640625,-38.0859375,0.0,-1.0,1.0,0.0,1.m4v,4.0
2024-02-27 13:24:24.865746,1709036664.8657458,-1000.0,-1000.0,957.51953125,-17.578125,0.0,-1.0,1.0,0.0,1.m4v,4.0
2024-02-27 13:24:24.869651,1709036664.869651,-1000.0,-1000.0,967.7734375,-31.73828125,0.0,-1.0,1.0,0.0,1.m4v,4.0
2024-02-27 13:24:24.873557,1709036664.8735566,-1000.0,357.91015625,961.42578125,-25.390625,0.0,-1.0,1.0,0.0,1.m4v,4.0
2024-02-27 13:24:24.877462,1709036664.877462,-1000.0,999.51171875,972.16796875,-21.484375,0.0,-1.0,1.0,0.0,1.m4v,4.0
2024-02-27 13:24:24.881367,1709036664.8813672,-1000.0,898.92578125,969.7265625,-28.3203125,0.0,-1.0,1.0,0.0,1.m4v,4.0
2024-02-27 13:24:24.885273,1709036664.8852725,-1000.0,978.515625,969.7265625,-19.53125,0.0,-1.0,1.0,0.0,1.m4v,4.0
2024-02-27 13:24:24.889178,1709036664.8891778,-1000.0,970.21484375,969.7265625,-27.34375,0.0,-1.0,1.0,0.0,1.m4v,4.0
2024-02-27 13:24:24.893083,1709036664.893083,-1000.0,970.21484375,969.7265625,-33.69140625,0.0,-1.0,1.0,0.0,1.m4v,4.0
2024-02-27 13:24:24.896988,1709036664.8969884,-1000.0,970.21484375,969.7265625,-42.96875,0.0,-1.0,1.0,0.0,1.m4v,4.0
2024-02-27 13:24:24.900900,1709036664.9008996,-1000.0,970.21484375,969.7265625,-44.921875,0.0,-1.0,1.0,0.0,1.m4v,4.0
2024-02-27 13:24:24.904805,1709036664.904805,-1000.0,970.21484375,969.7265625,-22.4609375,0.0,-1.0,1.0,0.0,1.m4v,4.0
2024-02-27 13:24:24.908710,1709036664.9087105,-1000.0,969.7265625,969.7265625,-13.18359375,0.0,-1.0,1.0,0.0,1.m4v,4.0
2024-02-27 13:24:24.912616,1709036664.9126158,-1000.0,970.21484375,969.7265625,-19.04296875,0.0,-1.0,1.0,0.0,1.m4v,4.0
2024-02-27 13:24:24.916521,1709036664.916521,-1000.0,970.21484375,969.7265625,-20.99609375,0.0,-1.0,1.0,0.0,1.m4v,4.0
2024-02-27 13:24:24.920426,1709036664.9204264,-1000.0,969.7265625,969.7265625,-24.4140625,0.0,-1.0,1.0,0.0,1.m4v,4.0
2024-02-27 13:24:24.924332,1709036664.9243317,-1000.0,970.21484375,969.7265625,-10.7421875,0.0,-1.0,1.0,0.0,1.m4v,4.0
2024-02-27 13:24:24.928237,1709036664.928237,-1000.0,970.21484375,969.7265625,-6.8359375,0.0,-1.0,1.0,0.0,1.m4v,4.0
2024-02-27 13:24:24.932142,1709036664.9321425,-1000.0,970.21484375,969.7265625,-23.92578125,0.0,-1.0,1.0,0.0,1.m4v,4.0
2024-02-27 13:24:24.936048,1709036664.9360476,-1000.0,970.21484375,969.7265625,-34.66796875,0.0,-1.0,1.0,0.0,1.m4v,4.0
2024-02-27 13:24:24.939953,1709036664.939953,-1000.0,970.21484375,969.7265625,-37.109375,0.0,-1.0,1.0,0.0,1.m4v,4.0
2024-02-27 13:24:24.943858,1709036664.9438584,-1000.0,970.21484375,969.7265625,-27.34375,0.0,-1.0,1.0,0.0,1.m4v,4.0
2024-02-27 13:24:24.947773,1709036664.9477727,-1000.0,970.21484375,969.7265625,-19.53125,0.0,-1.0,1.0,0.0,1.m4v,4.0
2024-02-27 13:24:24.951678,1709036664.9516785,-1000.0,969.7265625,969.7265625,-29.78515625,0.0,-1.0,1.0,0.0,1.m4v,4.0
2024-02-27 13:24:24.955584,1709036664.9555836,-1000.0,969.7265625,969.7265625,-33.69140625,0.0,-1.0,1.0,0.0,1.m4v,4.0
2024-02-27 13:24:24.959489,1709036664.9594889,-1000.0,970.21484375,969.7265625,-28.80859375,0.0,-1.0,1.0,0.0,1.m4v,4.0
2024-02-27 13:24:24.963394,1709036664.9633942,-1000.0,970.21484375,969.7265625,-20.5078125,0.0,-1.0,1.0,0.0,1.m4v,4.0
