Timestamp,Timestamp_UNIX,TP9,AF7,AF8,TP10,Valence,Arousal,Dominace,Viewed,Video,Participant
2024-02-27 10:37:34.002694,1709026654.0026937,-30.76171875,999.51171875,985.83984375,-35.15625,1.0,0.0,1.0,0.0,5.m4v,2.0
2024-02-27 10:37:34.006599,1709026654.006599,-29.296875,739.2578125,938.96484375,-28.3203125,1.0,0.0,1.0,0.0,5.m4v,2.0
2024-02-27 10:37:34.010504,1709026654.0105045,-29.296875,-716.30859375,542.96875,-35.64453125,1.0,0.0,1.0,0.0,5.m4v,2.0
2024-02-27 10:37:34.014410,1709026654.0144098,-28.3203125,-1000.0,249.51171875,-42.96875,1.0,0.0,1.0,0.0,5.m4v,2.0
2024-02-27 10:37:34.018315,1709026654.0183153,-34.1796875,-932.12890625,199.21875,-36.62109375,1.0,0.0,1.0,0.0,5.m4v,2.0
2024-02-27 10:37:34.022221,1709026654.0222206,-33.69140625,-1000.0,381.8359375,-35.15625,1.0,0.0,1.0,0.0,5.m4v,2.0
2024-02-27 10:37:34.026128,1709026654.0261278,-27.34375,-1000.0,683.10546875,-37.109375,1.0,0.0,1.0,0.0,5.m4v,2.0
2024-02-27 10:37:34.030033,1709026654.030033,-28.3203125,-1000.0,521.97265625,-25.390625,1.0,0.0,1.0,0.0,5.m4v,2.0
2024-02-27 10:37:34.033939,1709026654.0339386,-36.1328125,-979.4921875,361.328125,-20.01953125,1.0,0.0,1.0,0.0,5.m4v,2.0
2024-02-27 10:37:34.037844,1709026654.037844,-41.9921875,-975.5859375,386.23046875,-30.76171875,1.0,0.0,1.0,0.0,5.m4v,2.0
2024-02-27 10:37:34.041749,1709026654.0417492,-35.15625,-1000.0,567.87109375,-29.296875,1.0,0.0,1.0,0.0,5.m4v,2.0
2024-02-27 10:37:34.045655,1709026654.0456548,-24.90234375,79.1015625,897.94921875,-13.18359375,1.0,0.0,1.0,0.0,5.m4v,2.0
2024-02-27 10:37:34.049560,1709026654.04956,-24.4140625,999.51171875,997.0703125,-22.4609375,1.0,0.0,1.0,0.0,5.m4v,2.0
2024-02-27 10:37:34.053466,1709026654.0534656,-28.3203125,923.33984375,913.0859375,-38.57421875,1.0,0.0,1.0,0.0,5.m4v,2.0
2024-02-27 10:37:34.057371,1709026654.057371,-33.203125,962.40234375,586.9140625,-39.0625,1.0,0.0,1.0,0.0,5.m4v,2.0
2024-02-27 10:37:34.061276,1709026654.0612764,-36.62109375,972.65625,544.43359375,-32.2265625,1.0,0.0,1.0,0.0,5.m4v,2.0
2024-02-27 10:37:34.065182,1709026654.0651815,-25.87890625,969.7265625,753.90625,-33.203125,1.0,0.0,1.0,0.0,5.m4v,2.0
2024-02-27 10:37:34.069087,1709026654.0690873,-28.3203125,970.21484375,703.61328125,-41.015625,1.0,0.0,1.0,0.0,5.m4v,2.0
2024-02-27 10:37:34.072998,1709026654.0729983,-31.73828125,969.7265625,569.3359375,-39.55078125,1.0,0.0,1.0,0.0,5.m4v,2.0
2024-02-27 10:37:34.076904,1709026654.0769038,-23.92578125,969.7265625,417.48046875,-38.0859375,1.0,0.0,1.0,0.0,5.m4v,2.0
2024-02-27 10:37:34.080809,1709026654.080809,-34.66796875,969.7265625,406.73828125,-33.69140625,1.0,0.0,1.0,0.0,5.m4v,2.0
2024-02-27 10:37:34.084715,1709026654.084715,-41.50390625,969.7265625,592.7734375,-29.78515625,1.0,0.0,1.0,0.0,5.m4v,2.0
2024-02-27 10:37:34.088620,1709026654.08862,-41.9921875,979.00390625,637.20703125,-34.66796875,1.0,0.0,1.0,0.0,5.m4v,2.0
2024-02-27 10:37:34.092525,1709026654.0925252,-42.48046875,936.5234375,693.84765625,-34.66796875,1.0,0.0,1.0,0.0,5.m4v,2.0
2024-02-27 10:37:34.096431,1709026654.0964308,-37.109375,968.26171875,656.73828125,-32.2265625,1.0,0.0,1.0,0.0,5.m4v,2.0
2024-02-27 10:37:34.100336,1709026654.100336,-42.48046875,999.51171875,522.4609375,-41.50390625,1.0,0.0,1.0,0.0,5.m4v,2.0
2024-02-27 10:37:34.104242,1709026654.1042416,-52.734375,-287.109375,598.6328125,-39.55078125,1.0,0.0,1.0,0.0,5.m4v,2.0
2024-02-27 10:37:34.108147,1709026654.108147,-53.7109375,-1000.0,613.28125,-27.34375,1.0,0.0,1.0,0.0,5.m4v,2.0
2024-02-27 10:37:34.112052,1709026654.1120524,-48.33984375,-937.5,263.671875,-33.69140625,1.0,0.0,1.0,0.0,5.m4v,2.0
2024-02-27 10:37:34.115958,1709026654.1159575,-46.38671875,-1000.0,-37.59765625,-56.640625,1.0,0.0,1.0,0.0,5.m4v,2.0
2024-02-27 10:37:34.119869,1709026654.1198688,-56.640625,-1000.0,113.76953125,-57.6171875,1.0,0.0,1.0,0.0,5.m4v,2.0
2024-02-27 10:37:34.123774,1709026654.1237743,-54.19921875,-1000.0,401.3671875,-48.33984375,1.0,0.0,1.0,0.0,5.m4v,2.0
2024-02-27 10:37:34.127680,1709026654.1276796,-38.0859375,-1000.0,462.40234375,-44.43359375,1.0,0.0,1.0,0.0,5.m4v,2.0
2024-02-27 10:37:34.131585,1709026654.1315851,-36.1328125,-930.17578125,258.7890625,-43.45703125,1.0,0.0,1.0,0.0,5.m4v,2.0
2024-02-27 10:37:34.135490,1709026654.1354904,-43.45703125,-1000.0,-38.0859375,-46.875,1.0,0.0,1.0,0.0,5.m4v,2.0
2024-02-27 10:37:34.139396,1709026654.139396,-43.45703125,-680.6640625,303.7109375,-47.8515625,1.0,0.0,1.0,0.0,5.m4v,2.0
2024-02-27 10:37:34.143301,1709026654.1433012,-35.64453125,783.203125,909.66796875,-34.66796875,1.0,0.0,1.0,0.0,5.m4v,2.0
2024-02-27 10:37:34.147207,1709026654.1472068,-31.25,999.51171875,662.59765625,-31.73828125,1.0,0.0,1.0,0.0,5.m4v,2.0
2024-02-27 10:37:34.151112,1709026654.151112,-37.59765625,906.25,235.83984375,-50.29296875,1.0,0.0,1.0,0.0,5.m4v,2.0
2024-02-27 10:37:34.155017,1709026654.1550174,-41.9921875,986.81640625,2.9296875,-53.7109375,1.0,0.0,1.0,0.0,5.m4v,2.0
2024-02-27 10:37:34.158923,1709026654.158923,-42.96875,969.7265625,-134.765625,-43.45703125,1.0,0.0,1.0,0.0,5.m4v,2.0
2024-02-27 10:37:34.162828,1709026654.1628282,-42.48046875,969.7265625,158.69140625,-30.2734375,1.0,0.0,1.0,0.0,5.m4v,2.0
2024-02-27 10:37:34.166739,1709026654.1667387,-33.203125,969.7265625,560.05859375,-32.2265625,1.0,0.0,1.0,0.0,5.m4v,2.0
2024-02-27 10:37:34.170644,1709026654.1706443,-36.62109375,969.7265625,451.66015625,-49.8046875,1.0,0.0,1.0,0.0,5.m4v,2.0
2024-02-27 10:37:34.174550,1709026654.1745496,-48.33984375,969.7265625,-28.80859375,-54.19921875,1.0,0.0,1.0,0.0,5.m4v,2.0
2024-02-27 10:37:34.178455,1709026654.178455,-43.9453125,969.7265625,-157.2265625,-51.26953125,1.0,0.0,1.0,0.0,5.m4v,2.0
2024-02-27 10:37:34.182360,1709026654.1823604,-33.203125,970.21484375,161.1328125,-42.48046875,1.0,0.0,1.0,0.0,5.m4v,2.0
2024-02-27 10:37:34.186266,1709026654.186266,-22.94921875,982.91015625,778.3203125,-23.4375,1.0,0.0,1.0,0.0,5.m4v,2.0
2024-02-27 10:37:34.190171,1709026654.1901712,-19.04296875,903.80859375,787.59765625,-27.34375,1.0,0.0,1.0,0.0,5.m4v,2.0
2024-02-27 10:37:34.194077,1709026654.1940768,-23.4375,999.51171875,203.61328125,-46.38671875,1.0,0.0,1.0,0.0,5.m4v,2.0
2024-02-27 10:37:34.197982,1709026654.197982,-42.96875,586.9140625,-37.59765625,-45.8984375,1.0,0.0,1.0,0.0,5.m4v,2.0
2024-02-27 10:37:34.201888,1709026654.2018876,-55.17578125,-834.9609375,-116.69921875,-49.31640625,1.0,0.0,1.0,0.0,5.m4v,2.0
2024-02-27 10:37:34.205793,1709026654.205793,-46.38671875,-1000.0,-17.578125,-53.7109375,1.0,0.0,1.0,0.0,5.m4v,2.0
2024-02-27 10:37:34.209698,1709026654.2096982,-43.45703125,-941.89453125,118.1640625,-47.8515625,1.0,0.0,1.0,0.0,5.m4v,2.0
2024-02-27 10:37:34.213608,1709026654.2136078,-41.50390625,-1000.0,-67.3828125,-38.0859375,1.0,0.0,1.0,0.0,5.m4v,2.0
2024-02-27 10:37:34.217513,1709026654.217513,-41.50390625,-997.55859375,-164.55078125,-38.57421875,1.0,0.0,1.0,0.0,5.m4v,2.0
2024-02-27 10:37:34.221419,1709026654.2214186,-42.96875,-951.171875,2.44140625,-44.43359375,1.0,0.0,1.0,0.0,5.m4v,2.0
2024-02-27 10:37:34.225324,1709026654.225324,-32.71484375,-1000.0,239.74609375,-39.55078125,1.0,0.0,1.0,0.0,5.m4v,2.0
2024-02-27 10:37:34.229229,1709026654.2292297,-27.34375,-254.8828125,476.5625,-30.2734375,1.0,0.0,1.0,0.0,5.m4v,2.0
2024-02-27 10:37:34.233135,1709026654.2331347,-25.390625,969.23828125,563.4765625,-38.0859375,1.0,0.0,1.0,0.0,5.m4v,2.0
2024-02-27 10:37:34.237040,1709026654.23704,-25.390625,973.14453125,455.078125,-43.9453125,1.0,0.0,1.0,0.0,5.m4v,2.0
2024-02-27 10:37:34.240946,1709026654.2409456,-32.71484375,937.5,205.078125,-37.59765625,1.0,0.0,1.0,0.0,5.m4v,2.0
2024-02-27 10:37:34.244851,1709026654.2448509,-36.62109375,979.4921875,169.43359375,-37.109375,1.0,0.0,1.0,0.0,5.m4v,2.0
2024-02-27 10:37:34.248756,1709026654.2487564,-30.2734375,969.7265625,108.3984375,-41.015625,1.0,0.0,1.0,0.0,5.m4v,2.0
2024-02-27 10:37:34.252662,1709026654.2526617,-24.4140625,969.7265625,-15.13671875,-34.66796875,1.0,0.0,1.0,0.0,5.m4v,2.0
2024-02-27 10:37:34.256567,1709026654.2565672,-34.66796875,969.7265625,-98.6328125,-29.78515625,1.0,0.0,1.0,0.0,5.m4v,2.0
2024-02-27 10:37:34.260476,1709026654.2604764,-37.109375,980.95703125,-17.578125,-34.66796875,1.0,0.0,1.0,0.0,5.m4v,2.0
2024-02-27 10:37:34.264382,1709026654.2643816,-23.92578125,928.7109375,382.32421875,-28.3203125,1.0,0.0,1.0,0.0,5.m4v,2.0
2024-02-27 10:37:34.268287,1709026654.2682872,-18.06640625,983.88671875,500.0,-19.53125,1.0,0.0,1.0,0.0,5.m4v,2.0
2024-02-27 10:37:34.272192,1709026654.2721925,-24.90234375,967.7734375,96.6796875,-35.64453125,1.0,0.0,1.0,0.0,5.m4v,2.0
2024-02-27 10:37:34.276098,1709026654.276098,-41.015625,-389.6484375,-250.9765625,-47.8515625,1.0,0.0,1.0,0.0,5.m4v,2.0
2024-02-27 10:37:34.280003,1709026654.2800033,-39.0625,-1000.0,107.91015625,-35.64453125,1.0,0.0,1.0,0.0,5.m4v,2.0
2024-02-27 10:37:34.283909,1709026654.2839088,-18.5546875,-930.17578125,607.91015625,-30.76171875,1.0,0.0,1.0,0.0,5.m4v,2.0
2024-02-27 10:37:34.287814,1709026654.287814,-20.01953125,-1000.0,541.50390625,-40.52734375,1.0,0.0,1.0,0.0,5.m4v,2.0
2024-02-27 10:37:34.291719,1709026654.2917194,-41.9921875,-1000.0,55.17578125,-44.921875,1.0,0.0,1.0,0.0,5.m4v,2.0
2024-02-27 10:37:34.295625,1709026654.295625,-52.24609375,-1000.0,-397.94921875,-41.9921875,1.0,0.0,1.0,0.0,5.m4v,2.0
2024-02-27 10:37:34.299530,1709026654.2995305,-52.734375,-1000.0,-411.1328125,-40.52734375,1.0,0.0,1.0,0.0,5.m4v,2.0
2024-02-27 10:37:34.303436,1709026654.3034358,-50.29296875,-1000.0,-99.12109375,-41.50390625,1.0,0.0,1.0,0.0,5.m4v,2.0
2024-02-27 10:37:34.307344,1709026654.3073444,-37.59765625,-1000.0,8.30078125,-34.66796875,1.0,0.0,1.0,0.0,5.m4v,2.0
2024-02-27 10:37:34.311250,1709026654.31125,-36.62109375,-1000.0,-164.55078125,-37.109375,1.0,0.0,1.0,0.0,5.m4v,2.0
2024-02-27 10:37:34.315155,1709026654.3151553,-51.7578125,-973.6328125,-328.61328125,-46.38671875,1.0,0.0,1.0,0.0,5.m4v,2.0
2024-02-27 10:37:34.319061,1709026654.3190608,-49.31640625,-1000.0,-309.08203125,-39.0625,1.0,0.0,1.0,0.0,5.m4v,2.0
2024-02-27 10:37:34.322966,1709026654.322966,-33.203125,-826.171875,3.41796875,-33.203125,1.0,0.0,1.0,0.0,5.m4v,2.0
2024-02-27 10:37:34.326872,1709026654.3268716,-25.390625,386.23046875,462.890625,-32.2265625,1.0,0.0,1.0,0.0,5.m4v,2.0
2024-02-27 10:37:34.330777,1709026654.330777,-29.78515625,999.51171875,656.73828125,-29.296875,1.0,0.0,1.0,0.0,5.m4v,2.0
2024-02-27 10:37:34.334682,1709026654.3346825,-36.62109375,916.9921875,169.921875,-32.2265625,1.0,0.0,1.0,0.0,5.m4v,2.0
2024-02-27 10:37:34.338588,1709026654.3385878,-45.41015625,970.703125,-145.01953125,-36.62109375,1.0,0.0,1.0,0.0,5.m4v,2.0
2024-02-27 10:37:34.342493,1709026654.3424933,-50.78125,969.7265625,16.11328125,-40.0390625,1.0,0.0,1.0,0.0,5.m4v,2.0
2024-02-27 10:37:34.346399,1709026654.3463986,-40.0390625,969.7265625,322.265625,-36.62109375,1.0,0.0,1.0,0.0,5.m4v,2.0
2024-02-27 10:37:34.350304,1709026654.350304,-37.109375,969.7265625,305.17578125,-46.38671875,1.0,0.0,1.0,0.0,5.m4v,2.0
2024-02-27 10:37:34.354213,1709026654.3542128,-48.828125,969.7265625,-192.87109375,-50.29296875,1.0,0.0,1.0,0.0,5.m4v,2.0
2024-02-27 10:37:34.358118,1709026654.3581183,-56.15234375,969.7265625,-414.0625,-49.31640625,1.0,0.0,1.0,0.0,5.m4v,2.0
2024-02-27 10:37:34.362024,1709026654.3620236,-56.640625,969.7265625,-160.15625,-48.33984375,1.0,0.0,1.0,0.0,5.m4v,2.0
2024-02-27 10:37:34.365929,1709026654.3659291,-44.921875,972.16796875,82.03125,-39.0625,1.0,0.0,1.0,0.0,5.m4v,2.0
2024-02-27 10:37:34.369834,1709026654.3698344,-33.203125,968.26171875,-65.91796875,-38.57421875,1.0,0.0,1.0,0.0,5.m4v,2.0
2024-02-27 10:37:34.373740,1709026654.3737395,-35.64453125,917.96875,85.44921875,-43.45703125,1.0,0.0,1.0,0.0,5.m4v,2.0
2024-02-27 10:37:34.822912,1709026654.8229125,-13.18359375,-1000.0,-414.55078125,-48.33984375,1.0,0.0,1.0,0.0,5.m4v,2.0
2024-02-27 10:37:34.826818,1709026654.8268178,-13.671875,-1000.0,-222.16796875,-39.55078125,1.0,0.0,1.0,0.0,5.m4v,2.0
2024-02-27 10:37:34.830723,1709026654.8307233,-21.97265625,-981.93359375,-268.06640625,-45.41015625,1.0,0.0,1.0,0.0,5.m4v,2.0
2024-02-27 10:37:34.834629,1709026654.8346286,-23.92578125,-970.703125,-636.23046875,-45.8984375,1.0,0.0,1.0,0.0,5.m4v,2.0
2024-02-27 10:37:34.838534,1709026654.838534,-24.90234375,-1000.0,-818.84765625,-39.0625,1.0,0.0,1.0,0.0,5.m4v,2.0
2024-02-27 10:37:34.842439,1709026654.8424394,-18.5546875,38.57421875,-61.03515625,-32.2265625,1.0,0.0,1.0,0.0,5.m4v,2.0
2024-02-27 10:37:34.846345,1709026654.8463447,-17.08984375,999.51171875,552.734375,-31.73828125,1.0,0.0,1.0,0.0,5.m4v,2.0
2024-02-27 10:37:34.850250,1709026654.8502502,-22.94921875,927.734375,66.40625,-28.3203125,1.0,0.0,1.0,0.0,5.m4v,2.0
2024-02-27 10:37:34.854156,1709026654.8541555,-23.4375,959.47265625,-396.484375,-31.25,1.0,0.0,1.0,0.0,5.m4v,2.0
2024-02-27 10:37:34.858061,1709026654.858061,-31.73828125,973.14453125,-452.63671875,-43.9453125,1.0,0.0,1.0,0.0,5.m4v,2.0
2024-02-27 10:37:34.861966,1709026654.8619664,-30.2734375,969.7265625,-279.296875,-38.57421875,1.0,0.0,1.0,0.0,5.m4v,2.0
2024-02-27 10:37:34.865872,1709026654.865872,-20.99609375,969.7265625,-73.73046875,-34.1796875,1.0,0.0,1.0,0.0,5.m4v,2.0
2024-02-27 10:37:34.869783,1709026654.8697827,-26.3671875,969.7265625,-173.33984375,-37.59765625,1.0,0.0,1.0,0.0,5.m4v,2.0
2024-02-27 10:37:34.873688,1709026654.873688,-26.85546875,969.7265625,-409.66796875,-39.55078125,1.0,0.0,1.0,0.0,5.m4v,2.0
2024-02-27 10:37:34.877594,1709026654.8775935,-22.4609375,969.7265625,-400.390625,-36.1328125,1.0,0.0,1.0,0.0,5.m4v,2.0
2024-02-27 10:37:34.881499,1709026654.8814988,-18.06640625,969.7265625,-98.14453125,-32.71484375,1.0,0.0,1.0,0.0,5.m4v,2.0
2024-02-27 10:37:34.885404,1709026654.8854043,-24.90234375,986.328125,108.88671875,-32.2265625,1.0,0.0,1.0,0.0,5.m4v,2.0
2024-02-27 10:37:34.889310,1709026654.8893096,-25.87890625,912.109375,94.23828125,-17.08984375,1.0,0.0,1.0,0.0,5.m4v,2.0
2024-02-27 10:37:34.893215,1709026654.8932152,-20.5078125,999.51171875,109.86328125,-11.71875,1.0,0.0,1.0,0.0,5.m4v,2.0
2024-02-27 10:37:34.897120,1709026654.8971205,-27.83203125,860.3515625,-148.92578125,-33.69140625,1.0,0.0,1.0,0.0,5.m4v,2.0
2024-02-27 10:37:34.901026,1709026654.901026,-35.15625,-597.16796875,-508.7890625,-36.1328125,1.0,0.0,1.0,0.0,5.m4v,2.0
2024-02-27 10:37:34.904931,1709026654.9049313,-30.2734375,-1000.0,-459.9609375,-37.59765625,1.0,0.0,1.0,0.0,5.m4v,2.0
2024-02-27 10:37:34.908837,1709026654.9088366,-28.3203125,-925.78125,-542.48046875,-41.9921875,1.0,0.0,1.0,0.0,5.m4v,2.0
2024-02-27 10:37:34.912742,1709026654.912742,-38.0859375,-1000.0,-793.9453125,-40.0390625,1.0,0.0,1.0,0.0,5.m4v,2.0
2024-02-27 10:37:34.916653,1709026654.916653,-38.57421875,-1000.0,-813.96484375,-39.55078125,1.0,0.0,1.0,0.0,5.m4v,2.0
2024-02-27 10:37:34.920558,1709026654.920558,-30.2734375,-1000.0,-621.09375,-28.80859375,1.0,0.0,1.0,0.0,5.m4v,2.0
2024-02-27 10:37:34.924464,1709026654.9244635,-17.578125,-980.46875,-283.203125,-19.04296875,1.0,0.0,1.0,0.0,5.m4v,2.0
2024-02-27 10:37:34.928369,1709026654.9283688,-19.53125,-973.6328125,-270.01953125,-10.25390625,1.0,0.0,1.0,0.0,5.m4v,2.0
2024-02-27 10:37:34.932274,1709026654.9322743,-30.76171875,-1000.0,-510.25390625,-21.97265625,1.0,0.0,1.0,0.0,5.m4v,2.0
2024-02-27 10:37:34.936180,1709026654.9361796,-17.08984375,64.94140625,-245.60546875,-25.390625,1.0,0.0,1.0,0.0,5.m4v,2.0
2024-02-27 10:37:34.940085,1709026654.9400852,0.48828125,999.51171875,181.640625,-17.08984375,1.0,0.0,1.0,0.0,5.m4v,2.0
2024-02-27 10:37:34.943990,1709026654.9439905,-25.390625,924.8046875,127.9296875,-34.66796875,1.0,0.0,1.0,0.0,5.m4v,2.0
2024-02-27 10:37:34.947896,1709026654.947896,-46.38671875,960.9375,58.10546875,-45.8984375,1.0,0.0,1.0,0.0,5.m4v,2.0
2024-02-27 10:37:34.951801,1709026654.9518013,-42.96875,972.65625,-209.9609375,-43.45703125,1.0,0.0,1.0,0.0,5.m4v,2.0
2024-02-27 10:37:34.955707,1709026654.9557068,-47.36328125,970.21484375,-674.8046875,-46.38671875,1.0,0.0,1.0,0.0,5.m4v,2.0
2024-02-27 10:37:34.959612,1709026654.959612,-50.78125,969.7265625,-631.34765625,-52.734375,1.0,0.0,1.0,0.0,5.m4v,2.0
2024-02-27 10:37:34.963522,1709026654.9635222,-44.921875,969.7265625,-243.1640625,-47.36328125,1.0,0.0,1.0,0.0,5.m4v,2.0
2024-02-27 10:37:34.967427,1709026654.9674275,-51.7578125,969.7265625,-165.0390625,-47.36328125,1.0,0.0,1.0,0.0,5.m4v,2.0
2024-02-27 10:37:34.971333,1709026654.971333,-56.15234375,969.7265625,-389.16015625,-43.9453125,1.0,0.0,1.0,0.0,5.m4v,2.0
2024-02-27 10:37:34.975238,1709026654.9752383,-53.22265625,969.7265625,-551.26953125,-37.59765625,1.0,0.0,1.0,0.0,5.m4v,2.0
2024-02-27 10:37:34.979144,1709026654.979144,-46.38671875,972.16796875,-436.03515625,-41.9921875,1.0,0.0,1.0,0.0,5.m4v,2.0
2024-02-27 10:37:34.983049,1709026654.9830492,-34.66796875,966.796875,104.4921875,-41.50390625,1.0,0.0,1.0,0.0,5.m4v,2.0
2024-02-27 10:37:34.986955,1709026654.9869547,-32.71484375,918.45703125,378.90625,-37.59765625,1.0,0.0,1.0,0.0,5.m4v,2.0
2024-02-27 10:37:34.990860,1709026654.99086,-38.0859375,999.51171875,-108.88671875,-39.55078125,1.0,0.0,1.0,0.0,5.m4v,2.0
2024-02-27 10:37:34.994766,1709026654.9947655,-40.52734375,194.82421875,-625.0,-42.48046875,1.0,0.0,1.0,0.0,5.m4v,2.0
2024-02-27 10:37:34.998671,1709026654.9986708,-48.33984375,-1000.0,-855.95703125,-30.2734375,1.0,0.0,1.0,0.0,5.m4v,2.0
2024-02-27 10:37:35.002576,1709026655.002576,-52.24609375,-995.1171875,-574.70703125,-38.0859375,1.0,0.0,1.0,0.0,5.m4v,2.0
2024-02-27 10:37:35.006482,1709026655.0064816,-50.78125,-970.703125,-208.984375,-47.8515625,1.0,0.0,1.0,0.0,5.m4v,2.0
2024-02-27 10:37:35.010391,1709026655.0103917,-51.7578125,-1000.0,-255.859375,-45.41015625,1.0,0.0,1.0,0.0,5.m4v,2.0
2024-02-27 10:37:35.014297,1709026655.0142968,-58.10546875,-1000.0,-681.15234375,-40.52734375,1.0,0.0,1.0,0.0,5.m4v,2.0
2024-02-27 10:37:35.018202,1709026655.0182023,-61.5234375,-1000.0,-773.4375,-30.2734375,1.0,0.0,1.0,0.0,5.m4v,2.0
2024-02-27 10:37:35.022108,1709026655.0221076,-65.91796875,-943.359375,-439.94140625,-23.4375,1.0,0.0,1.0,0.0,5.m4v,2.0
2024-02-27 10:37:35.026013,1709026655.026013,-61.03515625,-1000.0,-360.83984375,-24.4140625,1.0,0.0,1.0,0.0,5.m4v,2.0
2024-02-27 10:37:35.029918,1709026655.0299184,-48.828125,-295.8984375,-169.43359375,-20.01953125,1.0,0.0,1.0,0.0,5.m4v,2.0
2024-02-27 10:37:35.033824,1709026655.0338235,-41.50390625,972.65625,-94.7265625,-15.13671875,1.0,0.0,1.0,0.0,5.m4v,2.0
2024-02-27 10:37:35.037729,1709026655.0377293,-50.29296875,975.09765625,-528.80859375,-26.85546875,1.0,0.0,1.0,0.0,5.m4v,2.0
2024-02-27 10:37:35.041635,1709026655.0416346,-44.43359375,935.05859375,-348.14453125,-29.78515625,1.0,0.0,1.0,0.0,5.m4v,2.0
2024-02-27 10:37:35.045540,1709026655.04554,-35.64453125,979.4921875,-104.4921875,-21.484375,1.0,0.0,1.0,0.0,5.m4v,2.0
2024-02-27 10:37:35.049445,1709026655.0494454,-44.921875,969.7265625,-268.06640625,-23.4375,1.0,0.0,1.0,0.0,5.m4v,2.0
2024-02-27 10:37:35.053351,1709026655.053351,-44.43359375,969.7265625,-404.78515625,-34.1796875,1.0,0.0,1.0,0.0,5.m4v,2.0
2024-02-27 10:37:35.057259,1709026655.057259,-46.38671875,969.7265625,-578.125,-40.52734375,1.0,0.0,1.0,0.0,5.m4v,2.0
2024-02-27 10:37:35.061165,1709026655.0611646,-53.7109375,969.7265625,-412.109375,-33.69140625,1.0,0.0,1.0,0.0,5.m4v,2.0
2024-02-27 10:37:35.065070,1709026655.06507,-41.9921875,969.7265625,-137.6953125,-22.4609375,1.0,0.0,1.0,0.0,5.m4v,2.0
2024-02-27 10:37:35.068975,1709026655.0689754,-22.94921875,969.7265625,-165.0390625,-3.90625,1.0,0.0,1.0,0.0,5.m4v,2.0
2024-02-27 10:37:35.072881,1709026655.0728807,-33.203125,970.21484375,-514.6484375,-9.765625,1.0,0.0,1.0,0.0,5.m4v,2.0
2024-02-27 10:37:35.076786,1709026655.076786,-60.05859375,983.3984375,-463.8671875,-47.8515625,1.0,0.0,1.0,0.0,5.m4v,2.0
2024-02-27 10:37:35.080692,1709026655.0806916,-65.91796875,904.296875,-37.59765625,-40.0390625,1.0,0.0,1.0,0.0,5.m4v,2.0
2024-02-27 10:37:35.084597,1709026655.0845969,-56.15234375,999.51171875,-33.203125,-21.97265625,1.0,0.0,1.0,0.0,5.m4v,2.0
2024-02-27 10:37:35.088502,1709026655.0885024,-55.6640625,615.72265625,-350.5859375,-39.55078125,1.0,0.0,1.0,0.0,5.m4v,2.0
2024-02-27 10:37:35.092408,1709026655.0924077,-65.4296875,-813.96484375,-813.96484375,-51.26953125,1.0,0.0,1.0,0.0,5.m4v,2.0
2024-02-27 10:37:35.096313,1709026655.0963132,-60.546875,-1000.0,-1000.0,-44.43359375,1.0,0.0,1.0,0.0,5.m4v,2.0
2024-02-27 10:37:35.100219,1709026655.1002183,-45.41015625,-939.94140625,-887.20703125,-33.203125,1.0,0.0,1.0,0.0,5.m4v,2.0
2024-02-27 10:37:35.104127,1709026655.1041267,-37.109375,-1000.0,-559.08203125,-28.3203125,1.0,0.0,1.0,0.0,5.m4v,2.0
2024-02-27 10:37:35.108032,1709026655.1080322,-37.59765625,-1000.0,-524.90234375,-24.4140625,1.0,0.0,1.0,0.0,5.m4v,2.0
2024-02-27 10:37:35.111938,1709026655.1119375,-33.69140625,-1000.0,-675.29296875,-23.92578125,1.0,0.0,1.0,0.0,5.m4v,2.0
2024-02-27 10:37:35.115843,1709026655.115843,-24.90234375,-937.5,-717.28515625,-28.3203125,1.0,0.0,1.0,0.0,5.m4v,2.0
2024-02-27 10:37:35.119748,1709026655.1197484,-31.25,-1000.0,-687.5,-31.73828125,1.0,0.0,1.0,0.0,5.m4v,2.0
2024-02-27 10:37:35.123654,1709026655.1236537,-34.66796875,-387.6953125,-87.40234375,-20.01953125,1.0,0.0,1.0,0.0,5.m4v,2.0
2024-02-27 10:37:35.127559,1709026655.1275592,-28.3203125,940.91796875,514.6484375,-0.48828125,1.0,0.0,1.0,0.0,5.m4v,2.0
2024-02-27 10:37:35.131464,1709026655.1314645,-35.15625,989.74609375,123.046875,-17.08984375,1.0,0.0,1.0,0.0,5.m4v,2.0
2024-02-27 10:37:35.135370,1709026655.13537,-46.875,928.22265625,-513.671875,-37.59765625,1.0,0.0,1.0,0.0,5.m4v,2.0
2024-02-27 10:37:35.139275,1709026655.1392753,-49.8046875,981.4453125,-562.5,-33.69140625,1.0,0.0,1.0,0.0,5.m4v,2.0
2024-02-27 10:37:35.143181,1709026655.1431808,-39.55078125,969.7265625,-314.453125,-23.4375,1.0,0.0,1.0,0.0,5.m4v,2.0
2024-02-27 10:37:35.147086,1709026655.147086,-35.15625,969.7265625,-226.5625,-25.390625,1.0,0.0,1.0,0.0,5.m4v,2.0
2024-02-27 10:37:35.150994,1709026655.1509936,-40.0390625,969.7265625,-358.3984375,-39.0625,1.0,0.0,1.0,0.0,5.m4v,2.0
2024-02-27 10:37:35.154899,1709026655.1548991,-35.64453125,969.7265625,-474.12109375,-35.15625,1.0,0.0,1.0,0.0,5.m4v,2.0
2024-02-27 10:37:35.158804,1709026655.1588044,-32.71484375,969.7265625,-461.9140625,-29.78515625,1.0,0.0,1.0,0.0,5.m4v,2.0
2024-02-27 10:37:35.162710,1709026655.16271,-35.15625,969.7265625,-257.8125,-30.76171875,1.0,0.0,1.0,0.0,5.m4v,2.0
2024-02-27 10:37:35.166615,1709026655.1666152,-29.296875,969.7265625,-137.6953125,-25.87890625,1.0,0.0,1.0,0.0,5.m4v,2.0
2024-02-27 10:37:35.170521,1709026655.1705203,-22.94921875,986.328125,26.3671875,-14.6484375,1.0,0.0,1.0,0.0,5.m4v,2.0
2024-02-27 10:37:35.174426,1709026655.174426,-26.3671875,909.1796875,-39.0625,-21.97265625,1.0,0.0,1.0,0.0,5.m4v,2.0
2024-02-27 10:37:35.178331,1709026655.1783314,-29.296875,999.51171875,-354.00390625,-20.5078125,1.0,0.0,1.0,0.0,5.m4v,2.0
2024-02-27 10:37:35.182237,1709026655.182237,-28.80859375,821.2890625,-229.00390625,-19.04296875,1.0,0.0,1.0,0.0,5.m4v,2.0
2024-02-27 10:37:35.186142,1709026655.1861422,-32.2265625,-641.11328125,-217.7734375,-31.25,1.0,0.0,1.0,0.0,5.m4v,2.0
2024-02-27 10:37:35.190048,1709026655.1900475,-21.97265625,-1000.0,-194.3359375,-23.92578125,1.0,0.0,1.0,0.0,5.m4v,2.0
2024-02-27 10:37:35.193953,1709026655.193953,-27.83203125,-927.24609375,-355.95703125,-35.15625,1.0,0.0,1.0,0.0,5.m4v,2.0
2024-02-27 10:37:35.197865,1709026655.1978643,-43.9453125,-1000.0,-616.69921875,-45.8984375,1.0,0.0,1.0,0.0,5.m4v,2.0
2024-02-27 10:37:35.201770,1709026655.20177,-35.64453125,-1000.0,-458.984375,-28.80859375,1.0,0.0,1.0,0.0,5.m4v,2.0
2024-02-27 10:37:35.205675,1709026655.2056754,-29.78515625,-1000.0,-280.2734375,-24.90234375,1.0,0.0,1.0,0.0,5.m4v,2.0
2024-02-27 10:37:35.209581,1709026655.209581,-33.69140625,-1000.0,-386.23046875,-32.2265625,1.0,0.0,1.0,0.0,5.m4v,2.0
2024-02-27 10:37:35.213486,1709026655.2134862,-24.4140625,-1000.0,-545.8984375,-30.2734375,1.0,0.0,1.0,0.0,5.m4v,2.0
2024-02-27 10:37:35.217391,1709026655.2173915,-31.73828125,-1000.0,-339.35546875,-25.390625,1.0,0.0,1.0,0.0,5.m4v,2.0
2024-02-27 10:37:35.221297,1709026655.221297,-42.96875,-1000.0,52.24609375,-28.3203125,1.0,0.0,1.0,0.0,5.m4v,2.0
2024-02-27 10:37:35.225202,1709026655.2252023,-31.25,-1000.0,148.4375,-34.66796875,1.0,0.0,1.0,0.0,5.m4v,2.0
2024-02-27 10:37:35.229108,1709026655.229108,-28.80859375,-1000.0,-33.203125,-27.83203125,1.0,0.0,1.0,0.0,5.m4v,2.0
2024-02-27 10:37:35.233013,1709026655.2330132,-33.203125,-1000.0,-270.01953125,-26.85546875,1.0,0.0,1.0,0.0,5.m4v,2.0
2024-02-27 10:37:35.236919,1709026655.2369187,-30.2734375,-953.125,-312.01171875,-35.15625,1.0,0.0,1.0,0.0,5.m4v,2.0
2024-02-27 10:37:35.240824,1709026655.240824,-29.296875,-1000.0,-129.8828125,-33.69140625,1.0,0.0,1.0,0.0,5.m4v,2.0
2024-02-27 10:37:35.244736,1709026655.2447357,-24.90234375,-965.8203125,70.3125,-32.71484375,1.0,0.0,1.0,0.0,5.m4v,2.0
2024-02-27 10:37:35.248641,1709026655.248641,-13.18359375,435.546875,204.1015625,-19.53125,1.0,0.0,1.0,0.0,5.m4v,2.0
2024-02-27 10:37:35.252546,1709026655.2525463,-7.32421875,999.51171875,30.2734375,-24.4140625,1.0,0.0,1.0,0.0,5.m4v,2.0
2024-02-27 10:37:35.256452,1709026655.2564518,-13.671875,896.484375,-196.77734375,-39.55078125,1.0,0.0,1.0,0.0,5.m4v,2.0
2024-02-27 10:37:35.260357,1709026655.2603571,-21.97265625,981.4453125,3.41796875,-33.69140625,1.0,0.0,1.0,0.0,5.m4v,2.0
2024-02-27 10:37:35.264263,1709026655.264263,-12.20703125,969.7265625,523.92578125,-28.80859375,1.0,0.0,1.0,0.0,5.m4v,2.0
2024-02-27 10:37:35.268168,1709026655.268168,-10.25390625,969.7265625,656.73828125,-34.66796875,1.0,0.0,1.0,0.0,5.m4v,2.0
2024-02-27 10:37:35.272074,1709026655.2720735,-28.3203125,969.7265625,125.9765625,-39.55078125,1.0,0.0,1.0,0.0,5.m4v,2.0
2024-02-27 10:37:35.275979,1709026655.2759788,-36.1328125,969.7265625,-250.9765625,-43.45703125,1.0,0.0,1.0,0.0,5.m4v,2.0
2024-02-27 10:37:35.279884,1709026655.2798843,-42.96875,969.7265625,-195.80078125,-44.921875,1.0,0.0,1.0,0.0,5.m4v,2.0
2024-02-27 10:37:35.283790,1709026655.2837896,-39.55078125,969.7265625,86.9140625,-30.76171875,1.0,0.0,1.0,0.0,5.m4v,2.0
2024-02-27 10:37:35.287695,1709026655.2876952,-31.25,969.7265625,74.21875,-30.76171875,1.0,0.0,1.0,0.0,5.m4v,2.0
2024-02-27 10:37:35.291605,1709026655.2916057,-34.1796875,969.7265625,-66.89453125,-41.9921875,1.0,0.0,1.0,0.0,5.m4v,2.0
2024-02-27 10:37:35.295511,1709026655.2955108,-34.66796875,969.7265625,-219.23828125,-38.57421875,1.0,0.0,1.0,0.0,5.m4v,2.0
2024-02-27 10:37:35.299416,1709026655.2994163,-32.2265625,969.7265625,-121.58203125,-35.64453125,1.0,0.0,1.0,0.0,5.m4v,2.0
2024-02-27 10:37:35.303322,1709026655.3033216,-34.1796875,972.65625,134.765625,-33.203125,1.0,0.0,1.0,0.0,5.m4v,2.0
2024-02-27 10:37:35.307227,1709026655.3072271,-27.34375,965.8203125,241.2109375,-31.25,1.0,0.0,1.0,0.0,5.m4v,2.0
2024-02-27 10:37:35.311132,1709026655.3111324,-27.34375,919.921875,413.0859375,-35.64453125,1.0,0.0,1.0,0.0,5.m4v,2.0
2024-02-27 10:37:35.315038,1709026655.3150375,-38.57421875,999.51171875,297.36328125,-40.52734375,1.0,0.0,1.0,0.0,5.m4v,2.0
2024-02-27 10:37:35.318943,1709026655.3189433,-41.9921875,176.7578125,-47.36328125,-32.2265625,1.0,0.0,1.0,0.0,5.m4v,2.0
2024-02-27 10:37:35.322849,1709026655.3228486,-44.921875,-1000.0,-85.44921875,-28.80859375,1.0,0.0,1.0,0.0,5.m4v,2.0
2024-02-27 10:37:35.326754,1709026655.326754,-39.0625,-993.1640625,-99.12109375,-38.57421875,1.0,0.0,1.0,0.0,5.m4v,2.0
2024-02-27 10:37:35.330659,1709026655.3306594,-33.69140625,-971.6796875,-357.421875,-45.41015625,1.0,0.0,1.0,0.0,5.m4v,2.0
2024-02-27 10:37:35.334565,1709026655.334565,-39.0625,-1000.0,-435.546875,-32.71484375,1.0,0.0,1.0,0.0,5.m4v,2.0
2024-02-27 10:37:35.338474,1709026655.3384745,-43.9453125,-1000.0,-360.83984375,-26.3671875,1.0,0.0,1.0,0.0,5.m4v,2.0
2024-02-27 10:37:35.342380,1709026655.3423798,-34.66796875,-1000.0,-107.91015625,-24.4140625,1.0,0.0,1.0,0.0,5.m4v,2.0
2024-02-27 10:37:35.346285,1709026655.346285,-31.73828125,-1000.0,111.81640625,-20.01953125,1.0,0.0,1.0,0.0,5.m4v,2.0
2024-02-27 10:37:35.350191,1709026655.3501906,-34.66796875,-931.640625,-23.92578125,-27.83203125,1.0,0.0,1.0,0.0,5.m4v,2.0
2024-02-27 10:37:35.354096,1709026655.354096,-35.15625,-1000.0,-342.28515625,-32.2265625,1.0,0.0,1.0,0.0,5.m4v,2.0
2024-02-27 10:37:35.358001,1709026655.3580012,-38.0859375,-746.58203125,-85.9375,-28.3203125,1.0,0.0,1.0,0.0,5.m4v,2.0
2024-02-27 10:37:35.361907,1709026655.3619068,-30.76171875,729.4921875,556.15234375,-18.06640625,1.0,0.0,1.0,0.0,5.m4v,2.0
2024-02-27 10:37:35.365812,1709026655.365812,-18.5546875,999.51171875,513.671875,-18.06640625,1.0,0.0,1.0,0.0,5.m4v,2.0
2024-02-27 10:37:35.369718,1709026655.3697176,-19.53125,901.85546875,489.2578125,-26.3671875,1.0,0.0,1.0,0.0,5.m4v,2.0
2024-02-27 10:37:35.373623,1709026655.373623,-33.203125,987.3046875,103.02734375,-29.78515625,1.0,0.0,1.0,0.0,5.m4v,2.0
2024-02-27 10:37:35.377528,1709026655.3775284,-37.59765625,969.7265625,-203.125,-24.4140625,1.0,0.0,1.0,0.0,5.m4v,2.0
2024-02-27 10:37:35.381434,1709026655.3814335,-33.69140625,969.7265625,86.9140625,-29.78515625,1.0,0.0,1.0,0.0,5.m4v,2.0
2024-02-27 10:37:35.385343,1709026655.3853433,-35.15625,969.7265625,272.4609375,-28.80859375,1.0,0.0,1.0,0.0,5.m4v,2.0
2024-02-27 10:37:35.389249,1709026655.3892486,-30.2734375,969.7265625,206.54296875,-35.64453125,1.0,0.0,1.0,0.0,5.m4v,2.0
2024-02-27 10:37:35.393154,1709026655.393154,-30.2734375,969.7265625,-64.94140625,-54.6875,1.0,0.0,1.0,0.0,5.m4v,2.0
2024-02-27 10:37:35.397059,1709026655.3970594,-41.9921875,969.7265625,-118.65234375,-44.921875,1.0,0.0,1.0,0.0,5.m4v,2.0
2024-02-27 10:37:35.400965,1709026655.400965,-37.59765625,970.21484375,109.375,-26.3671875,1.0,0.0,1.0,0.0,5.m4v,2.0
2024-02-27 10:37:35.404870,1709026655.4048705,-29.78515625,983.88671875,410.15625,-27.34375,1.0,0.0,1.0,0.0,5.m4v,2.0
2024-02-27 10:37:35.807164,1709026655.8071642,-31.73828125,-931.15234375,-152.34375,-30.2734375,1.0,0.0,1.0,0.0,5.m4v,2.0
2024-02-27 10:37:35.811069,1709026655.8110695,-33.203125,-1000.0,-406.73828125,-30.76171875,1.0,0.0,1.0,0.0,5.m4v,2.0
2024-02-27 10:37:35.814975,1709026655.814975,-29.296875,-1000.0,-509.27734375,-21.484375,1.0,0.0,1.0,0.0,5.m4v,2.0
2024-02-27 10:37:35.818880,1709026655.8188803,-28.80859375,-938.4765625,-375.48828125,-26.85546875,1.0,0.0,1.0,0.0,5.m4v,2.0
2024-02-27 10:37:35.822786,1709026655.822786,-32.2265625,-1000.0,-95.703125,-40.0390625,1.0,0.0,1.0,0.0,5.m4v,2.0
2024-02-27 10:37:35.826691,1709026655.8266912,-33.69140625,-448.73046875,251.46484375,-39.55078125,1.0,0.0,1.0,0.0,5.m4v,2.0
2024-02-27 10:37:35.830597,1709026655.8305967,-22.94921875,898.4375,275.87890625,-33.69140625,1.0,0.0,1.0,0.0,5.m4v,2.0
2024-02-27 10:37:35.834502,1709026655.834502,-30.2734375,999.51171875,-125.48828125,-37.59765625,1.0,0.0,1.0,0.0,5.m4v,2.0
2024-02-27 10:37:35.838408,1709026655.8384075,-44.921875,923.33984375,-362.3046875,-44.43359375,1.0,0.0,1.0,0.0,5.m4v,2.0
2024-02-27 10:37:35.842313,1709026655.8423128,-39.0625,982.91015625,-133.30078125,-36.62109375,1.0,0.0,1.0,0.0,5.m4v,2.0
2024-02-27 10:37:35.846218,1709026655.8462183,-26.85546875,969.7265625,138.671875,-17.578125,1.0,0.0,1.0,0.0,5.m4v,2.0
2024-02-27 10:37:35.850124,1709026655.8501236,-29.78515625,969.7265625,226.5625,-23.92578125,1.0,0.0,1.0,0.0,5.m4v,2.0
2024-02-27 10:37:35.854032,1709026655.8540325,-48.33984375,969.7265625,-129.8828125,-42.48046875,1.0,0.0,1.0,0.0,5.m4v,2.0
2024-02-27 10:37:35.857938,1709026655.8579378,-54.19921875,969.7265625,-323.73046875,-41.50390625,1.0,0.0,1.0,0.0,5.m4v,2.0
2024-02-27 10:37:35.861843,1709026655.861843,-47.8515625,969.7265625,-52.734375,-31.25,1.0,0.0,1.0,0.0,5.m4v,2.0
2024-02-27 10:37:35.865749,1709026655.8657486,-44.921875,978.515625,127.9296875,-26.85546875,1.0,0.0,1.0,0.0,5.m4v,2.0
2024-02-27 10:37:35.869654,1709026655.869654,-36.1328125,938.4765625,-130.859375,-34.66796875,1.0,0.0,1.0,0.0,5.m4v,2.0
2024-02-27 10:37:35.873559,1709026655.8735597,-32.2265625,964.35546875,-100.5859375,-34.66796875,1.0,0.0,1.0,0.0,5.m4v,2.0
2024-02-27 10:37:35.877465,1709026655.8774648,-45.41015625,999.51171875,75.68359375,-36.62109375,1.0,0.0,1.0,0.0,5.m4v,2.0
2024-02-27 10:37:35.881370,1709026655.8813703,-46.875,-254.39453125,-64.453125,-39.0625,1.0,0.0,1.0,0.0,5.m4v,2.0
2024-02-27 10:37:35.885276,1709026655.8852756,-47.8515625,-1000.0,-187.5,-36.1328125,1.0,0.0,1.0,0.0,5.m4v,2.0
2024-02-27 10:37:35.889181,1709026655.889181,-42.96875,-940.91796875,-386.71875,-32.2265625,1.0,0.0,1.0,0.0,5.m4v,2.0
2024-02-27 10:37:35.893086,1709026655.8930864,-46.875,-1000.0,-562.98828125,-30.76171875,1.0,0.0,1.0,0.0,5.m4v,2.0
2024-02-27 10:37:35.896992,1709026655.8969915,-50.78125,-1000.0,-501.953125,-25.87890625,1.0,0.0,1.0,0.0,5.m4v,2.0
2024-02-27 10:37:35.900899,1709026655.9008994,-36.62109375,-1000.0,-250.9765625,-20.99609375,1.0,0.0,1.0,0.0,5.m4v,2.0
2024-02-27 10:37:35.904805,1709026655.9048047,-32.71484375,-1000.0,-56.15234375,-27.83203125,1.0,0.0,1.0,0.0,5.m4v,2.0
2024-02-27 10:37:35.908710,1709026655.9087102,-32.2265625,-1000.0,-0.9765625,-39.55078125,1.0,0.0,1.0,0.0,5.m4v,2.0
2024-02-27 10:37:35.912616,1709026655.9126155,-32.71484375,-930.6640625,-154.296875,-50.29296875,1.0,0.0,1.0,0.0,5.m4v,2.0
2024-02-27 10:37:35.916521,1709026655.916521,-41.9921875,-1000.0,-524.90234375,-51.7578125,1.0,0.0,1.0,0.0,5.m4v,2.0
2024-02-27 10:37:35.920426,1709026655.9204264,-29.296875,-632.32421875,-136.71875,-37.109375,1.0,0.0,1.0,0.0,5.m4v,2.0
2024-02-27 10:37:35.924332,1709026655.9243317,-9.27734375,812.5,620.1171875,-23.92578125,1.0,0.0,1.0,0.0,5.m4v,2.0
2024-02-27 10:37:35.928237,1709026655.9282372,-13.18359375,999.51171875,378.90625,-30.2734375,1.0,0.0,1.0,0.0,5.m4v,2.0
2024-02-27 10:37:35.932142,1709026655.9321425,-32.71484375,909.66796875,-196.77734375,-40.52734375,1.0,0.0,1.0,0.0,5.m4v,2.0
2024-02-27 10:37:35.936048,1709026655.936048,-43.45703125,985.83984375,-414.55078125,-52.734375,1.0,0.0,1.0,0.0,5.m4v,2.0
2024-02-27 10:37:35.939953,1709026655.939953,-37.59765625,969.7265625,-241.2109375,-45.41015625,1.0,0.0,1.0,0.0,5.m4v,2.0
2024-02-27 10:37:35.943859,1709026655.9438589,-34.66796875,969.7265625,166.50390625,-34.66796875,1.0,0.0,1.0,0.0,5.m4v,2.0
2024-02-27 10:37:35.947770,1709026655.94777,-33.203125,970.21484375,153.3203125,-36.1328125,1.0,0.0,1.0,0.0,5.m4v,2.0
2024-02-27 10:37:35.951675,1709026655.9516754,-33.69140625,969.7265625,-165.0390625,-41.50390625,1.0,0.0,1.0,0.0,5.m4v,2.0
2024-02-27 10:37:35.955581,1709026655.955581,-37.109375,969.7265625,-299.8046875,-43.9453125,1.0,0.0,1.0,0.0,5.m4v,2.0
2024-02-27 10:37:35.959486,1709026655.9594862,-34.1796875,969.7265625,-248.046875,-37.109375,1.0,0.0,1.0,0.0,5.m4v,2.0
2024-02-27 10:37:35.963392,1709026655.9633915,-34.66796875,970.21484375,-11.23046875,-29.78515625,1.0,0.0,1.0,0.0,5.m4v,2.0
2024-02-27 10:37:35.967297,1709026655.967297,-36.1328125,983.3984375,350.5859375,-28.80859375,1.0,0.0,1.0,0.0,5.m4v,2.0
2024-02-27 10:37:35.971202,1709026655.9712024,-31.25,900.87890625,395.5078125,-14.6484375,1.0,0.0,1.0,0.0,5.m4v,2.0
2024-02-27 10:37:35.975108,1709026655.975108,-31.25,999.51171875,214.35546875,-24.4140625,1.0,0.0,1.0,0.0,5.m4v,2.0
2024-02-27 10:37:35.979013,1709026655.9790132,-44.43359375,577.1484375,-98.6328125,-40.0390625,1.0,0.0,1.0,0.0,5.m4v,2.0
2024-02-27 10:37:35.982919,1709026655.9829187,-46.38671875,-854.4921875,-309.08203125,-31.25,1.0,0.0,1.0,0.0,5.m4v,2.0
2024-02-27 10:37:35.986824,1709026655.986824,-35.15625,-1000.0,-384.765625,-39.0625,1.0,0.0,1.0,0.0,5.m4v,2.0
2024-02-27 10:37:35.990730,1709026655.9907296,-36.62109375,-941.89453125,-516.11328125,-45.8984375,1.0,0.0,1.0,0.0,5.m4v,2.0
2024-02-27 10:37:35.994641,1709026655.9946408,-38.0859375,-1000.0,-616.2109375,-41.015625,1.0,0.0,1.0,0.0,5.m4v,2.0
2024-02-27 10:37:35.998546,1709026655.998546,-31.73828125,-1000.0,-536.1328125,-37.59765625,1.0,0.0,1.0,0.0,5.m4v,2.0
2024-02-27 10:37:36.002452,1709026656.0024517,-30.2734375,-1000.0,-203.125,-33.69140625,1.0,0.0,1.0,0.0,5.m4v,2.0
2024-02-27 10:37:36.006357,1709026656.006357,-34.66796875,-929.6875,-37.109375,-38.0859375,1.0,0.0,1.0,0.0,5.m4v,2.0
2024-02-27 10:37:36.010262,1709026656.0102625,-33.203125,-1000.0,-345.21484375,-41.50390625,1.0,0.0,1.0,0.0,5.m4v,2.0
2024-02-27 10:37:36.014168,1709026656.0141678,-28.3203125,-695.3125,-195.80078125,-36.1328125,1.0,0.0,1.0,0.0,5.m4v,2.0
2024-02-27 10:37:36.018073,1709026656.018073,-26.85546875,774.90234375,344.23828125,-26.85546875,1.0,0.0,1.0,0.0,5.m4v,2.0
2024-02-27 10:37:36.021979,1709026656.0219786,-25.390625,999.51171875,307.6171875,-29.296875,1.0,0.0,1.0,0.0,5.m4v,2.0
2024-02-27 10:37:36.025884,1709026656.025884,-28.3203125,905.2734375,214.84375,-31.73828125,1.0,0.0,1.0,0.0,5.m4v,2.0
2024-02-27 10:37:36.029789,1709026656.0297894,-30.2734375,986.81640625,309.5703125,-25.390625,1.0,0.0,1.0,0.0,5.m4v,2.0
2024-02-27 10:37:36.033695,1709026656.0336947,-35.15625,969.7265625,-29.296875,-25.87890625,1.0,0.0,1.0,0.0,5.m4v,2.0
2024-02-27 10:37:36.037600,1709026656.0376005,-41.015625,969.7265625,-336.42578125,-38.57421875,1.0,0.0,1.0,0.0,5.m4v,2.0
2024-02-27 10:37:36.041511,1709026656.0415106,-36.62109375,969.7265625,-110.3515625,-32.2265625,1.0,0.0,1.0,0.0,5.m4v,2.0
2024-02-27 10:37:36.045416,1709026656.045416,-29.296875,969.7265625,180.17578125,-30.76171875,1.0,0.0,1.0,0.0,5.m4v,2.0
2024-02-27 10:37:36.049321,1709026656.0493214,-27.83203125,969.7265625,115.72265625,-35.15625,1.0,0.0,1.0,0.0,5.m4v,2.0
2024-02-27 10:37:36.053227,1709026656.0532267,-35.64453125,969.7265625,-167.96875,-37.109375,1.0,0.0,1.0,0.0,5.m4v,2.0
2024-02-27 10:37:36.057132,1709026656.0571322,-46.38671875,970.21484375,-323.73046875,-37.59765625,1.0,0.0,1.0,0.0,5.m4v,2.0
2024-02-27 10:37:36.061038,1709026656.0610375,-28.3203125,985.3515625,306.15234375,-22.94921875,1.0,0.0,1.0,0.0,5.m4v,2.0
2024-02-27 10:37:36.064943,1709026656.064943,-10.7421875,915.52734375,679.19921875,-14.6484375,1.0,0.0,1.0,0.0,5.m4v,2.0
2024-02-27 10:37:36.068848,1709026656.0688484,-33.69140625,999.51171875,170.8984375,-37.59765625,1.0,0.0,1.0,0.0,5.m4v,2.0
2024-02-27 10:37:36.072754,1709026656.072754,-39.0625,889.6484375,-187.5,-51.7578125,1.0,0.0,1.0,0.0,5.m4v,2.0
2024-02-27 10:37:36.076659,1709026656.0766592,-46.875,-549.8046875,-421.38671875,-46.875,1.0,0.0,1.0,0.0,5.m4v,2.0
2024-02-27 10:37:36.080564,1709026656.0805645,-52.734375,-1000.0,-391.11328125,-44.43359375,1.0,0.0,1.0,0.0,5.m4v,2.0
2024-02-27 10:37:36.084470,1709026656.08447,-39.55078125,-925.78125,-163.0859375,-38.0859375,1.0,0.0,1.0,0.0,5.m4v,2.0
2024-02-27 10:37:36.088380,1709026656.0883803,-30.76171875,-1000.0,-5.859375,-33.203125,1.0,0.0,1.0,0.0,5.m4v,2.0
2024-02-27 10:37:36.092286,1709026656.0922856,-31.73828125,-1000.0,-63.4765625,-36.62109375,1.0,0.0,1.0,0.0,5.m4v,2.0
2024-02-27 10:37:36.096191,1709026656.0961912,-36.62109375,-1000.0,-390.625,-32.2265625,1.0,0.0,1.0,0.0,5.m4v,2.0
2024-02-27 10:37:36.100096,1709026656.1000965,-29.78515625,-936.5234375,-341.30859375,-25.87890625,1.0,0.0,1.0,0.0,5.m4v,2.0
2024-02-27 10:37:36.104002,1709026656.104002,-22.94921875,-1000.0,-10.25390625,-35.15625,1.0,0.0,1.0,0.0,5.m4v,2.0
2024-02-27 10:37:36.107907,1709026656.1079073,-19.04296875,-804.19921875,204.58984375,-42.48046875,1.0,0.0,1.0,0.0,5.m4v,2.0
2024-02-27 10:37:36.111813,1709026656.1118128,-6.8359375,661.62109375,369.140625,-41.9921875,1.0,0.0,1.0,0.0,5.m4v,2.0
2024-02-27 10:37:36.115718,1709026656.115718,-11.23046875,999.51171875,127.9296875,-44.43359375,1.0,0.0,1.0,0.0,5.m4v,2.0
2024-02-27 10:37:36.119624,1709026656.1196237,-27.83203125,899.4140625,-148.92578125,-46.38671875,1.0,0.0,1.0,0.0,5.m4v,2.0
2024-02-27 10:37:36.123529,1709026656.123529,-19.53125,986.81640625,7.8125,-45.8984375,1.0,0.0,1.0,0.0,5.m4v,2.0
2024-02-27 10:37:36.127434,1709026656.1274345,-12.6953125,969.7265625,51.26953125,-47.8515625,1.0,0.0,1.0,0.0,5.m4v,2.0
2024-02-27 10:37:36.131340,1709026656.1313398,-18.06640625,969.7265625,-175.29296875,-40.0390625,1.0,0.0,1.0,0.0,5.m4v,2.0
2024-02-27 10:37:36.135249,1709026656.135249,-32.2265625,970.21484375,-445.3125,-36.62109375,1.0,0.0,1.0,0.0,5.m4v,2.0
2024-02-27 10:37:36.139154,1709026656.1391542,-42.96875,969.7265625,-305.17578125,-37.59765625,1.0,0.0,1.0,0.0,5.m4v,2.0
2024-02-27 10:37:36.143059,1709026656.1430595,-41.50390625,969.7265625,134.765625,-28.80859375,1.0,0.0,1.0,0.0,5.m4v,2.0
2024-02-27 10:37:36.146965,1709026656.146965,-36.1328125,969.7265625,146.97265625,-37.59765625,1.0,0.0,1.0,0.0,5.m4v,2.0
2024-02-27 10:37:36.150870,1709026656.1508703,-35.15625,984.375,32.2265625,-44.921875,1.0,0.0,1.0,0.0,5.m4v,2.0
2024-02-27 10:37:36.154776,1709026656.154776,-39.55078125,918.9453125,104.4921875,-39.0625,1.0,0.0,1.0,0.0,5.m4v,2.0
2024-02-27 10:37:36.158681,1709026656.1586812,-41.015625,999.51171875,244.62890625,-27.83203125,1.0,0.0,1.0,0.0,5.m4v,2.0
2024-02-27 10:37:36.162587,1709026656.1625867,-37.109375,909.66796875,248.046875,-24.90234375,1.0,0.0,1.0,0.0,5.m4v,2.0
2024-02-27 10:37:36.166492,1709026656.166492,-32.2265625,-514.6484375,-97.16796875,-54.6875,1.0,0.0,1.0,0.0,5.m4v,2.0
2024-02-27 10:37:36.170398,1709026656.1703975,-28.3203125,-1000.0,-503.90625,-69.82421875,1.0,0.0,1.0,0.0,5.m4v,2.0
2024-02-27 10:37:36.174303,1709026656.1743028,-25.87890625,-926.26953125,-615.234375,-58.59375,1.0,0.0,1.0,0.0,5.m4v,2.0
2024-02-27 10:37:36.178208,1709026656.178208,-29.296875,-1000.0,-573.73046875,-60.05859375,1.0,0.0,1.0,0.0,5.m4v,2.0
2024-02-27 10:37:36.182117,1709026656.182117,-24.4140625,-1000.0,-280.2734375,-49.8046875,1.0,0.0,1.0,0.0,5.m4v,2.0
2024-02-27 10:37:36.186022,1709026656.1860223,-15.13671875,-1000.0,-70.80078125,-39.55078125,1.0,0.0,1.0,0.0,5.m4v,2.0
2024-02-27 10:37:36.189928,1709026656.1899276,-19.04296875,-1000.0,-233.3984375,-42.96875,1.0,0.0,1.0,0.0,5.m4v,2.0
2024-02-27 10:37:36.193833,1709026656.193833,-20.5078125,-929.6875,-539.55078125,-37.59765625,1.0,0.0,1.0,0.0,5.m4v,2.0
2024-02-27 10:37:36.197738,1709026656.1977384,-20.99609375,-1000.0,-546.38671875,-26.85546875,1.0,0.0,1.0,0.0,5.m4v,2.0
2024-02-27 10:37:36.201644,1709026656.201644,-16.6015625,-666.9921875,68.84765625,-12.6953125,1.0,0.0,1.0,0.0,5.m4v,2.0
2024-02-27 10:37:36.205549,1709026656.2055492,-6.34765625,795.41015625,672.36328125,-7.32421875,1.0,0.0,1.0,0.0,5.m4v,2.0
2024-02-27 10:37:36.209455,1709026656.2094548,-19.53125,999.51171875,444.3359375,-17.08984375,1.0,0.0,1.0,0.0,5.m4v,2.0
2024-02-27 10:37:36.213360,1709026656.21336,-30.76171875,907.2265625,0.48828125,-21.484375,1.0,0.0,1.0,0.0,5.m4v,2.0
2024-02-27 10:37:36.217266,1709026656.2172656,-35.15625,986.328125,-171.875,-21.97265625,1.0,0.0,1.0,0.0,5.m4v,2.0
2024-02-27 10:37:36.221171,1709026656.221171,-36.62109375,969.7265625,10.25390625,-9.765625,1.0,0.0,1.0,0.0,5.m4v,2.0
2024-02-27 10:37:36.225076,1709026656.2250764,-37.59765625,969.7265625,157.2265625,-12.6953125,1.0,0.0,1.0,0.0,5.m4v,2.0
2024-02-27 10:37:36.228985,1709026656.2289846,-40.0390625,969.7265625,-139.16015625,-33.203125,1.0,0.0,1.0,0.0,5.m4v,2.0
2024-02-27 10:37:36.232890,1709026656.23289,-45.8984375,969.7265625,-346.6796875,-46.38671875,1.0,0.0,1.0,0.0,5.m4v,2.0
2024-02-27 10:37:36.236795,1709026656.2367954,-51.7578125,969.7265625,-305.6640625,-47.8515625,1.0,0.0,1.0,0.0,5.m4v,2.0
2024-02-27 10:37:36.240701,1709026656.2407007,-46.875,982.421875,-175.29296875,-37.59765625,1.0,0.0,1.0,0.0,5.m4v,2.0
2024-02-27 10:37:36.244606,1709026656.2446065,-41.50390625,925.29296875,-5.859375,-25.87890625,1.0,0.0,1.0,0.0,5.m4v,2.0
2024-02-27 10:37:36.248512,1709026656.2485116,-38.0859375,992.1875,198.2421875,-39.0625,1.0,0.0,1.0,0.0,5.m4v,2.0
2024-02-27 10:37:36.252417,1709026656.2524168,-37.59765625,949.21875,169.43359375,-46.875,1.0,0.0,1.0,0.0,5.m4v,2.0
2024-02-27 10:37:36.256322,1709026656.2563224,-50.78125,-436.5234375,-357.91015625,-42.96875,1.0,0.0,1.0,0.0,5.m4v,2.0
2024-02-27 10:37:36.260228,1709026656.2602277,-51.7578125,-1000.0,-452.63671875,-51.7578125,1.0,0.0,1.0,0.0,5.m4v,2.0
2024-02-27 10:37:36.264133,1709026656.2641332,-37.59765625,-927.734375,-250.48828125,-47.8515625,1.0,0.0,1.0,0.0,5.m4v,2.0
2024-02-27 10:37:36.268039,1709026656.2680385,-42.96875,-1000.0,-85.9375,-37.109375,1.0,0.0,1.0,0.0,5.m4v,2.0
2024-02-27 10:37:36.271944,1709026656.271944,-44.921875,-1000.0,-103.515625,-38.57421875,1.0,0.0,1.0,0.0,5.m4v,2.0
2024-02-27 10:37:36.275852,1709026656.275852,-52.734375,-1000.0,-533.69140625,-48.828125,1.0,0.0,1.0,0.0,5.m4v,2.0
2024-02-27 10:37:36.279757,1709026656.2797575,-61.03515625,-1000.0,-489.2578125,-46.38671875,1.0,0.0,1.0,0.0,5.m4v,2.0
2024-02-27 10:37:36.283663,1709026656.2836628,-48.828125,-1000.0,-129.8828125,-29.78515625,1.0,0.0,1.0,0.0,5.m4v,2.0
2024-02-27 10:37:36.287568,1709026656.2875683,-37.59765625,-929.19921875,-131.8359375,-33.69140625,1.0,0.0,1.0,0.0,5.m4v,2.0
2024-02-27 10:37:36.291474,1709026656.2914736,-42.96875,-1000.0,-339.84375,-37.59765625,1.0,0.0,1.0,0.0,5.m4v,2.0
2024-02-27 10:37:36.295379,1709026656.2953792,-36.62109375,-597.16796875,-227.5390625,-21.484375,1.0,0.0,1.0,0.0,5.m4v,2.0
2024-02-27 10:37:36.299284,1709026656.2992845,-24.90234375,841.796875,247.55859375,-32.2265625,1.0,0.0,1.0,0.0,5.m4v,2.0
2024-02-27 10:37:36.303190,1709026656.30319,-38.57421875,999.51171875,191.40625,-48.828125,1.0,0.0,1.0,0.0,5.m4v,2.0
2024-02-27 10:37:36.307095,1709026656.3070953,-40.0390625,912.109375,-57.12890625,-39.55078125,1.0,0.0,1.0,0.0,5.m4v,2.0
2024-02-27 10:37:36.311001,1709026656.3110006,-43.45703125,985.83984375,-232.91015625,-36.1328125,1.0,0.0,1.0,0.0,5.m4v,2.0
2024-02-27 10:37:36.314906,1709026656.314906,-45.41015625,969.7265625,-366.69921875,-38.0859375,1.0,0.0,1.0,0.0,5.m4v,2.0
2024-02-27 10:37:36.318811,1709026656.3188114,-40.0390625,969.7265625,-127.9296875,-35.64453125,1.0,0.0,1.0,0.0,5.m4v,2.0
2024-02-27 10:37:36.322723,1709026656.3227232,-35.15625,969.7265625,109.375,-34.1796875,1.0,0.0,1.0,0.0,5.m4v,2.0
2024-02-27 10:37:36.326629,1709026656.3266287,-28.80859375,969.7265625,79.1015625,-29.296875,1.0,0.0,1.0,0.0,5.m4v,2.0
2024-02-27 10:37:36.330534,1709026656.330534,-20.99609375,969.7265625,213.8671875,-25.87890625,1.0,0.0,1.0,0.0,5.m4v,2.0
2024-02-27 10:37:36.334439,1709026656.3344393,-26.85546875,969.7265625,-52.734375,-44.921875,1.0,0.0,1.0,0.0,5.m4v,2.0
2024-02-27 10:37:36.338345,1709026656.3383448,-41.015625,984.86328125,-216.796875,-49.8046875,1.0,0.0,1.0,0.0,5.m4v,2.0
2024-02-27 10:37:36.342250,1709026656.34225,-27.83203125,902.34375,411.1328125,-31.73828125,1.0,0.0,1.0,0.0,5.m4v,2.0
2024-02-27 10:37:36.346156,1709026656.3461556,-28.3203125,999.51171875,468.75,-45.41015625,1.0,0.0,1.0,0.0,5.m4v,2.0
2024-02-27 10:37:36.350061,1709026656.350061,-48.828125,651.3671875,-149.4140625,-60.05859375,1.0,0.0,1.0,0.0,5.m4v,2.0
2024-02-27 10:37:36.353966,1709026656.3539665,-58.10546875,-798.33984375,-571.77734375,-55.6640625,1.0,0.0,1.0,0.0,5.m4v,2.0
2024-02-27 10:37:36.357872,1709026656.3578718,-54.6875,-1000.0,-699.70703125,-44.43359375,1.0,0.0,1.0,0.0,5.m4v,2.0
2024-02-27 10:37:36.361777,1709026656.3617773,-42.48046875,-937.01171875,-479.98046875,-37.109375,1.0,0.0,1.0,0.0,5.m4v,2.0
2024-02-27 10:37:36.365683,1709026656.3656826,-37.109375,-1000.0,-271.97265625,-43.9453125,1.0,0.0,1.0,0.0,5.m4v,2.0
2024-02-27 10:37:36.369593,1709026656.3695934,-35.64453125,-1000.0,-389.6484375,-44.921875,1.0,0.0,1.0,0.0,5.m4v,2.0
2024-02-27 10:37:36.373499,1709026656.373499,-34.66796875,-1000.0,-532.2265625,-39.55078125,1.0,0.0,1.0,0.0,5.m4v,2.0
2024-02-27 10:37:36.377404,1709026656.3774042,-29.78515625,-1000.0,-488.76953125,-27.83203125,1.0,0.0,1.0,0.0,5.m4v,2.0
2024-02-27 10:37:36.381310,1709026656.3813095,-22.94921875,-930.17578125,-202.1484375,-27.34375,1.0,0.0,1.0,0.0,5.m4v,2.0
2024-02-27 10:37:36.385215,1709026656.385215,-19.04296875,-1000.0,3.90625,-34.66796875,1.0,0.0,1.0,0.0,5.m4v,2.0
2024-02-27 10:37:36.389120,1709026656.3891203,-20.99609375,-550.78125,88.37890625,-35.15625,1.0,0.0,1.0,0.0,5.m4v,2.0
2024-02-27 10:37:36.838288,1709026656.8382876,-46.38671875,-1000.0,-452.63671875,-40.52734375,1.0,0.0,1.0,0.0,5.m4v,2.0
2024-02-27 10:37:36.842193,1709026656.842193,-29.78515625,-1000.0,-39.0625,-21.484375,1.0,0.0,1.0,0.0,5.m4v,2.0
2024-02-27 10:37:36.846098,1709026656.8460984,-16.6015625,-1000.0,55.17578125,-19.04296875,1.0,0.0,1.0,0.0,5.m4v,2.0
2024-02-27 10:37:36.850004,1709026656.8500035,-26.3671875,-934.08203125,-79.1015625,-26.85546875,1.0,0.0,1.0,0.0,5.m4v,2.0
2024-02-27 10:37:36.853909,1709026656.853909,-38.0859375,-1000.0,-263.18359375,-14.16015625,1.0,0.0,1.0,0.0,5.m4v,2.0
2024-02-27 10:37:36.857815,1709026656.8578146,-33.69140625,-773.4375,-25.87890625,-37.109375,1.0,0.0,1.0,0.0,5.m4v,2.0
2024-02-27 10:37:36.861720,1709026656.8617198,-15.13671875,696.2890625,474.12109375,-46.38671875,1.0,0.0,1.0,0.0,5.m4v,2.0
2024-02-27 10:37:36.865625,1709026656.8656254,-20.99609375,999.51171875,340.8203125,-40.52734375,1.0,0.0,1.0,0.0,5.m4v,2.0
2024-02-27 10:37:36.869531,1709026656.869531,-27.83203125,900.87890625,201.171875,-40.0390625,1.0,0.0,1.0,0.0,5.m4v,2.0
2024-02-27 10:37:36.873436,1709026656.8734362,-23.4375,986.81640625,-14.16015625,-43.9453125,1.0,0.0,1.0,0.0,5.m4v,2.0
2024-02-27 10:37:36.877342,1709026656.8773415,-35.15625,969.7265625,-294.43359375,-51.26953125,1.0,0.0,1.0,0.0,5.m4v,2.0
2024-02-27 10:37:36.881247,1709026656.881247,-38.57421875,969.7265625,4.39453125,-49.31640625,1.0,0.0,1.0,0.0,5.m4v,2.0
2024-02-27 10:37:36.885156,1709026656.8851564,-28.3203125,969.7265625,235.3515625,-43.9453125,1.0,0.0,1.0,0.0,5.m4v,2.0
2024-02-27 10:37:36.889062,1709026656.889062,-30.76171875,969.7265625,43.45703125,-44.43359375,1.0,0.0,1.0,0.0,5.m4v,2.0
2024-02-27 10:37:36.892967,1709026656.8929672,-45.8984375,970.21484375,-239.74609375,-44.921875,1.0,0.0,1.0,0.0,5.m4v,2.0
2024-02-27 10:37:36.896873,1709026656.8968728,-37.59765625,970.21484375,-290.0390625,-40.0390625,1.0,0.0,1.0,0.0,5.m4v,2.0
2024-02-27 10:37:36.900778,1709026656.900778,-25.390625,986.328125,-125.48828125,-41.015625,1.0,0.0,1.0,0.0,5.m4v,2.0
2024-02-27 10:37:36.904684,1709026656.9046836,-32.2265625,911.1328125,296.875,-39.0625,1.0,0.0,1.0,0.0,5.m4v,2.0
2024-02-27 10:37:36.908589,1709026656.908589,-37.59765625,999.51171875,519.53125,-28.3203125,1.0,0.0,1.0,0.0,5.m4v,2.0
2024-02-27 10:37:36.912494,1709026656.9124942,-44.43359375,851.07421875,-28.3203125,-29.78515625,1.0,0.0,1.0,0.0,5.m4v,2.0
2024-02-27 10:37:36.916400,1709026656.9163997,-55.6640625,-608.88671875,-481.4453125,-44.43359375,1.0,0.0,1.0,0.0,5.m4v,2.0
2024-02-27 10:37:36.920305,1709026656.920305,-49.8046875,-1000.0,-331.54296875,-39.55078125,1.0,0.0,1.0,0.0,5.m4v,2.0
2024-02-27 10:37:36.924211,1709026656.9242103,-27.83203125,-925.78125,-59.08203125,-27.34375,1.0,0.0,1.0,0.0,5.m4v,2.0
2024-02-27 10:37:36.928116,1709026656.9281158,-24.4140625,-1000.0,-32.2265625,-21.484375,1.0,0.0,1.0,0.0,5.m4v,2.0
2024-02-27 10:37:36.932025,1709026656.9320252,-36.62109375,-1000.0,-92.7734375,-20.99609375,1.0,0.0,1.0,0.0,5.m4v,2.0
2024-02-27 10:37:36.935930,1709026656.9359305,-49.8046875,-1000.0,-332.51953125,-41.015625,1.0,0.0,1.0,0.0,5.m4v,2.0
2024-02-27 10:37:36.939836,1709026656.939836,-54.6875,-1000.0,-324.70703125,-52.24609375,1.0,0.0,1.0,0.0,5.m4v,2.0
2024-02-27 10:37:36.943741,1709026656.943741,-51.7578125,-931.15234375,-75.1953125,-43.45703125,1.0,0.0,1.0,0.0,5.m4v,2.0
2024-02-27 10:37:36.947647,1709026656.9476469,-39.0625,-1000.0,-102.5390625,-35.15625,1.0,0.0,1.0,0.0,5.m4v,2.0
2024-02-27 10:37:36.951552,1709026656.9515522,-31.25,-600.5859375,-58.10546875,-33.69140625,1.0,0.0,1.0,0.0,5.m4v,2.0
2024-02-27 10:37:36.955458,1709026656.9554577,-34.66796875,830.078125,357.91015625,-30.76171875,1.0,0.0,1.0,0.0,5.m4v,2.0
2024-02-27 10:37:36.959363,1709026656.959363,-39.0625,999.51171875,219.23828125,-30.2734375,1.0,0.0,1.0,0.0,5.m4v,2.0
2024-02-27 10:37:36.963269,1709026656.9632685,-37.59765625,912.109375,15.13671875,-32.71484375,1.0,0.0,1.0,0.0,5.m4v,2.0
2024-02-27 10:37:36.967174,1709026656.9671738,-38.57421875,985.3515625,-35.64453125,-26.3671875,1.0,0.0,1.0,0.0,5.m4v,2.0
2024-02-27 10:37:36.971079,1709026656.971079,-43.9453125,969.7265625,-311.03515625,-24.4140625,1.0,0.0,1.0,0.0,5.m4v,2.0
2024-02-27 10:37:36.974985,1709026656.9749846,-47.8515625,969.7265625,-324.70703125,-40.0390625,1.0,0.0,1.0,0.0,5.m4v,2.0
2024-02-27 10:37:36.978893,1709026656.9788926,-53.7109375,969.7265625,-67.3828125,-46.875,1.0,0.0,1.0,0.0,5.m4v,2.0
2024-02-27 10:37:36.982798,1709026656.982798,-50.29296875,969.7265625,211.9140625,-40.52734375,1.0,0.0,1.0,0.0,5.m4v,2.0
2024-02-27 10:37:36.986703,1709026656.9867034,-42.96875,969.7265625,182.12890625,-35.64453125,1.0,0.0,1.0,0.0,5.m4v,2.0
2024-02-27 10:37:36.990609,1709026656.9906087,-43.9453125,969.7265625,135.7421875,-39.55078125,1.0,0.0,1.0,0.0,5.m4v,2.0
2024-02-27 10:37:36.994514,1709026656.9945142,-52.24609375,986.328125,-46.38671875,-40.0390625,1.0,0.0,1.0,0.0,5.m4v,2.0
2024-02-27 10:37:36.998420,1709026656.9984195,-54.19921875,910.64453125,98.6328125,-44.921875,1.0,0.0,1.0,0.0,5.m4v,2.0
2024-02-27 10:37:37.002325,1709026657.0023248,-41.9921875,999.51171875,483.3984375,-49.8046875,1.0,0.0,1.0,0.0,5.m4v,2.0
2024-02-27 10:37:37.006230,1709026657.0062304,-42.48046875,842.28515625,200.68359375,-42.48046875,1.0,0.0,1.0,0.0,5.m4v,2.0
2024-02-27 10:37:37.010136,1709026657.0101357,-53.7109375,-619.140625,-329.1015625,-47.36328125,1.0,0.0,1.0,0.0,5.m4v,2.0
2024-02-27 10:37:37.014041,1709026657.0140412,-55.17578125,-1000.0,-592.28515625,-31.25,1.0,0.0,1.0,0.0,5.m4v,2.0
2024-02-27 10:37:37.017946,1709026657.0179465,-52.24609375,-926.26953125,-558.10546875,-17.578125,1.0,0.0,1.0,0.0,5.m4v,2.0
2024-02-27 10:37:37.021852,1709026657.021852,-36.62109375,-1000.0,-311.5234375,-38.0859375,1.0,0.0,1.0,0.0,5.m4v,2.0
2024-02-27 10:37:37.025759,1709026657.025759,-35.64453125,-1000.0,-182.6171875,-34.66796875,1.0,0.0,1.0,0.0,5.m4v,2.0
2024-02-27 10:37:37.029664,1709026657.0296645,-52.24609375,-1000.0,-388.671875,-28.3203125,1.0,0.0,1.0,0.0,5.m4v,2.0
2024-02-27 10:37:37.033570,1709026657.0335698,-45.8984375,-966.30859375,-541.9921875,-39.0625,1.0,0.0,1.0,0.0,5.m4v,2.0
2024-02-27 10:37:37.037475,1709026657.037475,-47.36328125,-999.0234375,-414.55078125,-45.41015625,1.0,0.0,1.0,0.0,5.m4v,2.0
2024-02-27 10:37:37.041381,1709026657.0413806,-47.36328125,-1000.0,-63.96484375,-36.1328125,1.0,0.0,1.0,0.0,5.m4v,2.0
2024-02-27 10:37:37.045286,1709026657.045286,-31.73828125,270.5078125,425.29296875,-28.3203125,1.0,0.0,1.0,0.0,5.m4v,2.0
2024-02-27 10:37:37.049191,1709026657.0491917,-30.2734375,999.51171875,595.703125,-26.85546875,1.0,0.0,1.0,0.0,5.m4v,2.0
2024-02-27 10:37:37.053097,1709026657.0530968,-41.9921875,903.80859375,140.13671875,-27.83203125,1.0,0.0,1.0,0.0,5.m4v,2.0
2024-02-27 10:37:37.057002,1709026657.0570023,-47.36328125,974.12109375,-231.4453125,-41.9921875,1.0,0.0,1.0,0.0,5.m4v,2.0
2024-02-27 10:37:37.060908,1709026657.0609076,-39.0625,970.21484375,-134.27734375,-42.48046875,1.0,0.0,1.0,0.0,5.m4v,2.0
2024-02-27 10:37:37.064813,1709026657.0648131,-32.2265625,969.7265625,-19.53125,-35.15625,1.0,0.0,1.0,0.0,5.m4v,2.0
2024-02-27 10:37:37.068718,1709026657.0687184,-31.25,969.7265625,-36.62109375,-33.203125,1.0,0.0,1.0,0.0,5.m4v,2.0
2024-02-27 10:37:37.072630,1709026657.0726297,-29.78515625,969.7265625,-164.0625,-32.2265625,1.0,0.0,1.0,0.0,5.m4v,2.0
2024-02-27 10:37:37.076535,1709026657.0765352,-35.15625,969.7265625,-295.41015625,-31.73828125,1.0,0.0,1.0,0.0,5.m4v,2.0
2024-02-27 10:37:37.080441,1709026657.0804403,-34.66796875,969.7265625,-23.92578125,-23.92578125,1.0,0.0,1.0,0.0,5.m4v,2.0
2024-02-27 10:37:37.084346,1709026657.084346,-29.78515625,980.46875,166.9921875,-23.4375,1.0,0.0,1.0,0.0,5.m4v,2.0
2024-02-27 10:37:37.088251,1709026657.0882514,-28.3203125,930.6640625,-12.20703125,-34.1796875,1.0,0.0,1.0,0.0,5.m4v,2.0
2024-02-27 10:37:37.092157,1709026657.092157,-33.203125,979.4921875,126.46484375,-23.4375,1.0,0.0,1.0,0.0,5.m4v,2.0
2024-02-27 10:37:37.096062,1709026657.0960622,-39.0625,979.4921875,90.33203125,-23.4375,1.0,0.0,1.0,0.0,5.m4v,2.0
2024-02-27 10:37:37.099968,1709026657.0999677,-44.921875,-367.1875,-187.5,-37.109375,1.0,0.0,1.0,0.0,5.m4v,2.0
2024-02-27 10:37:37.103873,1709026657.103873,-44.43359375,-1000.0,-95.21484375,-33.69140625,1.0,0.0,1.0,0.0,5.m4v,2.0
2024-02-27 10:37:37.107779,1709026657.1077783,-43.9453125,-930.6640625,-10.7421875,-39.0625,1.0,0.0,1.0,0.0,5.m4v,2.0
2024-02-27 10:37:37.111684,1709026657.1116838,-45.8984375,-1000.0,-167.48046875,-49.8046875,1.0,0.0,1.0,0.0,5.m4v,2.0
2024-02-27 10:37:37.115589,1709026657.1155891,-42.48046875,-1000.0,-443.359375,-46.38671875,1.0,0.0,1.0,0.0,5.m4v,2.0
2024-02-27 10:37:37.119501,1709026657.1195006,-39.0625,-1000.0,-340.8203125,-33.69140625,1.0,0.0,1.0,0.0,5.m4v,2.0
2024-02-27 10:37:37.123406,1709026657.123406,-30.2734375,-1000.0,-134.765625,-35.64453125,1.0,0.0,1.0,0.0,5.m4v,2.0
2024-02-27 10:37:37.127311,1709026657.1273112,-29.296875,-971.6796875,-206.54296875,-41.015625,1.0,0.0,1.0,0.0,5.m4v,2.0
2024-02-27 10:37:37.131217,1709026657.1312168,-31.73828125,-989.2578125,-287.109375,-36.1328125,1.0,0.0,1.0,0.0,5.m4v,2.0
2024-02-27 10:37:37.135122,1709026657.135122,-26.85546875,-1000.0,-351.5625,-32.2265625,1.0,0.0,1.0,0.0,5.m4v,2.0
2024-02-27 10:37:37.139028,1709026657.1390276,-16.11328125,194.82421875,103.02734375,-26.85546875,1.0,0.0,1.0,0.0,5.m4v,2.0
2024-02-27 10:37:37.142933,1709026657.142933,-15.13671875,999.51171875,599.12109375,-19.53125,1.0,0.0,1.0,0.0,5.m4v,2.0
2024-02-27 10:37:37.146838,1709026657.1468384,-16.11328125,911.62109375,261.71875,-22.4609375,1.0,0.0,1.0,0.0,5.m4v,2.0
2024-02-27 10:37:37.150744,1709026657.1507435,-22.4609375,969.23828125,-140.625,-32.2265625,1.0,0.0,1.0,0.0,5.m4v,2.0
2024-02-27 10:37:37.154649,1709026657.1546493,-24.90234375,971.19140625,-277.83203125,-29.78515625,1.0,0.0,1.0,0.0,5.m4v,2.0
2024-02-27 10:37:37.158555,1709026657.1585546,-20.01953125,969.7265625,-102.05078125,-14.16015625,1.0,0.0,1.0,0.0,5.m4v,2.0
2024-02-27 10:37:37.162460,1709026657.16246,-19.04296875,970.21484375,261.23046875,-16.11328125,1.0,0.0,1.0,0.0,5.m4v,2.0
2024-02-27 10:37:37.166371,1709026657.1663706,-16.6015625,970.21484375,209.47265625,-26.3671875,1.0,0.0,1.0,0.0,5.m4v,2.0
2024-02-27 10:37:37.170276,1709026657.1702762,-22.94921875,969.7265625,70.3125,-31.73828125,1.0,0.0,1.0,0.0,5.m4v,2.0
2024-02-27 10:37:37.174181,1709026657.1741817,-34.66796875,969.7265625,-107.421875,-33.203125,1.0,0.0,1.0,0.0,5.m4v,2.0
2024-02-27 10:37:37.178087,1709026657.1780868,-42.48046875,982.91015625,-236.81640625,-36.1328125,1.0,0.0,1.0,0.0,5.m4v,2.0
2024-02-27 10:37:37.181992,1709026657.1819923,-39.55078125,923.33984375,7.8125,-32.2265625,1.0,0.0,1.0,0.0,5.m4v,2.0
2024-02-27 10:37:37.185898,1709026657.1858976,-30.76171875,995.1171875,227.5390625,-19.53125,1.0,0.0,1.0,0.0,5.m4v,2.0
2024-02-27 10:37:37.189803,1709026657.1898031,-19.53125,940.91796875,99.12109375,-30.2734375,1.0,0.0,1.0,0.0,5.m4v,2.0
2024-02-27 10:37:37.193708,1709026657.1937084,-28.3203125,-454.1015625,-464.35546875,-45.41015625,1.0,0.0,1.0,0.0,5.m4v,2.0
2024-02-27 10:37:37.197614,1709026657.197614,-48.828125,-1000.0,-665.0390625,-45.41015625,1.0,0.0,1.0,0.0,5.m4v,2.0
2024-02-27 10:37:37.201519,1709026657.2015193,-43.9453125,-927.24609375,-415.0390625,-37.59765625,1.0,0.0,1.0,0.0,5.m4v,2.0
2024-02-27 10:37:37.205425,1709026657.2054248,-27.34375,-1000.0,-260.25390625,-32.2265625,1.0,0.0,1.0,0.0,5.m4v,2.0
2024-02-27 10:37:37.209330,1709026657.20933,-24.4140625,-1000.0,-274.4140625,-35.15625,1.0,0.0,1.0,0.0,5.m4v,2.0
2024-02-27 10:37:37.213239,1709026657.2132392,-31.25,-1000.0,-414.55078125,-40.52734375,1.0,0.0,1.0,0.0,5.m4v,2.0
2024-02-27 10:37:37.217145,1709026657.2171447,-34.66796875,-1000.0,-483.3984375,-36.1328125,1.0,0.0,1.0,0.0,5.m4v,2.0
2024-02-27 10:37:37.221050,1709026657.22105,-36.62109375,-935.546875,-288.57421875,-14.6484375,1.0,0.0,1.0,0.0,5.m4v,2.0
2024-02-27 10:37:37.224956,1709026657.2249556,-36.1328125,-1000.0,-105.46875,-21.97265625,1.0,0.0,1.0,0.0,5.m4v,2.0
2024-02-27 10:37:37.228861,1709026657.2288609,-31.25,-792.48046875,-60.546875,-38.0859375,1.0,0.0,1.0,0.0,5.m4v,2.0
2024-02-27 10:37:37.232766,1709026657.2327664,-15.625,676.7578125,233.3984375,-27.83203125,1.0,0.0,1.0,0.0,5.m4v,2.0
2024-02-27 10:37:37.236672,1709026657.2366717,1.46484375,999.51171875,302.734375,-19.53125,1.0,0.0,1.0,0.0,5.m4v,2.0
2024-02-27 10:37:37.240577,1709026657.2405772,-7.32421875,899.90234375,119.62890625,-27.83203125,1.0,0.0,1.0,0.0,5.m4v,2.0
2024-02-27 10:37:37.244483,1709026657.2444825,-34.66796875,986.328125,-34.66796875,-51.7578125,1.0,0.0,1.0,0.0,5.m4v,2.0
2024-02-27 10:37:37.248388,1709026657.2483878,-43.9453125,969.7265625,-175.78125,-56.640625,1.0,0.0,1.0,0.0,5.m4v,2.0
2024-02-27 10:37:37.252293,1709026657.252293,-47.36328125,969.7265625,-316.40625,-50.29296875,1.0,0.0,1.0,0.0,5.m4v,2.0
2024-02-27 10:37:37.256199,1709026657.2561986,-57.12890625,969.7265625,-425.78125,-54.19921875,1.0,0.0,1.0,0.0,5.m4v,2.0
2024-02-27 10:37:37.260108,1709026657.260108,-50.29296875,969.7265625,-262.20703125,-35.15625,1.0,0.0,1.0,0.0,5.m4v,2.0
2024-02-27 10:37:37.264014,1709026657.2640135,-38.57421875,970.21484375,-106.4453125,-34.1796875,1.0,0.0,1.0,0.0,5.m4v,2.0
2024-02-27 10:37:37.267919,1709026657.2679188,-37.109375,969.7265625,-121.09375,-46.38671875,1.0,0.0,1.0,0.0,5.m4v,2.0
2024-02-27 10:37:37.271824,1709026657.2718244,-34.66796875,969.7265625,-277.83203125,-41.9921875,1.0,0.0,1.0,0.0,5.m4v,2.0
2024-02-27 10:37:37.275730,1709026657.2757297,-33.203125,969.23828125,-416.50390625,-34.1796875,1.0,0.0,1.0,0.0,5.m4v,2.0
2024-02-27 10:37:37.279635,1709026657.2796352,-25.390625,974.12109375,106.93359375,-25.87890625,1.0,0.0,1.0,0.0,5.m4v,2.0
2024-02-27 10:37:37.283540,1709026657.2835405,-19.53125,958.0078125,523.92578125,-15.625,1.0,0.0,1.0,0.0,5.m4v,2.0
2024-02-27 10:37:37.287446,1709026657.287446,-20.5078125,921.875,73.2421875,-16.11328125,1.0,0.0,1.0,0.0,5.m4v,2.0
2024-02-27 10:37:37.291351,1709026657.2913513,-17.578125,999.51171875,-68.359375,-23.4375,1.0,0.0,1.0,0.0,5.m4v,2.0
2024-02-27 10:37:37.295257,1709026657.2952566,-37.109375,40.52734375,-364.74609375,-39.0625,1.0,0.0,1.0,0.0,5.m4v,2.0
2024-02-27 10:37:37.299162,1709026657.299162,-52.734375,-1000.0,-655.2734375,-46.875,1.0,0.0,1.0,0.0,5.m4v,2.0
2024-02-27 10:37:37.303067,1709026657.3030674,-38.57421875,-972.65625,-258.30078125,-33.203125,1.0,0.0,1.0,0.0,5.m4v,2.0
2024-02-27 10:37:37.306976,1709026657.306976,-25.390625,-981.93359375,-167.48046875,-34.1796875,1.0,0.0,1.0,0.0,5.m4v,2.0
2024-02-27 10:37:37.310882,1709026657.3108816,-32.71484375,-1000.0,-452.63671875,-38.0859375,1.0,0.0,1.0,0.0,5.m4v,2.0
2024-02-27 10:37:37.314787,1709026657.314787,-38.57421875,-978.02734375,-508.30078125,-39.55078125,1.0,0.0,1.0,0.0,5.m4v,2.0
2024-02-27 10:37:37.318692,1709026657.3186924,-38.0859375,-977.5390625,-385.7421875,-40.0390625,1.0,0.0,1.0,0.0,5.m4v,2.0
2024-02-27 10:37:37.322598,1709026657.3225975,-32.2265625,-1000.0,-189.94140625,-36.62109375,1.0,0.0,1.0,0.0,5.m4v,2.0
2024-02-27 10:37:37.326503,1709026657.3265033,-8.30078125,97.65625,241.2109375,-36.1328125,1.0,0.0,1.0,0.0,5.m4v,2.0
2024-02-27 10:37:37.330409,1709026657.3304086,-9.27734375,999.51171875,257.8125,-24.90234375,1.0,0.0,1.0,0.0,5.m4v,2.0
2024-02-27 10:37:37.334314,1709026657.334314,-35.64453125,921.875,-273.92578125,-14.16015625,1.0,0.0,1.0,0.0,5.m4v,2.0
2024-02-27 10:37:37.338219,1709026657.3382194,-29.296875,963.37890625,-371.09375,-3.41796875,1.0,0.0,1.0,0.0,5.m4v,2.0
2024-02-27 10:37:37.342125,1709026657.342125,-16.6015625,972.16796875,-84.9609375,-24.4140625,1.0,0.0,1.0,0.0,5.m4v,2.0
2024-02-27 10:37:37.346030,1709026657.3460302,-13.671875,969.7265625,12.20703125,-41.015625,1.0,0.0,1.0,0.0,5.m4v,2.0
2024-02-27 10:37:37.349936,1709026657.3499355,-23.4375,969.23828125,55.17578125,-32.2265625,1.0,0.0,1.0,0.0,5.m4v,2.0
2024-02-27 10:37:37.353844,1709026657.3538442,-32.71484375,973.6328125,-157.71484375,-30.76171875,1.0,0.0,1.0,0.0,5.m4v,2.0
2024-02-27 10:37:37.357749,1709026657.3577497,-37.109375,949.70703125,-398.4375,-35.64453125,1.0,0.0,1.0,0.0,5.m4v,2.0
2024-02-27 10:37:37.361655,1709026657.361655,-36.1328125,951.66015625,-75.1953125,-25.390625,1.0,0.0,1.0,0.0,5.m4v,2.0
2024-02-27 10:37:37.365560,1709026657.3655603,-29.296875,974.12109375,-2.44140625,-19.53125,1.0,0.0,1.0,0.0,5.m4v,2.0
2024-02-27 10:37:37.369466,1709026657.3694658,-31.73828125,981.4453125,-259.27734375,-24.90234375,1.0,0.0,1.0,0.0,5.m4v,2.0
2024-02-27 10:37:37.373371,1709026657.3733711,-30.76171875,923.828125,8.30078125,-20.5078125,1.0,0.0,1.0,0.0,5.m4v,2.0
2024-02-27 10:37:37.377277,1709026657.377277,-35.15625,994.62890625,329.1015625,-23.92578125,1.0,0.0,1.0,0.0,5.m4v,2.0
2024-02-27 10:37:37.381182,1709026657.381182,-41.9921875,942.3828125,200.1953125,-29.296875,1.0,0.0,1.0,0.0,5.m4v,2.0
2024-02-27 10:37:37.385087,1709026657.3850873,-39.55078125,-451.171875,-81.0546875,-29.296875,1.0,0.0,1.0,0.0,5.m4v,2.0
2024-02-27 10:37:37.388993,1709026657.3889928,-35.64453125,-1000.0,-438.4765625,-34.66796875,1.0,0.0,1.0,0.0,5.m4v,2.0
2024-02-27 10:37:37.392898,1709026657.392898,-36.62109375,-927.734375,-652.34375,-37.59765625,1.0,0.0,1.0,0.0,5.m4v,2.0
2024-02-27 10:37:37.396804,1709026657.3968036,-45.8984375,-1000.0,-604.00390625,-37.59765625,1.0,0.0,1.0,0.0,5.m4v,2.0
2024-02-27 10:37:37.400711,1709026657.4007108,-49.31640625,-1000.0,-265.625,-26.85546875,1.0,0.0,1.0,0.0,5.m4v,2.0
2024-02-27 10:37:37.404616,1709026657.4046164,-41.50390625,-1000.0,-121.58203125,-27.34375,1.0,0.0,1.0,0.0,5.m4v,2.0
2024-02-27 10:37:37.408522,1709026657.4085217,-27.34375,-1000.0,-141.6015625,-52.24609375,1.0,0.0,1.0,0.0,5.m4v,2.0
2024-02-27 10:37:37.412427,1709026657.412427,-34.1796875,-930.17578125,-189.94140625,-56.640625,1.0,0.0,1.0,0.0,5.m4v,2.0
2024-02-27 10:37:37.416332,1709026657.4163325,-39.0625,-1000.0,-532.71484375,-47.36328125,1.0,0.0,1.0,0.0,5.m4v,2.0
2024-02-27 10:37:37.420238,1709026657.4202378,-27.34375,-609.86328125,-55.6640625,-24.4140625,1.0,0.0,1.0,0.0,5.m4v,2.0
2024-02-27 10:37:37.869404,1709026657.8694038,-23.92578125,-1000.0,-207.03125,-39.0625,1.0,0.0,1.0,0.0,5.m4v,2.0
2024-02-27 10:37:37.873309,1709026657.8733091,-25.390625,-1000.0,-307.6171875,-42.96875,1.0,0.0,1.0,0.0,5.m4v,2.0
2024-02-27 10:37:37.877215,1709026657.877215,-32.71484375,-991.2109375,-286.1328125,-38.57421875,1.0,0.0,1.0,0.0,5.m4v,2.0
2024-02-27 10:37:37.881120,1709026657.88112,-37.59765625,-957.03125,-10.25390625,-35.64453125,1.0,0.0,1.0,0.0,5.m4v,2.0
2024-02-27 10:37:37.885025,1709026657.8850253,-30.2734375,-1000.0,216.30859375,-41.015625,1.0,0.0,1.0,0.0,5.m4v,2.0
2024-02-27 10:37:37.888931,1709026657.8889308,-14.6484375,-116.2109375,348.14453125,-27.83203125,1.0,0.0,1.0,0.0,5.m4v,2.0
2024-02-27 10:37:37.892836,1709026657.892836,-2.44140625,999.51171875,517.08984375,-18.06640625,1.0,0.0,1.0,0.0,5.m4v,2.0
2024-02-27 10:37:37.896742,1709026657.8967416,-10.7421875,949.21875,366.69921875,-23.92578125,1.0,0.0,1.0,0.0,5.m4v,2.0
2024-02-27 10:37:37.900647,1709026657.900647,-23.92578125,948.2421875,261.71875,-16.11328125,1.0,0.0,1.0,0.0,5.m4v,2.0
2024-02-27 10:37:37.904552,1709026657.9045525,-31.25,976.07421875,308.10546875,-23.4375,1.0,0.0,1.0,0.0,5.m4v,2.0
2024-02-27 10:37:37.908458,1709026657.9084578,-35.64453125,969.7265625,68.359375,-37.109375,1.0,0.0,1.0,0.0,5.m4v,2.0
2024-02-27 10:37:37.912363,1709026657.9123633,-33.69140625,969.7265625,-237.79296875,-42.96875,1.0,0.0,1.0,0.0,5.m4v,2.0
2024-02-27 10:37:37.916274,1709026657.9162736,-38.0859375,969.7265625,-266.6015625,-32.71484375,1.0,0.0,1.0,0.0,5.m4v,2.0
2024-02-27 10:37:37.920179,1709026657.9201791,-40.0390625,969.7265625,-63.4765625,-20.99609375,1.0,0.0,1.0,0.0,5.m4v,2.0
2024-02-27 10:37:37.924084,1709026657.9240844,-23.4375,969.7265625,96.19140625,-32.71484375,1.0,0.0,1.0,0.0,5.m4v,2.0
2024-02-27 10:37:37.927990,1709026657.9279895,-15.625,976.07421875,26.3671875,-43.9453125,1.0,0.0,1.0,0.0,5.m4v,2.0
2024-02-27 10:37:37.931895,1709026657.9318953,-23.92578125,947.265625,-73.73046875,-41.015625,1.0,0.0,1.0,0.0,5.m4v,2.0
2024-02-27 10:37:37.935801,1709026657.9358006,-18.5546875,948.2421875,181.640625,-39.0625,1.0,0.0,1.0,0.0,5.m4v,2.0
2024-02-27 10:37:37.939706,1709026657.939706,-13.18359375,999.51171875,410.64453125,-32.2265625,1.0,0.0,1.0,0.0,5.m4v,2.0
2024-02-27 10:37:37.943611,1709026657.9436114,-30.76171875,-128.90625,126.46484375,-33.203125,1.0,0.0,1.0,0.0,5.m4v,2.0
2024-02-27 10:37:37.947517,1709026657.947517,-44.921875,-1000.0,-282.71484375,-42.48046875,1.0,0.0,1.0,0.0,5.m4v,2.0
2024-02-27 10:37:37.951422,1709026657.9514222,-37.59765625,-953.125,-308.10546875,-43.45703125,1.0,0.0,1.0,0.0,5.m4v,2.0
2024-02-27 10:37:37.955328,1709026657.9553275,-30.2734375,-993.65234375,-327.1484375,-40.0390625,1.0,0.0,1.0,0.0,5.m4v,2.0
2024-02-27 10:37:37.959233,1709026657.959233,-20.99609375,-1000.0,-207.51953125,-32.2265625,1.0,0.0,1.0,0.0,5.m4v,2.0
2024-02-27 10:37:37.963143,1709026657.9631429,-31.25,-1000.0,6.8359375,-28.80859375,1.0,0.0,1.0,0.0,5.m4v,2.0
2024-02-27 10:37:37.967048,1709026657.9670484,-37.59765625,-1000.0,-89.84375,-40.52734375,1.0,0.0,1.0,0.0,5.m4v,2.0
2024-02-27 10:37:37.970954,1709026657.9709537,-38.57421875,-976.07421875,-333.984375,-54.6875,1.0,0.0,1.0,0.0,5.m4v,2.0
2024-02-27 10:37:37.974859,1709026657.9748592,-45.41015625,-980.95703125,-395.99609375,-52.24609375,1.0,0.0,1.0,0.0,5.m4v,2.0
2024-02-27 10:37:37.978765,1709026657.9787643,-43.45703125,-1000.0,-337.40234375,-37.59765625,1.0,0.0,1.0,0.0,5.m4v,2.0
2024-02-27 10:37:37.982670,1709026657.98267,-32.2265625,133.7890625,298.33984375,-38.0859375,1.0,0.0,1.0,0.0,5.m4v,2.0
2024-02-27 10:37:37.986575,1709026657.9865754,-16.11328125,999.51171875,674.31640625,-35.64453125,1.0,0.0,1.0,0.0,5.m4v,2.0
2024-02-27 10:37:37.990481,1709026657.990481,-14.6484375,916.50390625,161.62109375,-33.69140625,1.0,0.0,1.0,0.0,5.m4v,2.0
2024-02-27 10:37:37.994386,1709026657.9943862,-21.484375,965.8203125,-286.62109375,-31.73828125,1.0,0.0,1.0,0.0,5.m4v,2.0
2024-02-27 10:37:37.998291,1709026657.9982915,-29.296875,971.6796875,-283.203125,-31.25,1.0,0.0,1.0,0.0,5.m4v,2.0
2024-02-27 10:37:38.002197,1709026658.002197,-27.34375,969.7265625,210.9375,-32.2265625,1.0,0.0,1.0,0.0,5.m4v,2.0
2024-02-27 10:37:38.006102,1709026658.0061023,-25.390625,969.7265625,447.75390625,-30.2734375,1.0,0.0,1.0,0.0,5.m4v,2.0
2024-02-27 10:37:38.010012,1709026658.010012,-30.76171875,969.7265625,306.15234375,-38.0859375,1.0,0.0,1.0,0.0,5.m4v,2.0
2024-02-27 10:37:38.013917,1709026658.0139174,-29.78515625,969.7265625,39.0625,-35.64453125,1.0,0.0,1.0,0.0,5.m4v,2.0
2024-02-27 10:37:38.017823,1709026658.017823,-32.71484375,969.7265625,-45.41015625,-23.92578125,1.0,0.0,1.0,0.0,5.m4v,2.0
2024-02-27 10:37:38.021728,1709026658.0217285,-27.83203125,980.46875,174.31640625,-18.06640625,1.0,0.0,1.0,0.0,5.m4v,2.0
2024-02-27 10:37:38.025634,1709026658.0256338,-20.01953125,930.6640625,154.78515625,-22.94921875,1.0,0.0,1.0,0.0,5.m4v,2.0
2024-02-27 10:37:38.029539,1709026658.029539,-27.83203125,979.00390625,113.76953125,-21.97265625,1.0,0.0,1.0,0.0,5.m4v,2.0
2024-02-27 10:37:38.033445,1709026658.0334446,-32.71484375,980.46875,91.30859375,-26.85546875,1.0,0.0,1.0,0.0,5.m4v,2.0
2024-02-27 10:37:38.037350,1709026658.03735,-47.8515625,-364.2578125,-272.4609375,-41.015625,1.0,0.0,1.0,0.0,5.m4v,2.0
2024-02-27 10:37:38.041255,1709026658.0412557,-55.6640625,-1000.0,-323.73046875,-38.0859375,1.0,0.0,1.0,0.0,5.m4v,2.0
2024-02-27 10:37:38.045161,1709026658.0451608,-39.55078125,-931.15234375,-160.15625,-31.73828125,1.0,0.0,1.0,0.0,5.m4v,2.0
2024-02-27 10:37:38.049066,1709026658.0490663,-24.4140625,-1000.0,-291.9921875,-23.92578125,1.0,0.0,1.0,0.0,5.m4v,2.0
2024-02-27 10:37:38.052972,1709026658.0529716,-29.296875,-1000.0,-542.48046875,-27.34375,1.0,0.0,1.0,0.0,5.m4v,2.0
2024-02-27 10:37:38.056881,1709026658.0568807,-40.0390625,-1000.0,-454.58984375,-45.8984375,1.0,0.0,1.0,0.0,5.m4v,2.0
2024-02-27 10:37:38.060786,1709026658.060786,-37.59765625,-943.359375,-142.578125,-25.390625,1.0,0.0,1.0,0.0,5.m4v,2.0
2024-02-27 10:37:38.064692,1709026658.0646915,-21.97265625,-1000.0,-87.890625,-17.578125,1.0,0.0,1.0,0.0,5.m4v,2.0
2024-02-27 10:37:38.068597,1709026658.0685968,-4.8828125,-899.4140625,-226.07421875,-27.83203125,1.0,0.0,1.0,0.0,5.m4v,2.0
2024-02-27 10:37:38.072502,1709026658.0725024,-9.27734375,553.22265625,-153.80859375,-16.11328125,1.0,0.0,1.0,0.0,5.m4v,2.0
2024-02-27 10:37:38.076408,1709026658.0764077,-24.4140625,999.51171875,103.02734375,-25.87890625,1.0,0.0,1.0,0.0,5.m4v,2.0
2024-02-27 10:37:38.080313,1709026658.080313,-40.0390625,895.01953125,514.16015625,-31.73828125,1.0,0.0,1.0,0.0,5.m4v,2.0
2024-02-27 10:37:38.084219,1709026658.0842185,-54.6875,985.3515625,294.43359375,-28.3203125,1.0,0.0,1.0,0.0,5.m4v,2.0
2024-02-27 10:37:38.088124,1709026658.0881238,-48.828125,969.7265625,-173.828125,-44.43359375,1.0,0.0,1.0,0.0,5.m4v,2.0
2024-02-27 10:37:38.092029,1709026658.092029,-50.29296875,969.7265625,-417.48046875,-52.24609375,1.0,0.0,1.0,0.0,5.m4v,2.0
2024-02-27 10:37:38.095935,1709026658.0959346,-52.734375,969.7265625,-447.75390625,-40.0390625,1.0,0.0,1.0,0.0,5.m4v,2.0
2024-02-27 10:37:38.099840,1709026658.0998402,-45.41015625,969.7265625,-179.6875,-37.59765625,1.0,0.0,1.0,0.0,5.m4v,2.0
2024-02-27 10:37:38.103748,1709026658.1037483,-33.203125,970.21484375,29.296875,-39.55078125,1.0,0.0,1.0,0.0,5.m4v,2.0
2024-02-27 10:37:38.107654,1709026658.107654,-29.296875,969.7265625,-73.2421875,-27.34375,1.0,0.0,1.0,0.0,5.m4v,2.0
2024-02-27 10:37:38.111559,1709026658.1115592,-42.96875,969.7265625,-256.8359375,-27.83203125,1.0,0.0,1.0,0.0,5.m4v,2.0
2024-02-27 10:37:38.115465,1709026658.1154647,-45.41015625,969.7265625,-260.7421875,-25.87890625,1.0,0.0,1.0,0.0,5.m4v,2.0
2024-02-27 10:37:38.119370,1709026658.11937,-41.50390625,985.83984375,-122.55859375,-13.671875,1.0,0.0,1.0,0.0,5.m4v,2.0
2024-02-27 10:37:38.123276,1709026658.1232755,-38.0859375,914.0625,401.3671875,-15.625,1.0,0.0,1.0,0.0,5.m4v,2.0
2024-02-27 10:37:38.127181,1709026658.1271808,-33.203125,999.51171875,583.49609375,-29.78515625,1.0,0.0,1.0,0.0,5.m4v,2.0
2024-02-27 10:37:38.131086,1709026658.131086,-37.109375,876.46484375,56.15234375,-37.109375,1.0,0.0,1.0,0.0,5.m4v,2.0
2024-02-27 10:37:38.134992,1709026658.1349916,-42.96875,-572.265625,-536.62109375,-41.015625,1.0,0.0,1.0,0.0,5.m4v,2.0
2024-02-27 10:37:38.138897,1709026658.138897,-55.6640625,-1000.0,-689.453125,-33.203125,1.0,0.0,1.0,0.0,5.m4v,2.0
2024-02-27 10:37:38.142802,1709026658.1428025,-53.22265625,-925.29296875,-330.078125,-23.92578125,1.0,0.0,1.0,0.0,5.m4v,2.0
2024-02-27 10:37:38.146708,1709026658.1467078,-44.43359375,-1000.0,-290.52734375,-29.78515625,1.0,0.0,1.0,0.0,5.m4v,2.0
2024-02-27 10:37:38.150615,1709026658.1506147,-43.45703125,-1000.0,-548.33984375,-31.25,1.0,0.0,1.0,0.0,5.m4v,2.0
2024-02-27 10:37:38.154520,1709026658.15452,-50.78125,-1000.0,-630.37109375,-33.69140625,1.0,0.0,1.0,0.0,5.m4v,2.0
2024-02-27 10:37:38.158426,1709026658.1584256,-57.6171875,-1000.0,-517.08984375,-27.34375,1.0,0.0,1.0,0.0,5.m4v,2.0
2024-02-27 10:37:38.162331,1709026658.1623309,-51.26953125,-929.6875,-321.2890625,-20.5078125,1.0,0.0,1.0,0.0,5.m4v,2.0
2024-02-27 10:37:38.166236,1709026658.1662364,-47.36328125,-1000.0,-368.1640625,-26.3671875,1.0,0.0,1.0,0.0,5.m4v,2.0
2024-02-27 10:37:38.170142,1709026658.1701417,-44.43359375,-641.6015625,-207.03125,-27.34375,1.0,0.0,1.0,0.0,5.m4v,2.0
2024-02-27 10:37:38.174047,1709026658.174047,-29.296875,809.5703125,122.0703125,-17.578125,1.0,0.0,1.0,0.0,5.m4v,2.0
2024-02-27 10:37:38.177953,1709026658.1779523,-27.34375,999.51171875,13.671875,-28.80859375,1.0,0.0,1.0,0.0,5.m4v,2.0
2024-02-27 10:37:38.181858,1709026658.1818578,-39.0625,909.1796875,107.91015625,-36.62109375,1.0,0.0,1.0,0.0,5.m4v,2.0
2024-02-27 10:37:38.185763,1709026658.1857634,-36.1328125,986.328125,139.6484375,-28.3203125,1.0,0.0,1.0,0.0,5.m4v,2.0
2024-02-27 10:37:38.189669,1709026658.189669,-30.2734375,969.7265625,140.625,-20.99609375,1.0,0.0,1.0,0.0,5.m4v,2.0
2024-02-27 10:37:38.193574,1709026658.1935742,-33.69140625,969.7265625,37.59765625,-25.87890625,1.0,0.0,1.0,0.0,5.m4v,2.0
2024-02-27 10:37:38.197486,1709026658.1974864,-41.50390625,969.7265625,-243.1640625,-41.015625,1.0,0.0,1.0,0.0,5.m4v,2.0
2024-02-27 10:37:38.201392,1709026658.201392,-42.48046875,970.21484375,21.97265625,-40.0390625,1.0,0.0,1.0,0.0,5.m4v,2.0
2024-02-27 10:37:38.205297,1709026658.2052972,-36.62109375,970.21484375,145.01953125,-34.1796875,1.0,0.0,1.0,0.0,5.m4v,2.0
2024-02-27 10:37:38.209203,1709026658.2092023,-40.52734375,969.7265625,-141.11328125,-34.1796875,1.0,0.0,1.0,0.0,5.m4v,2.0
2024-02-27 10:37:38.213108,1709026658.213108,-38.0859375,969.7265625,-348.14453125,-38.57421875,1.0,0.0,1.0,0.0,5.m4v,2.0
2024-02-27 10:37:38.217013,1709026658.2170134,-33.203125,976.5625,-7.32421875,-39.0625,1.0,0.0,1.0,0.0,5.m4v,2.0
2024-02-27 10:37:38.220919,1709026658.220919,-51.26953125,945.80078125,512.6953125,-34.66796875,1.0,0.0,1.0,0.0,5.m4v,2.0
2024-02-27 10:37:38.224824,1709026658.2248242,-59.08203125,951.66015625,319.82421875,-32.2265625,1.0,0.0,1.0,0.0,5.m4v,2.0
2024-02-27 10:37:38.228730,1709026658.2287295,-49.8046875,999.51171875,-60.546875,-40.52734375,1.0,0.0,1.0,0.0,5.m4v,2.0
2024-02-27 10:37:38.232635,1709026658.232635,-53.7109375,-152.83203125,-367.1875,-44.43359375,1.0,0.0,1.0,0.0,5.m4v,2.0
2024-02-27 10:37:38.236541,1709026658.2365406,-61.03515625,-1000.0,-551.7578125,-45.41015625,1.0,0.0,1.0,0.0,5.m4v,2.0
2024-02-27 10:37:38.240446,1709026658.240446,-50.78125,-951.171875,-247.55859375,-47.36328125,1.0,0.0,1.0,0.0,5.m4v,2.0
2024-02-27 10:37:38.244357,1709026658.2443569,-39.0625,-994.62890625,-117.1875,-38.57421875,1.0,0.0,1.0,0.0,5.m4v,2.0
2024-02-27 10:37:38.248262,1709026658.2482624,-34.1796875,-1000.0,-211.42578125,-33.203125,1.0,0.0,1.0,0.0,5.m4v,2.0
2024-02-27 10:37:38.252168,1709026658.2521677,-41.015625,-971.6796875,-211.9140625,-36.62109375,1.0,0.0,1.0,0.0,5.m4v,2.0
2024-02-27 10:37:38.256073,1709026658.2560732,-46.38671875,-988.28125,-453.125,-37.59765625,1.0,0.0,1.0,0.0,5.m4v,2.0
2024-02-27 10:37:38.259979,1709026658.2599783,-49.31640625,-1000.0,-334.47265625,-19.53125,1.0,0.0,1.0,0.0,5.m4v,2.0
2024-02-27 10:37:38.263884,1709026658.263884,-38.57421875,189.94140625,382.32421875,-16.11328125,1.0,0.0,1.0,0.0,5.m4v,2.0
2024-02-27 10:37:38.267789,1709026658.2677894,-27.34375,999.51171875,394.04296875,-36.62109375,1.0,0.0,1.0,0.0,5.m4v,2.0
2024-02-27 10:37:38.271695,1709026658.271695,-38.57421875,911.62109375,-229.00390625,-46.38671875,1.0,0.0,1.0,0.0,5.m4v,2.0
2024-02-27 10:37:38.275600,1709026658.2756002,-48.33984375,969.23828125,-450.68359375,-42.48046875,1.0,0.0,1.0,0.0,5.m4v,2.0
2024-02-27 10:37:38.279506,1709026658.2795055,-42.48046875,971.19140625,-181.15234375,-37.109375,1.0,0.0,1.0,0.0,5.m4v,2.0
2024-02-27 10:37:38.283411,1709026658.283411,-41.50390625,969.7265625,60.05859375,-34.66796875,1.0,0.0,1.0,0.0,5.m4v,2.0
2024-02-27 10:37:38.287316,1709026658.2873163,-47.36328125,969.7265625,-7.8125,-35.64453125,1.0,0.0,1.0,0.0,5.m4v,2.0
2024-02-27 10:37:38.291226,1709026658.291226,-46.875,969.7265625,-200.68359375,-36.62109375,1.0,0.0,1.0,0.0,5.m4v,2.0
2024-02-27 10:37:38.295132,1709026658.2951317,-48.33984375,969.7265625,-276.85546875,-41.015625,1.0,0.0,1.0,0.0,5.m4v,2.0
2024-02-27 10:37:38.299037,1709026658.299037,-46.38671875,969.7265625,-11.71875,-32.71484375,1.0,0.0,1.0,0.0,5.m4v,2.0
2024-02-27 10:37:38.302943,1709026658.3029425,-38.57421875,969.7265625,269.04296875,-17.08984375,1.0,0.0,1.0,0.0,5.m4v,2.0
2024-02-27 10:37:38.306848,1709026658.3068478,-40.0390625,986.328125,163.57421875,-23.92578125,1.0,0.0,1.0,0.0,5.m4v,2.0
2024-02-27 10:37:38.310753,1709026658.310753,-42.96875,910.64453125,98.14453125,-34.66796875,1.0,0.0,1.0,0.0,5.m4v,2.0
2024-02-27 10:37:38.314659,1709026658.3146586,-37.109375,999.51171875,291.015625,-27.83203125,1.0,0.0,1.0,0.0,5.m4v,2.0
2024-02-27 10:37:38.318564,1709026658.3185642,-43.45703125,843.75,228.515625,-28.80859375,1.0,0.0,1.0,0.0,5.m4v,2.0
2024-02-27 10:37:38.322469,1709026658.3224697,-58.10546875,-617.67578125,-56.15234375,-35.64453125,1.0,0.0,1.0,0.0,5.m4v,2.0
2024-02-27 10:37:38.326375,1709026658.326375,-52.24609375,-1000.0,-234.375,-29.296875,1.0,0.0,1.0,0.0,5.m4v,2.0
2024-02-27 10:37:38.330280,1709026658.3302803,-46.38671875,-926.26953125,-393.06640625,-36.1328125,1.0,0.0,1.0,0.0,5.m4v,2.0
2024-02-27 10:37:38.334186,1709026658.3341856,-48.828125,-1000.0,-529.296875,-46.38671875,1.0,0.0,1.0,0.0,5.m4v,2.0
2024-02-27 10:37:38.338095,1709026658.3380954,-42.48046875,-1000.0,-390.625,-41.015625,1.0,0.0,1.0,0.0,5.m4v,2.0
2024-02-27 10:37:38.342001,1709026658.3420007,-32.2265625,-1000.0,-57.12890625,-25.390625,1.0,0.0,1.0,0.0,5.m4v,2.0
2024-02-27 10:37:38.345906,1709026658.345906,-34.1796875,-1000.0,6.34765625,-15.13671875,1.0,0.0,1.0,0.0,5.m4v,2.0
2024-02-27 10:37:38.349812,1709026658.3498116,-39.55078125,-929.19921875,-220.21484375,-20.5078125,1.0,0.0,1.0,0.0,5.m4v,2.0
2024-02-27 10:37:38.353717,1709026658.3537169,-44.43359375,-1000.0,-403.80859375,-35.64453125,1.0,0.0,1.0,0.0,5.m4v,2.0
2024-02-27 10:37:38.357622,1709026658.3576224,-42.96875,-609.86328125,-13.671875,-40.0390625,1.0,0.0,1.0,0.0,5.m4v,2.0
2024-02-27 10:37:38.361528,1709026658.3615277,-35.15625,833.0078125,607.421875,-34.66796875,1.0,0.0,1.0,0.0,5.m4v,2.0
2024-02-27 10:37:38.365433,1709026658.3654332,-36.1328125,999.51171875,231.93359375,-37.59765625,1.0,0.0,1.0,0.0,5.m4v,2.0
2024-02-27 10:37:38.369339,1709026658.3693385,-36.1328125,911.1328125,-46.875,-33.69140625,1.0,0.0,1.0,0.0,5.m4v,2.0
2024-02-27 10:37:38.373244,1709026658.373244,-41.015625,985.83984375,86.9140625,-34.66796875,1.0,0.0,1.0,0.0,5.m4v,2.0
2024-02-27 10:37:38.377149,1709026658.377149,-41.015625,969.7265625,-127.44140625,-41.015625,1.0,0.0,1.0,0.0,5.m4v,2.0
2024-02-27 10:37:38.381055,1709026658.3810549,-39.0625,969.7265625,-12.20703125,-35.64453125,1.0,0.0,1.0,0.0,5.m4v,2.0
2024-02-27 10:37:38.384964,1709026658.3849638,-38.0859375,969.7265625,107.421875,-22.4609375,1.0,0.0,1.0,0.0,5.m4v,2.0
2024-02-27 10:37:38.388869,1709026658.3888693,-37.109375,969.7265625,-122.55859375,-9.765625,1.0,0.0,1.0,0.0,5.m4v,2.0
2024-02-27 10:37:38.392775,1709026658.3927746,-38.0859375,969.7265625,-323.73046875,-26.3671875,1.0,0.0,1.0,0.0,5.m4v,2.0
2024-02-27 10:37:38.396680,1709026658.39668,-38.57421875,973.14453125,-309.5703125,-31.25,1.0,0.0,1.0,0.0,5.m4v,2.0
2024-02-27 10:37:38.400585,1709026658.4005854,-43.45703125,960.44921875,-25.390625,-19.53125,1.0,0.0,1.0,0.0,5.m4v,2.0
2024-02-27 10:37:38.404491,1709026658.4044907,-35.64453125,927.24609375,399.4140625,-28.80859375,1.0,0.0,1.0,0.0,5.m4v,2.0
2024-02-27 10:37:38.408396,1709026658.4083962,-25.390625,999.51171875,366.69921875,-31.73828125,1.0,0.0,1.0,0.0,5.m4v,2.0
2024-02-27 10:37:38.412302,1709026658.4123015,-44.921875,78.125,-305.17578125,-37.59765625,1.0,0.0,1.0,0.0,5.m4v,2.0
2024-02-27 10:37:38.416207,1709026658.416207,-56.15234375,-1000.0,-738.28125,-45.8984375,1.0,0.0,1.0,0.0,5.m4v,2.0
2024-02-27 10:37:38.420112,1709026658.4201124,-43.45703125,-978.515625,-543.9453125,-31.73828125,1.0,0.0,1.0,0.0,5.m4v,2.0
2024-02-27 10:37:38.424018,1709026658.424018,-34.66796875,-979.4921875,-246.58203125,-25.390625,1.0,0.0,1.0,0.0,5.m4v,2.0
2024-02-27 10:37:38.427923,1709026658.4279232,-34.66796875,-1000.0,-189.453125,-36.62109375,1.0,0.0,1.0,0.0,5.m4v,2.0
2024-02-27 10:37:38.431832,1709026658.4318323,-29.78515625,-1000.0,-227.05078125,-30.2734375,1.0,0.0,1.0,0.0,5.m4v,2.0
2024-02-27 10:37:38.435738,1709026658.4357376,-29.78515625,-1000.0,-553.7109375,-13.671875,1.0,0.0,1.0,0.0,5.m4v,2.0
2024-02-27 10:37:38.439643,1709026658.4396431,-43.45703125,-983.3984375,-571.77734375,-17.08984375,1.0,0.0,1.0,0.0,5.m4v,2.0
2024-02-27 10:37:38.443548,1709026658.4435484,-48.828125,-969.23828125,-286.1328125,-29.296875,1.0,0.0,1.0,0.0,5.m4v,2.0
2024-02-27 10:37:38.447454,1709026658.447454,-42.96875,-1000.0,-362.79296875,-28.80859375,1.0,0.0,1.0,0.0,5.m4v,2.0
2024-02-27 10:37:38.451359,1709026658.4513593,-38.0859375,17.578125,-160.64453125,-20.5078125,1.0,0.0,1.0,0.0,5.m4v,2.0
2024-02-27 10:37:38.853653,1709026658.8536532,-12.6953125,969.7265625,-90.33203125,-18.5546875,1.0,0.0,1.0,0.0,5.m4v,2.0
2024-02-27 10:37:38.857559,1709026658.8575587,-16.6015625,969.7265625,-364.2578125,-26.85546875,1.0,0.0,1.0,0.0,5.m4v,2.0
2024-02-27 10:37:38.861464,1709026658.861464,-10.7421875,969.7265625,-72.75390625,-23.4375,1.0,0.0,1.0,0.0,5.m4v,2.0
2024-02-27 10:37:38.865370,1709026658.8653696,-13.18359375,976.5625,-42.48046875,-15.625,1.0,0.0,1.0,0.0,5.m4v,2.0
2024-02-27 10:37:38.869275,1709026658.8692749,-22.4609375,946.77734375,-304.19921875,-24.4140625,1.0,0.0,1.0,0.0,5.m4v,2.0
2024-02-27 10:37:38.873180,1709026658.8731804,-30.2734375,950.1953125,-182.12890625,-22.94921875,1.0,0.0,1.0,0.0,5.m4v,2.0
2024-02-27 10:37:38.877086,1709026658.8770857,-33.69140625,999.51171875,-66.89453125,-10.25390625,1.0,0.0,1.0,0.0,5.m4v,2.0
2024-02-27 10:37:38.880991,1709026658.8809912,-30.76171875,-129.39453125,-157.71484375,-21.484375,1.0,0.0,1.0,0.0,5.m4v,2.0
2024-02-27 10:37:38.884897,1709026658.8848965,-34.66796875,-1000.0,-349.12109375,-34.66796875,1.0,0.0,1.0,0.0,5.m4v,2.0
2024-02-27 10:37:38.888802,1709026658.8888018,-32.2265625,-954.58984375,-562.01171875,-34.1796875,1.0,0.0,1.0,0.0,5.m4v,2.0
2024-02-27 10:37:38.892707,1709026658.892707,-34.1796875,-992.67578125,-616.69921875,-40.52734375,1.0,0.0,1.0,0.0,5.m4v,2.0
2024-02-27 10:37:38.896613,1709026658.8966126,-40.52734375,-1000.0,-492.67578125,-32.2265625,1.0,0.0,1.0,0.0,5.m4v,2.0
2024-02-27 10:37:38.900520,1709026658.9005203,-32.2265625,-1000.0,-125.48828125,-23.92578125,1.0,0.0,1.0,0.0,5.m4v,2.0
2024-02-27 10:37:38.904426,1709026658.9044256,-25.390625,-944.82421875,-19.53125,-34.66796875,1.0,0.0,1.0,0.0,5.m4v,2.0
2024-02-27 10:37:38.908331,1709026658.9083312,-35.64453125,-1000.0,-171.875,-37.59765625,1.0,0.0,1.0,0.0,5.m4v,2.0
2024-02-27 10:37:38.912236,1709026658.9122365,-31.25,-353.02734375,-63.96484375,-37.109375,1.0,0.0,1.0,0.0,5.m4v,2.0
2024-02-27 10:37:38.916142,1709026658.916142,-23.4375,932.12890625,16.6015625,-31.73828125,1.0,0.0,1.0,0.0,5.m4v,2.0
2024-02-27 10:37:38.920047,1709026658.9200473,-21.97265625,988.28125,477.5390625,-26.3671875,1.0,0.0,1.0,0.0,5.m4v,2.0
2024-02-27 10:37:38.923953,1709026658.9239528,-24.4140625,930.17578125,657.71484375,-30.2734375,1.0,0.0,1.0,0.0,5.m4v,2.0
2024-02-27 10:37:38.927858,1709026658.927858,-30.2734375,980.95703125,50.29296875,-32.2265625,1.0,0.0,1.0,0.0,5.m4v,2.0
2024-02-27 10:37:38.931764,1709026658.9317636,-34.66796875,969.7265625,-292.48046875,-32.2265625,1.0,0.0,1.0,0.0,5.m4v,2.0
2024-02-27 10:37:38.935669,1709026658.935669,-31.73828125,969.7265625,-278.3203125,-27.83203125,1.0,0.0,1.0,0.0,5.m4v,2.0
2024-02-27 10:37:38.939574,1709026658.9395745,-31.25,969.7265625,-57.6171875,-28.3203125,1.0,0.0,1.0,0.0,5.m4v,2.0
2024-02-27 10:37:38.943480,1709026658.9434798,-30.2734375,985.83984375,219.23828125,-31.73828125,1.0,0.0,1.0,0.0,5.m4v,2.0
2024-02-27 10:37:38.947391,1709026658.9473913,-28.80859375,904.78515625,134.765625,-24.4140625,1.0,0.0,1.0,0.0,5.m4v,2.0
2024-02-27 10:37:38.951297,1709026658.9512968,-34.1796875,999.51171875,-98.14453125,-29.78515625,1.0,0.0,1.0,0.0,5.m4v,2.0
2024-02-27 10:37:38.955202,1709026658.955202,-38.57421875,697.75390625,-258.7890625,-50.29296875,1.0,0.0,1.0,0.0,5.m4v,2.0
2024-02-27 10:37:38.959108,1709026658.9591076,-35.15625,-674.31640625,-237.79296875,-48.828125,1.0,0.0,1.0,0.0,5.m4v,2.0
2024-02-27 10:37:38.963013,1709026658.963013,-23.4375,-1000.0,63.96484375,-38.0859375,1.0,0.0,1.0,0.0,5.m4v,2.0
2024-02-27 10:37:38.966918,1709026658.9669185,-14.6484375,-698.73046875,442.87109375,-31.25,1.0,0.0,1.0,0.0,5.m4v,2.0
2024-02-27 10:37:38.970824,1709026658.9708238,-6.34765625,691.89453125,530.2734375,-26.3671875,1.0,0.0,1.0,0.0,5.m4v,2.0
2024-02-27 10:37:38.974729,1709026658.9747293,-11.23046875,999.51171875,144.53125,-31.73828125,1.0,0.0,1.0,0.0,5.m4v,2.0
2024-02-27 10:37:38.978635,1709026658.9786346,-22.4609375,901.3671875,10.25390625,-33.203125,1.0,0.0,1.0,0.0,5.m4v,2.0
2024-02-27 10:37:38.982540,1709026658.98254,-29.78515625,986.81640625,138.671875,-33.203125,1.0,0.0,1.0,0.0,5.m4v,2.0
2024-02-27 10:37:38.986445,1709026658.9864454,-36.1328125,969.7265625,11.71875,-37.109375,1.0,0.0,1.0,0.0,5.m4v,2.0
2024-02-27 10:37:38.990351,1709026658.9903507,-38.0859375,969.7265625,-166.50390625,-33.203125,1.0,0.0,1.0,0.0,5.m4v,2.0
2024-02-27 10:37:38.994262,1709026658.994262,-32.71484375,969.7265625,-187.01171875,-21.97265625,1.0,0.0,1.0,0.0,5.m4v,2.0
2024-02-27 10:37:38.998167,1709026658.9981673,-27.83203125,969.7265625,-40.0390625,-33.69140625,1.0,0.0,1.0,0.0,5.m4v,2.0
2024-02-27 10:37:39.002073,1709026659.0020728,-25.390625,969.7265625,227.05078125,-39.55078125,1.0,0.0,1.0,0.0,5.m4v,2.0
2024-02-27 10:37:39.005978,1709026659.005978,-24.4140625,986.328125,270.99609375,-33.203125,1.0,0.0,1.0,0.0,5.m4v,2.0
2024-02-27 10:37:39.009883,1709026659.0098834,-24.4140625,911.62109375,97.65625,-35.64453125,1.0,0.0,1.0,0.0,5.m4v,2.0
2024-02-27 10:37:39.013789,1709026659.013789,-21.484375,999.51171875,211.42578125,-26.3671875,1.0,0.0,1.0,0.0,5.m4v,2.0
2024-02-27 10:37:39.017694,1709026659.0176942,-20.5078125,854.00390625,338.37890625,-19.04296875,1.0,0.0,1.0,0.0,5.m4v,2.0
2024-02-27 10:37:39.021600,1709026659.0215998,-26.3671875,-604.98046875,203.125,-41.50390625,1.0,0.0,1.0,0.0,5.m4v,2.0
2024-02-27 10:37:39.025505,1709026659.025505,-34.1796875,-1000.0,-186.03515625,-51.7578125,1.0,0.0,1.0,0.0,5.m4v,2.0
2024-02-27 10:37:39.029411,1709026659.0294106,-35.15625,-925.78125,-308.10546875,-43.9453125,1.0,0.0,1.0,0.0,5.m4v,2.0
2024-02-27 10:37:39.033316,1709026659.033316,-29.296875,-1000.0,-166.50390625,-39.0625,1.0,0.0,1.0,0.0,5.m4v,2.0
2024-02-27 10:37:39.037221,1709026659.0372214,-29.296875,-1000.0,-251.46484375,-35.15625,1.0,0.0,1.0,0.0,5.m4v,2.0
2024-02-27 10:37:39.041132,1709026659.0411315,-33.203125,-1000.0,11.71875,-32.71484375,1.0,0.0,1.0,0.0,5.m4v,2.0
2024-02-27 10:37:39.045037,1709026659.0450373,-35.15625,-1000.0,97.16796875,-31.25,1.0,0.0,1.0,0.0,5.m4v,2.0
2024-02-27 10:37:39.048943,1709026659.0489426,-33.69140625,-997.0703125,-112.79296875,-33.203125,1.0,0.0,1.0,0.0,5.m4v,2.0
2024-02-27 10:37:39.052848,1709026659.052848,-44.43359375,-948.73046875,-134.765625,-40.0390625,1.0,0.0,1.0,0.0,5.m4v,2.0
2024-02-27 10:37:39.056753,1709026659.0567534,-46.875,-1000.0,-31.73828125,-34.1796875,1.0,0.0,1.0,0.0,5.m4v,2.0
2024-02-27 10:37:39.060659,1709026659.060659,-33.69140625,-221.19140625,487.79296875,-25.390625,1.0,0.0,1.0,0.0,5.m4v,2.0
2024-02-27 10:37:39.064564,1709026659.0645642,-24.4140625,997.55859375,966.30859375,-14.6484375,1.0,0.0,1.0,0.0,5.m4v,2.0
2024-02-27 10:37:39.068470,1709026659.0684695,-30.2734375,963.8671875,594.7265625,-23.92578125,1.0,0.0,1.0,0.0,5.m4v,2.0
2024-02-27 10:37:39.072375,1709026659.072375,-44.43359375,940.4296875,56.15234375,-41.50390625,1.0,0.0,1.0,0.0,5.m4v,2.0
2024-02-27 10:37:39.076280,1709026659.0762804,-48.828125,978.02734375,-99.12109375,-24.90234375,1.0,0.0,1.0,0.0,5.m4v,2.0
2024-02-27 10:37:39.080186,1709026659.080186,-34.1796875,969.7265625,122.55859375,-8.30078125,1.0,0.0,1.0,0.0,5.m4v,2.0
2024-02-27 10:37:39.084091,1709026659.0840912,-34.66796875,969.7265625,334.47265625,-20.01953125,1.0,0.0,1.0,0.0,5.m4v,2.0
2024-02-27 10:37:39.088002,1709026659.0880015,-31.73828125,969.7265625,242.67578125,-25.390625,1.0,0.0,1.0,0.0,5.m4v,2.0
2024-02-27 10:37:39.091907,1709026659.091907,-23.92578125,969.7265625,263.18359375,-24.4140625,1.0,0.0,1.0,0.0,5.m4v,2.0
2024-02-27 10:37:39.095813,1709026659.0958126,-30.2734375,969.7265625,163.57421875,-38.0859375,1.0,0.0,1.0,0.0,5.m4v,2.0
2024-02-27 10:37:39.099718,1709026659.099718,-30.2734375,970.21484375,148.92578125,-41.015625,1.0,0.0,1.0,0.0,5.m4v,2.0
2024-02-27 10:37:39.103623,1709026659.1036234,-41.50390625,969.7265625,219.23828125,-37.59765625,1.0,0.0,1.0,0.0,5.m4v,2.0
2024-02-27 10:37:39.107529,1709026659.1075287,-48.828125,985.83984375,251.953125,-28.80859375,1.0,0.0,1.0,0.0,5.m4v,2.0
2024-02-27 10:37:39.111434,1709026659.1114342,-44.43359375,910.15625,320.3125,-34.66796875,1.0,0.0,1.0,0.0,5.m4v,2.0
2024-02-27 10:37:39.115340,1709026659.1153395,-44.921875,999.51171875,142.578125,-27.83203125,1.0,0.0,1.0,0.0,5.m4v,2.0
2024-02-27 10:37:39.119245,1709026659.119245,-39.55078125,827.1484375,139.16015625,-18.5546875,1.0,0.0,1.0,0.0,5.m4v,2.0
2024-02-27 10:37:39.123150,1709026659.1231503,-38.0859375,-629.8828125,194.82421875,-28.80859375,1.0,0.0,1.0,0.0,5.m4v,2.0
2024-02-27 10:37:39.127056,1709026659.1270556,-33.69140625,-1000.0,-108.3984375,-20.99609375,1.0,0.0,1.0,0.0,5.m4v,2.0
2024-02-27 10:37:39.130961,1709026659.1309612,-11.71875,-927.24609375,-349.12109375,0.9765625,1.0,0.0,1.0,0.0,5.m4v,2.0
2024-02-27 10:37:39.134871,1709026659.1348703,-36.1328125,-1000.0,-375.48828125,-24.4140625,1.0,0.0,1.0,0.0,5.m4v,2.0
2024-02-27 10:37:39.138776,1709026659.1387758,-72.75390625,-1000.0,-194.82421875,-57.12890625,1.0,0.0,1.0,0.0,5.m4v,2.0
2024-02-27 10:37:39.142681,1709026659.1426814,-61.03515625,-972.16796875,141.11328125,-46.875,1.0,0.0,1.0,0.0,5.m4v,2.0
2024-02-27 10:37:39.146587,1709026659.146587,-49.31640625,-987.79296875,107.421875,-51.7578125,1.0,0.0,1.0,0.0,5.m4v,2.0
2024-02-27 10:37:39.150492,1709026659.1504922,-50.78125,-1000.0,33.203125,-70.80078125,1.0,0.0,1.0,0.0,5.m4v,2.0
2024-02-27 10:37:39.154397,1709026659.1543975,-56.640625,183.10546875,379.39453125,-58.59375,1.0,0.0,1.0,0.0,5.m4v,2.0
2024-02-27 10:37:39.158303,1709026659.1583028,-60.05859375,999.51171875,568.359375,-46.38671875,1.0,0.0,1.0,0.0,5.m4v,2.0
2024-02-27 10:37:39.162208,1709026659.1622083,-63.4765625,912.109375,442.87109375,-68.359375,1.0,0.0,1.0,0.0,5.m4v,2.0
2024-02-27 10:37:39.166114,1709026659.1661136,-70.3125,968.75,257.8125,-80.078125,1.0,0.0,1.0,0.0,5.m4v,2.0
2024-02-27 10:37:39.170019,1709026659.1700191,-67.3828125,971.19140625,86.42578125,-61.5234375,1.0,0.0,1.0,0.0,5.m4v,2.0
2024-02-27 10:37:39.173924,1709026659.1739244,-68.359375,969.7265625,1.46484375,-57.12890625,1.0,0.0,1.0,0.0,5.m4v,2.0
2024-02-27 10:37:39.177830,1709026659.17783,-67.87109375,969.7265625,51.26953125,-49.8046875,1.0,0.0,1.0,0.0,5.m4v,2.0
2024-02-27 10:37:39.181739,1709026659.1817386,-54.6875,970.21484375,256.8359375,-41.9921875,1.0,0.0,1.0,0.0,5.m4v,2.0
2024-02-27 10:37:39.185644,1709026659.185644,-45.8984375,969.7265625,333.49609375,-52.734375,1.0,0.0,1.0,0.0,5.m4v,2.0
2024-02-27 10:37:39.189549,1709026659.1895494,-52.734375,969.7265625,125.0,-61.5234375,1.0,0.0,1.0,0.0,5.m4v,2.0
2024-02-27 10:37:39.193455,1709026659.193455,-52.734375,969.7265625,-121.58203125,-61.03515625,1.0,0.0,1.0,0.0,5.m4v,2.0
2024-02-27 10:37:39.197360,1709026659.1973605,-52.24609375,969.7265625,-109.86328125,-55.6640625,1.0,0.0,1.0,0.0,5.m4v,2.0
2024-02-27 10:37:39.201266,1709026659.2012658,-53.7109375,986.328125,500.48828125,-50.78125,1.0,0.0,1.0,0.0,5.m4v,2.0
2024-02-27 10:37:39.205171,1709026659.205171,-60.05859375,909.66796875,654.78515625,-55.17578125,1.0,0.0,1.0,0.0,5.m4v,2.0
2024-02-27 10:37:39.209076,1709026659.2090764,-54.19921875,999.51171875,184.08203125,-57.6171875,1.0,0.0,1.0,0.0,5.m4v,2.0
2024-02-27 10:37:39.212982,1709026659.212982,-48.828125,834.47265625,-44.43359375,-47.8515625,1.0,0.0,1.0,0.0,5.m4v,2.0
2024-02-27 10:37:39.216887,1709026659.2168872,-62.5,-626.953125,-287.59765625,-42.96875,1.0,0.0,1.0,0.0,5.m4v,2.0
2024-02-27 10:37:39.220793,1709026659.2207928,-63.96484375,-1000.0,-168.9453125,-44.921875,1.0,0.0,1.0,0.0,5.m4v,2.0
2024-02-27 10:37:39.224698,1709026659.224698,-59.5703125,-926.7578125,-40.0390625,-45.41015625,1.0,0.0,1.0,0.0,5.m4v,2.0
2024-02-27 10:37:39.228606,1709026659.228606,-58.10546875,-1000.0,-272.4609375,-43.45703125,1.0,0.0,1.0,0.0,5.m4v,2.0
2024-02-27 10:37:39.232512,1709026659.2325115,-60.546875,-1000.0,-391.6015625,-56.15234375,1.0,0.0,1.0,0.0,5.m4v,2.0
2024-02-27 10:37:39.236417,1709026659.2364168,-63.96484375,-1000.0,-339.35546875,-69.82421875,1.0,0.0,1.0,0.0,5.m4v,2.0
2024-02-27 10:37:39.240322,1709026659.2403224,-55.17578125,-937.5,-23.92578125,-54.6875,1.0,0.0,1.0,0.0,5.m4v,2.0
2024-02-27 10:37:39.244228,1709026659.2442276,-48.828125,-1000.0,116.69921875,-43.45703125,1.0,0.0,1.0,0.0,5.m4v,2.0
2024-02-27 10:37:39.248133,1709026659.2481332,-42.48046875,-437.01171875,200.68359375,-50.78125,1.0,0.0,1.0,0.0,5.m4v,2.0
2024-02-27 10:37:39.252038,1709026659.2520385,-36.1328125,910.15625,250.0,-50.29296875,1.0,0.0,1.0,0.0,5.m4v,2.0
2024-02-27 10:37:39.255944,1709026659.2559438,-40.52734375,999.51171875,-93.75,-43.9453125,1.0,0.0,1.0,0.0,5.m4v,2.0
2024-02-27 10:37:39.259849,1709026659.2598493,-38.0859375,924.31640625,-42.96875,-44.921875,1.0,0.0,1.0,0.0,5.m4v,2.0
2024-02-27 10:37:39.263755,1709026659.2637546,-28.80859375,982.421875,205.56640625,-42.96875,1.0,0.0,1.0,0.0,5.m4v,2.0
2024-02-27 10:37:39.267660,1709026659.26766,-24.4140625,970.703125,74.70703125,-41.50390625,1.0,0.0,1.0,0.0,5.m4v,2.0
2024-02-27 10:37:39.271565,1709026659.2715654,-22.94921875,979.4921875,146.484375,-28.80859375,1.0,0.0,1.0,0.0,5.m4v,2.0
2024-02-27 10:37:39.275474,1709026659.2754736,-17.08984375,907.2265625,249.0234375,-20.5078125,1.0,0.0,1.0,0.0,5.m4v,2.0
2024-02-27 10:37:39.279379,1709026659.2793791,-17.08984375,999.51171875,-3.41796875,-38.57421875,1.0,0.0,1.0,0.0,5.m4v,2.0
2024-02-27 10:37:39.283284,1709026659.2832844,-33.203125,497.0703125,-0.48828125,-49.31640625,1.0,0.0,1.0,0.0,5.m4v,2.0
2024-02-27 10:37:39.287190,1709026659.28719,-38.0859375,-879.8828125,-162.59765625,-44.921875,1.0,0.0,1.0,0.0,5.m4v,2.0
2024-02-27 10:37:39.291095,1709026659.2910953,-42.48046875,-1000.0,-443.359375,-45.41015625,1.0,0.0,1.0,0.0,5.m4v,2.0
2024-02-27 10:37:39.295001,1709026659.2950008,-48.828125,-947.75390625,-99.609375,-40.0390625,1.0,0.0,1.0,0.0,5.m4v,2.0
2024-02-27 10:37:39.298906,1709026659.298906,-38.0859375,-1000.0,273.4375,-24.90234375,1.0,0.0,1.0,0.0,5.m4v,2.0
2024-02-27 10:37:39.302812,1709026659.3028116,-28.3203125,-1000.0,128.90625,-35.15625,1.0,0.0,1.0,0.0,5.m4v,2.0
2024-02-27 10:37:39.306717,1709026659.306717,-30.76171875,-1000.0,-92.7734375,-51.26953125,1.0,0.0,1.0,0.0,5.m4v,2.0
2024-02-27 10:37:39.310622,1709026659.3106225,-32.71484375,-1000.0,-403.3203125,-50.29296875,1.0,0.0,1.0,0.0,5.m4v,2.0
2024-02-27 10:37:39.314528,1709026659.3145278,-36.62109375,-1000.0,-557.12890625,-42.96875,1.0,0.0,1.0,0.0,5.m4v,2.0
2024-02-27 10:37:39.318433,1709026659.3184333,-41.015625,-1000.0,-309.08203125,-36.62109375,1.0,0.0,1.0,0.0,5.m4v,2.0
2024-02-27 10:37:39.322345,1709026659.3223448,-36.1328125,-933.59375,23.4375,-38.0859375,1.0,0.0,1.0,0.0,5.m4v,2.0
2024-02-27 10:37:39.326250,1709026659.3262503,-35.15625,-1000.0,10.25390625,-42.96875,1.0,0.0,1.0,0.0,5.m4v,2.0
2024-02-27 10:37:39.330156,1709026659.3301556,-42.96875,-463.8671875,2.44140625,-44.43359375,1.0,0.0,1.0,0.0,5.m4v,2.0
2024-02-27 10:37:39.334061,1709026659.3340611,-37.109375,908.203125,87.890625,-41.9921875,1.0,0.0,1.0,0.0,5.m4v,2.0
2024-02-27 10:37:39.337966,1709026659.3379664,-30.76171875,999.51171875,-10.25390625,-39.55078125,1.0,0.0,1.0,0.0,5.m4v,2.0
2024-02-27 10:37:39.341872,1709026659.341872,-41.50390625,922.36328125,493.1640625,-41.015625,1.0,0.0,1.0,0.0,5.m4v,2.0
2024-02-27 10:37:39.345777,1709026659.3457773,-38.0859375,982.91015625,685.05859375,-42.48046875,1.0,0.0,1.0,0.0,5.m4v,2.0
2024-02-27 10:37:39.349683,1709026659.3496828,-32.2265625,969.7265625,66.89453125,-27.83203125,1.0,0.0,1.0,0.0,5.m4v,2.0
2024-02-27 10:37:39.353588,1709026659.353588,-34.1796875,969.7265625,-297.8515625,-19.04296875,1.0,0.0,1.0,0.0,5.m4v,2.0
2024-02-27 10:37:39.357494,1709026659.3574936,-37.59765625,969.7265625,-312.5,-33.203125,1.0,0.0,1.0,0.0,5.m4v,2.0
2024-02-27 10:37:39.361399,1709026659.361399,-34.66796875,969.7265625,-22.4609375,-36.1328125,1.0,0.0,1.0,0.0,5.m4v,2.0
2024-02-27 10:37:39.365304,1709026659.3653042,-30.2734375,970.21484375,152.83203125,-20.5078125,1.0,0.0,1.0,0.0,5.m4v,2.0
2024-02-27 10:37:39.369215,1709026659.3692153,-32.71484375,969.7265625,-96.6796875,-18.5546875,1.0,0.0,1.0,0.0,5.m4v,2.0
2024-02-27 10:37:39.373121,1709026659.3731208,-35.64453125,969.7265625,-277.34375,-36.62109375,1.0,0.0,1.0,0.0,5.m4v,2.0
2024-02-27 10:37:39.377026,1709026659.377026,-33.69140625,969.7265625,-144.04296875,-30.2734375,1.0,0.0,1.0,0.0,5.m4v,2.0
2024-02-27 10:37:39.380932,1709026659.3809316,-29.78515625,969.7265625,134.27734375,-29.296875,1.0,0.0,1.0,0.0,5.m4v,2.0
2024-02-27 10:37:39.384837,1709026659.384837,-24.90234375,985.3515625,238.28125,-39.0625,1.0,0.0,1.0,0.0,5.m4v,2.0
2024-02-27 10:37:39.388742,1709026659.3887424,-18.06640625,915.52734375,176.7578125,-31.25,1.0,0.0,1.0,0.0,5.m4v,2.0
2024-02-27 10:37:39.392648,1709026659.3926475,-16.11328125,999.51171875,205.078125,-32.2265625,1.0,0.0,1.0,0.0,5.m4v,2.0
2024-02-27 10:37:39.396553,1709026659.3965533,-15.625,888.671875,166.9921875,-32.2265625,1.0,0.0,1.0,0.0,5.m4v,2.0
2024-02-27 10:37:39.400459,1709026659.4004586,-22.4609375,-551.7578125,-41.015625,-29.296875,1.0,0.0,1.0,0.0,5.m4v,2.0
2024-02-27 10:37:39.404364,1709026659.404364,-25.87890625,-1000.0,-209.9609375,-34.66796875,1.0,0.0,1.0,0.0,5.m4v,2.0
2024-02-27 10:37:39.408269,1709026659.4082694,-24.4140625,-925.78125,-447.75390625,-33.203125,1.0,0.0,1.0,0.0,5.m4v,2.0
2024-02-27 10:37:39.412175,1709026659.412175,-22.4609375,-1000.0,-638.18359375,-30.76171875,1.0,0.0,1.0,0.0,5.m4v,2.0
2024-02-27 10:37:39.416085,1709026659.4160852,-21.484375,-1000.0,-582.03125,-38.57421875,1.0,0.0,1.0,0.0,5.m4v,2.0
2024-02-27 10:37:39.419991,1709026659.4199908,-14.6484375,-1000.0,-328.61328125,-42.96875,1.0,0.0,1.0,0.0,5.m4v,2.0
2024-02-27 10:37:39.423896,1709026659.423896,0.0,-983.3984375,-83.49609375,-40.52734375,1.0,0.0,1.0,0.0,5.m4v,2.0
2024-02-27 10:37:39.427802,1709026659.4278016,-5.859375,-968.75,-168.45703125,-43.45703125,1.0,0.0,1.0,0.0,5.m4v,2.0
2024-02-27 10:37:39.431707,1709026659.431707,-13.18359375,-1000.0,-468.75,-47.8515625,1.0,0.0,1.0,0.0,5.m4v,2.0
2024-02-27 10:37:39.435612,1709026659.4356124,-4.8828125,15.625,-59.5703125,-36.1328125,1.0,0.0,1.0,0.0,5.m4v,2.0
2024-02-27 10:37:39.884777,1709026659.884777,-21.97265625,-925.29296875,-358.88671875,-36.1328125,1.0,0.0,1.0,0.0,5.m4v,2.0
2024-02-27 10:37:39.888682,1709026659.8886824,-24.4140625,-1000.0,-583.0078125,-40.52734375,1.0,0.0,1.0,0.0,5.m4v,2.0
2024-02-27 10:37:39.892588,1709026659.892588,-25.390625,-1000.0,-822.75390625,-45.41015625,1.0,0.0,1.0,0.0,5.m4v,2.0
2024-02-27 10:37:39.896493,1709026659.8964932,-14.6484375,-939.453125,-640.625,-31.73828125,1.0,0.0,1.0,0.0,5.m4v,2.0
2024-02-27 10:37:39.900399,1709026659.9003987,-10.25390625,-1000.0,-271.97265625,-23.4375,1.0,0.0,1.0,0.0,5.m4v,2.0
2024-02-27 10:37:39.904304,1709026659.904304,-20.01953125,-857.421875,23.92578125,-33.69140625,1.0,0.0,1.0,0.0,5.m4v,2.0
2024-02-27 10:37:39.908210,1709026659.9082096,-1.46484375,606.93359375,311.03515625,-29.78515625,1.0,0.0,1.0,0.0,5.m4v,2.0
2024-02-27 10:37:39.912115,1709026659.9121149,-8.7890625,999.51171875,6.34765625,-33.203125,1.0,0.0,1.0,0.0,5.m4v,2.0
2024-02-27 10:37:39.916020,1709026659.9160204,-21.484375,896.484375,-366.2109375,-40.0390625,1.0,0.0,1.0,0.0,5.m4v,2.0
2024-02-27 10:37:39.919926,1709026659.9199257,-4.39453125,986.328125,-181.640625,-33.69140625,1.0,0.0,1.0,0.0,5.m4v,2.0
2024-02-27 10:37:39.923831,1709026659.9238312,4.8828125,969.7265625,59.08203125,-35.64453125,1.0,0.0,1.0,0.0,5.m4v,2.0
2024-02-27 10:37:39.927737,1709026659.9277363,4.8828125,970.21484375,-96.6796875,-28.80859375,1.0,0.0,1.0,0.0,5.m4v,2.0
2024-02-27 10:37:39.931646,1709026659.931646,-1.46484375,969.7265625,-122.55859375,-27.83203125,1.0,0.0,1.0,0.0,5.m4v,2.0
2024-02-27 10:37:39.935551,1709026659.9355514,-16.11328125,969.7265625,-119.62890625,-42.48046875,1.0,0.0,1.0,0.0,5.m4v,2.0
2024-02-27 10:37:39.939457,1709026659.9394567,-27.34375,969.7265625,-104.98046875,-50.29296875,1.0,0.0,1.0,0.0,5.m4v,2.0
2024-02-27 10:37:39.943362,1709026659.9433622,-22.94921875,977.05078125,30.76171875,-47.8515625,1.0,0.0,1.0,0.0,5.m4v,2.0
2024-02-27 10:37:39.947268,1709026659.9472675,-14.16015625,943.359375,-84.47265625,-43.45703125,1.0,0.0,1.0,0.0,5.m4v,2.0
2024-02-27 10:37:39.951173,1709026659.951173,-6.8359375,954.1015625,15.13671875,-39.0625,1.0,0.0,1.0,0.0,5.m4v,2.0
2024-02-27 10:37:39.955078,1709026659.9550784,-17.08984375,999.51171875,230.95703125,-35.15625,1.0,0.0,1.0,0.0,5.m4v,2.0
2024-02-27 10:37:39.958984,1709026659.958984,-32.2265625,-187.98828125,-33.69140625,-43.9453125,1.0,0.0,1.0,0.0,5.m4v,2.0
2024-02-27 10:37:39.962889,1709026659.9628892,-27.83203125,-1000.0,-307.6171875,-44.43359375,1.0,0.0,1.0,0.0,5.m4v,2.0
2024-02-27 10:37:39.966795,1709026659.9667947,-16.11328125,-945.80078125,-497.0703125,-34.66796875,1.0,0.0,1.0,0.0,5.m4v,2.0
2024-02-27 10:37:39.970700,1709026659.9707,-17.08984375,-997.55859375,-717.28515625,-35.64453125,1.0,0.0,1.0,0.0,5.m4v,2.0
2024-02-27 10:37:39.974605,1709026659.974605,-18.06640625,-1000.0,-716.30859375,-37.109375,1.0,0.0,1.0,0.0,5.m4v,2.0
2024-02-27 10:37:39.978513,1709026659.9785137,-12.20703125,-1000.0,-499.0234375,-26.85546875,1.0,0.0,1.0,0.0,5.m4v,2.0
2024-02-27 10:37:39.982419,1709026659.982419,1.953125,-938.4765625,-199.70703125,-26.85546875,1.0,0.0,1.0,0.0,5.m4v,2.0
2024-02-27 10:37:39.986324,1709026659.9863243,5.37109375,-1000.0,-165.0390625,-28.80859375,1.0,0.0,1.0,0.0,5.m4v,2.0
2024-02-27 10:37:39.990230,1709026659.9902298,-2.44140625,-837.890625,-206.0546875,-26.3671875,1.0,0.0,1.0,0.0,5.m4v,2.0
2024-02-27 10:37:39.994135,1709026659.9941351,7.32421875,628.41796875,-60.546875,-17.08984375,1.0,0.0,1.0,0.0,5.m4v,2.0
2024-02-27 10:37:39.998041,1709026659.998041,13.671875,999.51171875,247.55859375,-1.953125,1.0,0.0,1.0,0.0,5.m4v,2.0
2024-02-27 10:37:40.001946,1709026660.001946,6.34765625,897.4609375,571.77734375,-18.5546875,1.0,0.0,1.0,0.0,5.m4v,2.0
2024-02-27 10:37:40.005851,1709026660.0058513,-4.39453125,986.328125,74.21875,-39.0625,1.0,0.0,1.0,0.0,5.m4v,2.0
2024-02-27 10:37:40.009757,1709026660.0097568,-11.23046875,969.7265625,-494.62890625,-44.921875,1.0,0.0,1.0,0.0,5.m4v,2.0
2024-02-27 10:37:40.013662,1709026660.013662,-16.11328125,969.7265625,-574.70703125,-46.875,1.0,0.0,1.0,0.0,5.m4v,2.0
2024-02-27 10:37:40.017568,1709026660.0175676,-7.8125,969.7265625,-382.8125,-34.1796875,1.0,0.0,1.0,0.0,5.m4v,2.0
2024-02-27 10:37:40.021473,1709026660.021473,5.859375,969.7265625,-109.86328125,-20.99609375,1.0,0.0,1.0,0.0,5.m4v,2.0
2024-02-27 10:37:40.025381,1709026660.0253806,3.41796875,969.7265625,-27.34375,-25.390625,1.0,0.0,1.0,0.0,5.m4v,2.0
2024-02-27 10:37:40.029286,1709026660.029286,2.9296875,969.7265625,-134.765625,-30.76171875,1.0,0.0,1.0,0.0,5.m4v,2.0
2024-02-27 10:37:40.033191,1709026660.0331914,4.8828125,969.7265625,-288.0859375,-33.203125,1.0,0.0,1.0,0.0,5.m4v,2.0
2024-02-27 10:37:40.037097,1709026660.037097,-7.8125,969.7265625,-242.67578125,-38.57421875,1.0,0.0,1.0,0.0,5.m4v,2.0
2024-02-27 10:37:40.041002,1709026660.0410025,-6.8359375,983.3984375,142.578125,-28.3203125,1.0,0.0,1.0,0.0,5.m4v,2.0
2024-02-27 10:37:40.044908,1709026660.0449076,8.30078125,920.8984375,463.37890625,-26.3671875,1.0,0.0,1.0,0.0,5.m4v,2.0
2024-02-27 10:37:40.048813,1709026660.048813,0.0,999.51171875,270.5078125,-36.1328125,1.0,0.0,1.0,0.0,5.m4v,2.0
2024-02-27 10:37:40.052718,1709026660.0527184,-14.6484375,924.8046875,-10.7421875,-39.55078125,1.0,0.0,1.0,0.0,5.m4v,2.0
2024-02-27 10:37:40.056624,1709026660.056624,-18.5546875,-485.83984375,-238.76953125,-43.45703125,1.0,0.0,1.0,0.0,5.m4v,2.0
2024-02-27 10:37:40.060529,1709026660.0605292,-21.484375,-1000.0,-285.15625,-32.2265625,1.0,0.0,1.0,0.0,5.m4v,2.0
2024-02-27 10:37:40.064435,1709026660.0644348,-20.99609375,-926.7578125,-222.16796875,-18.06640625,1.0,0.0,1.0,0.0,5.m4v,2.0
2024-02-27 10:37:40.068340,1709026660.06834,-13.671875,-1000.0,-408.203125,-32.2265625,1.0,0.0,1.0,0.0,5.m4v,2.0
2024-02-27 10:37:40.072252,1709026660.0722518,-7.32421875,-1000.0,-571.77734375,-33.203125,1.0,0.0,1.0,0.0,5.m4v,2.0
2024-02-27 10:37:40.076157,1709026660.076157,-15.13671875,-1000.0,-480.95703125,-18.06640625,1.0,0.0,1.0,0.0,5.m4v,2.0
2024-02-27 10:37:40.080063,1709026660.0800626,-17.08984375,-1000.0,-259.765625,-35.15625,1.0,0.0,1.0,0.0,5.m4v,2.0
2024-02-27 10:37:40.083968,1709026660.0839682,-9.765625,-943.84765625,-226.5625,-48.828125,1.0,0.0,1.0,0.0,5.m4v,2.0
2024-02-27 10:37:40.087873,1709026660.0878737,-5.37109375,-1000.0,-429.6875,-41.50390625,1.0,0.0,1.0,0.0,5.m4v,2.0
2024-02-27 10:37:40.091779,1709026660.091779,1.46484375,-300.29296875,-168.9453125,-31.73828125,1.0,0.0,1.0,0.0,5.m4v,2.0
2024-02-27 10:37:40.095684,1709026660.0956843,-5.37109375,969.7265625,234.86328125,-22.4609375,1.0,0.0,1.0,0.0,5.m4v,2.0
2024-02-27 10:37:40.099590,1709026660.0995896,-20.01953125,976.5625,237.79296875,-27.83203125,1.0,0.0,1.0,0.0,5.m4v,2.0
2024-02-27 10:37:40.103495,1709026660.1034951,-17.08984375,934.5703125,265.13671875,-36.1328125,1.0,0.0,1.0,0.0,5.m4v,2.0
2024-02-27 10:37:40.107400,1709026660.1074004,-13.18359375,979.4921875,194.82421875,-36.62109375,1.0,0.0,1.0,0.0,5.m4v,2.0
2024-02-27 10:37:40.111306,1709026660.111306,-27.34375,970.21484375,134.765625,-37.59765625,1.0,0.0,1.0,0.0,5.m4v,2.0
2024-02-27 10:37:40.115211,1709026660.1152112,-37.59765625,986.328125,17.08984375,-34.1796875,1.0,0.0,1.0,0.0,5.m4v,2.0
2024-02-27 10:37:40.119122,1709026660.1191225,-52.24609375,910.15625,32.71484375,-21.97265625,1.0,0.0,1.0,0.0,5.m4v,2.0
2024-02-27 10:37:40.123028,1709026660.1230278,-63.4765625,999.51171875,166.50390625,-25.87890625,1.0,0.0,1.0,0.0,5.m4v,2.0
2024-02-27 10:37:40.126933,1709026660.126933,-61.03515625,837.40234375,-55.17578125,-40.0390625,1.0,0.0,1.0,0.0,5.m4v,2.0
2024-02-27 10:37:40.130839,1709026660.1308386,-73.2421875,-624.0234375,-444.82421875,-46.38671875,1.0,0.0,1.0,0.0,5.m4v,2.0
2024-02-27 10:37:40.134744,1709026660.134744,-71.2890625,-1000.0,-551.7578125,-40.52734375,1.0,0.0,1.0,0.0,5.m4v,2.0
2024-02-27 10:37:40.138649,1709026660.1386497,-56.15234375,-926.7578125,116.2109375,-26.85546875,1.0,0.0,1.0,0.0,5.m4v,2.0
2024-02-27 10:37:40.142555,1709026660.1425548,-55.17578125,-1000.0,522.4609375,-13.671875,1.0,0.0,1.0,0.0,5.m4v,2.0
2024-02-27 10:37:40.146460,1709026660.1464603,-54.6875,-1000.0,123.53515625,-12.6953125,1.0,0.0,1.0,0.0,5.m4v,2.0
2024-02-27 10:37:40.150366,1709026660.1503656,-59.5703125,-1000.0,-231.4453125,-23.92578125,1.0,0.0,1.0,0.0,5.m4v,2.0
2024-02-27 10:37:40.154271,1709026660.1542711,-58.59375,-1000.0,-285.64453125,-28.3203125,1.0,0.0,1.0,0.0,5.m4v,2.0
2024-02-27 10:37:40.158176,1709026660.1581764,-56.15234375,-1000.0,-97.65625,-33.203125,1.0,0.0,1.0,0.0,5.m4v,2.0
2024-02-27 10:37:40.162082,1709026660.162082,-56.640625,-957.51953125,75.68359375,-29.78515625,1.0,0.0,1.0,0.0,5.m4v,2.0
2024-02-27 10:37:40.165993,1709026660.1659932,-52.734375,-1000.0,-79.58984375,-25.87890625,1.0,0.0,1.0,0.0,5.m4v,2.0
2024-02-27 10:37:40.169899,1709026660.1698985,-50.29296875,-988.28125,-222.65625,-25.390625,1.0,0.0,1.0,0.0,5.m4v,2.0
2024-02-27 10:37:40.173804,1709026660.173804,-45.8984375,382.8125,19.53125,-14.6484375,1.0,0.0,1.0,0.0,5.m4v,2.0
2024-02-27 10:37:40.177709,1709026660.177709,-34.66796875,999.51171875,188.96484375,-9.27734375,1.0,0.0,1.0,0.0,5.m4v,2.0
2024-02-27 10:37:40.181615,1709026660.1816149,-38.57421875,898.92578125,336.42578125,-27.34375,1.0,0.0,1.0,0.0,5.m4v,2.0
2024-02-27 10:37:40.185520,1709026660.1855202,-50.29296875,979.00390625,674.31640625,-34.66796875,1.0,0.0,1.0,0.0,5.m4v,2.0
2024-02-27 10:37:40.189426,1709026660.1894257,-52.734375,969.7265625,632.8125,-32.71484375,1.0,0.0,1.0,0.0,5.m4v,2.0
2024-02-27 10:37:40.193331,1709026660.193331,-60.546875,969.7265625,99.12109375,-45.41015625,1.0,0.0,1.0,0.0,5.m4v,2.0
2024-02-27 10:37:40.197237,1709026660.1972363,-70.80078125,969.7265625,45.8984375,-44.43359375,1.0,0.0,1.0,0.0,5.m4v,2.0
2024-02-27 10:37:40.201142,1709026660.2011418,-62.5,969.7265625,241.69921875,-29.78515625,1.0,0.0,1.0,0.0,5.m4v,2.0
2024-02-27 10:37:40.205047,1709026660.2050471,-52.734375,969.7265625,184.08203125,-25.390625,1.0,0.0,1.0,0.0,5.m4v,2.0
2024-02-27 10:37:40.208953,1709026660.208953,-51.7578125,969.7265625,122.55859375,-30.76171875,1.0,0.0,1.0,0.0,5.m4v,2.0
2024-02-27 10:37:40.212862,1709026660.2128625,-57.12890625,969.7265625,32.71484375,-26.3671875,1.0,0.0,1.0,0.0,5.m4v,2.0
2024-02-27 10:37:40.216768,1709026660.2167678,-56.15234375,969.7265625,63.96484375,-32.71484375,1.0,0.0,1.0,0.0,5.m4v,2.0
2024-02-27 10:37:40.220673,1709026660.220673,-48.33984375,969.7265625,420.8984375,-33.69140625,1.0,0.0,1.0,0.0,5.m4v,2.0
2024-02-27 10:37:40.224579,1709026660.2245786,-45.41015625,969.7265625,462.890625,-17.578125,1.0,0.0,1.0,0.0,5.m4v,2.0
2024-02-27 10:37:40.228484,1709026660.2284842,-44.43359375,980.46875,190.91796875,-15.625,1.0,0.0,1.0,0.0,5.m4v,2.0
2024-02-27 10:37:40.232389,1709026660.2323897,-57.6171875,929.6875,278.3203125,-40.0390625,1.0,0.0,1.0,0.0,5.m4v,2.0
2024-02-27 10:37:40.236295,1709026660.236295,-63.96484375,980.95703125,630.859375,-38.0859375,1.0,0.0,1.0,0.0,5.m4v,2.0
2024-02-27 10:37:40.240200,1709026660.2402003,-53.22265625,975.5859375,731.4453125,-18.5546875,1.0,0.0,1.0,0.0,5.m4v,2.0
2024-02-27 10:37:40.244106,1709026660.2441058,-58.59375,-375.9765625,325.68359375,-36.62109375,1.0,0.0,1.0,0.0,5.m4v,2.0
2024-02-27 10:37:40.248011,1709026660.248011,-71.2890625,-1000.0,-162.59765625,-56.640625,1.0,0.0,1.0,0.0,5.m4v,2.0
2024-02-27 10:37:40.251917,1709026660.2519166,-63.96484375,-930.6640625,-344.23828125,-54.6875,1.0,0.0,1.0,0.0,5.m4v,2.0
2024-02-27 10:37:40.255822,1709026660.255822,-56.15234375,-1000.0,-270.5078125,-42.96875,1.0,0.0,1.0,0.0,5.m4v,2.0
2024-02-27 10:37:40.259732,1709026660.2597315,-58.10546875,-1000.0,43.9453125,-33.203125,1.0,0.0,1.0,0.0,5.m4v,2.0
2024-02-27 10:37:40.263637,1709026660.263637,-48.33984375,-1000.0,226.5625,-23.92578125,1.0,0.0,1.0,0.0,5.m4v,2.0
2024-02-27 10:37:40.267542,1709026660.2675424,-31.73828125,-1000.0,82.03125,-15.13671875,1.0,0.0,1.0,0.0,5.m4v,2.0
2024-02-27 10:37:40.271448,1709026660.271448,-51.26953125,-932.6171875,-77.63671875,-35.15625,1.0,0.0,1.0,0.0,5.m4v,2.0
2024-02-27 10:37:40.275353,1709026660.2753532,-81.0546875,-1000.0,-209.9609375,-55.6640625,1.0,0.0,1.0,0.0,5.m4v,2.0
2024-02-27 10:37:40.279259,1709026660.2792587,-66.89453125,-760.25390625,244.62890625,-41.9921875,1.0,0.0,1.0,0.0,5.m4v,2.0
2024-02-27 10:37:40.283164,1709026660.283164,-44.921875,716.30859375,920.8984375,-24.90234375,1.0,0.0,1.0,0.0,5.m4v,2.0
2024-02-27 10:37:40.287070,1709026660.2870696,-51.7578125,999.51171875,583.984375,-31.73828125,1.0,0.0,1.0,0.0,5.m4v,2.0
2024-02-27 10:37:40.290975,1709026660.2909749,-57.6171875,901.3671875,256.8359375,-42.96875,1.0,0.0,1.0,0.0,5.m4v,2.0
2024-02-27 10:37:40.294880,1709026660.2948804,-58.10546875,987.3046875,252.9296875,-44.43359375,1.0,0.0,1.0,0.0,5.m4v,2.0
2024-02-27 10:37:40.298786,1709026660.2987857,-51.26953125,969.7265625,286.62109375,-33.69140625,1.0,0.0,1.0,0.0,5.m4v,2.0
2024-02-27 10:37:40.302691,1709026660.302691,-41.50390625,969.7265625,454.58984375,-26.3671875,1.0,0.0,1.0,0.0,5.m4v,2.0
2024-02-27 10:37:40.306600,1709026660.3066,-41.015625,969.7265625,361.81640625,-14.16015625,1.0,0.0,1.0,0.0,5.m4v,2.0
2024-02-27 10:37:40.310505,1709026660.3105052,-49.31640625,969.7265625,94.23828125,-28.3203125,1.0,0.0,1.0,0.0,5.m4v,2.0
2024-02-27 10:37:40.314411,1709026660.3144107,-55.17578125,969.7265625,-4.8828125,-50.29296875,1.0,0.0,1.0,0.0,5.m4v,2.0
2024-02-27 10:37:40.318316,1709026660.318316,-48.828125,970.703125,260.7421875,-40.52734375,1.0,0.0,1.0,0.0,5.m4v,2.0
2024-02-27 10:37:40.322222,1709026660.3222215,-44.921875,977.05078125,411.1328125,-39.55078125,1.0,0.0,1.0,0.0,5.m4v,2.0
2024-02-27 10:37:40.326127,1709026660.3261268,-42.96875,905.76171875,447.75390625,-44.43359375,1.0,0.0,1.0,0.0,5.m4v,2.0
2024-02-27 10:37:40.330032,1709026660.3300323,-35.15625,999.51171875,600.09765625,-39.0625,1.0,0.0,1.0,0.0,5.m4v,2.0
2024-02-27 10:37:40.333938,1709026660.3339376,-50.29296875,397.94921875,134.765625,-41.9921875,1.0,0.0,1.0,0.0,5.m4v,2.0
2024-02-27 10:37:40.337843,1709026660.3378432,-64.453125,-951.171875,-305.17578125,-46.875,1.0,0.0,1.0,0.0,5.m4v,2.0
2024-02-27 10:37:40.341748,1709026660.3417485,-55.17578125,-1000.0,-60.05859375,-39.0625,1.0,0.0,1.0,0.0,5.m4v,2.0
2024-02-27 10:37:40.345654,1709026660.345654,-50.29296875,-955.56640625,-60.546875,-36.62109375,1.0,0.0,1.0,0.0,5.m4v,2.0
2024-02-27 10:37:40.349559,1709026660.3495593,-52.734375,-1000.0,-145.99609375,-40.52734375,1.0,0.0,1.0,0.0,5.m4v,2.0
2024-02-27 10:37:40.353468,1709026660.353468,-53.7109375,-1000.0,-7.32421875,-37.59765625,1.0,0.0,1.0,0.0,5.m4v,2.0
2024-02-27 10:37:40.357373,1709026660.3573732,-47.36328125,-1000.0,-59.5703125,-38.57421875,1.0,0.0,1.0,0.0,5.m4v,2.0
2024-02-27 10:37:40.361279,1709026660.3612788,-34.66796875,-971.19140625,149.90234375,-43.45703125,1.0,0.0,1.0,0.0,5.m4v,2.0
2024-02-27 10:37:40.365184,1709026660.365184,-45.41015625,-989.74609375,245.60546875,-44.921875,1.0,0.0,1.0,0.0,5.m4v,2.0
2024-02-27 10:37:40.369090,1709026660.3690896,-49.31640625,-1000.0,-6.8359375,-58.59375,1.0,0.0,1.0,0.0,5.m4v,2.0
2024-02-27 10:37:40.372995,1709026660.372995,-50.29296875,200.68359375,231.93359375,-49.31640625,1.0,0.0,1.0,0.0,5.m4v,2.0
2024-02-27 10:37:40.376900,1709026660.3769004,-57.6171875,999.51171875,609.375,-17.08984375,1.0,0.0,1.0,0.0,5.m4v,2.0
2024-02-27 10:37:40.380806,1709026660.3808055,-50.78125,910.64453125,451.66015625,-33.69140625,1.0,0.0,1.0,0.0,5.m4v,2.0
2024-02-27 10:37:40.384711,1709026660.3847113,-46.38671875,969.7265625,288.57421875,-49.8046875,1.0,0.0,1.0,0.0,5.m4v,2.0
2024-02-27 10:37:40.388617,1709026660.3886166,-47.8515625,971.19140625,171.875,-33.203125,1.0,0.0,1.0,0.0,5.m4v,2.0
2024-02-27 10:37:40.392522,1709026660.392522,-46.875,969.7265625,-30.2734375,-33.203125,1.0,0.0,1.0,0.0,5.m4v,2.0
2024-02-27 10:37:40.396427,1709026660.3964274,-46.875,969.7265625,-29.78515625,-51.7578125,1.0,0.0,1.0,0.0,5.m4v,2.0
2024-02-27 10:37:40.400335,1709026660.400335,-41.9921875,969.7265625,296.875,-41.50390625,1.0,0.0,1.0,0.0,5.m4v,2.0
2024-02-27 10:37:40.404241,1709026660.4042406,-31.25,969.7265625,423.33984375,-34.1796875,1.0,0.0,1.0,0.0,5.m4v,2.0
2024-02-27 10:37:40.408146,1709026660.408146,-23.4375,969.7265625,222.65625,-41.9921875,1.0,0.0,1.0,0.0,5.m4v,2.0
2024-02-27 10:37:40.412051,1709026660.4120514,-20.99609375,969.7265625,199.70703125,-32.71484375,1.0,0.0,1.0,0.0,5.m4v,2.0
2024-02-27 10:37:40.415957,1709026660.4159567,-33.69140625,986.328125,243.1640625,-22.94921875,1.0,0.0,1.0,0.0,5.m4v,2.0
2024-02-27 10:37:40.419862,1709026660.4198625,-36.62109375,904.296875,556.15234375,-32.2265625,1.0,0.0,1.0,0.0,5.m4v,2.0
2024-02-27 10:37:40.423768,1709026660.4237676,-31.25,999.51171875,658.203125,-30.2734375,1.0,0.0,1.0,0.0,5.m4v,2.0
2024-02-27 10:37:40.427673,1709026660.427673,-42.96875,731.93359375,49.31640625,-29.296875,1.0,0.0,1.0,0.0,5.m4v,2.0
2024-02-27 10:37:40.431578,1709026660.4315784,-43.9453125,-731.4453125,-398.92578125,-31.25,1.0,0.0,1.0,0.0,5.m4v,2.0
2024-02-27 10:37:40.435484,1709026660.435484,-37.59765625,-1000.0,-494.62890625,-27.83203125,1.0,0.0,1.0,0.0,5.m4v,2.0
2024-02-27 10:37:40.439389,1709026660.4393892,-35.15625,-932.12890625,-174.8046875,-35.15625,1.0,0.0,1.0,0.0,5.m4v,2.0
2024-02-27 10:37:40.443295,1709026660.4432948,-27.83203125,-1000.0,30.76171875,-39.55078125,1.0,0.0,1.0,0.0,5.m4v,2.0
2024-02-27 10:37:40.447206,1709026660.4472065,-32.71484375,-1000.0,-209.47265625,-39.0625,1.0,0.0,1.0,0.0,5.m4v,2.0
2024-02-27 10:37:40.451112,1709026660.4511118,-32.71484375,-1000.0,-466.796875,-43.9453125,1.0,0.0,1.0,0.0,5.m4v,2.0
2024-02-27 10:37:40.455017,1709026660.455017,-26.3671875,-963.8671875,-455.078125,-38.57421875,1.0,0.0,1.0,0.0,5.m4v,2.0
2024-02-27 10:37:40.458923,1709026660.4589226,-14.6484375,-1000.0,-128.41796875,-23.92578125,1.0,0.0,1.0,0.0,5.m4v,2.0
2024-02-27 10:37:40.462828,1709026660.462828,-11.23046875,-1000.0,87.890625,-15.625,1.0,0.0,1.0,0.0,5.m4v,2.0
2024-02-27 10:37:40.466733,1709026660.4667337,-12.6953125,300.78125,382.32421875,-17.08984375,1.0,0.0,1.0,0.0,5.m4v,2.0
2024-02-27 10:37:40.880747,1709026660.8807473,-44.921875,-1000.0,23.4375,-33.203125,1.0,0.0,1.0,0.0,5.m4v,2.0
2024-02-27 10:37:40.884653,1709026660.8846526,-38.0859375,-1000.0,95.21484375,-35.15625,1.0,0.0,1.0,0.0,5.m4v,2.0
2024-02-27 10:37:40.888558,1709026660.888558,-23.92578125,357.421875,257.32421875,-36.1328125,1.0,0.0,1.0,0.0,5.m4v,2.0
2024-02-27 10:37:40.892463,1709026660.8924634,-23.4375,999.51171875,455.078125,-40.0390625,1.0,0.0,1.0,0.0,5.m4v,2.0
2024-02-27 10:37:40.896369,1709026660.896369,-29.296875,899.4140625,357.91015625,-42.48046875,1.0,0.0,1.0,0.0,5.m4v,2.0
2024-02-27 10:37:40.900274,1709026660.9002745,-26.3671875,978.515625,244.140625,-27.83203125,1.0,0.0,1.0,0.0,5.m4v,2.0
2024-02-27 10:37:40.904180,1709026660.9041798,-40.0390625,969.7265625,19.53125,-23.4375,1.0,0.0,1.0,0.0,5.m4v,2.0
2024-02-27 10:37:40.908085,1709026660.908085,-48.828125,969.7265625,-347.16796875,-32.71484375,1.0,0.0,1.0,0.0,5.m4v,2.0
2024-02-27 10:37:40.911991,1709026660.9119906,-53.7109375,969.7265625,-474.609375,-45.8984375,1.0,0.0,1.0,0.0,5.m4v,2.0
2024-02-27 10:37:40.915901,1709026660.915901,-54.6875,969.7265625,-373.046875,-47.8515625,1.0,0.0,1.0,0.0,5.m4v,2.0
