Timestamp,Timestamp_UNIX,TP9,AF7,AF8,TP10,Valence,Arousal,Dominace,Viewed,Video,Participant
2024-02-28 09:53:03.000409,1709110383.0004086,-25.390625,-45.8984375,-41.9921875,865.234375,0.0,1.0,-1.0,0.0,8.m4v,7.0
2024-02-28 09:53:03.004314,1709110383.0043142,-457.51953125,-50.29296875,-35.64453125,-576.66015625,0.0,1.0,-1.0,0.0,8.m4v,7.0
2024-02-28 09:53:03.008220,1709110383.0082197,-593.26171875,-44.43359375,-23.92578125,-1000.0,0.0,1.0,-1.0,0.0,8.m4v,7.0
2024-02-28 09:53:03.012125,1709110383.0121253,-347.65625,-30.76171875,-20.99609375,-921.875,0.0,1.0,-1.0,0.0,8.m4v,7.0
2024-02-28 09:53:03.016034,1709110383.016034,-274.4140625,-33.203125,-29.78515625,-1000.0,0.0,1.0,-1.0,0.0,8.m4v,7.0
2024-02-28 09:53:03.019940,1709110383.0199397,136.23046875,-30.76171875,-38.0859375,78.61328125,0.0,1.0,-1.0,0.0,8.m4v,7.0
2024-02-28 09:53:03.023845,1709110383.0238454,524.90234375,-21.97265625,-38.57421875,999.51171875,0.0,1.0,-1.0,0.0,8.m4v,7.0
2024-02-28 09:53:03.027751,1709110383.027751,338.8671875,-26.3671875,-27.83203125,950.68359375,0.0,1.0,-1.0,0.0,8.m4v,7.0
2024-02-28 09:53:03.031657,1709110383.0316565,80.078125,-30.76171875,-21.97265625,936.03515625,0.0,1.0,-1.0,0.0,8.m4v,7.0
2024-02-28 09:53:03.035562,1709110383.0355625,-17.08984375,-34.1796875,-25.87890625,955.078125,0.0,1.0,-1.0,0.0,8.m4v,7.0
2024-02-28 09:53:03.281631,1709110383.2816317,440.91796875,-39.0625,-42.48046875,871.09375,0.0,1.0,-1.0,0.0,8.m4v,7.0
2024-02-28 09:53:03.285537,1709110383.2855372,392.08984375,-24.4140625,-47.36328125,986.81640625,0.0,1.0,-1.0,0.0,8.m4v,7.0
2024-02-28 09:53:03.289443,1709110383.2894428,140.625,-14.6484375,-29.296875,737.79296875,0.0,1.0,-1.0,0.0,8.m4v,7.0
2024-02-28 09:53:03.293348,1709110383.2933483,-266.6015625,-31.73828125,-28.3203125,-114.74609375,0.0,1.0,-1.0,0.0,8.m4v,7.0
2024-02-28 09:53:03.297258,1709110383.2972577,-612.79296875,-39.55078125,-37.59765625,-944.3359375,0.0,1.0,-1.0,0.0,8.m4v,7.0
2024-02-28 09:53:03.301163,1709110383.3011632,-363.28125,-38.57421875,-40.52734375,-1000.0,0.0,1.0,-1.0,0.0,8.m4v,7.0
2024-02-28 09:53:03.305069,1709110383.305069,-63.96484375,-38.57421875,-38.57421875,-926.26953125,0.0,1.0,-1.0,0.0,8.m4v,7.0
2024-02-28 09:53:03.308975,1709110383.3089745,-101.5625,-25.87890625,-36.1328125,-1000.0,0.0,1.0,-1.0,0.0,8.m4v,7.0
2024-02-28 09:53:03.312880,1709110383.31288,25.390625,-27.34375,-34.66796875,-484.86328125,0.0,1.0,-1.0,0.0,8.m4v,7.0
2024-02-28 09:53:03.316786,1709110383.3167858,485.3515625,-38.0859375,-27.34375,809.5703125,0.0,1.0,-1.0,0.0,8.m4v,7.0
2024-02-28 09:53:03.320691,1709110383.320691,434.08203125,-21.97265625,-20.5078125,995.60546875,0.0,1.0,-1.0,0.0,8.m4v,7.0
2024-02-28 09:53:03.324597,1709110383.324597,214.35546875,-18.5546875,-33.203125,950.68359375,0.0,1.0,-1.0,0.0,8.m4v,7.0
2024-02-28 09:53:03.328502,1709110383.3285024,-196.77734375,-33.203125,-47.8515625,62.01171875,0.0,1.0,-1.0,0.0,8.m4v,7.0
2024-02-28 09:53:03.484740,1709110383.4847405,-59.08203125,-39.55078125,-34.1796875,-958.49609375,0.0,1.0,-1.0,0.0,8.m4v,7.0
2024-02-28 09:53:03.488646,1709110383.4886458,-97.16796875,-41.50390625,-19.04296875,-1000.0,0.0,1.0,-1.0,0.0,8.m4v,7.0
2024-02-28 09:53:03.492552,1709110383.4925516,67.3828125,-43.45703125,-21.484375,-299.31640625,0.0,1.0,-1.0,0.0,8.m4v,7.0
2024-02-28 09:53:03.496457,1709110383.496457,501.953125,-34.66796875,-29.296875,921.38671875,0.0,1.0,-1.0,0.0,8.m4v,7.0
2024-02-28 09:53:03.500363,1709110383.5003626,425.78125,-25.390625,-31.73828125,985.83984375,0.0,1.0,-1.0,0.0,8.m4v,7.0
2024-02-28 09:53:03.504268,1709110383.5042684,267.08984375,-25.87890625,-40.52734375,933.59375,0.0,1.0,-1.0,0.0,8.m4v,7.0
2024-02-28 09:53:03.508174,1709110383.508174,166.50390625,-34.1796875,-42.48046875,994.140625,0.0,1.0,-1.0,0.0,8.m4v,7.0
2024-02-28 09:53:03.512079,1709110383.5120797,-7.8125,-36.1328125,-33.203125,917.48046875,0.0,1.0,-1.0,0.0,8.m4v,7.0
2024-02-28 09:53:03.515985,1709110383.515985,11.71875,-23.4375,-40.52734375,999.51171875,0.0,1.0,-1.0,0.0,8.m4v,7.0
2024-02-28 09:53:03.519891,1709110383.5198908,41.015625,-25.87890625,-43.9453125,889.6484375,0.0,1.0,-1.0,0.0,8.m4v,7.0
2024-02-28 09:53:03.523796,1709110383.5237963,-388.18359375,-40.0390625,-28.80859375,-534.1796875,0.0,1.0,-1.0,0.0,8.m4v,7.0
2024-02-28 09:53:03.527702,1709110383.527702,-563.96484375,-28.3203125,-21.97265625,-1000.0,0.0,1.0,-1.0,0.0,8.m4v,7.0
2024-02-28 09:53:03.531612,1709110383.531612,-337.890625,-18.5546875,-22.94921875,-904.78515625,0.0,1.0,-1.0,0.0,8.m4v,7.0
2024-02-28 09:53:03.535518,1709110383.5355177,-298.828125,-34.1796875,-35.15625,-1000.0,0.0,1.0,-1.0,0.0,8.m4v,7.0
2024-02-28 09:53:03.539423,1709110383.5394232,22.4609375,-33.203125,-35.15625,-185.546875,0.0,1.0,-1.0,0.0,8.m4v,7.0
2024-02-28 09:53:03.543329,1709110383.5433288,532.71484375,-27.83203125,-19.04296875,904.296875,0.0,1.0,-1.0,0.0,8.m4v,7.0
2024-02-28 09:53:03.547235,1709110383.5472343,380.37109375,-14.6484375,-23.92578125,984.375,0.0,1.0,-1.0,0.0,8.m4v,7.0
2024-02-28 09:53:03.551140,1709110383.55114,95.21484375,-13.671875,-48.33984375,933.59375,0.0,1.0,-1.0,0.0,8.m4v,7.0
2024-02-28 09:53:03.555046,1709110383.5550456,51.26953125,-22.4609375,-44.921875,937.01171875,0.0,1.0,-1.0,0.0,8.m4v,7.0
2024-02-28 09:53:03.558951,1709110383.5589514,112.79296875,-35.15625,-30.76171875,999.51171875,0.0,1.0,-1.0,0.0,8.m4v,7.0
2024-02-28 09:53:03.562857,1709110383.562857,-77.1484375,-37.59765625,-26.85546875,194.82421875,0.0,1.0,-1.0,0.0,8.m4v,7.0
2024-02-28 09:53:03.566762,1709110383.5667624,-513.18359375,-41.015625,-31.73828125,-974.609375,0.0,1.0,-1.0,0.0,8.m4v,7.0
2024-02-28 09:53:03.570668,1709110383.570668,-438.4765625,-37.59765625,-35.15625,-973.6328125,0.0,1.0,-1.0,0.0,8.m4v,7.0
2024-02-28 09:53:03.574574,1709110383.5745738,-305.17578125,-37.109375,-41.50390625,-1000.0,0.0,1.0,-1.0,0.0,8.m4v,7.0
2024-02-28 09:53:03.578483,1709110383.578483,2.44140625,-52.734375,-33.69140625,-252.44140625,0.0,1.0,-1.0,0.0,8.m4v,7.0
2024-02-28 09:53:03.582389,1709110383.5823889,496.09375,-43.9453125,-34.1796875,902.83203125,0.0,1.0,-1.0,0.0,8.m4v,7.0
2024-02-28 09:53:03.586295,1709110383.586295,373.53515625,-21.484375,-34.1796875,985.3515625,0.0,1.0,-1.0,0.0,8.m4v,7.0
2024-02-28 09:53:03.590200,1709110383.5902002,122.55859375,-20.01953125,-21.484375,948.73046875,0.0,1.0,-1.0,0.0,8.m4v,7.0
2024-02-28 09:53:03.594106,1709110383.5941055,19.04296875,-39.55078125,-30.2734375,918.9453125,0.0,1.0,-1.0,0.0,8.m4v,7.0
2024-02-28 09:53:03.598011,1709110383.5980115,71.77734375,-37.59765625,-30.2734375,999.51171875,0.0,1.0,-1.0,0.0,8.m4v,7.0
2024-02-28 09:53:03.601917,1709110383.601917,23.4375,-30.2734375,-21.484375,646.484375,0.0,1.0,-1.0,0.0,8.m4v,7.0
2024-02-28 09:53:03.605823,1709110383.6058226,-485.3515625,-23.4375,-24.4140625,-759.765625,0.0,1.0,-1.0,0.0,8.m4v,7.0
2024-02-28 09:53:03.609728,1709110383.609728,-531.25,-19.53125,-27.34375,-1000.0,0.0,1.0,-1.0,0.0,8.m4v,7.0
2024-02-28 09:53:03.613634,1709110383.613634,-332.03125,-32.2265625,-27.34375,-938.96484375,0.0,1.0,-1.0,0.0,8.m4v,7.0
2024-02-28 09:53:03.617539,1709110383.6175394,-251.953125,-44.43359375,-33.203125,-1000.0,0.0,1.0,-1.0,0.0,8.m4v,7.0
2024-02-28 09:53:03.621445,1709110383.621445,-90.33203125,-43.45703125,-40.52734375,-986.328125,0.0,1.0,-1.0,0.0,8.m4v,7.0
2024-02-28 09:53:03.625355,1709110383.6253543,-23.92578125,-26.3671875,-35.64453125,-970.703125,0.0,1.0,-1.0,0.0,8.m4v,7.0
2024-02-28 09:53:03.629260,1709110383.62926,-95.703125,-20.5078125,-35.64453125,-1000.0,0.0,1.0,-1.0,0.0,8.m4v,7.0
2024-02-28 09:53:03.633166,1709110383.6331658,155.76171875,-28.80859375,-34.1796875,-80.078125,0.0,1.0,-1.0,0.0,8.m4v,7.0
2024-02-28 09:53:03.637071,1709110383.6370714,531.73828125,-38.0859375,-21.484375,999.51171875,0.0,1.0,-1.0,0.0,8.m4v,7.0
2024-02-28 09:53:03.640977,1709110383.640977,387.20703125,-47.8515625,-27.34375,953.61328125,0.0,1.0,-1.0,0.0,8.m4v,7.0
2024-02-28 09:53:03.644883,1709110383.644883,244.140625,-41.9921875,-43.45703125,948.73046875,0.0,1.0,-1.0,0.0,8.m4v,7.0
2024-02-28 09:53:03.648788,1709110383.6487882,147.4609375,-35.15625,-39.0625,991.69921875,0.0,1.0,-1.0,0.0,8.m4v,7.0
2024-02-28 09:53:03.652694,1709110383.6526935,18.5546875,-32.2265625,-35.15625,916.015625,0.0,1.0,-1.0,0.0,8.m4v,7.0
2024-02-28 09:53:03.656599,1709110383.6565993,20.01953125,-43.45703125,-33.69140625,999.51171875,0.0,1.0,-1.0,0.0,8.m4v,7.0
2024-02-28 09:53:03.660505,1709110383.660505,35.15625,-23.92578125,-29.296875,866.2109375,0.0,1.0,-1.0,0.0,8.m4v,7.0
2024-02-28 09:53:03.664411,1709110383.6644106,-388.18359375,-9.27734375,-27.83203125,-572.265625,0.0,1.0,-1.0,0.0,8.m4v,7.0
2024-02-28 09:53:03.668316,1709110383.668316,-650.87890625,-31.25,-24.4140625,-1000.0,0.0,1.0,-1.0,0.0,8.m4v,7.0
2024-02-28 09:53:03.672225,1709110383.6722257,-495.60546875,-33.203125,-12.6953125,-963.37890625,0.0,1.0,-1.0,0.0,8.m4v,7.0
2024-02-28 09:53:03.676131,1709110383.6761312,-252.9296875,-29.296875,-18.06640625,-912.59765625,0.0,1.0,-1.0,0.0,8.m4v,7.0
2024-02-28 09:53:03.680037,1709110383.6800368,335.9375,-25.87890625,-33.69140625,452.63671875,0.0,1.0,-1.0,0.0,8.m4v,7.0
2024-02-28 09:53:03.683942,1709110383.6839423,552.734375,-20.5078125,-33.203125,999.51171875,0.0,1.0,-1.0,0.0,8.m4v,7.0
2024-02-28 09:53:03.687848,1709110383.687848,236.328125,-46.38671875,-32.71484375,918.45703125,0.0,1.0,-1.0,0.0,8.m4v,7.0
2024-02-28 09:53:03.691754,1709110383.6917536,37.109375,-53.7109375,-43.45703125,935.05859375,0.0,1.0,-1.0,0.0,8.m4v,7.0
2024-02-28 09:53:03.695659,1709110383.6956592,46.38671875,-36.1328125,-46.875,990.234375,0.0,1.0,-1.0,0.0,8.m4v,7.0
2024-02-28 09:53:03.699565,1709110383.6995647,85.44921875,-30.2734375,-37.59765625,946.77734375,0.0,1.0,-1.0,0.0,8.m4v,7.0
2024-02-28 09:53:03.703470,1709110383.7034705,-345.21484375,-29.296875,-38.0859375,-409.66796875,0.0,1.0,-1.0,0.0,8.m4v,7.0
2024-02-28 09:53:03.707376,1709110383.707376,-605.46875,-24.4140625,-37.109375,-1000.0,0.0,1.0,-1.0,0.0,8.m4v,7.0
2024-02-28 09:53:03.711282,1709110383.7112815,-390.625,-20.01953125,-41.015625,-917.96875,0.0,1.0,-1.0,0.0,8.m4v,7.0
2024-02-28 09:53:03.715187,1709110383.715187,-279.78515625,-34.1796875,-31.25,-1000.0,0.0,1.0,-1.0,0.0,8.m4v,7.0
2024-02-28 09:53:03.719096,1709110383.7190962,-58.10546875,-47.36328125,-9.27734375,-643.06640625,0.0,1.0,-1.0,0.0,8.m4v,7.0
2024-02-28 09:53:03.723002,1709110383.7230017,240.72265625,-43.45703125,-28.80859375,100.09765625,0.0,1.0,-1.0,0.0,8.m4v,7.0
2024-02-28 09:53:03.726907,1709110383.7269075,241.69921875,-40.0390625,-58.59375,379.39453125,0.0,1.0,-1.0,0.0,8.m4v,7.0
2024-02-28 09:53:03.730813,1709110383.730813,137.20703125,-34.1796875,-54.19921875,588.8671875,0.0,1.0,-1.0,0.0,8.m4v,7.0
2024-02-28 09:53:03.734719,1709110383.7347186,175.29296875,-27.34375,-36.62109375,883.30078125,0.0,1.0,-1.0,0.0,8.m4v,7.0
2024-02-28 09:53:03.738624,1709110383.7386243,208.0078125,-26.85546875,-24.4140625,999.51171875,0.0,1.0,-1.0,0.0,8.m4v,7.0
2024-02-28 09:53:03.742530,1709110383.74253,106.93359375,-26.3671875,-20.5078125,732.421875,0.0,1.0,-1.0,0.0,8.m4v,7.0
2024-02-28 09:53:03.746435,1709110383.7464354,-414.55078125,-25.390625,-25.390625,-674.8046875,0.0,1.0,-1.0,0.0,8.m4v,7.0
2024-02-28 09:53:03.750341,1709110383.750341,-539.0625,-31.25,-25.390625,-1000.0,0.0,1.0,-1.0,0.0,8.m4v,7.0
2024-02-28 09:53:03.754247,1709110383.7542467,-296.875,-14.16015625,-19.04296875,-965.33203125,0.0,1.0,-1.0,0.0,8.m4v,7.0
2024-02-28 09:53:03.758152,1709110383.7581522,41.50390625,-27.34375,-26.85546875,-249.51171875,0.0,1.0,-1.0,0.0,8.m4v,7.0
2024-02-28 09:53:03.762058,1709110383.7620578,450.68359375,-59.5703125,-35.15625,892.08984375,0.0,1.0,-1.0,0.0,8.m4v,7.0
2024-02-28 09:53:03.765967,1709110383.765967,355.95703125,-42.96875,-33.69140625,988.28125,0.0,1.0,-1.0,0.0,8.m4v,7.0
2024-02-28 09:53:03.769872,1709110383.7698722,45.8984375,-30.2734375,-35.64453125,746.58203125,0.0,1.0,-1.0,0.0,8.m4v,7.0
2024-02-28 09:53:03.773778,1709110383.7737775,-77.63671875,-24.4140625,-46.38671875,743.65234375,0.0,1.0,-1.0,0.0,8.m4v,7.0
2024-02-28 09:53:03.777683,1709110383.7776835,31.25,-16.6015625,-52.24609375,999.51171875,0.0,1.0,-1.0,0.0,8.m4v,7.0
2024-02-28 09:53:03.781589,1709110383.781589,-84.47265625,-20.01953125,-42.48046875,583.0078125,0.0,1.0,-1.0,0.0,8.m4v,7.0
2024-02-28 09:53:03.785495,1709110383.7854946,-500.9765625,-25.390625,-26.85546875,-797.36328125,0.0,1.0,-1.0,0.0,8.m4v,7.0
2024-02-28 09:53:03.789400,1709110383.7894003,-415.0390625,-28.3203125,-28.80859375,-1000.0,0.0,1.0,-1.0,0.0,8.m4v,7.0
2024-02-28 09:53:03.793306,1709110383.793306,-321.2890625,-22.94921875,-26.3671875,-1000.0,0.0,1.0,-1.0,0.0,8.m4v,7.0
2024-02-28 09:53:03.797211,1709110383.7972114,-108.88671875,-31.25,-25.87890625,-571.77734375,0.0,1.0,-1.0,0.0,8.m4v,7.0
2024-02-28 09:53:03.801117,1709110383.801117,515.13671875,-33.203125,-29.78515625,764.16015625,0.0,1.0,-1.0,0.0,8.m4v,7.0
2024-02-28 09:53:03.805023,1709110383.8050227,496.58203125,-38.57421875,-35.15625,999.51171875,0.0,1.0,-1.0,0.0,8.m4v,7.0
2024-02-28 09:53:03.808928,1709110383.8089285,167.96875,-58.10546875,-41.015625,917.48046875,0.0,1.0,-1.0,0.0,8.m4v,7.0
2024-02-28 09:53:03.812837,1709110383.8128371,-4.8828125,-60.546875,-40.52734375,915.0390625,0.0,1.0,-1.0,0.0,8.m4v,7.0
2024-02-28 09:53:03.816743,1709110383.816743,12.6953125,-45.41015625,-36.1328125,999.51171875,0.0,1.0,-1.0,0.0,8.m4v,7.0
2024-02-28 09:53:03.820648,1709110383.8206484,38.57421875,-30.76171875,-33.69140625,818.359375,0.0,1.0,-1.0,0.0,8.m4v,7.0
2024-02-28 09:53:03.824554,1709110383.824554,-418.9453125,-31.73828125,-41.9921875,-641.11328125,0.0,1.0,-1.0,0.0,8.m4v,7.0
2024-02-28 09:53:03.828460,1709110383.8284595,-520.99609375,-30.76171875,-38.57421875,-1000.0,0.0,1.0,-1.0,0.0,8.m4v,7.0
2024-02-28 09:53:03.832365,1709110383.8323653,-344.7265625,-24.90234375,-27.34375,-998.046875,0.0,1.0,-1.0,0.0,8.m4v,7.0
2024-02-28 09:53:03.836271,1709110383.8362708,-139.16015625,-21.97265625,-27.83203125,-647.4609375,0.0,1.0,-1.0,0.0,8.m4v,7.0
2024-02-28 09:53:03.840176,1709110383.8401763,388.18359375,-31.25,-26.85546875,715.8203125,0.0,1.0,-1.0,0.0,8.m4v,7.0
2024-02-28 09:53:03.844082,1709110383.844082,423.828125,-36.62109375,-15.625,999.51171875,0.0,1.0,-1.0,0.0,8.m4v,7.0
2024-02-28 09:53:03.847988,1709110383.8479877,153.3203125,-41.50390625,-18.06640625,846.6796875,0.0,1.0,-1.0,0.0,8.m4v,7.0
2024-02-28 09:53:03.851893,1709110383.8518932,-109.375,-41.9921875,-34.66796875,439.94140625,0.0,1.0,-1.0,0.0,8.m4v,7.0
2024-02-28 09:53:03.855799,1709110383.8557987,-128.90625,-28.3203125,-22.94921875,465.8203125,0.0,1.0,-1.0,0.0,8.m4v,7.0
2024-02-28 09:53:03.859707,1709110383.8597074,170.8984375,-28.80859375,-14.6484375,999.51171875,0.0,1.0,-1.0,0.0,8.m4v,7.0
2024-02-28 09:53:03.863613,1709110383.863613,-135.7421875,-40.52734375,-31.73828125,-37.59765625,0.0,1.0,-1.0,0.0,8.m4v,7.0
2024-02-28 09:53:03.867518,1709110383.8675184,-568.359375,-43.9453125,-43.9453125,-1000.0,0.0,1.0,-1.0,0.0,8.m4v,7.0
2024-02-28 09:53:03.871424,1709110383.871424,-393.5546875,-37.59765625,-38.57421875,-1000.0,0.0,1.0,-1.0,0.0,8.m4v,7.0
2024-02-28 09:53:03.875330,1709110383.8753295,-158.69140625,-27.83203125,-36.1328125,-820.3125,0.0,1.0,-1.0,0.0,8.m4v,7.0
2024-02-28 09:53:03.879235,1709110383.8792353,371.09375,-27.34375,-29.296875,524.90234375,0.0,1.0,-1.0,0.0,8.m4v,7.0
2024-02-28 09:53:03.883141,1709110383.8831408,554.19921875,-32.2265625,-31.25,999.51171875,0.0,1.0,-1.0,0.0,8.m4v,7.0
2024-02-28 09:53:03.887047,1709110383.8870466,172.8515625,-25.87890625,-34.1796875,660.15625,0.0,1.0,-1.0,0.0,8.m4v,7.0
2024-02-28 09:53:03.890952,1709110383.890952,-425.29296875,-33.203125,-24.4140625,-620.60546875,0.0,1.0,-1.0,0.0,8.m4v,7.0
2024-02-28 09:53:03.894858,1709110383.8948576,-551.26953125,-44.43359375,-26.3671875,-1000.0,0.0,1.0,-1.0,0.0,8.m4v,7.0
2024-02-28 09:53:03.898763,1709110383.8987632,-300.78125,-45.8984375,-37.59765625,-952.63671875,0.0,1.0,-1.0,0.0,8.m4v,7.0
2024-02-28 09:53:03.902669,1709110383.902669,-179.19921875,-53.22265625,-47.8515625,-957.03125,0.0,1.0,-1.0,0.0,8.m4v,7.0
2024-02-28 09:53:03.906581,1709110383.9065812,-82.51953125,-36.62109375,-47.8515625,-1000.0,0.0,1.0,-1.0,0.0,8.m4v,7.0
2024-02-28 09:53:03.910487,1709110383.9104867,-45.8984375,-21.484375,-39.0625,-889.16015625,0.0,1.0,-1.0,0.0,8.m4v,7.0
2024-02-28 09:53:03.914392,1709110383.9143925,382.32421875,-26.85546875,-29.78515625,545.41015625,0.0,1.0,-1.0,0.0,8.m4v,7.0
2024-02-28 09:53:03.918298,1709110383.918298,566.40625,-31.25,-26.3671875,999.51171875,0.0,1.0,-1.0,0.0,8.m4v,7.0
2024-02-28 09:53:03.922204,1709110383.9222035,305.6640625,-26.3671875,-17.578125,897.4609375,0.0,1.0,-1.0,0.0,8.m4v,7.0
2024-02-28 09:53:03.926109,1709110383.926109,202.1484375,-19.04296875,-28.80859375,986.328125,0.0,1.0,-1.0,0.0,8.m4v,7.0
2024-02-28 09:53:03.930015,1709110383.9300148,76.66015625,-20.5078125,-40.0390625,971.19140625,0.0,1.0,-1.0,0.0,8.m4v,7.0
2024-02-28 09:53:03.933920,1709110383.9339204,-101.5625,-24.90234375,-21.484375,918.45703125,0.0,1.0,-1.0,0.0,8.m4v,7.0
2024-02-28 09:53:03.937826,1709110383.937826,2.9296875,-39.0625,-10.25390625,999.51171875,0.0,1.0,-1.0,0.0,8.m4v,7.0
2024-02-28 09:53:03.941732,1709110383.9417317,-96.6796875,-45.8984375,-24.90234375,361.81640625,0.0,1.0,-1.0,0.0,8.m4v,7.0
2024-02-28 09:53:03.945637,1709110383.9456372,-580.56640625,-35.15625,-45.41015625,-920.8984375,0.0,1.0,-1.0,0.0,8.m4v,7.0
2024-02-28 09:53:03.949543,1709110383.9495428,-509.765625,-37.59765625,-41.9921875,-1000.0,0.0,1.0,-1.0,0.0,8.m4v,7.0
2024-02-28 09:53:03.953453,1709110383.9534526,-287.109375,-42.48046875,-33.203125,-955.078125,0.0,1.0,-1.0,0.0,8.m4v,7.0
2024-02-28 09:53:03.957358,1709110383.9573584,-184.08203125,-43.45703125,-40.0390625,-895.01953125,0.0,1.0,-1.0,0.0,8.m4v,7.0
2024-02-28 09:53:03.961264,1709110383.961264,208.0078125,-31.73828125,-38.0859375,66.89453125,0.0,1.0,-1.0,0.0,8.m4v,7.0
2024-02-28 09:53:03.965169,1709110383.9651694,507.8125,-14.16015625,-27.34375,938.96484375,0.0,1.0,-1.0,0.0,8.m4v,7.0
2024-02-28 09:53:03.969075,1709110383.969075,333.0078125,-11.71875,-25.390625,980.46875,0.0,1.0,-1.0,0.0,8.m4v,7.0
2024-02-28 09:53:03.972981,1709110383.9729807,70.3125,-27.34375,-42.96875,889.6484375,0.0,1.0,-1.0,0.0,8.m4v,7.0
2024-02-28 09:53:03.976886,1709110383.9768865,15.625,-47.36328125,-47.8515625,999.51171875,0.0,1.0,-1.0,0.0,8.m4v,7.0
2024-02-28 09:53:03.980792,1709110383.9807918,-53.7109375,-41.015625,-37.59765625,746.58203125,0.0,1.0,-1.0,0.0,8.m4v,7.0
2024-02-28 09:53:03.984698,1709110383.9846976,-509.27734375,-35.15625,-39.55078125,-696.77734375,0.0,1.0,-1.0,0.0,8.m4v,7.0
2024-02-28 09:53:03.988603,1709110383.988603,-554.19921875,-38.0859375,-40.52734375,-1000.0,0.0,1.0,-1.0,0.0,8.m4v,7.0
2024-02-28 09:53:03.992509,1709110383.9925086,-358.3984375,-51.7578125,-36.1328125,-1000.0,0.0,1.0,-1.0,0.0,8.m4v,7.0
2024-02-28 09:53:03.996414,1709110383.9964144,-131.8359375,-52.734375,-39.55078125,-579.1015625,0.0,1.0,-1.0,0.0,8.m4v,7.0
2024-02-28 09:53:04.000324,1709110384.000324,337.890625,-51.26953125,-46.875,745.60546875,0.0,1.0,-1.0,0.0,8.m4v,7.0
2024-02-28 09:53:04.004230,1709110384.0042295,400.390625,-52.24609375,-48.33984375,999.51171875,0.0,1.0,-1.0,0.0,8.m4v,7.0
2024-02-28 09:53:04.008135,1709110384.008135,215.8203125,-28.80859375,-40.0390625,852.5390625,0.0,1.0,-1.0,0.0,8.m4v,7.0
2024-02-28 09:53:04.012041,1709110384.0120406,-206.54296875,-27.83203125,-36.62109375,-7.8125,0.0,1.0,-1.0,0.0,8.m4v,7.0
2024-02-28 09:53:04.015946,1709110384.0159464,-584.47265625,-33.69140625,-42.48046875,-959.9609375,0.0,1.0,-1.0,0.0,8.m4v,7.0
2024-02-28 09:53:04.019852,1709110384.019852,-346.6796875,-24.90234375,-50.29296875,-1000.0,0.0,1.0,-1.0,0.0,8.m4v,7.0
2024-02-28 09:53:04.023757,1709110384.0237577,-67.87109375,-19.53125,-36.1328125,-924.31640625,0.0,1.0,-1.0,0.0,8.m4v,7.0
2024-02-28 09:53:04.027663,1709110384.0276632,-101.07421875,-30.76171875,-32.2265625,-1000.0,0.0,1.0,-1.0,0.0,8.m4v,7.0
2024-02-28 09:53:04.031569,1709110384.0315688,-124.0234375,-43.45703125,-23.92578125,-910.64453125,0.0,1.0,-1.0,0.0,8.m4v,7.0
2024-02-28 09:53:04.035474,1709110384.0354743,372.0703125,-32.71484375,-23.4375,521.484375,0.0,1.0,-1.0,0.0,8.m4v,7.0
2024-02-28 09:53:04.039380,1709110384.0393798,563.96484375,-45.41015625,-34.1796875,999.51171875,0.0,1.0,-1.0,0.0,8.m4v,7.0
2024-02-28 09:53:04.043286,1709110384.0432856,284.66796875,-45.41015625,-29.296875,875.9765625,0.0,1.0,-1.0,0.0,8.m4v,7.0
2024-02-28 09:53:04.047195,1709110384.047195,120.60546875,-24.90234375,-28.80859375,967.7734375,0.0,1.0,-1.0,0.0,8.m4v,7.0
2024-02-28 09:53:04.051100,1709110384.0511005,-168.9453125,-24.90234375,-42.96875,333.984375,0.0,1.0,-1.0,0.0,8.m4v,7.0
2024-02-28 09:53:04.055006,1709110384.055006,-557.12890625,-27.34375,-36.62109375,-783.69140625,0.0,1.0,-1.0,0.0,8.m4v,7.0
2024-02-28 09:53:04.058912,1709110384.0589118,-489.74609375,-32.71484375,-19.04296875,-1000.0,0.0,1.0,-1.0,0.0,8.m4v,7.0
2024-02-28 09:53:04.062817,1709110384.062817,-183.10546875,-38.57421875,-29.78515625,-929.6875,0.0,1.0,-1.0,0.0,8.m4v,7.0
2024-02-28 09:53:04.066723,1709110384.0667229,-116.2109375,-42.48046875,-35.64453125,-1000.0,0.0,1.0,-1.0,0.0,8.m4v,7.0
2024-02-28 09:53:04.101877,1709110384.101877,-155.2734375,-43.45703125,-23.92578125,-951.66015625,0.0,1.0,-1.0,0.0,8.m4v,7.0
2024-02-28 09:53:04.105783,1709110384.1057825,-67.87109375,-37.109375,-17.578125,-983.88671875,0.0,1.0,-1.0,0.0,8.m4v,7.0
2024-02-28 09:53:04.109688,1709110384.109688,-198.2421875,-30.76171875,-35.15625,-1000.0,0.0,1.0,-1.0,0.0,8.m4v,7.0
2024-02-28 09:53:04.113594,1709110384.1135938,47.36328125,-42.96875,-43.45703125,-16.11328125,0.0,1.0,-1.0,0.0,8.m4v,7.0
2024-02-28 09:53:04.117499,1709110384.1174994,521.484375,-51.7578125,-36.62109375,999.51171875,0.0,1.0,-1.0,0.0,8.m4v,7.0
2024-02-28 09:53:04.121405,1709110384.121405,391.6015625,-45.41015625,-42.96875,940.91796875,0.0,1.0,-1.0,0.0,8.m4v,7.0
2024-02-28 09:53:04.125310,1709110384.1253104,227.5390625,-31.73828125,-38.57421875,966.796875,0.0,1.0,-1.0,0.0,8.m4v,7.0
2024-02-28 09:53:04.129216,1709110384.1292162,29.78515625,-26.3671875,-27.83203125,796.38671875,0.0,1.0,-1.0,0.0,8.m4v,7.0
2024-02-28 09:53:04.133122,1709110384.1331215,-98.14453125,-18.5546875,-32.2265625,652.34375,0.0,1.0,-1.0,0.0,8.m4v,7.0
2024-02-28 09:53:04.137027,1709110384.1370273,94.7265625,-15.625,-31.25,999.51171875,0.0,1.0,-1.0,0.0,8.m4v,7.0
2024-02-28 09:53:04.140936,1709110384.140936,93.26171875,-34.1796875,-26.3671875,822.75390625,0.0,1.0,-1.0,0.0,8.m4v,7.0
2024-02-28 09:53:04.144842,1709110384.1448417,-409.66796875,-37.59765625,-37.109375,-649.4140625,0.0,1.0,-1.0,0.0,8.m4v,7.0
2024-02-28 09:53:04.148747,1709110384.1487472,-524.4140625,-27.83203125,-41.015625,-1000.0,0.0,1.0,-1.0,0.0,8.m4v,7.0
2024-02-28 09:53:04.152653,1709110384.152653,-358.88671875,-24.90234375,-35.64453125,-991.2109375,0.0,1.0,-1.0,0.0,8.m4v,7.0
2024-02-28 09:53:04.156559,1709110384.1565585,-180.6640625,-34.66796875,-36.62109375,-760.25390625,0.0,1.0,-1.0,0.0,8.m4v,7.0
2024-02-28 09:53:04.160464,1709110384.160464,426.7578125,-38.57421875,-28.80859375,646.97265625,0.0,1.0,-1.0,0.0,8.m4v,7.0
2024-02-28 09:53:04.164370,1709110384.1643698,531.73828125,-25.87890625,-22.4609375,999.51171875,0.0,1.0,-1.0,0.0,8.m4v,7.0
2024-02-28 09:53:04.168275,1709110384.1682754,166.9921875,-21.97265625,-36.62109375,919.43359375,0.0,1.0,-1.0,0.0,8.m4v,7.0
2024-02-28 09:53:04.172181,1709110384.172181,-51.7578125,-31.25,-49.8046875,934.08203125,0.0,1.0,-1.0,0.0,8.m4v,7.0
2024-02-28 09:53:04.176087,1709110384.176087,-76.66015625,-46.38671875,-47.36328125,999.51171875,0.0,1.0,-1.0,0.0,8.m4v,7.0
2024-02-28 09:53:04.179992,1709110384.1799922,-8.7890625,-49.8046875,-39.0625,908.203125,0.0,1.0,-1.0,0.0,8.m4v,7.0
2024-02-28 09:53:04.183898,1709110384.1838975,-400.87890625,-41.015625,-35.15625,-509.27734375,0.0,1.0,-1.0,0.0,8.m4v,7.0
2024-02-28 09:53:04.187806,1709110384.1878064,-581.0546875,-33.69140625,-37.59765625,-1000.0,0.0,1.0,-1.0,0.0,8.m4v,7.0
2024-02-28 09:53:04.191712,1709110384.191712,-369.140625,-39.55078125,-42.48046875,-995.60546875,0.0,1.0,-1.0,0.0,8.m4v,7.0
2024-02-28 09:53:04.195617,1709110384.1956174,-160.15625,-44.43359375,-41.50390625,-775.390625,0.0,1.0,-1.0,0.0,8.m4v,7.0
2024-02-28 09:53:04.199523,1709110384.1995232,419.43359375,-40.0390625,-36.1328125,652.34375,0.0,1.0,-1.0,0.0,8.m4v,7.0
2024-02-28 09:53:04.203429,1709110384.2034287,550.29296875,-29.296875,-25.390625,999.51171875,0.0,1.0,-1.0,0.0,8.m4v,7.0
2024-02-28 09:53:04.207334,1709110384.2073345,276.85546875,-15.13671875,-33.203125,917.48046875,0.0,1.0,-1.0,0.0,8.m4v,7.0
2024-02-28 09:53:04.211240,1709110384.2112398,80.078125,-26.85546875,-51.7578125,934.5703125,0.0,1.0,-1.0,0.0,8.m4v,7.0
2024-02-28 09:53:04.215146,1709110384.2151456,-19.53125,-43.9453125,-49.8046875,999.51171875,0.0,1.0,-1.0,0.0,8.m4v,7.0
2024-02-28 09:53:04.219051,1709110384.2190511,-1.46484375,-41.015625,-31.73828125,902.83203125,0.0,1.0,-1.0,0.0,8.m4v,7.0
2024-02-28 09:53:04.222957,1709110384.222957,-393.5546875,-45.8984375,-17.08984375,-517.08984375,0.0,1.0,-1.0,0.0,8.m4v,7.0
2024-02-28 09:53:04.226862,1709110384.2268624,-602.5390625,-37.109375,-15.625,-1000.0,0.0,1.0,-1.0,0.0,8.m4v,7.0
2024-02-28 09:53:04.230768,1709110384.230768,-380.37109375,-22.94921875,-21.484375,-962.890625,0.0,1.0,-1.0,0.0,8.m4v,7.0
2024-02-28 09:53:04.234676,1709110384.2346764,-225.5859375,-30.76171875,-29.78515625,-947.75390625,0.0,1.0,-1.0,0.0,8.m4v,7.0
2024-02-28 09:53:04.238582,1709110384.238582,314.94140625,-26.3671875,-33.203125,456.54296875,0.0,1.0,-1.0,0.0,8.m4v,7.0
2024-02-28 09:53:04.242488,1709110384.2424877,542.96875,-21.484375,-28.80859375,999.51171875,0.0,1.0,-1.0,0.0,8.m4v,7.0
2024-02-28 09:53:04.246393,1709110384.2463932,232.91015625,-37.109375,-23.4375,903.3203125,0.0,1.0,-1.0,0.0,8.m4v,7.0
2024-02-28 09:53:04.250299,1709110384.250299,29.78515625,-34.1796875,-19.04296875,978.02734375,0.0,1.0,-1.0,0.0,8.m4v,7.0
2024-02-28 09:53:04.254205,1709110384.2542045,-33.203125,-36.62109375,-33.69140625,923.828125,0.0,1.0,-1.0,0.0,8.m4v,7.0
2024-02-28 09:53:04.258110,1709110384.25811,93.75,-47.8515625,-56.15234375,999.51171875,0.0,1.0,-1.0,0.0,8.m4v,7.0
2024-02-28 09:53:04.262016,1709110384.2620156,-69.3359375,-33.69140625,-44.43359375,266.6015625,0.0,1.0,-1.0,0.0,8.m4v,7.0
2024-02-28 09:53:04.265921,1709110384.2659214,-519.53125,-38.57421875,-43.45703125,-949.70703125,0.0,1.0,-1.0,0.0,8.m4v,7.0
2024-02-28 09:53:04.269827,1709110384.269827,-465.33203125,-40.0390625,-41.9921875,-980.46875,0.0,1.0,-1.0,0.0,8.m4v,7.0
2024-02-28 09:53:04.273732,1709110384.2737324,-309.5703125,-25.87890625,-21.97265625,-1000.0,0.0,1.0,-1.0,0.0,8.m4v,7.0
2024-02-28 09:53:04.277638,1709110384.2776382,8.7890625,-22.4609375,-11.71875,-320.80078125,0.0,1.0,-1.0,0.0,8.m4v,7.0
2024-02-28 09:53:04.281546,1709110384.281546,469.23828125,-38.0859375,-19.04296875,872.0703125,0.0,1.0,-1.0,0.0,8.m4v,7.0
2024-02-28 09:53:04.285452,1709110384.2854517,367.67578125,-43.45703125,-32.2265625,994.62890625,0.0,1.0,-1.0,0.0,8.m4v,7.0
2024-02-28 09:53:04.289357,1709110384.2893572,113.28125,-36.62109375,-34.1796875,947.75390625,0.0,1.0,-1.0,0.0,8.m4v,7.0
2024-02-28 09:53:04.293263,1709110384.293263,-23.92578125,-26.85546875,-28.3203125,920.41015625,0.0,1.0,-1.0,0.0,8.m4v,7.0
2024-02-28 09:53:04.297168,1709110384.2971685,14.16015625,-19.53125,-31.25,999.51171875,0.0,1.0,-1.0,0.0,8.m4v,7.0
2024-02-28 09:53:04.301074,1709110384.301074,-18.06640625,-33.203125,-36.62109375,793.9453125,0.0,1.0,-1.0,0.0,8.m4v,7.0
2024-02-28 09:53:04.304980,1709110384.3049798,-562.98828125,-49.8046875,-44.43359375,-659.66796875,0.0,1.0,-1.0,0.0,8.m4v,7.0
2024-02-28 09:53:04.308885,1709110384.308885,-561.03515625,-52.734375,-32.71484375,-1000.0,0.0,1.0,-1.0,0.0,8.m4v,7.0
2024-02-28 09:53:04.312791,1709110384.3127909,-252.9296875,-32.2265625,-5.859375,-975.09765625,0.0,1.0,-1.0,0.0,8.m4v,7.0
2024-02-28 09:53:04.316696,1709110384.3166964,-119.62890625,-22.4609375,-25.390625,-843.75,0.0,1.0,-1.0,0.0,8.m4v,7.0
2024-02-28 09:53:04.320602,1709110384.3206022,408.69140625,-22.94921875,-33.203125,534.66796875,0.0,1.0,-1.0,0.0,8.m4v,7.0
2024-02-28 09:53:04.324508,1709110384.3245077,551.7578125,-33.69140625,-32.2265625,999.51171875,0.0,1.0,-1.0,0.0,8.m4v,7.0
2024-02-28 09:53:04.328418,1709110384.3284175,213.37890625,-38.57421875,-48.828125,921.875,0.0,1.0,-1.0,0.0,8.m4v,7.0
2024-02-28 09:53:04.332323,1709110384.332323,17.08984375,-32.71484375,-37.109375,919.921875,0.0,1.0,-1.0,0.0,8.m4v,7.0
2024-02-28 09:53:04.336229,1709110384.3362288,39.55078125,-24.4140625,-33.69140625,999.51171875,0.0,1.0,-1.0,0.0,8.m4v,7.0
2024-02-28 09:53:04.340134,1709110384.3401344,14.16015625,-31.73828125,-51.7578125,787.109375,0.0,1.0,-1.0,0.0,8.m4v,7.0
2024-02-28 09:53:04.344040,1709110384.34404,-446.2890625,-32.71484375,-44.43359375,-673.33984375,0.0,1.0,-1.0,0.0,8.m4v,7.0
2024-02-28 09:53:04.347946,1709110384.3479457,-519.53125,-35.15625,-30.76171875,-1000.0,0.0,1.0,-1.0,0.0,8.m4v,7.0
2024-02-28 09:53:04.351851,1709110384.3518512,-324.70703125,-48.33984375,-35.15625,-974.609375,0.0,1.0,-1.0,0.0,8.m4v,7.0
2024-02-28 09:53:04.355757,1709110384.3557568,-221.6796875,-52.24609375,-37.59765625,-882.8125,0.0,1.0,-1.0,0.0,8.m4v,7.0
2024-02-28 09:53:04.359662,1709110384.3596623,316.40625,-48.828125,-31.73828125,514.6484375,0.0,1.0,-1.0,0.0,8.m4v,7.0
2024-02-28 09:53:04.363568,1709110384.363568,513.18359375,-41.9921875,-27.34375,999.51171875,0.0,1.0,-1.0,0.0,8.m4v,7.0
2024-02-28 09:53:04.367474,1709110384.3674736,208.49609375,-29.296875,-20.01953125,912.59765625,0.0,1.0,-1.0,0.0,8.m4v,7.0
2024-02-28 09:53:04.371379,1709110384.3713791,-20.01953125,-16.11328125,-24.90234375,949.70703125,0.0,1.0,-1.0,0.0,8.m4v,7.0
2024-02-28 09:53:04.375289,1709110384.3752887,-105.46875,-20.5078125,-31.25,967.7734375,0.0,1.0,-1.0,0.0,8.m4v,7.0
2024-02-28 09:53:04.379194,1709110384.3791945,2.9296875,-25.390625,-27.34375,990.72265625,0.0,1.0,-1.0,0.0,8.m4v,7.0
2024-02-28 09:53:04.383100,1709110384.3831,-237.79296875,-37.59765625,-31.25,-247.55859375,0.0,1.0,-1.0,0.0,8.m4v,7.0
2024-02-28 09:53:04.387006,1709110384.3870056,-517.08984375,-47.8515625,-35.64453125,-1000.0,0.0,1.0,-1.0,0.0,8.m4v,7.0
2024-02-28 09:53:04.390911,1709110384.390911,-345.703125,-33.203125,-41.9921875,-984.86328125,0.0,1.0,-1.0,0.0,8.m4v,7.0
2024-02-28 09:53:04.394817,1709110384.3948169,-195.3125,-38.57421875,-44.43359375,-917.48046875,0.0,1.0,-1.0,0.0,8.m4v,7.0
2024-02-28 09:53:04.398722,1709110384.3987224,299.8046875,-56.640625,-38.0859375,453.61328125,0.0,1.0,-1.0,0.0,8.m4v,7.0
2024-02-28 09:53:04.402628,1709110384.402628,531.25,-47.36328125,-27.34375,999.51171875,0.0,1.0,-1.0,0.0,8.m4v,7.0
2024-02-28 09:53:04.406534,1709110384.4065337,265.625,-28.80859375,-27.83203125,913.0859375,0.0,1.0,-1.0,0.0,8.m4v,7.0
2024-02-28 09:53:04.410439,1709110384.4104393,-67.87109375,-28.3203125,-28.80859375,520.99609375,0.0,1.0,-1.0,0.0,8.m4v,7.0
2024-02-28 09:53:04.414345,1709110384.4143448,-440.91796875,-36.62109375,-26.85546875,-580.56640625,0.0,1.0,-1.0,0.0,8.m4v,7.0
2024-02-28 09:53:04.418250,1709110384.4182503,-489.74609375,-37.109375,-41.015625,-1000.0,0.0,1.0,-1.0,0.0,8.m4v,7.0
2024-02-28 09:53:04.422160,1709110384.4221597,-246.58203125,-34.1796875,-51.26953125,-943.359375,0.0,1.0,-1.0,0.0,8.m4v,7.0
2024-02-28 09:53:04.426065,1709110384.4260654,-105.95703125,-23.92578125,-47.8515625,-989.2578125,0.0,1.0,-1.0,0.0,8.m4v,7.0
2024-02-28 09:53:04.429971,1709110384.429971,-126.953125,-17.578125,-39.0625,-1000.0,0.0,1.0,-1.0,0.0,8.m4v,7.0
2024-02-28 09:53:04.433877,1709110384.4338765,206.54296875,-20.01953125,-39.55078125,135.7421875,0.0,1.0,-1.0,0.0,8.m4v,7.0
2024-02-28 09:53:04.437782,1709110384.437782,545.8984375,-28.3203125,-42.96875,999.51171875,0.0,1.0,-1.0,0.0,8.m4v,7.0
2024-02-28 09:53:04.441688,1709110384.4416878,359.375,-32.2265625,-26.3671875,916.50390625,0.0,1.0,-1.0,0.0,8.m4v,7.0
2024-02-28 09:53:04.445593,1709110384.4455934,157.2265625,-37.109375,-17.08984375,978.02734375,0.0,1.0,-1.0,0.0,8.m4v,7.0
2024-02-28 09:53:04.449499,1709110384.449499,-339.84375,-42.48046875,-37.59765625,-80.078125,0.0,1.0,-1.0,0.0,8.m4v,7.0
2024-02-28 09:53:04.453405,1709110384.453405,-661.1328125,-34.1796875,-50.78125,-1000.0,0.0,1.0,-1.0,0.0,8.m4v,7.0
2024-02-28 09:53:04.457310,1709110384.4573102,-341.796875,-31.25,-32.71484375,-979.98046875,0.0,1.0,-1.0,0.0,8.m4v,7.0
2024-02-28 09:53:04.461216,1709110384.4612155,-108.3984375,-37.59765625,-38.0859375,-975.09765625,0.0,1.0,-1.0,0.0,8.m4v,7.0
2024-02-28 09:53:04.465122,1709110384.4651215,-34.1796875,-21.484375,-45.41015625,-971.19140625,0.0,1.0,-1.0,0.0,8.m4v,7.0
2024-02-28 09:53:04.469030,1709110384.4690304,-118.1640625,-17.08984375,-45.41015625,-1000.0,0.0,1.0,-1.0,0.0,8.m4v,7.0
2024-02-28 09:53:04.472936,1709110384.4729362,95.21484375,-28.80859375,-42.48046875,-143.5546875,0.0,1.0,-1.0,0.0,8.m4v,7.0
2024-02-28 09:53:04.476842,1709110384.4768417,569.82421875,-25.390625,-26.85546875,983.3984375,0.0,1.0,-1.0,0.0,8.m4v,7.0
2024-02-28 09:53:04.480747,1709110384.4807472,444.82421875,-26.85546875,-30.2734375,962.40234375,0.0,1.0,-1.0,0.0,8.m4v,7.0
2024-02-28 09:53:04.484653,1709110384.4846528,214.84375,-26.85546875,-26.3671875,943.84765625,0.0,1.0,-1.0,0.0,8.m4v,7.0
2024-02-28 09:53:04.488559,1709110384.4885583,109.375,-36.62109375,-22.4609375,992.67578125,0.0,1.0,-1.0,0.0,8.m4v,7.0
2024-02-28 09:53:04.492464,1709110384.492464,-50.29296875,-43.9453125,-30.76171875,909.1796875,0.0,1.0,-1.0,0.0,8.m4v,7.0
2024-02-28 09:53:04.496370,1709110384.4963696,-41.50390625,-47.36328125,-42.96875,999.51171875,0.0,1.0,-1.0,0.0,8.m4v,7.0
2024-02-28 09:53:04.500275,1709110384.5002754,-45.8984375,-46.875,-49.31640625,764.6484375,0.0,1.0,-1.0,0.0,8.m4v,7.0
2024-02-28 09:53:04.504181,1709110384.504181,-487.3046875,-33.203125,-47.36328125,-687.01171875,0.0,1.0,-1.0,0.0,8.m4v,7.0
2024-02-28 09:53:04.508086,1709110384.5080864,-588.8671875,-24.4140625,-41.9921875,-1000.0,0.0,1.0,-1.0,0.0,8.m4v,7.0
2024-02-28 09:53:04.511992,1709110384.5119922,-390.625,-8.7890625,-24.90234375,-941.40625,0.0,1.0,-1.0,0.0,8.m4v,7.0
2024-02-28 09:53:04.515901,1709110384.5159009,-253.90625,-9.765625,-30.2734375,-955.078125,0.0,1.0,-1.0,0.0,8.m4v,7.0
2024-02-28 09:53:04.519806,1709110384.5198064,243.65234375,-22.4609375,-38.0859375,213.8671875,0.0,1.0,-1.0,0.0,8.m4v,7.0
2024-02-28 09:53:04.523712,1709110384.5237122,566.40625,-20.99609375,-24.4140625,999.51171875,0.0,1.0,-1.0,0.0,8.m4v,7.0
2024-02-28 09:53:04.527618,1709110384.5276177,334.9609375,-43.45703125,-17.578125,943.84765625,0.0,1.0,-1.0,0.0,8.m4v,7.0
2024-02-28 09:53:04.531523,1709110384.5315232,81.54296875,-42.48046875,-28.80859375,930.17578125,0.0,1.0,-1.0,0.0,8.m4v,7.0
2024-02-28 09:53:04.535429,1709110384.535429,17.08984375,-29.296875,-38.57421875,973.6328125,0.0,1.0,-1.0,0.0,8.m4v,7.0
2024-02-28 09:53:04.539335,1709110384.5393343,72.75390625,-45.8984375,-36.1328125,988.76953125,0.0,1.0,-1.0,0.0,8.m4v,7.0
2024-02-28 09:53:04.543240,1709110384.54324,-276.3671875,-44.921875,-41.9921875,-258.30078125,0.0,1.0,-1.0,0.0,8.m4v,7.0
2024-02-28 09:53:04.547146,1709110384.5471458,-597.16796875,-32.2265625,-36.1328125,-1000.0,0.0,1.0,-1.0,0.0,8.m4v,7.0
2024-02-28 09:53:04.551051,1709110384.5510514,-423.828125,-21.484375,-33.203125,-928.22265625,0.0,1.0,-1.0,0.0,8.m4v,7.0
2024-02-28 09:53:04.558862,1709110384.5588624,90.8203125,-24.4140625,-26.3671875,-65.4296875,0.0,1.0,-1.0,0.0,8.m4v,7.0
2024-02-28 09:53:04.566677,1709110384.5666766,387.20703125,-9.765625,-28.3203125,963.37890625,0.0,1.0,-1.0,0.0,8.m4v,7.0
2024-02-28 09:53:04.679945,1709110384.6799445,-188.4765625,-29.296875,-30.2734375,-975.09765625,0.0,1.0,-1.0,0.0,8.m4v,7.0
2024-02-28 09:53:04.683850,1709110384.68385,-66.89453125,-38.57421875,-20.99609375,-950.68359375,0.0,1.0,-1.0,0.0,8.m4v,7.0
2024-02-28 09:53:04.687756,1709110384.6877556,-83.0078125,-41.9921875,-20.01953125,-1000.0,0.0,1.0,-1.0,0.0,8.m4v,7.0
2024-02-28 09:53:04.691661,1709110384.6916614,-31.73828125,-47.36328125,-38.57421875,-705.078125,0.0,1.0,-1.0,0.0,8.m4v,7.0
2024-02-28 09:53:04.695567,1709110384.695567,473.14453125,-46.38671875,-42.48046875,711.42578125,0.0,1.0,-1.0,0.0,8.m4v,7.0
2024-02-28 09:53:04.699472,1709110384.6994724,479.98046875,-37.109375,-38.0859375,999.51171875,0.0,1.0,-1.0,0.0,8.m4v,7.0
2024-02-28 09:53:04.703382,1709110384.7033825,217.7734375,-28.3203125,-42.48046875,952.1484375,0.0,1.0,-1.0,0.0,8.m4v,7.0
2024-02-28 09:53:04.711194,1709110384.7111936,-537.59765625,-32.2265625,-33.203125,-665.0390625,0.0,1.0,-1.0,0.0,8.m4v,7.0
2024-02-28 09:53:04.719005,1709110384.7190049,-214.84375,-12.20703125,-13.18359375,-802.24609375,0.0,1.0,-1.0,0.0,8.m4v,7.0
2024-02-28 09:53:04.726816,1709110384.726816,-41.015625,-36.62109375,-33.203125,-1000.0,0.0,1.0,-1.0,0.0,8.m4v,7.0
2024-02-28 09:53:04.734627,1709110384.7346272,279.296875,-23.92578125,-36.1328125,451.66015625,0.0,1.0,-1.0,0.0,8.m4v,7.0
2024-02-28 09:53:04.742438,1709110384.7424383,283.69140625,-40.52734375,-54.6875,898.92578125,0.0,1.0,-1.0,0.0,8.m4v,7.0
2024-02-28 09:53:04.750254,1709110384.7502537,37.59765625,-30.76171875,-20.01953125,945.80078125,0.0,1.0,-1.0,0.0,8.m4v,7.0
2024-02-28 09:53:04.758065,1709110384.7580647,-2.9296875,-36.62109375,-19.04296875,999.51171875,0.0,1.0,-1.0,0.0,8.m4v,7.0
2024-02-28 09:53:04.765876,1709110384.765876,-669.43359375,-48.828125,-28.3203125,-1000.0,0.0,1.0,-1.0,0.0,8.m4v,7.0
2024-02-28 09:53:04.773687,1709110384.7736874,-333.984375,-29.296875,-62.98828125,-1000.0,0.0,1.0,-1.0,0.0,8.m4v,7.0
2024-02-28 09:53:04.781498,1709110384.7814984,590.8203125,-22.4609375,-22.94921875,992.1875,0.0,1.0,-1.0,0.0,8.m4v,7.0
2024-02-28 09:53:04.789310,1709110384.7893095,96.6796875,-46.875,-18.5546875,949.70703125,0.0,1.0,-1.0,0.0,8.m4v,7.0
2024-02-28 09:53:04.797125,1709110384.7971246,14.16015625,-36.1328125,-46.875,999.51171875,0.0,1.0,-1.0,0.0,8.m4v,7.0
2024-02-28 09:53:04.804936,1709110384.804936,-526.85546875,-25.390625,-42.48046875,-912.109375,0.0,1.0,-1.0,0.0,8.m4v,7.0
2024-02-28 09:53:04.812747,1709110384.812747,-335.44921875,-31.25,-40.0390625,-1000.0,0.0,1.0,-1.0,0.0,8.m4v,7.0
2024-02-28 09:53:04.820558,1709110384.8205583,477.5390625,-33.203125,-39.0625,831.0546875,0.0,1.0,-1.0,0.0,8.m4v,7.0
2024-02-28 09:53:04.828369,1709110384.8283694,97.16796875,-21.97265625,-20.99609375,921.875,0.0,1.0,-1.0,0.0,8.m4v,7.0
2024-02-28 09:53:04.836181,1709110384.8361807,0.0,-43.9453125,-39.0625,999.51171875,0.0,1.0,-1.0,0.0,8.m4v,7.0
2024-02-28 09:53:04.843995,1709110384.843995,-476.07421875,-39.55078125,-34.1796875,-663.0859375,0.0,1.0,-1.0,0.0,8.m4v,7.0
2024-02-28 09:53:04.851807,1709110384.8518066,-311.03515625,-34.1796875,-31.25,-914.55078125,0.0,1.0,-1.0,0.0,8.m4v,7.0
2024-02-28 09:53:04.859618,1709110384.8596177,123.53515625,-43.9453125,-43.9453125,-142.08984375,0.0,1.0,-1.0,0.0,8.m4v,7.0
2024-02-28 09:53:04.867429,1709110384.867429,386.71875,-21.97265625,-31.73828125,985.3515625,0.0,1.0,-1.0,0.0,8.m4v,7.0
2024-02-28 09:53:04.875240,1709110384.87524,-27.83203125,-48.828125,-40.52734375,949.21875,0.0,1.0,-1.0,0.0,8.m4v,7.0
2024-02-28 09:53:04.883051,1709110384.8830514,-155.76171875,-26.85546875,-12.20703125,35.64453125,0.0,1.0,-1.0,0.0,8.m4v,7.0
2024-02-28 09:53:04.890866,1709110384.8908658,-458.49609375,-36.62109375,-31.25,-1000.0,0.0,1.0,-1.0,0.0,8.m4v,7.0
2024-02-28 09:53:04.898677,1709110384.8986769,307.6171875,-24.4140625,-21.97265625,480.95703125,0.0,1.0,-1.0,0.0,8.m4v,7.0
2024-02-28 09:53:04.906488,1709110384.9064882,236.81640625,-35.15625,-50.78125,841.796875,0.0,1.0,-1.0,0.0,8.m4v,7.0
2024-02-28 09:53:04.914299,1709110384.9142995,-80.56640625,-26.85546875,-33.203125,733.3984375,0.0,1.0,-1.0,0.0,8.m4v,7.0
2024-02-28 09:53:04.922111,1709110384.9221106,-111.81640625,-52.24609375,-31.25,44.43359375,0.0,1.0,-1.0,0.0,8.m4v,7.0
2024-02-28 09:53:04.929922,1709110384.929922,-443.84765625,-32.71484375,-35.64453125,-955.56640625,0.0,1.0,-1.0,0.0,8.m4v,7.0
2024-02-28 09:53:04.937736,1709110384.937736,102.05078125,-26.3671875,-27.83203125,-215.8203125,0.0,1.0,-1.0,0.0,8.m4v,7.0
2024-02-28 09:53:04.945547,1709110384.945547,436.5234375,-31.25,-50.78125,979.00390625,0.0,1.0,-1.0,0.0,8.m4v,7.0
2024-02-28 09:53:04.953358,1709110384.9533584,2.44140625,-42.96875,-29.296875,917.96875,0.0,1.0,-1.0,0.0,8.m4v,7.0
2024-02-28 09:53:04.961169,1709110384.9611695,0.48828125,-30.76171875,-30.2734375,688.96484375,0.0,1.0,-1.0,0.0,8.m4v,7.0
2024-02-28 09:53:04.968981,1709110384.9689808,-650.87890625,-53.22265625,-48.33984375,-1000.0,0.0,1.0,-1.0,0.0,8.m4v,7.0
2024-02-28 09:53:04.976792,1709110384.976792,-123.046875,-51.7578125,-30.2734375,-939.453125,0.0,1.0,-1.0,0.0,8.m4v,7.0
2024-02-28 09:53:04.984606,1709110384.9846058,12.6953125,-28.3203125,-28.80859375,-895.01953125,0.0,1.0,-1.0,0.0,8.m4v,7.0
2024-02-28 09:53:04.992417,1709110384.992417,-19.04296875,-28.3203125,-30.2734375,-289.0625,0.0,1.0,-1.0,0.0,8.m4v,7.0
2024-02-28 09:53:05.000228,1709110385.0002284,481.93359375,-44.43359375,-39.55078125,987.3046875,0.0,1.0,-1.0,0.0,8.m4v,7.0
2024-02-28 09:53:05.008039,1709110385.0080397,131.34765625,-40.52734375,-28.80859375,995.60546875,0.0,1.0,-1.0,0.0,8.m4v,7.0
2024-02-28 09:53:05.015851,1709110385.0158508,-20.01953125,-25.390625,-25.87890625,999.51171875,0.0,1.0,-1.0,0.0,8.m4v,7.0
2024-02-28 09:53:05.023662,1709110385.023662,-462.40234375,-48.33984375,-29.296875,-625.9765625,0.0,1.0,-1.0,0.0,8.m4v,7.0
2024-02-28 09:53:05.031476,1709110385.0314755,-439.94140625,-27.83203125,-35.15625,-994.140625,0.0,1.0,-1.0,0.0,8.m4v,7.0
2024-02-28 09:53:05.039287,1709110385.0392866,393.5546875,-29.78515625,-36.62109375,643.5546875,0.0,1.0,-1.0,0.0,8.m4v,7.0
2024-02-28 09:53:05.051003,1709110385.0510037,33.69140625,-41.9921875,-38.0859375,852.5390625,0.0,1.0,-1.0,0.0,8.m4v,7.0
2024-02-28 09:53:05.500187,1709110385.5001867,460.44921875,-31.25,-38.57421875,723.6328125,0.0,1.0,-1.0,0.0,8.m4v,7.0
2024-02-28 09:53:05.504092,1709110385.5040922,473.14453125,-24.90234375,-52.24609375,999.51171875,0.0,1.0,-1.0,0.0,8.m4v,7.0
2024-02-28 09:53:05.507998,1709110385.507998,136.23046875,-53.22265625,-43.9453125,926.26953125,0.0,1.0,-1.0,0.0,8.m4v,7.0
2024-02-28 09:53:05.511904,1709110385.5119035,-11.23046875,-59.08203125,-26.3671875,927.24609375,0.0,1.0,-1.0,0.0,8.m4v,7.0
2024-02-28 09:53:05.515809,1709110385.515809,-43.9453125,-31.73828125,-32.71484375,999.51171875,0.0,1.0,-1.0,0.0,8.m4v,7.0
2024-02-28 09:53:05.519715,1709110385.5197146,-50.29296875,-23.4375,-35.15625,857.421875,0.0,1.0,-1.0,0.0,8.m4v,7.0
2024-02-28 09:53:05.523620,1709110385.5236204,-424.8046875,-30.76171875,-30.76171875,-580.078125,0.0,1.0,-1.0,0.0,8.m4v,7.0
2024-02-28 09:53:05.527526,1709110385.527526,-563.96484375,-44.921875,-37.59765625,-1000.0,0.0,1.0,-1.0,0.0,8.m4v,7.0
2024-02-28 09:53:05.531431,1709110385.5314314,-370.1171875,-39.55078125,-40.52734375,-927.734375,0.0,1.0,-1.0,0.0,8.m4v,7.0
2024-02-28 09:53:05.535337,1709110385.5353372,-280.76171875,-28.80859375,-32.71484375,-1000.0,0.0,1.0,-1.0,0.0,8.m4v,7.0
2024-02-28 09:53:05.539243,1709110385.5392427,-125.9765625,-33.203125,-27.34375,-1000.0,0.0,1.0,-1.0,0.0,8.m4v,7.0
2024-02-28 09:53:05.543148,1709110385.5431485,4.8828125,-30.76171875,-23.92578125,-941.89453125,0.0,1.0,-1.0,0.0,8.m4v,7.0
2024-02-28 09:53:05.547058,1709110385.5470576,-17.578125,-32.71484375,-24.90234375,-1000.0,0.0,1.0,-1.0,0.0,8.m4v,7.0
2024-02-28 09:53:05.550963,1709110385.5509632,-41.015625,-36.62109375,-27.83203125,-854.00390625,0.0,1.0,-1.0,0.0,8.m4v,7.0
2024-02-28 09:53:05.554869,1709110385.554869,436.03515625,-22.94921875,-30.2734375,596.6796875,0.0,1.0,-1.0,0.0,8.m4v,7.0
2024-02-28 09:53:05.558774,1709110385.5587745,558.10546875,-22.94921875,-36.1328125,999.51171875,0.0,1.0,-1.0,0.0,8.m4v,7.0
2024-02-28 09:53:05.562680,1709110385.56268,280.2734375,-41.9921875,-38.57421875,920.41015625,0.0,1.0,-1.0,0.0,8.m4v,7.0
2024-02-28 09:53:05.566586,1709110385.5665858,89.35546875,-45.41015625,-36.62109375,757.8125,0.0,1.0,-1.0,0.0,8.m4v,7.0
2024-02-28 09:53:05.570491,1709110385.5704913,-405.2734375,-30.2734375,-29.296875,-507.32421875,0.0,1.0,-1.0,0.0,8.m4v,7.0
2024-02-28 09:53:05.574397,1709110385.5743968,-590.33203125,-25.390625,-25.87890625,-1000.0,0.0,1.0,-1.0,0.0,8.m4v,7.0
2024-02-28 09:53:05.578302,1709110385.5783024,-301.26953125,-40.52734375,-33.203125,-961.42578125,0.0,1.0,-1.0,0.0,8.m4v,7.0
2024-02-28 09:53:05.582208,1709110385.5822082,-101.5625,-48.33984375,-35.15625,-958.49609375,0.0,1.0,-1.0,0.0,8.m4v,7.0
2024-02-28 09:53:05.586114,1709110385.5861137,-93.75,-41.015625,-29.296875,-1000.0,0.0,1.0,-1.0,0.0,8.m4v,7.0
2024-02-28 09:53:05.590019,1709110385.5900192,-168.45703125,-36.1328125,-31.25,-958.984375,0.0,1.0,-1.0,0.0,8.m4v,7.0
2024-02-28 09:53:05.593928,1709110385.5939283,277.83203125,-33.69140625,-26.85546875,435.05859375,0.0,1.0,-1.0,0.0,8.m4v,7.0
2024-02-28 09:53:05.597834,1709110385.597834,543.9453125,-28.3203125,-20.99609375,999.51171875,0.0,1.0,-1.0,0.0,8.m4v,7.0
2024-02-28 09:53:05.601740,1709110385.6017396,341.30859375,-20.01953125,-31.25,909.66796875,0.0,1.0,-1.0,0.0,8.m4v,7.0
2024-02-28 09:53:05.605645,1709110385.6056452,220.21484375,-29.78515625,-33.69140625,910.64453125,0.0,1.0,-1.0,0.0,8.m4v,7.0
2024-02-28 09:53:05.609551,1709110385.6095507,-296.875,-35.64453125,-26.85546875,-281.25,0.0,1.0,-1.0,0.0,8.m4v,7.0
2024-02-28 09:53:05.613456,1709110385.6134565,-641.11328125,-40.0390625,-34.1796875,-1000.0,0.0,1.0,-1.0,0.0,8.m4v,7.0
2024-02-28 09:53:05.617362,1709110385.617362,-325.1953125,-51.7578125,-31.25,-966.796875,0.0,1.0,-1.0,0.0,8.m4v,7.0
2024-02-28 09:53:05.621268,1709110385.6212676,-136.71875,-62.98828125,-27.83203125,-975.5859375,0.0,1.0,-1.0,0.0,8.m4v,7.0
2024-02-28 09:53:05.625173,1709110385.625173,-87.40234375,-57.6171875,-22.4609375,-983.3984375,0.0,1.0,-1.0,0.0,8.m4v,7.0
2024-02-28 09:53:05.629079,1709110385.6290789,-127.9296875,-29.78515625,-31.25,-1000.0,0.0,1.0,-1.0,0.0,8.m4v,7.0
2024-02-28 09:53:05.632984,1709110385.6329844,108.3984375,-12.20703125,-49.8046875,29.78515625,0.0,1.0,-1.0,0.0,8.m4v,7.0
2024-02-28 09:53:05.636890,1709110385.63689,504.8828125,-21.484375,-41.9921875,999.51171875,0.0,1.0,-1.0,0.0,8.m4v,7.0
2024-02-28 09:53:05.640799,1709110385.6407988,367.67578125,-37.109375,-36.62109375,926.26953125,0.0,1.0,-1.0,0.0,8.m4v,7.0
2024-02-28 09:53:05.644704,1709110385.6447043,191.40625,-43.45703125,-31.25,980.95703125,0.0,1.0,-1.0,0.0,8.m4v,7.0
2024-02-28 09:53:05.648610,1709110385.64861,-6.8359375,-45.41015625,-15.13671875,717.7734375,0.0,1.0,-1.0,0.0,8.m4v,7.0
2024-02-28 09:53:05.652516,1709110385.6525156,-235.83984375,-52.24609375,-13.671875,351.07421875,0.0,1.0,-1.0,0.0,8.m4v,7.0
2024-02-28 09:53:05.656421,1709110385.6564212,-33.69140625,-50.78125,-17.578125,812.98828125,0.0,1.0,-1.0,0.0,8.m4v,7.0
2024-02-28 09:53:05.660327,1709110385.660327,154.296875,-33.69140625,-25.87890625,999.51171875,0.0,1.0,-1.0,0.0,8.m4v,7.0
2024-02-28 09:53:05.664232,1709110385.6642325,-227.05078125,-15.625,-32.71484375,-258.30078125,0.0,1.0,-1.0,0.0,8.m4v,7.0
2024-02-28 09:53:05.668138,1709110385.668138,-571.77734375,-13.671875,-37.109375,-1000.0,0.0,1.0,-1.0,0.0,8.m4v,7.0
2024-02-28 09:53:05.672044,1709110385.6720436,-428.22265625,-22.4609375,-54.19921875,-963.37890625,0.0,1.0,-1.0,0.0,8.m4v,7.0
2024-02-28 09:53:05.675949,1709110385.675949,-202.1484375,-26.85546875,-44.921875,-939.453125,0.0,1.0,-1.0,0.0,8.m4v,7.0
2024-02-28 09:53:05.679855,1709110385.6798549,254.8828125,-41.9921875,-37.59765625,229.98046875,0.0,1.0,-1.0,0.0,8.m4v,7.0
2024-02-28 09:53:05.683760,1709110385.6837604,507.32421875,-50.78125,-40.52734375,999.51171875,0.0,1.0,-1.0,0.0,8.m4v,7.0
2024-02-28 09:53:05.687669,1709110385.687669,221.19140625,-48.828125,-26.85546875,946.2890625,0.0,1.0,-1.0,0.0,8.m4v,7.0
2024-02-28 09:53:05.691575,1709110385.6915746,-19.04296875,-46.38671875,-30.2734375,912.109375,0.0,1.0,-1.0,0.0,8.m4v,7.0
2024-02-28 09:53:05.695480,1709110385.69548,2.9296875,-39.0625,-29.78515625,999.51171875,0.0,1.0,-1.0,0.0,8.m4v,7.0
2024-02-28 09:53:05.699386,1709110385.699386,33.69140625,-28.3203125,-28.3203125,891.11328125,0.0,1.0,-1.0,0.0,8.m4v,7.0
2024-02-28 09:53:05.703291,1709110385.7032914,-388.18359375,-32.2265625,-40.0390625,-534.66796875,0.0,1.0,-1.0,0.0,8.m4v,7.0
2024-02-28 09:53:05.707197,1709110385.707197,-544.921875,-44.921875,-37.59765625,-1000.0,0.0,1.0,-1.0,0.0,8.m4v,7.0
2024-02-28 09:53:05.711103,1709110385.7111027,-329.1015625,-31.73828125,-33.69140625,-917.96875,0.0,1.0,-1.0,0.0,8.m4v,7.0
2024-02-28 09:53:05.715008,1709110385.7150085,-248.046875,-21.97265625,-45.41015625,-1000.0,0.0,1.0,-1.0,0.0,8.m4v,7.0
2024-02-28 09:53:05.718914,1709110385.7189138,149.4140625,-34.1796875,-42.48046875,-21.484375,0.0,1.0,-1.0,0.0,8.m4v,7.0
2024-02-28 09:53:05.769690,1709110385.7696896,-473.6328125,-30.2734375,-30.76171875,-775.390625,0.0,1.0,-1.0,0.0,8.m4v,7.0
2024-02-28 09:53:05.773595,1709110385.773595,-535.15625,-18.06640625,-48.828125,-1000.0,0.0,1.0,-1.0,0.0,8.m4v,7.0
2024-02-28 09:53:05.777501,1709110385.7775009,-219.7265625,-22.4609375,-46.875,-949.70703125,0.0,1.0,-1.0,0.0,8.m4v,7.0
2024-02-28 09:53:05.781409,1709110385.7814088,-52.734375,-21.97265625,-32.71484375,-957.03125,0.0,1.0,-1.0,0.0,8.m4v,7.0
2024-02-28 09:53:05.785314,1709110385.7853143,-78.125,-29.78515625,-35.15625,-1000.0,0.0,1.0,-1.0,0.0,8.m4v,7.0
2024-02-28 09:53:05.789220,1709110385.78922,-114.74609375,-28.80859375,-32.71484375,-955.56640625,0.0,1.0,-1.0,0.0,8.m4v,7.0
2024-02-28 09:53:05.793126,1709110385.7931256,326.171875,-22.4609375,-27.83203125,437.5,0.0,1.0,-1.0,0.0,8.m4v,7.0
2024-02-28 09:53:05.797031,1709110385.7970312,565.4296875,-35.64453125,-37.59765625,999.51171875,0.0,1.0,-1.0,0.0,8.m4v,7.0
2024-02-28 09:53:05.800937,1709110385.8009367,332.03125,-35.64453125,-36.62109375,883.30078125,0.0,1.0,-1.0,0.0,8.m4v,7.0
2024-02-28 09:53:05.804842,1709110385.8048425,164.55078125,-33.203125,-34.1796875,976.5625,0.0,1.0,-1.0,0.0,8.m4v,7.0
2024-02-28 09:53:05.808748,1709110385.808748,-77.1484375,-31.25,-37.59765625,691.89453125,0.0,1.0,-1.0,0.0,8.m4v,7.0
2024-02-28 09:53:05.812654,1709110385.8126535,-364.2578125,-23.4375,-33.69140625,-187.01171875,0.0,1.0,-1.0,0.0,8.m4v,7.0
2024-02-28 09:53:05.816559,1709110385.8165593,-448.73046875,-36.1328125,-16.11328125,-932.12890625,0.0,1.0,-1.0,0.0,8.m4v,7.0
2024-02-28 09:53:05.820465,1709110385.8204648,-277.34375,-45.41015625,-19.53125,-1000.0,0.0,1.0,-1.0,0.0,8.m4v,7.0
2024-02-28 09:53:05.824370,1709110385.8243704,-92.7734375,-30.76171875,-40.0390625,-923.33984375,0.0,1.0,-1.0,0.0,8.m4v,7.0
2024-02-28 09:53:05.828280,1709110385.8282802,-195.3125,-18.5546875,-42.48046875,-1000.0,0.0,1.0,-1.0,0.0,8.m4v,7.0
2024-02-28 09:53:05.832186,1709110385.832186,-105.95703125,-15.13671875,-38.57421875,-584.9609375,0.0,1.0,-1.0,0.0,8.m4v,7.0
2024-02-28 09:53:05.836092,1709110385.8360915,489.2578125,-14.16015625,-35.15625,783.203125,0.0,1.0,-1.0,0.0,8.m4v,7.0
2024-02-28 09:53:05.839997,1709110385.839997,510.7421875,-16.6015625,-23.92578125,999.51171875,0.0,1.0,-1.0,0.0,8.m4v,7.0
2024-02-28 09:53:05.843903,1709110385.8439028,255.859375,-25.390625,-16.11328125,914.55078125,0.0,1.0,-1.0,0.0,8.m4v,7.0
2024-02-28 09:53:05.847808,1709110385.8478084,155.2734375,-32.2265625,-22.94921875,999.0234375,0.0,1.0,-1.0,0.0,8.m4v,7.0
2024-02-28 09:53:05.851714,1709110385.851714,4.8828125,-28.3203125,-24.90234375,908.69140625,0.0,1.0,-1.0,0.0,8.m4v,7.0
2024-02-28 09:53:05.855619,1709110385.8556194,24.90234375,-25.390625,-14.6484375,999.51171875,0.0,1.0,-1.0,0.0,8.m4v,7.0
2024-02-28 09:53:05.859525,1709110385.8595252,13.18359375,-34.66796875,-20.99609375,787.59765625,0.0,1.0,-1.0,0.0,8.m4v,7.0
2024-02-28 09:53:05.863431,1709110385.8634307,-498.53515625,-39.55078125,-32.2265625,-674.31640625,0.0,1.0,-1.0,0.0,8.m4v,7.0
2024-02-28 09:53:05.867336,1709110385.8673365,-598.14453125,-36.62109375,-32.71484375,-1000.0,0.0,1.0,-1.0,0.0,8.m4v,7.0
2024-02-28 09:53:05.871242,1709110385.871242,-368.1640625,-20.01953125,-38.57421875,-945.80078125,0.0,1.0,-1.0,0.0,8.m4v,7.0
2024-02-28 09:53:05.875152,1709110385.8751516,-239.2578125,-6.8359375,-41.50390625,-966.30859375,0.0,1.0,-1.0,0.0,8.m4v,7.0
2024-02-28 09:53:05.879057,1709110385.8790572,286.1328125,-14.6484375,-33.69140625,295.8984375,0.0,1.0,-1.0,0.0,8.m4v,7.0
2024-02-28 09:53:05.882963,1709110385.8829627,506.8359375,-23.92578125,-37.59765625,999.51171875,0.0,1.0,-1.0,0.0,8.m4v,7.0
2024-02-28 09:53:05.886868,1709110385.8868685,196.2890625,-28.80859375,-28.80859375,929.19921875,0.0,1.0,-1.0,0.0,8.m4v,7.0
2024-02-28 09:53:05.890774,1709110385.890774,4.39453125,-34.1796875,-13.18359375,936.5234375,0.0,1.0,-1.0,0.0,8.m4v,7.0
2024-02-28 09:53:05.894680,1709110385.8946795,-28.80859375,-31.25,-21.484375,973.14453125,0.0,1.0,-1.0,0.0,8.m4v,7.0
2024-02-28 09:53:05.898585,1709110385.898585,78.125,-30.2734375,-22.94921875,986.328125,0.0,1.0,-1.0,0.0,8.m4v,7.0
2024-02-28 09:53:05.902491,1709110385.9024909,-224.609375,-32.71484375,-19.53125,-274.4140625,0.0,1.0,-1.0,0.0,8.m4v,7.0
2024-02-28 09:53:05.906396,1709110385.9063964,-569.3359375,-27.83203125,-32.2265625,-1000.0,0.0,1.0,-1.0,0.0,8.m4v,7.0
2024-02-28 09:53:06.617271,1709110386.6172714,-281.73828125,-24.4140625,-49.31640625,-954.58984375,0.0,1.0,-1.0,0.0,8.m4v,7.0
2024-02-28 09:53:06.621177,1709110386.621177,-102.5390625,-42.96875,-39.55078125,-948.73046875,0.0,1.0,-1.0,0.0,8.m4v,7.0
2024-02-28 09:53:06.625087,1709110386.6250863,-110.3515625,-49.8046875,-35.15625,-1000.0,0.0,1.0,-1.0,0.0,8.m4v,7.0
2024-02-28 09:53:06.628992,1709110386.6289923,-74.70703125,-30.2734375,-36.1328125,-825.1953125,0.0,1.0,-1.0,0.0,8.m4v,7.0
2024-02-28 09:53:06.632898,1709110386.632898,392.578125,-20.5078125,-30.76171875,627.44140625,0.0,1.0,-1.0,0.0,8.m4v,7.0
2024-02-28 09:53:06.636803,1709110386.6368034,485.3515625,-24.90234375,-27.83203125,999.51171875,0.0,1.0,-1.0,0.0,8.m4v,7.0
2024-02-28 09:53:06.640709,1709110386.640709,265.625,-34.1796875,-38.0859375,898.92578125,0.0,1.0,-1.0,0.0,8.m4v,7.0
2024-02-28 09:53:06.644615,1709110386.6446147,183.10546875,-35.15625,-44.43359375,988.76953125,0.0,1.0,-1.0,0.0,8.m4v,7.0
2024-02-28 09:53:06.648520,1709110386.6485202,45.41015625,-32.2265625,-35.15625,969.7265625,0.0,1.0,-1.0,0.0,8.m4v,7.0
2024-02-28 09:53:06.652426,1709110386.6524258,-80.56640625,-27.83203125,-28.80859375,921.875,0.0,1.0,-1.0,0.0,8.m4v,7.0
2024-02-28 09:53:06.656332,1709110386.6563315,-22.94921875,-33.203125,-34.66796875,999.51171875,0.0,1.0,-1.0,0.0,8.m4v,7.0
2024-02-28 09:53:06.660237,1709110386.660237,-128.41796875,-41.50390625,-32.2265625,334.9609375,0.0,1.0,-1.0,0.0,8.m4v,7.0
2024-02-28 09:53:06.664143,1709110386.6641426,-521.484375,-39.0625,-24.4140625,-916.9921875,0.0,1.0,-1.0,0.0,8.m4v,7.0
2024-02-28 09:53:06.668048,1709110386.6680484,-478.515625,-43.45703125,-28.3203125,-986.81640625,0.0,1.0,-1.0,0.0,8.m4v,7.0
2024-02-28 09:53:06.671958,1709110386.6719575,-354.00390625,-21.97265625,-30.2734375,-1000.0,0.0,1.0,-1.0,0.0,8.m4v,7.0
2024-02-28 09:53:06.675863,1709110386.6758633,-12.6953125,-13.18359375,-35.64453125,-380.859375,0.0,1.0,-1.0,0.0,8.m4v,7.0
2024-02-28 09:53:06.679769,1709110386.6797688,459.9609375,-30.2734375,-52.734375,854.98046875,0.0,1.0,-1.0,0.0,8.m4v,7.0
2024-02-28 09:53:06.683675,1709110386.6836746,309.08203125,-36.62109375,-44.43359375,999.51171875,0.0,1.0,-1.0,0.0,8.m4v,7.0
2024-02-28 09:53:06.687580,1709110386.68758,122.0703125,-33.203125,-20.01953125,944.3359375,0.0,1.0,-1.0,0.0,8.m4v,7.0
2024-02-28 09:53:06.691486,1709110386.6914856,55.6640625,-16.6015625,-16.11328125,920.41015625,0.0,1.0,-1.0,0.0,8.m4v,7.0
2024-02-28 09:53:06.695391,1709110386.6953912,61.03515625,-21.484375,-23.4375,999.51171875,0.0,1.0,-1.0,0.0,8.m4v,7.0
2024-02-28 09:53:06.699297,1709110386.699297,32.71484375,-40.0390625,-22.4609375,802.24609375,0.0,1.0,-1.0,0.0,8.m4v,7.0
2024-02-28 09:53:06.703202,1709110386.7032025,-458.0078125,-50.78125,-35.15625,-657.71484375,0.0,1.0,-1.0,0.0,8.m4v,7.0
2024-02-28 09:53:06.707108,1709110386.707108,-579.1015625,-33.69140625,-47.8515625,-1000.0,0.0,1.0,-1.0,0.0,8.m4v,7.0
2024-02-28 09:53:06.711014,1709110386.7110138,-340.33203125,-16.11328125,-45.41015625,-945.80078125,0.0,1.0,-1.0,0.0,8.m4v,7.0
2024-02-28 09:53:06.714919,1709110386.714919,-203.61328125,-26.85546875,-40.52734375,-957.51953125,0.0,1.0,-1.0,0.0,8.m4v,7.0
2024-02-28 09:53:06.718828,1709110386.7188284,295.41015625,-20.99609375,-32.71484375,305.17578125,0.0,1.0,-1.0,0.0,8.m4v,7.0
2024-02-28 09:53:06.722734,1709110386.722734,519.53125,-22.4609375,-32.71484375,999.51171875,0.0,1.0,-1.0,0.0,8.m4v,7.0
2024-02-28 09:53:06.726640,1709110386.7266395,226.07421875,-45.8984375,-26.85546875,931.15234375,0.0,1.0,-1.0,0.0,8.m4v,7.0
2024-02-28 09:53:06.730545,1709110386.7305453,13.671875,-53.22265625,-14.16015625,928.22265625,0.0,1.0,-1.0,0.0,8.m4v,7.0
2024-02-28 09:53:06.734451,1709110386.7344508,-28.80859375,-39.0625,-18.06640625,989.2578125,0.0,1.0,-1.0,0.0,8.m4v,7.0
2024-02-28 09:53:06.738356,1709110386.7383564,38.0859375,-29.78515625,-34.66796875,950.1953125,0.0,1.0,-1.0,0.0,8.m4v,7.0
2024-02-28 09:53:06.742262,1709110386.742262,-317.3828125,-21.97265625,-43.45703125,-395.5078125,0.0,1.0,-1.0,0.0,8.m4v,7.0
2024-02-28 09:53:06.746168,1709110386.7461677,-594.7265625,-17.08984375,-38.57421875,-1000.0,0.0,1.0,-1.0,0.0,8.m4v,7.0
2024-02-28 09:53:06.750073,1709110386.7500732,-455.078125,-23.4375,-42.96875,-955.56640625,0.0,1.0,-1.0,0.0,8.m4v,7.0
2024-02-28 09:53:06.753979,1709110386.7539787,-278.80859375,-27.83203125,-34.1796875,-971.19140625,0.0,1.0,-1.0,0.0,8.m4v,7.0
2024-02-28 09:53:06.757885,1709110386.7578845,292.96875,-28.80859375,-24.90234375,354.4921875,0.0,1.0,-1.0,0.0,8.m4v,7.0
2024-02-28 09:53:07.406264,1709110387.406264,-586.9140625,-27.83203125,-32.71484375,-1000.0,0.0,1.0,-1.0,0.0,8.m4v,7.0
2024-02-28 09:53:07.410170,1709110387.4101698,-442.3828125,-29.296875,-43.9453125,-970.21484375,0.0,1.0,-1.0,0.0,8.m4v,7.0
2024-02-28 09:53:07.414075,1709110387.4140754,-230.46875,-16.6015625,-40.52734375,-880.37109375,0.0,1.0,-1.0,0.0,8.m4v,7.0
2024-02-28 09:53:07.417981,1709110387.417981,333.0078125,-29.78515625,-39.0625,501.46484375,0.0,1.0,-1.0,0.0,8.m4v,7.0
2024-02-28 09:53:07.421890,1709110387.4218905,528.80859375,-45.8984375,-42.48046875,999.51171875,0.0,1.0,-1.0,0.0,8.m4v,7.0
2024-02-28 09:53:07.425796,1709110387.4257958,235.3515625,-42.48046875,-25.87890625,916.50390625,0.0,1.0,-1.0,0.0,8.m4v,7.0
2024-02-28 09:53:07.429702,1709110387.4297016,53.7109375,-31.25,-22.4609375,937.01171875,0.0,1.0,-1.0,0.0,8.m4v,7.0
2024-02-28 09:53:07.433607,1709110387.433607,-1.953125,-28.80859375,-33.69140625,990.72265625,0.0,1.0,-1.0,0.0,8.m4v,7.0
2024-02-28 09:53:07.437513,1709110387.4375126,8.7890625,-41.50390625,-32.2265625,940.91796875,0.0,1.0,-1.0,0.0,8.m4v,7.0
2024-02-28 09:53:07.441418,1709110387.4414184,-317.87109375,-38.57421875,-21.484375,-408.203125,0.0,1.0,-1.0,0.0,8.m4v,7.0
2024-02-28 09:53:07.445324,1709110387.445324,-581.0546875,-32.2265625,-20.5078125,-1000.0,0.0,1.0,-1.0,0.0,8.m4v,7.0
2024-02-28 09:53:07.449229,1709110387.4492297,-422.36328125,-27.83203125,-31.73828125,-935.546875,0.0,1.0,-1.0,0.0,8.m4v,7.0
2024-02-28 09:53:07.453135,1709110387.4531353,-244.62890625,-27.34375,-38.57421875,-1000.0,0.0,1.0,-1.0,0.0,8.m4v,7.0
2024-02-28 09:53:07.457041,1709110387.4570408,-89.35546875,-31.25,-49.31640625,-979.4921875,0.0,1.0,-1.0,0.0,8.m4v,7.0
2024-02-28 09:53:07.460946,1709110387.4609463,-38.57421875,-30.2734375,-51.7578125,-943.359375,0.0,1.0,-1.0,0.0,8.m4v,7.0
2024-02-28 09:53:07.515632,1709110387.5156317,570.80078125,-21.484375,-31.25,999.51171875,0.0,1.0,-1.0,0.0,8.m4v,7.0
2024-02-28 09:53:07.519537,1709110387.5195372,321.2890625,-25.390625,-36.1328125,894.04296875,0.0,1.0,-1.0,0.0,8.m4v,7.0
2024-02-28 09:53:07.523443,1709110387.523443,173.828125,-32.2265625,-27.34375,987.79296875,0.0,1.0,-1.0,0.0,8.m4v,7.0
2024-02-28 09:53:07.527349,1709110387.5273485,-91.30859375,-31.73828125,-27.83203125,311.5234375,0.0,1.0,-1.0,0.0,8.m4v,7.0
2024-02-28 09:53:07.531254,1709110387.531254,-571.2890625,-38.57421875,-41.9921875,-849.12109375,0.0,1.0,-1.0,0.0,8.m4v,7.0
2024-02-28 09:53:07.535160,1709110387.5351598,-517.578125,-36.62109375,-37.59765625,-1000.0,0.0,1.0,-1.0,0.0,8.m4v,7.0
2024-02-28 09:53:07.539065,1709110387.5390654,-238.28125,-26.85546875,-29.296875,-954.58984375,0.0,1.0,-1.0,0.0,8.m4v,7.0
2024-02-28 09:53:07.542971,1709110387.542971,-126.46484375,-21.97265625,-44.43359375,-968.75,0.0,1.0,-1.0,0.0,8.m4v,7.0
2024-02-28 09:53:07.546876,1709110387.5468764,-147.4609375,-31.73828125,-54.6875,-1000.0,0.0,1.0,-1.0,0.0,8.m4v,7.0
2024-02-28 09:53:07.550782,1709110387.5507822,59.5703125,-37.59765625,-42.96875,-241.69921875,0.0,1.0,-1.0,0.0,8.m4v,7.0
2024-02-28 09:53:07.554688,1709110387.5546875,484.86328125,-16.11328125,-35.15625,941.89453125,0.0,1.0,-1.0,0.0,8.m4v,7.0
2024-02-28 09:53:07.558593,1709110387.5585933,388.671875,-18.06640625,-36.1328125,941.40625,0.0,1.0,-1.0,0.0,8.m4v,7.0
2024-02-28 09:53:07.562502,1709110387.562502,221.19140625,-33.203125,-37.109375,979.98046875,0.0,1.0,-1.0,0.0,8.m4v,7.0
2024-02-28 09:53:07.566408,1709110387.5664077,-52.24609375,-39.55078125,-39.55078125,383.7890625,0.0,1.0,-1.0,0.0,8.m4v,7.0
2024-02-28 09:53:07.570313,1709110387.5703132,-553.22265625,-44.921875,-37.109375,-840.8203125,0.0,1.0,-1.0,0.0,8.m4v,7.0
2024-02-28 09:53:07.574219,1709110387.574219,-491.69921875,-41.015625,-28.80859375,-1000.0,0.0,1.0,-1.0,0.0,8.m4v,7.0
2024-02-28 09:53:07.578125,1709110387.5781243,-208.984375,-37.59765625,-29.296875,-968.75,0.0,1.0,-1.0,0.0,8.m4v,7.0
2024-02-28 09:53:07.582030,1709110387.58203,-83.49609375,-38.0859375,-40.0390625,-951.66015625,0.0,1.0,-1.0,0.0,8.m4v,7.0
2024-02-28 09:53:07.585936,1709110387.5859358,-149.4140625,-41.015625,-42.48046875,-1000.0,0.0,1.0,-1.0,0.0,8.m4v,7.0
2024-02-28 09:53:07.589841,1709110387.5898414,-110.3515625,-39.0625,-35.64453125,-702.1484375,0.0,1.0,-1.0,0.0,8.m4v,7.0
2024-02-28 09:53:07.593747,1709110387.593747,398.4375,-37.109375,-31.73828125,716.796875,0.0,1.0,-1.0,0.0,8.m4v,7.0
2024-02-28 09:53:07.597653,1709110387.597653,472.65625,-30.2734375,-25.390625,999.51171875,0.0,1.0,-1.0,0.0,8.m4v,7.0
2024-02-28 09:53:07.601558,1709110387.6015582,272.4609375,-23.4375,-29.296875,917.48046875,0.0,1.0,-1.0,0.0,8.m4v,7.0
2024-02-28 09:53:07.605464,1709110387.6054635,129.8828125,-40.0390625,-35.64453125,874.51171875,0.0,1.0,-1.0,0.0,8.m4v,7.0
2024-02-28 09:53:07.609372,1709110387.609372,-349.609375,-49.8046875,-31.73828125,-277.34375,0.0,1.0,-1.0,0.0,8.m4v,7.0
2024-02-28 09:53:07.613278,1709110387.6132777,-602.5390625,-30.2734375,-32.71484375,-1000.0,0.0,1.0,-1.0,0.0,8.m4v,7.0
2024-02-28 09:53:07.617183,1709110387.6171834,-354.00390625,-29.296875,-44.43359375,-982.91015625,0.0,1.0,-1.0,0.0,8.m4v,7.0
2024-02-28 09:53:07.621089,1709110387.621089,-130.37109375,-36.62109375,-49.8046875,-931.640625,0.0,1.0,-1.0,0.0,8.m4v,7.0
2024-02-28 09:53:07.624995,1709110387.6249945,-149.90234375,-35.64453125,-39.0625,-1000.0,0.0,1.0,-1.0,0.0,8.m4v,7.0
2024-02-28 09:53:07.628900,1709110387.6289003,-94.23828125,-46.875,-30.76171875,-786.62109375,0.0,1.0,-1.0,0.0,8.m4v,7.0
2024-02-28 09:53:07.632806,1709110387.6328058,442.87109375,-50.29296875,-26.85546875,666.015625,0.0,1.0,-1.0,0.0,8.m4v,7.0
2024-02-28 09:53:07.636711,1709110387.6367114,469.23828125,-32.71484375,-27.83203125,999.51171875,0.0,1.0,-1.0,0.0,8.m4v,7.0
2024-02-28 09:53:07.640617,1709110387.640617,225.5859375,-34.66796875,-33.69140625,967.7734375,0.0,1.0,-1.0,0.0,8.m4v,7.0
2024-02-28 09:53:07.644523,1709110387.644523,23.92578125,-38.57421875,-47.8515625,591.30859375,0.0,1.0,-1.0,0.0,8.m4v,7.0
2024-02-28 09:53:07.648428,1709110387.6484282,-520.99609375,-26.85546875,-47.36328125,-714.84375,0.0,1.0,-1.0,0.0,8.m4v,7.0
2024-02-28 09:53:07.652334,1709110387.6523335,-565.91796875,-16.6015625,-32.71484375,-1000.0,0.0,1.0,-1.0,0.0,8.m4v,7.0
2024-02-28 09:53:07.656242,1709110387.656242,-163.57421875,-17.578125,-36.62109375,-753.41796875,0.0,1.0,-1.0,0.0,8.m4v,7.0
2024-02-28 09:53:07.660148,1709110387.6601477,415.52734375,-28.80859375,-35.64453125,546.875,0.0,1.0,-1.0,0.0,8.m4v,7.0
2024-02-28 09:53:07.664053,1709110387.6640532,512.6953125,-28.80859375,-27.34375,999.51171875,0.0,1.0,-1.0,0.0,8.m4v,7.0
2024-02-28 09:53:07.667959,1709110387.667959,177.734375,-32.2265625,-23.4375,919.43359375,0.0,1.0,-1.0,0.0,8.m4v,7.0
2024-02-28 09:53:07.671865,1709110387.6718645,7.32421875,-41.50390625,-20.5078125,920.41015625,0.0,1.0,-1.0,0.0,8.m4v,7.0
2024-02-28 09:53:07.675770,1709110387.67577,10.7421875,-22.94921875,-26.3671875,999.51171875,0.0,1.0,-1.0,0.0,8.m4v,7.0
2024-02-28 09:53:07.679676,1709110387.6796756,-12.6953125,-13.671875,-27.34375,706.54296875,0.0,1.0,-1.0,0.0,8.m4v,7.0
2024-02-28 09:53:07.683581,1709110387.6835814,-469.7265625,-27.83203125,-34.1796875,-708.0078125,0.0,1.0,-1.0,0.0,8.m4v,7.0
2024-02-28 09:53:07.687487,1709110387.687487,-529.296875,-25.390625,-34.1796875,-1000.0,0.0,1.0,-1.0,0.0,8.m4v,7.0
2024-02-28 09:53:07.691392,1709110387.6913924,-318.359375,-18.06640625,-36.1328125,-988.28125,0.0,1.0,-1.0,0.0,8.m4v,7.0
2024-02-28 09:53:07.695298,1709110387.6952982,-12.20703125,-28.3203125,-35.15625,-275.87890625,0.0,1.0,-1.0,0.0,8.m4v,7.0
2024-02-28 09:53:07.699204,1709110387.6992035,387.6953125,-40.0390625,-20.99609375,876.46484375,0.0,1.0,-1.0,0.0,8.m4v,7.0
2024-02-28 09:53:07.703114,1709110387.7031136,300.29296875,-36.1328125,-20.99609375,995.1171875,0.0,1.0,-1.0,0.0,8.m4v,7.0
2024-02-28 09:53:07.707019,1709110387.707019,78.61328125,-29.78515625,-23.4375,701.66015625,0.0,1.0,-1.0,0.0,8.m4v,7.0
2024-02-28 09:53:07.710925,1709110387.7109249,-338.37890625,-40.0390625,-31.25,-361.328125,0.0,1.0,-1.0,0.0,8.m4v,7.0
2024-02-28 09:53:07.714830,1709110387.7148304,-576.171875,-48.33984375,-40.52734375,-1000.0,0.0,1.0,-1.0,0.0,8.m4v,7.0
2024-02-28 09:53:07.718736,1709110387.718736,-271.484375,-30.2734375,-40.52734375,-985.3515625,0.0,1.0,-1.0,0.0,8.m4v,7.0
2024-02-28 09:53:07.722642,1709110387.7226417,-26.85546875,-27.34375,-42.96875,-934.08203125,0.0,1.0,-1.0,0.0,8.m4v,7.0
2024-02-28 09:53:07.726547,1709110387.7265472,-125.48828125,-24.90234375,-36.62109375,-1000.0,0.0,1.0,-1.0,0.0,8.m4v,7.0
2024-02-28 09:53:07.730453,1709110387.7304528,-140.13671875,-23.4375,-30.76171875,-801.7578125,0.0,1.0,-1.0,0.0,8.m4v,7.0
2024-02-28 09:53:07.734359,1709110387.7343583,440.91796875,-30.2734375,-24.4140625,645.99609375,0.0,1.0,-1.0,0.0,8.m4v,7.0
2024-02-28 09:53:07.738264,1709110387.738264,568.84765625,-15.625,-10.7421875,999.51171875,0.0,1.0,-1.0,0.0,8.m4v,7.0
2024-02-28 09:53:07.742170,1709110387.7421696,301.7578125,-9.765625,-13.18359375,921.875,0.0,1.0,-1.0,0.0,8.m4v,7.0
2024-02-28 09:53:07.746075,1709110387.7460752,86.42578125,-44.921875,-29.78515625,733.88671875,0.0,1.0,-1.0,0.0,8.m4v,7.0
2024-02-28 09:53:07.749985,1709110387.7499847,-426.7578125,-58.59375,-38.57421875,-490.72265625,0.0,1.0,-1.0,0.0,8.m4v,7.0
2024-02-28 09:53:07.753891,1709110387.7538905,-577.63671875,-40.0390625,-36.1328125,-1000.0,0.0,1.0,-1.0,0.0,8.m4v,7.0
2024-02-28 09:53:07.757796,1709110387.757796,-314.453125,-34.1796875,-29.296875,-962.890625,0.0,1.0,-1.0,0.0,8.m4v,7.0
2024-02-28 09:53:07.761702,1709110387.7617016,-164.55078125,-29.296875,-38.57421875,-946.2890625,0.0,1.0,-1.0,0.0,8.m4v,7.0
2024-02-28 09:53:07.765607,1709110387.7656074,-145.99609375,-25.87890625,-38.0859375,-1000.0,0.0,1.0,-1.0,0.0,8.m4v,7.0
2024-02-28 09:53:07.769513,1709110387.769513,3.41796875,-22.4609375,-51.26953125,-558.10546875,0.0,1.0,-1.0,0.0,8.m4v,7.0
2024-02-28 09:53:07.773418,1709110387.7734184,477.5390625,-29.78515625,-60.546875,797.8515625,0.0,1.0,-1.0,0.0,8.m4v,7.0
2024-02-28 09:53:07.777324,1709110387.7773242,463.37890625,-26.3671875,-30.76171875,978.02734375,0.0,1.0,-1.0,0.0,8.m4v,7.0
2024-02-28 09:53:07.781230,1709110387.7812295,221.6796875,-16.11328125,-14.6484375,979.00390625,0.0,1.0,-1.0,0.0,8.m4v,7.0
2024-02-28 09:53:07.785135,1709110387.7851353,-36.62109375,-23.92578125,-20.5078125,565.4296875,0.0,1.0,-1.0,0.0,8.m4v,7.0
2024-02-28 09:53:07.789041,1709110387.7890408,-571.2890625,-38.0859375,-29.78515625,-774.4140625,0.0,1.0,-1.0,0.0,8.m4v,7.0
2024-02-28 09:53:07.792947,1709110387.7929466,-519.53125,-45.8984375,-33.69140625,-1000.0,0.0,1.0,-1.0,0.0,8.m4v,7.0
2024-02-28 09:53:07.796856,1709110387.796856,-178.7109375,-35.64453125,-33.203125,-961.42578125,0.0,1.0,-1.0,0.0,8.m4v,7.0
2024-02-28 09:53:07.800761,1709110387.8007617,-50.78125,-28.80859375,-35.15625,-955.078125,0.0,1.0,-1.0,0.0,8.m4v,7.0
2024-02-28 09:53:07.804667,1709110387.804667,-57.12890625,-32.71484375,-29.78515625,-1000.0,0.0,1.0,-1.0,0.0,8.m4v,7.0
2024-02-28 09:53:07.808573,1709110387.8085728,-97.16796875,-37.59765625,-29.78515625,-862.3046875,0.0,1.0,-1.0,0.0,8.m4v,7.0
2024-02-28 09:53:07.812478,1709110387.8124783,359.375,-35.64453125,-39.0625,591.796875,0.0,1.0,-1.0,0.0,8.m4v,7.0
2024-02-28 09:53:07.816384,1709110387.8163838,539.55078125,-20.99609375,-35.64453125,999.51171875,0.0,1.0,-1.0,0.0,8.m4v,7.0
2024-02-28 09:53:07.820289,1709110387.8202894,297.36328125,-16.11328125,-32.2265625,877.9296875,0.0,1.0,-1.0,0.0,8.m4v,7.0
2024-02-28 09:53:07.824195,1709110387.8241951,164.55078125,-20.01953125,-36.1328125,999.51171875,0.0,1.0,-1.0,0.0,8.m4v,7.0
2024-02-28 09:53:07.828101,1709110387.8281007,-250.0,-32.2265625,-32.71484375,105.95703125,0.0,1.0,-1.0,0.0,8.m4v,7.0
2024-02-28 09:53:07.832006,1709110387.8320062,-668.9453125,-43.45703125,-34.66796875,-952.63671875,0.0,1.0,-1.0,0.0,8.m4v,7.0
2024-02-28 09:53:07.835912,1709110387.835912,-453.125,-37.59765625,-38.57421875,-1000.0,0.0,1.0,-1.0,0.0,8.m4v,7.0
2024-02-28 09:53:07.839818,1709110387.8398175,-134.27734375,-31.73828125,-40.52734375,-956.54296875,0.0,1.0,-1.0,0.0,8.m4v,7.0
2024-02-28 09:53:07.871066,1709110387.871066,-41.015625,-18.06640625,-38.57421875,909.1796875,0.0,1.0,-1.0,0.0,8.m4v,7.0
2024-02-28 09:53:07.874971,1709110387.8749714,-25.87890625,-38.57421875,-31.73828125,999.51171875,0.0,1.0,-1.0,0.0,8.m4v,7.0
2024-02-28 09:53:07.878877,1709110387.878877,-16.6015625,-42.96875,-26.85546875,715.33203125,0.0,1.0,-1.0,0.0,8.m4v,7.0
2024-02-28 09:53:07.882783,1709110387.8827827,-492.1875,-38.0859375,-33.69140625,-722.16796875,0.0,1.0,-1.0,0.0,8.m4v,7.0
2024-02-28 09:53:07.886688,1709110387.8866882,-601.5625,-43.45703125,-40.52734375,-1000.0,0.0,1.0,-1.0,0.0,8.m4v,7.0
2024-02-28 09:53:07.890597,1709110387.8905969,-415.0390625,-32.71484375,-36.62109375,-999.51171875,0.0,1.0,-1.0,0.0,8.m4v,7.0
2024-02-28 09:53:07.894503,1709110387.8945026,-145.01953125,-24.90234375,-28.3203125,-698.73046875,0.0,1.0,-1.0,0.0,8.m4v,7.0
2024-02-28 09:53:07.898408,1709110387.8984082,480.46875,-27.34375,-21.97265625,688.4765625,0.0,1.0,-1.0,0.0,8.m4v,7.0
2024-02-28 09:53:07.902314,1709110387.9023137,556.15234375,-32.2265625,-26.85546875,999.51171875,0.0,1.0,-1.0,0.0,8.m4v,7.0
2024-02-28 09:53:07.906219,1709110387.9062192,216.30859375,-39.0625,-30.76171875,923.828125,0.0,1.0,-1.0,0.0,8.m4v,7.0
2024-02-28 09:53:07.910125,1709110387.910125,44.43359375,-29.296875,-20.01953125,921.38671875,0.0,1.0,-1.0,0.0,8.m4v,7.0
2024-02-28 09:53:07.914031,1709110387.9140306,47.36328125,-26.3671875,-37.59765625,999.51171875,0.0,1.0,-1.0,0.0,8.m4v,7.0
2024-02-28 09:53:07.917936,1709110387.917936,-19.53125,-43.45703125,-60.05859375,754.39453125,0.0,1.0,-1.0,0.0,8.m4v,7.0
2024-02-28 09:53:07.921842,1709110387.921842,-486.328125,-31.25,-42.48046875,-700.1953125,0.0,1.0,-1.0,0.0,8.m4v,7.0
2024-02-28 09:53:07.925747,1709110387.9257474,-539.55078125,-28.3203125,-31.25,-1000.0,0.0,1.0,-1.0,0.0,8.m4v,7.0
2024-02-28 09:53:07.929653,1709110387.929653,-372.55859375,-27.34375,-26.3671875,-1000.0,0.0,1.0,-1.0,0.0,8.m4v,7.0
2024-02-28 09:53:07.933559,1709110387.9335587,-160.64453125,-19.04296875,-23.4375,-739.74609375,0.0,1.0,-1.0,0.0,8.m4v,7.0
2024-02-28 09:53:07.937467,1709110387.937467,454.1015625,-25.87890625,-36.62109375,684.5703125,0.0,1.0,-1.0,0.0,8.m4v,7.0
2024-02-28 09:53:07.941373,1709110387.9413729,476.5625,-32.2265625,-36.62109375,999.51171875,0.0,1.0,-1.0,0.0,8.m4v,7.0
2024-02-28 09:53:07.945278,1709110387.9452784,144.04296875,-31.25,-23.4375,905.2734375,0.0,1.0,-1.0,0.0,8.m4v,7.0
2024-02-28 09:53:07.949184,1709110387.949184,9.765625,-34.1796875,-30.76171875,970.703125,0.0,1.0,-1.0,0.0,8.m4v,7.0
2024-02-28 09:53:07.953089,1709110387.9530897,-68.359375,-31.73828125,-40.52734375,929.19921875,0.0,1.0,-1.0,0.0,8.m4v,7.0
2024-02-28 09:53:07.956995,1709110387.9569952,46.875,-29.78515625,-41.50390625,999.51171875,0.0,1.0,-1.0,0.0,8.m4v,7.0
2024-02-28 09:53:07.960901,1709110387.9609008,-102.5390625,-40.52734375,-30.2734375,235.3515625,0.0,1.0,-1.0,0.0,8.m4v,7.0
2024-02-28 09:53:07.964806,1709110387.9648063,-551.26953125,-40.0390625,-27.34375,-955.56640625,0.0,1.0,-1.0,0.0,8.m4v,7.0
2024-02-28 09:53:07.968712,1709110387.968712,-467.7734375,-28.3203125,-31.73828125,-980.95703125,0.0,1.0,-1.0,0.0,8.m4v,7.0
2024-02-28 09:53:07.972618,1709110387.9726176,-251.46484375,-30.76171875,-32.2265625,-994.140625,0.0,1.0,-1.0,0.0,8.m4v,7.0
2024-02-28 09:53:07.976523,1709110387.9765232,-16.11328125,-33.69140625,-35.64453125,-557.6171875,0.0,1.0,-1.0,0.0,8.m4v,7.0
2024-02-28 09:53:07.980429,1709110387.9804287,419.921875,-29.296875,-36.1328125,652.83203125,0.0,1.0,-1.0,0.0,8.m4v,7.0
2024-02-28 09:53:07.984337,1709110387.984337,460.9375,-11.71875,-26.3671875,999.51171875,0.0,1.0,-1.0,0.0,8.m4v,7.0
2024-02-28 09:53:07.988243,1709110387.9882426,167.96875,-10.7421875,-24.90234375,927.734375,0.0,1.0,-1.0,0.0,8.m4v,7.0
2024-02-28 09:53:07.992148,1709110387.9921484,13.18359375,-30.2734375,-31.73828125,925.78125,0.0,1.0,-1.0,0.0,8.m4v,7.0
2024-02-28 09:53:07.996054,1709110387.996054,66.89453125,-41.015625,-23.92578125,999.51171875,0.0,1.0,-1.0,0.0,8.m4v,7.0
2024-02-28 09:53:07.999959,1709110387.9999597,-68.359375,-44.921875,-29.296875,411.1328125,0.0,1.0,-1.0,0.0,8.m4v,7.0
2024-02-28 09:53:08.003865,1709110388.0038652,-567.3828125,-41.015625,-38.0859375,-868.1640625,0.0,1.0,-1.0,0.0,8.m4v,7.0
2024-02-28 09:53:08.007771,1709110388.0077708,-548.828125,-35.15625,-29.78515625,-1000.0,0.0,1.0,-1.0,0.0,8.m4v,7.0
2024-02-28 09:53:08.011676,1709110388.0116763,-320.80078125,-32.71484375,-29.296875,-1000.0,0.0,1.0,-1.0,0.0,8.m4v,7.0
2024-02-28 09:53:08.015582,1709110388.0155818,57.6171875,-28.3203125,-29.78515625,-237.3046875,0.0,1.0,-1.0,0.0,8.m4v,7.0
2024-02-28 09:53:08.019488,1709110388.0194876,565.91796875,-8.7890625,-16.11328125,902.83203125,0.0,1.0,-1.0,0.0,8.m4v,7.0
2024-02-28 09:53:08.023393,1709110388.0233932,393.5546875,-17.578125,-27.83203125,995.60546875,0.0,1.0,-1.0,0.0,8.m4v,7.0
2024-02-28 09:53:08.027299,1709110388.0272987,-33.203125,-35.64453125,-33.203125,651.85546875,0.0,1.0,-1.0,0.0,8.m4v,7.0
2024-02-28 09:53:08.031207,1709110388.0312066,-264.16015625,-35.64453125,-31.73828125,68.359375,0.0,1.0,-1.0,0.0,8.m4v,7.0
2024-02-28 09:53:08.035112,1709110388.0351124,-256.34765625,-32.2265625,-46.875,-374.0234375,0.0,1.0,-1.0,0.0,8.m4v,7.0
2024-02-28 09:53:08.039018,1709110388.039018,-270.99609375,-38.0859375,-47.36328125,-885.25390625,0.0,1.0,-1.0,0.0,8.m4v,7.0
2024-02-28 09:53:08.042923,1709110388.0429237,-195.80078125,-41.015625,-47.8515625,-973.14453125,0.0,1.0,-1.0,0.0,8.m4v,7.0
2024-02-28 09:53:08.046829,1709110388.0468292,-177.734375,-40.52734375,-39.55078125,-1000.0,0.0,1.0,-1.0,0.0,8.m4v,7.0
2024-02-28 09:53:08.050735,1709110388.0507348,-52.734375,-38.57421875,-25.390625,-617.67578125,0.0,1.0,-1.0,0.0,8.m4v,7.0
2024-02-28 09:53:08.054640,1709110388.0546403,462.890625,-32.71484375,-16.11328125,720.703125,0.0,1.0,-1.0,0.0,8.m4v,7.0
2024-02-28 09:53:08.058546,1709110388.058546,401.85546875,-28.3203125,-17.08984375,999.51171875,0.0,1.0,-1.0,0.0,8.m4v,7.0
2024-02-28 09:53:08.062452,1709110388.0624516,129.39453125,-31.25,-36.62109375,874.0234375,0.0,1.0,-1.0,0.0,8.m4v,7.0
2024-02-28 09:53:08.066357,1709110388.0663571,-287.59765625,-40.0390625,-41.015625,-319.82421875,0.0,1.0,-1.0,0.0,8.m4v,7.0
2024-02-28 09:53:08.070263,1709110388.070263,-583.984375,-40.52734375,-32.71484375,-1000.0,0.0,1.0,-1.0,0.0,8.m4v,7.0
2024-02-28 09:53:08.074168,1709110388.0741684,-356.4453125,-31.73828125,-31.25,-964.35546875,0.0,1.0,-1.0,0.0,8.m4v,7.0
2024-02-28 09:53:08.078078,1709110388.0780785,146.97265625,-16.6015625,-43.9453125,-56.640625,0.0,1.0,-1.0,0.0,8.m4v,7.0
2024-02-28 09:53:08.081984,1709110388.0819838,542.48046875,-24.4140625,-44.43359375,964.35546875,0.0,1.0,-1.0,0.0,8.m4v,7.0
2024-02-28 09:53:08.085890,1709110388.0858896,353.515625,-35.15625,-33.69140625,968.26171875,0.0,1.0,-1.0,0.0,8.m4v,7.0
2024-02-28 09:53:08.089795,1709110388.089795,92.28515625,-32.2265625,-27.83203125,923.33984375,0.0,1.0,-1.0,0.0,8.m4v,7.0
2024-02-28 09:53:08.093701,1709110388.0937006,22.4609375,-32.71484375,-16.11328125,963.8671875,0.0,1.0,-1.0,0.0,8.m4v,7.0
2024-02-28 09:53:08.097606,1709110388.0976062,95.703125,-34.66796875,-20.5078125,999.51171875,0.0,1.0,-1.0,0.0,8.m4v,7.0
2024-02-28 09:53:08.499914,1709110388.4999144,399.90234375,-11.23046875,-36.62109375,675.29296875,0.0,1.0,-1.0,0.0,8.m4v,7.0
2024-02-28 09:53:08.503820,1709110388.5038202,423.33984375,-31.25,-47.8515625,999.51171875,0.0,1.0,-1.0,0.0,8.m4v,7.0
2024-02-28 09:53:08.507726,1709110388.5077257,137.6953125,-49.8046875,-42.96875,930.17578125,0.0,1.0,-1.0,0.0,8.m4v,7.0
2024-02-28 09:53:08.511631,1709110388.5116313,-7.8125,-38.57421875,-50.29296875,921.38671875,0.0,1.0,-1.0,0.0,8.m4v,7.0
2024-02-28 09:53:08.515537,1709110388.515537,65.4296875,-28.80859375,-39.0625,999.51171875,0.0,1.0,-1.0,0.0,8.m4v,7.0
2024-02-28 09:53:08.519443,1709110388.5194426,63.4765625,-35.64453125,-23.92578125,760.25390625,0.0,1.0,-1.0,0.0,8.m4v,7.0
2024-02-28 09:53:08.523348,1709110388.523348,-446.2890625,-39.55078125,-27.34375,-680.6640625,0.0,1.0,-1.0,0.0,8.m4v,7.0
2024-02-28 09:53:08.527254,1709110388.5272536,-558.10546875,-30.2734375,-24.4140625,-1000.0,0.0,1.0,-1.0,0.0,8.m4v,7.0
2024-02-28 09:53:08.531159,1709110388.5311594,-318.84765625,-21.97265625,-23.4375,-957.51953125,0.0,1.0,-1.0,0.0,8.m4v,7.0
2024-02-28 09:53:08.535065,1709110388.535065,-139.6484375,-25.390625,-28.80859375,-817.3828125,0.0,1.0,-1.0,0.0,8.m4v,7.0
2024-02-28 09:53:08.538970,1709110388.5389705,311.5234375,-27.34375,-37.109375,384.27734375,0.0,1.0,-1.0,0.0,8.m4v,7.0
2024-02-28 09:53:08.542876,1709110388.5428762,466.30859375,-30.76171875,-32.71484375,999.51171875,0.0,1.0,-1.0,0.0,8.m4v,7.0
2024-02-28 09:53:08.546786,1709110388.5467856,205.56640625,-39.0625,-50.29296875,946.2890625,0.0,1.0,-1.0,0.0,8.m4v,7.0
2024-02-28 09:53:08.550691,1709110388.5506911,5.859375,-45.8984375,-67.87109375,913.0859375,0.0,1.0,-1.0,0.0,8.m4v,7.0
2024-02-28 09:53:08.554597,1709110388.554597,31.73828125,-41.9921875,-32.2265625,999.51171875,0.0,1.0,-1.0,0.0,8.m4v,7.0
2024-02-28 09:53:08.558502,1709110388.5585024,85.9375,-36.1328125,-18.5546875,873.046875,0.0,1.0,-1.0,0.0,8.m4v,7.0
2024-02-28 09:53:08.562408,1709110388.562408,-386.71875,-41.015625,-26.85546875,-561.03515625,0.0,1.0,-1.0,0.0,8.m4v,7.0
2024-02-28 09:53:08.566314,1709110388.5663135,-620.60546875,-40.52734375,-27.34375,-1000.0,0.0,1.0,-1.0,0.0,8.m4v,7.0
2024-02-28 09:53:08.570219,1709110388.5702193,-413.57421875,-36.1328125,-28.80859375,-943.84765625,0.0,1.0,-1.0,0.0,8.m4v,7.0
2024-02-28 09:53:08.574125,1709110388.5741248,-234.375,-40.52734375,-28.3203125,-981.93359375,0.0,1.0,-1.0,0.0,8.m4v,7.0
2024-02-28 09:53:08.578030,1709110388.5780303,-34.66796875,-38.57421875,-32.71484375,-837.40234375,0.0,1.0,-1.0,0.0,8.m4v,7.0
2024-02-28 09:53:08.581936,1709110388.581936,12.20703125,-31.25,-35.64453125,-903.80859375,0.0,1.0,-1.0,0.0,8.m4v,7.0
2024-02-28 09:53:08.585842,1709110388.5858417,-123.046875,-28.80859375,-36.1328125,-1000.0,0.0,1.0,-1.0,0.0,8.m4v,7.0
2024-02-28 09:53:08.589747,1709110388.5897472,-17.578125,-41.015625,-43.45703125,-453.61328125,0.0,1.0,-1.0,0.0,8.m4v,7.0
2024-02-28 09:53:08.593656,1709110388.5936563,483.88671875,-55.6640625,-50.29296875,845.703125,0.0,1.0,-1.0,0.0,8.m4v,7.0
2024-02-28 09:53:08.597562,1709110388.597562,421.875,-46.875,-42.96875,999.51171875,0.0,1.0,-1.0,0.0,8.m4v,7.0
2024-02-28 09:53:08.601468,1709110388.6014676,227.5390625,-33.69140625,-33.203125,922.36328125,0.0,1.0,-1.0,0.0,8.m4v,7.0
2024-02-28 09:53:08.605373,1709110388.6053731,146.484375,-24.4140625,-31.25,988.76953125,0.0,1.0,-1.0,0.0,8.m4v,7.0
2024-02-28 09:53:08.609279,1709110388.609279,-31.25,-12.6953125,-23.92578125,949.21875,0.0,1.0,-1.0,0.0,8.m4v,7.0
2024-02-28 09:53:08.613184,1709110388.6131845,-50.29296875,-19.04296875,-17.578125,949.70703125,0.0,1.0,-1.0,0.0,8.m4v,7.0
2024-02-28 09:53:08.617090,1709110388.61709,73.2421875,-26.3671875,-20.99609375,999.51171875,0.0,1.0,-1.0,0.0,8.m4v,7.0
2024-02-28 09:53:08.620996,1709110388.6209955,-163.57421875,-24.90234375,-20.99609375,-62.5,0.0,1.0,-1.0,0.0,8.m4v,7.0
2024-02-28 09:53:08.624901,1709110388.6249013,-573.73046875,-35.15625,-28.80859375,-1000.0,0.0,1.0,-1.0,0.0,8.m4v,7.0
2024-02-28 09:53:08.628807,1709110388.6288068,-468.26171875,-40.52734375,-31.73828125,-969.23828125,0.0,1.0,-1.0,0.0,8.m4v,7.0
2024-02-28 09:53:08.632712,1709110388.6327124,-265.625,-40.52734375,-32.71484375,-986.81640625,0.0,1.0,-1.0,0.0,8.m4v,7.0
2024-02-28 09:53:08.636618,1709110388.636618,-138.18359375,-38.0859375,-43.45703125,-1000.0,0.0,1.0,-1.0,0.0,8.m4v,7.0
2024-02-28 09:53:08.640527,1709110388.6405268,-53.22265625,-43.9453125,-51.7578125,-942.3828125,0.0,1.0,-1.0,0.0,8.m4v,7.0
2024-02-28 09:53:08.644433,1709110388.6444323,-99.609375,-45.41015625,-45.41015625,-1000.0,0.0,1.0,-1.0,0.0,8.m4v,7.0
2024-02-28 09:53:08.648338,1709110388.648338,-82.51953125,-29.296875,-27.34375,-865.234375,0.0,1.0,-1.0,0.0,8.m4v,7.0
2024-02-28 09:53:08.652244,1709110388.6522436,400.87890625,-17.08984375,-22.94921875,581.54296875,0.0,1.0,-1.0,0.0,8.m4v,7.0
2024-02-28 09:53:08.656149,1709110388.6561494,491.2109375,-25.390625,-35.64453125,999.51171875,0.0,1.0,-1.0,0.0,8.m4v,7.0
2024-02-28 09:53:08.660055,1709110388.660055,241.69921875,-31.25,-25.390625,900.87890625,0.0,1.0,-1.0,0.0,8.m4v,7.0
2024-02-28 09:53:08.663960,1709110388.6639605,169.43359375,-20.01953125,-13.18359375,987.3046875,0.0,1.0,-1.0,0.0,8.m4v,7.0
2024-02-28 09:53:08.667866,1709110388.667866,-26.85546875,-22.94921875,-20.01953125,897.94921875,0.0,1.0,-1.0,0.0,8.m4v,7.0
2024-02-28 09:53:08.671772,1709110388.6717718,-46.875,-30.2734375,-26.85546875,880.859375,0.0,1.0,-1.0,0.0,8.m4v,7.0
2024-02-28 09:53:08.675677,1709110388.6756773,110.3515625,-44.43359375,-35.64453125,999.51171875,0.0,1.0,-1.0,0.0,8.m4v,7.0
2024-02-28 09:53:08.679583,1709110388.6795828,-68.359375,-55.17578125,-39.0625,391.6015625,0.0,1.0,-1.0,0.0,8.m4v,7.0
2024-02-28 09:53:08.683489,1709110388.6834886,-555.17578125,-48.828125,-37.109375,-882.32421875,0.0,1.0,-1.0,0.0,8.m4v,7.0
2024-02-28 09:53:08.691303,1709110388.6913028,-305.17578125,-42.48046875,-27.83203125,-1000.0,0.0,1.0,-1.0,0.0,8.m4v,7.0
2024-02-28 09:53:08.703019,1709110388.7030194,313.4765625,-32.71484375,-33.69140625,978.02734375,0.0,1.0,-1.0,0.0,8.m4v,7.0
2024-02-28 09:53:08.714736,1709110388.7147362,62.01171875,-19.53125,-11.71875,999.51171875,0.0,1.0,-1.0,0.0,8.m4v,7.0
2024-02-28 09:53:08.726453,1709110388.726453,-477.5390625,-52.734375,-44.921875,-1000.0,0.0,1.0,-1.0,0.0,8.m4v,7.0
2024-02-28 09:53:08.738173,1709110388.738173,448.73046875,-14.16015625,-29.296875,633.7890625,0.0,1.0,-1.0,0.0,8.m4v,7.0
2024-02-28 09:53:08.749890,1709110388.74989,-12.20703125,-30.76171875,-26.85546875,923.33984375,0.0,1.0,-1.0,0.0,8.m4v,7.0
2024-02-28 09:53:08.761607,1709110388.7616067,-485.3515625,-49.31640625,-65.4296875,-633.30078125,0.0,1.0,-1.0,0.0,8.m4v,7.0
2024-02-28 09:53:08.773323,1709110388.7733233,-333.0078125,-35.15625,-33.69140625,-1000.0,0.0,1.0,-1.0,0.0,8.m4v,7.0
2024-02-28 09:53:08.785043,1709110388.7850423,435.546875,-28.3203125,-26.85546875,988.76953125,0.0,1.0,-1.0,0.0,8.m4v,7.0
2024-02-28 09:53:08.796759,1709110388.7967594,84.47265625,-27.34375,-38.57421875,999.51171875,0.0,1.0,-1.0,0.0,8.m4v,7.0
2024-02-28 09:53:09.089702,1709110389.089702,-102.05078125,-32.2265625,-23.4375,910.15625,0.0,1.0,-1.0,0.0,8.m4v,7.0
2024-02-28 09:53:09.093607,1709110389.0936074,-56.15234375,-49.8046875,-29.78515625,999.51171875,0.0,1.0,-1.0,0.0,8.m4v,7.0
2024-02-28 09:53:09.097513,1709110389.0975132,-60.05859375,-52.734375,-41.015625,759.765625,0.0,1.0,-1.0,0.0,8.m4v,7.0
2024-02-28 09:53:09.101419,1709110389.1014187,-457.51953125,-34.1796875,-36.1328125,-685.05859375,0.0,1.0,-1.0,0.0,8.m4v,7.0
2024-02-28 09:53:09.105324,1709110389.1053245,-532.2265625,-25.390625,-31.25,-1000.0,0.0,1.0,-1.0,0.0,8.m4v,7.0
2024-02-28 09:53:09.109233,1709110389.109233,-375.48828125,-39.55078125,-24.90234375,-951.171875,0.0,1.0,-1.0,0.0,8.m4v,7.0
2024-02-28 09:53:09.113138,1709110389.1131382,-248.046875,-43.9453125,-25.390625,-945.3125,0.0,1.0,-1.0,0.0,8.m4v,7.0
2024-02-28 09:53:09.117044,1709110389.117044,274.90234375,-22.94921875,-32.2265625,328.61328125,0.0,1.0,-1.0,0.0,8.m4v,7.0
2024-02-28 09:53:09.120950,1709110389.1209495,529.296875,-17.578125,-41.9921875,999.51171875,0.0,1.0,-1.0,0.0,8.m4v,7.0
2024-02-28 09:53:09.124855,1709110389.124855,245.60546875,-28.3203125,-34.66796875,931.640625,0.0,1.0,-1.0,0.0,8.m4v,7.0
2024-02-28 09:53:09.128761,1709110389.1287608,51.26953125,-37.109375,-28.80859375,920.8984375,0.0,1.0,-1.0,0.0,8.m4v,7.0
2024-02-28 09:53:09.273279,1709110389.2732792,-40.52734375,-39.55078125,-32.2265625,808.59375,0.0,1.0,-1.0,0.0,8.m4v,7.0
2024-02-28 09:53:09.277185,1709110389.2771847,155.2734375,-31.25,-28.80859375,999.51171875,0.0,1.0,-1.0,0.0,8.m4v,7.0
2024-02-28 09:53:09.281090,1709110389.2810905,-145.99609375,-27.83203125,-26.3671875,-83.49609375,0.0,1.0,-1.0,0.0,8.m4v,7.0
2024-02-28 09:53:09.284996,1709110389.284996,-539.55078125,-22.4609375,-27.34375,-1000.0,0.0,1.0,-1.0,0.0,8.m4v,7.0
2024-02-28 09:53:09.288902,1709110389.2889016,-417.96875,-23.92578125,-26.3671875,-972.16796875,0.0,1.0,-1.0,0.0,8.m4v,7.0
2024-02-28 09:53:09.292807,1709110389.292807,-258.30078125,-38.0859375,-39.0625,-995.1171875,0.0,1.0,-1.0,0.0,8.m4v,7.0
2024-02-28 09:53:09.296716,1709110389.2967165,-62.01171875,-26.3671875,-39.0625,-801.26953125,0.0,1.0,-1.0,0.0,8.m4v,7.0
2024-02-28 09:53:09.300622,1709110389.3006222,86.9140625,-26.3671875,-34.1796875,-731.4453125,0.0,1.0,-1.0,0.0,8.m4v,7.0
2024-02-28 09:53:09.304528,1709110389.3045278,-98.14453125,-37.109375,-35.64453125,-1000.0,0.0,1.0,-1.0,0.0,8.m4v,7.0
2024-02-28 09:53:09.308433,1709110389.3084333,-131.8359375,-35.64453125,-30.76171875,-816.40625,0.0,1.0,-1.0,0.0,8.m4v,7.0
2024-02-28 09:53:09.312339,1709110389.312339,395.01953125,-27.83203125,-22.4609375,638.671875,0.0,1.0,-1.0,0.0,8.m4v,7.0
2024-02-28 09:53:09.316245,1709110389.3162446,534.66796875,-24.4140625,-29.78515625,999.51171875,0.0,1.0,-1.0,0.0,8.m4v,7.0
2024-02-28 09:53:09.320150,1709110389.32015,273.4375,-23.92578125,-29.296875,893.06640625,0.0,1.0,-1.0,0.0,8.m4v,7.0
2024-02-28 09:53:09.324056,1709110389.324056,125.9765625,-21.484375,-41.015625,957.51953125,0.0,1.0,-1.0,0.0,8.m4v,7.0
2024-02-28 09:53:09.327961,1709110389.3279614,-140.625,-36.62109375,-45.41015625,568.359375,0.0,1.0,-1.0,0.0,8.m4v,7.0
2024-02-28 09:53:09.331867,1709110389.331867,-373.046875,-43.45703125,-31.25,-201.171875,0.0,1.0,-1.0,0.0,8.m4v,7.0
2024-02-28 09:53:09.335773,1709110389.3357725,-425.29296875,-34.1796875,-35.64453125,-892.578125,0.0,1.0,-1.0,0.0,8.m4v,7.0
2024-02-28 09:53:09.339678,1709110389.3396783,-334.9609375,-30.76171875,-39.55078125,-986.81640625,0.0,1.0,-1.0,0.0,8.m4v,7.0
2024-02-28 09:53:09.343587,1709110389.3435874,-189.453125,-37.59765625,-34.66796875,-974.609375,0.0,1.0,-1.0,0.0,8.m4v,7.0
2024-02-28 09:53:09.347493,1709110389.347493,-159.1796875,-48.828125,-35.15625,-1000.0,0.0,1.0,-1.0,0.0,8.m4v,7.0
2024-02-28 09:53:09.351398,1709110389.3513985,190.4296875,-28.80859375,-31.25,184.08203125,0.0,1.0,-1.0,0.0,8.m4v,7.0
2024-02-28 09:53:09.355304,1709110389.3553042,562.98828125,-0.9765625,-27.34375,999.51171875,0.0,1.0,-1.0,0.0,8.m4v,7.0
2024-02-28 09:53:09.359210,1709110389.3592098,359.375,-2.44140625,-35.64453125,920.41015625,0.0,1.0,-1.0,0.0,8.m4v,7.0
2024-02-28 09:53:09.363115,1709110389.3631153,173.33984375,-13.671875,-41.9921875,969.23828125,0.0,1.0,-1.0,0.0,8.m4v,7.0
2024-02-28 09:53:09.367021,1709110389.3670208,88.8671875,-19.53125,-33.69140625,971.19140625,0.0,1.0,-1.0,0.0,8.m4v,7.0
2024-02-28 09:53:09.370927,1709110389.3709266,-30.2734375,-27.34375,-19.04296875,923.33984375,0.0,1.0,-1.0,0.0,8.m4v,7.0
2024-02-28 09:53:09.374832,1709110389.3748322,23.92578125,-48.828125,-23.4375,999.51171875,0.0,1.0,-1.0,0.0,8.m4v,7.0
2024-02-28 09:53:09.378738,1709110389.3787377,-123.53515625,-51.7578125,-28.80859375,305.6640625,0.0,1.0,-1.0,0.0,8.m4v,7.0
2024-02-28 09:53:09.382643,1709110389.3826437,-567.87109375,-34.66796875,-25.87890625,-932.12890625,0.0,1.0,-1.0,0.0,8.m4v,7.0
2024-02-28 09:53:09.386549,1709110389.386549,-485.3515625,-26.3671875,-37.59765625,-980.95703125,0.0,1.0,-1.0,0.0,8.m4v,7.0
2024-02-28 09:53:09.390458,1709110389.390458,-324.70703125,-35.15625,-41.50390625,-1000.0,0.0,1.0,-1.0,0.0,8.m4v,7.0
2024-02-28 09:53:09.394363,1709110389.3943634,-66.40625,-48.828125,-28.80859375,-437.5,0.0,1.0,-1.0,0.0,8.m4v,7.0
2024-02-28 09:53:09.398269,1709110389.3982692,493.1640625,-34.1796875,-28.80859375,813.96484375,0.0,1.0,-1.0,0.0,8.m4v,7.0
2024-02-28 09:53:09.402175,1709110389.4021747,467.7734375,-24.90234375,-25.87890625,999.51171875,0.0,1.0,-1.0,0.0,8.m4v,7.0
2024-02-28 09:53:09.406080,1709110389.4060802,147.4609375,-25.390625,-19.04296875,938.4765625,0.0,1.0,-1.0,0.0,8.m4v,7.0
2024-02-28 09:53:09.409986,1709110389.4099858,-2.9296875,-27.83203125,-25.87890625,919.921875,0.0,1.0,-1.0,0.0,8.m4v,7.0
2024-02-28 09:53:09.413892,1709110389.4138916,49.31640625,-33.69140625,-26.3671875,999.51171875,0.0,1.0,-1.0,0.0,8.m4v,7.0
2024-02-28 09:53:09.417797,1709110389.417797,-75.68359375,-43.9453125,-19.53125,672.8515625,0.0,1.0,-1.0,0.0,8.m4v,7.0
2024-02-28 09:53:09.421703,1709110389.4217026,-623.53515625,-46.38671875,-27.34375,-744.62890625,0.0,1.0,-1.0,0.0,8.m4v,7.0
2024-02-28 09:53:09.425608,1709110389.4256084,-539.55078125,-38.57421875,-37.59765625,-1000.0,0.0,1.0,-1.0,0.0,8.m4v,7.0
2024-02-28 09:53:09.429514,1709110389.429514,-280.76171875,-29.296875,-36.1328125,-1000.0,0.0,1.0,-1.0,0.0,8.m4v,7.0
2024-02-28 09:53:09.433419,1709110389.4334197,-66.89453125,-17.578125,-40.0390625,-606.4453125,0.0,1.0,-1.0,0.0,8.m4v,7.0
2024-02-28 09:53:09.437328,1709110389.437328,484.375,-11.71875,-29.78515625,744.140625,0.0,1.0,-1.0,0.0,8.m4v,7.0
2024-02-28 09:53:09.441234,1709110389.441234,486.81640625,-23.92578125,-18.06640625,999.51171875,0.0,1.0,-1.0,0.0,8.m4v,7.0
2024-02-28 09:53:09.445139,1709110389.4451394,161.62109375,-32.2265625,-20.5078125,804.19921875,0.0,1.0,-1.0,0.0,8.m4v,7.0
2024-02-28 09:53:09.449045,1709110389.449045,-29.296875,-28.3203125,-11.71875,735.83984375,0.0,1.0,-1.0,0.0,8.m4v,7.0
2024-02-28 09:53:09.452950,1709110389.4529505,-26.85546875,-40.52734375,-6.8359375,898.92578125,0.0,1.0,-1.0,0.0,8.m4v,7.0
2024-02-28 09:53:09.456856,1709110389.4568565,127.44140625,-48.33984375,-20.5078125,999.51171875,0.0,1.0,-1.0,0.0,8.m4v,7.0
2024-02-28 09:53:09.460762,1709110389.4607618,-86.9140625,-37.59765625,-34.1796875,118.1640625,0.0,1.0,-1.0,0.0,8.m4v,7.0
2024-02-28 09:53:09.464667,1709110389.464667,-563.96484375,-37.109375,-35.64453125,-1000.0,0.0,1.0,-1.0,0.0,8.m4v,7.0
2024-02-28 09:53:09.468573,1709110389.468573,-483.3984375,-43.45703125,-24.4140625,-996.58203125,0.0,1.0,-1.0,0.0,8.m4v,7.0
2024-02-28 09:53:09.472479,1709110389.4724786,-240.72265625,-43.9453125,-23.4375,-973.14453125,0.0,1.0,-1.0,0.0,8.m4v,7.0
2024-02-28 09:53:09.476384,1709110389.4763842,-144.53125,-35.64453125,-30.76171875,-1000.0,0.0,1.0,-1.0,0.0,8.m4v,7.0
2024-02-28 09:53:09.480290,1709110389.48029,-70.80078125,-27.83203125,-33.69140625,-939.94140625,0.0,1.0,-1.0,0.0,8.m4v,7.0
2024-02-28 09:53:09.484198,1709110389.484198,-90.33203125,-35.64453125,-40.52734375,-1000.0,0.0,1.0,-1.0,0.0,8.m4v,7.0
2024-02-28 09:53:09.488104,1709110389.488104,-71.2890625,-35.15625,-39.55078125,-719.23828125,0.0,1.0,-1.0,0.0,8.m4v,7.0
2024-02-28 09:53:09.492009,1709110389.4920094,399.4140625,-27.83203125,-31.25,700.68359375,0.0,1.0,-1.0,0.0,8.m4v,7.0
2024-02-28 09:53:09.495915,1709110389.495915,505.859375,-29.296875,-20.99609375,999.51171875,0.0,1.0,-1.0,0.0,8.m4v,7.0
2024-02-28 09:53:09.499820,1709110389.4998205,291.9921875,-36.62109375,-17.08984375,905.76171875,0.0,1.0,-1.0,0.0,8.m4v,7.0
2024-02-28 09:53:09.503726,1709110389.5037262,194.3359375,-38.57421875,-29.296875,990.234375,0.0,1.0,-1.0,0.0,8.m4v,7.0
2024-02-28 09:53:09.507632,1709110389.5076318,-0.9765625,-28.3203125,-39.55078125,956.0546875,0.0,1.0,-1.0,0.0,8.m4v,7.0
2024-02-28 09:53:09.511537,1709110389.5115373,-121.58203125,-20.01953125,-44.43359375,940.4296875,0.0,1.0,-1.0,0.0,8.m4v,7.0
2024-02-28 09:53:09.515443,1709110389.515443,-1.46484375,-29.78515625,-33.203125,999.51171875,0.0,1.0,-1.0,0.0,8.m4v,7.0
2024-02-28 09:53:09.519349,1709110389.5193486,-148.92578125,-22.4609375,-14.16015625,62.01171875,0.0,1.0,-1.0,0.0,8.m4v,7.0
2024-02-28 09:53:09.948996,1709110389.948996,-320.3125,-36.1328125,-29.78515625,-990.234375,0.0,1.0,-1.0,0.0,8.m4v,7.0
2024-02-28 09:53:09.952906,1709110389.952906,-176.26953125,-27.83203125,-26.85546875,-818.84765625,0.0,1.0,-1.0,0.0,8.m4v,7.0
2024-02-28 09:53:09.956812,1709110389.9568117,399.4140625,-14.6484375,-28.80859375,582.51953125,0.0,1.0,-1.0,0.0,8.m4v,7.0
2024-02-28 09:53:09.960717,1709110389.9607172,546.38671875,-21.97265625,-35.15625,999.51171875,0.0,1.0,-1.0,0.0,8.m4v,7.0
2024-02-28 09:53:09.964623,1709110389.9646227,226.5625,-35.15625,-41.015625,918.9453125,0.0,1.0,-1.0,0.0,8.m4v,7.0
2024-02-28 09:53:10.448953,1709110390.4489532,-16.6015625,-18.06640625,-21.97265625,909.66796875,0.0,1.0,-1.0,0.0,8.m4v,7.0
2024-02-28 09:53:10.452859,1709110390.4528587,34.66796875,-19.04296875,-35.15625,999.51171875,0.0,1.0,-1.0,0.0,8.m4v,7.0
2024-02-28 09:53:10.456764,1709110390.4567642,41.9921875,-29.296875,-41.9921875,770.99609375,0.0,1.0,-1.0,0.0,8.m4v,7.0
2024-02-28 09:53:10.460670,1709110390.46067,-420.8984375,-28.80859375,-26.3671875,-678.22265625,0.0,1.0,-1.0,0.0,8.m4v,7.0
2024-02-28 09:53:10.464576,1709110390.4645755,-535.15625,-22.4609375,-7.32421875,-1000.0,0.0,1.0,-1.0,0.0,8.m4v,7.0
2024-02-28 09:53:10.468485,1709110390.4684846,-344.23828125,-24.4140625,-25.390625,-949.70703125,0.0,1.0,-1.0,0.0,8.m4v,7.0
2024-02-28 09:53:10.472390,1709110390.4723902,-270.99609375,-31.73828125,-45.8984375,-931.15234375,0.0,1.0,-1.0,0.0,8.m4v,7.0
2024-02-28 09:53:10.476296,1709110390.476296,254.8828125,-26.3671875,-32.71484375,325.1953125,0.0,1.0,-1.0,0.0,8.m4v,7.0
2024-02-28 09:53:10.480201,1709110390.4802015,575.68359375,-25.390625,-33.69140625,999.51171875,0.0,1.0,-1.0,0.0,8.m4v,7.0
2024-02-28 09:53:10.484107,1709110390.484107,292.96875,-35.15625,-32.71484375,934.08203125,0.0,1.0,-1.0,0.0,8.m4v,7.0
2024-02-28 09:53:10.488013,1709110390.4880128,69.82421875,-32.2265625,-27.34375,922.36328125,0.0,1.0,-1.0,0.0,8.m4v,7.0
2024-02-28 09:53:10.491918,1709110390.4919183,-1.953125,-27.34375,-27.34375,999.51171875,0.0,1.0,-1.0,0.0,8.m4v,7.0
2024-02-28 09:53:10.495824,1709110390.495824,13.18359375,-25.390625,-26.85546875,924.31640625,0.0,1.0,-1.0,0.0,8.m4v,7.0
2024-02-28 09:53:10.499729,1709110390.4997294,-385.25390625,-28.3203125,-22.94921875,-476.07421875,0.0,1.0,-1.0,0.0,8.m4v,7.0
2024-02-28 09:53:10.503635,1709110390.5036352,-637.20703125,-31.25,-30.76171875,-1000.0,0.0,1.0,-1.0,0.0,8.m4v,7.0
2024-02-28 09:53:10.507541,1709110390.5075407,-426.7578125,-36.1328125,-39.0625,-935.546875,0.0,1.0,-1.0,0.0,8.m4v,7.0
2024-02-28 09:53:10.511446,1709110390.5114462,-255.859375,-51.26953125,-31.73828125,-999.51171875,0.0,1.0,-1.0,0.0,8.m4v,7.0
2024-02-28 09:53:10.515355,1709110390.515355,223.6328125,-42.96875,-28.80859375,229.98046875,0.0,1.0,-1.0,0.0,8.m4v,7.0
2024-02-28 09:53:10.519261,1709110390.519261,534.66796875,-36.1328125,-29.296875,999.51171875,0.0,1.0,-1.0,0.0,8.m4v,7.0
2024-02-28 09:53:10.523166,1709110390.5231664,296.38671875,-41.50390625,-37.109375,925.78125,0.0,1.0,-1.0,0.0,8.m4v,7.0
2024-02-28 09:53:10.527072,1709110390.527072,92.28515625,-18.06640625,-41.015625,965.33203125,0.0,1.0,-1.0,0.0,8.m4v,7.0
2024-02-28 09:53:10.530978,1709110390.5309775,10.7421875,-3.90625,-38.0859375,927.24609375,0.0,1.0,-1.0,0.0,8.m4v,7.0
2024-02-28 09:53:10.534883,1709110390.5348833,80.078125,-7.8125,-33.69140625,999.51171875,0.0,1.0,-1.0,0.0,8.m4v,7.0
2024-02-28 09:53:10.538789,1709110390.5387888,-76.66015625,-17.08984375,-30.76171875,317.3828125,0.0,1.0,-1.0,0.0,8.m4v,7.0
2024-02-28 09:53:10.542694,1709110390.5426943,-554.19921875,-33.69140625,-26.85546875,-920.8984375,0.0,1.0,-1.0,0.0,8.m4v,7.0
2024-02-28 09:53:10.546600,1709110390.5466,-535.64453125,-39.55078125,-28.3203125,-1000.0,0.0,1.0,-1.0,0.0,8.m4v,7.0
2024-02-28 09:53:10.550506,1709110390.5505056,-303.7109375,-42.48046875,-33.203125,-962.40234375,0.0,1.0,-1.0,0.0,8.m4v,7.0
2024-02-28 09:53:10.554411,1709110390.5544112,-192.87109375,-47.8515625,-23.4375,-958.49609375,0.0,1.0,-1.0,0.0,8.m4v,7.0
2024-02-28 09:53:10.558317,1709110390.558317,-133.7890625,-44.921875,-26.3671875,-924.31640625,0.0,1.0,-1.0,0.0,8.m4v,7.0
2024-02-28 09:53:10.562226,1709110390.5622256,-107.421875,-36.62109375,-26.85546875,-1000.0,0.0,1.0,-1.0,0.0,8.m4v,7.0
2024-02-28 09:53:10.566131,1709110390.566131,-128.41796875,-27.34375,-33.69140625,-984.86328125,0.0,1.0,-1.0,0.0,8.m4v,7.0
2024-02-28 09:53:10.570037,1709110390.5700366,258.30078125,-20.01953125,-42.48046875,340.33203125,0.0,1.0,-1.0,0.0,8.m4v,7.0
2024-02-28 09:53:10.573942,1709110390.5739424,581.0546875,-17.578125,-27.83203125,999.51171875,0.0,1.0,-1.0,0.0,8.m4v,7.0
2024-02-28 09:53:10.577848,1709110390.577848,374.0234375,-20.5078125,-15.13671875,904.78515625,0.0,1.0,-1.0,0.0,8.m4v,7.0
2024-02-28 09:53:10.581753,1709110390.5817535,204.1015625,-34.66796875,-22.94921875,976.5625,0.0,1.0,-1.0,0.0,8.m4v,7.0
2024-02-28 09:53:10.585659,1709110390.585659,83.984375,-44.43359375,-42.48046875,979.98046875,0.0,1.0,-1.0,0.0,8.m4v,7.0
2024-02-28 09:53:10.589565,1709110390.5895648,-72.75390625,-31.73828125,-37.59765625,912.59765625,0.0,1.0,-1.0,0.0,8.m4v,7.0
2024-02-28 09:53:10.593470,1709110390.5934703,-11.71875,-29.296875,-29.78515625,999.51171875,0.0,1.0,-1.0,0.0,8.m4v,7.0
2024-02-28 09:53:10.597376,1709110390.597376,-45.8984375,-23.4375,-32.2265625,589.35546875,0.0,1.0,-1.0,0.0,8.m4v,7.0
2024-02-28 09:53:10.601282,1709110390.6012816,-476.5625,-21.97265625,-28.3203125,-793.45703125,0.0,1.0,-1.0,0.0,8.m4v,7.0
2024-02-28 09:53:10.605187,1709110390.6051872,-490.72265625,-40.0390625,-35.64453125,-1000.0,0.0,1.0,-1.0,0.0,8.m4v,7.0
2024-02-28 09:53:10.609096,1709110390.6090956,-329.58984375,-35.64453125,-36.62109375,-1000.0,0.0,1.0,-1.0,0.0,8.m4v,7.0
2024-02-28 09:53:10.613001,1709110390.613001,-139.16015625,-19.04296875,-20.01953125,-667.96875,0.0,1.0,-1.0,0.0,8.m4v,7.0
2024-02-28 09:53:10.616907,1709110390.616907,418.45703125,-15.13671875,-27.34375,709.47265625,0.0,1.0,-1.0,0.0,8.m4v,7.0
2024-02-28 09:53:10.620812,1709110390.6208124,482.91015625,-29.296875,-42.48046875,999.51171875,0.0,1.0,-1.0,0.0,8.m4v,7.0
2024-02-28 09:53:10.624718,1709110390.624718,160.64453125,-32.2265625,-44.43359375,924.8046875,0.0,1.0,-1.0,0.0,8.m4v,7.0
2024-02-28 09:53:10.628624,1709110390.6286235,-7.32421875,-21.484375,-29.296875,922.8515625,0.0,1.0,-1.0,0.0,8.m4v,7.0
2024-02-28 09:53:10.632529,1709110390.6325293,8.30078125,-21.484375,-27.34375,999.51171875,0.0,1.0,-1.0,0.0,8.m4v,7.0
2024-02-28 09:53:10.636435,1709110390.6364348,-96.19140625,-27.34375,-33.203125,730.95703125,0.0,1.0,-1.0,0.0,8.m4v,7.0
2024-02-28 09:53:10.640341,1709110390.6403406,-538.0859375,-39.0625,-28.3203125,-715.8203125,0.0,1.0,-1.0,0.0,8.m4v,7.0
2024-02-28 09:53:10.644246,1709110390.644246,-493.1640625,-38.57421875,-33.203125,-1000.0,0.0,1.0,-1.0,0.0,8.m4v,7.0
2024-02-28 09:53:10.648152,1709110390.6481516,-303.7109375,-28.3203125,-36.62109375,-982.91015625,0.0,1.0,-1.0,0.0,8.m4v,7.0
2024-02-28 09:53:10.652057,1709110390.6520574,-199.70703125,-23.4375,-29.296875,-875.9765625,0.0,1.0,-1.0,0.0,8.m4v,7.0
2024-02-28 09:53:10.655966,1709110390.6559656,366.2109375,-23.92578125,-29.78515625,542.48046875,0.0,1.0,-1.0,0.0,8.m4v,7.0
2024-02-28 09:53:10.659871,1709110390.659871,508.30078125,-25.390625,-33.69140625,999.51171875,0.0,1.0,-1.0,0.0,8.m4v,7.0
2024-02-28 09:53:10.663777,1709110390.6637769,164.55078125,-25.87890625,-21.484375,887.6953125,0.0,1.0,-1.0,0.0,8.m4v,7.0
2024-02-28 09:53:10.667682,1709110390.6676824,24.4140625,-32.2265625,-28.3203125,940.91796875,0.0,1.0,-1.0,0.0,8.m4v,7.0
2024-02-28 09:53:10.671588,1709110390.6715882,7.8125,-33.69140625,-34.66796875,927.24609375,0.0,1.0,-1.0,0.0,8.m4v,7.0
2024-02-28 09:53:10.675494,1709110390.6754937,118.1640625,-27.34375,-19.04296875,999.51171875,0.0,1.0,-1.0,0.0,8.m4v,7.0
2024-02-28 09:53:10.679399,1709110390.6793993,-91.796875,-32.2265625,-27.34375,219.7265625,0.0,1.0,-1.0,0.0,8.m4v,7.0
2024-02-28 09:53:10.683305,1709110390.6833048,-611.81640625,-47.36328125,-43.45703125,-975.09765625,0.0,1.0,-1.0,0.0,8.m4v,7.0
2024-02-28 09:53:10.687211,1709110390.6872106,-575.1953125,-64.94140625,-45.8984375,-1000.0,0.0,1.0,-1.0,0.0,8.m4v,7.0
2024-02-28 09:53:10.691116,1709110390.691116,-342.7734375,-51.26953125,-38.0859375,-967.28515625,0.0,1.0,-1.0,0.0,8.m4v,7.0
2024-02-28 09:53:10.695022,1709110390.6950216,-196.77734375,-39.0625,-35.64453125,-1000.0,0.0,1.0,-1.0,0.0,8.m4v,7.0
2024-02-28 09:53:10.698927,1709110390.6989274,-41.9921875,-35.64453125,-31.25,-942.87109375,0.0,1.0,-1.0,0.0,8.m4v,7.0
2024-02-28 09:53:10.702837,1709110390.7028372,-33.69140625,-23.4375,-31.25,-1000.0,0.0,1.0,-1.0,0.0,8.m4v,7.0
2024-02-28 09:53:10.706743,1709110390.7067428,-52.734375,-22.4609375,-33.69140625,-873.046875,0.0,1.0,-1.0,0.0,8.m4v,7.0
2024-02-28 09:53:10.710649,1709110390.7106483,397.94921875,-31.25,-34.1796875,571.77734375,0.0,1.0,-1.0,0.0,8.m4v,7.0
2024-02-28 09:53:10.718460,1709110390.7184596,264.6484375,-33.203125,-23.4375,896.97265625,0.0,1.0,-1.0,0.0,8.m4v,7.0
2024-02-28 09:53:10.726271,1709110390.726271,23.92578125,-46.875,-38.0859375,966.796875,0.0,1.0,-1.0,0.0,8.m4v,7.0
2024-02-28 09:53:10.734082,1709110390.734082,-5.859375,-36.1328125,-33.69140625,999.51171875,0.0,1.0,-1.0,0.0,8.m4v,7.0
2024-02-28 09:53:11.546518,1709110391.5465178,48.33984375,-32.2265625,-27.83203125,955.56640625,0.0,1.0,-1.0,0.0,8.m4v,7.0
2024-02-28 09:53:11.550423,1709110391.5504234,-35.64453125,-44.43359375,-28.80859375,952.63671875,0.0,1.0,-1.0,0.0,8.m4v,7.0
2024-02-28 09:53:11.554329,1709110391.5543292,43.45703125,-33.203125,-26.85546875,999.51171875,0.0,1.0,-1.0,0.0,8.m4v,7.0
2024-02-28 09:53:11.558235,1709110391.5582347,-223.14453125,-22.94921875,-34.66796875,-101.07421875,0.0,1.0,-1.0,0.0,8.m4v,7.0
2024-02-28 09:53:11.562140,1709110391.5621402,-615.234375,-27.83203125,-35.15625,-1000.0,0.0,1.0,-1.0,0.0,8.m4v,7.0
2024-02-28 09:53:11.566046,1709110391.566046,-424.31640625,-22.4609375,-30.2734375,-956.0546875,0.0,1.0,-1.0,0.0,8.m4v,7.0
2024-02-28 09:53:11.569952,1709110391.5699515,-248.046875,-29.78515625,-21.97265625,-1000.0,0.0,1.0,-1.0,0.0,8.m4v,7.0
2024-02-28 09:53:11.573857,1709110391.573857,71.2890625,-39.0625,-19.04296875,42.96875,0.0,1.0,-1.0,0.0,8.m4v,7.0
2024-02-28 09:53:11.577763,1709110391.5777628,428.22265625,-54.6875,-24.90234375,999.51171875,0.0,1.0,-1.0,0.0,8.m4v,7.0
2024-02-28 09:53:11.581668,1709110391.5816684,321.2890625,-49.31640625,-31.73828125,946.77734375,0.0,1.0,-1.0,0.0,8.m4v,7.0
2024-02-28 09:53:11.585574,1709110391.585574,41.015625,-27.34375,-23.92578125,595.703125,0.0,1.0,-1.0,0.0,8.m4v,7.0
2024-02-28 09:53:11.589479,1709110391.5894794,-98.6328125,-26.3671875,-27.34375,488.76953125,0.0,1.0,-1.0,0.0,8.m4v,7.0
2024-02-28 09:53:11.593389,1709110391.5933888,119.140625,-27.34375,-45.8984375,999.51171875,0.0,1.0,-1.0,0.0,8.m4v,7.0
2024-02-28 09:53:11.597294,1709110391.5972943,98.14453125,-28.3203125,-32.71484375,720.703125,0.0,1.0,-1.0,0.0,8.m4v,7.0
2024-02-28 09:53:11.601200,1709110391.6012,-437.98828125,-30.2734375,-20.01953125,-735.83984375,0.0,1.0,-1.0,0.0,8.m4v,7.0
2024-02-28 09:53:11.605105,1709110391.6051054,-483.3984375,-24.90234375,-32.71484375,-1000.0,0.0,1.0,-1.0,0.0,8.m4v,7.0
2024-02-28 09:53:11.609011,1709110391.6090112,-313.96484375,-22.4609375,-39.0625,-1000.0,0.0,1.0,-1.0,0.0,8.m4v,7.0
2024-02-28 09:53:11.612917,1709110391.6129167,-84.9609375,-33.69140625,-36.62109375,-593.75,0.0,1.0,-1.0,0.0,8.m4v,7.0
2024-02-28 09:53:11.616822,1709110391.6168222,486.328125,-35.64453125,-40.52734375,754.8828125,0.0,1.0,-1.0,0.0,8.m4v,7.0
2024-02-28 09:53:11.620728,1709110391.620728,453.61328125,-32.71484375,-38.0859375,999.51171875,0.0,1.0,-1.0,0.0,8.m4v,7.0
2024-02-28 09:53:11.624634,1709110391.6246336,121.58203125,-31.73828125,-43.9453125,930.17578125,0.0,1.0,-1.0,0.0,8.m4v,7.0
2024-02-28 09:53:11.628539,1709110391.628539,-34.1796875,-22.4609375,-29.296875,922.36328125,0.0,1.0,-1.0,0.0,8.m4v,7.0
2024-02-28 09:53:11.632445,1709110391.6324449,-5.37109375,-14.16015625,-19.53125,999.51171875,0.0,1.0,-1.0,0.0,8.m4v,7.0
2024-02-28 09:53:11.636350,1709110391.6363504,27.34375,-19.04296875,-38.57421875,763.18359375,0.0,1.0,-1.0,0.0,8.m4v,7.0
2024-02-28 09:53:11.640259,1709110391.6402593,-437.5,-33.69140625,-32.71484375,-688.96484375,0.0,1.0,-1.0,0.0,8.m4v,7.0
2024-02-28 09:53:11.644165,1709110391.6441648,-520.01953125,-28.80859375,-21.97265625,-1000.0,0.0,1.0,-1.0,0.0,8.m4v,7.0
2024-02-28 09:53:11.648071,1709110391.6480706,-329.1015625,-24.90234375,-24.4140625,-980.95703125,0.0,1.0,-1.0,0.0,8.m4v,7.0
2024-02-28 09:53:11.651976,1709110391.651976,-180.17578125,-31.25,-33.203125,-811.03515625,0.0,1.0,-1.0,0.0,8.m4v,7.0
2024-02-28 09:53:11.655882,1709110391.6558816,390.13671875,-29.296875,-39.0625,575.1953125,0.0,1.0,-1.0,0.0,8.m4v,7.0
2024-02-28 09:53:11.659787,1709110391.6597874,522.4609375,-24.90234375,-43.9453125,999.51171875,0.0,1.0,-1.0,0.0,8.m4v,7.0
2024-02-28 09:53:11.663693,1709110391.663693,219.7265625,-34.1796875,-41.015625,914.0625,0.0,1.0,-1.0,0.0,8.m4v,7.0
2024-02-28 09:53:11.667598,1709110391.6675985,58.10546875,-52.734375,-32.2265625,938.96484375,0.0,1.0,-1.0,0.0,8.m4v,7.0
2024-02-28 09:53:11.671504,1709110391.671504,34.66796875,-46.875,-33.203125,999.51171875,0.0,1.0,-1.0,0.0,8.m4v,7.0
2024-02-28 09:53:11.675410,1709110391.6754098,61.5234375,-29.78515625,-44.43359375,818.84765625,0.0,1.0,-1.0,0.0,8.m4v,7.0
2024-02-28 09:53:11.679315,1709110391.679315,-315.91796875,-23.92578125,-35.64453125,-519.04296875,0.0,1.0,-1.0,0.0,8.m4v,7.0
2024-02-28 09:53:11.683221,1709110391.6832209,-580.078125,-28.80859375,-30.2734375,-1000.0,0.0,1.0,-1.0,0.0,8.m4v,7.0
2024-02-28 09:53:11.687129,1709110391.6871295,-410.15625,-40.0390625,-40.52734375,-908.69140625,0.0,1.0,-1.0,0.0,8.m4v,7.0
2024-02-28 09:53:11.691035,1709110391.6910353,-270.99609375,-37.109375,-39.0625,-1000.0,0.0,1.0,-1.0,0.0,8.m4v,7.0
2024-02-28 09:53:11.694941,1709110391.6949408,60.546875,-31.25,-31.73828125,-306.15234375,0.0,1.0,-1.0,0.0,8.m4v,7.0
2024-02-28 09:53:11.698846,1709110391.6988463,459.47265625,-34.66796875,-34.1796875,842.28515625,0.0,1.0,-1.0,0.0,8.m4v,7.0
2024-02-28 09:53:11.702752,1709110391.702752,344.7265625,-48.33984375,-29.296875,999.51171875,0.0,1.0,-1.0,0.0,8.m4v,7.0
2024-02-28 09:53:11.706658,1709110391.7066576,121.58203125,-42.48046875,-28.80859375,914.0625,0.0,1.0,-1.0,0.0,8.m4v,7.0
2024-02-28 09:53:11.710563,1709110391.7105632,30.2734375,-28.80859375,-38.57421875,955.56640625,0.0,1.0,-1.0,0.0,8.m4v,7.0
2024-02-28 09:53:11.714469,1709110391.7144687,48.33984375,-33.69140625,-33.69140625,999.51171875,0.0,1.0,-1.0,0.0,8.m4v,7.0
2024-02-28 09:53:11.718374,1709110391.7183745,-193.359375,-37.109375,-32.2265625,-27.83203125,0.0,1.0,-1.0,0.0,8.m4v,7.0
2024-02-28 09:53:11.722280,1709110391.72228,-571.77734375,-31.25,-44.43359375,-1000.0,0.0,1.0,-1.0,0.0,8.m4v,7.0
2024-02-28 09:53:11.726186,1709110391.7261856,-465.8203125,-31.73828125,-34.66796875,-941.40625,0.0,1.0,-1.0,0.0,8.m4v,7.0
2024-02-28 09:53:11.730091,1709110391.730091,-326.171875,-37.109375,-25.390625,-1000.0,0.0,1.0,-1.0,0.0,8.m4v,7.0
2024-02-28 09:53:11.733999,1709110391.7339995,10.25390625,-38.0859375,-34.66796875,-326.66015625,0.0,1.0,-1.0,0.0,8.m4v,7.0
2024-02-28 09:53:11.866797,1709110391.866797,-61.03515625,-35.15625,-64.94140625,510.25390625,0.0,1.0,-1.0,0.0,8.m4v,7.0
2024-02-28 09:53:11.870703,1709110391.8707025,-485.83984375,-21.97265625,-52.24609375,-638.671875,0.0,1.0,-1.0,0.0,8.m4v,7.0
2024-02-28 09:53:11.874612,1709110391.874612,-494.140625,-15.13671875,-23.92578125,-1000.0,0.0,1.0,-1.0,0.0,8.m4v,7.0
2024-02-28 09:53:11.878518,1709110391.8785176,-195.3125,-26.85546875,-20.01953125,-921.38671875,0.0,1.0,-1.0,0.0,8.m4v,7.0
2024-02-28 09:53:11.882423,1709110391.8824234,-102.5390625,-20.99609375,-28.80859375,-1000.0,0.0,1.0,-1.0,0.0,8.m4v,7.0
2024-02-28 09:53:11.886329,1709110391.886329,-156.25,-25.390625,-32.71484375,-990.72265625,0.0,1.0,-1.0,0.0,8.m4v,7.0
2024-02-28 09:53:11.890234,1709110391.8902345,192.3828125,-38.57421875,-25.87890625,342.7734375,0.0,1.0,-1.0,0.0,8.m4v,7.0
2024-02-28 09:53:11.894140,1709110391.8941402,493.65234375,-31.73828125,-19.04296875,999.51171875,0.0,1.0,-1.0,0.0,8.m4v,7.0
2024-02-28 09:53:11.898046,1709110391.8980458,360.3515625,-25.87890625,-24.4140625,957.51953125,0.0,1.0,-1.0,0.0,8.m4v,7.0
2024-02-28 09:53:11.901951,1709110391.9019513,150.390625,-34.66796875,-30.2734375,775.87890625,0.0,1.0,-1.0,0.0,8.m4v,7.0
2024-02-28 09:53:11.905857,1709110391.905857,-435.05859375,-43.9453125,-34.66796875,-610.3515625,0.0,1.0,-1.0,0.0,8.m4v,7.0
2024-02-28 09:53:11.909763,1709110391.9097626,-581.0546875,-46.38671875,-48.828125,-1000.0,0.0,1.0,-1.0,0.0,8.m4v,7.0
2024-02-28 09:53:11.913668,1709110391.9136682,-238.28125,-35.64453125,-48.828125,-944.82421875,0.0,1.0,-1.0,0.0,8.m4v,7.0
2024-02-28 09:53:11.917574,1709110391.9175737,-97.65625,-17.08984375,-28.3203125,-980.46875,0.0,1.0,-1.0,0.0,8.m4v,7.0
2024-02-28 09:53:11.921483,1709110391.921483,-69.3359375,-20.99609375,-17.08984375,-999.51171875,0.0,1.0,-1.0,0.0,8.m4v,7.0
2024-02-28 09:53:11.925389,1709110391.9253888,-123.53515625,-29.296875,-18.5546875,-1000.0,0.0,1.0,-1.0,0.0,8.m4v,7.0
2024-02-28 09:53:11.929294,1709110391.9292943,199.70703125,-28.3203125,-28.3203125,220.21484375,0.0,1.0,-1.0,0.0,8.m4v,7.0
2024-02-28 09:53:11.933200,1709110391.9332,532.2265625,-35.64453125,-31.73828125,999.51171875,0.0,1.0,-1.0,0.0,8.m4v,7.0
2024-02-28 09:53:11.937106,1709110391.9371057,337.40234375,-37.59765625,-24.4140625,879.39453125,0.0,1.0,-1.0,0.0,8.m4v,7.0
2024-02-28 09:53:11.941011,1709110391.9410112,176.7578125,-30.2734375,-25.87890625,999.51171875,0.0,1.0,-1.0,0.0,8.m4v,7.0
2024-02-28 09:53:11.944917,1709110391.9449167,-39.55078125,-21.484375,-40.52734375,581.54296875,0.0,1.0,-1.0,0.0,8.m4v,7.0
2024-02-28 09:53:11.948822,1709110391.9488225,-482.91015625,-26.85546875,-45.8984375,-680.6640625,0.0,1.0,-1.0,0.0,8.m4v,7.0
2024-02-28 09:53:11.952728,1709110391.952728,-494.140625,-32.71484375,-39.55078125,-1000.0,0.0,1.0,-1.0,0.0,8.m4v,7.0
2024-02-28 09:53:11.956634,1709110391.9566336,-244.62890625,-29.296875,-32.2265625,-952.1484375,0.0,1.0,-1.0,0.0,8.m4v,7.0
2024-02-28 09:53:11.960539,1709110391.960539,-144.04296875,-41.50390625,-33.69140625,-957.03125,0.0,1.0,-1.0,0.0,8.m4v,7.0
2024-02-28 09:53:11.964445,1709110391.9644449,-134.27734375,-45.41015625,-25.87890625,-1000.0,0.0,1.0,-1.0,0.0,8.m4v,7.0
2024-02-28 09:53:11.968354,1709110391.968354,44.43359375,-29.296875,-20.01953125,-464.35546875,0.0,1.0,-1.0,0.0,8.m4v,7.0
2024-02-28 09:53:11.972260,1709110391.9722595,502.9296875,-9.765625,-29.78515625,845.21484375,0.0,1.0,-1.0,0.0,8.m4v,7.0
2024-02-28 09:53:11.976165,1709110391.976165,458.0078125,-2.44140625,-33.69140625,999.51171875,0.0,1.0,-1.0,0.0,8.m4v,7.0
2024-02-28 09:53:11.980071,1709110391.9800708,232.421875,-9.27734375,-31.73828125,923.33984375,0.0,1.0,-1.0,0.0,8.m4v,7.0
2024-02-28 09:53:11.983976,1709110391.9839764,61.03515625,-22.94921875,-35.64453125,994.140625,0.0,1.0,-1.0,0.0,8.m4v,7.0
2024-02-28 09:53:11.987882,1709110391.987882,-59.08203125,-22.94921875,-44.921875,904.78515625,0.0,1.0,-1.0,0.0,8.m4v,7.0
2024-02-28 09:53:11.991788,1709110391.9917877,8.30078125,-26.3671875,-38.57421875,999.51171875,0.0,1.0,-1.0,0.0,8.m4v,7.0
2024-02-28 09:53:11.995693,1709110391.9956932,-35.64453125,-34.1796875,-33.69140625,774.90234375,0.0,1.0,-1.0,0.0,8.m4v,7.0
2024-02-28 09:53:11.999599,1709110391.9995987,-472.65625,-43.9453125,-31.73828125,-685.546875,0.0,1.0,-1.0,0.0,8.m4v,7.0
2024-02-28 09:53:12.003505,1709110392.0035045,-511.23046875,-50.78125,-25.390625,-1000.0,0.0,1.0,-1.0,0.0,8.m4v,7.0
2024-02-28 09:53:12.007410,1709110392.00741,-312.98828125,-39.0625,-27.83203125,-987.3046875,0.0,1.0,-1.0,0.0,8.m4v,7.0
2024-02-28 09:53:12.011316,1709110392.0113156,-166.50390625,-33.69140625,-30.76171875,-834.47265625,0.0,1.0,-1.0,0.0,8.m4v,7.0
2024-02-28 09:53:12.015224,1709110392.0152245,388.671875,-25.390625,-30.76171875,589.84375,0.0,1.0,-1.0,0.0,8.m4v,7.0
2024-02-28 09:53:12.019130,1709110392.0191302,539.0625,-19.53125,-33.203125,999.51171875,0.0,1.0,-1.0,0.0,8.m4v,7.0
2024-02-28 09:53:12.023036,1709110392.0230358,211.9140625,-29.296875,-33.203125,908.203125,0.0,1.0,-1.0,0.0,8.m4v,7.0
2024-02-28 09:53:12.026941,1709110392.0269413,16.11328125,-27.34375,-27.83203125,968.26171875,0.0,1.0,-1.0,0.0,8.m4v,7.0
2024-02-28 09:53:12.030847,1709110392.0308468,-13.671875,-20.5078125,-32.71484375,941.40625,0.0,1.0,-1.0,0.0,8.m4v,7.0
2024-02-28 09:53:12.034753,1709110392.0347526,50.29296875,-34.66796875,-44.921875,999.51171875,0.0,1.0,-1.0,0.0,8.m4v,7.0
2024-02-28 09:53:12.038658,1709110392.038658,-239.74609375,-52.24609375,-50.29296875,34.1796875,0.0,1.0,-1.0,0.0,8.m4v,7.0
2024-02-28 09:53:12.042564,1709110392.0425637,-584.47265625,-45.8984375,-40.0390625,-1000.0,0.0,1.0,-1.0,0.0,8.m4v,7.0
2024-02-28 09:53:12.046469,1709110392.0464694,-408.203125,-20.5078125,-26.85546875,-986.328125,0.0,1.0,-1.0,0.0,8.m4v,7.0
2024-02-28 09:53:12.050375,1709110392.050375,-212.890625,-16.11328125,-29.78515625,-977.5390625,0.0,1.0,-1.0,0.0,8.m4v,7.0
2024-02-28 09:53:12.054281,1709110392.0542803,-122.55859375,-32.2265625,-34.1796875,-955.56640625,0.0,1.0,-1.0,0.0,8.m4v,7.0
2024-02-28 09:53:12.058186,1709110392.0581863,-38.57421875,-45.41015625,-32.71484375,-913.57421875,0.0,1.0,-1.0,0.0,8.m4v,7.0
2024-02-28 09:53:12.062095,1709110392.0620947,-39.55078125,-41.015625,-33.203125,-1000.0,0.0,1.0,-1.0,0.0,8.m4v,7.0
2024-02-28 09:53:12.066000,1709110392.0660005,-59.5703125,-26.3671875,-32.71484375,-871.58203125,0.0,1.0,-1.0,0.0,8.m4v,7.0
2024-02-28 09:53:12.069906,1709110392.069906,381.8359375,-27.34375,-23.92578125,565.91796875,0.0,1.0,-1.0,0.0,8.m4v,7.0
2024-02-28 09:53:12.073812,1709110392.0738115,531.25,-27.83203125,-26.85546875,999.51171875,0.0,1.0,-1.0,0.0,8.m4v,7.0
2024-02-28 09:53:12.077717,1709110392.077717,231.93359375,-32.71484375,-45.8984375,896.97265625,0.0,1.0,-1.0,0.0,8.m4v,7.0
2024-02-28 09:53:12.081623,1709110392.0816228,139.6484375,-33.203125,-39.55078125,986.81640625,0.0,1.0,-1.0,0.0,8.m4v,7.0
2024-02-28 09:53:12.085528,1709110392.0855284,62.01171875,-27.34375,-29.78515625,973.14453125,0.0,1.0,-1.0,0.0,8.m4v,7.0
2024-02-28 09:53:12.089434,1709110392.089434,-85.9375,-23.4375,-31.25,917.48046875,0.0,1.0,-1.0,0.0,8.m4v,7.0
2024-02-28 09:53:12.093340,1709110392.0933397,-13.671875,-25.87890625,-24.90234375,999.51171875,0.0,1.0,-1.0,0.0,8.m4v,7.0
2024-02-28 09:53:12.097245,1709110392.0972452,-101.07421875,-37.109375,-28.3203125,420.41015625,0.0,1.0,-1.0,0.0,8.m4v,7.0
2024-02-28 09:53:12.101151,1709110392.1011508,-508.30078125,-38.57421875,-39.0625,-881.8359375,0.0,1.0,-1.0,0.0,8.m4v,7.0
2024-02-28 09:53:12.105057,1709110392.1050563,-447.75390625,-41.9921875,-35.15625,-995.60546875,0.0,1.0,-1.0,0.0,8.m4v,7.0
2024-02-28 09:53:12.108965,1709110392.1089647,-294.921875,-41.9921875,-23.4375,-1000.0,0.0,1.0,-1.0,0.0,8.m4v,7.0
2024-02-28 09:53:12.112870,1709110392.1128702,-82.51953125,-36.1328125,-20.99609375,-521.484375,0.0,1.0,-1.0,0.0,8.m4v,7.0
2024-02-28 09:53:12.116776,1709110392.116776,459.9609375,-32.2265625,-28.80859375,775.390625,0.0,1.0,-1.0,0.0,8.m4v,7.0
2024-02-28 09:53:12.120682,1709110392.1206815,489.2578125,-28.3203125,-32.71484375,999.51171875,0.0,1.0,-1.0,0.0,8.m4v,7.0
2024-02-28 09:53:12.124587,1709110392.124587,191.40625,-26.85546875,-39.0625,931.640625,0.0,1.0,-1.0,0.0,8.m4v,7.0
2024-02-28 09:53:12.128493,1709110392.1284928,18.06640625,-33.69140625,-37.109375,922.8515625,0.0,1.0,-1.0,0.0,8.m4v,7.0
2024-02-28 09:53:12.323794,1709110392.323794,-648.4375,-34.1796875,-43.9453125,-1000.0,0.0,1.0,-1.0,0.0,8.m4v,7.0
2024-02-28 09:53:12.327700,1709110392.3276997,-385.25390625,-35.15625,-43.45703125,-923.828125,0.0,1.0,-1.0,0.0,8.m4v,7.0
2024-02-28 09:53:12.331605,1709110392.3316052,-210.9375,-31.73828125,-20.5078125,-997.55859375,0.0,1.0,-1.0,0.0,8.m4v,7.0
2024-02-28 09:53:12.335511,1709110392.3355107,71.77734375,-33.69140625,-23.92578125,-179.19921875,0.0,1.0,-1.0,0.0,8.m4v,7.0
2024-02-28 09:53:12.339417,1709110392.3394165,465.33203125,-39.55078125,-28.3203125,859.375,0.0,1.0,-1.0,0.0,8.m4v,7.0
2024-02-28 09:53:12.343328,1709110392.3433275,388.671875,-37.109375,-16.11328125,999.51171875,0.0,1.0,-1.0,0.0,8.m4v,7.0
2024-02-28 09:53:12.347233,1709110392.347233,62.01171875,-26.3671875,-23.4375,898.92578125,0.0,1.0,-1.0,0.0,8.m4v,7.0
2024-02-28 09:53:12.351139,1709110392.3511386,13.18359375,-13.18359375,-32.2265625,992.67578125,0.0,1.0,-1.0,0.0,8.m4v,7.0
2024-02-28 09:53:12.355044,1709110392.355044,91.30859375,-22.4609375,-26.85546875,956.54296875,0.0,1.0,-1.0,0.0,8.m4v,7.0
2024-02-28 09:53:12.358950,1709110392.35895,-270.99609375,-41.015625,-25.87890625,-382.32421875,0.0,1.0,-1.0,0.0,8.m4v,7.0
2024-02-28 09:53:12.362855,1709110392.3628554,-531.25,-37.109375,-33.69140625,-1000.0,0.0,1.0,-1.0,0.0,8.m4v,7.0
2024-02-28 09:53:12.366761,1709110392.366761,-396.484375,-39.0625,-32.2265625,-994.62890625,0.0,1.0,-1.0,0.0,8.m4v,7.0
2024-02-28 09:53:12.370667,1709110392.3706667,-181.15234375,-46.38671875,-18.06640625,-812.5,0.0,1.0,-1.0,0.0,8.m4v,7.0
2024-02-28 09:53:12.374572,1709110392.3745725,391.6015625,-33.69140625,-25.87890625,559.08203125,0.0,1.0,-1.0,0.0,8.m4v,7.0
2024-02-28 09:53:12.378478,1709110392.3784778,495.60546875,-20.01953125,-33.203125,999.51171875,0.0,1.0,-1.0,0.0,8.m4v,7.0
2024-02-28 09:53:12.382384,1709110392.3823836,170.8984375,-20.01953125,-35.64453125,742.67578125,0.0,1.0,-1.0,0.0,8.m4v,7.0
2024-02-28 09:53:12.386289,1709110392.3862891,-340.8203125,-24.4140625,-38.0859375,-469.23828125,0.0,1.0,-1.0,0.0,8.m4v,7.0
2024-02-28 09:53:12.390198,1709110392.390198,-554.19921875,-38.0859375,-43.9453125,-1000.0,0.0,1.0,-1.0,0.0,8.m4v,7.0
2024-02-28 09:53:12.394104,1709110392.3941035,-309.5703125,-33.69140625,-52.24609375,-958.984375,0.0,1.0,-1.0,0.0,8.m4v,7.0
2024-02-28 09:53:12.605019,1709110392.6050186,-549.8046875,-18.5546875,-61.5234375,-1000.0,0.0,1.0,-1.0,0.0,8.m4v,7.0
2024-02-28 09:53:12.608924,1709110392.6089242,-321.2890625,-15.13671875,-63.96484375,-963.8671875,0.0,1.0,-1.0,0.0,8.m4v,7.0
2024-02-28 09:53:12.612830,1709110392.61283,-176.26953125,-19.04296875,-62.98828125,-949.70703125,0.0,1.0,-1.0,0.0,8.m4v,7.0
2024-02-28 09:53:12.616735,1709110392.6167357,-60.546875,-21.484375,-55.17578125,-908.69140625,0.0,1.0,-1.0,0.0,8.m4v,7.0
2024-02-28 09:53:12.620641,1709110392.620641,-101.5625,-17.08984375,-46.38671875,-994.62890625,0.0,1.0,-1.0,0.0,8.m4v,7.0
2024-02-28 09:53:12.624551,1709110392.6245508,-177.734375,-16.11328125,-44.43359375,-1000.0,0.0,1.0,-1.0,0.0,8.m4v,7.0
2024-02-28 09:53:12.628456,1709110392.6284564,104.00390625,-20.5078125,-60.546875,66.40625,0.0,1.0,-1.0,0.0,8.m4v,7.0
2024-02-28 09:53:12.632362,1709110392.632362,477.5390625,-11.71875,-68.84765625,999.51171875,0.0,1.0,-1.0,0.0,8.m4v,7.0
2024-02-28 09:53:12.726104,1709110392.7261035,108.3984375,-26.3671875,-31.73828125,917.48046875,0.0,1.0,-1.0,0.0,8.m4v,7.0
2024-02-28 09:53:12.730009,1709110392.7300093,-40.0390625,-28.80859375,-36.1328125,948.2421875,0.0,1.0,-1.0,0.0,8.m4v,7.0
2024-02-28 09:53:12.733915,1709110392.7339149,-49.8046875,-43.45703125,-38.57421875,999.51171875,0.0,1.0,-1.0,0.0,8.m4v,7.0
2024-02-28 09:53:12.737820,1709110392.7378204,-181.640625,-45.41015625,-31.73828125,100.09765625,0.0,1.0,-1.0,0.0,8.m4v,7.0
2024-02-28 09:53:12.741726,1709110392.741726,-465.33203125,-36.62109375,-22.94921875,-1000.0,0.0,1.0,-1.0,0.0,8.m4v,7.0
2024-02-28 09:53:12.745632,1709110392.7456317,-357.421875,-19.53125,-28.80859375,-954.1015625,0.0,1.0,-1.0,0.0,8.m4v,7.0
2024-02-28 09:53:12.749537,1709110392.7495372,-236.328125,-7.32421875,-40.52734375,-1000.0,0.0,1.0,-1.0,0.0,8.m4v,7.0
2024-02-28 09:53:12.753443,1709110392.7534428,5.859375,-14.6484375,-50.29296875,-519.04296875,0.0,1.0,-1.0,0.0,8.m4v,7.0
2024-02-28 09:53:12.757349,1709110392.7573483,500.48828125,-27.83203125,-53.22265625,747.55859375,0.0,1.0,-1.0,0.0,8.m4v,7.0
