Timestamp,Timestamp_UNIX,TP9,AF7,AF8,TP10,Valence,Arousal,Dominace,Viewed,Video,Participant
2024-02-27 10:19:57.001030,1709025597.00103,-10.25390625,907.2265625,-39.0625,-35.15625,1.0,-1.0,1.0,0.0,2.m4v,2.0
2024-02-27 10:19:57.008841,1709025597.0088406,-10.25390625,187.5,-42.48046875,-33.69140625,1.0,-1.0,1.0,0.0,2.m4v,2.0
2024-02-27 10:19:57.016651,1709025597.016651,-19.53125,-983.88671875,-44.43359375,-40.52734375,1.0,-1.0,1.0,0.0,2.m4v,2.0
2024-02-27 10:19:57.024461,1709025597.0244613,-11.23046875,-1000.0,-33.69140625,-38.57421875,1.0,-1.0,1.0,0.0,2.m4v,2.0
2024-02-27 10:19:57.032280,1709025597.03228,-24.90234375,-1000.0,-28.3203125,-38.57421875,1.0,-1.0,1.0,0.0,2.m4v,2.0
2024-02-27 10:19:57.040091,1709025597.0400906,-21.97265625,-936.5234375,-28.3203125,-38.0859375,1.0,-1.0,1.0,0.0,2.m4v,2.0
2024-02-27 10:19:57.047901,1709025597.047901,-23.92578125,-234.86328125,-25.390625,-42.96875,1.0,-1.0,1.0,0.0,2.m4v,2.0
2024-02-27 10:19:57.055711,1709025597.0557113,-21.97265625,956.0546875,-37.59765625,-45.8984375,1.0,-1.0,1.0,0.0,2.m4v,2.0
2024-02-27 10:19:57.063522,1709025597.0635216,-23.4375,977.05078125,-32.2265625,-48.33984375,1.0,-1.0,1.0,0.0,2.m4v,2.0
2024-02-27 10:19:57.071332,1709025597.0713322,-36.62109375,969.7265625,-44.43359375,-47.8515625,1.0,-1.0,1.0,0.0,2.m4v,2.0
2024-02-27 10:19:57.079150,1709025597.0791504,-31.25,969.7265625,-54.19921875,-48.828125,1.0,-1.0,1.0,0.0,2.m4v,2.0
2024-02-27 10:19:57.086961,1709025597.0869608,-42.96875,969.7265625,-49.8046875,-53.7109375,1.0,-1.0,1.0,0.0,2.m4v,2.0
2024-02-27 10:19:57.094771,1709025597.0947714,-37.59765625,898.4375,-63.96484375,-39.0625,1.0,-1.0,1.0,0.0,2.m4v,2.0
2024-02-27 10:19:57.102582,1709025597.1025815,-37.109375,384.765625,-54.6875,-42.48046875,1.0,-1.0,1.0,0.0,2.m4v,2.0
2024-02-27 10:19:57.110392,1709025597.110392,-37.109375,-1000.0,-55.17578125,-48.828125,1.0,-1.0,1.0,0.0,2.m4v,2.0
2024-02-27 10:19:57.118202,1709025597.1182024,-36.1328125,-1000.0,-49.31640625,-38.57421875,1.0,-1.0,1.0,0.0,2.m4v,2.0
2024-02-27 10:19:57.126021,1709025597.126021,-29.296875,-1000.0,-62.01171875,-38.57421875,1.0,-1.0,1.0,0.0,2.m4v,2.0
2024-02-27 10:19:57.133831,1709025597.1338313,-22.4609375,-939.94140625,-53.22265625,-37.59765625,1.0,-1.0,1.0,0.0,2.m4v,2.0
2024-02-27 10:19:57.141642,1709025597.1416416,-14.16015625,-192.87109375,-48.828125,-30.2734375,1.0,-1.0,1.0,0.0,2.m4v,2.0
2024-02-27 10:19:57.590835,1709025597.5908346,29.78515625,-1000.0,-55.6640625,-42.96875,1.0,-1.0,1.0,0.0,2.m4v,2.0
2024-02-27 10:19:57.594740,1709025597.59474,37.59765625,-937.98828125,-55.6640625,-34.66796875,1.0,-1.0,1.0,0.0,2.m4v,2.0
2024-02-27 10:19:57.598645,1709025597.5986452,43.9453125,-1000.0,-60.05859375,-26.85546875,1.0,-1.0,1.0,0.0,2.m4v,2.0
2024-02-27 10:19:57.602550,1709025597.6025505,49.31640625,-1000.0,-62.5,-37.109375,1.0,-1.0,1.0,0.0,2.m4v,2.0
2024-02-27 10:19:57.606456,1709025597.6064556,31.73828125,-1000.0,-62.01171875,-48.828125,1.0,-1.0,1.0,0.0,2.m4v,2.0
2024-02-27 10:19:57.610361,1709025597.6103609,33.69140625,-1000.0,-59.5703125,-41.9921875,1.0,-1.0,1.0,0.0,2.m4v,2.0
2024-02-27 10:19:57.614266,1709025597.614266,36.62109375,-1000.0,-61.03515625,-43.45703125,1.0,-1.0,1.0,0.0,2.m4v,2.0
2024-02-27 10:19:57.618171,1709025597.6181712,34.66796875,-1000.0,-62.98828125,-44.921875,1.0,-1.0,1.0,0.0,2.m4v,2.0
2024-02-27 10:19:57.622077,1709025597.6220765,43.9453125,-1000.0,-61.5234375,-39.0625,1.0,-1.0,1.0,0.0,2.m4v,2.0
2024-02-27 10:19:57.625982,1709025597.6259816,35.64453125,-1000.0,-56.640625,-39.0625,1.0,-1.0,1.0,0.0,2.m4v,2.0
2024-02-27 10:19:57.629887,1709025597.6298869,28.80859375,-1000.0,-48.828125,-39.55078125,1.0,-1.0,1.0,0.0,2.m4v,2.0
2024-02-27 10:19:57.633792,1709025597.633792,32.2265625,-1000.0,-49.8046875,-33.69140625,1.0,-1.0,1.0,0.0,2.m4v,2.0
2024-02-27 10:19:57.637707,1709025597.637707,26.3671875,-1000.0,-62.98828125,-33.69140625,1.0,-1.0,1.0,0.0,2.m4v,2.0
2024-02-27 10:19:57.641612,1709025597.641612,16.11328125,-1000.0,-62.98828125,-40.52734375,1.0,-1.0,1.0,0.0,2.m4v,2.0
2024-02-27 10:19:57.645517,1709025597.645517,17.08984375,-949.70703125,-53.7109375,-36.62109375,1.0,-1.0,1.0,0.0,2.m4v,2.0
2024-02-27 10:19:57.649422,1709025597.6494224,19.53125,-1000.0,-47.36328125,-28.3203125,1.0,-1.0,1.0,0.0,2.m4v,2.0
2024-02-27 10:19:57.653328,1709025597.6533277,18.5546875,-883.7890625,-43.45703125,-33.69140625,1.0,-1.0,1.0,0.0,2.m4v,2.0
2024-02-27 10:19:57.657233,1709025597.657233,33.69140625,498.53515625,-45.41015625,-27.83203125,1.0,-1.0,1.0,0.0,2.m4v,2.0
2024-02-27 10:19:57.661138,1709025597.661138,26.85546875,999.51171875,-54.6875,-16.6015625,1.0,-1.0,1.0,0.0,2.m4v,2.0
2024-02-27 10:19:57.665043,1709025597.6650434,3.41796875,903.80859375,-51.26953125,-23.4375,1.0,-1.0,1.0,0.0,2.m4v,2.0
2024-02-27 10:19:57.668949,1709025597.668949,8.30078125,979.98046875,-49.8046875,-42.96875,1.0,-1.0,1.0,0.0,2.m4v,2.0
2024-02-27 10:19:57.672854,1709025597.6728537,7.32421875,969.7265625,-54.19921875,-47.36328125,1.0,-1.0,1.0,0.0,2.m4v,2.0
2024-02-27 10:19:57.676759,1709025597.676759,3.41796875,969.7265625,-46.875,-43.45703125,1.0,-1.0,1.0,0.0,2.m4v,2.0
2024-02-27 10:19:57.680664,1709025597.6806643,8.7890625,970.21484375,-47.8515625,-45.41015625,1.0,-1.0,1.0,0.0,2.m4v,2.0
2024-02-27 10:19:57.684579,1709025597.684579,7.32421875,969.7265625,-51.26953125,-45.8984375,1.0,-1.0,1.0,0.0,2.m4v,2.0
2024-02-27 10:19:57.688484,1709025597.6884837,0.48828125,970.21484375,-39.0625,-43.45703125,1.0,-1.0,1.0,0.0,2.m4v,2.0
2024-02-27 10:19:57.692389,1709025597.692389,7.8125,970.21484375,-26.3671875,-35.64453125,1.0,-1.0,1.0,0.0,2.m4v,2.0
2024-02-27 10:19:57.696294,1709025597.6962943,11.71875,969.7265625,-33.203125,-39.55078125,1.0,-1.0,1.0,0.0,2.m4v,2.0
2024-02-27 10:19:57.700199,1709025597.7001994,4.39453125,983.3984375,-37.59765625,-43.9453125,1.0,-1.0,1.0,0.0,2.m4v,2.0
2024-02-27 10:19:57.704105,1709025597.704105,-2.44140625,910.15625,-40.52734375,-38.57421875,1.0,-1.0,1.0,0.0,2.m4v,2.0
2024-02-27 10:19:57.708010,1709025597.7080095,1.46484375,999.51171875,-45.8984375,-34.1796875,1.0,-1.0,1.0,0.0,2.m4v,2.0
2024-02-27 10:19:57.711915,1709025597.711915,-8.7890625,737.3046875,-49.31640625,-42.48046875,1.0,-1.0,1.0,0.0,2.m4v,2.0
2024-02-27 10:19:57.715820,1709025597.7158203,-29.296875,-672.36328125,-50.29296875,-44.921875,1.0,-1.0,1.0,0.0,2.m4v,2.0
2024-02-27 10:19:57.719725,1709025597.7197254,-28.3203125,-1000.0,-51.26953125,-34.1796875,1.0,-1.0,1.0,0.0,2.m4v,2.0
2024-02-27 10:19:57.723631,1709025597.723631,-27.83203125,-937.5,-51.26953125,-26.85546875,1.0,-1.0,1.0,0.0,2.m4v,2.0
2024-02-27 10:19:57.727536,1709025597.727536,-31.73828125,-1000.0,-55.17578125,-36.1328125,1.0,-1.0,1.0,0.0,2.m4v,2.0
2024-02-27 10:19:57.731450,1709025597.7314498,-29.296875,-1000.0,-62.01171875,-50.78125,1.0,-1.0,1.0,0.0,2.m4v,2.0
2024-02-27 10:19:57.735355,1709025597.735355,-28.3203125,-1000.0,-58.59375,-52.734375,1.0,-1.0,1.0,0.0,2.m4v,2.0
2024-02-27 10:19:57.739260,1709025597.7392602,-31.25,-1000.0,-43.9453125,-46.38671875,1.0,-1.0,1.0,0.0,2.m4v,2.0
2024-02-27 10:19:57.743165,1709025597.7431655,-37.109375,-935.546875,-35.64453125,-45.41015625,1.0,-1.0,1.0,0.0,2.m4v,2.0
2024-02-27 10:19:57.747071,1709025597.7470706,-43.45703125,-1000.0,-35.15625,-47.8515625,1.0,-1.0,1.0,0.0,2.m4v,2.0
2024-02-27 10:19:57.750976,1709025597.7509758,-39.0625,-252.44140625,-32.71484375,-39.0625,1.0,-1.0,1.0,0.0,2.m4v,2.0
2024-02-27 10:19:57.754881,1709025597.7548811,-27.34375,999.51171875,-37.109375,-28.80859375,1.0,-1.0,1.0,0.0,2.m4v,2.0
2024-02-27 10:19:57.758786,1709025597.7587862,-28.3203125,958.984375,-44.921875,-33.203125,1.0,-1.0,1.0,0.0,2.m4v,2.0
2024-02-27 10:19:57.762691,1709025597.7626915,-44.43359375,939.94140625,-46.38671875,-40.52734375,1.0,-1.0,1.0,0.0,2.m4v,2.0
2024-02-27 10:19:57.766597,1709025597.7665966,-51.7578125,977.5390625,-42.96875,-38.0859375,1.0,-1.0,1.0,0.0,2.m4v,2.0
2024-02-27 10:19:57.770502,1709025597.770502,-51.26953125,969.7265625,-41.9921875,-32.2265625,1.0,-1.0,1.0,0.0,2.m4v,2.0
2024-02-27 10:19:57.774407,1709025597.7744071,-53.7109375,969.7265625,-45.8984375,-36.62109375,1.0,-1.0,1.0,0.0,2.m4v,2.0
2024-02-27 10:19:57.778321,1709025597.7783213,-53.7109375,969.7265625,-46.875,-41.9921875,1.0,-1.0,1.0,0.0,2.m4v,2.0
2024-02-27 10:19:57.782226,1709025597.7822263,-60.546875,969.7265625,-53.22265625,-39.0625,1.0,-1.0,1.0,0.0,2.m4v,2.0
2024-02-27 10:19:57.786132,1709025597.7861316,-71.77734375,969.7265625,-62.01171875,-41.50390625,1.0,-1.0,1.0,0.0,2.m4v,2.0
2024-02-27 10:19:57.790037,1709025597.790037,-71.2890625,969.7265625,-60.05859375,-32.71484375,1.0,-1.0,1.0,0.0,2.m4v,2.0
2024-02-27 10:19:57.793942,1709025597.793942,-62.5,978.02734375,-53.22265625,-28.80859375,1.0,-1.0,1.0,0.0,2.m4v,2.0
2024-02-27 10:19:57.797847,1709025597.7978473,-70.80078125,935.05859375,-52.24609375,-47.8515625,1.0,-1.0,1.0,0.0,2.m4v,2.0
2024-02-27 10:19:57.801753,1709025597.8017526,-76.171875,975.5859375,-56.15234375,-49.31640625,1.0,-1.0,1.0,0.0,2.m4v,2.0
2024-02-27 10:19:57.805658,1709025597.8056576,-67.87109375,963.8671875,-59.5703125,-42.96875,1.0,-1.0,1.0,0.0,2.m4v,2.0
2024-02-27 10:19:57.809563,1709025597.809563,-69.3359375,-321.77734375,-55.6640625,-39.55078125,1.0,-1.0,1.0,0.0,2.m4v,2.0
2024-02-27 10:19:57.813468,1709025597.813468,-72.75390625,-1000.0,-51.7578125,-37.59765625,1.0,-1.0,1.0,0.0,2.m4v,2.0
2024-02-27 10:19:57.817373,1709025597.8173733,-64.453125,-939.453125,-45.8984375,-36.1328125,1.0,-1.0,1.0,0.0,2.m4v,2.0
2024-02-27 10:19:57.821279,1709025597.8212786,-65.4296875,-1000.0,-38.57421875,-27.34375,1.0,-1.0,1.0,0.0,2.m4v,2.0
2024-02-27 10:19:57.825192,1709025597.825192,-63.96484375,-1000.0,-38.0859375,-21.97265625,1.0,-1.0,1.0,0.0,2.m4v,2.0
2024-02-27 10:19:57.829097,1709025597.829097,-60.546875,-1000.0,-41.015625,-28.80859375,1.0,-1.0,1.0,0.0,2.m4v,2.0
2024-02-27 10:19:57.833002,1709025597.8330023,-63.96484375,-997.0703125,-42.48046875,-30.2734375,1.0,-1.0,1.0,0.0,2.m4v,2.0
2024-02-27 10:19:57.836907,1709025597.8369074,-51.7578125,-943.359375,-41.50390625,-26.85546875,1.0,-1.0,1.0,0.0,2.m4v,2.0
2024-02-27 10:19:57.840813,1709025597.8408127,-44.43359375,-1000.0,-49.8046875,-33.203125,1.0,-1.0,1.0,0.0,2.m4v,2.0
2024-02-27 10:19:57.844718,1709025597.844718,-42.96875,-160.64453125,-47.8515625,-27.83203125,1.0,-1.0,1.0,0.0,2.m4v,2.0
2024-02-27 10:19:57.848623,1709025597.848623,-40.52734375,999.51171875,-43.9453125,-19.53125,1.0,-1.0,1.0,0.0,2.m4v,2.0
2024-02-27 10:19:57.852528,1709025597.8525283,-43.9453125,945.80078125,-47.36328125,-18.5546875,1.0,-1.0,1.0,0.0,2.m4v,2.0
2024-02-27 10:19:57.856434,1709025597.8564336,-41.9921875,946.77734375,-40.0390625,-10.7421875,1.0,-1.0,1.0,0.0,2.m4v,2.0
2024-02-27 10:19:57.860339,1709025597.8603387,-50.29296875,975.09765625,-35.64453125,-23.92578125,1.0,-1.0,1.0,0.0,2.m4v,2.0
2024-02-27 10:19:57.864244,1709025597.864244,-60.05859375,969.7265625,-37.109375,-39.55078125,1.0,-1.0,1.0,0.0,2.m4v,2.0
2024-02-27 10:19:57.868149,1709025597.8681493,-51.7578125,969.7265625,-38.0859375,-32.71484375,1.0,-1.0,1.0,0.0,2.m4v,2.0
2024-02-27 10:19:57.872062,1709025597.872062,-46.875,969.7265625,-41.50390625,-34.1796875,1.0,-1.0,1.0,0.0,2.m4v,2.0
2024-02-27 10:19:57.875967,1709025597.8759673,-41.015625,969.7265625,-45.8984375,-41.015625,1.0,-1.0,1.0,0.0,2.m4v,2.0
2024-02-27 10:19:57.879873,1709025597.8798726,-37.109375,969.7265625,-45.41015625,-41.50390625,1.0,-1.0,1.0,0.0,2.m4v,2.0
2024-02-27 10:19:57.883778,1709025597.8837776,-51.26953125,969.7265625,-53.22265625,-44.921875,1.0,-1.0,1.0,0.0,2.m4v,2.0
2024-02-27 10:19:57.887683,1709025597.887683,-48.828125,969.7265625,-55.17578125,-42.48046875,1.0,-1.0,1.0,0.0,2.m4v,2.0
2024-02-27 10:19:57.891588,1709025597.891588,-41.015625,975.5859375,-43.9453125,-29.296875,1.0,-1.0,1.0,0.0,2.m4v,2.0
2024-02-27 10:19:57.895493,1709025597.8954933,-45.41015625,944.3359375,-43.45703125,-32.2265625,1.0,-1.0,1.0,0.0,2.m4v,2.0
2024-02-27 10:19:57.899399,1709025597.8993986,-44.921875,955.078125,-48.828125,-43.9453125,1.0,-1.0,1.0,0.0,2.m4v,2.0
2024-02-27 10:19:57.903304,1709025597.9033036,-43.45703125,999.51171875,-47.36328125,-41.9921875,1.0,-1.0,1.0,0.0,2.m4v,2.0
2024-02-27 10:19:57.907209,1709025597.907209,-50.29296875,-196.2890625,-47.36328125,-39.0625,1.0,-1.0,1.0,0.0,2.m4v,2.0
2024-02-27 10:19:57.911114,1709025597.9111142,-45.41015625,-1000.0,-49.31640625,-35.15625,1.0,-1.0,1.0,0.0,2.m4v,2.0
2024-02-27 10:19:57.915019,1709025597.9150193,-40.52734375,-945.80078125,-44.43359375,-22.94921875,1.0,-1.0,1.0,0.0,2.m4v,2.0
2024-02-27 10:19:57.918935,1709025597.918935,-53.22265625,-997.0703125,-40.0390625,-26.3671875,1.0,-1.0,1.0,0.0,2.m4v,2.0
2024-02-27 10:19:58.114233,1709025598.1142333,-81.54296875,-1000.0,-54.6875,-68.359375,1.0,-1.0,1.0,0.0,2.m4v,2.0
2024-02-27 10:19:58.125949,1709025598.125949,-79.1015625,-485.3515625,-39.0625,-56.640625,1.0,-1.0,1.0,0.0,2.m4v,2.0
2024-02-27 10:19:58.137664,1709025598.1376643,-61.5234375,920.8984375,-40.0390625,-42.48046875,1.0,-1.0,1.0,0.0,2.m4v,2.0
2024-02-27 10:19:58.149380,1709025598.14938,-62.01171875,969.7265625,-37.109375,-37.109375,1.0,-1.0,1.0,0.0,2.m4v,2.0
2024-02-27 10:19:58.161104,1709025598.161104,-35.64453125,969.7265625,-39.55078125,-39.55078125,1.0,-1.0,1.0,0.0,2.m4v,2.0
2024-02-27 10:19:58.172820,1709025598.1728196,-32.71484375,962.40234375,-28.80859375,-31.25,1.0,-1.0,1.0,0.0,2.m4v,2.0
2024-02-27 10:19:58.622014,1709025598.6220143,-36.1328125,975.09765625,-31.73828125,-28.3203125,1.0,-1.0,1.0,0.0,2.m4v,2.0
2024-02-27 10:19:58.625920,1709025598.6259196,-44.921875,945.3125,-34.66796875,-26.3671875,1.0,-1.0,1.0,0.0,2.m4v,2.0
2024-02-27 10:19:58.629825,1709025598.6298246,-47.36328125,953.125,-39.0625,-30.76171875,1.0,-1.0,1.0,0.0,2.m4v,2.0
2024-02-27 10:19:58.633730,1709025598.63373,-36.62109375,999.51171875,-41.015625,-34.1796875,1.0,-1.0,1.0,0.0,2.m4v,2.0
2024-02-27 10:19:58.637635,1709025598.637635,-27.34375,-179.19921875,-32.71484375,-36.62109375,1.0,-1.0,1.0,0.0,2.m4v,2.0
2024-02-27 10:19:58.641540,1709025598.6415403,-26.3671875,-1000.0,-33.69140625,-43.45703125,1.0,-1.0,1.0,0.0,2.m4v,2.0
2024-02-27 10:19:58.645446,1709025598.6454456,-32.2265625,-948.2421875,-41.50390625,-35.64453125,1.0,-1.0,1.0,0.0,2.m4v,2.0
2024-02-27 10:19:58.649351,1709025598.6493506,-26.3671875,-995.60546875,-34.66796875,-23.4375,1.0,-1.0,1.0,0.0,2.m4v,2.0
2024-02-27 10:19:58.653256,1709025598.653256,-24.90234375,-1000.0,-27.34375,-34.1796875,1.0,-1.0,1.0,0.0,2.m4v,2.0
2024-02-27 10:19:58.657161,1709025598.6571612,-27.83203125,-1000.0,-16.11328125,-45.41015625,1.0,-1.0,1.0,0.0,2.m4v,2.0
2024-02-27 10:19:58.661066,1709025598.6610663,-25.87890625,-1000.0,-8.7890625,-44.43359375,1.0,-1.0,1.0,0.0,2.m4v,2.0
2024-02-27 10:19:58.664972,1709025598.6649716,-34.1796875,-1000.0,-9.27734375,-43.45703125,1.0,-1.0,1.0,0.0,2.m4v,2.0
2024-02-27 10:19:58.668887,1709025598.6688874,-36.1328125,-1000.0,-15.13671875,-42.48046875,1.0,-1.0,1.0,0.0,2.m4v,2.0
2024-02-27 10:19:58.672792,1709025598.6727924,-29.296875,-932.6171875,-18.06640625,-39.55078125,1.0,-1.0,1.0,0.0,2.m4v,2.0
2024-02-27 10:19:58.676698,1709025598.6766975,-29.78515625,-1000.0,-14.16015625,-44.43359375,1.0,-1.0,1.0,0.0,2.m4v,2.0
2024-02-27 10:19:58.680603,1709025598.6806028,-19.04296875,-302.734375,-6.8359375,-43.45703125,1.0,-1.0,1.0,0.0,2.m4v,2.0
2024-02-27 10:19:58.684508,1709025598.684508,-9.27734375,999.51171875,-7.32421875,-33.69140625,1.0,-1.0,1.0,0.0,2.m4v,2.0
2024-02-27 10:19:58.688413,1709025598.6884134,-8.30078125,967.28515625,-12.20703125,-29.78515625,1.0,-1.0,1.0,0.0,2.m4v,2.0
2024-02-27 10:19:58.692318,1709025598.6923184,1.953125,936.03515625,-12.6953125,-34.66796875,1.0,-1.0,1.0,0.0,2.m4v,2.0
2024-02-27 10:19:58.696224,1709025598.6962235,7.32421875,979.00390625,-19.04296875,-43.45703125,1.0,-1.0,1.0,0.0,2.m4v,2.0
2024-02-27 10:19:58.700129,1709025598.700129,4.8828125,969.7265625,-19.04296875,-46.875,1.0,-1.0,1.0,0.0,2.m4v,2.0
2024-02-27 10:19:58.704034,1709025598.704034,-6.8359375,969.7265625,-16.6015625,-44.921875,1.0,-1.0,1.0,0.0,2.m4v,2.0
2024-02-27 10:19:58.707939,1709025598.7079394,-9.27734375,969.7265625,-12.20703125,-42.96875,1.0,-1.0,1.0,0.0,2.m4v,2.0
2024-02-27 10:19:58.711845,1709025598.7118447,1.953125,969.7265625,-2.9296875,-38.57421875,1.0,-1.0,1.0,0.0,2.m4v,2.0
2024-02-27 10:19:58.715760,1709025598.7157598,6.34765625,969.7265625,-3.90625,-26.3671875,1.0,-1.0,1.0,0.0,2.m4v,2.0
2024-02-27 10:19:58.719665,1709025598.719665,4.39453125,969.7265625,-15.13671875,-27.83203125,1.0,-1.0,1.0,0.0,2.m4v,2.0
2024-02-27 10:19:58.723570,1709025598.7235703,4.39453125,969.7265625,-24.4140625,-42.96875,1.0,-1.0,1.0,0.0,2.m4v,2.0
2024-02-27 10:19:58.727475,1709025598.7274754,-7.8125,970.21484375,-22.94921875,-41.9921875,1.0,-1.0,1.0,0.0,2.m4v,2.0
2024-02-27 10:19:58.731381,1709025598.7313807,-13.18359375,984.375,-19.04296875,-38.0859375,1.0,-1.0,1.0,0.0,2.m4v,2.0
2024-02-27 10:19:58.735286,1709025598.735286,-3.90625,899.90234375,-10.25390625,-40.0390625,1.0,-1.0,1.0,0.0,2.m4v,2.0
2024-02-27 10:19:58.739191,1709025598.739191,-8.30078125,999.51171875,-6.8359375,-49.31640625,1.0,-1.0,1.0,0.0,2.m4v,2.0
2024-02-27 10:19:58.743096,1709025598.7430964,-24.90234375,598.6328125,-7.32421875,-47.8515625,1.0,-1.0,1.0,0.0,2.m4v,2.0
2024-02-27 10:19:58.747002,1709025598.7470016,-33.203125,-835.44921875,-13.671875,-47.36328125,1.0,-1.0,1.0,0.0,2.m4v,2.0
2024-02-27 10:19:58.750907,1709025598.7509067,-23.4375,-1000.0,-29.296875,-48.828125,1.0,-1.0,1.0,0.0,2.m4v,2.0
2024-02-27 10:19:58.754812,1709025598.754812,-18.06640625,-942.3828125,-29.78515625,-46.875,1.0,-1.0,1.0,0.0,2.m4v,2.0
2024-02-27 10:19:58.758717,1709025598.7587173,-26.85546875,-1000.0,-19.53125,-43.9453125,1.0,-1.0,1.0,0.0,2.m4v,2.0
2024-02-27 10:19:58.762632,1709025598.762632,-36.1328125,-1000.0,-14.16015625,-41.9921875,1.0,-1.0,1.0,0.0,2.m4v,2.0
2024-02-27 10:19:58.766537,1709025598.7665372,-20.01953125,-1000.0,-7.32421875,-31.25,1.0,-1.0,1.0,0.0,2.m4v,2.0
2024-02-27 10:19:58.770442,1709025598.7704425,-13.671875,-1000.0,-9.765625,-37.109375,1.0,-1.0,1.0,0.0,2.m4v,2.0
2024-02-27 10:19:58.774348,1709025598.7743475,-43.45703125,-930.17578125,-21.97265625,-59.5703125,1.0,-1.0,1.0,0.0,2.m4v,2.0
2024-02-27 10:19:58.778253,1709025598.7782528,-41.9921875,-1000.0,-16.6015625,-51.7578125,1.0,-1.0,1.0,0.0,2.m4v,2.0
2024-02-27 10:19:58.782158,1709025598.782158,-20.99609375,-366.69921875,-7.8125,-35.15625,1.0,-1.0,1.0,0.0,2.m4v,2.0
2024-02-27 10:19:58.786063,1709025598.7860632,-15.625,982.421875,-6.8359375,-26.85546875,1.0,-1.0,1.0,0.0,2.m4v,2.0
2024-02-27 10:19:58.789968,1709025598.7899685,-13.18359375,979.00390625,-9.27734375,-15.625,1.0,-1.0,1.0,0.0,2.m4v,2.0
2024-02-27 10:19:58.793874,1709025598.7938738,-9.27734375,930.6640625,-16.11328125,-22.94921875,1.0,-1.0,1.0,0.0,2.m4v,2.0
2024-02-27 10:19:58.797779,1709025598.7977788,-4.8828125,980.46875,-17.578125,-31.73828125,1.0,-1.0,1.0,0.0,2.m4v,2.0
2024-02-27 10:19:58.801684,1709025598.801684,-14.16015625,969.7265625,-15.625,-29.296875,1.0,-1.0,1.0,0.0,2.m4v,2.0
2024-02-27 10:19:58.805589,1709025598.8055894,-30.2734375,969.7265625,-13.671875,-28.80859375,1.0,-1.0,1.0,0.0,2.m4v,2.0
2024-02-27 10:19:58.809504,1709025598.8095038,-32.2265625,969.7265625,-9.27734375,-26.3671875,1.0,-1.0,1.0,0.0,2.m4v,2.0
2024-02-27 10:19:58.813409,1709025598.8134089,-28.80859375,969.7265625,-10.25390625,-33.203125,1.0,-1.0,1.0,0.0,2.m4v,2.0
2024-02-27 10:19:58.817314,1709025598.817314,-28.3203125,969.7265625,-9.765625,-36.1328125,1.0,-1.0,1.0,0.0,2.m4v,2.0
2024-02-27 10:19:58.821219,1709025598.8212194,-27.83203125,969.7265625,-4.39453125,-32.71484375,1.0,-1.0,1.0,0.0,2.m4v,2.0
2024-02-27 10:19:58.825125,1709025598.8251245,-25.87890625,980.95703125,-9.765625,-32.71484375,1.0,-1.0,1.0,0.0,2.m4v,2.0
2024-02-27 10:19:58.829030,1709025598.8290298,-29.78515625,922.36328125,-16.6015625,-27.34375,1.0,-1.0,1.0,0.0,2.m4v,2.0
2024-02-27 10:19:58.832935,1709025598.8329349,-41.015625,999.51171875,-18.5546875,-28.80859375,1.0,-1.0,1.0,0.0,2.m4v,2.0
2024-02-27 10:19:58.836840,1709025598.8368402,-41.50390625,858.88671875,-24.4140625,-33.69140625,1.0,-1.0,1.0,0.0,2.m4v,2.0
2024-02-27 10:19:58.840745,1709025598.8407454,-36.1328125,-497.55859375,-23.92578125,-39.0625,1.0,-1.0,1.0,0.0,2.m4v,2.0
2024-02-27 10:19:58.844651,1709025598.8446505,-39.55078125,-1000.0,-19.53125,-43.9453125,1.0,-1.0,1.0,0.0,2.m4v,2.0
2024-02-27 10:19:58.848556,1709025598.8485558,-48.33984375,-937.01171875,-20.5078125,-32.2265625,1.0,-1.0,1.0,0.0,2.m4v,2.0
2024-02-27 10:19:58.852461,1709025598.852461,-41.015625,-1000.0,-26.3671875,-25.390625,1.0,-1.0,1.0,0.0,2.m4v,2.0
2024-02-27 10:19:58.856375,1709025598.8563752,-18.06640625,-1000.0,-25.87890625,-37.109375,1.0,-1.0,1.0,0.0,2.m4v,2.0
2024-02-27 10:19:58.860280,1709025598.8602805,-14.16015625,-1000.0,-20.01953125,-44.921875,1.0,-1.0,1.0,0.0,2.m4v,2.0
2024-02-27 10:19:58.864186,1709025598.8641856,-29.78515625,-999.0234375,-16.6015625,-44.43359375,1.0,-1.0,1.0,0.0,2.m4v,2.0
2024-02-27 10:19:58.868091,1709025598.8680909,-35.15625,-939.94140625,-20.99609375,-44.43359375,1.0,-1.0,1.0,0.0,2.m4v,2.0
2024-02-27 10:19:58.871996,1709025598.871996,-15.625,-1000.0,-22.4609375,-38.57421875,1.0,-1.0,1.0,0.0,2.m4v,2.0
2024-02-27 10:19:58.875901,1709025598.8759012,-7.32421875,-190.4296875,-18.5546875,-36.62109375,1.0,-1.0,1.0,0.0,2.m4v,2.0
2024-02-27 10:19:58.879807,1709025598.8798065,-12.20703125,999.51171875,-20.99609375,-41.015625,1.0,-1.0,1.0,0.0,2.m4v,2.0
2024-02-27 10:19:58.883712,1709025598.8837116,-4.8828125,949.70703125,-30.2734375,-41.015625,1.0,-1.0,1.0,0.0,2.m4v,2.0
2024-02-27 10:19:58.887617,1709025598.8876169,-5.859375,944.82421875,-33.69140625,-37.109375,1.0,-1.0,1.0,0.0,2.m4v,2.0
2024-02-27 10:19:58.891522,1709025598.891522,-9.765625,976.07421875,-32.71484375,-39.0625,1.0,-1.0,1.0,0.0,2.m4v,2.0
2024-02-27 10:19:58.895427,1709025598.8954272,-6.8359375,970.21484375,-28.80859375,-37.109375,1.0,-1.0,1.0,0.0,2.m4v,2.0
2024-02-27 10:19:58.899333,1709025598.8993323,-11.23046875,969.7265625,-29.296875,-28.80859375,1.0,-1.0,1.0,0.0,2.m4v,2.0
2024-02-27 10:19:58.903246,1709025598.903246,-22.4609375,969.7265625,-39.55078125,-34.66796875,1.0,-1.0,1.0,0.0,2.m4v,2.0
2024-02-27 10:19:58.907151,1709025598.9071512,-30.76171875,969.7265625,-39.0625,-36.1328125,1.0,-1.0,1.0,0.0,2.m4v,2.0
2024-02-27 10:19:58.911056,1709025598.9110565,-28.80859375,969.7265625,-32.71484375,-31.73828125,1.0,-1.0,1.0,0.0,2.m4v,2.0
2024-02-27 10:19:58.914962,1709025598.9149616,-21.97265625,969.7265625,-34.1796875,-36.62109375,1.0,-1.0,1.0,0.0,2.m4v,2.0
2024-02-27 10:19:58.918867,1709025598.9188669,-23.4375,983.3984375,-40.0390625,-42.48046875,1.0,-1.0,1.0,0.0,2.m4v,2.0
2024-02-27 10:19:58.922772,1709025598.922772,-32.71484375,902.83203125,-36.1328125,-37.59765625,1.0,-1.0,1.0,0.0,2.m4v,2.0
2024-02-27 10:19:58.926677,1709025598.9266772,-36.62109375,999.51171875,-39.55078125,-33.69140625,1.0,-1.0,1.0,0.0,2.m4v,2.0
2024-02-27 10:19:58.930583,1709025598.9305823,-34.66796875,608.3984375,-50.78125,-52.734375,1.0,-1.0,1.0,0.0,2.m4v,2.0
2024-02-27 10:19:58.934488,1709025598.9344876,-30.2734375,-810.05859375,-46.38671875,-64.453125,1.0,-1.0,1.0,0.0,2.m4v,2.0
2024-02-27 10:19:58.938393,1709025598.9383929,-24.4140625,-1000.0,-39.0625,-53.22265625,1.0,-1.0,1.0,0.0,2.m4v,2.0
2024-02-27 10:19:58.942298,1709025598.9422982,-36.1328125,-942.87109375,-38.57421875,-49.8046875,1.0,-1.0,1.0,0.0,2.m4v,2.0
2024-02-27 10:19:58.946203,1709025598.9462032,-47.36328125,-1000.0,-42.96875,-53.7109375,1.0,-1.0,1.0,0.0,2.m4v,2.0
2024-02-27 10:19:58.950116,1709025598.9501164,-40.52734375,-1000.0,-45.41015625,-52.734375,1.0,-1.0,1.0,0.0,2.m4v,2.0
2024-02-27 10:19:58.954022,1709025598.9540217,-28.3203125,-1000.0,-36.1328125,-44.921875,1.0,-1.0,1.0,0.0,2.m4v,2.0
2024-02-27 10:19:58.957927,1709025598.9579268,-23.4375,-1000.0,-27.34375,-42.96875,1.0,-1.0,1.0,0.0,2.m4v,2.0
2024-02-27 10:19:58.961832,1709025598.961832,-30.76171875,-932.6171875,-22.94921875,-41.9921875,1.0,-1.0,1.0,0.0,2.m4v,2.0
2024-02-27 10:19:58.965737,1709025598.965737,-39.55078125,-1000.0,-21.484375,-38.0859375,1.0,-1.0,1.0,0.0,2.m4v,2.0
2024-02-27 10:19:58.969642,1709025598.9696424,-30.76171875,-301.7578125,-19.04296875,-34.1796875,1.0,-1.0,1.0,0.0,2.m4v,2.0
2024-02-27 10:19:58.973548,1709025598.9735477,-25.87890625,999.51171875,-24.90234375,-31.73828125,1.0,-1.0,1.0,0.0,2.m4v,2.0
2024-02-27 10:19:58.977453,1709025598.977453,-42.96875,967.28515625,-36.1328125,-37.109375,1.0,-1.0,1.0,0.0,2.m4v,2.0
2024-02-27 10:19:58.981358,1709025598.981358,-43.45703125,936.03515625,-39.0625,-43.45703125,1.0,-1.0,1.0,0.0,2.m4v,2.0
2024-02-27 10:19:58.985263,1709025598.985263,-39.55078125,979.00390625,-40.52734375,-43.45703125,1.0,-1.0,1.0,0.0,2.m4v,2.0
2024-02-27 10:19:58.989169,1709025598.9891686,-34.66796875,969.7265625,-36.1328125,-28.3203125,1.0,-1.0,1.0,0.0,2.m4v,2.0
2024-02-27 10:19:58.993074,1709025598.9930737,-26.85546875,969.7265625,-31.73828125,-14.6484375,1.0,-1.0,1.0,0.0,2.m4v,2.0
2024-02-27 10:19:58.996986,1709025598.9969862,-26.85546875,969.7265625,-43.9453125,-32.71484375,1.0,-1.0,1.0,0.0,2.m4v,2.0
2024-02-27 10:19:59.000891,1709025599.0008914,-23.92578125,969.7265625,-47.8515625,-47.8515625,1.0,-1.0,1.0,0.0,2.m4v,2.0
2024-02-27 10:19:59.004797,1709025599.0047967,-28.80859375,969.7265625,-38.0859375,-44.921875,1.0,-1.0,1.0,0.0,2.m4v,2.0
2024-02-27 10:19:59.008702,1709025599.0087018,-32.2265625,969.7265625,-34.66796875,-43.9453125,1.0,-1.0,1.0,0.0,2.m4v,2.0
2024-02-27 10:19:59.012607,1709025599.012607,-23.4375,970.21484375,-29.296875,-42.48046875,1.0,-1.0,1.0,0.0,2.m4v,2.0
2024-02-27 10:19:59.016512,1709025599.0165124,-17.08984375,968.75,-32.71484375,-40.0390625,1.0,-1.0,1.0,0.0,2.m4v,2.0
2024-02-27 10:19:59.020417,1709025599.0204177,-27.83203125,910.15625,-35.64453125,-38.0859375,1.0,-1.0,1.0,0.0,2.m4v,2.0
2024-02-27 10:19:59.024323,1709025599.0243227,-31.25,999.51171875,-24.4140625,-37.59765625,1.0,-1.0,1.0,0.0,2.m4v,2.0
2024-02-27 10:19:59.028228,1709025599.028228,-25.87890625,157.71484375,-24.4140625,-36.62109375,1.0,-1.0,1.0,0.0,2.m4v,2.0
2024-02-27 10:19:59.032133,1709025599.032133,-25.390625,-1000.0,-28.3203125,-36.62109375,1.0,-1.0,1.0,0.0,2.m4v,2.0
2024-02-27 10:19:59.036038,1709025599.0360384,-13.671875,-979.98046875,-28.3203125,-33.203125,1.0,-1.0,1.0,0.0,2.m4v,2.0
2024-02-27 10:19:59.039943,1709025599.0399437,5.859375,-975.09765625,-34.66796875,-20.99609375,1.0,-1.0,1.0,0.0,2.m4v,2.0
2024-02-27 10:19:59.043859,1709025599.0438592,-5.859375,-1000.0,-33.69140625,-20.5078125,1.0,-1.0,1.0,0.0,2.m4v,2.0
2024-02-27 10:19:59.047765,1709025599.0477643,-38.57421875,-1000.0,-27.83203125,-44.921875,1.0,-1.0,1.0,0.0,2.m4v,2.0
2024-02-27 10:19:59.051670,1709025599.0516696,-40.0390625,-999.0234375,-28.3203125,-48.828125,1.0,-1.0,1.0,0.0,2.m4v,2.0
2024-02-27 10:19:59.055575,1709025599.055575,-26.85546875,-940.4296875,-36.62109375,-39.55078125,1.0,-1.0,1.0,0.0,2.m4v,2.0
2024-02-27 10:19:59.059480,1709025599.0594802,-31.73828125,-1000.0,-43.45703125,-33.203125,1.0,-1.0,1.0,0.0,2.m4v,2.0
2024-02-27 10:19:59.063385,1709025599.0633852,-17.578125,-185.546875,-36.62109375,-18.5546875,1.0,-1.0,1.0,0.0,2.m4v,2.0
2024-02-27 10:19:59.067291,1709025599.0672903,0.48828125,999.51171875,-37.59765625,-27.34375,1.0,-1.0,1.0,0.0,2.m4v,2.0
2024-02-27 10:19:59.071196,1709025599.0711956,-18.06640625,948.73046875,-47.36328125,-39.55078125,1.0,-1.0,1.0,0.0,2.m4v,2.0
2024-02-27 10:19:59.071196,1709025599.0711956,-18.06640625,948.73046875,-47.36328125,-39.55078125,1.0,-1.0,1.0,0.0,2.m4v,2.0
2024-02-27 10:19:59.075101,1709025599.075101,-27.83203125,945.3125,-47.8515625,-33.69140625,1.0,-1.0,1.0,0.0,2.m4v,2.0
2024-02-27 10:19:59.075101,1709025599.075101,-27.83203125,945.3125,-47.8515625,-33.69140625,1.0,-1.0,1.0,0.0,2.m4v,2.0
2024-02-27 10:19:59.079006,1709025599.0790062,-27.83203125,976.07421875,-44.43359375,-36.1328125,1.0,-1.0,1.0,0.0,2.m4v,2.0
2024-02-27 10:19:59.079006,1709025599.0790062,-27.83203125,976.07421875,-44.43359375,-36.1328125,1.0,-1.0,1.0,0.0,2.m4v,2.0
2024-02-27 10:19:59.082911,1709025599.0829113,-36.62109375,969.7265625,-43.45703125,-42.48046875,1.0,-1.0,1.0,0.0,2.m4v,2.0
2024-02-27 10:19:59.082911,1709025599.0829113,-36.62109375,969.7265625,-43.45703125,-42.48046875,1.0,-1.0,1.0,0.0,2.m4v,2.0
2024-02-27 10:19:59.086817,1709025599.0868163,-38.0859375,969.7265625,-41.50390625,-40.52734375,1.0,-1.0,1.0,0.0,2.m4v,2.0
2024-02-27 10:19:59.086817,1709025599.0868163,-38.0859375,969.7265625,-41.50390625,-40.52734375,1.0,-1.0,1.0,0.0,2.m4v,2.0
2024-02-27 10:19:59.090732,1709025599.090732,-31.25,969.7265625,-39.55078125,-36.62109375,1.0,-1.0,1.0,0.0,2.m4v,2.0
2024-02-27 10:19:59.090732,1709025599.090732,-31.25,969.7265625,-39.55078125,-36.62109375,1.0,-1.0,1.0,0.0,2.m4v,2.0
2024-02-27 10:19:59.094637,1709025599.0946372,-26.3671875,969.7265625,-41.50390625,-36.1328125,1.0,-1.0,1.0,0.0,2.m4v,2.0
2024-02-27 10:19:59.094637,1709025599.0946372,-26.3671875,969.7265625,-41.50390625,-36.1328125,1.0,-1.0,1.0,0.0,2.m4v,2.0
2024-02-27 10:19:59.098542,1709025599.0985422,-18.5546875,969.7265625,-47.36328125,-35.15625,1.0,-1.0,1.0,0.0,2.m4v,2.0
2024-02-27 10:19:59.098542,1709025599.0985422,-18.5546875,969.7265625,-47.36328125,-35.15625,1.0,-1.0,1.0,0.0,2.m4v,2.0
2024-02-27 10:19:59.102448,1709025599.1024475,-21.484375,976.07421875,-46.38671875,-40.52734375,1.0,-1.0,1.0,0.0,2.m4v,2.0
2024-02-27 10:19:59.102448,1709025599.1024475,-21.484375,976.07421875,-46.38671875,-40.52734375,1.0,-1.0,1.0,0.0,2.m4v,2.0
2024-02-27 10:19:59.106353,1709025599.1063528,-33.69140625,942.3828125,-43.9453125,-52.24609375,1.0,-1.0,1.0,0.0,2.m4v,2.0
2024-02-27 10:19:59.106353,1709025599.1063528,-33.69140625,942.3828125,-43.9453125,-52.24609375,1.0,-1.0,1.0,0.0,2.m4v,2.0
2024-02-27 10:19:59.110258,1709025599.110258,-35.15625,958.984375,-46.875,-47.36328125,1.0,-1.0,1.0,0.0,2.m4v,2.0
2024-02-27 10:19:59.110258,1709025599.110258,-35.15625,958.984375,-46.875,-47.36328125,1.0,-1.0,1.0,0.0,2.m4v,2.0
2024-02-27 10:19:59.114163,1709025599.1141632,-28.80859375,999.51171875,-39.55078125,-39.55078125,1.0,-1.0,1.0,0.0,2.m4v,2.0
2024-02-27 10:19:59.114163,1709025599.1141632,-28.80859375,999.51171875,-39.55078125,-39.55078125,1.0,-1.0,1.0,0.0,2.m4v,2.0
2024-02-27 10:19:59.118068,1709025599.1180682,-31.73828125,-222.16796875,-31.73828125,-49.8046875,1.0,-1.0,1.0,0.0,2.m4v,2.0
2024-02-27 10:19:59.118068,1709025599.1180682,-31.73828125,-222.16796875,-31.73828125,-49.8046875,1.0,-1.0,1.0,0.0,2.m4v,2.0
2024-02-27 10:19:59.121974,1709025599.1219735,-36.62109375,-1000.0,-39.55078125,-57.6171875,1.0,-1.0,1.0,0.0,2.m4v,2.0
2024-02-27 10:19:59.121974,1709025599.1219735,-36.62109375,-1000.0,-39.55078125,-57.6171875,1.0,-1.0,1.0,0.0,2.m4v,2.0
2024-02-27 10:19:59.125879,1709025599.1258788,-47.8515625,-944.3359375,-48.33984375,-47.8515625,1.0,-1.0,1.0,0.0,2.m4v,2.0
2024-02-27 10:19:59.125879,1709025599.1258788,-47.8515625,-944.3359375,-48.33984375,-47.8515625,1.0,-1.0,1.0,0.0,2.m4v,2.0
2024-02-27 10:19:59.129784,1709025599.129784,-60.05859375,-998.53515625,-41.9921875,-40.52734375,1.0,-1.0,1.0,0.0,2.m4v,2.0
2024-02-27 10:19:59.129784,1709025599.129784,-60.05859375,-998.53515625,-41.9921875,-40.52734375,1.0,-1.0,1.0,0.0,2.m4v,2.0
2024-02-27 10:19:59.133689,1709025599.1336892,-58.59375,-1000.0,-39.55078125,-48.33984375,1.0,-1.0,1.0,0.0,2.m4v,2.0
2024-02-27 10:19:59.133689,1709025599.1336892,-58.59375,-1000.0,-39.55078125,-48.33984375,1.0,-1.0,1.0,0.0,2.m4v,2.0
2024-02-27 10:19:59.137604,1709025599.137604,-62.5,-1000.0,-42.48046875,-49.8046875,1.0,-1.0,1.0,0.0,2.m4v,2.0
2024-02-27 10:19:59.137604,1709025599.137604,-62.5,-1000.0,-42.48046875,-49.8046875,1.0,-1.0,1.0,0.0,2.m4v,2.0
2024-02-27 10:19:59.141509,1709025599.1415093,-63.96484375,-1000.0,-43.9453125,-46.38671875,1.0,-1.0,1.0,0.0,2.m4v,2.0
2024-02-27 10:19:59.141509,1709025599.1415093,-63.96484375,-1000.0,-43.9453125,-46.38671875,1.0,-1.0,1.0,0.0,2.m4v,2.0
2024-02-27 10:19:59.145414,1709025599.1454144,-63.4765625,-981.4453125,-46.875,-46.38671875,1.0,-1.0,1.0,0.0,2.m4v,2.0
2024-02-27 10:19:59.145414,1709025599.1454144,-63.4765625,-981.4453125,-46.875,-46.38671875,1.0,-1.0,1.0,0.0,2.m4v,2.0
2024-02-27 10:19:59.149320,1709025599.1493196,-58.59375,-969.7265625,-41.9921875,-40.0390625,1.0,-1.0,1.0,0.0,2.m4v,2.0
2024-02-27 10:19:59.149320,1709025599.1493196,-58.59375,-969.7265625,-41.9921875,-40.0390625,1.0,-1.0,1.0,0.0,2.m4v,2.0
2024-02-27 10:19:59.153225,1709025599.1532247,-50.78125,-1000.0,-40.52734375,-35.15625,1.0,-1.0,1.0,0.0,2.m4v,2.0
2024-02-27 10:19:59.153225,1709025599.1532247,-50.78125,-1000.0,-40.52734375,-35.15625,1.0,-1.0,1.0,0.0,2.m4v,2.0
2024-02-27 10:19:59.157130,1709025599.15713,-42.96875,76.66015625,-42.96875,-30.76171875,1.0,-1.0,1.0,0.0,2.m4v,2.0
2024-02-27 10:19:59.157130,1709025599.15713,-42.96875,76.66015625,-42.96875,-30.76171875,1.0,-1.0,1.0,0.0,2.m4v,2.0
2024-02-27 10:19:59.161035,1709025599.1610353,-45.8984375,999.51171875,-51.7578125,-28.80859375,1.0,-1.0,1.0,0.0,2.m4v,2.0
2024-02-27 10:19:59.161035,1709025599.1610353,-45.8984375,999.51171875,-51.7578125,-28.80859375,1.0,-1.0,1.0,0.0,2.m4v,2.0
2024-02-27 10:19:59.164940,1709025599.1649404,-58.59375,918.9453125,-51.26953125,-30.2734375,1.0,-1.0,1.0,0.0,2.m4v,2.0
2024-02-27 10:19:59.164940,1709025599.1649404,-58.59375,918.9453125,-51.26953125,-30.2734375,1.0,-1.0,1.0,0.0,2.m4v,2.0
2024-02-27 10:19:59.168846,1709025599.1688457,-50.78125,962.890625,-40.52734375,-22.94921875,1.0,-1.0,1.0,0.0,2.m4v,2.0
2024-02-27 10:19:59.168846,1709025599.1688457,-50.78125,962.890625,-40.52734375,-22.94921875,1.0,-1.0,1.0,0.0,2.m4v,2.0
2024-02-27 10:19:59.172751,1709025599.172751,-36.62109375,971.19140625,-41.015625,-21.484375,1.0,-1.0,1.0,0.0,2.m4v,2.0
2024-02-27 10:19:59.172751,1709025599.172751,-36.62109375,971.19140625,-41.015625,-21.484375,1.0,-1.0,1.0,0.0,2.m4v,2.0
2024-02-27 10:19:59.176656,1709025599.176656,-34.66796875,969.7265625,-47.8515625,-26.85546875,1.0,-1.0,1.0,0.0,2.m4v,2.0
2024-02-27 10:19:59.176656,1709025599.176656,-34.66796875,969.7265625,-47.8515625,-26.85546875,1.0,-1.0,1.0,0.0,2.m4v,2.0
2024-02-27 10:19:59.180561,1709025599.1805613,-48.33984375,969.7265625,-42.96875,-31.25,1.0,-1.0,1.0,0.0,2.m4v,2.0
2024-02-27 10:19:59.180561,1709025599.1805613,-48.33984375,969.7265625,-42.96875,-31.25,1.0,-1.0,1.0,0.0,2.m4v,2.0
2024-02-27 10:19:59.184476,1709025599.1844757,-58.10546875,969.7265625,-41.015625,-38.57421875,1.0,-1.0,1.0,0.0,2.m4v,2.0
2024-02-27 10:19:59.184476,1709025599.1844757,-58.10546875,969.7265625,-41.015625,-38.57421875,1.0,-1.0,1.0,0.0,2.m4v,2.0
2024-02-27 10:19:59.188381,1709025599.188381,-54.6875,969.7265625,-49.8046875,-39.0625,1.0,-1.0,1.0,0.0,2.m4v,2.0
2024-02-27 10:19:59.188381,1709025599.188381,-54.6875,969.7265625,-49.8046875,-39.0625,1.0,-1.0,1.0,0.0,2.m4v,2.0
2024-02-27 10:19:59.192286,1709025599.192286,-54.19921875,969.7265625,-52.24609375,-31.73828125,1.0,-1.0,1.0,0.0,2.m4v,2.0
2024-02-27 10:19:59.192286,1709025599.192286,-54.19921875,969.7265625,-52.24609375,-31.73828125,1.0,-1.0,1.0,0.0,2.m4v,2.0
2024-02-27 10:19:59.196191,1709025599.1961913,-52.24609375,972.65625,-45.41015625,-23.4375,1.0,-1.0,1.0,0.0,2.m4v,2.0
2024-02-27 10:19:59.196191,1709025599.1961913,-52.24609375,972.65625,-45.41015625,-23.4375,1.0,-1.0,1.0,0.0,2.m4v,2.0
2024-02-27 10:19:59.200097,1709025599.2000966,-50.78125,956.54296875,-41.9921875,-34.1796875,1.0,-1.0,1.0,0.0,2.m4v,2.0
2024-02-27 10:19:59.200097,1709025599.2000966,-50.78125,956.54296875,-41.9921875,-34.1796875,1.0,-1.0,1.0,0.0,2.m4v,2.0
2024-02-27 10:19:59.204002,1709025599.2040017,-58.59375,930.17578125,-47.8515625,-38.57421875,1.0,-1.0,1.0,0.0,2.m4v,2.0
2024-02-27 10:19:59.204002,1709025599.2040017,-58.59375,930.17578125,-47.8515625,-38.57421875,1.0,-1.0,1.0,0.0,2.m4v,2.0
2024-02-27 10:19:59.207907,1709025599.207907,-70.80078125,999.51171875,-51.7578125,-32.71484375,1.0,-1.0,1.0,0.0,2.m4v,2.0
2024-02-27 10:19:59.211812,1709025599.2118125,-65.91796875,-22.94921875,-47.36328125,-36.62109375,1.0,-1.0,1.0,0.0,2.m4v,2.0
2024-02-27 10:19:59.215717,1709025599.2157173,-46.875,-1000.0,-47.8515625,-42.96875,1.0,-1.0,1.0,0.0,2.m4v,2.0
2024-02-27 10:19:59.219623,1709025599.2196226,-41.015625,-958.984375,-48.828125,-39.55078125,1.0,-1.0,1.0,0.0,2.m4v,2.0
2024-02-27 10:19:59.223528,1709025599.2235277,-50.78125,-987.79296875,-41.50390625,-40.0390625,1.0,-1.0,1.0,0.0,2.m4v,2.0
2024-02-27 10:19:59.227433,1709025599.227433,-63.96484375,-1000.0,-35.64453125,-41.9921875,1.0,-1.0,1.0,0.0,2.m4v,2.0
2024-02-27 10:19:59.231347,1709025599.2313468,-70.3125,-1000.0,-35.64453125,-38.0859375,1.0,-1.0,1.0,0.0,2.m4v,2.0
2024-02-27 10:19:59.235252,1709025599.235252,-68.359375,-1000.0,-35.15625,-46.38671875,1.0,-1.0,1.0,0.0,2.m4v,2.0
2024-02-27 10:19:59.239157,1709025599.2391574,-63.4765625,-1000.0,-35.15625,-46.875,1.0,-1.0,1.0,0.0,2.m4v,2.0
2024-02-27 10:19:59.243062,1709025599.2430625,-63.96484375,-933.10546875,-44.921875,-41.50390625,1.0,-1.0,1.0,0.0,2.m4v,2.0
2024-02-27 10:19:59.246968,1709025599.2469678,-71.2890625,-1000.0,-55.6640625,-43.9453125,1.0,-1.0,1.0,0.0,2.m4v,2.0
2024-02-27 10:19:59.250873,1709025599.250873,-69.82421875,-294.921875,-50.78125,-40.0390625,1.0,-1.0,1.0,0.0,2.m4v,2.0
2024-02-27 10:19:59.254778,1709025599.254778,-57.6171875,999.51171875,-42.96875,-21.484375,1.0,-1.0,1.0,0.0,2.m4v,2.0
2024-02-27 10:19:59.258683,1709025599.2586834,-59.08203125,966.30859375,-41.9921875,-26.85546875,1.0,-1.0,1.0,0.0,2.m4v,2.0
2024-02-27 10:19:59.262589,1709025599.2625887,-71.2890625,936.5234375,-34.1796875,-51.26953125,1.0,-1.0,1.0,0.0,2.m4v,2.0
2024-02-27 10:19:59.266494,1709025599.2664938,-67.3828125,979.00390625,-24.4140625,-55.17578125,1.0,-1.0,1.0,0.0,2.m4v,2.0
2024-02-27 10:19:59.270399,1709025599.270399,-59.5703125,969.7265625,-25.87890625,-49.8046875,1.0,-1.0,1.0,0.0,2.m4v,2.0
2024-02-27 10:19:59.274304,1709025599.2743042,-58.59375,969.7265625,-24.90234375,-47.8515625,1.0,-1.0,1.0,0.0,2.m4v,2.0
2024-02-27 10:19:59.278218,1709025599.278218,-52.734375,969.7265625,-20.99609375,-48.828125,1.0,-1.0,1.0,0.0,2.m4v,2.0
2024-02-27 10:19:59.282123,1709025599.282123,-50.29296875,969.7265625,-21.484375,-43.45703125,1.0,-1.0,1.0,0.0,2.m4v,2.0
2024-02-27 10:19:59.286029,1709025599.2860286,-71.2890625,969.7265625,-29.78515625,-47.8515625,1.0,-1.0,1.0,0.0,2.m4v,2.0
2024-02-27 10:19:59.289934,1709025599.2899337,-87.40234375,969.7265625,-41.015625,-47.36328125,1.0,-1.0,1.0,0.0,2.m4v,2.0
2024-02-27 10:19:59.293839,1709025599.293839,-76.171875,970.703125,-39.55078125,-38.0859375,1.0,-1.0,1.0,0.0,2.m4v,2.0
2024-02-27 10:19:59.297744,1709025599.2977445,-73.73046875,906.73828125,-27.83203125,-33.69140625,1.0,-1.0,1.0,0.0,2.m4v,2.0
2024-02-27 10:19:59.301649,1709025599.301649,-71.2890625,999.51171875,-31.25,-32.2265625,1.0,-1.0,1.0,0.0,2.m4v,2.0
2024-02-27 10:19:59.305555,1709025599.3055546,-73.73046875,188.96484375,-41.015625,-40.0390625,1.0,-1.0,1.0,0.0,2.m4v,2.0
2024-02-27 10:19:59.309460,1709025599.30946,-85.9375,-1000.0,-30.76171875,-40.52734375,1.0,-1.0,1.0,0.0,2.m4v,2.0
2024-02-27 10:19:59.313365,1709025599.313365,-83.49609375,-983.88671875,-28.80859375,-37.109375,1.0,-1.0,1.0,0.0,2.m4v,2.0
2024-02-27 10:19:59.317270,1709025599.3172705,-76.66015625,-973.14453125,-32.71484375,-36.1328125,1.0,-1.0,1.0,0.0,2.m4v,2.0
2024-02-27 10:19:59.321175,1709025599.321175,-73.2421875,-1000.0,-38.0859375,-39.55078125,1.0,-1.0,1.0,0.0,2.m4v,2.0
2024-02-27 10:19:59.325089,1709025599.3250885,-67.87109375,-1000.0,-45.8984375,-38.0859375,1.0,-1.0,1.0,0.0,2.m4v,2.0
2024-02-27 10:19:59.328994,1709025599.3289938,-51.26953125,-1000.0,-52.734375,-22.4609375,1.0,-1.0,1.0,0.0,2.m4v,2.0
2024-02-27 10:19:59.332899,1709025599.3328989,-55.6640625,-930.6640625,-56.15234375,-18.06640625,1.0,-1.0,1.0,0.0,2.m4v,2.0
2024-02-27 10:19:59.336804,1709025599.3368042,-73.2421875,-1000.0,-60.546875,-41.9921875,1.0,-1.0,1.0,0.0,2.m4v,2.0
2024-02-27 10:19:59.340709,1709025599.3407092,-54.19921875,-344.7265625,-60.05859375,-50.78125,1.0,-1.0,1.0,0.0,2.m4v,2.0
2024-02-27 10:19:59.344615,1709025599.3446145,-47.36328125,993.1640625,-57.6171875,-41.015625,1.0,-1.0,1.0,0.0,2.m4v,2.0
2024-02-27 10:19:59.348520,1709025599.3485198,-62.01171875,974.609375,-57.6171875,-41.015625,1.0,-1.0,1.0,0.0,2.m4v,2.0
2024-02-27 10:19:59.688337,1709025599.6883366,-29.78515625,983.88671875,-34.66796875,-31.25,1.0,-1.0,1.0,0.0,2.m4v,2.0
2024-02-27 10:19:59.696147,1709025599.6961472,-31.73828125,969.7265625,-37.109375,-30.76171875,1.0,-1.0,1.0,0.0,2.m4v,2.0
2024-02-27 10:19:59.703966,1709025599.703966,-47.8515625,969.7265625,-33.69140625,-39.0625,1.0,-1.0,1.0,0.0,2.m4v,2.0
2024-02-27 10:19:59.711776,1709025599.7117765,-49.8046875,977.05078125,-37.109375,-46.38671875,1.0,-1.0,1.0,0.0,2.m4v,2.0
2024-02-27 10:19:59.719587,1709025599.7195868,-58.10546875,964.35546875,-22.94921875,-30.76171875,1.0,-1.0,1.0,0.0,2.m4v,2.0
2024-02-27 10:19:59.727397,1709025599.7273972,-72.265625,-261.71875,-31.73828125,-53.7109375,1.0,-1.0,1.0,0.0,2.m4v,2.0
2024-02-27 10:19:59.735208,1709025599.7352076,-62.01171875,-940.91796875,-37.59765625,-46.38671875,1.0,-1.0,1.0,0.0,2.m4v,2.0
2024-02-27 10:19:59.746931,1709025599.7469306,-54.6875,-1000.0,-36.1328125,-52.734375,1.0,-1.0,1.0,0.0,2.m4v,2.0
2024-02-27 10:19:59.754741,1709025599.754741,-33.69140625,-932.12890625,-41.015625,-46.875,1.0,-1.0,1.0,0.0,2.m4v,2.0
2024-02-27 10:19:59.766457,1709025599.7664566,-29.78515625,999.51171875,-37.59765625,-48.33984375,1.0,-1.0,1.0,0.0,2.m4v,2.0
2024-02-27 10:19:59.774267,1709025599.774267,-17.08984375,934.08203125,-37.109375,-45.8984375,1.0,-1.0,1.0,0.0,2.m4v,2.0
2024-02-27 10:19:59.785983,1709025599.7859826,-40.0390625,969.7265625,-29.78515625,-29.78515625,1.0,-1.0,1.0,0.0,2.m4v,2.0
2024-02-27 10:19:59.797709,1709025599.7977087,-24.4140625,969.23828125,-12.6953125,-48.828125,1.0,-1.0,1.0,0.0,2.m4v,2.0
2024-02-27 10:19:59.805519,1709025599.805519,-20.01953125,974.12109375,-22.94921875,-47.8515625,1.0,-1.0,1.0,0.0,2.m4v,2.0
2024-02-27 10:19:59.817235,1709025599.8172348,-14.16015625,911.62109375,-48.828125,-43.9453125,1.0,-1.0,1.0,0.0,2.m4v,2.0
2024-02-27 10:19:59.825045,1709025599.825045,-14.6484375,198.2421875,-41.9921875,-44.43359375,1.0,-1.0,1.0,0.0,2.m4v,2.0
2024-02-27 10:19:59.836761,1709025599.836761,-12.6953125,-972.16796875,-38.0859375,-50.29296875,1.0,-1.0,1.0,0.0,2.m4v,2.0
2024-02-27 10:19:59.848487,1709025599.848487,-17.578125,-1000.0,-28.80859375,-38.57421875,1.0,-1.0,1.0,0.0,2.m4v,2.0
2024-02-27 10:19:59.856297,1709025599.856297,-16.11328125,-1000.0,-41.50390625,-40.0390625,1.0,-1.0,1.0,0.0,2.m4v,2.0
2024-02-27 10:19:59.868013,1709025599.868013,-23.92578125,999.51171875,-39.0625,-29.296875,1.0,-1.0,1.0,0.0,2.m4v,2.0
2024-02-27 10:19:59.875823,1709025599.875823,-15.13671875,979.98046875,-33.203125,-35.15625,1.0,-1.0,1.0,0.0,2.m4v,2.0
2024-02-27 10:19:59.879728,1709025599.8797283,-18.5546875,970.21484375,-23.4375,-41.015625,1.0,-1.0,1.0,0.0,2.m4v,2.0
2024-02-27 10:19:59.883633,1709025599.8836334,-21.484375,969.7265625,-22.4609375,-39.55078125,1.0,-1.0,1.0,0.0,2.m4v,2.0
2024-02-27 10:19:59.887548,1709025599.8875482,-20.01953125,969.7265625,-28.3203125,-39.0625,1.0,-1.0,1.0,0.0,2.m4v,2.0
2024-02-27 10:19:59.891454,1709025599.8914535,-24.90234375,969.7265625,-33.69140625,-41.9921875,1.0,-1.0,1.0,0.0,2.m4v,2.0
2024-02-27 10:19:59.895359,1709025599.8953588,-34.1796875,969.7265625,-35.64453125,-41.015625,1.0,-1.0,1.0,0.0,2.m4v,2.0
2024-02-27 10:19:59.899264,1709025599.899264,-36.1328125,969.7265625,-29.296875,-37.109375,1.0,-1.0,1.0,0.0,2.m4v,2.0
2024-02-27 10:19:59.903169,1709025599.9031692,-41.015625,971.19140625,-24.90234375,-42.48046875,1.0,-1.0,1.0,0.0,2.m4v,2.0
2024-02-27 10:19:59.907074,1709025599.9070745,-40.52734375,963.37890625,-20.99609375,-41.50390625,1.0,-1.0,1.0,0.0,2.m4v,2.0
2024-02-27 10:19:59.910980,1709025599.9109795,-35.15625,919.43359375,-20.5078125,-31.25,1.0,-1.0,1.0,0.0,2.m4v,2.0
2024-02-27 10:19:59.914885,1709025599.9148848,-26.3671875,999.51171875,-26.3671875,-35.15625,1.0,-1.0,1.0,0.0,2.m4v,2.0
2024-02-27 10:19:59.918790,1709025599.91879,-25.390625,83.0078125,-23.4375,-40.52734375,1.0,-1.0,1.0,0.0,2.m4v,2.0
2024-02-27 10:19:59.922695,1709025599.9226952,-31.73828125,-1000.0,-22.94921875,-38.0859375,1.0,-1.0,1.0,0.0,2.m4v,2.0
2024-02-27 10:19:59.926600,1709025599.9266005,-28.3203125,-972.16796875,-15.13671875,-37.109375,1.0,-1.0,1.0,0.0,2.m4v,2.0
2024-02-27 10:19:59.930506,1709025599.9305058,-28.3203125,-979.98046875,-11.23046875,-38.0859375,1.0,-1.0,1.0,0.0,2.m4v,2.0
2024-02-27 10:19:59.934420,1709025599.93442,-23.92578125,-1000.0,-24.4140625,-38.57421875,1.0,-1.0,1.0,0.0,2.m4v,2.0
2024-02-27 10:19:59.938325,1709025599.938325,-19.53125,-1000.0,-33.69140625,-42.96875,1.0,-1.0,1.0,0.0,2.m4v,2.0
2024-02-27 10:19:59.942230,1709025599.9422302,-20.5078125,-1000.0,-39.55078125,-41.015625,1.0,-1.0,1.0,0.0,2.m4v,2.0
2024-02-27 10:19:59.946136,1709025599.9461355,-32.2265625,-927.24609375,-39.0625,-34.1796875,1.0,-1.0,1.0,0.0,2.m4v,2.0
2024-02-27 10:19:59.950041,1709025599.9500406,-46.875,-1000.0,-38.57421875,-43.9453125,1.0,-1.0,1.0,0.0,2.m4v,2.0
2024-02-27 10:19:59.953946,1709025599.953946,-41.015625,-503.90625,-38.0859375,-44.921875,1.0,-1.0,1.0,0.0,2.m4v,2.0
2024-02-27 10:19:59.957851,1709025599.9578512,-36.62109375,910.64453125,-43.9453125,-38.0859375,1.0,-1.0,1.0,0.0,2.m4v,2.0
2024-02-27 10:19:59.961756,1709025599.9617562,-42.96875,999.51171875,-48.33984375,-40.0390625,1.0,-1.0,1.0,0.0,2.m4v,2.0
2024-02-27 10:19:59.965662,1709025599.9656615,-51.7578125,919.921875,-53.7109375,-42.96875,1.0,-1.0,1.0,0.0,2.m4v,2.0
2024-02-27 10:19:59.969567,1709025599.9695666,-45.8984375,983.88671875,-53.7109375,-40.52734375,1.0,-1.0,1.0,0.0,2.m4v,2.0
2024-02-27 10:19:59.973472,1709025599.973472,-42.48046875,969.7265625,-48.828125,-41.9921875,1.0,-1.0,1.0,0.0,2.m4v,2.0
2024-02-27 10:19:59.977377,1709025599.9773772,-40.52734375,969.7265625,-53.22265625,-45.41015625,1.0,-1.0,1.0,0.0,2.m4v,2.0
2024-02-27 10:19:59.981291,1709025599.981291,-33.69140625,969.7265625,-43.9453125,-42.96875,1.0,-1.0,1.0,0.0,2.m4v,2.0
2024-02-27 10:19:59.985196,1709025599.9851964,-42.48046875,969.7265625,-34.66796875,-41.50390625,1.0,-1.0,1.0,0.0,2.m4v,2.0
2024-02-27 10:19:59.989102,1709025599.9891016,-35.64453125,969.7265625,-38.0859375,-39.0625,1.0,-1.0,1.0,0.0,2.m4v,2.0
2024-02-27 10:19:59.993007,1709025599.9930067,-33.69140625,969.7265625,-40.52734375,-32.2265625,1.0,-1.0,1.0,0.0,2.m4v,2.0
2024-02-27 10:19:59.996912,1709025599.996912,-36.1328125,969.7265625,-40.0390625,-28.80859375,1.0,-1.0,1.0,0.0,2.m4v,2.0
2024-02-27 10:20:00.000817,1709025600.0008173,-18.06640625,971.19140625,-37.109375,-21.97265625,1.0,-1.0,1.0,0.0,2.m4v,2.0
2024-02-27 10:20:00.004722,1709025600.0047224,-19.53125,965.33203125,-35.64453125,-19.53125,1.0,-1.0,1.0,0.0,2.m4v,2.0
2024-02-27 10:20:00.008628,1709025600.0086277,-62.5,916.015625,-39.0625,-39.55078125,1.0,-1.0,1.0,0.0,2.m4v,2.0
2024-02-27 10:20:00.012533,1709025600.012533,-70.80078125,999.51171875,-36.62109375,-45.41015625,1.0,-1.0,1.0,0.0,2.m4v,2.0
2024-02-27 10:20:00.016438,1709025600.016438,-62.01171875,112.79296875,-35.64453125,-47.8515625,1.0,-1.0,1.0,0.0,2.m4v,2.0
2024-02-27 10:20:00.020343,1709025600.0203433,-69.82421875,-1000.0,-38.57421875,-57.6171875,1.0,-1.0,1.0,0.0,2.m4v,2.0
2024-02-27 10:20:00.024249,1709025600.0242486,-75.1953125,-976.07421875,-40.0390625,-58.59375,1.0,-1.0,1.0,0.0,2.m4v,2.0
2024-02-27 10:20:00.028162,1709025600.028162,-86.42578125,-978.02734375,-43.45703125,-57.12890625,1.0,-1.0,1.0,0.0,2.m4v,2.0
2024-02-27 10:20:00.032067,1709025600.032067,-81.0546875,-1000.0,-46.38671875,-52.734375,1.0,-1.0,1.0,0.0,2.m4v,2.0
2024-02-27 10:20:00.035972,1709025600.0359724,-65.4296875,-1000.0,-52.24609375,-52.734375,1.0,-1.0,1.0,0.0,2.m4v,2.0
2024-02-27 10:20:00.039878,1709025600.0398777,-64.94140625,-933.59375,-65.4296875,-49.31640625,1.0,-1.0,1.0,0.0,2.m4v,2.0
2024-02-27 10:20:00.043783,1709025600.0437827,-71.77734375,-1000.0,-63.96484375,-51.26953125,1.0,-1.0,1.0,0.0,2.m4v,2.0
2024-02-27 10:20:00.047688,1709025600.047688,-62.01171875,-284.1796875,-52.734375,-54.19921875,1.0,-1.0,1.0,0.0,2.m4v,2.0
2024-02-27 10:20:00.051593,1709025600.0515933,-41.9921875,999.51171875,-49.31640625,-46.38671875,1.0,-1.0,1.0,0.0,2.m4v,2.0
2024-02-27 10:20:00.055498,1709025600.0554984,-49.8046875,964.35546875,-45.41015625,-46.38671875,1.0,-1.0,1.0,0.0,2.m4v,2.0
2024-02-27 10:20:00.059404,1709025600.0594037,-62.5,937.01171875,-39.0625,-50.78125,1.0,-1.0,1.0,0.0,2.m4v,2.0
2024-02-27 10:20:00.063309,1709025600.063309,-64.453125,978.515625,-38.57421875,-48.828125,1.0,-1.0,1.0,0.0,2.m4v,2.0
2024-02-27 10:20:00.067214,1709025600.067214,-66.89453125,969.7265625,-42.48046875,-44.43359375,1.0,-1.0,1.0,0.0,2.m4v,2.0
2024-02-27 10:20:00.071119,1709025600.0711193,-58.59375,969.7265625,-46.875,-41.50390625,1.0,-1.0,1.0,0.0,2.m4v,2.0
2024-02-27 10:20:00.075039,1709025600.0750394,-50.78125,969.7265625,-51.7578125,-34.66796875,1.0,-1.0,1.0,0.0,2.m4v,2.0
2024-02-27 10:20:00.078945,1709025600.0789447,-49.8046875,969.7265625,-54.19921875,-29.296875,1.0,-1.0,1.0,0.0,2.m4v,2.0
2024-02-27 10:20:00.082850,1709025600.08285,-56.640625,969.7265625,-48.828125,-40.52734375,1.0,-1.0,1.0,0.0,2.m4v,2.0
2024-02-27 10:20:00.086755,1709025600.086755,-56.640625,969.7265625,-46.38671875,-42.96875,1.0,-1.0,1.0,0.0,2.m4v,2.0
2024-02-27 10:20:00.090660,1709025600.0906603,-52.734375,982.91015625,-56.15234375,-35.64453125,1.0,-1.0,1.0,0.0,2.m4v,2.0
2024-02-27 10:20:00.094565,1709025600.0945654,-47.8515625,898.4375,-60.05859375,-37.109375,1.0,-1.0,1.0,0.0,2.m4v,2.0
2024-02-27 10:20:00.098471,1709025600.0984707,-48.828125,999.51171875,-52.734375,-41.9921875,1.0,-1.0,1.0,0.0,2.m4v,2.0
2024-02-27 10:20:00.102376,1709025600.102376,-57.12890625,514.6484375,-42.96875,-42.48046875,1.0,-1.0,1.0,0.0,2.m4v,2.0
2024-02-27 10:20:00.106281,1709025600.106281,-57.6171875,-902.83203125,-47.36328125,-45.41015625,1.0,-1.0,1.0,0.0,2.m4v,2.0
2024-02-27 10:20:00.110186,1709025600.1101863,-57.6171875,-1000.0,-53.22265625,-42.96875,1.0,-1.0,1.0,0.0,2.m4v,2.0
2024-02-27 10:20:00.114092,1709025600.1140916,-55.17578125,-947.75390625,-52.24609375,-37.109375,1.0,-1.0,1.0,0.0,2.m4v,2.0
2024-02-27 10:20:00.117997,1709025600.1179967,-53.7109375,-1000.0,-51.7578125,-33.69140625,1.0,-1.0,1.0,0.0,2.m4v,2.0
2024-02-27 10:20:00.121913,1709025600.121913,-53.7109375,-1000.0,-50.29296875,-33.69140625,1.0,-1.0,1.0,0.0,2.m4v,2.0
2024-02-27 10:20:00.125818,1709025600.1258185,-62.01171875,-1000.0,-49.31640625,-33.203125,1.0,-1.0,1.0,0.0,2.m4v,2.0
2024-02-27 10:20:00.129723,1709025600.1297233,-72.265625,-1000.0,-45.8984375,-33.69140625,1.0,-1.0,1.0,0.0,2.m4v,2.0
2024-02-27 10:20:00.133629,1709025600.1336286,-55.17578125,-928.22265625,-44.921875,-32.71484375,1.0,-1.0,1.0,0.0,2.m4v,2.0
2024-02-27 10:20:00.137534,1709025600.137534,-34.66796875,-1000.0,-44.43359375,-31.25,1.0,-1.0,1.0,0.0,2.m4v,2.0
2024-02-27 10:20:00.141439,1709025600.141439,-21.97265625,-429.6875,-41.9921875,-28.80859375,1.0,-1.0,1.0,0.0,2.m4v,2.0
2024-02-27 10:20:00.145344,1709025600.1453445,-5.37109375,952.1484375,-37.109375,-23.4375,1.0,-1.0,1.0,0.0,2.m4v,2.0
2024-02-27 10:20:00.149250,1709025600.1492496,-2.9296875,990.72265625,-33.69140625,-32.2265625,1.0,-1.0,1.0,0.0,2.m4v,2.0
2024-02-27 10:20:00.153155,1709025600.1531546,-5.37109375,925.29296875,-34.1796875,-40.52734375,1.0,-1.0,1.0,0.0,2.m4v,2.0
2024-02-27 10:20:00.157060,1709025600.15706,-7.8125,982.421875,-38.0859375,-38.0859375,1.0,-1.0,1.0,0.0,2.m4v,2.0
2024-02-27 10:20:00.160965,1709025600.1609652,-20.99609375,969.7265625,-40.0390625,-41.50390625,1.0,-1.0,1.0,0.0,2.m4v,2.0
2024-02-27 10:20:00.164870,1709025600.1648705,-15.625,969.7265625,-39.55078125,-48.828125,1.0,-1.0,1.0,0.0,2.m4v,2.0
2024-02-27 10:20:00.168786,1709025600.168786,-2.9296875,969.7265625,-40.52734375,-42.48046875,1.0,-1.0,1.0,0.0,2.m4v,2.0
2024-02-27 10:20:00.172691,1709025600.172691,3.90625,970.21484375,-45.41015625,-39.55078125,1.0,-1.0,1.0,0.0,2.m4v,2.0
2024-02-27 10:20:00.176596,1709025600.1765964,12.6953125,969.7265625,-49.31640625,-38.57421875,1.0,-1.0,1.0,0.0,2.m4v,2.0
2024-02-27 10:20:00.180502,1709025600.1805017,20.99609375,975.5859375,-40.52734375,-38.57421875,1.0,-1.0,1.0,0.0,2.m4v,2.0
2024-02-27 10:20:00.184407,1709025600.1844068,29.296875,946.2890625,-34.66796875,-37.59765625,1.0,-1.0,1.0,0.0,2.m4v,2.0
2024-02-27 10:20:00.188312,1709025600.188312,39.0625,950.1953125,-29.78515625,-36.1328125,1.0,-1.0,1.0,0.0,2.m4v,2.0
2024-02-27 10:20:00.489068,1709025600.4890676,2.9296875,20.5078125,-50.29296875,-43.9453125,1.0,-1.0,1.0,0.0,2.m4v,2.0
2024-02-27 10:20:00.492973,1709025600.4929726,10.25390625,-1000.0,-45.8984375,-37.109375,1.0,-1.0,1.0,0.0,2.m4v,2.0
2024-02-27 10:20:00.496885,1709025600.496885,7.32421875,-964.35546875,-43.45703125,-33.69140625,1.0,-1.0,1.0,0.0,2.m4v,2.0
2024-02-27 10:20:00.500790,1709025600.5007904,-0.48828125,-984.86328125,-42.96875,-35.15625,1.0,-1.0,1.0,0.0,2.m4v,2.0
2024-02-27 10:20:00.504696,1709025600.5046957,-10.25390625,-1000.0,-38.57421875,-30.2734375,1.0,-1.0,1.0,0.0,2.m4v,2.0
2024-02-27 10:20:00.508601,1709025600.5086007,-4.39453125,-930.17578125,-37.59765625,-29.78515625,1.0,-1.0,1.0,0.0,2.m4v,2.0
2024-02-27 10:20:00.512506,1709025600.512506,-2.9296875,-1000.0,-43.9453125,-33.69140625,1.0,-1.0,1.0,0.0,2.m4v,2.0
2024-02-27 10:20:00.516411,1709025600.5164113,-2.44140625,-369.62890625,-45.8984375,-32.2265625,1.0,-1.0,1.0,0.0,2.m4v,2.0
2024-02-27 10:20:00.520316,1709025600.5203164,-5.37109375,980.95703125,-47.36328125,-31.73828125,1.0,-1.0,1.0,0.0,2.m4v,2.0
2024-02-27 10:20:00.524222,1709025600.5242217,-14.16015625,979.4921875,-53.22265625,-34.66796875,1.0,-1.0,1.0,0.0,2.m4v,2.0
2024-02-27 10:20:00.528127,1709025600.528127,-7.8125,930.17578125,-53.22265625,-32.71484375,1.0,-1.0,1.0,0.0,2.m4v,2.0
2024-02-27 10:20:00.532032,1709025600.532032,-6.34765625,980.95703125,-53.7109375,-34.1796875,1.0,-1.0,1.0,0.0,2.m4v,2.0
2024-02-27 10:20:00.535937,1709025600.5359373,-11.71875,969.7265625,-51.7578125,-31.73828125,1.0,-1.0,1.0,0.0,2.m4v,2.0
2024-02-27 10:20:00.539843,1709025600.5398426,-13.18359375,969.7265625,-46.38671875,-37.109375,1.0,-1.0,1.0,0.0,2.m4v,2.0
2024-02-27 10:20:00.543759,1709025600.5437586,-23.92578125,969.7265625,-45.8984375,-45.41015625,1.0,-1.0,1.0,0.0,2.m4v,2.0
2024-02-27 10:20:00.547664,1709025600.547664,-40.52734375,969.7265625,-46.38671875,-43.9453125,1.0,-1.0,1.0,0.0,2.m4v,2.0
2024-02-27 10:20:00.551569,1709025600.551569,-35.64453125,969.7265625,-43.45703125,-39.0625,1.0,-1.0,1.0,0.0,2.m4v,2.0
2024-02-27 10:20:00.555474,1709025600.5554743,-27.34375,969.7265625,-33.69140625,-32.2265625,1.0,-1.0,1.0,0.0,2.m4v,2.0
2024-02-27 10:20:00.559380,1709025600.5593796,-42.48046875,969.7265625,-38.0859375,-40.52734375,1.0,-1.0,1.0,0.0,2.m4v,2.0
2024-02-27 10:20:00.563285,1709025600.5632846,-49.31640625,969.7265625,-51.7578125,-43.45703125,1.0,-1.0,1.0,0.0,2.m4v,2.0
2024-02-27 10:20:00.567190,1709025600.56719,-47.8515625,969.7265625,-52.734375,-40.0390625,1.0,-1.0,1.0,0.0,2.m4v,2.0
2024-02-27 10:20:00.571095,1709025600.5710952,-47.8515625,979.98046875,-50.29296875,-38.57421875,1.0,-1.0,1.0,0.0,2.m4v,2.0
2024-02-27 10:20:00.575000,1709025600.5750003,-37.109375,927.734375,-49.8046875,-35.64453125,1.0,-1.0,1.0,0.0,2.m4v,2.0
2024-02-27 10:20:00.578906,1709025600.5789056,-31.73828125,993.1640625,-52.734375,-37.59765625,1.0,-1.0,1.0,0.0,2.m4v,2.0
2024-02-27 10:20:00.582811,1709025600.5828109,-33.203125,910.15625,-51.26953125,-42.96875,1.0,-1.0,1.0,0.0,2.m4v,2.0
2024-02-27 10:20:00.586716,1709025600.586716,-35.64453125,-419.43359375,-44.43359375,-45.8984375,1.0,-1.0,1.0,0.0,2.m4v,2.0
2024-02-27 10:20:00.590633,1709025600.5906332,-38.57421875,-1000.0,-43.45703125,-47.8515625,1.0,-1.0,1.0,0.0,2.m4v,2.0
2024-02-27 10:20:00.594538,1709025600.5945382,-44.43359375,-937.01171875,-41.9921875,-49.8046875,1.0,-1.0,1.0,0.0,2.m4v,2.0
2024-02-27 10:20:00.598444,1709025600.5984435,-45.8984375,-1000.0,-39.0625,-38.57421875,1.0,-1.0,1.0,0.0,2.m4v,2.0
2024-02-27 10:20:00.602349,1709025600.6023488,-42.48046875,-1000.0,-38.57421875,-37.59765625,1.0,-1.0,1.0,0.0,2.m4v,2.0
2024-02-27 10:20:00.606254,1709025600.606254,-39.55078125,-1000.0,-44.43359375,-50.78125,1.0,-1.0,1.0,0.0,2.m4v,2.0
2024-02-27 10:20:00.610159,1709025600.6101592,-40.0390625,-1000.0,-43.9453125,-50.78125,1.0,-1.0,1.0,0.0,2.m4v,2.0
2024-02-27 10:20:00.614064,1709025600.6140645,-41.015625,-1000.0,-39.55078125,-53.7109375,1.0,-1.0,1.0,0.0,2.m4v,2.0
2024-02-27 10:20:00.617970,1709025600.6179695,-33.203125,-1000.0,-37.59765625,-52.734375,1.0,-1.0,1.0,0.0,2.m4v,2.0
2024-02-27 10:20:00.621875,1709025600.6218748,-32.71484375,-1000.0,-32.2265625,-55.17578125,1.0,-1.0,1.0,0.0,2.m4v,2.0
2024-02-27 10:20:00.625780,1709025600.62578,-33.69140625,-1000.0,-25.87890625,-53.7109375,1.0,-1.0,1.0,0.0,2.m4v,2.0
2024-02-27 10:20:00.629685,1709025600.6296852,-38.57421875,-1000.0,-21.97265625,-45.41015625,1.0,-1.0,1.0,0.0,2.m4v,2.0
2024-02-27 10:20:00.633590,1709025600.6335905,-40.0390625,-1000.0,-22.94921875,-44.921875,1.0,-1.0,1.0,0.0,2.m4v,2.0
2024-02-27 10:20:00.637505,1709025600.6375053,-35.64453125,-1000.0,-28.3203125,-45.41015625,1.0,-1.0,1.0,0.0,2.m4v,2.0
2024-02-27 10:20:00.637505,1709025600.6375053,-35.64453125,-1000.0,-28.3203125,-45.41015625,1.0,-1.0,1.0,0.0,2.m4v,2.0
2024-02-27 10:20:00.641410,1709025600.6414104,-50.78125,-1000.0,-39.0625,-53.22265625,1.0,-1.0,1.0,0.0,2.m4v,2.0
2024-02-27 10:20:00.641410,1709025600.6414104,-50.78125,-1000.0,-39.0625,-53.22265625,1.0,-1.0,1.0,0.0,2.m4v,2.0
2024-02-27 10:20:00.645316,1709025600.6453156,-53.22265625,-972.16796875,-40.0390625,-52.24609375,1.0,-1.0,1.0,0.0,2.m4v,2.0
2024-02-27 10:20:00.645316,1709025600.6453156,-53.22265625,-972.16796875,-40.0390625,-52.24609375,1.0,-1.0,1.0,0.0,2.m4v,2.0
2024-02-27 10:20:00.649221,1709025600.649221,-31.73828125,-988.28125,-35.64453125,-44.921875,1.0,-1.0,1.0,0.0,2.m4v,2.0
2024-02-27 10:20:00.649221,1709025600.649221,-31.73828125,-988.28125,-35.64453125,-44.921875,1.0,-1.0,1.0,0.0,2.m4v,2.0
2024-02-27 10:20:00.653126,1709025600.653126,-36.1328125,-1000.0,-37.59765625,-48.828125,1.0,-1.0,1.0,0.0,2.m4v,2.0
2024-02-27 10:20:00.653126,1709025600.653126,-36.1328125,-1000.0,-37.59765625,-48.828125,1.0,-1.0,1.0,0.0,2.m4v,2.0
2024-02-27 10:20:00.657031,1709025600.6570313,-39.0625,201.171875,-37.109375,-44.921875,1.0,-1.0,1.0,0.0,2.m4v,2.0
2024-02-27 10:20:00.657031,1709025600.6570313,-39.0625,201.171875,-37.109375,-44.921875,1.0,-1.0,1.0,0.0,2.m4v,2.0
2024-02-27 10:20:00.660937,1709025600.6609366,-23.92578125,999.51171875,-31.25,-42.96875,1.0,-1.0,1.0,0.0,2.m4v,2.0
2024-02-27 10:20:00.660937,1709025600.6609366,-23.92578125,999.51171875,-31.25,-42.96875,1.0,-1.0,1.0,0.0,2.m4v,2.0
2024-02-27 10:20:00.664842,1709025600.6648417,-23.4375,909.1796875,-33.69140625,-43.45703125,1.0,-1.0,1.0,0.0,2.m4v,2.0
2024-02-27 10:20:00.664842,1709025600.6648417,-23.4375,909.1796875,-33.69140625,-43.45703125,1.0,-1.0,1.0,0.0,2.m4v,2.0
2024-02-27 10:20:00.668747,1709025600.668747,-19.04296875,969.7265625,-39.55078125,-28.3203125,1.0,-1.0,1.0,0.0,2.m4v,2.0
2024-02-27 10:20:00.668747,1709025600.668747,-19.04296875,969.7265625,-39.55078125,-28.3203125,1.0,-1.0,1.0,0.0,2.m4v,2.0
2024-02-27 10:20:00.672652,1709025600.6726522,-27.83203125,970.21484375,-27.83203125,-36.1328125,1.0,-1.0,1.0,0.0,2.m4v,2.0
2024-02-27 10:20:00.672652,1709025600.6726522,-27.83203125,970.21484375,-27.83203125,-36.1328125,1.0,-1.0,1.0,0.0,2.m4v,2.0
2024-02-27 10:20:00.676557,1709025600.6765573,-48.828125,969.7265625,-16.6015625,-62.01171875,1.0,-1.0,1.0,0.0,2.m4v,2.0
2024-02-27 10:20:00.676557,1709025600.6765573,-48.828125,969.7265625,-16.6015625,-62.01171875,1.0,-1.0,1.0,0.0,2.m4v,2.0
2024-02-27 10:20:00.680463,1709025600.6804626,-49.31640625,969.7265625,-10.7421875,-65.91796875,1.0,-1.0,1.0,0.0,2.m4v,2.0
2024-02-27 10:20:00.680463,1709025600.6804626,-49.31640625,969.7265625,-10.7421875,-65.91796875,1.0,-1.0,1.0,0.0,2.m4v,2.0
2024-02-27 10:20:00.684377,1709025600.684377,-46.875,969.7265625,-11.23046875,-61.03515625,1.0,-1.0,1.0,0.0,2.m4v,2.0
2024-02-27 10:20:00.684377,1709025600.684377,-46.875,969.7265625,-11.23046875,-61.03515625,1.0,-1.0,1.0,0.0,2.m4v,2.0
2024-02-27 10:20:00.688282,1709025600.6882825,-49.8046875,969.7265625,-12.20703125,-57.12890625,1.0,-1.0,1.0,0.0,2.m4v,2.0
2024-02-27 10:20:00.688282,1709025600.6882825,-49.8046875,969.7265625,-12.20703125,-57.12890625,1.0,-1.0,1.0,0.0,2.m4v,2.0
2024-02-27 10:20:00.692187,1709025600.6921873,-45.8984375,969.7265625,-10.7421875,-51.7578125,1.0,-1.0,1.0,0.0,2.m4v,2.0
2024-02-27 10:20:00.692187,1709025600.6921873,-45.8984375,969.7265625,-10.7421875,-51.7578125,1.0,-1.0,1.0,0.0,2.m4v,2.0
2024-02-27 10:20:00.696093,1709025600.6960926,-45.8984375,969.7265625,-7.8125,-51.7578125,1.0,-1.0,1.0,0.0,2.m4v,2.0
2024-02-27 10:20:00.696093,1709025600.6960926,-45.8984375,969.7265625,-7.8125,-51.7578125,1.0,-1.0,1.0,0.0,2.m4v,2.0
2024-02-27 10:20:00.699998,1709025600.699998,-45.41015625,969.7265625,-11.23046875,-52.24609375,1.0,-1.0,1.0,0.0,2.m4v,2.0
2024-02-27 10:20:00.699998,1709025600.699998,-45.41015625,969.7265625,-11.23046875,-52.24609375,1.0,-1.0,1.0,0.0,2.m4v,2.0
2024-02-27 10:20:00.703903,1709025600.703903,-47.36328125,976.07421875,-22.4609375,-47.36328125,1.0,-1.0,1.0,0.0,2.m4v,2.0
2024-02-27 10:20:00.703903,1709025600.703903,-47.36328125,976.07421875,-22.4609375,-47.36328125,1.0,-1.0,1.0,0.0,2.m4v,2.0
2024-02-27 10:20:00.707808,1709025600.7078085,-54.6875,943.84765625,-21.484375,-41.015625,1.0,-1.0,1.0,0.0,2.m4v,2.0
2024-02-27 10:20:00.707808,1709025600.7078085,-54.6875,943.84765625,-21.484375,-41.015625,1.0,-1.0,1.0,0.0,2.m4v,2.0
2024-02-27 10:20:00.711714,1709025600.7117136,-55.6640625,955.56640625,-21.484375,-38.57421875,1.0,-1.0,1.0,0.0,2.m4v,2.0
2024-02-27 10:20:00.711714,1709025600.7117136,-55.6640625,955.56640625,-21.484375,-38.57421875,1.0,-1.0,1.0,0.0,2.m4v,2.0
2024-02-27 10:20:00.715619,1709025600.7156186,-52.24609375,999.51171875,-34.66796875,-39.0625,1.0,-1.0,1.0,0.0,2.m4v,2.0
2024-02-27 10:20:00.715619,1709025600.7156186,-52.24609375,999.51171875,-34.66796875,-39.0625,1.0,-1.0,1.0,0.0,2.m4v,2.0
2024-02-27 10:20:00.719524,1709025600.719524,-51.7578125,-201.171875,-35.15625,-43.9453125,1.0,-1.0,1.0,0.0,2.m4v,2.0
2024-02-27 10:20:00.719524,1709025600.719524,-51.7578125,-201.171875,-35.15625,-43.9453125,1.0,-1.0,1.0,0.0,2.m4v,2.0
2024-02-27 10:20:00.723429,1709025600.7234292,-61.5234375,-1000.0,-29.296875,-49.8046875,1.0,-1.0,1.0,0.0,2.m4v,2.0
2024-02-27 10:20:00.723429,1709025600.7234292,-61.5234375,-1000.0,-29.296875,-49.8046875,1.0,-1.0,1.0,0.0,2.m4v,2.0
2024-02-27 10:20:00.727334,1709025600.7273345,-66.40625,-945.3125,-28.80859375,-32.71484375,1.0,-1.0,1.0,0.0,2.m4v,2.0
2024-02-27 10:20:00.727334,1709025600.7273345,-66.40625,-945.3125,-28.80859375,-32.71484375,1.0,-1.0,1.0,0.0,2.m4v,2.0
2024-02-27 10:20:00.731248,1709025600.731248,-61.03515625,-997.55859375,-28.80859375,-28.3203125,1.0,-1.0,1.0,0.0,2.m4v,2.0
2024-02-27 10:20:00.731248,1709025600.731248,-61.03515625,-997.55859375,-28.80859375,-28.3203125,1.0,-1.0,1.0,0.0,2.m4v,2.0
2024-02-27 10:20:00.735153,1709025600.7351534,-52.24609375,-1000.0,-32.2265625,-44.921875,1.0,-1.0,1.0,0.0,2.m4v,2.0
2024-02-27 10:20:00.735153,1709025600.7351534,-52.24609375,-1000.0,-32.2265625,-44.921875,1.0,-1.0,1.0,0.0,2.m4v,2.0
2024-02-27 10:20:00.739059,1709025600.7390587,-44.921875,-1000.0,-32.71484375,-38.57421875,1.0,-1.0,1.0,0.0,2.m4v,2.0
2024-02-27 10:20:00.739059,1709025600.7390587,-44.921875,-1000.0,-32.71484375,-38.57421875,1.0,-1.0,1.0,0.0,2.m4v,2.0
2024-02-27 10:20:00.742964,1709025600.7429638,-46.38671875,-932.6171875,-28.80859375,-38.0859375,1.0,-1.0,1.0,0.0,2.m4v,2.0
2024-02-27 10:20:00.742964,1709025600.7429638,-46.38671875,-932.6171875,-28.80859375,-38.0859375,1.0,-1.0,1.0,0.0,2.m4v,2.0
2024-02-27 10:20:00.746869,1709025600.746869,-45.41015625,-1000.0,-30.76171875,-39.55078125,1.0,-1.0,1.0,0.0,2.m4v,2.0
2024-02-27 10:20:00.746869,1709025600.746869,-45.41015625,-1000.0,-30.76171875,-39.55078125,1.0,-1.0,1.0,0.0,2.m4v,2.0
2024-02-27 10:20:00.750774,1709025600.7507744,-41.015625,-301.7578125,-29.78515625,-30.76171875,1.0,-1.0,1.0,0.0,2.m4v,2.0
2024-02-27 10:20:00.750774,1709025600.7507744,-41.015625,-301.7578125,-29.78515625,-30.76171875,1.0,-1.0,1.0,0.0,2.m4v,2.0
2024-02-27 10:20:00.754679,1709025600.7546794,-29.78515625,999.51171875,-26.3671875,-25.390625,1.0,-1.0,1.0,0.0,2.m4v,2.0
2024-02-27 10:20:00.754679,1709025600.7546794,-29.78515625,999.51171875,-26.3671875,-25.390625,1.0,-1.0,1.0,0.0,2.m4v,2.0
2024-02-27 10:20:00.762490,1709025600.76249,-34.66796875,936.03515625,-31.73828125,-30.76171875,1.0,-1.0,1.0,0.0,2.m4v,2.0
2024-02-27 10:20:00.762490,1709025600.76249,-34.66796875,936.03515625,-31.73828125,-30.76171875,1.0,-1.0,1.0,0.0,2.m4v,2.0
2024-02-27 10:20:00.774206,1709025600.7742057,-24.4140625,969.7265625,-24.4140625,-28.3203125,1.0,-1.0,1.0,0.0,2.m4v,2.0
2024-02-27 10:20:00.774206,1709025600.7742057,-24.4140625,969.7265625,-24.4140625,-28.3203125,1.0,-1.0,1.0,0.0,2.m4v,2.0
2024-02-27 10:20:00.785930,1709025600.78593,-42.48046875,969.7265625,-29.78515625,-32.2265625,1.0,-1.0,1.0,0.0,2.m4v,2.0
2024-02-27 10:20:00.785930,1709025600.78593,-42.48046875,969.7265625,-29.78515625,-32.2265625,1.0,-1.0,1.0,0.0,2.m4v,2.0
2024-02-27 10:20:00.797646,1709025600.7976456,-36.1328125,938.4765625,-30.2734375,-33.69140625,1.0,-1.0,1.0,0.0,2.m4v,2.0
2024-02-27 10:20:00.797646,1709025600.7976456,-36.1328125,938.4765625,-30.2734375,-33.69140625,1.0,-1.0,1.0,0.0,2.m4v,2.0
2024-02-27 10:20:00.809361,1709025600.8093612,-46.38671875,-1000.0,-23.4375,-44.43359375,1.0,-1.0,1.0,0.0,2.m4v,2.0
2024-02-27 10:20:00.809361,1709025600.8093612,-46.38671875,-1000.0,-23.4375,-44.43359375,1.0,-1.0,1.0,0.0,2.m4v,2.0
2024-02-27 10:20:00.821077,1709025600.8210769,-58.59375,-1000.0,-21.97265625,-38.0859375,1.0,-1.0,1.0,0.0,2.m4v,2.0
2024-02-27 10:20:00.821077,1709025600.8210769,-58.59375,-1000.0,-21.97265625,-38.0859375,1.0,-1.0,1.0,0.0,2.m4v,2.0
2024-02-27 10:20:01.668683,1709025601.6686826,-4.39453125,969.7265625,-42.96875,-40.52734375,1.0,-1.0,1.0,0.0,2.m4v,2.0
2024-02-27 10:20:01.672588,1709025601.672588,0.0,969.7265625,-42.96875,-27.83203125,1.0,-1.0,1.0,0.0,2.m4v,2.0
2024-02-27 10:20:01.676493,1709025601.6764932,7.32421875,970.21484375,-36.62109375,-25.87890625,1.0,-1.0,1.0,0.0,2.m4v,2.0
2024-02-27 10:20:01.680398,1709025601.6803982,-2.44140625,974.609375,-28.3203125,-42.48046875,1.0,-1.0,1.0,0.0,2.m4v,2.0
2024-02-27 10:20:01.684304,1709025601.6843035,-8.7890625,949.21875,-28.3203125,-52.734375,1.0,-1.0,1.0,0.0,2.m4v,2.0
2024-02-27 10:20:01.688209,1709025601.6882088,-8.7890625,944.3359375,-23.4375,-44.921875,1.0,-1.0,1.0,0.0,2.m4v,2.0
2024-02-27 10:20:01.692114,1709025601.692114,-6.34765625,999.51171875,-22.94921875,-41.015625,1.0,-1.0,1.0,0.0,2.m4v,2.0
2024-02-27 10:20:01.696019,1709025601.6960192,-12.6953125,-126.46484375,-28.80859375,-44.921875,1.0,-1.0,1.0,0.0,2.m4v,2.0
2024-02-27 10:20:01.699924,1709025601.6999245,-34.1796875,-1000.0,-34.1796875,-51.26953125,1.0,-1.0,1.0,0.0,2.m4v,2.0
2024-02-27 10:20:01.703830,1709025601.7038295,-37.59765625,-950.68359375,-41.015625,-53.22265625,1.0,-1.0,1.0,0.0,2.m4v,2.0
2024-02-27 10:20:01.707735,1709025601.7077348,-39.55078125,-993.65234375,-38.57421875,-46.38671875,1.0,-1.0,1.0,0.0,2.m4v,2.0
2024-02-27 10:20:01.711640,1709025601.71164,-43.9453125,-1000.0,-36.1328125,-38.57421875,1.0,-1.0,1.0,0.0,2.m4v,2.0
2024-02-27 10:20:01.715555,1709025601.7155554,-45.41015625,-1000.0,-41.015625,-37.109375,1.0,-1.0,1.0,0.0,2.m4v,2.0
2024-02-27 10:20:01.719460,1709025601.7194605,-41.015625,-1000.0,-47.36328125,-40.0390625,1.0,-1.0,1.0,0.0,2.m4v,2.0
2024-02-27 10:20:01.723366,1709025601.7233658,-41.9921875,-993.1640625,-49.8046875,-47.8515625,1.0,-1.0,1.0,0.0,2.m4v,2.0
2024-02-27 10:20:01.727271,1709025601.727271,-43.45703125,-949.70703125,-53.7109375,-51.7578125,1.0,-1.0,1.0,0.0,2.m4v,2.0
2024-02-27 10:20:01.731176,1709025601.731176,-28.3203125,-1000.0,-48.828125,-40.52734375,1.0,-1.0,1.0,0.0,2.m4v,2.0
2024-02-27 10:20:01.735081,1709025601.7350814,-22.94921875,-93.75,-42.96875,-30.76171875,1.0,-1.0,1.0,0.0,2.m4v,2.0
2024-02-27 10:20:01.738987,1709025601.7389867,-19.53125,999.51171875,-45.8984375,-23.4375,1.0,-1.0,1.0,0.0,2.m4v,2.0
2024-02-27 10:20:01.742892,1709025601.7428918,-20.5078125,937.01171875,-38.57421875,-29.78515625,1.0,-1.0,1.0,0.0,2.m4v,2.0
2024-02-27 10:20:01.746797,1709025601.746797,-33.69140625,951.66015625,-37.59765625,-44.43359375,1.0,-1.0,1.0,0.0,2.m4v,2.0
2024-02-27 10:20:01.750702,1709025601.7507024,-43.9453125,974.12109375,-39.0625,-47.8515625,1.0,-1.0,1.0,0.0,2.m4v,2.0
2024-02-27 10:20:01.754607,1709025601.7546074,-36.1328125,969.7265625,-32.71484375,-47.36328125,1.0,-1.0,1.0,0.0,2.m4v,2.0
2024-02-27 10:20:01.758513,1709025601.7585127,-28.3203125,969.7265625,-32.2265625,-44.921875,1.0,-1.0,1.0,0.0,2.m4v,2.0
2024-02-27 10:20:01.762428,1709025601.7624276,-36.1328125,969.7265625,-28.80859375,-43.9453125,1.0,-1.0,1.0,0.0,2.m4v,2.0
2024-02-27 10:20:01.766333,1709025601.7663329,-34.66796875,969.7265625,-29.78515625,-42.48046875,1.0,-1.0,1.0,0.0,2.m4v,2.0
2024-02-27 10:20:01.770238,1709025601.770238,-26.85546875,969.7265625,-30.76171875,-37.59765625,1.0,-1.0,1.0,0.0,2.m4v,2.0
2024-02-27 10:20:01.774143,1709025601.7741432,-21.97265625,969.7265625,-26.85546875,-35.15625,1.0,-1.0,1.0,0.0,2.m4v,2.0
2024-02-27 10:20:01.778049,1709025601.7780485,-20.01953125,981.93359375,-26.85546875,-45.41015625,1.0,-1.0,1.0,0.0,2.m4v,2.0
2024-02-27 10:20:01.781954,1709025601.7819536,-28.80859375,900.87890625,-29.78515625,-50.78125,1.0,-1.0,1.0,0.0,2.m4v,2.0
2024-02-27 10:20:01.785859,1709025601.7858589,-34.1796875,999.51171875,-33.69140625,-45.41015625,1.0,-1.0,1.0,0.0,2.m4v,2.0
2024-02-27 10:20:01.789764,1709025601.7897642,-28.3203125,520.99609375,-34.1796875,-45.41015625,1.0,-1.0,1.0,0.0,2.m4v,2.0
2024-02-27 10:20:01.793669,1709025601.7936692,-26.3671875,-883.7890625,-31.73828125,-44.43359375,1.0,-1.0,1.0,0.0,2.m4v,2.0
2024-02-27 10:20:01.797575,1709025601.7975743,-24.4140625,-1000.0,-28.3203125,-41.50390625,1.0,-1.0,1.0,0.0,2.m4v,2.0
2024-02-27 10:20:01.801480,1709025601.8014798,-29.296875,-948.2421875,-19.04296875,-36.1328125,1.0,-1.0,1.0,0.0,2.m4v,2.0
2024-02-27 10:20:01.805385,1709025601.8053849,-33.69140625,-1000.0,-18.5546875,-33.69140625,1.0,-1.0,1.0,0.0,2.m4v,2.0
2024-02-27 10:20:01.809299,1709025601.8092992,-27.83203125,-1000.0,-24.4140625,-31.25,1.0,-1.0,1.0,0.0,2.m4v,2.0
2024-02-27 10:20:01.813205,1709025601.8132043,-26.85546875,-1000.0,-23.4375,-22.94921875,1.0,-1.0,1.0,0.0,2.m4v,2.0
2024-02-27 10:20:01.813205,1709025601.8132043,-26.85546875,-1000.0,-23.4375,-22.94921875,1.0,-1.0,1.0,0.0,2.m4v,2.0
2024-02-27 10:20:01.817110,1709025601.8171098,-34.66796875,-1000.0,-23.92578125,-29.78515625,1.0,-1.0,1.0,0.0,2.m4v,2.0
2024-02-27 10:20:01.817110,1709025601.8171098,-34.66796875,-1000.0,-23.92578125,-29.78515625,1.0,-1.0,1.0,0.0,2.m4v,2.0
2024-02-27 10:20:01.821015,1709025601.821015,-37.109375,-929.19921875,-29.78515625,-48.33984375,1.0,-1.0,1.0,0.0,2.m4v,2.0
2024-02-27 10:20:01.821015,1709025601.821015,-37.109375,-929.19921875,-29.78515625,-48.33984375,1.0,-1.0,1.0,0.0,2.m4v,2.0
2024-02-27 10:20:01.824920,1709025601.8249202,-50.78125,-1000.0,-29.296875,-53.22265625,1.0,-1.0,1.0,0.0,2.m4v,2.0
2024-02-27 10:20:01.824920,1709025601.8249202,-50.78125,-1000.0,-29.296875,-53.22265625,1.0,-1.0,1.0,0.0,2.m4v,2.0
2024-02-27 10:20:01.828825,1709025601.8288257,-55.6640625,-391.11328125,-23.92578125,-47.8515625,1.0,-1.0,1.0,0.0,2.m4v,2.0
2024-02-27 10:20:01.828825,1709025601.8288257,-55.6640625,-391.11328125,-23.92578125,-47.8515625,1.0,-1.0,1.0,0.0,2.m4v,2.0
2024-02-27 10:20:01.832731,1709025601.8327303,-35.64453125,972.16796875,-23.92578125,-38.57421875,1.0,-1.0,1.0,0.0,2.m4v,2.0
2024-02-27 10:20:01.832731,1709025601.8327303,-35.64453125,972.16796875,-23.92578125,-38.57421875,1.0,-1.0,1.0,0.0,2.m4v,2.0
2024-02-27 10:20:01.836636,1709025601.8366358,-30.2734375,983.3984375,-20.5078125,-32.71484375,1.0,-1.0,1.0,0.0,2.m4v,2.0
2024-02-27 10:20:01.836636,1709025601.8366358,-30.2734375,983.3984375,-20.5078125,-32.71484375,1.0,-1.0,1.0,0.0,2.m4v,2.0
2024-02-27 10:20:01.840541,1709025601.8405411,-33.203125,928.7109375,-17.578125,-34.66796875,1.0,-1.0,1.0,0.0,2.m4v,2.0
2024-02-27 10:20:01.840541,1709025601.8405411,-33.203125,928.7109375,-17.578125,-34.66796875,1.0,-1.0,1.0,0.0,2.m4v,2.0
2024-02-27 10:20:01.844446,1709025601.8444462,-27.83203125,980.95703125,-17.578125,-39.0625,1.0,-1.0,1.0,0.0,2.m4v,2.0
2024-02-27 10:20:01.844446,1709025601.8444462,-27.83203125,980.95703125,-17.578125,-39.0625,1.0,-1.0,1.0,0.0,2.m4v,2.0
2024-02-27 10:20:01.848351,1709025601.8483517,-34.1796875,969.7265625,-24.4140625,-36.62109375,1.0,-1.0,1.0,0.0,2.m4v,2.0
2024-02-27 10:20:01.848351,1709025601.8483517,-34.1796875,969.7265625,-24.4140625,-36.62109375,1.0,-1.0,1.0,0.0,2.m4v,2.0
2024-02-27 10:20:01.852257,1709025601.8522568,-39.0625,970.21484375,-34.1796875,-33.203125,1.0,-1.0,1.0,0.0,2.m4v,2.0
2024-02-27 10:20:01.852257,1709025601.8522568,-39.0625,970.21484375,-34.1796875,-33.203125,1.0,-1.0,1.0,0.0,2.m4v,2.0
2024-02-27 10:20:01.856171,1709025601.856171,-21.484375,969.7265625,-22.94921875,-32.71484375,1.0,-1.0,1.0,0.0,2.m4v,2.0
2024-02-27 10:20:01.856171,1709025601.856171,-21.484375,969.7265625,-22.94921875,-32.71484375,1.0,-1.0,1.0,0.0,2.m4v,2.0
2024-02-27 10:20:01.860076,1709025601.860076,-22.94921875,969.7265625,-13.18359375,-29.296875,1.0,-1.0,1.0,0.0,2.m4v,2.0
2024-02-27 10:20:01.860076,1709025601.860076,-22.94921875,969.7265625,-13.18359375,-29.296875,1.0,-1.0,1.0,0.0,2.m4v,2.0
2024-02-27 10:20:01.863981,1709025601.863981,-48.33984375,969.7265625,-20.5078125,-29.78515625,1.0,-1.0,1.0,0.0,2.m4v,2.0
2024-02-27 10:20:01.863981,1709025601.863981,-48.33984375,969.7265625,-20.5078125,-29.78515625,1.0,-1.0,1.0,0.0,2.m4v,2.0
2024-02-27 10:20:01.867886,1709025601.8678863,-58.59375,971.6796875,-25.390625,-25.87890625,1.0,-1.0,1.0,0.0,2.m4v,2.0
2024-02-27 10:20:01.867886,1709025601.8678863,-58.59375,971.6796875,-25.390625,-25.87890625,1.0,-1.0,1.0,0.0,2.m4v,2.0
2024-02-27 10:20:01.871791,1709025601.8717914,-58.59375,962.40234375,-27.34375,-22.4609375,1.0,-1.0,1.0,0.0,2.m4v,2.0
2024-02-27 10:20:01.871791,1709025601.8717914,-58.59375,962.40234375,-27.34375,-22.4609375,1.0,-1.0,1.0,0.0,2.m4v,2.0
2024-02-27 10:20:01.875697,1709025601.875697,-52.734375,919.43359375,-25.87890625,-22.94921875,1.0,-1.0,1.0,0.0,2.m4v,2.0
2024-02-27 10:20:01.875697,1709025601.875697,-52.734375,919.43359375,-25.87890625,-22.94921875,1.0,-1.0,1.0,0.0,2.m4v,2.0
2024-02-27 10:20:01.879602,1709025601.879602,-54.6875,999.51171875,-26.3671875,-19.53125,1.0,-1.0,1.0,0.0,2.m4v,2.0
2024-02-27 10:20:01.879602,1709025601.879602,-54.6875,999.51171875,-26.3671875,-19.53125,1.0,-1.0,1.0,0.0,2.m4v,2.0
2024-02-27 10:20:01.883507,1709025601.883507,-71.77734375,63.96484375,-26.85546875,-31.73828125,1.0,-1.0,1.0,0.0,2.m4v,2.0
2024-02-27 10:20:01.883507,1709025601.883507,-71.77734375,63.96484375,-26.85546875,-31.73828125,1.0,-1.0,1.0,0.0,2.m4v,2.0
2024-02-27 10:20:01.887412,1709025601.8874123,-88.37890625,-1000.0,-29.296875,-45.8984375,1.0,-1.0,1.0,0.0,2.m4v,2.0
2024-02-27 10:20:01.887412,1709025601.8874123,-88.37890625,-1000.0,-29.296875,-45.8984375,1.0,-1.0,1.0,0.0,2.m4v,2.0
2024-02-27 10:20:01.891318,1709025601.8913176,-88.8671875,-968.26171875,-37.109375,-39.55078125,1.0,-1.0,1.0,0.0,2.m4v,2.0
2024-02-27 10:20:01.891318,1709025601.8913176,-88.8671875,-968.26171875,-37.109375,-39.55078125,1.0,-1.0,1.0,0.0,2.m4v,2.0
2024-02-27 10:20:01.895223,1709025601.895223,-80.078125,-981.93359375,-43.45703125,-37.59765625,1.0,-1.0,1.0,0.0,2.m4v,2.0
2024-02-27 10:20:01.895223,1709025601.895223,-80.078125,-981.93359375,-43.45703125,-37.59765625,1.0,-1.0,1.0,0.0,2.m4v,2.0
2024-02-27 10:20:01.899128,1709025601.899128,-77.63671875,-1000.0,-32.71484375,-39.55078125,1.0,-1.0,1.0,0.0,2.m4v,2.0
2024-02-27 10:20:01.899128,1709025601.899128,-77.63671875,-1000.0,-32.71484375,-39.55078125,1.0,-1.0,1.0,0.0,2.m4v,2.0
2024-02-27 10:20:01.903042,1709025601.9030416,-84.47265625,-1000.0,-24.4140625,-36.62109375,1.0,-1.0,1.0,0.0,2.m4v,2.0
2024-02-27 10:20:01.903042,1709025601.9030416,-84.47265625,-1000.0,-24.4140625,-36.62109375,1.0,-1.0,1.0,0.0,2.m4v,2.0
2024-02-27 10:20:01.906947,1709025601.906947,-86.9140625,-1000.0,-25.390625,-37.109375,1.0,-1.0,1.0,0.0,2.m4v,2.0
2024-02-27 10:20:01.906947,1709025601.906947,-86.9140625,-1000.0,-25.390625,-37.109375,1.0,-1.0,1.0,0.0,2.m4v,2.0
2024-02-27 10:20:01.910852,1709025601.910852,-83.0078125,-1000.0,-17.08984375,-33.69140625,1.0,-1.0,1.0,0.0,2.m4v,2.0
2024-02-27 10:20:01.910852,1709025601.910852,-83.0078125,-1000.0,-17.08984375,-33.69140625,1.0,-1.0,1.0,0.0,2.m4v,2.0
2024-02-27 10:20:01.914757,1709025601.9147573,-74.21875,-935.05859375,-8.7890625,-32.71484375,1.0,-1.0,1.0,0.0,2.m4v,2.0
2024-02-27 10:20:01.914757,1709025601.9147573,-74.21875,-935.05859375,-8.7890625,-32.71484375,1.0,-1.0,1.0,0.0,2.m4v,2.0
2024-02-27 10:20:01.918662,1709025601.9186623,-79.1015625,-1000.0,-8.30078125,-41.015625,1.0,-1.0,1.0,0.0,2.m4v,2.0
2024-02-27 10:20:01.918662,1709025601.9186623,-79.1015625,-1000.0,-8.30078125,-41.015625,1.0,-1.0,1.0,0.0,2.m4v,2.0
2024-02-27 10:20:01.922568,1709025601.9225676,-77.1484375,-687.01171875,-11.71875,-41.50390625,1.0,-1.0,1.0,0.0,2.m4v,2.0
2024-02-27 10:20:01.922568,1709025601.9225676,-77.1484375,-687.01171875,-11.71875,-41.50390625,1.0,-1.0,1.0,0.0,2.m4v,2.0
2024-02-27 10:20:01.926473,1709025601.926473,-53.7109375,737.79296875,-8.7890625,-28.3203125,1.0,-1.0,1.0,0.0,2.m4v,2.0
2024-02-27 10:20:01.926473,1709025601.926473,-53.7109375,737.79296875,-8.7890625,-28.3203125,1.0,-1.0,1.0,0.0,2.m4v,2.0
2024-02-27 10:20:01.930378,1709025601.930378,-54.19921875,999.51171875,-11.71875,-28.3203125,1.0,-1.0,1.0,0.0,2.m4v,2.0
2024-02-27 10:20:01.930378,1709025601.930378,-54.19921875,999.51171875,-11.71875,-28.3203125,1.0,-1.0,1.0,0.0,2.m4v,2.0
2024-02-27 10:20:01.934283,1709025601.9342833,-62.98828125,909.66796875,-24.4140625,-30.2734375,1.0,-1.0,1.0,0.0,2.m4v,2.0
2024-02-27 10:20:01.934283,1709025601.9342833,-62.98828125,909.66796875,-24.4140625,-30.2734375,1.0,-1.0,1.0,0.0,2.m4v,2.0
2024-02-27 10:20:01.938189,1709025601.9381886,-54.19921875,983.3984375,-28.3203125,-28.80859375,1.0,-1.0,1.0,0.0,2.m4v,2.0
2024-02-27 10:20:01.938189,1709025601.9381886,-54.19921875,983.3984375,-28.3203125,-28.80859375,1.0,-1.0,1.0,0.0,2.m4v,2.0
2024-02-27 10:20:01.942094,1709025601.9420936,-58.59375,969.7265625,-22.4609375,-23.92578125,1.0,-1.0,1.0,0.0,2.m4v,2.0
2024-02-27 10:20:01.942094,1709025601.9420936,-58.59375,969.7265625,-22.4609375,-23.92578125,1.0,-1.0,1.0,0.0,2.m4v,2.0
2024-02-27 10:20:01.945999,1709025601.945999,-68.359375,969.7265625,-20.01953125,-32.71484375,1.0,-1.0,1.0,0.0,2.m4v,2.0
2024-02-27 10:20:01.945999,1709025601.945999,-68.359375,969.7265625,-20.01953125,-32.71484375,1.0,-1.0,1.0,0.0,2.m4v,2.0
2024-02-27 10:20:01.949912,1709025601.949912,-66.89453125,969.7265625,-24.4140625,-37.59765625,1.0,-1.0,1.0,0.0,2.m4v,2.0
2024-02-27 10:20:01.949912,1709025601.949912,-66.89453125,969.7265625,-24.4140625,-37.59765625,1.0,-1.0,1.0,0.0,2.m4v,2.0
2024-02-27 10:20:01.953817,1709025601.9538174,-62.5,969.7265625,-26.3671875,-35.15625,1.0,-1.0,1.0,0.0,2.m4v,2.0
2024-02-27 10:20:01.953817,1709025601.9538174,-62.5,969.7265625,-26.3671875,-35.15625,1.0,-1.0,1.0,0.0,2.m4v,2.0
2024-02-27 10:20:01.957722,1709025601.9577224,-72.265625,969.7265625,-30.76171875,-43.9453125,1.0,-1.0,1.0,0.0,2.m4v,2.0
2024-02-27 10:20:01.957722,1709025601.9577224,-72.265625,969.7265625,-30.76171875,-43.9453125,1.0,-1.0,1.0,0.0,2.m4v,2.0
2024-02-27 10:20:01.961628,1709025601.9616275,-91.796875,969.7265625,-36.1328125,-45.41015625,1.0,-1.0,1.0,0.0,2.m4v,2.0
2024-02-27 10:20:01.961628,1709025601.9616275,-91.796875,969.7265625,-36.1328125,-45.41015625,1.0,-1.0,1.0,0.0,2.m4v,2.0
2024-02-27 10:20:01.965533,1709025601.965533,-86.42578125,969.7265625,-38.57421875,-41.015625,1.0,-1.0,1.0,0.0,2.m4v,2.0
2024-02-27 10:20:01.965533,1709025601.965533,-86.42578125,969.7265625,-38.57421875,-41.015625,1.0,-1.0,1.0,0.0,2.m4v,2.0
2024-02-27 10:20:01.969438,1709025601.969438,-75.68359375,969.7265625,-44.43359375,-37.59765625,1.0,-1.0,1.0,0.0,2.m4v,2.0
2024-02-27 10:20:01.969438,1709025601.969438,-75.68359375,969.7265625,-44.43359375,-37.59765625,1.0,-1.0,1.0,0.0,2.m4v,2.0
2024-02-27 10:20:01.973343,1709025601.9733434,-77.63671875,969.7265625,-50.78125,-35.64453125,1.0,-1.0,1.0,0.0,2.m4v,2.0
2024-02-27 10:20:01.973343,1709025601.9733434,-77.63671875,969.7265625,-50.78125,-35.64453125,1.0,-1.0,1.0,0.0,2.m4v,2.0
2024-02-27 10:20:01.977249,1709025601.977249,-81.0546875,983.3984375,-54.19921875,-38.0859375,1.0,-1.0,1.0,0.0,2.m4v,2.0
2024-02-27 10:20:01.977249,1709025601.977249,-81.0546875,983.3984375,-54.19921875,-38.0859375,1.0,-1.0,1.0,0.0,2.m4v,2.0
2024-02-27 10:20:01.981154,1709025601.9811535,-77.1484375,905.2734375,-44.921875,-44.921875,1.0,-1.0,1.0,0.0,2.m4v,2.0
2024-02-27 10:20:01.981154,1709025601.9811535,-77.1484375,905.2734375,-44.921875,-44.921875,1.0,-1.0,1.0,0.0,2.m4v,2.0
2024-02-27 10:20:01.985059,1709025601.985059,-69.3359375,999.51171875,-41.50390625,-41.9921875,1.0,-1.0,1.0,0.0,2.m4v,2.0
2024-02-27 10:20:01.985059,1709025601.985059,-69.3359375,999.51171875,-41.50390625,-41.9921875,1.0,-1.0,1.0,0.0,2.m4v,2.0
2024-02-27 10:20:01.988964,1709025601.9889643,-68.84765625,655.2734375,-47.8515625,-34.66796875,1.0,-1.0,1.0,0.0,2.m4v,2.0
2024-02-27 10:20:01.988964,1709025601.9889643,-68.84765625,655.2734375,-47.8515625,-34.66796875,1.0,-1.0,1.0,0.0,2.m4v,2.0
2024-02-27 10:20:01.992869,1709025601.9928694,-63.96484375,-762.6953125,-49.31640625,-40.0390625,1.0,-1.0,1.0,0.0,2.m4v,2.0
2024-02-27 10:20:01.992869,1709025601.9928694,-63.96484375,-762.6953125,-49.31640625,-40.0390625,1.0,-1.0,1.0,0.0,2.m4v,2.0
2024-02-27 10:20:01.996782,1709025601.9967823,-59.5703125,-1000.0,-50.78125,-43.45703125,1.0,-1.0,1.0,0.0,2.m4v,2.0
2024-02-27 10:20:01.996782,1709025601.9967823,-59.5703125,-1000.0,-50.78125,-43.45703125,1.0,-1.0,1.0,0.0,2.m4v,2.0
2024-02-27 10:20:02.000688,1709025602.0006876,-64.453125,-940.91796875,-42.48046875,-37.59765625,1.0,-1.0,1.0,0.0,2.m4v,2.0
2024-02-27 10:20:02.000688,1709025602.0006876,-64.453125,-940.91796875,-42.48046875,-37.59765625,1.0,-1.0,1.0,0.0,2.m4v,2.0
2024-02-27 10:20:02.004593,1709025602.004593,-67.3828125,-1000.0,-29.296875,-26.85546875,1.0,-1.0,1.0,0.0,2.m4v,2.0
2024-02-27 10:20:02.004593,1709025602.004593,-67.3828125,-1000.0,-29.296875,-26.85546875,1.0,-1.0,1.0,0.0,2.m4v,2.0
2024-02-27 10:20:02.008498,1709025602.008498,-66.89453125,-931.640625,-23.92578125,-34.1796875,1.0,-1.0,1.0,0.0,2.m4v,2.0
2024-02-27 10:20:02.008498,1709025602.008498,-66.89453125,-931.640625,-23.92578125,-34.1796875,1.0,-1.0,1.0,0.0,2.m4v,2.0
2024-02-27 10:20:02.012403,1709025602.0124032,-61.03515625,-1000.0,-23.4375,-43.45703125,1.0,-1.0,1.0,0.0,2.m4v,2.0
2024-02-27 10:20:02.012403,1709025602.0124032,-61.03515625,-1000.0,-23.4375,-43.45703125,1.0,-1.0,1.0,0.0,2.m4v,2.0
2024-02-27 10:20:02.016308,1709025602.0163083,-55.6640625,-332.03125,-23.4375,-38.57421875,1.0,-1.0,1.0,0.0,2.m4v,2.0
2024-02-27 10:20:02.016308,1709025602.0163083,-55.6640625,-332.03125,-23.4375,-38.57421875,1.0,-1.0,1.0,0.0,2.m4v,2.0
2024-02-27 10:20:02.020214,1709025602.0202136,-57.6171875,998.53515625,-21.484375,-35.64453125,1.0,-1.0,1.0,0.0,2.m4v,2.0
2024-02-27 10:20:02.020214,1709025602.0202136,-57.6171875,998.53515625,-21.484375,-35.64453125,1.0,-1.0,1.0,0.0,2.m4v,2.0
2024-02-27 10:20:02.024119,1709025602.024119,-60.546875,972.65625,-16.6015625,-38.57421875,1.0,-1.0,1.0,0.0,2.m4v,2.0
2024-02-27 10:20:02.024119,1709025602.024119,-60.546875,972.65625,-16.6015625,-38.57421875,1.0,-1.0,1.0,0.0,2.m4v,2.0
2024-02-27 10:20:02.028024,1709025602.028024,-57.12890625,933.10546875,-17.08984375,-33.69140625,1.0,-1.0,1.0,0.0,2.m4v,2.0
2024-02-27 10:20:02.028024,1709025602.028024,-57.12890625,933.10546875,-17.08984375,-33.69140625,1.0,-1.0,1.0,0.0,2.m4v,2.0
2024-02-27 10:20:02.031929,1709025602.0319293,-54.19921875,979.4921875,-23.92578125,-37.109375,1.0,-1.0,1.0,0.0,2.m4v,2.0
2024-02-27 10:20:02.031929,1709025602.0319293,-54.19921875,979.4921875,-23.92578125,-37.109375,1.0,-1.0,1.0,0.0,2.m4v,2.0
2024-02-27 10:20:02.035834,1709025602.0358343,-50.29296875,969.7265625,-28.3203125,-41.015625,1.0,-1.0,1.0,0.0,2.m4v,2.0
2024-02-27 10:20:02.035834,1709025602.0358343,-50.29296875,969.7265625,-28.3203125,-41.015625,1.0,-1.0,1.0,0.0,2.m4v,2.0
2024-02-27 10:20:02.039740,1709025602.0397396,-35.15625,969.7265625,-29.296875,-37.59765625,1.0,-1.0,1.0,0.0,2.m4v,2.0
2024-02-27 10:20:02.039740,1709025602.0397396,-35.15625,969.7265625,-29.296875,-37.59765625,1.0,-1.0,1.0,0.0,2.m4v,2.0
2024-02-27 10:20:02.043655,1709025602.0436554,-31.25,969.7265625,-34.1796875,-41.50390625,1.0,-1.0,1.0,0.0,2.m4v,2.0
2024-02-27 10:20:02.043655,1709025602.0436554,-31.25,969.7265625,-34.1796875,-41.50390625,1.0,-1.0,1.0,0.0,2.m4v,2.0
2024-02-27 10:20:02.047560,1709025602.0475605,-45.41015625,969.7265625,-31.25,-43.9453125,1.0,-1.0,1.0,0.0,2.m4v,2.0
2024-02-27 10:20:02.047560,1709025602.0475605,-45.41015625,969.7265625,-31.25,-43.9453125,1.0,-1.0,1.0,0.0,2.m4v,2.0
2024-02-27 10:20:02.051466,1709025602.0514655,-47.36328125,969.7265625,-23.4375,-40.0390625,1.0,-1.0,1.0,0.0,2.m4v,2.0
2024-02-27 10:20:02.051466,1709025602.0514655,-47.36328125,969.7265625,-23.4375,-40.0390625,1.0,-1.0,1.0,0.0,2.m4v,2.0
2024-02-27 10:20:02.055371,1709025602.055371,-39.55078125,970.21484375,-23.4375,-40.0390625,1.0,-1.0,1.0,0.0,2.m4v,2.0
2024-02-27 10:20:02.055371,1709025602.055371,-39.55078125,970.21484375,-23.4375,-40.0390625,1.0,-1.0,1.0,0.0,2.m4v,2.0
2024-02-27 10:20:02.059276,1709025602.059276,-32.2265625,970.21484375,-14.6484375,-39.55078125,1.0,-1.0,1.0,0.0,2.m4v,2.0
2024-02-27 10:20:02.059276,1709025602.059276,-32.2265625,970.21484375,-14.6484375,-39.55078125,1.0,-1.0,1.0,0.0,2.m4v,2.0
2024-02-27 10:20:02.063181,1709025602.0631814,-36.62109375,907.71484375,-7.32421875,-30.76171875,1.0,-1.0,1.0,0.0,2.m4v,2.0
2024-02-27 10:20:02.063181,1709025602.0631814,-36.62109375,907.71484375,-7.32421875,-30.76171875,1.0,-1.0,1.0,0.0,2.m4v,2.0
2024-02-27 10:20:02.067087,1709025602.0670867,-48.33984375,999.51171875,-12.20703125,-35.64453125,1.0,-1.0,1.0,0.0,2.m4v,2.0
2024-02-27 10:20:02.067087,1709025602.0670867,-48.33984375,999.51171875,-12.20703125,-35.64453125,1.0,-1.0,1.0,0.0,2.m4v,2.0
2024-02-27 10:20:02.070992,1709025602.0709918,-49.8046875,183.10546875,-7.32421875,-49.31640625,1.0,-1.0,1.0,0.0,2.m4v,2.0
2024-02-27 10:20:02.070992,1709025602.0709918,-49.8046875,183.10546875,-7.32421875,-49.31640625,1.0,-1.0,1.0,0.0,2.m4v,2.0
2024-02-27 10:20:02.074897,1709025602.074897,-48.33984375,-1000.0,-5.37109375,-48.828125,1.0,-1.0,1.0,0.0,2.m4v,2.0
2024-02-27 10:20:02.074897,1709025602.074897,-48.33984375,-1000.0,-5.37109375,-48.828125,1.0,-1.0,1.0,0.0,2.m4v,2.0
2024-02-27 10:20:02.078802,1709025602.0788023,-41.015625,-982.91015625,-17.08984375,-45.8984375,1.0,-1.0,1.0,0.0,2.m4v,2.0
2024-02-27 10:20:02.078802,1709025602.0788023,-41.015625,-982.91015625,-17.08984375,-45.8984375,1.0,-1.0,1.0,0.0,2.m4v,2.0
2024-02-27 10:20:02.082707,1709025602.0827074,-37.109375,-973.6328125,-20.01953125,-46.38671875,1.0,-1.0,1.0,0.0,2.m4v,2.0
2024-02-27 10:20:02.082707,1709025602.0827074,-37.109375,-973.6328125,-20.01953125,-46.38671875,1.0,-1.0,1.0,0.0,2.m4v,2.0
2024-02-27 10:20:02.086613,1709025602.0866127,-50.29296875,-1000.0,-20.01953125,-51.26953125,1.0,-1.0,1.0,0.0,2.m4v,2.0
2024-02-27 10:20:02.086613,1709025602.0866127,-50.29296875,-1000.0,-20.01953125,-51.26953125,1.0,-1.0,1.0,0.0,2.m4v,2.0
2024-02-27 10:20:02.090528,1709025602.090528,-41.50390625,-1000.0,-23.92578125,-47.8515625,1.0,-1.0,1.0,0.0,2.m4v,2.0
2024-02-27 10:20:02.090528,1709025602.090528,-41.50390625,-1000.0,-23.92578125,-47.8515625,1.0,-1.0,1.0,0.0,2.m4v,2.0
2024-02-27 10:20:02.094433,1709025602.094433,-29.296875,-1000.0,-29.296875,-47.8515625,1.0,-1.0,1.0,0.0,2.m4v,2.0
2024-02-27 10:20:02.094433,1709025602.094433,-29.296875,-1000.0,-29.296875,-47.8515625,1.0,-1.0,1.0,0.0,2.m4v,2.0
2024-02-27 10:20:02.098338,1709025602.0983384,-39.55078125,-935.05859375,-33.69140625,-50.78125,1.0,-1.0,1.0,0.0,2.m4v,2.0
2024-02-27 10:20:02.098338,1709025602.0983384,-39.55078125,-935.05859375,-33.69140625,-50.78125,1.0,-1.0,1.0,0.0,2.m4v,2.0
2024-02-27 10:20:02.102244,1709025602.1022437,-37.109375,-1000.0,-24.4140625,-40.0390625,1.0,-1.0,1.0,0.0,2.m4v,2.0
2024-02-27 10:20:02.102244,1709025602.1022437,-37.109375,-1000.0,-24.4140625,-40.0390625,1.0,-1.0,1.0,0.0,2.m4v,2.0
2024-02-27 10:20:02.106149,1709025602.1061487,-30.2734375,-462.40234375,-16.11328125,-38.0859375,1.0,-1.0,1.0,0.0,2.m4v,2.0
2024-02-27 10:20:02.106149,1709025602.1061487,-30.2734375,-462.40234375,-16.11328125,-38.0859375,1.0,-1.0,1.0,0.0,2.m4v,2.0
2024-02-27 10:20:02.110054,1709025602.110054,-22.94921875,895.5078125,-20.5078125,-33.203125,1.0,-1.0,1.0,0.0,2.m4v,2.0
2024-02-27 10:20:02.110054,1709025602.110054,-22.94921875,895.5078125,-20.5078125,-33.203125,1.0,-1.0,1.0,0.0,2.m4v,2.0
2024-02-27 10:20:02.113959,1709025602.1139593,-17.578125,999.51171875,-27.83203125,-26.85546875,1.0,-1.0,1.0,0.0,2.m4v,2.0
2024-02-27 10:20:02.113959,1709025602.1139593,-17.578125,999.51171875,-27.83203125,-26.85546875,1.0,-1.0,1.0,0.0,2.m4v,2.0
2024-02-27 10:20:02.117864,1709025602.1178644,-17.578125,923.828125,-27.34375,-35.64453125,1.0,-1.0,1.0,0.0,2.m4v,2.0
2024-02-27 10:20:02.117864,1709025602.1178644,-17.578125,923.828125,-27.34375,-35.64453125,1.0,-1.0,1.0,0.0,2.m4v,2.0
2024-02-27 10:20:02.121770,1709025602.1217697,-9.27734375,981.4453125,-27.83203125,-33.203125,1.0,-1.0,1.0,0.0,2.m4v,2.0
2024-02-27 10:20:02.121770,1709025602.1217697,-9.27734375,981.4453125,-27.83203125,-33.203125,1.0,-1.0,1.0,0.0,2.m4v,2.0
2024-02-27 10:20:02.125675,1709025602.125675,-17.578125,969.7265625,-30.2734375,-22.94921875,1.0,-1.0,1.0,0.0,2.m4v,2.0
2024-02-27 10:20:02.125675,1709025602.125675,-17.578125,969.7265625,-30.2734375,-22.94921875,1.0,-1.0,1.0,0.0,2.m4v,2.0
2024-02-27 10:20:02.129580,1709025602.12958,-43.45703125,969.7265625,-27.83203125,-29.296875,1.0,-1.0,1.0,0.0,2.m4v,2.0
2024-02-27 10:20:02.129580,1709025602.12958,-43.45703125,969.7265625,-27.83203125,-29.296875,1.0,-1.0,1.0,0.0,2.m4v,2.0
2024-02-27 10:20:02.133485,1709025602.1334853,-46.38671875,969.7265625,-27.83203125,-42.96875,1.0,-1.0,1.0,0.0,2.m4v,2.0
2024-02-27 10:20:02.133485,1709025602.1334853,-46.38671875,969.7265625,-27.83203125,-42.96875,1.0,-1.0,1.0,0.0,2.m4v,2.0
2024-02-27 10:20:02.137400,1709025602.1374002,-34.66796875,969.7265625,-31.25,-45.8984375,1.0,-1.0,1.0,0.0,2.m4v,2.0
2024-02-27 10:20:02.137400,1709025602.1374002,-34.66796875,969.7265625,-31.25,-45.8984375,1.0,-1.0,1.0,0.0,2.m4v,2.0
2024-02-27 10:20:02.141305,1709025602.1413054,-27.83203125,969.7265625,-29.296875,-41.9921875,1.0,-1.0,1.0,0.0,2.m4v,2.0
2024-02-27 10:20:02.141305,1709025602.1413054,-27.83203125,969.7265625,-29.296875,-41.9921875,1.0,-1.0,1.0,0.0,2.m4v,2.0
2024-02-27 10:20:02.149116,1709025602.1491158,-24.90234375,969.7265625,-22.94921875,-38.0859375,1.0,-1.0,1.0,0.0,2.m4v,2.0
2024-02-27 10:20:02.149116,1709025602.1491158,-24.90234375,969.7265625,-22.94921875,-38.0859375,1.0,-1.0,1.0,0.0,2.m4v,2.0
2024-02-27 10:20:02.160831,1709025602.1608317,-28.3203125,906.73828125,-32.71484375,-40.0390625,1.0,-1.0,1.0,0.0,2.m4v,2.0
2024-02-27 10:20:02.160831,1709025602.1608317,-28.3203125,906.73828125,-32.71484375,-40.0390625,1.0,-1.0,1.0,0.0,2.m4v,2.0
2024-02-27 10:20:02.168642,1709025602.168642,-36.1328125,195.3125,-35.15625,-44.43359375,1.0,-1.0,1.0,0.0,2.m4v,2.0
2024-02-27 10:20:02.168642,1709025602.168642,-36.1328125,195.3125,-35.15625,-44.43359375,1.0,-1.0,1.0,0.0,2.m4v,2.0
2024-02-27 10:20:02.180357,1709025602.1803577,-24.90234375,-972.65625,-40.52734375,-32.71484375,1.0,-1.0,1.0,0.0,2.m4v,2.0
2024-02-27 10:20:02.180357,1709025602.1803577,-24.90234375,-972.65625,-40.52734375,-32.71484375,1.0,-1.0,1.0,0.0,2.m4v,2.0
2024-02-27 10:20:02.192082,1709025602.1920824,-12.6953125,-1000.0,-49.8046875,-38.0859375,1.0,-1.0,1.0,0.0,2.m4v,2.0
2024-02-27 10:20:02.192082,1709025602.1920824,-12.6953125,-1000.0,-49.8046875,-38.0859375,1.0,-1.0,1.0,0.0,2.m4v,2.0
2024-02-27 10:20:02.199893,1709025602.199893,-14.6484375,-1000.0,-42.48046875,-37.109375,1.0,-1.0,1.0,0.0,2.m4v,2.0
2024-02-27 10:20:02.199893,1709025602.199893,-14.6484375,-1000.0,-42.48046875,-37.109375,1.0,-1.0,1.0,0.0,2.m4v,2.0
2024-02-27 10:20:02.211609,1709025602.2116086,-37.109375,993.65234375,-46.875,-28.80859375,1.0,-1.0,1.0,0.0,2.m4v,2.0
2024-02-27 10:20:02.211609,1709025602.2116086,-37.109375,993.65234375,-46.875,-28.80859375,1.0,-1.0,1.0,0.0,2.m4v,2.0
2024-02-27 10:20:02.223324,1709025602.2233243,-47.36328125,969.7265625,-46.875,-27.34375,1.0,-1.0,1.0,0.0,2.m4v,2.0
2024-02-27 10:20:02.231143,1709025602.2311432,-47.8515625,899.4140625,-57.6171875,-32.2265625,1.0,-1.0,1.0,0.0,2.m4v,2.0
2024-02-27 10:20:02.242859,1709025602.242859,-43.45703125,-906.73828125,-46.38671875,-38.57421875,1.0,-1.0,1.0,0.0,2.m4v,2.0
2024-02-27 10:20:02.656895,1709025602.656895,-54.6875,908.203125,-60.546875,-38.57421875,1.0,-1.0,1.0,0.0,2.m4v,2.0
2024-02-27 10:20:02.660800,1709025602.6608002,-55.6640625,999.51171875,-51.7578125,-41.015625,1.0,-1.0,1.0,0.0,2.m4v,2.0
2024-02-27 10:20:02.664706,1709025602.6647055,-76.171875,176.7578125,-52.734375,-48.828125,1.0,-1.0,1.0,0.0,2.m4v,2.0
2024-02-27 10:20:02.668611,1709025602.6686106,-85.44921875,-1000.0,-57.12890625,-51.26953125,1.0,-1.0,1.0,0.0,2.m4v,2.0
2024-02-27 10:20:02.672516,1709025602.672516,-77.63671875,-982.421875,-52.734375,-45.8984375,1.0,-1.0,1.0,0.0,2.m4v,2.0
2024-02-27 10:20:02.676421,1709025602.6764212,-76.66015625,-973.6328125,-53.7109375,-51.26953125,1.0,-1.0,1.0,0.0,2.m4v,2.0
2024-02-27 10:20:02.680326,1709025602.6803262,-75.68359375,-1000.0,-57.6171875,-53.22265625,1.0,-1.0,1.0,0.0,2.m4v,2.0
2024-02-27 10:20:02.684232,1709025602.6842315,-68.84765625,-1000.0,-48.828125,-41.015625,1.0,-1.0,1.0,0.0,2.m4v,2.0
2024-02-27 10:20:02.688137,1709025602.6881366,-64.453125,-1000.0,-47.36328125,-34.1796875,1.0,-1.0,1.0,0.0,2.m4v,2.0
2024-02-27 10:20:02.692042,1709025602.692042,-53.22265625,-1000.0,-44.921875,-24.90234375,1.0,-1.0,1.0,0.0,2.m4v,2.0
2024-02-27 10:20:02.695947,1709025602.6959472,-41.9921875,-927.734375,-42.48046875,-25.87890625,1.0,-1.0,1.0,0.0,2.m4v,2.0
2024-02-27 10:20:02.699861,1709025602.6998606,-57.6171875,-1000.0,-44.921875,-46.38671875,1.0,-1.0,1.0,0.0,2.m4v,2.0
2024-02-27 10:20:02.703766,1709025602.703766,-61.5234375,-446.77734375,-38.57421875,-49.31640625,1.0,-1.0,1.0,0.0,2.m4v,2.0
2024-02-27 10:20:02.707671,1709025602.7076712,-47.8515625,943.84765625,-29.296875,-42.96875,1.0,-1.0,1.0,0.0,2.m4v,2.0
2024-02-27 10:20:02.711576,1709025602.7115762,-46.875,993.65234375,-28.80859375,-47.8515625,1.0,-1.0,1.0,0.0,2.m4v,2.0
2024-02-27 10:20:02.715482,1709025602.7154815,-42.96875,923.828125,-29.296875,-48.33984375,1.0,-1.0,1.0,0.0,2.m4v,2.0
2024-02-27 10:20:02.719387,1709025602.7193868,-43.9453125,982.421875,-29.296875,-42.48046875,1.0,-1.0,1.0,0.0,2.m4v,2.0
2024-02-27 10:20:02.723292,1709025602.723292,-53.7109375,969.7265625,-37.109375,-40.52734375,1.0,-1.0,1.0,0.0,2.m4v,2.0
2024-02-27 10:20:02.727197,1709025602.7271972,-46.875,969.7265625,-46.875,-38.57421875,1.0,-1.0,1.0,0.0,2.m4v,2.0
2024-02-27 10:20:02.731102,1709025602.7311025,-9.27734375,969.7265625,-46.875,-15.625,1.0,-1.0,1.0,0.0,2.m4v,2.0
2024-02-27 10:20:02.735008,1709025602.7350075,-6.34765625,969.7265625,-38.0859375,-14.16015625,1.0,-1.0,1.0,0.0,2.m4v,2.0
2024-02-27 10:20:02.738913,1709025602.7389128,-51.26953125,969.7265625,-32.2265625,-54.19921875,1.0,-1.0,1.0,0.0,2.m4v,2.0
2024-02-27 10:20:02.742818,1709025602.742818,-60.546875,969.7265625,-29.78515625,-54.19921875,1.0,-1.0,1.0,0.0,2.m4v,2.0
2024-02-27 10:20:02.746731,1709025602.7467306,-49.31640625,969.7265625,-23.92578125,-40.0390625,1.0,-1.0,1.0,0.0,2.m4v,2.0
2024-02-27 10:20:02.750636,1709025602.750636,-46.875,969.7265625,-25.390625,-40.0390625,1.0,-1.0,1.0,0.0,2.m4v,2.0
2024-02-27 10:20:02.754541,1709025602.7545412,-38.0859375,969.7265625,-18.5546875,-27.83203125,1.0,-1.0,1.0,0.0,2.m4v,2.0
2024-02-27 10:20:02.758446,1709025602.7584462,-34.66796875,971.19140625,-3.41796875,-31.25,1.0,-1.0,1.0,0.0,2.m4v,2.0
2024-02-27 10:20:02.762352,1709025602.7623515,-44.921875,965.33203125,-9.765625,-42.96875,1.0,-1.0,1.0,0.0,2.m4v,2.0
2024-02-27 10:20:02.766257,1709025602.7662568,-49.8046875,915.0390625,-14.6484375,-40.52734375,1.0,-1.0,1.0,0.0,2.m4v,2.0
2024-02-27 10:20:02.770162,1709025602.770162,-42.48046875,999.51171875,-12.6953125,-37.59765625,1.0,-1.0,1.0,0.0,2.m4v,2.0
2024-02-27 10:20:02.774067,1709025602.7740672,-35.15625,105.95703125,-12.6953125,-36.1328125,1.0,-1.0,1.0,0.0,2.m4v,2.0
2024-02-27 10:20:02.777972,1709025602.7779725,-36.1328125,-1000.0,-18.06640625,-34.1796875,1.0,-1.0,1.0,0.0,2.m4v,2.0
2024-02-27 10:20:02.781878,1709025602.7818775,-44.43359375,-973.14453125,-28.3203125,-39.55078125,1.0,-1.0,1.0,0.0,2.m4v,2.0
2024-02-27 10:20:02.785783,1709025602.7857828,-45.8984375,-979.00390625,-24.4140625,-44.43359375,1.0,-1.0,1.0,0.0,2.m4v,2.0
2024-02-27 10:20:02.789688,1709025602.789688,-31.73828125,-1000.0,-15.13671875,-37.59765625,1.0,-1.0,1.0,0.0,2.m4v,2.0
2024-02-27 10:20:02.793604,1709025602.7936037,-17.578125,-1000.0,-17.08984375,-36.1328125,1.0,-1.0,1.0,0.0,2.m4v,2.0
2024-02-27 10:20:02.797509,1709025602.797509,-20.99609375,-1000.0,-18.06640625,-38.57421875,1.0,-1.0,1.0,0.0,2.m4v,2.0
2024-02-27 10:20:02.801414,1709025602.8014145,-35.15625,-1000.0,-18.5546875,-38.0859375,1.0,-1.0,1.0,0.0,2.m4v,2.0
2024-02-27 10:20:02.805319,1709025602.8053193,-41.9921875,-938.96484375,-22.4609375,-39.0625,1.0,-1.0,1.0,0.0,2.m4v,2.0
2024-02-27 10:20:02.809225,1709025602.8092246,-44.43359375,-1000.0,-18.06640625,-28.3203125,1.0,-1.0,1.0,0.0,2.m4v,2.0
2024-02-27 10:20:02.813130,1709025602.81313,-40.52734375,-200.1953125,-18.06640625,-19.53125,1.0,-1.0,1.0,0.0,2.m4v,2.0
2024-02-27 10:20:02.817035,1709025602.817035,-34.1796875,999.51171875,-15.625,-23.92578125,1.0,-1.0,1.0,0.0,2.m4v,2.0
2024-02-27 10:20:02.820940,1709025602.8209405,-40.0390625,950.68359375,-6.34765625,-26.3671875,1.0,-1.0,1.0,0.0,2.m4v,2.0
2024-02-27 10:20:02.824846,1709025602.8248456,-41.9921875,943.84765625,-8.30078125,-18.06640625,1.0,-1.0,1.0,0.0,2.m4v,2.0
2024-02-27 10:20:02.828751,1709025602.8287506,-38.0859375,976.07421875,-22.4609375,-27.83203125,1.0,-1.0,1.0,0.0,2.m4v,2.0
2024-02-27 10:20:02.832656,1709025602.832656,-40.0390625,983.88671875,-28.80859375,-42.96875,1.0,-1.0,1.0,0.0,2.m4v,2.0
2024-02-27 10:20:02.836561,1709025602.8365612,-36.1328125,903.80859375,-28.80859375,-40.0390625,1.0,-1.0,1.0,0.0,2.m4v,2.0
2024-02-27 10:20:02.840476,1709025602.8404765,-30.76171875,999.51171875,-38.0859375,-41.015625,1.0,-1.0,1.0,0.0,2.m4v,2.0
2024-02-27 10:20:02.844382,1709025602.8443816,-42.48046875,644.04296875,-39.0625,-40.0390625,1.0,-1.0,1.0,0.0,2.m4v,2.0
2024-02-27 10:20:02.848287,1709025602.8482869,-58.59375,-778.80859375,-33.203125,-41.015625,1.0,-1.0,1.0,0.0,2.m4v,2.0
2024-02-27 10:20:02.852192,1709025602.852192,-56.15234375,-1000.0,-34.1796875,-37.59765625,1.0,-1.0,1.0,0.0,2.m4v,2.0
2024-02-27 10:20:02.856097,1709025602.8560972,-43.9453125,-940.91796875,-33.69140625,-32.71484375,1.0,-1.0,1.0,0.0,2.m4v,2.0
2024-02-27 10:20:02.860002,1709025602.8600025,-41.9921875,-1000.0,-37.109375,-33.69140625,1.0,-1.0,1.0,0.0,2.m4v,2.0
2024-02-27 10:20:02.863908,1709025602.8639076,-53.7109375,-1000.0,-40.52734375,-39.55078125,1.0,-1.0,1.0,0.0,2.m4v,2.0
2024-02-27 10:20:02.867813,1709025602.8678129,-56.15234375,-1000.0,-39.0625,-41.9921875,1.0,-1.0,1.0,0.0,2.m4v,2.0
2024-02-27 10:20:02.871718,1709025602.871718,-44.921875,-1000.0,-39.0625,-41.015625,1.0,-1.0,1.0,0.0,2.m4v,2.0
2024-02-27 10:20:02.875623,1709025602.8756232,-39.55078125,-928.7109375,-34.66796875,-43.45703125,1.0,-1.0,1.0,0.0,2.m4v,2.0
2024-02-27 10:20:02.879529,1709025602.8795283,-45.41015625,-1000.0,-27.83203125,-38.57421875,1.0,-1.0,1.0,0.0,2.m4v,2.0
2024-02-27 10:20:02.883434,1709025602.8834336,-52.734375,-586.9140625,-29.78515625,-35.64453125,1.0,-1.0,1.0,0.0,2.m4v,2.0
2024-02-27 10:20:02.887348,1709025602.8873484,-51.7578125,844.23828125,-34.1796875,-34.1796875,1.0,-1.0,1.0,0.0,2.m4v,2.0
2024-02-27 10:20:02.891254,1709025602.8912537,-44.921875,999.51171875,-38.0859375,-25.87890625,1.0,-1.0,1.0,0.0,2.m4v,2.0
2024-02-27 10:20:02.895159,1709025602.895159,-43.9453125,914.55078125,-38.0859375,-33.203125,1.0,-1.0,1.0,0.0,2.m4v,2.0
2024-02-27 10:20:02.899064,1709025602.899064,-44.43359375,984.375,-39.0625,-50.29296875,1.0,-1.0,1.0,0.0,2.m4v,2.0
2024-02-27 10:20:02.902969,1709025602.9029694,-36.1328125,978.515625,-23.4375,-45.41015625,1.0,-1.0,1.0,0.0,2.m4v,2.0
2024-02-27 10:20:02.906875,1709025602.906875,-23.92578125,932.6171875,-5.37109375,-42.96875,1.0,-1.0,1.0,0.0,2.m4v,2.0
2024-02-27 10:20:02.910780,1709025602.9107797,-23.92578125,982.91015625,-3.41796875,-47.8515625,1.0,-1.0,1.0,0.0,2.m4v,2.0
2024-02-27 10:20:02.914685,1709025602.914685,-13.671875,935.05859375,-4.8828125,-31.73828125,1.0,-1.0,1.0,0.0,2.m4v,2.0
2024-02-27 10:20:02.918590,1709025602.9185903,-16.11328125,-359.375,-11.23046875,-37.59765625,1.0,-1.0,1.0,0.0,2.m4v,2.0
2024-02-27 10:20:02.922495,1709025602.9224954,-46.38671875,-1000.0,-18.5546875,-83.984375,1.0,-1.0,1.0,0.0,2.m4v,2.0
2024-02-27 10:20:02.926401,1709025602.926401,-40.52734375,-939.94140625,-16.11328125,-89.84375,1.0,-1.0,1.0,0.0,2.m4v,2.0
2024-02-27 10:20:02.930306,1709025602.930306,-16.6015625,-1000.0,-11.71875,-67.3828125,1.0,-1.0,1.0,0.0,2.m4v,2.0
2024-02-27 10:20:02.934220,1709025602.9342203,-15.625,-1000.0,-14.6484375,-57.12890625,1.0,-1.0,1.0,0.0,2.m4v,2.0
2024-02-27 10:20:02.938125,1709025602.9381254,-24.4140625,-1000.0,-13.18359375,-62.98828125,1.0,-1.0,1.0,0.0,2.m4v,2.0
2024-02-27 10:20:02.942031,1709025602.942031,-35.15625,-1000.0,-13.18359375,-74.70703125,1.0,-1.0,1.0,0.0,2.m4v,2.0
2024-02-27 10:20:02.945936,1709025602.945936,-44.43359375,-930.6640625,-21.484375,-79.58984375,1.0,-1.0,1.0,0.0,2.m4v,2.0
2024-02-27 10:20:02.949841,1709025602.949841,-42.96875,-1000.0,-25.87890625,-76.66015625,1.0,-1.0,1.0,0.0,2.m4v,2.0
2024-02-27 10:20:02.953746,1709025602.9537463,-32.71484375,-599.12109375,-22.94921875,-62.01171875,1.0,-1.0,1.0,0.0,2.m4v,2.0
2024-02-27 10:20:02.957652,1709025602.9576516,-31.73828125,825.1953125,-23.4375,-71.2890625,1.0,-1.0,1.0,0.0,2.m4v,2.0
2024-02-27 10:20:02.961557,1709025602.961557,-40.52734375,999.51171875,-17.08984375,-83.0078125,1.0,-1.0,1.0,0.0,2.m4v,2.0
2024-02-27 10:20:02.965462,1709025602.965462,-39.55078125,914.55078125,-8.7890625,-83.0078125,1.0,-1.0,1.0,0.0,2.m4v,2.0
2024-02-27 10:20:02.969367,1709025602.9693673,-31.25,984.375,-1.953125,-76.171875,1.0,-1.0,1.0,0.0,2.m4v,2.0
2024-02-27 10:20:02.973272,1709025602.9732723,-36.62109375,969.7265625,-8.7890625,-76.171875,1.0,-1.0,1.0,0.0,2.m4v,2.0
2024-02-27 10:20:02.977178,1709025602.9771776,-37.109375,969.7265625,-20.99609375,-95.21484375,1.0,-1.0,1.0,0.0,2.m4v,2.0
2024-02-27 10:20:02.981091,1709025602.9810915,-20.99609375,969.7265625,-20.99609375,-96.19140625,1.0,-1.0,1.0,0.0,2.m4v,2.0
2024-02-27 10:20:02.984997,1709025602.9849968,-7.32421875,969.7265625,-16.6015625,-67.3828125,1.0,-1.0,1.0,0.0,2.m4v,2.0
2024-02-27 10:20:02.988902,1709025602.988902,-17.08984375,969.7265625,-18.5546875,-42.48046875,1.0,-1.0,1.0,0.0,2.m4v,2.0
2024-02-27 10:20:02.992807,1709025602.9928071,-27.34375,970.21484375,-19.53125,-55.6640625,1.0,-1.0,1.0,0.0,2.m4v,2.0
2024-02-27 10:20:02.996712,1709025602.9967124,-23.4375,976.07421875,-21.484375,-73.2421875,1.0,-1.0,1.0,0.0,2.m4v,2.0
2024-02-27 10:20:03.000618,1709025603.0006175,-12.20703125,901.3671875,-27.83203125,-59.5703125,1.0,-1.0,1.0,0.0,2.m4v,2.0
2024-02-27 10:20:03.004523,1709025603.0045228,-3.41796875,999.51171875,-28.80859375,-49.31640625,1.0,-1.0,1.0,0.0,2.m4v,2.0
2024-02-27 10:20:03.008428,1709025603.008428,-6.8359375,300.29296875,-35.15625,-53.22265625,1.0,-1.0,1.0,0.0,2.m4v,2.0
2024-02-27 10:20:03.012333,1709025603.0123334,-1.953125,-1000.0,-40.52734375,-49.8046875,1.0,-1.0,1.0,0.0,2.m4v,2.0
2024-02-27 10:20:03.016238,1709025603.0162385,20.99609375,-1000.0,-33.69140625,-25.87890625,1.0,-1.0,1.0,0.0,2.m4v,2.0
2024-02-27 10:20:03.020144,1709025603.0201435,16.11328125,-963.8671875,-20.01953125,-14.16015625,1.0,-1.0,1.0,0.0,2.m4v,2.0
2024-02-27 10:20:03.024049,1709025603.024049,-7.32421875,-1000.0,-24.4140625,-23.92578125,1.0,-1.0,1.0,0.0,2.m4v,2.0
2024-02-27 10:20:03.027962,1709025603.0279624,-10.25390625,-1000.0,-29.296875,-22.4609375,1.0,-1.0,1.0,0.0,2.m4v,2.0
2024-02-27 10:20:03.031868,1709025603.0318675,1.953125,-1000.0,-22.94921875,-12.6953125,1.0,-1.0,1.0,0.0,2.m4v,2.0
2024-02-27 10:20:03.035773,1709025603.035773,2.9296875,-1000.0,-31.73828125,-13.18359375,1.0,-1.0,1.0,0.0,2.m4v,2.0
2024-02-27 10:20:03.039678,1709025603.039678,5.37109375,-1000.0,-41.015625,-6.8359375,1.0,-1.0,1.0,0.0,2.m4v,2.0
2024-02-27 10:20:03.043583,1709025603.0435834,14.16015625,-1000.0,-41.50390625,7.8125,1.0,-1.0,1.0,0.0,2.m4v,2.0
2024-02-27 10:20:03.047489,1709025603.0474887,18.5546875,-1000.0,-40.0390625,2.9296875,1.0,-1.0,1.0,0.0,2.m4v,2.0
2024-02-27 10:20:03.051394,1709025603.0513935,33.69140625,-1000.0,-39.55078125,-1.953125,1.0,-1.0,1.0,0.0,2.m4v,2.0
2024-02-27 10:20:03.055299,1709025603.055299,50.29296875,-1000.0,-39.55078125,1.46484375,1.0,-1.0,1.0,0.0,2.m4v,2.0
2024-02-27 10:20:03.059204,1709025603.0592043,39.55078125,-1000.0,-38.0859375,-4.8828125,1.0,-1.0,1.0,0.0,2.m4v,2.0
2024-02-27 10:20:03.063109,1709025603.0631094,16.6015625,-1000.0,-34.66796875,-2.9296875,1.0,-1.0,1.0,0.0,2.m4v,2.0
2024-02-27 10:20:03.067015,1709025603.0670147,15.625,-1000.0,-28.80859375,5.37109375,1.0,-1.0,1.0,0.0,2.m4v,2.0
2024-02-27 10:20:03.070920,1709025603.07092,18.5546875,-1000.0,-29.78515625,11.71875,1.0,-1.0,1.0,0.0,2.m4v,2.0
2024-02-27 10:20:03.074833,1709025603.074833,15.625,-1000.0,-35.15625,7.8125,1.0,-1.0,1.0,0.0,2.m4v,2.0
2024-02-27 10:20:03.078738,1709025603.0787382,3.41796875,-1000.0,-41.015625,1.46484375,1.0,-1.0,1.0,0.0,2.m4v,2.0
2024-02-27 10:20:03.082644,1709025603.0826435,-17.578125,-1000.0,-42.96875,-1.953125,1.0,-1.0,1.0,0.0,2.m4v,2.0
2024-02-27 10:20:03.086549,1709025603.0865486,-15.625,-937.98828125,-39.55078125,2.9296875,1.0,-1.0,1.0,0.0,2.m4v,2.0
2024-02-27 10:20:03.090454,1709025603.090454,7.32421875,-1000.0,-41.015625,15.13671875,1.0,-1.0,1.0,0.0,2.m4v,2.0
2024-02-27 10:20:03.094359,1709025603.0943592,24.90234375,-213.37890625,-38.57421875,12.6953125,1.0,-1.0,1.0,0.0,2.m4v,2.0
2024-02-27 10:20:03.098264,1709025603.0982642,27.83203125,999.51171875,-37.109375,13.671875,1.0,-1.0,1.0,0.0,2.m4v,2.0
2024-02-27 10:20:03.102170,1709025603.1021695,30.76171875,952.63671875,-36.1328125,23.92578125,1.0,-1.0,1.0,0.0,2.m4v,2.0
2024-02-27 10:20:03.106075,1709025603.1060748,24.90234375,943.359375,-34.1796875,27.83203125,1.0,-1.0,1.0,0.0,2.m4v,2.0
2024-02-27 10:20:03.109980,1709025603.10998,3.41796875,976.5625,-38.0859375,12.20703125,1.0,-1.0,1.0,0.0,2.m4v,2.0
2024-02-27 10:20:03.113885,1709025603.1138852,-0.48828125,969.7265625,-47.8515625,-0.9765625,1.0,-1.0,1.0,0.0,2.m4v,2.0
2024-02-27 10:20:03.117790,1709025603.1177905,2.9296875,973.14453125,-47.8515625,-2.44140625,1.0,-1.0,1.0,0.0,2.m4v,2.0
2024-02-27 10:20:03.121703,1709025603.1217034,0.48828125,955.56640625,-36.62109375,-5.859375,1.0,-1.0,1.0,0.0,2.m4v,2.0
2024-02-27 10:20:03.125609,1709025603.1256087,-0.9765625,932.12890625,-30.76171875,-1.953125,1.0,-1.0,1.0,0.0,2.m4v,2.0
2024-02-27 10:20:03.129514,1709025603.1295135,-2.44140625,999.51171875,-29.296875,-4.8828125,1.0,-1.0,1.0,0.0,2.m4v,2.0
2024-02-27 10:20:03.133419,1709025603.133419,-17.578125,-23.92578125,-22.94921875,-8.7890625,1.0,-1.0,1.0,0.0,2.m4v,2.0
2024-02-27 10:20:03.137324,1709025603.1373243,-26.85546875,-1000.0,-14.6484375,-5.859375,1.0,-1.0,1.0,0.0,2.m4v,2.0
2024-02-27 10:20:03.141229,1709025603.1412294,-22.94921875,-961.42578125,-16.6015625,-7.32421875,1.0,-1.0,1.0,0.0,2.m4v,2.0
2024-02-27 10:20:03.145135,1709025603.1451347,-11.71875,-986.81640625,-18.5546875,-4.8828125,1.0,-1.0,1.0,0.0,2.m4v,2.0
2024-02-27 10:20:03.149040,1709025603.14904,-9.765625,-1000.0,-21.97265625,-5.37109375,1.0,-1.0,1.0,0.0,2.m4v,2.0
2024-02-27 10:20:03.152945,1709025603.152945,-19.53125,-1000.0,-24.90234375,-11.23046875,1.0,-1.0,1.0,0.0,2.m4v,2.0
2024-02-27 10:20:03.156850,1709025603.1568503,-11.23046875,-1000.0,-23.92578125,-15.625,1.0,-1.0,1.0,0.0,2.m4v,2.0
2024-02-27 10:20:03.160756,1709025603.1607556,-6.34765625,-1000.0,-28.3203125,-16.6015625,1.0,-1.0,1.0,0.0,2.m4v,2.0
2024-02-27 10:20:03.164661,1709025603.1646607,-13.671875,-1000.0,-24.4140625,-4.8828125,1.0,-1.0,1.0,0.0,2.m4v,2.0
2024-02-27 10:20:03.168576,1709025603.1685765,-15.13671875,-1000.0,-16.6015625,-5.37109375,1.0,-1.0,1.0,0.0,2.m4v,2.0
2024-02-27 10:20:03.172482,1709025603.1724818,-5.859375,-1000.0,-20.5078125,-21.484375,1.0,-1.0,1.0,0.0,2.m4v,2.0
2024-02-27 10:20:03.176387,1709025603.1763868,-9.765625,-1000.0,-16.6015625,-29.296875,1.0,-1.0,1.0,0.0,2.m4v,2.0
2024-02-27 10:20:03.180292,1709025603.180292,-25.87890625,-1000.0,-5.859375,-27.83203125,1.0,-1.0,1.0,0.0,2.m4v,2.0
2024-02-27 10:20:03.184197,1709025603.1841974,-32.2265625,-1000.0,-6.34765625,-22.4609375,1.0,-1.0,1.0,0.0,2.m4v,2.0
2024-02-27 10:20:03.188102,1709025603.1881025,-24.90234375,-1000.0,-12.20703125,-31.25,1.0,-1.0,1.0,0.0,2.m4v,2.0
2024-02-27 10:20:03.192008,1709025603.1920078,-24.4140625,-1000.0,-18.5546875,-37.59765625,1.0,-1.0,1.0,0.0,2.m4v,2.0
2024-02-27 10:20:03.195913,1709025603.195913,-23.4375,-1000.0,-18.06640625,-33.203125,1.0,-1.0,1.0,0.0,2.m4v,2.0
2024-02-27 10:20:03.199818,1709025603.199818,-22.4609375,-1000.0,-16.11328125,-29.78515625,1.0,-1.0,1.0,0.0,2.m4v,2.0
2024-02-27 10:20:03.203723,1709025603.2037234,-45.41015625,-1000.0,-15.625,-28.3203125,1.0,-1.0,1.0,0.0,2.m4v,2.0
2024-02-27 10:20:03.207629,1709025603.2076287,-56.15234375,-1000.0,-11.71875,-28.80859375,1.0,-1.0,1.0,0.0,2.m4v,2.0
2024-02-27 10:20:03.211534,1709025603.2115338,-44.921875,-1000.0,-9.765625,-23.4375,1.0,-1.0,1.0,0.0,2.m4v,2.0
2024-02-27 10:20:03.215449,1709025603.2154489,-29.78515625,-1000.0,-14.6484375,-24.90234375,1.0,-1.0,1.0,0.0,2.m4v,2.0
2024-02-27 10:20:03.219354,1709025603.2193542,-33.203125,-1000.0,-22.4609375,-30.76171875,1.0,-1.0,1.0,0.0,2.m4v,2.0
2024-02-27 10:20:03.223259,1709025603.2232594,-53.22265625,-1000.0,-24.4140625,-27.34375,1.0,-1.0,1.0,0.0,2.m4v,2.0
2024-02-27 10:20:03.227165,1709025603.2271645,-53.22265625,-938.4765625,-23.4375,-18.06640625,1.0,-1.0,1.0,0.0,2.m4v,2.0
2024-02-27 10:20:03.231070,1709025603.2310698,-44.921875,-1000.0,-26.3671875,-23.92578125,1.0,-1.0,1.0,0.0,2.m4v,2.0
2024-02-27 10:20:03.234975,1709025603.234975,-22.94921875,-205.56640625,-31.25,-35.15625,1.0,-1.0,1.0,0.0,2.m4v,2.0
2024-02-27 10:20:03.688068,1709025603.6880682,-62.5,969.7265625,-5.859375,-53.7109375,1.0,-1.0,1.0,0.0,2.m4v,2.0
2024-02-27 10:20:03.695879,1709025603.6958785,-42.48046875,969.7265625,-5.859375,-51.7578125,1.0,-1.0,1.0,0.0,2.m4v,2.0
2024-02-27 10:20:03.703689,1709025603.703689,-56.15234375,969.7265625,-1.46484375,-38.57421875,1.0,-1.0,1.0,0.0,2.m4v,2.0
2024-02-27 10:20:03.711499,1709025603.7114997,-47.8515625,969.7265625,-7.8125,-29.78515625,1.0,-1.0,1.0,0.0,2.m4v,2.0
2024-02-27 10:20:03.719310,1709025603.7193098,-39.55078125,969.7265625,-10.7421875,-38.0859375,1.0,-1.0,1.0,0.0,2.m4v,2.0
2024-02-27 10:20:03.727120,1709025603.7271204,-51.7578125,969.7265625,13.671875,-25.390625,1.0,-1.0,1.0,0.0,2.m4v,2.0
2024-02-27 10:20:03.734939,1709025603.734939,-69.3359375,969.7265625,4.8828125,-58.59375,1.0,-1.0,1.0,0.0,2.m4v,2.0
2024-02-27 10:20:03.742750,1709025603.7427497,-49.31640625,969.7265625,-11.71875,-30.76171875,1.0,-1.0,1.0,0.0,2.m4v,2.0
2024-02-27 10:20:03.750560,1709025603.7505603,-56.15234375,969.7265625,-5.859375,-40.52734375,1.0,-1.0,1.0,0.0,2.m4v,2.0
2024-02-27 10:20:03.758371,1709025603.7583706,-63.4765625,969.7265625,-11.71875,-36.62109375,1.0,-1.0,1.0,0.0,2.m4v,2.0
2024-02-27 10:20:03.766181,1709025603.766181,-64.94140625,969.7265625,-21.484375,-47.36328125,1.0,-1.0,1.0,0.0,2.m4v,2.0
2024-02-27 10:20:03.773992,1709025603.7739916,-48.828125,969.7265625,-12.20703125,-46.875,1.0,-1.0,1.0,0.0,2.m4v,2.0
2024-02-27 10:20:03.781810,1709025603.7818103,-76.171875,969.7265625,-7.8125,-40.52734375,1.0,-1.0,1.0,0.0,2.m4v,2.0
2024-02-27 10:20:03.789621,1709025603.7896206,-62.5,969.7265625,-5.37109375,-34.1796875,1.0,-1.0,1.0,0.0,2.m4v,2.0
2024-02-27 10:20:03.797431,1709025603.797431,-60.546875,969.7265625,-22.94921875,-20.01953125,1.0,-1.0,1.0,0.0,2.m4v,2.0
2024-02-27 10:20:03.805242,1709025603.8052416,-70.80078125,969.7265625,-31.25,-40.52734375,1.0,-1.0,1.0,0.0,2.m4v,2.0
2024-02-27 10:20:03.813052,1709025603.813052,-72.75390625,969.7265625,-32.71484375,-43.45703125,1.0,-1.0,1.0,0.0,2.m4v,2.0
2024-02-27 10:20:03.820862,1709025603.8208623,-87.40234375,969.7265625,-41.9921875,-61.5234375,1.0,-1.0,1.0,0.0,2.m4v,2.0
2024-02-27 10:20:03.828681,1709025603.8286808,-100.5859375,969.7265625,-60.05859375,-57.12890625,1.0,-1.0,1.0,0.0,2.m4v,2.0
2024-02-27 10:20:03.836491,1709025603.836491,-68.359375,969.7265625,-50.78125,-55.6640625,1.0,-1.0,1.0,0.0,2.m4v,2.0
2024-02-27 10:20:03.844301,1709025603.8443017,-86.9140625,969.7265625,-39.55078125,-49.31640625,1.0,-1.0,1.0,0.0,2.m4v,2.0
2024-02-27 10:20:03.852112,1709025603.852112,-52.24609375,969.7265625,-20.99609375,-24.4140625,1.0,-1.0,1.0,0.0,2.m4v,2.0
2024-02-27 10:20:03.859922,1709025603.8599224,-76.66015625,969.7265625,-22.94921875,-13.18359375,1.0,-1.0,1.0,0.0,2.m4v,2.0
2024-02-27 10:20:03.867733,1709025603.8677328,-72.265625,969.7265625,-29.296875,-53.22265625,1.0,-1.0,1.0,0.0,2.m4v,2.0
2024-02-27 10:20:03.875551,1709025603.8755505,-72.265625,969.7265625,-16.6015625,-35.15625,1.0,-1.0,1.0,0.0,2.m4v,2.0
2024-02-27 10:20:03.883361,1709025603.883361,-68.84765625,969.7265625,-5.37109375,-37.59765625,1.0,-1.0,1.0,0.0,2.m4v,2.0
2024-02-27 10:20:03.891171,1709025603.8911717,-52.24609375,969.7265625,-28.3203125,-41.9921875,1.0,-1.0,1.0,0.0,2.m4v,2.0
2024-02-27 10:20:03.898982,1709025603.8989818,-43.45703125,969.7265625,-24.90234375,-33.203125,1.0,-1.0,1.0,0.0,2.m4v,2.0
2024-02-27 10:20:03.906792,1709025603.9067924,-35.15625,969.7265625,-16.11328125,-28.80859375,1.0,-1.0,1.0,0.0,2.m4v,2.0
2024-02-27 10:20:03.914603,1709025603.9146028,-54.19921875,969.7265625,-34.1796875,-17.08984375,1.0,-1.0,1.0,0.0,2.m4v,2.0
2024-02-27 10:20:03.922424,1709025603.9224236,-37.59765625,969.7265625,-33.69140625,-34.66796875,1.0,-1.0,1.0,0.0,2.m4v,2.0
2024-02-27 10:20:03.930234,1709025603.9302342,-37.109375,969.7265625,-32.71484375,-12.20703125,1.0,-1.0,1.0,0.0,2.m4v,2.0
2024-02-27 10:20:03.938045,1709025603.9380443,9.27734375,969.7265625,-25.87890625,-18.06640625,1.0,-1.0,1.0,0.0,2.m4v,2.0
2024-02-27 10:20:03.945855,1709025603.945855,-74.21875,969.7265625,-30.2734375,-50.29296875,1.0,-1.0,1.0,0.0,2.m4v,2.0
2024-02-27 10:20:03.953665,1709025603.9536655,-21.97265625,969.7265625,-20.01953125,-27.83203125,1.0,-1.0,1.0,0.0,2.m4v,2.0
2024-02-27 10:20:03.961476,1709025603.9614758,-13.18359375,969.7265625,-24.90234375,-31.73828125,1.0,-1.0,1.0,0.0,2.m4v,2.0
2024-02-27 10:20:03.969296,1709025603.9692962,-12.20703125,969.7265625,-24.4140625,-30.76171875,1.0,-1.0,1.0,0.0,2.m4v,2.0
2024-02-27 10:20:03.977107,1709025603.9771068,7.8125,969.7265625,-10.7421875,-33.69140625,1.0,-1.0,1.0,0.0,2.m4v,2.0
2024-02-27 10:20:03.984917,1709025603.9849172,-16.11328125,969.7265625,-10.7421875,-12.6953125,1.0,-1.0,1.0,0.0,2.m4v,2.0
2024-02-27 10:20:03.988822,1709025603.9888225,-27.83203125,969.7265625,-29.296875,-5.37109375,1.0,-1.0,1.0,0.0,2.m4v,2.0
2024-02-27 10:20:03.992728,1709025603.9927275,-26.3671875,969.7265625,-18.06640625,-15.625,1.0,-1.0,1.0,0.0,2.m4v,2.0
2024-02-27 10:20:03.996633,1709025603.9966328,-13.671875,969.7265625,-13.18359375,-23.92578125,1.0,-1.0,1.0,0.0,2.m4v,2.0
2024-02-27 10:20:04.000538,1709025604.000538,-12.20703125,969.7265625,-28.3203125,-34.1796875,1.0,-1.0,1.0,0.0,2.m4v,2.0
2024-02-27 10:20:04.004443,1709025604.0044432,-7.32421875,969.7265625,-23.4375,-41.9921875,1.0,-1.0,1.0,0.0,2.m4v,2.0
2024-02-27 10:20:04.008348,1709025604.0083485,-2.44140625,969.7265625,-16.11328125,-35.64453125,1.0,-1.0,1.0,0.0,2.m4v,2.0
2024-02-27 10:20:04.012263,1709025604.0122633,-14.6484375,969.7265625,-20.99609375,-39.0625,1.0,-1.0,1.0,0.0,2.m4v,2.0
2024-02-27 10:20:04.016169,1709025604.0161686,-19.53125,969.7265625,-22.94921875,-41.50390625,1.0,-1.0,1.0,0.0,2.m4v,2.0
2024-02-27 10:20:04.020074,1709025604.0200737,-12.6953125,969.7265625,-22.4609375,-41.50390625,1.0,-1.0,1.0,0.0,2.m4v,2.0
2024-02-27 10:20:04.023979,1709025604.023979,-14.6484375,969.7265625,-23.92578125,-41.9921875,1.0,-1.0,1.0,0.0,2.m4v,2.0
2024-02-27 10:20:04.027884,1709025604.0278842,-23.92578125,969.7265625,-30.76171875,-34.66796875,1.0,-1.0,1.0,0.0,2.m4v,2.0
2024-02-27 10:20:04.031789,1709025604.0317893,-13.18359375,969.7265625,-41.015625,-24.90234375,1.0,-1.0,1.0,0.0,2.m4v,2.0
2024-02-27 10:20:04.035695,1709025604.0356946,-6.34765625,969.7265625,-48.33984375,-15.625,1.0,-1.0,1.0,0.0,2.m4v,2.0
2024-02-27 10:20:04.039600,1709025604.0396,-25.390625,969.7265625,-36.1328125,-21.97265625,1.0,-1.0,1.0,0.0,2.m4v,2.0
2024-02-27 10:20:04.043505,1709025604.043505,-30.2734375,969.7265625,-21.97265625,-34.66796875,1.0,-1.0,1.0,0.0,2.m4v,2.0
2024-02-27 10:20:04.047410,1709025604.0474102,-36.1328125,969.7265625,-27.34375,-36.1328125,1.0,-1.0,1.0,0.0,2.m4v,2.0
2024-02-27 10:20:04.051316,1709025604.0513155,-53.7109375,969.7265625,-40.0390625,-56.15234375,1.0,-1.0,1.0,0.0,2.m4v,2.0
2024-02-27 10:20:04.055221,1709025604.0552206,-54.6875,969.7265625,-41.9921875,-70.3125,1.0,-1.0,1.0,0.0,2.m4v,2.0
2024-02-27 10:20:04.059135,1709025604.0591352,-43.9453125,969.7265625,-41.50390625,-58.10546875,1.0,-1.0,1.0,0.0,2.m4v,2.0
2024-02-27 10:20:04.063040,1709025604.0630405,-37.59765625,969.7265625,-44.43359375,-48.33984375,1.0,-1.0,1.0,0.0,2.m4v,2.0
2024-02-27 10:20:04.066946,1709025604.0669456,-32.2265625,969.7265625,-40.0390625,-39.0625,1.0,-1.0,1.0,0.0,2.m4v,2.0
2024-02-27 10:20:04.070851,1709025604.0708508,-38.0859375,969.7265625,-38.0859375,-34.66796875,1.0,-1.0,1.0,0.0,2.m4v,2.0
2024-02-27 10:20:04.074756,1709025604.074756,-46.875,970.21484375,-37.109375,-38.0859375,1.0,-1.0,1.0,0.0,2.m4v,2.0
2024-02-27 10:20:04.078661,1709025604.0786612,-36.1328125,970.21484375,-33.69140625,-35.15625,1.0,-1.0,1.0,0.0,2.m4v,2.0
2024-02-27 10:20:04.082566,1709025604.0825665,-37.59765625,969.7265625,-36.1328125,-35.64453125,1.0,-1.0,1.0,0.0,2.m4v,2.0
2024-02-27 10:20:04.086472,1709025604.0864716,-40.52734375,969.7265625,-36.1328125,-41.015625,1.0,-1.0,1.0,0.0,2.m4v,2.0
2024-02-27 10:20:04.090377,1709025604.0903769,-27.83203125,969.7265625,-32.2265625,-41.015625,1.0,-1.0,1.0,0.0,2.m4v,2.0
2024-02-27 10:20:04.094282,1709025604.0942822,-11.71875,969.7265625,-26.85546875,-34.66796875,1.0,-1.0,1.0,0.0,2.m4v,2.0
2024-02-27 10:20:04.098187,1709025604.0981872,-7.32421875,969.7265625,-31.73828125,-26.85546875,1.0,-1.0,1.0,0.0,2.m4v,2.0
2024-02-27 10:20:04.102093,1709025604.1020925,-24.90234375,969.7265625,-36.1328125,-13.18359375,1.0,-1.0,1.0,0.0,2.m4v,2.0
2024-02-27 10:20:04.106006,1709025604.1060064,-33.69140625,969.7265625,-33.69140625,-11.23046875,1.0,-1.0,1.0,0.0,2.m4v,2.0
2024-02-27 10:20:04.109912,1709025604.1099117,-28.80859375,969.7265625,-35.64453125,-33.69140625,1.0,-1.0,1.0,0.0,2.m4v,2.0
2024-02-27 10:20:04.113817,1709025604.113817,-16.6015625,970.21484375,-34.66796875,-45.8984375,1.0,-1.0,1.0,0.0,2.m4v,2.0
2024-02-27 10:20:04.117722,1709025604.117722,-10.25390625,969.7265625,-27.83203125,-40.0390625,1.0,-1.0,1.0,0.0,2.m4v,2.0
2024-02-27 10:20:04.121627,1709025604.121627,-26.85546875,969.7265625,-28.80859375,-41.50390625,1.0,-1.0,1.0,0.0,2.m4v,2.0
2024-02-27 10:20:04.125533,1709025604.1255326,-38.0859375,969.7265625,-29.78515625,-36.62109375,1.0,-1.0,1.0,0.0,2.m4v,2.0
2024-02-27 10:20:04.129438,1709025604.1294377,-30.76171875,969.7265625,-29.78515625,-28.3203125,1.0,-1.0,1.0,0.0,2.m4v,2.0
2024-02-27 10:20:04.133343,1709025604.133343,-29.78515625,969.7265625,-36.1328125,-26.85546875,1.0,-1.0,1.0,0.0,2.m4v,2.0
2024-02-27 10:20:04.137248,1709025604.1372485,-25.87890625,969.7265625,-38.57421875,-21.97265625,1.0,-1.0,1.0,0.0,2.m4v,2.0
2024-02-27 10:20:04.141153,1709025604.141153,-30.2734375,969.7265625,-39.0625,-30.2734375,1.0,-1.0,1.0,0.0,2.m4v,2.0
2024-02-27 10:20:04.145059,1709025604.1450586,-56.15234375,969.7265625,-40.0390625,-52.24609375,1.0,-1.0,1.0,0.0,2.m4v,2.0
2024-02-27 10:20:04.148964,1709025604.148964,-57.6171875,969.7265625,-41.015625,-50.78125,1.0,-1.0,1.0,0.0,2.m4v,2.0
2024-02-27 10:20:04.152878,1709025604.1528776,-45.41015625,969.7265625,-42.48046875,-38.57421875,1.0,-1.0,1.0,0.0,2.m4v,2.0
2024-02-27 10:20:04.156783,1709025604.1567829,-38.57421875,969.7265625,-44.43359375,-41.9921875,1.0,-1.0,1.0,0.0,2.m4v,2.0
