Timestamp,Timestamp_UNIX,TP9,AF7,AF8,TP10,Valence,Arousal,Dominace,Viewed,Video,Participant
2024-02-28 09:57:07.383829,1709110627.383829,181.640625,-3.90625,-29.78515625,145.5078125,-1.0,0.0,-1.0,0.0,9.m4v,7.0
2024-02-28 09:57:07.383829,1709110627.383829,181.640625,-3.90625,-29.78515625,145.5078125,-1.0,0.0,-1.0,0.0,9.m4v,7.0
2024-02-28 09:57:07.391640,1709110627.3916404,259.27734375,-4.39453125,-31.73828125,928.22265625,-1.0,0.0,-1.0,0.0,9.m4v,7.0
2024-02-28 09:57:07.399454,1709110627.3994544,-541.015625,-57.12890625,-17.578125,-687.01171875,-1.0,0.0,-1.0,0.0,9.m4v,7.0
2024-02-28 09:57:07.407266,1709110627.4072657,-109.86328125,-25.87890625,-42.48046875,-919.921875,-1.0,0.0,-1.0,0.0,9.m4v,7.0
2024-02-28 09:57:07.407266,1709110627.4072657,-109.86328125,-25.87890625,-42.48046875,-919.921875,-1.0,0.0,-1.0,0.0,9.m4v,7.0
2024-02-28 09:57:07.415077,1709110627.415077,-128.90625,-38.57421875,-32.71484375,-775.390625,-1.0,0.0,-1.0,0.0,9.m4v,7.0
2024-02-28 09:57:07.415077,1709110627.415077,-128.90625,-38.57421875,-32.71484375,-775.390625,-1.0,0.0,-1.0,0.0,9.m4v,7.0
2024-02-28 09:57:07.418983,1709110627.4189825,312.01171875,-29.78515625,-17.08984375,541.015625,-1.0,0.0,-1.0,0.0,9.m4v,7.0
2024-02-28 09:57:07.422888,1709110627.4228885,467.7734375,-25.390625,-29.78515625,999.51171875,-1.0,0.0,-1.0,0.0,9.m4v,7.0
2024-02-28 09:57:07.422888,1709110627.4228885,467.7734375,-25.390625,-29.78515625,999.51171875,-1.0,0.0,-1.0,0.0,9.m4v,7.0
2024-02-28 09:57:07.426794,1709110627.4267938,292.48046875,-27.83203125,-28.80859375,999.51171875,-1.0,0.0,-1.0,0.0,9.m4v,7.0
2024-02-28 09:57:07.430700,1709110627.4306996,-85.9375,-36.62109375,-20.5078125,145.5078125,-1.0,0.0,-1.0,0.0,9.m4v,7.0
2024-02-28 09:57:07.430700,1709110627.4306996,-85.9375,-36.62109375,-20.5078125,145.5078125,-1.0,0.0,-1.0,0.0,9.m4v,7.0
2024-02-28 09:57:07.434605,1709110627.4346051,-563.4765625,-46.38671875,-26.85546875,-1000.0,-1.0,0.0,-1.0,0.0,9.m4v,7.0
2024-02-28 09:57:07.438511,1709110627.438511,-440.4296875,-44.43359375,-24.90234375,-999.0234375,-1.0,0.0,-1.0,0.0,9.m4v,7.0
2024-02-28 09:57:07.438511,1709110627.438511,-440.4296875,-44.43359375,-24.90234375,-999.0234375,-1.0,0.0,-1.0,0.0,9.m4v,7.0
2024-02-28 09:57:07.442416,1709110627.4424164,135.7421875,-41.50390625,-29.78515625,82.03125,-1.0,0.0,-1.0,0.0,9.m4v,7.0
2024-02-28 09:57:07.446326,1709110627.4463265,512.6953125,-25.87890625,-46.875,999.51171875,-1.0,0.0,-1.0,0.0,9.m4v,7.0
2024-02-28 09:57:07.446326,1709110627.4463265,512.6953125,-25.87890625,-46.875,999.51171875,-1.0,0.0,-1.0,0.0,9.m4v,7.0
2024-02-28 09:57:07.450232,1709110627.450232,257.32421875,-18.5546875,-48.828125,803.7109375,-1.0,0.0,-1.0,0.0,9.m4v,7.0
2024-02-28 09:57:07.454138,1709110627.4541376,-318.84765625,-37.59765625,-37.109375,-315.91796875,-1.0,0.0,-1.0,0.0,9.m4v,7.0
2024-02-28 09:57:07.454138,1709110627.4541376,-318.84765625,-37.59765625,-37.109375,-315.91796875,-1.0,0.0,-1.0,0.0,9.m4v,7.0
2024-02-28 09:57:07.458043,1709110627.458043,-567.3828125,-49.31640625,-31.73828125,-1000.0,-1.0,0.0,-1.0,0.0,9.m4v,7.0
2024-02-28 09:57:07.461949,1709110627.4619489,-251.46484375,-44.43359375,-30.2734375,-823.73046875,-1.0,0.0,-1.0,0.0,9.m4v,7.0
2024-02-28 09:57:07.461949,1709110627.4619489,-251.46484375,-44.43359375,-30.2734375,-823.73046875,-1.0,0.0,-1.0,0.0,9.m4v,7.0
2024-02-28 09:57:07.465855,1709110627.4658546,280.2734375,-20.99609375,-25.390625,291.50390625,-1.0,0.0,-1.0,0.0,9.m4v,7.0
2024-02-28 09:57:07.469760,1709110627.4697602,477.05078125,-18.5546875,-18.06640625,999.51171875,-1.0,0.0,-1.0,0.0,9.m4v,7.0
2024-02-28 09:57:07.469760,1709110627.4697602,477.05078125,-18.5546875,-18.06640625,999.51171875,-1.0,0.0,-1.0,0.0,9.m4v,7.0
2024-02-28 09:57:07.473666,1709110627.473666,189.453125,-42.96875,-21.484375,933.59375,-1.0,0.0,-1.0,0.0,9.m4v,7.0
2024-02-28 09:57:07.477571,1709110627.4775715,-26.85546875,-45.8984375,-35.15625,902.34375,-1.0,0.0,-1.0,0.0,9.m4v,7.0
2024-02-28 09:57:07.477571,1709110627.4775715,-26.85546875,-45.8984375,-35.15625,902.34375,-1.0,0.0,-1.0,0.0,9.m4v,7.0
2024-02-28 09:57:07.481477,1709110627.4814773,-19.04296875,-45.41015625,-40.0390625,999.51171875,-1.0,0.0,-1.0,0.0,9.m4v,7.0
2024-02-28 09:57:07.485383,1709110627.4853828,-247.55859375,-57.12890625,-38.57421875,187.98828125,-1.0,0.0,-1.0,0.0,9.m4v,7.0
2024-02-28 09:57:07.485383,1709110627.4853828,-247.55859375,-57.12890625,-38.57421875,187.98828125,-1.0,0.0,-1.0,0.0,9.m4v,7.0
2024-02-28 09:57:07.489289,1709110627.4892886,-625.9765625,-38.0859375,-38.0859375,-1000.0,-1.0,0.0,-1.0,0.0,9.m4v,7.0
2024-02-28 09:57:07.493198,1709110627.493198,-400.390625,-24.90234375,-39.0625,-948.2421875,-1.0,0.0,-1.0,0.0,9.m4v,7.0
2024-02-28 09:57:07.493198,1709110627.493198,-400.390625,-24.90234375,-39.0625,-948.2421875,-1.0,0.0,-1.0,0.0,9.m4v,7.0
2024-02-28 09:57:07.497104,1709110627.4971037,-244.62890625,-37.109375,-38.57421875,-1000.0,-1.0,0.0,-1.0,0.0,9.m4v,7.0
2024-02-28 09:57:07.501009,1709110627.5010092,162.109375,-47.36328125,-32.71484375,-57.6171875,-1.0,0.0,-1.0,0.0,9.m4v,7.0
2024-02-28 09:57:07.501009,1709110627.5010092,162.109375,-47.36328125,-32.71484375,-57.6171875,-1.0,0.0,-1.0,0.0,9.m4v,7.0
2024-02-28 09:57:07.504915,1709110627.504915,566.40625,-57.6171875,-35.64453125,999.51171875,-1.0,0.0,-1.0,0.0,9.m4v,7.0
2024-02-28 09:57:07.508821,1709110627.5088203,384.765625,-42.96875,-32.2265625,973.6328125,-1.0,0.0,-1.0,0.0,9.m4v,7.0
2024-02-28 09:57:07.508821,1709110627.5088203,384.765625,-42.96875,-32.2265625,973.6328125,-1.0,0.0,-1.0,0.0,9.m4v,7.0
2024-02-28 09:57:07.512726,1709110627.5127263,-114.2578125,-47.8515625,-25.87890625,-12.20703125,-1.0,0.0,-1.0,0.0,9.m4v,7.0
2024-02-28 09:57:07.516632,1709110627.516632,-557.12890625,-53.7109375,-37.59765625,-1000.0,-1.0,0.0,-1.0,0.0,9.m4v,7.0
2024-02-28 09:57:07.516632,1709110627.516632,-557.12890625,-53.7109375,-37.59765625,-1000.0,-1.0,0.0,-1.0,0.0,9.m4v,7.0
2024-02-28 09:57:07.520538,1709110627.5205376,-393.06640625,-21.484375,-45.8984375,-977.5390625,-1.0,0.0,-1.0,0.0,9.m4v,7.0
2024-02-28 09:57:07.524443,1709110627.5244434,-143.5546875,-14.6484375,-49.8046875,-958.984375,-1.0,0.0,-1.0,0.0,9.m4v,7.0
2024-02-28 09:57:07.524443,1709110627.5244434,-143.5546875,-14.6484375,-49.8046875,-958.984375,-1.0,0.0,-1.0,0.0,9.m4v,7.0
2024-02-28 09:57:07.528349,1709110627.528349,-37.109375,-18.06640625,-45.8984375,-944.3359375,-1.0,0.0,-1.0,0.0,9.m4v,7.0
2024-02-28 09:57:07.532255,1709110627.5322547,-164.0625,-10.25390625,-31.73828125,-1000.0,-1.0,0.0,-1.0,0.0,9.m4v,7.0
2024-02-28 09:57:07.532255,1709110627.5322547,-164.0625,-10.25390625,-31.73828125,-1000.0,-1.0,0.0,-1.0,0.0,9.m4v,7.0
2024-02-28 09:57:07.536160,1709110627.5361602,55.17578125,-29.296875,-23.92578125,-187.98828125,-1.0,0.0,-1.0,0.0,9.m4v,7.0
2024-02-28 09:57:07.540070,1709110627.5400696,518.5546875,-38.57421875,-32.2265625,999.51171875,-1.0,0.0,-1.0,0.0,9.m4v,7.0
2024-02-28 09:57:07.540070,1709110627.5400696,518.5546875,-38.57421875,-32.2265625,999.51171875,-1.0,0.0,-1.0,0.0,9.m4v,7.0
2024-02-28 09:57:07.543975,1709110627.5439754,371.09375,-50.29296875,-34.1796875,937.5,-1.0,0.0,-1.0,0.0,9.m4v,7.0
2024-02-28 09:57:07.547881,1709110627.547881,203.61328125,-55.6640625,-31.73828125,946.2890625,-1.0,0.0,-1.0,0.0,9.m4v,7.0
2024-02-28 09:57:07.547881,1709110627.547881,203.61328125,-55.6640625,-31.73828125,946.2890625,-1.0,0.0,-1.0,0.0,9.m4v,7.0
2024-02-28 09:57:07.551787,1709110627.551787,-230.46875,-58.10546875,-28.3203125,-80.078125,-1.0,0.0,-1.0,0.0,9.m4v,7.0
2024-02-28 09:57:07.555692,1709110627.5556922,-665.0390625,-50.29296875,-21.484375,-1000.0,-1.0,0.0,-1.0,0.0,9.m4v,7.0
2024-02-28 09:57:07.555692,1709110627.5556922,-665.0390625,-50.29296875,-21.484375,-1000.0,-1.0,0.0,-1.0,0.0,9.m4v,7.0
2024-02-28 09:57:07.559598,1709110627.559598,-361.328125,-29.296875,-16.6015625,-679.19921875,-1.0,0.0,-1.0,0.0,9.m4v,7.0
2024-02-28 09:57:07.563504,1709110627.5635035,300.78125,-34.1796875,-28.80859375,566.40625,-1.0,0.0,-1.0,0.0,9.m4v,7.0
2024-02-28 09:57:07.563504,1709110627.5635035,300.78125,-34.1796875,-28.80859375,566.40625,-1.0,0.0,-1.0,0.0,9.m4v,7.0
2024-02-28 09:57:07.567409,1709110627.5674093,461.42578125,-21.484375,-44.921875,999.51171875,-1.0,0.0,-1.0,0.0,9.m4v,7.0
2024-02-28 09:57:07.571315,1709110627.5713148,84.47265625,-14.6484375,-40.0390625,616.69921875,-1.0,0.0,-1.0,0.0,9.m4v,7.0
2024-02-28 09:57:07.571315,1709110627.5713148,84.47265625,-14.6484375,-40.0390625,616.69921875,-1.0,0.0,-1.0,0.0,9.m4v,7.0
2024-02-28 09:57:07.575221,1709110627.5752206,-462.890625,-22.94921875,-33.69140625,-573.73046875,-1.0,0.0,-1.0,0.0,9.m4v,7.0
2024-02-28 09:57:07.579126,1709110627.579126,-556.640625,-34.66796875,-33.203125,-1000.0,-1.0,0.0,-1.0,0.0,9.m4v,7.0
2024-02-28 09:57:07.579126,1709110627.579126,-556.640625,-34.66796875,-33.203125,-1000.0,-1.0,0.0,-1.0,0.0,9.m4v,7.0
2024-02-28 09:57:07.583032,1709110627.583032,-203.125,-47.36328125,-38.0859375,-880.37109375,-1.0,0.0,-1.0,0.0,9.m4v,7.0
2024-02-28 09:57:07.586941,1709110627.586941,56.15234375,-43.45703125,-31.73828125,-641.11328125,-1.0,0.0,-1.0,0.0,9.m4v,7.0
2024-02-28 09:57:07.586941,1709110627.586941,56.15234375,-43.45703125,-31.73828125,-641.11328125,-1.0,0.0,-1.0,0.0,9.m4v,7.0
2024-02-28 09:57:07.590847,1709110627.5908463,-19.53125,-23.4375,-45.41015625,-815.4296875,-1.0,0.0,-1.0,0.0,9.m4v,7.0
2024-02-28 09:57:07.594752,1709110627.5947523,-250.48828125,-25.390625,-58.59375,-1000.0,-1.0,0.0,-1.0,0.0,9.m4v,7.0
2024-02-28 09:57:07.594752,1709110627.5947523,-250.48828125,-25.390625,-58.59375,-1000.0,-1.0,0.0,-1.0,0.0,9.m4v,7.0
2024-02-28 09:57:07.598658,1709110627.5986578,207.51953125,-51.7578125,-26.3671875,217.28515625,-1.0,0.0,-1.0,0.0,9.m4v,7.0
2024-02-28 09:57:07.602564,1709110627.6025636,536.62109375,-68.359375,-25.390625,999.51171875,-1.0,0.0,-1.0,0.0,9.m4v,7.0
2024-02-28 09:57:07.602564,1709110627.6025636,536.62109375,-68.359375,-25.390625,999.51171875,-1.0,0.0,-1.0,0.0,9.m4v,7.0
2024-02-28 09:57:07.606469,1709110627.6064692,326.66015625,-37.109375,-37.59765625,944.3359375,-1.0,0.0,-1.0,0.0,9.m4v,7.0
2024-02-28 09:57:07.610375,1709110627.610375,196.77734375,2.44140625,-22.94921875,835.9375,-1.0,0.0,-1.0,0.0,9.m4v,7.0
2024-02-28 09:57:07.610375,1709110627.610375,196.77734375,2.44140625,-22.94921875,835.9375,-1.0,0.0,-1.0,0.0,9.m4v,7.0
2024-02-28 09:57:07.614280,1709110627.6142805,-355.46875,-12.6953125,-21.97265625,-358.3984375,-1.0,0.0,-1.0,0.0,9.m4v,7.0
2024-02-28 09:57:07.618186,1709110627.6181862,-665.0390625,-32.71484375,-34.1796875,-1000.0,-1.0,0.0,-1.0,0.0,9.m4v,7.0
2024-02-28 09:57:07.618186,1709110627.6181862,-665.0390625,-32.71484375,-34.1796875,-1000.0,-1.0,0.0,-1.0,0.0,9.m4v,7.0
2024-02-28 09:57:07.622092,1709110627.6220918,-350.09765625,-20.5078125,-27.83203125,-964.35546875,-1.0,0.0,-1.0,0.0,9.m4v,7.0
2024-02-28 09:57:07.622092,1709110627.6220918,-350.09765625,-20.5078125,-27.83203125,-964.35546875,-1.0,0.0,-1.0,0.0,9.m4v,7.0
2024-02-28 09:57:07.625998,1709110627.6259975,-121.58203125,-36.62109375,-40.0390625,-958.0078125,-1.0,0.0,-1.0,0.0,9.m4v,7.0
2024-02-28 09:57:07.625998,1709110627.6259975,-121.58203125,-36.62109375,-40.0390625,-958.0078125,-1.0,0.0,-1.0,0.0,9.m4v,7.0
2024-02-28 09:57:07.629903,1709110627.629903,-84.47265625,-50.78125,-55.17578125,-1000.0,-1.0,0.0,-1.0,0.0,9.m4v,7.0
2024-02-28 09:57:07.629903,1709110627.629903,-84.47265625,-50.78125,-55.17578125,-1000.0,-1.0,0.0,-1.0,0.0,9.m4v,7.0
2024-02-28 09:57:07.633812,1709110627.633812,-112.3046875,-38.57421875,-48.33984375,-859.375,-1.0,0.0,-1.0,0.0,9.m4v,7.0
2024-02-28 09:57:07.633812,1709110627.633812,-112.3046875,-38.57421875,-48.33984375,-859.375,-1.0,0.0,-1.0,0.0,9.m4v,7.0
2024-02-28 09:57:07.637718,1709110627.6377175,272.94921875,-30.2734375,-45.8984375,403.80859375,-1.0,0.0,-1.0,0.0,9.m4v,7.0
2024-02-28 09:57:07.637718,1709110627.6377175,272.94921875,-30.2734375,-45.8984375,403.80859375,-1.0,0.0,-1.0,0.0,9.m4v,7.0
2024-02-28 09:57:07.641623,1709110627.6416233,476.07421875,-30.76171875,-45.8984375,997.55859375,-1.0,0.0,-1.0,0.0,9.m4v,7.0
2024-02-28 09:57:07.641623,1709110627.6416233,476.07421875,-30.76171875,-45.8984375,997.55859375,-1.0,0.0,-1.0,0.0,9.m4v,7.0
2024-02-28 09:57:07.645529,1709110627.645529,313.96484375,-27.83203125,-26.3671875,999.51171875,-1.0,0.0,-1.0,0.0,9.m4v,7.0
2024-02-28 09:57:07.645529,1709110627.645529,313.96484375,-27.83203125,-26.3671875,999.51171875,-1.0,0.0,-1.0,0.0,9.m4v,7.0
2024-02-28 09:57:07.649435,1709110627.6494348,33.203125,-55.17578125,-32.2265625,497.0703125,-1.0,0.0,-1.0,0.0,9.m4v,7.0
2024-02-28 09:57:07.649435,1709110627.6494348,33.203125,-55.17578125,-32.2265625,497.0703125,-1.0,0.0,-1.0,0.0,9.m4v,7.0
2024-02-28 09:57:07.653340,1709110627.6533403,-441.89453125,-53.7109375,-45.8984375,-786.1328125,-1.0,0.0,-1.0,0.0,9.m4v,7.0
2024-02-28 09:57:07.653340,1709110627.6533403,-441.89453125,-53.7109375,-45.8984375,-786.1328125,-1.0,0.0,-1.0,0.0,9.m4v,7.0
2024-02-28 09:57:07.657246,1709110627.657246,-518.5546875,-12.6953125,-44.43359375,-1000.0,-1.0,0.0,-1.0,0.0,9.m4v,7.0
2024-02-28 09:57:07.657246,1709110627.657246,-518.5546875,-12.6953125,-44.43359375,-1000.0,-1.0,0.0,-1.0,0.0,9.m4v,7.0
2024-02-28 09:57:07.661152,1709110627.6611516,-38.0859375,-15.13671875,-35.15625,-200.1953125,-1.0,0.0,-1.0,0.0,9.m4v,7.0
2024-02-28 09:57:07.661152,1709110627.6611516,-38.0859375,-15.13671875,-35.15625,-200.1953125,-1.0,0.0,-1.0,0.0,9.m4v,7.0
2024-02-28 09:57:07.668963,1709110627.668963,323.2421875,-24.90234375,-33.69140625,888.671875,-1.0,0.0,-1.0,0.0,9.m4v,7.0
2024-02-28 09:57:07.668963,1709110627.668963,323.2421875,-24.90234375,-33.69140625,888.671875,-1.0,0.0,-1.0,0.0,9.m4v,7.0
2024-02-28 09:57:07.676774,1709110627.6767745,-612.79296875,-39.0625,-33.203125,-1000.0,-1.0,0.0,-1.0,0.0,9.m4v,7.0
2024-02-28 09:57:07.676774,1709110627.6767745,-612.79296875,-39.0625,-33.203125,-1000.0,-1.0,0.0,-1.0,0.0,9.m4v,7.0
2024-02-28 09:57:07.684589,1709110627.684589,203.61328125,-51.26953125,-45.41015625,168.45703125,-1.0,0.0,-1.0,0.0,9.m4v,7.0
2024-02-28 09:57:07.684589,1709110627.684589,203.61328125,-51.26953125,-45.41015625,168.45703125,-1.0,0.0,-1.0,0.0,9.m4v,7.0
2024-02-28 09:57:07.692400,1709110627.6924,273.92578125,-59.08203125,-46.875,946.2890625,-1.0,0.0,-1.0,0.0,9.m4v,7.0
2024-02-28 09:57:07.692400,1709110627.6924,273.92578125,-59.08203125,-46.875,946.2890625,-1.0,0.0,-1.0,0.0,9.m4v,7.0
2024-02-28 09:57:07.700211,1709110627.7002113,44.43359375,-20.99609375,-24.4140625,999.51171875,-1.0,0.0,-1.0,0.0,9.m4v,7.0
2024-02-28 09:57:07.700211,1709110627.7002113,44.43359375,-20.99609375,-24.4140625,999.51171875,-1.0,0.0,-1.0,0.0,9.m4v,7.0
2024-02-28 09:57:07.708023,1709110627.7080226,-418.45703125,-33.69140625,-20.01953125,-484.86328125,-1.0,0.0,-1.0,0.0,9.m4v,7.0
2024-02-28 09:57:07.708023,1709110627.7080226,-418.45703125,-33.69140625,-20.01953125,-484.86328125,-1.0,0.0,-1.0,0.0,9.m4v,7.0
2024-02-28 09:57:07.715834,1709110627.715834,-355.46875,-29.296875,-27.83203125,-1000.0,-1.0,0.0,-1.0,0.0,9.m4v,7.0
2024-02-28 09:57:07.715834,1709110627.715834,-355.46875,-29.296875,-27.83203125,-1000.0,-1.0,0.0,-1.0,0.0,9.m4v,7.0
2024-02-28 09:57:07.723645,1709110627.7236452,463.37890625,-14.16015625,-53.7109375,862.3046875,-1.0,0.0,-1.0,0.0,9.m4v,7.0
2024-02-28 09:57:07.723645,1709110627.7236452,463.37890625,-14.16015625,-53.7109375,862.3046875,-1.0,0.0,-1.0,0.0,9.m4v,7.0
2024-02-28 09:57:07.731459,1709110627.7314594,-1.953125,-38.57421875,-42.96875,172.36328125,-1.0,0.0,-1.0,0.0,9.m4v,7.0
2024-02-28 09:57:07.731459,1709110627.7314594,-1.953125,-38.57421875,-42.96875,172.36328125,-1.0,0.0,-1.0,0.0,9.m4v,7.0
2024-02-28 09:57:07.739271,1709110627.7392707,-480.95703125,-41.50390625,-52.24609375,-1000.0,-1.0,0.0,-1.0,0.0,9.m4v,7.0
2024-02-28 09:57:07.739271,1709110627.7392707,-480.95703125,-41.50390625,-52.24609375,-1000.0,-1.0,0.0,-1.0,0.0,9.m4v,7.0
2024-02-28 09:57:07.747082,1709110627.747082,418.45703125,-46.875,-34.66796875,917.96875,-1.0,0.0,-1.0,0.0,9.m4v,7.0
2024-02-28 09:57:07.747082,1709110627.747082,418.45703125,-46.875,-34.66796875,917.96875,-1.0,0.0,-1.0,0.0,9.m4v,7.0
2024-02-28 09:57:07.754893,1709110627.7548933,115.234375,-31.73828125,-17.578125,915.0390625,-1.0,0.0,-1.0,0.0,9.m4v,7.0
2024-02-28 09:57:07.754893,1709110627.7548933,115.234375,-31.73828125,-17.578125,915.0390625,-1.0,0.0,-1.0,0.0,9.m4v,7.0
2024-02-28 09:57:07.762705,1709110627.7627048,65.91796875,-32.2265625,-33.69140625,979.00390625,-1.0,0.0,-1.0,0.0,9.m4v,7.0
2024-02-28 09:57:07.762705,1709110627.7627048,65.91796875,-32.2265625,-33.69140625,979.00390625,-1.0,0.0,-1.0,0.0,9.m4v,7.0
2024-02-28 09:57:07.770516,1709110627.7705162,-546.875,-21.97265625,-34.1796875,-1000.0,-1.0,0.0,-1.0,0.0,9.m4v,7.0
2024-02-28 09:57:07.770516,1709110627.7705162,-546.875,-21.97265625,-34.1796875,-1000.0,-1.0,0.0,-1.0,0.0,9.m4v,7.0
2024-02-28 09:57:07.778330,1709110627.7783298,-162.109375,-33.203125,-46.875,-751.953125,-1.0,0.0,-1.0,0.0,9.m4v,7.0
2024-02-28 09:57:07.778330,1709110627.7783298,-162.109375,-33.203125,-46.875,-751.953125,-1.0,0.0,-1.0,0.0,9.m4v,7.0
2024-02-28 09:57:07.786141,1709110627.7861412,482.91015625,-25.87890625,-33.203125,999.51171875,-1.0,0.0,-1.0,0.0,9.m4v,7.0
2024-02-28 09:57:07.786141,1709110627.7861412,482.91015625,-25.87890625,-33.203125,999.51171875,-1.0,0.0,-1.0,0.0,9.m4v,7.0
2024-02-28 09:57:07.793952,1709110627.7939525,-414.0625,-37.109375,-22.4609375,-816.89453125,-1.0,0.0,-1.0,0.0,9.m4v,7.0
2024-02-28 09:57:07.793952,1709110627.7939525,-414.0625,-37.109375,-22.4609375,-816.89453125,-1.0,0.0,-1.0,0.0,9.m4v,7.0
2024-02-28 09:57:07.801764,1709110627.8017638,-178.22265625,-43.9453125,-20.5078125,-812.5,-1.0,0.0,-1.0,0.0,9.m4v,7.0
2024-02-28 09:57:07.801764,1709110627.8017638,-178.22265625,-43.9453125,-20.5078125,-812.5,-1.0,0.0,-1.0,0.0,9.m4v,7.0
2024-02-28 09:57:07.809575,1709110627.809575,479.00390625,-27.83203125,-18.5546875,999.51171875,-1.0,0.0,-1.0,0.0,9.m4v,7.0
2024-02-28 09:57:07.809575,1709110627.809575,479.00390625,-27.83203125,-18.5546875,999.51171875,-1.0,0.0,-1.0,0.0,9.m4v,7.0
2024-02-28 09:57:07.817386,1709110627.8173864,33.69140625,-52.734375,-36.62109375,889.6484375,-1.0,0.0,-1.0,0.0,9.m4v,7.0
2024-02-28 09:57:07.817386,1709110627.8173864,33.69140625,-52.734375,-36.62109375,889.6484375,-1.0,0.0,-1.0,0.0,9.m4v,7.0
2024-02-28 09:57:07.825202,1709110627.8252015,-164.55078125,-31.73828125,-48.33984375,290.0390625,-1.0,0.0,-1.0,0.0,9.m4v,7.0
2024-02-28 09:57:07.825202,1709110627.8252015,-164.55078125,-31.73828125,-48.33984375,290.0390625,-1.0,0.0,-1.0,0.0,9.m4v,7.0
2024-02-28 09:57:07.833013,1709110627.833013,-390.13671875,-35.64453125,-34.66796875,-971.6796875,-1.0,0.0,-1.0,0.0,9.m4v,7.0
2024-02-28 09:57:07.833013,1709110627.833013,-390.13671875,-35.64453125,-34.66796875,-971.6796875,-1.0,0.0,-1.0,0.0,9.m4v,7.0
2024-02-28 09:57:07.840824,1709110627.8408244,120.1171875,-49.31640625,-19.53125,-32.71484375,-1.0,0.0,-1.0,0.0,9.m4v,7.0
2024-02-28 09:57:07.840824,1709110627.8408244,120.1171875,-49.31640625,-19.53125,-32.71484375,-1.0,0.0,-1.0,0.0,9.m4v,7.0
2024-02-28 09:57:07.848636,1709110627.8486357,363.76953125,-39.0625,-33.69140625,860.3515625,-1.0,0.0,-1.0,0.0,9.m4v,7.0
2024-02-28 09:57:07.856447,1709110627.856447,-570.80078125,-49.31640625,-42.96875,-1000.0,-1.0,0.0,-1.0,0.0,9.m4v,7.0
2024-02-28 09:57:07.864259,1709110627.8642583,262.6953125,-15.625,-25.87890625,291.015625,-1.0,0.0,-1.0,0.0,9.m4v,7.0
2024-02-28 09:57:07.872074,1709110627.8720737,194.82421875,-66.40625,-47.36328125,899.4140625,-1.0,0.0,-1.0,0.0,9.m4v,7.0
2024-02-28 09:57:07.879885,1709110627.879885,-78.125,-24.4140625,-30.76171875,821.77734375,-1.0,0.0,-1.0,0.0,9.m4v,7.0
2024-02-28 09:57:07.887696,1709110627.8876965,-193.84765625,-27.34375,-16.6015625,-140.625,-1.0,0.0,-1.0,0.0,9.m4v,7.0
2024-02-28 09:57:07.895508,1709110627.8955076,-418.45703125,-25.87890625,-35.15625,-1000.0,-1.0,0.0,-1.0,0.0,9.m4v,7.0
2024-02-28 09:57:07.899413,1709110627.899413,-163.0859375,-32.71484375,-32.71484375,-591.30859375,-1.0,0.0,-1.0,0.0,9.m4v,7.0
2024-02-28 09:57:07.903319,1709110627.903319,371.09375,-31.25,-36.1328125,707.51953125,-1.0,0.0,-1.0,0.0,9.m4v,7.0
2024-02-28 09:57:07.907225,1709110627.907225,499.51171875,-34.66796875,-38.57421875,999.51171875,-1.0,0.0,-1.0,0.0,9.m4v,7.0
2024-02-28 09:57:07.911130,1709110627.9111302,-42.96875,-47.36328125,-33.203125,87.890625,-1.0,0.0,-1.0,0.0,9.m4v,7.0
2024-02-28 09:57:07.915040,1709110627.9150395,-547.8515625,-49.31640625,-44.921875,-1000.0,-1.0,0.0,-1.0,0.0,9.m4v,7.0
2024-02-28 09:57:07.918945,1709110627.918945,-412.109375,-42.48046875,-49.8046875,-1000.0,-1.0,0.0,-1.0,0.0,9.m4v,7.0
2024-02-28 09:57:07.922851,1709110627.9228508,98.14453125,-23.4375,-16.11328125,-185.546875,-1.0,0.0,-1.0,0.0,9.m4v,7.0
2024-02-28 09:57:07.926757,1709110627.9267566,569.82421875,-12.20703125,-7.32421875,965.33203125,-1.0,0.0,-1.0,0.0,9.m4v,7.0
2024-02-28 09:57:07.930662,1709110627.9306622,404.78515625,-25.87890625,-21.97265625,974.609375,-1.0,0.0,-1.0,0.0,9.m4v,7.0
2024-02-28 09:57:07.934568,1709110627.934568,64.94140625,-26.3671875,-28.3203125,911.1328125,-1.0,0.0,-1.0,0.0,9.m4v,7.0
2024-02-28 09:57:07.938473,1709110627.9384737,-33.203125,-25.390625,-32.71484375,974.609375,-1.0,0.0,-1.0,0.0,9.m4v,7.0
2024-02-28 09:57:07.942379,1709110627.9423792,31.73828125,-25.390625,-29.78515625,954.1015625,-1.0,0.0,-1.0,0.0,9.m4v,7.0
2024-02-28 09:57:07.946285,1709110627.9462848,-382.32421875,-27.34375,-25.390625,-232.91015625,-1.0,0.0,-1.0,0.0,9.m4v,7.0
2024-02-28 09:57:07.950191,1709110627.9501903,-590.33203125,-26.85546875,-31.25,-1000.0,-1.0,0.0,-1.0,0.0,9.m4v,7.0
2024-02-28 09:57:07.954096,1709110627.954096,-286.62109375,-24.90234375,-44.43359375,-972.65625,-1.0,0.0,-1.0,0.0,9.m4v,7.0
2024-02-28 09:57:07.958002,1709110627.958002,-204.58984375,-32.2265625,-43.9453125,-896.97265625,-1.0,0.0,-1.0,0.0,9.m4v,7.0
2024-02-28 09:57:07.961911,1709110627.961911,242.1875,-41.9921875,-18.06640625,262.6953125,-1.0,0.0,-1.0,0.0,9.m4v,7.0
2024-02-28 09:57:07.965817,1709110627.9658167,523.4375,-44.43359375,-17.578125,999.51171875,-1.0,0.0,-1.0,0.0,9.m4v,7.0
2024-02-28 09:57:07.969723,1709110627.9697225,135.25390625,-26.85546875,-27.83203125,447.265625,-1.0,0.0,-1.0,0.0,9.m4v,7.0
2024-02-28 09:57:07.973628,1709110627.973628,-433.10546875,-34.1796875,-26.85546875,-785.64453125,-1.0,0.0,-1.0,0.0,9.m4v,7.0
2024-02-28 09:57:07.977534,1709110627.9775338,-559.5703125,-45.41015625,-21.484375,-1000.0,-1.0,0.0,-1.0,0.0,9.m4v,7.0
2024-02-28 09:57:07.981439,1709110627.9814394,17.578125,-32.71484375,-11.71875,-172.8515625,-1.0,0.0,-1.0,0.0,9.m4v,7.0
2024-02-28 09:57:07.985345,1709110627.9853451,526.85546875,-20.01953125,-25.87890625,999.51171875,-1.0,0.0,-1.0,0.0,9.m4v,7.0
2024-02-28 09:57:07.989251,1709110627.989251,368.65234375,-17.08984375,-39.55078125,965.33203125,-1.0,0.0,-1.0,0.0,9.m4v,7.0
2024-02-28 09:57:07.993156,1709110627.9931564,-281.25,-42.96875,-41.015625,-130.37109375,-1.0,0.0,-1.0,0.0,9.m4v,7.0
2024-02-28 09:57:07.997062,1709110627.997062,-648.92578125,-47.8515625,-47.8515625,-1000.0,-1.0,0.0,-1.0,0.0,9.m4v,7.0
2024-02-28 09:57:08.000968,1709110628.0009675,-301.26953125,-29.296875,-45.8984375,-915.52734375,-1.0,0.0,-1.0,0.0,9.m4v,7.0
2024-02-28 09:57:08.004873,1709110628.0048733,119.140625,-20.01953125,-30.2734375,-157.71484375,-1.0,0.0,-1.0,0.0,9.m4v,7.0
2024-02-28 09:57:08.008782,1709110628.008782,424.8046875,-19.53125,-27.83203125,833.984375,-1.0,0.0,-1.0,0.0,9.m4v,7.0
2024-02-28 09:57:08.012688,1709110628.012688,352.5390625,-40.52734375,-33.203125,994.62890625,-1.0,0.0,-1.0,0.0,9.m4v,7.0
2024-02-28 09:57:08.016593,1709110628.0165937,70.80078125,-67.3828125,-24.90234375,892.08984375,-1.0,0.0,-1.0,0.0,9.m4v,7.0
2024-02-28 09:57:08.020499,1709110628.0204992,34.66796875,-60.05859375,-12.6953125,999.51171875,-1.0,0.0,-1.0,0.0,9.m4v,7.0
2024-02-28 09:57:08.024405,1709110628.0244048,59.5703125,-45.8984375,-23.4375,742.1875,-1.0,0.0,-1.0,0.0,9.m4v,7.0
2024-02-28 09:57:08.028311,1709110628.0283103,-350.5859375,-36.62109375,-46.875,-583.49609375,-1.0,0.0,-1.0,0.0,9.m4v,7.0
2024-02-28 09:57:08.032216,1709110628.032216,-490.234375,-37.59765625,-41.015625,-1000.0,-1.0,0.0,-1.0,0.0,9.m4v,7.0
2024-02-28 09:57:08.036122,1709110628.0361218,-364.2578125,-46.38671875,-47.8515625,-1000.0,-1.0,0.0,-1.0,0.0,9.m4v,7.0
2024-02-28 09:57:08.040028,1709110628.0400276,-95.703125,-25.390625,-63.96484375,-434.5703125,-1.0,0.0,-1.0,0.0,9.m4v,7.0
2024-02-28 09:57:08.043933,1709110628.0439332,432.12890625,-20.5078125,-37.109375,856.4453125,-1.0,0.0,-1.0,0.0,9.m4v,7.0
2024-02-28 09:57:08.047839,1709110628.047839,453.61328125,-36.62109375,-38.0859375,999.51171875,-1.0,0.0,-1.0,0.0,9.m4v,7.0
2024-02-28 09:57:08.051744,1709110628.0517445,-29.78515625,-36.1328125,-45.8984375,206.0546875,-1.0,0.0,-1.0,0.0,9.m4v,7.0
2024-02-28 09:57:08.055653,1709110628.055653,-573.73046875,-33.69140625,-20.01953125,-938.96484375,-1.0,0.0,-1.0,0.0,9.m4v,7.0
2024-02-28 09:57:08.059559,1709110628.0595589,-519.04296875,-46.38671875,-9.27734375,-1000.0,-1.0,0.0,-1.0,0.0,9.m4v,7.0
2024-02-28 09:57:08.063464,1709110628.0634644,-27.83203125,-34.66796875,-11.71875,-375.48828125,-1.0,0.0,-1.0,0.0,9.m4v,7.0
2024-02-28 09:57:08.067370,1709110628.0673702,443.84765625,-25.390625,-19.53125,790.0390625,-1.0,0.0,-1.0,0.0,9.m4v,7.0
2024-02-28 09:57:08.071276,1709110628.0712757,335.9375,-44.921875,-36.62109375,999.51171875,-1.0,0.0,-1.0,0.0,9.m4v,7.0
2024-02-28 09:57:08.075181,1709110628.0751815,10.25390625,-52.24609375,-49.31640625,908.69140625,-1.0,0.0,-1.0,0.0,9.m4v,7.0
2024-02-28 09:57:08.079087,1709110628.0790873,8.7890625,-41.9921875,-37.59765625,964.35546875,-1.0,0.0,-1.0,0.0,9.m4v,7.0
2024-02-28 09:57:08.082993,1709110628.0829928,103.515625,-56.640625,-32.71484375,979.4921875,-1.0,0.0,-1.0,0.0,9.m4v,7.0
2024-02-28 09:57:08.086899,1709110628.0868986,-247.0703125,-60.546875,-59.5703125,-178.22265625,-1.0,0.0,-1.0,0.0,9.m4v,7.0
2024-02-28 09:57:08.411094,1709110628.411094,-90.33203125,-45.8984375,-39.0625,-1000.0,-1.0,0.0,-1.0,0.0,9.m4v,7.0
2024-02-28 09:57:08.411094,1709110628.411094,-90.33203125,-45.8984375,-39.0625,-1000.0,-1.0,0.0,-1.0,0.0,9.m4v,7.0
2024-02-28 09:57:08.415000,1709110628.4149995,-7.8125,-48.33984375,-38.0859375,-536.62109375,-1.0,0.0,-1.0,0.0,9.m4v,7.0
2024-02-28 09:57:08.415000,1709110628.4149995,-7.8125,-48.33984375,-38.0859375,-536.62109375,-1.0,0.0,-1.0,0.0,9.m4v,7.0
2024-02-28 09:57:08.418905,1709110628.4189053,436.5234375,-33.69140625,-34.66796875,812.5,-1.0,0.0,-1.0,0.0,9.m4v,7.0
2024-02-28 09:57:08.418905,1709110628.4189053,436.5234375,-33.69140625,-34.66796875,812.5,-1.0,0.0,-1.0,0.0,9.m4v,7.0
2024-02-28 09:57:08.422811,1709110628.422811,404.296875,-23.4375,-39.0625,974.12109375,-1.0,0.0,-1.0,0.0,9.m4v,7.0
2024-02-28 09:57:08.422811,1709110628.422811,404.296875,-23.4375,-39.0625,974.12109375,-1.0,0.0,-1.0,0.0,9.m4v,7.0
2024-02-28 09:57:08.426717,1709110628.4267166,204.58984375,-16.11328125,-43.45703125,995.60546875,-1.0,0.0,-1.0,0.0,9.m4v,7.0
2024-02-28 09:57:08.426717,1709110628.4267166,204.58984375,-16.11328125,-43.45703125,995.60546875,-1.0,0.0,-1.0,0.0,9.m4v,7.0
2024-02-28 09:57:08.430625,1709110628.4306254,-152.83203125,-18.06640625,-24.90234375,85.44921875,-1.0,0.0,-1.0,0.0,9.m4v,7.0
2024-02-28 09:57:08.430625,1709110628.4306254,-152.83203125,-18.06640625,-24.90234375,85.44921875,-1.0,0.0,-1.0,0.0,9.m4v,7.0
2024-02-28 09:57:08.434531,1709110628.434531,-591.30859375,-17.08984375,-26.85546875,-1000.0,-1.0,0.0,-1.0,0.0,9.m4v,7.0
2024-02-28 09:57:08.434531,1709110628.434531,-591.30859375,-17.08984375,-26.85546875,-1000.0,-1.0,0.0,-1.0,0.0,9.m4v,7.0
2024-02-28 09:57:08.438437,1709110628.4384367,-420.41015625,-29.78515625,-34.1796875,-908.69140625,-1.0,0.0,-1.0,0.0,9.m4v,7.0
2024-02-28 09:57:08.438437,1709110628.4384367,-420.41015625,-29.78515625,-34.1796875,-908.69140625,-1.0,0.0,-1.0,0.0,9.m4v,7.0
2024-02-28 09:57:08.442342,1709110628.4423423,170.8984375,-47.36328125,-27.83203125,289.0625,-1.0,0.0,-1.0,0.0,9.m4v,7.0
2024-02-28 09:57:08.442342,1709110628.4423423,170.8984375,-47.36328125,-27.83203125,289.0625,-1.0,0.0,-1.0,0.0,9.m4v,7.0
2024-02-28 09:57:08.446248,1709110628.446248,438.96484375,-47.8515625,-27.34375,999.51171875,-1.0,0.0,-1.0,0.0,9.m4v,7.0
2024-02-28 09:57:08.446248,1709110628.446248,438.96484375,-47.8515625,-27.34375,999.51171875,-1.0,0.0,-1.0,0.0,9.m4v,7.0
2024-02-28 09:57:08.450154,1709110628.4501536,236.328125,-56.15234375,-37.109375,927.24609375,-1.0,0.0,-1.0,0.0,9.m4v,7.0
2024-02-28 09:57:08.450154,1709110628.4501536,236.328125,-56.15234375,-37.109375,927.24609375,-1.0,0.0,-1.0,0.0,9.m4v,7.0
2024-02-28 09:57:08.454059,1709110628.4540594,36.1328125,-61.03515625,-40.0390625,700.68359375,-1.0,0.0,-1.0,0.0,9.m4v,7.0
2024-02-28 09:57:08.454059,1709110628.4540594,36.1328125,-61.03515625,-40.0390625,700.68359375,-1.0,0.0,-1.0,0.0,9.m4v,7.0
2024-02-28 09:57:08.457965,1709110628.457965,-408.203125,-50.29296875,-47.36328125,-394.04296875,-1.0,0.0,-1.0,0.0,9.m4v,7.0
2024-02-28 09:57:08.457965,1709110628.457965,-408.203125,-50.29296875,-47.36328125,-394.04296875,-1.0,0.0,-1.0,0.0,9.m4v,7.0
2024-02-28 09:57:08.461871,1709110628.461871,-523.92578125,-34.66796875,-61.5234375,-1000.0,-1.0,0.0,-1.0,0.0,9.m4v,7.0
2024-02-28 09:57:08.461871,1709110628.461871,-523.92578125,-34.66796875,-61.5234375,-1000.0,-1.0,0.0,-1.0,0.0,9.m4v,7.0
2024-02-28 09:57:08.465776,1709110628.4657762,-246.58203125,-36.1328125,-43.45703125,-945.3125,-1.0,0.0,-1.0,0.0,9.m4v,7.0
2024-02-28 09:57:08.465776,1709110628.4657762,-246.58203125,-36.1328125,-43.45703125,-945.3125,-1.0,0.0,-1.0,0.0,9.m4v,7.0
2024-02-28 09:57:08.469682,1709110628.469682,-115.72265625,-21.484375,-18.5546875,-982.421875,-1.0,0.0,-1.0,0.0,9.m4v,7.0
2024-02-28 09:57:08.469682,1709110628.469682,-115.72265625,-21.484375,-18.5546875,-982.421875,-1.0,0.0,-1.0,0.0,9.m4v,7.0
2024-02-28 09:57:08.473588,1709110628.4735875,-138.671875,-6.8359375,-12.6953125,-1000.0,-1.0,0.0,-1.0,0.0,9.m4v,7.0
2024-02-28 09:57:08.473588,1709110628.4735875,-138.671875,-6.8359375,-12.6953125,-1000.0,-1.0,0.0,-1.0,0.0,9.m4v,7.0
2024-02-28 09:57:08.477496,1709110628.477496,221.6796875,-15.625,-18.5546875,145.99609375,-1.0,0.0,-1.0,0.0,9.m4v,7.0
2024-02-28 09:57:08.477496,1709110628.477496,221.6796875,-15.625,-18.5546875,145.99609375,-1.0,0.0,-1.0,0.0,9.m4v,7.0
2024-02-28 09:57:08.481402,1709110628.4814017,501.46484375,-30.76171875,-18.06640625,999.51171875,-1.0,0.0,-1.0,0.0,9.m4v,7.0
2024-02-28 09:57:08.481402,1709110628.4814017,501.46484375,-30.76171875,-18.06640625,999.51171875,-1.0,0.0,-1.0,0.0,9.m4v,7.0
2024-02-28 09:57:08.485307,1709110628.4853077,301.7578125,-41.015625,-19.04296875,999.51171875,-1.0,0.0,-1.0,0.0,9.m4v,7.0
2024-02-28 09:57:08.485307,1709110628.4853077,301.7578125,-41.015625,-19.04296875,999.51171875,-1.0,0.0,-1.0,0.0,9.m4v,7.0
2024-02-28 09:57:08.489213,1709110628.489213,57.6171875,-55.6640625,-30.2734375,508.7890625,-1.0,0.0,-1.0,0.0,9.m4v,7.0
2024-02-28 09:57:08.489213,1709110628.489213,57.6171875,-55.6640625,-30.2734375,508.7890625,-1.0,0.0,-1.0,0.0,9.m4v,7.0
2024-02-28 09:57:08.493119,1709110628.4931188,-429.19921875,-58.59375,-43.45703125,-780.2734375,-1.0,0.0,-1.0,0.0,9.m4v,7.0
2024-02-28 09:57:08.493119,1709110628.4931188,-429.19921875,-58.59375,-43.45703125,-780.2734375,-1.0,0.0,-1.0,0.0,9.m4v,7.0
2024-02-28 09:57:08.497024,1709110628.4970243,-560.546875,-35.15625,-36.1328125,-1000.0,-1.0,0.0,-1.0,0.0,9.m4v,7.0
2024-02-28 09:57:08.497024,1709110628.4970243,-560.546875,-35.15625,-36.1328125,-1000.0,-1.0,0.0,-1.0,0.0,9.m4v,7.0
2024-02-28 09:57:08.500930,1709110628.50093,-5.859375,-9.27734375,-32.71484375,-79.58984375,-1.0,0.0,-1.0,0.0,9.m4v,7.0
2024-02-28 09:57:08.500930,1709110628.50093,-5.859375,-9.27734375,-32.71484375,-79.58984375,-1.0,0.0,-1.0,0.0,9.m4v,7.0
2024-02-28 09:57:08.504836,1709110628.5048356,458.49609375,-15.625,-30.2734375,999.51171875,-1.0,0.0,-1.0,0.0,9.m4v,7.0
2024-02-28 09:57:08.504836,1709110628.5048356,458.49609375,-15.625,-30.2734375,999.51171875,-1.0,0.0,-1.0,0.0,9.m4v,7.0
2024-02-28 09:57:08.508741,1709110628.5087414,177.734375,-30.76171875,-23.4375,715.33203125,-1.0,0.0,-1.0,0.0,9.m4v,7.0
2024-02-28 09:57:08.508741,1709110628.5087414,177.734375,-30.76171875,-23.4375,715.33203125,-1.0,0.0,-1.0,0.0,9.m4v,7.0
2024-02-28 09:57:08.512647,1709110628.512647,-345.21484375,-29.296875,-30.2734375,-489.74609375,-1.0,0.0,-1.0,0.0,9.m4v,7.0
2024-02-28 09:57:08.516553,1709110628.5165527,-512.6953125,-53.7109375,-45.41015625,-1000.0,-1.0,0.0,-1.0,0.0,9.m4v,7.0
2024-02-28 09:57:08.520458,1709110628.5204582,-126.46484375,-56.15234375,-31.25,-501.953125,-1.0,0.0,-1.0,0.0,9.m4v,7.0
2024-02-28 09:57:08.524366,1709110628.5243664,422.8515625,-31.25,-24.4140625,730.95703125,-1.0,0.0,-1.0,0.0,9.m4v,7.0
2024-02-28 09:57:08.528272,1709110628.5282722,461.42578125,-22.4609375,-37.59765625,999.51171875,-1.0,0.0,-1.0,0.0,9.m4v,7.0
2024-02-28 09:57:08.532178,1709110628.5321777,83.984375,-17.578125,-43.9453125,642.08984375,-1.0,0.0,-1.0,0.0,9.m4v,7.0
2024-02-28 09:57:08.536083,1709110628.5360837,-411.1328125,-34.1796875,-34.1796875,-469.23828125,-1.0,0.0,-1.0,0.0,9.m4v,7.0
2024-02-28 09:57:08.539989,1709110628.5399892,-521.97265625,-55.17578125,-18.5546875,-1000.0,-1.0,0.0,-1.0,0.0,9.m4v,7.0
2024-02-28 09:57:08.543895,1709110628.5438948,-212.890625,-51.26953125,-22.94921875,-970.21484375,-1.0,0.0,-1.0,0.0,9.m4v,7.0
2024-02-28 09:57:08.547801,1709110628.5478003,-83.49609375,-46.875,-30.76171875,-931.640625,-1.0,0.0,-1.0,0.0,9.m4v,7.0
2024-02-28 09:57:08.551706,1709110628.551706,-161.1328125,-43.45703125,-26.85546875,-1000.0,-1.0,0.0,-1.0,0.0,9.m4v,7.0
2024-02-28 09:57:08.555612,1709110628.5556118,4.39453125,-26.3671875,-44.921875,-367.1875,-1.0,0.0,-1.0,0.0,9.m4v,7.0
2024-02-28 09:57:08.559517,1709110628.5595174,454.58984375,-23.92578125,-63.4765625,932.6171875,-1.0,0.0,-1.0,0.0,9.m4v,7.0
2024-02-28 09:57:08.563423,1709110628.5634232,448.73046875,-38.57421875,-41.9921875,973.6328125,-1.0,0.0,-1.0,0.0,9.m4v,7.0
2024-02-28 09:57:08.567329,1709110628.5673287,213.37890625,-23.92578125,-24.90234375,909.66796875,-1.0,0.0,-1.0,0.0,9.m4v,7.0
2024-02-28 09:57:08.571239,1709110628.5712385,-297.36328125,-26.3671875,-22.94921875,-111.328125,-1.0,0.0,-1.0,0.0,9.m4v,7.0
2024-02-28 09:57:08.575144,1709110628.575144,-653.3203125,-43.9453125,-22.94921875,-1000.0,-1.0,0.0,-1.0,0.0,9.m4v,7.0
2024-02-28 09:57:08.579050,1709110628.5790498,-275.87890625,-38.0859375,-16.6015625,-653.3203125,-1.0,0.0,-1.0,0.0,9.m4v,7.0
2024-02-28 09:57:08.582955,1709110628.5829554,378.41796875,-45.8984375,-18.06640625,631.34765625,-1.0,0.0,-1.0,0.0,9.m4v,7.0
2024-02-28 09:57:08.602484,1709110628.6024835,-448.2421875,-35.15625,-44.921875,-1000.0,-1.0,0.0,-1.0,0.0,9.m4v,7.0
2024-02-28 09:57:08.606389,1709110628.6063893,-186.03515625,-55.17578125,-49.31640625,-937.01171875,-1.0,0.0,-1.0,0.0,9.m4v,7.0
2024-02-28 09:57:08.610295,1709110628.610295,-86.9140625,-44.921875,-44.43359375,-1000.0,-1.0,0.0,-1.0,0.0,9.m4v,7.0
2024-02-28 09:57:08.614201,1709110628.6142006,-133.30078125,-28.80859375,-29.296875,-939.453125,-1.0,0.0,-1.0,0.0,9.m4v,7.0
2024-02-28 09:57:08.618110,1709110628.6181104,206.54296875,-14.16015625,-37.109375,262.20703125,-1.0,0.0,-1.0,0.0,9.m4v,7.0
2024-02-28 09:57:08.622016,1709110628.6220162,469.7265625,-7.32421875,-30.2734375,999.51171875,-1.0,0.0,-1.0,0.0,9.m4v,7.0
2024-02-28 09:57:08.625922,1709110628.6259215,326.171875,-18.5546875,-18.5546875,999.51171875,-1.0,0.0,-1.0,0.0,9.m4v,7.0
2024-02-28 09:57:08.629827,1709110628.6298275,-94.7265625,-23.92578125,-21.484375,189.453125,-1.0,0.0,-1.0,0.0,9.m4v,7.0
2024-02-28 09:57:08.633733,1709110628.633733,-601.07421875,-36.1328125,-31.25,-1000.0,-1.0,0.0,-1.0,0.0,9.m4v,7.0
2024-02-28 09:57:08.754816,1709110628.7548156,-568.359375,-23.92578125,-28.80859375,-1000.0,-1.0,0.0,-1.0,0.0,9.m4v,7.0
2024-02-28 09:57:08.754816,1709110628.7548156,-568.359375,-23.92578125,-28.80859375,-1000.0,-1.0,0.0,-1.0,0.0,9.m4v,7.0
2024-02-28 09:57:08.762630,1709110628.7626302,283.69140625,-36.1328125,-37.59765625,480.95703125,-1.0,0.0,-1.0,0.0,9.m4v,7.0
2024-02-28 09:57:08.762630,1709110628.7626302,283.69140625,-36.1328125,-37.59765625,480.95703125,-1.0,0.0,-1.0,0.0,9.m4v,7.0
2024-02-28 09:57:08.774347,1709110628.774347,-299.31640625,-53.7109375,-25.390625,-161.1328125,-1.0,0.0,-1.0,0.0,9.m4v,7.0
2024-02-28 09:57:08.774347,1709110628.774347,-299.31640625,-53.7109375,-25.390625,-161.1328125,-1.0,0.0,-1.0,0.0,9.m4v,7.0
2024-02-28 09:57:08.782158,1709110628.7821584,-280.76171875,-21.97265625,-25.87890625,-980.46875,-1.0,0.0,-1.0,0.0,9.m4v,7.0
2024-02-28 09:57:08.782158,1709110628.7821584,-280.76171875,-21.97265625,-25.87890625,-980.46875,-1.0,0.0,-1.0,0.0,9.m4v,7.0
2024-02-28 09:57:08.793875,1709110628.7938757,-72.75390625,-40.0390625,-29.296875,-803.7109375,-1.0,0.0,-1.0,0.0,9.m4v,7.0
2024-02-28 09:57:08.793875,1709110628.7938757,-72.75390625,-40.0390625,-29.296875,-803.7109375,-1.0,0.0,-1.0,0.0,9.m4v,7.0
2024-02-28 09:57:08.805596,1709110628.8055956,294.43359375,-51.7578125,-43.45703125,999.51171875,-1.0,0.0,-1.0,0.0,9.m4v,7.0
2024-02-28 09:57:08.805596,1709110628.8055956,294.43359375,-51.7578125,-43.45703125,999.51171875,-1.0,0.0,-1.0,0.0,9.m4v,7.0
2024-02-28 09:57:08.817313,1709110628.8173127,-492.67578125,-51.26953125,-26.3671875,-1000.0,-1.0,0.0,-1.0,0.0,9.m4v,7.0
2024-02-28 09:57:08.817313,1709110628.8173127,-492.67578125,-51.26953125,-26.3671875,-1000.0,-1.0,0.0,-1.0,0.0,9.m4v,7.0
2024-02-28 09:57:08.829030,1709110628.8290296,389.16015625,-29.78515625,-39.0625,999.51171875,-1.0,0.0,-1.0,0.0,9.m4v,7.0
2024-02-28 09:57:08.840747,1709110628.8407466,-437.5,-33.69140625,-30.76171875,-1000.0,-1.0,0.0,-1.0,0.0,9.m4v,7.0
2024-02-28 09:57:08.852466,1709110628.8524663,-164.55078125,-37.109375,-20.01953125,-1000.0,-1.0,0.0,-1.0,0.0,9.m4v,7.0
2024-02-28 09:57:08.864183,1709110628.8641834,370.60546875,-21.484375,-35.64453125,999.51171875,-1.0,0.0,-1.0,0.0,9.m4v,7.0
2024-02-28 09:57:08.875900,1709110628.8759005,-572.265625,-35.64453125,-30.76171875,-1000.0,-1.0,0.0,-1.0,0.0,9.m4v,7.0
2024-02-28 09:57:08.887617,1709110628.887617,414.0625,-24.4140625,-34.1796875,999.51171875,-1.0,0.0,-1.0,0.0,9.m4v,7.0
2024-02-28 09:57:08.899337,1709110628.8993368,-607.421875,-39.0625,-36.1328125,-1000.0,-1.0,0.0,-1.0,0.0,9.m4v,7.0
2024-02-28 09:57:08.907148,1709110628.907148,-131.8359375,-31.73828125,-24.90234375,-925.29296875,-1.0,0.0,-1.0,0.0,9.m4v,7.0
2024-02-28 09:57:08.911054,1709110628.911054,-140.13671875,-41.015625,-47.8515625,-1000.0,-1.0,0.0,-1.0,0.0,9.m4v,7.0
2024-02-28 09:57:08.914959,1709110628.9149594,22.4609375,-59.08203125,-41.015625,-386.23046875,-1.0,0.0,-1.0,0.0,9.m4v,7.0
2024-02-28 09:57:08.918865,1709110628.9188652,501.953125,-61.5234375,-31.25,937.5,-1.0,0.0,-1.0,0.0,9.m4v,7.0
2024-02-28 09:57:08.922771,1709110628.9227707,441.40625,-34.66796875,-33.69140625,955.078125,-1.0,0.0,-1.0,0.0,9.m4v,7.0
2024-02-28 09:57:08.926677,1709110628.9266765,219.7265625,-16.11328125,-48.33984375,978.02734375,-1.0,0.0,-1.0,0.0,9.m4v,7.0
2024-02-28 09:57:08.930582,1709110628.930582,-151.3671875,-16.6015625,-39.55078125,11.23046875,-1.0,0.0,-1.0,0.0,9.m4v,7.0
2024-02-28 09:57:08.934488,1709110628.9344878,-551.7578125,-34.1796875,-29.296875,-1000.0,-1.0,0.0,-1.0,0.0,9.m4v,7.0
2024-02-28 09:57:08.938393,1709110628.9383934,-362.79296875,-41.015625,-50.29296875,-859.86328125,-1.0,0.0,-1.0,0.0,9.m4v,7.0
2024-02-28 09:57:08.942299,1709110628.9422991,230.95703125,-26.85546875,-33.203125,308.10546875,-1.0,0.0,-1.0,0.0,9.m4v,7.0
2024-02-28 09:57:08.946209,1709110628.946209,507.32421875,-29.78515625,-26.85546875,999.51171875,-1.0,0.0,-1.0,0.0,9.m4v,7.0
2024-02-28 09:57:09.403203,1709110629.4032028,489.2578125,-38.57421875,-10.7421875,999.51171875,-1.0,0.0,-1.0,0.0,9.m4v,7.0
2024-02-28 09:57:09.403203,1709110629.4032028,489.2578125,-38.57421875,-10.7421875,999.51171875,-1.0,0.0,-1.0,0.0,9.m4v,7.0
2024-02-28 09:57:09.407108,1709110629.4071083,263.18359375,-61.5234375,-19.04296875,882.32421875,-1.0,0.0,-1.0,0.0,9.m4v,7.0
2024-02-28 09:57:09.407108,1709110629.4071083,263.18359375,-61.5234375,-19.04296875,882.32421875,-1.0,0.0,-1.0,0.0,9.m4v,7.0
2024-02-28 09:57:09.411014,1709110629.411014,-240.72265625,-63.4765625,-27.83203125,-154.296875,-1.0,0.0,-1.0,0.0,9.m4v,7.0
2024-02-28 09:57:09.411014,1709110629.411014,-240.72265625,-63.4765625,-27.83203125,-154.296875,-1.0,0.0,-1.0,0.0,9.m4v,7.0
2024-02-28 09:57:09.414923,1709110629.4149234,-592.28515625,-26.85546875,-24.4140625,-1000.0,-1.0,0.0,-1.0,0.0,9.m4v,7.0
2024-02-28 09:57:09.414923,1709110629.4149234,-592.28515625,-26.85546875,-24.4140625,-1000.0,-1.0,0.0,-1.0,0.0,9.m4v,7.0
2024-02-28 09:57:09.418829,1709110629.418829,-310.546875,-11.23046875,-28.3203125,-759.27734375,-1.0,0.0,-1.0,0.0,9.m4v,7.0
2024-02-28 09:57:09.418829,1709110629.418829,-310.546875,-11.23046875,-28.3203125,-759.27734375,-1.0,0.0,-1.0,0.0,9.m4v,7.0
2024-02-28 09:57:09.422735,1709110629.4227347,260.7421875,-10.25390625,-23.4375,448.2421875,-1.0,0.0,-1.0,0.0,9.m4v,7.0
2024-02-28 09:57:09.422735,1709110629.4227347,260.7421875,-10.25390625,-23.4375,448.2421875,-1.0,0.0,-1.0,0.0,9.m4v,7.0
2024-02-28 09:57:09.426640,1709110629.4266405,462.890625,-34.1796875,-30.2734375,999.51171875,-1.0,0.0,-1.0,0.0,9.m4v,7.0
2024-02-28 09:57:09.426640,1709110629.4266405,462.890625,-34.1796875,-30.2734375,999.51171875,-1.0,0.0,-1.0,0.0,9.m4v,7.0
2024-02-28 09:57:09.430546,1709110629.430546,128.41796875,-56.15234375,-52.734375,778.3203125,-1.0,0.0,-1.0,0.0,9.m4v,7.0
2024-02-28 09:57:09.430546,1709110629.430546,128.41796875,-56.15234375,-52.734375,778.3203125,-1.0,0.0,-1.0,0.0,9.m4v,7.0
2024-02-28 09:57:09.434452,1709110629.4344516,-185.546875,-33.69140625,-41.9921875,163.57421875,-1.0,0.0,-1.0,0.0,9.m4v,7.0
2024-02-28 09:57:09.434452,1709110629.4344516,-185.546875,-33.69140625,-41.9921875,163.57421875,-1.0,0.0,-1.0,0.0,9.m4v,7.0
2024-02-28 09:57:09.438357,1709110629.4383574,-404.296875,-29.296875,-30.2734375,-661.62109375,-1.0,0.0,-1.0,0.0,9.m4v,7.0
2024-02-28 09:57:09.438357,1709110629.4383574,-404.296875,-29.296875,-30.2734375,-661.62109375,-1.0,0.0,-1.0,0.0,9.m4v,7.0
2024-02-28 09:57:09.442263,1709110629.442263,-393.06640625,-46.38671875,-16.6015625,-1000.0,-1.0,0.0,-1.0,0.0,9.m4v,7.0
2024-02-28 09:57:09.442263,1709110629.442263,-393.06640625,-46.38671875,-16.6015625,-1000.0,-1.0,0.0,-1.0,0.0,9.m4v,7.0
2024-02-28 09:57:09.446169,1709110629.446169,-197.75390625,-54.19921875,-15.13671875,-943.84765625,-1.0,0.0,-1.0,0.0,9.m4v,7.0
2024-02-28 09:57:09.446169,1709110629.446169,-197.75390625,-54.19921875,-15.13671875,-943.84765625,-1.0,0.0,-1.0,0.0,9.m4v,7.0
2024-02-28 09:57:09.450074,1709110629.4500742,-151.85546875,-73.2421875,-39.55078125,-1000.0,-1.0,0.0,-1.0,0.0,9.m4v,7.0
2024-02-28 09:57:09.453980,1709110629.45398,-159.66796875,-61.03515625,-34.66796875,-875.48828125,-1.0,0.0,-1.0,0.0,9.m4v,7.0
2024-02-28 09:57:09.457886,1709110629.4578855,273.92578125,-20.99609375,-18.06640625,379.39453125,-1.0,0.0,-1.0,0.0,9.m4v,7.0
2024-02-28 09:57:09.461795,1709110629.4617949,493.65234375,-18.5546875,-29.296875,999.51171875,-1.0,0.0,-1.0,0.0,9.m4v,7.0
2024-02-28 09:57:09.465700,1709110629.4657004,303.7109375,-25.390625,-32.2265625,999.51171875,-1.0,0.0,-1.0,0.0,9.m4v,7.0
2024-02-28 09:57:09.469606,1709110629.4696062,-105.46875,-30.76171875,-33.69140625,185.546875,-1.0,0.0,-1.0,0.0,9.m4v,7.0
2024-02-28 09:57:09.473512,1709110629.473512,-571.77734375,-25.390625,-40.0390625,-1000.0,-1.0,0.0,-1.0,0.0,9.m4v,7.0
2024-02-28 09:57:09.477417,1709110629.4774177,-412.59765625,-23.4375,-26.3671875,-930.6640625,-1.0,0.0,-1.0,0.0,9.m4v,7.0
2024-02-28 09:57:09.481323,1709110629.4813232,221.19140625,-30.2734375,-27.34375,221.19140625,-1.0,0.0,-1.0,0.0,9.m4v,7.0
2024-02-28 09:57:09.485229,1709110629.4852288,501.46484375,-38.57421875,-33.203125,999.51171875,-1.0,0.0,-1.0,0.0,9.m4v,7.0
2024-02-28 09:57:09.489135,1709110629.4891346,103.02734375,-44.43359375,-20.99609375,562.98828125,-1.0,0.0,-1.0,0.0,9.m4v,7.0
2024-02-28 09:57:09.493040,1709110629.49304,-423.33984375,-31.73828125,-28.3203125,-650.87890625,-1.0,0.0,-1.0,0.0,9.m4v,7.0
2024-02-28 09:57:09.496946,1709110629.496946,-545.8984375,-45.8984375,-34.66796875,-1000.0,-1.0,0.0,-1.0,0.0,9.m4v,7.0
2024-02-28 09:57:09.500851,1709110629.5008514,-124.0234375,-53.7109375,-45.8984375,-601.07421875,-1.0,0.0,-1.0,0.0,9.m4v,7.0
2024-02-28 09:57:09.504757,1709110629.5047572,416.50390625,-43.45703125,-64.453125,609.375,-1.0,0.0,-1.0,0.0,9.m4v,7.0
2024-02-28 09:57:09.508666,1709110629.508666,485.83984375,-29.296875,-43.9453125,999.51171875,-1.0,0.0,-1.0,0.0,9.m4v,7.0
2024-02-28 09:57:09.512572,1709110629.5125716,163.57421875,-24.4140625,-24.90234375,932.6171875,-1.0,0.0,-1.0,0.0,9.m4v,7.0
2024-02-28 09:57:09.516477,1709110629.516477,-15.13671875,-38.0859375,-29.78515625,906.25,-1.0,0.0,-1.0,0.0,9.m4v,7.0
2024-02-28 09:57:09.520383,1709110629.520383,70.80078125,-40.52734375,-20.99609375,999.51171875,-1.0,0.0,-1.0,0.0,9.m4v,7.0
2024-02-28 09:57:09.524289,1709110629.524289,-74.70703125,-23.4375,-18.06640625,348.14453125,-1.0,0.0,-1.0,0.0,9.m4v,7.0
2024-02-28 09:57:10.250792,1709110630.250792,-177.24609375,-32.2265625,-53.7109375,-1000.0,-1.0,0.0,-1.0,0.0,9.m4v,7.0
2024-02-28 09:57:10.254698,1709110630.2546976,122.55859375,-21.484375,-42.48046875,-195.3125,-1.0,0.0,-1.0,0.0,9.m4v,7.0
2024-02-28 09:57:10.258607,1709110630.258607,484.86328125,-12.6953125,-18.5546875,999.51171875,-1.0,0.0,-1.0,0.0,9.m4v,7.0
2024-02-28 09:57:10.262512,1709110630.2625124,335.44921875,-22.4609375,-15.625,938.96484375,-1.0,0.0,-1.0,0.0,9.m4v,7.0
2024-02-28 09:57:10.266418,1709110630.266418,168.9453125,-43.9453125,-30.76171875,940.91796875,-1.0,0.0,-1.0,0.0,9.m4v,7.0
2024-02-28 09:57:10.270324,1709110630.2703238,-241.69921875,-45.41015625,-27.83203125,-57.6171875,-1.0,0.0,-1.0,0.0,9.m4v,7.0
2024-02-28 09:57:10.274229,1709110630.2742293,-614.74609375,-38.0859375,-18.5546875,-1000.0,-1.0,0.0,-1.0,0.0,9.m4v,7.0
2024-02-28 09:57:10.278135,1709110630.278135,-187.01171875,-37.59765625,-32.2265625,-470.21484375,-1.0,0.0,-1.0,0.0,9.m4v,7.0
2024-02-28 09:57:10.282041,1709110630.2820406,415.52734375,-40.0390625,-44.43359375,819.3359375,-1.0,0.0,-1.0,0.0,9.m4v,7.0
2024-02-28 09:57:10.285946,1709110630.2859464,454.58984375,-22.4609375,-45.41015625,999.51171875,-1.0,0.0,-1.0,0.0,9.m4v,7.0
2024-02-28 09:57:10.289852,1709110630.289852,-55.17578125,-34.66796875,-39.0625,91.796875,-1.0,0.0,-1.0,0.0,9.m4v,7.0
2024-02-28 09:57:10.293758,1709110630.2937577,-541.50390625,-62.5,-21.97265625,-1000.0,-1.0,0.0,-1.0,0.0,9.m4v,7.0
2024-02-28 09:57:10.297663,1709110630.2976637,-435.05859375,-49.8046875,-24.90234375,-966.30859375,-1.0,0.0,-1.0,0.0,9.m4v,7.0
2024-02-28 09:57:10.301569,1709110630.301569,165.0390625,-11.23046875,-38.0859375,98.14453125,-1.0,0.0,-1.0,0.0,9.m4v,7.0
2024-02-28 09:57:10.305478,1709110630.305478,561.03515625,-10.25390625,-25.390625,999.51171875,-1.0,0.0,-1.0,0.0,9.m4v,7.0
2024-02-28 09:57:10.309383,1709110630.3093834,208.49609375,-38.0859375,-15.625,667.96875,-1.0,0.0,-1.0,0.0,9.m4v,7.0
2024-02-28 09:57:10.313289,1709110630.3132892,-454.58984375,-46.875,-23.4375,-587.890625,-1.0,0.0,-1.0,0.0,9.m4v,7.0
2024-02-28 09:57:10.317195,1709110630.317195,-571.2890625,-32.71484375,-36.1328125,-1000.0,-1.0,0.0,-1.0,0.0,9.m4v,7.0
2024-02-28 09:57:10.321100,1709110630.3211005,-250.9765625,-20.99609375,-31.73828125,-928.22265625,-1.0,0.0,-1.0,0.0,9.m4v,7.0
2024-02-28 09:57:10.325006,1709110630.3250062,-93.26171875,-31.73828125,-15.13671875,-905.76171875,-1.0,0.0,-1.0,0.0,9.m4v,7.0
2024-02-28 09:57:10.328912,1709110630.3289118,-110.3515625,-39.0625,-24.4140625,-1000.0,-1.0,0.0,-1.0,0.0,9.m4v,7.0
2024-02-28 09:57:10.332818,1709110630.3328176,-129.8828125,-30.76171875,-33.69140625,-802.24609375,-1.0,0.0,-1.0,0.0,9.m4v,7.0
2024-02-28 09:57:10.336723,1709110630.336723,308.10546875,-28.3203125,-36.1328125,510.7421875,-1.0,0.0,-1.0,0.0,9.m4v,7.0
2024-02-28 09:57:10.340629,1709110630.3406289,427.734375,-33.203125,-57.12890625,994.62890625,-1.0,0.0,-1.0,0.0,9.m4v,7.0
2024-02-28 09:57:10.344534,1709110630.3445344,289.0625,-37.59765625,-53.22265625,999.51171875,-1.0,0.0,-1.0,0.0,9.m4v,7.0
2024-02-28 09:57:10.348440,1709110630.3484402,15.13671875,-52.24609375,-37.59765625,271.484375,-1.0,0.0,-1.0,0.0,9.m4v,7.0
2024-02-28 09:57:10.352349,1709110630.3523486,-495.60546875,-47.8515625,-27.83203125,-979.4921875,-1.0,0.0,-1.0,0.0,9.m4v,7.0
2024-02-28 09:57:10.356254,1709110630.356254,-481.4453125,-22.94921875,-16.6015625,-1000.0,-1.0,0.0,-1.0,0.0,9.m4v,7.0
2024-02-28 09:57:10.360160,1709110630.36016,50.29296875,-21.97265625,-33.203125,-58.59375,-1.0,0.0,-1.0,0.0,9.m4v,7.0
2024-02-28 09:57:10.364066,1709110630.3640656,511.23046875,-27.83203125,-33.203125,999.51171875,-1.0,0.0,-1.0,0.0,9.m4v,7.0
2024-02-28 09:57:10.367971,1709110630.3679712,327.1484375,-34.66796875,-22.4609375,930.17578125,-1.0,0.0,-1.0,0.0,9.m4v,7.0
2024-02-28 09:57:10.371877,1709110630.371877,103.02734375,-42.48046875,-24.4140625,908.203125,-1.0,0.0,-1.0,0.0,9.m4v,7.0
2024-02-28 09:57:10.375782,1709110630.3757825,-12.6953125,-47.8515625,-26.3671875,928.22265625,-1.0,0.0,-1.0,0.0,9.m4v,7.0
2024-02-28 09:57:10.379688,1709110630.3796885,-35.64453125,-52.24609375,-30.76171875,999.51171875,-1.0,0.0,-1.0,0.0,9.m4v,7.0
2024-02-28 09:57:10.383594,1709110630.3835938,-304.19921875,-50.29296875,-35.15625,68.84765625,-1.0,0.0,-1.0,0.0,9.m4v,7.0
2024-02-28 09:57:10.387500,1709110630.3874996,-560.546875,-40.0390625,-44.43359375,-1000.0,-1.0,0.0,-1.0,0.0,9.m4v,7.0
2024-02-28 09:57:10.391405,1709110630.391405,-329.58984375,-24.90234375,-44.43359375,-926.26953125,-1.0,0.0,-1.0,0.0,9.m4v,7.0
2024-02-28 09:57:10.395311,1709110630.3953109,-309.5703125,-10.7421875,-26.3671875,-1000.0,-1.0,0.0,-1.0,0.0,9.m4v,7.0
2024-02-28 09:57:10.399221,1709110630.3992207,-9.765625,-4.8828125,-20.99609375,-162.59765625,-1.0,0.0,-1.0,0.0,9.m4v,7.0
2024-02-28 09:57:10.403126,1709110630.4031262,483.3984375,-23.4375,-34.1796875,999.51171875,-1.0,0.0,-1.0,0.0,9.m4v,7.0
2024-02-28 09:57:10.407032,1709110630.407032,421.38671875,-43.9453125,-32.71484375,995.1171875,-1.0,0.0,-1.0,0.0,9.m4v,7.0
2024-02-28 09:57:10.410938,1709110630.4109375,-106.93359375,-43.9453125,-34.66796875,-8.7890625,-1.0,0.0,-1.0,0.0,9.m4v,7.0
2024-02-28 09:57:10.414843,1709110630.414843,-572.75390625,-41.9921875,-34.66796875,-1000.0,-1.0,0.0,-1.0,0.0,9.m4v,7.0
2024-02-28 09:57:10.418749,1709110630.4187489,-287.109375,-30.2734375,-36.62109375,-739.2578125,-1.0,0.0,-1.0,0.0,9.m4v,7.0
2024-02-28 09:57:10.418749,1709110630.4187489,-287.109375,-30.2734375,-36.62109375,-739.2578125,-1.0,0.0,-1.0,0.0,9.m4v,7.0
2024-02-28 09:57:10.422655,1709110630.4226546,330.078125,-29.78515625,-31.25,461.9140625,-1.0,0.0,-1.0,0.0,9.m4v,7.0
2024-02-28 09:57:10.422655,1709110630.4226546,330.078125,-29.78515625,-31.25,461.9140625,-1.0,0.0,-1.0,0.0,9.m4v,7.0
2024-02-28 09:57:10.426560,1709110630.4265602,535.15625,-55.17578125,-25.390625,999.51171875,-1.0,0.0,-1.0,0.0,9.m4v,7.0
2024-02-28 09:57:10.426560,1709110630.4265602,535.15625,-55.17578125,-25.390625,999.51171875,-1.0,0.0,-1.0,0.0,9.m4v,7.0
2024-02-28 09:57:10.430466,1709110630.430466,7.32421875,-62.98828125,-31.73828125,205.078125,-1.0,0.0,-1.0,0.0,9.m4v,7.0
2024-02-28 09:57:10.430466,1709110630.430466,7.32421875,-62.98828125,-31.73828125,205.078125,-1.0,0.0,-1.0,0.0,9.m4v,7.0
2024-02-28 09:57:10.434372,1709110630.4343717,-564.453125,-47.36328125,-31.73828125,-988.28125,-1.0,0.0,-1.0,0.0,9.m4v,7.0
2024-02-28 09:57:10.434372,1709110630.4343717,-564.453125,-47.36328125,-31.73828125,-988.28125,-1.0,0.0,-1.0,0.0,9.m4v,7.0
2024-02-28 09:57:10.438277,1709110630.4382772,-497.0703125,-26.85546875,-36.1328125,-1000.0,-1.0,0.0,-1.0,0.0,9.m4v,7.0
2024-02-28 09:57:10.438277,1709110630.4382772,-497.0703125,-26.85546875,-36.1328125,-1000.0,-1.0,0.0,-1.0,0.0,9.m4v,7.0
2024-02-28 09:57:10.442183,1709110630.442183,-148.4375,-24.4140625,-30.76171875,-711.9140625,-1.0,0.0,-1.0,0.0,9.m4v,7.0
2024-02-28 09:57:10.442183,1709110630.442183,-148.4375,-24.4140625,-30.76171875,-711.9140625,-1.0,0.0,-1.0,0.0,9.m4v,7.0
2024-02-28 09:57:10.446094,1709110630.4460945,85.44921875,-25.390625,-28.80859375,-557.12890625,-1.0,0.0,-1.0,0.0,9.m4v,7.0
2024-02-28 09:57:10.446094,1709110630.4460945,85.44921875,-25.390625,-28.80859375,-557.12890625,-1.0,0.0,-1.0,0.0,9.m4v,7.0
2024-02-28 09:57:10.450000,1709110630.45,-58.59375,-22.4609375,-29.78515625,-1000.0,-1.0,0.0,-1.0,0.0,9.m4v,7.0
2024-02-28 09:57:10.450000,1709110630.45,-58.59375,-22.4609375,-29.78515625,-1000.0,-1.0,0.0,-1.0,0.0,9.m4v,7.0
2024-02-28 09:57:10.453906,1709110630.4539056,-114.2578125,-39.55078125,-28.3203125,-681.15234375,-1.0,0.0,-1.0,0.0,9.m4v,7.0
2024-02-28 09:57:10.453906,1709110630.4539056,-114.2578125,-39.55078125,-28.3203125,-681.15234375,-1.0,0.0,-1.0,0.0,9.m4v,7.0
2024-02-28 09:57:10.684357,1709110630.6843574,-43.9453125,-46.38671875,-12.6953125,-905.2734375,-1.0,0.0,-1.0,0.0,9.m4v,7.0
2024-02-28 09:57:10.684357,1709110630.6843574,-43.9453125,-46.38671875,-12.6953125,-905.2734375,-1.0,0.0,-1.0,0.0,9.m4v,7.0
2024-02-28 09:57:10.692169,1709110630.6921687,-134.765625,-76.171875,-39.55078125,-894.53125,-1.0,0.0,-1.0,0.0,9.m4v,7.0
2024-02-28 09:57:10.692169,1709110630.6921687,-134.765625,-76.171875,-39.55078125,-894.53125,-1.0,0.0,-1.0,0.0,9.m4v,7.0
2024-02-28 09:57:10.699980,1709110630.69998,489.74609375,-18.5546875,-37.109375,999.51171875,-1.0,0.0,-1.0,0.0,9.m4v,7.0
2024-02-28 09:57:10.699980,1709110630.69998,489.74609375,-18.5546875,-37.109375,999.51171875,-1.0,0.0,-1.0,0.0,9.m4v,7.0
2024-02-28 09:57:10.703886,1709110630.7038856,315.91796875,-27.34375,-47.36328125,986.81640625,-1.0,0.0,-1.0,0.0,9.m4v,7.0
2024-02-28 09:57:10.703886,1709110630.7038856,315.91796875,-27.34375,-47.36328125,986.81640625,-1.0,0.0,-1.0,0.0,9.m4v,7.0
2024-02-28 09:57:10.707791,1709110630.707791,150.87890625,-39.0625,-28.3203125,636.23046875,-1.0,0.0,-1.0,0.0,9.m4v,7.0
2024-02-28 09:57:10.707791,1709110630.707791,150.87890625,-39.0625,-28.3203125,636.23046875,-1.0,0.0,-1.0,0.0,9.m4v,7.0
2024-02-28 09:57:10.711697,1709110630.7116969,-354.4921875,-34.1796875,-34.1796875,-618.65234375,-1.0,0.0,-1.0,0.0,9.m4v,7.0
2024-02-28 09:57:10.711697,1709110630.7116969,-354.4921875,-34.1796875,-34.1796875,-618.65234375,-1.0,0.0,-1.0,0.0,9.m4v,7.0
2024-02-28 09:57:10.715603,1709110630.7156026,-534.66796875,-32.71484375,-57.6171875,-1000.0,-1.0,0.0,-1.0,0.0,9.m4v,7.0
2024-02-28 09:57:10.715603,1709110630.7156026,-534.66796875,-32.71484375,-57.6171875,-1000.0,-1.0,0.0,-1.0,0.0,9.m4v,7.0
2024-02-28 09:57:10.719508,1709110630.7195082,-194.3359375,-36.1328125,-63.4765625,-675.29296875,-1.0,0.0,-1.0,0.0,9.m4v,7.0
2024-02-28 09:57:10.719508,1709110630.7195082,-194.3359375,-36.1328125,-63.4765625,-675.29296875,-1.0,0.0,-1.0,0.0,9.m4v,7.0
2024-02-28 09:57:10.723414,1709110630.723414,345.703125,-31.73828125,-30.2734375,526.85546875,-1.0,0.0,-1.0,0.0,9.m4v,7.0
2024-02-28 09:57:10.723414,1709110630.723414,345.703125,-31.73828125,-30.2734375,526.85546875,-1.0,0.0,-1.0,0.0,9.m4v,7.0
2024-02-28 09:57:10.727324,1709110630.7273242,465.8203125,-49.8046875,-11.23046875,999.51171875,-1.0,0.0,-1.0,0.0,9.m4v,7.0
2024-02-28 09:57:10.727324,1709110630.7273242,465.8203125,-49.8046875,-11.23046875,999.51171875,-1.0,0.0,-1.0,0.0,9.m4v,7.0
2024-02-28 09:57:10.731230,1709110630.73123,151.3671875,-57.12890625,-19.04296875,885.25390625,-1.0,0.0,-1.0,0.0,9.m4v,7.0
2024-02-28 09:57:10.731230,1709110630.73123,151.3671875,-57.12890625,-19.04296875,885.25390625,-1.0,0.0,-1.0,0.0,9.m4v,7.0
2024-02-28 09:57:10.739041,1709110630.739041,45.8984375,-43.9453125,-33.203125,999.51171875,-1.0,0.0,-1.0,0.0,9.m4v,7.0
2024-02-28 09:57:10.739041,1709110630.739041,45.8984375,-43.9453125,-33.203125,999.51171875,-1.0,0.0,-1.0,0.0,9.m4v,7.0
2024-02-28 09:57:10.746853,1709110630.7468526,-527.83203125,-5.859375,-26.3671875,-1000.0,-1.0,0.0,-1.0,0.0,9.m4v,7.0
2024-02-28 09:57:10.746853,1709110630.7468526,-527.83203125,-5.859375,-26.3671875,-1000.0,-1.0,0.0,-1.0,0.0,9.m4v,7.0
2024-02-28 09:57:10.754664,1709110630.754664,-296.38671875,-44.43359375,-28.80859375,-1000.0,-1.0,0.0,-1.0,0.0,9.m4v,7.0
2024-02-28 09:57:10.754664,1709110630.754664,-296.38671875,-44.43359375,-28.80859375,-1000.0,-1.0,0.0,-1.0,0.0,9.m4v,7.0
2024-02-28 09:57:10.762475,1709110630.7624753,437.01171875,-27.83203125,-39.0625,933.59375,-1.0,0.0,-1.0,0.0,9.m4v,7.0
2024-02-28 09:57:10.762475,1709110630.7624753,437.01171875,-27.83203125,-39.0625,933.59375,-1.0,0.0,-1.0,0.0,9.m4v,7.0
2024-02-28 09:57:10.770287,1709110630.7702866,-94.7265625,-36.1328125,-49.8046875,-74.70703125,-1.0,0.0,-1.0,0.0,9.m4v,7.0
2024-02-28 09:57:10.770287,1709110630.7702866,-94.7265625,-36.1328125,-49.8046875,-74.70703125,-1.0,0.0,-1.0,0.0,9.m4v,7.0
2024-02-28 09:57:10.778100,1709110630.7781005,-344.7265625,-52.24609375,-38.57421875,-967.7734375,-1.0,0.0,-1.0,0.0,9.m4v,7.0
2024-02-28 09:57:10.778100,1709110630.7781005,-344.7265625,-52.24609375,-38.57421875,-967.7734375,-1.0,0.0,-1.0,0.0,9.m4v,7.0
2024-02-28 09:57:10.785912,1709110630.7859118,545.8984375,-52.24609375,-33.69140625,999.51171875,-1.0,0.0,-1.0,0.0,9.m4v,7.0
2024-02-28 09:57:10.785912,1709110630.7859118,545.8984375,-52.24609375,-33.69140625,999.51171875,-1.0,0.0,-1.0,0.0,9.m4v,7.0
2024-02-28 09:57:10.793723,1709110630.793723,77.63671875,-7.32421875,-21.484375,873.046875,-1.0,0.0,-1.0,0.0,9.m4v,7.0
2024-02-28 09:57:10.793723,1709110630.793723,77.63671875,-7.32421875,-21.484375,873.046875,-1.0,0.0,-1.0,0.0,9.m4v,7.0
2024-02-28 09:57:10.801534,1709110630.8015344,-71.77734375,-41.015625,-43.45703125,514.16015625,-1.0,0.0,-1.0,0.0,9.m4v,7.0
2024-02-28 09:57:10.801534,1709110630.8015344,-71.77734375,-41.015625,-43.45703125,514.16015625,-1.0,0.0,-1.0,0.0,9.m4v,7.0
2024-02-28 09:57:10.809346,1709110630.8093455,-461.42578125,-25.87890625,-43.45703125,-993.1640625,-1.0,0.0,-1.0,0.0,9.m4v,7.0
2024-02-28 09:57:10.809346,1709110630.8093455,-461.42578125,-25.87890625,-43.45703125,-993.1640625,-1.0,0.0,-1.0,0.0,9.m4v,7.0
2024-02-28 09:57:10.817157,1709110630.817157,-208.0078125,-55.17578125,-18.5546875,-724.609375,-1.0,0.0,-1.0,0.0,9.m4v,7.0
2024-02-28 09:57:10.817157,1709110630.817157,-208.0078125,-55.17578125,-18.5546875,-724.609375,-1.0,0.0,-1.0,0.0,9.m4v,7.0
2024-02-28 09:57:10.824972,1709110630.8249724,550.29296875,-26.85546875,-34.66796875,999.51171875,-1.0,0.0,-1.0,0.0,9.m4v,7.0
2024-02-28 09:57:10.824972,1709110630.8249724,550.29296875,-26.85546875,-34.66796875,999.51171875,-1.0,0.0,-1.0,0.0,9.m4v,7.0
2024-02-28 09:57:10.832784,1709110630.8327837,-477.5390625,-32.71484375,-47.8515625,-982.421875,-1.0,0.0,-1.0,0.0,9.m4v,7.0
2024-02-28 09:57:10.832784,1709110630.8327837,-477.5390625,-32.71484375,-47.8515625,-982.421875,-1.0,0.0,-1.0,0.0,9.m4v,7.0
2024-02-28 09:57:10.840595,1709110630.840595,146.97265625,-18.06640625,-32.71484375,96.19140625,-1.0,0.0,-1.0,0.0,9.m4v,7.0
2024-02-28 09:57:10.840595,1709110630.840595,146.97265625,-18.06640625,-32.71484375,96.19140625,-1.0,0.0,-1.0,0.0,9.m4v,7.0
2024-02-28 09:57:10.848406,1709110630.8484063,247.0703125,-22.94921875,-25.87890625,740.234375,-1.0,0.0,-1.0,0.0,9.m4v,7.0
2024-02-28 09:57:10.848406,1709110630.8484063,247.0703125,-22.94921875,-25.87890625,740.234375,-1.0,0.0,-1.0,0.0,9.m4v,7.0
2024-02-28 09:57:10.856218,1709110630.8562176,-549.31640625,-43.9453125,-37.109375,-1000.0,-1.0,0.0,-1.0,0.0,9.m4v,7.0
2024-02-28 09:57:10.856218,1709110630.8562176,-549.31640625,-43.9453125,-37.109375,-1000.0,-1.0,0.0,-1.0,0.0,9.m4v,7.0
2024-02-28 09:57:10.864029,1709110630.864029,24.90234375,-57.12890625,-44.921875,-673.33984375,-1.0,0.0,-1.0,0.0,9.m4v,7.0
2024-02-28 09:57:10.864029,1709110630.864029,24.90234375,-57.12890625,-44.921875,-673.33984375,-1.0,0.0,-1.0,0.0,9.m4v,7.0
2024-02-28 09:57:10.871844,1709110630.871844,-226.5625,-13.671875,-47.36328125,-1000.0,-1.0,0.0,-1.0,0.0,9.m4v,7.0
2024-02-28 09:57:10.871844,1709110630.871844,-226.5625,-13.671875,-47.36328125,-1000.0,-1.0,0.0,-1.0,0.0,9.m4v,7.0
2024-02-28 09:57:10.879655,1709110630.8796554,500.9765625,-48.33984375,-23.92578125,999.51171875,-1.0,0.0,-1.0,0.0,9.m4v,7.0
2024-02-28 09:57:10.879655,1709110630.8796554,500.9765625,-48.33984375,-23.92578125,999.51171875,-1.0,0.0,-1.0,0.0,9.m4v,7.0
2024-02-28 09:57:10.887467,1709110630.887467,183.59375,-40.52734375,-25.87890625,997.55859375,-1.0,0.0,-1.0,0.0,9.m4v,7.0
2024-02-28 09:57:10.887467,1709110630.887467,183.59375,-40.52734375,-25.87890625,997.55859375,-1.0,0.0,-1.0,0.0,9.m4v,7.0
2024-02-28 09:57:10.895278,1709110630.895278,-631.8359375,-29.78515625,-35.64453125,-1000.0,-1.0,0.0,-1.0,0.0,9.m4v,7.0
2024-02-28 09:57:10.895278,1709110630.895278,-631.8359375,-29.78515625,-35.64453125,-1000.0,-1.0,0.0,-1.0,0.0,9.m4v,7.0
2024-02-28 09:57:10.903089,1709110630.9030893,-121.09375,-30.76171875,-46.875,-957.51953125,-1.0,0.0,-1.0,0.0,9.m4v,7.0
2024-02-28 09:57:10.910901,1709110630.9109006,-89.35546875,-40.0390625,-44.921875,-1000.0,-1.0,0.0,-1.0,0.0,9.m4v,7.0
2024-02-28 09:57:10.918718,1709110630.9187176,486.328125,-43.45703125,-28.80859375,999.51171875,-1.0,0.0,-1.0,0.0,9.m4v,7.0
2024-02-28 09:57:10.926529,1709110630.926529,144.04296875,-15.13671875,-42.96875,774.4140625,-1.0,0.0,-1.0,0.0,9.m4v,7.0
2024-02-28 09:57:10.934340,1709110630.9343402,-607.91015625,-51.7578125,-36.62109375,-1000.0,-1.0,0.0,-1.0,0.0,9.m4v,7.0
2024-02-28 09:57:10.942152,1709110630.9421515,409.1796875,-17.578125,-45.8984375,999.51171875,-1.0,0.0,-1.0,0.0,9.m4v,7.0
2024-02-28 09:57:10.949963,1709110630.9499629,-264.16015625,-42.96875,-29.296875,-139.16015625,-1.0,0.0,-1.0,0.0,9.m4v,7.0
2024-02-28 09:57:10.957774,1709110630.9577742,-333.984375,-45.41015625,-39.0625,-787.109375,-1.0,0.0,-1.0,0.0,9.m4v,7.0
2024-02-28 09:57:10.965591,1709110630.9655907,457.03125,-17.08984375,-40.0390625,999.51171875,-1.0,0.0,-1.0,0.0,9.m4v,7.0
2024-02-28 09:57:10.973402,1709110630.973402,-310.546875,-19.04296875,-36.1328125,-194.82421875,-1.0,0.0,-1.0,0.0,9.m4v,7.0
2024-02-28 09:57:10.981213,1709110630.981213,-382.32421875,-48.828125,-36.62109375,-984.375,-1.0,0.0,-1.0,0.0,9.m4v,7.0
2024-02-28 09:57:10.989025,1709110630.9890246,-72.75390625,-19.04296875,-57.6171875,-1000.0,-1.0,0.0,-1.0,0.0,9.m4v,7.0
2024-02-28 09:57:11.074955,1709110631.0749557,-578.61328125,-22.94921875,-36.1328125,-1000.0,-1.0,0.0,-1.0,0.0,9.m4v,7.0
2024-02-28 09:57:11.082767,1709110631.0827668,430.6640625,-20.5078125,-46.38671875,784.66796875,-1.0,0.0,-1.0,0.0,9.m4v,7.0
2024-02-28 09:57:11.090578,1709110631.090578,-33.203125,-53.22265625,-21.97265625,155.2734375,-1.0,0.0,-1.0,0.0,9.m4v,7.0
2024-02-28 09:57:11.094484,1709110631.094484,-531.25,-23.92578125,-26.3671875,-981.93359375,-1.0,0.0,-1.0,0.0,9.m4v,7.0
2024-02-28 09:57:11.098389,1709110631.0983894,-416.015625,-27.34375,-34.1796875,-1000.0,-1.0,0.0,-1.0,0.0,9.m4v,7.0
2024-02-28 09:57:11.102298,1709110631.1022985,-171.875,-32.2265625,-52.24609375,-966.796875,-1.0,0.0,-1.0,0.0,9.m4v,7.0
2024-02-28 09:57:11.106204,1709110631.1062038,-85.9375,-41.50390625,-30.76171875,-953.125,-1.0,0.0,-1.0,0.0,9.m4v,7.0
2024-02-28 09:57:11.110110,1709110631.1101096,-110.3515625,-54.6875,-16.11328125,-1000.0,-1.0,0.0,-1.0,0.0,9.m4v,7.0
2024-02-28 09:57:11.114015,1709110631.114015,123.046875,-30.76171875,-36.1328125,-182.6171875,-1.0,0.0,-1.0,0.0,9.m4v,7.0
2024-02-28 09:57:11.117921,1709110631.1179209,489.74609375,-22.4609375,-44.921875,999.51171875,-1.0,0.0,-1.0,0.0,9.m4v,7.0
2024-02-28 09:57:11.121826,1709110631.1218264,363.28125,-28.80859375,-29.78515625,933.10546875,-1.0,0.0,-1.0,0.0,9.m4v,7.0
2024-02-28 09:57:11.571019,1709110631.571019,-229.00390625,-41.50390625,-29.296875,-136.71875,-1.0,0.0,-1.0,0.0,9.m4v,7.0
2024-02-28 09:57:11.574924,1709110631.5749245,-613.28125,-42.48046875,-35.15625,-1000.0,-1.0,0.0,-1.0,0.0,9.m4v,7.0
2024-02-28 09:57:11.578830,1709110631.5788302,-357.91015625,-30.76171875,-28.80859375,-888.18359375,-1.0,0.0,-1.0,0.0,9.m4v,7.0
2024-02-28 09:57:11.582736,1709110631.5827358,40.0390625,-20.5078125,-36.62109375,-334.47265625,-1.0,0.0,-1.0,0.0,9.m4v,7.0
2024-02-28 09:57:11.586642,1709110631.5866416,369.140625,-26.3671875,-59.08203125,565.4296875,-1.0,0.0,-1.0,0.0,9.m4v,7.0
2024-02-28 09:57:11.590547,1709110631.590547,354.98046875,-30.76171875,-51.26953125,999.0234375,-1.0,0.0,-1.0,0.0,9.m4v,7.0
2024-02-28 09:57:11.594453,1709110631.5944529,87.40234375,-48.33984375,-33.69140625,895.01953125,-1.0,0.0,-1.0,0.0,9.m4v,7.0
2024-02-28 09:57:11.598359,1709110631.5983586,-11.71875,-64.453125,-32.71484375,999.51171875,-1.0,0.0,-1.0,0.0,9.m4v,7.0
2024-02-28 09:57:11.602264,1709110631.6022642,-53.22265625,-56.15234375,-31.73828125,665.52734375,-1.0,0.0,-1.0,0.0,9.m4v,7.0
2024-02-28 09:57:11.606170,1709110631.60617,-391.11328125,-36.62109375,-29.78515625,-675.78125,-1.0,0.0,-1.0,0.0,9.m4v,7.0
2024-02-28 09:57:11.610075,1709110631.6100757,-446.77734375,-33.69140625,-23.4375,-1000.0,-1.0,0.0,-1.0,0.0,9.m4v,7.0
2024-02-28 09:57:11.613981,1709110631.6139812,-316.40625,-22.94921875,-18.5546875,-1000.0,-1.0,0.0,-1.0,0.0,9.m4v,7.0
2024-02-28 09:57:11.617891,1709110631.6178908,42.96875,-9.27734375,-25.390625,-207.51953125,-1.0,0.0,-1.0,0.0,9.m4v,7.0
2024-02-28 09:57:11.621797,1709110631.6217966,504.39453125,-16.11328125,-28.80859375,989.74609375,-1.0,0.0,-1.0,0.0,9.m4v,7.0
2024-02-28 09:57:11.625702,1709110631.625702,391.11328125,-28.80859375,-33.203125,999.51171875,-1.0,0.0,-1.0,0.0,9.m4v,7.0
2024-02-28 09:57:11.629608,1709110631.629608,-108.88671875,-35.15625,-41.50390625,74.21875,-1.0,0.0,-1.0,0.0,9.m4v,7.0
2024-02-28 09:57:11.633513,1709110631.6335137,-573.2421875,-36.62109375,-34.66796875,-1000.0,-1.0,0.0,-1.0,0.0,9.m4v,7.0
2024-02-28 09:57:11.637419,1709110631.6374192,-398.4375,-38.57421875,-48.828125,-871.58203125,-1.0,0.0,-1.0,0.0,9.m4v,7.0
2024-02-28 09:57:11.641325,1709110631.641325,173.33984375,-42.96875,-49.31640625,233.88671875,-1.0,0.0,-1.0,0.0,9.m4v,7.0
2024-02-28 09:57:11.645231,1709110631.6452303,496.09375,-38.0859375,-30.76171875,999.51171875,-1.0,0.0,-1.0,0.0,9.m4v,7.0
2024-02-28 09:57:11.649136,1709110631.6491363,185.546875,-47.8515625,-34.1796875,679.6875,-1.0,0.0,-1.0,0.0,9.m4v,7.0
2024-02-28 09:57:11.653042,1709110631.6530418,-420.8984375,-56.15234375,-42.96875,-540.0390625,-1.0,0.0,-1.0,0.0,9.m4v,7.0
2024-02-28 09:57:11.656948,1709110631.6569476,-525.390625,-26.3671875,-44.921875,-1000.0,-1.0,0.0,-1.0,0.0,9.m4v,7.0
2024-02-28 09:57:11.660853,1709110631.6608531,-245.60546875,-8.7890625,-44.921875,-963.8671875,-1.0,0.0,-1.0,0.0,9.m4v,7.0
2024-02-28 09:57:11.664762,1709110631.6647625,-113.28125,-33.203125,-41.9921875,-936.03515625,-1.0,0.0,-1.0,0.0,9.m4v,7.0
2024-02-28 09:57:11.668668,1709110631.6686685,-75.68359375,-39.0625,-24.4140625,-1000.0,-1.0,0.0,-1.0,0.0,9.m4v,7.0
2024-02-28 09:57:11.672574,1709110631.6725738,20.5078125,-21.484375,-10.25390625,-465.8203125,-1.0,0.0,-1.0,0.0,9.m4v,7.0
2024-02-28 09:57:11.676480,1709110631.6764796,396.484375,-27.34375,-15.625,897.4609375,-1.0,0.0,-1.0,0.0,9.m4v,7.0
2024-02-28 09:57:11.680385,1709110631.680385,407.71484375,-37.59765625,-25.390625,946.2890625,-1.0,0.0,-1.0,0.0,9.m4v,7.0
2024-02-28 09:57:11.684291,1709110631.684291,271.484375,-22.94921875,-23.92578125,999.51171875,-1.0,0.0,-1.0,0.0,9.m4v,7.0
2024-02-28 09:57:11.688196,1709110631.6881964,76.171875,-24.90234375,-33.203125,556.640625,-1.0,0.0,-1.0,0.0,9.m4v,7.0
2024-02-28 09:57:11.692102,1709110631.6921022,-462.890625,-47.8515625,-41.015625,-741.69921875,-1.0,0.0,-1.0,0.0,9.m4v,7.0
2024-02-28 09:57:11.696008,1709110631.6960075,-548.33984375,-53.22265625,-33.69140625,-1000.0,-1.0,0.0,-1.0,0.0,9.m4v,7.0
2024-02-28 09:57:11.699914,1709110631.6999135,-195.3125,-30.2734375,-20.99609375,-770.99609375,-1.0,0.0,-1.0,0.0,9.m4v,7.0
2024-02-28 09:57:11.703819,1709110631.703819,105.95703125,-37.109375,-18.06640625,-189.453125,-1.0,0.0,-1.0,0.0,9.m4v,7.0
2024-02-28 09:57:11.707725,1709110631.7077248,272.4609375,-36.62109375,-39.0625,520.01953125,-1.0,0.0,-1.0,0.0,9.m4v,7.0
2024-02-28 09:57:11.711637,1709110631.7116363,258.7890625,-7.32421875,-55.17578125,957.51953125,-1.0,0.0,-1.0,0.0,9.m4v,7.0
2024-02-28 09:57:11.715542,1709110631.715542,104.00390625,-19.04296875,-42.96875,898.92578125,-1.0,0.0,-1.0,0.0,9.m4v,7.0
2024-02-28 09:57:11.836624,1709110631.836624,-570.80078125,-24.90234375,-31.73828125,-1000.0,-1.0,0.0,-1.0,0.0,9.m4v,7.0
2024-02-28 09:57:11.844435,1709110631.8444357,-70.3125,-29.296875,-32.2265625,-928.22265625,-1.0,0.0,-1.0,0.0,9.m4v,7.0
2024-02-28 09:57:11.852250,1709110631.8522496,-31.73828125,-48.33984375,-25.390625,-535.15625,-1.0,0.0,-1.0,0.0,9.m4v,7.0
2024-02-28 09:57:11.856155,1709110631.8561552,377.44140625,-42.48046875,-33.69140625,826.66015625,-1.0,0.0,-1.0,0.0,9.m4v,7.0
2024-02-28 09:57:11.863966,1709110631.8639665,286.1328125,-35.15625,-41.50390625,999.51171875,-1.0,0.0,-1.0,0.0,9.m4v,7.0
2024-02-28 09:57:11.867872,1709110631.8678722,-45.8984375,-40.0390625,-33.69140625,243.1640625,-1.0,0.0,-1.0,0.0,9.m4v,7.0
2024-02-28 09:57:11.875684,1709110631.8756835,-472.16796875,-22.94921875,-42.96875,-1000.0,-1.0,0.0,-1.0,0.0,9.m4v,7.0
2024-02-28 09:57:11.879589,1709110631.879589,41.015625,-30.76171875,-43.9453125,-137.20703125,-1.0,0.0,-1.0,0.0,9.m4v,7.0
2024-02-28 09:57:11.887400,1709110631.8874004,269.53125,-33.69140625,-29.296875,827.1484375,-1.0,0.0,-1.0,0.0,9.m4v,7.0
2024-02-28 09:57:11.891306,1709110631.8913062,-338.37890625,-38.0859375,-26.3671875,-323.2421875,-1.0,0.0,-1.0,0.0,9.m4v,7.0
2024-02-28 09:57:11.899122,1709110631.8991218,-224.12109375,-37.59765625,-28.3203125,-801.7578125,-1.0,0.0,-1.0,0.0,9.m4v,7.0
2024-02-28 09:57:11.906933,1709110631.906933,452.63671875,-41.9921875,-37.59765625,999.51171875,-1.0,0.0,-1.0,0.0,9.m4v,7.0
2024-02-28 09:57:11.910839,1709110631.9108388,195.80078125,-35.64453125,-27.83203125,944.3359375,-1.0,0.0,-1.0,0.0,9.m4v,7.0
2024-02-28 09:57:11.914744,1709110631.9147444,2.9296875,-29.78515625,-25.390625,899.90234375,-1.0,0.0,-1.0,0.0,9.m4v,7.0
2024-02-28 09:57:11.918650,1709110631.9186502,47.8515625,-32.2265625,-30.2734375,999.51171875,-1.0,0.0,-1.0,0.0,9.m4v,7.0
2024-02-28 09:57:11.922556,1709110631.9225557,-8.7890625,-28.80859375,-54.19921875,542.96875,-1.0,0.0,-1.0,0.0,9.m4v,7.0
2024-02-28 09:57:11.926461,1709110631.9264617,-437.5,-32.71484375,-45.8984375,-809.08203125,-1.0,0.0,-1.0,0.0,9.m4v,7.0
2024-02-28 09:57:11.930367,1709110631.930367,-486.328125,-32.2265625,-26.3671875,-1000.0,-1.0,0.0,-1.0,0.0,9.m4v,7.0
2024-02-28 09:57:11.934273,1709110631.9342728,-338.8671875,-27.83203125,-38.0859375,-1000.0,-1.0,0.0,-1.0,0.0,9.m4v,7.0
2024-02-28 09:57:11.938178,1709110631.9381783,58.59375,-40.52734375,-26.3671875,-40.52734375,-1.0,0.0,-1.0,0.0,9.m4v,7.0
2024-02-28 09:57:11.942084,1709110631.942084,441.40625,-43.45703125,-22.94921875,999.51171875,-1.0,0.0,-1.0,0.0,9.m4v,7.0
2024-02-28 09:57:11.945994,1709110631.9459937,296.38671875,-31.25,-23.92578125,862.3046875,-1.0,0.0,-1.0,0.0,9.m4v,7.0
2024-02-28 09:57:11.949899,1709110631.9498992,-218.26171875,-32.2265625,-24.90234375,-231.93359375,-1.0,0.0,-1.0,0.0,9.m4v,7.0
2024-02-28 09:57:11.953805,1709110631.953805,-567.3828125,-46.38671875,-38.0859375,-1000.0,-1.0,0.0,-1.0,0.0,9.m4v,7.0
2024-02-28 09:57:11.957711,1709110631.9577105,-319.82421875,-52.734375,-39.0625,-841.30859375,-1.0,0.0,-1.0,0.0,9.m4v,7.0
2024-02-28 09:57:11.961616,1709110631.9616165,252.44140625,-40.0390625,-28.80859375,291.015625,-1.0,0.0,-1.0,0.0,9.m4v,7.0
2024-02-28 09:57:11.965522,1709110631.9655218,500.9765625,-24.4140625,-37.59765625,999.51171875,-1.0,0.0,-1.0,0.0,9.m4v,7.0
2024-02-28 09:57:11.969428,1709110631.9694276,165.52734375,-29.78515625,-50.29296875,910.64453125,-1.0,0.0,-1.0,0.0,9.m4v,7.0
2024-02-28 09:57:11.973333,1709110631.9733331,-157.2265625,-33.69140625,-47.36328125,440.91796875,-1.0,0.0,-1.0,0.0,9.m4v,7.0
2024-02-28 09:57:11.977239,1709110631.977239,-439.453125,-35.64453125,-45.8984375,-563.4765625,-1.0,0.0,-1.0,0.0,9.m4v,7.0
2024-02-28 09:57:11.981144,1709110631.9811444,-424.31640625,-37.59765625,-30.76171875,-1000.0,-1.0,0.0,-1.0,0.0,9.m4v,7.0
2024-02-28 09:57:11.985050,1709110631.9850502,-172.8515625,-39.0625,-21.97265625,-926.26953125,-1.0,0.0,-1.0,0.0,9.m4v,7.0
2024-02-28 09:57:11.988956,1709110631.988956,-125.0,-41.50390625,-24.90234375,-1000.0,-1.0,0.0,-1.0,0.0,9.m4v,7.0
2024-02-28 09:57:11.992865,1709110631.992865,-94.23828125,-33.69140625,-25.87890625,-747.55859375,-1.0,0.0,-1.0,0.0,9.m4v,7.0
2024-02-28 09:57:11.996771,1709110631.996771,300.29296875,-29.78515625,-25.87890625,580.56640625,-1.0,0.0,-1.0,0.0,9.m4v,7.0
2024-02-28 09:57:12.000677,1709110632.0006769,412.109375,-22.94921875,-41.9921875,992.1875,-1.0,0.0,-1.0,0.0,9.m4v,7.0
2024-02-28 09:57:12.004582,1709110632.0045824,277.34375,-24.90234375,-51.7578125,999.51171875,-1.0,0.0,-1.0,0.0,9.m4v,7.0
2024-02-28 09:57:12.008488,1709110632.0084882,-51.7578125,-41.50390625,-56.15234375,236.328125,-1.0,0.0,-1.0,0.0,9.m4v,7.0
2024-02-28 09:57:12.012394,1709110632.0123937,-588.8671875,-41.9921875,-47.8515625,-979.98046875,-1.0,0.0,-1.0,0.0,9.m4v,7.0
2024-02-28 09:57:12.016299,1709110632.0162995,-552.24609375,-39.0625,-40.0390625,-1000.0,-1.0,0.0,-1.0,0.0,9.m4v,7.0
2024-02-28 09:57:12.020205,1709110632.020205,-43.45703125,-28.3203125,-32.2265625,-310.05859375,-1.0,0.0,-1.0,0.0,9.m4v,7.0
2024-02-28 09:57:12.024111,1709110632.0241108,472.65625,-24.90234375,-17.578125,859.86328125,-1.0,0.0,-1.0,0.0,9.m4v,7.0
2024-02-28 09:57:12.028016,1709110632.0280163,402.83203125,-34.1796875,-32.71484375,993.1640625,-1.0,0.0,-1.0,0.0,9.m4v,7.0
2024-02-28 09:57:12.031922,1709110632.031922,84.47265625,-34.66796875,-37.109375,918.9453125,-1.0,0.0,-1.0,0.0,9.m4v,7.0
2024-02-28 09:57:12.035828,1709110632.0358276,-36.1328125,-39.0625,-27.83203125,947.75390625,-1.0,0.0,-1.0,0.0,9.m4v,7.0
2024-02-28 09:57:12.039737,1709110632.0397372,29.296875,-30.2734375,-32.2265625,999.51171875,-1.0,0.0,-1.0,0.0,9.m4v,7.0
2024-02-28 09:57:12.043643,1709110632.043643,-244.62890625,-41.50390625,-29.296875,-48.828125,-1.0,0.0,-1.0,0.0,9.m4v,7.0
2024-02-28 09:57:12.047549,1709110632.0475483,-515.13671875,-57.12890625,-37.109375,-1000.0,-1.0,0.0,-1.0,0.0,9.m4v,7.0
2024-02-28 09:57:12.051454,1709110632.0514543,-346.6796875,-29.296875,-53.7109375,-979.98046875,-1.0,0.0,-1.0,0.0,9.m4v,7.0
2024-02-28 09:57:12.055360,1709110632.0553598,-244.62890625,-9.27734375,-50.29296875,-904.78515625,-1.0,0.0,-1.0,0.0,9.m4v,7.0
2024-02-28 09:57:12.059266,1709110632.0592656,226.07421875,-18.06640625,-45.8984375,251.953125,-1.0,0.0,-1.0,0.0,9.m4v,7.0
2024-02-28 09:57:12.063171,1709110632.0631711,514.16015625,-22.94921875,-45.8984375,999.51171875,-1.0,0.0,-1.0,0.0,9.m4v,7.0
2024-02-28 09:57:12.067077,1709110632.067077,250.48828125,-11.71875,-43.45703125,764.6484375,-1.0,0.0,-1.0,0.0,9.m4v,7.0
2024-02-28 09:57:12.070982,1709110632.0709825,-318.359375,-45.41015625,-43.45703125,-395.99609375,-1.0,0.0,-1.0,0.0,9.m4v,7.0
2024-02-28 09:57:12.074888,1709110632.0748882,-625.48828125,-53.22265625,-35.15625,-1000.0,-1.0,0.0,-1.0,0.0,9.m4v,7.0
2024-02-28 09:57:12.078794,1709110632.0787938,-345.21484375,-27.83203125,-23.4375,-914.55078125,-1.0,0.0,-1.0,0.0,9.m4v,7.0
2024-02-28 09:57:12.082700,1709110632.0826995,-5.37109375,-25.390625,-32.2265625,-597.16796875,-1.0,0.0,-1.0,0.0,9.m4v,7.0
2024-02-28 09:57:12.086609,1709110632.0866086,178.7109375,-19.53125,-41.015625,-250.9765625,-1.0,0.0,-1.0,0.0,9.m4v,7.0
2024-02-28 09:57:12.090514,1709110632.0905142,278.3203125,-20.5078125,-27.34375,418.45703125,-1.0,0.0,-1.0,0.0,9.m4v,7.0
2024-02-28 09:57:12.094420,1709110632.09442,310.546875,-25.87890625,-8.7890625,988.76953125,-1.0,0.0,-1.0,0.0,9.m4v,7.0
2024-02-28 09:57:12.098326,1709110632.0983255,127.44140625,-37.109375,-20.99609375,924.31640625,-1.0,0.0,-1.0,0.0,9.m4v,7.0
2024-02-28 09:57:12.102231,1709110632.1022313,111.81640625,-44.921875,-23.4375,999.51171875,-1.0,0.0,-1.0,0.0,9.m4v,7.0
2024-02-28 09:57:12.106137,1709110632.106137,-230.95703125,-40.52734375,-36.62109375,-40.0390625,-1.0,0.0,-1.0,0.0,9.m4v,7.0
2024-02-28 09:57:12.110043,1709110632.1100426,-606.93359375,-31.73828125,-60.546875,-1000.0,-1.0,0.0,-1.0,0.0,9.m4v,7.0
2024-02-28 09:57:12.113948,1709110632.1139483,-462.40234375,-31.73828125,-46.38671875,-1000.0,-1.0,0.0,-1.0,0.0,9.m4v,7.0
2024-02-28 09:57:12.117854,1709110632.117854,-79.1015625,-20.99609375,-29.78515625,-402.83203125,-1.0,0.0,-1.0,0.0,9.m4v,7.0
2024-02-28 09:57:12.121760,1709110632.1217597,435.05859375,-11.23046875,-32.2265625,854.98046875,-1.0,0.0,-1.0,0.0,9.m4v,7.0
2024-02-28 09:57:12.125665,1709110632.1256652,433.10546875,-26.3671875,-37.59765625,999.51171875,-1.0,0.0,-1.0,0.0,9.m4v,7.0
2024-02-28 09:57:12.129571,1709110632.129571,6.8359375,-27.34375,-37.59765625,321.2890625,-1.0,0.0,-1.0,0.0,9.m4v,7.0
2024-02-28 09:57:12.133480,1709110632.1334798,-480.95703125,-24.4140625,-24.4140625,-866.69921875,-1.0,0.0,-1.0,0.0,9.m4v,7.0
2024-02-28 09:57:12.137385,1709110632.1373854,-479.00390625,-39.55078125,-13.18359375,-1000.0,-1.0,0.0,-1.0,0.0,9.m4v,7.0
2024-02-28 09:57:12.141291,1709110632.1412911,-205.56640625,-36.62109375,-17.08984375,-937.98828125,-1.0,0.0,-1.0,0.0,9.m4v,7.0
2024-02-28 09:57:12.145197,1709110632.145197,-55.6640625,-38.0859375,-26.85546875,-952.1484375,-1.0,0.0,-1.0,0.0,9.m4v,7.0
2024-02-28 09:57:12.149102,1709110632.1491024,-132.8125,-40.52734375,-31.73828125,-1000.0,-1.0,0.0,-1.0,0.0,9.m4v,7.0
2024-02-28 09:57:12.153008,1709110632.153008,133.30078125,-64.453125,-36.62109375,-125.0,-1.0,0.0,-1.0,0.0,9.m4v,7.0
2024-02-28 09:57:12.164725,1709110632.164725,235.83984375,-13.671875,-14.6484375,983.3984375,-1.0,0.0,-1.0,0.0,9.m4v,7.0
2024-02-28 09:57:12.176442,1709110632.176442,-458.0078125,-32.2265625,-24.90234375,-1000.0,-1.0,0.0,-1.0,0.0,9.m4v,7.0
2024-02-28 09:57:12.188162,1709110632.188162,309.5703125,-34.1796875,-31.73828125,947.265625,-1.0,0.0,-1.0,0.0,9.m4v,7.0
2024-02-28 09:57:12.199879,1709110632.199879,128.90625,-31.25,-40.0390625,999.51171875,-1.0,0.0,-1.0,0.0,9.m4v,7.0
2024-02-28 09:57:12.211596,1709110632.211596,-450.1953125,-35.64453125,-25.390625,-972.65625,-1.0,0.0,-1.0,0.0,9.m4v,7.0
2024-02-28 09:57:12.223313,1709110632.223313,536.1328125,-42.48046875,-32.71484375,999.51171875,-1.0,0.0,-1.0,0.0,9.m4v,7.0
2024-02-28 09:57:12.235033,1709110632.235033,-595.21484375,-46.875,-34.1796875,-1000.0,-1.0,0.0,-1.0,0.0,9.m4v,7.0
2024-02-28 09:57:12.246750,1709110632.24675,-39.55078125,-23.92578125,-64.94140625,-1000.0,-1.0,0.0,-1.0,0.0,9.m4v,7.0
2024-02-28 09:57:12.258467,1709110632.258467,497.55859375,-46.38671875,-17.08984375,997.55859375,-1.0,0.0,-1.0,0.0,9.m4v,7.0
2024-02-28 09:57:12.270184,1709110632.270184,-479.98046875,-22.4609375,-15.625,-831.54296875,-1.0,0.0,-1.0,0.0,9.m4v,7.0
2024-02-28 09:57:12.281904,1709110632.2819035,458.49609375,-40.0390625,-36.1328125,954.1015625,-1.0,0.0,-1.0,0.0,9.m4v,7.0
2024-02-28 09:57:12.281904,1709110632.2819035,458.49609375,-40.0390625,-36.1328125,954.1015625,-1.0,0.0,-1.0,0.0,9.m4v,7.0
2024-02-28 09:57:12.293621,1709110632.2936206,-562.01171875,-24.4140625,-42.48046875,-1000.0,-1.0,0.0,-1.0,0.0,9.m4v,7.0
2024-02-28 09:57:12.293621,1709110632.2936206,-562.01171875,-24.4140625,-42.48046875,-1000.0,-1.0,0.0,-1.0,0.0,9.m4v,7.0
2024-02-28 09:57:12.305337,1709110632.3053374,387.6953125,-36.62109375,-33.69140625,789.55078125,-1.0,0.0,-1.0,0.0,9.m4v,7.0
2024-02-28 09:57:12.305337,1709110632.3053374,387.6953125,-36.62109375,-33.69140625,789.55078125,-1.0,0.0,-1.0,0.0,9.m4v,7.0
2024-02-28 09:57:12.317055,1709110632.3170545,20.5078125,-28.80859375,-24.4140625,999.51171875,-1.0,0.0,-1.0,0.0,9.m4v,7.0
2024-02-28 09:57:12.317055,1709110632.3170545,20.5078125,-28.80859375,-24.4140625,999.51171875,-1.0,0.0,-1.0,0.0,9.m4v,7.0
2024-02-28 09:57:12.328776,1709110632.3287756,-487.79296875,-21.484375,-34.66796875,-1000.0,-1.0,0.0,-1.0,0.0,9.m4v,7.0
2024-02-28 09:57:12.328776,1709110632.3287756,-487.79296875,-21.484375,-34.66796875,-1000.0,-1.0,0.0,-1.0,0.0,9.m4v,7.0
2024-02-28 09:57:12.340492,1709110632.3404925,424.31640625,-45.41015625,-37.59765625,773.92578125,-1.0,0.0,-1.0,0.0,9.m4v,7.0
2024-02-28 09:57:12.340492,1709110632.3404925,424.31640625,-45.41015625,-37.59765625,773.92578125,-1.0,0.0,-1.0,0.0,9.m4v,7.0
2024-02-28 09:57:12.352210,1709110632.3522096,-407.2265625,-37.109375,-29.296875,-536.1328125,-1.0,0.0,-1.0,0.0,9.m4v,7.0
2024-02-28 09:57:12.352210,1709110632.3522096,-407.2265625,-37.109375,-29.296875,-536.1328125,-1.0,0.0,-1.0,0.0,9.m4v,7.0
2024-02-28 09:57:12.363927,1709110632.3639266,-71.77734375,-39.55078125,-39.0625,-943.359375,-1.0,0.0,-1.0,0.0,9.m4v,7.0
2024-02-28 09:57:12.363927,1709110632.3639266,-71.77734375,-39.55078125,-39.0625,-943.359375,-1.0,0.0,-1.0,0.0,9.m4v,7.0
2024-02-28 09:57:12.375648,1709110632.3756475,333.0078125,-40.0390625,-53.7109375,751.953125,-1.0,0.0,-1.0,0.0,9.m4v,7.0
2024-02-28 09:57:12.375648,1709110632.3756475,333.0078125,-40.0390625,-53.7109375,751.953125,-1.0,0.0,-1.0,0.0,9.m4v,7.0
2024-02-28 09:57:12.387364,1709110632.3873644,-53.7109375,-32.2265625,-37.109375,348.14453125,-1.0,0.0,-1.0,0.0,9.m4v,7.0
2024-02-28 09:57:12.387364,1709110632.3873644,-53.7109375,-32.2265625,-37.109375,348.14453125,-1.0,0.0,-1.0,0.0,9.m4v,7.0
2024-02-28 09:57:12.395176,1709110632.3951757,-514.16015625,-20.99609375,-34.1796875,-1000.0,-1.0,0.0,-1.0,0.0,9.m4v,7.0
2024-02-28 09:57:12.399081,1709110632.3990817,35.15625,-14.16015625,-28.80859375,-114.2578125,-1.0,0.0,-1.0,0.0,9.m4v,7.0
2024-02-28 09:57:12.402987,1709110632.402987,496.58203125,-41.50390625,-32.2265625,999.51171875,-1.0,0.0,-1.0,0.0,9.m4v,7.0
2024-02-28 09:57:12.406893,1709110632.4068928,346.6796875,-50.78125,-25.390625,911.62109375,-1.0,0.0,-1.0,0.0,9.m4v,7.0
2024-02-28 09:57:12.410798,1709110632.4107983,-219.7265625,-47.8515625,-29.296875,-199.70703125,-1.0,0.0,-1.0,0.0,9.m4v,7.0
2024-02-28 09:57:12.414708,1709110632.4147077,-574.21875,-36.62109375,-58.59375,-1000.0,-1.0,0.0,-1.0,0.0,9.m4v,7.0
2024-02-28 09:57:12.418613,1709110632.4186134,-283.203125,-31.25,-34.66796875,-910.15625,-1.0,0.0,-1.0,0.0,9.m4v,7.0
2024-02-28 09:57:12.422519,1709110632.4225192,-63.4765625,-30.2734375,-16.11328125,-848.6328125,-1.0,0.0,-1.0,0.0,9.m4v,7.0
2024-02-28 09:57:12.426425,1709110632.4264247,-81.54296875,-35.15625,-40.52734375,-986.328125,-1.0,0.0,-1.0,0.0,9.m4v,7.0
2024-02-28 09:57:12.430331,1709110632.4303305,-145.01953125,-28.3203125,-45.8984375,-1000.0,-1.0,0.0,-1.0,0.0,9.m4v,7.0
2024-02-28 09:57:12.434236,1709110632.434236,214.84375,-18.06640625,-32.2265625,126.953125,-1.0,0.0,-1.0,0.0,9.m4v,7.0
2024-02-28 09:57:12.438142,1709110632.4381418,467.28515625,-31.25,-26.3671875,999.51171875,-1.0,0.0,-1.0,0.0,9.m4v,7.0
2024-02-28 09:57:12.442047,1709110632.4420474,269.53125,-31.73828125,-20.5078125,999.51171875,-1.0,0.0,-1.0,0.0,9.m4v,7.0
2024-02-28 09:57:12.445953,1709110632.4459531,56.640625,-26.85546875,-23.92578125,492.1875,-1.0,0.0,-1.0,0.0,9.m4v,7.0
2024-02-28 09:57:12.449859,1709110632.449859,-387.6953125,-37.109375,-34.1796875,-769.04296875,-1.0,0.0,-1.0,0.0,9.m4v,7.0
2024-02-28 09:57:12.453764,1709110632.4537644,-512.6953125,-40.52734375,-36.62109375,-1000.0,-1.0,0.0,-1.0,0.0,9.m4v,7.0
2024-02-28 09:57:12.457670,1709110632.45767,-125.0,-36.1328125,-36.62109375,-436.03515625,-1.0,0.0,-1.0,0.0,9.m4v,7.0
2024-02-28 09:57:12.461579,1709110632.461579,398.92578125,-26.3671875,-35.15625,799.31640625,-1.0,0.0,-1.0,0.0,9.m4v,7.0
2024-02-28 09:57:12.465485,1709110632.465485,443.359375,-30.76171875,-39.55078125,999.51171875,-1.0,0.0,-1.0,0.0,9.m4v,7.0
2024-02-28 09:57:12.469391,1709110632.4693906,-96.6796875,-23.4375,-43.9453125,143.5546875,-1.0,0.0,-1.0,0.0,9.m4v,7.0
2024-02-28 09:57:12.473296,1709110632.4732964,-600.5859375,-20.01953125,-40.0390625,-986.328125,-1.0,0.0,-1.0,0.0,9.m4v,7.0
2024-02-28 09:57:12.477202,1709110632.477202,-460.9375,-50.78125,-34.1796875,-1000.0,-1.0,0.0,-1.0,0.0,9.m4v,7.0
2024-02-28 09:57:12.481108,1709110632.4811077,173.828125,-44.43359375,-22.4609375,50.78125,-1.0,0.0,-1.0,0.0,9.m4v,7.0
2024-02-28 09:57:12.485013,1709110632.4850132,538.0859375,-33.203125,-36.1328125,999.51171875,-1.0,0.0,-1.0,0.0,9.m4v,7.0
2024-02-28 09:57:12.488919,1709110632.488919,239.74609375,-62.5,-47.36328125,914.0625,-1.0,0.0,-1.0,0.0,9.m4v,7.0
2024-02-28 09:57:12.492825,1709110632.4928246,-110.83984375,-72.265625,-37.59765625,485.83984375,-1.0,0.0,-1.0,0.0,9.m4v,7.0
2024-02-28 09:57:12.496730,1709110632.4967303,-187.01171875,-41.015625,-42.48046875,344.7265625,-1.0,0.0,-1.0,0.0,9.m4v,7.0
2024-02-28 09:57:12.500636,1709110632.500636,-75.1953125,-20.5078125,-30.2734375,227.05078125,-1.0,0.0,-1.0,0.0,9.m4v,7.0
2024-02-28 09:57:12.504542,1709110632.5045416,-298.828125,-29.78515625,-20.99609375,-706.0546875,-1.0,0.0,-1.0,0.0,9.m4v,7.0
2024-02-28 09:57:12.508451,1709110632.5084505,-374.0234375,-47.36328125,-29.78515625,-1000.0,-1.0,0.0,-1.0,0.0,9.m4v,7.0
2024-02-28 09:57:12.512356,1709110632.5123563,-283.69140625,-33.203125,-33.69140625,-1000.0,-1.0,0.0,-1.0,0.0,9.m4v,7.0
2024-02-28 09:57:12.516262,1709110632.5162618,67.3828125,-28.80859375,-30.76171875,-115.72265625,-1.0,0.0,-1.0,0.0,9.m4v,7.0
2024-02-28 09:57:12.520168,1709110632.5201676,497.55859375,-28.80859375,-27.83203125,999.51171875,-1.0,0.0,-1.0,0.0,9.m4v,7.0
2024-02-28 09:57:12.524073,1709110632.5240731,370.1171875,-36.62109375,-39.0625,999.51171875,-1.0,0.0,-1.0,0.0,9.m4v,7.0
2024-02-28 09:57:12.527979,1709110632.527979,104.00390625,-61.03515625,-40.0390625,596.6796875,-1.0,0.0,-1.0,0.0,9.m4v,7.0
2024-02-28 09:57:12.531884,1709110632.5318844,-416.50390625,-59.08203125,-43.9453125,-629.39453125,-1.0,0.0,-1.0,0.0,9.m4v,7.0
2024-02-28 09:57:12.535790,1709110632.5357902,-555.6640625,-29.78515625,-64.453125,-1000.0,-1.0,0.0,-1.0,0.0,9.m4v,7.0
2024-02-28 09:57:12.539696,1709110632.5396955,-235.83984375,-16.11328125,-45.8984375,-866.2109375,-1.0,0.0,-1.0,0.0,9.m4v,7.0
2024-02-28 09:57:12.543602,1709110632.5436015,-29.296875,-26.85546875,-20.99609375,-745.1171875,-1.0,0.0,-1.0,0.0,9.m4v,7.0
2024-02-28 09:57:12.547507,1709110632.547507,-80.56640625,-33.203125,-23.4375,-1000.0,-1.0,0.0,-1.0,0.0,9.m4v,7.0
2024-02-28 09:57:12.551413,1709110632.5514128,-160.15625,-33.69140625,-20.01953125,-837.890625,-1.0,0.0,-1.0,0.0,9.m4v,7.0
2024-02-28 09:57:12.555321,1709110632.5553217,255.859375,-26.85546875,-23.4375,491.69921875,-1.0,0.0,-1.0,0.0,9.m4v,7.0
2024-02-28 09:57:12.559227,1709110632.5592272,453.125,-34.1796875,-37.109375,999.51171875,-1.0,0.0,-1.0,0.0,9.m4v,7.0
2024-02-28 09:57:12.563133,1709110632.5631328,224.12109375,-35.15625,-41.015625,951.66015625,-1.0,0.0,-1.0,0.0,9.m4v,7.0
2024-02-28 09:57:12.567039,1709110632.5670383,117.1875,-17.578125,-24.90234375,764.6484375,-1.0,0.0,-1.0,0.0,9.m4v,7.0
2024-02-28 09:57:12.570944,1709110632.570944,-321.2890625,-20.99609375,-25.87890625,-448.73046875,-1.0,0.0,-1.0,0.0,9.m4v,7.0
2024-02-28 09:57:12.574850,1709110632.5748498,-557.12890625,-26.85546875,-28.3203125,-1000.0,-1.0,0.0,-1.0,0.0,9.m4v,7.0
2024-02-28 09:57:12.578755,1709110632.5787554,53.7109375,-20.99609375,-46.38671875,-44.921875,-1.0,0.0,-1.0,0.0,9.m4v,7.0
2024-02-28 09:57:12.582661,1709110632.5826612,543.45703125,-26.3671875,-59.08203125,999.51171875,-1.0,0.0,-1.0,0.0,9.m4v,7.0
2024-02-28 09:57:12.586567,1709110632.5865667,311.03515625,-34.66796875,-43.45703125,732.421875,-1.0,0.0,-1.0,0.0,9.m4v,7.0
2024-02-28 09:57:12.590472,1709110632.5904725,-307.6171875,-43.45703125,-39.0625,-454.1015625,-1.0,0.0,-1.0,0.0,9.m4v,7.0
2024-02-28 09:57:12.594378,1709110632.594378,-563.4765625,-62.5,-32.2265625,-1000.0,-1.0,0.0,-1.0,0.0,9.m4v,7.0
2024-02-28 09:57:12.598284,1709110632.5982838,-126.953125,-45.8984375,-30.2734375,-439.453125,-1.0,0.0,-1.0,0.0,9.m4v,7.0
2024-02-28 09:57:12.602192,1709110632.6021922,412.59765625,-22.94921875,-33.203125,784.66796875,-1.0,0.0,-1.0,0.0,9.m4v,7.0
2024-02-28 09:57:12.606098,1709110632.606098,421.875,-29.296875,-31.25,999.51171875,-1.0,0.0,-1.0,0.0,9.m4v,7.0
2024-02-28 09:57:12.610003,1709110632.6100037,9.27734375,-29.296875,-23.4375,542.96875,-1.0,0.0,-1.0,0.0,9.m4v,7.0
2024-02-28 09:57:12.613909,1709110632.6139092,-516.6015625,-21.484375,-21.97265625,-608.3984375,-1.0,0.0,-1.0,0.0,9.m4v,7.0
2024-02-28 09:57:12.617815,1709110632.6178148,-583.984375,-17.08984375,-48.33984375,-1000.0,-1.0,0.0,-1.0,0.0,9.m4v,7.0
2024-02-28 09:57:12.621721,1709110632.6217206,-230.46875,-18.5546875,-62.01171875,-957.03125,-1.0,0.0,-1.0,0.0,9.m4v,7.0
2024-02-28 09:57:12.625626,1709110632.625626,-38.57421875,-48.33984375,-49.8046875,-948.73046875,-1.0,0.0,-1.0,0.0,9.m4v,7.0
2024-02-28 09:57:12.629532,1709110632.629532,-124.51171875,-46.38671875,-43.45703125,-1000.0,-1.0,0.0,-1.0,0.0,9.m4v,7.0
2024-02-28 09:57:12.633438,1709110632.6334376,84.47265625,-6.8359375,-18.06640625,-147.4609375,-1.0,0.0,-1.0,0.0,9.m4v,7.0
2024-02-28 09:57:12.637343,1709110632.6373432,467.7734375,-21.97265625,-9.765625,999.51171875,-1.0,0.0,-1.0,0.0,9.m4v,7.0
2024-02-28 09:57:12.641249,1709110632.641249,333.984375,-55.6640625,-43.9453125,914.0625,-1.0,0.0,-1.0,0.0,9.m4v,7.0
2024-02-28 09:57:12.645154,1709110632.6451545,257.8125,-60.546875,-48.828125,999.51171875,-1.0,0.0,-1.0,0.0,9.m4v,7.0
2024-02-28 09:57:12.649063,1709110632.6490629,-129.39453125,-46.38671875,-28.3203125,36.62109375,-1.0,0.0,-1.0,0.0,9.m4v,7.0
2024-02-28 09:57:12.652969,1709110632.6529686,-594.23828125,-35.15625,-30.2734375,-1000.0,-1.0,0.0,-1.0,0.0,9.m4v,7.0
2024-02-28 09:57:12.871701,1709110632.8717008,-557.12890625,0.0,-61.03515625,-1000.0,-1.0,0.0,-1.0,0.0,9.m4v,7.0
2024-02-28 09:57:12.875606,1709110632.8756063,-369.62890625,-25.390625,-51.7578125,-949.70703125,-1.0,0.0,-1.0,0.0,9.m4v,7.0
2024-02-28 09:57:12.879512,1709110632.879512,189.94140625,-38.0859375,-27.34375,114.74609375,-1.0,0.0,-1.0,0.0,9.m4v,7.0
2024-02-28 09:57:12.883421,1709110632.8834212,547.8515625,-25.87890625,-19.04296875,999.51171875,-1.0,0.0,-1.0,0.0,9.m4v,7.0
2024-02-28 09:57:12.887327,1709110632.8873267,242.1875,-51.7578125,-22.94921875,839.84375,-1.0,0.0,-1.0,0.0,9.m4v,7.0
2024-02-28 09:57:12.891232,1709110632.8912325,-330.56640625,-60.546875,-31.73828125,-290.0390625,-1.0,0.0,-1.0,0.0,9.m4v,7.0
2024-02-28 09:57:12.895138,1709110632.895138,-584.9609375,-44.43359375,-40.0390625,-1000.0,-1.0,0.0,-1.0,0.0,9.m4v,7.0
2024-02-28 09:57:12.899044,1709110632.8990438,-282.2265625,-45.41015625,-39.55078125,-965.8203125,-1.0,0.0,-1.0,0.0,9.m4v,7.0
2024-02-28 09:57:12.902949,1709110632.902949,-113.76953125,-40.0390625,-37.59765625,-954.58984375,-1.0,0.0,-1.0,0.0,9.m4v,7.0
2024-02-28 09:57:12.906855,1709110632.906855,-108.88671875,-41.50390625,-41.9921875,-1000.0,-1.0,0.0,-1.0,0.0,9.m4v,7.0
2024-02-28 09:57:12.910761,1709110632.9107606,-127.9296875,-51.26953125,-47.8515625,-931.15234375,-1.0,0.0,-1.0,0.0,9.m4v,7.0
2024-02-28 09:57:12.914666,1709110632.9146664,293.45703125,-29.296875,-37.109375,291.50390625,-1.0,0.0,-1.0,0.0,9.m4v,7.0
2024-02-28 09:57:12.918572,1709110632.9185722,526.3671875,-4.8828125,-19.04296875,999.51171875,-1.0,0.0,-1.0,0.0,9.m4v,7.0
2024-02-28 09:57:12.922478,1709110632.9224775,276.85546875,-20.99609375,-26.85546875,999.51171875,-1.0,0.0,-1.0,0.0,9.m4v,7.0
2024-02-28 09:57:12.926383,1709110632.9263835,52.24609375,-22.4609375,-32.71484375,577.1484375,-1.0,0.0,-1.0,0.0,9.m4v,7.0
2024-02-28 09:57:12.930293,1709110632.930293,-472.16796875,-23.92578125,-23.92578125,-685.546875,-1.0,0.0,-1.0,0.0,9.m4v,7.0
2024-02-28 09:57:12.934199,1709110632.9341989,-619.62890625,-38.0859375,-39.0625,-1000.0,-1.0,0.0,-1.0,0.0,9.m4v,7.0
2024-02-28 09:57:12.938105,1709110632.9381046,-48.828125,-36.1328125,-32.2265625,-215.33203125,-1.0,0.0,-1.0,0.0,9.m4v,7.0
2024-02-28 09:57:12.942010,1709110632.9420102,490.72265625,-44.921875,-20.01953125,964.84375,-1.0,0.0,-1.0,0.0,9.m4v,7.0
2024-02-28 09:57:12.945916,1709110632.945916,386.23046875,-53.22265625,-45.8984375,974.609375,-1.0,0.0,-1.0,0.0,9.m4v,7.0
2024-02-28 09:57:12.949821,1709110632.9498217,42.96875,-49.8046875,-44.43359375,532.71484375,-1.0,0.0,-1.0,0.0,9.m4v,7.0
2024-02-28 09:57:12.953727,1709110632.9537272,-434.08203125,-52.734375,-29.296875,-511.71875,-1.0,0.0,-1.0,0.0,9.m4v,7.0
2024-02-28 09:57:12.957633,1709110632.9576328,-546.38671875,-57.12890625,-44.43359375,-1000.0,-1.0,0.0,-1.0,0.0,9.m4v,7.0
2024-02-28 09:57:12.961539,1709110632.9615386,-223.6328125,-23.4375,-50.29296875,-961.42578125,-1.0,0.0,-1.0,0.0,9.m4v,7.0
2024-02-28 09:57:12.965444,1709110632.965444,-55.17578125,-8.7890625,-29.78515625,-953.61328125,-1.0,0.0,-1.0,0.0,9.m4v,7.0
2024-02-28 09:57:12.977164,1709110632.977164,455.078125,-24.90234375,-33.203125,999.51171875,-1.0,0.0,-1.0,0.0,9.m4v,7.0
2024-02-28 09:57:12.981070,1709110632.9810696,300.29296875,-34.1796875,-33.69140625,973.6328125,-1.0,0.0,-1.0,0.0,9.m4v,7.0
2024-02-28 09:57:12.984975,1709110632.984975,123.53515625,-37.59765625,-42.48046875,784.66796875,-1.0,0.0,-1.0,0.0,9.m4v,7.0
2024-02-28 09:57:12.988881,1709110632.9888809,-351.5625,-37.59765625,-38.0859375,-375.0,-1.0,0.0,-1.0,0.0,9.m4v,7.0
2024-02-28 09:57:12.992787,1709110632.9927866,-610.3515625,-39.0625,-28.3203125,-1000.0,-1.0,0.0,-1.0,0.0,9.m4v,7.0
2024-02-28 09:57:12.996692,1709110632.9966922,-139.16015625,-44.43359375,-29.296875,-437.01171875,-1.0,0.0,-1.0,0.0,9.m4v,7.0
2024-02-28 09:57:13.121682,1709110633.1216824,342.7734375,-45.41015625,-21.97265625,945.80078125,-1.0,0.0,-1.0,0.0,9.m4v,7.0
2024-02-28 09:57:13.129494,1709110633.129494,-340.33203125,-43.45703125,-29.78515625,-204.58984375,-1.0,0.0,-1.0,0.0,9.m4v,7.0
2024-02-28 09:57:13.137305,1709110633.1373053,-134.765625,-18.5546875,-61.03515625,-318.359375,-1.0,0.0,-1.0,0.0,9.m4v,7.0
2024-02-28 09:57:13.145117,1709110633.1451166,376.46484375,-41.9921875,-22.4609375,999.51171875,-1.0,0.0,-1.0,0.0,9.m4v,7.0
2024-02-28 09:57:13.152928,1709110633.152928,-531.73828125,-27.34375,-21.97265625,-1000.0,-1.0,0.0,-1.0,0.0,9.m4v,7.0
2024-02-28 09:57:13.160739,1709110633.1607392,-82.51953125,-49.31640625,-54.6875,-752.44140625,-1.0,0.0,-1.0,0.0,9.m4v,7.0
2024-02-28 09:57:13.164649,1709110633.1646483,-6.34765625,-44.921875,-64.94140625,-743.1640625,-1.0,0.0,-1.0,0.0,9.m4v,7.0
2024-02-28 09:57:13.168554,1709110633.1685543,-148.92578125,-32.2265625,-25.390625,-1000.0,-1.0,0.0,-1.0,0.0,9.m4v,7.0
2024-02-28 09:57:13.172460,1709110633.1724598,52.734375,-16.6015625,-18.5546875,-295.41015625,-1.0,0.0,-1.0,0.0,9.m4v,7.0
2024-02-28 09:57:13.176366,1709110633.1763656,506.34765625,-17.578125,-33.69140625,999.51171875,-1.0,0.0,-1.0,0.0,9.m4v,7.0
2024-02-28 09:57:13.180271,1709110633.1802711,358.88671875,-37.59765625,-26.3671875,909.1796875,-1.0,0.0,-1.0,0.0,9.m4v,7.0
2024-02-28 09:57:13.184177,1709110633.184177,211.42578125,-31.73828125,-23.92578125,999.51171875,-1.0,0.0,-1.0,0.0,9.m4v,7.0
2024-02-28 09:57:13.188082,1709110633.1880825,-64.453125,-41.015625,-34.1796875,325.68359375,-1.0,0.0,-1.0,0.0,9.m4v,7.0
2024-02-28 09:57:13.191988,1709110633.1919882,-594.23828125,-55.17578125,-24.90234375,-970.21484375,-1.0,0.0,-1.0,0.0,9.m4v,7.0
2024-02-28 09:57:13.195894,1709110633.1958938,-521.484375,-52.734375,-23.92578125,-1000.0,-1.0,0.0,-1.0,0.0,9.m4v,7.0
2024-02-28 09:57:13.199800,1709110633.1997995,-249.0234375,-47.36328125,-50.78125,-971.6796875,-1.0,0.0,-1.0,0.0,9.m4v,7.0
2024-02-28 09:57:13.203705,1709110633.203705,-74.70703125,-31.25,-61.5234375,-946.2890625,-1.0,0.0,-1.0,0.0,9.m4v,7.0
2024-02-28 09:57:13.207611,1709110633.2076108,-50.78125,-30.2734375,-43.45703125,-1000.0,-1.0,0.0,-1.0,0.0,9.m4v,7.0
2024-02-28 09:57:13.211520,1709110633.21152,28.80859375,-51.26953125,-25.87890625,-506.8359375,-1.0,0.0,-1.0,0.0,9.m4v,7.0
2024-02-28 09:57:13.215426,1709110633.2154255,444.3359375,-46.38671875,-23.92578125,837.40234375,-1.0,0.0,-1.0,0.0,9.m4v,7.0
2024-02-28 09:57:13.219331,1709110633.2193313,418.45703125,-34.66796875,-20.5078125,963.37890625,-1.0,0.0,-1.0,0.0,9.m4v,7.0
2024-02-28 09:57:13.223237,1709110633.223237,247.55859375,-27.83203125,-26.85546875,999.51171875,-1.0,0.0,-1.0,0.0,9.m4v,7.0
2024-02-28 09:57:13.227143,1709110633.2271426,-82.03125,-5.37109375,-34.66796875,122.0703125,-1.0,0.0,-1.0,0.0,9.m4v,7.0
2024-02-28 09:57:13.231048,1709110633.2310483,-537.59765625,-17.578125,-18.06640625,-1000.0,-1.0,0.0,-1.0,0.0,9.m4v,7.0
2024-02-28 09:57:13.234954,1709110633.234954,-421.875,-43.9453125,-17.578125,-931.15234375,-1.0,0.0,-1.0,0.0,9.m4v,7.0
2024-02-28 09:57:13.238860,1709110633.2388597,153.80859375,-41.50390625,-27.83203125,179.6875,-1.0,0.0,-1.0,0.0,9.m4v,7.0
2024-02-28 09:57:13.242765,1709110633.2427652,537.109375,-22.94921875,-31.25,999.51171875,-1.0,0.0,-1.0,0.0,9.m4v,7.0
2024-02-28 09:57:13.246671,1709110633.246671,257.8125,-8.7890625,-25.87890625,746.09375,-1.0,0.0,-1.0,0.0,9.m4v,7.0
2024-02-28 09:57:13.250576,1709110633.2505765,-356.4453125,-24.90234375,-25.390625,-434.5703125,-1.0,0.0,-1.0,0.0,9.m4v,7.0
2024-02-28 09:57:13.254482,1709110633.2544825,-604.98046875,-74.21875,-34.66796875,-1000.0,-1.0,0.0,-1.0,0.0,9.m4v,7.0
2024-02-28 09:57:13.262297,1709110633.262297,-0.48828125,-46.875,-35.64453125,-785.15625,-1.0,0.0,-1.0,0.0,9.m4v,7.0
2024-02-28 09:57:13.270108,1709110633.2701082,-121.58203125,-49.8046875,-50.78125,-1000.0,-1.0,0.0,-1.0,0.0,9.m4v,7.0
2024-02-28 09:57:13.277920,1709110633.2779195,527.83203125,-28.3203125,-20.5078125,999.0234375,-1.0,0.0,-1.0,0.0,9.m4v,7.0
2024-02-28 09:57:13.285731,1709110633.2857308,39.0625,-39.0625,-41.50390625,434.08203125,-1.0,0.0,-1.0,0.0,9.m4v,7.0
2024-02-28 09:57:13.293542,1709110633.293542,-586.42578125,-0.48828125,-20.99609375,-1000.0,-1.0,0.0,-1.0,0.0,9.m4v,7.0
2024-02-28 09:57:13.301353,1709110633.3013537,472.65625,-47.8515625,-38.57421875,952.1484375,-1.0,0.0,-1.0,0.0,9.m4v,7.0
2024-02-28 09:57:13.309168,1709110633.309168,-109.375,-41.9921875,-35.15625,46.38671875,-1.0,0.0,-1.0,0.0,9.m4v,7.0
2024-02-28 09:57:13.316979,1709110633.3169794,-395.01953125,-49.31640625,-38.57421875,-965.8203125,-1.0,0.0,-1.0,0.0,9.m4v,7.0
2024-02-28 09:57:13.316979,1709110633.3169794,-395.01953125,-49.31640625,-38.57421875,-965.8203125,-1.0,0.0,-1.0,0.0,9.m4v,7.0
2024-02-28 09:57:13.324791,1709110633.3247907,-6.8359375,-44.921875,-39.0625,-741.2109375,-1.0,0.0,-1.0,0.0,9.m4v,7.0
2024-02-28 09:57:13.332602,1709110633.332602,-80.56640625,-31.25,-37.109375,-555.6640625,-1.0,0.0,-1.0,0.0,9.m4v,7.0
2024-02-28 09:57:13.332602,1709110633.332602,-80.56640625,-31.25,-37.109375,-555.6640625,-1.0,0.0,-1.0,0.0,9.m4v,7.0
2024-02-28 09:57:13.340413,1709110633.340413,460.44921875,-32.71484375,-30.2734375,997.0703125,-1.0,0.0,-1.0,0.0,9.m4v,7.0
2024-02-28 09:57:13.348225,1709110633.3482246,-175.29296875,-29.296875,-36.1328125,-81.54296875,-1.0,0.0,-1.0,0.0,9.m4v,7.0
2024-02-28 09:57:13.348225,1709110633.3482246,-175.29296875,-29.296875,-36.1328125,-81.54296875,-1.0,0.0,-1.0,0.0,9.m4v,7.0
2024-02-28 09:57:13.356039,1709110633.3560388,-393.5546875,-35.15625,-39.55078125,-1000.0,-1.0,0.0,-1.0,0.0,9.m4v,7.0
2024-02-28 09:57:13.363850,1709110633.36385,476.07421875,-40.0390625,-33.203125,918.9453125,-1.0,0.0,-1.0,0.0,9.m4v,7.0
2024-02-28 09:57:13.363850,1709110633.36385,476.07421875,-40.0390625,-33.203125,918.9453125,-1.0,0.0,-1.0,0.0,9.m4v,7.0
2024-02-28 09:57:13.371661,1709110633.3716614,117.1875,-23.4375,-20.99609375,891.6015625,-1.0,0.0,-1.0,0.0,9.m4v,7.0
2024-02-28 09:57:13.379473,1709110633.3794727,-14.16015625,-53.22265625,-39.0625,757.8125,-1.0,0.0,-1.0,0.0,9.m4v,7.0
2024-02-28 09:57:13.379473,1709110633.3794727,-14.16015625,-53.22265625,-39.0625,757.8125,-1.0,0.0,-1.0,0.0,9.m4v,7.0
2024-02-28 09:57:13.387284,1709110633.387284,-524.90234375,-22.94921875,-64.453125,-1000.0,-1.0,0.0,-1.0,0.0,9.m4v,7.0
2024-02-28 09:57:13.395095,1709110633.395095,-207.51953125,-39.55078125,-19.04296875,-753.41796875,-1.0,0.0,-1.0,0.0,9.m4v,7.0
2024-02-28 09:57:13.395095,1709110633.395095,-207.51953125,-39.55078125,-19.04296875,-753.41796875,-1.0,0.0,-1.0,0.0,9.m4v,7.0
2024-02-28 09:57:13.402909,1709110633.4029093,420.8984375,-38.0859375,-35.15625,999.51171875,-1.0,0.0,-1.0,0.0,9.m4v,7.0
2024-02-28 09:57:13.406815,1709110633.406815,60.05859375,-40.52734375,-53.7109375,540.0390625,-1.0,0.0,-1.0,0.0,9.m4v,7.0
2024-02-28 09:57:13.406815,1709110633.406815,60.05859375,-40.52734375,-53.7109375,540.0390625,-1.0,0.0,-1.0,0.0,9.m4v,7.0
2024-02-28 09:57:13.410721,1709110633.4107206,-414.0625,-26.85546875,-52.734375,-674.31640625,-1.0,0.0,-1.0,0.0,9.m4v,7.0
2024-02-28 09:57:13.414626,1709110633.4146264,-518.06640625,-31.25,-33.203125,-1000.0,-1.0,0.0,-1.0,0.0,9.m4v,7.0
2024-02-28 09:57:13.414626,1709110633.4146264,-518.06640625,-31.25,-33.203125,-1000.0,-1.0,0.0,-1.0,0.0,9.m4v,7.0
2024-02-28 09:57:13.418532,1709110633.418532,37.109375,-49.31640625,-29.296875,-100.5859375,-1.0,0.0,-1.0,0.0,9.m4v,7.0
2024-02-28 09:57:13.422438,1709110633.4224377,476.5625,-57.6171875,-30.2734375,999.51171875,-1.0,0.0,-1.0,0.0,9.m4v,7.0
2024-02-28 09:57:13.422438,1709110633.4224377,476.5625,-57.6171875,-30.2734375,999.51171875,-1.0,0.0,-1.0,0.0,9.m4v,7.0
2024-02-28 09:57:13.426343,1709110633.4263434,356.4453125,-32.71484375,-31.73828125,959.9609375,-1.0,0.0,-1.0,0.0,9.m4v,7.0
2024-02-28 09:57:13.430249,1709110633.430249,-156.25,-24.90234375,-40.0390625,-69.3359375,-1.0,0.0,-1.0,0.0,9.m4v,7.0
2024-02-28 09:57:13.430249,1709110633.430249,-156.25,-24.90234375,-40.0390625,-69.3359375,-1.0,0.0,-1.0,0.0,9.m4v,7.0
2024-02-28 09:57:13.434155,1709110633.4341547,-560.05859375,-39.55078125,-34.66796875,-1000.0,-1.0,0.0,-1.0,0.0,9.m4v,7.0
2024-02-28 09:57:13.438060,1709110633.4380603,-330.078125,-21.97265625,-24.90234375,-979.4921875,-1.0,0.0,-1.0,0.0,9.m4v,7.0
2024-02-28 09:57:13.438060,1709110633.4380603,-330.078125,-21.97265625,-24.90234375,-979.4921875,-1.0,0.0,-1.0,0.0,9.m4v,7.0
2024-02-28 09:57:13.441966,1709110633.441966,-101.07421875,-8.30078125,-27.34375,-969.23828125,-1.0,0.0,-1.0,0.0,9.m4v,7.0
2024-02-28 09:57:13.445876,1709110633.445876,-40.52734375,-16.11328125,-35.64453125,-970.21484375,-1.0,0.0,-1.0,0.0,9.m4v,7.0
2024-02-28 09:57:13.445876,1709110633.445876,-40.52734375,-16.11328125,-35.64453125,-970.21484375,-1.0,0.0,-1.0,0.0,9.m4v,7.0
2024-02-28 09:57:13.449781,1709110633.4497814,-129.39453125,-37.59765625,-43.45703125,-1000.0,-1.0,0.0,-1.0,0.0,9.m4v,7.0
2024-02-28 09:57:13.453687,1709110633.4536872,93.75,-63.4765625,-55.17578125,-19.53125,-1.0,0.0,-1.0,0.0,9.m4v,7.0
2024-02-28 09:57:13.453687,1709110633.4536872,93.75,-63.4765625,-55.17578125,-19.53125,-1.0,0.0,-1.0,0.0,9.m4v,7.0
2024-02-28 09:57:13.457593,1709110633.4575927,444.3359375,-62.5,-51.7578125,999.51171875,-1.0,0.0,-1.0,0.0,9.m4v,7.0
2024-02-28 09:57:13.461498,1709110633.4614985,321.77734375,-38.0859375,-34.66796875,897.4609375,-1.0,0.0,-1.0,0.0,9.m4v,7.0
2024-02-28 09:57:13.461498,1709110633.4614985,321.77734375,-38.0859375,-34.66796875,897.4609375,-1.0,0.0,-1.0,0.0,9.m4v,7.0
2024-02-28 09:57:13.465404,1709110633.465404,241.2109375,-21.484375,-29.78515625,999.51171875,-1.0,0.0,-1.0,0.0,9.m4v,7.0
2024-02-28 09:57:13.469310,1709110633.4693098,-2.9296875,-29.296875,-26.3671875,499.0234375,-1.0,0.0,-1.0,0.0,9.m4v,7.0
2024-02-28 09:57:13.469310,1709110633.4693098,-2.9296875,-29.296875,-26.3671875,499.0234375,-1.0,0.0,-1.0,0.0,9.m4v,7.0
2024-02-28 09:57:13.473215,1709110633.473215,-508.30078125,-31.73828125,-13.18359375,-720.21484375,-1.0,0.0,-1.0,0.0,9.m4v,7.0
2024-02-28 09:57:13.477121,1709110633.477121,-500.48828125,-22.94921875,-19.53125,-1000.0,-1.0,0.0,-1.0,0.0,9.m4v,7.0
2024-02-28 09:57:13.477121,1709110633.477121,-500.48828125,-22.94921875,-19.53125,-1000.0,-1.0,0.0,-1.0,0.0,9.m4v,7.0
2024-02-28 09:57:13.481027,1709110633.4810266,-225.5859375,-35.15625,-37.109375,-947.265625,-1.0,0.0,-1.0,0.0,9.m4v,7.0
2024-02-28 09:57:13.484932,1709110633.4849324,-95.703125,-50.78125,-37.59765625,-969.23828125,-1.0,0.0,-1.0,0.0,9.m4v,7.0
2024-02-28 09:57:13.484932,1709110633.4849324,-95.703125,-50.78125,-37.59765625,-969.23828125,-1.0,0.0,-1.0,0.0,9.m4v,7.0
2024-02-28 09:57:13.488838,1709110633.488838,-111.81640625,-40.52734375,-41.9921875,-1000.0,-1.0,0.0,-1.0,0.0,9.m4v,7.0
2024-02-28 09:57:13.492748,1709110633.4927478,176.26953125,-24.90234375,-55.17578125,-17.08984375,-1.0,0.0,-1.0,0.0,9.m4v,7.0
2024-02-28 09:57:13.492748,1709110633.4927478,176.26953125,-24.90234375,-55.17578125,-17.08984375,-1.0,0.0,-1.0,0.0,9.m4v,7.0
2024-02-28 09:57:13.496654,1709110633.4966536,501.46484375,-36.1328125,-46.875,999.51171875,-1.0,0.0,-1.0,0.0,9.m4v,7.0
2024-02-28 09:57:13.500559,1709110633.500559,302.24609375,-58.59375,-24.90234375,968.26171875,-1.0,0.0,-1.0,0.0,9.m4v,7.0
2024-02-28 09:57:13.500559,1709110633.500559,302.24609375,-58.59375,-24.90234375,968.26171875,-1.0,0.0,-1.0,0.0,9.m4v,7.0
2024-02-28 09:57:13.504465,1709110633.5044649,128.90625,-57.12890625,-22.94921875,792.96875,-1.0,0.0,-1.0,0.0,9.m4v,7.0
2024-02-28 09:57:13.508370,1709110633.5083704,-374.51171875,-50.29296875,-39.0625,-366.2109375,-1.0,0.0,-1.0,0.0,9.m4v,7.0
2024-02-28 09:57:13.508370,1709110633.5083704,-374.51171875,-50.29296875,-39.0625,-366.2109375,-1.0,0.0,-1.0,0.0,9.m4v,7.0
2024-02-28 09:57:13.512276,1709110633.5122762,-652.83203125,-45.8984375,-33.203125,-1000.0,-1.0,0.0,-1.0,0.0,9.m4v,7.0
2024-02-28 09:57:13.516182,1709110633.5161817,-171.38671875,-24.4140625,-25.87890625,-418.9453125,-1.0,0.0,-1.0,0.0,9.m4v,7.0
2024-02-28 09:57:13.520087,1709110633.5200877,399.4140625,-14.6484375,-27.34375,836.42578125,-1.0,0.0,-1.0,0.0,9.m4v,7.0
2024-02-28 09:57:13.523993,1709110633.523993,474.12109375,-21.97265625,-32.2265625,999.51171875,-1.0,0.0,-1.0,0.0,9.m4v,7.0
2024-02-28 09:57:13.523993,1709110633.523993,474.12109375,-21.97265625,-32.2265625,999.51171875,-1.0,0.0,-1.0,0.0,9.m4v,7.0
2024-02-28 09:57:13.527899,1709110633.5278988,-66.89453125,-50.29296875,-36.62109375,30.76171875,-1.0,0.0,-1.0,0.0,9.m4v,7.0
2024-02-28 09:57:13.531804,1709110633.5318043,-550.29296875,-42.96875,-44.43359375,-1000.0,-1.0,0.0,-1.0,0.0,9.m4v,7.0
2024-02-28 09:57:13.539619,1709110633.5396194,92.28515625,-41.015625,-29.78515625,34.1796875,-1.0,0.0,-1.0,0.0,9.m4v,7.0
2024-02-28 09:57:13.539619,1709110633.5396194,92.28515625,-41.015625,-29.78515625,34.1796875,-1.0,0.0,-1.0,0.0,9.m4v,7.0
2024-02-28 09:57:13.547431,1709110633.5474308,289.55078125,-39.0625,-28.3203125,948.73046875,-1.0,0.0,-1.0,0.0,9.m4v,7.0
2024-02-28 09:57:13.555242,1709110633.555242,-622.0703125,-41.9921875,-57.12890625,-1000.0,-1.0,0.0,-1.0,0.0,9.m4v,7.0
2024-02-28 09:57:13.555242,1709110633.555242,-622.0703125,-41.9921875,-57.12890625,-1000.0,-1.0,0.0,-1.0,0.0,9.m4v,7.0
2024-02-28 09:57:13.563053,1709110633.5630534,-63.4765625,-18.06640625,-43.45703125,-929.19921875,-1.0,0.0,-1.0,0.0,9.m4v,7.0
2024-02-28 09:57:13.570865,1709110633.570865,-69.82421875,-6.8359375,-22.4609375,-799.31640625,-1.0,0.0,-1.0,0.0,9.m4v,7.0
2024-02-28 09:57:13.570865,1709110633.570865,-69.82421875,-6.8359375,-22.4609375,-799.31640625,-1.0,0.0,-1.0,0.0,9.m4v,7.0
2024-02-28 09:57:13.578676,1709110633.5786762,464.35546875,-38.57421875,-15.625,996.58203125,-1.0,0.0,-1.0,0.0,9.m4v,7.0
2024-02-28 09:57:13.586491,1709110633.5864909,-100.09765625,-64.453125,-38.0859375,268.5546875,-1.0,0.0,-1.0,0.0,9.m4v,7.0
2024-02-28 09:57:13.586491,1709110633.5864909,-100.09765625,-64.453125,-38.0859375,268.5546875,-1.0,0.0,-1.0,0.0,9.m4v,7.0
2024-02-28 09:57:13.594302,1709110633.5943022,-501.46484375,-11.23046875,-51.7578125,-1000.0,-1.0,0.0,-1.0,0.0,9.m4v,7.0
2024-02-28 09:57:13.602113,1709110633.6021135,472.16796875,-18.06640625,-16.6015625,999.51171875,-1.0,0.0,-1.0,0.0,9.m4v,7.0
2024-02-28 09:57:13.602113,1709110633.6021135,472.16796875,-18.06640625,-16.6015625,999.51171875,-1.0,0.0,-1.0,0.0,9.m4v,7.0
2024-02-28 09:57:13.609925,1709110633.6099248,76.171875,-41.9921875,-25.390625,886.23046875,-1.0,0.0,-1.0,0.0,9.m4v,7.0
2024-02-28 09:57:13.617736,1709110633.617736,-457.03125,-38.57421875,-34.1796875,-643.06640625,-1.0,0.0,-1.0,0.0,9.m4v,7.0
2024-02-28 09:57:13.617736,1709110633.617736,-457.03125,-38.57421875,-34.1796875,-643.06640625,-1.0,0.0,-1.0,0.0,9.m4v,7.0
2024-02-28 09:57:13.621642,1709110633.621642,-390.13671875,-24.4140625,-38.0859375,-1000.0,-1.0,0.0,-1.0,0.0,9.m4v,7.0
2024-02-28 09:57:13.625547,1709110633.6255474,-169.43359375,-33.69140625,-50.78125,-909.1796875,-1.0,0.0,-1.0,0.0,9.m4v,7.0
2024-02-28 09:57:13.625547,1709110633.6255474,-169.43359375,-33.69140625,-50.78125,-909.1796875,-1.0,0.0,-1.0,0.0,9.m4v,7.0
2024-02-28 09:57:13.629453,1709110633.6294532,-180.6640625,-32.71484375,-55.6640625,-1000.0,-1.0,0.0,-1.0,0.0,9.m4v,7.0
2024-02-28 09:57:13.633362,1709110633.633362,-23.4375,-30.2734375,-65.4296875,-443.84765625,-1.0,0.0,-1.0,0.0,9.m4v,7.0
2024-02-28 09:57:13.633362,1709110633.633362,-23.4375,-30.2734375,-65.4296875,-443.84765625,-1.0,0.0,-1.0,0.0,9.m4v,7.0
2024-02-28 09:57:13.637268,1709110633.6372678,435.05859375,-35.15625,-41.015625,854.00390625,-1.0,0.0,-1.0,0.0,9.m4v,7.0
2024-02-28 09:57:13.641173,1709110633.6411734,460.44921875,-27.83203125,-16.11328125,999.51171875,-1.0,0.0,-1.0,0.0,9.m4v,7.0
2024-02-28 09:57:13.641173,1709110633.6411734,460.44921875,-27.83203125,-16.11328125,999.51171875,-1.0,0.0,-1.0,0.0,9.m4v,7.0
2024-02-28 09:57:13.645079,1709110633.6450791,171.38671875,-41.9921875,-22.4609375,686.5234375,-1.0,0.0,-1.0,0.0,9.m4v,7.0
2024-02-28 09:57:13.648985,1709110633.648985,-367.67578125,-34.66796875,-20.99609375,-481.93359375,-1.0,0.0,-1.0,0.0,9.m4v,7.0
2024-02-28 09:57:13.648985,1709110633.648985,-367.67578125,-34.66796875,-20.99609375,-481.93359375,-1.0,0.0,-1.0,0.0,9.m4v,7.0
2024-02-28 09:57:13.652890,1709110633.6528904,-666.015625,-24.4140625,-23.4375,-1000.0,-1.0,0.0,-1.0,0.0,9.m4v,7.0
2024-02-28 09:57:13.723195,1709110633.7231953,550.78125,-7.8125,-32.2265625,999.51171875,-1.0,0.0,-1.0,0.0,9.m4v,7.0
2024-02-28 09:57:13.727104,1709110633.727104,160.64453125,2.44140625,-40.0390625,494.140625,-1.0,0.0,-1.0,0.0,9.m4v,7.0
2024-02-28 09:57:13.731010,1709110633.7310095,-447.265625,-18.06640625,-43.9453125,-751.46484375,-1.0,0.0,-1.0,0.0,9.m4v,7.0
2024-02-28 09:57:13.734915,1709110633.7349153,-555.6640625,-48.33984375,-46.38671875,-1000.0,-1.0,0.0,-1.0,0.0,9.m4v,7.0
2024-02-28 09:57:13.738821,1709110633.738821,-169.921875,-41.015625,-31.25,-642.578125,-1.0,0.0,-1.0,0.0,9.m4v,7.0
2024-02-28 09:57:13.742727,1709110633.7427266,332.03125,-23.4375,-27.83203125,453.125,-1.0,0.0,-1.0,0.0,9.m4v,7.0
2024-02-28 09:57:13.746632,1709110633.7466323,476.5625,-21.97265625,-38.0859375,999.51171875,-1.0,0.0,-1.0,0.0,9.m4v,7.0
2024-02-28 09:57:13.750538,1709110633.750538,164.55078125,-47.36328125,-40.0390625,912.109375,-1.0,0.0,-1.0,0.0,9.m4v,7.0
2024-02-28 09:57:13.754444,1709110633.7544436,-59.08203125,-70.3125,-46.875,957.51953125,-1.0,0.0,-1.0,0.0,9.m4v,7.0
2024-02-28 09:57:13.758349,1709110633.7583492,-74.21875,-60.546875,-37.109375,964.84375,-1.0,0.0,-1.0,0.0,9.m4v,7.0
2024-02-28 09:57:13.762255,1709110633.762255,-360.3515625,-31.73828125,-27.34375,-187.01171875,-1.0,0.0,-1.0,0.0,9.m4v,7.0
2024-02-28 09:57:13.766161,1709110633.7661607,-551.7578125,-23.4375,-41.50390625,-1000.0,-1.0,0.0,-1.0,0.0,9.m4v,7.0
2024-02-28 09:57:13.770066,1709110633.7700665,-315.91796875,-30.76171875,-38.57421875,-969.23828125,-1.0,0.0,-1.0,0.0,9.m4v,7.0
2024-02-28 09:57:13.773975,1709110633.773975,-230.46875,-40.0390625,-40.0390625,-913.57421875,-1.0,0.0,-1.0,0.0,9.m4v,7.0
2024-02-28 09:57:13.777880,1709110633.7778802,222.16796875,-49.31640625,-46.38671875,231.4453125,-1.0,0.0,-1.0,0.0,9.m4v,7.0
2024-02-28 09:57:13.781786,1709110633.781786,541.015625,-44.921875,-32.71484375,999.51171875,-1.0,0.0,-1.0,0.0,9.m4v,7.0
2024-02-28 09:57:13.785691,1709110633.7856915,300.29296875,-34.66796875,-43.45703125,838.37890625,-1.0,0.0,-1.0,0.0,9.m4v,7.0
2024-02-28 09:57:13.789597,1709110633.7895973,-256.8359375,-36.1328125,-53.22265625,-253.41796875,-1.0,0.0,-1.0,0.0,9.m4v,7.0
2024-02-28 09:57:13.793503,1709110633.7935028,-623.53515625,-45.8984375,-36.1328125,-1000.0,-1.0,0.0,-1.0,0.0,9.m4v,7.0
2024-02-28 09:57:13.797409,1709110633.7974086,-285.15625,-41.015625,-33.69140625,-582.51953125,-1.0,0.0,-1.0,0.0,9.m4v,7.0
2024-02-28 09:57:13.801314,1709110633.801314,337.40234375,-33.203125,-39.0625,597.65625,-1.0,0.0,-1.0,0.0,9.m4v,7.0
2024-02-28 09:57:13.805220,1709110633.80522,502.9296875,-41.9921875,-44.43359375,999.51171875,-1.0,0.0,-1.0,0.0,9.m4v,7.0
2024-02-28 09:57:13.809125,1709110633.8091254,22.4609375,-28.80859375,-44.43359375,475.5859375,-1.0,0.0,-1.0,0.0,9.m4v,7.0
2024-02-28 09:57:13.813031,1709110633.8130312,-514.16015625,-21.97265625,-40.0390625,-721.6796875,-1.0,0.0,-1.0,0.0,9.m4v,7.0
2024-02-28 09:57:13.816937,1709110633.816937,-477.05078125,-24.4140625,-47.36328125,-1000.0,-1.0,0.0,-1.0,0.0,9.m4v,7.0
2024-02-28 09:57:13.820847,1709110633.8208466,-182.6171875,-30.76171875,-50.29296875,-954.58984375,-1.0,0.0,-1.0,0.0,9.m4v,7.0
2024-02-28 09:57:13.824752,1709110633.8247523,-32.71484375,-39.55078125,-35.64453125,-951.66015625,-1.0,0.0,-1.0,0.0,9.m4v,7.0
2024-02-28 09:57:13.828658,1709110633.828658,-121.09375,-46.38671875,-42.48046875,-1000.0,-1.0,0.0,-1.0,0.0,9.m4v,7.0
2024-02-28 09:57:13.832564,1709110633.8325636,98.6328125,-50.29296875,-40.52734375,-154.296875,-1.0,0.0,-1.0,0.0,9.m4v,7.0
2024-02-28 09:57:13.836469,1709110633.8364692,513.671875,-59.5703125,-29.78515625,999.51171875,-1.0,0.0,-1.0,0.0,9.m4v,7.0
2024-02-28 09:57:13.840375,1709110633.840375,312.01171875,-60.05859375,-57.6171875,899.90234375,-1.0,0.0,-1.0,0.0,9.m4v,7.0
2024-02-28 09:57:13.844280,1709110633.8442805,202.63671875,-27.34375,-51.7578125,999.51171875,-1.0,0.0,-1.0,0.0,9.m4v,7.0
2024-02-28 09:57:13.848186,1709110633.8481865,-105.46875,-11.71875,-21.484375,183.10546875,-1.0,0.0,-1.0,0.0,9.m4v,7.0
2024-02-28 09:57:13.852092,1709110633.852092,-629.39453125,-25.390625,-23.92578125,-1000.0,-1.0,0.0,-1.0,0.0,9.m4v,7.0
2024-02-28 09:57:13.855998,1709110633.8559976,-486.81640625,-32.2265625,-31.25,-980.46875,-1.0,0.0,-1.0,0.0,9.m4v,7.0
2024-02-28 09:57:13.859903,1709110633.859903,-38.0859375,-24.4140625,-50.29296875,-413.57421875,-1.0,0.0,-1.0,0.0,9.m4v,7.0
2024-02-28 09:57:13.863809,1709110633.8638089,409.66796875,-21.484375,-41.015625,608.3984375,-1.0,0.0,-1.0,0.0,9.m4v,7.0
2024-02-28 09:57:13.867718,1709110633.8677185,436.03515625,-35.64453125,-20.01953125,999.51171875,-1.0,0.0,-1.0,0.0,9.m4v,7.0
2024-02-28 09:57:13.871624,1709110633.8716242,86.9140625,-53.7109375,-38.0859375,911.62109375,-1.0,0.0,-1.0,0.0,9.m4v,7.0
2024-02-28 09:57:13.875530,1709110633.8755298,-28.3203125,-67.3828125,-62.01171875,971.19140625,-1.0,0.0,-1.0,0.0,9.m4v,7.0
2024-02-28 09:57:13.879436,1709110633.8794355,49.8046875,-49.8046875,-58.59375,929.19921875,-1.0,0.0,-1.0,0.0,9.m4v,7.0
2024-02-28 09:57:13.883341,1709110633.883341,-317.87109375,-27.83203125,-43.45703125,-261.71875,-1.0,0.0,-1.0,0.0,9.m4v,7.0
2024-02-28 09:57:13.887247,1709110633.8872468,-533.203125,-34.1796875,-33.69140625,-1000.0,-1.0,0.0,-1.0,0.0,9.m4v,7.0
2024-02-28 09:57:13.949741,1709110633.9497411,-475.5859375,-34.66796875,-33.69140625,-746.58203125,-1.0,0.0,-1.0,0.0,9.m4v,7.0
2024-02-28 09:57:13.953647,1709110633.953647,-647.4609375,-32.2265625,-41.50390625,-1000.0,-1.0,0.0,-1.0,0.0,9.m4v,7.0
2024-02-28 09:57:13.957552,1709110633.9575524,-64.453125,-31.73828125,-38.0859375,-228.515625,-1.0,0.0,-1.0,0.0,9.m4v,7.0
2024-02-28 09:57:13.961462,1709110633.9614615,488.76953125,-26.3671875,-33.69140625,930.6640625,-1.0,0.0,-1.0,0.0,9.m4v,7.0
2024-02-28 09:57:13.965367,1709110633.9653673,437.5,-14.16015625,-46.38671875,999.51171875,-1.0,0.0,-1.0,0.0,9.m4v,7.0
2024-02-28 09:57:13.969273,1709110633.9692729,-68.359375,-29.78515625,-39.0625,182.12890625,-1.0,0.0,-1.0,0.0,9.m4v,7.0
2024-02-28 09:57:13.973179,1709110633.9731786,-570.3125,-51.26953125,-23.4375,-978.02734375,-1.0,0.0,-1.0,0.0,9.m4v,7.0
2024-02-28 09:57:13.977084,1709110633.9770842,-451.171875,-37.109375,-15.625,-1000.0,-1.0,0.0,-1.0,0.0,9.m4v,7.0
2024-02-28 09:57:13.980990,1709110633.98099,-151.85546875,-23.92578125,-9.765625,-947.265625,-1.0,0.0,-1.0,0.0,9.m4v,7.0
2024-02-28 09:57:13.984896,1709110633.9848957,-115.72265625,-37.59765625,-35.15625,-957.03125,-1.0,0.0,-1.0,0.0,9.m4v,7.0
2024-02-28 09:57:13.988801,1709110633.9888012,-258.7890625,-53.22265625,-39.0625,-1000.0,-1.0,0.0,-1.0,0.0,9.m4v,7.0
2024-02-28 09:57:13.992707,1709110633.992707,83.984375,-72.265625,-29.296875,-89.84375,-1.0,0.0,-1.0,0.0,9.m4v,7.0
2024-02-28 09:57:13.996613,1709110633.9966123,485.83984375,-58.10546875,-36.62109375,999.51171875,-1.0,0.0,-1.0,0.0,9.m4v,7.0
2024-02-28 09:57:14.000518,1709110634.0005183,350.09765625,-22.4609375,-58.59375,946.2890625,-1.0,0.0,-1.0,0.0,9.m4v,7.0
2024-02-28 09:57:14.156757,1709110634.1567566,-52.734375,-60.05859375,-21.97265625,-335.44921875,-1.0,0.0,-1.0,0.0,9.m4v,7.0
2024-02-28 09:57:14.164568,1709110634.164568,416.50390625,-22.4609375,-29.78515625,999.51171875,-1.0,0.0,-1.0,0.0,9.m4v,7.0
2024-02-28 09:57:14.172379,1709110634.1723793,-461.9140625,-32.71484375,-42.96875,-730.95703125,-1.0,0.0,-1.0,0.0,9.m4v,7.0
2024-02-28 09:57:14.180191,1709110634.1801906,-202.63671875,-39.55078125,-33.69140625,-959.9609375,-1.0,0.0,-1.0,0.0,9.m4v,7.0
2024-02-28 09:57:14.188002,1709110634.188002,-197.265625,-41.9921875,-76.171875,-1000.0,-1.0,0.0,-1.0,0.0,9.m4v,7.0
2024-02-28 09:57:14.195816,1709110634.1958156,513.18359375,-39.55078125,9.765625,999.51171875,-1.0,0.0,-1.0,0.0,9.m4v,7.0
2024-02-28 09:57:14.203627,1709110634.2036269,194.3359375,-21.97265625,-28.80859375,905.2734375,-1.0,0.0,-1.0,0.0,9.m4v,7.0
2024-02-28 09:57:14.207533,1709110634.2075326,-260.25390625,-12.20703125,-21.97265625,-122.0703125,-1.0,0.0,-1.0,0.0,9.m4v,7.0
2024-02-28 09:57:14.215344,1709110634.215344,-236.328125,-31.73828125,-57.6171875,-551.7578125,-1.0,0.0,-1.0,0.0,9.m4v,7.0
2024-02-28 09:57:14.219250,1709110634.2192495,372.0703125,-41.9921875,-38.0859375,743.65234375,-1.0,0.0,-1.0,0.0,9.m4v,7.0
2024-02-28 09:57:14.227061,1709110634.227061,-67.3828125,-44.921875,-26.85546875,41.50390625,-1.0,0.0,-1.0,0.0,9.m4v,7.0
2024-02-28 09:57:14.453609,1709110634.4536088,-294.43359375,-55.17578125,-20.99609375,37.109375,-1.0,0.0,-1.0,0.0,9.m4v,7.0
2024-02-28 09:57:14.453609,1709110634.4536088,-294.43359375,-55.17578125,-20.99609375,37.109375,-1.0,0.0,-1.0,0.0,9.m4v,7.0
2024-02-28 09:57:14.461420,1709110634.46142,-405.2734375,-20.5078125,-47.8515625,-1000.0,-1.0,0.0,-1.0,0.0,9.m4v,7.0
2024-02-28 09:57:14.461420,1709110634.46142,-405.2734375,-20.5078125,-47.8515625,-1000.0,-1.0,0.0,-1.0,0.0,9.m4v,7.0
2024-02-28 09:57:14.469231,1709110634.4692314,-155.76171875,-22.4609375,-35.64453125,-1000.0,-1.0,0.0,-1.0,0.0,9.m4v,7.0
2024-02-28 09:57:14.469231,1709110634.4692314,-155.76171875,-22.4609375,-35.64453125,-1000.0,-1.0,0.0,-1.0,0.0,9.m4v,7.0
2024-02-28 09:57:14.477046,1709110634.4770455,524.4140625,-33.203125,-30.76171875,974.12109375,-1.0,0.0,-1.0,0.0,9.m4v,7.0
2024-02-28 09:57:14.477046,1709110634.4770455,524.4140625,-33.203125,-30.76171875,974.12109375,-1.0,0.0,-1.0,0.0,9.m4v,7.0
2024-02-28 09:57:14.484857,1709110634.4848568,148.4375,-45.8984375,-39.0625,624.51171875,-1.0,0.0,-1.0,0.0,9.m4v,7.0
2024-02-28 09:57:14.484857,1709110634.4848568,148.4375,-45.8984375,-39.0625,624.51171875,-1.0,0.0,-1.0,0.0,9.m4v,7.0
2024-02-28 09:57:14.492668,1709110634.4926682,-558.10546875,-20.99609375,-24.90234375,-1000.0,-1.0,0.0,-1.0,0.0,9.m4v,7.0
2024-02-28 09:57:14.492668,1709110634.4926682,-558.10546875,-20.99609375,-24.90234375,-1000.0,-1.0,0.0,-1.0,0.0,9.m4v,7.0
2024-02-28 09:57:14.500479,1709110634.5004797,401.85546875,-26.85546875,-36.1328125,922.36328125,-1.0,0.0,-1.0,0.0,9.m4v,7.0
2024-02-28 09:57:14.500479,1709110634.5004797,401.85546875,-26.85546875,-36.1328125,922.36328125,-1.0,0.0,-1.0,0.0,9.m4v,7.0
2024-02-28 09:57:14.508291,1709110634.5082908,-71.77734375,-42.48046875,-54.19921875,104.00390625,-1.0,0.0,-1.0,0.0,9.m4v,7.0
2024-02-28 09:57:14.508291,1709110634.5082908,-71.77734375,-42.48046875,-54.19921875,104.00390625,-1.0,0.0,-1.0,0.0,9.m4v,7.0
2024-02-28 09:57:14.516102,1709110634.516102,-460.9375,-42.48046875,-29.296875,-952.63671875,-1.0,0.0,-1.0,0.0,9.m4v,7.0
2024-02-28 09:57:14.516102,1709110634.516102,-460.9375,-42.48046875,-29.296875,-952.63671875,-1.0,0.0,-1.0,0.0,9.m4v,7.0
2024-02-28 09:57:14.523916,1709110634.523916,276.3671875,-21.484375,-28.3203125,358.88671875,-1.0,0.0,-1.0,0.0,9.m4v,7.0
2024-02-28 09:57:14.523916,1709110634.523916,276.3671875,-21.484375,-28.3203125,358.88671875,-1.0,0.0,-1.0,0.0,9.m4v,7.0
2024-02-28 09:57:14.531727,1709110634.5317273,202.63671875,-43.45703125,-12.20703125,925.78125,-1.0,0.0,-1.0,0.0,9.m4v,7.0
2024-02-28 09:57:14.531727,1709110634.5317273,202.63671875,-43.45703125,-12.20703125,925.78125,-1.0,0.0,-1.0,0.0,9.m4v,7.0
2024-02-28 09:57:14.539539,1709110634.5395386,65.4296875,-14.6484375,-51.7578125,890.625,-1.0,0.0,-1.0,0.0,9.m4v,7.0
2024-02-28 09:57:14.539539,1709110634.5395386,65.4296875,-14.6484375,-51.7578125,890.625,-1.0,0.0,-1.0,0.0,9.m4v,7.0
2024-02-28 09:57:14.547350,1709110634.54735,-488.76953125,-44.921875,-32.2265625,-1000.0,-1.0,0.0,-1.0,0.0,9.m4v,7.0
2024-02-28 09:57:14.547350,1709110634.54735,-488.76953125,-44.921875,-32.2265625,-1000.0,-1.0,0.0,-1.0,0.0,9.m4v,7.0
2024-02-28 09:57:14.574692,1709110634.5746922,-551.7578125,-38.57421875,-44.921875,-1000.0,-1.0,0.0,-1.0,0.0,9.m4v,7.0
