Timestamp,Timestamp_UNIX,TP9,AF7,AF8,TP10,Valence,Arousal,Dominace,Viewed,Video,Participant
2024-02-28 09:18:57.002324,1709108337.0023236,-275.87890625,-29.296875,-34.1796875,-1000.0,0.0,-1.0,-1.0,0.0,2.m4v,7.0
2024-02-28 09:18:57.006229,1709108337.0062292,-60.05859375,-31.25,-48.33984375,-979.00390625,0.0,-1.0,-1.0,0.0,2.m4v,7.0
2024-02-28 09:18:57.010135,1709108337.0101347,-234.86328125,-44.43359375,-51.26953125,-980.95703125,0.0,-1.0,-1.0,0.0,2.m4v,7.0
2024-02-28 09:18:57.014040,1709108337.0140402,-367.67578125,-52.734375,-33.69140625,-1000.0,0.0,-1.0,-1.0,0.0,2.m4v,7.0
2024-02-28 09:18:57.162467,1709108337.1624663,316.89453125,-48.828125,-40.52734375,999.51171875,0.0,-1.0,-1.0,0.0,2.m4v,7.0
2024-02-28 09:18:57.166372,1709108337.166372,-64.453125,-54.6875,-39.0625,458.0078125,0.0,-1.0,-1.0,0.0,2.m4v,7.0
2024-02-28 09:18:57.170278,1709108337.1702778,-885.7421875,-51.26953125,-41.50390625,-912.109375,0.0,-1.0,-1.0,0.0,2.m4v,7.0
2024-02-28 09:18:57.174183,1709108337.1741834,-1000.0,-36.1328125,-31.73828125,-1000.0,0.0,-1.0,-1.0,0.0,2.m4v,7.0
2024-02-28 09:18:57.178089,1709108337.178089,-750.0,-21.97265625,-23.4375,-953.61328125,0.0,-1.0,-1.0,0.0,2.m4v,7.0
2024-02-28 09:18:57.182002,1709108337.1820016,-237.3046875,-25.87890625,-28.80859375,-1000.0,0.0,-1.0,-1.0,0.0,2.m4v,7.0
2024-02-28 09:18:57.185907,1709108337.1859071,-47.36328125,-36.1328125,-38.0859375,-1000.0,0.0,-1.0,-1.0,0.0,2.m4v,7.0
2024-02-28 09:18:57.189813,1709108337.189813,-175.78125,-35.64453125,-38.0859375,-931.640625,0.0,-1.0,-1.0,0.0,2.m4v,7.0
2024-02-28 09:18:57.193718,1709108337.1937182,-427.734375,-39.0625,-44.921875,-1000.0,0.0,-1.0,-1.0,0.0,2.m4v,7.0
2024-02-28 09:18:57.197624,1709108337.197624,67.87109375,-37.59765625,-50.29296875,-389.16015625,0.0,-1.0,-1.0,0.0,2.m4v,7.0
2024-02-28 09:18:57.201530,1709108337.2015295,943.84765625,-20.01953125,-41.015625,960.44921875,0.0,-1.0,-1.0,0.0,2.m4v,7.0
2024-02-28 09:18:57.205435,1709108337.205435,983.88671875,-26.3671875,-32.2265625,984.375,0.0,-1.0,-1.0,0.0,2.m4v,7.0
2024-02-28 09:18:57.209341,1709108337.2093406,659.66796875,-56.15234375,-25.390625,928.7109375,0.0,-1.0,-1.0,0.0,2.m4v,7.0
2024-02-28 09:18:57.213246,1709108337.213246,175.78125,-52.734375,-34.1796875,982.91015625,0.0,-1.0,-1.0,0.0,2.m4v,7.0
2024-02-28 09:18:57.217152,1709108337.217152,14.6484375,-32.2265625,-44.43359375,963.37890625,0.0,-1.0,-1.0,0.0,2.m4v,7.0
2024-02-28 09:18:57.221057,1709108337.2210574,120.60546875,-31.73828125,-34.1796875,920.8984375,0.0,-1.0,-1.0,0.0,2.m4v,7.0
2024-02-28 09:18:57.224963,1709108337.224963,249.0234375,-29.78515625,-30.76171875,999.51171875,0.0,-1.0,-1.0,0.0,2.m4v,7.0
2024-02-28 09:18:57.228875,1709108337.2288754,-347.16796875,-35.64453125,-37.109375,90.8203125,0.0,-1.0,-1.0,0.0,2.m4v,7.0
2024-02-28 09:18:57.232781,1709108337.232781,-1000.0,-37.109375,-31.25,-1000.0,0.0,-1.0,-1.0,0.0,2.m4v,7.0
2024-02-28 09:18:57.236686,1709108337.2366865,-973.6328125,-35.64453125,-35.15625,-976.07421875,0.0,-1.0,-1.0,0.0,2.m4v,7.0
2024-02-28 09:18:57.240592,1709108337.240592,-627.9296875,-40.52734375,-33.69140625,-978.515625,0.0,-1.0,-1.0,0.0,2.m4v,7.0
2024-02-28 09:18:57.244498,1709108337.2444975,-166.015625,-41.50390625,-28.3203125,-1000.0,0.0,-1.0,-1.0,0.0,2.m4v,7.0
2024-02-28 09:18:57.248403,1709108337.2484033,-51.7578125,-46.875,-35.64453125,-952.1484375,0.0,-1.0,-1.0,0.0,2.m4v,7.0
2024-02-28 09:18:57.252309,1709108337.2523088,-290.52734375,-51.7578125,-41.9921875,-1000.0,0.0,-1.0,-1.0,0.0,2.m4v,7.0
2024-02-28 09:18:57.256214,1709108337.2562144,-231.93359375,-40.0390625,-42.48046875,-802.734375,0.0,-1.0,-1.0,0.0,2.m4v,7.0
2024-02-28 09:18:57.260120,1709108337.26012,624.0234375,-34.1796875,-42.96875,523.4375,0.0,-1.0,-1.0,0.0,2.m4v,7.0
2024-02-28 09:18:57.264025,1709108337.2640254,999.51171875,-37.59765625,-44.43359375,999.51171875,0.0,-1.0,-1.0,0.0,2.m4v,7.0
2024-02-28 09:18:57.267931,1709108337.2679312,831.0546875,-35.15625,-40.52734375,913.57421875,0.0,-1.0,-1.0,0.0,2.m4v,7.0
2024-02-28 09:18:57.271837,1709108337.2718368,399.90234375,-38.57421875,-28.80859375,976.5625,0.0,-1.0,-1.0,0.0,2.m4v,7.0
2024-02-28 09:18:57.275749,1709108337.2757487,85.44921875,-34.1796875,-38.0859375,979.00390625,0.0,-1.0,-1.0,0.0,2.m4v,7.0
2024-02-28 09:18:57.279654,1709108337.2796545,89.84375,-38.0859375,-41.50390625,906.73828125,0.0,-1.0,-1.0,0.0,2.m4v,7.0
2024-02-28 09:18:57.283560,1709108337.2835598,259.765625,-42.48046875,-16.6015625,999.51171875,0.0,-1.0,-1.0,0.0,2.m4v,7.0
2024-02-28 09:18:57.287466,1709108337.2874656,-75.1953125,-39.0625,-14.16015625,509.27734375,0.0,-1.0,-1.0,0.0,2.m4v,7.0
2024-02-28 09:18:57.291371,1709108337.291371,-892.578125,-45.8984375,-27.34375,-851.5625,0.0,-1.0,-1.0,0.0,2.m4v,7.0
2024-02-28 09:18:57.295277,1709108337.2952766,-1000.0,-34.1796875,-31.73828125,-1000.0,0.0,-1.0,-1.0,0.0,2.m4v,7.0
2024-02-28 09:18:57.299182,1709108337.2991822,-680.17578125,-28.80859375,-29.78515625,-951.66015625,0.0,-1.0,-1.0,0.0,2.m4v,7.0
2024-02-28 09:18:57.303088,1709108337.3030877,-251.953125,-34.1796875,-30.2734375,-1000.0,0.0,-1.0,-1.0,0.0,2.m4v,7.0
2024-02-28 09:18:57.306993,1709108337.3069935,-89.35546875,-35.64453125,-29.78515625,-967.7734375,0.0,-1.0,-1.0,0.0,2.m4v,7.0
2024-02-28 09:18:57.310899,1709108337.310899,-268.5546875,-38.0859375,-36.62109375,-1000.0,0.0,-1.0,-1.0,0.0,2.m4v,7.0
2024-02-28 09:18:57.314805,1709108337.3148046,-326.171875,-38.0859375,-42.96875,-971.19140625,0.0,-1.0,-1.0,0.0,2.m4v,7.0
2024-02-28 09:18:57.318710,1709108337.31871,468.26171875,-38.0859375,-31.25,264.16015625,0.0,-1.0,-1.0,0.0,2.m4v,7.0
2024-02-28 09:18:57.322622,1709108337.3226216,999.51171875,-30.76171875,-24.90234375,999.51171875,0.0,-1.0,-1.0,0.0,2.m4v,7.0
2024-02-28 09:18:57.326527,1709108337.326527,872.0703125,-30.76171875,-28.80859375,917.48046875,0.0,-1.0,-1.0,0.0,2.m4v,7.0
2024-02-28 09:18:57.330433,1709108337.330433,437.98828125,-46.38671875,-33.203125,968.26171875,0.0,-1.0,-1.0,0.0,2.m4v,7.0
2024-02-28 09:18:57.334338,1709108337.3343384,42.96875,-38.57421875,-40.0390625,974.12109375,0.0,-1.0,-1.0,0.0,2.m4v,7.0
2024-02-28 09:18:57.338244,1709108337.338244,74.70703125,-25.390625,-41.015625,957.51953125,0.0,-1.0,-1.0,0.0,2.m4v,7.0
2024-02-28 09:18:57.342149,1709108337.3421495,206.54296875,-30.2734375,-42.96875,931.640625,0.0,-1.0,-1.0,0.0,2.m4v,7.0
2024-02-28 09:18:57.346055,1709108337.346055,242.67578125,-30.76171875,-43.45703125,999.51171875,0.0,-1.0,-1.0,0.0,2.m4v,7.0
2024-02-28 09:18:57.349961,1709108337.3499608,-426.7578125,-39.0625,-38.0859375,2.9296875,0.0,-1.0,-1.0,0.0,2.m4v,7.0
2024-02-28 09:18:57.353866,1709108337.3538663,-1000.0,-41.9921875,-32.2265625,-1000.0,0.0,-1.0,-1.0,0.0,2.m4v,7.0
2024-02-28 09:18:57.357772,1709108337.357772,-939.453125,-37.109375,-33.203125,-968.26171875,0.0,-1.0,-1.0,0.0,2.m4v,7.0
2024-02-28 09:18:57.361677,1709108337.3616774,-552.24609375,-37.109375,-43.45703125,-983.88671875,0.0,-1.0,-1.0,0.0,2.m4v,7.0
2024-02-28 09:18:57.365583,1709108337.365583,-166.9921875,-33.69140625,-43.45703125,-1000.0,0.0,-1.0,-1.0,0.0,2.m4v,7.0
2024-02-28 09:18:57.369494,1709108337.3694942,-152.83203125,-36.62109375,-39.0625,-933.10546875,0.0,-1.0,-1.0,0.0,2.m4v,7.0
2024-02-28 09:18:57.373400,1709108337.3733995,-392.578125,-35.15625,-31.73828125,-1000.0,0.0,-1.0,-1.0,0.0,2.m4v,7.0
2024-02-28 09:18:57.377305,1709108337.3773053,100.5859375,-26.3671875,-33.203125,-333.49609375,0.0,-1.0,-1.0,0.0,2.m4v,7.0
2024-02-28 09:18:57.381211,1709108337.3812108,953.61328125,-25.390625,-35.15625,989.74609375,0.0,-1.0,-1.0,0.0,2.m4v,7.0
2024-02-28 09:18:57.385117,1709108337.3851166,992.67578125,-29.78515625,-51.7578125,974.12109375,0.0,-1.0,-1.0,0.0,2.m4v,7.0
2024-02-28 09:18:57.389022,1709108337.389022,730.95703125,-34.1796875,-50.78125,933.10546875,0.0,-1.0,-1.0,0.0,2.m4v,7.0
2024-02-28 09:18:57.392928,1709108337.3929276,265.13671875,-37.109375,-18.06640625,983.3984375,0.0,-1.0,-1.0,0.0,2.m4v,7.0
2024-02-28 09:18:57.744479,1709108337.7444794,999.51171875,-24.4140625,-32.2265625,999.51171875,0.0,-1.0,-1.0,0.0,2.m4v,7.0
2024-02-28 09:18:57.752291,1709108337.7522907,241.69921875,-35.64453125,-38.57421875,981.4453125,0.0,-1.0,-1.0,0.0,2.m4v,7.0
2024-02-28 09:18:57.760102,1709108337.7601018,101.5625,-50.29296875,-39.55078125,911.62109375,0.0,-1.0,-1.0,0.0,2.m4v,7.0
2024-02-28 09:18:57.767913,1709108337.7679129,-44.43359375,-28.80859375,-53.7109375,629.8828125,0.0,-1.0,-1.0,0.0,2.m4v,7.0
2024-02-28 09:18:57.775724,1709108337.7757242,-1000.0,-41.9921875,-37.59765625,-1000.0,0.0,-1.0,-1.0,0.0,2.m4v,7.0
2024-02-28 09:18:57.783535,1709108337.7835352,-266.6015625,-29.78515625,-37.59765625,-1000.0,0.0,-1.0,-1.0,0.0,2.m4v,7.0
2024-02-28 09:18:57.791352,1709108337.7913518,-294.43359375,-43.45703125,-35.15625,-982.91015625,0.0,-1.0,-1.0,0.0,2.m4v,7.0
2024-02-28 09:18:57.799163,1709108337.7991629,411.62109375,-41.9921875,-46.875,109.86328125,0.0,-1.0,-1.0,0.0,2.m4v,7.0
2024-02-28 09:18:57.806974,1709108337.806974,863.76953125,-35.15625,-40.0390625,927.24609375,0.0,-1.0,-1.0,0.0,2.m4v,7.0
2024-02-28 09:18:57.814785,1709108337.8147852,102.5390625,-25.87890625,-36.62109375,981.4453125,0.0,-1.0,-1.0,0.0,2.m4v,7.0
2024-02-28 09:18:57.822596,1709108337.8225963,229.4921875,-37.109375,-45.41015625,999.51171875,0.0,-1.0,-1.0,0.0,2.m4v,7.0
2024-02-28 09:18:57.830408,1709108337.8304076,-892.578125,-39.55078125,-33.203125,-910.15625,0.0,-1.0,-1.0,0.0,2.m4v,7.0
2024-02-28 09:18:57.838224,1709108337.838224,-769.53125,-41.015625,-43.9453125,-953.61328125,0.0,-1.0,-1.0,0.0,2.m4v,7.0
2024-02-28 09:18:57.846035,1709108337.846035,-70.80078125,-38.57421875,-47.8515625,-987.79296875,0.0,-1.0,-1.0,0.0,2.m4v,7.0
2024-02-28 09:18:57.849941,1709108337.8499408,-177.24609375,-37.59765625,-44.921875,-961.9140625,0.0,-1.0,-1.0,0.0,2.m4v,7.0
2024-02-28 09:18:57.853846,1709108337.8538463,-337.890625,-28.3203125,-38.57421875,-1000.0,0.0,-1.0,-1.0,0.0,2.m4v,7.0
2024-02-28 09:18:57.857752,1709108337.8577518,332.51953125,-28.3203125,-19.53125,-23.4375,0.0,-1.0,-1.0,0.0,2.m4v,7.0
2024-02-28 09:18:57.861657,1709108337.8616574,999.51171875,-28.80859375,-23.4375,999.51171875,0.0,-1.0,-1.0,0.0,2.m4v,7.0
2024-02-28 09:18:57.865563,1709108337.865563,879.8828125,-33.203125,-37.109375,934.5703125,0.0,-1.0,-1.0,0.0,2.m4v,7.0
2024-02-28 09:18:57.869469,1709108337.8694687,444.82421875,-48.33984375,-45.8984375,954.58984375,0.0,-1.0,-1.0,0.0,2.m4v,7.0
2024-02-28 09:18:57.873374,1709108337.8733742,33.203125,-41.50390625,-58.10546875,976.07421875,0.0,-1.0,-1.0,0.0,2.m4v,7.0
2024-02-28 09:18:57.877280,1709108337.8772798,24.4140625,-41.9921875,-44.921875,961.9140625,0.0,-1.0,-1.0,0.0,2.m4v,7.0
2024-02-28 09:18:57.881185,1709108337.8811853,147.4609375,-47.36328125,-34.66796875,923.828125,0.0,-1.0,-1.0,0.0,2.m4v,7.0
2024-02-28 09:18:57.885095,1709108337.8850954,255.859375,-34.1796875,-41.015625,999.51171875,0.0,-1.0,-1.0,0.0,2.m4v,7.0
2024-02-28 09:18:57.889001,1709108337.889001,-354.00390625,-22.4609375,-38.57421875,67.3828125,0.0,-1.0,-1.0,0.0,2.m4v,7.0
2024-02-28 09:18:57.892906,1709108337.8929064,-1000.0,-24.4140625,-35.64453125,-1000.0,0.0,-1.0,-1.0,0.0,2.m4v,7.0
2024-02-28 09:18:57.896812,1709108337.896812,-983.88671875,-32.71484375,-32.2265625,-974.12109375,0.0,-1.0,-1.0,0.0,2.m4v,7.0
2024-02-28 09:18:57.900717,1709108337.9007175,-669.43359375,-33.69140625,-43.9453125,-979.98046875,0.0,-1.0,-1.0,0.0,2.m4v,7.0
2024-02-28 09:18:57.904623,1709108337.9046233,-214.84375,-30.76171875,-55.17578125,-1000.0,0.0,-1.0,-1.0,0.0,2.m4v,7.0
2024-02-28 09:18:57.908529,1709108337.9085288,-68.359375,-33.69140625,-45.8984375,-939.94140625,0.0,-1.0,-1.0,0.0,2.m4v,7.0
2024-02-28 09:18:57.912434,1709108337.9124343,-304.6875,-35.15625,-46.38671875,-1000.0,0.0,-1.0,-1.0,0.0,2.m4v,7.0
2024-02-28 09:18:57.916340,1709108337.91634,-129.8828125,-42.48046875,-47.36328125,-633.30078125,0.0,-1.0,-1.0,0.0,2.m4v,7.0
2024-02-28 09:18:57.920245,1709108337.9202454,752.44140625,-49.31640625,-30.76171875,738.28125,0.0,-1.0,-1.0,0.0,2.m4v,7.0
2024-02-28 09:18:57.924151,1709108337.9241512,999.51171875,-41.50390625,-28.3203125,999.51171875,0.0,-1.0,-1.0,0.0,2.m4v,7.0
2024-02-28 09:18:57.928057,1709108337.9280567,732.421875,-27.83203125,-35.15625,916.50390625,0.0,-1.0,-1.0,0.0,2.m4v,7.0
2024-02-28 09:18:57.931969,1709108337.9319694,243.1640625,-31.73828125,-40.52734375,980.95703125,0.0,-1.0,-1.0,0.0,2.m4v,7.0
2024-02-28 09:18:57.935875,1709108337.935875,30.76171875,-37.59765625,-49.31640625,975.09765625,0.0,-1.0,-1.0,0.0,2.m4v,7.0
2024-02-28 09:18:57.939780,1709108337.9397805,125.0,-27.34375,-44.921875,903.3203125,0.0,-1.0,-1.0,0.0,2.m4v,7.0
2024-02-28 09:18:57.943686,1709108337.9436862,309.08203125,-31.25,-40.0390625,999.51171875,0.0,-1.0,-1.0,0.0,2.m4v,7.0
2024-02-28 09:18:57.947592,1709108337.9475918,-195.3125,-37.59765625,-41.9921875,292.48046875,0.0,-1.0,-1.0,0.0,2.m4v,7.0
2024-02-28 09:18:57.951497,1709108337.9514973,-995.60546875,-31.25,-38.0859375,-1000.0,0.0,-1.0,-1.0,0.0,2.m4v,7.0
2024-02-28 09:18:57.955403,1709108337.9554029,-1000.0,-30.76171875,-37.59765625,-1000.0,0.0,-1.0,-1.0,0.0,2.m4v,7.0
2024-02-28 09:18:57.959308,1709108337.9593084,-694.3359375,-33.69140625,-41.015625,-964.35546875,0.0,-1.0,-1.0,0.0,2.m4v,7.0
2024-02-28 09:18:57.963214,1709108337.9632142,-228.02734375,-35.64453125,-32.71484375,-1000.0,0.0,-1.0,-1.0,0.0,2.m4v,7.0
2024-02-28 09:18:57.967120,1709108337.9671197,-78.61328125,-39.0625,-40.52734375,-1000.0,0.0,-1.0,-1.0,0.0,2.m4v,7.0
2024-02-28 09:18:57.971025,1709108337.9710252,-219.7265625,-43.9453125,-50.29296875,-938.4765625,0.0,-1.0,-1.0,0.0,2.m4v,7.0
2024-02-28 09:18:57.974931,1709108337.9749308,-326.171875,-44.43359375,-36.62109375,-1000.0,0.0,-1.0,-1.0,0.0,2.m4v,7.0
2024-02-28 09:18:57.978843,1709108337.9788432,249.51171875,-38.57421875,-30.2734375,-345.703125,0.0,-1.0,-1.0,0.0,2.m4v,7.0
2024-02-28 09:18:57.982749,1709108337.9827487,966.30859375,-41.015625,-33.69140625,958.49609375,0.0,-1.0,-1.0,0.0,2.m4v,7.0
2024-02-28 09:18:57.986654,1709108337.9866543,965.8203125,-39.55078125,-39.0625,980.95703125,0.0,-1.0,-1.0,0.0,2.m4v,7.0
2024-02-28 09:18:57.990560,1709108337.9905598,550.78125,-30.2734375,-21.97265625,933.10546875,0.0,-1.0,-1.0,0.0,2.m4v,7.0
2024-02-28 09:18:57.994465,1709108337.9944654,95.703125,-32.71484375,-13.18359375,976.07421875,0.0,-1.0,-1.0,0.0,2.m4v,7.0
2024-02-28 09:18:57.998371,1709108337.9983711,123.046875,-36.62109375,-27.34375,914.55078125,0.0,-1.0,-1.0,0.0,2.m4v,7.0
2024-02-28 09:18:58.002277,1709108338.002277,394.53125,-30.2734375,-28.80859375,999.51171875,0.0,-1.0,-1.0,0.0,2.m4v,7.0
2024-02-28 09:18:58.006182,1709108338.0061822,-214.35546875,-25.390625,-24.4140625,125.0,0.0,-1.0,-1.0,0.0,2.m4v,7.0
2024-02-28 09:18:58.010088,1709108338.0100875,-1000.0,-34.1796875,-29.78515625,-1000.0,0.0,-1.0,-1.0,0.0,2.m4v,7.0
2024-02-28 09:18:58.013993,1709108338.0139933,-997.55859375,-48.33984375,-28.80859375,-977.05078125,0.0,-1.0,-1.0,0.0,2.m4v,7.0
2024-02-28 09:18:58.017899,1709108338.017899,-699.70703125,-54.6875,-28.3203125,-977.5390625,0.0,-1.0,-1.0,0.0,2.m4v,7.0
2024-02-28 09:18:58.021805,1709108338.0218046,-266.11328125,-49.31640625,-40.52734375,-1000.0,0.0,-1.0,-1.0,0.0,2.m4v,7.0
2024-02-28 09:18:58.025717,1709108338.0257163,-81.54296875,-41.50390625,-50.78125,-1000.0,0.0,-1.0,-1.0,0.0,2.m4v,7.0
2024-02-28 09:18:58.029622,1709108338.029622,-132.8125,-39.55078125,-39.0625,-932.12890625,0.0,-1.0,-1.0,0.0,2.m4v,7.0
2024-02-28 09:18:58.033528,1709108338.0335276,-353.02734375,-39.55078125,-41.015625,-1000.0,0.0,-1.0,-1.0,0.0,2.m4v,7.0
2024-02-28 09:18:58.037433,1709108338.0374331,106.93359375,-41.50390625,-42.96875,-429.6875,0.0,-1.0,-1.0,0.0,2.m4v,7.0
2024-02-28 09:18:58.041339,1709108338.041339,924.8046875,-34.66796875,-29.296875,931.15234375,0.0,-1.0,-1.0,0.0,2.m4v,7.0
2024-02-28 09:18:58.045244,1709108338.0452445,999.51171875,-20.5078125,-31.25,992.1875,0.0,-1.0,-1.0,0.0,2.m4v,7.0
2024-02-28 09:18:58.435850,1709108338.4358504,-994.140625,-45.8984375,-39.55078125,-987.79296875,0.0,-1.0,-1.0,0.0,2.m4v,7.0
2024-02-28 09:18:58.439756,1709108338.439756,-696.2890625,-38.0859375,-60.546875,-972.16796875,0.0,-1.0,-1.0,0.0,2.m4v,7.0
2024-02-28 09:18:58.443661,1709108338.4436617,-243.1640625,-42.48046875,-55.17578125,-1000.0,0.0,-1.0,-1.0,0.0,2.m4v,7.0
2024-02-28 09:18:58.447576,1709108338.447576,-76.66015625,-41.015625,-37.59765625,-939.94140625,0.0,-1.0,-1.0,0.0,2.m4v,7.0
2024-02-28 09:18:58.451482,1709108338.4514818,-309.08203125,-41.015625,-33.203125,-1000.0,0.0,-1.0,-1.0,0.0,2.m4v,7.0
2024-02-28 09:18:58.455387,1709108338.4553874,-158.69140625,-38.0859375,-31.25,-648.92578125,0.0,-1.0,-1.0,0.0,2.m4v,7.0
2024-02-28 09:18:58.455387,1709108338.4553874,-158.69140625,-38.0859375,-31.25,-648.92578125,0.0,-1.0,-1.0,0.0,2.m4v,7.0
2024-02-28 09:18:58.459293,1709108338.459293,718.75,-32.2265625,-31.25,725.09765625,0.0,-1.0,-1.0,0.0,2.m4v,7.0
2024-02-28 09:18:58.459293,1709108338.459293,718.75,-32.2265625,-31.25,725.09765625,0.0,-1.0,-1.0,0.0,2.m4v,7.0
2024-02-28 09:18:58.463198,1709108338.4631984,999.51171875,-30.2734375,-31.73828125,999.51171875,0.0,-1.0,-1.0,0.0,2.m4v,7.0
2024-02-28 09:18:58.463198,1709108338.4631984,999.51171875,-30.2734375,-31.73828125,999.51171875,0.0,-1.0,-1.0,0.0,2.m4v,7.0
2024-02-28 09:18:58.467104,1709108338.467104,836.42578125,-35.64453125,-32.2265625,915.52734375,0.0,-1.0,-1.0,0.0,2.m4v,7.0
2024-02-28 09:18:58.467104,1709108338.467104,836.42578125,-35.64453125,-32.2265625,915.52734375,0.0,-1.0,-1.0,0.0,2.m4v,7.0
2024-02-28 09:18:58.471010,1709108338.4710095,407.71484375,-41.9921875,-23.92578125,980.46875,0.0,-1.0,-1.0,0.0,2.m4v,7.0
2024-02-28 09:18:58.471010,1709108338.4710095,407.71484375,-41.9921875,-23.92578125,980.46875,0.0,-1.0,-1.0,0.0,2.m4v,7.0
2024-02-28 09:18:58.474915,1709108338.4749153,54.6875,-41.9921875,-31.73828125,979.4921875,0.0,-1.0,-1.0,0.0,2.m4v,7.0
2024-02-28 09:18:58.474915,1709108338.4749153,54.6875,-41.9921875,-31.73828125,979.4921875,0.0,-1.0,-1.0,0.0,2.m4v,7.0
2024-02-28 09:18:58.478821,1709108338.4788208,44.921875,-43.45703125,-36.62109375,906.73828125,0.0,-1.0,-1.0,0.0,2.m4v,7.0
2024-02-28 09:18:58.478821,1709108338.4788208,44.921875,-43.45703125,-36.62109375,906.73828125,0.0,-1.0,-1.0,0.0,2.m4v,7.0
2024-02-28 09:18:58.482726,1709108338.4827263,212.40234375,-39.0625,-32.2265625,999.51171875,0.0,-1.0,-1.0,0.0,2.m4v,7.0
2024-02-28 09:18:58.482726,1709108338.4827263,212.40234375,-39.0625,-32.2265625,999.51171875,0.0,-1.0,-1.0,0.0,2.m4v,7.0
2024-02-28 09:18:58.486632,1709108338.486632,-80.56640625,-28.80859375,-32.71484375,524.4140625,0.0,-1.0,-1.0,0.0,2.m4v,7.0
2024-02-28 09:18:58.486632,1709108338.486632,-80.56640625,-28.80859375,-32.71484375,524.4140625,0.0,-1.0,-1.0,0.0,2.m4v,7.0
2024-02-28 09:18:58.490538,1709108338.4905376,-865.72265625,-23.92578125,-42.48046875,-840.8203125,0.0,-1.0,-1.0,0.0,2.m4v,7.0
2024-02-28 09:18:58.490538,1709108338.4905376,-865.72265625,-23.92578125,-42.48046875,-840.8203125,0.0,-1.0,-1.0,0.0,2.m4v,7.0
2024-02-28 09:18:58.494451,1709108338.4944506,-1000.0,-30.76171875,-49.8046875,-1000.0,0.0,-1.0,-1.0,0.0,2.m4v,7.0
2024-02-28 09:18:58.494451,1709108338.4944506,-1000.0,-30.76171875,-49.8046875,-1000.0,0.0,-1.0,-1.0,0.0,2.m4v,7.0
2024-02-28 09:18:58.498356,1709108338.498356,-774.90234375,-39.55078125,-41.50390625,-950.68359375,0.0,-1.0,-1.0,0.0,2.m4v,7.0
2024-02-28 09:18:58.498356,1709108338.498356,-774.90234375,-39.55078125,-41.50390625,-950.68359375,0.0,-1.0,-1.0,0.0,2.m4v,7.0
2024-02-28 09:18:58.502262,1709108338.5022616,-340.8203125,-30.2734375,-37.59765625,-1000.0,0.0,-1.0,-1.0,0.0,2.m4v,7.0
2024-02-28 09:18:58.502262,1709108338.5022616,-340.8203125,-30.2734375,-37.59765625,-1000.0,0.0,-1.0,-1.0,0.0,2.m4v,7.0
2024-02-28 09:18:58.506167,1709108338.5061672,-136.71875,-27.34375,-40.52734375,-958.49609375,0.0,-1.0,-1.0,0.0,2.m4v,7.0
2024-02-28 09:18:58.506167,1709108338.5061672,-136.71875,-27.34375,-40.52734375,-958.49609375,0.0,-1.0,-1.0,0.0,2.m4v,7.0
2024-02-28 09:18:58.510073,1709108338.5100727,-270.5078125,-32.2265625,-33.69140625,-1000.0,0.0,-1.0,-1.0,0.0,2.m4v,7.0
2024-02-28 09:18:58.510073,1709108338.5100727,-270.5078125,-32.2265625,-33.69140625,-1000.0,0.0,-1.0,-1.0,0.0,2.m4v,7.0
2024-02-28 09:18:58.513978,1709108338.5139785,-226.07421875,-28.80859375,-19.04296875,-900.390625,0.0,-1.0,-1.0,0.0,2.m4v,7.0
2024-02-28 09:18:58.513978,1709108338.5139785,-226.07421875,-28.80859375,-19.04296875,-900.390625,0.0,-1.0,-1.0,0.0,2.m4v,7.0
2024-02-28 09:18:58.517884,1709108338.517884,575.1953125,-38.57421875,-20.99609375,405.76171875,0.0,-1.0,-1.0,0.0,2.m4v,7.0
2024-02-28 09:18:58.517884,1709108338.517884,575.1953125,-38.57421875,-20.99609375,405.76171875,0.0,-1.0,-1.0,0.0,2.m4v,7.0
2024-02-28 09:18:58.521790,1709108338.5217896,999.51171875,-48.828125,-34.66796875,999.51171875,0.0,-1.0,-1.0,0.0,2.m4v,7.0
2024-02-28 09:18:58.521790,1709108338.5217896,999.51171875,-48.828125,-34.66796875,999.51171875,0.0,-1.0,-1.0,0.0,2.m4v,7.0
2024-02-28 09:18:58.525695,1709108338.525695,861.81640625,-33.69140625,-41.50390625,912.109375,0.0,-1.0,-1.0,0.0,2.m4v,7.0
2024-02-28 09:18:58.525695,1709108338.525695,861.81640625,-33.69140625,-41.50390625,912.109375,0.0,-1.0,-1.0,0.0,2.m4v,7.0
2024-02-28 09:18:58.529601,1709108338.5296006,430.6640625,-40.52734375,-39.55078125,974.12109375,0.0,-1.0,-1.0,0.0,2.m4v,7.0
2024-02-28 09:18:58.529601,1709108338.5296006,430.6640625,-40.52734375,-39.55078125,974.12109375,0.0,-1.0,-1.0,0.0,2.m4v,7.0
2024-02-28 09:18:58.533506,1709108338.5335064,4.8828125,-51.7578125,-34.1796875,976.07421875,0.0,-1.0,-1.0,0.0,2.m4v,7.0
2024-02-28 09:18:58.533506,1709108338.5335064,4.8828125,-51.7578125,-34.1796875,976.07421875,0.0,-1.0,-1.0,0.0,2.m4v,7.0
2024-02-28 09:18:58.537412,1709108338.537412,14.6484375,-40.52734375,-44.921875,940.91796875,0.0,-1.0,-1.0,0.0,2.m4v,7.0
2024-02-28 09:18:58.537412,1709108338.537412,14.6484375,-40.52734375,-44.921875,940.91796875,0.0,-1.0,-1.0,0.0,2.m4v,7.0
2024-02-28 09:18:58.541323,1709108338.5413227,173.33984375,-32.71484375,-54.19921875,971.19140625,0.0,-1.0,-1.0,0.0,2.m4v,7.0
2024-02-28 09:18:58.541323,1709108338.5413227,173.33984375,-32.71484375,-54.19921875,971.19140625,0.0,-1.0,-1.0,0.0,2.m4v,7.0
2024-02-28 09:18:58.545228,1709108338.5452282,181.640625,-26.3671875,-39.0625,939.94140625,0.0,-1.0,-1.0,0.0,2.m4v,7.0
2024-02-28 09:18:58.545228,1709108338.5452282,181.640625,-26.3671875,-39.0625,939.94140625,0.0,-1.0,-1.0,0.0,2.m4v,7.0
2024-02-28 09:18:58.549134,1709108338.5491338,-511.71875,-41.015625,-29.296875,-255.859375,0.0,-1.0,-1.0,0.0,2.m4v,7.0
2024-02-28 09:18:58.549134,1709108338.5491338,-511.71875,-41.015625,-29.296875,-255.859375,0.0,-1.0,-1.0,0.0,2.m4v,7.0
2024-02-28 09:18:58.553040,1709108338.5530396,-1000.0,-44.921875,-27.34375,-1000.0,0.0,-1.0,-1.0,0.0,2.m4v,7.0
2024-02-28 09:18:58.553040,1709108338.5530396,-1000.0,-44.921875,-27.34375,-1000.0,0.0,-1.0,-1.0,0.0,2.m4v,7.0
2024-02-28 09:18:58.556945,1709108338.556945,-913.57421875,-33.69140625,-23.4375,-953.61328125,0.0,-1.0,-1.0,0.0,2.m4v,7.0
2024-02-28 09:18:58.556945,1709108338.556945,-913.57421875,-33.69140625,-23.4375,-953.61328125,0.0,-1.0,-1.0,0.0,2.m4v,7.0
2024-02-28 09:18:58.560851,1709108338.5608506,-494.140625,-36.1328125,-23.4375,-995.60546875,0.0,-1.0,-1.0,0.0,2.m4v,7.0
2024-02-28 09:18:58.560851,1709108338.5608506,-494.140625,-36.1328125,-23.4375,-995.60546875,0.0,-1.0,-1.0,0.0,2.m4v,7.0
2024-02-28 09:18:58.564756,1709108338.5647562,-90.8203125,-35.15625,-32.2265625,-1000.0,0.0,-1.0,-1.0,0.0,2.m4v,7.0
2024-02-28 09:18:58.564756,1709108338.5647562,-90.8203125,-35.15625,-32.2265625,-1000.0,0.0,-1.0,-1.0,0.0,2.m4v,7.0
2024-02-28 09:18:58.568662,1709108338.5686617,-107.91015625,-36.1328125,-41.50390625,-940.91796875,0.0,-1.0,-1.0,0.0,2.m4v,7.0
2024-02-28 09:18:58.568662,1709108338.5686617,-107.91015625,-36.1328125,-41.50390625,-940.91796875,0.0,-1.0,-1.0,0.0,2.m4v,7.0
2024-02-28 09:18:58.572567,1709108338.5725677,-366.2109375,-30.76171875,-45.41015625,-1000.0,0.0,-1.0,-1.0,0.0,2.m4v,7.0
2024-02-28 09:18:58.572567,1709108338.5725677,-366.2109375,-30.76171875,-45.41015625,-1000.0,0.0,-1.0,-1.0,0.0,2.m4v,7.0
2024-02-28 09:18:58.576473,1709108338.576473,-68.359375,-31.25,-41.9921875,-645.5078125,0.0,-1.0,-1.0,0.0,2.m4v,7.0
2024-02-28 09:18:58.576473,1709108338.576473,-68.359375,-31.25,-41.9921875,-645.5078125,0.0,-1.0,-1.0,0.0,2.m4v,7.0
2024-02-28 09:18:58.580379,1709108338.5803783,785.64453125,-33.203125,-32.71484375,720.21484375,0.0,-1.0,-1.0,0.0,2.m4v,7.0
2024-02-28 09:18:58.580379,1709108338.5803783,785.64453125,-33.203125,-32.71484375,720.21484375,0.0,-1.0,-1.0,0.0,2.m4v,7.0
2024-02-28 09:18:58.584284,1709108338.584284,999.51171875,-30.2734375,-33.69140625,999.51171875,0.0,-1.0,-1.0,0.0,2.m4v,7.0
2024-02-28 09:18:58.584284,1709108338.584284,999.51171875,-30.2734375,-33.69140625,999.51171875,0.0,-1.0,-1.0,0.0,2.m4v,7.0
2024-02-28 09:18:58.588195,1709108338.5881946,775.87890625,-32.71484375,-41.50390625,916.50390625,0.0,-1.0,-1.0,0.0,2.m4v,7.0
2024-02-28 09:18:58.588195,1709108338.5881946,775.87890625,-32.71484375,-41.50390625,916.50390625,0.0,-1.0,-1.0,0.0,2.m4v,7.0
2024-02-28 09:18:58.592100,1709108338.5921,278.3203125,-29.78515625,-38.57421875,981.4453125,0.0,-1.0,-1.0,0.0,2.m4v,7.0
2024-02-28 09:18:58.592100,1709108338.5921,278.3203125,-29.78515625,-38.57421875,981.4453125,0.0,-1.0,-1.0,0.0,2.m4v,7.0
2024-02-28 09:18:58.596006,1709108338.5960057,41.9921875,-31.25,-31.73828125,971.19140625,0.0,-1.0,-1.0,0.0,2.m4v,7.0
2024-02-28 09:18:58.596006,1709108338.5960057,41.9921875,-31.25,-31.73828125,971.19140625,0.0,-1.0,-1.0,0.0,2.m4v,7.0
2024-02-28 09:18:58.599911,1709108338.5999112,125.48828125,-36.1328125,-25.87890625,910.64453125,0.0,-1.0,-1.0,0.0,2.m4v,7.0
2024-02-28 09:18:58.599911,1709108338.5999112,125.48828125,-36.1328125,-25.87890625,910.64453125,0.0,-1.0,-1.0,0.0,2.m4v,7.0
2024-02-28 09:18:58.603817,1709108338.603817,283.69140625,-34.1796875,-25.87890625,999.51171875,0.0,-1.0,-1.0,0.0,2.m4v,7.0
2024-02-28 09:18:58.603817,1709108338.603817,283.69140625,-34.1796875,-25.87890625,999.51171875,0.0,-1.0,-1.0,0.0,2.m4v,7.0
2024-02-28 09:18:58.607723,1709108338.6077223,-209.47265625,-36.62109375,-25.390625,249.0234375,0.0,-1.0,-1.0,0.0,2.m4v,7.0
2024-02-28 09:18:58.607723,1709108338.6077223,-209.47265625,-36.62109375,-25.390625,249.0234375,0.0,-1.0,-1.0,0.0,2.m4v,7.0
2024-02-28 09:18:58.611628,1709108338.611628,-985.3515625,-47.8515625,-30.76171875,-1000.0,0.0,-1.0,-1.0,0.0,2.m4v,7.0
2024-02-28 09:18:58.611628,1709108338.611628,-985.3515625,-47.8515625,-30.76171875,-1000.0,0.0,-1.0,-1.0,0.0,2.m4v,7.0
2024-02-28 09:18:58.615534,1709108338.6155336,-1000.0,-55.17578125,-43.45703125,-1000.0,0.0,-1.0,-1.0,0.0,2.m4v,7.0
2024-02-28 09:18:58.615534,1709108338.6155336,-1000.0,-55.17578125,-43.45703125,-1000.0,0.0,-1.0,-1.0,0.0,2.m4v,7.0
2024-02-28 09:18:58.619439,1709108338.6194391,-769.04296875,-51.26953125,-38.57421875,-966.796875,0.0,-1.0,-1.0,0.0,2.m4v,7.0
2024-02-28 09:18:58.619439,1709108338.6194391,-769.04296875,-51.26953125,-38.57421875,-966.796875,0.0,-1.0,-1.0,0.0,2.m4v,7.0
2024-02-28 09:18:58.623345,1709108338.623345,-290.52734375,-42.48046875,-39.0625,-1000.0,0.0,-1.0,-1.0,0.0,2.m4v,7.0
2024-02-28 09:18:58.623345,1709108338.623345,-290.52734375,-42.48046875,-39.0625,-1000.0,0.0,-1.0,-1.0,0.0,2.m4v,7.0
2024-02-28 09:18:58.627250,1709108338.6272504,-61.03515625,-21.484375,-48.828125,-971.19140625,0.0,-1.0,-1.0,0.0,2.m4v,7.0
2024-02-28 09:18:58.627250,1709108338.6272504,-61.03515625,-21.484375,-48.828125,-971.19140625,0.0,-1.0,-1.0,0.0,2.m4v,7.0
2024-02-28 09:18:58.631156,1709108338.631156,-233.3984375,-13.18359375,-38.57421875,-1000.0,0.0,-1.0,-1.0,0.0,2.m4v,7.0
2024-02-28 09:18:58.631156,1709108338.631156,-233.3984375,-13.18359375,-38.57421875,-1000.0,0.0,-1.0,-1.0,0.0,2.m4v,7.0
2024-02-28 09:18:58.635066,1709108338.6350658,-266.6015625,-23.4375,-22.94921875,-977.05078125,0.0,-1.0,-1.0,0.0,2.m4v,7.0
2024-02-28 09:18:58.635066,1709108338.6350658,-266.6015625,-23.4375,-22.94921875,-977.05078125,0.0,-1.0,-1.0,0.0,2.m4v,7.0
2024-02-28 09:18:58.638972,1709108338.6389716,481.93359375,-26.3671875,-28.80859375,217.28515625,0.0,-1.0,-1.0,0.0,2.m4v,7.0
2024-02-28 09:18:58.638972,1709108338.6389716,481.93359375,-26.3671875,-28.80859375,217.28515625,0.0,-1.0,-1.0,0.0,2.m4v,7.0
2024-02-28 09:18:58.642877,1709108338.642877,999.51171875,-29.296875,-38.57421875,999.51171875,0.0,-1.0,-1.0,0.0,2.m4v,7.0
2024-02-28 09:18:58.642877,1709108338.642877,999.51171875,-29.296875,-38.57421875,999.51171875,0.0,-1.0,-1.0,0.0,2.m4v,7.0
2024-02-28 09:18:58.646783,1709108338.6467826,846.6796875,-39.55078125,-31.25,923.33984375,0.0,-1.0,-1.0,0.0,2.m4v,7.0
2024-02-28 09:18:58.646783,1709108338.6467826,846.6796875,-39.55078125,-31.25,923.33984375,0.0,-1.0,-1.0,0.0,2.m4v,7.0
2024-02-28 09:18:58.650688,1709108338.6506882,383.7890625,-38.0859375,-31.25,965.8203125,0.0,-1.0,-1.0,0.0,2.m4v,7.0
2024-02-28 09:18:58.650688,1709108338.6506882,383.7890625,-38.0859375,-31.25,965.8203125,0.0,-1.0,-1.0,0.0,2.m4v,7.0
2024-02-28 09:18:58.654594,1709108338.6545937,94.7265625,-39.0625,-41.015625,971.19140625,0.0,-1.0,-1.0,0.0,2.m4v,7.0
2024-02-28 09:18:58.654594,1709108338.6545937,94.7265625,-39.0625,-41.015625,971.19140625,0.0,-1.0,-1.0,0.0,2.m4v,7.0
2024-02-28 09:18:58.658499,1709108338.6584997,104.98046875,-49.8046875,-45.8984375,910.64453125,0.0,-1.0,-1.0,0.0,2.m4v,7.0
2024-02-28 09:18:58.658499,1709108338.6584997,104.98046875,-49.8046875,-45.8984375,910.64453125,0.0,-1.0,-1.0,0.0,2.m4v,7.0
2024-02-28 09:18:58.662405,1709108338.662405,214.84375,-52.734375,-44.43359375,999.51171875,0.0,-1.0,-1.0,0.0,2.m4v,7.0
2024-02-28 09:18:58.662405,1709108338.662405,214.84375,-52.734375,-44.43359375,999.51171875,0.0,-1.0,-1.0,0.0,2.m4v,7.0
2024-02-28 09:18:58.666311,1709108338.6663103,-294.921875,-52.24609375,-38.57421875,175.29296875,0.0,-1.0,-1.0,0.0,2.m4v,7.0
2024-02-28 09:18:58.666311,1709108338.6663103,-294.921875,-52.24609375,-38.57421875,175.29296875,0.0,-1.0,-1.0,0.0,2.m4v,7.0
2024-02-28 09:18:58.670216,1709108338.670216,-1000.0,-44.43359375,-35.64453125,-1000.0,0.0,-1.0,-1.0,0.0,2.m4v,7.0
2024-02-28 09:18:58.670216,1709108338.670216,-1000.0,-44.43359375,-35.64453125,-1000.0,0.0,-1.0,-1.0,0.0,2.m4v,7.0
2024-02-28 09:18:58.674122,1709108338.6741216,-991.69921875,-35.15625,-30.76171875,-984.375,0.0,-1.0,-1.0,0.0,2.m4v,7.0
2024-02-28 09:18:58.674122,1709108338.6741216,-991.69921875,-35.15625,-30.76171875,-984.375,0.0,-1.0,-1.0,0.0,2.m4v,7.0
2024-02-28 09:18:58.678027,1709108338.6780274,-673.33984375,-33.69140625,-36.1328125,-973.6328125,0.0,-1.0,-1.0,0.0,2.m4v,7.0
2024-02-28 09:18:58.678027,1709108338.6780274,-673.33984375,-33.69140625,-36.1328125,-973.6328125,0.0,-1.0,-1.0,0.0,2.m4v,7.0
2024-02-28 09:18:58.681937,1709108338.6819377,-219.7265625,-33.69140625,-41.9921875,-1000.0,0.0,-1.0,-1.0,0.0,2.m4v,7.0
2024-02-28 09:18:58.681937,1709108338.6819377,-219.7265625,-33.69140625,-41.9921875,-1000.0,0.0,-1.0,-1.0,0.0,2.m4v,7.0
2024-02-28 09:18:58.685843,1709108338.685843,-22.4609375,-28.80859375,-44.43359375,-1000.0,0.0,-1.0,-1.0,0.0,2.m4v,7.0
2024-02-28 09:18:58.685843,1709108338.685843,-22.4609375,-28.80859375,-44.43359375,-1000.0,0.0,-1.0,-1.0,0.0,2.m4v,7.0
2024-02-28 09:18:58.689749,1709108338.6897483,-126.46484375,-29.296875,-42.96875,-933.59375,0.0,-1.0,-1.0,0.0,2.m4v,7.0
2024-02-28 09:18:58.689749,1709108338.6897483,-126.46484375,-29.296875,-42.96875,-933.59375,0.0,-1.0,-1.0,0.0,2.m4v,7.0
2024-02-28 09:18:58.693654,1709108338.693654,-400.390625,-47.36328125,-38.0859375,-1000.0,0.0,-1.0,-1.0,0.0,2.m4v,7.0
2024-02-28 09:18:58.693654,1709108338.693654,-400.390625,-47.36328125,-38.0859375,-1000.0,0.0,-1.0,-1.0,0.0,2.m4v,7.0
2024-02-28 09:18:58.697560,1709108338.6975598,113.76953125,-49.8046875,-34.1796875,-340.33203125,0.0,-1.0,-1.0,0.0,2.m4v,7.0
2024-02-28 09:18:58.697560,1709108338.6975598,113.76953125,-49.8046875,-34.1796875,-340.33203125,0.0,-1.0,-1.0,0.0,2.m4v,7.0
2024-02-28 09:18:58.701465,1709108338.7014654,960.9375,-32.71484375,-41.015625,985.3515625,0.0,-1.0,-1.0,0.0,2.m4v,7.0
2024-02-28 09:18:58.701465,1709108338.7014654,960.9375,-32.71484375,-41.015625,985.3515625,0.0,-1.0,-1.0,0.0,2.m4v,7.0
2024-02-28 09:18:58.705371,1709108338.705371,982.421875,-34.1796875,-41.9921875,976.07421875,0.0,-1.0,-1.0,0.0,2.m4v,7.0
2024-02-28 09:18:58.705371,1709108338.705371,982.421875,-34.1796875,-41.9921875,976.07421875,0.0,-1.0,-1.0,0.0,2.m4v,7.0
2024-02-28 09:18:58.709276,1709108338.7092764,610.83984375,-40.52734375,-28.3203125,932.6171875,0.0,-1.0,-1.0,0.0,2.m4v,7.0
2024-02-28 09:18:58.709276,1709108338.7092764,610.83984375,-40.52734375,-28.3203125,932.6171875,0.0,-1.0,-1.0,0.0,2.m4v,7.0
2024-02-28 09:18:58.713182,1709108338.713182,114.74609375,-36.62109375,-32.2265625,986.328125,0.0,-1.0,-1.0,0.0,2.m4v,7.0
2024-02-28 09:18:58.713182,1709108338.713182,114.74609375,-36.62109375,-32.2265625,986.328125,0.0,-1.0,-1.0,0.0,2.m4v,7.0
2024-02-28 09:18:58.717088,1709108338.7170875,15.13671875,-34.66796875,-38.57421875,938.4765625,0.0,-1.0,-1.0,0.0,2.m4v,7.0
2024-02-28 09:18:58.717088,1709108338.7170875,15.13671875,-34.66796875,-38.57421875,938.4765625,0.0,-1.0,-1.0,0.0,2.m4v,7.0
2024-02-28 09:18:58.720993,1709108338.7209933,144.53125,-26.85546875,-37.59765625,977.5390625,0.0,-1.0,-1.0,0.0,2.m4v,7.0
2024-02-28 09:18:58.720993,1709108338.7209933,144.53125,-26.85546875,-37.59765625,977.5390625,0.0,-1.0,-1.0,0.0,2.m4v,7.0
2024-02-28 09:18:58.724899,1709108338.7248988,166.9921875,-29.296875,-36.1328125,917.96875,0.0,-1.0,-1.0,0.0,2.m4v,7.0
2024-02-28 09:18:58.724899,1709108338.7248988,166.9921875,-29.296875,-36.1328125,917.96875,0.0,-1.0,-1.0,0.0,2.m4v,7.0
2024-02-28 09:18:58.728811,1709108338.728811,-512.6953125,-41.50390625,-32.2265625,-295.41015625,0.0,-1.0,-1.0,0.0,2.m4v,7.0
2024-02-28 09:18:58.728811,1709108338.728811,-512.6953125,-41.50390625,-32.2265625,-295.41015625,0.0,-1.0,-1.0,0.0,2.m4v,7.0
2024-02-28 09:18:58.732717,1709108338.7327168,-1000.0,-33.203125,-33.203125,-1000.0,0.0,-1.0,-1.0,0.0,2.m4v,7.0
2024-02-28 09:18:58.732717,1709108338.7327168,-1000.0,-33.203125,-33.203125,-1000.0,0.0,-1.0,-1.0,0.0,2.m4v,7.0
2024-02-28 09:18:58.736622,1709108338.7366223,-886.71875,-33.69140625,-33.203125,-952.1484375,0.0,-1.0,-1.0,0.0,2.m4v,7.0
2024-02-28 09:18:58.736622,1709108338.7366223,-886.71875,-33.69140625,-33.203125,-952.1484375,0.0,-1.0,-1.0,0.0,2.m4v,7.0
2024-02-28 09:18:58.740528,1709108338.740528,-495.60546875,-35.64453125,-32.2265625,-997.0703125,0.0,-1.0,-1.0,0.0,2.m4v,7.0
2024-02-28 09:18:58.740528,1709108338.740528,-495.60546875,-35.64453125,-32.2265625,-997.0703125,0.0,-1.0,-1.0,0.0,2.m4v,7.0
2024-02-28 09:18:58.744433,1709108338.7444334,-136.71875,-38.0859375,-43.9453125,-1000.0,0.0,-1.0,-1.0,0.0,2.m4v,7.0
2024-02-28 09:18:58.744433,1709108338.7444334,-136.71875,-38.0859375,-43.9453125,-1000.0,0.0,-1.0,-1.0,0.0,2.m4v,7.0
2024-02-28 09:18:58.748339,1709108338.748339,-67.3828125,-37.59765625,-51.26953125,-964.35546875,0.0,-1.0,-1.0,0.0,2.m4v,7.0
2024-02-28 09:18:58.748339,1709108338.748339,-67.3828125,-37.59765625,-51.26953125,-964.35546875,0.0,-1.0,-1.0,0.0,2.m4v,7.0
2024-02-28 09:18:58.752245,1709108338.7522447,-280.76171875,-37.109375,-43.9453125,-1000.0,0.0,-1.0,-1.0,0.0,2.m4v,7.0
2024-02-28 09:18:58.752245,1709108338.7522447,-280.76171875,-37.109375,-43.9453125,-1000.0,0.0,-1.0,-1.0,0.0,2.m4v,7.0
2024-02-28 09:18:58.756150,1709108338.7561502,-238.76953125,-41.50390625,-34.1796875,-903.80859375,0.0,-1.0,-1.0,0.0,2.m4v,7.0
2024-02-28 09:18:58.756150,1709108338.7561502,-238.76953125,-41.50390625,-34.1796875,-903.80859375,0.0,-1.0,-1.0,0.0,2.m4v,7.0
2024-02-28 09:18:58.760056,1709108338.7600558,570.80078125,-34.66796875,-26.85546875,340.33203125,0.0,-1.0,-1.0,0.0,2.m4v,7.0
2024-02-28 09:18:58.760056,1709108338.7600558,570.80078125,-34.66796875,-26.85546875,340.33203125,0.0,-1.0,-1.0,0.0,2.m4v,7.0
2024-02-28 09:18:58.763961,1709108338.7639613,999.51171875,-37.59765625,-28.80859375,999.51171875,0.0,-1.0,-1.0,0.0,2.m4v,7.0
2024-02-28 09:18:58.763961,1709108338.7639613,999.51171875,-37.59765625,-28.80859375,999.51171875,0.0,-1.0,-1.0,0.0,2.m4v,7.0
2024-02-28 09:18:58.767867,1709108338.7678668,820.3125,-46.38671875,-35.15625,919.43359375,0.0,-1.0,-1.0,0.0,2.m4v,7.0
2024-02-28 09:18:58.767867,1709108338.7678668,820.3125,-46.38671875,-35.15625,919.43359375,0.0,-1.0,-1.0,0.0,2.m4v,7.0
2024-02-28 09:18:58.771773,1709108338.7717726,311.5234375,-39.55078125,-26.85546875,971.19140625,0.0,-1.0,-1.0,0.0,2.m4v,7.0
2024-02-28 09:18:58.771773,1709108338.7717726,311.5234375,-39.55078125,-26.85546875,971.19140625,0.0,-1.0,-1.0,0.0,2.m4v,7.0
2024-02-28 09:18:58.775685,1709108338.7756846,24.4140625,-40.0390625,-27.83203125,964.35546875,0.0,-1.0,-1.0,0.0,2.m4v,7.0
2024-02-28 09:18:58.775685,1709108338.7756846,24.4140625,-40.0390625,-27.83203125,964.35546875,0.0,-1.0,-1.0,0.0,2.m4v,7.0
2024-02-28 09:18:59.478782,1709108339.4787822,-690.91796875,-42.48046875,-28.80859375,-961.42578125,0.0,-1.0,-1.0,0.0,2.m4v,7.0
2024-02-28 09:18:59.482688,1709108339.482688,-238.28125,-34.66796875,-38.57421875,-1000.0,0.0,-1.0,-1.0,0.0,2.m4v,7.0
2024-02-28 09:18:59.486593,1709108339.4865935,-101.07421875,-34.66796875,-39.0625,-969.23828125,0.0,-1.0,-1.0,0.0,2.m4v,7.0
2024-02-28 09:18:59.490499,1709108339.490499,-258.30078125,-41.015625,-28.80859375,-1000.0,0.0,-1.0,-1.0,0.0,2.m4v,7.0
2024-02-28 09:18:59.494405,1709108339.4944046,-306.640625,-31.25,-33.203125,-981.4453125,0.0,-1.0,-1.0,0.0,2.m4v,7.0
2024-02-28 09:18:59.498310,1709108339.49831,466.30859375,-23.92578125,-37.109375,245.1171875,0.0,-1.0,-1.0,0.0,2.m4v,7.0
2024-02-28 09:18:59.502216,1709108339.502216,999.51171875,-34.66796875,-39.55078125,999.51171875,0.0,-1.0,-1.0,0.0,2.m4v,7.0
2024-02-28 09:18:59.506121,1709108339.5061214,871.58203125,-39.0625,-29.296875,917.96875,0.0,-1.0,-1.0,0.0,2.m4v,7.0
2024-02-28 09:18:59.510027,1709108339.510027,474.609375,-36.1328125,-20.5078125,967.7734375,0.0,-1.0,-1.0,0.0,2.m4v,7.0
2024-02-28 09:18:59.513932,1709108339.5139325,118.1640625,-33.203125,-28.80859375,975.09765625,0.0,-1.0,-1.0,0.0,2.m4v,7.0
2024-02-28 09:18:59.517838,1709108339.517838,118.1640625,-36.1328125,-37.109375,951.66015625,0.0,-1.0,-1.0,0.0,2.m4v,7.0
2024-02-28 09:18:59.521744,1709108339.5217438,187.98828125,-39.55078125,-41.015625,945.80078125,0.0,-1.0,-1.0,0.0,2.m4v,7.0
2024-02-28 09:18:59.525656,1709108339.5256555,215.8203125,-41.9921875,-51.7578125,999.51171875,0.0,-1.0,-1.0,0.0,2.m4v,7.0
2024-02-28 09:18:59.529561,1709108339.5295613,-441.89453125,-31.25,-57.12890625,-88.37890625,0.0,-1.0,-1.0,0.0,2.m4v,7.0
2024-02-28 09:18:59.533467,1709108339.5334668,-1000.0,-20.99609375,-43.9453125,-1000.0,0.0,-1.0,-1.0,0.0,2.m4v,7.0
2024-02-28 09:18:59.537372,1709108339.5373724,-895.01953125,-33.203125,-30.2734375,-962.890625,0.0,-1.0,-1.0,0.0,2.m4v,7.0
2024-02-28 09:18:59.541278,1709108339.541278,-492.67578125,-43.45703125,-30.76171875,-988.28125,0.0,-1.0,-1.0,0.0,2.m4v,7.0
2024-02-28 09:18:59.545183,1709108339.5451834,-156.25,-38.57421875,-31.25,-1000.0,0.0,-1.0,-1.0,0.0,2.m4v,7.0
2024-02-28 09:18:59.549089,1709108339.5490892,-165.52734375,-43.9453125,-20.99609375,-936.5234375,0.0,-1.0,-1.0,0.0,2.m4v,7.0
2024-02-28 09:18:59.552995,1709108339.5529947,-419.43359375,-53.22265625,-19.04296875,-1000.0,0.0,-1.0,-1.0,0.0,2.m4v,7.0
2024-02-28 09:18:59.556900,1709108339.5569005,152.34375,-47.8515625,-30.2734375,-264.6484375,0.0,-1.0,-1.0,0.0,2.m4v,7.0
2024-02-28 09:18:59.560806,1709108339.5608058,983.88671875,-39.55078125,-33.203125,999.51171875,0.0,-1.0,-1.0,0.0,2.m4v,7.0
2024-02-28 09:18:59.564711,1709108339.564711,973.6328125,-41.50390625,-46.38671875,962.40234375,0.0,-1.0,-1.0,0.0,2.m4v,7.0
2024-02-28 09:18:59.568617,1709108339.568617,649.90234375,-42.96875,-42.96875,938.4765625,0.0,-1.0,-1.0,0.0,2.m4v,7.0
2024-02-28 09:18:59.572529,1709108339.5725286,154.78515625,-34.1796875,-39.0625,979.00390625,0.0,-1.0,-1.0,0.0,2.m4v,7.0
2024-02-28 09:18:59.576434,1709108339.576434,61.5234375,-31.25,-39.0625,966.30859375,0.0,-1.0,-1.0,0.0,2.m4v,7.0
2024-02-28 09:18:59.580340,1709108339.58034,132.8125,-36.1328125,-41.015625,914.55078125,0.0,-1.0,-1.0,0.0,2.m4v,7.0
2024-02-28 09:18:59.584245,1709108339.5842454,233.88671875,-35.15625,-41.9921875,999.51171875,0.0,-1.0,-1.0,0.0,2.m4v,7.0
2024-02-28 09:18:59.588151,1709108339.588151,-312.5,-35.15625,-29.296875,126.953125,0.0,-1.0,-1.0,0.0,2.m4v,7.0
2024-02-28 09:18:59.592057,1709108339.5920565,-1000.0,-39.55078125,-31.73828125,-1000.0,0.0,-1.0,-1.0,0.0,2.m4v,7.0
2024-02-28 09:18:59.595962,1709108339.595962,-971.19140625,-48.33984375,-38.0859375,-977.5390625,0.0,-1.0,-1.0,0.0,2.m4v,7.0
2024-02-28 09:18:59.599868,1709108339.5998678,-624.0234375,-43.45703125,-27.34375,-977.05078125,0.0,-1.0,-1.0,0.0,2.m4v,7.0
2024-02-28 09:18:59.603773,1709108339.6037734,-225.09765625,-38.57421875,-25.87890625,-1000.0,0.0,-1.0,-1.0,0.0,2.m4v,7.0
2024-02-28 09:18:59.607679,1709108339.607679,-166.015625,-47.36328125,-38.0859375,-966.796875,0.0,-1.0,-1.0,0.0,2.m4v,7.0
2024-02-28 09:18:59.611584,1709108339.6115844,-350.5859375,-46.875,-41.015625,-1000.0,0.0,-1.0,-1.0,0.0,2.m4v,7.0
2024-02-28 09:18:59.615490,1709108339.61549,-305.6640625,-34.1796875,-42.48046875,-938.4765625,0.0,-1.0,-1.0,0.0,2.m4v,7.0
2024-02-28 09:18:59.619401,1709108339.6194012,510.7421875,-17.08984375,-31.73828125,289.0625,0.0,-1.0,-1.0,0.0,2.m4v,7.0
2024-02-28 09:18:59.623307,1709108339.6233068,999.51171875,-18.5546875,-18.5546875,999.51171875,0.0,-1.0,-1.0,0.0,2.m4v,7.0
2024-02-28 09:18:59.627213,1709108339.6272123,835.9375,-30.76171875,-31.73828125,920.41015625,0.0,-1.0,-1.0,0.0,2.m4v,7.0
2024-02-28 09:18:59.631118,1709108339.631118,375.9765625,-32.71484375,-43.45703125,967.7734375,0.0,-1.0,-1.0,0.0,2.m4v,7.0
2024-02-28 09:18:59.635024,1709108339.6350236,97.16796875,-29.296875,-25.390625,981.4453125,0.0,-1.0,-1.0,0.0,2.m4v,7.0
2024-02-28 09:18:59.638929,1709108339.6389291,185.546875,-29.296875,-12.6953125,904.296875,0.0,-1.0,-1.0,0.0,2.m4v,7.0
2024-02-28 09:18:59.642835,1709108339.642835,353.02734375,-35.15625,-31.25,999.51171875,0.0,-1.0,-1.0,0.0,2.m4v,7.0
2024-02-28 09:18:59.646740,1709108339.6467404,-62.98828125,-39.0625,-41.015625,505.859375,0.0,-1.0,-1.0,0.0,2.m4v,7.0
2024-02-28 09:18:59.650646,1709108339.650646,-894.53125,-40.0390625,-27.34375,-872.0703125,0.0,-1.0,-1.0,0.0,2.m4v,7.0
2024-02-28 09:18:59.654552,1709108339.6545515,-1000.0,-43.45703125,-28.80859375,-1000.0,0.0,-1.0,-1.0,0.0,2.m4v,7.0
2024-02-28 09:18:59.658457,1709108339.658457,-777.34375,-46.875,-45.8984375,-950.68359375,0.0,-1.0,-1.0,0.0,2.m4v,7.0
2024-02-28 09:18:59.662363,1709108339.6623626,-357.421875,-39.55078125,-47.36328125,-1000.0,0.0,-1.0,-1.0,0.0,2.m4v,7.0
2024-02-28 09:18:59.666273,1709108339.6662734,-176.26953125,-26.3671875,-34.1796875,-981.93359375,0.0,-1.0,-1.0,0.0,2.m4v,7.0
2024-02-28 09:18:59.670179,1709108339.6701791,-247.55859375,-23.92578125,-21.97265625,-975.5859375,0.0,-1.0,-1.0,0.0,2.m4v,7.0
2024-02-28 09:18:59.674085,1709108339.674085,-322.75390625,-30.76171875,-29.296875,-1000.0,0.0,-1.0,-1.0,0.0,2.m4v,7.0
2024-02-28 09:18:59.677990,1709108339.6779902,383.30078125,-32.2265625,-33.69140625,55.17578125,0.0,-1.0,-1.0,0.0,2.m4v,7.0
2024-02-28 09:18:59.681896,1709108339.6818955,999.51171875,-34.1796875,-35.15625,999.51171875,0.0,-1.0,-1.0,0.0,2.m4v,7.0
2024-02-28 09:18:59.685801,1709108339.6858013,928.7109375,-36.62109375,-35.15625,932.12890625,0.0,-1.0,-1.0,0.0,2.m4v,7.0
2024-02-28 09:18:59.689707,1709108339.689707,540.52734375,-42.48046875,-42.48046875,957.51953125,0.0,-1.0,-1.0,0.0,2.m4v,7.0
2024-02-28 09:18:59.693613,1709108339.6936126,54.6875,-48.33984375,-49.8046875,978.515625,0.0,-1.0,-1.0,0.0,2.m4v,7.0
2024-02-28 09:18:59.697518,1709108339.697518,50.78125,-40.52734375,-34.66796875,945.3125,0.0,-1.0,-1.0,0.0,2.m4v,7.0
2024-02-28 09:18:59.701424,1709108339.7014236,224.12109375,-35.15625,-20.99609375,958.984375,0.0,-1.0,-1.0,0.0,2.m4v,7.0
2024-02-28 09:18:59.705329,1709108339.7053292,227.5390625,-43.9453125,-19.04296875,977.5390625,0.0,-1.0,-1.0,0.0,2.m4v,7.0
2024-02-28 09:18:59.709235,1709108339.709235,-482.421875,-52.734375,-33.69140625,-176.7578125,0.0,-1.0,-1.0,0.0,2.m4v,7.0
2024-02-28 09:18:59.713145,1709108339.7131455,-1000.0,-41.015625,-35.64453125,-1000.0,0.0,-1.0,-1.0,0.0,2.m4v,7.0
2024-02-28 09:18:59.717051,1709108339.717051,-886.23046875,-31.25,-35.64453125,-957.51953125,0.0,-1.0,-1.0,0.0,2.m4v,7.0
2024-02-28 09:18:59.720957,1709108339.7209568,-460.44921875,-34.1796875,-56.640625,-992.1875,0.0,-1.0,-1.0,0.0,2.m4v,7.0
2024-02-28 09:18:59.724862,1709108339.7248623,-135.7421875,-36.62109375,-51.7578125,-1000.0,0.0,-1.0,-1.0,0.0,2.m4v,7.0
2024-02-28 09:18:59.728768,1709108339.728768,-162.59765625,-38.57421875,-39.55078125,-933.59375,0.0,-1.0,-1.0,0.0,2.m4v,7.0
2024-02-28 09:18:59.732673,1709108339.7326734,-357.421875,-38.0859375,-46.38671875,-1000.0,0.0,-1.0,-1.0,0.0,2.m4v,7.0
2024-02-28 09:18:59.736579,1709108339.736579,117.1875,-37.59765625,-47.8515625,-461.9140625,0.0,-1.0,-1.0,0.0,2.m4v,7.0
2024-02-28 09:18:59.740485,1709108339.7404847,911.1328125,-31.25,-32.2265625,898.4375,0.0,-1.0,-1.0,0.0,2.m4v,7.0
2024-02-28 09:18:59.744390,1709108339.7443902,999.51171875,-34.1796875,-21.484375,999.0234375,0.0,-1.0,-1.0,0.0,2.m4v,7.0
2024-02-28 09:18:59.748296,1709108339.7482958,752.9296875,-38.0859375,-21.484375,924.8046875,0.0,-1.0,-1.0,0.0,2.m4v,7.0
2024-02-28 09:18:59.752201,1709108339.7522013,226.5625,-37.109375,-34.1796875,987.79296875,0.0,-1.0,-1.0,0.0,2.m4v,7.0
2024-02-28 09:18:59.756107,1709108339.7561069,-3.41796875,-41.9921875,-46.875,902.83203125,0.0,-1.0,-1.0,0.0,2.m4v,7.0
2024-02-28 09:18:59.760017,1709108339.7600172,246.09375,-39.0625,-55.17578125,999.51171875,0.0,-1.0,-1.0,0.0,2.m4v,7.0
2024-02-28 09:18:59.763923,1709108339.763923,-87.890625,-37.59765625,-52.734375,346.19140625,0.0,-1.0,-1.0,0.0,2.m4v,7.0
2024-02-28 09:18:59.767828,1709108339.7678285,-915.0390625,-39.55078125,-40.0390625,-992.1875,0.0,-1.0,-1.0,0.0,2.m4v,7.0
2024-02-28 09:18:59.771734,1709108339.771734,-1000.0,-38.0859375,-33.69140625,-1000.0,0.0,-1.0,-1.0,0.0,2.m4v,7.0
2024-02-28 09:18:59.775640,1709108339.7756395,-781.73828125,-33.69140625,-32.2265625,-960.44921875,0.0,-1.0,-1.0,0.0,2.m4v,7.0
2024-02-28 09:18:59.779545,1709108339.779545,-273.92578125,-31.73828125,-30.2734375,-1000.0,0.0,-1.0,-1.0,0.0,2.m4v,7.0
2024-02-28 09:18:59.783451,1709108339.7834508,-20.01953125,-35.15625,-37.109375,-1000.0,0.0,-1.0,-1.0,0.0,2.m4v,7.0
2024-02-28 09:18:59.787356,1709108339.7873564,-100.5859375,-29.78515625,-40.0390625,-972.65625,0.0,-1.0,-1.0,0.0,2.m4v,7.0
2024-02-28 09:18:59.791262,1709108339.791262,-282.71484375,-44.43359375,-33.203125,-998.046875,0.0,-1.0,-1.0,0.0,2.m4v,7.0
2024-02-28 09:18:59.795167,1709108339.7951674,-245.1171875,-56.640625,-39.0625,-979.4921875,0.0,-1.0,-1.0,0.0,2.m4v,7.0
2024-02-28 09:18:59.799073,1709108339.799073,499.51171875,-41.015625,-43.45703125,196.77734375,0.0,-1.0,-1.0,0.0,2.m4v,7.0
2024-02-28 09:18:59.802979,1709108339.8029788,999.51171875,-28.80859375,-39.55078125,999.51171875,0.0,-1.0,-1.0,0.0,2.m4v,7.0
2024-02-28 09:18:59.806891,1709108339.806891,874.0234375,-23.92578125,-32.2265625,925.78125,0.0,-1.0,-1.0,0.0,2.m4v,7.0
2024-02-28 09:18:59.810797,1709108339.8107967,424.31640625,-26.85546875,-30.2734375,963.8671875,0.0,-1.0,-1.0,0.0,2.m4v,7.0
2024-02-28 09:18:59.810797,1709108339.8107967,424.31640625,-26.85546875,-30.2734375,963.8671875,0.0,-1.0,-1.0,0.0,2.m4v,7.0
2024-02-28 09:18:59.814702,1709108339.8147025,41.50390625,-26.85546875,-45.8984375,973.14453125,0.0,-1.0,-1.0,0.0,2.m4v,7.0
2024-02-28 09:18:59.814702,1709108339.8147025,41.50390625,-26.85546875,-45.8984375,973.14453125,0.0,-1.0,-1.0,0.0,2.m4v,7.0
2024-02-28 09:18:59.818608,1709108339.8186078,60.05859375,-34.66796875,-51.26953125,972.65625,0.0,-1.0,-1.0,0.0,2.m4v,7.0
2024-02-28 09:18:59.818608,1709108339.8186078,60.05859375,-34.66796875,-51.26953125,972.65625,0.0,-1.0,-1.0,0.0,2.m4v,7.0
2024-02-28 09:18:59.822513,1709108339.822513,154.296875,-42.96875,-33.69140625,912.109375,0.0,-1.0,-1.0,0.0,2.m4v,7.0
2024-02-28 09:18:59.822513,1709108339.822513,154.296875,-42.96875,-33.69140625,912.109375,0.0,-1.0,-1.0,0.0,2.m4v,7.0
2024-02-28 09:18:59.826419,1709108339.8264189,211.9140625,-39.55078125,-34.1796875,999.51171875,0.0,-1.0,-1.0,0.0,2.m4v,7.0
2024-02-28 09:18:59.826419,1709108339.8264189,211.9140625,-39.55078125,-34.1796875,999.51171875,0.0,-1.0,-1.0,0.0,2.m4v,7.0
2024-02-28 09:18:59.830325,1709108339.8303246,-345.703125,-36.62109375,-35.64453125,310.546875,0.0,-1.0,-1.0,0.0,2.m4v,7.0
2024-02-28 09:18:59.830325,1709108339.8303246,-345.703125,-36.62109375,-35.64453125,310.546875,0.0,-1.0,-1.0,0.0,2.m4v,7.0
2024-02-28 09:18:59.834230,1709108339.8342302,-1000.0,-40.52734375,-29.78515625,-973.6328125,0.0,-1.0,-1.0,0.0,2.m4v,7.0
2024-02-28 09:18:59.834230,1709108339.8342302,-1000.0,-40.52734375,-29.78515625,-973.6328125,0.0,-1.0,-1.0,0.0,2.m4v,7.0
2024-02-28 09:18:59.838136,1709108339.8381355,-978.515625,-44.921875,-28.3203125,-1000.0,0.0,-1.0,-1.0,0.0,2.m4v,7.0
2024-02-28 09:18:59.838136,1709108339.8381355,-978.515625,-44.921875,-28.3203125,-1000.0,0.0,-1.0,-1.0,0.0,2.m4v,7.0
2024-02-28 09:18:59.842041,1709108339.8420413,-622.0703125,-36.62109375,-31.73828125,-963.8671875,0.0,-1.0,-1.0,0.0,2.m4v,7.0
2024-02-28 09:18:59.842041,1709108339.8420413,-622.0703125,-36.62109375,-31.73828125,-963.8671875,0.0,-1.0,-1.0,0.0,2.m4v,7.0
2024-02-28 09:18:59.845947,1709108339.8459468,-254.39453125,-41.9921875,-33.203125,-1000.0,0.0,-1.0,-1.0,0.0,2.m4v,7.0
2024-02-28 09:18:59.845947,1709108339.8459468,-254.39453125,-41.9921875,-33.203125,-1000.0,0.0,-1.0,-1.0,0.0,2.m4v,7.0
2024-02-28 09:18:59.849853,1709108339.8498526,-239.2578125,-48.33984375,-28.3203125,-948.2421875,0.0,-1.0,-1.0,0.0,2.m4v,7.0
2024-02-28 09:18:59.849853,1709108339.8498526,-239.2578125,-48.33984375,-28.3203125,-948.2421875,0.0,-1.0,-1.0,0.0,2.m4v,7.0
2024-02-28 09:18:59.853765,1709108339.8537648,-400.87890625,-33.203125,-34.66796875,-1000.0,0.0,-1.0,-1.0,0.0,2.m4v,7.0
2024-02-28 09:18:59.853765,1709108339.8537648,-400.87890625,-33.203125,-34.66796875,-1000.0,0.0,-1.0,-1.0,0.0,2.m4v,7.0
2024-02-28 09:18:59.857671,1709108339.8576703,264.16015625,-17.578125,-48.828125,-128.90625,0.0,-1.0,-1.0,0.0,2.m4v,7.0
2024-02-28 09:18:59.857671,1709108339.8576703,264.16015625,-17.578125,-48.828125,-128.90625,0.0,-1.0,-1.0,0.0,2.m4v,7.0
2024-02-28 09:18:59.861576,1709108339.861576,999.51171875,-22.94921875,-55.6640625,999.51171875,0.0,-1.0,-1.0,0.0,2.m4v,7.0
2024-02-28 09:18:59.861576,1709108339.861576,999.51171875,-22.94921875,-55.6640625,999.51171875,0.0,-1.0,-1.0,0.0,2.m4v,7.0
2024-02-28 09:18:59.865482,1709108339.8654816,943.84765625,-30.2734375,-38.0859375,943.84765625,0.0,-1.0,-1.0,0.0,2.m4v,7.0
2024-02-28 09:18:59.865482,1709108339.8654816,943.84765625,-30.2734375,-38.0859375,943.84765625,0.0,-1.0,-1.0,0.0,2.m4v,7.0
2024-02-28 09:18:59.869387,1709108339.8693871,545.41015625,-40.0390625,-28.3203125,948.73046875,0.0,-1.0,-1.0,0.0,2.m4v,7.0
2024-02-28 09:18:59.869387,1709108339.8693871,545.41015625,-40.0390625,-28.3203125,948.73046875,0.0,-1.0,-1.0,0.0,2.m4v,7.0
2024-02-28 09:18:59.873293,1709108339.8732927,118.65234375,-39.55078125,-26.3671875,976.07421875,0.0,-1.0,-1.0,0.0,2.m4v,7.0
2024-02-28 09:18:59.873293,1709108339.8732927,118.65234375,-39.55078125,-26.3671875,976.07421875,0.0,-1.0,-1.0,0.0,2.m4v,7.0
2024-02-28 09:18:59.877198,1709108339.8771985,140.625,-29.78515625,-28.80859375,970.703125,0.0,-1.0,-1.0,0.0,2.m4v,7.0
2024-02-28 09:18:59.877198,1709108339.8771985,140.625,-29.78515625,-28.80859375,970.703125,0.0,-1.0,-1.0,0.0,2.m4v,7.0
2024-02-28 09:18:59.881104,1709108339.881104,195.3125,-41.015625,-29.78515625,909.66796875,0.0,-1.0,-1.0,0.0,2.m4v,7.0
2024-02-28 09:18:59.881104,1709108339.881104,195.3125,-41.015625,-29.78515625,909.66796875,0.0,-1.0,-1.0,0.0,2.m4v,7.0
2024-02-28 09:18:59.885010,1709108339.8850095,255.859375,-41.50390625,-26.3671875,999.51171875,0.0,-1.0,-1.0,0.0,2.m4v,7.0
2024-02-28 09:18:59.885010,1709108339.8850095,255.859375,-41.50390625,-26.3671875,999.51171875,0.0,-1.0,-1.0,0.0,2.m4v,7.0
2024-02-28 09:18:59.888915,1709108339.888915,-311.5234375,-29.78515625,-26.85546875,210.9375,0.0,-1.0,-1.0,0.0,2.m4v,7.0
2024-02-28 09:18:59.888915,1709108339.888915,-311.5234375,-29.78515625,-26.85546875,210.9375,0.0,-1.0,-1.0,0.0,2.m4v,7.0
2024-02-28 09:18:59.892821,1709108339.8928206,-1000.0,-38.0859375,-36.1328125,-1000.0,0.0,-1.0,-1.0,0.0,2.m4v,7.0
2024-02-28 09:18:59.892821,1709108339.8928206,-1000.0,-38.0859375,-36.1328125,-1000.0,0.0,-1.0,-1.0,0.0,2.m4v,7.0
2024-02-28 09:18:59.896726,1709108339.8967264,-956.0546875,-29.296875,-40.0390625,-991.2109375,0.0,-1.0,-1.0,0.0,2.m4v,7.0
2024-02-28 09:18:59.896726,1709108339.8967264,-956.0546875,-29.296875,-40.0390625,-991.2109375,0.0,-1.0,-1.0,0.0,2.m4v,7.0
2024-02-28 09:18:59.900638,1709108339.9006383,-624.51171875,-26.3671875,-44.43359375,-970.703125,0.0,-1.0,-1.0,0.0,2.m4v,7.0
2024-02-28 09:18:59.900638,1709108339.9006383,-624.51171875,-26.3671875,-44.43359375,-970.703125,0.0,-1.0,-1.0,0.0,2.m4v,7.0
2024-02-28 09:18:59.904544,1709108339.904544,-254.39453125,-31.73828125,-47.8515625,-1000.0,0.0,-1.0,-1.0,0.0,2.m4v,7.0
2024-02-28 09:18:59.904544,1709108339.904544,-254.39453125,-31.73828125,-47.8515625,-1000.0,0.0,-1.0,-1.0,0.0,2.m4v,7.0
2024-02-28 09:18:59.908449,1709108339.9084494,-171.875,-26.85546875,-56.15234375,-931.640625,0.0,-1.0,-1.0,0.0,2.m4v,7.0
2024-02-28 09:18:59.908449,1709108339.9084494,-171.875,-26.85546875,-56.15234375,-931.640625,0.0,-1.0,-1.0,0.0,2.m4v,7.0
2024-02-28 09:18:59.912355,1709108339.912355,-418.9453125,-33.69140625,-62.98828125,-1000.0,0.0,-1.0,-1.0,0.0,2.m4v,7.0
2024-02-28 09:18:59.912355,1709108339.912355,-418.9453125,-33.69140625,-62.98828125,-1000.0,0.0,-1.0,-1.0,0.0,2.m4v,7.0
2024-02-28 09:18:59.916260,1709108339.9162605,45.8984375,-43.9453125,-43.45703125,-428.7109375,0.0,-1.0,-1.0,0.0,2.m4v,7.0
2024-02-28 09:18:59.916260,1709108339.9162605,45.8984375,-43.9453125,-43.45703125,-428.7109375,0.0,-1.0,-1.0,0.0,2.m4v,7.0
2024-02-28 09:18:59.920166,1709108339.9201665,916.9921875,-45.41015625,-26.85546875,933.10546875,0.0,-1.0,-1.0,0.0,2.m4v,7.0
2024-02-28 09:18:59.920166,1709108339.9201665,916.9921875,-45.41015625,-26.85546875,933.10546875,0.0,-1.0,-1.0,0.0,2.m4v,7.0
2024-02-28 09:18:59.924072,1709108339.9240718,999.51171875,-42.96875,-36.62109375,992.1875,0.0,-1.0,-1.0,0.0,2.m4v,7.0
2024-02-28 09:18:59.924072,1709108339.9240718,999.51171875,-42.96875,-36.62109375,992.1875,0.0,-1.0,-1.0,0.0,2.m4v,7.0
2024-02-28 09:18:59.927977,1709108339.927977,730.95703125,-44.921875,-31.25,926.26953125,0.0,-1.0,-1.0,0.0,2.m4v,7.0
2024-02-28 09:18:59.927977,1709108339.927977,730.95703125,-44.921875,-31.25,926.26953125,0.0,-1.0,-1.0,0.0,2.m4v,7.0
2024-02-28 09:18:59.931883,1709108339.9318829,200.1953125,-41.50390625,-32.2265625,981.4453125,0.0,-1.0,-1.0,0.0,2.m4v,7.0
2024-02-28 09:18:59.931883,1709108339.9318829,200.1953125,-41.50390625,-32.2265625,981.4453125,0.0,-1.0,-1.0,0.0,2.m4v,7.0
2024-02-28 09:18:59.935788,1709108339.9357884,36.62109375,-30.2734375,-35.64453125,978.515625,0.0,-1.0,-1.0,0.0,2.m4v,7.0
2024-02-28 09:18:59.935788,1709108339.9357884,36.62109375,-30.2734375,-35.64453125,978.515625,0.0,-1.0,-1.0,0.0,2.m4v,7.0
2024-02-28 09:18:59.939694,1709108339.9396942,163.57421875,-38.57421875,-35.64453125,902.34375,0.0,-1.0,-1.0,0.0,2.m4v,7.0
2024-02-28 09:18:59.939694,1709108339.9396942,163.57421875,-38.57421875,-35.64453125,902.34375,0.0,-1.0,-1.0,0.0,2.m4v,7.0
2024-02-28 09:18:59.943600,1709108339.9435997,304.6875,-46.38671875,-41.015625,999.51171875,0.0,-1.0,-1.0,0.0,2.m4v,7.0
2024-02-28 09:18:59.943600,1709108339.9435997,304.6875,-46.38671875,-41.015625,999.51171875,0.0,-1.0,-1.0,0.0,2.m4v,7.0
2024-02-28 09:18:59.947511,1709108339.9475114,-136.23046875,-33.203125,-41.9921875,411.1328125,0.0,-1.0,-1.0,0.0,2.m4v,7.0
2024-02-28 09:18:59.947511,1709108339.9475114,-136.23046875,-33.203125,-41.9921875,411.1328125,0.0,-1.0,-1.0,0.0,2.m4v,7.0
2024-02-28 09:18:59.951417,1709108339.951417,-951.171875,-31.73828125,-45.8984375,-949.21875,0.0,-1.0,-1.0,0.0,2.m4v,7.0
2024-02-28 09:18:59.951417,1709108339.951417,-951.171875,-31.73828125,-45.8984375,-949.21875,0.0,-1.0,-1.0,0.0,2.m4v,7.0
2024-02-28 09:18:59.955323,1709108339.9553225,-1000.0,-40.52734375,-47.36328125,-1000.0,0.0,-1.0,-1.0,0.0,2.m4v,7.0
2024-02-28 09:18:59.955323,1709108339.9553225,-1000.0,-40.52734375,-47.36328125,-1000.0,0.0,-1.0,-1.0,0.0,2.m4v,7.0
2024-02-28 09:18:59.959228,1709108339.9592285,-701.171875,-45.8984375,-47.36328125,-956.0546875,0.0,-1.0,-1.0,0.0,2.m4v,7.0
2024-02-28 09:18:59.959228,1709108339.9592285,-701.171875,-45.8984375,-47.36328125,-956.0546875,0.0,-1.0,-1.0,0.0,2.m4v,7.0
2024-02-28 09:18:59.963134,1709108339.9631338,-297.36328125,-44.43359375,-48.828125,-1000.0,0.0,-1.0,-1.0,0.0,2.m4v,7.0
2024-02-28 09:18:59.963134,1709108339.9631338,-297.36328125,-44.43359375,-48.828125,-1000.0,0.0,-1.0,-1.0,0.0,2.m4v,7.0
2024-02-28 09:18:59.967039,1709108339.967039,-134.27734375,-46.38671875,-43.45703125,-978.515625,0.0,-1.0,-1.0,0.0,2.m4v,7.0
2024-02-28 09:18:59.967039,1709108339.967039,-134.27734375,-46.38671875,-43.45703125,-978.515625,0.0,-1.0,-1.0,0.0,2.m4v,7.0
2024-02-28 09:18:59.970945,1709108339.970945,-222.16796875,-58.59375,-35.64453125,-984.375,0.0,-1.0,-1.0,0.0,2.m4v,7.0
2024-02-28 09:18:59.970945,1709108339.970945,-222.16796875,-58.59375,-35.64453125,-984.375,0.0,-1.0,-1.0,0.0,2.m4v,7.0
2024-02-28 09:18:59.974850,1709108339.9748504,-340.33203125,-48.828125,-41.9921875,-1000.0,0.0,-1.0,-1.0,0.0,2.m4v,7.0
2024-02-28 09:18:59.974850,1709108339.9748504,-340.33203125,-48.828125,-41.9921875,-1000.0,0.0,-1.0,-1.0,0.0,2.m4v,7.0
2024-02-28 09:18:59.978756,1709108339.9787562,377.44140625,-42.48046875,-41.9921875,109.86328125,0.0,-1.0,-1.0,0.0,2.m4v,7.0
2024-02-28 09:18:59.978756,1709108339.9787562,377.44140625,-42.48046875,-41.9921875,109.86328125,0.0,-1.0,-1.0,0.0,2.m4v,7.0
2024-02-28 09:18:59.982662,1709108339.9826615,999.51171875,-56.640625,-40.52734375,999.51171875,0.0,-1.0,-1.0,0.0,2.m4v,7.0
2024-02-28 09:18:59.982662,1709108339.9826615,999.51171875,-56.640625,-40.52734375,999.51171875,0.0,-1.0,-1.0,0.0,2.m4v,7.0
2024-02-28 09:18:59.986567,1709108339.9865673,850.09765625,-54.19921875,-44.921875,929.6875,0.0,-1.0,-1.0,0.0,2.m4v,7.0
2024-02-28 09:18:59.986567,1709108339.9865673,850.09765625,-54.19921875,-44.921875,929.6875,0.0,-1.0,-1.0,0.0,2.m4v,7.0
2024-02-28 09:18:59.990473,1709108339.9904728,405.2734375,-41.9921875,-39.55078125,959.9609375,0.0,-1.0,-1.0,0.0,2.m4v,7.0
2024-02-28 09:18:59.990473,1709108339.9904728,405.2734375,-41.9921875,-39.55078125,959.9609375,0.0,-1.0,-1.0,0.0,2.m4v,7.0
2024-02-28 09:18:59.994384,1709108339.994384,104.4921875,-35.64453125,-34.1796875,982.421875,0.0,-1.0,-1.0,0.0,2.m4v,7.0
2024-02-28 09:18:59.994384,1709108339.994384,104.4921875,-35.64453125,-34.1796875,982.421875,0.0,-1.0,-1.0,0.0,2.m4v,7.0
2024-02-28 09:18:59.998290,1709108339.9982896,129.8828125,-37.59765625,-41.015625,921.38671875,0.0,-1.0,-1.0,0.0,2.m4v,7.0
2024-02-28 09:18:59.998290,1709108339.9982896,129.8828125,-37.59765625,-41.015625,921.38671875,0.0,-1.0,-1.0,0.0,2.m4v,7.0
2024-02-28 09:19:00.002195,1709108340.0021954,265.13671875,-39.55078125,-37.109375,999.51171875,0.0,-1.0,-1.0,0.0,2.m4v,7.0
2024-02-28 09:19:00.002195,1709108340.0021954,265.13671875,-39.55078125,-37.109375,999.51171875,0.0,-1.0,-1.0,0.0,2.m4v,7.0
2024-02-28 09:19:00.006101,1709108340.006101,99.609375,-37.109375,-41.50390625,773.92578125,0.0,-1.0,-1.0,0.0,2.m4v,7.0
2024-02-28 09:19:00.006101,1709108340.006101,99.609375,-37.109375,-41.50390625,773.92578125,0.0,-1.0,-1.0,0.0,2.m4v,7.0
2024-02-28 09:19:00.010006,1709108340.0100064,-702.1484375,-47.8515625,-47.36328125,-554.6875,0.0,-1.0,-1.0,0.0,2.m4v,7.0
2024-02-28 09:19:00.010006,1709108340.0100064,-702.1484375,-47.8515625,-47.36328125,-554.6875,0.0,-1.0,-1.0,0.0,2.m4v,7.0
2024-02-28 09:19:00.013912,1709108340.013912,-1000.0,-44.43359375,-40.52734375,-1000.0,0.0,-1.0,-1.0,0.0,2.m4v,7.0
2024-02-28 09:19:00.013912,1709108340.013912,-1000.0,-44.43359375,-40.52734375,-1000.0,0.0,-1.0,-1.0,0.0,2.m4v,7.0
2024-02-28 09:19:00.017817,1709108340.0178175,-803.22265625,-32.2265625,-37.59765625,-943.84765625,0.0,-1.0,-1.0,0.0,2.m4v,7.0
2024-02-28 09:19:00.017817,1709108340.0178175,-803.22265625,-32.2265625,-37.59765625,-943.84765625,0.0,-1.0,-1.0,0.0,2.m4v,7.0
2024-02-28 09:19:00.021723,1709108340.0217233,-404.78515625,-41.50390625,-35.64453125,-1000.0,0.0,-1.0,-1.0,0.0,2.m4v,7.0
2024-02-28 09:19:00.021723,1709108340.0217233,-404.78515625,-41.50390625,-35.64453125,-1000.0,0.0,-1.0,-1.0,0.0,2.m4v,7.0
2024-02-28 09:19:00.025629,1709108340.0256288,-212.890625,-46.875,-39.55078125,-1000.0,0.0,-1.0,-1.0,0.0,2.m4v,7.0
2024-02-28 09:19:00.025629,1709108340.0256288,-212.890625,-46.875,-39.55078125,-1000.0,0.0,-1.0,-1.0,0.0,2.m4v,7.0
2024-02-28 09:19:00.029534,1709108340.0295343,-242.1875,-46.875,-43.45703125,-955.56640625,0.0,-1.0,-1.0,0.0,2.m4v,7.0
2024-02-28 09:19:00.029534,1709108340.0295343,-242.1875,-46.875,-43.45703125,-955.56640625,0.0,-1.0,-1.0,0.0,2.m4v,7.0
2024-02-28 09:19:00.033440,1709108340.03344,-364.74609375,-41.50390625,-46.875,-1000.0,0.0,-1.0,-1.0,0.0,2.m4v,7.0
2024-02-28 09:19:00.033440,1709108340.03344,-364.74609375,-41.50390625,-46.875,-1000.0,0.0,-1.0,-1.0,0.0,2.m4v,7.0
2024-02-28 09:19:00.037346,1709108340.0373456,-134.765625,-32.71484375,-41.9921875,-810.546875,0.0,-1.0,-1.0,0.0,2.m4v,7.0
2024-02-28 09:19:00.037346,1709108340.0373456,-134.765625,-32.71484375,-41.9921875,-810.546875,0.0,-1.0,-1.0,0.0,2.m4v,7.0
2024-02-28 09:19:00.041256,1709108340.0412564,684.5703125,-41.9921875,-20.99609375,487.3046875,0.0,-1.0,-1.0,0.0,2.m4v,7.0
2024-02-28 09:19:00.041256,1709108340.0412564,684.5703125,-41.9921875,-20.99609375,487.3046875,0.0,-1.0,-1.0,0.0,2.m4v,7.0
2024-02-28 09:19:00.045162,1709108340.045162,999.51171875,-42.48046875,-21.97265625,999.51171875,0.0,-1.0,-1.0,0.0,2.m4v,7.0
2024-02-28 09:19:00.045162,1709108340.045162,999.51171875,-42.48046875,-21.97265625,999.51171875,0.0,-1.0,-1.0,0.0,2.m4v,7.0
2024-02-28 09:19:00.049067,1709108340.0490675,754.8828125,-38.0859375,-38.0859375,916.9921875,0.0,-1.0,-1.0,0.0,2.m4v,7.0
2024-02-28 09:19:00.049067,1709108340.0490675,754.8828125,-38.0859375,-38.0859375,916.9921875,0.0,-1.0,-1.0,0.0,2.m4v,7.0
2024-02-28 09:19:00.052973,1709108340.052973,269.53125,-41.9921875,-33.203125,979.4921875,0.0,-1.0,-1.0,0.0,2.m4v,7.0
2024-02-28 09:19:00.052973,1709108340.052973,269.53125,-41.9921875,-33.203125,979.4921875,0.0,-1.0,-1.0,0.0,2.m4v,7.0
2024-02-28 09:19:00.056879,1709108340.0568786,120.60546875,-33.69140625,-30.2734375,948.73046875,0.0,-1.0,-1.0,0.0,2.m4v,7.0
2024-02-28 09:19:00.056879,1709108340.0568786,120.60546875,-33.69140625,-30.2734375,948.73046875,0.0,-1.0,-1.0,0.0,2.m4v,7.0
2024-02-28 09:19:00.060784,1709108340.0607843,243.1640625,-24.90234375,-36.1328125,953.125,0.0,-1.0,-1.0,0.0,2.m4v,7.0
2024-02-28 09:19:00.060784,1709108340.0607843,243.1640625,-24.90234375,-36.1328125,953.125,0.0,-1.0,-1.0,0.0,2.m4v,7.0
2024-02-28 09:19:00.701389,1709108340.7013888,-320.80078125,-36.62109375,-17.578125,-1000.0,0.0,-1.0,-1.0,0.0,2.m4v,7.0
2024-02-28 09:19:00.705294,1709108340.7052944,-70.80078125,-40.0390625,-23.4375,-989.74609375,0.0,-1.0,-1.0,0.0,2.m4v,7.0
2024-02-28 09:19:00.709200,1709108340.7092,-156.25,-35.64453125,-30.76171875,-958.49609375,0.0,-1.0,-1.0,0.0,2.m4v,7.0
2024-02-28 09:19:00.713106,1709108340.7131057,-335.9375,-36.62109375,-38.57421875,-1000.0,0.0,-1.0,-1.0,0.0,2.m4v,7.0
2024-02-28 09:19:00.717011,1709108340.7170112,313.96484375,-39.0625,-43.45703125,-49.8046875,0.0,-1.0,-1.0,0.0,2.m4v,7.0
2024-02-28 09:19:00.720917,1709108340.7209167,999.51171875,-40.0390625,-38.57421875,999.51171875,0.0,-1.0,-1.0,0.0,2.m4v,7.0
2024-02-28 09:19:00.724822,1709108340.7248223,912.59765625,-42.48046875,-41.50390625,936.03515625,0.0,-1.0,-1.0,0.0,2.m4v,7.0
2024-02-28 09:19:00.728728,1709108340.7287278,512.6953125,-30.76171875,-45.41015625,953.125,0.0,-1.0,-1.0,0.0,2.m4v,7.0
2024-02-28 09:19:00.732634,1709108340.7326336,57.6171875,-30.76171875,-44.43359375,980.46875,0.0,-1.0,-1.0,0.0,2.m4v,7.0
2024-02-28 09:19:00.736539,1709108340.7365391,26.85546875,-36.62109375,-33.69140625,937.98828125,0.0,-1.0,-1.0,0.0,2.m4v,7.0
2024-02-28 09:19:00.740445,1709108340.740445,201.171875,-34.1796875,-35.64453125,977.05078125,0.0,-1.0,-1.0,0.0,2.m4v,7.0
2024-02-28 09:19:00.744356,1709108340.744356,185.05859375,-35.15625,-43.9453125,919.43359375,0.0,-1.0,-1.0,0.0,2.m4v,7.0
2024-02-28 09:19:00.748261,1709108340.7482617,-531.25,-46.875,-35.15625,-292.96875,0.0,-1.0,-1.0,0.0,2.m4v,7.0
2024-02-28 09:19:00.752167,1709108340.752167,-1000.0,-47.36328125,-38.0859375,-1000.0,0.0,-1.0,-1.0,0.0,2.m4v,7.0
2024-02-28 09:19:00.756073,1709108340.7560723,-888.18359375,-40.0390625,-39.0625,-952.63671875,0.0,-1.0,-1.0,0.0,2.m4v,7.0
2024-02-28 09:19:00.759978,1709108340.7599783,-486.328125,-32.71484375,-33.69140625,-997.0703125,0.0,-1.0,-1.0,0.0,2.m4v,7.0
2024-02-28 09:19:00.763884,1709108340.7638838,-108.3984375,-28.3203125,-28.80859375,-1000.0,0.0,-1.0,-1.0,0.0,2.m4v,7.0
2024-02-28 09:19:00.767789,1709108340.7677894,-63.96484375,-29.296875,-26.85546875,-936.5234375,0.0,-1.0,-1.0,0.0,2.m4v,7.0
2024-02-28 09:19:00.771695,1709108340.771695,-408.69140625,-42.48046875,-33.203125,-1000.0,0.0,-1.0,-1.0,0.0,2.m4v,7.0
2024-02-28 09:19:00.775600,1709108340.7756004,-179.19921875,-58.10546875,-37.59765625,-581.54296875,0.0,-1.0,-1.0,0.0,2.m4v,7.0
2024-02-28 09:19:00.779506,1709108340.7795062,776.85546875,-42.48046875,-41.50390625,797.36328125,0.0,-1.0,-1.0,0.0,2.m4v,7.0
2024-02-28 09:19:00.783412,1709108340.7834115,999.51171875,-31.73828125,-47.36328125,999.51171875,0.0,-1.0,-1.0,0.0,2.m4v,7.0
2024-02-28 09:19:00.787317,1709108340.7873173,743.1640625,-37.109375,-53.22265625,917.96875,0.0,-1.0,-1.0,0.0,2.m4v,7.0
2024-02-28 09:19:00.791228,1709108340.7912278,205.078125,-43.9453125,-47.8515625,981.93359375,0.0,-1.0,-1.0,0.0,2.m4v,7.0
2024-02-28 09:19:00.795133,1709108340.7951334,-13.671875,-38.57421875,-37.109375,975.5859375,0.0,-1.0,-1.0,0.0,2.m4v,7.0
2024-02-28 09:19:00.799039,1709108340.7990391,97.16796875,-32.2265625,-36.1328125,904.78515625,0.0,-1.0,-1.0,0.0,2.m4v,7.0
2024-02-28 09:19:00.802945,1709108340.802945,264.16015625,-28.80859375,-43.45703125,999.51171875,0.0,-1.0,-1.0,0.0,2.m4v,7.0
2024-02-28 09:19:00.806850,1709108340.8068502,-203.61328125,-32.71484375,-49.31640625,339.35546875,0.0,-1.0,-1.0,0.0,2.m4v,7.0
2024-02-28 09:19:00.810756,1709108340.8107555,-977.05078125,-50.78125,-43.9453125,-987.79296875,0.0,-1.0,-1.0,0.0,2.m4v,7.0
2024-02-28 09:19:00.814661,1709108340.8146613,-1000.0,-49.8046875,-43.45703125,-1000.0,0.0,-1.0,-1.0,0.0,2.m4v,7.0
2024-02-28 09:19:00.818567,1709108340.818567,-741.2109375,-45.41015625,-58.10546875,-960.9375,0.0,-1.0,-1.0,0.0,2.m4v,7.0
2024-02-28 09:19:00.822473,1709108340.8224726,-306.15234375,-41.9921875,-57.6171875,-1000.0,0.0,-1.0,-1.0,0.0,2.m4v,7.0
2024-02-28 09:19:00.826378,1709108340.826378,-130.37109375,-31.25,-49.31640625,-984.375,0.0,-1.0,-1.0,0.0,2.m4v,7.0
2024-02-28 09:19:00.830284,1709108340.8302836,-258.7890625,-30.76171875,-47.8515625,-970.21484375,0.0,-1.0,-1.0,0.0,2.m4v,7.0
2024-02-28 09:19:00.834189,1709108340.8341892,-374.0234375,-41.50390625,-44.43359375,-1000.0,0.0,-1.0,-1.0,0.0,2.m4v,7.0
2024-02-28 09:19:00.838100,1709108340.8380997,348.6328125,-38.57421875,-35.64453125,20.5078125,0.0,-1.0,-1.0,0.0,2.m4v,7.0
2024-02-28 09:19:00.842005,1709108340.8420053,999.51171875,-30.2734375,-43.45703125,999.51171875,0.0,-1.0,-1.0,0.0,2.m4v,7.0
2024-02-28 09:19:00.845911,1709108340.845911,895.5078125,-36.1328125,-55.6640625,933.59375,0.0,-1.0,-1.0,0.0,2.m4v,7.0
2024-02-28 09:19:00.849817,1709108340.8498166,420.8984375,-36.62109375,-38.57421875,957.03125,0.0,-1.0,-1.0,0.0,2.m4v,7.0
2024-02-28 09:19:00.853722,1709108340.853722,17.578125,-35.15625,-34.1796875,977.5390625,0.0,-1.0,-1.0,0.0,2.m4v,7.0
2024-02-28 09:19:00.857628,1709108340.8576276,82.51953125,-34.1796875,-40.0390625,904.296875,0.0,-1.0,-1.0,0.0,2.m4v,7.0
2024-02-28 09:19:00.861533,1709108340.8615332,313.96484375,-33.69140625,-36.62109375,999.51171875,0.0,-1.0,-1.0,0.0,2.m4v,7.0
2024-02-28 09:19:00.865439,1709108340.865439,-201.171875,-28.3203125,-31.73828125,266.6015625,0.0,-1.0,-1.0,0.0,2.m4v,7.0
2024-02-28 09:19:00.869344,1709108340.8693445,-991.2109375,-33.69140625,-30.2734375,-1000.0,0.0,-1.0,-1.0,0.0,2.m4v,7.0
2024-02-28 09:19:00.873250,1709108340.87325,-1000.0,-42.48046875,-37.109375,-998.53515625,0.0,-1.0,-1.0,0.0,2.m4v,7.0
2024-02-28 09:19:00.877156,1709108340.8771555,-764.16015625,-36.1328125,-30.76171875,-966.30859375,0.0,-1.0,-1.0,0.0,2.m4v,7.0
2024-02-28 09:19:00.881061,1709108340.881061,-309.5703125,-35.64453125,-30.2734375,-1000.0,0.0,-1.0,-1.0,0.0,2.m4v,7.0
2024-02-28 09:19:00.884971,1709108340.8849711,-96.6796875,-30.76171875,-43.9453125,-1000.0,0.0,-1.0,-1.0,0.0,2.m4v,7.0
2024-02-28 09:19:00.888877,1709108340.888877,-164.55078125,-36.1328125,-49.31640625,-934.5703125,0.0,-1.0,-1.0,0.0,2.m4v,7.0
2024-02-28 09:19:00.892782,1709108340.8927824,-431.640625,-46.38671875,-38.0859375,-1000.0,0.0,-1.0,-1.0,0.0,2.m4v,7.0
2024-02-28 09:19:00.896688,1709108340.896688,109.375,-36.62109375,-38.0859375,-303.22265625,0.0,-1.0,-1.0,0.0,2.m4v,7.0
2024-02-28 09:19:00.900594,1709108340.9005935,963.8671875,-33.69140625,-36.62109375,999.51171875,0.0,-1.0,-1.0,0.0,2.m4v,7.0
2024-02-28 09:19:00.904499,1709108340.904499,996.58203125,-35.15625,-30.2734375,969.23828125,0.0,-1.0,-1.0,0.0,2.m4v,7.0
2024-02-28 09:19:00.908405,1709108340.9084046,712.890625,-30.76171875,-40.52734375,935.546875,0.0,-1.0,-1.0,0.0,2.m4v,7.0
2024-02-28 09:19:00.912310,1709108340.9123104,154.78515625,-39.0625,-33.203125,985.3515625,0.0,-1.0,-1.0,0.0,2.m4v,7.0
2024-02-28 09:19:00.916216,1709108340.916216,-29.296875,-40.52734375,-25.87890625,935.546875,0.0,-1.0,-1.0,0.0,2.m4v,7.0
2024-02-28 09:19:00.920121,1709108340.9201214,135.25390625,-42.48046875,-36.62109375,984.86328125,0.0,-1.0,-1.0,0.0,2.m4v,7.0
2024-02-28 09:19:00.924027,1709108340.924027,181.640625,-40.0390625,-38.57421875,885.25390625,0.0,-1.0,-1.0,0.0,2.m4v,7.0
2024-02-28 09:19:00.927933,1709108340.9279325,-512.6953125,-23.4375,-36.62109375,-344.7265625,0.0,-1.0,-1.0,0.0,2.m4v,7.0
2024-02-28 09:19:00.931843,1709108340.9318426,-1000.0,-25.390625,-29.78515625,-1000.0,0.0,-1.0,-1.0,0.0,2.m4v,7.0
2024-02-28 09:19:00.935748,1709108340.9357483,-884.765625,-37.109375,-26.85546875,-951.171875,0.0,-1.0,-1.0,0.0,2.m4v,7.0
2024-02-28 09:19:00.939654,1709108340.939654,-476.5625,-40.52734375,-43.45703125,-999.0234375,0.0,-1.0,-1.0,0.0,2.m4v,7.0
2024-02-28 09:19:00.943559,1709108340.9435594,-161.62109375,-44.43359375,-58.10546875,-1000.0,0.0,-1.0,-1.0,0.0,2.m4v,7.0
2024-02-28 09:19:00.947465,1709108340.947465,-97.16796875,-47.36328125,-34.66796875,-932.6171875,0.0,-1.0,-1.0,0.0,2.m4v,7.0
2024-02-28 09:19:00.951370,1709108340.9513705,-277.34375,-42.48046875,-18.06640625,-1000.0,0.0,-1.0,-1.0,0.0,2.m4v,7.0
2024-02-28 09:19:00.955276,1709108340.9552765,139.16015625,-28.80859375,-30.76171875,-349.12109375,0.0,-1.0,-1.0,0.0,2.m4v,7.0
2024-02-28 09:19:00.959182,1709108340.9591818,935.546875,-21.97265625,-30.76171875,983.88671875,0.0,-1.0,-1.0,0.0,2.m4v,7.0
2024-02-28 09:19:00.963087,1709108340.963087,999.51171875,-20.99609375,-24.4140625,977.05078125,0.0,-1.0,-1.0,0.0,2.m4v,7.0
2024-02-28 09:19:00.966993,1709108340.9669929,763.18359375,-21.484375,-31.73828125,932.12890625,0.0,-1.0,-1.0,0.0,2.m4v,7.0
2024-02-28 09:19:00.970898,1709108340.9708984,216.796875,-24.4140625,-29.78515625,981.93359375,0.0,-1.0,-1.0,0.0,2.m4v,7.0
2024-02-28 09:19:00.974804,1709108340.9748042,-21.484375,-36.62109375,-29.78515625,960.9375,0.0,-1.0,-1.0,0.0,2.m4v,7.0
2024-02-28 09:19:00.978716,1709108340.9787164,109.375,-40.0390625,-28.3203125,924.8046875,0.0,-1.0,-1.0,0.0,2.m4v,7.0
2024-02-28 09:19:00.982622,1709108340.982622,290.52734375,-38.57421875,-28.80859375,999.51171875,0.0,-1.0,-1.0,0.0,2.m4v,7.0
2024-02-28 09:19:00.986528,1709108340.9865277,-318.84765625,-41.50390625,-46.38671875,53.22265625,0.0,-1.0,-1.0,0.0,2.m4v,7.0
2024-02-28 09:19:00.990433,1709108340.9904332,-1000.0,-31.73828125,-44.43359375,-1000.0,0.0,-1.0,-1.0,0.0,2.m4v,7.0
2024-02-28 09:19:00.994339,1709108340.9943388,-968.75,-35.15625,-31.25,-971.6796875,0.0,-1.0,-1.0,0.0,2.m4v,7.0
2024-02-28 09:19:00.998244,1709108340.9982443,-571.77734375,-32.2265625,-29.78515625,-980.95703125,0.0,-1.0,-1.0,0.0,2.m4v,7.0
2024-02-28 09:19:01.002150,1709108341.00215,-121.58203125,-29.78515625,-20.5078125,-1000.0,0.0,-1.0,-1.0,0.0,2.m4v,7.0
2024-02-28 09:19:01.006056,1709108341.0060556,-52.734375,-48.33984375,-24.90234375,-992.1875,0.0,-1.0,-1.0,0.0,2.m4v,7.0
2024-02-28 09:19:01.009961,1709108341.0099611,-189.94140625,-42.96875,-42.96875,-953.61328125,0.0,-1.0,-1.0,0.0,2.m4v,7.0
2024-02-28 09:19:01.013867,1709108341.013867,-362.79296875,-28.80859375,-41.9921875,-1000.0,0.0,-1.0,-1.0,0.0,2.m4v,7.0
2024-02-28 09:19:01.017772,1709108341.0177722,295.41015625,-19.04296875,-38.0859375,-92.7734375,0.0,-1.0,-1.0,0.0,2.m4v,7.0
2024-02-28 09:19:01.021678,1709108341.021678,999.51171875,-22.94921875,-32.2265625,999.51171875,0.0,-1.0,-1.0,0.0,2.m4v,7.0
2024-02-28 09:19:01.025590,1709108341.02559,948.73046875,-33.69140625,-26.85546875,941.40625,0.0,-1.0,-1.0,0.0,2.m4v,7.0
2024-02-28 09:19:01.029496,1709108341.0294957,534.66796875,-35.64453125,-34.1796875,950.1953125,0.0,-1.0,-1.0,0.0,2.m4v,7.0
2024-02-28 09:19:01.033401,1709108341.0334013,61.03515625,-30.2734375,-32.71484375,976.5625,0.0,-1.0,-1.0,0.0,2.m4v,7.0
2024-02-28 09:19:01.037307,1709108341.0373068,76.171875,-27.83203125,-31.25,962.890625,0.0,-1.0,-1.0,0.0,2.m4v,7.0
2024-02-28 09:19:01.041212,1709108341.0412123,180.6640625,-35.64453125,-34.1796875,923.828125,0.0,-1.0,-1.0,0.0,2.m4v,7.0
2024-02-28 09:19:01.045118,1709108341.045118,266.11328125,-39.55078125,-20.5078125,999.51171875,0.0,-1.0,-1.0,0.0,2.m4v,7.0
2024-02-28 09:19:01.049024,1709108341.0490236,-350.09765625,-35.15625,-26.3671875,83.984375,0.0,-1.0,-1.0,0.0,2.m4v,7.0
2024-02-28 09:19:01.052929,1709108341.0529292,-1000.0,-33.203125,-36.62109375,-1000.0,0.0,-1.0,-1.0,0.0,2.m4v,7.0
2024-02-28 09:19:01.056835,1709108341.0568347,-940.4296875,-43.9453125,-34.1796875,-978.02734375,0.0,-1.0,-1.0,0.0,2.m4v,7.0
2024-02-28 09:19:01.060740,1709108341.0607402,-583.984375,-36.62109375,-43.45703125,-978.515625,0.0,-1.0,-1.0,0.0,2.m4v,7.0
2024-02-28 09:19:01.064646,1709108341.0646458,-278.80859375,-28.3203125,-44.43359375,-1000.0,0.0,-1.0,-1.0,0.0,2.m4v,7.0
2024-02-28 09:19:01.068552,1709108341.0685515,-194.82421875,-44.921875,-30.76171875,-935.546875,0.0,-1.0,-1.0,0.0,2.m4v,7.0
2024-02-28 09:19:01.072463,1709108341.072463,-355.46875,-45.41015625,-41.50390625,-1000.0,0.0,-1.0,-1.0,0.0,2.m4v,7.0
2024-02-28 09:19:01.076369,1709108341.0763686,148.92578125,-32.2265625,-41.9921875,-279.296875,0.0,-1.0,-1.0,0.0,2.m4v,7.0
2024-02-28 09:19:01.080274,1709108341.080274,976.5625,-30.2734375,-18.5546875,999.51171875,0.0,-1.0,-1.0,0.0,2.m4v,7.0
2024-02-28 09:19:01.084180,1709108341.08418,979.00390625,-40.52734375,-24.4140625,964.35546875,0.0,-1.0,-1.0,0.0,2.m4v,7.0
2024-02-28 09:19:01.088085,1709108341.0880854,607.421875,-49.31640625,-43.9453125,937.5,0.0,-1.0,-1.0,0.0,2.m4v,7.0
2024-02-28 09:19:01.091991,1709108341.091991,145.99609375,-39.55078125,-30.76171875,985.3515625,0.0,-1.0,-1.0,0.0,2.m4v,7.0
2024-02-28 09:19:01.494321,1709108341.494321,-187.98828125,-34.1796875,-33.203125,-754.39453125,0.0,-1.0,-1.0,0.0,2.m4v,7.0
2024-02-28 09:19:01.506038,1709108341.506038,850.5859375,-34.1796875,-50.29296875,913.0859375,0.0,-1.0,-1.0,0.0,2.m4v,7.0
2024-02-28 09:19:01.513849,1709108341.5138493,49.31640625,-29.296875,-40.52734375,970.21484375,0.0,-1.0,-1.0,0.0,2.m4v,7.0
2024-02-28 09:19:01.525566,1709108341.525566,-312.98828125,-43.9453125,-51.7578125,202.1484375,0.0,-1.0,-1.0,0.0,2.m4v,7.0
2024-02-28 09:19:01.533377,1709108341.5333772,-998.53515625,-49.31640625,-41.015625,-989.74609375,0.0,-1.0,-1.0,0.0,2.m4v,7.0
2024-02-28 09:19:01.545101,1709108341.545101,-59.08203125,-40.0390625,-33.203125,-984.86328125,0.0,-1.0,-1.0,0.0,2.m4v,7.0
2024-02-28 09:19:01.552912,1709108341.552912,-320.3125,-37.59765625,-26.3671875,-1000.0,0.0,-1.0,-1.0,0.0,2.m4v,7.0
2024-02-28 09:19:01.564629,1709108341.5646288,937.5,-25.390625,-34.1796875,932.6171875,0.0,-1.0,-1.0,0.0,2.m4v,7.0
2024-02-28 09:19:01.572440,1709108341.57244,-41.50390625,-38.57421875,-44.921875,981.4453125,0.0,-1.0,-1.0,0.0,2.m4v,7.0
2024-02-28 09:19:01.584157,1709108341.5841568,166.50390625,-24.90234375,-34.66796875,847.65625,0.0,-1.0,-1.0,0.0,2.m4v,7.0
2024-02-28 09:19:01.591973,1709108341.5919726,-1000.0,-43.45703125,-40.52734375,-1000.0,0.0,-1.0,-1.0,0.0,2.m4v,7.0
2024-02-28 09:19:01.603689,1709108341.6036894,-119.62890625,-34.1796875,-32.2265625,-1000.0,0.0,-1.0,-1.0,0.0,2.m4v,7.0
2024-02-28 09:19:01.611501,1709108341.6115005,-256.34765625,-39.55078125,-32.71484375,-1000.0,0.0,-1.0,-1.0,0.0,2.m4v,7.0
2024-02-28 09:19:01.623217,1709108341.623217,999.51171875,-41.015625,-33.203125,999.51171875,0.0,-1.0,-1.0,0.0,2.m4v,7.0
2024-02-28 09:19:01.631028,1709108341.6310284,292.48046875,-21.97265625,-53.7109375,978.515625,0.0,-1.0,-1.0,0.0,2.m4v,7.0
2024-02-28 09:19:01.642750,1709108341.64275,325.68359375,-29.78515625,-28.3203125,999.51171875,0.0,-1.0,-1.0,0.0,2.m4v,7.0
2024-02-28 09:19:01.650561,1709108341.650561,-1000.0,-37.59765625,-37.59765625,-1000.0,0.0,-1.0,-1.0,0.0,2.m4v,7.0
2024-02-28 09:19:01.662278,1709108341.662278,-265.625,-43.9453125,-51.7578125,-1000.0,0.0,-1.0,-1.0,0.0,2.m4v,7.0
2024-02-28 09:19:01.670089,1709108341.670089,-336.9140625,-47.36328125,-44.921875,-994.140625,0.0,-1.0,-1.0,0.0,2.m4v,7.0
2024-02-28 09:19:01.681813,1709108341.6818132,999.51171875,-32.71484375,-39.55078125,999.51171875,0.0,-1.0,-1.0,0.0,2.m4v,7.0
2024-02-28 09:19:01.689624,1709108341.6896243,476.07421875,-44.921875,-57.6171875,964.35546875,0.0,-1.0,-1.0,0.0,2.m4v,7.0
2024-02-28 09:19:01.701341,1709108341.7013412,262.20703125,-37.59765625,-45.41015625,999.51171875,0.0,-1.0,-1.0,0.0,2.m4v,7.0
2024-02-28 09:19:01.709152,1709108341.7091522,-772.4609375,-33.203125,-38.57421875,-691.40625,0.0,-1.0,-1.0,0.0,2.m4v,7.0
2024-02-28 09:19:01.720869,1709108341.720869,-446.2890625,-56.640625,-50.29296875,-1000.0,0.0,-1.0,-1.0,0.0,2.m4v,7.0
2024-02-28 09:19:01.728687,1709108341.728687,-100.09765625,-30.2734375,-34.1796875,-947.75390625,0.0,-1.0,-1.0,0.0,2.m4v,7.0
2024-02-28 09:19:01.740404,1709108341.7404037,999.51171875,-28.3203125,-35.15625,999.51171875,0.0,-1.0,-1.0,0.0,2.m4v,7.0
2024-02-28 09:19:01.748215,1709108341.748215,650.87890625,-29.296875,-38.0859375,948.2421875,0.0,-1.0,-1.0,0.0,2.m4v,7.0
2024-02-28 09:19:01.756026,1709108341.756026,-9.27734375,-48.33984375,-45.8984375,927.734375,0.0,-1.0,-1.0,0.0,2.m4v,7.0
2024-02-28 09:19:01.763837,1709108341.763837,117.1875,-39.0625,-39.0625,833.0078125,0.0,-1.0,-1.0,0.0,2.m4v,7.0
2024-02-28 09:19:01.771648,1709108341.7716484,-1000.0,-32.2265625,-49.31640625,-1000.0,0.0,-1.0,-1.0,0.0,2.m4v,7.0
2024-02-28 09:19:01.779466,1709108341.779466,-467.7734375,-41.9921875,-29.78515625,-1000.0,0.0,-1.0,-1.0,0.0,2.m4v,7.0
2024-02-28 09:19:01.787277,1709108341.7872772,-70.80078125,-41.50390625,-44.43359375,-934.5703125,0.0,-1.0,-1.0,0.0,2.m4v,7.0
2024-02-28 09:19:01.795088,1709108341.7950883,166.50390625,-38.0859375,-28.3203125,-279.78515625,0.0,-1.0,-1.0,0.0,2.m4v,7.0
2024-02-28 09:19:01.802900,1709108341.8028996,988.28125,-40.52734375,-40.52734375,964.35546875,0.0,-1.0,-1.0,0.0,2.m4v,7.0
2024-02-28 09:19:01.810711,1709108341.810711,208.0078125,-30.76171875,-40.52734375,979.4921875,0.0,-1.0,-1.0,0.0,2.m4v,7.0
2024-02-28 09:19:01.818522,1709108341.8185215,115.234375,-38.57421875,-34.66796875,913.57421875,0.0,-1.0,-1.0,0.0,2.m4v,7.0
2024-02-28 09:19:01.826339,1709108341.826339,-328.125,-41.9921875,-41.015625,138.671875,0.0,-1.0,-1.0,0.0,2.m4v,7.0
2024-02-28 09:19:01.834150,1709108341.83415,-986.328125,-36.62109375,-37.109375,-979.00390625,0.0,-1.0,-1.0,0.0,2.m4v,7.0
2024-02-28 09:19:01.841961,1709108341.8419614,-163.57421875,-26.3671875,-33.203125,-1000.0,0.0,-1.0,-1.0,0.0,2.m4v,7.0
2024-02-28 09:19:01.849772,1709108341.8497725,-244.62890625,-40.52734375,-39.0625,-985.3515625,0.0,-1.0,-1.0,0.0,2.m4v,7.0
2024-02-28 09:19:01.857584,1709108341.8575838,396.97265625,-38.57421875,-41.50390625,124.0234375,0.0,-1.0,-1.0,0.0,2.m4v,7.0
2024-02-28 09:19:01.865395,1709108341.8653948,905.2734375,-35.15625,-40.52734375,926.7578125,0.0,-1.0,-1.0,0.0,2.m4v,7.0
2024-02-28 09:19:01.873212,1709108341.8732116,13.18359375,-46.875,-43.45703125,982.421875,0.0,-1.0,-1.0,0.0,2.m4v,7.0
2024-02-28 09:19:01.881023,1709108341.8810227,216.796875,-50.29296875,-37.59765625,999.51171875,0.0,-1.0,-1.0,0.0,2.m4v,7.0
2024-02-28 09:19:01.888834,1709108341.888834,-783.69140625,-43.45703125,-40.52734375,-730.46875,0.0,-1.0,-1.0,0.0,2.m4v,7.0
2024-02-28 09:19:01.896645,1709108341.896645,-825.1953125,-42.48046875,-38.57421875,-946.77734375,0.0,-1.0,-1.0,0.0,2.m4v,7.0
2024-02-28 09:19:01.904456,1709108341.9044564,-106.93359375,-26.3671875,-45.8984375,-1000.0,0.0,-1.0,-1.0,0.0,2.m4v,7.0
2024-02-28 09:19:01.912267,1709108341.9122674,-352.05078125,-44.43359375,-42.96875,-1000.0,0.0,-1.0,-1.0,0.0,2.m4v,7.0
2024-02-28 09:19:01.920084,1709108341.920084,990.234375,-33.69140625,-46.38671875,999.51171875,0.0,-1.0,-1.0,0.0,2.m4v,7.0
2024-02-28 09:19:01.923990,1709108341.9239895,982.91015625,-37.109375,-35.15625,955.078125,0.0,-1.0,-1.0,0.0,2.m4v,7.0
2024-02-28 09:19:01.927895,1709108341.927895,677.734375,-40.52734375,-29.78515625,942.3828125,0.0,-1.0,-1.0,0.0,2.m4v,7.0
2024-02-28 09:19:01.931801,1709108341.9318006,106.4453125,-31.25,-20.01953125,981.93359375,0.0,-1.0,-1.0,0.0,2.m4v,7.0
2024-02-28 09:19:01.935706,1709108341.9357064,15.625,-30.76171875,-14.16015625,944.82421875,0.0,-1.0,-1.0,0.0,2.m4v,7.0
2024-02-28 09:19:01.939612,1709108341.939612,223.14453125,-33.203125,-21.484375,960.9375,0.0,-1.0,-1.0,0.0,2.m4v,7.0
2024-02-28 09:19:01.943517,1709108341.9435174,233.88671875,-30.76171875,-30.2734375,970.21484375,0.0,-1.0,-1.0,0.0,2.m4v,7.0
2024-02-28 09:19:01.947423,1709108341.947423,-470.21484375,-30.2734375,-36.62109375,-189.94140625,0.0,-1.0,-1.0,0.0,2.m4v,7.0
2024-02-28 09:19:01.951329,1709108341.9513285,-1000.0,-34.66796875,-44.921875,-1000.0,0.0,-1.0,-1.0,0.0,2.m4v,7.0
2024-02-28 09:19:01.955234,1709108341.9552343,-926.26953125,-45.41015625,-52.24609375,-957.03125,0.0,-1.0,-1.0,0.0,2.m4v,7.0
2024-02-28 09:19:01.959140,1709108341.9591398,-540.52734375,-40.0390625,-45.8984375,-992.67578125,0.0,-1.0,-1.0,0.0,2.m4v,7.0
2024-02-28 09:19:01.963050,1709108341.9630504,-125.9765625,-32.71484375,-34.1796875,-1000.0,0.0,-1.0,-1.0,0.0,2.m4v,7.0
2024-02-28 09:19:01.966956,1709108341.966956,-45.8984375,-38.0859375,-24.4140625,-944.82421875,0.0,-1.0,-1.0,0.0,2.m4v,7.0
2024-02-28 09:19:01.970861,1709108341.9708614,-278.3203125,-39.55078125,-28.80859375,-1000.0,0.0,-1.0,-1.0,0.0,2.m4v,7.0
2024-02-28 09:19:01.974767,1709108341.974767,-147.94921875,-40.52734375,-41.50390625,-729.98046875,0.0,-1.0,-1.0,0.0,2.m4v,7.0
2024-02-28 09:19:01.978673,1709108341.9786727,707.51953125,-38.57421875,-43.9453125,634.765625,0.0,-1.0,-1.0,0.0,2.m4v,7.0
2024-02-28 09:19:01.982578,1709108341.9825785,999.51171875,-29.78515625,-47.36328125,999.51171875,0.0,-1.0,-1.0,0.0,2.m4v,7.0
2024-02-28 09:19:01.986484,1709108341.9864838,828.61328125,-26.85546875,-49.8046875,913.0859375,0.0,-1.0,-1.0,0.0,2.m4v,7.0
2024-02-28 09:19:01.990389,1709108341.990389,339.84375,-31.73828125,-35.64453125,980.46875,0.0,-1.0,-1.0,0.0,2.m4v,7.0
2024-02-28 09:19:01.994295,1709108341.994295,-26.3671875,-33.203125,-31.73828125,967.7734375,0.0,-1.0,-1.0,0.0,2.m4v,7.0
2024-02-28 09:19:01.998201,1709108341.998201,63.4765625,-28.80859375,-29.78515625,912.59765625,0.0,-1.0,-1.0,0.0,2.m4v,7.0
2024-02-28 09:19:02.002106,1709108342.0021062,292.96875,-22.94921875,-20.5078125,999.51171875,0.0,-1.0,-1.0,0.0,2.m4v,7.0
2024-02-28 09:19:02.006012,1709108342.0060115,-276.85546875,-28.80859375,-26.85546875,156.25,0.0,-1.0,-1.0,0.0,2.m4v,7.0
2024-02-28 09:19:02.009922,1709108342.0099218,-1000.0,-34.66796875,-37.109375,-1000.0,0.0,-1.0,-1.0,0.0,2.m4v,7.0
2024-02-28 09:19:02.013827,1709108342.013827,-1000.0,-33.69140625,-30.2734375,-982.421875,0.0,-1.0,-1.0,0.0,2.m4v,7.0
2024-02-28 09:19:02.017733,1709108342.017733,-713.37890625,-29.78515625,-27.34375,-974.609375,0.0,-1.0,-1.0,0.0,2.m4v,7.0
2024-02-28 09:19:02.021639,1709108342.0216386,-233.3984375,-32.2265625,-36.62109375,-1000.0,0.0,-1.0,-1.0,0.0,2.m4v,7.0
2024-02-28 09:19:02.025544,1709108342.0255442,-58.59375,-33.69140625,-49.8046875,-988.76953125,0.0,-1.0,-1.0,0.0,2.m4v,7.0
2024-02-28 09:19:02.029450,1709108342.0294497,-146.484375,-30.76171875,-47.8515625,-960.9375,0.0,-1.0,-1.0,0.0,2.m4v,7.0
2024-02-28 09:19:02.033355,1709108342.0333552,-326.171875,-33.69140625,-36.62109375,-1000.0,0.0,-1.0,-1.0,0.0,2.m4v,7.0
2024-02-28 09:19:02.037261,1709108342.037261,298.828125,-37.59765625,-32.2265625,-40.0390625,0.0,-1.0,-1.0,0.0,2.m4v,7.0
2024-02-28 09:19:02.041167,1709108342.0411663,999.51171875,-43.45703125,-25.390625,999.51171875,0.0,-1.0,-1.0,0.0,2.m4v,7.0
2024-02-28 09:19:02.045072,1709108342.045072,931.15234375,-42.48046875,-30.76171875,937.01171875,0.0,-1.0,-1.0,0.0,2.m4v,7.0
2024-02-28 09:19:02.048978,1709108342.0489776,517.578125,-38.0859375,-35.15625,953.125,0.0,-1.0,-1.0,0.0,2.m4v,7.0
2024-02-28 09:19:02.052883,1709108342.0528831,74.21875,-35.64453125,-35.64453125,983.3984375,0.0,-1.0,-1.0,0.0,2.m4v,7.0
2024-02-28 09:19:02.056796,1709108342.0567958,38.0859375,-36.62109375,-30.76171875,921.875,0.0,-1.0,-1.0,0.0,2.m4v,7.0
2024-02-28 09:19:02.060701,1709108342.0607014,175.78125,-32.2265625,-31.73828125,999.51171875,0.0,-1.0,-1.0,0.0,2.m4v,7.0
2024-02-28 09:19:02.064607,1709108342.0646071,75.1953125,-29.78515625,-30.76171875,771.484375,0.0,-1.0,-1.0,0.0,2.m4v,7.0
2024-02-28 09:19:02.068513,1709108342.068513,-680.17578125,-33.69140625,-25.390625,-555.17578125,0.0,-1.0,-1.0,0.0,2.m4v,7.0
2024-02-28 09:19:02.072418,1709108342.0724182,-1000.0,-30.2734375,-27.83203125,-1000.0,0.0,-1.0,-1.0,0.0,2.m4v,7.0
2024-02-28 09:19:02.076324,1709108342.0763235,-795.8984375,-31.73828125,-38.0859375,-944.3359375,0.0,-1.0,-1.0,0.0,2.m4v,7.0
2024-02-28 09:19:02.509901,1709108342.5099008,-333.49609375,-40.52734375,-45.41015625,-960.44921875,0.0,-1.0,-1.0,0.0,2.m4v,7.0
2024-02-28 09:19:02.513806,1709108342.5138063,-409.1796875,-40.52734375,-36.1328125,-1000.0,0.0,-1.0,-1.0,0.0,2.m4v,7.0
2024-02-28 09:19:02.517712,1709108342.517712,347.65625,-30.2734375,-29.78515625,-43.9453125,0.0,-1.0,-1.0,0.0,2.m4v,7.0
2024-02-28 09:19:02.521617,1709108342.5216174,999.51171875,-19.04296875,-21.484375,999.51171875,0.0,-1.0,-1.0,0.0,2.m4v,7.0
2024-02-28 09:19:02.525530,1709108342.5255296,926.7578125,-29.296875,-38.0859375,937.5,0.0,-1.0,-1.0,0.0,2.m4v,7.0
2024-02-28 09:19:02.525530,1709108342.5255296,926.7578125,-29.296875,-38.0859375,937.5,0.0,-1.0,-1.0,0.0,2.m4v,7.0
2024-02-28 09:19:02.529435,1709108342.5294352,525.87890625,-40.52734375,-46.875,953.125,0.0,-1.0,-1.0,0.0,2.m4v,7.0
2024-02-28 09:19:02.529435,1709108342.5294352,525.87890625,-40.52734375,-46.875,953.125,0.0,-1.0,-1.0,0.0,2.m4v,7.0
2024-02-28 09:19:02.533341,1709108342.5333407,108.88671875,-36.62109375,-39.0625,979.00390625,0.0,-1.0,-1.0,0.0,2.m4v,7.0
2024-02-28 09:19:02.533341,1709108342.5333407,108.88671875,-36.62109375,-39.0625,979.00390625,0.0,-1.0,-1.0,0.0,2.m4v,7.0
2024-02-28 09:19:02.537246,1709108342.5372462,98.14453125,-30.2734375,-34.1796875,947.265625,0.0,-1.0,-1.0,0.0,2.m4v,7.0
2024-02-28 09:19:02.537246,1709108342.5372462,98.14453125,-30.2734375,-34.1796875,947.265625,0.0,-1.0,-1.0,0.0,2.m4v,7.0
2024-02-28 09:19:02.541152,1709108342.541152,187.98828125,-24.90234375,-16.11328125,958.0078125,0.0,-1.0,-1.0,0.0,2.m4v,7.0
2024-02-28 09:19:02.541152,1709108342.541152,187.98828125,-24.90234375,-16.11328125,958.0078125,0.0,-1.0,-1.0,0.0,2.m4v,7.0
2024-02-28 09:19:02.545058,1709108342.5450575,220.21484375,-26.85546875,-7.8125,965.8203125,0.0,-1.0,-1.0,0.0,2.m4v,7.0
2024-02-28 09:19:02.545058,1709108342.5450575,220.21484375,-26.85546875,-7.8125,965.8203125,0.0,-1.0,-1.0,0.0,2.m4v,7.0
2024-02-28 09:19:02.548963,1709108342.548963,-469.23828125,-37.109375,-19.53125,-164.0625,0.0,-1.0,-1.0,0.0,2.m4v,7.0
2024-02-28 09:19:02.548963,1709108342.548963,-469.23828125,-37.109375,-19.53125,-164.0625,0.0,-1.0,-1.0,0.0,2.m4v,7.0
2024-02-28 09:19:02.552869,1709108342.5528686,-1000.0,-43.9453125,-34.66796875,-1000.0,0.0,-1.0,-1.0,0.0,2.m4v,7.0
2024-02-28 09:19:02.552869,1709108342.5528686,-1000.0,-43.9453125,-34.66796875,-1000.0,0.0,-1.0,-1.0,0.0,2.m4v,7.0
2024-02-28 09:19:02.556774,1709108342.556774,-888.671875,-45.41015625,-41.015625,-961.42578125,0.0,-1.0,-1.0,0.0,2.m4v,7.0
2024-02-28 09:19:02.556774,1709108342.556774,-888.671875,-45.41015625,-41.015625,-961.42578125,0.0,-1.0,-1.0,0.0,2.m4v,7.0
2024-02-28 09:19:02.560680,1709108342.56068,-515.625,-38.0859375,-43.9453125,-990.72265625,0.0,-1.0,-1.0,0.0,2.m4v,7.0
2024-02-28 09:19:02.560680,1709108342.56068,-515.625,-38.0859375,-43.9453125,-990.72265625,0.0,-1.0,-1.0,0.0,2.m4v,7.0
2024-02-28 09:19:02.564585,1709108342.5645854,-245.1171875,-34.66796875,-48.33984375,-1000.0,0.0,-1.0,-1.0,0.0,2.m4v,7.0
2024-02-28 09:19:02.564585,1709108342.5645854,-245.1171875,-34.66796875,-48.33984375,-1000.0,0.0,-1.0,-1.0,0.0,2.m4v,7.0
2024-02-28 09:19:02.568491,1709108342.568491,-204.1015625,-36.62109375,-43.45703125,-933.10546875,0.0,-1.0,-1.0,0.0,2.m4v,7.0
2024-02-28 09:19:02.568491,1709108342.568491,-204.1015625,-36.62109375,-43.45703125,-933.10546875,0.0,-1.0,-1.0,0.0,2.m4v,7.0
2024-02-28 09:19:02.572403,1709108342.5724027,-362.79296875,-38.0859375,-38.57421875,-1000.0,0.0,-1.0,-1.0,0.0,2.m4v,7.0
2024-02-28 09:19:02.572403,1709108342.5724027,-362.79296875,-38.0859375,-38.57421875,-1000.0,0.0,-1.0,-1.0,0.0,2.m4v,7.0
2024-02-28 09:19:02.576308,1709108342.5763085,83.984375,-39.55078125,-30.76171875,-442.3828125,0.0,-1.0,-1.0,0.0,2.m4v,7.0
2024-02-28 09:19:02.576308,1709108342.5763085,83.984375,-39.55078125,-30.76171875,-442.3828125,0.0,-1.0,-1.0,0.0,2.m4v,7.0
2024-02-28 09:19:02.580214,1709108342.5802138,912.109375,-39.55078125,-22.94921875,916.50390625,0.0,-1.0,-1.0,0.0,2.m4v,7.0
2024-02-28 09:19:02.580214,1709108342.5802138,912.109375,-39.55078125,-22.94921875,916.50390625,0.0,-1.0,-1.0,0.0,2.m4v,7.0
2024-02-28 09:19:02.584119,1709108342.584119,999.51171875,-49.31640625,-45.41015625,995.1171875,0.0,-1.0,-1.0,0.0,2.m4v,7.0
2024-02-28 09:19:02.584119,1709108342.584119,999.51171875,-49.31640625,-45.41015625,995.1171875,0.0,-1.0,-1.0,0.0,2.m4v,7.0
2024-02-28 09:19:02.588025,1709108342.588025,680.6640625,-41.9921875,-47.36328125,925.78125,0.0,-1.0,-1.0,0.0,2.m4v,7.0
2024-02-28 09:19:02.588025,1709108342.588025,680.6640625,-41.9921875,-47.36328125,925.78125,0.0,-1.0,-1.0,0.0,2.m4v,7.0
2024-02-28 09:19:02.591931,1709108342.5919306,198.73046875,-29.296875,-37.109375,991.69921875,0.0,-1.0,-1.0,0.0,2.m4v,7.0
2024-02-28 09:19:02.591931,1709108342.5919306,198.73046875,-29.296875,-37.109375,991.69921875,0.0,-1.0,-1.0,0.0,2.m4v,7.0
2024-02-28 09:19:02.595836,1709108342.5958362,50.78125,-43.9453125,-30.76171875,907.71484375,0.0,-1.0,-1.0,0.0,2.m4v,7.0
2024-02-28 09:19:02.595836,1709108342.5958362,50.78125,-43.9453125,-30.76171875,907.71484375,0.0,-1.0,-1.0,0.0,2.m4v,7.0
2024-02-28 09:19:02.599742,1709108342.5997417,204.1015625,-57.12890625,-28.3203125,999.51171875,0.0,-1.0,-1.0,0.0,2.m4v,7.0
2024-02-28 09:19:02.599742,1709108342.5997417,204.1015625,-57.12890625,-28.3203125,999.51171875,0.0,-1.0,-1.0,0.0,2.m4v,7.0
2024-02-28 09:19:02.603647,1709108342.6036472,-20.99609375,-49.31640625,-34.1796875,578.125,0.0,-1.0,-1.0,0.0,2.m4v,7.0
2024-02-28 09:19:02.603647,1709108342.6036472,-20.99609375,-49.31640625,-34.1796875,578.125,0.0,-1.0,-1.0,0.0,2.m4v,7.0
2024-02-28 09:19:02.607553,1709108342.607553,-807.12890625,-41.9921875,-23.92578125,-796.38671875,0.0,-1.0,-1.0,0.0,2.m4v,7.0
2024-02-28 09:19:02.607553,1709108342.607553,-807.12890625,-41.9921875,-23.92578125,-796.38671875,0.0,-1.0,-1.0,0.0,2.m4v,7.0
2024-02-28 09:19:02.611459,1709108342.6114583,-1000.0,-39.55078125,-33.203125,-1000.0,0.0,-1.0,-1.0,0.0,2.m4v,7.0
2024-02-28 09:19:02.611459,1709108342.6114583,-1000.0,-39.55078125,-33.203125,-1000.0,0.0,-1.0,-1.0,0.0,2.m4v,7.0
2024-02-28 09:19:02.615364,1709108342.615364,-883.30078125,-41.015625,-55.17578125,-947.75390625,0.0,-1.0,-1.0,0.0,2.m4v,7.0
2024-02-28 09:19:02.615364,1709108342.615364,-883.30078125,-41.015625,-55.17578125,-947.75390625,0.0,-1.0,-1.0,0.0,2.m4v,7.0
2024-02-28 09:19:02.619275,1709108342.619275,-483.88671875,-40.0390625,-45.8984375,-1000.0,0.0,-1.0,-1.0,0.0,2.m4v,7.0
2024-02-28 09:19:02.619275,1709108342.619275,-483.88671875,-40.0390625,-45.8984375,-1000.0,0.0,-1.0,-1.0,0.0,2.m4v,7.0
2024-02-28 09:19:02.623181,1709108342.623181,-85.9375,-34.1796875,-32.71484375,-1000.0,0.0,-1.0,-1.0,0.0,2.m4v,7.0
2024-02-28 09:19:02.623181,1709108342.623181,-85.9375,-34.1796875,-32.71484375,-1000.0,0.0,-1.0,-1.0,0.0,2.m4v,7.0
2024-02-28 09:19:02.627087,1709108342.6270866,-21.97265625,-24.90234375,-32.2265625,-933.59375,0.0,-1.0,-1.0,0.0,2.m4v,7.0
2024-02-28 09:19:02.627087,1709108342.6270866,-21.97265625,-24.90234375,-32.2265625,-933.59375,0.0,-1.0,-1.0,0.0,2.m4v,7.0
2024-02-28 09:19:02.630992,1709108342.6309922,-300.29296875,-33.69140625,-29.78515625,-1000.0,0.0,-1.0,-1.0,0.0,2.m4v,7.0
2024-02-28 09:19:02.630992,1709108342.6309922,-300.29296875,-33.69140625,-29.78515625,-1000.0,0.0,-1.0,-1.0,0.0,2.m4v,7.0
2024-02-28 09:19:02.634898,1709108342.6348977,-31.73828125,-38.57421875,-32.2265625,-533.203125,0.0,-1.0,-1.0,0.0,2.m4v,7.0
2024-02-28 09:19:02.634898,1709108342.6348977,-31.73828125,-38.57421875,-32.2265625,-533.203125,0.0,-1.0,-1.0,0.0,2.m4v,7.0
2024-02-28 09:19:02.638803,1709108342.6388032,839.35546875,-26.85546875,-29.78515625,848.6328125,0.0,-1.0,-1.0,0.0,2.m4v,7.0
2024-02-28 09:19:02.638803,1709108342.6388032,839.35546875,-26.85546875,-29.78515625,848.6328125,0.0,-1.0,-1.0,0.0,2.m4v,7.0
2024-02-28 09:19:02.642709,1709108342.642709,999.51171875,-31.73828125,-37.59765625,999.51171875,0.0,-1.0,-1.0,0.0,2.m4v,7.0
2024-02-28 09:19:02.642709,1709108342.642709,999.51171875,-31.73828125,-37.59765625,999.51171875,0.0,-1.0,-1.0,0.0,2.m4v,7.0
2024-02-28 09:19:02.646615,1709108342.6466146,774.4140625,-41.015625,-41.015625,919.921875,0.0,-1.0,-1.0,0.0,2.m4v,7.0
2024-02-28 09:19:02.646615,1709108342.6466146,774.4140625,-41.015625,-41.015625,919.921875,0.0,-1.0,-1.0,0.0,2.m4v,7.0
2024-02-28 09:19:02.650520,1709108342.65052,255.37109375,-44.921875,-39.0625,982.421875,0.0,-1.0,-1.0,0.0,2.m4v,7.0
2024-02-28 09:19:02.650520,1709108342.65052,255.37109375,-44.921875,-39.0625,982.421875,0.0,-1.0,-1.0,0.0,2.m4v,7.0
2024-02-28 09:19:02.654426,1709108342.6544256,-15.625,-51.7578125,-35.15625,973.14453125,0.0,-1.0,-1.0,0.0,2.m4v,7.0
2024-02-28 09:19:02.654426,1709108342.6544256,-15.625,-51.7578125,-35.15625,973.14453125,0.0,-1.0,-1.0,0.0,2.m4v,7.0
2024-02-28 09:19:02.658331,1709108342.6583312,59.08203125,-40.0390625,-34.1796875,905.2734375,0.0,-1.0,-1.0,0.0,2.m4v,7.0
2024-02-28 09:19:02.658331,1709108342.6583312,59.08203125,-40.0390625,-34.1796875,905.2734375,0.0,-1.0,-1.0,0.0,2.m4v,7.0
2024-02-28 09:19:02.662237,1709108342.662237,226.07421875,-23.4375,-41.50390625,999.51171875,0.0,-1.0,-1.0,0.0,2.m4v,7.0
2024-02-28 09:19:02.662237,1709108342.662237,226.07421875,-23.4375,-41.50390625,999.51171875,0.0,-1.0,-1.0,0.0,2.m4v,7.0
2024-02-28 09:19:02.666148,1709108342.6661477,-269.04296875,-28.80859375,-36.1328125,262.6953125,0.0,-1.0,-1.0,0.0,2.m4v,7.0
2024-02-28 09:19:02.666148,1709108342.6661477,-269.04296875,-28.80859375,-36.1328125,262.6953125,0.0,-1.0,-1.0,0.0,2.m4v,7.0
2024-02-28 09:19:02.670053,1709108342.6700535,-1000.0,-31.25,-42.48046875,-1000.0,0.0,-1.0,-1.0,0.0,2.m4v,7.0
2024-02-28 09:19:02.670053,1709108342.6700535,-1000.0,-31.25,-42.48046875,-1000.0,0.0,-1.0,-1.0,0.0,2.m4v,7.0
2024-02-28 09:19:02.673959,1709108342.673959,-1000.0,-27.83203125,-47.36328125,-998.046875,0.0,-1.0,-1.0,0.0,2.m4v,7.0
2024-02-28 09:19:02.673959,1709108342.673959,-1000.0,-27.83203125,-47.36328125,-998.046875,0.0,-1.0,-1.0,0.0,2.m4v,7.0
2024-02-28 09:19:02.677865,1709108342.6778646,-703.61328125,-32.2265625,-37.59765625,-966.796875,0.0,-1.0,-1.0,0.0,2.m4v,7.0
2024-02-28 09:19:02.677865,1709108342.6778646,-703.61328125,-32.2265625,-37.59765625,-966.796875,0.0,-1.0,-1.0,0.0,2.m4v,7.0
2024-02-28 09:19:02.681770,1709108342.68177,-301.26953125,-41.015625,-41.9921875,-1000.0,0.0,-1.0,-1.0,0.0,2.m4v,7.0
2024-02-28 09:19:02.681770,1709108342.68177,-301.26953125,-41.015625,-41.9921875,-1000.0,0.0,-1.0,-1.0,0.0,2.m4v,7.0
2024-02-28 09:19:02.685676,1709108342.6856756,-117.1875,-52.24609375,-39.55078125,-995.60546875,0.0,-1.0,-1.0,0.0,2.m4v,7.0
2024-02-28 09:19:02.685676,1709108342.6856756,-117.1875,-52.24609375,-39.55078125,-995.60546875,0.0,-1.0,-1.0,0.0,2.m4v,7.0
2024-02-28 09:19:02.689581,1709108342.6895814,-168.9453125,-43.9453125,-29.78515625,-947.75390625,0.0,-1.0,-1.0,0.0,2.m4v,7.0
2024-02-28 09:19:02.689581,1709108342.6895814,-168.9453125,-43.9453125,-29.78515625,-947.75390625,0.0,-1.0,-1.0,0.0,2.m4v,7.0
2024-02-28 09:19:02.693487,1709108342.693487,-381.34765625,-25.390625,-43.9453125,-1000.0,0.0,-1.0,-1.0,0.0,2.m4v,7.0
2024-02-28 09:19:02.693487,1709108342.693487,-381.34765625,-25.390625,-43.9453125,-1000.0,0.0,-1.0,-1.0,0.0,2.m4v,7.0
2024-02-28 09:19:02.697392,1709108342.6973925,253.90625,-13.671875,-53.22265625,-143.5546875,0.0,-1.0,-1.0,0.0,2.m4v,7.0
2024-02-28 09:19:02.697392,1709108342.6973925,253.90625,-13.671875,-53.22265625,-143.5546875,0.0,-1.0,-1.0,0.0,2.m4v,7.0
2024-02-28 09:19:02.701298,1709108342.701298,999.51171875,-13.18359375,-45.41015625,999.51171875,0.0,-1.0,-1.0,0.0,2.m4v,7.0
2024-02-28 09:19:02.701298,1709108342.701298,999.51171875,-13.18359375,-45.41015625,999.51171875,0.0,-1.0,-1.0,0.0,2.m4v,7.0
2024-02-28 09:19:02.705204,1709108342.7052035,950.1953125,-33.69140625,-41.015625,947.265625,0.0,-1.0,-1.0,0.0,2.m4v,7.0
2024-02-28 09:19:02.705204,1709108342.7052035,950.1953125,-33.69140625,-41.015625,947.265625,0.0,-1.0,-1.0,0.0,2.m4v,7.0
2024-02-28 09:19:02.709109,1709108342.7091093,530.76171875,-46.875,-35.64453125,947.265625,0.0,-1.0,-1.0,0.0,2.m4v,7.0
2024-02-28 09:19:02.709109,1709108342.7091093,530.76171875,-46.875,-35.64453125,947.265625,0.0,-1.0,-1.0,0.0,2.m4v,7.0
2024-02-28 09:19:02.713020,1709108342.7130198,32.71484375,-47.36328125,-24.4140625,982.421875,0.0,-1.0,-1.0,0.0,2.m4v,7.0
2024-02-28 09:19:02.713020,1709108342.7130198,32.71484375,-47.36328125,-24.4140625,982.421875,0.0,-1.0,-1.0,0.0,2.m4v,7.0
2024-02-28 09:19:03.556729,1709108343.5567286,30.76171875,-33.203125,-30.76171875,917.96875,0.0,-1.0,-1.0,0.0,2.m4v,7.0
2024-02-28 09:19:03.560634,1709108343.560634,221.19140625,-24.90234375,-32.2265625,999.51171875,0.0,-1.0,-1.0,0.0,2.m4v,7.0
2024-02-28 09:19:03.564540,1709108343.56454,77.63671875,-19.53125,-26.3671875,717.7734375,0.0,-1.0,-1.0,0.0,2.m4v,7.0
2024-02-28 09:19:03.568445,1709108343.5684454,-716.30859375,-26.3671875,-41.015625,-620.60546875,0.0,-1.0,-1.0,0.0,2.m4v,7.0
2024-02-28 09:19:03.572351,1709108343.572351,-1000.0,-40.0390625,-56.15234375,-1000.0,0.0,-1.0,-1.0,0.0,2.m4v,7.0
2024-02-28 09:19:03.576257,1709108343.5762565,-821.2890625,-44.921875,-42.48046875,-945.3125,0.0,-1.0,-1.0,0.0,2.m4v,7.0
2024-02-28 09:19:03.580162,1709108343.580162,-351.5625,-34.1796875,-29.296875,-1000.0,0.0,-1.0,-1.0,0.0,2.m4v,7.0
2024-02-28 09:19:03.584068,1709108343.5840678,-58.59375,-36.1328125,-40.52734375,-1000.0,0.0,-1.0,-1.0,0.0,2.m4v,7.0
2024-02-28 09:19:03.587973,1709108343.5879734,-135.25390625,-54.19921875,-40.52734375,-936.03515625,0.0,-1.0,-1.0,0.0,2.m4v,7.0
2024-02-28 09:19:03.591879,1709108343.591879,-398.92578125,-54.6875,-28.80859375,-1000.0,0.0,-1.0,-1.0,0.0,2.m4v,7.0
2024-02-28 09:19:03.595784,1709108343.5957844,178.22265625,-36.1328125,-25.390625,-265.625,0.0,-1.0,-1.0,0.0,2.m4v,7.0
2024-02-28 09:19:03.599690,1709108343.5996902,989.74609375,-22.94921875,-31.73828125,999.51171875,0.0,-1.0,-1.0,0.0,2.m4v,7.0
2024-02-28 09:19:03.603603,1709108343.6036026,968.26171875,-36.62109375,-45.8984375,962.40234375,0.0,-1.0,-1.0,0.0,2.m4v,7.0
2024-02-28 09:19:03.607508,1709108343.6075082,651.3671875,-47.8515625,-43.9453125,938.96484375,0.0,-1.0,-1.0,0.0,2.m4v,7.0
2024-02-28 09:19:03.611414,1709108343.6114137,151.3671875,-45.41015625,-33.69140625,978.515625,0.0,-1.0,-1.0,0.0,2.m4v,7.0
2024-02-28 09:19:03.615319,1709108343.6153193,32.71484375,-42.48046875,-32.71484375,972.65625,0.0,-1.0,-1.0,0.0,2.m4v,7.0
2024-02-28 09:19:03.619225,1709108343.619225,109.375,-37.59765625,-34.66796875,906.25,0.0,-1.0,-1.0,0.0,2.m4v,7.0
2024-02-28 09:19:03.623131,1709108343.6231306,242.1875,-30.76171875,-36.1328125,999.51171875,0.0,-1.0,-1.0,0.0,2.m4v,7.0
2024-02-28 09:19:03.627036,1709108343.627036,-254.8828125,-42.48046875,-35.64453125,253.90625,0.0,-1.0,-1.0,0.0,2.m4v,7.0
2024-02-28 09:19:03.630942,1709108343.6309416,-1000.0,-55.17578125,-25.87890625,-1000.0,0.0,-1.0,-1.0,0.0,2.m4v,7.0
2024-02-28 09:19:03.634847,1709108343.6348472,-993.1640625,-46.875,-29.78515625,-997.55859375,0.0,-1.0,-1.0,0.0,2.m4v,7.0
2024-02-28 09:19:03.638753,1709108343.638753,-704.1015625,-39.55078125,-56.15234375,-967.28515625,0.0,-1.0,-1.0,0.0,2.m4v,7.0
2024-02-28 09:19:03.642658,1709108343.6426585,-293.9453125,-32.71484375,-50.29296875,-1000.0,0.0,-1.0,-1.0,0.0,2.m4v,7.0
2024-02-28 09:19:03.646564,1709108343.646564,-110.83984375,-38.57421875,-31.25,-959.47265625,0.0,-1.0,-1.0,0.0,2.m4v,7.0
2024-02-28 09:19:03.650476,1709108343.650476,-267.08984375,-39.0625,-29.296875,-1000.0,0.0,-1.0,-1.0,0.0,2.m4v,7.0
2024-02-28 09:19:03.654382,1709108343.6543818,-224.609375,-36.62109375,-28.80859375,-877.9296875,0.0,-1.0,-1.0,0.0,2.m4v,7.0
2024-02-28 09:19:03.658287,1709108343.6582873,577.63671875,-36.62109375,-27.83203125,406.73828125,0.0,-1.0,-1.0,0.0,2.m4v,7.0
2024-02-28 09:19:03.662193,1709108343.6621928,999.51171875,-34.1796875,-29.78515625,999.51171875,0.0,-1.0,-1.0,0.0,2.m4v,7.0
2024-02-28 09:19:03.666098,1709108343.6660984,803.22265625,-45.41015625,-32.71484375,915.52734375,0.0,-1.0,-1.0,0.0,2.m4v,7.0
2024-02-28 09:19:03.670004,1709108343.670004,358.88671875,-44.43359375,-44.921875,973.14453125,0.0,-1.0,-1.0,0.0,2.m4v,7.0
2024-02-28 09:19:03.673910,1709108343.6739097,90.33203125,-38.57421875,-53.22265625,977.5390625,0.0,-1.0,-1.0,0.0,2.m4v,7.0
2024-02-28 09:19:03.677815,1709108343.6778152,104.98046875,-40.0390625,-49.31640625,902.34375,0.0,-1.0,-1.0,0.0,2.m4v,7.0
2024-02-28 09:19:03.681721,1709108343.6817207,274.90234375,-42.48046875,-38.0859375,999.51171875,0.0,-1.0,-1.0,0.0,2.m4v,7.0
2024-02-28 09:19:03.685626,1709108343.6856265,-154.78515625,-46.875,-28.80859375,354.98046875,0.0,-1.0,-1.0,0.0,2.m4v,7.0
2024-02-28 09:19:03.689532,1709108343.6895318,-961.42578125,-39.55078125,-33.203125,-987.79296875,0.0,-1.0,-1.0,0.0,2.m4v,7.0
2024-02-28 09:19:03.693438,1709108343.6934376,-1000.0,-35.64453125,-35.15625,-1000.0,0.0,-1.0,-1.0,0.0,2.m4v,7.0
2024-02-28 09:19:03.697349,1709108343.697349,-726.07421875,-44.921875,-37.109375,-959.9609375,0.0,-1.0,-1.0,0.0,2.m4v,7.0
2024-02-28 09:19:03.701255,1709108343.7012548,-302.24609375,-46.875,-39.55078125,-1000.0,0.0,-1.0,-1.0,0.0,2.m4v,7.0
2024-02-28 09:19:03.705160,1709108343.7051604,-156.73828125,-46.875,-39.55078125,-981.4453125,0.0,-1.0,-1.0,0.0,2.m4v,7.0
2024-02-28 09:19:03.709066,1709108343.709066,-233.3984375,-44.43359375,-40.0390625,-976.5625,0.0,-1.0,-1.0,0.0,2.m4v,7.0
2024-02-28 09:19:03.712971,1709108343.7129714,-287.59765625,-36.62109375,-40.52734375,-1000.0,0.0,-1.0,-1.0,0.0,2.m4v,7.0
2024-02-28 09:19:03.716877,1709108343.716877,401.85546875,-27.83203125,-37.109375,67.3828125,0.0,-1.0,-1.0,0.0,2.m4v,7.0
2024-02-28 09:19:03.720783,1709108343.7207828,999.51171875,-20.99609375,-20.99609375,999.51171875,0.0,-1.0,-1.0,0.0,2.m4v,7.0
2024-02-28 09:19:03.724688,1709108343.7246883,920.8984375,-22.4609375,-12.6953125,929.6875,0.0,-1.0,-1.0,0.0,2.m4v,7.0
2024-02-28 09:19:03.728594,1709108343.7285938,520.01953125,-36.62109375,-20.99609375,958.984375,0.0,-1.0,-1.0,0.0,2.m4v,7.0
2024-02-28 09:19:03.732499,1709108343.7324994,28.3203125,-41.50390625,-36.62109375,983.88671875,0.0,-1.0,-1.0,0.0,2.m4v,7.0
2024-02-28 09:19:03.736405,1709108343.736405,-4.8828125,-37.59765625,-41.9921875,907.71484375,0.0,-1.0,-1.0,0.0,2.m4v,7.0
2024-02-28 09:19:03.740311,1709108343.740311,215.33203125,-33.203125,-39.0625,999.51171875,0.0,-1.0,-1.0,0.0,2.m4v,7.0
2024-02-28 09:19:03.744222,1709108343.744222,-23.92578125,-20.5078125,-43.9453125,585.9375,0.0,-1.0,-1.0,0.0,2.m4v,7.0
2024-02-28 09:19:03.748127,1709108343.7481277,-818.84765625,-20.99609375,-41.015625,-791.015625,0.0,-1.0,-1.0,0.0,2.m4v,7.0
2024-02-28 09:19:03.748127,1709108343.7481277,-818.84765625,-20.99609375,-41.015625,-791.015625,0.0,-1.0,-1.0,0.0,2.m4v,7.0
2024-02-28 09:19:03.752033,1709108343.752033,-1000.0,-37.59765625,-26.3671875,-1000.0,0.0,-1.0,-1.0,0.0,2.m4v,7.0
2024-02-28 09:19:03.752033,1709108343.752033,-1000.0,-37.59765625,-26.3671875,-1000.0,0.0,-1.0,-1.0,0.0,2.m4v,7.0
2024-02-28 09:19:03.755939,1709108343.7559383,-800.29296875,-29.78515625,-22.4609375,-947.265625,0.0,-1.0,-1.0,0.0,2.m4v,7.0
2024-02-28 09:19:03.755939,1709108343.7559383,-800.29296875,-29.78515625,-22.4609375,-947.265625,0.0,-1.0,-1.0,0.0,2.m4v,7.0
2024-02-28 09:19:03.759844,1709108343.759844,-337.40234375,-24.4140625,-32.71484375,-1000.0,0.0,-1.0,-1.0,0.0,2.m4v,7.0
2024-02-28 09:19:03.759844,1709108343.759844,-337.40234375,-24.4140625,-32.71484375,-1000.0,0.0,-1.0,-1.0,0.0,2.m4v,7.0
2024-02-28 09:19:03.763750,1709108343.7637498,-58.59375,-33.69140625,-34.66796875,-1000.0,0.0,-1.0,-1.0,0.0,2.m4v,7.0
2024-02-28 09:19:03.763750,1709108343.7637498,-58.59375,-33.69140625,-34.66796875,-1000.0,0.0,-1.0,-1.0,0.0,2.m4v,7.0
2024-02-28 09:19:03.767655,1709108343.7676554,-72.75390625,-35.15625,-32.2265625,-956.54296875,0.0,-1.0,-1.0,0.0,2.m4v,7.0
2024-02-28 09:19:03.767655,1709108343.7676554,-72.75390625,-35.15625,-32.2265625,-956.54296875,0.0,-1.0,-1.0,0.0,2.m4v,7.0
2024-02-28 09:19:03.771561,1709108343.771561,-296.38671875,-49.8046875,-39.55078125,-1000.0,0.0,-1.0,-1.0,0.0,2.m4v,7.0
2024-02-28 09:19:03.771561,1709108343.771561,-296.38671875,-49.8046875,-39.55078125,-1000.0,0.0,-1.0,-1.0,0.0,2.m4v,7.0
2024-02-28 09:19:03.775466,1709108343.7754664,-165.52734375,-62.01171875,-51.26953125,-827.63671875,0.0,-1.0,-1.0,0.0,2.m4v,7.0
2024-02-28 09:19:03.775466,1709108343.7754664,-165.52734375,-62.01171875,-51.26953125,-827.63671875,0.0,-1.0,-1.0,0.0,2.m4v,7.0
2024-02-28 09:19:03.779372,1709108343.7793722,645.5078125,-53.22265625,-48.33984375,467.28515625,0.0,-1.0,-1.0,0.0,2.m4v,7.0
2024-02-28 09:19:03.779372,1709108343.7793722,645.5078125,-53.22265625,-48.33984375,467.28515625,0.0,-1.0,-1.0,0.0,2.m4v,7.0
2024-02-28 09:19:03.783278,1709108343.7832778,999.51171875,-24.4140625,-23.92578125,999.51171875,0.0,-1.0,-1.0,0.0,2.m4v,7.0
2024-02-28 09:19:03.783278,1709108343.7832778,999.51171875,-24.4140625,-23.92578125,999.51171875,0.0,-1.0,-1.0,0.0,2.m4v,7.0
2024-02-28 09:19:03.787183,1709108343.7871833,817.3828125,-11.71875,-15.13671875,916.015625,0.0,-1.0,-1.0,0.0,2.m4v,7.0
2024-02-28 09:19:03.787183,1709108343.7871833,817.3828125,-11.71875,-15.13671875,916.015625,0.0,-1.0,-1.0,0.0,2.m4v,7.0
2024-02-28 09:19:03.791094,1709108343.7910943,261.23046875,-19.53125,-26.85546875,977.05078125,0.0,-1.0,-1.0,0.0,2.m4v,7.0
2024-02-28 09:19:03.791094,1709108343.7910943,261.23046875,-19.53125,-26.85546875,977.05078125,0.0,-1.0,-1.0,0.0,2.m4v,7.0
2024-02-28 09:19:03.795000,1709108343.7949998,-13.18359375,-26.3671875,-32.2265625,958.49609375,0.0,-1.0,-1.0,0.0,2.m4v,7.0
2024-02-28 09:19:03.795000,1709108343.7949998,-13.18359375,-26.3671875,-32.2265625,958.49609375,0.0,-1.0,-1.0,0.0,2.m4v,7.0
2024-02-28 09:19:03.798905,1709108343.7989054,144.53125,-38.0859375,-37.109375,931.15234375,0.0,-1.0,-1.0,0.0,2.m4v,7.0
2024-02-28 09:19:03.798905,1709108343.7989054,144.53125,-38.0859375,-37.109375,931.15234375,0.0,-1.0,-1.0,0.0,2.m4v,7.0
2024-02-28 09:19:03.802811,1709108343.8028111,257.32421875,-42.96875,-40.52734375,999.51171875,0.0,-1.0,-1.0,0.0,2.m4v,7.0
2024-02-28 09:19:03.802811,1709108343.8028111,257.32421875,-42.96875,-40.52734375,999.51171875,0.0,-1.0,-1.0,0.0,2.m4v,7.0
2024-02-28 09:19:03.806717,1709108343.806717,-379.8828125,-38.57421875,-38.57421875,11.23046875,0.0,-1.0,-1.0,0.0,2.m4v,7.0
2024-02-28 09:19:03.806717,1709108343.806717,-379.8828125,-38.57421875,-38.57421875,11.23046875,0.0,-1.0,-1.0,0.0,2.m4v,7.0
2024-02-28 09:19:03.810622,1709108343.8106222,-1000.0,-44.921875,-34.66796875,-1000.0,0.0,-1.0,-1.0,0.0,2.m4v,7.0
2024-02-28 09:19:03.810622,1709108343.8106222,-1000.0,-44.921875,-34.66796875,-1000.0,0.0,-1.0,-1.0,0.0,2.m4v,7.0
2024-02-28 09:19:03.814528,1709108343.8145278,-947.265625,-50.29296875,-30.76171875,-968.75,0.0,-1.0,-1.0,0.0,2.m4v,7.0
2024-02-28 09:19:03.814528,1709108343.8145278,-947.265625,-50.29296875,-30.76171875,-968.75,0.0,-1.0,-1.0,0.0,2.m4v,7.0
2024-02-28 09:19:03.818433,1709108343.8184333,-631.8359375,-31.25,-41.50390625,-983.3984375,0.0,-1.0,-1.0,0.0,2.m4v,7.0
2024-02-28 09:19:03.818433,1709108343.8184333,-631.8359375,-31.25,-41.50390625,-983.3984375,0.0,-1.0,-1.0,0.0,2.m4v,7.0
2024-02-28 09:19:03.822339,1709108343.822339,-249.0234375,-23.4375,-41.9921875,-1000.0,0.0,-1.0,-1.0,0.0,2.m4v,7.0
2024-02-28 09:19:03.822339,1709108343.822339,-249.0234375,-23.4375,-41.9921875,-1000.0,0.0,-1.0,-1.0,0.0,2.m4v,7.0
2024-02-28 09:19:03.826245,1709108343.8262446,-114.74609375,-34.66796875,-36.1328125,-951.66015625,0.0,-1.0,-1.0,0.0,2.m4v,7.0
2024-02-28 09:19:03.826245,1709108343.8262446,-114.74609375,-34.66796875,-36.1328125,-951.66015625,0.0,-1.0,-1.0,0.0,2.m4v,7.0
2024-02-28 09:19:03.830150,1709108343.83015,-322.265625,-29.78515625,-41.015625,-1000.0,0.0,-1.0,-1.0,0.0,2.m4v,7.0
2024-02-28 09:19:03.830150,1709108343.83015,-322.265625,-29.78515625,-41.015625,-1000.0,0.0,-1.0,-1.0,0.0,2.m4v,7.0
2024-02-28 09:19:03.834056,1709108343.8340557,-278.3203125,-34.1796875,-37.59765625,-809.5703125,0.0,-1.0,-1.0,0.0,2.m4v,7.0
2024-02-28 09:19:03.834056,1709108343.8340557,-278.3203125,-34.1796875,-37.59765625,-809.5703125,0.0,-1.0,-1.0,0.0,2.m4v,7.0
2024-02-28 09:19:03.837966,1709108343.8379662,598.6328125,-41.9921875,-33.69140625,524.90234375,0.0,-1.0,-1.0,0.0,2.m4v,7.0
2024-02-28 09:19:03.837966,1709108343.8379662,598.6328125,-41.9921875,-33.69140625,524.90234375,0.0,-1.0,-1.0,0.0,2.m4v,7.0
2024-02-28 09:19:03.841872,1709108343.8418715,999.51171875,-28.3203125,-49.31640625,999.51171875,0.0,-1.0,-1.0,0.0,2.m4v,7.0
2024-02-28 09:19:03.841872,1709108343.8418715,999.51171875,-28.3203125,-49.31640625,999.51171875,0.0,-1.0,-1.0,0.0,2.m4v,7.0
2024-02-28 09:19:03.845777,1709108343.8457773,872.0703125,-21.97265625,-43.45703125,912.59765625,0.0,-1.0,-1.0,0.0,2.m4v,7.0
2024-02-28 09:19:03.845777,1709108343.8457773,872.0703125,-21.97265625,-43.45703125,912.59765625,0.0,-1.0,-1.0,0.0,2.m4v,7.0
2024-02-28 09:19:03.849683,1709108343.849683,455.56640625,-40.52734375,-11.23046875,978.515625,0.0,-1.0,-1.0,0.0,2.m4v,7.0
2024-02-28 09:19:03.849683,1709108343.849683,455.56640625,-40.52734375,-11.23046875,978.515625,0.0,-1.0,-1.0,0.0,2.m4v,7.0
2024-02-28 09:19:03.853589,1709108343.8535886,45.8984375,-44.43359375,-23.92578125,963.8671875,0.0,-1.0,-1.0,0.0,2.m4v,7.0
2024-02-28 09:19:03.853589,1709108343.8535886,45.8984375,-44.43359375,-23.92578125,963.8671875,0.0,-1.0,-1.0,0.0,2.m4v,7.0
2024-02-28 09:19:03.857494,1709108343.857494,118.65234375,-33.69140625,-39.55078125,918.45703125,0.0,-1.0,-1.0,0.0,2.m4v,7.0
2024-02-28 09:19:03.857494,1709108343.857494,118.65234375,-33.69140625,-39.55078125,918.45703125,0.0,-1.0,-1.0,0.0,2.m4v,7.0
2024-02-28 09:19:03.861400,1709108343.8613997,332.51953125,-34.1796875,-37.59765625,999.51171875,0.0,-1.0,-1.0,0.0,2.m4v,7.0
2024-02-28 09:19:03.861400,1709108343.8613997,332.51953125,-34.1796875,-37.59765625,999.51171875,0.0,-1.0,-1.0,0.0,2.m4v,7.0
2024-02-28 09:19:03.865305,1709108343.8653052,-302.24609375,-29.78515625,-38.0859375,90.33203125,0.0,-1.0,-1.0,0.0,2.m4v,7.0
2024-02-28 09:19:03.865305,1709108343.8653052,-302.24609375,-29.78515625,-38.0859375,90.33203125,0.0,-1.0,-1.0,0.0,2.m4v,7.0
2024-02-28 09:19:03.869211,1709108343.869211,-1000.0,-29.78515625,-29.78515625,-1000.0,0.0,-1.0,-1.0,0.0,2.m4v,7.0
2024-02-28 09:19:03.869211,1709108343.869211,-1000.0,-29.78515625,-29.78515625,-1000.0,0.0,-1.0,-1.0,0.0,2.m4v,7.0
2024-02-28 09:19:03.873116,1709108343.8731165,-993.1640625,-37.109375,-36.1328125,-973.6328125,0.0,-1.0,-1.0,0.0,2.m4v,7.0
2024-02-28 09:19:03.873116,1709108343.8731165,-993.1640625,-37.109375,-36.1328125,-973.6328125,0.0,-1.0,-1.0,0.0,2.m4v,7.0
2024-02-28 09:19:03.877022,1709108343.877022,-711.42578125,-34.66796875,-49.31640625,-979.4921875,0.0,-1.0,-1.0,0.0,2.m4v,7.0
2024-02-28 09:19:03.877022,1709108343.877022,-711.42578125,-34.66796875,-49.31640625,-979.4921875,0.0,-1.0,-1.0,0.0,2.m4v,7.0
2024-02-28 09:19:03.880928,1709108343.8809276,-257.32421875,-31.25,-40.0390625,-1000.0,0.0,-1.0,-1.0,0.0,2.m4v,7.0
2024-02-28 09:19:03.880928,1709108343.8809276,-257.32421875,-31.25,-40.0390625,-1000.0,0.0,-1.0,-1.0,0.0,2.m4v,7.0
2024-02-28 09:19:03.884838,1709108343.8848376,-89.84375,-35.64453125,-29.78515625,-1000.0,0.0,-1.0,-1.0,0.0,2.m4v,7.0
2024-02-28 09:19:03.884838,1709108343.8848376,-89.84375,-35.64453125,-29.78515625,-1000.0,0.0,-1.0,-1.0,0.0,2.m4v,7.0
2024-02-28 09:19:03.888743,1709108343.8887434,-183.10546875,-33.203125,-34.66796875,-947.265625,0.0,-1.0,-1.0,0.0,2.m4v,7.0
2024-02-28 09:19:03.888743,1709108343.8887434,-183.10546875,-33.203125,-34.66796875,-947.265625,0.0,-1.0,-1.0,0.0,2.m4v,7.0
2024-02-28 09:19:03.892649,1709108343.892649,-337.40234375,-36.1328125,-30.2734375,-1000.0,0.0,-1.0,-1.0,0.0,2.m4v,7.0
2024-02-28 09:19:03.892649,1709108343.892649,-337.40234375,-36.1328125,-30.2734375,-1000.0,0.0,-1.0,-1.0,0.0,2.m4v,7.0
2024-02-28 09:19:03.896554,1709108343.8965545,51.26953125,-36.62109375,-21.97265625,-695.80078125,0.0,-1.0,-1.0,0.0,2.m4v,7.0
2024-02-28 09:19:03.896554,1709108343.8965545,51.26953125,-36.62109375,-21.97265625,-695.80078125,0.0,-1.0,-1.0,0.0,2.m4v,7.0
2024-02-28 09:19:03.900460,1709108343.90046,814.453125,-36.62109375,-28.80859375,637.20703125,0.0,-1.0,-1.0,0.0,2.m4v,7.0
2024-02-28 09:19:03.900460,1709108343.90046,814.453125,-36.62109375,-28.80859375,637.20703125,0.0,-1.0,-1.0,0.0,2.m4v,7.0
2024-02-28 09:19:03.904366,1709108343.9043658,999.51171875,-33.69140625,-32.2265625,999.51171875,0.0,-1.0,-1.0,0.0,2.m4v,7.0
2024-02-28 09:19:03.904366,1709108343.9043658,999.51171875,-33.69140625,-32.2265625,999.51171875,0.0,-1.0,-1.0,0.0,2.m4v,7.0
2024-02-28 09:19:03.908271,1709108343.9082713,738.76953125,-23.92578125,-55.17578125,916.9921875,0.0,-1.0,-1.0,0.0,2.m4v,7.0
2024-02-28 09:19:03.908271,1709108343.9082713,738.76953125,-23.92578125,-55.17578125,916.9921875,0.0,-1.0,-1.0,0.0,2.m4v,7.0
2024-02-28 09:19:03.912177,1709108343.9121768,204.58984375,-27.83203125,-65.4296875,988.28125,0.0,-1.0,-1.0,0.0,2.m4v,7.0
2024-02-28 09:19:03.912177,1709108343.9121768,204.58984375,-27.83203125,-65.4296875,988.28125,0.0,-1.0,-1.0,0.0,2.m4v,7.0
2024-02-28 09:19:03.916082,1709108343.9160824,-1.953125,-36.62109375,-40.0390625,906.25,0.0,-1.0,-1.0,0.0,2.m4v,7.0
2024-02-28 09:19:03.916082,1709108343.9160824,-1.953125,-36.62109375,-40.0390625,906.25,0.0,-1.0,-1.0,0.0,2.m4v,7.0
2024-02-28 09:19:03.919988,1709108343.919988,198.2421875,-34.66796875,-22.94921875,999.51171875,0.0,-1.0,-1.0,0.0,2.m4v,7.0
2024-02-28 09:19:03.919988,1709108343.919988,198.2421875,-34.66796875,-22.94921875,999.51171875,0.0,-1.0,-1.0,0.0,2.m4v,7.0
2024-02-28 09:19:03.923894,1709108343.9238937,-30.2734375,-41.9921875,-27.34375,543.9453125,0.0,-1.0,-1.0,0.0,2.m4v,7.0
2024-02-28 09:19:03.923894,1709108343.9238937,-30.2734375,-41.9921875,-27.34375,543.9453125,0.0,-1.0,-1.0,0.0,2.m4v,7.0
2024-02-28 09:19:03.927799,1709108343.9277992,-836.42578125,-46.875,-35.15625,-832.03125,0.0,-1.0,-1.0,0.0,2.m4v,7.0
2024-02-28 09:19:03.927799,1709108343.9277992,-836.42578125,-46.875,-35.15625,-832.03125,0.0,-1.0,-1.0,0.0,2.m4v,7.0
2024-02-28 09:19:03.931712,1709108343.931712,-1000.0,-38.57421875,-24.90234375,-1000.0,0.0,-1.0,-1.0,0.0,2.m4v,7.0
2024-02-28 09:19:03.931712,1709108343.931712,-1000.0,-38.57421875,-24.90234375,-1000.0,0.0,-1.0,-1.0,0.0,2.m4v,7.0
2024-02-28 09:19:03.935617,1709108343.9356174,-844.7265625,-38.57421875,-25.87890625,-949.21875,0.0,-1.0,-1.0,0.0,2.m4v,7.0
2024-02-28 09:19:03.935617,1709108343.9356174,-844.7265625,-38.57421875,-25.87890625,-949.21875,0.0,-1.0,-1.0,0.0,2.m4v,7.0
2024-02-28 09:19:03.939523,1709108343.9395232,-416.50390625,-32.2265625,-40.0390625,-1000.0,0.0,-1.0,-1.0,0.0,2.m4v,7.0
2024-02-28 09:19:03.939523,1709108343.9395232,-416.50390625,-32.2265625,-40.0390625,-1000.0,0.0,-1.0,-1.0,0.0,2.m4v,7.0
2024-02-28 09:19:03.943429,1709108343.9434288,-59.08203125,-22.4609375,-35.64453125,-994.140625,0.0,-1.0,-1.0,0.0,2.m4v,7.0
2024-02-28 09:19:03.943429,1709108343.9434288,-59.08203125,-22.4609375,-35.64453125,-994.140625,0.0,-1.0,-1.0,0.0,2.m4v,7.0
2024-02-28 09:19:03.947334,1709108343.9473343,-44.921875,-30.76171875,-27.83203125,-949.21875,0.0,-1.0,-1.0,0.0,2.m4v,7.0
2024-02-28 09:19:03.947334,1709108343.9473343,-44.921875,-30.76171875,-27.83203125,-949.21875,0.0,-1.0,-1.0,0.0,2.m4v,7.0
2024-02-28 09:19:03.951240,1709108343.9512398,-286.1328125,-35.15625,-24.90234375,-1000.0,0.0,-1.0,-1.0,0.0,2.m4v,7.0
2024-02-28 09:19:03.951240,1709108343.9512398,-286.1328125,-35.15625,-24.90234375,-1000.0,0.0,-1.0,-1.0,0.0,2.m4v,7.0
2024-02-28 09:19:03.955145,1709108343.9551454,270.5078125,-27.83203125,-29.78515625,-120.1171875,0.0,-1.0,-1.0,0.0,2.m4v,7.0
2024-02-28 09:19:03.955145,1709108343.9551454,270.5078125,-27.83203125,-29.78515625,-120.1171875,0.0,-1.0,-1.0,0.0,2.m4v,7.0
2024-02-28 09:19:03.959051,1709108343.9590511,999.51171875,-23.92578125,-28.3203125,999.51171875,0.0,-1.0,-1.0,0.0,2.m4v,7.0
2024-02-28 09:19:03.959051,1709108343.9590511,999.51171875,-23.92578125,-28.3203125,999.51171875,0.0,-1.0,-1.0,0.0,2.m4v,7.0
2024-02-28 09:19:03.962957,1709108343.962957,926.26953125,-28.3203125,-27.34375,942.87109375,0.0,-1.0,-1.0,0.0,2.m4v,7.0
2024-02-28 09:19:03.962957,1709108343.962957,926.26953125,-28.3203125,-27.34375,942.87109375,0.0,-1.0,-1.0,0.0,2.m4v,7.0
2024-02-28 09:19:03.966862,1709108343.9668622,557.6171875,-37.59765625,-44.921875,949.21875,0.0,-1.0,-1.0,0.0,2.m4v,7.0
2024-02-28 09:19:03.966862,1709108343.9668622,557.6171875,-37.59765625,-44.921875,949.21875,0.0,-1.0,-1.0,0.0,2.m4v,7.0
2024-02-28 09:19:03.970768,1709108343.9707675,24.90234375,-36.62109375,-46.38671875,977.5390625,0.0,-1.0,-1.0,0.0,2.m4v,7.0
2024-02-28 09:19:03.970768,1709108343.9707675,24.90234375,-36.62109375,-46.38671875,977.5390625,0.0,-1.0,-1.0,0.0,2.m4v,7.0
2024-02-28 09:19:03.974673,1709108343.9746733,-90.8203125,-28.80859375,-30.76171875,959.9609375,0.0,-1.0,-1.0,0.0,2.m4v,7.0
2024-02-28 09:19:03.974673,1709108343.9746733,-90.8203125,-28.80859375,-30.76171875,959.9609375,0.0,-1.0,-1.0,0.0,2.m4v,7.0
2024-02-28 09:19:03.978586,1709108343.9785855,99.12109375,-33.69140625,-25.390625,926.26953125,0.0,-1.0,-1.0,0.0,2.m4v,7.0
2024-02-28 09:19:03.978586,1709108343.9785855,99.12109375,-33.69140625,-25.390625,926.26953125,0.0,-1.0,-1.0,0.0,2.m4v,7.0
2024-02-28 09:19:03.982491,1709108343.9824913,245.60546875,-33.203125,-28.80859375,999.51171875,0.0,-1.0,-1.0,0.0,2.m4v,7.0
2024-02-28 09:19:03.982491,1709108343.9824913,245.60546875,-33.203125,-28.80859375,999.51171875,0.0,-1.0,-1.0,0.0,2.m4v,7.0
2024-02-28 09:19:03.986397,1709108343.986397,-361.81640625,-38.0859375,-31.73828125,39.55078125,0.0,-1.0,-1.0,0.0,2.m4v,7.0
2024-02-28 09:19:03.986397,1709108343.986397,-361.81640625,-38.0859375,-31.73828125,39.55078125,0.0,-1.0,-1.0,0.0,2.m4v,7.0
2024-02-28 09:19:03.990303,1709108343.9903026,-1000.0,-42.48046875,-30.2734375,-1000.0,0.0,-1.0,-1.0,0.0,2.m4v,7.0
2024-02-28 09:19:03.990303,1709108343.9903026,-1000.0,-42.48046875,-30.2734375,-1000.0,0.0,-1.0,-1.0,0.0,2.m4v,7.0
2024-02-28 09:19:03.994208,1709108343.994208,-950.1953125,-41.50390625,-34.66796875,-970.21484375,0.0,-1.0,-1.0,0.0,2.m4v,7.0
2024-02-28 09:19:03.994208,1709108343.994208,-950.1953125,-41.50390625,-34.66796875,-970.21484375,0.0,-1.0,-1.0,0.0,2.m4v,7.0
2024-02-28 09:19:03.998114,1709108343.9981136,-524.4140625,-46.875,-45.8984375,-981.93359375,0.0,-1.0,-1.0,0.0,2.m4v,7.0
2024-02-28 09:19:03.998114,1709108343.9981136,-524.4140625,-46.875,-45.8984375,-981.93359375,0.0,-1.0,-1.0,0.0,2.m4v,7.0
2024-02-28 09:19:04.002019,1709108344.0020194,-98.14453125,-43.45703125,-43.9453125,-1000.0,0.0,-1.0,-1.0,0.0,2.m4v,7.0
2024-02-28 09:19:04.002019,1709108344.0020194,-98.14453125,-43.45703125,-43.9453125,-1000.0,0.0,-1.0,-1.0,0.0,2.m4v,7.0
