Timestamp,Timestamp_UNIX,TP9,AF7,AF8,TP10,Valence,Arousal,Dominace,Viewed,Video,Participant
2024-02-27 13:41:36.006890,1709037696.0068896,-439.453125,945.80078125,-173.33984375,-41.50390625,-1.0,1.0,1.0,0.0,4.m4v,4.0
2024-02-27 13:41:36.014701,1709037696.014701,633.30078125,896.484375,914.0625,-22.94921875,-1.0,1.0,1.0,0.0,4.m4v,4.0
2024-02-27 13:41:36.182677,1709037696.182677,376.46484375,-998.046875,-448.73046875,-45.8984375,-1.0,1.0,1.0,0.0,4.m4v,4.0
2024-02-27 13:41:36.186583,1709037696.1865826,-1000.0,-957.03125,-722.16796875,-53.22265625,-1.0,1.0,1.0,0.0,4.m4v,4.0
2024-02-27 13:41:36.190488,1709037696.1904883,-730.95703125,-1000.0,-268.06640625,-39.55078125,-1.0,1.0,1.0,0.0,4.m4v,4.0
2024-02-27 13:41:36.194394,1709037696.194394,629.39453125,-21.484375,596.19140625,-10.25390625,-1.0,1.0,1.0,0.0,4.m4v,4.0
2024-02-27 13:41:36.198299,1709037696.1982994,996.58203125,999.51171875,625.0,-19.04296875,-1.0,1.0,1.0,0.0,4.m4v,4.0
2024-02-27 13:41:36.202205,1709037696.202205,953.125,927.734375,174.8046875,-41.015625,-1.0,1.0,1.0,0.0,4.m4v,4.0
2024-02-27 13:41:36.206111,1709037696.2061107,810.05859375,957.03125,98.6328125,-34.66796875,-1.0,1.0,1.0,0.0,4.m4v,4.0
2024-02-27 13:41:36.210016,1709037696.2100165,-497.0703125,972.65625,154.78515625,-36.1328125,-1.0,1.0,1.0,0.0,4.m4v,4.0
2024-02-27 13:41:36.213922,1709037696.2139218,-400.87890625,973.14453125,562.5,-31.73828125,-1.0,1.0,1.0,0.0,4.m4v,4.0
2024-02-27 13:41:36.217828,1709037696.2178276,954.58984375,904.296875,636.23046875,-24.4140625,-1.0,1.0,1.0,0.0,4.m4v,4.0
2024-02-27 13:41:36.221733,1709037696.221733,911.1328125,999.51171875,301.7578125,-26.85546875,-1.0,1.0,1.0,0.0,4.m4v,4.0
2024-02-27 13:41:36.225639,1709037696.2256386,-300.78125,231.4453125,-157.2265625,-45.41015625,-1.0,1.0,1.0,0.0,4.m4v,4.0
2024-02-27 13:41:36.229551,1709037696.2295513,-1000.0,-1000.0,-478.515625,-54.6875,-1.0,1.0,1.0,0.0,4.m4v,4.0
2024-02-27 13:41:36.233457,1709037696.2334569,-982.421875,-990.72265625,-12.6953125,-36.1328125,-1.0,1.0,1.0,0.0,4.m4v,4.0
2024-02-27 13:41:36.237363,1709037696.2373626,181.15234375,-977.05078125,394.04296875,-19.53125,-1.0,1.0,1.0,0.0,4.m4v,4.0
2024-02-27 13:41:36.241268,1709037696.2412682,667.48046875,-977.5390625,-67.87109375,-36.62109375,-1.0,1.0,1.0,0.0,4.m4v,4.0
2024-02-27 13:41:36.245174,1709037696.2451737,-844.7265625,-993.1640625,-698.2421875,-62.01171875,-1.0,1.0,1.0,0.0,4.m4v,4.0
2024-02-27 13:41:36.249079,1709037696.2490797,-833.49609375,-1000.0,-243.1640625,-49.31640625,-1.0,1.0,1.0,0.0,4.m4v,4.0
2024-02-27 13:41:36.252985,1709037696.252985,548.33984375,230.46875,770.5078125,-19.53125,-1.0,1.0,1.0,0.0,4.m4v,4.0
2024-02-27 13:41:36.256891,1709037696.2568903,999.51171875,999.51171875,876.953125,-16.6015625,-1.0,1.0,1.0,0.0,4.m4v,4.0
2024-02-27 13:41:36.260796,1709037696.260796,594.7265625,999.51171875,152.83203125,-41.9921875,-1.0,1.0,1.0,0.0,4.m4v,4.0
2024-02-27 13:41:36.264702,1709037696.2647018,-596.6796875,175.29296875,-567.87109375,-61.03515625,-1.0,1.0,1.0,0.0,4.m4v,4.0
2024-02-27 13:41:36.268607,1709037696.2686074,-1000.0,-1000.0,-622.0703125,-48.33984375,-1.0,1.0,1.0,0.0,4.m4v,4.0
2024-02-27 13:41:36.272513,1709037696.272513,-701.66015625,-1000.0,47.8515625,-25.390625,-1.0,1.0,1.0,0.0,4.m4v,4.0
2024-02-27 13:41:36.276428,1709037696.2764275,476.5625,-780.2734375,451.66015625,-25.87890625,-1.0,1.0,1.0,0.0,4.m4v,4.0
2024-02-27 13:41:36.280333,1709037696.2803333,999.51171875,574.21875,354.4921875,-40.0390625,-1.0,1.0,1.0,0.0,4.m4v,4.0
2024-02-27 13:41:36.284239,1709037696.2842388,953.61328125,999.51171875,129.8828125,-42.48046875,-1.0,1.0,1.0,0.0,4.m4v,4.0
2024-02-27 13:41:36.288144,1709037696.2881444,1.953125,907.71484375,-28.3203125,-41.9921875,-1.0,1.0,1.0,0.0,4.m4v,4.0
2024-02-27 13:41:36.292050,1709037696.29205,-551.26953125,980.95703125,351.5625,-35.15625,-1.0,1.0,1.0,0.0,4.m4v,4.0
2024-02-27 13:41:36.295956,1709037696.2959557,702.63671875,907.71484375,939.453125,-17.578125,-1.0,1.0,1.0,0.0,4.m4v,4.0
2024-02-27 13:41:36.299861,1709037696.2998612,952.63671875,999.51171875,751.46484375,-31.25,-1.0,1.0,1.0,0.0,4.m4v,4.0
2024-02-27 13:41:36.303767,1709037696.3037667,-393.06640625,176.7578125,-290.52734375,-63.4765625,-1.0,1.0,1.0,0.0,4.m4v,4.0
2024-02-27 13:41:36.307673,1709037696.3076725,-1000.0,-1000.0,-695.80078125,-53.7109375,-1.0,1.0,1.0,0.0,4.m4v,4.0
2024-02-27 13:41:36.311578,1709037696.311578,-1000.0,-930.17578125,-105.95703125,-39.55078125,-1.0,1.0,1.0,0.0,4.m4v,4.0
2024-02-27 13:41:36.315484,1709037696.3154836,-94.7265625,-1000.0,440.4296875,-45.41015625,-1.0,1.0,1.0,0.0,4.m4v,4.0
2024-02-27 13:41:36.319389,1709037696.319389,999.51171875,-113.28125,426.7578125,-38.0859375,-1.0,1.0,1.0,0.0,4.m4v,4.0
2024-02-27 13:41:36.323301,1709037696.3233008,892.08984375,999.51171875,-24.90234375,-39.55078125,-1.0,1.0,1.0,0.0,4.m4v,4.0
2024-02-27 13:41:36.327206,1709037696.3272064,-277.34375,938.4765625,-259.765625,-48.828125,-1.0,1.0,1.0,0.0,4.m4v,4.0
2024-02-27 13:41:36.331112,1709037696.331112,-907.71484375,951.171875,142.08984375,-35.15625,-1.0,1.0,1.0,0.0,4.m4v,4.0
2024-02-27 13:41:36.335018,1709037696.3350177,385.7421875,983.88671875,772.4609375,-27.34375,-1.0,1.0,1.0,0.0,4.m4v,4.0
2024-02-27 13:41:36.338923,1709037696.3389232,999.51171875,931.640625,660.15625,-42.48046875,-1.0,1.0,1.0,0.0,4.m4v,4.0
2024-02-27 13:41:36.342829,1709037696.3428288,487.79296875,981.4453125,230.95703125,-47.36328125,-1.0,1.0,1.0,0.0,4.m4v,4.0
2024-02-27 13:41:36.346735,1709037696.3467343,-528.3203125,956.54296875,252.44140625,-49.8046875,-1.0,1.0,1.0,0.0,4.m4v,4.0
2024-02-27 13:41:36.350640,1709037696.35064,-1000.0,-363.28125,166.9921875,-52.734375,-1.0,1.0,1.0,0.0,4.m4v,4.0
2024-02-27 13:41:36.354546,1709037696.3545456,-973.6328125,-1000.0,321.77734375,-38.57421875,-1.0,1.0,1.0,0.0,4.m4v,4.0
2024-02-27 13:41:36.358451,1709037696.3584514,-406.25,-936.03515625,388.18359375,-35.64453125,-1.0,1.0,1.0,0.0,4.m4v,4.0
2024-02-27 13:41:36.362357,1709037696.362357,-415.0390625,-1000.0,-206.0546875,-51.26953125,-1.0,1.0,1.0,0.0,4.m4v,4.0
2024-02-27 13:41:36.366262,1709037696.3662624,-1000.0,-938.4765625,-597.16796875,-52.734375,-1.0,1.0,1.0,0.0,4.m4v,4.0
2024-02-27 13:41:36.370177,1709037696.370177,-816.40625,-1000.0,-230.95703125,-42.48046875,-1.0,1.0,1.0,0.0,4.m4v,4.0
2024-02-27 13:41:36.374083,1709037696.3740826,455.078125,-207.03125,633.7890625,-21.484375,-1.0,1.0,1.0,0.0,4.m4v,4.0
2024-02-27 13:41:36.377988,1709037696.377988,999.51171875,999.51171875,943.84765625,-11.23046875,-1.0,1.0,1.0,0.0,4.m4v,4.0
2024-02-27 13:41:36.381894,1709037696.3818936,999.51171875,951.66015625,397.94921875,-35.15625,-1.0,1.0,1.0,0.0,4.m4v,4.0
2024-02-27 13:41:36.385799,1709037696.3857994,33.69140625,943.359375,-100.5859375,-48.828125,-1.0,1.0,1.0,0.0,4.m4v,4.0
2024-02-27 13:41:36.389705,1709037696.389705,-792.48046875,981.93359375,330.078125,-35.15625,-1.0,1.0,1.0,0.0,4.m4v,4.0
2024-02-27 13:41:36.393610,1709037696.3936105,543.9453125,945.3125,999.51171875,-22.94921875,-1.0,1.0,1.0,0.0,4.m4v,4.0
2024-02-27 13:41:36.397516,1709037696.3975165,999.51171875,950.1953125,783.203125,-30.2734375,-1.0,1.0,1.0,0.0,4.m4v,4.0
2024-02-27 13:41:36.401422,1709037696.4014218,-23.4375,999.51171875,242.1875,-42.96875,-1.0,1.0,1.0,0.0,4.m4v,4.0
2024-02-27 13:41:36.405327,1709037696.405327,-990.234375,-181.15234375,-332.51953125,-55.17578125,-1.0,1.0,1.0,0.0,4.m4v,4.0
2024-02-27 13:41:36.409233,1709037696.4092329,-982.421875,-1000.0,-463.8671875,-51.26953125,-1.0,1.0,1.0,0.0,4.m4v,4.0
2024-02-27 13:41:36.413139,1709037696.4131386,-956.0546875,-943.84765625,103.02734375,-36.62109375,-1.0,1.0,1.0,0.0,4.m4v,4.0
2024-02-27 13:41:36.417053,1709037696.4170527,252.44140625,-997.55859375,403.3203125,-21.484375,-1.0,1.0,1.0,0.0,4.m4v,4.0
2024-02-27 13:41:36.420959,1709037696.4209585,833.0078125,-1000.0,23.4375,-27.83203125,-1.0,1.0,1.0,0.0,4.m4v,4.0
2024-02-27 13:41:36.424864,1709037696.424864,-494.140625,-951.66015625,-597.16796875,-51.26953125,-1.0,1.0,1.0,0.0,4.m4v,4.0
2024-02-27 13:41:36.428770,1709037696.4287696,-1000.0,-1000.0,-575.68359375,-61.03515625,-1.0,1.0,1.0,0.0,4.m4v,4.0
2024-02-27 13:41:36.432675,1709037696.4326754,-203.61328125,-904.78515625,139.6484375,-42.48046875,-1.0,1.0,1.0,0.0,4.m4v,4.0
2024-02-27 13:41:36.436581,1709037696.436581,952.63671875,470.703125,891.11328125,-23.92578125,-1.0,1.0,1.0,0.0,4.m4v,4.0
2024-02-27 13:41:36.440486,1709037696.4404864,999.51171875,999.51171875,781.25,-30.76171875,-1.0,1.0,1.0,0.0,4.m4v,4.0
2024-02-27 13:41:36.444392,1709037696.4443922,476.07421875,999.51171875,57.12890625,-45.41015625,-1.0,1.0,1.0,0.0,4.m4v,4.0
2024-02-27 13:41:36.448298,1709037696.4482975,-750.0,175.78125,-298.828125,-58.59375,-1.0,1.0,1.0,0.0,4.m4v,4.0
2024-02-27 13:41:36.452203,1709037696.4522033,-1000.0,-1000.0,-59.08203125,-56.640625,-1.0,1.0,1.0,0.0,4.m4v,4.0
2024-02-27 13:41:36.456109,1709037696.4561088,-512.20703125,-1000.0,272.94921875,-42.96875,-1.0,1.0,1.0,0.0,4.m4v,4.0
2024-02-27 13:41:36.460015,1709037696.4600146,571.2890625,-386.23046875,210.44921875,-37.109375,-1.0,1.0,1.0,0.0,4.m4v,4.0
2024-02-27 13:41:36.463928,1709037696.4639285,999.51171875,956.54296875,76.171875,-33.69140625,-1.0,1.0,1.0,0.0,4.m4v,4.0
2024-02-27 13:41:36.467834,1709037696.467834,635.25390625,986.81640625,-65.91796875,-31.73828125,-1.0,1.0,1.0,0.0,4.m4v,4.0
2024-02-27 13:41:36.471740,1709037696.4717395,-149.4140625,927.24609375,210.9375,-37.59765625,-1.0,1.0,1.0,0.0,4.m4v,4.0
2024-02-27 13:41:36.475645,1709037696.475645,485.3515625,987.79296875,718.75,-33.69140625,-1.0,1.0,1.0,0.0,4.m4v,4.0
2024-02-27 13:41:36.479551,1709037696.4795508,986.81640625,944.3359375,429.19921875,-36.1328125,-1.0,1.0,1.0,0.0,4.m4v,4.0
2024-02-27 13:41:36.483456,1709037696.4834564,-270.99609375,954.1015625,-102.05078125,-49.31640625,-1.0,1.0,1.0,0.0,4.m4v,4.0
2024-02-27 13:41:36.487362,1709037696.487362,-1000.0,999.51171875,72.75390625,-45.41015625,-1.0,1.0,1.0,0.0,4.m4v,4.0
2024-02-27 13:41:36.491268,1709037696.4912677,-967.28515625,-197.75390625,298.33984375,-41.50390625,-1.0,1.0,1.0,0.0,4.m4v,4.0
2024-02-27 13:41:36.495173,1709037696.4951732,-937.5,-1000.0,391.6015625,-41.9921875,-1.0,1.0,1.0,0.0,4.m4v,4.0
2024-02-27 13:41:36.499079,1709037696.4990788,-551.7578125,-946.77734375,166.50390625,-34.66796875,-1.0,1.0,1.0,0.0,4.m4v,4.0
2024-02-27 13:41:36.502984,1709037696.5029843,-587.40234375,-985.3515625,-316.89453125,-41.50390625,-1.0,1.0,1.0,0.0,4.m4v,4.0
2024-02-27 13:41:36.506890,1709037696.50689,-1000.0,-958.984375,-417.96875,-45.41015625,-1.0,1.0,1.0,0.0,4.m4v,4.0
2024-02-27 13:41:36.510803,1709037696.5108032,-463.8671875,-1000.0,44.43359375,-32.71484375,-1.0,1.0,1.0,0.0,4.m4v,4.0
2024-02-27 13:41:36.514709,1709037696.5147088,837.890625,1.953125,773.92578125,-17.08984375,-1.0,1.0,1.0,0.0,4.m4v,4.0
2024-02-27 13:41:36.518615,1709037696.5186143,951.171875,999.51171875,870.1171875,-22.4609375,-1.0,1.0,1.0,0.0,4.m4v,4.0
2024-02-27 13:41:36.522520,1709037696.52252,999.51171875,999.51171875,479.4921875,-33.69140625,-1.0,1.0,1.0,0.0,4.m4v,4.0
2024-02-27 13:41:36.526426,1709037696.5264256,177.734375,703.125,56.15234375,-43.9453125,-1.0,1.0,1.0,0.0,4.m4v,4.0
2024-02-27 13:41:36.530331,1709037696.5303314,-1000.0,-702.63671875,142.08984375,-55.17578125,-1.0,1.0,1.0,0.0,4.m4v,4.0
2024-02-27 13:41:36.534237,1709037696.534237,-489.74609375,-1000.0,867.1875,-33.203125,-1.0,1.0,1.0,0.0,4.m4v,4.0
2024-02-27 13:41:36.538142,1709037696.5381424,354.00390625,-937.98828125,631.8359375,-29.78515625,-1.0,1.0,1.0,0.0,4.m4v,4.0
2024-02-27 13:41:36.542048,1709037696.542048,-618.1640625,-1000.0,-429.19921875,-49.8046875,-1.0,1.0,1.0,0.0,4.m4v,4.0
2024-02-27 13:41:36.545954,1709037696.5459538,-1000.0,-1000.0,-988.28125,-54.6875,-1.0,1.0,1.0,0.0,4.m4v,4.0
2024-02-27 13:41:36.549859,1709037696.5498593,-1000.0,-1000.0,-862.3046875,-45.41015625,-1.0,1.0,1.0,0.0,4.m4v,4.0
2024-02-27 13:41:36.553765,1709037696.5537648,-376.46484375,-1000.0,-230.46875,-28.3203125,-1.0,1.0,1.0,0.0,4.m4v,4.0
2024-02-27 13:41:36.557678,1709037696.5576775,999.51171875,-1000.0,-6.8359375,-12.20703125,-1.0,1.0,1.0,0.0,4.m4v,4.0
2024-02-27 13:41:36.561583,1709037696.5615833,393.06640625,-1000.0,-654.78515625,-31.73828125,-1.0,1.0,1.0,0.0,4.m4v,4.0
2024-02-27 13:41:36.565489,1709037696.565489,-891.11328125,-957.03125,-1000.0,-49.31640625,-1.0,1.0,1.0,0.0,4.m4v,4.0
2024-02-27 13:41:36.569395,1709037696.5693946,-1000.0,-1000.0,-1000.0,-37.59765625,-1.0,1.0,1.0,0.0,4.m4v,4.0
2024-02-27 13:41:36.573300,1709037696.5733,-342.7734375,-948.73046875,-666.50390625,-22.4609375,-1.0,1.0,1.0,0.0,4.m4v,4.0
2024-02-27 13:41:36.577206,1709037696.5772057,869.62890625,389.16015625,131.34765625,-3.90625,-1.0,1.0,1.0,0.0,4.m4v,4.0
2024-02-27 13:41:36.581111,1709037696.5811114,999.51171875,999.51171875,-6.34765625,-9.765625,-1.0,1.0,1.0,0.0,4.m4v,4.0
2024-02-27 13:41:36.585017,1709037696.585017,311.03515625,999.51171875,-784.66796875,-35.64453125,-1.0,1.0,1.0,0.0,4.m4v,4.0
2024-02-27 13:41:36.588923,1709037696.5889225,-902.34375,51.7578125,-1000.0,-45.41015625,-1.0,1.0,1.0,0.0,4.m4v,4.0
2024-02-27 13:41:36.592828,1709037696.5928285,-1000.0,-1000.0,-860.83984375,-34.66796875,-1.0,1.0,1.0,0.0,4.m4v,4.0
2024-02-27 13:41:36.596734,1709037696.5967338,-464.35546875,-965.8203125,-634.765625,-26.3671875,-1.0,1.0,1.0,0.0,4.m4v,4.0
2024-02-27 13:41:36.600639,1709037696.600639,426.7578125,-984.86328125,-857.421875,-24.4140625,-1.0,1.0,1.0,0.0,4.m4v,4.0
2024-02-27 13:41:36.604552,1709037696.6045518,92.28515625,-996.58203125,-1000.0,-20.01953125,-1.0,1.0,1.0,0.0,4.m4v,4.0
2024-02-27 13:41:36.604552,1709037696.6045518,92.28515625,-996.58203125,-1000.0,-20.01953125,-1.0,1.0,1.0,0.0,4.m4v,4.0
2024-02-27 13:41:36.608457,1709037696.608457,-873.046875,-949.70703125,-1000.0,-17.578125,-1.0,1.0,1.0,0.0,4.m4v,4.0
2024-02-27 13:41:36.608457,1709037696.608457,-873.046875,-949.70703125,-1000.0,-17.578125,-1.0,1.0,1.0,0.0,4.m4v,4.0
2024-02-27 13:41:36.612363,1709037696.612363,-689.453125,-1000.0,-836.42578125,-19.53125,-1.0,1.0,1.0,0.0,4.m4v,4.0
2024-02-27 13:41:36.612363,1709037696.612363,-689.453125,-1000.0,-836.42578125,-19.53125,-1.0,1.0,1.0,0.0,4.m4v,4.0
2024-02-27 13:41:36.616269,1709037696.6162686,686.5234375,-89.84375,-173.33984375,-5.37109375,-1.0,1.0,1.0,0.0,4.m4v,4.0
2024-02-27 13:41:36.616269,1709037696.6162686,686.5234375,-89.84375,-173.33984375,-5.37109375,-1.0,1.0,1.0,0.0,4.m4v,4.0
2024-02-27 13:41:36.620174,1709037696.6201742,999.51171875,999.51171875,-280.2734375,-11.71875,-1.0,1.0,1.0,0.0,4.m4v,4.0
2024-02-27 13:41:36.620174,1709037696.6201742,999.51171875,999.51171875,-280.2734375,-11.71875,-1.0,1.0,1.0,0.0,4.m4v,4.0
2024-02-27 13:41:36.624080,1709037696.62408,948.73046875,936.5234375,-601.07421875,-29.78515625,-1.0,1.0,1.0,0.0,4.m4v,4.0
2024-02-27 13:41:36.624080,1709037696.62408,948.73046875,936.5234375,-601.07421875,-29.78515625,-1.0,1.0,1.0,0.0,4.m4v,4.0
2024-02-27 13:41:36.627985,1709037696.6279857,853.02734375,952.1484375,-500.48828125,-27.34375,-1.0,1.0,1.0,0.0,4.m4v,4.0
2024-02-27 13:41:36.627985,1709037696.6279857,853.02734375,952.1484375,-500.48828125,-27.34375,-1.0,1.0,1.0,0.0,4.m4v,4.0
2024-02-27 13:41:36.631891,1709037696.631891,-319.82421875,976.07421875,-457.51953125,-29.296875,-1.0,1.0,1.0,0.0,4.m4v,4.0
2024-02-27 13:41:36.631891,1709037696.631891,-319.82421875,976.07421875,-457.51953125,-29.296875,-1.0,1.0,1.0,0.0,4.m4v,4.0
2024-02-27 13:41:36.635797,1709037696.6357963,-321.77734375,958.49609375,-225.5859375,-25.87890625,-1.0,1.0,1.0,0.0,4.m4v,4.0
2024-02-27 13:41:36.635797,1709037696.6357963,-321.77734375,958.49609375,-225.5859375,-25.87890625,-1.0,1.0,1.0,0.0,4.m4v,4.0
2024-02-27 13:41:36.639702,1709037696.6397023,920.41015625,925.78125,-350.5859375,-22.4609375,-1.0,1.0,1.0,0.0,4.m4v,4.0
2024-02-27 13:41:36.639702,1709037696.6397023,920.41015625,925.78125,-350.5859375,-22.4609375,-1.0,1.0,1.0,0.0,4.m4v,4.0
2024-02-27 13:41:36.643608,1709037696.643608,485.3515625,999.51171875,-716.796875,-28.80859375,-1.0,1.0,1.0,0.0,4.m4v,4.0
2024-02-27 13:41:36.643608,1709037696.643608,485.3515625,999.51171875,-716.796875,-28.80859375,-1.0,1.0,1.0,0.0,4.m4v,4.0
2024-02-27 13:41:36.647513,1709037696.6475134,-763.18359375,-2.44140625,-1000.0,-42.48046875,-1.0,1.0,1.0,0.0,4.m4v,4.0
2024-02-27 13:41:36.647513,1709037696.6475134,-763.18359375,-2.44140625,-1000.0,-42.48046875,-1.0,1.0,1.0,0.0,4.m4v,4.0
2024-02-27 13:41:36.651426,1709037696.6514258,-1000.0,-1000.0,-876.46484375,-37.59765625,-1.0,1.0,1.0,0.0,4.m4v,4.0
2024-02-27 13:41:36.651426,1709037696.6514258,-1000.0,-1000.0,-876.46484375,-37.59765625,-1.0,1.0,1.0,0.0,4.m4v,4.0
2024-02-27 13:41:36.655331,1709037696.6553314,-550.29296875,-958.984375,-381.34765625,-15.13671875,-1.0,1.0,1.0,0.0,4.m4v,4.0
2024-02-27 13:41:36.655331,1709037696.6553314,-550.29296875,-958.984375,-381.34765625,-15.13671875,-1.0,1.0,1.0,0.0,4.m4v,4.0
2024-02-27 13:41:36.659237,1709037696.659237,746.58203125,-997.0703125,-453.61328125,-21.97265625,-1.0,1.0,1.0,0.0,4.m4v,4.0
2024-02-27 13:41:36.659237,1709037696.659237,746.58203125,-997.0703125,-453.61328125,-21.97265625,-1.0,1.0,1.0,0.0,4.m4v,4.0
2024-02-27 13:41:36.663143,1709037696.6631427,218.75,-930.6640625,-878.90625,-40.52734375,-1.0,1.0,1.0,0.0,4.m4v,4.0
2024-02-27 13:41:36.663143,1709037696.6631427,218.75,-930.6640625,-878.90625,-40.52734375,-1.0,1.0,1.0,0.0,4.m4v,4.0
2024-02-27 13:41:36.667048,1709037696.6670482,-1000.0,-1000.0,-1000.0,-47.8515625,-1.0,1.0,1.0,0.0,4.m4v,4.0
2024-02-27 13:41:36.667048,1709037696.6670482,-1000.0,-1000.0,-1000.0,-47.8515625,-1.0,1.0,1.0,0.0,4.m4v,4.0
2024-02-27 13:41:36.670954,1709037696.6709538,-332.51953125,-417.48046875,-458.984375,-32.2265625,-1.0,1.0,1.0,0.0,4.m4v,4.0
2024-02-27 13:41:36.670954,1709037696.6709538,-332.51953125,-417.48046875,-458.984375,-32.2265625,-1.0,1.0,1.0,0.0,4.m4v,4.0
2024-02-27 13:41:36.674859,1709037696.6748593,958.49609375,960.9375,656.73828125,-7.32421875,-1.0,1.0,1.0,0.0,4.m4v,4.0
2024-02-27 13:41:36.674859,1709037696.6748593,958.49609375,960.9375,656.73828125,-7.32421875,-1.0,1.0,1.0,0.0,4.m4v,4.0
2024-02-27 13:41:36.678765,1709037696.678765,999.51171875,987.79296875,380.37109375,-18.06640625,-1.0,1.0,1.0,0.0,4.m4v,4.0
2024-02-27 13:41:36.678765,1709037696.678765,999.51171875,987.79296875,380.37109375,-18.06640625,-1.0,1.0,1.0,0.0,4.m4v,4.0
2024-02-27 13:41:36.682671,1709037696.6826706,583.49609375,926.26953125,-489.2578125,-29.296875,-1.0,1.0,1.0,0.0,4.m4v,4.0
2024-02-27 13:41:36.682671,1709037696.6826706,583.49609375,926.26953125,-489.2578125,-29.296875,-1.0,1.0,1.0,0.0,4.m4v,4.0
2024-02-27 13:41:36.686576,1709037696.686576,-725.09765625,982.421875,-799.31640625,-33.69140625,-1.0,1.0,1.0,0.0,4.m4v,4.0
2024-02-27 13:41:36.686576,1709037696.686576,-725.09765625,982.421875,-799.31640625,-33.69140625,-1.0,1.0,1.0,0.0,4.m4v,4.0
2024-02-27 13:41:36.690482,1709037696.690482,-904.78515625,970.703125,-445.3125,-38.57421875,-1.0,1.0,1.0,0.0,4.m4v,4.0
2024-02-27 13:41:36.690482,1709037696.690482,-904.78515625,970.703125,-445.3125,-38.57421875,-1.0,1.0,1.0,0.0,4.m4v,4.0
2024-02-27 13:41:36.694387,1709037696.6943874,380.859375,969.23828125,229.98046875,-25.390625,-1.0,1.0,1.0,0.0,4.m4v,4.0
2024-02-27 13:41:36.694387,1709037696.6943874,380.859375,969.23828125,229.98046875,-25.390625,-1.0,1.0,1.0,0.0,4.m4v,4.0
2024-02-27 13:41:36.698300,1709037696.6982996,999.51171875,909.1796875,256.34765625,-23.4375,-1.0,1.0,1.0,0.0,4.m4v,4.0
2024-02-27 13:41:36.698300,1709037696.6982996,999.51171875,909.1796875,256.34765625,-23.4375,-1.0,1.0,1.0,0.0,4.m4v,4.0
2024-02-27 13:41:36.702205,1709037696.7022052,677.734375,999.51171875,-197.75390625,-36.62109375,-1.0,1.0,1.0,0.0,4.m4v,4.0
2024-02-27 13:41:36.702205,1709037696.7022052,677.734375,999.51171875,-197.75390625,-36.62109375,-1.0,1.0,1.0,0.0,4.m4v,4.0
2024-02-27 13:41:36.706111,1709037696.7061107,-461.9140625,172.36328125,-660.15625,-51.7578125,-1.0,1.0,1.0,0.0,4.m4v,4.0
2024-02-27 13:41:36.706111,1709037696.7061107,-461.9140625,172.36328125,-660.15625,-51.7578125,-1.0,1.0,1.0,0.0,4.m4v,4.0
2024-02-27 13:41:36.710016,1709037696.7100165,-1000.0,-1000.0,-746.09375,-51.26953125,-1.0,1.0,1.0,0.0,4.m4v,4.0
2024-02-27 13:41:36.710016,1709037696.7100165,-1000.0,-1000.0,-746.09375,-51.26953125,-1.0,1.0,1.0,0.0,4.m4v,4.0
2024-02-27 13:41:36.713922,1709037696.713922,-544.921875,-1000.0,-143.5546875,-24.4140625,-1.0,1.0,1.0,0.0,4.m4v,4.0
2024-02-27 13:41:36.713922,1709037696.713922,-544.921875,-1000.0,-143.5546875,-24.4140625,-1.0,1.0,1.0,0.0,4.m4v,4.0
2024-02-27 13:41:36.717828,1709037696.7178276,706.0546875,-102.5390625,645.5078125,-9.765625,-1.0,1.0,1.0,0.0,4.m4v,4.0
2024-02-27 13:41:36.717828,1709037696.7178276,706.0546875,-102.5390625,645.5078125,-9.765625,-1.0,1.0,1.0,0.0,4.m4v,4.0
2024-02-27 13:41:36.721733,1709037696.721733,999.51171875,999.51171875,600.09765625,-23.92578125,-1.0,1.0,1.0,0.0,4.m4v,4.0
2024-02-27 13:41:36.721733,1709037696.721733,999.51171875,999.51171875,600.09765625,-23.92578125,-1.0,1.0,1.0,0.0,4.m4v,4.0
2024-02-27 13:41:36.725639,1709037696.7256389,66.40625,460.9375,-354.4921875,-41.9921875,-1.0,1.0,1.0,0.0,4.m4v,4.0
2024-02-27 13:41:36.725639,1709037696.7256389,66.40625,460.9375,-354.4921875,-41.9921875,-1.0,1.0,1.0,0.0,4.m4v,4.0
2024-02-27 13:41:36.729544,1709037696.7295444,-1000.0,-919.921875,-723.14453125,-53.7109375,-1.0,1.0,1.0,0.0,4.m4v,4.0
2024-02-27 13:41:36.729544,1709037696.7295444,-1000.0,-919.921875,-723.14453125,-53.7109375,-1.0,1.0,1.0,0.0,4.m4v,4.0
2024-02-27 13:41:36.733450,1709037696.73345,-801.26953125,-1000.0,-121.58203125,-41.50390625,-1.0,1.0,1.0,0.0,4.m4v,4.0
2024-02-27 13:41:36.733450,1709037696.73345,-801.26953125,-1000.0,-121.58203125,-41.50390625,-1.0,1.0,1.0,0.0,4.m4v,4.0
2024-02-27 13:41:36.737356,1709037696.7373557,386.23046875,-1000.0,316.89453125,-25.390625,-1.0,1.0,1.0,0.0,4.m4v,4.0
2024-02-27 13:41:36.737356,1709037696.7373557,386.23046875,-1000.0,316.89453125,-25.390625,-1.0,1.0,1.0,0.0,4.m4v,4.0
2024-02-27 13:41:36.741261,1709037696.7412612,999.51171875,66.40625,51.7578125,-24.90234375,-1.0,1.0,1.0,0.0,4.m4v,4.0
2024-02-27 13:41:36.741261,1709037696.7412612,999.51171875,66.40625,51.7578125,-24.90234375,-1.0,1.0,1.0,0.0,4.m4v,4.0
2024-02-27 13:41:36.745176,1709037696.7451758,854.4921875,999.51171875,-249.0234375,-33.203125,-1.0,1.0,1.0,0.0,4.m4v,4.0
2024-02-27 13:41:36.745176,1709037696.7451758,854.4921875,999.51171875,-249.0234375,-33.203125,-1.0,1.0,1.0,0.0,4.m4v,4.0
2024-02-27 13:41:36.749081,1709037696.7490814,-105.95703125,918.45703125,-196.2890625,-37.59765625,-1.0,1.0,1.0,0.0,4.m4v,4.0
2024-02-27 13:41:36.749081,1709037696.7490814,-105.95703125,918.45703125,-196.2890625,-37.59765625,-1.0,1.0,1.0,0.0,4.m4v,4.0
2024-02-27 13:41:36.752987,1709037696.7529871,-65.4296875,963.37890625,388.671875,-23.92578125,-1.0,1.0,1.0,0.0,4.m4v,4.0
2024-02-27 13:41:36.752987,1709037696.7529871,-65.4296875,963.37890625,388.671875,-23.92578125,-1.0,1.0,1.0,0.0,4.m4v,4.0
2024-02-27 13:41:36.756893,1709037696.7568927,979.98046875,980.46875,704.1015625,-18.5546875,-1.0,1.0,1.0,0.0,4.m4v,4.0
2024-02-27 13:41:36.756893,1709037696.7568927,979.98046875,980.46875,704.1015625,-18.5546875,-1.0,1.0,1.0,0.0,4.m4v,4.0
2024-02-27 13:41:36.760798,1709037696.7607982,917.96875,933.10546875,374.0234375,-32.2265625,-1.0,1.0,1.0,0.0,4.m4v,4.0
2024-02-27 13:41:36.760798,1709037696.7607982,917.96875,933.10546875,374.0234375,-32.2265625,-1.0,1.0,1.0,0.0,4.m4v,4.0
2024-02-27 13:41:36.764704,1709037696.764704,733.88671875,978.02734375,416.015625,-39.0625,-1.0,1.0,1.0,0.0,4.m4v,4.0
2024-02-27 13:41:36.764704,1709037696.764704,733.88671875,978.02734375,416.015625,-39.0625,-1.0,1.0,1.0,0.0,4.m4v,4.0
2024-02-27 13:41:36.768610,1709037696.7686095,-36.62109375,965.33203125,531.25,-39.0625,-1.0,1.0,1.0,0.0,4.m4v,4.0
2024-02-27 13:41:36.772515,1709037696.772515,-972.65625,-344.7265625,387.6953125,-41.9921875,-1.0,1.0,1.0,0.0,4.m4v,4.0
2024-02-27 13:41:36.776421,1709037696.7764208,-1000.0,-1000.0,364.2578125,-41.015625,-1.0,1.0,1.0,0.0,4.m4v,4.0
2024-02-27 13:41:36.780326,1709037696.7803264,-981.93359375,-937.98828125,-110.3515625,-41.9921875,-1.0,1.0,1.0,0.0,4.m4v,4.0
2024-02-27 13:41:36.784232,1709037696.784232,-942.87109375,-998.046875,-727.05078125,-48.828125,-1.0,1.0,1.0,0.0,4.m4v,4.0
2024-02-27 13:41:36.788137,1709037696.7881374,-1000.0,-949.70703125,-719.23828125,-42.96875,-1.0,1.0,1.0,0.0,4.m4v,4.0
2024-02-27 13:41:36.792052,1709037696.7920516,-404.78515625,-1000.0,-108.88671875,-27.83203125,-1.0,1.0,1.0,0.0,4.m4v,4.0
2024-02-27 13:41:36.795957,1709037696.795957,875.48828125,-99.12109375,630.859375,-18.5546875,-1.0,1.0,1.0,0.0,4.m4v,4.0
2024-02-27 13:41:36.799863,1709037696.7998629,999.51171875,999.51171875,516.11328125,-28.3203125,-1.0,1.0,1.0,0.0,4.m4v,4.0
2024-02-27 13:41:36.803768,1709037696.8037684,699.70703125,937.98828125,-164.55078125,-50.78125,-1.0,1.0,1.0,0.0,4.m4v,4.0
2024-02-27 13:41:36.807674,1709037696.807674,-671.38671875,951.171875,-305.6640625,-52.734375,-1.0,1.0,1.0,0.0,4.m4v,4.0
2024-02-27 13:41:36.811580,1709037696.8115797,-280.76171875,981.4453125,471.6796875,-31.73828125,-1.0,1.0,1.0,0.0,4.m4v,4.0
2024-02-27 13:41:36.815485,1709037696.8154852,999.51171875,939.453125,999.51171875,-20.5078125,-1.0,1.0,1.0,0.0,4.m4v,4.0
2024-02-27 13:41:36.819391,1709037696.8193908,971.19140625,962.40234375,666.015625,-39.55078125,-1.0,1.0,1.0,0.0,4.m4v,4.0
2024-02-27 13:41:36.823296,1709037696.8232963,61.03515625,999.51171875,183.59375,-53.22265625,-1.0,1.0,1.0,0.0,4.m4v,4.0
2024-02-27 13:41:36.827202,1709037696.827202,-931.15234375,-255.859375,-284.66796875,-59.08203125,-1.0,1.0,1.0,0.0,4.m4v,4.0
2024-02-27 13:41:36.831108,1709037696.8311076,-1000.0,-1000.0,-260.25390625,-55.17578125,-1.0,1.0,1.0,0.0,4.m4v,4.0
2024-02-27 13:41:36.835013,1709037696.8350132,-574.70703125,-939.453125,367.67578125,-34.66796875,-1.0,1.0,1.0,0.0,4.m4v,4.0
2024-02-27 13:41:36.838927,1709037696.8389268,817.3828125,-1000.0,419.921875,-26.85546875,-1.0,1.0,1.0,0.0,4.m4v,4.0
2024-02-27 13:41:36.842832,1709037696.8428323,145.01953125,-1000.0,-328.61328125,-42.48046875,-1.0,1.0,1.0,0.0,4.m4v,4.0
2024-02-27 13:41:36.846738,1709037696.846738,-1000.0,-927.24609375,-752.9296875,-58.59375,-1.0,1.0,1.0,0.0,4.m4v,4.0
2024-02-27 13:41:36.850644,1709037696.8506436,-894.04296875,-1000.0,-302.24609375,-46.38671875,-1.0,1.0,1.0,0.0,4.m4v,4.0
2024-02-27 13:41:36.854549,1709037696.8545492,276.85546875,-479.00390625,418.45703125,-19.53125,-1.0,1.0,1.0,0.0,4.m4v,4.0
2024-02-27 13:41:36.858455,1709037696.858455,999.51171875,853.515625,902.83203125,-13.18359375,-1.0,1.0,1.0,0.0,4.m4v,4.0
2024-02-27 13:41:36.862360,1709037696.8623605,965.8203125,999.51171875,545.41015625,-24.4140625,-1.0,1.0,1.0,0.0,4.m4v,4.0
2024-02-27 13:41:36.866266,1709037696.866266,-36.1328125,636.71875,-253.41796875,-38.57421875,-1.0,1.0,1.0,0.0,4.m4v,4.0
2024-02-27 13:41:36.870172,1709037696.8701715,-1000.0,-728.515625,-346.6796875,-50.29296875,-1.0,1.0,1.0,0.0,4.m4v,4.0
2024-02-27 13:41:36.874077,1709037696.874077,-740.234375,-1000.0,235.3515625,-36.62109375,-1.0,1.0,1.0,0.0,4.m4v,4.0
2024-02-27 13:41:36.877983,1709037696.8779829,172.36328125,-1000.0,300.78125,-28.80859375,-1.0,1.0,1.0,0.0,4.m4v,4.0
2024-02-27 13:41:36.881888,1709037696.8818884,716.30859375,-240.72265625,-62.98828125,-37.59765625,-1.0,1.0,1.0,0.0,4.m4v,4.0
2024-02-27 13:41:36.885802,1709037696.885802,947.75390625,999.51171875,-178.7109375,-32.2265625,-1.0,1.0,1.0,0.0,4.m4v,4.0
2024-02-27 13:41:36.889708,1709037696.8897076,497.55859375,964.84375,-57.12890625,-27.34375,-1.0,1.0,1.0,0.0,4.m4v,4.0
2024-02-27 13:41:36.893613,1709037696.893613,443.84765625,898.4375,532.2265625,-23.4375,-1.0,1.0,1.0,0.0,4.m4v,4.0
2024-02-27 13:41:36.897519,1709037696.8975186,999.51171875,999.51171875,795.8984375,-24.4140625,-1.0,1.0,1.0,0.0,4.m4v,4.0
2024-02-27 13:41:36.901424,1709037696.9014244,227.5390625,898.4375,106.93359375,-46.875,-1.0,1.0,1.0,0.0,4.m4v,4.0
2024-02-27 13:41:36.905330,1709037696.90533,-1000.0,-438.4765625,-491.69921875,-65.91796875,-1.0,1.0,1.0,0.0,4.m4v,4.0
2024-02-27 13:41:36.909235,1709037696.9092357,-1000.0,-1000.0,-330.56640625,-56.640625,-1.0,1.0,1.0,0.0,4.m4v,4.0
2024-02-27 13:41:36.913141,1709037696.9131413,-889.16015625,-937.01171875,105.46875,-41.015625,-1.0,1.0,1.0,0.0,4.m4v,4.0
2024-02-27 13:41:36.917047,1709037696.9170468,270.5078125,-1000.0,330.078125,-36.1328125,-1.0,1.0,1.0,0.0,4.m4v,4.0
2024-02-27 13:41:36.920952,1709037696.9209523,443.84765625,-1000.0,-175.78125,-47.36328125,-1.0,1.0,1.0,0.0,4.m4v,4.0
2024-02-27 13:41:36.924858,1709037696.924858,-836.9140625,-933.59375,-667.96875,-60.05859375,-1.0,1.0,1.0,0.0,4.m4v,4.0
2024-02-27 13:41:36.928764,1709037696.9287636,-1000.0,-1000.0,-496.09375,-54.6875,-1.0,1.0,1.0,0.0,4.m4v,4.0
2024-02-27 13:41:36.932676,1709037696.9326763,17.08984375,-288.57421875,302.734375,-22.4609375,-1.0,1.0,1.0,0.0,4.m4v,4.0
2024-02-27 13:41:36.936582,1709037696.936582,999.51171875,999.51171875,861.81640625,-8.30078125,-1.0,1.0,1.0,0.0,4.m4v,4.0
2024-02-27 13:41:36.940488,1709037696.9404876,973.14453125,893.06640625,452.63671875,-32.2265625,-1.0,1.0,1.0,0.0,4.m4v,4.0
2024-02-27 13:41:36.944393,1709037696.9443932,765.13671875,999.51171875,83.0078125,-39.55078125,-1.0,1.0,1.0,0.0,4.m4v,4.0
2024-02-27 13:41:36.948299,1709037696.948299,-452.1484375,445.3125,-271.97265625,-43.45703125,-1.0,1.0,1.0,0.0,4.m4v,4.0
2024-02-27 13:41:36.952204,1709037696.9522045,-1000.0,-1000.0,33.69140625,-43.45703125,-1.0,1.0,1.0,0.0,4.m4v,4.0
2024-02-27 13:41:36.956110,1709037696.95611,116.2109375,-297.36328125,893.5546875,-22.94921875,-1.0,1.0,1.0,0.0,4.m4v,4.0
2024-02-27 13:41:36.960016,1709037696.9600155,999.51171875,999.51171875,567.3828125,-16.11328125,-1.0,1.0,1.0,0.0,4.m4v,4.0
2024-02-27 13:41:36.963921,1709037696.9639213,-9.27734375,617.67578125,-404.296875,-43.9453125,-1.0,1.0,1.0,0.0,4.m4v,4.0
2024-02-27 13:41:36.967827,1709037696.9678268,-1000.0,-768.5546875,-749.51171875,-44.43359375,-1.0,1.0,1.0,0.0,4.m4v,4.0
2024-02-27 13:41:36.971732,1709037696.9717324,-1000.0,-1000.0,-276.85546875,-21.97265625,-1.0,1.0,1.0,0.0,4.m4v,4.0
2024-02-27 13:41:36.975638,1709037696.9756382,-43.45703125,-937.01171875,334.47265625,-22.94921875,-1.0,1.0,1.0,0.0,4.m4v,4.0
2024-02-27 13:41:36.979551,1709037696.9795506,999.51171875,184.5703125,364.2578125,-23.92578125,-1.0,1.0,1.0,0.0,4.m4v,4.0
2024-02-27 13:41:36.983456,1709037696.983456,801.26953125,999.51171875,-155.76171875,-23.4375,-1.0,1.0,1.0,0.0,4.m4v,4.0
2024-02-27 13:41:36.987362,1709037696.9873617,-315.91796875,585.9375,-534.1796875,-34.1796875,-1.0,1.0,1.0,0.0,4.m4v,4.0
2024-02-27 13:41:36.991267,1709037696.9912672,-1000.0,-755.859375,-312.98828125,-39.55078125,-1.0,1.0,1.0,0.0,4.m4v,4.0
2024-02-27 13:41:36.995173,1709037696.995173,-524.90234375,-1000.0,189.453125,-33.69140625,-1.0,1.0,1.0,0.0,4.m4v,4.0
2024-02-27 13:41:36.999079,1709037696.9990785,687.01171875,78.61328125,621.58203125,-23.4375,-1.0,1.0,1.0,0.0,4.m4v,4.0
2024-02-27 13:41:37.002984,1709037697.002984,999.51171875,999.51171875,711.42578125,-19.04296875,-1.0,1.0,1.0,0.0,4.m4v,4.0
2024-02-27 13:41:37.006890,1709037697.0068898,390.13671875,981.4453125,195.3125,-41.50390625,-1.0,1.0,1.0,0.0,4.m4v,4.0
2024-02-27 13:41:37.010795,1709037697.0107954,-881.34765625,-209.47265625,-159.66796875,-53.22265625,-1.0,1.0,1.0,0.0,4.m4v,4.0
2024-02-27 13:41:37.014701,1709037697.014701,-1000.0,-1000.0,120.1171875,-39.55078125,-1.0,1.0,1.0,0.0,4.m4v,4.0
2024-02-27 13:41:37.018607,1709037697.018607,-763.671875,-943.359375,120.60546875,-39.0625,-1.0,1.0,1.0,0.0,4.m4v,4.0
2024-02-27 13:41:37.022512,1709037697.0225122,-643.5546875,-994.62890625,-385.25390625,-46.875,-1.0,1.0,1.0,0.0,4.m4v,4.0
2024-02-27 13:41:37.026424,1709037697.0264244,-1000.0,-945.3125,-719.23828125,-48.828125,-1.0,1.0,1.0,0.0,4.m4v,4.0
2024-02-27 13:41:37.428762,1709037697.4287622,439.453125,999.51171875,-555.6640625,-25.390625,-1.0,1.0,1.0,0.0,4.m4v,4.0
2024-02-27 13:41:37.432668,1709037697.432668,-842.28515625,94.23828125,-551.7578125,-30.76171875,-1.0,1.0,1.0,0.0,4.m4v,4.0
2024-02-27 13:41:37.436574,1709037697.4365735,-1000.0,-1000.0,-376.953125,-22.94921875,-1.0,1.0,1.0,0.0,4.m4v,4.0
2024-02-27 13:41:37.440479,1709037697.440479,-908.69140625,-983.88671875,-749.51171875,-28.3203125,-1.0,1.0,1.0,0.0,4.m4v,4.0
2024-02-27 13:41:37.444385,1709037697.4443848,-959.9609375,-923.828125,-1000.0,-41.015625,-1.0,1.0,1.0,0.0,4.m4v,4.0
2024-02-27 13:41:37.448296,1709037697.4482963,-1000.0,-1000.0,-1000.0,-35.15625,-1.0,1.0,1.0,0.0,4.m4v,4.0
2024-02-27 13:41:37.452202,1709037697.4522018,-221.6796875,-824.21875,-748.53515625,-20.5078125,-1.0,1.0,1.0,0.0,4.m4v,4.0
2024-02-27 13:41:37.456108,1709037697.4561076,950.68359375,583.984375,94.23828125,-0.9765625,-1.0,1.0,1.0,0.0,4.m4v,4.0
2024-02-27 13:41:37.460013,1709037697.4600132,999.51171875,999.51171875,18.5546875,-9.27734375,-1.0,1.0,1.0,0.0,4.m4v,4.0
2024-02-27 13:41:37.463919,1709037697.4639187,753.41796875,904.78515625,-683.59375,-28.80859375,-1.0,1.0,1.0,0.0,4.m4v,4.0
2024-02-27 13:41:37.467824,1709037697.4678245,509.27734375,981.93359375,-456.0546875,-23.92578125,-1.0,1.0,1.0,0.0,4.m4v,4.0
2024-02-27 13:41:37.471730,1709037697.47173,859.86328125,983.88671875,312.01171875,-14.16015625,-1.0,1.0,1.0,0.0,4.m4v,4.0
2024-02-27 13:41:37.475636,1709037697.4756355,999.51171875,901.3671875,470.21484375,-16.6015625,-1.0,1.0,1.0,0.0,4.m4v,4.0
2024-02-27 13:41:37.479541,1709037697.479541,616.2109375,999.51171875,108.88671875,-22.4609375,-1.0,1.0,1.0,0.0,4.m4v,4.0
2024-02-27 13:41:37.483447,1709037697.4834468,-525.87890625,610.83984375,-452.63671875,-30.76171875,-1.0,1.0,1.0,0.0,4.m4v,4.0
2024-02-27 13:41:37.487352,1709037697.4873524,-1000.0,-820.80078125,-964.84375,-51.7578125,-1.0,1.0,1.0,0.0,4.m4v,4.0
2024-02-27 13:41:37.491258,1709037697.491258,-1000.0,-1000.0,-797.8515625,-45.8984375,-1.0,1.0,1.0,0.0,4.m4v,4.0
2024-02-27 13:41:37.495173,1709037697.4951725,-564.94140625,-941.89453125,-186.5234375,-26.3671875,-1.0,1.0,1.0,0.0,4.m4v,4.0
2024-02-27 13:41:37.499078,1709037697.499078,852.05078125,-1000.0,-128.90625,-21.97265625,-1.0,1.0,1.0,0.0,4.m4v,4.0
2024-02-27 13:41:37.502984,1709037697.5029836,583.0078125,-970.21484375,-588.8671875,-32.71484375,-1.0,1.0,1.0,0.0,4.m4v,4.0
2024-02-27 13:41:37.506889,1709037697.506889,-911.1328125,-992.67578125,-988.28125,-43.9453125,-1.0,1.0,1.0,0.0,4.m4v,4.0
2024-02-27 13:41:37.510795,1709037697.5107949,-843.26171875,-1000.0,-642.578125,-34.1796875,-1.0,1.0,1.0,0.0,4.m4v,4.0
2024-02-27 13:41:37.514700,1709037697.5147004,502.44140625,231.93359375,545.41015625,-6.8359375,-1.0,1.0,1.0,0.0,4.m4v,4.0
2024-02-27 13:41:37.518606,1709037697.5186062,999.51171875,999.51171875,792.96875,-5.859375,-1.0,1.0,1.0,0.0,4.m4v,4.0
2024-02-27 13:41:37.522512,1709037697.5225115,592.7734375,999.51171875,-187.5,-28.80859375,-1.0,1.0,1.0,0.0,4.m4v,4.0
2024-02-27 13:41:37.526417,1709037697.5264173,-603.02734375,241.2109375,-816.40625,-47.36328125,-1.0,1.0,1.0,0.0,4.m4v,4.0
2024-02-27 13:41:37.530323,1709037697.5303228,-1000.0,-1000.0,-803.22265625,-46.875,-1.0,1.0,1.0,0.0,4.m4v,4.0
2024-02-27 13:41:37.534229,1709037697.5342286,-738.76953125,-934.08203125,-240.234375,-36.62109375,-1.0,1.0,1.0,0.0,4.m4v,4.0
2024-02-27 13:41:37.538134,1709037697.538134,423.33984375,-1000.0,0.9765625,-30.76171875,-1.0,1.0,1.0,0.0,4.m4v,4.0
2024-02-27 13:41:37.542048,1709037697.5420485,999.51171875,-176.26953125,-140.625,-26.85546875,-1.0,1.0,1.0,0.0,4.m4v,4.0
2024-02-27 13:41:37.545954,1709037697.545954,907.71484375,999.51171875,-285.64453125,-27.34375,-1.0,1.0,1.0,0.0,4.m4v,4.0
2024-02-27 13:41:37.549860,1709037697.5498595,303.7109375,946.77734375,-261.71875,-21.97265625,-1.0,1.0,1.0,0.0,4.m4v,4.0
2024-02-27 13:41:37.553765,1709037697.5537653,444.3359375,950.68359375,404.296875,-9.27734375,-1.0,1.0,1.0,0.0,4.m4v,4.0
2024-02-27 13:41:37.557671,1709037697.5576708,976.5625,956.0546875,718.26171875,-10.7421875,-1.0,1.0,1.0,0.0,4.m4v,4.0
2024-02-27 13:41:37.561576,1709037697.5615764,999.51171875,940.91796875,585.9375,-29.296875,-1.0,1.0,1.0,0.0,4.m4v,4.0
2024-02-27 13:41:37.565482,1709037697.565482,259.27734375,999.51171875,240.72265625,-38.57421875,-1.0,1.0,1.0,0.0,4.m4v,4.0
2024-02-27 13:41:37.569388,1709037697.5693877,-1000.0,-112.79296875,-243.1640625,-44.43359375,-1.0,1.0,1.0,0.0,4.m4v,4.0
2024-02-27 13:41:37.573293,1709037697.5732932,-1000.0,-1000.0,4.8828125,-36.62109375,-1.0,1.0,1.0,0.0,4.m4v,4.0
2024-02-27 13:41:37.577199,1709037697.5771987,-939.453125,-949.70703125,191.89453125,-28.80859375,-1.0,1.0,1.0,0.0,4.m4v,4.0
2024-02-27 13:41:37.581105,1709037697.5811045,-972.16796875,-1000.0,-308.10546875,-42.48046875,-1.0,1.0,1.0,0.0,4.m4v,4.0
2024-02-27 13:41:37.585010,1709037697.58501,-945.80078125,-937.01171875,-692.3828125,-47.8515625,-1.0,1.0,1.0,0.0,4.m4v,4.0
2024-02-27 13:41:37.588924,1709037697.5889237,-1000.0,-1000.0,-708.984375,-41.9921875,-1.0,1.0,1.0,0.0,4.m4v,4.0
2024-02-27 13:41:37.592829,1709037697.5928292,-213.8671875,-724.609375,-85.44921875,-29.78515625,-1.0,1.0,1.0,0.0,4.m4v,4.0
2024-02-27 13:41:37.596735,1709037697.5967348,993.1640625,708.0078125,652.83203125,-9.765625,-1.0,1.0,1.0,0.0,4.m4v,4.0
2024-02-27 13:41:37.600641,1709037697.6006403,990.234375,999.51171875,610.83984375,-21.484375,-1.0,1.0,1.0,0.0,4.m4v,4.0
2024-02-27 13:41:37.604546,1709037697.604546,842.28515625,907.2265625,114.74609375,-40.52734375,-1.0,1.0,1.0,0.0,4.m4v,4.0
2024-02-27 13:41:37.608452,1709037697.6084516,105.46875,991.69921875,134.765625,-44.43359375,-1.0,1.0,1.0,0.0,4.m4v,4.0
2024-02-27 13:41:37.612357,1709037697.6123574,191.40625,939.453125,674.8046875,-39.55078125,-1.0,1.0,1.0,0.0,4.m4v,4.0
2024-02-27 13:41:37.616263,1709037697.616263,999.51171875,962.890625,837.40234375,-33.203125,-1.0,1.0,1.0,0.0,4.m4v,4.0
2024-02-27 13:41:37.620168,1709037697.6201684,505.37109375,999.51171875,409.1796875,-44.43359375,-1.0,1.0,1.0,0.0,4.m4v,4.0
2024-02-27 13:41:37.624074,1709037697.6240742,-827.1484375,-258.7890625,-495.60546875,-68.84765625,-1.0,1.0,1.0,0.0,4.m4v,4.0
2024-02-27 13:41:37.627980,1709037697.6279798,-1000.0,-1000.0,-678.22265625,-64.453125,-1.0,1.0,1.0,0.0,4.m4v,4.0
2024-02-27 13:41:37.631885,1709037697.6318853,-967.28515625,-938.96484375,-72.75390625,-43.45703125,-1.0,1.0,1.0,0.0,4.m4v,4.0
2024-02-27 13:41:37.635799,1709037697.635799,168.45703125,-1000.0,525.390625,-31.25,-1.0,1.0,1.0,0.0,4.m4v,4.0
2024-02-27 13:41:37.639704,1709037697.6397045,968.26171875,-1000.0,333.49609375,-36.1328125,-1.0,1.0,1.0,0.0,4.m4v,4.0
2024-02-27 13:41:37.643610,1709037697.6436102,-302.24609375,-972.65625,-563.96484375,-52.24609375,-1.0,1.0,1.0,0.0,4.m4v,4.0
2024-02-27 13:41:37.647516,1709037697.6475158,-1000.0,-987.3046875,-861.328125,-54.6875,-1.0,1.0,1.0,0.0,4.m4v,4.0
2024-02-27 13:41:37.651421,1709037697.6514213,-602.5390625,-1000.0,-216.30859375,-42.48046875,-1.0,1.0,1.0,0.0,4.m4v,4.0
2024-02-27 13:41:37.655327,1709037697.655327,676.26953125,203.125,708.984375,-21.484375,-1.0,1.0,1.0,0.0,4.m4v,4.0
2024-02-27 13:41:37.659233,1709037697.6592326,999.51171875,999.51171875,930.17578125,-14.16015625,-1.0,1.0,1.0,0.0,4.m4v,4.0
2024-02-27 13:41:37.663138,1709037697.6631382,937.98828125,908.69140625,429.6875,-36.1328125,-1.0,1.0,1.0,0.0,4.m4v,4.0
2024-02-27 13:41:37.667044,1709037697.6670437,-88.8671875,984.375,-129.39453125,-50.78125,-1.0,1.0,1.0,0.0,4.m4v,4.0
2024-02-27 13:41:37.670949,1709037697.6709497,-1000.0,-288.57421875,-280.76171875,-49.8046875,-1.0,1.0,1.0,0.0,4.m4v,4.0
2024-02-27 13:41:37.674855,1709037697.674855,-926.7578125,-1000.0,119.140625,-47.8515625,-1.0,1.0,1.0,0.0,4.m4v,4.0
2024-02-27 13:41:37.678761,1709037697.6787603,-324.70703125,-939.94140625,155.76171875,-41.9921875,-1.0,1.0,1.0,0.0,4.m4v,4.0
2024-02-27 13:41:37.682673,1709037697.6826737,-413.57421875,-1000.0,-489.2578125,-49.8046875,-1.0,1.0,1.0,0.0,4.m4v,4.0
2024-02-27 13:41:37.686579,1709037697.6865792,-1000.0,-937.98828125,-889.6484375,-49.31640625,-1.0,1.0,1.0,0.0,4.m4v,4.0
2024-02-27 13:41:37.690485,1709037697.6904848,-887.20703125,-1000.0,-591.30859375,-35.64453125,-1.0,1.0,1.0,0.0,4.m4v,4.0
2024-02-27 13:41:37.694390,1709037697.6943903,316.89453125,-219.7265625,215.8203125,-21.97265625,-1.0,1.0,1.0,0.0,4.m4v,4.0
2024-02-27 13:41:37.698296,1709037697.698296,999.51171875,999.51171875,492.1875,-20.5078125,-1.0,1.0,1.0,0.0,4.m4v,4.0
2024-02-27 13:41:37.702202,1709037697.7022016,903.80859375,953.61328125,157.71484375,-40.52734375,-1.0,1.0,1.0,0.0,4.m4v,4.0
2024-02-27 13:41:37.706107,1709037697.7061071,999.51171875,942.3828125,72.265625,-41.50390625,-1.0,1.0,1.0,0.0,4.m4v,4.0
2024-02-27 13:41:37.710013,1709037697.710013,-32.2265625,977.05078125,14.6484375,-39.0625,-1.0,1.0,1.0,0.0,4.m4v,4.0
2024-02-27 13:41:37.713918,1709037697.7139184,-803.22265625,976.07421875,302.734375,-42.96875,-1.0,1.0,1.0,0.0,4.m4v,4.0
2024-02-27 13:41:37.717824,1709037697.717824,473.14453125,901.3671875,437.5,-43.45703125,-1.0,1.0,1.0,0.0,4.m4v,4.0
2024-02-27 13:41:37.721730,1709037697.7217295,875.9765625,999.51171875,66.40625,-39.55078125,-1.0,1.0,1.0,0.0,4.m4v,4.0
2024-02-27 13:41:37.725635,1709037697.7256353,-386.23046875,293.9453125,-427.734375,-49.8046875,-1.0,1.0,1.0,0.0,4.m4v,4.0
2024-02-27 13:41:37.729548,1709037697.7295475,-1000.0,-1000.0,-890.13671875,-57.6171875,-1.0,1.0,1.0,0.0,4.m4v,4.0
2024-02-27 13:41:37.733454,1709037697.7334535,-1000.0,-1000.0,-484.375,-41.50390625,-1.0,1.0,1.0,0.0,4.m4v,4.0
2024-02-27 13:41:37.737359,1709037697.737359,127.44140625,-977.05078125,168.45703125,-29.78515625,-1.0,1.0,1.0,0.0,4.m4v,4.0
2024-02-27 13:41:37.741265,1709037697.7412646,992.1875,-960.44921875,-113.28125,-30.76171875,-1.0,1.0,1.0,0.0,4.m4v,4.0
2024-02-27 13:41:37.745170,1709037697.7451704,-425.29296875,-1000.0,-772.4609375,-44.43359375,-1.0,1.0,1.0,0.0,4.m4v,4.0
2024-02-27 13:41:37.749076,1709037697.749076,-874.51171875,-893.06640625,-452.63671875,-36.1328125,-1.0,1.0,1.0,0.0,4.m4v,4.0
2024-02-27 13:41:37.752981,1709037697.7529814,548.33984375,493.65234375,626.46484375,-12.20703125,-1.0,1.0,1.0,0.0,4.m4v,4.0
2024-02-27 13:41:37.756887,1709037697.7568872,999.51171875,999.51171875,836.9140625,-19.04296875,-1.0,1.0,1.0,0.0,4.m4v,4.0
2024-02-27 13:41:37.760793,1709037697.7607927,725.09765625,999.51171875,164.0625,-40.52734375,-1.0,1.0,1.0,0.0,4.m4v,4.0
2024-02-27 13:41:37.764698,1709037697.7646985,-388.18359375,370.1171875,-608.3984375,-53.7109375,-1.0,1.0,1.0,0.0,4.m4v,4.0
2024-02-27 13:41:37.768604,1709037697.7686038,-1000.0,-1000.0,-941.40625,-54.6875,-1.0,1.0,1.0,0.0,4.m4v,4.0
2024-02-27 13:41:37.772510,1709037697.7725096,-917.48046875,-941.40625,-367.1875,-47.8515625,-1.0,1.0,1.0,0.0,4.m4v,4.0
2024-02-27 13:41:37.776422,1709037697.7764215,209.9609375,-1000.0,213.8671875,-35.15625,-1.0,1.0,1.0,0.0,4.m4v,4.0
2024-02-27 13:41:37.780327,1709037697.780327,993.65234375,-591.796875,3.41796875,-32.2265625,-1.0,1.0,1.0,0.0,4.m4v,4.0
2024-02-27 13:41:37.784233,1709037697.7842329,999.51171875,854.98046875,-253.90625,-30.76171875,-1.0,1.0,1.0,0.0,4.m4v,4.0
2024-02-27 13:41:37.788138,1709037697.7881384,521.97265625,999.51171875,-362.79296875,-30.76171875,-1.0,1.0,1.0,0.0,4.m4v,4.0
2024-02-27 13:41:37.792044,1709037697.792044,-464.35546875,925.29296875,-158.69140625,-32.2265625,-1.0,1.0,1.0,0.0,4.m4v,4.0
2024-02-27 13:41:37.795950,1709037697.7959497,382.32421875,912.109375,696.77734375,-15.13671875,-1.0,1.0,1.0,0.0,4.m4v,4.0
2024-02-27 13:41:38.014703,1709037698.0147028,609.86328125,-1000.0,377.44140625,-34.1796875,-1.0,1.0,1.0,0.0,4.m4v,4.0
2024-02-27 13:41:38.018608,1709037698.0186083,959.9609375,-227.05078125,517.578125,-24.4140625,-1.0,1.0,1.0,0.0,4.m4v,4.0
2024-02-27 13:41:38.022514,1709037698.022514,999.51171875,999.51171875,380.37109375,-53.22265625,-1.0,1.0,1.0,0.0,4.m4v,4.0
2024-02-27 13:41:38.026420,1709037698.0264196,537.109375,954.58984375,-28.80859375,-64.94140625,-1.0,1.0,1.0,0.0,4.m4v,4.0
2024-02-27 13:41:38.030325,1709037698.0303252,-867.67578125,955.078125,-49.8046875,-62.98828125,-1.0,1.0,1.0,0.0,4.m4v,4.0
2024-02-27 13:41:38.034231,1709037698.034231,-75.1953125,922.36328125,760.25390625,-43.9453125,-1.0,1.0,1.0,0.0,4.m4v,4.0
2024-02-27 13:41:38.038136,1709037698.0381365,999.51171875,999.51171875,864.74609375,-31.25,-1.0,1.0,1.0,0.0,4.m4v,4.0
2024-02-27 13:41:38.042042,1709037698.042042,272.4609375,817.3828125,128.90625,-42.48046875,-1.0,1.0,1.0,0.0,4.m4v,4.0
2024-02-27 13:41:38.045948,1709037698.0459478,-930.6640625,-582.03125,-702.1484375,-68.84765625,-1.0,1.0,1.0,0.0,4.m4v,4.0
2024-02-27 13:41:38.049853,1709037698.049853,-1000.0,-1000.0,-799.31640625,-70.80078125,-1.0,1.0,1.0,0.0,4.m4v,4.0
2024-02-27 13:41:38.053759,1709037698.0537589,-608.88671875,-934.5703125,43.45703125,-42.48046875,-1.0,1.0,1.0,0.0,4.m4v,4.0
2024-02-27 13:41:38.057672,1709037698.0576718,850.5859375,-1000.0,507.32421875,-26.3671875,-1.0,1.0,1.0,0.0,4.m4v,4.0
2024-02-27 13:41:38.061577,1709037698.061577,454.58984375,-1000.0,-104.98046875,-41.9921875,-1.0,1.0,1.0,0.0,4.m4v,4.0
2024-02-27 13:41:38.065483,1709037698.065483,-916.50390625,-932.12890625,-804.19921875,-56.15234375,-1.0,1.0,1.0,0.0,4.m4v,4.0
2024-02-27 13:41:38.069389,1709037698.0693886,-1000.0,-1000.0,-747.55859375,-43.45703125,-1.0,1.0,1.0,0.0,4.m4v,4.0
2024-02-27 13:41:38.073294,1709037698.0732942,-145.5078125,-678.22265625,42.48046875,-26.3671875,-1.0,1.0,1.0,0.0,4.m4v,4.0
2024-02-27 13:41:38.077200,1709037698.0772,962.40234375,762.6953125,860.3515625,-11.71875,-1.0,1.0,1.0,0.0,4.m4v,4.0
2024-02-27 13:41:38.249079,1709037698.2490797,-937.01171875,-937.5,-1000.0,-43.45703125,-1.0,1.0,1.0,0.0,4.m4v,4.0
2024-02-27 13:41:38.256891,1709037698.2568903,535.15625,-219.7265625,-426.26953125,-19.04296875,-1.0,1.0,1.0,0.0,4.m4v,4.0
2024-02-27 13:41:38.264702,1709037698.2647018,933.59375,953.61328125,-771.484375,-33.69140625,-1.0,1.0,1.0,0.0,4.m4v,4.0
2024-02-27 13:41:38.272513,1709037698.272513,194.3359375,977.05078125,-453.61328125,-42.48046875,-1.0,1.0,1.0,0.0,4.m4v,4.0
2024-02-27 13:41:38.280324,1709037698.2803242,354.98046875,999.51171875,-631.34765625,-42.48046875,-1.0,1.0,1.0,0.0,4.m4v,4.0
2024-02-27 13:41:38.288136,1709037698.2881355,-1000.0,-999.51171875,-1000.0,-56.640625,-1.0,1.0,1.0,0.0,4.m4v,4.0
2024-02-27 13:41:38.295955,1709037698.2959552,32.71484375,-462.40234375,-310.05859375,-27.83203125,-1.0,1.0,1.0,0.0,4.m4v,4.0
2024-02-27 13:41:38.303766,1709037698.3037665,957.51953125,999.51171875,-736.328125,-33.69140625,-1.0,1.0,1.0,0.0,4.m4v,4.0
2024-02-27 13:41:38.311578,1709037698.3115776,-229.00390625,985.83984375,-351.07421875,-22.4609375,-1.0,1.0,1.0,0.0,4.m4v,4.0
2024-02-27 13:41:38.319389,1709037698.3193886,934.5703125,921.38671875,186.03515625,-20.99609375,-1.0,1.0,1.0,0.0,4.m4v,4.0
2024-02-27 13:41:38.327200,1709037698.3272,-922.8515625,39.0625,-841.796875,-38.57421875,-1.0,1.0,1.0,0.0,4.m4v,4.0
2024-02-27 13:41:38.335011,1709037698.3350112,-746.09375,-964.35546875,-418.45703125,-33.69140625,-1.0,1.0,1.0,0.0,4.m4v,4.0
2024-02-27 13:41:38.342830,1709037698.3428304,524.90234375,-1000.0,-738.76953125,-29.296875,-1.0,1.0,1.0,0.0,4.m4v,4.0
2024-02-27 13:41:38.350641,1709037698.3506415,-947.265625,-1000.0,-770.5078125,-29.296875,-1.0,1.0,1.0,0.0,4.m4v,4.0
2024-02-27 13:41:38.358453,1709037698.3584528,999.51171875,976.5625,716.796875,-0.9765625,-1.0,1.0,1.0,0.0,4.m4v,4.0
2024-02-27 13:41:38.366264,1709037698.366264,-333.49609375,182.12890625,-859.86328125,-45.8984375,-1.0,1.0,1.0,0.0,4.m4v,4.0
2024-02-27 13:41:38.374075,1709037698.3740752,-742.67578125,-1000.0,-390.625,-39.55078125,-1.0,1.0,1.0,0.0,4.m4v,4.0
2024-02-27 13:41:38.381886,1709037698.3818865,999.51171875,988.76953125,93.75,-22.94921875,-1.0,1.0,1.0,0.0,4.m4v,4.0
2024-02-27 13:41:38.389705,1709037698.3897054,53.7109375,933.10546875,-248.53515625,-33.69140625,-1.0,1.0,1.0,0.0,4.m4v,4.0
2024-02-27 13:41:38.397517,1709037698.3975167,991.2109375,981.4453125,595.703125,-10.7421875,-1.0,1.0,1.0,0.0,4.m4v,4.0
2024-02-27 13:41:38.405328,1709037698.405328,-470.21484375,999.51171875,-122.55859375,-47.36328125,-1.0,1.0,1.0,0.0,4.m4v,4.0
2024-02-27 13:41:38.413139,1709037698.413139,-1000.0,-965.8203125,12.20703125,-46.38671875,-1.0,1.0,1.0,0.0,4.m4v,4.0
2024-02-27 13:41:38.420950,1709037698.4209504,-357.421875,-955.078125,-76.66015625,-40.0390625,-1.0,1.0,1.0,0.0,4.m4v,4.0
2024-02-27 13:41:38.428761,1709037698.4287615,-1000.0,-951.66015625,-692.87109375,-39.0625,-1.0,1.0,1.0,0.0,4.m4v,4.0
2024-02-27 13:41:38.436580,1709037698.43658,929.19921875,-82.51953125,471.19140625,-27.83203125,-1.0,1.0,1.0,0.0,4.m4v,4.0
2024-02-27 13:41:38.444391,1709037698.4443913,969.7265625,936.5234375,-11.23046875,-33.203125,-1.0,1.0,1.0,0.0,4.m4v,4.0
2024-02-27 13:41:38.452203,1709037698.4522026,-688.96484375,974.609375,231.4453125,-38.0859375,-1.0,1.0,1.0,0.0,4.m4v,4.0
2024-02-27 13:41:38.460014,1709037698.4600136,868.65234375,999.51171875,546.38671875,-42.96875,-1.0,1.0,1.0,0.0,4.m4v,4.0
2024-02-27 13:41:38.467825,1709037698.467825,-1000.0,-1000.0,-823.73046875,-68.359375,-1.0,1.0,1.0,0.0,4.m4v,4.0
2024-02-27 13:41:38.475636,1709037698.475636,-142.08984375,-945.80078125,305.17578125,-33.69140625,-1.0,1.0,1.0,0.0,4.m4v,4.0
2024-02-27 13:41:38.483454,1709037698.4834542,939.94140625,999.51171875,39.0625,-38.0859375,-1.0,1.0,1.0,0.0,4.m4v,4.0
2024-02-27 13:41:38.491265,1709037698.4912653,-1000.0,-3.41796875,-253.90625,-47.8515625,-1.0,1.0,1.0,0.0,4.m4v,4.0
2024-02-27 13:41:38.499077,1709037698.4990766,232.91015625,-218.75,548.33984375,-37.59765625,-1.0,1.0,1.0,0.0,4.m4v,4.0
2024-02-27 13:41:38.506888,1709037698.5068877,322.265625,880.37109375,-88.37890625,-36.1328125,-1.0,1.0,1.0,0.0,4.m4v,4.0
2024-02-27 13:41:38.514699,1709037698.514699,-1000.0,-1000.0,-108.88671875,-46.875,-1.0,1.0,1.0,0.0,4.m4v,4.0
2024-02-27 13:41:38.522510,1709037698.5225103,-43.9453125,-1000.0,-443.359375,-45.8984375,-1.0,1.0,1.0,0.0,4.m4v,4.0
2024-02-27 13:41:38.530328,1709037698.530328,-1000.0,-1000.0,-749.0234375,-47.8515625,-1.0,1.0,1.0,0.0,4.m4v,4.0
2024-02-27 13:41:38.538139,1709037698.538139,999.51171875,580.078125,344.7265625,-14.6484375,-1.0,1.0,1.0,0.0,4.m4v,4.0
2024-02-27 13:41:38.545950,1709037698.5459504,978.02734375,905.2734375,-255.859375,-16.11328125,-1.0,1.0,1.0,0.0,4.m4v,4.0
2024-02-27 13:41:38.553762,1709037698.5537615,-25.87890625,980.95703125,250.48828125,-17.08984375,-1.0,1.0,1.0,0.0,4.m4v,4.0
2024-02-27 13:41:38.561573,1709037698.561573,744.62890625,999.51171875,139.16015625,-34.66796875,-1.0,1.0,1.0,0.0,4.m4v,4.0
2024-02-27 13:41:38.569384,1709037698.569384,-1000.0,-492.67578125,-529.78515625,-52.734375,-1.0,1.0,1.0,0.0,4.m4v,4.0
2024-02-27 13:41:38.577202,1709037698.5772016,-626.46484375,-936.03515625,11.23046875,-29.296875,-1.0,1.0,1.0,0.0,4.m4v,4.0
2024-02-27 13:41:38.585013,1709037698.585013,-129.39453125,-935.546875,-691.89453125,-42.48046875,-1.0,1.0,1.0,0.0,4.m4v,4.0
2024-02-27 13:41:38.592824,1709037698.592824,-200.1953125,-245.60546875,-9.27734375,-24.4140625,-1.0,1.0,1.0,0.0,4.m4v,4.0
2024-02-27 13:41:38.600635,1709037698.600635,999.51171875,944.82421875,411.62109375,-32.2265625,-1.0,1.0,1.0,0.0,4.m4v,4.0
2024-02-27 13:41:38.608446,1709037698.6084464,-1000.0,-210.9375,-889.6484375,-64.94140625,-1.0,1.0,1.0,0.0,4.m4v,4.0
2024-02-27 13:41:38.616258,1709037698.6162577,-108.88671875,-990.234375,26.3671875,-17.08984375,-1.0,1.0,1.0,0.0,4.m4v,4.0
2024-02-27 13:41:38.624078,1709037698.6240778,999.51171875,533.69140625,-272.94921875,-36.62109375,-1.0,1.0,1.0,0.0,4.m4v,4.0
2024-02-27 13:41:38.631889,1709037698.631889,208.984375,907.2265625,21.97265625,-37.109375,-1.0,1.0,1.0,0.0,4.m4v,4.0
2024-02-27 13:41:38.639700,1709037698.6397002,999.51171875,928.7109375,768.06640625,-31.25,-1.0,1.0,1.0,0.0,4.m4v,4.0
2024-02-27 13:41:38.647511,1709037698.6475115,-824.70703125,-30.2734375,-578.61328125,-51.26953125,-1.0,1.0,1.0,0.0,4.m4v,4.0
2024-02-27 13:41:38.655323,1709037698.6553228,-873.046875,-956.0546875,-149.90234375,-30.2734375,-1.0,1.0,1.0,0.0,4.m4v,4.0
2024-02-27 13:41:38.663134,1709037698.663134,-320.80078125,-997.0703125,-694.82421875,-50.29296875,-1.0,1.0,1.0,0.0,4.m4v,4.0
2024-02-27 13:41:38.670954,1709037698.6709538,-714.35546875,-1000.0,-668.45703125,-38.57421875,-1.0,1.0,1.0,0.0,4.m4v,4.0
2024-02-27 13:41:38.678765,1709037698.678765,999.51171875,999.51171875,684.5703125,-14.16015625,-1.0,1.0,1.0,0.0,4.m4v,4.0
2024-02-27 13:41:38.686576,1709037698.686576,999.51171875,950.1953125,200.1953125,-27.83203125,-1.0,1.0,1.0,0.0,4.m4v,4.0
2024-02-27 13:41:38.694387,1709037698.6943874,-230.46875,897.4609375,494.62890625,-47.36328125,-1.0,1.0,1.0,0.0,4.m4v,4.0
2024-02-27 13:41:39.229550,1709037699.2295496,-1000.0,-1000.0,-768.5546875,-41.9921875,-1.0,1.0,1.0,0.0,4.m4v,4.0
2024-02-27 13:41:39.233455,1709037699.2334552,-149.90234375,-702.1484375,-132.32421875,-19.04296875,-1.0,1.0,1.0,0.0,4.m4v,4.0
2024-02-27 13:41:39.237361,1709037699.2373607,999.51171875,733.3984375,687.5,-0.48828125,-1.0,1.0,1.0,0.0,4.m4v,4.0
2024-02-27 13:41:39.241266,1709037699.2412665,999.51171875,999.51171875,485.83984375,-15.625,-1.0,1.0,1.0,0.0,4.m4v,4.0
2024-02-27 13:41:39.245172,1709037699.245172,582.51953125,908.203125,-261.23046875,-42.48046875,-1.0,1.0,1.0,0.0,4.m4v,4.0
2024-02-27 13:41:39.249078,1709037699.2490776,56.640625,996.58203125,43.45703125,-34.1796875,-1.0,1.0,1.0,0.0,4.m4v,4.0
2024-02-27 13:41:39.252983,1709037699.252983,712.890625,920.8984375,878.41796875,-15.13671875,-1.0,1.0,1.0,0.0,4.m4v,4.0
2024-02-27 13:41:39.256889,1709037699.2568889,999.51171875,999.51171875,944.82421875,-19.04296875,-1.0,1.0,1.0,0.0,4.m4v,4.0
2024-02-27 13:41:39.260794,1709037699.2607944,178.22265625,864.2578125,368.1640625,-32.2265625,-1.0,1.0,1.0,0.0,4.m4v,4.0
2024-02-27 13:41:39.264700,1709037699.2647002,-996.09375,-509.765625,-553.7109375,-49.8046875,-1.0,1.0,1.0,0.0,4.m4v,4.0
2024-02-27 13:41:39.268606,1709037699.2686057,-991.69921875,-1000.0,-928.22265625,-50.29296875,-1.0,1.0,1.0,0.0,4.m4v,4.0
2024-02-27 13:41:39.272511,1709037699.2725112,-947.265625,-920.41015625,-292.48046875,-28.3203125,-1.0,1.0,1.0,0.0,4.m4v,4.0
2024-02-27 13:41:39.276423,1709037699.2764232,200.68359375,-970.703125,423.33984375,-21.97265625,-1.0,1.0,1.0,0.0,4.m4v,4.0
2024-02-27 13:41:39.280329,1709037699.280329,954.58984375,-1000.0,253.90625,-25.87890625,-1.0,1.0,1.0,0.0,4.m4v,4.0
2024-02-27 13:41:39.284235,1709037699.2842343,837.890625,13.671875,-63.96484375,-23.4375,-1.0,1.0,1.0,0.0,4.m4v,4.0
2024-02-27 13:41:39.288140,1709037699.28814,798.33984375,999.51171875,-73.2421875,-28.80859375,-1.0,1.0,1.0,0.0,4.m4v,4.0
2024-02-27 13:41:39.292046,1709037699.2920458,-163.57421875,924.8046875,55.6640625,-35.15625,-1.0,1.0,1.0,0.0,4.m4v,4.0
2024-02-27 13:41:39.295951,1709037699.2959514,227.5390625,896.484375,728.02734375,-17.08984375,-1.0,1.0,1.0,0.0,4.m4v,4.0
2024-02-27 13:41:39.299857,1709037699.299857,999.51171875,999.51171875,859.86328125,-9.765625,-1.0,1.0,1.0,0.0,4.m4v,4.0
2024-02-27 13:41:39.303763,1709037699.303763,-132.32421875,188.96484375,-237.79296875,-38.57421875,-1.0,1.0,1.0,0.0,4.m4v,4.0
2024-02-27 13:41:39.307668,1709037699.3076682,-1000.0,-1000.0,-993.1640625,-53.22265625,-1.0,1.0,1.0,0.0,4.m4v,4.0
2024-02-27 13:41:39.311574,1709037699.3115735,-1000.0,-983.88671875,-524.4140625,-38.57421875,-1.0,1.0,1.0,0.0,4.m4v,4.0
2024-02-27 13:41:39.315479,1709037699.3154793,-155.76171875,-973.14453125,339.84375,-14.6484375,-1.0,1.0,1.0,0.0,4.m4v,4.0
2024-02-27 13:41:39.319385,1709037699.319385,999.51171875,-1000.0,492.1875,-14.16015625,-1.0,1.0,1.0,0.0,4.m4v,4.0
2024-02-27 13:41:39.323306,1709037699.3233063,185.05859375,-1000.0,-196.2890625,-38.0859375,-1.0,1.0,1.0,0.0,4.m4v,4.0
2024-02-27 13:41:39.327212,1709037699.327212,-1000.0,-943.359375,-701.171875,-44.921875,-1.0,1.0,1.0,0.0,4.m4v,4.0
2024-02-27 13:41:39.331117,1709037699.3311174,-1000.0,-1000.0,-432.12890625,-35.15625,-1.0,1.0,1.0,0.0,4.m4v,4.0
2024-02-27 13:41:39.335023,1709037699.335023,7.32421875,-804.6875,222.65625,-21.97265625,-1.0,1.0,1.0,0.0,4.m4v,4.0
2024-02-27 13:41:39.338929,1709037699.3389287,999.51171875,610.83984375,534.66796875,-9.765625,-1.0,1.0,1.0,0.0,4.m4v,4.0
2024-02-27 13:41:39.342834,1709037699.3428342,946.77734375,991.2109375,373.046875,-24.90234375,-1.0,1.0,1.0,0.0,4.m4v,4.0
2024-02-27 13:41:39.346740,1709037699.3467398,845.703125,999.51171875,205.56640625,-44.43359375,-1.0,1.0,1.0,0.0,4.m4v,4.0
2024-02-27 13:41:39.350646,1709037699.3506455,-262.6953125,515.625,1.953125,-50.78125,-1.0,1.0,1.0,0.0,4.m4v,4.0
2024-02-27 13:41:39.354551,1709037699.354551,-1000.0,-921.875,-16.6015625,-51.26953125,-1.0,1.0,1.0,0.0,4.m4v,4.0
2024-02-27 13:41:39.358457,1709037699.3584566,-969.23828125,-1000.0,86.9140625,-50.78125,-1.0,1.0,1.0,0.0,4.m4v,4.0
2024-02-27 13:41:39.362362,1709037699.3623624,-978.02734375,-962.890625,-444.3359375,-54.6875,-1.0,1.0,1.0,0.0,4.m4v,4.0
2024-02-27 13:41:39.366268,1709037699.366268,-971.19140625,-945.80078125,-973.6328125,-55.6640625,-1.0,1.0,1.0,0.0,4.m4v,4.0
2024-02-27 13:41:39.370180,1709037699.3701804,-1000.0,-1000.0,-865.234375,-49.8046875,-1.0,1.0,1.0,0.0,4.m4v,4.0
2024-02-27 13:41:39.374086,1709037699.374086,-13.671875,-648.92578125,-160.15625,-34.1796875,-1.0,1.0,1.0,0.0,4.m4v,4.0
2024-02-27 13:41:39.377992,1709037699.3779917,999.51171875,788.57421875,584.47265625,-13.671875,-1.0,1.0,1.0,0.0,4.m4v,4.0
2024-02-27 13:41:39.381897,1709037699.3818972,999.51171875,999.51171875,350.09765625,-18.5546875,-1.0,1.0,1.0,0.0,4.m4v,4.0
2024-02-27 13:41:39.385803,1709037699.385803,632.32421875,910.64453125,-305.17578125,-33.69140625,-1.0,1.0,1.0,0.0,4.m4v,4.0
2024-02-27 13:41:39.389709,1709037699.3897085,93.75,984.86328125,13.18359375,-34.1796875,-1.0,1.0,1.0,0.0,4.m4v,4.0
2024-02-27 13:41:39.393614,1709037699.393614,674.31640625,980.46875,764.6484375,-27.83203125,-1.0,1.0,1.0,0.0,4.m4v,4.0
2024-02-27 13:41:39.397520,1709037699.3975198,999.51171875,897.4609375,755.37109375,-20.5078125,-1.0,1.0,1.0,0.0,4.m4v,4.0
2024-02-27 13:41:39.401425,1709037699.4014254,448.73046875,999.51171875,328.61328125,-29.78515625,-1.0,1.0,1.0,0.0,4.m4v,4.0
2024-02-27 13:41:39.405331,1709037699.405331,-750.0,403.80859375,-233.3984375,-47.8515625,-1.0,1.0,1.0,0.0,4.m4v,4.0
2024-02-27 13:41:39.409236,1709037699.4092364,-982.91015625,-988.28125,-767.08984375,-49.31640625,-1.0,1.0,1.0,0.0,4.m4v,4.0
2024-02-27 13:41:39.413142,1709037699.4131422,-1000.0,-952.1484375,-456.54296875,-49.8046875,-1.0,1.0,1.0,0.0,4.m4v,4.0
2024-02-27 13:41:39.417056,1709037699.417056,-362.3046875,-1000.0,164.0625,-45.8984375,-1.0,1.0,1.0,0.0,4.m4v,4.0
2024-02-27 13:41:39.420962,1709037699.420962,854.4921875,-373.046875,121.58203125,-33.203125,-1.0,1.0,1.0,0.0,4.m4v,4.0
2024-02-27 13:41:39.424867,1709037699.4248674,999.51171875,984.86328125,-229.4921875,-38.57421875,-1.0,1.0,1.0,0.0,4.m4v,4.0
2024-02-27 13:41:39.428773,1709037699.428773,219.7265625,978.515625,-418.45703125,-41.50390625,-1.0,1.0,1.0,0.0,4.m4v,4.0
2024-02-27 13:41:39.432679,1709037699.4326787,-474.12109375,931.15234375,-10.25390625,-30.2734375,-1.0,1.0,1.0,0.0,4.m4v,4.0
2024-02-27 13:41:39.436584,1709037699.4365842,690.4296875,918.45703125,874.0234375,-14.16015625,-1.0,1.0,1.0,0.0,4.m4v,4.0
2024-02-27 13:41:39.440490,1709037699.4404898,981.4453125,999.51171875,728.02734375,-22.94921875,-1.0,1.0,1.0,0.0,4.m4v,4.0
2024-02-27 13:41:39.545957,1709037699.545957,-1000.0,-987.3046875,-703.125,-65.4296875,-1.0,1.0,1.0,0.0,4.m4v,4.0
2024-02-27 13:41:39.557681,1709037699.557681,313.96484375,-1000.0,403.3203125,-24.4140625,-1.0,1.0,1.0,0.0,4.m4v,4.0
2024-02-27 13:41:39.565493,1709037699.5654926,-238.28125,-975.09765625,-501.46484375,-45.8984375,-1.0,1.0,1.0,0.0,4.m4v,4.0
2024-02-27 13:41:39.577209,1709037699.5772097,603.02734375,161.62109375,662.59765625,-16.6015625,-1.0,1.0,1.0,0.0,4.m4v,4.0
2024-02-27 13:41:39.585021,1709037699.5850203,730.95703125,999.51171875,204.1015625,-34.1796875,-1.0,1.0,1.0,0.0,4.m4v,4.0
2024-02-27 13:41:39.596737,1709037699.5967374,-328.125,-1000.0,420.41015625,-32.2265625,-1.0,1.0,1.0,0.0,4.m4v,4.0
2024-02-27 13:41:39.608461,1709037699.6084611,-35.64453125,999.51171875,-291.50390625,-41.50390625,-1.0,1.0,1.0,0.0,4.m4v,4.0
2024-02-27 13:41:39.616272,1709037699.6162722,-925.29296875,-990.234375,326.66015625,-45.8984375,-1.0,1.0,1.0,0.0,4.m4v,4.0
2024-02-27 13:41:39.627989,1709037699.627989,581.54296875,579.1015625,-29.296875,-44.43359375,-1.0,1.0,1.0,0.0,4.m4v,4.0
2024-02-27 13:41:39.635800,1709037699.6358004,914.0625,906.73828125,583.984375,-28.3203125,-1.0,1.0,1.0,0.0,4.m4v,4.0
2024-02-27 13:41:39.647517,1709037699.6475172,-780.76171875,185.546875,-215.33203125,-56.15234375,-1.0,1.0,1.0,0.0,4.m4v,4.0
2024-02-27 13:41:39.659241,1709037699.6592407,336.42578125,-986.81640625,315.4296875,-29.296875,-1.0,1.0,1.0,0.0,4.m4v,4.0
2024-02-27 13:41:39.667052,1709037699.667052,-987.79296875,-1000.0,-757.8125,-41.015625,-1.0,1.0,1.0,0.0,4.m4v,4.0
2024-02-27 13:41:39.678769,1709037699.6787689,999.0234375,999.51171875,938.96484375,-16.11328125,-1.0,1.0,1.0,0.0,4.m4v,4.0
2024-02-27 13:41:39.686580,1709037699.6865802,-74.70703125,976.07421875,-149.90234375,-46.875,-1.0,1.0,1.0,0.0,4.m4v,4.0
2024-02-27 13:41:39.698307,1709037699.6983066,102.5390625,-1000.0,487.79296875,-24.90234375,-1.0,1.0,1.0,0.0,4.m4v,4.0
2024-02-27 13:41:39.710023,1709037699.7100234,502.44140625,999.51171875,27.83203125,-24.90234375,-1.0,1.0,1.0,0.0,4.m4v,4.0
2024-02-27 13:41:39.717834,1709037699.7178345,950.1953125,921.875,960.9375,-12.6953125,-1.0,1.0,1.0,0.0,4.m4v,4.0
2024-02-27 13:41:39.729551,1709037699.7295513,-1000.0,-1000.0,-789.0625,-55.17578125,-1.0,1.0,1.0,0.0,4.m4v,4.0
2024-02-27 13:41:39.737363,1709037699.7373626,-19.04296875,-974.12109375,411.62109375,-21.97265625,-1.0,1.0,1.0,0.0,4.m4v,4.0
2024-02-27 13:41:39.749088,1709037699.7490883,-1000.0,-957.03125,-693.359375,-41.015625,-1.0,1.0,1.0,0.0,4.m4v,4.0
2024-02-27 13:41:39.760805,1709037699.7608051,999.51171875,999.51171875,546.38671875,-14.6484375,-1.0,1.0,1.0,0.0,4.m4v,4.0
2024-02-27 13:41:39.768616,1709037699.7686162,999.51171875,965.8203125,418.45703125,-30.76171875,-1.0,1.0,1.0,0.0,4.m4v,4.0
2024-02-27 13:41:39.780333,1709037699.780333,-281.73828125,977.05078125,460.9375,-44.921875,-1.0,1.0,1.0,0.0,4.m4v,4.0
2024-02-27 13:41:39.788144,1709037699.7881444,-990.72265625,-1000.0,-812.01171875,-53.22265625,-1.0,1.0,1.0,0.0,4.m4v,4.0
2024-02-27 13:41:39.799870,1709037699.7998695,999.51171875,-1000.0,527.34375,-24.90234375,-1.0,1.0,1.0,0.0,4.m4v,4.0
2024-02-27 13:41:39.811586,1709037699.8115864,-635.7421875,-984.375,-153.3203125,-45.8984375,-1.0,1.0,1.0,0.0,4.m4v,4.0
2024-02-27 13:41:39.963929,1709037699.9639287,450.68359375,999.51171875,-751.953125,-36.1328125,-1.0,1.0,1.0,0.0,4.m4v,4.0
2024-02-27 13:41:39.971740,1709037699.9717398,-1000.0,-1000.0,-903.3203125,-49.31640625,-1.0,1.0,1.0,0.0,4.m4v,4.0
2024-02-27 13:41:39.983464,1709037699.9834635,999.51171875,429.19921875,-601.07421875,-34.66796875,-1.0,1.0,1.0,0.0,4.m4v,4.0
2024-02-27 13:41:39.991275,1709037699.9912748,239.74609375,906.73828125,-447.75390625,-36.62109375,-1.0,1.0,1.0,0.0,4.m4v,4.0
2024-02-27 13:41:40.002991,1709037700.0029914,957.03125,999.51171875,528.80859375,-32.2265625,-1.0,1.0,1.0,0.0,4.m4v,4.0
2024-02-27 13:41:40.014708,1709037700.0147085,-1000.0,-983.88671875,-433.59375,-46.38671875,-1.0,1.0,1.0,0.0,4.m4v,4.0
2024-02-27 13:41:40.022520,1709037700.0225196,428.22265625,-1000.0,-443.84765625,-41.015625,-1.0,1.0,1.0,0.0,4.m4v,4.0
2024-02-27 13:41:40.034243,1709037700.034243,-28.80859375,-343.75,-60.546875,-30.2734375,-1.0,1.0,1.0,0.0,4.m4v,4.0
2024-02-27 13:41:40.042054,1709037700.0420542,938.4765625,974.609375,175.78125,-23.4375,-1.0,1.0,1.0,0.0,4.m4v,4.0
2024-02-27 13:41:40.053771,1709037700.053771,-79.1015625,984.375,277.83203125,-46.875,-1.0,1.0,1.0,0.0,4.m4v,4.0
2024-02-27 13:41:40.065488,1709037700.065488,-369.140625,702.1484375,-309.5703125,-49.31640625,-1.0,1.0,1.0,0.0,4.m4v,4.0
2024-02-27 13:41:40.073306,1709037700.0733056,-1000.0,-1000.0,-465.33203125,-52.734375,-1.0,1.0,1.0,0.0,4.m4v,4.0
2024-02-27 13:41:40.085022,1709037700.0850224,-71.77734375,-930.6640625,-709.47265625,-58.10546875,-1.0,1.0,1.0,0.0,4.m4v,4.0
2024-02-27 13:41:40.092834,1709037700.0928338,-252.44140625,-340.8203125,-124.0234375,-40.52734375,-1.0,1.0,1.0,0.0,4.m4v,4.0
2024-02-27 13:41:40.104551,1709037700.1045506,292.48046875,999.51171875,-239.2578125,-57.12890625,-1.0,1.0,1.0,0.0,4.m4v,4.0
2024-02-27 13:41:40.260808,1709037700.2608085,999.51171875,962.890625,383.7890625,-30.76171875,-1.0,1.0,1.0,0.0,4.m4v,4.0
2024-02-27 13:41:40.264714,1709037700.264714,879.8828125,943.84765625,-202.1484375,-39.55078125,-1.0,1.0,1.0,0.0,4.m4v,4.0
2024-02-27 13:41:40.268620,1709037700.2686198,-7.32421875,999.51171875,-498.046875,-46.38671875,-1.0,1.0,1.0,0.0,4.m4v,4.0
2024-02-27 13:41:40.272525,1709037700.2725253,-1000.0,-44.921875,-288.57421875,-45.41015625,-1.0,1.0,1.0,0.0,4.m4v,4.0
2024-02-27 13:41:40.276431,1709037700.2764308,-613.28125,-1000.0,120.60546875,-39.55078125,-1.0,1.0,1.0,0.0,4.m4v,4.0
2024-02-27 13:41:40.280337,1709037700.2803366,694.3359375,78.61328125,679.19921875,-27.83203125,-1.0,1.0,1.0,0.0,4.m4v,4.0
2024-02-27 13:41:40.284242,1709037700.2842422,999.51171875,999.51171875,369.140625,-31.25,-1.0,1.0,1.0,0.0,4.m4v,4.0
2024-02-27 13:41:40.288148,1709037700.2881477,74.21875,857.91015625,-340.33203125,-43.9453125,-1.0,1.0,1.0,0.0,4.m4v,4.0
2024-02-27 13:41:40.292053,1709037700.2920532,-1000.0,-440.4296875,-277.34375,-51.26953125,-1.0,1.0,1.0,0.0,4.m4v,4.0
2024-02-27 13:41:40.295959,1709037700.295959,-740.72265625,-1000.0,219.23828125,-41.015625,-1.0,1.0,1.0,0.0,4.m4v,4.0
2024-02-27 13:41:40.299865,1709037700.2998643,514.16015625,-1000.0,323.73046875,-30.2734375,-1.0,1.0,1.0,0.0,4.m4v,4.0
2024-02-27 13:41:40.303770,1709037700.30377,999.51171875,-261.23046875,-5.37109375,-31.25,-1.0,1.0,1.0,0.0,4.m4v,4.0
2024-02-27 13:41:40.307683,1709037700.3076837,958.49609375,999.51171875,-68.84765625,-22.94921875,-1.0,1.0,1.0,0.0,4.m4v,4.0
2024-02-27 13:41:40.311589,1709037700.311589,639.6484375,966.796875,59.5703125,-24.90234375,-1.0,1.0,1.0,0.0,4.m4v,4.0
2024-02-27 13:41:40.315495,1709037700.3154943,572.265625,869.62890625,607.421875,-18.5546875,-1.0,1.0,1.0,0.0,4.m4v,4.0
2024-02-27 13:41:40.319400,1709037700.3194003,999.51171875,999.51171875,878.41796875,-15.13671875,-1.0,1.0,1.0,0.0,4.m4v,4.0
2024-02-27 13:41:40.323306,1709037700.3233058,111.81640625,330.56640625,66.89453125,-40.52734375,-1.0,1.0,1.0,0.0,4.m4v,4.0
2024-02-27 13:41:40.327211,1709037700.3272114,-1000.0,-1000.0,-584.47265625,-52.734375,-1.0,1.0,1.0,0.0,4.m4v,4.0
2024-02-27 13:41:40.331117,1709037700.3311172,-1000.0,-1000.0,-140.625,-39.55078125,-1.0,1.0,1.0,0.0,4.m4v,4.0
2024-02-27 13:41:40.335023,1709037700.3350227,-741.2109375,-961.42578125,350.5859375,-26.85546875,-1.0,1.0,1.0,0.0,4.m4v,4.0
2024-02-27 13:41:40.338928,1709037700.3389282,576.66015625,-1000.0,433.59375,-24.90234375,-1.0,1.0,1.0,0.0,4.m4v,4.0
2024-02-27 13:41:40.342834,1709037700.3428338,642.578125,-1000.0,5.37109375,-33.203125,-1.0,1.0,1.0,0.0,4.m4v,4.0
2024-02-27 13:41:40.346740,1709037700.3467395,-719.23828125,-959.47265625,-672.8515625,-48.33984375,-1.0,1.0,1.0,0.0,4.m4v,4.0
2024-02-27 13:41:40.350645,1709037700.350645,-1000.0,-1000.0,-729.00390625,-47.8515625,-1.0,1.0,1.0,0.0,4.m4v,4.0
2024-02-27 13:41:40.354558,1709037700.3545575,-175.29296875,-962.890625,64.94140625,-33.69140625,-1.0,1.0,1.0,0.0,4.m4v,4.0
2024-02-27 13:41:40.358463,1709037700.3584633,977.5390625,370.1171875,757.32421875,-21.97265625,-1.0,1.0,1.0,0.0,4.m4v,4.0
2024-02-27 13:41:40.362369,1709037700.3623688,974.12109375,999.51171875,561.03515625,-25.390625,-1.0,1.0,1.0,0.0,4.m4v,4.0
2024-02-27 13:41:40.366274,1709037700.3662744,839.35546875,999.51171875,166.015625,-25.390625,-1.0,1.0,1.0,0.0,4.m4v,4.0
2024-02-27 13:41:40.370180,1709037700.37018,-343.75,253.41796875,-166.9921875,-37.59765625,-1.0,1.0,1.0,0.0,4.m4v,4.0
2024-02-27 13:41:40.374086,1709037700.3740857,-1000.0,-1000.0,271.97265625,-41.50390625,-1.0,1.0,1.0,0.0,4.m4v,4.0
2024-02-27 13:41:40.377991,1709037700.3779912,323.2421875,-993.65234375,958.984375,-28.80859375,-1.0,1.0,1.0,0.0,4.m4v,4.0
2024-02-27 13:41:40.381897,1709037700.3818967,510.25390625,-968.26171875,333.0078125,-39.0625,-1.0,1.0,1.0,0.0,4.m4v,4.0
2024-02-27 13:41:40.385803,1709037700.3858025,-899.4140625,-1000.0,-624.51171875,-50.78125,-1.0,1.0,1.0,0.0,4.m4v,4.0
2024-02-27 13:41:40.389708,1709037700.389708,-1000.0,-931.15234375,-640.13671875,-49.31640625,-1.0,1.0,1.0,0.0,4.m4v,4.0
2024-02-27 13:41:40.393614,1709037700.3936136,-576.66015625,-1000.0,2.9296875,-32.2265625,-1.0,1.0,1.0,0.0,4.m4v,4.0
2024-02-27 13:41:40.397519,1709037700.3975194,639.6484375,-636.23046875,507.32421875,-22.94921875,-1.0,1.0,1.0,0.0,4.m4v,4.0
2024-02-27 13:41:40.401431,1709037700.401431,999.51171875,795.8984375,461.9140625,-24.90234375,-1.0,1.0,1.0,0.0,4.m4v,4.0
2024-02-27 13:41:40.405337,1709037700.4053369,764.6484375,999.51171875,-25.87890625,-39.55078125,-1.0,1.0,1.0,0.0,4.m4v,4.0
2024-02-27 13:41:40.409243,1709037700.4092426,-323.73046875,912.109375,-170.8984375,-53.22265625,-1.0,1.0,1.0,0.0,4.m4v,4.0
2024-02-27 13:41:40.413148,1709037700.4131482,-794.43359375,984.86328125,229.4921875,-47.8515625,-1.0,1.0,1.0,0.0,4.m4v,4.0
2024-02-27 13:41:40.417054,1709037700.4170537,401.3671875,975.09765625,760.7421875,-33.203125,-1.0,1.0,1.0,0.0,4.m4v,4.0
2024-02-27 13:41:40.420959,1709037700.4209592,999.51171875,901.3671875,977.5390625,-29.296875,-1.0,1.0,1.0,0.0,4.m4v,4.0
2024-02-27 13:41:40.424865,1709037700.424865,781.73828125,999.51171875,756.34765625,-41.50390625,-1.0,1.0,1.0,0.0,4.m4v,4.0
2024-02-27 13:41:40.428771,1709037700.4287703,-365.234375,285.15625,147.94921875,-59.08203125,-1.0,1.0,1.0,0.0,4.m4v,4.0
2024-02-27 13:41:40.432676,1709037700.432676,-1000.0,-1000.0,-58.59375,-57.6171875,-1.0,1.0,1.0,0.0,4.m4v,4.0
2024-02-27 13:41:40.436582,1709037700.436582,-936.5234375,-1000.0,389.6484375,-38.0859375,-1.0,1.0,1.0,0.0,4.m4v,4.0
2024-02-27 13:41:40.440487,1709037700.4404874,-718.26171875,-975.09765625,270.01953125,-41.50390625,-1.0,1.0,1.0,0.0,4.m4v,4.0
2024-02-27 13:41:40.444393,1709037700.444393,-750.48828125,-970.21484375,-324.21875,-52.734375,-1.0,1.0,1.0,0.0,4.m4v,4.0
2024-02-27 13:41:40.448305,1709037700.448305,-1000.0,-1000.0,-528.3203125,-49.8046875,-1.0,1.0,1.0,0.0,4.m4v,4.0
2024-02-27 13:41:40.452210,1709037700.4522104,-500.0,-977.05078125,-10.7421875,-33.203125,-1.0,1.0,1.0,0.0,4.m4v,4.0
2024-02-27 13:41:40.456116,1709037700.456116,780.2734375,352.05078125,762.6953125,-12.6953125,-1.0,1.0,1.0,0.0,4.m4v,4.0
2024-02-27 13:41:40.460021,1709037700.4600215,999.51171875,999.51171875,989.2578125,-15.13671875,-1.0,1.0,1.0,0.0,4.m4v,4.0
2024-02-27 13:41:40.463927,1709037700.4639273,719.23828125,904.78515625,328.125,-32.71484375,-1.0,1.0,1.0,0.0,4.m4v,4.0
2024-02-27 13:41:40.467833,1709037700.4678328,-309.08203125,976.07421875,92.28515625,-37.109375,-1.0,1.0,1.0,0.0,4.m4v,4.0
2024-02-27 13:41:40.471738,1709037700.4717383,-239.74609375,970.21484375,670.41015625,-34.1796875,-1.0,1.0,1.0,0.0,4.m4v,4.0
2024-02-27 13:41:40.475644,1709037700.475644,698.73046875,972.16796875,926.7578125,-26.3671875,-1.0,1.0,1.0,0.0,4.m4v,4.0
2024-02-27 13:41:40.479550,1709037700.4795496,999.51171875,904.78515625,832.51953125,-20.99609375,-1.0,1.0,1.0,0.0,4.m4v,4.0
2024-02-27 13:41:40.483455,1709037700.4834552,-45.41015625,999.51171875,354.4921875,-41.9921875,-1.0,1.0,1.0,0.0,4.m4v,4.0
2024-02-27 13:41:40.487361,1709037700.487361,-1000.0,219.7265625,-182.12890625,-55.17578125,-1.0,1.0,1.0,0.0,4.m4v,4.0
2024-02-27 13:41:40.491266,1709037700.4912665,-965.8203125,-1000.0,-446.77734375,-52.734375,-1.0,1.0,1.0,0.0,4.m4v,4.0
2024-02-27 13:41:40.495181,1709037700.495181,-965.33203125,-988.76953125,6.8359375,-41.9921875,-1.0,1.0,1.0,0.0,4.m4v,4.0
2024-02-27 13:41:40.499087,1709037700.4990866,38.0859375,-970.703125,374.51171875,-28.80859375,-1.0,1.0,1.0,0.0,4.m4v,4.0
2024-02-27 13:41:40.502992,1709037700.5029924,735.83984375,-1000.0,49.8046875,-25.390625,-1.0,1.0,1.0,0.0,4.m4v,4.0
2024-02-27 13:41:40.506898,1709037700.506898,-362.3046875,-937.5,-411.1328125,-40.0390625,-1.0,1.0,1.0,0.0,4.m4v,4.0
2024-02-27 13:41:40.510803,1709037700.5108037,-1000.0,-1000.0,-490.234375,-52.734375,-1.0,1.0,1.0,0.0,4.m4v,4.0
2024-02-27 13:41:40.514709,1709037700.5147092,-112.79296875,-219.23828125,362.79296875,-24.90234375,-1.0,1.0,1.0,0.0,4.m4v,4.0
2024-02-27 13:41:40.518615,1709037700.5186148,999.51171875,999.51171875,999.51171875,-12.6953125,-1.0,1.0,1.0,0.0,4.m4v,4.0
2024-02-27 13:41:40.522520,1709037700.5225203,999.51171875,953.61328125,546.875,-37.59765625,-1.0,1.0,1.0,0.0,4.m4v,4.0
2024-02-27 13:41:40.526426,1709037700.526426,146.97265625,942.87109375,-104.00390625,-43.45703125,-1.0,1.0,1.0,0.0,4.m4v,4.0
2024-02-27 13:41:40.530332,1709037700.5303316,-1000.0,977.05078125,-172.36328125,-42.48046875,-1.0,1.0,1.0,0.0,4.m4v,4.0
2024-02-27 13:41:40.534237,1709037700.5342371,-541.50390625,972.16796875,300.29296875,-27.34375,-1.0,1.0,1.0,0.0,4.m4v,4.0
2024-02-27 13:41:40.538143,1709037700.5381427,801.7578125,960.44921875,883.30078125,-12.6953125,-1.0,1.0,1.0,0.0,4.m4v,4.0
2024-02-27 13:41:40.542057,1709037700.5420573,999.51171875,922.8515625,636.71875,-24.4140625,-1.0,1.0,1.0,0.0,4.m4v,4.0
2024-02-27 13:41:40.545963,1709037700.5459628,14.6484375,999.51171875,104.00390625,-35.64453125,-1.0,1.0,1.0,0.0,4.m4v,4.0
2024-02-27 13:41:40.549868,1709037700.5498683,-952.1484375,33.69140625,-191.89453125,-44.921875,-1.0,1.0,1.0,0.0,4.m4v,4.0
2024-02-27 13:41:40.553774,1709037700.553774,-1000.0,-1000.0,-125.0,-40.0390625,-1.0,1.0,1.0,0.0,4.m4v,4.0
2024-02-27 13:41:40.557680,1709037700.5576797,-728.515625,-1000.0,215.8203125,-29.296875,-1.0,1.0,1.0,0.0,4.m4v,4.0
2024-02-27 13:41:40.561585,1709037700.5615852,416.9921875,-179.6875,413.57421875,-18.06640625,-1.0,1.0,1.0,0.0,4.m4v,4.0
2024-02-27 13:41:40.565491,1709037700.565491,999.51171875,999.51171875,243.1640625,-16.11328125,-1.0,1.0,1.0,0.0,4.m4v,4.0
2024-02-27 13:41:40.569396,1709037700.5693965,164.0625,999.51171875,-134.27734375,-28.80859375,-1.0,1.0,1.0,0.0,4.m4v,4.0
2024-02-27 13:41:40.573302,1709037700.573302,-990.234375,0.9765625,-51.7578125,-28.3203125,-1.0,1.0,1.0,0.0,4.m4v,4.0
2024-02-27 13:41:40.577208,1709037700.5772078,-1000.0,-1000.0,174.31640625,-29.78515625,-1.0,1.0,1.0,0.0,4.m4v,4.0
2024-02-27 13:41:40.581113,1709037700.581113,-814.453125,-973.14453125,-77.1484375,-38.0859375,-1.0,1.0,1.0,0.0,4.m4v,4.0
2024-02-27 13:41:40.585019,1709037700.5850189,-821.77734375,-946.2890625,-606.93359375,-39.0625,-1.0,1.0,1.0,0.0,4.m4v,4.0
2024-02-27 13:41:40.588933,1709037700.5889328,-1000.0,-1000.0,-726.07421875,-33.203125,-1.0,1.0,1.0,0.0,4.m4v,4.0
2024-02-27 13:41:40.592838,1709037700.5928383,-146.97265625,-982.421875,-175.78125,-20.99609375,-1.0,1.0,1.0,0.0,4.m4v,4.0
2024-02-27 13:41:40.596744,1709037700.596744,993.1640625,333.0078125,631.34765625,-2.9296875,-1.0,1.0,1.0,0.0,4.m4v,4.0
2024-02-27 13:41:40.600650,1709037700.6006496,951.66015625,999.51171875,756.34765625,-4.8828125,-1.0,1.0,1.0,0.0,4.m4v,4.0
2024-02-27 13:41:40.604555,1709037700.6045551,926.7578125,906.25,207.03125,-20.5078125,-1.0,1.0,1.0,0.0,4.m4v,4.0
2024-02-27 13:41:40.608461,1709037700.608461,460.44921875,975.09765625,163.0859375,-36.62109375,-1.0,1.0,1.0,0.0,4.m4v,4.0
2024-02-27 13:41:40.612366,1709037700.6123664,-303.7109375,984.86328125,410.64453125,-28.3203125,-1.0,1.0,1.0,0.0,4.m4v,4.0
2024-02-27 13:41:40.616272,1709037700.616272,58.59375,904.296875,653.3203125,-13.671875,-1.0,1.0,1.0,0.0,4.m4v,4.0
2024-02-27 13:41:40.620178,1709037700.6201775,999.51171875,999.51171875,684.08203125,-30.2734375,-1.0,1.0,1.0,0.0,4.m4v,4.0
2024-02-27 13:41:40.624083,1709037700.6240833,70.3125,676.26953125,18.5546875,-46.38671875,-1.0,1.0,1.0,0.0,4.m4v,4.0
2024-02-27 13:41:40.627989,1709037700.6279888,-1000.0,-755.37109375,-721.19140625,-50.29296875,-1.0,1.0,1.0,0.0,4.m4v,4.0
2024-02-27 13:41:40.631895,1709037700.6318946,-1000.0,-1000.0,-543.9453125,-51.7578125,-1.0,1.0,1.0,0.0,4.m4v,4.0
2024-02-27 13:41:40.635808,1709037700.6358078,-446.77734375,-938.96484375,255.37109375,-39.0625,-1.0,1.0,1.0,0.0,4.m4v,4.0
2024-02-27 13:41:40.639713,1709037700.6397133,972.16796875,-1000.0,462.40234375,-23.92578125,-1.0,1.0,1.0,0.0,4.m4v,4.0
2024-02-27 13:41:40.643619,1709037700.643619,535.15625,-996.09375,-46.875,-34.1796875,-1.0,1.0,1.0,0.0,4.m4v,4.0
2024-02-27 13:41:40.647525,1709037700.6475246,-829.1015625,-944.82421875,-561.5234375,-51.26953125,-1.0,1.0,1.0,0.0,4.m4v,4.0
2024-02-27 13:41:40.651430,1709037700.65143,-1000.0,-1000.0,-447.265625,-48.828125,-1.0,1.0,1.0,0.0,4.m4v,4.0
2024-02-27 13:41:40.655336,1709037700.655336,106.93359375,-132.8125,529.296875,-20.5078125,-1.0,1.0,1.0,0.0,4.m4v,4.0
2024-02-27 13:41:40.659241,1709037700.6592414,999.51171875,992.67578125,954.58984375,-20.5078125,-1.0,1.0,1.0,0.0,4.m4v,4.0
2024-02-27 13:41:40.663147,1709037700.663147,808.59375,999.51171875,313.4765625,-39.55078125,-1.0,1.0,1.0,0.0,4.m4v,4.0
2024-02-27 13:41:40.667053,1709037700.6670525,-271.97265625,247.0703125,-387.20703125,-48.828125,-1.0,1.0,1.0,0.0,4.m4v,4.0
2024-02-27 13:41:40.670958,1709037700.6709585,-1000.0,-1000.0,-647.4609375,-53.7109375,-1.0,1.0,1.0,0.0,4.m4v,4.0
2024-02-27 13:41:40.674864,1709037700.6748638,-815.4296875,-997.0703125,-72.265625,-32.71484375,-1.0,1.0,1.0,0.0,4.m4v,4.0
2024-02-27 13:41:40.678769,1709037700.6787694,500.9765625,-966.796875,422.8515625,-23.92578125,-1.0,1.0,1.0,0.0,4.m4v,4.0
2024-02-27 13:41:40.682683,1709037700.6826825,736.328125,-1000.0,-12.20703125,-40.0390625,-1.0,1.0,1.0,0.0,4.m4v,4.0
2024-02-27 13:41:40.686588,1709037700.686588,-614.74609375,-993.1640625,-776.85546875,-58.10546875,-1.0,1.0,1.0,0.0,4.m4v,4.0
2024-02-27 13:41:40.690494,1709037700.6904938,-1000.0,-949.21875,-956.54296875,-56.640625,-1.0,1.0,1.0,0.0,4.m4v,4.0
2024-02-27 13:41:40.694399,1709037700.6943994,-431.640625,-1000.0,-323.73046875,-37.59765625,-1.0,1.0,1.0,0.0,4.m4v,4.0
2024-02-27 13:41:40.694399,1709037700.6943994,-431.640625,-1000.0,-323.73046875,-37.59765625,-1.0,1.0,1.0,0.0,4.m4v,4.0
2024-02-27 13:41:40.698305,1709037700.698305,817.87109375,-86.9140625,235.3515625,-19.04296875,-1.0,1.0,1.0,0.0,4.m4v,4.0
2024-02-27 13:41:40.698305,1709037700.698305,817.87109375,-86.9140625,235.3515625,-19.04296875,-1.0,1.0,1.0,0.0,4.m4v,4.0
2024-02-27 13:41:40.702211,1709037700.702211,999.51171875,994.62890625,61.5234375,-21.484375,-1.0,1.0,1.0,0.0,4.m4v,4.0
2024-02-27 13:41:40.702211,1709037700.702211,999.51171875,994.62890625,61.5234375,-21.484375,-1.0,1.0,1.0,0.0,4.m4v,4.0
2024-02-27 13:41:40.706116,1709037700.7061162,858.3984375,999.51171875,-266.6015625,-31.25,-1.0,1.0,1.0,0.0,4.m4v,4.0
2024-02-27 13:41:40.706116,1709037700.7061162,858.3984375,999.51171875,-266.6015625,-31.25,-1.0,1.0,1.0,0.0,4.m4v,4.0
2024-02-27 13:41:40.710022,1709037700.7100215,-227.05078125,498.53515625,-598.14453125,-40.0390625,-1.0,1.0,1.0,0.0,4.m4v,4.0
2024-02-27 13:41:40.710022,1709037700.7100215,-227.05078125,498.53515625,-598.14453125,-40.0390625,-1.0,1.0,1.0,0.0,4.m4v,4.0
2024-02-27 13:41:40.713927,1709037700.7139273,-1000.0,-902.83203125,-663.57421875,-45.41015625,-1.0,1.0,1.0,0.0,4.m4v,4.0
2024-02-27 13:41:40.713927,1709037700.7139273,-1000.0,-902.83203125,-663.57421875,-45.41015625,-1.0,1.0,1.0,0.0,4.m4v,4.0
2024-02-27 13:41:40.717833,1709037700.717833,-894.04296875,-1000.0,-394.04296875,-40.0390625,-1.0,1.0,1.0,0.0,4.m4v,4.0
2024-02-27 13:41:40.717833,1709037700.717833,-894.04296875,-1000.0,-394.04296875,-40.0390625,-1.0,1.0,1.0,0.0,4.m4v,4.0
2024-02-27 13:41:40.721739,1709037700.7217386,-427.734375,-947.265625,-632.8125,-36.1328125,-1.0,1.0,1.0,0.0,4.m4v,4.0
2024-02-27 13:41:40.721739,1709037700.7217386,-427.734375,-947.265625,-632.8125,-36.1328125,-1.0,1.0,1.0,0.0,4.m4v,4.0
2024-02-27 13:41:40.725644,1709037700.725644,-376.953125,-1000.0,-976.5625,-39.55078125,-1.0,1.0,1.0,0.0,4.m4v,4.0
2024-02-27 13:41:40.725644,1709037700.725644,-376.953125,-1000.0,-976.5625,-39.55078125,-1.0,1.0,1.0,0.0,4.m4v,4.0
2024-02-27 13:41:40.729557,1709037700.729557,-912.59765625,-928.7109375,-1000.0,-38.0859375,-1.0,1.0,1.0,0.0,4.m4v,4.0
2024-02-27 13:41:40.729557,1709037700.729557,-912.59765625,-928.7109375,-1000.0,-38.0859375,-1.0,1.0,1.0,0.0,4.m4v,4.0
2024-02-27 13:41:40.733463,1709037700.7334626,-929.6875,-1000.0,-937.01171875,-35.64453125,-1.0,1.0,1.0,0.0,4.m4v,4.0
2024-02-27 13:41:40.733463,1709037700.7334626,-929.6875,-1000.0,-937.01171875,-35.64453125,-1.0,1.0,1.0,0.0,4.m4v,4.0
2024-02-27 13:41:40.737368,1709037700.7373683,260.7421875,-403.80859375,-470.703125,-18.06640625,-1.0,1.0,1.0,0.0,4.m4v,4.0
2024-02-27 13:41:40.737368,1709037700.7373683,260.7421875,-403.80859375,-470.703125,-18.06640625,-1.0,1.0,1.0,0.0,4.m4v,4.0
2024-02-27 13:41:40.741274,1709037700.741274,999.51171875,965.8203125,-380.859375,-5.37109375,-1.0,1.0,1.0,0.0,4.m4v,4.0
2024-02-27 13:41:40.741274,1709037700.741274,999.51171875,965.8203125,-380.859375,-5.37109375,-1.0,1.0,1.0,0.0,4.m4v,4.0
2024-02-27 13:41:40.745179,1709037700.7451794,870.60546875,985.83984375,-902.34375,-29.78515625,-1.0,1.0,1.0,0.0,4.m4v,4.0
2024-02-27 13:41:40.745179,1709037700.7451794,870.60546875,985.83984375,-902.34375,-29.78515625,-1.0,1.0,1.0,0.0,4.m4v,4.0
2024-02-27 13:41:40.749085,1709037700.7490852,216.30859375,942.3828125,-950.1953125,-42.96875,-1.0,1.0,1.0,0.0,4.m4v,4.0
2024-02-27 13:41:40.749085,1709037700.7490852,216.30859375,942.3828125,-950.1953125,-42.96875,-1.0,1.0,1.0,0.0,4.m4v,4.0
2024-02-27 13:41:40.752991,1709037700.7529907,346.19140625,918.9453125,-268.5546875,-30.76171875,-1.0,1.0,1.0,0.0,4.m4v,4.0
2024-02-27 13:41:40.752991,1709037700.7529907,346.19140625,918.9453125,-268.5546875,-30.76171875,-1.0,1.0,1.0,0.0,4.m4v,4.0
2024-02-27 13:41:40.756896,1709037700.7568965,999.51171875,999.51171875,2.9296875,-16.11328125,-1.0,1.0,1.0,0.0,4.m4v,4.0
2024-02-27 13:41:40.756896,1709037700.7568965,999.51171875,999.51171875,2.9296875,-16.11328125,-1.0,1.0,1.0,0.0,4.m4v,4.0
2024-02-27 13:41:40.760802,1709037700.760802,175.78125,714.84375,-655.76171875,-28.3203125,-1.0,1.0,1.0,0.0,4.m4v,4.0
2024-02-27 13:41:40.760802,1709037700.760802,175.78125,714.84375,-655.76171875,-28.3203125,-1.0,1.0,1.0,0.0,4.m4v,4.0
2024-02-27 13:41:40.764708,1709037700.7647076,-1000.0,-719.23828125,-1000.0,-50.29296875,-1.0,1.0,1.0,0.0,4.m4v,4.0
2024-02-27 13:41:40.764708,1709037700.7647076,-1000.0,-719.23828125,-1000.0,-50.29296875,-1.0,1.0,1.0,0.0,4.m4v,4.0
2024-02-27 13:41:40.768613,1709037700.768613,-939.453125,-1000.0,-973.6328125,-48.33984375,-1.0,1.0,1.0,0.0,4.m4v,4.0
2024-02-27 13:41:40.768613,1709037700.768613,-939.453125,-1000.0,-973.6328125,-48.33984375,-1.0,1.0,1.0,0.0,4.m4v,4.0
2024-02-27 13:41:40.772519,1709037700.7725186,-1000.0,-932.12890625,-1000.0,-38.0859375,-1.0,1.0,1.0,0.0,4.m4v,4.0
2024-02-27 13:41:40.772519,1709037700.7725186,-1000.0,-932.12890625,-1000.0,-38.0859375,-1.0,1.0,1.0,0.0,4.m4v,4.0
2024-02-27 13:41:40.776431,1709037700.7764308,-202.1484375,-1000.0,-611.328125,-23.92578125,-1.0,1.0,1.0,0.0,4.m4v,4.0
2024-02-27 13:41:40.776431,1709037700.7764308,-202.1484375,-1000.0,-611.328125,-23.92578125,-1.0,1.0,1.0,0.0,4.m4v,4.0
2024-02-27 13:41:40.780336,1709037700.7803364,975.09765625,235.3515625,-228.515625,-15.13671875,-1.0,1.0,1.0,0.0,4.m4v,4.0
2024-02-27 13:41:40.780336,1709037700.7803364,975.09765625,235.3515625,-228.515625,-15.13671875,-1.0,1.0,1.0,0.0,4.m4v,4.0
2024-02-27 13:41:40.784242,1709037700.784242,999.51171875,999.51171875,-449.21875,-19.53125,-1.0,1.0,1.0,0.0,4.m4v,4.0
2024-02-27 13:41:40.784242,1709037700.784242,999.51171875,999.51171875,-449.21875,-19.53125,-1.0,1.0,1.0,0.0,4.m4v,4.0
2024-02-27 13:41:40.788148,1709037700.7881477,592.7734375,909.1796875,-773.92578125,-32.71484375,-1.0,1.0,1.0,0.0,4.m4v,4.0
2024-02-27 13:41:40.788148,1709037700.7881477,592.7734375,909.1796875,-773.92578125,-32.71484375,-1.0,1.0,1.0,0.0,4.m4v,4.0
2024-02-27 13:41:40.792053,1709037700.7920532,-735.83984375,985.83984375,-840.33203125,-38.57421875,-1.0,1.0,1.0,0.0,4.m4v,4.0
2024-02-27 13:41:40.792053,1709037700.7920532,-735.83984375,985.83984375,-840.33203125,-38.57421875,-1.0,1.0,1.0,0.0,4.m4v,4.0
2024-02-27 13:41:40.795959,1709037700.7959588,-139.6484375,899.90234375,46.875,-18.06640625,-1.0,1.0,1.0,0.0,4.m4v,4.0
2024-02-27 13:41:40.795959,1709037700.7959588,-139.6484375,899.90234375,46.875,-18.06640625,-1.0,1.0,1.0,0.0,4.m4v,4.0
2024-02-27 13:41:40.799865,1709037700.7998643,999.51171875,999.51171875,569.3359375,-8.30078125,-1.0,1.0,1.0,0.0,4.m4v,4.0
2024-02-27 13:41:40.799865,1709037700.7998643,999.51171875,999.51171875,569.3359375,-8.30078125,-1.0,1.0,1.0,0.0,4.m4v,4.0
2024-02-27 13:41:40.803770,1709037700.80377,160.15625,597.16796875,-471.6796875,-33.203125,-1.0,1.0,1.0,0.0,4.m4v,4.0
2024-02-27 13:41:40.803770,1709037700.80377,160.15625,597.16796875,-471.6796875,-33.203125,-1.0,1.0,1.0,0.0,4.m4v,4.0
2024-02-27 13:41:40.807676,1709037700.8076756,-1000.0,-846.19140625,-1000.0,-55.6640625,-1.0,1.0,1.0,0.0,4.m4v,4.0
2024-02-27 13:41:40.807676,1709037700.8076756,-1000.0,-846.19140625,-1000.0,-55.6640625,-1.0,1.0,1.0,0.0,4.m4v,4.0
2024-02-27 13:41:40.811581,1709037700.8115811,-1000.0,-995.60546875,-914.0625,-49.8046875,-1.0,1.0,1.0,0.0,4.m4v,4.0
2024-02-27 13:41:40.811581,1709037700.8115811,-1000.0,-995.60546875,-914.0625,-49.8046875,-1.0,1.0,1.0,0.0,4.m4v,4.0
2024-02-27 13:41:40.815487,1709037700.815487,-438.4765625,-1000.0,-413.57421875,-32.71484375,-1.0,1.0,1.0,0.0,4.m4v,4.0
2024-02-27 13:41:40.815487,1709037700.815487,-438.4765625,-1000.0,-413.57421875,-32.71484375,-1.0,1.0,1.0,0.0,4.m4v,4.0
2024-02-27 13:41:40.819392,1709037700.8193924,792.96875,-269.04296875,29.78515625,-16.11328125,-1.0,1.0,1.0,0.0,4.m4v,4.0
2024-02-27 13:41:40.819392,1709037700.8193924,792.96875,-269.04296875,29.78515625,-16.11328125,-1.0,1.0,1.0,0.0,4.m4v,4.0
2024-02-27 13:41:40.823304,1709037700.823304,999.51171875,999.51171875,-300.78125,-20.01953125,-1.0,1.0,1.0,0.0,4.m4v,4.0
2024-02-27 13:41:40.823304,1709037700.823304,999.51171875,999.51171875,-300.78125,-20.01953125,-1.0,1.0,1.0,0.0,4.m4v,4.0
2024-02-27 13:41:40.827210,1709037700.8272097,325.1953125,958.984375,-843.26171875,-31.25,-1.0,1.0,1.0,0.0,4.m4v,4.0
2024-02-27 13:41:40.827210,1709037700.8272097,325.1953125,958.984375,-843.26171875,-31.25,-1.0,1.0,1.0,0.0,4.m4v,4.0
2024-02-27 13:41:40.831115,1709037700.8311152,-1000.0,939.94140625,-761.71875,-36.1328125,-1.0,1.0,1.0,0.0,4.m4v,4.0
2024-02-27 13:41:40.831115,1709037700.8311152,-1000.0,939.94140625,-761.71875,-36.1328125,-1.0,1.0,1.0,0.0,4.m4v,4.0
2024-02-27 13:41:40.835021,1709037700.8350208,-154.296875,978.515625,-64.94140625,-31.25,-1.0,1.0,1.0,0.0,4.m4v,4.0
2024-02-27 13:41:40.835021,1709037700.8350208,-154.296875,978.515625,-64.94140625,-31.25,-1.0,1.0,1.0,0.0,4.m4v,4.0
2024-02-27 13:41:40.838927,1709037700.8389266,999.51171875,966.796875,287.59765625,-18.06640625,-1.0,1.0,1.0,0.0,4.m4v,4.0
2024-02-27 13:41:40.838927,1709037700.8389266,999.51171875,966.796875,287.59765625,-18.06640625,-1.0,1.0,1.0,0.0,4.m4v,4.0
2024-02-27 13:41:40.842832,1709037700.842832,999.51171875,912.59765625,84.9609375,-25.87890625,-1.0,1.0,1.0,0.0,4.m4v,4.0
2024-02-27 13:41:40.842832,1709037700.842832,999.51171875,912.59765625,84.9609375,-25.87890625,-1.0,1.0,1.0,0.0,4.m4v,4.0
2024-02-27 13:41:40.846738,1709037700.8467376,561.5234375,999.51171875,-83.984375,-36.1328125,-1.0,1.0,1.0,0.0,4.m4v,4.0
2024-02-27 13:41:40.850643,1709037700.8506434,-666.50390625,128.41796875,-453.61328125,-51.26953125,-1.0,1.0,1.0,0.0,4.m4v,4.0
2024-02-27 13:41:40.854549,1709037700.854549,-1000.0,-1000.0,-499.0234375,-50.29296875,-1.0,1.0,1.0,0.0,4.m4v,4.0
2024-02-27 13:41:40.858454,1709037700.8584545,-769.53125,-975.5859375,-188.4765625,-38.57421875,-1.0,1.0,1.0,0.0,4.m4v,4.0
2024-02-27 13:41:40.862360,1709037700.86236,-344.23828125,-992.1875,-488.76953125,-34.1796875,-1.0,1.0,1.0,0.0,4.m4v,4.0
2024-02-27 13:41:40.866266,1709037700.8662658,-666.9921875,-938.96484375,-944.3359375,-37.59765625,-1.0,1.0,1.0,0.0,4.m4v,4.0
2024-02-27 13:41:40.870180,1709037700.87018,-1000.0,-1000.0,-969.7265625,-35.64453125,-1.0,1.0,1.0,0.0,4.m4v,4.0
2024-02-27 13:41:40.874086,1709037700.8740857,-109.86328125,-689.453125,-325.68359375,-21.484375,-1.0,1.0,1.0,0.0,4.m4v,4.0
2024-02-27 13:41:40.877991,1709037700.8779914,988.76953125,745.1171875,545.8984375,-15.13671875,-1.0,1.0,1.0,0.0,4.m4v,4.0
2024-02-27 13:41:40.881897,1709037700.881897,999.51171875,999.51171875,366.2109375,-28.3203125,-1.0,1.0,1.0,0.0,4.m4v,4.0
2024-02-27 13:41:40.885803,1709037700.8858025,535.64453125,909.1796875,-417.96875,-50.78125,-1.0,1.0,1.0,0.0,4.m4v,4.0
2024-02-27 13:41:40.889708,1709037700.8897085,-527.83203125,984.375,-362.3046875,-50.78125,-1.0,1.0,1.0,0.0,4.m4v,4.0
2024-02-27 13:41:40.893614,1709037700.8936138,195.3125,984.375,392.578125,-32.71484375,-1.0,1.0,1.0,0.0,4.m4v,4.0
2024-02-27 13:41:40.897519,1709037700.8975194,999.51171875,906.25,600.09765625,-33.69140625,-1.0,1.0,1.0,0.0,4.m4v,4.0
2024-02-27 13:41:40.901425,1709037700.9014251,619.140625,999.51171875,179.6875,-42.48046875,-1.0,1.0,1.0,0.0,4.m4v,4.0
2024-02-27 13:41:40.905331,1709037700.905331,-489.74609375,708.984375,-265.625,-43.9453125,-1.0,1.0,1.0,0.0,4.m4v,4.0
2024-02-27 13:41:40.909236,1709037700.9092362,-992.67578125,-719.7265625,-714.35546875,-51.26953125,-1.0,1.0,1.0,0.0,4.m4v,4.0
2024-02-27 13:41:40.913142,1709037700.9131415,-1000.0,-1000.0,-582.03125,-54.19921875,-1.0,1.0,1.0,0.0,4.m4v,4.0
2024-02-27 13:41:40.917056,1709037700.917056,-436.5234375,-937.5,6.34765625,-32.71484375,-1.0,1.0,1.0,0.0,4.m4v,4.0
2024-02-27 13:41:41.295961,1709037701.295961,815.4296875,129.39453125,631.34765625,-15.625,-1.0,1.0,1.0,0.0,4.m4v,4.0
2024-02-27 13:41:41.303772,1709037701.303772,999.51171875,914.55078125,471.19140625,-35.64453125,-1.0,1.0,1.0,0.0,4.m4v,4.0
2024-02-27 13:41:41.311583,1709037701.311583,-694.3359375,976.5625,341.30859375,-38.0859375,-1.0,1.0,1.0,0.0,4.m4v,4.0
2024-02-27 13:41:41.319394,1709037701.3193944,999.51171875,953.61328125,862.3046875,-37.109375,-1.0,1.0,1.0,0.0,4.m4v,4.0
2024-02-27 13:41:41.327205,1709037701.3272054,-1000.0,-206.0546875,-451.66015625,-73.73046875,-1.0,1.0,1.0,0.0,4.m4v,4.0
2024-02-27 13:41:41.335017,1709037701.3350167,-693.359375,-930.17578125,1.953125,-49.31640625,-1.0,1.0,1.0,0.0,4.m4v,4.0
2024-02-27 13:41:41.342838,1709037701.3428383,999.51171875,108.88671875,437.5,-32.2265625,-1.0,1.0,1.0,0.0,4.m4v,4.0
2024-02-27 13:41:41.350650,1709037701.3506496,-597.16796875,189.453125,-353.515625,-51.7578125,-1.0,1.0,1.0,0.0,4.m4v,4.0
2024-02-27 13:41:41.358461,1709037701.358461,41.9921875,-217.7734375,745.1171875,-23.92578125,-1.0,1.0,1.0,0.0,4.m4v,4.0
2024-02-27 13:41:41.366272,1709037701.366272,333.49609375,999.51171875,53.22265625,-42.48046875,-1.0,1.0,1.0,0.0,4.m4v,4.0
2024-02-27 13:41:41.374083,1709037701.3740833,-1000.0,-1000.0,-124.0234375,-51.7578125,-1.0,1.0,1.0,0.0,4.m4v,4.0
2024-02-27 13:41:41.381894,1709037701.3818944,999.51171875,247.55859375,625.48828125,-22.4609375,-1.0,1.0,1.0,0.0,4.m4v,4.0
2024-02-27 13:41:41.389714,1709037701.3897138,-263.18359375,798.33984375,-206.54296875,-41.50390625,-1.0,1.0,1.0,0.0,4.m4v,4.0
2024-02-27 13:41:41.389714,1709037701.3897138,-263.18359375,798.33984375,-206.54296875,-41.50390625,-1.0,1.0,1.0,0.0,4.m4v,4.0
2024-02-27 13:41:41.397525,1709037701.3975248,-758.7890625,-1000.0,278.80859375,-40.52734375,-1.0,1.0,1.0,0.0,4.m4v,4.0
2024-02-27 13:41:41.397525,1709037701.3975248,-758.7890625,-1000.0,278.80859375,-40.52734375,-1.0,1.0,1.0,0.0,4.m4v,4.0
2024-02-27 13:41:41.405336,1709037701.405336,117.67578125,-306.15234375,-191.89453125,-48.828125,-1.0,1.0,1.0,0.0,4.m4v,4.0
2024-02-27 13:41:41.405336,1709037701.405336,117.67578125,-306.15234375,-191.89453125,-48.828125,-1.0,1.0,1.0,0.0,4.m4v,4.0
2024-02-27 13:41:41.417053,1709037701.417053,998.53515625,876.46484375,767.08984375,-30.2734375,-1.0,1.0,1.0,0.0,4.m4v,4.0
2024-02-27 13:41:41.417053,1709037701.417053,998.53515625,876.46484375,767.08984375,-30.2734375,-1.0,1.0,1.0,0.0,4.m4v,4.0
2024-02-27 13:41:41.428770,1709037701.4287698,-1000.0,-1000.0,-698.2421875,-59.5703125,-1.0,1.0,1.0,0.0,4.m4v,4.0
2024-02-27 13:41:41.428770,1709037701.4287698,-1000.0,-1000.0,-698.2421875,-59.5703125,-1.0,1.0,1.0,0.0,4.m4v,4.0
2024-02-27 13:41:41.440494,1709037701.4404938,999.51171875,748.53515625,845.21484375,-17.08984375,-1.0,1.0,1.0,0.0,4.m4v,4.0
2024-02-27 13:41:41.440494,1709037701.4404938,999.51171875,748.53515625,845.21484375,-17.08984375,-1.0,1.0,1.0,0.0,4.m4v,4.0
2024-02-27 13:41:41.452211,1709037701.452211,-1000.0,-946.77734375,2.44140625,-41.015625,-1.0,1.0,1.0,0.0,4.m4v,4.0
2024-02-27 13:41:41.452211,1709037701.452211,-1000.0,-946.77734375,2.44140625,-41.015625,-1.0,1.0,1.0,0.0,4.m4v,4.0
2024-02-27 13:41:41.460022,1709037701.460022,559.5703125,-952.63671875,648.92578125,-25.390625,-1.0,1.0,1.0,0.0,4.m4v,4.0
2024-02-27 13:41:41.463928,1709037701.4639275,-218.75,-1000.0,-171.38671875,-43.9453125,-1.0,1.0,1.0,0.0,4.m4v,4.0
2024-02-27 13:41:41.467833,1709037701.467833,-1000.0,-937.01171875,-687.98828125,-52.734375,-1.0,1.0,1.0,0.0,4.m4v,4.0
2024-02-27 13:41:41.471739,1709037701.4717388,-995.1171875,-1000.0,-406.73828125,-44.921875,-1.0,1.0,1.0,0.0,4.m4v,4.0
2024-02-27 13:41:41.475644,1709037701.4756444,61.03515625,-727.05078125,329.58984375,-27.83203125,-1.0,1.0,1.0,0.0,4.m4v,4.0
2024-02-27 13:41:41.479557,1709037701.479557,999.51171875,701.171875,779.296875,-16.6015625,-1.0,1.0,1.0,0.0,4.m4v,4.0
2024-02-27 13:41:41.483463,1709037701.4834626,999.51171875,982.421875,369.62890625,-27.83203125,-1.0,1.0,1.0,0.0,4.m4v,4.0
2024-02-27 13:41:41.487368,1709037701.4873683,261.71875,999.51171875,-128.90625,-36.62109375,-1.0,1.0,1.0,0.0,4.m4v,4.0
2024-02-27 13:41:41.491274,1709037701.491274,-890.625,350.09765625,-131.34765625,-40.52734375,-1.0,1.0,1.0,0.0,4.m4v,4.0
2024-02-27 13:41:41.495179,1709037701.4951794,-1000.0,-1000.0,163.57421875,-40.52734375,-1.0,1.0,1.0,0.0,4.m4v,4.0
2024-02-27 13:41:41.499085,1709037701.4990852,-4.39453125,-301.7578125,751.46484375,-19.04296875,-1.0,1.0,1.0,0.0,4.m4v,4.0
2024-02-27 13:41:41.502991,1709037701.5029907,999.51171875,999.51171875,809.5703125,-18.5546875,-1.0,1.0,1.0,0.0,4.m4v,4.0
2024-02-27 13:41:41.506896,1709037701.5068965,175.29296875,554.19921875,-129.8828125,-49.31640625,-1.0,1.0,1.0,0.0,4.m4v,4.0
2024-02-27 13:41:41.510802,1709037701.510802,-1000.0,-891.6015625,-850.5859375,-58.59375,-1.0,1.0,1.0,0.0,4.m4v,4.0
2024-02-27 13:41:41.514708,1709037701.5147076,-1000.0,-1000.0,-485.3515625,-51.26953125,-1.0,1.0,1.0,0.0,4.m4v,4.0
2024-02-27 13:41:41.518613,1709037701.518613,-346.6796875,-943.359375,-4.8828125,-43.9453125,-1.0,1.0,1.0,0.0,4.m4v,4.0
2024-02-27 13:41:41.522519,1709037701.5225186,150.390625,-1000.0,-464.84375,-43.45703125,-1.0,1.0,1.0,0.0,4.m4v,4.0
2024-02-27 13:41:41.526431,1709037701.526431,-705.078125,-1000.0,-984.86328125,-54.19921875,-1.0,1.0,1.0,0.0,4.m4v,4.0
2024-02-27 13:41:41.530337,1709037701.5303366,-1000.0,-1000.0,-1000.0,-46.875,-1.0,1.0,1.0,0.0,4.m4v,4.0
2024-02-27 13:41:41.534242,1709037701.5342422,-606.93359375,-1000.0,-685.546875,-31.73828125,-1.0,1.0,1.0,0.0,4.m4v,4.0
2024-02-27 13:41:41.538148,1709037701.538148,728.02734375,-1000.0,-244.62890625,-23.4375,-1.0,1.0,1.0,0.0,4.m4v,4.0
2024-02-27 13:41:41.542053,1709037701.5420537,802.24609375,-1000.0,-659.1796875,-34.66796875,-1.0,1.0,1.0,0.0,4.m4v,4.0
2024-02-27 13:41:41.545959,1709037701.545959,-387.6953125,-1000.0,-1000.0,-50.78125,-1.0,1.0,1.0,0.0,4.m4v,4.0
2024-02-27 13:41:41.549865,1709037701.5498648,-1000.0,-936.5234375,-1000.0,-45.41015625,-1.0,1.0,1.0,0.0,4.m4v,4.0
2024-02-27 13:41:41.553770,1709037701.5537703,-834.47265625,-1000.0,-911.1328125,-37.109375,-1.0,1.0,1.0,0.0,4.m4v,4.0
2024-02-27 13:41:41.557676,1709037701.5576758,355.46875,-238.28125,-384.27734375,-16.6015625,-1.0,1.0,1.0,0.0,4.m4v,4.0
2024-02-27 13:41:41.561581,1709037701.5615814,999.51171875,999.51171875,-334.47265625,-10.25390625,-1.0,1.0,1.0,0.0,4.m4v,4.0
2024-02-27 13:41:41.565487,1709037701.5654871,950.1953125,956.54296875,-816.40625,-18.06640625,-1.0,1.0,1.0,0.0,4.m4v,4.0
2024-02-27 13:41:41.569393,1709037701.5693927,61.03515625,941.40625,-1000.0,-27.34375,-1.0,1.0,1.0,0.0,4.m4v,4.0
2024-02-27 13:41:41.573305,1709037701.573305,-999.51171875,974.609375,-905.2734375,-28.80859375,-1.0,1.0,1.0,0.0,4.m4v,4.0
2024-02-27 13:41:41.577210,1709037701.5772104,86.9140625,959.9609375,-291.015625,-10.7421875,-1.0,1.0,1.0,0.0,4.m4v,4.0
2024-02-27 13:41:41.581116,1709037701.581116,999.51171875,917.96875,-320.3125,-15.13671875,-1.0,1.0,1.0,0.0,4.m4v,4.0
2024-02-27 13:41:41.585022,1709037701.5850215,248.046875,999.51171875,-896.484375,-36.1328125,-1.0,1.0,1.0,0.0,4.m4v,4.0
2024-02-27 13:41:41.588927,1709037701.5889273,-949.21875,86.42578125,-1000.0,-48.828125,-1.0,1.0,1.0,0.0,4.m4v,4.0
2024-02-27 13:41:41.592833,1709037701.5928328,-917.96875,-1000.0,-730.46875,-41.015625,-1.0,1.0,1.0,0.0,4.m4v,4.0
2024-02-27 13:41:41.596738,1709037701.5967383,330.078125,47.36328125,278.3203125,-12.20703125,-1.0,1.0,1.0,0.0,4.m4v,4.0
2024-02-27 13:41:41.600644,1709037701.600644,999.51171875,999.51171875,175.29296875,-10.25390625,-1.0,1.0,1.0,0.0,4.m4v,4.0
2024-02-27 13:41:41.604550,1709037701.6045496,133.30078125,905.76171875,-777.83203125,-36.1328125,-1.0,1.0,1.0,0.0,4.m4v,4.0
2024-02-27 13:41:41.608455,1709037701.6084552,-967.7734375,-348.14453125,-1000.0,-42.48046875,-1.0,1.0,1.0,0.0,4.m4v,4.0
2024-02-27 13:41:41.612361,1709037701.612361,-1000.0,-1000.0,-942.3828125,-34.1796875,-1.0,1.0,1.0,0.0,4.m4v,4.0
2024-02-27 13:41:41.616266,1709037701.6162665,-344.23828125,-1000.0,-449.70703125,-21.484375,-1.0,1.0,1.0,0.0,4.m4v,4.0
2024-02-27 13:41:41.620181,1709037701.620181,870.1171875,-79.58984375,-65.91796875,-14.16015625,-1.0,1.0,1.0,0.0,4.m4v,4.0
2024-02-27 13:41:41.624087,1709037701.6240869,999.51171875,996.09375,-236.81640625,-26.3671875,-1.0,1.0,1.0,0.0,4.m4v,4.0
2024-02-27 13:41:41.627993,1709037701.6279926,435.05859375,999.51171875,-670.41015625,-32.71484375,-1.0,1.0,1.0,0.0,4.m4v,4.0
2024-02-27 13:41:41.631898,1709037701.6318982,-814.453125,457.03125,-824.70703125,-33.203125,-1.0,1.0,1.0,0.0,4.m4v,4.0
2024-02-27 13:41:41.635804,1709037701.6358037,-1000.0,-1000.0,-386.23046875,-33.69140625,-1.0,1.0,1.0,0.0,4.m4v,4.0
2024-02-27 13:41:41.639709,1709037701.6397097,-24.4140625,-411.1328125,30.2734375,-19.53125,-1.0,1.0,1.0,0.0,4.m4v,4.0
2024-02-27 13:41:41.643615,1709037701.643615,999.51171875,999.51171875,-61.5234375,-15.13671875,-1.0,1.0,1.0,0.0,4.m4v,4.0
2024-02-27 13:41:41.647521,1709037701.6475203,521.97265625,970.703125,-671.875,-35.15625,-1.0,1.0,1.0,0.0,4.m4v,4.0
2024-02-27 13:41:41.651426,1709037701.651426,-799.31640625,931.15234375,-666.50390625,-42.48046875,-1.0,1.0,1.0,0.0,4.m4v,4.0
2024-02-27 13:41:41.655332,1709037701.655332,-112.3046875,971.19140625,59.5703125,-20.5078125,-1.0,1.0,1.0,0.0,4.m4v,4.0
2024-02-27 13:41:41.659237,1709037701.6592374,999.51171875,923.33984375,351.07421875,-16.6015625,-1.0,1.0,1.0,0.0,4.m4v,4.0
2024-02-27 13:41:41.663143,1709037701.663143,541.50390625,999.51171875,-201.171875,-37.109375,-1.0,1.0,1.0,0.0,4.m4v,4.0
2024-02-27 13:41:41.667060,1709037701.6670604,-686.5234375,18.06640625,-850.5859375,-51.7578125,-1.0,1.0,1.0,0.0,4.m4v,4.0
2024-02-27 13:41:41.670966,1709037701.670966,-1000.0,-1000.0,-912.59765625,-52.734375,-1.0,1.0,1.0,0.0,4.m4v,4.0
2024-02-27 13:41:41.674872,1709037701.6748717,-666.50390625,-960.44921875,-232.421875,-37.109375,-1.0,1.0,1.0,0.0,4.m4v,4.0
2024-02-27 13:41:41.678777,1709037701.6787772,634.27734375,-986.81640625,225.09765625,-26.85546875,-1.0,1.0,1.0,0.0,4.m4v,4.0
2024-02-27 13:41:41.682683,1709037701.682683,822.75390625,-1000.0,-155.76171875,-40.0390625,-1.0,1.0,1.0,0.0,4.m4v,4.0
2024-02-27 13:41:41.686589,1709037701.6865883,-184.08203125,-986.81640625,-421.38671875,-52.24609375,-1.0,1.0,1.0,0.0,4.m4v,4.0
2024-02-27 13:41:41.690494,1709037701.690494,-908.203125,-934.5703125,-291.015625,-44.43359375,-1.0,1.0,1.0,0.0,4.m4v,4.0
2024-02-27 13:41:41.694400,1709037701.6943998,-572.265625,-1000.0,-37.109375,-33.69140625,-1.0,1.0,1.0,0.0,4.m4v,4.0
2024-02-27 13:41:41.698305,1709037701.6983054,572.265625,-218.26171875,420.41015625,-20.5078125,-1.0,1.0,1.0,0.0,4.m4v,4.0
2024-02-27 13:41:41.702211,1709037701.702211,999.51171875,999.51171875,362.3046875,-20.5078125,-1.0,1.0,1.0,0.0,4.m4v,4.0
2024-02-27 13:41:41.706116,1709037701.7061164,616.2109375,953.61328125,-270.01953125,-31.25,-1.0,1.0,1.0,0.0,4.m4v,4.0
2024-02-27 13:41:41.710022,1709037701.7100222,-668.9453125,942.3828125,-480.46875,-37.59765625,-1.0,1.0,1.0,0.0,4.m4v,4.0
2024-02-27 13:41:41.713936,1709037701.713936,-822.75390625,991.2109375,-113.28125,-32.2265625,-1.0,1.0,1.0,0.0,4.m4v,4.0
2024-02-27 13:41:41.717841,1709037701.7178414,504.39453125,904.78515625,484.375,-15.13671875,-1.0,1.0,1.0,0.0,4.m4v,4.0
2024-02-27 13:41:41.721747,1709037701.721747,999.51171875,999.51171875,491.2109375,-18.06640625,-1.0,1.0,1.0,0.0,4.m4v,4.0
2024-02-27 13:41:41.725653,1709037701.7256527,112.3046875,719.23828125,-223.14453125,-41.50390625,-1.0,1.0,1.0,0.0,4.m4v,4.0
2024-02-27 13:41:41.729558,1709037701.7295582,-1000.0,-737.3046875,-742.1875,-53.7109375,-1.0,1.0,1.0,0.0,4.m4v,4.0
2024-02-27 13:41:41.733464,1709037701.7334638,-621.58203125,-1000.0,35.64453125,-38.0859375,-1.0,1.0,1.0,0.0,4.m4v,4.0
2024-02-27 13:41:41.737370,1709037701.7373695,677.734375,298.828125,999.51171875,-15.13671875,-1.0,1.0,1.0,0.0,4.m4v,4.0
2024-02-27 13:41:41.741275,1709037701.741275,999.51171875,999.51171875,744.140625,-19.04296875,-1.0,1.0,1.0,0.0,4.m4v,4.0
2024-02-27 13:41:41.745181,1709037701.7451806,551.7578125,999.51171875,180.17578125,-37.109375,-1.0,1.0,1.0,0.0,4.m4v,4.0
2024-02-27 13:41:41.749086,1709037701.7490864,-607.421875,163.57421875,-293.45703125,-45.41015625,-1.0,1.0,1.0,0.0,4.m4v,4.0
2024-02-27 13:41:41.752992,1709037701.752992,-1000.0,-1000.0,-273.92578125,-43.45703125,-1.0,1.0,1.0,0.0,4.m4v,4.0
2024-02-27 13:41:41.756897,1709037701.7568974,-485.83984375,-979.98046875,407.2265625,-24.90234375,-1.0,1.0,1.0,0.0,4.m4v,4.0
2024-02-27 13:41:41.760811,1709037701.760811,872.55859375,-975.09765625,502.9296875,-23.4375,-1.0,1.0,1.0,0.0,4.m4v,4.0
2024-02-27 13:41:41.764717,1709037701.7647166,93.26171875,-1000.0,-283.203125,-47.8515625,-1.0,1.0,1.0,0.0,4.m4v,4.0
2024-02-27 13:41:41.768622,1709037701.7686222,-1000.0,-937.5,-750.48828125,-57.12890625,-1.0,1.0,1.0,0.0,4.m4v,4.0
2024-02-27 13:41:41.772528,1709037701.7725277,-837.40234375,-1000.0,-290.0390625,-53.22265625,-1.0,1.0,1.0,0.0,4.m4v,4.0
2024-02-27 13:41:41.776433,1709037701.7764337,340.8203125,-216.30859375,532.71484375,-29.296875,-1.0,1.0,1.0,0.0,4.m4v,4.0
2024-02-27 13:41:41.780339,1709037701.780339,999.51171875,999.51171875,999.51171875,-20.01953125,-1.0,1.0,1.0,0.0,4.m4v,4.0
2024-02-27 13:41:41.784245,1709037701.7842443,940.4296875,915.52734375,684.5703125,-33.203125,-1.0,1.0,1.0,0.0,4.m4v,4.0
2024-02-27 13:41:41.788150,1709037701.7881503,-112.79296875,999.51171875,-148.4375,-46.38671875,-1.0,1.0,1.0,0.0,4.m4v,4.0
2024-02-27 13:41:41.792056,1709037701.7920558,-1000.0,-16.11328125,-345.21484375,-55.6640625,-1.0,1.0,1.0,0.0,4.m4v,4.0
2024-02-27 13:41:41.795961,1709037701.7959614,-831.54296875,-1000.0,213.8671875,-44.43359375,-1.0,1.0,1.0,0.0,4.m4v,4.0
2024-02-27 13:41:41.799867,1709037701.7998672,130.37109375,-1000.0,424.31640625,-37.59765625,-1.0,1.0,1.0,0.0,4.m4v,4.0
2024-02-27 13:41:41.803773,1709037701.8037727,981.4453125,-79.1015625,257.8125,-37.59765625,-1.0,1.0,1.0,0.0,4.m4v,4.0
2024-02-27 13:41:41.807686,1709037701.807686,741.2109375,999.51171875,62.98828125,-34.66796875,-1.0,1.0,1.0,0.0,4.m4v,4.0
2024-02-27 13:41:41.811591,1709037701.8115914,-471.19140625,232.421875,-328.125,-43.9453125,-1.0,1.0,1.0,0.0,4.m4v,4.0
2024-02-27 13:41:41.815497,1709037701.8154972,-1000.0,-1000.0,-46.38671875,-41.9921875,-1.0,1.0,1.0,0.0,4.m4v,4.0
2024-02-27 13:41:41.819403,1709037701.8194027,-250.48828125,-995.60546875,394.53125,-31.73828125,-1.0,1.0,1.0,0.0,4.m4v,4.0
2024-02-27 13:41:41.823308,1709037701.8233082,348.14453125,-976.07421875,-32.71484375,-41.9921875,-1.0,1.0,1.0,0.0,4.m4v,4.0
2024-02-27 13:41:41.827214,1709037701.827214,-528.80859375,-969.23828125,-328.125,-50.78125,-1.0,1.0,1.0,0.0,4.m4v,4.0
2024-02-27 13:41:41.831120,1709037701.8311195,-1000.0,-1000.0,-136.71875,-51.7578125,-1.0,1.0,1.0,0.0,4.m4v,4.0
2024-02-27 13:41:41.835025,1709037701.835025,-287.109375,-972.65625,189.453125,-37.109375,-1.0,1.0,1.0,0.0,4.m4v,4.0
2024-02-27 13:41:41.838931,1709037701.8389308,858.88671875,358.3984375,652.83203125,-19.04296875,-1.0,1.0,1.0,0.0,4.m4v,4.0
2024-02-27 13:41:41.842836,1709037701.8428364,999.51171875,999.51171875,289.0625,-25.390625,-1.0,1.0,1.0,0.0,4.m4v,4.0
2024-02-27 13:41:41.846742,1709037701.846742,193.84765625,904.78515625,-347.65625,-39.0625,-1.0,1.0,1.0,0.0,4.m4v,4.0
2024-02-27 13:41:41.850648,1709037701.8506477,-1000.0,976.07421875,-380.859375,-43.9453125,-1.0,1.0,1.0,0.0,4.m4v,4.0
2024-02-27 13:41:41.854560,1709037701.85456,-464.84375,984.375,143.5546875,-32.2265625,-1.0,1.0,1.0,0.0,4.m4v,4.0
2024-02-27 13:41:41.858466,1709037701.858466,870.60546875,908.203125,710.9375,-18.06640625,-1.0,1.0,1.0,0.0,4.m4v,4.0
2024-02-27 13:41:41.862371,1709037701.8623714,988.28125,999.51171875,525.87890625,-28.80859375,-1.0,1.0,1.0,0.0,4.m4v,4.0
2024-02-27 13:41:41.866277,1709037701.866277,-47.8515625,729.4921875,-116.2109375,-46.38671875,-1.0,1.0,1.0,0.0,4.m4v,4.0
2024-02-27 13:41:41.870183,1709037701.8701828,-1000.0,-632.32421875,-692.3828125,-42.96875,-1.0,1.0,1.0,0.0,4.m4v,4.0
2024-02-27 13:41:41.874088,1709037701.8740883,-874.0234375,-1000.0,-161.62109375,-25.87890625,-1.0,1.0,1.0,0.0,4.m4v,4.0
2024-02-27 13:41:42.045966,1709037702.045966,970.21484375,999.51171875,214.35546875,-29.296875,-1.0,1.0,1.0,0.0,4.m4v,4.0
2024-02-27 13:41:42.049872,1709037702.0498717,-33.69140625,999.51171875,-102.5390625,-38.0859375,-1.0,1.0,1.0,0.0,4.m4v,4.0
2024-02-27 13:41:42.053777,1709037702.0537772,-1000.0,240.72265625,40.52734375,-37.109375,-1.0,1.0,1.0,0.0,4.m4v,4.0
2024-02-27 13:41:42.057683,1709037702.0576828,-920.41015625,-1000.0,346.19140625,-37.109375,-1.0,1.0,1.0,0.0,4.m4v,4.0
2024-02-27 13:41:42.061589,1709037702.0615883,178.7109375,-229.98046875,628.90625,-29.296875,-1.0,1.0,1.0,0.0,4.m4v,4.0
2024-02-27 13:41:42.065494,1709037702.065494,999.51171875,999.51171875,443.84765625,-30.2734375,-1.0,1.0,1.0,0.0,4.m4v,4.0
2024-02-27 13:41:42.069400,1709037702.0693996,142.578125,984.375,-84.47265625,-49.8046875,-1.0,1.0,1.0,0.0,4.m4v,4.0
2024-02-27 13:41:42.073305,1709037702.0733054,-1000.0,-282.71484375,-154.78515625,-50.78125,-1.0,1.0,1.0,0.0,4.m4v,4.0
2024-02-27 13:41:42.077211,1709037702.077211,-869.62890625,-1000.0,258.7890625,-37.109375,-1.0,1.0,1.0,0.0,4.m4v,4.0
2024-02-27 13:41:42.081116,1709037702.0811164,83.0078125,-939.94140625,339.35546875,-38.0859375,-1.0,1.0,1.0,0.0,4.m4v,4.0
2024-02-27 13:41:42.085022,1709037702.0850222,-28.3203125,-1000.0,-232.421875,-46.875,-1.0,1.0,1.0,0.0,4.m4v,4.0
2024-02-27 13:41:42.088936,1709037702.088936,-1000.0,-928.22265625,-556.15234375,-56.15234375,-1.0,1.0,1.0,0.0,4.m4v,4.0
2024-02-27 13:41:42.092841,1709037702.0928414,-891.11328125,-1000.0,-225.09765625,-53.22265625,-1.0,1.0,1.0,0.0,4.m4v,4.0
2024-02-27 13:41:42.096747,1709037702.096747,343.75,-454.1015625,444.3359375,-35.64453125,-1.0,1.0,1.0,0.0,4.m4v,4.0
2024-02-27 13:41:42.100653,1709037702.1006527,999.51171875,938.96484375,736.328125,-32.2265625,-1.0,1.0,1.0,0.0,4.m4v,4.0
2024-02-27 13:41:42.104558,1709037702.1045582,934.08203125,995.60546875,440.4296875,-38.57421875,-1.0,1.0,1.0,0.0,4.m4v,4.0
2024-02-27 13:41:42.108464,1709037702.1084638,891.6015625,923.33984375,314.94140625,-40.52734375,-1.0,1.0,1.0,0.0,4.m4v,4.0
2024-02-27 13:41:42.112369,1709037702.1123693,-4.39453125,997.55859375,443.84765625,-38.57421875,-1.0,1.0,1.0,0.0,4.m4v,4.0
2024-02-27 13:41:42.116275,1709037702.116275,-322.265625,906.73828125,687.5,-27.83203125,-1.0,1.0,1.0,0.0,4.m4v,4.0
2024-02-27 13:41:42.120181,1709037702.1201806,675.78125,999.51171875,725.5859375,-20.5078125,-1.0,1.0,1.0,0.0,4.m4v,4.0
2024-02-27 13:41:42.124086,1709037702.124086,93.75,719.7265625,123.53515625,-38.0859375,-1.0,1.0,1.0,0.0,4.m4v,4.0
2024-02-27 13:41:42.127992,1709037702.127992,-994.140625,-709.9609375,-602.05078125,-56.15234375,-1.0,1.0,1.0,0.0,4.m4v,4.0
2024-02-27 13:41:42.131897,1709037702.1318974,-1000.0,-1000.0,-575.1953125,-47.8515625,-1.0,1.0,1.0,0.0,4.m4v,4.0
2024-02-27 13:41:42.135811,1709037702.1358106,-443.84765625,-937.01171875,233.3984375,-25.390625,-1.0,1.0,1.0,0.0,4.m4v,4.0
2024-02-27 13:41:42.139716,1709037702.1397164,999.51171875,-1000.0,685.546875,-19.53125,-1.0,1.0,1.0,0.0,4.m4v,4.0
2024-02-27 13:41:42.143622,1709037702.143622,399.90234375,-994.140625,62.01171875,-38.57421875,-1.0,1.0,1.0,0.0,4.m4v,4.0
2024-02-27 13:41:42.147527,1709037702.1475277,-984.375,-947.75390625,-755.37109375,-50.29296875,-1.0,1.0,1.0,0.0,4.m4v,4.0
2024-02-27 13:41:42.151433,1709037702.1514332,-1000.0,-1000.0,-575.68359375,-40.52734375,-1.0,1.0,1.0,0.0,4.m4v,4.0
2024-02-27 13:41:42.155339,1709037702.1553388,129.8828125,-101.07421875,481.93359375,-11.71875,-1.0,1.0,1.0,0.0,4.m4v,4.0
2024-02-27 13:41:42.159244,1709037702.1592443,999.51171875,999.51171875,999.51171875,0.9765625,-1.0,1.0,1.0,0.0,4.m4v,4.0
2024-02-27 13:41:42.163150,1709037702.16315,999.51171875,920.8984375,599.12109375,-20.99609375,-1.0,1.0,1.0,0.0,4.m4v,4.0
2024-02-27 13:41:42.167056,1709037702.1670556,162.109375,999.51171875,22.4609375,-37.109375,-1.0,1.0,1.0,0.0,4.m4v,4.0
2024-02-27 13:41:42.170961,1709037702.1709611,-988.76953125,-185.546875,-411.62109375,-46.875,-1.0,1.0,1.0,0.0,4.m4v,4.0
2024-02-27 13:41:42.174867,1709037702.174867,-1000.0,-1000.0,-105.46875,-39.55078125,-1.0,1.0,1.0,0.0,4.m4v,4.0
2024-02-27 13:41:42.178772,1709037702.1787724,-19.04296875,-943.84765625,449.21875,-12.20703125,-1.0,1.0,1.0,0.0,4.m4v,4.0
2024-02-27 13:41:42.182686,1709037702.1826856,600.09765625,-1000.0,72.265625,-20.99609375,-1.0,1.0,1.0,0.0,4.m4v,4.0
2024-02-27 13:41:42.186591,1709037702.1865911,-562.98828125,-948.2421875,-595.21484375,-47.36328125,-1.0,1.0,1.0,0.0,4.m4v,4.0
2024-02-27 13:41:42.190497,1709037702.1904967,-1000.0,-1000.0,-641.6015625,-41.50390625,-1.0,1.0,1.0,0.0,4.m4v,4.0
2024-02-27 13:41:42.194402,1709037702.1944025,-231.93359375,-865.234375,45.41015625,-17.08984375,-1.0,1.0,1.0,0.0,4.m4v,4.0
2024-02-27 13:41:42.198308,1709037702.198308,947.265625,539.0625,797.36328125,-2.9296875,-1.0,1.0,1.0,0.0,4.m4v,4.0
2024-02-27 13:41:42.202214,1709037702.2022135,990.72265625,999.51171875,979.00390625,-14.6484375,-1.0,1.0,1.0,0.0,4.m4v,4.0
2024-02-27 13:41:42.206119,1709037702.2061193,812.01171875,999.51171875,557.12890625,-33.203125,-1.0,1.0,1.0,0.0,4.m4v,4.0
2024-02-27 13:41:42.210025,1709037702.2100248,-324.21875,450.1953125,-112.79296875,-50.29296875,-1.0,1.0,1.0,0.0,4.m4v,4.0
2024-02-27 13:41:42.213930,1709037702.2139304,-1000.0,-972.16796875,-134.765625,-53.22265625,-1.0,1.0,1.0,0.0,4.m4v,4.0
2024-02-27 13:41:42.217836,1709037702.217836,-643.5546875,-969.7265625,379.8828125,-39.0625,-1.0,1.0,1.0,0.0,4.m4v,4.0
2024-02-27 13:41:42.221742,1709037702.2217417,136.71875,-1000.0,242.67578125,-33.69140625,-1.0,1.0,1.0,0.0,4.m4v,4.0
2024-02-27 13:41:42.225647,1709037702.2256472,-55.6640625,-728.515625,-146.484375,-39.0625,-1.0,1.0,1.0,0.0,4.m4v,4.0
2024-02-27 13:41:42.229560,1709037702.22956,287.59765625,673.828125,-164.0625,-35.64453125,-1.0,1.0,1.0,0.0,4.m4v,4.0
2024-02-27 13:41:42.233466,1709037702.233466,945.80078125,999.51171875,157.71484375,-34.66796875,-1.0,1.0,1.0,0.0,4.m4v,4.0
2024-02-27 13:41:42.237371,1709037702.2373714,932.12890625,837.890625,795.8984375,-31.25,-1.0,1.0,1.0,0.0,4.m4v,4.0
2024-02-27 13:41:42.241277,1709037702.241277,988.28125,999.51171875,813.4765625,-33.203125,-1.0,1.0,1.0,0.0,4.m4v,4.0
2024-02-27 13:41:42.245183,1709037702.2451828,-90.33203125,446.77734375,-27.83203125,-48.33984375,-1.0,1.0,1.0,0.0,4.m4v,4.0
2024-02-27 13:41:42.249088,1709037702.2490883,-1000.0,-959.47265625,-472.65625,-53.22265625,-1.0,1.0,1.0,0.0,4.m4v,4.0
2024-02-27 13:41:42.252994,1709037702.2529938,-1000.0,-1000.0,39.55078125,-39.0625,-1.0,1.0,1.0,0.0,4.m4v,4.0
2024-02-27 13:41:42.256900,1709037702.2568996,-622.0703125,-952.1484375,424.8046875,-34.1796875,-1.0,1.0,1.0,0.0,4.m4v,4.0
2024-02-27 13:41:42.260805,1709037702.2608051,413.57421875,-1000.0,304.19921875,-38.0859375,-1.0,1.0,1.0,0.0,4.m4v,4.0
2024-02-27 13:41:42.264711,1709037702.264711,-142.08984375,-1000.0,-336.9140625,-41.50390625,-1.0,1.0,1.0,0.0,4.m4v,4.0
2024-02-27 13:41:42.268616,1709037702.2686164,-1000.0,-930.6640625,-799.31640625,-42.96875,-1.0,1.0,1.0,0.0,4.m4v,4.0
2024-02-27 13:41:42.272522,1709037702.272522,-895.01953125,-1000.0,-496.58203125,-35.15625,-1.0,1.0,1.0,0.0,4.m4v,4.0
2024-02-27 13:41:42.276434,1709037702.2764342,286.1328125,-346.6796875,406.73828125,-19.04296875,-1.0,1.0,1.0,0.0,4.m4v,4.0
2024-02-27 13:41:42.276434,1709037702.2764342,286.1328125,-346.6796875,406.73828125,-19.04296875,-1.0,1.0,1.0,0.0,4.m4v,4.0
2024-02-27 13:41:42.280340,1709037702.28034,991.69921875,943.84765625,833.0078125,-15.625,-1.0,1.0,1.0,0.0,4.m4v,4.0
2024-02-27 13:41:42.280340,1709037702.28034,991.69921875,943.84765625,833.0078125,-15.625,-1.0,1.0,1.0,0.0,4.m4v,4.0
2024-02-27 13:41:42.284245,1709037702.2842455,999.51171875,999.51171875,432.12890625,-33.69140625,-1.0,1.0,1.0,0.0,4.m4v,4.0
2024-02-27 13:41:42.284245,1709037702.2842455,999.51171875,999.51171875,432.12890625,-33.69140625,-1.0,1.0,1.0,0.0,4.m4v,4.0
2024-02-27 13:41:42.288151,1709037702.288151,250.9765625,874.51171875,-103.515625,-46.875,-1.0,1.0,1.0,0.0,4.m4v,4.0
2024-02-27 13:41:42.288151,1709037702.288151,250.9765625,874.51171875,-103.515625,-46.875,-1.0,1.0,1.0,0.0,4.m4v,4.0
2024-02-27 13:41:42.292057,1709037702.2920568,-1000.0,-421.875,-605.46875,-59.08203125,-1.0,1.0,1.0,0.0,4.m4v,4.0
2024-02-27 13:41:42.292057,1709037702.2920568,-1000.0,-421.875,-605.46875,-59.08203125,-1.0,1.0,1.0,0.0,4.m4v,4.0
2024-02-27 13:41:42.295962,1709037702.2959623,-826.66015625,-1000.0,-63.96484375,-46.38671875,-1.0,1.0,1.0,0.0,4.m4v,4.0
2024-02-27 13:41:42.295962,1709037702.2959623,-826.66015625,-1000.0,-63.96484375,-46.38671875,-1.0,1.0,1.0,0.0,4.m4v,4.0
2024-02-27 13:41:42.299868,1709037702.299868,605.95703125,-935.05859375,428.7109375,-34.1796875,-1.0,1.0,1.0,0.0,4.m4v,4.0
2024-02-27 13:41:42.299868,1709037702.299868,605.95703125,-935.05859375,428.7109375,-34.1796875,-1.0,1.0,1.0,0.0,4.m4v,4.0
2024-02-27 13:41:42.303773,1709037702.3037734,124.51171875,-1000.0,-503.41796875,-50.29296875,-1.0,1.0,1.0,0.0,4.m4v,4.0
2024-02-27 13:41:42.303773,1709037702.3037734,124.51171875,-1000.0,-503.41796875,-50.29296875,-1.0,1.0,1.0,0.0,4.m4v,4.0
2024-02-27 13:41:42.307679,1709037702.3076792,-1000.0,-1000.0,-1000.0,-59.08203125,-1.0,1.0,1.0,0.0,4.m4v,4.0
2024-02-27 13:41:42.307679,1709037702.3076792,-1000.0,-1000.0,-1000.0,-59.08203125,-1.0,1.0,1.0,0.0,4.m4v,4.0
2024-02-27 13:41:42.311585,1709037702.3115847,-1000.0,-997.0703125,-1000.0,-49.8046875,-1.0,1.0,1.0,0.0,4.m4v,4.0
2024-02-27 13:41:42.311585,1709037702.3115847,-1000.0,-997.0703125,-1000.0,-49.8046875,-1.0,1.0,1.0,0.0,4.m4v,4.0
2024-02-27 13:41:42.315490,1709037702.3154902,-558.10546875,-943.84765625,-659.66796875,-36.1328125,-1.0,1.0,1.0,0.0,4.m4v,4.0
2024-02-27 13:41:42.319396,1709037702.319396,710.44921875,-1000.0,-229.4921875,-27.83203125,-1.0,1.0,1.0,0.0,4.m4v,4.0
2024-02-27 13:41:42.323308,1709037702.323308,999.51171875,-155.76171875,-589.84375,-34.1796875,-1.0,1.0,1.0,0.0,4.m4v,4.0
2024-02-27 13:41:42.327214,1709037702.3272135,843.26171875,999.51171875,-974.12109375,-34.1796875,-1.0,1.0,1.0,0.0,4.m4v,4.0
2024-02-27 13:41:42.331119,1709037702.331119,-186.5234375,945.80078125,-1000.0,-35.15625,-1.0,1.0,1.0,0.0,4.m4v,4.0
2024-02-27 13:41:42.335025,1709037702.3350246,-534.1796875,947.265625,-659.1796875,-27.83203125,-1.0,1.0,1.0,0.0,4.m4v,4.0
2024-02-27 13:41:42.342836,1709037702.342836,999.51171875,903.80859375,-316.40625,-28.3203125,-1.0,1.0,1.0,0.0,4.m4v,4.0
2024-02-27 13:41:42.354553,1709037702.3545527,-1000.0,-1000.0,-983.3984375,-46.38671875,-1.0,1.0,1.0,0.0,4.m4v,4.0
2024-02-27 13:41:42.366270,1709037702.3662696,-330.56640625,-1000.0,-1000.0,-44.921875,-1.0,1.0,1.0,0.0,4.m4v,4.0
2024-02-27 13:41:42.795972,1709037702.7959723,-594.7265625,-935.05859375,108.88671875,-36.1328125,-1.0,1.0,1.0,0.0,4.m4v,4.0
2024-02-27 13:41:42.799878,1709037702.799878,797.8515625,-1000.0,647.4609375,-22.94921875,-1.0,1.0,1.0,0.0,4.m4v,4.0
2024-02-27 13:41:42.803783,1709037702.8037834,794.43359375,-977.05078125,230.95703125,-35.64453125,-1.0,1.0,1.0,0.0,4.m4v,4.0
2024-02-27 13:41:42.807689,1709037702.8076892,-688.96484375,-977.5390625,-515.13671875,-45.41015625,-1.0,1.0,1.0,0.0,4.m4v,4.0
2024-02-27 13:41:42.811595,1709037702.8115947,-854.4921875,-1000.0,-163.0859375,-33.203125,-1.0,1.0,1.0,0.0,4.m4v,4.0
2024-02-27 13:41:42.815500,1709037702.8155005,523.4375,134.27734375,773.4375,-12.6953125,-1.0,1.0,1.0,0.0,4.m4v,4.0
2024-02-27 13:41:42.819406,1709037702.819406,999.51171875,999.51171875,968.26171875,-11.23046875,-1.0,1.0,1.0,0.0,4.m4v,4.0
2024-02-27 13:41:42.823312,1709037702.8233116,853.515625,916.50390625,498.046875,-28.3203125,-1.0,1.0,1.0,0.0,4.m4v,4.0
2024-02-27 13:41:42.827217,1709037702.827217,187.5,933.10546875,133.7890625,-38.0859375,-1.0,1.0,1.0,0.0,4.m4v,4.0
2024-02-27 13:41:42.831123,1709037702.8311229,-896.97265625,998.53515625,51.7578125,-35.15625,-1.0,1.0,1.0,0.0,4.m4v,4.0
2024-02-27 13:41:42.835028,1709037702.8350284,-814.94140625,758.30078125,376.46484375,-24.90234375,-1.0,1.0,1.0,0.0,4.m4v,4.0
2024-02-27 13:41:42.838942,1709037702.8389423,59.5703125,-414.0625,770.5078125,-20.01953125,-1.0,1.0,1.0,0.0,4.m4v,4.0
2024-02-27 13:41:42.842848,1709037702.8428478,-419.43359375,-1000.0,205.56640625,-34.1796875,-1.0,1.0,1.0,0.0,4.m4v,4.0
2024-02-27 13:41:42.846754,1709037702.8467536,-1000.0,-940.4296875,-657.2265625,-47.36328125,-1.0,1.0,1.0,0.0,4.m4v,4.0
2024-02-27 13:41:42.850659,1709037702.8506591,-1000.0,-971.6796875,-776.85546875,-42.96875,-1.0,1.0,1.0,0.0,4.m4v,4.0
2024-02-27 13:41:42.854565,1709037702.854565,-536.1328125,-1000.0,-169.43359375,-31.25,-1.0,1.0,1.0,0.0,4.m4v,4.0
2024-02-27 13:41:42.858470,1709037702.8584702,744.140625,131.34765625,731.93359375,-4.8828125,-1.0,1.0,1.0,0.0,4.m4v,4.0
2024-02-27 13:41:43.307693,1709037703.3076928,588.37890625,229.4921875,-191.40625,-41.50390625,-1.0,1.0,1.0,0.0,4.m4v,4.0
2024-02-27 13:41:43.311598,1709037703.3115983,923.33984375,999.51171875,32.71484375,-29.296875,-1.0,1.0,1.0,0.0,4.m4v,4.0
2024-02-27 13:41:43.315504,1709037703.315504,826.171875,840.33203125,494.62890625,-27.34375,-1.0,1.0,1.0,0.0,4.m4v,4.0
2024-02-27 13:41:43.319410,1709037703.3194096,999.51171875,999.51171875,839.35546875,-32.2265625,-1.0,1.0,1.0,0.0,4.m4v,4.0
2024-02-27 13:41:43.323315,1709037703.3233151,100.09765625,627.9296875,135.7421875,-52.734375,-1.0,1.0,1.0,0.0,4.m4v,4.0
2024-02-27 13:41:43.327221,1709037703.327221,-1000.0,-819.3359375,-447.75390625,-67.87109375,-1.0,1.0,1.0,0.0,4.m4v,4.0
2024-02-27 13:41:43.331126,1709037703.3311265,-969.23828125,-1000.0,-342.28515625,-51.7578125,-1.0,1.0,1.0,0.0,4.m4v,4.0
2024-02-27 13:41:43.335032,1709037703.335032,-968.26171875,-965.8203125,-130.859375,-37.109375,-1.0,1.0,1.0,0.0,4.m4v,4.0
2024-02-27 13:41:43.338938,1709037703.3389375,87.40234375,-954.1015625,395.5078125,-27.34375,-1.0,1.0,1.0,0.0,4.m4v,4.0
2024-02-27 13:41:43.342843,1709037703.3428433,999.51171875,399.90234375,417.96875,-25.87890625,-1.0,1.0,1.0,0.0,4.m4v,4.0
2024-02-27 13:41:43.346749,1709037703.3467488,793.45703125,999.51171875,-101.5625,-36.1328125,-1.0,1.0,1.0,0.0,4.m4v,4.0
2024-02-27 13:41:43.350654,1709037703.3506544,-481.93359375,905.76171875,-326.66015625,-45.41015625,-1.0,1.0,1.0,0.0,4.m4v,4.0
2024-02-27 13:41:43.354567,1709037703.354567,-738.28125,977.05078125,151.85546875,-42.48046875,-1.0,1.0,1.0,0.0,4.m4v,4.0
2024-02-27 13:41:43.358473,1709037703.3584728,628.41796875,969.7265625,851.07421875,-21.484375,-1.0,1.0,1.0,0.0,4.m4v,4.0
2024-02-27 13:41:43.362378,1709037703.3623784,999.51171875,908.69140625,817.87109375,-30.2734375,-1.0,1.0,1.0,0.0,4.m4v,4.0
2024-02-27 13:41:43.366284,1709037703.366284,581.0546875,999.51171875,383.7890625,-52.24609375,-1.0,1.0,1.0,0.0,4.m4v,4.0
2024-02-27 13:41:43.370190,1709037703.3701897,-643.06640625,171.38671875,-165.0390625,-65.91796875,-1.0,1.0,1.0,0.0,4.m4v,4.0
2024-02-27 13:41:43.374095,1709037703.3740952,-1000.0,-1000.0,128.90625,-62.01171875,-1.0,1.0,1.0,0.0,4.m4v,4.0
2024-02-27 13:41:43.378001,1709037703.3780007,102.05078125,-981.4453125,992.1875,-34.66796875,-1.0,1.0,1.0,0.0,4.m4v,4.0
2024-02-27 13:41:43.381906,1709037703.3819065,735.3515625,-974.12109375,626.46484375,-31.25,-1.0,1.0,1.0,0.0,4.m4v,4.0
2024-02-27 13:41:43.381906,1709037703.3819065,735.3515625,-974.12109375,626.46484375,-31.25,-1.0,1.0,1.0,0.0,4.m4v,4.0
2024-02-27 13:41:43.385812,1709037703.385812,-637.6953125,-1000.0,-423.33984375,-53.22265625,-1.0,1.0,1.0,0.0,4.m4v,4.0
