Timestamp,Timestamp_UNIX,TP9,AF7,AF8,TP10,Valence,Arousal,Dominace,Viewed,Video,Participant
2024-02-27 10:15:55.167389,1709025355.1673894,-46.38671875,-1000.0,-33.203125,-32.71484375,0.0,-1.0,1.0,0.0,1.m4v,2.0
2024-02-27 10:15:55.171294,1709025355.171294,-57.12890625,-1000.0,-33.203125,-42.96875,0.0,-1.0,1.0,0.0,1.m4v,2.0
2024-02-27 10:15:55.175199,1709025355.1751988,-49.8046875,-956.0546875,-45.8984375,-43.45703125,0.0,-1.0,1.0,0.0,1.m4v,2.0
2024-02-27 10:15:55.179103,1709025355.1791034,-29.296875,-1000.0,-38.57421875,-31.73828125,0.0,-1.0,1.0,0.0,1.m4v,2.0
2024-02-27 10:15:55.183008,1709025355.183008,-29.296875,-983.3984375,-28.80859375,-42.96875,0.0,-1.0,1.0,0.0,1.m4v,2.0
2024-02-27 10:15:55.186913,1709025355.1869123,-30.2734375,400.87890625,-44.921875,-52.734375,0.0,-1.0,1.0,0.0,1.m4v,2.0
2024-02-27 10:15:55.190817,1709025355.1908174,-50.29296875,999.51171875,-44.921875,-52.734375,0.0,-1.0,1.0,0.0,1.m4v,2.0
2024-02-27 10:15:55.194722,1709025355.194722,-59.08203125,897.4609375,-39.0625,-46.875,0.0,-1.0,1.0,0.0,1.m4v,2.0
2024-02-27 10:15:55.198627,1709025355.1986265,-57.12890625,979.98046875,-39.0625,-47.8515625,0.0,-1.0,1.0,0.0,1.m4v,2.0
2024-02-27 10:15:55.202531,1709025355.202531,-48.33984375,969.7265625,-48.828125,-35.15625,0.0,-1.0,1.0,0.0,1.m4v,2.0
2024-02-27 10:15:55.206436,1709025355.206436,-16.11328125,969.7265625,-52.24609375,-3.41796875,0.0,-1.0,1.0,0.0,1.m4v,2.0
2024-02-27 10:15:55.210340,1709025355.2103405,-52.24609375,969.7265625,-39.55078125,-26.3671875,0.0,-1.0,1.0,0.0,1.m4v,2.0
2024-02-27 10:15:55.214266,1709025355.214266,-111.81640625,969.7265625,-43.45703125,-76.171875,0.0,-1.0,1.0,0.0,1.m4v,2.0
2024-02-27 10:15:55.218171,1709025355.2181706,-98.14453125,969.7265625,-47.8515625,-75.68359375,0.0,-1.0,1.0,0.0,1.m4v,2.0
2024-02-27 10:15:55.222075,1709025355.2220752,-84.47265625,969.7265625,-41.9921875,-75.68359375,0.0,-1.0,1.0,0.0,1.m4v,2.0
2024-02-27 10:15:55.225980,1709025355.22598,-102.5390625,969.7265625,-38.57421875,-86.9140625,0.0,-1.0,1.0,0.0,1.m4v,2.0
2024-02-27 10:15:55.229885,1709025355.2298846,-113.76953125,985.83984375,-39.0625,-88.37890625,0.0,-1.0,1.0,0.0,1.m4v,2.0
2024-02-27 10:15:55.233789,1709025355.2337892,-105.95703125,906.73828125,-38.57421875,-77.1484375,0.0,-1.0,1.0,0.0,1.m4v,2.0
2024-02-27 10:15:55.237694,1709025355.237694,-104.4921875,999.51171875,-33.203125,-64.94140625,0.0,-1.0,1.0,0.0,1.m4v,2.0
2024-02-27 10:15:55.241599,1709025355.2415986,-116.2109375,741.69921875,-37.109375,-73.73046875,0.0,-1.0,1.0,0.0,1.m4v,2.0
2024-02-27 10:15:55.245503,1709025355.2455032,-103.515625,-711.9140625,-48.828125,-72.75390625,0.0,-1.0,1.0,0.0,1.m4v,2.0
2024-02-27 10:15:55.249408,1709025355.249408,-83.0078125,-1000.0,-47.8515625,-73.2421875,0.0,-1.0,1.0,0.0,1.m4v,2.0
2024-02-27 10:15:55.253313,1709025355.2533126,-82.51953125,-932.12890625,-39.0625,-77.1484375,0.0,-1.0,1.0,0.0,1.m4v,2.0
2024-02-27 10:15:55.257217,1709025355.2572172,-67.3828125,-1000.0,-35.64453125,-62.98828125,0.0,-1.0,1.0,0.0,1.m4v,2.0
2024-02-27 10:15:55.261142,1709025355.2611418,-62.98828125,-1000.0,-43.9453125,-52.24609375,0.0,-1.0,1.0,0.0,1.m4v,2.0
2024-02-27 10:15:55.265047,1709025355.2650466,-62.5,-1000.0,-45.8984375,-55.17578125,0.0,-1.0,1.0,0.0,1.m4v,2.0
2024-02-27 10:15:55.268951,1709025355.2689512,-59.08203125,-962.40234375,-38.57421875,-63.96484375,0.0,-1.0,1.0,0.0,1.m4v,2.0
2024-02-27 10:15:55.272856,1709025355.2728558,-55.6640625,-1000.0,-33.69140625,-61.5234375,0.0,-1.0,1.0,0.0,1.m4v,2.0
2024-02-27 10:15:55.276761,1709025355.2767606,-38.57421875,-1000.0,-32.71484375,-53.22265625,0.0,-1.0,1.0,0.0,1.m4v,2.0
2024-02-27 10:15:55.280665,1709025355.2806652,-20.01953125,317.3828125,-33.69140625,-45.41015625,0.0,-1.0,1.0,0.0,1.m4v,2.0
2024-02-27 10:15:55.284570,1709025355.2845695,-22.94921875,999.51171875,-36.62109375,-46.38671875,0.0,-1.0,1.0,0.0,1.m4v,2.0
2024-02-27 10:15:55.288475,1709025355.2884746,-29.296875,900.87890625,-31.73828125,-49.8046875,0.0,-1.0,1.0,0.0,1.m4v,2.0
2024-02-27 10:15:55.292379,1709025355.2923791,-40.52734375,976.5625,-34.1796875,-42.96875,0.0,-1.0,1.0,0.0,1.m4v,2.0
2024-02-27 10:15:55.296284,1709025355.2962835,-48.33984375,969.7265625,-44.43359375,-36.62109375,0.0,-1.0,1.0,0.0,1.m4v,2.0
2024-02-27 10:15:55.300189,1709025355.3001883,-35.15625,984.375,-43.45703125,-33.203125,0.0,-1.0,1.0,0.0,1.m4v,2.0
2024-02-27 10:15:55.304093,1709025355.3040931,-29.78515625,918.45703125,-46.875,-42.96875,0.0,-1.0,1.0,0.0,1.m4v,2.0
2024-02-27 10:15:55.308018,1709025355.3080175,-42.96875,999.51171875,-52.734375,-57.12890625,0.0,-1.0,1.0,0.0,1.m4v,2.0
2024-02-27 10:15:55.311923,1709025355.3119226,-43.45703125,907.71484375,-52.24609375,-52.734375,0.0,-1.0,1.0,0.0,1.m4v,2.0
2024-02-27 10:15:55.315827,1709025355.3158271,-69.3359375,-517.578125,-37.59765625,-50.78125,0.0,-1.0,1.0,0.0,1.m4v,2.0
2024-02-27 10:15:55.319732,1709025355.3197317,-74.21875,-1000.0,-27.34375,-26.3671875,0.0,-1.0,1.0,0.0,1.m4v,2.0
2024-02-27 10:15:55.323637,1709025355.3236363,-48.828125,-926.26953125,-30.2734375,-10.25390625,0.0,-1.0,1.0,0.0,1.m4v,2.0
2024-02-27 10:15:55.327541,1709025355.327541,-48.33984375,-1000.0,-35.15625,-48.33984375,0.0,-1.0,1.0,0.0,1.m4v,2.0
2024-02-27 10:15:55.331446,1709025355.3314457,-45.41015625,-1000.0,-42.48046875,-56.640625,0.0,-1.0,1.0,0.0,1.m4v,2.0
2024-02-27 10:15:55.335351,1709025355.3353505,-36.62109375,-1000.0,-42.48046875,-36.62109375,0.0,-1.0,1.0,0.0,1.m4v,2.0
2024-02-27 10:15:55.339255,1709025355.339255,-31.73828125,-1000.0,-39.55078125,-31.25,0.0,-1.0,1.0,0.0,1.m4v,2.0
2024-02-27 10:15:55.343160,1709025355.3431597,-28.3203125,-1000.0,-32.71484375,-40.52734375,0.0,-1.0,1.0,0.0,1.m4v,2.0
2024-02-27 10:15:55.347064,1709025355.3470645,-43.9453125,-1000.0,-30.2734375,-47.36328125,0.0,-1.0,1.0,0.0,1.m4v,2.0
2024-02-27 10:15:55.350969,1709025355.350969,-53.22265625,-1000.0,-29.78515625,-42.96875,0.0,-1.0,1.0,0.0,1.m4v,2.0
2024-02-27 10:15:55.354892,1709025355.3548925,-61.03515625,-1000.0,-25.390625,-44.921875,0.0,-1.0,1.0,0.0,1.m4v,2.0
2024-02-27 10:15:55.358797,1709025355.358797,-57.6171875,-942.3828125,-21.97265625,-38.57421875,0.0,-1.0,1.0,0.0,1.m4v,2.0
2024-02-27 10:15:55.362702,1709025355.3627017,-41.50390625,-1000.0,-29.296875,-39.0625,0.0,-1.0,1.0,0.0,1.m4v,2.0
2024-02-27 10:15:55.366606,1709025355.3666065,-49.31640625,-891.11328125,-38.0859375,-53.7109375,0.0,-1.0,1.0,0.0,1.m4v,2.0
2024-02-27 10:15:55.370511,1709025355.370511,-46.38671875,566.89453125,-33.69140625,-39.55078125,0.0,-1.0,1.0,0.0,1.m4v,2.0
2024-02-27 10:15:55.374416,1709025355.3744156,-41.9921875,999.51171875,-33.69140625,-12.20703125,0.0,-1.0,1.0,0.0,1.m4v,2.0
2024-02-27 10:15:55.378320,1709025355.3783202,-46.38671875,895.01953125,-32.71484375,-17.08984375,0.0,-1.0,1.0,0.0,1.m4v,2.0
2024-02-27 10:15:55.382225,1709025355.382225,-42.48046875,985.83984375,-41.9921875,-33.69140625,0.0,-1.0,1.0,0.0,1.m4v,2.0
2024-02-27 10:15:55.386130,1709025355.3861296,-42.96875,969.7265625,-51.7578125,-37.109375,0.0,-1.0,1.0,0.0,1.m4v,2.0
2024-02-27 10:15:55.390034,1709025355.3900342,-59.5703125,969.7265625,-49.8046875,-30.76171875,0.0,-1.0,1.0,0.0,1.m4v,2.0
2024-02-27 10:15:55.393939,1709025355.393939,-63.4765625,969.7265625,-49.8046875,-35.15625,0.0,-1.0,1.0,0.0,1.m4v,2.0
2024-02-27 10:15:55.397844,1709025355.3978436,-54.19921875,969.7265625,-56.15234375,-40.0390625,0.0,-1.0,1.0,0.0,1.m4v,2.0
2024-02-27 10:15:55.401766,1709025355.401766,-56.640625,969.7265625,-54.6875,-42.96875,0.0,-1.0,1.0,0.0,1.m4v,2.0
2024-02-27 10:15:55.405671,1709025355.405671,-59.08203125,969.7265625,-41.50390625,-48.33984375,0.0,-1.0,1.0,0.0,1.m4v,2.0
2024-02-27 10:15:55.409575,1709025355.4095757,-57.6171875,969.7265625,-41.9921875,-43.9453125,0.0,-1.0,1.0,0.0,1.m4v,2.0
2024-02-27 10:15:55.413480,1709025355.41348,-53.7109375,969.7265625,-45.41015625,-34.66796875,0.0,-1.0,1.0,0.0,1.m4v,2.0
2024-02-27 10:15:55.417385,1709025355.4173849,-37.59765625,973.14453125,-40.52734375,-37.59765625,0.0,-1.0,1.0,0.0,1.m4v,2.0
2024-02-27 10:15:55.421289,1709025355.4212894,-20.01953125,961.9140625,-42.48046875,-30.2734375,0.0,-1.0,1.0,0.0,1.m4v,2.0
2024-02-27 10:15:55.425194,1709025355.425194,-30.2734375,925.29296875,-50.29296875,-13.671875,0.0,-1.0,1.0,0.0,1.m4v,2.0
2024-02-27 10:15:55.429099,1709025355.4290988,-45.8984375,999.51171875,-45.41015625,-27.83203125,0.0,-1.0,1.0,0.0,1.m4v,2.0
2024-02-27 10:15:55.433003,1709025355.4330034,-52.24609375,106.93359375,-44.921875,-40.0390625,0.0,-1.0,1.0,0.0,1.m4v,2.0
2024-02-27 10:15:55.436908,1709025355.436908,-60.546875,-1000.0,-48.33984375,-33.69140625,0.0,-1.0,1.0,0.0,1.m4v,2.0
2024-02-27 10:15:55.440813,1709025355.4408128,-53.7109375,-982.91015625,-54.6875,-43.45703125,0.0,-1.0,1.0,0.0,1.m4v,2.0
2024-02-27 10:15:55.444717,1709025355.4447174,-37.59765625,-977.05078125,-57.12890625,-44.921875,0.0,-1.0,1.0,0.0,1.m4v,2.0
2024-02-27 10:15:55.448639,1709025355.448639,-27.83203125,-1000.0,-64.94140625,-41.50390625,0.0,-1.0,1.0,0.0,1.m4v,2.0
2024-02-27 10:15:55.452543,1709025355.4525433,-42.96875,-1000.0,-68.84765625,-49.8046875,0.0,-1.0,1.0,0.0,1.m4v,2.0
2024-02-27 10:15:55.456448,1709025355.4564478,-47.36328125,-1000.0,-57.12890625,-40.0390625,0.0,-1.0,1.0,0.0,1.m4v,2.0
2024-02-27 10:15:55.460353,1709025355.460353,-32.71484375,-936.5234375,-60.05859375,-30.2734375,0.0,-1.0,1.0,0.0,1.m4v,2.0
2024-02-27 10:15:55.464257,1709025355.4642572,-30.2734375,-1000.0,-67.87109375,-31.73828125,0.0,-1.0,1.0,0.0,1.m4v,2.0
2024-02-27 10:15:55.468162,1709025355.4681618,-16.6015625,-811.5234375,-68.84765625,-35.64453125,0.0,-1.0,1.0,0.0,1.m4v,2.0
2024-02-27 10:15:55.472067,1709025355.4720666,-28.80859375,657.2265625,-73.2421875,-30.2734375,0.0,-1.0,1.0,0.0,1.m4v,2.0
2024-02-27 10:15:55.475971,1709025355.4759712,-29.296875,999.51171875,-70.80078125,-26.85546875,0.0,-1.0,1.0,0.0,1.m4v,2.0
2024-02-27 10:15:55.479876,1709025355.4798758,-12.6953125,898.92578125,-60.546875,-41.9921875,0.0,-1.0,1.0,0.0,1.m4v,2.0
2024-02-27 10:15:55.483781,1709025355.4837806,-31.73828125,986.81640625,-55.6640625,-50.78125,0.0,-1.0,1.0,0.0,1.m4v,2.0
2024-02-27 10:15:55.487685,1709025355.4876852,-42.48046875,969.7265625,-53.7109375,-32.71484375,0.0,-1.0,1.0,0.0,1.m4v,2.0
2024-02-27 10:15:55.491590,1709025355.4915898,-35.64453125,969.7265625,-49.8046875,-27.34375,0.0,-1.0,1.0,0.0,1.m4v,2.0
2024-02-27 10:15:55.495512,1709025355.4955118,-24.90234375,969.7265625,-46.875,-40.0390625,0.0,-1.0,1.0,0.0,1.m4v,2.0
2024-02-27 10:15:55.499416,1709025355.4994164,-39.0625,970.21484375,-47.36328125,-43.9453125,0.0,-1.0,1.0,0.0,1.m4v,2.0
2024-02-27 10:15:55.503321,1709025355.5033212,-50.78125,969.7265625,-48.33984375,-47.8515625,0.0,-1.0,1.0,0.0,1.m4v,2.0
2024-02-27 10:15:55.507226,1709025355.5072258,-29.78515625,978.02734375,-46.875,-50.78125,0.0,-1.0,1.0,0.0,1.m4v,2.0
2024-02-27 10:15:55.511130,1709025355.5111303,-26.3671875,938.96484375,-41.015625,-47.8515625,0.0,-1.0,1.0,0.0,1.m4v,2.0
2024-02-27 10:15:55.515035,1709025355.5150352,-53.7109375,962.890625,-37.109375,-44.43359375,0.0,-1.0,1.0,0.0,1.m4v,2.0
2024-02-27 10:15:55.518940,1709025355.5189395,-47.8515625,999.51171875,-41.9921875,-47.36328125,0.0,-1.0,1.0,0.0,1.m4v,2.0
2024-02-27 10:15:55.522844,1709025355.5228443,-41.9921875,-256.34765625,-46.38671875,-47.36328125,0.0,-1.0,1.0,0.0,1.m4v,2.0
2024-02-27 10:15:55.526749,1709025355.5267491,-55.17578125,-1000.0,-51.26953125,-54.19921875,0.0,-1.0,1.0,0.0,1.m4v,2.0
2024-02-27 10:15:55.530654,1709025355.5306537,-53.7109375,-938.96484375,-47.8515625,-47.36328125,0.0,-1.0,1.0,0.0,1.m4v,2.0
2024-02-27 10:15:55.534558,1709025355.5345583,-35.15625,-1000.0,-41.9921875,-29.78515625,0.0,-1.0,1.0,0.0,1.m4v,2.0
2024-02-27 10:15:55.538463,1709025355.538463,-20.01953125,-1000.0,-42.96875,-13.671875,0.0,-1.0,1.0,0.0,1.m4v,2.0
2024-02-27 10:15:55.542389,1709025355.5423894,-9.27734375,-1000.0,-39.55078125,-23.92578125,0.0,-1.0,1.0,0.0,1.m4v,2.0
2024-02-27 10:15:55.546294,1709025355.546294,-27.34375,-1000.0,-41.015625,-50.29296875,0.0,-1.0,1.0,0.0,1.m4v,2.0
2024-02-27 10:15:55.550199,1709025355.5501986,-48.33984375,-994.140625,-43.9453125,-46.38671875,0.0,-1.0,1.0,0.0,1.m4v,2.0
2024-02-27 10:15:55.554103,1709025355.5541034,-41.015625,-952.63671875,-31.73828125,-49.31640625,0.0,-1.0,1.0,0.0,1.m4v,2.0
2024-02-27 10:15:55.558008,1709025355.558008,-41.015625,-1000.0,-19.53125,-57.12890625,0.0,-1.0,1.0,0.0,1.m4v,2.0
2024-02-27 10:15:55.561913,1709025355.5619123,-37.59765625,-158.69140625,-23.4375,-45.41015625,0.0,-1.0,1.0,0.0,1.m4v,2.0
2024-02-27 10:15:55.565817,1709025355.5658174,-30.76171875,999.51171875,-30.76171875,-42.48046875,0.0,-1.0,1.0,0.0,1.m4v,2.0
2024-02-27 10:15:55.569722,1709025355.569722,-35.15625,954.1015625,-39.0625,-43.9453125,0.0,-1.0,1.0,0.0,1.m4v,2.0
2024-02-27 10:15:55.573627,1709025355.5736265,-35.64453125,945.3125,-38.0859375,-48.33984375,0.0,-1.0,1.0,0.0,1.m4v,2.0
2024-02-27 10:15:55.577531,1709025355.577531,-33.69140625,976.5625,-37.59765625,-45.41015625,0.0,-1.0,1.0,0.0,1.m4v,2.0
2024-02-27 10:15:55.581436,1709025355.581436,-30.2734375,969.7265625,-39.0625,-36.1328125,0.0,-1.0,1.0,0.0,1.m4v,2.0
2024-02-27 10:15:55.585340,1709025355.5853405,-27.83203125,969.7265625,-36.62109375,-34.66796875,0.0,-1.0,1.0,0.0,1.m4v,2.0
2024-02-27 10:15:55.589266,1709025355.589266,-24.4140625,969.7265625,-32.71484375,-37.59765625,0.0,-1.0,1.0,0.0,1.m4v,2.0
2024-02-27 10:15:55.593171,1709025355.5931706,-25.87890625,969.7265625,-25.390625,-40.52734375,0.0,-1.0,1.0,0.0,1.m4v,2.0
2024-02-27 10:15:55.597075,1709025355.5970752,-33.203125,969.7265625,-27.83203125,-27.83203125,0.0,-1.0,1.0,0.0,1.m4v,2.0
2024-02-27 10:15:55.600980,1709025355.60098,-30.76171875,969.7265625,-33.203125,-24.4140625,0.0,-1.0,1.0,0.0,1.m4v,2.0
2024-02-27 10:15:55.604885,1709025355.6048846,-24.90234375,972.65625,-35.64453125,-39.0625,0.0,-1.0,1.0,0.0,1.m4v,2.0
2024-02-27 10:15:55.608789,1709025355.6087892,-32.71484375,964.84375,-30.2734375,-40.52734375,0.0,-1.0,1.0,0.0,1.m4v,2.0
2024-02-27 10:15:55.612694,1709025355.6126938,-32.2265625,921.875,-22.4609375,-48.33984375,0.0,-1.0,1.0,0.0,1.m4v,2.0
2024-02-27 10:15:55.616599,1709025355.6165986,-22.94921875,999.51171875,-24.90234375,-55.6640625,0.0,-1.0,1.0,0.0,1.m4v,2.0
2024-02-27 10:15:55.620503,1709025355.6205032,-27.34375,165.52734375,-28.3203125,-49.31640625,0.0,-1.0,1.0,0.0,1.m4v,2.0
2024-02-27 10:15:55.624408,1709025355.6244078,-24.4140625,-1000.0,-29.296875,-49.31640625,0.0,-1.0,1.0,0.0,1.m4v,2.0
2024-02-27 10:15:55.628313,1709025355.6283126,-26.85546875,-992.1875,-34.1796875,-49.8046875,0.0,-1.0,1.0,0.0,1.m4v,2.0
2024-02-27 10:15:55.632217,1709025355.6322172,-36.1328125,-972.65625,-40.52734375,-46.875,0.0,-1.0,1.0,0.0,1.m4v,2.0
2024-02-27 10:15:55.636142,1709025355.6361418,-32.2265625,-1000.0,-43.45703125,-42.48046875,0.0,-1.0,1.0,0.0,1.m4v,2.0
2024-02-27 10:15:55.640047,1709025355.6400466,-14.6484375,-1000.0,-39.0625,-37.59765625,0.0,-1.0,1.0,0.0,1.m4v,2.0
2024-02-27 10:15:55.643951,1709025355.6439512,10.7421875,-973.14453125,-27.83203125,-34.66796875,0.0,-1.0,1.0,0.0,1.m4v,2.0
2024-02-27 10:15:55.647856,1709025355.6478558,-6.34765625,-986.328125,-28.80859375,-30.2734375,0.0,-1.0,1.0,0.0,1.m4v,2.0
2024-02-27 10:15:55.651761,1709025355.6517606,-20.01953125,-1000.0,-36.62109375,-29.296875,0.0,-1.0,1.0,0.0,1.m4v,2.0
2024-02-27 10:15:55.655665,1709025355.6556652,-31.25,176.26953125,-40.0390625,-31.73828125,0.0,-1.0,1.0,0.0,1.m4v,2.0
2024-02-27 10:15:55.659570,1709025355.6595695,-33.69140625,999.51171875,-38.0859375,-35.15625,0.0,-1.0,1.0,0.0,1.m4v,2.0
2024-02-27 10:15:55.663475,1709025355.6634746,-28.80859375,912.59765625,-36.1328125,-38.0859375,0.0,-1.0,1.0,0.0,1.m4v,2.0
2024-02-27 10:15:55.667379,1709025355.6673791,-24.90234375,968.26171875,-34.66796875,-32.71484375,0.0,-1.0,1.0,0.0,1.m4v,2.0
2024-02-27 10:15:55.671284,1709025355.6712835,-26.85546875,971.19140625,-33.69140625,-24.90234375,0.0,-1.0,1.0,0.0,1.m4v,2.0
2024-02-27 10:15:55.675189,1709025355.6751883,-27.34375,969.7265625,-27.83203125,-19.04296875,0.0,-1.0,1.0,0.0,1.m4v,2.0
2024-02-27 10:15:55.679093,1709025355.6790931,-20.01953125,969.7265625,-26.3671875,-29.78515625,0.0,-1.0,1.0,0.0,1.m4v,2.0
2024-02-27 10:15:55.683023,1709025355.683023,-17.578125,969.7265625,-37.109375,-50.29296875,0.0,-1.0,1.0,0.0,1.m4v,2.0
2024-02-27 10:15:55.686928,1709025355.6869276,-17.578125,969.7265625,-41.9921875,-44.921875,0.0,-1.0,1.0,0.0,1.m4v,2.0
2024-02-27 10:15:55.690832,1709025355.6908324,-16.11328125,969.7265625,-39.0625,-35.64453125,0.0,-1.0,1.0,0.0,1.m4v,2.0
2024-02-27 10:15:55.694737,1709025355.694737,-14.6484375,969.7265625,-36.62109375,-42.48046875,0.0,-1.0,1.0,0.0,1.m4v,2.0
2024-02-27 10:15:55.698642,1709025355.6986415,-7.32421875,986.328125,-34.66796875,-35.64453125,0.0,-1.0,1.0,0.0,1.m4v,2.0
2024-02-27 10:15:55.702546,1709025355.7025464,17.08984375,910.64453125,-36.62109375,-19.53125,0.0,-1.0,1.0,0.0,1.m4v,2.0
2024-02-27 10:15:55.706451,1709025355.706451,14.6484375,999.51171875,-40.0390625,-31.25,0.0,-1.0,1.0,0.0,1.m4v,2.0
2024-02-27 10:15:55.710356,1709025355.7103555,-22.94921875,839.84375,-47.36328125,-43.45703125,0.0,-1.0,1.0,0.0,1.m4v,2.0
2024-02-27 10:15:55.714260,1709025355.7142603,-36.62109375,-619.140625,-60.05859375,-40.52734375,0.0,-1.0,1.0,0.0,1.m4v,2.0
2024-02-27 10:15:55.718165,1709025355.718165,-31.73828125,-1000.0,-57.6171875,-43.9453125,0.0,-1.0,1.0,0.0,1.m4v,2.0
2024-02-27 10:15:55.722070,1709025355.7220695,-15.625,-926.7578125,-48.828125,-50.29296875,0.0,-1.0,1.0,0.0,1.m4v,2.0
2024-02-27 10:15:55.725974,1709025355.725974,-9.27734375,-1000.0,-48.828125,-44.43359375,0.0,-1.0,1.0,0.0,1.m4v,2.0
2024-02-27 10:15:55.729898,1709025355.7298982,-16.11328125,-1000.0,-48.33984375,-35.64453125,0.0,-1.0,1.0,0.0,1.m4v,2.0
2024-02-27 10:15:55.733803,1709025355.7338028,-16.6015625,-1000.0,-51.7578125,-36.1328125,0.0,-1.0,1.0,0.0,1.m4v,2.0
2024-02-27 10:15:55.737708,1709025355.7377076,-14.16015625,-1000.0,-41.015625,-30.2734375,0.0,-1.0,1.0,0.0,1.m4v,2.0
2024-02-27 10:15:55.741612,1709025355.7416122,-10.7421875,-941.40625,-35.64453125,-15.625,0.0,-1.0,1.0,0.0,1.m4v,2.0
2024-02-27 10:15:55.745517,1709025355.7455168,-1.953125,-1000.0,-36.62109375,-6.34765625,0.0,-1.0,1.0,0.0,1.m4v,2.0
2024-02-27 10:15:55.749422,1709025355.7494216,-8.7890625,-880.859375,-34.1796875,-10.7421875,0.0,-1.0,1.0,0.0,1.m4v,2.0
2024-02-27 10:15:56.198648,1709025356.1986485,-50.78125,-963.8671875,-29.296875,-43.9453125,0.0,-1.0,1.0,0.0,1.m4v,2.0
2024-02-27 10:15:56.202553,1709025356.202553,-45.8984375,-1000.0,-29.78515625,-54.19921875,0.0,-1.0,1.0,0.0,1.m4v,2.0
2024-02-27 10:15:56.206458,1709025356.2064576,-46.875,-1000.0,-26.85546875,-51.7578125,0.0,-1.0,1.0,0.0,1.m4v,2.0
2024-02-27 10:15:56.210362,1709025356.2103624,-67.3828125,-933.10546875,-40.0390625,-45.8984375,0.0,-1.0,1.0,0.0,1.m4v,2.0
2024-02-27 10:15:56.214267,1709025356.214267,-68.84765625,-1000.0,-41.50390625,-45.8984375,0.0,-1.0,1.0,0.0,1.m4v,2.0
2024-02-27 10:15:56.218172,1709025356.2181716,-53.7109375,-510.7421875,-36.1328125,-40.0390625,0.0,-1.0,1.0,0.0,1.m4v,2.0
2024-02-27 10:15:56.222076,1709025356.2220764,-57.12890625,881.8359375,-46.875,-33.203125,0.0,-1.0,1.0,0.0,1.m4v,2.0
2024-02-27 10:15:56.225981,1709025356.225981,-56.640625,999.51171875,-56.640625,-36.62109375,0.0,-1.0,1.0,0.0,1.m4v,2.0
2024-02-27 10:15:56.229886,1709025356.2298856,-46.875,918.9453125,-51.7578125,-39.0625,0.0,-1.0,1.0,0.0,1.m4v,2.0
2024-02-27 10:15:56.233790,1709025356.2337902,-47.8515625,983.88671875,-47.36328125,-34.66796875,0.0,-1.0,1.0,0.0,1.m4v,2.0
2024-02-27 10:15:56.237695,1709025356.237695,-43.45703125,969.7265625,-49.31640625,-38.0859375,0.0,-1.0,1.0,0.0,1.m4v,2.0
2024-02-27 10:15:56.241600,1709025356.2415996,-27.34375,969.7265625,-49.31640625,-49.8046875,0.0,-1.0,1.0,0.0,1.m4v,2.0
2024-02-27 10:15:56.245520,1709025356.2455204,-24.4140625,969.7265625,-56.15234375,-54.6875,0.0,-1.0,1.0,0.0,1.m4v,2.0
2024-02-27 10:15:56.249425,1709025356.2494252,-37.109375,969.7265625,-62.5,-60.546875,0.0,-1.0,1.0,0.0,1.m4v,2.0
2024-02-27 10:15:56.253330,1709025356.2533298,-50.29296875,969.7265625,-62.5,-54.19921875,0.0,-1.0,1.0,0.0,1.m4v,2.0
2024-02-27 10:15:56.257234,1709025356.2572343,-35.15625,969.7265625,-63.96484375,-42.48046875,0.0,-1.0,1.0,0.0,1.m4v,2.0
2024-02-27 10:15:56.261139,1709025356.261139,-10.25390625,986.81640625,-62.98828125,-40.0390625,0.0,-1.0,1.0,0.0,1.m4v,2.0
2024-02-27 10:15:56.265044,1709025356.2650435,-29.78515625,907.2265625,-55.17578125,-38.57421875,0.0,-1.0,1.0,0.0,1.m4v,2.0
2024-02-27 10:15:56.268948,1709025356.2689483,-43.9453125,999.51171875,-49.31640625,-34.66796875,0.0,-1.0,1.0,0.0,1.m4v,2.0
2024-02-27 10:15:56.272853,1709025356.272853,-39.55078125,797.36328125,-52.24609375,-17.578125,0.0,-1.0,1.0,0.0,1.m4v,2.0
2024-02-27 10:15:56.276758,1709025356.2767577,-42.48046875,-668.45703125,-62.98828125,-29.296875,0.0,-1.0,1.0,0.0,1.m4v,2.0
2024-02-27 10:15:56.280662,1709025356.2806623,-24.90234375,-1000.0,-75.68359375,-38.57421875,0.0,-1.0,1.0,0.0,1.m4v,2.0
2024-02-27 10:15:56.284567,1709025356.2845669,-19.53125,-928.7109375,-74.70703125,-40.0390625,0.0,-1.0,1.0,0.0,1.m4v,2.0
2024-02-27 10:15:56.288472,1709025356.2884717,-21.484375,-1000.0,-64.453125,-49.8046875,0.0,-1.0,1.0,0.0,1.m4v,2.0
2024-02-27 10:15:56.292398,1709025356.2923975,-18.5546875,-1000.0,-60.546875,-38.0859375,0.0,-1.0,1.0,0.0,1.m4v,2.0
2024-02-27 10:15:56.296303,1709025356.2963026,-34.1796875,-1000.0,-68.359375,-33.203125,0.0,-1.0,1.0,0.0,1.m4v,2.0
2024-02-27 10:15:56.300207,1709025356.3002071,-40.52734375,-1000.0,-67.87109375,-39.55078125,0.0,-1.0,1.0,0.0,1.m4v,2.0
2024-02-27 10:15:56.304112,1709025356.3041117,-26.3671875,-938.4765625,-58.59375,-41.50390625,0.0,-1.0,1.0,0.0,1.m4v,2.0
2024-02-27 10:15:56.308017,1709025356.3080163,-35.64453125,-1000.0,-62.98828125,-42.96875,0.0,-1.0,1.0,0.0,1.m4v,2.0
2024-02-27 10:15:56.311921,1709025356.3119211,-40.0390625,-391.11328125,-64.94140625,-39.0625,0.0,-1.0,1.0,0.0,1.m4v,2.0
2024-02-27 10:15:56.315826,1709025356.3158257,-22.4609375,934.5703125,-55.6640625,-27.34375,0.0,-1.0,1.0,0.0,1.m4v,2.0
2024-02-27 10:15:56.319731,1709025356.3197303,-24.90234375,990.72265625,-47.8515625,-37.59765625,0.0,-1.0,1.0,0.0,1.m4v,2.0
2024-02-27 10:15:56.323635,1709025356.323635,-33.69140625,927.734375,-42.96875,-43.9453125,0.0,-1.0,1.0,0.0,1.m4v,2.0
2024-02-27 10:15:56.327540,1709025356.3275397,-47.8515625,981.93359375,-43.45703125,-38.57421875,0.0,-1.0,1.0,0.0,1.m4v,2.0
2024-02-27 10:15:56.331445,1709025356.3314445,-48.828125,969.7265625,-49.8046875,-43.45703125,0.0,-1.0,1.0,0.0,1.m4v,2.0
2024-02-27 10:15:56.335349,1709025356.335349,-36.62109375,969.7265625,-56.640625,-35.15625,0.0,-1.0,1.0,0.0,1.m4v,2.0
2024-02-27 10:15:56.339274,1709025356.3392744,-28.3203125,969.7265625,-57.6171875,-12.20703125,0.0,-1.0,1.0,0.0,1.m4v,2.0
2024-02-27 10:15:56.343179,1709025356.3431792,-31.73828125,969.7265625,-50.78125,-29.296875,0.0,-1.0,1.0,0.0,1.m4v,2.0
2024-02-27 10:15:56.347084,1709025356.3470838,-41.015625,969.7265625,-44.921875,-59.08203125,0.0,-1.0,1.0,0.0,1.m4v,2.0
2024-02-27 10:15:56.350988,1709025356.3509884,-36.62109375,982.91015625,-45.8984375,-57.6171875,0.0,-1.0,1.0,0.0,1.m4v,2.0
2024-02-27 10:15:56.354893,1709025356.3548932,-14.6484375,923.33984375,-44.921875,-43.9453125,0.0,-1.0,1.0,0.0,1.m4v,2.0
2024-02-27 10:15:56.358798,1709025356.3587978,-8.30078125,996.09375,-41.015625,-33.203125,0.0,-1.0,1.0,0.0,1.m4v,2.0
2024-02-27 10:15:56.362702,1709025356.3627024,-20.01953125,937.5,-41.015625,-39.0625,0.0,-1.0,1.0,0.0,1.m4v,2.0
2024-02-27 10:15:56.366607,1709025356.3666072,-16.11328125,-458.984375,-40.52734375,-46.38671875,0.0,-1.0,1.0,0.0,1.m4v,2.0
2024-02-27 10:15:56.370512,1709025356.3705118,-16.6015625,-1000.0,-43.45703125,-43.45703125,0.0,-1.0,1.0,0.0,1.m4v,2.0
2024-02-27 10:15:56.374416,1709025356.3744164,-22.94921875,-927.734375,-36.62109375,-43.45703125,0.0,-1.0,1.0,0.0,1.m4v,2.0
2024-02-27 10:15:56.378321,1709025356.3783212,-23.4375,-1000.0,-29.296875,-39.0625,0.0,-1.0,1.0,0.0,1.m4v,2.0
2024-02-27 10:15:56.382226,1709025356.3822258,-15.13671875,-1000.0,-40.52734375,-40.52734375,0.0,-1.0,1.0,0.0,1.m4v,2.0
2024-02-27 10:15:56.386151,1709025356.3861513,-10.7421875,-1000.0,-49.31640625,-38.57421875,0.0,-1.0,1.0,0.0,1.m4v,2.0
2024-02-27 10:15:56.390056,1709025356.390056,-19.53125,-1000.0,-43.45703125,-36.62109375,0.0,-1.0,1.0,0.0,1.m4v,2.0
2024-02-27 10:15:56.393961,1709025356.3939607,-36.62109375,-1000.0,-45.41015625,-33.69140625,0.0,-1.0,1.0,0.0,1.m4v,2.0
2024-02-27 10:15:56.397865,1709025356.3978653,-29.78515625,-930.17578125,-33.203125,-9.765625,0.0,-1.0,1.0,0.0,1.m4v,2.0
2024-02-27 10:15:56.401770,1709025356.40177,-15.625,-1000.0,-27.83203125,-23.92578125,0.0,-1.0,1.0,0.0,1.m4v,2.0
2024-02-27 10:15:56.405675,1709025356.4056747,-45.41015625,-665.52734375,-43.45703125,-59.5703125,0.0,-1.0,1.0,0.0,1.m4v,2.0
2024-02-27 10:15:56.409579,1709025356.4095793,-54.6875,792.96875,-55.6640625,-60.546875,0.0,-1.0,1.0,0.0,1.m4v,2.0
2024-02-27 10:15:56.413484,1709025356.413484,-38.57421875,999.51171875,-55.6640625,-54.19921875,0.0,-1.0,1.0,0.0,1.m4v,2.0
2024-02-27 10:15:56.417389,1709025356.417389,-30.2734375,907.2265625,-44.921875,-46.38671875,0.0,-1.0,1.0,0.0,1.m4v,2.0
2024-02-27 10:15:56.421293,1709025356.4212933,-21.484375,986.328125,-38.57421875,-44.43359375,0.0,-1.0,1.0,0.0,1.m4v,2.0
2024-02-27 10:15:56.425198,1709025356.425198,-13.671875,969.7265625,-41.015625,-41.50390625,0.0,-1.0,1.0,0.0,1.m4v,2.0
2024-02-27 10:15:56.429103,1709025356.429103,-16.6015625,969.7265625,-47.36328125,-41.50390625,0.0,-1.0,1.0,0.0,1.m4v,2.0
2024-02-27 10:15:56.433027,1709025356.4330266,-53.22265625,969.7265625,-50.29296875,-49.31640625,0.0,-1.0,1.0,0.0,1.m4v,2.0
2024-02-27 10:15:56.436931,1709025356.4369311,-64.94140625,969.7265625,-46.875,-41.9921875,0.0,-1.0,1.0,0.0,1.m4v,2.0
2024-02-27 10:15:56.440836,1709025356.4408357,-50.78125,969.7265625,-44.921875,-36.62109375,0.0,-1.0,1.0,0.0,1.m4v,2.0
2024-02-27 10:15:56.444741,1709025356.4447403,-51.26953125,970.21484375,-42.96875,-31.73828125,0.0,-1.0,1.0,0.0,1.m4v,2.0
2024-02-27 10:15:56.448645,1709025356.448645,-60.05859375,983.3984375,-46.875,-25.87890625,0.0,-1.0,1.0,0.0,1.m4v,2.0
2024-02-27 10:15:56.452550,1709025356.4525497,-60.546875,901.3671875,-38.57421875,-26.85546875,0.0,-1.0,1.0,0.0,1.m4v,2.0
2024-02-27 10:15:56.456455,1709025356.4564545,-49.31640625,999.51171875,-33.69140625,-35.15625,0.0,-1.0,1.0,0.0,1.m4v,2.0
2024-02-27 10:15:56.460359,1709025356.460359,-47.36328125,583.49609375,-41.50390625,-53.22265625,0.0,-1.0,1.0,0.0,1.m4v,2.0
2024-02-27 10:15:56.464264,1709025356.4642637,-54.19921875,-847.65625,-41.9921875,-54.6875,0.0,-1.0,1.0,0.0,1.m4v,2.0
2024-02-27 10:15:56.468168,1709025356.4681685,-29.78515625,-1000.0,-44.921875,-50.78125,0.0,-1.0,1.0,0.0,1.m4v,2.0
2024-02-27 10:15:56.472073,1709025356.472073,-23.92578125,-941.89453125,-49.8046875,-50.29296875,0.0,-1.0,1.0,0.0,1.m4v,2.0
2024-02-27 10:15:56.475978,1709025356.4759777,-59.5703125,-1000.0,-63.4765625,-38.57421875,0.0,-1.0,1.0,0.0,1.m4v,2.0
2024-02-27 10:15:56.479901,1709025356.4799008,-60.546875,-1000.0,-65.4296875,-33.203125,0.0,-1.0,1.0,0.0,1.m4v,2.0
2024-02-27 10:15:56.483805,1709025356.4838054,-55.6640625,-1000.0,-57.12890625,-33.203125,0.0,-1.0,1.0,0.0,1.m4v,2.0
2024-02-27 10:15:56.487710,1709025356.4877102,-58.10546875,-969.23828125,-62.98828125,-42.96875,0.0,-1.0,1.0,0.0,1.m4v,2.0
2024-02-27 10:15:56.491615,1709025356.4916148,-48.828125,-993.1640625,-70.3125,-47.8515625,0.0,-1.0,1.0,0.0,1.m4v,2.0
2024-02-27 10:15:56.495519,1709025356.4955194,-45.41015625,-1000.0,-64.453125,-29.78515625,0.0,-1.0,1.0,0.0,1.m4v,2.0
2024-02-27 10:15:56.499424,1709025356.4994242,-44.43359375,225.09765625,-53.7109375,-20.5078125,0.0,-1.0,1.0,0.0,1.m4v,2.0
2024-02-27 10:15:56.503329,1709025356.5033288,-36.62109375,999.51171875,-49.8046875,-35.64453125,0.0,-1.0,1.0,0.0,1.m4v,2.0
2024-02-27 10:15:56.507233,1709025356.5072334,-39.55078125,908.203125,-49.8046875,-42.96875,0.0,-1.0,1.0,0.0,1.m4v,2.0
2024-02-27 10:15:56.511138,1709025356.5111382,-49.31640625,971.6796875,-38.57421875,-32.71484375,0.0,-1.0,1.0,0.0,1.m4v,2.0
2024-02-27 10:15:56.515043,1709025356.5150428,-59.5703125,970.703125,-35.15625,-32.71484375,0.0,-1.0,1.0,0.0,1.m4v,2.0
2024-02-27 10:15:56.518947,1709025356.5189474,-58.59375,969.7265625,-41.015625,-41.015625,0.0,-1.0,1.0,0.0,1.m4v,2.0
2024-02-27 10:15:56.522852,1709025356.5228522,-45.8984375,969.7265625,-41.015625,-40.52734375,0.0,-1.0,1.0,0.0,1.m4v,2.0
2024-02-27 10:15:56.526774,1709025356.5267742,-44.921875,969.7265625,-31.73828125,-44.921875,0.0,-1.0,1.0,0.0,1.m4v,2.0
2024-02-27 10:15:56.530679,1709025356.5306787,-60.546875,969.7265625,-32.71484375,-40.52734375,0.0,-1.0,1.0,0.0,1.m4v,2.0
2024-02-27 10:15:56.534583,1709025356.534583,-59.08203125,969.7265625,-38.0859375,-33.69140625,0.0,-1.0,1.0,0.0,1.m4v,2.0
2024-02-27 10:15:56.538488,1709025356.538488,-47.36328125,970.21484375,-28.3203125,-22.94921875,0.0,-1.0,1.0,0.0,1.m4v,2.0
2024-02-27 10:15:56.542393,1709025356.5423927,-42.96875,986.328125,-27.34375,-14.6484375,0.0,-1.0,1.0,0.0,1.m4v,2.0
2024-02-27 10:15:56.546297,1709025356.5462973,-46.875,906.73828125,-36.1328125,-34.1796875,0.0,-1.0,1.0,0.0,1.m4v,2.0
2024-02-27 10:15:56.550202,1709025356.550202,-55.17578125,999.51171875,-47.36328125,-40.52734375,0.0,-1.0,1.0,0.0,1.m4v,2.0
2024-02-27 10:15:56.554107,1709025356.5541067,-54.19921875,781.73828125,-45.41015625,-29.78515625,0.0,-1.0,1.0,0.0,1.m4v,2.0
2024-02-27 10:15:56.558011,1709025356.5580113,-53.22265625,-681.640625,-33.203125,-49.8046875,0.0,-1.0,1.0,0.0,1.m4v,2.0
2024-02-27 10:15:56.561916,1709025356.561916,-51.26953125,-1000.0,-28.80859375,-59.08203125,0.0,-1.0,1.0,0.0,1.m4v,2.0
2024-02-27 10:15:56.565821,1709025356.5658207,-34.66796875,-929.6875,-31.73828125,-48.33984375,0.0,-1.0,1.0,0.0,1.m4v,2.0
2024-02-27 10:15:56.569725,1709025356.5697253,-37.109375,-1000.0,-39.55078125,-35.15625,0.0,-1.0,1.0,0.0,1.m4v,2.0
2024-02-27 10:15:56.573648,1709025356.5736475,-30.2734375,-1000.0,-51.26953125,-22.94921875,0.0,-1.0,1.0,0.0,1.m4v,2.0
2024-02-27 10:15:56.577552,1709025356.5775523,-23.4375,-1000.0,-51.7578125,-34.66796875,0.0,-1.0,1.0,0.0,1.m4v,2.0
2024-02-27 10:15:56.581457,1709025356.5814571,-48.33984375,-961.42578125,-45.41015625,-54.6875,0.0,-1.0,1.0,0.0,1.m4v,2.0
2024-02-27 10:15:56.585362,1709025356.5853617,-53.7109375,-1000.0,-51.7578125,-52.734375,0.0,-1.0,1.0,0.0,1.m4v,2.0
2024-02-27 10:15:56.589266,1709025356.5892663,-41.9921875,-1000.0,-60.05859375,-33.69140625,0.0,-1.0,1.0,0.0,1.m4v,2.0
2024-02-27 10:15:56.593171,1709025356.5931711,-38.0859375,334.9609375,-62.5,-31.25,0.0,-1.0,1.0,0.0,1.m4v,2.0
2024-02-27 10:15:56.597076,1709025356.5970757,-41.50390625,999.51171875,-68.84765625,-27.83203125,0.0,-1.0,1.0,0.0,1.m4v,2.0
2024-02-27 10:15:56.600980,1709025356.6009803,-32.2265625,899.90234375,-72.75390625,-4.8828125,0.0,-1.0,1.0,0.0,1.m4v,2.0
2024-02-27 10:15:56.604885,1709025356.604885,-15.13671875,977.5390625,-62.01171875,-4.39453125,0.0,-1.0,1.0,0.0,1.m4v,2.0
2024-02-27 10:15:56.608790,1709025356.6087897,-15.13671875,969.7265625,-53.22265625,-38.0859375,0.0,-1.0,1.0,0.0,1.m4v,2.0
2024-02-27 10:15:56.612694,1709025356.6126945,-29.296875,969.7265625,-54.19921875,-44.43359375,0.0,-1.0,1.0,0.0,1.m4v,2.0
2024-02-27 10:15:56.616599,1709025356.616599,-28.3203125,969.7265625,-50.78125,-40.0390625,0.0,-1.0,1.0,0.0,1.m4v,2.0
2024-02-27 10:15:56.620520,1709025356.62052,-25.390625,969.7265625,-55.17578125,-37.59765625,0.0,-1.0,1.0,0.0,1.m4v,2.0
2024-02-27 10:15:56.624424,1709025356.6244245,-21.484375,969.7265625,-59.5703125,-33.69140625,0.0,-1.0,1.0,0.0,1.m4v,2.0
2024-02-27 10:15:56.628329,1709025356.6283293,-23.4375,969.7265625,-59.5703125,-38.57421875,0.0,-1.0,1.0,0.0,1.m4v,2.0
2024-02-27 10:15:56.632234,1709025356.632234,-18.06640625,971.6796875,-62.5,-37.109375,0.0,-1.0,1.0,0.0,1.m4v,2.0
2024-02-27 10:15:56.636138,1709025356.6361384,-6.8359375,973.14453125,-59.5703125,-23.92578125,0.0,-1.0,1.0,0.0,1.m4v,2.0
2024-02-27 10:15:56.640043,1709025356.6400433,-25.390625,910.64453125,-52.734375,-15.625,0.0,-1.0,1.0,0.0,1.m4v,2.0
2024-02-27 10:15:56.643948,1709025356.6439478,-28.80859375,999.51171875,-64.453125,-40.0390625,0.0,-1.0,1.0,0.0,1.m4v,2.0
2024-02-27 10:15:56.647852,1709025356.6478524,-22.4609375,314.453125,-72.265625,-54.19921875,0.0,-1.0,1.0,0.0,1.m4v,2.0
2024-02-27 10:15:56.651757,1709025356.6517572,-29.296875,-982.91015625,-62.5,-54.6875,0.0,-1.0,1.0,0.0,1.m4v,2.0
2024-02-27 10:15:56.655662,1709025356.6556618,-23.4375,-1000.0,-60.546875,-50.29296875,0.0,-1.0,1.0,0.0,1.m4v,2.0
2024-02-27 10:15:56.659566,1709025356.6595664,-9.765625,-961.42578125,-74.21875,-41.50390625,0.0,-1.0,1.0,0.0,1.m4v,2.0
2024-02-27 10:15:56.663471,1709025356.6634712,-1.46484375,-1000.0,-86.9140625,-41.9921875,0.0,-1.0,1.0,0.0,1.m4v,2.0
2024-02-27 10:15:56.667397,1709025356.6673973,-3.90625,-1000.0,-74.70703125,-36.1328125,0.0,-1.0,1.0,0.0,1.m4v,2.0
2024-02-27 10:15:56.671302,1709025356.671302,-11.71875,-1000.0,-59.08203125,-45.41015625,0.0,-1.0,1.0,0.0,1.m4v,2.0
2024-02-27 10:15:56.675207,1709025356.675207,-8.30078125,-998.046875,-58.10546875,-46.875,0.0,-1.0,1.0,0.0,1.m4v,2.0
2024-02-27 10:15:56.679111,1709025356.6791112,0.9765625,-947.265625,-61.03515625,-40.0390625,0.0,-1.0,1.0,0.0,1.m4v,2.0
2024-02-27 10:15:56.683016,1709025356.683016,12.20703125,-1000.0,-64.453125,-38.0859375,0.0,-1.0,1.0,0.0,1.m4v,2.0
2024-02-27 10:15:56.686921,1709025356.6869206,16.11328125,-234.86328125,-65.4296875,-35.15625,0.0,-1.0,1.0,0.0,1.m4v,2.0
2024-02-27 10:15:56.690825,1709025356.6908252,6.34765625,995.1171875,-68.359375,-33.203125,0.0,-1.0,1.0,0.0,1.m4v,2.0
2024-02-27 10:15:56.694730,1709025356.69473,-18.5546875,965.8203125,-70.3125,-25.87890625,0.0,-1.0,1.0,0.0,1.m4v,2.0
2024-02-27 10:15:56.698635,1709025356.6986346,-23.92578125,939.94140625,-63.96484375,-16.11328125,0.0,-1.0,1.0,0.0,1.m4v,2.0
2024-02-27 10:15:56.702539,1709025356.7025392,-18.06640625,978.515625,-62.01171875,-32.71484375,0.0,-1.0,1.0,0.0,1.m4v,2.0
2024-02-27 10:15:56.706444,1709025356.706444,-17.578125,969.7265625,-61.03515625,-41.9921875,0.0,-1.0,1.0,0.0,1.m4v,2.0
2024-02-27 10:15:56.710349,1709025356.7103486,-11.71875,969.7265625,-66.40625,-34.1796875,0.0,-1.0,1.0,0.0,1.m4v,2.0
2024-02-27 10:15:56.714274,1709025356.7142742,-18.06640625,969.7265625,-71.77734375,-43.9453125,0.0,-1.0,1.0,0.0,1.m4v,2.0
2024-02-27 10:15:56.718179,1709025356.7181787,-22.94921875,970.21484375,-64.94140625,-43.9453125,0.0,-1.0,1.0,0.0,1.m4v,2.0
2024-02-27 10:15:56.722084,1709025356.7220836,-16.6015625,969.7265625,-59.08203125,-37.59765625,0.0,-1.0,1.0,0.0,1.m4v,2.0
2024-02-27 10:15:56.725988,1709025356.725988,-21.484375,969.7265625,-65.91796875,-41.015625,0.0,-1.0,1.0,0.0,1.m4v,2.0
2024-02-27 10:15:56.729893,1709025356.7298927,-27.83203125,969.7265625,-60.05859375,-42.48046875,0.0,-1.0,1.0,0.0,1.m4v,2.0
2024-02-27 10:15:56.733798,1709025356.7337976,-46.38671875,986.328125,-48.828125,-45.41015625,0.0,-1.0,1.0,0.0,1.m4v,2.0
2024-02-27 10:15:56.737702,1709025356.737702,-56.640625,909.66796875,-50.29296875,-41.50390625,0.0,-1.0,1.0,0.0,1.m4v,2.0
2024-02-27 10:15:56.741607,1709025356.7416067,-50.29296875,999.51171875,-49.8046875,-45.8984375,0.0,-1.0,1.0,0.0,1.m4v,2.0
2024-02-27 10:15:56.745512,1709025356.7455115,-47.8515625,836.42578125,-58.59375,-56.15234375,0.0,-1.0,1.0,0.0,1.m4v,2.0
2024-02-27 10:15:56.749416,1709025356.749416,-71.2890625,-625.9765625,-62.5,-54.19921875,0.0,-1.0,1.0,0.0,1.m4v,2.0
2024-02-27 10:15:56.753321,1709025356.7533207,-83.0078125,-1000.0,-58.10546875,-53.7109375,0.0,-1.0,1.0,0.0,1.m4v,2.0
2024-02-27 10:15:56.757226,1709025356.7572255,-74.70703125,-926.7578125,-51.26953125,-43.45703125,0.0,-1.0,1.0,0.0,1.m4v,2.0
2024-02-27 10:15:56.761150,1709025356.76115,-75.68359375,-1000.0,-43.9453125,-41.9921875,0.0,-1.0,1.0,0.0,1.m4v,2.0
2024-02-27 10:15:56.765055,1709025356.7650547,-78.125,-1000.0,-41.50390625,-50.29296875,0.0,-1.0,1.0,0.0,1.m4v,2.0
2024-02-27 10:15:56.768960,1709025356.7689595,-60.05859375,-1000.0,-43.9453125,-36.62109375,0.0,-1.0,1.0,0.0,1.m4v,2.0
2024-02-27 10:15:56.772864,1709025356.772864,-59.08203125,-934.5703125,-44.921875,-23.4375,0.0,-1.0,1.0,0.0,1.m4v,2.0
2024-02-27 10:15:56.776769,1709025356.7767687,-68.359375,-1000.0,-38.57421875,-33.203125,0.0,-1.0,1.0,0.0,1.m4v,2.0
2024-02-27 10:15:56.780674,1709025356.7806735,-72.265625,-676.26953125,-37.109375,-42.48046875,0.0,-1.0,1.0,0.0,1.m4v,2.0
2024-02-27 10:15:57.229901,1709025357.2299008,-53.7109375,-776.3671875,-35.64453125,-30.76171875,0.0,-1.0,1.0,0.0,1.m4v,2.0
2024-02-27 10:15:57.233805,1709025357.2338054,-44.43359375,698.2421875,-41.50390625,-45.8984375,0.0,-1.0,1.0,0.0,1.m4v,2.0
2024-02-27 10:15:57.237710,1709025357.2377102,-37.59765625,999.51171875,-46.875,-34.1796875,0.0,-1.0,1.0,0.0,1.m4v,2.0
2024-02-27 10:15:57.241615,1709025357.2416148,-39.0625,900.390625,-51.26953125,-36.1328125,0.0,-1.0,1.0,0.0,1.m4v,2.0
2024-02-27 10:15:57.245520,1709025357.2455196,-36.62109375,986.81640625,-45.41015625,-51.26953125,0.0,-1.0,1.0,0.0,1.m4v,2.0
2024-02-27 10:15:57.249424,1709025357.2494242,-27.34375,969.7265625,-39.0625,-52.24609375,0.0,-1.0,1.0,0.0,1.m4v,2.0
2024-02-27 10:15:57.253329,1709025357.2533288,-34.66796875,969.7265625,-45.8984375,-42.48046875,0.0,-1.0,1.0,0.0,1.m4v,2.0
2024-02-27 10:15:57.257234,1709025357.2572336,-42.48046875,969.7265625,-52.24609375,-31.73828125,0.0,-1.0,1.0,0.0,1.m4v,2.0
2024-02-27 10:15:57.261138,1709025357.2611382,-36.62109375,986.328125,-44.43359375,-24.90234375,0.0,-1.0,1.0,0.0,1.m4v,2.0
2024-02-27 10:15:57.265043,1709025357.2650428,-29.78515625,910.15625,-26.85546875,-30.2734375,0.0,-1.0,1.0,0.0,1.m4v,2.0
2024-02-27 10:15:57.268948,1709025357.2689476,-45.41015625,999.51171875,-21.97265625,-40.0390625,0.0,-1.0,1.0,0.0,1.m4v,2.0
2024-02-27 10:15:57.272852,1709025357.2728522,-63.96484375,838.37890625,-18.06640625,-34.1796875,0.0,-1.0,1.0,0.0,1.m4v,2.0
2024-02-27 10:15:57.276775,1709025357.276775,-58.59375,-623.046875,-19.04296875,-37.109375,0.0,-1.0,1.0,0.0,1.m4v,2.0
2024-02-27 10:15:57.280679,1709025357.2806797,-55.17578125,-1000.0,-22.94921875,-50.29296875,0.0,-1.0,1.0,0.0,1.m4v,2.0
2024-02-27 10:15:57.284584,1709025357.284584,-60.546875,-943.359375,-23.4375,-46.38671875,0.0,-1.0,1.0,0.0,1.m4v,2.0
2024-02-27 10:15:57.288489,1709025357.2884889,-61.03515625,-956.0546875,-31.25,-36.1328125,0.0,-1.0,1.0,0.0,1.m4v,2.0
2024-02-27 10:15:57.292393,1709025357.2923934,-58.59375,-1000.0,-33.203125,-33.69140625,0.0,-1.0,1.0,0.0,1.m4v,2.0
2024-02-27 10:15:57.296298,1709025357.296298,-58.10546875,-856.4453125,-28.3203125,-25.87890625,0.0,-1.0,1.0,0.0,1.m4v,2.0
2024-02-27 10:15:57.300203,1709025357.3002028,-57.12890625,606.93359375,-32.71484375,-22.4609375,0.0,-1.0,1.0,0.0,1.m4v,2.0
2024-02-27 10:15:57.304107,1709025357.3041074,-64.94140625,999.51171875,-41.9921875,-45.41015625,0.0,-1.0,1.0,0.0,1.m4v,2.0
2024-02-27 10:15:57.308012,1709025357.308012,-61.5234375,896.484375,-36.1328125,-40.0390625,0.0,-1.0,1.0,0.0,1.m4v,2.0
2024-02-27 10:15:57.311917,1709025357.3119168,-60.546875,986.328125,-30.76171875,-42.48046875,0.0,-1.0,1.0,0.0,1.m4v,2.0
2024-02-27 10:15:57.315821,1709025357.3158214,-64.453125,969.7265625,-28.80859375,-58.59375,0.0,-1.0,1.0,0.0,1.m4v,2.0
2024-02-27 10:15:57.319726,1709025357.3197262,-68.84765625,969.7265625,-28.3203125,-48.33984375,0.0,-1.0,1.0,0.0,1.m4v,2.0
2024-02-27 10:15:57.323648,1709025357.3236475,-68.359375,969.7265625,-36.62109375,-38.57421875,0.0,-1.0,1.0,0.0,1.m4v,2.0
2024-02-27 10:15:57.327552,1709025357.3275523,-46.38671875,969.7265625,-38.0859375,-37.109375,0.0,-1.0,1.0,0.0,1.m4v,2.0
2024-02-27 10:15:57.331457,1709025357.3314571,-48.828125,969.7265625,-33.69140625,-41.9921875,0.0,-1.0,1.0,0.0,1.m4v,2.0
2024-02-27 10:15:57.335362,1709025357.3353617,-61.5234375,969.7265625,-36.1328125,-35.64453125,0.0,-1.0,1.0,0.0,1.m4v,2.0
2024-02-27 10:15:57.339266,1709025357.3392663,-42.96875,977.5390625,-35.15625,-40.0390625,0.0,-1.0,1.0,0.0,1.m4v,2.0
2024-02-27 10:15:57.343171,1709025357.3431711,-35.15625,940.91796875,-31.73828125,-41.015625,0.0,-1.0,1.0,0.0,1.m4v,2.0
2024-02-27 10:15:57.347076,1709025357.3470757,-56.15234375,959.47265625,-37.59765625,-39.0625,0.0,-1.0,1.0,0.0,1.m4v,2.0
2024-02-27 10:15:57.350980,1709025357.3509803,-63.96484375,999.51171875,-42.48046875,-50.29296875,0.0,-1.0,1.0,0.0,1.m4v,2.0
2024-02-27 10:15:57.354885,1709025357.354885,-63.4765625,-226.5625,-51.7578125,-45.41015625,0.0,-1.0,1.0,0.0,1.m4v,2.0
2024-02-27 10:15:57.358790,1709025357.3587897,-67.87109375,-1000.0,-51.26953125,-36.62109375,0.0,-1.0,1.0,0.0,1.m4v,2.0
2024-02-27 10:15:57.362694,1709025357.3626945,-56.640625,-941.89453125,-41.50390625,-38.57421875,0.0,-1.0,1.0,0.0,1.m4v,2.0
2024-02-27 10:15:57.366599,1709025357.366599,-41.015625,-1000.0,-50.78125,-34.66796875,0.0,-1.0,1.0,0.0,1.m4v,2.0
2024-02-27 10:15:57.370520,1709025357.37052,-32.2265625,-1000.0,-61.5234375,-19.53125,0.0,-1.0,1.0,0.0,1.m4v,2.0
2024-02-27 10:15:57.374424,1709025357.3744245,-34.66796875,-1000.0,-49.8046875,-30.2734375,0.0,-1.0,1.0,0.0,1.m4v,2.0
2024-02-27 10:15:57.378329,1709025357.3783293,-19.53125,-1000.0,-40.0390625,-39.55078125,0.0,-1.0,1.0,0.0,1.m4v,2.0
2024-02-27 10:15:57.382234,1709025357.382234,-17.578125,-997.55859375,-48.33984375,-30.76171875,0.0,-1.0,1.0,0.0,1.m4v,2.0
2024-02-27 10:15:57.386139,1709025357.386139,-2.9296875,-950.1953125,-52.24609375,-27.83203125,0.0,-1.0,1.0,0.0,1.m4v,2.0
2024-02-27 10:15:57.390043,1709025357.3900433,2.9296875,-1000.0,-43.45703125,-42.48046875,0.0,-1.0,1.0,0.0,1.m4v,2.0
2024-02-27 10:15:57.393948,1709025357.3939478,-25.390625,-251.953125,-40.0390625,-48.828125,0.0,-1.0,1.0,0.0,1.m4v,2.0
2024-02-27 10:15:57.397853,1709025357.397853,-22.4609375,974.609375,-49.31640625,-39.55078125,0.0,-1.0,1.0,0.0,1.m4v,2.0
2024-02-27 10:15:57.401757,1709025357.4017572,-11.23046875,971.6796875,-49.8046875,-40.0390625,0.0,-1.0,1.0,0.0,1.m4v,2.0
2024-02-27 10:15:57.405662,1709025357.4056618,-23.92578125,937.5,-50.29296875,-48.828125,0.0,-1.0,1.0,0.0,1.m4v,2.0
2024-02-27 10:15:57.409567,1709025357.4095666,-43.9453125,979.00390625,-45.8984375,-42.96875,0.0,-1.0,1.0,0.0,1.m4v,2.0
2024-02-27 10:15:57.413471,1709025357.4134712,-49.8046875,969.7265625,-46.875,-29.296875,0.0,-1.0,1.0,0.0,1.m4v,2.0
2024-02-27 10:15:57.417392,1709025357.417392,-52.24609375,969.7265625,-58.59375,-41.9921875,0.0,-1.0,1.0,0.0,1.m4v,2.0
2024-02-27 10:15:57.421297,1709025357.4212968,-46.875,969.7265625,-57.12890625,-49.31640625,0.0,-1.0,1.0,0.0,1.m4v,2.0
2024-02-27 10:15:57.425201,1709025357.4252014,-45.8984375,969.7265625,-57.12890625,-44.921875,0.0,-1.0,1.0,0.0,1.m4v,2.0
2024-02-27 10:15:57.429106,1709025357.429106,-54.19921875,973.14453125,-51.26953125,-36.62109375,0.0,-1.0,1.0,0.0,1.m4v,2.0
2024-02-27 10:15:57.433011,1709025357.4330108,-41.015625,963.8671875,-48.33984375,-30.76171875,0.0,-1.0,1.0,0.0,1.m4v,2.0
2024-02-27 10:15:57.436915,1709025357.4369154,-50.29296875,922.8515625,-48.828125,-34.66796875,0.0,-1.0,1.0,0.0,1.m4v,2.0
2024-02-27 10:15:57.440820,1709025357.44082,-57.12890625,999.51171875,-53.22265625,-31.25,0.0,-1.0,1.0,0.0,1.m4v,2.0
2024-02-27 10:15:57.444725,1709025357.4447248,-53.7109375,139.6484375,-57.6171875,-38.0859375,0.0,-1.0,1.0,0.0,1.m4v,2.0
2024-02-27 10:15:57.448629,1709025357.4486294,-50.78125,-1000.0,-52.734375,-44.43359375,0.0,-1.0,1.0,0.0,1.m4v,2.0
2024-02-27 10:15:57.452534,1709025357.452534,-40.0390625,-987.3046875,-50.78125,-33.203125,0.0,-1.0,1.0,0.0,1.m4v,2.0
2024-02-27 10:15:57.456439,1709025357.4564388,-30.2734375,-976.07421875,-49.31640625,-28.3203125,0.0,-1.0,1.0,0.0,1.m4v,2.0
2024-02-27 10:15:57.460343,1709025357.4603434,-29.78515625,-1000.0,-47.8515625,-15.625,0.0,-1.0,1.0,0.0,1.m4v,2.0
2024-02-27 10:15:57.464269,1709025357.4642687,-31.73828125,-1000.0,-53.7109375,-15.13671875,0.0,-1.0,1.0,0.0,1.m4v,2.0
2024-02-27 10:15:57.468174,1709025357.4681735,-32.2265625,-997.0703125,-46.875,-37.59765625,0.0,-1.0,1.0,0.0,1.m4v,2.0
2024-02-27 10:15:57.472078,1709025357.472078,-35.15625,-863.76953125,-41.50390625,-53.7109375,0.0,-1.0,1.0,0.0,1.m4v,2.0
2024-02-27 10:15:57.475983,1709025357.475983,-41.015625,-935.05859375,-45.41015625,-42.48046875,0.0,-1.0,1.0,0.0,1.m4v,2.0
2024-02-27 10:15:57.479887,1709025357.4798875,-37.109375,-1000.0,-53.7109375,-37.59765625,0.0,-1.0,1.0,0.0,1.m4v,2.0
2024-02-27 10:15:57.483792,1709025357.483792,-26.85546875,57.6171875,-54.6875,-48.33984375,0.0,-1.0,1.0,0.0,1.m4v,2.0
2024-02-27 10:15:57.487697,1709025357.4876966,-38.0859375,999.51171875,-37.59765625,-39.55078125,0.0,-1.0,1.0,0.0,1.m4v,2.0
2024-02-27 10:15:57.491601,1709025357.4916017,-49.8046875,926.7578125,-30.76171875,-41.50390625,0.0,-1.0,1.0,0.0,1.m4v,2.0
2024-02-27 10:15:57.495506,1709025357.495506,-62.01171875,959.9609375,-37.109375,-38.57421875,0.0,-1.0,1.0,0.0,1.m4v,2.0
2024-02-27 10:15:57.499411,1709025357.4994106,-68.84765625,973.14453125,-32.2265625,-39.55078125,0.0,-1.0,1.0,0.0,1.m4v,2.0
2024-02-27 10:15:57.503315,1709025357.5033154,-56.640625,969.7265625,-28.3203125,-51.26953125,0.0,-1.0,1.0,0.0,1.m4v,2.0
2024-02-27 10:15:57.507220,1709025357.50722,-53.7109375,969.7265625,-34.66796875,-49.8046875,0.0,-1.0,1.0,0.0,1.m4v,2.0
2024-02-27 10:15:57.511145,1709025357.5111446,-57.6171875,969.7265625,-26.85546875,-45.8984375,0.0,-1.0,1.0,0.0,1.m4v,2.0
2024-02-27 10:15:57.515049,1709025357.5150492,-57.12890625,969.7265625,-25.390625,-45.41015625,0.0,-1.0,1.0,0.0,1.m4v,2.0
2024-02-27 10:15:57.518954,1709025357.518954,-38.0859375,969.7265625,-32.71484375,-41.50390625,0.0,-1.0,1.0,0.0,1.m4v,2.0
2024-02-27 10:15:57.522859,1709025357.5228586,-30.76171875,969.7265625,-28.3203125,-38.0859375,0.0,-1.0,1.0,0.0,1.m4v,2.0
2024-02-27 10:15:57.526763,1709025357.5267632,-41.50390625,986.328125,-20.01953125,-45.41015625,0.0,-1.0,1.0,0.0,1.m4v,2.0
2024-02-27 10:15:57.530668,1709025357.530668,-41.50390625,908.203125,-22.4609375,-51.26953125,0.0,-1.0,1.0,0.0,1.m4v,2.0
2024-02-27 10:15:57.534573,1709025357.5345726,-42.48046875,999.51171875,-30.2734375,-37.59765625,0.0,-1.0,1.0,0.0,1.m4v,2.0
2024-02-27 10:15:57.538477,1709025357.5384772,-38.0859375,800.78125,-28.80859375,-36.1328125,0.0,-1.0,1.0,0.0,1.m4v,2.0
2024-02-27 10:15:57.542382,1709025357.542382,-26.3671875,-661.62109375,-29.296875,-63.4765625,0.0,-1.0,1.0,0.0,1.m4v,2.0
2024-02-27 10:15:57.546287,1709025357.5462866,-31.73828125,-1000.0,-41.9921875,-61.03515625,0.0,-1.0,1.0,0.0,1.m4v,2.0
2024-02-27 10:15:57.550191,1709025357.5501914,-45.41015625,-928.7109375,-35.15625,-39.55078125,0.0,-1.0,1.0,0.0,1.m4v,2.0
2024-02-27 10:15:57.554096,1709025357.554096,-41.9921875,-1000.0,-21.97265625,-38.57421875,0.0,-1.0,1.0,0.0,1.m4v,2.0
2024-02-27 10:15:57.558020,1709025357.55802,-31.73828125,-1000.0,-27.83203125,-49.31640625,0.0,-1.0,1.0,0.0,1.m4v,2.0
2024-02-27 10:15:57.561924,1709025357.5619245,-34.66796875,-1000.0,-41.015625,-58.59375,0.0,-1.0,1.0,0.0,1.m4v,2.0
2024-02-27 10:15:57.565829,1709025357.5658293,-29.296875,-1000.0,-39.0625,-59.5703125,0.0,-1.0,1.0,0.0,1.m4v,2.0
2024-02-27 10:15:57.569734,1709025357.569734,-21.97265625,-931.15234375,-26.85546875,-47.36328125,0.0,-1.0,1.0,0.0,1.m4v,2.0
2024-02-27 10:15:57.573639,1709025357.573639,-36.1328125,-1000.0,-21.484375,-34.1796875,0.0,-1.0,1.0,0.0,1.m4v,2.0
2024-02-27 10:15:57.577543,1709025357.5775433,-25.390625,-504.8828125,-20.01953125,-30.76171875,0.0,-1.0,1.0,0.0,1.m4v,2.0
2024-02-27 10:15:57.581448,1709025357.5814478,-16.6015625,893.06640625,-20.5078125,-36.1328125,0.0,-1.0,1.0,0.0,1.m4v,2.0
2024-02-27 10:15:57.585353,1709025357.585353,-15.13671875,999.51171875,-28.80859375,-38.57421875,0.0,-1.0,1.0,0.0,1.m4v,2.0
2024-02-27 10:15:57.589257,1709025357.5892572,-10.7421875,919.43359375,-28.80859375,-34.66796875,0.0,-1.0,1.0,0.0,1.m4v,2.0
2024-02-27 10:15:57.593162,1709025357.5931618,-20.99609375,983.88671875,-28.3203125,-40.52734375,0.0,-1.0,1.0,0.0,1.m4v,2.0
2024-02-27 10:15:57.597067,1709025357.5970666,-22.94921875,969.7265625,-35.64453125,-36.1328125,0.0,-1.0,1.0,0.0,1.m4v,2.0
2024-02-27 10:15:57.600971,1709025357.6009712,-31.73828125,986.328125,-36.1328125,-32.71484375,0.0,-1.0,1.0,0.0,1.m4v,2.0
2024-02-27 10:15:57.604894,1709025357.6048944,-29.296875,904.296875,-32.2265625,-43.45703125,0.0,-1.0,1.0,0.0,1.m4v,2.0
2024-02-27 10:15:57.608799,1709025357.608799,-15.13671875,999.51171875,-21.97265625,-46.875,0.0,-1.0,1.0,0.0,1.m4v,2.0
2024-02-27 10:15:57.612704,1709025357.6127038,-21.484375,734.375,-23.4375,-44.921875,0.0,-1.0,1.0,0.0,1.m4v,2.0
2024-02-27 10:15:57.616608,1709025357.6166084,-41.9921875,-728.02734375,-25.390625,-27.83203125,0.0,-1.0,1.0,0.0,1.m4v,2.0
2024-02-27 10:15:57.620513,1709025357.620513,-47.36328125,-1000.0,-21.484375,-24.90234375,0.0,-1.0,1.0,0.0,1.m4v,2.0
2024-02-27 10:15:57.624418,1709025357.6244178,-26.3671875,-932.12890625,-26.85546875,-41.015625,0.0,-1.0,1.0,0.0,1.m4v,2.0
2024-02-27 10:15:57.628322,1709025357.6283224,-32.71484375,-1000.0,-38.0859375,-52.734375,0.0,-1.0,1.0,0.0,1.m4v,2.0
2024-02-27 10:15:57.632227,1709025357.632227,-45.8984375,-1000.0,-39.55078125,-57.12890625,0.0,-1.0,1.0,0.0,1.m4v,2.0
2024-02-27 10:15:57.636132,1709025357.6361318,-38.0859375,-1000.0,-40.0390625,-57.12890625,0.0,-1.0,1.0,0.0,1.m4v,2.0
2024-02-27 10:15:57.640036,1709025357.6400363,-46.875,-1000.0,-47.36328125,-48.33984375,0.0,-1.0,1.0,0.0,1.m4v,2.0
2024-02-27 10:15:57.643941,1709025357.6439412,-48.33984375,-1000.0,-34.1796875,-44.921875,0.0,-1.0,1.0,0.0,1.m4v,2.0
2024-02-27 10:15:57.647846,1709025357.6478455,-36.62109375,-1000.0,-25.87890625,-40.52734375,0.0,-1.0,1.0,0.0,1.m4v,2.0
2024-02-27 10:15:57.651769,1709025357.6517692,-21.97265625,-999.51171875,-47.8515625,-36.1328125,0.0,-1.0,1.0,0.0,1.m4v,2.0
2024-02-27 10:15:57.655674,1709025357.655674,-18.5546875,-1000.0,-62.01171875,-40.52734375,0.0,-1.0,1.0,0.0,1.m4v,2.0
2024-02-27 10:15:57.659579,1709025357.6595786,-32.2265625,-962.890625,-50.78125,-37.109375,0.0,-1.0,1.0,0.0,1.m4v,2.0
2024-02-27 10:15:57.663483,1709025357.6634831,-30.2734375,-1000.0,-46.38671875,-40.0390625,0.0,-1.0,1.0,0.0,1.m4v,2.0
2024-02-27 10:15:57.667388,1709025357.667388,-19.53125,-1000.0,-54.6875,-43.45703125,0.0,-1.0,1.0,0.0,1.m4v,2.0
2024-02-27 10:15:57.671293,1709025357.6712923,-17.08984375,313.4765625,-48.828125,-41.015625,0.0,-1.0,1.0,0.0,1.m4v,2.0
2024-02-27 10:15:57.675197,1709025357.6751971,-22.94921875,999.51171875,-41.50390625,-18.5546875,0.0,-1.0,1.0,0.0,1.m4v,2.0
2024-02-27 10:15:57.679102,1709025357.679102,-32.2265625,900.87890625,-49.31640625,-19.53125,0.0,-1.0,1.0,0.0,1.m4v,2.0
2024-02-27 10:15:57.683007,1709025357.6830063,-43.45703125,976.5625,-48.828125,-50.78125,0.0,-1.0,1.0,0.0,1.m4v,2.0
2024-02-27 10:15:57.686911,1709025357.686911,-42.48046875,969.7265625,-42.48046875,-44.921875,0.0,-1.0,1.0,0.0,1.m4v,2.0
2024-02-27 10:15:57.690816,1709025357.690816,-47.8515625,969.7265625,-38.0859375,-31.73828125,0.0,-1.0,1.0,0.0,1.m4v,2.0
2024-02-27 10:15:57.694721,1709025357.6947205,-57.12890625,969.7265625,-35.64453125,-45.8984375,0.0,-1.0,1.0,0.0,1.m4v,2.0
2024-02-27 10:15:57.698642,1709025357.6986425,-63.4765625,969.7265625,-36.1328125,-51.7578125,0.0,-1.0,1.0,0.0,1.m4v,2.0
2024-02-27 10:15:57.702547,1709025357.702547,-63.4765625,969.7265625,-47.36328125,-48.33984375,0.0,-1.0,1.0,0.0,1.m4v,2.0
2024-02-27 10:15:57.706452,1709025357.706452,-51.7578125,969.7265625,-60.05859375,-48.828125,0.0,-1.0,1.0,0.0,1.m4v,2.0
2024-02-27 10:15:57.710356,1709025357.7103565,-52.24609375,969.7265625,-52.24609375,-48.828125,0.0,-1.0,1.0,0.0,1.m4v,2.0
2024-02-27 10:15:57.714261,1709025357.714261,-44.43359375,969.7265625,-44.43359375,-46.875,0.0,-1.0,1.0,0.0,1.m4v,2.0
2024-02-27 10:15:57.718166,1709025357.718166,-38.57421875,985.3515625,-49.31640625,-35.15625,0.0,-1.0,1.0,0.0,1.m4v,2.0
2024-02-27 10:15:57.722070,1709025357.7220705,-28.3203125,913.57421875,-48.828125,-42.48046875,0.0,-1.0,1.0,0.0,1.m4v,2.0
2024-02-27 10:15:57.725975,1709025357.725975,-25.390625,999.51171875,-37.59765625,-47.8515625,0.0,-1.0,1.0,0.0,1.m4v,2.0
2024-02-27 10:15:57.729880,1709025357.72988,-56.640625,870.60546875,-31.25,-30.76171875,0.0,-1.0,1.0,0.0,1.m4v,2.0
2024-02-27 10:15:57.733784,1709025357.7337844,-64.94140625,-577.63671875,-34.66796875,-36.1328125,0.0,-1.0,1.0,0.0,1.m4v,2.0
2024-02-27 10:15:57.737689,1709025357.7376893,-50.78125,-1000.0,-33.69140625,-43.9453125,0.0,-1.0,1.0,0.0,1.m4v,2.0
2024-02-27 10:15:57.741594,1709025357.7415938,-42.96875,-925.78125,-31.25,-41.015625,0.0,-1.0,1.0,0.0,1.m4v,2.0
2024-02-27 10:15:57.745515,1709025357.745515,-34.1796875,-1000.0,-42.48046875,-55.6640625,0.0,-1.0,1.0,0.0,1.m4v,2.0
2024-02-27 10:15:57.749420,1709025357.7494197,-35.64453125,-1000.0,-60.05859375,-58.10546875,0.0,-1.0,1.0,0.0,1.m4v,2.0
2024-02-27 10:15:57.753325,1709025357.7533245,-37.109375,-979.98046875,-61.03515625,-44.921875,0.0,-1.0,1.0,0.0,1.m4v,2.0
2024-02-27 10:15:57.757229,1709025357.757229,-32.71484375,-974.12109375,-59.5703125,-35.64453125,0.0,-1.0,1.0,0.0,1.m4v,2.0
2024-02-27 10:15:57.761134,1709025357.7611337,-29.78515625,-1000.0,-49.31640625,-27.83203125,0.0,-1.0,1.0,0.0,1.m4v,2.0
2024-02-27 10:15:57.765038,1709025357.7650385,-29.296875,66.40625,-39.0625,-17.578125,0.0,-1.0,1.0,0.0,1.m4v,2.0
2024-02-27 10:15:57.768943,1709025357.768943,-8.30078125,999.51171875,-23.92578125,-7.32421875,0.0,-1.0,1.0,0.0,1.m4v,2.0
2024-02-27 10:15:57.772848,1709025357.7728477,-9.765625,924.8046875,-21.97265625,-18.5546875,0.0,-1.0,1.0,0.0,1.m4v,2.0
2024-02-27 10:15:57.776752,1709025357.7767525,-54.6875,961.42578125,-35.15625,-71.77734375,0.0,-1.0,1.0,0.0,1.m4v,2.0
2024-02-27 10:15:57.780657,1709025357.780657,-52.734375,972.65625,-38.0859375,-83.984375,0.0,-1.0,1.0,0.0,1.m4v,2.0
2024-02-27 10:15:57.784562,1709025357.784562,-29.296875,969.7265625,-33.203125,-61.5234375,0.0,-1.0,1.0,0.0,1.m4v,2.0
2024-02-27 10:15:57.788466,1709025357.7884665,-32.2265625,969.7265625,-27.83203125,-59.08203125,0.0,-1.0,1.0,0.0,1.m4v,2.0
2024-02-27 10:15:57.792393,1709025357.7923927,-28.3203125,969.7265625,-40.0390625,-72.75390625,0.0,-1.0,1.0,0.0,1.m4v,2.0
2024-02-27 10:15:57.796297,1709025357.7962973,-31.73828125,986.328125,-47.8515625,-68.84765625,0.0,-1.0,1.0,0.0,1.m4v,2.0
2024-02-27 10:15:57.800202,1709025357.800202,-26.3671875,908.69140625,-41.015625,-56.640625,0.0,-1.0,1.0,0.0,1.m4v,2.0
2024-02-27 10:15:57.804107,1709025357.8041067,-11.71875,999.51171875,-37.109375,-64.453125,0.0,-1.0,1.0,0.0,1.m4v,2.0
2024-02-27 10:15:57.808011,1709025357.8080113,-10.7421875,802.24609375,-32.71484375,-55.6640625,0.0,-1.0,1.0,0.0,1.m4v,2.0
2024-02-27 10:15:57.811916,1709025357.811916,-3.90625,-657.2265625,-28.80859375,-47.36328125,0.0,-1.0,1.0,0.0,1.m4v,2.0
2024-02-27 10:15:58.214270,1709025358.21427,-31.73828125,-1000.0,-30.2734375,-30.76171875,0.0,-1.0,1.0,0.0,1.m4v,2.0
2024-02-27 10:15:58.218175,1709025358.2181747,-19.04296875,-1000.0,-40.0390625,-24.90234375,0.0,-1.0,1.0,0.0,1.m4v,2.0
2024-02-27 10:15:58.222079,1709025358.2220793,-16.11328125,-1000.0,-48.33984375,-30.2734375,0.0,-1.0,1.0,0.0,1.m4v,2.0
2024-02-27 10:15:58.225984,1709025358.225984,-30.2734375,-941.89453125,-41.015625,-41.9921875,0.0,-1.0,1.0,0.0,1.m4v,2.0
2024-02-27 10:15:58.229889,1709025358.229889,-20.5078125,-1000.0,-36.62109375,-47.8515625,0.0,-1.0,1.0,0.0,1.m4v,2.0
2024-02-27 10:15:58.233793,1709025358.2337933,-17.08984375,-881.34765625,-35.64453125,-46.38671875,0.0,-1.0,1.0,0.0,1.m4v,2.0
2024-02-27 10:15:58.237698,1709025358.237698,-15.13671875,578.125,-39.55078125,-42.96875,0.0,-1.0,1.0,0.0,1.m4v,2.0
2024-02-27 10:15:58.241603,1709025358.241603,-12.20703125,999.51171875,-35.64453125,-31.25,0.0,-1.0,1.0,0.0,1.m4v,2.0
2024-02-27 10:15:58.245507,1709025358.2455072,-26.85546875,895.5078125,-33.69140625,-16.11328125,0.0,-1.0,1.0,0.0,1.m4v,2.0
2024-02-27 10:15:58.249412,1709025358.249412,-40.0390625,985.83984375,-38.57421875,-23.92578125,0.0,-1.0,1.0,0.0,1.m4v,2.0
2024-02-27 10:15:58.253317,1709025358.2533166,-39.0625,969.7265625,-35.64453125,-38.0859375,0.0,-1.0,1.0,0.0,1.m4v,2.0
2024-02-27 10:15:58.257221,1709025358.2572212,-42.96875,969.7265625,-34.1796875,-42.48046875,0.0,-1.0,1.0,0.0,1.m4v,2.0
2024-02-27 10:15:58.261146,1709025358.261146,-32.71484375,969.7265625,-38.57421875,-37.59765625,0.0,-1.0,1.0,0.0,1.m4v,2.0
2024-02-27 10:15:58.265051,1709025358.2650506,-36.62109375,969.7265625,-46.875,-35.15625,0.0,-1.0,1.0,0.0,1.m4v,2.0
2024-02-27 10:15:58.268955,1709025358.2689557,-43.9453125,969.7265625,-42.48046875,-42.96875,0.0,-1.0,1.0,0.0,1.m4v,2.0
2024-02-27 10:15:58.272860,1709025358.27286,-32.2265625,970.21484375,-31.25,-48.33984375,0.0,-1.0,1.0,0.0,1.m4v,2.0
2024-02-27 10:15:58.276765,1709025358.2767646,-30.76171875,984.375,-22.4609375,-38.0859375,0.0,-1.0,1.0,0.0,1.m4v,2.0
2024-02-27 10:15:58.280669,1709025358.2806697,-29.296875,901.85546875,-27.34375,-28.3203125,0.0,-1.0,1.0,0.0,1.m4v,2.0
2024-02-27 10:15:58.284574,1709025358.284574,-26.85546875,999.51171875,-41.015625,-36.1328125,0.0,-1.0,1.0,0.0,1.m4v,2.0
2024-02-27 10:15:58.288479,1709025358.2884786,-31.25,615.72265625,-41.9921875,-47.36328125,0.0,-1.0,1.0,0.0,1.m4v,2.0
2024-02-27 10:15:58.292383,1709025358.2923834,-40.52734375,-824.70703125,-41.015625,-42.48046875,0.0,-1.0,1.0,0.0,1.m4v,2.0
2024-02-27 10:15:58.296288,1709025358.296288,-48.828125,-1000.0,-51.26953125,-37.109375,0.0,-1.0,1.0,0.0,1.m4v,2.0
2024-02-27 10:15:58.300193,1709025358.3001928,-58.10546875,-939.453125,-55.6640625,-34.66796875,0.0,-1.0,1.0,0.0,1.m4v,2.0
2024-02-27 10:15:58.304097,1709025358.3040974,-63.96484375,-1000.0,-46.875,-29.78515625,0.0,-1.0,1.0,0.0,1.m4v,2.0
2024-02-27 10:15:58.308028,1709025358.308028,-63.4765625,-1000.0,-48.828125,-32.71484375,0.0,-1.0,1.0,0.0,1.m4v,2.0
2024-02-27 10:15:58.311933,1709025358.3119326,-57.6171875,-1000.0,-54.19921875,-45.41015625,0.0,-1.0,1.0,0.0,1.m4v,2.0
2024-02-27 10:15:58.315837,1709025358.3158374,-55.17578125,-976.5625,-50.29296875,-50.29296875,0.0,-1.0,1.0,0.0,1.m4v,2.0
2024-02-27 10:15:58.319742,1709025358.319742,-62.98828125,-980.95703125,-52.24609375,-44.43359375,0.0,-1.0,1.0,0.0,1.m4v,2.0
2024-02-27 10:15:58.323647,1709025358.3236463,-62.98828125,-1000.0,-56.15234375,-36.62109375,0.0,-1.0,1.0,0.0,1.m4v,2.0
2024-02-27 10:15:58.327551,1709025358.3275514,-55.6640625,121.09375,-64.94140625,-35.64453125,0.0,-1.0,1.0,0.0,1.m4v,2.0
2024-02-27 10:15:58.331456,1709025358.331456,-54.6875,999.51171875,-63.4765625,-40.52734375,0.0,-1.0,1.0,0.0,1.m4v,2.0
2024-02-27 10:15:58.335361,1709025358.3353603,-48.828125,919.43359375,-50.29296875,-33.69140625,0.0,-1.0,1.0,0.0,1.m4v,2.0
2024-02-27 10:15:58.339265,1709025358.339265,-50.78125,964.35546875,-47.36328125,-19.53125,0.0,-1.0,1.0,0.0,1.m4v,2.0
2024-02-27 10:15:58.343170,1709025358.34317,-48.33984375,972.16796875,-41.50390625,-36.62109375,0.0,-1.0,1.0,0.0,1.m4v,2.0
2024-02-27 10:15:58.347075,1709025358.3470747,-32.2265625,969.7265625,-41.015625,-60.05859375,0.0,-1.0,1.0,0.0,1.m4v,2.0
2024-02-27 10:15:58.350979,1709025358.350979,-30.76171875,969.7265625,-44.43359375,-50.29296875,0.0,-1.0,1.0,0.0,1.m4v,2.0
2024-02-27 10:15:58.354903,1709025358.3549025,-20.01953125,969.7265625,-40.0390625,-36.62109375,0.0,-1.0,1.0,0.0,1.m4v,2.0
2024-02-27 10:15:58.358807,1709025358.358807,-7.32421875,970.21484375,-44.921875,-33.69140625,0.0,-1.0,1.0,0.0,1.m4v,2.0
2024-02-27 10:15:58.362712,1709025358.362712,-12.20703125,970.21484375,-48.33984375,-36.1328125,0.0,-1.0,1.0,0.0,1.m4v,2.0
2024-02-27 10:15:58.366616,1709025358.3666165,-13.671875,982.421875,-48.33984375,-46.38671875,0.0,-1.0,1.0,0.0,1.m4v,2.0
2024-02-27 10:15:58.370521,1709025358.370521,-5.37109375,925.78125,-43.45703125,-52.24609375,0.0,-1.0,1.0,0.0,1.m4v,2.0
2024-02-27 10:15:58.374426,1709025358.374426,7.32421875,990.72265625,-33.69140625,-40.0390625,0.0,-1.0,1.0,0.0,1.m4v,2.0
2024-02-27 10:15:58.378330,1709025358.3783305,-0.48828125,953.125,-29.296875,-30.2734375,0.0,-1.0,1.0,0.0,1.m4v,2.0
2024-02-27 10:15:58.382235,1709025358.3822353,-21.97265625,-429.6875,-29.78515625,-37.109375,0.0,-1.0,1.0,0.0,1.m4v,2.0
2024-02-27 10:15:58.386140,1709025358.38614,-25.87890625,-1000.0,-40.0390625,-44.43359375,0.0,-1.0,1.0,0.0,1.m4v,2.0
2024-02-27 10:15:58.390044,1709025358.3900445,-22.4609375,-928.22265625,-47.36328125,-44.921875,0.0,-1.0,1.0,0.0,1.m4v,2.0
2024-02-27 10:15:58.393949,1709025358.3939493,-19.04296875,-1000.0,-51.7578125,-43.45703125,0.0,-1.0,1.0,0.0,1.m4v,2.0
2024-02-27 10:15:58.397854,1709025358.397854,-18.06640625,-1000.0,-60.05859375,-35.15625,0.0,-1.0,1.0,0.0,1.m4v,2.0
2024-02-27 10:15:58.401776,1709025358.401776,-22.94921875,-1000.0,-52.24609375,-38.0859375,0.0,-1.0,1.0,0.0,1.m4v,2.0
2024-02-27 10:15:58.405681,1709025358.405681,-35.15625,-1000.0,-42.48046875,-44.43359375,0.0,-1.0,1.0,0.0,1.m4v,2.0
2024-02-27 10:15:58.409585,1709025358.4095857,-39.55078125,-963.8671875,-48.33984375,-46.875,0.0,-1.0,1.0,0.0,1.m4v,2.0
2024-02-27 10:15:58.413490,1709025358.4134903,-62.01171875,-1000.0,-62.01171875,-51.26953125,0.0,-1.0,1.0,0.0,1.m4v,2.0
2024-02-27 10:15:58.417395,1709025358.4173949,-55.6640625,-1000.0,-54.6875,-30.2734375,0.0,-1.0,1.0,0.0,1.m4v,2.0
2024-02-27 10:15:58.421299,1709025358.4212997,-27.83203125,299.8046875,-46.38671875,-18.5546875,0.0,-1.0,1.0,0.0,1.m4v,2.0
2024-02-27 10:15:58.425204,1709025358.4252045,-34.66796875,999.51171875,-50.78125,-39.55078125,0.0,-1.0,1.0,0.0,1.m4v,2.0
2024-02-27 10:15:58.429109,1709025358.4291089,-52.24609375,901.3671875,-47.36328125,-50.29296875,0.0,-1.0,1.0,0.0,1.m4v,2.0
2024-02-27 10:15:58.433013,1709025358.4330134,-62.01171875,975.5859375,-44.921875,-48.828125,0.0,-1.0,1.0,0.0,1.m4v,2.0
2024-02-27 10:15:58.436918,1709025358.4369185,-73.2421875,969.7265625,-55.17578125,-40.0390625,0.0,-1.0,1.0,0.0,1.m4v,2.0
2024-02-27 10:15:58.440823,1709025358.4408228,-71.77734375,969.7265625,-58.10546875,-35.15625,0.0,-1.0,1.0,0.0,1.m4v,2.0
2024-02-27 10:15:58.444728,1709025358.4447277,-66.40625,969.7265625,-49.8046875,-46.875,0.0,-1.0,1.0,0.0,1.m4v,2.0
2024-02-27 10:15:58.448649,1709025358.4486492,-67.3828125,969.7265625,-45.8984375,-52.734375,0.0,-1.0,1.0,0.0,1.m4v,2.0
2024-02-27 10:15:58.452554,1709025358.4525535,-49.31640625,969.7265625,-41.9921875,-40.0390625,0.0,-1.0,1.0,0.0,1.m4v,2.0
2024-02-27 10:15:58.456459,1709025358.4564586,-52.734375,969.7265625,-35.15625,-31.25,0.0,-1.0,1.0,0.0,1.m4v,2.0
2024-02-27 10:15:58.460363,1709025358.4603631,-65.4296875,978.515625,-27.34375,-43.45703125,0.0,-1.0,1.0,0.0,1.m4v,2.0
2024-02-27 10:15:58.464268,1709025358.4642675,-57.12890625,938.4765625,-24.90234375,-42.48046875,0.0,-1.0,1.0,0.0,1.m4v,2.0
2024-02-27 10:15:58.468173,1709025358.4681726,-50.78125,964.35546875,-24.90234375,-41.9921875,0.0,-1.0,1.0,0.0,1.m4v,2.0
2024-02-27 10:15:58.472077,1709025358.4720771,-52.734375,999.51171875,-34.66796875,-49.8046875,0.0,-1.0,1.0,0.0,1.m4v,2.0
2024-02-27 10:15:58.475982,1709025358.4759817,-62.98828125,-259.27734375,-39.55078125,-44.43359375,0.0,-1.0,1.0,0.0,1.m4v,2.0
2024-02-27 10:15:58.479887,1709025358.4798863,-61.03515625,-1000.0,-24.4140625,-32.71484375,0.0,-1.0,1.0,0.0,1.m4v,2.0
2024-02-27 10:15:58.483791,1709025358.483791,-51.7578125,-939.94140625,-20.5078125,-32.2265625,0.0,-1.0,1.0,0.0,1.m4v,2.0
2024-02-27 10:15:58.487696,1709025358.487696,-55.6640625,-1000.0,-28.80859375,-50.29296875,0.0,-1.0,1.0,0.0,1.m4v,2.0
2024-02-27 10:15:58.491601,1709025358.4916005,-50.29296875,-1000.0,-31.25,-51.26953125,0.0,-1.0,1.0,0.0,1.m4v,2.0
2024-02-27 10:15:58.495522,1709025358.495522,-33.69140625,-1000.0,-24.4140625,-41.50390625,0.0,-1.0,1.0,0.0,1.m4v,2.0
2024-02-27 10:15:58.499427,1709025358.4994266,-21.97265625,-1000.0,-14.6484375,-47.36328125,0.0,-1.0,1.0,0.0,1.m4v,2.0
2024-02-27 10:15:58.503331,1709025358.5033312,-17.08984375,-966.796875,-15.625,-39.55078125,0.0,-1.0,1.0,0.0,1.m4v,2.0
2024-02-27 10:15:58.507236,1709025358.507236,-26.85546875,-997.55859375,-22.4609375,-43.9453125,0.0,-1.0,1.0,0.0,1.m4v,2.0
2024-02-27 10:15:58.511141,1709025358.5111406,-20.01953125,-1000.0,-20.01953125,-45.41015625,0.0,-1.0,1.0,0.0,1.m4v,2.0
2024-02-27 10:15:58.515045,1709025358.5150454,-9.27734375,263.671875,-22.4609375,-32.2265625,0.0,-1.0,1.0,0.0,1.m4v,2.0
2024-02-27 10:15:58.518950,1709025358.51895,-11.71875,999.51171875,-32.71484375,-17.578125,0.0,-1.0,1.0,0.0,1.m4v,2.0
2024-02-27 10:15:58.522855,1709025358.5228546,-2.9296875,904.296875,-41.015625,-17.08984375,0.0,-1.0,1.0,0.0,1.m4v,2.0
2024-02-27 10:15:58.526759,1709025358.5267594,-22.4609375,973.6328125,-41.9921875,-44.43359375,0.0,-1.0,1.0,0.0,1.m4v,2.0
2024-02-27 10:15:58.530664,1709025358.530664,-34.1796875,970.21484375,-37.59765625,-43.9453125,0.0,-1.0,1.0,0.0,1.m4v,2.0
2024-02-27 10:15:58.534569,1709025358.5345683,-26.3671875,969.7265625,-31.25,-22.94921875,0.0,-1.0,1.0,0.0,1.m4v,2.0
2024-02-27 10:15:58.538473,1709025358.5384734,-39.55078125,969.7265625,-22.4609375,-37.59765625,0.0,-1.0,1.0,0.0,1.m4v,2.0
2024-02-27 10:15:58.542399,1709025358.5423994,-37.59765625,976.07421875,-20.5078125,-54.19921875,0.0,-1.0,1.0,0.0,1.m4v,2.0
2024-02-27 10:15:58.546304,1709025358.546304,-39.0625,947.265625,-19.53125,-55.17578125,0.0,-1.0,1.0,0.0,1.m4v,2.0
2024-02-27 10:15:58.550209,1709025358.5502088,-39.0625,948.73046875,-20.01953125,-57.6171875,0.0,-1.0,1.0,0.0,1.m4v,2.0
2024-02-27 10:15:58.554113,1709025358.5541134,-33.203125,999.51171875,-19.04296875,-46.38671875,0.0,-1.0,1.0,0.0,1.m4v,2.0
2024-02-27 10:15:58.558018,1709025358.5580182,-49.31640625,-125.9765625,-20.99609375,-39.55078125,0.0,-1.0,1.0,0.0,1.m4v,2.0
2024-02-27 10:15:58.561923,1709025358.5619228,-63.4765625,-1000.0,-33.69140625,-53.22265625,0.0,-1.0,1.0,0.0,1.m4v,2.0
2024-02-27 10:15:58.565827,1709025358.5658274,-47.8515625,-954.1015625,-37.59765625,-56.640625,0.0,-1.0,1.0,0.0,1.m4v,2.0
2024-02-27 10:15:58.569732,1709025358.5697322,-41.015625,-993.1640625,-31.25,-51.26953125,0.0,-1.0,1.0,0.0,1.m4v,2.0
2024-02-27 10:15:58.573637,1709025358.5736368,-41.50390625,-1000.0,-35.15625,-42.48046875,0.0,-1.0,1.0,0.0,1.m4v,2.0
2024-02-27 10:15:58.577541,1709025358.5775414,-32.2265625,-1000.0,-34.1796875,-40.52734375,0.0,-1.0,1.0,0.0,1.m4v,2.0
2024-02-27 10:15:58.581446,1709025358.5814462,-27.34375,-1000.0,-17.578125,-44.43359375,0.0,-1.0,1.0,0.0,1.m4v,2.0
2024-02-27 10:15:58.585351,1709025358.5853508,-25.390625,-1000.0,-10.25390625,-44.921875,0.0,-1.0,1.0,0.0,1.m4v,2.0
2024-02-27 10:15:58.589276,1709025358.589276,-34.1796875,-1000.0,-15.13671875,-43.45703125,0.0,-1.0,1.0,0.0,1.m4v,2.0
2024-02-27 10:15:58.593181,1709025358.593181,-34.1796875,-1000.0,-16.6015625,-39.55078125,0.0,-1.0,1.0,0.0,1.m4v,2.0
2024-02-27 10:15:58.597085,1709025358.5970857,-34.66796875,-965.8203125,-17.578125,-39.55078125,0.0,-1.0,1.0,0.0,1.m4v,2.0
2024-02-27 10:15:58.600990,1709025358.60099,-35.15625,-1000.0,-18.5546875,-40.52734375,0.0,-1.0,1.0,0.0,1.m4v,2.0
2024-02-27 10:15:58.604895,1709025358.6048949,-35.15625,-1000.0,-23.4375,-32.71484375,0.0,-1.0,1.0,0.0,1.m4v,2.0
2024-02-27 10:15:58.608799,1709025358.6087997,-16.11328125,278.80859375,-26.85546875,-22.4609375,0.0,-1.0,1.0,0.0,1.m4v,2.0
2024-02-27 10:15:58.612704,1709025358.6127045,0.9765625,999.51171875,-25.390625,-28.80859375,0.0,-1.0,1.0,0.0,1.m4v,2.0
2024-02-27 10:15:58.616609,1709025358.6166089,-0.48828125,903.3203125,-28.80859375,-28.80859375,0.0,-1.0,1.0,0.0,1.m4v,2.0
2024-02-27 10:15:58.620513,1709025358.6205134,-6.34765625,974.609375,-23.92578125,-24.4140625,0.0,-1.0,1.0,0.0,1.m4v,2.0
2024-02-27 10:15:58.624418,1709025358.6244185,-37.109375,970.21484375,-29.296875,-49.31640625,0.0,-1.0,1.0,0.0,1.m4v,2.0
2024-02-27 10:15:58.628323,1709025358.6283228,-48.33984375,969.7265625,-37.109375,-64.94140625,0.0,-1.0,1.0,0.0,1.m4v,2.0
2024-02-27 10:15:58.632227,1709025358.6322274,-22.4609375,969.7265625,-32.71484375,-50.78125,0.0,-1.0,1.0,0.0,1.m4v,2.0
2024-02-27 10:15:58.636152,1709025358.636152,-21.484375,969.7265625,-35.64453125,-42.96875,0.0,-1.0,1.0,0.0,1.m4v,2.0
2024-02-27 10:15:58.640057,1709025358.6400568,-22.94921875,969.7265625,-40.52734375,-38.0859375,0.0,-1.0,1.0,0.0,1.m4v,2.0
2024-02-27 10:15:58.643961,1709025358.6439614,-36.1328125,969.7265625,-36.1328125,-40.0390625,0.0,-1.0,1.0,0.0,1.m4v,2.0
2024-02-27 10:15:58.647866,1709025358.647866,-54.19921875,973.6328125,-25.390625,-47.36328125,0.0,-1.0,1.0,0.0,1.m4v,2.0
2024-02-27 10:15:58.651771,1709025358.6517708,-51.7578125,961.9140625,-25.390625,-52.24609375,0.0,-1.0,1.0,0.0,1.m4v,2.0
2024-02-27 10:15:58.655675,1709025358.6556754,-52.734375,927.24609375,-36.62109375,-45.41015625,0.0,-1.0,1.0,0.0,1.m4v,2.0
2024-02-27 10:15:58.659580,1709025358.65958,-47.8515625,999.51171875,-41.015625,-43.9453125,0.0,-1.0,1.0,0.0,1.m4v,2.0
2024-02-27 10:15:58.663485,1709025358.6634848,-40.52734375,118.1640625,-32.71484375,-50.29296875,0.0,-1.0,1.0,0.0,1.m4v,2.0
2024-02-27 10:15:58.667389,1709025358.6673894,-53.7109375,-1000.0,-31.25,-47.36328125,0.0,-1.0,1.0,0.0,1.m4v,2.0
2024-02-27 10:15:58.671294,1709025358.6712942,-64.453125,-986.81640625,-31.73828125,-39.0625,0.0,-1.0,1.0,0.0,1.m4v,2.0
2024-02-27 10:15:58.675199,1709025358.6751988,-55.17578125,-975.5859375,-31.25,-39.0625,0.0,-1.0,1.0,0.0,1.m4v,2.0
2024-02-27 10:15:58.679103,1709025358.6791034,-51.26953125,-1000.0,-33.69140625,-33.69140625,0.0,-1.0,1.0,0.0,1.m4v,2.0
2024-02-27 10:15:58.683027,1709025358.6830273,-51.26953125,-1000.0,-42.48046875,-36.62109375,0.0,-1.0,1.0,0.0,1.m4v,2.0
2024-02-27 10:15:58.686932,1709025358.6869318,-49.8046875,-1000.0,-40.0390625,-37.109375,0.0,-1.0,1.0,0.0,1.m4v,2.0
2024-02-27 10:15:58.690836,1709025358.6908364,-63.96484375,-953.61328125,-40.0390625,-29.78515625,0.0,-1.0,1.0,0.0,1.m4v,2.0
2024-02-27 10:15:58.694741,1709025358.6947412,-72.265625,-1000.0,-53.22265625,-30.76171875,0.0,-1.0,1.0,0.0,1.m4v,2.0
2024-02-27 10:15:58.698646,1709025358.6986458,-60.05859375,-968.75,-49.31640625,-34.1796875,0.0,-1.0,1.0,0.0,1.m4v,2.0
2024-02-27 10:15:58.702550,1709025358.7025504,-35.64453125,429.19921875,-43.9453125,-41.9921875,0.0,-1.0,1.0,0.0,1.m4v,2.0
2024-02-27 10:15:58.706455,1709025358.7064552,-23.92578125,999.51171875,-40.0390625,-49.8046875,0.0,-1.0,1.0,0.0,1.m4v,2.0
2024-02-27 10:15:58.710360,1709025358.7103598,-29.78515625,896.97265625,-38.0859375,-44.43359375,0.0,-1.0,1.0,0.0,1.m4v,2.0
2024-02-27 10:15:58.714265,1709025358.7142646,-31.73828125,981.4453125,-45.41015625,-43.45703125,0.0,-1.0,1.0,0.0,1.m4v,2.0
2024-02-27 10:15:58.718169,1709025358.7181692,-30.76171875,969.7265625,-49.31640625,-38.57421875,0.0,-1.0,1.0,0.0,1.m4v,2.0
2024-02-27 10:15:58.722074,1709025358.7220738,-28.80859375,969.7265625,-37.59765625,-30.76171875,0.0,-1.0,1.0,0.0,1.m4v,2.0
2024-02-27 10:15:58.725979,1709025358.7259786,-28.80859375,969.7265625,-29.78515625,-35.15625,0.0,-1.0,1.0,0.0,1.m4v,2.0
2024-02-27 10:15:58.729902,1709025358.7299025,-39.55078125,969.7265625,-40.0390625,-36.1328125,0.0,-1.0,1.0,0.0,1.m4v,2.0
2024-02-27 10:15:58.733807,1709025358.7338068,-41.9921875,969.7265625,-48.33984375,-35.64453125,0.0,-1.0,1.0,0.0,1.m4v,2.0
2024-02-27 10:15:58.737712,1709025358.7377117,-25.87890625,969.7265625,-43.9453125,-35.15625,0.0,-1.0,1.0,0.0,1.m4v,2.0
2024-02-27 10:15:58.741616,1709025358.7416162,-36.1328125,974.12109375,-40.52734375,-23.92578125,0.0,-1.0,1.0,0.0,1.m4v,2.0
2024-02-27 10:15:58.745521,1709025358.745521,-62.01171875,958.0078125,-41.9921875,-16.6015625,0.0,-1.0,1.0,0.0,1.m4v,2.0
2024-02-27 10:15:58.749426,1709025358.7494256,-54.19921875,930.17578125,-47.8515625,-25.87890625,0.0,-1.0,1.0,0.0,1.m4v,2.0
2024-02-27 10:15:58.753330,1709025358.7533302,-45.41015625,999.51171875,-54.19921875,-44.43359375,0.0,-1.0,1.0,0.0,1.m4v,2.0
2024-02-27 10:15:58.757235,1709025358.757235,-63.4765625,56.15234375,-48.33984375,-50.78125,0.0,-1.0,1.0,0.0,1.m4v,2.0
2024-02-27 10:15:58.761140,1709025358.7611396,-55.6640625,-1000.0,-41.015625,-37.109375,0.0,-1.0,1.0,0.0,1.m4v,2.0
2024-02-27 10:15:58.765044,1709025358.7650442,-33.69140625,-977.05078125,-42.48046875,-38.57421875,0.0,-1.0,1.0,0.0,1.m4v,2.0
2024-02-27 10:15:58.768949,1709025358.768949,-36.62109375,-980.46875,-37.59765625,-50.29296875,0.0,-1.0,1.0,0.0,1.m4v,2.0
2024-02-27 10:15:58.772854,1709025358.7728536,-25.87890625,-1000.0,-33.203125,-38.0859375,0.0,-1.0,1.0,0.0,1.m4v,2.0
2024-02-27 10:15:58.776776,1709025358.776776,-10.7421875,-1000.0,-35.15625,-29.78515625,0.0,-1.0,1.0,0.0,1.m4v,2.0
2024-02-27 10:15:58.780681,1709025358.780681,-10.7421875,-1000.0,-43.9453125,-43.9453125,0.0,-1.0,1.0,0.0,1.m4v,2.0
2024-02-27 10:15:58.784585,1709025358.7845852,-19.04296875,-994.62890625,-52.24609375,-51.26953125,0.0,-1.0,1.0,0.0,1.m4v,2.0
2024-02-27 10:15:58.788490,1709025358.78849,-25.87890625,-952.1484375,-53.22265625,-50.29296875,0.0,-1.0,1.0,0.0,1.m4v,2.0
2024-02-27 10:15:58.792395,1709025358.7923946,-20.99609375,-1000.0,-53.7109375,-35.64453125,0.0,-1.0,1.0,0.0,1.m4v,2.0
2024-02-27 10:15:58.796299,1709025358.7962997,-22.94921875,-179.19921875,-58.10546875,-32.71484375,0.0,-1.0,1.0,0.0,1.m4v,2.0
2024-02-27 10:15:59.245519,1709025359.245519,-74.21875,-1000.0,-41.50390625,-55.17578125,0.0,-1.0,1.0,0.0,1.m4v,2.0
2024-02-27 10:15:59.249424,1709025359.2494235,-73.2421875,-1000.0,-41.50390625,-57.12890625,0.0,-1.0,1.0,0.0,1.m4v,2.0
2024-02-27 10:15:59.253328,1709025359.2533283,-72.75390625,-962.890625,-28.80859375,-52.734375,0.0,-1.0,1.0,0.0,1.m4v,2.0
2024-02-27 10:15:59.257233,1709025359.257233,-55.17578125,-1000.0,-29.296875,-48.828125,0.0,-1.0,1.0,0.0,1.m4v,2.0
2024-02-27 10:15:59.261138,1709025359.2611375,-52.734375,-1000.0,-36.62109375,-53.22265625,0.0,-1.0,1.0,0.0,1.m4v,2.0
2024-02-27 10:15:59.265042,1709025359.2650423,-55.6640625,316.40625,-39.55078125,-52.24609375,0.0,-1.0,1.0,0.0,1.m4v,2.0
2024-02-27 10:15:59.268947,1709025359.268947,-53.7109375,999.51171875,-44.43359375,-47.8515625,0.0,-1.0,1.0,0.0,1.m4v,2.0
2024-02-27 10:15:59.272852,1709025359.2728517,-65.4296875,900.87890625,-42.96875,-43.9453125,0.0,-1.0,1.0,0.0,1.m4v,2.0
2024-02-27 10:15:59.276756,1709025359.2767563,-59.5703125,976.5625,-39.55078125,-28.3203125,0.0,-1.0,1.0,0.0,1.m4v,2.0
2024-02-27 10:15:59.280661,1709025359.2806609,-38.0859375,969.7265625,-43.45703125,-23.4375,0.0,-1.0,1.0,0.0,1.m4v,2.0
2024-02-27 10:15:59.284566,1709025359.2845657,-29.78515625,986.328125,-49.8046875,-35.15625,0.0,-1.0,1.0,0.0,1.m4v,2.0
2024-02-27 10:15:59.288470,1709025359.2884705,-26.85546875,911.62109375,-37.109375,-44.921875,0.0,-1.0,1.0,0.0,1.m4v,2.0
2024-02-27 10:15:59.292390,1709025359.29239,-26.85546875,999.51171875,-23.92578125,-41.9921875,0.0,-1.0,1.0,0.0,1.m4v,2.0
2024-02-27 10:15:59.296295,1709025359.296295,-25.390625,854.00390625,-26.85546875,-34.66796875,0.0,-1.0,1.0,0.0,1.m4v,2.0
2024-02-27 10:15:59.300200,1709025359.3001995,-24.4140625,-605.46875,-32.71484375,-27.83203125,0.0,-1.0,1.0,0.0,1.m4v,2.0
2024-02-27 10:15:59.304104,1709025359.304104,-14.16015625,-1000.0,-29.78515625,-32.2265625,0.0,-1.0,1.0,0.0,1.m4v,2.0
2024-02-27 10:15:59.308009,1709025359.308009,1.953125,-925.78125,-32.2265625,-38.57421875,0.0,-1.0,1.0,0.0,1.m4v,2.0
2024-02-27 10:15:59.311913,1709025359.3119135,7.8125,-1000.0,-45.8984375,-29.78515625,0.0,-1.0,1.0,0.0,1.m4v,2.0
2024-02-27 10:15:59.315818,1709025359.3158183,3.90625,-1000.0,-47.36328125,-30.2734375,0.0,-1.0,1.0,0.0,1.m4v,2.0
2024-02-27 10:15:59.319723,1709025359.319723,-11.23046875,-1000.0,-49.31640625,-34.66796875,0.0,-1.0,1.0,0.0,1.m4v,2.0
2024-02-27 10:15:59.323627,1709025359.3236277,-6.34765625,-1000.0,-54.6875,-32.71484375,0.0,-1.0,1.0,0.0,1.m4v,2.0
2024-02-27 10:15:59.327532,1709025359.3275323,-14.16015625,-1000.0,-67.87109375,-36.1328125,0.0,-1.0,1.0,0.0,1.m4v,2.0
2024-02-27 10:15:59.331437,1709025359.3314369,-6.34765625,-1000.0,-68.359375,-39.0625,0.0,-1.0,1.0,0.0,1.m4v,2.0
2024-02-27 10:15:59.335342,1709025359.3353417,-14.6484375,-1000.0,-57.12890625,-35.15625,0.0,-1.0,1.0,0.0,1.m4v,2.0
2024-02-27 10:15:59.339279,1709025359.3392787,-20.01953125,-1000.0,-55.17578125,-42.96875,0.0,-1.0,1.0,0.0,1.m4v,2.0
2024-02-27 10:15:59.343183,1709025359.3431833,-8.7890625,-1000.0,-42.96875,-49.8046875,0.0,-1.0,1.0,0.0,1.m4v,2.0
2024-02-27 10:15:59.347088,1709025359.347088,-21.484375,-943.359375,-37.59765625,-52.24609375,0.0,-1.0,1.0,0.0,1.m4v,2.0
2024-02-27 10:15:59.350993,1709025359.350993,-28.80859375,-1000.0,-37.59765625,-57.12890625,0.0,-1.0,1.0,0.0,1.m4v,2.0
2024-02-27 10:15:59.354897,1709025359.3548973,-30.2734375,-897.94921875,-37.109375,-54.19921875,0.0,-1.0,1.0,0.0,1.m4v,2.0
2024-02-27 10:15:59.358802,1709025359.358802,-24.4140625,555.17578125,-38.0859375,-28.3203125,0.0,-1.0,1.0,0.0,1.m4v,2.0
2024-02-27 10:15:59.362707,1709025359.362707,-20.5078125,999.51171875,-43.45703125,-32.2265625,0.0,-1.0,1.0,0.0,1.m4v,2.0
2024-02-27 10:15:59.366611,1709025359.3666117,-21.484375,895.01953125,-41.9921875,-62.98828125,0.0,-1.0,1.0,0.0,1.m4v,2.0
2024-02-27 10:15:59.370516,1709025359.370516,-17.08984375,985.3515625,-40.0390625,-67.3828125,0.0,-1.0,1.0,0.0,1.m4v,2.0
2024-02-27 10:15:59.374421,1709025359.3744206,-10.7421875,970.21484375,-49.31640625,-45.8984375,0.0,-1.0,1.0,0.0,1.m4v,2.0
2024-02-27 10:15:59.378325,1709025359.3783257,-8.30078125,969.7265625,-38.0859375,-42.96875,0.0,-1.0,1.0,0.0,1.m4v,2.0
2024-02-27 10:15:59.382230,1709025359.38223,0.9765625,969.7265625,-24.90234375,-63.4765625,0.0,-1.0,1.0,0.0,1.m4v,2.0
2024-02-27 10:15:59.386156,1709025359.3861558,-14.6484375,969.7265625,-23.4375,-67.87109375,0.0,-1.0,1.0,0.0,1.m4v,2.0
2024-02-27 10:15:59.390060,1709025359.3900604,-32.71484375,969.7265625,-18.06640625,-63.96484375,0.0,-1.0,1.0,0.0,1.m4v,2.0
2024-02-27 10:15:59.393965,1709025359.393965,-41.015625,969.7265625,-16.6015625,-56.640625,0.0,-1.0,1.0,0.0,1.m4v,2.0
2024-02-27 10:15:59.397870,1709025359.3978698,-37.59765625,978.02734375,-28.3203125,-49.31640625,0.0,-1.0,1.0,0.0,1.m4v,2.0
2024-02-27 10:15:59.401774,1709025359.4017744,-26.85546875,938.96484375,-41.015625,-47.36328125,0.0,-1.0,1.0,0.0,1.m4v,2.0
2024-02-27 10:15:59.405679,1709025359.4056792,-13.18359375,963.37890625,-41.9921875,-42.48046875,0.0,-1.0,1.0,0.0,1.m4v,2.0
2024-02-27 10:15:59.409584,1709025359.4095838,-19.53125,999.51171875,-39.0625,-34.66796875,0.0,-1.0,1.0,0.0,1.m4v,2.0
2024-02-27 10:15:59.413488,1709025359.4134884,-36.1328125,-254.39453125,-38.0859375,-34.66796875,0.0,-1.0,1.0,0.0,1.m4v,2.0
2024-02-27 10:15:59.417393,1709025359.4173932,-26.3671875,-1000.0,-28.3203125,-35.15625,0.0,-1.0,1.0,0.0,1.m4v,2.0
2024-02-27 10:15:59.421298,1709025359.4212978,-20.01953125,-939.453125,-20.01953125,-35.15625,0.0,-1.0,1.0,0.0,1.m4v,2.0
2024-02-27 10:15:59.425202,1709025359.4252024,-21.97265625,-1000.0,-20.01953125,-39.55078125,0.0,-1.0,1.0,0.0,1.m4v,2.0
2024-02-27 10:15:59.429107,1709025359.4291072,-22.4609375,-1000.0,-27.83203125,-46.38671875,0.0,-1.0,1.0,0.0,1.m4v,2.0
2024-02-27 10:15:59.433031,1709025359.4330308,-17.08984375,-1000.0,-38.0859375,-41.015625,0.0,-1.0,1.0,0.0,1.m4v,2.0
2024-02-27 10:15:59.436936,1709025359.4369357,-20.01953125,-1000.0,-30.76171875,-35.15625,0.0,-1.0,1.0,0.0,1.m4v,2.0
2024-02-27 10:15:59.440840,1709025359.4408402,-5.37109375,-947.75390625,-23.4375,-34.66796875,0.0,-1.0,1.0,0.0,1.m4v,2.0
2024-02-27 10:15:59.444745,1709025359.4447448,11.23046875,-1000.0,-31.25,-41.015625,0.0,-1.0,1.0,0.0,1.m4v,2.0
2024-02-27 10:15:59.448650,1709025359.4486496,-18.5546875,-929.6875,-31.73828125,-42.96875,0.0,-1.0,1.0,0.0,1.m4v,2.0
2024-02-27 10:15:59.452554,1709025359.4525542,-31.25,502.44140625,-22.94921875,-31.25,0.0,-1.0,1.0,0.0,1.m4v,2.0
2024-02-27 10:15:59.456459,1709025359.456459,-35.64453125,999.51171875,-20.5078125,-15.625,0.0,-1.0,1.0,0.0,1.m4v,2.0
2024-02-27 10:15:59.460364,1709025359.4603636,-35.64453125,895.5078125,-11.71875,-24.4140625,0.0,-1.0,1.0,0.0,1.m4v,2.0
2024-02-27 10:15:59.464268,1709025359.4642682,-32.2265625,983.88671875,-11.71875,-44.921875,0.0,-1.0,1.0,0.0,1.m4v,2.0
2024-02-27 10:15:59.468173,1709025359.468173,-42.48046875,969.7265625,-14.6484375,-26.85546875,0.0,-1.0,1.0,0.0,1.m4v,2.0
2024-02-27 10:15:59.472078,1709025359.4720776,-41.50390625,969.7265625,-8.7890625,-8.7890625,0.0,-1.0,1.0,0.0,1.m4v,2.0
2024-02-27 10:15:59.475982,1709025359.4759822,-53.7109375,969.7265625,-2.44140625,-55.6640625,0.0,-1.0,1.0,0.0,1.m4v,2.0
2024-02-27 10:15:59.479905,1709025359.4799054,-59.5703125,975.09765625,-6.34765625,-74.21875,0.0,-1.0,1.0,0.0,1.m4v,2.0
2024-02-27 10:15:59.483810,1709025359.48381,-49.31640625,954.58984375,-15.625,-56.640625,0.0,-1.0,1.0,0.0,1.m4v,2.0
2024-02-27 10:15:59.487715,1709025359.4877143,-41.9921875,938.96484375,-14.6484375,-61.03515625,0.0,-1.0,1.0,0.0,1.m4v,2.0
2024-02-27 10:15:59.491619,1709025359.491619,-41.50390625,999.51171875,-12.20703125,-68.84765625,0.0,-1.0,1.0,0.0,1.m4v,2.0
2024-02-27 10:15:59.495524,1709025359.495524,-46.875,2.44140625,-17.578125,-72.265625,0.0,-1.0,1.0,0.0,1.m4v,2.0
2024-02-27 10:15:59.499429,1709025359.4994287,-45.8984375,-1000.0,-17.08984375,-63.4765625,0.0,-1.0,1.0,0.0,1.m4v,2.0
2024-02-27 10:15:59.503333,1709025359.503333,-34.66796875,-973.14453125,-20.01953125,-51.26953125,0.0,-1.0,1.0,0.0,1.m4v,2.0
2024-02-27 10:15:59.507238,1709025359.507238,-38.0859375,-983.3984375,-29.78515625,-57.6171875,0.0,-1.0,1.0,0.0,1.m4v,2.0
2024-02-27 10:15:59.511143,1709025359.5111427,-39.0625,-1000.0,-30.2734375,-63.4765625,0.0,-1.0,1.0,0.0,1.m4v,2.0
2024-02-27 10:15:59.515047,1709025359.5150473,-37.59765625,-1000.0,-32.2265625,-50.78125,0.0,-1.0,1.0,0.0,1.m4v,2.0
2024-02-27 10:15:59.518952,1709025359.518952,-40.0390625,-1000.0,-28.80859375,-29.296875,0.0,-1.0,1.0,0.0,1.m4v,2.0
2024-02-27 10:15:59.522857,1709025359.5228567,-30.76171875,-1000.0,-30.2734375,-39.55078125,0.0,-1.0,1.0,0.0,1.m4v,2.0
2024-02-27 10:15:59.526779,1709025359.526779,-24.4140625,-1000.0,-29.296875,-49.31640625,0.0,-1.0,1.0,0.0,1.m4v,2.0
2024-02-27 10:15:59.530684,1709025359.5306835,-17.578125,-1000.0,-17.08984375,-30.76171875,0.0,-1.0,1.0,0.0,1.m4v,2.0
2024-02-27 10:15:59.534588,1709025359.5345883,-19.53125,-994.140625,-16.11328125,-35.64453125,0.0,-1.0,1.0,0.0,1.m4v,2.0
2024-02-27 10:15:59.538493,1709025359.538493,-20.01953125,-952.63671875,-9.27734375,-46.875,0.0,-1.0,1.0,0.0,1.m4v,2.0
2024-02-27 10:15:59.542397,1709025359.5423975,-6.8359375,-1000.0,-5.37109375,-41.015625,0.0,-1.0,1.0,0.0,1.m4v,2.0
2024-02-27 10:15:59.546302,1709025359.5463023,-16.11328125,-164.55078125,-9.765625,-39.0625,0.0,-1.0,1.0,0.0,1.m4v,2.0
2024-02-27 10:15:59.550207,1709025359.550207,-23.92578125,999.51171875,-6.8359375,-36.1328125,0.0,-1.0,1.0,0.0,1.m4v,2.0
2024-02-27 10:15:59.554112,1709025359.5541117,-22.94921875,955.078125,-8.7890625,-24.4140625,0.0,-1.0,1.0,0.0,1.m4v,2.0
2024-02-27 10:15:59.558016,1709025359.5580163,-20.01953125,944.82421875,-17.578125,-15.625,0.0,-1.0,1.0,0.0,1.m4v,2.0
2024-02-27 10:15:59.561921,1709025359.561921,-22.4609375,977.05078125,-19.04296875,-32.71484375,0.0,-1.0,1.0,0.0,1.m4v,2.0
2024-02-27 10:15:59.565826,1709025359.5658257,-29.78515625,969.7265625,-14.6484375,-49.8046875,0.0,-1.0,1.0,0.0,1.m4v,2.0
2024-02-27 10:15:59.569730,1709025359.5697303,-38.57421875,969.7265625,-18.06640625,-40.52734375,0.0,-1.0,1.0,0.0,1.m4v,2.0
2024-02-27 10:15:59.573658,1709025359.5736585,-45.8984375,969.7265625,-23.92578125,-24.90234375,0.0,-1.0,1.0,0.0,1.m4v,2.0
2024-02-27 10:15:59.577563,1709025359.5775633,-47.8515625,969.7265625,-26.3671875,-27.34375,0.0,-1.0,1.0,0.0,1.m4v,2.0
2024-02-27 10:15:59.581468,1709025359.581468,-41.50390625,969.7265625,-23.92578125,-35.15625,0.0,-1.0,1.0,0.0,1.m4v,2.0
2024-02-27 10:15:59.585372,1709025359.5853724,-42.48046875,969.7265625,-27.83203125,-38.0859375,0.0,-1.0,1.0,0.0,1.m4v,2.0
2024-02-27 10:15:59.589277,1709025359.5892773,-37.59765625,970.21484375,-31.25,-34.1796875,0.0,-1.0,1.0,0.0,1.m4v,2.0
2024-02-27 10:15:59.593182,1709025359.5931818,-32.71484375,969.7265625,-22.4609375,-23.92578125,0.0,-1.0,1.0,0.0,1.m4v,2.0
2024-02-27 10:15:59.597087,1709025359.597087,-52.24609375,969.7265625,-23.92578125,-42.48046875,0.0,-1.0,1.0,0.0,1.m4v,2.0
2024-02-27 10:15:59.600991,1709025359.6009912,-57.12890625,986.328125,-23.4375,-48.828125,0.0,-1.0,1.0,0.0,1.m4v,2.0
2024-02-27 10:15:59.604896,1709025359.6048958,-45.8984375,901.3671875,-19.53125,-40.0390625,0.0,-1.0,1.0,0.0,1.m4v,2.0
2024-02-27 10:15:59.608801,1709025359.6088006,-53.7109375,999.51171875,-31.73828125,-38.57421875,0.0,-1.0,1.0,0.0,1.m4v,2.0
2024-02-27 10:15:59.612705,1709025359.6127052,-49.8046875,679.6875,-35.64453125,-41.9921875,0.0,-1.0,1.0,0.0,1.m4v,2.0
2024-02-27 10:15:59.616610,1709025359.61661,-42.96875,-783.69140625,-36.62109375,-50.29296875,0.0,-1.0,1.0,0.0,1.m4v,2.0
2024-02-27 10:15:59.620531,1709025359.6205308,-62.5,-1000.0,-38.0859375,-43.9453125,0.0,-1.0,1.0,0.0,1.m4v,2.0
2024-02-27 10:15:59.624435,1709025359.6244354,-67.87109375,-935.546875,-41.015625,-43.45703125,0.0,-1.0,1.0,0.0,1.m4v,2.0
2024-02-27 10:15:59.628340,1709025359.62834,-58.10546875,-1000.0,-54.19921875,-50.78125,0.0,-1.0,1.0,0.0,1.m4v,2.0
2024-02-27 10:15:59.632245,1709025359.6322448,-45.41015625,-931.640625,-54.6875,-39.0625,0.0,-1.0,1.0,0.0,1.m4v,2.0
2024-02-27 10:15:59.636149,1709025359.6361494,-47.8515625,-1000.0,-48.828125,-22.4609375,0.0,-1.0,1.0,0.0,1.m4v,2.0
2024-02-27 10:15:59.640054,1709025359.640054,-42.48046875,-589.84375,-50.29296875,-34.66796875,0.0,-1.0,1.0,0.0,1.m4v,2.0
2024-02-27 10:15:59.643959,1709025359.6439588,-12.6953125,835.44921875,-45.41015625,-38.0859375,0.0,-1.0,1.0,0.0,1.m4v,2.0
2024-02-27 10:15:59.647863,1709025359.6478634,-30.76171875,999.51171875,-45.8984375,-29.296875,0.0,-1.0,1.0,0.0,1.m4v,2.0
2024-02-27 10:15:59.651768,1709025359.6517682,-51.26953125,913.0859375,-46.875,-19.04296875,0.0,-1.0,1.0,0.0,1.m4v,2.0
2024-02-27 10:15:59.655673,1709025359.6556728,-41.9921875,985.3515625,-49.31640625,-26.85546875,0.0,-1.0,1.0,0.0,1.m4v,2.0
2024-02-27 10:15:59.659577,1709025359.6595774,-32.71484375,969.7265625,-52.24609375,-39.55078125,0.0,-1.0,1.0,0.0,1.m4v,2.0
2024-02-27 10:15:59.663482,1709025359.6634822,-30.76171875,969.7265625,-45.8984375,-36.62109375,0.0,-1.0,1.0,0.0,1.m4v,2.0
2024-02-27 10:15:59.667408,1709025359.6674082,-45.41015625,969.7265625,-37.59765625,-29.78515625,0.0,-1.0,1.0,0.0,1.m4v,2.0
2024-02-27 10:15:59.671313,1709025359.6713128,-36.1328125,969.7265625,-36.62109375,-36.1328125,0.0,-1.0,1.0,0.0,1.m4v,2.0
2024-02-27 10:15:59.675217,1709025359.6752174,-33.203125,969.7265625,-36.62109375,-36.1328125,0.0,-1.0,1.0,0.0,1.m4v,2.0
2024-02-27 10:15:59.679122,1709025359.6791222,-44.43359375,969.7265625,-29.296875,-22.4609375,0.0,-1.0,1.0,0.0,1.m4v,2.0
2024-02-27 10:15:59.683027,1709025359.6830268,-47.36328125,986.328125,-24.90234375,-19.53125,0.0,-1.0,1.0,0.0,1.m4v,2.0
2024-02-27 10:15:59.686932,1709025359.6869316,-42.96875,910.64453125,-32.2265625,-23.92578125,0.0,-1.0,1.0,0.0,1.m4v,2.0
2024-02-27 10:15:59.690836,1709025359.6908362,-30.2734375,999.51171875,-41.015625,-30.2734375,0.0,-1.0,1.0,0.0,1.m4v,2.0
2024-02-27 10:15:59.694741,1709025359.6947408,-35.15625,848.14453125,-39.0625,-30.76171875,0.0,-1.0,1.0,0.0,1.m4v,2.0
2024-02-27 10:15:59.698646,1709025359.6986456,-46.875,-612.79296875,-31.25,-30.2734375,0.0,-1.0,1.0,0.0,1.m4v,2.0
2024-02-27 10:15:59.702550,1709025359.7025502,-21.97265625,-1000.0,-22.4609375,-34.1796875,0.0,-1.0,1.0,0.0,1.m4v,2.0
2024-02-27 10:15:59.706455,1709025359.706455,-10.7421875,-925.78125,-24.90234375,-41.50390625,0.0,-1.0,1.0,0.0,1.m4v,2.0
2024-02-27 10:15:59.710360,1709025359.7103596,-42.96875,-1000.0,-30.76171875,-37.59765625,0.0,-1.0,1.0,0.0,1.m4v,2.0
2024-02-27 10:15:59.714285,1709025359.714285,-53.7109375,-1000.0,-28.3203125,-34.66796875,0.0,-1.0,1.0,0.0,1.m4v,2.0
2024-02-27 10:15:59.718189,1709025359.7181897,-49.31640625,-1000.0,-27.83203125,-39.55078125,0.0,-1.0,1.0,0.0,1.m4v,2.0
2024-02-27 10:15:59.722094,1709025359.722094,-28.3203125,-1000.0,-21.97265625,-41.015625,0.0,-1.0,1.0,0.0,1.m4v,2.0
2024-02-27 10:15:59.725999,1709025359.7259989,-22.94921875,-984.375,-19.53125,-54.6875,0.0,-1.0,1.0,0.0,1.m4v,2.0
2024-02-27 10:15:59.729903,1709025359.7299037,-40.0390625,-969.7265625,-24.4140625,-62.5,0.0,-1.0,1.0,0.0,1.m4v,2.0
2024-02-27 10:15:59.733808,1709025359.733808,-40.52734375,-1000.0,-18.06640625,-55.6640625,0.0,-1.0,1.0,0.0,1.m4v,2.0
2024-02-27 10:15:59.737713,1709025359.7377129,-31.73828125,-20.01953125,-22.94921875,-48.33984375,0.0,-1.0,1.0,0.0,1.m4v,2.0
2024-02-27 10:15:59.741617,1709025359.7416174,-31.25,999.51171875,-27.34375,-44.921875,0.0,-1.0,1.0,0.0,1.m4v,2.0
2024-02-27 10:15:59.745522,1709025359.7455225,-28.80859375,939.94140625,-27.34375,-53.22265625,0.0,-1.0,1.0,0.0,1.m4v,2.0
2024-02-27 10:15:59.749427,1709025359.7494268,-22.4609375,954.1015625,-26.3671875,-42.96875,0.0,-1.0,1.0,0.0,1.m4v,2.0
2024-02-27 10:15:59.753331,1709025359.7533314,-29.296875,975.09765625,-15.13671875,-35.15625,0.0,-1.0,1.0,0.0,1.m4v,2.0
2024-02-27 10:15:59.757236,1709025359.7572362,-31.25,969.7265625,-12.20703125,-43.45703125,0.0,-1.0,1.0,0.0,1.m4v,2.0
2024-02-27 10:15:59.761161,1709025359.7611606,-24.4140625,969.7265625,-17.578125,-40.52734375,0.0,-1.0,1.0,0.0,1.m4v,2.0
2024-02-27 10:15:59.765065,1709025359.7650654,-21.484375,969.7265625,-20.01953125,-39.55078125,0.0,-1.0,1.0,0.0,1.m4v,2.0
2024-02-27 10:15:59.768970,1709025359.76897,-24.90234375,969.7265625,-21.97265625,-37.59765625,0.0,-1.0,1.0,0.0,1.m4v,2.0
2024-02-27 10:15:59.772875,1709025359.7728746,-21.484375,980.95703125,-23.4375,-29.78515625,0.0,-1.0,1.0,0.0,1.m4v,2.0
2024-02-27 10:15:59.776779,1709025359.7767794,-11.71875,929.6875,-20.01953125,-27.83203125,0.0,-1.0,1.0,0.0,1.m4v,2.0
2024-02-27 10:15:59.780684,1709025359.780684,-9.765625,980.95703125,-18.5546875,-33.69140625,0.0,-1.0,1.0,0.0,1.m4v,2.0
2024-02-27 10:15:59.784589,1709025359.7845888,-25.87890625,977.05078125,-17.578125,-29.296875,0.0,-1.0,1.0,0.0,1.m4v,2.0
2024-02-27 10:15:59.788493,1709025359.7884934,-47.36328125,-376.46484375,-19.04296875,-37.109375,0.0,-1.0,1.0,0.0,1.m4v,2.0
2024-02-27 10:15:59.792398,1709025359.792398,-53.7109375,-1000.0,-20.5078125,-32.71484375,0.0,-1.0,1.0,0.0,1.m4v,2.0
2024-02-27 10:15:59.796303,1709025359.7963028,-44.921875,-930.17578125,-23.92578125,-22.94921875,0.0,-1.0,1.0,0.0,1.m4v,2.0
2024-02-27 10:15:59.800207,1709025359.8002074,-50.29296875,-1000.0,-19.53125,-41.015625,0.0,-1.0,1.0,0.0,1.m4v,2.0
2024-02-27 10:15:59.804112,1709025359.804112,-38.57421875,-1000.0,-16.11328125,-47.8515625,0.0,-1.0,1.0,0.0,1.m4v,2.0
2024-02-27 10:15:59.808037,1709025359.8080366,-24.4140625,-1000.0,-27.83203125,-37.109375,0.0,-1.0,1.0,0.0,1.m4v,2.0
2024-02-27 10:15:59.811941,1709025359.8119411,-37.59765625,-1000.0,-32.2265625,-22.4609375,0.0,-1.0,1.0,0.0,1.m4v,2.0
2024-02-27 10:15:59.815846,1709025359.8158455,-44.43359375,-1000.0,-32.2265625,-40.0390625,0.0,-1.0,1.0,0.0,1.m4v,2.0
2024-02-27 10:15:59.819751,1709025359.8197503,-39.55078125,-930.17578125,-31.73828125,-50.29296875,0.0,-1.0,1.0,0.0,1.m4v,2.0
2024-02-27 10:15:59.823655,1709025359.8236551,-43.45703125,-1000.0,-25.390625,-41.50390625,0.0,-1.0,1.0,0.0,1.m4v,2.0
2024-02-27 10:15:59.827560,1709025359.82756,-56.15234375,-696.77734375,-22.4609375,-46.38671875,0.0,-1.0,1.0,0.0,1.m4v,2.0
2024-02-27 10:16:00.229911,1709025360.2299109,-12.6953125,969.7265625,-57.6171875,-11.23046875,0.0,-1.0,1.0,0.0,1.m4v,2.0
2024-02-27 10:16:00.233815,1709025360.2338154,-19.04296875,969.7265625,-59.08203125,-31.73828125,0.0,-1.0,1.0,0.0,1.m4v,2.0
2024-02-27 10:16:00.237720,1709025360.2377205,-26.85546875,969.7265625,-60.546875,-28.3203125,0.0,-1.0,1.0,0.0,1.m4v,2.0
2024-02-27 10:16:00.241625,1709025360.2416248,-33.69140625,976.5625,-56.640625,-20.5078125,0.0,-1.0,1.0,0.0,1.m4v,2.0
2024-02-27 10:16:00.245529,1709025360.2455294,-29.78515625,945.3125,-52.734375,-14.6484375,0.0,-1.0,1.0,0.0,1.m4v,2.0
2024-02-27 10:16:00.249434,1709025360.2494342,-18.06640625,951.171875,-53.7109375,-10.25390625,0.0,-1.0,1.0,0.0,1.m4v,2.0
2024-02-27 10:16:00.253339,1709025360.2533388,-14.6484375,999.51171875,-63.4765625,-32.71484375,0.0,-1.0,1.0,0.0,1.m4v,2.0
2024-02-27 10:16:00.257244,1709025360.2572436,-31.73828125,-162.109375,-64.453125,-54.19921875,0.0,-1.0,1.0,0.0,1.m4v,2.0
2024-02-27 10:16:00.261148,1709025360.2611482,-35.64453125,-1000.0,-57.12890625,-54.6875,0.0,-1.0,1.0,0.0,1.m4v,2.0
2024-02-27 10:16:00.265053,1709025360.2650528,-35.15625,-948.2421875,-46.38671875,-44.921875,0.0,-1.0,1.0,0.0,1.m4v,2.0
2024-02-27 10:16:00.268958,1709025360.2689576,-36.1328125,-996.09375,-36.1328125,-44.921875,0.0,-1.0,1.0,0.0,1.m4v,2.0
2024-02-27 10:16:00.272862,1709025360.2728622,-33.203125,-1000.0,-40.52734375,-42.48046875,0.0,-1.0,1.0,0.0,1.m4v,2.0
2024-02-27 10:16:00.276785,1709025360.276785,-50.29296875,-1000.0,-42.96875,-41.50390625,0.0,-1.0,1.0,0.0,1.m4v,2.0
2024-02-27 10:16:00.280689,1709025360.2806897,-61.03515625,-1000.0,-47.8515625,-42.48046875,0.0,-1.0,1.0,0.0,1.m4v,2.0
2024-02-27 10:16:00.284594,1709025360.284594,-51.7578125,-937.01171875,-50.29296875,-41.9921875,0.0,-1.0,1.0,0.0,1.m4v,2.0
2024-02-27 10:16:00.288499,1709025360.2884989,-29.78515625,-1000.0,-43.9453125,-45.8984375,0.0,-1.0,1.0,0.0,1.m4v,2.0
2024-02-27 10:16:00.292403,1709025360.2924037,-29.78515625,-795.8984375,-41.015625,-41.015625,0.0,-1.0,1.0,0.0,1.m4v,2.0
2024-02-27 10:16:00.296308,1709025360.2963085,-21.484375,663.57421875,-46.38671875,-28.80859375,0.0,-1.0,1.0,0.0,1.m4v,2.0
2024-02-27 10:16:00.300213,1709025360.3002129,-14.16015625,999.51171875,-55.6640625,-27.83203125,0.0,-1.0,1.0,0.0,1.m4v,2.0
2024-02-27 10:16:00.304117,1709025360.3041174,-36.1328125,899.90234375,-56.640625,-35.64453125,0.0,-1.0,1.0,0.0,1.m4v,2.0
2024-02-27 10:16:00.308022,1709025360.3080225,-42.48046875,986.328125,-45.41015625,-29.78515625,0.0,-1.0,1.0,0.0,1.m4v,2.0
2024-02-27 10:16:00.311927,1709025360.3119268,-36.1328125,969.7265625,-34.1796875,-9.765625,0.0,-1.0,1.0,0.0,1.m4v,2.0
2024-02-27 10:16:00.315832,1709025360.3158317,-34.1796875,969.7265625,-25.87890625,-10.7421875,0.0,-1.0,1.0,0.0,1.m4v,2.0
2024-02-27 10:16:00.319736,1709025360.3197362,-35.64453125,969.7265625,-21.484375,-34.66796875,0.0,-1.0,1.0,0.0,1.m4v,2.0
2024-02-27 10:16:00.323658,1709025360.323658,-22.4609375,969.7265625,-18.5546875,-40.0390625,0.0,-1.0,1.0,0.0,1.m4v,2.0
2024-02-27 10:16:00.327563,1709025360.3275628,-6.34765625,969.7265625,-18.5546875,-29.78515625,0.0,-1.0,1.0,0.0,1.m4v,2.0
2024-02-27 10:16:00.331467,1709025360.3314674,-14.6484375,969.7265625,-21.484375,-34.1796875,0.0,-1.0,1.0,0.0,1.m4v,2.0
2024-02-27 10:16:00.335372,1709025360.335372,-33.69140625,982.91015625,-17.08984375,-29.78515625,0.0,-1.0,1.0,0.0,1.m4v,2.0
2024-02-27 10:16:00.339277,1709025360.3392768,-33.69140625,923.828125,-16.11328125,-14.6484375,0.0,-1.0,1.0,0.0,1.m4v,2.0
2024-02-27 10:16:00.343181,1709025360.3431814,-30.2734375,994.62890625,-17.578125,-22.4609375,0.0,-1.0,1.0,0.0,1.m4v,2.0
2024-02-27 10:16:00.347086,1709025360.3470862,-44.43359375,942.3828125,-16.11328125,-35.64453125,0.0,-1.0,1.0,0.0,1.m4v,2.0
2024-02-27 10:16:00.350991,1709025360.3509908,-57.6171875,-451.171875,-22.4609375,-47.36328125,0.0,-1.0,1.0,0.0,1.m4v,2.0
2024-02-27 10:16:00.354895,1709025360.3548954,-56.640625,-1000.0,-20.99609375,-44.921875,0.0,-1.0,1.0,0.0,1.m4v,2.0
2024-02-27 10:16:00.358800,1709025360.3588002,-59.08203125,-927.734375,-15.625,-35.15625,0.0,-1.0,1.0,0.0,1.m4v,2.0
2024-02-27 10:16:00.362705,1709025360.3627048,-66.40625,-1000.0,-25.87890625,-37.59765625,0.0,-1.0,1.0,0.0,1.m4v,2.0
2024-02-27 10:16:00.366610,1709025360.3666096,-61.5234375,-1000.0,-29.296875,-25.87890625,0.0,-1.0,1.0,0.0,1.m4v,2.0
2024-02-27 10:16:00.370530,1709025360.3705304,-61.03515625,-1000.0,-24.90234375,-39.55078125,0.0,-1.0,1.0,0.0,1.m4v,2.0
2024-02-27 10:16:00.374435,1709025360.3744352,-54.6875,-1000.0,-24.90234375,-62.01171875,0.0,-1.0,1.0,0.0,1.m4v,2.0
2024-02-27 10:16:00.378340,1709025360.3783398,-52.734375,-995.60546875,-21.484375,-50.29296875,0.0,-1.0,1.0,0.0,1.m4v,2.0
2024-02-27 10:16:00.382245,1709025360.3822446,-56.15234375,-951.171875,-20.01953125,-36.62109375,0.0,-1.0,1.0,0.0,1.m4v,2.0
2024-02-27 10:16:00.386149,1709025360.3861492,-55.6640625,-1000.0,-24.90234375,-41.9921875,0.0,-1.0,1.0,0.0,1.m4v,2.0
2024-02-27 10:16:00.390054,1709025360.3900535,-61.03515625,-197.265625,-21.97265625,-47.36328125,0.0,-1.0,1.0,0.0,1.m4v,2.0
2024-02-27 10:16:00.393959,1709025360.3939586,-56.640625,999.51171875,-20.5078125,-40.52734375,0.0,-1.0,1.0,0.0,1.m4v,2.0
2024-02-27 10:16:00.397863,1709025360.3978631,-66.89453125,960.9375,-26.3671875,-35.15625,0.0,-1.0,1.0,0.0,1.m4v,2.0
2024-02-27 10:16:00.401768,1709025360.401768,-73.2421875,942.3828125,-33.69140625,-29.78515625,0.0,-1.0,1.0,0.0,1.m4v,2.0
2024-02-27 10:16:00.405673,1709025360.4056726,-45.41015625,978.02734375,-38.57421875,-32.2265625,0.0,-1.0,1.0,0.0,1.m4v,2.0
2024-02-27 10:16:00.409577,1709025360.4095774,-46.38671875,969.7265625,-44.921875,-41.9921875,0.0,-1.0,1.0,0.0,1.m4v,2.0
2024-02-27 10:16:00.413482,1709025360.413482,-60.546875,969.7265625,-51.26953125,-28.3203125,0.0,-1.0,1.0,0.0,1.m4v,2.0
2024-02-27 10:16:00.417403,1709025360.4174027,-62.01171875,969.7265625,-45.8984375,-22.94921875,0.0,-1.0,1.0,0.0,1.m4v,2.0
2024-02-27 10:16:00.421307,1709025360.421307,-82.03125,970.21484375,-42.96875,-54.19921875,0.0,-1.0,1.0,0.0,1.m4v,2.0
2024-02-27 10:16:00.425212,1709025360.425212,-80.078125,967.28515625,-42.48046875,-46.38671875,0.0,-1.0,1.0,0.0,1.m4v,2.0
2024-02-27 10:16:00.429117,1709025360.4291167,-56.640625,976.5625,-40.0390625,-19.53125,0.0,-1.0,1.0,0.0,1.m4v,2.0
2024-02-27 10:16:00.433022,1709025360.4330215,-73.2421875,963.8671875,-41.9921875,-59.5703125,0.0,-1.0,1.0,0.0,1.m4v,2.0
2024-02-27 10:16:00.436926,1709025360.436926,-79.1015625,872.55859375,-42.96875,-70.80078125,0.0,-1.0,1.0,0.0,1.m4v,2.0
2024-02-27 10:16:00.440831,1709025360.440831,-50.78125,999.51171875,-35.15625,-40.52734375,0.0,-1.0,1.0,0.0,1.m4v,2.0
2024-02-27 10:16:00.444736,1709025360.4447355,-66.40625,508.7890625,-35.15625,-44.43359375,0.0,-1.0,1.0,0.0,1.m4v,2.0
2024-02-27 10:16:00.448640,1709025360.44864,-68.359375,-891.11328125,-42.96875,-66.40625,0.0,-1.0,1.0,0.0,1.m4v,2.0
2024-02-27 10:16:00.452545,1709025360.452545,-60.05859375,-1000.0,-40.0390625,-60.05859375,0.0,-1.0,1.0,0.0,1.m4v,2.0
2024-02-27 10:16:00.456450,1709025360.4564495,-77.1484375,-947.265625,-34.1796875,-45.8984375,0.0,-1.0,1.0,0.0,1.m4v,2.0
2024-02-27 10:16:00.460354,1709025360.4603543,-68.359375,-1000.0,-33.69140625,-34.66796875,0.0,-1.0,1.0,0.0,1.m4v,2.0
2024-02-27 10:16:00.464280,1709025360.4642797,-48.828125,-940.91796875,-32.2265625,-37.59765625,0.0,-1.0,1.0,0.0,1.m4v,2.0
2024-02-27 10:16:00.468184,1709025360.4681842,-44.921875,-1000.0,-32.71484375,-43.9453125,0.0,-1.0,1.0,0.0,1.m4v,2.0
2024-02-27 10:16:00.472089,1709025360.472089,-44.43359375,-872.55859375,-36.1328125,-42.96875,0.0,-1.0,1.0,0.0,1.m4v,2.0
2024-02-27 10:16:00.475994,1709025360.4759936,-37.109375,589.35546875,-40.52734375,-39.55078125,0.0,-1.0,1.0,0.0,1.m4v,2.0
2024-02-27 10:16:00.479898,1709025360.4798982,-19.53125,999.51171875,-42.96875,-28.3203125,0.0,-1.0,1.0,0.0,1.m4v,2.0
2024-02-27 10:16:00.483803,1709025360.483803,-18.06640625,895.99609375,-34.66796875,-26.85546875,0.0,-1.0,1.0,0.0,1.m4v,2.0
2024-02-27 10:16:00.487708,1709025360.4877076,-23.4375,985.83984375,-29.296875,-41.50390625,0.0,-1.0,1.0,0.0,1.m4v,2.0
2024-02-27 10:16:00.491612,1709025360.4916124,-30.76171875,969.7265625,-26.85546875,-58.59375,0.0,-1.0,1.0,0.0,1.m4v,2.0
2024-02-27 10:16:00.495517,1709025360.495517,-42.48046875,969.7265625,-30.2734375,-61.03515625,0.0,-1.0,1.0,0.0,1.m4v,2.0
2024-02-27 10:16:00.499422,1709025360.4994216,-39.55078125,969.7265625,-41.015625,-48.33984375,0.0,-1.0,1.0,0.0,1.m4v,2.0
2024-02-27 10:16:00.503326,1709025360.5033264,-28.80859375,969.7265625,-48.33984375,-39.55078125,0.0,-1.0,1.0,0.0,1.m4v,2.0
2024-02-27 10:16:00.507231,1709025360.507231,-26.3671875,969.7265625,-37.59765625,-48.33984375,0.0,-1.0,1.0,0.0,1.m4v,2.0
2024-02-27 10:16:00.511156,1709025360.5111556,-16.6015625,969.7265625,-36.1328125,-41.9921875,0.0,-1.0,1.0,0.0,1.m4v,2.0
2024-02-27 10:16:00.515060,1709025360.5150602,-11.71875,969.7265625,-40.52734375,-22.94921875,0.0,-1.0,1.0,0.0,1.m4v,2.0
2024-02-27 10:16:00.518965,1709025360.518965,-8.7890625,969.7265625,-37.59765625,-20.5078125,0.0,-1.0,1.0,0.0,1.m4v,2.0
2024-02-27 10:16:00.522870,1709025360.5228696,-17.08984375,970.21484375,-38.0859375,-38.0859375,0.0,-1.0,1.0,0.0,1.m4v,2.0
2024-02-27 10:16:00.526774,1709025360.5267742,-28.80859375,984.86328125,-27.34375,-48.33984375,0.0,-1.0,1.0,0.0,1.m4v,2.0
2024-02-27 10:16:00.530679,1709025360.530679,-19.53125,900.87890625,-22.94921875,-40.0390625,0.0,-1.0,1.0,0.0,1.m4v,2.0
2024-02-27 10:16:00.534584,1709025360.5345836,-9.27734375,999.51171875,-31.25,-38.57421875,0.0,-1.0,1.0,0.0,1.m4v,2.0
2024-02-27 10:16:00.538488,1709025360.5384884,-16.11328125,629.8828125,-39.55078125,-20.5078125,0.0,-1.0,1.0,0.0,1.m4v,2.0
2024-02-27 10:16:00.542393,1709025360.542393,-38.57421875,-820.3125,-43.45703125,-13.671875,0.0,-1.0,1.0,0.0,1.m4v,2.0
2024-02-27 10:16:00.546298,1709025360.5462976,-39.0625,-1000.0,-38.57421875,-42.48046875,0.0,-1.0,1.0,0.0,1.m4v,2.0
2024-02-27 10:16:00.550202,1709025360.5502024,-41.015625,-938.4765625,-35.64453125,-56.640625,0.0,-1.0,1.0,0.0,1.m4v,2.0
2024-02-27 10:16:00.554107,1709025360.554107,-45.41015625,-1000.0,-34.66796875,-43.9453125,0.0,-1.0,1.0,0.0,1.m4v,2.0
2024-02-27 10:16:00.558031,1709025360.5580308,-41.9921875,-1000.0,-35.15625,-36.62109375,0.0,-1.0,1.0,0.0,1.m4v,2.0
2024-02-27 10:16:00.561935,1709025360.5619354,-39.55078125,-1000.0,-44.921875,-42.96875,0.0,-1.0,1.0,0.0,1.m4v,2.0
2024-02-27 10:16:00.565840,1709025360.56584,-27.83203125,-986.328125,-49.31640625,-42.48046875,0.0,-1.0,1.0,0.0,1.m4v,2.0
2024-02-27 10:16:00.569745,1709025360.5697448,-35.64453125,-964.35546875,-36.62109375,-43.45703125,0.0,-1.0,1.0,0.0,1.m4v,2.0
2024-02-27 10:16:00.573649,1709025360.5736494,-45.41015625,-1000.0,-31.25,-40.52734375,0.0,-1.0,1.0,0.0,1.m4v,2.0
2024-02-27 10:16:00.577554,1709025360.5775542,-24.90234375,-29.296875,-34.1796875,-24.4140625,0.0,-1.0,1.0,0.0,1.m4v,2.0
2024-02-27 10:16:00.581459,1709025360.5814588,-23.4375,999.51171875,-30.76171875,-20.99609375,0.0,-1.0,1.0,0.0,1.m4v,2.0
2024-02-27 10:16:00.585363,1709025360.5853634,-38.57421875,936.5234375,-33.69140625,-33.203125,0.0,-1.0,1.0,0.0,1.m4v,2.0
2024-02-27 10:16:00.589268,1709025360.5892682,-41.50390625,954.58984375,-35.64453125,-31.25,0.0,-1.0,1.0,0.0,1.m4v,2.0
2024-02-27 10:16:00.593173,1709025360.5931728,-37.59765625,974.609375,-30.76171875,-35.64453125,0.0,-1.0,1.0,0.0,1.m4v,2.0
2024-02-27 10:16:00.597078,1709025360.5970776,-32.2265625,969.7265625,-28.3203125,-28.3203125,0.0,-1.0,1.0,0.0,1.m4v,2.0
2024-02-27 10:16:00.600982,1709025360.6009822,-35.64453125,969.7265625,-33.203125,-4.39453125,0.0,-1.0,1.0,0.0,1.m4v,2.0
2024-02-27 10:16:00.604905,1709025360.6049051,-21.97265625,969.7265625,-40.0390625,-23.4375,0.0,-1.0,1.0,0.0,1.m4v,2.0
2024-02-27 10:16:00.608810,1709025360.60881,-20.99609375,969.7265625,-38.57421875,-46.38671875,0.0,-1.0,1.0,0.0,1.m4v,2.0
2024-02-27 10:16:00.612715,1709025360.6127143,-27.83203125,969.7265625,-31.73828125,-35.64453125,0.0,-1.0,1.0,0.0,1.m4v,2.0
2024-02-27 10:16:00.616619,1709025360.616619,-28.3203125,972.16796875,-23.92578125,-38.0859375,0.0,-1.0,1.0,0.0,1.m4v,2.0
2024-02-27 10:16:00.620524,1709025360.620524,-37.59765625,967.28515625,-25.390625,-41.015625,0.0,-1.0,1.0,0.0,1.m4v,2.0
2024-02-27 10:16:00.624429,1709025360.6244285,-33.203125,917.48046875,-28.80859375,-30.76171875,0.0,-1.0,1.0,0.0,1.m4v,2.0
2024-02-27 10:16:00.628333,1709025360.628333,-38.0859375,999.51171875,-26.85546875,-30.2734375,0.0,-1.0,1.0,0.0,1.m4v,2.0
2024-02-27 10:16:00.632238,1709025360.632238,-69.3359375,211.42578125,-23.92578125,-42.48046875,0.0,-1.0,1.0,0.0,1.m4v,2.0
2024-02-27 10:16:00.636142,1709025360.6361425,-74.70703125,-1000.0,-20.01953125,-46.875,0.0,-1.0,1.0,0.0,1.m4v,2.0
2024-02-27 10:16:00.640047,1709025360.6400473,-56.15234375,-998.53515625,-19.04296875,-43.45703125,0.0,-1.0,1.0,0.0,1.m4v,2.0
2024-02-27 10:16:00.643952,1709025360.643952,-51.26953125,-969.23828125,-31.73828125,-45.41015625,0.0,-1.0,1.0,0.0,1.m4v,2.0
2024-02-27 10:16:00.647857,1709025360.6478567,-41.015625,-1000.0,-38.57421875,-41.50390625,0.0,-1.0,1.0,0.0,1.m4v,2.0
2024-02-27 10:16:00.651779,1709025360.6517794,-47.36328125,-1000.0,-31.25,-45.41015625,0.0,-1.0,1.0,0.0,1.m4v,2.0
2024-02-27 10:16:00.655684,1709025360.6556842,-54.6875,-1000.0,-36.1328125,-52.24609375,0.0,-1.0,1.0,0.0,1.m4v,2.0
2024-02-27 10:16:00.659589,1709025360.6595888,-51.26953125,-1000.0,-43.45703125,-37.59765625,0.0,-1.0,1.0,0.0,1.m4v,2.0
2024-02-27 10:16:00.663494,1709025360.6634936,-41.015625,-930.17578125,-31.73828125,-30.2734375,0.0,-1.0,1.0,0.0,1.m4v,2.0
2024-02-27 10:16:00.667398,1709025360.6673982,-27.83203125,-1000.0,-30.2734375,-30.2734375,0.0,-1.0,1.0,0.0,1.m4v,2.0
2024-02-27 10:16:00.671303,1709025360.671303,-39.0625,-719.7265625,-33.69140625,-40.52734375,0.0,-1.0,1.0,0.0,1.m4v,2.0
2024-02-27 10:16:00.675208,1709025360.6752076,-62.01171875,755.859375,-33.69140625,-46.38671875,0.0,-1.0,1.0,0.0,1.m4v,2.0
2024-02-27 10:16:00.679112,1709025360.6791122,-61.5234375,999.51171875,-32.2265625,-41.9921875,0.0,-1.0,1.0,0.0,1.m4v,2.0
2024-02-27 10:16:00.683017,1709025360.683017,-45.8984375,903.3203125,-35.64453125,-47.36328125,0.0,-1.0,1.0,0.0,1.m4v,2.0
2024-02-27 10:16:00.686922,1709025360.6869216,-53.22265625,987.3046875,-41.015625,-45.41015625,0.0,-1.0,1.0,0.0,1.m4v,2.0
2024-02-27 10:16:00.690826,1709025360.6908264,-69.3359375,969.7265625,-37.59765625,-42.48046875,0.0,-1.0,1.0,0.0,1.m4v,2.0
2024-02-27 10:16:00.694731,1709025360.694731,-61.03515625,969.7265625,-34.66796875,-58.59375,0.0,-1.0,1.0,0.0,1.m4v,2.0
2024-02-27 10:16:00.698653,1709025360.6986525,-47.8515625,969.7265625,-33.203125,-51.26953125,0.0,-1.0,1.0,0.0,1.m4v,2.0
2024-02-27 10:16:00.702557,1709025360.702557,-39.55078125,969.7265625,-33.69140625,-39.0625,0.0,-1.0,1.0,0.0,1.m4v,2.0
2024-02-27 10:16:00.706462,1709025360.706462,-41.9921875,969.7265625,-39.55078125,-41.015625,0.0,-1.0,1.0,0.0,1.m4v,2.0
2024-02-27 10:16:00.710366,1709025360.7103665,-51.7578125,969.7265625,-38.0859375,-26.85546875,0.0,-1.0,1.0,0.0,1.m4v,2.0
2024-02-27 10:16:00.714271,1709025360.7142713,-55.6640625,984.375,-31.73828125,-22.94921875,0.0,-1.0,1.0,0.0,1.m4v,2.0
2024-02-27 10:16:00.718176,1709025360.718176,-50.78125,917.96875,-35.15625,-33.69140625,0.0,-1.0,1.0,0.0,1.m4v,2.0
2024-02-27 10:16:00.722080,1709025360.7220805,-46.38671875,999.51171875,-39.55078125,-34.1796875,0.0,-1.0,1.0,0.0,1.m4v,2.0
2024-02-27 10:16:00.725985,1709025360.7259853,-32.71484375,903.80859375,-47.8515625,-40.0390625,0.0,-1.0,1.0,0.0,1.m4v,2.0
2024-02-27 10:16:00.729890,1709025360.72989,-35.64453125,-525.390625,-41.9921875,-44.921875,0.0,-1.0,1.0,0.0,1.m4v,2.0
2024-02-27 10:16:00.733795,1709025360.7337947,-51.7578125,-1000.0,-34.66796875,-38.0859375,0.0,-1.0,1.0,0.0,1.m4v,2.0
2024-02-27 10:16:00.737699,1709025360.7376993,-44.43359375,-925.78125,-38.57421875,-31.25,0.0,-1.0,1.0,0.0,1.m4v,2.0
2024-02-27 10:16:00.741604,1709025360.741604,-41.9921875,-1000.0,-38.0859375,-41.50390625,0.0,-1.0,1.0,0.0,1.m4v,2.0
2024-02-27 10:16:00.745525,1709025360.745525,-39.55078125,-1000.0,-42.96875,-48.33984375,0.0,-1.0,1.0,0.0,1.m4v,2.0
2024-02-27 10:16:00.749429,1709025360.7494297,-39.55078125,-1000.0,-42.48046875,-44.43359375,0.0,-1.0,1.0,0.0,1.m4v,2.0
2024-02-27 10:16:00.753334,1709025360.7533343,-44.921875,-1000.0,-38.57421875,-45.8984375,0.0,-1.0,1.0,0.0,1.m4v,2.0
2024-02-27 10:16:00.757239,1709025360.7572389,-49.31640625,-932.12890625,-44.43359375,-47.8515625,0.0,-1.0,1.0,0.0,1.m4v,2.0
2024-02-27 10:16:00.761143,1709025360.7611434,-57.6171875,-1000.0,-45.8984375,-42.48046875,0.0,-1.0,1.0,0.0,1.m4v,2.0
2024-02-27 10:16:00.765048,1709025360.7650485,-37.109375,-741.69921875,-51.7578125,-49.8046875,0.0,-1.0,1.0,0.0,1.m4v,2.0
2024-02-27 10:16:00.768953,1709025360.7689528,-27.83203125,730.46875,-56.640625,-50.78125,0.0,-1.0,1.0,0.0,1.m4v,2.0
2024-02-27 10:16:00.772858,1709025360.7728577,-35.64453125,999.51171875,-48.828125,-45.41015625,0.0,-1.0,1.0,0.0,1.m4v,2.0
2024-02-27 10:16:00.776762,1709025360.7767622,-25.390625,902.34375,-40.0390625,-56.15234375,0.0,-1.0,1.0,0.0,1.m4v,2.0
2024-02-27 10:16:00.780667,1709025360.7806668,-44.43359375,986.81640625,-39.55078125,-57.6171875,0.0,-1.0,1.0,0.0,1.m4v,2.0
2024-02-27 10:16:00.784572,1709025360.7845716,-44.43359375,969.7265625,-46.875,-46.38671875,0.0,-1.0,1.0,0.0,1.m4v,2.0
2024-02-27 10:16:00.788476,1709025360.7884762,-38.0859375,969.7265625,-52.24609375,-41.50390625,0.0,-1.0,1.0,0.0,1.m4v,2.0
2024-02-27 10:16:00.792396,1709025360.7923958,-43.45703125,969.7265625,-49.31640625,-41.50390625,0.0,-1.0,1.0,0.0,1.m4v,2.0
2024-02-27 10:16:00.796300,1709025360.7963004,-41.9921875,969.7265625,-53.22265625,-48.33984375,0.0,-1.0,1.0,0.0,1.m4v,2.0
2024-02-27 10:16:00.800205,1709025360.8002052,-58.59375,969.7265625,-64.94140625,-61.5234375,0.0,-1.0,1.0,0.0,1.m4v,2.0
2024-02-27 10:16:00.804110,1709025360.8041098,-66.89453125,973.6328125,-62.01171875,-65.91796875,0.0,-1.0,1.0,0.0,1.m4v,2.0
2024-02-27 10:16:00.808014,1709025360.8080144,-49.31640625,959.47265625,-52.734375,-51.26953125,0.0,-1.0,1.0,0.0,1.m4v,2.0
2024-02-27 10:16:00.811919,1709025360.8119192,-41.50390625,929.19921875,-56.15234375,-42.48046875,0.0,-1.0,1.0,0.0,1.m4v,2.0
2024-02-27 10:16:01.261147,1709025361.2611475,-40.52734375,982.91015625,-15.625,-39.55078125,0.0,-1.0,1.0,0.0,1.m4v,2.0
2024-02-27 10:16:01.265052,1709025361.2650523,-32.2265625,922.8515625,-6.8359375,-31.73828125,0.0,-1.0,1.0,0.0,1.m4v,2.0
2024-02-27 10:16:01.268957,1709025361.268957,-31.25,997.0703125,-5.859375,-45.8984375,0.0,-1.0,1.0,0.0,1.m4v,2.0
2024-02-27 10:16:01.272862,1709025361.2728617,-31.25,935.05859375,-5.37109375,-49.8046875,0.0,-1.0,1.0,0.0,1.m4v,2.0
2024-02-27 10:16:01.276766,1709025361.2767663,-52.734375,-463.8671875,1.46484375,-42.96875,0.0,-1.0,1.0,0.0,1.m4v,2.0
2024-02-27 10:16:01.280671,1709025361.280671,-57.6171875,-1000.0,0.9765625,-39.55078125,0.0,-1.0,1.0,0.0,1.m4v,2.0
2024-02-27 10:16:01.284576,1709025361.2845757,-33.203125,-927.24609375,-4.39453125,-36.62109375,0.0,-1.0,1.0,0.0,1.m4v,2.0
2024-02-27 10:16:01.288480,1709025361.2884803,-39.0625,-1000.0,-6.8359375,-39.55078125,0.0,-1.0,1.0,0.0,1.m4v,2.0
2024-02-27 10:16:01.292385,1709025361.292385,-73.2421875,-1000.0,-14.6484375,-41.9921875,0.0,-1.0,1.0,0.0,1.m4v,2.0
2024-02-27 10:16:01.296290,1709025361.2962897,-82.51953125,-1000.0,-18.06640625,-31.73828125,0.0,-1.0,1.0,0.0,1.m4v,2.0
2024-02-27 10:16:01.300194,1709025361.3001945,-76.66015625,-1000.0,-18.5546875,-25.87890625,0.0,-1.0,1.0,0.0,1.m4v,2.0
2024-02-27 10:16:01.304099,1709025361.304099,-62.98828125,-944.3359375,-26.3671875,-41.015625,0.0,-1.0,1.0,0.0,1.m4v,2.0
2024-02-27 10:16:01.308023,1709025361.3080237,-65.91796875,-1000.0,-36.62109375,-53.7109375,0.0,-1.0,1.0,0.0,1.m4v,2.0
2024-02-27 10:16:01.311928,1709025361.311928,-81.0546875,-903.80859375,-34.1796875,-51.7578125,0.0,-1.0,1.0,0.0,1.m4v,2.0
2024-02-27 10:16:01.315833,1709025361.3158329,-77.63671875,546.38671875,-29.296875,-39.55078125,0.0,-1.0,1.0,0.0,1.m4v,2.0
2024-02-27 10:16:01.319737,1709025361.3197374,-68.359375,999.51171875,-27.83203125,-27.34375,0.0,-1.0,1.0,0.0,1.m4v,2.0
2024-02-27 10:16:01.323642,1709025361.3236425,-53.7109375,895.01953125,-25.87890625,1.46484375,0.0,-1.0,1.0,0.0,1.m4v,2.0
2024-02-27 10:16:01.327547,1709025361.3275468,-52.24609375,985.3515625,-42.48046875,-12.6953125,0.0,-1.0,1.0,0.0,1.m4v,2.0
2024-02-27 10:16:01.331451,1709025361.3314514,-65.91796875,970.21484375,-57.12890625,-59.08203125,0.0,-1.0,1.0,0.0,1.m4v,2.0
2024-02-27 10:16:01.335356,1709025361.3353562,-61.5234375,970.21484375,-48.828125,-51.26953125,0.0,-1.0,1.0,0.0,1.m4v,2.0
2024-02-27 10:16:01.339261,1709025361.3392608,-53.22265625,969.7265625,-43.45703125,-24.4140625,0.0,-1.0,1.0,0.0,1.m4v,2.0
2024-02-27 10:16:01.343166,1709025361.3431656,-53.7109375,969.7265625,-43.9453125,-26.3671875,0.0,-1.0,1.0,0.0,1.m4v,2.0
2024-02-27 10:16:01.347070,1709025361.3470702,-52.24609375,970.21484375,-44.43359375,-36.1328125,0.0,-1.0,1.0,0.0,1.m4v,2.0
2024-02-27 10:16:01.350975,1709025361.3509748,-49.31640625,969.7265625,-42.96875,-32.71484375,0.0,-1.0,1.0,0.0,1.m4v,2.0
2024-02-27 10:16:01.354904,1709025361.3549037,-44.921875,969.7265625,-39.0625,-26.85546875,0.0,-1.0,1.0,0.0,1.m4v,2.0
2024-02-27 10:16:01.358808,1709025361.3588085,-27.34375,969.7265625,-36.1328125,-18.5546875,0.0,-1.0,1.0,0.0,1.m4v,2.0
2024-02-27 10:16:01.362713,1709025361.362713,-44.43359375,969.7265625,-40.52734375,-11.71875,0.0,-1.0,1.0,0.0,1.m4v,2.0
2024-02-27 10:16:01.366618,1709025361.3666177,-63.4765625,969.7265625,-45.41015625,-15.625,0.0,-1.0,1.0,0.0,1.m4v,2.0
2024-02-27 10:16:01.370522,1709025361.3705225,-45.41015625,969.7265625,-36.1328125,-22.94921875,0.0,-1.0,1.0,0.0,1.m4v,2.0
2024-02-27 10:16:01.374427,1709025361.374427,-34.1796875,986.328125,-29.296875,-23.92578125,0.0,-1.0,1.0,0.0,1.m4v,2.0
2024-02-27 10:16:01.378332,1709025361.3783317,-22.94921875,905.76171875,-26.85546875,-13.18359375,0.0,-1.0,1.0,0.0,1.m4v,2.0
2024-02-27 10:16:01.382236,1709025361.3822365,-18.06640625,999.51171875,-25.390625,-7.8125,0.0,-1.0,1.0,0.0,1.m4v,2.0
2024-02-27 10:16:01.386141,1709025361.386141,-22.4609375,769.53125,-29.296875,-30.2734375,0.0,-1.0,1.0,0.0,1.m4v,2.0
2024-02-27 10:16:01.390046,1709025361.390046,-14.16015625,-694.82421875,-30.2734375,-33.69140625,0.0,-1.0,1.0,0.0,1.m4v,2.0
2024-02-27 10:16:01.393950,1709025361.3939505,-3.41796875,-1000.0,-21.484375,-28.80859375,0.0,-1.0,1.0,0.0,1.m4v,2.0
2024-02-27 10:16:01.397855,1709025361.397855,2.9296875,-930.17578125,-18.06640625,-35.64453125,0.0,-1.0,1.0,0.0,1.m4v,2.0
2024-02-27 10:16:01.401778,1709025361.4017775,0.9765625,-1000.0,-26.3671875,-31.73828125,0.0,-1.0,1.0,0.0,1.m4v,2.0
2024-02-27 10:16:01.405682,1709025361.405682,4.8828125,-1000.0,-27.34375,-35.64453125,0.0,-1.0,1.0,0.0,1.m4v,2.0
2024-02-27 10:16:01.409587,1709025361.409587,-10.25390625,-975.5859375,-23.4375,-30.2734375,0.0,-1.0,1.0,0.0,1.m4v,2.0
2024-02-27 10:16:01.413491,1709025361.4134915,-27.34375,-981.93359375,-21.484375,-28.3203125,0.0,-1.0,1.0,0.0,1.m4v,2.0
2024-02-27 10:16:01.417396,1709025361.4173963,-12.6953125,-1000.0,-19.53125,-26.85546875,0.0,-1.0,1.0,0.0,1.m4v,2.0
2024-02-27 10:16:01.421301,1709025361.421301,0.48828125,138.18359375,-20.99609375,-16.11328125,0.0,-1.0,1.0,0.0,1.m4v,2.0
2024-02-27 10:16:01.425205,1709025361.4252057,-15.625,999.51171875,-32.2265625,-22.94921875,0.0,-1.0,1.0,0.0,1.m4v,2.0
2024-02-27 10:16:01.429110,1709025361.4291103,-20.5078125,916.9921875,-30.76171875,-34.66796875,0.0,-1.0,1.0,0.0,1.m4v,2.0
2024-02-27 10:16:01.433015,1709025361.4330149,-10.7421875,965.8203125,-27.34375,-35.64453125,0.0,-1.0,1.0,0.0,1.m4v,2.0
2024-02-27 10:16:01.436920,1709025361.4369197,-12.6953125,971.6796875,-36.62109375,-13.671875,0.0,-1.0,1.0,0.0,1.m4v,2.0
2024-02-27 10:16:01.440824,1709025361.4408245,-13.671875,969.7265625,-31.25,-1.953125,0.0,-1.0,1.0,0.0,1.m4v,2.0
2024-02-27 10:16:01.444729,1709025361.4447289,-13.671875,969.7265625,-31.73828125,-30.76171875,0.0,-1.0,1.0,0.0,1.m4v,2.0
2024-02-27 10:16:01.448656,1709025361.4486563,-9.27734375,969.7265625,-39.55078125,-36.1328125,0.0,-1.0,1.0,0.0,1.m4v,2.0
2024-02-27 10:16:01.452561,1709025361.452561,-8.7890625,969.7265625,-40.0390625,-35.15625,0.0,-1.0,1.0,0.0,1.m4v,2.0
2024-02-27 10:16:01.456466,1709025361.4564655,-23.4375,969.7265625,-41.9921875,-26.3671875,0.0,-1.0,1.0,0.0,1.m4v,2.0
2024-02-27 10:16:01.460370,1709025361.4603703,-23.4375,984.86328125,-36.62109375,-18.06640625,0.0,-1.0,1.0,0.0,1.m4v,2.0
2024-02-27 10:16:01.464275,1709025361.4642751,-4.39453125,917.48046875,-27.83203125,-32.71484375,0.0,-1.0,1.0,0.0,1.m4v,2.0
2024-02-27 10:16:01.468180,1709025361.4681797,1.953125,999.51171875,-31.25,-23.92578125,0.0,-1.0,1.0,0.0,1.m4v,2.0
2024-02-27 10:16:01.472085,1709025361.4720843,-1.46484375,903.3203125,-37.59765625,-20.99609375,0.0,-1.0,1.0,0.0,1.m4v,2.0
2024-02-27 10:16:01.475989,1709025361.475989,-14.16015625,-526.3671875,-41.015625,-51.26953125,0.0,-1.0,1.0,0.0,1.m4v,2.0
2024-02-27 10:16:01.479894,1709025361.4798937,-13.18359375,-1000.0,-40.52734375,-52.734375,0.0,-1.0,1.0,0.0,1.m4v,2.0
2024-02-27 10:16:01.483799,1709025361.4837985,-17.08984375,-925.78125,-36.1328125,-45.8984375,0.0,-1.0,1.0,0.0,1.m4v,2.0
2024-02-27 10:16:01.487703,1709025361.487703,-19.04296875,-1000.0,-31.25,-46.875,0.0,-1.0,1.0,0.0,1.m4v,2.0
2024-02-27 10:16:01.491608,1709025361.491608,-13.671875,-1000.0,-32.2265625,-35.64453125,0.0,-1.0,1.0,0.0,1.m4v,2.0
2024-02-27 10:16:01.495529,1709025361.4955292,-14.16015625,-1000.0,-28.3203125,-23.4375,0.0,-1.0,1.0,0.0,1.m4v,2.0
2024-02-27 10:16:01.499434,1709025361.4994338,-24.4140625,-1000.0,-29.78515625,-33.69140625,0.0,-1.0,1.0,0.0,1.m4v,2.0
2024-02-27 10:16:01.503339,1709025361.5033386,-27.83203125,-989.74609375,-39.0625,-46.875,0.0,-1.0,1.0,0.0,1.m4v,2.0
2024-02-27 10:16:01.507243,1709025361.5072432,-29.296875,-958.984375,-46.875,-48.33984375,0.0,-1.0,1.0,0.0,1.m4v,2.0
2024-02-27 10:16:01.511148,1709025361.511148,-26.85546875,-1000.0,-49.8046875,-42.96875,0.0,-1.0,1.0,0.0,1.m4v,2.0
2024-02-27 10:16:01.515053,1709025361.5150526,-9.27734375,-92.28515625,-34.66796875,-30.76171875,0.0,-1.0,1.0,0.0,1.m4v,2.0
2024-02-27 10:16:01.518957,1709025361.5189574,-20.5078125,999.51171875,-29.78515625,-23.92578125,0.0,-1.0,1.0,0.0,1.m4v,2.0
2024-02-27 10:16:01.522862,1709025361.522862,-36.1328125,945.3125,-35.15625,-30.2734375,0.0,-1.0,1.0,0.0,1.m4v,2.0
2024-02-27 10:16:01.526767,1709025361.5267663,-32.2265625,950.1953125,-30.2734375,-42.48046875,0.0,-1.0,1.0,0.0,1.m4v,2.0
2024-02-27 10:16:01.530671,1709025361.5306714,-34.66796875,975.5859375,-26.3671875,-45.8984375,0.0,-1.0,1.0,0.0,1.m4v,2.0
2024-02-27 10:16:01.534576,1709025361.534576,-48.33984375,969.7265625,-27.34375,-36.1328125,0.0,-1.0,1.0,0.0,1.m4v,2.0
2024-02-27 10:16:01.538481,1709025361.5384808,-44.43359375,969.7265625,-29.78515625,-29.296875,0.0,-1.0,1.0,0.0,1.m4v,2.0
2024-02-27 10:16:01.542401,1709025361.5424006,-31.25,969.7265625,-31.73828125,-31.25,0.0,-1.0,1.0,0.0,1.m4v,2.0
2024-02-27 10:16:01.546305,1709025361.5463052,-43.45703125,969.7265625,-35.64453125,-41.015625,0.0,-1.0,1.0,0.0,1.m4v,2.0
2024-02-27 10:16:01.550210,1709025361.5502098,-52.24609375,969.7265625,-40.0390625,-34.66796875,0.0,-1.0,1.0,0.0,1.m4v,2.0
2024-02-27 10:16:01.554115,1709025361.5541146,-41.50390625,972.16796875,-39.0625,-20.5078125,0.0,-1.0,1.0,0.0,1.m4v,2.0
2024-02-27 10:16:01.558019,1709025361.5580192,-29.78515625,967.7734375,-36.62109375,-33.69140625,0.0,-1.0,1.0,0.0,1.m4v,2.0
2024-02-27 10:16:01.561924,1709025361.561924,-30.76171875,917.96875,-41.9921875,-49.31640625,0.0,-1.0,1.0,0.0,1.m4v,2.0
2024-02-27 10:16:01.565829,1709025361.5658286,-49.8046875,999.51171875,-37.59765625,-43.9453125,0.0,-1.0,1.0,0.0,1.m4v,2.0
2024-02-27 10:16:01.569733,1709025361.5697334,-66.40625,213.37890625,-31.73828125,-45.8984375,0.0,-1.0,1.0,0.0,1.m4v,2.0
2024-02-27 10:16:01.573638,1709025361.573638,-75.68359375,-1000.0,-37.109375,-40.52734375,0.0,-1.0,1.0,0.0,1.m4v,2.0
2024-02-27 10:16:01.577543,1709025361.5775423,-70.3125,-999.0234375,-41.50390625,-31.73828125,0.0,-1.0,1.0,0.0,1.m4v,2.0
2024-02-27 10:16:01.581447,1709025361.5814474,-51.7578125,-969.23828125,-39.0625,-37.109375,0.0,-1.0,1.0,0.0,1.m4v,2.0
2024-02-27 10:16:01.585352,1709025361.585352,-55.17578125,-1000.0,-39.0625,-42.48046875,0.0,-1.0,1.0,0.0,1.m4v,2.0
2024-02-27 10:16:01.589277,1709025361.589277,-53.22265625,-1000.0,-30.76171875,-48.828125,0.0,-1.0,1.0,0.0,1.m4v,2.0
2024-02-27 10:16:01.593182,1709025361.5931818,-60.546875,-1000.0,-20.99609375,-45.41015625,0.0,-1.0,1.0,0.0,1.m4v,2.0
2024-02-27 10:16:01.597086,1709025361.5970864,-65.4296875,-994.140625,-19.04296875,-36.1328125,0.0,-1.0,1.0,0.0,1.m4v,2.0
2024-02-27 10:16:01.600991,1709025361.6009912,-48.828125,-951.171875,-17.08984375,-20.01953125,0.0,-1.0,1.0,0.0,1.m4v,2.0
2024-02-27 10:16:01.604896,1709025361.6048958,-40.0390625,-1000.0,-14.6484375,-19.04296875,0.0,-1.0,1.0,0.0,1.m4v,2.0
2024-02-27 10:16:01.608801,1709025361.6088006,-40.0390625,-158.203125,-22.94921875,-33.203125,0.0,-1.0,1.0,0.0,1.m4v,2.0
2024-02-27 10:16:01.612705,1709025361.6127052,-35.15625,999.51171875,-26.3671875,-34.66796875,0.0,-1.0,1.0,0.0,1.m4v,2.0
2024-02-27 10:16:01.616610,1709025361.6166098,-40.0390625,952.1484375,-19.53125,-36.1328125,0.0,-1.0,1.0,0.0,1.m4v,2.0
2024-02-27 10:16:01.620515,1709025361.6205146,-26.3671875,946.2890625,-18.06640625,-17.578125,0.0,-1.0,1.0,0.0,1.m4v,2.0
2024-02-27 10:16:01.624419,1709025361.6244192,-18.06640625,975.5859375,-21.484375,-14.6484375,0.0,-1.0,1.0,0.0,1.m4v,2.0
2024-02-27 10:16:01.628324,1709025361.628324,-57.6171875,969.7265625,-25.390625,-54.19921875,0.0,-1.0,1.0,0.0,1.m4v,2.0
2024-02-27 10:16:01.632229,1709025361.6322286,-78.125,969.7265625,-35.64453125,-59.5703125,0.0,-1.0,1.0,0.0,1.m4v,2.0
2024-02-27 10:16:01.636153,1709025361.6361532,-74.70703125,969.7265625,-37.109375,-44.921875,0.0,-1.0,1.0,0.0,1.m4v,2.0
2024-02-27 10:16:01.640058,1709025361.6400578,-65.4296875,970.21484375,-30.76171875,-58.59375,0.0,-1.0,1.0,0.0,1.m4v,2.0
2024-02-27 10:16:01.643962,1709025361.6439624,-55.6640625,969.7265625,-31.73828125,-71.2890625,0.0,-1.0,1.0,0.0,1.m4v,2.0
