Timestamp,Timestamp_UNIX,TP9,AF7,AF8,TP10,Valence,Arousal,Dominace,Viewed,Video,Participant
2024-02-27 10:33:16.003472,1709026396.0034716,-28.80859375,969.7265625,-55.17578125,-21.97265625,-1.0,1.0,-1.0,0.0,4.m4v,2.0
2024-02-27 10:33:16.007376,1709026396.0073762,-33.203125,969.7265625,234.375,-31.25,-1.0,1.0,-1.0,0.0,4.m4v,2.0
2024-02-27 10:33:16.011281,1709026396.011281,-37.109375,969.7265625,36.1328125,-37.109375,-1.0,1.0,-1.0,0.0,4.m4v,2.0
2024-02-27 10:33:16.015186,1709026396.0151858,-43.45703125,969.7265625,-198.2421875,-33.69140625,-1.0,1.0,-1.0,0.0,4.m4v,2.0
2024-02-27 10:33:16.019090,1709026396.0190904,-46.875,986.328125,-71.2890625,-31.25,-1.0,1.0,-1.0,0.0,4.m4v,2.0
2024-02-27 10:33:16.022995,1709026396.0229952,-39.55078125,909.1796875,311.03515625,-30.76171875,-1.0,1.0,-1.0,0.0,4.m4v,2.0
2024-02-27 10:33:16.026900,1709026396.0269,-22.94921875,999.51171875,564.94140625,-20.99609375,-1.0,1.0,-1.0,0.0,4.m4v,2.0
2024-02-27 10:33:16.030805,1709026396.0308046,-36.62109375,827.63671875,-46.875,-16.11328125,-1.0,1.0,-1.0,0.0,4.m4v,2.0
2024-02-27 10:33:16.034709,1709026396.0347097,-40.0390625,-634.765625,-763.18359375,-35.15625,-1.0,1.0,-1.0,0.0,4.m4v,2.0
2024-02-27 10:33:16.038614,1709026396.0386145,-42.96875,-1000.0,-840.8203125,-51.7578125,-1.0,1.0,-1.0,0.0,4.m4v,2.0
2024-02-27 10:33:16.042519,1709026396.0425189,-60.546875,-927.24609375,-485.3515625,-27.34375,-1.0,1.0,-1.0,0.0,4.m4v,2.0
2024-02-27 10:33:16.046424,1709026396.0464237,-36.1328125,-1000.0,-82.03125,-19.53125,-1.0,1.0,-1.0,0.0,4.m4v,2.0
2024-02-27 10:33:16.050349,1709026396.0503497,-7.8125,-1000.0,-207.51953125,-55.17578125,-1.0,1.0,-1.0,0.0,4.m4v,2.0
2024-02-27 10:33:16.054254,1709026396.054254,-23.92578125,-1000.0,-505.859375,-59.08203125,-1.0,1.0,-1.0,0.0,4.m4v,2.0
2024-02-27 10:33:16.058159,1709026396.0581589,-48.33984375,-961.9140625,-561.03515625,-48.33984375,-1.0,1.0,-1.0,0.0,4.m4v,2.0
2024-02-27 10:33:16.062064,1709026396.0620637,-34.66796875,-1000.0,-444.82421875,-42.48046875,-1.0,1.0,-1.0,0.0,4.m4v,2.0
2024-02-27 10:33:16.065968,1709026396.0659685,-34.66796875,-1000.0,-241.69921875,-38.57421875,-1.0,1.0,-1.0,0.0,4.m4v,2.0
2024-02-27 10:33:16.069873,1709026396.069873,-32.2265625,329.58984375,15.625,-33.69140625,-1.0,1.0,-1.0,0.0,4.m4v,2.0
2024-02-27 10:33:16.073778,1709026396.073778,-19.04296875,999.51171875,58.10546875,-38.0859375,-1.0,1.0,-1.0,0.0,4.m4v,2.0
2024-02-27 10:33:16.077682,1709026396.0776825,-15.13671875,899.90234375,-204.58984375,-42.96875,-1.0,1.0,-1.0,0.0,4.m4v,2.0
2024-02-27 10:33:16.081587,1709026396.0815873,-27.34375,977.05078125,-239.2578125,-31.25,-1.0,1.0,-1.0,0.0,4.m4v,2.0
2024-02-27 10:33:16.085492,1709026396.085492,-36.62109375,969.7265625,14.16015625,-34.66796875,-1.0,1.0,-1.0,0.0,4.m4v,2.0
2024-02-27 10:33:16.089397,1709026396.0893967,-22.4609375,969.7265625,-46.38671875,-35.15625,-1.0,1.0,-1.0,0.0,4.m4v,2.0
2024-02-27 10:33:16.093302,1709026396.0933015,-39.55078125,969.7265625,-432.12890625,-35.64453125,-1.0,1.0,-1.0,0.0,4.m4v,2.0
2024-02-27 10:33:16.097226,1709026396.097226,-40.52734375,969.7265625,-493.65234375,-42.96875,-1.0,1.0,-1.0,0.0,4.m4v,2.0
2024-02-27 10:33:16.101131,1709026396.1011307,-44.43359375,969.7265625,-265.625,-41.50390625,-1.0,1.0,-1.0,0.0,4.m4v,2.0
2024-02-27 10:33:16.105035,1709026396.1050353,-55.17578125,969.7265625,31.25,-47.36328125,-1.0,1.0,-1.0,0.0,4.m4v,2.0
2024-02-27 10:33:16.108940,1709026396.10894,-51.26953125,969.7265625,41.9921875,-43.45703125,-1.0,1.0,-1.0,0.0,4.m4v,2.0
2024-02-27 10:33:16.112845,1709026396.112845,-47.8515625,970.21484375,-356.4453125,-40.52734375,-1.0,1.0,-1.0,0.0,4.m4v,2.0
2024-02-27 10:33:16.116750,1709026396.1167495,-47.8515625,969.7265625,-373.53515625,-41.015625,-1.0,1.0,-1.0,0.0,4.m4v,2.0
2024-02-27 10:33:16.120654,1709026396.1206543,-47.36328125,969.7265625,-62.98828125,-28.3203125,-1.0,1.0,-1.0,0.0,4.m4v,2.0
2024-02-27 10:33:16.124559,1709026396.124559,-19.53125,969.7265625,-42.96875,-16.6015625,-1.0,1.0,-1.0,0.0,4.m4v,2.0
2024-02-27 10:33:16.128464,1709026396.1284635,-21.484375,969.7265625,-46.38671875,-25.87890625,-1.0,1.0,-1.0,0.0,4.m4v,2.0
2024-02-27 10:33:16.132369,1709026396.1323686,-45.8984375,969.7265625,-354.4921875,-36.62109375,-1.0,1.0,-1.0,0.0,4.m4v,2.0
2024-02-27 10:33:16.136273,1709026396.1362731,-50.29296875,970.21484375,-496.09375,-49.8046875,-1.0,1.0,-1.0,0.0,4.m4v,2.0
2024-02-27 10:33:16.140178,1709026396.140178,-46.875,969.7265625,-244.62890625,-55.17578125,-1.0,1.0,-1.0,0.0,4.m4v,2.0
2024-02-27 10:33:16.144102,1709026396.144102,-38.57421875,969.7265625,-78.125,-38.0859375,-1.0,1.0,-1.0,0.0,4.m4v,2.0
2024-02-27 10:33:16.148007,1709026396.148007,-43.45703125,969.7265625,-12.6953125,-26.85546875,-1.0,1.0,-1.0,0.0,4.m4v,2.0
2024-02-27 10:33:16.151911,1709026396.1519115,-44.921875,969.7265625,-259.765625,-28.3203125,-1.0,1.0,-1.0,0.0,4.m4v,2.0
2024-02-27 10:33:16.155816,1709026396.1558163,-44.921875,969.7265625,-561.03515625,-33.69140625,-1.0,1.0,-1.0,0.0,4.m4v,2.0
2024-02-27 10:33:16.159721,1709026396.159721,-46.875,969.7265625,-527.34375,-28.3203125,-1.0,1.0,-1.0,0.0,4.m4v,2.0
2024-02-27 10:33:16.163626,1709026396.1636257,-37.59765625,969.7265625,157.71484375,-11.71875,-1.0,1.0,-1.0,0.0,4.m4v,2.0
2024-02-27 10:33:16.167531,1709026396.1675303,-22.94921875,969.7265625,590.33203125,-20.5078125,-1.0,1.0,-1.0,0.0,4.m4v,2.0
2024-02-27 10:33:16.171435,1709026396.171435,-25.390625,969.7265625,-125.0,-37.109375,-1.0,1.0,-1.0,0.0,4.m4v,2.0
2024-02-27 10:33:16.175340,1709026396.17534,-33.203125,969.7265625,-698.2421875,-37.109375,-1.0,1.0,-1.0,0.0,4.m4v,2.0
2024-02-27 10:33:16.179245,1709026396.1792448,-32.2265625,969.7265625,-544.43359375,-20.01953125,-1.0,1.0,-1.0,0.0,4.m4v,2.0
2024-02-27 10:33:16.183149,1709026396.183149,-20.01953125,969.7265625,-228.515625,-28.3203125,-1.0,1.0,-1.0,0.0,4.m4v,2.0
2024-02-27 10:33:16.187054,1709026396.1870542,-26.3671875,969.7265625,-43.9453125,-39.55078125,-1.0,1.0,-1.0,0.0,4.m4v,2.0
2024-02-27 10:33:16.190976,1709026396.1909757,-31.25,969.7265625,-246.58203125,-38.0859375,-1.0,1.0,-1.0,0.0,4.m4v,2.0
2024-02-27 10:33:16.194880,1709026396.1948805,-26.85546875,969.7265625,-547.8515625,-29.78515625,-1.0,1.0,-1.0,0.0,4.m4v,2.0
2024-02-27 10:33:16.198785,1709026396.1987853,-39.0625,969.7265625,-437.5,-41.015625,-1.0,1.0,-1.0,0.0,4.m4v,2.0
2024-02-27 10:33:16.202690,1709026396.20269,-39.55078125,969.7265625,-165.52734375,-46.875,-1.0,1.0,-1.0,0.0,4.m4v,2.0
2024-02-27 10:33:16.206595,1709026396.2065947,-34.66796875,970.21484375,13.18359375,-35.64453125,-1.0,1.0,-1.0,0.0,4.m4v,2.0
2024-02-27 10:33:16.210500,1709026396.2104995,-24.4140625,969.7265625,51.26953125,-31.73828125,-1.0,1.0,-1.0,0.0,4.m4v,2.0
2024-02-27 10:33:16.214404,1709026396.214404,-35.15625,969.7265625,46.38671875,-39.55078125,-1.0,1.0,-1.0,0.0,4.m4v,2.0
2024-02-27 10:33:16.218309,1709026396.218309,-51.26953125,969.7265625,-239.74609375,-48.33984375,-1.0,1.0,-1.0,0.0,4.m4v,2.0
2024-02-27 10:33:16.222214,1709026396.2222135,-37.109375,969.7265625,-203.125,-45.8984375,-1.0,1.0,-1.0,0.0,4.m4v,2.0
2024-02-27 10:33:16.226118,1709026396.2261183,-25.87890625,969.7265625,138.671875,-44.921875,-1.0,1.0,-1.0,0.0,4.m4v,2.0
2024-02-27 10:33:16.230023,1709026396.2300231,-36.1328125,969.7265625,7.8125,-43.45703125,-1.0,1.0,-1.0,0.0,4.m4v,2.0
2024-02-27 10:33:16.233928,1709026396.233928,-31.25,969.7265625,-445.80078125,-44.921875,-1.0,1.0,-1.0,0.0,4.m4v,2.0
2024-02-27 10:33:16.237848,1709026396.2378478,-23.92578125,969.7265625,-586.9140625,-42.48046875,-1.0,1.0,-1.0,0.0,4.m4v,2.0
2024-02-27 10:33:16.241753,1709026396.2417526,-32.71484375,969.7265625,-246.09375,-38.57421875,-1.0,1.0,-1.0,0.0,4.m4v,2.0
2024-02-27 10:33:16.245657,1709026396.2456572,-34.66796875,969.7265625,168.45703125,-32.71484375,-1.0,1.0,-1.0,0.0,4.m4v,2.0
2024-02-27 10:33:16.249562,1709026396.249562,-16.11328125,970.21484375,110.83984375,-28.80859375,-1.0,1.0,-1.0,0.0,4.m4v,2.0
2024-02-27 10:33:16.253467,1709026396.2534668,-6.34765625,969.7265625,-156.25,-35.64453125,-1.0,1.0,-1.0,0.0,4.m4v,2.0
2024-02-27 10:33:16.257371,1709026396.2573714,-25.390625,969.7265625,-68.84765625,-50.78125,-1.0,1.0,-1.0,0.0,4.m4v,2.0
2024-02-27 10:33:16.261276,1709026396.2612762,-25.87890625,969.7265625,394.53125,-44.921875,-1.0,1.0,-1.0,0.0,4.m4v,2.0
2024-02-27 10:33:16.265181,1709026396.265181,-25.87890625,969.7265625,562.98828125,-38.0859375,-1.0,1.0,-1.0,0.0,4.m4v,2.0
2024-02-27 10:33:16.269086,1709026396.2690856,-31.73828125,969.7265625,81.0546875,-55.6640625,-1.0,1.0,-1.0,0.0,4.m4v,2.0
2024-02-27 10:33:16.272990,1709026396.2729905,-27.34375,969.7265625,-350.5859375,-54.19921875,-1.0,1.0,-1.0,0.0,4.m4v,2.0
2024-02-27 10:33:16.276895,1709026396.2768953,-23.92578125,969.7265625,-509.765625,-42.48046875,-1.0,1.0,-1.0,0.0,4.m4v,2.0
2024-02-27 10:33:16.280800,1709026396.2808,-31.73828125,969.7265625,-362.3046875,-42.48046875,-1.0,1.0,-1.0,0.0,4.m4v,2.0
2024-02-27 10:33:16.284730,1709026396.28473,-29.78515625,969.7265625,93.75,-33.203125,-1.0,1.0,-1.0,0.0,4.m4v,2.0
2024-02-27 10:33:16.288635,1709026396.2886348,-6.8359375,969.7265625,219.23828125,-27.83203125,-1.0,1.0,-1.0,0.0,4.m4v,2.0
2024-02-27 10:33:16.292540,1709026396.2925396,-12.6953125,969.7265625,-125.48828125,-39.0625,-1.0,1.0,-1.0,0.0,4.m4v,2.0
2024-02-27 10:33:16.296444,1709026396.2964442,-34.66796875,969.7265625,-367.67578125,-47.8515625,-1.0,1.0,-1.0,0.0,4.m4v,2.0
2024-02-27 10:33:16.300349,1709026396.300349,-33.203125,969.7265625,-350.5859375,-35.64453125,-1.0,1.0,-1.0,0.0,4.m4v,2.0
2024-02-27 10:33:16.304254,1709026396.3042538,-34.1796875,969.7265625,284.66796875,-32.71484375,-1.0,1.0,-1.0,0.0,4.m4v,2.0
2024-02-27 10:33:16.308158,1709026396.3081584,-36.62109375,969.7265625,673.33984375,-48.828125,-1.0,1.0,-1.0,0.0,4.m4v,2.0
2024-02-27 10:33:16.312063,1709026396.3120632,-41.50390625,969.7265625,4.39453125,-53.22265625,-1.0,1.0,-1.0,0.0,4.m4v,2.0
2024-02-27 10:33:16.315968,1709026396.315968,-27.34375,970.21484375,-350.09765625,-54.19921875,-1.0,1.0,-1.0,0.0,4.m4v,2.0
2024-02-27 10:33:16.319873,1709026396.3198726,-5.37109375,984.86328125,-142.08984375,-42.48046875,-1.0,1.0,-1.0,0.0,4.m4v,2.0
2024-02-27 10:33:16.323777,1709026396.3237774,-27.34375,906.25,12.20703125,-35.15625,-1.0,1.0,-1.0,0.0,4.m4v,2.0
2024-02-27 10:33:16.327682,1709026396.3276825,-46.38671875,999.51171875,131.8359375,-45.8984375,-1.0,1.0,-1.0,0.0,4.m4v,2.0
2024-02-27 10:33:16.331599,1709026396.3315992,-46.38671875,710.44921875,-233.88671875,-44.43359375,-1.0,1.0,-1.0,0.0,4.m4v,2.0
2024-02-27 10:33:16.335504,1709026396.3355038,-42.96875,-735.3515625,-684.08203125,-34.66796875,-1.0,1.0,-1.0,0.0,4.m4v,2.0
2024-02-27 10:33:16.339409,1709026396.3394086,-42.48046875,-1000.0,-575.68359375,-39.0625,-1.0,1.0,-1.0,0.0,4.m4v,2.0
2024-02-27 10:33:16.343313,1709026396.3433137,-59.08203125,-872.55859375,-258.30078125,-45.8984375,-1.0,1.0,-1.0,0.0,4.m4v,2.0
2024-02-27 10:33:16.347218,1709026396.347218,-45.8984375,-1000.0,-141.11328125,-44.921875,-1.0,1.0,-1.0,0.0,4.m4v,2.0
2024-02-27 10:33:16.351123,1709026396.3511229,-33.69140625,-848.6328125,-44.43359375,-38.57421875,-1.0,1.0,-1.0,0.0,4.m4v,2.0
2024-02-27 10:33:16.355028,1709026396.3550277,-33.203125,617.1875,93.75,-35.64453125,-1.0,1.0,-1.0,0.0,4.m4v,2.0
2024-02-27 10:33:16.358932,1709026396.3589325,-32.71484375,999.51171875,-216.30859375,-45.8984375,-1.0,1.0,-1.0,0.0,4.m4v,2.0
2024-02-27 10:33:16.362837,1709026396.362837,-51.26953125,896.97265625,-102.05078125,-40.0390625,-1.0,1.0,-1.0,0.0,4.m4v,2.0
2024-02-27 10:33:16.366742,1709026396.366742,-49.8046875,986.328125,274.90234375,-29.78515625,-1.0,1.0,-1.0,0.0,4.m4v,2.0
2024-02-27 10:33:16.370646,1709026396.3706465,-45.8984375,969.7265625,44.43359375,-48.828125,-1.0,1.0,-1.0,0.0,4.m4v,2.0
2024-02-27 10:33:16.374551,1709026396.3745513,-41.50390625,969.7265625,-403.3203125,-38.0859375,-1.0,1.0,-1.0,0.0,4.m4v,2.0
2024-02-27 10:33:16.378478,1709026396.3784783,-23.4375,969.7265625,-263.18359375,-28.80859375,-1.0,1.0,-1.0,0.0,4.m4v,2.0
2024-02-27 10:33:16.382383,1709026396.3823829,-41.50390625,969.7265625,62.98828125,-32.71484375,-1.0,1.0,-1.0,0.0,4.m4v,2.0
2024-02-27 10:33:16.386288,1709026396.3862877,-48.828125,969.7265625,227.5390625,-31.25,-1.0,1.0,-1.0,0.0,4.m4v,2.0
2024-02-27 10:33:16.390193,1709026396.3901925,-41.015625,980.46875,39.55078125,-41.50390625,-1.0,1.0,-1.0,0.0,4.m4v,2.0
2024-02-27 10:33:16.394097,1709026396.394097,-56.15234375,930.6640625,-364.74609375,-39.55078125,-1.0,1.0,-1.0,0.0,4.m4v,2.0
2024-02-27 10:33:16.398002,1709026396.398002,-50.78125,978.515625,-174.8046875,-30.2734375,-1.0,1.0,-1.0,0.0,4.m4v,2.0
2024-02-27 10:33:16.401907,1709026396.4019067,-45.41015625,981.93359375,150.87890625,-31.25,-1.0,1.0,-1.0,0.0,4.m4v,2.0
2024-02-27 10:33:16.405812,1709026396.4058115,-58.10546875,-362.3046875,-22.4609375,-47.36328125,-1.0,1.0,-1.0,0.0,4.m4v,2.0
2024-02-27 10:33:16.409716,1709026396.409716,-59.5703125,-1000.0,-433.10546875,-48.828125,-1.0,1.0,-1.0,0.0,4.m4v,2.0
2024-02-27 10:33:16.413621,1709026396.413621,-55.17578125,-931.15234375,-750.48828125,-50.78125,-1.0,1.0,-1.0,0.0,4.m4v,2.0
2024-02-27 10:33:16.417526,1709026396.4175258,-60.05859375,-1000.0,-818.84765625,-45.41015625,-1.0,1.0,-1.0,0.0,4.m4v,2.0
2024-02-27 10:33:16.421430,1709026396.4214303,-52.24609375,-1000.0,-543.9453125,-40.0390625,-1.0,1.0,-1.0,0.0,4.m4v,2.0
2024-02-27 10:33:16.425356,1709026396.425356,-36.62109375,-1000.0,-30.2734375,-33.203125,-1.0,1.0,-1.0,0.0,4.m4v,2.0
2024-02-27 10:33:16.429261,1709026396.4292607,-33.69140625,-1000.0,-29.78515625,-25.390625,-1.0,1.0,-1.0,0.0,4.m4v,2.0
2024-02-27 10:33:16.433166,1709026396.4331656,-23.92578125,-962.890625,-476.5625,-27.34375,-1.0,1.0,-1.0,0.0,4.m4v,2.0
2024-02-27 10:33:16.437070,1709026396.4370704,-17.578125,-1000.0,-516.11328125,-38.0859375,-1.0,1.0,-1.0,0.0,4.m4v,2.0
2024-02-27 10:33:16.440975,1709026396.4409752,-32.2265625,-1000.0,-273.92578125,-44.43359375,-1.0,1.0,-1.0,0.0,4.m4v,2.0
2024-02-27 10:33:16.444880,1709026396.4448798,-29.296875,313.4765625,370.60546875,-28.3203125,-1.0,1.0,-1.0,0.0,4.m4v,2.0
2024-02-27 10:33:16.448785,1709026396.4487846,-17.08984375,999.51171875,699.70703125,-18.5546875,-1.0,1.0,-1.0,0.0,4.m4v,2.0
2024-02-27 10:33:16.452689,1709026396.4526894,-23.4375,900.87890625,89.35546875,-45.41015625,-1.0,1.0,-1.0,0.0,4.m4v,2.0
2024-02-27 10:33:16.456594,1709026396.456594,-47.36328125,976.5625,-363.76953125,-56.640625,-1.0,1.0,-1.0,0.0,4.m4v,2.0
2024-02-27 10:33:16.460499,1709026396.4604988,-56.640625,970.21484375,-395.99609375,-47.36328125,-1.0,1.0,-1.0,0.0,4.m4v,2.0
2024-02-27 10:33:16.464404,1709026396.4644036,-37.109375,970.21484375,-85.44921875,-40.0390625,-1.0,1.0,-1.0,0.0,4.m4v,2.0
2024-02-27 10:33:16.468308,1709026396.4683082,-28.3203125,969.7265625,227.05078125,-42.48046875,-1.0,1.0,-1.0,0.0,4.m4v,2.0
2024-02-27 10:33:16.472232,1709026396.4722323,-41.50390625,969.7265625,21.97265625,-42.96875,-1.0,1.0,-1.0,0.0,4.m4v,2.0
2024-02-27 10:33:16.476137,1709026396.476137,-48.828125,969.7265625,-384.765625,-47.36328125,-1.0,1.0,-1.0,0.0,4.m4v,2.0
2024-02-27 10:33:16.480042,1709026396.4800415,-37.109375,969.7265625,-376.46484375,-42.96875,-1.0,1.0,-1.0,0.0,4.m4v,2.0
2024-02-27 10:33:16.483947,1709026396.4839466,-30.76171875,969.7265625,6.34765625,-34.66796875,-1.0,1.0,-1.0,0.0,4.m4v,2.0
2024-02-27 10:33:16.487851,1709026396.4878511,-34.1796875,986.328125,218.26171875,-34.1796875,-1.0,1.0,-1.0,0.0,4.m4v,2.0
2024-02-27 10:33:16.491756,1709026396.491756,-21.484375,909.66796875,302.734375,-25.87890625,-1.0,1.0,-1.0,0.0,4.m4v,2.0
2024-02-27 10:33:16.495661,1709026396.4956608,-20.99609375,999.51171875,301.7578125,-28.3203125,-1.0,1.0,-1.0,0.0,4.m4v,2.0
2024-02-27 10:33:16.499566,1709026396.4995656,-44.43359375,835.9375,31.25,-54.6875,-1.0,1.0,-1.0,0.0,4.m4v,2.0
2024-02-27 10:33:16.503470,1709026396.5034702,-44.921875,-626.953125,-129.8828125,-55.6640625,-1.0,1.0,-1.0,0.0,4.m4v,2.0
2024-02-27 10:33:16.507375,1709026396.507375,-50.78125,-1000.0,-151.85546875,-39.0625,-1.0,1.0,-1.0,0.0,4.m4v,2.0
2024-02-27 10:33:16.511280,1709026396.5112798,-74.70703125,-926.7578125,-497.0703125,-43.45703125,-1.0,1.0,-1.0,0.0,4.m4v,2.0
2024-02-27 10:33:16.515184,1709026396.5151844,-56.640625,-1000.0,-774.90234375,-47.8515625,-1.0,1.0,-1.0,0.0,4.m4v,2.0
2024-02-27 10:33:16.519108,1709026396.5191078,-45.8984375,-1000.0,-720.703125,-45.8984375,-1.0,1.0,-1.0,0.0,4.m4v,2.0
2024-02-27 10:33:16.523013,1709026396.5230126,-53.22265625,-1000.0,-407.71484375,-46.38671875,-1.0,1.0,-1.0,0.0,4.m4v,2.0
2024-02-27 10:33:16.526917,1709026396.5269177,-43.9453125,-1000.0,-106.93359375,-32.71484375,-1.0,1.0,-1.0,0.0,4.m4v,2.0
2024-02-27 10:33:16.530822,1709026396.530822,-41.50390625,-1000.0,-305.6640625,-27.34375,-1.0,1.0,-1.0,0.0,4.m4v,2.0
2024-02-27 10:33:16.534727,1709026396.5347269,-55.17578125,-1000.0,-583.49609375,-40.0390625,-1.0,1.0,-1.0,0.0,4.m4v,2.0
2024-02-27 10:33:16.538632,1709026396.5386317,-48.33984375,-1000.0,-204.58984375,-46.875,-1.0,1.0,-1.0,0.0,4.m4v,2.0
2024-02-27 10:33:16.542536,1709026396.5425365,-37.109375,-1000.0,295.8984375,-25.390625,-1.0,1.0,-1.0,0.0,4.m4v,2.0
2024-02-27 10:33:16.546441,1709026396.546441,-44.43359375,-1000.0,281.25,-29.296875,-1.0,1.0,-1.0,0.0,4.m4v,2.0
2024-02-27 10:33:16.550346,1709026396.550346,-47.8515625,-939.453125,-71.77734375,-56.15234375,-1.0,1.0,-1.0,0.0,4.m4v,2.0
2024-02-27 10:33:16.554251,1709026396.5542507,-32.71484375,-1000.0,-535.15625,-46.875,-1.0,1.0,-1.0,0.0,4.m4v,2.0
2024-02-27 10:33:16.558155,1709026396.5581553,-36.62109375,-830.56640625,-381.34765625,-41.50390625,-1.0,1.0,-1.0,0.0,4.m4v,2.0
2024-02-27 10:33:16.562060,1709026396.56206,-47.36328125,624.51171875,149.4140625,-44.921875,-1.0,1.0,-1.0,0.0,4.m4v,2.0
2024-02-27 10:33:16.565983,1709026396.5659833,-35.64453125,999.51171875,410.15625,-28.80859375,-1.0,1.0,-1.0,0.0,4.m4v,2.0
2024-02-27 10:33:16.569888,1709026396.569888,-40.0390625,898.4375,228.515625,-38.57421875,-1.0,1.0,-1.0,0.0,4.m4v,2.0
2024-02-27 10:33:16.573793,1709026396.573793,-44.921875,985.83984375,-228.02734375,-58.10546875,-1.0,1.0,-1.0,0.0,4.m4v,2.0
2024-02-27 10:33:16.577698,1709026396.5776975,-46.38671875,969.7265625,-422.8515625,-51.26953125,-1.0,1.0,-1.0,0.0,4.m4v,2.0
2024-02-27 10:33:16.581602,1709026396.5816023,-46.875,969.7265625,-241.69921875,-55.17578125,-1.0,1.0,-1.0,0.0,4.m4v,2.0
2024-02-27 10:33:16.585507,1709026396.5855072,-34.66796875,985.83984375,458.49609375,-50.29296875,-1.0,1.0,-1.0,0.0,4.m4v,2.0
2024-02-27 10:33:16.589412,1709026396.5894115,-33.203125,910.64453125,738.76953125,-41.9921875,-1.0,1.0,-1.0,0.0,4.m4v,2.0
2024-02-27 10:33:16.593317,1709026396.5933166,-42.96875,999.51171875,64.453125,-46.38671875,-1.0,1.0,-1.0,0.0,4.m4v,2.0
2024-02-27 10:33:16.597221,1709026396.5972214,-34.66796875,827.63671875,-366.69921875,-42.48046875,-1.0,1.0,-1.0,0.0,4.m4v,2.0
2024-02-27 10:33:16.601126,1709026396.601126,-30.76171875,-628.41796875,-205.078125,-54.19921875,-1.0,1.0,-1.0,0.0,4.m4v,2.0
2024-02-27 10:33:16.605031,1709026396.6050308,-43.9453125,-1000.0,129.8828125,-50.78125,-1.0,1.0,-1.0,0.0,4.m4v,2.0
2024-02-27 10:33:16.608936,1709026396.6089356,-56.640625,-927.24609375,27.34375,-39.55078125,-1.0,1.0,-1.0,0.0,4.m4v,2.0
2024-02-27 10:33:16.612858,1709026396.6128576,-52.734375,-1000.0,-365.72265625,-48.828125,-1.0,1.0,-1.0,0.0,4.m4v,2.0
2024-02-27 10:33:16.616762,1709026396.6167622,-43.45703125,-1000.0,-350.5859375,-51.7578125,-1.0,1.0,-1.0,0.0,4.m4v,2.0
2024-02-27 10:33:16.620667,1709026396.620667,-48.33984375,-1000.0,-21.97265625,-42.96875,-1.0,1.0,-1.0,0.0,4.m4v,2.0
2024-02-27 10:33:16.624572,1709026396.6245718,-45.41015625,-1000.0,191.89453125,-49.8046875,-1.0,1.0,-1.0,0.0,4.m4v,2.0
2024-02-27 10:33:16.628477,1709026396.6284766,-25.390625,-1000.0,145.01953125,-51.26953125,-1.0,1.0,-1.0,0.0,4.m4v,2.0
2024-02-27 10:33:16.632381,1709026396.6323812,-33.69140625,-1000.0,-22.4609375,-36.62109375,-1.0,1.0,-1.0,0.0,4.m4v,2.0
2024-02-27 10:33:16.636286,1709026396.636286,-40.52734375,-1000.0,-22.94921875,-34.1796875,-1.0,1.0,-1.0,0.0,4.m4v,2.0
2024-02-27 10:33:16.640191,1709026396.6401908,-34.66796875,-1000.0,-222.16796875,-54.6875,-1.0,1.0,-1.0,0.0,4.m4v,2.0
2024-02-27 10:33:16.644095,1709026396.6440954,-32.2265625,-1000.0,-173.828125,-46.38671875,-1.0,1.0,-1.0,0.0,4.m4v,2.0
2024-02-27 10:33:16.648000,1709026396.6480002,-22.94921875,-1000.0,-4.8828125,-32.71484375,-1.0,1.0,-1.0,0.0,4.m4v,2.0
2024-02-27 10:33:16.651905,1709026396.651905,-23.92578125,-1000.0,-208.49609375,-39.0625,-1.0,1.0,-1.0,0.0,4.m4v,2.0
2024-02-27 10:33:16.655810,1709026396.6558096,-42.48046875,-1000.0,-525.87890625,-41.50390625,-1.0,1.0,-1.0,0.0,4.m4v,2.0
2024-02-27 10:33:16.659729,1709026396.6597297,-35.15625,-1000.0,-451.171875,-37.109375,-1.0,1.0,-1.0,0.0,4.m4v,2.0
2024-02-27 10:33:16.663634,1709026396.6636343,-19.53125,-1000.0,67.87109375,-33.203125,-1.0,1.0,-1.0,0.0,4.m4v,2.0
2024-02-27 10:33:16.667539,1709026396.6675391,-26.3671875,-940.4296875,415.0390625,-41.015625,-1.0,1.0,-1.0,0.0,4.m4v,2.0
2024-02-27 10:33:16.671444,1709026396.671444,-39.55078125,-1000.0,114.74609375,-51.7578125,-1.0,1.0,-1.0,0.0,4.m4v,2.0
2024-02-27 10:33:16.675349,1709026396.6753483,-45.41015625,-870.60546875,-208.49609375,-43.9453125,-1.0,1.0,-1.0,0.0,4.m4v,2.0
2024-02-27 10:33:16.679253,1709026396.679253,-34.1796875,592.28515625,257.32421875,-36.1328125,-1.0,1.0,-1.0,0.0,4.m4v,2.0
2024-02-27 10:33:16.683158,1709026396.6831582,-29.78515625,999.51171875,901.3671875,-42.48046875,-1.0,1.0,-1.0,0.0,4.m4v,2.0
2024-02-27 10:33:16.687063,1709026396.6870627,-38.57421875,895.99609375,819.3359375,-46.875,-1.0,1.0,-1.0,0.0,4.m4v,2.0
2024-02-27 10:33:16.690968,1709026396.6909676,-41.015625,985.83984375,217.7734375,-54.19921875,-1.0,1.0,-1.0,0.0,4.m4v,2.0
2024-02-27 10:33:16.694872,1709026396.6948724,-51.26953125,969.7265625,-219.23828125,-51.26953125,-1.0,1.0,-1.0,0.0,4.m4v,2.0
2024-02-27 10:33:16.698777,1709026396.698777,-45.8984375,969.7265625,-313.4765625,-48.828125,-1.0,1.0,-1.0,0.0,4.m4v,2.0
2024-02-27 10:33:16.702682,1709026396.7026818,-28.3203125,971.6796875,82.51953125,-41.9921875,-1.0,1.0,-1.0,0.0,4.m4v,2.0
2024-02-27 10:33:16.706599,1709026396.7065992,-21.484375,970.21484375,437.01171875,-22.94921875,-1.0,1.0,-1.0,0.0,4.m4v,2.0
2024-02-27 10:33:16.710504,1709026396.710504,-31.73828125,914.0625,152.83203125,-29.296875,-1.0,1.0,-1.0,0.0,4.m4v,2.0
2024-02-27 10:33:16.714409,1709026396.7144086,-54.6875,999.51171875,-145.5078125,-39.55078125,-1.0,1.0,-1.0,0.0,4.m4v,2.0
2024-02-27 10:33:16.718313,1709026396.7183137,-48.33984375,258.30078125,-354.4921875,-43.45703125,-1.0,1.0,-1.0,0.0,4.m4v,2.0
2024-02-27 10:33:16.722218,1709026396.7222185,-32.71484375,-1000.0,-350.5859375,-48.33984375,-1.0,1.0,-1.0,0.0,4.m4v,2.0
2024-02-27 10:33:16.726123,1709026396.726123,-28.80859375,-1000.0,307.12890625,-36.1328125,-1.0,1.0,-1.0,0.0,4.m4v,2.0
2024-02-27 10:33:16.730028,1709026396.7300277,-29.78515625,-965.8203125,394.04296875,-38.57421875,-1.0,1.0,-1.0,0.0,4.m4v,2.0
2024-02-27 10:33:16.733932,1709026396.7339325,-37.109375,-1000.0,-292.48046875,-48.828125,-1.0,1.0,-1.0,0.0,4.m4v,2.0
2024-02-27 10:33:16.737837,1709026396.7378373,-42.96875,-1000.0,-427.734375,-48.828125,-1.0,1.0,-1.0,0.0,4.m4v,2.0
2024-02-27 10:33:16.741742,1709026396.741742,-35.15625,-1000.0,-109.375,-36.1328125,-1.0,1.0,-1.0,0.0,4.m4v,2.0
2024-02-27 10:33:16.745647,1709026396.7456467,-20.01953125,-1000.0,146.97265625,-36.62109375,-1.0,1.0,-1.0,0.0,4.m4v,2.0
2024-02-27 10:33:16.749552,1709026396.7495515,-21.97265625,-1000.0,19.04296875,-37.109375,-1.0,1.0,-1.0,0.0,4.m4v,2.0
2024-02-27 10:33:16.753479,1709026396.7534788,-36.62109375,-1000.0,-309.08203125,-44.921875,-1.0,1.0,-1.0,0.0,4.m4v,2.0
2024-02-27 10:33:16.757384,1709026396.7573836,-40.52734375,-1000.0,-288.57421875,-41.50390625,-1.0,1.0,-1.0,0.0,4.m4v,2.0
2024-02-27 10:33:16.761288,1709026396.7612882,-23.4375,-948.73046875,-34.1796875,-18.5546875,-1.0,1.0,-1.0,0.0,4.m4v,2.0
2024-02-27 10:33:16.765193,1709026396.765193,-22.4609375,-1000.0,346.6796875,-23.4375,-1.0,1.0,-1.0,0.0,4.m4v,2.0
2024-02-27 10:33:16.769098,1709026396.7690978,-21.484375,-937.01171875,372.55859375,-31.25,-1.0,1.0,-1.0,0.0,4.m4v,2.0
2024-02-27 10:33:16.773002,1709026396.7730024,-26.3671875,489.74609375,334.47265625,-31.25,-1.0,1.0,-1.0,0.0,4.m4v,2.0
2024-02-27 10:33:16.776907,1709026396.7769072,-34.66796875,999.51171875,199.70703125,-31.25,-1.0,1.0,-1.0,0.0,4.m4v,2.0
2024-02-27 10:33:16.780812,1709026396.780812,-34.66796875,895.5078125,59.5703125,-40.0390625,-1.0,1.0,-1.0,0.0,4.m4v,2.0
2024-02-27 10:33:16.784717,1709026396.7847166,-38.57421875,983.3984375,384.765625,-39.55078125,-1.0,1.0,-1.0,0.0,4.m4v,2.0
2024-02-27 10:33:16.788621,1709026396.7886214,-41.9921875,969.7265625,426.7578125,-44.921875,-1.0,1.0,-1.0,0.0,4.m4v,2.0
2024-02-27 10:33:16.792526,1709026396.7925262,-36.62109375,969.7265625,20.5078125,-47.36328125,-1.0,1.0,-1.0,0.0,4.m4v,2.0
2024-02-27 10:33:16.796431,1709026396.7964308,-20.99609375,986.328125,-166.9921875,-43.45703125,-1.0,1.0,-1.0,0.0,4.m4v,2.0
2024-02-27 10:33:16.800369,1709026396.800369,-26.85546875,910.64453125,38.0859375,-51.26953125,-1.0,1.0,-1.0,0.0,4.m4v,2.0
2024-02-27 10:33:16.804274,1709026396.8042738,-47.8515625,999.51171875,246.58203125,-46.38671875,-1.0,1.0,-1.0,0.0,4.m4v,2.0
2024-02-27 10:33:16.808178,1709026396.8081784,-49.8046875,844.7265625,268.5546875,-36.1328125,-1.0,1.0,-1.0,0.0,4.m4v,2.0
2024-02-27 10:33:16.812083,1709026396.8120832,-52.734375,-615.72265625,-221.6796875,-40.0390625,-1.0,1.0,-1.0,0.0,4.m4v,2.0
2024-02-27 10:33:16.815988,1709026396.815988,-52.24609375,-1000.0,-596.6796875,-54.6875,-1.0,1.0,-1.0,0.0,4.m4v,2.0
2024-02-27 10:33:16.819893,1709026396.819893,-49.8046875,-926.26953125,-161.1328125,-56.15234375,-1.0,1.0,-1.0,0.0,4.m4v,2.0
2024-02-27 10:33:16.823797,1709026396.8237977,-42.96875,-1000.0,300.78125,-43.9453125,-1.0,1.0,-1.0,0.0,4.m4v,2.0
2024-02-27 10:33:16.827702,1709026396.8277023,-41.50390625,-1000.0,232.91015625,-46.875,-1.0,1.0,-1.0,0.0,4.m4v,2.0
2024-02-27 10:33:16.831607,1709026396.831607,-38.57421875,-1000.0,-152.34375,-54.6875,-1.0,1.0,-1.0,0.0,4.m4v,2.0
2024-02-27 10:33:16.835512,1709026396.8355117,-57.12890625,-1000.0,-526.85546875,-53.7109375,-1.0,1.0,-1.0,0.0,4.m4v,2.0
2024-02-27 10:33:16.839417,1709026396.8394165,-62.5,-1000.0,-445.80078125,-40.52734375,-1.0,1.0,-1.0,0.0,4.m4v,2.0
2024-02-27 10:33:16.843321,1709026396.843321,-49.31640625,-1000.0,-49.31640625,-39.55078125,-1.0,1.0,-1.0,0.0,4.m4v,2.0
2024-02-27 10:33:16.847246,1709026396.847246,-55.6640625,-1000.0,335.44921875,-33.203125,-1.0,1.0,-1.0,0.0,4.m4v,2.0
2024-02-27 10:33:16.851151,1709026396.8511508,-50.29296875,-1000.0,84.9609375,-33.203125,-1.0,1.0,-1.0,0.0,4.m4v,2.0
2024-02-27 10:33:16.855056,1709026396.8550556,-36.62109375,-961.42578125,-292.48046875,-50.78125,-1.0,1.0,-1.0,0.0,4.m4v,2.0
2024-02-27 10:33:16.858960,1709026396.8589602,-35.64453125,-1000.0,-139.6484375,-53.22265625,-1.0,1.0,-1.0,0.0,4.m4v,2.0
2024-02-27 10:33:16.862865,1709026396.862865,-48.828125,-1000.0,95.21484375,-44.921875,-1.0,1.0,-1.0,0.0,4.m4v,2.0
2024-02-27 10:33:16.866770,1709026396.8667698,-29.296875,331.0546875,685.05859375,-34.1796875,-1.0,1.0,-1.0,0.0,4.m4v,2.0
2024-02-27 10:33:16.870675,1709026396.8706746,-20.99609375,999.51171875,778.80859375,-32.71484375,-1.0,1.0,-1.0,0.0,4.m4v,2.0
2024-02-27 10:33:16.874579,1709026396.8745792,-32.2265625,899.90234375,-16.6015625,-39.0625,-1.0,1.0,-1.0,0.0,4.m4v,2.0
2024-02-27 10:33:16.878484,1709026396.878484,-43.45703125,977.05078125,-249.0234375,-36.1328125,-1.0,1.0,-1.0,0.0,4.m4v,2.0
2024-02-27 10:33:16.882389,1709026396.8823888,-47.36328125,969.7265625,140.625,-24.90234375,-1.0,1.0,-1.0,0.0,4.m4v,2.0
2024-02-27 10:33:16.886293,1709026396.8862934,-36.1328125,985.3515625,489.74609375,-28.3203125,-1.0,1.0,-1.0,0.0,4.m4v,2.0
2024-02-27 10:33:16.890198,1709026396.8901982,-34.66796875,915.0390625,386.23046875,-29.296875,-1.0,1.0,-1.0,0.0,4.m4v,2.0
2024-02-27 10:33:16.894122,1709026396.894122,-54.19921875,999.51171875,-71.2890625,-32.71484375,-1.0,1.0,-1.0,0.0,4.m4v,2.0
2024-02-27 10:33:16.898027,1709026396.898027,-49.8046875,881.8359375,-259.765625,-54.19921875,-1.0,1.0,-1.0,0.0,4.m4v,2.0
2024-02-27 10:33:16.901932,1709026396.9019318,-48.33984375,-562.98828125,-140.625,-44.921875,-1.0,1.0,-1.0,0.0,4.m4v,2.0
2024-02-27 10:33:16.905837,1709026396.9058366,-39.55078125,-1000.0,249.0234375,-26.3671875,-1.0,1.0,-1.0,0.0,4.m4v,2.0
2024-02-27 10:33:16.909741,1709026396.9097412,-25.87890625,-925.78125,255.37109375,-35.64453125,-1.0,1.0,-1.0,0.0,4.m4v,2.0
2024-02-27 10:33:16.913646,1709026396.913646,-38.57421875,-1000.0,-120.1171875,-46.875,-1.0,1.0,-1.0,0.0,4.m4v,2.0
2024-02-27 10:33:16.917551,1709026396.9175508,-41.9921875,-1000.0,22.4609375,-44.921875,-1.0,1.0,-1.0,0.0,4.m4v,2.0
2024-02-27 10:33:16.921455,1709026396.9214554,-41.50390625,-1000.0,248.046875,-30.76171875,-1.0,1.0,-1.0,0.0,4.m4v,2.0
2024-02-27 10:33:16.925360,1709026396.9253602,-42.48046875,-1000.0,248.046875,-32.2265625,-1.0,1.0,-1.0,0.0,4.m4v,2.0
2024-02-27 10:33:16.929265,1709026396.929265,-59.5703125,-1000.0,95.703125,-36.62109375,-1.0,1.0,-1.0,0.0,4.m4v,2.0
2024-02-27 10:33:16.933170,1709026396.9331696,-52.734375,-1000.0,-244.140625,-40.52734375,-1.0,1.0,-1.0,0.0,4.m4v,2.0
2024-02-27 10:33:16.937074,1709026396.9370744,-50.78125,-1000.0,-459.47265625,-43.45703125,-1.0,1.0,-1.0,0.0,4.m4v,2.0
2024-02-27 10:33:16.940997,1709026396.940997,-53.22265625,-1000.0,-298.33984375,-45.8984375,-1.0,1.0,-1.0,0.0,4.m4v,2.0
2024-02-27 10:33:16.944902,1709026396.9449017,-41.50390625,-1000.0,88.37890625,-45.41015625,-1.0,1.0,-1.0,0.0,4.m4v,2.0
2024-02-27 10:33:16.948806,1709026396.9488063,-39.55078125,-985.83984375,238.76953125,-27.34375,-1.0,1.0,-1.0,0.0,4.m4v,2.0
2024-02-27 10:33:16.952711,1709026396.952711,-37.59765625,-965.33203125,2.9296875,-36.1328125,-1.0,1.0,-1.0,0.0,4.m4v,2.0
2024-02-27 10:33:16.956616,1709026396.956616,-36.1328125,-1000.0,-270.5078125,-41.50390625,-1.0,1.0,-1.0,0.0,4.m4v,2.0
2024-02-27 10:33:16.960521,1709026396.9605207,-27.83203125,-22.4609375,178.22265625,-35.15625,-1.0,1.0,-1.0,0.0,4.m4v,2.0
2024-02-27 10:33:16.964425,1709026396.964425,-21.97265625,999.51171875,928.22265625,-30.2734375,-1.0,1.0,-1.0,0.0,4.m4v,2.0
2024-02-27 10:33:16.968330,1709026396.96833,-31.73828125,936.03515625,856.93359375,-25.390625,-1.0,1.0,-1.0,0.0,4.m4v,2.0
2024-02-27 10:33:16.972235,1709026396.972235,-37.109375,955.078125,207.51953125,-42.96875,-1.0,1.0,-1.0,0.0,4.m4v,2.0
2024-02-27 10:33:16.976140,1709026396.9761395,-43.45703125,974.12109375,-90.8203125,-46.38671875,-1.0,1.0,-1.0,0.0,4.m4v,2.0
2024-02-27 10:33:16.980044,1709026396.9800444,-35.64453125,969.7265625,250.9765625,-23.4375,-1.0,1.0,-1.0,0.0,4.m4v,2.0
2024-02-27 10:33:16.983949,1709026396.9839492,-29.296875,969.7265625,614.2578125,-20.99609375,-1.0,1.0,-1.0,0.0,4.m4v,2.0
2024-02-27 10:33:16.987870,1709026396.9878702,-25.390625,969.7265625,612.79296875,-35.64453125,-1.0,1.0,-1.0,0.0,4.m4v,2.0
2024-02-27 10:33:16.991775,1709026396.9917748,-32.2265625,969.7265625,241.2109375,-31.25,-1.0,1.0,-1.0,0.0,4.m4v,2.0
2024-02-27 10:33:16.995680,1709026396.9956796,-36.62109375,969.7265625,-91.30859375,-27.34375,-1.0,1.0,-1.0,0.0,4.m4v,2.0
2024-02-27 10:33:16.999584,1709026396.9995844,-38.57421875,983.88671875,-37.59765625,-31.25,-1.0,1.0,-1.0,0.0,4.m4v,2.0
2024-02-27 10:33:17.003489,1709026397.003489,-32.71484375,920.8984375,273.4375,-25.87890625,-1.0,1.0,-1.0,0.0,4.m4v,2.0
2024-02-27 10:33:17.007394,1709026397.0073938,-6.8359375,999.51171875,766.11328125,-12.6953125,-1.0,1.0,-1.0,0.0,4.m4v,2.0
2024-02-27 10:33:17.011299,1709026397.011299,-22.94921875,924.8046875,699.70703125,-16.6015625,-1.0,1.0,-1.0,0.0,4.m4v,2.0
2024-02-27 10:33:17.015203,1709026397.0152032,-46.38671875,-487.3046875,-131.34765625,-25.390625,-1.0,1.0,-1.0,0.0,4.m4v,2.0
2024-02-27 10:33:17.019108,1709026397.019108,-50.78125,-1000.0,-509.765625,-34.66796875,-1.0,1.0,-1.0,0.0,4.m4v,2.0
2024-02-27 10:33:17.023013,1709026397.0230129,-36.1328125,-926.26953125,-105.95703125,-39.0625,-1.0,1.0,-1.0,0.0,4.m4v,2.0
2024-02-27 10:33:17.026917,1709026397.0269177,-28.3203125,-1000.0,298.33984375,-37.59765625,-1.0,1.0,-1.0,0.0,4.m4v,2.0
2024-02-27 10:33:17.030822,1709026397.0308225,-18.06640625,-1000.0,101.07421875,-42.48046875,-1.0,1.0,-1.0,0.0,4.m4v,2.0
2024-02-27 10:33:17.034742,1709026397.0347424,-14.6484375,-1000.0,-182.12890625,-42.48046875,-1.0,1.0,-1.0,0.0,4.m4v,2.0
2024-02-27 10:33:17.038647,1709026397.038647,-31.25,-1000.0,-22.94921875,-28.80859375,-1.0,1.0,-1.0,0.0,4.m4v,2.0
2024-02-27 10:33:17.042552,1709026397.0425518,-34.1796875,-1000.0,140.13671875,-23.92578125,-1.0,1.0,-1.0,0.0,4.m4v,2.0
2024-02-27 10:33:17.046457,1709026397.0464566,-40.52734375,-935.546875,272.4609375,-33.69140625,-1.0,1.0,-1.0,0.0,4.m4v,2.0
2024-02-27 10:33:17.050361,1709026397.0503612,-41.015625,-1000.0,196.77734375,-34.1796875,-1.0,1.0,-1.0,0.0,4.m4v,2.0
2024-02-27 10:33:17.054266,1709026397.054266,-37.109375,-475.5859375,183.10546875,-40.52734375,-1.0,1.0,-1.0,0.0,4.m4v,2.0
2024-02-27 10:33:17.058171,1709026397.0581708,-48.828125,893.5546875,220.703125,-46.38671875,-1.0,1.0,-1.0,0.0,4.m4v,2.0
2024-02-27 10:33:17.062075,1709026397.0620754,-62.5,999.51171875,71.77734375,-40.52734375,-1.0,1.0,-1.0,0.0,4.m4v,2.0
2024-02-27 10:33:17.065980,1709026397.0659802,-59.08203125,921.38671875,283.203125,-34.66796875,-1.0,1.0,-1.0,0.0,4.m4v,2.0
2024-02-27 10:33:17.069885,1709026397.069885,-50.29296875,983.3984375,279.78515625,-39.55078125,-1.0,1.0,-1.0,0.0,4.m4v,2.0
2024-02-27 10:33:17.073790,1709026397.0737896,-57.6171875,969.7265625,-53.7109375,-53.22265625,-1.0,1.0,-1.0,0.0,4.m4v,2.0
2024-02-27 10:33:17.077694,1709026397.0776944,-65.91796875,970.21484375,-266.11328125,-45.8984375,-1.0,1.0,-1.0,0.0,4.m4v,2.0
2024-02-27 10:33:17.081611,1709026397.0816114,-52.734375,969.7265625,-8.7890625,-37.59765625,-1.0,1.0,-1.0,0.0,4.m4v,2.0
2024-02-27 10:33:17.085516,1709026397.085516,-33.69140625,969.7265625,493.65234375,-39.0625,-1.0,1.0,-1.0,0.0,4.m4v,2.0
2024-02-27 10:33:17.089421,1709026397.0894208,-21.484375,969.7265625,375.48828125,-31.73828125,-1.0,1.0,-1.0,0.0,4.m4v,2.0
2024-02-27 10:33:17.093326,1709026397.0933256,-41.9921875,975.09765625,-126.46484375,-29.296875,-1.0,1.0,-1.0,0.0,4.m4v,2.0
2024-02-27 10:33:17.097230,1709026397.0972302,-61.5234375,950.1953125,-85.9375,-39.0625,-1.0,1.0,-1.0,0.0,4.m4v,2.0
2024-02-27 10:33:17.101135,1709026397.101135,-49.8046875,943.359375,500.48828125,-35.15625,-1.0,1.0,-1.0,0.0,4.m4v,2.0
2024-02-27 10:33:17.105040,1709026397.1050398,-39.0625,999.51171875,937.01171875,-40.52734375,-1.0,1.0,-1.0,0.0,4.m4v,2.0
2024-02-27 10:33:17.108944,1709026397.1089444,-46.38671875,-92.7734375,431.15234375,-43.45703125,-1.0,1.0,-1.0,0.0,4.m4v,2.0
2024-02-27 10:33:17.112849,1709026397.1128492,-69.3359375,-1000.0,-391.6015625,-46.875,-1.0,1.0,-1.0,0.0,4.m4v,2.0
2024-02-27 10:33:17.116754,1709026397.116754,-72.75390625,-956.0546875,-599.609375,-56.15234375,-1.0,1.0,-1.0,0.0,4.m4v,2.0
2024-02-27 10:33:17.120659,1709026397.1206586,-48.33984375,-991.2109375,-446.2890625,-56.640625,-1.0,1.0,-1.0,0.0,4.m4v,2.0
2024-02-27 10:33:17.124563,1709026397.1245637,-45.41015625,-1000.0,-2.9296875,-41.50390625,-1.0,1.0,-1.0,0.0,4.m4v,2.0
2024-02-27 10:33:17.128490,1709026397.1284904,-56.640625,-1000.0,208.0078125,-29.296875,-1.0,1.0,-1.0,0.0,4.m4v,2.0
2024-02-27 10:33:17.132395,1709026397.132395,-53.7109375,-1000.0,-94.23828125,-32.71484375,-1.0,1.0,-1.0,0.0,4.m4v,2.0
2024-02-27 10:33:17.136300,1709026397.1362998,-60.546875,-967.28515625,-337.890625,-48.33984375,-1.0,1.0,-1.0,0.0,4.m4v,2.0
2024-02-27 10:33:17.140205,1709026397.140205,-57.6171875,-996.58203125,-247.55859375,-41.9921875,-1.0,1.0,-1.0,0.0,4.m4v,2.0
2024-02-27 10:33:17.144109,1709026397.1441092,-43.45703125,-1000.0,83.984375,-41.50390625,-1.0,1.0,-1.0,0.0,4.m4v,2.0
2024-02-27 10:33:17.148014,1709026397.148014,-20.99609375,260.7421875,693.84765625,-40.0390625,-1.0,1.0,-1.0,0.0,4.m4v,2.0
2024-02-27 10:33:17.151919,1709026397.151919,-12.20703125,999.51171875,630.859375,-33.69140625,-1.0,1.0,-1.0,0.0,4.m4v,2.0
2024-02-27 10:33:17.155823,1709026397.1558237,-28.80859375,903.80859375,-40.52734375,-47.36328125,-1.0,1.0,-1.0,0.0,4.m4v,2.0
2024-02-27 10:33:17.159728,1709026397.1597283,-22.4609375,974.12109375,-18.5546875,-46.875,-1.0,1.0,-1.0,0.0,4.m4v,2.0
2024-02-27 10:33:17.163633,1709026397.163633,-28.80859375,970.21484375,195.3125,-36.1328125,-1.0,1.0,-1.0,0.0,4.m4v,2.0
2024-02-27 10:33:17.167538,1709026397.167538,-36.62109375,969.7265625,301.26953125,-34.1796875,-1.0,1.0,-1.0,0.0,4.m4v,2.0
2024-02-27 10:33:17.171443,1709026397.1714425,-30.76171875,969.7265625,141.6015625,-44.921875,-1.0,1.0,-1.0,0.0,4.m4v,2.0
2024-02-27 10:33:17.175368,1709026397.1753678,-28.80859375,969.7265625,-144.04296875,-49.31640625,-1.0,1.0,-1.0,0.0,4.m4v,2.0
2024-02-27 10:33:17.179272,1709026397.1792724,-33.203125,969.7265625,-95.21484375,-40.0390625,-1.0,1.0,-1.0,0.0,4.m4v,2.0
2024-02-27 10:33:17.183177,1709026397.1831772,-28.3203125,969.7265625,281.25,-24.4140625,-1.0,1.0,-1.0,0.0,4.m4v,2.0
2024-02-27 10:33:17.187082,1709026397.187082,-14.6484375,969.7265625,467.28515625,-23.4375,-1.0,1.0,-1.0,0.0,4.m4v,2.0
2024-02-27 10:33:17.190987,1709026397.1909866,-20.5078125,985.83984375,202.1484375,-25.390625,-1.0,1.0,-1.0,0.0,4.m4v,2.0
2024-02-27 10:33:17.194891,1709026397.1948917,-28.80859375,901.85546875,92.7734375,-38.0859375,-1.0,1.0,-1.0,0.0,4.m4v,2.0
2024-02-27 10:33:17.198796,1709026397.1987965,-30.76171875,999.51171875,263.18359375,-45.8984375,-1.0,1.0,-1.0,0.0,4.m4v,2.0
2024-02-27 10:33:17.202701,1709026397.202701,-31.25,675.78125,305.6640625,-35.15625,-1.0,1.0,-1.0,0.0,4.m4v,2.0
2024-02-27 10:33:17.206606,1709026397.2066057,-34.1796875,-784.66796875,225.09765625,-36.1328125,-1.0,1.0,-1.0,0.0,4.m4v,2.0
2024-02-27 10:33:17.210510,1709026397.2105105,-45.8984375,-1000.0,-60.05859375,-47.8515625,-1.0,1.0,-1.0,0.0,4.m4v,2.0
2024-02-27 10:33:17.214415,1709026397.2144153,-47.8515625,-935.546875,-420.8984375,-50.78125,-1.0,1.0,-1.0,0.0,4.m4v,2.0
2024-02-27 10:33:17.218320,1709026397.21832,-45.8984375,-1000.0,-223.6328125,-42.48046875,-1.0,1.0,-1.0,0.0,4.m4v,2.0
2024-02-27 10:33:17.222244,1709026397.2222445,-38.0859375,-1000.0,97.16796875,-32.2265625,-1.0,1.0,-1.0,0.0,4.m4v,2.0
2024-02-27 10:33:17.226149,1709026397.2261488,-29.296875,-1000.0,232.91015625,-31.73828125,-1.0,1.0,-1.0,0.0,4.m4v,2.0
2024-02-27 10:33:17.230054,1709026397.2300537,-40.52734375,-1000.0,145.99609375,-37.109375,-1.0,1.0,-1.0,0.0,4.m4v,2.0
2024-02-27 10:33:17.233958,1709026397.2339585,-48.828125,-931.15234375,-235.3515625,-38.0859375,-1.0,1.0,-1.0,0.0,4.m4v,2.0
2024-02-27 10:33:17.237863,1709026397.2378633,-49.31640625,-1000.0,-340.33203125,-52.734375,-1.0,1.0,-1.0,0.0,4.m4v,2.0
2024-02-27 10:33:17.241768,1709026397.241768,-40.0390625,-702.63671875,266.6015625,-34.66796875,-1.0,1.0,-1.0,0.0,4.m4v,2.0
2024-02-27 10:33:17.245673,1709026397.2456727,-11.23046875,763.18359375,917.96875,-17.08984375,-1.0,1.0,-1.0,0.0,4.m4v,2.0
2024-02-27 10:33:17.249578,1709026397.2495775,-19.53125,999.51171875,585.44921875,-33.203125,-1.0,1.0,-1.0,0.0,4.m4v,2.0
2024-02-27 10:33:17.253482,1709026397.253482,-40.0390625,904.78515625,-17.578125,-46.875,-1.0,1.0,-1.0,0.0,4.m4v,2.0
2024-02-27 10:33:17.257387,1709026397.257387,-40.0390625,986.81640625,-156.25,-44.921875,-1.0,1.0,-1.0,0.0,4.m4v,2.0
2024-02-27 10:33:17.261292,1709026397.2612915,-25.390625,969.7265625,-5.859375,-38.57421875,-1.0,1.0,-1.0,0.0,4.m4v,2.0
2024-02-27 10:33:17.265196,1709026397.2651963,-15.625,969.7265625,354.4921875,-24.90234375,-1.0,1.0,-1.0,0.0,4.m4v,2.0
2024-02-27 10:33:17.269120,1709026397.2691202,-21.97265625,969.7265625,503.90625,-33.203125,-1.0,1.0,-1.0,0.0,4.m4v,2.0
2024-02-27 10:33:17.273025,1709026397.273025,-29.78515625,969.7265625,106.4453125,-42.48046875,-1.0,1.0,-1.0,0.0,4.m4v,2.0
2024-02-27 10:33:17.276930,1709026397.27693,-16.6015625,969.7265625,92.28515625,-33.69140625,-1.0,1.0,-1.0,0.0,4.m4v,2.0
2024-02-27 10:33:17.280835,1709026397.280835,-27.34375,969.7265625,561.03515625,-43.9453125,-1.0,1.0,-1.0,0.0,4.m4v,2.0
2024-02-27 10:33:17.284739,1709026397.2847393,-27.34375,976.5625,731.93359375,-45.8984375,-1.0,1.0,-1.0,0.0,4.m4v,2.0
2024-02-27 10:33:17.288644,1709026397.288644,-8.30078125,944.82421875,828.61328125,-44.43359375,-1.0,1.0,-1.0,0.0,4.m4v,2.0
2024-02-27 10:33:17.292549,1709026397.292549,-17.578125,952.63671875,742.1875,-53.7109375,-1.0,1.0,-1.0,0.0,4.m4v,2.0
2024-02-27 10:33:17.296453,1709026397.2964537,-31.73828125,999.51171875,382.32421875,-52.24609375,-1.0,1.0,-1.0,0.0,4.m4v,2.0
2024-02-27 10:33:17.300358,1709026397.3003583,-25.87890625,-165.0390625,237.3046875,-49.8046875,-1.0,1.0,-1.0,0.0,4.m4v,2.0
2024-02-27 10:33:17.304263,1709026397.304263,-23.4375,-1000.0,325.68359375,-54.6875,-1.0,1.0,-1.0,0.0,4.m4v,2.0
2024-02-27 10:33:17.308168,1709026397.3081677,-36.62109375,-949.21875,361.328125,-47.8515625,-1.0,1.0,-1.0,0.0,4.m4v,2.0
2024-02-27 10:33:17.312073,1709026397.3120725,-31.73828125,-995.60546875,249.0234375,-38.0859375,-1.0,1.0,-1.0,0.0,4.m4v,2.0
2024-02-27 10:33:17.315994,1709026397.3159945,-29.78515625,-1000.0,20.5078125,-41.9921875,-1.0,1.0,-1.0,0.0,4.m4v,2.0
2024-02-27 10:33:17.319899,1709026397.319899,-40.0390625,-1000.0,-32.71484375,-42.48046875,-1.0,1.0,-1.0,0.0,4.m4v,2.0
2024-02-27 10:33:17.323804,1709026397.323804,-27.83203125,-975.5859375,316.89453125,-31.73828125,-1.0,1.0,-1.0,0.0,4.m4v,2.0
2024-02-27 10:33:17.327708,1709026397.3277085,-25.87890625,-982.421875,498.046875,-26.3671875,-1.0,1.0,-1.0,0.0,4.m4v,2.0
2024-02-27 10:33:17.331613,1709026397.3316133,-31.25,-1000.0,353.02734375,-36.1328125,-1.0,1.0,-1.0,0.0,4.m4v,2.0
2024-02-27 10:33:17.335518,1709026397.335518,-20.5078125,137.20703125,430.6640625,-26.85546875,-1.0,1.0,-1.0,0.0,4.m4v,2.0
2024-02-27 10:33:17.339423,1709026397.3394227,-12.20703125,999.51171875,750.0,-11.23046875,-1.0,1.0,-1.0,0.0,4.m4v,2.0
2024-02-27 10:33:17.343328,1709026397.3433275,-30.76171875,917.48046875,874.51171875,-33.69140625,-1.0,1.0,-1.0,0.0,4.m4v,2.0
2024-02-27 10:33:17.347232,1709026397.3472323,-25.87890625,965.8203125,763.18359375,-41.015625,-1.0,1.0,-1.0,0.0,4.m4v,2.0
2024-02-27 10:33:17.351137,1709026397.351137,-3.41796875,971.6796875,458.984375,-24.4140625,-1.0,1.0,-1.0,0.0,4.m4v,2.0
2024-02-27 10:33:17.355042,1709026397.3550415,-20.99609375,969.7265625,98.6328125,-23.4375,-1.0,1.0,-1.0,0.0,4.m4v,2.0
2024-02-27 10:33:17.358947,1709026397.3589466,-40.0390625,969.7265625,23.4375,-31.73828125,-1.0,1.0,-1.0,0.0,4.m4v,2.0
2024-02-27 10:33:17.362871,1709026397.362871,-36.1328125,969.7265625,356.4453125,-37.109375,-1.0,1.0,-1.0,0.0,4.m4v,2.0
2024-02-27 10:33:17.366776,1709026397.3667758,-38.57421875,969.7265625,727.05078125,-37.59765625,-1.0,1.0,-1.0,0.0,4.m4v,2.0
2024-02-27 10:33:17.370680,1709026397.3706803,-40.0390625,969.7265625,561.5234375,-27.83203125,-1.0,1.0,-1.0,0.0,4.m4v,2.0
2024-02-27 10:33:17.374585,1709026397.3745852,-41.015625,969.7265625,227.5390625,-36.62109375,-1.0,1.0,-1.0,0.0,4.m4v,2.0
2024-02-27 10:33:17.378490,1709026397.37849,-36.1328125,986.328125,187.98828125,-41.50390625,-1.0,1.0,-1.0,0.0,4.m4v,2.0
2024-02-27 10:33:17.382395,1709026397.3823946,-43.9453125,908.203125,601.5625,-31.73828125,-1.0,1.0,-1.0,0.0,4.m4v,2.0
2024-02-27 10:33:17.386299,1709026397.3862994,-45.41015625,999.51171875,985.3515625,-36.62109375,-1.0,1.0,-1.0,0.0,4.m4v,2.0
2024-02-27 10:33:17.390204,1709026397.3902042,-38.0859375,798.828125,639.16015625,-39.0625,-1.0,1.0,-1.0,0.0,4.m4v,2.0
2024-02-27 10:33:17.394109,1709026397.394109,-50.78125,-662.59765625,-20.5078125,-42.96875,-1.0,1.0,-1.0,0.0,4.m4v,2.0
2024-02-27 10:33:17.398014,1709026397.3980136,-41.50390625,-1000.0,-7.32421875,-45.8984375,-1.0,1.0,-1.0,0.0,4.m4v,2.0
2024-02-27 10:33:17.401918,1709026397.4019184,-16.6015625,-928.7109375,260.7421875,-37.59765625,-1.0,1.0,-1.0,0.0,4.m4v,2.0
2024-02-27 10:33:17.405823,1709026397.4058232,-30.2734375,-1000.0,359.375,-29.296875,-1.0,1.0,-1.0,0.0,4.m4v,2.0
2024-02-27 10:33:17.409743,1709026397.4097428,-50.29296875,-1000.0,331.0546875,-36.1328125,-1.0,1.0,-1.0,0.0,4.m4v,2.0
2024-02-27 10:33:17.413648,1709026397.4136477,-47.36328125,-1000.0,17.578125,-41.9921875,-1.0,1.0,-1.0,0.0,4.m4v,2.0
2024-02-27 10:33:17.417552,1709026397.4175522,-40.0390625,-1000.0,-186.5234375,-38.0859375,-1.0,1.0,-1.0,0.0,4.m4v,2.0
2024-02-27 10:33:17.421457,1709026397.421457,-42.48046875,-934.5703125,62.5,-29.296875,-1.0,1.0,-1.0,0.0,4.m4v,2.0
2024-02-27 10:33:17.425362,1709026397.425362,-38.0859375,-1000.0,439.94140625,-22.94921875,-1.0,1.0,-1.0,0.0,4.m4v,2.0
2024-02-27 10:33:17.429267,1709026397.4292667,-17.08984375,-473.6328125,721.6796875,-25.390625,-1.0,1.0,-1.0,0.0,4.m4v,2.0
2024-02-27 10:33:17.433171,1709026397.4331713,-14.6484375,897.4609375,564.453125,-20.01953125,-1.0,1.0,-1.0,0.0,4.m4v,2.0
2024-02-27 10:33:17.437076,1709026397.437076,-38.0859375,999.51171875,28.3203125,-27.34375,-1.0,1.0,-1.0,0.0,4.m4v,2.0
2024-02-27 10:33:17.440981,1709026397.440981,-39.0625,921.38671875,117.67578125,-48.828125,-1.0,1.0,-1.0,0.0,4.m4v,2.0
2024-02-27 10:33:17.444885,1709026397.4448855,-15.625,983.3984375,467.7734375,-37.109375,-1.0,1.0,-1.0,0.0,4.m4v,2.0
2024-02-27 10:33:17.448790,1709026397.4487903,-19.53125,969.7265625,477.05078125,-34.66796875,-1.0,1.0,-1.0,0.0,4.m4v,2.0
2024-02-27 10:33:17.452695,1709026397.4526951,-39.0625,969.7265625,198.2421875,-49.8046875,-1.0,1.0,-1.0,0.0,4.m4v,2.0
2024-02-27 10:33:17.456614,1709026397.4566145,-30.2734375,970.21484375,44.43359375,-31.73828125,-1.0,1.0,-1.0,0.0,4.m4v,2.0
2024-02-27 10:33:17.460519,1709026397.4605188,-29.78515625,969.7265625,368.1640625,-17.578125,-1.0,1.0,-1.0,0.0,4.m4v,2.0
2024-02-27 10:33:17.464424,1709026397.4644237,-35.64453125,969.7265625,707.03125,-34.66796875,-1.0,1.0,-1.0,0.0,4.m4v,2.0
2024-02-27 10:33:17.468328,1709026397.4683285,-23.4375,969.7265625,713.37890625,-41.9921875,-1.0,1.0,-1.0,0.0,4.m4v,2.0
2024-02-27 10:33:17.472233,1709026397.4722333,-24.90234375,979.4921875,269.04296875,-38.57421875,-1.0,1.0,-1.0,0.0,4.m4v,2.0
2024-02-27 10:33:17.476138,1709026397.476138,-36.62109375,934.08203125,145.01953125,-28.80859375,-1.0,1.0,-1.0,0.0,4.m4v,2.0
2024-02-27 10:33:17.480043,1709026397.4800427,-37.59765625,972.16796875,494.62890625,-40.52734375,-1.0,1.0,-1.0,0.0,4.m4v,2.0
2024-02-27 10:33:17.483948,1709026397.4839475,-31.73828125,996.09375,630.37109375,-37.109375,-1.0,1.0,-1.0,0.0,4.m4v,2.0
2024-02-27 10:33:17.487852,1709026397.487852,-35.64453125,-317.87109375,438.96484375,-34.66796875,-1.0,1.0,-1.0,0.0,4.m4v,2.0
2024-02-27 10:33:17.491757,1709026397.491757,-47.8515625,-1000.0,4.39453125,-49.8046875,-1.0,1.0,-1.0,0.0,4.m4v,2.0
2024-02-27 10:33:17.495662,1709026397.4956615,-42.96875,-934.08203125,-228.515625,-54.6875,-1.0,1.0,-1.0,0.0,4.m4v,2.0
2024-02-27 10:33:17.499567,1709026397.4995666,-39.0625,-1000.0,-138.18359375,-48.828125,-1.0,1.0,-1.0,0.0,4.m4v,2.0
2024-02-27 10:33:17.503494,1709026397.5034945,-34.66796875,-1000.0,249.0234375,-33.69140625,-1.0,1.0,-1.0,0.0,4.m4v,2.0
2024-02-27 10:33:17.507399,1709026397.5073988,-10.25390625,-1000.0,418.9453125,-30.76171875,-1.0,1.0,-1.0,0.0,4.m4v,2.0
2024-02-27 10:33:17.511304,1709026397.5113037,-25.390625,-939.94140625,108.3984375,-32.71484375,-1.0,1.0,-1.0,0.0,4.m4v,2.0
2024-02-27 10:33:17.515208,1709026397.5152085,-44.43359375,-1000.0,-109.86328125,-39.0625,-1.0,1.0,-1.0,0.0,4.m4v,2.0
2024-02-27 10:33:17.519113,1709026397.519113,-28.80859375,-751.953125,134.765625,-38.0859375,-1.0,1.0,-1.0,0.0,4.m4v,2.0
2024-02-27 10:33:17.523018,1709026397.523018,-25.390625,676.7578125,689.453125,-24.90234375,-1.0,1.0,-1.0,0.0,4.m4v,2.0
2024-02-27 10:33:17.526923,1709026397.5269227,-39.55078125,999.51171875,956.0546875,-26.85546875,-1.0,1.0,-1.0,0.0,4.m4v,2.0
2024-02-27 10:33:17.530828,1709026397.5308275,-35.64453125,903.80859375,380.37109375,-36.62109375,-1.0,1.0,-1.0,0.0,4.m4v,2.0
2024-02-27 10:33:17.534732,1709026397.534732,-39.0625,984.86328125,-260.7421875,-41.50390625,-1.0,1.0,-1.0,0.0,4.m4v,2.0
2024-02-27 10:33:17.538637,1709026397.538637,-44.921875,969.7265625,-281.25,-37.109375,-1.0,1.0,-1.0,0.0,4.m4v,2.0
2024-02-27 10:33:17.542542,1709026397.5425415,-33.69140625,969.7265625,96.19140625,-29.78515625,-1.0,1.0,-1.0,0.0,4.m4v,2.0
2024-02-27 10:33:17.546446,1709026397.5464463,-25.390625,969.7265625,457.03125,-29.78515625,-1.0,1.0,-1.0,0.0,4.m4v,2.0
2024-02-27 10:33:17.550372,1709026397.5503724,-31.73828125,969.7265625,249.51171875,-33.203125,-1.0,1.0,-1.0,0.0,4.m4v,2.0
2024-02-27 10:33:17.554277,1709026397.5542772,-41.9921875,969.23828125,-216.796875,-44.43359375,-1.0,1.0,-1.0,0.0,4.m4v,2.0
2024-02-27 10:33:17.558182,1709026397.558182,-44.921875,969.23828125,-347.16796875,-52.734375,-1.0,1.0,-1.0,0.0,4.m4v,2.0
2024-02-27 10:33:17.562087,1709026397.5620868,-38.57421875,984.375,9.27734375,-49.31640625,-1.0,1.0,-1.0,0.0,4.m4v,2.0
2024-02-27 10:33:17.565991,1709026397.5659914,-38.0859375,918.9453125,416.50390625,-32.2265625,-1.0,1.0,-1.0,0.0,4.m4v,2.0
2024-02-27 10:33:17.569896,1709026397.5698962,-33.203125,999.51171875,556.640625,-24.90234375,-1.0,1.0,-1.0,0.0,4.m4v,2.0
2024-02-27 10:33:17.573801,1709026397.573801,-27.34375,910.15625,336.9140625,-47.36328125,-1.0,1.0,-1.0,0.0,4.m4v,2.0
2024-02-27 10:33:17.577706,1709026397.5777056,-24.4140625,-513.18359375,-74.21875,-47.8515625,-1.0,1.0,-1.0,0.0,4.m4v,2.0
2024-02-27 10:33:17.581610,1709026397.5816104,-26.3671875,-1000.0,-73.73046875,-24.90234375,-1.0,1.0,-1.0,0.0,4.m4v,2.0
2024-02-27 10:33:17.585515,1709026397.5855153,-53.7109375,-926.26953125,168.9453125,-38.57421875,-1.0,1.0,-1.0,0.0,4.m4v,2.0
2024-02-27 10:33:17.589420,1709026397.58942,-51.26953125,-1000.0,31.73828125,-55.6640625,-1.0,1.0,-1.0,0.0,4.m4v,2.0
2024-02-27 10:33:17.593325,1709026397.593325,-32.71484375,-1000.0,-352.5390625,-50.78125,-1.0,1.0,-1.0,0.0,4.m4v,2.0
2024-02-27 10:33:17.597250,1709026397.59725,-41.015625,-1000.0,-464.35546875,-51.26953125,-1.0,1.0,-1.0,0.0,4.m4v,2.0
2024-02-27 10:33:17.601155,1709026397.6011548,-54.6875,-1000.0,-306.15234375,-51.26953125,-1.0,1.0,-1.0,0.0,4.m4v,2.0
2024-02-27 10:33:17.605060,1709026397.6050596,-50.29296875,-1000.0,143.06640625,-42.96875,-1.0,1.0,-1.0,0.0,4.m4v,2.0
2024-02-27 10:33:17.608964,1709026397.6089644,-23.92578125,-1000.0,249.51171875,-33.69140625,-1.0,1.0,-1.0,0.0,4.m4v,2.0
2024-02-27 10:33:17.612869,1709026397.612869,-20.99609375,-940.91796875,-97.65625,-34.1796875,-1.0,1.0,-1.0,0.0,4.m4v,2.0
2024-02-27 10:33:17.616774,1709026397.6167738,-55.6640625,-1000.0,-260.25390625,-47.8515625,-1.0,1.0,-1.0,0.0,4.m4v,2.0
2024-02-27 10:33:17.620679,1709026397.620679,-58.10546875,-351.07421875,71.2890625,-46.38671875,-1.0,1.0,-1.0,0.0,4.m4v,2.0
2024-02-27 10:33:17.624583,1709026397.6245832,-47.8515625,950.1953125,457.51953125,-28.80859375,-1.0,1.0,-1.0,0.0,4.m4v,2.0
2024-02-27 10:33:17.628488,1709026397.628488,-47.8515625,984.375,383.7890625,-42.48046875,-1.0,1.0,-1.0,0.0,4.m4v,2.0
2024-02-27 10:33:17.632393,1709026397.632393,-48.828125,930.6640625,-87.40234375,-45.41015625,-1.0,1.0,-1.0,0.0,4.m4v,2.0
2024-02-27 10:33:17.636298,1709026397.6362977,-42.96875,980.95703125,-256.8359375,-36.1328125,-1.0,1.0,-1.0,0.0,4.m4v,2.0
2024-02-27 10:33:17.640202,1709026397.6402023,-44.43359375,969.7265625,29.78515625,-43.9453125,-1.0,1.0,-1.0,0.0,4.m4v,2.0
2024-02-27 10:33:17.644126,1709026397.6441262,-57.12890625,969.7265625,245.60546875,-34.66796875,-1.0,1.0,-1.0,0.0,4.m4v,2.0
2024-02-27 10:33:17.648031,1709026397.648031,-64.453125,969.7265625,233.88671875,-32.2265625,-1.0,1.0,-1.0,0.0,4.m4v,2.0
2024-02-27 10:33:17.651936,1709026397.6519358,-63.4765625,969.7265625,-83.984375,-39.0625,-1.0,1.0,-1.0,0.0,4.m4v,2.0
2024-02-27 10:33:17.655841,1709026397.6558406,-50.29296875,969.7265625,-370.60546875,-34.1796875,-1.0,1.0,-1.0,0.0,4.m4v,2.0
2024-02-27 10:33:17.659745,1709026397.6597452,-57.6171875,979.4921875,-285.64453125,-37.59765625,-1.0,1.0,-1.0,0.0,4.m4v,2.0
2024-02-27 10:33:17.663650,1709026397.66365,-62.98828125,934.5703125,382.8125,-43.45703125,-1.0,1.0,-1.0,0.0,4.m4v,2.0
2024-02-27 10:33:17.667555,1709026397.6675549,-43.9453125,972.16796875,831.54296875,-41.50390625,-1.0,1.0,-1.0,0.0,4.m4v,2.0
2024-02-27 10:33:17.671459,1709026397.6714594,-40.52734375,995.60546875,274.4140625,-41.9921875,-1.0,1.0,-1.0,0.0,4.m4v,2.0
2024-02-27 10:33:17.675364,1709026397.6753645,-62.5,-315.91796875,-433.10546875,-41.9921875,-1.0,1.0,-1.0,0.0,4.m4v,2.0
2024-02-27 10:33:17.679269,1709026397.679269,-60.546875,-1000.0,-631.8359375,-41.50390625,-1.0,1.0,-1.0,0.0,4.m4v,2.0
2024-02-27 10:33:17.683174,1709026397.683174,-31.73828125,-934.5703125,-170.8984375,-39.0625,-1.0,1.0,-1.0,0.0,4.m4v,2.0
2024-02-27 10:33:17.687078,1709026397.6870785,-24.90234375,-1000.0,158.203125,-33.69140625,-1.0,1.0,-1.0,0.0,4.m4v,2.0
2024-02-27 10:33:17.691001,1709026397.6910007,-27.34375,-1000.0,-169.43359375,-32.2265625,-1.0,1.0,-1.0,0.0,4.m4v,2.0
2024-02-27 10:33:17.694906,1709026397.6949055,-34.66796875,-1000.0,-431.640625,-30.2734375,-1.0,1.0,-1.0,0.0,4.m4v,2.0
2024-02-27 10:33:17.698810,1709026397.6988103,-21.484375,-1000.0,-152.34375,-36.1328125,-1.0,1.0,-1.0,0.0,4.m4v,2.0
2024-02-27 10:33:17.702715,1709026397.702715,-22.4609375,-941.40625,195.3125,-43.9453125,-1.0,1.0,-1.0,0.0,4.m4v,2.0
2024-02-27 10:33:17.706620,1709026397.7066195,-35.15625,-1000.0,247.0703125,-35.15625,-1.0,1.0,-1.0,0.0,4.m4v,2.0
2024-02-27 10:33:17.710525,1709026397.7105246,-19.04296875,-880.37109375,179.19921875,-36.62109375,-1.0,1.0,-1.0,0.0,4.m4v,2.0
2024-02-27 10:33:17.714429,1709026397.7144294,-14.16015625,579.58984375,104.4921875,-40.52734375,-1.0,1.0,-1.0,0.0,4.m4v,2.0
2024-02-27 10:33:17.718334,1709026397.718334,-28.80859375,999.51171875,-93.26171875,-37.59765625,-1.0,1.0,-1.0,0.0,4.m4v,2.0
2024-02-27 10:33:17.722239,1709026397.7222388,-29.78515625,895.5078125,-35.64453125,-31.73828125,-1.0,1.0,-1.0,0.0,4.m4v,2.0
2024-02-27 10:33:17.726144,1709026397.7261436,-11.71875,985.83984375,269.04296875,-29.296875,-1.0,1.0,-1.0,0.0,4.m4v,2.0
2024-02-27 10:33:17.730048,1709026397.7300482,-9.765625,969.7265625,310.05859375,-28.3203125,-1.0,1.0,-1.0,0.0,4.m4v,2.0
2024-02-27 10:33:17.733953,1709026397.733953,-32.71484375,969.7265625,50.29296875,-29.78515625,-1.0,1.0,-1.0,0.0,4.m4v,2.0
2024-02-27 10:33:17.737873,1709026397.737873,-48.33984375,969.7265625,-276.85546875,-50.29296875,-1.0,1.0,-1.0,0.0,4.m4v,2.0
2024-02-27 10:33:17.741778,1709026397.741778,-38.0859375,969.7265625,-183.59375,-54.6875,-1.0,1.0,-1.0,0.0,4.m4v,2.0
2024-02-27 10:33:17.745683,1709026397.7456827,-38.57421875,969.7265625,192.3828125,-33.203125,-1.0,1.0,-1.0,0.0,4.m4v,2.0
2024-02-27 10:33:17.749587,1709026397.7495873,-39.55078125,969.7265625,90.8203125,-21.484375,-1.0,1.0,-1.0,0.0,4.m4v,2.0
2024-02-27 10:33:17.753492,1709026397.753492,-29.296875,976.5625,-249.51171875,-34.1796875,-1.0,1.0,-1.0,0.0,4.m4v,2.0
2024-02-27 10:33:17.757397,1709026397.757397,-37.59765625,945.3125,-111.328125,-34.66796875,-1.0,1.0,-1.0,0.0,4.m4v,2.0
2024-02-27 10:33:17.761302,1709026397.7613018,-38.57421875,952.63671875,469.7265625,-33.69140625,-1.0,1.0,-1.0,0.0,4.m4v,2.0
2024-02-27 10:33:17.765206,1709026397.7652063,-13.18359375,999.51171875,675.78125,-37.59765625,-1.0,1.0,-1.0,0.0,4.m4v,2.0
2024-02-27 10:33:17.769111,1709026397.7691112,-23.92578125,-161.1328125,169.921875,-33.203125,-1.0,1.0,-1.0,0.0,4.m4v,2.0
2024-02-27 10:33:17.773016,1709026397.773016,-58.59375,-1000.0,-446.2890625,-43.9453125,-1.0,1.0,-1.0,0.0,4.m4v,2.0
2024-02-27 10:33:17.776921,1709026397.7769206,-60.546875,-949.70703125,-635.7421875,-42.48046875,-1.0,1.0,-1.0,0.0,4.m4v,2.0
2024-02-27 10:33:17.780825,1709026397.7808254,-51.7578125,-995.60546875,-432.6171875,-33.203125,-1.0,1.0,-1.0,0.0,4.m4v,2.0
2024-02-27 10:33:17.784744,1709026397.7847438,-35.15625,-1000.0,-64.453125,-28.80859375,-1.0,1.0,-1.0,0.0,4.m4v,2.0
2024-02-27 10:33:17.788649,1709026397.7886486,-32.71484375,-1000.0,27.83203125,-27.83203125,-1.0,1.0,-1.0,0.0,4.m4v,2.0
2024-02-27 10:33:17.792553,1709026397.7925534,-49.8046875,-1000.0,-243.65234375,-45.41015625,-1.0,1.0,-1.0,0.0,4.m4v,2.0
2024-02-27 10:33:17.796458,1709026397.796458,-43.9453125,-933.10546875,-433.59375,-39.0625,-1.0,1.0,-1.0,0.0,4.m4v,2.0
2024-02-27 10:33:17.800363,1709026397.8003628,-34.66796875,-1000.0,-330.078125,-18.5546875,-1.0,1.0,-1.0,0.0,4.m4v,2.0
2024-02-27 10:33:17.804268,1709026397.8042676,-36.62109375,-469.23828125,392.578125,-19.04296875,-1.0,1.0,-1.0,0.0,4.m4v,2.0
2024-02-27 10:33:17.808172,1709026397.8081725,-38.57421875,906.73828125,860.3515625,-30.76171875,-1.0,1.0,-1.0,0.0,4.m4v,2.0
2024-02-27 10:33:17.812077,1709026397.812077,-41.015625,999.51171875,120.1171875,-31.73828125,-1.0,1.0,-1.0,0.0,4.m4v,2.0
2024-02-27 10:33:17.815982,1709026397.815982,-42.96875,921.875,-369.62890625,-28.3203125,-1.0,1.0,-1.0,0.0,4.m4v,2.0
2024-02-27 10:33:17.819887,1709026397.8198867,-32.2265625,982.91015625,-56.15234375,-41.9921875,-1.0,1.0,-1.0,0.0,4.m4v,2.0
2024-02-27 10:33:17.823791,1709026397.8237913,-32.71484375,969.7265625,173.828125,-41.015625,-1.0,1.0,-1.0,0.0,4.m4v,2.0
2024-02-27 10:33:17.827696,1709026397.827696,-45.41015625,969.7265625,222.65625,-38.0859375,-1.0,1.0,-1.0,0.0,4.m4v,2.0
2024-02-27 10:33:17.831613,1709026397.8316126,-38.57421875,969.7265625,-19.53125,-39.0625,-1.0,1.0,-1.0,0.0,4.m4v,2.0
2024-02-27 10:33:17.835517,1709026397.8355174,-29.78515625,969.7265625,-371.09375,-36.1328125,-1.0,1.0,-1.0,0.0,4.m4v,2.0
2024-02-27 10:33:17.839422,1709026397.8394222,-41.9921875,969.7265625,-324.70703125,-29.296875,-1.0,1.0,-1.0,0.0,4.m4v,2.0
2024-02-27 10:33:17.843327,1709026397.843327,-56.15234375,973.6328125,80.078125,-27.83203125,-1.0,1.0,-1.0,0.0,4.m4v,2.0
2024-02-27 10:33:17.847232,1709026397.8472316,-46.38671875,959.9609375,279.296875,-14.6484375,-1.0,1.0,-1.0,0.0,4.m4v,2.0
2024-02-27 10:33:17.851136,1709026397.8511364,-20.99609375,928.7109375,353.02734375,1.46484375,-1.0,1.0,-1.0,0.0,4.m4v,2.0
2024-02-27 10:33:17.855041,1709026397.8550413,-3.90625,999.51171875,312.98828125,-4.8828125,-1.0,1.0,-1.0,0.0,4.m4v,2.0
2024-02-27 10:33:17.858946,1709026397.8589458,-37.109375,77.63671875,-150.390625,-42.96875,-1.0,1.0,-1.0,0.0,4.m4v,2.0
2024-02-27 10:33:17.862851,1709026397.862851,-77.1484375,-1000.0,-151.3671875,-71.77734375,-1.0,1.0,-1.0,0.0,4.m4v,2.0
2024-02-27 10:33:17.866755,1709026397.8667555,-54.6875,-979.4921875,166.9921875,-60.546875,-1.0,1.0,-1.0,0.0,4.m4v,2.0
2024-02-27 10:33:17.870660,1709026397.8706603,-28.80859375,-979.00390625,-87.890625,-51.26953125,-1.0,1.0,-1.0,0.0,4.m4v,2.0
2024-02-27 10:33:17.874565,1709026397.874565,-38.0859375,-1000.0,-531.25,-44.43359375,-1.0,1.0,-1.0,0.0,4.m4v,2.0
2024-02-27 10:33:17.878492,1709026397.878492,-50.29296875,-1000.0,-327.63671875,-42.48046875,-1.0,1.0,-1.0,0.0,4.m4v,2.0
2024-02-27 10:33:17.882397,1709026397.8823967,-38.57421875,-1000.0,-23.92578125,-46.875,-1.0,1.0,-1.0,0.0,4.m4v,2.0
2024-02-27 10:33:17.886301,1709026397.8863013,-29.78515625,-1000.0,36.62109375,-39.0625,-1.0,1.0,-1.0,0.0,4.m4v,2.0
2024-02-27 10:33:17.890206,1709026397.890206,-33.203125,-939.453125,-77.1484375,-35.64453125,-1.0,1.0,-1.0,0.0,4.m4v,2.0
2024-02-27 10:33:17.894111,1709026397.894111,-22.4609375,-1000.0,-386.71875,-39.0625,-1.0,1.0,-1.0,0.0,4.m4v,2.0
2024-02-27 10:33:17.898016,1709026397.8980155,-25.390625,-366.2109375,-135.25390625,-34.1796875,-1.0,1.0,-1.0,0.0,4.m4v,2.0
2024-02-27 10:33:17.901920,1709026397.9019203,-23.4375,944.82421875,476.5625,-35.15625,-1.0,1.0,-1.0,0.0,4.m4v,2.0
2024-02-27 10:33:17.905825,1709026397.9058251,-18.06640625,986.81640625,489.2578125,-37.59765625,-1.0,1.0,-1.0,0.0,4.m4v,2.0
2024-02-27 10:33:17.909730,1709026397.90973,-19.04296875,929.6875,64.453125,-30.2734375,-1.0,1.0,-1.0,0.0,4.m4v,2.0
2024-02-27 10:33:17.913635,1709026397.9136343,-28.80859375,980.95703125,-327.1484375,-41.50390625,-1.0,1.0,-1.0,0.0,4.m4v,2.0
2024-02-27 10:33:17.917539,1709026397.9175394,-39.55078125,969.7265625,-473.6328125,-55.6640625,-1.0,1.0,-1.0,0.0,4.m4v,2.0
2024-02-27 10:33:17.921444,1709026397.9214442,-33.69140625,969.7265625,-214.35546875,-53.7109375,-1.0,1.0,-1.0,0.0,4.m4v,2.0
2024-02-27 10:33:17.925371,1709026397.925371,-17.08984375,969.7265625,234.86328125,-45.41015625,-1.0,1.0,-1.0,0.0,4.m4v,2.0
2024-02-27 10:33:17.929276,1709026397.9292758,-24.90234375,969.7265625,250.48828125,-41.9921875,-1.0,1.0,-1.0,0.0,4.m4v,2.0
2024-02-27 10:33:17.933181,1709026397.9331806,-36.1328125,969.7265625,-98.6328125,-27.83203125,-1.0,1.0,-1.0,0.0,4.m4v,2.0
2024-02-27 10:33:17.937085,1709026397.9370852,-28.3203125,971.19140625,-179.6875,-34.66796875,-1.0,1.0,-1.0,0.0,4.m4v,2.0
2024-02-27 10:33:17.940990,1709026397.94099,-26.3671875,973.14453125,156.73828125,-51.7578125,-1.0,1.0,-1.0,0.0,4.m4v,2.0
2024-02-27 10:33:17.944895,1709026397.9448948,-24.90234375,910.15625,580.56640625,-32.71484375,-1.0,1.0,-1.0,0.0,4.m4v,2.0
2024-02-27 10:33:17.948799,1709026397.9487994,-15.13671875,999.51171875,706.54296875,-24.90234375,-1.0,1.0,-1.0,0.0,4.m4v,2.0
2024-02-27 10:33:17.952704,1709026397.9527042,-21.484375,308.10546875,-28.80859375,-34.1796875,-1.0,1.0,-1.0,0.0,4.m4v,2.0
2024-02-27 10:33:17.956609,1709026397.956609,-33.203125,-988.28125,-715.33203125,-42.96875,-1.0,1.0,-1.0,0.0,4.m4v,2.0
2024-02-27 10:33:17.960514,1709026397.9605138,-38.0859375,-1000.0,-640.13671875,-38.0859375,-1.0,1.0,-1.0,0.0,4.m4v,2.0
2024-02-27 10:33:17.964418,1709026397.9644184,-20.99609375,-962.40234375,-217.7734375,-26.85546875,-1.0,1.0,-1.0,0.0,4.m4v,2.0
2024-02-27 10:33:17.968323,1709026397.9683232,-15.13671875,-1000.0,-88.8671875,-26.3671875,-1.0,1.0,-1.0,0.0,4.m4v,2.0
2024-02-27 10:33:17.972249,1709026397.9722486,-35.15625,-1000.0,-322.265625,-35.15625,-1.0,1.0,-1.0,0.0,4.m4v,2.0
2024-02-27 10:33:17.976153,1709026397.9761534,-22.4609375,-1000.0,-481.4453125,-33.203125,-1.0,1.0,-1.0,0.0,4.m4v,2.0
2024-02-27 10:33:17.980058,1709026397.9800582,-16.6015625,-987.79296875,-356.93359375,-29.78515625,-1.0,1.0,-1.0,0.0,4.m4v,2.0
2024-02-27 10:33:17.983963,1709026397.9839628,-24.90234375,-961.9140625,41.015625,-26.85546875,-1.0,1.0,-1.0,0.0,4.m4v,2.0
2024-02-27 10:33:17.987868,1709026397.9878676,-27.83203125,-1000.0,198.2421875,-25.390625,-1.0,1.0,-1.0,0.0,4.m4v,2.0
2024-02-27 10:33:17.991772,1709026397.9917724,-22.4609375,-62.98828125,199.21875,-21.484375,-1.0,1.0,-1.0,0.0,4.m4v,2.0
2024-02-27 10:33:17.995677,1709026397.9956772,-14.16015625,999.51171875,230.95703125,-36.1328125,-1.0,1.0,-1.0,0.0,4.m4v,2.0
2024-02-27 10:33:17.999582,1709026397.9995818,-10.25390625,942.3828125,259.765625,-38.57421875,-1.0,1.0,-1.0,0.0,4.m4v,2.0
2024-02-27 10:33:18.003487,1709026398.0034866,-18.06640625,952.1484375,336.42578125,-31.73828125,-1.0,1.0,-1.0,0.0,4.m4v,2.0
2024-02-27 10:33:18.007391,1709026398.0073917,-12.20703125,975.09765625,304.6875,-32.71484375,-1.0,1.0,-1.0,0.0,4.m4v,2.0
2024-02-27 10:33:18.011296,1709026398.011296,1.953125,969.7265625,-1.953125,-35.64453125,-1.0,1.0,-1.0,0.0,4.m4v,2.0
2024-02-27 10:33:18.015201,1709026398.0152009,-8.7890625,969.7265625,-263.18359375,-48.828125,-1.0,1.0,-1.0,0.0,4.m4v,2.0
2024-02-27 10:33:18.019124,1709026398.0191245,-28.80859375,971.6796875,-186.5234375,-43.9453125,-1.0,1.0,-1.0,0.0,4.m4v,2.0
2024-02-27 10:33:18.023029,1709026398.023029,-22.94921875,972.16796875,50.78125,-22.4609375,-1.0,1.0,-1.0,0.0,4.m4v,2.0
2024-02-27 10:33:18.026934,1709026398.026934,-17.578125,911.62109375,189.94140625,-28.3203125,-1.0,1.0,-1.0,0.0,4.m4v,2.0
2024-02-27 10:33:18.030838,1709026398.0308385,-31.25,999.51171875,14.6484375,-39.0625,-1.0,1.0,-1.0,0.0,4.m4v,2.0
2024-02-27 10:33:18.034743,1709026398.0347433,-39.55078125,301.7578125,-436.5234375,-43.45703125,-1.0,1.0,-1.0,0.0,4.m4v,2.0
2024-02-27 10:33:18.038648,1709026398.038648,-37.109375,-987.3046875,-465.8203125,-42.96875,-1.0,1.0,-1.0,0.0,4.m4v,2.0
2024-02-27 10:33:18.042553,1709026398.0425527,-32.2265625,-1000.0,163.0859375,-27.34375,-1.0,1.0,-1.0,0.0,4.m4v,2.0
2024-02-27 10:33:18.046458,1709026398.0464575,-35.15625,-962.40234375,294.43359375,-23.4375,-1.0,1.0,-1.0,0.0,4.m4v,2.0
2024-02-27 10:33:18.050362,1709026398.0503623,-38.0859375,-1000.0,-114.2578125,-20.5078125,-1.0,1.0,-1.0,0.0,4.m4v,2.0
2024-02-27 10:33:18.054267,1709026398.0542672,-33.203125,-1000.0,-438.4765625,-39.0625,-1.0,1.0,-1.0,0.0,4.m4v,2.0
2024-02-27 10:33:18.058172,1709026398.0581715,-29.78515625,-1000.0,-378.41796875,-41.9921875,-1.0,1.0,-1.0,0.0,4.m4v,2.0
2024-02-27 10:33:18.062077,1709026398.0620766,-34.1796875,-1000.0,-120.60546875,-33.69140625,-1.0,1.0,-1.0,0.0,4.m4v,2.0
2024-02-27 10:33:18.065999,1709026398.065999,-34.1796875,-1000.0,70.3125,-42.96875,-1.0,1.0,-1.0,0.0,4.m4v,2.0
2024-02-27 10:33:18.069904,1709026398.069904,-29.296875,-1000.0,-82.51953125,-50.78125,-1.0,1.0,-1.0,0.0,4.m4v,2.0
2024-02-27 10:33:18.073809,1709026398.073809,-11.23046875,-1000.0,-347.65625,-52.734375,-1.0,1.0,-1.0,0.0,4.m4v,2.0
2024-02-27 10:33:18.077713,1709026398.0777133,-10.25390625,-935.546875,-448.73046875,-37.109375,-1.0,1.0,-1.0,0.0,4.m4v,2.0
2024-02-27 10:33:18.081618,1709026398.081618,-30.2734375,-1000.0,-380.859375,-42.48046875,-1.0,1.0,-1.0,0.0,4.m4v,2.0
2024-02-27 10:33:18.085523,1709026398.085523,-21.97265625,-403.3203125,286.1328125,-38.57421875,-1.0,1.0,-1.0,0.0,4.m4v,2.0
2024-02-27 10:33:18.089428,1709026398.0894277,-4.39453125,937.98828125,686.5234375,-24.90234375,-1.0,1.0,-1.0,0.0,4.m4v,2.0
2024-02-27 10:33:18.093332,1709026398.0933323,-31.73828125,991.2109375,31.25,-36.1328125,-1.0,1.0,-1.0,0.0,4.m4v,2.0
2024-02-27 10:33:18.097237,1709026398.097237,-43.9453125,926.7578125,-385.25390625,-41.50390625,-1.0,1.0,-1.0,0.0,4.m4v,2.0
2024-02-27 10:33:18.101142,1709026398.101142,-19.04296875,981.93359375,-194.82421875,-42.96875,-1.0,1.0,-1.0,0.0,4.m4v,2.0
2024-02-27 10:33:18.105047,1709026398.1050467,-7.32421875,969.7265625,226.07421875,-40.52734375,-1.0,1.0,-1.0,0.0,4.m4v,2.0
2024-02-27 10:33:18.108951,1709026398.108951,-25.87890625,969.7265625,290.52734375,-31.73828125,-1.0,1.0,-1.0,0.0,4.m4v,2.0
2024-02-27 10:33:18.112873,1709026398.1128726,-32.2265625,969.7265625,-100.09765625,-45.41015625,-1.0,1.0,-1.0,0.0,4.m4v,2.0
2024-02-27 10:33:18.116777,1709026398.1167772,-34.1796875,970.21484375,-342.7734375,-44.43359375,-1.0,1.0,-1.0,0.0,4.m4v,2.0
2024-02-27 10:33:18.120682,1709026398.120682,-25.390625,970.21484375,-34.66796875,-46.875,-1.0,1.0,-1.0,0.0,4.m4v,2.0
2024-02-27 10:33:18.124587,1709026398.1245868,-5.37109375,981.4453125,280.76171875,-49.31640625,-1.0,1.0,-1.0,0.0,4.m4v,2.0
2024-02-27 10:33:18.128492,1709026398.1284916,-16.11328125,928.22265625,311.03515625,-42.96875,-1.0,1.0,-1.0,0.0,4.m4v,2.0
2024-02-27 10:33:18.132396,1709026398.1323962,-29.78515625,984.375,199.21875,-40.52734375,-1.0,1.0,-1.0,0.0,4.m4v,2.0
2024-02-27 10:33:18.136301,1709026398.136301,-28.80859375,967.7734375,0.9765625,-44.43359375,-1.0,1.0,-1.0,0.0,4.m4v,2.0
2024-02-27 10:33:18.140206,1709026398.140206,-41.9921875,-395.99609375,-370.1171875,-58.10546875,-1.0,1.0,-1.0,0.0,4.m4v,2.0
2024-02-27 10:33:18.144110,1709026398.1441104,-34.66796875,-1000.0,-329.1015625,-49.8046875,-1.0,1.0,-1.0,0.0,4.m4v,2.0
2024-02-27 10:33:18.148015,1709026398.1480153,-28.80859375,-929.19921875,-66.89453125,-44.921875,-1.0,1.0,-1.0,0.0,4.m4v,2.0
2024-02-27 10:33:18.151920,1709026398.15192,-25.87890625,-1000.0,-333.0078125,-61.03515625,-1.0,1.0,-1.0,0.0,4.m4v,2.0
2024-02-27 10:33:18.155825,1709026398.155825,-9.765625,-1000.0,-481.93359375,-55.17578125,-1.0,1.0,-1.0,0.0,4.m4v,2.0
2024-02-27 10:33:18.159745,1709026398.1597445,-25.390625,-1000.0,-398.4375,-33.69140625,-1.0,1.0,-1.0,0.0,4.m4v,2.0
2024-02-27 10:33:18.163649,1709026398.163649,-29.78515625,-1000.0,-207.51953125,-47.8515625,-1.0,1.0,-1.0,0.0,4.m4v,2.0
2024-02-27 10:33:18.167554,1709026398.167554,-19.04296875,-1000.0,97.16796875,-46.875,-1.0,1.0,-1.0,0.0,4.m4v,2.0
2024-02-27 10:33:18.171459,1709026398.1714587,-30.76171875,-938.4765625,-79.58984375,-27.83203125,-1.0,1.0,-1.0,0.0,4.m4v,2.0
2024-02-27 10:33:18.175364,1709026398.1753635,-33.203125,-1000.0,-581.54296875,-33.69140625,-1.0,1.0,-1.0,0.0,4.m4v,2.0
2024-02-27 10:33:18.179268,1709026398.1792684,-21.484375,-843.26171875,-419.921875,-30.76171875,-1.0,1.0,-1.0,0.0,4.m4v,2.0
2024-02-27 10:33:18.183173,1709026398.183173,-26.85546875,622.0703125,400.390625,-24.4140625,-1.0,1.0,-1.0,0.0,4.m4v,2.0
2024-02-27 10:33:18.187078,1709026398.1870778,-18.5546875,999.51171875,458.984375,-26.85546875,-1.0,1.0,-1.0,0.0,4.m4v,2.0
2024-02-27 10:33:18.190983,1709026398.1909826,-10.7421875,896.97265625,-113.28125,-39.0625,-1.0,1.0,-1.0,0.0,4.m4v,2.0
2024-02-27 10:33:18.194887,1709026398.1948874,-41.015625,986.328125,-426.26953125,-46.875,-1.0,1.0,-1.0,0.0,4.m4v,2.0
2024-02-27 10:33:18.198792,1709026398.198792,-44.921875,969.7265625,-464.35546875,-30.76171875,-1.0,1.0,-1.0,0.0,4.m4v,2.0
2024-02-27 10:33:18.202697,1709026398.2026968,-34.66796875,969.7265625,-217.7734375,-30.76171875,-1.0,1.0,-1.0,0.0,4.m4v,2.0
2024-02-27 10:33:18.206615,1709026398.2066147,-26.85546875,969.7265625,166.015625,-37.59765625,-1.0,1.0,-1.0,0.0,4.m4v,2.0
2024-02-27 10:33:18.210519,1709026398.2105193,-23.92578125,969.7265625,67.3828125,-40.0390625,-1.0,1.0,-1.0,0.0,4.m4v,2.0
2024-02-27 10:33:18.214424,1709026398.214424,-30.2734375,969.7265625,-364.2578125,-41.9921875,-1.0,1.0,-1.0,0.0,4.m4v,2.0
2024-02-27 10:33:18.218329,1709026398.218329,-29.296875,975.09765625,-407.71484375,-42.48046875,-1.0,1.0,-1.0,0.0,4.m4v,2.0
2024-02-27 10:33:18.222234,1709026398.2222335,-26.85546875,951.171875,-120.1171875,-32.2265625,-1.0,1.0,-1.0,0.0,4.m4v,2.0
2024-02-27 10:33:18.226138,1709026398.2261384,-27.34375,941.40625,456.0546875,-24.90234375,-1.0,1.0,-1.0,0.0,4.m4v,2.0
2024-02-27 10:33:18.230043,1709026398.2300432,-24.90234375,999.51171875,555.6640625,-38.0859375,-1.0,1.0,-1.0,0.0,4.m4v,2.0
2024-02-27 10:33:18.233948,1709026398.233948,-24.90234375,-66.89453125,-285.15625,-47.36328125,-1.0,1.0,-1.0,0.0,4.m4v,2.0
2024-02-27 10:33:18.237853,1709026398.2378526,-20.01953125,-1000.0,-638.18359375,-44.43359375,-1.0,1.0,-1.0,0.0,4.m4v,2.0
2024-02-27 10:33:18.241757,1709026398.2417574,-27.83203125,-959.9609375,-342.28515625,-40.0390625,-1.0,1.0,-1.0,0.0,4.m4v,2.0
2024-02-27 10:33:18.245662,1709026398.2456622,-48.33984375,-989.2578125,-167.48046875,-43.45703125,-1.0,1.0,-1.0,0.0,4.m4v,2.0
2024-02-27 10:33:18.249567,1709026398.249567,-44.43359375,-1000.0,-281.73828125,-39.0625,-1.0,1.0,-1.0,0.0,4.m4v,2.0
2024-02-27 10:33:18.253486,1709026398.2534862,-40.0390625,-1000.0,-544.43359375,-34.66796875,-1.0,1.0,-1.0,0.0,4.m4v,2.0
2024-02-27 10:33:18.257391,1709026398.2573907,-34.66796875,-1000.0,-656.73828125,-46.38671875,-1.0,1.0,-1.0,0.0,4.m4v,2.0
2024-02-27 10:33:18.261296,1709026398.2612956,-30.76171875,-979.98046875,-396.97265625,-37.109375,-1.0,1.0,-1.0,0.0,4.m4v,2.0
2024-02-27 10:33:18.265200,1709026398.2652004,-29.78515625,-974.609375,-53.7109375,-31.25,-1.0,1.0,-1.0,0.0,4.m4v,2.0
2024-02-27 10:33:18.269105,1709026398.269105,-31.73828125,-1000.0,-60.546875,-39.55078125,-1.0,1.0,-1.0,0.0,4.m4v,2.0
2024-02-27 10:33:18.273010,1709026398.2730098,-26.3671875,71.77734375,18.5546875,-33.69140625,-1.0,1.0,-1.0,0.0,4.m4v,2.0
2024-02-27 10:33:18.276915,1709026398.2769146,-22.94921875,999.51171875,47.36328125,-33.203125,-1.0,1.0,-1.0,0.0,4.m4v,2.0
2024-02-27 10:33:18.280819,1709026398.2808194,-23.4375,924.31640625,-102.5390625,-43.45703125,-1.0,1.0,-1.0,0.0,4.m4v,2.0
2024-02-27 10:33:18.284724,1709026398.284724,-12.6953125,961.42578125,204.58984375,-41.9921875,-1.0,1.0,-1.0,0.0,4.m4v,2.0
2024-02-27 10:33:18.288629,1709026398.2886288,-20.5078125,972.65625,188.96484375,-40.0390625,-1.0,1.0,-1.0,0.0,4.m4v,2.0
2024-02-27 10:33:18.292534,1709026398.2925336,-33.69140625,969.7265625,-343.26171875,-45.8984375,-1.0,1.0,-1.0,0.0,4.m4v,2.0
2024-02-27 10:33:18.296438,1709026398.2964385,-41.015625,969.7265625,-504.39453125,-43.45703125,-1.0,1.0,-1.0,0.0,4.m4v,2.0
2024-02-27 10:33:18.300363,1709026398.3003626,-40.0390625,969.7265625,-140.13671875,-45.8984375,-1.0,1.0,-1.0,0.0,4.m4v,2.0
2024-02-27 10:33:18.304267,1709026398.3042674,-33.203125,969.7265625,190.4296875,-44.921875,-1.0,1.0,-1.0,0.0,4.m4v,2.0
2024-02-27 10:33:18.308172,1709026398.3081722,-35.15625,969.7265625,228.515625,-32.2265625,-1.0,1.0,-1.0,0.0,4.m4v,2.0
2024-02-27 10:33:18.312077,1709026398.3120768,-38.0859375,986.328125,-123.046875,-34.66796875,-1.0,1.0,-1.0,0.0,4.m4v,2.0
2024-02-27 10:33:18.315982,1709026398.3159816,-38.57421875,911.62109375,-355.95703125,-42.48046875,-1.0,1.0,-1.0,0.0,4.m4v,2.0
2024-02-27 10:33:18.319886,1709026398.3198864,-20.5078125,999.51171875,134.765625,-41.9921875,-1.0,1.0,-1.0,0.0,4.m4v,2.0
2024-02-27 10:33:18.323791,1709026398.3237913,-9.765625,854.00390625,461.9140625,-36.1328125,-1.0,1.0,-1.0,0.0,4.m4v,2.0
2024-02-27 10:33:18.327696,1709026398.3276958,-33.203125,-604.98046875,118.1640625,-41.50390625,-1.0,1.0,-1.0,0.0,4.m4v,2.0
2024-02-27 10:33:18.331601,1709026398.331601,-46.875,-1000.0,-316.40625,-39.55078125,-1.0,1.0,-1.0,0.0,4.m4v,2.0
2024-02-27 10:33:18.335505,1709026398.3355055,-45.41015625,-925.78125,-617.1875,-41.50390625,-1.0,1.0,-1.0,0.0,4.m4v,2.0
2024-02-27 10:33:18.339410,1709026398.3394103,-36.1328125,-1000.0,-539.55078125,-38.57421875,-1.0,1.0,-1.0,0.0,4.m4v,2.0
2024-02-27 10:33:18.343315,1709026398.343315,-26.85546875,-1000.0,-122.55859375,-29.296875,-1.0,1.0,-1.0,0.0,4.m4v,2.0
2024-02-27 10:33:18.347240,1709026398.3472395,-28.3203125,-1000.0,111.81640625,-34.1796875,-1.0,1.0,-1.0,0.0,4.m4v,2.0
2024-02-27 10:33:18.351144,1709026398.3511443,-34.66796875,-1000.0,-194.82421875,-32.2265625,-1.0,1.0,-1.0,0.0,4.m4v,2.0
2024-02-27 10:33:18.355049,1709026398.3550491,-36.62109375,-1000.0,-455.56640625,-26.3671875,-1.0,1.0,-1.0,0.0,4.m4v,2.0
2024-02-27 10:33:18.358954,1709026398.358954,-29.296875,-936.5234375,-129.39453125,-29.296875,-1.0,1.0,-1.0,0.0,4.m4v,2.0
2024-02-27 10:33:18.362859,1709026398.3628588,-36.1328125,-1000.0,174.8046875,-20.99609375,-1.0,1.0,-1.0,0.0,4.m4v,2.0
2024-02-27 10:33:18.366763,1709026398.3667634,-43.9453125,-739.2578125,528.80859375,-22.94921875,-1.0,1.0,-1.0,0.0,4.m4v,2.0
2024-02-27 10:33:18.370668,1709026398.3706682,-25.87890625,706.0546875,724.609375,-22.4609375,-1.0,1.0,-1.0,0.0,4.m4v,2.0
2024-02-27 10:33:18.374573,1709026398.374573,-25.87890625,999.51171875,70.80078125,-30.76171875,-1.0,1.0,-1.0,0.0,4.m4v,2.0
2024-02-27 10:33:18.378478,1709026398.3784778,-51.26953125,903.80859375,-206.0546875,-38.57421875,-1.0,1.0,-1.0,0.0,4.m4v,2.0
2024-02-27 10:33:18.382382,1709026398.3823824,-32.71484375,985.83984375,246.58203125,-24.90234375,-1.0,1.0,-1.0,0.0,4.m4v,2.0
2024-02-27 10:33:18.386287,1709026398.3862872,-27.83203125,969.7265625,561.03515625,-26.3671875,-1.0,1.0,-1.0,0.0,4.m4v,2.0
2024-02-27 10:33:18.390192,1709026398.390192,-36.62109375,969.7265625,403.3203125,-36.62109375,-1.0,1.0,-1.0,0.0,4.m4v,2.0
2024-02-27 10:33:18.394116,1709026398.394116,-22.4609375,970.21484375,17.08984375,-42.48046875,-1.0,1.0,-1.0,0.0,4.m4v,2.0
2024-02-27 10:33:18.398021,1709026398.3980205,-32.2265625,969.7265625,-52.24609375,-41.9921875,-1.0,1.0,-1.0,0.0,4.m4v,2.0
2024-02-27 10:33:18.401925,1709026398.401925,-47.8515625,969.7265625,252.44140625,-37.59765625,-1.0,1.0,-1.0,0.0,4.m4v,2.0
2024-02-27 10:33:18.405830,1709026398.40583,-25.390625,969.7265625,749.51171875,-31.73828125,-1.0,1.0,-1.0,0.0,4.m4v,2.0
2024-02-27 10:33:18.409735,1709026398.409735,-22.4609375,970.21484375,768.5546875,-40.0390625,-1.0,1.0,-1.0,0.0,4.m4v,2.0
2024-02-27 10:33:18.413640,1709026398.4136395,-30.76171875,982.421875,379.8828125,-36.62109375,-1.0,1.0,-1.0,0.0,4.m4v,2.0
2024-02-27 10:33:18.417544,1709026398.4175444,-32.2265625,901.3671875,435.05859375,-28.3203125,-1.0,1.0,-1.0,0.0,4.m4v,2.0
2024-02-27 10:33:18.421449,1709026398.4214492,-38.57421875,999.51171875,625.48828125,-30.76171875,-1.0,1.0,-1.0,0.0,4.m4v,2.0
2024-02-27 10:33:18.425354,1709026398.4253538,-36.62109375,544.43359375,537.59765625,-37.59765625,-1.0,1.0,-1.0,0.0,4.m4v,2.0
2024-02-27 10:33:18.429259,1709026398.4292586,-47.36328125,-875.0,104.4921875,-48.828125,-1.0,1.0,-1.0,0.0,4.m4v,2.0
2024-02-27 10:33:18.433163,1709026398.4331634,-49.31640625,-1000.0,-395.01953125,-49.8046875,-1.0,1.0,-1.0,0.0,4.m4v,2.0
2024-02-27 10:33:18.437068,1709026398.4370682,-31.73828125,-944.3359375,-505.37109375,-37.109375,-1.0,1.0,-1.0,0.0,4.m4v,2.0
2024-02-27 10:33:18.440990,1709026398.4409902,-23.4375,-1000.0,-260.7421875,-27.83203125,-1.0,1.0,-1.0,0.0,4.m4v,2.0
2024-02-27 10:33:18.444895,1709026398.444895,-31.73828125,-1000.0,101.07421875,-33.203125,-1.0,1.0,-1.0,0.0,4.m4v,2.0
2024-02-27 10:33:18.448800,1709026398.4487996,-48.828125,-1000.0,159.66796875,-42.96875,-1.0,1.0,-1.0,0.0,4.m4v,2.0
2024-02-27 10:33:18.452704,1709026398.4527044,-41.9921875,-933.59375,-116.2109375,-50.78125,-1.0,1.0,-1.0,0.0,4.m4v,2.0
2024-02-27 10:33:18.456609,1709026398.4566092,-41.50390625,-1000.0,-395.01953125,-49.31640625,-1.0,1.0,-1.0,0.0,4.m4v,2.0
2024-02-27 10:33:18.460514,1709026398.460514,-43.9453125,-772.94921875,-20.5078125,-40.52734375,-1.0,1.0,-1.0,0.0,4.m4v,2.0
2024-02-27 10:33:18.464419,1709026398.4644186,-19.04296875,698.73046875,799.31640625,-26.85546875,-1.0,1.0,-1.0,0.0,4.m4v,2.0
2024-02-27 10:33:18.468323,1709026398.4683237,-28.3203125,999.51171875,654.78515625,-32.71484375,-1.0,1.0,-1.0,0.0,4.m4v,2.0
2024-02-27 10:33:18.472228,1709026398.4722283,-42.48046875,900.87890625,-11.23046875,-51.7578125,-1.0,1.0,-1.0,0.0,4.m4v,2.0
2024-02-27 10:33:18.476133,1709026398.476133,-49.31640625,986.81640625,-245.1171875,-50.29296875,-1.0,1.0,-1.0,0.0,4.m4v,2.0
2024-02-27 10:33:18.480038,1709026398.4800377,-42.96875,969.7265625,91.30859375,-41.50390625,-1.0,1.0,-1.0,0.0,4.m4v,2.0
2024-02-27 10:33:18.483943,1709026398.4839425,-24.90234375,969.7265625,393.06640625,-32.2265625,-1.0,1.0,-1.0,0.0,4.m4v,2.0
2024-02-27 10:33:18.487862,1709026398.4878623,-24.4140625,969.7265625,448.2421875,-30.76171875,-1.0,1.0,-1.0,0.0,4.m4v,2.0
2024-02-27 10:33:18.491767,1709026398.491767,-26.3671875,969.7265625,185.05859375,-45.8984375,-1.0,1.0,-1.0,0.0,4.m4v,2.0
2024-02-27 10:33:18.495672,1709026398.4956715,-12.6953125,969.7265625,-83.984375,-46.38671875,-1.0,1.0,-1.0,0.0,4.m4v,2.0
2024-02-27 10:33:18.499577,1709026398.4995766,-9.765625,972.16796875,-7.32421875,-27.34375,-1.0,1.0,-1.0,0.0,4.m4v,2.0
2024-02-27 10:33:18.503481,1709026398.5034814,-19.04296875,969.7265625,249.51171875,-19.04296875,-1.0,1.0,-1.0,0.0,4.m4v,2.0
2024-02-27 10:33:18.507386,1709026398.507386,-15.625,914.55078125,618.1640625,-19.53125,-1.0,1.0,-1.0,0.0,4.m4v,2.0
2024-02-27 10:33:18.511291,1709026398.5112908,-12.6953125,999.51171875,504.8828125,-19.04296875,-1.0,1.0,-1.0,0.0,4.m4v,2.0
2024-02-27 10:33:18.515196,1709026398.5151956,-29.78515625,258.30078125,-171.38671875,-28.3203125,-1.0,1.0,-1.0,0.0,4.m4v,2.0
2024-02-27 10:33:18.519100,1709026398.5191004,-35.15625,-1000.0,-477.5390625,-28.3203125,-1.0,1.0,-1.0,0.0,4.m4v,2.0
2024-02-27 10:33:18.523005,1709026398.523005,-35.64453125,-1000.0,-158.203125,-33.69140625,-1.0,1.0,-1.0,0.0,4.m4v,2.0
2024-02-27 10:33:18.526910,1709026398.5269098,-20.01953125,-965.8203125,163.57421875,-36.62109375,-1.0,1.0,-1.0,0.0,4.m4v,2.0
2024-02-27 10:33:18.530815,1709026398.5308146,-16.6015625,-1000.0,-107.91015625,-33.203125,-1.0,1.0,-1.0,0.0,4.m4v,2.0
2024-02-27 10:33:18.534735,1709026398.5347352,-38.0859375,-1000.0,-479.00390625,-39.0625,-1.0,1.0,-1.0,0.0,4.m4v,2.0
2024-02-27 10:33:18.538640,1709026398.53864,-45.8984375,-1000.0,-245.1171875,-46.38671875,-1.0,1.0,-1.0,0.0,4.m4v,2.0
2024-02-27 10:33:18.542545,1709026398.5425448,-38.0859375,-973.6328125,180.17578125,-37.109375,-1.0,1.0,-1.0,0.0,4.m4v,2.0
2024-02-27 10:33:18.546450,1709026398.5464497,-28.80859375,-984.86328125,379.8828125,-30.2734375,-1.0,1.0,-1.0,0.0,4.m4v,2.0
2024-02-27 10:33:18.550354,1709026398.5503542,-20.99609375,-1000.0,121.58203125,-35.15625,-1.0,1.0,-1.0,0.0,4.m4v,2.0
2024-02-27 10:33:18.554259,1709026398.554259,-27.34375,166.50390625,155.2734375,-37.59765625,-1.0,1.0,-1.0,0.0,4.m4v,2.0
2024-02-27 10:33:18.558164,1709026398.558164,-40.0390625,999.51171875,453.61328125,-36.1328125,-1.0,1.0,-1.0,0.0,4.m4v,2.0
2024-02-27 10:33:18.562069,1709026398.5620687,-38.57421875,913.0859375,376.953125,-18.5546875,-1.0,1.0,-1.0,0.0,4.m4v,2.0
2024-02-27 10:33:18.565973,1709026398.5659733,-38.57421875,967.7734375,519.04296875,-17.578125,-1.0,1.0,-1.0,0.0,4.m4v,2.0
2024-02-27 10:33:18.569878,1709026398.569878,-39.0625,971.19140625,378.41796875,-42.48046875,-1.0,1.0,-1.0,0.0,4.m4v,2.0
2024-02-27 10:33:18.573783,1709026398.573783,-30.2734375,969.7265625,-16.11328125,-43.9453125,-1.0,1.0,-1.0,0.0,4.m4v,2.0
2024-02-27 10:33:18.577688,1709026398.5776875,-30.2734375,969.7265625,-45.8984375,-34.1796875,-1.0,1.0,-1.0,0.0,4.m4v,2.0
2024-02-27 10:33:18.581604,1709026398.5816045,-43.9453125,969.7265625,83.0078125,-31.25,-1.0,1.0,-1.0,0.0,4.m4v,2.0
2024-02-27 10:33:18.585509,1709026398.5855093,-37.59765625,969.7265625,397.4609375,-22.4609375,-1.0,1.0,-1.0,0.0,4.m4v,2.0
2024-02-27 10:33:18.589414,1709026398.589414,-23.4375,969.7265625,454.1015625,-22.4609375,-1.0,1.0,-1.0,0.0,4.m4v,2.0
2024-02-27 10:33:18.593319,1709026398.593319,-38.57421875,970.703125,35.15625,-39.55078125,-1.0,1.0,-1.0,0.0,4.m4v,2.0
2024-02-27 10:33:18.597224,1709026398.5972235,-48.33984375,979.98046875,-115.234375,-46.38671875,-1.0,1.0,-1.0,0.0,4.m4v,2.0
2024-02-27 10:33:18.601128,1709026398.6011283,-37.109375,904.296875,454.1015625,-38.57421875,-1.0,1.0,-1.0,0.0,4.m4v,2.0
2024-02-27 10:33:18.605033,1709026398.6050332,-33.203125,999.51171875,948.2421875,-31.73828125,-1.0,1.0,-1.0,0.0,4.m4v,2.0
2024-02-27 10:33:18.608938,1709026398.608938,-42.48046875,477.05078125,504.39453125,-32.2265625,-1.0,1.0,-1.0,0.0,4.m4v,2.0
2024-02-27 10:33:18.612843,1709026398.6128426,-58.59375,-906.25,-249.51171875,-48.828125,-1.0,1.0,-1.0,0.0,4.m4v,2.0
2024-02-27 10:33:18.616747,1709026398.6167474,-60.05859375,-1000.0,-538.0859375,-41.9921875,-1.0,1.0,-1.0,0.0,4.m4v,2.0
2024-02-27 10:33:18.620652,1709026398.6206522,-50.78125,-949.70703125,-354.98046875,-34.1796875,-1.0,1.0,-1.0,0.0,4.m4v,2.0
2024-02-27 10:33:18.624557,1709026398.6245568,-42.96875,-1000.0,90.8203125,-45.41015625,-1.0,1.0,-1.0,0.0,4.m4v,2.0
2024-02-27 10:33:18.628484,1709026398.6284835,-36.62109375,-1000.0,184.5703125,-35.15625,-1.0,1.0,-1.0,0.0,4.m4v,2.0
2024-02-27 10:33:18.632388,1709026398.6323884,-44.43359375,-1000.0,-191.89453125,-27.34375,-1.0,1.0,-1.0,0.0,4.m4v,2.0
2024-02-27 10:33:18.636293,1709026398.6362932,-41.50390625,-951.66015625,-517.578125,-35.64453125,-1.0,1.0,-1.0,0.0,4.m4v,2.0
2024-02-27 10:33:18.640198,1709026398.640198,-39.55078125,-1000.0,-517.578125,-37.59765625,-1.0,1.0,-1.0,0.0,4.m4v,2.0
2024-02-27 10:33:18.644103,1709026398.6441026,-43.9453125,-957.51953125,-114.74609375,-29.296875,-1.0,1.0,-1.0,0.0,4.m4v,2.0
2024-02-27 10:33:18.648007,1709026398.6480074,-21.97265625,452.63671875,644.04296875,-30.76171875,-1.0,1.0,-1.0,0.0,4.m4v,2.0
2024-02-27 10:33:18.651912,1709026398.6519122,-27.83203125,999.51171875,610.3515625,-36.62109375,-1.0,1.0,-1.0,0.0,4.m4v,2.0
2024-02-27 10:33:18.655817,1709026398.655817,-47.8515625,895.99609375,-108.88671875,-37.109375,-1.0,1.0,-1.0,0.0,4.m4v,2.0
2024-02-27 10:33:18.659722,1709026398.6597216,-42.96875,982.421875,-6.8359375,-33.203125,-1.0,1.0,-1.0,0.0,4.m4v,2.0
2024-02-27 10:33:18.663626,1709026398.6636264,-37.59765625,969.7265625,265.625,-28.80859375,-1.0,1.0,-1.0,0.0,4.m4v,2.0
2024-02-27 10:33:18.667531,1709026398.6675313,-57.12890625,970.21484375,207.51953125,-39.55078125,-1.0,1.0,-1.0,0.0,4.m4v,2.0
2024-02-27 10:33:18.671436,1709026398.671436,-65.4296875,969.7265625,-9.27734375,-37.59765625,-1.0,1.0,-1.0,0.0,4.m4v,2.0
2024-02-27 10:33:18.675361,1709026398.6753614,-61.5234375,969.7265625,-280.2734375,-41.50390625,-1.0,1.0,-1.0,0.0,4.m4v,2.0
2024-02-27 10:33:18.679266,1709026398.6792662,-60.05859375,969.7265625,-297.8515625,-46.38671875,-1.0,1.0,-1.0,0.0,4.m4v,2.0
2024-02-27 10:33:18.683171,1709026398.6831708,-45.8984375,970.21484375,-21.97265625,-31.25,-1.0,1.0,-1.0,0.0,4.m4v,2.0
2024-02-27 10:33:18.687076,1709026398.6870756,-44.43359375,970.21484375,226.5625,-28.80859375,-1.0,1.0,-1.0,0.0,4.m4v,2.0
2024-02-27 10:33:18.690980,1709026398.6909804,-55.6640625,986.328125,108.88671875,-36.1328125,-1.0,1.0,-1.0,0.0,4.m4v,2.0
2024-02-27 10:33:18.694885,1709026398.6948853,-45.8984375,904.78515625,110.83984375,-36.1328125,-1.0,1.0,-1.0,0.0,4.m4v,2.0
2024-02-27 10:33:18.698790,1709026398.6987898,-38.0859375,999.51171875,219.23828125,-32.71484375,-1.0,1.0,-1.0,0.0,4.m4v,2.0
2024-02-27 10:33:18.702695,1709026398.702695,-61.03515625,741.69921875,27.83203125,-30.76171875,-1.0,1.0,-1.0,0.0,4.m4v,2.0
2024-02-27 10:33:18.706599,1709026398.7065997,-77.1484375,-721.6796875,-126.46484375,-25.390625,-1.0,1.0,-1.0,0.0,4.m4v,2.0
2024-02-27 10:33:18.710504,1709026398.7105043,-69.82421875,-1000.0,-417.96875,-29.78515625,-1.0,1.0,-1.0,0.0,4.m4v,2.0
2024-02-27 10:33:18.714409,1709026398.7144089,-68.359375,-931.640625,-808.10546875,-49.31640625,-1.0,1.0,-1.0,0.0,4.m4v,2.0
2024-02-27 10:33:18.718314,1709026398.7183137,-62.5,-1000.0,-703.61328125,-41.9921875,-1.0,1.0,-1.0,0.0,4.m4v,2.0
2024-02-27 10:33:18.722238,1709026398.7222376,-60.05859375,-1000.0,-266.11328125,-47.36328125,-1.0,1.0,-1.0,0.0,4.m4v,2.0
2024-02-27 10:33:18.726142,1709026398.7261424,-58.59375,-1000.0,-64.453125,-57.12890625,-1.0,1.0,-1.0,0.0,4.m4v,2.0
2024-02-27 10:33:18.730047,1709026398.730047,-51.26953125,-974.12109375,-319.82421875,-39.55078125,-1.0,1.0,-1.0,0.0,4.m4v,2.0
2024-02-27 10:33:18.733952,1709026398.7339518,-54.6875,-983.88671875,-686.5234375,-33.69140625,-1.0,1.0,-1.0,0.0,4.m4v,2.0
2024-02-27 10:33:18.737857,1709026398.7378566,-58.10546875,-1000.0,-651.3671875,-40.52734375,-1.0,1.0,-1.0,0.0,4.m4v,2.0
2024-02-27 10:33:18.741761,1709026398.7417614,-51.7578125,155.76171875,33.69140625,-25.87890625,-1.0,1.0,-1.0,0.0,4.m4v,2.0
2024-02-27 10:33:18.745666,1709026398.745666,-40.52734375,999.51171875,636.71875,-10.25390625,-1.0,1.0,-1.0,0.0,4.m4v,2.0
2024-02-27 10:33:18.749571,1709026398.7495708,-31.73828125,914.55078125,261.71875,-35.15625,-1.0,1.0,-1.0,0.0,4.m4v,2.0
2024-02-27 10:33:18.753476,1709026398.7534757,-44.43359375,967.28515625,-313.4765625,-51.7578125,-1.0,1.0,-1.0,0.0,4.m4v,2.0
2024-02-27 10:33:18.757380,1709026398.7573805,-54.6875,971.6796875,-445.3125,-38.57421875,-1.0,1.0,-1.0,0.0,4.m4v,2.0
2024-02-27 10:33:18.761285,1709026398.761285,-43.9453125,969.7265625,-258.7890625,-23.92578125,-1.0,1.0,-1.0,0.0,4.m4v,2.0
2024-02-27 10:33:18.765190,1709026398.76519,-46.875,969.7265625,137.6953125,-20.01953125,-1.0,1.0,-1.0,0.0,4.m4v,2.0
2024-02-27 10:33:18.769113,1709026398.7691128,-56.15234375,969.7265625,188.4765625,-30.2734375,-1.0,1.0,-1.0,0.0,4.m4v,2.0
2024-02-27 10:33:18.773018,1709026398.7730176,-54.19921875,969.7265625,-221.19140625,-40.52734375,-1.0,1.0,-1.0,0.0,4.m4v,2.0
2024-02-27 10:33:18.776922,1709026398.7769225,-39.55078125,969.7265625,-326.66015625,-46.875,-1.0,1.0,-1.0,0.0,4.m4v,2.0
2024-02-27 10:33:18.780827,1709026398.780827,-33.69140625,969.7265625,-30.2734375,-38.57421875,-1.0,1.0,-1.0,0.0,4.m4v,2.0
2024-02-27 10:33:18.784732,1709026398.784732,-49.31640625,985.83984375,89.84375,-32.2265625,-1.0,1.0,-1.0,0.0,4.m4v,2.0
2024-02-27 10:33:18.788637,1709026398.7886367,-39.55078125,903.80859375,236.81640625,-16.6015625,-1.0,1.0,-1.0,0.0,4.m4v,2.0
2024-02-27 10:33:18.792542,1709026398.7925415,-24.4140625,999.51171875,247.55859375,-21.484375,-1.0,1.0,-1.0,0.0,4.m4v,2.0
2024-02-27 10:33:18.796446,1709026398.796446,-41.9921875,702.1484375,-259.27734375,-45.8984375,-1.0,1.0,-1.0,0.0,4.m4v,2.0
2024-02-27 10:33:18.800351,1709026398.800351,-52.24609375,-754.39453125,-538.57421875,-45.41015625,-1.0,1.0,-1.0,0.0,4.m4v,2.0
2024-02-27 10:33:18.804256,1709026398.8042555,-41.50390625,-1000.0,-219.7265625,-39.55078125,-1.0,1.0,-1.0,0.0,4.m4v,2.0
2024-02-27 10:33:18.808161,1709026398.8081603,-38.0859375,-934.08203125,-134.27734375,-30.2734375,-1.0,1.0,-1.0,0.0,4.m4v,2.0
2024-02-27 10:33:18.812065,1709026398.8120651,-55.17578125,-1000.0,-439.94140625,-42.96875,-1.0,1.0,-1.0,0.0,4.m4v,2.0
2024-02-27 10:33:18.815985,1709026398.8159854,-64.94140625,-1000.0,-689.94140625,-45.41015625,-1.0,1.0,-1.0,0.0,4.m4v,2.0
2024-02-27 10:33:18.819890,1709026398.8198905,-53.22265625,-1000.0,-581.54296875,-33.69140625,-1.0,1.0,-1.0,0.0,4.m4v,2.0
2024-02-27 10:33:18.823795,1709026398.8237948,-52.734375,-1000.0,-178.7109375,-38.0859375,-1.0,1.0,-1.0,0.0,4.m4v,2.0
2024-02-27 10:33:18.827700,1709026398.8276997,-50.78125,-931.640625,-23.92578125,-31.25,-1.0,1.0,-1.0,0.0,4.m4v,2.0
2024-02-27 10:33:18.831604,1709026398.8316045,-16.11328125,-1000.0,-300.78125,-25.87890625,-1.0,1.0,-1.0,0.0,4.m4v,2.0
2024-02-27 10:33:18.835509,1709026398.8355093,-20.5078125,-530.76171875,-293.9453125,-25.390625,-1.0,1.0,-1.0,0.0,4.m4v,2.0
2024-02-27 10:33:18.839414,1709026398.839414,-39.0625,874.0234375,354.4921875,-26.85546875,-1.0,1.0,-1.0,0.0,4.m4v,2.0
2024-02-27 10:33:18.843319,1709026398.8433187,-33.203125,999.51171875,693.84765625,-19.04296875,-1.0,1.0,-1.0,0.0,4.m4v,2.0
2024-02-27 10:33:18.847224,1709026398.8472235,-31.73828125,916.9921875,425.29296875,-15.13671875,-1.0,1.0,-1.0,0.0,4.m4v,2.0
2024-02-27 10:33:18.851128,1709026398.8511283,-30.2734375,984.375,-40.52734375,-36.62109375,-1.0,1.0,-1.0,0.0,4.m4v,2.0
2024-02-27 10:33:18.855033,1709026398.855033,-31.25,969.7265625,-404.78515625,-45.41015625,-1.0,1.0,-1.0,0.0,4.m4v,2.0
2024-02-27 10:33:18.858938,1709026398.8589375,-43.9453125,969.7265625,-528.3203125,-49.8046875,-1.0,1.0,-1.0,0.0,4.m4v,2.0
2024-02-27 10:33:18.862858,1709026398.8628576,-47.36328125,969.7265625,-230.46875,-49.8046875,-1.0,1.0,-1.0,0.0,4.m4v,2.0
2024-02-27 10:33:18.866762,1709026398.8667622,-33.203125,969.7265625,212.40234375,-36.1328125,-1.0,1.0,-1.0,0.0,4.m4v,2.0
2024-02-27 10:33:18.870667,1709026398.870667,-19.53125,969.7265625,80.56640625,-30.2734375,-1.0,1.0,-1.0,0.0,4.m4v,2.0
2024-02-27 10:33:18.874572,1709026398.8745718,-24.90234375,969.7265625,-260.7421875,-32.71484375,-1.0,1.0,-1.0,0.0,4.m4v,2.0
2024-02-27 10:33:18.878477,1709026398.8784766,-40.52734375,981.93359375,-358.3984375,-32.71484375,-1.0,1.0,-1.0,0.0,4.m4v,2.0
2024-02-27 10:33:18.882381,1709026398.8823812,-39.55078125,925.29296875,178.22265625,-28.80859375,-1.0,1.0,-1.0,0.0,4.m4v,2.0
2024-02-27 10:33:18.886286,1709026398.886286,-40.52734375,991.2109375,631.34765625,-34.1796875,-1.0,1.0,-1.0,0.0,4.m4v,2.0
2024-02-27 10:33:18.890191,1709026398.8901908,-36.62109375,950.1953125,195.80078125,-33.203125,-1.0,1.0,-1.0,0.0,4.m4v,2.0
2024-02-27 10:33:18.894096,1709026398.8940957,-38.57421875,-432.12890625,-393.5546875,-25.87890625,-1.0,1.0,-1.0,0.0,4.m4v,2.0
2024-02-27 10:33:18.898000,1709026398.8980002,-49.8046875,-1000.0,-508.30078125,-37.59765625,-1.0,1.0,-1.0,0.0,4.m4v,2.0
2024-02-27 10:33:18.901905,1709026398.901905,-30.76171875,-928.22265625,-165.52734375,-35.64453125,-1.0,1.0,-1.0,0.0,4.m4v,2.0
2024-02-27 10:33:18.905810,1709026398.90581,-23.92578125,-1000.0,41.50390625,-37.59765625,-1.0,1.0,-1.0,0.0,4.m4v,2.0
2024-02-27 10:33:18.909728,1709026398.9097283,-44.921875,-1000.0,-158.69140625,-42.96875,-1.0,1.0,-1.0,0.0,4.m4v,2.0
2024-02-27 10:33:18.913633,1709026398.9136329,-47.8515625,-1000.0,-483.88671875,-38.57421875,-1.0,1.0,-1.0,0.0,4.m4v,2.0
2024-02-27 10:33:18.917538,1709026398.9175377,-48.828125,-1000.0,-524.90234375,-32.71484375,-1.0,1.0,-1.0,0.0,4.m4v,2.0
2024-02-27 10:33:18.921443,1709026398.9214425,-39.0625,-940.91796875,-280.2734375,-21.97265625,-1.0,1.0,-1.0,0.0,4.m4v,2.0
2024-02-27 10:33:18.925347,1709026398.925347,-17.578125,-1000.0,70.80078125,-27.83203125,-1.0,1.0,-1.0,0.0,4.m4v,2.0
2024-02-27 10:33:18.929252,1709026398.929252,-29.296875,-344.23828125,395.99609375,-41.50390625,-1.0,1.0,-1.0,0.0,4.m4v,2.0
2024-02-27 10:33:18.933157,1709026398.9331567,-31.25,954.1015625,271.484375,-42.48046875,-1.0,1.0,-1.0,0.0,4.m4v,2.0
2024-02-27 10:33:18.937062,1709026398.9370615,-26.3671875,983.3984375,-166.50390625,-40.0390625,-1.0,1.0,-1.0,0.0,4.m4v,2.0
2024-02-27 10:33:18.940966,1709026398.9409664,-22.94921875,931.15234375,-128.90625,-30.2734375,-1.0,1.0,-1.0,0.0,4.m4v,2.0
2024-02-27 10:33:18.944871,1709026398.944871,-21.97265625,980.95703125,225.5859375,-22.4609375,-1.0,1.0,-1.0,0.0,4.m4v,2.0
2024-02-27 10:33:18.948776,1709026398.9487758,-25.87890625,969.7265625,290.52734375,-30.2734375,-1.0,1.0,-1.0,0.0,4.m4v,2.0
2024-02-27 10:33:18.952681,1709026398.9526806,-26.85546875,969.7265625,-6.8359375,-37.59765625,-1.0,1.0,-1.0,0.0,4.m4v,2.0
2024-02-27 10:33:18.956599,1709026398.956599,-34.1796875,969.7265625,-118.65234375,-44.43359375,-1.0,1.0,-1.0,0.0,4.m4v,2.0
2024-02-27 10:33:18.960504,1709026398.9605036,-33.69140625,969.7265625,270.99609375,-39.0625,-1.0,1.0,-1.0,0.0,4.m4v,2.0
2024-02-27 10:33:18.964408,1709026398.9644084,-21.484375,969.7265625,511.71875,-19.04296875,-1.0,1.0,-1.0,0.0,4.m4v,2.0
2024-02-27 10:33:18.968313,1709026398.9683132,-18.5546875,979.98046875,346.19140625,-16.11328125,-1.0,1.0,-1.0,0.0,4.m4v,2.0
2024-02-27 10:33:18.972218,1709026398.972218,-20.99609375,931.640625,-44.921875,-22.4609375,-1.0,1.0,-1.0,0.0,4.m4v,2.0
2024-02-27 10:33:18.976123,1709026398.9761226,-40.52734375,977.05078125,-7.32421875,-47.8515625,-1.0,1.0,-1.0,0.0,4.m4v,2.0
2024-02-27 10:33:18.980027,1709026398.9800274,-55.17578125,985.3515625,290.0390625,-68.359375,-1.0,1.0,-1.0,0.0,4.m4v,2.0
2024-02-27 10:33:18.983932,1709026398.9839325,-55.17578125,-352.5390625,192.87109375,-51.26953125,-1.0,1.0,-1.0,0.0,4.m4v,2.0
2024-02-27 10:33:18.987837,1709026398.987837,-64.453125,-1000.0,51.7578125,-42.96875,-1.0,1.0,-1.0,0.0,4.m4v,2.0
2024-02-27 10:33:18.991742,1709026398.9917417,-66.89453125,-931.640625,-250.48828125,-64.94140625,-1.0,1.0,-1.0,0.0,4.m4v,2.0
2024-02-27 10:33:18.995646,1709026398.9956465,-58.59375,-1000.0,-522.4609375,-69.82421875,-1.0,1.0,-1.0,0.0,4.m4v,2.0
2024-02-27 10:33:18.999551,1709026398.9995513,-50.29296875,-1000.0,-309.08203125,-51.7578125,-1.0,1.0,-1.0,0.0,4.m4v,2.0
2024-02-27 10:33:19.003478,1709026399.003478,-30.2734375,-1000.0,82.03125,-41.9921875,-1.0,1.0,-1.0,0.0,4.m4v,2.0
2024-02-27 10:33:19.007383,1709026399.0073829,-20.01953125,-1000.0,248.53515625,-40.0390625,-1.0,1.0,-1.0,0.0,4.m4v,2.0
2024-02-27 10:33:19.011288,1709026399.0112877,-34.66796875,-954.1015625,-76.171875,-40.0390625,-1.0,1.0,-1.0,0.0,4.m4v,2.0
2024-02-27 10:33:19.015193,1709026399.0151925,-45.8984375,-1000.0,-495.60546875,-56.640625,-1.0,1.0,-1.0,0.0,4.m4v,2.0
2024-02-27 10:33:19.019097,1709026399.019097,-36.1328125,-971.19140625,-244.140625,-52.734375,-1.0,1.0,-1.0,0.0,4.m4v,2.0
2024-02-27 10:33:19.023002,1709026399.023002,-22.4609375,423.828125,522.94921875,-33.69140625,-1.0,1.0,-1.0,0.0,4.m4v,2.0
2024-02-27 10:33:19.026907,1709026399.0269067,-23.92578125,999.51171875,748.046875,-33.69140625,-1.0,1.0,-1.0,0.0,4.m4v,2.0
2024-02-27 10:33:19.030812,1709026399.0308115,-38.0859375,896.97265625,182.6171875,-41.9921875,-1.0,1.0,-1.0,0.0,4.m4v,2.0
2024-02-27 10:33:19.034716,1709026399.034716,-38.0859375,980.95703125,-338.8671875,-47.8515625,-1.0,1.0,-1.0,0.0,4.m4v,2.0
2024-02-27 10:33:19.038621,1709026399.038621,-27.34375,969.7265625,-330.56640625,-45.8984375,-1.0,1.0,-1.0,0.0,4.m4v,2.0
2024-02-27 10:33:19.042526,1709026399.0425258,-35.64453125,969.7265625,26.3671875,-35.64453125,-1.0,1.0,-1.0,0.0,4.m4v,2.0
2024-02-27 10:33:19.046431,1709026399.0464306,-35.64453125,969.7265625,352.05078125,-23.4375,-1.0,1.0,-1.0,0.0,4.m4v,2.0
2024-02-27 10:33:19.050356,1709026399.050356,-13.18359375,969.7265625,292.96875,-27.34375,-1.0,1.0,-1.0,0.0,4.m4v,2.0
2024-02-27 10:33:19.054261,1709026399.0542607,-19.04296875,969.7265625,-129.39453125,-40.52734375,-1.0,1.0,-1.0,0.0,4.m4v,2.0
2024-02-27 10:33:19.058166,1709026399.0581656,-48.828125,969.7265625,-303.7109375,-46.38671875,-1.0,1.0,-1.0,0.0,4.m4v,2.0
2024-02-27 10:33:19.062070,1709026399.06207,-35.15625,969.7265625,-66.89453125,-42.96875,-1.0,1.0,-1.0,0.0,4.m4v,2.0
2024-02-27 10:33:19.065975,1709026399.065975,-11.23046875,969.7265625,258.30078125,-30.76171875,-1.0,1.0,-1.0,0.0,4.m4v,2.0
2024-02-27 10:33:19.069880,1709026399.0698798,-34.1796875,986.328125,420.41015625,-28.80859375,-1.0,1.0,-1.0,0.0,4.m4v,2.0
2024-02-27 10:33:19.073785,1709026399.0737846,-46.875,911.1328125,25.87890625,-39.0625,-1.0,1.0,-1.0,0.0,4.m4v,2.0
2024-02-27 10:33:19.077689,1709026399.0776894,-35.64453125,999.51171875,-285.64453125,-37.109375,-1.0,1.0,-1.0,0.0,4.m4v,2.0
2024-02-27 10:33:19.081594,1709026399.081594,-33.203125,851.07421875,-25.87890625,-41.9921875,-1.0,1.0,-1.0,0.0,4.m4v,2.0
2024-02-27 10:33:19.085499,1709026399.0854988,-25.87890625,-608.3984375,16.6015625,-45.8984375,-1.0,1.0,-1.0,0.0,4.m4v,2.0
2024-02-27 10:33:19.089404,1709026399.0894036,-37.109375,-1000.0,-229.98046875,-41.50390625,-1.0,1.0,-1.0,0.0,4.m4v,2.0
2024-02-27 10:33:19.093308,1709026399.0933084,-45.41015625,-925.78125,-551.26953125,-44.921875,-1.0,1.0,-1.0,0.0,4.m4v,2.0
2024-02-27 10:33:19.097232,1709026399.0972323,-43.45703125,-1000.0,-703.61328125,-45.41015625,-1.0,1.0,-1.0,0.0,4.m4v,2.0
2024-02-27 10:33:19.101137,1709026399.101137,-43.9453125,-1000.0,-564.94140625,-35.64453125,-1.0,1.0,-1.0,0.0,4.m4v,2.0
2024-02-27 10:33:19.105042,1709026399.1050415,-36.1328125,-1000.0,-185.05859375,-27.34375,-1.0,1.0,-1.0,0.0,4.m4v,2.0
2024-02-27 10:33:19.108947,1709026399.1089466,-24.90234375,-957.51953125,-48.33984375,-35.64453125,-1.0,1.0,-1.0,0.0,4.m4v,2.0
2024-02-27 10:33:19.112851,1709026399.1128514,-23.92578125,-1000.0,-410.64453125,-42.48046875,-1.0,1.0,-1.0,0.0,4.m4v,2.0
2024-02-27 10:33:19.116756,1709026399.116756,-33.203125,-992.67578125,-483.88671875,-32.71484375,-1.0,1.0,-1.0,0.0,4.m4v,2.0
2024-02-27 10:33:19.120661,1709026399.1206608,-5.37109375,380.859375,32.2265625,-21.484375,-1.0,1.0,-1.0,0.0,4.m4v,2.0
2024-02-27 10:33:19.124566,1709026399.1245656,-3.41796875,999.51171875,336.9140625,-17.578125,-1.0,1.0,-1.0,0.0,4.m4v,2.0
2024-02-27 10:33:19.128470,1709026399.1284704,-33.203125,897.94921875,234.86328125,-21.97265625,-1.0,1.0,-1.0,0.0,4.m4v,2.0
2024-02-27 10:33:19.132375,1709026399.132375,-34.1796875,979.4921875,-213.37890625,-31.25,-1.0,1.0,-1.0,0.0,4.m4v,2.0
2024-02-27 10:33:19.136280,1709026399.1362798,-34.1796875,969.7265625,-519.04296875,-34.1796875,-1.0,1.0,-1.0,0.0,4.m4v,2.0
2024-02-27 10:33:19.140185,1709026399.1401846,-39.0625,969.7265625,-188.4765625,-32.71484375,-1.0,1.0,-1.0,0.0,4.m4v,2.0
2024-02-27 10:33:19.144108,1709026399.1441078,-29.296875,985.83984375,105.95703125,-26.3671875,-1.0,1.0,-1.0,0.0,4.m4v,2.0
2024-02-27 10:33:19.148013,1709026399.1480126,-31.25,913.0859375,-6.34765625,-15.13671875,-1.0,1.0,-1.0,0.0,4.m4v,2.0
2024-02-27 10:33:19.151917,1709026399.1519177,-39.0625,999.51171875,-349.609375,-26.85546875,-1.0,1.0,-1.0,0.0,4.m4v,2.0
2024-02-27 10:33:19.155822,1709026399.155822,-39.0625,869.62890625,-590.8203125,-41.50390625,-1.0,1.0,-1.0,0.0,4.m4v,2.0
2024-02-27 10:33:19.159727,1709026399.1597269,-47.8515625,-582.03125,-694.82421875,-41.015625,-1.0,1.0,-1.0,0.0,4.m4v,2.0
2024-02-27 10:33:19.163632,1709026399.1636317,-47.8515625,-1000.0,-282.71484375,-37.109375,-1.0,1.0,-1.0,0.0,4.m4v,2.0
2024-02-27 10:33:19.167536,1709026399.1675365,-36.62109375,-925.78125,327.1484375,-32.71484375,-1.0,1.0,-1.0,0.0,4.m4v,2.0
2024-02-27 10:33:19.171441,1709026399.1714413,-34.1796875,-1000.0,-82.51953125,-38.57421875,-1.0,1.0,-1.0,0.0,4.m4v,2.0
2024-02-27 10:33:19.175346,1709026399.175346,-48.33984375,-1000.0,-760.25390625,-44.43359375,-1.0,1.0,-1.0,0.0,4.m4v,2.0
2024-02-27 10:33:19.179251,1709026399.1792507,-61.03515625,-1000.0,-734.86328125,-43.9453125,-1.0,1.0,-1.0,0.0,4.m4v,2.0
2024-02-27 10:33:19.183156,1709026399.1831555,-59.08203125,-1000.0,-379.8828125,-45.8984375,-1.0,1.0,-1.0,0.0,4.m4v,2.0
2024-02-27 10:33:19.187060,1709026399.1870604,-47.8515625,-1000.0,-197.75390625,-41.50390625,-1.0,1.0,-1.0,0.0,4.m4v,2.0
2024-02-27 10:33:19.190983,1709026399.1909828,-47.36328125,-941.89453125,-342.7734375,-42.96875,-1.0,1.0,-1.0,0.0,4.m4v,2.0
2024-02-27 10:33:19.194887,1709026399.1948874,-54.6875,-1000.0,-719.23828125,-49.31640625,-1.0,1.0,-1.0,0.0,4.m4v,2.0
2024-02-27 10:33:19.198792,1709026399.1987922,-43.9453125,-873.046875,-602.05078125,-39.0625,-1.0,1.0,-1.0,0.0,4.m4v,2.0
2024-02-27 10:33:19.202697,1709026399.202697,-46.38671875,582.03125,-55.6640625,-28.80859375,-1.0,1.0,-1.0,0.0,4.m4v,2.0
2024-02-27 10:33:19.206602,1709026399.206602,-43.45703125,999.51171875,121.58203125,-28.3203125,-1.0,1.0,-1.0,0.0,4.m4v,2.0
2024-02-27 10:33:19.210506,1709026399.2105064,-41.9921875,896.484375,188.96484375,-31.25,-1.0,1.0,-1.0,0.0,4.m4v,2.0
2024-02-27 10:33:19.214411,1709026399.2144113,-55.17578125,985.83984375,128.41796875,-36.1328125,-1.0,1.0,-1.0,0.0,4.m4v,2.0
2024-02-27 10:33:19.218316,1709026399.218316,-55.17578125,969.7265625,-362.3046875,-45.41015625,-1.0,1.0,-1.0,0.0,4.m4v,2.0
2024-02-27 10:33:19.222221,1709026399.222221,-43.9453125,969.7265625,-424.31640625,-42.96875,-1.0,1.0,-1.0,0.0,4.m4v,2.0
2024-02-27 10:33:19.226126,1709026399.2261257,-35.15625,969.7265625,-33.203125,-39.55078125,-1.0,1.0,-1.0,0.0,4.m4v,2.0
2024-02-27 10:33:19.230030,1709026399.2300303,-59.5703125,969.7265625,-83.49609375,-39.55078125,-1.0,1.0,-1.0,0.0,4.m4v,2.0
2024-02-27 10:33:19.233935,1709026399.233935,-59.5703125,970.21484375,-468.75,-25.87890625,-1.0,1.0,-1.0,0.0,4.m4v,2.0
2024-02-27 10:33:19.237856,1709026399.237856,-41.015625,984.375,-626.46484375,-20.5078125,-1.0,1.0,-1.0,0.0,4.m4v,2.0
2024-02-27 10:33:19.241760,1709026399.2417605,-42.96875,901.85546875,-441.89453125,-36.1328125,-1.0,1.0,-1.0,0.0,4.m4v,2.0
2024-02-27 10:33:19.245665,1709026399.2456653,-31.73828125,999.51171875,-72.75390625,-36.1328125,-1.0,1.0,-1.0,0.0,4.m4v,2.0
2024-02-27 10:33:19.249570,1709026399.24957,-19.53125,626.46484375,-137.20703125,-40.52734375,-1.0,1.0,-1.0,0.0,4.m4v,2.0
2024-02-27 10:33:19.253475,1709026399.253475,-41.9921875,-816.40625,-625.9765625,-45.41015625,-1.0,1.0,-1.0,0.0,4.m4v,2.0
2024-02-27 10:33:19.257380,1709026399.2573795,-33.69140625,-1000.0,-620.60546875,-39.55078125,-1.0,1.0,-1.0,0.0,4.m4v,2.0
2024-02-27 10:33:19.261284,1709026399.2612844,-12.6953125,-938.96484375,4.8828125,-40.0390625,-1.0,1.0,-1.0,0.0,4.m4v,2.0
2024-02-27 10:33:19.265189,1709026399.2651892,-25.87890625,-1000.0,228.515625,-33.203125,-1.0,1.0,-1.0,0.0,4.m4v,2.0
2024-02-27 10:33:19.269094,1709026399.269094,-24.90234375,-1000.0,-117.1875,-32.71484375,-1.0,1.0,-1.0,0.0,4.m4v,2.0
2024-02-27 10:33:19.272999,1709026399.2729988,-22.4609375,-1000.0,-454.1015625,-46.875,-1.0,1.0,-1.0,0.0,4.m4v,2.0
2024-02-27 10:33:19.276903,1709026399.2769034,-35.64453125,-1000.0,-650.390625,-55.6640625,-1.0,1.0,-1.0,0.0,4.m4v,2.0
2024-02-27 10:33:19.280808,1709026399.2808082,-39.55078125,-1000.0,-518.5546875,-44.43359375,-1.0,1.0,-1.0,0.0,4.m4v,2.0
2024-02-27 10:33:19.284725,1709026399.2847254,-33.69140625,-1000.0,-120.1171875,-36.62109375,-1.0,1.0,-1.0,0.0,4.m4v,2.0
2024-02-27 10:33:19.288630,1709026399.2886302,-39.55078125,-1000.0,-1.953125,-33.69140625,-1.0,1.0,-1.0,0.0,4.m4v,2.0
2024-02-27 10:33:19.292535,1709026399.292535,-39.55078125,-982.421875,-348.6328125,-34.1796875,-1.0,1.0,-1.0,0.0,4.m4v,2.0
2024-02-27 10:33:19.296440,1709026399.2964396,-44.921875,-969.7265625,-705.56640625,-31.73828125,-1.0,1.0,-1.0,0.0,4.m4v,2.0
2024-02-27 10:33:19.300344,1709026399.3003445,-63.4765625,-1000.0,-710.9375,-32.71484375,-1.0,1.0,-1.0,0.0,4.m4v,2.0
2024-02-27 10:33:19.304249,1709026399.3042493,-51.26953125,29.78515625,0.48828125,-20.01953125,-1.0,1.0,-1.0,0.0,4.m4v,2.0
2024-02-27 10:33:19.308154,1709026399.308154,-44.921875,999.51171875,486.81640625,-15.625,-1.0,1.0,-1.0,0.0,4.m4v,2.0
2024-02-27 10:33:19.312059,1709026399.3120587,-47.36328125,928.7109375,-102.05078125,-40.52734375,-1.0,1.0,-1.0,0.0,4.m4v,2.0
2024-02-27 10:33:19.315964,1709026399.3159635,-39.55078125,958.984375,-550.29296875,-40.52734375,-1.0,1.0,-1.0,0.0,4.m4v,2.0
2024-02-27 10:33:19.319868,1709026399.3198683,-19.53125,973.14453125,-238.76953125,-32.71484375,-1.0,1.0,-1.0,0.0,4.m4v,2.0
2024-02-27 10:33:19.323773,1709026399.3237731,-9.765625,969.7265625,120.1171875,-23.92578125,-1.0,1.0,-1.0,0.0,4.m4v,2.0
2024-02-27 10:33:19.327678,1709026399.327678,-35.15625,969.7265625,109.86328125,-23.4375,-1.0,1.0,-1.0,0.0,4.m4v,2.0
2024-02-27 10:33:19.331596,1709026399.3315957,-50.78125,969.7265625,-232.421875,-23.4375,-1.0,1.0,-1.0,0.0,4.m4v,2.0
2024-02-27 10:33:19.335500,1709026399.3355002,-41.50390625,969.7265625,-582.03125,-35.15625,-1.0,1.0,-1.0,0.0,4.m4v,2.0
2024-02-27 10:33:19.339405,1709026399.339405,-35.64453125,969.7265625,-554.19921875,-33.203125,-1.0,1.0,-1.0,0.0,4.m4v,2.0
2024-02-27 10:33:19.343310,1709026399.34331,-39.0625,969.7265625,-175.29296875,-25.87890625,-1.0,1.0,-1.0,0.0,4.m4v,2.0
2024-02-27 10:33:19.347215,1709026399.3472147,-39.0625,985.83984375,33.69140625,-34.66796875,-1.0,1.0,-1.0,0.0,4.m4v,2.0
2024-02-27 10:33:19.351119,1709026399.3511193,-27.34375,912.109375,69.82421875,-32.2265625,-1.0,1.0,-1.0,0.0,4.m4v,2.0
2024-02-27 10:33:19.355024,1709026399.355024,-28.80859375,999.51171875,-34.66796875,-26.3671875,-1.0,1.0,-1.0,0.0,4.m4v,2.0
2024-02-27 10:33:19.358929,1709026399.358929,-34.66796875,857.421875,-394.53125,-35.15625,-1.0,1.0,-1.0,0.0,4.m4v,2.0
2024-02-27 10:33:19.362834,1709026399.3628335,-34.1796875,-598.14453125,-303.7109375,-40.52734375,-1.0,1.0,-1.0,0.0,4.m4v,2.0
2024-02-27 10:33:19.366739,1709026399.3667386,-32.71484375,-1000.0,-93.26171875,-36.1328125,-1.0,1.0,-1.0,0.0,4.m4v,2.0
2024-02-27 10:33:19.370643,1709026399.3706431,-33.203125,-925.78125,-363.28125,-33.69140625,-1.0,1.0,-1.0,0.0,4.m4v,2.0
2024-02-27 10:33:19.374548,1709026399.374548,-44.921875,-1000.0,-762.20703125,-32.71484375,-1.0,1.0,-1.0,0.0,4.m4v,2.0
2024-02-27 10:33:19.378481,1709026399.3784814,-50.29296875,-1000.0,-697.265625,-38.0859375,-1.0,1.0,-1.0,0.0,4.m4v,2.0
2024-02-27 10:33:19.382386,1709026399.3823862,-51.7578125,-1000.0,-396.484375,-37.109375,-1.0,1.0,-1.0,0.0,4.m4v,2.0
2024-02-27 10:33:19.386291,1709026399.386291,-54.19921875,-974.609375,-224.12109375,-32.2265625,-1.0,1.0,-1.0,0.0,4.m4v,2.0
2024-02-27 10:33:19.390196,1709026399.3901958,-51.26953125,-990.72265625,-290.52734375,-32.2265625,-1.0,1.0,-1.0,0.0,4.m4v,2.0
2024-02-27 10:33:19.394100,1709026399.3941004,-41.015625,-972.16796875,-540.52734375,-36.62109375,-1.0,1.0,-1.0,0.0,4.m4v,2.0
2024-02-27 10:33:19.398005,1709026399.3980052,-35.64453125,245.1171875,-228.02734375,-37.109375,-1.0,1.0,-1.0,0.0,4.m4v,2.0
2024-02-27 10:33:19.401910,1709026399.40191,-41.015625,999.51171875,179.19921875,-24.90234375,-1.0,1.0,-1.0,0.0,4.m4v,2.0
2024-02-27 10:33:19.405815,1709026399.405815,-42.48046875,915.0390625,75.68359375,-26.85546875,-1.0,1.0,-1.0,0.0,4.m4v,2.0
2024-02-27 10:33:19.409719,1709026399.4097197,-45.8984375,968.75,-180.6640625,-44.921875,-1.0,1.0,-1.0,0.0,4.m4v,2.0
2024-02-27 10:33:19.413624,1709026399.4136243,-38.0859375,970.703125,-448.73046875,-51.26953125,-1.0,1.0,-1.0,0.0,4.m4v,2.0
2024-02-27 10:33:19.417529,1709026399.417529,-40.52734375,969.7265625,-499.51171875,-43.9453125,-1.0,1.0,-1.0,0.0,4.m4v,2.0
2024-02-27 10:33:19.421434,1709026399.421434,-49.31640625,969.7265625,-189.94140625,-49.31640625,-1.0,1.0,-1.0,0.0,4.m4v,2.0
2024-02-27 10:33:19.425359,1709026399.425359,-40.0390625,969.7265625,121.58203125,-40.52734375,-1.0,1.0,-1.0,0.0,4.m4v,2.0
2024-02-27 10:33:19.429264,1709026399.4292638,-32.2265625,969.7265625,-2.9296875,-34.1796875,-1.0,1.0,-1.0,0.0,4.m4v,2.0
2024-02-27 10:33:19.433169,1709026399.4331686,-46.875,969.7265625,-381.34765625,-47.36328125,-1.0,1.0,-1.0,0.0,4.m4v,2.0
2024-02-27 10:33:19.437073,1709026399.4370737,-46.38671875,971.6796875,-481.4453125,-47.36328125,-1.0,1.0,-1.0,0.0,4.m4v,2.0
2024-02-27 10:33:19.440978,1709026399.440978,-25.87890625,972.16796875,-130.859375,-32.71484375,-1.0,1.0,-1.0,0.0,4.m4v,2.0
2024-02-27 10:33:19.444883,1709026399.4448829,-19.53125,912.109375,282.71484375,-33.203125,-1.0,1.0,-1.0,0.0,4.m4v,2.0
2024-02-27 10:33:19.448788,1709026399.4487877,-34.66796875,999.51171875,328.125,-39.0625,-1.0,1.0,-1.0,0.0,4.m4v,2.0
2024-02-27 10:33:19.452693,1709026399.4526925,-44.921875,313.4765625,-288.0859375,-32.2265625,-1.0,1.0,-1.0,0.0,4.m4v,2.0
2024-02-27 10:33:19.456597,1709026399.456597,-48.33984375,-977.5390625,-759.765625,-35.15625,-1.0,1.0,-1.0,0.0,4.m4v,2.0
2024-02-27 10:33:19.460502,1709026399.460502,-38.57421875,-1000.0,-686.03515625,-35.15625,-1.0,1.0,-1.0,0.0,4.m4v,2.0
2024-02-27 10:33:19.464407,1709026399.4644067,-25.390625,-961.42578125,-372.0703125,-32.2265625,-1.0,1.0,-1.0,0.0,4.m4v,2.0
2024-02-27 10:33:19.468312,1709026399.4683115,-32.2265625,-1000.0,-250.9765625,-42.96875,-1.0,1.0,-1.0,0.0,4.m4v,2.0
2024-02-27 10:33:19.472235,1709026399.4722352,-42.48046875,-1000.0,-520.01953125,-51.7578125,-1.0,1.0,-1.0,0.0,4.m4v,2.0
2024-02-27 10:33:19.476140,1709026399.4761398,-35.15625,-1000.0,-740.72265625,-47.36328125,-1.0,1.0,-1.0,0.0,4.m4v,2.0
2024-02-27 10:33:19.480045,1709026399.4800446,-37.59765625,-958.49609375,-626.953125,-34.1796875,-1.0,1.0,-1.0,0.0,4.m4v,2.0
2024-02-27 10:33:19.483949,1709026399.4839494,-39.0625,-1000.0,-161.1328125,-29.296875,-1.0,1.0,-1.0,0.0,4.m4v,2.0
2024-02-27 10:33:19.487854,1709026399.4878542,-35.64453125,-997.55859375,82.03125,-40.0390625,-1.0,1.0,-1.0,0.0,4.m4v,2.0
2024-02-27 10:33:19.491759,1709026399.491759,-30.76171875,368.65234375,166.015625,-39.55078125,-1.0,1.0,-1.0,0.0,4.m4v,2.0
2024-02-27 10:33:19.495664,1709026399.4956636,-27.83203125,999.51171875,106.93359375,-34.66796875,-1.0,1.0,-1.0,0.0,4.m4v,2.0
2024-02-27 10:33:19.499568,1709026399.4995685,-24.90234375,898.92578125,-20.99609375,-37.109375,-1.0,1.0,-1.0,0.0,4.m4v,2.0
2024-02-27 10:33:19.503473,1709026399.5034733,-25.87890625,978.515625,172.8515625,-23.92578125,-1.0,1.0,-1.0,0.0,4.m4v,2.0
2024-02-27 10:33:19.507378,1709026399.507378,-35.15625,969.7265625,124.51171875,-31.73828125,-1.0,1.0,-1.0,0.0,4.m4v,2.0
2024-02-27 10:33:19.511283,1709026399.5112827,-27.34375,969.7265625,-236.81640625,-44.921875,-1.0,1.0,-1.0,0.0,4.m4v,2.0
2024-02-27 10:33:19.515188,1709026399.5151875,-28.80859375,969.7265625,-524.4140625,-39.55078125,-1.0,1.0,-1.0,0.0,4.m4v,2.0
2024-02-27 10:33:19.519111,1709026399.5191112,-40.52734375,969.7265625,-445.3125,-43.9453125,-1.0,1.0,-1.0,0.0,4.m4v,2.0
2024-02-27 10:33:19.523016,1709026399.523016,-19.53125,969.7265625,-74.70703125,-40.52734375,-1.0,1.0,-1.0,0.0,4.m4v,2.0
2024-02-27 10:33:19.526921,1709026399.5269208,-14.6484375,969.7265625,147.4609375,-38.0859375,-1.0,1.0,-1.0,0.0,4.m4v,2.0
2024-02-27 10:33:19.530825,1709026399.5308254,-28.3203125,969.7265625,6.8359375,-36.1328125,-1.0,1.0,-1.0,0.0,4.m4v,2.0
2024-02-27 10:33:19.534730,1709026399.5347302,-23.4375,969.7265625,-330.078125,-21.97265625,-1.0,1.0,-1.0,0.0,4.m4v,2.0
2024-02-27 10:33:19.538635,1709026399.538635,-22.4609375,985.83984375,-282.71484375,-24.90234375,-1.0,1.0,-1.0,0.0,4.m4v,2.0
2024-02-27 10:33:19.542540,1709026399.5425398,-29.78515625,905.2734375,114.74609375,-42.48046875,-1.0,1.0,-1.0,0.0,4.m4v,2.0
2024-02-27 10:33:19.546445,1709026399.546445,-33.69140625,999.51171875,212.40234375,-41.9921875,-1.0,1.0,-1.0,0.0,4.m4v,2.0
2024-02-27 10:33:19.550349,1709026399.5503492,-31.73828125,731.4453125,-87.40234375,-43.45703125,-1.0,1.0,-1.0,0.0,4.m4v,2.0
2024-02-27 10:33:19.554254,1709026399.554254,-31.25,-724.609375,-635.7421875,-49.31640625,-1.0,1.0,-1.0,0.0,4.m4v,2.0
2024-02-27 10:33:19.558159,1709026399.5581589,-22.94921875,-1000.0,-726.5625,-33.203125,-1.0,1.0,-1.0,0.0,4.m4v,2.0
2024-02-27 10:33:19.562064,1709026399.5620637,-28.3203125,-932.6171875,-264.16015625,-37.59765625,-1.0,1.0,-1.0,0.0,4.m4v,2.0
2024-02-27 10:33:19.565986,1709026399.565986,-20.5078125,-1000.0,-61.5234375,-34.1796875,-1.0,1.0,-1.0,0.0,4.m4v,2.0
2024-02-27 10:33:19.569890,1709026399.5698905,-20.99609375,-1000.0,-202.63671875,-25.390625,-1.0,1.0,-1.0,0.0,4.m4v,2.0
2024-02-27 10:33:19.573795,1709026399.5737953,-32.2265625,-957.03125,-476.07421875,-32.2265625,-1.0,1.0,-1.0,0.0,4.m4v,2.0
2024-02-27 10:33:19.577700,1709026399.5777,-21.484375,-1000.0,-599.12109375,-28.80859375,-1.0,1.0,-1.0,0.0,4.m4v,2.0
2024-02-27 10:33:19.581605,1709026399.581605,-14.6484375,-989.74609375,-330.56640625,-31.25,-1.0,1.0,-1.0,0.0,4.m4v,2.0
2024-02-27 10:33:19.585510,1709026399.5855098,-7.32421875,387.6953125,488.28125,-22.94921875,-1.0,1.0,-1.0,0.0,4.m4v,2.0
2024-02-27 10:33:19.589414,1709026399.5894144,-3.41796875,999.51171875,766.6015625,-18.5546875,-1.0,1.0,-1.0,0.0,4.m4v,2.0
2024-02-27 10:33:19.593319,1709026399.5933192,-21.97265625,897.94921875,-46.38671875,-28.3203125,-1.0,1.0,-1.0,0.0,4.m4v,2.0
2024-02-27 10:33:19.597224,1709026399.597224,-29.296875,979.98046875,-476.5625,-34.66796875,-1.0,1.0,-1.0,0.0,4.m4v,2.0
2024-02-27 10:33:19.601129,1709026399.6011288,-37.59765625,969.7265625,-185.05859375,-28.3203125,-1.0,1.0,-1.0,0.0,4.m4v,2.0
2024-02-27 10:33:19.605033,1709026399.6050334,-36.1328125,969.7265625,213.8671875,-30.76171875,-1.0,1.0,-1.0,0.0,4.m4v,2.0
2024-02-27 10:33:19.608938,1709026399.6089382,-17.578125,969.7265625,229.98046875,-20.01953125,-1.0,1.0,-1.0,0.0,4.m4v,2.0
2024-02-27 10:33:19.612858,1709026399.612858,-18.06640625,969.7265625,-147.94921875,-20.5078125,-1.0,1.0,-1.0,0.0,4.m4v,2.0
2024-02-27 10:33:19.616763,1709026399.6167629,-42.96875,969.7265625,-368.65234375,-43.45703125,-1.0,1.0,-1.0,0.0,4.m4v,2.0
2024-02-27 10:33:19.620667,1709026399.6206677,-36.62109375,969.7265625,-16.6015625,-30.76171875,-1.0,1.0,-1.0,0.0,4.m4v,2.0
2024-02-27 10:33:19.624572,1709026399.6245725,-25.87890625,969.7265625,265.13671875,-16.6015625,-1.0,1.0,-1.0,0.0,4.m4v,2.0
2024-02-27 10:33:19.628477,1709026399.628477,-29.296875,986.81640625,143.5546875,-27.83203125,-1.0,1.0,-1.0,0.0,4.m4v,2.0
2024-02-27 10:33:19.632382,1709026399.632382,-31.73828125,906.73828125,26.3671875,-30.76171875,-1.0,1.0,-1.0,0.0,4.m4v,2.0
2024-02-27 10:33:19.636286,1709026399.6362865,-40.52734375,999.51171875,109.86328125,-35.64453125,-1.0,1.0,-1.0,0.0,4.m4v,2.0
2024-02-27 10:33:19.640191,1709026399.6401913,-34.66796875,792.96875,-64.453125,-42.48046875,-1.0,1.0,-1.0,0.0,4.m4v,2.0
2024-02-27 10:33:19.644096,1709026399.644096,-18.06640625,-673.828125,-272.4609375,-39.55078125,-1.0,1.0,-1.0,0.0,4.m4v,2.0
2024-02-27 10:33:19.648001,1709026399.648001,-34.66796875,-1000.0,-275.87890625,-35.15625,-1.0,1.0,-1.0,0.0,4.m4v,2.0
2024-02-27 10:33:19.651906,1709026399.6519058,-48.33984375,-928.7109375,-409.66796875,-30.2734375,-1.0,1.0,-1.0,0.0,4.m4v,2.0
2024-02-27 10:33:19.655810,1709026399.6558104,-45.41015625,-1000.0,-623.046875,-41.015625,-1.0,1.0,-1.0,0.0,4.m4v,2.0
2024-02-27 10:33:19.659729,1709026399.6597288,-38.57421875,-1000.0,-592.28515625,-35.64453125,-1.0,1.0,-1.0,0.0,4.m4v,2.0
2024-02-27 10:33:19.663634,1709026399.6636336,-24.4140625,-1000.0,-275.87890625,-17.578125,-1.0,1.0,-1.0,0.0,4.m4v,2.0
2024-02-27 10:33:19.667538,1709026399.6675384,-24.90234375,-1000.0,-105.46875,-29.296875,-1.0,1.0,-1.0,0.0,4.m4v,2.0
2024-02-27 10:33:19.671443,1709026399.6714432,-40.0390625,-930.17578125,-324.70703125,-38.57421875,-1.0,1.0,-1.0,0.0,4.m4v,2.0
2024-02-27 10:33:19.675348,1709026399.6753478,-45.41015625,-1000.0,-624.0234375,-34.66796875,-1.0,1.0,-1.0,0.0,4.m4v,2.0
2024-02-27 10:33:19.679253,1709026399.6792526,-41.015625,-613.28125,-336.9140625,-30.76171875,-1.0,1.0,-1.0,0.0,4.m4v,2.0
2024-02-27 10:33:19.683157,1709026399.6831574,-23.92578125,827.1484375,518.5546875,-26.85546875,-1.0,1.0,-1.0,0.0,4.m4v,2.0
2024-02-27 10:33:19.687062,1709026399.6870625,-13.18359375,999.51171875,555.17578125,-15.13671875,-1.0,1.0,-1.0,0.0,4.m4v,2.0
2024-02-27 10:33:19.690967,1709026399.690967,-18.06640625,911.1328125,-130.37109375,-21.97265625,-1.0,1.0,-1.0,0.0,4.m4v,2.0
2024-02-27 10:33:19.694872,1709026399.6948717,-32.71484375,985.83984375,-639.16015625,-42.48046875,-1.0,1.0,-1.0,0.0,4.m4v,2.0
2024-02-27 10:33:19.698776,1709026399.6987765,-41.015625,969.7265625,-681.15234375,-27.83203125,-1.0,1.0,-1.0,0.0,4.m4v,2.0
2024-02-27 10:33:19.702681,1709026399.7026813,-30.76171875,969.7265625,-201.171875,-18.06640625,-1.0,1.0,-1.0,0.0,4.m4v,2.0
2024-02-27 10:33:19.706598,1709026399.7065978,-8.7890625,969.7265625,183.10546875,-18.5546875,-1.0,1.0,-1.0,0.0,4.m4v,2.0
2024-02-27 10:33:19.710503,1709026399.7105026,-17.08984375,969.7265625,10.7421875,-26.3671875,-1.0,1.0,-1.0,0.0,4.m4v,2.0
2024-02-27 10:33:19.714407,1709026399.7144074,-24.4140625,969.7265625,-388.671875,-41.015625,-1.0,1.0,-1.0,0.0,4.m4v,2.0
2024-02-27 10:33:19.718312,1709026399.718312,-25.87890625,970.21484375,-484.375,-36.62109375,-1.0,1.0,-1.0,0.0,4.m4v,2.0
2024-02-27 10:33:19.722217,1709026399.7222168,-36.62109375,969.7265625,-215.8203125,-20.5078125,-1.0,1.0,-1.0,0.0,4.m4v,2.0
2024-02-27 10:33:19.726122,1709026399.7261217,-19.53125,969.7265625,527.34375,-14.16015625,-1.0,1.0,-1.0,0.0,4.m4v,2.0
2024-02-27 10:33:19.730026,1709026399.7300265,-3.90625,969.7265625,780.2734375,-23.4375,-1.0,1.0,-1.0,0.0,4.m4v,2.0
2024-02-27 10:33:19.733931,1709026399.7339313,-32.71484375,986.328125,-34.66796875,-31.25,-1.0,1.0,-1.0,0.0,4.m4v,2.0
2024-02-27 10:33:19.737836,1709026399.737836,-52.24609375,911.1328125,-387.6953125,-36.62109375,-1.0,1.0,-1.0,0.0,4.m4v,2.0
2024-02-27 10:33:19.741741,1709026399.7417407,-42.48046875,999.51171875,95.21484375,-41.015625,-1.0,1.0,-1.0,0.0,4.m4v,2.0
2024-02-27 10:33:19.745646,1709026399.7456455,-30.2734375,848.14453125,251.953125,-35.64453125,-1.0,1.0,-1.0,0.0,4.m4v,2.0
2024-02-27 10:33:19.749550,1709026399.7495503,-38.57421875,-612.79296875,-232.91015625,-30.76171875,-1.0,1.0,-1.0,0.0,4.m4v,2.0
2024-02-27 10:33:19.753477,1709026399.753477,-45.41015625,-1000.0,-708.0078125,-28.80859375,-1.0,1.0,-1.0,0.0,4.m4v,2.0
2024-02-27 10:33:19.757382,1709026399.757382,-48.828125,-926.26953125,-793.9453125,-47.8515625,-1.0,1.0,-1.0,0.0,4.m4v,2.0
2024-02-27 10:33:19.761287,1709026399.7612867,-41.015625,-1000.0,-494.62890625,-43.45703125,-1.0,1.0,-1.0,0.0,4.m4v,2.0
2024-02-27 10:33:19.765191,1709026399.7651913,-24.90234375,-930.6640625,-62.98828125,-26.3671875,-1.0,1.0,-1.0,0.0,4.m4v,2.0
2024-02-27 10:33:19.769096,1709026399.769096,-25.87890625,-1000.0,-62.98828125,-27.83203125,-1.0,1.0,-1.0,0.0,4.m4v,2.0
2024-02-27 10:33:19.773001,1709026399.773001,-37.109375,-681.15234375,-63.96484375,-32.2265625,-1.0,1.0,-1.0,0.0,4.m4v,2.0
2024-02-27 10:33:19.776906,1709026399.7769058,-35.64453125,779.296875,95.21484375,-33.203125,-1.0,1.0,-1.0,0.0,4.m4v,2.0
2024-02-27 10:33:19.780811,1709026399.7808106,-43.9453125,999.51171875,-137.20703125,-48.33984375,-1.0,1.0,-1.0,0.0,4.m4v,2.0
2024-02-27 10:33:19.784715,1709026399.7847152,-47.36328125,906.25,-9.765625,-53.22265625,-1.0,1.0,-1.0,0.0,4.m4v,2.0
2024-02-27 10:33:19.788620,1709026399.78862,-32.71484375,986.328125,81.54296875,-41.50390625,-1.0,1.0,-1.0,0.0,4.m4v,2.0
2024-02-27 10:33:19.792525,1709026399.7925248,-51.26953125,969.7265625,-338.37890625,-40.0390625,-1.0,1.0,-1.0,0.0,4.m4v,2.0
2024-02-27 10:33:19.796430,1709026399.7964296,-52.24609375,972.65625,-555.17578125,-36.1328125,-1.0,1.0,-1.0,0.0,4.m4v,2.0
2024-02-27 10:33:19.800356,1709026399.8003564,-30.76171875,964.84375,-229.00390625,-22.94921875,-1.0,1.0,-1.0,0.0,4.m4v,2.0
2024-02-27 10:33:19.804261,1709026399.8042612,-46.875,920.8984375,101.5625,-32.2265625,-1.0,1.0,-1.0,0.0,4.m4v,2.0
2024-02-27 10:33:19.808166,1709026399.808166,-56.640625,999.51171875,147.94921875,-46.875,-1.0,1.0,-1.0,0.0,4.m4v,2.0
2024-02-27 10:33:19.812071,1709026399.8120708,-45.8984375,156.73828125,-355.95703125,-49.31640625,-1.0,1.0,-1.0,0.0,4.m4v,2.0
2024-02-27 10:33:19.815975,1709026399.8159754,-50.78125,-1000.0,-880.37109375,-54.19921875,-1.0,1.0,-1.0,0.0,4.m4v,2.0
2024-02-27 10:33:19.819880,1709026399.8198802,-50.29296875,-989.2578125,-345.21484375,-41.9921875,-1.0,1.0,-1.0,0.0,4.m4v,2.0
2024-02-27 10:33:19.823785,1709026399.823785,-27.83203125,-973.6328125,311.03515625,-31.25,-1.0,1.0,-1.0,0.0,4.m4v,2.0
2024-02-27 10:33:19.827690,1709026399.82769,-32.2265625,-1000.0,218.75,-32.2265625,-1.0,1.0,-1.0,0.0,4.m4v,2.0
2024-02-27 10:33:19.831594,1709026399.8315945,-52.24609375,-1000.0,-231.4453125,-44.921875,-1.0,1.0,-1.0,0.0,4.m4v,2.0
2024-02-27 10:33:19.835499,1709026399.8354993,-54.19921875,-1000.0,-619.140625,-42.96875,-1.0,1.0,-1.0,0.0,4.m4v,2.0
2024-02-27 10:33:19.839404,1709026399.839404,-59.08203125,-1000.0,-578.125,-44.921875,-1.0,1.0,-1.0,0.0,4.m4v,2.0
2024-02-27 10:33:19.843309,1709026399.843309,-46.875,-1000.0,-47.36328125,-44.921875,-1.0,1.0,-1.0,0.0,4.m4v,2.0
2024-02-27 10:33:19.847234,1709026399.8472335,-48.33984375,-1000.0,164.0625,-42.48046875,-1.0,1.0,-1.0,0.0,4.m4v,2.0
2024-02-27 10:33:19.851138,1709026399.8511384,-61.03515625,-938.96484375,-126.46484375,-44.921875,-1.0,1.0,-1.0,0.0,4.m4v,2.0
2024-02-27 10:33:19.855043,1709026399.8550432,-48.828125,-1000.0,-432.12890625,-52.734375,-1.0,1.0,-1.0,0.0,4.m4v,2.0
2024-02-27 10:33:19.858948,1709026399.858948,-41.9921875,-359.375,-235.83984375,-53.7109375,-1.0,1.0,-1.0,0.0,4.m4v,2.0
2024-02-27 10:33:19.862853,1709026399.8628526,-54.19921875,951.171875,287.109375,-54.19921875,-1.0,1.0,-1.0,0.0,4.m4v,2.0
