Timestamp,Timestamp_UNIX,TP9,AF7,AF8,TP10,Valence,Arousal,Dominace,Viewed,Video,Participant
2024-02-28 14:22:05.000878,1709126525.0008776,-159.1796875,-987.79296875,-21.484375,-999.51171875,0.0,0.0,0.0,0.0,2.m4v,11.0
2024-02-28 14:22:05.004783,1709126525.0047832,-101.07421875,-974.12109375,-24.90234375,-846.19140625,0.0,0.0,0.0,0.0,2.m4v,11.0
2024-02-28 14:22:05.008688,1709126525.0086884,40.0390625,-1000.0,-32.71484375,616.2109375,0.0,0.0,0.0,0.0,2.m4v,11.0
2024-02-28 14:22:05.012594,1709126525.012594,82.51953125,-1000.0,-31.25,999.51171875,0.0,0.0,0.0,0.0,2.m4v,11.0
2024-02-28 14:22:05.016500,1709126525.0164995,-63.4765625,-1000.0,-31.25,-404.296875,0.0,0.0,0.0,0.0,2.m4v,11.0
2024-02-28 14:22:05.020405,1709126525.0204048,-151.85546875,-1000.0,-42.96875,-1000.0,0.0,0.0,0.0,0.0,2.m4v,11.0
2024-02-28 14:22:05.469599,1709126525.4695995,72.75390625,907.71484375,-26.3671875,999.51171875,0.0,0.0,0.0,0.0,2.m4v,11.0
2024-02-28 14:22:05.473505,1709126525.473505,27.34375,999.51171875,-24.4140625,647.94921875,0.0,0.0,0.0,0.0,2.m4v,11.0
2024-02-28 14:22:05.477410,1709126525.4774103,-128.90625,462.40234375,-25.390625,-679.19921875,0.0,0.0,0.0,0.0,2.m4v,11.0
2024-02-28 14:22:05.481316,1709126525.481316,-215.8203125,-990.234375,-33.69140625,-1000.0,0.0,0.0,0.0,0.0,2.m4v,11.0
2024-02-28 14:22:05.485221,1709126525.4852214,-138.18359375,-926.7578125,-37.59765625,-798.828125,0.0,0.0,0.0,0.0,2.m4v,11.0
2024-02-28 14:22:05.489127,1709126525.4891267,70.80078125,603.515625,-30.76171875,543.9453125,0.0,0.0,0.0,0.0,2.m4v,11.0
2024-02-28 14:22:05.493032,1709126525.4930322,121.58203125,999.51171875,-22.4609375,999.51171875,0.0,0.0,0.0,0.0,2.m4v,11.0
2024-02-28 14:22:05.496938,1709126525.4969378,-14.6484375,895.01953125,-29.296875,142.578125,0.0,0.0,0.0,0.0,2.m4v,11.0
2024-02-28 14:22:05.500843,1709126525.500843,-148.92578125,985.83984375,-38.0859375,-999.0234375,0.0,0.0,0.0,0.0,2.m4v,11.0
2024-02-28 14:22:05.504749,1709126525.5047486,-111.328125,969.7265625,-34.1796875,-740.72265625,0.0,0.0,0.0,0.0,2.m4v,11.0
2024-02-28 14:22:05.508654,1709126525.508654,60.05859375,969.7265625,-32.2265625,768.5546875,0.0,0.0,0.0,0.0,2.m4v,11.0
2024-02-28 14:22:05.512559,1709126525.5125594,72.75390625,969.7265625,-44.43359375,967.28515625,0.0,0.0,0.0,0.0,2.m4v,11.0
2024-02-28 14:22:05.516471,1709126525.5164711,-83.984375,969.7265625,-57.12890625,-434.5703125,0.0,0.0,0.0,0.0,2.m4v,11.0
2024-02-28 14:22:05.520377,1709126525.5203767,-167.48046875,969.7265625,-37.109375,-1000.0,0.0,0.0,0.0,0.0,2.m4v,11.0
2024-02-28 14:22:05.524282,1709126525.5242822,-97.16796875,969.7265625,-14.16015625,-650.390625,0.0,0.0,0.0,0.0,2.m4v,11.0
2024-02-28 14:22:05.528188,1709126525.5281875,54.19921875,986.328125,-9.27734375,745.60546875,0.0,0.0,0.0,0.0,2.m4v,11.0
2024-02-28 14:22:05.532093,1709126525.532093,51.7578125,911.62109375,-18.5546875,961.9140625,0.0,0.0,0.0,0.0,2.m4v,11.0
2024-02-28 14:22:05.535999,1709126525.5359986,-86.42578125,999.51171875,-21.484375,-479.00390625,0.0,0.0,0.0,0.0,2.m4v,11.0
2024-02-28 14:22:05.539904,1709126525.539904,-154.296875,856.93359375,-23.4375,-1000.0,0.0,0.0,0.0,0.0,2.m4v,11.0
2024-02-28 14:22:05.543809,1709126525.5438094,-173.33984375,-602.05078125,-38.57421875,-985.83984375,0.0,0.0,0.0,0.0,2.m4v,11.0
2024-02-28 14:22:05.547715,1709126525.547715,-114.2578125,-1000.0,-42.96875,-829.1015625,0.0,0.0,0.0,0.0,2.m4v,11.0
2024-02-28 14:22:05.551620,1709126525.5516202,-8.7890625,-928.7109375,-40.52734375,-67.87109375,0.0,0.0,0.0,0.0,2.m4v,11.0
2024-02-28 14:22:05.555526,1709126525.5555258,-40.52734375,-1000.0,-37.109375,-330.078125,0.0,0.0,0.0,0.0,2.m4v,11.0
2024-02-28 14:22:05.559431,1709126525.559431,-118.1640625,-952.63671875,-43.9453125,-1000.0,0.0,0.0,0.0,0.0,2.m4v,11.0
2024-02-28 14:22:05.563343,1709126525.5633426,-80.078125,-1000.0,-50.29296875,-633.7890625,0.0,0.0,0.0,0.0,2.m4v,11.0
2024-02-28 14:22:05.567248,1709126525.567248,70.80078125,-153.80859375,-35.64453125,688.96484375,0.0,0.0,0.0,0.0,2.m4v,11.0
2024-02-28 14:22:05.571154,1709126525.5711536,131.8359375,952.63671875,-21.97265625,999.51171875,0.0,0.0,0.0,0.0,2.m4v,11.0
2024-02-28 14:22:05.575059,1709126525.575059,76.66015625,999.51171875,-27.83203125,862.3046875,0.0,0.0,0.0,0.0,2.m4v,11.0
2024-02-28 14:22:05.578964,1709126525.5789645,-57.6171875,872.0703125,-33.203125,-234.375,0.0,0.0,0.0,0.0,2.m4v,11.0
2024-02-28 14:22:05.582870,1709126525.5828698,-187.98828125,-743.65234375,-26.85546875,-1000.0,0.0,0.0,0.0,0.0,2.m4v,11.0
2024-02-28 14:22:05.586775,1709126525.5867753,-77.63671875,-537.109375,-20.99609375,-354.4921875,0.0,0.0,0.0,0.0,2.m4v,11.0
2024-02-28 14:22:05.590681,1709126525.5906808,114.2578125,929.19921875,-20.5078125,952.1484375,0.0,0.0,0.0,0.0,2.m4v,11.0
2024-02-28 14:22:05.594586,1709126525.594586,83.984375,999.51171875,-15.13671875,804.19921875,0.0,0.0,0.0,0.0,2.m4v,11.0
2024-02-28 14:22:05.598492,1709126525.5984917,-92.28515625,652.34375,-19.53125,-569.82421875,0.0,0.0,0.0,0.0,2.m4v,11.0
2024-02-28 14:22:05.602397,1709126525.6023972,-187.5,-677.734375,-36.62109375,-1000.0,0.0,0.0,0.0,0.0,2.m4v,11.0
2024-02-28 14:22:05.606302,1709126525.6063025,-102.5390625,-1000.0,-31.25,-662.109375,0.0,0.0,0.0,0.0,2.m4v,11.0
2024-02-28 14:22:05.610213,1709126525.6102133,52.734375,-798.33984375,-23.4375,564.453125,0.0,0.0,0.0,0.0,2.m4v,11.0
2024-02-28 14:22:05.614119,1709126525.6141186,115.72265625,580.078125,-22.4609375,999.51171875,0.0,0.0,0.0,0.0,2.m4v,11.0
2024-02-28 14:22:05.618024,1709126525.618024,53.7109375,999.51171875,-21.484375,642.578125,0.0,0.0,0.0,0.0,2.m4v,11.0
2024-02-28 14:22:05.621930,1709126525.6219296,-65.4296875,909.66796875,-25.87890625,-235.3515625,0.0,0.0,0.0,0.0,2.m4v,11.0
2024-02-28 14:22:05.625835,1709126525.625835,-62.98828125,938.4765625,-31.73828125,-74.70703125,0.0,0.0,0.0,0.0,2.m4v,11.0
2024-02-28 14:22:05.629740,1709126525.6297405,72.75390625,998.046875,-37.59765625,999.51171875,0.0,0.0,0.0,0.0,2.m4v,11.0
2024-02-28 14:22:05.633646,1709126525.6336458,32.2265625,920.8984375,-37.109375,610.3515625,0.0,0.0,0.0,0.0,2.m4v,11.0
2024-02-28 14:22:05.637551,1709126525.6375513,-161.62109375,-422.8515625,-24.90234375,-737.79296875,0.0,0.0,0.0,0.0,2.m4v,11.0
2024-02-28 14:22:05.641457,1709126525.6414568,-202.1484375,-1000.0,-26.85546875,-1000.0,0.0,0.0,0.0,0.0,2.m4v,11.0
2024-02-28 14:22:05.645362,1709126525.645362,-111.328125,-888.18359375,-36.62109375,-715.8203125,0.0,0.0,0.0,0.0,2.m4v,11.0
2024-02-28 14:22:05.649268,1709126525.6492677,63.4765625,416.9921875,-32.2265625,596.19140625,0.0,0.0,0.0,0.0,2.m4v,11.0
2024-02-28 14:22:05.653173,1709126525.6531732,114.2578125,999.51171875,-35.15625,999.51171875,0.0,0.0,0.0,0.0,2.m4v,11.0
2024-02-28 14:22:05.657083,1709126525.6570833,7.8125,997.0703125,-31.25,338.8671875,0.0,0.0,0.0,0.0,2.m4v,11.0
2024-02-28 14:22:05.660989,1709126525.6609888,-141.11328125,152.83203125,-20.5078125,-804.19921875,0.0,0.0,0.0,0.0,2.m4v,11.0
2024-02-28 14:22:05.664894,1709126525.6648943,-179.19921875,-1000.0,-17.578125,-1000.0,0.0,0.0,0.0,0.0,2.m4v,11.0
2024-02-28 14:22:05.668800,1709126525.6687996,-69.3359375,-988.76953125,-22.94921875,-353.02734375,0.0,0.0,0.0,0.0,2.m4v,11.0
2024-02-28 14:22:05.672705,1709126525.6727052,5.859375,-989.74609375,-38.0859375,247.0703125,0.0,0.0,0.0,0.0,2.m4v,11.0
2024-02-28 14:22:05.676610,1709126525.6766105,-52.24609375,-954.1015625,-41.9921875,-467.7734375,0.0,0.0,0.0,0.0,2.m4v,11.0
2024-02-28 14:22:05.680516,1709126525.680516,-135.25390625,-1000.0,-30.76171875,-1000.0,0.0,0.0,0.0,0.0,2.m4v,11.0
2024-02-28 14:22:05.684422,1709126525.6844215,-74.21875,-924.31640625,-27.34375,-472.16796875,0.0,0.0,0.0,0.0,2.m4v,11.0
2024-02-28 14:22:05.688327,1709126525.6883268,113.28125,529.296875,-31.25,747.0703125,0.0,0.0,0.0,0.0,2.m4v,11.0
2024-02-28 14:22:05.692232,1709126525.6922324,132.32421875,999.51171875,-31.25,999.51171875,0.0,0.0,0.0,0.0,2.m4v,11.0
2024-02-28 14:22:05.696138,1709126525.696138,49.31640625,981.93359375,-36.1328125,666.015625,0.0,0.0,0.0,0.0,2.m4v,11.0
2024-02-28 14:22:05.700043,1709126525.7000432,-102.5390625,733.88671875,-40.0390625,-574.21875,0.0,0.0,0.0,0.0,2.m4v,11.0
2024-02-28 14:22:05.703958,1709126525.7039576,-208.49609375,-748.046875,-31.25,-1000.0,0.0,0.0,0.0,0.0,2.m4v,11.0
2024-02-28 14:22:05.707863,1709126525.707863,-88.37890625,-1000.0,-20.5078125,-235.83984375,0.0,0.0,0.0,0.0,2.m4v,11.0
2024-02-28 14:22:05.711769,1709126525.7117686,59.5703125,-948.73046875,-6.34765625,907.71484375,0.0,0.0,0.0,0.0,2.m4v,11.0
2024-02-28 14:22:05.715674,1709126525.715674,-18.5546875,-959.9609375,-17.08984375,222.65625,0.0,0.0,0.0,0.0,2.m4v,11.0
2024-02-28 14:22:05.719579,1709126525.7195797,-168.45703125,-1000.0,-30.2734375,-1000.0,0.0,0.0,0.0,0.0,2.m4v,11.0
2024-02-28 14:22:05.723485,1709126525.7234848,-109.86328125,-896.97265625,-18.5546875,-693.359375,0.0,0.0,0.0,0.0,2.m4v,11.0
2024-02-28 14:22:05.727390,1709126525.7273903,89.35546875,568.84765625,-17.08984375,673.33984375,0.0,0.0,0.0,0.0,2.m4v,11.0
2024-02-28 14:22:05.731296,1709126525.7312958,121.58203125,999.51171875,-27.34375,999.51171875,0.0,0.0,0.0,0.0,2.m4v,11.0
2024-02-28 14:22:05.735201,1709126525.7352011,36.62109375,999.51171875,-33.69140625,642.578125,0.0,0.0,0.0,0.0,2.m4v,11.0
2024-02-28 14:22:05.739107,1709126525.739107,-103.515625,543.9453125,-35.64453125,-592.28515625,0.0,0.0,0.0,0.0,2.m4v,11.0
2024-02-28 14:22:05.743012,1709126525.7430122,-184.08203125,-881.8359375,-30.76171875,-1000.0,0.0,0.0,0.0,0.0,2.m4v,11.0
2024-02-28 14:22:05.746917,1709126525.7469175,-91.30859375,-1000.0,-21.484375,-574.21875,0.0,0.0,0.0,0.0,2.m4v,11.0
2024-02-28 14:22:05.750831,1709126525.750831,62.5,-950.68359375,-23.4375,753.41796875,0.0,0.0,0.0,0.0,2.m4v,11.0
2024-02-28 14:22:05.754736,1709126525.7547364,53.22265625,-998.046875,-24.4140625,695.3125,0.0,0.0,0.0,0.0,2.m4v,11.0
2024-02-28 14:22:05.758642,1709126525.7586415,-119.62890625,-968.75,-20.99609375,-829.1015625,0.0,0.0,0.0,0.0,2.m4v,11.0
2024-02-28 14:22:05.762547,1709126525.7625473,-152.34375,-1000.0,-14.6484375,-1000.0,0.0,0.0,0.0,0.0,2.m4v,11.0
2024-02-28 14:22:05.766453,1709126525.7664528,22.94921875,17.08984375,-15.625,300.29296875,0.0,0.0,0.0,0.0,2.m4v,11.0
2024-02-28 14:22:05.770358,1709126525.770358,140.625,999.51171875,-23.4375,999.51171875,0.0,0.0,0.0,0.0,2.m4v,11.0
2024-02-28 14:22:05.774264,1709126525.7742636,73.73046875,999.51171875,-20.01953125,788.57421875,0.0,0.0,0.0,0.0,2.m4v,11.0
2024-02-28 14:22:05.778169,1709126525.7781692,-103.515625,27.34375,-20.01953125,-477.05078125,0.0,0.0,0.0,0.0,2.m4v,11.0
2024-02-28 14:22:05.782074,1709126525.7820745,-197.75390625,-1000.0,-16.11328125,-1000.0,0.0,0.0,0.0,0.0,2.m4v,11.0
2024-02-28 14:22:05.785980,1709126525.78598,-104.00390625,-995.60546875,-19.53125,-645.99609375,0.0,0.0,0.0,0.0,2.m4v,11.0
2024-02-28 14:22:05.789885,1709126525.7898853,43.45703125,-946.2890625,-29.78515625,610.83984375,0.0,0.0,0.0,0.0,2.m4v,11.0
2024-02-28 14:22:05.793791,1709126525.7937908,103.02734375,333.984375,-35.64453125,999.51171875,0.0,0.0,0.0,0.0,2.m4v,11.0
2024-02-28 14:22:05.797704,1709126525.7977035,40.0390625,999.51171875,-38.57421875,544.921875,0.0,0.0,0.0,0.0,2.m4v,11.0
2024-02-28 14:22:05.801609,1709126525.801609,-102.5390625,555.6640625,-39.0625,-581.54296875,0.0,0.0,0.0,0.0,2.m4v,11.0
2024-02-28 14:22:05.805515,1709126525.8055146,-172.8515625,-805.17578125,-39.55078125,-1000.0,0.0,0.0,0.0,0.0,2.m4v,11.0
2024-02-28 14:22:05.809420,1709126525.80942,-97.16796875,-1000.0,-34.1796875,-687.01171875,0.0,0.0,0.0,0.0,2.m4v,11.0
2024-02-28 14:22:05.813325,1709126525.8133254,-27.83203125,-949.21875,-33.69140625,-403.3203125,0.0,0.0,0.0,0.0,2.m4v,11.0
2024-02-28 14:22:05.817231,1709126525.817231,-57.12890625,-947.75390625,-42.96875,-871.09375,0.0,0.0,0.0,0.0,2.m4v,11.0
2024-02-28 14:22:05.821136,1709126525.8211365,-99.12109375,-1000.0,-35.15625,-1000.0,0.0,0.0,0.0,0.0,2.m4v,11.0
2024-02-28 14:22:05.825042,1709126525.8250418,20.01953125,-470.21484375,-30.76171875,279.78515625,0.0,0.0,0.0,0.0,2.m4v,11.0
2024-02-28 14:22:05.828947,1709126525.8289473,139.6484375,846.19140625,-35.15625,999.51171875,0.0,0.0,0.0,0.0,2.m4v,11.0
2024-02-28 14:22:05.832853,1709126525.8328526,97.65625,999.51171875,-24.90234375,958.0078125,0.0,0.0,0.0,0.0,2.m4v,11.0
2024-02-28 14:22:05.836758,1709126525.836758,-18.5546875,794.921875,-21.484375,265.625,0.0,0.0,0.0,0.0,2.m4v,11.0
2024-02-28 14:22:05.840664,1709126525.8406637,-185.546875,-524.90234375,-28.80859375,-943.359375,0.0,0.0,0.0,0.0,2.m4v,11.0
2024-02-28 14:22:05.844576,1709126525.844576,-170.41015625,-1000.0,-31.25,-961.42578125,0.0,0.0,0.0,0.0,2.m4v,11.0
2024-02-28 14:22:05.848481,1709126525.8484814,-10.25390625,-791.015625,-27.34375,302.24609375,0.0,0.0,0.0,0.0,2.m4v,11.0
2024-02-28 14:22:05.852387,1709126525.8523867,94.7265625,494.140625,-30.2734375,999.51171875,0.0,0.0,0.0,0.0,2.m4v,11.0
2024-02-28 14:22:05.856292,1709126525.8562922,48.33984375,999.51171875,-45.41015625,676.7578125,0.0,0.0,0.0,0.0,2.m4v,11.0
2024-02-28 14:22:05.860198,1709126525.8601978,-115.234375,644.04296875,-54.19921875,-567.87109375,0.0,0.0,0.0,0.0,2.m4v,11.0
2024-02-28 14:22:05.864103,1709126525.864103,-189.94140625,-732.91015625,-41.9921875,-1000.0,0.0,0.0,0.0,0.0,2.m4v,11.0
2024-02-28 14:22:05.868009,1709126525.8680086,-62.01171875,-1000.0,-38.57421875,-118.1640625,0.0,0.0,0.0,0.0,2.m4v,11.0
2024-02-28 14:22:05.871914,1709126525.871914,53.22265625,-946.77734375,-38.57421875,877.44140625,0.0,0.0,0.0,0.0,2.m4v,11.0
2024-02-28 14:22:05.875819,1709126525.8758194,-46.38671875,-966.796875,-36.62109375,-151.85546875,0.0,0.0,0.0,0.0,2.m4v,11.0
2024-02-28 14:22:05.879725,1709126525.879725,-165.0390625,-1000.0,-37.109375,-1000.0,0.0,0.0,0.0,0.0,2.m4v,11.0
2024-02-28 14:22:05.883630,1709126525.8836305,-119.140625,-946.2890625,-27.83203125,-758.30078125,0.0,0.0,0.0,0.0,2.m4v,11.0
2024-02-28 14:22:05.887536,1709126525.8875358,75.1953125,483.3984375,-25.87890625,571.77734375,0.0,0.0,0.0,0.0,2.m4v,11.0
2024-02-28 14:22:05.891448,1709126525.891448,126.46484375,999.51171875,-37.59765625,999.51171875,0.0,0.0,0.0,0.0,2.m4v,11.0
2024-02-28 14:22:05.895353,1709126525.8953533,21.97265625,991.69921875,-34.1796875,561.03515625,0.0,0.0,0.0,0.0,2.m4v,11.0
2024-02-28 14:22:05.899259,1709126525.8992589,-110.3515625,536.62109375,-21.484375,-663.57421875,0.0,0.0,0.0,0.0,2.m4v,11.0
2024-02-28 14:22:05.903164,1709126525.903164,-172.8515625,-939.94140625,-24.90234375,-1000.0,0.0,0.0,0.0,0.0,2.m4v,11.0
2024-02-28 14:22:05.907070,1709126525.9070697,-91.796875,-985.3515625,-26.85546875,-475.09765625,0.0,0.0,0.0,0.0,2.m4v,11.0
2024-02-28 14:22:05.910975,1709126525.9109752,76.171875,432.12890625,-28.80859375,759.27734375,0.0,0.0,0.0,0.0,2.m4v,11.0
2024-02-28 14:22:05.914881,1709126525.9148805,108.3984375,999.51171875,-34.1796875,999.51171875,0.0,0.0,0.0,0.0,2.m4v,11.0
2024-02-28 14:22:05.918786,1709126525.918786,-66.89453125,526.85546875,-41.9921875,-172.36328125,0.0,0.0,0.0,0.0,2.m4v,11.0
2024-02-28 14:22:05.922692,1709126525.9226916,-208.0078125,-834.47265625,-48.828125,-1000.0,0.0,0.0,0.0,0.0,2.m4v,11.0
2024-02-28 14:22:05.926597,1709126525.9265969,-131.8359375,-1000.0,-49.31640625,-741.69921875,0.0,0.0,0.0,0.0,2.m4v,11.0
2024-02-28 14:22:05.930502,1709126525.9305024,24.90234375,-941.40625,-44.921875,531.73828125,0.0,0.0,0.0,0.0,2.m4v,11.0
2024-02-28 14:22:05.934408,1709126525.934408,32.2265625,-1000.0,-43.9453125,662.109375,0.0,0.0,0.0,0.0,2.m4v,11.0
2024-02-28 14:22:05.938319,1709126525.9383192,-110.3515625,-936.03515625,-46.875,-769.04296875,0.0,0.0,0.0,0.0,2.m4v,11.0
2024-02-28 14:22:05.942225,1709126525.9422247,-154.296875,-1000.0,-47.8515625,-1000.0,0.0,0.0,0.0,0.0,2.m4v,11.0
2024-02-28 14:22:05.946130,1709126525.9461305,0.0,-391.6015625,-39.55078125,138.18359375,0.0,0.0,0.0,0.0,2.m4v,11.0
2024-02-28 14:22:05.950036,1709126525.9500356,133.7890625,958.984375,-37.59765625,999.51171875,0.0,0.0,0.0,0.0,2.m4v,11.0
2024-02-28 14:22:05.953941,1709126525.953941,85.9375,934.08203125,-31.25,938.4765625,0.0,0.0,0.0,0.0,2.m4v,11.0
2024-02-28 14:22:05.957846,1709126525.9578464,-21.97265625,974.12109375,-20.01953125,166.50390625,0.0,0.0,0.0,0.0,2.m4v,11.0
2024-02-28 14:22:05.961752,1709126525.961752,-125.48828125,895.5078125,-21.97265625,-862.79296875,0.0,0.0,0.0,0.0,2.m4v,11.0
2024-02-28 14:22:05.965657,1709126525.9656577,-157.2265625,-561.03515625,-37.59765625,-1000.0,0.0,0.0,0.0,0.0,2.m4v,11.0
2024-02-28 14:22:05.969563,1709126525.9695628,-123.046875,-1000.0,-38.0859375,-982.421875,0.0,0.0,0.0,0.0,2.m4v,11.0
2024-02-28 14:22:05.973468,1709126525.9734683,-86.42578125,-927.24609375,-38.0859375,-953.61328125,0.0,0.0,0.0,0.0,2.m4v,11.0
2024-02-28 14:22:05.977374,1709126525.9773738,-85.44921875,-1000.0,-51.26953125,-1000.0,0.0,0.0,0.0,0.0,2.m4v,11.0
2024-02-28 14:22:05.981279,1709126525.9812791,-59.08203125,-941.40625,-47.36328125,-745.60546875,0.0,0.0,0.0,0.0,2.m4v,11.0
2024-02-28 14:22:05.985190,1709126525.9851897,48.33984375,-1000.0,-33.69140625,638.18359375,0.0,0.0,0.0,0.0,2.m4v,11.0
2024-02-28 14:22:05.989095,1709126525.9890952,84.9609375,-367.67578125,-33.203125,999.51171875,0.0,0.0,0.0,0.0,2.m4v,11.0
2024-02-28 14:22:05.993001,1709126525.9930007,84.9609375,937.98828125,-30.2734375,929.19921875,0.0,0.0,0.0,0.0,2.m4v,11.0
2024-02-28 14:22:05.996906,1709126525.996906,41.50390625,988.28125,-31.25,716.30859375,0.0,0.0,0.0,0.0,2.m4v,11.0
2024-02-28 14:22:06.000812,1709126526.0008116,-88.37890625,943.359375,-32.71484375,-436.5234375,0.0,0.0,0.0,0.0,2.m4v,11.0
2024-02-28 14:22:06.004717,1709126526.004717,-85.44921875,931.640625,-37.109375,-416.9921875,0.0,0.0,0.0,0.0,2.m4v,11.0
2024-02-28 14:22:06.008622,1709126526.0086224,63.4765625,999.51171875,-43.45703125,937.5,0.0,0.0,0.0,0.0,2.m4v,11.0
2024-02-28 14:22:06.012528,1709126526.012528,36.1328125,922.36328125,-42.48046875,811.03515625,0.0,0.0,0.0,0.0,2.m4v,11.0
2024-02-28 14:22:06.016433,1709126526.0164337,-160.15625,-493.1640625,-38.57421875,-665.0390625,0.0,0.0,0.0,0.0,2.m4v,11.0
2024-02-28 14:22:06.020339,1709126526.0203388,-204.1015625,-1000.0,-32.71484375,-1000.0,0.0,0.0,0.0,0.0,2.m4v,11.0
2024-02-28 14:22:06.024244,1709126526.0242443,-146.484375,-926.26953125,-39.55078125,-948.73046875,0.0,0.0,0.0,0.0,2.m4v,11.0
2024-02-28 14:22:06.028150,1709126526.0281496,-31.73828125,-1000.0,-32.71484375,129.39453125,0.0,0.0,0.0,0.0,2.m4v,11.0
2024-02-28 14:22:06.032060,1709126526.0320597,65.91796875,-1000.0,-8.30078125,999.51171875,0.0,0.0,0.0,0.0,2.m4v,11.0
2024-02-28 14:22:06.035965,1709126526.0359652,-39.55078125,-1000.0,-7.32421875,-87.890625,0.0,0.0,0.0,0.0,2.m4v,11.0
2024-02-28 14:22:06.039871,1709126526.0398705,-155.2734375,-935.546875,-17.578125,-1000.0,0.0,0.0,0.0,0.0,2.m4v,11.0
2024-02-28 14:22:06.043776,1709126526.043776,-118.65234375,-1000.0,-25.87890625,-792.48046875,0.0,0.0,0.0,0.0,2.m4v,11.0
2024-02-28 14:22:06.047681,1709126526.047681,46.875,-749.0234375,-27.83203125,563.96484375,0.0,0.0,0.0,0.0,2.m4v,11.0
2024-02-28 14:22:06.051587,1709126526.0515869,128.41796875,631.8359375,-41.015625,999.51171875,0.0,0.0,0.0,0.0,2.m4v,11.0
2024-02-28 14:22:06.453910,1709126526.4539096,37.109375,999.51171875,-23.4375,718.26171875,0.0,0.0,0.0,0.0,2.m4v,11.0
2024-02-28 14:22:06.457815,1709126526.4578152,-124.51171875,262.20703125,-20.5078125,-591.796875,0.0,0.0,0.0,0.0,2.m4v,11.0
2024-02-28 14:22:06.461721,1709126526.4617207,-208.0078125,-941.89453125,-14.16015625,-1000.0,0.0,0.0,0.0,0.0,2.m4v,11.0
2024-02-28 14:22:06.465626,1709126526.465626,-133.30078125,-1000.0,-23.4375,-756.8359375,0.0,0.0,0.0,0.0,2.m4v,11.0
2024-02-28 14:22:06.469532,1709126526.4695315,11.71875,-862.79296875,-28.3203125,435.546875,0.0,0.0,0.0,0.0,2.m4v,11.0
2024-02-28 14:22:06.473437,1709126526.473437,106.4453125,455.56640625,-28.3203125,999.51171875,0.0,0.0,0.0,0.0,2.m4v,11.0
2024-02-28 14:22:06.477342,1709126526.4773424,55.6640625,999.51171875,-25.390625,696.77734375,0.0,0.0,0.0,0.0,2.m4v,11.0
2024-02-28 14:22:06.481248,1709126526.481248,-105.46875,473.14453125,-41.015625,-491.2109375,0.0,0.0,0.0,0.0,2.m4v,11.0
2024-02-28 14:22:06.485153,1709126526.4851532,-186.5234375,-858.88671875,-60.546875,-1000.0,0.0,0.0,0.0,0.0,2.m4v,11.0
2024-02-28 14:22:06.489059,1709126526.4890587,-82.03125,-1000.0,-45.8984375,-427.24609375,0.0,0.0,0.0,0.0,2.m4v,11.0
2024-02-28 14:22:06.492964,1709126526.4929645,-23.4375,-960.44921875,-26.3671875,-106.4453125,0.0,0.0,0.0,0.0,2.m4v,11.0
2024-02-28 14:22:06.496870,1709126526.4968696,-87.40234375,-957.51953125,-22.94921875,-822.265625,0.0,0.0,0.0,0.0,2.m4v,11.0
2024-02-28 14:22:06.500783,1709126526.5007834,-125.48828125,-1000.0,-23.92578125,-1000.0,0.0,0.0,0.0,0.0,2.m4v,11.0
2024-02-28 14:22:06.504689,1709126526.5046887,-30.2734375,-887.6953125,-31.73828125,-26.3671875,0.0,0.0,0.0,0.0,2.m4v,11.0
2024-02-28 14:22:06.508594,1709126526.5085945,125.48828125,571.2890625,-31.73828125,939.453125,0.0,0.0,0.0,0.0,2.m4v,11.0
2024-02-28 14:22:06.512500,1709126526.5124998,127.44140625,999.51171875,-35.64453125,981.93359375,0.0,0.0,0.0,0.0,2.m4v,11.0
2024-02-28 14:22:06.516405,1709126526.516405,41.50390625,895.5078125,-38.0859375,678.22265625,0.0,0.0,0.0,0.0,2.m4v,11.0
2024-02-28 14:22:06.520311,1709126526.5203106,-110.3515625,986.81640625,-32.2265625,-545.41015625,0.0,0.0,0.0,0.0,2.m4v,11.0
2024-02-28 14:22:06.524216,1709126526.524216,-157.2265625,976.07421875,-33.203125,-857.91015625,0.0,0.0,0.0,0.0,2.m4v,11.0
2024-02-28 14:22:06.528121,1709126526.5281217,7.32421875,906.25,-31.25,635.25390625,0.0,0.0,0.0,0.0,2.m4v,11.0
2024-02-28 14:22:06.532027,1709126526.532027,64.94140625,999.51171875,-33.69140625,999.51171875,0.0,0.0,0.0,0.0,2.m4v,11.0
2024-02-28 14:22:06.535932,1709126526.5359323,-90.33203125,354.4921875,-41.50390625,-312.01171875,0.0,0.0,0.0,0.0,2.m4v,11.0
2024-02-28 14:22:06.539838,1709126526.5398378,-209.9609375,-896.97265625,-46.38671875,-1000.0,0.0,0.0,0.0,0.0,2.m4v,11.0
2024-02-28 14:22:06.543743,1709126526.5437434,-180.17578125,-1000.0,-54.19921875,-966.796875,0.0,0.0,0.0,0.0,2.m4v,11.0
2024-02-28 14:22:06.547661,1709126526.5476606,-23.4375,-598.14453125,-50.78125,44.43359375,0.0,0.0,0.0,0.0,2.m4v,11.0
2024-02-28 14:22:06.551566,1709126526.551566,112.3046875,732.421875,-44.43359375,999.51171875,0.0,0.0,0.0,0.0,2.m4v,11.0
2024-02-28 14:22:06.555471,1709126526.5554714,59.5703125,999.51171875,-43.9453125,774.90234375,0.0,0.0,0.0,0.0,2.m4v,11.0
2024-02-28 14:22:06.559377,1709126526.559377,-97.65625,351.5625,-42.48046875,-472.65625,0.0,0.0,0.0,0.0,2.m4v,11.0
2024-02-28 14:22:06.563282,1709126526.5632825,-196.77734375,-1000.0,-45.41015625,-1000.0,0.0,0.0,0.0,0.0,2.m4v,11.0
2024-02-28 14:22:06.567188,1709126526.5671878,-88.8671875,-894.04296875,-47.36328125,-395.99609375,0.0,0.0,0.0,0.0,2.m4v,11.0
2024-02-28 14:22:06.571093,1709126526.571093,95.21484375,559.08203125,-51.7578125,842.7734375,0.0,0.0,0.0,0.0,2.m4v,11.0
2024-02-28 14:22:06.574999,1709126526.5749989,85.44921875,999.51171875,-54.19921875,948.73046875,0.0,0.0,0.0,0.0,2.m4v,11.0
2024-02-28 14:22:06.578904,1709126526.5789042,-86.9140625,276.3671875,-56.15234375,-312.01171875,0.0,0.0,0.0,0.0,2.m4v,11.0
2024-02-28 14:22:06.582810,1709126526.5828097,-197.265625,-958.49609375,-47.36328125,-1000.0,0.0,0.0,0.0,0.0,2.m4v,11.0
2024-02-28 14:22:06.586715,1709126526.5867152,-118.65234375,-1000.0,-28.3203125,-596.19140625,0.0,0.0,0.0,0.0,2.m4v,11.0
2024-02-28 14:22:06.590621,1709126526.5906205,47.36328125,-959.47265625,-21.484375,777.34375,0.0,0.0,0.0,0.0,2.m4v,11.0
2024-02-28 14:22:06.594533,1709126526.5945332,49.8046875,-1000.0,-26.85546875,729.98046875,0.0,0.0,0.0,0.0,2.m4v,11.0
2024-02-28 14:22:06.598439,1709126526.5984387,-111.81640625,-929.19921875,-37.109375,-764.16015625,0.0,0.0,0.0,0.0,2.m4v,11.0
2024-02-28 14:22:06.602344,1709126526.602344,-157.71484375,-1000.0,-32.2265625,-1000.0,0.0,0.0,0.0,0.0,2.m4v,11.0
2024-02-28 14:22:06.606250,1709126526.6062496,-12.6953125,-565.91796875,-29.296875,105.95703125,0.0,0.0,0.0,0.0,2.m4v,11.0
2024-02-28 14:22:06.610155,1709126526.610155,130.37109375,863.76953125,-38.57421875,964.35546875,0.0,0.0,0.0,0.0,2.m4v,11.0
2024-02-28 14:22:06.614060,1709126526.6140604,92.7734375,961.9140625,-36.1328125,985.83984375,0.0,0.0,0.0,0.0,2.m4v,11.0
2024-02-28 14:22:06.617966,1709126526.617966,10.25390625,999.51171875,-38.0859375,499.51171875,0.0,0.0,0.0,0.0,2.m4v,11.0
2024-02-28 14:22:06.621871,1709126526.6218712,-124.51171875,299.31640625,-50.78125,-748.53515625,0.0,0.0,0.0,0.0,2.m4v,11.0
2024-02-28 14:22:06.625777,1709126526.6257768,-173.828125,-997.55859375,-49.8046875,-1000.0,0.0,0.0,0.0,0.0,2.m4v,11.0
2024-02-28 14:22:06.629682,1709126526.6296823,-94.23828125,-1000.0,-45.41015625,-739.2578125,0.0,0.0,0.0,0.0,2.m4v,11.0
2024-02-28 14:22:06.633588,1709126526.6335876,-62.98828125,-948.2421875,-34.1796875,-830.56640625,0.0,0.0,0.0,0.0,2.m4v,11.0
2024-02-28 14:22:06.637493,1709126526.6374931,-87.890625,-976.5625,-19.04296875,-1000.0,0.0,0.0,0.0,0.0,2.m4v,11.0
2024-02-28 14:22:06.641405,1709126526.6414049,-67.3828125,-1000.0,-24.90234375,-668.45703125,0.0,0.0,0.0,0.0,2.m4v,11.0
2024-02-28 14:22:06.645310,1709126526.6453104,82.03125,13.671875,-38.57421875,679.6875,0.0,0.0,0.0,0.0,2.m4v,11.0
2024-02-28 14:22:06.649216,1709126526.649216,138.671875,999.51171875,-33.203125,999.51171875,0.0,0.0,0.0,0.0,2.m4v,11.0
2024-02-28 14:22:06.653121,1709126526.6531212,84.47265625,962.40234375,-28.80859375,939.94140625,0.0,0.0,0.0,0.0,2.m4v,11.0
2024-02-28 14:22:06.657027,1709126526.6570268,-22.94921875,913.0859375,-28.80859375,171.875,0.0,0.0,0.0,0.0,2.m4v,11.0
2024-02-28 14:22:06.660932,1709126526.6609323,-177.734375,-474.12109375,-30.2734375,-965.8203125,0.0,0.0,0.0,0.0,2.m4v,11.0
2024-02-28 14:22:06.664838,1709126526.6648376,-167.48046875,-1000.0,-38.57421875,-1000.0,0.0,0.0,0.0,0.0,2.m4v,11.0
2024-02-28 14:22:06.668743,1709126526.6687431,-13.671875,-927.24609375,-43.9453125,301.7578125,0.0,0.0,0.0,0.0,2.m4v,11.0
2024-02-28 14:22:06.672648,1709126526.6726484,40.0390625,-1000.0,-43.45703125,868.65234375,0.0,0.0,0.0,0.0,2.m4v,11.0
2024-02-28 14:22:06.676554,1709126526.676554,-85.44921875,-948.2421875,-36.62109375,-564.94140625,0.0,0.0,0.0,0.0,2.m4v,11.0
2024-02-28 14:22:06.680459,1709126526.6804595,-156.73828125,-1000.0,-27.34375,-1000.0,0.0,0.0,0.0,0.0,2.m4v,11.0
2024-02-28 14:22:06.684365,1709126526.6843648,-71.2890625,-919.921875,-25.87890625,-450.68359375,0.0,0.0,0.0,0.0,2.m4v,11.0
2024-02-28 14:22:06.688276,1709126526.688276,97.16796875,453.125,-20.99609375,740.234375,0.0,0.0,0.0,0.0,2.m4v,11.0
2024-02-28 14:22:06.692182,1709126526.6921816,114.74609375,999.51171875,-20.99609375,999.51171875,0.0,0.0,0.0,0.0,2.m4v,11.0
2024-02-28 14:22:06.696087,1709126526.696087,14.16015625,861.328125,-25.87890625,425.29296875,0.0,0.0,0.0,0.0,2.m4v,11.0
2024-02-28 14:22:06.699992,1709126526.6999924,-145.99609375,-350.5859375,-29.296875,-791.9921875,0.0,0.0,0.0,0.0,2.m4v,11.0
2024-02-28 14:22:06.703898,1709126526.7038977,-188.96484375,-1000.0,-34.66796875,-1000.0,0.0,0.0,0.0,0.0,2.m4v,11.0
2024-02-28 14:22:06.707803,1709126526.7078032,-24.4140625,-524.4140625,-39.0625,5.37109375,0.0,0.0,0.0,0.0,2.m4v,11.0
2024-02-28 14:22:06.711709,1709126526.7117088,128.90625,791.50390625,-30.2734375,999.51171875,0.0,0.0,0.0,0.0,2.m4v,11.0
2024-02-28 14:22:06.715614,1709126526.715614,72.265625,999.51171875,-28.3203125,736.81640625,0.0,0.0,0.0,0.0,2.m4v,11.0
2024-02-28 14:22:06.719520,1709126526.7195196,-106.93359375,142.08984375,-31.73828125,-589.84375,0.0,0.0,0.0,0.0,2.m4v,11.0
2024-02-28 14:22:06.723425,1709126526.7234251,-185.546875,-1000.0,-33.69140625,-1000.0,0.0,0.0,0.0,0.0,2.m4v,11.0
2024-02-28 14:22:06.727330,1709126526.7273304,-52.734375,-693.359375,-36.62109375,-171.38671875,0.0,0.0,0.0,0.0,2.m4v,11.0
2024-02-28 14:22:06.731236,1709126526.731236,111.81640625,700.1953125,-39.55078125,945.80078125,0.0,0.0,0.0,0.0,2.m4v,11.0
2024-02-28 14:22:06.735147,1709126526.735147,86.9140625,999.51171875,-43.9453125,893.06640625,0.0,0.0,0.0,0.0,2.m4v,11.0
2024-02-28 14:22:06.739053,1709126526.7390523,-73.2421875,667.96875,-40.52734375,-334.9609375,0.0,0.0,0.0,0.0,2.m4v,11.0
2024-02-28 14:22:06.742958,1709126526.7429578,-187.98828125,-670.41015625,-36.62109375,-1000.0,0.0,0.0,0.0,0.0,2.m4v,11.0
2024-02-28 14:22:06.746863,1709126526.7468634,-123.046875,-1000.0,-29.78515625,-717.28515625,0.0,0.0,0.0,0.0,2.m4v,11.0
2024-02-28 14:22:06.750769,1709126526.750769,7.8125,-937.01171875,-27.83203125,300.29296875,0.0,0.0,0.0,0.0,2.m4v,11.0
2024-02-28 14:22:06.754674,1709126526.7546742,86.42578125,332.51953125,-32.2265625,939.453125,0.0,0.0,0.0,0.0,2.m4v,11.0
2024-02-28 14:22:06.758580,1709126526.7585795,65.4296875,999.51171875,-32.71484375,944.3359375,0.0,0.0,0.0,0.0,2.m4v,11.0
2024-02-28 14:22:06.762485,1709126526.762485,-23.4375,870.60546875,-32.71484375,534.66796875,0.0,0.0,0.0,0.0,2.m4v,11.0
2024-02-28 14:22:06.766391,1709126526.7663906,-16.6015625,966.30859375,-35.64453125,774.90234375,0.0,0.0,0.0,0.0,2.m4v,11.0
2024-02-28 14:22:06.770296,1709126526.770296,17.578125,999.51171875,-37.109375,907.71484375,0.0,0.0,0.0,0.0,2.m4v,11.0
2024-02-28 14:22:06.774201,1709126526.7742014,-122.0703125,-243.65234375,-31.25,-545.41015625,0.0,0.0,0.0,0.0,2.m4v,11.0
2024-02-28 14:22:06.778107,1709126526.778107,-199.70703125,-1000.0,-31.25,-1000.0,0.0,0.0,0.0,0.0,2.m4v,11.0
2024-02-28 14:22:06.782022,1709126526.782022,-157.71484375,-990.234375,-36.1328125,-1000.0,0.0,0.0,0.0,0.0,2.m4v,11.0
2024-02-28 14:22:06.785928,1709126526.7859275,-74.70703125,-902.34375,-30.2734375,-532.2265625,0.0,0.0,0.0,0.0,2.m4v,11.0
2024-02-28 14:22:06.789833,1709126526.789833,98.6328125,547.8515625,-25.390625,773.4375,0.0,0.0,0.0,0.0,2.m4v,11.0
2024-02-28 14:22:06.793738,1709126526.7937384,110.83984375,999.51171875,-36.1328125,999.51171875,0.0,0.0,0.0,0.0,2.m4v,11.0
2024-02-28 14:22:06.797644,1709126526.797644,-10.7421875,895.01953125,-36.62109375,200.1953125,0.0,0.0,0.0,0.0,2.m4v,11.0
2024-02-28 14:22:06.801549,1709126526.8015492,-123.046875,999.51171875,-24.90234375,-937.98828125,0.0,0.0,0.0,0.0,2.m4v,11.0
2024-02-28 14:22:06.805455,1709126526.8054547,-67.87109375,911.62109375,-36.1328125,-376.953125,0.0,0.0,0.0,0.0,2.m4v,11.0
2024-02-28 14:22:06.809360,1709126526.8093605,91.796875,999.51171875,-44.921875,983.88671875,0.0,0.0,0.0,0.0,2.m4v,11.0
2024-02-28 14:22:06.813266,1709126526.8132656,55.17578125,856.93359375,-38.0859375,660.15625,0.0,0.0,0.0,0.0,2.m4v,11.0
2024-02-28 14:22:06.817171,1709126526.817171,-163.0859375,-602.05078125,-32.71484375,-712.890625,0.0,0.0,0.0,0.0,2.m4v,11.0
2024-02-28 14:22:06.821077,1709126526.8210766,-215.33203125,-1000.0,-26.85546875,-1000.0,0.0,0.0,0.0,0.0,2.m4v,11.0
2024-02-28 14:22:06.824982,1709126526.824982,-114.2578125,-925.78125,-24.4140625,-722.16796875,0.0,0.0,0.0,0.0,2.m4v,11.0
2024-02-28 14:22:06.828896,1709126526.8288963,41.9921875,-1000.0,-25.390625,695.80078125,0.0,0.0,0.0,0.0,2.m4v,11.0
2024-02-28 14:22:06.832802,1709126526.8328018,62.98828125,-1000.0,-26.3671875,934.08203125,0.0,0.0,0.0,0.0,2.m4v,11.0
2024-02-28 14:22:06.836707,1709126526.8367074,-89.84375,-941.40625,-28.3203125,-551.26953125,0.0,0.0,0.0,0.0,2.m4v,11.0
2024-02-28 14:22:06.840613,1709126526.8406126,-162.59765625,-1000.0,-33.203125,-1000.0,0.0,0.0,0.0,0.0,2.m4v,11.0
2024-02-28 14:22:06.844518,1709126526.8445182,-69.3359375,-865.234375,-38.57421875,-374.51171875,0.0,0.0,0.0,0.0,2.m4v,11.0
2024-02-28 14:22:06.848424,1709126526.8484235,103.515625,520.99609375,-36.62109375,779.78515625,0.0,0.0,0.0,0.0,2.m4v,11.0
2024-02-28 14:22:06.852329,1709126526.852329,120.60546875,999.51171875,-33.203125,999.51171875,0.0,0.0,0.0,0.0,2.m4v,11.0
2024-02-28 14:22:06.856235,1709126526.8562346,-2.44140625,786.1328125,-36.1328125,413.0859375,0.0,0.0,0.0,0.0,2.m4v,11.0
2024-02-28 14:22:06.860140,1709126526.8601398,-181.640625,-581.0546875,-38.57421875,-815.91796875,0.0,0.0,0.0,0.0,2.m4v,11.0
2024-02-28 14:22:06.864045,1709126526.8640454,-190.4296875,-1000.0,-38.0859375,-1000.0,0.0,0.0,0.0,0.0,2.m4v,11.0
2024-02-28 14:22:06.867951,1709126526.867951,-35.15625,-925.78125,-40.0390625,29.78515625,0.0,0.0,0.0,0.0,2.m4v,11.0
2024-02-28 14:22:06.871856,1709126526.8718562,71.77734375,-1000.0,-43.45703125,999.51171875,0.0,0.0,0.0,0.0,2.m4v,11.0
2024-02-28 14:22:06.875770,1709126526.87577,-20.5078125,-1000.0,-37.109375,172.36328125,0.0,0.0,0.0,0.0,2.m4v,11.0
2024-02-28 14:22:06.879675,1709126526.8796751,-150.87890625,-941.40625,-24.90234375,-1000.0,0.0,0.0,0.0,0.0,2.m4v,11.0
2024-02-28 14:22:06.883581,1709126526.8835807,-114.74609375,-1000.0,-24.4140625,-836.9140625,0.0,0.0,0.0,0.0,2.m4v,11.0
2024-02-28 14:22:06.887486,1709126526.8874862,63.96484375,-328.125,-27.34375,599.609375,0.0,0.0,0.0,0.0,2.m4v,11.0
2024-02-28 14:22:06.891392,1709126526.8913915,134.27734375,963.8671875,-27.83203125,999.51171875,0.0,0.0,0.0,0.0,2.m4v,11.0
2024-02-28 14:22:06.895297,1709126526.895297,70.80078125,920.8984375,-37.109375,926.7578125,0.0,0.0,0.0,0.0,2.m4v,11.0
2024-02-28 14:22:06.899203,1709126526.8992026,-15.625,999.51171875,-47.36328125,345.21484375,0.0,0.0,0.0,0.0,2.m4v,11.0
2024-02-28 14:22:06.903108,1709126526.903108,-141.11328125,321.77734375,-35.64453125,-859.86328125,0.0,0.0,0.0,0.0,2.m4v,11.0
2024-02-28 14:22:06.907013,1709126526.9070134,-145.99609375,-987.3046875,-26.85546875,-966.796875,0.0,0.0,0.0,0.0,2.m4v,11.0
2024-02-28 14:22:06.910919,1709126526.9109187,-81.54296875,-1000.0,-32.2265625,-677.24609375,0.0,0.0,0.0,0.0,2.m4v,11.0
2024-02-28 14:22:06.914824,1709126526.9148242,-83.0078125,-959.47265625,-37.109375,-882.8125,0.0,0.0,0.0,0.0,2.m4v,11.0
2024-02-28 14:22:06.918730,1709126526.9187298,-96.6796875,-958.984375,-37.59765625,-1000.0,0.0,0.0,0.0,0.0,2.m4v,11.0
2024-02-28 14:22:06.922643,1709126526.922643,-50.78125,-1000.0,-32.2265625,-529.78515625,0.0,0.0,0.0,0.0,2.m4v,11.0
2024-02-28 14:22:06.926548,1709126526.9265485,97.65625,-237.3046875,-24.4140625,752.9296875,0.0,0.0,0.0,0.0,2.m4v,11.0
2024-02-28 14:22:06.930454,1709126526.930454,142.08984375,989.2578125,-22.4609375,999.51171875,0.0,0.0,0.0,0.0,2.m4v,11.0
2024-02-28 14:22:06.934359,1709126526.9343593,71.2890625,967.28515625,-33.203125,957.51953125,0.0,0.0,0.0,0.0,2.m4v,11.0
2024-02-28 14:22:06.938265,1709126526.9382648,-44.921875,939.453125,-46.38671875,66.89453125,0.0,0.0,0.0,0.0,2.m4v,11.0
2024-02-28 14:22:06.942170,1709126526.9421704,-146.97265625,995.1171875,-40.52734375,-974.609375,0.0,0.0,0.0,0.0,2.m4v,11.0
2024-02-28 14:22:06.946076,1709126526.9460757,-41.9921875,909.66796875,-31.73828125,107.91015625,0.0,0.0,0.0,0.0,2.m4v,11.0
2024-02-28 14:22:06.949981,1709126526.9499812,86.9140625,999.51171875,-35.64453125,999.51171875,0.0,0.0,0.0,0.0,2.m4v,11.0
2024-02-28 14:22:06.953887,1709126526.9538867,8.7890625,818.359375,-41.50390625,399.90234375,0.0,0.0,0.0,0.0,2.m4v,11.0
2024-02-28 14:22:06.957792,1709126526.957792,-173.33984375,-581.0546875,-35.15625,-784.1796875,0.0,0.0,0.0,0.0,2.m4v,11.0
2024-02-28 14:22:06.961698,1709126526.9616976,-201.66015625,-1000.0,-23.4375,-1000.0,0.0,0.0,0.0,0.0,2.m4v,11.0
2024-02-28 14:22:06.965603,1709126526.965603,-99.12109375,-852.5390625,-26.3671875,-570.80078125,0.0,0.0,0.0,0.0,2.m4v,11.0
2024-02-28 14:22:06.969516,1709126526.9695158,83.49609375,403.80859375,-39.0625,732.421875,0.0,0.0,0.0,0.0,2.m4v,11.0
2024-02-28 14:22:06.973421,1709126526.973421,122.55859375,999.51171875,-36.62109375,999.51171875,0.0,0.0,0.0,0.0,2.m4v,11.0
2024-02-28 14:22:06.977327,1709126526.9773269,-27.34375,766.6015625,-26.85546875,17.578125,0.0,0.0,0.0,0.0,2.m4v,11.0
2024-02-28 14:22:06.981232,1709126526.9812322,-178.22265625,-543.45703125,-26.3671875,-970.703125,0.0,0.0,0.0,0.0,2.m4v,11.0
2024-02-28 14:22:06.985138,1709126526.9851377,-166.50390625,-1000.0,-27.83203125,-999.0234375,0.0,0.0,0.0,0.0,2.m4v,11.0
2024-02-28 14:22:06.989043,1709126526.989043,3.90625,-320.80078125,-24.4140625,140.625,0.0,0.0,0.0,0.0,2.m4v,11.0
2024-02-28 14:22:06.992949,1709126526.9929483,130.37109375,993.65234375,-24.90234375,999.51171875,0.0,0.0,0.0,0.0,2.m4v,11.0
2024-02-28 14:22:06.996854,1709126526.996854,11.71875,889.16015625,-34.1796875,280.2734375,0.0,0.0,0.0,0.0,2.m4v,11.0
2024-02-28 14:22:07.000759,1709126527.0007594,-181.15234375,-607.91015625,-36.62109375,-879.39453125,0.0,0.0,0.0,0.0,2.m4v,11.0
2024-02-28 14:22:07.004665,1709126527.004665,-176.26953125,-1000.0,-31.73828125,-1000.0,0.0,0.0,0.0,0.0,2.m4v,11.0
2024-02-28 14:22:07.008570,1709126527.0085704,-42.96875,-925.29296875,-40.52734375,-269.53125,0.0,0.0,0.0,0.0,2.m4v,11.0
2024-02-28 14:22:07.012476,1709126527.0124755,33.203125,-1000.0,-40.52734375,408.203125,0.0,0.0,0.0,0.0,2.m4v,11.0
2024-02-28 14:22:07.016387,1709126527.0163877,-45.8984375,-942.3828125,-26.85546875,-454.1015625,0.0,0.0,0.0,0.0,2.m4v,11.0
2024-02-28 14:22:07.020293,1709126527.020293,-139.6484375,-1000.0,-31.73828125,-1000.0,0.0,0.0,0.0,0.0,2.m4v,11.0
2024-02-28 14:22:07.024199,1709126527.0241983,-65.4296875,-891.11328125,-39.0625,-477.5390625,0.0,0.0,0.0,0.0,2.m4v,11.0
2024-02-28 14:22:07.028104,1709126527.0281038,122.0703125,578.61328125,-38.0859375,771.484375,0.0,0.0,0.0,0.0,2.m4v,11.0
2024-02-28 14:22:07.032009,1709126527.0320094,128.90625,999.51171875,-33.203125,999.51171875,0.0,0.0,0.0,0.0,2.m4v,11.0
2024-02-28 14:22:07.035915,1709126527.035915,65.91796875,914.55078125,-34.1796875,930.17578125,0.0,0.0,0.0,0.0,2.m4v,11.0
2024-02-28 14:22:07.485107,1709126527.4851072,26.3671875,-819.3359375,-25.390625,270.5078125,0.0,0.0,0.0,0.0,2.m4v,11.0
2024-02-28 14:22:07.489013,1709126527.4890127,136.71875,648.92578125,-37.109375,999.51171875,0.0,0.0,0.0,0.0,2.m4v,11.0
2024-02-28 14:22:07.492918,1709126527.4929185,89.35546875,999.51171875,-47.36328125,955.56640625,0.0,0.0,0.0,0.0,2.m4v,11.0
2024-02-28 14:22:07.496824,1709126527.4968235,-6.34765625,999.51171875,-53.22265625,294.921875,0.0,0.0,0.0,0.0,2.m4v,11.0
2024-02-28 14:22:07.500729,1709126527.500729,-146.484375,287.59765625,-39.55078125,-937.01171875,0.0,0.0,0.0,0.0,2.m4v,11.0
2024-02-28 14:22:07.504635,1709126527.5046346,-171.38671875,-992.67578125,-14.6484375,-942.87109375,0.0,0.0,0.0,0.0,2.m4v,11.0
2024-02-28 14:22:07.508540,1709126527.50854,22.94921875,248.046875,-8.7890625,476.5625,0.0,0.0,0.0,0.0,2.m4v,11.0
2024-02-28 14:22:07.512445,1709126527.5124454,115.234375,999.51171875,-24.4140625,999.51171875,0.0,0.0,0.0,0.0,2.m4v,11.0
2024-02-28 14:22:07.516351,1709126527.516351,-16.6015625,780.76171875,-26.3671875,219.23828125,0.0,0.0,0.0,0.0,2.m4v,11.0
2024-02-28 14:22:07.520256,1709126527.5202563,-188.4765625,-590.33203125,-23.92578125,-880.37109375,0.0,0.0,0.0,0.0,2.m4v,11.0
2024-02-28 14:22:07.524162,1709126527.5241618,-186.03515625,-1000.0,-25.390625,-1000.0,0.0,0.0,0.0,0.0,2.m4v,11.0
2024-02-28 14:22:07.528067,1709126527.528067,-34.1796875,-925.78125,-16.11328125,43.9453125,0.0,0.0,0.0,0.0,2.m4v,11.0
2024-02-28 14:22:07.531977,1709126527.5319772,66.40625,-1000.0,-23.4375,971.19140625,0.0,0.0,0.0,0.0,2.m4v,11.0
2024-02-28 14:22:07.535883,1709126527.5358827,-29.296875,-963.37890625,-29.78515625,-76.66015625,0.0,0.0,0.0,0.0,2.m4v,11.0
2024-02-28 14:22:07.539788,1709126527.539788,-151.85546875,-1000.0,-33.203125,-1000.0,0.0,0.0,0.0,0.0,2.m4v,11.0
2024-02-28 14:22:07.543694,1709126527.5436935,-105.95703125,-1000.0,-29.78515625,-757.32421875,0.0,0.0,0.0,0.0,2.m4v,11.0
2024-02-28 14:22:07.547599,1709126527.547599,73.2421875,322.75390625,-36.1328125,585.44921875,0.0,0.0,0.0,0.0,2.m4v,11.0
2024-02-28 14:22:07.551504,1709126527.5515044,128.90625,999.51171875,-46.875,999.51171875,0.0,0.0,0.0,0.0,2.m4v,11.0
2024-02-28 14:22:07.555410,1709126527.55541,44.921875,999.51171875,-35.15625,743.1640625,0.0,0.0,0.0,0.0,2.m4v,11.0
2024-02-28 14:22:07.559315,1709126527.5593152,-111.328125,579.58984375,-29.78515625,-498.046875,0.0,0.0,0.0,0.0,2.m4v,11.0
2024-02-28 14:22:07.563221,1709126527.5632207,-208.0078125,-861.81640625,-27.83203125,-1000.0,0.0,0.0,0.0,0.0,2.m4v,11.0
2024-02-28 14:22:07.567126,1709126527.5671265,-95.703125,-1000.0,-20.99609375,-476.07421875,0.0,0.0,0.0,0.0,2.m4v,11.0
2024-02-28 14:22:07.571032,1709126527.5710316,60.546875,-942.3828125,-26.3671875,814.453125,0.0,0.0,0.0,0.0,2.m4v,11.0
2024-02-28 14:22:07.574937,1709126527.574937,7.8125,-1000.0,-30.76171875,385.7421875,0.0,0.0,0.0,0.0,2.m4v,11.0
2024-02-28 14:22:07.578851,1709126527.5788517,-136.23046875,-932.12890625,-37.109375,-971.19140625,0.0,0.0,0.0,0.0,2.m4v,11.0
2024-02-28 14:22:07.582757,1709126527.5827568,-130.37109375,-1000.0,-46.875,-977.05078125,0.0,0.0,0.0,0.0,2.m4v,11.0
2024-02-28 14:22:07.586662,1709126527.5866623,25.87890625,-747.55859375,-49.31640625,345.21484375,0.0,0.0,0.0,0.0,2.m4v,11.0
2024-02-28 14:22:07.590568,1709126527.5905678,145.5078125,742.1875,-41.015625,999.51171875,0.0,0.0,0.0,0.0,2.m4v,11.0
2024-02-28 14:22:07.594473,1709126527.5944731,90.8203125,999.51171875,-33.69140625,899.4140625,0.0,0.0,0.0,0.0,2.m4v,11.0
2024-02-28 14:22:07.598379,1709126527.598379,-22.4609375,949.70703125,-41.9921875,85.9375,0.0,0.0,0.0,0.0,2.m4v,11.0
2024-02-28 14:22:07.602284,1709126527.6022842,-123.53515625,895.99609375,-43.9453125,-914.0625,0.0,0.0,0.0,0.0,2.m4v,11.0
2024-02-28 14:22:07.606189,1709126527.6061895,-151.3671875,-567.87109375,-28.3203125,-1000.0,0.0,0.0,0.0,0.0,2.m4v,11.0
2024-02-28 14:22:07.610095,1709126527.610095,-112.3046875,-1000.0,-33.69140625,-964.84375,0.0,0.0,0.0,0.0,2.m4v,11.0
2024-02-28 14:22:07.614001,1709126527.6140006,-78.125,-922.36328125,-37.59765625,-942.87109375,0.0,0.0,0.0,0.0,2.m4v,11.0
2024-02-28 14:22:07.617906,1709126527.617906,-84.9609375,-963.8671875,-24.90234375,-1000.0,0.0,0.0,0.0,0.0,2.m4v,11.0
2024-02-28 14:22:07.621811,1709126527.6218114,-65.91796875,-1000.0,-31.25,-648.4375,0.0,0.0,0.0,0.0,2.m4v,11.0
2024-02-28 14:22:07.625725,1709126527.6257253,86.9140625,-202.63671875,-22.4609375,700.1953125,0.0,0.0,0.0,0.0,2.m4v,11.0
2024-02-28 14:22:07.629631,1709126527.6296308,146.484375,964.84375,-19.04296875,999.51171875,0.0,0.0,0.0,0.0,2.m4v,11.0
2024-02-28 14:22:07.633536,1709126527.6335363,72.265625,966.30859375,-39.55078125,922.36328125,0.0,0.0,0.0,0.0,2.m4v,11.0
2024-02-28 14:22:07.637442,1709126527.6374416,-32.2265625,968.26171875,-41.50390625,127.9296875,0.0,0.0,0.0,0.0,2.m4v,11.0
2024-02-28 14:22:07.641347,1709126527.6413472,-167.48046875,-318.84765625,-35.64453125,-1000.0,0.0,0.0,0.0,0.0,2.m4v,11.0
2024-02-28 14:22:07.645252,1709126527.6452525,-150.390625,-1000.0,-37.59765625,-877.9296875,0.0,0.0,0.0,0.0,2.m4v,11.0
2024-02-28 14:22:07.649158,1709126527.649158,36.1328125,-0.48828125,-29.296875,479.4921875,0.0,0.0,0.0,0.0,2.m4v,11.0
2024-02-28 14:22:07.653064,1709126527.6530635,122.55859375,999.51171875,-21.484375,999.51171875,0.0,0.0,0.0,0.0,2.m4v,11.0
2024-02-28 14:22:07.656969,1709126527.6569688,1.953125,815.91796875,-28.3203125,282.2265625,0.0,0.0,0.0,0.0,2.m4v,11.0
2024-02-28 14:22:07.660874,1709126527.6608744,-178.7109375,-622.0703125,-33.69140625,-857.421875,0.0,0.0,0.0,0.0,2.m4v,11.0
2024-02-28 14:22:07.664780,1709126527.66478,-174.8046875,-1000.0,-35.15625,-1000.0,0.0,0.0,0.0,0.0,2.m4v,11.0
2024-02-28 14:22:07.668685,1709126527.6686852,-9.765625,-925.78125,-28.3203125,110.83984375,0.0,0.0,0.0,0.0,2.m4v,11.0
2024-02-28 14:22:07.672598,1709126527.672598,74.21875,-1000.0,-28.3203125,943.84765625,0.0,0.0,0.0,0.0,2.m4v,11.0
2024-02-28 14:22:07.676504,1709126527.6765037,-42.96875,-944.3359375,-35.15625,-272.94921875,0.0,0.0,0.0,0.0,2.m4v,11.0
2024-02-28 14:22:07.680409,1709126527.680409,-139.6484375,-1000.0,-32.71484375,-1000.0,0.0,0.0,0.0,0.0,2.m4v,11.0
2024-02-28 14:22:07.684314,1709126527.6843145,-88.8671875,-905.2734375,-31.73828125,-604.4921875,0.0,0.0,0.0,0.0,2.m4v,11.0
2024-02-28 14:22:07.688220,1709126527.68822,85.9375,549.8046875,-32.2265625,669.921875,0.0,0.0,0.0,0.0,2.m4v,11.0
2024-02-28 14:22:07.692125,1709126527.692125,130.37109375,999.51171875,-23.92578125,999.51171875,0.0,0.0,0.0,0.0,2.m4v,11.0
2024-02-28 14:22:07.696031,1709126527.6960309,46.875,999.51171875,-13.671875,763.671875,0.0,0.0,0.0,0.0,2.m4v,11.0
2024-02-28 14:22:07.699936,1709126527.6999364,-106.93359375,397.4609375,-15.13671875,-473.6328125,0.0,0.0,0.0,0.0,2.m4v,11.0
2024-02-28 14:22:07.703842,1709126527.7038417,-208.984375,-961.42578125,-27.34375,-1000.0,0.0,0.0,0.0,0.0,2.m4v,11.0
2024-02-28 14:22:07.707747,1709126527.7077472,-113.28125,-1000.0,-35.15625,-604.4921875,0.0,0.0,0.0,0.0,2.m4v,11.0
2024-02-28 14:22:07.711653,1709126527.7116525,2.44140625,-970.703125,-41.9921875,274.90234375,0.0,0.0,0.0,0.0,2.m4v,11.0
2024-02-28 14:22:07.715558,1709126527.715558,-13.671875,-963.37890625,-41.50390625,64.453125,0.0,0.0,0.0,0.0,2.m4v,11.0
2024-02-28 14:22:07.719471,1709126527.7194707,-120.1171875,-1000.0,-34.66796875,-1000.0,0.0,0.0,0.0,0.0,2.m4v,11.0
2024-02-28 14:22:07.723376,1709126527.723376,-93.75,-953.61328125,-31.73828125,-719.7265625,0.0,0.0,0.0,0.0,2.m4v,11.0
2024-02-28 14:22:07.727282,1709126527.7272816,89.84375,460.9375,-37.109375,694.3359375,0.0,0.0,0.0,0.0,2.m4v,11.0
2024-02-28 14:22:07.731187,1709126527.731187,126.953125,999.51171875,-41.9921875,999.51171875,0.0,0.0,0.0,0.0,2.m4v,11.0
2024-02-28 14:22:07.735092,1709126527.7350924,53.7109375,895.99609375,-38.0859375,825.1953125,0.0,0.0,0.0,0.0,2.m4v,11.0
2024-02-28 14:22:07.738998,1709126527.738998,-42.48046875,982.421875,-36.62109375,-101.5625,0.0,0.0,0.0,0.0,2.m4v,11.0
2024-02-28 14:22:07.742903,1709126527.7429037,-125.0,986.81640625,-25.390625,-849.609375,0.0,0.0,0.0,0.0,2.m4v,11.0
2024-02-28 14:22:07.746809,1709126527.7468088,-28.80859375,900.390625,-12.6953125,183.10546875,0.0,0.0,0.0,0.0,2.m4v,11.0
2024-02-28 14:22:07.750714,1709126527.7507143,84.9609375,999.51171875,-24.90234375,999.51171875,0.0,0.0,0.0,0.0,2.m4v,11.0
2024-02-28 14:22:07.754620,1709126527.7546198,-19.04296875,691.40625,-31.73828125,170.41015625,0.0,0.0,0.0,0.0,2.m4v,11.0
2024-02-28 14:22:07.758525,1709126527.7585251,-190.4296875,-780.2734375,-35.64453125,-917.96875,0.0,0.0,0.0,0.0,2.m4v,11.0
2024-02-28 14:22:07.762431,1709126527.762431,-178.22265625,-1000.0,-38.0859375,-1000.0,0.0,0.0,0.0,0.0,2.m4v,11.0
2024-02-28 14:22:07.766343,1709126527.7663426,-71.2890625,-934.08203125,-40.0390625,-439.453125,0.0,0.0,0.0,0.0,2.m4v,11.0
2024-02-28 14:22:07.770248,1709126527.7702482,53.7109375,-1000.0,-39.0625,879.8828125,0.0,0.0,0.0,0.0,2.m4v,11.0
2024-02-28 14:22:07.774154,1709126527.7741537,33.203125,-993.65234375,-38.57421875,658.203125,0.0,0.0,0.0,0.0,2.m4v,11.0
2024-02-28 14:22:07.778059,1709126527.778059,-114.74609375,-953.125,-43.9453125,-794.43359375,0.0,0.0,0.0,0.0,2.m4v,11.0
2024-02-28 14:22:07.781965,1709126527.7819643,-149.90234375,-1000.0,-38.0859375,-1000.0,0.0,0.0,0.0,0.0,2.m4v,11.0
2024-02-28 14:22:07.785870,1709126527.7858698,6.8359375,-132.32421875,-38.57421875,150.87890625,0.0,0.0,0.0,0.0,2.m4v,11.0
2024-02-28 14:22:07.789775,1709126527.7897754,142.578125,966.30859375,-43.9453125,999.51171875,0.0,0.0,0.0,0.0,2.m4v,11.0
2024-02-28 14:22:07.793681,1709126527.793681,82.51953125,994.62890625,-39.0625,896.97265625,0.0,0.0,0.0,0.0,2.m4v,11.0
2024-02-28 14:22:07.797586,1709126527.7975862,-53.7109375,877.44140625,-42.96875,-131.34765625,0.0,0.0,0.0,0.0,2.m4v,11.0
2024-02-28 14:22:07.801492,1709126527.8014915,-183.10546875,-617.1875,-40.52734375,-1000.0,0.0,0.0,0.0,0.0,2.m4v,11.0
2024-02-28 14:22:07.805397,1709126527.8053973,-142.578125,-1000.0,-31.25,-809.5703125,0.0,0.0,0.0,0.0,2.m4v,11.0
2024-02-28 14:22:07.809303,1709126527.8093026,62.01171875,422.36328125,-33.203125,571.77734375,0.0,0.0,0.0,0.0,2.m4v,11.0
2024-02-28 14:22:07.813215,1709126527.8132143,124.51171875,999.51171875,-26.85546875,999.51171875,0.0,0.0,0.0,0.0,2.m4v,11.0
2024-02-28 14:22:07.817120,1709126527.8171198,-2.9296875,801.26953125,-23.4375,213.37890625,0.0,0.0,0.0,0.0,2.m4v,11.0
2024-02-28 14:22:07.821025,1709126527.8210254,-163.0859375,-521.484375,-30.2734375,-861.328125,0.0,0.0,0.0,0.0,2.m4v,11.0
2024-02-28 14:22:07.824931,1709126527.824931,-172.36328125,-1000.0,-39.55078125,-1000.0,0.0,0.0,0.0,0.0,2.m4v,11.0
2024-02-28 14:22:07.828836,1709126527.8288362,-51.26953125,-973.14453125,-41.50390625,-151.3671875,0.0,0.0,0.0,0.0,2.m4v,11.0
2024-02-28 14:22:07.832742,1709126527.8327415,85.44921875,212.40234375,-44.921875,872.55859375,0.0,0.0,0.0,0.0,2.m4v,11.0
2024-02-28 14:22:07.836647,1709126527.8366473,92.7734375,999.51171875,-52.24609375,999.51171875,0.0,0.0,0.0,0.0,2.m4v,11.0
2024-02-28 14:22:07.840553,1709126527.8405526,-33.69140625,915.0390625,-49.8046875,158.69140625,0.0,0.0,0.0,0.0,2.m4v,11.0
2024-02-28 14:22:07.844458,1709126527.844458,-85.44921875,942.87109375,-38.0859375,-340.8203125,0.0,0.0,0.0,0.0,2.m4v,11.0
2024-02-28 14:22:07.848364,1709126527.8483636,22.94921875,959.47265625,-31.25,761.71875,0.0,0.0,0.0,0.0,2.m4v,11.0
2024-02-28 14:22:07.852269,1709126527.852269,51.7578125,999.51171875,-31.73828125,898.4375,0.0,0.0,0.0,0.0,2.m4v,11.0
2024-02-28 14:22:07.856174,1709126527.8561745,-118.1640625,-231.4453125,-40.0390625,-609.86328125,0.0,0.0,0.0,0.0,2.m4v,11.0
2024-02-28 14:22:07.860085,1709126527.860085,-200.68359375,-1000.0,-47.36328125,-1000.0,0.0,0.0,0.0,0.0,2.m4v,11.0
2024-02-28 14:22:07.863991,1709126527.8639903,-155.76171875,-939.94140625,-48.33984375,-982.91015625,0.0,0.0,0.0,0.0,2.m4v,11.0
2024-02-28 14:22:07.867896,1709126527.8678958,-49.31640625,-1000.0,-51.26953125,-38.0859375,0.0,0.0,0.0,0.0,2.m4v,11.0
2024-02-28 14:22:07.871801,1709126527.8718014,65.91796875,-1000.0,-49.8046875,999.51171875,0.0,0.0,0.0,0.0,2.m4v,11.0
2024-02-28 14:22:07.875707,1709126527.875707,-22.4609375,-1000.0,-41.015625,-42.48046875,0.0,0.0,0.0,0.0,2.m4v,11.0
2024-02-28 14:22:07.879612,1709126527.8796122,-141.6015625,-1000.0,-30.2734375,-1000.0,0.0,0.0,0.0,0.0,2.m4v,11.0
2024-02-28 14:22:07.883518,1709126527.8835175,-107.421875,-1000.0,-32.2265625,-814.453125,0.0,0.0,0.0,0.0,2.m4v,11.0
2024-02-28 14:22:07.887423,1709126527.887423,31.73828125,-1000.0,-37.59765625,562.01171875,0.0,0.0,0.0,0.0,2.m4v,11.0
2024-02-28 14:22:07.891329,1709126527.8913286,85.44921875,-1000.0,-41.50390625,999.51171875,0.0,0.0,0.0,0.0,2.m4v,11.0
2024-02-28 14:22:07.895234,1709126527.895234,-24.90234375,-994.140625,-50.29296875,-78.61328125,0.0,0.0,0.0,0.0,2.m4v,11.0
2024-02-28 14:22:07.899139,1709126527.8991394,-131.8359375,-953.125,-48.828125,-1000.0,0.0,0.0,0.0,0.0,2.m4v,11.0
2024-02-28 14:22:07.903045,1709126527.903045,-95.21484375,-1000.0,-40.52734375,-717.7734375,0.0,0.0,0.0,0.0,2.m4v,11.0
2024-02-28 14:22:07.906955,1709126527.906955,69.3359375,-160.64453125,-38.0859375,606.4453125,0.0,0.0,0.0,0.0,2.m4v,11.0
2024-02-28 14:22:07.910861,1709126527.9108603,127.9296875,999.51171875,-41.50390625,999.51171875,0.0,0.0,0.0,0.0,2.m4v,11.0
2024-02-28 14:22:07.914766,1709126527.9147658,55.17578125,954.58984375,-32.71484375,842.28515625,0.0,0.0,0.0,0.0,2.m4v,11.0
2024-02-28 14:22:07.918671,1709126527.9186714,-79.58984375,945.3125,-22.94921875,-409.66796875,0.0,0.0,0.0,0.0,2.m4v,11.0
2024-02-28 14:22:07.922577,1709126527.922577,-149.90234375,992.67578125,-28.3203125,-1000.0,0.0,0.0,0.0,0.0,2.m4v,11.0
2024-02-28 14:22:07.926482,1709126527.9264822,0.9765625,914.55078125,-33.203125,398.4375,0.0,0.0,0.0,0.0,2.m4v,11.0
2024-02-28 14:22:07.930388,1709126527.9303875,102.5390625,999.51171875,-25.390625,999.51171875,0.0,0.0,0.0,0.0,2.m4v,11.0
2024-02-28 14:22:07.934293,1709126527.9342933,23.92578125,879.39453125,-25.390625,482.91015625,0.0,0.0,0.0,0.0,2.m4v,11.0
2024-02-28 14:22:07.938199,1709126527.9381986,-166.50390625,-567.87109375,-35.15625,-737.79296875,0.0,0.0,0.0,0.0,2.m4v,11.0
2024-02-28 14:22:07.942104,1709126527.942104,-202.63671875,-1000.0,-27.83203125,-1000.0,0.0,0.0,0.0,0.0,2.m4v,11.0
2024-02-28 14:22:07.946009,1709126527.9460094,-96.6796875,-925.29296875,-22.4609375,-702.1484375,0.0,0.0,0.0,0.0,2.m4v,11.0
2024-02-28 14:22:07.949915,1709126527.949915,36.1328125,-1000.0,-38.57421875,651.85546875,0.0,0.0,0.0,0.0,2.m4v,11.0
2024-02-28 14:22:07.953829,1709126527.953829,50.29296875,-1000.0,-39.55078125,752.9296875,0.0,0.0,0.0,0.0,2.m4v,11.0
2024-02-28 14:22:07.957734,1709126527.9577343,-101.07421875,-979.4921875,-28.3203125,-735.83984375,0.0,0.0,0.0,0.0,2.m4v,11.0
2024-02-28 14:22:07.961640,1709126527.96164,-153.3203125,-976.5625,-35.64453125,-1000.0,0.0,0.0,0.0,0.0,2.m4v,11.0
2024-02-28 14:22:07.965545,1709126527.9655452,-41.9921875,-1000.0,-39.55078125,-132.32421875,0.0,0.0,0.0,0.0,2.m4v,11.0
2024-02-28 14:22:07.969451,1709126527.9694507,95.703125,86.42578125,-32.71484375,881.34765625,0.0,0.0,0.0,0.0,2.m4v,11.0
2024-02-28 14:22:07.973356,1709126527.9733562,113.28125,999.51171875,-30.76171875,999.51171875,0.0,0.0,0.0,0.0,2.m4v,11.0
2024-02-28 14:22:07.977262,1709126527.9772615,40.52734375,963.37890625,-30.2734375,673.33984375,0.0,0.0,0.0,0.0,2.m4v,11.0
2024-02-28 14:22:07.981167,1709126527.981167,-95.21484375,899.90234375,-41.015625,-559.08203125,0.0,0.0,0.0,0.0,2.m4v,11.0
2024-02-28 14:22:07.985073,1709126527.9850726,-169.921875,-511.71875,-41.015625,-1000.0,0.0,0.0,0.0,0.0,2.m4v,11.0
2024-02-28 14:22:07.988978,1709126527.988978,-108.3984375,-1000.0,-31.25,-746.09375,0.0,0.0,0.0,0.0,2.m4v,11.0
2024-02-28 14:22:07.992883,1709126527.9928834,-62.98828125,-942.87109375,-34.66796875,-672.8515625,0.0,0.0,0.0,0.0,2.m4v,11.0
2024-02-28 14:22:07.996789,1709126527.996789,-88.37890625,-944.82421875,-36.62109375,-1000.0,0.0,0.0,0.0,0.0,2.m4v,11.0
2024-02-28 14:22:08.000703,1709126528.0007026,-95.21484375,-1000.0,-35.15625,-921.38671875,0.0,0.0,0.0,0.0,2.m4v,11.0
2024-02-28 14:22:08.004608,1709126528.0046082,28.3203125,-723.14453125,-35.64453125,446.2890625,0.0,0.0,0.0,0.0,2.m4v,11.0
2024-02-28 14:22:08.008513,1709126528.0085137,133.30078125,745.60546875,-21.97265625,999.51171875,0.0,0.0,0.0,0.0,2.m4v,11.0
2024-02-28 14:22:08.012419,1709126528.012419,82.51953125,999.51171875,-16.11328125,940.91796875,0.0,0.0,0.0,0.0,2.m4v,11.0
2024-02-28 14:22:08.016325,1709126528.0163243,-6.8359375,903.3203125,-20.99609375,467.7734375,0.0,0.0,0.0,0.0,2.m4v,11.0
2024-02-28 14:22:08.020230,1709126528.0202298,-125.9765625,987.3046875,-27.34375,-870.60546875,0.0,0.0,0.0,0.0,2.m4v,11.0
2024-02-28 14:22:08.024135,1709126528.0241354,-121.09375,984.375,-35.64453125,-796.875,0.0,0.0,0.0,0.0,2.m4v,11.0
2024-02-28 14:22:08.028041,1709126528.028041,33.203125,899.4140625,-41.015625,708.984375,0.0,0.0,0.0,0.0,2.m4v,11.0
2024-02-28 14:22:08.031946,1709126528.0319462,78.61328125,999.51171875,-45.8984375,999.51171875,0.0,0.0,0.0,0.0,2.m4v,11.0
2024-02-28 14:22:08.035852,1709126528.0358517,-55.17578125,570.80078125,-41.50390625,-193.84765625,0.0,0.0,0.0,0.0,2.m4v,11.0
2024-02-28 14:22:08.039757,1709126528.039757,-187.98828125,-790.0390625,-42.96875,-1000.0,0.0,0.0,0.0,0.0,2.m4v,11.0
2024-02-28 14:22:08.043663,1709126528.0436623,-172.8515625,-1000.0,-47.36328125,-988.76953125,0.0,0.0,0.0,0.0,2.m4v,11.0
2024-02-28 14:22:08.047576,1709126528.0475762,-15.625,-474.609375,-34.1796875,6.8359375,0.0,0.0,0.0,0.0,2.m4v,11.0
2024-02-28 14:22:08.051481,1709126528.0514815,125.9765625,861.81640625,-24.90234375,999.51171875,0.0,0.0,0.0,0.0,2.m4v,11.0
2024-02-28 14:22:08.055387,1709126528.055387,64.94140625,999.51171875,-31.73828125,752.9296875,0.0,0.0,0.0,0.0,2.m4v,11.0
2024-02-28 14:22:08.059293,1709126528.0592926,-95.21484375,916.9921875,-33.203125,-646.97265625,0.0,0.0,0.0,0.0,2.m4v,11.0
2024-02-28 14:22:08.063198,1709126528.063198,-108.3984375,999.51171875,-30.2734375,-894.04296875,0.0,0.0,0.0,0.0,2.m4v,11.0
2024-02-28 14:22:08.067103,1709126528.0671034,53.7109375,913.0859375,-22.94921875,612.79296875,0.0,0.0,0.0,0.0,2.m4v,11.0
2024-02-28 14:22:08.469426,1709126528.469426,49.8046875,145.01953125,-52.24609375,488.76953125,0.0,0.0,0.0,0.0,2.m4v,11.0
2024-02-28 14:22:08.473331,1709126528.4733317,137.20703125,999.51171875,-60.546875,999.51171875,0.0,0.0,0.0,0.0,2.m4v,11.0
2024-02-28 14:22:08.477237,1709126528.477237,35.64453125,984.86328125,-51.7578125,332.51953125,0.0,0.0,0.0,0.0,2.m4v,11.0
2024-02-28 14:22:08.481142,1709126528.4811423,-118.1640625,-10.7421875,-32.2265625,-808.10546875,0.0,0.0,0.0,0.0,2.m4v,11.0
2024-02-28 14:22:08.485048,1709126528.4850478,-153.80859375,-1000.0,-24.4140625,-1000.0,0.0,0.0,0.0,0.0,2.m4v,11.0
2024-02-28 14:22:08.488953,1709126528.4889534,-9.765625,-712.40234375,-23.4375,14.6484375,0.0,0.0,0.0,0.0,2.m4v,11.0
2024-02-28 14:22:08.492859,1709126528.4928586,124.51171875,820.80078125,-21.484375,999.51171875,0.0,0.0,0.0,0.0,2.m4v,11.0
2024-02-28 14:22:08.496764,1709126528.4967642,55.6640625,955.078125,-20.5078125,494.62890625,0.0,0.0,0.0,0.0,2.m4v,11.0
2024-02-28 14:22:08.500670,1709126528.5006697,-145.5078125,-629.8828125,-28.80859375,-790.0390625,0.0,0.0,0.0,0.0,2.m4v,11.0
2024-02-28 14:22:08.504575,1709126528.504575,-174.31640625,-1000.0,-36.1328125,-1000.0,0.0,0.0,0.0,0.0,2.m4v,11.0
2024-02-28 14:22:08.508481,1709126528.5084803,-32.71484375,-925.29296875,-34.1796875,-185.05859375,0.0,0.0,0.0,0.0,2.m4v,11.0
2024-02-28 14:22:08.512386,1709126528.512386,52.734375,-1000.0,-32.2265625,611.328125,0.0,0.0,0.0,0.0,2.m4v,11.0
2024-02-28 14:22:08.516301,1709126528.516301,-32.2265625,-942.3828125,-40.0390625,-257.32421875,0.0,0.0,0.0,0.0,2.m4v,11.0
2024-02-28 14:22:08.520206,1709126528.5202065,-130.37109375,-1000.0,-40.0390625,-1000.0,0.0,0.0,0.0,0.0,2.m4v,11.0
2024-02-28 14:22:08.524112,1709126528.524112,-49.8046875,-891.11328125,-31.25,-462.890625,0.0,0.0,0.0,0.0,2.m4v,11.0
2024-02-28 14:22:08.528017,1709126528.5280173,130.859375,570.80078125,-29.296875,791.015625,0.0,0.0,0.0,0.0,2.m4v,11.0
2024-02-28 14:22:08.531923,1709126528.5319228,137.20703125,999.51171875,-23.4375,999.51171875,0.0,0.0,0.0,0.0,2.m4v,11.0
2024-02-28 14:22:08.535828,1709126528.5358284,61.5234375,855.95703125,-15.13671875,828.125,0.0,0.0,0.0,0.0,2.m4v,11.0
2024-02-28 14:22:08.539734,1709126528.5397336,-29.78515625,999.51171875,-16.6015625,16.11328125,0.0,0.0,0.0,0.0,2.m4v,11.0
2024-02-28 14:22:08.543639,1709126528.5436392,-144.53125,45.8984375,-27.83203125,-917.48046875,0.0,0.0,0.0,0.0,2.m4v,11.0
2024-02-28 14:22:08.547545,1709126528.5475447,-144.53125,-1000.0,-34.1796875,-1000.0,0.0,0.0,0.0,0.0,2.m4v,11.0
2024-02-28 14:22:08.551450,1709126528.55145,-97.65625,-990.72265625,-25.87890625,-965.33203125,0.0,0.0,0.0,0.0,2.m4v,11.0
2024-02-28 14:22:08.555356,1709126528.5553555,-76.171875,-923.828125,-21.484375,-976.07421875,0.0,0.0,0.0,0.0,2.m4v,11.0
2024-02-28 14:22:08.559261,1709126528.559261,-90.33203125,-1000.0,-30.2734375,-1000.0,0.0,0.0,0.0,0.0,2.m4v,11.0
2024-02-28 14:22:08.563173,1709126528.5631726,-27.83203125,-892.08984375,-34.1796875,-196.2890625,0.0,0.0,0.0,0.0,2.m4v,11.0
2024-02-28 14:22:08.567078,1709126528.567078,132.32421875,581.0546875,-30.76171875,889.16015625,0.0,0.0,0.0,0.0,2.m4v,11.0
2024-02-28 14:22:08.570983,1709126528.5709834,131.34765625,999.51171875,-31.25,999.51171875,0.0,0.0,0.0,0.0,2.m4v,11.0
2024-02-28 14:22:08.574889,1709126528.574889,51.7578125,937.01171875,-36.1328125,835.9375,0.0,0.0,0.0,0.0,2.m4v,11.0
2024-02-28 14:22:08.578794,1709126528.5787942,-73.2421875,920.41015625,-37.59765625,-296.875,0.0,0.0,0.0,0.0,2.m4v,11.0
2024-02-28 14:22:08.582700,1709126528.5826998,-180.6640625,-674.31640625,-41.9921875,-1000.0,0.0,0.0,0.0,0.0,2.m4v,11.0
2024-02-28 14:22:08.586605,1709126528.5866053,-93.26171875,-977.5390625,-44.921875,-477.5390625,0.0,0.0,0.0,0.0,2.m4v,11.0
2024-02-28 14:22:08.590511,1709126528.5905106,85.9375,590.8203125,-42.48046875,823.73046875,0.0,0.0,0.0,0.0,2.m4v,11.0
2024-02-28 14:22:08.594416,1709126528.594416,83.0078125,999.51171875,-40.0390625,946.77734375,0.0,0.0,0.0,0.0,2.m4v,11.0
2024-02-28 14:22:08.598322,1709126528.5983217,-78.61328125,464.84375,-23.4375,-330.078125,0.0,0.0,0.0,0.0,2.m4v,11.0
2024-02-28 14:22:08.602227,1709126528.602227,-185.546875,-869.140625,-14.16015625,-1000.0,0.0,0.0,0.0,0.0,2.m4v,11.0
2024-02-28 14:22:08.606133,1709126528.6061325,-117.67578125,-1000.0,-24.90234375,-725.5859375,0.0,0.0,0.0,0.0,2.m4v,11.0
2024-02-28 14:22:08.610044,1709126528.6100435,43.9453125,-944.82421875,-29.78515625,682.12890625,0.0,0.0,0.0,0.0,2.m4v,11.0
2024-02-28 14:22:08.613949,1709126528.6139488,57.12890625,-1000.0,-20.5078125,826.171875,0.0,0.0,0.0,0.0,2.m4v,11.0
2024-02-28 14:22:08.617854,1709126528.6178544,-94.23828125,-940.91796875,-22.4609375,-693.84765625,0.0,0.0,0.0,0.0,2.m4v,11.0
2024-02-28 14:22:08.621760,1709126528.62176,-156.73828125,-1000.0,-32.71484375,-1000.0,0.0,0.0,0.0,0.0,2.m4v,11.0
2024-02-28 14:22:08.625665,1709126528.6256652,-33.203125,-856.4453125,-23.4375,-53.22265625,0.0,0.0,0.0,0.0,2.m4v,11.0
2024-02-28 14:22:08.629571,1709126528.6295707,131.8359375,535.64453125,-23.4375,955.56640625,0.0,0.0,0.0,0.0,2.m4v,11.0
2024-02-28 14:22:08.633476,1709126528.6334765,110.83984375,999.51171875,-33.69140625,962.40234375,0.0,0.0,0.0,0.0,2.m4v,11.0
2024-02-28 14:22:08.637382,1709126528.6373816,-26.3671875,833.0078125,-34.66796875,-9.765625,0.0,0.0,0.0,0.0,2.m4v,11.0
2024-02-28 14:22:08.641287,1709126528.641287,-168.9453125,-519.53125,-33.69140625,-1000.0,0.0,0.0,0.0,0.0,2.m4v,11.0
2024-02-28 14:22:08.645193,1709126528.6451926,-150.87890625,-1000.0,-34.66796875,-878.90625,0.0,0.0,0.0,0.0,2.m4v,11.0
2024-02-28 14:22:08.649098,1709126528.649098,37.59765625,129.8828125,-42.96875,468.26171875,0.0,0.0,0.0,0.0,2.m4v,11.0
2024-02-28 14:22:08.653003,1709126528.6530037,109.86328125,999.51171875,-41.9921875,999.51171875,0.0,0.0,0.0,0.0,2.m4v,11.0
2024-02-28 14:22:08.656919,1709126528.6569183,2.44140625,861.81640625,-28.80859375,345.21484375,0.0,0.0,0.0,0.0,2.m4v,11.0
2024-02-28 14:22:08.660824,1709126528.660824,-160.15625,-520.99609375,-22.94921875,-803.22265625,0.0,0.0,0.0,0.0,2.m4v,11.0
2024-02-28 14:22:08.664730,1709126528.6647296,-183.59375,-1000.0,-25.87890625,-1000.0,0.0,0.0,0.0,0.0,2.m4v,11.0
2024-02-28 14:22:08.668635,1709126528.668635,-42.96875,-891.11328125,-26.85546875,-120.1171875,0.0,0.0,0.0,0.0,2.m4v,11.0
2024-02-28 14:22:08.672540,1709126528.6725404,64.453125,-1000.0,-20.5078125,867.1875,0.0,0.0,0.0,0.0,2.m4v,11.0
2024-02-28 14:22:08.676446,1709126528.6764455,30.76171875,-38.0859375,-22.94921875,511.71875,0.0,0.0,0.0,0.0,2.m4v,11.0
2024-02-28 14:22:08.680351,1709126528.6803513,6.34765625,999.51171875,-30.2734375,520.5078125,0.0,0.0,0.0,0.0,2.m4v,11.0
2024-02-28 14:22:08.684257,1709126528.6842568,13.18359375,880.37109375,-32.2265625,907.71484375,0.0,0.0,0.0,0.0,2.m4v,11.0
2024-02-28 14:22:08.688162,1709126528.688162,24.90234375,999.51171875,-36.1328125,999.51171875,0.0,0.0,0.0,0.0,2.m4v,11.0
2024-02-28 14:22:08.692068,1709126528.6920676,-36.62109375,847.16796875,-36.62109375,337.40234375,0.0,0.0,0.0,0.0,2.m4v,11.0
2024-02-28 14:22:08.695973,1709126528.6959732,-181.15234375,-632.32421875,-34.66796875,-841.796875,0.0,0.0,0.0,0.0,2.m4v,11.0
2024-02-28 14:22:08.699878,1709126528.6998785,-180.17578125,-1000.0,-39.55078125,-1000.0,0.0,0.0,0.0,0.0,2.m4v,11.0
2024-02-28 14:22:08.703793,1709126528.703793,-126.46484375,-1000.0,-48.33984375,-934.5703125,0.0,0.0,0.0,0.0,2.m4v,11.0
2024-02-28 14:22:08.707699,1709126528.7076986,2.44140625,-538.57421875,-46.38671875,236.81640625,0.0,0.0,0.0,0.0,2.m4v,11.0
2024-02-28 14:22:08.711604,1709126528.711604,115.72265625,817.3828125,-32.2265625,999.51171875,0.0,0.0,0.0,0.0,2.m4v,11.0
2024-02-28 14:22:08.715509,1709126528.7155094,67.87109375,999.51171875,-24.90234375,827.63671875,0.0,0.0,0.0,0.0,2.m4v,11.0
2024-02-28 14:22:08.719415,1709126528.719415,-65.91796875,782.2265625,-31.25,-241.69921875,0.0,0.0,0.0,0.0,2.m4v,11.0
2024-02-28 14:22:08.723320,1709126528.7233202,-180.6640625,-612.79296875,-31.73828125,-1000.0,0.0,0.0,0.0,0.0,2.m4v,11.0
2024-02-28 14:22:08.727226,1709126528.7272258,-123.53515625,-1000.0,-30.2734375,-663.57421875,0.0,0.0,0.0,0.0,2.m4v,11.0
2024-02-28 14:22:08.731131,1709126528.7311313,0.9765625,-931.15234375,-28.3203125,108.88671875,0.0,0.0,0.0,0.0,2.m4v,11.0
2024-02-28 14:22:08.735037,1709126528.7350366,-21.97265625,-1000.0,-32.2265625,-215.33203125,0.0,0.0,0.0,0.0,2.m4v,11.0
2024-02-28 14:22:08.738942,1709126528.738942,-144.53125,-965.8203125,-39.55078125,-1000.0,0.0,0.0,0.0,0.0,2.m4v,11.0
2024-02-28 14:22:08.742848,1709126528.7428477,-133.30078125,-1000.0,-37.59765625,-781.25,0.0,0.0,0.0,0.0,2.m4v,11.0
2024-02-28 14:22:08.746753,1709126528.746753,52.24609375,-2.44140625,-42.96875,604.4921875,0.0,0.0,0.0,0.0,2.m4v,11.0
2024-02-28 14:22:08.750666,1709126528.7506664,118.65234375,990.72265625,-52.734375,999.51171875,0.0,0.0,0.0,0.0,2.m4v,11.0
2024-02-28 14:22:08.754572,1709126528.754572,50.78125,990.234375,-56.15234375,851.07421875,0.0,0.0,0.0,0.0,2.m4v,11.0
2024-02-28 14:22:08.758477,1709126528.7584774,-57.6171875,841.30859375,-45.41015625,-137.6953125,0.0,0.0,0.0,0.0,2.m4v,11.0
2024-02-28 14:22:08.762383,1709126528.7623827,-187.98828125,-698.2421875,-35.64453125,-1000.0,0.0,0.0,0.0,0.0,2.m4v,11.0
2024-02-28 14:22:08.766288,1709126528.7662885,-136.23046875,-1000.0,-35.64453125,-695.80078125,0.0,0.0,0.0,0.0,2.m4v,11.0
2024-02-28 14:22:08.770194,1709126528.7701938,69.3359375,494.62890625,-44.43359375,675.29296875,0.0,0.0,0.0,0.0,2.m4v,11.0
2024-02-28 14:22:08.774099,1709126528.774099,112.79296875,999.51171875,-39.0625,999.51171875,0.0,0.0,0.0,0.0,2.m4v,11.0
2024-02-28 14:22:08.778005,1709126528.7780046,-35.64453125,636.23046875,-26.85546875,20.99609375,0.0,0.0,0.0,0.0,2.m4v,11.0
2024-02-28 14:22:08.781910,1709126528.7819102,-183.10546875,-748.53515625,-35.64453125,-1000.0,0.0,0.0,0.0,0.0,2.m4v,11.0
2024-02-28 14:22:08.785815,1709126528.7858157,-151.85546875,-1000.0,-38.0859375,-900.390625,0.0,0.0,0.0,0.0,2.m4v,11.0
2024-02-28 14:22:08.789721,1709126528.789721,20.01953125,-932.6171875,-24.4140625,512.6953125,0.0,0.0,0.0,0.0,2.m4v,11.0
2024-02-28 14:22:08.793627,1709126528.7936263,63.4765625,-1000.0,-26.85546875,946.2890625,0.0,0.0,0.0,0.0,2.m4v,11.0
2024-02-28 14:22:08.797539,1709126528.7975392,-74.21875,-942.3828125,-33.69140625,-512.6953125,0.0,0.0,0.0,0.0,2.m4v,11.0
2024-02-28 14:22:08.801445,1709126528.8014448,-163.0859375,-1000.0,-35.15625,-1000.0,0.0,0.0,0.0,0.0,2.m4v,11.0
2024-02-28 14:22:08.805350,1709126528.8053503,-60.546875,-890.13671875,-38.0859375,-217.7734375,0.0,0.0,0.0,0.0,2.m4v,11.0
2024-02-28 14:22:08.809256,1709126528.8092556,108.88671875,567.3828125,-36.1328125,882.32421875,0.0,0.0,0.0,0.0,2.m4v,11.0
2024-02-28 14:22:08.813161,1709126528.8131611,105.95703125,999.51171875,-33.203125,981.4453125,0.0,0.0,0.0,0.0,2.m4v,11.0
2024-02-28 14:22:08.817067,1709126528.817067,28.80859375,895.01953125,-29.78515625,697.75390625,0.0,0.0,0.0,0.0,2.m4v,11.0
2024-02-28 14:22:08.820972,1709126528.820972,-74.70703125,994.140625,-39.0625,-189.94140625,0.0,0.0,0.0,0.0,2.m4v,11.0
2024-02-28 14:22:08.824878,1709126528.8248775,-113.28125,938.4765625,-43.9453125,-586.42578125,0.0,0.0,0.0,0.0,2.m4v,11.0
2024-02-28 14:22:08.828783,1709126528.828783,24.90234375,963.37890625,-43.9453125,726.07421875,0.0,0.0,0.0,0.0,2.m4v,11.0
2024-02-28 14:22:08.832688,1709126528.8326883,48.828125,999.51171875,-46.38671875,834.47265625,0.0,0.0,0.0,0.0,2.m4v,11.0
2024-02-28 14:22:08.836594,1709126528.836594,-129.39453125,-285.15625,-34.1796875,-671.875,0.0,0.0,0.0,0.0,2.m4v,11.0
2024-02-28 14:22:08.840499,1709126528.8404994,-201.66015625,-1000.0,-23.92578125,-1000.0,0.0,0.0,0.0,0.0,2.m4v,11.0
2024-02-28 14:22:08.844412,1709126528.8444118,-135.25390625,-1000.0,-24.4140625,-873.53515625,0.0,0.0,0.0,0.0,2.m4v,11.0
2024-02-28 14:22:08.848317,1709126528.8483171,10.7421875,-814.94140625,-33.203125,259.27734375,0.0,0.0,0.0,0.0,2.m4v,11.0
2024-02-28 14:22:08.852223,1709126528.8522227,121.09375,657.71484375,-35.15625,999.51171875,0.0,0.0,0.0,0.0,2.m4v,11.0
2024-02-28 14:22:08.856128,1709126528.8561282,63.4765625,999.51171875,-24.90234375,713.37890625,0.0,0.0,0.0,0.0,2.m4v,11.0
2024-02-28 14:22:08.860034,1709126528.8600335,-103.02734375,898.92578125,-23.92578125,-669.43359375,0.0,0.0,0.0,0.0,2.m4v,11.0
2024-02-28 14:22:08.863939,1709126528.863939,-130.859375,999.51171875,-30.2734375,-911.1328125,0.0,0.0,0.0,0.0,2.m4v,11.0
2024-02-28 14:22:08.867845,1709126528.8678446,56.15234375,908.203125,-31.73828125,754.8828125,0.0,0.0,0.0,0.0,2.m4v,11.0
2024-02-28 14:22:08.871750,1709126528.87175,78.125,999.51171875,-33.69140625,944.3359375,0.0,0.0,0.0,0.0,2.m4v,11.0
2024-02-28 14:22:08.875655,1709126528.8756554,-99.609375,794.43359375,-42.48046875,-588.8671875,0.0,0.0,0.0,0.0,2.m4v,11.0
2024-02-28 14:22:08.879561,1709126528.879561,-192.3828125,-613.28125,-46.875,-1000.0,0.0,0.0,0.0,0.0,2.m4v,11.0
2024-02-28 14:22:08.883466,1709126528.8834662,-171.38671875,-1000.0,-45.41015625,-979.98046875,0.0,0.0,0.0,0.0,2.m4v,11.0
2024-02-28 14:22:08.887372,1709126528.8873718,-40.0390625,-153.3203125,-40.52734375,-151.3671875,0.0,0.0,0.0,0.0,2.m4v,11.0
2024-02-28 14:22:08.891284,1709126528.891284,118.65234375,986.328125,-31.73828125,999.51171875,0.0,0.0,0.0,0.0,2.m4v,11.0
2024-02-28 14:22:08.895190,1709126528.8951895,73.73046875,962.890625,-33.69140625,855.95703125,0.0,0.0,0.0,0.0,2.m4v,11.0
2024-02-28 14:22:08.899095,1709126528.8990948,-93.75,940.4296875,-33.203125,-530.2734375,0.0,0.0,0.0,0.0,2.m4v,11.0
2024-02-28 14:22:08.903000,1709126528.9030004,-149.90234375,979.98046875,-24.90234375,-1000.0,0.0,0.0,0.0,0.0,2.m4v,11.0
2024-02-28 14:22:08.906906,1709126528.906906,-13.18359375,969.7265625,-31.25,310.05859375,0.0,0.0,0.0,0.0,2.m4v,11.0
2024-02-28 14:22:08.910811,1709126528.9108112,82.51953125,915.52734375,-41.50390625,999.51171875,0.0,0.0,0.0,0.0,2.m4v,11.0
2024-02-28 14:22:08.914717,1709126528.9147167,13.18359375,999.51171875,-35.15625,460.9375,0.0,0.0,0.0,0.0,2.m4v,11.0
2024-02-28 14:22:08.918622,1709126528.9186225,-150.87890625,274.4140625,-25.87890625,-759.27734375,0.0,0.0,0.0,0.0,2.m4v,11.0
2024-02-28 14:22:08.922528,1709126528.9225276,-204.58984375,-983.88671875,-22.4609375,-1000.0,0.0,0.0,0.0,0.0,2.m4v,11.0
2024-02-28 14:22:08.926433,1709126528.926433,-105.95703125,-1000.0,-22.4609375,-593.26171875,0.0,0.0,0.0,0.0,2.m4v,11.0
2024-02-28 14:22:08.930339,1709126528.9303386,65.4296875,169.43359375,-22.4609375,631.8359375,0.0,0.0,0.0,0.0,2.m4v,11.0
2024-02-28 14:22:08.934244,1709126528.934244,120.60546875,999.51171875,-22.4609375,999.51171875,0.0,0.0,0.0,0.0,2.m4v,11.0
2024-02-28 14:22:08.938155,1709126528.9381552,1.953125,916.015625,-26.3671875,296.875,0.0,0.0,0.0,0.0,2.m4v,11.0
2024-02-28 14:22:08.942061,1709126528.9420607,-139.16015625,966.30859375,-34.1796875,-917.48046875,0.0,0.0,0.0,0.0,2.m4v,11.0
2024-02-28 14:22:08.945966,1709126528.9459662,-76.66015625,971.6796875,-34.1796875,-437.01171875,0.0,0.0,0.0,0.0,2.m4v,11.0
2024-02-28 14:22:08.949872,1709126528.9498715,95.703125,969.7265625,-33.69140625,978.02734375,0.0,0.0,0.0,0.0,2.m4v,11.0
2024-02-28 14:22:08.953777,1709126528.953777,54.19921875,969.7265625,-40.52734375,721.6796875,0.0,0.0,0.0,0.0,2.m4v,11.0
2024-02-28 14:22:08.957683,1709126528.9576826,-106.93359375,969.7265625,-35.64453125,-697.75390625,0.0,0.0,0.0,0.0,2.m4v,11.0
2024-02-28 14:22:08.961588,1709126528.961588,-149.4140625,980.46875,-29.296875,-1000.0,0.0,0.0,0.0,0.0,2.m4v,11.0
2024-02-28 14:22:08.965493,1709126528.9654934,-40.0390625,932.12890625,-36.62109375,-95.703125,0.0,0.0,0.0,0.0,2.m4v,11.0
2024-02-28 14:22:08.969399,1709126528.969399,83.49609375,976.07421875,-36.1328125,999.51171875,0.0,0.0,0.0,0.0,2.m4v,11.0
2024-02-28 14:22:08.973304,1709126528.9733045,43.9453125,989.2578125,-29.78515625,643.06640625,0.0,0.0,0.0,0.0,2.m4v,11.0
2024-02-28 14:22:08.977210,1709126528.9772098,-131.34765625,-349.609375,-28.80859375,-687.01171875,0.0,0.0,0.0,0.0,2.m4v,11.0
2024-02-28 14:22:08.981115,1709126528.981115,-198.2421875,-1000.0,-25.390625,-1000.0,0.0,0.0,0.0,0.0,2.m4v,11.0
2024-02-28 14:22:08.985026,1709126528.985026,-128.41796875,-931.15234375,-20.99609375,-839.35546875,0.0,0.0,0.0,0.0,2.m4v,11.0
2024-02-28 14:22:08.988932,1709126528.9889317,26.85546875,-1000.0,-31.73828125,556.640625,0.0,0.0,0.0,0.0,2.m4v,11.0
2024-02-28 14:22:08.992837,1709126528.9928372,65.4296875,-994.140625,-45.41015625,959.9609375,0.0,0.0,0.0,0.0,2.m4v,11.0
2024-02-28 14:22:08.996742,1709126528.9967425,-85.44921875,-952.63671875,-23.4375,-549.8046875,0.0,0.0,0.0,0.0,2.m4v,11.0
2024-02-28 14:22:09.000648,1709126529.000648,-166.9921875,-1000.0,-10.25390625,-1000.0,0.0,0.0,0.0,0.0,2.m4v,11.0
2024-02-28 14:22:09.004554,1709126529.0045536,-35.15625,-139.6484375,-20.01953125,-159.66796875,0.0,0.0,0.0,0.0,2.m4v,11.0
2024-02-28 14:22:09.008459,1709126529.0084589,130.859375,965.33203125,-27.34375,950.1953125,0.0,0.0,0.0,0.0,2.m4v,11.0
2024-02-28 14:22:09.012364,1709126529.0123644,94.7265625,999.51171875,-29.78515625,979.4921875,0.0,0.0,0.0,0.0,2.m4v,11.0
2024-02-28 14:22:09.016270,1709126529.01627,-37.59765625,827.63671875,-23.4375,-41.9921875,0.0,0.0,0.0,0.0,2.m4v,11.0
2024-02-28 14:22:09.020175,1709126529.0201752,-168.9453125,-535.64453125,-18.5546875,-1000.0,0.0,0.0,0.0,0.0,2.m4v,11.0
2024-02-28 14:22:09.024081,1709126529.0240808,-159.66796875,-1000.0,-40.0390625,-979.98046875,0.0,0.0,0.0,0.0,2.m4v,11.0
2024-02-28 14:22:09.027986,1709126529.0279863,-14.16015625,-887.20703125,-56.640625,89.35546875,0.0,0.0,0.0,0.0,2.m4v,11.0
2024-02-28 14:22:09.031897,1709126529.0318966,106.93359375,425.78125,-34.66796875,996.09375,0.0,0.0,0.0,0.0,2.m4v,11.0
2024-02-28 14:22:09.035802,1709126529.035802,91.796875,999.51171875,-23.4375,953.61328125,0.0,0.0,0.0,0.0,2.m4v,11.0
2024-02-28 14:22:09.039707,1709126529.0397074,-30.2734375,896.484375,-21.484375,137.20703125,0.0,0.0,0.0,0.0,2.m4v,11.0
2024-02-28 14:22:09.043613,1709126529.043613,-99.12109375,998.046875,-22.4609375,-522.4609375,0.0,0.0,0.0,0.0,2.m4v,11.0
2024-02-28 14:22:09.047518,1709126529.0475185,2.9296875,911.62109375,-9.27734375,495.60546875,0.0,0.0,0.0,0.0,2.m4v,11.0
2024-02-28 14:22:09.051424,1709126529.0514238,79.1015625,999.51171875,-1.953125,999.51171875,0.0,0.0,0.0,0.0,2.m4v,11.0
2024-02-28 14:22:09.500623,1709126529.5006227,-81.54296875,-979.98046875,-41.50390625,-991.69921875,0.0,0.0,0.0,0.0,2.m4v,11.0
2024-02-28 14:22:09.504528,1709126529.504528,34.66796875,-1000.0,-35.64453125,313.96484375,0.0,0.0,0.0,0.0,2.m4v,11.0
2024-02-28 14:22:09.508434,1709126529.5084336,153.3203125,95.703125,-35.15625,999.51171875,0.0,0.0,0.0,0.0,2.m4v,11.0
2024-02-28 14:22:09.512339,1709126529.512339,148.4375,999.51171875,-20.99609375,939.94140625,0.0,0.0,0.0,0.0,2.m4v,11.0
2024-02-28 14:22:09.516244,1709126529.5162444,82.51953125,924.31640625,-8.7890625,812.98828125,0.0,0.0,0.0,0.0,2.m4v,11.0
2024-02-28 14:22:09.520150,1709126529.52015,-13.18359375,972.65625,-28.80859375,-134.765625,0.0,0.0,0.0,0.0,2.m4v,11.0
2024-02-28 14:22:09.524055,1709126529.5240555,-35.64453125,935.546875,-18.06640625,-358.3984375,0.0,0.0,0.0,0.0,2.m4v,11.0
2024-02-28 14:22:09.527961,1709126529.5279608,80.56640625,975.09765625,-16.6015625,796.875,0.0,0.0,0.0,0.0,2.m4v,11.0
2024-02-28 14:22:09.531866,1709126529.5318663,108.88671875,991.69921875,-32.71484375,914.55078125,0.0,0.0,0.0,0.0,2.m4v,11.0
2024-02-28 14:22:09.535772,1709126529.5357718,-63.96484375,-360.3515625,-17.08984375,-554.6875,0.0,0.0,0.0,0.0,2.m4v,11.0
2024-02-28 14:22:09.539677,1709126529.5396771,-144.53125,-1000.0,-11.71875,-1000.0,0.0,0.0,0.0,0.0,2.m4v,11.0
2024-02-28 14:22:09.543583,1709126529.543583,-81.54296875,-1000.0,-13.671875,-910.64453125,0.0,0.0,0.0,0.0,2.m4v,11.0
2024-02-28 14:22:09.547496,1709126529.547496,55.6640625,-831.0546875,-26.85546875,156.73828125,0.0,0.0,0.0,0.0,2.m4v,11.0
2024-02-28 14:22:09.551402,1709126529.5514016,181.640625,731.93359375,-48.33984375,999.51171875,0.0,0.0,0.0,0.0,2.m4v,11.0
2024-02-28 14:22:09.555307,1709126529.555307,134.765625,999.51171875,-15.13671875,767.08984375,0.0,0.0,0.0,0.0,2.m4v,11.0
2024-02-28 14:22:09.559212,1709126529.5592124,-57.12890625,-503.41796875,10.7421875,-575.68359375,0.0,0.0,0.0,0.0,2.m4v,11.0
2024-02-28 14:22:09.563118,1709126529.563118,-136.23046875,-1000.0,-6.34765625,-1000.0,0.0,0.0,0.0,0.0,2.m4v,11.0
2024-02-28 14:22:09.567023,1709126529.5670233,18.06640625,-832.51953125,-21.484375,-51.7578125,0.0,0.0,0.0,0.0,2.m4v,11.0
2024-02-28 14:22:09.570929,1709126529.5709288,185.546875,533.203125,-11.23046875,975.09765625,0.0,0.0,0.0,0.0,2.m4v,11.0
2024-02-28 14:22:09.574834,1709126529.5748343,164.0625,999.51171875,-17.578125,910.15625,0.0,0.0,0.0,0.0,2.m4v,11.0
2024-02-28 14:22:09.578740,1709126529.5787396,-15.13671875,-171.875,-24.90234375,-318.359375,0.0,0.0,0.0,0.0,2.m4v,11.0
2024-02-28 14:22:09.582645,1709126529.5826452,-120.60546875,-1000.0,3.41796875,-1000.0,0.0,0.0,0.0,0.0,2.m4v,11.0
2024-02-28 14:22:09.586551,1709126529.5865507,-5.37109375,-954.1015625,2.9296875,-374.51171875,0.0,0.0,0.0,0.0,2.m4v,11.0
2024-02-28 14:22:09.590456,1709126529.590456,148.4375,-991.2109375,-27.34375,899.4140625,0.0,0.0,0.0,0.0,2.m4v,11.0
2024-02-28 14:22:09.594368,1709126529.5943685,98.14453125,-1000.0,-35.15625,594.7265625,0.0,0.0,0.0,0.0,2.m4v,11.0
2024-02-28 14:22:09.598274,1709126529.5982738,-58.10546875,-939.453125,-27.83203125,-829.1015625,0.0,0.0,0.0,0.0,2.m4v,11.0
2024-02-28 14:22:09.602179,1709126529.6021793,-72.75390625,-1000.0,-4.39453125,-1000.0,0.0,0.0,0.0,0.0,2.m4v,11.0
2024-02-28 14:22:09.606085,1709126529.6060848,65.4296875,-842.28515625,-9.27734375,216.30859375,0.0,0.0,0.0,0.0,2.m4v,11.0
2024-02-28 14:22:09.609990,1709126529.60999,183.10546875,563.96484375,-20.99609375,998.53515625,0.0,0.0,0.0,0.0,2.m4v,11.0
2024-02-28 14:22:09.613896,1709126529.6138957,149.90234375,999.51171875,-32.2265625,963.8671875,0.0,0.0,0.0,0.0,2.m4v,11.0
2024-02-28 14:22:09.617801,1709126529.6178012,52.734375,866.2109375,-30.76171875,462.890625,0.0,0.0,0.0,0.0,2.m4v,11.0
2024-02-28 14:22:09.621706,1709126529.6217065,-110.3515625,-441.40625,-1.46484375,-775.87890625,0.0,0.0,0.0,0.0,2.m4v,11.0
2024-02-28 14:22:09.625612,1709126529.625612,-134.27734375,-1000.0,-19.53125,-1000.0,0.0,0.0,0.0,0.0,2.m4v,11.0
2024-02-28 14:22:09.629518,1709126529.6295176,8.30078125,-927.24609375,-51.7578125,-88.37890625,0.0,0.0,0.0,0.0,2.m4v,11.0
2024-02-28 14:22:09.633423,1709126529.6334229,77.63671875,-1000.0,-23.92578125,528.3203125,0.0,0.0,0.0,0.0,2.m4v,11.0
2024-02-28 14:22:09.637328,1709126529.6373284,-27.83203125,-936.5234375,-12.6953125,-537.59765625,0.0,0.0,0.0,0.0,2.m4v,11.0
2024-02-28 14:22:09.641240,1709126529.64124,-103.02734375,-1000.0,-57.6171875,-1000.0,0.0,0.0,0.0,0.0,2.m4v,11.0
2024-02-28 14:22:09.645145,1709126529.6451454,22.94921875,-815.91796875,-45.8984375,68.359375,0.0,0.0,0.0,0.0,2.m4v,11.0
2024-02-28 14:22:09.649051,1709126529.649051,165.52734375,654.78515625,-2.9296875,977.5390625,0.0,0.0,0.0,0.0,2.m4v,11.0
2024-02-28 14:22:09.652956,1709126529.6529565,140.13671875,999.51171875,-7.8125,996.58203125,0.0,0.0,0.0,0.0,2.m4v,11.0
2024-02-28 14:22:09.656862,1709126529.6568618,18.06640625,898.4375,-38.57421875,243.65234375,0.0,0.0,0.0,0.0,2.m4v,11.0
2024-02-28 14:22:09.660767,1709126529.6607673,-106.93359375,986.81640625,-31.73828125,-941.40625,0.0,0.0,0.0,0.0,2.m4v,11.0
2024-02-28 14:22:09.664673,1709126529.6646729,-32.2265625,970.21484375,-27.83203125,-206.0546875,0.0,0.0,0.0,0.0,2.m4v,11.0
2024-02-28 14:22:09.668578,1709126529.668578,107.91015625,970.21484375,-33.69140625,999.51171875,0.0,0.0,0.0,0.0,2.m4v,11.0
2024-02-28 14:22:09.672484,1709126529.6724837,60.546875,969.7265625,-27.83203125,660.64453125,0.0,0.0,0.0,0.0,2.m4v,11.0
2024-02-28 14:22:09.676389,1709126529.6763892,-86.9140625,969.7265625,-29.296875,-690.91796875,0.0,0.0,0.0,0.0,2.m4v,11.0
2024-02-28 14:22:09.680295,1709126529.6802945,-128.41796875,970.21484375,-16.11328125,-1000.0,0.0,0.0,0.0,0.0,2.m4v,11.0
2024-02-28 14:22:09.684200,1709126529.6842,-48.828125,969.7265625,-21.484375,-443.359375,0.0,0.0,0.0,0.0,2.m4v,11.0
2024-02-28 14:22:09.688112,1709126529.6881115,94.23828125,969.7265625,-42.96875,819.3359375,0.0,0.0,0.0,0.0,2.m4v,11.0
2024-02-28 14:22:09.692017,1709126529.692017,100.5859375,969.7265625,-34.1796875,966.796875,0.0,0.0,0.0,0.0,2.m4v,11.0
2024-02-28 14:22:09.695923,1709126529.6959226,-45.41015625,969.7265625,-18.5546875,-333.984375,0.0,0.0,0.0,0.0,2.m4v,11.0
2024-02-28 14:22:09.699828,1709126529.699828,-130.859375,970.21484375,-21.97265625,-1000.0,0.0,0.0,0.0,0.0,2.m4v,11.0
2024-02-28 14:22:09.703733,1709126529.7037334,-85.9375,970.21484375,-45.8984375,-787.59765625,0.0,0.0,0.0,0.0,2.m4v,11.0
2024-02-28 14:22:09.707639,1709126529.707639,75.1953125,969.7265625,-8.7890625,623.53515625,0.0,0.0,0.0,0.0,2.m4v,11.0
2024-02-28 14:22:09.711544,1709126529.7115445,118.65234375,970.21484375,-10.7421875,999.51171875,0.0,0.0,0.0,0.0,2.m4v,11.0
2024-02-28 14:22:09.715450,1709126529.7154498,-35.15625,970.21484375,-26.85546875,-236.328125,0.0,0.0,0.0,0.0,2.m4v,11.0
2024-02-28 14:22:09.719355,1709126529.719355,-140.625,969.7265625,-13.671875,-1000.0,0.0,0.0,0.0,0.0,2.m4v,11.0
2024-02-28 14:22:09.723261,1709126529.7232606,-90.8203125,972.16796875,-27.34375,-787.59765625,0.0,0.0,0.0,0.0,2.m4v,11.0
2024-02-28 14:22:09.727166,1709126529.7271662,68.84765625,968.75,-31.25,606.4453125,0.0,0.0,0.0,0.0,2.m4v,11.0
2024-02-28 14:22:09.731071,1709126529.7310717,103.515625,916.9921875,-34.1796875,999.51171875,0.0,0.0,0.0,0.0,2.m4v,11.0
2024-02-28 14:22:09.734983,1709126529.7349827,-22.4609375,999.51171875,-39.55078125,-125.0,0.0,0.0,0.0,0.0,2.m4v,11.0
2024-02-28 14:22:09.738888,1709126529.7388885,-126.953125,263.671875,-26.85546875,-973.6328125,0.0,0.0,0.0,0.0,2.m4v,11.0
2024-02-28 14:22:09.742794,1709126529.7427938,-148.4375,-986.328125,-15.625,-1000.0,0.0,0.0,0.0,0.0,2.m4v,11.0
2024-02-28 14:22:09.746699,1709126529.746699,-56.640625,-1000.0,-22.4609375,-477.05078125,0.0,0.0,0.0,0.0,2.m4v,11.0
2024-02-28 14:22:09.750605,1709126529.7506046,105.46875,169.921875,-11.23046875,736.328125,0.0,0.0,0.0,0.0,2.m4v,11.0
2024-02-28 14:22:09.754510,1709126529.7545102,140.13671875,999.51171875,-28.80859375,999.51171875,0.0,0.0,0.0,0.0,2.m4v,11.0
2024-02-28 14:22:09.758415,1709126529.7584157,51.26953125,916.50390625,-37.59765625,675.29296875,0.0,0.0,0.0,0.0,2.m4v,11.0
2024-02-28 14:22:09.762321,1709126529.762321,-66.40625,982.421875,-7.32421875,-313.96484375,0.0,0.0,0.0,0.0,2.m4v,11.0
2024-02-28 14:22:09.766227,1709126529.7662263,-59.5703125,914.55078125,-22.94921875,-227.5390625,0.0,0.0,0.0,0.0,2.m4v,11.0
2024-02-28 14:22:09.770132,1709126529.7701318,67.3828125,999.51171875,-50.78125,936.5234375,0.0,0.0,0.0,0.0,2.m4v,11.0
2024-02-28 14:22:09.774037,1709126529.7740374,15.625,848.6328125,-57.6171875,327.63671875,0.0,0.0,0.0,0.0,2.m4v,11.0
2024-02-28 14:22:09.777943,1709126529.777943,-157.2265625,-532.71484375,-44.43359375,-887.6953125,0.0,0.0,0.0,0.0,2.m4v,11.0
2024-02-28 14:22:09.781853,1709126529.7818532,-180.6640625,-1000.0,-5.859375,-1000.0,0.0,0.0,0.0,0.0,2.m4v,11.0
2024-02-28 14:22:09.785759,1709126529.7857587,-79.58984375,-801.26953125,0.9765625,-531.25,0.0,0.0,0.0,0.0,2.m4v,11.0
2024-02-28 14:22:09.789664,1709126529.789664,107.421875,496.58203125,-18.06640625,752.9296875,0.0,0.0,0.0,0.0,2.m4v,11.0
2024-02-28 14:22:09.793570,1709126529.7935696,135.7421875,999.51171875,-28.3203125,999.51171875,0.0,0.0,0.0,0.0,2.m4v,11.0
2024-02-28 14:22:09.797475,1709126529.797475,-11.23046875,880.859375,-25.390625,-7.8125,0.0,0.0,0.0,0.0,2.m4v,11.0
2024-02-28 14:22:09.801380,1709126529.8013804,-158.69140625,-614.2578125,-30.2734375,-1000.0,0.0,0.0,0.0,0.0,2.m4v,11.0
2024-02-28 14:22:09.805286,1709126529.805286,-104.4921875,-891.6015625,-42.96875,-708.49609375,0.0,0.0,0.0,0.0,2.m4v,11.0
2024-02-28 14:22:09.809191,1709126529.8091912,94.7265625,692.87109375,-38.57421875,742.67578125,0.0,0.0,0.0,0.0,2.m4v,11.0
2024-02-28 14:22:09.813097,1709126529.8130968,112.3046875,999.51171875,-29.78515625,999.51171875,0.0,0.0,0.0,0.0,2.m4v,11.0
2024-02-28 14:22:09.817002,1709126529.8170023,-53.22265625,502.9296875,-33.203125,-284.1796875,0.0,0.0,0.0,0.0,2.m4v,11.0
2024-02-28 14:22:09.820908,1709126529.8209076,-178.7109375,-775.390625,-25.390625,-1000.0,0.0,0.0,0.0,0.0,2.m4v,11.0
2024-02-28 14:22:09.824813,1709126529.8248131,-127.9296875,-1000.0,-23.4375,-831.54296875,0.0,0.0,0.0,0.0,2.m4v,11.0
2024-02-28 14:22:09.828727,1709126529.828727,22.94921875,-757.32421875,-47.36328125,409.66796875,0.0,0.0,0.0,0.0,2.m4v,11.0
2024-02-28 14:22:09.832633,1709126529.8326323,120.1171875,633.7890625,-43.45703125,999.51171875,0.0,0.0,0.0,0.0,2.m4v,11.0
2024-02-28 14:22:09.836538,1709126529.836538,66.40625,999.51171875,-16.6015625,670.8984375,0.0,0.0,0.0,0.0,2.m4v,11.0
2024-02-28 14:22:09.840443,1709126529.8404434,-83.0078125,898.92578125,-39.0625,-640.13671875,0.0,0.0,0.0,0.0,2.m4v,11.0
2024-02-28 14:22:09.844349,1709126529.844349,-94.7265625,999.51171875,-39.0625,-767.08984375,0.0,0.0,0.0,0.0,2.m4v,11.0
2024-02-28 14:22:09.848254,1709126529.8482544,63.4765625,904.296875,-9.27734375,736.81640625,0.0,0.0,0.0,0.0,2.m4v,11.0
2024-02-28 14:22:09.852160,1709126529.8521595,89.35546875,999.51171875,-34.66796875,999.51171875,0.0,0.0,0.0,0.0,2.m4v,11.0
2024-02-28 14:22:09.856065,1709126529.8560653,-59.08203125,764.6484375,-50.78125,-190.91796875,0.0,0.0,0.0,0.0,2.m4v,11.0
2024-02-28 14:22:09.859971,1709126529.8599708,-190.4296875,-708.0078125,-16.6015625,-1000.0,0.0,0.0,0.0,0.0,2.m4v,11.0
2024-02-28 14:22:09.863876,1709126529.863876,-154.296875,-1000.0,-11.23046875,-988.76953125,0.0,0.0,0.0,0.0,2.m4v,11.0
2024-02-28 14:22:09.867782,1709126529.8677816,-7.8125,-929.6875,-24.4140625,54.19921875,0.0,0.0,0.0,0.0,2.m4v,11.0
2024-02-28 14:22:09.871687,1709126529.8716872,94.7265625,-1000.0,-39.55078125,992.1875,0.0,0.0,0.0,0.0,2.m4v,11.0
2024-02-28 14:22:09.875601,1709126529.8756006,-5.859375,-1000.0,-33.203125,-53.22265625,0.0,0.0,0.0,0.0,2.m4v,11.0
2024-02-28 14:22:09.879506,1709126529.879506,-131.8359375,-936.03515625,-20.99609375,-1000.0,0.0,0.0,0.0,0.0,2.m4v,11.0
2024-02-28 14:22:09.883411,1709126529.8834114,-105.95703125,-1000.0,-20.01953125,-851.5625,0.0,0.0,0.0,0.0,2.m4v,11.0
2024-02-28 14:22:09.887317,1709126529.887317,68.84765625,-402.34375,-4.8828125,519.53125,0.0,0.0,0.0,0.0,2.m4v,11.0
2024-02-28 14:22:09.891222,1709126529.8912225,161.1328125,936.5234375,-25.87890625,999.51171875,0.0,0.0,0.0,0.0,2.m4v,11.0
2024-02-28 14:22:09.895128,1709126529.8951278,96.6796875,991.69921875,-59.08203125,937.98828125,0.0,0.0,0.0,0.0,2.m4v,11.0
2024-02-28 14:22:09.899033,1709126529.8990333,-0.9765625,927.24609375,-27.34375,312.98828125,0.0,0.0,0.0,0.0,2.m4v,11.0
2024-02-28 14:22:09.902939,1709126529.9029386,-124.0234375,998.53515625,-19.04296875,-927.734375,0.0,0.0,0.0,0.0,2.m4v,11.0
2024-02-28 14:22:09.906844,1709126529.906844,-67.3828125,910.15625,-31.73828125,-289.0625,0.0,0.0,0.0,0.0,2.m4v,11.0
2024-02-28 14:22:09.910750,1709126529.9107497,77.63671875,999.51171875,-24.4140625,999.51171875,0.0,0.0,0.0,0.0,2.m4v,11.0
2024-02-28 14:22:09.914655,1709126529.914655,-13.671875,832.03125,-23.92578125,210.44921875,0.0,0.0,0.0,0.0,2.m4v,11.0
2024-02-28 14:22:09.918561,1709126529.9185605,-187.01171875,-588.8671875,-35.15625,-935.546875,0.0,0.0,0.0,0.0,2.m4v,11.0
2024-02-28 14:22:09.922474,1709126529.922474,-184.08203125,-1000.0,-52.24609375,-1000.0,0.0,0.0,0.0,0.0,2.m4v,11.0
2024-02-28 14:22:09.926379,1709126529.9263792,-71.77734375,-962.890625,-45.8984375,-390.625,0.0,0.0,0.0,0.0,2.m4v,11.0
2024-02-28 14:22:09.930285,1709126529.9302847,84.47265625,236.81640625,-22.94921875,796.38671875,0.0,0.0,0.0,0.0,2.m4v,11.0
2024-02-28 14:22:09.934190,1709126529.9341905,108.3984375,999.51171875,-23.4375,999.51171875,0.0,0.0,0.0,0.0,2.m4v,11.0
2024-02-28 14:22:09.938096,1709126529.9380956,-19.04296875,906.25,-38.0859375,116.2109375,0.0,0.0,0.0,0.0,2.m4v,11.0
2024-02-28 14:22:09.942001,1709126529.942001,-128.41796875,989.2578125,-47.8515625,-936.03515625,0.0,0.0,0.0,0.0,2.m4v,11.0
2024-02-28 14:22:09.945907,1709126529.9459066,-41.50390625,912.59765625,-34.66796875,37.109375,0.0,0.0,0.0,0.0,2.m4v,11.0
2024-02-28 14:22:09.949812,1709126529.949812,75.68359375,999.51171875,-39.0625,999.51171875,0.0,0.0,0.0,0.0,2.m4v,11.0
2024-02-28 14:22:09.953717,1709126529.9537177,-0.48828125,849.609375,-42.96875,424.8046875,0.0,0.0,0.0,0.0,2.m4v,11.0
2024-02-28 14:22:09.957623,1709126529.957623,-174.31640625,-557.6171875,-30.76171875,-773.4375,0.0,0.0,0.0,0.0,2.m4v,11.0
2024-02-28 14:22:09.961528,1709126529.9615283,-196.77734375,-1000.0,-32.71484375,-1000.0,0.0,0.0,0.0,0.0,2.m4v,11.0
2024-02-28 14:22:09.965434,1709126529.9654338,-104.98046875,-919.921875,-28.3203125,-672.8515625,0.0,0.0,0.0,0.0,2.m4v,11.0
2024-02-28 14:22:09.969347,1709126529.9693468,67.3828125,268.06640625,-26.85546875,633.7890625,0.0,0.0,0.0,0.0,2.m4v,11.0
2024-02-28 14:22:09.973252,1709126529.9732523,125.48828125,999.51171875,-35.64453125,999.51171875,0.0,0.0,0.0,0.0,2.m4v,11.0
2024-02-28 14:22:09.977158,1709126529.9771576,-3.90625,776.3671875,-22.4609375,273.4375,0.0,0.0,0.0,0.0,2.m4v,11.0
2024-02-28 14:22:09.981063,1709126529.9810631,-172.8515625,-513.671875,-29.296875,-850.5859375,0.0,0.0,0.0,0.0,2.m4v,11.0
2024-02-28 14:22:09.984969,1709126529.984969,-187.98828125,-1000.0,-17.578125,-1000.0,0.0,0.0,0.0,0.0,2.m4v,11.0
2024-02-28 14:22:09.988874,1709126529.988874,-18.5546875,-646.97265625,-11.71875,79.1015625,0.0,0.0,0.0,0.0,2.m4v,11.0
2024-02-28 14:22:09.992779,1709126529.9927795,118.65234375,653.3203125,-33.69140625,999.51171875,0.0,0.0,0.0,0.0,2.m4v,11.0
2024-02-28 14:22:09.996685,1709126529.996685,58.10546875,999.51171875,-29.78515625,720.21484375,0.0,0.0,0.0,0.0,2.m4v,11.0
2024-02-28 14:22:10.000590,1709126530.0005903,-98.6328125,606.4453125,-33.203125,-432.6171875,0.0,0.0,0.0,0.0,2.m4v,11.0
2024-02-28 14:22:10.004496,1709126530.004496,-176.26953125,-776.85546875,-21.97265625,-1000.0,0.0,0.0,0.0,0.0,2.m4v,11.0
2024-02-28 14:22:10.008401,1709126530.0084014,-104.00390625,-1000.0,-36.1328125,-743.1640625,0.0,0.0,0.0,0.0,2.m4v,11.0
2024-02-28 14:22:10.012307,1709126530.0123067,-41.015625,-941.40625,-44.921875,-459.9609375,0.0,0.0,0.0,0.0,2.m4v,11.0
2024-02-28 14:22:10.016218,1709126530.0162184,-70.80078125,-995.1171875,-25.87890625,-860.83984375,0.0,0.0,0.0,0.0,2.m4v,11.0
2024-02-28 14:22:10.020124,1709126530.020124,-98.14453125,-977.05078125,-28.80859375,-1000.0,0.0,0.0,0.0,0.0,2.m4v,11.0
2024-02-28 14:22:10.024029,1709126530.0240295,-12.6953125,-1000.0,-35.15625,-22.94921875,0.0,0.0,0.0,0.0,2.m4v,11.0
2024-02-28 14:22:10.027935,1709126530.0279348,100.5859375,118.65234375,-40.52734375,952.63671875,0.0,0.0,0.0,0.0,2.m4v,11.0
2024-02-28 14:22:10.031840,1709126530.0318403,79.1015625,999.51171875,-52.24609375,974.12109375,0.0,0.0,0.0,0.0,2.m4v,11.0
2024-02-28 14:22:10.035746,1709126530.035746,-5.37109375,959.9609375,-54.6875,740.72265625,0.0,0.0,0.0,0.0,2.m4v,11.0
2024-02-28 14:22:10.039651,1709126530.0396512,-132.32421875,894.04296875,-53.22265625,-343.75,0.0,0.0,0.0,0.0,2.m4v,11.0
2024-02-28 14:22:10.043557,1709126530.0435567,-248.046875,-530.2734375,-41.50390625,-1000.0,0.0,0.0,0.0,0.0,2.m4v,11.0
2024-02-28 14:22:10.047462,1709126530.0474622,-230.95703125,-1000.0,-55.17578125,-938.4765625,0.0,0.0,0.0,0.0,2.m4v,11.0
2024-02-28 14:22:10.051368,1709126530.0513675,-184.08203125,-942.3828125,-48.828125,-879.8828125,0.0,0.0,0.0,0.0,2.m4v,11.0
2024-02-28 14:22:10.055273,1709126530.055273,-190.91796875,-956.54296875,-39.0625,-968.26171875,0.0,0.0,0.0,0.0,2.m4v,11.0
2024-02-28 14:22:10.059179,1709126530.0591786,-219.23828125,-1000.0,-36.62109375,-1000.0,0.0,0.0,0.0,0.0,2.m4v,11.0
2024-02-28 14:22:10.063090,1709126530.0630898,-150.87890625,-882.8125,-33.69140625,-121.58203125,0.0,0.0,0.0,0.0,2.m4v,11.0
2024-02-28 14:22:10.066995,1709126530.0669951,-21.97265625,543.9453125,-47.36328125,905.76171875,0.0,0.0,0.0,0.0,2.m4v,11.0
2024-02-28 14:22:10.070901,1709126530.070901,-51.7578125,999.51171875,-48.828125,999.51171875,0.0,0.0,0.0,0.0,2.m4v,11.0
2024-02-28 14:22:10.074806,1709126530.0748062,-152.34375,943.84765625,-51.7578125,470.21484375,0.0,0.0,0.0,0.0,2.m4v,11.0
2024-02-28 14:22:10.078712,1709126530.0787115,-299.31640625,-89.84375,-45.8984375,-772.94921875,0.0,0.0,0.0,0.0,2.m4v,11.0
2024-02-28 14:22:10.082617,1709126530.082617,-356.4453125,-1000.0,-41.50390625,-1000.0,0.0,0.0,0.0,0.0,2.m4v,11.0
2024-02-28 14:22:10.531814,1709126530.5318136,107.91015625,724.609375,-32.2265625,999.51171875,0.0,0.0,0.0,0.0,2.m4v,11.0
2024-02-28 14:22:10.535719,1709126530.5357192,54.6875,999.51171875,-37.59765625,810.05859375,0.0,0.0,0.0,0.0,2.m4v,11.0
2024-02-28 14:22:10.539624,1709126530.5396245,-100.5859375,901.85546875,-40.52734375,-479.00390625,0.0,0.0,0.0,0.0,2.m4v,11.0
2024-02-28 14:22:10.543530,1709126530.54353,-142.578125,999.51171875,-30.76171875,-983.88671875,0.0,0.0,0.0,0.0,2.m4v,11.0
2024-02-28 14:22:10.547436,1709126530.5474355,12.20703125,918.9453125,-27.83203125,480.95703125,0.0,0.0,0.0,0.0,2.m4v,11.0
2024-02-28 14:22:10.551341,1709126530.5513408,90.8203125,999.51171875,-30.2734375,999.51171875,0.0,0.0,0.0,0.0,2.m4v,11.0
2024-02-28 14:22:10.555246,1709126530.5552464,11.23046875,898.92578125,-27.83203125,436.5234375,0.0,0.0,0.0,0.0,2.m4v,11.0
2024-02-28 14:22:10.559152,1709126530.559152,-159.66796875,-469.23828125,-35.64453125,-756.34765625,0.0,0.0,0.0,0.0,2.m4v,11.0
2024-02-28 14:22:10.563057,1709126530.5630572,-197.75390625,-1000.0,-35.15625,-1000.0,0.0,0.0,0.0,0.0,2.m4v,11.0
2024-02-28 14:22:10.566963,1709126530.5669627,-89.35546875,-897.4609375,-37.109375,-489.2578125,0.0,0.0,0.0,0.0,2.m4v,11.0
2024-02-28 14:22:10.570868,1709126530.5708685,64.453125,318.359375,-47.8515625,733.3984375,0.0,0.0,0.0,0.0,2.m4v,11.0
2024-02-28 14:22:10.574774,1709126530.5747736,95.703125,999.51171875,-28.3203125,999.51171875,0.0,0.0,0.0,0.0,2.m4v,11.0
2024-02-28 14:22:10.578688,1709126530.578688,-46.38671875,775.390625,-18.06640625,5.37109375,0.0,0.0,0.0,0.0,2.m4v,11.0
2024-02-28 14:22:10.582593,1709126530.5825934,-193.84765625,-603.515625,-33.69140625,-986.328125,0.0,0.0,0.0,0.0,2.m4v,11.0
2024-02-28 14:22:10.586499,1709126530.586499,-152.34375,-1000.0,-34.1796875,-879.8828125,0.0,0.0,0.0,0.0,2.m4v,11.0
2024-02-28 14:22:10.590404,1709126530.5904045,-12.6953125,-930.6640625,-28.80859375,124.51171875,0.0,0.0,0.0,0.0,2.m4v,11.0
2024-02-28 14:22:10.594310,1709126530.5943098,5.37109375,-1000.0,-26.85546875,234.86328125,0.0,0.0,0.0,0.0,2.m4v,11.0
2024-02-28 14:22:10.598215,1709126530.598215,-103.02734375,-965.33203125,-28.3203125,-902.83203125,0.0,0.0,0.0,0.0,2.m4v,11.0
2024-02-28 14:22:10.602121,1709126530.6021206,-116.69921875,-1000.0,-32.71484375,-868.65234375,0.0,0.0,0.0,0.0,2.m4v,11.0
2024-02-28 14:22:10.606026,1709126530.6060262,48.33984375,6.8359375,-32.71484375,544.921875,0.0,0.0,0.0,0.0,2.m4v,11.0
2024-02-28 14:22:10.609932,1709126530.6099317,126.46484375,995.60546875,-39.55078125,999.51171875,0.0,0.0,0.0,0.0,2.m4v,11.0
2024-02-28 14:22:10.613837,1709126530.613837,53.22265625,998.53515625,-57.12890625,762.6953125,0.0,0.0,0.0,0.0,2.m4v,11.0
2024-02-28 14:22:10.617743,1709126530.6177423,-87.890625,790.52734375,-56.640625,-446.77734375,0.0,0.0,0.0,0.0,2.m4v,11.0
2024-02-28 14:22:10.621648,1709126530.621648,-193.359375,-747.55859375,-42.96875,-1000.0,0.0,0.0,0.0,0.0,2.m4v,11.0
2024-02-28 14:22:10.625562,1709126530.6255622,-114.74609375,-1000.0,-41.015625,-697.265625,0.0,0.0,0.0,0.0,2.m4v,11.0
2024-02-28 14:22:10.629467,1709126530.6294675,76.171875,534.66796875,-35.15625,605.46875,0.0,0.0,0.0,0.0,2.m4v,11.0
2024-02-28 14:22:10.633373,1709126530.633373,112.3046875,999.51171875,-24.4140625,999.51171875,0.0,0.0,0.0,0.0,2.m4v,11.0
2024-02-28 14:22:10.637279,1709126530.6372786,-0.48828125,999.51171875,-25.390625,295.8984375,0.0,0.0,0.0,0.0,2.m4v,11.0
2024-02-28 14:22:10.641184,1709126530.641184,-137.6953125,14.16015625,-33.69140625,-877.9296875,0.0,0.0,0.0,0.0,2.m4v,11.0
2024-02-28 14:22:10.645089,1709126530.6450894,-161.62109375,-1000.0,-33.203125,-934.08203125,0.0,0.0,0.0,0.0,2.m4v,11.0
2024-02-28 14:22:10.648995,1709126530.648995,1.46484375,54.19921875,-30.76171875,442.87109375,0.0,0.0,0.0,0.0,2.m4v,11.0
2024-02-28 14:22:10.652900,1709126530.6529002,92.7734375,999.51171875,-28.80859375,999.51171875,0.0,0.0,0.0,0.0,2.m4v,11.0
2024-02-28 14:22:10.656806,1709126530.6568058,7.32421875,999.51171875,-24.90234375,361.81640625,0.0,0.0,0.0,0.0,2.m4v,11.0
2024-02-28 14:22:10.660711,1709126530.6607113,-141.6015625,252.44140625,-24.4140625,-771.97265625,0.0,0.0,0.0,0.0,2.m4v,11.0
2024-02-28 14:22:10.664617,1709126530.6646166,-186.03515625,-998.53515625,-21.484375,-1000.0,0.0,0.0,0.0,0.0,2.m4v,11.0
2024-02-28 14:22:10.668522,1709126530.668522,-54.19921875,-1000.0,-22.4609375,-220.703125,0.0,0.0,0.0,0.0,2.m4v,11.0
2024-02-28 14:22:10.672435,1709126530.672435,63.96484375,-972.16796875,-28.3203125,865.72265625,0.0,0.0,0.0,0.0,2.m4v,11.0
2024-02-28 14:22:10.676340,1709126530.6763403,-30.2734375,-985.83984375,-29.78515625,39.55078125,0.0,0.0,0.0,0.0,2.m4v,11.0
2024-02-28 14:22:10.680246,1709126530.680246,-165.0390625,-980.46875,-35.15625,-1000.0,0.0,0.0,0.0,0.0,2.m4v,11.0
2024-02-28 14:22:10.684151,1709126530.6841514,-118.65234375,-1000.0,-39.55078125,-688.96484375,0.0,0.0,0.0,0.0,2.m4v,11.0
2024-02-28 14:22:10.688057,1709126530.6880567,71.77734375,153.3203125,-41.50390625,654.296875,0.0,0.0,0.0,0.0,2.m4v,11.0
2024-02-28 14:22:10.691962,1709126530.6919622,127.44140625,999.51171875,-38.57421875,999.51171875,0.0,0.0,0.0,0.0,2.m4v,11.0
2024-02-28 14:22:10.695868,1709126530.6958678,32.71484375,984.86328125,-28.80859375,733.3984375,0.0,0.0,0.0,0.0,2.m4v,11.0
2024-02-28 14:22:10.699773,1709126530.699773,-107.91015625,797.8515625,-22.94921875,-457.51953125,0.0,0.0,0.0,0.0,2.m4v,11.0
2024-02-28 14:22:10.703679,1709126530.7036786,-192.87109375,-663.57421875,-32.2265625,-1000.0,0.0,0.0,0.0,0.0,2.m4v,11.0
2024-02-28 14:22:10.707584,1709126530.707584,-102.5390625,-1000.0,-40.0390625,-472.16796875,0.0,0.0,0.0,0.0,2.m4v,11.0
2024-02-28 14:22:10.711489,1709126530.7114894,33.69140625,-937.98828125,-33.69140625,650.87890625,0.0,0.0,0.0,0.0,2.m4v,11.0
2024-02-28 14:22:10.715395,1709126530.715395,-4.8828125,-980.95703125,-25.390625,286.1328125,0.0,0.0,0.0,0.0,2.m4v,11.0
2024-02-28 14:22:10.719308,1709126530.7193077,-153.3203125,-1000.0,-27.83203125,-1000.0,0.0,0.0,0.0,0.0,2.m4v,11.0
2024-02-28 14:22:10.723213,1709126530.7232132,-120.60546875,-1000.0,-33.203125,-769.53125,0.0,0.0,0.0,0.0,2.m4v,11.0
2024-02-28 14:22:10.727118,1709126530.7271185,66.40625,298.33984375,-28.3203125,650.390625,0.0,0.0,0.0,0.0,2.m4v,11.0
2024-02-28 14:22:10.731024,1709126530.731024,111.81640625,999.51171875,-21.97265625,999.51171875,0.0,0.0,0.0,0.0,2.m4v,11.0
2024-02-28 14:22:10.734930,1709126530.7349296,47.36328125,901.3671875,-31.73828125,784.66796875,0.0,0.0,0.0,0.0,2.m4v,11.0
2024-02-28 14:22:10.738835,1709126530.7388349,-72.75390625,976.07421875,-45.8984375,-378.41796875,0.0,0.0,0.0,0.0,2.m4v,11.0
2024-02-28 14:22:10.742740,1709126530.7427404,-148.92578125,985.83984375,-39.55078125,-1000.0,0.0,0.0,0.0,0.0,2.m4v,11.0
2024-02-28 14:22:10.746646,1709126530.746646,-16.6015625,913.57421875,-23.92578125,221.19140625,0.0,0.0,0.0,0.0,2.m4v,11.0
2024-02-28 14:22:10.750551,1709126530.7505512,94.7265625,999.51171875,-18.06640625,999.51171875,0.0,0.0,0.0,0.0,2.m4v,11.0
2024-02-28 14:22:10.754457,1709126530.7544568,8.7890625,871.58203125,-18.06640625,332.51953125,0.0,0.0,0.0,0.0,2.m4v,11.0
2024-02-28 14:22:10.758362,1709126530.7583623,-165.52734375,-580.078125,-26.3671875,-815.91796875,0.0,0.0,0.0,0.0,2.m4v,11.0
2024-02-28 14:22:10.762268,1709126530.7622676,-193.359375,-1000.0,-38.0859375,-1000.0,0.0,0.0,0.0,0.0,2.m4v,11.0
2024-02-28 14:22:10.766180,1709126530.76618,-81.54296875,-925.29296875,-38.0859375,-529.78515625,0.0,0.0,0.0,0.0,2.m4v,11.0
2024-02-28 14:22:10.770085,1709126530.770085,52.734375,-1000.0,-39.0625,808.59375,0.0,0.0,0.0,0.0,2.m4v,11.0
2024-02-28 14:22:10.773991,1709126530.7739909,40.52734375,-958.984375,-38.57421875,663.0859375,0.0,0.0,0.0,0.0,2.m4v,11.0
2024-02-28 14:22:10.777896,1709126530.7778964,-118.65234375,-1000.0,-38.0859375,-842.7734375,0.0,0.0,0.0,0.0,2.m4v,11.0
2024-02-28 14:22:10.781802,1709126530.7818017,-150.390625,-1000.0,-39.0625,-1000.0,0.0,0.0,0.0,0.0,2.m4v,11.0
2024-02-28 14:22:10.785707,1709126530.7857072,38.0859375,364.74609375,-35.15625,345.703125,0.0,0.0,0.0,0.0,2.m4v,11.0
2024-02-28 14:22:10.789613,1709126530.7896128,144.04296875,999.51171875,-37.109375,999.51171875,0.0,0.0,0.0,0.0,2.m4v,11.0
2024-02-28 14:22:10.793518,1709126530.793518,72.75390625,830.078125,-26.85546875,830.078125,0.0,0.0,0.0,0.0,2.m4v,11.0
2024-02-28 14:22:10.797424,1709126530.7974236,-54.6875,999.51171875,-19.53125,-295.8984375,0.0,0.0,0.0,0.0,2.m4v,11.0
2024-02-28 14:22:10.801329,1709126530.8013291,-148.92578125,711.9140625,-27.34375,-1000.0,0.0,0.0,0.0,0.0,2.m4v,11.0
2024-02-28 14:22:10.805234,1709126530.8052344,-150.87890625,-901.85546875,-31.25,-941.89453125,0.0,0.0,0.0,0.0,2.m4v,11.0
2024-02-28 14:22:10.809140,1709126530.80914,-18.06640625,-773.92578125,-25.87890625,64.94140625,0.0,0.0,0.0,0.0,2.m4v,11.0
2024-02-28 14:22:10.813056,1709126530.813056,106.93359375,756.34765625,-15.625,999.51171875,0.0,0.0,0.0,0.0,2.m4v,11.0
2024-02-28 14:22:10.816962,1709126530.8169615,37.59765625,999.51171875,-18.06640625,628.90625,0.0,0.0,0.0,0.0,2.m4v,11.0
2024-02-28 14:22:10.820867,1709126530.8208668,-97.65625,791.9921875,-32.71484375,-478.515625,0.0,0.0,0.0,0.0,2.m4v,11.0
2024-02-28 14:22:10.824772,1709126530.8247724,-166.015625,-583.49609375,-28.80859375,-1000.0,0.0,0.0,0.0,0.0,2.m4v,11.0
2024-02-28 14:22:10.828678,1709126530.828678,-114.74609375,-1000.0,-28.80859375,-833.984375,0.0,0.0,0.0,0.0,2.m4v,11.0
2024-02-28 14:22:10.832583,1709126530.8325832,-30.2734375,-941.40625,-42.96875,-401.3671875,0.0,0.0,0.0,0.0,2.m4v,11.0
2024-02-28 14:22:10.836489,1709126530.8364887,-45.8984375,-960.44921875,-43.45703125,-670.41015625,0.0,0.0,0.0,0.0,2.m4v,11.0
2024-02-28 14:22:10.840394,1709126530.8403945,-104.00390625,-1000.0,-45.41015625,-1000.0,0.0,0.0,0.0,0.0,2.m4v,11.0
2024-02-28 14:22:10.844300,1709126530.8442996,-14.16015625,-900.87890625,-42.96875,-31.73828125,0.0,0.0,0.0,0.0,2.m4v,11.0
2024-02-28 14:22:10.848205,1709126530.848205,129.8828125,512.6953125,-28.80859375,944.3359375,0.0,0.0,0.0,0.0,2.m4v,11.0
2024-02-28 14:22:10.852111,1709126530.8521106,118.65234375,999.51171875,-37.59765625,999.51171875,0.0,0.0,0.0,0.0,2.m4v,11.0
2024-02-28 14:22:10.856016,1709126530.856016,21.97265625,937.98828125,-57.6171875,553.7109375,0.0,0.0,0.0,0.0,2.m4v,11.0
2024-02-28 14:22:10.859927,1709126530.859927,-143.06640625,-121.09375,-54.19921875,-735.83984375,0.0,0.0,0.0,0.0,2.m4v,11.0
2024-02-28 14:22:10.863832,1709126530.8638325,-195.3125,-1000.0,-33.69140625,-1000.0,0.0,0.0,0.0,0.0,2.m4v,11.0
2024-02-28 14:22:10.867738,1709126530.8677378,-36.62109375,-645.99609375,-23.4375,-42.48046875,0.0,0.0,0.0,0.0,2.m4v,11.0
2024-02-28 14:22:10.871643,1709126530.8716433,114.2578125,750.48828125,-22.94921875,999.51171875,0.0,0.0,0.0,0.0,2.m4v,11.0
2024-02-28 14:22:10.875549,1709126530.8755488,49.8046875,999.51171875,-27.83203125,662.109375,0.0,0.0,0.0,0.0,2.m4v,11.0
2024-02-28 14:22:10.879454,1709126530.879454,-91.30859375,993.65234375,-30.76171875,-634.27734375,0.0,0.0,0.0,0.0,2.m4v,11.0
2024-02-28 14:22:10.883360,1709126530.8833597,-143.5546875,-17.578125,-35.64453125,-1000.0,0.0,0.0,0.0,0.0,2.m4v,11.0
2024-02-28 14:22:10.887265,1709126530.8872652,-107.91015625,-1000.0,-41.015625,-866.2109375,0.0,0.0,0.0,0.0,2.m4v,11.0
2024-02-28 14:22:10.891171,1709126530.8911705,-29.78515625,-967.7734375,-43.45703125,-391.11328125,0.0,0.0,0.0,0.0,2.m4v,11.0
2024-02-28 14:22:10.895076,1709126530.895076,-35.15625,-969.23828125,-44.921875,-568.84765625,0.0,0.0,0.0,0.0,2.m4v,11.0
2024-02-28 14:22:10.898982,1709126530.8989816,-105.95703125,-975.5859375,-46.875,-1000.0,0.0,0.0,0.0,0.0,2.m4v,11.0
2024-02-28 14:22:10.902887,1709126530.9028869,-56.15234375,-1000.0,-49.31640625,-416.9921875,0.0,0.0,0.0,0.0,2.m4v,11.0
2024-02-28 14:22:10.906797,1709126530.906797,105.46875,44.43359375,-46.38671875,802.24609375,0.0,0.0,0.0,0.0,2.m4v,11.0
2024-02-28 14:22:10.910702,1709126530.9107025,125.48828125,999.51171875,-42.48046875,999.51171875,0.0,0.0,0.0,0.0,2.m4v,11.0
2024-02-28 14:22:10.914608,1709126530.9146078,65.4296875,937.01171875,-32.2265625,893.06640625,0.0,0.0,0.0,0.0,2.m4v,11.0
2024-02-28 14:22:10.918513,1709126530.9185133,-35.64453125,993.65234375,-30.76171875,-46.875,0.0,0.0,0.0,0.0,2.m4v,11.0
2024-02-28 14:22:10.922419,1709126530.9224188,-170.8984375,-490.72265625,-23.92578125,-1000.0,0.0,0.0,0.0,0.0,2.m4v,11.0
2024-02-28 14:22:10.926324,1709126530.926324,-111.81640625,-1000.0,-21.484375,-600.09765625,0.0,0.0,0.0,0.0,2.m4v,11.0
2024-02-28 14:22:10.930230,1709126530.9302297,91.796875,600.5859375,-39.0625,808.10546875,0.0,0.0,0.0,0.0,2.m4v,11.0
2024-02-28 14:22:10.934135,1709126530.9341352,104.4921875,999.51171875,-44.43359375,937.01171875,0.0,0.0,0.0,0.0,2.m4v,11.0
2024-02-28 14:22:10.938040,1709126530.9380405,-89.84375,16.11328125,-35.15625,-451.66015625,0.0,0.0,0.0,0.0,2.m4v,11.0
2024-02-28 14:22:10.941946,1709126530.941946,-196.2890625,-1000.0,-27.34375,-1000.0,0.0,0.0,0.0,0.0,2.m4v,11.0
2024-02-28 14:22:10.945852,1709126530.9458516,-104.00390625,-979.4921875,-27.34375,-658.69140625,0.0,0.0,0.0,0.0,2.m4v,11.0
2024-02-28 14:22:10.949757,1709126530.9497569,45.8984375,-978.515625,-27.34375,705.56640625,0.0,0.0,0.0,0.0,2.m4v,11.0
2024-02-28 14:22:10.953671,1709126530.953671,50.78125,-1000.0,-27.34375,798.33984375,0.0,0.0,0.0,0.0,2.m4v,11.0
2024-02-28 14:22:10.957576,1709126530.9575765,-100.5859375,-942.3828125,-36.1328125,-695.3125,0.0,0.0,0.0,0.0,2.m4v,11.0
2024-02-28 14:22:10.961482,1709126530.9614818,-163.0859375,-1000.0,-41.50390625,-1000.0,0.0,0.0,0.0,0.0,2.m4v,11.0
2024-02-28 14:22:10.965387,1709126530.965387,-43.9453125,-887.6953125,-32.71484375,-95.703125,0.0,0.0,0.0,0.0,2.m4v,11.0
2024-02-28 14:22:10.969293,1709126530.9692926,112.79296875,558.59375,-27.83203125,894.53125,0.0,0.0,0.0,0.0,2.m4v,11.0
2024-02-28 14:22:10.973198,1709126530.9731982,107.91015625,999.51171875,-29.78515625,999.51171875,0.0,0.0,0.0,0.0,2.m4v,11.0
2024-02-28 14:22:10.977104,1709126530.9771037,12.20703125,997.55859375,-41.9921875,576.66015625,0.0,0.0,0.0,0.0,2.m4v,11.0
2024-02-28 14:22:10.981009,1709126530.981009,-144.53125,113.28125,-60.05859375,-695.3125,0.0,0.0,0.0,0.0,2.m4v,11.0
2024-02-28 14:22:10.984915,1709126530.9849143,-187.01171875,-1000.0,-54.19921875,-1000.0,0.0,0.0,0.0,0.0,2.m4v,11.0
2024-02-28 14:22:10.988820,1709126530.98882,-60.05859375,-980.46875,-43.45703125,-248.53515625,0.0,0.0,0.0,0.0,2.m4v,11.0
2024-02-28 14:22:10.992725,1709126530.9927254,15.13671875,-993.65234375,-35.64453125,452.63671875,0.0,0.0,0.0,0.0,2.m4v,11.0
2024-02-28 14:22:10.996631,1709126530.996631,-78.61328125,-950.68359375,-28.3203125,-545.8984375,0.0,0.0,0.0,0.0,2.m4v,11.0
2024-02-28 14:22:11.000545,1709126531.0005443,-153.3203125,-1000.0,-24.4140625,-1000.0,0.0,0.0,0.0,0.0,2.m4v,11.0
2024-02-28 14:22:11.004450,1709126531.00445,-59.5703125,-905.2734375,-32.71484375,-267.578125,0.0,0.0,0.0,0.0,2.m4v,11.0
2024-02-28 14:22:11.008356,1709126531.0083556,111.328125,543.9453125,-41.50390625,841.30859375,0.0,0.0,0.0,0.0,2.m4v,11.0
2024-02-28 14:22:11.012261,1709126531.012261,110.83984375,999.51171875,-32.2265625,999.51171875,0.0,0.0,0.0,0.0,2.m4v,11.0
2024-02-28 14:22:11.016166,1709126531.0161664,13.18359375,895.01953125,-18.06640625,612.3046875,0.0,0.0,0.0,0.0,2.m4v,11.0
2024-02-28 14:22:11.020072,1709126531.020072,-110.3515625,987.3046875,-21.484375,-580.56640625,0.0,0.0,0.0,0.0,2.m4v,11.0
2024-02-28 14:22:11.023977,1709126531.0239773,-104.4921875,967.28515625,-22.94921875,-541.015625,0.0,0.0,0.0,0.0,2.m4v,11.0
2024-02-28 14:22:11.027883,1709126531.0278828,48.828125,917.48046875,-30.2734375,840.8203125,0.0,0.0,0.0,0.0,2.m4v,11.0
2024-02-28 14:22:11.031788,1709126531.0317883,66.40625,999.51171875,-43.9453125,964.35546875,0.0,0.0,0.0,0.0,2.m4v,11.0
2024-02-28 14:22:11.035694,1709126531.0356936,-89.35546875,172.36328125,-40.52734375,-414.55078125,0.0,0.0,0.0,0.0,2.m4v,11.0
2024-02-28 14:22:11.039599,1709126531.0395992,-196.77734375,-973.14453125,-30.76171875,-1000.0,0.0,0.0,0.0,0.0,2.m4v,11.0
2024-02-28 14:22:11.043505,1709126531.0435047,-153.3203125,-1000.0,-30.76171875,-949.70703125,0.0,0.0,0.0,0.0,2.m4v,11.0
2024-02-28 14:22:11.047418,1709126531.0474184,-24.4140625,-845.21484375,-34.66796875,18.06640625,0.0,0.0,0.0,0.0,2.m4v,11.0
2024-02-28 14:22:11.051324,1709126531.0513237,105.46875,542.96875,-33.203125,999.51171875,0.0,0.0,0.0,0.0,2.m4v,11.0
2024-02-28 14:22:11.055229,1709126531.0552292,74.21875,999.51171875,-34.1796875,792.48046875,0.0,0.0,0.0,0.0,2.m4v,11.0
2024-02-28 14:22:11.059134,1709126531.0591345,-96.19140625,94.23828125,-37.109375,-491.69921875,0.0,0.0,0.0,0.0,2.m4v,11.0
2024-02-28 14:22:11.063040,1709126531.06304,-187.01171875,-1000.0,-31.73828125,-1000.0,0.0,0.0,0.0,0.0,2.m4v,11.0
2024-02-28 14:22:11.066946,1709126531.0669456,-52.734375,-900.390625,-27.83203125,-171.38671875,0.0,0.0,0.0,0.0,2.m4v,11.0
2024-02-28 14:22:11.070851,1709126531.0708508,117.67578125,672.8515625,-25.87890625,989.2578125,0.0,0.0,0.0,0.0,2.m4v,11.0
2024-02-28 14:22:11.074756,1709126531.0747564,70.3125,980.46875,-29.78515625,690.91796875,0.0,0.0,0.0,0.0,2.m4v,11.0
2024-02-28 14:22:11.078662,1709126531.078662,-146.97265625,-649.90234375,-39.55078125,-702.63671875,0.0,0.0,0.0,0.0,2.m4v,11.0
2024-02-28 14:22:11.082567,1709126531.0825672,-196.2890625,-1000.0,-26.3671875,-1000.0,0.0,0.0,0.0,0.0,2.m4v,11.0
2024-02-28 14:22:11.086473,1709126531.0864727,-63.96484375,-925.29296875,-6.34765625,-265.625,0.0,0.0,0.0,0.0,2.m4v,11.0
2024-02-28 14:22:11.090378,1709126531.0903783,70.3125,-1000.0,-15.13671875,921.875,0.0,0.0,0.0,0.0,2.m4v,11.0
2024-02-28 14:22:11.094290,1709126531.0942905,12.20703125,-1000.0,-30.2734375,441.40625,0.0,0.0,0.0,0.0,2.m4v,11.0
2024-02-28 14:22:11.098196,1709126531.098196,-145.99609375,-942.3828125,-31.73828125,-888.18359375,0.0,0.0,0.0,0.0,2.m4v,11.0
2024-02-28 14:22:11.102102,1709126531.1021016,-154.78515625,-1000.0,-30.2734375,-1000.0,0.0,0.0,0.0,0.0,2.m4v,11.0
2024-02-28 14:22:11.106007,1709126531.1060069,-17.08984375,-881.34765625,-30.76171875,174.31640625,0.0,0.0,0.0,0.0,2.m4v,11.0
2024-02-28 14:22:11.109912,1709126531.1099124,117.67578125,530.2734375,-31.25,992.1875,0.0,0.0,0.0,0.0,2.m4v,11.0
2024-02-28 14:22:11.113818,1709126531.113818,103.515625,999.51171875,-42.48046875,972.65625,0.0,0.0,0.0,0.0,2.m4v,11.0
2024-02-28 14:22:11.516141,1709126531.5161412,-55.17578125,-954.1015625,-38.0859375,-716.796875,0.0,0.0,0.0,0.0,2.m4v,11.0
2024-02-28 14:22:11.520047,1709126531.5200467,-102.5390625,-1000.0,-22.94921875,-1000.0,0.0,0.0,0.0,0.0,2.m4v,11.0
2024-02-28 14:22:11.523952,1709126531.523952,-14.6484375,-890.625,-37.109375,29.296875,0.0,0.0,0.0,0.0,2.m4v,11.0
2024-02-28 14:22:11.527858,1709126531.5278575,122.0703125,583.0078125,-47.36328125,962.40234375,0.0,0.0,0.0,0.0,2.m4v,11.0
2024-02-28 14:22:11.531763,1709126531.531763,105.95703125,999.51171875,-30.2734375,967.7734375,0.0,0.0,0.0,0.0,2.m4v,11.0
2024-02-28 14:22:11.535668,1709126531.5356684,29.296875,944.82421875,-24.4140625,751.46484375,0.0,0.0,0.0,0.0,2.m4v,11.0
2024-02-28 14:22:11.539574,1709126531.539574,-82.51953125,889.16015625,-34.1796875,-306.15234375,0.0,0.0,0.0,0.0,2.m4v,11.0
2024-02-28 14:22:11.543479,1709126531.5434794,-177.734375,-577.63671875,-31.25,-1000.0,0.0,0.0,0.0,0.0,2.m4v,11.0
2024-02-28 14:22:11.547385,1709126531.5473847,-133.30078125,-1000.0,-27.34375,-871.09375,0.0,0.0,0.0,0.0,2.m4v,11.0
2024-02-28 14:22:11.551290,1709126531.5512905,-41.50390625,-941.40625,-28.80859375,-272.4609375,0.0,0.0,0.0,0.0,2.m4v,11.0
2024-02-28 14:22:11.555196,1709126531.5551958,-30.2734375,-959.9609375,-22.4609375,-389.6484375,0.0,0.0,0.0,0.0,2.m4v,11.0
2024-02-28 14:22:11.559101,1709126531.559101,-103.02734375,-1000.0,-21.97265625,-1000.0,0.0,0.0,0.0,0.0,2.m4v,11.0
2024-02-28 14:22:11.563014,1709126531.5630145,-62.98828125,-906.73828125,-27.34375,-476.5625,0.0,0.0,0.0,0.0,2.m4v,11.0
2024-02-28 14:22:11.566920,1709126531.5669198,108.3984375,557.12890625,-35.64453125,774.4140625,0.0,0.0,0.0,0.0,2.m4v,11.0
2024-02-28 14:22:11.570825,1709126531.570825,126.953125,999.51171875,-36.62109375,999.51171875,0.0,0.0,0.0,0.0,2.m4v,11.0
2024-02-28 14:22:11.574731,1709126531.5747306,52.24609375,931.640625,-22.94921875,732.91015625,0.0,0.0,0.0,0.0,2.m4v,11.0
2024-02-28 14:22:11.578636,1709126531.5786362,-75.1953125,930.6640625,-29.296875,-493.65234375,0.0,0.0,0.0,0.0,2.m4v,11.0
2024-02-28 14:22:11.582541,1709126531.5825417,-169.43359375,-593.75,-42.96875,-1000.0,0.0,0.0,0.0,0.0,2.m4v,11.0
2024-02-28 14:22:11.586447,1709126531.586447,-81.0546875,-1000.0,-32.71484375,-396.97265625,0.0,0.0,0.0,0.0,2.m4v,11.0
2024-02-28 14:22:11.590353,1709126531.5903523,77.63671875,411.1328125,-22.4609375,814.94140625,0.0,0.0,0.0,0.0,2.m4v,11.0
2024-02-28 14:22:11.594258,1709126531.5942578,86.9140625,999.51171875,-46.38671875,955.078125,0.0,0.0,0.0,0.0,2.m4v,11.0
2024-02-28 14:22:11.598163,1709126531.5981634,-66.40625,549.31640625,-63.96484375,-270.5078125,0.0,0.0,0.0,0.0,2.m4v,11.0
2024-02-28 14:22:11.602069,1709126531.602069,-195.3125,-826.66015625,-43.9453125,-1000.0,0.0,0.0,0.0,0.0,2.m4v,11.0
2024-02-28 14:22:11.605974,1709126531.6059742,-129.8828125,-1000.0,-23.92578125,-750.48828125,0.0,0.0,0.0,0.0,2.m4v,11.0
2024-02-28 14:22:11.609885,1709126531.6098852,41.015625,-938.4765625,-17.578125,638.18359375,0.0,0.0,0.0,0.0,2.m4v,11.0
2024-02-28 14:22:11.613791,1709126531.6137908,50.78125,-1000.0,-24.4140625,741.69921875,0.0,0.0,0.0,0.0,2.m4v,11.0
2024-02-28 14:22:11.617696,1709126531.6176963,-105.46875,-941.89453125,-31.25,-766.11328125,0.0,0.0,0.0,0.0,2.m4v,11.0
2024-02-28 14:22:11.621602,1709126531.6216016,-137.6953125,-1000.0,-25.390625,-1000.0,0.0,0.0,0.0,0.0,2.m4v,11.0
2024-02-28 14:22:11.625507,1709126531.625507,2.9296875,-870.1171875,-20.5078125,31.25,0.0,0.0,0.0,0.0,2.m4v,11.0
2024-02-28 14:22:11.629413,1709126531.629413,146.97265625,514.16015625,-30.76171875,981.93359375,0.0,0.0,0.0,0.0,2.m4v,11.0
2024-02-28 14:22:11.633318,1709126531.633318,107.91015625,999.51171875,-33.203125,958.0078125,0.0,0.0,0.0,0.0,2.m4v,11.0
2024-02-28 14:22:11.637223,1709126531.6372235,-54.6875,764.6484375,-27.34375,-12.6953125,0.0,0.0,0.0,0.0,2.m4v,11.0
2024-02-28 14:22:11.641129,1709126531.641129,-199.70703125,-526.85546875,-30.76171875,-1000.0,0.0,0.0,0.0,0.0,2.m4v,11.0
2024-02-28 14:22:11.645034,1709126531.6450343,-178.22265625,-1000.0,-26.85546875,-925.29296875,0.0,0.0,0.0,0.0,2.m4v,11.0
2024-02-28 14:22:11.648940,1709126531.6489398,-28.80859375,-771.97265625,-19.04296875,163.57421875,0.0,0.0,0.0,0.0,2.m4v,11.0
2024-02-28 14:22:11.652845,1709126531.6528454,92.28515625,523.92578125,-13.671875,999.51171875,0.0,0.0,0.0,0.0,2.m4v,11.0
2024-02-28 14:22:11.656756,1709126531.6567562,40.52734375,999.51171875,-18.06640625,687.5,0.0,0.0,0.0,0.0,2.m4v,11.0
2024-02-28 14:22:11.660662,1709126531.6606617,-111.328125,756.8359375,-25.390625,-426.7578125,0.0,0.0,0.0,0.0,2.m4v,11.0
2024-02-28 14:22:11.664567,1709126531.664567,-188.4765625,-616.2109375,-34.1796875,-1000.0,0.0,0.0,0.0,0.0,2.m4v,11.0
2024-02-28 14:22:11.668473,1709126531.6684723,-116.69921875,-1000.0,-40.52734375,-786.62109375,0.0,0.0,0.0,0.0,2.m4v,11.0
2024-02-28 14:22:11.672378,1709126531.672378,-39.0625,-940.4296875,-32.71484375,-483.88671875,0.0,0.0,0.0,0.0,2.m4v,11.0
2024-02-28 14:22:11.676283,1709126531.6762834,-67.87109375,-968.75,-19.04296875,-870.1171875,0.0,0.0,0.0,0.0,2.m4v,11.0
2024-02-28 14:22:11.680189,1709126531.680189,-104.00390625,-1000.0,-28.80859375,-957.03125,0.0,0.0,0.0,0.0,2.m4v,11.0
2024-02-28 14:22:11.684094,1709126531.6840944,-6.8359375,-958.984375,-39.0625,270.01953125,0.0,0.0,0.0,0.0,2.m4v,11.0
2024-02-28 14:22:11.688000,1709126531.6879995,111.328125,463.8671875,-35.15625,993.65234375,0.0,0.0,0.0,0.0,2.m4v,11.0
2024-02-28 14:22:11.691905,1709126531.6919053,99.12109375,999.51171875,-31.25,984.375,0.0,0.0,0.0,0.0,2.m4v,11.0
2024-02-28 14:22:11.695811,1709126531.6958108,11.23046875,965.8203125,-28.3203125,395.99609375,0.0,0.0,0.0,0.0,2.m4v,11.0
2024-02-28 14:22:11.699716,1709126531.699716,-119.62890625,801.26953125,-28.3203125,-799.31640625,0.0,0.0,0.0,0.0,2.m4v,11.0
2024-02-28 14:22:11.703630,1709126531.7036302,-177.734375,-745.1171875,-33.69140625,-1000.0,0.0,0.0,0.0,0.0,2.m4v,11.0
2024-02-28 14:22:11.707536,1709126531.7075355,-89.84375,-1000.0,-28.3203125,-469.23828125,0.0,0.0,0.0,0.0,2.m4v,11.0
2024-02-28 14:22:11.711441,1709126531.711441,87.890625,470.703125,-23.92578125,723.6328125,0.0,0.0,0.0,0.0,2.m4v,11.0
2024-02-28 14:22:11.715347,1709126531.7153466,113.76953125,999.51171875,-28.3203125,999.51171875,0.0,0.0,0.0,0.0,2.m4v,11.0
2024-02-28 14:22:11.719252,1709126531.719252,-22.94921875,901.3671875,-29.78515625,276.85546875,0.0,0.0,0.0,0.0,2.m4v,11.0
2024-02-28 14:22:11.723157,1709126531.7231574,-92.7734375,968.26171875,-41.50390625,-259.27734375,0.0,0.0,0.0,0.0,2.m4v,11.0
2024-02-28 14:22:11.727063,1709126531.727063,8.7890625,930.17578125,-39.0625,773.4375,0.0,0.0,0.0,0.0,2.m4v,11.0
2024-02-28 14:22:11.730968,1709126531.7309682,38.0859375,999.51171875,-22.94921875,956.54296875,0.0,0.0,0.0,0.0,2.m4v,11.0
2024-02-28 14:22:11.734874,1709126531.7348738,-118.65234375,34.1796875,-28.80859375,-532.71484375,0.0,0.0,0.0,0.0,2.m4v,11.0
2024-02-28 14:22:11.738779,1709126531.7387793,-214.84375,-1000.0,-44.921875,-1000.0,0.0,0.0,0.0,0.0,2.m4v,11.0
2024-02-28 14:22:11.742685,1709126531.7426846,-169.921875,-971.19140625,-44.921875,-981.93359375,0.0,0.0,0.0,0.0,2.m4v,11.0
2024-02-28 14:22:11.746590,1709126531.74659,-51.26953125,-982.91015625,-36.62109375,-154.78515625,0.0,0.0,0.0,0.0,2.m4v,11.0
2024-02-28 14:22:11.750504,1709126531.7505035,73.73046875,-1000.0,-32.2265625,993.1640625,0.0,0.0,0.0,0.0,2.m4v,11.0
2024-02-28 14:22:11.754409,1709126531.754409,9.765625,-1000.0,-34.66796875,277.83203125,0.0,0.0,0.0,0.0,2.m4v,11.0
2024-02-28 14:22:11.758314,1709126531.7583144,-138.671875,-930.17578125,-40.52734375,-961.42578125,0.0,0.0,0.0,0.0,2.m4v,11.0
2024-02-28 14:22:11.762220,1709126531.76222,-147.4609375,-1000.0,-40.52734375,-980.95703125,0.0,0.0,0.0,0.0,2.m4v,11.0
2024-02-28 14:22:11.766125,1709126531.7661254,8.30078125,-651.3671875,-45.8984375,346.19140625,0.0,0.0,0.0,0.0,2.m4v,11.0
2024-02-28 14:22:11.770031,1709126531.7700307,114.2578125,731.4453125,-48.828125,999.51171875,0.0,0.0,0.0,0.0,2.m4v,11.0
2024-02-28 14:22:11.773936,1709126531.7739365,71.2890625,999.51171875,-44.43359375,934.08203125,0.0,0.0,0.0,0.0,2.m4v,11.0
2024-02-28 14:22:11.777842,1709126531.7778418,-45.41015625,796.38671875,-42.96875,142.578125,0.0,0.0,0.0,0.0,2.m4v,11.0
2024-02-28 14:22:11.781747,1709126531.781747,-200.1953125,-583.0078125,-49.31640625,-968.26171875,0.0,0.0,0.0,0.0,2.m4v,11.0
2024-02-28 14:22:11.785653,1709126531.7856526,-177.24609375,-1000.0,-40.0390625,-959.9609375,0.0,0.0,0.0,0.0,2.m4v,11.0
2024-02-28 14:22:11.789558,1709126531.7895582,-21.484375,-925.78125,-16.11328125,248.53515625,0.0,0.0,0.0,0.0,2.m4v,11.0
2024-02-28 14:22:11.793463,1709126531.7934637,21.484375,-1000.0,-19.53125,686.5234375,0.0,0.0,0.0,0.0,2.m4v,11.0
2024-02-28 14:22:11.797381,1709126531.797381,-116.69921875,-946.2890625,-32.71484375,-662.109375,0.0,0.0,0.0,0.0,2.m4v,11.0
2024-02-28 14:22:11.801286,1709126531.8012862,-166.9921875,-1000.0,-28.80859375,-1000.0,0.0,0.0,0.0,0.0,2.m4v,11.0
2024-02-28 14:22:11.805192,1709126531.8051918,-48.33984375,-921.875,-36.1328125,-43.45703125,0.0,0.0,0.0,0.0,2.m4v,11.0
2024-02-28 14:22:11.809097,1709126531.8090973,96.19140625,532.2265625,-43.45703125,934.08203125,0.0,0.0,0.0,0.0,2.m4v,11.0
2024-02-28 14:22:11.813003,1709126531.8130026,102.05078125,999.51171875,-32.71484375,970.21484375,0.0,0.0,0.0,0.0,2.m4v,11.0
2024-02-28 14:22:11.816908,1709126531.816908,39.55078125,944.82421875,-36.62109375,760.25390625,0.0,0.0,0.0,0.0,2.m4v,11.0
2024-02-28 14:22:11.820814,1709126531.8208137,-66.89453125,888.18359375,-41.015625,-180.17578125,0.0,0.0,0.0,0.0,2.m4v,11.0
2024-02-28 14:22:11.824719,1709126531.824719,-178.22265625,-576.171875,-38.57421875,-964.35546875,0.0,0.0,0.0,0.0,2.m4v,11.0
2024-02-28 14:22:11.828624,1709126531.8286245,-141.6015625,-1000.0,-39.55078125,-1000.0,0.0,0.0,0.0,0.0,2.m4v,11.0
2024-02-28 14:22:11.832530,1709126531.83253,-78.125,-942.3828125,-34.1796875,-930.6640625,0.0,0.0,0.0,0.0,2.m4v,11.0
2024-02-28 14:22:11.836435,1709126531.8364353,-81.54296875,-949.21875,-36.1328125,-1000.0,0.0,0.0,0.0,0.0,2.m4v,11.0
2024-02-28 14:22:11.840341,1709126531.8403409,-81.0546875,-1000.0,-43.9453125,-872.0703125,0.0,0.0,0.0,0.0,2.m4v,11.0
2024-02-28 14:22:11.844254,1709126531.8442535,35.64453125,-748.046875,-41.50390625,499.51171875,0.0,0.0,0.0,0.0,2.m4v,11.0
2024-02-28 14:22:11.848159,1709126531.848159,124.0234375,670.8984375,-31.25,999.51171875,0.0,0.0,0.0,0.0,2.m4v,11.0
2024-02-28 14:22:11.852064,1709126531.8520644,78.125,999.51171875,-32.2265625,948.2421875,0.0,0.0,0.0,0.0,2.m4v,11.0
2024-02-28 14:22:11.855970,1709126531.85597,-6.34765625,921.875,-37.59765625,412.109375,0.0,0.0,0.0,0.0,2.m4v,11.0
2024-02-28 14:22:11.859875,1709126531.8598754,-161.62109375,-282.2265625,-41.015625,-885.7421875,0.0,0.0,0.0,0.0,2.m4v,11.0
2024-02-28 14:22:11.863781,1709126531.8637807,-177.734375,-1000.0,-40.52734375,-983.3984375,0.0,0.0,0.0,0.0,2.m4v,11.0
2024-02-28 14:22:11.867686,1709126531.8676865,15.13671875,-205.56640625,-30.2734375,357.91015625,0.0,0.0,0.0,0.0,2.m4v,11.0
