Timestamp,Timestamp_UNIX,TP9,AF7,AF8,TP10,Valence,Arousal,Dominace,Viewed,Video,Participant
2024-02-27 10:55:40.002838,1709027740.0028377,-23.92578125,922.36328125,290.0390625,-39.55078125,0.0,-1.0,1.0,0.0,8.m4v,2.0
2024-02-27 10:55:40.006743,1709027740.0067434,-37.109375,996.09375,111.328125,-59.08203125,0.0,-1.0,1.0,0.0,8.m4v,2.0
2024-02-27 10:55:40.010649,1709027740.0106492,-37.59765625,924.8046875,132.8125,-50.78125,0.0,-1.0,1.0,0.0,8.m4v,2.0
2024-02-27 10:55:40.014555,1709027740.014555,-26.85546875,982.421875,238.28125,-49.31640625,0.0,-1.0,1.0,0.0,8.m4v,2.0
2024-02-27 10:55:40.018461,1709027740.0184608,-23.4375,969.7265625,100.5859375,-53.22265625,0.0,-1.0,1.0,0.0,8.m4v,2.0
2024-02-27 10:55:40.022367,1709027740.0223663,-24.90234375,969.7265625,36.62109375,-50.78125,0.0,-1.0,1.0,0.0,8.m4v,2.0
2024-02-27 10:55:40.026274,1709027740.0262744,-25.87890625,969.7265625,-28.3203125,-40.0390625,0.0,-1.0,1.0,0.0,8.m4v,2.0
2024-02-27 10:55:40.108298,1709027740.1082976,-24.90234375,983.3984375,-237.3046875,-40.52734375,0.0,-1.0,1.0,0.0,8.m4v,2.0
2024-02-27 10:55:40.112203,1709027740.1122034,-20.01953125,969.7265625,-2.44140625,-32.71484375,0.0,-1.0,1.0,0.0,8.m4v,2.0
2024-02-27 10:55:40.116109,1709027740.1161091,-32.71484375,969.7265625,122.0703125,-37.109375,0.0,-1.0,1.0,0.0,8.m4v,2.0
2024-02-27 10:55:40.127828,1709027740.127828,-38.0859375,969.7265625,-268.5546875,-22.94921875,0.0,-1.0,1.0,0.0,8.m4v,2.0
2024-02-27 10:55:40.139545,1709027740.1395454,-26.85546875,921.38671875,457.51953125,-38.0859375,0.0,-1.0,1.0,0.0,8.m4v,2.0
2024-02-27 10:55:40.151263,1709027740.1512628,-45.41015625,-1000.0,-275.390625,-52.24609375,0.0,-1.0,1.0,0.0,8.m4v,2.0
2024-02-27 10:55:40.502800,1709027740.5028002,-40.52734375,969.7265625,-348.14453125,-66.40625,0.0,-1.0,1.0,0.0,8.m4v,2.0
2024-02-27 10:55:40.510612,1709027740.5106118,-50.29296875,971.6796875,-233.3984375,-41.50390625,0.0,-1.0,1.0,0.0,8.m4v,2.0
2024-02-27 10:55:40.514518,1709027740.5145175,-36.62109375,971.19140625,327.63671875,-43.45703125,0.0,-1.0,1.0,0.0,8.m4v,2.0
2024-02-27 10:55:40.518423,1709027740.5184233,-31.25,912.59765625,708.0078125,-55.17578125,0.0,-1.0,1.0,0.0,8.m4v,2.0
2024-02-27 10:55:40.522329,1709027740.522329,-45.41015625,999.51171875,214.35546875,-61.5234375,0.0,-1.0,1.0,0.0,8.m4v,2.0
2024-02-27 10:55:40.526235,1709027740.5262349,-45.41015625,284.1796875,-375.9765625,-58.59375,0.0,-1.0,1.0,0.0,8.m4v,2.0
2024-02-27 10:55:40.530141,1709027740.5301406,-32.71484375,-993.1640625,-363.76953125,-57.6171875,0.0,-1.0,1.0,0.0,8.m4v,2.0
2024-02-27 10:55:40.534046,1709027740.5340464,-47.8515625,-1000.0,-273.4375,-57.12890625,0.0,-1.0,1.0,0.0,8.m4v,2.0
2024-02-27 10:55:40.537952,1709027740.5379522,-43.9453125,-963.8671875,-462.890625,-51.7578125,0.0,-1.0,1.0,0.0,8.m4v,2.0
2024-02-27 10:55:40.541861,1709027740.5418608,-32.2265625,-1000.0,-588.8671875,-35.64453125,0.0,-1.0,1.0,0.0,8.m4v,2.0
2024-02-27 10:55:40.545767,1709027740.5457666,-47.36328125,-1000.0,-659.1796875,-24.4140625,0.0,-1.0,1.0,0.0,8.m4v,2.0
2024-02-27 10:55:40.549672,1709027740.5496724,-53.22265625,-1000.0,-438.96484375,-33.69140625,0.0,-1.0,1.0,0.0,8.m4v,2.0
2024-02-27 10:55:40.553578,1709027740.553578,-50.78125,-930.6640625,-97.65625,-41.9921875,0.0,-1.0,1.0,0.0,8.m4v,2.0
2024-02-27 10:55:40.557484,1709027740.557484,-46.38671875,-1000.0,-196.2890625,-45.8984375,0.0,-1.0,1.0,0.0,8.m4v,2.0
2024-02-27 10:55:40.561390,1709027740.5613897,-36.1328125,-572.265625,-187.01171875,-41.015625,0.0,-1.0,1.0,0.0,8.m4v,2.0
2024-02-27 10:55:40.565295,1709027740.5652957,-29.296875,851.5625,92.28515625,-32.71484375,0.0,-1.0,1.0,0.0,8.m4v,2.0
2024-02-27 10:55:40.569201,1709027740.5692012,-27.34375,999.51171875,6.34765625,-30.76171875,0.0,-1.0,1.0,0.0,8.m4v,2.0
2024-02-27 10:55:40.573107,1709027740.573107,-24.90234375,914.0625,157.71484375,-25.87890625,0.0,-1.0,1.0,0.0,8.m4v,2.0
2024-02-27 10:55:40.577013,1709027740.5770128,-33.203125,984.86328125,291.50390625,-31.73828125,0.0,-1.0,1.0,0.0,8.m4v,2.0
2024-02-27 10:55:40.580919,1709027740.5809186,-37.59765625,969.7265625,-142.578125,-40.0390625,0.0,-1.0,1.0,0.0,8.m4v,2.0
2024-02-27 10:55:40.584824,1709027740.5848243,-33.203125,969.7265625,-416.9921875,-36.62109375,0.0,-1.0,1.0,0.0,8.m4v,2.0
2024-02-27 10:55:40.588733,1709027740.5887327,-50.78125,969.7265625,-310.546875,-38.57421875,0.0,-1.0,1.0,0.0,8.m4v,2.0
2024-02-27 10:55:40.592638,1709027740.5926385,-54.19921875,969.7265625,-71.2890625,-34.1796875,0.0,-1.0,1.0,0.0,8.m4v,2.0
2024-02-27 10:55:40.596544,1709027740.5965445,-48.828125,969.7265625,-117.1875,-27.34375,0.0,-1.0,1.0,0.0,8.m4v,2.0
2024-02-27 10:55:40.600450,1709027740.60045,-54.19921875,969.7265625,-324.70703125,-32.71484375,0.0,-1.0,1.0,0.0,8.m4v,2.0
2024-02-27 10:55:40.604356,1709027740.6043558,-56.15234375,969.7265625,-362.3046875,-39.0625,0.0,-1.0,1.0,0.0,8.m4v,2.0
2024-02-27 10:55:40.608262,1709027740.6082616,-51.7578125,980.95703125,137.6953125,-25.390625,0.0,-1.0,1.0,0.0,8.m4v,2.0
2024-02-27 10:55:40.612167,1709027740.6121674,-47.8515625,929.6875,581.54296875,-7.32421875,0.0,-1.0,1.0,0.0,8.m4v,2.0
2024-02-27 10:55:40.619979,1709027740.619979,-46.38671875,974.609375,-198.73046875,-46.875,0.0,-1.0,1.0,0.0,8.m4v,2.0
2024-02-27 10:55:40.627790,1709027740.6277905,-67.87109375,-1000.0,-749.0234375,-53.7109375,0.0,-1.0,1.0,0.0,8.m4v,2.0
2024-02-27 10:55:40.635605,1709027740.6356046,-43.45703125,-1000.0,36.62109375,-37.109375,0.0,-1.0,1.0,0.0,8.m4v,2.0
2024-02-27 10:55:40.643416,1709027740.6434162,-49.8046875,-1000.0,-502.44140625,-43.9453125,0.0,-1.0,1.0,0.0,8.m4v,2.0
2024-02-27 10:55:40.651228,1709027740.6512277,-42.96875,-1000.0,-268.5546875,-38.0859375,0.0,-1.0,1.0,0.0,8.m4v,2.0
2024-02-27 10:55:40.659039,1709027740.659039,-41.50390625,704.1015625,320.80078125,-33.69140625,0.0,-1.0,1.0,0.0,8.m4v,2.0
2024-02-27 10:55:40.666851,1709027740.6668506,-54.19921875,901.85546875,-538.57421875,-34.1796875,0.0,-1.0,1.0,0.0,8.m4v,2.0
2024-02-27 10:55:40.674662,1709027740.674662,-35.15625,969.7265625,11.71875,-27.83203125,0.0,-1.0,1.0,0.0,8.m4v,2.0
2024-02-27 10:55:40.787936,1709027740.787936,-41.50390625,972.65625,-137.6953125,-33.203125,0.0,-1.0,1.0,0.0,8.m4v,2.0
2024-02-27 10:55:40.791842,1709027740.7918415,-34.66796875,963.37890625,131.34765625,-33.69140625,0.0,-1.0,1.0,0.0,8.m4v,2.0
2024-02-27 10:55:40.795748,1709027740.7957475,-31.25,922.8515625,512.20703125,-33.203125,0.0,-1.0,1.0,0.0,8.m4v,2.0
2024-02-27 10:55:40.799653,1709027740.7996533,-40.0390625,999.51171875,418.45703125,-23.4375,0.0,-1.0,1.0,0.0,8.m4v,2.0
2024-02-27 10:55:40.803559,1709027740.803559,-50.78125,128.41796875,-307.6171875,-33.203125,0.0,-1.0,1.0,0.0,8.m4v,2.0
2024-02-27 10:55:40.807465,1709027740.8074648,-53.7109375,-1000.0,-623.53515625,-38.0859375,0.0,-1.0,1.0,0.0,8.m4v,2.0
2024-02-27 10:55:40.811371,1709027740.8113706,-45.41015625,-984.86328125,-357.421875,-30.76171875,0.0,-1.0,1.0,0.0,8.m4v,2.0
2024-02-27 10:55:40.815276,1709027740.8152764,-38.0859375,-975.5859375,-47.36328125,-26.3671875,0.0,-1.0,1.0,0.0,8.m4v,2.0
2024-02-27 10:55:40.819182,1709027740.8191822,-42.96875,-1000.0,-247.0703125,-24.90234375,0.0,-1.0,1.0,0.0,8.m4v,2.0
2024-02-27 10:55:40.823090,1709027740.8230898,-41.50390625,-1000.0,-671.38671875,-38.0859375,0.0,-1.0,1.0,0.0,8.m4v,2.0
2024-02-27 10:55:40.826996,1709027740.8269956,-34.66796875,-1000.0,-661.62109375,-39.0625,0.0,-1.0,1.0,0.0,8.m4v,2.0
2024-02-27 10:55:40.830901,1709027740.8309014,-35.15625,-980.95703125,-315.91796875,-35.64453125,0.0,-1.0,1.0,0.0,8.m4v,2.0
2024-02-27 10:55:40.834807,1709027740.8348072,-36.62109375,-972.65625,-114.2578125,-39.0625,0.0,-1.0,1.0,0.0,8.m4v,2.0
2024-02-27 10:55:40.838713,1709027740.838713,-39.55078125,-1000.0,-255.37109375,-43.9453125,0.0,-1.0,1.0,0.0,8.m4v,2.0
2024-02-27 10:55:40.842619,1709027740.8426187,-34.1796875,49.31640625,-117.1875,-41.9921875,0.0,-1.0,1.0,0.0,8.m4v,2.0
2024-02-27 10:55:40.846524,1709027740.8465245,-31.25,999.51171875,168.45703125,-34.1796875,0.0,-1.0,1.0,0.0,8.m4v,2.0
2024-02-27 10:55:40.850430,1709027740.8504305,-35.15625,927.24609375,49.8046875,-29.296875,0.0,-1.0,1.0,0.0,8.m4v,2.0
2024-02-27 10:55:40.854336,1709027740.854336,-31.73828125,959.9609375,17.578125,-22.94921875,0.0,-1.0,1.0,0.0,8.m4v,2.0
2024-02-27 10:55:40.858242,1709027740.8582418,-34.1796875,973.14453125,-143.06640625,-48.33984375,0.0,-1.0,1.0,0.0,8.m4v,2.0
2024-02-27 10:55:40.862148,1709027740.8621476,-36.62109375,969.7265625,-301.26953125,-58.59375,0.0,-1.0,1.0,0.0,8.m4v,2.0
2024-02-27 10:55:40.866053,1709027740.866053,-34.66796875,971.19140625,-195.80078125,-45.41015625,0.0,-1.0,1.0,0.0,8.m4v,2.0
2024-02-27 10:55:40.869961,1709027740.8699608,-40.52734375,975.09765625,-83.49609375,-43.45703125,0.0,-1.0,1.0,0.0,8.m4v,2.0
2024-02-27 10:55:40.873867,1709027740.8738666,-36.1328125,908.203125,193.359375,-32.71484375,0.0,-1.0,1.0,0.0,8.m4v,2.0
2024-02-27 10:55:40.877772,1709027740.8777723,-23.92578125,999.51171875,310.05859375,-28.3203125,0.0,-1.0,1.0,0.0,8.m4v,2.0
2024-02-27 10:55:40.881678,1709027740.881678,-31.73828125,365.72265625,-108.88671875,-39.55078125,0.0,-1.0,1.0,0.0,8.m4v,2.0
2024-02-27 10:55:40.885584,1709027740.885584,-44.43359375,-961.42578125,-494.62890625,-31.73828125,0.0,-1.0,1.0,0.0,8.m4v,2.0
2024-02-27 10:55:40.889490,1709027740.8894897,-31.25,-1000.0,-31.25,-22.4609375,0.0,-1.0,1.0,0.0,8.m4v,2.0
2024-02-27 10:55:40.893395,1709027740.8933954,-22.4609375,-958.0078125,590.8203125,-29.78515625,0.0,-1.0,1.0,0.0,8.m4v,2.0
2024-02-27 10:55:40.897301,1709027740.8973012,-20.5078125,-1000.0,197.75390625,-35.15625,0.0,-1.0,1.0,0.0,8.m4v,2.0
2024-02-27 10:55:40.901207,1709027740.901207,-18.06640625,-1000.0,-154.296875,-37.59765625,0.0,-1.0,1.0,0.0,8.m4v,2.0
2024-02-27 10:55:40.905113,1709027740.9051127,-21.97265625,-1000.0,-116.2109375,-35.15625,0.0,-1.0,1.0,0.0,8.m4v,2.0
2024-02-27 10:55:40.909019,1709027740.9090185,-18.5546875,-1000.0,20.5078125,-33.203125,0.0,-1.0,1.0,0.0,8.m4v,2.0
2024-02-27 10:55:40.912924,1709027740.9129243,-15.625,-1000.0,302.734375,-30.76171875,0.0,-1.0,1.0,0.0,8.m4v,2.0
2024-02-27 10:55:40.916833,1709027740.916833,-13.671875,-1000.0,347.16796875,-32.2265625,0.0,-1.0,1.0,0.0,8.m4v,2.0
2024-02-27 10:55:40.920739,1709027740.9207387,-20.99609375,-1000.0,149.4140625,-39.0625,0.0,-1.0,1.0,0.0,8.m4v,2.0
2024-02-27 10:55:40.924644,1709027740.9246445,-38.57421875,-943.84765625,1.46484375,-33.203125,0.0,-1.0,1.0,0.0,8.m4v,2.0
2024-02-27 10:55:40.928550,1709027740.9285502,-40.0390625,-1000.0,78.125,-23.92578125,0.0,-1.0,1.0,0.0,8.m4v,2.0
2024-02-27 10:55:40.932456,1709027740.932456,-37.109375,-903.3203125,469.7265625,-33.69140625,0.0,-1.0,1.0,0.0,8.m4v,2.0
2024-02-27 10:55:40.936362,1709027740.9363618,-24.4140625,547.36328125,916.015625,-34.66796875,0.0,-1.0,1.0,0.0,8.m4v,2.0
2024-02-27 10:55:40.940268,1709027740.9402676,-13.671875,999.51171875,963.37890625,-29.296875,0.0,-1.0,1.0,0.0,8.m4v,2.0
2024-02-27 10:55:40.944173,1709027740.944173,-27.34375,895.01953125,555.6640625,-28.3203125,0.0,-1.0,1.0,0.0,8.m4v,2.0
2024-02-27 10:55:40.948079,1709027740.948079,-33.203125,985.3515625,343.75,-28.3203125,0.0,-1.0,1.0,0.0,8.m4v,2.0
2024-02-27 10:55:40.951985,1709027740.951985,-26.85546875,969.7265625,552.734375,-37.59765625,0.0,-1.0,1.0,0.0,8.m4v,2.0
2024-02-27 10:55:40.955891,1709027740.955891,-31.73828125,969.7265625,746.09375,-47.36328125,0.0,-1.0,1.0,0.0,8.m4v,2.0
2024-02-27 10:55:40.959796,1709027740.9597964,-33.203125,969.7265625,615.72265625,-50.78125,0.0,-1.0,1.0,0.0,8.m4v,2.0
2024-02-27 10:55:40.963705,1709027740.9637048,-27.83203125,969.7265625,318.359375,-48.828125,0.0,-1.0,1.0,0.0,8.m4v,2.0
2024-02-27 10:55:40.967611,1709027740.9676106,-35.64453125,969.7265625,264.6484375,-41.9921875,0.0,-1.0,1.0,0.0,8.m4v,2.0
2024-02-27 10:55:40.971516,1709027740.9715164,-41.015625,969.7265625,592.28515625,-35.64453125,0.0,-1.0,1.0,0.0,8.m4v,2.0
2024-02-27 10:55:40.975422,1709027740.975422,-32.2265625,979.4921875,726.07421875,-32.2265625,0.0,-1.0,1.0,0.0,8.m4v,2.0
2024-02-27 10:55:40.979328,1709027740.979328,-27.34375,933.10546875,496.58203125,-30.76171875,0.0,-1.0,1.0,0.0,8.m4v,2.0
2024-02-27 10:55:40.983234,1709027740.9832337,-27.83203125,973.6328125,650.390625,-31.73828125,0.0,-1.0,1.0,0.0,8.m4v,2.0
2024-02-27 10:55:40.987139,1709027740.9871397,-30.2734375,992.67578125,778.80859375,-31.73828125,0.0,-1.0,1.0,0.0,8.m4v,2.0
2024-02-27 10:55:40.991045,1709027740.9910452,-33.69140625,-332.03125,519.53125,-23.4375,0.0,-1.0,1.0,0.0,8.m4v,2.0
2024-02-27 10:55:40.994951,1709027740.994951,-33.203125,-1000.0,620.1171875,-22.94921875,0.0,-1.0,1.0,0.0,8.m4v,2.0
2024-02-27 10:55:40.998857,1709027740.9988568,-41.9921875,-932.6171875,367.1875,-32.71484375,0.0,-1.0,1.0,0.0,8.m4v,2.0
2024-02-27 10:55:41.002763,1709027741.0027626,-44.921875,-1000.0,-131.34765625,-30.2734375,0.0,-1.0,1.0,0.0,8.m4v,2.0
2024-02-27 10:55:41.006668,1709027741.0066683,-45.8984375,-1000.0,-49.8046875,-19.04296875,0.0,-1.0,1.0,0.0,8.m4v,2.0
2024-02-27 10:55:41.010577,1709027741.0105767,-46.38671875,-1000.0,294.921875,-21.97265625,0.0,-1.0,1.0,0.0,8.m4v,2.0
2024-02-27 10:55:41.014482,1709027741.0144825,-45.8984375,-1000.0,519.04296875,-33.203125,0.0,-1.0,1.0,0.0,8.m4v,2.0
2024-02-27 10:55:41.018388,1709027741.0183885,-42.48046875,-963.8671875,417.48046875,-24.90234375,0.0,-1.0,1.0,0.0,8.m4v,2.0
2024-02-27 10:55:41.022294,1709027741.022294,-44.921875,-1000.0,88.37890625,-28.80859375,0.0,-1.0,1.0,0.0,8.m4v,2.0
2024-02-27 10:55:41.026200,1709027741.0261998,-36.1328125,-1000.0,38.57421875,-45.8984375,0.0,-1.0,1.0,0.0,8.m4v,2.0
2024-02-27 10:55:41.030106,1709027741.0301056,-21.484375,303.7109375,643.5546875,-41.015625,0.0,-1.0,1.0,0.0,8.m4v,2.0
2024-02-27 10:55:41.034011,1709027741.0340114,-29.296875,999.51171875,999.51171875,-33.69140625,0.0,-1.0,1.0,0.0,8.m4v,2.0
2024-02-27 10:55:41.037917,1709027741.0379171,-36.62109375,901.3671875,756.8359375,-34.1796875,0.0,-1.0,1.0,0.0,8.m4v,2.0
2024-02-27 10:55:41.041823,1709027741.041823,-45.8984375,976.07421875,390.13671875,-34.1796875,0.0,-1.0,1.0,0.0,8.m4v,2.0
2024-02-27 10:55:41.045729,1709027741.0457287,-57.6171875,969.7265625,269.04296875,-39.55078125,0.0,-1.0,1.0,0.0,8.m4v,2.0
2024-02-27 10:55:41.049634,1709027741.0496345,-56.640625,969.7265625,400.390625,-37.59765625,0.0,-1.0,1.0,0.0,8.m4v,2.0
2024-02-27 10:55:41.053540,1709027741.0535402,-45.41015625,969.7265625,659.1796875,-26.85546875,0.0,-1.0,1.0,0.0,8.m4v,2.0
2024-02-27 10:55:41.057448,1709027741.0574484,-31.25,969.7265625,692.3828125,-27.83203125,0.0,-1.0,1.0,0.0,8.m4v,2.0
2024-02-27 10:55:41.061354,1709027741.0613542,-26.85546875,969.7265625,226.07421875,-38.0859375,0.0,-1.0,1.0,0.0,8.m4v,2.0
2024-02-27 10:55:41.065260,1709027741.06526,-40.52734375,969.7265625,50.78125,-39.55078125,0.0,-1.0,1.0,0.0,8.m4v,2.0
2024-02-27 10:55:41.069166,1709027741.0691657,-41.9921875,978.02734375,213.8671875,-34.66796875,0.0,-1.0,1.0,0.0,8.m4v,2.0
2024-02-27 10:55:41.073071,1709027741.0730717,-29.78515625,939.94140625,348.6328125,-37.109375,0.0,-1.0,1.0,0.0,8.m4v,2.0
2024-02-27 10:55:41.076977,1709027741.0769773,-30.76171875,960.9375,590.8203125,-38.0859375,0.0,-1.0,1.0,0.0,8.m4v,2.0
2024-02-27 10:55:41.080883,1709027741.080883,-33.69140625,999.51171875,590.33203125,-18.06640625,0.0,-1.0,1.0,0.0,8.m4v,2.0
2024-02-27 10:55:41.084789,1709027741.0847888,-46.38671875,-240.234375,-58.59375,-24.4140625,0.0,-1.0,1.0,0.0,8.m4v,2.0
2024-02-27 10:55:41.088695,1709027741.0886946,-55.6640625,-1000.0,-349.609375,-56.640625,0.0,-1.0,1.0,0.0,8.m4v,2.0
2024-02-27 10:55:41.092600,1709027741.0926003,-45.8984375,-940.4296875,-10.25390625,-52.24609375,0.0,-1.0,1.0,0.0,8.m4v,2.0
2024-02-27 10:55:41.096506,1709027741.096506,-34.1796875,-1000.0,60.05859375,-42.96875,0.0,-1.0,1.0,0.0,8.m4v,2.0
2024-02-27 10:55:41.100412,1709027741.100412,-30.76171875,-1000.0,-73.73046875,-43.45703125,0.0,-1.0,1.0,0.0,8.m4v,2.0
2024-02-27 10:55:41.104321,1709027741.1043208,-30.76171875,-1000.0,-139.16015625,-42.48046875,0.0,-1.0,1.0,0.0,8.m4v,2.0
2024-02-27 10:55:41.108227,1709027741.1082263,-28.3203125,-1000.0,-146.484375,-37.59765625,0.0,-1.0,1.0,0.0,8.m4v,2.0
2024-02-27 10:55:41.112132,1709027741.1121323,-25.390625,-1000.0,144.04296875,-39.0625,0.0,-1.0,1.0,0.0,8.m4v,2.0
2024-02-27 10:55:41.116038,1709027741.116038,-26.85546875,-942.87109375,387.6953125,-38.0859375,0.0,-1.0,1.0,0.0,8.m4v,2.0
2024-02-27 10:55:41.119944,1709027741.119944,-26.3671875,-1000.0,78.61328125,-36.62109375,0.0,-1.0,1.0,0.0,8.m4v,2.0
2024-02-27 10:55:41.123850,1709027741.1238496,-34.1796875,-306.15234375,139.6484375,-43.45703125,0.0,-1.0,1.0,0.0,8.m4v,2.0
2024-02-27 10:55:41.127755,1709027741.1277554,-32.71484375,969.23828125,577.63671875,-35.15625,0.0,-1.0,1.0,0.0,8.m4v,2.0
2024-02-27 10:55:41.131661,1709027741.1316612,-25.87890625,977.05078125,559.5703125,-35.15625,0.0,-1.0,1.0,0.0,8.m4v,2.0
2024-02-27 10:55:41.135567,1709027741.135567,-23.4375,934.08203125,395.5078125,-38.0859375,0.0,-1.0,1.0,0.0,8.m4v,2.0
2024-02-27 10:55:41.139473,1709027741.1394727,-26.85546875,979.98046875,211.42578125,-41.015625,0.0,-1.0,1.0,0.0,8.m4v,2.0
2024-02-27 10:55:41.143378,1709027741.1433785,-31.73828125,969.7265625,-72.265625,-48.33984375,0.0,-1.0,1.0,0.0,8.m4v,2.0
2024-02-27 10:55:41.147284,1709027741.1472845,-29.78515625,969.7265625,-66.40625,-46.875,0.0,-1.0,1.0,0.0,8.m4v,2.0
2024-02-27 10:55:41.151192,1709027741.1511922,-28.3203125,969.7265625,238.28125,-41.50390625,0.0,-1.0,1.0,0.0,8.m4v,2.0
2024-02-27 10:55:41.155098,1709027741.155098,-19.53125,969.7265625,289.0625,-37.109375,0.0,-1.0,1.0,0.0,8.m4v,2.0
2024-02-27 10:55:41.159004,1709027741.1590035,-17.578125,969.7265625,59.08203125,-41.9921875,0.0,-1.0,1.0,0.0,8.m4v,2.0
2024-02-27 10:55:41.162910,1709027741.1629095,-30.2734375,969.7265625,-124.51171875,-34.1796875,0.0,-1.0,1.0,0.0,8.m4v,2.0
2024-02-27 10:55:41.166815,1709027741.1668153,-37.109375,969.7265625,-94.23828125,-25.87890625,0.0,-1.0,1.0,0.0,8.m4v,2.0
2024-02-27 10:55:41.170721,1709027741.170721,-26.3671875,969.7265625,406.73828125,-38.57421875,0.0,-1.0,1.0,0.0,8.m4v,2.0
2024-02-27 10:55:41.174627,1709027741.1746268,-18.5546875,985.83984375,858.3984375,-51.7578125,0.0,-1.0,1.0,0.0,8.m4v,2.0
2024-02-27 10:55:41.178533,1709027741.1785326,-25.390625,906.25,505.37109375,-59.5703125,0.0,-1.0,1.0,0.0,8.m4v,2.0
2024-02-27 10:55:41.182438,1709027741.1824384,-25.390625,999.51171875,-83.984375,-57.12890625,0.0,-1.0,1.0,0.0,8.m4v,2.0
2024-02-27 10:55:41.186344,1709027741.186344,-26.85546875,744.140625,-291.9921875,-49.31640625,0.0,-1.0,1.0,0.0,8.m4v,2.0
2024-02-27 10:55:41.190250,1709027741.19025,-35.64453125,-710.9375,-225.5859375,-53.22265625,0.0,-1.0,1.0,0.0,8.m4v,2.0
2024-02-27 10:55:41.194156,1709027741.1941557,-27.34375,-1000.0,-20.99609375,-45.41015625,0.0,-1.0,1.0,0.0,8.m4v,2.0
2024-02-27 10:55:41.198063,1709027741.1980634,-14.6484375,-931.640625,-39.55078125,-41.015625,0.0,-1.0,1.0,0.0,8.m4v,2.0
2024-02-27 10:55:41.201969,1709027741.2019691,-15.625,-1000.0,-281.25,-47.36328125,0.0,-1.0,1.0,0.0,8.m4v,2.0
2024-02-27 10:55:41.205875,1709027741.205875,-32.2265625,-1000.0,-499.51171875,-42.48046875,0.0,-1.0,1.0,0.0,8.m4v,2.0
2024-02-27 10:55:41.209781,1709027741.2097807,-38.0859375,-941.40625,-316.40625,-35.15625,0.0,-1.0,1.0,0.0,8.m4v,2.0
2024-02-27 10:55:41.213686,1709027741.2136865,-30.76171875,-1000.0,-95.21484375,-37.109375,0.0,-1.0,1.0,0.0,8.m4v,2.0
2024-02-27 10:55:41.217592,1709027741.2175922,-26.85546875,-880.37109375,-58.10546875,-36.1328125,0.0,-1.0,1.0,0.0,8.m4v,2.0
2024-02-27 10:55:41.221498,1709027741.221498,-27.34375,580.078125,83.49609375,-32.2265625,0.0,-1.0,1.0,0.0,8.m4v,2.0
2024-02-27 10:55:41.225404,1709027741.2254038,-28.80859375,999.51171875,-68.359375,-28.3203125,0.0,-1.0,1.0,0.0,8.m4v,2.0
2024-02-27 10:55:41.229310,1709027741.2293096,-26.3671875,895.5078125,-69.82421875,-19.04296875,0.0,-1.0,1.0,0.0,8.m4v,2.0
2024-02-27 10:55:41.233215,1709027741.233215,-20.01953125,985.83984375,290.0390625,-27.34375,0.0,-1.0,1.0,0.0,8.m4v,2.0
2024-02-27 10:55:41.237121,1709027741.237121,-21.97265625,970.21484375,337.890625,-34.1796875,0.0,-1.0,1.0,0.0,8.m4v,2.0
2024-02-27 10:55:41.241027,1709027741.2410269,-37.59765625,969.7265625,-113.76953125,-33.203125,0.0,-1.0,1.0,0.0,8.m4v,2.0
2024-02-27 10:55:41.244934,1709027741.2449343,-41.50390625,969.7265625,-384.765625,-51.26953125,0.0,-1.0,1.0,0.0,8.m4v,2.0
2024-02-27 10:55:41.248840,1709027741.24884,-32.2265625,969.7265625,-270.5078125,-56.640625,0.0,-1.0,1.0,0.0,8.m4v,2.0
2024-02-27 10:55:41.252746,1709027741.252746,-21.97265625,969.7265625,56.640625,-45.8984375,0.0,-1.0,1.0,0.0,8.m4v,2.0
2024-02-27 10:55:41.256652,1709027741.2566516,-18.5546875,969.7265625,60.546875,-42.96875,0.0,-1.0,1.0,0.0,8.m4v,2.0
2024-02-27 10:55:41.260557,1709027741.2605574,-21.484375,985.83984375,-246.09375,-43.45703125,0.0,-1.0,1.0,0.0,8.m4v,2.0
2024-02-27 10:55:41.264463,1709027741.2644632,-19.53125,912.109375,-162.59765625,-38.0859375,0.0,-1.0,1.0,0.0,8.m4v,2.0
2024-02-27 10:55:41.268369,1709027741.268369,-18.06640625,999.51171875,236.81640625,-28.3203125,0.0,-1.0,1.0,0.0,8.m4v,2.0
2024-02-27 10:55:41.272275,1709027741.2722747,-20.5078125,859.375,274.4140625,-30.2734375,0.0,-1.0,1.0,0.0,8.m4v,2.0
2024-02-27 10:55:41.276181,1709027741.2761805,-30.76171875,-595.21484375,-18.06640625,-39.55078125,0.0,-1.0,1.0,0.0,8.m4v,2.0
2024-02-27 10:55:41.280086,1709027741.2800865,-39.0625,-1000.0,-348.6328125,-49.31640625,0.0,-1.0,1.0,0.0,8.m4v,2.0
2024-02-27 10:55:41.283992,1709027741.283992,-37.59765625,-925.78125,-496.09375,-50.29296875,0.0,-1.0,1.0,0.0,8.m4v,2.0
2024-02-27 10:55:41.287898,1709027741.2878978,-32.71484375,-1000.0,-242.1875,-44.43359375,0.0,-1.0,1.0,0.0,8.m4v,2.0
2024-02-27 10:55:41.291805,1709027741.2918053,-23.4375,-1000.0,145.99609375,-30.2734375,0.0,-1.0,1.0,0.0,8.m4v,2.0
2024-02-27 10:55:41.295711,1709027741.295711,-19.53125,-1000.0,342.28515625,-20.01953125,0.0,-1.0,1.0,0.0,8.m4v,2.0
2024-02-27 10:55:41.299617,1709027741.2996168,-27.34375,-975.5859375,14.6484375,-28.80859375,0.0,-1.0,1.0,0.0,8.m4v,2.0
2024-02-27 10:55:41.334769,1709027741.3347688,-40.0390625,969.7265625,229.00390625,-46.875,0.0,-1.0,1.0,0.0,8.m4v,2.0
2024-02-27 10:55:41.338677,1709027741.3386774,-43.45703125,969.7265625,50.78125,-46.875,0.0,-1.0,1.0,0.0,8.m4v,2.0
2024-02-27 10:55:41.342583,1709027741.3425832,-41.015625,969.7265625,-238.76953125,-46.38671875,0.0,-1.0,1.0,0.0,8.m4v,2.0
2024-02-27 10:55:41.760521,1709027741.7605214,-47.8515625,-1000.0,-446.2890625,-41.9921875,0.0,-1.0,1.0,0.0,8.m4v,2.0
2024-02-27 10:55:41.768333,1709027741.768333,-50.29296875,-991.69921875,-652.34375,-54.6875,0.0,-1.0,1.0,0.0,8.m4v,2.0
2024-02-27 10:55:41.776145,1709027741.7761445,-18.5546875,218.26171875,85.44921875,-31.73828125,0.0,-1.0,1.0,0.0,8.m4v,2.0
2024-02-27 10:55:41.783956,1709027741.783956,-24.90234375,908.203125,15.13671875,-27.34375,0.0,-1.0,1.0,0.0,8.m4v,2.0
2024-02-27 10:55:41.791768,1709027741.7917676,-18.5546875,970.703125,-197.265625,-15.625,0.0,-1.0,1.0,0.0,8.m4v,2.0
2024-02-27 10:55:41.799579,1709027741.7995791,-11.71875,970.21484375,-292.48046875,-20.01953125,0.0,-1.0,1.0,0.0,8.m4v,2.0
2024-02-27 10:55:41.807393,1709027741.807393,-19.53125,969.7265625,-329.58984375,-29.296875,0.0,-1.0,1.0,0.0,8.m4v,2.0
2024-02-27 10:55:41.815205,1709027741.8152046,-3.90625,969.7265625,20.5078125,-31.25,0.0,-1.0,1.0,0.0,8.m4v,2.0
2024-02-27 10:55:41.823016,1709027741.8230162,-32.71484375,969.7265625,-481.93359375,-40.52734375,0.0,-1.0,1.0,0.0,8.m4v,2.0
2024-02-27 10:55:41.830828,1709027741.8308277,-24.4140625,910.15625,370.60546875,-21.484375,0.0,-1.0,1.0,0.0,8.m4v,2.0
2024-02-27 10:55:41.834733,1709027741.8347332,-9.27734375,999.51171875,521.97265625,-23.4375,0.0,-1.0,1.0,0.0,8.m4v,2.0
2024-02-27 10:55:41.838639,1709027741.838639,-1.46484375,837.40234375,39.0625,-33.69140625,0.0,-1.0,1.0,0.0,8.m4v,2.0
2024-02-27 10:55:41.842545,1709027741.8425448,-21.97265625,-625.0,-680.17578125,-43.45703125,0.0,-1.0,1.0,0.0,8.m4v,2.0
2024-02-27 10:55:41.846451,1709027741.8464506,-20.99609375,-1000.0,-935.05859375,-43.9453125,0.0,-1.0,1.0,0.0,8.m4v,2.0
2024-02-27 10:55:41.850356,1709027741.8503563,-11.23046875,-926.7578125,-698.73046875,-43.45703125,0.0,-1.0,1.0,0.0,8.m4v,2.0
2024-02-27 10:55:41.854264,1709027741.8542645,-14.16015625,-1000.0,-425.78125,-49.31640625,0.0,-1.0,1.0,0.0,8.m4v,2.0
2024-02-27 10:55:41.858170,1709027741.8581705,-20.99609375,-1000.0,-461.9140625,-43.45703125,0.0,-1.0,1.0,0.0,8.m4v,2.0
2024-02-27 10:55:41.862076,1709027741.862076,-24.4140625,-1000.0,-608.88671875,-43.45703125,0.0,-1.0,1.0,0.0,8.m4v,2.0
2024-02-27 10:55:41.865982,1709027741.8659818,-26.85546875,-945.80078125,-620.60546875,-45.8984375,0.0,-1.0,1.0,0.0,8.m4v,2.0
2024-02-27 10:55:41.869888,1709027741.8698876,-25.87890625,-1000.0,-444.82421875,-32.71484375,0.0,-1.0,1.0,0.0,8.m4v,2.0
2024-02-27 10:55:41.873793,1709027741.8737934,-19.04296875,-916.9921875,-128.90625,-19.53125,0.0,-1.0,1.0,0.0,8.m4v,2.0
2024-02-27 10:55:41.877699,1709027741.8776991,-12.20703125,524.90234375,248.53515625,-13.18359375,0.0,-1.0,1.0,0.0,8.m4v,2.0
2024-02-27 10:55:41.881605,1709027741.881605,-21.484375,999.51171875,-42.48046875,-26.85546875,0.0,-1.0,1.0,0.0,8.m4v,2.0
2024-02-27 10:55:41.885511,1709027741.8855107,-31.73828125,895.01953125,-377.44140625,-39.0625,0.0,-1.0,1.0,0.0,8.m4v,2.0
2024-02-27 10:55:41.889416,1709027741.8894165,-22.94921875,984.375,-208.0078125,-41.50390625,0.0,-1.0,1.0,0.0,8.m4v,2.0
2024-02-27 10:55:41.893322,1709027741.8933222,-20.99609375,969.7265625,25.390625,-41.50390625,0.0,-1.0,1.0,0.0,8.m4v,2.0
2024-02-27 10:55:41.897228,1709027741.897228,-19.04296875,969.7265625,172.36328125,-36.62109375,0.0,-1.0,1.0,0.0,8.m4v,2.0
2024-02-27 10:55:41.901136,1709027741.901136,-20.01953125,969.7265625,-134.27734375,-41.015625,0.0,-1.0,1.0,0.0,8.m4v,2.0
2024-02-27 10:55:41.905042,1709027741.9050417,-24.90234375,969.7265625,-397.4609375,-40.52734375,0.0,-1.0,1.0,0.0,8.m4v,2.0
2024-02-27 10:55:41.908947,1709027741.9089477,-25.390625,969.7265625,-179.19921875,-41.50390625,0.0,-1.0,1.0,0.0,8.m4v,2.0
2024-02-27 10:55:41.912853,1709027741.9128532,-18.06640625,969.7265625,195.80078125,-39.0625,0.0,-1.0,1.0,0.0,8.m4v,2.0
2024-02-27 10:55:41.916759,1709027741.916759,-11.71875,986.328125,33.203125,-30.76171875,0.0,-1.0,1.0,0.0,8.m4v,2.0
2024-02-27 10:55:41.920665,1709027741.9206643,-12.6953125,912.109375,66.89453125,-22.94921875,0.0,-1.0,1.0,0.0,8.m4v,2.0
2024-02-27 10:55:41.924570,1709027741.9245703,-18.5546875,999.51171875,277.34375,-27.83203125,0.0,-1.0,1.0,0.0,8.m4v,2.0
2024-02-27 10:55:41.928476,1709027741.928476,-28.3203125,860.3515625,8.30078125,-44.43359375,0.0,-1.0,1.0,0.0,8.m4v,2.0
2024-02-27 10:55:41.932382,1709027741.932382,-37.109375,-596.6796875,-192.87109375,-48.33984375,0.0,-1.0,1.0,0.0,8.m4v,2.0
2024-02-27 10:55:41.936288,1709027741.9362876,-31.73828125,-1000.0,-412.59765625,-40.52734375,0.0,-1.0,1.0,0.0,8.m4v,2.0
2024-02-27 10:55:41.940193,1709027741.9401934,-25.390625,-925.78125,-678.7109375,-32.2265625,0.0,-1.0,1.0,0.0,8.m4v,2.0
2024-02-27 10:55:41.944099,1709027741.9440992,-26.85546875,-1000.0,-824.21875,-31.73828125,0.0,-1.0,1.0,0.0,8.m4v,2.0
2024-02-27 10:55:41.948007,1709027741.9480069,-36.62109375,-1000.0,-691.40625,-33.69140625,0.0,-1.0,1.0,0.0,8.m4v,2.0
2024-02-27 10:55:41.951913,1709027741.9519126,-41.50390625,-1000.0,-332.03125,-28.80859375,0.0,-1.0,1.0,0.0,8.m4v,2.0
2024-02-27 10:55:41.955818,1709027741.9558184,-33.69140625,-1000.0,-47.8515625,-36.1328125,0.0,-1.0,1.0,0.0,8.m4v,2.0
2024-02-27 10:55:41.959724,1709027741.9597242,-31.25,-934.08203125,-255.859375,-52.24609375,0.0,-1.0,1.0,0.0,8.m4v,2.0
2024-02-27 10:55:41.963630,1709027741.96363,-40.0390625,-1000.0,-669.43359375,-53.22265625,0.0,-1.0,1.0,0.0,8.m4v,2.0
2024-02-27 10:55:41.967536,1709027741.9675355,-36.1328125,-720.21484375,-270.01953125,-42.96875,0.0,-1.0,1.0,0.0,8.m4v,2.0
2024-02-27 10:55:41.971442,1709027741.9714415,-23.4375,735.83984375,398.4375,-32.2265625,0.0,-1.0,1.0,0.0,8.m4v,2.0
2024-02-27 10:55:41.975347,1709027741.9753473,-4.39453125,999.51171875,108.3984375,-18.06640625,0.0,-1.0,1.0,0.0,8.m4v,2.0
2024-02-27 10:55:41.979253,1709027741.979253,1.46484375,904.296875,-414.0625,-22.4609375,0.0,-1.0,1.0,0.0,8.m4v,2.0
2024-02-27 10:55:41.983159,1709027741.9831588,-29.78515625,986.328125,-528.3203125,-55.17578125,0.0,-1.0,1.0,0.0,8.m4v,2.0
2024-02-27 10:55:41.987065,1709027741.9870646,-41.9921875,970.21484375,-475.5859375,-64.94140625,0.0,-1.0,1.0,0.0,8.m4v,2.0
2024-02-27 10:55:41.990970,1709027741.9909704,-33.69140625,970.21484375,-247.0703125,-55.17578125,0.0,-1.0,1.0,0.0,8.m4v,2.0
2024-02-27 10:55:41.994878,1709027741.9948778,-31.25,969.7265625,-77.63671875,-44.43359375,0.0,-1.0,1.0,0.0,8.m4v,2.0
2024-02-27 10:55:41.998784,1709027741.9987836,-29.78515625,969.7265625,-134.765625,-46.38671875,0.0,-1.0,1.0,0.0,8.m4v,2.0
2024-02-27 10:55:42.002689,1709027742.0026894,-33.203125,969.7265625,-325.68359375,-66.89453125,0.0,-1.0,1.0,0.0,8.m4v,2.0
2024-02-27 10:55:42.006595,1709027742.0065951,-31.25,969.7265625,-319.82421875,-67.3828125,0.0,-1.0,1.0,0.0,8.m4v,2.0
2024-02-27 10:55:42.010501,1709027742.010501,-34.1796875,986.328125,-65.91796875,-55.17578125,0.0,-1.0,1.0,0.0,8.m4v,2.0
2024-02-27 10:55:42.014407,1709027742.0144067,-32.2265625,912.109375,281.73828125,-50.78125,0.0,-1.0,1.0,0.0,8.m4v,2.0
2024-02-27 10:55:42.018312,1709027742.0183125,-29.78515625,999.51171875,522.94921875,-47.36328125,0.0,-1.0,1.0,0.0,8.m4v,2.0
2024-02-27 10:55:42.022218,1709027742.0222182,-42.96875,856.93359375,132.32421875,-49.8046875,0.0,-1.0,1.0,0.0,8.m4v,2.0
2024-02-27 10:55:42.026124,1709027742.026124,-55.6640625,-601.5625,-484.375,-51.7578125,0.0,-1.0,1.0,0.0,8.m4v,2.0
2024-02-27 10:55:42.030030,1709027742.0300298,-43.45703125,-1000.0,-459.47265625,-37.109375,0.0,-1.0,1.0,0.0,8.m4v,2.0
2024-02-27 10:55:42.033936,1709027742.0339355,-40.52734375,-925.78125,-176.26953125,-47.8515625,0.0,-1.0,1.0,0.0,8.m4v,2.0
2024-02-27 10:55:42.037841,1709027742.037841,-41.015625,-1000.0,-239.2578125,-55.17578125,0.0,-1.0,1.0,0.0,8.m4v,2.0
2024-02-27 10:55:42.041750,1709027742.04175,-31.73828125,-1000.0,-456.0546875,-46.38671875,0.0,-1.0,1.0,0.0,8.m4v,2.0
2024-02-27 10:55:42.045656,1709027742.0456555,-32.71484375,-1000.0,-505.37109375,-39.55078125,0.0,-1.0,1.0,0.0,8.m4v,2.0
2024-02-27 10:55:42.049562,1709027742.0495615,-32.2265625,-1000.0,-239.74609375,-32.2265625,0.0,-1.0,1.0,0.0,8.m4v,2.0
2024-02-27 10:55:42.053467,1709027742.0534673,-23.92578125,-1000.0,92.28515625,-19.04296875,0.0,-1.0,1.0,0.0,8.m4v,2.0
2024-02-27 10:55:42.057373,1709027742.057373,-20.5078125,-1000.0,27.83203125,-13.18359375,0.0,-1.0,1.0,0.0,8.m4v,2.0
2024-02-27 10:55:42.061279,1709027742.0612788,-17.578125,-1000.0,18.5546875,-28.3203125,0.0,-1.0,1.0,0.0,8.m4v,2.0
2024-02-27 10:55:42.065185,1709027742.0651846,-17.578125,-1000.0,128.41796875,-30.2734375,0.0,-1.0,1.0,0.0,8.m4v,2.0
2024-02-27 10:55:42.069090,1709027742.0690904,-25.390625,-1000.0,24.4140625,-26.85546875,0.0,-1.0,1.0,0.0,8.m4v,2.0
2024-02-27 10:55:42.072996,1709027742.072996,-24.4140625,-1000.0,150.87890625,-26.85546875,0.0,-1.0,1.0,0.0,8.m4v,2.0
2024-02-27 10:55:42.076902,1709027742.076902,-16.11328125,-1000.0,322.75390625,-33.69140625,0.0,-1.0,1.0,0.0,8.m4v,2.0
2024-02-27 10:55:42.080808,1709027742.0808077,-17.578125,-1000.0,138.671875,-35.64453125,0.0,-1.0,1.0,0.0,8.m4v,2.0
2024-02-27 10:55:42.084713,1709027742.0847132,-26.3671875,-1000.0,-59.5703125,-35.15625,0.0,-1.0,1.0,0.0,8.m4v,2.0
2024-02-27 10:55:42.088622,1709027742.088622,-29.78515625,-1000.0,118.65234375,-36.1328125,0.0,-1.0,1.0,0.0,8.m4v,2.0
2024-02-27 10:55:42.092528,1709027742.0925276,-28.3203125,-1000.0,445.3125,-34.1796875,0.0,-1.0,1.0,0.0,8.m4v,2.0
2024-02-27 10:55:42.096433,1709027742.0964334,-19.04296875,-943.84765625,464.84375,-24.90234375,0.0,-1.0,1.0,0.0,8.m4v,2.0
2024-02-27 10:55:42.100339,1709027742.1003392,-19.53125,-1000.0,259.765625,-17.08984375,0.0,-1.0,1.0,0.0,8.m4v,2.0
2024-02-27 10:55:42.104245,1709027742.104245,-31.73828125,-901.3671875,294.43359375,-27.34375,0.0,-1.0,1.0,0.0,8.m4v,2.0
2024-02-27 10:55:42.108151,1709027742.1081507,-25.390625,550.29296875,781.73828125,-26.3671875,0.0,-1.0,1.0,0.0,8.m4v,2.0
2024-02-27 10:55:42.112056,1709027742.1120565,-18.5546875,999.51171875,999.51171875,-17.08984375,0.0,-1.0,1.0,0.0,8.m4v,2.0
2024-02-27 10:55:42.115962,1709027742.1159625,-21.484375,895.01953125,825.68359375,-22.4609375,0.0,-1.0,1.0,0.0,8.m4v,2.0
2024-02-27 10:55:42.119868,1709027742.119868,-19.04296875,985.3515625,555.17578125,-22.4609375,0.0,-1.0,1.0,0.0,8.m4v,2.0
2024-02-27 10:55:42.123774,1709027742.1237738,-20.01953125,969.7265625,331.0546875,-22.94921875,0.0,-1.0,1.0,0.0,8.m4v,2.0
2024-02-27 10:55:42.127680,1709027742.1276796,-36.62109375,969.7265625,352.5390625,-30.76171875,0.0,-1.0,1.0,0.0,8.m4v,2.0
2024-02-27 10:55:42.131585,1709027742.1315854,-37.109375,969.7265625,750.0,-27.34375,0.0,-1.0,1.0,0.0,8.m4v,2.0
2024-02-27 10:55:42.135494,1709027742.1354938,-20.99609375,969.7265625,985.83984375,-33.203125,0.0,-1.0,1.0,0.0,8.m4v,2.0
2024-02-27 10:55:42.139400,1709027742.1393995,-32.2265625,969.7265625,661.1328125,-42.48046875,0.0,-1.0,1.0,0.0,8.m4v,2.0
2024-02-27 10:55:42.143305,1709027742.1433053,-44.43359375,969.7265625,185.05859375,-43.9453125,0.0,-1.0,1.0,0.0,8.m4v,2.0
2024-02-27 10:55:42.147211,1709027742.147211,-40.0390625,973.14453125,187.98828125,-36.62109375,0.0,-1.0,1.0,0.0,8.m4v,2.0
2024-02-27 10:55:42.151117,1709027742.1511168,-35.64453125,961.9140625,506.34765625,-28.80859375,0.0,-1.0,1.0,0.0,8.m4v,2.0
2024-02-27 10:55:42.155023,1709027742.1550226,-30.2734375,925.29296875,877.44140625,-28.80859375,0.0,-1.0,1.0,0.0,8.m4v,2.0
2024-02-27 10:55:42.158928,1709027742.1589284,-29.296875,999.51171875,870.60546875,-28.3203125,0.0,-1.0,1.0,0.0,8.m4v,2.0
2024-02-27 10:55:42.162834,1709027742.1628342,-41.50390625,100.09765625,206.0546875,-29.78515625,0.0,-1.0,1.0,0.0,8.m4v,2.0
2024-02-27 10:55:42.166740,1709027742.16674,-45.8984375,-1000.0,-170.8984375,-40.0390625,0.0,-1.0,1.0,0.0,8.m4v,2.0
2024-02-27 10:55:42.170646,1709027742.1706457,-40.0390625,-981.4453125,141.11328125,-37.109375,0.0,-1.0,1.0,0.0,8.m4v,2.0
2024-02-27 10:55:42.174551,1709027742.1745515,-41.50390625,-977.5390625,301.26953125,-33.203125,0.0,-1.0,1.0,0.0,8.m4v,2.0
2024-02-27 10:55:42.178457,1709027742.1784573,-37.109375,-1000.0,124.0234375,-29.78515625,0.0,-1.0,1.0,0.0,8.m4v,2.0
2024-02-27 10:55:42.182365,1709027742.1823654,-37.109375,-1000.0,-104.4921875,-20.5078125,0.0,-1.0,1.0,0.0,8.m4v,2.0
2024-02-27 10:55:42.186271,1709027742.1862712,-49.8046875,-941.40625,-101.5625,-28.80859375,0.0,-1.0,1.0,0.0,8.m4v,2.0
2024-02-27 10:55:42.190177,1709027742.190177,-48.828125,-1000.0,229.98046875,-38.0859375,0.0,-1.0,1.0,0.0,8.m4v,2.0
2024-02-27 10:55:42.194083,1709027742.1940827,-40.0390625,-879.39453125,559.08203125,-36.1328125,0.0,-1.0,1.0,0.0,8.m4v,2.0
2024-02-27 10:55:42.197989,1709027742.1979885,-40.52734375,581.0546875,617.1875,-38.0859375,0.0,-1.0,1.0,0.0,8.m4v,2.0
2024-02-27 10:55:42.201894,1709027742.2018943,-37.59765625,999.51171875,680.6640625,-39.55078125,0.0,-1.0,1.0,0.0,8.m4v,2.0
2024-02-27 10:55:42.205800,1709027742.2058,-34.1796875,895.5078125,655.2734375,-38.0859375,0.0,-1.0,1.0,0.0,8.m4v,2.0
2024-02-27 10:55:42.209706,1709027742.2097058,-38.0859375,985.83984375,540.0390625,-33.69140625,0.0,-1.0,1.0,0.0,8.m4v,2.0
2024-02-27 10:55:42.213612,1709027742.2136116,-29.78515625,969.7265625,622.55859375,-32.71484375,0.0,-1.0,1.0,0.0,8.m4v,2.0
2024-02-27 10:55:42.217517,1709027742.2175174,-28.3203125,969.7265625,364.2578125,-38.57421875,0.0,-1.0,1.0,0.0,8.m4v,2.0
2024-02-27 10:55:42.221423,1709027742.2214231,-38.0859375,969.7265625,124.0234375,-37.59765625,0.0,-1.0,1.0,0.0,8.m4v,2.0
2024-02-27 10:55:42.225329,1709027742.225329,-39.55078125,969.7265625,84.47265625,-31.25,0.0,-1.0,1.0,0.0,8.m4v,2.0
2024-02-27 10:55:42.229237,1709027742.2292368,-24.90234375,969.7265625,198.73046875,-26.3671875,0.0,-1.0,1.0,0.0,8.m4v,2.0
2024-02-27 10:55:42.233143,1709027742.2331426,-8.7890625,969.7265625,468.26171875,-20.5078125,0.0,-1.0,1.0,0.0,8.m4v,2.0
2024-02-27 10:55:42.237048,1709027742.2370484,-27.34375,969.7265625,407.71484375,-33.69140625,0.0,-1.0,1.0,0.0,8.m4v,2.0
2024-02-27 10:55:42.240954,1709027742.2409542,-46.38671875,969.7265625,131.8359375,-56.15234375,0.0,-1.0,1.0,0.0,8.m4v,2.0
2024-02-27 10:55:42.244860,1709027742.24486,-56.15234375,969.7265625,48.828125,-56.15234375,0.0,-1.0,1.0,0.0,8.m4v,2.0
2024-02-27 10:55:42.248766,1709027742.2487657,-48.828125,984.86328125,487.3046875,-33.203125,0.0,-1.0,1.0,0.0,8.m4v,2.0
2024-02-27 10:55:42.252671,1709027742.2526717,-33.69140625,917.48046875,865.72265625,-31.73828125,0.0,-1.0,1.0,0.0,8.m4v,2.0
2024-02-27 10:55:42.256577,1709027742.2565773,-46.875,999.51171875,651.85546875,-47.36328125,0.0,-1.0,1.0,0.0,8.m4v,2.0
2024-02-27 10:55:42.260483,1709027742.260483,-61.03515625,901.85546875,149.4140625,-53.22265625,0.0,-1.0,1.0,0.0,8.m4v,2.0
2024-02-27 10:55:42.264389,1709027742.2643888,-68.359375,-528.80859375,-308.10546875,-56.640625,0.0,-1.0,1.0,0.0,8.m4v,2.0
2024-02-27 10:55:42.268295,1709027742.2682946,-62.01171875,-1000.0,-358.88671875,-47.8515625,0.0,-1.0,1.0,0.0,8.m4v,2.0
2024-02-27 10:55:42.272200,1709027742.2722003,-45.41015625,-925.78125,-19.04296875,-37.59765625,0.0,-1.0,1.0,0.0,8.m4v,2.0
2024-02-27 10:55:42.276108,1709027742.2761085,-42.96875,-1000.0,35.15625,-35.15625,0.0,-1.0,1.0,0.0,8.m4v,2.0
2024-02-27 10:55:42.280014,1709027742.280014,-40.52734375,-1000.0,-265.13671875,-31.73828125,0.0,-1.0,1.0,0.0,8.m4v,2.0
2024-02-27 10:55:42.283920,1709027742.2839198,-40.0390625,-1000.0,-395.99609375,-25.87890625,0.0,-1.0,1.0,0.0,8.m4v,2.0
2024-02-27 10:55:42.287826,1709027742.2878256,-42.96875,-934.5703125,-100.5859375,-16.11328125,0.0,-1.0,1.0,0.0,8.m4v,2.0
2024-02-27 10:55:42.291731,1709027742.2917314,-29.78515625,-1000.0,229.00390625,0.0,0.0,-1.0,1.0,0.0,8.m4v,2.0
2024-02-27 10:55:42.295637,1709027742.2956371,-11.71875,-449.70703125,517.08984375,-7.32421875,0.0,-1.0,1.0,0.0,8.m4v,2.0
2024-02-27 10:55:42.299543,1709027742.299543,-15.625,915.0390625,660.64453125,-29.296875,0.0,-1.0,1.0,0.0,8.m4v,2.0
2024-02-27 10:55:42.303449,1709027742.303449,-41.50390625,999.51171875,184.08203125,-38.57421875,0.0,-1.0,1.0,0.0,8.m4v,2.0
2024-02-27 10:55:42.307354,1709027742.3073545,-43.9453125,923.33984375,-124.51171875,-28.80859375,0.0,-1.0,1.0,0.0,8.m4v,2.0
2024-02-27 10:55:42.311260,1709027742.3112602,-43.45703125,982.91015625,68.359375,-33.69140625,0.0,-1.0,1.0,0.0,8.m4v,2.0
2024-02-27 10:55:42.315166,1709027742.315166,-39.55078125,969.7265625,326.66015625,-40.0390625,0.0,-1.0,1.0,0.0,8.m4v,2.0
2024-02-27 10:55:42.319072,1709027742.3190718,-36.62109375,969.7265625,132.8125,-36.62109375,0.0,-1.0,1.0,0.0,8.m4v,2.0
2024-02-27 10:55:42.322979,1709027742.3229797,-34.66796875,969.7265625,-245.60546875,-30.2734375,0.0,-1.0,1.0,0.0,8.m4v,2.0
2024-02-27 10:55:42.326885,1709027742.3268852,-36.1328125,969.7265625,-242.1875,-19.53125,0.0,-1.0,1.0,0.0,8.m4v,2.0
2024-02-27 10:55:42.330791,1709027742.330791,-39.55078125,969.7265625,71.77734375,-23.4375,0.0,-1.0,1.0,0.0,8.m4v,2.0
2024-02-27 10:55:42.334697,1709027742.3346968,-31.25,969.7265625,210.44921875,-30.76171875,0.0,-1.0,1.0,0.0,8.m4v,2.0
2024-02-27 10:55:42.338603,1709027742.3386023,-27.83203125,970.21484375,-31.73828125,-32.71484375,0.0,-1.0,1.0,0.0,8.m4v,2.0
2024-02-27 10:55:42.342508,1709027742.3425083,-17.578125,973.14453125,162.109375,-28.80859375,0.0,-1.0,1.0,0.0,8.m4v,2.0
2024-02-27 10:55:42.346414,1709027742.346414,-28.3203125,960.9375,481.4453125,-26.85546875,0.0,-1.0,1.0,0.0,8.m4v,2.0
2024-02-27 10:55:42.350320,1709027742.35032,-45.41015625,925.78125,335.9375,-28.80859375,0.0,-1.0,1.0,0.0,8.m4v,2.0
2024-02-27 10:55:42.354226,1709027742.3542256,-44.43359375,999.51171875,144.53125,-27.83203125,0.0,-1.0,1.0,0.0,8.m4v,2.0
2024-02-27 10:55:42.358131,1709027742.3581314,-45.8984375,76.66015625,-198.2421875,-20.99609375,0.0,-1.0,1.0,0.0,8.m4v,2.0
2024-02-27 10:55:42.362037,1709027742.3620372,-45.41015625,-1000.0,-562.98828125,-26.85546875,0.0,-1.0,1.0,0.0,8.m4v,2.0
2024-02-27 10:55:42.365943,1709027742.365943,-47.36328125,-979.00390625,-541.015625,-46.38671875,0.0,-1.0,1.0,0.0,8.m4v,2.0
2024-02-27 10:55:42.369852,1709027742.3698518,-55.6640625,-979.00390625,-327.63671875,-42.48046875,0.0,-1.0,1.0,0.0,8.m4v,2.0
2024-02-27 10:55:42.373758,1709027742.3737576,-51.7578125,-1000.0,24.90234375,-27.83203125,0.0,-1.0,1.0,0.0,8.m4v,2.0
2024-02-27 10:55:42.377663,1709027742.3776634,-48.33984375,-1000.0,179.19921875,-34.1796875,0.0,-1.0,1.0,0.0,8.m4v,2.0
2024-02-27 10:55:42.381569,1709027742.3815691,-52.24609375,-1000.0,-206.54296875,-46.875,0.0,-1.0,1.0,0.0,8.m4v,2.0
2024-02-27 10:55:42.385475,1709027742.385475,-52.734375,-1000.0,-476.07421875,-45.8984375,0.0,-1.0,1.0,0.0,8.m4v,2.0
2024-02-27 10:55:42.389381,1709027742.3893807,-40.0390625,-1000.0,-37.59765625,-29.296875,0.0,-1.0,1.0,0.0,8.m4v,2.0
2024-02-27 10:55:42.393286,1709027742.3932865,-35.15625,-1000.0,337.40234375,-22.4609375,0.0,-1.0,1.0,0.0,8.m4v,2.0
2024-02-27 10:55:42.397192,1709027742.3971922,-41.9921875,-1000.0,-69.3359375,-30.2734375,0.0,-1.0,1.0,0.0,8.m4v,2.0
2024-02-27 10:55:42.401098,1709027742.401098,-42.96875,-1000.0,-324.70703125,-31.73828125,0.0,-1.0,1.0,0.0,8.m4v,2.0
2024-02-27 10:55:42.405004,1709027742.4050038,-43.9453125,-1000.0,-304.19921875,-36.62109375,0.0,-1.0,1.0,0.0,8.m4v,2.0
2024-02-27 10:55:42.428441,1709027742.4284413,-49.8046875,-1000.0,-99.12109375,-26.3671875,0.0,-1.0,1.0,0.0,8.m4v,2.0
2024-02-27 10:55:42.432347,1709027742.432347,-45.41015625,-902.83203125,72.265625,-37.109375,0.0,-1.0,1.0,0.0,8.m4v,2.0
2024-02-27 10:55:42.436253,1709027742.4362528,-33.69140625,547.8515625,393.06640625,-29.78515625,0.0,-1.0,1.0,0.0,8.m4v,2.0
2024-02-27 10:55:42.440159,1709027742.4401586,-26.85546875,999.51171875,712.40234375,-19.04296875,0.0,-1.0,1.0,0.0,8.m4v,2.0
2024-02-27 10:55:42.444064,1709027742.4440644,-24.90234375,895.01953125,415.52734375,-23.4375,0.0,-1.0,1.0,0.0,8.m4v,2.0
2024-02-27 10:55:42.447970,1709027742.4479702,-40.52734375,984.86328125,102.5390625,-37.109375,0.0,-1.0,1.0,0.0,8.m4v,2.0
2024-02-27 10:55:42.451876,1709027742.451876,-51.7578125,969.7265625,317.87109375,-40.0390625,0.0,-1.0,1.0,0.0,8.m4v,2.0
2024-02-27 10:55:42.455782,1709027742.4557817,-42.96875,969.7265625,268.06640625,-40.52734375,0.0,-1.0,1.0,0.0,8.m4v,2.0
2024-02-27 10:55:42.459687,1709027742.4596877,-42.96875,969.7265625,20.99609375,-40.52734375,0.0,-1.0,1.0,0.0,8.m4v,2.0
2024-02-27 10:55:42.467502,1709027742.467502,-54.6875,969.7265625,-48.33984375,-33.69140625,0.0,-1.0,1.0,0.0,8.m4v,2.0
2024-02-27 10:55:42.471408,1709027742.4714077,-44.921875,969.7265625,212.40234375,-28.80859375,0.0,-1.0,1.0,0.0,8.m4v,2.0
2024-02-27 10:55:42.479219,1709027742.4792192,-38.57421875,986.328125,24.90234375,-38.57421875,0.0,-1.0,1.0,0.0,8.m4v,2.0
2024-02-27 10:55:42.483125,1709027742.483125,-41.50390625,907.71484375,-3.41796875,-40.0390625,0.0,-1.0,1.0,0.0,8.m4v,2.0
2024-02-27 10:55:42.490937,1709027742.4909365,-47.8515625,799.31640625,79.58984375,-28.3203125,0.0,-1.0,1.0,0.0,8.m4v,2.0
2024-02-27 10:55:42.494842,1709027742.4948423,-60.546875,-663.57421875,64.94140625,-26.85546875,0.0,-1.0,1.0,0.0,8.m4v,2.0
2024-02-27 10:55:42.502654,1709027742.5026538,-59.08203125,-928.7109375,-569.3359375,-21.97265625,0.0,-1.0,1.0,0.0,8.m4v,2.0
2024-02-27 10:55:42.510468,1709027742.5104678,-55.6640625,-1000.0,-106.93359375,-28.3203125,0.0,-1.0,1.0,0.0,8.m4v,2.0
2024-02-27 10:55:42.518279,1709027742.5182793,-49.8046875,-961.9140625,-87.890625,-46.875,0.0,-1.0,1.0,0.0,8.m4v,2.0
2024-02-27 10:55:42.526091,1709027742.5260909,-41.015625,-1000.0,-296.38671875,-35.64453125,0.0,-1.0,1.0,0.0,8.m4v,2.0
2024-02-27 10:55:42.549525,1709027742.5495253,-37.109375,969.7265625,-87.890625,-30.76171875,0.0,-1.0,1.0,0.0,8.m4v,2.0
2024-02-27 10:55:42.557339,1709027742.5573394,-39.0625,909.66796875,319.82421875,-25.87890625,0.0,-1.0,1.0,0.0,8.m4v,2.0
2024-02-27 10:55:42.565151,1709027742.565151,-48.33984375,806.640625,-439.453125,-38.0859375,0.0,-1.0,1.0,0.0,8.m4v,2.0
2024-02-27 10:55:42.572962,1709027742.5729623,-51.26953125,-1000.0,-61.03515625,-20.5078125,0.0,-1.0,1.0,0.0,8.m4v,2.0
2024-02-27 10:55:42.580774,1709027742.5807738,-45.8984375,-1000.0,54.19921875,-63.96484375,0.0,-1.0,1.0,0.0,8.m4v,2.0
2024-02-27 10:55:42.588585,1709027742.5885854,-59.08203125,-1000.0,-459.47265625,-44.921875,0.0,-1.0,1.0,0.0,8.m4v,2.0
2024-02-27 10:55:42.596397,1709027742.596397,-51.7578125,-1000.0,-194.3359375,-53.22265625,0.0,-1.0,1.0,0.0,8.m4v,2.0
2024-02-27 10:55:42.604211,1709027742.6042109,-52.24609375,-971.19140625,-446.2890625,-52.734375,0.0,-1.0,1.0,0.0,8.m4v,2.0
2024-02-27 10:55:42.756541,1709027742.7565415,-55.6640625,975.5859375,20.5078125,-57.12890625,0.0,-1.0,1.0,0.0,8.m4v,2.0
2024-02-27 10:55:42.760447,1709027742.7604473,-45.41015625,949.70703125,-308.10546875,-46.875,0.0,-1.0,1.0,0.0,8.m4v,2.0
2024-02-27 10:55:42.764353,1709027742.764353,-43.45703125,943.359375,-140.13671875,-48.33984375,0.0,-1.0,1.0,0.0,8.m4v,2.0
2024-02-27 10:55:42.768259,1709027742.7682588,-40.0390625,999.51171875,358.3984375,-43.9453125,0.0,-1.0,1.0,0.0,8.m4v,2.0
2024-02-27 10:55:42.772165,1709027742.7721646,-49.31640625,-89.84375,204.58984375,-47.36328125,0.0,-1.0,1.0,0.0,8.m4v,2.0
2024-02-27 10:55:42.776070,1709027742.7760704,-47.8515625,-1000.0,-273.4375,-65.91796875,0.0,-1.0,1.0,0.0,8.m4v,2.0
2024-02-27 10:55:42.779976,1709027742.779976,-47.36328125,-956.54296875,-528.80859375,-71.77734375,0.0,-1.0,1.0,0.0,8.m4v,2.0
2024-02-27 10:55:42.783882,1709027742.783882,-54.6875,-991.2109375,-764.16015625,-66.89453125,0.0,-1.0,1.0,0.0,8.m4v,2.0
2024-02-27 10:55:42.998712,1709027742.998712,-27.83203125,959.9609375,-45.8984375,-32.71484375,0.0,-1.0,1.0,0.0,8.m4v,2.0
2024-02-27 10:55:43.002618,1709027743.0026178,-29.78515625,927.734375,36.62109375,-43.9453125,0.0,-1.0,1.0,0.0,8.m4v,2.0
2024-02-27 10:55:43.006524,1709027743.0065236,-43.45703125,999.51171875,-100.5859375,-38.0859375,0.0,-1.0,1.0,0.0,8.m4v,2.0
2024-02-27 10:55:43.010429,1709027743.0104294,-58.59375,70.80078125,-152.83203125,-34.66796875,0.0,-1.0,1.0,0.0,8.m4v,2.0
2024-02-27 10:55:43.014335,1709027743.0143352,-56.15234375,-1000.0,-329.1015625,-38.0859375,0.0,-1.0,1.0,0.0,8.m4v,2.0
2024-02-27 10:55:43.018241,1709027743.018241,-49.8046875,-977.5390625,-541.015625,-37.109375,0.0,-1.0,1.0,0.0,8.m4v,2.0
2024-02-27 10:55:43.022147,1709027743.0221467,-57.12890625,-979.98046875,-649.90234375,-33.69140625,0.0,-1.0,1.0,0.0,8.m4v,2.0
2024-02-27 10:55:43.026054,1709027743.0260544,-62.98828125,-1000.0,-692.87109375,-37.109375,0.0,-1.0,1.0,0.0,8.m4v,2.0
2024-02-27 10:55:43.029960,1709027743.0299602,-58.10546875,-1000.0,-520.5078125,-37.109375,0.0,-1.0,1.0,0.0,8.m4v,2.0
2024-02-27 10:55:43.033866,1709027743.033866,-41.015625,-1000.0,-233.3984375,-26.3671875,0.0,-1.0,1.0,0.0,8.m4v,2.0
2024-02-27 10:55:43.037772,1709027743.0377717,-38.57421875,-931.640625,-202.63671875,-22.4609375,0.0,-1.0,1.0,0.0,8.m4v,2.0
2024-02-27 10:55:43.041677,1709027743.0416777,-41.015625,-1000.0,-514.6484375,-35.15625,0.0,-1.0,1.0,0.0,8.m4v,2.0
2024-02-27 10:55:43.045583,1709027743.0455832,-26.3671875,-740.72265625,-263.18359375,-39.0625,0.0,-1.0,1.0,0.0,8.m4v,2.0
2024-02-27 10:55:43.049489,1709027743.049489,-17.578125,734.86328125,416.015625,-29.296875,0.0,-1.0,1.0,0.0,8.m4v,2.0
2024-02-27 10:55:43.053395,1709027743.0533948,-23.92578125,999.51171875,365.234375,-28.80859375,0.0,-1.0,1.0,0.0,8.m4v,2.0
2024-02-27 10:55:43.057301,1709027743.0573006,-23.92578125,902.34375,-104.98046875,-32.2265625,0.0,-1.0,1.0,0.0,8.m4v,2.0
2024-02-27 10:55:43.061206,1709027743.0612063,-24.90234375,987.3046875,-386.71875,-27.34375,0.0,-1.0,1.0,0.0,8.m4v,2.0
2024-02-27 10:55:43.065112,1709027743.065112,-35.15625,969.7265625,-497.0703125,-23.4375,0.0,-1.0,1.0,0.0,8.m4v,2.0
2024-02-27 10:55:43.069018,1709027743.069018,-41.9921875,969.7265625,-289.0625,-26.3671875,0.0,-1.0,1.0,0.0,8.m4v,2.0
2024-02-27 10:55:43.072926,1709027743.0729256,-29.78515625,969.7265625,13.18359375,-14.16015625,0.0,-1.0,1.0,0.0,8.m4v,2.0
2024-02-27 10:55:43.076831,1709027743.076831,-25.390625,969.7265625,-53.22265625,-12.6953125,0.0,-1.0,1.0,0.0,8.m4v,2.0
2024-02-27 10:55:43.080737,1709027743.080737,-26.85546875,969.7265625,-227.05078125,-27.83203125,0.0,-1.0,1.0,0.0,8.m4v,2.0
2024-02-27 10:55:43.084643,1709027743.0846426,-24.90234375,969.7265625,-259.27734375,-21.484375,0.0,-1.0,1.0,0.0,8.m4v,2.0
2024-02-27 10:55:43.088548,1709027743.0885484,-39.0625,986.328125,-179.6875,-21.484375,0.0,-1.0,1.0,0.0,8.m4v,2.0
2024-02-27 10:55:43.092454,1709027743.0924542,-37.109375,911.62109375,247.0703125,-22.4609375,0.0,-1.0,1.0,0.0,8.m4v,2.0
2024-02-27 10:55:43.092454,1709027743.0924542,-37.109375,911.62109375,247.0703125,-22.4609375,0.0,-1.0,1.0,0.0,8.m4v,2.0
2024-02-27 10:55:43.096360,1709027743.09636,-28.80859375,999.51171875,610.83984375,-12.6953125,0.0,-1.0,1.0,0.0,8.m4v,2.0
2024-02-27 10:55:43.096360,1709027743.09636,-28.80859375,999.51171875,610.83984375,-12.6953125,0.0,-1.0,1.0,0.0,8.m4v,2.0
2024-02-27 10:55:43.100266,1709027743.1002655,-38.0859375,854.4921875,128.90625,-21.484375,0.0,-1.0,1.0,0.0,8.m4v,2.0
2024-02-27 10:55:43.104172,1709027743.1041715,-49.31640625,-604.98046875,-674.8046875,-40.52734375,0.0,-1.0,1.0,0.0,8.m4v,2.0
2024-02-27 10:55:43.108077,1709027743.1080773,-44.43359375,-1000.0,-651.3671875,-34.66796875,0.0,-1.0,1.0,0.0,8.m4v,2.0
2024-02-27 10:55:43.111983,1709027743.111983,-35.64453125,-925.78125,-239.74609375,-34.1796875,0.0,-1.0,1.0,0.0,8.m4v,2.0
2024-02-27 10:55:43.115889,1709027743.1158888,-36.62109375,-1000.0,-243.1640625,-41.50390625,0.0,-1.0,1.0,0.0,8.m4v,2.0
2024-02-27 10:55:43.119796,1709027743.1197965,-34.66796875,-1000.0,-532.2265625,-37.59765625,0.0,-1.0,1.0,0.0,8.m4v,2.0
2024-02-27 10:55:43.123702,1709027743.123702,-34.1796875,-1000.0,-640.625,-33.69140625,0.0,-1.0,1.0,0.0,8.m4v,2.0
2024-02-27 10:55:43.127608,1709027743.1276078,-41.015625,-989.74609375,-425.29296875,-36.62109375,0.0,-1.0,1.0,0.0,8.m4v,2.0
2024-02-27 10:55:43.131514,1709027743.1315136,-34.66796875,-958.984375,-161.1328125,-29.78515625,0.0,-1.0,1.0,0.0,8.m4v,2.0
2024-02-27 10:55:43.135419,1709027743.1354194,-36.1328125,-1000.0,-170.41015625,-36.1328125,0.0,-1.0,1.0,0.0,8.m4v,2.0
2024-02-27 10:55:43.139325,1709027743.1393251,-39.55078125,-89.84375,-32.71484375,-41.50390625,0.0,-1.0,1.0,0.0,8.m4v,2.0
2024-02-27 10:55:43.143231,1709027743.143231,-34.1796875,999.51171875,123.046875,-27.34375,0.0,-1.0,1.0,0.0,8.m4v,2.0
2024-02-27 10:55:43.147137,1709027743.1471367,-41.9921875,944.82421875,-149.90234375,-17.08984375,0.0,-1.0,1.0,0.0,8.m4v,2.0
2024-02-27 10:55:43.151042,1709027743.1510425,-39.0625,950.1953125,-78.61328125,-21.484375,0.0,-1.0,1.0,0.0,8.m4v,2.0
2024-02-27 10:55:43.154948,1709027743.1549482,-29.296875,975.5859375,200.68359375,-30.2734375,0.0,-1.0,1.0,0.0,8.m4v,2.0
2024-02-27 10:55:43.158854,1709027743.158854,-29.78515625,969.7265625,94.7265625,-37.109375,0.0,-1.0,1.0,0.0,8.m4v,2.0
2024-02-27 10:55:43.162760,1709027743.1627598,-36.1328125,969.7265625,-279.296875,-39.55078125,0.0,-1.0,1.0,0.0,8.m4v,2.0
2024-02-27 10:55:43.166668,1709027743.1666684,-41.9921875,986.328125,-387.20703125,-34.1796875,0.0,-1.0,1.0,0.0,8.m4v,2.0
2024-02-27 10:55:43.170574,1709027743.1705742,-33.69140625,907.2265625,-44.43359375,-26.85546875,0.0,-1.0,1.0,0.0,8.m4v,2.0
2024-02-27 10:55:43.174480,1709027743.17448,-27.83203125,999.51171875,66.89453125,-34.66796875,0.0,-1.0,1.0,0.0,8.m4v,2.0
2024-02-27 10:55:43.178386,1709027743.1783855,-33.203125,777.34375,-280.76171875,-50.29296875,0.0,-1.0,1.0,0.0,8.m4v,2.0
2024-02-27 10:55:43.182292,1709027743.1822915,-32.2265625,-685.05859375,-582.03125,-48.33984375,0.0,-1.0,1.0,0.0,8.m4v,2.0
2024-02-27 10:55:43.186197,1709027743.1861973,-35.64453125,-1000.0,-213.8671875,-44.921875,0.0,-1.0,1.0,0.0,8.m4v,2.0
2024-02-27 10:55:43.190103,1709027743.190103,-34.1796875,-929.6875,419.921875,-41.9921875,0.0,-1.0,1.0,0.0,8.m4v,2.0
2024-02-27 10:55:43.194009,1709027743.1940088,-29.78515625,-1000.0,234.86328125,-40.0390625,0.0,-1.0,1.0,0.0,8.m4v,2.0
2024-02-27 10:55:43.197915,1709027743.1979146,-29.78515625,-1000.0,-197.265625,-43.9453125,0.0,-1.0,1.0,0.0,8.m4v,2.0
2024-02-27 10:55:43.201820,1709027743.2018204,-37.59765625,-1000.0,-393.5546875,-42.48046875,0.0,-1.0,1.0,0.0,8.m4v,2.0
2024-02-27 10:55:43.205726,1709027743.205726,-43.45703125,-1000.0,-420.8984375,-41.9921875,0.0,-1.0,1.0,0.0,8.m4v,2.0
2024-02-27 10:55:43.209632,1709027743.209632,-32.71484375,-1000.0,-79.1015625,-43.9453125,0.0,-1.0,1.0,0.0,8.m4v,2.0
2024-02-27 10:55:43.213541,1709027743.2135406,-17.578125,-998.53515625,316.40625,-36.62109375,0.0,-1.0,1.0,0.0,8.m4v,2.0
2024-02-27 10:55:43.217446,1709027743.2174463,-10.7421875,-1000.0,432.6171875,-36.1328125,0.0,-1.0,1.0,0.0,8.m4v,2.0
2024-02-27 10:55:43.221352,1709027743.221352,-17.578125,-955.078125,95.21484375,-40.0390625,0.0,-1.0,1.0,0.0,8.m4v,2.0
2024-02-27 10:55:43.225258,1709027743.225258,-33.69140625,-1000.0,-179.19921875,-24.4140625,0.0,-1.0,1.0,0.0,8.m4v,2.0
2024-02-27 10:55:43.229163,1709027743.2291634,-35.15625,-979.00390625,92.28515625,-20.99609375,0.0,-1.0,1.0,0.0,8.m4v,2.0
2024-02-27 10:55:43.233069,1709027743.2330692,-15.13671875,407.71484375,777.83203125,-33.203125,0.0,-1.0,1.0,0.0,8.m4v,2.0
2024-02-27 10:55:43.236975,1709027743.236975,-6.8359375,999.51171875,908.203125,-27.83203125,0.0,-1.0,1.0,0.0,8.m4v,2.0
2024-02-27 10:55:43.240881,1709027743.2408807,-34.66796875,897.4609375,381.8359375,-36.1328125,0.0,-1.0,1.0,0.0,8.m4v,2.0
2024-02-27 10:55:43.244787,1709027743.2447865,-48.33984375,980.46875,155.76171875,-41.015625,0.0,-1.0,1.0,0.0,8.m4v,2.0
2024-02-27 10:55:43.248692,1709027743.2486925,-45.8984375,969.7265625,280.2734375,-34.66796875,0.0,-1.0,1.0,0.0,8.m4v,2.0
2024-02-27 10:55:43.252598,1709027743.252598,-37.59765625,969.7265625,528.3203125,-42.48046875,0.0,-1.0,1.0,0.0,8.m4v,2.0
2024-02-27 10:55:43.256504,1709027743.2565038,-29.296875,969.7265625,493.65234375,-46.875,0.0,-1.0,1.0,0.0,8.m4v,2.0
2024-02-27 10:55:43.338530,1709027743.33853,-31.25,904.296875,554.19921875,-53.7109375,0.0,-1.0,1.0,0.0,8.m4v,2.0
2024-02-27 10:55:43.342436,1709027743.3424358,-40.52734375,986.81640625,186.5234375,-56.15234375,0.0,-1.0,1.0,0.0,8.m4v,2.0
2024-02-27 10:55:43.346342,1709027743.3463416,-51.26953125,969.7265625,59.5703125,-54.19921875,0.0,-1.0,1.0,0.0,8.m4v,2.0
2024-02-27 10:55:43.350247,1709027743.3502474,-35.64453125,969.7265625,371.09375,-44.43359375,0.0,-1.0,1.0,0.0,8.m4v,2.0
2024-02-27 10:55:43.354156,1709027743.3541555,-25.87890625,969.7265625,543.9453125,-34.1796875,0.0,-1.0,1.0,0.0,8.m4v,2.0
2024-02-27 10:55:43.361967,1709027743.361967,-48.828125,970.21484375,87.890625,-43.45703125,0.0,-1.0,1.0,0.0,8.m4v,2.0
2024-02-27 10:55:43.365873,1709027743.3658729,-46.875,969.7265625,196.2890625,-37.109375,0.0,-1.0,1.0,0.0,8.m4v,2.0
2024-02-27 10:55:43.373684,1709027743.3736844,-38.57421875,909.1796875,792.96875,-14.6484375,0.0,-1.0,1.0,0.0,8.m4v,2.0
2024-02-27 10:55:43.377590,1709027743.3775902,-32.2265625,999.51171875,906.73828125,-48.33984375,0.0,-1.0,1.0,0.0,8.m4v,2.0
2024-02-27 10:55:43.393213,1709027743.3932133,-38.57421875,-927.24609375,191.40625,-49.31640625,0.0,-1.0,1.0,0.0,8.m4v,2.0
2024-02-27 10:55:43.404933,1709027743.4049327,-40.52734375,-1000.0,-228.02734375,-43.45703125,0.0,-1.0,1.0,0.0,8.m4v,2.0
2024-02-27 10:55:43.412744,1709027743.4127443,-41.015625,-942.3828125,298.33984375,-29.78515625,0.0,-1.0,1.0,0.0,8.m4v,2.0
2024-02-27 10:55:43.420556,1709027743.4205558,-37.109375,-889.6484375,-19.53125,-31.73828125,0.0,-1.0,1.0,0.0,8.m4v,2.0
2024-02-27 10:55:43.428367,1709027743.4283671,-31.25,999.51171875,373.046875,-32.71484375,0.0,-1.0,1.0,0.0,8.m4v,2.0
2024-02-27 10:55:43.436179,1709027743.4361787,-33.203125,985.83984375,361.81640625,-28.3203125,0.0,-1.0,1.0,0.0,8.m4v,2.0
2024-02-27 10:55:43.443990,1709027743.4439902,-34.66796875,969.7265625,4.8828125,-30.2734375,0.0,-1.0,1.0,0.0,8.m4v,2.0
2024-02-27 10:55:43.451804,1709027743.4518037,-26.3671875,969.7265625,499.0234375,-9.765625,0.0,-1.0,1.0,0.0,8.m4v,2.0
2024-02-27 10:55:43.459615,1709027743.4596152,-36.62109375,969.7265625,251.46484375,-49.31640625,0.0,-1.0,1.0,0.0,8.m4v,2.0
2024-02-27 10:55:43.467427,1709027743.4674268,-33.203125,969.7265625,314.94140625,-27.83203125,0.0,-1.0,1.0,0.0,8.m4v,2.0
2024-02-27 10:55:43.475238,1709027743.4752383,-27.34375,942.87109375,243.1640625,-52.24609375,0.0,-1.0,1.0,0.0,8.m4v,2.0
2024-02-27 10:55:43.483050,1709027743.48305,-36.62109375,999.51171875,-187.98828125,-45.41015625,0.0,-1.0,1.0,0.0,8.m4v,2.0
2024-02-27 10:55:43.490861,1709027743.4908614,-51.7578125,-1000.0,-228.515625,-51.26953125,0.0,-1.0,1.0,0.0,8.m4v,2.0
2024-02-27 10:55:43.498675,1709027743.4986746,-45.8984375,-998.53515625,-188.4765625,-48.828125,0.0,-1.0,1.0,0.0,8.m4v,2.0
2024-02-27 10:55:43.506486,1709027743.5064862,-42.48046875,-939.94140625,-370.60546875,-40.52734375,0.0,-1.0,1.0,0.0,8.m4v,2.0
2024-02-27 10:55:43.514298,1709027743.5142975,-20.01953125,-342.7734375,394.53125,-31.73828125,0.0,-1.0,1.0,0.0,8.m4v,2.0
2024-02-27 10:55:43.522109,1709027743.5221093,-32.2265625,982.91015625,121.09375,-19.53125,0.0,-1.0,1.0,0.0,8.m4v,2.0
2024-02-27 10:55:43.529921,1709027743.5299208,-26.85546875,980.46875,8.7890625,-37.109375,0.0,-1.0,1.0,0.0,8.m4v,2.0
2024-02-27 10:55:43.537732,1709027743.5377324,-36.1328125,970.21484375,22.4609375,-28.3203125,0.0,-1.0,1.0,0.0,8.m4v,2.0
2024-02-27 10:55:43.545547,1709027743.5455468,-33.69140625,902.34375,-290.52734375,-41.9921875,0.0,-1.0,1.0,0.0,8.m4v,2.0
2024-02-27 10:55:43.553358,1709027743.5533583,-29.78515625,587.40234375,62.5,-32.71484375,0.0,-1.0,1.0,0.0,8.m4v,2.0
2024-02-27 10:55:43.561170,1709027743.56117,-24.90234375,-1000.0,-213.8671875,-36.62109375,0.0,-1.0,1.0,0.0,8.m4v,2.0
2024-02-27 10:55:43.568981,1709027743.5689812,-41.50390625,-1000.0,-101.07421875,-34.66796875,0.0,-1.0,1.0,0.0,8.m4v,2.0
2024-02-27 10:55:43.576793,1709027743.5767927,-32.2265625,-1000.0,239.2578125,-17.08984375,0.0,-1.0,1.0,0.0,8.m4v,2.0
2024-02-27 10:55:43.584604,1709027743.5846045,-25.87890625,-1000.0,-312.01171875,-38.0859375,0.0,-1.0,1.0,0.0,8.m4v,2.0
2024-02-27 10:55:43.592418,1709027743.5924184,-24.90234375,-1000.0,-43.9453125,-32.2265625,0.0,-1.0,1.0,0.0,8.m4v,2.0
2024-02-27 10:55:43.600230,1709027743.60023,-15.13671875,-1000.0,-211.9140625,-14.6484375,0.0,-1.0,1.0,0.0,8.m4v,2.0
2024-02-27 10:55:43.608042,1709027743.6080415,-16.11328125,322.265625,80.56640625,-23.4375,0.0,-1.0,1.0,0.0,8.m4v,2.0
2024-02-27 10:55:43.615853,1709027743.615853,-19.04296875,900.390625,443.359375,-37.59765625,0.0,-1.0,1.0,0.0,8.m4v,2.0
2024-02-27 10:55:43.623665,1709027743.6236646,-15.13671875,970.21484375,-2.44140625,-41.015625,0.0,-1.0,1.0,0.0,8.m4v,2.0
2024-02-27 10:55:43.631476,1709027743.6314762,-22.4609375,969.7265625,267.578125,-25.390625,0.0,-1.0,1.0,0.0,8.m4v,2.0
2024-02-27 10:55:43.639290,1709027743.63929,-20.01953125,969.7265625,202.1484375,-23.92578125,0.0,-1.0,1.0,0.0,8.m4v,2.0
2024-02-27 10:55:43.647102,1709027743.6471016,-46.875,969.7265625,-147.4609375,-34.1796875,0.0,-1.0,1.0,0.0,8.m4v,2.0
2024-02-27 10:55:43.651007,1709027743.6510074,-37.109375,969.7265625,125.0,-31.25,0.0,-1.0,1.0,0.0,8.m4v,2.0
2024-02-27 10:55:43.654913,1709027743.6549132,-15.625,969.7265625,386.71875,-23.4375,0.0,-1.0,1.0,0.0,8.m4v,2.0
2024-02-27 10:55:43.658819,1709027743.658819,-13.671875,976.07421875,361.328125,-25.390625,0.0,-1.0,1.0,0.0,8.m4v,2.0
2024-02-27 10:55:43.662725,1709027743.6627247,-31.73828125,946.77734375,-128.90625,-37.59765625,0.0,-1.0,1.0,0.0,8.m4v,2.0
2024-02-27 10:55:43.666631,1709027743.6666305,-38.0859375,948.73046875,-213.8671875,-28.3203125,0.0,-1.0,1.0,0.0,8.m4v,2.0
2024-02-27 10:55:43.670536,1709027743.6705365,-28.80859375,999.51171875,80.078125,-19.53125,0.0,-1.0,1.0,0.0,8.m4v,2.0
2024-02-27 10:55:43.674442,1709027743.674442,-22.94921875,-135.25390625,-20.01953125,-35.64453125,0.0,-1.0,1.0,0.0,8.m4v,2.0
2024-02-27 10:55:43.678348,1709027743.6783478,-25.87890625,-1000.0,-342.7734375,-50.78125,0.0,-1.0,1.0,0.0,8.m4v,2.0
2024-02-27 10:55:43.682256,1709027743.682256,-32.71484375,-952.1484375,-535.15625,-45.8984375,0.0,-1.0,1.0,0.0,8.m4v,2.0
2024-02-27 10:55:43.686162,1709027743.6861618,-34.66796875,-994.140625,-594.23828125,-35.64453125,0.0,-1.0,1.0,0.0,8.m4v,2.0
2024-02-27 10:55:43.690068,1709027743.6900675,-26.3671875,-1000.0,-242.67578125,-35.64453125,0.0,-1.0,1.0,0.0,8.m4v,2.0
2024-02-27 10:55:43.693973,1709027743.6939733,-16.11328125,-1000.0,103.02734375,-34.66796875,0.0,-1.0,1.0,0.0,8.m4v,2.0
2024-02-27 10:55:43.697879,1709027743.697879,-12.20703125,-1000.0,0.48828125,-36.62109375,0.0,-1.0,1.0,0.0,8.m4v,2.0
2024-02-27 10:55:43.701785,1709027743.7017848,-15.625,-1000.0,-171.38671875,-40.0390625,0.0,-1.0,1.0,0.0,8.m4v,2.0
2024-02-27 10:55:43.705691,1709027743.7056906,-18.5546875,-1000.0,-102.05078125,-39.0625,0.0,-1.0,1.0,0.0,8.m4v,2.0
2024-02-27 10:55:43.709596,1709027743.7095964,-18.06640625,-1000.0,-148.4375,-37.109375,0.0,-1.0,1.0,0.0,8.m4v,2.0
2024-02-27 10:55:43.713502,1709027743.7135022,-23.4375,-1000.0,-106.4453125,-41.015625,0.0,-1.0,1.0,0.0,8.m4v,2.0
2024-02-27 10:55:43.717408,1709027743.717408,-34.1796875,-1000.0,-171.38671875,-42.96875,0.0,-1.0,1.0,0.0,8.m4v,2.0
2024-02-27 10:55:43.721314,1709027743.7213137,-36.1328125,-1000.0,-413.0859375,-45.41015625,0.0,-1.0,1.0,0.0,8.m4v,2.0
2024-02-27 10:55:43.725219,1709027743.7252195,-40.52734375,-1000.0,-425.29296875,-46.38671875,0.0,-1.0,1.0,0.0,8.m4v,2.0
2024-02-27 10:55:43.729127,1709027743.7291274,-36.1328125,-1000.0,-183.10546875,-41.9921875,0.0,-1.0,1.0,0.0,8.m4v,2.0
2024-02-27 10:55:43.733033,1709027743.7330332,-26.3671875,-1000.0,-61.5234375,-42.48046875,0.0,-1.0,1.0,0.0,8.m4v,2.0
2024-02-27 10:55:43.736939,1709027743.736939,-29.296875,-946.2890625,-199.70703125,-39.55078125,0.0,-1.0,1.0,0.0,8.m4v,2.0
2024-02-27 10:55:43.740845,1709027743.7408447,-33.203125,-1000.0,-378.90625,-34.1796875,0.0,-1.0,1.0,0.0,8.m4v,2.0
2024-02-27 10:55:43.744750,1709027743.7447505,-30.76171875,-921.38671875,-402.83203125,-17.578125,0.0,-1.0,1.0,0.0,8.m4v,2.0
2024-02-27 10:55:43.748656,1709027743.7486565,-17.578125,518.5546875,212.40234375,-3.90625,0.0,-1.0,1.0,0.0,8.m4v,2.0
2024-02-27 10:55:43.752562,1709027743.752562,-15.13671875,999.51171875,737.79296875,-25.390625,0.0,-1.0,1.0,0.0,8.m4v,2.0
2024-02-27 10:55:43.756468,1709027743.7564678,-19.53125,895.01953125,501.46484375,-37.59765625,0.0,-1.0,1.0,0.0,8.m4v,2.0
2024-02-27 10:55:43.760374,1709027743.7603736,-22.94921875,984.375,11.23046875,-42.96875,0.0,-1.0,1.0,0.0,8.m4v,2.0
2024-02-27 10:55:43.764279,1709027743.7642794,-36.62109375,970.21484375,-374.0234375,-46.875,0.0,-1.0,1.0,0.0,8.m4v,2.0
2024-02-27 10:55:43.768185,1709027743.7681851,-34.1796875,969.7265625,-219.23828125,-36.1328125,0.0,-1.0,1.0,0.0,8.m4v,2.0
2024-02-27 10:55:43.772091,1709027743.772091,-22.4609375,969.7265625,149.90234375,-27.34375,0.0,-1.0,1.0,0.0,8.m4v,2.0
2024-02-27 10:55:43.775999,1709027743.7759986,-20.01953125,969.7265625,135.7421875,-34.66796875,0.0,-1.0,1.0,0.0,8.m4v,2.0
2024-02-27 10:55:43.779904,1709027743.7799044,-25.390625,969.7265625,-138.671875,-43.9453125,0.0,-1.0,1.0,0.0,8.m4v,2.0
2024-02-27 10:55:43.783810,1709027743.78381,-29.78515625,969.7265625,-304.6875,-41.9921875,0.0,-1.0,1.0,0.0,8.m4v,2.0
2024-02-27 10:55:43.787716,1709027743.787716,-23.92578125,969.7265625,-71.77734375,-30.2734375,0.0,-1.0,1.0,0.0,8.m4v,2.0
2024-02-27 10:55:43.791622,1709027743.7916217,-31.25,969.7265625,222.16796875,-36.1328125,0.0,-1.0,1.0,0.0,8.m4v,2.0
2024-02-27 10:55:43.795527,1709027743.7955277,-51.26953125,970.21484375,403.80859375,-51.7578125,0.0,-1.0,1.0,0.0,8.m4v,2.0
2024-02-27 10:55:43.799433,1709027743.7994332,-59.5703125,970.21484375,465.33203125,-46.38671875,0.0,-1.0,1.0,0.0,8.m4v,2.0
2024-02-27 10:55:43.803339,1709027743.803339,-55.6640625,969.7265625,-20.5078125,-34.66796875,0.0,-1.0,1.0,0.0,8.m4v,2.0
2024-02-27 10:55:43.807245,1709027743.8072448,-61.5234375,969.7265625,-291.50390625,-37.109375,0.0,-1.0,1.0,0.0,8.m4v,2.0
2024-02-27 10:55:43.811151,1709027743.8111506,-63.4765625,969.7265625,-114.2578125,-37.59765625,0.0,-1.0,1.0,0.0,8.m4v,2.0
2024-02-27 10:55:43.815056,1709027743.8150563,-53.22265625,969.7265625,75.68359375,-42.48046875,0.0,-1.0,1.0,0.0,8.m4v,2.0
2024-02-27 10:55:43.818962,1709027743.818962,-54.19921875,969.7265625,159.1796875,-58.59375,0.0,-1.0,1.0,0.0,8.m4v,2.0
2024-02-27 10:55:43.822870,1709027743.8228698,-61.03515625,970.21484375,-153.3203125,-62.01171875,0.0,-1.0,1.0,0.0,8.m4v,2.0
2024-02-27 10:55:43.826776,1709027743.8267756,-57.6171875,985.3515625,-284.66796875,-56.640625,0.0,-1.0,1.0,0.0,8.m4v,2.0
2024-02-27 10:55:43.830681,1709027743.830681,-48.33984375,901.3671875,5.37109375,-52.24609375,0.0,-1.0,1.0,0.0,8.m4v,2.0
2024-02-27 10:55:43.834587,1709027743.834587,-41.015625,999.51171875,131.34765625,-41.015625,0.0,-1.0,1.0,0.0,8.m4v,2.0
2024-02-27 10:55:43.838493,1709027743.8384929,-55.6640625,642.08984375,-234.375,-44.43359375,0.0,-1.0,1.0,0.0,8.m4v,2.0
2024-02-27 10:55:43.986920,1709027743.9869196,-29.296875,986.328125,-45.41015625,-29.78515625,0.0,-1.0,1.0,0.0,8.m4v,2.0
2024-02-27 10:55:43.990825,1709027743.9908254,-19.04296875,910.64453125,-27.34375,-14.6484375,0.0,-1.0,1.0,0.0,8.m4v,2.0
2024-02-27 10:55:43.994731,1709027743.9947312,-15.13671875,999.51171875,84.47265625,-14.6484375,0.0,-1.0,1.0,0.0,8.m4v,2.0
2024-02-27 10:55:43.998637,1709027743.998637,-14.16015625,844.23828125,-31.25,-32.2265625,0.0,-1.0,1.0,0.0,8.m4v,2.0
2024-02-27 10:55:44.002543,1709027744.0025427,-35.15625,-616.69921875,-599.609375,-45.8984375,0.0,-1.0,1.0,0.0,8.m4v,2.0
2024-02-27 10:55:44.006449,1709027744.0064485,-42.96875,-1000.0,-728.515625,-39.55078125,0.0,-1.0,1.0,0.0,8.m4v,2.0
2024-02-27 10:55:44.010357,1709027744.010357,-37.109375,-926.26953125,-441.89453125,-35.64453125,0.0,-1.0,1.0,0.0,8.m4v,2.0
2024-02-27 10:55:44.014263,1709027744.014263,-28.3203125,-1000.0,-253.90625,-27.83203125,0.0,-1.0,1.0,0.0,8.m4v,2.0
2024-02-27 10:55:44.018168,1709027744.0181684,-13.671875,-1000.0,-395.5078125,-18.06640625,0.0,-1.0,1.0,0.0,8.m4v,2.0
2024-02-27 10:55:44.022074,1709027744.0220742,-17.08984375,-952.63671875,-654.296875,-22.4609375,0.0,-1.0,1.0,0.0,8.m4v,2.0
2024-02-27 10:55:44.025980,1709027744.02598,-21.97265625,-1000.0,-682.6171875,-22.94921875,0.0,-1.0,1.0,0.0,8.m4v,2.0
2024-02-27 10:55:44.029886,1709027744.0298858,-10.7421875,-961.42578125,-141.6015625,-16.11328125,0.0,-1.0,1.0,0.0,8.m4v,2.0
2024-02-27 10:55:44.033792,1709027744.0337915,-1.46484375,443.359375,412.109375,-13.18359375,0.0,-1.0,1.0,0.0,8.m4v,2.0
2024-02-27 10:55:44.037697,1709027744.0376973,-7.32421875,999.51171875,75.1953125,-20.5078125,0.0,-1.0,1.0,0.0,8.m4v,2.0
2024-02-27 10:55:44.041603,1709027744.041603,-20.01953125,896.484375,-378.41796875,-32.2265625,0.0,-1.0,1.0,0.0,8.m4v,2.0
2024-02-27 10:55:44.045509,1709027744.0455089,-19.53125,981.93359375,-390.13671875,-37.109375,0.0,-1.0,1.0,0.0,8.m4v,2.0
2024-02-27 10:55:44.049415,1709027744.0494146,-8.7890625,969.7265625,-139.16015625,-29.78515625,0.0,-1.0,1.0,0.0,8.m4v,2.0
2024-02-27 10:55:44.053320,1709027744.0533204,-3.90625,969.7265625,82.51953125,-24.4140625,0.0,-1.0,1.0,0.0,8.m4v,2.0
2024-02-27 10:55:44.057229,1709027744.0572286,-0.9765625,969.7265625,184.08203125,-19.53125,0.0,-1.0,1.0,0.0,8.m4v,2.0
2024-02-27 10:55:44.061134,1709027744.0611343,-15.13671875,969.7265625,-166.9921875,-26.85546875,0.0,-1.0,1.0,0.0,8.m4v,2.0
2024-02-27 10:55:44.065040,1709027744.06504,-35.64453125,969.7265625,-431.640625,-32.2265625,0.0,-1.0,1.0,0.0,8.m4v,2.0
2024-02-27 10:55:44.068946,1709027744.068946,-28.3203125,969.7265625,-133.30078125,-15.13671875,0.0,-1.0,1.0,0.0,8.m4v,2.0
2024-02-27 10:55:44.072852,1709027744.0728517,-8.30078125,980.46875,26.85546875,-10.7421875,0.0,-1.0,1.0,0.0,8.m4v,2.0
2024-02-27 10:55:44.076757,1709027744.0767574,-5.37109375,932.12890625,159.1796875,-32.71484375,0.0,-1.0,1.0,0.0,8.m4v,2.0
2024-02-27 10:55:44.080663,1709027744.0806632,-18.06640625,976.5625,139.16015625,-42.48046875,0.0,-1.0,1.0,0.0,8.m4v,2.0
2024-02-27 10:55:44.084569,1709027744.084569,-23.4375,984.86328125,-199.70703125,-35.64453125,0.0,-1.0,1.0,0.0,8.m4v,2.0
2024-02-27 10:55:44.088475,1709027744.0884748,-32.2265625,-347.65625,-218.75,-30.76171875,0.0,-1.0,1.0,0.0,8.m4v,2.0
2024-02-27 10:55:44.092381,1709027744.0923803,-31.73828125,-1000.0,-53.7109375,-21.484375,0.0,-1.0,1.0,0.0,8.m4v,2.0
2024-02-27 10:55:44.096286,1709027744.0962863,-24.4140625,-932.6171875,-164.55078125,-20.5078125,0.0,-1.0,1.0,0.0,8.m4v,2.0
2024-02-27 10:55:44.100192,1709027744.100192,-30.2734375,-1000.0,-403.3203125,-28.3203125,0.0,-1.0,1.0,0.0,8.m4v,2.0
2024-02-27 10:55:44.104100,1709027744.1041,-39.55078125,-1000.0,-550.78125,-32.2265625,0.0,-1.0,1.0,0.0,8.m4v,2.0
2024-02-27 10:55:44.108006,1709027744.1080058,-46.38671875,-1000.0,-472.65625,-27.34375,0.0,-1.0,1.0,0.0,8.m4v,2.0
2024-02-27 10:55:44.111912,1709027744.1119115,-45.41015625,-1000.0,-194.3359375,-24.90234375,0.0,-1.0,1.0,0.0,8.m4v,2.0
2024-02-27 10:55:44.115817,1709027744.1158173,-33.203125,-1000.0,-71.2890625,-28.3203125,0.0,-1.0,1.0,0.0,8.m4v,2.0
2024-02-27 10:55:44.119723,1709027744.119723,-21.97265625,-1000.0,-265.625,-24.90234375,0.0,-1.0,1.0,0.0,8.m4v,2.0
2024-02-27 10:55:44.123629,1709027744.1236289,-32.71484375,-1000.0,-305.17578125,-25.87890625,0.0,-1.0,1.0,0.0,8.m4v,2.0
2024-02-27 10:55:44.127535,1709027744.1275346,-40.52734375,-1000.0,-110.3515625,-32.2265625,0.0,-1.0,1.0,0.0,8.m4v,2.0
2024-02-27 10:55:44.131440,1709027744.1314404,-31.73828125,-1000.0,-192.87109375,-32.2265625,0.0,-1.0,1.0,0.0,8.m4v,2.0
2024-02-27 10:55:44.135346,1709027744.1353462,-21.97265625,-1000.0,-374.0234375,-25.87890625,0.0,-1.0,1.0,0.0,8.m4v,2.0
2024-02-27 10:55:44.139252,1709027744.139252,-24.90234375,-1000.0,-585.9375,-17.08984375,0.0,-1.0,1.0,0.0,8.m4v,2.0
2024-02-27 10:55:44.143158,1709027744.1431575,-29.78515625,-1000.0,-703.125,-11.23046875,0.0,-1.0,1.0,0.0,8.m4v,2.0
2024-02-27 10:55:44.147063,1709027744.1470635,-27.34375,-1000.0,-488.28125,-15.625,0.0,-1.0,1.0,0.0,8.m4v,2.0
2024-02-27 10:55:44.150971,1709027744.1509712,-24.4140625,-1000.0,-97.16796875,-23.4375,0.0,-1.0,1.0,0.0,8.m4v,2.0
2024-02-27 10:55:44.154877,1709027744.154877,-25.390625,-1000.0,-90.33203125,-30.76171875,0.0,-1.0,1.0,0.0,8.m4v,2.0
2024-02-27 10:55:44.158783,1709027744.1587827,-27.34375,-988.76953125,-383.7890625,-31.73828125,0.0,-1.0,1.0,0.0,8.m4v,2.0
2024-02-27 10:55:44.162688,1709027744.1626885,-37.59765625,-960.44921875,-453.125,-42.96875,0.0,-1.0,1.0,0.0,8.m4v,2.0
2024-02-27 10:55:44.166594,1709027744.1665945,-42.96875,-1000.0,-375.48828125,-51.7578125,0.0,-1.0,1.0,0.0,8.m4v,2.0
2024-02-27 10:55:44.170500,1709027744.1705,-26.85546875,-67.3828125,31.73828125,-41.50390625,0.0,-1.0,1.0,0.0,8.m4v,2.0
2024-02-27 10:55:44.174406,1709027744.1744058,-12.20703125,999.51171875,577.63671875,-29.78515625,0.0,-1.0,1.0,0.0,8.m4v,2.0
2024-02-27 10:55:44.178312,1709027744.1783116,-12.20703125,940.91796875,402.83203125,-30.2734375,0.0,-1.0,1.0,0.0,8.m4v,2.0
2024-02-27 10:55:44.182217,1709027744.1822174,-15.13671875,952.1484375,-260.7421875,-33.203125,0.0,-1.0,1.0,0.0,8.m4v,2.0
2024-02-27 10:55:44.186123,1709027744.1861231,-22.4609375,975.09765625,-509.27734375,-29.78515625,0.0,-1.0,1.0,0.0,8.m4v,2.0
2024-02-27 10:55:44.190029,1709027744.190029,-20.99609375,969.7265625,-216.796875,-25.87890625,0.0,-1.0,1.0,0.0,8.m4v,2.0
2024-02-27 10:55:44.193935,1709027744.193935,-15.625,969.7265625,-60.05859375,-28.3203125,0.0,-1.0,1.0,0.0,8.m4v,2.0
2024-02-27 10:55:44.197842,1709027744.1978424,-19.53125,969.7265625,-214.35546875,-26.85546875,0.0,-1.0,1.0,0.0,8.m4v,2.0
2024-02-27 10:55:44.201748,1709027744.201748,-15.13671875,969.7265625,-333.0078125,-16.6015625,0.0,-1.0,1.0,0.0,8.m4v,2.0
2024-02-27 10:55:44.205654,1709027744.205654,-14.16015625,969.7265625,-363.76953125,-17.578125,0.0,-1.0,1.0,0.0,8.m4v,2.0
2024-02-27 10:55:44.209560,1709027744.2095597,-18.06640625,969.7265625,-26.3671875,-23.92578125,0.0,-1.0,1.0,0.0,8.m4v,2.0
2024-02-27 10:55:44.213465,1709027744.2134657,-14.16015625,969.7265625,145.99609375,-26.85546875,0.0,-1.0,1.0,0.0,8.m4v,2.0
2024-02-27 10:55:44.217371,1709027744.2173712,-4.39453125,969.7265625,267.578125,-26.85546875,0.0,-1.0,1.0,0.0,8.m4v,2.0
2024-02-27 10:55:44.221277,1709027744.221277,-9.27734375,969.7265625,331.0546875,-29.296875,0.0,-1.0,1.0,0.0,8.m4v,2.0
2024-02-27 10:55:44.225183,1709027744.2251828,-23.92578125,969.7265625,-151.3671875,-37.59765625,0.0,-1.0,1.0,0.0,8.m4v,2.0
2024-02-27 10:55:44.229089,1709027744.2290883,-14.6484375,977.05078125,-178.7109375,-33.203125,0.0,-1.0,1.0,0.0,8.m4v,2.0
2024-02-27 10:55:44.232994,1709027744.2329943,-12.20703125,943.84765625,58.59375,-21.484375,0.0,-1.0,1.0,0.0,8.m4v,2.0
2024-02-27 10:55:44.236900,1709027744.2369,-16.6015625,953.61328125,179.19921875,-31.25,0.0,-1.0,1.0,0.0,8.m4v,2.0
2024-02-27 10:55:44.240806,1709027744.240806,-17.08984375,999.51171875,65.4296875,-29.78515625,0.0,-1.0,1.0,0.0,8.m4v,2.0
2024-02-27 10:55:44.244713,1709027744.2447133,-28.80859375,-188.96484375,-404.78515625,-21.484375,0.0,-1.0,1.0,0.0,8.m4v,2.0
2024-02-27 10:55:44.256431,1709027744.2564306,-28.80859375,-997.55859375,-324.21875,-36.1328125,0.0,-1.0,1.0,0.0,8.m4v,2.0
2024-02-27 10:55:44.260336,1709027744.2603364,-27.83203125,-1000.0,-564.453125,-45.41015625,0.0,-1.0,1.0,0.0,8.m4v,2.0
2024-02-27 10:55:44.264242,1709027744.2642422,-23.4375,-1000.0,-399.90234375,-41.015625,0.0,-1.0,1.0,0.0,8.m4v,2.0
2024-02-27 10:55:44.264242,1709027744.2642422,-23.4375,-1000.0,-399.90234375,-41.015625,0.0,-1.0,1.0,0.0,8.m4v,2.0
2024-02-27 10:55:44.268148,1709027744.268148,-13.18359375,-1000.0,93.75,-33.69140625,0.0,-1.0,1.0,0.0,8.m4v,2.0
2024-02-27 10:55:44.268148,1709027744.268148,-13.18359375,-1000.0,93.75,-33.69140625,0.0,-1.0,1.0,0.0,8.m4v,2.0
2024-02-27 10:55:44.272054,1709027744.2720537,0.48828125,-1000.0,92.28515625,-32.71484375,0.0,-1.0,1.0,0.0,8.m4v,2.0
2024-02-27 10:55:44.272054,1709027744.2720537,0.48828125,-1000.0,92.28515625,-32.71484375,0.0,-1.0,1.0,0.0,8.m4v,2.0
2024-02-27 10:55:44.275959,1709027744.2759595,1.953125,-1000.0,-141.6015625,-30.2734375,0.0,-1.0,1.0,0.0,8.m4v,2.0
2024-02-27 10:55:44.275959,1709027744.2759595,1.953125,-1000.0,-141.6015625,-30.2734375,0.0,-1.0,1.0,0.0,8.m4v,2.0
2024-02-27 10:55:44.279865,1709027744.2798653,-17.08984375,-1000.0,-312.01171875,-31.73828125,0.0,-1.0,1.0,0.0,8.m4v,2.0
2024-02-27 10:55:44.279865,1709027744.2798653,-17.08984375,-1000.0,-312.01171875,-31.73828125,0.0,-1.0,1.0,0.0,8.m4v,2.0
2024-02-27 10:55:44.283771,1709027744.283771,-25.390625,-1000.0,-407.2265625,-39.0625,0.0,-1.0,1.0,0.0,8.m4v,2.0
2024-02-27 10:55:44.283771,1709027744.283771,-25.390625,-1000.0,-407.2265625,-39.0625,0.0,-1.0,1.0,0.0,8.m4v,2.0
2024-02-27 10:55:44.287677,1709027744.2876768,-20.99609375,-940.4296875,-235.83984375,-35.15625,0.0,-1.0,1.0,0.0,8.m4v,2.0
2024-02-27 10:55:44.287677,1709027744.2876768,-20.99609375,-940.4296875,-235.83984375,-35.15625,0.0,-1.0,1.0,0.0,8.m4v,2.0
2024-02-27 10:55:44.291586,1709027744.2915857,-16.6015625,-1000.0,48.828125,-34.66796875,0.0,-1.0,1.0,0.0,8.m4v,2.0
2024-02-27 10:55:44.291586,1709027744.2915857,-16.6015625,-1000.0,48.828125,-34.66796875,0.0,-1.0,1.0,0.0,8.m4v,2.0
2024-02-27 10:55:44.295491,1709027744.2954917,-15.625,-869.62890625,214.84375,-39.0625,0.0,-1.0,1.0,0.0,8.m4v,2.0
2024-02-27 10:55:44.295491,1709027744.2954917,-15.625,-869.62890625,214.84375,-39.0625,0.0,-1.0,1.0,0.0,8.m4v,2.0
2024-02-27 10:55:44.299397,1709027744.2993972,-10.7421875,592.7734375,291.015625,-40.0390625,0.0,-1.0,1.0,0.0,8.m4v,2.0
2024-02-27 10:55:44.299397,1709027744.2993972,-10.7421875,592.7734375,291.015625,-40.0390625,0.0,-1.0,1.0,0.0,8.m4v,2.0
2024-02-27 10:55:44.303303,1709027744.303303,-19.04296875,999.51171875,58.59375,-41.50390625,0.0,-1.0,1.0,0.0,8.m4v,2.0
2024-02-27 10:55:44.303303,1709027744.303303,-19.04296875,999.51171875,58.59375,-41.50390625,0.0,-1.0,1.0,0.0,8.m4v,2.0
2024-02-27 10:55:44.307209,1709027744.3072088,-25.87890625,895.99609375,35.15625,-39.55078125,0.0,-1.0,1.0,0.0,8.m4v,2.0
2024-02-27 10:55:44.307209,1709027744.3072088,-25.87890625,895.99609375,35.15625,-39.55078125,0.0,-1.0,1.0,0.0,8.m4v,2.0
2024-02-27 10:55:44.311115,1709027744.3111143,-22.94921875,985.83984375,592.7734375,-31.25,0.0,-1.0,1.0,0.0,8.m4v,2.0
2024-02-27 10:55:44.311115,1709027744.3111143,-22.94921875,985.83984375,592.7734375,-31.25,0.0,-1.0,1.0,0.0,8.m4v,2.0
2024-02-27 10:55:44.315020,1709027744.3150203,-25.87890625,969.7265625,959.9609375,-28.80859375,0.0,-1.0,1.0,0.0,8.m4v,2.0
2024-02-27 10:55:44.315020,1709027744.3150203,-25.87890625,969.7265625,959.9609375,-28.80859375,0.0,-1.0,1.0,0.0,8.m4v,2.0
2024-02-27 10:55:44.318926,1709027744.318926,-25.87890625,969.7265625,445.3125,-25.390625,0.0,-1.0,1.0,0.0,8.m4v,2.0
2024-02-27 10:55:44.318926,1709027744.318926,-25.87890625,969.7265625,445.3125,-25.390625,0.0,-1.0,1.0,0.0,8.m4v,2.0
2024-02-27 10:55:44.322832,1709027744.322832,-27.83203125,970.21484375,11.23046875,-18.5546875,0.0,-1.0,1.0,0.0,8.m4v,2.0
2024-02-27 10:55:44.322832,1709027744.322832,-27.83203125,970.21484375,11.23046875,-18.5546875,0.0,-1.0,1.0,0.0,8.m4v,2.0
2024-02-27 10:55:44.326738,1709027744.3267376,-26.85546875,982.91015625,238.76953125,-27.34375,0.0,-1.0,1.0,0.0,8.m4v,2.0
2024-02-27 10:55:44.326738,1709027744.3267376,-26.85546875,982.91015625,238.76953125,-27.34375,0.0,-1.0,1.0,0.0,8.m4v,2.0
2024-02-27 10:55:44.334549,1709027744.3345492,-22.94921875,999.51171875,660.15625,-47.36328125,0.0,-1.0,1.0,0.0,8.m4v,2.0
2024-02-27 10:55:44.334549,1709027744.3345492,-22.94921875,999.51171875,660.15625,-47.36328125,0.0,-1.0,1.0,0.0,8.m4v,2.0
2024-02-27 10:55:44.342364,1709027744.3423636,-48.828125,-860.3515625,47.8515625,-66.89453125,0.0,-1.0,1.0,0.0,8.m4v,2.0
2024-02-27 10:55:44.342364,1709027744.3423636,-48.828125,-860.3515625,47.8515625,-66.89453125,0.0,-1.0,1.0,0.0,8.m4v,2.0
2024-02-27 10:55:44.350175,1709027744.350175,-24.4140625,-942.87109375,253.90625,-48.33984375,0.0,-1.0,1.0,0.0,8.m4v,2.0
2024-02-27 10:55:44.350175,1709027744.350175,-24.4140625,-942.87109375,253.90625,-48.33984375,0.0,-1.0,1.0,0.0,8.m4v,2.0
2024-02-27 10:55:44.357986,1709027744.3579865,-19.53125,-1000.0,567.3828125,-41.50390625,0.0,-1.0,1.0,0.0,8.m4v,2.0
2024-02-27 10:55:44.357986,1709027744.3579865,-19.53125,-1000.0,567.3828125,-41.50390625,0.0,-1.0,1.0,0.0,8.m4v,2.0
2024-02-27 10:55:44.365798,1709027744.365798,-19.53125,-1000.0,235.3515625,-45.41015625,0.0,-1.0,1.0,0.0,8.m4v,2.0
2024-02-27 10:55:44.365798,1709027744.365798,-19.53125,-1000.0,235.3515625,-45.41015625,0.0,-1.0,1.0,0.0,8.m4v,2.0
2024-02-27 10:55:44.373610,1709027744.3736095,-34.1796875,-1000.0,494.140625,-31.25,0.0,-1.0,1.0,0.0,8.m4v,2.0
2024-02-27 10:55:44.373610,1709027744.3736095,-34.1796875,-1000.0,494.140625,-31.25,0.0,-1.0,1.0,0.0,8.m4v,2.0
2024-02-27 10:55:44.381421,1709027744.381421,-30.76171875,-1000.0,47.8515625,-37.109375,0.0,-1.0,1.0,0.0,8.m4v,2.0
2024-02-27 10:55:44.381421,1709027744.381421,-30.76171875,-1000.0,47.8515625,-37.109375,0.0,-1.0,1.0,0.0,8.m4v,2.0
2024-02-27 10:55:44.389235,1709027744.3892353,-18.06640625,-1000.0,528.3203125,-13.18359375,0.0,-1.0,1.0,0.0,8.m4v,2.0
2024-02-27 10:55:44.389235,1709027744.3892353,-18.06640625,-1000.0,528.3203125,-13.18359375,0.0,-1.0,1.0,0.0,8.m4v,2.0
2024-02-27 10:55:44.397047,1709027744.3970468,-15.625,-1000.0,445.80078125,-25.390625,0.0,-1.0,1.0,0.0,8.m4v,2.0
2024-02-27 10:55:44.397047,1709027744.3970468,-15.625,-1000.0,445.80078125,-25.390625,0.0,-1.0,1.0,0.0,8.m4v,2.0
2024-02-27 10:55:44.404858,1709027744.4048584,-23.92578125,564.453125,612.79296875,-30.2734375,0.0,-1.0,1.0,0.0,8.m4v,2.0
2024-02-27 10:55:44.404858,1709027744.4048584,-23.92578125,564.453125,612.79296875,-30.2734375,0.0,-1.0,1.0,0.0,8.m4v,2.0
2024-02-27 10:55:44.412670,1709027744.41267,-23.4375,895.01953125,843.75,-20.99609375,0.0,-1.0,1.0,0.0,8.m4v,2.0
2024-02-27 10:55:44.412670,1709027744.41267,-23.4375,895.01953125,843.75,-20.99609375,0.0,-1.0,1.0,0.0,8.m4v,2.0
2024-02-27 10:55:44.420481,1709027744.4204814,-30.76171875,969.7265625,535.64453125,-29.296875,0.0,-1.0,1.0,0.0,8.m4v,2.0
2024-02-27 10:55:44.420481,1709027744.4204814,-30.76171875,969.7265625,535.64453125,-29.296875,0.0,-1.0,1.0,0.0,8.m4v,2.0
2024-02-27 10:55:44.428293,1709027744.428293,-17.578125,969.7265625,445.80078125,-24.90234375,0.0,-1.0,1.0,0.0,8.m4v,2.0
2024-02-27 10:55:44.428293,1709027744.428293,-17.578125,969.7265625,445.80078125,-24.90234375,0.0,-1.0,1.0,0.0,8.m4v,2.0
2024-02-27 10:55:44.580626,1709027744.5806262,-37.109375,-1000.0,-250.0,-41.50390625,0.0,-1.0,1.0,0.0,8.m4v,2.0
2024-02-27 10:55:44.588438,1709027744.5884378,-25.87890625,-1000.0,-161.1328125,-30.2734375,0.0,-1.0,1.0,0.0,8.m4v,2.0
2024-02-27 10:55:44.596249,1709027744.596249,-41.015625,918.9453125,684.5703125,-41.015625,0.0,-1.0,1.0,0.0,8.m4v,2.0
2024-02-27 10:55:44.615778,1709027744.6157782,-41.015625,969.7265625,97.65625,-37.59765625,0.0,-1.0,1.0,0.0,8.m4v,2.0
2024-02-27 10:55:44.623592,1709027744.6235917,-44.921875,969.7265625,-208.984375,-33.203125,0.0,-1.0,1.0,0.0,8.m4v,2.0
2024-02-27 10:55:44.631403,1709027744.6314032,-52.24609375,970.703125,177.734375,-31.25,0.0,-1.0,1.0,0.0,8.m4v,2.0
2024-02-27 10:55:44.639215,1709027744.6392148,-38.0859375,905.2734375,198.2421875,-36.62109375,0.0,-1.0,1.0,0.0,8.m4v,2.0
2024-02-27 10:55:44.647026,1709027744.647026,-42.48046875,479.4921875,42.96875,-30.76171875,0.0,-1.0,1.0,0.0,8.m4v,2.0
2024-02-27 10:55:44.654838,1709027744.6548376,-47.8515625,-1000.0,-62.5,-44.43359375,0.0,-1.0,1.0,0.0,8.m4v,2.0
2024-02-27 10:55:44.662649,1709027744.6626492,-43.9453125,-1000.0,-435.05859375,-37.59765625,0.0,-1.0,1.0,0.0,8.m4v,2.0
2024-02-27 10:55:44.670462,1709027744.6704624,-40.52734375,-1000.0,-54.6875,-28.80859375,0.0,-1.0,1.0,0.0,8.m4v,2.0
2024-02-27 10:55:44.678274,1709027744.678274,-33.69140625,-950.68359375,-220.21484375,-34.1796875,0.0,-1.0,1.0,0.0,8.m4v,2.0
2024-02-27 10:55:44.686085,1709027744.6860857,-41.50390625,-202.63671875,-67.87109375,-30.2734375,0.0,-1.0,1.0,0.0,8.m4v,2.0
2024-02-27 10:55:44.693897,1709027744.693897,-35.15625,961.42578125,317.87109375,-29.296875,0.0,-1.0,1.0,0.0,8.m4v,2.0
2024-02-27 10:55:44.701709,1709027744.7017086,-44.43359375,977.5390625,-268.5546875,-38.57421875,0.0,-1.0,1.0,0.0,8.m4v,2.0
2024-02-27 10:55:44.709520,1709027744.70952,-32.2265625,969.7265625,73.73046875,-11.23046875,0.0,-1.0,1.0,0.0,8.m4v,2.0
2024-02-27 10:55:44.717334,1709027744.7173345,-25.87890625,969.7265625,414.55078125,-28.80859375,0.0,-1.0,1.0,0.0,8.m4v,2.0
2024-02-27 10:55:44.725146,1709027744.7251458,-34.66796875,970.21484375,-259.27734375,-16.11328125,0.0,-1.0,1.0,0.0,8.m4v,2.0
2024-02-27 10:55:44.732957,1709027744.7329574,-18.5546875,979.98046875,332.51953125,-30.2734375,0.0,-1.0,1.0,0.0,8.m4v,2.0
2024-02-27 10:55:44.740769,1709027744.740769,-31.25,999.51171875,-68.84765625,-23.92578125,0.0,-1.0,1.0,0.0,8.m4v,2.0
2024-02-27 10:55:44.748580,1709027744.7485805,-47.8515625,-860.3515625,-263.671875,-32.71484375,0.0,-1.0,1.0,0.0,8.m4v,2.0
2024-02-27 10:55:44.756392,1709027744.756392,-35.64453125,-945.3125,-356.93359375,-27.83203125,0.0,-1.0,1.0,0.0,8.m4v,2.0
2024-02-27 10:55:44.764206,1709027744.764206,-44.921875,-1000.0,-587.40234375,-34.1796875,0.0,-1.0,1.0,0.0,8.m4v,2.0
2024-02-27 10:55:44.772017,1709027744.7720177,-34.66796875,-1000.0,-151.3671875,-19.04296875,0.0,-1.0,1.0,0.0,8.m4v,2.0
2024-02-27 10:55:44.779829,1709027744.779829,-24.90234375,749.0234375,418.45703125,-29.296875,0.0,-1.0,1.0,0.0,8.m4v,2.0
2024-02-27 10:55:44.787641,1709027744.7876406,-40.0390625,903.3203125,-106.93359375,-39.55078125,0.0,-1.0,1.0,0.0,8.m4v,2.0
2024-02-27 10:55:44.795452,1709027744.795452,-27.83203125,974.12109375,-14.6484375,-41.015625,0.0,-1.0,1.0,0.0,8.m4v,2.0
2024-02-27 10:55:44.803264,1709027744.8032637,-41.9921875,932.12890625,-411.62109375,-26.85546875,0.0,-1.0,1.0,0.0,8.m4v,2.0
2024-02-27 10:55:44.807172,1709027744.8071718,-48.828125,999.51171875,-312.01171875,-20.5078125,0.0,-1.0,1.0,0.0,8.m4v,2.0
2024-02-27 10:55:44.811078,1709027744.8110776,-59.5703125,67.87109375,-148.92578125,-37.59765625,0.0,-1.0,1.0,0.0,8.m4v,2.0
2024-02-27 10:55:44.814983,1709027744.8149834,-58.10546875,-1000.0,-194.82421875,-49.31640625,0.0,-1.0,1.0,0.0,8.m4v,2.0
2024-02-27 10:55:44.822795,1709027744.822795,-53.7109375,-1000.0,-412.109375,-43.9453125,0.0,-1.0,1.0,0.0,8.m4v,2.0
2024-02-27 10:55:44.830606,1709027744.8306065,-29.78515625,625.9765625,560.546875,-25.87890625,0.0,-1.0,1.0,0.0,8.m4v,2.0
2024-02-27 10:55:44.838418,1709027744.838418,-33.69140625,897.4609375,28.80859375,-31.73828125,0.0,-1.0,1.0,0.0,8.m4v,2.0
2024-02-27 10:55:44.846230,1709027744.8462296,-49.8046875,969.7265625,-229.98046875,-46.875,0.0,-1.0,1.0,0.0,8.m4v,2.0
2024-02-27 10:55:44.854043,1709027744.8540432,-26.3671875,969.7265625,128.41796875,-26.3671875,0.0,-1.0,1.0,0.0,8.m4v,2.0
2024-02-27 10:55:44.861855,1709027744.8618548,-41.9921875,969.7265625,-398.92578125,-52.24609375,0.0,-1.0,1.0,0.0,8.m4v,2.0
2024-02-27 10:55:44.869666,1709027744.8696663,-42.96875,969.7265625,11.23046875,-33.69140625,0.0,-1.0,1.0,0.0,8.m4v,2.0
2024-02-27 10:55:44.877478,1709027744.877478,-34.66796875,910.64453125,420.8984375,-44.921875,0.0,-1.0,1.0,0.0,8.m4v,2.0
2024-02-27 10:55:44.885289,1709027744.8852894,-38.0859375,840.33203125,-188.96484375,-43.9453125,0.0,-1.0,1.0,0.0,8.m4v,2.0
2024-02-27 10:55:44.893101,1709027744.893101,-52.24609375,-1000.0,-187.98828125,-44.921875,0.0,-1.0,1.0,0.0,8.m4v,2.0
2024-02-27 10:55:44.900914,1709027744.9009144,-31.73828125,-1000.0,-227.5390625,-40.52734375,0.0,-1.0,1.0,0.0,8.m4v,2.0
2024-02-27 10:55:44.908726,1709027744.908726,-32.71484375,-1000.0,-325.68359375,-50.29296875,0.0,-1.0,1.0,0.0,8.m4v,2.0
2024-02-27 10:55:44.916538,1709027744.9165375,-20.99609375,-1000.0,-325.68359375,-31.73828125,0.0,-1.0,1.0,0.0,8.m4v,2.0
2024-02-27 10:55:44.924349,1709027744.924349,-44.921875,678.7109375,156.73828125,-49.31640625,0.0,-1.0,1.0,0.0,8.m4v,2.0
2024-02-27 10:55:44.932161,1709027744.9321606,-52.734375,899.4140625,1.46484375,-56.640625,0.0,-1.0,1.0,0.0,8.m4v,2.0
2024-02-27 10:55:44.939972,1709027744.9399722,-40.0390625,969.7265625,-237.3046875,-53.22265625,0.0,-1.0,1.0,0.0,8.m4v,2.0
2024-02-27 10:55:44.947786,1709027744.9477856,-30.76171875,969.7265625,-139.16015625,-28.80859375,0.0,-1.0,1.0,0.0,8.m4v,2.0
2024-02-27 10:55:44.955597,1709027744.9555972,-20.01953125,969.7265625,186.5234375,-24.90234375,0.0,-1.0,1.0,0.0,8.m4v,2.0
2024-02-27 10:55:44.963409,1709027744.9634087,-27.34375,980.95703125,-302.734375,-33.69140625,0.0,-1.0,1.0,0.0,8.m4v,2.0
2024-02-27 10:55:44.971220,1709027744.9712205,-23.4375,983.3984375,489.2578125,-30.2734375,0.0,-1.0,1.0,0.0,8.m4v,2.0
2024-02-27 10:55:44.979032,1709027744.9790318,-33.69140625,-387.20703125,-402.83203125,-30.76171875,0.0,-1.0,1.0,0.0,8.m4v,2.0
2024-02-27 10:55:44.986843,1709027744.986843,-30.76171875,-930.17578125,-570.3125,-42.96875,0.0,-1.0,1.0,0.0,8.m4v,2.0
2024-02-27 10:55:44.994657,1709027744.9946566,-28.80859375,-1000.0,-269.53125,-23.92578125,0.0,-1.0,1.0,0.0,8.m4v,2.0
2024-02-27 10:55:45.002468,1709027745.002468,-36.1328125,-979.00390625,-551.26953125,-41.015625,0.0,-1.0,1.0,0.0,8.m4v,2.0
2024-02-27 10:55:45.010280,1709027745.0102797,-29.296875,-1000.0,-254.8828125,-18.06640625,0.0,-1.0,1.0,0.0,8.m4v,2.0
2024-02-27 10:55:45.018091,1709027745.0180912,-20.99609375,999.51171875,439.453125,-32.2265625,0.0,-1.0,1.0,0.0,8.m4v,2.0
2024-02-27 10:55:45.025903,1709027745.0259027,-31.73828125,962.890625,-395.99609375,-35.64453125,0.0,-1.0,1.0,0.0,8.m4v,2.0
2024-02-27 10:55:45.033714,1709027745.0337143,-38.57421875,969.7265625,-110.83984375,-30.76171875,0.0,-1.0,1.0,0.0,8.m4v,2.0
2024-02-27 10:55:45.041527,1709027745.0415273,-31.25,969.7265625,-261.71875,-35.64453125,0.0,-1.0,1.0,0.0,8.m4v,2.0
2024-02-27 10:55:45.049339,1709027745.0493388,-41.9921875,969.7265625,-87.890625,-30.2734375,0.0,-1.0,1.0,0.0,8.m4v,2.0
2024-02-27 10:55:45.057150,1709027745.0571504,-35.64453125,985.83984375,-208.0078125,-30.2734375,0.0,-1.0,1.0,0.0,8.m4v,2.0
2024-02-27 10:55:45.064962,1709027745.064962,-37.109375,999.51171875,202.1484375,-29.78515625,0.0,-1.0,1.0,0.0,8.m4v,2.0
2024-02-27 10:55:45.072773,1709027745.0727737,-28.3203125,-580.56640625,-154.78515625,-42.48046875,0.0,-1.0,1.0,0.0,8.m4v,2.0
2024-02-27 10:55:45.088399,1709027745.0883992,-37.109375,-1000.0,-349.609375,-48.33984375,0.0,-1.0,1.0,0.0,8.m4v,2.0
2024-02-27 10:55:45.092305,1709027745.092305,-31.25,-1000.0,-244.140625,-28.3203125,0.0,-1.0,1.0,0.0,8.m4v,2.0
2024-02-27 10:55:45.096211,1709027745.0962107,-32.2265625,-963.8671875,-299.8046875,-32.71484375,0.0,-1.0,1.0,0.0,8.m4v,2.0
2024-02-27 10:55:45.100116,1709027745.1001165,-20.5078125,-1000.0,-596.19140625,-27.34375,0.0,-1.0,1.0,0.0,8.m4v,2.0
2024-02-27 10:55:45.104022,1709027745.1040225,-23.4375,-1000.0,-665.0390625,-23.92578125,0.0,-1.0,1.0,0.0,8.m4v,2.0
2024-02-27 10:55:45.107928,1709027745.107928,-25.390625,300.29296875,-57.12890625,-17.08984375,0.0,-1.0,1.0,0.0,8.m4v,2.0
2024-02-27 10:55:45.111834,1709027745.1118338,-20.5078125,999.51171875,407.2265625,-11.71875,0.0,-1.0,1.0,0.0,8.m4v,2.0
2024-02-27 10:55:45.115740,1709027745.1157396,-28.80859375,901.85546875,8.7890625,-27.83203125,0.0,-1.0,1.0,0.0,8.m4v,2.0
2024-02-27 10:55:45.119645,1709027745.1196454,-31.73828125,975.5859375,-494.62890625,-26.3671875,0.0,-1.0,1.0,0.0,8.m4v,2.0
2024-02-27 10:55:45.123551,1709027745.1235511,-27.34375,970.21484375,-673.828125,-19.04296875,0.0,-1.0,1.0,0.0,8.m4v,2.0
2024-02-27 10:55:45.127457,1709027745.127457,-27.83203125,970.21484375,-436.5234375,-32.2265625,0.0,-1.0,1.0,0.0,8.m4v,2.0
2024-02-27 10:55:45.131363,1709027745.131363,-27.83203125,969.7265625,-160.64453125,-28.3203125,0.0,-1.0,1.0,0.0,8.m4v,2.0
2024-02-27 10:55:45.135271,1709027745.135271,-20.01953125,969.7265625,-44.43359375,-21.97265625,0.0,-1.0,1.0,0.0,8.m4v,2.0
2024-02-27 10:55:45.139177,1709027745.1391768,-18.06640625,969.7265625,-55.17578125,-38.0859375,0.0,-1.0,1.0,0.0,8.m4v,2.0
2024-02-27 10:55:45.143083,1709027745.1430826,-21.97265625,969.7265625,-319.82421875,-39.55078125,0.0,-1.0,1.0,0.0,8.m4v,2.0
2024-02-27 10:55:45.146988,1709027745.1469884,-20.5078125,969.7265625,-317.3828125,-26.85546875,0.0,-1.0,1.0,0.0,8.m4v,2.0
2024-02-27 10:55:45.150894,1709027745.1508942,-18.06640625,986.81640625,-5.37109375,-28.80859375,0.0,-1.0,1.0,0.0,8.m4v,2.0
2024-02-27 10:55:45.154800,1709027745.1548,-26.3671875,907.71484375,266.6015625,-34.66796875,0.0,-1.0,1.0,0.0,8.m4v,2.0
2024-02-27 10:55:45.158706,1709027745.1587057,-23.4375,999.51171875,168.45703125,-36.62109375,0.0,-1.0,1.0,0.0,8.m4v,2.0
2024-02-27 10:55:45.162611,1709027745.1626115,-28.3203125,801.7578125,-323.73046875,-37.59765625,0.0,-1.0,1.0,0.0,8.m4v,2.0
2024-02-27 10:55:45.166517,1709027745.166517,-44.43359375,-664.55078125,-566.89453125,-40.52734375,0.0,-1.0,1.0,0.0,8.m4v,2.0
2024-02-27 10:55:45.170423,1709027745.1704228,-34.1796875,-1000.0,-364.74609375,-32.2265625,0.0,-1.0,1.0,0.0,8.m4v,2.0
2024-02-27 10:55:45.174329,1709027745.1743286,-24.4140625,-928.22265625,-342.28515625,-23.4375,0.0,-1.0,1.0,0.0,8.m4v,2.0
2024-02-27 10:55:45.178234,1709027745.1782343,-33.69140625,-1000.0,-571.2890625,-25.87890625,0.0,-1.0,1.0,0.0,8.m4v,2.0
2024-02-27 10:55:45.182143,1709027745.1821427,-37.59765625,-1000.0,-757.32421875,-24.4140625,0.0,-1.0,1.0,0.0,8.m4v,2.0
2024-02-27 10:55:45.186049,1709027745.1860485,-34.1796875,-986.81640625,-679.6875,-22.94921875,0.0,-1.0,1.0,0.0,8.m4v,2.0
2024-02-27 10:55:45.189954,1709027745.1899543,-31.25,-966.30859375,-292.96875,-22.94921875,0.0,-1.0,1.0,0.0,8.m4v,2.0
2024-02-27 10:55:45.193860,1709027745.19386,-25.390625,-1000.0,-60.546875,-24.4140625,0.0,-1.0,1.0,0.0,8.m4v,2.0
2024-02-27 10:55:45.197766,1709027745.1977658,-25.390625,-56.640625,-97.65625,-24.90234375,0.0,-1.0,1.0,0.0,8.m4v,2.0
2024-02-27 10:55:45.201672,1709027745.2016716,-26.3671875,999.51171875,-118.65234375,-9.27734375,0.0,-1.0,1.0,0.0,8.m4v,2.0
2024-02-27 10:55:45.205577,1709027745.2055774,-22.4609375,944.3359375,7.32421875,0.9765625,0.0,-1.0,1.0,0.0,8.m4v,2.0
2024-02-27 10:55:45.209483,1709027745.209483,-35.15625,951.66015625,-34.66796875,-25.390625,0.0,-1.0,1.0,0.0,8.m4v,2.0
2024-02-27 10:55:45.213389,1709027745.2133887,-41.015625,975.5859375,-153.80859375,-45.8984375,0.0,-1.0,1.0,0.0,8.m4v,2.0
2024-02-27 10:55:45.217294,1709027745.2172945,-33.69140625,969.7265625,-230.46875,-43.45703125,0.0,-1.0,1.0,0.0,8.m4v,2.0
2024-02-27 10:55:45.221200,1709027745.2212002,-36.62109375,969.7265625,-341.796875,-45.41015625,0.0,-1.0,1.0,0.0,8.m4v,2.0
2024-02-27 10:55:45.225106,1709027745.225106,-35.64453125,969.7265625,-409.1796875,-41.50390625,0.0,-1.0,1.0,0.0,8.m4v,2.0
2024-02-27 10:55:45.229014,1709027745.2290142,-37.59765625,969.7265625,-143.5546875,-34.66796875,0.0,-1.0,1.0,0.0,8.m4v,2.0
2024-02-27 10:55:45.232920,1709027745.23292,-35.64453125,969.7265625,52.734375,-37.59765625,0.0,-1.0,1.0,0.0,8.m4v,2.0
2024-02-27 10:55:45.236826,1709027745.2368257,-31.73828125,969.7265625,-155.2734375,-37.59765625,0.0,-1.0,1.0,0.0,8.m4v,2.0
2024-02-27 10:55:45.240731,1709027745.2407317,-32.2265625,969.7265625,-375.48828125,-38.0859375,0.0,-1.0,1.0,0.0,8.m4v,2.0
2024-02-27 10:55:45.244637,1709027745.2446373,-30.2734375,969.7265625,-384.765625,-43.9453125,0.0,-1.0,1.0,0.0,8.m4v,2.0
2024-02-27 10:55:45.248543,1709027745.248543,-29.296875,986.328125,62.5,-36.62109375,0.0,-1.0,1.0,0.0,8.m4v,2.0
2024-02-27 10:55:45.252449,1709027745.2524488,-26.3671875,901.3671875,514.6484375,-23.92578125,0.0,-1.0,1.0,0.0,8.m4v,2.0
2024-02-27 10:55:45.256355,1709027745.2563546,-24.4140625,999.51171875,374.51171875,-28.3203125,0.0,-1.0,1.0,0.0,8.m4v,2.0
2024-02-27 10:55:45.260260,1709027745.2602603,-35.15625,691.89453125,-133.30078125,-29.296875,0.0,-1.0,1.0,0.0,8.m4v,2.0
2024-02-27 10:55:45.264166,1709027745.264166,-49.8046875,-775.87890625,-694.3359375,-29.296875,0.0,-1.0,1.0,0.0,8.m4v,2.0
2024-02-27 10:55:45.268072,1709027745.268072,-46.38671875,-1000.0,-588.37890625,-28.3203125,0.0,-1.0,1.0,0.0,8.m4v,2.0
2024-02-27 10:55:45.271978,1709027745.2719777,-44.43359375,-934.08203125,-249.51171875,-11.23046875,0.0,-1.0,1.0,0.0,8.m4v,2.0
2024-02-27 10:55:45.275886,1709027745.2758856,-53.22265625,-1000.0,-370.1171875,-19.04296875,0.0,-1.0,1.0,0.0,8.m4v,2.0
2024-02-27 10:55:45.279791,1709027745.2797914,-53.7109375,-1000.0,-599.12109375,-40.52734375,0.0,-1.0,1.0,0.0,8.m4v,2.0
2024-02-27 10:55:45.283697,1709027745.2836971,-47.36328125,-1000.0,-650.390625,-37.109375,0.0,-1.0,1.0,0.0,8.m4v,2.0
2024-02-27 10:55:45.287603,1709027745.287603,-44.43359375,-936.5234375,-396.97265625,-29.78515625,0.0,-1.0,1.0,0.0,8.m4v,2.0
2024-02-27 10:55:45.291509,1709027745.291509,-38.57421875,-1000.0,-73.2421875,-33.69140625,0.0,-1.0,1.0,0.0,8.m4v,2.0
2024-02-27 10:55:45.295414,1709027745.2954144,-27.34375,-802.24609375,88.37890625,-32.2265625,0.0,-1.0,1.0,0.0,8.m4v,2.0
2024-02-27 10:55:45.299320,1709027745.2993202,-20.99609375,661.1328125,175.78125,-28.3203125,0.0,-1.0,1.0,0.0,8.m4v,2.0
2024-02-27 10:55:45.303226,1709027745.303226,-27.83203125,999.51171875,-209.47265625,-31.25,0.0,-1.0,1.0,0.0,8.m4v,2.0
2024-02-27 10:55:45.307132,1709027745.3071318,-29.78515625,899.90234375,-381.8359375,-32.2265625,0.0,-1.0,1.0,0.0,8.m4v,2.0
2024-02-27 10:55:45.311038,1709027745.3110375,-24.4140625,986.328125,-132.32421875,-32.71484375,0.0,-1.0,1.0,0.0,8.m4v,2.0
2024-02-27 10:55:45.314943,1709027745.3149433,-18.5546875,969.7265625,-29.78515625,-31.25,0.0,-1.0,1.0,0.0,8.m4v,2.0
2024-02-27 10:55:45.318849,1709027745.318849,-9.27734375,969.7265625,1.953125,-30.76171875,0.0,-1.0,1.0,0.0,8.m4v,2.0
2024-02-27 10:55:45.322757,1709027745.3227568,-19.53125,969.7265625,-243.1640625,-32.71484375,0.0,-1.0,1.0,0.0,8.m4v,2.0
2024-02-27 10:55:45.326663,1709027745.3266623,-30.76171875,986.328125,-277.83203125,-28.3203125,0.0,-1.0,1.0,0.0,8.m4v,2.0
2024-02-27 10:55:45.330568,1709027745.3305683,-28.80859375,903.80859375,-49.31640625,-31.73828125,0.0,-1.0,1.0,0.0,8.m4v,2.0
2024-02-27 10:55:45.334474,1709027745.334474,-38.0859375,999.51171875,-63.4765625,-40.0390625,0.0,-1.0,1.0,0.0,8.m4v,2.0
2024-02-27 10:55:45.338380,1709027745.33838,-42.96875,739.2578125,-372.0703125,-39.0625,0.0,-1.0,1.0,0.0,8.m4v,2.0
2024-02-27 10:55:45.342286,1709027745.3422856,-50.78125,-727.5390625,-437.98828125,-39.55078125,0.0,-1.0,1.0,0.0,8.m4v,2.0
2024-02-27 10:55:45.346191,1709027745.3461914,-52.24609375,-1000.0,-336.42578125,-37.59765625,0.0,-1.0,1.0,0.0,8.m4v,2.0
2024-02-27 10:55:45.350097,1709027745.3500972,-44.921875,-931.640625,-351.5625,-35.64453125,0.0,-1.0,1.0,0.0,8.m4v,2.0
2024-02-27 10:55:45.354003,1709027745.354003,-45.8984375,-1000.0,-514.16015625,-31.73828125,0.0,-1.0,1.0,0.0,8.m4v,2.0
2024-02-27 10:55:45.357909,1709027745.3579087,-48.828125,-1000.0,-809.08203125,-30.76171875,0.0,-1.0,1.0,0.0,8.m4v,2.0
2024-02-27 10:55:45.361814,1709027745.3618145,-46.875,-1000.0,-901.85546875,-46.38671875,0.0,-1.0,1.0,0.0,8.m4v,2.0
2024-02-27 10:55:45.365720,1709027745.3657205,-41.50390625,-962.40234375,-656.25,-47.8515625,0.0,-1.0,1.0,0.0,8.m4v,2.0
2024-02-27 10:55:45.369628,1709027745.369628,-37.59765625,-1000.0,-208.984375,-38.0859375,0.0,-1.0,1.0,0.0,8.m4v,2.0
2024-02-27 10:55:45.373534,1709027745.3735335,-42.96875,-1000.0,-148.92578125,-29.296875,0.0,-1.0,1.0,0.0,8.m4v,2.0
2024-02-27 10:55:45.377439,1709027745.3774395,-36.1328125,318.84765625,-25.390625,-17.578125,0.0,-1.0,1.0,0.0,8.m4v,2.0
2024-02-27 10:55:45.381345,1709027745.3813453,-21.484375,999.51171875,-140.625,-27.34375,0.0,-1.0,1.0,0.0,8.m4v,2.0
2024-02-27 10:55:45.385251,1709027745.385251,-29.296875,900.87890625,-418.9453125,-48.33984375,0.0,-1.0,1.0,0.0,8.m4v,2.0
2024-02-27 10:55:45.389157,1709027745.3891568,-30.2734375,976.5625,143.5546875,-43.9453125,0.0,-1.0,1.0,0.0,8.m4v,2.0
2024-02-27 10:55:45.393063,1709027745.3930626,-23.92578125,969.7265625,464.35546875,-36.62109375,0.0,-1.0,1.0,0.0,8.m4v,2.0
2024-02-27 10:55:45.396968,1709027745.3969684,-25.87890625,970.21484375,-37.109375,-47.36328125,0.0,-1.0,1.0,0.0,8.m4v,2.0
2024-02-27 10:55:45.400874,1709027745.400874,-24.90234375,969.7265625,-347.65625,-53.22265625,0.0,-1.0,1.0,0.0,8.m4v,2.0
2024-02-27 10:55:45.404780,1709027745.4047797,-35.64453125,970.21484375,-264.6484375,-40.52734375,0.0,-1.0,1.0,0.0,8.m4v,2.0
2024-02-27 10:55:45.408685,1709027745.4086854,-41.50390625,985.83984375,-32.71484375,-31.25,0.0,-1.0,1.0,0.0,8.m4v,2.0
2024-02-27 10:55:45.412591,1709027745.4125912,-35.64453125,902.83203125,74.21875,-30.2734375,0.0,-1.0,1.0,0.0,8.m4v,2.0
2024-02-27 10:55:45.416500,1709027745.4165,-31.73828125,999.51171875,-185.546875,-30.2734375,0.0,-1.0,1.0,0.0,8.m4v,2.0
2024-02-27 10:55:45.420406,1709027745.420406,-34.1796875,687.98828125,-528.3203125,-36.62109375,0.0,-1.0,1.0,0.0,8.m4v,2.0
2024-02-27 10:55:45.424312,1709027745.4243116,-41.9921875,-769.04296875,-626.953125,-41.50390625,0.0,-1.0,1.0,0.0,8.m4v,2.0
2024-02-27 10:55:45.428217,1709027745.4282174,-38.0859375,-1000.0,-303.22265625,-32.71484375,0.0,-1.0,1.0,0.0,8.m4v,2.0
2024-02-27 10:55:45.432123,1709027745.4321232,-28.80859375,-934.5703125,39.0625,-25.87890625,0.0,-1.0,1.0,0.0,8.m4v,2.0
2024-02-27 10:55:45.436029,1709027745.436029,-26.85546875,-1000.0,85.44921875,-21.484375,0.0,-1.0,1.0,0.0,8.m4v,2.0
2024-02-27 10:55:45.439935,1709027745.4399347,-33.203125,-1000.0,123.046875,-30.2734375,0.0,-1.0,1.0,0.0,8.m4v,2.0
2024-02-27 10:55:45.443841,1709027745.4438405,-38.57421875,-1000.0,63.96484375,-41.9921875,0.0,-1.0,1.0,0.0,8.m4v,2.0
2024-02-27 10:55:45.447746,1709027745.4477465,-36.62109375,-1000.0,-30.76171875,-28.80859375,0.0,-1.0,1.0,0.0,8.m4v,2.0
2024-02-27 10:55:45.451652,1709027745.451652,-34.66796875,-1000.0,36.1328125,-19.53125,0.0,-1.0,1.0,0.0,8.m4v,2.0
2024-02-27 10:55:45.455558,1709027745.4555578,-33.69140625,-1000.0,-4.39453125,-35.64453125,0.0,-1.0,1.0,0.0,8.m4v,2.0
2024-02-27 10:55:45.459464,1709027745.4594636,-38.57421875,-1000.0,-180.17578125,-41.015625,0.0,-1.0,1.0,0.0,8.m4v,2.0
2024-02-27 10:55:45.463372,1709027745.463372,-41.9921875,-1000.0,-245.60546875,-40.0390625,0.0,-1.0,1.0,0.0,8.m4v,2.0
2024-02-27 10:55:45.467278,1709027745.4672778,-36.1328125,-1000.0,-53.22265625,-38.0859375,0.0,-1.0,1.0,0.0,8.m4v,2.0
2024-02-27 10:55:45.471184,1709027745.4711835,-36.1328125,-950.68359375,288.57421875,-40.52734375,0.0,-1.0,1.0,0.0,8.m4v,2.0
2024-02-27 10:55:45.475089,1709027745.4750893,-38.0859375,-1000.0,287.109375,-44.921875,0.0,-1.0,1.0,0.0,8.m4v,2.0
2024-02-27 10:55:45.478995,1709027745.478995,-38.0859375,-952.1484375,104.00390625,-38.57421875,0.0,-1.0,1.0,0.0,8.m4v,2.0
2024-02-27 10:55:45.482901,1709027745.4829009,-36.62109375,463.37890625,492.67578125,-30.2734375,0.0,-1.0,1.0,0.0,8.m4v,2.0
2024-02-27 10:55:45.486807,1709027745.4868066,-36.1328125,999.51171875,879.39453125,-21.97265625,0.0,-1.0,1.0,0.0,8.m4v,2.0
2024-02-27 10:55:45.490712,1709027745.4907124,-34.66796875,895.5078125,714.35546875,-21.97265625,0.0,-1.0,1.0,0.0,8.m4v,2.0
2024-02-27 10:55:45.494618,1709027745.4946182,-29.78515625,982.421875,593.26171875,-28.3203125,0.0,-1.0,1.0,0.0,8.m4v,2.0
2024-02-27 10:55:45.498524,1709027745.498524,-33.69140625,969.7265625,569.82421875,-36.62109375,0.0,-1.0,1.0,0.0,8.m4v,2.0
2024-02-27 10:55:45.502430,1709027745.5024295,-30.2734375,969.7265625,386.71875,-33.69140625,0.0,-1.0,1.0,0.0,8.m4v,2.0
2024-02-27 10:55:45.506335,1709027745.5063355,-25.390625,976.5625,487.79296875,-23.4375,0.0,-1.0,1.0,0.0,8.m4v,2.0
2024-02-27 10:55:45.510244,1709027745.510244,-31.73828125,945.80078125,643.06640625,-10.25390625,0.0,-1.0,1.0,0.0,8.m4v,2.0
2024-02-27 10:55:45.514150,1709027745.5141497,-28.3203125,951.171875,565.4296875,-20.5078125,0.0,-1.0,1.0,0.0,8.m4v,2.0
2024-02-27 10:55:45.518055,1709027745.5180554,-22.4609375,999.51171875,345.21484375,-38.57421875,0.0,-1.0,1.0,0.0,8.m4v,2.0
2024-02-27 10:55:45.521961,1709027745.5219612,-28.80859375,-147.94921875,69.82421875,-42.96875,0.0,-1.0,1.0,0.0,8.m4v,2.0
2024-02-27 10:55:45.525867,1709027745.525867,-25.87890625,-1000.0,38.0859375,-47.36328125,0.0,-1.0,1.0,0.0,8.m4v,2.0
2024-02-27 10:55:45.529773,1709027745.5297728,-26.85546875,-951.66015625,606.4453125,-41.015625,0.0,-1.0,1.0,0.0,8.m4v,2.0
2024-02-27 10:55:45.533679,1709027745.5336783,-31.73828125,-994.62890625,950.68359375,-31.73828125,0.0,-1.0,1.0,0.0,8.m4v,2.0
2024-02-27 10:55:45.537584,1709027745.5375843,-26.3671875,-1000.0,389.6484375,-35.15625,0.0,-1.0,1.0,0.0,8.m4v,2.0
2024-02-27 10:55:45.541490,1709027745.54149,-24.90234375,-1000.0,-8.30078125,-40.0390625,0.0,-1.0,1.0,0.0,8.m4v,2.0
2024-02-27 10:55:45.545396,1709027745.545396,-32.2265625,-963.37890625,10.7421875,-40.52734375,0.0,-1.0,1.0,0.0,8.m4v,2.0
2024-02-27 10:55:45.549302,1709027745.5493016,-29.296875,-1000.0,203.61328125,-31.73828125,0.0,-1.0,1.0,0.0,8.m4v,2.0
2024-02-27 10:55:45.553207,1709027745.5532074,-20.01953125,-1000.0,410.15625,-19.53125,0.0,-1.0,1.0,0.0,8.m4v,2.0
2024-02-27 10:55:45.557116,1709027745.5571156,-13.18359375,308.59375,596.19140625,-26.3671875,0.0,-1.0,1.0,0.0,8.m4v,2.0
2024-02-27 10:55:45.561021,1709027745.561021,-16.11328125,999.51171875,475.5859375,-37.59765625,0.0,-1.0,1.0,0.0,8.m4v,2.0
2024-02-27 10:55:45.561021,1709027745.561021,-16.11328125,999.51171875,475.5859375,-37.59765625,0.0,-1.0,1.0,0.0,8.m4v,2.0
2024-02-27 10:55:45.564927,1709027745.564927,-22.94921875,901.3671875,291.015625,-34.1796875,0.0,-1.0,1.0,0.0,8.m4v,2.0
2024-02-27 10:55:45.564927,1709027745.564927,-22.94921875,901.3671875,291.015625,-34.1796875,0.0,-1.0,1.0,0.0,8.m4v,2.0
2024-02-27 10:55:45.568833,1709027745.5688329,-16.11328125,976.07421875,538.0859375,-26.85546875,0.0,-1.0,1.0,0.0,8.m4v,2.0
2024-02-27 10:55:45.568833,1709027745.5688329,-16.11328125,976.07421875,538.0859375,-26.85546875,0.0,-1.0,1.0,0.0,8.m4v,2.0
2024-02-27 10:55:45.572739,1709027745.5727386,-21.484375,969.7265625,671.38671875,-30.76171875,0.0,-1.0,1.0,0.0,8.m4v,2.0
2024-02-27 10:55:45.572739,1709027745.5727386,-21.484375,969.7265625,671.38671875,-30.76171875,0.0,-1.0,1.0,0.0,8.m4v,2.0
2024-02-27 10:55:45.576644,1709027745.5766444,-24.90234375,969.7265625,567.87109375,-32.71484375,0.0,-1.0,1.0,0.0,8.m4v,2.0
2024-02-27 10:55:45.576644,1709027745.5766444,-24.90234375,969.7265625,567.87109375,-32.71484375,0.0,-1.0,1.0,0.0,8.m4v,2.0
2024-02-27 10:55:45.607893,1709027745.6078928,-41.50390625,969.7265625,351.5625,-27.34375,0.0,-1.0,1.0,0.0,8.m4v,2.0
2024-02-27 10:55:45.611799,1709027745.6117983,-36.1328125,969.7265625,549.8046875,-27.34375,0.0,-1.0,1.0,0.0,8.m4v,2.0
2024-02-27 10:55:45.619610,1709027745.61961,-33.203125,913.0859375,407.2265625,-37.109375,0.0,-1.0,1.0,0.0,8.m4v,2.0
2024-02-27 10:55:45.627422,1709027745.6274216,-36.1328125,874.51171875,598.6328125,-32.2265625,0.0,-1.0,1.0,0.0,8.m4v,2.0
2024-02-27 10:55:45.635233,1709027745.6352332,-35.15625,-1000.0,-39.0625,-41.50390625,0.0,-1.0,1.0,0.0,8.m4v,2.0
2024-02-27 10:55:45.650858,1709027745.650858,-20.5078125,-1000.0,206.54296875,-20.5078125,0.0,-1.0,1.0,0.0,8.m4v,2.0
2024-02-27 10:55:45.666481,1709027745.666481,-41.50390625,-965.8203125,106.93359375,-30.2734375,0.0,-1.0,1.0,0.0,8.m4v,2.0
2024-02-27 10:55:45.732881,1709027745.732881,-7.32421875,-1000.0,-118.65234375,-25.390625,0.0,-1.0,1.0,0.0,8.m4v,2.0
2024-02-27 10:55:45.740692,1709027745.7406924,-18.06640625,-1000.0,-183.10546875,-34.66796875,0.0,-1.0,1.0,0.0,8.m4v,2.0
2024-02-27 10:55:45.748506,1709027745.7485058,-28.3203125,-1000.0,-131.34765625,-36.1328125,0.0,-1.0,1.0,0.0,8.m4v,2.0
2024-02-27 10:55:45.756317,1709027745.7563174,-14.6484375,-948.2421875,-139.16015625,-49.8046875,0.0,-1.0,1.0,0.0,8.m4v,2.0
2024-02-27 10:55:45.764129,1709027745.764129,-7.32421875,-216.796875,-62.01171875,-38.57421875,0.0,-1.0,1.0,0.0,8.m4v,2.0
2024-02-27 10:55:45.771940,1709027745.7719405,-5.37109375,962.40234375,486.328125,-40.52734375,0.0,-1.0,1.0,0.0,8.m4v,2.0
2024-02-27 10:55:45.779752,1709027745.779752,-15.625,978.02734375,-109.86328125,-41.015625,0.0,-1.0,1.0,0.0,8.m4v,2.0
2024-02-27 10:55:45.787564,1709027745.7875636,-23.92578125,969.7265625,74.21875,-38.57421875,0.0,-1.0,1.0,0.0,8.m4v,2.0
2024-02-27 10:55:45.795378,1709027745.7953782,-17.578125,983.3984375,324.70703125,-31.73828125,0.0,-1.0,1.0,0.0,8.m4v,2.0
2024-02-27 10:55:45.799284,1709027745.799284,-22.94921875,908.203125,176.7578125,-37.59765625,0.0,-1.0,1.0,0.0,8.m4v,2.0
2024-02-27 10:55:45.803190,1709027745.8031898,-26.3671875,999.51171875,-179.6875,-39.55078125,0.0,-1.0,1.0,0.0,8.m4v,2.0
2024-02-27 10:55:45.807096,1709027745.8070955,-25.87890625,690.91796875,-187.5,-37.109375,0.0,-1.0,1.0,0.0,8.m4v,2.0
2024-02-27 10:55:45.811001,1709027745.8110013,-25.390625,-738.28125,324.21875,-39.0625,0.0,-1.0,1.0,0.0,8.m4v,2.0
2024-02-27 10:55:45.814907,1709027745.8149068,-30.2734375,-1000.0,479.4921875,-34.66796875,0.0,-1.0,1.0,0.0,8.m4v,2.0
2024-02-27 10:55:45.818813,1709027745.8188126,-35.64453125,-935.546875,-99.12109375,-18.06640625,0.0,-1.0,1.0,0.0,8.m4v,2.0
2024-02-27 10:55:45.822718,1709027745.8227184,-34.66796875,-1000.0,-469.7265625,-22.94921875,0.0,-1.0,1.0,0.0,8.m4v,2.0
2024-02-27 10:55:45.826624,1709027745.8266242,-35.64453125,-1000.0,-414.55078125,-47.36328125,0.0,-1.0,1.0,0.0,8.m4v,2.0
2024-02-27 10:55:45.830530,1709027745.83053,-39.0625,-1000.0,-140.625,-42.48046875,0.0,-1.0,1.0,0.0,8.m4v,2.0
2024-02-27 10:55:45.834436,1709027745.8344357,-30.2734375,-1000.0,26.3671875,-40.52734375,0.0,-1.0,1.0,0.0,8.m4v,2.0
2024-02-27 10:55:45.838344,1709027745.8383443,-24.4140625,-1000.0,-130.859375,-42.96875,0.0,-1.0,1.0,0.0,8.m4v,2.0
2024-02-27 10:55:45.842250,1709027745.84225,-38.0859375,-1000.0,-301.26953125,-34.66796875,0.0,-1.0,1.0,0.0,8.m4v,2.0
2024-02-27 10:55:45.846156,1709027745.846156,-40.52734375,-947.265625,-133.7890625,-32.2265625,0.0,-1.0,1.0,0.0,8.m4v,2.0
2024-02-27 10:55:45.850062,1709027745.8500617,-22.94921875,-1000.0,186.5234375,-30.76171875,0.0,-1.0,1.0,0.0,8.m4v,2.0
2024-02-27 10:55:45.853967,1709027745.8539674,-19.04296875,-926.26953125,143.5546875,-32.2265625,0.0,-1.0,1.0,0.0,8.m4v,2.0
2024-02-27 10:55:45.857873,1709027745.8578732,-23.92578125,509.27734375,258.7890625,-32.2265625,0.0,-1.0,1.0,0.0,8.m4v,2.0
2024-02-27 10:55:45.861779,1709027745.861779,-29.78515625,999.51171875,479.98046875,-30.76171875,0.0,-1.0,1.0,0.0,8.m4v,2.0
2024-02-27 10:55:45.865685,1709027745.8656847,-37.109375,895.01953125,301.7578125,-32.71484375,0.0,-1.0,1.0,0.0,8.m4v,2.0
2024-02-27 10:55:45.869591,1709027745.8695903,-38.57421875,983.88671875,196.77734375,-30.76171875,0.0,-1.0,1.0,0.0,8.m4v,2.0
2024-02-27 10:55:45.873496,1709027745.8734963,-38.57421875,969.7265625,54.6875,-30.76171875,0.0,-1.0,1.0,0.0,8.m4v,2.0
2024-02-27 10:55:45.877402,1709027745.877402,-39.55078125,969.7265625,-143.5546875,-27.34375,0.0,-1.0,1.0,0.0,8.m4v,2.0
2024-02-27 10:55:45.881308,1709027745.8813078,-44.921875,969.7265625,-203.61328125,-30.2734375,0.0,-1.0,1.0,0.0,8.m4v,2.0
2024-02-27 10:55:45.885216,1709027745.8852162,-44.43359375,969.7265625,-212.40234375,-31.25,0.0,-1.0,1.0,0.0,8.m4v,2.0
2024-02-27 10:55:45.889122,1709027745.889122,-41.50390625,969.7265625,24.90234375,-24.4140625,0.0,-1.0,1.0,0.0,8.m4v,2.0
2024-02-27 10:55:45.893028,1709027745.8930278,-31.73828125,969.7265625,243.65234375,-31.73828125,0.0,-1.0,1.0,0.0,8.m4v,2.0
2024-02-27 10:55:45.896934,1709027745.8969336,-35.64453125,969.7265625,51.26953125,-40.52734375,0.0,-1.0,1.0,0.0,8.m4v,2.0
2024-02-27 10:55:45.900839,1709027745.900839,-46.38671875,986.328125,-254.8828125,-47.36328125,0.0,-1.0,1.0,0.0,8.m4v,2.0
2024-02-27 10:55:45.904745,1709027745.904745,-46.38671875,910.64453125,20.5078125,-43.45703125,0.0,-1.0,1.0,0.0,8.m4v,2.0
2024-02-27 10:55:45.908651,1709027745.9086509,-41.9921875,999.51171875,419.43359375,-34.1796875,0.0,-1.0,1.0,0.0,8.m4v,2.0
2024-02-27 10:55:45.912557,1709027745.9125566,-42.48046875,845.703125,194.82421875,-33.69140625,0.0,-1.0,1.0,0.0,8.m4v,2.0
2024-02-27 10:55:45.916462,1709027745.9164624,-52.24609375,-614.74609375,-73.2421875,-32.71484375,0.0,-1.0,1.0,0.0,8.m4v,2.0
2024-02-27 10:55:45.920368,1709027745.9203682,-53.22265625,-1000.0,-354.98046875,-36.1328125,0.0,-1.0,1.0,0.0,8.m4v,2.0
2024-02-27 10:55:45.924274,1709027745.924274,-54.19921875,-926.26953125,-622.0703125,-42.96875,0.0,-1.0,1.0,0.0,8.m4v,2.0
2024-02-27 10:55:45.928180,1709027745.9281795,-49.31640625,-1000.0,-327.1484375,-40.0390625,0.0,-1.0,1.0,0.0,8.m4v,2.0
2024-02-27 10:55:45.932088,1709027745.932088,-36.62109375,-1000.0,-77.1484375,-37.109375,0.0,-1.0,1.0,0.0,8.m4v,2.0
2024-02-27 10:55:45.935994,1709027745.9359937,-33.69140625,-1000.0,-220.703125,-40.0390625,0.0,-1.0,1.0,0.0,8.m4v,2.0
2024-02-27 10:55:45.939899,1709027745.9398994,-36.62109375,-960.44921875,-407.71484375,-43.45703125,0.0,-1.0,1.0,0.0,8.m4v,2.0
2024-02-27 10:55:45.943805,1709027745.9438052,-48.828125,-1000.0,-377.44140625,-38.57421875,0.0,-1.0,1.0,0.0,8.m4v,2.0
2024-02-27 10:55:45.947711,1709027745.947711,-47.8515625,-1000.0,-140.13671875,-27.34375,0.0,-1.0,1.0,0.0,8.m4v,2.0
2024-02-27 10:55:45.951617,1709027745.9516168,-33.203125,346.6796875,435.05859375,-11.23046875,0.0,-1.0,1.0,0.0,8.m4v,2.0
2024-02-27 10:55:45.955523,1709027745.9555223,-29.296875,999.51171875,595.21484375,-27.83203125,0.0,-1.0,1.0,0.0,8.m4v,2.0
2024-02-27 10:55:45.959428,1709027745.9594283,-46.38671875,899.90234375,38.0859375,-51.7578125,0.0,-1.0,1.0,0.0,8.m4v,2.0
2024-02-27 10:55:45.963334,1709027745.963334,-59.08203125,978.02734375,-274.4140625,-46.38671875,0.0,-1.0,1.0,0.0,8.m4v,2.0
2024-02-27 10:55:45.967240,1709027745.96724,-55.17578125,969.7265625,-145.5078125,-41.015625,0.0,-1.0,1.0,0.0,8.m4v,2.0
2024-02-27 10:55:45.971146,1709027745.9711456,-49.31640625,969.7265625,96.6796875,-36.62109375,0.0,-1.0,1.0,0.0,8.m4v,2.0
2024-02-27 10:55:45.975051,1709027745.9750514,-43.45703125,969.7265625,255.37109375,-31.25,0.0,-1.0,1.0,0.0,8.m4v,2.0
2024-02-27 10:55:45.978959,1709027745.978959,-35.64453125,969.7265625,214.35546875,-36.62109375,0.0,-1.0,1.0,0.0,8.m4v,2.0
2024-02-27 10:55:45.982865,1709027745.982865,-30.76171875,969.7265625,-149.90234375,-38.0859375,0.0,-1.0,1.0,0.0,8.m4v,2.0
2024-02-27 10:55:45.986771,1709027745.9867709,-40.52734375,969.7265625,-161.1328125,-35.64453125,0.0,-1.0,1.0,0.0,8.m4v,2.0
2024-02-27 10:55:45.990677,1709027745.9906766,-49.31640625,969.7265625,150.87890625,-37.59765625,0.0,-1.0,1.0,0.0,8.m4v,2.0
2024-02-27 10:55:45.994582,1709027745.9945824,-41.015625,970.703125,94.23828125,-38.0859375,0.0,-1.0,1.0,0.0,8.m4v,2.0
2024-02-27 10:55:45.998488,1709027745.9984882,-45.8984375,981.4453125,101.5625,-44.43359375,0.0,-1.0,1.0,0.0,8.m4v,2.0
2024-02-27 10:55:46.002394,1709027746.002394,-49.31640625,905.2734375,56.640625,-45.41015625,0.0,-1.0,1.0,0.0,8.m4v,2.0
2024-02-27 10:55:46.006300,1709027746.0062995,-51.26953125,999.51171875,-122.0703125,-42.48046875,0.0,-1.0,1.0,0.0,8.m4v,2.0
2024-02-27 10:55:46.010206,1709027746.0102055,-52.734375,551.26953125,5.37109375,-38.0859375,0.0,-1.0,1.0,0.0,8.m4v,2.0
2024-02-27 10:55:46.014111,1709027746.0141113,-46.38671875,-853.02734375,-171.875,-35.64453125,0.0,-1.0,1.0,0.0,8.m4v,2.0
2024-02-27 10:55:46.018017,1709027746.018017,-32.71484375,-1000.0,-500.48828125,-35.64453125,0.0,-1.0,1.0,0.0,8.m4v,2.0
2024-02-27 10:55:46.021923,1709027746.0219228,-34.1796875,-945.80078125,-560.05859375,-24.90234375,0.0,-1.0,1.0,0.0,8.m4v,2.0
2024-02-27 10:55:46.025831,1709027746.0258307,-54.6875,-1000.0,-403.80859375,-24.90234375,0.0,-1.0,1.0,0.0,8.m4v,2.0
2024-02-27 10:55:46.029737,1709027746.0297365,-49.8046875,-942.87109375,-134.27734375,-38.0859375,0.0,-1.0,1.0,0.0,8.m4v,2.0
2024-02-27 10:55:46.033642,1709027746.0336423,-36.1328125,-1000.0,-6.8359375,-36.1328125,0.0,-1.0,1.0,0.0,8.m4v,2.0
2024-02-27 10:55:46.037548,1709027746.037548,-39.55078125,-359.375,55.17578125,-27.83203125,0.0,-1.0,1.0,0.0,8.m4v,2.0
2024-02-27 10:55:46.041454,1709027746.0414538,-40.0390625,935.546875,-109.86328125,-36.62109375,0.0,-1.0,1.0,0.0,8.m4v,2.0
2024-02-27 10:55:46.045360,1709027746.0453596,-36.62109375,988.28125,71.77734375,-41.9921875,0.0,-1.0,1.0,0.0,8.m4v,2.0
2024-02-27 10:55:46.049265,1709027746.0492654,-32.2265625,929.6875,537.59765625,-37.109375,0.0,-1.0,1.0,0.0,8.m4v,2.0
2024-02-27 10:55:46.053171,1709027746.0531712,-31.73828125,980.95703125,284.1796875,-31.25,0.0,-1.0,1.0,0.0,8.m4v,2.0
2024-02-27 10:55:46.057077,1709027746.057077,-43.9453125,969.7265625,-144.04296875,-37.109375,0.0,-1.0,1.0,0.0,8.m4v,2.0
2024-02-27 10:55:46.060983,1709027746.0609827,-50.78125,970.21484375,-362.3046875,-44.43359375,0.0,-1.0,1.0,0.0,8.m4v,2.0
2024-02-27 10:55:46.064888,1709027746.0648885,-41.015625,969.7265625,-368.65234375,-31.25,0.0,-1.0,1.0,0.0,8.m4v,2.0
2024-02-27 10:55:46.068794,1709027746.068794,-32.71484375,969.7265625,-106.4453125,-22.94921875,0.0,-1.0,1.0,0.0,8.m4v,2.0
2024-02-27 10:55:46.072702,1709027746.0727017,-38.57421875,985.83984375,14.16015625,-29.78515625,0.0,-1.0,1.0,0.0,8.m4v,2.0
2024-02-27 10:55:46.080513,1709027746.0805132,-40.0390625,999.51171875,-386.71875,-40.52734375,0.0,-1.0,1.0,0.0,8.m4v,2.0
2024-02-27 10:55:46.088325,1709027746.0883248,-36.1328125,-576.66015625,-289.0625,-19.04296875,0.0,-1.0,1.0,0.0,8.m4v,2.0
2024-02-27 10:55:46.096136,1709027746.0961363,-26.3671875,-925.78125,305.17578125,-34.66796875,0.0,-1.0,1.0,0.0,8.m4v,2.0
2024-02-27 10:55:46.103948,1709027746.103948,-43.9453125,-1000.0,-559.5703125,-47.8515625,0.0,-1.0,1.0,0.0,8.m4v,2.0
2024-02-27 10:55:46.111759,1709027746.1117594,-26.3671875,-1000.0,-243.1640625,-25.390625,0.0,-1.0,1.0,0.0,8.m4v,2.0
2024-02-27 10:55:46.119573,1709027746.1195726,-41.015625,-1000.0,-336.42578125,-37.59765625,0.0,-1.0,1.0,0.0,8.m4v,2.0
2024-02-27 10:55:46.127384,1709027746.1273842,-35.64453125,-972.16796875,-375.48828125,-35.64453125,0.0,-1.0,1.0,0.0,8.m4v,2.0
2024-02-27 10:55:46.135196,1709027746.1351955,-20.5078125,-1000.0,-93.26171875,-30.76171875,0.0,-1.0,1.0,0.0,8.m4v,2.0
2024-02-27 10:55:46.143007,1709027746.1430073,-18.06640625,999.51171875,213.8671875,-22.4609375,0.0,-1.0,1.0,0.0,8.m4v,2.0
2024-02-27 10:55:46.150819,1709027746.1508188,-21.97265625,969.7265625,-65.91796875,-20.01953125,0.0,-1.0,1.0,0.0,8.m4v,2.0
2024-02-27 10:55:46.185972,1709027746.1859722,-34.66796875,969.7265625,-118.1640625,-41.9921875,0.0,-1.0,1.0,0.0,8.m4v,2.0
2024-02-27 10:55:46.189878,1709027746.189878,-30.2734375,986.328125,463.37890625,-29.296875,0.0,-1.0,1.0,0.0,8.m4v,2.0
2024-02-27 10:55:46.193784,1709027746.1937838,-36.1328125,910.15625,181.640625,-35.15625,0.0,-1.0,1.0,0.0,8.m4v,2.0
2024-02-27 10:55:46.197690,1709027746.1976895,-38.0859375,999.51171875,-193.359375,-39.55078125,0.0,-1.0,1.0,0.0,8.m4v,2.0
2024-02-27 10:55:46.201595,1709027746.2015953,-42.96875,836.9140625,-357.91015625,-41.015625,0.0,-1.0,1.0,0.0,8.m4v,2.0
2024-02-27 10:55:46.205501,1709027746.205501,-48.33984375,-624.0234375,-489.74609375,-44.43359375,0.0,-1.0,1.0,0.0,8.m4v,2.0
2024-02-27 10:55:46.209407,1709027746.2094069,-35.15625,-1000.0,-380.859375,-37.109375,0.0,-1.0,1.0,0.0,8.m4v,2.0
2024-02-27 10:55:46.213315,1709027746.2133155,-26.3671875,-926.7578125,-255.859375,-28.80859375,0.0,-1.0,1.0,0.0,8.m4v,2.0
2024-02-27 10:55:46.217221,1709027746.2172213,-32.71484375,-1000.0,-203.125,-26.3671875,0.0,-1.0,1.0,0.0,8.m4v,2.0
2024-02-27 10:55:46.221127,1709027746.221127,-33.69140625,-1000.0,-332.51953125,-32.71484375,0.0,-1.0,1.0,0.0,8.m4v,2.0
2024-02-27 10:55:46.225033,1709027746.2250326,-26.85546875,-929.6875,-450.1953125,-41.015625,0.0,-1.0,1.0,0.0,8.m4v,2.0
2024-02-27 10:55:46.228938,1709027746.2289383,-27.34375,-1000.0,-293.9453125,-32.2265625,0.0,-1.0,1.0,0.0,8.m4v,2.0
2024-02-27 10:55:46.232844,1709027746.232844,-18.5546875,-671.38671875,123.53515625,-25.87890625,0.0,-1.0,1.0,0.0,8.m4v,2.0
2024-02-27 10:55:46.236750,1709027746.23675,4.39453125,789.55078125,214.84375,-31.25,0.0,-1.0,1.0,0.0,8.m4v,2.0
2024-02-27 10:55:46.240656,1709027746.2406557,-3.90625,999.51171875,-281.73828125,-45.41015625,0.0,-1.0,1.0,0.0,8.m4v,2.0
2024-02-27 10:55:46.244561,1709027746.2445614,-14.16015625,906.73828125,-439.453125,-41.50390625,0.0,-1.0,1.0,0.0,8.m4v,2.0
2024-02-27 10:55:46.248467,1709027746.2484672,-13.671875,986.328125,-41.9921875,-29.296875,0.0,-1.0,1.0,0.0,8.m4v,2.0
2024-02-27 10:55:46.252373,1709027746.252373,-16.11328125,969.7265625,149.4140625,-38.57421875,0.0,-1.0,1.0,0.0,8.m4v,2.0
2024-02-27 10:55:46.256279,1709027746.2562788,-19.04296875,969.7265625,-141.6015625,-51.7578125,0.0,-1.0,1.0,0.0,8.m4v,2.0
2024-02-27 10:55:46.260187,1709027746.2601871,-22.94921875,969.7265625,-406.73828125,-51.7578125,0.0,-1.0,1.0,0.0,8.m4v,2.0
2024-02-27 10:55:46.264093,1709027746.264093,-26.3671875,969.7265625,-429.19921875,-42.96875,0.0,-1.0,1.0,0.0,8.m4v,2.0
2024-02-27 10:55:46.267999,1709027746.2679987,-31.73828125,969.7265625,-240.72265625,-38.0859375,0.0,-1.0,1.0,0.0,8.m4v,2.0
2024-02-27 10:55:46.271904,1709027746.2719045,-28.80859375,982.91015625,-30.2734375,-35.64453125,0.0,-1.0,1.0,0.0,8.m4v,2.0
2024-02-27 10:55:46.275810,1709027746.2758102,-25.390625,923.33984375,9.765625,-30.76171875,0.0,-1.0,1.0,0.0,8.m4v,2.0
2024-02-27 10:55:46.279716,1709027746.279716,-30.76171875,995.1171875,97.65625,-21.97265625,0.0,-1.0,1.0,0.0,8.m4v,2.0
2024-02-27 10:55:46.283622,1709027746.2836218,-29.78515625,941.40625,29.296875,-34.1796875,0.0,-1.0,1.0,0.0,8.m4v,2.0
2024-02-27 10:55:46.287528,1709027746.2875276,-26.3671875,-453.61328125,-251.46484375,-48.33984375,0.0,-1.0,1.0,0.0,8.m4v,2.0
2024-02-27 10:55:46.291433,1709027746.291433,-41.50390625,-1000.0,-237.79296875,-45.8984375,0.0,-1.0,1.0,0.0,8.m4v,2.0
2024-02-27 10:55:46.295339,1709027746.295339,-39.0625,-927.24609375,-316.40625,-47.36328125,0.0,-1.0,1.0,0.0,8.m4v,2.0
2024-02-27 10:55:46.299245,1709027746.2992449,-33.69140625,-1000.0,-556.15234375,-45.41015625,0.0,-1.0,1.0,0.0,8.m4v,2.0
2024-02-27 10:55:46.303151,1709027746.303151,-41.50390625,-1000.0,-665.52734375,-39.55078125,0.0,-1.0,1.0,0.0,8.m4v,2.0
2024-02-27 10:55:46.307059,1709027746.3070588,-43.9453125,-1000.0,-562.5,-46.875,0.0,-1.0,1.0,0.0,8.m4v,2.0
2024-02-27 10:55:46.310965,1709027746.3109646,-39.0625,-1000.0,-240.72265625,-42.96875,0.0,-1.0,1.0,0.0,8.m4v,2.0
2024-02-27 10:55:46.314870,1709027746.3148704,-25.87890625,-1000.0,-298.828125,-24.4140625,0.0,-1.0,1.0,0.0,8.m4v,2.0
2024-02-27 10:55:46.318776,1709027746.318776,-19.53125,-936.03515625,-512.6953125,-22.4609375,0.0,-1.0,1.0,0.0,8.m4v,2.0
2024-02-27 10:55:46.322682,1709027746.322682,-18.5546875,-1000.0,-560.05859375,-36.1328125,0.0,-1.0,1.0,0.0,8.m4v,2.0
2024-02-27 10:55:46.326588,1709027746.3265877,4.39453125,-447.265625,-117.1875,-29.78515625,0.0,-1.0,1.0,0.0,8.m4v,2.0
2024-02-27 10:55:46.330493,1709027746.3304937,8.7890625,909.1796875,460.44921875,-11.23046875,0.0,-1.0,1.0,0.0,8.m4v,2.0
2024-02-27 10:55:46.334399,1709027746.3343992,-19.53125,999.51171875,207.03125,-9.27734375,0.0,-1.0,1.0,0.0,8.m4v,2.0
2024-02-27 10:55:46.338305,1709027746.338305,-26.3671875,923.33984375,-26.3671875,-28.80859375,0.0,-1.0,1.0,0.0,8.m4v,2.0
