Timestamp,Timestamp_UNIX,TP9,AF7,AF8,TP10,Valence,Arousal,Dominace,Viewed,Video,Participant
2024-02-27 10:42:30.000381,1709026950.0003812,-24.90234375,969.7265625,-261.71875,-25.87890625,1.0,0.0,-1.0,0.0,6.m4v,2.0
2024-02-27 10:42:30.004287,1709026950.0042868,-43.9453125,969.7265625,-404.296875,-33.203125,1.0,0.0,-1.0,0.0,6.m4v,2.0
2024-02-27 10:42:30.008198,1709026950.0081985,-30.76171875,970.21484375,-474.609375,-24.90234375,1.0,0.0,-1.0,0.0,6.m4v,2.0
2024-02-27 10:42:30.012104,1709026950.0121038,-10.25390625,969.7265625,-585.9375,-22.94921875,1.0,0.0,-1.0,0.0,6.m4v,2.0
2024-02-27 10:42:30.016009,1709026950.016009,-14.6484375,969.7265625,-692.3828125,-39.55078125,1.0,0.0,-1.0,0.0,6.m4v,2.0
2024-02-27 10:42:30.019915,1709026950.0199149,-19.53125,970.21484375,-458.49609375,-31.25,1.0,0.0,-1.0,0.0,6.m4v,2.0
2024-02-27 10:42:30.023820,1709026950.0238204,-7.32421875,970.21484375,-270.99609375,-36.62109375,1.0,0.0,-1.0,0.0,6.m4v,2.0
2024-02-27 10:42:30.027726,1709026950.027726,-20.01953125,969.7265625,-139.6484375,-28.80859375,1.0,0.0,-1.0,0.0,6.m4v,2.0
2024-02-27 10:42:30.031632,1709026950.0316317,-24.4140625,969.7265625,-178.7109375,-14.16015625,1.0,0.0,-1.0,0.0,6.m4v,2.0
2024-02-27 10:42:30.035537,1709026950.0355372,-18.5546875,969.7265625,-649.4140625,-20.99609375,1.0,0.0,-1.0,0.0,6.m4v,2.0
2024-02-27 10:42:30.039443,1709026950.0394428,-25.87890625,969.7265625,-607.421875,-25.87890625,1.0,0.0,-1.0,0.0,6.m4v,2.0
2024-02-27 10:42:30.043348,1709026950.0433483,-34.66796875,969.7265625,-484.86328125,-35.64453125,1.0,0.0,-1.0,0.0,6.m4v,2.0
2024-02-27 10:42:30.047254,1709026950.0472538,-33.69140625,969.7265625,-627.9296875,-27.34375,1.0,0.0,-1.0,0.0,6.m4v,2.0
2024-02-27 10:42:30.051159,1709026950.0511594,-12.6953125,970.21484375,-844.23828125,-23.92578125,1.0,0.0,-1.0,0.0,6.m4v,2.0
2024-02-27 10:42:30.055071,1709026950.0550709,-29.296875,970.21484375,-938.4765625,-42.96875,1.0,0.0,-1.0,0.0,6.m4v,2.0
2024-02-27 10:42:30.058976,1709026950.0589764,-53.7109375,970.21484375,-499.51171875,-32.2265625,1.0,0.0,-1.0,0.0,6.m4v,2.0
2024-02-27 10:42:30.062882,1709026950.062882,-27.83203125,969.7265625,-354.00390625,-33.203125,1.0,0.0,-1.0,0.0,6.m4v,2.0
2024-02-27 10:42:30.066787,1709026950.0667875,-19.53125,969.7265625,-535.15625,-31.73828125,1.0,0.0,-1.0,0.0,6.m4v,2.0
2024-02-27 10:42:30.070693,1709026950.070693,-28.80859375,969.7265625,-746.58203125,-43.9453125,1.0,0.0,-1.0,0.0,6.m4v,2.0
2024-02-27 10:42:30.074599,1709026950.0745988,-21.484375,970.21484375,-604.98046875,-47.36328125,1.0,0.0,-1.0,0.0,6.m4v,2.0
2024-02-27 10:42:30.078504,1709026950.0785043,-11.71875,969.7265625,-355.46875,-30.2734375,1.0,0.0,-1.0,0.0,6.m4v,2.0
2024-02-27 10:42:30.082410,1709026950.08241,-31.25,969.7265625,-430.6640625,-61.03515625,1.0,0.0,-1.0,0.0,6.m4v,2.0
2024-02-27 10:42:30.086315,1709026950.0863154,-42.96875,969.7265625,-592.7734375,-66.40625,1.0,0.0,-1.0,0.0,6.m4v,2.0
2024-02-27 10:42:30.090221,1709026950.090221,-34.1796875,970.21484375,-796.38671875,-44.43359375,1.0,0.0,-1.0,0.0,6.m4v,2.0
2024-02-27 10:42:30.094126,1709026950.0941265,-45.8984375,969.7265625,-951.66015625,-46.38671875,1.0,0.0,-1.0,0.0,6.m4v,2.0
2024-02-27 10:42:30.098032,1709026950.098032,-41.9921875,970.21484375,-833.984375,-53.7109375,1.0,0.0,-1.0,0.0,6.m4v,2.0
2024-02-27 10:42:30.101943,1709026950.1019433,-45.41015625,970.21484375,-622.55859375,-42.96875,1.0,0.0,-1.0,0.0,6.m4v,2.0
2024-02-27 10:42:30.105849,1709026950.1058488,-61.5234375,970.21484375,-627.9296875,-34.66796875,1.0,0.0,-1.0,0.0,6.m4v,2.0
2024-02-27 10:42:30.109754,1709026950.1097543,-52.24609375,970.21484375,-867.1875,-43.45703125,1.0,0.0,-1.0,0.0,6.m4v,2.0
2024-02-27 10:42:30.113660,1709026950.11366,-22.94921875,969.7265625,-960.9375,-48.828125,1.0,0.0,-1.0,0.0,6.m4v,2.0
2024-02-27 10:42:30.117565,1709026950.1175654,-10.7421875,969.7265625,-501.46484375,-21.97265625,1.0,0.0,-1.0,0.0,6.m4v,2.0
2024-02-27 10:42:30.121471,1709026950.121471,-12.20703125,970.21484375,-68.359375,-10.25390625,1.0,0.0,-1.0,0.0,6.m4v,2.0
2024-02-27 10:42:30.125376,1709026950.1253765,-29.296875,969.7265625,-105.46875,-9.765625,1.0,0.0,-1.0,0.0,6.m4v,2.0
2024-02-27 10:42:30.129282,1709026950.129282,-55.17578125,969.7265625,-672.8515625,-35.64453125,1.0,0.0,-1.0,0.0,6.m4v,2.0
2024-02-27 10:42:30.133188,1709026950.1331878,-42.96875,970.21484375,-1000.0,-56.640625,1.0,0.0,-1.0,0.0,6.m4v,2.0
2024-02-27 10:42:30.137093,1709026950.1370933,-33.69140625,969.7265625,-973.6328125,-48.33984375,1.0,0.0,-1.0,0.0,6.m4v,2.0
2024-02-27 10:42:30.140999,1709026950.1409988,-36.1328125,969.7265625,-820.3125,-41.9921875,1.0,0.0,-1.0,0.0,6.m4v,2.0
2024-02-27 10:42:30.144904,1709026950.1449044,-10.25390625,970.21484375,-742.67578125,-30.2734375,1.0,0.0,-1.0,0.0,6.m4v,2.0
2024-02-27 10:42:30.148815,1709026950.148815,-6.8359375,969.7265625,-843.75,-22.4609375,1.0,0.0,-1.0,0.0,6.m4v,2.0
2024-02-27 10:42:30.152720,1709026950.1527205,-34.1796875,970.21484375,-960.9375,-19.04296875,1.0,0.0,-1.0,0.0,6.m4v,2.0
2024-02-27 10:42:30.156626,1709026950.156626,-39.55078125,970.21484375,-1000.0,-22.4609375,1.0,0.0,-1.0,0.0,6.m4v,2.0
2024-02-27 10:42:30.160532,1709026950.1605315,-21.484375,970.21484375,-774.4140625,-27.83203125,1.0,0.0,-1.0,0.0,6.m4v,2.0
2024-02-27 10:42:30.164437,1709026950.164437,-16.11328125,969.7265625,-564.453125,-25.390625,1.0,0.0,-1.0,0.0,6.m4v,2.0
2024-02-27 10:42:30.168343,1709026950.1683428,-22.94921875,969.7265625,-377.9296875,-7.8125,1.0,0.0,-1.0,0.0,6.m4v,2.0
2024-02-27 10:42:30.172248,1709026950.1722484,-38.0859375,969.7265625,-333.0078125,-16.11328125,1.0,0.0,-1.0,0.0,6.m4v,2.0
2024-02-27 10:42:30.176154,1709026950.176154,-34.1796875,969.7265625,-468.26171875,-35.64453125,1.0,0.0,-1.0,0.0,6.m4v,2.0
2024-02-27 10:42:30.180059,1709026950.1800594,-30.76171875,969.7265625,-482.91015625,-30.76171875,1.0,0.0,-1.0,0.0,6.m4v,2.0
2024-02-27 10:42:30.183965,1709026950.183965,-23.4375,969.7265625,-624.0234375,-37.109375,1.0,0.0,-1.0,0.0,6.m4v,2.0
2024-02-27 10:42:30.187871,1709026950.1878705,-20.01953125,969.7265625,-626.46484375,-39.0625,1.0,0.0,-1.0,0.0,6.m4v,2.0
2024-02-27 10:42:30.191776,1709026950.191776,-39.55078125,969.7265625,-700.68359375,-39.55078125,1.0,0.0,-1.0,0.0,6.m4v,2.0
2024-02-27 10:42:30.195686,1709026950.1956863,-31.25,969.7265625,-898.4375,-47.36328125,1.0,0.0,-1.0,0.0,6.m4v,2.0
2024-02-27 10:42:30.199592,1709026950.199592,-20.99609375,969.7265625,-835.9375,-34.1796875,1.0,0.0,-1.0,0.0,6.m4v,2.0
2024-02-27 10:42:30.203498,1709026950.2034976,-7.32421875,970.21484375,-583.0078125,-18.5546875,1.0,0.0,-1.0,0.0,6.m4v,2.0
2024-02-27 10:42:30.207403,1709026950.2074032,-19.04296875,969.7265625,-580.078125,-19.04296875,1.0,0.0,-1.0,0.0,6.m4v,2.0
2024-02-27 10:42:30.211309,1709026950.2113087,-35.15625,969.7265625,-692.3828125,-44.43359375,1.0,0.0,-1.0,0.0,6.m4v,2.0
2024-02-27 10:42:30.215214,1709026950.2152145,-37.59765625,970.21484375,-562.01171875,-50.29296875,1.0,0.0,-1.0,0.0,6.m4v,2.0
2024-02-27 10:42:30.219120,1709026950.2191198,-25.390625,970.21484375,-258.7890625,-16.11328125,1.0,0.0,-1.0,0.0,6.m4v,2.0
2024-02-27 10:42:30.223025,1709026950.223025,-42.48046875,969.7265625,-268.06640625,-4.8828125,1.0,0.0,-1.0,0.0,6.m4v,2.0
2024-02-27 10:42:30.226931,1709026950.2269309,-26.85546875,969.7265625,-509.765625,-26.85546875,1.0,0.0,-1.0,0.0,6.m4v,2.0
2024-02-27 10:42:30.230836,1709026950.2308364,-0.48828125,970.21484375,-821.77734375,-43.9453125,1.0,0.0,-1.0,0.0,6.m4v,2.0
2024-02-27 10:42:30.234742,1709026950.2347422,-14.6484375,970.21484375,-911.1328125,-40.0390625,1.0,0.0,-1.0,0.0,6.m4v,2.0
2024-02-27 10:42:30.238648,1709026950.2386477,-26.85546875,969.7265625,-502.9296875,-29.296875,1.0,0.0,-1.0,0.0,6.m4v,2.0
2024-02-27 10:42:30.242558,1709026950.2425578,8.7890625,969.7265625,-354.98046875,-26.3671875,1.0,0.0,-1.0,0.0,6.m4v,2.0
2024-02-27 10:42:30.246463,1709026950.2464633,20.5078125,969.7265625,-574.21875,-22.4609375,1.0,0.0,-1.0,0.0,6.m4v,2.0
2024-02-27 10:42:30.246463,1709026950.2464633,20.5078125,969.7265625,-574.21875,-22.4609375,1.0,0.0,-1.0,0.0,6.m4v,2.0
2024-02-27 10:42:30.250369,1709026950.2503688,15.625,969.7265625,-776.85546875,-20.01953125,1.0,0.0,-1.0,0.0,6.m4v,2.0
2024-02-27 10:42:30.250369,1709026950.2503688,15.625,969.7265625,-776.85546875,-20.01953125,1.0,0.0,-1.0,0.0,6.m4v,2.0
2024-02-27 10:42:30.254274,1709026950.2542744,-4.39453125,970.21484375,-896.97265625,-35.64453125,1.0,0.0,-1.0,0.0,6.m4v,2.0
2024-02-27 10:42:30.254274,1709026950.2542744,-4.39453125,970.21484375,-896.97265625,-35.64453125,1.0,0.0,-1.0,0.0,6.m4v,2.0
2024-02-27 10:42:30.258180,1709026950.25818,-26.3671875,969.7265625,-828.61328125,-47.36328125,1.0,0.0,-1.0,0.0,6.m4v,2.0
2024-02-27 10:42:30.258180,1709026950.25818,-26.3671875,969.7265625,-828.61328125,-47.36328125,1.0,0.0,-1.0,0.0,6.m4v,2.0
2024-02-27 10:42:30.262086,1709026950.2620857,-17.08984375,969.7265625,-306.640625,-31.25,1.0,0.0,-1.0,0.0,6.m4v,2.0
2024-02-27 10:42:30.262086,1709026950.2620857,-17.08984375,969.7265625,-306.640625,-31.25,1.0,0.0,-1.0,0.0,6.m4v,2.0
2024-02-27 10:42:30.265991,1709026950.2659912,-3.41796875,969.7265625,-13.18359375,-21.484375,1.0,0.0,-1.0,0.0,6.m4v,2.0
2024-02-27 10:42:30.265991,1709026950.2659912,-3.41796875,969.7265625,-13.18359375,-21.484375,1.0,0.0,-1.0,0.0,6.m4v,2.0
2024-02-27 10:42:30.269897,1709026950.2698967,0.9765625,969.7265625,-524.4140625,-32.2265625,1.0,0.0,-1.0,0.0,6.m4v,2.0
2024-02-27 10:42:30.269897,1709026950.2698967,0.9765625,969.7265625,-524.4140625,-32.2265625,1.0,0.0,-1.0,0.0,6.m4v,2.0
2024-02-27 10:42:30.273802,1709026950.2738025,-28.80859375,969.7265625,-953.125,-45.41015625,1.0,0.0,-1.0,0.0,6.m4v,2.0
2024-02-27 10:42:30.273802,1709026950.2738025,-28.80859375,969.7265625,-953.125,-45.41015625,1.0,0.0,-1.0,0.0,6.m4v,2.0
2024-02-27 10:42:30.277708,1709026950.2777078,-30.76171875,969.7265625,-993.65234375,-46.38671875,1.0,0.0,-1.0,0.0,6.m4v,2.0
2024-02-27 10:42:30.277708,1709026950.2777078,-30.76171875,969.7265625,-993.65234375,-46.38671875,1.0,0.0,-1.0,0.0,6.m4v,2.0
2024-02-27 10:42:30.281613,1709026950.281613,-43.45703125,969.7265625,-772.4609375,-37.59765625,1.0,0.0,-1.0,0.0,6.m4v,2.0
2024-02-27 10:42:30.281613,1709026950.281613,-43.45703125,969.7265625,-772.4609375,-37.59765625,1.0,0.0,-1.0,0.0,6.m4v,2.0
2024-02-27 10:42:30.285519,1709026950.285519,-38.57421875,970.21484375,-609.375,-42.96875,1.0,0.0,-1.0,0.0,6.m4v,2.0
2024-02-27 10:42:30.285519,1709026950.285519,-38.57421875,970.21484375,-609.375,-42.96875,1.0,0.0,-1.0,0.0,6.m4v,2.0
2024-02-27 10:42:30.289428,1709026950.2894285,0.0,969.7265625,-778.3203125,-42.48046875,1.0,0.0,-1.0,0.0,6.m4v,2.0
2024-02-27 10:42:30.289428,1709026950.2894285,0.0,969.7265625,-778.3203125,-42.48046875,1.0,0.0,-1.0,0.0,6.m4v,2.0
2024-02-27 10:42:30.293334,1709026950.2933342,-20.99609375,969.7265625,-958.49609375,-47.36328125,1.0,0.0,-1.0,0.0,6.m4v,2.0
2024-02-27 10:42:30.293334,1709026950.2933342,-20.99609375,969.7265625,-958.49609375,-47.36328125,1.0,0.0,-1.0,0.0,6.m4v,2.0
2024-02-27 10:42:30.297240,1709026950.2972398,-44.921875,969.7265625,-728.515625,-43.45703125,1.0,0.0,-1.0,0.0,6.m4v,2.0
2024-02-27 10:42:30.297240,1709026950.2972398,-44.921875,969.7265625,-728.515625,-43.45703125,1.0,0.0,-1.0,0.0,6.m4v,2.0
2024-02-27 10:42:30.301145,1709026950.3011453,-34.66796875,969.7265625,-500.9765625,-32.71484375,1.0,0.0,-1.0,0.0,6.m4v,2.0
2024-02-27 10:42:30.301145,1709026950.3011453,-34.66796875,969.7265625,-500.9765625,-32.71484375,1.0,0.0,-1.0,0.0,6.m4v,2.0
2024-02-27 10:42:30.305051,1709026950.3050508,-41.9921875,970.21484375,-604.4921875,-31.25,1.0,0.0,-1.0,0.0,6.m4v,2.0
2024-02-27 10:42:30.305051,1709026950.3050508,-41.9921875,970.21484375,-604.4921875,-31.25,1.0,0.0,-1.0,0.0,6.m4v,2.0
2024-02-27 10:42:30.308956,1709026950.3089564,-24.4140625,969.7265625,-519.53125,-35.64453125,1.0,0.0,-1.0,0.0,6.m4v,2.0
2024-02-27 10:42:30.308956,1709026950.3089564,-24.4140625,969.7265625,-519.53125,-35.64453125,1.0,0.0,-1.0,0.0,6.m4v,2.0
2024-02-27 10:42:30.312862,1709026950.312862,-8.7890625,969.7265625,-458.984375,-32.71484375,1.0,0.0,-1.0,0.0,6.m4v,2.0
2024-02-27 10:42:30.312862,1709026950.312862,-8.7890625,969.7265625,-458.984375,-32.71484375,1.0,0.0,-1.0,0.0,6.m4v,2.0
2024-02-27 10:42:30.316767,1709026950.3167677,-50.78125,969.7265625,-785.64453125,-28.80859375,1.0,0.0,-1.0,0.0,6.m4v,2.0
2024-02-27 10:42:30.316767,1709026950.3167677,-50.78125,969.7265625,-785.64453125,-28.80859375,1.0,0.0,-1.0,0.0,6.m4v,2.0
2024-02-27 10:42:30.320673,1709026950.320673,-54.6875,969.7265625,-764.16015625,-34.1796875,1.0,0.0,-1.0,0.0,6.m4v,2.0
2024-02-27 10:42:30.320673,1709026950.320673,-54.6875,969.7265625,-764.16015625,-34.1796875,1.0,0.0,-1.0,0.0,6.m4v,2.0
2024-02-27 10:42:30.324579,1709026950.3245788,-27.83203125,969.7265625,-638.671875,-37.59765625,1.0,0.0,-1.0,0.0,6.m4v,2.0
2024-02-27 10:42:30.324579,1709026950.3245788,-27.83203125,969.7265625,-638.671875,-37.59765625,1.0,0.0,-1.0,0.0,6.m4v,2.0
2024-02-27 10:42:30.328484,1709026950.3284843,-62.98828125,969.7265625,-791.015625,-34.1796875,1.0,0.0,-1.0,0.0,6.m4v,2.0
2024-02-27 10:42:30.328484,1709026950.3284843,-62.98828125,969.7265625,-791.015625,-34.1796875,1.0,0.0,-1.0,0.0,6.m4v,2.0
2024-02-27 10:42:30.332390,1709026950.3323898,-47.8515625,969.7265625,-864.74609375,-28.3203125,1.0,0.0,-1.0,0.0,6.m4v,2.0
2024-02-27 10:42:30.332390,1709026950.3323898,-47.8515625,969.7265625,-864.74609375,-28.3203125,1.0,0.0,-1.0,0.0,6.m4v,2.0
2024-02-27 10:42:30.336299,1709026950.336299,-33.203125,970.21484375,-835.9375,-35.15625,1.0,0.0,-1.0,0.0,6.m4v,2.0
2024-02-27 10:42:30.336299,1709026950.336299,-33.203125,970.21484375,-835.9375,-35.15625,1.0,0.0,-1.0,0.0,6.m4v,2.0
2024-02-27 10:42:30.340204,1709026950.3402045,-38.0859375,970.21484375,-686.5234375,-40.52734375,1.0,0.0,-1.0,0.0,6.m4v,2.0
2024-02-27 10:42:30.340204,1709026950.3402045,-38.0859375,970.21484375,-686.5234375,-40.52734375,1.0,0.0,-1.0,0.0,6.m4v,2.0
2024-02-27 10:42:30.344110,1709026950.3441105,-29.78515625,969.7265625,-506.34765625,-38.0859375,1.0,0.0,-1.0,0.0,6.m4v,2.0
2024-02-27 10:42:30.344110,1709026950.3441105,-29.78515625,969.7265625,-506.34765625,-38.0859375,1.0,0.0,-1.0,0.0,6.m4v,2.0
2024-02-27 10:42:30.348016,1709026950.3480158,-46.38671875,970.21484375,-530.76171875,-22.4609375,1.0,0.0,-1.0,0.0,6.m4v,2.0
2024-02-27 10:42:30.348016,1709026950.3480158,-46.38671875,970.21484375,-530.76171875,-22.4609375,1.0,0.0,-1.0,0.0,6.m4v,2.0
2024-02-27 10:42:30.351921,1709026950.351921,-29.296875,969.7265625,-724.12109375,-17.08984375,1.0,0.0,-1.0,0.0,6.m4v,2.0
2024-02-27 10:42:30.351921,1709026950.351921,-29.296875,969.7265625,-724.12109375,-17.08984375,1.0,0.0,-1.0,0.0,6.m4v,2.0
2024-02-27 10:42:30.355827,1709026950.3558269,-6.8359375,969.7265625,-745.1171875,-28.80859375,1.0,0.0,-1.0,0.0,6.m4v,2.0
2024-02-27 10:42:30.355827,1709026950.3558269,-6.8359375,969.7265625,-745.1171875,-28.80859375,1.0,0.0,-1.0,0.0,6.m4v,2.0
2024-02-27 10:42:30.359732,1709026950.3597324,-8.30078125,969.7265625,-203.125,-32.71484375,1.0,0.0,-1.0,0.0,6.m4v,2.0
2024-02-27 10:42:30.359732,1709026950.3597324,-8.30078125,969.7265625,-203.125,-32.71484375,1.0,0.0,-1.0,0.0,6.m4v,2.0
2024-02-27 10:42:30.363638,1709026950.363638,-8.7890625,969.7265625,47.36328125,-28.80859375,1.0,0.0,-1.0,0.0,6.m4v,2.0
2024-02-27 10:42:30.363638,1709026950.363638,-8.7890625,969.7265625,47.36328125,-28.80859375,1.0,0.0,-1.0,0.0,6.m4v,2.0
2024-02-27 10:42:30.367543,1709026950.3675437,-52.734375,969.7265625,-380.37109375,-24.90234375,1.0,0.0,-1.0,0.0,6.m4v,2.0
2024-02-27 10:42:30.367543,1709026950.3675437,-52.734375,969.7265625,-380.37109375,-24.90234375,1.0,0.0,-1.0,0.0,6.m4v,2.0
2024-02-27 10:42:30.371449,1709026950.371449,-58.10546875,970.21484375,-807.6171875,-44.43359375,1.0,0.0,-1.0,0.0,6.m4v,2.0
2024-02-27 10:42:30.371449,1709026950.371449,-58.10546875,970.21484375,-807.6171875,-44.43359375,1.0,0.0,-1.0,0.0,6.m4v,2.0
2024-02-27 10:42:30.375355,1709026950.3753548,-46.875,969.7265625,-957.03125,-46.38671875,1.0,0.0,-1.0,0.0,6.m4v,2.0
2024-02-27 10:42:30.375355,1709026950.3753548,-46.875,969.7265625,-957.03125,-46.38671875,1.0,0.0,-1.0,0.0,6.m4v,2.0
2024-02-27 10:42:30.379260,1709026950.3792603,-28.3203125,969.7265625,-775.390625,-35.64453125,1.0,0.0,-1.0,0.0,6.m4v,2.0
2024-02-27 10:42:30.379260,1709026950.3792603,-28.3203125,969.7265625,-775.390625,-35.64453125,1.0,0.0,-1.0,0.0,6.m4v,2.0
2024-02-27 10:42:30.383172,1709026950.3831718,-28.3203125,969.23828125,-577.1484375,-34.66796875,1.0,0.0,-1.0,0.0,6.m4v,2.0
2024-02-27 10:42:30.383172,1709026950.3831718,-28.3203125,969.23828125,-577.1484375,-34.66796875,1.0,0.0,-1.0,0.0,6.m4v,2.0
2024-02-27 10:42:30.387077,1709026950.387077,-41.015625,970.21484375,-712.890625,-32.71484375,1.0,0.0,-1.0,0.0,6.m4v,2.0
2024-02-27 10:42:30.387077,1709026950.387077,-41.015625,970.21484375,-712.890625,-32.71484375,1.0,0.0,-1.0,0.0,6.m4v,2.0
2024-02-27 10:42:30.390983,1709026950.3909829,-18.06640625,970.21484375,-848.6328125,-37.109375,1.0,0.0,-1.0,0.0,6.m4v,2.0
2024-02-27 10:42:30.390983,1709026950.3909829,-18.06640625,970.21484375,-848.6328125,-37.109375,1.0,0.0,-1.0,0.0,6.m4v,2.0
2024-02-27 10:42:30.394888,1709026950.3948884,-37.109375,958.984375,-928.7109375,-44.921875,1.0,0.0,-1.0,0.0,6.m4v,2.0
2024-02-27 10:42:30.394888,1709026950.3948884,-37.109375,958.984375,-928.7109375,-44.921875,1.0,0.0,-1.0,0.0,6.m4v,2.0
2024-02-27 10:42:30.398794,1709026950.398794,-83.0078125,964.84375,-718.75,-45.8984375,1.0,0.0,-1.0,0.0,6.m4v,2.0
2024-02-27 10:42:30.398794,1709026950.398794,-83.0078125,964.84375,-718.75,-45.8984375,1.0,0.0,-1.0,0.0,6.m4v,2.0
2024-02-27 10:42:30.402699,1709026950.4026997,-28.3203125,971.6796875,-62.01171875,-35.64453125,1.0,0.0,-1.0,0.0,6.m4v,2.0
2024-02-27 10:42:30.402699,1709026950.4026997,-28.3203125,971.6796875,-62.01171875,-35.64453125,1.0,0.0,-1.0,0.0,6.m4v,2.0
2024-02-27 10:42:30.406605,1709026950.406605,15.13671875,973.6328125,-26.3671875,-27.83203125,1.0,0.0,-1.0,0.0,6.m4v,2.0
2024-02-27 10:42:30.406605,1709026950.406605,15.13671875,973.6328125,-26.3671875,-27.83203125,1.0,0.0,-1.0,0.0,6.m4v,2.0
2024-02-27 10:42:30.410511,1709026950.4105108,-29.78515625,957.51953125,-612.79296875,-20.01953125,1.0,0.0,-1.0,0.0,6.m4v,2.0
2024-02-27 10:42:30.410511,1709026950.4105108,-29.78515625,957.51953125,-612.79296875,-20.01953125,1.0,0.0,-1.0,0.0,6.m4v,2.0
2024-02-27 10:42:30.414416,1709026950.4144163,-39.0625,933.10546875,-854.98046875,-40.52734375,1.0,0.0,-1.0,0.0,6.m4v,2.0
2024-02-27 10:42:30.414416,1709026950.4144163,-39.0625,933.10546875,-854.98046875,-40.52734375,1.0,0.0,-1.0,0.0,6.m4v,2.0
2024-02-27 10:42:30.418322,1709026950.4183218,-41.50390625,999.51171875,-605.95703125,-47.36328125,1.0,0.0,-1.0,0.0,6.m4v,2.0
2024-02-27 10:42:30.418322,1709026950.4183218,-41.50390625,999.51171875,-605.95703125,-47.36328125,1.0,0.0,-1.0,0.0,6.m4v,2.0
2024-02-27 10:42:30.422227,1709026950.4222274,-55.17578125,44.43359375,-574.21875,-43.45703125,1.0,0.0,-1.0,0.0,6.m4v,2.0
2024-02-27 10:42:30.422227,1709026950.4222274,-55.17578125,44.43359375,-574.21875,-43.45703125,1.0,0.0,-1.0,0.0,6.m4v,2.0
2024-02-27 10:42:30.426133,1709026950.426133,-48.828125,-1000.0,-897.4609375,-54.19921875,1.0,0.0,-1.0,0.0,6.m4v,2.0
2024-02-27 10:42:30.426133,1709026950.426133,-48.828125,-1000.0,-897.4609375,-54.19921875,1.0,0.0,-1.0,0.0,6.m4v,2.0
2024-02-27 10:42:30.433950,1709026950.4339497,-45.41015625,-991.2109375,-991.69921875,-46.38671875,1.0,0.0,-1.0,0.0,6.m4v,2.0
2024-02-27 10:42:30.433950,1709026950.4339497,-45.41015625,-991.2109375,-991.69921875,-46.38671875,1.0,0.0,-1.0,0.0,6.m4v,2.0
2024-02-27 10:42:30.441761,1709026950.4417608,-49.8046875,-1000.0,-843.26171875,-46.875,1.0,0.0,-1.0,0.0,6.m4v,2.0
2024-02-27 10:42:30.441761,1709026950.4417608,-49.8046875,-1000.0,-843.26171875,-46.875,1.0,0.0,-1.0,0.0,6.m4v,2.0
2024-02-27 10:42:30.449572,1709026950.449572,-17.08984375,324.70703125,-427.734375,-46.875,1.0,0.0,-1.0,0.0,6.m4v,2.0
2024-02-27 10:42:30.449572,1709026950.449572,-17.08984375,324.70703125,-427.734375,-46.875,1.0,0.0,-1.0,0.0,6.m4v,2.0
2024-02-27 10:42:30.457383,1709026950.4573832,-34.1796875,900.87890625,-734.86328125,-32.71484375,1.0,0.0,-1.0,0.0,6.m4v,2.0
2024-02-27 10:42:30.457383,1709026950.4573832,-34.1796875,900.87890625,-734.86328125,-32.71484375,1.0,0.0,-1.0,0.0,6.m4v,2.0
2024-02-27 10:42:30.465194,1709026950.4651942,-44.921875,969.7265625,-550.78125,-34.66796875,1.0,0.0,-1.0,0.0,6.m4v,2.0
2024-02-27 10:42:30.465194,1709026950.4651942,-44.921875,969.7265625,-550.78125,-34.66796875,1.0,0.0,-1.0,0.0,6.m4v,2.0
2024-02-27 10:42:30.473005,1709026950.4730053,-42.96875,969.7265625,-817.87109375,-46.38671875,1.0,0.0,-1.0,0.0,6.m4v,2.0
2024-02-27 10:42:30.473005,1709026950.4730053,-42.96875,969.7265625,-817.87109375,-46.38671875,1.0,0.0,-1.0,0.0,6.m4v,2.0
2024-02-27 10:42:30.480822,1709026950.480822,-36.62109375,969.7265625,-232.91015625,-9.765625,1.0,0.0,-1.0,0.0,6.m4v,2.0
2024-02-27 10:42:30.480822,1709026950.480822,-36.62109375,969.7265625,-232.91015625,-9.765625,1.0,0.0,-1.0,0.0,6.m4v,2.0
2024-02-27 10:42:30.488633,1709026950.4886332,-35.15625,969.7265625,-553.22265625,-33.69140625,1.0,0.0,-1.0,0.0,6.m4v,2.0
2024-02-27 10:42:30.488633,1709026950.4886332,-35.15625,969.7265625,-553.22265625,-33.69140625,1.0,0.0,-1.0,0.0,6.m4v,2.0
2024-02-27 10:42:30.496444,1709026950.4964442,-28.3203125,970.21484375,-599.609375,-40.0390625,1.0,0.0,-1.0,0.0,6.m4v,2.0
2024-02-27 10:42:30.496444,1709026950.4964442,-28.3203125,970.21484375,-599.609375,-40.0390625,1.0,0.0,-1.0,0.0,6.m4v,2.0
2024-02-27 10:42:30.504255,1709026950.5042553,-23.92578125,969.7265625,-132.8125,-25.390625,1.0,0.0,-1.0,0.0,6.m4v,2.0
2024-02-27 10:42:30.504255,1709026950.5042553,-23.92578125,969.7265625,-132.8125,-25.390625,1.0,0.0,-1.0,0.0,6.m4v,2.0
2024-02-27 10:42:30.512067,1709026950.5120666,-8.30078125,969.7265625,-662.109375,-28.3203125,1.0,0.0,-1.0,0.0,6.m4v,2.0
2024-02-27 10:42:30.512067,1709026950.5120666,-8.30078125,969.7265625,-662.109375,-28.3203125,1.0,0.0,-1.0,0.0,6.m4v,2.0
2024-02-27 10:42:30.519878,1709026950.5198777,-13.671875,969.7265625,-411.62109375,-9.765625,1.0,0.0,-1.0,0.0,6.m4v,2.0
2024-02-27 10:42:30.519878,1709026950.5198777,-13.671875,969.7265625,-411.62109375,-9.765625,1.0,0.0,-1.0,0.0,6.m4v,2.0
2024-02-27 10:42:30.527693,1709026950.5276933,-47.36328125,971.19140625,-442.3828125,-32.2265625,1.0,0.0,-1.0,0.0,6.m4v,2.0
2024-02-27 10:42:30.535504,1709026950.5355043,-54.19921875,968.75,-642.578125,-27.83203125,1.0,0.0,-1.0,0.0,6.m4v,2.0
2024-02-27 10:42:30.543316,1709026950.5433156,-25.87890625,934.5703125,-76.171875,-8.30078125,1.0,0.0,-1.0,0.0,6.m4v,2.0
2024-02-27 10:42:31.000318,1709026951.0003176,-35.15625,-953.125,-102.5390625,-23.4375,1.0,0.0,-1.0,0.0,6.m4v,2.0
2024-02-27 10:42:31.012034,1709026951.0120344,-29.78515625,432.12890625,41.50390625,-37.59765625,1.0,0.0,-1.0,0.0,6.m4v,2.0
2024-02-27 10:42:31.023751,1709026951.023751,-21.484375,981.4453125,304.6875,-32.71484375,1.0,0.0,-1.0,0.0,6.m4v,2.0
2024-02-27 10:42:31.035468,1709026951.035468,-50.78125,969.7265625,-216.796875,-55.6640625,1.0,0.0,-1.0,0.0,6.m4v,2.0
2024-02-27 10:42:31.047188,1709026951.0471883,-18.06640625,969.7265625,-95.703125,-42.48046875,1.0,0.0,-1.0,0.0,6.m4v,2.0
2024-02-27 10:42:31.058905,1709026951.0589051,-42.48046875,984.375,215.33203125,-46.38671875,1.0,0.0,-1.0,0.0,6.m4v,2.0
2024-02-27 10:42:31.070622,1709026951.0706215,-57.6171875,903.80859375,-259.27734375,-53.7109375,1.0,0.0,-1.0,0.0,6.m4v,2.0
2024-02-27 10:42:31.082339,1709026951.0823386,-42.48046875,-925.78125,-15.625,-21.484375,1.0,0.0,-1.0,0.0,6.m4v,2.0
2024-02-27 10:42:31.094059,1709026951.094059,-46.875,-1000.0,-616.2109375,-44.43359375,1.0,0.0,-1.0,0.0,6.m4v,2.0
2024-02-27 10:42:31.140932,1709026951.1409323,-45.41015625,969.7265625,243.65234375,-48.828125,1.0,0.0,-1.0,0.0,6.m4v,2.0
2024-02-27 10:42:31.144838,1709026951.144838,-49.31640625,969.7265625,88.8671875,-61.5234375,1.0,0.0,-1.0,0.0,6.m4v,2.0
2024-02-27 10:42:31.148743,1709026951.1487434,-46.875,970.21484375,-271.97265625,-56.640625,1.0,0.0,-1.0,0.0,6.m4v,2.0
2024-02-27 10:42:31.152649,1709026951.152649,-38.0859375,969.7265625,-183.10546875,-52.24609375,1.0,0.0,-1.0,0.0,6.m4v,2.0
2024-02-27 10:42:31.156554,1709026951.1565545,-36.1328125,969.7265625,5.37109375,-55.17578125,1.0,0.0,-1.0,0.0,6.m4v,2.0
2024-02-27 10:42:31.160460,1709026951.16046,-23.92578125,969.7265625,-53.7109375,-52.734375,1.0,0.0,-1.0,0.0,6.m4v,2.0
2024-02-27 10:42:31.164366,1709026951.1643655,-39.0625,969.7265625,2.44140625,-52.24609375,1.0,0.0,-1.0,0.0,6.m4v,2.0
2024-02-27 10:42:31.168271,1709026951.1682713,-46.875,981.4453125,-98.14453125,-58.59375,1.0,0.0,-1.0,0.0,6.m4v,2.0
2024-02-27 10:42:31.172177,1709026951.1721768,-41.015625,927.734375,-290.0390625,-54.19921875,1.0,0.0,-1.0,0.0,6.m4v,2.0
2024-02-27 10:42:31.176082,1709026951.1760824,-49.31640625,986.328125,-212.40234375,-37.109375,1.0,0.0,-1.0,0.0,6.m4v,2.0
2024-02-27 10:42:31.179994,1709026951.1799936,-73.2421875,961.9140625,-51.26953125,-43.9453125,1.0,0.0,-1.0,0.0,6.m4v,2.0
2024-02-27 10:42:31.183899,1709026951.1838992,-64.453125,-405.76171875,-152.83203125,-49.8046875,1.0,0.0,-1.0,0.0,6.m4v,2.0
2024-02-27 10:42:31.187805,1709026951.1878047,-45.41015625,-1000.0,-401.85546875,-31.73828125,1.0,0.0,-1.0,0.0,6.m4v,2.0
2024-02-27 10:42:31.191710,1709026951.1917102,-42.96875,-866.2109375,-524.4140625,-27.83203125,1.0,0.0,-1.0,0.0,6.m4v,2.0
2024-02-27 10:42:31.195616,1709026951.1956158,-45.41015625,-1000.0,-431.15234375,-47.8515625,1.0,0.0,-1.0,0.0,6.m4v,2.0
2024-02-27 10:42:31.199521,1709026951.1995213,-41.9921875,-524.90234375,226.5625,-34.1796875,1.0,0.0,-1.0,0.0,6.m4v,2.0
2024-02-27 10:42:31.203427,1709026951.203427,-36.1328125,854.00390625,627.9296875,-20.5078125,1.0,0.0,-1.0,0.0,6.m4v,2.0
2024-02-27 10:42:31.207333,1709026951.2073326,-31.73828125,999.51171875,199.70703125,-58.59375,1.0,0.0,-1.0,0.0,6.m4v,2.0
2024-02-27 10:42:31.211238,1709026951.211238,-26.3671875,917.96875,-258.7890625,-62.98828125,1.0,0.0,-1.0,0.0,6.m4v,2.0
2024-02-27 10:42:31.215144,1709026951.2151437,-46.875,983.88671875,-399.90234375,-47.8515625,1.0,0.0,-1.0,0.0,6.m4v,2.0
2024-02-27 10:42:31.219049,1709026951.2190492,-46.38671875,969.7265625,-137.6953125,-37.59765625,1.0,0.0,-1.0,0.0,6.m4v,2.0
2024-02-27 10:42:31.222955,1709026951.2229548,-38.0859375,969.7265625,127.44140625,-44.43359375,1.0,0.0,-1.0,0.0,6.m4v,2.0
2024-02-27 10:42:31.226866,1709026951.2268658,-47.36328125,969.7265625,47.8515625,-51.7578125,1.0,0.0,-1.0,0.0,6.m4v,2.0
2024-02-27 10:42:31.230771,1709026951.2307713,-44.921875,969.7265625,-129.8828125,-41.015625,1.0,0.0,-1.0,0.0,6.m4v,2.0
2024-02-27 10:42:31.234677,1709026951.2346768,-33.203125,969.7265625,-231.93359375,-34.1796875,1.0,0.0,-1.0,0.0,6.m4v,2.0
2024-02-27 10:42:31.238583,1709026951.2385826,-19.04296875,969.7265625,-54.6875,-38.57421875,1.0,0.0,-1.0,0.0,6.m4v,2.0
2024-02-27 10:42:31.242488,1709026951.242488,-32.71484375,969.7265625,91.796875,-52.734375,1.0,0.0,-1.0,0.0,6.m4v,2.0
2024-02-27 10:42:31.246394,1709026951.2463937,-43.9453125,968.75,279.296875,-57.6171875,1.0,0.0,-1.0,0.0,6.m4v,2.0
2024-02-27 10:42:31.250299,1709026951.2502992,-24.4140625,972.65625,268.5546875,-35.64453125,1.0,0.0,-1.0,0.0,6.m4v,2.0
2024-02-27 10:42:31.254205,1709026951.2542048,-41.015625,959.9609375,-287.109375,-42.48046875,1.0,0.0,-1.0,0.0,6.m4v,2.0
2024-02-27 10:42:31.258110,1709026951.2581103,-41.9921875,958.0078125,-140.13671875,-60.546875,1.0,0.0,-1.0,0.0,6.m4v,2.0
2024-02-27 10:42:31.262016,1709026951.2620158,-30.2734375,972.16796875,167.48046875,-58.59375,1.0,0.0,-1.0,0.0,6.m4v,2.0
2024-02-27 10:42:31.265921,1709026951.2659214,-27.34375,969.23828125,-89.35546875,-53.22265625,1.0,0.0,-1.0,0.0,6.m4v,2.0
2024-02-27 10:42:31.269827,1709026951.2698271,-1.953125,969.7265625,-270.5078125,-48.33984375,1.0,0.0,-1.0,0.0,6.m4v,2.0
2024-02-27 10:42:31.273737,1709026951.2737374,-20.99609375,969.7265625,-293.9453125,-51.26953125,1.0,0.0,-1.0,0.0,6.m4v,2.0
2024-02-27 10:42:31.277643,1709026951.277643,-34.1796875,969.7265625,-156.25,-38.0859375,1.0,0.0,-1.0,0.0,6.m4v,2.0
2024-02-27 10:42:31.281549,1709026951.2815485,-9.765625,969.7265625,78.61328125,-38.57421875,1.0,0.0,-1.0,0.0,6.m4v,2.0
2024-02-27 10:42:31.285454,1709026951.285454,-4.8828125,969.7265625,6.34765625,-43.9453125,1.0,0.0,-1.0,0.0,6.m4v,2.0
2024-02-27 10:42:31.289360,1709026951.2893596,-23.4375,973.6328125,-192.87109375,-41.015625,1.0,0.0,-1.0,0.0,6.m4v,2.0
2024-02-27 10:42:31.293265,1709026951.293265,-9.765625,958.49609375,18.06640625,-40.52734375,1.0,0.0,-1.0,0.0,6.m4v,2.0
2024-02-27 10:42:31.297171,1709026951.2971709,1.46484375,931.15234375,237.3046875,-40.0390625,1.0,0.0,-1.0,0.0,6.m4v,2.0
2024-02-27 10:42:31.301076,1709026951.3010764,-4.8828125,999.51171875,104.00390625,-34.66796875,1.0,0.0,-1.0,0.0,6.m4v,2.0
2024-02-27 10:42:31.304982,1709026951.304982,-16.6015625,53.7109375,-200.1953125,-24.4140625,1.0,0.0,-1.0,0.0,6.m4v,2.0
2024-02-27 10:42:31.308887,1709026951.3088875,-27.34375,-1000.0,-472.16796875,-38.0859375,1.0,0.0,-1.0,0.0,6.m4v,2.0
2024-02-27 10:42:31.312793,1709026951.312793,-38.0859375,-976.5625,-581.54296875,-51.7578125,1.0,0.0,-1.0,0.0,6.m4v,2.0
2024-02-27 10:42:31.316699,1709026951.3166986,-18.06640625,-980.46875,-258.7890625,-49.31640625,1.0,0.0,-1.0,0.0,6.m4v,2.0
2024-02-27 10:42:31.320609,1709026951.3206089,2.9296875,-1000.0,145.99609375,-36.62109375,1.0,0.0,-1.0,0.0,6.m4v,2.0
2024-02-27 10:42:31.324514,1709026951.3245144,-26.3671875,-1000.0,37.109375,-34.1796875,1.0,0.0,-1.0,0.0,6.m4v,2.0
2024-02-27 10:42:31.328420,1709026951.3284202,-22.4609375,-951.66015625,-200.68359375,-44.921875,1.0,0.0,-1.0,0.0,6.m4v,2.0
2024-02-27 10:42:31.332326,1709026951.3323257,-26.3671875,-1000.0,-487.79296875,-41.015625,1.0,0.0,-1.0,0.0,6.m4v,2.0
2024-02-27 10:42:31.336231,1709026951.3362312,-48.828125,-958.984375,-453.61328125,-40.52734375,1.0,0.0,-1.0,0.0,6.m4v,2.0
2024-02-27 10:42:31.340137,1709026951.3401368,-16.11328125,450.68359375,349.609375,-45.8984375,1.0,0.0,-1.0,0.0,6.m4v,2.0
2024-02-27 10:42:31.344042,1709026951.3440423,-3.41796875,999.51171875,710.9375,-40.52734375,1.0,0.0,-1.0,0.0,6.m4v,2.0
2024-02-27 10:42:31.347948,1709026951.3479478,-25.390625,895.99609375,127.9296875,-41.015625,1.0,0.0,-1.0,0.0,6.m4v,2.0
2024-02-27 10:42:31.351853,1709026951.3518534,-23.92578125,982.421875,-283.69140625,-32.2265625,1.0,0.0,-1.0,0.0,6.m4v,2.0
2024-02-27 10:42:31.355759,1709026951.355759,-20.01953125,969.7265625,-346.19140625,-20.01953125,1.0,0.0,-1.0,0.0,6.m4v,2.0
2024-02-27 10:42:31.359665,1709026951.359665,-37.109375,969.7265625,-95.703125,-43.9453125,1.0,0.0,-1.0,0.0,6.m4v,2.0
2024-02-27 10:42:31.363570,1709026951.3635702,-26.3671875,969.7265625,125.48828125,-39.0625,1.0,0.0,-1.0,0.0,6.m4v,2.0
2024-02-27 10:42:31.367480,1709026951.36748,-17.08984375,970.21484375,-15.625,-26.3671875,1.0,0.0,-1.0,0.0,6.m4v,2.0
2024-02-27 10:42:31.371386,1709026951.3713856,-23.92578125,969.7265625,-295.8984375,-34.1796875,1.0,0.0,-1.0,0.0,6.m4v,2.0
2024-02-27 10:42:31.375291,1709026951.375291,-23.4375,969.7265625,-223.6328125,-43.45703125,1.0,0.0,-1.0,0.0,6.m4v,2.0
2024-02-27 10:42:31.379197,1709026951.3791966,-47.8515625,970.21484375,258.30078125,-40.0390625,1.0,0.0,-1.0,0.0,6.m4v,2.0
2024-02-27 10:42:31.383102,1709026951.3831022,-33.203125,984.86328125,246.58203125,-31.73828125,1.0,0.0,-1.0,0.0,6.m4v,2.0
2024-02-27 10:42:31.387008,1709026951.3870077,7.32421875,899.90234375,257.8125,-49.8046875,1.0,0.0,-1.0,0.0,6.m4v,2.0
2024-02-27 10:42:31.390913,1709026951.3909135,-8.30078125,999.51171875,276.85546875,-43.45703125,1.0,0.0,-1.0,0.0,6.m4v,2.0
2024-02-27 10:42:31.394819,1709026951.394819,-48.828125,598.6328125,-287.109375,-27.34375,1.0,0.0,-1.0,0.0,6.m4v,2.0
2024-02-27 10:42:31.398725,1709026951.3987246,-28.3203125,-845.703125,-571.2890625,-38.57421875,1.0,0.0,-1.0,0.0,6.m4v,2.0
2024-02-27 10:42:31.402630,1709026951.40263,-23.4375,-1000.0,-459.9609375,-41.015625,1.0,0.0,-1.0,0.0,6.m4v,2.0
2024-02-27 10:42:31.406536,1709026951.4065356,-39.55078125,-940.4296875,-445.3125,-39.55078125,1.0,0.0,-1.0,0.0,6.m4v,2.0
2024-02-27 10:42:31.410441,1709026951.4104412,-24.4140625,-1000.0,-583.49609375,-41.015625,1.0,0.0,-1.0,0.0,6.m4v,2.0
2024-02-27 10:42:31.414351,1709026951.4143507,-23.92578125,-1000.0,-673.828125,-35.15625,1.0,0.0,-1.0,0.0,6.m4v,2.0
2024-02-27 10:42:31.418256,1709026951.4182563,-28.3203125,-1000.0,-487.3046875,-41.50390625,1.0,0.0,-1.0,0.0,6.m4v,2.0
2024-02-27 10:42:31.422162,1709026951.4221618,-23.4375,-968.75,-196.77734375,-34.66796875,1.0,0.0,-1.0,0.0,6.m4v,2.0
2024-02-27 10:42:31.426068,1709026951.4260676,-26.3671875,-993.65234375,-160.15625,-29.78515625,1.0,0.0,-1.0,0.0,6.m4v,2.0
2024-02-27 10:42:31.429973,1709026951.4299731,-30.2734375,-1000.0,-318.84765625,-39.55078125,1.0,0.0,-1.0,0.0,6.m4v,2.0
2024-02-27 10:42:31.433879,1709026951.433879,-1.46484375,233.3984375,-48.33984375,-24.90234375,1.0,0.0,-1.0,0.0,6.m4v,2.0
2024-02-27 10:42:31.437784,1709026951.4377842,-19.53125,999.51171875,545.8984375,-34.66796875,1.0,0.0,-1.0,0.0,6.m4v,2.0
2024-02-27 10:42:31.441690,1709026951.4416895,-36.62109375,906.73828125,533.203125,-48.33984375,1.0,0.0,-1.0,0.0,6.m4v,2.0
2024-02-27 10:42:31.445595,1709026951.4455953,-26.85546875,972.16796875,44.43359375,-48.828125,1.0,0.0,-1.0,0.0,6.m4v,2.0
2024-02-27 10:42:31.449501,1709026951.4495008,-35.64453125,970.703125,-262.6953125,-58.59375,1.0,0.0,-1.0,0.0,6.m4v,2.0
2024-02-27 10:42:31.453406,1709026951.4534063,-50.78125,969.7265625,-303.22265625,-58.10546875,1.0,0.0,-1.0,0.0,6.m4v,2.0
2024-02-27 10:42:31.457312,1709026951.457312,-50.78125,969.7265625,-26.3671875,-49.8046875,1.0,0.0,-1.0,0.0,6.m4v,2.0
2024-02-27 10:42:31.461224,1709026951.461224,-29.296875,969.7265625,187.98828125,-40.52734375,1.0,0.0,-1.0,0.0,6.m4v,2.0
2024-02-27 10:42:31.465130,1709026951.4651296,-20.5078125,969.7265625,166.9921875,-34.66796875,1.0,0.0,-1.0,0.0,6.m4v,2.0
2024-02-27 10:42:31.469035,1709026951.4690351,-29.78515625,969.7265625,15.625,-44.921875,1.0,0.0,-1.0,0.0,6.m4v,2.0
2024-02-27 10:42:31.472941,1709026951.4729407,-47.8515625,969.7265625,-266.6015625,-54.19921875,1.0,0.0,-1.0,0.0,6.m4v,2.0
2024-02-27 10:42:31.476846,1709026951.4768465,-50.78125,974.12109375,-263.18359375,-42.48046875,1.0,0.0,-1.0,0.0,6.m4v,2.0
2024-02-27 10:42:31.480752,1709026951.480752,-39.0625,958.49609375,380.859375,-35.15625,1.0,0.0,-1.0,0.0,6.m4v,2.0
2024-02-27 10:42:31.484658,1709026951.4846575,-27.83203125,931.640625,672.8515625,-35.64453125,1.0,0.0,-1.0,0.0,6.m4v,2.0
2024-02-27 10:42:31.488563,1709026951.488563,-26.3671875,999.51171875,152.34375,-36.62109375,1.0,0.0,-1.0,0.0,6.m4v,2.0
2024-02-27 10:42:31.492469,1709026951.4924686,-55.17578125,47.8515625,-351.5625,-29.296875,1.0,0.0,-1.0,0.0,6.m4v,2.0
2024-02-27 10:42:31.496374,1709026951.496374,-67.87109375,-1000.0,-354.00390625,-41.9921875,1.0,0.0,-1.0,0.0,6.m4v,2.0
2024-02-27 10:42:31.500280,1709026951.5002797,-52.734375,-975.5859375,-30.76171875,-55.6640625,1.0,0.0,-1.0,0.0,6.m4v,2.0
2024-02-27 10:42:31.504185,1709026951.5041854,-50.78125,-980.95703125,-130.859375,-41.50390625,1.0,0.0,-1.0,0.0,6.m4v,2.0
2024-02-27 10:42:31.508097,1709026951.5080972,-44.43359375,-1000.0,-376.953125,-43.9453125,1.0,0.0,-1.0,0.0,6.m4v,2.0
2024-02-27 10:42:31.512003,1709026951.5120027,-48.828125,-1000.0,-634.765625,-54.6875,1.0,0.0,-1.0,0.0,6.m4v,2.0
2024-02-27 10:42:31.515908,1709026951.5159082,-45.8984375,-984.86328125,-686.03515625,-47.8515625,1.0,0.0,-1.0,0.0,6.m4v,2.0
2024-02-27 10:42:31.519814,1709026951.5198138,-35.15625,-966.30859375,-391.6015625,-29.78515625,1.0,0.0,-1.0,0.0,6.m4v,2.0
2024-02-27 10:42:31.523719,1709026951.5237193,-52.24609375,-1000.0,-234.86328125,-34.1796875,1.0,0.0,-1.0,0.0,6.m4v,2.0
2024-02-27 10:42:31.527625,1709026951.5276248,-47.36328125,-7.8125,75.68359375,-43.45703125,1.0,0.0,-1.0,0.0,6.m4v,2.0
2024-02-27 10:42:31.531530,1709026951.5315304,-29.296875,999.51171875,287.109375,-48.33984375,1.0,0.0,-1.0,0.0,6.m4v,2.0
2024-02-27 10:42:31.535436,1709026951.5354362,-22.4609375,933.59375,-76.171875,-52.24609375,1.0,0.0,-1.0,0.0,6.m4v,2.0
2024-02-27 10:42:31.539342,1709026951.5393417,-43.45703125,956.0546875,-48.828125,-47.8515625,1.0,0.0,-1.0,0.0,6.m4v,2.0
2024-02-27 10:42:31.543247,1709026951.5432472,-57.12890625,974.12109375,103.02734375,-35.64453125,1.0,0.0,-1.0,0.0,6.m4v,2.0
2024-02-27 10:42:31.547153,1709026951.5471528,-40.52734375,969.7265625,-51.26953125,-29.296875,1.0,0.0,-1.0,0.0,6.m4v,2.0
2024-02-27 10:42:31.551058,1709026951.5510583,-43.45703125,969.7265625,-287.109375,-49.31640625,1.0,0.0,-1.0,0.0,6.m4v,2.0
2024-02-27 10:42:31.554970,1709026951.55497,-46.38671875,969.7265625,-294.921875,-52.24609375,1.0,0.0,-1.0,0.0,6.m4v,2.0
2024-02-27 10:42:31.558876,1709026951.5588756,-43.9453125,969.7265625,184.5703125,-35.15625,1.0,0.0,-1.0,0.0,6.m4v,2.0
2024-02-27 10:42:31.562781,1709026951.562781,-32.71484375,969.7265625,203.125,-36.62109375,1.0,0.0,-1.0,0.0,6.m4v,2.0
2024-02-27 10:42:31.566687,1709026951.5666866,-37.109375,970.703125,-143.5546875,-39.55078125,1.0,0.0,-1.0,0.0,6.m4v,2.0
2024-02-27 10:42:31.570592,1709026951.5705922,-39.55078125,977.05078125,-328.125,-41.9921875,1.0,0.0,-1.0,0.0,6.m4v,2.0
2024-02-27 10:42:31.574498,1709026951.574498,-56.15234375,906.25,-114.2578125,-52.24609375,1.0,0.0,-1.0,0.0,6.m4v,2.0
2024-02-27 10:42:32.027595,1709026952.0275953,-30.2734375,-1000.0,21.97265625,-52.734375,1.0,0.0,-1.0,0.0,6.m4v,2.0
2024-02-27 10:42:32.035407,1709026952.0354066,-20.01953125,-1000.0,-149.4140625,-5.37109375,1.0,0.0,-1.0,0.0,6.m4v,2.0
2024-02-27 10:42:32.043218,1709026952.0432177,-65.4296875,352.05078125,803.7109375,-55.6640625,1.0,0.0,-1.0,0.0,6.m4v,2.0
2024-02-27 10:42:32.051029,1709026952.0510287,-66.89453125,899.4140625,216.30859375,-53.7109375,1.0,0.0,-1.0,0.0,6.m4v,2.0
2024-02-27 10:42:32.058840,1709026952.0588398,-63.4765625,969.7265625,320.3125,-70.80078125,1.0,0.0,-1.0,0.0,6.m4v,2.0
2024-02-27 10:42:32.066651,1709026952.066651,-58.10546875,969.7265625,374.0234375,-42.96875,1.0,0.0,-1.0,0.0,6.m4v,2.0
2024-02-27 10:42:32.074466,1709026952.0744665,-46.38671875,969.7265625,99.609375,-48.828125,1.0,0.0,-1.0,0.0,6.m4v,2.0
2024-02-27 10:42:32.082278,1709026952.0822778,-43.45703125,969.7265625,535.64453125,-47.8515625,1.0,0.0,-1.0,0.0,6.m4v,2.0
2024-02-27 10:42:32.090089,1709026952.0900888,-40.52734375,969.7265625,487.3046875,-36.1328125,1.0,0.0,-1.0,0.0,6.m4v,2.0
2024-02-27 10:42:32.097900,1709026952.0979,-51.26953125,910.15625,542.96875,-42.96875,1.0,0.0,-1.0,0.0,6.m4v,2.0
2024-02-27 10:42:32.105711,1709026952.105711,-59.08203125,840.33203125,198.73046875,-33.203125,1.0,0.0,-1.0,0.0,6.m4v,2.0
2024-02-27 10:42:32.113522,1709026952.1135223,-56.640625,-1000.0,-464.35546875,-42.96875,1.0,0.0,-1.0,0.0,6.m4v,2.0
2024-02-27 10:42:32.121338,1709026952.1213377,-51.26953125,-1000.0,27.83203125,-57.12890625,1.0,0.0,-1.0,0.0,6.m4v,2.0
2024-02-27 10:42:32.129149,1709026952.129149,-33.203125,-946.77734375,-162.59765625,-43.9453125,1.0,0.0,-1.0,0.0,6.m4v,2.0
2024-02-27 10:42:32.136960,1709026952.13696,-43.45703125,-924.8046875,-35.64453125,-48.828125,1.0,0.0,-1.0,0.0,6.m4v,2.0
2024-02-27 10:42:32.144771,1709026952.144771,-32.71484375,999.51171875,423.33984375,-37.59765625,1.0,0.0,-1.0,0.0,6.m4v,2.0
2024-02-27 10:42:32.152582,1709026952.1525822,-40.0390625,984.375,-261.23046875,-37.109375,1.0,0.0,-1.0,0.0,6.m4v,2.0
2024-02-27 10:42:32.160393,1709026952.1603937,-28.3203125,969.7265625,499.51171875,-34.66796875,1.0,0.0,-1.0,0.0,6.m4v,2.0
2024-02-27 10:42:32.168209,1709026952.1682088,-29.78515625,969.7265625,56.640625,-34.1796875,1.0,0.0,-1.0,0.0,6.m4v,2.0
2024-02-27 10:42:32.176020,1709026952.17602,-50.29296875,969.7265625,-30.2734375,-29.78515625,1.0,0.0,-1.0,0.0,6.m4v,2.0
2024-02-27 10:42:32.183831,1709026952.183831,-19.04296875,909.66796875,325.1953125,-28.80859375,1.0,0.0,-1.0,0.0,6.m4v,2.0
2024-02-27 10:42:32.191642,1709026952.191642,-26.3671875,833.0078125,-125.48828125,-38.0859375,1.0,0.0,-1.0,0.0,6.m4v,2.0
2024-02-27 10:42:32.199453,1709026952.1994534,-43.45703125,-1000.0,-235.83984375,-51.7578125,1.0,0.0,-1.0,0.0,6.m4v,2.0
2024-02-27 10:42:32.207264,1709026952.2072644,-35.15625,-963.8671875,-194.3359375,-51.26953125,1.0,0.0,-1.0,0.0,6.m4v,2.0
2024-02-27 10:42:32.215079,1709026952.215079,-47.36328125,-931.15234375,-311.03515625,-62.98828125,1.0,0.0,-1.0,0.0,6.m4v,2.0
2024-02-27 10:42:32.222890,1709026952.22289,-19.53125,999.51171875,580.078125,-17.08984375,1.0,0.0,-1.0,0.0,6.m4v,2.0
2024-02-27 10:42:32.230701,1709026952.2307014,-39.0625,983.88671875,135.7421875,-32.2265625,1.0,0.0,-1.0,0.0,6.m4v,2.0
2024-02-27 10:42:32.238513,1709026952.2385125,-35.15625,969.7265625,110.83984375,-57.12890625,1.0,0.0,-1.0,0.0,6.m4v,2.0
2024-02-27 10:42:32.246324,1709026952.2463236,-48.828125,969.7265625,32.2265625,-12.20703125,1.0,0.0,-1.0,0.0,6.m4v,2.0
2024-02-27 10:42:32.254135,1709026952.254135,-28.3203125,969.7265625,-190.91796875,-39.0625,1.0,0.0,-1.0,0.0,6.m4v,2.0
2024-02-27 10:42:32.261952,1709026952.261952,-50.29296875,933.59375,37.59765625,-17.08984375,1.0,0.0,-1.0,0.0,6.m4v,2.0
2024-02-27 10:42:32.269763,1709026952.269763,-31.73828125,993.65234375,-205.56640625,-29.296875,1.0,0.0,-1.0,0.0,6.m4v,2.0
2024-02-27 10:42:32.277574,1709026952.2775743,-36.1328125,-1000.0,39.55078125,-37.59765625,1.0,0.0,-1.0,0.0,6.m4v,2.0
2024-02-27 10:42:32.285385,1709026952.2853854,-26.3671875,-1000.0,124.0234375,-47.36328125,1.0,0.0,-1.0,0.0,6.m4v,2.0
2024-02-27 10:42:32.293196,1709026952.2931964,-36.1328125,-1000.0,-517.578125,-36.62109375,1.0,0.0,-1.0,0.0,6.m4v,2.0
2024-02-27 10:42:32.301008,1709026952.3010075,-16.11328125,-1000.0,-152.34375,-31.73828125,1.0,0.0,-1.0,0.0,6.m4v,2.0
2024-02-27 10:42:32.304919,1709026952.3049188,-16.6015625,-1000.0,-21.484375,-14.6484375,1.0,0.0,-1.0,0.0,6.m4v,2.0
2024-02-27 10:42:32.308824,1709026952.3088243,-29.296875,-1000.0,-129.8828125,-22.94921875,1.0,0.0,-1.0,0.0,6.m4v,2.0
2024-02-27 10:42:32.312730,1709026952.3127298,-32.2265625,-949.70703125,-234.375,-32.2265625,1.0,0.0,-1.0,0.0,6.m4v,2.0
2024-02-27 10:42:32.316636,1709026952.3166356,-17.578125,-1000.0,-139.6484375,-17.08984375,1.0,0.0,-1.0,0.0,6.m4v,2.0
2024-02-27 10:42:32.320541,1709026952.3205411,-11.71875,-943.84765625,114.74609375,-29.296875,1.0,0.0,-1.0,0.0,6.m4v,2.0
2024-02-27 10:42:32.324447,1709026952.324447,-15.625,478.02734375,523.4375,-25.87890625,1.0,0.0,-1.0,0.0,6.m4v,2.0
2024-02-27 10:42:32.328352,1709026952.3283522,-18.06640625,999.51171875,528.80859375,-19.04296875,1.0,0.0,-1.0,0.0,6.m4v,2.0
2024-02-27 10:42:32.332258,1709026952.3322575,-21.484375,895.5078125,2.44140625,-21.97265625,1.0,0.0,-1.0,0.0,6.m4v,2.0
2024-02-27 10:42:32.336163,1709026952.3361633,-25.87890625,983.3984375,-19.04296875,-17.08984375,1.0,0.0,-1.0,0.0,6.m4v,2.0
2024-02-27 10:42:32.340069,1709026952.3400688,-36.1328125,969.7265625,383.30078125,-22.4609375,1.0,0.0,-1.0,0.0,6.m4v,2.0
2024-02-27 10:42:32.343975,1709026952.3439746,-31.25,969.7265625,298.828125,-25.390625,1.0,0.0,-1.0,0.0,6.m4v,2.0
2024-02-27 10:42:32.347880,1709026952.34788,-28.3203125,969.7265625,82.03125,-29.296875,1.0,0.0,-1.0,0.0,6.m4v,2.0
2024-02-27 10:42:32.351791,1709026952.351791,-17.578125,969.7265625,-112.79296875,-32.71484375,1.0,0.0,-1.0,0.0,6.m4v,2.0
2024-02-27 10:42:32.355696,1709026952.3556964,-14.6484375,969.7265625,-175.29296875,-25.390625,1.0,0.0,-1.0,0.0,6.m4v,2.0
2024-02-27 10:42:32.359602,1709026952.359602,-35.15625,969.7265625,38.0859375,-14.6484375,1.0,0.0,-1.0,0.0,6.m4v,2.0
2024-02-27 10:42:32.363508,1709026952.3635075,-32.2265625,986.328125,155.2734375,-26.3671875,1.0,0.0,-1.0,0.0,6.m4v,2.0
2024-02-27 10:42:32.367413,1709026952.367413,-41.9921875,911.1328125,-21.97265625,-38.57421875,1.0,0.0,-1.0,0.0,6.m4v,2.0
2024-02-27 10:42:32.371319,1709026952.3713188,-41.015625,999.51171875,15.625,-41.9921875,1.0,0.0,-1.0,0.0,6.m4v,2.0
2024-02-27 10:42:32.375224,1709026952.3752244,-30.2734375,848.6328125,117.67578125,-45.41015625,1.0,0.0,-1.0,0.0,6.m4v,2.0
2024-02-27 10:42:32.379130,1709026952.37913,-45.8984375,-611.81640625,-87.890625,-46.38671875,1.0,0.0,-1.0,0.0,6.m4v,2.0
2024-02-27 10:42:32.383035,1709026952.3830354,-44.43359375,-1000.0,-211.42578125,-41.50390625,1.0,0.0,-1.0,0.0,6.m4v,2.0
2024-02-27 10:42:32.386941,1709026952.386941,-28.80859375,-925.78125,-337.890625,-40.52734375,1.0,0.0,-1.0,0.0,6.m4v,2.0
2024-02-27 10:42:32.390846,1709026952.3908465,-36.62109375,-1000.0,-516.6015625,-46.38671875,1.0,0.0,-1.0,0.0,6.m4v,2.0
2024-02-27 10:42:32.394752,1709026952.394752,-50.29296875,-1000.0,-522.94921875,-42.96875,1.0,0.0,-1.0,0.0,6.m4v,2.0
2024-02-27 10:42:32.398663,1709026952.398663,-48.33984375,-1000.0,-38.57421875,-39.55078125,1.0,0.0,-1.0,0.0,6.m4v,2.0
2024-02-27 10:42:32.402569,1709026952.4025686,-39.0625,-1000.0,65.91796875,-30.2734375,1.0,0.0,-1.0,0.0,6.m4v,2.0
2024-02-27 10:42:32.406474,1709026952.4064744,-32.2265625,-1000.0,-245.60546875,-18.5546875,1.0,0.0,-1.0,0.0,6.m4v,2.0
2024-02-27 10:42:32.410380,1709026952.41038,-38.0859375,-940.4296875,-398.92578125,-26.3671875,1.0,0.0,-1.0,0.0,6.m4v,2.0
2024-02-27 10:42:32.414285,1709026952.4142854,-72.265625,-1000.0,-437.01171875,-51.26953125,1.0,0.0,-1.0,0.0,6.m4v,2.0
2024-02-27 10:42:32.418191,1709026952.418191,-63.4765625,-867.1875,-24.90234375,-42.96875,1.0,0.0,-1.0,0.0,6.m4v,2.0
2024-02-27 10:42:32.422096,1709026952.4220965,-30.2734375,594.23828125,520.01953125,-25.390625,1.0,0.0,-1.0,0.0,6.m4v,2.0
2024-02-27 10:42:32.426002,1709026952.426002,-9.27734375,999.51171875,257.8125,-41.015625,1.0,0.0,-1.0,0.0,6.m4v,2.0
2024-02-27 10:42:32.429908,1709026952.4299076,-37.109375,895.99609375,-238.28125,-46.38671875,1.0,0.0,-1.0,0.0,6.m4v,2.0
2024-02-27 10:42:32.433813,1709026952.433813,-60.546875,986.328125,-297.36328125,-35.15625,1.0,0.0,-1.0,0.0,6.m4v,2.0
2024-02-27 10:42:32.437719,1709026952.4377189,-17.08984375,969.7265625,-31.25,-31.25,1.0,0.0,-1.0,0.0,6.m4v,2.0
2024-02-27 10:42:32.441624,1709026952.4416244,-17.08984375,986.81640625,325.68359375,-37.59765625,1.0,0.0,-1.0,0.0,6.m4v,2.0
2024-02-27 10:42:32.445534,1709026952.4455345,-21.97265625,907.71484375,250.48828125,-25.390625,1.0,0.0,-1.0,0.0,6.m4v,2.0
2024-02-27 10:42:32.449440,1709026952.4494402,-40.52734375,999.51171875,-55.17578125,-26.3671875,1.0,0.0,-1.0,0.0,6.m4v,2.0
2024-02-27 10:42:32.453346,1709026952.4533458,-52.24609375,802.24609375,-332.03125,-38.0859375,1.0,0.0,-1.0,0.0,6.m4v,2.0
2024-02-27 10:42:32.457251,1709026952.4572513,-48.828125,-664.55078125,-264.6484375,-40.0390625,1.0,0.0,-1.0,0.0,6.m4v,2.0
2024-02-27 10:42:32.461157,1709026952.4611568,-52.24609375,-1000.0,49.8046875,-44.43359375,1.0,0.0,-1.0,0.0,6.m4v,2.0
2024-02-27 10:42:32.465062,1709026952.4650624,-41.50390625,-928.22265625,113.76953125,-41.50390625,1.0,0.0,-1.0,0.0,6.m4v,2.0
2024-02-27 10:42:32.468968,1709026952.468968,-23.92578125,-1000.0,85.9375,-26.3671875,1.0,0.0,-1.0,0.0,6.m4v,2.0
2024-02-27 10:42:32.472873,1709026952.4728734,-27.83203125,-1000.0,-314.94140625,-37.109375,1.0,0.0,-1.0,0.0,6.m4v,2.0
2024-02-27 10:42:32.476779,1709026952.4767792,-43.45703125,-1000.0,-438.4765625,-44.921875,1.0,0.0,-1.0,0.0,6.m4v,2.0
2024-02-27 10:42:32.480685,1709026952.4806848,-45.41015625,-1000.0,-232.421875,-28.80859375,1.0,0.0,-1.0,0.0,6.m4v,2.0
2024-02-27 10:42:32.484590,1709026952.4845903,-34.1796875,-1000.0,-192.87109375,-28.3203125,1.0,0.0,-1.0,0.0,6.m4v,2.0
2024-02-27 10:42:32.488496,1709026952.4884958,-42.96875,-1000.0,-365.72265625,-34.66796875,1.0,0.0,-1.0,0.0,6.m4v,2.0
2024-02-27 10:42:32.492406,1709026952.4924057,-49.8046875,-1000.0,-544.43359375,-35.64453125,1.0,0.0,-1.0,0.0,6.m4v,2.0
2024-02-27 10:42:32.496311,1709026952.4963112,-21.484375,-1000.0,-441.89453125,-37.109375,1.0,0.0,-1.0,0.0,6.m4v,2.0
2024-02-27 10:42:32.500217,1709026952.5002167,-19.53125,-1000.0,-183.10546875,-38.0859375,1.0,0.0,-1.0,0.0,6.m4v,2.0
2024-02-27 10:42:32.504122,1709026952.5041225,-38.57421875,-942.3828125,-141.6015625,-33.69140625,1.0,0.0,-1.0,0.0,6.m4v,2.0
2024-02-27 10:42:32.508028,1709026952.508028,-30.2734375,-1000.0,-349.609375,-40.0390625,1.0,0.0,-1.0,0.0,6.m4v,2.0
2024-02-27 10:42:32.511934,1709026952.5119336,-27.34375,-311.5234375,-197.75390625,-50.29296875,1.0,0.0,-1.0,0.0,6.m4v,2.0
2024-02-27 10:42:32.515839,1709026952.515839,-37.59765625,967.28515625,334.9609375,-38.0859375,1.0,0.0,-1.0,0.0,6.m4v,2.0
2024-02-27 10:42:32.519745,1709026952.5197446,-34.1796875,978.02734375,548.33984375,-20.5078125,1.0,0.0,-1.0,0.0,6.m4v,2.0
2024-02-27 10:42:32.523650,1709026952.5236502,-28.3203125,934.08203125,243.65234375,-25.390625,1.0,0.0,-1.0,0.0,6.m4v,2.0
2024-02-27 10:42:32.527556,1709026952.5275557,-44.43359375,979.98046875,-252.9296875,-43.9453125,1.0,0.0,-1.0,0.0,6.m4v,2.0
2024-02-27 10:42:32.531461,1709026952.5314612,-43.9453125,969.7265625,-505.37109375,-47.36328125,1.0,0.0,-1.0,0.0,6.m4v,2.0
2024-02-27 10:42:32.535367,1709026952.5353668,-39.0625,969.7265625,-439.453125,-32.71484375,1.0,0.0,-1.0,0.0,6.m4v,2.0
2024-02-27 10:42:32.539276,1709026952.5392764,-37.109375,970.21484375,-110.3515625,-18.5546875,1.0,0.0,-1.0,0.0,6.m4v,2.0
2024-02-27 10:42:32.543182,1709026952.543182,-50.78125,984.86328125,31.25,-20.01953125,1.0,0.0,-1.0,0.0,6.m4v,2.0
2024-02-27 10:42:32.547087,1709026952.5470874,-34.1796875,901.85546875,-179.19921875,-45.8984375,1.0,0.0,-1.0,0.0,6.m4v,2.0
2024-02-27 10:42:32.550993,1709026952.550993,-26.3671875,999.51171875,-379.39453125,-47.8515625,1.0,0.0,-1.0,0.0,6.m4v,2.0
2024-02-27 10:42:32.554899,1709026952.5548987,-59.5703125,644.53125,-399.90234375,-49.31640625,1.0,0.0,-1.0,0.0,6.m4v,2.0
2024-02-27 10:42:32.558804,1709026952.5588045,-61.03515625,-803.7109375,-22.4609375,-44.921875,1.0,0.0,-1.0,0.0,6.m4v,2.0
2024-02-27 10:42:32.562710,1709026952.5627098,-47.36328125,-1000.0,145.99609375,-22.4609375,1.0,0.0,-1.0,0.0,6.m4v,2.0
2024-02-27 10:42:32.566615,1709026952.566615,-50.78125,-937.5,-339.35546875,-31.25,1.0,0.0,-1.0,0.0,6.m4v,2.0
2024-02-27 10:42:32.570521,1709026952.5705209,-59.08203125,-1000.0,-788.0859375,-60.05859375,1.0,0.0,-1.0,0.0,6.m4v,2.0
2024-02-27 10:42:32.574426,1709026952.5744264,-51.7578125,-1000.0,-818.84765625,-66.40625,1.0,0.0,-1.0,0.0,6.m4v,2.0
2024-02-27 10:42:32.578332,1709026952.578332,-31.25,-1000.0,-331.54296875,-36.62109375,1.0,0.0,-1.0,0.0,6.m4v,2.0
2024-02-27 10:42:32.582237,1709026952.5822375,-41.50390625,-1000.0,-132.8125,-28.3203125,1.0,0.0,-1.0,0.0,6.m4v,2.0
2024-02-27 10:42:32.586147,1709026952.586147,-57.6171875,-1000.0,-393.5546875,-45.41015625,1.0,0.0,-1.0,0.0,6.m4v,2.0
2024-02-27 10:42:32.590053,1709026952.5900528,-41.015625,-1000.0,-602.05078125,-48.33984375,1.0,0.0,-1.0,0.0,6.m4v,2.0
2024-02-27 10:42:32.593958,1709026952.5939584,-31.73828125,-1000.0,-634.27734375,-36.1328125,1.0,0.0,-1.0,0.0,6.m4v,2.0
2024-02-27 10:42:32.597864,1709026952.597864,-40.0390625,-936.03515625,-383.30078125,-40.0390625,1.0,0.0,-1.0,0.0,6.m4v,2.0
2024-02-27 10:42:32.601769,1709026952.6017694,-37.59765625,-1000.0,-158.203125,-46.875,1.0,0.0,-1.0,0.0,6.m4v,2.0
2024-02-27 10:42:32.605675,1709026952.605675,-22.94921875,-440.4296875,41.015625,-31.25,1.0,0.0,-1.0,0.0,6.m4v,2.0
2024-02-27 10:42:32.937684,1709026952.9376838,-27.83203125,917.96875,311.5234375,-41.9921875,1.0,0.0,-1.0,0.0,6.m4v,2.0
2024-02-27 10:42:32.941589,1709026952.9415894,-34.66796875,999.51171875,261.23046875,-30.76171875,1.0,0.0,-1.0,0.0,6.m4v,2.0
2024-02-27 10:42:32.945495,1709026952.945495,-27.83203125,908.203125,-151.85546875,-52.734375,1.0,0.0,-1.0,0.0,6.m4v,2.0
2024-02-27 10:42:32.949400,1709026952.9494004,-33.203125,-516.6015625,-500.0,-44.43359375,1.0,0.0,-1.0,0.0,6.m4v,2.0
2024-02-27 10:42:32.953306,1709026952.9533062,-46.38671875,-1000.0,-731.4453125,-38.0859375,1.0,0.0,-1.0,0.0,6.m4v,2.0
2024-02-27 10:42:32.957212,1709026952.9572115,-39.0625,-926.26953125,-545.41015625,-52.24609375,1.0,0.0,-1.0,0.0,6.m4v,2.0
2024-02-27 10:42:32.961122,1709026952.9611216,-28.80859375,-1000.0,-236.81640625,-35.15625,1.0,0.0,-1.0,0.0,6.m4v,2.0
2024-02-27 10:42:32.965027,1709026952.965027,-34.66796875,-1000.0,-247.0703125,-41.50390625,1.0,0.0,-1.0,0.0,6.m4v,2.0
2024-02-27 10:42:32.968933,1709026952.9689326,-38.0859375,-989.2578125,-416.50390625,-55.17578125,1.0,0.0,-1.0,0.0,6.m4v,2.0
2024-02-27 10:42:32.972838,1709026952.9728384,-31.25,-959.47265625,-479.98046875,-54.19921875,1.0,0.0,-1.0,0.0,6.m4v,2.0
2024-02-27 10:42:32.976744,1709026952.976744,-39.0625,-1000.0,-403.80859375,-48.33984375,1.0,0.0,-1.0,0.0,6.m4v,2.0
2024-02-27 10:42:32.980649,1709026952.9806497,-30.76171875,-75.1953125,207.51953125,-39.0625,1.0,0.0,-1.0,0.0,6.m4v,2.0
2024-02-27 10:42:32.984555,1709026952.984555,-15.625,999.51171875,695.3125,-39.55078125,1.0,0.0,-1.0,0.0,6.m4v,2.0
2024-02-27 10:42:32.988461,1709026952.9884603,-16.6015625,941.89453125,124.51171875,-43.45703125,1.0,0.0,-1.0,0.0,6.m4v,2.0
2024-02-27 10:42:32.992366,1709026952.992366,-37.59765625,951.66015625,-366.69921875,-47.8515625,1.0,0.0,-1.0,0.0,6.m4v,2.0
2024-02-27 10:42:32.996272,1709026952.9962716,-30.76171875,975.09765625,-227.05078125,-42.48046875,1.0,0.0,-1.0,0.0,6.m4v,2.0
2024-02-27 10:42:33.000177,1709026953.0001774,-5.37109375,979.98046875,265.625,-37.109375,1.0,0.0,-1.0,0.0,6.m4v,2.0
2024-02-27 10:42:33.004083,1709026953.004083,-22.4609375,931.640625,111.81640625,-30.76171875,1.0,0.0,-1.0,0.0,6.m4v,2.0
2024-02-27 10:42:33.007994,1709026953.0079944,-32.2265625,977.05078125,-378.41796875,-29.296875,1.0,0.0,-1.0,0.0,6.m4v,2.0
2024-02-27 10:42:33.007994,1709026953.0079944,-32.2265625,977.05078125,-378.41796875,-29.296875,1.0,0.0,-1.0,0.0,6.m4v,2.0
2024-02-27 10:42:33.011900,1709026953.0119,-26.3671875,985.83984375,-510.25390625,-46.38671875,1.0,0.0,-1.0,0.0,6.m4v,2.0
2024-02-27 10:42:33.011900,1709026953.0119,-26.3671875,985.83984375,-510.25390625,-46.38671875,1.0,0.0,-1.0,0.0,6.m4v,2.0
2024-02-27 10:42:33.015805,1709026953.0158055,-45.8984375,-352.5390625,-512.6953125,-57.6171875,1.0,0.0,-1.0,0.0,6.m4v,2.0
2024-02-27 10:42:33.015805,1709026953.0158055,-45.8984375,-352.5390625,-512.6953125,-57.6171875,1.0,0.0,-1.0,0.0,6.m4v,2.0
2024-02-27 10:42:33.019711,1709026953.019711,-41.50390625,-1000.0,-250.48828125,-55.17578125,1.0,0.0,-1.0,0.0,6.m4v,2.0
2024-02-27 10:42:33.019711,1709026953.019711,-41.50390625,-1000.0,-250.48828125,-55.17578125,1.0,0.0,-1.0,0.0,6.m4v,2.0
2024-02-27 10:42:33.023617,1709026953.0236166,-31.25,-931.640625,-138.18359375,-49.31640625,1.0,0.0,-1.0,0.0,6.m4v,2.0
2024-02-27 10:42:33.023617,1709026953.0236166,-31.25,-931.640625,-138.18359375,-49.31640625,1.0,0.0,-1.0,0.0,6.m4v,2.0
2024-02-27 10:42:33.027522,1709026953.0275223,-35.15625,-1000.0,-15.625,-41.50390625,1.0,0.0,-1.0,0.0,6.m4v,2.0
2024-02-27 10:42:33.027522,1709026953.0275223,-35.15625,-1000.0,-15.625,-41.50390625,1.0,0.0,-1.0,0.0,6.m4v,2.0
2024-02-27 10:42:33.031428,1709026953.031428,-43.45703125,-1000.0,-130.859375,-32.2265625,1.0,0.0,-1.0,0.0,6.m4v,2.0
2024-02-27 10:42:33.031428,1709026953.031428,-43.45703125,-1000.0,-130.859375,-32.2265625,1.0,0.0,-1.0,0.0,6.m4v,2.0
2024-02-27 10:42:33.035333,1709026953.0353334,-30.2734375,-1000.0,-434.5703125,-32.71484375,1.0,0.0,-1.0,0.0,6.m4v,2.0
2024-02-27 10:42:33.035333,1709026953.0353334,-30.2734375,-1000.0,-434.5703125,-32.71484375,1.0,0.0,-1.0,0.0,6.m4v,2.0
2024-02-27 10:42:33.039239,1709026953.039239,-35.64453125,-1000.0,-219.23828125,-35.64453125,1.0,0.0,-1.0,0.0,6.m4v,2.0
2024-02-27 10:42:33.039239,1709026953.039239,-35.64453125,-1000.0,-219.23828125,-35.64453125,1.0,0.0,-1.0,0.0,6.m4v,2.0
2024-02-27 10:42:33.043144,1709026953.0431445,-55.6640625,-1000.0,-113.76953125,-44.921875,1.0,0.0,-1.0,0.0,6.m4v,2.0
2024-02-27 10:42:33.043144,1709026953.0431445,-55.6640625,-1000.0,-113.76953125,-44.921875,1.0,0.0,-1.0,0.0,6.m4v,2.0
2024-02-27 10:42:33.047050,1709026953.04705,-39.0625,-1000.0,-431.15234375,-18.5546875,1.0,0.0,-1.0,0.0,6.m4v,2.0
2024-02-27 10:42:33.047050,1709026953.04705,-39.0625,-1000.0,-431.15234375,-18.5546875,1.0,0.0,-1.0,0.0,6.m4v,2.0
2024-02-27 10:42:33.050956,1709026953.0509555,-29.296875,-932.12890625,-696.2890625,-12.6953125,1.0,0.0,-1.0,0.0,6.m4v,2.0
2024-02-27 10:42:33.050956,1709026953.0509555,-29.296875,-932.12890625,-696.2890625,-12.6953125,1.0,0.0,-1.0,0.0,6.m4v,2.0
2024-02-27 10:42:33.054867,1709026953.0548673,-52.24609375,-1000.0,-641.6015625,-57.6171875,1.0,0.0,-1.0,0.0,6.m4v,2.0
2024-02-27 10:42:33.054867,1709026953.0548673,-52.24609375,-1000.0,-641.6015625,-57.6171875,1.0,0.0,-1.0,0.0,6.m4v,2.0
2024-02-27 10:42:33.058773,1709026953.0587728,-60.05859375,-516.11328125,-70.80078125,-48.828125,1.0,0.0,-1.0,0.0,6.m4v,2.0
2024-02-27 10:42:33.058773,1709026953.0587728,-60.05859375,-516.11328125,-70.80078125,-48.828125,1.0,0.0,-1.0,0.0,6.m4v,2.0
2024-02-27 10:42:33.062678,1709026953.0626783,-25.390625,881.8359375,392.578125,-29.78515625,1.0,0.0,-1.0,0.0,6.m4v,2.0
2024-02-27 10:42:33.062678,1709026953.0626783,-25.390625,881.8359375,392.578125,-29.78515625,1.0,0.0,-1.0,0.0,6.m4v,2.0
2024-02-27 10:42:33.066584,1709026953.066584,-17.08984375,999.51171875,119.62890625,-58.10546875,1.0,0.0,-1.0,0.0,6.m4v,2.0
2024-02-27 10:42:33.066584,1709026953.066584,-17.08984375,999.51171875,119.62890625,-58.10546875,1.0,0.0,-1.0,0.0,6.m4v,2.0
2024-02-27 10:42:33.070490,1709026953.0704896,-38.0859375,918.45703125,-228.515625,-79.1015625,1.0,0.0,-1.0,0.0,6.m4v,2.0
2024-02-27 10:42:33.070490,1709026953.0704896,-38.0859375,918.45703125,-228.515625,-79.1015625,1.0,0.0,-1.0,0.0,6.m4v,2.0
2024-02-27 10:42:33.074395,1709026953.0743952,-40.0390625,983.88671875,-27.83203125,-36.62109375,1.0,0.0,-1.0,0.0,6.m4v,2.0
2024-02-27 10:42:33.074395,1709026953.0743952,-40.0390625,983.88671875,-27.83203125,-36.62109375,1.0,0.0,-1.0,0.0,6.m4v,2.0
2024-02-27 10:42:33.078301,1709026953.0783007,-33.69140625,969.7265625,461.42578125,-19.53125,1.0,0.0,-1.0,0.0,6.m4v,2.0
2024-02-27 10:42:33.078301,1709026953.0783007,-33.69140625,969.7265625,461.42578125,-19.53125,1.0,0.0,-1.0,0.0,6.m4v,2.0
2024-02-27 10:42:33.082206,1709026953.0822062,-29.296875,969.7265625,289.55078125,-40.52734375,1.0,0.0,-1.0,0.0,6.m4v,2.0
2024-02-27 10:42:33.082206,1709026953.0822062,-29.296875,969.7265625,289.55078125,-40.52734375,1.0,0.0,-1.0,0.0,6.m4v,2.0
2024-02-27 10:42:33.086112,1709026953.0861118,-36.62109375,969.7265625,-156.25,-42.96875,1.0,0.0,-1.0,0.0,6.m4v,2.0
2024-02-27 10:42:33.086112,1709026953.0861118,-36.62109375,969.7265625,-156.25,-42.96875,1.0,0.0,-1.0,0.0,6.m4v,2.0
2024-02-27 10:42:33.090017,1709026953.0900173,-44.43359375,970.21484375,-353.02734375,-47.8515625,1.0,0.0,-1.0,0.0,6.m4v,2.0
2024-02-27 10:42:33.090017,1709026953.0900173,-44.43359375,970.21484375,-353.02734375,-47.8515625,1.0,0.0,-1.0,0.0,6.m4v,2.0
2024-02-27 10:42:33.093923,1709026953.0939229,-45.8984375,969.7265625,-408.203125,-41.015625,1.0,0.0,-1.0,0.0,6.m4v,2.0
2024-02-27 10:42:33.093923,1709026953.0939229,-45.8984375,969.7265625,-408.203125,-41.015625,1.0,0.0,-1.0,0.0,6.m4v,2.0
2024-02-27 10:42:33.097828,1709026953.0978284,-38.0859375,969.7265625,-180.17578125,-40.0390625,1.0,0.0,-1.0,0.0,6.m4v,2.0
2024-02-27 10:42:33.097828,1709026953.0978284,-38.0859375,969.7265625,-180.17578125,-40.0390625,1.0,0.0,-1.0,0.0,6.m4v,2.0
2024-02-27 10:42:33.101739,1709026953.1017394,-42.96875,969.7265625,-35.64453125,-50.78125,1.0,0.0,-1.0,0.0,6.m4v,2.0
2024-02-27 10:42:33.101739,1709026953.1017394,-42.96875,969.7265625,-35.64453125,-50.78125,1.0,0.0,-1.0,0.0,6.m4v,2.0
2024-02-27 10:42:33.105645,1709026953.105645,-48.33984375,969.7265625,-189.94140625,-53.7109375,1.0,0.0,-1.0,0.0,6.m4v,2.0
2024-02-27 10:42:33.105645,1709026953.105645,-48.33984375,969.7265625,-189.94140625,-53.7109375,1.0,0.0,-1.0,0.0,6.m4v,2.0
2024-02-27 10:42:33.109550,1709026953.1095505,-24.4140625,969.7265625,-366.2109375,-39.55078125,1.0,0.0,-1.0,0.0,6.m4v,2.0
2024-02-27 10:42:33.109550,1709026953.1095505,-24.4140625,969.7265625,-366.2109375,-39.55078125,1.0,0.0,-1.0,0.0,6.m4v,2.0
2024-02-27 10:42:33.113456,1709026953.113456,-27.83203125,971.19140625,-424.31640625,-44.921875,1.0,0.0,-1.0,0.0,6.m4v,2.0
2024-02-27 10:42:33.113456,1709026953.113456,-27.83203125,971.19140625,-424.31640625,-44.921875,1.0,0.0,-1.0,0.0,6.m4v,2.0
2024-02-27 10:42:33.117362,1709026953.1173618,-31.73828125,974.609375,-112.79296875,-46.875,1.0,0.0,-1.0,0.0,6.m4v,2.0
2024-02-27 10:42:33.117362,1709026953.1173618,-31.73828125,974.609375,-112.79296875,-46.875,1.0,0.0,-1.0,0.0,6.m4v,2.0
2024-02-27 10:42:33.121267,1709026953.1212673,-25.87890625,909.1796875,477.05078125,-33.69140625,1.0,0.0,-1.0,0.0,6.m4v,2.0
2024-02-27 10:42:33.121267,1709026953.1212673,-25.87890625,909.1796875,477.05078125,-33.69140625,1.0,0.0,-1.0,0.0,6.m4v,2.0
2024-02-27 10:42:33.125173,1709026953.1251729,-17.578125,999.51171875,451.66015625,-35.64453125,1.0,0.0,-1.0,0.0,6.m4v,2.0
2024-02-27 10:42:33.125173,1709026953.1251729,-17.578125,999.51171875,451.66015625,-35.64453125,1.0,0.0,-1.0,0.0,6.m4v,2.0
2024-02-27 10:42:33.129078,1709026953.1290784,-19.04296875,343.75,-155.76171875,-41.50390625,1.0,0.0,-1.0,0.0,6.m4v,2.0
2024-02-27 10:42:33.129078,1709026953.1290784,-19.04296875,343.75,-155.76171875,-41.50390625,1.0,0.0,-1.0,0.0,6.m4v,2.0
2024-02-27 10:42:33.132984,1709026953.132984,-39.0625,-971.19140625,-667.96875,-38.57421875,1.0,0.0,-1.0,0.0,6.m4v,2.0
2024-02-27 10:42:33.132984,1709026953.132984,-39.0625,-971.19140625,-667.96875,-38.57421875,1.0,0.0,-1.0,0.0,6.m4v,2.0
2024-02-27 10:42:33.136889,1709026953.1368897,-59.5703125,-1000.0,-632.8125,-21.97265625,1.0,0.0,-1.0,0.0,6.m4v,2.0
2024-02-27 10:42:33.136889,1709026953.1368897,-59.5703125,-1000.0,-632.8125,-21.97265625,1.0,0.0,-1.0,0.0,6.m4v,2.0
2024-02-27 10:42:33.140795,1709026953.140795,-41.50390625,-959.47265625,-348.6328125,-36.62109375,1.0,0.0,-1.0,0.0,6.m4v,2.0
2024-02-27 10:42:33.140795,1709026953.140795,-41.50390625,-959.47265625,-348.6328125,-36.62109375,1.0,0.0,-1.0,0.0,6.m4v,2.0
2024-02-27 10:42:33.144701,1709026953.1447008,-27.34375,-1000.0,-306.15234375,-55.6640625,1.0,0.0,-1.0,0.0,6.m4v,2.0
2024-02-27 10:42:33.144701,1709026953.1447008,-27.34375,-1000.0,-306.15234375,-55.6640625,1.0,0.0,-1.0,0.0,6.m4v,2.0
2024-02-27 10:42:33.148611,1709026953.1486113,-37.109375,-1000.0,-474.12109375,-36.1328125,1.0,0.0,-1.0,0.0,6.m4v,2.0
2024-02-27 10:42:33.148611,1709026953.1486113,-37.109375,-1000.0,-474.12109375,-36.1328125,1.0,0.0,-1.0,0.0,6.m4v,2.0
2024-02-27 10:42:34.039169,1709026954.0391688,-19.04296875,969.7265625,77.1484375,-33.203125,1.0,0.0,-1.0,0.0,6.m4v,2.0
2024-02-27 10:42:34.043074,1709026954.0430744,-24.90234375,969.7265625,87.890625,-31.73828125,1.0,0.0,-1.0,0.0,6.m4v,2.0
2024-02-27 10:42:34.046980,1709026954.04698,-37.59765625,969.7265625,-114.74609375,-31.25,1.0,0.0,-1.0,0.0,6.m4v,2.0
2024-02-27 10:42:34.050885,1709026954.0508854,-45.8984375,969.7265625,-318.359375,-37.109375,1.0,0.0,-1.0,0.0,6.m4v,2.0
2024-02-27 10:42:34.054791,1709026954.0547912,-33.69140625,970.21484375,-361.81640625,-32.71484375,1.0,0.0,-1.0,0.0,6.m4v,2.0
2024-02-27 10:42:34.058697,1709026954.0586967,-28.80859375,985.83984375,211.9140625,-12.20703125,1.0,0.0,-1.0,0.0,6.m4v,2.0
2024-02-27 10:42:34.062602,1709026954.0626023,-52.734375,907.71484375,455.078125,-15.13671875,1.0,0.0,-1.0,0.0,6.m4v,2.0
2024-02-27 10:42:34.066508,1709026954.0665078,-38.57421875,999.51171875,-36.62109375,-26.3671875,1.0,0.0,-1.0,0.0,6.m4v,2.0
2024-02-27 10:42:34.070413,1709026954.0704134,-34.66796875,776.3671875,-355.46875,-40.52734375,1.0,0.0,-1.0,0.0,6.m4v,2.0
2024-02-27 10:42:34.074319,1709026954.074319,-40.52734375,-679.19921875,-507.32421875,-43.9453125,1.0,0.0,-1.0,0.0,6.m4v,2.0
2024-02-27 10:42:34.078224,1709026954.0782244,-35.64453125,-1000.0,-166.50390625,-49.31640625,1.0,0.0,-1.0,0.0,6.m4v,2.0
2024-02-27 10:42:34.082130,1709026954.0821302,-30.76171875,-930.17578125,95.21484375,-43.45703125,1.0,0.0,-1.0,0.0,6.m4v,2.0
2024-02-27 10:42:34.086040,1709026954.0860398,-20.5078125,-1000.0,-263.18359375,-9.765625,1.0,0.0,-1.0,0.0,6.m4v,2.0
2024-02-27 10:42:34.089945,1709026954.0899453,-34.1796875,-1000.0,-544.921875,-26.85546875,1.0,0.0,-1.0,0.0,6.m4v,2.0
2024-02-27 10:42:34.093851,1709026954.0938509,-50.78125,-978.02734375,-699.70703125,-46.38671875,1.0,0.0,-1.0,0.0,6.m4v,2.0
2024-02-27 10:42:34.097756,1709026954.0977564,-41.015625,-977.5390625,-535.15625,-33.203125,1.0,0.0,-1.0,0.0,6.m4v,2.0
2024-02-27 10:42:34.101662,1709026954.101662,-32.2265625,-1000.0,-256.34765625,-25.390625,1.0,0.0,-1.0,0.0,6.m4v,2.0
2024-02-27 10:42:34.105567,1709026954.1055677,-18.5546875,96.19140625,90.8203125,-29.78515625,1.0,0.0,-1.0,0.0,6.m4v,2.0
2024-02-27 10:42:34.109473,1709026954.109473,-38.0859375,999.51171875,219.7265625,-26.85546875,1.0,0.0,-1.0,0.0,6.m4v,2.0
2024-02-27 10:42:34.113379,1709026954.1133783,-37.59765625,921.38671875,-128.90625,-30.2734375,1.0,0.0,-1.0,0.0,6.m4v,2.0
2024-02-27 10:42:34.117284,1709026954.1172843,-23.4375,963.37890625,-170.41015625,-38.0859375,1.0,0.0,-1.0,0.0,6.m4v,2.0
2024-02-27 10:42:34.121190,1709026954.1211898,-26.3671875,988.28125,-112.79296875,-33.69140625,1.0,0.0,-1.0,0.0,6.m4v,2.0
2024-02-27 10:42:34.125095,1709026954.1250954,-23.4375,902.83203125,-118.1640625,-31.25,1.0,0.0,-1.0,0.0,6.m4v,2.0
2024-02-27 10:42:34.129001,1709026954.129001,-43.45703125,999.51171875,-59.08203125,-30.76171875,1.0,0.0,-1.0,0.0,6.m4v,2.0
2024-02-27 10:42:34.132913,1709026954.1329126,-43.9453125,700.1953125,-347.65625,-41.015625,1.0,0.0,-1.0,0.0,6.m4v,2.0
2024-02-27 10:42:34.136818,1709026954.1368182,-36.62109375,-759.27734375,-410.64453125,-29.78515625,1.0,0.0,-1.0,0.0,6.m4v,2.0
2024-02-27 10:42:34.140724,1709026954.140724,-22.4609375,-1000.0,53.22265625,-24.90234375,1.0,0.0,-1.0,0.0,6.m4v,2.0
2024-02-27 10:42:34.144629,1709026954.1446297,-15.13671875,-872.55859375,-135.7421875,-30.2734375,1.0,0.0,-1.0,0.0,6.m4v,2.0
2024-02-27 10:42:34.148535,1709026954.148535,-38.57421875,-1000.0,-491.2109375,-28.3203125,1.0,0.0,-1.0,0.0,6.m4v,2.0
2024-02-27 10:42:34.152441,1709026954.1524403,-19.04296875,-839.35546875,-91.30859375,-36.1328125,1.0,0.0,-1.0,0.0,6.m4v,2.0
2024-02-27 10:42:34.156346,1709026954.156346,-13.671875,625.0,275.87890625,-22.94921875,1.0,0.0,-1.0,0.0,6.m4v,2.0
2024-02-27 10:42:34.160252,1709026954.1602516,-19.53125,999.51171875,135.7421875,-11.71875,1.0,0.0,-1.0,0.0,6.m4v,2.0
2024-02-27 10:42:34.164157,1709026954.1641572,-24.90234375,846.19140625,11.23046875,-28.3203125,1.0,0.0,-1.0,0.0,6.m4v,2.0
2024-02-27 10:42:34.168063,1709026954.1680627,-34.66796875,999.51171875,-115.234375,-35.15625,1.0,0.0,-1.0,0.0,6.m4v,2.0
2024-02-27 10:42:34.171968,1709026954.1719685,-32.2265625,907.2265625,-396.484375,-41.50390625,1.0,0.0,-1.0,0.0,6.m4v,2.0
2024-02-27 10:42:34.175874,1709026954.175874,-56.640625,-518.06640625,-389.6484375,-55.17578125,1.0,0.0,-1.0,0.0,6.m4v,2.0
2024-02-27 10:42:34.179785,1709026954.1797853,-45.8984375,-1000.0,-168.45703125,-42.48046875,1.0,0.0,-1.0,0.0,6.m4v,2.0
2024-02-27 10:42:34.183691,1709026954.183691,-22.94921875,-928.22265625,-270.01953125,-37.59765625,1.0,0.0,-1.0,0.0,6.m4v,2.0
2024-02-27 10:42:34.183691,1709026954.183691,-22.94921875,-928.22265625,-270.01953125,-37.59765625,1.0,0.0,-1.0,0.0,6.m4v,2.0
2024-02-27 10:42:34.187597,1709026954.1875966,-38.57421875,-1000.0,-519.04296875,-43.45703125,1.0,0.0,-1.0,0.0,6.m4v,2.0
2024-02-27 10:42:34.187597,1709026954.1875966,-38.57421875,-1000.0,-519.04296875,-43.45703125,1.0,0.0,-1.0,0.0,6.m4v,2.0
2024-02-27 10:42:34.191502,1709026954.191502,-45.41015625,-947.265625,-623.046875,-43.9453125,1.0,0.0,-1.0,0.0,6.m4v,2.0
2024-02-27 10:42:34.191502,1709026954.191502,-45.41015625,-947.265625,-623.046875,-43.9453125,1.0,0.0,-1.0,0.0,6.m4v,2.0
2024-02-27 10:42:34.195408,1709026954.1954076,-45.41015625,-1000.0,-389.6484375,-37.109375,1.0,0.0,-1.0,0.0,6.m4v,2.0
2024-02-27 10:42:34.195408,1709026954.1954076,-45.41015625,-1000.0,-389.6484375,-37.109375,1.0,0.0,-1.0,0.0,6.m4v,2.0
2024-02-27 10:42:34.199313,1709026954.1993132,-35.64453125,-240.72265625,277.34375,-37.59765625,1.0,0.0,-1.0,0.0,6.m4v,2.0
2024-02-27 10:42:34.199313,1709026954.1993132,-35.64453125,-240.72265625,277.34375,-37.59765625,1.0,0.0,-1.0,0.0,6.m4v,2.0
2024-02-27 10:42:34.203219,1709026954.2032187,-24.90234375,991.69921875,591.796875,-36.1328125,1.0,0.0,-1.0,0.0,6.m4v,2.0
2024-02-27 10:42:34.203219,1709026954.2032187,-24.90234375,991.69921875,591.796875,-36.1328125,1.0,0.0,-1.0,0.0,6.m4v,2.0
2024-02-27 10:42:34.207124,1709026954.2071242,-30.2734375,966.796875,255.859375,-25.390625,1.0,0.0,-1.0,0.0,6.m4v,2.0
2024-02-27 10:42:34.207124,1709026954.2071242,-30.2734375,966.796875,255.859375,-25.390625,1.0,0.0,-1.0,0.0,6.m4v,2.0
2024-02-27 10:42:34.211030,1709026954.2110298,-45.8984375,939.453125,-241.2109375,-40.0390625,1.0,0.0,-1.0,0.0,6.m4v,2.0
2024-02-27 10:42:34.211030,1709026954.2110298,-45.8984375,939.453125,-241.2109375,-40.0390625,1.0,0.0,-1.0,0.0,6.m4v,2.0
2024-02-27 10:42:34.214936,1709026954.2149355,-58.10546875,978.515625,-317.3828125,-37.59765625,1.0,0.0,-1.0,0.0,6.m4v,2.0
2024-02-27 10:42:34.214936,1709026954.2149355,-58.10546875,978.515625,-317.3828125,-37.59765625,1.0,0.0,-1.0,0.0,6.m4v,2.0
2024-02-27 10:42:34.218841,1709026954.218841,-30.2734375,980.95703125,-82.03125,-27.83203125,1.0,0.0,-1.0,0.0,6.m4v,2.0
2024-02-27 10:42:34.218841,1709026954.218841,-30.2734375,980.95703125,-82.03125,-27.83203125,1.0,0.0,-1.0,0.0,6.m4v,2.0
2024-02-27 10:42:34.222747,1709026954.2227466,-21.97265625,929.19921875,-41.9921875,-45.8984375,1.0,0.0,-1.0,0.0,6.m4v,2.0
2024-02-27 10:42:34.222747,1709026954.2227466,-21.97265625,929.19921875,-41.9921875,-45.8984375,1.0,0.0,-1.0,0.0,6.m4v,2.0
2024-02-27 10:42:34.226657,1709026954.2266574,-34.66796875,982.421875,-129.39453125,-56.640625,1.0,0.0,-1.0,0.0,6.m4v,2.0
2024-02-27 10:42:34.226657,1709026954.2266574,-34.66796875,982.421875,-129.39453125,-56.640625,1.0,0.0,-1.0,0.0,6.m4v,2.0
2024-02-27 10:42:34.230563,1709026954.230563,-36.62109375,971.6796875,-336.42578125,-44.921875,1.0,0.0,-1.0,0.0,6.m4v,2.0
2024-02-27 10:42:34.230563,1709026954.230563,-36.62109375,971.6796875,-336.42578125,-44.921875,1.0,0.0,-1.0,0.0,6.m4v,2.0
2024-02-27 10:42:34.234468,1709026954.2344685,-44.43359375,-383.30078125,-480.46875,-41.50390625,1.0,0.0,-1.0,0.0,6.m4v,2.0
2024-02-27 10:42:34.234468,1709026954.2344685,-44.43359375,-383.30078125,-480.46875,-41.50390625,1.0,0.0,-1.0,0.0,6.m4v,2.0
2024-02-27 10:42:34.238374,1709026954.238374,-45.8984375,-1000.0,-353.02734375,-49.8046875,1.0,0.0,-1.0,0.0,6.m4v,2.0
2024-02-27 10:42:34.238374,1709026954.238374,-45.8984375,-1000.0,-353.02734375,-49.8046875,1.0,0.0,-1.0,0.0,6.m4v,2.0
2024-02-27 10:42:34.242280,1709026954.2422795,-25.390625,-930.17578125,-252.44140625,-37.109375,1.0,0.0,-1.0,0.0,6.m4v,2.0
2024-02-27 10:42:34.242280,1709026954.2422795,-25.390625,-930.17578125,-252.44140625,-37.109375,1.0,0.0,-1.0,0.0,6.m4v,2.0
2024-02-27 10:42:34.246185,1709026954.246185,-19.53125,-1000.0,-26.85546875,-25.87890625,1.0,0.0,-1.0,0.0,6.m4v,2.0
2024-02-27 10:42:34.246185,1709026954.246185,-19.53125,-1000.0,-26.85546875,-25.87890625,1.0,0.0,-1.0,0.0,6.m4v,2.0
2024-02-27 10:42:34.250091,1709026954.2500908,-43.9453125,-1000.0,-33.69140625,-30.76171875,1.0,0.0,-1.0,0.0,6.m4v,2.0
2024-02-27 10:42:34.250091,1709026954.2500908,-43.9453125,-1000.0,-33.69140625,-30.76171875,1.0,0.0,-1.0,0.0,6.m4v,2.0
2024-02-27 10:42:34.253996,1709026954.2539964,-52.734375,-1000.0,-484.86328125,-33.203125,1.0,0.0,-1.0,0.0,6.m4v,2.0
2024-02-27 10:42:34.253996,1709026954.2539964,-52.734375,-1000.0,-484.86328125,-33.203125,1.0,0.0,-1.0,0.0,6.m4v,2.0
2024-02-27 10:42:34.257902,1709026954.257902,-34.66796875,-1000.0,-335.9375,-25.87890625,1.0,0.0,-1.0,0.0,6.m4v,2.0
2024-02-27 10:42:34.257902,1709026954.257902,-34.66796875,-1000.0,-335.9375,-25.87890625,1.0,0.0,-1.0,0.0,6.m4v,2.0
2024-02-27 10:42:34.261807,1709026954.2618074,-19.53125,-1000.0,-25.390625,-34.1796875,1.0,0.0,-1.0,0.0,6.m4v,2.0
2024-02-27 10:42:34.261807,1709026954.2618074,-19.53125,-1000.0,-25.390625,-34.1796875,1.0,0.0,-1.0,0.0,6.m4v,2.0
2024-02-27 10:42:34.265713,1709026954.265713,-42.96875,-1000.0,-317.87109375,-36.1328125,1.0,0.0,-1.0,0.0,6.m4v,2.0
2024-02-27 10:42:34.265713,1709026954.265713,-42.96875,-1000.0,-317.87109375,-36.1328125,1.0,0.0,-1.0,0.0,6.m4v,2.0
2024-02-27 10:42:34.269619,1709026954.2696185,-70.3125,-1000.0,-598.14453125,-26.3671875,1.0,0.0,-1.0,0.0,6.m4v,2.0
2024-02-27 10:42:34.269619,1709026954.2696185,-70.3125,-1000.0,-598.14453125,-26.3671875,1.0,0.0,-1.0,0.0,6.m4v,2.0
2024-02-27 10:42:34.273529,1709026954.2735286,-56.15234375,-1000.0,-549.8046875,-38.0859375,1.0,0.0,-1.0,0.0,6.m4v,2.0
2024-02-27 10:42:34.273529,1709026954.2735286,-56.15234375,-1000.0,-549.8046875,-38.0859375,1.0,0.0,-1.0,0.0,6.m4v,2.0
2024-02-27 10:42:34.277434,1709026954.277434,-33.69140625,-1000.0,-245.60546875,-44.921875,1.0,0.0,-1.0,0.0,6.m4v,2.0
2024-02-27 10:42:34.277434,1709026954.277434,-33.69140625,-1000.0,-245.60546875,-44.921875,1.0,0.0,-1.0,0.0,6.m4v,2.0
2024-02-27 10:42:34.281340,1709026954.28134,-23.92578125,-1000.0,-138.671875,-45.8984375,1.0,0.0,-1.0,0.0,6.m4v,2.0
2024-02-27 10:42:34.281340,1709026954.28134,-23.92578125,-1000.0,-138.671875,-45.8984375,1.0,0.0,-1.0,0.0,6.m4v,2.0
2024-02-27 10:42:34.285245,1709026954.2852454,-31.25,-929.6875,-307.6171875,-43.9453125,1.0,0.0,-1.0,0.0,6.m4v,2.0
2024-02-27 10:42:34.285245,1709026954.2852454,-31.25,-929.6875,-307.6171875,-43.9453125,1.0,0.0,-1.0,0.0,6.m4v,2.0
2024-02-27 10:42:34.289151,1709026954.289151,-36.1328125,-1000.0,-477.05078125,-31.25,1.0,0.0,-1.0,0.0,6.m4v,2.0
2024-02-27 10:42:34.289151,1709026954.289151,-36.1328125,-1000.0,-477.05078125,-31.25,1.0,0.0,-1.0,0.0,6.m4v,2.0
2024-02-27 10:42:34.293056,1709026954.2930565,-29.296875,-598.6328125,-319.3359375,-26.85546875,1.0,0.0,-1.0,0.0,6.m4v,2.0
2024-02-27 10:42:34.293056,1709026954.2930565,-29.296875,-598.6328125,-319.3359375,-26.85546875,1.0,0.0,-1.0,0.0,6.m4v,2.0
2024-02-27 10:42:34.296962,1709026954.296962,-23.92578125,839.84375,235.83984375,-25.390625,1.0,0.0,-1.0,0.0,6.m4v,2.0
2024-02-27 10:42:34.296962,1709026954.296962,-23.92578125,839.84375,235.83984375,-25.390625,1.0,0.0,-1.0,0.0,6.m4v,2.0
2024-02-27 10:42:34.300868,1709026954.3008676,-25.87890625,999.51171875,245.1171875,-32.2265625,1.0,0.0,-1.0,0.0,6.m4v,2.0
2024-02-27 10:42:34.300868,1709026954.3008676,-25.87890625,999.51171875,245.1171875,-32.2265625,1.0,0.0,-1.0,0.0,6.m4v,2.0
2024-02-27 10:42:34.304773,1709026954.304773,-19.04296875,912.109375,-29.78515625,-44.921875,1.0,0.0,-1.0,0.0,6.m4v,2.0
2024-02-27 10:42:34.304773,1709026954.304773,-19.04296875,912.109375,-29.78515625,-44.921875,1.0,0.0,-1.0,0.0,6.m4v,2.0
2024-02-27 10:42:34.308679,1709026954.3086789,-9.27734375,985.3515625,-265.13671875,-36.62109375,1.0,0.0,-1.0,0.0,6.m4v,2.0
2024-02-27 10:42:34.308679,1709026954.3086789,-9.27734375,985.3515625,-265.13671875,-36.62109375,1.0,0.0,-1.0,0.0,6.m4v,2.0
2024-02-27 10:42:34.312584,1709026954.3125844,-27.83203125,970.21484375,-468.26171875,-18.5546875,1.0,0.0,-1.0,0.0,6.m4v,2.0
2024-02-27 10:42:34.312584,1709026954.3125844,-27.83203125,970.21484375,-468.26171875,-18.5546875,1.0,0.0,-1.0,0.0,6.m4v,2.0
2024-02-27 10:42:34.316490,1709026954.31649,-19.04296875,969.7265625,-282.2265625,-20.5078125,1.0,0.0,-1.0,0.0,6.m4v,2.0
2024-02-27 10:42:34.316490,1709026954.31649,-19.04296875,969.7265625,-282.2265625,-20.5078125,1.0,0.0,-1.0,0.0,6.m4v,2.0
2024-02-27 10:42:34.320400,1709026954.3204005,-3.41796875,969.7265625,122.55859375,-30.2734375,1.0,0.0,-1.0,0.0,6.m4v,2.0
2024-02-27 10:42:34.320400,1709026954.3204005,-3.41796875,969.7265625,122.55859375,-30.2734375,1.0,0.0,-1.0,0.0,6.m4v,2.0
2024-02-27 10:42:34.324306,1709026954.324306,-23.92578125,969.7265625,8.7890625,-37.109375,1.0,0.0,-1.0,0.0,6.m4v,2.0
2024-02-27 10:42:34.324306,1709026954.324306,-23.92578125,969.7265625,8.7890625,-37.109375,1.0,0.0,-1.0,0.0,6.m4v,2.0
2024-02-27 10:42:34.328212,1709026954.3282115,-17.578125,969.7265625,-462.890625,-34.1796875,1.0,0.0,-1.0,0.0,6.m4v,2.0
2024-02-27 10:42:34.328212,1709026954.3282115,-17.578125,969.7265625,-462.890625,-34.1796875,1.0,0.0,-1.0,0.0,6.m4v,2.0
2024-02-27 10:42:34.332117,1709026954.332117,-25.390625,969.7265625,-592.7734375,-31.73828125,1.0,0.0,-1.0,0.0,6.m4v,2.0
2024-02-27 10:42:34.332117,1709026954.332117,-25.390625,969.7265625,-592.7734375,-31.73828125,1.0,0.0,-1.0,0.0,6.m4v,2.0
2024-02-27 10:42:34.336023,1709026954.3360226,-53.7109375,972.65625,-305.17578125,-36.62109375,1.0,0.0,-1.0,0.0,6.m4v,2.0
2024-02-27 10:42:34.336023,1709026954.3360226,-53.7109375,972.65625,-305.17578125,-36.62109375,1.0,0.0,-1.0,0.0,6.m4v,2.0
2024-02-27 10:42:34.339928,1709026954.3399284,-46.38671875,965.8203125,103.515625,-43.9453125,1.0,0.0,-1.0,0.0,6.m4v,2.0
2024-02-27 10:42:34.339928,1709026954.3399284,-46.38671875,965.8203125,103.515625,-43.9453125,1.0,0.0,-1.0,0.0,6.m4v,2.0
2024-02-27 10:42:34.343834,1709026954.343834,-21.484375,919.921875,359.375,-27.83203125,1.0,0.0,-1.0,0.0,6.m4v,2.0
2024-02-27 10:42:34.343834,1709026954.343834,-21.484375,919.921875,359.375,-27.83203125,1.0,0.0,-1.0,0.0,6.m4v,2.0
2024-02-27 10:42:34.347739,1709026954.3477397,-20.5078125,999.51171875,143.06640625,-20.5078125,1.0,0.0,-1.0,0.0,6.m4v,2.0
2024-02-27 10:42:34.347739,1709026954.3477397,-20.5078125,999.51171875,143.06640625,-20.5078125,1.0,0.0,-1.0,0.0,6.m4v,2.0
2024-02-27 10:42:34.351645,1709026954.351645,-32.71484375,174.8046875,-359.86328125,-42.96875,1.0,0.0,-1.0,0.0,6.m4v,2.0
2024-02-27 10:42:34.351645,1709026954.351645,-32.71484375,174.8046875,-359.86328125,-42.96875,1.0,0.0,-1.0,0.0,6.m4v,2.0
2024-02-27 10:42:34.355551,1709026954.3555503,-40.52734375,-1000.0,-567.87109375,-37.59765625,1.0,0.0,-1.0,0.0,6.m4v,2.0
2024-02-27 10:42:34.355551,1709026954.3555503,-40.52734375,-1000.0,-567.87109375,-37.59765625,1.0,0.0,-1.0,0.0,6.m4v,2.0
2024-02-27 10:42:34.359456,1709026954.359456,-31.73828125,-992.67578125,-347.16796875,-42.48046875,1.0,0.0,-1.0,0.0,6.m4v,2.0
2024-02-27 10:42:34.359456,1709026954.359456,-31.73828125,-992.67578125,-347.16796875,-42.48046875,1.0,0.0,-1.0,0.0,6.m4v,2.0
2024-02-27 10:42:34.363362,1709026954.3633616,-18.06640625,-972.16796875,-273.4375,-59.5703125,1.0,0.0,-1.0,0.0,6.m4v,2.0
2024-02-27 10:42:34.363362,1709026954.3633616,-18.06640625,-972.16796875,-273.4375,-59.5703125,1.0,0.0,-1.0,0.0,6.m4v,2.0
2024-02-27 10:42:34.367271,1709026954.3672714,-32.2265625,-1000.0,-438.96484375,-41.9921875,1.0,0.0,-1.0,0.0,6.m4v,2.0
2024-02-27 10:42:34.367271,1709026954.3672714,-32.2265625,-1000.0,-438.96484375,-41.9921875,1.0,0.0,-1.0,0.0,6.m4v,2.0
2024-02-27 10:42:34.371177,1709026954.371177,-60.546875,-934.5703125,-522.4609375,-33.203125,1.0,0.0,-1.0,0.0,6.m4v,2.0
2024-02-27 10:42:34.371177,1709026954.371177,-60.546875,-934.5703125,-522.4609375,-33.203125,1.0,0.0,-1.0,0.0,6.m4v,2.0
2024-02-27 10:42:34.375082,1709026954.3750825,-49.31640625,-1000.0,-408.203125,-30.2734375,1.0,0.0,-1.0,0.0,6.m4v,2.0
2024-02-27 10:42:34.375082,1709026954.3750825,-49.31640625,-1000.0,-408.203125,-30.2734375,1.0,0.0,-1.0,0.0,6.m4v,2.0
2024-02-27 10:42:34.378988,1709026954.378988,-14.16015625,-788.0859375,-7.8125,-16.6015625,1.0,0.0,-1.0,0.0,6.m4v,2.0
2024-02-27 10:42:34.378988,1709026954.378988,-14.16015625,-788.0859375,-7.8125,-16.6015625,1.0,0.0,-1.0,0.0,6.m4v,2.0
2024-02-27 10:42:34.382894,1709026954.3828936,-10.7421875,684.5703125,284.66796875,-20.01953125,1.0,0.0,-1.0,0.0,6.m4v,2.0
2024-02-27 10:42:34.382894,1709026954.3828936,-10.7421875,684.5703125,284.66796875,-20.01953125,1.0,0.0,-1.0,0.0,6.m4v,2.0
2024-02-27 10:42:34.386799,1709026954.386799,-21.484375,999.51171875,353.515625,-37.109375,1.0,0.0,-1.0,0.0,6.m4v,2.0
2024-02-27 10:42:34.386799,1709026954.386799,-21.484375,999.51171875,353.515625,-37.109375,1.0,0.0,-1.0,0.0,6.m4v,2.0
2024-02-27 10:42:34.390705,1709026954.3907046,-27.34375,899.90234375,242.1875,-46.875,1.0,0.0,-1.0,0.0,6.m4v,2.0
2024-02-27 10:42:34.390705,1709026954.3907046,-27.34375,899.90234375,242.1875,-46.875,1.0,0.0,-1.0,0.0,6.m4v,2.0
2024-02-27 10:42:34.394610,1709026954.3946104,-29.296875,986.81640625,-201.171875,-39.0625,1.0,0.0,-1.0,0.0,6.m4v,2.0
2024-02-27 10:42:34.394610,1709026954.3946104,-29.296875,986.81640625,-201.171875,-39.0625,1.0,0.0,-1.0,0.0,6.m4v,2.0
2024-02-27 10:42:34.398516,1709026954.398516,-22.4609375,969.7265625,-149.4140625,-31.73828125,1.0,0.0,-1.0,0.0,6.m4v,2.0
2024-02-27 10:42:34.398516,1709026954.398516,-22.4609375,969.7265625,-149.4140625,-31.73828125,1.0,0.0,-1.0,0.0,6.m4v,2.0
2024-02-27 10:42:34.402421,1709026954.4024217,-38.0859375,969.7265625,34.66796875,-38.0859375,1.0,0.0,-1.0,0.0,6.m4v,2.0
2024-02-27 10:42:34.402421,1709026954.4024217,-38.0859375,969.7265625,34.66796875,-38.0859375,1.0,0.0,-1.0,0.0,6.m4v,2.0
2024-02-27 10:42:34.406327,1709026954.406327,-50.78125,970.21484375,-131.8359375,-42.48046875,1.0,0.0,-1.0,0.0,6.m4v,2.0
2024-02-27 10:42:34.406327,1709026954.406327,-50.78125,970.21484375,-131.8359375,-42.48046875,1.0,0.0,-1.0,0.0,6.m4v,2.0
2024-02-27 10:42:34.410233,1709026954.4102323,-38.57421875,969.7265625,-382.8125,-37.59765625,1.0,0.0,-1.0,0.0,6.m4v,2.0
2024-02-27 10:42:34.410233,1709026954.4102323,-38.57421875,969.7265625,-382.8125,-37.59765625,1.0,0.0,-1.0,0.0,6.m4v,2.0
2024-02-27 10:42:34.414142,1709026954.414142,-52.24609375,969.7265625,-369.62890625,-42.96875,1.0,0.0,-1.0,0.0,6.m4v,2.0
2024-02-27 10:42:34.414142,1709026954.414142,-52.24609375,969.7265625,-369.62890625,-42.96875,1.0,0.0,-1.0,0.0,6.m4v,2.0
2024-02-27 10:42:34.418047,1709026954.4180474,-58.10546875,969.7265625,-15.13671875,-36.1328125,1.0,0.0,-1.0,0.0,6.m4v,2.0
2024-02-27 10:42:34.418047,1709026954.4180474,-58.10546875,969.7265625,-15.13671875,-36.1328125,1.0,0.0,-1.0,0.0,6.m4v,2.0
2024-02-27 10:42:34.421953,1709026954.421953,-29.78515625,969.7265625,98.6328125,-17.578125,1.0,0.0,-1.0,0.0,6.m4v,2.0
2024-02-27 10:42:34.421953,1709026954.421953,-29.78515625,969.7265625,98.6328125,-17.578125,1.0,0.0,-1.0,0.0,6.m4v,2.0
2024-02-27 10:42:34.425859,1709026954.4258587,-19.04296875,969.7265625,-167.48046875,-21.484375,1.0,0.0,-1.0,0.0,6.m4v,2.0
2024-02-27 10:42:34.425859,1709026954.4258587,-19.04296875,969.7265625,-167.48046875,-21.484375,1.0,0.0,-1.0,0.0,6.m4v,2.0
2024-02-27 10:42:34.429764,1709026954.4297645,-40.0390625,986.328125,-353.02734375,-33.203125,1.0,0.0,-1.0,0.0,6.m4v,2.0
2024-02-27 10:42:34.429764,1709026954.4297645,-40.0390625,986.328125,-353.02734375,-33.203125,1.0,0.0,-1.0,0.0,6.m4v,2.0
2024-02-27 10:42:34.433670,1709026954.4336698,-47.8515625,911.62109375,-27.83203125,-34.66796875,1.0,0.0,-1.0,0.0,6.m4v,2.0
2024-02-27 10:42:34.433670,1709026954.4336698,-47.8515625,911.62109375,-27.83203125,-34.66796875,1.0,0.0,-1.0,0.0,6.m4v,2.0
2024-02-27 10:42:34.437575,1709026954.437575,-35.64453125,999.51171875,392.578125,-21.484375,1.0,0.0,-1.0,0.0,6.m4v,2.0
2024-02-27 10:42:34.437575,1709026954.437575,-35.64453125,999.51171875,392.578125,-21.484375,1.0,0.0,-1.0,0.0,6.m4v,2.0
2024-02-27 10:42:34.441481,1709026954.4414809,-38.57421875,856.93359375,304.6875,-30.76171875,1.0,0.0,-1.0,0.0,6.m4v,2.0
2024-02-27 10:42:34.441481,1709026954.4414809,-38.57421875,856.93359375,304.6875,-30.76171875,1.0,0.0,-1.0,0.0,6.m4v,2.0
2024-02-27 10:42:34.445386,1709026954.4453864,-45.8984375,-601.5625,-214.84375,-51.26953125,1.0,0.0,-1.0,0.0,6.m4v,2.0
2024-02-27 10:42:34.445386,1709026954.4453864,-45.8984375,-601.5625,-214.84375,-51.26953125,1.0,0.0,-1.0,0.0,6.m4v,2.0
2024-02-27 10:42:34.449292,1709026954.449292,-64.94140625,-1000.0,-599.12109375,-59.08203125,1.0,0.0,-1.0,0.0,6.m4v,2.0
2024-02-27 10:42:34.449292,1709026954.449292,-64.94140625,-1000.0,-599.12109375,-59.08203125,1.0,0.0,-1.0,0.0,6.m4v,2.0
2024-02-27 10:42:34.453198,1709026954.4531977,-62.5,-925.78125,-611.328125,-39.0625,1.0,0.0,-1.0,0.0,6.m4v,2.0
2024-02-27 10:42:34.453198,1709026954.4531977,-62.5,-925.78125,-611.328125,-39.0625,1.0,0.0,-1.0,0.0,6.m4v,2.0
2024-02-27 10:42:34.457103,1709026954.4571033,-41.50390625,-1000.0,-357.421875,-25.87890625,1.0,0.0,-1.0,0.0,6.m4v,2.0
2024-02-27 10:42:34.457103,1709026954.4571033,-41.50390625,-1000.0,-357.421875,-25.87890625,1.0,0.0,-1.0,0.0,6.m4v,2.0
2024-02-27 10:42:34.461015,1709026954.461015,-30.2734375,-1000.0,-175.78125,-22.94921875,1.0,0.0,-1.0,0.0,6.m4v,2.0
2024-02-27 10:42:34.461015,1709026954.461015,-30.2734375,-1000.0,-175.78125,-22.94921875,1.0,0.0,-1.0,0.0,6.m4v,2.0
2024-02-27 10:42:34.464921,1709026954.4649203,-18.06640625,-1000.0,-248.046875,-20.5078125,1.0,0.0,-1.0,0.0,6.m4v,2.0
2024-02-27 10:42:34.464921,1709026954.4649203,-18.06640625,-1000.0,-248.046875,-20.5078125,1.0,0.0,-1.0,0.0,6.m4v,2.0
2024-02-27 10:42:34.468826,1709026954.468826,-38.57421875,-1000.0,-318.359375,-44.43359375,1.0,0.0,-1.0,0.0,6.m4v,2.0
2024-02-27 10:42:34.468826,1709026954.468826,-38.57421875,-1000.0,-318.359375,-44.43359375,1.0,0.0,-1.0,0.0,6.m4v,2.0
2024-02-27 10:42:34.472732,1709026954.4727316,-59.5703125,-936.03515625,-274.90234375,-43.9453125,1.0,0.0,-1.0,0.0,6.m4v,2.0
2024-02-27 10:42:34.472732,1709026954.4727316,-59.5703125,-936.03515625,-274.90234375,-43.9453125,1.0,0.0,-1.0,0.0,6.m4v,2.0
2024-02-27 10:42:34.476637,1709026954.4766371,-53.22265625,-1000.0,-130.37109375,-33.203125,1.0,0.0,-1.0,0.0,6.m4v,2.0
2024-02-27 10:42:34.476637,1709026954.4766371,-53.22265625,-1000.0,-130.37109375,-33.203125,1.0,0.0,-1.0,0.0,6.m4v,2.0
2024-02-27 10:42:34.480543,1709026954.480543,-29.296875,-395.99609375,328.125,-29.78515625,1.0,0.0,-1.0,0.0,6.m4v,2.0
2024-02-27 10:42:34.480543,1709026954.480543,-29.296875,-395.99609375,328.125,-29.78515625,1.0,0.0,-1.0,0.0,6.m4v,2.0
2024-02-27 10:42:34.484448,1709026954.4844484,-27.34375,941.40625,698.73046875,-8.7890625,1.0,0.0,-1.0,0.0,6.m4v,2.0
2024-02-27 10:42:34.484448,1709026954.4844484,-27.34375,941.40625,698.73046875,-8.7890625,1.0,0.0,-1.0,0.0,6.m4v,2.0
2024-02-27 10:42:34.488354,1709026954.488354,-41.015625,990.234375,265.625,-5.37109375,1.0,0.0,-1.0,0.0,6.m4v,2.0
2024-02-27 10:42:34.488354,1709026954.488354,-41.015625,990.234375,265.625,-5.37109375,1.0,0.0,-1.0,0.0,6.m4v,2.0
2024-02-27 10:42:34.492260,1709026954.4922595,-34.1796875,927.734375,-126.953125,-26.3671875,1.0,0.0,-1.0,0.0,6.m4v,2.0
2024-02-27 10:42:34.492260,1709026954.4922595,-34.1796875,927.734375,-126.953125,-26.3671875,1.0,0.0,-1.0,0.0,6.m4v,2.0
2024-02-27 10:42:34.496165,1709026954.496165,-39.0625,981.4453125,-82.51953125,-29.78515625,1.0,0.0,-1.0,0.0,6.m4v,2.0
2024-02-27 10:42:34.496165,1709026954.496165,-39.0625,981.4453125,-82.51953125,-29.78515625,1.0,0.0,-1.0,0.0,6.m4v,2.0
2024-02-27 10:42:34.500071,1709026954.5000706,-38.57421875,969.7265625,271.97265625,-35.64453125,1.0,0.0,-1.0,0.0,6.m4v,2.0
2024-02-27 10:42:34.500071,1709026954.5000706,-38.57421875,969.7265625,271.97265625,-35.64453125,1.0,0.0,-1.0,0.0,6.m4v,2.0
2024-02-27 10:42:34.503976,1709026954.503976,-57.6171875,986.328125,318.84765625,-55.6640625,1.0,0.0,-1.0,0.0,6.m4v,2.0
2024-02-27 10:42:34.503976,1709026954.503976,-57.6171875,986.328125,318.84765625,-55.6640625,1.0,0.0,-1.0,0.0,6.m4v,2.0
2024-02-27 10:42:34.511793,1709026954.5117931,-32.2265625,999.51171875,-186.03515625,-37.109375,1.0,0.0,-1.0,0.0,6.m4v,2.0
2024-02-27 10:42:34.511793,1709026954.5117931,-32.2265625,999.51171875,-186.03515625,-37.109375,1.0,0.0,-1.0,0.0,6.m4v,2.0
2024-02-27 10:42:34.519604,1709026954.5196042,-51.26953125,-622.55859375,88.37890625,-49.31640625,1.0,0.0,-1.0,0.0,6.m4v,2.0
2024-02-27 10:42:34.519604,1709026954.5196042,-51.26953125,-622.55859375,88.37890625,-49.31640625,1.0,0.0,-1.0,0.0,6.m4v,2.0
2024-02-27 10:42:34.527416,1709026954.5274155,-47.36328125,-926.26953125,99.609375,-53.7109375,1.0,0.0,-1.0,0.0,6.m4v,2.0
2024-02-27 10:42:34.527416,1709026954.5274155,-47.36328125,-926.26953125,99.609375,-53.7109375,1.0,0.0,-1.0,0.0,6.m4v,2.0
2024-02-27 10:42:34.535227,1709026954.5352266,-36.62109375,-1000.0,115.72265625,-22.94921875,1.0,0.0,-1.0,0.0,6.m4v,2.0
2024-02-27 10:42:34.535227,1709026954.5352266,-36.62109375,-1000.0,115.72265625,-22.94921875,1.0,0.0,-1.0,0.0,6.m4v,2.0
2024-02-27 10:42:34.543038,1709026954.5430377,-37.109375,-1000.0,134.27734375,-32.2265625,1.0,0.0,-1.0,0.0,6.m4v,2.0
2024-02-27 10:42:34.543038,1709026954.5430377,-37.109375,-1000.0,134.27734375,-32.2265625,1.0,0.0,-1.0,0.0,6.m4v,2.0
2024-02-27 10:42:34.550849,1709026954.5508487,-31.25,-937.98828125,170.8984375,-41.50390625,1.0,0.0,-1.0,0.0,6.m4v,2.0
2024-02-27 10:42:34.550849,1709026954.5508487,-31.25,-937.98828125,170.8984375,-41.50390625,1.0,0.0,-1.0,0.0,6.m4v,2.0
2024-02-27 10:42:34.558666,1709026954.558666,-63.4765625,-837.40234375,460.44921875,-48.828125,1.0,0.0,-1.0,0.0,6.m4v,2.0
2024-02-27 10:42:34.558666,1709026954.558666,-63.4765625,-837.40234375,460.44921875,-48.828125,1.0,0.0,-1.0,0.0,6.m4v,2.0
2024-02-27 10:42:34.566477,1709026954.566477,-29.296875,999.51171875,528.80859375,-18.5546875,1.0,0.0,-1.0,0.0,6.m4v,2.0
2024-02-27 10:42:34.566477,1709026954.566477,-29.296875,999.51171875,528.80859375,-18.5546875,1.0,0.0,-1.0,0.0,6.m4v,2.0
2024-02-27 10:42:34.574288,1709026954.574288,-26.3671875,986.328125,709.9609375,-39.0625,1.0,0.0,-1.0,0.0,6.m4v,2.0
2024-02-27 10:42:34.574288,1709026954.574288,-26.3671875,986.328125,709.9609375,-39.0625,1.0,0.0,-1.0,0.0,6.m4v,2.0
2024-02-27 10:42:34.582099,1709026954.5820992,-40.52734375,969.7265625,770.5078125,-42.48046875,1.0,0.0,-1.0,0.0,6.m4v,2.0
2024-02-27 10:42:34.582099,1709026954.5820992,-40.52734375,969.7265625,770.5078125,-42.48046875,1.0,0.0,-1.0,0.0,6.m4v,2.0
2024-02-27 10:42:34.589911,1709026954.5899105,-23.92578125,969.7265625,342.28515625,-25.87890625,1.0,0.0,-1.0,0.0,6.m4v,2.0
2024-02-27 10:42:34.589911,1709026954.5899105,-23.92578125,969.7265625,342.28515625,-25.87890625,1.0,0.0,-1.0,0.0,6.m4v,2.0
2024-02-27 10:42:34.597722,1709026954.5977216,-43.45703125,969.7265625,498.046875,-43.9453125,1.0,0.0,-1.0,0.0,6.m4v,2.0
2024-02-27 10:42:34.597722,1709026954.5977216,-43.45703125,969.7265625,498.046875,-43.9453125,1.0,0.0,-1.0,0.0,6.m4v,2.0
2024-02-27 10:42:34.605538,1709026954.605538,-7.8125,969.7265625,385.7421875,-32.71484375,1.0,0.0,-1.0,0.0,6.m4v,2.0
2024-02-27 10:42:34.613349,1709026954.613349,-32.71484375,969.7265625,329.58984375,-44.921875,1.0,0.0,-1.0,0.0,6.m4v,2.0
2024-02-27 10:42:34.621160,1709026954.62116,-19.04296875,910.15625,804.19921875,-27.34375,1.0,0.0,-1.0,0.0,6.m4v,2.0
2024-02-27 10:42:35.074255,1709026955.074255,-17.08984375,969.7265625,-41.9921875,-32.2265625,1.0,0.0,-1.0,0.0,6.m4v,2.0
2024-02-27 10:42:35.078161,1709026955.0781603,5.37109375,970.21484375,191.89453125,-24.90234375,1.0,0.0,-1.0,0.0,6.m4v,2.0
2024-02-27 10:42:35.082066,1709026955.082066,-7.8125,969.7265625,100.09765625,-22.94921875,1.0,0.0,-1.0,0.0,6.m4v,2.0
2024-02-27 10:42:35.085972,1709026955.0859716,-20.01953125,969.7265625,-182.6171875,-25.87890625,1.0,0.0,-1.0,0.0,6.m4v,2.0
2024-02-27 10:42:35.089877,1709026955.0898771,2.44140625,969.7265625,87.40234375,-14.6484375,1.0,0.0,-1.0,0.0,6.m4v,2.0
2024-02-27 10:42:35.093783,1709026955.093783,-17.08984375,985.3515625,244.140625,-15.625,1.0,0.0,-1.0,0.0,6.m4v,2.0
2024-02-27 10:42:35.097688,1709026955.0976882,-25.87890625,915.52734375,169.43359375,-30.2734375,1.0,0.0,-1.0,0.0,6.m4v,2.0
2024-02-27 10:42:35.101594,1709026955.101594,-8.30078125,999.51171875,333.0078125,-48.33984375,1.0,0.0,-1.0,0.0,6.m4v,2.0
2024-02-27 10:42:35.105500,1709026955.1054995,-10.7421875,886.71875,35.15625,-41.50390625,1.0,0.0,-1.0,0.0,6.m4v,2.0
2024-02-27 10:42:35.109405,1709026955.109405,-14.16015625,-554.19921875,-456.0546875,-34.66796875,1.0,0.0,-1.0,0.0,6.m4v,2.0
2024-02-27 10:42:35.113311,1709026955.1133106,-26.3671875,-1000.0,-585.9375,-33.203125,1.0,0.0,-1.0,0.0,6.m4v,2.0
2024-02-27 10:42:35.117220,1709026955.1172204,-10.7421875,-925.78125,-390.13671875,-34.66796875,1.0,0.0,-1.0,0.0,6.m4v,2.0
2024-02-27 10:42:35.121126,1709026955.121126,-9.27734375,-1000.0,-297.8515625,-31.73828125,1.0,0.0,-1.0,0.0,6.m4v,2.0
2024-02-27 10:42:35.125031,1709026955.1250317,-24.4140625,-1000.0,-267.08984375,-40.52734375,1.0,0.0,-1.0,0.0,6.m4v,2.0
2024-02-27 10:42:35.128937,1709026955.128937,-19.53125,-934.5703125,-323.2421875,-56.640625,1.0,0.0,-1.0,0.0,6.m4v,2.0
2024-02-27 10:42:35.132843,1709026955.1328428,-14.6484375,-1000.0,-410.64453125,-42.96875,1.0,0.0,-1.0,0.0,6.m4v,2.0
2024-02-27 10:42:35.136748,1709026955.1367483,-5.859375,-438.96484375,158.203125,-19.04296875,1.0,0.0,-1.0,0.0,6.m4v,2.0
2024-02-27 10:42:35.140654,1709026955.1406538,-4.39453125,920.41015625,712.890625,-23.4375,1.0,0.0,-1.0,0.0,6.m4v,2.0
2024-02-27 10:42:35.144559,1709026955.1445594,-20.01953125,998.046875,332.03125,-47.36328125,1.0,0.0,-1.0,0.0,6.m4v,2.0
2024-02-27 10:42:35.148465,1709026955.148465,-15.13671875,923.828125,-127.44140625,-38.57421875,1.0,0.0,-1.0,0.0,6.m4v,2.0
2024-02-27 10:42:35.152370,1709026955.1523705,-20.99609375,982.421875,-270.01953125,-27.83203125,1.0,0.0,-1.0,0.0,6.m4v,2.0
2024-02-27 10:42:35.156276,1709026955.156276,-31.73828125,970.21484375,-51.26953125,-33.69140625,1.0,0.0,-1.0,0.0,6.m4v,2.0
2024-02-27 10:42:35.160182,1709026955.1601818,-31.25,969.7265625,391.11328125,-25.87890625,1.0,0.0,-1.0,0.0,6.m4v,2.0
2024-02-27 10:42:35.164092,1709026955.1640916,-20.01953125,969.7265625,241.2109375,-17.578125,1.0,0.0,-1.0,0.0,6.m4v,2.0
2024-02-27 10:42:35.167997,1709026955.1679971,-20.5078125,969.7265625,-269.04296875,-26.85546875,1.0,0.0,-1.0,0.0,6.m4v,2.0
2024-02-27 10:42:35.171903,1709026955.171903,-37.59765625,969.7265625,-402.34375,-45.41015625,1.0,0.0,-1.0,0.0,6.m4v,2.0
2024-02-27 10:42:35.175808,1709026955.1758082,-34.66796875,969.7265625,-233.3984375,-41.9921875,1.0,0.0,-1.0,0.0,6.m4v,2.0
2024-02-27 10:42:35.179714,1709026955.1797135,-33.69140625,986.328125,-109.86328125,-50.29296875,1.0,0.0,-1.0,0.0,6.m4v,2.0
2024-02-27 10:42:35.183619,1709026955.1836195,-43.9453125,909.66796875,168.45703125,-42.48046875,1.0,0.0,-1.0,0.0,6.m4v,2.0
2024-02-27 10:42:35.187525,1709026955.187525,-33.203125,999.51171875,444.82421875,-15.13671875,1.0,0.0,-1.0,0.0,6.m4v,2.0
2024-02-27 10:42:35.191431,1709026955.1914306,-35.64453125,828.125,-54.6875,-23.92578125,1.0,0.0,-1.0,0.0,6.m4v,2.0
2024-02-27 10:42:35.195336,1709026955.195336,-46.875,-633.30078125,-380.37109375,-45.8984375,1.0,0.0,-1.0,0.0,6.m4v,2.0
2024-02-27 10:42:35.199242,1709026955.1992416,-32.2265625,-1000.0,-208.984375,-49.31640625,1.0,0.0,-1.0,0.0,6.m4v,2.0
2024-02-27 10:42:35.203147,1709026955.2031472,-26.85546875,-927.24609375,-249.0234375,-23.4375,1.0,0.0,-1.0,0.0,6.m4v,2.0
2024-02-27 10:42:35.207053,1709026955.2070527,-46.38671875,-1000.0,-492.67578125,-40.0390625,1.0,0.0,-1.0,0.0,6.m4v,2.0
2024-02-27 10:42:35.210962,1709026955.2109616,-53.7109375,-947.265625,-632.8125,-47.8515625,1.0,0.0,-1.0,0.0,6.m4v,2.0
2024-02-27 10:42:35.214867,1709026955.214867,-34.1796875,-1000.0,-575.1953125,-31.25,1.0,0.0,-1.0,0.0,6.m4v,2.0
2024-02-27 10:42:35.218773,1709026955.2187726,-15.625,-927.24609375,-130.37109375,-34.1796875,1.0,0.0,-1.0,0.0,6.m4v,2.0
2024-02-27 10:42:35.222678,1709026955.2226784,-7.8125,505.37109375,219.23828125,-33.69140625,1.0,0.0,-1.0,0.0,6.m4v,2.0
2024-02-27 10:42:35.226584,1709026955.226584,-5.859375,999.51171875,-189.94140625,-22.4609375,1.0,0.0,-1.0,0.0,6.m4v,2.0
2024-02-27 10:42:35.230489,1709026955.2304895,-22.94921875,895.5078125,-142.578125,-28.80859375,1.0,0.0,-1.0,0.0,6.m4v,2.0
2024-02-27 10:42:35.234395,1709026955.234395,-20.01953125,983.88671875,320.3125,-34.1796875,1.0,0.0,-1.0,0.0,6.m4v,2.0
2024-02-27 10:42:35.238301,1709026955.2383006,-8.7890625,984.86328125,233.3984375,-23.92578125,1.0,0.0,-1.0,0.0,6.m4v,2.0
2024-02-27 10:42:35.242206,1709026955.242206,-22.4609375,916.9921875,29.78515625,-17.578125,1.0,0.0,-1.0,0.0,6.m4v,2.0
2024-02-27 10:42:35.246112,1709026955.2461116,-23.92578125,999.51171875,-129.8828125,-39.55078125,1.0,0.0,-1.0,0.0,6.m4v,2.0
2024-02-27 10:42:35.250017,1709026955.2500174,-22.94921875,896.97265625,-406.25,-51.26953125,1.0,0.0,-1.0,0.0,6.m4v,2.0
2024-02-27 10:42:35.253923,1709026955.253923,-39.0625,-536.62109375,-528.3203125,-51.26953125,1.0,0.0,-1.0,0.0,6.m4v,2.0
2024-02-27 10:42:35.257835,1709026955.257835,-40.0390625,-1000.0,-315.4296875,-52.24609375,1.0,0.0,-1.0,0.0,6.m4v,2.0
2024-02-27 10:42:35.261740,1709026955.2617402,-15.625,-925.78125,-274.90234375,-34.1796875,1.0,0.0,-1.0,0.0,6.m4v,2.0
2024-02-27 10:42:35.265646,1709026955.2656455,-8.7890625,-1000.0,-379.8828125,-10.7421875,1.0,0.0,-1.0,0.0,6.m4v,2.0
2024-02-27 10:42:35.269551,1709026955.2695513,-14.16015625,-944.3359375,-434.08203125,-29.296875,1.0,0.0,-1.0,0.0,6.m4v,2.0
2024-02-27 10:42:35.273457,1709026955.2734568,-40.0390625,-1000.0,-495.1171875,-46.875,1.0,0.0,-1.0,0.0,6.m4v,2.0
2024-02-27 10:42:35.277362,1709026955.2773623,-48.828125,-907.71484375,-128.90625,-32.71484375,1.0,0.0,-1.0,0.0,6.m4v,2.0
2024-02-27 10:42:35.281268,1709026955.281268,-17.08984375,540.52734375,487.3046875,-25.390625,1.0,0.0,-1.0,0.0,6.m4v,2.0
2024-02-27 10:42:35.285174,1709026955.2851737,-14.6484375,999.51171875,428.22265625,-15.13671875,1.0,0.0,-1.0,0.0,6.m4v,2.0
2024-02-27 10:42:35.289079,1709026955.2890792,-29.78515625,895.01953125,-252.44140625,-22.94921875,1.0,0.0,-1.0,0.0,6.m4v,2.0
2024-02-27 10:42:35.292985,1709026955.2929847,-50.29296875,984.86328125,-539.0625,-40.52734375,1.0,0.0,-1.0,0.0,6.m4v,2.0
2024-02-27 10:42:35.296890,1709026955.2968905,-47.36328125,969.7265625,-277.34375,-34.66796875,1.0,0.0,-1.0,0.0,6.m4v,2.0
2024-02-27 10:42:35.300796,1709026955.3007958,-41.015625,969.7265625,-184.5703125,-21.97265625,1.0,0.0,-1.0,0.0,6.m4v,2.0
2024-02-27 10:42:35.304707,1709026955.3047073,-41.015625,969.7265625,-275.87890625,-38.0859375,1.0,0.0,-1.0,0.0,6.m4v,2.0
2024-02-27 10:42:35.308613,1709026955.3086128,-37.59765625,969.7265625,-321.77734375,-41.9921875,1.0,0.0,-1.0,0.0,6.m4v,2.0
2024-02-27 10:42:35.312518,1709026955.3125184,-62.01171875,969.7265625,-388.18359375,-12.20703125,1.0,0.0,-1.0,0.0,6.m4v,2.0
2024-02-27 10:42:35.316424,1709026955.316424,-55.17578125,969.7265625,-247.0703125,-11.71875,1.0,0.0,-1.0,0.0,6.m4v,2.0
2024-02-27 10:42:35.320329,1709026955.3203294,-27.83203125,983.3984375,-20.01953125,-33.69140625,1.0,0.0,-1.0,0.0,6.m4v,2.0
2024-02-27 10:42:35.324235,1709026955.3242352,-19.53125,921.875,219.23828125,-29.78515625,1.0,0.0,-1.0,0.0,6.m4v,2.0
2024-02-27 10:42:35.328141,1709026955.3281407,-13.18359375,999.51171875,145.5078125,-31.25,1.0,0.0,-1.0,0.0,6.m4v,2.0
2024-02-27 10:42:35.332046,1709026955.3320465,-33.69140625,929.6875,-228.515625,-29.78515625,1.0,0.0,-1.0,0.0,6.m4v,2.0
2024-02-27 10:42:35.335952,1709026955.3359518,-82.51953125,-475.5859375,-386.23046875,-29.78515625,1.0,0.0,-1.0,0.0,6.m4v,2.0
2024-02-27 10:42:35.339857,1709026955.339857,-65.91796875,-1000.0,-265.625,-46.875,1.0,0.0,-1.0,0.0,6.m4v,2.0
2024-02-27 10:42:35.343763,1709026955.3437629,-27.83203125,-926.7578125,-289.55078125,-45.41015625,1.0,0.0,-1.0,0.0,6.m4v,2.0
2024-02-27 10:42:35.347668,1709026955.3476684,-43.9453125,-1000.0,-638.18359375,-37.109375,1.0,0.0,-1.0,0.0,6.m4v,2.0
2024-02-27 10:42:35.351579,1709026955.3515794,-62.5,-1000.0,-706.0546875,-42.48046875,1.0,0.0,-1.0,0.0,6.m4v,2.0
2024-02-27 10:42:35.355485,1709026955.355485,-60.546875,-1000.0,-532.2265625,-36.62109375,1.0,0.0,-1.0,0.0,6.m4v,2.0
2024-02-27 10:42:35.359390,1709026955.3593905,-43.9453125,-1000.0,-347.16796875,-34.1796875,1.0,0.0,-1.0,0.0,6.m4v,2.0
2024-02-27 10:42:35.363296,1709026955.363296,-35.15625,-937.01171875,-332.51953125,-43.45703125,1.0,0.0,-1.0,0.0,6.m4v,2.0
2024-02-27 10:42:35.367202,1709026955.3672016,-53.22265625,-1000.0,-478.515625,-39.55078125,1.0,0.0,-1.0,0.0,6.m4v,2.0
2024-02-27 10:42:35.371107,1709026955.371107,-53.22265625,-500.0,-310.546875,-36.62109375,1.0,0.0,-1.0,0.0,6.m4v,2.0
2024-02-27 10:42:35.375013,1709026955.3750126,-41.015625,869.62890625,19.53125,-25.87890625,1.0,0.0,-1.0,0.0,6.m4v,2.0
2024-02-27 10:42:35.378918,1709026955.3789184,-51.7578125,999.51171875,-58.10546875,-24.4140625,1.0,0.0,-1.0,0.0,6.m4v,2.0
2024-02-27 10:42:35.382824,1709026955.382824,-53.22265625,919.43359375,-277.83203125,-23.92578125,1.0,0.0,-1.0,0.0,6.m4v,2.0
2024-02-27 10:42:35.386729,1709026955.3867297,-41.50390625,983.88671875,-411.62109375,-15.13671875,1.0,0.0,-1.0,0.0,6.m4v,2.0
2024-02-27 10:42:35.390635,1709026955.390635,-40.52734375,969.7265625,-402.83203125,-22.4609375,1.0,0.0,-1.0,0.0,6.m4v,2.0
2024-02-27 10:42:35.394541,1709026955.3945403,-50.29296875,969.7265625,-200.68359375,-28.3203125,1.0,0.0,-1.0,0.0,6.m4v,2.0
2024-02-27 10:42:35.398452,1709026955.3984516,-25.87890625,979.98046875,49.8046875,-36.1328125,1.0,0.0,-1.0,0.0,6.m4v,2.0
2024-02-27 10:42:35.402357,1709026955.402357,-34.66796875,932.12890625,168.9453125,-49.31640625,1.0,0.0,-1.0,0.0,6.m4v,2.0
2024-02-27 10:42:35.406263,1709026955.4062626,-33.69140625,976.07421875,-127.9296875,-23.4375,1.0,0.0,-1.0,0.0,6.m4v,2.0
2024-02-27 10:42:35.410168,1709026955.4101682,-39.55078125,987.79296875,-456.54296875,-2.44140625,1.0,0.0,-1.0,0.0,6.m4v,2.0
2024-02-27 10:42:35.414074,1709026955.4140737,-82.51953125,-348.6328125,-570.3125,-60.546875,1.0,0.0,-1.0,0.0,6.m4v,2.0
2024-02-27 10:42:35.417979,1709026955.4179797,-65.4296875,-1000.0,-136.23046875,-84.47265625,1.0,0.0,-1.0,0.0,6.m4v,2.0
2024-02-27 10:42:35.421885,1709026955.421885,-49.31640625,-931.640625,167.96875,-62.01171875,1.0,0.0,-1.0,0.0,6.m4v,2.0
2024-02-27 10:42:35.425791,1709026955.4257903,-61.03515625,-1000.0,-287.59765625,-71.77734375,1.0,0.0,-1.0,0.0,6.m4v,2.0
2024-02-27 10:42:35.429696,1709026955.429696,-64.453125,-1000.0,-659.1796875,-86.42578125,1.0,0.0,-1.0,0.0,6.m4v,2.0
2024-02-27 10:42:35.433602,1709026955.4336016,-62.5,-1000.0,-671.875,-71.77734375,1.0,0.0,-1.0,0.0,6.m4v,2.0
2024-02-27 10:42:35.437507,1709026955.4375072,-67.87109375,-1000.0,-404.296875,-66.89453125,1.0,0.0,-1.0,0.0,6.m4v,2.0
2024-02-27 10:42:35.441413,1709026955.4414127,-64.94140625,-1000.0,-248.046875,-63.4765625,1.0,0.0,-1.0,0.0,6.m4v,2.0
2024-02-27 10:42:35.445323,1709026955.445323,-72.265625,-1000.0,-418.45703125,-61.03515625,1.0,0.0,-1.0,0.0,6.m4v,2.0
2024-02-27 10:42:35.449229,1709026955.4492283,-54.19921875,-984.375,-640.625,-59.5703125,1.0,0.0,-1.0,0.0,6.m4v,2.0
2024-02-27 10:42:35.453134,1709026955.453134,-50.78125,-967.7734375,-595.21484375,-55.17578125,1.0,0.0,-1.0,0.0,6.m4v,2.0
2024-02-27 10:42:35.457040,1709026955.4570398,-61.03515625,-1000.0,-333.0078125,-61.03515625,1.0,0.0,-1.0,0.0,6.m4v,2.0
2024-02-27 10:42:35.460945,1709026955.4609454,-34.66796875,3.41796875,125.9765625,-58.10546875,1.0,0.0,-1.0,0.0,6.m4v,2.0
2024-02-27 10:42:35.464851,1709026955.464851,-31.73828125,999.51171875,496.58203125,-30.2734375,1.0,0.0,-1.0,0.0,6.m4v,2.0
2024-02-27 10:42:35.468756,1709026955.4687564,-57.12890625,932.6171875,231.4453125,-31.25,1.0,0.0,-1.0,0.0,6.m4v,2.0
2024-02-27 10:42:35.472662,1709026955.472662,-59.08203125,956.54296875,-248.046875,-40.52734375,1.0,0.0,-1.0,0.0,6.m4v,2.0
2024-02-27 10:42:35.476568,1709026955.4765675,-42.96875,973.6328125,-252.44140625,-30.76171875,1.0,0.0,-1.0,0.0,6.m4v,2.0
2024-02-27 10:42:35.480473,1709026955.480473,-26.85546875,969.7265625,-194.3359375,-55.6640625,1.0,0.0,-1.0,0.0,6.m4v,2.0
2024-02-27 10:42:35.484379,1709026955.4843788,-42.96875,969.7265625,-305.6640625,-51.26953125,1.0,0.0,-1.0,0.0,6.m4v,2.0
2024-02-27 10:42:35.488284,1709026955.4882843,-52.734375,969.7265625,-343.75,-32.2265625,1.0,0.0,-1.0,0.0,6.m4v,2.0
2024-02-27 10:42:35.492194,1709026955.4921942,-44.43359375,969.7265625,-343.26171875,-43.9453125,1.0,0.0,-1.0,0.0,6.m4v,2.0
2024-02-27 10:42:35.496100,1709026955.4960997,-42.96875,969.7265625,-241.69921875,-46.875,1.0,0.0,-1.0,0.0,6.m4v,2.0
2024-02-27 10:42:35.500005,1709026955.5000052,-29.296875,969.7265625,-84.47265625,-42.96875,1.0,0.0,-1.0,0.0,6.m4v,2.0
2024-02-27 10:42:35.503911,1709026955.5039108,-17.08984375,969.7265625,-94.7265625,-37.109375,1.0,0.0,-1.0,0.0,6.m4v,2.0
2024-02-27 10:42:35.507816,1709026955.5078163,-45.8984375,969.7265625,-317.87109375,-35.15625,1.0,0.0,-1.0,0.0,6.m4v,2.0
2024-02-27 10:42:35.511722,1709026955.5117218,-49.8046875,983.88671875,-208.49609375,-27.83203125,1.0,0.0,-1.0,0.0,6.m4v,2.0
2024-02-27 10:42:35.515628,1709026955.5156276,-26.85546875,919.921875,147.4609375,-25.390625,1.0,0.0,-1.0,0.0,6.m4v,2.0
2024-02-27 10:42:35.519533,1709026955.5195332,-20.5078125,999.51171875,222.65625,-37.109375,1.0,0.0,-1.0,0.0,6.m4v,2.0
2024-02-27 10:42:35.523439,1709026955.5234387,-15.13671875,917.96875,145.01953125,-20.5078125,1.0,0.0,-1.0,0.0,6.m4v,2.0
2024-02-27 10:42:35.527344,1709026955.5273442,-29.296875,-498.53515625,-330.56640625,-24.90234375,1.0,0.0,-1.0,0.0,6.m4v,2.0
2024-02-27 10:42:35.531250,1709026955.5312498,-36.62109375,-1000.0,-689.453125,-35.15625,1.0,0.0,-1.0,0.0,6.m4v,2.0
2024-02-27 10:42:35.535155,1709026955.5351553,-38.57421875,-926.26953125,-586.42578125,-25.390625,1.0,0.0,-1.0,0.0,6.m4v,2.0
2024-02-27 10:42:35.539065,1709026955.539065,-41.015625,-1000.0,-299.31640625,-46.875,1.0,0.0,-1.0,0.0,6.m4v,2.0
2024-02-27 10:42:35.542970,1709026955.5429704,-29.296875,-1000.0,-209.9609375,-42.96875,1.0,0.0,-1.0,0.0,6.m4v,2.0
2024-02-27 10:42:35.546876,1709026955.546876,-28.3203125,-1000.0,-356.93359375,-35.64453125,1.0,0.0,-1.0,0.0,6.m4v,2.0
2024-02-27 10:42:35.550781,1709026955.5507815,-44.921875,-939.94140625,-539.0625,-58.10546875,1.0,0.0,-1.0,0.0,6.m4v,2.0
2024-02-27 10:42:35.554687,1709026955.554687,-36.62109375,-1000.0,-498.53515625,-49.8046875,1.0,0.0,-1.0,0.0,6.m4v,2.0
2024-02-27 10:42:35.558593,1709026955.5585926,-33.203125,-856.93359375,39.0625,-24.90234375,1.0,0.0,-1.0,0.0,6.m4v,2.0
2024-02-27 10:42:35.562498,1709026955.5624983,-27.83203125,606.93359375,431.15234375,-27.83203125,1.0,0.0,-1.0,0.0,6.m4v,2.0
2024-02-27 10:42:35.566404,1709026955.566404,-20.5078125,999.51171875,41.9921875,-35.15625,1.0,0.0,-1.0,0.0,6.m4v,2.0
2024-02-27 10:42:35.570309,1709026955.5703094,-21.97265625,896.484375,-429.6875,-24.90234375,1.0,0.0,-1.0,0.0,6.m4v,2.0
2024-02-27 10:42:35.574215,1709026955.574215,-45.8984375,986.328125,-422.36328125,-34.66796875,1.0,0.0,-1.0,0.0,6.m4v,2.0
2024-02-27 10:42:35.578120,1709026955.5781205,-48.828125,969.7265625,-129.8828125,-41.50390625,1.0,0.0,-1.0,0.0,6.m4v,2.0
2024-02-27 10:42:35.582026,1709026955.582026,-12.6953125,969.7265625,197.265625,-42.96875,1.0,0.0,-1.0,0.0,6.m4v,2.0
2024-02-27 10:42:35.585936,1709026955.5859356,-22.94921875,970.21484375,-46.875,-42.48046875,1.0,0.0,-1.0,0.0,6.m4v,2.0
2024-02-27 10:42:35.589841,1709026955.5898411,-39.55078125,984.375,-386.71875,-36.62109375,1.0,0.0,-1.0,0.0,6.m4v,2.0
2024-02-27 10:42:35.593747,1709026955.593747,-27.83203125,903.80859375,-240.234375,-41.9921875,1.0,0.0,-1.0,0.0,6.m4v,2.0
2024-02-27 10:42:35.597652,1709026955.5976522,-23.4375,999.51171875,4.8828125,-45.41015625,1.0,0.0,-1.0,0.0,6.m4v,2.0
2024-02-27 10:42:35.601558,1709026955.6015575,-27.83203125,641.11328125,-76.171875,-48.33984375,1.0,0.0,-1.0,0.0,6.m4v,2.0
2024-02-27 10:42:35.605463,1709026955.6054633,-31.73828125,-796.875,-75.68359375,-49.8046875,1.0,0.0,-1.0,0.0,6.m4v,2.0
2024-02-27 10:42:35.609369,1709026955.609369,-32.2265625,-1000.0,-39.55078125,-42.96875,1.0,0.0,-1.0,0.0,6.m4v,2.0
2024-02-27 10:42:35.613275,1709026955.6132746,-54.6875,-937.98828125,-410.64453125,-49.8046875,1.0,0.0,-1.0,0.0,6.m4v,2.0
2024-02-27 10:42:35.617180,1709026955.61718,-48.33984375,-1000.0,-475.09765625,-53.22265625,1.0,0.0,-1.0,0.0,6.m4v,2.0
2024-02-27 10:42:35.621086,1709026955.6210856,-41.9921875,-1000.0,-259.765625,-56.15234375,1.0,0.0,-1.0,0.0,6.m4v,2.0
2024-02-27 10:42:35.624991,1709026955.6249912,-53.7109375,-1000.0,-286.1328125,-51.26953125,1.0,0.0,-1.0,0.0,6.m4v,2.0
2024-02-27 10:42:35.628897,1709026955.6288967,-41.50390625,-1000.0,-443.359375,-39.0625,1.0,0.0,-1.0,0.0,6.m4v,2.0
2024-02-27 10:42:35.632808,1709026955.6328084,-39.0625,-1000.0,-579.1015625,-45.41015625,1.0,0.0,-1.0,0.0,6.m4v,2.0
2024-02-27 10:42:35.636714,1709026955.636714,-52.24609375,-1000.0,-423.33984375,-53.22265625,1.0,0.0,-1.0,0.0,6.m4v,2.0
2024-02-27 10:42:35.640620,1709026955.6406195,-46.38671875,-953.61328125,-57.12890625,-52.734375,1.0,0.0,-1.0,0.0,6.m4v,2.0
2024-02-27 10:42:35.644525,1709026955.644525,-49.8046875,-1000.0,-125.48828125,-48.33984375,1.0,0.0,-1.0,0.0,6.m4v,2.0
2024-02-27 10:42:35.648431,1709026955.6484308,-62.5,-968.75,-461.42578125,-39.0625,1.0,0.0,-1.0,0.0,6.m4v,2.0
2024-02-27 10:42:35.652336,1709026955.6523364,-48.828125,429.19921875,-26.85546875,-33.203125,1.0,0.0,-1.0,0.0,6.m4v,2.0
2024-02-27 10:42:35.660147,1709026955.6601474,-15.625,896.97265625,213.37890625,-35.64453125,1.0,0.0,-1.0,0.0,6.m4v,2.0
2024-02-27 10:42:35.664053,1709026955.664053,-25.87890625,981.4453125,13.18359375,-12.6953125,1.0,0.0,-1.0,0.0,6.m4v,2.0
2024-02-27 10:42:35.667958,1709026955.6679585,-42.96875,969.7265625,-168.45703125,-19.53125,1.0,0.0,-1.0,0.0,6.m4v,2.0
2024-02-27 10:42:35.671864,1709026955.671864,-50.29296875,969.7265625,-290.52734375,-64.453125,1.0,0.0,-1.0,0.0,6.m4v,2.0
2024-02-27 10:42:35.675770,1709026955.6757698,-43.9453125,969.7265625,-129.8828125,-57.12890625,1.0,0.0,-1.0,0.0,6.m4v,2.0
2024-02-27 10:42:35.679681,1709026955.679681,-32.71484375,969.7265625,72.265625,-36.62109375,1.0,0.0,-1.0,0.0,6.m4v,2.0
2024-02-27 10:42:35.683587,1709026955.6835866,-36.62109375,969.7265625,41.9921875,-42.96875,1.0,0.0,-1.0,0.0,6.m4v,2.0
2024-02-27 10:42:35.687492,1709026955.687492,-35.64453125,969.7265625,-132.32421875,-39.0625,1.0,0.0,-1.0,0.0,6.m4v,2.0
2024-02-27 10:42:35.691398,1709026955.6913977,-28.80859375,969.7265625,-317.87109375,-30.76171875,1.0,0.0,-1.0,0.0,6.m4v,2.0
2024-02-27 10:42:35.695303,1709026955.6953032,-18.06640625,986.328125,-166.015625,-28.80859375,1.0,0.0,-1.0,0.0,6.m4v,2.0
2024-02-27 10:42:35.699209,1709026955.6992087,-5.37109375,908.69140625,371.58203125,-37.109375,1.0,0.0,-1.0,0.0,6.m4v,2.0
2024-02-27 10:42:35.703114,1709026955.7031145,-30.76171875,999.51171875,535.64453125,-51.26953125,1.0,0.0,-1.0,0.0,6.m4v,2.0
2024-02-27 10:42:35.707020,1709026955.70702,-50.29296875,817.87109375,46.875,-44.921875,1.0,0.0,-1.0,0.0,6.m4v,2.0
2024-02-27 10:42:35.710926,1709026955.7109256,-51.26953125,-646.97265625,-606.4453125,-43.45703125,1.0,0.0,-1.0,0.0,6.m4v,2.0
2024-02-27 10:42:35.714831,1709026955.714831,-41.50390625,-1000.0,-652.83203125,-63.4765625,1.0,0.0,-1.0,0.0,6.m4v,2.0
2024-02-27 10:42:35.718737,1709026955.7187366,-26.3671875,-927.24609375,-341.796875,-26.3671875,1.0,0.0,-1.0,0.0,6.m4v,2.0
2024-02-27 10:42:35.722642,1709026955.7226422,-23.92578125,-1000.0,-266.6015625,-17.578125,1.0,0.0,-1.0,0.0,6.m4v,2.0
2024-02-27 10:42:35.726553,1709026955.7265532,-39.0625,-1000.0,-425.78125,-61.5234375,1.0,0.0,-1.0,0.0,6.m4v,2.0
2024-02-27 10:42:35.730459,1709026955.7304587,-45.41015625,-1000.0,-622.55859375,-60.546875,1.0,0.0,-1.0,0.0,6.m4v,2.0
2024-02-27 10:42:35.734364,1709026955.7343645,-47.36328125,-971.6796875,-523.4375,-35.15625,1.0,0.0,-1.0,0.0,6.m4v,2.0
2024-02-27 10:42:35.738270,1709026955.7382698,-39.0625,-988.76953125,-283.69140625,-31.73828125,1.0,0.0,-1.0,0.0,6.m4v,2.0
2024-02-27 10:42:35.742175,1709026955.742175,-11.71875,-1000.0,-304.6875,-30.76171875,1.0,0.0,-1.0,0.0,6.m4v,2.0
2024-02-27 10:42:35.746081,1709026955.7460809,-10.7421875,193.84765625,-61.5234375,-26.85546875,1.0,0.0,-1.0,0.0,6.m4v,2.0
2024-02-27 10:42:35.749987,1709026955.7499866,-22.94921875,999.51171875,140.13671875,-17.578125,1.0,0.0,-1.0,0.0,6.m4v,2.0
2024-02-27 10:42:35.753892,1709026955.7538922,-26.85546875,910.64453125,-31.73828125,-15.13671875,1.0,0.0,-1.0,0.0,6.m4v,2.0
2024-02-27 10:42:35.757798,1709026955.7577977,-29.78515625,969.7265625,80.078125,-7.8125,1.0,0.0,-1.0,0.0,6.m4v,2.0
2024-02-27 10:42:35.761703,1709026955.7617033,-31.25,971.19140625,273.4375,-7.8125,1.0,0.0,-1.0,0.0,6.m4v,2.0
2024-02-27 10:42:35.765609,1709026955.7656088,-27.83203125,969.7265625,-42.48046875,-17.578125,1.0,0.0,-1.0,0.0,6.m4v,2.0
2024-02-27 10:42:35.769514,1709026955.7695143,-35.15625,969.7265625,-424.31640625,-29.78515625,1.0,0.0,-1.0,0.0,6.m4v,2.0
2024-02-27 10:42:35.773425,1709026955.7734249,-27.34375,972.16796875,-333.0078125,-44.921875,1.0,0.0,-1.0,0.0,6.m4v,2.0
2024-02-27 10:42:35.777330,1709026955.7773304,-14.16015625,967.28515625,-23.92578125,-40.0390625,1.0,0.0,-1.0,0.0,6.m4v,2.0
2024-02-27 10:42:35.781236,1709026955.781236,-20.01953125,918.45703125,85.9375,-34.1796875,1.0,0.0,-1.0,0.0,6.m4v,2.0
2024-02-27 10:42:35.785141,1709026955.7851417,-33.69140625,999.51171875,-43.9453125,-50.29296875,1.0,0.0,-1.0,0.0,6.m4v,2.0
2024-02-27 10:42:35.789047,1709026955.789047,-53.22265625,205.078125,-371.09375,-44.43359375,1.0,0.0,-1.0,0.0,6.m4v,2.0
2024-02-27 10:42:35.792953,1709026955.7929523,-45.8984375,-1000.0,-267.08984375,-41.50390625,1.0,0.0,-1.0,0.0,6.m4v,2.0
2024-02-27 10:42:35.796858,1709026955.796858,-36.1328125,-997.55859375,340.33203125,-45.41015625,1.0,0.0,-1.0,0.0,6.m4v,2.0
2024-02-27 10:42:35.800764,1709026955.8007638,-41.9921875,-969.7265625,181.15234375,-30.2734375,1.0,0.0,-1.0,0.0,6.m4v,2.0
2024-02-27 10:42:35.804669,1709026955.8046694,-32.71484375,-1000.0,-193.359375,-37.59765625,1.0,0.0,-1.0,0.0,6.m4v,2.0
2024-02-27 10:42:35.808575,1709026955.808575,-45.41015625,-1000.0,-314.94140625,-50.29296875,1.0,0.0,-1.0,0.0,6.m4v,2.0
2024-02-27 10:42:35.812480,1709026955.8124804,-61.03515625,-1000.0,-320.3125,-38.0859375,1.0,0.0,-1.0,0.0,6.m4v,2.0
2024-02-27 10:42:35.816386,1709026955.816386,-36.62109375,-1000.0,43.9453125,-30.76171875,1.0,0.0,-1.0,0.0,6.m4v,2.0
2024-02-27 10:42:35.820297,1709026955.8202963,-16.6015625,-1000.0,284.1796875,-33.69140625,1.0,0.0,-1.0,0.0,6.m4v,2.0
2024-02-27 10:42:35.824202,1709026955.824202,-36.62109375,-1000.0,205.078125,-44.43359375,1.0,0.0,-1.0,0.0,6.m4v,2.0
2024-02-27 10:42:35.828108,1709026955.8281076,-19.53125,-1000.0,-101.07421875,-43.9453125,1.0,0.0,-1.0,0.0,6.m4v,2.0
2024-02-27 10:42:35.832013,1709026955.8320131,-20.5078125,-935.05859375,-168.45703125,-26.3671875,1.0,0.0,-1.0,0.0,6.m4v,2.0
2024-02-27 10:42:35.835919,1709026955.835919,-45.41015625,-1000.0,53.7109375,-34.66796875,1.0,0.0,-1.0,0.0,6.m4v,2.0
2024-02-27 10:42:35.839824,1709026955.8398242,-29.78515625,-794.43359375,422.8515625,-36.62109375,1.0,0.0,-1.0,0.0,6.m4v,2.0
2024-02-27 10:42:35.843730,1709026955.8437295,-10.25390625,676.26953125,808.59375,-17.578125,1.0,0.0,-1.0,0.0,6.m4v,2.0
2024-02-27 10:42:35.847636,1709026955.8476355,-15.625,999.51171875,473.14453125,-34.66796875,1.0,0.0,-1.0,0.0,6.m4v,2.0
2024-02-27 10:42:35.851541,1709026955.851541,-27.83203125,899.90234375,108.88671875,-60.546875,1.0,0.0,-1.0,0.0,6.m4v,2.0
2024-02-27 10:42:35.855447,1709026955.8554466,-40.0390625,986.81640625,223.6328125,-41.015625,1.0,0.0,-1.0,0.0,6.m4v,2.0
2024-02-27 10:42:35.859352,1709026955.859352,-33.203125,969.7265625,326.171875,-26.85546875,1.0,0.0,-1.0,0.0,6.m4v,2.0
2024-02-27 10:42:35.863258,1709026955.8632576,-17.08984375,969.7265625,317.87109375,-44.43359375,1.0,0.0,-1.0,0.0,6.m4v,2.0
2024-02-27 10:42:35.867167,1709026955.8671672,-25.390625,969.7265625,223.14453125,-59.08203125,1.0,0.0,-1.0,0.0,6.m4v,2.0
2024-02-27 10:42:35.871073,1709026955.8710728,-33.69140625,970.21484375,193.359375,-43.9453125,1.0,0.0,-1.0,0.0,6.m4v,2.0
2024-02-27 10:42:35.874978,1709026955.8749783,-15.13671875,970.21484375,242.67578125,-32.2265625,1.0,0.0,-1.0,0.0,6.m4v,2.0
2024-02-27 10:42:35.878884,1709026955.8788838,-7.8125,981.93359375,648.92578125,-24.90234375,1.0,0.0,-1.0,0.0,6.m4v,2.0
2024-02-27 10:42:35.886695,1709026955.886695,-14.16015625,989.2578125,594.23828125,-50.78125,1.0,0.0,-1.0,0.0,6.m4v,2.0
2024-02-27 10:42:35.898412,1709026955.8984118,-29.78515625,-1000.0,130.37109375,-39.55078125,1.0,0.0,-1.0,0.0,6.m4v,2.0
2024-02-27 10:42:35.910128,1709026955.9101284,-36.1328125,-1000.0,47.36328125,-54.6875,1.0,0.0,-1.0,0.0,6.m4v,2.0
2024-02-27 10:42:35.921849,1709026955.921849,-15.625,-1000.0,311.03515625,-31.73828125,1.0,0.0,-1.0,0.0,6.m4v,2.0
2024-02-27 10:42:35.933566,1709026955.933566,-10.25390625,-673.828125,197.265625,-21.97265625,1.0,0.0,-1.0,0.0,6.m4v,2.0
2024-02-27 10:42:35.945282,1709026955.9452825,-9.27734375,907.2265625,633.30078125,-27.34375,1.0,0.0,-1.0,0.0,6.m4v,2.0
2024-02-27 10:42:36.062465,1709026956.062465,-26.3671875,969.7265625,525.87890625,-27.83203125,1.0,0.0,-1.0,0.0,6.m4v,2.0
2024-02-27 10:42:36.074182,1709026956.0741818,-13.671875,969.7265625,312.5,-33.69140625,1.0,0.0,-1.0,0.0,6.m4v,2.0
2024-02-27 10:42:36.085898,1709026956.0858984,-37.59765625,969.7265625,-20.99609375,-35.15625,1.0,0.0,-1.0,0.0,6.m4v,2.0
2024-02-27 10:42:36.097615,1709026956.0976152,-30.2734375,969.7265625,58.10546875,-26.85546875,1.0,0.0,-1.0,0.0,6.m4v,2.0
2024-02-27 10:42:36.109337,1709026956.109337,-32.2265625,969.7265625,-40.52734375,-46.38671875,1.0,0.0,-1.0,0.0,6.m4v,2.0
2024-02-27 10:42:36.121054,1709026956.121054,-22.4609375,901.85546875,435.05859375,-32.2265625,1.0,0.0,-1.0,0.0,6.m4v,2.0
2024-02-27 10:42:36.132771,1709026956.1327703,-56.640625,-770.01953125,-292.96875,-62.5,1.0,0.0,-1.0,0.0,6.m4v,2.0
2024-02-27 10:42:36.144487,1709026956.1444874,-26.85546875,-1000.0,-128.90625,-38.57421875,1.0,0.0,-1.0,0.0,6.m4v,2.0
2024-02-27 10:42:36.156209,1709026956.156209,-35.64453125,-1000.0,-121.58203125,-26.85546875,1.0,0.0,-1.0,0.0,6.m4v,2.0
2024-02-27 10:42:36.167926,1709026956.1679256,-20.5078125,-718.26171875,67.87109375,-50.78125,1.0,0.0,-1.0,0.0,6.m4v,2.0
2024-02-27 10:42:36.179642,1709026956.1796424,-30.76171875,903.80859375,294.43359375,-45.8984375,1.0,0.0,-1.0,0.0,6.m4v,2.0
2024-02-27 10:42:36.191359,1709026956.191359,-23.92578125,970.21484375,-60.546875,-33.203125,1.0,0.0,-1.0,0.0,6.m4v,2.0
2024-02-27 10:42:36.203080,1709026956.2030804,-9.765625,969.7265625,265.13671875,-30.76171875,1.0,0.0,-1.0,0.0,6.m4v,2.0
2024-02-27 10:42:36.214797,1709026956.2147973,-9.27734375,969.7265625,234.86328125,-35.15625,1.0,0.0,-1.0,0.0,6.m4v,2.0
2024-02-27 10:42:36.226514,1709026956.226514,-21.97265625,969.7265625,48.828125,-34.1796875,1.0,0.0,-1.0,0.0,6.m4v,2.0
2024-02-27 10:42:36.238231,1709026956.2382307,-27.34375,969.7265625,499.51171875,-29.296875,1.0,0.0,-1.0,0.0,6.m4v,2.0
2024-02-27 10:42:36.249952,1709026956.249952,-38.57421875,969.7265625,-210.9375,-48.33984375,1.0,0.0,-1.0,0.0,6.m4v,2.0
2024-02-27 10:42:36.261669,1709026956.2616687,-20.99609375,969.7265625,399.4140625,-34.66796875,1.0,0.0,-1.0,0.0,6.m4v,2.0
2024-02-27 10:42:36.273386,1709026956.2733855,-49.8046875,969.7265625,-303.7109375,-53.22265625,1.0,0.0,-1.0,0.0,6.m4v,2.0
2024-02-27 10:42:36.285102,1709026956.285102,-32.71484375,969.7265625,-118.65234375,-35.15625,1.0,0.0,-1.0,0.0,6.m4v,2.0
2024-02-27 10:42:36.296823,1709026956.2968228,-38.57421875,969.7265625,-86.9140625,-41.015625,1.0,0.0,-1.0,0.0,6.m4v,2.0
2024-02-27 10:42:36.308539,1709026956.3085394,-17.08984375,969.7265625,263.18359375,-25.87890625,1.0,0.0,-1.0,0.0,6.m4v,2.0
2024-02-27 10:42:36.320256,1709026956.3202562,-28.3203125,969.7265625,133.7890625,-42.48046875,1.0,0.0,-1.0,0.0,6.m4v,2.0
2024-02-27 10:42:36.331973,1709026956.3319728,-37.59765625,969.7265625,-439.453125,-50.29296875,1.0,0.0,-1.0,0.0,6.m4v,2.0
2024-02-27 10:42:36.343693,1709026956.3436928,-21.97265625,969.7265625,-31.25,-57.12890625,1.0,0.0,-1.0,0.0,6.m4v,2.0
2024-02-27 10:42:36.355409,1709026956.3554094,-40.52734375,969.7265625,41.50390625,-50.29296875,1.0,0.0,-1.0,0.0,6.m4v,2.0
2024-02-27 10:42:36.367126,1709026956.3671262,-37.59765625,969.7265625,-443.359375,-64.453125,1.0,0.0,-1.0,0.0,6.m4v,2.0
2024-02-27 10:42:36.378843,1709026956.3788428,-34.1796875,969.7265625,-359.375,-29.296875,1.0,0.0,-1.0,0.0,6.m4v,2.0
2024-02-27 10:42:36.390566,1709026956.3905656,-37.109375,969.7265625,-624.0234375,-48.828125,1.0,0.0,-1.0,0.0,6.m4v,2.0
2024-02-27 10:42:36.402282,1709026956.4022822,-38.57421875,969.7265625,51.26953125,-42.48046875,1.0,0.0,-1.0,0.0,6.m4v,2.0
2024-02-27 10:42:36.456966,1709026956.456966,-43.45703125,969.7265625,-338.8671875,-20.01953125,1.0,0.0,-1.0,0.0,6.m4v,2.0
2024-02-27 10:42:36.460871,1709026956.4608717,-50.78125,970.21484375,-476.07421875,-44.43359375,1.0,0.0,-1.0,0.0,6.m4v,2.0
2024-02-27 10:42:36.464777,1709026956.464777,-54.6875,969.7265625,-609.375,-67.3828125,1.0,0.0,-1.0,0.0,6.m4v,2.0
2024-02-27 10:42:36.468683,1709026956.4686823,-59.08203125,969.7265625,-900.87890625,-41.9921875,1.0,0.0,-1.0,0.0,6.m4v,2.0
2024-02-27 10:42:36.472588,1709026956.472588,-57.12890625,970.21484375,-981.4453125,-37.59765625,1.0,0.0,-1.0,0.0,6.m4v,2.0
2024-02-27 10:42:36.476499,1709026956.476499,-59.08203125,970.21484375,-727.05078125,-44.43359375,1.0,0.0,-1.0,0.0,6.m4v,2.0
2024-02-27 10:42:36.480405,1709026956.4804049,-40.52734375,969.7265625,-422.36328125,-43.9453125,1.0,0.0,-1.0,0.0,6.m4v,2.0
2024-02-27 10:42:36.484310,1709026956.4843104,-32.71484375,969.7265625,-340.33203125,-42.48046875,1.0,0.0,-1.0,0.0,6.m4v,2.0
2024-02-27 10:42:36.488216,1709026956.488216,-43.45703125,969.7265625,-682.6171875,-48.33984375,1.0,0.0,-1.0,0.0,6.m4v,2.0
2024-02-27 10:42:36.492121,1709026956.4921217,-51.7578125,969.7265625,-847.16796875,-34.1796875,1.0,0.0,-1.0,0.0,6.m4v,2.0
2024-02-27 10:42:36.496027,1709026956.496027,-48.33984375,969.7265625,-312.5,-37.109375,1.0,0.0,-1.0,0.0,6.m4v,2.0
2024-02-27 10:42:36.499933,1709026956.4999323,-41.015625,970.21484375,6.34765625,-31.73828125,1.0,0.0,-1.0,0.0,6.m4v,2.0
