Timestamp,Timestamp_UNIX,TP9,AF7,AF8,TP10,Valence,Arousal,Dominace,Viewed,Video,Participant
2024-02-27 14:41:55.002890,1709041315.00289,-925.78125,-925.78125,-38.0859375,-925.78125,-1.0,1.0,0.0,1.0,5.m4v,5.0
2024-02-27 14:41:55.022419,1709041315.0224187,-1000.0,-1000.0,-36.1328125,-1000.0,-1.0,1.0,0.0,1.0,5.m4v,5.0
2024-02-27 14:41:55.026325,1709041315.0263245,-1000.0,-1000.0,-20.99609375,-1000.0,-1.0,1.0,0.0,1.0,5.m4v,5.0
2024-02-27 14:41:55.030230,1709041315.0302303,-1000.0,-1000.0,-21.97265625,-1000.0,-1.0,1.0,0.0,1.0,5.m4v,5.0
2024-02-27 14:41:55.034139,1709041315.0341392,-1000.0,-1000.0,-34.1796875,-1000.0,-1.0,1.0,0.0,1.0,5.m4v,5.0
2024-02-27 14:41:55.038045,1709041315.038045,-1000.0,-1000.0,-38.0859375,-1000.0,-1.0,1.0,0.0,1.0,5.m4v,5.0
2024-02-27 14:41:55.041951,1709041315.0419507,-1000.0,-1000.0,-31.73828125,-1000.0,-1.0,1.0,0.0,1.0,5.m4v,5.0
2024-02-27 14:41:55.045856,1709041315.0458565,-1000.0,-1000.0,-31.73828125,-1000.0,-1.0,1.0,0.0,1.0,5.m4v,5.0
2024-02-27 14:41:55.049762,1709041315.0497622,-1000.0,-1000.0,-48.828125,-1000.0,-1.0,1.0,0.0,1.0,5.m4v,5.0
2024-02-27 14:41:55.053668,1709041315.053668,-1000.0,-1000.0,-47.8515625,-1000.0,-1.0,1.0,0.0,1.0,5.m4v,5.0
2024-02-27 14:41:55.057574,1709041315.0575738,-932.12890625,-930.17578125,-28.3203125,-938.96484375,-1.0,1.0,0.0,1.0,5.m4v,5.0
2024-02-27 14:41:55.061480,1709041315.0614796,-1000.0,-1000.0,-21.484375,-1000.0,-1.0,1.0,0.0,1.0,5.m4v,5.0
2024-02-27 14:41:55.217718,1709041315.217718,959.9609375,949.70703125,-34.66796875,969.23828125,-1.0,1.0,0.0,1.0,5.m4v,5.0
2024-02-27 14:41:55.475516,1709041315.4755158,969.7265625,970.21484375,-27.34375,976.5625,-1.0,1.0,0.0,1.0,5.m4v,5.0
2024-02-27 14:41:55.479422,1709041315.4794216,969.23828125,969.7265625,-20.01953125,969.7265625,-1.0,1.0,0.0,1.0,5.m4v,5.0
2024-02-27 14:41:55.483327,1709041315.4833274,969.23828125,969.7265625,-35.64453125,969.7265625,-1.0,1.0,0.0,1.0,5.m4v,5.0
2024-02-27 14:41:55.487233,1709041315.4872332,969.23828125,969.7265625,-44.43359375,969.7265625,-1.0,1.0,0.0,1.0,5.m4v,5.0
2024-02-27 14:41:55.491139,1709041315.491139,969.23828125,969.7265625,-31.25,969.7265625,-1.0,1.0,0.0,1.0,5.m4v,5.0
2024-02-27 14:41:55.495045,1709041315.4950447,969.23828125,970.21484375,-29.296875,969.7265625,-1.0,1.0,0.0,1.0,5.m4v,5.0
2024-02-27 14:41:55.498950,1709041315.4989505,969.23828125,969.7265625,-33.203125,969.7265625,-1.0,1.0,0.0,1.0,5.m4v,5.0
2024-02-27 14:41:55.502859,1709041315.5028589,969.23828125,969.7265625,-41.50390625,969.7265625,-1.0,1.0,0.0,1.0,5.m4v,5.0
2024-02-27 14:41:55.506765,1709041315.506765,969.23828125,969.7265625,-45.41015625,969.7265625,-1.0,1.0,0.0,1.0,5.m4v,5.0
2024-02-27 14:41:55.510670,1709041315.5106704,969.23828125,969.7265625,-60.05859375,969.7265625,-1.0,1.0,0.0,1.0,5.m4v,5.0
2024-02-27 14:41:55.514576,1709041315.5145762,969.23828125,969.7265625,-71.77734375,969.7265625,-1.0,1.0,0.0,1.0,5.m4v,5.0
2024-02-27 14:41:55.518482,1709041315.518482,970.21484375,971.19140625,-64.94140625,973.14453125,-1.0,1.0,0.0,1.0,5.m4v,5.0
2024-02-27 14:41:55.522388,1709041315.5223875,975.5859375,971.19140625,-59.5703125,962.890625,-1.0,1.0,0.0,1.0,5.m4v,5.0
2024-02-27 14:41:55.526294,1709041315.5262935,904.296875,911.62109375,-63.4765625,925.78125,-1.0,1.0,0.0,1.0,5.m4v,5.0
2024-02-27 14:41:55.530199,1709041315.5301993,999.51171875,999.51171875,-70.3125,999.51171875,-1.0,1.0,0.0,1.0,5.m4v,5.0
2024-02-27 14:41:55.534105,1709041315.534105,364.2578125,261.71875,-71.77734375,135.25390625,-1.0,1.0,0.0,1.0,5.m4v,5.0
2024-02-27 14:41:55.538011,1709041315.5380108,-974.12109375,-1000.0,-77.1484375,-1000.0,-1.0,1.0,0.0,1.0,5.m4v,5.0
2024-02-27 14:41:55.541917,1709041315.5419166,-1000.0,-1000.0,-69.3359375,-989.2578125,-1.0,1.0,0.0,1.0,5.m4v,5.0
2024-02-27 14:41:55.545822,1709041315.5458224,-958.0078125,-965.8203125,-63.4765625,-974.609375,-1.0,1.0,0.0,1.0,5.m4v,5.0
2024-02-27 14:41:55.549731,1709041315.5497308,-1000.0,-1000.0,-56.640625,-1000.0,-1.0,1.0,0.0,1.0,5.m4v,5.0
2024-02-27 14:41:55.557542,1709041315.5575423,-1000.0,-1000.0,-56.640625,-1000.0,-1.0,1.0,0.0,1.0,5.m4v,5.0
2024-02-27 14:41:55.561448,1709041315.561448,-1000.0,-1000.0,-45.8984375,-1000.0,-1.0,1.0,0.0,1.0,5.m4v,5.0
2024-02-27 14:41:55.565354,1709041315.565354,-1000.0,-1000.0,-43.9453125,-1000.0,-1.0,1.0,0.0,1.0,5.m4v,5.0
2024-02-27 14:41:55.569259,1709041315.5692594,-1000.0,-1000.0,-52.24609375,-1000.0,-1.0,1.0,0.0,1.0,5.m4v,5.0
2024-02-27 14:41:55.573165,1709041315.5731652,-1000.0,-1000.0,-56.640625,-1000.0,-1.0,1.0,0.0,1.0,5.m4v,5.0
2024-02-27 14:41:55.577071,1709041315.577071,-1000.0,-1000.0,-64.94140625,-1000.0,-1.0,1.0,0.0,1.0,5.m4v,5.0
2024-02-27 14:41:55.659097,1709041315.659097,969.23828125,969.7265625,-34.1796875,969.7265625,-1.0,1.0,0.0,1.0,5.m4v,5.0
2024-02-27 14:41:55.663003,1709041315.6630027,969.23828125,969.7265625,-26.85546875,973.6328125,-1.0,1.0,0.0,1.0,5.m4v,5.0
2024-02-27 14:41:55.666909,1709041315.6669085,982.421875,987.3046875,-33.203125,968.75,-1.0,1.0,0.0,1.0,5.m4v,5.0
2024-02-27 14:41:55.670814,1709041315.6708145,898.92578125,899.4140625,-42.96875,925.29296875,-1.0,1.0,0.0,1.0,5.m4v,5.0
2024-02-27 14:41:55.678626,1709041315.6786258,546.875,700.68359375,-25.390625,317.87109375,-1.0,1.0,0.0,1.0,5.m4v,5.0
2024-02-27 14:41:55.686437,1709041315.6864374,-1000.0,-1000.0,-22.4609375,-1000.0,-1.0,1.0,0.0,1.0,5.m4v,5.0
2024-02-27 14:41:55.690346,1709041315.6903465,-944.3359375,-933.10546875,-18.06640625,-959.47265625,-1.0,1.0,0.0,1.0,5.m4v,5.0
2024-02-27 14:41:55.694252,1709041315.6942525,-1000.0,-1000.0,-19.53125,-1000.0,-1.0,1.0,0.0,1.0,5.m4v,5.0
2024-02-27 14:41:55.698158,1709041315.698158,-1000.0,-1000.0,-22.94921875,-1000.0,-1.0,1.0,0.0,1.0,5.m4v,5.0
2024-02-27 14:41:55.702064,1709041315.7020638,-1000.0,-1000.0,-22.4609375,-1000.0,-1.0,1.0,0.0,1.0,5.m4v,5.0
2024-02-27 14:41:55.705970,1709041315.7059696,-1000.0,-1000.0,-22.4609375,-1000.0,-1.0,1.0,0.0,1.0,5.m4v,5.0
2024-02-27 14:41:55.709875,1709041315.709875,-1000.0,-1000.0,-34.1796875,-1000.0,-1.0,1.0,0.0,1.0,5.m4v,5.0
2024-02-27 14:41:55.713781,1709041315.713781,-1000.0,-1000.0,-54.6875,-1000.0,-1.0,1.0,0.0,1.0,5.m4v,5.0
2024-02-27 14:41:55.717687,1709041315.717687,-1000.0,-1000.0,-40.52734375,-1000.0,-1.0,1.0,0.0,1.0,5.m4v,5.0
2024-02-27 14:41:55.721593,1709041315.721593,-1000.0,-1000.0,-40.0390625,-1000.0,-1.0,1.0,0.0,1.0,5.m4v,5.0
2024-02-27 14:41:55.725498,1709041315.7254984,-1000.0,-1000.0,-33.203125,-1000.0,-1.0,1.0,0.0,1.0,5.m4v,5.0
2024-02-27 14:41:55.729404,1709041315.7294042,-1000.0,-1000.0,-26.85546875,-1000.0,-1.0,1.0,0.0,1.0,5.m4v,5.0
2024-02-27 14:41:55.733310,1709041315.73331,-1000.0,-1000.0,-45.41015625,-1000.0,-1.0,1.0,0.0,1.0,5.m4v,5.0
2024-02-27 14:41:55.737219,1709041315.7372189,-928.22265625,-930.6640625,-41.9921875,-938.96484375,-1.0,1.0,0.0,1.0,5.m4v,5.0
2024-02-27 14:41:55.741125,1709041315.7411246,-1000.0,-1000.0,-40.0390625,-1000.0,-1.0,1.0,0.0,1.0,5.m4v,5.0
2024-02-27 14:41:55.745030,1709041315.7450304,-660.64453125,-743.1640625,-44.43359375,-423.33984375,-1.0,1.0,0.0,1.0,5.m4v,5.0
2024-02-27 14:41:55.748936,1709041315.7489362,804.6875,737.79296875,-41.9921875,910.64453125,-1.0,1.0,0.0,1.0,5.m4v,5.0
2024-02-27 14:41:55.752842,1709041315.752842,999.51171875,999.51171875,-59.5703125,998.046875,-1.0,1.0,0.0,1.0,5.m4v,5.0
2024-02-27 14:41:55.756748,1709041315.7567475,906.73828125,901.85546875,-64.94140625,925.29296875,-1.0,1.0,0.0,1.0,5.m4v,5.0
2024-02-27 14:41:55.760653,1709041315.7606535,986.328125,987.3046875,-54.19921875,982.421875,-1.0,1.0,0.0,1.0,5.m4v,5.0
2024-02-27 14:41:55.764559,1709041315.7645593,969.23828125,969.7265625,-50.29296875,969.7265625,-1.0,1.0,0.0,1.0,5.m4v,5.0
2024-02-27 14:41:55.768465,1709041315.768465,969.23828125,969.7265625,-44.43359375,970.21484375,-1.0,1.0,0.0,1.0,5.m4v,5.0
2024-02-27 14:41:55.772371,1709041315.7723708,969.23828125,969.7265625,-34.1796875,969.7265625,-1.0,1.0,0.0,1.0,5.m4v,5.0
2024-02-27 14:41:55.776277,1709041315.7762766,969.23828125,969.7265625,-41.50390625,969.7265625,-1.0,1.0,0.0,1.0,5.m4v,5.0
2024-02-27 14:41:55.780182,1709041315.7801824,969.23828125,969.7265625,-37.59765625,969.7265625,-1.0,1.0,0.0,1.0,5.m4v,5.0
2024-02-27 14:41:55.784091,1709041315.7840912,969.23828125,969.7265625,-30.2734375,969.7265625,-1.0,1.0,0.0,1.0,5.m4v,5.0
2024-02-27 14:41:55.787997,1709041315.787997,969.23828125,969.7265625,-41.9921875,969.7265625,-1.0,1.0,0.0,1.0,5.m4v,5.0
2024-02-27 14:41:55.791903,1709041315.7919028,968.75,969.7265625,-48.33984375,969.7265625,-1.0,1.0,0.0,1.0,5.m4v,5.0
2024-02-27 14:41:55.795809,1709041315.7958086,968.75,969.7265625,-46.875,969.7265625,-1.0,1.0,0.0,1.0,5.m4v,5.0
2024-02-27 14:41:55.799714,1709041315.7997143,969.23828125,970.21484375,-30.2734375,969.7265625,-1.0,1.0,0.0,1.0,5.m4v,5.0
2024-02-27 14:41:55.803620,1709041315.80362,968.75,970.21484375,-20.99609375,969.7265625,-1.0,1.0,0.0,1.0,5.m4v,5.0
2024-02-27 14:41:55.807526,1709041315.8075256,969.23828125,973.14453125,-34.66796875,969.7265625,-1.0,1.0,0.0,1.0,5.m4v,5.0
2024-02-27 14:41:55.811431,1709041315.8114314,984.375,960.44921875,-34.66796875,986.81640625,-1.0,1.0,0.0,1.0,5.m4v,5.0
2024-02-27 14:41:55.815337,1709041315.8153372,898.92578125,927.734375,-32.2265625,909.1796875,-1.0,1.0,0.0,1.0,5.m4v,5.0
2024-02-27 14:41:55.819243,1709041315.819243,999.51171875,999.51171875,-42.48046875,999.51171875,-1.0,1.0,0.0,1.0,5.m4v,5.0
2024-02-27 14:41:55.823149,1709041315.8231487,611.81640625,91.30859375,-32.71484375,824.21875,-1.0,1.0,0.0,1.0,5.m4v,5.0
2024-02-27 14:41:55.827055,1709041315.8270545,-837.40234375,-1000.0,-27.34375,-640.625,-1.0,1.0,0.0,1.0,5.m4v,5.0
2024-02-27 14:41:55.830963,1709041315.8309631,-1000.0,-981.4453125,-38.57421875,-1000.0,-1.0,1.0,0.0,1.0,5.m4v,5.0
2024-02-27 14:41:55.834869,1709041315.834869,-939.453125,-978.02734375,-41.015625,-927.24609375,-1.0,1.0,0.0,1.0,5.m4v,5.0
2024-02-27 14:41:55.838775,1709041315.8387747,-1000.0,-1000.0,-37.59765625,-1000.0,-1.0,1.0,0.0,1.0,5.m4v,5.0
2024-02-27 14:41:55.842680,1709041315.8426805,-1000.0,-1000.0,-35.64453125,-1000.0,-1.0,1.0,0.0,1.0,5.m4v,5.0
2024-02-27 14:41:55.846586,1709041315.8465862,-1000.0,-1000.0,-34.1796875,-1000.0,-1.0,1.0,0.0,1.0,5.m4v,5.0
2024-02-27 14:41:55.850492,1709041315.850492,-1000.0,-1000.0,-30.76171875,-1000.0,-1.0,1.0,0.0,1.0,5.m4v,5.0
2024-02-27 14:41:55.858304,1709041315.8583035,-1000.0,-1000.0,-31.73828125,-1000.0,-1.0,1.0,0.0,1.0,5.m4v,5.0
2024-02-27 14:41:55.862209,1709041315.862209,-1000.0,-1000.0,-27.83203125,-1000.0,-1.0,1.0,0.0,1.0,5.m4v,5.0
2024-02-27 14:41:55.987202,1709041315.9872017,-1000.0,-1000.0,-31.25,-1000.0,-1.0,1.0,0.0,1.0,5.m4v,5.0
2024-02-27 14:41:55.991107,1709041315.9911077,-1000.0,-1000.0,-29.296875,-1000.0,-1.0,1.0,0.0,1.0,5.m4v,5.0
2024-02-27 14:41:55.995013,1709041315.9950132,-1000.0,-1000.0,-30.2734375,-1000.0,-1.0,1.0,0.0,1.0,5.m4v,5.0
2024-02-27 14:41:55.998919,1709041315.998919,-1000.0,-1000.0,-20.5078125,-1000.0,-1.0,1.0,0.0,1.0,5.m4v,5.0
2024-02-27 14:41:56.002825,1709041316.0028248,-1000.0,-1000.0,-16.6015625,-1000.0,-1.0,1.0,0.0,1.0,5.m4v,5.0
2024-02-27 14:41:56.006731,1709041316.0067306,-1000.0,-1000.0,-28.3203125,-1000.0,-1.0,1.0,0.0,1.0,5.m4v,5.0
2024-02-27 14:41:56.010636,1709041316.010636,-1000.0,-1000.0,-34.1796875,-1000.0,-1.0,1.0,0.0,1.0,5.m4v,5.0
2024-02-27 14:41:56.014542,1709041316.014542,-1000.0,-1000.0,-23.4375,-1000.0,-1.0,1.0,0.0,1.0,5.m4v,5.0
2024-02-27 14:41:56.018450,1709041316.01845,-927.734375,-929.6875,-31.25,-945.80078125,-1.0,1.0,0.0,1.0,5.m4v,5.0
2024-02-27 14:41:56.022356,1709041316.0223558,-1000.0,-1000.0,-39.55078125,-1000.0,-1.0,1.0,0.0,1.0,5.m4v,5.0
2024-02-27 14:41:56.026262,1709041316.0262616,-589.35546875,-524.4140625,-32.71484375,-332.51953125,-1.0,1.0,0.0,1.0,5.m4v,5.0
2024-02-27 14:41:56.030167,1709041316.030167,854.00390625,888.671875,-34.1796875,941.89453125,-1.0,1.0,0.0,1.0,5.m4v,5.0
2024-02-27 14:41:56.034073,1709041316.034073,999.51171875,999.51171875,-40.0390625,984.86328125,-1.0,1.0,0.0,1.0,5.m4v,5.0
2024-02-27 14:41:56.037979,1709041316.037979,912.109375,917.48046875,-52.24609375,931.640625,-1.0,1.0,0.0,1.0,5.m4v,5.0
2024-02-27 14:41:56.041885,1709041316.041885,984.86328125,984.375,-40.52734375,980.95703125,-1.0,1.0,0.0,1.0,5.m4v,5.0
2024-02-27 14:41:56.151253,1709041316.1512525,-1000.0,-1000.0,-35.64453125,-1000.0,-1.0,1.0,0.0,1.0,5.m4v,5.0
2024-02-27 14:41:56.155158,1709041316.1551583,-953.125,-958.984375,-37.59765625,-947.75390625,-1.0,1.0,0.0,1.0,5.m4v,5.0
2024-02-27 14:41:56.159067,1709041316.1590672,-1000.0,-1000.0,-49.8046875,-1000.0,-1.0,1.0,0.0,1.0,5.m4v,5.0
2024-02-27 14:41:56.162973,1709041316.162973,-968.75,-1000.0,-47.36328125,-931.640625,-1.0,1.0,0.0,1.0,5.m4v,5.0
2024-02-27 14:41:56.166879,1709041316.1668787,434.5703125,365.234375,-28.80859375,498.53515625,-1.0,1.0,0.0,1.0,5.m4v,5.0
2024-02-27 14:41:56.170784,1709041316.1707845,999.51171875,999.51171875,-26.3671875,999.51171875,-1.0,1.0,0.0,1.0,5.m4v,5.0
2024-02-27 14:41:56.174690,1709041316.1746902,895.5078125,897.94921875,-43.45703125,895.5078125,-1.0,1.0,0.0,1.0,5.m4v,5.0
2024-02-27 14:41:56.178596,1709041316.178596,980.95703125,979.00390625,-38.57421875,983.88671875,-1.0,1.0,0.0,1.0,5.m4v,5.0
2024-02-27 14:41:56.182502,1709041316.1825018,968.75,969.7265625,-32.71484375,969.7265625,-1.0,1.0,0.0,1.0,5.m4v,5.0
2024-02-27 14:41:56.186408,1709041316.1864076,969.23828125,969.7265625,-41.50390625,969.7265625,-1.0,1.0,0.0,1.0,5.m4v,5.0
2024-02-27 14:41:56.190313,1709041316.190313,969.23828125,969.7265625,-38.0859375,969.7265625,-1.0,1.0,0.0,1.0,5.m4v,5.0
2024-02-27 14:41:56.194219,1709041316.194219,969.23828125,969.7265625,-39.55078125,969.7265625,-1.0,1.0,0.0,1.0,5.m4v,5.0
2024-02-27 14:41:56.198125,1709041316.198125,968.75,969.7265625,-48.828125,969.7265625,-1.0,1.0,0.0,1.0,5.m4v,5.0
2024-02-27 14:41:56.202031,1709041316.202031,968.75,969.7265625,-44.921875,969.7265625,-1.0,1.0,0.0,1.0,5.m4v,5.0
2024-02-27 14:41:56.205939,1709041316.2059393,969.23828125,969.7265625,-34.66796875,969.7265625,-1.0,1.0,0.0,1.0,5.m4v,5.0
2024-02-27 14:41:56.209845,1709041316.209845,969.23828125,969.7265625,-39.55078125,969.7265625,-1.0,1.0,0.0,1.0,5.m4v,5.0
2024-02-27 14:41:56.213751,1709041316.2137508,968.75,969.7265625,-47.8515625,969.7265625,-1.0,1.0,0.0,1.0,5.m4v,5.0
2024-02-27 14:41:56.217657,1709041316.2176566,969.23828125,969.7265625,-45.41015625,969.7265625,-1.0,1.0,0.0,1.0,5.m4v,5.0
2024-02-27 14:41:56.221562,1709041316.2215624,969.23828125,969.7265625,-48.828125,969.7265625,-1.0,1.0,0.0,1.0,5.m4v,5.0
2024-02-27 14:41:56.225468,1709041316.225468,969.23828125,969.7265625,-33.203125,969.7265625,-1.0,1.0,0.0,1.0,5.m4v,5.0
2024-02-27 14:41:56.225468,1709041316.225468,969.23828125,969.7265625,-33.203125,969.7265625,-1.0,1.0,0.0,1.0,5.m4v,5.0
2024-02-27 14:41:56.225468,1709041316.225468,969.23828125,969.7265625,-33.203125,969.7265625,-1.0,1.0,0.0,1.0,5.m4v,5.0
2024-02-27 14:41:56.229374,1709041316.2293737,969.23828125,969.7265625,-33.69140625,969.7265625,-1.0,1.0,0.0,1.0,5.m4v,5.0
2024-02-27 14:41:56.229374,1709041316.2293737,969.23828125,969.7265625,-33.69140625,969.7265625,-1.0,1.0,0.0,1.0,5.m4v,5.0
2024-02-27 14:41:56.233279,1709041316.2332797,969.23828125,969.7265625,-46.875,969.7265625,-1.0,1.0,0.0,1.0,5.m4v,5.0
2024-02-27 14:41:56.233279,1709041316.2332797,969.23828125,969.7265625,-46.875,969.7265625,-1.0,1.0,0.0,1.0,5.m4v,5.0
2024-02-27 14:41:56.237185,1709041316.2371852,969.7265625,975.5859375,-37.109375,970.703125,-1.0,1.0,0.0,1.0,5.m4v,5.0
2024-02-27 14:41:56.237185,1709041316.2371852,969.7265625,975.5859375,-37.109375,970.703125,-1.0,1.0,0.0,1.0,5.m4v,5.0
2024-02-27 14:41:56.241091,1709041316.241091,979.00390625,950.1953125,-28.3203125,977.05078125,-1.0,1.0,0.0,1.0,5.m4v,5.0
2024-02-27 14:41:56.241091,1709041316.241091,979.00390625,950.1953125,-28.3203125,977.05078125,-1.0,1.0,0.0,1.0,5.m4v,5.0
2024-02-27 14:41:56.303589,1709041316.3035889,-1000.0,-1000.0,-49.31640625,-1000.0,-1.0,1.0,0.0,1.0,5.m4v,5.0
2024-02-27 14:41:56.307495,1709041316.3074946,-1000.0,-993.65234375,-38.57421875,-1000.0,-1.0,1.0,0.0,1.0,5.m4v,5.0
2024-02-27 14:41:56.311400,1709041316.3114002,-935.05859375,-953.61328125,-34.66796875,-937.5,-1.0,1.0,0.0,1.0,5.m4v,5.0
2024-02-27 14:41:56.315306,1709041316.315306,-1000.0,-1000.0,-35.15625,-1000.0,-1.0,1.0,0.0,1.0,5.m4v,5.0
2024-02-27 14:41:56.319212,1709041316.3192115,-802.24609375,-161.62109375,-27.83203125,-832.03125,-1.0,1.0,0.0,1.0,5.m4v,5.0
2024-02-27 14:41:56.366083,1709041316.3660834,969.23828125,969.7265625,-29.296875,969.7265625,-1.0,1.0,0.0,1.0,5.m4v,5.0
2024-02-27 14:41:56.369989,1709041316.3699892,969.23828125,969.7265625,-30.76171875,969.7265625,-1.0,1.0,0.0,1.0,5.m4v,5.0
2024-02-27 14:41:56.373895,1709041316.373895,969.23828125,969.7265625,-37.59765625,969.7265625,-1.0,1.0,0.0,1.0,5.m4v,5.0
2024-02-27 14:41:56.377801,1709041316.3778007,969.23828125,970.21484375,-34.66796875,970.21484375,-1.0,1.0,0.0,1.0,5.m4v,5.0
2024-02-27 14:41:56.381706,1709041316.3817065,986.81640625,980.95703125,-36.1328125,985.3515625,-1.0,1.0,0.0,1.0,5.m4v,5.0
2024-02-27 14:41:56.385612,1709041316.3856122,899.4140625,901.85546875,-44.43359375,901.3671875,-1.0,1.0,0.0,1.0,5.m4v,5.0
2024-02-27 14:41:56.389518,1709041316.389518,999.51171875,999.51171875,-50.29296875,999.51171875,-1.0,1.0,0.0,1.0,5.m4v,5.0
2024-02-27 14:41:56.393426,1709041316.393426,713.8671875,492.67578125,-47.8515625,638.671875,-1.0,1.0,0.0,1.0,5.m4v,5.0
2024-02-27 14:41:56.397332,1709041316.3973317,-766.11328125,-906.73828125,-43.45703125,-814.453125,-1.0,1.0,0.0,1.0,5.m4v,5.0
2024-02-27 14:41:56.401237,1709041316.4012375,-1000.0,-1000.0,-44.921875,-1000.0,-1.0,1.0,0.0,1.0,5.m4v,5.0
2024-02-27 14:41:56.405143,1709041316.4051433,-932.12890625,-948.2421875,-28.80859375,-937.98828125,-1.0,1.0,0.0,1.0,5.m4v,5.0
2024-02-27 14:41:56.409049,1709041316.409049,-1000.0,-1000.0,-20.99609375,-1000.0,-1.0,1.0,0.0,1.0,5.m4v,5.0
2024-02-27 14:41:56.412955,1709041316.4129548,-1000.0,-1000.0,-35.64453125,-1000.0,-1.0,1.0,0.0,1.0,5.m4v,5.0
2024-02-27 14:41:56.416861,1709041316.4168606,-1000.0,-1000.0,-36.1328125,-1000.0,-1.0,1.0,0.0,1.0,5.m4v,5.0
2024-02-27 14:41:56.420766,1709041316.4207664,-1000.0,-1000.0,-32.2265625,-1000.0,-1.0,1.0,0.0,1.0,5.m4v,5.0
2024-02-27 14:41:56.424672,1709041316.424672,-1000.0,-1000.0,-36.62109375,-1000.0,-1.0,1.0,0.0,1.0,5.m4v,5.0
2024-02-27 14:41:56.428578,1709041316.428578,-1000.0,-1000.0,-40.0390625,-1000.0,-1.0,1.0,0.0,1.0,5.m4v,5.0
2024-02-27 14:41:56.432484,1709041316.4324837,-1000.0,-1000.0,-39.55078125,-1000.0,-1.0,1.0,0.0,1.0,5.m4v,5.0
2024-02-27 14:41:56.436389,1709041316.4363894,-1000.0,-1000.0,-31.25,-1000.0,-1.0,1.0,0.0,1.0,5.m4v,5.0
2024-02-27 14:41:56.467639,1709041316.467639,999.51171875,928.22265625,-29.78515625,999.51171875,-1.0,1.0,0.0,1.0,5.m4v,5.0
2024-02-27 14:41:56.471545,1709041316.4715447,901.85546875,959.47265625,-41.9921875,901.3671875,-1.0,1.0,0.0,1.0,5.m4v,5.0
2024-02-27 14:41:56.475451,1709041316.4754505,986.328125,973.14453125,-38.57421875,986.81640625,-1.0,1.0,0.0,1.0,5.m4v,5.0
2024-02-27 14:41:56.479356,1709041316.4793563,969.23828125,969.7265625,-24.90234375,969.7265625,-1.0,1.0,0.0,1.0,5.m4v,5.0
2024-02-27 14:41:56.483262,1709041316.4832618,969.23828125,969.7265625,-29.78515625,969.7265625,-1.0,1.0,0.0,1.0,5.m4v,5.0
2024-02-27 14:41:56.487171,1709041316.487171,968.75,969.7265625,-39.0625,970.21484375,-1.0,1.0,0.0,1.0,5.m4v,5.0
2024-02-27 14:41:56.491077,1709041316.4910767,969.23828125,969.7265625,-41.50390625,969.7265625,-1.0,1.0,0.0,1.0,5.m4v,5.0
2024-02-27 14:41:56.494982,1709041316.4949825,969.23828125,969.7265625,-41.9921875,969.7265625,-1.0,1.0,0.0,1.0,5.m4v,5.0
2024-02-27 14:41:56.526229,1709041316.526229,-1000.0,-1000.0,-20.99609375,-991.2109375,-1.0,1.0,0.0,1.0,5.m4v,5.0
2024-02-27 14:41:56.530134,1709041316.5301344,-954.1015625,-950.1953125,-24.90234375,-975.09765625,-1.0,1.0,0.0,1.0,5.m4v,5.0
2024-02-27 14:41:56.534043,1709041316.5340433,-1000.0,-1000.0,-29.78515625,-1000.0,-1.0,1.0,0.0,1.0,5.m4v,5.0
2024-02-27 14:41:56.537949,1709041316.537949,-1000.0,-1000.0,-38.57421875,-1000.0,-1.0,1.0,0.0,1.0,5.m4v,5.0
2024-02-27 14:41:56.541855,1709041316.5418549,-1000.0,-1000.0,-36.62109375,-1000.0,-1.0,1.0,0.0,1.0,5.m4v,5.0
2024-02-27 14:41:56.545761,1709041316.5457606,-1000.0,-1000.0,-36.1328125,-1000.0,-1.0,1.0,0.0,1.0,5.m4v,5.0
2024-02-27 14:41:56.549666,1709041316.5496664,-1000.0,-1000.0,-26.3671875,-1000.0,-1.0,1.0,0.0,1.0,5.m4v,5.0
2024-02-27 14:41:56.553572,1709041316.5535722,-1000.0,-1000.0,-27.34375,-1000.0,-1.0,1.0,0.0,1.0,5.m4v,5.0
2024-02-27 14:41:56.557478,1709041316.557478,-1000.0,-1000.0,-35.64453125,-1000.0,-1.0,1.0,0.0,1.0,5.m4v,5.0
2024-02-27 14:41:56.561384,1709041316.5613835,-1000.0,-1000.0,-35.15625,-1000.0,-1.0,1.0,0.0,1.0,5.m4v,5.0
2024-02-27 14:41:56.565289,1709041316.5652895,-1000.0,-1000.0,-31.25,-1000.0,-1.0,1.0,0.0,1.0,5.m4v,5.0
2024-02-27 14:41:56.569195,1709041316.5691953,-1000.0,-1000.0,-24.4140625,-1000.0,-1.0,1.0,0.0,1.0,5.m4v,5.0
2024-02-27 14:41:56.573101,1709041316.573101,-1000.0,-1000.0,-26.85546875,-1000.0,-1.0,1.0,0.0,1.0,5.m4v,5.0
2024-02-27 14:41:56.577007,1709041316.5770068,-942.3828125,-942.3828125,-39.0625,-940.4296875,-1.0,1.0,0.0,1.0,5.m4v,5.0
2024-02-27 14:41:56.580915,1709041316.5809157,-1000.0,-1000.0,-38.0859375,-1000.0,-1.0,1.0,0.0,1.0,5.m4v,5.0
2024-02-27 14:41:56.584821,1709041316.5848212,-891.11328125,-891.11328125,-28.80859375,-867.67578125,-1.0,1.0,0.0,1.0,5.m4v,5.0
2024-02-27 14:41:56.588727,1709041316.588727,565.91796875,566.40625,-22.4609375,593.75,-1.0,1.0,0.0,1.0,5.m4v,5.0
2024-02-27 14:41:56.592633,1709041316.5926328,999.51171875,999.51171875,-26.3671875,999.51171875,-1.0,1.0,0.0,1.0,5.m4v,5.0
2024-02-27 14:41:56.596539,1709041316.5965383,894.53125,895.01953125,-29.78515625,895.99609375,-1.0,1.0,0.0,1.0,5.m4v,5.0
2024-02-27 14:41:56.600444,1709041316.6004443,984.86328125,985.83984375,-31.25,985.83984375,-1.0,1.0,0.0,1.0,5.m4v,5.0
2024-02-27 14:41:56.604350,1709041316.60435,969.23828125,969.7265625,-38.0859375,969.7265625,-1.0,1.0,0.0,1.0,5.m4v,5.0
2024-02-27 14:41:56.608256,1709041316.608256,969.23828125,969.7265625,-33.69140625,969.7265625,-1.0,1.0,0.0,1.0,5.m4v,5.0
2024-02-27 14:41:56.612162,1709041316.6121616,969.23828125,969.7265625,-35.64453125,969.7265625,-1.0,1.0,0.0,1.0,5.m4v,5.0
2024-02-27 14:41:56.616067,1709041316.6160672,969.23828125,969.7265625,-36.1328125,969.7265625,-1.0,1.0,0.0,1.0,5.m4v,5.0
2024-02-27 14:41:56.619973,1709041316.619973,969.23828125,969.7265625,-28.80859375,969.7265625,-1.0,1.0,0.0,1.0,5.m4v,5.0
2024-02-27 14:41:56.623879,1709041316.6238787,969.23828125,969.7265625,-34.66796875,974.12109375,-1.0,1.0,0.0,1.0,5.m4v,5.0
2024-02-27 14:41:56.627787,1709041316.6277874,986.328125,987.3046875,-38.57421875,965.8203125,-1.0,1.0,0.0,1.0,5.m4v,5.0
2024-02-27 14:41:56.631693,1709041316.6316931,900.87890625,906.25,-33.203125,932.6171875,-1.0,1.0,0.0,1.0,5.m4v,5.0
2024-02-27 14:41:56.635599,1709041316.635599,999.51171875,999.51171875,-33.69140625,999.51171875,-1.0,1.0,0.0,1.0,5.m4v,5.0
2024-02-27 14:41:56.639505,1709041316.639505,721.19140625,793.9453125,-35.15625,303.7109375,-1.0,1.0,0.0,1.0,5.m4v,5.0
2024-02-27 14:41:56.643410,1709041316.6434104,-755.37109375,-680.17578125,-31.25,-898.4375,-1.0,1.0,0.0,1.0,5.m4v,5.0
2024-02-27 14:41:56.647316,1709041316.6473162,-1000.0,-1000.0,-30.76171875,-1000.0,-1.0,1.0,0.0,1.0,5.m4v,5.0
2024-02-27 14:41:56.651222,1709041316.651222,-932.12890625,-928.22265625,-29.78515625,-959.9609375,-1.0,1.0,0.0,1.0,5.m4v,5.0
2024-02-27 14:41:56.655128,1709041316.6551278,-1000.0,-1000.0,-31.73828125,-1000.0,-1.0,1.0,0.0,1.0,5.m4v,5.0
2024-02-27 14:41:56.659034,1709041316.6590335,-1000.0,-1000.0,-31.73828125,-1000.0,-1.0,1.0,0.0,1.0,5.m4v,5.0
2024-02-27 14:41:56.662939,1709041316.662939,-1000.0,-1000.0,-36.62109375,-1000.0,-1.0,1.0,0.0,1.0,5.m4v,5.0
2024-02-27 14:41:56.666845,1709041316.6668448,-1000.0,-1000.0,-41.015625,-1000.0,-1.0,1.0,0.0,1.0,5.m4v,5.0
2024-02-27 14:41:56.666845,1709041316.6668448,-1000.0,-1000.0,-41.015625,-1000.0,-1.0,1.0,0.0,1.0,5.m4v,5.0
2024-02-27 14:41:56.670751,1709041316.6707506,-1000.0,-1000.0,-43.45703125,-1000.0,-1.0,1.0,0.0,1.0,5.m4v,5.0
2024-02-27 14:41:56.674659,1709041316.674659,-1000.0,-1000.0,-43.45703125,-1000.0,-1.0,1.0,0.0,1.0,5.m4v,5.0
2024-02-27 14:41:56.678565,1709041316.6785648,-1000.0,-1000.0,-39.0625,-1000.0,-1.0,1.0,0.0,1.0,5.m4v,5.0
2024-02-27 14:41:56.682471,1709041316.6824706,-1000.0,-1000.0,-36.62109375,-1000.0,-1.0,1.0,0.0,1.0,5.m4v,5.0
2024-02-27 14:41:56.682471,1709041316.6824706,-1000.0,-1000.0,-36.62109375,-1000.0,-1.0,1.0,0.0,1.0,5.m4v,5.0
2024-02-27 14:41:56.682471,1709041316.6824706,-1000.0,-1000.0,-36.62109375,-1000.0,-1.0,1.0,0.0,1.0,5.m4v,5.0
2024-02-27 14:41:56.686376,1709041316.6863763,-945.80078125,-930.6640625,-30.76171875,-969.7265625,-1.0,1.0,0.0,1.0,5.m4v,5.0
2024-02-27 14:41:56.690282,1709041316.690282,-1000.0,-1000.0,-32.2265625,-993.1640625,-1.0,1.0,0.0,1.0,5.m4v,5.0
2024-02-27 14:41:56.694188,1709041316.694188,-916.9921875,-719.23828125,-45.41015625,-1000.0,-1.0,1.0,0.0,1.0,5.m4v,5.0
2024-02-27 14:41:56.698094,1709041316.6980937,523.4375,753.90625,-46.875,220.703125,-1.0,1.0,0.0,1.0,5.m4v,5.0
2024-02-27 14:41:56.698094,1709041316.6980937,523.4375,753.90625,-46.875,220.703125,-1.0,1.0,0.0,1.0,5.m4v,5.0
2024-02-27 14:41:56.698094,1709041316.6980937,523.4375,753.90625,-46.875,220.703125,-1.0,1.0,0.0,1.0,5.m4v,5.0
2024-02-27 14:41:56.701999,1709041316.7019994,999.51171875,999.51171875,-38.0859375,999.51171875,-1.0,1.0,0.0,1.0,5.m4v,5.0
2024-02-27 14:41:56.705905,1709041316.7059052,894.53125,903.80859375,-40.0390625,909.1796875,-1.0,1.0,0.0,1.0,5.m4v,5.0
2024-02-27 14:41:56.709811,1709041316.709811,983.88671875,987.3046875,-46.38671875,970.703125,-1.0,1.0,0.0,1.0,5.m4v,5.0
2024-02-27 14:41:56.713717,1709041316.7137167,969.23828125,969.7265625,-43.9453125,970.703125,-1.0,1.0,0.0,1.0,5.m4v,5.0
2024-02-27 14:41:56.713717,1709041316.7137167,969.23828125,969.7265625,-43.9453125,970.703125,-1.0,1.0,0.0,1.0,5.m4v,5.0
2024-02-27 14:41:56.713717,1709041316.7137167,969.23828125,969.7265625,-43.9453125,970.703125,-1.0,1.0,0.0,1.0,5.m4v,5.0
2024-02-27 14:41:56.717623,1709041316.7176225,969.23828125,969.7265625,-39.55078125,969.7265625,-1.0,1.0,0.0,1.0,5.m4v,5.0
2024-02-27 14:41:56.721531,1709041316.721531,969.23828125,969.7265625,-33.69140625,969.7265625,-1.0,1.0,0.0,1.0,5.m4v,5.0
2024-02-27 14:41:56.725437,1709041316.7254367,969.23828125,969.7265625,-24.4140625,969.7265625,-1.0,1.0,0.0,1.0,5.m4v,5.0
2024-02-27 14:41:56.729342,1709041316.7293422,968.75,969.7265625,-28.80859375,969.7265625,-1.0,1.0,0.0,1.0,5.m4v,5.0
2024-02-27 14:41:56.729342,1709041316.7293422,968.75,969.7265625,-28.80859375,969.7265625,-1.0,1.0,0.0,1.0,5.m4v,5.0
2024-02-27 14:41:56.729342,1709041316.7293422,968.75,969.7265625,-28.80859375,969.7265625,-1.0,1.0,0.0,1.0,5.m4v,5.0
2024-02-27 14:41:56.733248,1709041316.733248,969.23828125,969.7265625,-35.15625,969.7265625,-1.0,1.0,0.0,1.0,5.m4v,5.0
2024-02-27 14:41:56.737154,1709041316.7371538,969.23828125,969.7265625,-26.85546875,969.7265625,-1.0,1.0,0.0,1.0,5.m4v,5.0
2024-02-27 14:41:56.741060,1709041316.7410595,969.7265625,969.7265625,-29.78515625,973.6328125,-1.0,1.0,0.0,1.0,5.m4v,5.0
2024-02-27 14:41:56.744965,1709041316.7449653,980.95703125,983.88671875,-51.7578125,963.8671875,-1.0,1.0,0.0,1.0,5.m4v,5.0
2024-02-27 14:41:56.744965,1709041316.7449653,980.95703125,983.88671875,-51.7578125,963.8671875,-1.0,1.0,0.0,1.0,5.m4v,5.0
2024-02-27 14:41:56.744965,1709041316.7449653,980.95703125,983.88671875,-51.7578125,963.8671875,-1.0,1.0,0.0,1.0,5.m4v,5.0
2024-02-27 14:41:56.748871,1709041316.748871,898.92578125,897.4609375,-41.9921875,925.29296875,-1.0,1.0,0.0,1.0,5.m4v,5.0
2024-02-27 14:41:56.752777,1709041316.7527769,999.51171875,999.51171875,-27.34375,999.51171875,-1.0,1.0,0.0,1.0,5.m4v,5.0
2024-02-27 14:41:56.756683,1709041316.7566826,484.86328125,541.50390625,-41.015625,167.48046875,-1.0,1.0,0.0,1.0,5.m4v,5.0
2024-02-27 14:41:56.760588,1709041316.7605884,-921.875,-894.53125,-40.52734375,-1000.0,-1.0,1.0,0.0,1.0,5.m4v,5.0
2024-02-27 14:41:56.760588,1709041316.7605884,-921.875,-894.53125,-40.52734375,-1000.0,-1.0,1.0,0.0,1.0,5.m4v,5.0
2024-02-27 14:41:56.760588,1709041316.7605884,-921.875,-894.53125,-40.52734375,-1000.0,-1.0,1.0,0.0,1.0,5.m4v,5.0
2024-02-27 14:41:56.764494,1709041316.7644942,-1000.0,-1000.0,-35.15625,-996.09375,-1.0,1.0,0.0,1.0,5.m4v,5.0
2024-02-27 14:41:56.768402,1709041316.768402,-948.73046875,-944.3359375,-36.1328125,-971.6796875,-1.0,1.0,0.0,1.0,5.m4v,5.0
2024-02-27 14:41:56.772308,1709041316.772308,-1000.0,-1000.0,-27.83203125,-1000.0,-1.0,1.0,0.0,1.0,5.m4v,5.0
2024-02-27 14:41:56.776214,1709041316.7762136,-1000.0,-1000.0,-26.85546875,-1000.0,-1.0,1.0,0.0,1.0,5.m4v,5.0
2024-02-27 14:41:56.776214,1709041316.7762136,-1000.0,-1000.0,-26.85546875,-1000.0,-1.0,1.0,0.0,1.0,5.m4v,5.0
2024-02-27 14:41:56.776214,1709041316.7762136,-1000.0,-1000.0,-26.85546875,-1000.0,-1.0,1.0,0.0,1.0,5.m4v,5.0
2024-02-27 14:41:56.780119,1709041316.7801194,-1000.0,-1000.0,-33.69140625,-1000.0,-1.0,1.0,0.0,1.0,5.m4v,5.0
2024-02-27 14:41:56.784025,1709041316.7840252,-1000.0,-1000.0,-32.71484375,-1000.0,-1.0,1.0,0.0,1.0,5.m4v,5.0
2024-02-27 14:41:56.787931,1709041316.787931,-1000.0,-1000.0,-34.66796875,-1000.0,-1.0,1.0,0.0,1.0,5.m4v,5.0
2024-02-27 14:41:56.791837,1709041316.7918367,-1000.0,-1000.0,-46.38671875,-1000.0,-1.0,1.0,0.0,1.0,5.m4v,5.0
2024-02-27 14:41:56.795743,1709041316.7957425,-1000.0,-1000.0,-47.8515625,-1000.0,-1.0,1.0,0.0,1.0,5.m4v,5.0
2024-02-27 14:41:56.799648,1709041316.7996483,-1000.0,-1000.0,-36.62109375,-1000.0,-1.0,1.0,0.0,1.0,5.m4v,5.0
2024-02-27 14:41:56.803554,1709041316.803554,-1000.0,-1000.0,-26.3671875,-1000.0,-1.0,1.0,0.0,1.0,5.m4v,5.0
2024-02-27 14:41:56.807460,1709041316.8074598,-1000.0,-1000.0,-25.87890625,-1000.0,-1.0,1.0,0.0,1.0,5.m4v,5.0
2024-02-27 14:41:56.811366,1709041316.8113656,-1000.0,-1000.0,-33.69140625,-1000.0,-1.0,1.0,0.0,1.0,5.m4v,5.0
2024-02-27 14:41:56.815275,1709041316.8152747,-973.6328125,-978.02734375,-28.3203125,-961.9140625,-1.0,1.0,0.0,1.0,5.m4v,5.0
2024-02-27 14:41:56.819180,1709041316.8191805,-983.88671875,-976.07421875,-23.4375,-1000.0,-1.0,1.0,0.0,1.0,5.m4v,5.0
2024-02-27 14:41:56.823086,1709041316.8230865,-1000.0,-1000.0,-26.3671875,-1000.0,-1.0,1.0,0.0,1.0,5.m4v,5.0
2024-02-27 14:41:56.826992,1709041316.826992,169.921875,106.4453125,-27.34375,324.70703125,-1.0,1.0,0.0,1.0,5.m4v,5.0
2024-02-27 14:41:56.830898,1709041316.8308978,999.51171875,999.51171875,-31.25,999.51171875,-1.0,1.0,0.0,1.0,5.m4v,5.0
2024-02-27 14:41:56.834804,1709041316.8348036,910.64453125,917.96875,-28.80859375,901.85546875,-1.0,1.0,0.0,1.0,5.m4v,5.0
2024-02-27 14:41:56.838709,1709041316.8387094,967.7734375,964.84375,-35.64453125,976.5625,-1.0,1.0,0.0,1.0,5.m4v,5.0
2024-02-27 14:41:56.842615,1709041316.8426151,970.21484375,971.6796875,-45.8984375,970.21484375,-1.0,1.0,0.0,1.0,5.m4v,5.0
2024-02-27 14:41:56.846521,1709041316.846521,969.23828125,970.21484375,-41.50390625,969.7265625,-1.0,1.0,0.0,1.0,5.m4v,5.0
2024-02-27 14:41:56.850427,1709041316.850427,969.23828125,969.7265625,-30.2734375,969.7265625,-1.0,1.0,0.0,1.0,5.m4v,5.0
2024-02-27 14:41:56.854332,1709041316.8543324,969.23828125,969.7265625,-30.2734375,969.7265625,-1.0,1.0,0.0,1.0,5.m4v,5.0
2024-02-27 14:41:56.858238,1709041316.8582382,969.23828125,969.7265625,-35.15625,969.7265625,-1.0,1.0,0.0,1.0,5.m4v,5.0
2024-02-27 14:41:56.862147,1709041316.862147,969.23828125,969.7265625,-36.62109375,969.7265625,-1.0,1.0,0.0,1.0,5.m4v,5.0
2024-02-27 14:41:56.866053,1709041316.8660529,969.23828125,969.7265625,-41.015625,969.7265625,-1.0,1.0,0.0,1.0,5.m4v,5.0
2024-02-27 14:41:56.869959,1709041316.8699586,969.23828125,969.7265625,-33.69140625,969.7265625,-1.0,1.0,0.0,1.0,5.m4v,5.0
2024-02-27 14:41:56.869959,1709041316.8699586,969.23828125,969.7265625,-33.69140625,969.7265625,-1.0,1.0,0.0,1.0,5.m4v,5.0
2024-02-27 14:41:56.869959,1709041316.8699586,969.23828125,969.7265625,-33.69140625,969.7265625,-1.0,1.0,0.0,1.0,5.m4v,5.0
2024-02-27 14:41:56.873864,1709041316.8738644,969.23828125,969.7265625,-34.1796875,969.7265625,-1.0,1.0,0.0,1.0,5.m4v,5.0
2024-02-27 14:41:56.873864,1709041316.8738644,969.23828125,969.7265625,-34.1796875,969.7265625,-1.0,1.0,0.0,1.0,5.m4v,5.0
2024-02-27 14:41:56.873864,1709041316.8738644,969.23828125,969.7265625,-34.1796875,969.7265625,-1.0,1.0,0.0,1.0,5.m4v,5.0
2024-02-27 14:41:56.877770,1709041316.8777702,969.23828125,969.7265625,-40.52734375,969.7265625,-1.0,1.0,0.0,1.0,5.m4v,5.0
2024-02-27 14:41:56.877770,1709041316.8777702,969.23828125,969.7265625,-40.52734375,969.7265625,-1.0,1.0,0.0,1.0,5.m4v,5.0
2024-02-27 14:41:56.877770,1709041316.8777702,969.23828125,969.7265625,-40.52734375,969.7265625,-1.0,1.0,0.0,1.0,5.m4v,5.0
2024-02-27 14:41:56.881676,1709041316.881676,969.23828125,970.21484375,-35.64453125,970.21484375,-1.0,1.0,0.0,1.0,5.m4v,5.0
2024-02-27 14:41:56.881676,1709041316.881676,969.23828125,970.21484375,-35.64453125,970.21484375,-1.0,1.0,0.0,1.0,5.m4v,5.0
2024-02-27 14:41:56.881676,1709041316.881676,969.23828125,970.21484375,-35.64453125,970.21484375,-1.0,1.0,0.0,1.0,5.m4v,5.0
2024-02-27 14:41:56.885582,1709041316.8855815,985.3515625,986.328125,-29.296875,984.375,-1.0,1.0,0.0,1.0,5.m4v,5.0
2024-02-27 14:41:56.885582,1709041316.8855815,985.3515625,986.328125,-29.296875,984.375,-1.0,1.0,0.0,1.0,5.m4v,5.0
2024-02-27 14:41:56.889488,1709041316.8894875,910.64453125,911.62109375,-41.015625,909.1796875,-1.0,1.0,0.0,1.0,5.m4v,5.0
2024-02-27 14:41:56.889488,1709041316.8894875,910.64453125,911.62109375,-41.015625,909.1796875,-1.0,1.0,0.0,1.0,5.m4v,5.0
2024-02-27 14:41:56.893393,1709041316.8933933,999.51171875,999.51171875,-44.921875,999.51171875,-1.0,1.0,0.0,1.0,5.m4v,5.0
2024-02-27 14:41:56.893393,1709041316.8933933,999.51171875,999.51171875,-44.921875,999.51171875,-1.0,1.0,0.0,1.0,5.m4v,5.0
2024-02-27 14:41:56.897299,1709041316.897299,854.00390625,860.83984375,-38.0859375,745.1171875,-1.0,1.0,0.0,1.0,5.m4v,5.0
2024-02-27 14:41:56.897299,1709041316.897299,854.00390625,860.83984375,-38.0859375,745.1171875,-1.0,1.0,0.0,1.0,5.m4v,5.0
2024-02-27 14:41:56.901205,1709041316.9012048,-604.98046875,-597.16796875,-30.76171875,-692.3828125,-1.0,1.0,0.0,1.0,5.m4v,5.0
2024-02-27 14:41:56.901205,1709041316.9012048,-604.98046875,-597.16796875,-30.76171875,-692.3828125,-1.0,1.0,0.0,1.0,5.m4v,5.0
2024-02-27 14:41:56.905110,1709041316.9051104,-1000.0,-1000.0,-30.2734375,-1000.0,-1.0,1.0,0.0,1.0,5.m4v,5.0
2024-02-27 14:41:56.905110,1709041316.9051104,-1000.0,-1000.0,-30.2734375,-1000.0,-1.0,1.0,0.0,1.0,5.m4v,5.0
2024-02-27 14:41:56.909021,1709041316.909021,-925.78125,-925.78125,-36.1328125,-932.6171875,-1.0,1.0,0.0,1.0,5.m4v,5.0
2024-02-27 14:41:56.909021,1709041316.909021,-925.78125,-925.78125,-36.1328125,-932.6171875,-1.0,1.0,0.0,1.0,5.m4v,5.0
2024-02-27 14:41:56.912926,1709041316.9129264,-1000.0,-1000.0,-36.1328125,-1000.0,-1.0,1.0,0.0,1.0,5.m4v,5.0
2024-02-27 14:41:56.912926,1709041316.9129264,-1000.0,-1000.0,-36.1328125,-1000.0,-1.0,1.0,0.0,1.0,5.m4v,5.0
2024-02-27 14:41:56.916832,1709041316.9168322,-1000.0,-1000.0,-26.3671875,-1000.0,-1.0,1.0,0.0,1.0,5.m4v,5.0
2024-02-27 14:41:56.916832,1709041316.9168322,-1000.0,-1000.0,-26.3671875,-1000.0,-1.0,1.0,0.0,1.0,5.m4v,5.0
2024-02-27 14:41:56.920738,1709041316.920738,-1000.0,-1000.0,-24.90234375,-1000.0,-1.0,1.0,0.0,1.0,5.m4v,5.0
2024-02-27 14:41:56.924644,1709041316.9246438,-1000.0,-1000.0,-22.94921875,-1000.0,-1.0,1.0,0.0,1.0,5.m4v,5.0
2024-02-27 14:41:56.928550,1709041316.9285495,-1000.0,-1000.0,-27.34375,-1000.0,-1.0,1.0,0.0,1.0,5.m4v,5.0
2024-02-27 14:41:56.932455,1709041316.932455,-1000.0,-1000.0,-39.55078125,-1000.0,-1.0,1.0,0.0,1.0,5.m4v,5.0
2024-02-27 14:41:56.936361,1709041316.9363608,-1000.0,-1000.0,-40.52734375,-1000.0,-1.0,1.0,0.0,1.0,5.m4v,5.0
2024-02-27 14:41:56.940267,1709041316.9402666,-1000.0,-1000.0,-42.48046875,-1000.0,-1.0,1.0,0.0,1.0,5.m4v,5.0
2024-02-27 14:41:56.944172,1709041316.9441724,-1000.0,-1000.0,-32.71484375,-1000.0,-1.0,1.0,0.0,1.0,5.m4v,5.0
2024-02-27 14:41:56.948078,1709041316.9480782,-1000.0,-1000.0,-33.203125,-1000.0,-1.0,1.0,0.0,1.0,5.m4v,5.0
2024-02-27 14:41:56.951984,1709041316.951984,-1000.0,-1000.0,-41.50390625,-1000.0,-1.0,1.0,0.0,1.0,5.m4v,5.0
2024-02-27 14:41:56.955893,1709041316.9558928,-952.1484375,-954.1015625,-34.66796875,-946.77734375,-1.0,1.0,0.0,1.0,5.m4v,5.0
2024-02-27 14:41:56.959799,1709041316.9597986,-1000.0,-1000.0,-30.2734375,-1000.0,-1.0,1.0,0.0,1.0,5.m4v,5.0
2024-02-27 14:41:56.963704,1709041316.9637043,-962.40234375,-975.09765625,-28.80859375,-921.38671875,-1.0,1.0,0.0,1.0,5.m4v,5.0
2024-02-27 14:41:56.967610,1709041316.96761,445.80078125,424.31640625,-31.73828125,515.625,-1.0,1.0,0.0,1.0,5.m4v,5.0
2024-02-27 14:41:56.971516,1709041316.971516,999.51171875,999.51171875,-42.96875,999.51171875,-1.0,1.0,0.0,1.0,5.m4v,5.0
2024-02-27 14:41:56.975422,1709041316.9754217,895.01953125,895.99609375,-47.36328125,895.5078125,-1.0,1.0,0.0,1.0,5.m4v,5.0
2024-02-27 14:41:56.979327,1709041316.9793274,981.4453125,981.4453125,-38.0859375,984.375,-1.0,1.0,0.0,1.0,5.m4v,5.0
2024-02-27 14:41:56.983233,1709041316.9832332,969.23828125,969.7265625,-35.15625,969.7265625,-1.0,1.0,0.0,1.0,5.m4v,5.0
2024-02-27 14:41:56.987139,1709041316.987139,969.23828125,969.7265625,-32.2265625,969.7265625,-1.0,1.0,0.0,1.0,5.m4v,5.0
2024-02-27 14:41:56.991045,1709041316.9910448,969.23828125,969.7265625,-30.2734375,969.7265625,-1.0,1.0,0.0,1.0,5.m4v,5.0
2024-02-27 14:41:56.994951,1709041316.9949503,969.23828125,969.7265625,-33.69140625,969.7265625,-1.0,1.0,0.0,1.0,5.m4v,5.0
2024-02-27 14:41:56.998856,1709041316.998856,969.23828125,969.7265625,-27.83203125,969.7265625,-1.0,1.0,0.0,1.0,5.m4v,5.0
2024-02-27 14:41:57.002765,1709041317.0027647,968.75,969.7265625,-31.73828125,970.21484375,-1.0,1.0,0.0,1.0,5.m4v,5.0
2024-02-27 14:41:57.006670,1709041317.0066705,968.75,969.7265625,-34.66796875,969.7265625,-1.0,1.0,0.0,1.0,5.m4v,5.0
2024-02-27 14:41:57.010576,1709041317.0105762,969.23828125,969.7265625,-24.90234375,969.7265625,-1.0,1.0,0.0,1.0,5.m4v,5.0
2024-02-27 14:41:57.014482,1709041317.014482,969.23828125,969.7265625,-19.53125,969.7265625,-1.0,1.0,0.0,1.0,5.m4v,5.0
2024-02-27 14:41:57.018388,1709041317.0183878,969.23828125,969.7265625,-20.99609375,969.7265625,-1.0,1.0,0.0,1.0,5.m4v,5.0
2024-02-27 14:41:57.022294,1709041317.0222936,981.93359375,983.3984375,-21.97265625,984.375,-1.0,1.0,0.0,1.0,5.m4v,5.0
2024-02-27 14:41:57.026199,1709041317.026199,924.31640625,921.875,-30.76171875,918.9453125,-1.0,1.0,0.0,1.0,5.m4v,5.0
2024-02-27 14:41:57.030105,1709041317.030105,990.72265625,998.53515625,-53.22265625,999.51171875,-1.0,1.0,0.0,1.0,5.m4v,5.0
2024-02-27 14:41:57.034011,1709041317.034011,952.1484375,934.08203125,-40.52734375,910.15625,-1.0,1.0,0.0,1.0,5.m4v,5.0
2024-02-27 14:41:57.037917,1709041317.037917,-437.01171875,-473.14453125,-20.99609375,-512.20703125,-1.0,1.0,0.0,1.0,5.m4v,5.0
2024-02-27 14:41:57.041822,1709041317.0418224,-1000.0,-1000.0,-36.1328125,-1000.0,-1.0,1.0,0.0,1.0,5.m4v,5.0
2024-02-27 14:41:57.045728,1709041317.0457282,-927.24609375,-926.26953125,-26.85546875,-926.26953125,-1.0,1.0,0.0,1.0,5.m4v,5.0
2024-02-27 14:41:57.045728,1709041317.0457282,-927.24609375,-926.26953125,-26.85546875,-926.26953125,-1.0,1.0,0.0,1.0,5.m4v,5.0
2024-02-27 14:41:57.049636,1709041317.0496364,-1000.0,-1000.0,-12.6953125,-1000.0,-1.0,1.0,0.0,1.0,5.m4v,5.0
2024-02-27 14:41:57.049636,1709041317.0496364,-1000.0,-1000.0,-12.6953125,-1000.0,-1.0,1.0,0.0,1.0,5.m4v,5.0
2024-02-27 14:41:57.053542,1709041317.053542,-1000.0,-1000.0,-14.6484375,-1000.0,-1.0,1.0,0.0,1.0,5.m4v,5.0
2024-02-27 14:41:57.053542,1709041317.053542,-1000.0,-1000.0,-14.6484375,-1000.0,-1.0,1.0,0.0,1.0,5.m4v,5.0
2024-02-27 14:41:57.057448,1709041317.057448,-1000.0,-1000.0,-16.6015625,-1000.0,-1.0,1.0,0.0,1.0,5.m4v,5.0
2024-02-27 14:41:57.057448,1709041317.057448,-1000.0,-1000.0,-16.6015625,-1000.0,-1.0,1.0,0.0,1.0,5.m4v,5.0
2024-02-27 14:41:57.061354,1709041317.0613537,-1000.0,-1000.0,-25.390625,-1000.0,-1.0,1.0,0.0,1.0,5.m4v,5.0
2024-02-27 14:41:57.061354,1709041317.0613537,-1000.0,-1000.0,-25.390625,-1000.0,-1.0,1.0,0.0,1.0,5.m4v,5.0
2024-02-27 14:41:57.065259,1709041317.0652597,-1000.0,-1000.0,-26.85546875,-1000.0,-1.0,1.0,0.0,1.0,5.m4v,5.0
2024-02-27 14:41:57.065259,1709041317.0652597,-1000.0,-1000.0,-26.85546875,-1000.0,-1.0,1.0,0.0,1.0,5.m4v,5.0
2024-02-27 14:41:57.069165,1709041317.0691652,-1000.0,-1000.0,-31.25,-1000.0,-1.0,1.0,0.0,1.0,5.m4v,5.0
2024-02-27 14:41:57.069165,1709041317.0691652,-1000.0,-1000.0,-31.25,-1000.0,-1.0,1.0,0.0,1.0,5.m4v,5.0
2024-02-27 14:41:57.073071,1709041317.073071,-1000.0,-1000.0,-46.875,-1000.0,-1.0,1.0,0.0,1.0,5.m4v,5.0
2024-02-27 14:41:57.073071,1709041317.073071,-1000.0,-1000.0,-46.875,-1000.0,-1.0,1.0,0.0,1.0,5.m4v,5.0
2024-02-27 14:41:57.076977,1709041317.0769768,-1000.0,-1000.0,-43.45703125,-1000.0,-1.0,1.0,0.0,1.0,5.m4v,5.0
2024-02-27 14:41:57.076977,1709041317.0769768,-1000.0,-1000.0,-43.45703125,-1000.0,-1.0,1.0,0.0,1.0,5.m4v,5.0
2024-02-27 14:41:57.080883,1709041317.0808823,-1000.0,-1000.0,-29.296875,-1000.0,-1.0,1.0,0.0,1.0,5.m4v,5.0
2024-02-27 14:41:57.080883,1709041317.0808823,-1000.0,-1000.0,-29.296875,-1000.0,-1.0,1.0,0.0,1.0,5.m4v,5.0
2024-02-27 14:41:57.084788,1709041317.0847883,-1000.0,-1000.0,-23.4375,-1000.0,-1.0,1.0,0.0,1.0,5.m4v,5.0
2024-02-27 14:41:57.084788,1709041317.0847883,-1000.0,-1000.0,-23.4375,-1000.0,-1.0,1.0,0.0,1.0,5.m4v,5.0
2024-02-27 14:41:57.088694,1709041317.088694,-1000.0,-1000.0,-23.92578125,-1000.0,-1.0,1.0,0.0,1.0,5.m4v,5.0
2024-02-27 14:41:57.088694,1709041317.088694,-1000.0,-1000.0,-23.92578125,-1000.0,-1.0,1.0,0.0,1.0,5.m4v,5.0
2024-02-27 14:41:57.092600,1709041317.0926,-1000.0,-1000.0,-30.76171875,-1000.0,-1.0,1.0,0.0,1.0,5.m4v,5.0
2024-02-27 14:41:57.092600,1709041317.0926,-1000.0,-1000.0,-30.76171875,-1000.0,-1.0,1.0,0.0,1.0,5.m4v,5.0
2024-02-27 14:41:57.096508,1709041317.096508,-947.265625,-951.66015625,-30.2734375,-944.3359375,-1.0,1.0,0.0,1.0,5.m4v,5.0
2024-02-27 14:41:57.096508,1709041317.096508,-947.265625,-951.66015625,-30.2734375,-944.3359375,-1.0,1.0,0.0,1.0,5.m4v,5.0
2024-02-27 14:41:57.100414,1709041317.1004138,-1000.0,-1000.0,-32.71484375,-1000.0,-1.0,1.0,0.0,1.0,5.m4v,5.0
2024-02-27 14:41:57.100414,1709041317.1004138,-1000.0,-1000.0,-32.71484375,-1000.0,-1.0,1.0,0.0,1.0,5.m4v,5.0
2024-02-27 14:41:57.104320,1709041317.1043196,-929.6875,-960.9375,-27.34375,-904.296875,-1.0,1.0,0.0,1.0,5.m4v,5.0
2024-02-27 14:41:57.104320,1709041317.1043196,-929.6875,-960.9375,-27.34375,-904.296875,-1.0,1.0,0.0,1.0,5.m4v,5.0
2024-02-27 14:41:57.108225,1709041317.108225,504.39453125,450.1953125,-23.92578125,543.9453125,-1.0,1.0,0.0,1.0,5.m4v,5.0
2024-02-27 14:41:57.108225,1709041317.108225,504.39453125,450.1953125,-23.92578125,543.9453125,-1.0,1.0,0.0,1.0,5.m4v,5.0
2024-02-27 14:41:57.112131,1709041317.112131,999.51171875,999.51171875,-27.34375,999.51171875,-1.0,1.0,0.0,1.0,5.m4v,5.0
2024-02-27 14:41:57.112131,1709041317.112131,999.51171875,999.51171875,-27.34375,999.51171875,-1.0,1.0,0.0,1.0,5.m4v,5.0
2024-02-27 14:41:57.116037,1709041317.116037,894.53125,895.5078125,-33.203125,895.01953125,-1.0,1.0,0.0,1.0,5.m4v,5.0
2024-02-27 14:41:57.116037,1709041317.116037,894.53125,895.5078125,-33.203125,895.01953125,-1.0,1.0,0.0,1.0,5.m4v,5.0
2024-02-27 14:41:57.119943,1709041317.119943,983.3984375,982.421875,-49.31640625,984.86328125,-1.0,1.0,0.0,1.0,5.m4v,5.0
2024-02-27 14:41:57.119943,1709041317.119943,983.3984375,982.421875,-49.31640625,984.86328125,-1.0,1.0,0.0,1.0,5.m4v,5.0
2024-02-27 14:41:57.123848,1709041317.1238484,969.23828125,969.7265625,-39.0625,969.7265625,-1.0,1.0,0.0,1.0,5.m4v,5.0
2024-02-27 14:41:57.123848,1709041317.1238484,969.23828125,969.7265625,-39.0625,969.7265625,-1.0,1.0,0.0,1.0,5.m4v,5.0
2024-02-27 14:41:57.127754,1709041317.1277542,968.75,969.7265625,-30.76171875,969.7265625,-1.0,1.0,0.0,1.0,5.m4v,5.0
2024-02-27 14:41:57.131660,1709041317.13166,968.75,969.7265625,-31.73828125,970.21484375,-1.0,1.0,0.0,1.0,5.m4v,5.0
2024-02-27 14:41:57.135566,1709041317.1355658,969.23828125,969.7265625,-30.2734375,969.7265625,-1.0,1.0,0.0,1.0,5.m4v,5.0
2024-02-27 14:41:57.139471,1709041317.1394713,969.23828125,969.7265625,-42.48046875,969.7265625,-1.0,1.0,0.0,1.0,5.m4v,5.0
2024-02-27 14:41:57.143380,1709041317.1433797,969.23828125,969.7265625,-38.57421875,969.7265625,-1.0,1.0,0.0,1.0,5.m4v,5.0
2024-02-27 14:41:57.147285,1709041317.1472857,969.23828125,969.7265625,-26.85546875,969.7265625,-1.0,1.0,0.0,1.0,5.m4v,5.0
2024-02-27 14:41:57.151191,1709041317.1511912,969.23828125,969.7265625,-29.78515625,969.7265625,-1.0,1.0,0.0,1.0,5.m4v,5.0
2024-02-27 14:41:57.155097,1709041317.155097,969.23828125,969.7265625,-37.109375,969.7265625,-1.0,1.0,0.0,1.0,5.m4v,5.0
2024-02-27 14:41:57.159003,1709041317.1590023,968.75,969.7265625,-28.80859375,969.7265625,-1.0,1.0,0.0,1.0,5.m4v,5.0
2024-02-27 14:41:57.162908,1709041317.1629083,985.3515625,985.83984375,-19.04296875,986.328125,-1.0,1.0,0.0,1.0,5.m4v,5.0
2024-02-27 14:41:57.166814,1709041317.166814,911.1328125,912.109375,-25.390625,908.203125,-1.0,1.0,0.0,1.0,5.m4v,5.0
2024-02-27 14:41:57.170720,1709041317.17072,999.51171875,999.51171875,-37.109375,999.51171875,-1.0,1.0,0.0,1.0,5.m4v,5.0
2024-02-27 14:41:57.174626,1709041317.1746256,859.86328125,860.3515625,-38.0859375,804.19921875,-1.0,1.0,0.0,1.0,5.m4v,5.0
2024-02-27 14:41:57.178531,1709041317.1785314,-597.16796875,-597.16796875,-33.203125,-656.73828125,-1.0,1.0,0.0,1.0,5.m4v,5.0
2024-02-27 14:41:57.182437,1709041317.1824372,-1000.0,-1000.0,-36.62109375,-1000.0,-1.0,1.0,0.0,1.0,5.m4v,5.0
2024-02-27 14:41:57.186343,1709041317.186343,-925.78125,-925.78125,-51.7578125,-928.22265625,-1.0,1.0,0.0,1.0,5.m4v,5.0
2024-02-27 14:41:57.190252,1709041317.190252,-1000.0,-1000.0,-49.8046875,-1000.0,-1.0,1.0,0.0,1.0,5.m4v,5.0
2024-02-27 14:41:57.194158,1709041317.1941578,-1000.0,-1000.0,-30.2734375,-1000.0,-1.0,1.0,0.0,1.0,5.m4v,5.0
2024-02-27 14:41:57.198064,1709041317.1980636,-1000.0,-1000.0,-25.390625,-1000.0,-1.0,1.0,0.0,1.0,5.m4v,5.0
2024-02-27 14:41:57.201969,1709041317.2019694,-1000.0,-1000.0,-22.4609375,-1000.0,-1.0,1.0,0.0,1.0,5.m4v,5.0
2024-02-27 14:41:57.205875,1709041317.2058752,-1000.0,-1000.0,-18.06640625,-1000.0,-1.0,1.0,0.0,1.0,5.m4v,5.0
2024-02-27 14:41:57.209781,1709041317.209781,-1000.0,-1000.0,-21.484375,-1000.0,-1.0,1.0,0.0,1.0,5.m4v,5.0
2024-02-27 14:41:57.213687,1709041317.2136867,-1000.0,-1000.0,-24.4140625,-1000.0,-1.0,1.0,0.0,1.0,5.m4v,5.0
2024-02-27 14:41:57.217592,1709041317.2175925,-1000.0,-1000.0,-28.3203125,-1000.0,-1.0,1.0,0.0,1.0,5.m4v,5.0
2024-02-27 14:41:57.233216,1709041317.2332156,-1000.0,-1000.0,-34.1796875,-1000.0,-1.0,1.0,0.0,1.0,5.m4v,5.0
2024-02-27 14:41:57.237124,1709041317.2371244,-941.40625,-942.3828125,-33.203125,-936.5234375,-1.0,1.0,0.0,1.0,5.m4v,5.0
2024-02-27 14:41:57.241030,1709041317.2410302,-1000.0,-1000.0,-31.73828125,-1000.0,-1.0,1.0,0.0,1.0,5.m4v,5.0
2024-02-27 14:41:57.244936,1709041317.244936,-878.41796875,-888.18359375,-19.53125,-777.83203125,-1.0,1.0,0.0,1.0,5.m4v,5.0
2024-02-27 14:41:57.248842,1709041317.2488418,582.51953125,570.80078125,-10.25390625,677.734375,-1.0,1.0,0.0,1.0,5.m4v,5.0
2024-02-27 14:41:57.252748,1709041317.2527475,999.51171875,999.51171875,-12.6953125,999.51171875,-1.0,1.0,0.0,1.0,5.m4v,5.0
2024-02-27 14:41:57.256653,1709041317.2566533,894.53125,895.01953125,-20.5078125,900.87890625,-1.0,1.0,0.0,1.0,5.m4v,5.0
2024-02-27 14:41:57.260559,1709041317.260559,985.3515625,985.83984375,-27.83203125,985.83984375,-1.0,1.0,0.0,1.0,5.m4v,5.0
2024-02-27 14:41:57.264465,1709041317.2644649,969.23828125,969.7265625,-23.92578125,969.7265625,-1.0,1.0,0.0,1.0,5.m4v,5.0
2024-02-27 14:41:57.268371,1709041317.2683706,969.23828125,969.7265625,-27.34375,969.7265625,-1.0,1.0,0.0,1.0,5.m4v,5.0
2024-02-27 14:41:57.272276,1709041317.2722764,969.23828125,969.7265625,-29.296875,969.7265625,-1.0,1.0,0.0,1.0,5.m4v,5.0
2024-02-27 14:41:57.276182,1709041317.2761822,969.23828125,969.7265625,-27.34375,969.7265625,-1.0,1.0,0.0,1.0,5.m4v,5.0
2024-02-27 14:41:57.280088,1709041317.280088,968.75,969.7265625,-21.484375,969.7265625,-1.0,1.0,0.0,1.0,5.m4v,5.0
2024-02-27 14:41:57.283997,1709041317.2839968,968.75,969.7265625,-14.16015625,969.7265625,-1.0,1.0,0.0,1.0,5.m4v,5.0
2024-02-27 14:41:57.287903,1709041317.2879026,969.23828125,969.7265625,-13.18359375,969.7265625,-1.0,1.0,0.0,1.0,5.m4v,5.0
2024-02-27 14:41:57.291808,1709041317.291808,969.23828125,969.7265625,-18.5546875,969.7265625,-1.0,1.0,0.0,1.0,5.m4v,5.0
2024-02-27 14:41:57.295714,1709041317.295714,969.23828125,969.7265625,-23.92578125,969.7265625,-1.0,1.0,0.0,1.0,5.m4v,5.0
2024-02-27 14:41:57.299620,1709041317.2996197,969.23828125,969.7265625,-32.71484375,969.7265625,-1.0,1.0,0.0,1.0,5.m4v,5.0
2024-02-27 14:41:57.303525,1709041317.3035254,983.3984375,983.88671875,-35.64453125,984.86328125,-1.0,1.0,0.0,1.0,5.m4v,5.0
2024-02-27 14:41:57.307431,1709041317.3074312,917.96875,920.41015625,-33.69140625,914.55078125,-1.0,1.0,0.0,1.0,5.m4v,5.0
2024-02-27 14:41:57.311337,1709041317.311337,999.51171875,999.51171875,-36.62109375,999.51171875,-1.0,1.0,0.0,1.0,5.m4v,5.0
2024-02-27 14:41:57.315243,1709041317.3152428,911.1328125,922.8515625,-40.0390625,875.48828125,-1.0,1.0,0.0,1.0,5.m4v,5.0
2024-02-27 14:41:57.319149,1709041317.3191483,-513.18359375,-494.140625,-36.1328125,-564.94140625,-1.0,1.0,0.0,1.0,5.m4v,5.0
2024-02-27 14:41:57.323054,1709041317.3230543,-1000.0,-1000.0,-24.4140625,-1000.0,-1.0,1.0,0.0,1.0,5.m4v,5.0
2024-02-27 14:41:57.326960,1709041317.32696,-925.78125,-925.78125,-27.83203125,-926.26953125,-1.0,1.0,0.0,1.0,5.m4v,5.0
2024-02-27 14:41:57.330869,1709041317.3308687,-1000.0,-1000.0,-33.69140625,-1000.0,-1.0,1.0,0.0,1.0,5.m4v,5.0
2024-02-27 14:41:57.334774,1709041317.3347745,-1000.0,-1000.0,-28.3203125,-1000.0,-1.0,1.0,0.0,1.0,5.m4v,5.0
2024-02-27 14:41:57.338680,1709041317.3386805,-1000.0,-1000.0,-26.3671875,-1000.0,-1.0,1.0,0.0,1.0,5.m4v,5.0
2024-02-27 14:41:57.342586,1709041317.342586,-1000.0,-1000.0,-28.80859375,-1000.0,-1.0,1.0,0.0,1.0,5.m4v,5.0
2024-02-27 14:41:57.346492,1709041317.3464918,-1000.0,-1000.0,-29.296875,-1000.0,-1.0,1.0,0.0,1.0,5.m4v,5.0
2024-02-27 14:41:57.350398,1709041317.3503976,-1000.0,-1000.0,-32.71484375,-1000.0,-1.0,1.0,0.0,1.0,5.m4v,5.0
2024-02-27 14:41:57.354303,1709041317.3543034,-1000.0,-1000.0,-32.71484375,-1000.0,-1.0,1.0,0.0,1.0,5.m4v,5.0
2024-02-27 14:41:57.358209,1709041317.3582091,-1000.0,-1000.0,-43.45703125,-1000.0,-1.0,1.0,0.0,1.0,5.m4v,5.0
2024-02-27 14:41:57.362115,1709041317.362115,-1000.0,-1000.0,-43.45703125,-1000.0,-1.0,1.0,0.0,1.0,5.m4v,5.0
2024-02-27 14:41:57.366021,1709041317.366021,-1000.0,-1000.0,-26.85546875,-1000.0,-1.0,1.0,0.0,1.0,5.m4v,5.0
2024-02-27 14:41:57.369926,1709041317.3699265,-1000.0,-1000.0,-25.390625,-1000.0,-1.0,1.0,0.0,1.0,5.m4v,5.0
2024-02-27 14:41:57.373832,1709041317.3738322,-1000.0,-1000.0,-30.2734375,-1000.0,-1.0,1.0,0.0,1.0,5.m4v,5.0
2024-02-27 14:41:57.377741,1709041317.3777409,-942.3828125,-937.98828125,-39.55078125,-939.453125,-1.0,1.0,0.0,1.0,5.m4v,5.0
2024-02-27 14:41:57.381647,1709041317.3816466,-1000.0,-1000.0,-43.9453125,-1000.0,-1.0,1.0,0.0,1.0,5.m4v,5.0
2024-02-27 14:41:57.385552,1709041317.3855524,-891.11328125,-891.6015625,-28.3203125,-842.28515625,-1.0,1.0,0.0,1.0,5.m4v,5.0
2024-02-27 14:41:57.389458,1709041317.3894582,565.91796875,566.89453125,-22.94921875,618.1640625,-1.0,1.0,0.0,1.0,5.m4v,5.0
2024-02-27 14:41:57.393364,1709041317.393364,999.51171875,999.51171875,-34.66796875,999.51171875,-1.0,1.0,0.0,1.0,5.m4v,5.0
2024-02-27 14:41:57.397270,1709041317.3972695,894.53125,895.01953125,-34.66796875,897.4609375,-1.0,1.0,0.0,1.0,5.m4v,5.0
2024-02-27 14:41:57.401175,1709041317.4011755,984.86328125,985.83984375,-32.2265625,985.83984375,-1.0,1.0,0.0,1.0,5.m4v,5.0
2024-02-27 14:41:57.405081,1709041317.405081,969.23828125,969.7265625,-27.83203125,969.7265625,-1.0,1.0,0.0,1.0,5.m4v,5.0
2024-02-27 14:41:57.405081,1709041317.405081,969.23828125,969.7265625,-27.83203125,969.7265625,-1.0,1.0,0.0,1.0,5.m4v,5.0
2024-02-27 14:41:57.408987,1709041317.4089868,969.23828125,969.7265625,-26.3671875,969.7265625,-1.0,1.0,0.0,1.0,5.m4v,5.0
2024-02-27 14:41:57.412893,1709041317.4128926,969.23828125,969.7265625,-28.3203125,969.7265625,-1.0,1.0,0.0,1.0,5.m4v,5.0
2024-02-27 14:41:57.412893,1709041317.4128926,969.23828125,969.7265625,-28.3203125,969.7265625,-1.0,1.0,0.0,1.0,5.m4v,5.0
2024-02-27 14:41:57.416798,1709041317.4167984,969.23828125,969.7265625,-20.99609375,969.7265625,-1.0,1.0,0.0,1.0,5.m4v,5.0
2024-02-27 14:41:57.420704,1709041317.420704,969.23828125,969.7265625,-23.92578125,969.7265625,-1.0,1.0,0.0,1.0,5.m4v,5.0
2024-02-27 14:41:57.420704,1709041317.420704,969.23828125,969.7265625,-23.92578125,969.7265625,-1.0,1.0,0.0,1.0,5.m4v,5.0
2024-02-27 14:41:57.424613,1709041317.4246123,969.23828125,969.7265625,-22.4609375,969.7265625,-1.0,1.0,0.0,1.0,5.m4v,5.0
2024-02-27 14:41:57.428518,1709041317.4285183,969.23828125,969.7265625,-23.4375,969.7265625,-1.0,1.0,0.0,1.0,5.m4v,5.0
2024-02-27 14:41:57.428518,1709041317.4285183,969.23828125,969.7265625,-23.4375,969.7265625,-1.0,1.0,0.0,1.0,5.m4v,5.0
2024-02-27 14:41:57.432424,1709041317.432424,969.23828125,969.7265625,-38.57421875,969.7265625,-1.0,1.0,0.0,1.0,5.m4v,5.0
2024-02-27 14:41:57.436330,1709041317.4363298,969.23828125,969.7265625,-42.48046875,969.7265625,-1.0,1.0,0.0,1.0,5.m4v,5.0
2024-02-27 14:41:57.436330,1709041317.4363298,969.23828125,969.7265625,-42.48046875,969.7265625,-1.0,1.0,0.0,1.0,5.m4v,5.0
2024-02-27 14:41:57.440236,1709041317.4402356,969.23828125,970.21484375,-40.0390625,973.14453125,-1.0,1.0,0.0,1.0,5.m4v,5.0
2024-02-27 14:41:57.444141,1709041317.4441414,982.91015625,984.86328125,-36.1328125,966.30859375,-1.0,1.0,0.0,1.0,5.m4v,5.0
2024-02-27 14:41:57.448047,1709041317.4480472,897.4609375,897.4609375,-35.15625,921.875,-1.0,1.0,0.0,1.0,5.m4v,5.0
2024-02-27 14:41:57.451953,1709041317.451953,999.51171875,999.51171875,-35.15625,999.51171875,-1.0,1.0,0.0,1.0,5.m4v,5.0
2024-02-27 14:41:57.455859,1709041317.4558587,532.2265625,557.6171875,-28.3203125,210.44921875,-1.0,1.0,0.0,1.0,5.m4v,5.0
2024-02-27 14:41:57.459764,1709041317.4597645,-897.94921875,-886.23046875,-21.484375,-1000.0,-1.0,1.0,0.0,1.0,5.m4v,5.0
2024-02-27 14:41:57.463670,1709041317.4636705,-1000.0,-1000.0,-23.92578125,-1000.0,-1.0,1.0,0.0,1.0,5.m4v,5.0
2024-02-27 14:41:57.467576,1709041317.467576,-945.3125,-943.359375,-35.64453125,-968.75,-1.0,1.0,0.0,1.0,5.m4v,5.0
2024-02-27 14:41:57.471484,1709041317.4714842,-1000.0,-1000.0,-32.2265625,-1000.0,-1.0,1.0,0.0,1.0,5.m4v,5.0
2024-02-27 14:41:57.475390,1709041317.47539,-1000.0,-1000.0,-18.06640625,-1000.0,-1.0,1.0,0.0,1.0,5.m4v,5.0
2024-02-27 14:41:57.479296,1709041317.4792955,-1000.0,-1000.0,-24.4140625,-1000.0,-1.0,1.0,0.0,1.0,5.m4v,5.0
2024-02-27 14:41:57.483202,1709041317.4832015,-1000.0,-1000.0,-34.1796875,-1000.0,-1.0,1.0,0.0,1.0,5.m4v,5.0
2024-02-27 14:41:57.487107,1709041317.4871073,-1000.0,-1000.0,-37.109375,-1000.0,-1.0,1.0,0.0,1.0,5.m4v,5.0
2024-02-27 14:41:57.491013,1709041317.491013,-1000.0,-1000.0,-37.109375,-1000.0,-1.0,1.0,0.0,1.0,5.m4v,5.0
2024-02-27 14:41:57.494919,1709041317.4949188,-1000.0,-1000.0,-38.0859375,-1000.0,-1.0,1.0,0.0,1.0,5.m4v,5.0
2024-02-27 14:41:57.498824,1709041317.4988244,-1000.0,-1000.0,-36.62109375,-1000.0,-1.0,1.0,0.0,1.0,5.m4v,5.0
2024-02-27 14:41:57.502730,1709041317.50273,-1000.0,-1000.0,-33.203125,-1000.0,-1.0,1.0,0.0,1.0,5.m4v,5.0
2024-02-27 14:41:57.506636,1709041317.506636,-1000.0,-1000.0,-26.3671875,-1000.0,-1.0,1.0,0.0,1.0,5.m4v,5.0
2024-02-27 14:41:57.510542,1709041317.5105417,-1000.0,-1000.0,-24.4140625,-1000.0,-1.0,1.0,0.0,1.0,5.m4v,5.0
2024-02-27 14:41:57.514447,1709041317.5144477,-1000.0,-1000.0,-28.80859375,-1000.0,-1.0,1.0,0.0,1.0,5.m4v,5.0
2024-02-27 14:41:57.518355,1709041317.5183554,-929.19921875,-930.17578125,-36.1328125,-937.01171875,-1.0,1.0,0.0,1.0,5.m4v,5.0
2024-02-27 14:41:57.522261,1709041317.5222611,-1000.0,-1000.0,-41.015625,-1000.0,-1.0,1.0,0.0,1.0,5.m4v,5.0
2024-02-27 14:41:57.526167,1709041317.526167,-707.03125,-728.02734375,-48.33984375,-496.58203125,-1.0,1.0,0.0,1.0,5.m4v,5.0
2024-02-27 14:41:57.530073,1709041317.5300727,770.01953125,752.44140625,-41.9921875,872.55859375,-1.0,1.0,0.0,1.0,5.m4v,5.0
2024-02-27 14:41:57.533978,1709041317.5339785,999.51171875,999.51171875,-31.73828125,999.51171875,-1.0,1.0,0.0,1.0,5.m4v,5.0
2024-02-27 14:41:57.537884,1709041317.5378842,903.3203125,902.83203125,-28.3203125,919.921875,-1.0,1.0,0.0,1.0,5.m4v,5.0
2024-02-27 14:41:57.541790,1709041317.54179,986.328125,987.3046875,-23.4375,983.3984375,-1.0,1.0,0.0,1.0,5.m4v,5.0
2024-02-27 14:41:57.545696,1709041317.5456958,969.23828125,969.7265625,-30.2734375,969.7265625,-1.0,1.0,0.0,1.0,5.m4v,5.0
2024-02-27 14:41:57.549602,1709041317.5496016,969.23828125,969.7265625,-27.34375,969.7265625,-1.0,1.0,0.0,1.0,5.m4v,5.0
2024-02-27 14:41:57.553507,1709041317.553507,969.23828125,969.7265625,-20.99609375,969.7265625,-1.0,1.0,0.0,1.0,5.m4v,5.0
2024-02-27 14:41:57.557413,1709041317.557413,969.23828125,969.7265625,-27.34375,969.7265625,-1.0,1.0,0.0,1.0,5.m4v,5.0
2024-02-27 14:41:57.561319,1709041317.5613189,968.75,969.7265625,-25.390625,969.7265625,-1.0,1.0,0.0,1.0,5.m4v,5.0
2024-02-27 14:41:57.565228,1709041317.565228,969.23828125,969.7265625,-19.53125,969.7265625,-1.0,1.0,0.0,1.0,5.m4v,5.0
2024-02-27 14:41:57.569134,1709041317.5691338,968.75,969.7265625,-32.71484375,969.7265625,-1.0,1.0,0.0,1.0,5.m4v,5.0
2024-02-27 14:41:57.573040,1709041317.5730395,969.23828125,969.7265625,-38.57421875,969.7265625,-1.0,1.0,0.0,1.0,5.m4v,5.0
2024-02-27 14:41:57.576945,1709041317.5769453,969.23828125,969.7265625,-27.34375,969.7265625,-1.0,1.0,0.0,1.0,5.m4v,5.0
2024-02-27 14:41:57.580851,1709041317.580851,969.23828125,970.21484375,-21.97265625,972.16796875,-1.0,1.0,0.0,1.0,5.m4v,5.0
2024-02-27 14:41:57.584757,1709041317.5847569,983.3984375,983.88671875,-29.296875,969.7265625,-1.0,1.0,0.0,1.0,5.m4v,5.0
2024-02-27 14:41:57.588663,1709041317.5886626,896.97265625,897.94921875,-39.0625,916.9921875,-1.0,1.0,0.0,1.0,5.m4v,5.0
2024-02-27 14:41:57.592568,1709041317.5925684,999.51171875,999.51171875,-39.55078125,999.51171875,-1.0,1.0,0.0,1.0,5.m4v,5.0
2024-02-27 14:41:57.596474,1709041317.5964742,552.734375,539.55078125,-31.73828125,272.94921875,-1.0,1.0,0.0,1.0,5.m4v,5.0
2024-02-27 14:41:57.600380,1709041317.6003797,-887.6953125,-895.01953125,-35.15625,-983.88671875,-1.0,1.0,0.0,1.0,5.m4v,5.0
2024-02-27 14:41:57.604285,1709041317.6042857,-1000.0,-1000.0,-39.55078125,-1000.0,-1.0,1.0,0.0,1.0,5.m4v,5.0
2024-02-27 14:41:57.608191,1709041317.6081913,-943.84765625,-944.82421875,-39.55078125,-964.35546875,-1.0,1.0,0.0,1.0,5.m4v,5.0
2024-02-27 14:41:57.612100,1709041317.6121004,-1000.0,-1000.0,-41.015625,-1000.0,-1.0,1.0,0.0,1.0,5.m4v,5.0
2024-02-27 14:41:57.616006,1709041317.616006,-1000.0,-1000.0,-41.9921875,-1000.0,-1.0,1.0,0.0,1.0,5.m4v,5.0
2024-02-27 14:41:57.619912,1709041317.619912,-1000.0,-1000.0,-41.9921875,-1000.0,-1.0,1.0,0.0,1.0,5.m4v,5.0
2024-02-27 14:41:57.623818,1709041317.6238177,-1000.0,-1000.0,-30.2734375,-1000.0,-1.0,1.0,0.0,1.0,5.m4v,5.0
2024-02-27 14:41:57.627723,1709041317.6277237,-1000.0,-1000.0,-34.66796875,-1000.0,-1.0,1.0,0.0,1.0,5.m4v,5.0
2024-02-27 14:41:57.631629,1709041317.6316292,-1000.0,-1000.0,-38.0859375,-1000.0,-1.0,1.0,0.0,1.0,5.m4v,5.0
2024-02-27 14:41:57.635535,1709041317.635535,-1000.0,-1000.0,-33.69140625,-1000.0,-1.0,1.0,0.0,1.0,5.m4v,5.0
2024-02-27 14:41:57.639441,1709041317.6394408,-1000.0,-1000.0,-35.15625,-1000.0,-1.0,1.0,0.0,1.0,5.m4v,5.0
2024-02-27 14:41:57.643347,1709041317.6433463,-1000.0,-1000.0,-32.71484375,-1000.0,-1.0,1.0,0.0,1.0,5.m4v,5.0
2024-02-27 14:41:57.647252,1709041317.6472523,-1000.0,-1000.0,-41.015625,-1000.0,-1.0,1.0,0.0,1.0,5.m4v,5.0
2024-02-27 14:41:57.651158,1709041317.651158,-1000.0,-1000.0,-41.015625,-1000.0,-1.0,1.0,0.0,1.0,5.m4v,5.0
2024-02-27 14:41:57.655064,1709041317.655064,-1000.0,-1000.0,-29.296875,-1000.0,-1.0,1.0,0.0,1.0,5.m4v,5.0
2024-02-27 14:41:57.658973,1709041317.6589727,-933.10546875,-936.5234375,-28.80859375,-936.03515625,-1.0,1.0,0.0,1.0,5.m4v,5.0
2024-02-27 14:41:57.729279,1709041317.7292793,911.1328125,912.109375,-30.2734375,909.66796875,-1.0,1.0,0.0,1.0,5.m4v,5.0
2024-02-27 14:41:57.737091,1709041317.7370908,859.86328125,860.3515625,-41.50390625,813.96484375,-1.0,1.0,0.0,1.0,5.m4v,5.0
2024-02-27 14:41:57.744902,1709041317.7449024,-1000.0,-1000.0,-22.4609375,-1000.0,-1.0,1.0,0.0,1.0,5.m4v,5.0
2024-02-27 14:41:57.752717,1709041317.7527163,-1000.0,-1000.0,-35.64453125,-1000.0,-1.0,1.0,0.0,1.0,5.m4v,5.0
2024-02-27 14:41:57.760528,1709041317.760528,-1000.0,-1000.0,-34.66796875,-1000.0,-1.0,1.0,0.0,1.0,5.m4v,5.0
2024-02-27 14:41:57.768340,1709041317.7683396,-1000.0,-1000.0,-35.15625,-1000.0,-1.0,1.0,0.0,1.0,5.m4v,5.0
2024-02-27 14:41:57.776151,1709041317.7761512,-1000.0,-1000.0,-25.87890625,-1000.0,-1.0,1.0,0.0,1.0,5.m4v,5.0
2024-02-27 14:41:57.783963,1709041317.7839627,-1000.0,-1000.0,-18.06640625,-1000.0,-1.0,1.0,0.0,1.0,5.m4v,5.0
2024-02-27 14:41:57.838646,1709041317.8386462,969.23828125,969.7265625,27.83203125,969.7265625,-1.0,1.0,0.0,1.0,5.m4v,5.0
2024-02-27 14:41:57.842552,1709041317.842552,969.23828125,970.21484375,15.625,969.7265625,-1.0,1.0,0.0,1.0,5.m4v,5.0
2024-02-27 14:41:57.846460,1709041317.84646,969.23828125,970.21484375,5.37109375,969.7265625,-1.0,1.0,0.0,1.0,5.m4v,5.0
2024-02-27 14:41:57.850366,1709041317.850366,969.23828125,969.7265625,12.6953125,969.7265625,-1.0,1.0,0.0,1.0,5.m4v,5.0
2024-02-27 14:41:57.854272,1709041317.8542717,969.23828125,969.7265625,10.25390625,969.7265625,-1.0,1.0,0.0,1.0,5.m4v,5.0
2024-02-27 14:41:57.858177,1709041317.8581774,980.46875,985.83984375,-7.8125,980.95703125,-1.0,1.0,0.0,1.0,5.m4v,5.0
2024-02-27 14:41:57.928483,1709041317.9284832,-1000.0,-1000.0,-32.2265625,-1000.0,-1.0,1.0,0.0,1.0,5.m4v,5.0
2024-02-27 14:41:57.932389,1709041317.932389,-1000.0,-1000.0,-38.57421875,-1000.0,-1.0,1.0,0.0,1.0,5.m4v,5.0
2024-02-27 14:41:57.936295,1709041317.9362948,-1000.0,-1000.0,-41.015625,-984.86328125,-1.0,1.0,0.0,1.0,5.m4v,5.0
2024-02-27 14:41:57.940204,1709041317.940204,-943.84765625,-931.640625,-40.52734375,-969.7265625,-1.0,1.0,0.0,1.0,5.m4v,5.0
2024-02-27 14:41:57.944110,1709041317.9441097,-1000.0,-1000.0,-38.57421875,-1000.0,-1.0,1.0,0.0,1.0,5.m4v,5.0
2024-02-27 14:41:57.948015,1709041317.9480157,-264.16015625,-468.26171875,-34.1796875,-26.85546875,-1.0,1.0,0.0,1.0,5.m4v,5.0
2024-02-27 14:41:57.951921,1709041317.9519212,989.74609375,915.52734375,-31.25,999.51171875,-1.0,1.0,0.0,1.0,5.m4v,5.0
2024-02-27 14:41:57.955827,1709041317.955827,968.26171875,999.51171875,-33.69140625,941.40625,-1.0,1.0,0.0,1.0,5.m4v,5.0
2024-02-27 14:41:57.959733,1709041317.9597328,937.01171875,921.875,-35.15625,953.125,-1.0,1.0,0.0,1.0,5.m4v,5.0
2024-02-27 14:41:57.963639,1709041317.9636383,978.02734375,983.3984375,-31.25,975.09765625,-1.0,1.0,0.0,1.0,5.m4v,5.0
2024-02-27 14:41:57.967544,1709041317.9675443,969.23828125,969.7265625,-34.1796875,969.7265625,-1.0,1.0,0.0,1.0,5.m4v,5.0
2024-02-27 14:41:57.971450,1709041317.97145,968.75,969.7265625,-48.33984375,969.7265625,-1.0,1.0,0.0,1.0,5.m4v,5.0
2024-02-27 14:41:57.975356,1709041317.975356,969.23828125,969.7265625,-44.43359375,969.7265625,-1.0,1.0,0.0,1.0,5.m4v,5.0
2024-02-27 14:41:57.979262,1709041317.9792616,969.23828125,969.7265625,-35.15625,969.7265625,-1.0,1.0,0.0,1.0,5.m4v,5.0
2024-02-27 14:41:57.983167,1709041317.9831674,968.75,969.7265625,-25.390625,969.7265625,-1.0,1.0,0.0,1.0,5.m4v,5.0
2024-02-27 14:41:57.987077,1709041317.9870763,969.23828125,969.7265625,-21.97265625,969.7265625,-1.0,1.0,0.0,1.0,5.m4v,5.0
2024-02-27 14:41:57.990982,1709041317.9909823,969.23828125,969.7265625,-28.80859375,969.7265625,-1.0,1.0,0.0,1.0,5.m4v,5.0
2024-02-27 14:41:57.994888,1709041317.9948878,969.23828125,969.7265625,-28.80859375,969.7265625,-1.0,1.0,0.0,1.0,5.m4v,5.0
2024-02-27 14:41:57.998794,1709041317.9987936,969.23828125,969.7265625,-38.57421875,969.7265625,-1.0,1.0,0.0,1.0,5.m4v,5.0
2024-02-27 14:41:58.002699,1709041318.0026994,984.86328125,985.83984375,-34.66796875,985.83984375,-1.0,1.0,0.0,1.0,5.m4v,5.0
2024-02-27 14:41:58.006605,1709041318.0066051,914.55078125,913.0859375,-21.97265625,912.59765625,-1.0,1.0,0.0,1.0,5.m4v,5.0
2024-02-27 14:41:58.057383,1709041318.0573833,-1000.0,-1000.0,-35.15625,-1000.0,-1.0,1.0,0.0,1.0,5.m4v,5.0
2024-02-27 14:41:58.061289,1709041318.061289,-1000.0,-1000.0,-29.296875,-1000.0,-1.0,1.0,0.0,1.0,5.m4v,5.0
2024-02-27 14:41:58.065195,1709041318.0651948,-1000.0,-1000.0,-23.4375,-1000.0,-1.0,1.0,0.0,1.0,5.m4v,5.0
2024-02-27 14:41:58.069101,1709041318.0691006,-1000.0,-1000.0,-34.1796875,-1000.0,-1.0,1.0,0.0,1.0,5.m4v,5.0
2024-02-27 14:41:58.073006,1709041318.0730064,-1000.0,-1000.0,-36.1328125,-1000.0,-1.0,1.0,0.0,1.0,5.m4v,5.0
2024-02-27 14:41:58.076912,1709041318.0769122,-945.3125,-945.80078125,-27.83203125,-942.3828125,-1.0,1.0,0.0,1.0,5.m4v,5.0
2024-02-27 14:41:58.080821,1709041318.0808208,-1000.0,-1000.0,-23.92578125,-1000.0,-1.0,1.0,0.0,1.0,5.m4v,5.0
2024-02-27 14:41:58.084727,1709041318.0847266,-913.57421875,-918.45703125,-27.34375,-890.13671875,-1.0,1.0,0.0,1.0,5.m4v,5.0
2024-02-27 14:41:58.088632,1709041318.0886323,530.2734375,523.4375,-31.25,565.91796875,-1.0,1.0,0.0,1.0,5.m4v,5.0
2024-02-27 14:41:58.092538,1709041318.092538,999.51171875,999.51171875,-34.1796875,999.51171875,-1.0,1.0,0.0,1.0,5.m4v,5.0
2024-02-27 14:41:58.096444,1709041318.096444,894.04296875,895.01953125,-36.1328125,895.5078125,-1.0,1.0,0.0,1.0,5.m4v,5.0
2024-02-27 14:41:58.100350,1709041318.1003497,983.88671875,984.375,-28.3203125,985.3515625,-1.0,1.0,0.0,1.0,5.m4v,5.0
2024-02-27 14:41:58.104255,1709041318.1042554,969.23828125,969.7265625,-38.57421875,969.7265625,-1.0,1.0,0.0,1.0,5.m4v,5.0
2024-02-27 14:41:58.108161,1709041318.1081612,969.23828125,969.7265625,-36.1328125,969.7265625,-1.0,1.0,0.0,1.0,5.m4v,5.0
2024-02-27 14:41:58.112067,1709041318.112067,968.75,969.7265625,-26.3671875,969.7265625,-1.0,1.0,0.0,1.0,5.m4v,5.0
2024-02-27 14:41:58.115973,1709041318.1159728,969.23828125,969.7265625,-29.296875,969.7265625,-1.0,1.0,0.0,1.0,5.m4v,5.0
2024-02-27 14:41:58.119879,1709041318.1198783,969.23828125,969.7265625,-32.71484375,969.7265625,-1.0,1.0,0.0,1.0,5.m4v,5.0
2024-02-27 14:41:58.123784,1709041318.1237843,969.23828125,969.7265625,-35.64453125,969.7265625,-1.0,1.0,0.0,1.0,5.m4v,5.0
2024-02-27 14:41:58.127693,1709041318.1276927,969.23828125,969.7265625,-37.109375,969.7265625,-1.0,1.0,0.0,1.0,5.m4v,5.0
2024-02-27 14:41:58.135504,1709041318.1355042,968.75,970.21484375,-40.0390625,969.7265625,-1.0,1.0,0.0,1.0,5.m4v,5.0
2024-02-27 14:41:58.139410,1709041318.13941,968.75,969.7265625,-32.2265625,971.19140625,-1.0,1.0,0.0,1.0,5.m4v,5.0
2024-02-27 14:41:58.143316,1709041318.1433158,986.328125,987.3046875,-26.85546875,975.5859375,-1.0,1.0,0.0,1.0,5.m4v,5.0
2024-02-27 14:41:58.147222,1709041318.1472216,897.94921875,901.3671875,-10.7421875,910.15625,-1.0,1.0,0.0,1.0,5.m4v,5.0
2024-02-27 14:41:58.151127,1709041318.151127,999.51171875,999.51171875,-15.625,999.51171875,-1.0,1.0,0.0,1.0,5.m4v,5.0
2024-02-27 14:41:58.155033,1709041318.155033,673.33984375,725.5859375,-28.80859375,409.1796875,-1.0,1.0,0.0,1.0,5.m4v,5.0
2024-02-27 14:41:58.158939,1709041318.158939,-802.734375,-754.39453125,-24.4140625,-924.8046875,-1.0,1.0,0.0,1.0,5.m4v,5.0
2024-02-27 14:41:58.162845,1709041318.162845,-1000.0,-1000.0,-34.1796875,-1000.0,-1.0,1.0,0.0,1.0,5.m4v,5.0
2024-02-27 14:41:58.166750,1709041318.1667504,-935.05859375,-931.640625,-25.390625,-954.58984375,-1.0,1.0,0.0,1.0,5.m4v,5.0
2024-02-27 14:41:58.170656,1709041318.1706562,-1000.0,-1000.0,-19.04296875,-1000.0,-1.0,1.0,0.0,1.0,5.m4v,5.0
2024-02-27 14:41:58.174565,1709041318.1745646,-1000.0,-1000.0,-33.203125,-1000.0,-1.0,1.0,0.0,1.0,5.m4v,5.0
2024-02-27 14:41:58.178470,1709041318.1784704,-1000.0,-1000.0,-32.71484375,-1000.0,-1.0,1.0,0.0,1.0,5.m4v,5.0
2024-02-27 14:41:58.182376,1709041318.182376,-1000.0,-1000.0,-31.73828125,-1000.0,-1.0,1.0,0.0,1.0,5.m4v,5.0
2024-02-27 14:41:58.186282,1709041318.186282,-1000.0,-1000.0,-41.015625,-1000.0,-1.0,1.0,0.0,1.0,5.m4v,5.0
2024-02-27 14:41:58.190188,1709041318.1901877,-1000.0,-1000.0,-39.55078125,-1000.0,-1.0,1.0,0.0,1.0,5.m4v,5.0
2024-02-27 14:41:58.194093,1709041318.1940932,-1000.0,-1000.0,-30.2734375,-1000.0,-1.0,1.0,0.0,1.0,5.m4v,5.0
2024-02-27 14:41:58.197999,1709041318.197999,-1000.0,-1000.0,-35.15625,-1000.0,-1.0,1.0,0.0,1.0,5.m4v,5.0
2024-02-27 14:41:58.201905,1709041318.2019048,-1000.0,-1000.0,-44.921875,-1000.0,-1.0,1.0,0.0,1.0,5.m4v,5.0
2024-02-27 14:41:58.205811,1709041318.2058103,-1000.0,-999.51171875,-32.71484375,-1000.0,-1.0,1.0,0.0,1.0,5.m4v,5.0
2024-02-27 14:41:58.209716,1709041318.2097163,-1000.0,-1000.0,-27.34375,-1000.0,-1.0,1.0,0.0,1.0,5.m4v,5.0
2024-02-27 14:41:58.213622,1709041318.213622,-1000.0,-1000.0,-39.0625,-1000.0,-1.0,1.0,0.0,1.0,5.m4v,5.0
2024-02-27 14:41:58.217528,1709041318.217528,-942.3828125,-931.15234375,-42.96875,-941.40625,-1.0,1.0,0.0,1.0,5.m4v,5.0
2024-02-27 14:41:58.221436,1709041318.2214365,-1000.0,-1000.0,-34.66796875,-1000.0,-1.0,1.0,0.0,1.0,5.m4v,5.0
2024-02-27 14:41:58.225342,1709041318.225342,-891.11328125,-892.578125,-29.296875,-875.0,-1.0,1.0,0.0,1.0,5.m4v,5.0
2024-02-27 14:41:58.229248,1709041318.2292478,565.91796875,567.3828125,-38.0859375,585.44921875,-1.0,1.0,0.0,1.0,5.m4v,5.0
2024-02-27 14:41:58.233154,1709041318.2331536,999.51171875,999.51171875,-31.73828125,999.51171875,-1.0,1.0,0.0,1.0,5.m4v,5.0
2024-02-27 14:41:58.237059,1709041318.2370594,894.53125,895.01953125,-34.1796875,895.5078125,-1.0,1.0,0.0,1.0,5.m4v,5.0
2024-02-27 14:41:58.240965,1709041318.2409651,984.86328125,985.83984375,-43.9453125,985.83984375,-1.0,1.0,0.0,1.0,5.m4v,5.0
2024-02-27 14:41:58.244871,1709041318.244871,968.75,969.7265625,-43.45703125,969.7265625,-1.0,1.0,0.0,1.0,5.m4v,5.0
2024-02-27 14:41:58.248777,1709041318.248777,969.23828125,969.7265625,-50.29296875,969.7265625,-1.0,1.0,0.0,1.0,5.m4v,5.0
2024-02-27 14:41:58.252682,1709041318.2526824,969.23828125,969.7265625,-49.8046875,969.7265625,-1.0,1.0,0.0,1.0,5.m4v,5.0
2024-02-27 14:41:58.256588,1709041318.2565882,969.23828125,969.7265625,-58.59375,969.7265625,-1.0,1.0,0.0,1.0,5.m4v,5.0
2024-02-27 14:41:58.260494,1709041318.260494,969.23828125,969.7265625,-72.265625,969.7265625,-1.0,1.0,0.0,1.0,5.m4v,5.0
2024-02-27 14:41:58.264400,1709041318.2643998,969.23828125,969.7265625,-79.1015625,969.7265625,-1.0,1.0,0.0,1.0,5.m4v,5.0
2024-02-27 14:41:58.268308,1709041318.2683077,969.23828125,969.7265625,-76.171875,969.7265625,-1.0,1.0,0.0,1.0,5.m4v,5.0
2024-02-27 14:41:58.272213,1709041318.2722137,969.23828125,969.7265625,-80.078125,969.7265625,-1.0,1.0,0.0,1.0,5.m4v,5.0
2024-02-27 14:41:58.276119,1709041318.2761192,969.23828125,970.21484375,-86.42578125,969.7265625,-1.0,1.0,0.0,1.0,5.m4v,5.0
2024-02-27 14:41:58.280025,1709041318.280025,968.75,970.21484375,-79.1015625,969.7265625,-1.0,1.0,0.0,1.0,5.m4v,5.0
2024-02-27 14:41:58.283931,1709041318.2839308,985.3515625,986.328125,-64.453125,985.3515625,-1.0,1.0,0.0,1.0,5.m4v,5.0
2024-02-27 14:41:58.287837,1709041318.2878366,911.1328125,912.109375,-55.17578125,907.71484375,-1.0,1.0,0.0,1.0,5.m4v,5.0
2024-02-27 14:41:58.291742,1709041318.2917423,999.51171875,999.51171875,-77.63671875,999.51171875,-1.0,1.0,0.0,1.0,5.m4v,5.0
2024-02-27 14:41:58.295648,1709041318.295648,857.421875,860.3515625,-72.75390625,767.578125,-1.0,1.0,0.0,1.0,5.m4v,5.0
2024-02-27 14:41:58.299554,1709041318.299554,-600.5859375,-597.16796875,-52.24609375,-685.546875,-1.0,1.0,0.0,1.0,5.m4v,5.0
2024-02-27 14:41:58.303460,1709041318.3034596,-1000.0,-1000.0,-62.98828125,-1000.0,-1.0,1.0,0.0,1.0,5.m4v,5.0
2024-02-27 14:41:58.307365,1709041318.3073654,-925.78125,-925.78125,-62.01171875,-930.6640625,-1.0,1.0,0.0,1.0,5.m4v,5.0
2024-02-27 14:41:58.311271,1709041318.3112712,-1000.0,-1000.0,-58.10546875,-1000.0,-1.0,1.0,0.0,1.0,5.m4v,5.0
2024-02-27 14:41:58.315180,1709041318.3151803,-1000.0,-1000.0,-52.734375,-1000.0,-1.0,1.0,0.0,1.0,5.m4v,5.0
2024-02-27 14:41:58.319086,1709041318.319086,-1000.0,-1000.0,-48.828125,-1000.0,-1.0,1.0,0.0,1.0,5.m4v,5.0
2024-02-27 14:41:58.322992,1709041318.3229918,-1000.0,-1000.0,-50.78125,-1000.0,-1.0,1.0,0.0,1.0,5.m4v,5.0
2024-02-27 14:41:58.326898,1709041318.3268976,-1000.0,-1000.0,-53.7109375,-1000.0,-1.0,1.0,0.0,1.0,5.m4v,5.0
2024-02-27 14:41:58.330803,1709041318.3308034,-1000.0,-1000.0,-62.01171875,-1000.0,-1.0,1.0,0.0,1.0,5.m4v,5.0
2024-02-27 14:41:58.334709,1709041318.3347092,-1000.0,-1000.0,-56.640625,-1000.0,-1.0,1.0,0.0,1.0,5.m4v,5.0
2024-02-27 14:41:58.498760,1709041318.4987605,-938.4765625,-940.91796875,-41.015625,-935.546875,-1.0,1.0,0.0,1.0,5.m4v,5.0
2024-02-27 14:41:58.498760,1709041318.4987605,-938.4765625,-940.91796875,-41.015625,-935.546875,-1.0,1.0,0.0,1.0,5.m4v,5.0
2024-02-27 14:41:58.502669,1709041318.502669,-1000.0,-1000.0,-43.9453125,-1000.0,-1.0,1.0,0.0,1.0,5.m4v,5.0
2024-02-27 14:41:58.502669,1709041318.502669,-1000.0,-1000.0,-43.9453125,-1000.0,-1.0,1.0,0.0,1.0,5.m4v,5.0
2024-02-27 14:41:58.506575,1709041318.5065749,-844.7265625,-874.0234375,-39.0625,-706.54296875,-1.0,1.0,0.0,1.0,5.m4v,5.0
2024-02-27 14:41:58.506575,1709041318.5065749,-844.7265625,-874.0234375,-39.0625,-706.54296875,-1.0,1.0,0.0,1.0,5.m4v,5.0
2024-02-27 14:41:58.510481,1709041318.5104806,624.0234375,588.8671875,-36.62109375,732.91015625,-1.0,1.0,0.0,1.0,5.m4v,5.0
2024-02-27 14:41:58.510481,1709041318.5104806,624.0234375,588.8671875,-36.62109375,732.91015625,-1.0,1.0,0.0,1.0,5.m4v,5.0
2024-02-27 14:41:58.514386,1709041318.5143864,999.51171875,999.51171875,-30.76171875,999.51171875,-1.0,1.0,0.0,1.0,5.m4v,5.0
2024-02-27 14:41:58.514386,1709041318.5143864,999.51171875,999.51171875,-30.76171875,999.51171875,-1.0,1.0,0.0,1.0,5.m4v,5.0
2024-02-27 14:41:58.518292,1709041318.5182922,895.99609375,895.5078125,-24.90234375,905.76171875,-1.0,1.0,0.0,1.0,5.m4v,5.0
2024-02-27 14:41:58.518292,1709041318.5182922,895.99609375,895.5078125,-24.90234375,905.76171875,-1.0,1.0,0.0,1.0,5.m4v,5.0
2024-02-27 14:41:58.522198,1709041318.5221975,985.83984375,985.83984375,-26.85546875,985.83984375,-1.0,1.0,0.0,1.0,5.m4v,5.0
2024-02-27 14:41:58.522198,1709041318.5221975,985.83984375,985.83984375,-26.85546875,985.83984375,-1.0,1.0,0.0,1.0,5.m4v,5.0
2024-02-27 14:41:58.526103,1709041318.5261035,969.23828125,969.7265625,-29.78515625,969.7265625,-1.0,1.0,0.0,1.0,5.m4v,5.0
2024-02-27 14:41:58.526103,1709041318.5261035,969.23828125,969.7265625,-29.78515625,969.7265625,-1.0,1.0,0.0,1.0,5.m4v,5.0
2024-02-27 14:41:58.530009,1709041318.5300093,968.75,970.21484375,-41.9921875,969.7265625,-1.0,1.0,0.0,1.0,5.m4v,5.0
2024-02-27 14:41:58.530009,1709041318.5300093,968.75,970.21484375,-41.9921875,969.7265625,-1.0,1.0,0.0,1.0,5.m4v,5.0
2024-02-27 14:41:58.533915,1709041318.533915,968.75,969.7265625,-43.9453125,969.7265625,-1.0,1.0,0.0,1.0,5.m4v,5.0
2024-02-27 14:41:58.537821,1709041318.5378208,969.23828125,969.7265625,-40.0390625,969.7265625,-1.0,1.0,0.0,1.0,5.m4v,5.0
2024-02-27 14:41:58.592504,1709041318.5925045,-1000.0,-1000.0,-49.8046875,-1000.0,-1.0,1.0,0.0,1.0,5.m4v,5.0
2024-02-27 14:41:58.596412,1709041318.5964124,-1000.0,-1000.0,-42.48046875,-1000.0,-1.0,1.0,0.0,1.0,5.m4v,5.0
2024-02-27 14:41:58.600318,1709041318.6003182,-1000.0,-1000.0,-34.66796875,-1000.0,-1.0,1.0,0.0,1.0,5.m4v,5.0
2024-02-27 14:41:58.604224,1709041318.604224,-1000.0,-1000.0,-19.53125,-1000.0,-1.0,1.0,0.0,1.0,5.m4v,5.0
2024-02-27 14:41:58.608130,1709041318.6081295,-1000.0,-1000.0,-15.13671875,-1000.0,-1.0,1.0,0.0,1.0,5.m4v,5.0
2024-02-27 14:41:58.612036,1709041318.6120355,-1000.0,-1000.0,-20.99609375,-1000.0,-1.0,1.0,0.0,1.0,5.m4v,5.0
2024-02-27 14:41:58.615941,1709041318.615941,-1000.0,-1000.0,-32.2265625,-1000.0,-1.0,1.0,0.0,1.0,5.m4v,5.0
2024-02-27 14:41:58.619847,1709041318.6198468,-1000.0,-1000.0,-40.52734375,-1000.0,-1.0,1.0,0.0,1.0,5.m4v,5.0
2024-02-27 14:41:58.623753,1709041318.6237526,-1000.0,-1000.0,-38.0859375,-1000.0,-1.0,1.0,0.0,1.0,5.m4v,5.0
2024-02-27 14:41:58.627658,1709041318.6276584,-945.80078125,-937.98828125,-33.203125,-959.9609375,-1.0,1.0,0.0,1.0,5.m4v,5.0
2024-02-27 14:41:58.631564,1709041318.631564,-1000.0,-1000.0,-25.390625,-1000.0,-1.0,1.0,0.0,1.0,5.m4v,5.0
2024-02-27 14:41:58.635470,1709041318.63547,-915.0390625,-837.40234375,-27.83203125,-1000.0,-1.0,1.0,0.0,1.0,5.m4v,5.0
2024-02-27 14:41:58.639376,1709041318.6393757,527.83203125,629.39453125,-24.90234375,348.6328125,-1.0,1.0,0.0,1.0,5.m4v,5.0
2024-02-27 14:41:58.643284,1709041318.6432838,999.51171875,999.51171875,-18.06640625,999.51171875,-1.0,1.0,0.0,1.0,5.m4v,5.0
2024-02-27 14:41:58.647190,1709041318.6471896,894.53125,897.4609375,-28.3203125,899.4140625,-1.0,1.0,0.0,1.0,5.m4v,5.0
2024-02-27 14:41:58.651095,1709041318.6510954,983.88671875,986.328125,-29.296875,977.5390625,-1.0,1.0,0.0,1.0,5.m4v,5.0
2024-02-27 14:41:58.655001,1709041318.6550012,969.23828125,969.7265625,-32.2265625,969.7265625,-1.0,1.0,0.0,1.0,5.m4v,5.0
2024-02-27 14:41:58.658907,1709041318.658907,969.23828125,969.7265625,-45.8984375,969.7265625,-1.0,1.0,0.0,1.0,5.m4v,5.0
2024-02-27 14:41:58.662813,1709041318.6628127,968.75,969.7265625,-39.55078125,969.7265625,-1.0,1.0,0.0,1.0,5.m4v,5.0
2024-02-27 14:41:58.666718,1709041318.6667185,968.75,969.7265625,-29.296875,969.7265625,-1.0,1.0,0.0,1.0,5.m4v,5.0
2024-02-27 14:41:58.670624,1709041318.6706245,969.23828125,969.7265625,-35.15625,969.7265625,-1.0,1.0,0.0,1.0,5.m4v,5.0
2024-02-27 14:41:58.674530,1709041318.67453,969.23828125,969.7265625,-29.296875,969.7265625,-1.0,1.0,0.0,1.0,5.m4v,5.0
2024-02-27 14:41:58.678436,1709041318.6784358,969.23828125,969.7265625,-15.13671875,969.7265625,-1.0,1.0,0.0,1.0,5.m4v,5.0
2024-02-27 14:41:58.682342,1709041318.6823416,969.23828125,970.21484375,-20.99609375,969.7265625,-1.0,1.0,0.0,1.0,5.m4v,5.0
2024-02-27 14:41:58.686247,1709041318.686247,969.23828125,969.7265625,-32.71484375,969.7265625,-1.0,1.0,0.0,1.0,5.m4v,5.0
2024-02-27 14:41:58.690156,1709041318.6901565,969.23828125,969.7265625,-33.203125,969.7265625,-1.0,1.0,0.0,1.0,5.m4v,5.0
2024-02-27 14:41:58.694062,1709041318.6940622,969.23828125,969.7265625,-39.0625,969.7265625,-1.0,1.0,0.0,1.0,5.m4v,5.0
2024-02-27 14:41:58.701874,1709041318.7018738,970.703125,973.6328125,-34.66796875,973.14453125,-1.0,1.0,0.0,1.0,5.m4v,5.0
2024-02-27 14:41:58.709685,1709041318.709685,910.15625,930.6640625,-26.3671875,925.78125,-1.0,1.0,0.0,1.0,5.m4v,5.0
2024-02-27 14:41:58.717497,1709041318.7174966,263.18359375,20.99609375,-33.69140625,112.3046875,-1.0,1.0,0.0,1.0,5.m4v,5.0
2024-02-27 14:41:58.725308,1709041318.7253082,-1000.0,-969.23828125,-42.96875,-983.88671875,-1.0,1.0,0.0,1.0,5.m4v,5.0
2024-02-27 14:41:58.733120,1709041318.7331195,-1000.0,-1000.0,-36.62109375,-1000.0,-1.0,1.0,0.0,1.0,5.m4v,5.0
2024-02-27 14:41:58.740935,1709041318.7409346,-1000.0,-1000.0,-35.64453125,-1000.0,-1.0,1.0,0.0,1.0,5.m4v,5.0
2024-02-27 14:41:58.748746,1709041318.748746,-1000.0,-1000.0,-25.390625,-1000.0,-1.0,1.0,0.0,1.0,5.m4v,5.0
2024-02-27 14:41:58.756557,1709041318.7565577,-1000.0,-1000.0,-31.73828125,-1000.0,-1.0,1.0,0.0,1.0,5.m4v,5.0
2024-02-27 14:41:58.764369,1709041318.764369,-1000.0,-1000.0,-48.828125,-1000.0,-1.0,1.0,0.0,1.0,5.m4v,5.0
2024-02-27 14:41:58.772181,1709041318.7721806,-1000.0,-1000.0,-40.0390625,-980.46875,-1.0,1.0,0.0,1.0,5.m4v,5.0
2024-02-27 14:41:58.779992,1709041318.779992,-992.67578125,-979.00390625,-27.34375,-1000.0,-1.0,1.0,0.0,1.0,5.m4v,5.0
2024-02-27 14:41:58.787807,1709041318.7878067,240.234375,132.8125,-38.57421875,361.81640625,-1.0,1.0,0.0,1.0,5.m4v,5.0
2024-02-27 14:41:58.795618,1709041318.7956183,903.3203125,914.55078125,-34.1796875,899.90234375,-1.0,1.0,0.0,1.0,5.m4v,5.0
2024-02-27 14:41:58.803430,1709041318.8034298,969.23828125,971.19140625,-48.33984375,969.7265625,-1.0,1.0,0.0,1.0,5.m4v,5.0
2024-02-27 14:41:58.811241,1709041318.8112414,969.23828125,969.7265625,-20.99609375,969.7265625,-1.0,1.0,0.0,1.0,5.m4v,5.0
2024-02-27 14:41:58.819053,1709041318.8190527,969.23828125,969.7265625,-38.0859375,969.7265625,-1.0,1.0,0.0,1.0,5.m4v,5.0
2024-02-27 14:41:58.826864,1709041318.8268642,969.23828125,969.7265625,-41.50390625,969.7265625,-1.0,1.0,0.0,1.0,5.m4v,5.0
2024-02-27 14:41:58.834679,1709041318.8346786,969.23828125,969.7265625,-34.1796875,969.7265625,-1.0,1.0,0.0,1.0,5.m4v,5.0
2024-02-27 14:41:58.842490,1709041318.8424902,973.6328125,976.5625,-21.97265625,977.5390625,-1.0,1.0,0.0,1.0,5.m4v,5.0
2024-02-27 14:41:58.850302,1709041318.8503015,938.96484375,953.125,-26.85546875,959.9609375,-1.0,1.0,0.0,1.0,5.m4v,5.0
2024-02-27 14:41:58.858113,1709041318.8581133,-81.54296875,-195.80078125,-40.52734375,-224.609375,-1.0,1.0,0.0,1.0,5.m4v,5.0
2024-02-27 14:41:58.865925,1709041318.8659248,-954.58984375,-942.87109375,-21.97265625,-943.359375,-1.0,1.0,0.0,1.0,5.m4v,5.0
2024-02-27 14:41:58.873736,1709041318.8737364,-1000.0,-1000.0,-25.390625,-1000.0,-1.0,1.0,0.0,1.0,5.m4v,5.0
2024-02-27 14:41:58.881551,1709041318.8815513,-1000.0,-1000.0,-45.8984375,-1000.0,-1.0,1.0,0.0,1.0,5.m4v,5.0
2024-02-27 14:41:58.889363,1709041318.8893628,-1000.0,-932.6171875,-33.203125,-1000.0,-1.0,1.0,0.0,1.0,5.m4v,5.0
2024-02-27 14:41:58.897174,1709041318.8971744,-935.546875,-523.4375,-37.59765625,-933.10546875,-1.0,1.0,0.0,1.0,5.m4v,5.0
2024-02-27 14:41:58.904986,1709041318.904986,-810.546875,999.51171875,-41.9921875,-673.33984375,-1.0,1.0,0.0,1.0,5.m4v,5.0
2024-02-27 14:41:58.967481,1709041318.967481,-954.58984375,-983.88671875,-26.3671875,-970.21484375,-1.0,1.0,0.0,1.0,5.m4v,5.0
2024-02-27 14:41:58.971389,1709041318.971389,-1000.0,-1000.0,-41.9921875,-1000.0,-1.0,1.0,0.0,1.0,5.m4v,5.0
2024-02-27 14:41:58.975295,1709041318.9752946,-1000.0,-1000.0,-41.015625,-1000.0,-1.0,1.0,0.0,1.0,5.m4v,5.0
2024-02-27 14:41:58.979200,1709041318.9792004,-1000.0,-1000.0,-32.2265625,-1000.0,-1.0,1.0,0.0,1.0,5.m4v,5.0
2024-02-27 14:41:58.983106,1709041318.983106,-1000.0,-1000.0,-28.3203125,-1000.0,-1.0,1.0,0.0,1.0,5.m4v,5.0
2024-02-27 14:41:58.987012,1709041318.987012,-1000.0,-1000.0,-29.296875,-1000.0,-1.0,1.0,0.0,1.0,5.m4v,5.0
2024-02-27 14:41:58.990918,1709041318.9909177,-1000.0,-1000.0,-34.66796875,-1000.0,-1.0,1.0,0.0,1.0,5.m4v,5.0
2024-02-27 14:41:58.994823,1709041318.9948237,-1000.0,-1000.0,-43.9453125,-1000.0,-1.0,1.0,0.0,1.0,5.m4v,5.0
2024-02-27 14:41:58.998729,1709041318.9987292,-1000.0,-1000.0,-55.6640625,-1000.0,-1.0,1.0,0.0,1.0,5.m4v,5.0
2024-02-27 14:41:59.002635,1709041319.002635,-1000.0,-1000.0,-53.7109375,-1000.0,-1.0,1.0,0.0,1.0,5.m4v,5.0
2024-02-27 14:41:59.006541,1709041319.0065408,-1000.0,-1000.0,-46.875,-1000.0,-1.0,1.0,0.0,1.0,5.m4v,5.0
2024-02-27 14:41:59.010447,1709041319.0104463,-1000.0,-1000.0,-45.41015625,-1000.0,-1.0,1.0,0.0,1.0,5.m4v,5.0
2024-02-27 14:41:59.014352,1709041319.0143523,-1000.0,-1000.0,-42.48046875,-1000.0,-1.0,1.0,0.0,1.0,5.m4v,5.0
2024-02-27 14:41:59.018262,1709041319.0182617,-949.21875,-953.61328125,-41.015625,-945.80078125,-1.0,1.0,0.0,1.0,5.m4v,5.0
2024-02-27 14:41:59.022167,1709041319.0221674,-1000.0,-1000.0,-30.2734375,-1000.0,-1.0,1.0,0.0,1.0,5.m4v,5.0
2024-02-27 14:41:59.026073,1709041319.0260732,-942.3828125,-974.12109375,-26.85546875,-914.55078125,-1.0,1.0,0.0,1.0,5.m4v,5.0
2024-02-27 14:41:59.029979,1709041319.029979,481.4453125,426.26953125,-37.59765625,525.390625,-1.0,1.0,0.0,1.0,5.m4v,5.0
2024-02-27 14:41:59.033885,1709041319.0338848,999.51171875,999.51171875,-41.015625,999.51171875,-1.0,1.0,0.0,1.0,5.m4v,5.0
2024-02-27 14:41:59.037791,1709041319.0377903,894.53125,895.99609375,-45.41015625,895.5078125,-1.0,1.0,0.0,1.0,5.m4v,5.0
2024-02-27 14:41:59.041696,1709041319.0416963,981.93359375,981.4453125,-51.26953125,984.375,-1.0,1.0,0.0,1.0,5.m4v,5.0
2024-02-27 14:41:59.045602,1709041319.045602,969.23828125,969.7265625,-46.38671875,969.7265625,-1.0,1.0,0.0,1.0,5.m4v,5.0
2024-02-27 14:41:59.049508,1709041319.049508,969.23828125,969.7265625,-44.921875,969.7265625,-1.0,1.0,0.0,1.0,5.m4v,5.0
2024-02-27 14:41:59.053413,1709041319.0534134,969.23828125,969.7265625,-44.921875,969.7265625,-1.0,1.0,0.0,1.0,5.m4v,5.0
2024-02-27 14:41:59.057319,1709041319.0573192,969.23828125,969.7265625,-37.59765625,969.7265625,-1.0,1.0,0.0,1.0,5.m4v,5.0
2024-02-27 14:41:59.061225,1709041319.061225,969.23828125,969.7265625,-39.55078125,969.7265625,-1.0,1.0,0.0,1.0,5.m4v,5.0
2024-02-27 14:41:59.065133,1709041319.065133,969.23828125,969.7265625,-34.1796875,969.7265625,-1.0,1.0,0.0,1.0,5.m4v,5.0
2024-02-27 14:41:59.069039,1709041319.0690389,969.23828125,969.7265625,-33.69140625,969.7265625,-1.0,1.0,0.0,1.0,5.m4v,5.0
2024-02-27 14:41:59.072945,1709041319.0729446,969.23828125,970.21484375,-40.0390625,969.7265625,-1.0,1.0,0.0,1.0,5.m4v,5.0
2024-02-27 14:41:59.076850,1709041319.0768504,969.23828125,969.7265625,-40.52734375,969.7265625,-1.0,1.0,0.0,1.0,5.m4v,5.0
2024-02-27 14:41:59.080756,1709041319.0807562,975.5859375,977.05078125,-40.52734375,979.4921875,-1.0,1.0,0.0,1.0,5.m4v,5.0
2024-02-27 14:41:59.084662,1709041319.084662,944.3359375,941.89453125,-39.55078125,933.10546875,-1.0,1.0,0.0,1.0,5.m4v,5.0
2024-02-27 14:41:59.135440,1709041319.13544,-1000.0,-1000.0,-44.921875,-1000.0,-1.0,1.0,0.0,1.0,5.m4v,5.0
2024-02-27 14:41:59.139346,1709041319.139346,-1000.0,-1000.0,-45.41015625,-1000.0,-1.0,1.0,0.0,1.0,5.m4v,5.0
2024-02-27 14:41:59.143252,1709041319.1432517,-1000.0,-1000.0,-35.64453125,-1000.0,-1.0,1.0,0.0,1.0,5.m4v,5.0
2024-02-27 14:41:59.147157,1709041319.1471574,-1000.0,-1000.0,-33.203125,-1000.0,-1.0,1.0,0.0,1.0,5.m4v,5.0
2024-02-27 14:41:59.158878,1709041319.1588778,-942.3828125,-942.3828125,-38.57421875,-940.91796875,-1.0,1.0,0.0,1.0,5.m4v,5.0
2024-02-27 14:41:59.162784,1709041319.1627836,-1000.0,-1000.0,-40.52734375,-1000.0,-1.0,1.0,0.0,1.0,5.m4v,5.0
2024-02-27 14:41:59.166689,1709041319.1666894,-891.11328125,-891.11328125,-39.55078125,-869.140625,-1.0,1.0,0.0,1.0,5.m4v,5.0
2024-02-27 14:41:59.170595,1709041319.1705952,565.91796875,566.40625,-29.296875,591.796875,-1.0,1.0,0.0,1.0,5.m4v,5.0
2024-02-27 14:41:59.174501,1709041319.174501,999.51171875,999.51171875,-27.34375,999.51171875,-1.0,1.0,0.0,1.0,5.m4v,5.0
2024-02-27 14:41:59.178407,1709041319.1784067,894.53125,895.01953125,-29.78515625,895.99609375,-1.0,1.0,0.0,1.0,5.m4v,5.0
2024-02-27 14:41:59.182312,1709041319.1823125,984.86328125,985.83984375,-31.25,985.83984375,-1.0,1.0,0.0,1.0,5.m4v,5.0
2024-02-27 14:41:59.186218,1709041319.1862185,969.23828125,969.7265625,-38.0859375,969.7265625,-1.0,1.0,0.0,1.0,5.m4v,5.0
2024-02-27 14:41:59.190124,1709041319.190124,969.23828125,969.7265625,-41.50390625,969.7265625,-1.0,1.0,0.0,1.0,5.m4v,5.0
2024-02-27 14:41:59.194030,1709041319.1940296,969.23828125,969.7265625,-35.15625,969.7265625,-1.0,1.0,0.0,1.0,5.m4v,5.0
2024-02-27 14:41:59.197935,1709041319.197935,969.23828125,969.7265625,-38.0859375,969.7265625,-1.0,1.0,0.0,1.0,5.m4v,5.0
2024-02-27 14:41:59.201841,1709041319.201841,969.23828125,969.7265625,-35.15625,969.7265625,-1.0,1.0,0.0,1.0,5.m4v,5.0
2024-02-27 14:41:59.205750,1709041319.20575,969.23828125,969.7265625,-32.71484375,969.7265625,-1.0,1.0,0.0,1.0,5.m4v,5.0
2024-02-27 14:41:59.209656,1709041319.2096558,969.23828125,969.7265625,-29.78515625,969.7265625,-1.0,1.0,0.0,1.0,5.m4v,5.0
2024-02-27 14:41:59.213561,1709041319.2135613,969.23828125,969.7265625,-27.83203125,969.7265625,-1.0,1.0,0.0,1.0,5.m4v,5.0
2024-02-27 14:41:59.217467,1709041319.217467,969.23828125,969.7265625,-33.69140625,969.7265625,-1.0,1.0,0.0,1.0,5.m4v,5.0
2024-02-27 14:41:59.221373,1709041319.2213728,969.23828125,969.7265625,-26.85546875,969.7265625,-1.0,1.0,0.0,1.0,5.m4v,5.0
2024-02-27 14:41:59.225279,1709041319.2252786,985.3515625,986.328125,-25.87890625,984.86328125,-1.0,1.0,0.0,1.0,5.m4v,5.0
2024-02-27 14:41:59.229184,1709041319.2291844,911.1328125,912.109375,-26.3671875,908.69140625,-1.0,1.0,0.0,1.0,5.m4v,5.0
2024-02-27 14:41:59.233090,1709041319.2330902,999.51171875,999.51171875,-24.90234375,999.51171875,-1.0,1.0,0.0,1.0,5.m4v,5.0
2024-02-27 14:41:59.236996,1709041319.236996,859.86328125,860.83984375,-42.48046875,749.0234375,-1.0,1.0,0.0,1.0,5.m4v,5.0
2024-02-27 14:41:59.240902,1709041319.2409017,-597.16796875,-597.16796875,-41.9921875,-692.87109375,-1.0,1.0,0.0,1.0,5.m4v,5.0
2024-02-27 14:41:59.244807,1709041319.2448075,-1000.0,-1000.0,-28.3203125,-1000.0,-1.0,1.0,0.0,1.0,5.m4v,5.0
2024-02-27 14:41:59.248713,1709041319.2487133,-925.78125,-925.78125,-25.390625,-932.12890625,-1.0,1.0,0.0,1.0,5.m4v,5.0
2024-02-27 14:41:59.252622,1709041319.252622,-1000.0,-1000.0,-24.90234375,-1000.0,-1.0,1.0,0.0,1.0,5.m4v,5.0
2024-02-27 14:41:59.256527,1709041319.2565274,-1000.0,-1000.0,-33.69140625,-1000.0,-1.0,1.0,0.0,1.0,5.m4v,5.0
2024-02-27 14:41:59.260433,1709041319.2604332,-1000.0,-1000.0,-32.71484375,-1000.0,-1.0,1.0,0.0,1.0,5.m4v,5.0
2024-02-27 14:41:59.471355,1709041319.4713552,968.75,969.7265625,-39.0625,969.7265625,-1.0,1.0,0.0,1.0,5.m4v,5.0
2024-02-27 14:41:59.475261,1709041319.475261,969.23828125,969.7265625,-30.76171875,969.7265625,-1.0,1.0,0.0,1.0,5.m4v,5.0
2024-02-27 14:41:59.479167,1709041319.4791667,969.23828125,969.7265625,-21.484375,969.7265625,-1.0,1.0,0.0,1.0,5.m4v,5.0
2024-02-27 14:41:59.483073,1709041319.4830723,969.23828125,969.7265625,-29.296875,969.7265625,-1.0,1.0,0.0,1.0,5.m4v,5.0
2024-02-27 14:41:59.486982,1709041319.4869816,969.23828125,969.7265625,-31.73828125,969.7265625,-1.0,1.0,0.0,1.0,5.m4v,5.0
2024-02-27 14:41:59.490887,1709041319.4908874,969.23828125,969.7265625,-26.3671875,969.7265625,-1.0,1.0,0.0,1.0,5.m4v,5.0
2024-02-27 14:41:59.494793,1709041319.4947932,969.23828125,969.7265625,-21.97265625,969.7265625,-1.0,1.0,0.0,1.0,5.m4v,5.0
2024-02-27 14:41:59.498699,1709041319.498699,968.75,969.7265625,-28.3203125,969.7265625,-1.0,1.0,0.0,1.0,5.m4v,5.0
2024-02-27 14:41:59.502605,1709041319.5026047,972.16796875,973.14453125,-49.8046875,976.5625,-1.0,1.0,0.0,1.0,5.m4v,5.0
2024-02-27 14:41:59.506510,1709041319.5065105,959.9609375,960.9375,-40.0390625,944.82421875,-1.0,1.0,0.0,1.0,5.m4v,5.0
2024-02-27 14:41:59.510416,1709041319.5104165,924.31640625,925.29296875,-17.578125,953.61328125,-1.0,1.0,0.0,1.0,5.m4v,5.0
2024-02-27 14:41:59.514322,1709041319.514322,999.51171875,999.51171875,-27.34375,999.51171875,-1.0,1.0,0.0,1.0,5.m4v,5.0
2024-02-27 14:41:59.518228,1709041319.5182278,72.75390625,75.68359375,-28.3203125,-155.76171875,-1.0,1.0,0.0,1.0,5.m4v,5.0
2024-02-27 14:41:59.522133,1709041319.5221334,-1000.0,-1000.0,-27.34375,-1000.0,-1.0,1.0,0.0,1.0,5.m4v,5.0
2024-02-27 14:41:59.526039,1709041319.5260391,-975.5859375,-975.5859375,-45.8984375,-952.63671875,-1.0,1.0,0.0,1.0,5.m4v,5.0
2024-02-27 14:41:59.529945,1709041319.529945,-979.98046875,-979.98046875,-41.015625,-994.140625,-1.0,1.0,0.0,1.0,5.m4v,5.0
2024-02-27 14:41:59.533854,1709041319.533854,-1000.0,-1000.0,-34.1796875,-1000.0,-1.0,1.0,0.0,1.0,5.m4v,5.0
2024-02-27 14:41:59.537760,1709041319.5377598,-1000.0,-1000.0,-47.36328125,-1000.0,-1.0,1.0,0.0,1.0,5.m4v,5.0
2024-02-27 14:41:59.541666,1709041319.5416656,-1000.0,-1000.0,-38.0859375,-1000.0,-1.0,1.0,0.0,1.0,5.m4v,5.0
2024-02-27 14:41:59.736964,1709041319.7369645,999.51171875,999.51171875,-20.01953125,999.51171875,-1.0,1.0,0.0,1.0,5.m4v,5.0
2024-02-27 14:41:59.740870,1709041319.7408702,897.4609375,895.99609375,-26.3671875,910.64453125,-1.0,1.0,0.0,1.0,5.m4v,5.0
2024-02-27 14:41:59.744776,1709041319.744776,986.328125,986.328125,-23.4375,984.375,-1.0,1.0,0.0,1.0,5.m4v,5.0
2024-02-27 14:41:59.748682,1709041319.7486818,969.23828125,969.7265625,-16.6015625,969.7265625,-1.0,1.0,0.0,1.0,5.m4v,5.0
2024-02-27 14:41:59.752588,1709041319.7525876,969.23828125,969.7265625,-21.484375,969.7265625,-1.0,1.0,0.0,1.0,5.m4v,5.0
2024-02-27 14:41:59.756493,1709041319.756493,969.23828125,969.7265625,-22.94921875,969.7265625,-1.0,1.0,0.0,1.0,5.m4v,5.0
2024-02-27 14:41:59.760399,1709041319.760399,969.23828125,969.7265625,-20.5078125,969.7265625,-1.0,1.0,0.0,1.0,5.m4v,5.0
2024-02-27 14:41:59.764305,1709041319.7643049,969.23828125,969.7265625,-18.5546875,969.7265625,-1.0,1.0,0.0,1.0,5.m4v,5.0
2024-02-27 14:41:59.768213,1709041319.7682128,969.23828125,969.7265625,-17.578125,969.7265625,-1.0,1.0,0.0,1.0,5.m4v,5.0
2024-02-27 14:41:59.772119,1709041319.7721186,969.23828125,969.7265625,-33.69140625,969.7265625,-1.0,1.0,0.0,1.0,5.m4v,5.0
2024-02-27 14:41:59.776024,1709041319.7760243,969.23828125,969.7265625,-47.8515625,969.7265625,-1.0,1.0,0.0,1.0,5.m4v,5.0
2024-02-27 14:41:59.779930,1709041319.77993,969.23828125,970.21484375,-34.1796875,969.7265625,-1.0,1.0,0.0,1.0,5.m4v,5.0
2024-02-27 14:41:59.783836,1709041319.783836,985.83984375,987.3046875,-20.5078125,986.328125,-1.0,1.0,0.0,1.0,5.m4v,5.0
2024-02-27 14:41:59.787742,1709041319.7877417,908.69140625,901.85546875,-19.04296875,905.2734375,-1.0,1.0,0.0,1.0,5.m4v,5.0
2024-02-27 14:41:59.791647,1709041319.7916474,999.51171875,999.51171875,-21.97265625,999.51171875,-1.0,1.0,0.0,1.0,5.m4v,5.0
2024-02-27 14:41:59.795553,1709041319.7955532,831.0546875,719.23828125,-21.97265625,765.13671875,-1.0,1.0,0.0,1.0,5.m4v,5.0
2024-02-27 14:41:59.799459,1709041319.799459,-634.27734375,-754.8828125,-22.94921875,-700.1953125,-1.0,1.0,0.0,1.0,5.m4v,5.0
2024-02-27 14:41:59.803365,1709041319.8033648,-1000.0,-1000.0,-26.3671875,-1000.0,-1.0,1.0,0.0,1.0,5.m4v,5.0
2024-02-27 14:41:59.807271,1709041319.8072703,-926.7578125,-932.12890625,-28.80859375,-930.17578125,-1.0,1.0,0.0,1.0,5.m4v,5.0
2024-02-27 14:41:59.811176,1709041319.8111763,-1000.0,-1000.0,-28.3203125,-1000.0,-1.0,1.0,0.0,1.0,5.m4v,5.0
2024-02-27 14:41:59.815085,1709041319.8150854,-1000.0,-1000.0,-28.3203125,-1000.0,-1.0,1.0,0.0,1.0,5.m4v,5.0
2024-02-27 14:41:59.818991,1709041319.8189912,-1000.0,-1000.0,-34.66796875,-1000.0,-1.0,1.0,0.0,1.0,5.m4v,5.0
2024-02-27 14:41:59.822897,1709041319.822897,-1000.0,-1000.0,-27.83203125,-1000.0,-1.0,1.0,0.0,1.0,5.m4v,5.0
2024-02-27 14:41:59.826803,1709041319.8268027,-1000.0,-1000.0,-23.4375,-1000.0,-1.0,1.0,0.0,1.0,5.m4v,5.0
2024-02-27 14:41:59.916641,1709041319.9166417,968.75,969.7265625,-23.92578125,969.7265625,-1.0,1.0,0.0,1.0,5.m4v,5.0
2024-02-27 14:41:59.920547,1709041319.9205472,969.23828125,969.7265625,-24.90234375,969.7265625,-1.0,1.0,0.0,1.0,5.m4v,5.0
2024-02-27 14:41:59.924453,1709041319.924453,984.86328125,985.3515625,-27.34375,985.83984375,-1.0,1.0,0.0,1.0,5.m4v,5.0
2024-02-27 14:41:59.928359,1709041319.9283588,914.0625,914.55078125,-29.78515625,912.59765625,-1.0,1.0,0.0,1.0,5.m4v,5.0
2024-02-27 14:41:59.932265,1709041319.9322646,999.51171875,999.51171875,-33.69140625,999.51171875,-1.0,1.0,0.0,1.0,5.m4v,5.0
2024-02-27 14:41:59.936170,1709041319.9361703,884.765625,879.8828125,-29.296875,860.3515625,-1.0,1.0,0.0,1.0,5.m4v,5.0
2024-02-27 14:41:59.940076,1709041319.940076,-557.6171875,-566.89453125,-29.78515625,-592.7734375,-1.0,1.0,0.0,1.0,5.m4v,5.0
2024-02-27 14:41:59.943982,1709041319.943982,-1000.0,-1000.0,-37.109375,-1000.0,-1.0,1.0,0.0,1.0,5.m4v,5.0
2024-02-27 14:41:59.947888,1709041319.9478877,-925.29296875,-925.29296875,-27.83203125,-925.78125,-1.0,1.0,0.0,1.0,5.m4v,5.0
2024-02-27 14:41:59.951793,1709041319.9517934,-1000.0,-1000.0,-24.4140625,-1000.0,-1.0,1.0,0.0,1.0,5.m4v,5.0
2024-02-27 14:41:59.955702,1709041319.955702,-1000.0,-1000.0,-34.1796875,-1000.0,-1.0,1.0,0.0,1.0,5.m4v,5.0
2024-02-27 14:41:59.959608,1709041319.9596078,-1000.0,-1000.0,-37.109375,-1000.0,-1.0,1.0,0.0,1.0,5.m4v,5.0
2024-02-27 14:41:59.963514,1709041319.9635136,-1000.0,-1000.0,-36.62109375,-1000.0,-1.0,1.0,0.0,1.0,5.m4v,5.0
2024-02-27 14:41:59.967419,1709041319.9674194,-1000.0,-1000.0,-33.69140625,-1000.0,-1.0,1.0,0.0,1.0,5.m4v,5.0
2024-02-27 14:42:00.033820,1709041320.0338202,969.23828125,969.7265625,-48.33984375,969.7265625,-1.0,1.0,0.0,1.0,5.m4v,5.0
2024-02-27 14:42:00.033820,1709041320.0338202,969.23828125,969.7265625,-48.33984375,969.7265625,-1.0,1.0,0.0,1.0,5.m4v,5.0
2024-02-27 14:42:00.041632,1709041320.0416317,969.23828125,969.7265625,-34.1796875,969.7265625,-1.0,1.0,0.0,1.0,5.m4v,5.0
2024-02-27 14:42:00.041632,1709041320.0416317,969.23828125,969.7265625,-34.1796875,969.7265625,-1.0,1.0,0.0,1.0,5.m4v,5.0
2024-02-27 14:42:00.049446,1709041320.049446,969.23828125,969.7265625,-37.59765625,969.7265625,-1.0,1.0,0.0,1.0,5.m4v,5.0
2024-02-27 14:42:00.049446,1709041320.049446,969.23828125,969.7265625,-37.59765625,969.7265625,-1.0,1.0,0.0,1.0,5.m4v,5.0
2024-02-27 14:42:00.057257,1709041320.0572574,969.23828125,969.7265625,-42.48046875,969.7265625,-1.0,1.0,0.0,1.0,5.m4v,5.0
2024-02-27 14:42:00.057257,1709041320.0572574,969.23828125,969.7265625,-42.48046875,969.7265625,-1.0,1.0,0.0,1.0,5.m4v,5.0
2024-02-27 14:42:00.065069,1709041320.0650687,976.5625,978.02734375,-31.25,979.98046875,-1.0,1.0,0.0,1.0,5.m4v,5.0
2024-02-27 14:42:00.065069,1709041320.0650687,976.5625,978.02734375,-31.25,979.98046875,-1.0,1.0,0.0,1.0,5.m4v,5.0
2024-02-27 14:42:00.072880,1709041320.0728805,958.0078125,960.44921875,-38.0859375,977.05078125,-1.0,1.0,0.0,1.0,5.m4v,5.0
2024-02-27 14:42:00.072880,1709041320.0728805,958.0078125,960.44921875,-38.0859375,977.05078125,-1.0,1.0,0.0,1.0,5.m4v,5.0
2024-02-27 14:42:00.080692,1709041320.0806918,-245.1171875,-261.71875,-56.640625,-345.703125,-1.0,1.0,0.0,1.0,5.m4v,5.0
2024-02-27 14:42:00.080692,1709041320.0806918,-245.1171875,-261.71875,-56.640625,-345.703125,-1.0,1.0,0.0,1.0,5.m4v,5.0
2024-02-27 14:42:00.088503,1709041320.0885034,-937.01171875,-935.05859375,-81.0546875,-933.59375,-1.0,1.0,0.0,1.0,5.m4v,5.0
2024-02-27 14:42:00.088503,1709041320.0885034,-937.01171875,-935.05859375,-81.0546875,-933.59375,-1.0,1.0,0.0,1.0,5.m4v,5.0
2024-02-27 14:42:00.096317,1709041320.0963173,-1000.0,-1000.0,-78.125,-1000.0,-1.0,1.0,0.0,1.0,5.m4v,5.0
2024-02-27 14:42:00.096317,1709041320.0963173,-1000.0,-1000.0,-78.125,-1000.0,-1.0,1.0,0.0,1.0,5.m4v,5.0
2024-02-27 14:42:00.104129,1709041320.1041288,-1000.0,-1000.0,-85.9375,-1000.0,-1.0,1.0,0.0,1.0,5.m4v,5.0
2024-02-27 14:42:00.104129,1709041320.1041288,-1000.0,-1000.0,-85.9375,-1000.0,-1.0,1.0,0.0,1.0,5.m4v,5.0
2024-02-27 14:42:00.111940,1709041320.1119404,-1000.0,-1000.0,-83.49609375,-1000.0,-1.0,1.0,0.0,1.0,5.m4v,5.0
2024-02-27 14:42:00.111940,1709041320.1119404,-1000.0,-1000.0,-83.49609375,-1000.0,-1.0,1.0,0.0,1.0,5.m4v,5.0
2024-02-27 14:42:00.119752,1709041320.119752,-1000.0,-1000.0,-73.2421875,-1000.0,-1.0,1.0,0.0,1.0,5.m4v,5.0
2024-02-27 14:42:00.119752,1709041320.119752,-1000.0,-1000.0,-73.2421875,-1000.0,-1.0,1.0,0.0,1.0,5.m4v,5.0
2024-02-27 14:42:00.127563,1709041320.1275637,-1000.0,-1000.0,-66.40625,-1000.0,-1.0,1.0,0.0,1.0,5.m4v,5.0
2024-02-27 14:42:00.127563,1709041320.1275637,-1000.0,-1000.0,-66.40625,-1000.0,-1.0,1.0,0.0,1.0,5.m4v,5.0
2024-02-27 14:42:00.135375,1709041320.135375,-1000.0,-1000.0,-59.08203125,-1000.0,-1.0,1.0,0.0,1.0,5.m4v,5.0
2024-02-27 14:42:00.135375,1709041320.135375,-1000.0,-1000.0,-59.08203125,-1000.0,-1.0,1.0,0.0,1.0,5.m4v,5.0
2024-02-27 14:42:00.143189,1709041320.143189,-1000.0,-1000.0,-78.61328125,-1000.0,-1.0,1.0,0.0,1.0,5.m4v,5.0
2024-02-27 14:42:00.143189,1709041320.143189,-1000.0,-1000.0,-78.61328125,-1000.0,-1.0,1.0,0.0,1.0,5.m4v,5.0
2024-02-27 14:42:00.151000,1709041320.1510005,565.91796875,566.89453125,-56.640625,613.28125,-1.0,1.0,0.0,1.0,5.m4v,5.0
2024-02-27 14:42:00.151000,1709041320.1510005,565.91796875,566.89453125,-56.640625,613.28125,-1.0,1.0,0.0,1.0,5.m4v,5.0
2024-02-27 14:42:00.158812,1709041320.158812,894.53125,895.01953125,-51.7578125,896.97265625,-1.0,1.0,0.0,1.0,5.m4v,5.0
2024-02-27 14:42:00.158812,1709041320.158812,894.53125,895.01953125,-51.7578125,896.97265625,-1.0,1.0,0.0,1.0,5.m4v,5.0
2024-02-27 14:42:00.166624,1709041320.1666236,969.23828125,969.7265625,-56.15234375,969.7265625,-1.0,1.0,0.0,1.0,5.m4v,5.0
2024-02-27 14:42:00.166624,1709041320.1666236,969.23828125,969.7265625,-56.15234375,969.7265625,-1.0,1.0,0.0,1.0,5.m4v,5.0
2024-02-27 14:42:00.174435,1709041320.1744351,969.23828125,969.7265625,-41.9921875,969.7265625,-1.0,1.0,0.0,1.0,5.m4v,5.0
2024-02-27 14:42:00.174435,1709041320.1744351,969.23828125,969.7265625,-41.9921875,969.7265625,-1.0,1.0,0.0,1.0,5.m4v,5.0
2024-02-27 14:42:00.182247,1709041320.1822467,969.23828125,969.7265625,-53.22265625,969.7265625,-1.0,1.0,0.0,1.0,5.m4v,5.0
2024-02-27 14:42:00.182247,1709041320.1822467,969.23828125,969.7265625,-53.22265625,969.7265625,-1.0,1.0,0.0,1.0,5.m4v,5.0
2024-02-27 14:42:00.190062,1709041320.1900616,969.23828125,969.7265625,-41.50390625,969.7265625,-1.0,1.0,0.0,1.0,5.m4v,5.0
2024-02-27 14:42:00.190062,1709041320.1900616,969.23828125,969.7265625,-41.50390625,969.7265625,-1.0,1.0,0.0,1.0,5.m4v,5.0
2024-02-27 14:42:00.197873,1709041320.197873,969.23828125,969.7265625,-44.43359375,969.7265625,-1.0,1.0,0.0,1.0,5.m4v,5.0
2024-02-27 14:42:00.197873,1709041320.197873,969.23828125,969.7265625,-44.43359375,969.7265625,-1.0,1.0,0.0,1.0,5.m4v,5.0
2024-02-27 14:42:00.205685,1709041320.205685,984.86328125,982.421875,-41.50390625,974.12109375,-1.0,1.0,0.0,1.0,5.m4v,5.0
2024-02-27 14:42:00.205685,1709041320.205685,984.86328125,982.421875,-41.50390625,974.12109375,-1.0,1.0,0.0,1.0,5.m4v,5.0
2024-02-27 14:42:00.213496,1709041320.2134962,999.51171875,999.51171875,-53.22265625,999.51171875,-1.0,1.0,0.0,1.0,5.m4v,5.0
2024-02-27 14:42:00.213496,1709041320.2134962,999.51171875,999.51171875,-53.22265625,999.51171875,-1.0,1.0,0.0,1.0,5.m4v,5.0
2024-02-27 14:42:00.221308,1709041320.2213075,-869.140625,-909.66796875,-40.0390625,-955.56640625,-1.0,1.0,0.0,1.0,5.m4v,5.0
2024-02-27 14:42:00.229119,1709041320.229119,-941.40625,-947.265625,-48.828125,-958.49609375,-1.0,1.0,0.0,1.0,5.m4v,5.0
2024-02-27 14:42:00.236934,1709041320.236934,-1000.0,-1000.0,-27.34375,-1000.0,-1.0,1.0,0.0,1.0,5.m4v,5.0
2024-02-27 14:42:00.244745,1709041320.2447455,-1000.0,-1000.0,-34.66796875,-1000.0,-1.0,1.0,0.0,1.0,5.m4v,5.0
2024-02-27 14:42:00.252557,1709041320.252557,-1000.0,-1000.0,-32.2265625,-1000.0,-1.0,1.0,0.0,1.0,5.m4v,5.0
2024-02-27 14:42:00.260369,1709041320.2603686,-1000.0,-1000.0,-35.15625,-1000.0,-1.0,1.0,0.0,1.0,5.m4v,5.0
2024-02-27 14:42:00.268180,1709041320.26818,-973.6328125,-934.5703125,-35.64453125,-1000.0,-1.0,1.0,0.0,1.0,5.m4v,5.0
2024-02-27 14:42:00.275991,1709041320.2759914,-1000.0,-755.37109375,-30.76171875,-1000.0,-1.0,1.0,0.0,1.0,5.m4v,5.0
2024-02-27 14:42:00.502540,1709041320.50254,-1000.0,-1000.0,-39.55078125,-1000.0,-1.0,1.0,0.0,1.0,5.m4v,5.0
2024-02-27 14:42:00.510351,1709041320.5103514,-1000.0,-1000.0,-33.203125,-1000.0,-1.0,1.0,0.0,1.0,5.m4v,5.0
2024-02-27 14:42:00.518165,1709041320.518165,-1000.0,-1000.0,-39.55078125,-1000.0,-1.0,1.0,0.0,1.0,5.m4v,5.0
2024-02-27 14:42:00.525977,1709041320.525977,-1000.0,-1000.0,-32.2265625,-1000.0,-1.0,1.0,0.0,1.0,5.m4v,5.0
2024-02-27 14:42:00.533788,1709041320.5337882,-1000.0,-1000.0,-32.71484375,-1000.0,-1.0,1.0,0.0,1.0,5.m4v,5.0
2024-02-27 14:42:00.596283,1709041320.5962827,999.51171875,999.51171875,-30.76171875,999.51171875,-1.0,1.0,0.0,1.0,5.m4v,5.0
2024-02-27 14:42:00.600188,1709041320.6001885,576.66015625,655.76171875,-34.66796875,238.28125,-1.0,1.0,0.0,1.0,5.m4v,5.0
2024-02-27 14:42:00.604094,1709041320.6040945,-872.0703125,-819.3359375,-41.50390625,-975.5859375,-1.0,1.0,0.0,1.0,5.m4v,5.0
2024-02-27 14:42:00.608000,1709041320.608,-1000.0,-1000.0,-35.15625,-1000.0,-1.0,1.0,0.0,1.0,5.m4v,5.0
2024-02-27 14:42:00.611909,1709041320.611909,-941.89453125,-936.03515625,-34.1796875,-965.8203125,-1.0,1.0,0.0,1.0,5.m4v,5.0
2024-02-27 14:42:00.615815,1709041320.6158147,-1000.0,-1000.0,-29.78515625,-1000.0,-1.0,1.0,0.0,1.0,5.m4v,5.0
2024-02-27 14:42:00.619720,1709041320.6197205,-1000.0,-1000.0,-43.9453125,-1000.0,-1.0,1.0,0.0,1.0,5.m4v,5.0
2024-02-27 14:42:00.623626,1709041320.6236262,-1000.0,-1000.0,-47.36328125,-1000.0,-1.0,1.0,0.0,1.0,5.m4v,5.0
2024-02-27 14:42:00.627532,1709041320.627532,-1000.0,-1000.0,-28.80859375,-1000.0,-1.0,1.0,0.0,1.0,5.m4v,5.0
2024-02-27 14:42:00.631438,1709041320.6314378,-1000.0,-1000.0,-37.109375,-1000.0,-1.0,1.0,0.0,1.0,5.m4v,5.0
2024-02-27 14:42:00.635344,1709041320.6353436,-1000.0,-1000.0,-41.9921875,-1000.0,-1.0,1.0,0.0,1.0,5.m4v,5.0
2024-02-27 14:42:00.639249,1709041320.639249,-1000.0,-1000.0,-39.55078125,-1000.0,-1.0,1.0,0.0,1.0,5.m4v,5.0
2024-02-27 14:42:00.643155,1709041320.643155,-1000.0,-1000.0,-41.50390625,-1000.0,-1.0,1.0,0.0,1.0,5.m4v,5.0
2024-02-27 14:42:00.647061,1709041320.6470609,-1000.0,-1000.0,-30.76171875,-1000.0,-1.0,1.0,0.0,1.0,5.m4v,5.0
2024-02-27 14:42:00.650967,1709041320.6509666,-1000.0,-1000.0,-31.73828125,-1000.0,-1.0,1.0,0.0,1.0,5.m4v,5.0
2024-02-27 14:42:00.654872,1709041320.6548724,-1000.0,-1000.0,-32.2265625,-1000.0,-1.0,1.0,0.0,1.0,5.m4v,5.0
2024-02-27 14:42:00.658781,1709041320.6587813,-942.3828125,-942.3828125,-27.83203125,-938.96484375,-1.0,1.0,0.0,1.0,5.m4v,5.0
2024-02-27 14:42:00.662687,1709041320.662687,-1000.0,-1000.0,-32.2265625,-1000.0,-1.0,1.0,0.0,1.0,5.m4v,5.0
2024-02-27 14:42:00.697839,1709041320.6978388,969.23828125,970.21484375,-19.04296875,969.7265625,-1.0,1.0,0.0,1.0,5.m4v,5.0
2024-02-27 14:42:00.701745,1709041320.7017446,969.23828125,969.7265625,-11.71875,969.7265625,-1.0,1.0,0.0,1.0,5.m4v,5.0
2024-02-27 14:42:00.705653,1709041320.7056534,969.23828125,969.7265625,-15.13671875,969.7265625,-1.0,1.0,0.0,1.0,5.m4v,5.0
2024-02-27 14:42:00.709559,1709041320.7095592,969.23828125,969.7265625,-14.6484375,969.7265625,-1.0,1.0,0.0,1.0,5.m4v,5.0
2024-02-27 14:42:00.713465,1709041320.7134647,969.23828125,969.7265625,-16.11328125,969.7265625,-1.0,1.0,0.0,1.0,5.m4v,5.0
2024-02-27 14:42:00.717371,1709041320.7173705,968.75,969.7265625,-22.94921875,970.21484375,-1.0,1.0,0.0,1.0,5.m4v,5.0
2024-02-27 14:42:00.721276,1709041320.7212763,969.23828125,969.7265625,-22.94921875,969.7265625,-1.0,1.0,0.0,1.0,5.m4v,5.0
2024-02-27 14:42:00.725182,1709041320.725182,978.515625,978.02734375,-21.484375,981.4453125,-1.0,1.0,0.0,1.0,5.m4v,5.0
2024-02-27 14:42:00.729088,1709041320.7290878,935.05859375,938.4765625,-25.87890625,928.22265625,-1.0,1.0,0.0,1.0,5.m4v,5.0
2024-02-27 14:42:00.732994,1709041320.7329936,967.28515625,961.9140625,-29.78515625,985.3515625,-1.0,1.0,0.0,1.0,5.m4v,5.0
2024-02-27 14:42:00.736899,1709041320.7368994,999.51171875,999.51171875,-26.85546875,962.890625,-1.0,1.0,0.0,1.0,5.m4v,5.0
2024-02-27 14:42:00.740805,1709041320.7408051,-305.6640625,-271.484375,-21.97265625,-398.4375,-1.0,1.0,0.0,1.0,5.m4v,5.0
2024-02-27 14:42:00.744711,1709041320.744711,-1000.0,-1000.0,-28.80859375,-1000.0,-1.0,1.0,0.0,1.0,5.m4v,5.0
2024-02-27 14:42:00.748617,1709041320.7486167,-932.6171875,-934.5703125,-25.87890625,-930.17578125,-1.0,1.0,0.0,1.0,5.m4v,5.0
2024-02-27 14:42:00.752525,1709041320.752525,-1000.0,-1000.0,-23.4375,-1000.0,-1.0,1.0,0.0,1.0,5.m4v,5.0
2024-02-27 14:42:00.756431,1709041320.756431,-1000.0,-1000.0,-38.57421875,-1000.0,-1.0,1.0,0.0,1.0,5.m4v,5.0
2024-02-27 14:42:00.760337,1709041320.7603369,-1000.0,-1000.0,-40.52734375,-1000.0,-1.0,1.0,0.0,1.0,5.m4v,5.0
2024-02-27 14:42:00.764243,1709041320.7642426,-1000.0,-1000.0,-35.64453125,-1000.0,-1.0,1.0,0.0,1.0,5.m4v,5.0
2024-02-27 14:42:00.768148,1709041320.7681482,-1000.0,-1000.0,-31.73828125,-1000.0,-1.0,1.0,0.0,1.0,5.m4v,5.0
2024-02-27 14:42:00.772054,1709041320.772054,-1000.0,-1000.0,-22.94921875,-1000.0,-1.0,1.0,0.0,1.0,5.m4v,5.0
2024-02-27 14:42:00.775960,1709041320.7759595,-1000.0,-1000.0,-26.85546875,-1000.0,-1.0,1.0,0.0,1.0,5.m4v,5.0
2024-02-27 14:42:00.779866,1709041320.7798655,-1000.0,-1000.0,-31.25,-1000.0,-1.0,1.0,0.0,1.0,5.m4v,5.0
2024-02-27 14:42:00.783771,1709041320.7837713,-1000.0,-1000.0,-30.2734375,-1000.0,-1.0,1.0,0.0,1.0,5.m4v,5.0
2024-02-27 14:42:00.787677,1709041320.787677,-1000.0,-1000.0,-23.92578125,-1000.0,-1.0,1.0,0.0,1.0,5.m4v,5.0
2024-02-27 14:42:00.791583,1709041320.7915828,-1000.0,-1000.0,-27.34375,-1000.0,-1.0,1.0,0.0,1.0,5.m4v,5.0
2024-02-27 14:42:00.795489,1709041320.7954886,-1000.0,-1000.0,-45.41015625,-1000.0,-1.0,1.0,0.0,1.0,5.m4v,5.0
2024-02-27 14:42:00.799397,1709041320.7993972,-964.35546875,-971.19140625,-41.9921875,-954.58984375,-1.0,1.0,0.0,1.0,5.m4v,5.0
2024-02-27 14:42:00.803303,1709041320.803303,-1000.0,-988.28125,-27.34375,-1000.0,-1.0,1.0,0.0,1.0,5.m4v,5.0
2024-02-27 14:42:00.807209,1709041320.8072088,-1000.0,-1000.0,-27.34375,-970.21484375,-1.0,1.0,0.0,1.0,5.m4v,5.0
2024-02-27 14:42:00.811115,1709041320.8111143,296.875,213.37890625,-26.85546875,417.48046875,-1.0,1.0,0.0,1.0,5.m4v,5.0
2024-02-27 14:42:00.815020,1709041320.8150203,999.51171875,999.51171875,-25.87890625,999.51171875,-1.0,1.0,0.0,1.0,5.m4v,5.0
2024-02-27 14:42:00.818926,1709041320.818926,900.390625,905.76171875,-29.78515625,897.94921875,-1.0,1.0,0.0,1.0,5.m4v,5.0
2024-02-27 14:42:00.822832,1709041320.822832,975.09765625,971.6796875,-27.83203125,980.46875,-1.0,1.0,0.0,1.0,5.m4v,5.0
2024-02-27 14:42:00.826737,1709041320.8267374,969.23828125,970.21484375,-24.4140625,969.7265625,-1.0,1.0,0.0,1.0,5.m4v,5.0
2024-02-27 14:42:00.830643,1709041320.8306432,969.23828125,969.7265625,-34.66796875,969.7265625,-1.0,1.0,0.0,1.0,5.m4v,5.0
2024-02-27 14:42:00.834549,1709041320.834549,969.23828125,970.21484375,-35.15625,969.7265625,-1.0,1.0,0.0,1.0,5.m4v,5.0
2024-02-27 14:42:00.838455,1709041320.8384547,968.75,969.7265625,-21.97265625,969.7265625,-1.0,1.0,0.0,1.0,5.m4v,5.0
2024-02-27 14:42:00.842360,1709041320.8423605,969.23828125,969.7265625,-24.4140625,970.21484375,-1.0,1.0,0.0,1.0,5.m4v,5.0
2024-02-27 14:42:00.846269,1709041320.846269,969.23828125,969.7265625,-25.87890625,969.7265625,-1.0,1.0,0.0,1.0,5.m4v,5.0
2024-02-27 14:42:00.850175,1709041320.850175,968.75,969.7265625,-21.97265625,969.7265625,-1.0,1.0,0.0,1.0,5.m4v,5.0
2024-02-27 14:42:00.854080,1709041320.8540804,969.23828125,969.7265625,-31.25,969.7265625,-1.0,1.0,0.0,1.0,5.m4v,5.0
2024-02-27 14:42:00.857986,1709041320.8579862,969.23828125,969.7265625,-36.1328125,969.7265625,-1.0,1.0,0.0,1.0,5.m4v,5.0
2024-02-27 14:42:00.861892,1709041320.8618915,969.23828125,969.7265625,-35.64453125,969.7265625,-1.0,1.0,0.0,1.0,5.m4v,5.0
2024-02-27 14:42:00.865798,1709041320.8657975,985.3515625,986.328125,-34.1796875,985.83984375,-1.0,1.0,0.0,1.0,5.m4v,5.0
2024-02-27 14:42:00.869703,1709041320.8697033,911.1328125,912.109375,-29.296875,908.69140625,-1.0,1.0,0.0,1.0,5.m4v,5.0
2024-02-27 14:42:00.873609,1709041320.873609,999.51171875,999.51171875,-24.4140625,999.51171875,-1.0,1.0,0.0,1.0,5.m4v,5.0
2024-02-27 14:42:00.877515,1709041320.8775148,859.86328125,860.3515625,-29.78515625,803.22265625,-1.0,1.0,0.0,1.0,5.m4v,5.0
2024-02-27 14:42:00.881421,1709041320.8814206,-597.16796875,-597.16796875,-38.57421875,-656.25,-1.0,1.0,0.0,1.0,5.m4v,5.0
2024-02-27 14:42:00.885326,1709041320.8853264,-1000.0,-1000.0,-35.64453125,-1000.0,-1.0,1.0,0.0,1.0,5.m4v,5.0
2024-02-27 14:42:00.889232,1709041320.8892322,-925.78125,-925.78125,-30.2734375,-928.7109375,-1.0,1.0,0.0,1.0,5.m4v,5.0
2024-02-27 14:42:00.893140,1709041320.8931403,-1000.0,-1000.0,-31.25,-1000.0,-1.0,1.0,0.0,1.0,5.m4v,5.0
2024-02-27 14:42:00.897046,1709041320.897046,-1000.0,-1000.0,-39.55078125,-1000.0,-1.0,1.0,0.0,1.0,5.m4v,5.0
2024-02-27 14:42:00.900952,1709041320.900952,-1000.0,-1000.0,-37.109375,-1000.0,-1.0,1.0,0.0,1.0,5.m4v,5.0
2024-02-27 14:42:00.904858,1709041320.9048576,-1000.0,-1000.0,-20.5078125,-1000.0,-1.0,1.0,0.0,1.0,5.m4v,5.0
2024-02-27 14:42:00.908763,1709041320.9087632,-1000.0,-1000.0,-11.23046875,-1000.0,-1.0,1.0,0.0,1.0,5.m4v,5.0
2024-02-27 14:42:00.912669,1709041320.912669,-1000.0,-1000.0,-25.390625,-1000.0,-1.0,1.0,0.0,1.0,5.m4v,5.0
2024-02-27 14:42:00.916575,1709041320.9165747,-1000.0,-1000.0,-42.96875,-1000.0,-1.0,1.0,0.0,1.0,5.m4v,5.0
2024-02-27 14:42:00.920480,1709041320.9204805,-1000.0,-1000.0,-42.48046875,-1000.0,-1.0,1.0,0.0,1.0,5.m4v,5.0
2024-02-27 14:42:00.924386,1709041320.9243865,-1000.0,-1000.0,-40.52734375,-1000.0,-1.0,1.0,0.0,1.0,5.m4v,5.0
2024-02-27 14:42:00.928292,1709041320.928292,-1000.0,-1000.0,-32.71484375,-1000.0,-1.0,1.0,0.0,1.0,5.m4v,5.0
2024-02-27 14:42:00.932198,1709041320.9321978,-1000.0,-1000.0,-28.3203125,-1000.0,-1.0,1.0,0.0,1.0,5.m4v,5.0
2024-02-27 14:42:01.143125,1709041321.1431246,969.23828125,969.7265625,-37.109375,972.16796875,-1.0,1.0,0.0,1.0,5.m4v,5.0
2024-02-27 14:42:01.150936,1709041321.150936,896.97265625,898.4375,-44.43359375,915.0390625,-1.0,1.0,0.0,1.0,5.m4v,5.0
2024-02-27 14:42:01.158748,1709041321.1587477,628.41796875,677.734375,-32.71484375,354.00390625,-1.0,1.0,0.0,1.0,5.m4v,5.0
2024-02-27 14:42:01.166559,1709041321.1665592,-1000.0,-1000.0,-19.04296875,-1000.0,-1.0,1.0,0.0,1.0,5.m4v,5.0
2024-02-27 14:42:01.174373,1709041321.1743734,-1000.0,-1000.0,-25.390625,-1000.0,-1.0,1.0,0.0,1.0,5.m4v,5.0
2024-02-27 14:42:01.182185,1709041321.182185,-1000.0,-1000.0,-33.69140625,-1000.0,-1.0,1.0,0.0,1.0,5.m4v,5.0
2024-02-27 14:42:01.189996,1709041321.1899965,-1000.0,-1000.0,-27.34375,-1000.0,-1.0,1.0,0.0,1.0,5.m4v,5.0
2024-02-27 14:42:01.197808,1709041321.197808,-1000.0,-1000.0,-23.92578125,-1000.0,-1.0,1.0,0.0,1.0,5.m4v,5.0
2024-02-27 14:42:01.205620,1709041321.2056196,-1000.0,-1000.0,-36.1328125,-1000.0,-1.0,1.0,0.0,1.0,5.m4v,5.0
2024-02-27 14:42:01.213431,1709041321.213431,-1000.0,-1000.0,-30.2734375,-1000.0,-1.0,1.0,0.0,1.0,5.m4v,5.0
2024-02-27 14:42:01.221245,1709041321.221245,-930.17578125,-932.12890625,-23.4375,-937.01171875,-1.0,1.0,0.0,1.0,5.m4v,5.0
2024-02-27 14:42:01.229057,1709041321.2290566,-729.4921875,-763.18359375,-28.3203125,-521.484375,-1.0,1.0,0.0,1.0,5.m4v,5.0
2024-02-27 14:42:01.236868,1709041321.236868,999.51171875,999.51171875,-41.9921875,999.51171875,-1.0,1.0,0.0,1.0,5.m4v,5.0
2024-02-27 14:42:01.244680,1709041321.2446797,986.328125,987.3046875,-40.52734375,983.88671875,-1.0,1.0,0.0,1.0,5.m4v,5.0
2024-02-27 14:42:01.252491,1709041321.2524912,968.75,969.7265625,-45.8984375,969.7265625,-1.0,1.0,0.0,1.0,5.m4v,5.0
2024-02-27 14:42:01.260303,1709041321.2603028,969.23828125,969.7265625,-24.90234375,969.7265625,-1.0,1.0,0.0,1.0,5.m4v,5.0
2024-02-27 14:42:01.268117,1709041321.2681167,969.23828125,969.7265625,-32.2265625,969.7265625,-1.0,1.0,0.0,1.0,5.m4v,5.0
2024-02-27 14:42:01.275928,1709041321.275928,968.75,969.7265625,-25.87890625,969.7265625,-1.0,1.0,0.0,1.0,5.m4v,5.0
2024-02-27 14:42:01.283740,1709041321.2837396,984.375,985.3515625,-29.78515625,985.83984375,-1.0,1.0,0.0,1.0,5.m4v,5.0
2024-02-27 14:42:01.291551,1709041321.291551,999.51171875,999.51171875,-30.2734375,999.51171875,-1.0,1.0,0.0,1.0,5.m4v,5.0
2024-02-27 14:42:01.299363,1709041321.299363,-543.45703125,-546.875,-23.92578125,-587.40234375,-1.0,1.0,0.0,1.0,5.m4v,5.0
2024-02-27 14:42:01.307174,1709041321.3071742,-925.29296875,-925.29296875,-27.83203125,-925.78125,-1.0,1.0,0.0,1.0,5.m4v,5.0
2024-02-27 14:42:01.314989,1709041321.314989,-1000.0,-1000.0,-12.6953125,-1000.0,-1.0,1.0,0.0,1.0,5.m4v,5.0
2024-02-27 14:42:01.322801,1709041321.3228006,-1000.0,-1000.0,-13.671875,-1000.0,-1.0,1.0,0.0,1.0,5.m4v,5.0
2024-02-27 14:42:01.330612,1709041321.3306122,-1000.0,-1000.0,-14.6484375,-1000.0,-1.0,1.0,0.0,1.0,5.m4v,5.0
2024-02-27 14:42:01.338424,1709041321.3384235,-1000.0,-1000.0,-19.53125,-1000.0,-1.0,1.0,0.0,1.0,5.m4v,5.0
2024-02-27 14:42:01.346235,1709041321.3462353,-1000.0,-1000.0,-32.71484375,-1000.0,-1.0,1.0,0.0,1.0,5.m4v,5.0
2024-02-27 14:42:01.397013,1709041321.3970134,969.23828125,969.7265625,-38.57421875,970.21484375,-1.0,1.0,0.0,1.0,5.m4v,5.0
2024-02-27 14:42:01.404825,1709041321.404825,969.23828125,969.7265625,-26.3671875,970.21484375,-1.0,1.0,0.0,1.0,5.m4v,5.0
2024-02-27 14:42:01.408734,1709041321.4087338,969.23828125,969.7265625,-28.80859375,967.7734375,-1.0,1.0,0.0,1.0,5.m4v,5.0
2024-02-27 14:42:01.412640,1709041321.4126396,969.23828125,969.7265625,-21.484375,972.65625,-1.0,1.0,0.0,1.0,5.m4v,5.0
2024-02-27 14:42:01.416545,1709041321.4165454,969.23828125,969.7265625,-23.4375,965.8203125,-1.0,1.0,0.0,1.0,5.m4v,5.0
2024-02-27 14:42:01.420451,1709041321.420451,969.23828125,969.7265625,-25.390625,940.91796875,-1.0,1.0,0.0,1.0,5.m4v,5.0
2024-02-27 14:42:01.424357,1709041321.4243567,986.328125,987.3046875,-31.73828125,976.5625,-1.0,1.0,0.0,1.0,5.m4v,5.0
2024-02-27 14:42:01.428262,1709041321.4282625,903.80859375,902.83203125,-24.4140625,907.2265625,-1.0,1.0,0.0,1.0,5.m4v,5.0
2024-02-27 14:42:01.432168,1709041321.4321682,999.51171875,999.51171875,-13.671875,999.51171875,-1.0,1.0,0.0,1.0,5.m4v,5.0
2024-02-27 14:42:01.436074,1709041321.436074,776.85546875,748.53515625,-21.97265625,639.16015625,-1.0,1.0,0.0,1.0,5.m4v,5.0
2024-02-27 14:42:01.439980,1709041321.4399798,-699.21875,-730.95703125,-34.66796875,-799.31640625,-1.0,1.0,0.0,1.0,5.m4v,5.0
2024-02-27 14:42:01.443886,1709041321.4438856,-1000.0,-1000.0,-33.203125,-1000.0,-1.0,1.0,0.0,1.0,5.m4v,5.0
2024-02-27 14:42:01.447791,1709041321.447791,-928.7109375,-930.17578125,-19.04296875,-937.98828125,-1.0,1.0,0.0,1.0,5.m4v,5.0
2024-02-27 14:42:01.451697,1709041321.451697,-1000.0,-1000.0,-22.94921875,-1000.0,-1.0,1.0,0.0,1.0,5.m4v,5.0
2024-02-27 14:42:01.455606,1709041321.455606,-1000.0,-1000.0,-33.203125,-1000.0,-1.0,1.0,0.0,1.0,5.m4v,5.0
2024-02-27 14:42:01.459512,1709041321.4595118,-1000.0,-1000.0,-43.45703125,-1000.0,-1.0,1.0,0.0,1.0,5.m4v,5.0
2024-02-27 14:42:01.463418,1709041321.4634175,-1000.0,-1000.0,-50.29296875,-1000.0,-1.0,1.0,0.0,1.0,5.m4v,5.0
2024-02-27 14:42:01.467323,1709041321.4673233,-1000.0,-1000.0,-41.015625,-1000.0,-1.0,1.0,0.0,1.0,5.m4v,5.0
2024-02-27 14:42:01.471229,1709041321.471229,-1000.0,-1000.0,-32.71484375,-1000.0,-1.0,1.0,0.0,1.0,5.m4v,5.0
2024-02-27 14:42:01.475135,1709041321.4751348,-1000.0,-1000.0,-32.71484375,-1000.0,-1.0,1.0,0.0,1.0,5.m4v,5.0
2024-02-27 14:42:01.479041,1709041321.4790406,-1000.0,-1000.0,-26.3671875,-983.88671875,-1.0,1.0,0.0,1.0,5.m4v,5.0
2024-02-27 14:42:01.482946,1709041321.4829464,-934.5703125,-927.734375,-28.3203125,-971.6796875,-1.0,1.0,0.0,1.0,5.m4v,5.0
2024-02-27 14:42:01.486852,1709041321.4868522,-1000.0,-1000.0,-44.921875,-1000.0,-1.0,1.0,0.0,1.0,5.m4v,5.0
2024-02-27 14:42:01.490758,1709041321.490758,-421.875,-566.89453125,-33.203125,-20.5078125,-1.0,1.0,0.0,1.0,5.m4v,5.0
2024-02-27 14:42:01.494663,1709041321.4946637,931.15234375,869.140625,-29.296875,999.51171875,-1.0,1.0,0.0,1.0,5.m4v,5.0
2024-02-27 14:42:01.498569,1709041321.4985693,993.1640625,999.51171875,-40.52734375,941.89453125,-1.0,1.0,0.0,1.0,5.m4v,5.0
2024-02-27 14:42:01.502478,1709041321.502478,924.8046875,914.55078125,-42.96875,953.61328125,-1.0,1.0,0.0,1.0,5.m4v,5.0
2024-02-27 14:42:01.506384,1709041321.5063837,981.4453125,985.3515625,-46.38671875,975.09765625,-1.0,1.0,0.0,1.0,5.m4v,5.0
2024-02-27 14:42:01.510289,1709041321.5102894,969.23828125,969.7265625,-36.1328125,969.7265625,-1.0,1.0,0.0,1.0,5.m4v,5.0
2024-02-27 14:42:01.514195,1709041321.5141952,969.23828125,969.7265625,-33.203125,969.7265625,-1.0,1.0,0.0,1.0,5.m4v,5.0
2024-02-27 14:42:01.518101,1709041321.518101,969.23828125,969.7265625,-35.64453125,969.7265625,-1.0,1.0,0.0,1.0,5.m4v,5.0
2024-02-27 14:42:01.522007,1709041321.5220068,969.23828125,969.7265625,-25.390625,969.7265625,-1.0,1.0,0.0,1.0,5.m4v,5.0
2024-02-27 14:42:01.525913,1709041321.5259123,968.75,969.7265625,-22.4609375,969.7265625,-1.0,1.0,0.0,1.0,5.m4v,5.0
2024-02-27 14:42:01.529818,1709041321.5298183,969.23828125,969.7265625,-34.1796875,969.7265625,-1.0,1.0,0.0,1.0,5.m4v,5.0
2024-02-27 14:42:01.533724,1709041321.533724,969.23828125,970.21484375,-36.62109375,969.7265625,-1.0,1.0,0.0,1.0,5.m4v,5.0
2024-02-27 14:42:01.537630,1709041321.5376298,969.23828125,969.7265625,-33.69140625,969.7265625,-1.0,1.0,0.0,1.0,5.m4v,5.0
2024-02-27 14:42:01.541536,1709041321.5415356,969.23828125,969.7265625,-39.0625,969.7265625,-1.0,1.0,0.0,1.0,5.m4v,5.0
2024-02-27 14:42:01.545441,1709041321.5454412,969.23828125,969.7265625,-50.78125,969.7265625,-1.0,1.0,0.0,1.0,5.m4v,5.0
2024-02-27 14:42:01.549350,1709041321.5493495,968.75,969.7265625,-37.109375,969.7265625,-1.0,1.0,0.0,1.0,5.m4v,5.0
2024-02-27 14:42:01.553255,1709041321.553255,969.23828125,969.7265625,-33.69140625,969.7265625,-1.0,1.0,0.0,1.0,5.m4v,5.0
2024-02-27 14:42:01.557161,1709041321.557161,969.23828125,969.7265625,-33.69140625,969.7265625,-1.0,1.0,0.0,1.0,5.m4v,5.0
2024-02-27 14:42:01.561067,1709041321.5610669,969.23828125,973.14453125,-16.11328125,970.21484375,-1.0,1.0,0.0,1.0,5.m4v,5.0
2024-02-27 14:42:01.564973,1709041321.5649726,984.86328125,961.9140625,-17.08984375,982.91015625,-1.0,1.0,0.0,1.0,5.m4v,5.0
2024-02-27 14:42:01.568878,1709041321.5688784,896.484375,924.8046875,-32.71484375,899.90234375,-1.0,1.0,0.0,1.0,5.m4v,5.0
2024-02-27 14:42:01.572784,1709041321.5727842,999.51171875,999.51171875,-41.9921875,999.51171875,-1.0,1.0,0.0,1.0,5.m4v,5.0
2024-02-27 14:42:01.576690,1709041321.57669,588.37890625,108.88671875,-43.45703125,539.55078125,-1.0,1.0,0.0,1.0,5.m4v,5.0
2024-02-27 14:42:01.580596,1709041321.5805955,-866.69921875,-1000.0,-43.45703125,-885.7421875,-1.0,1.0,0.0,1.0,5.m4v,5.0
2024-02-27 14:42:01.584502,1709041321.5845015,-1000.0,-982.91015625,-38.0859375,-1000.0,-1.0,1.0,0.0,1.0,5.m4v,5.0
2024-02-27 14:42:01.588407,1709041321.5884073,-940.91796875,-977.05078125,-27.83203125,-944.82421875,-1.0,1.0,0.0,1.0,5.m4v,5.0
