Timestamp,Timestamp_UNIX,TP9,AF7,AF8,TP10,Valence,Arousal,Dominace,Viewed,Video,Participant
2024-02-27 10:47:27.371309,1709027247.3713093,-44.921875,171.875,-113.76953125,-52.734375,1.0,-1.0,1.0,1.0,7.m4v,2.0
2024-02-27 10:47:27.379121,1709027247.3791208,-40.0390625,-981.4453125,231.93359375,-42.48046875,1.0,-1.0,1.0,1.0,7.m4v,2.0
2024-02-27 10:47:27.386932,1709027247.386932,-43.45703125,-1000.0,-459.9609375,-41.9921875,1.0,-1.0,1.0,1.0,7.m4v,2.0
2024-02-27 10:47:27.394743,1709027247.3947434,-51.26953125,-1000.0,127.9296875,-34.66796875,1.0,-1.0,1.0,1.0,7.m4v,2.0
2024-02-27 10:47:27.402555,1709027247.4025548,-43.45703125,-1000.0,-338.37890625,-46.875,1.0,-1.0,1.0,1.0,7.m4v,2.0
2024-02-27 10:47:27.410369,1709027247.410369,-41.50390625,925.78125,281.25,-34.66796875,1.0,-1.0,1.0,1.0,7.m4v,2.0
2024-02-27 10:47:27.418180,1709027247.4181805,-31.25,921.38671875,451.66015625,-34.1796875,1.0,-1.0,1.0,1.0,7.m4v,2.0
2024-02-27 10:47:27.425992,1709027247.4259918,-45.41015625,969.7265625,61.03515625,-41.50390625,1.0,-1.0,1.0,1.0,7.m4v,2.0
2024-02-27 10:47:27.433803,1709027247.433803,-31.25,922.8515625,526.85546875,-27.83203125,1.0,-1.0,1.0,1.0,7.m4v,2.0
2024-02-27 10:47:27.441614,1709027247.4416144,-42.96875,848.6328125,-225.5859375,-25.87890625,1.0,-1.0,1.0,1.0,7.m4v,2.0
2024-02-27 10:47:27.449426,1709027247.4494257,-48.33984375,-1000.0,-294.921875,-49.31640625,1.0,-1.0,1.0,1.0,7.m4v,2.0
2024-02-27 10:47:27.457240,1709027247.4572396,-39.55078125,-1000.0,262.6953125,-33.69140625,1.0,-1.0,1.0,1.0,7.m4v,2.0
2024-02-27 10:47:27.461145,1709027247.4611452,-36.62109375,-1000.0,-86.42578125,-40.52734375,1.0,-1.0,1.0,1.0,7.m4v,2.0
2024-02-27 10:47:27.465051,1709027247.465051,-48.33984375,-933.59375,-354.00390625,-48.33984375,1.0,-1.0,1.0,1.0,7.m4v,2.0
2024-02-27 10:47:27.468956,1709027247.4689565,-53.22265625,-1000.0,-221.6796875,-40.0390625,1.0,-1.0,1.0,1.0,7.m4v,2.0
2024-02-27 10:47:27.472862,1709027247.4728622,-29.78515625,-282.2265625,444.82421875,-26.85546875,1.0,-1.0,1.0,1.0,7.m4v,2.0
2024-02-27 10:47:27.476768,1709027247.4767678,-15.625,999.51171875,900.87890625,-24.90234375,1.0,-1.0,1.0,1.0,7.m4v,2.0
2024-02-27 10:47:27.480674,1709027247.4806736,-24.90234375,963.8671875,256.8359375,-37.59765625,1.0,-1.0,1.0,1.0,7.m4v,2.0
2024-02-27 10:47:27.484579,1709027247.484579,-40.0390625,937.5,-397.94921875,-39.0625,1.0,-1.0,1.0,1.0,7.m4v,2.0
2024-02-27 10:47:27.488485,1709027247.4884849,-42.48046875,978.515625,-336.42578125,-39.0625,1.0,-1.0,1.0,1.0,7.m4v,2.0
2024-02-27 10:47:27.492391,1709027247.4923906,-21.97265625,969.7265625,143.5546875,-39.0625,1.0,-1.0,1.0,1.0,7.m4v,2.0
2024-02-27 10:47:27.496296,1709027247.4962962,-4.8828125,969.7265625,356.93359375,-23.4375,1.0,-1.0,1.0,1.0,7.m4v,2.0
2024-02-27 10:47:27.500204,1709027247.500204,-26.3671875,969.7265625,2.44140625,-33.203125,1.0,-1.0,1.0,1.0,7.m4v,2.0
2024-02-27 10:47:27.504110,1709027247.50411,-47.36328125,969.7265625,-301.26953125,-42.48046875,1.0,-1.0,1.0,1.0,7.m4v,2.0
2024-02-27 10:47:27.508015,1709027247.5080154,-41.015625,969.7265625,-196.2890625,-31.25,1.0,-1.0,1.0,1.0,7.m4v,2.0
2024-02-27 10:47:27.511921,1709027247.5119212,-33.69140625,969.7265625,199.70703125,-29.296875,1.0,-1.0,1.0,1.0,7.m4v,2.0
2024-02-27 10:47:27.515827,1709027247.515827,-24.90234375,969.7265625,342.7734375,-25.87890625,1.0,-1.0,1.0,1.0,7.m4v,2.0
2024-02-27 10:47:27.519732,1709027247.5197325,-20.99609375,970.21484375,309.5703125,-27.34375,1.0,-1.0,1.0,1.0,7.m4v,2.0
2024-02-27 10:47:27.523638,1709027247.5236382,-28.80859375,969.7265625,416.015625,-41.9921875,1.0,-1.0,1.0,1.0,7.m4v,2.0
2024-02-27 10:47:27.527544,1709027247.5275438,-39.0625,908.203125,377.44140625,-41.50390625,1.0,-1.0,1.0,1.0,7.m4v,2.0
2024-02-27 10:47:27.531450,1709027247.5314496,-35.64453125,999.51171875,373.53515625,-29.296875,1.0,-1.0,1.0,1.0,7.m4v,2.0
2024-02-27 10:47:27.535355,1709027247.535355,-33.69140625,178.22265625,333.984375,-24.4140625,1.0,-1.0,1.0,1.0,7.m4v,2.0
2024-02-27 10:47:27.539261,1709027247.5392609,-46.875,-1000.0,-58.10546875,-32.2265625,1.0,-1.0,1.0,1.0,7.m4v,2.0
2024-02-27 10:47:27.543167,1709027247.5431666,-36.1328125,-982.421875,-412.59765625,-47.8515625,1.0,-1.0,1.0,1.0,7.m4v,2.0
2024-02-27 10:47:27.547074,1709027247.547074,-24.90234375,-973.6328125,-444.82421875,-47.36328125,1.0,-1.0,1.0,1.0,7.m4v,2.0
2024-02-27 10:47:27.550980,1709027247.55098,-31.73828125,-1000.0,-244.140625,-40.52734375,1.0,-1.0,1.0,1.0,7.m4v,2.0
2024-02-27 10:47:27.554885,1709027247.5548854,-30.76171875,-1000.0,55.17578125,-36.1328125,1.0,-1.0,1.0,1.0,7.m4v,2.0
2024-02-27 10:47:27.558791,1709027247.5587912,-27.83203125,-928.7109375,2.44140625,-30.76171875,1.0,-1.0,1.0,1.0,7.m4v,2.0
2024-02-27 10:47:27.562697,1709027247.562697,-28.3203125,-1000.0,-339.35546875,-37.59765625,1.0,-1.0,1.0,1.0,7.m4v,2.0
2024-02-27 10:47:27.566602,1709027247.5666025,-30.76171875,-422.36328125,-113.28125,-35.15625,1.0,-1.0,1.0,1.0,7.m4v,2.0
2024-02-27 10:47:27.570508,1709027247.5705082,-22.4609375,955.078125,392.08984375,-27.34375,1.0,-1.0,1.0,1.0,7.m4v,2.0
2024-02-27 10:47:27.574414,1709027247.5744138,-19.04296875,989.74609375,367.67578125,-35.64453125,1.0,-1.0,1.0,1.0,7.m4v,2.0
2024-02-27 10:47:27.578320,1709027247.5783195,-20.01953125,926.26953125,118.1640625,-52.24609375,1.0,-1.0,1.0,1.0,7.m4v,2.0
2024-02-27 10:47:27.582225,1709027247.582225,-28.3203125,981.93359375,-248.046875,-54.19921875,1.0,-1.0,1.0,1.0,7.m4v,2.0
2024-02-27 10:47:27.586131,1709027247.5861309,-42.48046875,969.7265625,-310.546875,-47.8515625,1.0,-1.0,1.0,1.0,7.m4v,2.0
2024-02-27 10:47:27.590037,1709027247.5900366,-42.48046875,969.7265625,65.4296875,-44.921875,1.0,-1.0,1.0,1.0,7.m4v,2.0
2024-02-27 10:47:27.593944,1709027247.593944,-37.59765625,969.7265625,306.640625,-36.1328125,1.0,-1.0,1.0,1.0,7.m4v,2.0
2024-02-27 10:47:27.597850,1709027247.5978498,-32.2265625,982.91015625,193.359375,-33.203125,1.0,-1.0,1.0,1.0,7.m4v,2.0
2024-02-27 10:47:27.601755,1709027247.6017554,-25.87890625,900.390625,-136.23046875,-35.64453125,1.0,-1.0,1.0,1.0,7.m4v,2.0
2024-02-27 10:47:27.605661,1709027247.6056612,-21.484375,999.51171875,-290.52734375,-39.0625,1.0,-1.0,1.0,1.0,7.m4v,2.0
2024-02-27 10:47:27.609567,1709027247.609567,-32.71484375,544.43359375,-254.39453125,-39.55078125,1.0,-1.0,1.0,1.0,7.m4v,2.0
2024-02-27 10:47:27.613472,1709027247.6134725,-50.29296875,-869.62890625,250.48828125,-24.90234375,1.0,-1.0,1.0,1.0,7.m4v,2.0
2024-02-27 10:47:27.617378,1709027247.6173782,-39.55078125,-1000.0,389.16015625,-40.52734375,1.0,-1.0,1.0,1.0,7.m4v,2.0
2024-02-27 10:47:27.621284,1709027247.6212838,-39.0625,-946.2890625,-379.8828125,-61.03515625,1.0,-1.0,1.0,1.0,7.m4v,2.0
2024-02-27 10:47:27.625190,1709027247.6251895,-51.26953125,-1000.0,-787.59765625,-53.22265625,1.0,-1.0,1.0,1.0,7.m4v,2.0
2024-02-27 10:47:27.629095,1709027247.6290953,-47.8515625,-1000.0,-633.30078125,-41.50390625,1.0,-1.0,1.0,1.0,7.m4v,2.0
2024-02-27 10:47:27.633001,1709027247.6330009,-46.875,-1000.0,-149.4140625,-27.83203125,1.0,-1.0,1.0,1.0,7.m4v,2.0
2024-02-27 10:47:27.636907,1709027247.6369066,-44.43359375,-1000.0,122.55859375,-33.203125,1.0,-1.0,1.0,1.0,7.m4v,2.0
2024-02-27 10:47:27.640816,1709027247.6408155,-38.0859375,-937.01171875,-90.8203125,-39.55078125,1.0,-1.0,1.0,1.0,7.m4v,2.0
2024-02-27 10:47:27.644722,1709027247.6447215,-40.52734375,-1000.0,-402.34375,-33.69140625,1.0,-1.0,1.0,1.0,7.m4v,2.0
2024-02-27 10:47:27.648627,1709027247.648627,-34.1796875,-229.4921875,-102.05078125,-32.2265625,1.0,-1.0,1.0,1.0,7.m4v,2.0
2024-02-27 10:47:27.652533,1709027247.6525328,-23.92578125,999.51171875,363.28125,-24.4140625,1.0,-1.0,1.0,1.0,7.m4v,2.0
2024-02-27 10:47:27.656439,1709027247.6564386,-20.5078125,955.078125,373.53515625,-23.4375,1.0,-1.0,1.0,1.0,7.m4v,2.0
2024-02-27 10:47:27.660344,1709027247.660344,-22.94921875,941.89453125,441.40625,-33.69140625,1.0,-1.0,1.0,1.0,7.m4v,2.0
2024-02-27 10:47:27.664250,1709027247.66425,-29.78515625,977.05078125,245.1171875,-32.71484375,1.0,-1.0,1.0,1.0,7.m4v,2.0
2024-02-27 10:47:27.668155,1709027247.6681554,-32.71484375,969.7265625,-180.6640625,-31.25,1.0,-1.0,1.0,1.0,7.m4v,2.0
2024-02-27 10:47:27.672061,1709027247.6720612,-43.9453125,969.7265625,22.94921875,-35.15625,1.0,-1.0,1.0,1.0,7.m4v,2.0
2024-02-27 10:47:27.675967,1709027247.6759667,-46.38671875,970.21484375,305.17578125,-31.73828125,1.0,-1.0,1.0,1.0,7.m4v,2.0
2024-02-27 10:47:27.679873,1709027247.6798725,-36.62109375,970.21484375,86.9140625,-28.80859375,1.0,-1.0,1.0,1.0,7.m4v,2.0
2024-02-27 10:47:27.683778,1709027247.6837783,-34.66796875,969.7265625,-227.5390625,-44.43359375,1.0,-1.0,1.0,1.0,7.m4v,2.0
2024-02-27 10:47:27.687687,1709027247.6876872,-46.875,969.7265625,-256.34765625,-51.7578125,1.0,-1.0,1.0,1.0,7.m4v,2.0
2024-02-27 10:47:27.691593,1709027247.6915927,-44.921875,969.7265625,63.96484375,-41.50390625,1.0,-1.0,1.0,1.0,7.m4v,2.0
2024-02-27 10:47:27.695498,1709027247.6954985,-25.87890625,969.7265625,269.53125,-29.296875,1.0,-1.0,1.0,1.0,7.m4v,2.0
2024-02-27 10:47:27.699404,1709027247.699404,-33.69140625,969.7265625,65.4296875,-21.97265625,1.0,-1.0,1.0,1.0,7.m4v,2.0
2024-02-27 10:47:27.703310,1709027247.7033098,-31.73828125,984.375,-313.4765625,-41.9921875,1.0,-1.0,1.0,1.0,7.m4v,2.0
2024-02-27 10:47:27.707216,1709027247.7072155,-21.484375,905.76171875,-251.953125,-52.734375,1.0,-1.0,1.0,1.0,7.m4v,2.0
2024-02-27 10:47:27.711121,1709027247.711121,-30.2734375,999.51171875,408.69140625,-45.41015625,1.0,-1.0,1.0,1.0,7.m4v,2.0
2024-02-27 10:47:27.715027,1709027247.7150269,-24.90234375,690.4296875,594.23828125,-41.9921875,1.0,-1.0,1.0,1.0,7.m4v,2.0
2024-02-27 10:47:27.718932,1709027247.7189324,-17.578125,-735.83984375,-55.17578125,-47.36328125,1.0,-1.0,1.0,1.0,7.m4v,2.0
2024-02-27 10:47:27.722838,1709027247.7228382,-28.80859375,-1000.0,-594.7265625,-54.6875,1.0,-1.0,1.0,1.0,7.m4v,2.0
2024-02-27 10:47:27.726744,1709027247.7267437,-49.31640625,-938.4765625,-697.75390625,-49.8046875,1.0,-1.0,1.0,1.0,7.m4v,2.0
2024-02-27 10:47:27.730649,1709027247.7306497,-44.921875,-1000.0,-417.48046875,-40.0390625,1.0,-1.0,1.0,1.0,7.m4v,2.0
2024-02-27 10:47:27.847828,1709027247.847828,-34.66796875,969.7265625,-220.21484375,-44.921875,1.0,-1.0,1.0,1.0,7.m4v,2.0
2024-02-27 10:47:27.851734,1709027247.8517337,-24.4140625,969.7265625,414.0625,-29.78515625,1.0,-1.0,1.0,1.0,7.m4v,2.0
2024-02-27 10:47:27.855639,1709027247.8556392,-33.69140625,969.7265625,510.7421875,-27.34375,1.0,-1.0,1.0,1.0,7.m4v,2.0
2024-02-27 10:47:27.859545,1709027247.859545,-41.50390625,969.7265625,69.3359375,-34.66796875,1.0,-1.0,1.0,1.0,7.m4v,2.0
2024-02-27 10:47:27.863451,1709027247.8634503,-31.25,969.7265625,-375.9765625,-40.52734375,1.0,-1.0,1.0,1.0,7.m4v,2.0
2024-02-27 10:47:27.867356,1709027247.8673563,-43.9453125,969.7265625,-533.69140625,-42.48046875,1.0,-1.0,1.0,1.0,7.m4v,2.0
2024-02-27 10:47:27.871262,1709027247.871262,-48.828125,979.00390625,-231.4453125,-32.2265625,1.0,-1.0,1.0,1.0,7.m4v,2.0
2024-02-27 10:47:27.875170,1709027247.87517,-33.69140625,898.92578125,187.5,-20.99609375,1.0,-1.0,1.0,1.0,7.m4v,2.0
2024-02-27 10:47:27.879076,1709027247.8790758,-23.92578125,999.51171875,149.90234375,-23.4375,1.0,-1.0,1.0,1.0,7.m4v,2.0
2024-02-27 10:47:27.882981,1709027247.8829813,-31.25,375.9765625,-345.703125,-24.4140625,1.0,-1.0,1.0,1.0,7.m4v,2.0
2024-02-27 10:47:27.886887,1709027247.886887,-54.19921875,-992.67578125,-555.17578125,-33.203125,1.0,-1.0,1.0,1.0,7.m4v,2.0
2024-02-27 10:47:27.890793,1709027247.8907926,-47.8515625,-1000.0,-301.26953125,-48.33984375,1.0,-1.0,1.0,1.0,7.m4v,2.0
2024-02-27 10:47:27.894698,1709027247.8946984,-31.73828125,-958.0078125,200.68359375,-48.828125,1.0,-1.0,1.0,1.0,7.m4v,2.0
2024-02-27 10:47:27.898604,1709027247.898604,-31.73828125,-1000.0,244.140625,-48.33984375,1.0,-1.0,1.0,1.0,7.m4v,2.0
2024-02-27 10:47:27.902510,1709027247.9025097,-49.31640625,-1000.0,-525.390625,-54.19921875,1.0,-1.0,1.0,1.0,7.m4v,2.0
2024-02-27 10:47:27.906415,1709027247.9064157,-47.8515625,-1000.0,-927.24609375,-56.640625,1.0,-1.0,1.0,1.0,7.m4v,2.0
2024-02-27 10:47:27.910321,1709027247.910321,-49.31640625,-1000.0,-642.578125,-49.31640625,1.0,-1.0,1.0,1.0,7.m4v,2.0
2024-02-27 10:47:27.914227,1709027247.9142268,-51.26953125,-1000.0,-205.56640625,-38.0859375,1.0,-1.0,1.0,1.0,7.m4v,2.0
2024-02-27 10:47:27.918132,1709027247.9181323,-28.80859375,-1000.0,-229.4921875,-41.50390625,1.0,-1.0,1.0,1.0,7.m4v,2.0
2024-02-27 10:47:27.922040,1709027247.92204,-32.71484375,-1000.0,-523.4375,-43.9453125,1.0,-1.0,1.0,1.0,7.m4v,2.0
2024-02-27 10:47:27.925946,1709027247.9259455,-51.7578125,-1000.0,-667.48046875,-41.015625,1.0,-1.0,1.0,1.0,7.m4v,2.0
2024-02-27 10:47:27.929851,1709027247.9298513,-38.0859375,-981.4453125,-524.4140625,-51.26953125,1.0,-1.0,1.0,1.0,7.m4v,2.0
2024-02-27 10:47:27.933757,1709027247.9337568,-41.50390625,-968.75,-34.1796875,-40.52734375,1.0,-1.0,1.0,1.0,7.m4v,2.0
2024-02-27 10:47:27.937663,1709027247.9376626,-40.0390625,-1000.0,105.46875,-31.25,1.0,-1.0,1.0,1.0,7.m4v,2.0
2024-02-27 10:47:27.941568,1709027247.941568,-21.97265625,74.21875,95.21484375,-29.296875,1.0,-1.0,1.0,1.0,7.m4v,2.0
2024-02-27 10:47:27.945474,1709027247.945474,-19.04296875,999.51171875,247.0703125,-37.109375,1.0,-1.0,1.0,1.0,7.m4v,2.0
2024-02-27 10:47:27.949380,1709027247.9493797,4.39453125,917.96875,222.65625,-40.0390625,1.0,-1.0,1.0,1.0,7.m4v,2.0
2024-02-27 10:47:27.953285,1709027247.9532852,38.57421875,963.37890625,319.82421875,-10.25390625,1.0,-1.0,1.0,1.0,7.m4v,2.0
2024-02-27 10:47:27.957191,1709027247.957191,3.41796875,971.19140625,345.703125,-7.8125,1.0,-1.0,1.0,1.0,7.m4v,2.0
2024-02-27 10:47:27.961097,1709027247.9610963,-52.24609375,969.7265625,-56.15234375,-40.0390625,1.0,-1.0,1.0,1.0,7.m4v,2.0
2024-02-27 10:47:27.965002,1709027247.9650023,-58.59375,969.7265625,-349.12109375,-50.78125,1.0,-1.0,1.0,1.0,7.m4v,2.0
2024-02-27 10:47:27.968910,1709027247.9689095,-42.48046875,969.7265625,-190.4296875,-36.62109375,1.0,-1.0,1.0,1.0,7.m4v,2.0
2024-02-27 10:47:27.972815,1709027247.9728153,-36.62109375,969.7265625,238.76953125,-24.90234375,1.0,-1.0,1.0,1.0,7.m4v,2.0
2024-02-27 10:47:27.976721,1709027247.976721,-26.3671875,969.7265625,507.32421875,-21.484375,1.0,-1.0,1.0,1.0,7.m4v,2.0
2024-02-27 10:47:27.980627,1709027247.9806266,-25.87890625,969.7265625,253.90625,-24.4140625,1.0,-1.0,1.0,1.0,7.m4v,2.0
2024-02-27 10:47:27.984532,1709027247.9845324,-34.66796875,969.7265625,-105.95703125,-29.78515625,1.0,-1.0,1.0,1.0,7.m4v,2.0
2024-02-27 10:47:27.988438,1709027247.988438,-25.87890625,970.21484375,238.76953125,-32.71484375,1.0,-1.0,1.0,1.0,7.m4v,2.0
2024-02-27 10:47:27.992344,1709027247.9923437,-18.06640625,979.98046875,838.37890625,-26.85546875,1.0,-1.0,1.0,1.0,7.m4v,2.0
2024-02-27 10:47:27.996249,1709027247.9962494,-26.3671875,926.26953125,630.859375,-28.3203125,1.0,-1.0,1.0,1.0,7.m4v,2.0
2024-02-27 10:47:28.000155,1709027248.000155,-20.01953125,999.51171875,234.86328125,-30.2734375,1.0,-1.0,1.0,1.0,7.m4v,2.0
2024-02-27 10:47:28.004061,1709027248.0040607,-6.8359375,883.30078125,-81.0546875,-37.59765625,1.0,-1.0,1.0,1.0,7.m4v,2.0
2024-02-27 10:47:28.007966,1709027248.0079665,-17.08984375,-448.2421875,-113.28125,-45.8984375,1.0,-1.0,1.0,1.0,7.m4v,2.0
2024-02-27 10:47:28.011872,1709027248.011872,-31.25,-1000.0,76.66015625,-37.109375,1.0,-1.0,1.0,1.0,7.m4v,2.0
2024-02-27 10:47:28.015781,1709027248.0157812,-31.73828125,-938.4765625,87.890625,-38.0859375,1.0,-1.0,1.0,1.0,7.m4v,2.0
2024-02-27 10:47:28.019687,1709027248.019687,-34.66796875,-1000.0,31.25,-42.96875,1.0,-1.0,1.0,1.0,7.m4v,2.0
2024-02-27 10:47:28.023592,1709027248.0235925,-41.015625,-994.62890625,-149.4140625,-42.96875,1.0,-1.0,1.0,1.0,7.m4v,2.0
2024-02-27 10:47:28.027498,1709027248.0274982,-35.64453125,-947.265625,-203.61328125,-37.59765625,1.0,-1.0,1.0,1.0,7.m4v,2.0
2024-02-27 10:47:28.031404,1709027248.0314038,-30.76171875,-1000.0,88.37890625,-30.76171875,1.0,-1.0,1.0,1.0,7.m4v,2.0
2024-02-27 10:47:28.035310,1709027248.0353096,-26.3671875,-119.140625,741.69921875,-22.4609375,1.0,-1.0,1.0,1.0,7.m4v,2.0
2024-02-27 10:47:28.613383,1709027248.6133826,-44.921875,978.02734375,144.04296875,-33.203125,1.0,-1.0,1.0,1.0,7.m4v,2.0
2024-02-27 10:47:28.617288,1709027248.617288,-43.9453125,969.7265625,110.83984375,-40.52734375,1.0,-1.0,1.0,1.0,7.m4v,2.0
2024-02-27 10:47:28.621194,1709027248.621194,-48.828125,969.7265625,-249.0234375,-41.015625,1.0,-1.0,1.0,1.0,7.m4v,2.0
2024-02-27 10:47:28.625102,1709027248.6251018,-51.26953125,969.7265625,-533.69140625,-50.29296875,1.0,-1.0,1.0,1.0,7.m4v,2.0
2024-02-27 10:47:28.629007,1709027248.629007,-41.50390625,969.7265625,-418.45703125,-37.109375,1.0,-1.0,1.0,1.0,7.m4v,2.0
2024-02-27 10:47:28.632913,1709027248.632913,-39.55078125,969.7265625,-56.640625,-21.97265625,1.0,-1.0,1.0,1.0,7.m4v,2.0
2024-02-27 10:47:28.636819,1709027248.636819,-44.43359375,970.703125,150.87890625,-34.1796875,1.0,-1.0,1.0,1.0,7.m4v,2.0
2024-02-27 10:47:28.640724,1709027248.6407244,-39.55078125,965.33203125,-137.6953125,-38.57421875,1.0,-1.0,1.0,1.0,7.m4v,2.0
2024-02-27 10:47:28.644630,1709027248.6446302,-37.109375,914.55078125,-225.09765625,-34.1796875,1.0,-1.0,1.0,1.0,7.m4v,2.0
2024-02-27 10:47:28.648536,1709027248.6485355,-38.0859375,999.51171875,-14.6484375,-37.59765625,1.0,-1.0,1.0,1.0,7.m4v,2.0
2024-02-27 10:47:28.652442,1709027248.6524415,-41.015625,110.83984375,-104.00390625,-44.43359375,1.0,-1.0,1.0,1.0,7.m4v,2.0
2024-02-27 10:47:28.656347,1709027248.656347,-27.83203125,-1000.0,-260.7421875,-35.64453125,1.0,-1.0,1.0,1.0,7.m4v,2.0
2024-02-27 10:47:28.660253,1709027248.6602528,-2.9296875,-973.6328125,-432.6171875,-33.69140625,1.0,-1.0,1.0,1.0,7.m4v,2.0
2024-02-27 10:47:28.664159,1709027248.6641586,-19.53125,-979.00390625,-641.11328125,-43.9453125,1.0,-1.0,1.0,1.0,7.m4v,2.0
2024-02-27 10:47:28.668064,1709027248.668064,-47.8515625,-1000.0,-364.74609375,-37.59765625,1.0,-1.0,1.0,1.0,7.m4v,2.0
2024-02-27 10:47:28.671972,1709027248.671972,-35.64453125,-1000.0,54.19921875,-23.92578125,1.0,-1.0,1.0,1.0,7.m4v,2.0
2024-02-27 10:47:28.675878,1709027248.6758778,-26.3671875,-1000.0,44.43359375,-32.2265625,1.0,-1.0,1.0,1.0,7.m4v,2.0
2024-02-27 10:47:28.679783,1709027248.679783,-41.9921875,-1000.0,-193.84765625,-37.109375,1.0,-1.0,1.0,1.0,7.m4v,2.0
2024-02-27 10:47:28.683689,1709027248.683689,-49.8046875,-939.453125,-470.703125,-42.48046875,1.0,-1.0,1.0,1.0,7.m4v,2.0
2024-02-27 10:47:28.687595,1709027248.687595,-46.38671875,-1000.0,-645.5078125,-48.828125,1.0,-1.0,1.0,1.0,7.m4v,2.0
2024-02-27 10:47:28.691500,1709027248.6915004,-35.64453125,-199.21875,100.5859375,-34.1796875,1.0,-1.0,1.0,1.0,7.m4v,2.0
2024-02-27 10:47:28.695406,1709027248.6954062,-29.78515625,999.51171875,919.921875,-17.578125,1.0,-1.0,1.0,1.0,7.m4v,2.0
2024-02-27 10:47:28.699312,1709027248.6993115,-33.203125,950.68359375,340.33203125,-28.80859375,1.0,-1.0,1.0,1.0,7.m4v,2.0
2024-02-27 10:47:28.703218,1709027248.7032175,-37.109375,944.3359375,-431.640625,-40.0390625,1.0,-1.0,1.0,1.0,7.m4v,2.0
2024-02-27 10:47:28.707123,1709027248.707123,-39.55078125,976.07421875,-580.56640625,-35.15625,1.0,-1.0,1.0,1.0,7.m4v,2.0
2024-02-27 10:47:28.711029,1709027248.7110288,-30.2734375,969.7265625,-264.6484375,-33.69140625,1.0,-1.0,1.0,1.0,7.m4v,2.0
2024-02-27 10:47:28.714935,1709027248.7149346,-18.5546875,969.7265625,137.20703125,-27.34375,1.0,-1.0,1.0,1.0,7.m4v,2.0
2024-02-27 10:47:28.718842,1709027248.7188418,-18.5546875,969.7265625,49.8046875,-35.15625,1.0,-1.0,1.0,1.0,7.m4v,2.0
2024-02-27 10:47:28.722748,1709027248.7227476,-45.8984375,969.7265625,-400.87890625,-44.43359375,1.0,-1.0,1.0,1.0,7.m4v,2.0
2024-02-27 10:47:28.726653,1709027248.726653,-56.640625,969.7265625,-493.65234375,-28.3203125,1.0,-1.0,1.0,1.0,7.m4v,2.0
2024-02-27 10:47:28.730559,1709027248.7305589,-41.9921875,969.7265625,-83.49609375,-29.296875,1.0,-1.0,1.0,1.0,7.m4v,2.0
2024-02-27 10:47:28.734465,1709027248.7344646,-39.55078125,980.95703125,216.796875,-42.48046875,1.0,-1.0,1.0,1.0,7.m4v,2.0
2024-02-27 10:47:28.738370,1709027248.7383702,-35.15625,897.4609375,388.671875,-42.96875,1.0,-1.0,1.0,1.0,7.m4v,2.0
2024-02-27 10:47:28.742276,1709027248.742276,-22.94921875,999.51171875,316.89453125,-30.2734375,1.0,-1.0,1.0,1.0,7.m4v,2.0
2024-02-27 10:47:28.746182,1709027248.7461815,-27.34375,431.640625,-281.73828125,-21.97265625,1.0,-1.0,1.0,1.0,7.m4v,2.0
2024-02-27 10:47:28.750087,1709027248.7500873,-46.38671875,-964.35546875,-593.75,-44.921875,1.0,-1.0,1.0,1.0,7.m4v,2.0
2024-02-27 10:47:28.753993,1709027248.753993,-43.45703125,-1000.0,-290.0390625,-52.734375,1.0,-1.0,1.0,1.0,7.m4v,2.0
2024-02-27 10:47:28.757899,1709027248.7578986,-34.1796875,-953.61328125,-167.48046875,-45.8984375,1.0,-1.0,1.0,1.0,7.m4v,2.0
2024-02-27 10:47:28.761804,1709027248.7618043,-37.109375,-1000.0,-521.97265625,-45.41015625,1.0,-1.0,1.0,1.0,7.m4v,2.0
2024-02-27 10:47:28.765713,1709027248.7657137,-34.66796875,-1000.0,-719.23828125,-47.36328125,1.0,-1.0,1.0,1.0,7.m4v,2.0
2024-02-27 10:47:29.144584,1709027249.1445844,-51.26953125,-1000.0,-475.09765625,-35.64453125,1.0,-1.0,1.0,1.0,7.m4v,2.0
2024-02-27 10:47:29.148490,1709027249.1484902,-47.8515625,-263.18359375,-319.3359375,-39.55078125,1.0,-1.0,1.0,1.0,7.m4v,2.0
2024-02-27 10:47:29.152396,1709027249.1523955,-31.73828125,999.51171875,171.875,-31.25,1.0,-1.0,1.0,1.0,7.m4v,2.0
2024-02-27 10:47:29.156301,1709027249.1563015,-32.71484375,960.44921875,146.97265625,-26.85546875,1.0,-1.0,1.0,1.0,7.m4v,2.0
2024-02-27 10:47:29.160207,1709027249.160207,-32.2265625,939.453125,233.88671875,-31.25,1.0,-1.0,1.0,1.0,7.m4v,2.0
2024-02-27 10:47:29.164113,1709027249.1641128,-37.59765625,978.02734375,227.5390625,-34.1796875,1.0,-1.0,1.0,1.0,7.m4v,2.0
2024-02-27 10:47:29.168018,1709027249.1680183,-46.875,969.7265625,-327.63671875,-33.203125,1.0,-1.0,1.0,1.0,7.m4v,2.0
2024-02-27 10:47:29.171924,1709027249.171924,-30.76171875,969.7265625,-371.58203125,-28.3203125,1.0,-1.0,1.0,1.0,7.m4v,2.0
2024-02-27 10:47:29.175830,1709027249.17583,-15.625,970.21484375,-14.6484375,-29.296875,1.0,-1.0,1.0,1.0,7.m4v,2.0
2024-02-27 10:47:29.179735,1709027249.1797354,-18.5546875,969.7265625,7.32421875,-34.1796875,1.0,-1.0,1.0,1.0,7.m4v,2.0
2024-02-27 10:47:29.183641,1709027249.1836412,-18.5546875,969.7265625,-338.37890625,-37.109375,1.0,-1.0,1.0,1.0,7.m4v,2.0
2024-02-27 10:47:29.187550,1709027249.18755,-25.87890625,969.7265625,-585.9375,-41.015625,1.0,-1.0,1.0,1.0,7.m4v,2.0
2024-02-27 10:47:29.191456,1709027249.1914558,-28.80859375,970.21484375,-325.1953125,-38.0859375,1.0,-1.0,1.0,1.0,7.m4v,2.0
2024-02-27 10:47:29.195361,1709027249.1953614,-19.04296875,969.7265625,184.08203125,-20.99609375,1.0,-1.0,1.0,1.0,7.m4v,2.0
2024-02-27 10:47:29.199267,1709027249.1992671,-28.80859375,969.7265625,123.53515625,-25.87890625,1.0,-1.0,1.0,1.0,7.m4v,2.0
2024-02-27 10:47:29.203173,1709027249.2031727,-41.9921875,983.3984375,-298.33984375,-45.41015625,1.0,-1.0,1.0,1.0,7.m4v,2.0
2024-02-27 10:47:29.207078,1709027249.2070785,-48.828125,913.0859375,-124.0234375,-34.66796875,1.0,-1.0,1.0,1.0,7.m4v,2.0
2024-02-27 10:47:29.210984,1709027249.210984,-46.38671875,999.51171875,520.99609375,-21.484375,1.0,-1.0,1.0,1.0,7.m4v,2.0
2024-02-27 10:47:29.214890,1709027249.2148898,-38.57421875,778.3203125,659.66796875,-23.92578125,1.0,-1.0,1.0,1.0,7.m4v,2.0
2024-02-27 10:47:29.218796,1709027249.2187955,-52.24609375,-625.48828125,-63.96484375,-34.66796875,1.0,-1.0,1.0,1.0,7.m4v,2.0
2024-02-27 10:47:29.222701,1709027249.222701,-66.40625,-1000.0,-681.640625,-45.8984375,1.0,-1.0,1.0,1.0,7.m4v,2.0
2024-02-27 10:47:29.226607,1709027249.2266068,-60.05859375,-936.03515625,-825.68359375,-33.203125,1.0,-1.0,1.0,1.0,7.m4v,2.0
2024-02-27 10:47:29.230512,1709027249.2305124,-49.31640625,-1000.0,-697.265625,-23.92578125,1.0,-1.0,1.0,1.0,7.m4v,2.0
2024-02-27 10:47:29.234421,1709027249.234421,-41.9921875,-1000.0,-255.37109375,-33.69140625,1.0,-1.0,1.0,1.0,7.m4v,2.0
2024-02-27 10:47:29.238327,1709027249.2383268,-32.2265625,-1000.0,-131.8359375,-37.59765625,1.0,-1.0,1.0,1.0,7.m4v,2.0
2024-02-27 10:47:29.242232,1709027249.2422323,-33.203125,-1000.0,-458.49609375,-36.62109375,1.0,-1.0,1.0,1.0,7.m4v,2.0
2024-02-27 10:47:29.246138,1709027249.246138,-38.57421875,-937.01171875,-628.90625,-35.15625,1.0,-1.0,1.0,1.0,7.m4v,2.0
2024-02-27 10:47:29.250044,1709027249.250044,-33.69140625,-1000.0,-535.15625,-41.015625,1.0,-1.0,1.0,1.0,7.m4v,2.0
2024-02-27 10:47:29.253949,1709027249.2539494,-20.99609375,-226.5625,200.68359375,-22.94921875,1.0,-1.0,1.0,1.0,7.m4v,2.0
2024-02-27 10:47:29.257855,1709027249.2578552,-16.11328125,999.51171875,579.58984375,-18.5546875,1.0,-1.0,1.0,1.0,7.m4v,2.0
2024-02-27 10:47:29.261761,1709027249.2617607,-21.484375,954.58984375,-113.28125,-42.48046875,1.0,-1.0,1.0,1.0,7.m4v,2.0
2024-02-27 10:47:29.265666,1709027249.2656665,-45.41015625,941.89453125,-426.7578125,-40.52734375,1.0,-1.0,1.0,1.0,7.m4v,2.0
2024-02-27 10:47:29.269572,1709027249.2695725,-48.33984375,976.5625,-33.69140625,-21.484375,1.0,-1.0,1.0,1.0,7.m4v,2.0
2024-02-27 10:47:29.273478,1709027249.2734778,-24.90234375,970.21484375,234.86328125,-12.6953125,1.0,-1.0,1.0,1.0,7.m4v,2.0
2024-02-27 10:47:29.277384,1709027249.2773836,-18.06640625,969.7265625,196.2890625,-25.87890625,1.0,-1.0,1.0,1.0,7.m4v,2.0
2024-02-27 10:47:29.281292,1709027249.2812915,-37.59765625,969.7265625,-131.8359375,-35.64453125,1.0,-1.0,1.0,1.0,7.m4v,2.0
2024-02-27 10:47:29.285197,1709027249.2851975,-39.55078125,969.7265625,-461.9140625,-40.0390625,1.0,-1.0,1.0,1.0,7.m4v,2.0
2024-02-27 10:47:29.289103,1709027249.2891033,-35.64453125,969.7265625,-444.82421875,-37.109375,1.0,-1.0,1.0,1.0,7.m4v,2.0
2024-02-27 10:47:29.293009,1709027249.2930088,-35.64453125,970.21484375,-75.1953125,-24.4140625,1.0,-1.0,1.0,1.0,7.m4v,2.0
2024-02-27 10:47:29.296915,1709027249.2969146,-35.15625,971.6796875,64.94140625,-20.5078125,1.0,-1.0,1.0,1.0,7.m4v,2.0
2024-02-27 10:47:29.300820,1709027249.30082,-39.0625,905.76171875,-24.90234375,-33.69140625,1.0,-1.0,1.0,1.0,7.m4v,2.0
2024-02-27 10:47:29.304726,1709027249.304726,-32.71484375,999.51171875,-7.32421875,-24.4140625,1.0,-1.0,1.0,1.0,7.m4v,2.0
2024-02-27 10:47:29.308632,1709027249.3086317,-23.4375,209.47265625,-318.84765625,-25.390625,1.0,-1.0,1.0,1.0,7.m4v,2.0
2024-02-27 10:47:29.312537,1709027249.3125372,-30.76171875,-1000.0,-333.0078125,-32.2265625,1.0,-1.0,1.0,1.0,7.m4v,2.0
2024-02-27 10:47:29.316443,1709027249.316443,-39.0625,-987.3046875,-41.9921875,-26.3671875,1.0,-1.0,1.0,1.0,7.m4v,2.0
2024-02-27 10:47:29.320349,1709027249.3203485,-42.48046875,-971.19140625,-293.45703125,-37.59765625,1.0,-1.0,1.0,1.0,7.m4v,2.0
2024-02-27 10:47:29.324254,1709027249.3242545,-43.9453125,-1000.0,-649.4140625,-44.43359375,1.0,-1.0,1.0,1.0,7.m4v,2.0
2024-02-27 10:47:29.328162,1709027249.3281624,-27.34375,-1000.0,-393.5546875,-39.0625,1.0,-1.0,1.0,1.0,7.m4v,2.0
2024-02-27 10:47:29.332068,1709027249.3320682,-22.94921875,-1000.0,42.48046875,-27.83203125,1.0,-1.0,1.0,1.0,7.m4v,2.0
2024-02-27 10:47:29.335974,1709027249.335974,-29.296875,-1000.0,181.640625,-22.4609375,1.0,-1.0,1.0,1.0,7.m4v,2.0
2024-02-27 10:47:29.339880,1709027249.3398795,-26.3671875,-985.3515625,0.0,-19.53125,1.0,-1.0,1.0,1.0,7.m4v,2.0
2024-02-27 10:47:29.343785,1709027249.3437853,-33.203125,-961.9140625,-520.01953125,-29.296875,1.0,-1.0,1.0,1.0,7.m4v,2.0
2024-02-27 10:47:29.347691,1709027249.3476908,-27.34375,-1000.0,-530.2734375,-42.96875,1.0,-1.0,1.0,1.0,7.m4v,2.0
2024-02-27 10:47:29.351597,1709027249.3515966,-25.390625,17.08984375,225.09765625,-32.71484375,1.0,-1.0,1.0,1.0,7.m4v,2.0
2024-02-27 10:47:29.355502,1709027249.355502,-33.203125,999.51171875,648.4375,-21.484375,1.0,-1.0,1.0,1.0,7.m4v,2.0
2024-02-27 10:47:29.359408,1709027249.359408,-18.06640625,923.828125,316.89453125,-30.2734375,1.0,-1.0,1.0,1.0,7.m4v,2.0
2024-02-27 10:47:29.363314,1709027249.3633137,-23.92578125,959.47265625,-133.30078125,-33.69140625,1.0,-1.0,1.0,1.0,7.m4v,2.0
2024-02-27 10:47:29.367219,1709027249.3672192,-33.69140625,972.16796875,-365.234375,-27.83203125,1.0,-1.0,1.0,1.0,7.m4v,2.0
2024-02-27 10:47:29.371125,1709027249.371125,-20.01953125,969.7265625,-189.453125,-35.15625,1.0,-1.0,1.0,1.0,7.m4v,2.0
2024-02-27 10:47:29.375033,1709027249.375033,-17.08984375,969.7265625,279.296875,-35.64453125,1.0,-1.0,1.0,1.0,7.m4v,2.0
2024-02-27 10:47:29.378938,1709027249.3789384,-26.3671875,969.7265625,282.2265625,-24.90234375,1.0,-1.0,1.0,1.0,7.m4v,2.0
2024-02-27 10:47:29.382844,1709027249.382844,-37.109375,969.7265625,7.8125,-31.73828125,1.0,-1.0,1.0,1.0,7.m4v,2.0
2024-02-27 10:47:29.386750,1709027249.3867495,-36.1328125,970.21484375,-45.41015625,-39.55078125,1.0,-1.0,1.0,1.0,7.m4v,2.0
2024-02-27 10:47:29.390655,1709027249.3906553,-24.90234375,969.7265625,145.5078125,-34.66796875,1.0,-1.0,1.0,1.0,7.m4v,2.0
2024-02-27 10:47:29.394561,1709027249.394561,-26.85546875,908.203125,611.328125,-29.296875,1.0,-1.0,1.0,1.0,7.m4v,2.0
2024-02-27 10:47:29.398467,1709027249.3984668,-28.80859375,999.51171875,798.33984375,-27.83203125,1.0,-1.0,1.0,1.0,7.m4v,2.0
2024-02-27 10:47:29.402372,1709027249.4023724,-36.62109375,175.78125,59.5703125,-38.0859375,1.0,-1.0,1.0,1.0,7.m4v,2.0
2024-02-27 10:47:29.406278,1709027249.406278,-45.8984375,-1000.0,-483.88671875,-46.38671875,1.0,-1.0,1.0,1.0,7.m4v,2.0
2024-02-27 10:47:29.410184,1709027249.4101837,-41.50390625,-982.421875,-333.984375,-39.55078125,1.0,-1.0,1.0,1.0,7.m4v,2.0
2024-02-27 10:47:29.414089,1709027249.4140894,-32.71484375,-974.12109375,97.16796875,-31.25,1.0,-1.0,1.0,1.0,7.m4v,2.0
2024-02-27 10:47:29.417995,1709027249.4179952,-26.85546875,-1000.0,357.91015625,-22.94921875,1.0,-1.0,1.0,1.0,7.m4v,2.0
2024-02-27 10:47:29.421903,1709027249.421903,-34.66796875,-1000.0,-120.1171875,-30.2734375,1.0,-1.0,1.0,1.0,7.m4v,2.0
2024-02-27 10:47:29.425808,1709027249.4258082,-29.78515625,-1000.0,-484.86328125,-37.109375,1.0,-1.0,1.0,1.0,7.m4v,2.0
2024-02-27 10:47:29.429714,1709027249.429714,-23.92578125,-989.2578125,-277.83203125,-32.2265625,1.0,-1.0,1.0,1.0,7.m4v,2.0
2024-02-27 10:47:29.433620,1709027249.4336195,-24.90234375,-956.0546875,157.71484375,-23.92578125,1.0,-1.0,1.0,1.0,7.m4v,2.0
2024-02-27 10:47:29.437525,1709027249.4375253,-22.4609375,-1000.0,316.40625,-13.18359375,1.0,-1.0,1.0,1.0,7.m4v,2.0
2024-02-27 10:47:29.441431,1709027249.441431,-18.06640625,-32.71484375,472.65625,-18.06640625,1.0,-1.0,1.0,1.0,7.m4v,2.0
2024-02-27 10:47:29.445337,1709027249.4453366,-18.5546875,999.51171875,488.76953125,-26.3671875,1.0,-1.0,1.0,1.0,7.m4v,2.0
2024-02-27 10:47:29.449242,1709027249.4492424,-30.2734375,929.6875,371.09375,-29.296875,1.0,-1.0,1.0,1.0,7.m4v,2.0
2024-02-27 10:47:29.453148,1709027249.453148,-21.484375,956.0546875,587.890625,-32.71484375,1.0,-1.0,1.0,1.0,7.m4v,2.0
2024-02-27 10:47:29.457054,1709027249.4570537,-17.578125,972.65625,557.6171875,-32.71484375,1.0,-1.0,1.0,1.0,7.m4v,2.0
2024-02-27 10:47:29.460959,1709027249.4609594,-30.2734375,969.7265625,209.47265625,-33.203125,1.0,-1.0,1.0,1.0,7.m4v,2.0
2024-02-27 10:47:29.464865,1709027249.464865,-30.76171875,969.7265625,-100.09765625,-35.64453125,1.0,-1.0,1.0,1.0,7.m4v,2.0
2024-02-27 10:47:29.468772,1709027249.4687722,-16.6015625,969.7265625,-74.70703125,-41.9921875,1.0,-1.0,1.0,1.0,7.m4v,2.0
2024-02-27 10:47:29.472678,1709027249.4726777,-16.6015625,969.7265625,249.51171875,-35.64453125,1.0,-1.0,1.0,1.0,7.m4v,2.0
2024-02-27 10:47:29.476583,1709027249.4765835,-27.34375,969.7265625,532.2265625,-30.76171875,1.0,-1.0,1.0,1.0,7.m4v,2.0
2024-02-27 10:47:29.480489,1709027249.480489,-17.578125,969.7265625,290.52734375,-29.78515625,1.0,-1.0,1.0,1.0,7.m4v,2.0
2024-02-27 10:47:29.484395,1709027249.4843948,-8.30078125,969.7265625,-118.65234375,-26.3671875,1.0,-1.0,1.0,1.0,7.m4v,2.0
2024-02-27 10:47:29.488300,1709027249.4883003,-13.18359375,974.609375,195.3125,-22.4609375,1.0,-1.0,1.0,1.0,7.m4v,2.0
2024-02-27 10:47:29.492206,1709027249.492206,-25.390625,902.83203125,778.3203125,-15.13671875,1.0,-1.0,1.0,1.0,7.m4v,2.0
2024-02-27 10:47:29.496112,1709027249.496112,-20.99609375,999.51171875,719.7265625,-19.04296875,1.0,-1.0,1.0,1.0,7.m4v,2.0
2024-02-27 10:47:29.500017,1709027249.5000174,-20.01953125,265.13671875,252.44140625,-35.64453125,1.0,-1.0,1.0,1.0,7.m4v,2.0
2024-02-27 10:47:29.503923,1709027249.5039232,-47.8515625,-1000.0,-304.6875,-40.0390625,1.0,-1.0,1.0,1.0,7.m4v,2.0
2024-02-27 10:47:29.511734,1709027249.5117345,-30.2734375,-966.796875,230.46875,-23.92578125,1.0,-1.0,1.0,1.0,7.m4v,2.0
2024-02-27 10:47:29.519547,1709027249.5195477,-32.71484375,-1000.0,179.6875,-25.390625,1.0,-1.0,1.0,1.0,7.m4v,2.0
2024-02-27 10:47:29.527359,1709027249.5273588,-51.26953125,-945.80078125,-458.984375,-32.2265625,1.0,-1.0,1.0,1.0,7.m4v,2.0
2024-02-27 10:47:29.535170,1709027249.53517,-35.15625,-134.765625,709.9609375,-26.85546875,1.0,-1.0,1.0,1.0,7.m4v,2.0
2024-02-27 10:47:29.542981,1709027249.5429814,-29.78515625,942.3828125,273.92578125,-27.83203125,1.0,-1.0,1.0,1.0,7.m4v,2.0
2024-02-27 10:47:29.550793,1709027249.5507927,-40.52734375,974.609375,110.3515625,-22.94921875,1.0,-1.0,1.0,1.0,7.m4v,2.0
2024-02-27 10:47:29.558604,1709027249.558604,-45.41015625,969.7265625,347.16796875,-38.57421875,1.0,-1.0,1.0,1.0,7.m4v,2.0
2024-02-27 10:47:29.566419,1709027249.5664186,-37.59765625,969.7265625,-185.05859375,-38.57421875,1.0,-1.0,1.0,1.0,7.m4v,2.0
2024-02-27 10:47:29.574230,1709027249.57423,-43.45703125,970.21484375,534.66796875,-38.0859375,1.0,-1.0,1.0,1.0,7.m4v,2.0
2024-02-27 10:47:29.582042,1709027249.5820415,-34.1796875,910.64453125,363.76953125,-42.48046875,1.0,-1.0,1.0,1.0,7.m4v,2.0
2024-02-27 10:47:29.589853,1709027249.5898528,-50.29296875,151.3671875,-36.1328125,-43.45703125,1.0,-1.0,1.0,1.0,7.m4v,2.0
2024-02-27 10:47:29.597664,1709027249.597664,-37.109375,-979.00390625,231.4453125,-32.2265625,1.0,-1.0,1.0,1.0,7.m4v,2.0
2024-02-27 10:47:29.605475,1709027249.6054754,-27.34375,-1000.0,-315.4296875,-46.875,1.0,-1.0,1.0,1.0,7.m4v,2.0
2024-02-27 10:47:29.613290,1709027249.6132898,-22.94921875,-1000.0,296.38671875,-27.34375,1.0,-1.0,1.0,1.0,7.m4v,2.0
2024-02-27 10:47:29.621101,1709027249.6211011,-41.015625,-928.7109375,101.07421875,-36.62109375,1.0,-1.0,1.0,1.0,7.m4v,2.0
2024-02-27 10:47:29.628912,1709027249.6289124,-38.0859375,-406.73828125,-79.58984375,-38.0859375,1.0,-1.0,1.0,1.0,7.m4v,2.0
2024-02-27 10:47:29.636724,1709027249.6367238,-40.52734375,985.83984375,981.93359375,-18.5546875,1.0,-1.0,1.0,1.0,7.m4v,2.0
2024-02-27 10:47:29.644535,1709027249.644535,-45.8984375,981.93359375,-84.9609375,-42.96875,1.0,-1.0,1.0,1.0,7.m4v,2.0
2024-02-27 10:47:29.652347,1709027249.6523466,-35.15625,969.7265625,-23.4375,-44.43359375,1.0,-1.0,1.0,1.0,7.m4v,2.0
2024-02-27 10:47:29.660161,1709027249.6601603,-21.97265625,969.7265625,91.30859375,-35.15625,1.0,-1.0,1.0,1.0,7.m4v,2.0
2024-02-27 10:47:29.667972,1709027249.6679718,-43.9453125,969.7265625,-96.19140625,-45.8984375,1.0,-1.0,1.0,1.0,7.m4v,2.0
2024-02-27 10:47:29.675783,1709027249.6757834,-28.3203125,933.59375,739.74609375,-32.2265625,1.0,-1.0,1.0,1.0,7.m4v,2.0
2024-02-27 10:47:29.683595,1709027249.6835947,-21.97265625,938.4765625,6.34765625,-33.69140625,1.0,-1.0,1.0,1.0,7.m4v,2.0
2024-02-27 10:47:29.691406,1709027249.691406,-42.96875,-1000.0,-111.81640625,-38.0859375,1.0,-1.0,1.0,1.0,7.m4v,2.0
2024-02-27 10:47:29.699217,1709027249.699217,-33.69140625,-1000.0,24.90234375,-52.734375,1.0,-1.0,1.0,1.0,7.m4v,2.0
2024-02-27 10:47:29.707031,1709027249.7070312,-23.4375,-1000.0,-450.1953125,-52.24609375,1.0,-1.0,1.0,1.0,7.m4v,2.0
2024-02-27 10:47:29.714843,1709027249.7148426,-33.203125,-937.98828125,55.6640625,-40.0390625,1.0,-1.0,1.0,1.0,7.m4v,2.0
2024-02-27 10:47:29.722654,1709027249.722654,-25.87890625,-212.40234375,1.46484375,-48.33984375,1.0,-1.0,1.0,1.0,7.m4v,2.0
2024-02-27 10:47:29.730465,1709027249.7304652,-26.85546875,952.63671875,139.16015625,-28.3203125,1.0,-1.0,1.0,1.0,7.m4v,2.0
2024-02-27 10:47:29.738276,1709027249.7382765,-21.97265625,976.5625,385.7421875,-34.66796875,1.0,-1.0,1.0,1.0,7.m4v,2.0
2024-02-27 10:47:29.746088,1709027249.7460878,-47.8515625,969.7265625,-271.484375,-41.9921875,1.0,-1.0,1.0,1.0,7.m4v,2.0
2024-02-27 10:47:29.753902,1709027249.7539015,-33.203125,969.7265625,486.328125,-32.71484375,1.0,-1.0,1.0,1.0,7.m4v,2.0
2024-02-27 10:47:29.761713,1709027249.761713,-34.66796875,969.7265625,-26.3671875,-51.7578125,1.0,-1.0,1.0,1.0,7.m4v,2.0
2024-02-27 10:47:29.769524,1709027249.7695243,-33.203125,959.47265625,5.859375,-40.0390625,1.0,-1.0,1.0,1.0,7.m4v,2.0
2024-02-27 10:47:30.218701,1709027250.2187011,-29.78515625,969.7265625,59.5703125,-13.18359375,1.0,-1.0,1.0,1.0,7.m4v,2.0
2024-02-27 10:47:30.222607,1709027250.222607,-30.2734375,969.7265625,-268.5546875,-18.06640625,1.0,-1.0,1.0,1.0,7.m4v,2.0
2024-02-27 10:47:30.226512,1709027250.2265124,-30.76171875,969.7265625,-414.0625,-41.9921875,1.0,-1.0,1.0,1.0,7.m4v,2.0
2024-02-27 10:47:30.230418,1709027250.230418,-32.71484375,969.7265625,-4.8828125,-43.45703125,1.0,-1.0,1.0,1.0,7.m4v,2.0
2024-02-27 10:47:30.234324,1709027250.2343235,-27.34375,975.09765625,281.73828125,-36.62109375,1.0,-1.0,1.0,1.0,7.m4v,2.0
2024-02-27 10:47:30.238229,1709027250.2382293,-20.99609375,901.85546875,409.66796875,-33.203125,1.0,-1.0,1.0,1.0,7.m4v,2.0
2024-02-27 10:47:30.242135,1709027250.242135,-24.4140625,999.51171875,238.28125,-31.73828125,1.0,-1.0,1.0,1.0,7.m4v,2.0
2024-02-27 10:47:30.246041,1709027250.2460408,-38.57421875,281.25,-420.41015625,-43.45703125,1.0,-1.0,1.0,1.0,7.m4v,2.0
2024-02-27 10:47:30.249946,1709027250.2499464,-47.8515625,-1000.0,-622.55859375,-53.7109375,1.0,-1.0,1.0,1.0,7.m4v,2.0
2024-02-27 10:47:30.253852,1709027250.253852,-32.2265625,-999.51171875,-322.75390625,-40.52734375,1.0,-1.0,1.0,1.0,7.m4v,2.0
2024-02-27 10:47:30.257758,1709027250.2577577,-31.25,-965.8203125,-160.15625,-39.0625,1.0,-1.0,1.0,1.0,7.m4v,2.0
2024-02-27 10:47:30.261663,1709027250.2616634,-39.55078125,-1000.0,-299.31640625,-41.015625,1.0,-1.0,1.0,1.0,7.m4v,2.0
2024-02-27 10:47:30.265573,1709027250.2655723,-36.62109375,-1000.0,-528.80859375,-41.50390625,1.0,-1.0,1.0,1.0,7.m4v,2.0
2024-02-27 10:47:30.269478,1709027250.2694783,-46.875,-1000.0,-528.80859375,-33.203125,1.0,-1.0,1.0,1.0,7.m4v,2.0
2024-02-27 10:47:30.273384,1709027250.273384,-41.9921875,-1000.0,-173.828125,-30.2734375,1.0,-1.0,1.0,1.0,7.m4v,2.0
2024-02-27 10:47:30.277290,1709027250.2772896,-26.3671875,-928.22265625,38.0859375,-37.109375,1.0,-1.0,1.0,1.0,7.m4v,2.0
2024-02-27 10:47:30.281195,1709027250.2811952,-29.78515625,-1000.0,-306.15234375,-32.71484375,1.0,-1.0,1.0,1.0,7.m4v,2.0
2024-02-27 10:47:30.285101,1709027250.285101,-39.0625,-504.8828125,-449.21875,-37.109375,1.0,-1.0,1.0,1.0,7.m4v,2.0
2024-02-27 10:47:30.289007,1709027250.2890067,-30.76171875,903.80859375,49.31640625,-31.25,1.0,-1.0,1.0,1.0,7.m4v,2.0
2024-02-27 10:47:30.292912,1709027250.2929122,-19.04296875,999.51171875,318.359375,-26.3671875,1.0,-1.0,1.0,1.0,7.m4v,2.0
2024-02-27 10:47:30.296818,1709027250.296818,-23.92578125,919.921875,117.67578125,-26.85546875,1.0,-1.0,1.0,1.0,7.m4v,2.0
2024-02-27 10:47:30.300724,1709027250.3007236,-22.94921875,983.3984375,-194.3359375,-24.90234375,1.0,-1.0,1.0,1.0,7.m4v,2.0
2024-02-27 10:47:30.304629,1709027250.304629,-21.97265625,969.7265625,-605.46875,-37.59765625,1.0,-1.0,1.0,1.0,7.m4v,2.0
2024-02-27 10:47:30.308535,1709027250.308535,-34.1796875,969.7265625,-677.734375,-45.41015625,1.0,-1.0,1.0,1.0,7.m4v,2.0
2024-02-27 10:47:30.312444,1709027250.312444,-22.94921875,969.7265625,-210.44921875,-41.50390625,1.0,-1.0,1.0,1.0,7.m4v,2.0
2024-02-27 10:47:30.316350,1709027250.3163495,-23.4375,969.7265625,113.76953125,-41.015625,1.0,-1.0,1.0,1.0,7.m4v,2.0
2024-02-27 10:47:30.320255,1709027250.3202553,-40.0390625,969.7265625,-150.87890625,-46.875,1.0,-1.0,1.0,1.0,7.m4v,2.0
2024-02-27 10:47:30.324161,1709027250.3241608,-32.71484375,969.7265625,-416.9921875,-41.015625,1.0,-1.0,1.0,1.0,7.m4v,2.0
2024-02-27 10:47:30.328067,1709027250.3280666,-24.90234375,981.93359375,-332.03125,-20.01953125,1.0,-1.0,1.0,1.0,7.m4v,2.0
2024-02-27 10:47:30.331972,1709027250.3319724,-25.390625,915.0390625,251.953125,-23.4375,1.0,-1.0,1.0,1.0,7.m4v,2.0
2024-02-27 10:47:30.335878,1709027250.335878,-21.484375,999.51171875,578.125,-43.45703125,1.0,-1.0,1.0,1.0,7.m4v,2.0
2024-02-27 10:47:30.339784,1709027250.3397837,-16.6015625,781.25,66.89453125,-44.921875,1.0,-1.0,1.0,1.0,7.m4v,2.0
2024-02-27 10:47:30.343689,1709027250.3436892,-35.64453125,-603.515625,-513.671875,-49.31640625,1.0,-1.0,1.0,1.0,7.m4v,2.0
2024-02-27 10:47:30.347595,1709027250.347595,-36.1328125,-1000.0,-561.03515625,-42.96875,1.0,-1.0,1.0,1.0,7.m4v,2.0
2024-02-27 10:47:30.351501,1709027250.3515005,-33.69140625,-937.98828125,-153.3203125,-36.1328125,1.0,-1.0,1.0,1.0,7.m4v,2.0
2024-02-27 10:47:30.355406,1709027250.3554063,-42.96875,-1000.0,-11.23046875,-40.52734375,1.0,-1.0,1.0,1.0,7.m4v,2.0
2024-02-27 10:47:30.359315,1709027250.359315,-34.1796875,-1000.0,-226.07421875,-37.59765625,1.0,-1.0,1.0,1.0,7.m4v,2.0
2024-02-27 10:47:30.363221,1709027250.3632207,-38.57421875,-1000.0,-614.74609375,-40.52734375,1.0,-1.0,1.0,1.0,7.m4v,2.0
2024-02-27 10:47:30.367126,1709027250.3671262,-42.48046875,-999.51171875,-829.1015625,-47.8515625,1.0,-1.0,1.0,1.0,7.m4v,2.0
2024-02-27 10:47:30.371032,1709027250.371032,-40.0390625,-939.453125,-636.23046875,-38.57421875,1.0,-1.0,1.0,1.0,7.m4v,2.0
2024-02-27 10:47:30.374938,1709027250.3749378,-36.62109375,-1000.0,-199.70703125,-34.66796875,1.0,-1.0,1.0,1.0,7.m4v,2.0
2024-02-27 10:47:30.378843,1709027250.3788433,-19.04296875,-198.2421875,244.62890625,-36.1328125,1.0,-1.0,1.0,1.0,7.m4v,2.0
2024-02-27 10:47:30.382749,1709027250.382749,-10.25390625,999.51171875,141.11328125,-32.71484375,1.0,-1.0,1.0,1.0,7.m4v,2.0
2024-02-27 10:47:30.386655,1709027250.3866546,-25.390625,950.68359375,-328.125,-43.9453125,1.0,-1.0,1.0,1.0,7.m4v,2.0
2024-02-27 10:47:30.390560,1709027250.3905604,-44.43359375,944.3359375,-278.3203125,-42.96875,1.0,-1.0,1.0,1.0,7.m4v,2.0
2024-02-27 10:47:30.394466,1709027250.394466,-45.8984375,976.07421875,1.953125,-36.1328125,1.0,-1.0,1.0,1.0,7.m4v,2.0
2024-02-27 10:47:30.398372,1709027250.3983717,-35.64453125,969.7265625,4.8828125,-40.52734375,1.0,-1.0,1.0,1.0,7.m4v,2.0
2024-02-27 10:47:30.402277,1709027250.4022777,-42.48046875,969.7265625,-276.85546875,-46.38671875,1.0,-1.0,1.0,1.0,7.m4v,2.0
2024-02-27 10:47:30.406186,1709027250.406186,-48.33984375,970.21484375,-505.37109375,-48.828125,1.0,-1.0,1.0,1.0,7.m4v,2.0
2024-02-27 10:47:30.410092,1709027250.410092,-44.43359375,969.7265625,-143.06640625,-41.015625,1.0,-1.0,1.0,1.0,7.m4v,2.0
2024-02-27 10:47:30.413997,1709027250.4139974,-20.99609375,969.7265625,342.28515625,-38.0859375,1.0,-1.0,1.0,1.0,7.m4v,2.0
2024-02-27 10:47:30.417903,1709027250.4179032,-9.27734375,979.98046875,236.81640625,-36.62109375,1.0,-1.0,1.0,1.0,7.m4v,2.0
2024-02-27 10:47:30.421809,1709027250.421809,-24.90234375,929.19921875,-201.171875,-44.43359375,1.0,-1.0,1.0,1.0,7.m4v,2.0
2024-02-27 10:47:30.425714,1709027250.4257145,-31.25,989.2578125,-196.77734375,-58.10546875,1.0,-1.0,1.0,1.0,7.m4v,2.0
2024-02-27 10:47:30.429620,1709027250.4296205,-38.57421875,927.734375,-37.109375,-57.6171875,1.0,-1.0,1.0,1.0,7.m4v,2.0
2024-02-27 10:47:30.433526,1709027250.4335258,-35.64453125,-399.4140625,-138.671875,-47.36328125,1.0,-1.0,1.0,1.0,7.m4v,2.0
2024-02-27 10:47:30.437432,1709027250.4374316,-38.0859375,-1000.0,-187.98828125,-44.921875,1.0,-1.0,1.0,1.0,7.m4v,2.0
2024-02-27 10:47:30.441337,1709027250.441337,-43.45703125,-936.5234375,-399.4140625,-39.0625,1.0,-1.0,1.0,1.0,7.m4v,2.0
2024-02-27 10:47:30.445243,1709027250.445243,-41.015625,-1000.0,-622.0703125,-37.109375,1.0,-1.0,1.0,1.0,7.m4v,2.0
2024-02-27 10:47:30.449149,1709027250.449149,-45.8984375,-1000.0,-617.1875,-41.50390625,1.0,-1.0,1.0,1.0,7.m4v,2.0
2024-02-27 10:47:30.453057,1709027250.4530568,-37.59765625,-1000.0,-270.99609375,-44.43359375,1.0,-1.0,1.0,1.0,7.m4v,2.0
2024-02-27 10:47:30.456963,1709027250.4569626,-28.80859375,-1000.0,-22.94921875,-51.7578125,1.0,-1.0,1.0,1.0,7.m4v,2.0
2024-02-27 10:47:30.460868,1709027250.460868,-23.92578125,-997.0703125,-243.1640625,-42.96875,1.0,-1.0,1.0,1.0,7.m4v,2.0
2024-02-27 10:47:30.464774,1709027250.464774,-26.3671875,-943.359375,-524.4140625,-39.0625,1.0,-1.0,1.0,1.0,7.m4v,2.0
2024-02-27 10:47:30.468679,1709027250.4686794,-38.57421875,-1000.0,-475.09765625,-41.50390625,1.0,-1.0,1.0,1.0,7.m4v,2.0
2024-02-27 10:47:30.472585,1709027250.4725852,-38.0859375,-157.2265625,276.3671875,-32.2265625,1.0,-1.0,1.0,1.0,7.m4v,2.0
2024-02-27 10:47:30.476491,1709027250.476491,-25.87890625,999.51171875,941.40625,-26.85546875,1.0,-1.0,1.0,1.0,7.m4v,2.0
2024-02-27 10:47:30.480397,1709027250.4803965,-31.73828125,945.3125,381.34765625,-41.50390625,1.0,-1.0,1.0,1.0,7.m4v,2.0
2024-02-27 10:47:30.484302,1709027250.4843023,-23.92578125,947.265625,-362.3046875,-51.26953125,1.0,-1.0,1.0,1.0,7.m4v,2.0
2024-02-27 10:47:30.488208,1709027250.4882078,-28.3203125,975.09765625,-496.58203125,-48.828125,1.0,-1.0,1.0,1.0,7.m4v,2.0
2024-02-27 10:47:30.492114,1709027250.4921136,-52.734375,969.7265625,-160.15625,-52.24609375,1.0,-1.0,1.0,1.0,7.m4v,2.0
2024-02-27 10:47:30.496019,1709027250.4960194,-37.109375,969.7265625,233.3984375,-45.41015625,1.0,-1.0,1.0,1.0,7.m4v,2.0
2024-02-27 10:47:30.499927,1709027250.4999273,-33.69140625,969.7265625,78.61328125,-40.0390625,1.0,-1.0,1.0,1.0,7.m4v,2.0
2024-02-27 10:47:30.503833,1709027250.5038328,-39.55078125,969.7265625,-341.796875,-45.8984375,1.0,-1.0,1.0,1.0,7.m4v,2.0
2024-02-27 10:47:30.507739,1709027250.5077386,-36.62109375,969.7265625,-482.91015625,-47.36328125,1.0,-1.0,1.0,1.0,7.m4v,2.0
2024-02-27 10:47:30.511644,1709027250.5116444,-34.66796875,970.21484375,-178.22265625,-41.50390625,1.0,-1.0,1.0,1.0,7.m4v,2.0
2024-02-27 10:47:30.515550,1709027250.51555,-18.5546875,970.21484375,148.92578125,-39.0625,1.0,-1.0,1.0,1.0,7.m4v,2.0
2024-02-27 10:47:30.519456,1709027250.5194557,-12.20703125,907.2265625,412.59765625,-31.25,1.0,-1.0,1.0,1.0,7.m4v,2.0
2024-02-27 10:47:30.523361,1709027250.5233612,-19.53125,999.51171875,249.51171875,-32.71484375,1.0,-1.0,1.0,1.0,7.m4v,2.0
2024-02-27 10:47:30.527267,1709027250.527267,-33.203125,183.59375,-335.9375,-44.921875,1.0,-1.0,1.0,1.0,7.m4v,2.0
2024-02-27 10:47:30.531173,1709027250.5311728,-29.296875,-1000.0,-230.95703125,-44.921875,1.0,-1.0,1.0,1.0,7.m4v,2.0
2024-02-27 10:47:30.535078,1709027250.5350783,-10.7421875,-983.3984375,25.87890625,-20.5078125,1.0,-1.0,1.0,1.0,7.m4v,2.0
2024-02-27 10:47:30.538984,1709027250.538984,-16.11328125,-973.6328125,-174.8046875,-20.01953125,1.0,-1.0,1.0,1.0,7.m4v,2.0
2024-02-27 10:47:30.542890,1709027250.5428896,-33.69140625,-1000.0,-543.9453125,-44.921875,1.0,-1.0,1.0,1.0,7.m4v,2.0
2024-02-27 10:47:30.546797,1709027250.5467973,-43.45703125,-1000.0,-760.25390625,-50.78125,1.0,-1.0,1.0,1.0,7.m4v,2.0
2024-02-27 10:47:30.550703,1709027250.550703,-55.17578125,-1000.0,-623.53515625,-45.8984375,1.0,-1.0,1.0,1.0,7.m4v,2.0
2024-02-27 10:47:30.554609,1709027250.5546086,-41.9921875,-1000.0,-190.4296875,-29.296875,1.0,-1.0,1.0,1.0,7.m4v,2.0
2024-02-27 10:47:30.558514,1709027250.5585144,-35.64453125,-934.08203125,-123.046875,-22.94921875,1.0,-1.0,1.0,1.0,7.m4v,2.0
2024-02-27 10:47:30.562420,1709027250.56242,-34.66796875,-1000.0,-481.93359375,-34.66796875,1.0,-1.0,1.0,1.0,7.m4v,2.0
2024-02-27 10:47:30.566326,1709027250.5663257,-29.78515625,-271.484375,-280.2734375,-41.015625,1.0,-1.0,1.0,1.0,7.m4v,2.0
2024-02-27 10:47:30.570231,1709027250.5702314,-22.4609375,999.51171875,311.03515625,-28.80859375,1.0,-1.0,1.0,1.0,7.m4v,2.0
2024-02-27 10:47:30.574137,1709027250.574137,-16.11328125,961.9140625,429.19921875,-25.390625,1.0,-1.0,1.0,1.0,7.m4v,2.0
2024-02-27 10:47:30.578043,1709027250.5780427,-11.23046875,938.4765625,289.55078125,-31.73828125,1.0,-1.0,1.0,1.0,7.m4v,2.0
2024-02-27 10:47:30.581948,1709027250.5819485,-0.9765625,978.02734375,-114.2578125,-30.2734375,1.0,-1.0,1.0,1.0,7.m4v,2.0
2024-02-27 10:47:30.585854,1709027250.585854,-13.18359375,969.7265625,-450.68359375,-30.2734375,1.0,-1.0,1.0,1.0,7.m4v,2.0
2024-02-27 10:47:30.589760,1709027250.5897596,-29.296875,969.7265625,-167.48046875,-26.85546875,1.0,-1.0,1.0,1.0,7.m4v,2.0
2024-02-27 10:47:30.593667,1709027250.5936673,-14.16015625,969.7265625,209.47265625,-16.11328125,1.0,-1.0,1.0,1.0,7.m4v,2.0
2024-02-27 10:47:30.597573,1709027250.597573,-16.11328125,969.7265625,235.3515625,-18.5546875,1.0,-1.0,1.0,1.0,7.m4v,2.0
2024-02-27 10:47:30.601479,1709027250.6014788,-32.71484375,969.7265625,-110.3515625,-23.4375,1.0,-1.0,1.0,1.0,7.m4v,2.0
2024-02-27 10:47:30.605384,1709027250.6053843,-30.2734375,969.7265625,-530.2734375,-17.578125,1.0,-1.0,1.0,1.0,7.m4v,2.0
2024-02-27 10:47:30.609290,1709027250.60929,-19.53125,969.7265625,-576.66015625,-21.97265625,1.0,-1.0,1.0,1.0,7.m4v,2.0
2024-02-27 10:47:30.613196,1709027250.6131957,-16.6015625,981.4453125,146.484375,-14.6484375,1.0,-1.0,1.0,1.0,7.m4v,2.0
2024-02-27 10:47:30.617101,1709027250.6171014,-16.6015625,896.97265625,776.85546875,-16.11328125,1.0,-1.0,1.0,1.0,7.m4v,2.0
2024-02-27 10:47:30.621007,1709027250.621007,-13.18359375,999.51171875,248.53515625,-24.90234375,1.0,-1.0,1.0,1.0,7.m4v,2.0
2024-02-27 10:47:30.624913,1709027250.6249127,-6.34765625,443.359375,-351.5625,-14.16015625,1.0,-1.0,1.0,1.0,7.m4v,2.0
2024-02-27 10:47:30.628819,1709027250.6288185,-18.5546875,-958.0078125,-607.91015625,-30.76171875,1.0,-1.0,1.0,1.0,7.m4v,2.0
2024-02-27 10:47:30.632724,1709027250.632724,-18.06640625,-1000.0,-406.25,-41.015625,1.0,-1.0,1.0,1.0,7.m4v,2.0
2024-02-27 10:47:30.636630,1709027250.6366298,-15.625,-952.63671875,-149.4140625,-29.296875,1.0,-1.0,1.0,1.0,7.m4v,2.0
2024-02-27 10:47:30.640539,1709027250.640539,-38.0859375,-1000.0,-308.59375,-33.203125,1.0,-1.0,1.0,1.0,7.m4v,2.0
2024-02-27 10:47:30.644445,1709027250.6444447,-47.36328125,-1000.0,-717.28515625,-42.96875,1.0,-1.0,1.0,1.0,7.m4v,2.0
2024-02-27 10:47:30.648350,1709027250.6483502,-39.0625,-1000.0,-619.140625,-44.921875,1.0,-1.0,1.0,1.0,7.m4v,2.0
2024-02-27 10:47:30.652256,1709027250.652256,-24.90234375,-937.5,11.71875,-34.1796875,1.0,-1.0,1.0,1.0,7.m4v,2.0
2024-02-27 10:47:30.656162,1709027250.6561618,-20.99609375,-1000.0,45.8984375,-28.80859375,1.0,-1.0,1.0,1.0,7.m4v,2.0
2024-02-27 10:47:30.660067,1709027250.660067,-23.4375,-218.26171875,174.8046875,-28.3203125,1.0,-1.0,1.0,1.0,7.m4v,2.0
2024-02-27 10:47:30.663973,1709027250.663973,-18.5546875,999.51171875,178.22265625,-28.80859375,1.0,-1.0,1.0,1.0,7.m4v,2.0
2024-02-27 10:47:30.667879,1709027250.6678786,-27.83203125,953.125,-393.5546875,-29.296875,1.0,-1.0,1.0,1.0,7.m4v,2.0
2024-02-27 10:47:30.671784,1709027250.6717844,-24.90234375,942.3828125,-295.41015625,-27.34375,1.0,-1.0,1.0,1.0,7.m4v,2.0
2024-02-27 10:47:30.675690,1709027250.67569,-20.5078125,976.5625,167.96875,-34.1796875,1.0,-1.0,1.0,1.0,7.m4v,2.0
2024-02-27 10:47:30.679596,1709027250.6795957,-45.41015625,969.7265625,22.94921875,-44.921875,1.0,-1.0,1.0,1.0,7.m4v,2.0
2024-02-27 10:47:30.683501,1709027250.6835015,-51.26953125,969.7265625,-274.4140625,-49.31640625,1.0,-1.0,1.0,1.0,7.m4v,2.0
2024-02-27 10:47:30.687410,1709027250.68741,-44.921875,969.7265625,-316.89453125,-41.50390625,1.0,-1.0,1.0,1.0,7.m4v,2.0
2024-02-27 10:47:30.691316,1709027250.691316,-40.52734375,969.7265625,-131.34765625,-43.45703125,1.0,-1.0,1.0,1.0,7.m4v,2.0
2024-02-27 10:47:30.695221,1709027250.6952214,-25.390625,969.7265625,270.99609375,-41.015625,1.0,-1.0,1.0,1.0,7.m4v,2.0
2024-02-27 10:47:30.699127,1709027250.6991272,-22.94921875,969.7265625,263.18359375,-44.43359375,1.0,-1.0,1.0,1.0,7.m4v,2.0
2024-02-27 10:47:30.703033,1709027250.7030327,-27.83203125,983.88671875,-110.3515625,-48.33984375,1.0,-1.0,1.0,1.0,7.m4v,2.0
2024-02-27 10:47:30.706939,1709027250.7069385,-14.6484375,901.3671875,3.41796875,-42.96875,1.0,-1.0,1.0,1.0,7.m4v,2.0
2024-02-27 10:47:30.710844,1709027250.7108445,-20.99609375,999.51171875,417.48046875,-49.31640625,1.0,-1.0,1.0,1.0,7.m4v,2.0
2024-02-27 10:47:30.714750,1709027250.7147498,-20.01953125,591.796875,517.578125,-49.31640625,1.0,-1.0,1.0,1.0,7.m4v,2.0
2024-02-27 10:47:30.718656,1709027250.7186556,-23.92578125,-831.0546875,133.30078125,-50.29296875,1.0,-1.0,1.0,1.0,7.m4v,2.0
2024-02-27 10:47:30.722561,1709027250.7225611,-46.38671875,-1000.0,-404.78515625,-43.9453125,1.0,-1.0,1.0,1.0,7.m4v,2.0
2024-02-27 10:47:30.726467,1709027250.726467,-43.9453125,-943.359375,-575.68359375,-46.38671875,1.0,-1.0,1.0,1.0,7.m4v,2.0
2024-02-27 10:47:30.730373,1709027250.730373,-43.9453125,-1000.0,-372.0703125,-49.8046875,1.0,-1.0,1.0,1.0,7.m4v,2.0
2024-02-27 10:47:30.734281,1709027250.7342813,-29.78515625,-1000.0,74.70703125,-29.296875,1.0,-1.0,1.0,1.0,7.m4v,2.0
2024-02-27 10:47:30.738187,1709027250.7381868,-6.34765625,-1000.0,242.67578125,-20.99609375,1.0,-1.0,1.0,1.0,7.m4v,2.0
2024-02-27 10:47:30.742093,1709027250.7420926,-9.765625,-984.375,-106.4453125,-33.69140625,1.0,-1.0,1.0,1.0,7.m4v,2.0
2024-02-27 10:47:30.745998,1709027250.745998,-30.2734375,-964.35546875,-333.984375,-42.96875,1.0,-1.0,1.0,1.0,7.m4v,2.0
2024-02-27 10:47:30.749904,1709027250.749904,-23.4375,-1000.0,-203.61328125,-41.9921875,1.0,-1.0,1.0,1.0,7.m4v,2.0
2024-02-27 10:47:30.753810,1709027250.7538097,-10.25390625,34.66796875,560.05859375,-30.2734375,1.0,-1.0,1.0,1.0,7.m4v,2.0
2024-02-27 10:47:30.757715,1709027250.7577152,-15.13671875,999.51171875,973.14453125,-21.484375,1.0,-1.0,1.0,1.0,7.m4v,2.0
2024-02-27 10:47:30.761621,1709027250.761621,-20.01953125,922.36328125,333.49609375,-32.71484375,1.0,-1.0,1.0,1.0,7.m4v,2.0
2024-02-27 10:47:30.765527,1709027250.7655263,-28.80859375,960.44921875,-173.828125,-40.52734375,1.0,-1.0,1.0,1.0,7.m4v,2.0
2024-02-27 10:47:30.769432,1709027250.7694323,-30.76171875,972.16796875,182.12890625,-42.48046875,1.0,-1.0,1.0,1.0,7.m4v,2.0
2024-02-27 10:47:30.773338,1709027250.7733378,-18.06640625,969.7265625,589.84375,-34.1796875,1.0,-1.0,1.0,1.0,7.m4v,2.0
2024-02-27 10:47:30.777244,1709027250.7772436,-18.5546875,969.7265625,575.1953125,-32.2265625,1.0,-1.0,1.0,1.0,7.m4v,2.0
2024-02-27 10:47:30.781152,1709027250.781152,-31.25,969.7265625,260.7421875,-40.52734375,1.0,-1.0,1.0,1.0,7.m4v,2.0
2024-02-27 10:47:30.785058,1709027250.7850578,-28.80859375,969.7265625,-133.7890625,-31.25,1.0,-1.0,1.0,1.0,7.m4v,2.0
2024-02-27 10:47:30.788963,1709027250.7889633,-26.85546875,969.7265625,-74.70703125,-21.97265625,1.0,-1.0,1.0,1.0,7.m4v,2.0
2024-02-27 10:47:30.792869,1709027250.792869,-29.296875,970.21484375,333.984375,-18.5546875,1.0,-1.0,1.0,1.0,7.m4v,2.0
2024-02-27 10:47:30.796775,1709027250.7967749,-7.32421875,968.75,582.03125,-25.390625,1.0,-1.0,1.0,1.0,7.m4v,2.0
2024-02-27 10:47:30.800680,1709027250.8006804,-4.39453125,909.1796875,628.41796875,-31.73828125,1.0,-1.0,1.0,1.0,7.m4v,2.0
2024-02-27 10:47:31.202987,1709027251.2029867,-39.0625,-1000.0,-462.890625,-49.8046875,1.0,-1.0,1.0,1.0,7.m4v,2.0
2024-02-27 10:47:31.206892,1709027251.2068925,-43.45703125,-1000.0,-646.97265625,-41.9921875,1.0,-1.0,1.0,1.0,7.m4v,2.0
2024-02-27 10:47:31.210798,1709027251.210798,-54.19921875,-1000.0,-527.34375,-31.73828125,1.0,-1.0,1.0,1.0,7.m4v,2.0
2024-02-27 10:47:31.214704,1709027251.2147038,-35.15625,-928.7109375,-104.00390625,-32.71484375,1.0,-1.0,1.0,1.0,7.m4v,2.0
2024-02-27 10:47:31.218609,1709027251.218609,-16.11328125,-1000.0,41.015625,-40.52734375,1.0,-1.0,1.0,1.0,7.m4v,2.0
2024-02-27 10:47:31.222515,1709027251.222515,-12.6953125,-407.71484375,-5.37109375,-32.2265625,1.0,-1.0,1.0,1.0,7.m4v,2.0
2024-02-27 10:47:31.226421,1709027251.2264209,-16.6015625,964.84375,132.32421875,-32.71484375,1.0,-1.0,1.0,1.0,7.m4v,2.0
2024-02-27 10:47:31.230326,1709027251.2303264,-28.3203125,986.81640625,0.0,-28.80859375,1.0,-1.0,1.0,1.0,7.m4v,2.0
2024-02-27 10:47:31.234232,1709027251.2342322,-30.76171875,927.24609375,170.8984375,-23.92578125,1.0,-1.0,1.0,1.0,7.m4v,2.0
2024-02-27 10:47:31.238138,1709027251.2381375,-19.04296875,981.4453125,256.8359375,-29.296875,1.0,-1.0,1.0,1.0,7.m4v,2.0
2024-02-27 10:47:31.242043,1709027251.2420435,-19.53125,969.7265625,-95.703125,-29.296875,1.0,-1.0,1.0,1.0,7.m4v,2.0
2024-02-27 10:47:31.245949,1709027251.245949,-30.2734375,969.7265625,-366.2109375,-39.55078125,1.0,-1.0,1.0,1.0,7.m4v,2.0
2024-02-27 10:47:31.249857,1709027251.2498572,-23.4375,969.7265625,-109.86328125,-35.64453125,1.0,-1.0,1.0,1.0,7.m4v,2.0
2024-02-27 10:47:31.253763,1709027251.253763,-18.06640625,969.7265625,291.015625,-26.3671875,1.0,-1.0,1.0,1.0,7.m4v,2.0
2024-02-27 10:47:31.257669,1709027251.2576687,-21.484375,969.7265625,287.59765625,-25.87890625,1.0,-1.0,1.0,1.0,7.m4v,2.0
2024-02-27 10:47:31.261574,1709027251.2615745,-16.6015625,970.21484375,86.9140625,-25.87890625,1.0,-1.0,1.0,1.0,7.m4v,2.0
2024-02-27 10:47:31.265480,1709027251.26548,-17.08984375,970.21484375,-233.3984375,-32.71484375,1.0,-1.0,1.0,1.0,7.m4v,2.0
2024-02-27 10:47:31.269386,1709027251.2693856,-21.484375,973.14453125,-48.33984375,-26.85546875,1.0,-1.0,1.0,1.0,7.m4v,2.0
2024-02-27 10:47:31.273291,1709027251.273291,-15.13671875,903.80859375,521.97265625,-16.6015625,1.0,-1.0,1.0,1.0,7.m4v,2.0
2024-02-27 10:47:31.277197,1709027251.2771971,-15.625,999.51171875,472.65625,-23.92578125,1.0,-1.0,1.0,1.0,7.m4v,2.0
2024-02-27 10:47:31.281103,1709027251.281103,-17.578125,248.53515625,-58.10546875,-30.76171875,1.0,-1.0,1.0,1.0,7.m4v,2.0
2024-02-27 10:47:31.285008,1709027251.2850084,-39.0625,-1000.0,-547.8515625,-31.25,1.0,-1.0,1.0,1.0,7.m4v,2.0
2024-02-27 10:47:31.288914,1709027251.288914,-49.31640625,-994.140625,-637.20703125,-24.90234375,1.0,-1.0,1.0,1.0,7.m4v,2.0
2024-02-27 10:47:31.292820,1709027251.2928195,-37.59765625,-968.26171875,-366.69921875,-15.13671875,1.0,-1.0,1.0,1.0,7.m4v,2.0
2024-02-27 10:47:31.296727,1709027251.2967272,-36.62109375,-1000.0,-55.17578125,-11.71875,1.0,-1.0,1.0,1.0,7.m4v,2.0
2024-02-27 10:47:31.300633,1709027251.300633,-32.2265625,-1000.0,-148.92578125,-20.5078125,1.0,-1.0,1.0,1.0,7.m4v,2.0
2024-02-27 10:47:31.304538,1709027251.3045385,-33.203125,-999.0234375,-536.62109375,-28.3203125,1.0,-1.0,1.0,1.0,7.m4v,2.0
2024-02-27 10:47:31.308444,1709027251.3084445,-41.50390625,-940.4296875,-478.02734375,-31.25,1.0,-1.0,1.0,1.0,7.m4v,2.0
2024-02-27 10:47:31.312350,1709027251.31235,-31.73828125,-1000.0,-75.68359375,-24.4140625,1.0,-1.0,1.0,1.0,7.m4v,2.0
2024-02-27 10:47:31.316256,1709027251.3162556,-20.99609375,-186.03515625,532.71484375,-8.7890625,1.0,-1.0,1.0,1.0,7.m4v,2.0
2024-02-27 10:47:31.320161,1709027251.320161,-26.3671875,999.51171875,775.390625,-24.4140625,1.0,-1.0,1.0,1.0,7.m4v,2.0
2024-02-27 10:47:31.324067,1709027251.3240669,-32.2265625,949.21875,-39.0625,-45.8984375,1.0,-1.0,1.0,1.0,7.m4v,2.0
2024-02-27 10:47:31.327973,1709027251.327973,-29.296875,945.3125,-502.44140625,-42.96875,1.0,-1.0,1.0,1.0,7.m4v,2.0
2024-02-27 10:47:31.331878,1709027251.3318782,-33.69140625,975.5859375,-161.1328125,-31.73828125,1.0,-1.0,1.0,1.0,7.m4v,2.0
2024-02-27 10:47:31.335784,1709027251.335784,-40.52734375,969.7265625,211.42578125,-32.2265625,1.0,-1.0,1.0,1.0,7.m4v,2.0
2024-02-27 10:47:31.339690,1709027251.3396895,-42.48046875,969.7265625,7.32421875,-38.57421875,1.0,-1.0,1.0,1.0,7.m4v,2.0
2024-02-27 10:47:31.343597,1709027251.3435972,-28.80859375,969.7265625,-407.71484375,-38.57421875,1.0,-1.0,1.0,1.0,7.m4v,2.0
2024-02-27 10:47:31.347503,1709027251.3475027,-28.80859375,969.7265625,-451.171875,-40.52734375,1.0,-1.0,1.0,1.0,7.m4v,2.0
2024-02-27 10:47:31.351408,1709027251.3514085,-42.48046875,969.7265625,-170.41015625,-32.71484375,1.0,-1.0,1.0,1.0,7.m4v,2.0
2024-02-27 10:47:31.355314,1709027251.3553145,-33.203125,969.7265625,243.65234375,-37.59765625,1.0,-1.0,1.0,1.0,7.m4v,2.0
2024-02-27 10:47:31.359220,1709027251.3592198,-20.99609375,971.19140625,223.6328125,-35.64453125,1.0,-1.0,1.0,1.0,7.m4v,2.0
2024-02-27 10:47:31.363126,1709027251.3631256,-23.4375,964.35546875,219.7265625,-29.78515625,1.0,-1.0,1.0,1.0,7.m4v,2.0
2024-02-27 10:47:31.367031,1709027251.367031,-37.59765625,916.9921875,200.68359375,-37.109375,1.0,-1.0,1.0,1.0,7.m4v,2.0
2024-02-27 10:47:31.370937,1709027251.3709369,-39.0625,999.51171875,50.29296875,-33.69140625,1.0,-1.0,1.0,1.0,7.m4v,2.0
2024-02-27 10:47:31.374843,1709027251.3748426,-39.0625,87.890625,73.2421875,-35.64453125,1.0,-1.0,1.0,1.0,7.m4v,2.0
2024-02-27 10:47:31.378748,1709027251.3787482,-37.109375,-1000.0,-178.22265625,-46.875,1.0,-1.0,1.0,1.0,7.m4v,2.0
2024-02-27 10:47:31.382654,1709027251.382654,-26.3671875,-971.19140625,-444.3359375,-58.59375,1.0,-1.0,1.0,1.0,7.m4v,2.0
2024-02-27 10:47:31.386559,1709027251.3865595,-39.55078125,-980.46875,-590.8203125,-51.26953125,1.0,-1.0,1.0,1.0,7.m4v,2.0
2024-02-27 10:47:31.390469,1709027251.3904688,-43.9453125,-1000.0,-511.71875,-41.015625,1.0,-1.0,1.0,1.0,7.m4v,2.0
2024-02-27 10:47:31.394374,1709027251.3943744,-27.34375,-1000.0,-120.60546875,-43.45703125,1.0,-1.0,1.0,1.0,7.m4v,2.0
2024-02-27 10:47:31.398280,1709027251.39828,-18.5546875,-1000.0,16.6015625,-37.59765625,1.0,-1.0,1.0,1.0,7.m4v,2.0
2024-02-27 10:47:31.402186,1709027251.4021857,-31.25,-929.6875,-320.80078125,-28.80859375,1.0,-1.0,1.0,1.0,7.m4v,2.0
2024-02-27 10:47:31.406091,1709027251.4060917,-39.55078125,-1000.0,-681.640625,-48.828125,1.0,-1.0,1.0,1.0,7.m4v,2.0
2024-02-27 10:47:31.409997,1709027251.409997,-35.64453125,-376.953125,-279.296875,-44.921875,1.0,-1.0,1.0,1.0,7.m4v,2.0
2024-02-27 10:47:31.413903,1709027251.4139028,-20.5078125,978.02734375,565.4296875,-20.5078125,1.0,-1.0,1.0,1.0,7.m4v,2.0
2024-02-27 10:47:31.417809,1709027251.4178083,-20.99609375,980.95703125,535.64453125,-37.59765625,1.0,-1.0,1.0,1.0,7.m4v,2.0
2024-02-27 10:47:31.421714,1709027251.421714,-28.80859375,929.6875,-7.8125,-44.921875,1.0,-1.0,1.0,1.0,7.m4v,2.0
2024-02-27 10:47:31.425620,1709027251.4256198,-31.25,980.95703125,-353.02734375,-41.9921875,1.0,-1.0,1.0,1.0,7.m4v,2.0
2024-02-27 10:47:31.429525,1709027251.4295254,-33.69140625,969.7265625,-226.07421875,-41.50390625,1.0,-1.0,1.0,1.0,7.m4v,2.0
2024-02-27 10:47:31.433431,1709027251.4334311,-31.25,970.703125,100.5859375,-36.62109375,1.0,-1.0,1.0,1.0,7.m4v,2.0
2024-02-27 10:47:31.437340,1709027251.43734,-22.94921875,968.75,172.8515625,-38.57421875,1.0,-1.0,1.0,1.0,7.m4v,2.0
2024-02-27 10:47:31.441246,1709027251.4412458,-16.6015625,910.15625,-95.703125,-33.69140625,1.0,-1.0,1.0,1.0,7.m4v,2.0
2024-02-27 10:47:31.445151,1709027251.445151,-35.15625,999.51171875,-473.6328125,-38.0859375,1.0,-1.0,1.0,1.0,7.m4v,2.0
2024-02-27 10:47:31.449057,1709027251.449057,-39.0625,159.66796875,-561.03515625,-46.875,1.0,-1.0,1.0,1.0,7.m4v,2.0
2024-02-27 10:47:31.452963,1709027251.4529629,-32.2265625,-1000.0,-315.4296875,-43.45703125,1.0,-1.0,1.0,1.0,7.m4v,2.0
2024-02-27 10:47:31.456868,1709027251.4568684,-27.83203125,-980.46875,277.34375,-41.50390625,1.0,-1.0,1.0,1.0,7.m4v,2.0
2024-02-27 10:47:31.460774,1709027251.4607742,-19.04296875,-975.09765625,197.75390625,-43.45703125,1.0,-1.0,1.0,1.0,7.m4v,2.0
2024-02-27 10:47:31.464680,1709027251.4646797,-22.4609375,-1000.0,-510.25390625,-40.52734375,1.0,-1.0,1.0,1.0,7.m4v,2.0
2024-02-27 10:47:31.468585,1709027251.4685855,-36.62109375,-1000.0,-675.78125,-27.34375,1.0,-1.0,1.0,1.0,7.m4v,2.0
2024-02-27 10:47:31.472491,1709027251.472491,-33.69140625,-1000.0,-398.4375,-30.76171875,1.0,-1.0,1.0,1.0,7.m4v,2.0
2024-02-27 10:47:31.476397,1709027251.4763968,-29.78515625,-1000.0,-10.7421875,-41.015625,1.0,-1.0,1.0,1.0,7.m4v,2.0
2024-02-27 10:47:31.480303,1709027251.4803026,-24.90234375,-998.046875,-46.38671875,-29.296875,1.0,-1.0,1.0,1.0,7.m4v,2.0
2024-02-27 10:47:31.484211,1709027251.4842114,-23.92578125,-942.3828125,-411.62109375,-30.2734375,1.0,-1.0,1.0,1.0,7.m4v,2.0
2024-02-27 10:47:31.488117,1709027251.4881172,-29.296875,-1000.0,-491.69921875,-40.0390625,1.0,-1.0,1.0,1.0,7.m4v,2.0
2024-02-27 10:47:31.492023,1709027251.4920228,-17.578125,-171.38671875,-19.04296875,-24.90234375,1.0,-1.0,1.0,1.0,7.m4v,2.0
2024-02-27 10:47:31.495929,1709027251.4959283,-11.23046875,999.51171875,374.0234375,-4.39453125,1.0,-1.0,1.0,1.0,7.m4v,2.0
2024-02-27 10:47:31.499834,1709027251.499834,-17.08984375,947.265625,186.5234375,-27.34375,1.0,-1.0,1.0,1.0,7.m4v,2.0
2024-02-27 10:47:31.503740,1709027251.5037398,-22.94921875,945.80078125,85.44921875,-43.45703125,1.0,-1.0,1.0,1.0,7.m4v,2.0
2024-02-27 10:47:31.507645,1709027251.5076454,-20.5078125,975.5859375,89.35546875,-39.55078125,1.0,-1.0,1.0,1.0,7.m4v,2.0
2024-02-27 10:47:31.511551,1709027251.5115511,-30.76171875,969.7265625,-60.05859375,-47.36328125,1.0,-1.0,1.0,1.0,7.m4v,2.0
2024-02-27 10:47:31.515457,1709027251.515457,-37.109375,970.21484375,50.78125,-48.828125,1.0,-1.0,1.0,1.0,7.m4v,2.0
2024-02-27 10:47:31.519362,1709027251.5193624,-37.109375,969.7265625,-26.3671875,-52.24609375,1.0,-1.0,1.0,1.0,7.m4v,2.0
2024-02-27 10:47:31.523268,1709027251.5232682,-43.9453125,969.7265625,-351.07421875,-49.31640625,1.0,-1.0,1.0,1.0,7.m4v,2.0
2024-02-27 10:47:31.527174,1709027251.5271738,-38.57421875,969.7265625,-336.9140625,-42.48046875,1.0,-1.0,1.0,1.0,7.m4v,2.0
2024-02-27 10:47:31.531082,1709027251.5310824,-31.25,969.7265625,-121.58203125,-42.48046875,1.0,-1.0,1.0,1.0,7.m4v,2.0
2024-02-27 10:47:31.534988,1709027251.534988,-38.57421875,969.7265625,210.44921875,-33.203125,1.0,-1.0,1.0,1.0,7.m4v,2.0
2024-02-27 10:47:31.538894,1709027251.5388937,-35.64453125,969.7265625,267.08984375,-26.3671875,1.0,-1.0,1.0,1.0,7.m4v,2.0
2024-02-27 10:47:31.542799,1709027251.5427997,-33.69140625,969.7265625,-154.78515625,-33.69140625,1.0,-1.0,1.0,1.0,7.m4v,2.0
2024-02-27 10:47:31.546705,1709027251.546705,-35.15625,969.7265625,-476.07421875,-39.0625,1.0,-1.0,1.0,1.0,7.m4v,2.0
2024-02-27 10:47:32.359131,1709027252.3591306,-22.4609375,915.52734375,497.0703125,-29.78515625,1.0,-1.0,1.0,1.0,7.m4v,2.0
2024-02-27 10:47:32.363036,1709027252.3630362,-27.83203125,983.88671875,47.36328125,-44.921875,1.0,-1.0,1.0,1.0,7.m4v,2.0
2024-02-27 10:47:32.366942,1709027252.366942,-41.015625,969.7265625,-303.22265625,-40.0390625,1.0,-1.0,1.0,1.0,7.m4v,2.0
2024-02-27 10:47:32.370847,1709027252.3708477,-39.55078125,969.7265625,-0.48828125,-25.87890625,1.0,-1.0,1.0,1.0,7.m4v,2.0
2024-02-27 10:47:32.374756,1709027252.3747556,-33.203125,970.21484375,340.8203125,-19.04296875,1.0,-1.0,1.0,1.0,7.m4v,2.0
2024-02-27 10:47:32.378661,1709027252.3786612,-23.92578125,969.7265625,284.1796875,-33.69140625,1.0,-1.0,1.0,1.0,7.m4v,2.0
2024-02-27 10:47:32.382567,1709027252.382567,-33.69140625,969.7265625,-97.16796875,-39.55078125,1.0,-1.0,1.0,1.0,7.m4v,2.0
2024-02-27 10:47:32.386472,1709027252.3864725,-52.734375,970.21484375,-402.83203125,-42.96875,1.0,-1.0,1.0,1.0,7.m4v,2.0
2024-02-27 10:47:32.390378,1709027252.3903782,-49.31640625,969.7265625,-165.0390625,-44.43359375,1.0,-1.0,1.0,1.0,7.m4v,2.0
2024-02-27 10:47:32.394284,1709027252.394284,-29.296875,908.203125,626.46484375,-29.78515625,1.0,-1.0,1.0,1.0,7.m4v,2.0
2024-02-27 10:47:32.398190,1709027252.3981895,-26.3671875,999.51171875,898.92578125,-32.2265625,1.0,-1.0,1.0,1.0,7.m4v,2.0
2024-02-27 10:47:32.402095,1709027252.4020953,-47.36328125,175.29296875,87.890625,-40.0390625,1.0,-1.0,1.0,1.0,7.m4v,2.0
2024-02-27 10:47:32.406001,1709027252.4060009,-51.7578125,-1000.0,-558.59375,-36.1328125,1.0,-1.0,1.0,1.0,7.m4v,2.0
2024-02-27 10:47:32.409907,1709027252.4099066,-36.1328125,-981.93359375,-556.640625,-41.9921875,1.0,-1.0,1.0,1.0,7.m4v,2.0
2024-02-27 10:47:32.413812,1709027252.4138124,-34.1796875,-974.12109375,-189.453125,-38.0859375,1.0,-1.0,1.0,1.0,7.m4v,2.0
2024-02-27 10:47:32.417718,1709027252.417718,-42.96875,-1000.0,46.38671875,-30.2734375,1.0,-1.0,1.0,1.0,7.m4v,2.0
2024-02-27 10:47:32.421625,1709027252.4216254,-33.69140625,-1000.0,-258.7890625,-38.57421875,1.0,-1.0,1.0,1.0,7.m4v,2.0
2024-02-27 10:47:32.425531,1709027252.4255311,-28.3203125,-1000.0,-525.87890625,-39.0625,1.0,-1.0,1.0,1.0,7.m4v,2.0
2024-02-27 10:47:32.429437,1709027252.429437,-27.83203125,-1000.0,-469.7265625,-35.64453125,1.0,-1.0,1.0,1.0,7.m4v,2.0
2024-02-27 10:47:32.433342,1709027252.4333425,-30.2734375,-937.98828125,-64.453125,-29.296875,1.0,-1.0,1.0,1.0,7.m4v,2.0
2024-02-27 10:47:32.437248,1709027252.4372482,-34.66796875,-1000.0,132.8125,-35.15625,1.0,-1.0,1.0,1.0,7.m4v,2.0
2024-02-27 10:47:32.441154,1709027252.4411538,-20.99609375,-213.37890625,342.7734375,-41.015625,1.0,-1.0,1.0,1.0,7.m4v,2.0
2024-02-27 10:47:32.445060,1709027252.4450595,-26.3671875,999.51171875,353.02734375,-32.2265625,1.0,-1.0,1.0,1.0,7.m4v,2.0
2024-02-27 10:47:32.448965,1709027252.4489653,-40.52734375,952.63671875,-24.90234375,-26.85546875,1.0,-1.0,1.0,1.0,7.m4v,2.0
2024-02-27 10:47:32.452871,1709027252.4528708,-35.64453125,942.87109375,202.63671875,-34.1796875,1.0,-1.0,1.0,1.0,7.m4v,2.0
2024-02-27 10:47:32.456777,1709027252.4567766,-28.80859375,976.5625,424.8046875,-38.0859375,1.0,-1.0,1.0,1.0,7.m4v,2.0
2024-02-27 10:47:32.460682,1709027252.4606822,-35.64453125,969.7265625,174.31640625,-34.66796875,1.0,-1.0,1.0,1.0,7.m4v,2.0
2024-02-27 10:47:32.464588,1709027252.464588,-39.0625,969.7265625,-218.26171875,-38.0859375,1.0,-1.0,1.0,1.0,7.m4v,2.0
2024-02-27 10:47:32.468495,1709027252.4684954,-39.55078125,969.7265625,-302.24609375,-39.55078125,1.0,-1.0,1.0,1.0,7.m4v,2.0
2024-02-27 10:47:32.472401,1709027252.472401,-24.4140625,969.7265625,-49.31640625,-30.2734375,1.0,-1.0,1.0,1.0,7.m4v,2.0
2024-02-27 10:47:32.476307,1709027252.476307,-21.484375,969.7265625,297.8515625,-23.92578125,1.0,-1.0,1.0,1.0,7.m4v,2.0
2024-02-27 10:47:32.480212,1709027252.4802125,-37.109375,969.7265625,177.24609375,-20.01953125,1.0,-1.0,1.0,1.0,7.m4v,2.0
2024-02-27 10:47:32.484118,1709027252.484118,-20.01953125,976.5625,-196.2890625,-29.78515625,1.0,-1.0,1.0,1.0,7.m4v,2.0
2024-02-27 10:47:32.488024,1709027252.4880238,-15.13671875,938.96484375,-72.75390625,-27.34375,1.0,-1.0,1.0,1.0,7.m4v,2.0
2024-02-27 10:47:32.491929,1709027252.4919293,-29.296875,969.7265625,190.91796875,-23.4375,1.0,-1.0,1.0,1.0,7.m4v,2.0
2024-02-27 10:47:32.495835,1709027252.495835,-24.90234375,962.890625,235.83984375,-31.25,1.0,-1.0,1.0,1.0,7.m4v,2.0
2024-02-27 10:47:32.499741,1709027252.4997408,-15.625,-277.83203125,46.875,-33.203125,1.0,-1.0,1.0,1.0,7.m4v,2.0
2024-02-27 10:47:32.503646,1709027252.5036464,-36.62109375,-1000.0,-437.01171875,-44.43359375,1.0,-1.0,1.0,1.0,7.m4v,2.0
2024-02-27 10:47:32.507552,1709027252.507552,-58.59375,-945.3125,-676.7578125,-47.8515625,1.0,-1.0,1.0,1.0,7.m4v,2.0
2024-02-27 10:47:32.511458,1709027252.5114577,-46.38671875,-999.51171875,-295.8984375,-30.76171875,1.0,-1.0,1.0,1.0,7.m4v,2.0
2024-02-27 10:47:32.515365,1709027252.5153651,-28.80859375,-1000.0,181.640625,-25.87890625,1.0,-1.0,1.0,1.0,7.m4v,2.0
2024-02-27 10:47:32.519271,1709027252.519271,-37.59765625,-1000.0,55.6640625,-30.76171875,1.0,-1.0,1.0,1.0,7.m4v,2.0
2024-02-27 10:47:32.523176,1709027252.5231764,-37.109375,-1000.0,-232.91015625,-35.15625,1.0,-1.0,1.0,1.0,7.m4v,2.0
2024-02-27 10:47:32.527082,1709027252.527082,-32.2265625,-937.98828125,-369.140625,-27.34375,1.0,-1.0,1.0,1.0,7.m4v,2.0
2024-02-27 10:47:32.530988,1709027252.5309875,-32.71484375,-1000.0,-265.13671875,-17.578125,1.0,-1.0,1.0,1.0,7.m4v,2.0
2024-02-27 10:47:32.534893,1709027252.5348933,-20.99609375,-211.9140625,358.3984375,-26.85546875,1.0,-1.0,1.0,1.0,7.m4v,2.0
2024-02-27 10:47:32.538799,1709027252.538799,-8.7890625,999.51171875,802.24609375,-22.4609375,1.0,-1.0,1.0,1.0,7.m4v,2.0
2024-02-27 10:47:32.542705,1709027252.5427048,-19.04296875,952.1484375,213.37890625,-23.92578125,1.0,-1.0,1.0,1.0,7.m4v,2.0
2024-02-27 10:47:32.546610,1709027252.5466104,-39.0625,942.87109375,-349.609375,-43.45703125,1.0,-1.0,1.0,1.0,7.m4v,2.0
2024-02-27 10:47:32.550516,1709027252.550516,-44.921875,976.5625,-308.59375,-40.0390625,1.0,-1.0,1.0,1.0,7.m4v,2.0
2024-02-27 10:47:32.554422,1709027252.5544217,-30.2734375,969.7265625,167.48046875,-24.4140625,1.0,-1.0,1.0,1.0,7.m4v,2.0
2024-02-27 10:47:32.558327,1709027252.5583274,-19.53125,969.7265625,345.703125,-26.85546875,1.0,-1.0,1.0,1.0,7.m4v,2.0
2024-02-27 10:47:32.562237,1709027252.5622363,-32.2265625,970.21484375,0.9765625,-33.69140625,1.0,-1.0,1.0,1.0,7.m4v,2.0
2024-02-27 10:47:32.566142,1709027252.566142,-31.25,969.7265625,-396.484375,-42.96875,1.0,-1.0,1.0,1.0,7.m4v,2.0
2024-02-27 10:47:32.570048,1709027252.570048,-21.484375,969.7265625,-299.31640625,-43.45703125,1.0,-1.0,1.0,1.0,7.m4v,2.0
2024-02-27 10:47:32.573953,1709027252.5739534,-28.3203125,970.703125,288.57421875,-28.3203125,1.0,-1.0,1.0,1.0,7.m4v,2.0
2024-02-27 10:47:32.577859,1709027252.5778592,-31.25,969.23828125,416.015625,-31.73828125,1.0,-1.0,1.0,1.0,7.m4v,2.0
2024-02-27 10:47:32.581765,1709027252.5817647,-20.5078125,909.1796875,416.015625,-38.0859375,1.0,-1.0,1.0,1.0,7.m4v,2.0
2024-02-27 10:47:32.585670,1709027252.5856705,-20.01953125,999.51171875,349.12109375,-23.92578125,1.0,-1.0,1.0,1.0,7.m4v,2.0
2024-02-27 10:47:32.589576,1709027252.5895762,-46.38671875,164.0625,-211.9140625,-28.80859375,1.0,-1.0,1.0,1.0,7.m4v,2.0
2024-02-27 10:47:32.593482,1709027252.5934818,-51.26953125,-1000.0,-327.1484375,-36.62109375,1.0,-1.0,1.0,1.0,7.m4v,2.0
2024-02-27 10:47:32.597388,1709027252.5973876,-35.15625,-980.46875,62.5,-29.296875,1.0,-1.0,1.0,1.0,7.m4v,2.0
2024-02-27 10:47:32.601293,1709027252.601293,-32.71484375,-975.09765625,-39.0625,-35.15625,1.0,-1.0,1.0,1.0,7.m4v,2.0
2024-02-27 10:47:32.605199,1709027252.6051989,-38.57421875,-1000.0,-429.6875,-42.96875,1.0,-1.0,1.0,1.0,7.m4v,2.0
2024-02-27 10:47:32.609107,1709027252.6091075,-42.48046875,-1000.0,-561.5234375,-49.31640625,1.0,-1.0,1.0,1.0,7.m4v,2.0
2024-02-27 10:47:32.613013,1709027252.6130133,-42.96875,-1000.0,-278.80859375,-31.73828125,1.0,-1.0,1.0,1.0,7.m4v,2.0
2024-02-27 10:47:32.616919,1709027252.6169188,-46.38671875,-999.51171875,55.17578125,-31.73828125,1.0,-1.0,1.0,1.0,7.m4v,2.0
2024-02-27 10:47:32.620825,1709027252.6208246,-45.8984375,-939.94140625,-86.9140625,-42.48046875,1.0,-1.0,1.0,1.0,7.m4v,2.0
2024-02-27 10:47:32.624730,1709027252.62473,-38.0859375,-1000.0,-410.64453125,-44.921875,1.0,-1.0,1.0,1.0,7.m4v,2.0
2024-02-27 10:47:32.628636,1709027252.628636,-27.83203125,-192.87109375,-202.63671875,-50.29296875,1.0,-1.0,1.0,1.0,7.m4v,2.0
2024-02-27 10:47:32.640353,1709027252.640353,-40.52734375,944.3359375,145.99609375,-44.43359375,1.0,-1.0,1.0,1.0,7.m4v,2.0
2024-02-27 10:47:32.648164,1709027252.6481645,-48.828125,969.7265625,-356.4453125,-42.48046875,1.0,-1.0,1.0,1.0,7.m4v,2.0
2024-02-27 10:47:32.655978,1709027252.6559784,-45.8984375,969.7265625,195.80078125,-32.71484375,1.0,-1.0,1.0,1.0,7.m4v,2.0
2024-02-27 10:47:32.663790,1709027252.6637895,-43.9453125,969.7265625,-354.98046875,-35.15625,1.0,-1.0,1.0,1.0,7.m4v,2.0
2024-02-27 10:47:32.671601,1709027252.671601,-41.50390625,958.49609375,-244.140625,-33.203125,1.0,-1.0,1.0,1.0,7.m4v,2.0
2024-02-27 10:47:32.679412,1709027252.6794124,-14.16015625,999.51171875,641.6015625,-27.34375,1.0,-1.0,1.0,1.0,7.m4v,2.0
2024-02-27 10:47:32.687224,1709027252.6872237,-36.1328125,-1000.0,-824.70703125,-38.57421875,1.0,-1.0,1.0,1.0,7.m4v,2.0
2024-02-27 10:47:32.695035,1709027252.695035,-30.76171875,-985.83984375,83.0078125,-22.94921875,1.0,-1.0,1.0,1.0,7.m4v,2.0
2024-02-27 10:47:32.702849,1709027252.702849,-47.8515625,-1000.0,-390.13671875,-36.1328125,1.0,-1.0,1.0,1.0,7.m4v,2.0
2024-02-27 10:47:32.710660,1709027252.7106602,-47.8515625,-1000.0,-450.1953125,-35.15625,1.0,-1.0,1.0,1.0,7.m4v,2.0
2024-02-27 10:47:32.718472,1709027252.7184715,-26.85546875,-1000.0,-7.8125,-23.4375,1.0,-1.0,1.0,1.0,7.m4v,2.0
2024-02-27 10:47:32.726283,1709027252.726283,-25.390625,848.6328125,-62.98828125,-34.1796875,1.0,-1.0,1.0,1.0,7.m4v,2.0
2024-02-27 10:47:32.734094,1709027252.7340944,-30.76171875,915.0390625,148.92578125,-18.5546875,1.0,-1.0,1.0,1.0,7.m4v,2.0
2024-02-27 10:47:32.741906,1709027252.7419057,-28.3203125,969.7265625,80.078125,-37.59765625,1.0,-1.0,1.0,1.0,7.m4v,2.0
2024-02-27 10:47:32.749719,1709027252.7497194,-11.71875,969.7265625,-158.69140625,-45.41015625,1.0,-1.0,1.0,1.0,7.m4v,2.0
2024-02-27 10:47:32.757531,1709027252.7575307,-17.08984375,969.7265625,450.1953125,-15.13671875,1.0,-1.0,1.0,1.0,7.m4v,2.0
2024-02-27 10:47:32.765342,1709027252.765342,-56.640625,973.6328125,-357.91015625,-54.19921875,1.0,-1.0,1.0,1.0,7.m4v,2.0
2024-02-27 10:47:33.265298,1709027253.2652984,-38.0859375,-1000.0,-249.51171875,-42.48046875,1.0,-1.0,1.0,1.0,7.m4v,2.0
2024-02-27 10:47:33.269204,1709027253.269204,-42.96875,-1000.0,-280.76171875,-44.921875,1.0,-1.0,1.0,1.0,7.m4v,2.0
2024-02-27 10:47:33.273110,1709027253.2731097,-30.76171875,-999.0234375,37.59765625,-41.9921875,1.0,-1.0,1.0,1.0,7.m4v,2.0
2024-02-27 10:47:33.277015,1709027253.2770154,-29.78515625,-940.4296875,436.03515625,-26.3671875,1.0,-1.0,1.0,1.0,7.m4v,2.0
2024-02-27 10:47:33.280921,1709027253.280921,-45.41015625,-1000.0,248.046875,-23.92578125,1.0,-1.0,1.0,1.0,7.m4v,2.0
2024-02-27 10:47:33.284827,1709027253.2848268,-34.66796875,-187.01171875,268.06640625,-32.71484375,1.0,-1.0,1.0,1.0,7.m4v,2.0
2024-02-27 10:47:33.288733,1709027253.2887323,-25.87890625,999.51171875,562.98828125,-38.0859375,1.0,-1.0,1.0,1.0,7.m4v,2.0
2024-02-27 10:47:33.292638,1709027253.292638,-36.1328125,949.21875,605.95703125,-41.015625,1.0,-1.0,1.0,1.0,7.m4v,2.0
2024-02-27 10:47:33.296544,1709027253.2965438,-26.3671875,944.82421875,748.53515625,-35.64453125,1.0,-1.0,1.0,1.0,7.m4v,2.0
2024-02-27 10:47:33.300449,1709027253.3004494,-32.2265625,975.5859375,377.9296875,-41.9921875,1.0,-1.0,1.0,1.0,7.m4v,2.0
2024-02-27 10:47:33.304355,1709027253.3043551,-52.734375,969.7265625,-84.9609375,-46.38671875,1.0,-1.0,1.0,1.0,7.m4v,2.0
2024-02-27 10:47:33.308261,1709027253.308261,-48.33984375,969.7265625,-167.48046875,-47.8515625,1.0,-1.0,1.0,1.0,7.m4v,2.0
2024-02-27 10:47:33.312170,1709027253.3121696,-37.59765625,969.7265625,125.48828125,-49.31640625,1.0,-1.0,1.0,1.0,7.m4v,2.0
2024-02-27 10:47:33.316075,1709027253.316075,-41.50390625,969.7265625,533.203125,-42.48046875,1.0,-1.0,1.0,1.0,7.m4v,2.0
2024-02-27 10:47:33.319981,1709027253.3199809,-38.0859375,969.7265625,418.45703125,-38.57421875,1.0,-1.0,1.0,1.0,7.m4v,2.0
2024-02-27 10:47:33.323887,1709027253.3238866,-28.80859375,969.7265625,60.546875,-42.96875,1.0,-1.0,1.0,1.0,7.m4v,2.0
2024-02-27 10:47:33.327792,1709027253.3277922,-45.8984375,969.7265625,-48.33984375,-40.52734375,1.0,-1.0,1.0,1.0,7.m4v,2.0
2024-02-27 10:47:33.331698,1709027253.331698,-55.6640625,969.7265625,388.671875,-35.64453125,1.0,-1.0,1.0,1.0,7.m4v,2.0
2024-02-27 10:47:33.335604,1709027253.3356037,-31.73828125,974.12109375,923.33984375,-33.69140625,1.0,-1.0,1.0,1.0,7.m4v,2.0
2024-02-27 10:47:33.339509,1709027253.3395092,-29.296875,951.171875,610.83984375,-28.3203125,1.0,-1.0,1.0,1.0,7.m4v,2.0
2024-02-27 10:47:33.343415,1709027253.343415,-40.52734375,941.40625,96.19140625,-35.15625,1.0,-1.0,1.0,1.0,7.m4v,2.0
2024-02-27 10:47:33.347321,1709027253.3473206,-39.0625,999.51171875,-127.9296875,-32.71484375,1.0,-1.0,1.0,1.0,7.m4v,2.0
2024-02-27 10:47:33.351226,1709027253.3512263,-37.59765625,-95.703125,58.59375,-28.80859375,1.0,-1.0,1.0,1.0,7.m4v,2.0
2024-02-27 10:47:33.355132,1709027253.355132,-31.73828125,-1000.0,467.28515625,-26.85546875,1.0,-1.0,1.0,1.0,7.m4v,2.0
2024-02-27 10:47:33.359041,1709027253.3590407,-36.62109375,-954.58984375,372.55859375,-24.90234375,1.0,-1.0,1.0,1.0,7.m4v,2.0
2024-02-27 10:47:33.362946,1709027253.3629465,-38.57421875,-991.2109375,-68.84765625,-31.73828125,1.0,-1.0,1.0,1.0,7.m4v,2.0
2024-02-27 10:47:33.366852,1709027253.366852,-42.96875,-1000.0,-295.8984375,-27.34375,1.0,-1.0,1.0,1.0,7.m4v,2.0
2024-02-27 10:47:33.370758,1709027253.3707576,-44.921875,-928.22265625,-63.4765625,-27.83203125,1.0,-1.0,1.0,1.0,7.m4v,2.0
2024-02-27 10:47:33.374663,1709027253.3746634,-35.15625,-1000.0,289.55078125,-27.83203125,1.0,-1.0,1.0,1.0,7.m4v,2.0
2024-02-27 10:47:33.378569,1709027253.3785691,-13.18359375,-437.98828125,676.26953125,-18.5546875,1.0,-1.0,1.0,1.0,7.m4v,2.0
2024-02-27 10:47:33.382475,1709027253.382475,-4.39453125,948.2421875,639.6484375,-13.18359375,1.0,-1.0,1.0,1.0,7.m4v,2.0
2024-02-27 10:47:33.386380,1709027253.3863804,-28.3203125,992.1875,88.8671875,-20.5078125,1.0,-1.0,1.0,1.0,7.m4v,2.0
2024-02-27 10:47:33.390286,1709027253.390286,-38.57421875,924.8046875,-136.71875,-19.53125,1.0,-1.0,1.0,1.0,7.m4v,2.0
2024-02-27 10:47:33.394192,1709027253.3941915,-35.15625,982.421875,161.1328125,-17.08984375,1.0,-1.0,1.0,1.0,7.m4v,2.0
2024-02-27 10:47:33.398098,1709027253.3980975,-31.73828125,969.7265625,472.65625,-27.34375,1.0,-1.0,1.0,1.0,7.m4v,2.0
2024-02-27 10:47:33.402003,1709027253.402003,-27.83203125,969.7265625,335.9375,-20.01953125,1.0,-1.0,1.0,1.0,7.m4v,2.0
2024-02-27 10:47:33.405911,1709027253.4059114,-26.3671875,969.7265625,-65.91796875,-7.8125,1.0,-1.0,1.0,1.0,7.m4v,2.0
2024-02-27 10:47:33.409817,1709027253.4098172,-37.109375,969.7265625,-22.4609375,-27.34375,1.0,-1.0,1.0,1.0,7.m4v,2.0
2024-02-27 10:47:33.413723,1709027253.413723,-35.15625,969.7265625,519.53125,-41.015625,1.0,-1.0,1.0,1.0,7.m4v,2.0
2024-02-27 10:47:33.417629,1709027253.4176283,-35.64453125,969.7265625,629.39453125,-28.3203125,1.0,-1.0,1.0,1.0,7.m4v,2.0
2024-02-27 10:47:33.421534,1709027253.4215343,-44.43359375,969.7265625,239.2578125,-36.1328125,1.0,-1.0,1.0,1.0,7.m4v,2.0
2024-02-27 10:47:33.425440,1709027253.4254398,-36.1328125,969.7265625,143.5546875,-43.45703125,1.0,-1.0,1.0,1.0,7.m4v,2.0
2024-02-27 10:47:33.429346,1709027253.4293456,-36.62109375,973.6328125,421.875,-37.59765625,1.0,-1.0,1.0,1.0,7.m4v,2.0
2024-02-27 10:47:33.433251,1709027253.4332511,-41.50390625,903.3203125,472.65625,-38.0859375,1.0,-1.0,1.0,1.0,7.m4v,2.0
2024-02-27 10:47:33.437157,1709027253.437157,-29.78515625,999.51171875,544.921875,-43.45703125,1.0,-1.0,1.0,1.0,7.m4v,2.0
2024-02-27 10:47:33.441063,1709027253.4410627,-34.66796875,256.34765625,286.1328125,-41.9921875,1.0,-1.0,1.0,1.0,7.m4v,2.0
2024-02-27 10:47:33.444968,1709027253.4449682,-39.55078125,-1000.0,-387.6953125,-35.64453125,1.0,-1.0,1.0,1.0,7.m4v,2.0
2024-02-27 10:47:33.448874,1709027253.448874,-34.66796875,-995.1171875,-482.91015625,-39.55078125,1.0,-1.0,1.0,1.0,7.m4v,2.0
2024-02-27 10:47:33.452782,1709027253.4527822,-29.296875,-967.7734375,4.39453125,-33.69140625,1.0,-1.0,1.0,1.0,7.m4v,2.0
2024-02-27 10:47:33.456688,1709027253.4566877,-26.3671875,-1000.0,353.515625,-22.4609375,1.0,-1.0,1.0,1.0,7.m4v,2.0
2024-02-27 10:47:33.460593,1709027253.4605937,-32.71484375,-1000.0,279.296875,-41.50390625,1.0,-1.0,1.0,1.0,7.m4v,2.0
2024-02-27 10:47:33.464499,1709027253.4644992,-26.3671875,-929.6875,-86.9140625,-40.52734375,1.0,-1.0,1.0,1.0,7.m4v,2.0
2024-02-27 10:47:33.468405,1709027253.4684048,-35.64453125,-1000.0,-404.296875,-32.2265625,1.0,-1.0,1.0,1.0,7.m4v,2.0
2024-02-27 10:47:33.472311,1709027253.4723103,-34.66796875,-383.30078125,59.08203125,-35.15625,1.0,-1.0,1.0,1.0,7.m4v,2.0
2024-02-27 10:47:33.476216,1709027253.476216,-19.04296875,975.09765625,906.25,-24.90234375,1.0,-1.0,1.0,1.0,7.m4v,2.0
2024-02-27 10:47:33.480122,1709027253.480122,-9.765625,981.93359375,772.4609375,-20.5078125,1.0,-1.0,1.0,1.0,7.m4v,2.0
2024-02-27 10:47:33.683227,1709027253.6832266,-43.45703125,969.7265625,-41.9921875,-31.25,1.0,-1.0,1.0,1.0,7.m4v,2.0
2024-02-27 10:47:33.687136,1709027253.6871357,-51.26953125,969.7265625,-235.3515625,-32.2265625,1.0,-1.0,1.0,1.0,7.m4v,2.0
2024-02-27 10:47:33.691041,1709027253.6910412,-41.50390625,969.7265625,-265.625,-24.90234375,1.0,-1.0,1.0,1.0,7.m4v,2.0
2024-02-27 10:47:33.694947,1709027253.694947,-35.64453125,969.7265625,68.359375,-7.8125,1.0,-1.0,1.0,1.0,7.m4v,2.0
2024-02-27 10:47:33.698853,1709027253.6988523,-23.92578125,969.7265625,295.8984375,-17.08984375,1.0,-1.0,1.0,1.0,7.m4v,2.0
2024-02-27 10:47:33.702758,1709027253.7027583,-29.296875,974.12109375,-23.92578125,-40.0390625,1.0,-1.0,1.0,1.0,7.m4v,2.0
2024-02-27 10:47:33.706664,1709027253.7066638,-29.296875,951.171875,-4.8828125,-38.57421875,1.0,-1.0,1.0,1.0,7.m4v,2.0
2024-02-27 10:47:33.710570,1709027253.7105696,-18.5546875,939.453125,332.03125,-33.69140625,1.0,-1.0,1.0,1.0,7.m4v,2.0
2024-02-27 10:47:33.714475,1709027253.7144754,-22.4609375,999.51171875,444.3359375,-22.4609375,1.0,-1.0,1.0,1.0,7.m4v,2.0
2024-02-27 10:47:33.718381,1709027253.718381,-26.3671875,-96.6796875,199.70703125,-26.3671875,1.0,-1.0,1.0,1.0,7.m4v,2.0
2024-02-27 10:47:33.722287,1709027253.7222867,-29.78515625,-1000.0,-344.7265625,-40.0390625,1.0,-1.0,1.0,1.0,7.m4v,2.0
2024-02-27 10:47:33.726192,1709027253.7261922,-38.0859375,-951.66015625,-700.68359375,-37.109375,1.0,-1.0,1.0,1.0,7.m4v,2.0
2024-02-27 10:47:33.730098,1709027253.730098,-37.59765625,-992.1875,-627.9296875,-38.57421875,1.0,-1.0,1.0,1.0,7.m4v,2.0
2024-02-27 10:47:33.734007,1709027253.734007,-18.06640625,-1000.0,-220.21484375,-28.80859375,1.0,-1.0,1.0,1.0,7.m4v,2.0
2024-02-27 10:47:33.737912,1709027253.7379124,-15.13671875,-1000.0,26.85546875,-22.4609375,1.0,-1.0,1.0,1.0,7.m4v,2.0
2024-02-27 10:47:33.741818,1709027253.7418182,-33.69140625,-993.1640625,-239.2578125,-31.73828125,1.0,-1.0,1.0,1.0,7.m4v,2.0
2024-02-27 10:47:33.745724,1709027253.7457235,-37.59765625,-949.70703125,-544.43359375,-31.73828125,1.0,-1.0,1.0,1.0,7.m4v,2.0
2024-02-27 10:47:33.749629,1709027253.7496295,-30.76171875,-1000.0,-514.6484375,-27.34375,1.0,-1.0,1.0,1.0,7.m4v,2.0
2024-02-27 10:47:33.753535,1709027253.753535,-25.87890625,-92.7734375,299.31640625,-21.97265625,1.0,-1.0,1.0,1.0,7.m4v,2.0
2024-02-27 10:47:33.757441,1709027253.7574408,-20.99609375,999.51171875,907.2265625,-14.16015625,1.0,-1.0,1.0,1.0,7.m4v,2.0
2024-02-27 10:47:33.761347,1709027253.7613466,-18.06640625,937.01171875,310.546875,-20.5078125,1.0,-1.0,1.0,1.0,7.m4v,2.0
2024-02-27 10:47:33.765252,1709027253.765252,-26.85546875,951.66015625,-274.4140625,-39.55078125,1.0,-1.0,1.0,1.0,7.m4v,2.0
2024-02-27 10:47:33.769158,1709027253.769158,-38.0859375,974.12109375,-312.01171875,-46.38671875,1.0,-1.0,1.0,1.0,7.m4v,2.0
2024-02-27 10:47:33.773063,1709027253.7730634,-18.5546875,969.7265625,140.13671875,-35.64453125,1.0,-1.0,1.0,1.0,7.m4v,2.0
2024-02-27 10:47:33.776969,1709027253.7769692,-21.484375,969.7265625,421.875,-32.71484375,1.0,-1.0,1.0,1.0,7.m4v,2.0
2024-02-27 10:47:33.780878,1709027253.7808776,-41.015625,969.7265625,48.33984375,-42.48046875,1.0,-1.0,1.0,1.0,7.m4v,2.0
2024-02-27 10:47:33.784783,1709027253.7847834,-36.62109375,969.7265625,-288.57421875,-44.43359375,1.0,-1.0,1.0,1.0,7.m4v,2.0
2024-02-27 10:47:33.788689,1709027253.788689,-35.15625,969.7265625,-342.7734375,-40.0390625,1.0,-1.0,1.0,1.0,7.m4v,2.0
2024-02-27 10:47:33.792595,1709027253.792595,-29.78515625,974.12109375,-101.07421875,-41.9921875,1.0,-1.0,1.0,1.0,7.m4v,2.0
2024-02-27 10:47:33.796500,1709027253.7965004,-13.18359375,949.70703125,194.3359375,-31.73828125,1.0,-1.0,1.0,1.0,7.m4v,2.0
2024-02-27 10:47:33.800406,1709027253.800406,-11.71875,941.89453125,289.0625,-27.34375,1.0,-1.0,1.0,1.0,7.m4v,2.0
2024-02-27 10:47:33.804312,1709027253.8043118,-17.578125,999.51171875,83.984375,-39.55078125,1.0,-1.0,1.0,1.0,7.m4v,2.0
2024-02-27 10:47:33.808217,1709027253.8082173,-40.52734375,-121.09375,-488.28125,-48.33984375,1.0,-1.0,1.0,1.0,7.m4v,2.0
2024-02-27 10:47:33.812123,1709027253.812123,-52.734375,-1000.0,-588.8671875,-42.48046875,1.0,-1.0,1.0,1.0,7.m4v,2.0
2024-02-27 10:47:33.816029,1709027253.8160286,-36.1328125,-948.73046875,-120.60546875,-34.1796875,1.0,-1.0,1.0,1.0,7.m4v,2.0
2024-02-27 10:47:33.819934,1709027253.8199344,-27.83203125,-994.140625,-125.0,-27.83203125,1.0,-1.0,1.0,1.0,7.m4v,2.0
2024-02-27 10:47:33.823840,1709027253.82384,-21.484375,-1000.0,-476.07421875,-22.4609375,1.0,-1.0,1.0,1.0,7.m4v,2.0
2024-02-27 10:47:33.827748,1709027253.8277483,-19.53125,-1000.0,-551.26953125,-22.4609375,1.0,-1.0,1.0,1.0,7.m4v,2.0
2024-02-27 10:47:33.831654,1709027253.831654,-21.97265625,-1000.0,-197.265625,-27.83203125,1.0,-1.0,1.0,1.0,7.m4v,2.0
2024-02-27 10:47:33.835560,1709027253.8355596,-29.78515625,-1000.0,217.7734375,-36.62109375,1.0,-1.0,1.0,1.0,7.m4v,2.0
2024-02-27 10:47:33.839465,1709027253.8394654,-23.92578125,-933.59375,160.15625,-27.34375,1.0,-1.0,1.0,1.0,7.m4v,2.0
2024-02-27 10:47:33.843371,1709027253.843371,-19.04296875,-1000.0,-335.9375,-24.90234375,1.0,-1.0,1.0,1.0,7.m4v,2.0
2024-02-27 10:47:33.847277,1709027253.8472767,-29.78515625,-285.15625,-347.65625,-29.296875,1.0,-1.0,1.0,1.0,7.m4v,2.0
2024-02-27 10:47:33.851182,1709027253.8511822,-12.6953125,999.51171875,199.70703125,-28.3203125,1.0,-1.0,1.0,1.0,7.m4v,2.0
2024-02-27 10:47:33.855088,1709027253.855088,-9.765625,964.35546875,469.23828125,-23.4375,1.0,-1.0,1.0,1.0,7.m4v,2.0
2024-02-27 10:47:33.858994,1709027253.8589938,-24.90234375,937.5,375.48828125,-19.53125,1.0,-1.0,1.0,1.0,7.m4v,2.0
2024-02-27 10:47:33.862899,1709027253.8628993,-25.390625,978.515625,0.48828125,-26.3671875,1.0,-1.0,1.0,1.0,7.m4v,2.0
2024-02-27 10:47:33.866805,1709027253.866805,-39.0625,969.7265625,-263.671875,-27.34375,1.0,-1.0,1.0,1.0,7.m4v,2.0
2024-02-27 10:47:33.870711,1709027253.8707106,-39.55078125,969.7265625,-197.75390625,-35.64453125,1.0,-1.0,1.0,1.0,7.m4v,2.0
2024-02-27 10:47:33.874619,1709027253.8746183,-29.296875,969.7265625,162.109375,-35.15625,1.0,-1.0,1.0,1.0,7.m4v,2.0
2024-02-27 10:47:33.878524,1709027253.8785243,-23.92578125,969.7265625,416.9921875,-26.3671875,1.0,-1.0,1.0,1.0,7.m4v,2.0
2024-02-27 10:47:33.882430,1709027253.8824298,-25.87890625,969.7265625,216.30859375,-29.78515625,1.0,-1.0,1.0,1.0,7.m4v,2.0
2024-02-27 10:47:33.886336,1709027253.8863356,-33.69140625,969.7265625,-218.75,-33.203125,1.0,-1.0,1.0,1.0,7.m4v,2.0
2024-02-27 10:47:33.890241,1709027253.8902411,-37.109375,978.515625,-218.26171875,-37.109375,1.0,-1.0,1.0,1.0,7.m4v,2.0
2024-02-27 10:47:33.894147,1709027253.894147,-29.296875,898.92578125,519.53125,-23.92578125,1.0,-1.0,1.0,1.0,7.m4v,2.0
2024-02-27 10:47:33.901958,1709027253.9019582,-34.66796875,357.91015625,230.46875,-37.109375,1.0,-1.0,1.0,1.0,7.m4v,2.0
2024-02-27 10:47:33.909770,1709027253.9097695,-37.109375,-1000.0,-619.62890625,-38.57421875,1.0,-1.0,1.0,1.0,7.m4v,2.0
2024-02-27 10:47:33.913675,1709027253.9136753,-34.66796875,-959.47265625,-320.3125,-36.62109375,1.0,-1.0,1.0,1.0,7.m4v,2.0
2024-02-27 10:47:33.921489,1709027253.9214883,-29.78515625,-1000.0,-249.0234375,-21.484375,1.0,-1.0,1.0,1.0,7.m4v,2.0
2024-02-27 10:47:33.929300,1709027253.9292998,-40.52734375,-1000.0,-819.82421875,-31.73828125,1.0,-1.0,1.0,1.0,7.m4v,2.0
2024-02-27 10:47:33.933206,1709027253.9332056,-34.1796875,-929.19921875,-407.2265625,-22.4609375,1.0,-1.0,1.0,1.0,7.m4v,2.0
2024-02-27 10:47:33.941017,1709027253.941017,-23.92578125,-387.6953125,102.5390625,-35.15625,1.0,-1.0,1.0,1.0,7.m4v,2.0
2024-02-27 10:47:33.948828,1709027253.9488282,-42.48046875,982.91015625,-262.6953125,-26.3671875,1.0,-1.0,1.0,1.0,7.m4v,2.0
2024-02-27 10:47:33.952734,1709027253.952734,-36.62109375,929.19921875,41.015625,-34.66796875,1.0,-1.0,1.0,1.0,7.m4v,2.0
2024-02-27 10:47:33.960545,1709027253.9605453,-41.50390625,969.7265625,133.7890625,-17.578125,1.0,-1.0,1.0,1.0,7.m4v,2.0
2024-02-27 10:47:33.968358,1709027253.9683585,-42.48046875,969.7265625,-365.72265625,-42.48046875,1.0,-1.0,1.0,1.0,7.m4v,2.0
2024-02-27 10:47:33.972264,1709027253.9722638,-37.109375,969.7265625,-228.02734375,-37.109375,1.0,-1.0,1.0,1.0,7.m4v,2.0
2024-02-27 10:47:34.249583,1709027254.2495823,-43.9453125,969.7265625,-444.82421875,-39.0625,1.0,-1.0,1.0,1.0,7.m4v,2.0
2024-02-27 10:47:34.257394,1709027254.2573938,-29.296875,969.7265625,342.28515625,-24.4140625,1.0,-1.0,1.0,1.0,7.m4v,2.0
2024-02-27 10:47:34.269111,1709027254.269111,-42.96875,894.04296875,-295.8984375,-36.1328125,1.0,-1.0,1.0,1.0,7.m4v,2.0
2024-02-27 10:47:34.276922,1709027254.2769222,-32.2265625,375.9765625,379.8828125,-42.48046875,1.0,-1.0,1.0,1.0,7.m4v,2.0
2024-02-27 10:47:34.288639,1709027254.288639,-45.41015625,-958.0078125,-788.57421875,-46.38671875,1.0,-1.0,1.0,1.0,7.m4v,2.0
2024-02-27 10:47:34.296452,1709027254.2964523,-36.1328125,-1000.0,-144.04296875,-33.69140625,1.0,-1.0,1.0,1.0,7.m4v,2.0
2024-02-27 10:47:34.308169,1709027254.3081691,-33.203125,-1000.0,-659.66796875,-38.57421875,1.0,-1.0,1.0,1.0,7.m4v,2.0
2024-02-27 10:47:34.315981,1709027254.315981,-29.78515625,543.9453125,683.10546875,-16.6015625,1.0,-1.0,1.0,1.0,7.m4v,2.0
2024-02-27 10:47:34.327698,1709027254.3276975,-45.8984375,979.98046875,-526.3671875,-45.41015625,1.0,-1.0,1.0,1.0,7.m4v,2.0
2024-02-27 10:47:34.331603,1709027254.3316033,-39.55078125,969.7265625,-374.51171875,-33.203125,1.0,-1.0,1.0,1.0,7.m4v,2.0
2024-02-27 10:47:34.335509,1709027254.335509,-34.66796875,969.7265625,25.390625,-32.2265625,1.0,-1.0,1.0,1.0,7.m4v,2.0
2024-02-27 10:47:34.339415,1709027254.3394146,-33.69140625,969.7265625,224.609375,-32.71484375,1.0,-1.0,1.0,1.0,7.m4v,2.0
2024-02-27 10:47:34.343322,1709027254.3433225,-38.57421875,969.7265625,-188.4765625,-38.0859375,1.0,-1.0,1.0,1.0,7.m4v,2.0
2024-02-27 10:47:34.347228,1709027254.3472278,-54.19921875,969.7265625,-502.44140625,-38.0859375,1.0,-1.0,1.0,1.0,7.m4v,2.0
2024-02-27 10:47:34.351134,1709027254.3511336,-50.29296875,970.21484375,-384.27734375,-31.73828125,1.0,-1.0,1.0,1.0,7.m4v,2.0
2024-02-27 10:47:34.355039,1709027254.3550391,-37.109375,970.21484375,43.45703125,-27.83203125,1.0,-1.0,1.0,1.0,7.m4v,2.0
2024-02-27 10:47:34.358945,1709027254.358945,-37.59765625,970.21484375,114.74609375,-31.73828125,1.0,-1.0,1.0,1.0,7.m4v,2.0
2024-02-27 10:47:34.362850,1709027254.3628504,-38.0859375,907.71484375,130.37109375,-32.71484375,1.0,-1.0,1.0,1.0,7.m4v,2.0
2024-02-27 10:47:34.366756,1709027254.3667562,-35.64453125,999.51171875,71.77734375,-28.80859375,1.0,-1.0,1.0,1.0,7.m4v,2.0
2024-02-27 10:47:34.370662,1709027254.370662,-41.9921875,188.4765625,-217.28515625,-40.0390625,1.0,-1.0,1.0,1.0,7.m4v,2.0
2024-02-27 10:47:34.374568,1709027254.3745675,-46.875,-1000.0,-33.69140625,-41.9921875,1.0,-1.0,1.0,1.0,7.m4v,2.0
2024-02-27 10:47:34.378473,1709027254.3784733,-49.31640625,-984.375,13.671875,-36.62109375,1.0,-1.0,1.0,1.0,7.m4v,2.0
2024-02-27 10:47:34.382379,1709027254.3823788,-49.8046875,-973.14453125,-404.296875,-32.71484375,1.0,-1.0,1.0,1.0,7.m4v,2.0
2024-02-27 10:47:34.386285,1709027254.3862846,-40.0390625,-1000.0,-689.453125,-28.80859375,1.0,-1.0,1.0,1.0,7.m4v,2.0
2024-02-27 10:47:34.390192,1709027254.3901918,-37.59765625,-1000.0,-663.57421875,-36.62109375,1.0,-1.0,1.0,1.0,7.m4v,2.0
2024-02-27 10:47:34.394097,1709027254.394097,-36.62109375,-1000.0,-319.3359375,-42.96875,1.0,-1.0,1.0,1.0,7.m4v,2.0
2024-02-27 10:47:34.398003,1709027254.398003,-24.4140625,-998.046875,73.2421875,-35.64453125,1.0,-1.0,1.0,1.0,7.m4v,2.0
2024-02-27 10:47:34.522991,1709027254.522991,-46.875,969.7265625,42.96875,-38.0859375,1.0,-1.0,1.0,1.0,7.m4v,2.0
2024-02-27 10:47:34.526896,1709027254.5268965,-40.0390625,969.7265625,-109.375,-42.96875,1.0,-1.0,1.0,1.0,7.m4v,2.0
2024-02-27 10:47:34.530805,1709027254.530805,-32.2265625,969.7265625,-98.14453125,-42.96875,1.0,-1.0,1.0,1.0,7.m4v,2.0
2024-02-27 10:47:34.534711,1709027254.5347106,-32.71484375,969.7265625,141.11328125,-30.2734375,1.0,-1.0,1.0,1.0,7.m4v,2.0
2024-02-27 10:47:34.538616,1709027254.5386164,-31.73828125,969.7265625,369.140625,-31.25,1.0,-1.0,1.0,1.0,7.m4v,2.0
2024-02-27 10:47:34.542522,1709027254.542522,-20.5078125,969.7265625,143.5546875,-33.203125,1.0,-1.0,1.0,1.0,7.m4v,2.0
2024-02-27 10:47:34.546428,1709027254.5464275,-32.2265625,970.21484375,-179.19921875,-30.2734375,1.0,-1.0,1.0,1.0,7.m4v,2.0
2024-02-27 10:47:34.550333,1709027254.5503333,-41.9921875,974.609375,50.29296875,-31.25,1.0,-1.0,1.0,1.0,7.m4v,2.0
2024-02-27 10:47:34.554239,1709027254.554239,-25.390625,902.83203125,759.765625,-27.83203125,1.0,-1.0,1.0,1.0,7.m4v,2.0
2024-02-27 10:47:34.558145,1709027254.5581448,-24.90234375,999.51171875,925.78125,-22.94921875,1.0,-1.0,1.0,1.0,7.m4v,2.0
2024-02-27 10:47:34.562050,1709027254.5620503,-34.1796875,265.13671875,343.75,-27.34375,1.0,-1.0,1.0,1.0,7.m4v,2.0
2024-02-27 10:47:34.565956,1709027254.565956,-40.52734375,-1000.0,-265.625,-45.8984375,1.0,-1.0,1.0,1.0,7.m4v,2.0
2024-02-27 10:47:34.569862,1709027254.5698617,-47.8515625,-997.0703125,-354.4921875,-47.8515625,1.0,-1.0,1.0,1.0,7.m4v,2.0
2024-02-27 10:47:34.573767,1709027254.5737674,-55.17578125,-966.796875,-66.89453125,-39.0625,1.0,-1.0,1.0,1.0,7.m4v,2.0
2024-02-27 10:47:34.577676,1709027254.5776756,-40.52734375,-1000.0,158.203125,-39.0625,1.0,-1.0,1.0,1.0,7.m4v,2.0
2024-02-27 10:47:34.581581,1709027254.581581,-34.1796875,-1000.0,-14.6484375,-41.50390625,1.0,-1.0,1.0,1.0,7.m4v,2.0
2024-02-27 10:47:34.585487,1709027254.585487,-26.85546875,-1000.0,-330.56640625,-47.8515625,1.0,-1.0,1.0,1.0,7.m4v,2.0
2024-02-27 10:47:34.589392,1709027254.5893924,-21.484375,-930.6640625,-363.76953125,-39.55078125,1.0,-1.0,1.0,1.0,7.m4v,2.0
2024-02-27 10:47:34.593298,1709027254.5932982,-38.0859375,-1000.0,-167.48046875,-30.76171875,1.0,-1.0,1.0,1.0,7.m4v,2.0
2024-02-27 10:47:34.597204,1709027254.597204,-32.71484375,-349.12109375,507.8125,-29.78515625,1.0,-1.0,1.0,1.0,7.m4v,2.0
2024-02-27 10:47:34.601110,1709027254.6011095,-16.6015625,991.69921875,810.546875,-23.92578125,1.0,-1.0,1.0,1.0,7.m4v,2.0
2024-02-27 10:47:34.605015,1709027254.6050153,-20.99609375,975.5859375,303.22265625,-29.296875,1.0,-1.0,1.0,1.0,7.m4v,2.0
2024-02-27 10:47:34.608921,1709027254.6089208,-30.2734375,932.12890625,29.296875,-37.109375,1.0,-1.0,1.0,1.0,7.m4v,2.0
2024-02-27 10:47:34.612827,1709027254.6128266,-10.7421875,979.98046875,331.54296875,-34.66796875,1.0,-1.0,1.0,1.0,7.m4v,2.0
2024-02-27 10:47:34.616732,1709027254.616732,-15.13671875,969.7265625,656.25,-32.71484375,1.0,-1.0,1.0,1.0,7.m4v,2.0
2024-02-27 10:47:34.620638,1709027254.620638,-44.43359375,969.7265625,332.03125,-34.1796875,1.0,-1.0,1.0,1.0,7.m4v,2.0
2024-02-27 10:47:34.624546,1709027254.6245456,-34.1796875,969.7265625,-128.90625,-44.921875,1.0,-1.0,1.0,1.0,7.m4v,2.0
2024-02-27 10:47:34.628451,1709027254.628451,-30.2734375,969.7265625,-250.48828125,-46.38671875,1.0,-1.0,1.0,1.0,7.m4v,2.0
2024-02-27 10:47:34.632357,1709027254.6323571,-33.203125,969.7265625,76.66015625,-32.71484375,1.0,-1.0,1.0,1.0,7.m4v,2.0
2024-02-27 10:47:34.636263,1709027254.636263,-34.1796875,969.7265625,447.75390625,-24.90234375,1.0,-1.0,1.0,1.0,7.m4v,2.0
2024-02-27 10:47:34.640168,1709027254.6401684,-38.0859375,969.7265625,385.25390625,-29.296875,1.0,-1.0,1.0,1.0,7.m4v,2.0
2024-02-27 10:47:34.644074,1709027254.644074,-32.2265625,972.65625,386.23046875,-29.78515625,1.0,-1.0,1.0,1.0,7.m4v,2.0
2024-02-27 10:47:34.647980,1709027254.6479795,-30.2734375,956.54296875,373.046875,-28.3203125,1.0,-1.0,1.0,1.0,7.m4v,2.0
2024-02-27 10:47:34.651886,1709027254.6518855,-43.45703125,931.640625,204.58984375,-28.3203125,1.0,-1.0,1.0,1.0,7.m4v,2.0
2024-02-27 10:47:34.655791,1709027254.655791,-40.0390625,999.51171875,416.015625,-33.69140625,1.0,-1.0,1.0,1.0,7.m4v,2.0
2024-02-27 10:47:34.659697,1709027254.6596968,-33.69140625,-20.99609375,327.63671875,-38.57421875,1.0,-1.0,1.0,1.0,7.m4v,2.0
2024-02-27 10:47:34.663602,1709027254.6636024,-44.43359375,-1000.0,-147.94921875,-36.1328125,1.0,-1.0,1.0,1.0,7.m4v,2.0
2024-02-27 10:47:34.667508,1709027254.667508,-47.8515625,-961.9140625,-441.89453125,-33.203125,1.0,-1.0,1.0,1.0,7.m4v,2.0
2024-02-27 10:47:34.671416,1709027254.6714158,-43.9453125,-986.81640625,-134.27734375,-28.80859375,1.0,-1.0,1.0,1.0,7.m4v,2.0
2024-02-27 10:47:34.675322,1709027254.6753216,-39.55078125,-1000.0,437.98828125,-27.83203125,1.0,-1.0,1.0,1.0,7.m4v,2.0
2024-02-27 10:47:34.679227,1709027254.679227,-30.76171875,-1000.0,362.79296875,-32.2265625,1.0,-1.0,1.0,1.0,7.m4v,2.0
2024-02-27 10:47:34.683133,1709027254.683133,-25.390625,-983.88671875,-68.84765625,-39.55078125,1.0,-1.0,1.0,1.0,7.m4v,2.0
2024-02-27 10:47:34.687038,1709027254.6870384,-32.71484375,-965.8203125,-349.12109375,-42.96875,1.0,-1.0,1.0,1.0,7.m4v,2.0
2024-02-27 10:47:34.690944,1709027254.6909442,-33.203125,-1000.0,-72.75390625,-35.15625,1.0,-1.0,1.0,1.0,7.m4v,2.0
2024-02-27 10:47:34.694850,1709027254.6948495,-13.18359375,35.64453125,688.4765625,-38.0859375,1.0,-1.0,1.0,1.0,7.m4v,2.0
2024-02-27 10:47:34.698756,1709027254.6987555,-14.6484375,999.51171875,812.01171875,-34.66796875,1.0,-1.0,1.0,1.0,7.m4v,2.0
2024-02-27 10:47:34.702661,1709027254.7026613,-29.296875,924.31640625,209.9609375,-31.73828125,1.0,-1.0,1.0,1.0,7.m4v,2.0
2024-02-27 10:47:34.706567,1709027254.7065668,-33.69140625,959.9609375,-163.57421875,-38.57421875,1.0,-1.0,1.0,1.0,7.m4v,2.0
2024-02-27 10:47:34.710473,1709027254.7104726,-35.64453125,972.16796875,-243.1640625,-24.90234375,1.0,-1.0,1.0,1.0,7.m4v,2.0
2024-02-27 10:47:34.714378,1709027254.714378,-40.52734375,969.7265625,110.83984375,-27.34375,1.0,-1.0,1.0,1.0,7.m4v,2.0
2024-02-27 10:47:34.718285,1709027254.718285,-35.15625,969.7265625,483.3984375,-39.0625,1.0,-1.0,1.0,1.0,7.m4v,2.0
2024-02-27 10:47:34.722191,1709027254.722191,-23.92578125,969.7265625,312.98828125,-31.73828125,1.0,-1.0,1.0,1.0,7.m4v,2.0
2024-02-27 10:47:34.726097,1709027254.7260969,-33.69140625,969.7265625,36.1328125,-32.71484375,1.0,-1.0,1.0,1.0,7.m4v,2.0
2024-02-27 10:47:34.730002,1709027254.7300024,-44.921875,969.7265625,95.21484375,-39.0625,1.0,-1.0,1.0,1.0,7.m4v,2.0
2024-02-27 10:47:34.733908,1709027254.7339082,-43.45703125,973.14453125,587.890625,-36.1328125,1.0,-1.0,1.0,1.0,7.m4v,2.0
2024-02-27 10:47:34.737814,1709027254.7378137,-39.55078125,954.58984375,999.51171875,-30.2734375,1.0,-1.0,1.0,1.0,7.m4v,2.0
2024-02-27 10:47:34.741719,1709027254.7417195,-36.62109375,933.59375,754.39453125,-30.76171875,1.0,-1.0,1.0,1.0,7.m4v,2.0
2024-02-27 10:47:34.745625,1709027254.7456253,-46.875,999.51171875,110.3515625,-29.78515625,1.0,-1.0,1.0,1.0,7.m4v,2.0
2024-02-27 10:47:34.749531,1709027254.7495308,-57.6171875,-53.7109375,-298.33984375,-35.64453125,1.0,-1.0,1.0,1.0,7.m4v,2.0
2024-02-27 10:47:34.753437,1709027254.7534366,-45.8984375,-1000.0,-220.703125,-38.57421875,1.0,-1.0,1.0,1.0,7.m4v,2.0
2024-02-27 10:47:34.757342,1709027254.757342,-35.64453125,-955.56640625,175.29296875,-34.1796875,1.0,-1.0,1.0,1.0,7.m4v,2.0
2024-02-27 10:47:34.761248,1709027254.761248,-32.71484375,-989.74609375,117.1875,-36.62109375,1.0,-1.0,1.0,1.0,7.m4v,2.0
2024-02-27 10:47:34.765157,1709027254.7651567,-30.76171875,-1000.0,-306.640625,-36.1328125,1.0,-1.0,1.0,1.0,7.m4v,2.0
2024-02-27 10:47:34.769063,1709027254.7690625,-39.55078125,-1000.0,-443.359375,-34.66796875,1.0,-1.0,1.0,1.0,7.m4v,2.0
2024-02-27 10:47:34.772968,1709027254.7729683,-46.38671875,-1000.0,-145.5078125,-30.76171875,1.0,-1.0,1.0,1.0,7.m4v,2.0
2024-02-27 10:47:34.776874,1709027254.7768738,-42.48046875,-937.98828125,149.4140625,-27.83203125,1.0,-1.0,1.0,1.0,7.m4v,2.0
2024-02-27 10:47:34.780780,1709027254.7807796,-37.59765625,-1000.0,-32.2265625,-29.78515625,1.0,-1.0,1.0,1.0,7.m4v,2.0
2024-02-27 10:47:34.784685,1709027254.7846851,-30.2734375,-215.8203125,-21.97265625,-36.1328125,1.0,-1.0,1.0,1.0,7.m4v,2.0
2024-02-27 10:47:34.788591,1709027254.788591,-17.08984375,999.51171875,124.0234375,-38.0859375,1.0,-1.0,1.0,1.0,7.m4v,2.0
2024-02-27 10:47:34.792497,1709027254.7924967,-18.06640625,953.125,205.56640625,-30.2734375,1.0,-1.0,1.0,1.0,7.m4v,2.0
2024-02-27 10:47:34.796402,1709027254.7964022,-38.0859375,942.87109375,395.01953125,-25.87890625,1.0,-1.0,1.0,1.0,7.m4v,2.0
2024-02-27 10:47:34.800308,1709027254.800308,-50.29296875,976.5625,151.3671875,-32.71484375,1.0,-1.0,1.0,1.0,7.m4v,2.0
2024-02-27 10:47:34.804214,1709027254.8042135,-36.62109375,969.7265625,-205.56640625,-28.3203125,1.0,-1.0,1.0,1.0,7.m4v,2.0
2024-02-27 10:47:34.808119,1709027254.8081193,-30.2734375,969.7265625,-434.08203125,-30.76171875,1.0,-1.0,1.0,1.0,7.m4v,2.0
2024-02-27 10:47:34.812028,1709027254.812028,-28.80859375,969.7265625,-377.44140625,-37.59765625,1.0,-1.0,1.0,1.0,7.m4v,2.0
2024-02-27 10:47:34.815934,1709027254.8159337,-16.11328125,969.7265625,34.1796875,-14.6484375,1.0,-1.0,1.0,1.0,7.m4v,2.0
2024-02-27 10:47:34.819839,1709027254.8198397,-21.97265625,969.7265625,286.1328125,-12.6953125,1.0,-1.0,1.0,1.0,7.m4v,2.0
2024-02-27 10:47:34.823745,1709027254.823745,-39.0625,969.7265625,-64.94140625,-43.9453125,1.0,-1.0,1.0,1.0,7.m4v,2.0
2024-02-27 10:47:34.827651,1709027254.8276508,-45.8984375,969.7265625,-463.37890625,-54.6875,1.0,-1.0,1.0,1.0,7.m4v,2.0
2024-02-27 10:47:34.831556,1709027254.8315563,-33.203125,970.21484375,-7.32421875,-41.9921875,1.0,-1.0,1.0,1.0,7.m4v,2.0
2024-02-27 10:47:35.280735,1709027255.2807355,-15.625,969.7265625,106.4453125,-14.6484375,1.0,-1.0,1.0,1.0,7.m4v,2.0
2024-02-27 10:47:35.284641,1709027255.2846413,-32.71484375,969.7265625,-256.34765625,-41.015625,1.0,-1.0,1.0,1.0,7.m4v,2.0
2024-02-27 10:47:35.288547,1709027255.2885468,-27.34375,969.7265625,-366.69921875,-55.6640625,1.0,-1.0,1.0,1.0,7.m4v,2.0
2024-02-27 10:47:35.292453,1709027255.2924526,-20.5078125,971.6796875,-174.31640625,-44.921875,1.0,-1.0,1.0,1.0,7.m4v,2.0
2024-02-27 10:47:35.296358,1709027255.2963583,-30.76171875,961.42578125,145.99609375,-42.96875,1.0,-1.0,1.0,1.0,7.m4v,2.0
2024-02-27 10:47:35.300264,1709027255.300264,-22.94921875,920.8984375,428.7109375,-39.0625,1.0,-1.0,1.0,1.0,7.m4v,2.0
2024-02-27 10:47:35.304170,1709027255.3041697,-19.53125,999.51171875,184.08203125,-35.64453125,1.0,-1.0,1.0,1.0,7.m4v,2.0
2024-02-27 10:47:35.308075,1709027255.3080752,-34.66796875,47.36328125,-477.05078125,-34.1796875,1.0,-1.0,1.0,1.0,7.m4v,2.0
2024-02-27 10:47:35.311981,1709027255.311981,-36.62109375,-1000.0,-566.89453125,-39.0625,1.0,-1.0,1.0,1.0,7.m4v,2.0
2024-02-27 10:47:35.315886,1709027255.3158865,-31.25,-965.8203125,-254.39453125,-37.59765625,1.0,-1.0,1.0,1.0,7.m4v,2.0
2024-02-27 10:47:35.319792,1709027255.3197925,-31.25,-987.79296875,-184.5703125,-29.78515625,1.0,-1.0,1.0,1.0,7.m4v,2.0
2024-02-27 10:47:35.323698,1709027255.323698,-33.69140625,-985.3515625,-387.20703125,-36.1328125,1.0,-1.0,1.0,1.0,7.m4v,2.0
2024-02-27 10:47:35.327606,1709027255.3276064,-28.80859375,-975.5859375,-649.90234375,-54.19921875,1.0,-1.0,1.0,1.0,7.m4v,2.0
2024-02-27 10:47:35.331512,1709027255.3315122,-28.3203125,-1000.0,-378.41796875,-49.31640625,1.0,-1.0,1.0,1.0,7.m4v,2.0
2024-02-27 10:47:35.335418,1709027255.3354175,-16.6015625,61.03515625,310.546875,-20.99609375,1.0,-1.0,1.0,1.0,7.m4v,2.0
2024-02-27 10:47:35.339324,1709027255.3393235,-1.46484375,999.51171875,362.3046875,-22.94921875,1.0,-1.0,1.0,1.0,7.m4v,2.0
2024-02-27 10:47:35.343229,1709027255.343229,-16.6015625,930.17578125,-69.82421875,-40.0390625,1.0,-1.0,1.0,1.0,7.m4v,2.0
2024-02-27 10:47:35.347135,1709027255.3471348,-20.01953125,958.49609375,-71.77734375,-32.71484375,1.0,-1.0,1.0,1.0,7.m4v,2.0
2024-02-27 10:47:35.351041,1709027255.3510406,-25.87890625,979.00390625,109.375,-25.390625,1.0,-1.0,1.0,1.0,7.m4v,2.0
2024-02-27 10:47:35.354946,1709027255.354946,-32.2265625,944.3359375,154.296875,-21.484375,1.0,-1.0,1.0,1.0,7.m4v,2.0
2024-02-27 10:47:35.358852,1709027255.358852,-26.3671875,955.078125,124.51171875,-19.04296875,1.0,-1.0,1.0,1.0,7.m4v,2.0
2024-02-27 10:47:35.362757,1709027255.3627574,-22.94921875,999.51171875,-228.02734375,-33.203125,1.0,-1.0,1.0,1.0,7.m4v,2.0
2024-02-27 10:47:35.366663,1709027255.3666632,-20.99609375,-196.2890625,-741.2109375,-41.9921875,1.0,-1.0,1.0,1.0,7.m4v,2.0
2024-02-27 10:47:35.370569,1709027255.3705688,-32.2265625,-1000.0,-912.59765625,-49.8046875,1.0,-1.0,1.0,1.0,7.m4v,2.0
2024-02-27 10:47:35.374476,1709027255.3744764,-42.96875,-946.2890625,-542.48046875,-47.8515625,1.0,-1.0,1.0,1.0,7.m4v,2.0
2024-02-27 10:47:35.378382,1709027255.3783822,-31.73828125,-997.0703125,-166.50390625,-34.66796875,1.0,-1.0,1.0,1.0,7.m4v,2.0
2024-02-27 10:47:35.382288,1709027255.3822875,-22.4609375,-1000.0,-260.25390625,-34.66796875,1.0,-1.0,1.0,1.0,7.m4v,2.0
2024-02-27 10:47:35.386194,1709027255.3861935,-32.2265625,-931.15234375,-595.703125,-36.62109375,1.0,-1.0,1.0,1.0,7.m4v,2.0
2024-02-27 10:47:35.390099,1709027255.3900993,-31.73828125,-1000.0,-638.671875,-35.15625,1.0,-1.0,1.0,1.0,7.m4v,2.0
2024-02-27 10:47:35.394005,1709027255.3940048,-13.671875,-338.8671875,-20.5078125,-30.76171875,1.0,-1.0,1.0,1.0,7.m4v,2.0
2024-02-27 10:47:35.518992,1709027255.518992,-38.0859375,997.0703125,108.88671875,-28.80859375,1.0,-1.0,1.0,1.0,7.m4v,2.0
2024-02-27 10:47:35.522898,1709027255.5228975,-42.96875,890.13671875,-297.8515625,-20.99609375,1.0,-1.0,1.0,1.0,7.m4v,2.0
2024-02-27 10:47:35.526803,1709027255.5268033,-40.0390625,-439.94140625,-706.54296875,-32.71484375,1.0,-1.0,1.0,1.0,7.m4v,2.0
2024-02-27 10:47:35.530709,1709027255.530709,-54.19921875,-1000.0,-868.1640625,-37.109375,1.0,-1.0,1.0,1.0,7.m4v,2.0
2024-02-27 10:47:35.534615,1709027255.5346146,-58.10546875,-937.98828125,-258.7890625,-23.92578125,1.0,-1.0,1.0,1.0,7.m4v,2.0
2024-02-27 10:47:35.538520,1709027255.5385203,-31.25,-1000.0,416.50390625,-13.671875,1.0,-1.0,1.0,1.0,7.m4v,2.0
2024-02-27 10:47:35.542426,1709027255.542426,-29.296875,-1000.0,-3.90625,-22.94921875,1.0,-1.0,1.0,1.0,7.m4v,2.0
2024-02-27 10:47:35.546332,1709027255.5463316,-41.015625,-1000.0,-573.73046875,-42.96875,1.0,-1.0,1.0,1.0,7.m4v,2.0
2024-02-27 10:47:35.550237,1709027255.5502374,-39.0625,-1000.0,-626.953125,-45.8984375,1.0,-1.0,1.0,1.0,7.m4v,2.0
2024-02-27 10:47:35.554143,1709027255.554143,-29.296875,-1000.0,-367.67578125,-31.73828125,1.0,-1.0,1.0,1.0,7.m4v,2.0
2024-02-27 10:47:35.558049,1709027255.5580487,-31.73828125,-1000.0,-44.921875,-18.5546875,1.0,-1.0,1.0,1.0,7.m4v,2.0
2024-02-27 10:47:35.561958,1709027255.5619576,-31.73828125,-998.046875,-212.40234375,-28.3203125,1.0,-1.0,1.0,1.0,7.m4v,2.0
2024-02-27 10:47:35.565863,1709027255.5658631,-26.85546875,-941.89453125,-575.1953125,-37.109375,1.0,-1.0,1.0,1.0,7.m4v,2.0
2024-02-27 10:47:35.569769,1709027255.569769,-33.69140625,-1000.0,-608.88671875,-20.5078125,1.0,-1.0,1.0,1.0,7.m4v,2.0
2024-02-27 10:47:35.573674,1709027255.5736744,-27.83203125,-171.38671875,-65.4296875,-34.66796875,1.0,-1.0,1.0,1.0,7.m4v,2.0
2024-02-27 10:47:35.577580,1709027255.5775802,-1.953125,999.51171875,387.20703125,-52.24609375,1.0,-1.0,1.0,1.0,7.m4v,2.0
2024-02-27 10:47:35.581486,1709027255.5814855,-10.7421875,947.265625,468.75,-42.48046875,1.0,-1.0,1.0,1.0,7.m4v,2.0
2024-02-27 10:47:35.585392,1709027255.5853915,-30.76171875,946.2890625,152.34375,-44.43359375,1.0,-1.0,1.0,1.0,7.m4v,2.0
2024-02-27 10:47:35.589297,1709027255.5892973,-40.52734375,975.5859375,-398.92578125,-52.734375,1.0,-1.0,1.0,1.0,7.m4v,2.0
2024-02-27 10:47:35.593203,1709027255.5932028,-45.8984375,969.7265625,-229.4921875,-49.8046875,1.0,-1.0,1.0,1.0,7.m4v,2.0
2024-02-27 10:47:35.597109,1709027255.5971086,-45.8984375,969.7265625,145.01953125,-37.59765625,1.0,-1.0,1.0,1.0,7.m4v,2.0
2024-02-27 10:47:35.601014,1709027255.601014,-43.9453125,969.7265625,43.9453125,-37.109375,1.0,-1.0,1.0,1.0,7.m4v,2.0
2024-02-27 10:47:35.604920,1709027255.60492,-41.50390625,969.7265625,-310.05859375,-41.9921875,1.0,-1.0,1.0,1.0,7.m4v,2.0
2024-02-27 10:47:35.608829,1709027255.6088288,-46.875,969.7265625,-374.51171875,-39.55078125,1.0,-1.0,1.0,1.0,7.m4v,2.0
2024-02-27 10:47:35.612735,1709027255.6127346,-48.33984375,969.7265625,-152.34375,-40.0390625,1.0,-1.0,1.0,1.0,7.m4v,2.0
2024-02-27 10:47:35.616640,1709027255.61664,-43.9453125,969.7265625,196.2890625,-39.0625,1.0,-1.0,1.0,1.0,7.m4v,2.0
2024-02-27 10:47:35.620546,1709027255.620546,-39.0625,969.7265625,91.796875,-35.64453125,1.0,-1.0,1.0,1.0,7.m4v,2.0
2024-02-27 10:47:35.624452,1709027255.6244516,-44.921875,978.515625,-356.93359375,-35.64453125,1.0,-1.0,1.0,1.0,7.m4v,2.0
2024-02-27 10:47:35.628357,1709027255.6283572,-49.31640625,933.59375,-324.21875,-34.1796875,1.0,-1.0,1.0,1.0,7.m4v,2.0
2024-02-27 10:47:35.632263,1709027255.632263,-36.62109375,977.5390625,107.91015625,-33.69140625,1.0,-1.0,1.0,1.0,7.m4v,2.0
2024-02-27 10:47:35.636168,1709027255.6361685,-41.9921875,958.984375,347.65625,-28.3203125,1.0,-1.0,1.0,1.0,7.m4v,2.0
2024-02-27 10:47:35.640074,1709027255.6400745,-55.17578125,-335.9375,-5.859375,-32.71484375,1.0,-1.0,1.0,1.0,7.m4v,2.0
2024-02-27 10:47:35.643980,1709027255.6439798,-43.9453125,-1000.0,-609.86328125,-41.015625,1.0,-1.0,1.0,1.0,7.m4v,2.0
2024-02-27 10:47:35.647886,1709027255.6478856,-41.9921875,-938.96484375,-890.625,-43.45703125,1.0,-1.0,1.0,1.0,7.m4v,2.0
2024-02-27 10:47:35.651791,1709027255.651791,-62.5,-1000.0,-729.00390625,-40.0390625,1.0,-1.0,1.0,1.0,7.m4v,2.0
2024-02-27 10:47:35.655700,1709027255.6556995,-56.640625,-1000.0,-226.5625,-28.80859375,1.0,-1.0,1.0,1.0,7.m4v,2.0
2024-02-27 10:47:35.659605,1709027255.6596053,-36.62109375,-1000.0,-19.04296875,-28.3203125,1.0,-1.0,1.0,1.0,7.m4v,2.0
2024-02-27 10:47:35.663511,1709027255.663511,-36.62109375,-990.72265625,-351.5625,-33.69140625,1.0,-1.0,1.0,1.0,7.m4v,2.0
2024-02-27 10:47:35.667417,1709027255.6674166,-47.8515625,-953.61328125,-601.5625,-40.52734375,1.0,-1.0,1.0,1.0,7.m4v,2.0
2024-02-27 10:47:35.671322,1709027255.6713223,-46.38671875,-1000.0,-584.47265625,-41.50390625,1.0,-1.0,1.0,1.0,7.m4v,2.0
2024-02-27 10:47:35.675228,1709027255.675228,-27.34375,-55.17578125,224.12109375,-28.3203125,1.0,-1.0,1.0,1.0,7.m4v,2.0
2024-02-27 10:47:35.679134,1709027255.6791337,-22.94921875,999.51171875,762.20703125,-23.4375,1.0,-1.0,1.0,1.0,7.m4v,2.0
2024-02-27 10:47:35.683039,1709027255.6830394,-38.0859375,932.6171875,46.38671875,-34.1796875,1.0,-1.0,1.0,1.0,7.m4v,2.0
2024-02-27 10:47:35.686945,1709027255.686945,-43.45703125,954.58984375,-486.81640625,-41.9921875,1.0,-1.0,1.0,1.0,7.m4v,2.0
2024-02-27 10:47:35.690851,1709027255.6908507,-39.0625,973.14453125,-328.61328125,-39.0625,1.0,-1.0,1.0,1.0,7.m4v,2.0
2024-02-27 10:47:35.694757,1709027255.6947565,-39.0625,969.7265625,232.91015625,-26.85546875,1.0,-1.0,1.0,1.0,7.m4v,2.0
2024-02-27 10:47:35.698662,1709027255.698662,-39.0625,969.7265625,361.81640625,-26.3671875,1.0,-1.0,1.0,1.0,7.m4v,2.0
2024-02-27 10:47:35.702570,1709027255.7025702,-29.296875,969.7265625,-41.50390625,-29.78515625,1.0,-1.0,1.0,1.0,7.m4v,2.0
2024-02-27 10:47:35.706476,1709027255.706476,-31.25,969.7265625,-468.26171875,-23.4375,1.0,-1.0,1.0,1.0,7.m4v,2.0
2024-02-27 10:47:35.710382,1709027255.7103815,-46.875,969.7265625,-474.12109375,-11.23046875,1.0,-1.0,1.0,1.0,7.m4v,2.0
2024-02-27 10:47:35.714287,1709027255.7142873,-41.9921875,976.5625,-85.9375,-16.6015625,1.0,-1.0,1.0,1.0,7.m4v,2.0
2024-02-27 10:47:35.718193,1709027255.718193,-30.76171875,941.89453125,98.14453125,-32.2265625,1.0,-1.0,1.0,1.0,7.m4v,2.0
2024-02-27 10:47:35.722099,1709027255.7220986,-40.0390625,958.49609375,213.8671875,-36.62109375,1.0,-1.0,1.0,1.0,7.m4v,2.0
2024-02-27 10:47:35.726004,1709027255.7260044,-45.8984375,999.51171875,50.29296875,-34.66796875,1.0,-1.0,1.0,1.0,7.m4v,2.0
2024-02-27 10:47:35.729910,1709027255.72991,-53.22265625,-226.07421875,-575.68359375,-32.2265625,1.0,-1.0,1.0,1.0,7.m4v,2.0
2024-02-27 10:47:35.733816,1709027255.7338157,-53.7109375,-1000.0,-521.484375,-39.0625,1.0,-1.0,1.0,1.0,7.m4v,2.0
2024-02-27 10:47:35.737721,1709027255.7377212,-40.52734375,-942.3828125,-29.78515625,-39.55078125,1.0,-1.0,1.0,1.0,7.m4v,2.0
2024-02-27 10:47:35.741627,1709027255.741627,-37.59765625,-999.0234375,-161.62109375,-39.0625,1.0,-1.0,1.0,1.0,7.m4v,2.0
2024-02-27 10:47:35.745533,1709027255.7455328,-41.9921875,-1000.0,-421.38671875,-34.66796875,1.0,-1.0,1.0,1.0,7.m4v,2.0
2024-02-27 10:47:35.749441,1709027255.749441,-40.0390625,-1000.0,-527.34375,-37.109375,1.0,-1.0,1.0,1.0,7.m4v,2.0
2024-02-27 10:47:35.753346,1709027255.7533464,-29.78515625,-1000.0,-150.390625,-40.52734375,1.0,-1.0,1.0,1.0,7.m4v,2.0
2024-02-27 10:47:35.757252,1709027255.7572522,-27.83203125,-1000.0,220.703125,-30.76171875,1.0,-1.0,1.0,1.0,7.m4v,2.0
2024-02-27 10:47:35.761158,1709027255.761158,-27.83203125,-928.7109375,-137.6953125,-29.78515625,1.0,-1.0,1.0,1.0,7.m4v,2.0
2024-02-27 10:47:35.765064,1709027255.7650635,-25.390625,-1000.0,-594.7265625,-36.62109375,1.0,-1.0,1.0,1.0,7.m4v,2.0
2024-02-27 10:47:35.768969,1709027255.7689693,-32.2265625,-413.57421875,-405.2734375,-34.66796875,1.0,-1.0,1.0,1.0,7.m4v,2.0
2024-02-27 10:47:35.772875,1709027255.7728748,-35.15625,960.9375,225.09765625,-27.83203125,1.0,-1.0,1.0,1.0,7.m4v,2.0
2024-02-27 10:47:35.776781,1709027255.7767806,-32.2265625,987.79296875,408.203125,-32.71484375,1.0,-1.0,1.0,1.0,7.m4v,2.0
2024-02-27 10:47:35.780686,1709027255.7806864,-21.484375,926.7578125,283.203125,-26.85546875,1.0,-1.0,1.0,1.0,7.m4v,2.0
2024-02-27 10:47:35.784592,1709027255.784592,-13.18359375,981.93359375,-28.3203125,-30.2734375,1.0,-1.0,1.0,1.0,7.m4v,2.0
2024-02-27 10:47:35.788498,1709027255.7884977,-20.01953125,969.7265625,-184.5703125,-37.109375,1.0,-1.0,1.0,1.0,7.m4v,2.0
2024-02-27 10:47:35.792403,1709027255.7924032,-23.92578125,969.7265625,7.8125,-28.3203125,1.0,-1.0,1.0,1.0,7.m4v,2.0
2024-02-27 10:47:35.796311,1709027255.796311,-15.625,969.7265625,314.453125,-17.08984375,1.0,-1.0,1.0,1.0,7.m4v,2.0
2024-02-27 10:47:35.800217,1709027255.800217,-19.04296875,969.7265625,338.8671875,-18.06640625,1.0,-1.0,1.0,1.0,7.m4v,2.0
2024-02-27 10:47:35.804122,1709027255.8041222,-31.73828125,969.7265625,-16.11328125,-27.34375,1.0,-1.0,1.0,1.0,7.m4v,2.0
2024-02-27 10:47:35.808028,1709027255.808028,-35.15625,969.7265625,-301.7578125,-32.2265625,1.0,-1.0,1.0,1.0,7.m4v,2.0
2024-02-27 10:47:35.811934,1709027255.8119338,-26.3671875,972.16796875,-139.16015625,-29.296875,1.0,-1.0,1.0,1.0,7.m4v,2.0
2024-02-27 10:47:35.815839,1709027255.8158393,-19.53125,905.2734375,624.51171875,-30.2734375,1.0,-1.0,1.0,1.0,7.m4v,2.0
2024-02-27 10:47:35.819745,1709027255.819745,-24.4140625,999.51171875,859.375,-37.109375,1.0,-1.0,1.0,1.0,7.m4v,2.0
2024-02-27 10:47:35.823651,1709027255.8236506,-33.69140625,216.796875,92.7734375,-47.8515625,1.0,-1.0,1.0,1.0,7.m4v,2.0
2024-02-27 10:47:35.827556,1709027255.8275564,-28.80859375,-1000.0,-511.23046875,-51.26953125,1.0,-1.0,1.0,1.0,7.m4v,2.0
2024-02-27 10:47:35.831462,1709027255.831462,-34.66796875,-988.28125,-500.9765625,-34.66796875,1.0,-1.0,1.0,1.0,7.m4v,2.0
2024-02-27 10:47:35.835368,1709027255.8353677,-40.52734375,-970.703125,-68.84765625,-22.94921875,1.0,-1.0,1.0,1.0,7.m4v,2.0
2024-02-27 10:47:35.839273,1709027255.8392737,-35.15625,-1000.0,115.72265625,-22.94921875,1.0,-1.0,1.0,1.0,7.m4v,2.0
2024-02-27 10:47:35.843181,1709027255.843181,-44.921875,-1000.0,-107.421875,-31.73828125,1.0,-1.0,1.0,1.0,7.m4v,2.0
2024-02-27 10:47:35.847087,1709027255.847087,-41.9921875,-1000.0,-359.86328125,-41.50390625,1.0,-1.0,1.0,1.0,7.m4v,2.0
2024-02-27 10:47:35.850992,1709027255.8509922,-41.50390625,-1000.0,-340.8203125,-39.55078125,1.0,-1.0,1.0,1.0,7.m4v,2.0
2024-02-27 10:47:35.854898,1709027255.854898,-39.0625,-937.5,99.12109375,-33.203125,1.0,-1.0,1.0,1.0,7.m4v,2.0
2024-02-27 10:47:35.858804,1709027255.8588035,-27.34375,-1000.0,291.9921875,-33.69140625,1.0,-1.0,1.0,1.0,7.m4v,2.0
2024-02-27 10:47:35.862709,1709027255.8627093,-19.04296875,-219.7265625,395.5078125,-36.1328125,1.0,-1.0,1.0,1.0,7.m4v,2.0
2024-02-27 10:47:36.311886,1709027256.3118858,-51.26953125,-975.09765625,-214.35546875,-50.78125,1.0,-1.0,1.0,1.0,7.m4v,2.0
2024-02-27 10:47:36.315792,1709027256.3157916,-42.96875,-1000.0,116.2109375,-41.50390625,1.0,-1.0,1.0,1.0,7.m4v,2.0
2024-02-27 10:47:36.319697,1709027256.3196971,-35.15625,-998.53515625,158.203125,-41.015625,1.0,-1.0,1.0,1.0,7.m4v,2.0
2024-02-27 10:47:36.323603,1709027256.323603,-43.45703125,-940.91796875,-196.2890625,-44.43359375,1.0,-1.0,1.0,1.0,7.m4v,2.0
2024-02-27 10:47:36.327508,1709027256.3275084,-48.828125,-1000.0,-370.60546875,-39.55078125,1.0,-1.0,1.0,1.0,7.m4v,2.0
2024-02-27 10:47:36.331414,1709027256.3314142,-51.7578125,-182.12890625,4.8828125,-42.48046875,1.0,-1.0,1.0,1.0,7.m4v,2.0
2024-02-27 10:47:36.335320,1709027256.33532,-39.55078125,999.51171875,565.91796875,-39.55078125,1.0,-1.0,1.0,1.0,7.m4v,2.0
2024-02-27 10:47:36.339226,1709027256.3392255,-21.97265625,948.73046875,556.640625,-29.78515625,1.0,-1.0,1.0,1.0,7.m4v,2.0
2024-02-27 10:47:36.343131,1709027256.3431313,-31.25,945.3125,148.4375,-30.76171875,1.0,-1.0,1.0,1.0,7.m4v,2.0
2024-02-27 10:47:36.347037,1709027256.3470368,-52.24609375,976.07421875,-210.44921875,-44.921875,1.0,-1.0,1.0,1.0,7.m4v,2.0
2024-02-27 10:47:36.350943,1709027256.3509426,-52.24609375,969.7265625,-198.2421875,-48.828125,1.0,-1.0,1.0,1.0,7.m4v,2.0
2024-02-27 10:47:36.354848,1709027256.3548484,-38.0859375,970.21484375,241.2109375,-28.80859375,1.0,-1.0,1.0,1.0,7.m4v,2.0
2024-02-27 10:47:36.358757,1709027256.358757,-29.296875,968.75,469.7265625,-35.64453125,1.0,-1.0,1.0,1.0,7.m4v,2.0
2024-02-27 10:47:36.362663,1709027256.3626628,-36.1328125,909.1796875,85.9375,-52.24609375,1.0,-1.0,1.0,1.0,7.m4v,2.0
2024-02-27 10:47:36.366568,1709027256.3665683,-37.59765625,999.51171875,-345.703125,-45.8984375,1.0,-1.0,1.0,1.0,7.m4v,2.0
2024-02-27 10:47:36.370474,1709027256.370474,-41.50390625,163.57421875,-518.5546875,-49.8046875,1.0,-1.0,1.0,1.0,7.m4v,2.0
2024-02-27 10:47:36.374380,1709027256.3743796,-50.29296875,-1000.0,-353.515625,-52.734375,1.0,-1.0,1.0,1.0,7.m4v,2.0
2024-02-27 10:47:36.378285,1709027256.3782854,-41.015625,-980.46875,363.76953125,-43.9453125,1.0,-1.0,1.0,1.0,7.m4v,2.0
2024-02-27 10:47:36.382191,1709027256.3821912,-28.80859375,-975.09765625,591.30859375,-43.45703125,1.0,-1.0,1.0,1.0,7.m4v,2.0
2024-02-27 10:47:36.386097,1709027256.3860967,-38.0859375,-1000.0,-162.59765625,-49.31640625,1.0,-1.0,1.0,1.0,7.m4v,2.0
2024-02-27 10:47:36.390002,1709027256.3900025,-62.5,-1000.0,-655.76171875,-57.6171875,1.0,-1.0,1.0,1.0,7.m4v,2.0
2024-02-27 10:47:36.393908,1709027256.393908,-60.05859375,-1000.0,-357.421875,-56.640625,1.0,-1.0,1.0,1.0,7.m4v,2.0
