Timestamp,Timestamp_UNIX,TP9,AF7,AF8,TP10,Valence,Arousal,Dominace,Viewed,Video,Participant
2024-02-28 14:34:52.002312,1709127292.0023117,-68.84765625,-31.73828125,-46.38671875,-346.19140625,-1.0,-1.0,0.0,0.0,4.m4v,11.0
2024-02-28 14:34:52.006216,1709127292.006216,-122.0703125,-55.6640625,-55.6640625,-841.796875,-1.0,-1.0,0.0,0.0,4.m4v,11.0
2024-02-28 14:34:52.010120,1709127292.0101204,-88.8671875,-50.29296875,-43.45703125,-337.890625,-1.0,-1.0,0.0,0.0,4.m4v,11.0
2024-02-28 14:34:52.014024,1709127292.0140245,6.34765625,-19.04296875,-17.08984375,592.28515625,-1.0,-1.0,0.0,0.0,4.m4v,11.0
2024-02-28 14:34:52.017929,1709127292.0179288,16.6015625,-12.6953125,-3.41796875,619.62890625,-1.0,-1.0,0.0,0.0,4.m4v,11.0
2024-02-28 14:34:52.021833,1709127292.0218332,-69.3359375,-30.2734375,-8.7890625,-330.56640625,-1.0,-1.0,0.0,0.0,4.m4v,11.0
2024-02-28 14:34:52.025757,1709127292.0257568,-107.91015625,-41.015625,-26.85546875,-831.0546875,-1.0,-1.0,0.0,0.0,4.m4v,11.0
2024-02-28 14:34:52.029661,1709127292.0296612,-67.3828125,-49.8046875,-42.48046875,-304.19921875,-1.0,-1.0,0.0,0.0,4.m4v,11.0
2024-02-28 14:34:52.033566,1709127292.0335655,17.578125,-36.62109375,-31.25,590.33203125,-1.0,-1.0,0.0,0.0,4.m4v,11.0
2024-02-28 14:34:52.037470,1709127292.0374696,38.0859375,0.0,-12.20703125,744.140625,-1.0,-1.0,0.0,0.0,4.m4v,11.0
2024-02-28 14:34:52.041374,1709127292.041374,-36.1328125,1.46484375,-10.25390625,-159.66796875,-1.0,-1.0,0.0,0.0,4.m4v,11.0
2024-02-28 14:34:52.045278,1709127292.0452783,-97.16796875,-27.83203125,-30.76171875,-777.34375,-1.0,-1.0,0.0,0.0,4.m4v,11.0
2024-02-28 14:34:52.049183,1709127292.049183,-77.63671875,-47.8515625,-48.828125,-375.9765625,-1.0,-1.0,0.0,0.0,4.m4v,11.0
2024-02-28 14:34:52.053087,1709127292.053087,-20.99609375,-59.08203125,-51.7578125,346.6796875,-1.0,-1.0,0.0,0.0,4.m4v,11.0
2024-02-28 14:34:52.056991,1709127292.056991,-5.37109375,-56.640625,-44.43359375,543.9453125,-1.0,-1.0,0.0,0.0,4.m4v,11.0
2024-02-28 14:34:52.060896,1709127292.0608957,-48.33984375,-41.9921875,-33.69140625,-141.11328125,-1.0,-1.0,0.0,0.0,4.m4v,11.0
2024-02-28 14:34:52.064800,1709127292.0647998,-86.42578125,-34.66796875,-39.55078125,-753.90625,-1.0,-1.0,0.0,0.0,4.m4v,11.0
2024-02-28 14:34:52.068704,1709127292.068704,-68.84765625,-33.69140625,-35.64453125,-493.65234375,-1.0,-1.0,0.0,0.0,4.m4v,11.0
2024-02-28 14:34:52.072626,1709127292.0726264,-5.37109375,-29.296875,-5.859375,360.83984375,-1.0,-1.0,0.0,0.0,4.m4v,11.0
2024-02-28 14:34:52.076531,1709127292.0765307,28.80859375,-23.92578125,-2.44140625,744.140625,-1.0,-1.0,0.0,0.0,4.m4v,11.0
2024-02-28 14:34:52.080435,1709127292.080435,-29.296875,-21.484375,-27.83203125,47.36328125,-1.0,-1.0,0.0,0.0,4.m4v,11.0
2024-02-28 14:34:52.084339,1709127292.0843391,-90.8203125,-22.4609375,-38.0859375,-712.890625,-1.0,-1.0,0.0,0.0,4.m4v,11.0
2024-02-28 14:34:52.088243,1709127292.0882435,-72.265625,-23.4375,-29.296875,-521.97265625,-1.0,-1.0,0.0,0.0,4.m4v,11.0
2024-02-28 14:34:52.092148,1709127292.0921478,-5.859375,-23.92578125,-30.2734375,312.01171875,-1.0,-1.0,0.0,0.0,4.m4v,11.0
2024-02-28 14:34:52.096052,1709127292.0960522,36.62109375,-11.23046875,-24.4140625,827.1484375,-1.0,-1.0,0.0,0.0,4.m4v,11.0
2024-02-28 14:34:52.099957,1709127292.0999565,-2.44140625,-15.625,-15.13671875,250.48828125,-1.0,-1.0,0.0,0.0,4.m4v,11.0
2024-02-28 14:34:52.103861,1709127292.1038609,-87.890625,-48.828125,-34.66796875,-726.07421875,-1.0,-1.0,0.0,0.0,4.m4v,11.0
2024-02-28 14:34:52.107765,1709127292.1077652,-97.65625,-63.96484375,-47.36328125,-775.390625,-1.0,-1.0,0.0,0.0,4.m4v,11.0
2024-02-28 14:34:52.111669,1709127292.1116693,-10.7421875,-34.1796875,-39.55078125,121.09375,-1.0,-1.0,0.0,0.0,4.m4v,11.0
2024-02-28 14:34:52.115574,1709127292.1155736,43.9453125,-10.7421875,-41.50390625,773.92578125,-1.0,-1.0,0.0,0.0,4.m4v,11.0
2024-02-28 14:34:52.119494,1709127292.1194944,-2.44140625,-30.76171875,-39.55078125,263.18359375,-1.0,-1.0,0.0,0.0,4.m4v,11.0
2024-02-28 14:34:52.123399,1709127292.1233988,-70.80078125,-45.41015625,-28.3203125,-629.8828125,-1.0,-1.0,0.0,0.0,4.m4v,11.0
2024-02-28 14:34:52.127303,1709127292.1273031,-89.84375,-38.0859375,-27.34375,-677.24609375,-1.0,-1.0,0.0,0.0,4.m4v,11.0
2024-02-28 14:34:52.131207,1709127292.1312077,-35.64453125,-25.390625,-29.78515625,83.0078125,-1.0,-1.0,0.0,0.0,4.m4v,11.0
2024-02-28 14:34:52.135112,1709127292.1351118,25.390625,-14.6484375,-19.53125,697.265625,-1.0,-1.0,0.0,0.0,4.m4v,11.0
2024-02-28 14:34:52.139016,1709127292.1390162,-4.39453125,-8.30078125,-20.01953125,376.46484375,-1.0,-1.0,0.0,0.0,4.m4v,11.0
2024-02-28 14:34:52.142920,1709127292.1429205,-79.1015625,-18.5546875,-36.1328125,-474.12109375,-1.0,-1.0,0.0,0.0,4.m4v,11.0
2024-02-28 14:34:52.146825,1709127292.1468246,-103.515625,-42.48046875,-42.96875,-762.20703125,-1.0,-1.0,0.0,0.0,4.m4v,11.0
2024-02-28 14:34:52.150729,1709127292.150729,-47.8515625,-30.2734375,-42.96875,-120.1171875,-1.0,-1.0,0.0,0.0,4.m4v,11.0
2024-02-28 14:34:52.154633,1709127292.1546333,31.73828125,-9.765625,-34.66796875,652.83203125,-1.0,-1.0,0.0,0.0,4.m4v,11.0
2024-02-28 14:34:52.158538,1709127292.1585376,30.2734375,-11.23046875,-26.85546875,537.109375,-1.0,-1.0,0.0,0.0,4.m4v,11.0
2024-02-28 14:34:52.162442,1709127292.162442,-55.6640625,-40.0390625,-34.66796875,-385.7421875,-1.0,-1.0,0.0,0.0,4.m4v,11.0
2024-02-28 14:34:52.166362,1709127292.1663623,-110.3515625,-59.08203125,-47.8515625,-853.02734375,-1.0,-1.0,0.0,0.0,4.m4v,11.0
2024-02-28 14:34:52.170266,1709127292.1702664,-57.12890625,-29.78515625,-38.0859375,-248.046875,-1.0,-1.0,0.0,0.0,4.m4v,11.0
2024-02-28 14:34:52.174171,1709127292.1741707,49.8046875,-2.9296875,-2.9296875,673.828125,-1.0,-1.0,0.0,0.0,4.m4v,11.0
2024-02-28 14:34:52.178075,1709127292.178075,39.55078125,-19.04296875,-15.13671875,593.75,-1.0,-1.0,0.0,0.0,4.m4v,11.0
2024-02-28 14:34:52.181979,1709127292.1819794,-62.98828125,-45.8984375,-41.50390625,-382.32421875,-1.0,-1.0,0.0,0.0,4.m4v,11.0
2024-02-28 14:34:52.185884,1709127292.1858838,-95.703125,-41.50390625,-39.55078125,-729.00390625,-1.0,-1.0,0.0,0.0,4.m4v,11.0
2024-02-28 14:34:52.189788,1709127292.189788,-50.29296875,-27.83203125,-26.3671875,-185.05859375,-1.0,-1.0,0.0,0.0,4.m4v,11.0
2024-02-28 14:34:52.193692,1709127292.1936922,21.484375,-27.83203125,-17.08984375,545.41015625,-1.0,-1.0,0.0,0.0,4.m4v,11.0
2024-02-28 14:34:52.197597,1709127292.1975963,24.4140625,-33.69140625,-30.76171875,578.125,-1.0,-1.0,0.0,0.0,4.m4v,11.0
2024-02-28 14:34:52.201501,1709127292.201501,-41.015625,-47.36328125,-35.15625,-265.13671875,-1.0,-1.0,0.0,0.0,4.m4v,11.0
2024-02-28 14:34:52.205405,1709127292.2054052,-69.82421875,-47.8515625,-33.203125,-766.11328125,-1.0,-1.0,0.0,0.0,4.m4v,11.0
2024-02-28 14:34:52.209310,1709127292.2093096,-41.9921875,-28.3203125,-47.36328125,-284.1796875,-1.0,-1.0,0.0,0.0,4.m4v,11.0
2024-02-28 14:34:52.213230,1709127292.2132304,19.53125,-1.46484375,-29.78515625,562.01171875,-1.0,-1.0,0.0,0.0,4.m4v,11.0
2024-02-28 14:34:52.217135,1709127292.2171347,23.92578125,8.30078125,-16.6015625,666.9921875,-1.0,-1.0,0.0,0.0,4.m4v,11.0
2024-02-28 14:34:52.221039,1709127292.2210388,-54.19921875,-14.6484375,-31.73828125,-197.75390625,-1.0,-1.0,0.0,0.0,4.m4v,11.0
2024-02-28 14:34:52.224943,1709127292.2249432,-111.81640625,-51.7578125,-37.109375,-867.1875,-1.0,-1.0,0.0,0.0,4.m4v,11.0
2024-02-28 14:34:52.228848,1709127292.2288475,-77.63671875,-43.45703125,-33.69140625,-554.6875,-1.0,-1.0,0.0,0.0,4.m4v,11.0
2024-02-28 14:34:52.232752,1709127292.2327518,23.92578125,2.44140625,-21.484375,480.95703125,-1.0,-1.0,0.0,0.0,4.m4v,11.0
2024-02-28 14:34:52.236656,1709127292.2366562,44.43359375,3.90625,-34.1796875,838.8671875,-1.0,-1.0,0.0,0.0,4.m4v,11.0
2024-02-28 14:34:52.240561,1709127292.2405603,-46.875,-31.25,-44.921875,-135.25390625,-1.0,-1.0,0.0,0.0,4.m4v,11.0
2024-02-28 14:34:52.244465,1709127292.2444646,-93.26171875,-32.71484375,-28.3203125,-882.32421875,-1.0,-1.0,0.0,0.0,4.m4v,11.0
2024-02-28 14:34:52.248369,1709127292.248369,-72.75390625,-37.59765625,-31.73828125,-586.42578125,-1.0,-1.0,0.0,0.0,4.m4v,11.0
2024-02-28 14:34:52.252273,1709127292.252273,-8.30078125,-35.64453125,-28.80859375,303.7109375,-1.0,-1.0,0.0,0.0,4.m4v,11.0
2024-02-28 14:34:52.256178,1709127292.2561777,38.0859375,-15.625,-26.3671875,772.4609375,-1.0,-1.0,0.0,0.0,4.m4v,11.0
2024-02-28 14:34:52.260095,1709127292.260095,-10.7421875,-9.765625,-36.62109375,141.11328125,-1.0,-1.0,0.0,0.0,4.m4v,11.0
2024-02-28 14:34:52.263999,1709127292.2639992,-86.42578125,-36.1328125,-33.69140625,-726.5625,-1.0,-1.0,0.0,0.0,4.m4v,11.0
2024-02-28 14:34:52.267904,1709127292.2679036,-87.890625,-49.31640625,-38.0859375,-684.5703125,-1.0,-1.0,0.0,0.0,4.m4v,11.0
2024-02-28 14:34:52.271808,1709127292.2718077,-7.8125,-16.11328125,-34.66796875,223.6328125,-1.0,-1.0,0.0,0.0,4.m4v,11.0
2024-02-28 14:34:52.275712,1709127292.275712,37.109375,2.44140625,-31.73828125,791.9921875,-1.0,-1.0,0.0,0.0,4.m4v,11.0
2024-02-28 14:34:52.279616,1709127292.2796164,-7.32421875,-4.8828125,-44.43359375,275.390625,-1.0,-1.0,0.0,0.0,4.m4v,11.0
2024-02-28 14:34:52.283521,1709127292.2835207,-80.078125,-28.3203125,-41.50390625,-559.5703125,-1.0,-1.0,0.0,0.0,4.m4v,11.0
2024-02-28 14:34:52.287425,1709127292.287425,-104.4921875,-53.22265625,-36.1328125,-692.3828125,-1.0,-1.0,0.0,0.0,4.m4v,11.0
2024-02-28 14:34:52.291329,1709127292.2913294,-32.2265625,-34.1796875,-26.3671875,45.8984375,-1.0,-1.0,0.0,0.0,4.m4v,11.0
2024-02-28 14:34:52.295234,1709127292.2952335,46.38671875,-15.13671875,-7.32421875,761.71875,-1.0,-1.0,0.0,0.0,4.m4v,11.0
2024-02-28 14:34:52.299138,1709127292.2991378,11.71875,-14.6484375,-20.5078125,396.97265625,-1.0,-1.0,0.0,0.0,4.m4v,11.0
2024-02-28 14:34:52.303042,1709127292.3030422,-80.56640625,-23.92578125,-40.52734375,-555.6640625,-1.0,-1.0,0.0,0.0,4.m4v,11.0
2024-02-28 14:34:52.306969,1709127292.3069692,-96.6796875,-36.62109375,-36.62109375,-768.5546875,-1.0,-1.0,0.0,0.0,4.m4v,11.0
2024-02-28 14:34:52.310874,1709127292.3108735,-22.4609375,-19.53125,-26.85546875,17.08984375,-1.0,-1.0,0.0,0.0,4.m4v,11.0
2024-02-28 14:34:52.314778,1709127292.314778,57.12890625,-4.39453125,-21.484375,808.59375,-1.0,-1.0,0.0,0.0,4.m4v,11.0
2024-02-28 14:34:52.318682,1709127292.3186822,19.53125,-20.5078125,-28.3203125,487.3046875,-1.0,-1.0,0.0,0.0,4.m4v,11.0
2024-02-28 14:34:52.322587,1709127292.3225863,-78.125,-44.43359375,-36.62109375,-543.45703125,-1.0,-1.0,0.0,0.0,4.m4v,11.0
2024-02-28 14:34:52.326491,1709127292.3264909,-84.47265625,-30.76171875,-32.2265625,-703.61328125,-1.0,-1.0,0.0,0.0,4.m4v,11.0
2024-02-28 14:34:52.330395,1709127292.330395,-22.94921875,-14.16015625,-23.4375,48.828125,-1.0,-1.0,0.0,0.0,4.m4v,11.0
2024-02-28 14:34:52.334299,1709127292.334299,28.80859375,-20.5078125,-21.97265625,633.7890625,-1.0,-1.0,0.0,0.0,4.m4v,11.0
2024-02-28 14:34:52.338204,1709127292.3382037,18.06640625,-18.06640625,-28.80859375,481.4453125,-1.0,-1.0,0.0,0.0,4.m4v,11.0
2024-02-28 14:34:52.342108,1709127292.342108,-63.4765625,-35.15625,-40.0390625,-375.0,-1.0,-1.0,0.0,0.0,4.m4v,11.0
2024-02-28 14:34:52.346012,1709127292.3460124,-104.4921875,-46.38671875,-36.62109375,-854.98046875,-1.0,-1.0,0.0,0.0,4.m4v,11.0
2024-02-28 14:34:52.349917,1709127292.3499167,-62.01171875,-35.64453125,-20.5078125,-298.33984375,-1.0,-1.0,0.0,0.0,4.m4v,11.0
2024-02-28 14:34:52.353842,1709127292.3538418,33.203125,-20.01953125,-14.6484375,635.25390625,-1.0,-1.0,0.0,0.0,4.m4v,11.0
2024-02-28 14:34:52.357746,1709127292.357746,46.38671875,-17.08984375,-35.64453125,691.40625,-1.0,-1.0,0.0,0.0,4.m4v,11.0
2024-02-28 14:34:52.361650,1709127292.3616505,-62.5,-52.24609375,-45.8984375,-296.38671875,-1.0,-1.0,0.0,0.0,4.m4v,11.0
2024-02-28 14:34:52.365555,1709127292.3655546,-115.234375,-57.12890625,-42.48046875,-840.8203125,-1.0,-1.0,0.0,0.0,4.m4v,11.0
2024-02-28 14:34:52.369459,1709127292.369459,-74.21875,-21.484375,-35.15625,-377.9296875,-1.0,-1.0,0.0,0.0,4.m4v,11.0
2024-02-28 14:34:52.373363,1709127292.3733633,32.2265625,20.01953125,-15.625,617.67578125,-1.0,-1.0,0.0,0.0,4.m4v,11.0
2024-02-28 14:34:52.377268,1709127292.3772676,47.8515625,9.765625,-24.4140625,804.19921875,-1.0,-1.0,0.0,0.0,4.m4v,11.0
2024-02-28 14:34:52.381172,1709127292.381172,-54.6875,-33.203125,-57.6171875,-247.0703125,-1.0,-1.0,0.0,0.0,4.m4v,11.0
2024-02-28 14:34:52.385076,1709127292.3850763,-106.4453125,-44.43359375,-67.87109375,-897.94921875,-1.0,-1.0,0.0,0.0,4.m4v,11.0
2024-02-28 14:34:52.388981,1709127292.3889806,-70.80078125,-29.296875,-49.8046875,-429.19921875,-1.0,-1.0,0.0,0.0,4.m4v,11.0
2024-02-28 14:34:52.392885,1709127292.3928847,7.32421875,-12.20703125,-36.62109375,480.95703125,-1.0,-1.0,0.0,0.0,4.m4v,11.0
2024-02-28 14:34:52.396789,1709127292.396789,36.62109375,-9.27734375,-30.76171875,766.6015625,-1.0,-1.0,0.0,0.0,4.m4v,11.0
2024-02-28 14:34:52.400713,1709127292.4007134,-35.64453125,-25.87890625,-27.83203125,-12.6953125,-1.0,-1.0,0.0,0.0,4.m4v,11.0
2024-02-28 14:34:52.404618,1709127292.4046178,-104.98046875,-44.43359375,-31.73828125,-806.640625,-1.0,-1.0,0.0,0.0,4.m4v,11.0
2024-02-28 14:34:52.408522,1709127292.408522,-68.359375,-21.97265625,-22.4609375,-537.109375,-1.0,-1.0,0.0,0.0,4.m4v,11.0
2024-02-28 14:34:52.412426,1709127292.4124265,11.71875,-6.34765625,-14.16015625,390.13671875,-1.0,-1.0,0.0,0.0,4.m4v,11.0
2024-02-28 14:34:52.416331,1709127292.4163306,36.62109375,-15.13671875,-23.92578125,761.23046875,-1.0,-1.0,0.0,0.0,4.m4v,11.0
2024-02-28 14:34:52.420235,1709127292.420235,-23.4375,-24.90234375,-44.43359375,101.07421875,-1.0,-1.0,0.0,0.0,4.m4v,11.0
2024-02-28 14:34:52.424139,1709127292.4241393,-84.47265625,-32.71484375,-51.7578125,-676.26953125,-1.0,-1.0,0.0,0.0,4.m4v,11.0
2024-02-28 14:34:52.428044,1709127292.4280436,-81.0546875,-37.59765625,-46.875,-656.25,-1.0,-1.0,0.0,0.0,4.m4v,11.0
2024-02-28 14:34:52.431948,1709127292.431948,-21.97265625,-36.62109375,-32.2265625,131.34765625,-1.0,-1.0,0.0,0.0,4.m4v,11.0
2024-02-28 14:34:52.435852,1709127292.4358523,27.34375,-29.296875,-24.90234375,715.33203125,-1.0,-1.0,0.0,0.0,4.m4v,11.0
2024-02-28 14:34:52.439757,1709127292.4397566,-12.20703125,-27.83203125,-32.71484375,229.98046875,-1.0,-1.0,0.0,0.0,4.m4v,11.0
2024-02-28 14:34:52.443661,1709127292.4436607,-69.3359375,-33.203125,-27.34375,-559.08203125,-1.0,-1.0,0.0,0.0,4.m4v,11.0
2024-02-28 14:34:52.447583,1709127292.447583,-72.265625,-30.76171875,-10.7421875,-570.3125,-1.0,-1.0,0.0,0.0,4.m4v,11.0
2024-02-28 14:34:52.451487,1709127292.4514873,-20.99609375,-24.4140625,-22.94921875,111.81640625,-1.0,-1.0,0.0,0.0,4.m4v,11.0
2024-02-28 14:34:52.455392,1709127292.4553916,20.5078125,-27.34375,-67.87109375,627.9296875,-1.0,-1.0,0.0,0.0,4.m4v,11.0
2024-02-28 14:34:52.459296,1709127292.4592955,-22.4609375,-37.59765625,-73.2421875,231.4453125,-1.0,-1.0,0.0,0.0,4.m4v,11.0
2024-02-28 14:34:52.463200,1709127292.4632,-73.73046875,-44.921875,-39.55078125,-557.12890625,-1.0,-1.0,0.0,0.0,4.m4v,11.0
2024-02-28 14:34:52.467104,1709127292.4671044,-64.94140625,-21.97265625,-20.01953125,-579.1015625,-1.0,-1.0,0.0,0.0,4.m4v,11.0
2024-02-28 14:34:52.471009,1709127292.4710088,-12.20703125,-16.11328125,-21.484375,141.11328125,-1.0,-1.0,0.0,0.0,4.m4v,11.0
2024-02-28 14:34:52.474913,1709127292.4749131,15.625,-45.41015625,-36.1328125,605.95703125,-1.0,-1.0,0.0,0.0,4.m4v,11.0
2024-02-28 14:34:52.478817,1709127292.4788177,-13.671875,-45.8984375,-36.62109375,260.7421875,-1.0,-1.0,0.0,0.0,4.m4v,11.0
2024-02-28 14:34:52.482722,1709127292.4827218,-72.75390625,-43.45703125,-41.015625,-534.1796875,-1.0,-1.0,0.0,0.0,4.m4v,11.0
2024-02-28 14:34:52.486626,1709127292.486626,-99.609375,-54.6875,-59.08203125,-727.05078125,-1.0,-1.0,0.0,0.0,4.m4v,11.0
2024-02-28 14:34:52.490530,1709127292.4905305,-50.78125,-42.96875,-53.22265625,-84.47265625,-1.0,-1.0,0.0,0.0,4.m4v,11.0
2024-02-28 14:34:52.494451,1709127292.4944513,21.484375,-20.5078125,-27.83203125,662.109375,-1.0,-1.0,0.0,0.0,4.m4v,11.0
2024-02-28 14:34:52.498356,1709127292.4983556,9.27734375,-28.3203125,-26.85546875,512.20703125,-1.0,-1.0,0.0,0.0,4.m4v,11.0
2024-02-28 14:34:52.502260,1709127292.50226,-73.73046875,-52.24609375,-36.62109375,-418.45703125,-1.0,-1.0,0.0,0.0,4.m4v,11.0
2024-02-28 14:34:52.506164,1709127292.5061643,-94.7265625,-59.08203125,-35.15625,-747.0703125,-1.0,-1.0,0.0,0.0,4.m4v,11.0
2024-02-28 14:34:52.510068,1709127292.5100684,-33.203125,-47.8515625,-35.64453125,-170.41015625,-1.0,-1.0,0.0,0.0,4.m4v,11.0
2024-02-28 14:34:52.513973,1709127292.5139728,51.26953125,-8.7890625,-20.99609375,672.36328125,-1.0,-1.0,0.0,0.0,4.m4v,11.0
2024-02-28 14:34:52.517877,1709127292.517877,41.50390625,6.34765625,-18.5546875,738.28125,-1.0,-1.0,0.0,0.0,4.m4v,11.0
2024-02-28 14:34:52.521781,1709127292.5217814,-66.40625,-32.2265625,-37.59765625,-291.015625,-1.0,-1.0,0.0,0.0,4.m4v,11.0
2024-02-28 14:34:52.525686,1709127292.5256858,-119.62890625,-55.17578125,-54.6875,-932.12890625,-1.0,-1.0,0.0,0.0,4.m4v,11.0
2024-02-28 14:34:52.529590,1709127292.52959,-88.8671875,-44.921875,-49.8046875,-441.89453125,-1.0,-1.0,0.0,0.0,4.m4v,11.0
2024-02-28 14:34:52.533494,1709127292.5334945,-14.16015625,-30.76171875,-25.390625,484.375,-1.0,-1.0,0.0,0.0,4.m4v,11.0
2024-02-28 14:34:52.537399,1709127292.5373988,11.23046875,-23.4375,-14.16015625,705.56640625,-1.0,-1.0,0.0,0.0,4.m4v,11.0
2024-02-28 14:34:52.541319,1709127292.541319,-56.640625,-39.55078125,-41.9921875,-132.8125,-1.0,-1.0,0.0,0.0,4.m4v,11.0
2024-02-28 14:34:52.545223,1709127292.5452232,-109.375,-50.29296875,-60.05859375,-791.9921875,-1.0,-1.0,0.0,0.0,4.m4v,11.0
2024-02-28 14:34:52.549127,1709127292.549127,-74.21875,-37.109375,-36.1328125,-444.82421875,-1.0,-1.0,0.0,0.0,4.m4v,11.0
2024-02-28 14:34:52.553032,1709127292.5530317,-0.48828125,-29.296875,-18.06640625,427.24609375,-1.0,-1.0,0.0,0.0,4.m4v,11.0
2024-02-28 14:34:52.556936,1709127292.556936,23.4375,-20.99609375,-35.64453125,673.828125,-1.0,-1.0,0.0,0.0,4.m4v,11.0
2024-02-28 14:34:52.560840,1709127292.5608404,-27.34375,-12.6953125,-50.78125,1.953125,-1.0,-1.0,0.0,0.0,4.m4v,11.0
2024-02-28 14:34:52.564745,1709127292.5647447,-86.42578125,-34.66796875,-17.578125,-630.859375,-1.0,-1.0,0.0,0.0,4.m4v,11.0
2024-02-28 14:34:52.568649,1709127292.568649,-82.51953125,-58.59375,-7.32421875,-538.0859375,-1.0,-1.0,0.0,0.0,4.m4v,11.0
2024-02-28 14:34:52.572553,1709127292.5725534,-29.296875,-50.29296875,-25.390625,181.640625,-1.0,-1.0,0.0,0.0,4.m4v,11.0
2024-02-28 14:34:52.576458,1709127292.5764575,9.27734375,-27.83203125,-21.484375,668.45703125,-1.0,-1.0,0.0,0.0,4.m4v,11.0
2024-02-28 14:34:52.580362,1709127292.5803618,-37.109375,-19.04296875,-27.34375,98.6328125,-1.0,-1.0,0.0,0.0,4.m4v,11.0
2024-02-28 14:34:52.584266,1709127292.5842662,-106.93359375,-39.0625,-31.73828125,-747.55859375,-1.0,-1.0,0.0,0.0,4.m4v,11.0
2024-02-28 14:34:52.588191,1709127292.5881906,-99.609375,-48.828125,-43.9453125,-640.625,-1.0,-1.0,0.0,0.0,4.m4v,11.0
2024-02-28 14:34:52.592095,1709127292.592095,-24.90234375,-27.83203125,-39.0625,217.7734375,-1.0,-1.0,0.0,0.0,4.m4v,11.0
2024-02-28 14:34:52.595999,1709127292.5959992,37.59765625,0.9765625,-15.13671875,805.17578125,-1.0,-1.0,0.0,0.0,4.m4v,11.0
2024-02-28 14:34:52.599904,1709127292.5999036,-16.6015625,-14.16015625,-16.11328125,236.81640625,-1.0,-1.0,0.0,0.0,4.m4v,11.0
2024-02-28 14:34:52.603808,1709127292.603808,-100.5859375,-34.1796875,-40.0390625,-677.24609375,-1.0,-1.0,0.0,0.0,4.m4v,11.0
2024-02-28 14:34:52.607712,1709127292.6077125,-92.28515625,-21.484375,-62.98828125,-622.55859375,-1.0,-1.0,0.0,0.0,4.m4v,11.0
2024-02-28 14:34:52.611617,1709127292.6116166,-20.01953125,-18.06640625,-53.7109375,192.3828125,-1.0,-1.0,0.0,0.0,4.m4v,11.0
2024-02-28 14:34:52.615521,1709127292.615521,33.203125,-27.34375,-25.390625,687.98828125,-1.0,-1.0,0.0,0.0,4.m4v,11.0
2024-02-28 14:34:52.619425,1709127292.619425,-14.16015625,-35.64453125,-25.390625,207.03125,-1.0,-1.0,0.0,0.0,4.m4v,11.0
2024-02-28 14:34:52.623329,1709127292.6233294,-98.14453125,-59.5703125,-32.71484375,-672.8515625,-1.0,-1.0,0.0,0.0,4.m4v,11.0
2024-02-28 14:34:52.627234,1709127292.6272335,-96.19140625,-57.6171875,-26.3671875,-734.86328125,-1.0,-1.0,0.0,0.0,4.m4v,11.0
2024-02-28 14:34:52.631138,1709127292.631138,-35.64453125,-40.52734375,-21.97265625,51.7578125,-1.0,-1.0,0.0,0.0,4.m4v,11.0
2024-02-28 14:34:52.635067,1709127292.635067,14.16015625,-35.64453125,-28.3203125,701.66015625,-1.0,-1.0,0.0,0.0,4.m4v,11.0
2024-02-28 14:34:52.638971,1709127292.638971,13.18359375,-19.53125,-30.2734375,448.73046875,-1.0,-1.0,0.0,0.0,4.m4v,11.0
2024-02-28 14:34:52.642876,1709127292.6428757,-57.12890625,-24.4140625,-32.2265625,-441.89453125,-1.0,-1.0,0.0,0.0,4.m4v,11.0
2024-02-28 14:34:52.646780,1709127292.64678,-105.46875,-45.41015625,-44.43359375,-791.015625,-1.0,-1.0,0.0,0.0,4.m4v,11.0
2024-02-28 14:34:52.650684,1709127292.6506844,-56.640625,-39.55078125,-40.52734375,-163.57421875,-1.0,-1.0,0.0,0.0,4.m4v,11.0
2024-02-28 14:34:52.654588,1709127292.6545885,36.62109375,2.44140625,-30.76171875,751.46484375,-1.0,-1.0,0.0,0.0,4.m4v,11.0
2024-02-28 14:34:52.658493,1709127292.6584928,23.4375,3.90625,-38.57421875,621.09375,-1.0,-1.0,0.0,0.0,4.m4v,11.0
2024-02-28 14:34:52.662397,1709127292.6623971,-77.63671875,-42.48046875,-39.0625,-485.83984375,-1.0,-1.0,0.0,0.0,4.m4v,11.0
2024-02-28 14:34:52.666301,1709127292.6663015,-101.07421875,-52.734375,-46.38671875,-880.37109375,-1.0,-1.0,0.0,0.0,4.m4v,11.0
2024-02-28 14:34:52.670206,1709127292.6702058,-36.1328125,-33.69140625,-36.62109375,-209.47265625,-1.0,-1.0,0.0,0.0,4.m4v,11.0
2024-02-28 14:34:52.674110,1709127292.6741102,24.90234375,-26.85546875,-21.484375,625.48828125,-1.0,-1.0,0.0,0.0,4.m4v,11.0
2024-02-28 14:34:52.678015,1709127292.6780145,14.6484375,-19.53125,-22.4609375,575.68359375,-1.0,-1.0,0.0,0.0,4.m4v,11.0
2024-02-28 14:34:52.681942,1709127292.6819425,-69.82421875,-36.62109375,-36.62109375,-371.09375,-1.0,-1.0,0.0,0.0,4.m4v,11.0
2024-02-28 14:34:52.685847,1709127292.6858466,-104.4921875,-53.7109375,-34.1796875,-850.09765625,-1.0,-1.0,0.0,0.0,4.m4v,11.0
2024-02-28 14:34:52.689751,1709127292.689751,-43.9453125,-37.109375,-18.5546875,-280.2734375,-1.0,-1.0,0.0,0.0,4.m4v,11.0
2024-02-28 14:34:52.693655,1709127292.6936553,52.24609375,-27.83203125,-12.6953125,629.8828125,-1.0,-1.0,0.0,0.0,4.m4v,11.0
2024-02-28 14:34:52.697560,1709127292.6975596,51.26953125,-29.296875,-23.92578125,728.02734375,-1.0,-1.0,0.0,0.0,4.m4v,11.0
2024-02-28 14:34:52.701464,1709127292.701464,-55.17578125,-31.73828125,-41.9921875,-145.99609375,-1.0,-1.0,0.0,0.0,4.m4v,11.0
2024-02-28 14:34:52.705368,1709127292.7053685,-105.95703125,-37.59765625,-41.50390625,-791.9921875,-1.0,-1.0,0.0,0.0,4.m4v,11.0
2024-02-28 14:34:52.709273,1709127292.7092726,-84.47265625,-48.33984375,-32.2265625,-540.0390625,-1.0,-1.0,0.0,0.0,4.m4v,11.0
2024-02-28 14:34:52.713177,1709127292.713177,-18.5546875,-50.29296875,-8.30078125,340.33203125,-1.0,-1.0,0.0,0.0,4.m4v,11.0
2024-02-28 14:34:52.717081,1709127292.717081,20.99609375,-30.76171875,-3.41796875,714.35546875,-1.0,-1.0,0.0,0.0,4.m4v,11.0
2024-02-28 14:34:52.720985,1709127292.7209854,-45.8984375,-42.96875,-16.6015625,-72.75390625,-1.0,-1.0,0.0,0.0,4.m4v,11.0
2024-02-28 14:34:52.724890,1709127292.7248898,-108.88671875,-67.3828125,-27.83203125,-817.87109375,-1.0,-1.0,0.0,0.0,4.m4v,11.0
2024-02-28 14:34:52.728816,1709127292.7288158,-74.70703125,-44.43359375,-36.62109375,-485.83984375,-1.0,-1.0,0.0,0.0,4.m4v,11.0
2024-02-28 14:34:52.732720,1709127292.73272,5.37109375,-8.7890625,-32.71484375,459.47265625,-1.0,-1.0,0.0,0.0,4.m4v,11.0
2024-02-28 14:34:52.736624,1709127292.7366242,28.3203125,-15.625,-22.94921875,787.59765625,-1.0,-1.0,0.0,0.0,4.m4v,11.0
2024-02-28 14:34:52.740529,1709127292.7405286,-46.38671875,-46.38671875,-31.73828125,-49.8046875,-1.0,-1.0,0.0,0.0,4.m4v,11.0
2024-02-28 14:34:52.744433,1709127292.744433,-101.07421875,-46.38671875,-35.64453125,-795.41015625,-1.0,-1.0,0.0,0.0,4.m4v,11.0
2024-02-28 14:34:52.748337,1709127292.7483373,-57.12890625,-14.16015625,-18.5546875,-392.08984375,-1.0,-1.0,0.0,0.0,4.m4v,11.0
2024-02-28 14:34:52.752242,1709127292.7522416,3.41796875,-9.27734375,-10.25390625,405.76171875,-1.0,-1.0,0.0,0.0,4.m4v,11.0
2024-02-28 14:34:52.756146,1709127292.756146,15.13671875,-27.83203125,-21.97265625,632.32421875,-1.0,-1.0,0.0,0.0,4.m4v,11.0
2024-02-28 14:34:52.760050,1709127292.7600503,-31.73828125,-36.62109375,-38.0859375,88.37890625,-1.0,-1.0,0.0,0.0,4.m4v,11.0
2024-02-28 14:34:52.763955,1709127292.7639546,-113.76953125,-70.80078125,-40.52734375,-739.74609375,-1.0,-1.0,0.0,0.0,4.m4v,11.0
2024-02-28 14:34:52.767859,1709127292.7678587,-110.3515625,-70.80078125,-24.4140625,-727.5390625,-1.0,-1.0,0.0,0.0,4.m4v,11.0
2024-02-28 14:34:52.771763,1709127292.771763,-25.87890625,-31.25,-19.53125,171.875,-1.0,-1.0,0.0,0.0,4.m4v,11.0
2024-02-28 14:34:52.775687,1709127292.7756867,32.71484375,-6.34765625,-15.625,804.19921875,-1.0,-1.0,0.0,0.0,4.m4v,11.0
2024-02-28 14:34:52.779591,1709127292.7795908,-16.6015625,-17.08984375,-20.99609375,295.8984375,-1.0,-1.0,0.0,0.0,4.m4v,11.0
2024-02-28 14:34:52.783495,1709127292.7834952,-96.19140625,-40.0390625,-35.64453125,-611.328125,-1.0,-1.0,0.0,0.0,4.m4v,11.0
2024-02-28 14:34:52.787400,1709127292.7873995,-93.75,-36.1328125,-44.921875,-674.31640625,-1.0,-1.0,0.0,0.0,4.m4v,11.0
2024-02-28 14:34:52.791304,1709127292.791304,-26.3671875,-12.20703125,-18.06640625,71.77734375,-1.0,-1.0,0.0,0.0,4.m4v,11.0
2024-02-28 14:34:52.795208,1709127292.7952082,34.1796875,5.859375,-4.39453125,832.51953125,-1.0,-1.0,0.0,0.0,4.m4v,11.0
2024-02-28 14:34:52.799113,1709127292.7991126,-14.6484375,-19.04296875,-27.83203125,464.35546875,-1.0,-1.0,0.0,0.0,4.m4v,11.0
2024-02-28 14:34:52.803017,1709127292.803017,-113.76953125,-61.03515625,-38.0859375,-625.48828125,-1.0,-1.0,0.0,0.0,4.m4v,11.0
2024-02-28 14:34:52.806921,1709127292.8069212,-119.62890625,-64.94140625,-37.109375,-833.984375,-1.0,-1.0,0.0,0.0,4.m4v,11.0
2024-02-28 14:34:52.810825,1709127292.810825,-43.9453125,-43.9453125,-35.15625,-30.76171875,-1.0,-1.0,0.0,0.0,4.m4v,11.0
2024-02-28 14:34:52.814730,1709127292.8147297,23.4375,-26.85546875,-35.64453125,718.75,-1.0,-1.0,0.0,0.0,4.m4v,11.0
2024-02-28 14:34:52.818634,1709127292.818634,19.04296875,-16.11328125,-13.671875,582.51953125,-1.0,-1.0,0.0,0.0,4.m4v,11.0
2024-02-28 14:34:52.822557,1709127292.8225572,-59.08203125,-45.41015625,-4.39453125,-331.0546875,-1.0,-1.0,0.0,0.0,4.m4v,11.0
2024-02-28 14:34:52.826462,1709127292.8264616,-103.02734375,-76.66015625,-25.390625,-826.171875,-1.0,-1.0,0.0,0.0,4.m4v,11.0
2024-02-28 14:34:52.830366,1709127292.830366,-57.6171875,-62.98828125,-32.2265625,-230.46875,-1.0,-1.0,0.0,0.0,4.m4v,11.0
2024-02-28 14:34:52.834270,1709127292.8342702,20.5078125,-35.64453125,-24.90234375,614.74609375,-1.0,-1.0,0.0,0.0,4.m4v,11.0
2024-02-28 14:34:52.838175,1709127292.8381746,17.578125,-8.7890625,-34.66796875,545.8984375,-1.0,-1.0,0.0,0.0,4.m4v,11.0
2024-02-28 14:34:52.842079,1709127292.842079,-54.19921875,-0.9765625,-29.296875,-330.078125,-1.0,-1.0,0.0,0.0,4.m4v,11.0
2024-02-28 14:34:52.845983,1709127292.845983,-83.0078125,-4.39453125,-10.7421875,-719.23828125,-1.0,-1.0,0.0,0.0,4.m4v,11.0
2024-02-28 14:34:52.849887,1709127292.8498874,-51.26953125,-19.53125,-10.7421875,-236.81640625,-1.0,-1.0,0.0,0.0,4.m4v,11.0
2024-02-28 14:34:52.853792,1709127292.8537917,3.41796875,-28.80859375,-28.3203125,489.74609375,-1.0,-1.0,0.0,0.0,4.m4v,11.0
2024-02-28 14:34:52.857696,1709127292.857696,-1.953125,-29.296875,-50.29296875,517.578125,-1.0,-1.0,0.0,0.0,4.m4v,11.0
2024-02-28 14:34:52.861600,1709127292.8616004,-69.82421875,-50.78125,-47.8515625,-304.19921875,-1.0,-1.0,0.0,0.0,4.m4v,11.0
2024-02-28 14:34:52.865505,1709127292.8655047,-102.5390625,-60.546875,-38.0859375,-814.94140625,-1.0,-1.0,0.0,0.0,4.m4v,11.0
2024-02-28 14:34:52.869425,1709127292.8694253,-61.5234375,-42.48046875,-31.25,-346.6796875,-1.0,-1.0,0.0,0.0,4.m4v,11.0
2024-02-28 14:34:52.873330,1709127292.8733296,3.41796875,-51.26953125,-31.25,483.3984375,-1.0,-1.0,0.0,0.0,4.m4v,11.0
2024-02-28 14:34:52.877234,1709127292.877234,17.578125,-48.33984375,-38.57421875,671.875,-1.0,-1.0,0.0,0.0,4.m4v,11.0
2024-02-28 14:34:52.881138,1709127292.8811383,-33.203125,-19.04296875,-34.1796875,-35.15625,-1.0,-1.0,0.0,0.0,4.m4v,11.0
2024-02-28 14:34:52.885043,1709127292.885043,-101.07421875,-30.76171875,-32.2265625,-766.6015625,-1.0,-1.0,0.0,0.0,4.m4v,11.0
2024-02-28 14:34:52.888947,1709127292.888947,-87.890625,-35.15625,-32.71484375,-456.0546875,-1.0,-1.0,0.0,0.0,4.m4v,11.0
2024-02-28 14:34:52.892851,1709127292.8928514,-5.859375,-22.4609375,-30.76171875,485.83984375,-1.0,-1.0,0.0,0.0,4.m4v,11.0
2024-02-28 14:34:52.896755,1709127292.8967557,15.625,-28.3203125,-34.1796875,689.453125,-1.0,-1.0,0.0,0.0,4.m4v,11.0
2024-02-28 14:34:52.900660,1709127292.9006598,-37.59765625,-32.2265625,-35.15625,-49.8046875,-1.0,-1.0,0.0,0.0,4.m4v,11.0
2024-02-28 14:34:52.904564,1709127292.904564,-90.33203125,-35.15625,-39.0625,-756.34765625,-1.0,-1.0,0.0,0.0,4.m4v,11.0
2024-02-28 14:34:52.908468,1709127292.9084685,-76.66015625,-33.69140625,-48.33984375,-548.33984375,-1.0,-1.0,0.0,0.0,4.m4v,11.0
2024-02-28 14:34:52.912373,1709127292.9123728,-1.46484375,-26.3671875,-35.15625,311.5234375,-1.0,-1.0,0.0,0.0,4.m4v,11.0
2024-02-28 14:34:52.916292,1709127292.916292,36.62109375,-19.53125,-20.5078125,702.1484375,-1.0,-1.0,0.0,0.0,4.m4v,11.0
2024-02-28 14:34:52.920196,1709127292.9201963,-31.73828125,-38.0859375,-39.55078125,-3.41796875,-1.0,-1.0,0.0,0.0,4.m4v,11.0
2024-02-28 14:34:52.924101,1709127292.9241006,-102.05078125,-57.12890625,-47.36328125,-776.85546875,-1.0,-1.0,0.0,0.0,4.m4v,11.0
2024-02-28 14:34:52.928005,1709127292.928005,-74.21875,-47.8515625,-36.1328125,-562.01171875,-1.0,-1.0,0.0,0.0,4.m4v,11.0
2024-02-28 14:34:52.931909,1709127292.931909,4.8828125,-37.59765625,-25.87890625,254.8828125,-1.0,-1.0,0.0,0.0,4.m4v,11.0
2024-02-28 14:34:52.935814,1709127292.9358137,50.78125,-23.4375,-15.625,790.0390625,-1.0,-1.0,0.0,0.0,4.m4v,11.0
2024-02-28 14:34:52.939718,1709127292.939718,8.30078125,-9.765625,-25.87890625,359.86328125,-1.0,-1.0,0.0,0.0,4.m4v,11.0
2024-02-28 14:34:52.943622,1709127292.9436224,-85.44921875,-48.828125,-57.12890625,-611.81640625,-1.0,-1.0,0.0,0.0,4.m4v,11.0
2024-02-28 14:34:52.947526,1709127292.9475265,-82.03125,-49.8046875,-56.15234375,-762.20703125,-1.0,-1.0,0.0,0.0,4.m4v,11.0
2024-02-28 14:34:52.951431,1709127292.9514308,0.0,-6.8359375,-26.85546875,65.91796875,-1.0,-1.0,0.0,0.0,4.m4v,11.0
2024-02-28 14:34:52.955335,1709127292.9553351,43.45703125,-11.23046875,-13.18359375,747.55859375,-1.0,-1.0,0.0,0.0,4.m4v,11.0
2024-02-28 14:34:52.959239,1709127292.9592395,1.953125,-27.34375,-24.4140625,354.98046875,-1.0,-1.0,0.0,0.0,4.m4v,11.0
2024-02-28 14:34:52.963157,1709127292.9631572,-78.125,-41.50390625,-40.52734375,-567.87109375,-1.0,-1.0,0.0,0.0,4.m4v,11.0
2024-02-28 14:34:52.967062,1709127292.9670615,-87.40234375,-44.43359375,-43.45703125,-743.1640625,-1.0,-1.0,0.0,0.0,4.m4v,11.0
2024-02-28 14:34:52.970966,1709127292.970966,-30.2734375,-39.0625,-43.45703125,-48.828125,-1.0,-1.0,0.0,0.0,4.m4v,11.0
2024-02-28 14:34:52.974870,1709127292.9748702,28.3203125,-41.50390625,-36.62109375,667.48046875,-1.0,-1.0,0.0,0.0,4.m4v,11.0
2024-02-28 14:34:52.978775,1709127292.9787743,20.5078125,-45.41015625,-22.4609375,414.0625,-1.0,-1.0,0.0,0.0,4.m4v,11.0
2024-02-28 14:34:52.982679,1709127292.982679,-33.69140625,-22.94921875,-20.5078125,-393.5546875,-1.0,-1.0,0.0,0.0,4.m4v,11.0
2024-02-28 14:34:52.986583,1709127292.9865832,-71.77734375,-11.23046875,-29.78515625,-651.3671875,-1.0,-1.0,0.0,0.0,4.m4v,11.0
2024-02-28 14:34:52.990488,1709127292.9904876,-57.6171875,-30.2734375,-33.69140625,-236.81640625,-1.0,-1.0,0.0,0.0,4.m4v,11.0
2024-02-28 14:34:52.994392,1709127292.9943917,15.13671875,-24.90234375,-36.1328125,509.765625,-1.0,-1.0,0.0,0.0,4.m4v,11.0
2024-02-28 14:34:52.998296,1709127292.998296,26.3671875,-18.5546875,-32.2265625,531.25,-1.0,-1.0,0.0,0.0,4.m4v,11.0
2024-02-28 14:34:53.002200,1709127293.0022004,-50.78125,-31.25,-30.76171875,-346.19140625,-1.0,-1.0,0.0,0.0,4.m4v,11.0
2024-02-28 14:34:53.006105,1709127293.0061047,-102.5390625,-56.640625,-45.41015625,-844.23828125,-1.0,-1.0,0.0,0.0,4.m4v,11.0
2024-02-28 14:34:53.010022,1709127293.0100217,-70.80078125,-56.640625,-59.5703125,-334.47265625,-1.0,-1.0,0.0,0.0,4.m4v,11.0
2024-02-28 14:34:53.013926,1709127293.013926,16.6015625,-27.34375,-30.76171875,553.7109375,-1.0,-1.0,0.0,0.0,4.m4v,11.0
2024-02-28 14:34:53.017830,1709127293.0178304,40.52734375,-14.6484375,-0.9765625,645.5078125,-1.0,-1.0,0.0,0.0,4.m4v,11.0
2024-02-28 14:34:53.021735,1709127293.0217347,-43.45703125,-31.25,-12.20703125,-255.859375,-1.0,-1.0,0.0,0.0,4.m4v,11.0
2024-02-28 14:34:53.025639,1709127293.025639,-98.14453125,-39.55078125,-42.48046875,-864.2578125,-1.0,-1.0,0.0,0.0,4.m4v,11.0
2024-02-28 14:34:53.029543,1709127293.0295434,-48.828125,-15.625,-37.109375,-322.265625,-1.0,-1.0,0.0,0.0,4.m4v,11.0
2024-02-28 14:34:53.033448,1709127293.0334475,13.671875,0.0,-10.25390625,552.734375,-1.0,-1.0,0.0,0.0,4.m4v,11.0
2024-02-28 14:34:53.037352,1709127293.0373518,0.9765625,-22.4609375,-21.484375,556.640625,-1.0,-1.0,0.0,0.0,4.m4v,11.0
2024-02-28 14:34:53.041256,1709127293.0412562,-64.94140625,-42.96875,-30.76171875,-300.29296875,-1.0,-1.0,0.0,0.0,4.m4v,11.0
2024-02-28 14:34:53.045161,1709127293.0451603,-95.21484375,-36.1328125,-23.4375,-812.98828125,-1.0,-1.0,0.0,0.0,4.m4v,11.0
2024-02-28 14:34:53.049065,1709127293.0490649,-51.7578125,-18.5546875,-26.3671875,-355.46875,-1.0,-1.0,0.0,0.0,4.m4v,11.0
2024-02-28 14:34:53.052969,1709127293.0529692,30.2734375,-8.7890625,-25.390625,501.46484375,-1.0,-1.0,0.0,0.0,4.m4v,11.0
2024-02-28 14:34:53.056886,1709127293.056886,58.10546875,-5.859375,-4.8828125,812.98828125,-1.0,-1.0,0.0,0.0,4.m4v,11.0
2024-02-28 14:34:53.060790,1709127293.0607903,-28.80859375,-20.99609375,-33.203125,18.06640625,-1.0,-1.0,0.0,0.0,4.m4v,11.0
2024-02-28 14:34:53.064695,1709127293.0646946,-112.3046875,-54.6875,-73.73046875,-880.37109375,-1.0,-1.0,0.0,0.0,4.m4v,11.0
2024-02-28 14:34:53.068599,1709127293.068599,-87.40234375,-67.87109375,-41.50390625,-646.97265625,-1.0,-1.0,0.0,0.0,4.m4v,11.0
2024-02-28 14:34:53.072503,1709127293.072503,15.13671875,-34.1796875,-2.44140625,360.83984375,-1.0,-1.0,0.0,0.0,4.m4v,11.0
2024-02-28 14:34:53.076408,1709127293.0764077,58.59375,3.90625,-17.08984375,870.1171875,-1.0,-1.0,0.0,0.0,4.m4v,11.0
2024-02-28 14:34:53.080312,1709127293.080312,-23.4375,-17.578125,-40.52734375,137.20703125,-1.0,-1.0,0.0,0.0,4.m4v,11.0
2024-02-28 14:34:53.084216,1709127293.0842164,-96.19140625,-40.0390625,-32.2265625,-789.55078125,-1.0,-1.0,0.0,0.0,4.m4v,11.0
2024-02-28 14:34:53.088120,1709127293.0881205,-79.1015625,-39.55078125,-14.6484375,-646.97265625,-1.0,-1.0,0.0,0.0,4.m4v,11.0
2024-02-28 14:34:53.092025,1709127293.0920248,-10.7421875,-34.1796875,-10.7421875,212.40234375,-1.0,-1.0,0.0,0.0,4.m4v,11.0
2024-02-28 14:34:53.095929,1709127293.0959291,37.59765625,-26.85546875,-23.4375,733.88671875,-1.0,-1.0,0.0,0.0,4.m4v,11.0
2024-02-28 14:34:53.099833,1709127293.0998335,-11.23046875,-29.78515625,-39.55078125,187.5,-1.0,-1.0,0.0,0.0,4.m4v,11.0
2024-02-28 14:34:53.103760,1709127293.1037595,-74.70703125,-25.390625,-25.87890625,-614.2578125,-1.0,-1.0,0.0,0.0,4.m4v,11.0
2024-02-28 14:34:53.107664,1709127293.107664,-81.54296875,-28.80859375,-28.3203125,-620.60546875,-1.0,-1.0,0.0,0.0,4.m4v,11.0
2024-02-28 14:34:53.111568,1709127293.1115682,-29.296875,-26.3671875,-35.15625,141.11328125,-1.0,-1.0,0.0,0.0,4.m4v,11.0
2024-02-28 14:34:53.115473,1709127293.1154726,33.203125,-20.99609375,-27.83203125,797.8515625,-1.0,-1.0,0.0,0.0,4.m4v,11.0
2024-02-28 14:34:53.119377,1709127293.119377,-3.41796875,-33.69140625,-41.015625,375.9765625,-1.0,-1.0,0.0,0.0,4.m4v,11.0
2024-02-28 14:34:53.123281,1709127293.1232812,-59.08203125,-30.76171875,-25.390625,-449.21875,-1.0,-1.0,0.0,0.0,4.m4v,11.0
2024-02-28 14:34:53.127185,1709127293.127185,-62.01171875,-32.71484375,-7.8125,-589.84375,-1.0,-1.0,0.0,0.0,4.m4v,11.0
2024-02-28 14:34:53.131090,1709127293.1310897,-39.0625,-45.41015625,-20.01953125,-86.9140625,-1.0,-1.0,0.0,0.0,4.m4v,11.0
2024-02-28 14:34:53.134994,1709127293.134994,1.46484375,-41.50390625,-36.62109375,532.71484375,-1.0,-1.0,0.0,0.0,4.m4v,11.0
2024-02-28 14:34:53.138898,1709127293.1388984,-6.8359375,-25.390625,-35.64453125,354.00390625,-1.0,-1.0,0.0,0.0,4.m4v,11.0
2024-02-28 14:34:53.142803,1709127293.1428027,-68.359375,-31.73828125,-32.71484375,-452.1484375,-1.0,-1.0,0.0,0.0,4.m4v,11.0
2024-02-28 14:34:53.146707,1709127293.146707,-92.28515625,-38.0859375,-40.52734375,-709.47265625,-1.0,-1.0,0.0,0.0,4.m4v,11.0
2024-02-28 14:34:53.150631,1709127293.1506314,-52.24609375,-22.4609375,-46.875,-116.2109375,-1.0,-1.0,0.0,0.0,4.m4v,11.0
2024-02-28 14:34:53.154536,1709127293.1545358,19.53125,-14.16015625,-39.55078125,688.96484375,-1.0,-1.0,0.0,0.0,4.m4v,11.0
2024-02-28 14:34:53.158440,1709127293.15844,11.23046875,-23.4375,-31.25,525.390625,-1.0,-1.0,0.0,0.0,4.m4v,11.0
2024-02-28 14:34:53.162344,1709127293.1623442,-80.56640625,-39.55078125,-36.62109375,-447.265625,-1.0,-1.0,0.0,0.0,4.m4v,11.0
2024-02-28 14:34:53.166249,1709127293.1662486,-117.67578125,-53.22265625,-35.15625,-825.68359375,-1.0,-1.0,0.0,0.0,4.m4v,11.0
2024-02-28 14:34:53.170153,1709127293.170153,-58.10546875,-34.1796875,-25.390625,-145.01953125,-1.0,-1.0,0.0,0.0,4.m4v,11.0
2024-02-28 14:34:53.174057,1709127293.1740572,13.18359375,-29.78515625,-18.5546875,668.45703125,-1.0,-1.0,0.0,0.0,4.m4v,11.0
2024-02-28 14:34:53.177962,1709127293.1779616,14.16015625,-39.0625,-27.83203125,580.56640625,-1.0,-1.0,0.0,0.0,4.m4v,11.0
2024-02-28 14:34:53.181866,1709127293.181866,-64.94140625,-34.1796875,-52.734375,-283.69140625,-1.0,-1.0,0.0,0.0,4.m4v,11.0
2024-02-28 14:34:53.185770,1709127293.1857705,-136.71875,-60.546875,-63.4765625,-899.90234375,-1.0,-1.0,0.0,0.0,4.m4v,11.0
2024-02-28 14:34:53.189675,1709127293.1896746,-83.984375,-54.19921875,-42.48046875,-419.921875,-1.0,-1.0,0.0,0.0,4.m4v,11.0
2024-02-28 14:34:53.193579,1709127293.193579,25.87890625,-17.08984375,-31.25,584.47265625,-1.0,-1.0,0.0,0.0,4.m4v,11.0
2024-02-28 14:34:53.197501,1709127293.197501,38.57421875,-15.13671875,-28.3203125,765.13671875,-1.0,-1.0,0.0,0.0,4.m4v,11.0
2024-02-28 14:34:53.201405,1709127293.2014053,-48.33984375,-44.921875,-30.2734375,-142.578125,-1.0,-1.0,0.0,0.0,4.m4v,11.0
2024-02-28 14:34:53.205310,1709127293.2053096,-106.4453125,-54.6875,-34.66796875,-831.0546875,-1.0,-1.0,0.0,0.0,4.m4v,11.0
2024-02-28 14:34:53.209214,1709127293.209214,-73.73046875,-41.50390625,-32.71484375,-422.8515625,-1.0,-1.0,0.0,0.0,4.m4v,11.0
2024-02-28 14:34:53.213118,1709127293.2131183,-4.8828125,-27.34375,-31.73828125,450.68359375,-1.0,-1.0,0.0,0.0,4.m4v,11.0
2024-02-28 14:34:53.217023,1709127293.217023,16.11328125,-12.6953125,-24.90234375,721.19140625,-1.0,-1.0,0.0,0.0,4.m4v,11.0
2024-02-28 14:34:53.220927,1709127293.2209268,-30.2734375,-15.13671875,-20.01953125,50.78125,-1.0,-1.0,0.0,0.0,4.m4v,11.0
2024-02-28 14:34:53.224831,1709127293.224831,-95.21484375,-41.50390625,-32.2265625,-721.19140625,-1.0,-1.0,0.0,0.0,4.m4v,11.0
2024-02-28 14:34:53.228735,1709127293.2287354,-88.37890625,-47.36328125,-37.59765625,-594.23828125,-1.0,-1.0,0.0,0.0,4.m4v,11.0
2024-02-28 14:34:53.232640,1709127293.2326398,-4.8828125,-25.390625,-25.87890625,292.48046875,-1.0,-1.0,0.0,0.0,4.m4v,11.0
2024-02-28 14:34:53.236544,1709127293.236544,36.62109375,-27.83203125,-22.4609375,769.53125,-1.0,-1.0,0.0,0.0,4.m4v,11.0
2024-02-28 14:34:53.240448,1709127293.2404485,-13.671875,-34.66796875,-41.015625,144.04296875,-1.0,-1.0,0.0,0.0,4.m4v,11.0
2024-02-28 14:34:53.244370,1709127293.24437,-84.47265625,-33.69140625,-50.78125,-671.875,-1.0,-1.0,0.0,0.0,4.m4v,11.0
2024-02-28 14:34:53.248274,1709127293.248274,-79.1015625,-25.87890625,-38.57421875,-580.56640625,-1.0,-1.0,0.0,0.0,4.m4v,11.0
2024-02-28 14:34:53.252178,1709127293.2521784,-8.30078125,-24.90234375,-37.59765625,240.72265625,-1.0,-1.0,0.0,0.0,4.m4v,11.0
2024-02-28 14:34:53.256083,1709127293.2560828,32.71484375,-32.2265625,-33.203125,734.375,-1.0,-1.0,0.0,0.0,4.m4v,11.0
2024-02-28 14:34:53.259987,1709127293.259987,-12.20703125,-30.76171875,-26.3671875,211.9140625,-1.0,-1.0,0.0,0.0,4.m4v,11.0
2024-02-28 14:34:53.263891,1709127293.2638917,-87.890625,-37.59765625,-41.9921875,-585.44921875,-1.0,-1.0,0.0,0.0,4.m4v,11.0
2024-02-28 14:34:53.267796,1709127293.2677958,-83.49609375,-32.71484375,-46.875,-574.70703125,-1.0,-1.0,0.0,0.0,4.m4v,11.0
2024-02-28 14:34:53.271700,1709127293.2717,-9.27734375,-16.6015625,-30.76171875,156.73828125,-1.0,-1.0,0.0,0.0,4.m4v,11.0
2024-02-28 14:34:53.275604,1709127293.2756045,44.921875,-18.06640625,-18.06640625,754.8828125,-1.0,-1.0,0.0,0.0,4.m4v,11.0
2024-02-28 14:34:53.279509,1709127293.2795088,-3.41796875,-41.50390625,-34.66796875,295.41015625,-1.0,-1.0,0.0,0.0,4.m4v,11.0
2024-02-28 14:34:53.283413,1709127293.283413,-87.890625,-43.45703125,-43.45703125,-662.109375,-1.0,-1.0,0.0,0.0,4.m4v,11.0
2024-02-28 14:34:53.287317,1709127293.2873173,-88.37890625,-33.203125,-30.76171875,-743.1640625,-1.0,-1.0,0.0,0.0,4.m4v,11.0
2024-02-28 14:34:53.291237,1709127293.2912366,-21.484375,-23.92578125,-44.921875,44.921875,-1.0,-1.0,0.0,0.0,4.m4v,11.0
2024-02-28 14:34:53.295141,1709127293.295141,32.71484375,-8.7890625,-52.24609375,713.8671875,-1.0,-1.0,0.0,0.0,4.m4v,11.0
2024-02-28 14:34:53.299045,1709127293.299045,5.37109375,0.0,-44.43359375,435.546875,-1.0,-1.0,0.0,0.0,4.m4v,11.0
2024-02-28 14:34:53.302949,1709127293.3029494,-81.54296875,-31.25,-53.22265625,-522.94921875,-1.0,-1.0,0.0,0.0,4.m4v,11.0
2024-02-28 14:34:53.306854,1709127293.3068538,-105.46875,-58.59375,-41.015625,-828.125,-1.0,-1.0,0.0,0.0,4.m4v,11.0
2024-02-28 14:34:53.310758,1709127293.310758,-34.1796875,-40.0390625,-14.6484375,-66.40625,-1.0,-1.0,0.0,0.0,4.m4v,11.0
2024-02-28 14:34:53.314662,1709127293.3146625,32.71484375,-15.625,-4.8828125,763.671875,-1.0,-1.0,0.0,0.0,4.m4v,11.0
2024-02-28 14:34:53.318567,1709127293.3185668,8.7890625,-19.53125,-21.484375,480.46875,-1.0,-1.0,0.0,0.0,4.m4v,11.0
2024-02-28 14:34:53.322471,1709127293.3224711,-76.66015625,-39.55078125,-50.78125,-530.76171875,-1.0,-1.0,0.0,0.0,4.m4v,11.0
2024-02-28 14:34:53.326375,1709127293.3263755,-112.79296875,-45.8984375,-59.08203125,-880.859375,-1.0,-1.0,0.0,0.0,4.m4v,11.0
2024-02-28 14:34:53.330280,1709127293.3302798,-65.91796875,-38.0859375,-45.41015625,-247.0703125,-1.0,-1.0,0.0,0.0,4.m4v,11.0
2024-02-28 14:34:53.334184,1709127293.334184,13.671875,-28.3203125,-20.5078125,642.08984375,-1.0,-1.0,0.0,0.0,4.m4v,11.0
2024-02-28 14:34:53.338114,1709127293.3381135,17.08984375,-20.99609375,-12.6953125,638.671875,-1.0,-1.0,0.0,0.0,4.m4v,11.0
2024-02-28 14:34:53.342018,1709127293.342018,-68.84765625,-32.2265625,-33.69140625,-319.3359375,-1.0,-1.0,0.0,0.0,4.m4v,11.0
2024-02-28 14:34:53.345922,1709127293.3459222,-101.07421875,-36.1328125,-46.875,-770.01953125,-1.0,-1.0,0.0,0.0,4.m4v,11.0
2024-02-28 14:34:53.349827,1709127293.3498266,-51.26953125,-36.1328125,-30.76171875,-280.2734375,-1.0,-1.0,0.0,0.0,4.m4v,11.0
2024-02-28 14:34:53.353731,1709127293.353731,8.30078125,-42.48046875,-31.25,480.46875,-1.0,-1.0,0.0,0.0,4.m4v,11.0
2024-02-28 14:34:53.357635,1709127293.357635,20.5078125,-22.4609375,-39.0625,667.48046875,-1.0,-1.0,0.0,0.0,4.m4v,11.0
2024-02-28 14:34:53.361539,1709127293.3615394,-42.48046875,-8.7890625,-28.80859375,-78.61328125,-1.0,-1.0,0.0,0.0,4.m4v,11.0
2024-02-28 14:34:53.365444,1709127293.3654437,-96.19140625,-22.94921875,-31.73828125,-766.6015625,-1.0,-1.0,0.0,0.0,4.m4v,11.0
2024-02-28 14:34:53.369348,1709127293.369348,-73.2421875,-29.296875,-35.15625,-500.48828125,-1.0,-1.0,0.0,0.0,4.m4v,11.0
2024-02-28 14:34:53.373252,1709127293.3732524,-0.9765625,-19.53125,-31.73828125,397.94921875,-1.0,-1.0,0.0,0.0,4.m4v,11.0
2024-02-28 14:34:53.377157,1709127293.3771567,16.6015625,-19.04296875,-33.69140625,681.15234375,-1.0,-1.0,0.0,0.0,4.m4v,11.0
2024-02-28 14:34:53.381061,1709127293.381061,-59.08203125,-28.80859375,-50.78125,-154.78515625,-1.0,-1.0,0.0,0.0,4.m4v,11.0
2024-02-28 14:34:53.384978,1709127293.3849778,-92.28515625,-32.2265625,-52.734375,-792.48046875,-1.0,-1.0,0.0,0.0,4.m4v,11.0
2024-02-28 14:34:53.388882,1709127293.3888822,-62.98828125,-36.62109375,-36.62109375,-407.2265625,-1.0,-1.0,0.0,0.0,4.m4v,11.0
2024-02-28 14:34:53.392787,1709127293.3927865,-24.90234375,-37.59765625,-20.5078125,395.5078125,-1.0,-1.0,0.0,0.0,4.m4v,11.0
2024-02-28 14:34:53.396691,1709127293.3966906,-5.37109375,-27.83203125,-6.8359375,705.078125,-1.0,-1.0,0.0,0.0,4.m4v,11.0
2024-02-28 14:34:53.400595,1709127293.400595,-54.6875,-29.78515625,-7.32421875,28.80859375,-1.0,-1.0,0.0,0.0,4.m4v,11.0
2024-02-28 14:34:53.404499,1709127293.4044993,-91.30859375,-21.484375,-16.11328125,-566.89453125,-1.0,-1.0,0.0,0.0,4.m4v,11.0
2024-02-28 14:34:53.408404,1709127293.4084036,-80.56640625,-26.85546875,-30.76171875,-423.828125,-1.0,-1.0,0.0,0.0,4.m4v,11.0
2024-02-28 14:34:53.412308,1709127293.412308,-41.50390625,-50.78125,-35.64453125,125.0,-1.0,-1.0,0.0,0.0,4.m4v,11.0
2024-02-28 14:34:53.416212,1709127293.4162123,12.20703125,-48.33984375,-25.390625,629.8828125,-1.0,-1.0,0.0,0.0,4.m4v,11.0
2024-02-28 14:34:53.420117,1709127293.420117,-14.16015625,-48.828125,-23.4375,232.421875,-1.0,-1.0,0.0,0.0,4.m4v,11.0
2024-02-28 14:34:53.424021,1709127293.424021,-98.6328125,-69.3359375,-32.2265625,-639.16015625,-1.0,-1.0,0.0,0.0,4.m4v,11.0
2024-02-28 14:34:53.427925,1709127293.427925,-107.421875,-68.359375,-27.83203125,-694.3359375,-1.0,-1.0,0.0,0.0,4.m4v,11.0
2024-02-28 14:34:53.431853,1709127293.4318526,-21.484375,-31.73828125,1.953125,163.0859375,-1.0,-1.0,0.0,0.0,4.m4v,11.0
2024-02-28 14:34:53.435757,1709127293.435757,37.109375,-3.41796875,9.765625,790.0390625,-1.0,-1.0,0.0,0.0,4.m4v,11.0
2024-02-28 14:34:53.439661,1709127293.4396613,-26.3671875,-11.71875,-24.90234375,233.88671875,-1.0,-1.0,0.0,0.0,4.m4v,11.0
2024-02-28 14:34:53.443565,1709127293.4435654,-113.76953125,-31.25,-44.43359375,-706.0546875,-1.0,-1.0,0.0,0.0,4.m4v,11.0
2024-02-28 14:34:53.447470,1709127293.4474697,-103.515625,-50.29296875,-38.0859375,-744.140625,-1.0,-1.0,0.0,0.0,4.m4v,11.0
2024-02-28 14:34:53.451374,1709127293.451374,-22.94921875,-34.1796875,-16.11328125,124.0234375,-1.0,-1.0,0.0,0.0,4.m4v,11.0
2024-02-28 14:34:53.455278,1709127293.4552784,31.73828125,-43.9453125,-10.25390625,815.91796875,-1.0,-1.0,0.0,0.0,4.m4v,11.0
2024-02-28 14:34:53.459183,1709127293.4591827,-18.06640625,-76.171875,-17.08984375,291.015625,-1.0,-1.0,0.0,0.0,4.m4v,11.0
2024-02-28 14:34:53.463087,1709127293.463087,-91.796875,-57.12890625,-27.83203125,-621.09375,-1.0,-1.0,0.0,0.0,4.m4v,11.0
2024-02-28 14:34:53.466991,1709127293.4669914,-95.21484375,-44.921875,-26.3671875,-729.4921875,-1.0,-1.0,0.0,0.0,4.m4v,11.0
2024-02-28 14:34:53.470896,1709127293.4708958,-44.43359375,-27.83203125,-28.3203125,-24.4140625,-1.0,-1.0,0.0,0.0,4.m4v,11.0
2024-02-28 14:34:53.474800,1709127293.4748,11.23046875,-13.18359375,-36.1328125,664.55078125,-1.0,-1.0,0.0,0.0,4.m4v,11.0
2024-02-28 14:34:53.478726,1709127293.478726,9.27734375,-9.27734375,-26.3671875,468.26171875,-1.0,-1.0,0.0,0.0,4.m4v,11.0
2024-02-28 14:34:53.482630,1709127293.4826305,-64.453125,-28.80859375,-35.64453125,-408.69140625,-1.0,-1.0,0.0,0.0,4.m4v,11.0
2024-02-28 14:34:53.486535,1709127293.4865346,-104.98046875,-45.41015625,-47.8515625,-822.265625,-1.0,-1.0,0.0,0.0,4.m4v,11.0
2024-02-28 14:34:53.490439,1709127293.490439,-45.41015625,-31.25,-33.69140625,-200.1953125,-1.0,-1.0,0.0,0.0,4.m4v,11.0
2024-02-28 14:34:53.494343,1709127293.494343,42.96875,-17.08984375,-17.08984375,717.7734375,-1.0,-1.0,0.0,0.0,4.m4v,11.0
2024-02-28 14:34:53.498247,1709127293.4982474,45.8984375,-3.41796875,-0.9765625,741.69921875,-1.0,-1.0,0.0,0.0,4.m4v,11.0
2024-02-28 14:34:53.502152,1709127293.5021515,-51.26953125,-20.99609375,-11.71875,-232.91015625,-1.0,-1.0,0.0,0.0,4.m4v,11.0
2024-02-28 14:34:53.506056,1709127293.506056,-112.3046875,-59.08203125,-41.015625,-895.5078125,-1.0,-1.0,0.0,0.0,4.m4v,11.0
2024-02-28 14:34:53.509960,1709127293.5099604,-63.96484375,-62.98828125,-27.34375,-421.38671875,-1.0,-1.0,0.0,0.0,4.m4v,11.0
2024-02-28 14:34:53.513865,1709127293.5138648,19.53125,-38.57421875,-9.27734375,528.80859375,-1.0,-1.0,0.0,0.0,4.m4v,11.0
2024-02-28 14:34:53.517769,1709127293.517769,20.99609375,-25.87890625,-22.94921875,604.4921875,-1.0,-1.0,0.0,0.0,4.m4v,11.0
2024-02-28 14:34:53.521673,1709127293.5216734,-51.7578125,-33.69140625,-34.1796875,-257.8125,-1.0,-1.0,0.0,0.0,4.m4v,11.0
2024-02-28 14:34:53.525597,1709127293.525597,-86.9140625,-36.62109375,-31.73828125,-741.2109375,-1.0,-1.0,0.0,0.0,4.m4v,11.0
2024-02-28 14:34:53.529501,1709127293.5295012,-50.78125,-22.94921875,-34.1796875,-320.3125,-1.0,-1.0,0.0,0.0,4.m4v,11.0
2024-02-28 14:34:53.533406,1709127293.5334055,10.7421875,-25.87890625,-31.73828125,458.49609375,-1.0,-1.0,0.0,0.0,4.m4v,11.0
2024-02-28 14:34:53.537310,1709127293.53731,34.66796875,-29.78515625,-20.5078125,697.75390625,-1.0,-1.0,0.0,0.0,4.m4v,11.0
2024-02-28 14:34:53.541214,1709127293.5412142,-30.2734375,-25.87890625,-31.73828125,-43.45703125,-1.0,-1.0,0.0,0.0,4.m4v,11.0
2024-02-28 14:34:53.545119,1709127293.5451186,-89.35546875,-23.92578125,-32.2265625,-695.3125,-1.0,-1.0,0.0,0.0,4.m4v,11.0
2024-02-28 14:34:53.549023,1709127293.549023,-61.03515625,-20.01953125,-21.97265625,-374.0234375,-1.0,-1.0,0.0,0.0,4.m4v,11.0
2024-02-28 14:34:53.552927,1709127293.5529273,-4.8828125,-22.4609375,-20.99609375,347.65625,-1.0,-1.0,0.0,0.0,4.m4v,11.0
2024-02-28 14:34:53.556832,1709127293.5568316,31.25,-18.06640625,-16.6015625,649.90234375,-1.0,-1.0,0.0,0.0,4.m4v,11.0
2024-02-28 14:34:53.560736,1709127293.560736,-14.16015625,-34.1796875,-28.80859375,38.57421875,-1.0,-1.0,0.0,0.0,4.m4v,11.0
2024-02-28 14:34:53.564640,1709127293.5646403,-86.42578125,-37.109375,-33.69140625,-684.5703125,-1.0,-1.0,0.0,0.0,4.m4v,11.0
2024-02-28 14:34:53.568544,1709127293.5685444,-87.40234375,-23.92578125,-34.1796875,-541.50390625,-1.0,-1.0,0.0,0.0,4.m4v,11.0
2024-02-28 14:34:53.572467,1709127293.5724666,-20.99609375,-18.5546875,-40.0390625,257.32421875,-1.0,-1.0,0.0,0.0,4.m4v,11.0
2024-02-28 14:34:53.576371,1709127293.576371,41.015625,-6.8359375,-11.71875,782.2265625,-1.0,-1.0,0.0,0.0,4.m4v,11.0
2024-02-28 14:34:53.580275,1709127293.5802753,-6.8359375,-17.578125,-6.34765625,187.98828125,-1.0,-1.0,0.0,0.0,4.m4v,11.0
2024-02-28 14:34:53.584180,1709127293.5841796,-95.21484375,-37.59765625,-32.2265625,-744.140625,-1.0,-1.0,0.0,0.0,4.m4v,11.0
2024-02-28 14:34:53.588084,1709127293.588084,-77.63671875,-24.90234375,-38.0859375,-647.4609375,-1.0,-1.0,0.0,0.0,4.m4v,11.0
2024-02-28 14:34:53.591988,1709127293.5919883,4.39453125,2.44140625,-29.296875,309.08203125,-1.0,-1.0,0.0,0.0,4.m4v,11.0
2024-02-28 14:34:53.595892,1709127293.5958924,34.66796875,0.48828125,-26.85546875,860.83984375,-1.0,-1.0,0.0,0.0,4.m4v,11.0
2024-02-28 14:34:53.599797,1709127293.5997968,-29.78515625,-26.3671875,-36.62109375,231.93359375,-1.0,-1.0,0.0,0.0,4.m4v,11.0
2024-02-28 14:34:53.603701,1709127293.603701,-110.3515625,-54.6875,-37.59765625,-750.0,-1.0,-1.0,0.0,0.0,4.m4v,11.0
2024-02-28 14:34:53.607605,1709127293.6076057,-113.76953125,-76.171875,-30.76171875,-812.98828125,-1.0,-1.0,0.0,0.0,4.m4v,11.0
2024-02-28 14:34:53.611510,1709127293.6115098,-40.0390625,-62.01171875,-20.01953125,-1.46484375,-1.0,-1.0,0.0,0.0,4.m4v,11.0
2024-02-28 14:34:53.615414,1709127293.615414,44.43359375,-14.16015625,-7.8125,752.9296875,-1.0,-1.0,0.0,0.0,4.m4v,11.0
2024-02-28 14:34:53.619335,1709127293.6193347,18.5546875,1.46484375,-19.04296875,464.35546875,-1.0,-1.0,0.0,0.0,4.m4v,11.0
2024-02-28 14:34:53.623239,1709127293.623239,-71.77734375,-19.04296875,-42.96875,-463.8671875,-1.0,-1.0,0.0,0.0,4.m4v,11.0
2024-02-28 14:34:53.627143,1709127293.6271434,-101.5625,-29.78515625,-55.17578125,-725.5859375,-1.0,-1.0,0.0,0.0,4.m4v,11.0
2024-02-28 14:34:53.631048,1709127293.6310475,-49.31640625,-24.4140625,-33.203125,-115.234375,-1.0,-1.0,0.0,0.0,4.m4v,11.0
2024-02-28 14:34:53.634952,1709127293.634952,30.76171875,-19.04296875,-14.16015625,681.15234375,-1.0,-1.0,0.0,0.0,4.m4v,11.0
2024-02-28 14:34:53.638856,1709127293.6388564,31.73828125,-12.20703125,-17.08984375,606.4453125,-1.0,-1.0,0.0,0.0,4.m4v,11.0
2024-02-28 14:34:53.642761,1709127293.6427608,-47.36328125,-23.92578125,-26.85546875,-308.59375,-1.0,-1.0,0.0,0.0,4.m4v,11.0
2024-02-28 14:34:53.646665,1709127293.6466649,-101.5625,-47.36328125,-37.59765625,-813.4765625,-1.0,-1.0,0.0,0.0,4.m4v,11.0
2024-02-28 14:34:53.650569,1709127293.6505692,-68.359375,-49.31640625,-27.34375,-294.921875,-1.0,-1.0,0.0,0.0,4.m4v,11.0
2024-02-28 14:34:53.654474,1709127293.6544735,20.5078125,-18.06640625,-19.53125,567.3828125,-1.0,-1.0,0.0,0.0,4.m4v,11.0
2024-02-28 14:34:53.658378,1709127293.658378,33.69140625,3.90625,-27.34375,599.12109375,-1.0,-1.0,0.0,0.0,4.m4v,11.0
2024-02-28 14:34:53.662282,1709127293.6622822,-57.12890625,-38.57421875,-30.2734375,-328.61328125,-1.0,-1.0,0.0,0.0,4.m4v,11.0
2024-02-28 14:34:53.666202,1709127293.6662023,-97.16796875,-60.05859375,-24.90234375,-876.953125,-1.0,-1.0,0.0,0.0,4.m4v,11.0
2024-02-28 14:34:53.670107,1709127293.6701066,-44.43359375,-32.2265625,-30.2734375,-301.7578125,-1.0,-1.0,0.0,0.0,4.m4v,11.0
2024-02-28 14:34:53.674011,1709127293.674011,30.2734375,-10.7421875,-38.0859375,619.140625,-1.0,-1.0,0.0,0.0,4.m4v,11.0
2024-02-28 14:34:53.677915,1709127293.677915,21.97265625,-13.671875,-35.64453125,634.27734375,-1.0,-1.0,0.0,0.0,4.m4v,11.0
2024-02-28 14:34:53.681820,1709127293.6818197,-55.6640625,-37.109375,-34.66796875,-245.1171875,-1.0,-1.0,0.0,0.0,4.m4v,11.0
2024-02-28 14:34:53.685724,1709127293.685724,-86.42578125,-32.71484375,-40.0390625,-646.97265625,-1.0,-1.0,0.0,0.0,4.m4v,11.0
2024-02-28 14:34:53.689628,1709127293.6896284,-62.5,-28.3203125,-38.57421875,-237.79296875,-1.0,-1.0,0.0,0.0,4.m4v,11.0
2024-02-28 14:34:53.693533,1709127293.6935327,-2.44140625,-34.1796875,-25.390625,427.734375,-1.0,-1.0,0.0,0.0,4.m4v,11.0
2024-02-28 14:34:53.697437,1709127293.697437,25.390625,-29.296875,-32.71484375,553.7109375,-1.0,-1.0,0.0,0.0,4.m4v,11.0
2024-02-28 14:34:53.701341,1709127293.7013412,-41.015625,-49.31640625,-47.36328125,-191.40625,-1.0,-1.0,0.0,0.0,4.m4v,11.0
2024-02-28 14:34:53.705245,1709127293.7052455,-101.07421875,-64.94140625,-46.38671875,-772.94921875,-1.0,-1.0,0.0,0.0,4.m4v,11.0
2024-02-28 14:34:53.709150,1709127293.7091498,-69.82421875,-47.36328125,-32.2265625,-420.41015625,-1.0,-1.0,0.0,0.0,4.m4v,11.0
2024-02-28 14:34:53.713068,1709127293.7130678,6.34765625,-38.0859375,-16.6015625,432.6171875,-1.0,-1.0,0.0,0.0,4.m4v,11.0
2024-02-28 14:34:53.716972,1709127293.716972,42.96875,-12.6953125,-11.71875,756.8359375,-1.0,-1.0,0.0,0.0,4.m4v,11.0
2024-02-28 14:34:53.720876,1709127293.7208765,-18.5546875,2.44140625,-22.94921875,64.94140625,-1.0,-1.0,0.0,0.0,4.m4v,11.0
2024-02-28 14:34:53.724781,1709127293.7247808,-97.16796875,-25.390625,-43.9453125,-748.53515625,-1.0,-1.0,0.0,0.0,4.m4v,11.0
2024-02-28 14:34:53.728685,1709127293.728685,-83.49609375,-32.2265625,-36.1328125,-577.63671875,-1.0,-1.0,0.0,0.0,4.m4v,11.0
2024-02-28 14:34:53.732589,1709127293.7325892,7.32421875,-8.30078125,-12.20703125,404.78515625,-1.0,-1.0,0.0,0.0,4.m4v,11.0
2024-02-28 14:34:53.736494,1709127293.7364936,57.6171875,-0.48828125,-14.6484375,865.234375,-1.0,-1.0,0.0,0.0,4.m4v,11.0
2024-02-28 14:34:53.740398,1709127293.740398,-12.6953125,-26.85546875,-24.90234375,74.21875,-1.0,-1.0,0.0,0.0,4.m4v,11.0
2024-02-28 14:34:53.744302,1709127293.7443025,-90.8203125,-48.828125,-32.71484375,-791.50390625,-1.0,-1.0,0.0,0.0,4.m4v,11.0
2024-02-28 14:34:53.748207,1709127293.7482066,-77.63671875,-46.38671875,-36.62109375,-658.203125,-1.0,-1.0,0.0,0.0,4.m4v,11.0
2024-02-28 14:34:53.752111,1709127293.752111,-5.37109375,-29.296875,-28.3203125,228.02734375,-1.0,-1.0,0.0,0.0,4.m4v,11.0
2024-02-28 14:34:53.756015,1709127293.7560153,41.50390625,-15.13671875,-22.4609375,773.92578125,-1.0,-1.0,0.0,0.0,4.m4v,11.0
2024-02-28 14:34:53.759932,1709127293.7599325,-2.44140625,-18.06640625,-19.53125,286.62109375,-1.0,-1.0,0.0,0.0,4.m4v,11.0
2024-02-28 14:34:53.763837,1709127293.7638366,-90.8203125,-42.96875,-31.73828125,-589.84375,-1.0,-1.0,0.0,0.0,4.m4v,11.0
2024-02-28 14:34:53.767741,1709127293.767741,-93.26171875,-44.921875,-35.15625,-696.2890625,-1.0,-1.0,0.0,0.0,4.m4v,11.0
2024-02-28 14:34:53.771645,1709127293.7716453,-26.85546875,-35.15625,-27.83203125,74.70703125,-1.0,-1.0,0.0,0.0,4.m4v,11.0
2024-02-28 14:34:53.775550,1709127293.7755497,30.76171875,-20.5078125,-19.53125,731.93359375,-1.0,-1.0,0.0,0.0,4.m4v,11.0
2024-02-28 14:34:53.779454,1709127293.779454,9.765625,-4.8828125,-28.3203125,437.01171875,-1.0,-1.0,0.0,0.0,4.m4v,11.0
2024-02-28 14:34:53.783358,1709127293.7833583,-68.84765625,-10.25390625,-50.78125,-391.11328125,-1.0,-1.0,0.0,0.0,4.m4v,11.0
2024-02-28 14:34:53.787262,1709127293.7872624,-102.05078125,-28.80859375,-63.96484375,-691.40625,-1.0,-1.0,0.0,0.0,4.m4v,11.0
2024-02-28 14:34:53.791167,1709127293.7911668,-60.546875,-38.0859375,-58.59375,-184.08203125,-1.0,-1.0,0.0,0.0,4.m4v,11.0
2024-02-28 14:34:53.795071,1709127293.7950711,25.390625,-14.6484375,-24.90234375,643.06640625,-1.0,-1.0,0.0,0.0,4.m4v,11.0
2024-02-28 14:34:53.798975,1709127293.7989757,16.6015625,-12.20703125,-16.11328125,475.09765625,-1.0,-1.0,0.0,0.0,4.m4v,11.0
2024-02-28 14:34:53.802880,1709127293.8028798,-75.1953125,-28.80859375,-23.92578125,-500.48828125,-1.0,-1.0,0.0,0.0,4.m4v,11.0
2024-02-28 14:34:53.806806,1709127293.8068063,-105.46875,-32.2265625,-38.0859375,-785.64453125,-1.0,-1.0,0.0,0.0,4.m4v,11.0
2024-02-28 14:34:53.810711,1709127293.810711,-70.80078125,-32.71484375,-36.62109375,-229.00390625,-1.0,-1.0,0.0,0.0,4.m4v,11.0
2024-02-28 14:34:53.814615,1709127293.814615,-0.48828125,-17.578125,-19.04296875,532.71484375,-1.0,-1.0,0.0,0.0,4.m4v,11.0
2024-02-28 14:34:53.818519,1709127293.8185194,3.41796875,-8.30078125,-17.578125,473.14453125,-1.0,-1.0,0.0,0.0,4.m4v,11.0
2024-02-28 14:34:53.822424,1709127293.8224237,-75.68359375,-12.6953125,-27.83203125,-386.23046875,-1.0,-1.0,0.0,0.0,4.m4v,11.0
2024-02-28 14:34:53.826328,1709127293.8263278,-90.8203125,-9.27734375,-33.69140625,-691.89453125,-1.0,-1.0,0.0,0.0,4.m4v,11.0
2024-02-28 14:34:53.830232,1709127293.830232,-45.8984375,-20.01953125,-30.2734375,-187.01171875,-1.0,-1.0,0.0,0.0,4.m4v,11.0
2024-02-28 14:34:53.834136,1709127293.8341365,3.41796875,-23.4375,-38.0859375,441.89453125,-1.0,-1.0,0.0,0.0,4.m4v,11.0
2024-02-28 14:34:53.838041,1709127293.8380408,12.20703125,-10.7421875,-44.921875,524.4140625,-1.0,-1.0,0.0,0.0,4.m4v,11.0
2024-02-28 14:34:53.841945,1709127293.8419452,-49.31640625,-3.41796875,-40.52734375,-189.453125,-1.0,-1.0,0.0,0.0,4.m4v,11.0
2024-02-28 14:34:53.845850,1709127293.8458495,-98.14453125,-19.53125,-47.36328125,-795.8984375,-1.0,-1.0,0.0,0.0,4.m4v,11.0
2024-02-28 14:34:53.849754,1709127293.849754,-62.01171875,-16.11328125,-39.0625,-384.27734375,-1.0,-1.0,0.0,0.0,4.m4v,11.0
2024-02-28 14:34:53.853679,1709127293.853679,3.41796875,-3.41796875,-22.4609375,486.81640625,-1.0,-1.0,0.0,0.0,4.m4v,11.0
2024-02-28 14:34:53.857583,1709127293.8575833,6.8359375,-17.578125,-20.99609375,591.30859375,-1.0,-1.0,0.0,0.0,4.m4v,11.0
2024-02-28 14:34:53.861488,1709127293.8614876,-60.546875,-31.25,-20.5078125,-234.375,-1.0,-1.0,0.0,0.0,4.m4v,11.0
2024-02-28 14:34:53.865392,1709127293.8653915,-98.14453125,-24.90234375,-14.6484375,-756.34765625,-1.0,-1.0,0.0,0.0,4.m4v,11.0
2024-02-28 14:34:53.869296,1709127293.869296,-63.96484375,-24.4140625,-12.6953125,-349.12109375,-1.0,-1.0,0.0,0.0,4.m4v,11.0
2024-02-28 14:34:53.873200,1709127293.8732004,15.625,-16.11328125,-14.16015625,534.66796875,-1.0,-1.0,0.0,0.0,4.m4v,11.0
2024-02-28 14:34:53.877105,1709127293.8771048,35.64453125,-15.625,-33.203125,789.55078125,-1.0,-1.0,0.0,0.0,4.m4v,11.0
2024-02-28 14:34:53.881009,1709127293.881009,-49.8046875,-38.0859375,-38.0859375,-69.82421875,-1.0,-1.0,0.0,0.0,4.m4v,11.0
2024-02-28 14:34:53.884913,1709127293.8849134,-97.16796875,-30.2734375,-24.90234375,-755.37109375,-1.0,-1.0,0.0,0.0,4.m4v,11.0
2024-02-28 14:34:53.888818,1709127293.8888178,-79.1015625,-22.4609375,-35.15625,-493.1640625,-1.0,-1.0,0.0,0.0,4.m4v,11.0
2024-02-28 14:34:53.892722,1709127293.892722,-15.13671875,-12.6953125,-43.9453125,303.7109375,-1.0,-1.0,0.0,0.0,4.m4v,11.0
2024-02-28 14:34:53.896626,1709127293.8966265,32.2265625,-3.90625,-20.01953125,734.375,-1.0,-1.0,0.0,0.0,4.m4v,11.0
2024-02-28 14:34:53.900551,1709127293.9005508,-20.01953125,-20.99609375,-16.11328125,165.0390625,-1.0,-1.0,0.0,0.0,4.m4v,11.0
2024-02-28 14:34:53.904455,1709127293.9044552,-96.6796875,-46.38671875,-44.921875,-666.50390625,-1.0,-1.0,0.0,0.0,4.m4v,11.0
2024-02-28 14:34:53.908359,1709127293.9083593,-98.14453125,-43.45703125,-43.9453125,-643.06640625,-1.0,-1.0,0.0,0.0,4.m4v,11.0
2024-02-28 14:34:53.912264,1709127293.9122636,-25.87890625,-28.3203125,-23.92578125,174.31640625,-1.0,-1.0,0.0,0.0,4.m4v,11.0
2024-02-28 14:34:53.916168,1709127293.916168,22.94921875,-16.6015625,-21.484375,738.28125,-1.0,-1.0,0.0,0.0,4.m4v,11.0
2024-02-28 14:34:53.920072,1709127293.9200723,-15.625,-13.18359375,-42.48046875,319.3359375,-1.0,-1.0,0.0,0.0,4.m4v,11.0
2024-02-28 14:34:53.923977,1709127293.923977,-86.9140625,-44.43359375,-51.26953125,-530.2734375,-1.0,-1.0,0.0,0.0,4.m4v,11.0
2024-02-28 14:34:53.927881,1709127293.927881,-100.09765625,-64.94140625,-23.92578125,-708.49609375,-1.0,-1.0,0.0,0.0,4.m4v,11.0
2024-02-28 14:34:53.931785,1709127293.931785,-33.203125,-34.66796875,-5.37109375,80.56640625,-1.0,-1.0,0.0,0.0,4.m4v,11.0
2024-02-28 14:34:53.935690,1709127293.9356897,23.4375,-20.99609375,-7.32421875,778.3203125,-1.0,-1.0,0.0,0.0,4.m4v,11.0
2024-02-28 14:34:53.939594,1709127293.939594,-18.06640625,-42.96875,-26.3671875,348.6328125,-1.0,-1.0,0.0,0.0,4.m4v,11.0
2024-02-28 14:34:53.943498,1709127293.9434984,-97.65625,-53.22265625,-42.96875,-603.02734375,-1.0,-1.0,0.0,0.0,4.m4v,11.0
2024-02-28 14:34:53.947420,1709127293.9474204,-100.5859375,-54.6875,-31.25,-755.37109375,-1.0,-1.0,0.0,0.0,4.m4v,11.0
2024-02-28 14:34:53.951325,1709127293.9513247,-40.52734375,-45.41015625,-23.4375,-20.99609375,-1.0,-1.0,0.0,0.0,4.m4v,11.0
2024-02-28 14:34:53.955229,1709127293.955229,20.5078125,-23.92578125,-31.73828125,682.6171875,-1.0,-1.0,0.0,0.0,4.m4v,11.0
2024-02-28 14:34:53.959133,1709127293.9591334,2.44140625,-27.34375,-42.48046875,436.5234375,-1.0,-1.0,0.0,0.0,4.m4v,11.0
2024-02-28 14:34:53.963038,1709127293.9630375,-65.4296875,-40.52734375,-45.41015625,-423.33984375,-1.0,-1.0,0.0,0.0,4.m4v,11.0
2024-02-28 14:34:53.966942,1709127293.966942,-89.35546875,-33.203125,-38.0859375,-633.30078125,-1.0,-1.0,0.0,0.0,4.m4v,11.0
2024-02-28 14:34:53.970846,1709127293.9708464,-59.08203125,-26.85546875,-31.73828125,-49.8046875,-1.0,-1.0,0.0,0.0,4.m4v,11.0
2024-02-28 14:34:53.974751,1709127293.9747508,-8.30078125,-34.66796875,-24.4140625,568.359375,-1.0,-1.0,0.0,0.0,4.m4v,11.0
2024-02-28 14:34:53.978655,1709127293.978655,-19.04296875,-55.6640625,-38.0859375,431.640625,-1.0,-1.0,0.0,0.0,4.m4v,11.0
2024-02-28 14:34:53.982559,1709127293.9825594,-83.984375,-55.6640625,-52.24609375,-416.9921875,-1.0,-1.0,0.0,0.0,4.m4v,11.0
2024-02-28 14:34:53.986464,1709127293.9864635,-83.0078125,-25.87890625,-44.43359375,-694.82421875,-1.0,-1.0,0.0,0.0,4.m4v,11.0
2024-02-28 14:34:53.990368,1709127293.990368,-31.25,-15.13671875,-25.390625,-110.83984375,-1.0,-1.0,0.0,0.0,4.m4v,11.0
2024-02-28 14:34:53.994289,1709127293.9942887,10.25390625,-19.04296875,-15.625,600.5859375,-1.0,-1.0,0.0,0.0,4.m4v,11.0
2024-02-28 14:34:53.998193,1709127293.998193,-10.25390625,-26.85546875,-34.1796875,524.4140625,-1.0,-1.0,0.0,0.0,4.m4v,11.0
2024-02-28 14:34:54.002097,1709127294.0020974,-82.03125,-44.921875,-42.96875,-399.90234375,-1.0,-1.0,0.0,0.0,4.m4v,11.0
2024-02-28 14:34:54.006002,1709127294.0060017,-116.69921875,-54.6875,-33.203125,-885.7421875,-1.0,-1.0,0.0,0.0,4.m4v,11.0
2024-02-28 14:34:54.009906,1709127294.009906,-72.265625,-44.43359375,-28.3203125,-337.890625,-1.0,-1.0,0.0,0.0,4.m4v,11.0
2024-02-28 14:34:54.013810,1709127294.0138104,8.30078125,-24.90234375,-33.203125,570.3125,-1.0,-1.0,0.0,0.0,4.m4v,11.0
2024-02-28 14:34:54.017715,1709127294.0177147,42.48046875,-10.25390625,-24.4140625,792.96875,-1.0,-1.0,0.0,0.0,4.m4v,11.0
2024-02-28 14:34:54.021619,1709127294.021619,-25.87890625,-39.55078125,-19.04296875,-98.6328125,-1.0,-1.0,0.0,0.0,4.m4v,11.0
2024-02-28 14:34:54.025523,1709127294.0255234,-102.5390625,-65.4296875,-45.41015625,-920.8984375,-1.0,-1.0,0.0,0.0,4.m4v,11.0
2024-02-28 14:34:54.029428,1709127294.0294275,-79.1015625,-47.36328125,-56.15234375,-566.89453125,-1.0,-1.0,0.0,0.0,4.m4v,11.0
2024-02-28 14:34:54.033332,1709127294.033332,5.37109375,-32.71484375,-29.296875,406.73828125,-1.0,-1.0,0.0,0.0,4.m4v,11.0
2024-02-28 14:34:54.037236,1709127294.0372362,29.78515625,-29.296875,-20.01953125,749.51171875,-1.0,-1.0,0.0,0.0,4.m4v,11.0
2024-02-28 14:34:54.041156,1709127294.0411556,-42.48046875,-35.15625,-35.15625,0.48828125,-1.0,-1.0,0.0,0.0,4.m4v,11.0
2024-02-28 14:34:54.045060,1709127294.04506,-104.00390625,-45.8984375,-32.71484375,-760.25390625,-1.0,-1.0,0.0,0.0,4.m4v,11.0
2024-02-28 14:34:54.048964,1709127294.0489645,-84.47265625,-50.78125,-23.4375,-515.13671875,-1.0,-1.0,0.0,0.0,4.m4v,11.0
2024-02-28 14:34:54.052869,1709127294.0528686,-1.953125,-37.109375,-17.578125,361.328125,-1.0,-1.0,0.0,0.0,4.m4v,11.0
2024-02-28 14:34:54.056773,1709127294.056773,32.2265625,-26.85546875,-23.4375,745.60546875,-1.0,-1.0,0.0,0.0,4.m4v,11.0
2024-02-28 14:34:54.060677,1709127294.060677,-23.4375,-22.94921875,-23.4375,156.73828125,-1.0,-1.0,0.0,0.0,4.m4v,11.0
2024-02-28 14:34:54.064581,1709127294.0645814,-86.9140625,-33.203125,-26.3671875,-622.55859375,-1.0,-1.0,0.0,0.0,4.m4v,11.0
2024-02-28 14:34:54.068486,1709127294.0684855,-90.33203125,-51.26953125,-33.69140625,-637.20703125,-1.0,-1.0,0.0,0.0,4.m4v,11.0
2024-02-28 14:34:54.072390,1709127294.07239,-21.97265625,-34.66796875,-36.62109375,170.41015625,-1.0,-1.0,0.0,0.0,4.m4v,11.0
2024-02-28 14:34:54.076294,1709127294.0762944,24.90234375,-20.01953125,-38.57421875,747.55859375,-1.0,-1.0,0.0,0.0,4.m4v,11.0
2024-02-28 14:34:54.080199,1709127294.0801988,-14.6484375,-22.94921875,-27.34375,278.80859375,-1.0,-1.0,0.0,0.0,4.m4v,11.0
2024-02-28 14:34:54.084103,1709127294.084103,-81.54296875,-45.8984375,-32.2265625,-612.79296875,-1.0,-1.0,0.0,0.0,4.m4v,11.0
2024-02-28 14:34:54.088023,1709127294.088023,-94.23828125,-62.98828125,-40.0390625,-742.67578125,-1.0,-1.0,0.0,0.0,4.m4v,11.0
2024-02-28 14:34:54.091927,1709127294.0919273,-23.4375,-39.55078125,-24.90234375,37.109375,-1.0,-1.0,0.0,0.0,4.m4v,11.0
2024-02-28 14:34:54.095832,1709127294.0958316,32.2265625,-8.7890625,-19.53125,731.93359375,-1.0,-1.0,0.0,0.0,4.m4v,11.0
2024-02-28 14:34:54.099736,1709127294.099736,-11.71875,-26.3671875,-38.57421875,324.21875,-1.0,-1.0,0.0,0.0,4.m4v,11.0
2024-02-28 14:34:54.103640,1709127294.1036403,-96.6796875,-62.01171875,-58.59375,-651.85546875,-1.0,-1.0,0.0,0.0,4.m4v,11.0
2024-02-28 14:34:54.107545,1709127294.107545,-91.30859375,-47.8515625,-54.19921875,-691.89453125,-1.0,-1.0,0.0,0.0,4.m4v,11.0
2024-02-28 14:34:54.111449,1709127294.111449,-24.90234375,-35.64453125,-42.48046875,96.6796875,-1.0,-1.0,0.0,0.0,4.m4v,11.0
2024-02-28 14:34:54.115353,1709127294.115353,-3.41796875,-45.8984375,-40.0390625,604.4921875,-1.0,-1.0,0.0,0.0,4.m4v,11.0
2024-02-28 14:34:54.119258,1709127294.1192577,-31.25,-39.0625,-35.15625,260.25390625,-1.0,-1.0,0.0,0.0,4.m4v,11.0
2024-02-28 14:34:54.123162,1709127294.123162,-85.44921875,-31.73828125,-31.25,-527.34375,-1.0,-1.0,0.0,0.0,4.m4v,11.0
2024-02-28 14:34:54.127066,1709127294.1270664,-104.4921875,-43.45703125,-30.2734375,-714.84375,-1.0,-1.0,0.0,0.0,4.m4v,11.0
2024-02-28 14:34:54.130971,1709127294.1309707,-59.5703125,-51.26953125,-26.3671875,-126.953125,-1.0,-1.0,0.0,0.0,4.m4v,11.0
2024-02-28 14:34:54.134889,1709127294.134889,5.859375,-39.0625,-19.53125,569.82421875,-1.0,-1.0,0.0,0.0,4.m4v,11.0
2024-02-28 14:34:54.138793,1709127294.1387932,1.953125,-27.83203125,-28.80859375,448.2421875,-1.0,-1.0,0.0,0.0,4.m4v,11.0
2024-02-28 14:34:54.142698,1709127294.1426976,-69.3359375,-37.59765625,-40.52734375,-393.5546875,-1.0,-1.0,0.0,0.0,4.m4v,11.0
2024-02-28 14:34:54.146602,1709127294.146602,-87.890625,-43.9453125,-49.8046875,-776.3671875,-1.0,-1.0,0.0,0.0,4.m4v,11.0
2024-02-28 14:34:54.150506,1709127294.1505065,-41.9921875,-34.66796875,-48.33984375,-230.46875,-1.0,-1.0,0.0,0.0,4.m4v,11.0
2024-02-28 14:34:54.154411,1709127294.1544106,21.97265625,-17.08984375,-36.62109375,663.0859375,-1.0,-1.0,0.0,0.0,4.m4v,11.0
2024-02-28 14:34:54.158315,1709127294.158315,17.08984375,-23.92578125,-34.66796875,652.83203125,-1.0,-1.0,0.0,0.0,4.m4v,11.0
2024-02-28 14:34:54.162219,1709127294.1622193,-64.94140625,-55.17578125,-40.0390625,-358.3984375,-1.0,-1.0,0.0,0.0,4.m4v,11.0
2024-02-28 14:34:54.166123,1709127294.1661234,-90.8203125,-52.24609375,-41.9921875,-832.03125,-1.0,-1.0,0.0,0.0,4.m4v,11.0
2024-02-28 14:34:54.170028,1709127294.1700275,-41.50390625,-29.78515625,-34.66796875,-304.6875,-1.0,-1.0,0.0,0.0,4.m4v,11.0
2024-02-28 14:34:54.173932,1709127294.173932,21.484375,-22.94921875,-25.87890625,527.83203125,-1.0,-1.0,0.0,0.0,4.m4v,11.0
2024-02-28 14:34:54.177836,1709127294.1778364,4.39453125,-46.875,-32.71484375,573.73046875,-1.0,-1.0,0.0,0.0,4.m4v,11.0
2024-02-28 14:34:54.181766,1709127294.1817656,-62.01171875,-47.8515625,-28.80859375,-233.3984375,-1.0,-1.0,0.0,0.0,4.m4v,11.0
2024-02-28 14:34:54.185670,1709127294.18567,-76.66015625,-29.296875,-29.296875,-702.1484375,-1.0,-1.0,0.0,0.0,4.m4v,11.0
2024-02-28 14:34:54.189574,1709127294.189574,-43.9453125,-18.5546875,-29.78515625,-299.8046875,-1.0,-1.0,0.0,0.0,4.m4v,11.0
2024-02-28 14:34:54.193478,1709127294.1934783,4.8828125,-13.18359375,-12.6953125,462.890625,-1.0,-1.0,0.0,0.0,4.m4v,11.0
2024-02-28 14:34:54.197383,1709127294.1973827,21.97265625,-12.6953125,-26.3671875,645.01953125,-1.0,-1.0,0.0,0.0,4.m4v,11.0
2024-02-28 14:34:54.201287,1709127294.201287,-29.78515625,-18.5546875,-53.22265625,-21.97265625,-1.0,-1.0,0.0,0.0,4.m4v,11.0
2024-02-28 14:34:54.205191,1709127294.2051914,-90.33203125,-39.55078125,-54.6875,-687.5,-1.0,-1.0,0.0,0.0,4.m4v,11.0
2024-02-28 14:34:54.209096,1709127294.2090957,-78.125,-51.7578125,-51.26953125,-536.62109375,-1.0,-1.0,0.0,0.0,4.m4v,11.0
2024-02-28 14:34:54.213000,1709127294.213,-14.16015625,-47.8515625,-56.15234375,236.81640625,-1.0,-1.0,0.0,0.0,4.m4v,11.0
2024-02-28 14:34:54.216904,1709127294.2169044,24.90234375,-30.76171875,-51.7578125,660.15625,-1.0,-1.0,0.0,0.0,4.m4v,11.0
2024-02-28 14:34:54.220809,1709127294.2208087,-25.390625,-20.01953125,-38.57421875,47.36328125,-1.0,-1.0,0.0,0.0,4.m4v,11.0
2024-02-28 14:34:54.224713,1709127294.224713,-84.47265625,-28.3203125,-25.390625,-723.6328125,-1.0,-1.0,0.0,0.0,4.m4v,11.0
2024-02-28 14:34:54.228638,1709127294.2286382,-61.03515625,-33.69140625,-26.85546875,-561.03515625,-1.0,-1.0,0.0,0.0,4.m4v,11.0
2024-02-28 14:34:54.232542,1709127294.2325425,16.11328125,-23.4375,-25.390625,292.96875,-1.0,-1.0,0.0,0.0,4.m4v,11.0
2024-02-28 14:34:54.236447,1709127294.2364466,42.96875,-18.5546875,-31.25,755.859375,-1.0,-1.0,0.0,0.0,4.m4v,11.0
2024-02-28 14:34:54.240351,1709127294.240351,-31.73828125,-32.71484375,-34.1796875,114.74609375,-1.0,-1.0,0.0,0.0,4.m4v,11.0
2024-02-28 14:34:54.244255,1709127294.2442553,-111.81640625,-50.78125,-30.2734375,-716.796875,-1.0,-1.0,0.0,0.0,4.m4v,11.0
2024-02-28 14:34:54.248160,1709127294.2481596,-103.02734375,-40.0390625,-26.3671875,-590.8203125,-1.0,-1.0,0.0,0.0,4.m4v,11.0
2024-02-28 14:34:54.252064,1709127294.252064,-27.83203125,-24.4140625,-22.4609375,243.1640625,-1.0,-1.0,0.0,0.0,4.m4v,11.0
2024-02-28 14:34:54.255968,1709127294.2559683,25.390625,-31.73828125,-17.578125,716.796875,-1.0,-1.0,0.0,0.0,4.m4v,11.0
2024-02-28 14:34:54.259873,1709127294.259873,-15.625,-32.71484375,-14.16015625,252.44140625,-1.0,-1.0,0.0,0.0,4.m4v,11.0
2024-02-28 14:34:54.263777,1709127294.263777,-89.84375,-47.36328125,-30.76171875,-609.375,-1.0,-1.0,0.0,0.0,4.m4v,11.0
2024-02-28 14:34:54.267681,1709127294.2676814,-84.47265625,-42.96875,-32.71484375,-716.30859375,-1.0,-1.0,0.0,0.0,4.m4v,11.0
2024-02-28 14:34:54.271586,1709127294.2715857,-15.13671875,-24.90234375,-27.34375,61.5234375,-1.0,-1.0,0.0,0.0,4.m4v,11.0
2024-02-28 14:34:54.275509,1709127294.2755094,28.3203125,-29.78515625,-35.64453125,680.17578125,-1.0,-1.0,0.0,0.0,4.m4v,11.0
2024-02-28 14:34:54.279414,1709127294.2794137,-12.20703125,-45.41015625,-46.38671875,327.1484375,-1.0,-1.0,0.0,0.0,4.m4v,11.0
2024-02-28 14:34:54.283318,1709127294.283318,-75.68359375,-53.7109375,-42.48046875,-513.671875,-1.0,-1.0,0.0,0.0,4.m4v,11.0
2024-02-28 14:34:54.287222,1709127294.2872224,-85.44921875,-52.24609375,-38.0859375,-702.1484375,-1.0,-1.0,0.0,0.0,4.m4v,11.0
2024-02-28 14:34:54.291127,1709127294.2911267,-38.0859375,-36.1328125,-38.0859375,-46.38671875,-1.0,-1.0,0.0,0.0,4.m4v,11.0
2024-02-28 14:34:54.295031,1709127294.2950308,30.76171875,-9.765625,-21.97265625,768.5546875,-1.0,-1.0,0.0,0.0,4.m4v,11.0
2024-02-28 14:34:54.298935,1709127294.2989352,27.83203125,-27.83203125,-18.5546875,624.0234375,-1.0,-1.0,0.0,0.0,4.m4v,11.0
2024-02-28 14:34:54.302840,1709127294.3028395,-57.6171875,-49.8046875,-38.0859375,-391.6015625,-1.0,-1.0,0.0,0.0,4.m4v,11.0
2024-02-28 14:34:54.306744,1709127294.306744,-96.6796875,-36.1328125,-39.0625,-829.1015625,-1.0,-1.0,0.0,0.0,4.m4v,11.0
2024-02-28 14:34:54.310648,1709127294.3106482,-48.828125,-22.4609375,-20.99609375,-231.93359375,-1.0,-1.0,0.0,0.0,4.m4v,11.0
2024-02-28 14:34:54.314553,1709127294.3145523,20.99609375,-14.6484375,-28.3203125,589.35546875,-1.0,-1.0,0.0,0.0,4.m4v,11.0
2024-02-28 14:34:54.318457,1709127294.318457,23.92578125,-12.20703125,-37.59765625,624.51171875,-1.0,-1.0,0.0,0.0,4.m4v,11.0
2024-02-28 14:34:54.322380,1709127294.3223798,-47.8515625,-28.3203125,-26.3671875,-226.07421875,-1.0,-1.0,0.0,0.0,4.m4v,11.0
2024-02-28 14:34:54.326284,1709127294.3262842,-99.12109375,-53.7109375,-24.90234375,-788.0859375,-1.0,-1.0,0.0,0.0,4.m4v,11.0
2024-02-28 14:34:54.330189,1709127294.3301885,-53.22265625,-41.9921875,-22.4609375,-284.1796875,-1.0,-1.0,0.0,0.0,4.m4v,11.0
2024-02-28 14:34:54.334093,1709127294.3340929,21.484375,-22.4609375,-19.04296875,595.21484375,-1.0,-1.0,0.0,0.0,4.m4v,11.0
2024-02-28 14:34:54.337997,1709127294.3379972,18.06640625,-30.2734375,-26.3671875,637.20703125,-1.0,-1.0,0.0,0.0,4.m4v,11.0
2024-02-28 14:34:54.341902,1709127294.3419015,-58.10546875,-25.87890625,-32.2265625,-186.5234375,-1.0,-1.0,0.0,0.0,4.m4v,11.0
2024-02-28 14:34:54.345806,1709127294.345806,-102.05078125,-36.62109375,-39.0625,-734.86328125,-1.0,-1.0,0.0,0.0,4.m4v,11.0
2024-02-28 14:34:54.349710,1709127294.3497102,-76.171875,-56.15234375,-36.62109375,-448.73046875,-1.0,-1.0,0.0,0.0,4.m4v,11.0
2024-02-28 14:34:54.353615,1709127294.3536146,11.71875,-38.57421875,-21.97265625,436.5234375,-1.0,-1.0,0.0,0.0,4.m4v,11.0
2024-02-28 14:34:54.357519,1709127294.357519,45.41015625,-33.69140625,-36.62109375,704.1015625,-1.0,-1.0,0.0,0.0,4.m4v,11.0
2024-02-28 14:34:54.361423,1709127294.361423,-29.296875,-34.66796875,-51.7578125,-100.09765625,-1.0,-1.0,0.0,0.0,4.m4v,11.0
2024-02-28 14:34:54.365327,1709127294.3653274,-86.9140625,-32.2265625,-37.109375,-728.02734375,-1.0,-1.0,0.0,0.0,4.m4v,11.0
2024-02-28 14:34:54.369248,1709127294.3692482,-66.89453125,-45.8984375,-31.25,-442.87109375,-1.0,-1.0,0.0,0.0,4.m4v,11.0
2024-02-28 14:34:54.373152,1709127294.3731525,-3.90625,-41.015625,-34.66796875,368.1640625,-1.0,-1.0,0.0,0.0,4.m4v,11.0
2024-02-28 14:34:54.377057,1709127294.3770568,46.875,-14.16015625,-14.6484375,790.0390625,-1.0,-1.0,0.0,0.0,4.m4v,11.0
2024-02-28 14:34:54.380961,1709127294.380961,11.23046875,-12.6953125,-18.06640625,176.26953125,-1.0,-1.0,0.0,0.0,4.m4v,11.0
2024-02-28 14:34:54.384865,1709127294.3848653,-79.58984375,-40.52734375,-49.8046875,-735.3515625,-1.0,-1.0,0.0,0.0,4.m4v,11.0
2024-02-28 14:34:54.388770,1709127294.3887696,-74.70703125,-37.109375,-45.8984375,-590.8203125,-1.0,-1.0,0.0,0.0,4.m4v,11.0
2024-02-28 14:34:54.392674,1709127294.392674,0.9765625,-21.97265625,-24.4140625,319.3359375,-1.0,-1.0,0.0,0.0,4.m4v,11.0
2024-02-28 14:34:54.396578,1709127294.3965783,19.53125,-32.2265625,-17.08984375,671.38671875,-1.0,-1.0,0.0,0.0,4.m4v,11.0
2024-02-28 14:34:54.400483,1709127294.400483,-26.85546875,-37.109375,-14.6484375,68.84765625,-1.0,-1.0,0.0,0.0,4.m4v,11.0
2024-02-28 14:34:54.404387,1709127294.404387,-83.49609375,-42.48046875,-28.80859375,-673.828125,-1.0,-1.0,0.0,0.0,4.m4v,11.0
2024-02-28 14:34:54.408291,1709127294.408291,-85.44921875,-59.08203125,-42.96875,-601.5625,-1.0,-1.0,0.0,0.0,4.m4v,11.0
2024-02-28 14:34:54.412196,1709127294.4121957,-0.48828125,-34.66796875,-34.66796875,216.30859375,-1.0,-1.0,0.0,0.0,4.m4v,11.0
2024-02-28 14:34:54.416115,1709127294.4161148,58.10546875,-21.484375,-36.62109375,771.97265625,-1.0,-1.0,0.0,0.0,4.m4v,11.0
2024-02-28 14:34:54.420019,1709127294.4200191,-1.46484375,-44.43359375,-47.36328125,237.3046875,-1.0,-1.0,0.0,0.0,4.m4v,11.0
2024-02-28 14:34:54.423923,1709127294.4239235,-87.40234375,-40.0390625,-33.69140625,-669.43359375,-1.0,-1.0,0.0,0.0,4.m4v,11.0
2024-02-28 14:34:54.427828,1709127294.4278278,-94.23828125,-36.1328125,-24.4140625,-726.07421875,-1.0,-1.0,0.0,0.0,4.m4v,11.0
2024-02-28 14:34:54.431732,1709127294.4317322,-30.2734375,-22.4609375,-23.4375,47.8515625,-1.0,-1.0,0.0,0.0,4.m4v,11.0
2024-02-28 14:34:54.435637,1709127294.4356363,31.73828125,9.27734375,-9.27734375,797.8515625,-1.0,-1.0,0.0,0.0,4.m4v,11.0
2024-02-28 14:34:54.439541,1709127294.4395409,-6.8359375,6.8359375,-22.94921875,511.23046875,-1.0,-1.0,0.0,0.0,4.m4v,11.0
2024-02-28 14:34:54.443445,1709127294.4434452,-111.81640625,-45.41015625,-43.9453125,-593.26171875,-1.0,-1.0,0.0,0.0,4.m4v,11.0
2024-02-28 14:34:54.447349,1709127294.4473493,-135.7421875,-66.40625,-39.55078125,-944.3359375,-1.0,-1.0,0.0,0.0,4.m4v,11.0
2024-02-28 14:34:54.451254,1709127294.4512537,-52.734375,-42.48046875,-32.71484375,-159.66796875,-1.0,-1.0,0.0,0.0,4.m4v,11.0
2024-02-28 14:34:54.455158,1709127294.455158,40.0390625,-17.578125,-12.20703125,727.5390625,-1.0,-1.0,0.0,0.0,4.m4v,11.0
2024-02-28 14:34:54.459062,1709127294.4590623,25.87890625,-18.5546875,-8.30078125,545.41015625,-1.0,-1.0,0.0,0.0,4.m4v,11.0
2024-02-28 14:34:54.462980,1709127294.46298,-67.87109375,-44.43359375,-54.19921875,-460.44921875,-1.0,-1.0,0.0,0.0,4.m4v,11.0
2024-02-28 14:34:54.466884,1709127294.4668844,-102.05078125,-50.29296875,-68.84765625,-827.1484375,-1.0,-1.0,0.0,0.0,4.m4v,11.0
2024-02-28 14:34:54.470789,1709127294.4707887,-51.7578125,-33.203125,-41.9921875,-164.0625,-1.0,-1.0,0.0,0.0,4.m4v,11.0
2024-02-28 14:34:54.474693,1709127294.474693,23.4375,-27.34375,-37.109375,677.24609375,-1.0,-1.0,0.0,0.0,4.m4v,11.0
2024-02-28 14:34:54.478597,1709127294.4785974,20.01953125,-28.80859375,-25.390625,600.09765625,-1.0,-1.0,0.0,0.0,4.m4v,11.0
2024-02-28 14:34:54.482502,1709127294.4825015,-41.9921875,-27.34375,-6.34765625,-214.35546875,-1.0,-1.0,0.0,0.0,4.m4v,11.0
2024-02-28 14:34:54.486406,1709127294.486406,-57.12890625,-27.83203125,-13.671875,-598.14453125,-1.0,-1.0,0.0,0.0,4.m4v,11.0
2024-02-28 14:34:54.490310,1709127294.4903104,-28.80859375,-12.6953125,-21.484375,-255.859375,-1.0,-1.0,0.0,0.0,4.m4v,11.0
2024-02-28 14:34:54.494215,1709127294.4942143,12.6953125,-3.41796875,-20.01953125,420.41015625,-1.0,-1.0,0.0,0.0,4.m4v,11.0
2024-02-28 14:34:54.498119,1709127294.4981189,-3.41796875,-14.6484375,-38.0859375,508.30078125,-1.0,-1.0,0.0,0.0,4.m4v,11.0
2024-02-28 14:34:54.502023,1709127294.5020232,-72.265625,-17.578125,-52.24609375,-226.07421875,-1.0,-1.0,0.0,0.0,4.m4v,11.0
2024-02-28 14:34:54.505928,1709127294.5059276,-108.3984375,-26.3671875,-51.7578125,-769.04296875,-1.0,-1.0,0.0,0.0,4.m4v,11.0
2024-02-28 14:34:54.509845,1709127294.5098443,-76.171875,-29.296875,-53.22265625,-419.921875,-1.0,-1.0,0.0,0.0,4.m4v,11.0
2024-02-28 14:34:54.513749,1709127294.513749,4.8828125,-16.6015625,-45.8984375,442.3828125,-1.0,-1.0,0.0,0.0,4.m4v,11.0
2024-02-28 14:34:54.517653,1709127294.5176532,29.78515625,-17.578125,-43.9453125,699.21875,-1.0,-1.0,0.0,0.0,4.m4v,11.0
2024-02-28 14:34:54.521558,1709127294.5215576,-42.48046875,-41.50390625,-53.7109375,-92.28515625,-1.0,-1.0,0.0,0.0,4.m4v,11.0
2024-02-28 14:34:54.525462,1709127294.525462,-96.19140625,-40.0390625,-51.7578125,-758.7890625,-1.0,-1.0,0.0,0.0,4.m4v,11.0
2024-02-28 14:34:54.529366,1709127294.529366,-63.96484375,-15.625,-48.828125,-394.53125,-1.0,-1.0,0.0,0.0,4.m4v,11.0
2024-02-28 14:34:54.533270,1709127294.5332704,2.9296875,-14.16015625,-63.4765625,442.87109375,-1.0,-1.0,0.0,0.0,4.m4v,11.0
2024-02-28 14:34:54.537175,1709127294.5371747,29.78515625,-8.7890625,-46.38671875,627.9296875,-1.0,-1.0,0.0,0.0,4.m4v,11.0
2024-02-28 14:34:54.541079,1709127294.541079,-27.34375,-8.30078125,-28.3203125,-62.98828125,-1.0,-1.0,0.0,0.0,4.m4v,11.0
2024-02-28 14:34:54.544983,1709127294.5449834,-89.84375,-24.4140625,-45.41015625,-743.1640625,-1.0,-1.0,0.0,0.0,4.m4v,11.0
2024-02-28 14:34:54.548888,1709127294.5488875,-70.80078125,-26.3671875,-30.76171875,-532.2265625,-1.0,-1.0,0.0,0.0,4.m4v,11.0
2024-02-28 14:34:54.552792,1709127294.552792,-8.7890625,-20.99609375,-11.71875,268.5546875,-1.0,-1.0,0.0,0.0,4.m4v,11.0
2024-02-28 14:34:54.556709,1709127294.5567086,8.30078125,-19.04296875,-25.87890625,588.8671875,-1.0,-1.0,0.0,0.0,4.m4v,11.0
2024-02-28 14:34:54.560613,1709127294.560613,-32.71484375,-13.18359375,-29.78515625,57.6171875,-1.0,-1.0,0.0,0.0,4.m4v,11.0
2024-02-28 14:34:54.564517,1709127294.5645173,-82.51953125,-32.71484375,-36.62109375,-680.6640625,-1.0,-1.0,0.0,0.0,4.m4v,11.0
2024-02-28 14:34:54.568422,1709127294.5684216,-89.35546875,-41.015625,-54.6875,-639.16015625,-1.0,-1.0,0.0,0.0,4.m4v,11.0
2024-02-28 14:34:54.572326,1709127294.572326,-34.1796875,-16.6015625,-57.6171875,133.7890625,-1.0,-1.0,0.0,0.0,4.m4v,11.0
2024-02-28 14:34:54.576230,1709127294.5762303,24.90234375,10.7421875,-44.921875,728.02734375,-1.0,-1.0,0.0,0.0,4.m4v,11.0
2024-02-28 14:34:54.580135,1709127294.5801346,-20.5078125,-1.953125,-34.66796875,269.04296875,-1.0,-1.0,0.0,0.0,4.m4v,11.0
2024-02-28 14:34:54.584039,1709127294.584039,-106.4453125,-35.64453125,-33.69140625,-725.09765625,-1.0,-1.0,0.0,0.0,4.m4v,11.0
2024-02-28 14:34:54.587943,1709127294.5879433,-96.6796875,-27.34375,-30.2734375,-773.4375,-1.0,-1.0,0.0,0.0,4.m4v,11.0
2024-02-28 14:34:54.591847,1709127294.5918474,-14.6484375,-18.5546875,-19.04296875,107.421875,-1.0,-1.0,0.0,0.0,4.m4v,11.0
2024-02-28 14:34:54.595752,1709127294.5957518,41.9921875,-24.4140625,-13.18359375,760.25390625,-1.0,-1.0,0.0,0.0,4.m4v,11.0
2024-02-28 14:34:54.599656,1709127294.599656,2.44140625,-27.83203125,-16.11328125,356.4453125,-1.0,-1.0,0.0,0.0,4.m4v,11.0
2024-02-28 14:34:54.603590,1709127294.6035898,-70.3125,-41.50390625,-24.4140625,-549.31640625,-1.0,-1.0,0.0,0.0,4.m4v,11.0
2024-02-28 14:34:54.607494,1709127294.607494,-67.87109375,-30.76171875,-27.34375,-660.15625,-1.0,-1.0,0.0,0.0,4.m4v,11.0
2024-02-28 14:34:54.611398,1709127294.6113985,-6.34765625,-6.34765625,-27.34375,54.19921875,-1.0,-1.0,0.0,0.0,4.m4v,11.0
2024-02-28 14:34:54.615303,1709127294.6153028,44.921875,3.41796875,-26.85546875,699.21875,-1.0,-1.0,0.0,0.0,4.m4v,11.0
2024-02-28 14:34:54.619207,1709127294.6192071,10.7421875,-9.27734375,-43.45703125,455.078125,-1.0,-1.0,0.0,0.0,4.m4v,11.0
2024-02-28 14:34:54.623111,1709127294.6231115,-64.94140625,-21.97265625,-57.6171875,-356.4453125,-1.0,-1.0,0.0,0.0,4.m4v,11.0
2024-02-28 14:34:54.627016,1709127294.6270156,-91.30859375,-26.3671875,-50.78125,-701.171875,-1.0,-1.0,0.0,0.0,4.m4v,11.0
2024-02-28 14:34:54.630920,1709127294.63092,-55.6640625,-25.87890625,-36.1328125,-239.2578125,-1.0,-1.0,0.0,0.0,4.m4v,11.0
2024-02-28 14:34:54.634824,1709127294.6348245,4.39453125,-42.96875,-30.76171875,493.1640625,-1.0,-1.0,0.0,0.0,4.m4v,11.0
2024-02-28 14:34:54.638729,1709127294.6387286,9.27734375,-46.38671875,-39.55078125,487.3046875,-1.0,-1.0,0.0,0.0,4.m4v,11.0
2024-02-28 14:34:54.642633,1709127294.642633,-42.48046875,-34.1796875,-39.55078125,-278.3203125,-1.0,-1.0,0.0,0.0,4.m4v,11.0
2024-02-28 14:34:54.646537,1709127294.6465373,-81.54296875,-42.96875,-38.0859375,-738.28125,-1.0,-1.0,0.0,0.0,4.m4v,11.0
2024-02-28 14:34:54.650461,1709127294.650461,-54.6875,-38.57421875,-40.52734375,-305.6640625,-1.0,-1.0,0.0,0.0,4.m4v,11.0
2024-02-28 14:34:54.654365,1709127294.6543653,16.11328125,-17.578125,-28.3203125,487.79296875,-1.0,-1.0,0.0,0.0,4.m4v,11.0
2024-02-28 14:34:54.658270,1709127294.6582696,30.76171875,-13.671875,-13.18359375,574.21875,-1.0,-1.0,0.0,0.0,4.m4v,11.0
2024-02-28 14:34:54.662174,1709127294.662174,-29.296875,-38.57421875,-21.97265625,-193.359375,-1.0,-1.0,0.0,0.0,4.m4v,11.0
2024-02-28 14:34:54.666078,1709127294.666078,-78.61328125,-54.6875,-38.0859375,-712.890625,-1.0,-1.0,0.0,0.0,4.m4v,11.0
2024-02-28 14:34:54.669982,1709127294.6699824,-53.22265625,-33.69140625,-46.875,-281.73828125,-1.0,-1.0,0.0,0.0,4.m4v,11.0
2024-02-28 14:34:54.673887,1709127294.6738868,16.11328125,-13.671875,-52.734375,511.23046875,-1.0,-1.0,0.0,0.0,4.m4v,11.0
2024-02-28 14:34:54.677791,1709127294.677791,25.87890625,-14.16015625,-38.57421875,592.28515625,-1.0,-1.0,0.0,0.0,4.m4v,11.0
2024-02-28 14:34:54.681695,1709127294.6816957,-42.48046875,-30.2734375,-40.0390625,-156.73828125,-1.0,-1.0,0.0,0.0,4.m4v,11.0
2024-02-28 14:34:54.685600,1709127294.6855998,-112.79296875,-57.6171875,-50.78125,-842.7734375,-1.0,-1.0,0.0,0.0,4.m4v,11.0
2024-02-28 14:34:54.689504,1709127294.689504,-85.44921875,-46.875,-40.52734375,-536.1328125,-1.0,-1.0,0.0,0.0,4.m4v,11.0
2024-02-28 14:34:54.693408,1709127294.6934085,29.296875,-22.4609375,-16.6015625,507.8125,-1.0,-1.0,0.0,0.0,4.m4v,11.0
2024-02-28 14:34:54.697331,1709127294.6973307,49.8046875,-16.11328125,-9.27734375,855.46875,-1.0,-1.0,0.0,0.0,4.m4v,11.0
2024-02-28 14:34:54.701235,1709127294.701235,-54.6875,-34.1796875,-27.83203125,-72.75390625,-1.0,-1.0,0.0,0.0,4.m4v,11.0
2024-02-28 14:34:54.705139,1709127294.7051394,-125.9765625,-51.26953125,-41.015625,-895.01953125,-1.0,-1.0,0.0,0.0,4.m4v,11.0
2024-02-28 14:34:54.709044,1709127294.7090435,-96.6796875,-35.64453125,-43.45703125,-558.10546875,-1.0,-1.0,0.0,0.0,4.m4v,11.0
2024-02-28 14:34:54.712948,1709127294.712948,-1.46484375,-11.71875,-19.04296875,392.578125,-1.0,-1.0,0.0,0.0,4.m4v,11.0
2024-02-28 14:34:54.716852,1709127294.7168524,55.17578125,-8.7890625,-8.30078125,863.28125,-1.0,-1.0,0.0,0.0,4.m4v,11.0
2024-02-28 14:34:54.720757,1709127294.7207568,-10.25390625,-53.7109375,-44.43359375,160.15625,-1.0,-1.0,0.0,0.0,4.m4v,11.0
2024-02-28 14:34:54.724661,1709127294.724661,-84.47265625,-78.125,-62.5,-774.4140625,-1.0,-1.0,0.0,0.0,4.m4v,11.0
2024-02-28 14:34:54.728565,1709127294.7285657,-79.58984375,-41.015625,-53.7109375,-680.6640625,-1.0,-1.0,0.0,0.0,4.m4v,11.0
2024-02-28 14:34:54.732470,1709127294.7324696,-16.11328125,-13.18359375,-49.8046875,174.8046875,-1.0,-1.0,0.0,0.0,4.m4v,11.0
2024-02-28 14:34:54.736374,1709127294.736374,29.78515625,-19.53125,-45.8984375,732.421875,-1.0,-1.0,0.0,0.0,4.m4v,11.0
2024-02-28 14:34:54.740278,1709127294.7402782,-18.06640625,-22.4609375,-26.3671875,280.76171875,-1.0,-1.0,0.0,0.0,4.m4v,11.0
2024-02-28 14:34:54.744200,1709127294.7442,-104.00390625,-40.52734375,-32.71484375,-664.0625,-1.0,-1.0,0.0,0.0,4.m4v,11.0
2024-02-28 14:34:54.748104,1709127294.7481043,-108.3984375,-48.828125,-38.57421875,-770.01953125,-1.0,-1.0,0.0,0.0,4.m4v,11.0
2024-02-28 14:34:54.752009,1709127294.752009,-28.3203125,-17.578125,-30.2734375,115.72265625,-1.0,-1.0,0.0,0.0,4.m4v,11.0
2024-02-28 14:34:54.755913,1709127294.755913,36.1328125,-2.44140625,-20.5078125,789.0625,-1.0,-1.0,0.0,0.0,4.m4v,11.0
2024-02-28 14:34:54.759817,1709127294.7598174,12.20703125,-15.13671875,-13.671875,367.1875,-1.0,-1.0,0.0,0.0,4.m4v,11.0
2024-02-28 14:34:54.763722,1709127294.7637217,-70.3125,-32.71484375,-35.15625,-523.4375,-1.0,-1.0,0.0,0.0,4.m4v,11.0
2024-02-28 14:34:54.767626,1709127294.7676258,-91.796875,-30.76171875,-58.10546875,-680.17578125,-1.0,-1.0,0.0,0.0,4.m4v,11.0
2024-02-28 14:34:54.771530,1709127294.7715302,-36.1328125,-26.85546875,-44.43359375,-48.33984375,-1.0,-1.0,0.0,0.0,4.m4v,11.0
2024-02-28 14:34:54.775434,1709127294.7754345,7.8125,-33.69140625,-25.87890625,601.07421875,-1.0,-1.0,0.0,0.0,4.m4v,11.0
2024-02-28 14:34:54.779339,1709127294.7793388,-8.7890625,-39.55078125,-21.484375,409.1796875,-1.0,-1.0,0.0,0.0,4.m4v,11.0
2024-02-28 14:34:54.783243,1709127294.7832432,-62.5,-42.48046875,-13.671875,-401.3671875,-1.0,-1.0,0.0,0.0,4.m4v,11.0
2024-02-28 14:34:54.787148,1709127294.7871475,-92.28515625,-52.24609375,-20.5078125,-720.703125,-1.0,-1.0,0.0,0.0,4.m4v,11.0
2024-02-28 14:34:54.791067,1709127294.791067,-51.26953125,-50.78125,-37.109375,-148.4375,-1.0,-1.0,0.0,0.0,4.m4v,11.0
2024-02-28 14:34:54.794971,1709127294.7949712,17.08984375,-39.0625,-39.0625,603.515625,-1.0,-1.0,0.0,0.0,4.m4v,11.0
2024-02-28 14:34:54.798876,1709127294.7988756,19.53125,-22.94921875,-31.25,537.109375,-1.0,-1.0,0.0,0.0,4.m4v,11.0
2024-02-28 14:34:54.802780,1709127294.80278,-67.3828125,-26.3671875,-52.24609375,-322.265625,-1.0,-1.0,0.0,0.0,4.m4v,11.0
2024-02-28 14:34:54.806684,1709127294.8066845,-115.72265625,-37.109375,-55.17578125,-813.4765625,-1.0,-1.0,0.0,0.0,4.m4v,11.0
2024-02-28 14:34:54.810589,1709127294.8105886,-49.8046875,-11.23046875,-24.4140625,-151.3671875,-1.0,-1.0,0.0,0.0,4.m4v,11.0
2024-02-28 14:34:54.814493,1709127294.814493,19.04296875,-11.71875,-23.92578125,710.44921875,-1.0,-1.0,0.0,0.0,4.m4v,11.0
2024-02-28 14:34:54.818397,1709127294.8183973,-7.32421875,-35.64453125,-52.24609375,513.18359375,-1.0,-1.0,0.0,0.0,4.m4v,11.0
2024-02-28 14:34:54.822302,1709127294.8223016,-88.37890625,-51.7578125,-60.546875,-420.41015625,-1.0,-1.0,0.0,0.0,4.m4v,11.0
2024-02-28 14:34:54.826206,1709127294.826206,-106.4453125,-65.91796875,-51.7578125,-837.40234375,-1.0,-1.0,0.0,0.0,4.m4v,11.0
2024-02-28 14:34:54.830110,1709127294.8301103,-54.6875,-40.52734375,-37.59765625,-290.52734375,-1.0,-1.0,0.0,0.0,4.m4v,11.0
2024-02-28 14:34:54.834015,1709127294.834015,18.5546875,-8.30078125,-19.53125,562.5,-1.0,-1.0,0.0,0.0,4.m4v,11.0
2024-02-28 14:34:54.837932,1709127294.8379323,32.2265625,-0.48828125,-11.23046875,686.03515625,-1.0,-1.0,0.0,0.0,4.m4v,11.0
2024-02-28 14:34:54.841837,1709127294.8418367,-47.8515625,-20.01953125,-27.34375,-104.98046875,-1.0,-1.0,0.0,0.0,4.m4v,11.0
2024-02-28 14:34:54.845741,1709127294.845741,-111.81640625,-54.19921875,-48.828125,-791.50390625,-1.0,-1.0,0.0,0.0,4.m4v,11.0
2024-02-28 14:34:54.849645,1709127294.8496454,-96.19140625,-52.734375,-37.109375,-551.7578125,-1.0,-1.0,0.0,0.0,4.m4v,11.0
2024-02-28 14:34:54.853550,1709127294.8535497,-15.625,-20.01953125,-22.94921875,356.93359375,-1.0,-1.0,0.0,0.0,4.m4v,11.0
2024-02-28 14:34:54.857454,1709127294.857454,30.76171875,0.9765625,-26.3671875,785.64453125,-1.0,-1.0,0.0,0.0,4.m4v,11.0
2024-02-28 14:34:54.861358,1709127294.8613584,-20.01953125,-6.8359375,-30.2734375,141.11328125,-1.0,-1.0,0.0,0.0,4.m4v,11.0
2024-02-28 14:34:54.865263,1709127294.8652627,-101.07421875,-34.66796875,-39.0625,-679.19921875,-1.0,-1.0,0.0,0.0,4.m4v,11.0
2024-02-28 14:34:54.869167,1709127294.869167,-101.5625,-59.08203125,-45.41015625,-668.45703125,-1.0,-1.0,0.0,0.0,4.m4v,11.0
2024-02-28 14:34:54.873071,1709127294.8730714,-1.953125,-32.2265625,-37.109375,232.91015625,-1.0,-1.0,0.0,0.0,4.m4v,11.0
2024-02-28 14:34:54.876976,1709127294.8769758,46.875,-5.859375,-51.26953125,805.6640625,-1.0,-1.0,0.0,0.0,4.m4v,11.0
2024-02-28 14:34:54.880880,1709127294.88088,-20.99609375,-33.69140625,-50.29296875,98.14453125,-1.0,-1.0,0.0,0.0,4.m4v,11.0
2024-02-28 14:34:54.884797,1709127294.8847966,-94.23828125,-47.8515625,-26.85546875,-747.55859375,-1.0,-1.0,0.0,0.0,4.m4v,11.0
2024-02-28 14:34:54.888701,1709127294.888701,-84.9609375,-35.64453125,-30.2734375,-593.26171875,-1.0,-1.0,0.0,0.0,4.m4v,11.0
2024-02-28 14:34:54.892605,1709127294.8926053,-16.6015625,-24.4140625,-29.78515625,240.72265625,-1.0,-1.0,0.0,0.0,4.m4v,11.0
2024-02-28 14:34:54.896509,1709127294.8965094,18.5546875,-18.5546875,-16.6015625,741.2109375,-1.0,-1.0,0.0,0.0,4.m4v,11.0
2024-02-28 14:34:54.900414,1709127294.9004138,-39.0625,-24.90234375,-32.71484375,164.55078125,-1.0,-1.0,0.0,0.0,4.m4v,11.0
2024-02-28 14:34:54.904318,1709127294.904318,-99.12109375,-37.59765625,-44.921875,-608.3984375,-1.0,-1.0,0.0,0.0,4.m4v,11.0
2024-02-28 14:34:54.908222,1709127294.9082224,-88.37890625,-38.57421875,-33.69140625,-564.94140625,-1.0,-1.0,0.0,0.0,4.m4v,11.0
2024-02-28 14:34:54.912127,1709127294.9121268,-21.97265625,-19.53125,-15.13671875,85.9375,-1.0,-1.0,0.0,0.0,4.m4v,11.0
2024-02-28 14:34:54.916031,1709127294.9160311,28.3203125,-9.27734375,-21.484375,644.53125,-1.0,-1.0,0.0,0.0,4.m4v,11.0
2024-02-28 14:34:54.919935,1709127294.9199357,-10.7421875,-34.1796875,-40.52734375,276.3671875,-1.0,-1.0,0.0,0.0,4.m4v,11.0
2024-02-28 14:34:54.923840,1709127294.9238398,-65.4296875,-57.12890625,-41.015625,-541.015625,-1.0,-1.0,0.0,0.0,4.m4v,11.0
2024-02-28 14:34:54.927744,1709127294.9277442,-82.03125,-50.78125,-51.26953125,-700.1953125,-1.0,-1.0,0.0,0.0,4.m4v,11.0
2024-02-28 14:34:54.931671,1709127294.931671,-51.26953125,-22.4609375,-56.15234375,-101.5625,-1.0,-1.0,0.0,0.0,4.m4v,11.0
2024-02-28 14:34:54.935575,1709127294.935575,7.8125,-7.32421875,-41.015625,644.04296875,-1.0,-1.0,0.0,0.0,4.m4v,11.0
2024-02-28 14:34:54.939479,1709127294.9394794,-10.25390625,-26.85546875,-38.57421875,439.453125,-1.0,-1.0,0.0,0.0,4.m4v,11.0
2024-02-28 14:34:54.943384,1709127294.9433837,-93.26171875,-50.78125,-39.55078125,-532.71484375,-1.0,-1.0,0.0,0.0,4.m4v,11.0
2024-02-28 14:34:54.947288,1709127294.947288,-123.53515625,-49.8046875,-40.52734375,-808.59375,-1.0,-1.0,0.0,0.0,4.m4v,11.0
2024-02-28 14:34:54.951192,1709127294.9511924,-49.31640625,-26.85546875,-42.48046875,-32.2265625,-1.0,-1.0,0.0,0.0,4.m4v,11.0
2024-02-28 14:34:54.955097,1709127294.9550967,46.875,-1.953125,-16.6015625,794.921875,-1.0,-1.0,0.0,0.0,4.m4v,11.0
2024-02-28 14:34:54.959001,1709127294.959001,8.7890625,-22.94921875,-4.8828125,501.46484375,-1.0,-1.0,0.0,0.0,4.m4v,11.0
2024-02-28 14:34:54.962905,1709127294.9629054,-93.75,-53.22265625,-29.296875,-507.8125,-1.0,-1.0,0.0,0.0,4.m4v,11.0
2024-02-28 14:34:54.966810,1709127294.9668095,-126.46484375,-55.17578125,-60.05859375,-886.23046875,-1.0,-1.0,0.0,0.0,4.m4v,11.0
2024-02-28 14:34:54.970714,1709127294.970714,-53.22265625,-35.64453125,-47.36328125,-241.2109375,-1.0,-1.0,0.0,0.0,4.m4v,11.0
2024-02-28 14:34:54.974618,1709127294.9746184,46.38671875,-19.04296875,-16.11328125,683.59375,-1.0,-1.0,0.0,0.0,4.m4v,11.0
2024-02-28 14:34:54.978544,1709127294.978544,30.2734375,-14.16015625,-47.36328125,652.83203125,-1.0,-1.0,0.0,0.0,4.m4v,11.0
2024-02-28 14:34:54.982448,1709127294.9824483,-57.12890625,-22.4609375,-59.5703125,-325.68359375,-1.0,-1.0,0.0,0.0,4.m4v,11.0
2024-02-28 14:34:54.986353,1709127294.9863527,-92.7734375,-36.1328125,-35.15625,-815.4296875,-1.0,-1.0,0.0,0.0,4.m4v,11.0
2024-02-28 14:34:54.990257,1709127294.990257,-63.96484375,-33.203125,-36.1328125,-358.3984375,-1.0,-1.0,0.0,0.0,4.m4v,11.0
2024-02-28 14:34:54.994161,1709127294.9941614,19.04296875,-25.390625,-33.203125,496.58203125,-1.0,-1.0,0.0,0.0,4.m4v,11.0
2024-02-28 14:34:54.998066,1709127294.9980657,48.828125,-29.78515625,-20.99609375,744.140625,-1.0,-1.0,0.0,0.0,4.m4v,11.0
2024-02-28 14:34:55.001970,1709127295.00197,-27.83203125,-40.0390625,-26.3671875,-68.359375,-1.0,-1.0,0.0,0.0,4.m4v,11.0
2024-02-28 14:34:55.005874,1709127295.0058744,-104.00390625,-38.57421875,-44.921875,-814.94140625,-1.0,-1.0,0.0,0.0,4.m4v,11.0
2024-02-28 14:34:55.009779,1709127295.0097787,-85.44921875,-25.390625,-46.38671875,-541.015625,-1.0,-1.0,0.0,0.0,4.m4v,11.0
2024-02-28 14:34:55.013683,1709127295.0136828,-3.90625,-25.87890625,-22.94921875,380.859375,-1.0,-1.0,0.0,0.0,4.m4v,11.0
2024-02-28 14:34:55.017587,1709127295.0175872,28.80859375,-21.97265625,-36.62109375,709.47265625,-1.0,-1.0,0.0,0.0,4.m4v,11.0
2024-02-28 14:34:55.021492,1709127295.0214915,-33.69140625,-21.97265625,-41.9921875,-53.22265625,-1.0,-1.0,0.0,0.0,4.m4v,11.0
2024-02-28 14:34:55.025415,1709127295.0254152,-100.5859375,-30.2734375,-38.0859375,-744.140625,-1.0,-1.0,0.0,0.0,4.m4v,11.0
2024-02-28 14:34:55.029320,1709127295.0293195,-81.54296875,-35.15625,-37.109375,-504.8828125,-1.0,-1.0,0.0,0.0,4.m4v,11.0
2024-02-28 14:34:55.033224,1709127295.033224,-3.41796875,-22.4609375,-14.16015625,321.77734375,-1.0,-1.0,0.0,0.0,4.m4v,11.0
2024-02-28 14:34:55.037128,1709127295.0371282,41.9921875,-2.44140625,-10.25390625,779.78515625,-1.0,-1.0,0.0,0.0,4.m4v,11.0
2024-02-28 14:34:55.041033,1709127295.0410326,-29.296875,-38.57421875,-23.4375,99.12109375,-1.0,-1.0,0.0,0.0,4.m4v,11.0
2024-02-28 14:34:55.044937,1709127295.044937,-105.46875,-62.5,-35.15625,-720.21484375,-1.0,-1.0,0.0,0.0,4.m4v,11.0
2024-02-28 14:34:55.048841,1709127295.0488412,-84.9609375,-60.05859375,-31.25,-574.21875,-1.0,-1.0,0.0,0.0,4.m4v,11.0
2024-02-28 14:34:55.052746,1709127295.0527456,-7.8125,-37.109375,-26.3671875,286.1328125,-1.0,-1.0,0.0,0.0,4.m4v,11.0
2024-02-28 14:34:55.056650,1709127295.05665,34.66796875,-14.6484375,-24.4140625,787.59765625,-1.0,-1.0,0.0,0.0,4.m4v,11.0
2024-02-28 14:34:55.060554,1709127295.0605545,-14.6484375,-27.83203125,-38.0859375,146.97265625,-1.0,-1.0,0.0,0.0,4.m4v,11.0
2024-02-28 14:34:55.064459,1709127295.0644586,-83.49609375,-35.64453125,-46.38671875,-710.9375,-1.0,-1.0,0.0,0.0,4.m4v,11.0
2024-02-28 14:34:55.068363,1709127295.068363,-79.1015625,-38.0859375,-38.57421875,-634.765625,-1.0,-1.0,0.0,0.0,4.m4v,11.0
2024-02-28 14:34:55.072285,1709127295.072285,-17.578125,-28.3203125,-31.25,145.5078125,-1.0,-1.0,0.0,0.0,4.m4v,11.0
2024-02-28 14:34:55.076189,1709127295.0761893,39.55078125,-16.6015625,-28.3203125,747.0703125,-1.0,-1.0,0.0,0.0,4.m4v,11.0
2024-02-28 14:34:55.080094,1709127295.0800936,-0.9765625,-25.390625,-21.97265625,313.96484375,-1.0,-1.0,0.0,0.0,4.m4v,11.0
2024-02-28 14:34:55.083998,1709127295.083998,-102.05078125,-52.734375,-33.203125,-673.828125,-1.0,-1.0,0.0,0.0,4.m4v,11.0
2024-02-28 14:34:55.087902,1709127295.0879023,-93.26171875,-42.48046875,-42.48046875,-772.4609375,-1.0,-1.0,0.0,0.0,4.m4v,11.0
2024-02-28 14:34:55.091807,1709127295.091807,3.41796875,-6.34765625,-17.08984375,157.2265625,-1.0,-1.0,0.0,0.0,4.m4v,11.0
2024-02-28 14:34:55.095711,1709127295.095711,51.7578125,-13.671875,-3.90625,875.0,-1.0,-1.0,0.0,0.0,4.m4v,11.0
2024-02-28 14:34:55.099615,1709127295.099615,-2.9296875,-36.1328125,-17.08984375,359.86328125,-1.0,-1.0,0.0,0.0,4.m4v,11.0
2024-02-28 14:34:55.103520,1709127295.1035197,-80.078125,-42.96875,-32.2265625,-602.5390625,-1.0,-1.0,0.0,0.0,4.m4v,11.0
2024-02-28 14:34:55.107424,1709127295.107424,-93.75,-56.15234375,-36.1328125,-804.19921875,-1.0,-1.0,0.0,0.0,4.m4v,11.0
2024-02-28 14:34:55.111328,1709127295.1113284,-29.78515625,-41.015625,-32.2265625,-80.56640625,-1.0,-1.0,0.0,0.0,4.m4v,11.0
2024-02-28 14:34:55.115233,1709127295.1152327,34.1796875,-20.01953125,-36.62109375,696.2890625,-1.0,-1.0,0.0,0.0,4.m4v,11.0
2024-02-28 14:34:55.119165,1709127295.119165,15.13671875,-26.85546875,-36.62109375,469.7265625,-1.0,-1.0,0.0,0.0,4.m4v,11.0
2024-02-28 14:34:55.123069,1709127295.1230693,-50.29296875,-24.4140625,-30.2734375,-416.015625,-1.0,-1.0,0.0,0.0,4.m4v,11.0
2024-02-28 14:34:55.126974,1709127295.1269736,-70.80078125,-27.34375,-29.296875,-708.0078125,-1.0,-1.0,0.0,0.0,4.m4v,11.0
2024-02-28 14:34:55.130878,1709127295.130878,-18.06640625,-33.203125,-25.87890625,-95.703125,-1.0,-1.0,0.0,0.0,4.m4v,11.0
2024-02-28 14:34:55.134782,1709127295.1347823,42.48046875,-21.484375,-22.94921875,620.1171875,-1.0,-1.0,0.0,0.0,4.m4v,11.0
2024-02-28 14:34:55.138687,1709127295.138687,28.3203125,-14.16015625,-27.83203125,552.24609375,-1.0,-1.0,0.0,0.0,4.m4v,11.0
2024-02-28 14:34:55.142591,1709127295.142591,-47.36328125,-29.296875,-37.109375,-214.35546875,-1.0,-1.0,0.0,0.0,4.m4v,11.0
2024-02-28 14:34:55.146495,1709127295.146495,-108.3984375,-57.12890625,-39.0625,-792.48046875,-1.0,-1.0,0.0,0.0,4.m4v,11.0
2024-02-28 14:34:55.150399,1709127295.1503994,-91.796875,-48.33984375,-39.55078125,-463.37890625,-1.0,-1.0,0.0,0.0,4.m4v,11.0
2024-02-28 14:34:55.154304,1709127295.1543038,7.32421875,-10.25390625,-24.4140625,460.9375,-1.0,-1.0,0.0,0.0,4.m4v,11.0
2024-02-28 14:34:55.158208,1709127295.158208,50.78125,5.37109375,-18.06640625,740.72265625,-1.0,-1.0,0.0,0.0,4.m4v,11.0
2024-02-28 14:34:55.162112,1709127295.1621125,-22.94921875,-24.4140625,-36.62109375,-79.58984375,-1.0,-1.0,0.0,0.0,4.m4v,11.0
2024-02-28 14:34:55.166033,1709127295.1660326,-102.5390625,-55.17578125,-38.57421875,-820.3125,-1.0,-1.0,0.0,0.0,4.m4v,11.0
2024-02-28 14:34:55.169937,1709127295.169937,-74.21875,-41.50390625,-44.43359375,-446.2890625,-1.0,-1.0,0.0,0.0,4.m4v,11.0
2024-02-28 14:34:55.173841,1709127295.1738412,15.625,-16.11328125,-56.640625,484.375,-1.0,-1.0,0.0,0.0,4.m4v,11.0
2024-02-28 14:34:55.177746,1709127295.1777456,25.87890625,-14.16015625,-45.8984375,704.1015625,-1.0,-1.0,0.0,0.0,4.m4v,11.0
2024-02-28 14:34:55.181650,1709127295.18165,-54.19921875,-35.64453125,-40.0390625,-127.9296875,-1.0,-1.0,0.0,0.0,4.m4v,11.0
2024-02-28 14:34:55.185554,1709127295.1855545,-89.84375,-30.2734375,-29.296875,-710.9375,-1.0,-1.0,0.0,0.0,4.m4v,11.0
2024-02-28 14:34:55.189459,1709127295.1894586,-48.828125,-8.7890625,-6.8359375,-331.54296875,-1.0,-1.0,0.0,0.0,4.m4v,11.0
2024-02-28 14:34:55.193363,1709127295.193363,0.0,-15.625,-17.08984375,370.1171875,-1.0,-1.0,0.0,0.0,4.m4v,11.0
2024-02-28 14:34:55.197267,1709127295.1972673,14.6484375,-36.62109375,-32.2265625,600.5859375,-1.0,-1.0,0.0,0.0,4.m4v,11.0
2024-02-28 14:34:55.201172,1709127295.2011716,-31.73828125,-43.9453125,-18.5546875,1.46484375,-1.0,-1.0,0.0,0.0,4.m4v,11.0
2024-02-28 14:34:55.205076,1709127295.205076,-84.9609375,-39.55078125,-21.484375,-681.15234375,-1.0,-1.0,0.0,0.0,4.m4v,11.0
2024-02-28 14:34:55.208980,1709127295.2089803,-91.796875,-47.36328125,-32.2265625,-557.6171875,-1.0,-1.0,0.0,0.0,4.m4v,11.0
2024-02-28 14:34:55.212898,1709127295.2128985,-25.390625,-37.109375,-25.390625,230.46875,-1.0,-1.0,0.0,0.0,4.m4v,11.0
2024-02-28 14:34:55.216803,1709127295.2168026,32.71484375,-20.5078125,-8.7890625,743.1640625,-1.0,-1.0,0.0,0.0,4.m4v,11.0
2024-02-28 14:34:55.220707,1709127295.220707,-12.6953125,-25.87890625,-30.76171875,236.81640625,-1.0,-1.0,0.0,0.0,4.m4v,11.0
2024-02-28 14:34:55.224611,1709127295.2246113,-87.40234375,-42.48046875,-62.5,-653.80859375,-1.0,-1.0,0.0,0.0,4.m4v,11.0
2024-02-28 14:34:55.228516,1709127295.2285156,-81.0546875,-34.66796875,-36.62109375,-666.50390625,-1.0,-1.0,0.0,0.0,4.m4v,11.0
2024-02-28 14:34:55.232420,1709127295.23242,-9.765625,-10.25390625,-18.5546875,226.5625,-1.0,-1.0,0.0,0.0,4.m4v,11.0
2024-02-28 14:34:55.236324,1709127295.2363243,34.1796875,-11.23046875,-24.4140625,801.26953125,-1.0,-1.0,0.0,0.0,4.m4v,11.0
2024-02-28 14:34:55.240229,1709127295.240229,-23.4375,-29.78515625,-25.87890625,198.2421875,-1.0,-1.0,0.0,0.0,4.m4v,11.0
2024-02-28 14:34:55.244133,1709127295.2441328,-100.5859375,-38.57421875,-31.25,-666.9921875,-1.0,-1.0,0.0,0.0,4.m4v,11.0
2024-02-28 14:34:55.248037,1709127295.248037,-96.6796875,-41.50390625,-33.203125,-668.45703125,-1.0,-1.0,0.0,0.0,4.m4v,11.0
2024-02-28 14:34:55.251941,1709127295.2519414,-26.3671875,-39.55078125,-31.25,67.3828125,-1.0,-1.0,0.0,0.0,4.m4v,11.0
2024-02-28 14:34:55.255846,1709127295.2558458,46.875,-18.5546875,-6.8359375,741.2109375,-1.0,-1.0,0.0,0.0,4.m4v,11.0
2024-02-28 14:34:55.259762,1709127295.2597623,18.06640625,-16.11328125,8.30078125,427.734375,-1.0,-1.0,0.0,0.0,4.m4v,11.0
2024-02-28 14:34:55.263667,1709127295.2636666,-71.77734375,-44.43359375,-3.90625,-504.39453125,-1.0,-1.0,0.0,0.0,4.m4v,11.0
2024-02-28 14:34:55.267571,1709127295.267571,-97.16796875,-60.546875,-28.80859375,-770.5078125,-1.0,-1.0,0.0,0.0,4.m4v,11.0
2024-02-28 14:34:55.271475,1709127295.271475,-51.26953125,-49.31640625,-43.9453125,-148.92578125,-1.0,-1.0,0.0,0.0,4.m4v,11.0
2024-02-28 14:34:55.275379,1709127295.2753794,17.578125,-20.99609375,-54.6875,612.79296875,-1.0,-1.0,0.0,0.0,4.m4v,11.0
2024-02-28 14:34:55.279284,1709127295.2792838,35.64453125,-2.9296875,-37.109375,529.296875,-1.0,-1.0,0.0,0.0,4.m4v,11.0
2024-02-28 14:34:55.283188,1709127295.283188,-28.3203125,-11.23046875,-18.06640625,-250.9765625,-1.0,-1.0,0.0,0.0,4.m4v,11.0
2024-02-28 14:34:55.287092,1709127295.2870924,-103.515625,-35.64453125,-32.71484375,-749.51171875,-1.0,-1.0,0.0,0.0,4.m4v,11.0
2024-02-28 14:34:55.290997,1709127295.2909968,-89.84375,-45.41015625,-28.3203125,-372.0703125,-1.0,-1.0,0.0,0.0,4.m4v,11.0
2024-02-28 14:34:55.294901,1709127295.2949011,1.46484375,-26.3671875,-20.01953125,531.25,-1.0,-1.0,0.0,0.0,4.m4v,11.0
2024-02-28 14:34:55.298805,1709127295.2988057,9.765625,-18.5546875,-25.87890625,575.1953125,-1.0,-1.0,0.0,0.0,4.m4v,11.0
2024-02-28 14:34:55.302710,1709127295.3027098,-77.1484375,-29.296875,-37.59765625,-387.20703125,-1.0,-1.0,0.0,0.0,4.m4v,11.0
2024-02-28 14:34:55.306636,1709127295.3066363,-105.46875,-32.71484375,-42.48046875,-857.91015625,-1.0,-1.0,0.0,0.0,4.m4v,11.0
2024-02-28 14:34:55.310541,1709127295.310541,-60.546875,-28.3203125,-30.2734375,-297.36328125,-1.0,-1.0,0.0,0.0,4.m4v,11.0
2024-02-28 14:34:55.314445,1709127295.314445,14.16015625,-17.578125,-23.92578125,595.21484375,-1.0,-1.0,0.0,0.0,4.m4v,11.0
2024-02-28 14:34:55.318349,1709127295.3183494,32.71484375,-14.16015625,-38.57421875,696.2890625,-1.0,-1.0,0.0,0.0,4.m4v,11.0
2024-02-28 14:34:55.322254,1709127295.3222537,-62.01171875,-39.0625,-63.4765625,-291.015625,-1.0,-1.0,0.0,0.0,4.m4v,11.0
2024-02-28 14:34:55.326158,1709127295.326158,-95.703125,-29.296875,-50.29296875,-785.15625,-1.0,-1.0,0.0,0.0,4.m4v,11.0
2024-02-28 14:34:55.330062,1709127295.3300624,-45.8984375,-12.20703125,-23.92578125,-244.62890625,-1.0,-1.0,0.0,0.0,4.m4v,11.0
2024-02-28 14:34:55.333966,1709127295.3339665,-9.27734375,-30.76171875,-17.578125,379.39453125,-1.0,-1.0,0.0,0.0,4.m4v,11.0
2024-02-28 14:34:55.337871,1709127295.3378708,11.71875,-12.20703125,-17.578125,536.62109375,-1.0,-1.0,0.0,0.0,4.m4v,11.0
2024-02-28 14:34:55.341775,1709127295.3417752,-38.0859375,-23.92578125,-26.85546875,-57.12890625,-1.0,-1.0,0.0,0.0,4.m4v,11.0
2024-02-28 14:34:55.345680,1709127295.3456795,-100.09765625,-62.98828125,-51.7578125,-714.84375,-1.0,-1.0,0.0,0.0,4.m4v,11.0
2024-02-28 14:34:55.349584,1709127295.349584,-85.9375,-53.22265625,-52.24609375,-514.6484375,-1.0,-1.0,0.0,0.0,4.m4v,11.0
2024-02-28 14:34:55.353509,1709127295.353509,-18.06640625,-32.71484375,-29.296875,357.421875,-1.0,-1.0,0.0,0.0,4.m4v,11.0
2024-02-28 14:34:55.357413,1709127295.3574133,22.4609375,-17.08984375,-18.06640625,751.46484375,-1.0,-1.0,0.0,0.0,4.m4v,11.0
2024-02-28 14:34:55.361318,1709127295.3613176,-20.01953125,-5.859375,-14.6484375,78.61328125,-1.0,-1.0,0.0,0.0,4.m4v,11.0
2024-02-28 14:34:55.365222,1709127295.365222,-78.125,-21.484375,-13.671875,-629.39453125,-1.0,-1.0,0.0,0.0,4.m4v,11.0
2024-02-28 14:34:55.369126,1709127295.3691263,-69.3359375,-30.2734375,-21.97265625,-464.84375,-1.0,-1.0,0.0,0.0,4.m4v,11.0
2024-02-28 14:34:55.373031,1709127295.373031,-2.9296875,-10.25390625,-35.15625,388.671875,-1.0,-1.0,0.0,0.0,4.m4v,11.0
2024-02-28 14:34:55.376935,1709127295.376935,29.296875,-7.8125,-52.24609375,803.7109375,-1.0,-1.0,0.0,0.0,4.m4v,11.0
2024-02-28 14:34:55.380839,1709127295.380839,-32.2265625,-27.83203125,-48.828125,50.29296875,-1.0,-1.0,0.0,0.0,4.m4v,11.0
2024-02-28 14:34:55.384744,1709127295.3847437,-106.93359375,-51.7578125,-32.2265625,-790.0390625,-1.0,-1.0,0.0,0.0,4.m4v,11.0
2024-02-28 14:34:55.388648,1709127295.388648,-102.05078125,-45.41015625,-37.59765625,-655.76171875,-1.0,-1.0,0.0,0.0,4.m4v,11.0
2024-02-28 14:34:55.392552,1709127295.3925524,-13.671875,-19.53125,-24.90234375,211.9140625,-1.0,-1.0,0.0,0.0,4.m4v,11.0
2024-02-28 14:34:55.396457,1709127295.3964567,44.43359375,-23.4375,-11.23046875,791.50390625,-1.0,-1.0,0.0,0.0,4.m4v,11.0
2024-02-28 14:34:55.400381,1709127295.400381,-9.27734375,-29.78515625,-36.62109375,285.15625,-1.0,-1.0,0.0,0.0,4.m4v,11.0
2024-02-28 14:34:55.404285,1709127295.4042854,-83.0078125,-34.66796875,-41.015625,-625.9765625,-1.0,-1.0,0.0,0.0,4.m4v,11.0
2024-02-28 14:34:55.408190,1709127295.4081898,-91.30859375,-39.0625,-28.80859375,-738.28125,-1.0,-1.0,0.0,0.0,4.m4v,11.0
2024-02-28 14:34:55.412094,1709127295.412094,-28.80859375,-27.83203125,-31.73828125,43.45703125,-1.0,-1.0,0.0,0.0,4.m4v,11.0
2024-02-28 14:34:55.415998,1709127295.4159985,33.69140625,-28.3203125,-25.87890625,762.6953125,-1.0,-1.0,0.0,0.0,4.m4v,11.0
2024-02-28 14:34:55.419903,1709127295.4199028,12.6953125,-32.71484375,-30.76171875,470.703125,-1.0,-1.0,0.0,0.0,4.m4v,11.0
2024-02-28 14:34:55.423807,1709127295.4238071,-57.6171875,-27.34375,-55.17578125,-409.1796875,-1.0,-1.0,0.0,0.0,4.m4v,11.0
2024-02-28 14:34:55.427711,1709127295.4277115,-108.88671875,-42.96875,-70.3125,-811.03515625,-1.0,-1.0,0.0,0.0,4.m4v,11.0
2024-02-28 14:34:55.431616,1709127295.4316158,-66.89453125,-41.9921875,-49.8046875,-215.33203125,-1.0,-1.0,0.0,0.0,4.m4v,11.0
2024-02-28 14:34:55.435520,1709127295.4355202,25.87890625,-16.11328125,-15.13671875,696.77734375,-1.0,-1.0,0.0,0.0,4.m4v,11.0
2024-02-28 14:34:55.439425,1709127295.4394245,12.6953125,-12.20703125,-20.99609375,507.8125,-1.0,-1.0,0.0,0.0,4.m4v,11.0
2024-02-28 14:34:55.443329,1709127295.4433286,-81.0546875,-33.203125,-41.9921875,-478.02734375,-1.0,-1.0,0.0,0.0,4.m4v,11.0
2024-02-28 14:34:55.447251,1709127295.4472508,-109.86328125,-43.9453125,-31.25,-786.1328125,-1.0,-1.0,0.0,0.0,4.m4v,11.0
2024-02-28 14:34:55.451155,1709127295.4511552,-59.5703125,-36.62109375,-40.0390625,-157.2265625,-1.0,-1.0,0.0,0.0,4.m4v,11.0
2024-02-28 14:34:55.455060,1709127295.4550595,18.06640625,-14.6484375,-54.19921875,634.765625,-1.0,-1.0,0.0,0.0,4.m4v,11.0
2024-02-28 14:34:55.458964,1709127295.458964,18.5546875,-10.7421875,-36.62109375,609.375,-1.0,-1.0,0.0,0.0,4.m4v,11.0
2024-02-28 14:34:55.462868,1709127295.4628682,-60.546875,-35.64453125,-16.11328125,-281.25,-1.0,-1.0,0.0,0.0,4.m4v,11.0
2024-02-28 14:34:55.466773,1709127295.4667726,-106.4453125,-45.41015625,-20.99609375,-779.296875,-1.0,-1.0,0.0,0.0,4.m4v,11.0
2024-02-28 14:34:55.470677,1709127295.470677,-71.2890625,-39.0625,-27.83203125,-251.46484375,-1.0,-1.0,0.0,0.0,4.m4v,11.0
2024-02-28 14:34:55.474581,1709127295.4745812,9.765625,-34.1796875,-27.34375,579.1015625,-1.0,-1.0,0.0,0.0,4.m4v,11.0
2024-02-28 14:34:55.478486,1709127295.4784856,11.23046875,-31.25,-47.8515625,559.5703125,-1.0,-1.0,0.0,0.0,4.m4v,11.0
2024-02-28 14:34:55.482390,1709127295.48239,-79.1015625,-58.10546875,-56.640625,-393.5546875,-1.0,-1.0,0.0,0.0,4.m4v,11.0
2024-02-28 14:34:55.486294,1709127295.4862945,-118.65234375,-64.453125,-38.57421875,-860.83984375,-1.0,-1.0,0.0,0.0,4.m4v,11.0
2024-02-28 14:34:55.490199,1709127295.4901986,-67.3828125,-37.59765625,-35.64453125,-298.33984375,-1.0,-1.0,0.0,0.0,4.m4v,11.0
2024-02-28 14:34:55.494119,1709127295.4941194,16.6015625,-19.04296875,-20.01953125,576.66015625,-1.0,-1.0,0.0,0.0,4.m4v,11.0
2024-02-28 14:34:55.498024,1709127295.4980235,34.66796875,-12.20703125,-5.37109375,731.4453125,-1.0,-1.0,0.0,0.0,4.m4v,11.0
2024-02-28 14:34:55.501928,1709127295.501928,-37.59765625,-16.6015625,-28.80859375,-64.94140625,-1.0,-1.0,0.0,0.0,4.m4v,11.0
2024-02-28 14:34:55.505832,1709127295.5058322,-104.4921875,-36.1328125,-43.45703125,-763.671875,-1.0,-1.0,0.0,0.0,4.m4v,11.0
2024-02-28 14:34:55.509737,1709127295.5097363,-87.40234375,-38.0859375,-39.55078125,-499.0234375,-1.0,-1.0,0.0,0.0,4.m4v,11.0
2024-02-28 14:34:55.513641,1709127295.5136409,-1.46484375,-16.6015625,-25.390625,466.30859375,-1.0,-1.0,0.0,0.0,4.m4v,11.0
2024-02-28 14:34:55.517545,1709127295.5175452,38.57421875,-16.11328125,-23.92578125,876.46484375,-1.0,-1.0,0.0,0.0,4.m4v,11.0
2024-02-28 14:34:55.521450,1709127295.5214496,-27.83203125,-40.52734375,-33.203125,60.05859375,-1.0,-1.0,0.0,0.0,4.m4v,11.0
2024-02-28 14:34:55.525354,1709127295.525354,-99.12109375,-47.36328125,-44.921875,-821.77734375,-1.0,-1.0,0.0,0.0,4.m4v,11.0
2024-02-28 14:34:55.529258,1709127295.5292585,-83.0078125,-30.76171875,-48.828125,-599.609375,-1.0,-1.0,0.0,0.0,4.m4v,11.0
2024-02-28 14:34:55.533163,1709127295.5331626,-6.8359375,-19.04296875,-28.80859375,317.87109375,-1.0,-1.0,0.0,0.0,4.m4v,11.0
2024-02-28 14:34:55.537067,1709127295.537067,33.69140625,-18.5546875,-15.13671875,746.09375,-1.0,-1.0,0.0,0.0,4.m4v,11.0
2024-02-28 14:34:55.540986,1709127295.5409863,-22.94921875,-36.62109375,-26.85546875,79.58984375,-1.0,-1.0,0.0,0.0,4.m4v,11.0
2024-02-28 14:34:55.544891,1709127295.5448906,-87.40234375,-39.55078125,-41.9921875,-712.890625,-1.0,-1.0,0.0,0.0,4.m4v,11.0
2024-02-28 14:34:55.548795,1709127295.548795,-71.2890625,-24.4140625,-28.3203125,-583.0078125,-1.0,-1.0,0.0,0.0,4.m4v,11.0
2024-02-28 14:34:55.552699,1709127295.552699,-12.20703125,-25.390625,-31.73828125,227.5390625,-1.0,-1.0,0.0,0.0,4.m4v,11.0
2024-02-28 14:34:55.556604,1709127295.5566037,28.3203125,-26.85546875,-47.36328125,705.078125,-1.0,-1.0,0.0,0.0,4.m4v,11.0
2024-02-28 14:34:55.560508,1709127295.560508,-2.44140625,-19.53125,-38.57421875,250.48828125,-1.0,-1.0,0.0,0.0,4.m4v,11.0
2024-02-28 14:34:55.564412,1709127295.5644124,-80.078125,-37.59765625,-42.96875,-536.1328125,-1.0,-1.0,0.0,0.0,4.m4v,11.0
2024-02-28 14:34:55.568317,1709127295.5683167,-97.16796875,-56.15234375,-40.52734375,-679.19921875,-1.0,-1.0,0.0,0.0,4.m4v,11.0
2024-02-28 14:34:55.572221,1709127295.572221,-40.52734375,-43.45703125,-27.34375,46.875,-1.0,-1.0,0.0,0.0,4.m4v,11.0
2024-02-28 14:34:55.576125,1709127295.5761254,3.90625,-39.0625,-24.90234375,670.8984375,-1.0,-1.0,0.0,0.0,4.m4v,11.0
2024-02-28 14:34:55.580030,1709127295.5800295,-0.9765625,-22.94921875,-14.16015625,380.37109375,-1.0,-1.0,0.0,0.0,4.m4v,11.0
2024-02-28 14:34:55.583934,1709127295.583934,-64.94140625,-20.01953125,-13.671875,-437.01171875,-1.0,-1.0,0.0,0.0,4.m4v,11.0
2024-02-28 14:34:55.587853,1709127295.5878527,-109.86328125,-44.43359375,-54.6875,-765.625,-1.0,-1.0,0.0,0.0,4.m4v,11.0
2024-02-28 14:34:55.591757,1709127295.591757,-61.5234375,-37.59765625,-72.75390625,-149.4140625,-1.0,-1.0,0.0,0.0,4.m4v,11.0
2024-02-28 14:34:55.595661,1709127295.5956614,17.08984375,-19.04296875,-47.8515625,631.34765625,-1.0,-1.0,0.0,0.0,4.m4v,11.0
2024-02-28 14:34:55.599566,1709127295.5995655,12.20703125,-17.578125,-46.875,442.3828125,-1.0,-1.0,0.0,0.0,4.m4v,11.0
2024-02-28 14:34:55.603470,1709127295.60347,-64.453125,-31.73828125,-37.59765625,-441.89453125,-1.0,-1.0,0.0,0.0,4.m4v,11.0
2024-02-28 14:34:55.607374,1709127295.6073744,-91.30859375,-30.76171875,-23.4375,-658.203125,-1.0,-1.0,0.0,0.0,4.m4v,11.0
2024-02-28 14:34:55.611279,1709127295.6112788,-47.8515625,-27.83203125,-22.4609375,-50.78125,-1.0,-1.0,0.0,0.0,4.m4v,11.0
2024-02-28 14:34:55.615183,1709127295.615183,14.16015625,-25.390625,-20.5078125,572.265625,-1.0,-1.0,0.0,0.0,4.m4v,11.0
2024-02-28 14:34:55.619087,1709127295.6190877,0.48828125,-33.203125,-36.62109375,364.74609375,-1.0,-1.0,0.0,0.0,4.m4v,11.0
2024-02-28 14:34:55.622992,1709127295.6229918,-74.70703125,-59.5703125,-43.9453125,-485.83984375,-1.0,-1.0,0.0,0.0,4.m4v,11.0
2024-02-28 14:34:55.626896,1709127295.626896,-94.7265625,-53.22265625,-26.85546875,-763.671875,-1.0,-1.0,0.0,0.0,4.m4v,11.0
2024-02-28 14:34:55.630800,1709127295.6308005,-51.7578125,-23.92578125,-20.5078125,-205.56640625,-1.0,-1.0,0.0,0.0,4.m4v,11.0
2024-02-28 14:34:55.634729,1709127295.6347291,7.8125,-19.53125,-16.6015625,557.6171875,-1.0,-1.0,0.0,0.0,4.m4v,11.0
2024-02-28 14:34:55.638633,1709127295.6386335,11.71875,-32.71484375,-27.34375,604.4921875,-1.0,-1.0,0.0,0.0,4.m4v,11.0
2024-02-28 14:34:55.642538,1709127295.6425378,-60.05859375,-42.96875,-50.29296875,-210.9375,-1.0,-1.0,0.0,0.0,4.m4v,11.0
2024-02-28 14:34:55.646442,1709127295.6464422,-104.00390625,-43.45703125,-61.03515625,-770.99609375,-1.0,-1.0,0.0,0.0,4.m4v,11.0
2024-02-28 14:34:55.650347,1709127295.6503465,-65.91796875,-31.73828125,-53.7109375,-387.6953125,-1.0,-1.0,0.0,0.0,4.m4v,11.0
2024-02-28 14:34:55.654251,1709127295.6542509,21.484375,-2.9296875,-18.5546875,576.171875,-1.0,-1.0,0.0,0.0,4.m4v,11.0
2024-02-28 14:34:55.658155,1709127295.6581552,29.296875,-15.13671875,-10.7421875,755.37109375,-1.0,-1.0,0.0,0.0,4.m4v,11.0
2024-02-28 14:34:55.662060,1709127295.6620595,-61.03515625,-48.828125,-41.015625,-259.27734375,-1.0,-1.0,0.0,0.0,4.m4v,11.0
2024-02-28 14:34:55.665964,1709127295.665964,-100.5859375,-45.41015625,-43.9453125,-895.01953125,-1.0,-1.0,0.0,0.0,4.m4v,11.0
2024-02-28 14:34:55.669868,1709127295.6698682,-63.4765625,-50.78125,-39.55078125,-488.28125,-1.0,-1.0,0.0,0.0,4.m4v,11.0
2024-02-28 14:34:55.673773,1709127295.6737726,5.859375,-40.52734375,-32.2265625,397.94921875,-1.0,-1.0,0.0,0.0,4.m4v,11.0
2024-02-28 14:34:55.677677,1709127295.677677,30.2734375,-27.34375,-20.5078125,736.328125,-1.0,-1.0,0.0,0.0,4.m4v,11.0
2024-02-28 14:34:55.681603,1709127295.6816032,-35.64453125,-41.50390625,-26.85546875,-14.16015625,-1.0,-1.0,0.0,0.0,4.m4v,11.0
2024-02-28 14:34:55.685508,1709127295.6855075,-97.65625,-56.15234375,-30.76171875,-730.46875,-1.0,-1.0,0.0,0.0,4.m4v,11.0
2024-02-28 14:34:55.689412,1709127295.689412,-85.44921875,-49.8046875,-40.52734375,-506.34765625,-1.0,-1.0,0.0,0.0,4.m4v,11.0
2024-02-28 14:34:55.693316,1709127295.6933162,-11.23046875,-32.2265625,-52.24609375,263.671875,-1.0,-1.0,0.0,0.0,4.m4v,11.0
2024-02-28 14:34:55.697221,1709127295.6972206,47.36328125,-12.6953125,-33.69140625,699.70703125,-1.0,-1.0,0.0,0.0,4.m4v,11.0
2024-02-28 14:34:55.701125,1709127295.701125,4.39453125,-6.8359375,-30.2734375,183.59375,-1.0,-1.0,0.0,0.0,4.m4v,11.0
2024-02-28 14:34:55.705029,1709127295.7050292,-85.44921875,-30.76171875,-51.7578125,-630.859375,-1.0,-1.0,0.0,0.0,4.m4v,11.0
2024-02-28 14:34:55.708934,1709127295.7089336,-92.7734375,-45.41015625,-52.24609375,-685.546875,-1.0,-1.0,0.0,0.0,4.m4v,11.0
2024-02-28 14:34:55.712838,1709127295.712838,-4.8828125,-29.78515625,-36.62109375,174.31640625,-1.0,-1.0,0.0,0.0,4.m4v,11.0
2024-02-28 14:34:55.716742,1709127295.7167425,42.48046875,-26.85546875,-15.13671875,796.38671875,-1.0,-1.0,0.0,0.0,4.m4v,11.0
2024-02-28 14:34:55.720647,1709127295.7206466,-10.7421875,-41.015625,-24.4140625,206.54296875,-1.0,-1.0,0.0,0.0,4.m4v,11.0
2024-02-28 14:34:55.724551,1709127295.724551,-81.54296875,-43.9453125,-44.43359375,-646.484375,-1.0,-1.0,0.0,0.0,4.m4v,11.0
2024-02-28 14:34:55.728487,1709127295.7284875,-87.40234375,-55.17578125,-34.66796875,-637.6953125,-1.0,-1.0,0.0,0.0,4.m4v,11.0
2024-02-28 14:34:55.732392,1709127295.7323918,-34.66796875,-62.01171875,-16.6015625,80.56640625,-1.0,-1.0,0.0,0.0,4.m4v,11.0
2024-02-28 14:34:55.736296,1709127295.7362962,21.97265625,-27.83203125,-12.20703125,683.59375,-1.0,-1.0,0.0,0.0,4.m4v,11.0
2024-02-28 14:34:55.740201,1709127295.7402003,-20.5078125,-24.90234375,-31.25,248.046875,-1.0,-1.0,0.0,0.0,4.m4v,11.0
2024-02-28 14:34:55.744105,1709127295.7441049,-100.09765625,-45.8984375,-40.52734375,-668.45703125,-1.0,-1.0,0.0,0.0,4.m4v,11.0
2024-02-28 14:34:55.748009,1709127295.7480092,-89.84375,-30.76171875,-39.55078125,-647.94921875,-1.0,-1.0,0.0,0.0,4.m4v,11.0
2024-02-28 14:34:55.751914,1709127295.7519135,-33.203125,-28.80859375,-37.109375,105.95703125,-1.0,-1.0,0.0,0.0,4.m4v,11.0
2024-02-28 14:34:55.755818,1709127295.755818,19.04296875,-35.15625,-34.1796875,643.5546875,-1.0,-1.0,0.0,0.0,4.m4v,11.0
2024-02-28 14:34:55.759722,1709127295.759722,0.9765625,-27.83203125,-37.59765625,370.60546875,-1.0,-1.0,0.0,0.0,4.m4v,11.0
2024-02-28 14:34:55.763626,1709127295.7636263,-80.078125,-39.0625,-44.921875,-494.62890625,-1.0,-1.0,0.0,0.0,4.m4v,11.0
2024-02-28 14:34:55.767531,1709127295.767531,-98.6328125,-40.52734375,-59.08203125,-818.84765625,-1.0,-1.0,0.0,0.0,4.m4v,11.0
2024-02-28 14:34:55.771435,1709127295.771435,-29.78515625,-26.3671875,-47.8515625,-136.23046875,-1.0,-1.0,0.0,0.0,4.m4v,11.0
2024-02-28 14:34:55.775359,1709127295.775359,35.15625,-19.53125,-19.04296875,676.7578125,-1.0,-1.0,0.0,0.0,4.m4v,11.0
2024-02-28 14:34:55.779263,1709127295.779263,5.37109375,-32.71484375,-36.62109375,459.9609375,-1.0,-1.0,0.0,0.0,4.m4v,11.0
2024-02-28 14:34:55.783167,1709127295.7831674,-82.51953125,-52.734375,-61.5234375,-513.18359375,-1.0,-1.0,0.0,0.0,4.m4v,11.0
2024-02-28 14:34:55.787072,1709127295.7870717,-113.76953125,-51.7578125,-47.36328125,-848.6328125,-1.0,-1.0,0.0,0.0,4.m4v,11.0
2024-02-28 14:34:55.790976,1709127295.790976,-61.03515625,-41.9921875,-48.828125,-216.30859375,-1.0,-1.0,0.0,0.0,4.m4v,11.0
2024-02-28 14:34:55.794880,1709127295.7948804,20.5078125,-14.6484375,-55.6640625,703.125,-1.0,-1.0,0.0,0.0,4.m4v,11.0
2024-02-28 14:34:55.798785,1709127295.7987847,24.4140625,-9.27734375,-47.36328125,697.75390625,-1.0,-1.0,0.0,0.0,4.m4v,11.0
2024-02-28 14:34:55.802689,1709127295.802689,-58.59375,-56.15234375,-35.64453125,-338.8671875,-1.0,-1.0,0.0,0.0,4.m4v,11.0
2024-02-28 14:34:55.806593,1709127295.8065934,-105.95703125,-72.75390625,-35.64453125,-891.6015625,-1.0,-1.0,0.0,0.0,4.m4v,11.0
2024-02-28 14:34:55.810498,1709127295.8104978,-61.5234375,-45.8984375,-34.66796875,-339.35546875,-1.0,-1.0,0.0,0.0,4.m4v,11.0
