Timestamp,Timestamp_UNIX,TP9,AF7,AF8,TP10,Valence,Arousal,Dominace,Viewed,Video,Participant
2024-02-27 11:00:04.001294,1709028004.001294,-15.625,-963.37890625,-454.1015625,-44.43359375,-1.0,-1.0,1.0,0.0,9.m4v,2.0
2024-02-27 11:00:04.005202,1709028004.0052016,-31.25,-985.3515625,-428.22265625,-38.57421875,-1.0,-1.0,1.0,0.0,9.m4v,2.0
2024-02-27 11:00:04.009108,1709028004.0091076,-29.78515625,-1000.0,-300.29296875,-33.203125,-1.0,-1.0,1.0,0.0,9.m4v,2.0
2024-02-27 11:00:04.013013,1709028004.0130134,-20.99609375,-1000.0,-338.37890625,-38.0859375,-1.0,-1.0,1.0,0.0,9.m4v,2.0
2024-02-27 11:00:04.016919,1709028004.0169191,-27.34375,-937.98828125,-393.06640625,-40.52734375,-1.0,-1.0,1.0,0.0,9.m4v,2.0
2024-02-27 11:00:04.020825,1709028004.020825,-27.83203125,-1000.0,-349.609375,-40.0390625,-1.0,-1.0,1.0,0.0,9.m4v,2.0
2024-02-27 11:00:04.024731,1709028004.0247307,-18.06640625,-215.8203125,229.4921875,-34.1796875,-1.0,-1.0,1.0,0.0,9.m4v,2.0
2024-02-27 11:00:04.028636,1709028004.0286365,-9.765625,999.51171875,699.70703125,-27.34375,-1.0,-1.0,1.0,0.0,9.m4v,2.0
2024-02-27 11:00:04.032542,1709028004.0325422,-14.16015625,953.125,199.70703125,-26.3671875,-1.0,-1.0,1.0,0.0,9.m4v,2.0
2024-02-27 11:00:04.036448,1709028004.036448,-19.04296875,942.87109375,-275.390625,-24.4140625,-1.0,-1.0,1.0,0.0,9.m4v,2.0
2024-02-27 11:00:04.040354,1709028004.0403538,-23.4375,976.5625,-345.21484375,-38.0859375,-1.0,-1.0,1.0,0.0,9.m4v,2.0
2024-02-27 11:00:04.044260,1709028004.0442595,-23.4375,969.7265625,-41.015625,-42.96875,-1.0,-1.0,1.0,0.0,9.m4v,2.0
2024-02-27 11:00:04.048165,1709028004.048165,-15.13671875,969.7265625,143.5546875,-35.64453125,-1.0,-1.0,1.0,0.0,9.m4v,2.0
2024-02-27 11:00:04.052073,1709028004.0520732,-10.25390625,969.7265625,-161.1328125,-39.0625,-1.0,-1.0,1.0,0.0,9.m4v,2.0
2024-02-27 11:00:04.052073,1709028004.0520732,-10.25390625,969.7265625,-161.1328125,-39.0625,-1.0,-1.0,1.0,0.0,9.m4v,2.0
2024-02-27 11:00:04.055979,1709028004.0559793,-17.08984375,969.7265625,-225.09765625,-47.8515625,-1.0,-1.0,1.0,0.0,9.m4v,2.0
2024-02-27 11:00:04.055979,1709028004.0559793,-17.08984375,969.7265625,-225.09765625,-47.8515625,-1.0,-1.0,1.0,0.0,9.m4v,2.0
2024-02-27 11:00:04.059885,1709028004.059885,-24.4140625,969.7265625,-53.22265625,-47.36328125,-1.0,-1.0,1.0,0.0,9.m4v,2.0
2024-02-27 11:00:04.059885,1709028004.059885,-24.4140625,969.7265625,-53.22265625,-47.36328125,-1.0,-1.0,1.0,0.0,9.m4v,2.0
2024-02-27 11:00:04.063791,1709028004.0637908,-29.78515625,969.7265625,-22.94921875,-38.0859375,-1.0,-1.0,1.0,0.0,9.m4v,2.0
2024-02-27 11:00:04.063791,1709028004.0637908,-29.78515625,969.7265625,-22.94921875,-38.0859375,-1.0,-1.0,1.0,0.0,9.m4v,2.0
2024-02-27 11:00:04.067697,1709028004.0676966,-31.73828125,969.7265625,-1.46484375,-35.15625,-1.0,-1.0,1.0,0.0,9.m4v,2.0
2024-02-27 11:00:04.067697,1709028004.0676966,-31.73828125,969.7265625,-1.46484375,-35.15625,-1.0,-1.0,1.0,0.0,9.m4v,2.0
2024-02-27 11:00:04.247372,1709028004.2473717,-41.9921875,969.7265625,-25.87890625,-41.015625,-1.0,-1.0,1.0,0.0,9.m4v,2.0
2024-02-27 11:00:04.251277,1709028004.2512774,-40.0390625,969.7265625,-165.52734375,-42.48046875,-1.0,-1.0,1.0,0.0,9.m4v,2.0
2024-02-27 11:00:04.255183,1709028004.2551832,-43.45703125,982.91015625,-272.4609375,-33.203125,-1.0,-1.0,1.0,0.0,9.m4v,2.0
2024-02-27 11:00:04.259089,1709028004.259089,-59.5703125,912.59765625,20.01953125,-41.9921875,-1.0,-1.0,1.0,0.0,9.m4v,2.0
2024-02-27 11:00:04.262995,1709028004.2629948,-60.05859375,999.51171875,207.51953125,-51.7578125,-1.0,-1.0,1.0,0.0,9.m4v,2.0
2024-02-27 11:00:04.266901,1709028004.2669003,-49.31640625,757.32421875,-84.9609375,-46.875,-1.0,-1.0,1.0,0.0,9.m4v,2.0
2024-02-27 11:00:04.270806,1709028004.2708063,-57.6171875,-644.04296875,-433.10546875,-52.734375,-1.0,-1.0,1.0,0.0,9.m4v,2.0
2024-02-27 11:00:04.274712,1709028004.274712,-69.3359375,-1000.0,-614.74609375,-58.10546875,-1.0,-1.0,1.0,0.0,9.m4v,2.0
2024-02-27 11:00:04.278618,1709028004.278618,-61.5234375,-937.5,-687.98828125,-52.24609375,-1.0,-1.0,1.0,0.0,9.m4v,2.0
2024-02-27 11:00:04.282524,1709028004.2825236,-56.640625,-1000.0,-512.20703125,-40.52734375,-1.0,-1.0,1.0,0.0,9.m4v,2.0
2024-02-27 11:00:04.286432,1709028004.286432,-48.828125,-1000.0,-306.640625,-31.25,-1.0,-1.0,1.0,0.0,9.m4v,2.0
2024-02-27 11:00:04.290338,1709028004.2903378,-42.96875,-1000.0,-433.10546875,-30.2734375,-1.0,-1.0,1.0,0.0,9.m4v,2.0
2024-02-27 11:00:04.294244,1709028004.2942436,-34.66796875,-992.67578125,-590.8203125,-33.69140625,-1.0,-1.0,1.0,0.0,9.m4v,2.0
2024-02-27 11:00:04.298149,1709028004.298149,-25.87890625,-950.1953125,-429.6875,-29.78515625,-1.0,-1.0,1.0,0.0,9.m4v,2.0
2024-02-27 11:00:04.302055,1709028004.3020551,-30.76171875,-1000.0,-259.27734375,-25.390625,-1.0,-1.0,1.0,0.0,9.m4v,2.0
2024-02-27 11:00:04.305961,1709028004.305961,-33.69140625,-89.35546875,183.10546875,-25.390625,-1.0,-1.0,1.0,0.0,9.m4v,2.0
2024-02-27 11:00:04.309867,1709028004.309867,-32.71484375,999.51171875,518.06640625,-20.99609375,-1.0,-1.0,1.0,0.0,9.m4v,2.0
2024-02-27 11:00:04.325490,1709028004.32549,-29.296875,969.7265625,-142.08984375,-10.7421875,-1.0,-1.0,1.0,0.0,9.m4v,2.0
2024-02-27 11:00:04.329396,1709028004.3293958,-27.34375,969.7265625,7.8125,-25.390625,-1.0,-1.0,1.0,0.0,9.m4v,2.0
2024-02-27 11:00:04.333304,1709028004.3333037,-42.96875,969.7265625,-127.44140625,-41.015625,-1.0,-1.0,1.0,0.0,9.m4v,2.0
2024-02-27 11:00:04.337209,1709028004.3372097,-50.29296875,969.7265625,-354.98046875,-36.62109375,-1.0,-1.0,1.0,0.0,9.m4v,2.0
2024-02-27 11:00:04.341115,1709028004.3411157,-46.875,969.7265625,-414.55078125,-41.50390625,-1.0,-1.0,1.0,0.0,9.m4v,2.0
2024-02-27 11:00:04.345021,1709028004.3450212,-35.64453125,969.7265625,-237.79296875,-34.66796875,-1.0,-1.0,1.0,0.0,9.m4v,2.0
2024-02-27 11:00:04.348927,1709028004.348927,-26.85546875,980.46875,-203.125,-30.76171875,-1.0,-1.0,1.0,0.0,9.m4v,2.0
2024-02-27 11:00:04.352833,1709028004.3528328,-36.62109375,924.31640625,-127.9296875,-33.203125,-1.0,-1.0,1.0,0.0,9.m4v,2.0
2024-02-27 11:00:04.356739,1709028004.3567386,-33.69140625,999.51171875,15.13671875,-23.92578125,-1.0,-1.0,1.0,0.0,9.m4v,2.0
2024-02-27 11:00:04.360644,1709028004.3606443,-37.109375,885.7421875,-106.93359375,-20.01953125,-1.0,-1.0,1.0,0.0,9.m4v,2.0
2024-02-27 11:00:04.364550,1709028004.36455,-54.6875,-464.35546875,-279.296875,-32.2265625,-1.0,-1.0,1.0,0.0,9.m4v,2.0
2024-02-27 11:00:04.368456,1709028004.368456,-48.33984375,-1000.0,-421.875,-34.1796875,-1.0,-1.0,1.0,0.0,9.m4v,2.0
2024-02-27 11:00:04.372362,1709028004.3723617,-39.55078125,-936.03515625,-523.92578125,-26.3671875,-1.0,-1.0,1.0,0.0,9.m4v,2.0
2024-02-27 11:00:04.376267,1709028004.3762674,-41.015625,-1000.0,-707.51953125,-29.296875,-1.0,-1.0,1.0,0.0,9.m4v,2.0
2024-02-27 11:00:04.380175,1709028004.3801754,-31.25,-1000.0,-791.50390625,-29.296875,-1.0,-1.0,1.0,0.0,9.m4v,2.0
2024-02-27 11:00:04.384081,1709028004.3840811,-25.87890625,-1000.0,-513.18359375,-20.5078125,-1.0,-1.0,1.0,0.0,9.m4v,2.0
2024-02-27 11:00:04.387987,1709028004.387987,-26.3671875,-1000.0,-316.40625,-19.53125,-1.0,-1.0,1.0,0.0,9.m4v,2.0
2024-02-27 11:00:04.391893,1709028004.391893,-19.04296875,-929.19921875,-336.9140625,-14.16015625,-1.0,-1.0,1.0,0.0,9.m4v,2.0
2024-02-27 11:00:04.395798,1709028004.3957984,-32.71484375,-1000.0,-612.79296875,-16.6015625,-1.0,-1.0,1.0,0.0,9.m4v,2.0
2024-02-27 11:00:04.399704,1709028004.3997042,-37.109375,-393.5546875,-439.94140625,-16.6015625,-1.0,-1.0,1.0,0.0,9.m4v,2.0
2024-02-27 11:00:04.403610,1709028004.40361,-12.6953125,970.703125,265.13671875,-1.953125,-1.0,-1.0,1.0,0.0,9.m4v,2.0
2024-02-27 11:00:04.407516,1709028004.4075158,-6.8359375,983.88671875,229.00390625,11.71875,-1.0,-1.0,1.0,0.0,9.m4v,2.0
2024-02-27 11:00:04.411422,1709028004.4114215,-15.13671875,928.22265625,-253.90625,-0.9765625,-1.0,-1.0,1.0,0.0,9.m4v,2.0
2024-02-27 11:00:04.415327,1709028004.4153273,-22.94921875,981.4453125,-399.90234375,-17.578125,-1.0,-1.0,1.0,0.0,9.m4v,2.0
2024-02-27 11:00:04.419233,1709028004.419233,-27.83203125,969.7265625,-170.41015625,-13.671875,-1.0,-1.0,1.0,0.0,9.m4v,2.0
2024-02-27 11:00:04.423139,1709028004.423139,-22.94921875,970.21484375,-78.61328125,-6.34765625,-1.0,-1.0,1.0,0.0,9.m4v,2.0
2024-02-27 11:00:04.427047,1709028004.4270468,-21.484375,970.21484375,-97.65625,-8.7890625,-1.0,-1.0,1.0,0.0,9.m4v,2.0
2024-02-27 11:00:04.430953,1709028004.4309523,-23.4375,969.7265625,-192.3828125,-18.06640625,-1.0,-1.0,1.0,0.0,9.m4v,2.0
2024-02-27 11:00:04.434858,1709028004.4348583,-16.6015625,969.7265625,-413.0859375,-20.99609375,-1.0,-1.0,1.0,0.0,9.m4v,2.0
2024-02-27 11:00:04.438764,1709028004.438764,-24.90234375,969.7265625,-462.40234375,-21.97265625,-1.0,-1.0,1.0,0.0,9.m4v,2.0
2024-02-27 11:00:04.442670,1709028004.44267,-41.9921875,980.46875,-259.765625,-21.484375,-1.0,-1.0,1.0,0.0,9.m4v,2.0
2024-02-27 11:00:04.446576,1709028004.4465756,-34.66796875,923.33984375,204.1015625,-19.53125,-1.0,-1.0,1.0,0.0,9.m4v,2.0
2024-02-27 11:00:04.450481,1709028004.4504814,-23.92578125,999.51171875,397.4609375,-20.5078125,-1.0,-1.0,1.0,0.0,9.m4v,2.0
2024-02-27 11:00:04.454387,1709028004.4543872,-35.15625,864.2578125,-101.5625,-29.78515625,-1.0,-1.0,1.0,0.0,9.m4v,2.0
2024-02-27 11:00:04.458293,1709028004.4582932,-50.78125,-486.328125,-589.84375,-33.203125,-1.0,-1.0,1.0,0.0,9.m4v,2.0
2024-02-27 11:00:04.462199,1709028004.462199,-60.546875,-1000.0,-565.91796875,-30.2734375,-1.0,-1.0,1.0,0.0,9.m4v,2.0
2024-02-27 11:00:04.466105,1709028004.4661047,-56.15234375,-937.01171875,-338.37890625,-29.296875,-1.0,-1.0,1.0,0.0,9.m4v,2.0
2024-02-27 11:00:04.470011,1709028004.4700105,-44.43359375,-1000.0,-391.11328125,-23.4375,-1.0,-1.0,1.0,0.0,9.m4v,2.0
2024-02-27 11:00:04.473918,1709028004.4739182,-37.109375,-1000.0,-609.86328125,-18.06640625,-1.0,-1.0,1.0,0.0,9.m4v,2.0
2024-02-27 11:00:04.481730,1709028004.48173,-33.203125,-1000.0,-274.4140625,-28.80859375,-1.0,-1.0,1.0,0.0,9.m4v,2.0
2024-02-27 11:00:04.489542,1709028004.4895415,-13.671875,-1000.0,-368.1640625,-28.80859375,-1.0,-1.0,1.0,0.0,9.m4v,2.0
2024-02-27 11:00:04.493447,1709028004.4934473,-10.25390625,-204.58984375,-150.87890625,-27.34375,-1.0,-1.0,1.0,0.0,9.m4v,2.0
2024-02-27 11:00:04.501259,1709028004.5012589,-28.3203125,951.171875,-283.203125,-27.83203125,-1.0,-1.0,1.0,0.0,9.m4v,2.0
2024-02-27 11:00:04.505165,1709028004.5051646,-18.5546875,943.359375,-126.953125,-22.4609375,-1.0,-1.0,1.0,0.0,9.m4v,2.0
2024-02-27 11:00:04.512976,1709028004.5129762,-37.59765625,969.7265625,-247.0703125,-31.25,-1.0,-1.0,1.0,0.0,9.m4v,2.0
2024-02-27 11:00:04.516882,1709028004.516882,-42.96875,969.7265625,-283.203125,-40.0390625,-1.0,-1.0,1.0,0.0,9.m4v,2.0
2024-02-27 11:00:04.524695,1709028004.5246954,-37.59765625,969.7265625,-192.87109375,-41.50390625,-1.0,-1.0,1.0,0.0,9.m4v,2.0
2024-02-27 11:00:04.528601,1709028004.5286012,-37.59765625,969.7265625,-125.0,-38.57421875,-1.0,-1.0,1.0,0.0,9.m4v,2.0
2024-02-27 11:00:04.536413,1709028004.5364127,-25.87890625,974.609375,-370.60546875,-44.921875,-1.0,-1.0,1.0,0.0,9.m4v,2.0
2024-02-27 11:00:04.544224,1709028004.5442245,-29.296875,999.51171875,666.9921875,-34.1796875,-1.0,-1.0,1.0,0.0,9.m4v,2.0
2024-02-27 11:00:04.552036,1709028004.5520358,-27.83203125,-1000.0,-583.49609375,-48.828125,-1.0,-1.0,1.0,0.0,9.m4v,2.0
2024-02-27 11:00:04.559847,1709028004.5598474,-37.109375,-966.796875,-703.61328125,-51.26953125,-1.0,-1.0,1.0,0.0,9.m4v,2.0
2024-02-27 11:00:04.567662,1709028004.5676618,-36.62109375,-1000.0,-393.06640625,-38.57421875,-1.0,-1.0,1.0,0.0,9.m4v,2.0
2024-02-27 11:00:04.575473,1709028004.5754733,-36.1328125,-993.65234375,-506.34765625,-34.1796875,-1.0,-1.0,1.0,0.0,9.m4v,2.0
2024-02-27 11:00:04.583285,1709028004.5832849,-26.3671875,-1000.0,-411.62109375,-34.1796875,-1.0,-1.0,1.0,0.0,9.m4v,2.0
2024-02-27 11:00:04.587191,1709028004.5871906,-19.04296875,-106.93359375,184.08203125,-29.296875,-1.0,-1.0,1.0,0.0,9.m4v,2.0
2024-02-27 11:00:04.591096,1709028004.5910964,-19.53125,999.51171875,341.796875,-34.1796875,-1.0,-1.0,1.0,0.0,9.m4v,2.0
2024-02-27 11:00:04.595002,1709028004.5950024,-32.2265625,938.96484375,-184.08203125,-37.109375,-1.0,-1.0,1.0,0.0,9.m4v,2.0
2024-02-27 11:00:04.598908,1709028004.5989082,-31.73828125,950.68359375,-187.5,-37.59765625,-1.0,-1.0,1.0,0.0,9.m4v,2.0
2024-02-27 11:00:04.602814,1709028004.602814,-25.87890625,974.12109375,6.34765625,-33.69140625,-1.0,-1.0,1.0,0.0,9.m4v,2.0
2024-02-27 11:00:04.606720,1709028004.6067195,-31.73828125,970.21484375,-53.22265625,-34.1796875,-1.0,-1.0,1.0,0.0,9.m4v,2.0
2024-02-27 11:00:04.610626,1709028004.6106255,-39.55078125,969.7265625,-165.0390625,-41.9921875,-1.0,-1.0,1.0,0.0,9.m4v,2.0
2024-02-27 11:00:04.614534,1709028004.614534,-39.0625,969.7265625,-284.1796875,-37.59765625,-1.0,-1.0,1.0,0.0,9.m4v,2.0
2024-02-27 11:00:04.618440,1709028004.6184397,-24.90234375,969.7265625,-361.81640625,-19.53125,-1.0,-1.0,1.0,0.0,9.m4v,2.0
2024-02-27 11:00:04.622345,1709028004.6223454,-23.4375,970.21484375,-233.3984375,-22.94921875,-1.0,-1.0,1.0,0.0,9.m4v,2.0
2024-02-27 11:00:04.626251,1709028004.6262512,-30.76171875,970.703125,-108.3984375,-38.57421875,-1.0,-1.0,1.0,0.0,9.m4v,2.0
2024-02-27 11:00:04.630157,1709028004.630157,-25.87890625,967.7734375,-135.7421875,-35.64453125,-1.0,-1.0,1.0,0.0,9.m4v,2.0
2024-02-27 11:00:04.634063,1709028004.6340628,-27.83203125,911.1328125,-59.08203125,-32.71484375,-1.0,-1.0,1.0,0.0,9.m4v,2.0
2024-02-27 11:00:04.637969,1709028004.6379683,-28.80859375,999.51171875,-88.8671875,-35.15625,-1.0,-1.0,1.0,0.0,9.m4v,2.0
2024-02-27 11:00:04.641874,1709028004.6418743,-41.9921875,148.92578125,-264.16015625,-43.45703125,-1.0,-1.0,1.0,0.0,9.m4v,2.0
2024-02-27 11:00:04.645780,1709028004.64578,-45.8984375,-1000.0,-278.3203125,-45.8984375,-1.0,-1.0,1.0,0.0,9.m4v,2.0
2024-02-27 11:00:04.649686,1709028004.649686,-41.015625,-979.00390625,-387.20703125,-47.36328125,-1.0,-1.0,1.0,0.0,9.m4v,2.0
2024-02-27 11:00:04.653592,1709028004.653592,-66.40625,-976.07421875,-618.1640625,-58.59375,-1.0,-1.0,1.0,0.0,9.m4v,2.0
2024-02-27 11:00:04.657498,1709028004.6574976,-65.91796875,-1000.0,-575.1953125,-53.22265625,-1.0,-1.0,1.0,0.0,9.m4v,2.0
2024-02-27 11:00:04.661407,1709028004.6614065,-58.10546875,-1000.0,-331.54296875,-39.55078125,-1.0,-1.0,1.0,0.0,9.m4v,2.0
2024-02-27 11:00:04.665312,1709028004.6653123,-59.08203125,-1000.0,-173.828125,-36.62109375,-1.0,-1.0,1.0,0.0,9.m4v,2.0
2024-02-27 11:00:04.669218,1709028004.669218,-43.45703125,-1000.0,-147.4609375,-35.15625,-1.0,-1.0,1.0,0.0,9.m4v,2.0
2024-02-27 11:00:04.673124,1709028004.6731238,-39.55078125,-936.5234375,-405.2734375,-36.1328125,-1.0,-1.0,1.0,0.0,9.m4v,2.0
2024-02-27 11:00:04.677030,1709028004.6770296,-39.0625,-1000.0,-637.6953125,-37.59765625,-1.0,-1.0,1.0,0.0,9.m4v,2.0
2024-02-27 11:00:04.680935,1709028004.6809354,-35.15625,-236.328125,-146.97265625,-30.76171875,-1.0,-1.0,1.0,0.0,9.m4v,2.0
2024-02-27 11:00:04.684841,1709028004.6848412,-29.78515625,999.51171875,526.3671875,-25.390625,-1.0,-1.0,1.0,0.0,9.m4v,2.0
2024-02-27 11:00:04.688747,1709028004.688747,-23.92578125,956.0546875,235.83984375,-27.83203125,-1.0,-1.0,1.0,0.0,9.m4v,2.0
2024-02-27 11:00:04.692653,1709028004.692653,-37.109375,941.40625,-190.91796875,-22.4609375,-1.0,-1.0,1.0,0.0,9.m4v,2.0
2024-02-27 11:00:04.696559,1709028004.6965587,-48.33984375,977.05078125,-423.828125,-38.57421875,-1.0,-1.0,1.0,0.0,9.m4v,2.0
2024-02-27 11:00:04.700464,1709028004.7004645,-44.43359375,969.7265625,-426.26953125,-49.31640625,-1.0,-1.0,1.0,0.0,9.m4v,2.0
2024-02-27 11:00:04.704370,1709028004.7043705,-39.55078125,969.7265625,-162.109375,-41.9921875,-1.0,-1.0,1.0,0.0,9.m4v,2.0
2024-02-27 11:00:04.708278,1709028004.7082784,-35.15625,970.21484375,-138.671875,-41.9921875,-1.0,-1.0,1.0,0.0,9.m4v,2.0
2024-02-27 11:00:04.712184,1709028004.7121842,-23.4375,969.7265625,-227.5390625,-39.55078125,-1.0,-1.0,1.0,0.0,9.m4v,2.0
2024-02-27 11:00:04.716090,1709028004.71609,-20.99609375,969.7265625,-151.85546875,-32.71484375,-1.0,-1.0,1.0,0.0,9.m4v,2.0
2024-02-27 11:00:04.719996,1709028004.7199955,-27.83203125,969.7265625,-23.4375,-20.5078125,-1.0,-1.0,1.0,0.0,9.m4v,2.0
2024-02-27 11:00:04.723902,1709028004.7239015,-28.80859375,979.00390625,14.16015625,-26.3671875,-1.0,-1.0,1.0,0.0,9.m4v,2.0
2024-02-27 11:00:04.727807,1709028004.7278073,-30.76171875,898.4375,239.2578125,-29.296875,-1.0,-1.0,1.0,0.0,9.m4v,2.0
2024-02-27 11:00:04.731713,1709028004.731713,-20.99609375,999.51171875,491.2109375,-25.390625,-1.0,-1.0,1.0,0.0,9.m4v,2.0
2024-02-27 11:00:04.735619,1709028004.7356188,-20.01953125,375.0,-3.90625,-33.69140625,-1.0,-1.0,1.0,0.0,9.m4v,2.0
2024-02-27 11:00:04.739525,1709028004.7395246,-43.45703125,-995.1171875,-553.22265625,-42.48046875,-1.0,-1.0,1.0,0.0,9.m4v,2.0
2024-02-27 11:00:04.743430,1709028004.7434304,-52.734375,-1000.0,-365.234375,-41.015625,-1.0,-1.0,1.0,0.0,9.m4v,2.0
2024-02-27 11:00:04.747336,1709028004.747336,-43.9453125,-958.0078125,-207.03125,-42.48046875,-1.0,-1.0,1.0,0.0,9.m4v,2.0
2024-02-27 11:00:04.751242,1709028004.751242,-40.0390625,-1000.0,-293.9453125,-48.828125,-1.0,-1.0,1.0,0.0,9.m4v,2.0
2024-02-27 11:00:04.755150,1709028004.75515,-42.96875,-1000.0,-354.00390625,-46.875,-1.0,-1.0,1.0,0.0,9.m4v,2.0
2024-02-27 11:00:04.759056,1709028004.759056,-40.0390625,-1000.0,-343.26171875,-35.64453125,-1.0,-1.0,1.0,0.0,9.m4v,2.0
2024-02-27 11:00:04.762962,1709028004.7629616,-37.109375,-1000.0,-110.83984375,-34.1796875,-1.0,-1.0,1.0,0.0,9.m4v,2.0
2024-02-27 11:00:04.766867,1709028004.7668674,-31.25,-1000.0,116.2109375,-46.875,-1.0,-1.0,1.0,0.0,9.m4v,2.0
2024-02-27 11:00:04.770773,1709028004.7707732,-28.80859375,-932.6171875,85.44921875,-45.8984375,-1.0,-1.0,1.0,0.0,9.m4v,2.0
2024-02-27 11:00:04.774679,1709028004.774679,-31.25,-1000.0,53.7109375,-43.45703125,-1.0,-1.0,1.0,0.0,9.m4v,2.0
2024-02-27 11:00:04.778585,1709028004.7785847,-16.6015625,-307.12890625,472.65625,-39.0625,-1.0,-1.0,1.0,0.0,9.m4v,2.0
2024-02-27 11:00:04.794208,1709028004.7942078,-31.73828125,979.00390625,114.74609375,-36.62109375,-1.0,-1.0,1.0,0.0,9.m4v,2.0
2024-02-27 11:00:04.794208,1709028004.7942078,-31.73828125,979.00390625,114.74609375,-36.62109375,-1.0,-1.0,1.0,0.0,9.m4v,2.0
2024-02-27 11:00:04.798114,1709028004.7981136,-29.296875,969.7265625,91.796875,-31.25,-1.0,-1.0,1.0,0.0,9.m4v,2.0
2024-02-27 11:00:04.798114,1709028004.7981136,-29.296875,969.7265625,91.796875,-31.25,-1.0,-1.0,1.0,0.0,9.m4v,2.0
2024-02-27 11:00:04.802022,1709028004.8020215,-30.2734375,969.7265625,304.6875,-29.78515625,-1.0,-1.0,1.0,0.0,9.m4v,2.0
2024-02-27 11:00:04.802022,1709028004.8020215,-30.2734375,969.7265625,304.6875,-29.78515625,-1.0,-1.0,1.0,0.0,9.m4v,2.0
2024-02-27 11:00:04.805927,1709028004.8059273,-35.15625,969.7265625,560.546875,-29.78515625,-1.0,-1.0,1.0,0.0,9.m4v,2.0
2024-02-27 11:00:04.805927,1709028004.8059273,-35.15625,969.7265625,560.546875,-29.78515625,-1.0,-1.0,1.0,0.0,9.m4v,2.0
2024-02-27 11:00:04.809833,1709028004.809833,-34.66796875,969.7265625,605.46875,-28.3203125,-1.0,-1.0,1.0,0.0,9.m4v,2.0
2024-02-27 11:00:04.813739,1709028004.8137388,-30.76171875,969.7265625,391.6015625,-31.25,-1.0,-1.0,1.0,0.0,9.m4v,2.0
2024-02-27 11:00:04.895764,1709028004.895764,-47.8515625,969.7265625,239.74609375,-41.015625,-1.0,-1.0,1.0,0.0,9.m4v,2.0
2024-02-27 11:00:04.899670,1709028004.89967,-45.41015625,969.7265625,444.3359375,-38.0859375,-1.0,-1.0,1.0,0.0,9.m4v,2.0
2024-02-27 11:00:04.903576,1709028004.9035757,-41.015625,970.21484375,559.5703125,-35.15625,-1.0,-1.0,1.0,0.0,9.m4v,2.0
2024-02-27 11:00:04.907482,1709028004.9074817,-40.0390625,970.21484375,472.65625,-31.73828125,-1.0,-1.0,1.0,0.0,9.m4v,2.0
2024-02-27 11:00:04.911387,1709028004.9113874,-37.109375,972.16796875,332.03125,-18.06640625,-1.0,-1.0,1.0,0.0,9.m4v,2.0
2024-02-27 11:00:04.915293,1709028004.9152932,-43.9453125,905.2734375,554.19921875,-28.3203125,-1.0,-1.0,1.0,0.0,9.m4v,2.0
2024-02-27 11:00:04.919199,1709028004.919199,-60.546875,999.51171875,691.89453125,-52.734375,-1.0,-1.0,1.0,0.0,9.m4v,2.0
2024-02-27 11:00:04.923105,1709028004.9231048,-52.24609375,229.98046875,470.21484375,-42.96875,-1.0,-1.0,1.0,0.0,9.m4v,2.0
2024-02-27 11:00:04.927011,1709028004.9270103,-37.59765625,-1000.0,312.5,-35.15625,-1.0,-1.0,1.0,0.0,9.m4v,2.0
2024-02-27 11:00:04.930916,1709028004.9309163,-47.8515625,-991.2109375,108.88671875,-38.57421875,-1.0,-1.0,1.0,0.0,9.m4v,2.0
2024-02-27 11:00:04.934822,1709028004.934822,-53.7109375,-969.7265625,-68.359375,-39.55078125,-1.0,-1.0,1.0,0.0,9.m4v,2.0
2024-02-27 11:00:04.938728,1709028004.938728,-57.6171875,-1000.0,-75.68359375,-38.0859375,-1.0,-1.0,1.0,0.0,9.m4v,2.0
2024-02-27 11:00:04.942636,1709028004.9426365,-62.01171875,-1000.0,125.9765625,-39.55078125,-1.0,-1.0,1.0,0.0,9.m4v,2.0
2024-02-27 11:00:04.946542,1709028004.9465425,-46.38671875,-1000.0,350.5859375,-33.203125,-1.0,-1.0,1.0,0.0,9.m4v,2.0
2024-02-27 11:00:04.950448,1709028004.950448,-32.2265625,-956.0546875,376.46484375,-31.73828125,-1.0,-1.0,1.0,0.0,9.m4v,2.0
2024-02-27 11:00:04.954354,1709028004.9543538,-33.203125,-1000.0,177.734375,-36.62109375,-1.0,-1.0,1.0,0.0,9.m4v,2.0
2024-02-27 11:00:04.958260,1709028004.9582596,-41.9921875,-919.921875,231.93359375,-35.64453125,-1.0,-1.0,1.0,0.0,9.m4v,2.0
2024-02-27 11:00:04.962165,1709028004.9621654,-33.69140625,423.828125,752.44140625,-29.296875,-1.0,-1.0,1.0,0.0,9.m4v,2.0
2024-02-27 11:00:04.966071,1709028004.9660711,-29.78515625,999.51171875,914.0625,-27.83203125,-1.0,-1.0,1.0,0.0,9.m4v,2.0
2024-02-27 11:00:04.969977,1709028004.969977,-28.80859375,905.76171875,504.39453125,-29.78515625,-1.0,-1.0,1.0,0.0,9.m4v,2.0
2024-02-27 11:00:04.973883,1709028004.973883,-28.3203125,977.05078125,218.75,-34.66796875,-1.0,-1.0,1.0,0.0,9.m4v,2.0
2024-02-27 11:00:04.977788,1709028004.9777884,-34.1796875,969.7265625,73.2421875,-37.59765625,-1.0,-1.0,1.0,0.0,9.m4v,2.0
2024-02-27 11:00:04.981694,1709028004.9816945,-37.109375,969.7265625,179.6875,-28.80859375,-1.0,-1.0,1.0,0.0,9.m4v,2.0
2024-02-27 11:00:04.985600,1709028004.9856002,-40.0390625,969.7265625,449.70703125,-24.4140625,-1.0,-1.0,1.0,0.0,9.m4v,2.0
2024-02-27 11:00:04.989508,1709028004.9895084,-21.97265625,969.7265625,467.28515625,-11.71875,-1.0,-1.0,1.0,0.0,9.m4v,2.0
2024-02-27 11:00:05.040286,1709028005.0402863,-38.0859375,-1000.0,-164.55078125,-40.52734375,-1.0,-1.0,1.0,0.0,9.m4v,2.0
2024-02-27 11:00:05.044192,1709028005.044192,-31.73828125,-1000.0,29.78515625,-37.59765625,-1.0,-1.0,1.0,0.0,9.m4v,2.0
2024-02-27 11:00:05.048098,1709028005.0480978,-23.4375,-940.91796875,95.21484375,-33.69140625,-1.0,-1.0,1.0,0.0,9.m4v,2.0
2024-02-27 11:00:05.052004,1709028005.0520036,-25.87890625,-1000.0,-89.35546875,-41.9921875,-1.0,-1.0,1.0,0.0,9.m4v,2.0
2024-02-27 11:00:05.055909,1709028005.0559094,-34.1796875,-600.5859375,6.8359375,-41.50390625,-1.0,-1.0,1.0,0.0,9.m4v,2.0
2024-02-27 11:00:05.059815,1709028005.0598152,-28.80859375,781.25,417.96875,-19.53125,-1.0,-1.0,1.0,0.0,9.m4v,2.0
2024-02-27 11:00:05.063721,1709028005.063721,-16.6015625,999.51171875,519.53125,-23.92578125,-1.0,-1.0,1.0,0.0,9.m4v,2.0
2024-02-27 11:00:05.067627,1709028005.0676267,-10.7421875,912.59765625,408.203125,-41.015625,-1.0,-1.0,1.0,0.0,9.m4v,2.0
2024-02-27 11:00:05.071532,1709028005.0715325,-8.30078125,984.375,175.29296875,-40.52734375,-1.0,-1.0,1.0,0.0,9.m4v,2.0
2024-02-27 11:00:05.075438,1709028005.0754385,-10.25390625,969.7265625,-103.515625,-42.96875,-1.0,-1.0,1.0,0.0,9.m4v,2.0
2024-02-27 11:00:05.079344,1709028005.079344,-14.16015625,969.7265625,72.75390625,-41.9921875,-1.0,-1.0,1.0,0.0,9.m4v,2.0
2024-02-27 11:00:05.083253,1709028005.0832531,-17.578125,969.7265625,300.78125,-38.57421875,-1.0,-1.0,1.0,0.0,9.m4v,2.0
2024-02-27 11:00:05.087159,1709028005.087159,-27.34375,969.7265625,238.28125,-39.55078125,-1.0,-1.0,1.0,0.0,9.m4v,2.0
2024-02-27 11:00:05.091065,1709028005.0910647,-33.69140625,969.7265625,141.6015625,-39.55078125,-1.0,-1.0,1.0,0.0,9.m4v,2.0
2024-02-27 11:00:05.094970,1709028005.0949705,-33.69140625,969.7265625,-69.3359375,-40.0390625,-1.0,-1.0,1.0,0.0,9.m4v,2.0
2024-02-27 11:00:05.098876,1709028005.0988762,-34.66796875,969.7265625,-205.078125,-41.9921875,-1.0,-1.0,1.0,0.0,9.m4v,2.0
2024-02-27 11:00:05.102782,1709028005.102782,-30.2734375,980.95703125,254.8828125,-35.64453125,-1.0,-1.0,1.0,0.0,9.m4v,2.0
2024-02-27 11:00:05.106688,1709028005.1066878,-26.3671875,897.4609375,707.51953125,-29.296875,-1.0,-1.0,1.0,0.0,9.m4v,2.0
2024-02-27 11:00:05.110594,1709028005.1105936,-24.4140625,999.51171875,374.51171875,-34.66796875,-1.0,-1.0,1.0,0.0,9.m4v,2.0
2024-02-27 11:00:05.110594,1709028005.1105936,-24.4140625,999.51171875,374.51171875,-34.66796875,-1.0,-1.0,1.0,0.0,9.m4v,2.0
2024-02-27 11:00:05.114499,1709028005.114499,-24.90234375,434.5703125,-32.71484375,-42.96875,-1.0,-1.0,1.0,0.0,9.m4v,2.0
2024-02-27 11:00:05.114499,1709028005.114499,-24.90234375,434.5703125,-32.71484375,-42.96875,-1.0,-1.0,1.0,0.0,9.m4v,2.0
2024-02-27 11:00:05.118405,1709028005.118405,-31.73828125,-961.9140625,-280.2734375,-51.26953125,-1.0,-1.0,1.0,0.0,9.m4v,2.0
2024-02-27 11:00:05.118405,1709028005.118405,-31.73828125,-961.9140625,-280.2734375,-51.26953125,-1.0,-1.0,1.0,0.0,9.m4v,2.0
2024-02-27 11:00:05.122311,1709028005.122311,-34.66796875,-1000.0,-227.05078125,-49.8046875,-1.0,-1.0,1.0,0.0,9.m4v,2.0
2024-02-27 11:00:05.122311,1709028005.122311,-34.66796875,-1000.0,-227.05078125,-49.8046875,-1.0,-1.0,1.0,0.0,9.m4v,2.0
2024-02-27 11:00:05.126217,1709028005.126217,-20.99609375,-953.125,47.8515625,-30.76171875,-1.0,-1.0,1.0,0.0,9.m4v,2.0
2024-02-27 11:00:05.126217,1709028005.126217,-20.99609375,-953.125,47.8515625,-30.76171875,-1.0,-1.0,1.0,0.0,9.m4v,2.0
2024-02-27 11:00:05.130125,1709028005.1301246,-13.671875,-1000.0,56.15234375,-16.6015625,-1.0,-1.0,1.0,0.0,9.m4v,2.0
2024-02-27 11:00:05.130125,1709028005.1301246,-13.671875,-1000.0,56.15234375,-16.6015625,-1.0,-1.0,1.0,0.0,9.m4v,2.0
2024-02-27 11:00:05.134031,1709028005.1340306,-30.76171875,-1000.0,-122.0703125,-32.71484375,-1.0,-1.0,1.0,0.0,9.m4v,2.0
2024-02-27 11:00:05.134031,1709028005.1340306,-30.76171875,-1000.0,-122.0703125,-32.71484375,-1.0,-1.0,1.0,0.0,9.m4v,2.0
2024-02-27 11:00:05.137936,1709028005.1379364,-39.55078125,-997.55859375,-65.4296875,-42.96875,-1.0,-1.0,1.0,0.0,9.m4v,2.0
2024-02-27 11:00:05.137936,1709028005.1379364,-39.55078125,-997.55859375,-65.4296875,-42.96875,-1.0,-1.0,1.0,0.0,9.m4v,2.0
2024-02-27 11:00:05.141842,1709028005.141842,-42.96875,-942.87109375,137.6953125,-40.0390625,-1.0,-1.0,1.0,0.0,9.m4v,2.0
2024-02-27 11:00:05.141842,1709028005.141842,-42.96875,-942.87109375,137.6953125,-40.0390625,-1.0,-1.0,1.0,0.0,9.m4v,2.0
2024-02-27 11:00:05.145748,1709028005.145748,-45.41015625,-1000.0,110.3515625,-44.921875,-1.0,-1.0,1.0,0.0,9.m4v,2.0
2024-02-27 11:00:05.145748,1709028005.145748,-45.41015625,-1000.0,110.3515625,-44.921875,-1.0,-1.0,1.0,0.0,9.m4v,2.0
2024-02-27 11:00:05.149654,1709028005.1496537,-30.2734375,-164.0625,326.66015625,-37.109375,-1.0,-1.0,1.0,0.0,9.m4v,2.0
2024-02-27 11:00:05.149654,1709028005.1496537,-30.2734375,-164.0625,326.66015625,-37.109375,-1.0,-1.0,1.0,0.0,9.m4v,2.0
2024-02-27 11:00:05.153559,1709028005.1535594,-25.87890625,999.51171875,585.44921875,-33.69140625,-1.0,-1.0,1.0,0.0,9.m4v,2.0
2024-02-27 11:00:05.157465,1709028005.1574652,-32.2265625,946.2890625,202.1484375,-35.64453125,-1.0,-1.0,1.0,0.0,9.m4v,2.0
2024-02-27 11:00:05.161371,1709028005.161371,-27.34375,946.2890625,-11.71875,-31.25,-1.0,-1.0,1.0,0.0,9.m4v,2.0
2024-02-27 11:00:05.165277,1709028005.1652768,-17.08984375,975.09765625,229.00390625,-24.4140625,-1.0,-1.0,1.0,0.0,9.m4v,2.0
2024-02-27 11:00:05.169183,1709028005.1691823,-19.04296875,970.21484375,231.93359375,-23.92578125,-1.0,-1.0,1.0,0.0,9.m4v,2.0
2024-02-27 11:00:05.173088,1709028005.1730883,-29.78515625,969.7265625,-57.6171875,-31.25,-1.0,-1.0,1.0,0.0,9.m4v,2.0
2024-02-27 11:00:05.176996,1709028005.1769962,-43.9453125,969.7265625,-227.5390625,-35.64453125,-1.0,-1.0,1.0,0.0,9.m4v,2.0
2024-02-27 11:00:05.180902,1709028005.180902,-49.31640625,969.7265625,-141.6015625,-33.203125,-1.0,-1.0,1.0,0.0,9.m4v,2.0
2024-02-27 11:00:05.184808,1709028005.1848078,-41.9921875,969.7265625,63.96484375,-27.34375,-1.0,-1.0,1.0,0.0,9.m4v,2.0
2024-02-27 11:00:05.188714,1709028005.1887136,-36.1328125,970.21484375,140.13671875,-17.08984375,-1.0,-1.0,1.0,0.0,9.m4v,2.0
2024-02-27 11:00:05.192619,1709028005.192619,-30.76171875,970.21484375,33.69140625,-15.625,-1.0,-1.0,1.0,0.0,9.m4v,2.0
2024-02-27 11:00:05.196525,1709028005.196525,-31.73828125,971.6796875,156.73828125,-27.83203125,-1.0,-1.0,1.0,0.0,9.m4v,2.0
2024-02-27 11:00:05.200431,1709028005.2004309,-31.25,905.76171875,564.453125,-29.296875,-1.0,-1.0,1.0,0.0,9.m4v,2.0
2024-02-27 11:00:05.204337,1709028005.2043366,-34.66796875,999.51171875,585.9375,-36.62109375,-1.0,-1.0,1.0,0.0,9.m4v,2.0
2024-02-27 11:00:05.208242,1709028005.2082424,-42.96875,213.8671875,110.83984375,-45.8984375,-1.0,-1.0,1.0,0.0,9.m4v,2.0
2024-02-27 11:00:05.212148,1709028005.2121482,-36.62109375,-1000.0,-287.59765625,-38.0859375,-1.0,-1.0,1.0,0.0,9.m4v,2.0
2024-02-27 11:00:05.216054,1709028005.216054,-32.71484375,-987.79296875,-443.359375,-36.1328125,-1.0,-1.0,1.0,0.0,9.m4v,2.0
2024-02-27 11:00:05.219960,1709028005.21996,-35.64453125,-971.19140625,-395.99609375,-36.1328125,-1.0,-1.0,1.0,0.0,9.m4v,2.0
2024-02-27 11:00:05.223868,1709028005.2238677,-34.66796875,-1000.0,-160.15625,-30.2734375,-1.0,-1.0,1.0,0.0,9.m4v,2.0
2024-02-27 11:00:05.227773,1709028005.2277734,-40.0390625,-1000.0,-22.94921875,-24.4140625,-1.0,-1.0,1.0,0.0,9.m4v,2.0
2024-02-27 11:00:05.231679,1709028005.2316792,-44.921875,-1000.0,-144.04296875,-28.80859375,-1.0,-1.0,1.0,0.0,9.m4v,2.0
2024-02-27 11:00:05.235585,1709028005.235585,-42.48046875,-936.03515625,-448.73046875,-37.59765625,-1.0,-1.0,1.0,0.0,9.m4v,2.0
2024-02-27 11:00:05.239491,1709028005.2394907,-37.59765625,-1000.0,-550.29296875,-34.1796875,-1.0,-1.0,1.0,0.0,9.m4v,2.0
2024-02-27 11:00:05.446507,1709028005.4465077,-26.3671875,974.12109375,18.06640625,-31.73828125,-1.0,-1.0,1.0,0.0,9.m4v,2.0
2024-02-27 11:00:05.450413,1709028005.4504132,-22.4609375,969.7265625,-83.49609375,-25.87890625,-1.0,-1.0,1.0,0.0,9.m4v,2.0
2024-02-27 11:00:05.454319,1709028005.454319,-18.06640625,969.7265625,-105.95703125,-21.97265625,-1.0,-1.0,1.0,0.0,9.m4v,2.0
2024-02-27 11:00:05.458227,1709028005.458227,-3.41796875,969.7265625,-121.58203125,-26.85546875,-1.0,-1.0,1.0,0.0,9.m4v,2.0
2024-02-27 11:00:05.462133,1709028005.4621327,-9.765625,969.7265625,-70.3125,-29.78515625,-1.0,-1.0,1.0,0.0,9.m4v,2.0
2024-02-27 11:00:05.466038,1709028005.4660385,-30.76171875,969.7265625,70.80078125,-23.4375,-1.0,-1.0,1.0,0.0,9.m4v,2.0
2024-02-27 11:00:05.469944,1709028005.4699442,-31.73828125,969.7265625,43.45703125,-24.90234375,-1.0,-1.0,1.0,0.0,9.m4v,2.0
2024-02-27 11:00:05.473850,1709028005.47385,-28.80859375,969.7265625,-160.64453125,-20.99609375,-1.0,-1.0,1.0,0.0,9.m4v,2.0
2024-02-27 11:00:05.477756,1709028005.4777558,-22.4609375,973.6328125,-50.29296875,-2.44140625,-1.0,-1.0,1.0,0.0,9.m4v,2.0
2024-02-27 11:00:05.481662,1709028005.4816616,-13.671875,903.3203125,222.65625,-8.30078125,-1.0,-1.0,1.0,0.0,9.m4v,2.0
2024-02-27 11:00:05.485567,1709028005.485567,-19.04296875,999.51171875,208.0078125,-21.97265625,-1.0,-1.0,1.0,0.0,9.m4v,2.0
2024-02-27 11:00:05.489473,1709028005.489473,-22.94921875,250.0,-52.734375,-28.80859375,-1.0,-1.0,1.0,0.0,9.m4v,2.0
2024-02-27 11:00:05.493379,1709028005.493379,-26.3671875,-1000.0,-555.6640625,-43.9453125,-1.0,-1.0,1.0,0.0,9.m4v,2.0
2024-02-27 11:00:05.497285,1709028005.497285,-26.3671875,-994.140625,-466.30859375,-45.8984375,-1.0,-1.0,1.0,0.0,9.m4v,2.0
2024-02-27 11:00:05.501191,1709028005.501191,-17.578125,-968.26171875,-39.55078125,-40.52734375,-1.0,-1.0,1.0,0.0,9.m4v,2.0
2024-02-27 11:00:05.505099,1709028005.5050986,-22.94921875,-1000.0,-30.2734375,-39.55078125,-1.0,-1.0,1.0,0.0,9.m4v,2.0
2024-02-27 11:00:05.509004,1709028005.5090044,-26.85546875,-1000.0,-182.12890625,-39.0625,-1.0,-1.0,1.0,0.0,9.m4v,2.0
2024-02-27 11:00:05.512910,1709028005.51291,-31.25,-998.046875,-468.75,-43.9453125,-1.0,-1.0,1.0,0.0,9.m4v,2.0
2024-02-27 11:00:05.516816,1709028005.516816,-39.0625,-941.40625,-569.3359375,-47.8515625,-1.0,-1.0,1.0,0.0,9.m4v,2.0
2024-02-27 11:00:05.520722,1709028005.5207217,-26.85546875,-1000.0,-417.48046875,-38.57421875,-1.0,-1.0,1.0,0.0,9.m4v,2.0
2024-02-27 11:00:05.524627,1709028005.5246274,-19.53125,-174.8046875,210.44921875,-29.296875,-1.0,-1.0,1.0,0.0,9.m4v,2.0
2024-02-27 11:00:05.528533,1709028005.5285332,-23.92578125,999.51171875,539.55078125,-33.203125,-1.0,-1.0,1.0,0.0,9.m4v,2.0
2024-02-27 11:00:05.532439,1709028005.532439,-36.62109375,947.265625,45.41015625,-34.66796875,-1.0,-1.0,1.0,0.0,9.m4v,2.0
2024-02-27 11:00:05.536345,1709028005.5363448,-39.55078125,945.80078125,-217.7734375,-33.203125,-1.0,-1.0,1.0,0.0,9.m4v,2.0
2024-02-27 11:00:05.540251,1709028005.5402508,-29.78515625,975.5859375,-255.859375,-31.25,-1.0,-1.0,1.0,0.0,9.m4v,2.0
2024-02-27 11:00:05.544157,1709028005.5441566,-28.3203125,969.7265625,-29.296875,-26.85546875,-1.0,-1.0,1.0,0.0,9.m4v,2.0
2024-02-27 11:00:05.548062,1709028005.5480623,-26.85546875,969.7265625,138.671875,-26.3671875,-1.0,-1.0,1.0,0.0,9.m4v,2.0
2024-02-27 11:00:05.551970,1709028005.55197,-20.99609375,969.7265625,-99.12109375,-24.4140625,-1.0,-1.0,1.0,0.0,9.m4v,2.0
2024-02-27 11:00:05.555876,1709028005.5558758,-20.01953125,969.7265625,-270.5078125,-40.0390625,-1.0,-1.0,1.0,0.0,9.m4v,2.0
2024-02-27 11:00:05.559782,1709028005.5597816,-23.92578125,969.7265625,-128.90625,-53.22265625,-1.0,-1.0,1.0,0.0,9.m4v,2.0
2024-02-27 11:00:05.563688,1709028005.5636876,-35.15625,970.21484375,-41.015625,-41.9921875,-1.0,-1.0,1.0,0.0,9.m4v,2.0
2024-02-27 11:00:05.567593,1709028005.567593,-45.8984375,970.21484375,-150.87890625,-44.43359375,-1.0,-1.0,1.0,0.0,9.m4v,2.0
2024-02-27 11:00:05.571499,1709028005.571499,-40.0390625,907.2265625,-5.37109375,-45.8984375,-1.0,-1.0,1.0,0.0,9.m4v,2.0
2024-02-27 11:00:05.575405,1709028005.575405,-16.6015625,999.51171875,209.9609375,-36.1328125,-1.0,-1.0,1.0,0.0,9.m4v,2.0
2024-02-27 11:00:05.579311,1709028005.579311,-23.4375,184.5703125,-242.1875,-41.9921875,-1.0,-1.0,1.0,0.0,9.m4v,2.0
2024-02-27 11:00:05.583216,1709028005.5832164,-48.828125,-1000.0,-464.84375,-42.96875,-1.0,-1.0,1.0,0.0,9.m4v,2.0
2024-02-27 11:00:05.587122,1709028005.5871222,-49.31640625,-983.3984375,-374.51171875,-30.76171875,-1.0,-1.0,1.0,0.0,9.m4v,2.0
2024-02-27 11:00:05.591028,1709028005.591028,-45.41015625,-973.14453125,-570.3125,-28.3203125,-1.0,-1.0,1.0,0.0,9.m4v,2.0
2024-02-27 11:00:05.594934,1709028005.5949335,-47.8515625,-1000.0,-775.87890625,-39.55078125,-1.0,-1.0,1.0,0.0,9.m4v,2.0
2024-02-27 11:00:05.598841,1709028005.5988414,-45.41015625,-1000.0,-778.3203125,-41.9921875,-1.0,-1.0,1.0,0.0,9.m4v,2.0
2024-02-27 11:00:05.602747,1709028005.6027472,-34.66796875,-1000.0,-527.83203125,-36.1328125,-1.0,-1.0,1.0,0.0,9.m4v,2.0
2024-02-27 11:00:05.606653,1709028005.606653,-20.01953125,-1000.0,-336.9140625,-31.73828125,-1.0,-1.0,1.0,0.0,9.m4v,2.0
2024-02-27 11:00:05.610559,1709028005.6105587,-17.08984375,-929.19921875,-303.22265625,-25.87890625,-1.0,-1.0,1.0,0.0,9.m4v,2.0
2024-02-27 11:00:05.614465,1709028005.6144643,-23.92578125,-1000.0,-406.73828125,-22.4609375,-1.0,-1.0,1.0,0.0,9.m4v,2.0
2024-02-27 11:00:05.618370,1709028005.6183703,-30.2734375,-398.92578125,-285.15625,-25.390625,-1.0,-1.0,1.0,0.0,9.m4v,2.0
2024-02-27 11:00:05.622276,1709028005.622276,-35.64453125,967.7734375,440.91796875,-22.4609375,-1.0,-1.0,1.0,0.0,9.m4v,2.0
2024-02-27 11:00:05.626182,1709028005.626182,-32.71484375,984.86328125,537.109375,-15.13671875,-1.0,-1.0,1.0,0.0,9.m4v,2.0
2024-02-27 11:00:05.630088,1709028005.630088,-30.2734375,927.734375,-90.8203125,-20.5078125,-1.0,-1.0,1.0,0.0,9.m4v,2.0
2024-02-27 11:00:05.633994,1709028005.6339936,-31.25,981.4453125,-369.62890625,-45.41015625,-1.0,-1.0,1.0,0.0,9.m4v,2.0
2024-02-27 11:00:05.637899,1709028005.6378994,-29.78515625,969.7265625,-420.41015625,-43.9453125,-1.0,-1.0,1.0,0.0,9.m4v,2.0
2024-02-27 11:00:05.641805,1709028005.6418052,-34.1796875,969.7265625,-377.44140625,-30.2734375,-1.0,-1.0,1.0,0.0,9.m4v,2.0
2024-02-27 11:00:05.645713,1709028005.6457126,-32.71484375,969.7265625,-196.2890625,-34.1796875,-1.0,-1.0,1.0,0.0,9.m4v,2.0
2024-02-27 11:00:05.649618,1709028005.6496184,-22.4609375,969.7265625,-118.1640625,-34.66796875,-1.0,-1.0,1.0,0.0,9.m4v,2.0
2024-02-27 11:00:05.653524,1709028005.6535242,-20.01953125,969.7265625,-356.4453125,-31.25,-1.0,-1.0,1.0,0.0,9.m4v,2.0
2024-02-27 11:00:05.700396,1709028005.7003958,-25.390625,-1000.0,-572.265625,-30.2734375,-1.0,-1.0,1.0,0.0,9.m4v,2.0
2024-02-27 11:00:05.704302,1709028005.7043016,-27.83203125,-938.4765625,-392.578125,-21.484375,-1.0,-1.0,1.0,0.0,9.m4v,2.0
2024-02-27 11:00:05.712113,1709028005.7121134,-38.0859375,-209.9609375,-70.80078125,-27.34375,-1.0,-1.0,1.0,0.0,9.m4v,2.0
2024-02-27 11:00:05.712113,1709028005.7121134,-38.0859375,-209.9609375,-70.80078125,-27.34375,-1.0,-1.0,1.0,0.0,9.m4v,2.0
2024-02-27 11:00:05.716019,1709028005.7160192,-22.94921875,999.51171875,95.703125,-25.87890625,-1.0,-1.0,1.0,0.0,9.m4v,2.0
2024-02-27 11:00:05.719925,1709028005.719925,-19.53125,952.1484375,-176.26953125,-33.203125,-1.0,-1.0,1.0,0.0,9.m4v,2.0
2024-02-27 11:00:05.723831,1709028005.7238307,-27.34375,943.359375,-92.28515625,-30.76171875,-1.0,-1.0,1.0,0.0,9.m4v,2.0
2024-02-27 11:00:05.727736,1709028005.7277365,-32.71484375,976.5625,-63.4765625,-32.2265625,-1.0,-1.0,1.0,0.0,9.m4v,2.0
2024-02-27 11:00:05.731642,1709028005.7316422,-28.80859375,969.7265625,-303.22265625,-29.78515625,-1.0,-1.0,1.0,0.0,9.m4v,2.0
2024-02-27 11:00:05.735548,1709028005.735548,-27.34375,969.7265625,-379.8828125,-26.85546875,-1.0,-1.0,1.0,0.0,9.m4v,2.0
2024-02-27 11:00:05.770703,1709028005.7707028,-53.7109375,-1000.0,-375.9765625,-44.43359375,-1.0,-1.0,1.0,0.0,9.m4v,2.0
2024-02-27 11:00:05.774609,1709028005.7746086,-47.36328125,-1000.0,-657.71484375,-46.38671875,-1.0,-1.0,1.0,0.0,9.m4v,2.0
2024-02-27 11:00:05.778514,1709028005.7785144,-41.50390625,-963.8671875,-691.89453125,-29.78515625,-1.0,-1.0,1.0,0.0,9.m4v,2.0
2024-02-27 11:00:05.782420,1709028005.7824202,-45.41015625,-1000.0,-403.80859375,-22.94921875,-1.0,-1.0,1.0,0.0,9.m4v,2.0
2024-02-27 11:00:05.786329,1709028005.7863286,-41.9921875,-1000.0,-216.796875,-37.59765625,-1.0,-1.0,1.0,0.0,9.m4v,2.0
2024-02-27 11:00:05.790234,1709028005.7902343,-42.96875,-1000.0,-318.84765625,-47.36328125,-1.0,-1.0,1.0,0.0,9.m4v,2.0
2024-02-27 11:00:05.794140,1709028005.79414,-51.7578125,-989.74609375,-450.68359375,-49.8046875,-1.0,-1.0,1.0,0.0,9.m4v,2.0
2024-02-27 11:00:05.856635,1709028005.856635,-37.59765625,999.51171875,103.515625,-39.55078125,-1.0,-1.0,1.0,0.0,9.m4v,2.0
2024-02-27 11:00:05.860541,1709028005.8605409,-43.45703125,494.62890625,-25.390625,-46.38671875,-1.0,-1.0,1.0,0.0,9.m4v,2.0
2024-02-27 11:00:05.864447,1709028005.8644466,-59.5703125,-919.43359375,-329.1015625,-50.78125,-1.0,-1.0,1.0,0.0,9.m4v,2.0
2024-02-27 11:00:05.868352,1709028005.8683524,-42.48046875,-1000.0,-370.60546875,-35.15625,-1.0,-1.0,1.0,0.0,9.m4v,2.0
2024-02-27 11:00:05.872258,1709028005.8722582,-36.1328125,-949.21875,-430.17578125,-39.55078125,-1.0,-1.0,1.0,0.0,9.m4v,2.0
2024-02-27 11:00:05.876164,1709028005.876164,-51.7578125,-1000.0,-676.7578125,-58.10546875,-1.0,-1.0,1.0,0.0,9.m4v,2.0
2024-02-27 11:00:05.880072,1709028005.880072,-49.8046875,-1000.0,-612.3046875,-53.7109375,-1.0,-1.0,1.0,0.0,9.m4v,2.0
2024-02-27 11:00:05.883978,1709028005.8839777,-47.8515625,-1000.0,-297.8515625,-48.828125,-1.0,-1.0,1.0,0.0,9.m4v,2.0
2024-02-27 11:00:05.887884,1709028005.8878837,-52.734375,-1000.0,-171.38671875,-49.8046875,-1.0,-1.0,1.0,0.0,9.m4v,2.0
2024-02-27 11:00:05.891789,1709028005.8917894,-46.875,-937.98828125,-195.3125,-48.828125,-1.0,-1.0,1.0,0.0,9.m4v,2.0
2024-02-27 11:00:05.895695,1709028005.8956952,-46.38671875,-1000.0,-421.875,-48.828125,-1.0,-1.0,1.0,0.0,9.m4v,2.0
2024-02-27 11:00:05.899601,1709028005.899601,-45.8984375,-210.9375,-112.79296875,-44.921875,-1.0,-1.0,1.0,0.0,9.m4v,2.0
2024-02-27 11:00:05.903507,1709028005.9035068,-27.83203125,999.51171875,509.27734375,-34.1796875,-1.0,-1.0,1.0,0.0,9.m4v,2.0
2024-02-27 11:00:05.903507,1709028005.9035068,-27.83203125,999.51171875,509.27734375,-34.1796875,-1.0,-1.0,1.0,0.0,9.m4v,2.0
2024-02-27 11:00:05.907413,1709028005.9074123,-28.3203125,952.1484375,225.5859375,-32.71484375,-1.0,-1.0,1.0,0.0,9.m4v,2.0
2024-02-27 11:00:05.907413,1709028005.9074123,-28.3203125,952.1484375,225.5859375,-32.71484375,-1.0,-1.0,1.0,0.0,9.m4v,2.0
2024-02-27 11:00:05.911318,1709028005.9113183,-40.0390625,943.359375,-199.21875,-44.43359375,-1.0,-1.0,1.0,0.0,9.m4v,2.0
2024-02-27 11:00:05.911318,1709028005.9113183,-40.0390625,943.359375,-199.21875,-44.43359375,-1.0,-1.0,1.0,0.0,9.m4v,2.0
2024-02-27 11:00:05.915224,1709028005.915224,-36.62109375,976.5625,-395.5078125,-49.31640625,-1.0,-1.0,1.0,0.0,9.m4v,2.0
2024-02-27 11:00:05.915224,1709028005.915224,-36.62109375,976.5625,-395.5078125,-49.31640625,-1.0,-1.0,1.0,0.0,9.m4v,2.0
2024-02-27 11:00:05.919130,1709028005.9191298,-39.0625,969.7265625,-315.91796875,-46.875,-1.0,-1.0,1.0,0.0,9.m4v,2.0
2024-02-27 11:00:05.926943,1709028005.9269433,-35.15625,969.7265625,-107.91015625,-38.57421875,-1.0,-1.0,1.0,0.0,9.m4v,2.0
2024-02-27 11:00:05.926943,1709028005.9269433,-35.15625,969.7265625,-107.91015625,-38.57421875,-1.0,-1.0,1.0,0.0,9.m4v,2.0
2024-02-27 11:00:05.930849,1709028005.930849,-40.52734375,969.7265625,-273.4375,-36.62109375,-1.0,-1.0,1.0,0.0,9.m4v,2.0
2024-02-27 11:00:05.938661,1709028005.9386606,-49.31640625,969.7265625,-379.8828125,-34.1796875,-1.0,-1.0,1.0,0.0,9.m4v,2.0
2024-02-27 11:00:05.942566,1709028005.9425664,-42.48046875,983.3984375,-227.5390625,-34.1796875,-1.0,-1.0,1.0,0.0,9.m4v,2.0
2024-02-27 11:00:05.946472,1709028005.9464722,-34.1796875,899.4140625,171.875,-34.1796875,-1.0,-1.0,1.0,0.0,9.m4v,2.0
2024-02-27 11:00:05.950378,1709028005.950378,-38.0859375,999.51171875,277.83203125,-33.69140625,-1.0,-1.0,1.0,0.0,9.m4v,2.0
2024-02-27 11:00:05.954284,1709028005.9542837,-49.31640625,562.01171875,-255.859375,-26.3671875,-1.0,-1.0,1.0,0.0,9.m4v,2.0
2024-02-27 11:00:05.958190,1709028005.9581895,-53.22265625,-863.76953125,-664.0625,-31.25,-1.0,-1.0,1.0,0.0,9.m4v,2.0
2024-02-27 11:00:05.962095,1709028005.9620955,-48.828125,-1000.0,-533.69140625,-52.24609375,-1.0,-1.0,1.0,0.0,9.m4v,2.0
2024-02-27 11:00:05.966001,1709028005.9660013,-41.50390625,-944.82421875,-276.3671875,-51.7578125,-1.0,-1.0,1.0,0.0,9.m4v,2.0
2024-02-27 11:00:05.969907,1709028005.969907,-35.64453125,-1000.0,-325.68359375,-45.8984375,-1.0,-1.0,1.0,0.0,9.m4v,2.0
2024-02-27 11:00:05.973815,1709028005.9738147,-35.64453125,-1000.0,-443.359375,-46.875,-1.0,-1.0,1.0,0.0,9.m4v,2.0
2024-02-27 11:00:05.977720,1709028005.9777205,-41.015625,-1000.0,-336.9140625,-42.48046875,-1.0,-1.0,1.0,0.0,9.m4v,2.0
2024-02-27 11:00:05.981626,1709028005.9816265,-39.55078125,-1000.0,-68.359375,-37.59765625,-1.0,-1.0,1.0,0.0,9.m4v,2.0
2024-02-27 11:00:05.985532,1709028005.985532,-23.4375,-929.19921875,26.85546875,-35.64453125,-1.0,-1.0,1.0,0.0,9.m4v,2.0
2024-02-27 11:00:05.989438,1709028005.989438,-29.296875,-1000.0,-154.296875,-34.1796875,-1.0,-1.0,1.0,0.0,9.m4v,2.0
2024-02-27 11:00:05.993344,1709028005.9933438,-34.66796875,-393.06640625,-166.015625,-31.73828125,-1.0,-1.0,1.0,0.0,9.m4v,2.0
2024-02-27 11:00:05.997250,1709028005.9972496,-23.4375,970.703125,136.23046875,-29.296875,-1.0,-1.0,1.0,0.0,9.m4v,2.0
2024-02-27 11:00:06.001155,1709028006.0011554,-34.66796875,983.88671875,70.3125,-28.80859375,-1.0,-1.0,1.0,0.0,9.m4v,2.0
2024-02-27 11:00:06.005061,1709028006.0050611,-36.62109375,928.7109375,-83.49609375,-28.3203125,-1.0,-1.0,1.0,0.0,9.m4v,2.0
2024-02-27 11:00:06.005061,1709028006.0050611,-36.62109375,928.7109375,-83.49609375,-28.3203125,-1.0,-1.0,1.0,0.0,9.m4v,2.0
2024-02-27 11:00:06.008967,1709028006.008967,-25.87890625,981.4453125,-228.515625,-30.2734375,-1.0,-1.0,1.0,0.0,9.m4v,2.0
2024-02-27 11:00:06.012873,1709028006.0128727,-27.83203125,969.7265625,-477.5390625,-29.78515625,-1.0,-1.0,1.0,0.0,9.m4v,2.0
2024-02-27 11:00:06.016778,1709028006.0167785,-35.15625,970.21484375,-521.97265625,-32.2265625,-1.0,-1.0,1.0,0.0,9.m4v,2.0
2024-02-27 11:00:06.016778,1709028006.0167785,-35.15625,970.21484375,-521.97265625,-32.2265625,-1.0,-1.0,1.0,0.0,9.m4v,2.0
2024-02-27 11:00:06.020687,1709028006.020687,-27.34375,969.7265625,-268.5546875,-31.25,-1.0,-1.0,1.0,0.0,9.m4v,2.0
2024-02-27 11:00:06.024593,1709028006.0245929,-7.8125,969.7265625,-15.13671875,-20.01953125,-1.0,-1.0,1.0,0.0,9.m4v,2.0
2024-02-27 11:00:06.028499,1709028006.0284986,-15.13671875,969.7265625,19.53125,-22.94921875,-1.0,-1.0,1.0,0.0,9.m4v,2.0
2024-02-27 11:00:06.028499,1709028006.0284986,-15.13671875,969.7265625,19.53125,-22.94921875,-1.0,-1.0,1.0,0.0,9.m4v,2.0
2024-02-27 11:00:06.032404,1709028006.0324044,-28.80859375,969.7265625,-185.05859375,-20.01953125,-1.0,-1.0,1.0,0.0,9.m4v,2.0
2024-02-27 11:00:06.036310,1709028006.0363102,-23.4375,981.4453125,-340.8203125,-22.94921875,-1.0,-1.0,1.0,0.0,9.m4v,2.0
2024-02-27 11:00:06.040216,1709028006.0402162,-28.80859375,920.8984375,48.33984375,-45.41015625,-1.0,-1.0,1.0,0.0,9.m4v,2.0
2024-02-27 11:00:06.040216,1709028006.0402162,-28.80859375,920.8984375,48.33984375,-45.41015625,-1.0,-1.0,1.0,0.0,9.m4v,2.0
2024-02-27 11:00:06.044122,1709028006.044122,-39.0625,999.51171875,479.00390625,-36.62109375,-1.0,-1.0,1.0,0.0,9.m4v,2.0
2024-02-27 11:00:06.051934,1709028006.0519335,-40.0390625,-514.16015625,-425.78125,-41.50390625,-1.0,-1.0,1.0,0.0,9.m4v,2.0
2024-02-27 11:00:06.051934,1709028006.0519335,-40.0390625,-514.16015625,-425.78125,-41.50390625,-1.0,-1.0,1.0,0.0,9.m4v,2.0
2024-02-27 11:00:06.055839,1709028006.0558393,-62.01171875,-1000.0,-774.4140625,-49.31640625,-1.0,-1.0,1.0,0.0,9.m4v,2.0
2024-02-27 11:00:06.055839,1709028006.0558393,-62.01171875,-1000.0,-774.4140625,-49.31640625,-1.0,-1.0,1.0,0.0,9.m4v,2.0
2024-02-27 11:00:06.059745,1709028006.059745,-58.10546875,-936.5234375,-695.3125,-43.9453125,-1.0,-1.0,1.0,0.0,9.m4v,2.0
2024-02-27 11:00:06.063651,1709028006.0636508,-51.7578125,-1000.0,-453.61328125,-38.0859375,-1.0,-1.0,1.0,0.0,9.m4v,2.0
2024-02-27 11:00:06.067559,1709028006.0675592,-40.52734375,-1000.0,-302.734375,-32.2265625,-1.0,-1.0,1.0,0.0,9.m4v,2.0
2024-02-27 11:00:06.067559,1709028006.0675592,-40.52734375,-1000.0,-302.734375,-32.2265625,-1.0,-1.0,1.0,0.0,9.m4v,2.0
2024-02-27 11:00:06.067559,1709028006.0675592,-40.52734375,-1000.0,-302.734375,-32.2265625,-1.0,-1.0,1.0,0.0,9.m4v,2.0
2024-02-27 11:00:06.071465,1709028006.071465,-38.57421875,-1000.0,-309.08203125,-37.59765625,-1.0,-1.0,1.0,0.0,9.m4v,2.0
2024-02-27 11:00:06.075371,1709028006.0753708,-40.52734375,-1000.0,-456.54296875,-40.0390625,-1.0,-1.0,1.0,0.0,9.m4v,2.0
2024-02-27 11:00:06.079277,1709028006.0792768,-41.015625,-937.01171875,-475.5859375,-34.66796875,-1.0,-1.0,1.0,0.0,9.m4v,2.0
2024-02-27 11:00:06.079277,1709028006.0792768,-41.015625,-937.01171875,-475.5859375,-34.66796875,-1.0,-1.0,1.0,0.0,9.m4v,2.0
2024-02-27 11:00:06.079277,1709028006.0792768,-41.015625,-937.01171875,-475.5859375,-34.66796875,-1.0,-1.0,1.0,0.0,9.m4v,2.0
2024-02-27 11:00:06.083183,1709028006.0831826,-46.38671875,-1000.0,-348.6328125,-28.80859375,-1.0,-1.0,1.0,0.0,9.m4v,2.0
2024-02-27 11:00:06.087088,1709028006.0870883,-35.64453125,-224.12109375,102.5390625,-22.4609375,-1.0,-1.0,1.0,0.0,9.m4v,2.0
2024-02-27 11:00:06.090994,1709028006.090994,-35.15625,999.51171875,308.10546875,-22.4609375,-1.0,-1.0,1.0,0.0,9.m4v,2.0
2024-02-27 11:00:06.090994,1709028006.090994,-35.15625,999.51171875,308.10546875,-22.4609375,-1.0,-1.0,1.0,0.0,9.m4v,2.0
2024-02-27 11:00:06.090994,1709028006.090994,-35.15625,999.51171875,308.10546875,-22.4609375,-1.0,-1.0,1.0,0.0,9.m4v,2.0
2024-02-27 11:00:06.094900,1709028006.0949,-44.921875,954.1015625,-178.7109375,-30.2734375,-1.0,-1.0,1.0,0.0,9.m4v,2.0
2024-02-27 11:00:06.098806,1709028006.0988057,-40.0390625,941.89453125,-207.51953125,-36.1328125,-1.0,-1.0,1.0,0.0,9.m4v,2.0
2024-02-27 11:00:06.102711,1709028006.1027114,-28.80859375,979.4921875,104.98046875,-28.80859375,-1.0,-1.0,1.0,0.0,9.m4v,2.0
2024-02-27 11:00:06.102711,1709028006.1027114,-28.80859375,979.4921875,104.98046875,-28.80859375,-1.0,-1.0,1.0,0.0,9.m4v,2.0
2024-02-27 11:00:06.102711,1709028006.1027114,-28.80859375,979.4921875,104.98046875,-28.80859375,-1.0,-1.0,1.0,0.0,9.m4v,2.0
2024-02-27 11:00:06.106617,1709028006.1066172,-27.34375,958.0078125,254.39453125,-18.5546875,-1.0,-1.0,1.0,0.0,9.m4v,2.0
2024-02-27 11:00:06.110523,1709028006.110523,-28.80859375,929.6875,135.7421875,-24.90234375,-1.0,-1.0,1.0,0.0,9.m4v,2.0
2024-02-27 11:00:06.114431,1709028006.1144314,-26.3671875,999.51171875,-137.6953125,-48.33984375,-1.0,-1.0,1.0,0.0,9.m4v,2.0
2024-02-27 11:00:06.114431,1709028006.1144314,-26.3671875,999.51171875,-137.6953125,-48.33984375,-1.0,-1.0,1.0,0.0,9.m4v,2.0
2024-02-27 11:00:06.114431,1709028006.1144314,-26.3671875,999.51171875,-137.6953125,-48.33984375,-1.0,-1.0,1.0,0.0,9.m4v,2.0
2024-02-27 11:00:06.118337,1709028006.1183372,-36.1328125,-1.46484375,-296.875,-52.734375,-1.0,-1.0,1.0,0.0,9.m4v,2.0
2024-02-27 11:00:06.122243,1709028006.122243,-33.69140625,-1000.0,-122.55859375,-44.43359375,-1.0,-1.0,1.0,0.0,9.m4v,2.0
2024-02-27 11:00:06.126149,1709028006.1261487,-20.5078125,-963.8671875,210.9375,-39.55078125,-1.0,-1.0,1.0,0.0,9.m4v,2.0
2024-02-27 11:00:06.126149,1709028006.1261487,-20.5078125,-963.8671875,210.9375,-39.55078125,-1.0,-1.0,1.0,0.0,9.m4v,2.0
2024-02-27 11:00:06.126149,1709028006.1261487,-20.5078125,-963.8671875,210.9375,-39.55078125,-1.0,-1.0,1.0,0.0,9.m4v,2.0
2024-02-27 11:00:06.130054,1709028006.1300545,-12.6953125,-985.3515625,125.48828125,-36.1328125,-1.0,-1.0,1.0,0.0,9.m4v,2.0
2024-02-27 11:00:06.133960,1709028006.1339602,-22.94921875,-1000.0,153.80859375,-33.69140625,-1.0,-1.0,1.0,0.0,9.m4v,2.0
2024-02-27 11:00:06.137866,1709028006.1378665,-36.1328125,-1000.0,166.50390625,-38.57421875,-1.0,-1.0,1.0,0.0,9.m4v,2.0
2024-02-27 11:00:06.141772,1709028006.141772,-31.25,-1000.0,-91.796875,-40.52734375,-1.0,-1.0,1.0,0.0,9.m4v,2.0
2024-02-27 11:00:06.145678,1709028006.1456778,-30.2734375,-1000.0,17.08984375,-33.69140625,-1.0,-1.0,1.0,0.0,9.m4v,2.0
2024-02-27 11:00:06.149584,1709028006.1495836,-36.62109375,-1000.0,190.4296875,-32.71484375,-1.0,-1.0,1.0,0.0,9.m4v,2.0
2024-02-27 11:00:06.153489,1709028006.1534894,-33.203125,-1000.0,185.05859375,-34.1796875,-1.0,-1.0,1.0,0.0,9.m4v,2.0
2024-02-27 11:00:06.153489,1709028006.1534894,-33.203125,-1000.0,185.05859375,-34.1796875,-1.0,-1.0,1.0,0.0,9.m4v,2.0
2024-02-27 11:00:06.153489,1709028006.1534894,-33.203125,-1000.0,185.05859375,-34.1796875,-1.0,-1.0,1.0,0.0,9.m4v,2.0
2024-02-27 11:00:06.157395,1709028006.1573951,-30.2734375,-1000.0,257.32421875,-35.64453125,-1.0,-1.0,1.0,0.0,9.m4v,2.0
2024-02-27 11:00:06.161303,1709028006.1613033,-32.71484375,-1000.0,416.9921875,-33.203125,-1.0,-1.0,1.0,0.0,9.m4v,2.0
2024-02-27 11:00:06.165209,1709028006.165209,-20.99609375,-1000.0,484.375,-31.73828125,-1.0,-1.0,1.0,0.0,9.m4v,2.0
2024-02-27 11:00:06.165209,1709028006.165209,-20.99609375,-1000.0,484.375,-31.73828125,-1.0,-1.0,1.0,0.0,9.m4v,2.0
2024-02-27 11:00:06.165209,1709028006.165209,-20.99609375,-1000.0,484.375,-31.73828125,-1.0,-1.0,1.0,0.0,9.m4v,2.0
2024-02-27 11:00:06.169115,1709028006.1691148,-21.97265625,-984.375,371.58203125,-32.71484375,-1.0,-1.0,1.0,0.0,9.m4v,2.0
2024-02-27 11:00:06.173021,1709028006.1730208,-40.52734375,-963.37890625,219.23828125,-38.0859375,-1.0,-1.0,1.0,0.0,9.m4v,2.0
2024-02-27 11:00:06.176927,1709028006.1769266,-48.33984375,-1000.0,164.55078125,-45.8984375,-1.0,-1.0,1.0,0.0,9.m4v,2.0
2024-02-27 11:00:06.176927,1709028006.1769266,-48.33984375,-1000.0,164.55078125,-45.8984375,-1.0,-1.0,1.0,0.0,9.m4v,2.0
2024-02-27 11:00:06.176927,1709028006.1769266,-48.33984375,-1000.0,164.55078125,-45.8984375,-1.0,-1.0,1.0,0.0,9.m4v,2.0
2024-02-27 11:00:06.180832,1709028006.1808324,-32.2265625,32.2265625,598.14453125,-35.15625,-1.0,-1.0,1.0,0.0,9.m4v,2.0
2024-02-27 11:00:06.184738,1709028006.1847382,-13.671875,999.51171875,999.51171875,-22.4609375,-1.0,-1.0,1.0,0.0,9.m4v,2.0
2024-02-27 11:00:06.184738,1709028006.1847382,-13.671875,999.51171875,999.51171875,-22.4609375,-1.0,-1.0,1.0,0.0,9.m4v,2.0
2024-02-27 11:00:06.184738,1709028006.1847382,-13.671875,999.51171875,999.51171875,-22.4609375,-1.0,-1.0,1.0,0.0,9.m4v,2.0
2024-02-27 11:00:06.188644,1709028006.188644,-14.6484375,921.875,739.74609375,-22.4609375,-1.0,-1.0,1.0,0.0,9.m4v,2.0
2024-02-27 11:00:06.192550,1709028006.1925497,-17.08984375,960.44921875,478.02734375,-17.08984375,-1.0,-1.0,1.0,0.0,9.m4v,2.0
2024-02-27 11:00:06.192550,1709028006.1925497,-17.08984375,960.44921875,478.02734375,-17.08984375,-1.0,-1.0,1.0,0.0,9.m4v,2.0
2024-02-27 11:00:06.192550,1709028006.1925497,-17.08984375,960.44921875,478.02734375,-17.08984375,-1.0,-1.0,1.0,0.0,9.m4v,2.0
2024-02-27 11:00:06.196455,1709028006.1964557,-28.80859375,971.6796875,344.7265625,-34.66796875,-1.0,-1.0,1.0,0.0,9.m4v,2.0
2024-02-27 11:00:06.200361,1709028006.2003613,-39.55078125,969.7265625,427.24609375,-48.828125,-1.0,-1.0,1.0,0.0,9.m4v,2.0
2024-02-27 11:00:06.200361,1709028006.2003613,-39.55078125,969.7265625,427.24609375,-48.828125,-1.0,-1.0,1.0,0.0,9.m4v,2.0
2024-02-27 11:00:06.200361,1709028006.2003613,-39.55078125,969.7265625,427.24609375,-48.828125,-1.0,-1.0,1.0,0.0,9.m4v,2.0
2024-02-27 11:00:06.204267,1709028006.204267,-33.203125,969.7265625,738.28125,-32.71484375,-1.0,-1.0,1.0,0.0,9.m4v,2.0
2024-02-27 11:00:06.208175,1709028006.2081752,-37.109375,969.7265625,686.5234375,-34.1796875,-1.0,-1.0,1.0,0.0,9.m4v,2.0
2024-02-27 11:00:06.212081,1709028006.212081,-42.48046875,969.7265625,338.8671875,-45.41015625,-1.0,-1.0,1.0,0.0,9.m4v,2.0
2024-02-27 11:00:06.215987,1709028006.2159867,-39.55078125,969.7265625,169.921875,-40.52734375,-1.0,-1.0,1.0,0.0,9.m4v,2.0
2024-02-27 11:00:06.395661,1709028006.395661,-24.90234375,969.7265625,-25.87890625,-34.1796875,-1.0,-1.0,1.0,0.0,9.m4v,2.0
2024-02-27 11:00:06.395661,1709028006.395661,-24.90234375,969.7265625,-25.87890625,-34.1796875,-1.0,-1.0,1.0,0.0,9.m4v,2.0
2024-02-27 11:00:06.395661,1709028006.395661,-24.90234375,969.7265625,-25.87890625,-34.1796875,-1.0,-1.0,1.0,0.0,9.m4v,2.0
2024-02-27 11:00:06.403473,1709028006.403473,-30.2734375,969.7265625,416.9921875,-34.1796875,-1.0,-1.0,1.0,0.0,9.m4v,2.0
2024-02-27 11:00:06.403473,1709028006.403473,-30.2734375,969.7265625,416.9921875,-34.1796875,-1.0,-1.0,1.0,0.0,9.m4v,2.0
2024-02-27 11:00:06.403473,1709028006.403473,-30.2734375,969.7265625,416.9921875,-34.1796875,-1.0,-1.0,1.0,0.0,9.m4v,2.0
2024-02-27 11:00:06.411284,1709028006.4112842,-26.85546875,969.7265625,302.24609375,-34.1796875,-1.0,-1.0,1.0,0.0,9.m4v,2.0
2024-02-27 11:00:06.411284,1709028006.4112842,-26.85546875,969.7265625,302.24609375,-34.1796875,-1.0,-1.0,1.0,0.0,9.m4v,2.0
2024-02-27 11:00:06.411284,1709028006.4112842,-26.85546875,969.7265625,302.24609375,-34.1796875,-1.0,-1.0,1.0,0.0,9.m4v,2.0
2024-02-27 11:00:06.419096,1709028006.4190958,-35.15625,969.7265625,357.421875,-31.73828125,-1.0,-1.0,1.0,0.0,9.m4v,2.0
2024-02-27 11:00:06.419096,1709028006.4190958,-35.15625,969.7265625,357.421875,-31.73828125,-1.0,-1.0,1.0,0.0,9.m4v,2.0
2024-02-27 11:00:06.419096,1709028006.4190958,-35.15625,969.7265625,357.421875,-31.73828125,-1.0,-1.0,1.0,0.0,9.m4v,2.0
2024-02-27 11:00:06.426907,1709028006.4269073,-27.34375,899.90234375,207.03125,-20.99609375,-1.0,-1.0,1.0,0.0,9.m4v,2.0
2024-02-27 11:00:06.426907,1709028006.4269073,-27.34375,899.90234375,207.03125,-20.99609375,-1.0,-1.0,1.0,0.0,9.m4v,2.0
2024-02-27 11:00:06.426907,1709028006.4269073,-27.34375,899.90234375,207.03125,-20.99609375,-1.0,-1.0,1.0,0.0,9.m4v,2.0
2024-02-27 11:00:06.430813,1709028006.430813,-30.76171875,999.51171875,98.6328125,-33.69140625,-1.0,-1.0,1.0,0.0,9.m4v,2.0
2024-02-27 11:00:06.434719,1709028006.4347188,-36.1328125,330.56640625,-99.12109375,-33.203125,-1.0,-1.0,1.0,0.0,9.m4v,2.0
2024-02-27 11:00:06.438625,1709028006.4386249,-36.1328125,-1000.0,-338.8671875,-31.25,-1.0,-1.0,1.0,0.0,9.m4v,2.0
2024-02-27 11:00:06.442533,1709028006.4425333,-28.3203125,-1000.0,-167.96875,-26.3671875,-1.0,-1.0,1.0,0.0,9.m4v,2.0
2024-02-27 11:00:06.446439,1709028006.446439,-32.2265625,-961.9140625,43.45703125,-24.90234375,-1.0,-1.0,1.0,0.0,9.m4v,2.0
2024-02-27 11:00:06.450345,1709028006.4503448,-39.0625,-1000.0,-58.10546875,-29.296875,-1.0,-1.0,1.0,0.0,9.m4v,2.0
2024-02-27 11:00:06.454251,1709028006.4542506,-39.0625,-939.453125,-187.01171875,-34.1796875,-1.0,-1.0,1.0,0.0,9.m4v,2.0
2024-02-27 11:00:06.458157,1709028006.4581566,-44.921875,-1000.0,-133.7890625,-35.15625,-1.0,-1.0,1.0,0.0,9.m4v,2.0
2024-02-27 11:00:06.462062,1709028006.4620624,-30.2734375,-199.70703125,469.23828125,-21.484375,-1.0,-1.0,1.0,0.0,9.m4v,2.0
2024-02-27 11:00:06.465968,1709028006.465968,-21.97265625,999.51171875,750.48828125,-15.625,-1.0,-1.0,1.0,0.0,9.m4v,2.0
2024-02-27 11:00:06.469874,1709028006.469874,-26.3671875,950.68359375,252.44140625,-25.87890625,-1.0,-1.0,1.0,0.0,9.m4v,2.0
2024-02-27 11:00:06.473780,1709028006.4737797,-29.78515625,944.3359375,-180.6640625,-29.78515625,-1.0,-1.0,1.0,0.0,9.m4v,2.0
2024-02-27 11:00:06.477685,1709028006.4776857,-37.59765625,976.07421875,-163.0859375,-28.80859375,-1.0,-1.0,1.0,0.0,9.m4v,2.0
2024-02-27 11:00:06.481591,1709028006.4815912,-31.73828125,969.7265625,87.890625,-31.25,-1.0,-1.0,1.0,0.0,9.m4v,2.0
2024-02-27 11:00:06.485497,1709028006.485497,-20.5078125,969.7265625,341.796875,-31.25,-1.0,-1.0,1.0,0.0,9.m4v,2.0
2024-02-27 11:00:06.489405,1709028006.4894054,-17.08984375,969.7265625,404.78515625,-30.76171875,-1.0,-1.0,1.0,0.0,9.m4v,2.0
2024-02-27 11:00:06.493311,1709028006.4933112,-22.94921875,969.7265625,213.8671875,-34.66796875,-1.0,-1.0,1.0,0.0,9.m4v,2.0
2024-02-27 11:00:06.497217,1709028006.4972172,-31.25,969.7265625,100.09765625,-37.59765625,-1.0,-1.0,1.0,0.0,9.m4v,2.0
2024-02-27 11:00:06.501123,1709028006.501123,-37.109375,970.21484375,260.25390625,-24.4140625,-1.0,-1.0,1.0,0.0,9.m4v,2.0
2024-02-27 11:00:06.505029,1709028006.5050287,-33.69140625,972.65625,419.921875,-23.4375,-1.0,-1.0,1.0,0.0,9.m4v,2.0
2024-02-27 11:00:06.508934,1709028006.5089345,-23.92578125,904.78515625,640.625,-40.0390625,-1.0,-1.0,1.0,0.0,9.m4v,2.0
2024-02-27 11:00:06.512840,1709028006.5128405,-19.53125,999.51171875,540.0390625,-38.0859375,-1.0,-1.0,1.0,0.0,9.m4v,2.0
2024-02-27 11:00:06.516746,1709028006.516746,-27.83203125,229.98046875,92.28515625,-41.015625,-1.0,-1.0,1.0,0.0,9.m4v,2.0
2024-02-27 11:00:06.520652,1709028006.5206518,-42.48046875,-1000.0,140.13671875,-50.29296875,-1.0,-1.0,1.0,0.0,9.m4v,2.0
2024-02-27 11:00:06.524558,1709028006.5245576,-40.0390625,-990.72265625,128.41796875,-44.921875,-1.0,-1.0,1.0,0.0,9.m4v,2.0
2024-02-27 11:00:06.528463,1709028006.5284634,-26.3671875,-969.7265625,-74.70703125,-44.921875,-1.0,-1.0,1.0,0.0,9.m4v,2.0
2024-02-27 11:00:06.532369,1709028006.5323691,-29.296875,-1000.0,-192.87109375,-50.78125,-1.0,-1.0,1.0,0.0,9.m4v,2.0
2024-02-27 11:00:06.536279,1709028006.5362787,-32.71484375,-1000.0,-289.0625,-53.7109375,-1.0,-1.0,1.0,0.0,9.m4v,2.0
2024-02-27 11:00:06.540184,1709028006.5401845,-28.3203125,-1000.0,-143.06640625,-53.22265625,-1.0,-1.0,1.0,0.0,9.m4v,2.0
2024-02-27 11:00:06.540184,1709028006.5401845,-28.3203125,-1000.0,-143.06640625,-53.22265625,-1.0,-1.0,1.0,0.0,9.m4v,2.0
2024-02-27 11:00:06.540184,1709028006.5401845,-28.3203125,-1000.0,-143.06640625,-53.22265625,-1.0,-1.0,1.0,0.0,9.m4v,2.0
2024-02-27 11:00:06.544090,1709028006.5440905,-28.80859375,-1000.0,117.67578125,-42.48046875,-1.0,-1.0,1.0,0.0,9.m4v,2.0
2024-02-27 11:00:06.544090,1709028006.5440905,-28.80859375,-1000.0,117.67578125,-42.48046875,-1.0,-1.0,1.0,0.0,9.m4v,2.0
2024-02-27 11:00:06.544090,1709028006.5440905,-28.80859375,-1000.0,117.67578125,-42.48046875,-1.0,-1.0,1.0,0.0,9.m4v,2.0
2024-02-27 11:00:06.547996,1709028006.547996,-31.73828125,-947.265625,162.59765625,-41.50390625,-1.0,-1.0,1.0,0.0,9.m4v,2.0
2024-02-27 11:00:06.547996,1709028006.547996,-31.73828125,-947.265625,162.59765625,-41.50390625,-1.0,-1.0,1.0,0.0,9.m4v,2.0
2024-02-27 11:00:06.547996,1709028006.547996,-31.73828125,-947.265625,162.59765625,-41.50390625,-1.0,-1.0,1.0,0.0,9.m4v,2.0
2024-02-27 11:00:06.551902,1709028006.5519018,-34.1796875,-1000.0,-85.44921875,-45.41015625,-1.0,-1.0,1.0,0.0,9.m4v,2.0
2024-02-27 11:00:06.551902,1709028006.5519018,-34.1796875,-1000.0,-85.44921875,-45.41015625,-1.0,-1.0,1.0,0.0,9.m4v,2.0
2024-02-27 11:00:06.551902,1709028006.5519018,-34.1796875,-1000.0,-85.44921875,-45.41015625,-1.0,-1.0,1.0,0.0,9.m4v,2.0
2024-02-27 11:00:06.555808,1709028006.5558076,-36.1328125,-318.84765625,-21.97265625,-38.57421875,-1.0,-1.0,1.0,0.0,9.m4v,2.0
2024-02-27 11:00:06.555808,1709028006.5558076,-36.1328125,-318.84765625,-21.97265625,-38.57421875,-1.0,-1.0,1.0,0.0,9.m4v,2.0
2024-02-27 11:00:06.555808,1709028006.5558076,-36.1328125,-318.84765625,-21.97265625,-38.57421875,-1.0,-1.0,1.0,0.0,9.m4v,2.0
2024-02-27 11:00:06.559713,1709028006.5597134,-34.1796875,953.125,404.296875,-32.71484375,-1.0,-1.0,1.0,0.0,9.m4v,2.0
2024-02-27 11:00:06.559713,1709028006.5597134,-34.1796875,953.125,404.296875,-32.71484375,-1.0,-1.0,1.0,0.0,9.m4v,2.0
2024-02-27 11:00:06.559713,1709028006.5597134,-34.1796875,953.125,404.296875,-32.71484375,-1.0,-1.0,1.0,0.0,9.m4v,2.0
2024-02-27 11:00:06.563619,1709028006.5636191,-33.203125,986.328125,458.984375,-24.4140625,-1.0,-1.0,1.0,0.0,9.m4v,2.0
2024-02-27 11:00:06.563619,1709028006.5636191,-33.203125,986.328125,458.984375,-24.4140625,-1.0,-1.0,1.0,0.0,9.m4v,2.0
2024-02-27 11:00:06.563619,1709028006.5636191,-33.203125,986.328125,458.984375,-24.4140625,-1.0,-1.0,1.0,0.0,9.m4v,2.0
2024-02-27 11:00:06.567525,1709028006.567525,-33.69140625,929.6875,280.2734375,-25.390625,-1.0,-1.0,1.0,0.0,9.m4v,2.0
2024-02-27 11:00:06.567525,1709028006.567525,-33.69140625,929.6875,280.2734375,-25.390625,-1.0,-1.0,1.0,0.0,9.m4v,2.0
2024-02-27 11:00:06.567525,1709028006.567525,-33.69140625,929.6875,280.2734375,-25.390625,-1.0,-1.0,1.0,0.0,9.m4v,2.0
2024-02-27 11:00:06.571431,1709028006.5714307,-33.69140625,981.93359375,107.91015625,-38.0859375,-1.0,-1.0,1.0,0.0,9.m4v,2.0
2024-02-27 11:00:06.571431,1709028006.5714307,-33.69140625,981.93359375,107.91015625,-38.0859375,-1.0,-1.0,1.0,0.0,9.m4v,2.0
2024-02-27 11:00:06.571431,1709028006.5714307,-33.69140625,981.93359375,107.91015625,-38.0859375,-1.0,-1.0,1.0,0.0,9.m4v,2.0
2024-02-27 11:00:06.575336,1709028006.5753365,-28.80859375,969.7265625,-87.890625,-36.62109375,-1.0,-1.0,1.0,0.0,9.m4v,2.0
2024-02-27 11:00:06.575336,1709028006.5753365,-28.80859375,969.7265625,-87.890625,-36.62109375,-1.0,-1.0,1.0,0.0,9.m4v,2.0
2024-02-27 11:00:06.575336,1709028006.5753365,-28.80859375,969.7265625,-87.890625,-36.62109375,-1.0,-1.0,1.0,0.0,9.m4v,2.0
2024-02-27 11:00:06.579242,1709028006.5792422,-35.64453125,969.7265625,34.66796875,-33.203125,-1.0,-1.0,1.0,0.0,9.m4v,2.0
2024-02-27 11:00:06.579242,1709028006.5792422,-35.64453125,969.7265625,34.66796875,-33.203125,-1.0,-1.0,1.0,0.0,9.m4v,2.0
2024-02-27 11:00:06.579242,1709028006.5792422,-35.64453125,969.7265625,34.66796875,-33.203125,-1.0,-1.0,1.0,0.0,9.m4v,2.0
2024-02-27 11:00:06.583151,1709028006.5831506,-24.4140625,969.7265625,293.9453125,-34.66796875,-1.0,-1.0,1.0,0.0,9.m4v,2.0
2024-02-27 11:00:06.583151,1709028006.5831506,-24.4140625,969.7265625,293.9453125,-34.66796875,-1.0,-1.0,1.0,0.0,9.m4v,2.0
2024-02-27 11:00:06.583151,1709028006.5831506,-24.4140625,969.7265625,293.9453125,-34.66796875,-1.0,-1.0,1.0,0.0,9.m4v,2.0
2024-02-27 11:00:06.587056,1709028006.5870564,-26.85546875,969.7265625,220.703125,-33.69140625,-1.0,-1.0,1.0,0.0,9.m4v,2.0
2024-02-27 11:00:06.587056,1709028006.5870564,-26.85546875,969.7265625,220.703125,-33.69140625,-1.0,-1.0,1.0,0.0,9.m4v,2.0
2024-02-27 11:00:06.587056,1709028006.5870564,-26.85546875,969.7265625,220.703125,-33.69140625,-1.0,-1.0,1.0,0.0,9.m4v,2.0
2024-02-27 11:00:06.630022,1709028006.6300223,-40.0390625,-1000.0,-133.30078125,-32.2265625,-1.0,-1.0,1.0,0.0,9.m4v,2.0
2024-02-27 11:00:06.770638,1709028006.7706375,-36.62109375,969.7265625,-106.4453125,-28.3203125,-1.0,-1.0,1.0,0.0,9.m4v,2.0
2024-02-27 11:00:06.778449,1709028006.7784493,-34.66796875,969.7265625,-264.16015625,-31.73828125,-1.0,-1.0,1.0,0.0,9.m4v,2.0
2024-02-27 11:00:06.782355,1709028006.782355,-34.66796875,969.7265625,-131.34765625,-26.3671875,-1.0,-1.0,1.0,0.0,9.m4v,2.0
2024-02-27 11:00:06.790167,1709028006.7901666,-35.15625,969.7265625,188.4765625,-25.87890625,-1.0,-1.0,1.0,0.0,9.m4v,2.0
2024-02-27 11:00:06.797978,1709028006.7979782,-42.96875,899.90234375,-188.96484375,-13.18359375,-1.0,-1.0,1.0,0.0,9.m4v,2.0
2024-02-27 11:00:06.801884,1709028006.801884,-41.50390625,999.51171875,-143.5546875,-14.6484375,-1.0,-1.0,1.0,0.0,9.m4v,2.0
2024-02-27 11:00:06.805790,1709028006.8057897,-39.55078125,339.35546875,-39.55078125,-29.78515625,-1.0,-1.0,1.0,0.0,9.m4v,2.0
2024-02-27 11:00:06.809695,1709028006.8096955,-49.8046875,-1000.0,-314.94140625,-40.52734375,-1.0,-1.0,1.0,0.0,9.m4v,2.0
2024-02-27 11:00:06.813601,1709028006.8136013,-52.734375,-1000.0,-562.01171875,-50.78125,-1.0,-1.0,1.0,0.0,9.m4v,2.0
2024-02-27 11:00:06.817509,1709028006.817509,-35.15625,-960.9375,-421.875,-44.921875,-1.0,-1.0,1.0,0.0,9.m4v,2.0
2024-02-27 11:00:06.821415,1709028006.8214147,-25.87890625,-1000.0,-112.79296875,-39.0625,-1.0,-1.0,1.0,0.0,9.m4v,2.0
2024-02-27 11:00:06.825320,1709028006.8253205,-33.203125,-1000.0,-103.515625,-36.1328125,-1.0,-1.0,1.0,0.0,9.m4v,2.0
2024-02-27 11:00:06.829226,1709028006.8292265,-24.4140625,-1000.0,-255.859375,-30.2734375,-1.0,-1.0,1.0,0.0,9.m4v,2.0
2024-02-27 11:00:06.833132,1709028006.833132,-19.53125,-1000.0,-481.93359375,-35.64453125,-1.0,-1.0,1.0,0.0,9.m4v,2.0
2024-02-27 11:00:06.837038,1709028006.8370378,-27.83203125,-1000.0,-425.29296875,-35.64453125,-1.0,-1.0,1.0,0.0,9.m4v,2.0
2024-02-27 11:00:06.840944,1709028006.8409436,-31.73828125,-1000.0,-0.9765625,-31.25,-1.0,-1.0,1.0,0.0,9.m4v,2.0
2024-02-27 11:00:06.844849,1709028006.844849,-31.73828125,-1000.0,-8.30078125,-29.296875,-1.0,-1.0,1.0,0.0,9.m4v,2.0
2024-02-27 11:00:06.848755,1709028006.8487551,-38.57421875,-1000.0,-264.6484375,-38.0859375,-1.0,-1.0,1.0,0.0,9.m4v,2.0
2024-02-27 11:00:06.852661,1709028006.8526611,-39.55078125,-1000.0,-403.80859375,-36.1328125,-1.0,-1.0,1.0,0.0,9.m4v,2.0
2024-02-27 11:00:06.856567,1709028006.856567,-36.1328125,-1000.0,-572.75390625,-29.78515625,-1.0,-1.0,1.0,0.0,9.m4v,2.0
2024-02-27 11:00:06.860473,1709028006.860473,-36.62109375,-1000.0,-420.41015625,-34.1796875,-1.0,-1.0,1.0,0.0,9.m4v,2.0
2024-02-27 11:00:06.864381,1709028006.864381,-30.76171875,-1000.0,-60.05859375,-21.97265625,-1.0,-1.0,1.0,0.0,9.m4v,2.0
2024-02-27 11:00:06.868287,1709028006.8682868,-28.80859375,-986.81640625,-26.85546875,-25.87890625,-1.0,-1.0,1.0,0.0,9.m4v,2.0
2024-02-27 11:00:06.872193,1709028006.8721926,-33.69140625,-959.47265625,-215.8203125,-41.50390625,-1.0,-1.0,1.0,0.0,9.m4v,2.0
2024-02-27 11:00:06.876098,1709028006.8760984,-39.55078125,-1000.0,-422.8515625,-41.9921875,-1.0,-1.0,1.0,0.0,9.m4v,2.0
2024-02-27 11:00:06.880004,1709028006.8800042,-43.45703125,0.0,-144.53125,-35.15625,-1.0,-1.0,1.0,0.0,9.m4v,2.0
2024-02-27 11:00:06.883910,1709028006.88391,-30.2734375,999.51171875,540.0390625,-25.390625,-1.0,-1.0,1.0,0.0,9.m4v,2.0
2024-02-27 11:00:06.887816,1709028006.8878157,-14.16015625,925.78125,574.70703125,-29.296875,-1.0,-1.0,1.0,0.0,9.m4v,2.0
2024-02-27 11:00:06.891721,1709028006.8917215,-17.08984375,958.49609375,25.87890625,-33.203125,-1.0,-1.0,1.0,0.0,9.m4v,2.0
2024-02-27 11:00:06.895627,1709028006.8956273,-20.99609375,972.16796875,-341.30859375,-32.2265625,-1.0,-1.0,1.0,0.0,9.m4v,2.0
2024-02-27 11:00:06.899533,1709028006.899533,-32.2265625,969.7265625,-333.49609375,-33.69140625,-1.0,-1.0,1.0,0.0,9.m4v,2.0
2024-02-27 11:00:06.903439,1709028006.903439,-40.52734375,969.7265625,-78.125,-34.1796875,-1.0,-1.0,1.0,0.0,9.m4v,2.0
2024-02-27 11:00:06.907345,1709028006.9073448,-28.80859375,969.7265625,-79.58984375,-33.203125,-1.0,-1.0,1.0,0.0,9.m4v,2.0
2024-02-27 11:00:06.911253,1709028006.911253,-26.85546875,969.7265625,-254.39453125,-31.25,-1.0,-1.0,1.0,0.0,9.m4v,2.0
2024-02-27 11:00:06.915159,1709028006.9151587,-24.4140625,969.7265625,-360.3515625,-30.2734375,-1.0,-1.0,1.0,0.0,9.m4v,2.0
2024-02-27 11:00:06.919065,1709028006.9190643,-28.80859375,969.7265625,-352.5390625,-35.15625,-1.0,-1.0,1.0,0.0,9.m4v,2.0
2024-02-27 11:00:06.922970,1709028006.9229703,-25.87890625,969.7265625,-103.02734375,-31.25,-1.0,-1.0,1.0,0.0,9.m4v,2.0
2024-02-27 11:00:06.926876,1709028006.926876,-20.01953125,969.7265625,-3.90625,-25.390625,-1.0,-1.0,1.0,0.0,9.m4v,2.0
2024-02-27 11:00:06.930782,1709028006.9307818,-24.4140625,975.09765625,122.55859375,-26.85546875,-1.0,-1.0,1.0,0.0,9.m4v,2.0
2024-02-27 11:00:06.934688,1709028006.9346876,-27.83203125,947.265625,56.15234375,-27.83203125,-1.0,-1.0,1.0,0.0,9.m4v,2.0
2024-02-27 11:00:06.938594,1709028006.9385936,-32.71484375,947.75390625,-220.703125,-20.5078125,-1.0,-1.0,1.0,0.0,9.m4v,2.0
2024-02-27 11:00:06.942499,1709028006.9424994,-24.90234375,999.51171875,-114.2578125,-16.6015625,-1.0,-1.0,1.0,0.0,9.m4v,2.0
2024-02-27 11:00:06.946405,1709028006.9464052,-27.34375,-153.80859375,-243.1640625,-36.1328125,-1.0,-1.0,1.0,0.0,9.m4v,2.0
2024-02-27 11:00:06.950311,1709028006.950311,-35.15625,-1000.0,-608.3984375,-42.48046875,-1.0,-1.0,1.0,0.0,9.m4v,2.0
2024-02-27 11:00:06.962031,1709028006.9620306,-24.4140625,-1000.0,-457.03125,-38.0859375,-1.0,-1.0,1.0,0.0,9.m4v,2.0
2024-02-27 11:00:06.973748,1709028006.973748,-34.1796875,-1000.0,-583.984375,-41.50390625,-1.0,-1.0,1.0,0.0,9.m4v,2.0
2024-02-27 11:00:06.981560,1709028006.9815595,-23.92578125,943.359375,56.640625,-24.90234375,-1.0,-1.0,1.0,0.0,9.m4v,2.0
2024-02-27 11:00:06.993277,1709028006.9932768,-28.80859375,982.421875,-450.68359375,-35.64453125,-1.0,-1.0,1.0,0.0,9.m4v,2.0
2024-02-27 11:00:07.004997,1709028007.0049963,-26.85546875,970.21484375,117.67578125,-23.4375,-1.0,-1.0,1.0,0.0,9.m4v,2.0
2024-02-27 11:00:07.012808,1709028007.012808,-37.59765625,905.2734375,-275.87890625,-32.2265625,-1.0,-1.0,1.0,0.0,9.m4v,2.0
2024-02-27 11:00:07.024525,1709028007.0245254,-49.31640625,-1000.0,-96.19140625,-43.45703125,-1.0,-1.0,1.0,0.0,9.m4v,2.0
2024-02-27 11:00:07.036243,1709028007.0362427,-55.6640625,-1000.0,-613.28125,-58.10546875,-1.0,-1.0,1.0,0.0,9.m4v,2.0
2024-02-27 11:00:07.044054,1709028007.0440545,-47.36328125,-1000.0,-188.96484375,-41.015625,-1.0,-1.0,1.0,0.0,9.m4v,2.0
2024-02-27 11:00:07.047960,1709028007.0479603,-45.41015625,-1000.0,-13.18359375,-44.921875,-1.0,-1.0,1.0,0.0,9.m4v,2.0
2024-02-27 11:00:07.055774,1709028007.0557735,-52.734375,-1000.0,-650.390625,-44.43359375,-1.0,-1.0,1.0,0.0,9.m4v,2.0
2024-02-27 11:00:07.059680,1709028007.0596795,-55.17578125,-355.95703125,-348.6328125,-39.0625,-1.0,-1.0,1.0,0.0,9.m4v,2.0
2024-02-27 11:00:07.059680,1709028007.0596795,-55.17578125,-355.95703125,-348.6328125,-39.0625,-1.0,-1.0,1.0,0.0,9.m4v,2.0
2024-02-27 11:00:07.063585,1709028007.0635853,-34.1796875,986.81640625,175.78125,-34.1796875,-1.0,-1.0,1.0,0.0,9.m4v,2.0
2024-02-27 11:00:07.067491,1709028007.067491,-24.90234375,977.05078125,50.29296875,-39.0625,-1.0,-1.0,1.0,0.0,9.m4v,2.0
2024-02-27 11:00:07.067491,1709028007.067491,-24.90234375,977.05078125,50.29296875,-39.0625,-1.0,-1.0,1.0,0.0,9.m4v,2.0
2024-02-27 11:00:07.071397,1709028007.0713968,-35.15625,931.15234375,50.78125,-38.57421875,-1.0,-1.0,1.0,0.0,9.m4v,2.0
2024-02-27 11:00:07.071397,1709028007.0713968,-35.15625,931.15234375,50.78125,-38.57421875,-1.0,-1.0,1.0,0.0,9.m4v,2.0
2024-02-27 11:00:07.071397,1709028007.0713968,-35.15625,931.15234375,50.78125,-38.57421875,-1.0,-1.0,1.0,0.0,9.m4v,2.0
2024-02-27 11:00:07.075303,1709028007.0753026,-41.50390625,980.46875,182.12890625,-39.0625,-1.0,-1.0,1.0,0.0,9.m4v,2.0
2024-02-27 11:00:07.079208,1709028007.0792084,-33.69140625,969.7265625,-173.828125,-42.48046875,-1.0,-1.0,1.0,0.0,9.m4v,2.0
2024-02-27 11:00:07.079208,1709028007.0792084,-33.69140625,969.7265625,-173.828125,-42.48046875,-1.0,-1.0,1.0,0.0,9.m4v,2.0
2024-02-27 11:00:07.079208,1709028007.0792084,-33.69140625,969.7265625,-173.828125,-42.48046875,-1.0,-1.0,1.0,0.0,9.m4v,2.0
2024-02-27 11:00:07.083114,1709028007.0831144,-33.69140625,969.7265625,-215.8203125,-45.41015625,-1.0,-1.0,1.0,0.0,9.m4v,2.0
2024-02-27 11:00:07.083114,1709028007.0831144,-33.69140625,969.7265625,-215.8203125,-45.41015625,-1.0,-1.0,1.0,0.0,9.m4v,2.0
2024-02-27 11:00:07.083114,1709028007.0831144,-33.69140625,969.7265625,-215.8203125,-45.41015625,-1.0,-1.0,1.0,0.0,9.m4v,2.0
2024-02-27 11:00:07.087020,1709028007.0870202,-43.45703125,969.7265625,-141.6015625,-42.48046875,-1.0,-1.0,1.0,0.0,9.m4v,2.0
2024-02-27 11:00:07.090926,1709028007.090926,-35.64453125,969.7265625,-298.828125,-40.52734375,-1.0,-1.0,1.0,0.0,9.m4v,2.0
2024-02-27 11:00:07.090926,1709028007.090926,-35.64453125,969.7265625,-298.828125,-40.52734375,-1.0,-1.0,1.0,0.0,9.m4v,2.0
2024-02-27 11:00:07.090926,1709028007.090926,-35.64453125,969.7265625,-298.828125,-40.52734375,-1.0,-1.0,1.0,0.0,9.m4v,2.0
2024-02-27 11:00:07.094832,1709028007.0948317,-38.57421875,969.7265625,-388.671875,-30.76171875,-1.0,-1.0,1.0,0.0,9.m4v,2.0
2024-02-27 11:00:07.094832,1709028007.0948317,-38.57421875,969.7265625,-388.671875,-30.76171875,-1.0,-1.0,1.0,0.0,9.m4v,2.0
2024-02-27 11:00:07.094832,1709028007.0948317,-38.57421875,969.7265625,-388.671875,-30.76171875,-1.0,-1.0,1.0,0.0,9.m4v,2.0
2024-02-27 11:00:07.102645,1709028007.1026452,-39.55078125,969.7265625,-185.546875,-46.38671875,-1.0,-1.0,1.0,0.0,9.m4v,2.0
2024-02-27 11:00:07.102645,1709028007.1026452,-39.55078125,969.7265625,-185.546875,-46.38671875,-1.0,-1.0,1.0,0.0,9.m4v,2.0
2024-02-27 11:00:07.102645,1709028007.1026452,-39.55078125,969.7265625,-185.546875,-46.38671875,-1.0,-1.0,1.0,0.0,9.m4v,2.0
2024-02-27 11:00:07.110457,1709028007.1104567,-38.57421875,969.7265625,-171.38671875,-34.1796875,-1.0,-1.0,1.0,0.0,9.m4v,2.0
2024-02-27 11:00:07.110457,1709028007.1104567,-38.57421875,969.7265625,-171.38671875,-34.1796875,-1.0,-1.0,1.0,0.0,9.m4v,2.0
2024-02-27 11:00:07.110457,1709028007.1104567,-38.57421875,969.7265625,-171.38671875,-34.1796875,-1.0,-1.0,1.0,0.0,9.m4v,2.0
2024-02-27 11:00:07.118268,1709028007.1182685,-35.64453125,912.109375,-293.45703125,-32.71484375,-1.0,-1.0,1.0,0.0,9.m4v,2.0
2024-02-27 11:00:07.118268,1709028007.1182685,-35.64453125,912.109375,-293.45703125,-32.71484375,-1.0,-1.0,1.0,0.0,9.m4v,2.0
2024-02-27 11:00:07.118268,1709028007.1182685,-35.64453125,912.109375,-293.45703125,-32.71484375,-1.0,-1.0,1.0,0.0,9.m4v,2.0
2024-02-27 11:00:07.126080,1709028007.1260798,-32.71484375,758.30078125,411.62109375,-25.87890625,-1.0,-1.0,1.0,0.0,9.m4v,2.0
2024-02-27 11:00:07.126080,1709028007.1260798,-32.71484375,758.30078125,411.62109375,-25.87890625,-1.0,-1.0,1.0,0.0,9.m4v,2.0
2024-02-27 11:00:07.126080,1709028007.1260798,-32.71484375,758.30078125,411.62109375,-25.87890625,-1.0,-1.0,1.0,0.0,9.m4v,2.0
2024-02-27 11:00:07.141703,1709028007.141703,-44.43359375,-1000.0,-705.078125,-28.3203125,-1.0,-1.0,1.0,0.0,9.m4v,2.0
2024-02-27 11:00:07.141703,1709028007.141703,-44.43359375,-1000.0,-705.078125,-28.3203125,-1.0,-1.0,1.0,0.0,9.m4v,2.0
2024-02-27 11:00:07.141703,1709028007.141703,-44.43359375,-1000.0,-705.078125,-28.3203125,-1.0,-1.0,1.0,0.0,9.m4v,2.0
2024-02-27 11:00:07.149516,1709028007.149516,-37.109375,-1000.0,-409.66796875,-22.94921875,-1.0,-1.0,1.0,0.0,9.m4v,2.0
2024-02-27 11:00:07.149516,1709028007.149516,-37.109375,-1000.0,-409.66796875,-22.94921875,-1.0,-1.0,1.0,0.0,9.m4v,2.0
2024-02-27 11:00:07.149516,1709028007.149516,-37.109375,-1000.0,-409.66796875,-22.94921875,-1.0,-1.0,1.0,0.0,9.m4v,2.0
2024-02-27 11:00:07.165139,1709028007.1651394,-35.15625,-292.48046875,-14.16015625,-33.69140625,-1.0,-1.0,1.0,0.0,9.m4v,2.0
2024-02-27 11:00:07.176857,1709028007.1768568,-46.38671875,936.5234375,-387.20703125,-52.734375,-1.0,-1.0,1.0,0.0,9.m4v,2.0
2024-02-27 11:00:07.184668,1709028007.1846683,-27.83203125,980.95703125,81.0546875,-36.62109375,-1.0,-1.0,1.0,0.0,9.m4v,2.0
2024-02-27 11:00:07.192481,1709028007.1924813,-34.1796875,999.51171875,-391.11328125,-46.875,-1.0,-1.0,1.0,0.0,9.m4v,2.0
2024-02-27 11:00:07.200293,1709028007.2002928,-38.57421875,-542.96875,-619.62890625,-48.828125,-1.0,-1.0,1.0,0.0,9.m4v,2.0
2024-02-27 11:00:07.208105,1709028007.2081046,-35.15625,-996.09375,-278.3203125,-41.9921875,-1.0,-1.0,1.0,0.0,9.m4v,2.0
2024-02-27 11:00:07.215916,1709028007.2159162,-45.41015625,563.96484375,85.44921875,-48.828125,-1.0,-1.0,1.0,0.0,9.m4v,2.0
2024-02-27 11:00:07.223728,1709028007.2237277,-36.62109375,905.76171875,-195.3125,-41.9921875,-1.0,-1.0,1.0,0.0,9.m4v,2.0
2024-02-27 11:00:07.231539,1709028007.2315392,-27.34375,969.7265625,-326.66015625,-35.64453125,-1.0,-1.0,1.0,0.0,9.m4v,2.0
2024-02-27 11:00:07.239353,1709028007.2393534,-37.59765625,969.7265625,-253.90625,-48.33984375,-1.0,-1.0,1.0,0.0,9.m4v,2.0
2024-02-27 11:00:07.247165,1709028007.247165,-21.97265625,969.7265625,-92.7734375,-40.0390625,-1.0,-1.0,1.0,0.0,9.m4v,2.0
2024-02-27 11:00:07.254977,1709028007.2549765,-9.27734375,980.95703125,-390.625,-35.64453125,-1.0,-1.0,1.0,0.0,9.m4v,2.0
2024-02-27 11:00:07.262788,1709028007.262788,-36.62109375,999.51171875,236.328125,-25.390625,-1.0,-1.0,1.0,0.0,9.m4v,2.0
2024-02-27 11:00:07.266694,1709028007.2666938,-31.73828125,422.36328125,149.4140625,-25.87890625,-1.0,-1.0,1.0,0.0,9.m4v,2.0
2024-02-27 11:00:07.270600,1709028007.2705996,-41.9921875,-968.75,-401.85546875,-38.0859375,-1.0,-1.0,1.0,0.0,9.m4v,2.0
2024-02-27 11:00:07.274505,1709028007.2745054,-40.0390625,-1000.0,-680.17578125,-34.66796875,-1.0,-1.0,1.0,0.0,9.m4v,2.0
2024-02-27 11:00:07.278411,1709028007.2784114,-28.3203125,-954.1015625,-777.83203125,-31.25,-1.0,-1.0,1.0,0.0,9.m4v,2.0
2024-02-27 11:00:07.282317,1709028007.2823172,-32.71484375,-1000.0,-602.5390625,-34.1796875,-1.0,-1.0,1.0,0.0,9.m4v,2.0
2024-02-27 11:00:07.286225,1709028007.2862253,-36.62109375,-1000.0,-299.31640625,-36.62109375,-1.0,-1.0,1.0,0.0,9.m4v,2.0
2024-02-27 11:00:07.290131,1709028007.290131,-29.296875,-946.77734375,-314.94140625,-34.1796875,-1.0,-1.0,1.0,0.0,9.m4v,2.0
2024-02-27 11:00:07.294037,1709028007.2940369,-25.87890625,-1000.0,-456.54296875,-31.25,-1.0,-1.0,1.0,0.0,9.m4v,2.0
2024-02-27 11:00:07.297943,1709028007.2979426,-28.80859375,-849.12109375,-295.41015625,-29.78515625,-1.0,-1.0,1.0,0.0,9.m4v,2.0
2024-02-27 11:00:07.301848,1709028007.3018484,-21.484375,543.45703125,202.1484375,-29.78515625,-1.0,-1.0,1.0,0.0,9.m4v,2.0
2024-02-27 11:00:07.305754,1709028007.3057542,-1.953125,999.51171875,717.28515625,-18.5546875,-1.0,-1.0,1.0,0.0,9.m4v,2.0
2024-02-27 11:00:07.309660,1709028007.30966,-4.8828125,904.78515625,611.328125,-18.06640625,-1.0,-1.0,1.0,0.0,9.m4v,2.0
2024-02-27 11:00:07.313566,1709028007.3135655,-29.78515625,980.95703125,-65.4296875,-40.0390625,-1.0,-1.0,1.0,0.0,9.m4v,2.0
2024-02-27 11:00:07.317472,1709028007.3174715,-47.36328125,969.7265625,-342.28515625,-44.921875,-1.0,-1.0,1.0,0.0,9.m4v,2.0
2024-02-27 11:00:07.321377,1709028007.3213773,-43.9453125,969.7265625,-200.1953125,-37.109375,-1.0,-1.0,1.0,0.0,9.m4v,2.0
2024-02-27 11:00:07.325283,1709028007.325283,-25.390625,975.09765625,20.01953125,-30.2734375,-1.0,-1.0,1.0,0.0,9.m4v,2.0
2024-02-27 11:00:07.329189,1709028007.329189,-18.06640625,946.2890625,-30.76171875,-33.69140625,-1.0,-1.0,1.0,0.0,9.m4v,2.0
2024-02-27 11:00:07.333097,1709028007.333097,-33.69140625,951.66015625,-262.6953125,-32.71484375,-1.0,-1.0,1.0,0.0,9.m4v,2.0
2024-02-27 11:00:07.337003,1709028007.3370028,-49.31640625,999.51171875,-449.21875,-33.69140625,-1.0,-1.0,1.0,0.0,9.m4v,2.0
2024-02-27 11:00:07.340909,1709028007.3409083,-43.9453125,-168.45703125,-424.31640625,-36.62109375,-1.0,-1.0,1.0,0.0,9.m4v,2.0
2024-02-27 11:00:07.344814,1709028007.3448143,-34.1796875,-1000.0,-251.46484375,-28.3203125,-1.0,-1.0,1.0,0.0,9.m4v,2.0
2024-02-27 11:00:07.348720,1709028007.3487203,-31.25,-949.70703125,-337.890625,-32.2265625,-1.0,-1.0,1.0,0.0,9.m4v,2.0
2024-02-27 11:00:07.352626,1709028007.352626,-38.0859375,-995.1171875,-254.39453125,-35.64453125,-1.0,-1.0,1.0,0.0,9.m4v,2.0
2024-02-27 11:00:07.356532,1709028007.356532,-44.921875,-1000.0,-154.296875,-31.73828125,-1.0,-1.0,1.0,0.0,9.m4v,2.0
2024-02-27 11:00:07.360438,1709028007.3604376,-44.43359375,-1000.0,-223.14453125,-33.203125,-1.0,-1.0,1.0,0.0,9.m4v,2.0
2024-02-27 11:00:07.364343,1709028007.3643434,-44.43359375,-1000.0,-187.5,-32.2265625,-1.0,-1.0,1.0,0.0,9.m4v,2.0
2024-02-27 11:00:07.368249,1709028007.3682492,-46.875,-1000.0,-334.9609375,-35.15625,-1.0,-1.0,1.0,0.0,9.m4v,2.0
2024-02-27 11:00:07.372155,1709028007.372155,-52.24609375,-1000.0,-556.15234375,-34.1796875,-1.0,-1.0,1.0,0.0,9.m4v,2.0
2024-02-27 11:00:07.376061,1709028007.3760607,-59.08203125,-1000.0,-681.640625,-27.83203125,-1.0,-1.0,1.0,0.0,9.m4v,2.0
2024-02-27 11:00:07.379969,1709028007.3799686,-56.15234375,-1000.0,-604.4921875,-26.85546875,-1.0,-1.0,1.0,0.0,9.m4v,2.0
2024-02-27 11:00:07.383874,1709028007.3838744,-41.015625,-1000.0,-296.875,-36.62109375,-1.0,-1.0,1.0,0.0,9.m4v,2.0
2024-02-27 11:00:07.387780,1709028007.3877802,-37.109375,-994.62890625,-138.671875,-43.9453125,-1.0,-1.0,1.0,0.0,9.m4v,2.0
2024-02-27 11:00:07.391686,1709028007.391686,-43.9453125,-947.265625,-315.91796875,-41.015625,-1.0,-1.0,1.0,0.0,9.m4v,2.0
2024-02-27 11:00:07.395592,1709028007.3955915,-34.1796875,-1000.0,-579.58984375,-36.62109375,-1.0,-1.0,1.0,0.0,9.m4v,2.0
2024-02-27 11:00:07.399498,1709028007.3994975,-24.4140625,-116.2109375,-152.83203125,-33.69140625,-1.0,-1.0,1.0,0.0,9.m4v,2.0
2024-02-27 11:00:07.403403,1709028007.4034033,-19.53125,999.51171875,559.08203125,-28.80859375,-1.0,-1.0,1.0,0.0,9.m4v,2.0
2024-02-27 11:00:07.407309,1709028007.4073093,-26.3671875,939.94140625,237.79296875,-32.71484375,-1.0,-1.0,1.0,0.0,9.m4v,2.0
2024-02-27 11:00:07.411215,1709028007.411215,-38.0859375,949.70703125,-203.61328125,-35.15625,-1.0,-1.0,1.0,0.0,9.m4v,2.0
2024-02-27 11:00:07.415121,1709028007.4151208,-30.76171875,974.12109375,-325.1953125,-32.71484375,-1.0,-1.0,1.0,0.0,9.m4v,2.0
2024-02-27 11:00:07.419027,1709028007.4190266,-19.53125,969.7265625,-120.1171875,-28.3203125,-1.0,-1.0,1.0,0.0,9.m4v,2.0
2024-02-27 11:00:07.422932,1709028007.4229324,-26.3671875,969.7265625,208.984375,-30.76171875,-1.0,-1.0,1.0,0.0,9.m4v,2.0
2024-02-27 11:00:07.426840,1709028007.42684,-34.66796875,969.7265625,91.796875,-36.62109375,-1.0,-1.0,1.0,0.0,9.m4v,2.0
2024-02-27 11:00:07.430746,1709028007.4307458,-34.66796875,969.7265625,-115.234375,-35.64453125,-1.0,-1.0,1.0,0.0,9.m4v,2.0
2024-02-27 11:00:07.434652,1709028007.4346516,-37.109375,969.7265625,-264.6484375,-36.1328125,-1.0,-1.0,1.0,0.0,9.m4v,2.0
2024-02-27 11:00:07.438558,1709028007.4385576,-41.015625,970.21484375,-266.6015625,-41.015625,-1.0,-1.0,1.0,0.0,9.m4v,2.0
2024-02-27 11:00:07.442463,1709028007.4424634,-38.0859375,970.703125,-99.12109375,-34.66796875,-1.0,-1.0,1.0,0.0,9.m4v,2.0
2024-02-27 11:00:07.446369,1709028007.4463692,-28.3203125,907.2265625,317.87109375,-16.11328125,-1.0,-1.0,1.0,0.0,9.m4v,2.0
2024-02-27 11:00:07.450275,1709028007.450275,-26.3671875,999.51171875,499.51171875,-24.4140625,-1.0,-1.0,1.0,0.0,9.m4v,2.0
2024-02-27 11:00:07.454181,1709028007.4541807,-45.41015625,188.4765625,-26.3671875,-51.26953125,-1.0,-1.0,1.0,0.0,9.m4v,2.0
2024-02-27 11:00:07.458086,1709028007.4580865,-60.546875,-1000.0,-436.03515625,-53.22265625,-1.0,-1.0,1.0,0.0,9.m4v,2.0
2024-02-27 11:00:07.461992,1709028007.4619925,-50.29296875,-983.88671875,-193.84765625,-42.96875,-1.0,-1.0,1.0,0.0,9.m4v,2.0
2024-02-27 11:00:07.465898,1709028007.465898,-37.59765625,-973.14453125,128.90625,-42.96875,-1.0,-1.0,1.0,0.0,9.m4v,2.0
2024-02-27 11:00:07.469804,1709028007.4698038,-26.85546875,-1000.0,63.96484375,-43.9453125,-1.0,-1.0,1.0,0.0,9.m4v,2.0
2024-02-27 11:00:07.473711,1709028007.4737115,-25.87890625,-1000.0,-102.5390625,-41.50390625,-1.0,-1.0,1.0,0.0,9.m4v,2.0
2024-02-27 11:00:07.477617,1709028007.4776173,-37.109375,-1000.0,14.6484375,-40.0390625,-1.0,-1.0,1.0,0.0,9.m4v,2.0
2024-02-27 11:00:07.481523,1709028007.4815233,-33.69140625,-1000.0,323.2421875,-39.55078125,-1.0,-1.0,1.0,0.0,9.m4v,2.0
2024-02-27 11:00:07.485429,1709028007.485429,-27.83203125,-928.7109375,350.09765625,-36.1328125,-1.0,-1.0,1.0,0.0,9.m4v,2.0
2024-02-27 11:00:07.489335,1709028007.4893348,-31.73828125,-1000.0,162.109375,-36.1328125,-1.0,-1.0,1.0,0.0,9.m4v,2.0
2024-02-27 11:00:07.493241,1709028007.4932406,-27.34375,-557.6171875,312.98828125,-39.55078125,-1.0,-1.0,1.0,0.0,9.m4v,2.0
2024-02-27 11:00:07.497146,1709028007.4971464,-17.08984375,863.76953125,575.68359375,-30.76171875,-1.0,-1.0,1.0,0.0,9.m4v,2.0
2024-02-27 11:00:07.501052,1709028007.501052,-24.4140625,999.51171875,398.92578125,-28.3203125,-1.0,-1.0,1.0,0.0,9.m4v,2.0
2024-02-27 11:00:07.567456,1709028007.567456,-53.22265625,-1000.0,-114.74609375,-46.875,-1.0,-1.0,1.0,0.0,9.m4v,2.0
2024-02-27 11:00:07.571362,1709028007.571362,-43.9453125,-1000.0,59.5703125,-33.203125,-1.0,-1.0,1.0,0.0,9.m4v,2.0
2024-02-27 11:00:07.575268,1709028007.5752678,-32.71484375,-958.49609375,326.171875,-33.203125,-1.0,-1.0,1.0,0.0,9.m4v,2.0
2024-02-27 11:00:07.579174,1709028007.5791736,-38.57421875,-1000.0,375.9765625,-35.15625,-1.0,-1.0,1.0,0.0,9.m4v,2.0
2024-02-27 11:00:07.583079,1709028007.583079,-32.71484375,-997.0703125,146.484375,-27.34375,-1.0,-1.0,1.0,0.0,9.m4v,2.0
2024-02-27 11:00:07.586985,1709028007.586985,-43.45703125,371.09375,335.9375,-31.73828125,-1.0,-1.0,1.0,0.0,9.m4v,2.0
2024-02-27 11:00:07.590891,1709028007.590891,-46.875,999.51171875,836.9140625,-40.0390625,-1.0,-1.0,1.0,0.0,9.m4v,2.0
2024-02-27 11:00:07.594797,1709028007.594797,-38.57421875,898.4375,818.84765625,-38.57421875,-1.0,-1.0,1.0,0.0,9.m4v,2.0
2024-02-27 11:00:07.598702,1709028007.5987024,-48.33984375,979.00390625,476.07421875,-41.015625,-1.0,-1.0,1.0,0.0,9.m4v,2.0
2024-02-27 11:00:07.602608,1709028007.6026082,-49.8046875,970.21484375,207.03125,-39.0625,-1.0,-1.0,1.0,0.0,9.m4v,2.0
2024-02-27 11:00:07.606514,1709028007.606514,-52.24609375,970.21484375,54.6875,-36.62109375,-1.0,-1.0,1.0,0.0,9.m4v,2.0
2024-02-27 11:00:07.610420,1709028007.6104198,-50.29296875,970.21484375,126.953125,-36.62109375,-1.0,-1.0,1.0,0.0,9.m4v,2.0
2024-02-27 11:00:07.614329,1709028007.614329,-34.1796875,970.21484375,403.80859375,-35.15625,-1.0,-1.0,1.0,0.0,9.m4v,2.0
2024-02-27 11:00:07.618235,1709028007.618235,-35.15625,969.7265625,520.99609375,-33.69140625,-1.0,-1.0,1.0,0.0,9.m4v,2.0
2024-02-27 11:00:07.622141,1709028007.6221411,-35.64453125,969.7265625,292.48046875,-31.25,-1.0,-1.0,1.0,0.0,9.m4v,2.0
2024-02-27 11:00:07.626047,1709028007.626047,-24.90234375,969.7265625,158.69140625,-38.0859375,-1.0,-1.0,1.0,0.0,9.m4v,2.0
2024-02-27 11:00:07.629953,1709028007.629953,-30.76171875,970.21484375,271.484375,-43.45703125,-1.0,-1.0,1.0,0.0,9.m4v,2.0
2024-02-27 11:00:07.633858,1709028007.6338584,-38.57421875,983.3984375,649.90234375,-34.1796875,-1.0,-1.0,1.0,0.0,9.m4v,2.0
2024-02-27 11:00:07.637764,1709028007.6377642,-28.3203125,902.83203125,895.5078125,-35.64453125,-1.0,-1.0,1.0,0.0,9.m4v,2.0
2024-02-27 11:00:07.641670,1709028007.64167,-29.78515625,999.51171875,469.23828125,-42.48046875,-1.0,-1.0,1.0,0.0,9.m4v,2.0
2024-02-27 11:00:07.661201,1709028007.6612017,-41.015625,-1000.0,33.203125,-26.3671875,-1.0,-1.0,1.0,0.0,9.m4v,2.0
2024-02-27 11:00:07.665107,1709028007.6651073,-48.33984375,-1000.0,-177.24609375,-30.2734375,-1.0,-1.0,1.0,0.0,9.m4v,2.0
2024-02-27 11:00:07.669013,1709028007.669013,-40.52734375,-1000.0,-190.91796875,-25.87890625,-1.0,-1.0,1.0,0.0,9.m4v,2.0
2024-02-27 11:00:07.672919,1709028007.6729188,-35.64453125,-930.17578125,139.16015625,-26.85546875,-1.0,-1.0,1.0,0.0,9.m4v,2.0
2024-02-27 11:00:07.676825,1709028007.6768246,-41.015625,-1000.0,207.51953125,-24.4140625,-1.0,-1.0,1.0,0.0,9.m4v,2.0
2024-02-27 11:00:07.680730,1709028007.6807303,-24.90234375,-636.71875,305.17578125,-27.83203125,-1.0,-1.0,1.0,0.0,9.m4v,2.0
2024-02-27 11:00:07.684636,1709028007.684636,-16.11328125,810.546875,665.0390625,-26.3671875,-1.0,-1.0,1.0,0.0,9.m4v,2.0
2024-02-27 11:00:07.688542,1709028007.688542,-32.2265625,999.51171875,349.12109375,-26.85546875,-1.0,-1.0,1.0,0.0,9.m4v,2.0
2024-02-27 11:00:07.692448,1709028007.6924477,-24.90234375,909.66796875,228.02734375,-20.01953125,-1.0,-1.0,1.0,0.0,9.m4v,2.0
2024-02-27 11:00:07.696353,1709028007.6963534,-16.6015625,985.83984375,292.96875,-18.5546875,-1.0,-1.0,1.0,0.0,9.m4v,2.0
2024-02-27 11:00:07.700259,1709028007.7002592,-32.2265625,969.7265625,118.65234375,-28.3203125,-1.0,-1.0,1.0,0.0,9.m4v,2.0
2024-02-27 11:00:07.704165,1709028007.7041652,-37.109375,969.7265625,-33.69140625,-25.390625,-1.0,-1.0,1.0,0.0,9.m4v,2.0
2024-02-27 11:00:07.708074,1709028007.7080743,-33.69140625,969.7265625,-63.96484375,-25.87890625,-1.0,-1.0,1.0,0.0,9.m4v,2.0
2024-02-27 11:00:07.711980,1709028007.71198,-33.69140625,969.7265625,341.796875,-30.76171875,-1.0,-1.0,1.0,0.0,9.m4v,2.0
2024-02-27 11:00:07.715886,1709028007.715886,-28.3203125,969.7265625,516.6015625,-22.4609375,-1.0,-1.0,1.0,0.0,9.m4v,2.0
2024-02-27 11:00:07.719792,1709028007.7197917,-25.390625,969.7265625,333.49609375,-20.99609375,-1.0,-1.0,1.0,0.0,9.m4v,2.0
2024-02-27 11:00:07.723698,1709028007.7236977,-34.66796875,969.7265625,52.24609375,-29.78515625,-1.0,-1.0,1.0,0.0,9.m4v,2.0
2024-02-27 11:00:07.938529,1709028007.9385283,-39.55078125,-990.234375,-224.609375,-38.57421875,-1.0,-1.0,1.0,0.0,9.m4v,2.0
2024-02-27 11:00:07.942437,1709028007.9424372,-34.66796875,-958.984375,-318.359375,-36.62109375,-1.0,-1.0,1.0,0.0,9.m4v,2.0
2024-02-27 11:00:07.946343,1709028007.946343,-43.9453125,-1000.0,-407.71484375,-37.109375,-1.0,-1.0,1.0,0.0,9.m4v,2.0
2024-02-27 11:00:07.950249,1709028007.9502487,-40.52734375,-93.75,-53.22265625,-38.57421875,-1.0,-1.0,1.0,0.0,9.m4v,2.0
2024-02-27 11:00:07.961966,1709028007.961966,-25.87890625,949.70703125,289.55078125,-31.73828125,-1.0,-1.0,1.0,0.0,9.m4v,2.0
2024-02-27 11:00:07.965872,1709028007.9658718,-32.2265625,975.5859375,288.57421875,-45.8984375,-1.0,-1.0,1.0,0.0,9.m4v,2.0
2024-02-27 11:00:07.969778,1709028007.9697776,-46.38671875,969.7265625,-90.33203125,-48.33984375,-1.0,-1.0,1.0,0.0,9.m4v,2.0
2024-02-27 11:00:07.973684,1709028007.9736836,-38.57421875,970.21484375,-20.5078125,-44.921875,-1.0,-1.0,1.0,0.0,9.m4v,2.0
2024-02-27 11:00:07.977589,1709028007.9775894,-32.71484375,969.7265625,4.8828125,-45.8984375,-1.0,-1.0,1.0,0.0,9.m4v,2.0
2024-02-27 11:00:07.981495,1709028007.9814951,-32.71484375,969.7265625,-150.390625,-52.734375,-1.0,-1.0,1.0,0.0,9.m4v,2.0
2024-02-27 11:00:07.985401,1709028007.985401,-44.43359375,969.7265625,-180.17578125,-48.33984375,-1.0,-1.0,1.0,0.0,9.m4v,2.0
2024-02-27 11:00:07.989309,1709028007.9893093,-51.7578125,969.7265625,-210.44921875,-45.41015625,-1.0,-1.0,1.0,0.0,9.m4v,2.0
2024-02-27 11:00:07.993215,1709028007.993215,-34.1796875,969.7265625,17.08984375,-41.9921875,-1.0,-1.0,1.0,0.0,9.m4v,2.0
2024-02-27 11:00:07.997121,1709028007.9971209,-28.3203125,969.7265625,165.0390625,-37.59765625,-1.0,-1.0,1.0,0.0,9.m4v,2.0
2024-02-27 11:00:08.001027,1709028008.0010266,-29.78515625,969.7265625,2.44140625,-36.1328125,-1.0,-1.0,1.0,0.0,9.m4v,2.0
2024-02-27 11:00:08.004932,1709028008.0049324,-31.73828125,986.328125,-135.7421875,-42.96875,-1.0,-1.0,1.0,0.0,9.m4v,2.0
2024-02-27 11:00:08.008838,1709028008.0088382,-33.203125,911.62109375,64.453125,-44.921875,-1.0,-1.0,1.0,0.0,9.m4v,2.0
2024-02-27 11:00:08.012744,1709028008.012744,-12.20703125,999.51171875,607.421875,-38.57421875,-1.0,-1.0,1.0,0.0,9.m4v,2.0
2024-02-27 11:00:08.016650,1709028008.0166495,-20.5078125,857.421875,468.26171875,-41.015625,-1.0,-1.0,1.0,0.0,9.m4v,2.0
2024-02-27 11:00:08.020555,1709028008.0205555,-47.8515625,-601.07421875,-266.11328125,-46.875,-1.0,-1.0,1.0,0.0,9.m4v,2.0
2024-02-27 11:00:08.024462,1709028008.0244615,-47.36328125,-1000.0,-646.484375,-35.64453125,-1.0,-1.0,1.0,0.0,9.m4v,2.0
2024-02-27 11:00:08.028367,1709028008.0283673,-49.8046875,-925.78125,-621.09375,-32.2265625,-1.0,-1.0,1.0,0.0,9.m4v,2.0
2024-02-27 11:00:08.032273,1709028008.032273,-56.15234375,-1000.0,-419.921875,-48.828125,-1.0,-1.0,1.0,0.0,9.m4v,2.0
2024-02-27 11:00:08.036181,1709028008.0361812,-42.48046875,-1000.0,-266.11328125,-48.33984375,-1.0,-1.0,1.0,0.0,9.m4v,2.0
2024-02-27 11:00:08.040087,1709028008.040087,-38.0859375,-1000.0,-327.1484375,-37.59765625,-1.0,-1.0,1.0,0.0,9.m4v,2.0
2024-02-27 11:00:08.043993,1709028008.0439928,-41.9921875,-996.09375,-379.8828125,-36.1328125,-1.0,-1.0,1.0,0.0,9.m4v,2.0
2024-02-27 11:00:08.047899,1709028008.0478983,-38.57421875,-949.70703125,-419.921875,-39.0625,-1.0,-1.0,1.0,0.0,9.m4v,2.0
2024-02-27 11:00:08.051805,1709028008.0518043,-33.69140625,-1000.0,-311.5234375,-32.2265625,-1.0,-1.0,1.0,0.0,9.m4v,2.0
2024-02-27 11:00:08.055710,1709028008.0557103,-21.484375,-199.21875,248.53515625,-28.3203125,-1.0,-1.0,1.0,0.0,9.m4v,2.0
2024-02-27 11:00:08.059616,1709028008.059616,-8.30078125,999.51171875,556.15234375,-28.80859375,-1.0,-1.0,1.0,0.0,9.m4v,2.0
2024-02-27 11:00:08.063522,1709028008.063522,-2.9296875,959.9609375,9.765625,-33.69140625,-1.0,-1.0,1.0,0.0,9.m4v,2.0
2024-02-27 11:00:08.067428,1709028008.0674276,-22.94921875,942.3828125,-241.69921875,-37.109375,-1.0,-1.0,1.0,0.0,9.m4v,2.0
2024-02-27 11:00:08.071333,1709028008.0713334,-41.015625,977.5390625,91.796875,-36.1328125,-1.0,-1.0,1.0,0.0,9.m4v,2.0
2024-02-27 11:00:08.075239,1709028008.0752392,-33.69140625,969.7265625,53.7109375,-32.2265625,-1.0,-1.0,1.0,0.0,9.m4v,2.0
2024-02-27 11:00:08.079145,1709028008.079145,-30.76171875,969.7265625,-163.57421875,-34.1796875,-1.0,-1.0,1.0,0.0,9.m4v,2.0
2024-02-27 11:00:08.083054,1709028008.0830543,-35.64453125,969.7265625,-301.26953125,-34.1796875,-1.0,-1.0,1.0,0.0,9.m4v,2.0
2024-02-27 11:00:08.086960,1709028008.08696,-34.66796875,969.7265625,-410.64453125,-32.71484375,-1.0,-1.0,1.0,0.0,9.m4v,2.0
2024-02-27 11:00:08.090866,1709028008.090866,-30.2734375,969.7265625,-316.89453125,-29.78515625,-1.0,-1.0,1.0,0.0,9.m4v,2.0
2024-02-27 11:00:08.251013,1709028008.2510128,-8.7890625,898.4375,257.32421875,-34.66796875,-1.0,-1.0,1.0,0.0,9.m4v,2.0
2024-02-27 11:00:08.254919,1709028008.2549186,-21.484375,979.00390625,198.2421875,-40.0390625,-1.0,-1.0,1.0,0.0,9.m4v,2.0
2024-02-27 11:00:08.258824,1709028008.2588243,-23.4375,970.21484375,-47.36328125,-35.64453125,-1.0,-1.0,1.0,0.0,9.m4v,2.0
2024-02-27 11:00:08.262730,1709028008.26273,-14.6484375,969.7265625,-316.89453125,-33.69140625,-1.0,-1.0,1.0,0.0,9.m4v,2.0
2024-02-27 11:00:08.270545,1709028008.2705443,-34.1796875,969.7265625,-355.46875,-31.25,-1.0,-1.0,1.0,0.0,9.m4v,2.0
2024-02-27 11:00:08.278356,1709028008.278356,-32.71484375,969.7265625,-96.6796875,-31.25,-1.0,-1.0,1.0,0.0,9.m4v,2.0
2024-02-27 11:00:08.286168,1709028008.2861676,-40.0390625,983.88671875,-422.36328125,-38.0859375,-1.0,-1.0,1.0,0.0,9.m4v,2.0
2024-02-27 11:00:08.293979,1709028008.2939792,-40.52734375,999.51171875,344.23828125,-41.9921875,-1.0,-1.0,1.0,0.0,9.m4v,2.0
2024-02-27 11:00:08.301791,1709028008.3017907,-49.8046875,-850.5859375,-563.96484375,-50.78125,-1.0,-1.0,1.0,0.0,9.m4v,2.0
2024-02-27 11:00:08.547871,1709028008.5478714,-37.59765625,984.86328125,-294.921875,-54.19921875,-1.0,-1.0,1.0,0.0,9.m4v,2.0
2024-02-27 11:00:08.559592,1709028008.5595918,-39.0625,692.87109375,-346.6796875,-46.38671875,-1.0,-1.0,1.0,0.0,9.m4v,2.0
2024-02-27 11:00:08.571309,1709028008.571309,-46.875,-935.05859375,-159.66796875,-34.66796875,-1.0,-1.0,1.0,0.0,9.m4v,2.0
2024-02-27 11:00:08.583027,1709028008.5830266,-34.1796875,-1000.0,-448.73046875,-38.0859375,-1.0,-1.0,1.0,0.0,9.m4v,2.0
2024-02-27 11:00:08.594744,1709028008.594744,-39.0625,-1000.0,-138.671875,-30.2734375,-1.0,-1.0,1.0,0.0,9.m4v,2.0
2024-02-27 11:00:08.606464,1709028008.6064644,-51.7578125,-1000.0,-457.03125,-44.43359375,-1.0,-1.0,1.0,0.0,9.m4v,2.0
2024-02-27 11:00:08.618182,1709028008.6181817,-35.64453125,992.67578125,192.87109375,-24.90234375,-1.0,-1.0,1.0,0.0,9.m4v,2.0
2024-02-27 11:00:08.629899,1709028008.6298993,-46.38671875,969.7265625,-451.66015625,-49.8046875,-1.0,-1.0,1.0,0.0,9.m4v,2.0
2024-02-27 11:00:08.641617,1709028008.6416166,-29.296875,969.7265625,-205.078125,-33.203125,-1.0,-1.0,1.0,0.0,9.m4v,2.0
2024-02-27 11:00:08.653337,1709028008.653337,-41.50390625,969.7265625,200.1953125,-22.4609375,-1.0,-1.0,1.0,0.0,9.m4v,2.0
2024-02-27 11:00:08.665054,1709028008.6650543,-37.109375,911.1328125,170.41015625,-33.69140625,-1.0,-1.0,1.0,0.0,9.m4v,2.0
2024-02-27 11:00:08.676772,1709028008.6767716,-56.15234375,-611.328125,316.89453125,-37.109375,-1.0,-1.0,1.0,0.0,9.m4v,2.0
2024-02-27 11:00:08.688489,1709028008.688489,-54.6875,-1000.0,-224.609375,-32.2265625,-1.0,-1.0,1.0,0.0,9.m4v,2.0
2024-02-27 11:00:08.700210,1709028008.7002103,-34.66796875,-1000.0,167.48046875,-35.64453125,-1.0,-1.0,1.0,0.0,9.m4v,2.0
2024-02-27 11:00:08.708022,1709028008.708022,-38.0859375,-1000.0,-120.60546875,-43.9453125,-1.0,-1.0,1.0,0.0,9.m4v,2.0
2024-02-27 11:00:08.711928,1709028008.7119277,-42.96875,-885.25390625,296.875,-41.50390625,-1.0,-1.0,1.0,0.0,9.m4v,2.0
2024-02-27 11:00:08.715833,1709028008.7158334,-19.53125,574.70703125,918.45703125,-34.1796875,-1.0,-1.0,1.0,0.0,9.m4v,2.0
2024-02-27 11:00:08.719739,1709028008.7197392,-15.13671875,999.51171875,768.06640625,-32.71484375,-1.0,-1.0,1.0,0.0,9.m4v,2.0
2024-02-27 11:00:08.723645,1709028008.723645,-26.85546875,895.5078125,394.53125,-39.55078125,-1.0,-1.0,1.0,0.0,9.m4v,2.0
2024-02-27 11:00:08.727551,1709028008.7275507,-32.71484375,985.83984375,317.87109375,-41.9921875,-1.0,-1.0,1.0,0.0,9.m4v,2.0
2024-02-27 11:00:08.731457,1709028008.7314565,-30.2734375,969.7265625,788.0859375,-33.203125,-1.0,-1.0,1.0,0.0,9.m4v,2.0
2024-02-27 11:00:08.735362,1709028008.7353623,-23.92578125,969.7265625,949.70703125,-31.73828125,-1.0,-1.0,1.0,0.0,9.m4v,2.0
2024-02-27 11:00:08.739271,1709028008.739271,-25.87890625,977.05078125,500.48828125,-37.59765625,-1.0,-1.0,1.0,0.0,9.m4v,2.0
2024-02-27 11:00:08.743177,1709028008.7431767,-23.4375,944.3359375,192.87109375,-43.45703125,-1.0,-1.0,1.0,0.0,9.m4v,2.0
2024-02-27 11:00:08.747082,1709028008.7470825,-30.76171875,954.1015625,146.484375,-43.45703125,-1.0,-1.0,1.0,0.0,9.m4v,2.0
2024-02-27 11:00:08.750988,1709028008.7509882,-33.203125,999.51171875,281.73828125,-35.15625,-1.0,-1.0,1.0,0.0,9.m4v,2.0
2024-02-27 11:00:08.754894,1709028008.754894,-30.76171875,-167.96875,364.2578125,-36.1328125,-1.0,-1.0,1.0,0.0,9.m4v,2.0
2024-02-27 11:00:08.758800,1709028008.7587998,-42.96875,-1000.0,562.01171875,-26.85546875,-1.0,-1.0,1.0,0.0,9.m4v,2.0
2024-02-27 11:00:08.762706,1709028008.7627056,-53.7109375,-950.1953125,556.15234375,-26.85546875,-1.0,-1.0,1.0,0.0,9.m4v,2.0
2024-02-27 11:00:08.778329,1709028008.778329,-29.78515625,-1000.0,393.5546875,-34.1796875,-1.0,-1.0,1.0,0.0,9.m4v,2.0
2024-02-27 11:00:08.782234,1709028008.7822344,-37.59765625,-1000.0,169.921875,-39.55078125,-1.0,-1.0,1.0,0.0,9.m4v,2.0
2024-02-27 11:00:08.786143,1709028008.7861428,-46.38671875,-1000.0,-54.6875,-45.8984375,-1.0,-1.0,1.0,0.0,9.m4v,2.0
2024-02-27 11:00:08.790049,1709028008.7900486,-48.828125,-1000.0,143.5546875,-42.48046875,-1.0,-1.0,1.0,0.0,9.m4v,2.0
2024-02-27 11:00:08.793955,1709028008.7939546,-34.66796875,-954.1015625,579.58984375,-38.0859375,-1.0,-1.0,1.0,0.0,9.m4v,2.0
2024-02-27 11:00:08.801766,1709028008.8017662,-29.296875,-972.65625,350.09765625,-37.109375,-1.0,-1.0,1.0,0.0,9.m4v,2.0
2024-02-27 11:00:08.809578,1709028008.8095777,-41.50390625,999.51171875,615.234375,-41.9921875,-1.0,-1.0,1.0,0.0,9.m4v,2.0
2024-02-27 11:00:08.817389,1709028008.8173892,-38.57421875,980.95703125,470.21484375,-32.2265625,-1.0,-1.0,1.0,0.0,9.m4v,2.0
2024-02-27 11:00:08.825201,1709028008.8252008,-47.8515625,969.7265625,101.07421875,-38.57421875,-1.0,-1.0,1.0,0.0,9.m4v,2.0
2024-02-27 11:00:08.833016,1709028008.8330157,-58.10546875,969.7265625,458.0078125,-33.69140625,-1.0,-1.0,1.0,0.0,9.m4v,2.0
2024-02-27 11:00:08.840827,1709028008.8408272,-28.3203125,969.7265625,470.703125,-41.50390625,-1.0,-1.0,1.0,0.0,9.m4v,2.0
2024-02-27 11:00:08.848639,1709028008.848639,-43.45703125,984.375,259.27734375,-37.109375,-1.0,-1.0,1.0,0.0,9.m4v,2.0
2024-02-27 11:00:08.856451,1709028008.8564506,-25.390625,999.51171875,999.51171875,-30.76171875,-1.0,-1.0,1.0,0.0,9.m4v,2.0
2024-02-27 11:00:08.864262,1709028008.864262,-24.4140625,-520.5078125,2.44140625,-45.41015625,-1.0,-1.0,1.0,0.0,9.m4v,2.0
2024-02-27 11:00:08.872074,1709028008.8720737,-45.41015625,-925.78125,112.79296875,-40.0390625,-1.0,-1.0,1.0,0.0,9.m4v,2.0
2024-02-27 11:00:08.875979,1709028008.8759794,-41.9921875,-1000.0,184.5703125,-32.71484375,-1.0,-1.0,1.0,0.0,9.m4v,2.0
2024-02-27 11:00:08.879889,1709028008.8798883,-31.25,-1000.0,48.828125,-31.25,-1.0,-1.0,1.0,0.0,9.m4v,2.0
2024-02-27 11:00:08.883794,1709028008.8837943,-45.8984375,-1000.0,-151.85546875,-33.69140625,-1.0,-1.0,1.0,0.0,9.m4v,2.0
2024-02-27 11:00:08.887700,1709028008.8877003,-56.640625,-956.54296875,-139.6484375,-38.57421875,-1.0,-1.0,1.0,0.0,9.m4v,2.0
2024-02-27 11:00:08.891606,1709028008.891606,-41.9921875,-1000.0,157.71484375,-36.62109375,-1.0,-1.0,1.0,0.0,9.m4v,2.0
2024-02-27 11:00:08.895512,1709028008.895512,-37.109375,-987.79296875,281.73828125,-32.71484375,-1.0,-1.0,1.0,0.0,9.m4v,2.0
2024-02-27 11:00:08.899418,1709028008.8994176,-27.34375,391.6015625,624.51171875,-22.94921875,-1.0,-1.0,1.0,0.0,9.m4v,2.0
2024-02-27 11:00:08.903323,1709028008.9033234,-20.99609375,999.51171875,647.94921875,-15.625,-1.0,-1.0,1.0,0.0,9.m4v,2.0
2024-02-27 11:00:08.907229,1709028008.9072292,-34.66796875,897.94921875,213.37890625,-23.92578125,-1.0,-1.0,1.0,0.0,9.m4v,2.0
2024-02-27 11:00:08.911135,1709028008.911135,-34.66796875,979.98046875,489.74609375,-35.15625,-1.0,-1.0,1.0,0.0,9.m4v,2.0
2024-02-27 11:00:08.915041,1709028008.9150407,-28.80859375,969.7265625,588.8671875,-37.59765625,-1.0,-1.0,1.0,0.0,9.m4v,2.0
2024-02-27 11:00:08.918947,1709028008.9189465,-29.78515625,969.7265625,314.94140625,-37.109375,-1.0,-1.0,1.0,0.0,9.m4v,2.0
2024-02-27 11:00:08.922852,1709028008.9228525,-42.96875,969.7265625,109.375,-44.43359375,-1.0,-1.0,1.0,0.0,9.m4v,2.0
2024-02-27 11:00:08.926761,1709028008.9267614,-56.15234375,969.7265625,-45.41015625,-46.38671875,-1.0,-1.0,1.0,0.0,9.m4v,2.0
2024-02-27 11:00:08.930667,1709028008.9306672,-49.8046875,969.7265625,153.3203125,-41.50390625,-1.0,-1.0,1.0,0.0,9.m4v,2.0
2024-02-27 11:00:08.934573,1709028008.934573,-35.64453125,969.7265625,403.3203125,-41.015625,-1.0,-1.0,1.0,0.0,9.m4v,2.0
2024-02-27 11:00:08.938479,1709028008.9384787,-41.50390625,969.7265625,248.046875,-51.26953125,-1.0,-1.0,1.0,0.0,9.m4v,2.0
2024-02-27 11:00:08.942384,1709028008.9423845,-48.828125,970.703125,58.10546875,-54.19921875,-1.0,-1.0,1.0,0.0,9.m4v,2.0
2024-02-27 11:00:08.946290,1709028008.9462905,-44.43359375,979.98046875,239.2578125,-51.26953125,-1.0,-1.0,1.0,0.0,9.m4v,2.0
2024-02-27 11:00:08.950196,1709028008.950196,-41.50390625,903.80859375,600.09765625,-45.8984375,-1.0,-1.0,1.0,0.0,9.m4v,2.0
2024-02-27 11:00:08.954102,1709028008.9541018,-33.69140625,999.51171875,600.09765625,-39.0625,-1.0,-1.0,1.0,0.0,9.m4v,2.0
2024-02-27 11:00:08.958008,1709028008.9580076,-31.73828125,495.1171875,199.21875,-41.9921875,-1.0,-1.0,1.0,0.0,9.m4v,2.0
2024-02-27 11:00:08.985351,1709028008.985351,-30.2734375,-937.5,-439.94140625,-37.59765625,-1.0,-1.0,1.0,0.0,9.m4v,2.0
2024-02-27 11:00:08.989257,1709028008.9892569,-49.31640625,-1000.0,-390.13671875,-45.8984375,-1.0,-1.0,1.0,0.0,9.m4v,2.0
2024-02-27 11:00:09.036129,1709028009.0361292,-30.76171875,969.7265625,419.43359375,-29.78515625,-1.0,-1.0,1.0,0.0,9.m4v,2.0
2024-02-27 11:00:09.040035,1709028009.040035,-19.53125,969.7265625,469.23828125,-27.34375,-1.0,-1.0,1.0,0.0,9.m4v,2.0
2024-02-27 11:00:09.043941,1709028009.0439408,-35.15625,969.7265625,437.5,-28.3203125,-1.0,-1.0,1.0,0.0,9.m4v,2.0
2024-02-27 11:00:09.047847,1709028009.0478466,-49.31640625,969.7265625,50.78125,-32.71484375,-1.0,-1.0,1.0,0.0,9.m4v,2.0
2024-02-27 11:00:09.051752,1709028009.0517523,-34.66796875,985.83984375,99.12109375,-33.203125,-1.0,-1.0,1.0,0.0,9.m4v,2.0
2024-02-27 11:00:09.063470,1709028009.06347,-24.90234375,730.95703125,-47.36328125,-44.43359375,-1.0,-1.0,1.0,0.0,9.m4v,2.0
2024-02-27 11:00:09.071284,1709028009.071284,-30.76171875,-1000.0,-152.34375,-50.78125,-1.0,-1.0,1.0,0.0,9.m4v,2.0
2024-02-27 11:00:09.079096,1709028009.0790958,-22.4609375,-1000.0,-145.5078125,-42.48046875,-1.0,-1.0,1.0,0.0,9.m4v,2.0
2024-02-27 11:00:09.086907,1709028009.0869074,-25.390625,-1000.0,-22.4609375,-40.0390625,-1.0,-1.0,1.0,0.0,9.m4v,2.0
2024-02-27 11:00:09.094719,1709028009.094719,-25.87890625,848.14453125,565.91796875,-23.92578125,-1.0,-1.0,1.0,0.0,9.m4v,2.0
2024-02-27 11:00:09.102530,1709028009.1025305,-26.85546875,914.0625,-137.6953125,-38.57421875,-1.0,-1.0,1.0,0.0,9.m4v,2.0
2024-02-27 11:00:09.106436,1709028009.1064365,-34.1796875,985.3515625,-192.3828125,-42.96875,-1.0,-1.0,1.0,0.0,9.m4v,2.0
2024-02-27 11:00:09.110342,1709028009.110342,-29.296875,969.7265625,-147.4609375,-39.55078125,-1.0,-1.0,1.0,0.0,9.m4v,2.0
2024-02-27 11:00:09.114250,1709028009.1142504,-17.08984375,969.7265625,-31.25,-30.2734375,-1.0,-1.0,1.0,0.0,9.m4v,2.0
2024-02-27 11:00:09.114250,1709028009.1142504,-17.08984375,969.7265625,-31.25,-30.2734375,-1.0,-1.0,1.0,0.0,9.m4v,2.0
2024-02-27 11:00:09.118156,1709028009.1181562,-8.7890625,969.7265625,-43.9453125,-37.59765625,-1.0,-1.0,1.0,0.0,9.m4v,2.0
2024-02-27 11:00:09.118156,1709028009.1181562,-8.7890625,969.7265625,-43.9453125,-37.59765625,-1.0,-1.0,1.0,0.0,9.m4v,2.0
2024-02-27 11:00:09.122062,1709028009.122062,-13.18359375,969.7265625,-163.0859375,-42.48046875,-1.0,-1.0,1.0,0.0,9.m4v,2.0
2024-02-27 11:00:09.122062,1709028009.122062,-13.18359375,969.7265625,-163.0859375,-42.48046875,-1.0,-1.0,1.0,0.0,9.m4v,2.0
2024-02-27 11:00:09.125968,1709028009.1259675,-28.80859375,969.7265625,-312.5,-44.921875,-1.0,-1.0,1.0,0.0,9.m4v,2.0
2024-02-27 11:00:09.125968,1709028009.1259675,-28.80859375,969.7265625,-312.5,-44.921875,-1.0,-1.0,1.0,0.0,9.m4v,2.0
2024-02-27 11:00:09.129874,1709028009.1298735,-33.69140625,970.21484375,-232.421875,-47.36328125,-1.0,-1.0,1.0,0.0,9.m4v,2.0
2024-02-27 11:00:09.129874,1709028009.1298735,-33.69140625,970.21484375,-232.421875,-47.36328125,-1.0,-1.0,1.0,0.0,9.m4v,2.0
2024-02-27 11:00:09.133779,1709028009.1337793,-31.25,977.05078125,413.0859375,-29.296875,-1.0,-1.0,1.0,0.0,9.m4v,2.0
2024-02-27 11:00:09.133779,1709028009.1337793,-31.25,977.05078125,413.0859375,-29.296875,-1.0,-1.0,1.0,0.0,9.m4v,2.0
2024-02-27 11:00:09.137685,1709028009.137685,-27.34375,921.38671875,605.95703125,-19.04296875,-1.0,-1.0,1.0,0.0,9.m4v,2.0
2024-02-27 11:00:09.137685,1709028009.137685,-27.34375,921.38671875,605.95703125,-19.04296875,-1.0,-1.0,1.0,0.0,9.m4v,2.0
2024-02-27 11:00:09.141591,1709028009.141591,-32.2265625,999.51171875,97.65625,-45.41015625,-1.0,-1.0,1.0,0.0,9.m4v,2.0
2024-02-27 11:00:09.141591,1709028009.141591,-32.2265625,999.51171875,97.65625,-45.41015625,-1.0,-1.0,1.0,0.0,9.m4v,2.0
2024-02-27 11:00:09.153308,1709028009.1533084,-41.50390625,-1000.0,-164.55078125,-39.55078125,-1.0,-1.0,1.0,0.0,9.m4v,2.0
2024-02-27 11:00:09.153308,1709028009.1533084,-41.50390625,-1000.0,-164.55078125,-39.55078125,-1.0,-1.0,1.0,0.0,9.m4v,2.0
2024-02-27 11:00:09.165028,1709028009.165028,-32.71484375,-1000.0,-617.1875,-42.48046875,-1.0,-1.0,1.0,0.0,9.m4v,2.0
2024-02-27 11:00:09.165028,1709028009.165028,-32.71484375,-1000.0,-617.1875,-42.48046875,-1.0,-1.0,1.0,0.0,9.m4v,2.0
2024-02-27 11:00:09.215806,1709028009.2158058,-36.62109375,969.7265625,220.703125,-34.1796875,-1.0,-1.0,1.0,0.0,9.m4v,2.0
2024-02-27 11:00:09.219712,1709028009.2197115,-38.0859375,969.7265625,-39.0625,-37.109375,-1.0,-1.0,1.0,0.0,9.m4v,2.0
2024-02-27 11:00:09.223617,1709028009.2236173,-42.48046875,976.5625,-265.13671875,-42.48046875,-1.0,-1.0,1.0,0.0,9.m4v,2.0
2024-02-27 11:00:09.231429,1709028009.2314289,-42.96875,953.125,272.94921875,-31.25,-1.0,-1.0,1.0,0.0,9.m4v,2.0
2024-02-27 11:00:09.235335,1709028009.2353346,-46.38671875,999.51171875,170.8984375,-33.203125,-1.0,-1.0,1.0,0.0,9.m4v,2.0
2024-02-27 11:00:09.239241,1709028009.2392406,-44.921875,-152.83203125,-157.2265625,-37.109375,-1.0,-1.0,1.0,0.0,9.m4v,2.0
2024-02-27 11:00:09.247052,1709028009.2470522,-50.78125,-952.63671875,-650.390625,-45.41015625,-1.0,-1.0,1.0,0.0,9.m4v,2.0
2024-02-27 11:00:09.250958,1709028009.250958,-40.52734375,-994.140625,-426.26953125,-42.48046875,-1.0,-1.0,1.0,0.0,9.m4v,2.0
2024-02-27 11:00:09.254867,1709028009.254867,-41.9921875,-1000.0,-92.28515625,-41.015625,-1.0,-1.0,1.0,0.0,9.m4v,2.0
2024-02-27 11:00:09.262679,1709028009.2626786,-29.78515625,-930.17578125,-193.359375,-39.55078125,-1.0,-1.0,1.0,0.0,9.m4v,2.0
2024-02-27 11:00:09.266584,1709028009.2665844,-32.71484375,-1000.0,-397.4609375,-40.52734375,-1.0,-1.0,1.0,0.0,9.m4v,2.0
2024-02-27 11:00:09.270490,1709028009.2704902,-37.59765625,-618.65234375,-31.25,-23.92578125,-1.0,-1.0,1.0,0.0,9.m4v,2.0
2024-02-27 11:00:09.278302,1709028009.2783017,-28.80859375,999.51171875,540.52734375,-39.55078125,-1.0,-1.0,1.0,0.0,9.m4v,2.0
2024-02-27 11:00:09.379858,1709028009.3798585,-21.484375,902.34375,-151.3671875,-37.109375,-1.0,-1.0,1.0,0.0,9.m4v,2.0
2024-02-27 11:00:09.387670,1709028009.3876705,-11.71875,969.7265625,-415.0390625,-26.3671875,-1.0,-1.0,1.0,0.0,9.m4v,2.0
2024-02-27 11:00:09.395485,1709028009.395485,24.4140625,969.7265625,219.23828125,-34.1796875,-1.0,-1.0,1.0,0.0,9.m4v,2.0
2024-02-27 11:00:09.403296,1709028009.4032965,-10.25390625,970.21484375,-147.94921875,-34.66796875,-1.0,-1.0,1.0,0.0,9.m4v,2.0
2024-02-27 11:00:09.411108,1709028009.411108,-8.7890625,960.44921875,-168.45703125,-34.1796875,-1.0,-1.0,1.0,0.0,9.m4v,2.0
2024-02-27 11:00:09.415014,1709028009.4150138,1.953125,928.22265625,298.828125,-38.57421875,-1.0,-1.0,1.0,0.0,9.m4v,2.0
2024-02-27 11:00:09.418920,1709028009.4189196,20.5078125,999.51171875,329.58984375,-40.0390625,-1.0,-1.0,1.0,0.0,9.m4v,2.0
2024-02-27 11:00:09.422825,1709028009.422825,7.32421875,90.33203125,-267.08984375,-48.828125,-1.0,-1.0,1.0,0.0,9.m4v,2.0
2024-02-27 11:00:09.426731,1709028009.426731,-7.32421875,-1000.0,-767.578125,-53.7109375,-1.0,-1.0,1.0,0.0,9.m4v,2.0
2024-02-27 11:00:09.430637,1709028009.430637,1.953125,-981.93359375,-698.2421875,-44.921875,-1.0,-1.0,1.0,0.0,9.m4v,2.0
2024-02-27 11:00:09.434543,1709028009.434543,16.6015625,-978.02734375,-281.73828125,-34.1796875,-1.0,-1.0,1.0,0.0,9.m4v,2.0
2024-02-27 11:00:09.438448,1709028009.4384484,24.4140625,-1000.0,-192.3828125,-27.83203125,-1.0,-1.0,1.0,0.0,9.m4v,2.0
2024-02-27 11:00:09.442357,1709028009.442357,25.87890625,-1000.0,-307.12890625,-25.390625,-1.0,-1.0,1.0,0.0,9.m4v,2.0
2024-02-27 11:00:09.446263,1709028009.4462628,13.18359375,-1000.0,-466.30859375,-32.2265625,-1.0,-1.0,1.0,0.0,9.m4v,2.0
2024-02-27 11:00:09.450169,1709028009.4501686,9.765625,-962.40234375,-256.34765625,-34.1796875,-1.0,-1.0,1.0,0.0,9.m4v,2.0
2024-02-27 11:00:09.454074,1709028009.4540744,3.41796875,-1000.0,79.1015625,-31.73828125,-1.0,-1.0,1.0,0.0,9.m4v,2.0
2024-02-27 11:00:09.457980,1709028009.4579802,-16.6015625,-1000.0,-156.25,-34.1796875,-1.0,-1.0,1.0,0.0,9.m4v,2.0
2024-02-27 11:00:09.461886,1709028009.461886,-9.27734375,321.2890625,-27.34375,-29.296875,-1.0,-1.0,1.0,0.0,9.m4v,2.0
2024-02-27 11:00:09.465792,1709028009.4657917,-11.23046875,999.51171875,116.69921875,-27.83203125,-1.0,-1.0,1.0,0.0,9.m4v,2.0
2024-02-27 11:00:09.469697,1709028009.4696977,-22.94921875,900.87890625,-230.46875,-31.25,-1.0,-1.0,1.0,0.0,9.m4v,2.0
2024-02-27 11:00:09.473603,1709028009.4736032,-20.99609375,977.05078125,-233.3984375,-25.87890625,-1.0,-1.0,1.0,0.0,9.m4v,2.0
2024-02-27 11:00:09.477509,1709028009.477509,-23.4375,969.7265625,-174.31640625,-26.85546875,-1.0,-1.0,1.0,0.0,9.m4v,2.0
2024-02-27 11:00:09.481415,1709028009.4814148,-29.78515625,969.7265625,-394.04296875,-26.3671875,-1.0,-1.0,1.0,0.0,9.m4v,2.0
2024-02-27 11:00:09.485321,1709028009.4853206,-23.4375,969.7265625,-597.16796875,-18.06640625,-1.0,-1.0,1.0,0.0,9.m4v,2.0
2024-02-27 11:00:09.524381,1709028009.5243812,-36.1328125,-1000.0,-752.44140625,-41.015625,-1.0,-1.0,1.0,0.0,9.m4v,2.0
2024-02-27 11:00:09.528287,1709028009.528287,-30.2734375,-925.78125,-742.1875,-39.0625,-1.0,-1.0,1.0,0.0,9.m4v,2.0
2024-02-27 11:00:09.532193,1709028009.5321927,-31.25,-1000.0,-447.265625,-37.59765625,-1.0,-1.0,1.0,0.0,9.m4v,2.0
2024-02-27 11:00:09.536101,1709028009.536101,-20.01953125,-1000.0,-231.93359375,-39.0625,-1.0,-1.0,1.0,0.0,9.m4v,2.0
2024-02-27 11:00:09.540007,1709028009.5400069,-9.765625,-1000.0,-331.54296875,-40.52734375,-1.0,-1.0,1.0,0.0,9.m4v,2.0
2024-02-27 11:00:09.543913,1709028009.5439126,-13.671875,-993.1640625,-499.51171875,-40.0390625,-1.0,-1.0,1.0,0.0,9.m4v,2.0
2024-02-27 11:00:09.547818,1709028009.5478184,-22.4609375,-953.61328125,-575.1953125,-41.50390625,-1.0,-1.0,1.0,0.0,9.m4v,2.0
2024-02-27 11:00:09.551724,1709028009.5517242,-23.4375,-1000.0,-416.50390625,-34.66796875,-1.0,-1.0,1.0,0.0,9.m4v,2.0
2024-02-27 11:00:09.555630,1709028009.55563,-9.765625,-148.4375,154.296875,-29.78515625,-1.0,-1.0,1.0,0.0,9.m4v,2.0
2024-02-27 11:00:09.559536,1709028009.5595355,-10.25390625,999.51171875,501.46484375,-20.5078125,-1.0,-1.0,1.0,0.0,9.m4v,2.0
2024-02-27 11:00:09.563442,1709028009.5634415,-15.625,952.63671875,21.484375,-19.53125,-1.0,-1.0,1.0,0.0,9.m4v,2.0
2024-02-27 11:00:09.567347,1709028009.5673473,-14.16015625,946.2890625,-228.02734375,-38.57421875,-1.0,-1.0,1.0,0.0,9.m4v,2.0
2024-02-27 11:00:09.571253,1709028009.571253,-12.6953125,976.5625,80.078125,-37.59765625,-1.0,-1.0,1.0,0.0,9.m4v,2.0
2024-02-27 11:00:09.575159,1709028009.5751588,-18.06640625,973.14453125,207.03125,-27.83203125,-1.0,-1.0,1.0,0.0,9.m4v,2.0
2024-02-27 11:00:09.579065,1709028009.5790648,-23.4375,966.796875,10.7421875,-31.25,-1.0,-1.0,1.0,0.0,9.m4v,2.0
2024-02-27 11:00:09.582973,1709028009.582973,-22.4609375,922.36328125,-271.97265625,-38.57421875,-1.0,-1.0,1.0,0.0,9.m4v,2.0
2024-02-27 11:00:09.586879,1709028009.5868788,-35.15625,999.51171875,-490.234375,-42.48046875,-1.0,-1.0,1.0,0.0,9.m4v,2.0
2024-02-27 11:00:09.590785,1709028009.5907843,-44.43359375,233.3984375,-443.84765625,-49.31640625,-1.0,-1.0,1.0,0.0,9.m4v,2.0
2024-02-27 11:00:09.594690,1709028009.5946903,-29.296875,-988.76953125,-320.80078125,-47.8515625,-1.0,-1.0,1.0,0.0,9.m4v,2.0
2024-02-27 11:00:09.598596,1709028009.598596,-23.4375,-1000.0,-381.8359375,-45.8984375,-1.0,-1.0,1.0,0.0,9.m4v,2.0
2024-02-27 11:00:09.602502,1709028009.602502,-45.41015625,-966.30859375,-305.6640625,-49.31640625,-1.0,-1.0,1.0,0.0,9.m4v,2.0
2024-02-27 11:00:09.606408,1709028009.6064076,-50.78125,-1000.0,-241.69921875,-51.26953125,-1.0,-1.0,1.0,0.0,9.m4v,2.0
2024-02-27 11:00:09.610314,1709028009.6103137,-38.57421875,-1000.0,-380.859375,-49.8046875,-1.0,-1.0,1.0,0.0,9.m4v,2.0
2024-02-27 11:00:09.614219,1709028009.6142194,-36.62109375,-1000.0,-288.0859375,-39.0625,-1.0,-1.0,1.0,0.0,9.m4v,2.0
2024-02-27 11:00:09.618125,1709028009.6181252,-43.9453125,-1000.0,-350.09765625,-42.48046875,-1.0,-1.0,1.0,0.0,9.m4v,2.0
2024-02-27 11:00:09.622031,1709028009.622031,-36.1328125,-940.4296875,-484.375,-48.33984375,-1.0,-1.0,1.0,0.0,9.m4v,2.0
2024-02-27 11:00:09.625937,1709028009.6259367,-27.83203125,-1000.0,-608.3984375,-48.33984375,-1.0,-1.0,1.0,0.0,9.m4v,2.0
2024-02-27 11:00:09.629846,1709028009.629846,-32.71484375,-865.72265625,-430.6640625,-41.015625,-1.0,-1.0,1.0,0.0,9.m4v,2.0
2024-02-27 11:00:09.633752,1709028009.6337516,-19.04296875,597.65625,247.55859375,-20.01953125,-1.0,-1.0,1.0,0.0,9.m4v,2.0
2024-02-27 11:00:09.637657,1709028009.6376574,-16.11328125,999.51171875,283.203125,-27.83203125,-1.0,-1.0,1.0,0.0,9.m4v,2.0
2024-02-27 11:00:09.641563,1709028009.6415632,-22.94921875,895.99609375,-92.28515625,-41.015625,-1.0,-1.0,1.0,0.0,9.m4v,2.0
2024-02-27 11:00:09.645469,1709028009.645469,-22.94921875,986.328125,-288.57421875,-38.57421875,-1.0,-1.0,1.0,0.0,9.m4v,2.0
2024-02-27 11:00:09.649375,1709028009.6493747,-24.4140625,969.7265625,31.25,-37.109375,-1.0,-1.0,1.0,0.0,9.m4v,2.0
2024-02-27 11:00:09.653280,1709028009.6532805,-24.90234375,969.7265625,316.89453125,-35.64453125,-1.0,-1.0,1.0,0.0,9.m4v,2.0
2024-02-27 11:00:09.657186,1709028009.6571865,-40.0390625,970.21484375,-7.32421875,-37.59765625,-1.0,-1.0,1.0,0.0,9.m4v,2.0
2024-02-27 11:00:09.661092,1709028009.6610923,-41.50390625,969.7265625,-298.828125,-36.1328125,-1.0,-1.0,1.0,0.0,9.m4v,2.0
2024-02-27 11:00:09.664998,1709028009.664998,-36.62109375,969.7265625,-378.41796875,-45.41015625,-1.0,-1.0,1.0,0.0,9.m4v,2.0
2024-02-27 11:00:09.668904,1709028009.6689038,-45.41015625,969.7265625,-331.0546875,-42.96875,-1.0,-1.0,1.0,0.0,9.m4v,2.0
2024-02-27 11:00:09.672810,1709028009.6728096,-41.50390625,979.4921875,-12.20703125,-29.296875,-1.0,-1.0,1.0,0.0,9.m4v,2.0
2024-02-27 11:00:09.676718,1709028009.6767185,-33.203125,935.05859375,154.78515625,-30.76171875,-1.0,-1.0,1.0,0.0,9.m4v,2.0
2024-02-27 11:00:09.680624,1709028009.6806242,-30.2734375,971.19140625,-81.54296875,-31.73828125,-1.0,-1.0,1.0,0.0,9.m4v,2.0
2024-02-27 11:00:09.684530,1709028009.68453,-27.83203125,996.09375,-316.40625,-26.3671875,-1.0,-1.0,1.0,0.0,9.m4v,2.0
2024-02-27 11:00:09.688436,1709028009.688436,-26.85546875,-305.17578125,-471.19140625,-25.390625,-1.0,-1.0,1.0,0.0,9.m4v,2.0
2024-02-27 11:00:09.692342,1709028009.6923418,-40.52734375,-1000.0,-165.0390625,-26.85546875,-1.0,-1.0,1.0,0.0,9.m4v,2.0
2024-02-27 11:00:09.696248,1709028009.6962476,-45.41015625,-936.03515625,328.61328125,-30.76171875,-1.0,-1.0,1.0,0.0,9.m4v,2.0
2024-02-27 11:00:09.700153,1709028009.7001534,-40.52734375,-1000.0,61.5234375,-34.1796875,-1.0,-1.0,1.0,0.0,9.m4v,2.0
2024-02-27 11:00:09.704059,1709028009.7040591,-39.0625,-1000.0,-529.78515625,-33.203125,-1.0,-1.0,1.0,0.0,9.m4v,2.0
2024-02-27 11:00:09.707965,1709028009.707965,-47.36328125,-1000.0,-634.765625,-35.64453125,-1.0,-1.0,1.0,0.0,9.m4v,2.0
2024-02-27 11:00:09.711871,1709028009.711871,-47.36328125,-1000.0,-425.29296875,-34.66796875,-1.0,-1.0,1.0,0.0,9.m4v,2.0
2024-02-27 11:00:09.715776,1709028009.7157764,-34.66796875,-1000.0,-347.16796875,-33.203125,-1.0,-1.0,1.0,0.0,9.m4v,2.0
2024-02-27 11:00:09.719682,1709028009.7196822,-35.64453125,-1000.0,-431.640625,-33.69140625,-1.0,-1.0,1.0,0.0,9.m4v,2.0
2024-02-27 11:00:09.723591,1709028009.723591,-46.38671875,-1000.0,-563.96484375,-29.78515625,-1.0,-1.0,1.0,0.0,9.m4v,2.0
2024-02-27 11:00:09.727497,1709028009.7274969,-41.9921875,-1000.0,-641.6015625,-38.0859375,-1.0,-1.0,1.0,0.0,9.m4v,2.0
2024-02-27 11:00:09.731403,1709028009.7314026,-41.9921875,-960.9375,-396.484375,-49.31640625,-1.0,-1.0,1.0,0.0,9.m4v,2.0
2024-02-27 11:00:09.735308,1709028009.7353084,-38.57421875,-1000.0,-190.91796875,-41.9921875,-1.0,-1.0,1.0,0.0,9.m4v,2.0
2024-02-27 11:00:09.739214,1709028009.7392142,-38.0859375,-1000.0,-338.37890625,-38.57421875,-1.0,-1.0,1.0,0.0,9.m4v,2.0
2024-02-27 11:00:09.743120,1709028009.74312,-30.2734375,338.8671875,-170.41015625,-36.62109375,-1.0,-1.0,1.0,0.0,9.m4v,2.0
2024-02-27 11:00:09.747026,1709028009.747026,-34.1796875,999.51171875,54.6875,-30.76171875,-1.0,-1.0,1.0,0.0,9.m4v,2.0
2024-02-27 11:00:09.750932,1709028009.7509315,-42.48046875,899.90234375,27.83203125,-29.78515625,-1.0,-1.0,1.0,0.0,9.m4v,2.0
2024-02-27 11:00:09.754838,1709028009.7548375,-31.73828125,977.5390625,141.6015625,-31.73828125,-1.0,-1.0,1.0,0.0,9.m4v,2.0
2024-02-27 11:00:09.758743,1709028009.7587433,-34.66796875,969.7265625,-83.0078125,-30.76171875,-1.0,-1.0,1.0,0.0,9.m4v,2.0
2024-02-27 11:00:09.762649,1709028009.762649,-43.45703125,969.7265625,-389.6484375,-33.203125,-1.0,-1.0,1.0,0.0,9.m4v,2.0
2024-02-27 11:00:09.789993,1709028009.7899926,-36.1328125,979.98046875,-129.39453125,-42.96875,-1.0,-1.0,1.0,0.0,9.m4v,2.0
2024-02-27 11:00:09.793898,1709028009.7938983,-29.296875,932.12890625,468.75,-25.87890625,-1.0,-1.0,1.0,0.0,9.m4v,2.0
2024-02-27 11:00:09.797804,1709028009.797804,-41.50390625,976.07421875,328.61328125,-21.97265625,-1.0,-1.0,1.0,0.0,9.m4v,2.0
2024-02-27 11:00:09.801710,1709028009.80171,-47.8515625,987.79296875,-138.18359375,-40.52734375,-1.0,-1.0,1.0,0.0,9.m4v,2.0
2024-02-27 11:00:09.805616,1709028009.8056157,-56.640625,-349.12109375,-569.82421875,-52.24609375,-1.0,-1.0,1.0,0.0,9.m4v,2.0
2024-02-27 11:00:09.809521,1709028009.8095214,-61.03515625,-1000.0,-574.70703125,-53.22265625,-1.0,-1.0,1.0,0.0,9.m4v,2.0
2024-02-27 11:00:09.821241,1709028009.8212414,-31.25,-1000.0,-539.55078125,-33.69140625,-1.0,-1.0,1.0,0.0,9.m4v,2.0
2024-02-27 11:00:09.825147,1709028009.8251472,-21.97265625,-1000.0,-672.36328125,-40.52734375,-1.0,-1.0,1.0,0.0,9.m4v,2.0
2024-02-27 11:00:09.832959,1709028009.8329587,-52.734375,-1000.0,-417.48046875,-33.69140625,-1.0,-1.0,1.0,0.0,9.m4v,2.0
2024-02-27 11:00:09.836864,1709028009.8368645,-38.0859375,-714.35546875,2.9296875,-34.1796875,-1.0,-1.0,1.0,0.0,9.m4v,2.0
2024-02-27 11:00:09.844676,1709028009.8446765,-49.8046875,999.51171875,-183.59375,-27.83203125,-1.0,-1.0,1.0,0.0,9.m4v,2.0
2024-02-27 11:00:09.848582,1709028009.848582,-52.734375,904.296875,-492.1875,-31.25,-1.0,-1.0,1.0,0.0,9.m4v,2.0
2024-02-27 11:00:09.856394,1709028009.8563936,-60.05859375,969.7265625,-62.01171875,-29.296875,-1.0,-1.0,1.0,0.0,9.m4v,2.0
