Timestamp,Timestamp_UNIX,TP9,AF7,AF8,TP10,Valence,Arousal,Dominace,Viewed,Video,Participant
2024-02-27 14:37:59.003391,1709041079.0033913,984.86328125,985.83984375,-22.4609375,985.83984375,-1.0,1.0,0.0,1.0,4.m4v,5.0
2024-02-27 14:37:59.007297,1709041079.007297,969.23828125,969.7265625,-27.34375,969.7265625,-1.0,1.0,0.0,1.0,4.m4v,5.0
2024-02-27 14:37:59.011203,1709041079.0112028,969.23828125,969.7265625,-32.71484375,969.7265625,-1.0,1.0,0.0,1.0,4.m4v,5.0
2024-02-27 14:37:59.015109,1709041079.0151086,969.23828125,969.7265625,-36.1328125,969.7265625,-1.0,1.0,0.0,1.0,4.m4v,5.0
2024-02-27 14:37:59.019014,1709041079.019014,969.23828125,969.7265625,-35.15625,969.7265625,-1.0,1.0,0.0,1.0,4.m4v,5.0
2024-02-27 14:37:59.022920,1709041079.02292,969.23828125,970.21484375,-38.0859375,969.7265625,-1.0,1.0,0.0,1.0,4.m4v,5.0
2024-02-27 14:37:59.026826,1709041079.0268257,968.75,969.7265625,-42.96875,969.7265625,-1.0,1.0,0.0,1.0,4.m4v,5.0
2024-02-27 14:37:59.229945,1709041079.2299452,-1000.0,-1000.0,-35.64453125,-1000.0,-1.0,1.0,0.0,1.0,4.m4v,5.0
2024-02-27 14:37:59.229945,1709041079.2299452,-1000.0,-1000.0,-35.64453125,-1000.0,-1.0,1.0,0.0,1.0,4.m4v,5.0
2024-02-27 14:37:59.233851,1709041079.233851,-1000.0,-1000.0,-41.50390625,-1000.0,-1.0,1.0,0.0,1.0,4.m4v,5.0
2024-02-27 14:37:59.233851,1709041079.233851,-1000.0,-1000.0,-41.50390625,-1000.0,-1.0,1.0,0.0,1.0,4.m4v,5.0
2024-02-27 14:37:59.237757,1709041079.2377567,-1000.0,-1000.0,-42.96875,-1000.0,-1.0,1.0,0.0,1.0,4.m4v,5.0
2024-02-27 14:37:59.237757,1709041079.2377567,-1000.0,-1000.0,-42.96875,-1000.0,-1.0,1.0,0.0,1.0,4.m4v,5.0
2024-02-27 14:37:59.241663,1709041079.2416625,-1000.0,-1000.0,-36.1328125,-1000.0,-1.0,1.0,0.0,1.0,4.m4v,5.0
2024-02-27 14:37:59.241663,1709041079.2416625,-1000.0,-1000.0,-36.1328125,-1000.0,-1.0,1.0,0.0,1.0,4.m4v,5.0
2024-02-27 14:37:59.245568,1709041079.245568,-1000.0,-1000.0,-28.3203125,-1000.0,-1.0,1.0,0.0,1.0,4.m4v,5.0
2024-02-27 14:37:59.245568,1709041079.245568,-1000.0,-1000.0,-28.3203125,-1000.0,-1.0,1.0,0.0,1.0,4.m4v,5.0
2024-02-27 14:37:59.249474,1709041079.2494738,-1000.0,-1000.0,-25.390625,-1000.0,-1.0,1.0,0.0,1.0,4.m4v,5.0
2024-02-27 14:37:59.249474,1709041079.2494738,-1000.0,-1000.0,-25.390625,-1000.0,-1.0,1.0,0.0,1.0,4.m4v,5.0
2024-02-27 14:37:59.253380,1709041079.2533796,-1000.0,-1000.0,-30.76171875,-1000.0,-1.0,1.0,0.0,1.0,4.m4v,5.0
2024-02-27 14:37:59.253380,1709041079.2533796,-1000.0,-1000.0,-30.76171875,-1000.0,-1.0,1.0,0.0,1.0,4.m4v,5.0
2024-02-27 14:37:59.257285,1709041079.2572854,-991.69921875,-984.375,-40.0390625,-980.46875,-1.0,1.0,0.0,1.0,4.m4v,5.0
2024-02-27 14:37:59.257285,1709041079.2572854,-991.69921875,-984.375,-40.0390625,-980.46875,-1.0,1.0,0.0,1.0,4.m4v,5.0
2024-02-27 14:37:59.261191,1709041079.261191,-955.078125,-966.796875,-31.73828125,-974.609375,-1.0,1.0,0.0,1.0,4.m4v,5.0
2024-02-27 14:37:59.261191,1709041079.261191,-955.078125,-966.796875,-31.73828125,-974.609375,-1.0,1.0,0.0,1.0,4.m4v,5.0
2024-02-27 14:37:59.265102,1709041079.2651017,-1000.0,-1000.0,-28.3203125,-1000.0,-1.0,1.0,0.0,1.0,4.m4v,5.0
2024-02-27 14:37:59.265102,1709041079.2651017,-1000.0,-1000.0,-28.3203125,-1000.0,-1.0,1.0,0.0,1.0,4.m4v,5.0
2024-02-27 14:37:59.269007,1709041079.2690074,-110.83984375,8.7890625,-39.0625,53.7109375,-1.0,1.0,0.0,1.0,4.m4v,5.0
2024-02-27 14:37:59.269007,1709041079.2690074,-110.83984375,8.7890625,-39.0625,53.7109375,-1.0,1.0,0.0,1.0,4.m4v,5.0
2024-02-27 14:37:59.272913,1709041079.2729132,999.51171875,999.51171875,-36.1328125,999.51171875,-1.0,1.0,0.0,1.0,4.m4v,5.0
2024-02-27 14:37:59.272913,1709041079.2729132,999.51171875,999.51171875,-36.1328125,999.51171875,-1.0,1.0,0.0,1.0,4.m4v,5.0
2024-02-27 14:37:59.276819,1709041079.2768188,945.3125,930.6640625,-33.69140625,928.22265625,-1.0,1.0,0.0,1.0,4.m4v,5.0
2024-02-27 14:37:59.276819,1709041079.2768188,945.3125,930.6640625,-33.69140625,928.22265625,-1.0,1.0,0.0,1.0,4.m4v,5.0
2024-02-27 14:37:59.280725,1709041079.2807243,948.73046875,957.51953125,-37.109375,959.9609375,-1.0,1.0,0.0,1.0,4.m4v,5.0
2024-02-27 14:37:59.280725,1709041079.2807243,948.73046875,957.51953125,-37.109375,959.9609375,-1.0,1.0,0.0,1.0,4.m4v,5.0
2024-02-27 14:37:59.284630,1709041079.2846303,974.609375,973.6328125,-41.9921875,973.14453125,-1.0,1.0,0.0,1.0,4.m4v,5.0
2024-02-27 14:37:59.284630,1709041079.2846303,974.609375,973.6328125,-41.9921875,973.14453125,-1.0,1.0,0.0,1.0,4.m4v,5.0
2024-02-27 14:37:59.288536,1709041079.288536,969.23828125,969.7265625,-42.48046875,969.7265625,-1.0,1.0,0.0,1.0,4.m4v,5.0
2024-02-27 14:37:59.288536,1709041079.288536,969.23828125,969.7265625,-42.48046875,969.7265625,-1.0,1.0,0.0,1.0,4.m4v,5.0
2024-02-27 14:37:59.292442,1709041079.2924416,969.23828125,969.7265625,-35.64453125,969.7265625,-1.0,1.0,0.0,1.0,4.m4v,5.0
2024-02-27 14:37:59.292442,1709041079.2924416,969.23828125,969.7265625,-35.64453125,969.7265625,-1.0,1.0,0.0,1.0,4.m4v,5.0
2024-02-27 14:37:59.296347,1709041079.2963474,968.75,969.7265625,-39.55078125,969.7265625,-1.0,1.0,0.0,1.0,4.m4v,5.0
2024-02-27 14:37:59.296347,1709041079.2963474,968.75,969.7265625,-39.55078125,969.7265625,-1.0,1.0,0.0,1.0,4.m4v,5.0
2024-02-27 14:37:59.300253,1709041079.3002532,969.23828125,969.7265625,-39.55078125,969.7265625,-1.0,1.0,0.0,1.0,4.m4v,5.0
2024-02-27 14:37:59.300253,1709041079.3002532,969.23828125,969.7265625,-39.55078125,969.7265625,-1.0,1.0,0.0,1.0,4.m4v,5.0
2024-02-27 14:37:59.304159,1709041079.304159,969.23828125,969.7265625,-42.48046875,969.7265625,-1.0,1.0,0.0,1.0,4.m4v,5.0
2024-02-27 14:37:59.304159,1709041079.304159,969.23828125,969.7265625,-42.48046875,969.7265625,-1.0,1.0,0.0,1.0,4.m4v,5.0
2024-02-27 14:37:59.308064,1709041079.3080645,969.23828125,969.7265625,-41.9921875,969.7265625,-1.0,1.0,0.0,1.0,4.m4v,5.0
2024-02-27 14:37:59.308064,1709041079.3080645,969.23828125,969.7265625,-41.9921875,969.7265625,-1.0,1.0,0.0,1.0,4.m4v,5.0
2024-02-27 14:37:59.311975,1709041079.311975,969.23828125,969.7265625,-29.296875,969.7265625,-1.0,1.0,0.0,1.0,4.m4v,5.0
2024-02-27 14:37:59.311975,1709041079.311975,969.23828125,969.7265625,-29.296875,969.7265625,-1.0,1.0,0.0,1.0,4.m4v,5.0
2024-02-27 14:37:59.315881,1709041079.3158803,969.23828125,969.7265625,-32.71484375,969.7265625,-1.0,1.0,0.0,1.0,4.m4v,5.0
2024-02-27 14:37:59.315881,1709041079.3158803,969.23828125,969.7265625,-32.71484375,969.7265625,-1.0,1.0,0.0,1.0,4.m4v,5.0
2024-02-27 14:37:59.319786,1709041079.3197863,968.75,969.7265625,-37.109375,970.21484375,-1.0,1.0,0.0,1.0,4.m4v,5.0
2024-02-27 14:37:59.319786,1709041079.3197863,968.75,969.7265625,-37.109375,970.21484375,-1.0,1.0,0.0,1.0,4.m4v,5.0
2024-02-27 14:37:59.323692,1709041079.323692,969.23828125,970.21484375,-33.203125,970.703125,-1.0,1.0,0.0,1.0,4.m4v,5.0
2024-02-27 14:37:59.323692,1709041079.323692,969.23828125,970.21484375,-33.203125,970.703125,-1.0,1.0,0.0,1.0,4.m4v,5.0
2024-02-27 14:37:59.327598,1709041079.3275976,986.328125,986.81640625,-24.4140625,978.515625,-1.0,1.0,0.0,1.0,4.m4v,5.0
2024-02-27 14:37:59.327598,1709041079.3275976,986.328125,986.81640625,-24.4140625,978.515625,-1.0,1.0,0.0,1.0,4.m4v,5.0
2024-02-27 14:37:59.331503,1709041079.3315034,897.94921875,897.94921875,-31.73828125,906.73828125,-1.0,1.0,0.0,1.0,4.m4v,5.0
2024-02-27 14:37:59.331503,1709041079.3315034,897.94921875,897.94921875,-31.73828125,906.73828125,-1.0,1.0,0.0,1.0,4.m4v,5.0
2024-02-27 14:37:59.335409,1709041079.3354092,999.51171875,999.51171875,-41.015625,999.51171875,-1.0,1.0,0.0,1.0,4.m4v,5.0
2024-02-27 14:37:59.335409,1709041079.3354092,999.51171875,999.51171875,-41.015625,999.51171875,-1.0,1.0,0.0,1.0,4.m4v,5.0
2024-02-27 14:37:59.339315,1709041079.339315,673.828125,643.5546875,-40.0390625,474.609375,-1.0,1.0,0.0,1.0,4.m4v,5.0
2024-02-27 14:37:59.339315,1709041079.339315,673.828125,643.5546875,-40.0390625,474.609375,-1.0,1.0,0.0,1.0,4.m4v,5.0
2024-02-27 14:37:59.343220,1709041079.3432205,-803.22265625,-825.68359375,-51.7578125,-896.484375,-1.0,1.0,0.0,1.0,4.m4v,5.0
2024-02-27 14:37:59.343220,1709041079.3432205,-803.22265625,-825.68359375,-51.7578125,-896.484375,-1.0,1.0,0.0,1.0,4.m4v,5.0
2024-02-27 14:37:59.347126,1709041079.3471262,-1000.0,-1000.0,-43.9453125,-1000.0,-1.0,1.0,0.0,1.0,4.m4v,5.0
2024-02-27 14:37:59.347126,1709041079.3471262,-1000.0,-1000.0,-43.9453125,-1000.0,-1.0,1.0,0.0,1.0,4.m4v,5.0
2024-02-27 14:37:59.351032,1709041079.351032,-935.05859375,-937.01171875,-34.66796875,-949.70703125,-1.0,1.0,0.0,1.0,4.m4v,5.0
2024-02-27 14:37:59.351032,1709041079.351032,-935.05859375,-937.01171875,-34.66796875,-949.70703125,-1.0,1.0,0.0,1.0,4.m4v,5.0
2024-02-27 14:37:59.354938,1709041079.3549378,-1000.0,-1000.0,-43.9453125,-1000.0,-1.0,1.0,0.0,1.0,4.m4v,5.0
2024-02-27 14:37:59.354938,1709041079.3549378,-1000.0,-1000.0,-43.9453125,-1000.0,-1.0,1.0,0.0,1.0,4.m4v,5.0
2024-02-27 14:37:59.358848,1709041079.358848,-1000.0,-1000.0,-46.875,-1000.0,-1.0,1.0,0.0,1.0,4.m4v,5.0
2024-02-27 14:37:59.358848,1709041079.358848,-1000.0,-1000.0,-46.875,-1000.0,-1.0,1.0,0.0,1.0,4.m4v,5.0
2024-02-27 14:37:59.362754,1709041079.3627536,-1000.0,-1000.0,-33.69140625,-1000.0,-1.0,1.0,0.0,1.0,4.m4v,5.0
2024-02-27 14:37:59.362754,1709041079.3627536,-1000.0,-1000.0,-33.69140625,-1000.0,-1.0,1.0,0.0,1.0,4.m4v,5.0
2024-02-27 14:37:59.366659,1709041079.3666594,-1000.0,-1000.0,-35.15625,-1000.0,-1.0,1.0,0.0,1.0,4.m4v,5.0
2024-02-27 14:37:59.366659,1709041079.3666594,-1000.0,-1000.0,-35.15625,-1000.0,-1.0,1.0,0.0,1.0,4.m4v,5.0
2024-02-27 14:37:59.370565,1709041079.370565,-1000.0,-1000.0,-41.015625,-1000.0,-1.0,1.0,0.0,1.0,4.m4v,5.0
2024-02-27 14:37:59.370565,1709041079.370565,-1000.0,-1000.0,-41.015625,-1000.0,-1.0,1.0,0.0,1.0,4.m4v,5.0
2024-02-27 14:37:59.374471,1709041079.3744707,-1000.0,-1000.0,-42.96875,-1000.0,-1.0,1.0,0.0,1.0,4.m4v,5.0
2024-02-27 14:37:59.374471,1709041079.3744707,-1000.0,-1000.0,-42.96875,-1000.0,-1.0,1.0,0.0,1.0,4.m4v,5.0
2024-02-27 14:37:59.378376,1709041079.3783765,-1000.0,-1000.0,-41.50390625,-1000.0,-1.0,1.0,0.0,1.0,4.m4v,5.0
2024-02-27 14:37:59.378376,1709041079.3783765,-1000.0,-1000.0,-41.50390625,-1000.0,-1.0,1.0,0.0,1.0,4.m4v,5.0
2024-02-27 14:37:59.382282,1709041079.3822825,-1000.0,-1000.0,-24.90234375,-1000.0,-1.0,1.0,0.0,1.0,4.m4v,5.0
2024-02-27 14:37:59.386188,1709041079.3861878,-1000.0,-1000.0,-31.73828125,-1000.0,-1.0,1.0,0.0,1.0,4.m4v,5.0
2024-02-27 14:37:59.390094,1709041079.3900936,-1000.0,-1000.0,-42.96875,-1000.0,-1.0,1.0,0.0,1.0,4.m4v,5.0
2024-02-27 14:37:59.393999,1709041079.393999,-1000.0,-1000.0,-35.64453125,-1000.0,-1.0,1.0,0.0,1.0,4.m4v,5.0
2024-02-27 14:37:59.397905,1709041079.397905,-992.1875,-999.51171875,-28.3203125,-977.5390625,-1.0,1.0,0.0,1.0,4.m4v,5.0
2024-02-27 14:37:59.401811,1709041079.4018106,-955.078125,-944.3359375,-28.80859375,-980.46875,-1.0,1.0,0.0,1.0,4.m4v,5.0
2024-02-27 14:37:59.405721,1709041079.4057207,-1000.0,-1000.0,-37.59765625,-1000.0,-1.0,1.0,0.0,1.0,4.m4v,5.0
2024-02-27 14:37:59.409626,1709041079.4096265,-116.69921875,-250.0,-38.0859375,95.21484375,-1.0,1.0,0.0,1.0,4.m4v,5.0
2024-02-27 14:37:59.413532,1709041079.4135325,999.51171875,996.58203125,-29.296875,999.51171875,-1.0,1.0,0.0,1.0,4.m4v,5.0
2024-02-27 14:37:59.417438,1709041079.4174378,945.80078125,966.30859375,-32.71484375,924.8046875,-1.0,1.0,0.0,1.0,4.m4v,5.0
2024-02-27 14:37:59.421344,1709041079.4213436,947.75390625,938.96484375,-44.921875,961.9140625,-1.0,1.0,0.0,1.0,4.m4v,5.0
2024-02-27 14:37:59.425249,1709041079.425249,974.609375,978.515625,-33.69140625,973.14453125,-1.0,1.0,0.0,1.0,4.m4v,5.0
2024-02-27 14:37:59.546340,1709041079.5463395,-1000.0,-1000.0,-47.36328125,-970.21484375,-1.0,1.0,0.0,1.0,4.m4v,5.0
2024-02-27 14:37:59.550245,1709041079.5502453,318.84765625,288.57421875,-41.50390625,423.33984375,-1.0,1.0,0.0,1.0,4.m4v,5.0
2024-02-27 14:37:59.554151,1709041079.554151,999.51171875,999.51171875,-30.76171875,999.51171875,-1.0,1.0,0.0,1.0,4.m4v,5.0
2024-02-27 14:37:59.558057,1709041079.5580568,898.92578125,901.3671875,-31.73828125,897.4609375,-1.0,1.0,0.0,1.0,4.m4v,5.0
2024-02-27 14:37:59.561962,1709041079.5619624,976.5625,975.5859375,-32.71484375,980.95703125,-1.0,1.0,0.0,1.0,4.m4v,5.0
2024-02-27 14:37:59.565868,1709041079.565868,969.23828125,969.7265625,-29.78515625,969.7265625,-1.0,1.0,0.0,1.0,4.m4v,5.0
2024-02-27 14:37:59.565868,1709041079.565868,969.23828125,969.7265625,-29.78515625,969.7265625,-1.0,1.0,0.0,1.0,4.m4v,5.0
2024-02-27 14:37:59.569774,1709041079.569774,969.23828125,969.7265625,-38.0859375,969.7265625,-1.0,1.0,0.0,1.0,4.m4v,5.0
2024-02-27 14:37:59.573679,1709041079.5736794,969.23828125,969.7265625,-43.45703125,969.7265625,-1.0,1.0,0.0,1.0,4.m4v,5.0
2024-02-27 14:37:59.573679,1709041079.5736794,969.23828125,969.7265625,-43.45703125,969.7265625,-1.0,1.0,0.0,1.0,4.m4v,5.0
2024-02-27 14:37:59.577585,1709041079.5775852,969.23828125,969.7265625,-42.48046875,969.7265625,-1.0,1.0,0.0,1.0,4.m4v,5.0
2024-02-27 14:37:59.577585,1709041079.5775852,969.23828125,969.7265625,-42.48046875,969.7265625,-1.0,1.0,0.0,1.0,4.m4v,5.0
2024-02-27 14:37:59.581491,1709041079.581491,969.23828125,969.7265625,-37.59765625,969.7265625,-1.0,1.0,0.0,1.0,4.m4v,5.0
2024-02-27 14:37:59.585397,1709041079.5853968,969.23828125,969.7265625,-25.87890625,969.7265625,-1.0,1.0,0.0,1.0,4.m4v,5.0
2024-02-27 14:37:59.585397,1709041079.5853968,969.23828125,969.7265625,-25.87890625,969.7265625,-1.0,1.0,0.0,1.0,4.m4v,5.0
2024-02-27 14:37:59.589302,1709041079.5893023,969.23828125,969.7265625,-28.80859375,969.7265625,-1.0,1.0,0.0,1.0,4.m4v,5.0
2024-02-27 14:37:59.589302,1709041079.5893023,969.23828125,969.7265625,-28.80859375,969.7265625,-1.0,1.0,0.0,1.0,4.m4v,5.0
2024-02-27 14:37:59.593213,1709041079.593213,969.23828125,969.7265625,-33.69140625,969.7265625,-1.0,1.0,0.0,1.0,4.m4v,5.0
2024-02-27 14:37:59.597119,1709041079.5971189,969.23828125,969.7265625,-35.15625,969.7265625,-1.0,1.0,0.0,1.0,4.m4v,5.0
2024-02-27 14:37:59.597119,1709041079.5971189,969.23828125,969.7265625,-35.15625,969.7265625,-1.0,1.0,0.0,1.0,4.m4v,5.0
2024-02-27 14:37:59.601024,1709041079.6010244,968.75,969.7265625,-40.0390625,969.7265625,-1.0,1.0,0.0,1.0,4.m4v,5.0
2024-02-27 14:37:59.601024,1709041079.6010244,968.75,969.7265625,-40.0390625,969.7265625,-1.0,1.0,0.0,1.0,4.m4v,5.0
2024-02-27 14:37:59.604930,1709041079.6049302,974.12109375,975.09765625,-31.25,978.02734375,-1.0,1.0,0.0,1.0,4.m4v,5.0
2024-02-27 14:37:59.608836,1709041079.608836,951.171875,949.70703125,-26.85546875,939.453125,-1.0,1.0,0.0,1.0,4.m4v,5.0
2024-02-27 14:37:59.608836,1709041079.608836,951.171875,949.70703125,-26.85546875,939.453125,-1.0,1.0,0.0,1.0,4.m4v,5.0
2024-02-27 14:37:59.612742,1709041079.6127417,938.4765625,942.87109375,-38.0859375,962.890625,-1.0,1.0,0.0,1.0,4.m4v,5.0
2024-02-27 14:37:59.612742,1709041079.6127417,938.4765625,942.87109375,-38.0859375,962.890625,-1.0,1.0,0.0,1.0,4.m4v,5.0
2024-02-27 14:37:59.616647,1709041079.6166472,999.51171875,999.51171875,-38.0859375,999.51171875,-1.0,1.0,0.0,1.0,4.m4v,5.0
2024-02-27 14:37:59.620553,1709041079.620553,-72.75390625,-108.88671875,-33.203125,-237.3046875,-1.0,1.0,0.0,1.0,4.m4v,5.0
2024-02-27 14:37:59.620553,1709041079.620553,-72.75390625,-108.88671875,-33.203125,-237.3046875,-1.0,1.0,0.0,1.0,4.m4v,5.0
2024-02-27 14:37:59.624459,1709041079.6244588,-1000.0,-1000.0,-36.62109375,-1000.0,-1.0,1.0,0.0,1.0,4.m4v,5.0
2024-02-27 14:37:59.624459,1709041079.6244588,-1000.0,-1000.0,-36.62109375,-1000.0,-1.0,1.0,0.0,1.0,4.m4v,5.0
2024-02-27 14:37:59.628365,1709041079.6283646,-956.0546875,-951.66015625,-32.71484375,-943.359375,-1.0,1.0,0.0,1.0,4.m4v,5.0
2024-02-27 14:37:59.632270,1709041079.63227,-990.72265625,-993.1640625,-24.90234375,-1000.0,-1.0,1.0,0.0,1.0,4.m4v,5.0
2024-02-27 14:37:59.632270,1709041079.63227,-990.72265625,-993.1640625,-24.90234375,-1000.0,-1.0,1.0,0.0,1.0,4.m4v,5.0
2024-02-27 14:37:59.636176,1709041079.636176,-1000.0,-1000.0,-28.3203125,-1000.0,-1.0,1.0,0.0,1.0,4.m4v,5.0
2024-02-27 14:37:59.636176,1709041079.636176,-1000.0,-1000.0,-28.3203125,-1000.0,-1.0,1.0,0.0,1.0,4.m4v,5.0
2024-02-27 14:37:59.640086,1709041079.6400864,-1000.0,-1000.0,-35.64453125,-1000.0,-1.0,1.0,0.0,1.0,4.m4v,5.0
2024-02-27 14:37:59.643992,1709041079.6439922,-1000.0,-1000.0,-50.78125,-1000.0,-1.0,1.0,0.0,1.0,4.m4v,5.0
2024-02-27 14:37:59.643992,1709041079.6439922,-1000.0,-1000.0,-50.78125,-1000.0,-1.0,1.0,0.0,1.0,4.m4v,5.0
2024-02-27 14:37:59.647898,1709041079.6478975,-1000.0,-1000.0,-53.7109375,-1000.0,-1.0,1.0,0.0,1.0,4.m4v,5.0
2024-02-27 14:37:59.647898,1709041079.6478975,-1000.0,-1000.0,-53.7109375,-1000.0,-1.0,1.0,0.0,1.0,4.m4v,5.0
2024-02-27 14:37:59.655709,1709041079.6557093,-1000.0,-1000.0,-37.109375,-1000.0,-1.0,1.0,0.0,1.0,4.m4v,5.0
2024-02-27 14:37:59.655709,1709041079.6557093,-1000.0,-1000.0,-37.109375,-1000.0,-1.0,1.0,0.0,1.0,4.m4v,5.0
2024-02-27 14:37:59.659615,1709041079.659615,-1000.0,-1000.0,-38.0859375,-1000.0,-1.0,1.0,0.0,1.0,4.m4v,5.0
2024-02-27 14:37:59.659615,1709041079.659615,-1000.0,-1000.0,-38.0859375,-1000.0,-1.0,1.0,0.0,1.0,4.m4v,5.0
2024-02-27 14:37:59.667426,1709041079.6674263,-1000.0,-1000.0,-29.296875,-1000.0,-1.0,1.0,0.0,1.0,4.m4v,5.0
2024-02-27 14:37:59.667426,1709041079.6674263,-1000.0,-1000.0,-29.296875,-1000.0,-1.0,1.0,0.0,1.0,4.m4v,5.0
2024-02-27 14:37:59.671332,1709041079.671332,-1000.0,-1000.0,-23.92578125,-1000.0,-1.0,1.0,0.0,1.0,4.m4v,5.0
2024-02-27 14:37:59.671332,1709041079.671332,-1000.0,-1000.0,-23.92578125,-1000.0,-1.0,1.0,0.0,1.0,4.m4v,5.0
2024-02-27 14:37:59.679143,1709041079.6791434,-941.89453125,-936.5234375,-40.0390625,-938.4765625,-1.0,1.0,0.0,1.0,4.m4v,5.0
2024-02-27 14:37:59.679143,1709041079.6791434,-941.89453125,-936.5234375,-40.0390625,-938.4765625,-1.0,1.0,0.0,1.0,4.m4v,5.0
2024-02-27 14:37:59.683049,1709041079.6830492,-1000.0,-1000.0,-48.33984375,-1000.0,-1.0,1.0,0.0,1.0,4.m4v,5.0
2024-02-27 14:37:59.683049,1709041079.6830492,-1000.0,-1000.0,-48.33984375,-1000.0,-1.0,1.0,0.0,1.0,4.m4v,5.0
2024-02-27 14:37:59.690866,1709041079.6908655,575.68359375,649.4140625,-35.64453125,625.9765625,-1.0,1.0,0.0,1.0,4.m4v,5.0
2024-02-27 14:37:59.690866,1709041079.6908655,575.68359375,649.4140625,-35.64453125,625.9765625,-1.0,1.0,0.0,1.0,4.m4v,5.0
2024-02-27 14:37:59.694771,1709041079.6947713,999.51171875,999.51171875,-30.76171875,999.51171875,-1.0,1.0,0.0,1.0,4.m4v,5.0
2024-02-27 14:37:59.694771,1709041079.6947713,999.51171875,999.51171875,-30.76171875,999.51171875,-1.0,1.0,0.0,1.0,4.m4v,5.0
2024-02-27 14:37:59.698677,1709041079.6986768,894.53125,897.94921875,-30.2734375,897.4609375,-1.0,1.0,0.0,1.0,4.m4v,5.0
2024-02-27 14:37:59.702583,1709041079.7025826,985.3515625,986.81640625,-40.52734375,986.328125,-1.0,1.0,0.0,1.0,4.m4v,5.0
2024-02-27 14:37:59.702583,1709041079.7025826,985.3515625,986.81640625,-40.52734375,986.328125,-1.0,1.0,0.0,1.0,4.m4v,5.0
2024-02-27 14:37:59.710394,1709041079.710394,969.23828125,969.7265625,-30.2734375,969.7265625,-1.0,1.0,0.0,1.0,4.m4v,5.0
2024-02-27 14:37:59.722111,1709041079.7221112,969.23828125,969.7265625,-41.50390625,969.7265625,-1.0,1.0,0.0,1.0,4.m4v,5.0
2024-02-27 14:37:59.733833,1709041079.733833,969.23828125,969.7265625,-30.2734375,969.7265625,-1.0,1.0,0.0,1.0,4.m4v,5.0
2024-02-27 14:37:59.745550,1709041079.7455502,985.3515625,986.328125,-37.59765625,986.328125,-1.0,1.0,0.0,1.0,4.m4v,5.0
2024-02-27 14:37:59.757267,1709041079.7572672,859.86328125,855.46875,-47.36328125,824.21875,-1.0,1.0,0.0,1.0,4.m4v,5.0
2024-02-27 14:37:59.768985,1709041079.7689846,-925.78125,-925.78125,-22.94921875,-927.24609375,-1.0,1.0,0.0,1.0,4.m4v,5.0
2024-02-27 14:37:59.780706,1709041079.780706,-1000.0,-1000.0,-48.828125,-1000.0,-1.0,1.0,0.0,1.0,4.m4v,5.0
2024-02-27 14:37:59.792423,1709041079.792423,-1000.0,-1000.0,-34.66796875,-1000.0,-1.0,1.0,0.0,1.0,4.m4v,5.0
2024-02-27 14:37:59.804140,1709041079.80414,-995.60546875,-987.3046875,-32.71484375,-1000.0,-1.0,1.0,0.0,1.0,4.m4v,5.0
2024-02-27 14:37:59.815857,1709041079.8158572,999.51171875,999.51171875,-24.90234375,999.51171875,-1.0,1.0,0.0,1.0,4.m4v,5.0
2024-02-27 14:37:59.823669,1709041079.8236687,973.6328125,971.19140625,-46.38671875,980.95703125,-1.0,1.0,0.0,1.0,4.m4v,5.0
2024-02-27 14:37:59.835390,1709041079.83539,969.23828125,969.7265625,-36.62109375,969.7265625,-1.0,1.0,0.0,1.0,4.m4v,5.0
2024-02-27 14:37:59.843201,1709041079.8432014,969.23828125,969.7265625,-30.2734375,969.7265625,-1.0,1.0,0.0,1.0,4.m4v,5.0
2024-02-27 14:37:59.854918,1709041079.8549185,969.23828125,969.7265625,-35.15625,969.7265625,-1.0,1.0,0.0,1.0,4.m4v,5.0
2024-02-27 14:37:59.866636,1709041079.8666356,986.328125,987.3046875,-51.26953125,982.91015625,-1.0,1.0,0.0,1.0,4.m4v,5.0
2024-02-27 14:37:59.874451,1709041079.8744512,999.51171875,999.51171875,-39.55078125,999.51171875,-1.0,1.0,0.0,1.0,4.m4v,5.0
2024-02-27 14:37:59.886168,1709041079.8861682,-1000.0,-1000.0,-33.69140625,-1000.0,-1.0,1.0,0.0,1.0,4.m4v,5.0
2024-02-27 14:37:59.897885,1709041079.897885,-1000.0,-1000.0,-42.48046875,-1000.0,-1.0,1.0,0.0,1.0,4.m4v,5.0
2024-02-27 14:37:59.905697,1709041079.9056969,-1000.0,-1000.0,-38.0859375,-1000.0,-1.0,1.0,0.0,1.0,4.m4v,5.0
2024-02-27 14:37:59.917414,1709041079.917414,-1000.0,-1000.0,-49.31640625,-1000.0,-1.0,1.0,0.0,1.0,4.m4v,5.0
2024-02-27 14:37:59.929138,1709041079.9291377,-917.48046875,-924.31640625,-37.109375,-851.5625,-1.0,1.0,0.0,1.0,4.m4v,5.0
2024-02-27 14:37:59.936949,1709041079.9369493,999.51171875,999.51171875,-41.015625,999.51171875,-1.0,1.0,0.0,1.0,4.m4v,5.0
2024-02-27 14:37:59.948666,1709041079.9486663,969.23828125,969.7265625,-49.31640625,969.7265625,-1.0,1.0,0.0,1.0,4.m4v,5.0
2024-02-27 14:37:59.956478,1709041079.9564776,969.23828125,970.21484375,-33.203125,969.7265625,-1.0,1.0,0.0,1.0,4.m4v,5.0
2024-02-27 14:37:59.960383,1709041079.9603834,969.23828125,969.7265625,-34.1796875,969.7265625,-1.0,1.0,0.0,1.0,4.m4v,5.0
2024-02-27 14:37:59.964289,1709041079.9642892,969.23828125,969.7265625,-39.55078125,969.7265625,-1.0,1.0,0.0,1.0,4.m4v,5.0
2024-02-27 14:37:59.968200,1709041079.9682,969.23828125,969.7265625,-37.109375,969.7265625,-1.0,1.0,0.0,1.0,4.m4v,5.0
2024-02-27 14:37:59.972106,1709041079.9721055,969.23828125,969.7265625,-37.109375,969.7265625,-1.0,1.0,0.0,1.0,4.m4v,5.0
2024-02-27 14:37:59.976011,1709041079.9760113,969.23828125,970.21484375,-42.96875,969.7265625,-1.0,1.0,0.0,1.0,4.m4v,5.0
2024-02-27 14:37:59.979917,1709041079.979917,969.23828125,969.7265625,-41.50390625,969.7265625,-1.0,1.0,0.0,1.0,4.m4v,5.0
2024-02-27 14:37:59.983823,1709041079.9838228,969.7265625,970.21484375,-34.66796875,972.65625,-1.0,1.0,0.0,1.0,4.m4v,5.0
2024-02-27 14:38:00.061946,1709041080.0619464,930.17578125,965.33203125,-25.87890625,925.29296875,-1.0,1.0,0.0,1.0,4.m4v,5.0
2024-02-27 14:38:00.065852,1709041080.0658522,957.03125,939.453125,-29.78515625,967.28515625,-1.0,1.0,0.0,1.0,4.m4v,5.0
2024-02-27 14:38:00.069758,1709041080.069758,972.65625,978.02734375,-31.25,972.16796875,-1.0,1.0,0.0,1.0,4.m4v,5.0
2024-02-27 14:38:00.073663,1709041080.0736637,969.23828125,969.7265625,-36.62109375,969.7265625,-1.0,1.0,0.0,1.0,4.m4v,5.0
2024-02-27 14:38:00.077569,1709041080.0775692,968.75,969.7265625,-38.57421875,969.7265625,-1.0,1.0,0.0,1.0,4.m4v,5.0
2024-02-27 14:38:00.081475,1709041080.081475,969.23828125,969.7265625,-40.0390625,969.7265625,-1.0,1.0,0.0,1.0,4.m4v,5.0
2024-02-27 14:38:00.085381,1709041080.0853808,969.23828125,969.7265625,-40.52734375,969.7265625,-1.0,1.0,0.0,1.0,4.m4v,5.0
2024-02-27 14:38:00.089286,1709041080.0892863,969.23828125,969.7265625,-35.15625,969.7265625,-1.0,1.0,0.0,1.0,4.m4v,5.0
2024-02-27 14:38:00.093192,1709041080.093192,969.23828125,969.7265625,-27.34375,969.7265625,-1.0,1.0,0.0,1.0,4.m4v,5.0
2024-02-27 14:38:00.097098,1709041080.097098,969.23828125,969.7265625,-30.76171875,969.7265625,-1.0,1.0,0.0,1.0,4.m4v,5.0
2024-02-27 14:38:00.101004,1709041080.1010036,969.23828125,969.7265625,-35.15625,969.7265625,-1.0,1.0,0.0,1.0,4.m4v,5.0
2024-02-27 14:38:00.104909,1709041080.1049092,976.07421875,976.07421875,-27.83203125,980.46875,-1.0,1.0,0.0,1.0,4.m4v,5.0
2024-02-27 14:38:00.108820,1709041080.1088195,942.3828125,945.3125,-29.296875,931.15234375,-1.0,1.0,0.0,1.0,4.m4v,5.0
2024-02-27 14:38:00.112725,1709041080.1127253,953.125,949.21875,-34.66796875,979.00390625,-1.0,1.0,0.0,1.0,4.m4v,5.0
2024-02-27 14:38:00.116631,1709041080.116631,999.51171875,999.51171875,-30.2734375,977.05078125,-1.0,1.0,0.0,1.0,4.m4v,5.0
2024-02-27 14:38:00.120537,1709041080.1205368,-202.63671875,-169.43359375,-31.25,-358.3984375,-1.0,1.0,0.0,1.0,4.m4v,5.0
2024-02-27 14:38:00.124443,1709041080.1244426,-1000.0,-1000.0,-37.59765625,-1000.0,-1.0,1.0,0.0,1.0,4.m4v,5.0
2024-02-27 14:38:00.128348,1709041080.128348,-941.40625,-944.82421875,-40.0390625,-932.6171875,-1.0,1.0,0.0,1.0,4.m4v,5.0
2024-02-27 14:38:00.132254,1709041080.132254,-999.0234375,-997.0703125,-40.0390625,-1000.0,-1.0,1.0,0.0,1.0,4.m4v,5.0
2024-02-27 14:38:00.136160,1709041080.1361597,-1000.0,-1000.0,-44.921875,-1000.0,-1.0,1.0,0.0,1.0,4.m4v,5.0
2024-02-27 14:38:00.140065,1709041080.1400654,-1000.0,-1000.0,-35.15625,-1000.0,-1.0,1.0,0.0,1.0,4.m4v,5.0
2024-02-27 14:38:00.143971,1709041080.143971,-1000.0,-1000.0,-19.53125,-1000.0,-1.0,1.0,0.0,1.0,4.m4v,5.0
2024-02-27 14:38:00.147877,1709041080.1478767,-1000.0,-1000.0,-19.04296875,-1000.0,-1.0,1.0,0.0,1.0,4.m4v,5.0
2024-02-27 14:38:00.151783,1709041080.1517825,-1000.0,-1000.0,-13.671875,-1000.0,-1.0,1.0,0.0,1.0,4.m4v,5.0
2024-02-27 14:38:00.155692,1709041080.1556923,-1000.0,-1000.0,-11.23046875,-1000.0,-1.0,1.0,0.0,1.0,4.m4v,5.0
2024-02-27 14:38:00.159598,1709041080.159598,-942.3828125,-939.94140625,-19.04296875,-942.3828125,-1.0,1.0,0.0,1.0,4.m4v,5.0
2024-02-27 14:38:00.163504,1709041080.163504,-1000.0,-1000.0,-27.34375,-1000.0,-1.0,1.0,0.0,1.0,4.m4v,5.0
2024-02-27 14:38:00.167410,1709041080.1674097,-891.11328125,-859.86328125,-43.9453125,-887.6953125,-1.0,1.0,0.0,1.0,4.m4v,5.0
2024-02-27 14:38:00.171315,1709041080.1713152,565.91796875,604.00390625,-53.22265625,571.2890625,-1.0,1.0,0.0,1.0,4.m4v,5.0
2024-02-27 14:38:00.175221,1709041080.175221,999.51171875,999.51171875,-42.96875,999.51171875,-1.0,1.0,0.0,1.0,4.m4v,5.0
2024-02-27 14:38:00.179127,1709041080.1791267,894.53125,896.484375,-41.50390625,895.01953125,-1.0,1.0,0.0,1.0,4.m4v,5.0
2024-02-27 14:38:00.183033,1709041080.1830325,984.86328125,986.328125,-36.1328125,985.83984375,-1.0,1.0,0.0,1.0,4.m4v,5.0
2024-02-27 14:38:00.186938,1709041080.186938,969.23828125,969.7265625,-30.2734375,969.7265625,-1.0,1.0,0.0,1.0,4.m4v,5.0
2024-02-27 14:38:00.190844,1709041080.1908438,969.23828125,969.7265625,-39.0625,969.7265625,-1.0,1.0,0.0,1.0,4.m4v,5.0
2024-02-27 14:38:00.194750,1709041080.1947496,968.75,969.7265625,-36.62109375,969.7265625,-1.0,1.0,0.0,1.0,4.m4v,5.0
2024-02-27 14:38:00.198655,1709041080.1986554,969.23828125,969.7265625,-26.85546875,969.7265625,-1.0,1.0,0.0,1.0,4.m4v,5.0
2024-02-27 14:38:00.202565,1709041080.2025652,969.23828125,969.7265625,-26.3671875,969.7265625,-1.0,1.0,0.0,1.0,4.m4v,5.0
2024-02-27 14:38:00.206471,1709041080.2064707,975.5859375,972.65625,-36.62109375,981.93359375,-1.0,1.0,0.0,1.0,4.m4v,5.0
2024-02-27 14:38:00.210377,1709041080.2103765,944.3359375,962.40234375,-41.015625,925.29296875,-1.0,1.0,0.0,1.0,4.m4v,5.0
2024-02-27 14:38:00.214282,1709041080.2142825,949.70703125,923.33984375,-35.64453125,992.67578125,-1.0,1.0,0.0,1.0,4.m4v,5.0
2024-02-27 14:38:00.218188,1709041080.2181878,999.51171875,999.51171875,-34.66796875,940.4296875,-1.0,1.0,0.0,1.0,4.m4v,5.0
2024-02-27 14:38:00.222094,1709041080.2220936,-172.36328125,101.07421875,-40.0390625,-429.6875,-1.0,1.0,0.0,1.0,4.m4v,5.0
2024-02-27 14:38:00.225999,1709041080.2259994,-1000.0,-1000.0,-43.9453125,-1000.0,-1.0,1.0,0.0,1.0,4.m4v,5.0
2024-02-27 14:38:00.229905,1709041080.2299051,-945.3125,-979.4921875,-40.0390625,-930.6640625,-1.0,1.0,0.0,1.0,4.m4v,5.0
2024-02-27 14:38:00.233811,1709041080.233811,-997.0703125,-978.02734375,-51.7578125,-1000.0,-1.0,1.0,0.0,1.0,4.m4v,5.0
2024-02-27 14:38:00.237716,1709041080.2377164,-1000.0,-1000.0,-55.6640625,-1000.0,-1.0,1.0,0.0,1.0,4.m4v,5.0
2024-02-27 14:38:00.241622,1709041080.2416222,-1000.0,-1000.0,-36.1328125,-1000.0,-1.0,1.0,0.0,1.0,4.m4v,5.0
2024-02-27 14:38:00.245528,1709041080.245528,-1000.0,-1000.0,-33.203125,-1000.0,-1.0,1.0,0.0,1.0,4.m4v,5.0
2024-02-27 14:38:00.249438,1709041080.2494376,-1000.0,-1000.0,-42.48046875,-1000.0,-1.0,1.0,0.0,1.0,4.m4v,5.0
2024-02-27 14:38:00.253343,1709041080.253343,-1000.0,-1000.0,-29.78515625,-1000.0,-1.0,1.0,0.0,1.0,4.m4v,5.0
2024-02-27 14:38:00.257249,1709041080.2572489,-1000.0,-1000.0,-29.296875,-1000.0,-1.0,1.0,0.0,1.0,4.m4v,5.0
2024-02-27 14:38:00.261155,1709041080.261155,-941.40625,-931.640625,-41.015625,-938.96484375,-1.0,1.0,0.0,1.0,4.m4v,5.0
2024-02-27 14:38:00.265060,1709041080.2650604,-1000.0,-1000.0,-44.921875,-1000.0,-1.0,1.0,0.0,1.0,4.m4v,5.0
2024-02-27 14:38:00.268966,1709041080.2689662,-879.8828125,-713.37890625,-37.109375,-846.19140625,-1.0,1.0,0.0,1.0,4.m4v,5.0
2024-02-27 14:38:00.272872,1709041080.2728715,581.0546875,752.9296875,-40.52734375,619.62890625,-1.0,1.0,0.0,1.0,4.m4v,5.0
2024-02-27 14:38:00.276778,1709041080.2767775,999.51171875,999.51171875,-40.52734375,999.51171875,-1.0,1.0,0.0,1.0,4.m4v,5.0
2024-02-27 14:38:00.280683,1709041080.2806833,894.53125,904.296875,-30.76171875,896.97265625,-1.0,1.0,0.0,1.0,4.m4v,5.0
2024-02-27 14:38:00.284589,1709041080.284589,985.3515625,986.81640625,-26.3671875,986.328125,-1.0,1.0,0.0,1.0,4.m4v,5.0
2024-02-27 14:38:00.288495,1709041080.2884946,968.75,969.7265625,-28.3203125,969.7265625,-1.0,1.0,0.0,1.0,4.m4v,5.0
2024-02-27 14:38:00.292400,1709041080.2924004,969.23828125,969.7265625,-37.59765625,969.7265625,-1.0,1.0,0.0,1.0,4.m4v,5.0
2024-02-27 14:38:00.296311,1709041080.2963114,969.23828125,969.7265625,-43.45703125,969.7265625,-1.0,1.0,0.0,1.0,4.m4v,5.0
2024-02-27 14:38:00.300217,1709041080.300217,969.23828125,969.7265625,-40.52734375,969.7265625,-1.0,1.0,0.0,1.0,4.m4v,5.0
2024-02-27 14:38:00.304123,1709041080.3041227,969.23828125,969.7265625,-36.62109375,969.7265625,-1.0,1.0,0.0,1.0,4.m4v,5.0
2024-02-27 14:38:00.308028,1709041080.3080285,969.23828125,969.7265625,-34.66796875,969.7265625,-1.0,1.0,0.0,1.0,4.m4v,5.0
2024-02-27 14:38:00.311934,1709041080.3119342,969.23828125,969.7265625,-26.85546875,969.7265625,-1.0,1.0,0.0,1.0,4.m4v,5.0
2024-02-27 14:38:00.315840,1709041080.3158398,969.23828125,969.7265625,-29.78515625,969.7265625,-1.0,1.0,0.0,1.0,4.m4v,5.0
2024-02-27 14:38:00.319746,1709041080.3197455,969.23828125,969.7265625,-41.015625,970.21484375,-1.0,1.0,0.0,1.0,4.m4v,5.0
2024-02-27 14:38:00.323651,1709041080.3236513,975.09765625,976.07421875,-34.66796875,979.00390625,-1.0,1.0,0.0,1.0,4.m4v,5.0
2024-02-27 14:38:00.327557,1709041080.327557,946.2890625,945.3125,-38.0859375,936.03515625,-1.0,1.0,0.0,1.0,4.m4v,5.0
2024-02-27 14:38:00.331463,1709041080.3314626,946.2890625,950.1953125,-42.96875,969.23828125,-1.0,1.0,0.0,1.0,4.m4v,5.0
2024-02-27 14:38:00.335368,1709041080.3353684,999.51171875,999.51171875,-39.0625,999.0234375,-1.0,1.0,0.0,1.0,4.m4v,5.0
2024-02-27 14:38:00.339274,1709041080.3392742,-147.4609375,-172.8515625,-35.64453125,-287.59765625,-1.0,1.0,0.0,1.0,4.m4v,5.0
2024-02-27 14:38:00.343185,1709041080.343185,-1000.0,-1000.0,-28.3203125,-1000.0,-1.0,1.0,0.0,1.0,4.m4v,5.0
2024-02-27 14:38:00.347090,1709041080.3470905,-947.265625,-944.82421875,-25.390625,-937.98828125,-1.0,1.0,0.0,1.0,4.m4v,5.0
2024-02-27 14:38:00.350996,1709041080.3509965,-995.60546875,-997.55859375,-25.87890625,-1000.0,-1.0,1.0,0.0,1.0,4.m4v,5.0
2024-02-27 14:38:00.354902,1709041080.354902,-1000.0,-1000.0,-36.1328125,-1000.0,-1.0,1.0,0.0,1.0,4.m4v,5.0
2024-02-27 14:38:00.358808,1709041080.3588078,-1000.0,-1000.0,-34.66796875,-1000.0,-1.0,1.0,0.0,1.0,4.m4v,5.0
2024-02-27 14:38:00.362713,1709041080.362713,-1000.0,-1000.0,-31.25,-1000.0,-1.0,1.0,0.0,1.0,4.m4v,5.0
2024-02-27 14:38:00.366619,1709041080.366619,-1000.0,-1000.0,-35.64453125,-1000.0,-1.0,1.0,0.0,1.0,4.m4v,5.0
2024-02-27 14:38:00.370525,1709041080.370525,-1000.0,-1000.0,-39.0625,-1000.0,-1.0,1.0,0.0,1.0,4.m4v,5.0
2024-02-27 14:38:00.374431,1709041080.374431,-1000.0,-1000.0,-39.0625,-1000.0,-1.0,1.0,0.0,1.0,4.m4v,5.0
2024-02-27 14:38:00.378336,1709041080.3783362,-1000.0,-1000.0,-36.62109375,-1000.0,-1.0,1.0,0.0,1.0,4.m4v,5.0
2024-02-27 14:38:00.382242,1709041080.382242,-1000.0,-1000.0,-38.0859375,-1000.0,-1.0,1.0,0.0,1.0,4.m4v,5.0
2024-02-27 14:38:00.386148,1709041080.3861475,-1000.0,-1000.0,-36.62109375,-1000.0,-1.0,1.0,0.0,1.0,4.m4v,5.0
2024-02-27 14:38:00.390058,1709041080.3900585,-1000.0,-1000.0,-23.92578125,-1000.0,-1.0,1.0,0.0,1.0,4.m4v,5.0
2024-02-27 14:38:00.393964,1709041080.3939638,-1000.0,-1000.0,-20.5078125,-1000.0,-1.0,1.0,0.0,1.0,4.m4v,5.0
2024-02-27 14:38:00.397870,1709041080.3978696,-969.7265625,-960.44921875,-20.5078125,-963.8671875,-1.0,1.0,0.0,1.0,4.m4v,5.0
2024-02-27 14:38:00.401775,1709041080.4017754,-990.72265625,-1000.0,-18.5546875,-1000.0,-1.0,1.0,0.0,1.0,4.m4v,5.0
2024-02-27 14:38:00.405681,1709041080.4056811,-1000.0,-1000.0,-25.390625,-1000.0,-1.0,1.0,0.0,1.0,4.m4v,5.0
2024-02-27 14:38:00.409587,1709041080.409587,229.4921875,342.28515625,-25.390625,304.19921875,-1.0,1.0,0.0,1.0,4.m4v,5.0
2024-02-27 14:38:00.413492,1709041080.4134924,999.51171875,999.51171875,-17.578125,999.51171875,-1.0,1.0,0.0,1.0,4.m4v,5.0
2024-02-27 14:38:00.417398,1709041080.4173982,903.80859375,898.92578125,-28.3203125,901.3671875,-1.0,1.0,0.0,1.0,4.m4v,5.0
2024-02-27 14:38:00.421304,1709041080.421304,972.16796875,978.02734375,-37.59765625,976.07421875,-1.0,1.0,0.0,1.0,4.m4v,5.0
2024-02-27 14:38:00.425210,1709041080.4252095,969.23828125,969.7265625,-27.83203125,969.7265625,-1.0,1.0,0.0,1.0,4.m4v,5.0
2024-02-27 14:38:00.429115,1709041080.4291153,969.23828125,970.21484375,-24.4140625,969.7265625,-1.0,1.0,0.0,1.0,4.m4v,5.0
2024-02-27 14:38:00.433021,1709041080.433021,968.75,969.7265625,-32.2265625,969.7265625,-1.0,1.0,0.0,1.0,4.m4v,5.0
2024-02-27 14:38:00.436931,1709041080.4369314,968.75,969.7265625,-34.1796875,969.7265625,-1.0,1.0,0.0,1.0,4.m4v,5.0
2024-02-27 14:38:00.440837,1709041080.4408371,969.23828125,969.7265625,-29.296875,969.7265625,-1.0,1.0,0.0,1.0,4.m4v,5.0
2024-02-27 14:38:00.444743,1709041080.444743,969.23828125,969.7265625,-31.25,969.7265625,-1.0,1.0,0.0,1.0,4.m4v,5.0
2024-02-27 14:38:00.448648,1709041080.4486485,969.23828125,969.7265625,-35.15625,969.7265625,-1.0,1.0,0.0,1.0,4.m4v,5.0
2024-02-27 14:38:00.452554,1709041080.4525542,969.23828125,969.7265625,-40.52734375,969.7265625,-1.0,1.0,0.0,1.0,4.m4v,5.0
2024-02-27 14:38:00.456460,1709041080.45646,969.23828125,969.7265625,-43.9453125,969.7265625,-1.0,1.0,0.0,1.0,4.m4v,5.0
2024-02-27 14:38:00.460366,1709041080.4603658,969.23828125,969.7265625,-41.9921875,969.7265625,-1.0,1.0,0.0,1.0,4.m4v,5.0
2024-02-27 14:38:00.464271,1709041080.4642713,977.05078125,979.4921875,-37.59765625,980.95703125,-1.0,1.0,0.0,1.0,4.m4v,5.0
2024-02-27 14:38:00.468177,1709041080.468177,937.98828125,935.546875,-24.90234375,929.19921875,-1.0,1.0,0.0,1.0,4.m4v,5.0
2024-02-27 14:38:00.472083,1709041080.4720829,960.9375,968.26171875,-22.4609375,982.421875,-1.0,1.0,0.0,1.0,4.m4v,5.0
2024-02-27 14:38:00.475989,1709041080.4759886,999.51171875,999.51171875,-33.203125,971.19140625,-1.0,1.0,0.0,1.0,4.m4v,5.0
2024-02-27 14:38:00.479894,1709041080.4798942,-269.53125,-307.6171875,-37.109375,-382.32421875,-1.0,1.0,0.0,1.0,4.m4v,5.0
2024-02-27 14:38:00.483804,1709041080.4838045,-1000.0,-1000.0,-39.55078125,-1000.0,-1.0,1.0,0.0,1.0,4.m4v,5.0
2024-02-27 14:38:00.487710,1709041080.4877102,-934.5703125,-932.6171875,-34.1796875,-930.6640625,-1.0,1.0,0.0,1.0,4.m4v,5.0
2024-02-27 14:38:00.491616,1709041080.4916158,-1000.0,-1000.0,-31.73828125,-1000.0,-1.0,1.0,0.0,1.0,4.m4v,5.0
2024-02-27 14:38:00.495522,1709041080.4955215,-1000.0,-1000.0,-40.52734375,-1000.0,-1.0,1.0,0.0,1.0,4.m4v,5.0
2024-02-27 14:38:00.499427,1709041080.4994273,-1000.0,-1000.0,-33.203125,-1000.0,-1.0,1.0,0.0,1.0,4.m4v,5.0
2024-02-27 14:38:00.503333,1709041080.503333,-1000.0,-1000.0,-19.04296875,-1000.0,-1.0,1.0,0.0,1.0,4.m4v,5.0
2024-02-27 14:38:00.507239,1709041080.5072386,-1000.0,-1000.0,-17.578125,-1000.0,-1.0,1.0,0.0,1.0,4.m4v,5.0
2024-02-27 14:38:00.511144,1709041080.5111444,-1000.0,-1000.0,-17.578125,-1000.0,-1.0,1.0,0.0,1.0,4.m4v,5.0
2024-02-27 14:38:00.515050,1709041080.5150502,-1000.0,-1000.0,-20.01953125,-1000.0,-1.0,1.0,0.0,1.0,4.m4v,5.0
2024-02-27 14:38:00.518956,1709041080.518956,-1000.0,-1000.0,-35.15625,-1000.0,-1.0,1.0,0.0,1.0,4.m4v,5.0
2024-02-27 14:38:00.522861,1709041080.5228617,-1000.0,-1000.0,-52.734375,-1000.0,-1.0,1.0,0.0,1.0,4.m4v,5.0
2024-02-27 14:38:00.526767,1709041080.5267673,-1000.0,-1000.0,-42.96875,-1000.0,-1.0,1.0,0.0,1.0,4.m4v,5.0
2024-02-27 14:38:00.530677,1709041080.5306773,-1000.0,-1000.0,-31.73828125,-1000.0,-1.0,1.0,0.0,1.0,4.m4v,5.0
2024-02-27 14:38:00.534583,1709041080.534583,-1000.0,-1000.0,-32.2265625,-1000.0,-1.0,1.0,0.0,1.0,4.m4v,5.0
2024-02-27 14:38:00.538489,1709041080.5384889,-952.1484375,-945.80078125,-30.76171875,-948.73046875,-1.0,1.0,0.0,1.0,4.m4v,5.0
2024-02-27 14:38:00.542394,1709041080.5423944,-1000.0,-1000.0,-38.57421875,-1000.0,-1.0,1.0,0.0,1.0,4.m4v,5.0
2024-02-27 14:38:00.725981,1709041080.725981,969.23828125,969.7265625,-34.1796875,969.7265625,-1.0,1.0,0.0,1.0,4.m4v,5.0
2024-02-27 14:38:00.725981,1709041080.725981,969.23828125,969.7265625,-34.1796875,969.7265625,-1.0,1.0,0.0,1.0,4.m4v,5.0
2024-02-27 14:38:00.729887,1709041080.7298868,968.75,969.7265625,-35.15625,969.7265625,-1.0,1.0,0.0,1.0,4.m4v,5.0
2024-02-27 14:38:00.729887,1709041080.7298868,968.75,969.7265625,-35.15625,969.7265625,-1.0,1.0,0.0,1.0,4.m4v,5.0
2024-02-27 14:38:00.733793,1709041080.7337923,968.75,969.7265625,-35.64453125,969.7265625,-1.0,1.0,0.0,1.0,4.m4v,5.0
2024-02-27 14:38:00.733793,1709041080.7337923,968.75,969.7265625,-35.64453125,969.7265625,-1.0,1.0,0.0,1.0,4.m4v,5.0
2024-02-27 14:38:00.737698,1709041080.7376983,969.23828125,969.7265625,-37.109375,969.7265625,-1.0,1.0,0.0,1.0,4.m4v,5.0
2024-02-27 14:38:00.737698,1709041080.7376983,969.23828125,969.7265625,-37.109375,969.7265625,-1.0,1.0,0.0,1.0,4.m4v,5.0
2024-02-27 14:38:00.741604,1709041080.741604,968.75,969.7265625,-31.73828125,969.7265625,-1.0,1.0,0.0,1.0,4.m4v,5.0
2024-02-27 14:38:00.741604,1709041080.741604,968.75,969.7265625,-31.73828125,969.7265625,-1.0,1.0,0.0,1.0,4.m4v,5.0
2024-02-27 14:38:00.745510,1709041080.7455096,985.3515625,985.83984375,-36.62109375,986.328125,-1.0,1.0,0.0,1.0,4.m4v,5.0
2024-02-27 14:38:00.745510,1709041080.7455096,985.3515625,985.83984375,-36.62109375,986.328125,-1.0,1.0,0.0,1.0,4.m4v,5.0
2024-02-27 14:38:00.749415,1709041080.7494154,911.62109375,912.109375,-34.66796875,911.1328125,-1.0,1.0,0.0,1.0,4.m4v,5.0
2024-02-27 14:38:00.749415,1709041080.7494154,911.62109375,912.109375,-34.66796875,911.1328125,-1.0,1.0,0.0,1.0,4.m4v,5.0
2024-02-27 14:38:00.753321,1709041080.7533212,999.51171875,999.51171875,-28.80859375,999.51171875,-1.0,1.0,0.0,1.0,4.m4v,5.0
2024-02-27 14:38:00.753321,1709041080.7533212,999.51171875,999.51171875,-28.80859375,999.51171875,-1.0,1.0,0.0,1.0,4.m4v,5.0
2024-02-27 14:38:00.757227,1709041080.7572267,860.3515625,860.3515625,-40.52734375,852.05078125,-1.0,1.0,0.0,1.0,4.m4v,5.0
2024-02-27 14:38:00.757227,1709041080.7572267,860.3515625,860.3515625,-40.52734375,852.05078125,-1.0,1.0,0.0,1.0,4.m4v,5.0
2024-02-27 14:38:00.761132,1709041080.7611325,-596.19140625,-597.16796875,-48.828125,-607.91015625,-1.0,1.0,0.0,1.0,4.m4v,5.0
2024-02-27 14:38:00.761132,1709041080.7611325,-596.19140625,-597.16796875,-48.828125,-607.91015625,-1.0,1.0,0.0,1.0,4.m4v,5.0
2024-02-27 14:38:00.765043,1709041080.7650433,-1000.0,-1000.0,-42.48046875,-1000.0,-1.0,1.0,0.0,1.0,4.m4v,5.0
2024-02-27 14:38:00.765043,1709041080.7650433,-1000.0,-1000.0,-42.48046875,-1000.0,-1.0,1.0,0.0,1.0,4.m4v,5.0
2024-02-27 14:38:00.768949,1709041080.768949,-925.78125,-925.78125,-25.390625,-925.78125,-1.0,1.0,0.0,1.0,4.m4v,5.0
2024-02-27 14:38:00.768949,1709041080.768949,-925.78125,-925.78125,-25.390625,-925.78125,-1.0,1.0,0.0,1.0,4.m4v,5.0
2024-02-27 14:38:00.772855,1709041080.7728546,-1000.0,-1000.0,-25.87890625,-1000.0,-1.0,1.0,0.0,1.0,4.m4v,5.0
2024-02-27 14:38:00.772855,1709041080.7728546,-1000.0,-1000.0,-25.87890625,-1000.0,-1.0,1.0,0.0,1.0,4.m4v,5.0
2024-02-27 14:38:00.776760,1709041080.7767603,-1000.0,-1000.0,-34.66796875,-1000.0,-1.0,1.0,0.0,1.0,4.m4v,5.0
2024-02-27 14:38:00.776760,1709041080.7767603,-1000.0,-1000.0,-34.66796875,-1000.0,-1.0,1.0,0.0,1.0,4.m4v,5.0
2024-02-27 14:38:00.780666,1709041080.780666,-1000.0,-1000.0,-36.62109375,-1000.0,-1.0,1.0,0.0,1.0,4.m4v,5.0
2024-02-27 14:38:00.780666,1709041080.780666,-1000.0,-1000.0,-36.62109375,-1000.0,-1.0,1.0,0.0,1.0,4.m4v,5.0
2024-02-27 14:38:00.784572,1709041080.7845716,-1000.0,-1000.0,-35.64453125,-1000.0,-1.0,1.0,0.0,1.0,4.m4v,5.0
2024-02-27 14:38:00.784572,1709041080.7845716,-1000.0,-1000.0,-35.64453125,-1000.0,-1.0,1.0,0.0,1.0,4.m4v,5.0
2024-02-27 14:38:00.788477,1709041080.7884774,-1000.0,-1000.0,-26.85546875,-1000.0,-1.0,1.0,0.0,1.0,4.m4v,5.0
2024-02-27 14:38:00.788477,1709041080.7884774,-1000.0,-1000.0,-26.85546875,-1000.0,-1.0,1.0,0.0,1.0,4.m4v,5.0
2024-02-27 14:38:00.792383,1709041080.7923832,-1000.0,-1000.0,-29.296875,-1000.0,-1.0,1.0,0.0,1.0,4.m4v,5.0
2024-02-27 14:38:00.792383,1709041080.7923832,-1000.0,-1000.0,-29.296875,-1000.0,-1.0,1.0,0.0,1.0,4.m4v,5.0
2024-02-27 14:38:00.796289,1709041080.796289,-1000.0,-1000.0,-40.52734375,-1000.0,-1.0,1.0,0.0,1.0,4.m4v,5.0
2024-02-27 14:38:00.796289,1709041080.796289,-1000.0,-1000.0,-40.52734375,-1000.0,-1.0,1.0,0.0,1.0,4.m4v,5.0
2024-02-27 14:38:00.800195,1709041080.8001945,-1000.0,-1000.0,-43.9453125,-1000.0,-1.0,1.0,0.0,1.0,4.m4v,5.0
2024-02-27 14:38:00.800195,1709041080.8001945,-1000.0,-1000.0,-43.9453125,-1000.0,-1.0,1.0,0.0,1.0,4.m4v,5.0
2024-02-27 14:38:00.804100,1709041080.8041005,-1000.0,-1000.0,-39.55078125,-1000.0,-1.0,1.0,0.0,1.0,4.m4v,5.0
2024-02-27 14:38:00.804100,1709041080.8041005,-1000.0,-1000.0,-39.55078125,-1000.0,-1.0,1.0,0.0,1.0,4.m4v,5.0
2024-02-27 14:38:00.808006,1709041080.808006,-1000.0,-1000.0,-36.1328125,-1000.0,-1.0,1.0,0.0,1.0,4.m4v,5.0
2024-02-27 14:38:00.808006,1709041080.808006,-1000.0,-1000.0,-36.1328125,-1000.0,-1.0,1.0,0.0,1.0,4.m4v,5.0
2024-02-27 14:38:00.811916,1709041080.8119164,-1000.0,-1000.0,-39.0625,-1000.0,-1.0,1.0,0.0,1.0,4.m4v,5.0
2024-02-27 14:38:00.811916,1709041080.8119164,-1000.0,-1000.0,-39.0625,-1000.0,-1.0,1.0,0.0,1.0,4.m4v,5.0
2024-02-27 14:38:00.815822,1709041080.815822,-1000.0,-1000.0,-47.36328125,-1000.0,-1.0,1.0,0.0,1.0,4.m4v,5.0
2024-02-27 14:38:00.815822,1709041080.815822,-1000.0,-1000.0,-47.36328125,-1000.0,-1.0,1.0,0.0,1.0,4.m4v,5.0
2024-02-27 14:38:00.819728,1709041080.819728,-941.40625,-937.01171875,-45.8984375,-937.98828125,-1.0,1.0,0.0,1.0,4.m4v,5.0
2024-02-27 14:38:00.819728,1709041080.819728,-941.40625,-937.01171875,-45.8984375,-937.98828125,-1.0,1.0,0.0,1.0,4.m4v,5.0
2024-02-27 14:38:00.823633,1709041080.8236334,-1000.0,-1000.0,-27.34375,-1000.0,-1.0,1.0,0.0,1.0,4.m4v,5.0
2024-02-27 14:38:00.823633,1709041080.8236334,-1000.0,-1000.0,-27.34375,-1000.0,-1.0,1.0,0.0,1.0,4.m4v,5.0
2024-02-27 14:38:00.827539,1709041080.8275392,-879.8828125,-828.125,-26.3671875,-831.54296875,-1.0,1.0,0.0,1.0,4.m4v,5.0
2024-02-27 14:38:00.827539,1709041080.8275392,-879.8828125,-828.125,-26.3671875,-831.54296875,-1.0,1.0,0.0,1.0,4.m4v,5.0
2024-02-27 14:38:00.831445,1709041080.831445,580.56640625,642.578125,-38.57421875,635.25390625,-1.0,1.0,0.0,1.0,4.m4v,5.0
2024-02-27 14:38:00.831445,1709041080.831445,580.56640625,642.578125,-38.57421875,635.25390625,-1.0,1.0,0.0,1.0,4.m4v,5.0
2024-02-27 14:38:00.835351,1709041080.8353508,999.51171875,999.51171875,-43.9453125,999.51171875,-1.0,1.0,0.0,1.0,4.m4v,5.0
2024-02-27 14:38:00.835351,1709041080.8353508,999.51171875,999.51171875,-43.9453125,999.51171875,-1.0,1.0,0.0,1.0,4.m4v,5.0
2024-02-27 14:38:00.839256,1709041080.8392563,895.01953125,897.4609375,-33.69140625,897.4609375,-1.0,1.0,0.0,1.0,4.m4v,5.0
2024-02-27 14:38:00.839256,1709041080.8392563,895.01953125,897.4609375,-33.69140625,897.4609375,-1.0,1.0,0.0,1.0,4.m4v,5.0
2024-02-27 14:38:00.843162,1709041080.843162,985.3515625,986.81640625,-24.4140625,986.328125,-1.0,1.0,0.0,1.0,4.m4v,5.0
2024-02-27 14:38:00.843162,1709041080.843162,985.3515625,986.81640625,-24.4140625,986.328125,-1.0,1.0,0.0,1.0,4.m4v,5.0
2024-02-27 14:38:00.847068,1709041080.8470678,969.23828125,969.7265625,-19.53125,969.7265625,-1.0,1.0,0.0,1.0,4.m4v,5.0
2024-02-27 14:38:00.847068,1709041080.8470678,969.23828125,969.7265625,-19.53125,969.7265625,-1.0,1.0,0.0,1.0,4.m4v,5.0
2024-02-27 14:38:00.850974,1709041080.8509736,969.23828125,969.7265625,-24.4140625,969.7265625,-1.0,1.0,0.0,1.0,4.m4v,5.0
2024-02-27 14:38:00.850974,1709041080.8509736,969.23828125,969.7265625,-24.4140625,969.7265625,-1.0,1.0,0.0,1.0,4.m4v,5.0
2024-02-27 14:38:00.854879,1709041080.8548791,969.23828125,969.7265625,-31.25,969.7265625,-1.0,1.0,0.0,1.0,4.m4v,5.0
2024-02-27 14:38:00.854879,1709041080.8548791,969.23828125,969.7265625,-31.25,969.7265625,-1.0,1.0,0.0,1.0,4.m4v,5.0
2024-02-27 14:38:00.858789,1709041080.8587894,968.75,969.7265625,-29.296875,969.7265625,-1.0,1.0,0.0,1.0,4.m4v,5.0
2024-02-27 14:38:00.858789,1709041080.8587894,968.75,969.7265625,-29.296875,969.7265625,-1.0,1.0,0.0,1.0,4.m4v,5.0
2024-02-27 14:38:00.862695,1709041080.8626952,969.23828125,969.7265625,-34.66796875,969.7265625,-1.0,1.0,0.0,1.0,4.m4v,5.0
2024-02-27 14:38:00.862695,1709041080.8626952,969.23828125,969.7265625,-34.66796875,969.7265625,-1.0,1.0,0.0,1.0,4.m4v,5.0
2024-02-27 14:38:00.866601,1709041080.8666008,969.23828125,969.7265625,-34.1796875,969.7265625,-1.0,1.0,0.0,1.0,4.m4v,5.0
2024-02-27 14:38:00.870507,1709041080.8705063,969.23828125,969.7265625,-30.2734375,969.7265625,-1.0,1.0,0.0,1.0,4.m4v,5.0
2024-02-27 14:38:00.874412,1709041080.8744123,968.75,969.7265625,-29.296875,969.7265625,-1.0,1.0,0.0,1.0,4.m4v,5.0
2024-02-27 14:38:00.878318,1709041080.878318,968.75,969.7265625,-23.4375,969.7265625,-1.0,1.0,0.0,1.0,4.m4v,5.0
2024-02-27 14:38:00.882224,1709041080.8822236,969.23828125,969.7265625,-25.390625,969.7265625,-1.0,1.0,0.0,1.0,4.m4v,5.0
2024-02-27 14:38:00.886129,1709041080.8861294,985.3515625,986.328125,-31.73828125,985.3515625,-1.0,1.0,0.0,1.0,4.m4v,5.0
2024-02-27 14:38:00.890035,1709041080.8900352,911.1328125,912.109375,-29.296875,908.69140625,-1.0,1.0,0.0,1.0,4.m4v,5.0
2024-02-27 14:38:00.893941,1709041080.893941,999.51171875,999.51171875,-29.296875,999.51171875,-1.0,1.0,0.0,1.0,4.m4v,5.0
2024-02-27 14:38:00.897846,1709041080.8978465,859.86328125,860.83984375,-37.59765625,790.0390625,-1.0,1.0,0.0,1.0,4.m4v,5.0
2024-02-27 14:38:00.901752,1709041080.9017522,-597.16796875,-597.16796875,-38.57421875,-664.0625,-1.0,1.0,0.0,1.0,4.m4v,5.0
2024-02-27 14:38:00.905662,1709041080.9056623,-1000.0,-1000.0,-24.90234375,-1000.0,-1.0,1.0,0.0,1.0,4.m4v,5.0
2024-02-27 14:38:00.909568,1709041080.909568,-925.78125,-925.78125,-23.4375,-929.6875,-1.0,1.0,0.0,1.0,4.m4v,5.0
2024-02-27 14:38:00.913474,1709041080.9134736,-1000.0,-1000.0,-34.1796875,-1000.0,-1.0,1.0,0.0,1.0,4.m4v,5.0
2024-02-27 14:38:00.917379,1709041080.9173794,-1000.0,-1000.0,-35.64453125,-1000.0,-1.0,1.0,0.0,1.0,4.m4v,5.0
2024-02-27 14:38:00.917379,1709041080.9173794,-1000.0,-1000.0,-35.64453125,-1000.0,-1.0,1.0,0.0,1.0,4.m4v,5.0
2024-02-27 14:38:00.921285,1709041080.9212852,-1000.0,-1000.0,-33.203125,-1000.0,-1.0,1.0,0.0,1.0,4.m4v,5.0
2024-02-27 14:38:00.921285,1709041080.9212852,-1000.0,-1000.0,-33.203125,-1000.0,-1.0,1.0,0.0,1.0,4.m4v,5.0
2024-02-27 14:38:00.925191,1709041080.925191,-1000.0,-1000.0,-35.15625,-1000.0,-1.0,1.0,0.0,1.0,4.m4v,5.0
2024-02-27 14:38:00.925191,1709041080.925191,-1000.0,-1000.0,-35.15625,-1000.0,-1.0,1.0,0.0,1.0,4.m4v,5.0
2024-02-27 14:38:00.929096,1709041080.9290965,-1000.0,-1000.0,-42.48046875,-1000.0,-1.0,1.0,0.0,1.0,4.m4v,5.0
2024-02-27 14:38:00.929096,1709041080.9290965,-1000.0,-1000.0,-42.48046875,-1000.0,-1.0,1.0,0.0,1.0,4.m4v,5.0
2024-02-27 14:38:00.933002,1709041080.9330022,-1000.0,-1000.0,-40.0390625,-1000.0,-1.0,1.0,0.0,1.0,4.m4v,5.0
2024-02-27 14:38:00.933002,1709041080.9330022,-1000.0,-1000.0,-40.0390625,-1000.0,-1.0,1.0,0.0,1.0,4.m4v,5.0
2024-02-27 14:38:00.936908,1709041080.936908,-1000.0,-1000.0,-39.55078125,-1000.0,-1.0,1.0,0.0,1.0,4.m4v,5.0
2024-02-27 14:38:00.936908,1709041080.936908,-1000.0,-1000.0,-39.55078125,-1000.0,-1.0,1.0,0.0,1.0,4.m4v,5.0
2024-02-27 14:38:00.940814,1709041080.9408138,-948.73046875,-944.3359375,-37.59765625,-944.82421875,-1.0,1.0,0.0,1.0,4.m4v,5.0
2024-02-27 14:38:00.940814,1709041080.9408138,-948.73046875,-944.3359375,-37.59765625,-944.82421875,-1.0,1.0,0.0,1.0,4.m4v,5.0
2024-02-27 14:38:00.944719,1709041080.9447193,-1000.0,-1000.0,-40.0390625,-1000.0,-1.0,1.0,0.0,1.0,4.m4v,5.0
2024-02-27 14:38:00.944719,1709041080.9447193,-1000.0,-1000.0,-40.0390625,-1000.0,-1.0,1.0,0.0,1.0,4.m4v,5.0
2024-02-27 14:38:00.948625,1709041080.948625,-940.4296875,-906.73828125,-39.0625,-906.73828125,-1.0,1.0,0.0,1.0,4.m4v,5.0
2024-02-27 14:38:00.948625,1709041080.948625,-940.4296875,-906.73828125,-39.0625,-906.73828125,-1.0,1.0,0.0,1.0,4.m4v,5.0
2024-02-27 14:38:00.952535,1709041080.9525352,485.3515625,541.50390625,-38.57421875,540.52734375,-1.0,1.0,0.0,1.0,4.m4v,5.0
2024-02-27 14:38:00.952535,1709041080.9525352,485.3515625,541.50390625,-38.57421875,540.52734375,-1.0,1.0,0.0,1.0,4.m4v,5.0
2024-02-27 14:38:00.956441,1709041080.956441,999.51171875,999.51171875,-43.9453125,999.51171875,-1.0,1.0,0.0,1.0,4.m4v,5.0
2024-02-27 14:38:00.956441,1709041080.956441,999.51171875,999.51171875,-43.9453125,999.51171875,-1.0,1.0,0.0,1.0,4.m4v,5.0
2024-02-27 14:38:00.960346,1709041080.9603465,895.01953125,895.01953125,-47.36328125,895.01953125,-1.0,1.0,0.0,1.0,4.m4v,5.0
2024-02-27 14:38:00.960346,1709041080.9603465,895.01953125,895.01953125,-47.36328125,895.01953125,-1.0,1.0,0.0,1.0,4.m4v,5.0
2024-02-27 14:38:00.964252,1709041080.9642522,982.91015625,985.3515625,-45.8984375,984.86328125,-1.0,1.0,0.0,1.0,4.m4v,5.0
2024-02-27 14:38:00.964252,1709041080.9642522,982.91015625,985.3515625,-45.8984375,984.86328125,-1.0,1.0,0.0,1.0,4.m4v,5.0
2024-02-27 14:38:00.968158,1709041080.968158,969.23828125,969.7265625,-36.1328125,969.7265625,-1.0,1.0,0.0,1.0,4.m4v,5.0
2024-02-27 14:38:00.968158,1709041080.968158,969.23828125,969.7265625,-36.1328125,969.7265625,-1.0,1.0,0.0,1.0,4.m4v,5.0
2024-02-27 14:38:00.972064,1709041080.9720638,969.23828125,969.7265625,-35.64453125,969.7265625,-1.0,1.0,0.0,1.0,4.m4v,5.0
2024-02-27 14:38:00.972064,1709041080.9720638,969.23828125,969.7265625,-35.64453125,969.7265625,-1.0,1.0,0.0,1.0,4.m4v,5.0
2024-02-27 14:38:00.975969,1709041080.9759693,969.23828125,969.7265625,-40.0390625,969.7265625,-1.0,1.0,0.0,1.0,4.m4v,5.0
2024-02-27 14:38:00.975969,1709041080.9759693,969.23828125,969.7265625,-40.0390625,969.7265625,-1.0,1.0,0.0,1.0,4.m4v,5.0
2024-02-27 14:38:00.979875,1709041080.979875,969.23828125,969.7265625,-33.203125,969.7265625,-1.0,1.0,0.0,1.0,4.m4v,5.0
2024-02-27 14:38:00.979875,1709041080.979875,969.23828125,969.7265625,-33.203125,969.7265625,-1.0,1.0,0.0,1.0,4.m4v,5.0
2024-02-27 14:38:00.983781,1709041080.9837809,969.23828125,970.21484375,-27.83203125,969.7265625,-1.0,1.0,0.0,1.0,4.m4v,5.0
2024-02-27 14:38:00.983781,1709041080.9837809,969.23828125,970.21484375,-27.83203125,969.7265625,-1.0,1.0,0.0,1.0,4.m4v,5.0
2024-02-27 14:38:00.987687,1709041080.9876866,969.23828125,969.7265625,-27.34375,969.7265625,-1.0,1.0,0.0,1.0,4.m4v,5.0
2024-02-27 14:38:00.987687,1709041080.9876866,969.23828125,969.7265625,-27.34375,969.7265625,-1.0,1.0,0.0,1.0,4.m4v,5.0
2024-02-27 14:38:00.991592,1709041080.9915922,969.23828125,969.7265625,-27.34375,970.21484375,-1.0,1.0,0.0,1.0,4.m4v,5.0
2024-02-27 14:38:00.991592,1709041080.9915922,969.23828125,969.7265625,-27.34375,970.21484375,-1.0,1.0,0.0,1.0,4.m4v,5.0
2024-02-27 14:38:00.995498,1709041080.995498,969.23828125,969.7265625,-27.83203125,969.7265625,-1.0,1.0,0.0,1.0,4.m4v,5.0
2024-02-27 14:38:00.995498,1709041080.995498,969.23828125,969.7265625,-27.83203125,969.7265625,-1.0,1.0,0.0,1.0,4.m4v,5.0
2024-02-27 14:38:00.999408,1709041080.9994075,969.23828125,969.7265625,-29.296875,969.7265625,-1.0,1.0,0.0,1.0,4.m4v,5.0
2024-02-27 14:38:00.999408,1709041080.9994075,969.23828125,969.7265625,-29.296875,969.7265625,-1.0,1.0,0.0,1.0,4.m4v,5.0
2024-02-27 14:38:01.003313,1709041081.0033133,970.21484375,970.21484375,-31.73828125,975.09765625,-1.0,1.0,0.0,1.0,4.m4v,5.0
2024-02-27 14:38:01.003313,1709041081.0033133,970.21484375,970.21484375,-31.73828125,975.09765625,-1.0,1.0,0.0,1.0,4.m4v,5.0
2024-02-27 14:38:01.007219,1709041081.007219,973.6328125,981.4453125,-35.64453125,953.61328125,-1.0,1.0,0.0,1.0,4.m4v,5.0
2024-02-27 14:38:01.007219,1709041081.007219,973.6328125,981.4453125,-35.64453125,953.61328125,-1.0,1.0,0.0,1.0,4.m4v,5.0
2024-02-27 14:38:01.011125,1709041081.0111246,906.73828125,899.90234375,-30.76171875,940.4296875,-1.0,1.0,0.0,1.0,4.m4v,5.0
2024-02-27 14:38:01.015030,1709041081.0150304,999.51171875,999.51171875,-21.97265625,999.51171875,-1.0,1.0,0.0,1.0,4.m4v,5.0
2024-02-27 14:38:01.018936,1709041081.0189362,325.1953125,469.23828125,-21.484375,-11.71875,-1.0,1.0,0.0,1.0,4.m4v,5.0
2024-02-27 14:38:01.022842,1709041081.022842,-988.28125,-932.12890625,-36.1328125,-1000.0,-1.0,1.0,0.0,1.0,4.m4v,5.0
2024-02-27 14:38:01.026747,1709041081.0267477,-1000.0,-1000.0,-32.71484375,-971.6796875,-1.0,1.0,0.0,1.0,4.m4v,5.0
2024-02-27 14:38:01.128306,1709041081.1283064,934.08203125,933.10546875,-30.2734375,926.26953125,-1.0,1.0,0.0,1.0,4.m4v,5.0
2024-02-27 14:38:01.132212,1709041081.132212,968.75,973.6328125,-30.76171875,989.2578125,-1.0,1.0,0.0,1.0,4.m4v,5.0
2024-02-27 14:38:01.136118,1709041081.1361177,999.51171875,997.0703125,-37.59765625,955.078125,-1.0,1.0,0.0,1.0,4.m4v,5.0
2024-02-27 14:38:01.140028,1709041081.1400282,-316.40625,-339.35546875,-42.96875,-420.41015625,-1.0,1.0,0.0,1.0,4.m4v,5.0
2024-02-27 14:38:01.143934,1709041081.1439338,-1000.0,-1000.0,-32.2265625,-1000.0,-1.0,1.0,0.0,1.0,4.m4v,5.0
2024-02-27 14:38:01.147840,1709041081.1478395,-932.12890625,-930.6640625,-16.6015625,-928.7109375,-1.0,1.0,0.0,1.0,4.m4v,5.0
2024-02-27 14:38:01.151745,1709041081.151745,-1000.0,-1000.0,-25.390625,-1000.0,-1.0,1.0,0.0,1.0,4.m4v,5.0
2024-02-27 14:38:01.155651,1709041081.155651,-1000.0,-1000.0,-25.87890625,-1000.0,-1.0,1.0,0.0,1.0,4.m4v,5.0
2024-02-27 14:38:01.159557,1709041081.1595566,-1000.0,-1000.0,-20.01953125,-1000.0,-1.0,1.0,0.0,1.0,4.m4v,5.0
2024-02-27 14:38:01.163462,1709041081.1634624,-1000.0,-1000.0,-18.5546875,-1000.0,-1.0,1.0,0.0,1.0,4.m4v,5.0
2024-02-27 14:38:01.167368,1709041081.1673682,-1000.0,-1000.0,-19.53125,-1000.0,-1.0,1.0,0.0,1.0,4.m4v,5.0
2024-02-27 14:38:01.171274,1709041081.171274,-1000.0,-1000.0,-28.3203125,-1000.0,-1.0,1.0,0.0,1.0,4.m4v,5.0
2024-02-27 14:38:01.175179,1709041081.1751795,-1000.0,-1000.0,-31.25,-1000.0,-1.0,1.0,0.0,1.0,4.m4v,5.0
2024-02-27 14:38:01.179085,1709041081.1790853,-1000.0,-1000.0,-24.4140625,-1000.0,-1.0,1.0,0.0,1.0,4.m4v,5.0
2024-02-27 14:38:01.182991,1709041081.182991,-1000.0,-1000.0,-23.92578125,-1000.0,-1.0,1.0,0.0,1.0,4.m4v,5.0
2024-02-27 14:38:01.186902,1709041081.1869016,-1000.0,-1000.0,-30.2734375,-1000.0,-1.0,1.0,0.0,1.0,4.m4v,5.0
2024-02-27 14:38:01.190807,1709041081.190807,-1000.0,-1000.0,-37.59765625,-1000.0,-1.0,1.0,0.0,1.0,4.m4v,5.0
2024-02-27 14:38:01.194713,1709041081.1947129,-1000.0,-1000.0,-44.921875,-1000.0,-1.0,1.0,0.0,1.0,4.m4v,5.0
2024-02-27 14:38:01.198619,1709041081.198619,-952.63671875,-948.73046875,-36.62109375,-951.171875,-1.0,1.0,0.0,1.0,4.m4v,5.0
2024-02-27 14:38:01.202524,1709041081.2025244,-1000.0,-1000.0,-35.15625,-1000.0,-1.0,1.0,0.0,1.0,4.m4v,5.0
2024-02-27 14:38:01.206430,1709041081.2064302,-822.265625,-791.50390625,-31.25,-810.05859375,-1.0,1.0,0.0,1.0,4.m4v,5.0
2024-02-27 14:38:01.210336,1709041081.2103355,551.7578125,600.5859375,-20.01953125,571.77734375,-1.0,1.0,0.0,1.0,4.m4v,5.0
2024-02-27 14:38:01.214242,1709041081.2142415,999.51171875,999.51171875,-23.92578125,999.51171875,-1.0,1.0,0.0,1.0,4.m4v,5.0
2024-02-27 14:38:01.218147,1709041081.2181473,902.34375,903.3203125,-30.2734375,902.83203125,-1.0,1.0,0.0,1.0,4.m4v,5.0
2024-02-27 14:38:01.222053,1709041081.222053,980.95703125,982.91015625,-36.1328125,981.93359375,-1.0,1.0,0.0,1.0,4.m4v,5.0
2024-02-27 14:38:01.225959,1709041081.2259586,969.23828125,969.7265625,-48.33984375,969.7265625,-1.0,1.0,0.0,1.0,4.m4v,5.0
2024-02-27 14:38:01.229864,1709041081.2298644,969.23828125,969.7265625,-46.38671875,969.7265625,-1.0,1.0,0.0,1.0,4.m4v,5.0
2024-02-27 14:38:01.233775,1709041081.233775,969.23828125,969.7265625,-29.296875,969.7265625,-1.0,1.0,0.0,1.0,4.m4v,5.0
2024-02-27 14:38:01.237680,1709041081.2376802,969.23828125,969.7265625,-36.62109375,969.7265625,-1.0,1.0,0.0,1.0,4.m4v,5.0
2024-02-27 14:38:01.241586,1709041081.241586,969.23828125,969.7265625,-50.29296875,969.7265625,-1.0,1.0,0.0,1.0,4.m4v,5.0
2024-02-27 14:38:01.245492,1709041081.2454915,969.23828125,970.21484375,-42.48046875,969.7265625,-1.0,1.0,0.0,1.0,4.m4v,5.0
2024-02-27 14:38:01.249398,1709041081.2493975,969.23828125,969.7265625,-31.25,969.7265625,-1.0,1.0,0.0,1.0,4.m4v,5.0
2024-02-27 14:38:01.253303,1709041081.253303,969.23828125,969.7265625,-25.390625,969.7265625,-1.0,1.0,0.0,1.0,4.m4v,5.0
2024-02-27 14:38:01.257209,1709041081.2572088,969.23828125,969.7265625,-19.04296875,969.7265625,-1.0,1.0,0.0,1.0,4.m4v,5.0
2024-02-27 14:38:01.261115,1709041081.2611146,969.23828125,969.7265625,-25.390625,969.7265625,-1.0,1.0,0.0,1.0,4.m4v,5.0
2024-02-27 14:38:01.265020,1709041081.2650204,985.3515625,986.328125,-34.1796875,986.328125,-1.0,1.0,0.0,1.0,4.m4v,5.0
2024-02-27 14:38:01.265020,1709041081.2650204,985.3515625,986.328125,-34.1796875,986.328125,-1.0,1.0,0.0,1.0,4.m4v,5.0
2024-02-27 14:38:01.268926,1709041081.268926,910.64453125,905.76171875,-41.015625,908.203125,-1.0,1.0,0.0,1.0,4.m4v,5.0
2024-02-27 14:38:01.268926,1709041081.268926,910.64453125,905.76171875,-41.015625,908.203125,-1.0,1.0,0.0,1.0,4.m4v,5.0
2024-02-27 14:38:01.272832,1709041081.2728317,999.51171875,999.51171875,-36.62109375,999.51171875,-1.0,1.0,0.0,1.0,4.m4v,5.0
2024-02-27 14:38:01.272832,1709041081.2728317,999.51171875,999.51171875,-36.62109375,999.51171875,-1.0,1.0,0.0,1.0,4.m4v,5.0
2024-02-27 14:38:01.276737,1709041081.2767377,855.95703125,757.8125,-28.80859375,812.01171875,-1.0,1.0,0.0,1.0,4.m4v,5.0
2024-02-27 14:38:01.276737,1709041081.2767377,855.95703125,757.8125,-28.80859375,812.01171875,-1.0,1.0,0.0,1.0,4.m4v,5.0
2024-02-27 14:38:01.280648,1709041081.2806475,-602.5390625,-703.61328125,-29.78515625,-651.85546875,-1.0,1.0,0.0,1.0,4.m4v,5.0
2024-02-27 14:38:01.280648,1709041081.2806475,-602.5390625,-703.61328125,-29.78515625,-651.85546875,-1.0,1.0,0.0,1.0,4.m4v,5.0
2024-02-27 14:38:01.284553,1709041081.284553,-1000.0,-1000.0,-33.69140625,-1000.0,-1.0,1.0,0.0,1.0,4.m4v,5.0
2024-02-27 14:38:01.284553,1709041081.284553,-1000.0,-1000.0,-33.69140625,-1000.0,-1.0,1.0,0.0,1.0,4.m4v,5.0
2024-02-27 14:38:01.288459,1709041081.2884588,-925.78125,-930.6640625,-38.57421875,-927.734375,-1.0,1.0,0.0,1.0,4.m4v,5.0
2024-02-27 14:38:01.288459,1709041081.2884588,-925.78125,-930.6640625,-38.57421875,-927.734375,-1.0,1.0,0.0,1.0,4.m4v,5.0
2024-02-27 14:38:01.292365,1709041081.2923646,-1000.0,-1000.0,-48.33984375,-1000.0,-1.0,1.0,0.0,1.0,4.m4v,5.0
2024-02-27 14:38:01.292365,1709041081.2923646,-1000.0,-1000.0,-48.33984375,-1000.0,-1.0,1.0,0.0,1.0,4.m4v,5.0
2024-02-27 14:38:01.296270,1709041081.2962704,-1000.0,-1000.0,-64.453125,-1000.0,-1.0,1.0,0.0,1.0,4.m4v,5.0
2024-02-27 14:38:01.296270,1709041081.2962704,-1000.0,-1000.0,-64.453125,-1000.0,-1.0,1.0,0.0,1.0,4.m4v,5.0
2024-02-27 14:38:01.300176,1709041081.300176,-1000.0,-1000.0,-60.546875,-1000.0,-1.0,1.0,0.0,1.0,4.m4v,5.0
2024-02-27 14:38:01.300176,1709041081.300176,-1000.0,-1000.0,-60.546875,-1000.0,-1.0,1.0,0.0,1.0,4.m4v,5.0
2024-02-27 14:38:01.304082,1709041081.3040817,-1000.0,-1000.0,-52.24609375,-1000.0,-1.0,1.0,0.0,1.0,4.m4v,5.0
2024-02-27 14:38:01.304082,1709041081.3040817,-1000.0,-1000.0,-52.24609375,-1000.0,-1.0,1.0,0.0,1.0,4.m4v,5.0
2024-02-27 14:38:01.307987,1709041081.3079877,-1000.0,-1000.0,-46.875,-1000.0,-1.0,1.0,0.0,1.0,4.m4v,5.0
2024-02-27 14:38:01.307987,1709041081.3079877,-1000.0,-1000.0,-46.875,-1000.0,-1.0,1.0,0.0,1.0,4.m4v,5.0
2024-02-27 14:38:01.311893,1709041081.3118932,-1000.0,-1000.0,-36.62109375,-1000.0,-1.0,1.0,0.0,1.0,4.m4v,5.0
2024-02-27 14:38:01.311893,1709041081.3118932,-1000.0,-1000.0,-36.62109375,-1000.0,-1.0,1.0,0.0,1.0,4.m4v,5.0
2024-02-27 14:38:01.315799,1709041081.3157988,-1000.0,-1000.0,-46.38671875,-1000.0,-1.0,1.0,0.0,1.0,4.m4v,5.0
2024-02-27 14:38:01.315799,1709041081.3157988,-1000.0,-1000.0,-46.38671875,-1000.0,-1.0,1.0,0.0,1.0,4.m4v,5.0
2024-02-27 14:38:01.319705,1709041081.3197043,-1000.0,-1000.0,-49.31640625,-1000.0,-1.0,1.0,0.0,1.0,4.m4v,5.0
2024-02-27 14:38:01.319705,1709041081.3197043,-1000.0,-1000.0,-49.31640625,-1000.0,-1.0,1.0,0.0,1.0,4.m4v,5.0
2024-02-27 14:38:01.323610,1709041081.3236103,-1000.0,-1000.0,-37.59765625,-1000.0,-1.0,1.0,0.0,1.0,4.m4v,5.0
2024-02-27 14:38:01.323610,1709041081.3236103,-1000.0,-1000.0,-37.59765625,-1000.0,-1.0,1.0,0.0,1.0,4.m4v,5.0
2024-02-27 14:38:01.327520,1709041081.32752,-1000.0,-1000.0,-39.0625,-1000.0,-1.0,1.0,0.0,1.0,4.m4v,5.0
2024-02-27 14:38:01.327520,1709041081.32752,-1000.0,-1000.0,-39.0625,-1000.0,-1.0,1.0,0.0,1.0,4.m4v,5.0
2024-02-27 14:38:01.331426,1709041081.3314257,-1000.0,-1000.0,-37.109375,-1000.0,-1.0,1.0,0.0,1.0,4.m4v,5.0
2024-02-27 14:38:01.331426,1709041081.3314257,-1000.0,-1000.0,-37.109375,-1000.0,-1.0,1.0,0.0,1.0,4.m4v,5.0
2024-02-27 14:38:01.335331,1709041081.3353314,-987.79296875,-957.51953125,-39.0625,-985.3515625,-1.0,1.0,0.0,1.0,4.m4v,5.0
2024-02-27 14:38:01.335331,1709041081.3353314,-987.79296875,-957.51953125,-39.0625,-985.3515625,-1.0,1.0,0.0,1.0,4.m4v,5.0
2024-02-27 14:38:01.339237,1709041081.3392372,-960.9375,-1000.0,-52.24609375,-965.33203125,-1.0,1.0,0.0,1.0,4.m4v,5.0
2024-02-27 14:38:01.339237,1709041081.3392372,-960.9375,-1000.0,-52.24609375,-965.33203125,-1.0,1.0,0.0,1.0,4.m4v,5.0
2024-02-27 14:38:01.343143,1709041081.343143,-1000.0,-992.1875,-49.8046875,-1000.0,-1.0,1.0,0.0,1.0,4.m4v,5.0
2024-02-27 14:38:01.343143,1709041081.343143,-1000.0,-992.1875,-49.8046875,-1000.0,-1.0,1.0,0.0,1.0,4.m4v,5.0
2024-02-27 14:38:01.347049,1709041081.3470483,-49.31640625,383.30078125,-40.0390625,-13.671875,-1.0,1.0,0.0,1.0,4.m4v,5.0
2024-02-27 14:38:01.347049,1709041081.3470483,-49.31640625,383.30078125,-40.0390625,-13.671875,-1.0,1.0,0.0,1.0,4.m4v,5.0
2024-02-27 14:38:01.350954,1709041081.3509543,999.51171875,999.51171875,-44.921875,999.51171875,-1.0,1.0,0.0,1.0,4.m4v,5.0
2024-02-27 14:38:01.350954,1709041081.3509543,999.51171875,999.51171875,-44.921875,999.51171875,-1.0,1.0,0.0,1.0,4.m4v,5.0
2024-02-27 14:38:01.354860,1709041081.35486,937.01171875,897.94921875,-36.1328125,934.08203125,-1.0,1.0,0.0,1.0,4.m4v,5.0
2024-02-27 14:38:01.354860,1709041081.35486,937.01171875,897.94921875,-36.1328125,934.08203125,-1.0,1.0,0.0,1.0,4.m4v,5.0
2024-02-27 14:38:01.358766,1709041081.3587658,953.125,979.4921875,-36.1328125,956.0546875,-1.0,1.0,0.0,1.0,4.m4v,5.0
2024-02-27 14:38:01.358766,1709041081.3587658,953.125,979.4921875,-36.1328125,956.0546875,-1.0,1.0,0.0,1.0,4.m4v,5.0
2024-02-27 14:38:01.694690,1709041081.6946898,999.51171875,999.51171875,-33.69140625,999.51171875,-1.0,1.0,0.0,1.0,4.m4v,5.0
2024-02-27 14:38:01.698595,1709041081.6985953,121.09375,-11.71875,-25.87890625,-81.0546875,-1.0,1.0,0.0,1.0,4.m4v,5.0
2024-02-27 14:38:01.702505,1709041081.702505,-1000.0,-1000.0,-24.90234375,-1000.0,-1.0,1.0,0.0,1.0,4.m4v,5.0
2024-02-27 14:38:01.706411,1709041081.706411,-982.421875,-964.84375,-25.87890625,-959.9609375,-1.0,1.0,0.0,1.0,4.m4v,5.0
2024-02-27 14:38:01.710317,1709041081.710317,-976.5625,-986.328125,-29.78515625,-989.74609375,-1.0,1.0,0.0,1.0,4.m4v,5.0
2024-02-27 14:38:01.714222,1709041081.7142224,-1000.0,-1000.0,-46.875,-1000.0,-1.0,1.0,0.0,1.0,4.m4v,5.0
2024-02-27 14:38:01.714222,1709041081.7142224,-1000.0,-1000.0,-46.875,-1000.0,-1.0,1.0,0.0,1.0,4.m4v,5.0
2024-02-27 14:38:01.718128,1709041081.718128,-1000.0,-1000.0,-45.8984375,-1000.0,-1.0,1.0,0.0,1.0,4.m4v,5.0
2024-02-27 14:38:01.718128,1709041081.718128,-1000.0,-1000.0,-45.8984375,-1000.0,-1.0,1.0,0.0,1.0,4.m4v,5.0
2024-02-27 14:38:01.722034,1709041081.7220335,-1000.0,-1000.0,-31.73828125,-1000.0,-1.0,1.0,0.0,1.0,4.m4v,5.0
2024-02-27 14:38:01.722034,1709041081.7220335,-1000.0,-1000.0,-31.73828125,-1000.0,-1.0,1.0,0.0,1.0,4.m4v,5.0
2024-02-27 14:38:01.725940,1709041081.7259395,-1000.0,-1000.0,-27.83203125,-1000.0,-1.0,1.0,0.0,1.0,4.m4v,5.0
2024-02-27 14:38:01.725940,1709041081.7259395,-1000.0,-1000.0,-27.83203125,-1000.0,-1.0,1.0,0.0,1.0,4.m4v,5.0
2024-02-27 14:38:01.729845,1709041081.7298453,-1000.0,-1000.0,-31.73828125,-1000.0,-1.0,1.0,0.0,1.0,4.m4v,5.0
2024-02-27 14:38:01.729845,1709041081.7298453,-1000.0,-1000.0,-31.73828125,-1000.0,-1.0,1.0,0.0,1.0,4.m4v,5.0
2024-02-27 14:38:01.733751,1709041081.7337508,-1000.0,-1000.0,-37.59765625,-1000.0,-1.0,1.0,0.0,1.0,4.m4v,5.0
2024-02-27 14:38:01.733751,1709041081.7337508,-1000.0,-1000.0,-37.59765625,-1000.0,-1.0,1.0,0.0,1.0,4.m4v,5.0
2024-02-27 14:38:01.737657,1709041081.7376566,-1000.0,-1000.0,-31.73828125,-1000.0,-1.0,1.0,0.0,1.0,4.m4v,5.0
2024-02-27 14:38:01.737657,1709041081.7376566,-1000.0,-1000.0,-31.73828125,-1000.0,-1.0,1.0,0.0,1.0,4.m4v,5.0
2024-02-27 14:38:01.741562,1709041081.7415624,-1000.0,-1000.0,-26.3671875,-1000.0,-1.0,1.0,0.0,1.0,4.m4v,5.0
2024-02-27 14:38:01.745468,1709041081.745468,-1000.0,-1000.0,-29.296875,-1000.0,-1.0,1.0,0.0,1.0,4.m4v,5.0
2024-02-27 14:38:01.749378,1709041081.7493775,-1000.0,-1000.0,-34.66796875,-1000.0,-1.0,1.0,0.0,1.0,4.m4v,5.0
2024-02-27 14:38:01.753283,1709041081.7532833,-1000.0,-1000.0,-32.71484375,-1000.0,-1.0,1.0,0.0,1.0,4.m4v,5.0
2024-02-27 14:38:01.757189,1709041081.757189,-999.0234375,-977.5390625,-27.83203125,-992.1875,-1.0,1.0,0.0,1.0,4.m4v,5.0
2024-02-27 14:38:01.761095,1709041081.7610948,-945.3125,-978.02734375,-27.34375,-955.078125,-1.0,1.0,0.0,1.0,4.m4v,5.0
2024-02-27 14:38:01.765001,1709041081.7650006,-1000.0,-1000.0,-25.87890625,-1000.0,-1.0,1.0,0.0,1.0,4.m4v,5.0
2024-02-27 14:38:01.768906,1709041081.768906,-239.74609375,112.79296875,-32.71484375,-132.32421875,-1.0,1.0,0.0,1.0,4.m4v,5.0
2024-02-27 14:38:01.772812,1709041081.772812,999.0234375,999.51171875,-42.96875,999.51171875,-1.0,1.0,0.0,1.0,4.m4v,5.0
2024-02-27 14:38:01.804063,1709041081.8040628,969.23828125,969.7265625,-28.3203125,969.7265625,-1.0,1.0,0.0,1.0,4.m4v,5.0
2024-02-27 14:38:01.807969,1709041081.8079686,969.23828125,969.7265625,-20.99609375,969.7265625,-1.0,1.0,0.0,1.0,4.m4v,5.0
2024-02-27 14:38:01.811874,1709041081.8118742,969.23828125,969.7265625,-36.1328125,969.7265625,-1.0,1.0,0.0,1.0,4.m4v,5.0
2024-02-27 14:38:01.815780,1709041081.81578,969.23828125,969.7265625,-33.69140625,969.7265625,-1.0,1.0,0.0,1.0,4.m4v,5.0
2024-02-27 14:38:01.819686,1709041081.8196857,969.23828125,969.7265625,-28.3203125,969.7265625,-1.0,1.0,0.0,1.0,4.m4v,5.0
2024-02-27 14:38:01.823591,1709041081.8235917,979.98046875,983.3984375,-39.0625,983.3984375,-1.0,1.0,0.0,1.0,4.m4v,5.0
2024-02-27 14:38:01.827497,1709041081.827497,929.19921875,922.8515625,-35.15625,921.38671875,-1.0,1.0,0.0,1.0,4.m4v,5.0
2024-02-27 14:38:01.831403,1709041081.8314028,979.98046875,997.0703125,-31.73828125,999.51171875,-1.0,1.0,0.0,1.0,4.m4v,5.0
2024-02-27 14:38:01.835309,1709041081.8353086,979.98046875,937.01171875,-30.76171875,928.7109375,-1.0,1.0,0.0,1.0,4.m4v,5.0
2024-02-27 14:38:01.839214,1709041081.8392143,-378.41796875,-465.8203125,-30.76171875,-476.5625,-1.0,1.0,0.0,1.0,4.m4v,5.0
2024-02-27 14:38:01.843125,1709041081.8431249,-1000.0,-1000.0,-23.92578125,-1000.0,-1.0,1.0,0.0,1.0,4.m4v,5.0
2024-02-27 14:38:01.847031,1709041081.8470306,-929.19921875,-926.7578125,-28.3203125,-927.24609375,-1.0,1.0,0.0,1.0,4.m4v,5.0
2024-02-27 14:38:01.850936,1709041081.8509364,-1000.0,-1000.0,-37.109375,-1000.0,-1.0,1.0,0.0,1.0,4.m4v,5.0
2024-02-27 14:38:01.854842,1709041081.8548422,-1000.0,-1000.0,-25.87890625,-1000.0,-1.0,1.0,0.0,1.0,4.m4v,5.0
2024-02-27 14:38:01.858748,1709041081.8587475,-1000.0,-1000.0,-26.85546875,-1000.0,-1.0,1.0,0.0,1.0,4.m4v,5.0
2024-02-27 14:38:01.862653,1709041081.8626535,-1000.0,-1000.0,-27.34375,-1000.0,-1.0,1.0,0.0,1.0,4.m4v,5.0
2024-02-27 14:38:01.866559,1709041081.8665593,-1000.0,-1000.0,-30.2734375,-1000.0,-1.0,1.0,0.0,1.0,4.m4v,5.0
2024-02-27 14:38:01.870465,1709041081.870465,-1000.0,-1000.0,-29.78515625,-1000.0,-1.0,1.0,0.0,1.0,4.m4v,5.0
2024-02-27 14:38:01.874371,1709041081.8743706,-1000.0,-1000.0,-29.296875,-1000.0,-1.0,1.0,0.0,1.0,4.m4v,5.0
2024-02-27 14:38:01.878276,1709041081.8782763,-1000.0,-1000.0,-36.62109375,-1000.0,-1.0,1.0,0.0,1.0,4.m4v,5.0
2024-02-27 14:38:01.882182,1709041081.882182,-1000.0,-1000.0,-27.83203125,-1000.0,-1.0,1.0,0.0,1.0,4.m4v,5.0
2024-02-27 14:38:01.886088,1709041081.886088,-1000.0,-1000.0,-27.83203125,-1000.0,-1.0,1.0,0.0,1.0,4.m4v,5.0
2024-02-27 14:38:01.889998,1709041081.8899984,-1000.0,-1000.0,-27.83203125,-1000.0,-1.0,1.0,0.0,1.0,4.m4v,5.0
2024-02-27 14:38:01.893904,1709041081.893904,-1000.0,-1000.0,-25.390625,-1000.0,-1.0,1.0,0.0,1.0,4.m4v,5.0
2024-02-27 14:38:01.897810,1709041081.8978095,-976.07421875,-961.9140625,-33.69140625,-971.6796875,-1.0,1.0,0.0,1.0,4.m4v,5.0
2024-02-27 14:38:01.901716,1709041081.9017155,-988.76953125,-1000.0,-29.78515625,-998.046875,-1.0,1.0,0.0,1.0,4.m4v,5.0
2024-02-27 14:38:01.905621,1709041081.9056213,-957.51953125,-884.27734375,-41.015625,-935.546875,-1.0,1.0,0.0,1.0,4.m4v,5.0
2024-02-27 14:38:01.909527,1709041081.9095268,263.671875,435.05859375,-45.8984375,315.91796875,-1.0,1.0,0.0,1.0,4.m4v,5.0
2024-02-27 14:38:01.913433,1709041081.9134326,999.51171875,999.51171875,-26.85546875,999.51171875,-1.0,1.0,0.0,1.0,4.m4v,5.0
2024-02-27 14:38:01.917338,1709041081.9173384,911.62109375,905.2734375,-33.203125,910.15625,-1.0,1.0,0.0,1.0,4.m4v,5.0
2024-02-27 14:38:01.921244,1709041081.921244,969.23828125,977.5390625,-41.015625,972.16796875,-1.0,1.0,0.0,1.0,4.m4v,5.0
2024-02-27 14:38:01.925150,1709041081.9251497,969.23828125,969.7265625,-26.85546875,969.7265625,-1.0,1.0,0.0,1.0,4.m4v,5.0
2024-02-27 14:38:01.929055,1709041081.9290557,969.23828125,969.7265625,-22.4609375,969.7265625,-1.0,1.0,0.0,1.0,4.m4v,5.0
2024-02-27 14:38:01.932961,1709041081.9329612,968.75,969.7265625,-31.25,969.7265625,-1.0,1.0,0.0,1.0,4.m4v,5.0
2024-02-27 14:38:01.936872,1709041081.9368715,969.23828125,969.7265625,-28.3203125,969.7265625,-1.0,1.0,0.0,1.0,4.m4v,5.0
2024-02-27 14:38:01.940777,1709041081.9407773,969.23828125,969.7265625,-18.5546875,969.7265625,-1.0,1.0,0.0,1.0,4.m4v,5.0
2024-02-27 14:38:01.944683,1709041081.944683,969.23828125,969.7265625,-19.04296875,969.7265625,-1.0,1.0,0.0,1.0,4.m4v,5.0
2024-02-27 14:38:01.948589,1709041081.9485886,969.23828125,970.21484375,-24.4140625,969.7265625,-1.0,1.0,0.0,1.0,4.m4v,5.0
2024-02-27 14:38:01.952494,1709041081.9524944,969.23828125,969.7265625,-27.83203125,969.7265625,-1.0,1.0,0.0,1.0,4.m4v,5.0
2024-02-27 14:38:01.956400,1709041081.9564002,968.75,969.7265625,-34.66796875,969.7265625,-1.0,1.0,0.0,1.0,4.m4v,5.0
2024-02-27 14:38:01.960306,1709041081.960306,968.75,969.7265625,-39.0625,969.7265625,-1.0,1.0,0.0,1.0,4.m4v,5.0
2024-02-27 14:38:01.964211,1709041081.9642117,971.6796875,971.6796875,-31.25,976.5625,-1.0,1.0,0.0,1.0,4.m4v,5.0
2024-02-27 14:38:01.968117,1709041081.9681172,963.37890625,967.28515625,-30.2734375,947.265625,-1.0,1.0,0.0,1.0,4.m4v,5.0
2024-02-27 14:38:01.972023,1709041081.972023,919.921875,916.50390625,-30.76171875,950.1953125,-1.0,1.0,0.0,1.0,4.m4v,5.0
2024-02-27 14:38:01.975929,1709041081.9759288,999.51171875,999.51171875,-28.80859375,999.51171875,-1.0,1.0,0.0,1.0,4.m4v,5.0
2024-02-27 14:38:01.979834,1709041081.9798343,134.27734375,185.546875,-38.0859375,-122.0703125,-1.0,1.0,0.0,1.0,4.m4v,5.0
2024-02-27 14:38:01.983745,1709041081.9837446,-1000.0,-1000.0,-43.9453125,-1000.0,-1.0,1.0,0.0,1.0,4.m4v,5.0
2024-02-27 14:38:01.987650,1709041081.9876502,-984.375,-991.69921875,-35.64453125,-956.54296875,-1.0,1.0,0.0,1.0,4.m4v,5.0
2024-02-27 14:38:01.991556,1709041081.991556,-975.5859375,-971.6796875,-39.0625,-992.1875,-1.0,1.0,0.0,1.0,4.m4v,5.0
2024-02-27 14:38:01.995462,1709041081.9954617,-1000.0,-1000.0,-40.52734375,-1000.0,-1.0,1.0,0.0,1.0,4.m4v,5.0
2024-02-27 14:38:01.999367,1709041081.9993677,-1000.0,-1000.0,-34.66796875,-1000.0,-1.0,1.0,0.0,1.0,4.m4v,5.0
2024-02-27 14:38:02.003273,1709041082.003273,-1000.0,-1000.0,-34.66796875,-1000.0,-1.0,1.0,0.0,1.0,4.m4v,5.0
2024-02-27 14:38:02.007179,1709041082.0071788,-1000.0,-1000.0,-31.25,-1000.0,-1.0,1.0,0.0,1.0,4.m4v,5.0
2024-02-27 14:38:02.011085,1709041082.0110846,-1000.0,-1000.0,-29.78515625,-1000.0,-1.0,1.0,0.0,1.0,4.m4v,5.0
2024-02-27 14:38:02.014990,1709041082.0149903,-1000.0,-1000.0,-41.015625,-1000.0,-1.0,1.0,0.0,1.0,4.m4v,5.0
2024-02-27 14:38:02.018896,1709041082.018896,-1000.0,-1000.0,-47.8515625,-1000.0,-1.0,1.0,0.0,1.0,4.m4v,5.0
2024-02-27 14:38:02.022802,1709041082.0228016,-1000.0,-1000.0,-38.57421875,-1000.0,-1.0,1.0,0.0,1.0,4.m4v,5.0
2024-02-27 14:38:02.026707,1709041082.0267074,-1000.0,-1000.0,-34.1796875,-1000.0,-1.0,1.0,0.0,1.0,4.m4v,5.0
2024-02-27 14:38:02.030619,1709041082.0306191,-1000.0,-1000.0,-27.83203125,-1000.0,-1.0,1.0,0.0,1.0,4.m4v,5.0
2024-02-27 14:38:02.034525,1709041082.034525,-1000.0,-1000.0,-30.2734375,-1000.0,-1.0,1.0,0.0,1.0,4.m4v,5.0
2024-02-27 14:38:02.038430,1709041082.0384305,-992.1875,-991.69921875,-33.203125,-979.98046875,-1.0,1.0,0.0,1.0,4.m4v,5.0
2024-02-27 14:38:02.042336,1709041082.0423362,-954.58984375,-955.078125,-22.4609375,-975.5859375,-1.0,1.0,0.0,1.0,4.m4v,5.0
2024-02-27 14:38:02.046242,1709041082.046242,-1000.0,-1000.0,-20.01953125,-1000.0,-1.0,1.0,0.0,1.0,4.m4v,5.0
2024-02-27 14:38:02.050148,1709041082.0501475,-116.69921875,-110.3515625,-30.76171875,60.05859375,-1.0,1.0,0.0,1.0,4.m4v,5.0
2024-02-27 14:38:02.054053,1709041082.0540533,999.51171875,999.51171875,-37.59765625,999.51171875,-1.0,1.0,0.0,1.0,4.m4v,5.0
2024-02-27 14:38:02.057959,1709041082.057959,945.80078125,945.80078125,-40.52734375,927.734375,-1.0,1.0,0.0,1.0,4.m4v,5.0
2024-02-27 14:38:02.061865,1709041082.0618649,948.2421875,949.21875,-31.73828125,959.9609375,-1.0,1.0,0.0,1.0,4.m4v,5.0
2024-02-27 14:38:02.065770,1709041082.0657704,975.09765625,975.5859375,-20.01953125,973.14453125,-1.0,1.0,0.0,1.0,4.m4v,5.0
2024-02-27 14:38:02.073582,1709041082.073582,969.23828125,969.7265625,-28.80859375,969.7265625,-1.0,1.0,0.0,1.0,4.m4v,5.0
2024-02-27 14:38:02.077492,1709041082.0774918,969.23828125,969.7265625,-28.80859375,969.7265625,-1.0,1.0,0.0,1.0,4.m4v,5.0
2024-02-27 14:38:02.085303,1709041082.085303,969.23828125,969.7265625,-33.203125,969.7265625,-1.0,1.0,0.0,1.0,4.m4v,5.0
2024-02-27 14:38:02.089209,1709041082.0892088,969.23828125,969.7265625,-25.390625,969.7265625,-1.0,1.0,0.0,1.0,4.m4v,5.0
2024-02-27 14:38:02.097020,1709041082.0970204,969.23828125,969.7265625,-35.64453125,969.7265625,-1.0,1.0,0.0,1.0,4.m4v,5.0
2024-02-27 14:38:02.100926,1709041082.100926,968.75,969.7265625,-29.78515625,969.7265625,-1.0,1.0,0.0,1.0,4.m4v,5.0
2024-02-27 14:38:02.108737,1709041082.1087377,933.10546875,928.22265625,-22.94921875,924.8046875,-1.0,1.0,0.0,1.0,4.m4v,5.0
2024-02-27 14:38:02.112643,1709041082.1126432,971.19140625,984.375,-27.34375,993.1640625,-1.0,1.0,0.0,1.0,4.m4v,5.0
2024-02-27 14:38:02.120455,1709041082.1204543,-331.54296875,-396.484375,-36.1328125,-441.89453125,-1.0,1.0,0.0,1.0,4.m4v,5.0
2024-02-27 14:38:02.124364,1709041082.124364,-1000.0,-1000.0,-34.66796875,-1000.0,-1.0,1.0,0.0,1.0,4.m4v,5.0
2024-02-27 14:38:02.132175,1709041082.1321754,-1000.0,-1000.0,-29.78515625,-1000.0,-1.0,1.0,0.0,1.0,4.m4v,5.0
2024-02-27 14:38:02.139987,1709041082.139987,-1000.0,-1000.0,-35.64453125,-1000.0,-1.0,1.0,0.0,1.0,4.m4v,5.0
2024-02-27 14:38:02.147798,1709041082.1477983,-1000.0,-1000.0,-18.06640625,-1000.0,-1.0,1.0,0.0,1.0,4.m4v,5.0
2024-02-27 14:38:02.155610,1709041082.1556098,-1000.0,-1000.0,-19.53125,-1000.0,-1.0,1.0,0.0,1.0,4.m4v,5.0
2024-02-27 14:38:02.163421,1709041082.1634212,-1000.0,-1000.0,-28.80859375,-1000.0,-1.0,1.0,0.0,1.0,4.m4v,5.0
2024-02-27 14:38:02.171238,1709041082.1712377,-1000.0,-1000.0,-33.69140625,-1000.0,-1.0,1.0,0.0,1.0,4.m4v,5.0
2024-02-27 14:38:02.179049,1709041082.1790493,-942.3828125,-942.3828125,-30.76171875,-942.3828125,-1.0,1.0,0.0,1.0,4.m4v,5.0
2024-02-27 14:38:02.186861,1709041082.1868606,-891.11328125,-891.11328125,-22.4609375,-888.671875,-1.0,1.0,0.0,1.0,4.m4v,5.0
2024-02-27 14:38:02.534501,1709041082.5345008,999.51171875,999.51171875,-27.34375,999.51171875,-1.0,1.0,0.0,1.0,4.m4v,5.0
2024-02-27 14:38:02.538406,1709041082.5384064,859.86328125,860.3515625,-24.4140625,806.15234375,-1.0,1.0,0.0,1.0,4.m4v,5.0
2024-02-27 14:38:02.542312,1709041082.542312,-597.16796875,-597.16796875,-20.01953125,-652.83203125,-1.0,1.0,0.0,1.0,4.m4v,5.0
2024-02-27 14:38:02.546223,1709041082.5462232,-1000.0,-1000.0,-30.2734375,-1000.0,-1.0,1.0,0.0,1.0,4.m4v,5.0
2024-02-27 14:38:02.550129,1709041082.5501287,-925.78125,-925.78125,-28.3203125,-928.22265625,-1.0,1.0,0.0,1.0,4.m4v,5.0
2024-02-27 14:38:02.554034,1709041082.5540345,-1000.0,-1000.0,-22.94921875,-1000.0,-1.0,1.0,0.0,1.0,4.m4v,5.0
2024-02-27 14:38:02.557940,1709041082.5579402,-1000.0,-1000.0,-24.90234375,-1000.0,-1.0,1.0,0.0,1.0,4.m4v,5.0
2024-02-27 14:38:02.561846,1709041082.561846,-1000.0,-1000.0,-22.4609375,-1000.0,-1.0,1.0,0.0,1.0,4.m4v,5.0
2024-02-27 14:38:02.565752,1709041082.5657516,-1000.0,-1000.0,-31.73828125,-1000.0,-1.0,1.0,0.0,1.0,4.m4v,5.0
2024-02-27 14:38:02.569657,1709041082.569657,-1000.0,-1000.0,-45.8984375,-1000.0,-1.0,1.0,0.0,1.0,4.m4v,5.0
2024-02-27 14:38:02.573563,1709041082.573563,-1000.0,-1000.0,-38.57421875,-1000.0,-1.0,1.0,0.0,1.0,4.m4v,5.0
2024-02-27 14:38:02.577469,1709041082.5774689,-1000.0,-1000.0,-29.296875,-1000.0,-1.0,1.0,0.0,1.0,4.m4v,5.0
2024-02-27 14:38:02.581374,1709041082.5813744,-1000.0,-1000.0,-26.3671875,-1000.0,-1.0,1.0,0.0,1.0,4.m4v,5.0
2024-02-27 14:38:02.585280,1709041082.5852802,-1000.0,-1000.0,-13.671875,-1000.0,-1.0,1.0,0.0,1.0,4.m4v,5.0
2024-02-27 14:38:02.589186,1709041082.589186,-1000.0,-1000.0,-21.484375,-1000.0,-1.0,1.0,0.0,1.0,4.m4v,5.0
2024-02-27 14:38:02.593097,1709041082.5930967,-1000.0,-1000.0,-26.3671875,-1000.0,-1.0,1.0,0.0,1.0,4.m4v,5.0
2024-02-27 14:38:02.597003,1709041082.5970025,-1000.0,-1000.0,-27.83203125,-1000.0,-1.0,1.0,0.0,1.0,4.m4v,5.0
2024-02-27 14:38:02.600908,1709041082.600908,-940.4296875,-938.96484375,-32.71484375,-936.5234375,-1.0,1.0,0.0,1.0,4.m4v,5.0
2024-02-27 14:38:02.604814,1709041082.6048138,-1000.0,-1000.0,-26.85546875,-1000.0,-1.0,1.0,0.0,1.0,4.m4v,5.0
2024-02-27 14:38:02.608720,1709041082.6087196,-866.69921875,-854.98046875,-28.80859375,-761.23046875,-1.0,1.0,0.0,1.0,4.m4v,5.0
2024-02-27 14:38:02.612625,1709041082.6126254,597.16796875,612.3046875,-28.80859375,691.40625,-1.0,1.0,0.0,1.0,4.m4v,5.0
2024-02-27 14:38:02.616531,1709041082.616531,999.51171875,999.51171875,-25.390625,999.51171875,-1.0,1.0,0.0,1.0,4.m4v,5.0
2024-02-27 14:38:02.620437,1709041082.620437,895.5078125,896.484375,-27.34375,902.34375,-1.0,1.0,0.0,1.0,4.m4v,5.0
2024-02-27 14:38:02.624342,1709041082.6243424,985.3515625,986.81640625,-30.2734375,985.83984375,-1.0,1.0,0.0,1.0,4.m4v,5.0
2024-02-27 14:38:02.628248,1709041082.6282482,969.23828125,969.7265625,-28.3203125,969.7265625,-1.0,1.0,0.0,1.0,4.m4v,5.0
2024-02-27 14:38:02.632154,1709041082.6321535,969.23828125,969.7265625,-24.90234375,969.7265625,-1.0,1.0,0.0,1.0,4.m4v,5.0
2024-02-27 14:38:02.636060,1709041082.6360595,969.23828125,969.7265625,-43.9453125,969.7265625,-1.0,1.0,0.0,1.0,4.m4v,5.0
2024-02-27 14:38:02.639970,1709041082.63997,968.75,969.7265625,-49.31640625,969.7265625,-1.0,1.0,0.0,1.0,4.m4v,5.0
2024-02-27 14:38:02.643876,1709041082.6438758,969.23828125,969.7265625,-28.80859375,969.7265625,-1.0,1.0,0.0,1.0,4.m4v,5.0
2024-02-27 14:38:02.647782,1709041082.6477816,969.23828125,969.7265625,-22.94921875,969.7265625,-1.0,1.0,0.0,1.0,4.m4v,5.0
2024-02-27 14:38:02.651687,1709041082.6516871,969.23828125,969.7265625,-23.92578125,970.21484375,-1.0,1.0,0.0,1.0,4.m4v,5.0
2024-02-27 14:38:02.655593,1709041082.655593,969.23828125,969.7265625,-32.71484375,969.7265625,-1.0,1.0,0.0,1.0,4.m4v,5.0
2024-02-27 14:38:02.659499,1709041082.6594987,969.23828125,969.7265625,-36.62109375,969.7265625,-1.0,1.0,0.0,1.0,4.m4v,5.0
2024-02-27 14:38:02.663404,1709041082.6634045,969.7265625,971.19140625,-25.390625,973.14453125,-1.0,1.0,0.0,1.0,4.m4v,5.0
2024-02-27 14:38:02.667310,1709041082.66731,978.515625,974.12109375,-28.3203125,962.890625,-1.0,1.0,0.0,1.0,4.m4v,5.0
2024-02-27 14:38:02.671216,1709041082.6712158,900.87890625,908.203125,-33.203125,925.29296875,-1.0,1.0,0.0,1.0,4.m4v,5.0
2024-02-27 14:38:02.675122,1709041082.6751215,999.51171875,999.51171875,-32.2265625,999.51171875,-1.0,1.0,0.0,1.0,4.m4v,5.0
2024-02-27 14:38:02.679027,1709041082.6790273,428.22265625,320.80078125,-32.2265625,144.04296875,-1.0,1.0,0.0,1.0,4.m4v,5.0
2024-02-27 14:38:02.682933,1709041082.6829329,-948.73046875,-989.74609375,-31.73828125,-1000.0,-1.0,1.0,0.0,1.0,4.m4v,5.0
2024-02-27 14:38:02.686843,1709041082.6868434,-1000.0,-1000.0,-27.34375,-991.2109375,-1.0,1.0,0.0,1.0,4.m4v,5.0
2024-02-27 14:38:02.753245,1709041082.7532449,808.59375,826.66015625,-27.34375,896.97265625,-1.0,1.0,0.0,1.0,4.m4v,5.0
2024-02-27 14:38:02.757151,1709041082.757151,999.51171875,999.51171875,-33.69140625,999.51171875,-1.0,1.0,0.0,1.0,4.m4v,5.0
2024-02-27 14:38:02.761056,1709041082.7610564,906.73828125,909.1796875,-39.0625,921.875,-1.0,1.0,0.0,1.0,4.m4v,5.0
2024-02-27 14:38:02.764962,1709041082.7649622,986.328125,986.81640625,-38.57421875,982.91015625,-1.0,1.0,0.0,1.0,4.m4v,5.0
2024-02-27 14:38:02.768868,1709041082.7688675,969.23828125,969.7265625,-24.4140625,969.7265625,-1.0,1.0,0.0,1.0,4.m4v,5.0
2024-02-27 14:38:02.772774,1709041082.7727735,969.23828125,969.7265625,-28.80859375,969.7265625,-1.0,1.0,0.0,1.0,4.m4v,5.0
2024-02-27 14:38:02.776679,1709041082.7766793,969.23828125,969.7265625,-36.62109375,969.7265625,-1.0,1.0,0.0,1.0,4.m4v,5.0
2024-02-27 14:38:02.780589,1709041082.780589,969.23828125,969.7265625,-18.5546875,969.7265625,-1.0,1.0,0.0,1.0,4.m4v,5.0
2024-02-27 14:38:02.784495,1709041082.7844949,969.23828125,969.7265625,-10.25390625,969.7265625,-1.0,1.0,0.0,1.0,4.m4v,5.0
2024-02-27 14:38:02.788401,1709041082.788401,969.23828125,969.7265625,-17.08984375,969.7265625,-1.0,1.0,0.0,1.0,4.m4v,5.0
2024-02-27 14:38:02.792306,1709041082.7923064,969.23828125,969.7265625,-20.99609375,969.7265625,-1.0,1.0,0.0,1.0,4.m4v,5.0
2024-02-27 14:38:02.796212,1709041082.7962122,969.23828125,970.21484375,-27.34375,969.7265625,-1.0,1.0,0.0,1.0,4.m4v,5.0
2024-02-27 14:38:02.800118,1709041082.8001175,969.23828125,969.7265625,-31.73828125,969.7265625,-1.0,1.0,0.0,1.0,4.m4v,5.0
2024-02-27 14:38:02.804024,1709041082.8040235,977.05078125,983.88671875,-30.2734375,979.00390625,-1.0,1.0,0.0,1.0,4.m4v,5.0
2024-02-27 14:38:02.807929,1709041082.8079293,937.5,919.921875,-38.0859375,935.05859375,-1.0,1.0,0.0,1.0,4.m4v,5.0
2024-02-27 14:38:02.811835,1709041082.811835,960.9375,999.51171875,-33.69140625,969.7265625,-1.0,1.0,0.0,1.0,4.m4v,5.0
2024-02-27 14:38:02.815741,1709041082.8157406,999.51171875,918.45703125,-21.97265625,999.51171875,-1.0,1.0,0.0,1.0,4.m4v,5.0
2024-02-27 14:38:02.819646,1709041082.8196464,-270.01953125,-499.51171875,-24.90234375,-311.5234375,-1.0,1.0,0.0,1.0,4.m4v,5.0
2024-02-27 14:38:02.823552,1709041082.823552,-1000.0,-1000.0,-25.87890625,-1000.0,-1.0,1.0,0.0,1.0,4.m4v,5.0
2024-02-27 14:38:02.827462,1709041082.827462,-934.5703125,-926.26953125,-27.83203125,-933.10546875,-1.0,1.0,0.0,1.0,4.m4v,5.0
2024-02-27 14:38:02.831367,1709041082.8313675,-1000.0,-1000.0,-19.04296875,-1000.0,-1.0,1.0,0.0,1.0,4.m4v,5.0
2024-02-27 14:38:02.835273,1709041082.8352733,-1000.0,-1000.0,-20.01953125,-1000.0,-1.0,1.0,0.0,1.0,4.m4v,5.0
2024-02-27 14:38:02.839179,1709041082.839179,-1000.0,-1000.0,-38.0859375,-1000.0,-1.0,1.0,0.0,1.0,4.m4v,5.0
2024-02-27 14:38:02.843085,1709041082.8430848,-1000.0,-1000.0,-33.69140625,-1000.0,-1.0,1.0,0.0,1.0,4.m4v,5.0
2024-02-27 14:38:02.846990,1709041082.8469903,-1000.0,-1000.0,-18.06640625,-1000.0,-1.0,1.0,0.0,1.0,4.m4v,5.0
2024-02-27 14:38:02.854802,1709041082.854802,-1000.0,-1000.0,-24.4140625,-1000.0,-1.0,1.0,0.0,1.0,4.m4v,5.0
2024-02-27 14:38:02.858708,1709041082.8587077,-1000.0,-1000.0,-28.3203125,-1000.0,-1.0,1.0,0.0,1.0,4.m4v,5.0
2024-02-27 14:38:02.866519,1709041082.866519,-1000.0,-1000.0,-28.80859375,-1000.0,-1.0,1.0,0.0,1.0,4.m4v,5.0
2024-02-27 14:38:02.870425,1709041082.8704247,-887.20703125,-864.2578125,-35.64453125,-771.97265625,-1.0,1.0,0.0,1.0,4.m4v,5.0
2024-02-27 14:38:02.878240,1709041082.8782403,999.51171875,999.51171875,-31.25,999.51171875,-1.0,1.0,0.0,1.0,4.m4v,5.0
2024-02-27 14:38:03.007139,1709041083.007139,969.23828125,969.7265625,-20.5078125,969.7265625,-1.0,1.0,0.0,1.0,4.m4v,5.0
2024-02-27 14:38:03.011045,1709041083.0110447,969.23828125,969.7265625,-21.484375,969.7265625,-1.0,1.0,0.0,1.0,4.m4v,5.0
2024-02-27 14:38:03.014955,1709041083.0149553,968.75,969.7265625,-41.015625,969.7265625,-1.0,1.0,0.0,1.0,4.m4v,5.0
2024-02-27 14:38:03.018861,1709041083.018861,969.23828125,969.7265625,-46.875,969.7265625,-1.0,1.0,0.0,1.0,4.m4v,5.0
2024-02-27 14:38:03.022767,1709041083.0227668,969.23828125,969.7265625,-34.66796875,969.7265625,-1.0,1.0,0.0,1.0,4.m4v,5.0
2024-02-27 14:38:03.026672,1709041083.0266724,969.23828125,969.7265625,-37.109375,971.19140625,-1.0,1.0,0.0,1.0,4.m4v,5.0
2024-02-27 14:38:03.030578,1709041083.030578,985.83984375,986.81640625,-41.50390625,978.515625,-1.0,1.0,0.0,1.0,4.m4v,5.0
2024-02-27 14:38:03.034484,1709041083.034484,907.2265625,905.2734375,-29.296875,915.52734375,-1.0,1.0,0.0,1.0,4.m4v,5.0
2024-02-27 14:38:03.038390,1709041083.0383897,999.51171875,999.51171875,-25.390625,999.51171875,-1.0,1.0,0.0,1.0,4.m4v,5.0
2024-02-27 14:38:03.042295,1709041083.0422952,816.89453125,784.1796875,-32.2265625,583.984375,-1.0,1.0,0.0,1.0,4.m4v,5.0
2024-02-27 14:38:03.046201,1709041083.046201,-650.390625,-688.96484375,-34.1796875,-778.3203125,-1.0,1.0,0.0,1.0,4.m4v,5.0
2024-02-27 14:38:03.050107,1709041083.0501068,-1000.0,-1000.0,-34.1796875,-1000.0,-1.0,1.0,0.0,1.0,4.m4v,5.0
2024-02-27 14:38:03.054013,1709041083.0540123,-927.24609375,-928.7109375,-49.31640625,-942.87109375,-1.0,1.0,0.0,1.0,4.m4v,5.0
2024-02-27 14:38:03.057918,1709041083.057918,-1000.0,-1000.0,-46.875,-1000.0,-1.0,1.0,0.0,1.0,4.m4v,5.0
2024-02-27 14:38:03.061831,1709041083.0618317,-1000.0,-1000.0,-44.921875,-1000.0,-1.0,1.0,0.0,1.0,4.m4v,5.0
2024-02-27 14:38:03.065737,1709041083.065737,-1000.0,-1000.0,-48.33984375,-1000.0,-1.0,1.0,0.0,1.0,4.m4v,5.0
2024-02-27 14:38:03.069643,1709041083.0696428,-1000.0,-1000.0,-32.2265625,-1000.0,-1.0,1.0,0.0,1.0,4.m4v,5.0
2024-02-27 14:38:03.073549,1709041083.0735486,-1000.0,-1000.0,-25.87890625,-1000.0,-1.0,1.0,0.0,1.0,4.m4v,5.0
2024-02-27 14:38:03.077454,1709041083.0774543,-1000.0,-1000.0,-34.66796875,-1000.0,-1.0,1.0,0.0,1.0,4.m4v,5.0
2024-02-27 14:38:03.081360,1709041083.08136,-1000.0,-1000.0,-39.55078125,-1000.0,-1.0,1.0,0.0,1.0,4.m4v,5.0
2024-02-27 14:38:03.085266,1709041083.0852656,-1000.0,-1000.0,-35.64453125,-1000.0,-1.0,1.0,0.0,1.0,4.m4v,5.0
2024-02-27 14:38:03.089171,1709041083.0891714,-1000.0,-1000.0,-38.57421875,-1000.0,-1.0,1.0,0.0,1.0,4.m4v,5.0
2024-02-27 14:38:03.093077,1709041083.0930772,-1000.0,-1000.0,-44.921875,-1000.0,-1.0,1.0,0.0,1.0,4.m4v,5.0
2024-02-27 14:38:03.096983,1709041083.0969827,-1000.0,-1000.0,-50.29296875,-1000.0,-1.0,1.0,0.0,1.0,4.m4v,5.0
2024-02-27 14:38:03.100888,1709041083.1008885,-942.3828125,-940.91796875,-54.19921875,-938.4765625,-1.0,1.0,0.0,1.0,4.m4v,5.0
2024-02-27 14:38:03.104794,1709041083.1047945,-1000.0,-1000.0,-41.9921875,-1000.0,-1.0,1.0,0.0,1.0,4.m4v,5.0
2024-02-27 14:38:03.108706,1709041083.108706,-888.671875,-872.0703125,-33.203125,-840.8203125,-1.0,1.0,0.0,1.0,4.m4v,5.0
2024-02-27 14:38:03.112612,1709041083.1126115,568.84765625,590.8203125,-33.69140625,623.53515625,-1.0,1.0,0.0,1.0,4.m4v,5.0
2024-02-27 14:38:03.116517,1709041083.1165173,999.51171875,999.51171875,-35.64453125,999.51171875,-1.0,1.0,0.0,1.0,4.m4v,5.0
2024-02-27 14:38:03.120423,1709041083.120423,894.53125,895.5078125,-35.15625,897.4609375,-1.0,1.0,0.0,1.0,4.m4v,5.0
2024-02-27 14:38:03.124329,1709041083.1243289,984.86328125,985.83984375,-20.01953125,986.328125,-1.0,1.0,0.0,1.0,4.m4v,5.0
2024-02-27 14:38:03.128234,1709041083.1282344,969.23828125,969.7265625,-21.97265625,969.7265625,-1.0,1.0,0.0,1.0,4.m4v,5.0
2024-02-27 14:38:03.132140,1709041083.1321402,969.23828125,969.7265625,-31.25,969.7265625,-1.0,1.0,0.0,1.0,4.m4v,5.0
2024-02-27 14:38:03.136046,1709041083.136046,969.23828125,969.7265625,-27.34375,969.7265625,-1.0,1.0,0.0,1.0,4.m4v,5.0
2024-02-27 14:38:03.139952,1709041083.1399517,969.23828125,969.7265625,-35.15625,969.7265625,-1.0,1.0,0.0,1.0,4.m4v,5.0
2024-02-27 14:38:03.143857,1709041083.1438572,969.23828125,969.7265625,-49.31640625,969.7265625,-1.0,1.0,0.0,1.0,4.m4v,5.0
2024-02-27 14:38:03.147763,1709041083.147763,969.23828125,969.7265625,-45.41015625,969.7265625,-1.0,1.0,0.0,1.0,4.m4v,5.0
2024-02-27 14:38:03.151669,1709041083.1516688,969.23828125,969.7265625,-38.0859375,969.7265625,-1.0,1.0,0.0,1.0,4.m4v,5.0
2024-02-27 14:38:03.155579,1709041083.1555786,969.23828125,969.7265625,-41.9921875,969.7265625,-1.0,1.0,0.0,1.0,4.m4v,5.0
2024-02-27 14:38:03.159484,1709041083.1594844,968.75,969.7265625,-41.50390625,969.7265625,-1.0,1.0,0.0,1.0,4.m4v,5.0
2024-02-27 14:38:03.163390,1709041083.1633902,969.23828125,969.7265625,-35.15625,969.7265625,-1.0,1.0,0.0,1.0,4.m4v,5.0
2024-02-27 14:38:03.167296,1709041083.167296,985.3515625,986.328125,-36.62109375,985.83984375,-1.0,1.0,0.0,1.0,4.m4v,5.0
2024-02-27 14:38:03.171201,1709041083.1712017,911.1328125,912.109375,-37.59765625,907.71484375,-1.0,1.0,0.0,1.0,4.m4v,5.0
2024-02-27 14:38:03.175107,1709041083.1751072,999.51171875,999.51171875,-38.57421875,999.51171875,-1.0,1.0,0.0,1.0,4.m4v,5.0
2024-02-27 14:38:03.179013,1709041083.179013,859.86328125,860.3515625,-41.015625,790.0390625,-1.0,1.0,0.0,1.0,4.m4v,5.0
2024-02-27 14:38:03.425096,1709041083.4250958,-1000.0,-1000.0,-44.43359375,-1000.0,-1.0,1.0,0.0,1.0,4.m4v,5.0
2024-02-27 14:38:03.429002,1709041083.4290016,-1000.0,-1000.0,-48.828125,-1000.0,-1.0,1.0,0.0,1.0,4.m4v,5.0
2024-02-27 14:38:03.432907,1709041083.432907,-1000.0,-1000.0,-46.38671875,-1000.0,-1.0,1.0,0.0,1.0,4.m4v,5.0
2024-02-27 14:38:03.436818,1709041083.4368176,-1000.0,-1000.0,-33.203125,-1000.0,-1.0,1.0,0.0,1.0,4.m4v,5.0
2024-02-27 14:38:03.440723,1709041083.4407234,-1000.0,-1000.0,-39.0625,-1000.0,-1.0,1.0,0.0,1.0,4.m4v,5.0
2024-02-27 14:38:03.444629,1709041083.444629,-1000.0,-1000.0,-50.29296875,-1000.0,-1.0,1.0,0.0,1.0,4.m4v,5.0
2024-02-27 14:38:03.448535,1709041083.4485347,-1000.0,-1000.0,-37.109375,-1000.0,-1.0,1.0,0.0,1.0,4.m4v,5.0
2024-02-27 14:38:03.452441,1709041083.4524405,-1000.0,-1000.0,-34.66796875,-1000.0,-1.0,1.0,0.0,1.0,4.m4v,5.0
2024-02-27 14:38:03.456346,1709041083.4563465,-1000.0,-1000.0,-40.52734375,-1000.0,-1.0,1.0,0.0,1.0,4.m4v,5.0
2024-02-27 14:38:03.460252,1709041083.4602518,-953.125,-954.1015625,-43.9453125,-949.70703125,-1.0,1.0,0.0,1.0,4.m4v,5.0
2024-02-27 14:38:03.464158,1709041083.4641576,-1000.0,-1000.0,-48.828125,-1000.0,-1.0,1.0,0.0,1.0,4.m4v,5.0
2024-02-27 14:38:03.468063,1709041083.4680634,-967.7734375,-976.07421875,-43.9453125,-945.3125,-1.0,1.0,0.0,1.0,4.m4v,5.0
2024-02-27 14:38:03.471969,1709041083.4719691,436.03515625,422.8515625,-36.1328125,474.609375,-1.0,1.0,0.0,1.0,4.m4v,5.0
2024-02-27 14:38:03.475875,1709041083.475875,999.51171875,999.51171875,-33.69140625,999.51171875,-1.0,1.0,0.0,1.0,4.m4v,5.0
2024-02-27 14:38:03.479780,1709041083.4797804,895.01953125,895.99609375,-37.59765625,895.5078125,-1.0,1.0,0.0,1.0,4.m4v,5.0
2024-02-27 14:38:03.483691,1709041083.4836907,980.95703125,981.4453125,-36.62109375,982.91015625,-1.0,1.0,0.0,1.0,4.m4v,5.0
2024-02-27 14:38:03.487596,1709041083.4875965,969.23828125,969.7265625,-26.3671875,969.7265625,-1.0,1.0,0.0,1.0,4.m4v,5.0
2024-02-27 14:38:03.491502,1709041083.491502,969.23828125,969.7265625,-28.3203125,969.7265625,-1.0,1.0,0.0,1.0,4.m4v,5.0
2024-02-27 14:38:03.495408,1709041083.4954078,969.23828125,969.7265625,-31.73828125,969.7265625,-1.0,1.0,0.0,1.0,4.m4v,5.0
2024-02-27 14:38:03.499314,1709041083.4993136,969.23828125,969.7265625,-27.34375,969.7265625,-1.0,1.0,0.0,1.0,4.m4v,5.0
2024-02-27 14:38:03.503219,1709041083.5032191,969.23828125,969.7265625,-29.78515625,969.7265625,-1.0,1.0,0.0,1.0,4.m4v,5.0
2024-02-27 14:38:03.507125,1709041083.507125,969.23828125,969.7265625,-33.203125,969.7265625,-1.0,1.0,0.0,1.0,4.m4v,5.0
2024-02-27 14:38:03.511031,1709041083.511031,969.23828125,969.7265625,-37.109375,969.7265625,-1.0,1.0,0.0,1.0,4.m4v,5.0
2024-02-27 14:38:03.514936,1709041083.5149364,969.23828125,969.7265625,-32.71484375,969.7265625,-1.0,1.0,0.0,1.0,4.m4v,5.0
2024-02-27 14:38:03.518842,1709041083.518842,969.23828125,969.7265625,-28.3203125,969.7265625,-1.0,1.0,0.0,1.0,4.m4v,5.0
2024-02-27 14:38:03.522748,1709041083.5227478,969.23828125,969.7265625,-30.2734375,969.7265625,-1.0,1.0,0.0,1.0,4.m4v,5.0
2024-02-27 14:38:03.526654,1709041083.5266535,985.3515625,986.328125,-30.76171875,986.328125,-1.0,1.0,0.0,1.0,4.m4v,5.0
2024-02-27 14:38:03.530564,1709041083.5305636,911.1328125,912.109375,-32.71484375,909.66796875,-1.0,1.0,0.0,1.0,4.m4v,5.0
2024-02-27 14:38:03.534469,1709041083.5344694,999.51171875,999.51171875,-38.0859375,999.51171875,-1.0,1.0,0.0,1.0,4.m4v,5.0
2024-02-27 14:38:03.538375,1709041083.5383751,859.86328125,860.83984375,-37.59765625,833.49609375,-1.0,1.0,0.0,1.0,4.m4v,5.0
2024-02-27 14:38:03.542281,1709041083.542281,-597.16796875,-597.16796875,-32.71484375,-627.9296875,-1.0,1.0,0.0,1.0,4.m4v,5.0
2024-02-27 14:38:03.546186,1709041083.5461864,-1000.0,-1000.0,-25.87890625,-1000.0,-1.0,1.0,0.0,1.0,4.m4v,5.0
2024-02-27 14:38:03.550092,1709041083.5500922,-925.78125,-925.78125,-22.94921875,-926.7578125,-1.0,1.0,0.0,1.0,4.m4v,5.0
2024-02-27 14:38:03.553998,1709041083.553998,-1000.0,-1000.0,-22.4609375,-1000.0,-1.0,1.0,0.0,1.0,4.m4v,5.0
2024-02-27 14:38:03.557904,1709041083.5579038,-1000.0,-1000.0,-24.90234375,-1000.0,-1.0,1.0,0.0,1.0,4.m4v,5.0
2024-02-27 14:38:03.561809,1709041083.5618093,-1000.0,-1000.0,-28.3203125,-1000.0,-1.0,1.0,0.0,1.0,4.m4v,5.0
2024-02-27 14:38:03.565715,1709041083.565715,-1000.0,-1000.0,-27.83203125,-1000.0,-1.0,1.0,0.0,1.0,4.m4v,5.0
2024-02-27 14:38:03.569621,1709041083.5696208,-1000.0,-1000.0,-27.83203125,-1000.0,-1.0,1.0,0.0,1.0,4.m4v,5.0
2024-02-27 14:38:03.573527,1709041083.5735266,-1000.0,-1000.0,-39.0625,-1000.0,-1.0,1.0,0.0,1.0,4.m4v,5.0
2024-02-27 14:38:03.577436,1709041083.5774364,-1000.0,-1000.0,-37.109375,-1000.0,-1.0,1.0,0.0,1.0,4.m4v,5.0
2024-02-27 14:38:03.581342,1709041083.581342,-970.703125,-961.9140625,-23.92578125,-960.9375,-1.0,1.0,0.0,1.0,4.m4v,5.0
2024-02-27 14:38:03.585248,1709041083.5852478,-988.76953125,-1000.0,-24.4140625,-1000.0,-1.0,1.0,0.0,1.0,4.m4v,5.0
2024-02-27 14:38:03.589154,1709041083.5891535,-1000.0,-1000.0,-24.4140625,-1000.0,-1.0,1.0,0.0,1.0,4.m4v,5.0
2024-02-27 14:38:03.593059,1709041083.5930593,212.890625,327.1484375,-17.08984375,339.84375,-1.0,1.0,0.0,1.0,4.m4v,5.0
2024-02-27 14:38:03.596965,1709041083.5969648,999.51171875,999.51171875,-24.4140625,999.51171875,-1.0,1.0,0.0,1.0,4.m4v,5.0
2024-02-27 14:38:03.600871,1709041083.6008706,905.76171875,899.90234375,-29.78515625,900.87890625,-1.0,1.0,0.0,1.0,4.m4v,5.0
2024-02-27 14:38:03.604776,1709041083.6047764,970.703125,977.05078125,-24.90234375,977.5390625,-1.0,1.0,0.0,1.0,4.m4v,5.0
2024-02-27 14:38:03.608682,1709041083.6086822,969.23828125,969.7265625,-19.53125,969.7265625,-1.0,1.0,0.0,1.0,4.m4v,5.0
2024-02-27 14:38:03.612588,1709041083.6125877,969.23828125,969.7265625,-17.08984375,969.7265625,-1.0,1.0,0.0,1.0,4.m4v,5.0
2024-02-27 14:38:03.616493,1709041083.6164937,969.23828125,970.21484375,-24.90234375,969.7265625,-1.0,1.0,0.0,1.0,4.m4v,5.0
2024-02-27 14:38:03.620399,1709041083.6203992,969.23828125,970.21484375,-41.015625,969.7265625,-1.0,1.0,0.0,1.0,4.m4v,5.0
2024-02-27 14:38:03.624310,1709041083.6243105,969.23828125,969.7265625,-43.45703125,969.7265625,-1.0,1.0,0.0,1.0,4.m4v,5.0
2024-02-27 14:38:03.628216,1709041083.628216,969.23828125,970.21484375,-37.59765625,969.7265625,-1.0,1.0,0.0,1.0,4.m4v,5.0
2024-02-27 14:38:03.632122,1709041083.6321218,969.23828125,969.7265625,-32.2265625,969.7265625,-1.0,1.0,0.0,1.0,4.m4v,5.0
2024-02-27 14:38:03.636027,1709041083.636027,969.23828125,969.7265625,-26.85546875,969.7265625,-1.0,1.0,0.0,1.0,4.m4v,5.0
2024-02-27 14:38:03.639933,1709041083.639933,969.23828125,969.7265625,-32.2265625,969.7265625,-1.0,1.0,0.0,1.0,4.m4v,5.0
2024-02-27 14:38:03.643839,1709041083.643839,969.23828125,970.703125,-23.4375,971.19140625,-1.0,1.0,0.0,1.0,4.m4v,5.0
2024-02-27 14:38:03.647745,1709041083.647745,983.88671875,977.5390625,-19.04296875,974.609375,-1.0,1.0,0.0,1.0,4.m4v,5.0
2024-02-27 14:38:03.651650,1709041083.6516502,896.484375,904.296875,-21.97265625,909.1796875,-1.0,1.0,0.0,1.0,4.m4v,5.0
2024-02-27 14:38:03.655556,1709041083.655556,999.51171875,999.51171875,-26.85546875,999.51171875,-1.0,1.0,0.0,1.0,4.m4v,5.0
2024-02-27 14:38:03.659462,1709041083.6594615,558.10546875,393.06640625,-35.15625,370.1171875,-1.0,1.0,0.0,1.0,4.m4v,5.0
2024-02-27 14:38:03.663368,1709041083.6633675,-885.25390625,-959.9609375,-42.48046875,-954.1015625,-1.0,1.0,0.0,1.0,4.m4v,5.0
2024-02-27 14:38:03.667273,1709041083.667273,-1000.0,-1000.0,-48.828125,-1000.0,-1.0,1.0,0.0,1.0,4.m4v,5.0
2024-02-27 14:38:03.671184,1709041083.671184,-943.359375,-956.0546875,-40.0390625,-957.51953125,-1.0,1.0,0.0,1.0,4.m4v,5.0
2024-02-27 14:38:03.675090,1709041083.6750898,-1000.0,-1000.0,-25.87890625,-1000.0,-1.0,1.0,0.0,1.0,4.m4v,5.0
2024-02-27 14:38:03.678995,1709041083.6789954,-1000.0,-1000.0,-20.01953125,-1000.0,-1.0,1.0,0.0,1.0,4.m4v,5.0
2024-02-27 14:38:03.682901,1709041083.6829011,-1000.0,-1000.0,-19.04296875,-1000.0,-1.0,1.0,0.0,1.0,4.m4v,5.0
2024-02-27 14:38:03.686807,1709041083.686807,-1000.0,-1000.0,-22.94921875,-1000.0,-1.0,1.0,0.0,1.0,4.m4v,5.0
2024-02-27 14:38:03.690713,1709041083.6907127,-1000.0,-1000.0,-26.3671875,-1000.0,-1.0,1.0,0.0,1.0,4.m4v,5.0
2024-02-27 14:38:03.694618,1709041083.6946182,-1000.0,-1000.0,-35.64453125,-1000.0,-1.0,1.0,0.0,1.0,4.m4v,5.0
2024-02-27 14:38:03.698524,1709041083.698524,-1000.0,-1000.0,-46.875,-1000.0,-1.0,1.0,0.0,1.0,4.m4v,5.0
2024-02-27 14:38:03.702430,1709041083.7024298,-1000.0,-1000.0,-47.8515625,-983.3984375,-1.0,1.0,0.0,1.0,4.m4v,5.0
2024-02-27 14:38:03.706336,1709041083.7063355,-938.4765625,-927.24609375,-37.109375,-977.5390625,-1.0,1.0,0.0,1.0,4.m4v,5.0
2024-02-27 14:38:03.710241,1709041083.710241,-1000.0,-1000.0,-34.1796875,-1000.0,-1.0,1.0,0.0,1.0,4.m4v,5.0
2024-02-27 14:38:03.714147,1709041083.7141469,-372.0703125,-616.2109375,-34.1796875,-39.55078125,-1.0,1.0,0.0,1.0,4.m4v,5.0
2024-02-27 14:38:03.718058,1709041083.7180576,946.2890625,839.84375,-30.76171875,999.51171875,-1.0,1.0,0.0,1.0,4.m4v,5.0
2024-02-27 14:38:03.721963,1709041083.7219634,986.328125,999.51171875,-32.71484375,952.63671875,-1.0,1.0,0.0,1.0,4.m4v,5.0
2024-02-27 14:38:03.725869,1709041083.725869,928.7109375,910.64453125,-40.52734375,949.70703125,-1.0,1.0,0.0,1.0,4.m4v,5.0
2024-02-27 14:38:03.729775,1709041083.7297747,980.46875,986.328125,-42.96875,976.5625,-1.0,1.0,0.0,1.0,4.m4v,5.0
2024-02-27 14:38:03.733680,1709041083.7336805,969.23828125,969.7265625,-31.73828125,969.7265625,-1.0,1.0,0.0,1.0,4.m4v,5.0
2024-02-27 14:38:03.737586,1709041083.7375865,969.23828125,969.7265625,-29.296875,969.7265625,-1.0,1.0,0.0,1.0,4.m4v,5.0
2024-02-27 14:38:03.741492,1709041083.7414918,969.23828125,969.7265625,-39.0625,969.7265625,-1.0,1.0,0.0,1.0,4.m4v,5.0
2024-02-27 14:38:03.745398,1709041083.7453976,969.23828125,969.7265625,-44.43359375,969.7265625,-1.0,1.0,0.0,1.0,4.m4v,5.0
2024-02-27 14:38:03.749303,1709041083.749303,969.23828125,969.7265625,-41.9921875,969.7265625,-1.0,1.0,0.0,1.0,4.m4v,5.0
2024-02-27 14:38:03.753209,1709041083.753209,969.23828125,969.7265625,-38.0859375,969.7265625,-1.0,1.0,0.0,1.0,4.m4v,5.0
2024-02-27 14:38:03.757115,1709041083.7571146,969.23828125,969.7265625,-40.52734375,969.7265625,-1.0,1.0,0.0,1.0,4.m4v,5.0
2024-02-27 14:38:03.761020,1709041083.7610204,969.23828125,969.7265625,-35.15625,969.7265625,-1.0,1.0,0.0,1.0,4.m4v,5.0
2024-02-27 14:38:03.764931,1709041083.764931,975.5859375,977.5390625,-24.90234375,979.98046875,-1.0,1.0,0.0,1.0,4.m4v,5.0
2024-02-27 14:38:03.768837,1709041083.7688367,944.3359375,939.94140625,-23.92578125,932.6171875,-1.0,1.0,0.0,1.0,4.m4v,5.0
2024-02-27 14:38:03.772743,1709041083.7727425,949.21875,958.49609375,-35.15625,976.07421875,-1.0,1.0,0.0,1.0,4.m4v,5.0
2024-02-27 14:38:03.776648,1709041083.776648,999.51171875,999.51171875,-41.50390625,984.375,-1.0,1.0,0.0,1.0,4.m4v,5.0
2024-02-27 14:38:03.780554,1709041083.7805538,-177.24609375,-243.65234375,-29.296875,-339.35546875,-1.0,1.0,0.0,1.0,4.m4v,5.0
2024-02-27 14:38:03.784460,1709041083.7844596,-1000.0,-1000.0,-27.34375,-1000.0,-1.0,1.0,0.0,1.0,4.m4v,5.0
2024-02-27 14:38:03.788365,1709041083.7883654,-943.84765625,-937.5,-33.203125,-934.08203125,-1.0,1.0,0.0,1.0,4.m4v,5.0
2024-02-27 14:38:03.792271,1709041083.792271,-997.55859375,-1000.0,-32.71484375,-1000.0,-1.0,1.0,0.0,1.0,4.m4v,5.0
2024-02-27 14:38:03.796177,1709041083.796177,-1000.0,-1000.0,-38.57421875,-1000.0,-1.0,1.0,0.0,1.0,4.m4v,5.0
2024-02-27 14:38:03.803988,1709041083.8039882,-1000.0,-1000.0,-34.1796875,-1000.0,-1.0,1.0,0.0,1.0,4.m4v,5.0
2024-02-27 14:38:03.811804,1709041083.811804,-1000.0,-1000.0,-29.78515625,-1000.0,-1.0,1.0,0.0,1.0,4.m4v,5.0
2024-02-27 14:38:03.819616,1709041083.8196156,-1000.0,-1000.0,-42.96875,-1000.0,-1.0,1.0,0.0,1.0,4.m4v,5.0
2024-02-27 14:38:03.827427,1709041083.827427,-1000.0,-1000.0,-22.94921875,-1000.0,-1.0,1.0,0.0,1.0,4.m4v,5.0
2024-02-27 14:38:03.835238,1709041083.8352385,565.91796875,573.2421875,-29.78515625,601.07421875,-1.0,1.0,0.0,1.0,4.m4v,5.0
2024-02-27 14:38:03.843050,1709041083.8430498,894.53125,895.01953125,-45.41015625,897.4609375,-1.0,1.0,0.0,1.0,4.m4v,5.0
2024-02-27 14:38:03.850861,1709041083.8508613,969.23828125,969.7265625,-27.83203125,969.7265625,-1.0,1.0,0.0,1.0,4.m4v,5.0
2024-02-27 14:38:03.858677,1709041083.8586771,969.23828125,970.21484375,-26.3671875,969.7265625,-1.0,1.0,0.0,1.0,4.m4v,5.0
2024-02-27 14:38:03.866488,1709041083.8664885,969.23828125,969.7265625,-21.484375,969.7265625,-1.0,1.0,0.0,1.0,4.m4v,5.0
2024-02-27 14:38:03.874300,1709041083.8743,969.23828125,969.7265625,-26.3671875,969.7265625,-1.0,1.0,0.0,1.0,4.m4v,5.0
2024-02-27 14:38:03.882111,1709041083.8821113,970.703125,979.00390625,-32.71484375,972.65625,-1.0,1.0,0.0,1.0,4.m4v,5.0
2024-02-27 14:38:03.889923,1709041083.8899229,913.57421875,967.7734375,-37.109375,922.36328125,-1.0,1.0,0.0,1.0,4.m4v,5.0
2024-02-27 14:38:03.897734,1709041083.8977342,219.23828125,-285.64453125,-24.90234375,130.37109375,-1.0,1.0,0.0,1.0,4.m4v,5.0
2024-02-27 14:38:03.905550,1709041083.90555,-997.0703125,-937.01171875,-18.5546875,-985.3515625,-1.0,1.0,0.0,1.0,4.m4v,5.0
2024-02-27 14:38:03.913361,1709041083.9133613,-1000.0,-1000.0,-39.0625,-1000.0,-1.0,1.0,0.0,1.0,4.m4v,5.0
2024-02-27 14:38:03.921173,1709041083.9211729,-1000.0,-1000.0,-25.87890625,-1000.0,-1.0,1.0,0.0,1.0,4.m4v,5.0
2024-02-27 14:38:03.928984,1709041083.9289842,-1000.0,-1000.0,-31.73828125,-1000.0,-1.0,1.0,0.0,1.0,4.m4v,5.0
2024-02-27 14:38:03.936796,1709041083.9367957,-1000.0,-1000.0,-35.64453125,-1000.0,-1.0,1.0,0.0,1.0,4.m4v,5.0
2024-02-27 14:38:03.948513,1709041083.9485128,-1000.0,-1000.0,-37.109375,-1000.0,-1.0,1.0,0.0,1.0,4.m4v,5.0
2024-02-27 14:38:03.960234,1709041083.9602342,999.51171875,999.51171875,-30.2734375,999.51171875,-1.0,1.0,0.0,1.0,4.m4v,5.0
2024-02-27 14:38:03.971951,1709041083.9719515,969.23828125,969.7265625,-24.4140625,969.7265625,-1.0,1.0,0.0,1.0,4.m4v,5.0
2024-02-27 14:38:03.979763,1709041083.9797628,969.23828125,969.7265625,-23.4375,969.7265625,-1.0,1.0,0.0,1.0,4.m4v,5.0
2024-02-27 14:38:03.987574,1709041083.9875743,969.23828125,969.7265625,-25.390625,969.7265625,-1.0,1.0,0.0,1.0,4.m4v,5.0
2024-02-27 14:38:04.085226,1709041084.085226,927.734375,930.17578125,-37.59765625,950.1953125,-1.0,1.0,0.0,1.0,4.m4v,5.0
2024-02-27 14:38:04.093043,1709041084.0930426,969.23828125,969.7265625,-26.3671875,969.7265625,-1.0,1.0,0.0,1.0,4.m4v,5.0
2024-02-27 14:38:04.100854,1709041084.100854,969.23828125,969.7265625,-32.2265625,969.7265625,-1.0,1.0,0.0,1.0,4.m4v,5.0
2024-02-27 14:38:04.104760,1709041084.1047597,969.23828125,969.7265625,-27.34375,969.7265625,-1.0,1.0,0.0,1.0,4.m4v,5.0
2024-02-27 14:38:04.108665,1709041084.1086657,968.75,970.21484375,-24.90234375,969.7265625,-1.0,1.0,0.0,1.0,4.m4v,5.0
2024-02-27 14:38:04.112571,1709041084.1125712,969.23828125,969.7265625,-37.59765625,969.7265625,-1.0,1.0,0.0,1.0,4.m4v,5.0
2024-02-27 14:38:04.116477,1709041084.1164768,969.23828125,969.7265625,-40.0390625,969.7265625,-1.0,1.0,0.0,1.0,4.m4v,5.0
2024-02-27 14:38:04.120383,1709041084.1203823,969.23828125,969.7265625,-25.87890625,969.7265625,-1.0,1.0,0.0,1.0,4.m4v,5.0
2024-02-27 14:38:04.124288,1709041084.1242883,969.7265625,970.21484375,-22.4609375,973.14453125,-1.0,1.0,0.0,1.0,4.m4v,5.0
2024-02-27 14:38:04.132100,1709041084.1320996,899.90234375,896.97265625,-22.94921875,925.78125,-1.0,1.0,0.0,1.0,4.m4v,5.0
2024-02-27 14:38:04.139916,1709041084.139916,449.70703125,537.109375,-38.57421875,153.3203125,-1.0,1.0,0.0,1.0,4.m4v,5.0
2024-02-27 14:38:04.147727,1709041084.1477275,-1000.0,-1000.0,-40.52734375,-993.1640625,-1.0,1.0,0.0,1.0,4.m4v,5.0
2024-02-27 14:38:04.151633,1709041084.151633,-951.66015625,-944.82421875,-29.78515625,-972.65625,-1.0,1.0,0.0,1.0,4.m4v,5.0
2024-02-27 14:38:04.155539,1709041084.1555388,-1000.0,-1000.0,-25.87890625,-1000.0,-1.0,1.0,0.0,1.0,4.m4v,5.0
2024-02-27 14:38:04.159445,1709041084.1594446,-1000.0,-1000.0,-32.71484375,-1000.0,-1.0,1.0,0.0,1.0,4.m4v,5.0
2024-02-27 14:38:04.163350,1709041084.1633503,-1000.0,-1000.0,-38.57421875,-1000.0,-1.0,1.0,0.0,1.0,4.m4v,5.0
2024-02-27 14:38:04.167256,1709041084.167256,-1000.0,-1000.0,-33.203125,-1000.0,-1.0,1.0,0.0,1.0,4.m4v,5.0
2024-02-27 14:38:04.171162,1709041084.1711617,-1000.0,-1000.0,-30.76171875,-1000.0,-1.0,1.0,0.0,1.0,4.m4v,5.0
2024-02-27 14:38:04.175067,1709041084.1750674,-1000.0,-1000.0,-28.3203125,-1000.0,-1.0,1.0,0.0,1.0,4.m4v,5.0
2024-02-27 14:38:04.178973,1709041084.1789732,-1000.0,-1000.0,-34.1796875,-1000.0,-1.0,1.0,0.0,1.0,4.m4v,5.0
2024-02-27 14:38:04.182879,1709041084.1828787,-1000.0,-1000.0,-43.45703125,-1000.0,-1.0,1.0,0.0,1.0,4.m4v,5.0
2024-02-27 14:38:04.186789,1709041084.1867893,-1000.0,-1000.0,-35.64453125,-1000.0,-1.0,1.0,0.0,1.0,4.m4v,5.0
2024-02-27 14:38:04.190695,1709041084.190695,-1000.0,-1000.0,-27.34375,-1000.0,-1.0,1.0,0.0,1.0,4.m4v,5.0
2024-02-27 14:38:04.194601,1709041084.1946006,-1000.0,-1000.0,-29.296875,-1000.0,-1.0,1.0,0.0,1.0,4.m4v,5.0
2024-02-27 14:38:04.198506,1709041084.1985064,-941.89453125,-929.6875,-33.69140625,-941.40625,-1.0,1.0,0.0,1.0,4.m4v,5.0
2024-02-27 14:38:04.202412,1709041084.202412,-1000.0,-1000.0,-34.1796875,-1000.0,-1.0,1.0,0.0,1.0,4.m4v,5.0
2024-02-27 14:38:04.206318,1709041084.206318,-884.765625,-669.43359375,-31.73828125,-877.44140625,-1.0,1.0,0.0,1.0,4.m4v,5.0
2024-02-27 14:38:04.210224,1709041084.2102237,574.21875,792.48046875,-25.87890625,583.984375,-1.0,1.0,0.0,1.0,4.m4v,5.0
2024-02-27 14:38:04.214129,1709041084.2141292,999.51171875,999.51171875,-28.80859375,999.51171875,-1.0,1.0,0.0,1.0,4.m4v,5.0
2024-02-27 14:38:04.218035,1709041084.218035,894.53125,907.2265625,-34.1796875,895.5078125,-1.0,1.0,0.0,1.0,4.m4v,5.0
2024-02-27 14:38:04.221941,1709041084.2219408,984.86328125,986.81640625,-36.62109375,986.328125,-1.0,1.0,0.0,1.0,4.m4v,5.0
2024-02-27 14:38:04.225847,1709041084.2258463,969.23828125,969.7265625,-32.71484375,969.7265625,-1.0,1.0,0.0,1.0,4.m4v,5.0
2024-02-27 14:38:04.229752,1709041084.229752,969.23828125,969.7265625,-33.69140625,969.7265625,-1.0,1.0,0.0,1.0,4.m4v,5.0
2024-02-27 14:38:04.233662,1709041084.2336624,969.23828125,969.7265625,-34.66796875,969.7265625,-1.0,1.0,0.0,1.0,4.m4v,5.0
2024-02-27 14:38:04.237568,1709041084.237568,969.23828125,969.7265625,-35.15625,969.7265625,-1.0,1.0,0.0,1.0,4.m4v,5.0
2024-02-27 14:38:04.241474,1709041084.2414737,969.23828125,969.7265625,-34.1796875,969.7265625,-1.0,1.0,0.0,1.0,4.m4v,5.0
2024-02-27 14:38:04.245379,1709041084.2453794,969.23828125,969.7265625,-37.109375,969.7265625,-1.0,1.0,0.0,1.0,4.m4v,5.0
2024-02-27 14:38:04.249285,1709041084.2492852,969.23828125,969.7265625,-48.33984375,970.21484375,-1.0,1.0,0.0,1.0,4.m4v,5.0
2024-02-27 14:38:04.253191,1709041084.2531908,969.23828125,969.7265625,-42.48046875,969.7265625,-1.0,1.0,0.0,1.0,4.m4v,5.0
2024-02-27 14:38:04.257097,1709041084.2570963,969.23828125,970.21484375,-34.1796875,969.7265625,-1.0,1.0,0.0,1.0,4.m4v,5.0
2024-02-27 14:38:04.261002,1709041084.2610023,969.23828125,970.21484375,-34.66796875,969.7265625,-1.0,1.0,0.0,1.0,4.m4v,5.0
2024-02-27 14:38:04.264908,1709041084.264908,977.05078125,978.02734375,-21.97265625,980.95703125,-1.0,1.0,0.0,1.0,4.m4v,5.0
2024-02-27 14:38:04.268814,1709041084.2688136,937.98828125,938.96484375,-18.5546875,929.19921875,-1.0,1.0,0.0,1.0,4.m4v,5.0
2024-02-27 14:38:04.272719,1709041084.2727194,960.9375,960.9375,-29.296875,982.91015625,-1.0,1.0,0.0,1.0,4.m4v,5.0
2024-02-27 14:38:04.276625,1709041084.2766252,999.51171875,999.51171875,-34.66796875,969.7265625,-1.0,1.0,0.0,1.0,4.m4v,5.0
2024-02-27 14:38:04.280535,1709041084.2805352,-268.5546875,-265.13671875,-41.50390625,-385.7421875,-1.0,1.0,0.0,1.0,4.m4v,5.0
2024-02-27 14:38:04.284441,1709041084.2844408,-1000.0,-1000.0,-30.76171875,-1000.0,-1.0,1.0,0.0,1.0,4.m4v,5.0
2024-02-27 14:38:04.288347,1709041084.2883463,-934.5703125,-934.5703125,-17.578125,-930.6640625,-1.0,1.0,0.0,1.0,4.m4v,5.0
2024-02-27 14:38:04.292252,1709041084.2922523,-1000.0,-1000.0,-22.94921875,-1000.0,-1.0,1.0,0.0,1.0,4.m4v,5.0
2024-02-27 14:38:04.296158,1709041084.296158,-1000.0,-1000.0,-26.85546875,-1000.0,-1.0,1.0,0.0,1.0,4.m4v,5.0
2024-02-27 14:38:04.300064,1709041084.3000636,-1000.0,-1000.0,-31.73828125,-1000.0,-1.0,1.0,0.0,1.0,4.m4v,5.0
2024-02-27 14:38:04.303969,1709041084.3039694,-1000.0,-1000.0,-38.0859375,-1000.0,-1.0,1.0,0.0,1.0,4.m4v,5.0
2024-02-27 14:38:04.307875,1709041084.3078752,-1000.0,-1000.0,-34.66796875,-1000.0,-1.0,1.0,0.0,1.0,4.m4v,5.0
2024-02-27 14:38:04.311781,1709041084.311781,-1000.0,-1000.0,-18.06640625,-1000.0,-1.0,1.0,0.0,1.0,4.m4v,5.0
2024-02-27 14:38:04.315686,1709041084.3156865,-1000.0,-1000.0,-17.08984375,-1000.0,-1.0,1.0,0.0,1.0,4.m4v,5.0
2024-02-27 14:38:04.319592,1709041084.3195922,-1000.0,-1000.0,-33.203125,-1000.0,-1.0,1.0,0.0,1.0,4.m4v,5.0
2024-02-27 14:38:04.323498,1709041084.323498,-1000.0,-1000.0,-31.25,-1000.0,-1.0,1.0,0.0,1.0,4.m4v,5.0
2024-02-27 14:38:04.331314,1709041084.3313136,-1000.0,-1000.0,-31.73828125,-1000.0,-1.0,1.0,0.0,1.0,4.m4v,5.0
2024-02-27 14:38:04.339125,1709041084.339125,-955.078125,-1000.0,-36.1328125,-956.0546875,-1.0,1.0,0.0,1.0,4.m4v,5.0
2024-02-27 14:38:04.343031,1709041084.3430307,-1000.0,-988.28125,-18.06640625,-1000.0,-1.0,1.0,0.0,1.0,4.m4v,5.0
2024-02-27 14:38:04.350842,1709041084.3508422,999.51171875,999.51171875,-19.53125,999.51171875,-1.0,1.0,0.0,1.0,4.m4v,5.0
2024-02-27 14:38:04.358654,1709041084.3586535,948.2421875,979.98046875,-37.59765625,948.2421875,-1.0,1.0,0.0,1.0,4.m4v,5.0
2024-02-27 14:38:04.362559,1709041084.3625593,975.09765625,969.7265625,-35.64453125,976.07421875,-1.0,1.0,0.0,1.0,4.m4v,5.0
2024-02-27 14:38:04.370371,1709041084.3703706,969.23828125,969.7265625,-22.4609375,970.21484375,-1.0,1.0,0.0,1.0,4.m4v,5.0
2024-02-27 14:38:04.378186,1709041084.3781862,969.23828125,969.7265625,-27.83203125,969.7265625,-1.0,1.0,0.0,1.0,4.m4v,5.0
2024-02-27 14:38:04.382092,1709041084.382092,969.23828125,969.7265625,-34.66796875,969.7265625,-1.0,1.0,0.0,1.0,4.m4v,5.0
2024-02-27 14:38:04.389903,1709041084.3899033,969.23828125,969.7265625,-29.296875,969.7265625,-1.0,1.0,0.0,1.0,4.m4v,5.0
2024-02-27 14:38:04.397715,1709041084.3977149,968.75,969.7265625,-47.36328125,969.7265625,-1.0,1.0,0.0,1.0,4.m4v,5.0
2024-02-27 14:38:04.401620,1709041084.4016204,969.23828125,969.7265625,-43.9453125,969.7265625,-1.0,1.0,0.0,1.0,4.m4v,5.0
2024-02-27 14:38:04.409432,1709041084.409432,931.640625,933.10546875,-26.3671875,924.31640625,-1.0,1.0,0.0,1.0,4.m4v,5.0
2024-02-27 14:38:04.417243,1709041084.4172432,995.1171875,998.046875,-32.2265625,943.359375,-1.0,1.0,0.0,1.0,4.m4v,5.0
2024-02-27 14:38:04.421154,1709041084.4211545,-341.796875,-336.9140625,-34.1796875,-445.3125,-1.0,1.0,0.0,1.0,4.m4v,5.0
2024-02-27 14:38:04.655521,1709041084.655521,969.23828125,969.7265625,-44.43359375,969.7265625,-1.0,1.0,0.0,1.0,4.m4v,5.0
2024-02-27 14:38:04.659426,1709041084.6594265,969.23828125,969.7265625,-36.62109375,969.7265625,-1.0,1.0,0.0,1.0,4.m4v,5.0
2024-02-27 14:38:04.671144,1709041084.6711435,911.1328125,912.109375,-21.484375,909.66796875,-1.0,1.0,0.0,1.0,4.m4v,5.0
2024-02-27 14:38:04.675049,1709041084.6750493,999.51171875,999.51171875,-28.80859375,999.51171875,-1.0,1.0,0.0,1.0,4.m4v,5.0
2024-02-27 14:38:04.678955,1709041084.678955,859.86328125,860.3515625,-35.15625,828.61328125,-1.0,1.0,0.0,1.0,4.m4v,5.0
2024-02-27 14:38:04.682861,1709041084.6828609,-597.16796875,-597.16796875,-31.25,-633.30078125,-1.0,1.0,0.0,1.0,4.m4v,5.0
2024-02-27 14:38:04.686766,1709041084.6867664,-1000.0,-1000.0,-33.203125,-1000.0,-1.0,1.0,0.0,1.0,4.m4v,5.0
2024-02-27 14:38:04.690672,1709041084.6906722,-925.78125,-925.78125,-34.66796875,-927.24609375,-1.0,1.0,0.0,1.0,4.m4v,5.0
2024-02-27 14:38:04.690672,1709041084.6906722,-925.78125,-925.78125,-34.66796875,-927.24609375,-1.0,1.0,0.0,1.0,4.m4v,5.0
2024-02-27 14:38:04.694578,1709041084.694578,-1000.0,-1000.0,-23.92578125,-1000.0,-1.0,1.0,0.0,1.0,4.m4v,5.0
2024-02-27 14:38:04.694578,1709041084.694578,-1000.0,-1000.0,-23.92578125,-1000.0,-1.0,1.0,0.0,1.0,4.m4v,5.0
2024-02-27 14:38:04.698484,1709041084.6984837,-1000.0,-1000.0,-28.80859375,-1000.0,-1.0,1.0,0.0,1.0,4.m4v,5.0
2024-02-27 14:38:04.698484,1709041084.6984837,-1000.0,-1000.0,-28.80859375,-1000.0,-1.0,1.0,0.0,1.0,4.m4v,5.0
2024-02-27 14:38:04.702393,1709041084.7023933,-1000.0,-1000.0,-31.25,-1000.0,-1.0,1.0,0.0,1.0,4.m4v,5.0
2024-02-27 14:38:04.702393,1709041084.7023933,-1000.0,-1000.0,-31.25,-1000.0,-1.0,1.0,0.0,1.0,4.m4v,5.0
2024-02-27 14:38:04.706299,1709041084.706299,-1000.0,-1000.0,-30.2734375,-1000.0,-1.0,1.0,0.0,1.0,4.m4v,5.0
2024-02-27 14:38:04.706299,1709041084.706299,-1000.0,-1000.0,-30.2734375,-1000.0,-1.0,1.0,0.0,1.0,4.m4v,5.0
2024-02-27 14:38:04.710205,1709041084.7102048,-1000.0,-1000.0,-30.2734375,-1000.0,-1.0,1.0,0.0,1.0,4.m4v,5.0
2024-02-27 14:38:04.710205,1709041084.7102048,-1000.0,-1000.0,-30.2734375,-1000.0,-1.0,1.0,0.0,1.0,4.m4v,5.0
2024-02-27 14:38:04.714111,1709041084.7141106,-1000.0,-1000.0,-23.4375,-1000.0,-1.0,1.0,0.0,1.0,4.m4v,5.0
2024-02-27 14:38:04.714111,1709041084.7141106,-1000.0,-1000.0,-23.4375,-1000.0,-1.0,1.0,0.0,1.0,4.m4v,5.0
2024-02-27 14:38:04.718016,1709041084.7180164,-1000.0,-1000.0,-34.66796875,-1000.0,-1.0,1.0,0.0,1.0,4.m4v,5.0
2024-02-27 14:38:04.718016,1709041084.7180164,-1000.0,-1000.0,-34.66796875,-1000.0,-1.0,1.0,0.0,1.0,4.m4v,5.0
2024-02-27 14:38:04.721922,1709041084.721922,-976.07421875,-963.8671875,-44.921875,-962.40234375,-1.0,1.0,0.0,1.0,4.m4v,5.0
2024-02-27 14:38:04.721922,1709041084.721922,-976.07421875,-963.8671875,-44.921875,-962.40234375,-1.0,1.0,0.0,1.0,4.m4v,5.0
2024-02-27 14:38:04.725828,1709041084.7258277,-979.98046875,-1000.0,-34.1796875,-1000.0,-1.0,1.0,0.0,1.0,4.m4v,5.0
2024-02-27 14:38:04.725828,1709041084.7258277,-979.98046875,-1000.0,-34.1796875,-1000.0,-1.0,1.0,0.0,1.0,4.m4v,5.0
2024-02-27 14:38:04.729733,1709041084.7297337,-1000.0,-1000.0,-34.1796875,-1000.0,-1.0,1.0,0.0,1.0,4.m4v,5.0
2024-02-27 14:38:04.729733,1709041084.7297337,-1000.0,-1000.0,-34.1796875,-1000.0,-1.0,1.0,0.0,1.0,4.m4v,5.0
2024-02-27 14:38:04.733639,1709041084.7336392,138.671875,299.8046875,-34.66796875,315.4296875,-1.0,1.0,0.0,1.0,4.m4v,5.0
2024-02-27 14:38:04.733639,1709041084.7336392,138.671875,299.8046875,-34.66796875,315.4296875,-1.0,1.0,0.0,1.0,4.m4v,5.0
2024-02-27 14:38:04.737545,1709041084.7375448,999.51171875,999.51171875,-33.69140625,999.51171875,-1.0,1.0,0.0,1.0,4.m4v,5.0
2024-02-27 14:38:04.737545,1709041084.7375448,999.51171875,999.51171875,-33.69140625,999.51171875,-1.0,1.0,0.0,1.0,4.m4v,5.0
2024-02-27 14:38:04.741451,1709041084.7414503,913.57421875,901.85546875,-33.203125,903.3203125,-1.0,1.0,0.0,1.0,4.m4v,5.0
2024-02-27 14:38:04.741451,1709041084.7414503,913.57421875,901.85546875,-33.203125,903.3203125,-1.0,1.0,0.0,1.0,4.m4v,5.0
2024-02-27 14:38:04.745356,1709041084.7453563,965.8203125,975.5859375,-30.76171875,975.5859375,-1.0,1.0,0.0,1.0,4.m4v,5.0
2024-02-27 14:38:04.745356,1709041084.7453563,965.8203125,975.5859375,-30.76171875,975.5859375,-1.0,1.0,0.0,1.0,4.m4v,5.0
2024-02-27 14:38:04.749266,1709041084.749266,970.703125,969.7265625,-32.71484375,970.21484375,-1.0,1.0,0.0,1.0,4.m4v,5.0
2024-02-27 14:38:04.749266,1709041084.749266,970.703125,969.7265625,-32.71484375,970.21484375,-1.0,1.0,0.0,1.0,4.m4v,5.0
2024-02-27 14:38:04.753171,1709041084.7531714,969.23828125,969.7265625,-41.015625,969.7265625,-1.0,1.0,0.0,1.0,4.m4v,5.0
2024-02-27 14:38:04.753171,1709041084.7531714,969.23828125,969.7265625,-41.015625,969.7265625,-1.0,1.0,0.0,1.0,4.m4v,5.0
2024-02-27 14:38:04.757077,1709041084.7570772,969.23828125,969.7265625,-49.8046875,969.7265625,-1.0,1.0,0.0,1.0,4.m4v,5.0
2024-02-27 14:38:04.757077,1709041084.7570772,969.23828125,969.7265625,-49.8046875,969.7265625,-1.0,1.0,0.0,1.0,4.m4v,5.0
2024-02-27 14:38:04.760983,1709041084.760983,969.23828125,969.7265625,-47.8515625,969.7265625,-1.0,1.0,0.0,1.0,4.m4v,5.0
2024-02-27 14:38:04.760983,1709041084.760983,969.23828125,969.7265625,-47.8515625,969.7265625,-1.0,1.0,0.0,1.0,4.m4v,5.0
2024-02-27 14:38:04.764889,1709041084.7648888,969.23828125,969.7265625,-32.2265625,969.7265625,-1.0,1.0,0.0,1.0,4.m4v,5.0
2024-02-27 14:38:04.764889,1709041084.7648888,969.23828125,969.7265625,-32.2265625,969.7265625,-1.0,1.0,0.0,1.0,4.m4v,5.0
2024-02-27 14:38:04.768794,1709041084.7687943,968.75,969.7265625,-21.97265625,969.7265625,-1.0,1.0,0.0,1.0,4.m4v,5.0
2024-02-27 14:38:04.768794,1709041084.7687943,968.75,969.7265625,-21.97265625,969.7265625,-1.0,1.0,0.0,1.0,4.m4v,5.0
2024-02-27 14:38:04.772700,1709041084.7727,968.75,969.7265625,-30.2734375,969.7265625,-1.0,1.0,0.0,1.0,4.m4v,5.0
2024-02-27 14:38:04.772700,1709041084.7727,968.75,969.7265625,-30.2734375,969.7265625,-1.0,1.0,0.0,1.0,4.m4v,5.0
2024-02-27 14:38:04.776606,1709041084.7766058,969.23828125,969.7265625,-37.59765625,969.7265625,-1.0,1.0,0.0,1.0,4.m4v,5.0
2024-02-27 14:38:04.776606,1709041084.7766058,969.23828125,969.7265625,-37.59765625,969.7265625,-1.0,1.0,0.0,1.0,4.m4v,5.0
2024-02-27 14:38:04.780512,1709041084.7805116,969.23828125,969.7265625,-34.1796875,969.7265625,-1.0,1.0,0.0,1.0,4.m4v,5.0
2024-02-27 14:38:04.780512,1709041084.7805116,969.23828125,969.7265625,-34.1796875,969.7265625,-1.0,1.0,0.0,1.0,4.m4v,5.0
2024-02-27 14:38:04.784417,1709041084.7844172,969.23828125,969.7265625,-37.109375,970.703125,-1.0,1.0,0.0,1.0,4.m4v,5.0
2024-02-27 14:38:04.784417,1709041084.7844172,969.23828125,969.7265625,-37.109375,970.703125,-1.0,1.0,0.0,1.0,4.m4v,5.0
2024-02-27 14:38:04.788323,1709041084.788323,986.81640625,987.3046875,-33.69140625,978.515625,-1.0,1.0,0.0,1.0,4.m4v,5.0
2024-02-27 14:38:04.788323,1709041084.788323,986.81640625,987.3046875,-33.69140625,978.515625,-1.0,1.0,0.0,1.0,4.m4v,5.0
2024-02-27 14:38:04.792229,1709041084.7922287,898.4375,898.92578125,-32.2265625,907.71484375,-1.0,1.0,0.0,1.0,4.m4v,5.0
2024-02-27 14:38:04.792229,1709041084.7922287,898.4375,898.92578125,-32.2265625,907.71484375,-1.0,1.0,0.0,1.0,4.m4v,5.0
2024-02-27 14:38:04.796140,1709041084.79614,999.51171875,999.51171875,-42.96875,999.51171875,-1.0,1.0,0.0,1.0,4.m4v,5.0
2024-02-27 14:38:04.796140,1709041084.79614,999.51171875,999.51171875,-42.96875,999.51171875,-1.0,1.0,0.0,1.0,4.m4v,5.0
2024-02-27 14:38:04.800046,1709041084.8000455,686.03515625,691.40625,-41.9921875,478.515625,-1.0,1.0,0.0,1.0,4.m4v,5.0
2024-02-27 14:38:04.800046,1709041084.8000455,686.03515625,691.40625,-41.9921875,478.515625,-1.0,1.0,0.0,1.0,4.m4v,5.0
2024-02-27 14:38:04.803951,1709041084.8039513,-792.48046875,-788.0859375,-42.48046875,-889.6484375,-1.0,1.0,0.0,1.0,4.m4v,5.0
2024-02-27 14:38:04.803951,1709041084.8039513,-792.48046875,-788.0859375,-42.48046875,-889.6484375,-1.0,1.0,0.0,1.0,4.m4v,5.0
2024-02-27 14:38:04.807857,1709041084.807857,-1000.0,-1000.0,-41.50390625,-1000.0,-1.0,1.0,0.0,1.0,4.m4v,5.0
