Timestamp,Timestamp_UNIX,TP9,AF7,AF8,TP10,Valence,Arousal,Dominace,Viewed,Video,Participant
2024-02-28 09:26:30.003549,1709108790.003549,-199.21875,-35.64453125,-39.0625,-1000.0,1.0,1.0,-1.0,1.0,3.m4v,7.0
2024-02-28 09:26:30.007455,1709108790.007455,71.77734375,-37.59765625,-36.1328125,-323.2421875,1.0,1.0,-1.0,1.0,3.m4v,7.0
2024-02-28 09:26:30.234010,1709108790.2340105,121.09375,-25.390625,-27.34375,944.3359375,1.0,1.0,-1.0,1.0,3.m4v,7.0
2024-02-28 09:26:30.237916,1709108790.2379162,-409.1796875,-31.73828125,-26.85546875,-385.7421875,1.0,1.0,-1.0,1.0,3.m4v,7.0
2024-02-28 09:26:30.241822,1709108790.241822,-905.76171875,-39.55078125,-39.0625,-1000.0,1.0,1.0,-1.0,1.0,3.m4v,7.0
2024-02-28 09:26:30.245728,1709108790.2457278,-603.02734375,-41.015625,-41.015625,-911.62109375,1.0,1.0,-1.0,1.0,3.m4v,7.0
2024-02-28 09:26:30.249634,1709108790.2496336,-271.97265625,-41.50390625,-37.109375,-1000.0,1.0,1.0,-1.0,1.0,3.m4v,7.0
2024-02-28 09:26:30.253539,1709108790.253539,-27.34375,-44.43359375,-42.48046875,-643.5546875,1.0,1.0,-1.0,1.0,3.m4v,7.0
2024-02-28 09:26:30.257445,1709108790.257445,461.42578125,-40.0390625,-39.55078125,519.53125,1.0,1.0,-1.0,1.0,3.m4v,7.0
2024-02-28 09:26:30.261354,1709108790.2613542,574.21875,-37.109375,-36.62109375,999.51171875,1.0,1.0,-1.0,1.0,3.m4v,7.0
2024-02-28 09:26:30.265260,1709108790.26526,219.7265625,-40.52734375,-40.0390625,937.98828125,1.0,1.0,-1.0,1.0,3.m4v,7.0
2024-02-28 09:26:30.269166,1709108790.2691658,106.93359375,-43.45703125,-38.57421875,915.52734375,1.0,1.0,-1.0,1.0,3.m4v,7.0
2024-02-28 09:26:30.273072,1709108790.2730715,199.21875,-41.9921875,-33.203125,999.51171875,1.0,1.0,-1.0,1.0,3.m4v,7.0
2024-02-28 09:26:30.276977,1709108790.2769773,57.12890625,-42.48046875,-36.62109375,663.0859375,1.0,1.0,-1.0,1.0,3.m4v,7.0
2024-02-28 09:26:30.280883,1709108790.280883,-673.828125,-43.45703125,-38.0859375,-734.86328125,1.0,1.0,-1.0,1.0,3.m4v,7.0
2024-02-28 09:26:30.284789,1709108790.2847888,-813.96484375,-41.015625,-37.59765625,-1000.0,1.0,1.0,-1.0,1.0,3.m4v,7.0
2024-02-28 09:26:30.288695,1709108790.2886946,-424.8046875,-45.41015625,-40.0390625,-938.4765625,1.0,1.0,-1.0,1.0,3.m4v,7.0
2024-02-28 09:26:30.292600,1709108790.2926004,-209.9609375,-42.96875,-39.0625,-1000.0,1.0,1.0,-1.0,1.0,3.m4v,7.0
2024-02-28 09:26:30.296506,1709108790.2965062,-124.0234375,-34.66796875,-33.69140625,-940.91796875,1.0,1.0,-1.0,1.0,3.m4v,7.0
2024-02-28 09:26:30.300412,1709108790.3004122,-208.0078125,-35.15625,-31.25,-1000.0,1.0,1.0,-1.0,1.0,3.m4v,7.0
2024-02-28 09:26:30.304318,1709108790.304318,-59.5703125,-36.1328125,-34.66796875,-729.4921875,1.0,1.0,-1.0,1.0,3.m4v,7.0
2024-02-28 09:26:30.308227,1709108790.3082266,668.45703125,-35.64453125,-33.203125,687.98828125,1.0,1.0,-1.0,1.0,3.m4v,7.0
2024-02-28 09:26:30.312132,1709108790.3121324,759.765625,-38.0859375,-32.2265625,999.51171875,1.0,1.0,-1.0,1.0,3.m4v,7.0
2024-02-28 09:26:30.316038,1709108790.316038,262.6953125,-40.0390625,-31.25,905.2734375,1.0,1.0,-1.0,1.0,3.m4v,7.0
2024-02-28 09:26:30.319944,1709108790.319944,143.06640625,-38.0859375,-28.80859375,992.1875,1.0,1.0,-1.0,1.0,3.m4v,7.0
2024-02-28 09:26:30.323850,1709108790.3238497,114.2578125,-33.69140625,-27.83203125,945.80078125,1.0,1.0,-1.0,1.0,3.m4v,7.0
2024-02-28 09:26:30.327755,1709108790.3277557,58.10546875,-37.59765625,-29.296875,957.03125,1.0,1.0,-1.0,1.0,3.m4v,7.0
2024-02-28 09:26:30.331661,1709108790.3316612,149.4140625,-37.59765625,-32.2265625,999.51171875,1.0,1.0,-1.0,1.0,3.m4v,7.0
2024-02-28 09:26:30.335567,1709108790.335567,-255.37109375,-33.203125,-33.69140625,-110.3515625,1.0,1.0,-1.0,1.0,3.m4v,7.0
2024-02-28 09:26:30.339473,1709108790.3394728,-793.45703125,-37.109375,-34.1796875,-1000.0,1.0,1.0,-1.0,1.0,3.m4v,7.0
2024-02-28 09:26:30.343379,1709108790.3433788,-610.3515625,-37.109375,-33.69140625,-917.96875,1.0,1.0,-1.0,1.0,3.m4v,7.0
2024-02-28 09:26:30.347285,1709108790.3472846,-364.74609375,-31.73828125,-35.15625,-1000.0,1.0,1.0,-1.0,1.0,3.m4v,7.0
2024-02-28 09:26:30.351190,1709108790.3511903,-90.33203125,-33.69140625,-38.0859375,-735.83984375,1.0,1.0,-1.0,1.0,3.m4v,7.0
2024-02-28 09:26:30.355099,1709108790.3550987,574.21875,-32.2265625,-36.1328125,616.2109375,1.0,1.0,-1.0,1.0,3.m4v,7.0
2024-02-28 09:26:30.359004,1709108790.3590045,705.078125,-33.203125,-30.76171875,999.51171875,1.0,1.0,-1.0,1.0,3.m4v,7.0
2024-02-28 09:26:30.362910,1709108790.3629105,301.26953125,-33.69140625,-28.80859375,923.33984375,1.0,1.0,-1.0,1.0,3.m4v,7.0
2024-02-28 09:26:30.366816,1709108790.366816,83.49609375,-34.66796875,-28.3203125,928.22265625,1.0,1.0,-1.0,1.0,3.m4v,7.0
2024-02-28 09:26:30.370722,1709108790.3707218,111.81640625,-34.1796875,-28.80859375,999.51171875,1.0,1.0,-1.0,1.0,3.m4v,7.0
2024-02-28 09:26:30.374628,1709108790.3746276,88.37890625,-34.66796875,-30.2734375,872.0703125,1.0,1.0,-1.0,1.0,3.m4v,7.0
2024-02-28 09:26:30.378533,1709108790.3785334,-573.2421875,-35.15625,-36.62109375,-553.22265625,1.0,1.0,-1.0,1.0,3.m4v,7.0
2024-02-28 09:26:30.382439,1709108790.3824391,-826.66015625,-29.78515625,-34.66796875,-1000.0,1.0,1.0,-1.0,1.0,3.m4v,7.0
2024-02-28 09:26:30.386345,1709108790.3863451,-420.8984375,-26.85546875,-32.71484375,-901.85546875,1.0,1.0,-1.0,1.0,3.m4v,7.0
2024-02-28 09:26:30.390251,1709108790.390251,-217.7734375,-25.390625,-36.62109375,-1000.0,1.0,1.0,-1.0,1.0,3.m4v,7.0
2024-02-28 09:26:30.394157,1709108790.3941567,94.7265625,-25.87890625,-35.15625,-319.82421875,1.0,1.0,-1.0,1.0,3.m4v,7.0
2024-02-28 09:26:30.398062,1709108790.3980625,612.79296875,-31.25,-31.73828125,828.125,1.0,1.0,-1.0,1.0,3.m4v,7.0
2024-02-28 09:26:30.401971,1709108790.4019706,510.25390625,-30.2734375,-30.76171875,999.51171875,1.0,1.0,-1.0,1.0,3.m4v,7.0
2024-02-28 09:26:30.405877,1709108790.4058766,153.3203125,-29.78515625,-31.25,874.51171875,1.0,1.0,-1.0,1.0,3.m4v,7.0
2024-02-28 09:26:30.409782,1709108790.4097824,131.8359375,-29.78515625,-28.80859375,999.51171875,1.0,1.0,-1.0,1.0,3.m4v,7.0
2024-02-28 09:26:30.413688,1709108790.4136882,101.5625,-31.73828125,-28.80859375,841.30859375,1.0,1.0,-1.0,1.0,3.m4v,7.0
2024-02-28 09:26:30.417594,1709108790.417594,-604.4921875,-40.0390625,-35.64453125,-588.8671875,1.0,1.0,-1.0,1.0,3.m4v,7.0
2024-02-28 09:26:30.421500,1709108790.4214995,-842.28515625,-38.0859375,-36.1328125,-1000.0,1.0,1.0,-1.0,1.0,3.m4v,7.0
2024-02-28 09:26:30.542591,1709108790.5425906,96.19140625,-37.109375,-34.66796875,949.70703125,1.0,1.0,-1.0,1.0,3.m4v,7.0
2024-02-28 09:26:30.546496,1709108790.5464964,-157.2265625,-40.0390625,-35.15625,678.22265625,1.0,1.0,-1.0,1.0,3.m4v,7.0
2024-02-28 09:26:30.550402,1709108790.5504022,-10.7421875,-36.1328125,-35.64453125,877.9296875,1.0,1.0,-1.0,1.0,3.m4v,7.0
2024-02-28 09:26:30.554308,1709108790.5543082,56.15234375,-33.69140625,-36.1328125,596.19140625,1.0,1.0,-1.0,1.0,3.m4v,7.0
2024-02-28 09:26:30.558214,1709108790.558214,-606.4453125,-39.0625,-33.69140625,-773.92578125,1.0,1.0,-1.0,1.0,3.m4v,7.0
2024-02-28 09:26:30.562120,1709108790.5621195,-723.14453125,-37.109375,-32.71484375,-1000.0,1.0,1.0,-1.0,1.0,3.m4v,7.0
2024-02-28 09:26:30.566025,1709108790.5660255,-359.375,-32.2265625,-32.2265625,-902.83203125,1.0,1.0,-1.0,1.0,3.m4v,7.0
2024-02-28 09:26:30.569931,1709108790.5699313,-208.0078125,-34.66796875,-34.1796875,-1000.0,1.0,1.0,-1.0,1.0,3.m4v,7.0
2024-02-28 09:26:30.573837,1709108790.573837,7.8125,-35.64453125,-33.69140625,-650.390625,1.0,1.0,-1.0,1.0,3.m4v,7.0
2024-02-28 09:26:30.577743,1709108790.5777428,552.734375,-29.78515625,-30.76171875,634.765625,1.0,1.0,-1.0,1.0,3.m4v,7.0
2024-02-28 09:26:30.581649,1709108790.5816486,603.02734375,-26.3671875,-26.85546875,999.51171875,1.0,1.0,-1.0,1.0,3.m4v,7.0
2024-02-28 09:26:30.585554,1709108790.5855544,236.81640625,-34.66796875,-25.390625,860.3515625,1.0,1.0,-1.0,1.0,3.m4v,7.0
2024-02-28 09:26:30.589463,1709108790.5894637,201.66015625,-37.109375,-24.90234375,999.51171875,1.0,1.0,-1.0,1.0,3.m4v,7.0
2024-02-28 09:26:30.593369,1709108790.5933692,127.9296875,-32.2265625,-23.4375,872.55859375,1.0,1.0,-1.0,1.0,3.m4v,7.0
2024-02-28 09:26:30.597275,1709108790.5972753,-579.1015625,-32.2265625,-26.85546875,-558.10546875,1.0,1.0,-1.0,1.0,3.m4v,7.0
2024-02-28 09:26:30.601181,1709108790.601181,-819.3359375,-29.78515625,-30.2734375,-1000.0,1.0,1.0,-1.0,1.0,3.m4v,7.0
2024-02-28 09:26:30.605087,1709108790.6050868,-528.80859375,-29.296875,-33.203125,-1000.0,1.0,1.0,-1.0,1.0,3.m4v,7.0
2024-02-28 09:26:30.608993,1709108790.6089926,-149.90234375,-35.15625,-36.1328125,-696.2890625,1.0,1.0,-1.0,1.0,3.m4v,7.0
2024-02-28 09:26:30.612898,1709108790.6128983,600.09765625,-36.1328125,-36.62109375,658.69140625,1.0,1.0,-1.0,1.0,3.m4v,7.0
2024-02-28 09:26:30.616804,1709108790.616804,616.69921875,-38.0859375,-38.57421875,999.51171875,1.0,1.0,-1.0,1.0,3.m4v,7.0
2024-02-28 09:26:30.620710,1709108790.62071,189.94140625,-38.57421875,-37.59765625,751.953125,1.0,1.0,-1.0,1.0,3.m4v,7.0
2024-02-28 09:26:30.624616,1709108790.6246157,-464.84375,-36.62109375,-38.57421875,-540.52734375,1.0,1.0,-1.0,1.0,3.m4v,7.0
2024-02-28 09:26:30.628521,1709108790.6285214,-685.546875,-35.15625,-41.9921875,-1000.0,1.0,1.0,-1.0,1.0,3.m4v,7.0
2024-02-28 09:26:30.632427,1709108790.6324277,-298.828125,-37.109375,-39.55078125,-948.2421875,1.0,1.0,-1.0,1.0,3.m4v,7.0
2024-02-28 09:26:30.636336,1709108790.6363363,-136.71875,-41.50390625,-37.109375,-963.8671875,1.0,1.0,-1.0,1.0,3.m4v,7.0
2024-02-28 09:26:30.640242,1709108790.640242,-180.17578125,-36.62109375,-39.0625,-1000.0,1.0,1.0,-1.0,1.0,3.m4v,7.0
2024-02-28 09:26:30.644148,1709108790.644148,-184.5703125,-29.78515625,-35.64453125,-947.265625,1.0,1.0,-1.0,1.0,3.m4v,7.0
2024-02-28 09:26:30.648054,1709108790.6480536,408.69140625,-30.2734375,-31.73828125,436.5234375,1.0,1.0,-1.0,1.0,3.m4v,7.0
2024-02-28 09:26:30.651960,1709108790.6519597,771.484375,-33.69140625,-33.69140625,999.51171875,1.0,1.0,-1.0,1.0,3.m4v,7.0
2024-02-28 09:26:30.655865,1709108790.6558654,480.46875,-31.25,-34.1796875,881.34765625,1.0,1.0,-1.0,1.0,3.m4v,7.0
2024-02-28 09:26:30.659771,1709108790.6597712,242.1875,-32.2265625,-36.1328125,976.07421875,1.0,1.0,-1.0,1.0,3.m4v,7.0
2024-02-28 09:26:30.663677,1709108790.663677,40.0390625,-39.55078125,-37.109375,856.93359375,1.0,1.0,-1.0,1.0,3.m4v,7.0
2024-02-28 09:26:30.667583,1709108790.6675828,-354.98046875,-40.52734375,-32.71484375,-48.33984375,1.0,1.0,-1.0,1.0,3.m4v,7.0
2024-02-28 09:26:30.671489,1709108790.6714883,-689.94140625,-38.57421875,-34.1796875,-947.265625,1.0,1.0,-1.0,1.0,3.m4v,7.0
2024-02-28 09:26:30.675394,1709108790.6753943,-496.58203125,-34.1796875,-39.0625,-1000.0,1.0,1.0,-1.0,1.0,3.m4v,7.0
2024-02-28 09:26:30.679300,1709108790.6793,-203.125,-35.64453125,-41.015625,-920.8984375,1.0,1.0,-1.0,1.0,3.m4v,7.0
2024-02-28 09:26:30.683208,1709108790.6832085,-229.98046875,-37.59765625,-35.64453125,-1000.0,1.0,1.0,-1.0,1.0,3.m4v,7.0
2024-02-28 09:26:30.687114,1709108790.6871145,-47.36328125,-34.66796875,-36.1328125,-569.3359375,1.0,1.0,-1.0,1.0,3.m4v,7.0
2024-02-28 09:26:30.691020,1709108790.6910205,641.11328125,-33.203125,-37.109375,787.59765625,1.0,1.0,-1.0,1.0,3.m4v,7.0
2024-02-28 09:26:30.694926,1709108790.694926,626.953125,-31.73828125,-33.203125,999.51171875,1.0,1.0,-1.0,1.0,3.m4v,7.0
2024-02-28 09:26:30.698832,1709108790.6988318,270.99609375,-32.2265625,-33.69140625,920.41015625,1.0,1.0,-1.0,1.0,3.m4v,7.0
2024-02-28 09:26:30.702738,1709108790.7027376,142.08984375,-30.2734375,-33.69140625,972.65625,1.0,1.0,-1.0,1.0,3.m4v,7.0
2024-02-28 09:26:30.706643,1709108790.706643,-4.39453125,-29.296875,-36.1328125,936.03515625,1.0,1.0,-1.0,1.0,3.m4v,7.0
2024-02-28 09:26:30.710549,1709108790.710549,83.0078125,-30.2734375,-33.69140625,999.51171875,1.0,1.0,-1.0,1.0,3.m4v,7.0
2024-02-28 09:26:30.714455,1709108790.714455,-144.53125,-32.2265625,-28.3203125,133.30078125,1.0,1.0,-1.0,1.0,3.m4v,7.0
2024-02-28 09:26:30.718361,1709108790.718361,-740.234375,-33.69140625,-27.83203125,-1000.0,1.0,1.0,-1.0,1.0,3.m4v,7.0
2024-02-28 09:26:30.722266,1709108790.7222664,-649.4140625,-30.76171875,-28.3203125,-950.68359375,1.0,1.0,-1.0,1.0,3.m4v,7.0
2024-02-28 09:26:30.726172,1709108790.7261724,-383.7890625,-29.296875,-33.69140625,-1000.0,1.0,1.0,-1.0,1.0,3.m4v,7.0
2024-02-28 09:26:30.730081,1709108790.7300806,-144.53125,-27.83203125,-37.109375,-863.76953125,1.0,1.0,-1.0,1.0,3.m4v,7.0
2024-02-28 09:26:30.733986,1709108790.7339864,521.97265625,-29.78515625,-34.1796875,499.51171875,1.0,1.0,-1.0,1.0,3.m4v,7.0
2024-02-28 09:26:30.737892,1709108790.7378922,721.6796875,-26.85546875,-29.296875,999.51171875,1.0,1.0,-1.0,1.0,3.m4v,7.0
2024-02-28 09:26:30.741798,1709108790.7417982,289.55078125,-23.92578125,-26.85546875,920.8984375,1.0,1.0,-1.0,1.0,3.m4v,7.0
2024-02-28 09:26:30.745704,1709108790.745704,14.16015625,-26.85546875,-27.34375,926.7578125,1.0,1.0,-1.0,1.0,3.m4v,7.0
2024-02-28 09:26:30.749610,1709108790.7496097,84.9609375,-34.1796875,-29.78515625,999.51171875,1.0,1.0,-1.0,1.0,3.m4v,7.0
2024-02-28 09:26:30.753515,1709108790.7535155,171.875,-38.0859375,-34.66796875,869.62890625,1.0,1.0,-1.0,1.0,3.m4v,7.0
2024-02-28 09:26:30.757421,1709108790.7574213,-479.00390625,-36.1328125,-30.2734375,-545.41015625,1.0,1.0,-1.0,1.0,3.m4v,7.0
2024-02-28 09:26:30.761327,1709108790.761327,-838.37890625,-34.1796875,-29.78515625,-1000.0,1.0,1.0,-1.0,1.0,3.m4v,7.0
2024-02-28 09:26:30.765233,1709108790.7652328,-490.234375,-31.73828125,-33.69140625,-929.19921875,1.0,1.0,-1.0,1.0,3.m4v,7.0
2024-02-28 09:26:30.769139,1709108790.7691386,-266.11328125,-33.69140625,-35.15625,-1000.0,1.0,1.0,-1.0,1.0,3.m4v,7.0
2024-02-28 09:26:30.773044,1709108790.7730443,-144.04296875,-31.25,-34.66796875,-1000.0,1.0,1.0,-1.0,1.0,3.m4v,7.0
2024-02-28 09:26:30.776954,1709108790.7769544,-17.08984375,-29.296875,-33.69140625,-940.4296875,1.0,1.0,-1.0,1.0,3.m4v,7.0
2024-02-28 09:26:30.780860,1709108790.7808602,-135.25390625,-33.203125,-34.1796875,-1000.0,1.0,1.0,-1.0,1.0,3.m4v,7.0
2024-02-28 09:26:30.784766,1709108790.784766,-111.81640625,-36.62109375,-33.69140625,-762.6953125,1.0,1.0,-1.0,1.0,3.m4v,7.0
2024-02-28 09:26:30.788672,1709108790.7886715,608.3984375,-35.15625,-32.71484375,674.31640625,1.0,1.0,-1.0,1.0,3.m4v,7.0
2024-02-28 09:26:30.792578,1709108790.7925775,758.7890625,-30.2734375,-31.25,999.51171875,1.0,1.0,-1.0,1.0,3.m4v,7.0
2024-02-28 09:26:30.796484,1709108790.7964835,376.46484375,-31.25,-30.76171875,875.9765625,1.0,1.0,-1.0,1.0,3.m4v,7.0
2024-02-28 09:26:30.800389,1709108790.8003893,201.66015625,-32.2265625,-30.2734375,999.51171875,1.0,1.0,-1.0,1.0,3.m4v,7.0
2024-02-28 09:26:30.804295,1709108790.804295,-271.484375,-33.69140625,-29.78515625,113.76953125,1.0,1.0,-1.0,1.0,3.m4v,7.0
2024-02-28 09:26:30.808201,1709108790.8082008,-748.046875,-32.2265625,-29.296875,-980.95703125,1.0,1.0,-1.0,1.0,3.m4v,7.0
2024-02-28 09:26:30.812107,1709108790.8121066,-495.1171875,-34.66796875,-32.71484375,-1000.0,1.0,1.0,-1.0,1.0,3.m4v,7.0
2024-02-28 09:26:30.816012,1709108790.8160124,-193.359375,-36.1328125,-36.62109375,-945.3125,1.0,1.0,-1.0,1.0,3.m4v,7.0
2024-02-28 09:26:30.819918,1709108790.8199182,-187.5,-34.1796875,-34.66796875,-1000.0,1.0,1.0,-1.0,1.0,3.m4v,7.0
2024-02-28 09:26:30.823828,1709108790.823828,-250.9765625,-27.83203125,-34.1796875,-1000.0,1.0,1.0,-1.0,1.0,3.m4v,7.0
2024-02-28 09:26:30.827734,1709108790.8277338,282.71484375,-32.2265625,-36.1328125,158.203125,1.0,1.0,-1.0,1.0,3.m4v,7.0
2024-02-28 09:26:30.831640,1709108790.8316395,817.3828125,-33.69140625,-32.2265625,999.51171875,1.0,1.0,-1.0,1.0,3.m4v,7.0
2024-02-28 09:26:30.835545,1709108790.8355453,508.30078125,-30.2734375,-32.71484375,886.23046875,1.0,1.0,-1.0,1.0,3.m4v,7.0
2024-02-28 09:26:30.839451,1709108790.839451,218.26171875,-33.69140625,-37.109375,999.51171875,1.0,1.0,-1.0,1.0,3.m4v,7.0
2024-02-28 09:26:30.843357,1709108790.8433568,-135.25390625,-40.52734375,-35.15625,433.59375,1.0,1.0,-1.0,1.0,3.m4v,7.0
2024-02-28 09:26:30.847263,1709108790.8472629,-709.47265625,-43.9453125,-34.1796875,-807.12890625,1.0,1.0,-1.0,1.0,3.m4v,7.0
2024-02-28 09:26:30.851169,1709108790.8511686,-648.4375,-40.0390625,-40.0390625,-1000.0,1.0,1.0,-1.0,1.0,3.m4v,7.0
2024-02-28 09:26:30.855074,1709108790.8550744,-289.0625,-34.1796875,-41.015625,-954.58984375,1.0,1.0,-1.0,1.0,3.m4v,7.0
2024-02-28 09:26:30.858980,1709108790.8589802,-156.25,-36.62109375,-37.59765625,-961.42578125,1.0,1.0,-1.0,1.0,3.m4v,7.0
2024-02-28 09:26:30.862886,1709108790.862886,-266.11328125,-38.57421875,-38.0859375,-1000.0,1.0,1.0,-1.0,1.0,3.m4v,7.0
2024-02-28 09:26:30.866792,1709108790.8667915,20.01953125,-33.203125,-39.0625,-400.390625,1.0,1.0,-1.0,1.0,3.m4v,7.0
2024-02-28 09:26:30.870702,1709108790.8707016,767.08984375,-28.80859375,-41.015625,881.34765625,1.0,1.0,-1.0,1.0,3.m4v,7.0
2024-02-28 09:26:30.874607,1709108790.874607,653.80859375,-28.3203125,-44.921875,960.44921875,1.0,1.0,-1.0,1.0,3.m4v,7.0
2024-02-28 09:26:30.878513,1709108790.878513,289.0625,-33.69140625,-42.48046875,961.42578125,1.0,1.0,-1.0,1.0,3.m4v,7.0
2024-02-28 09:26:30.882419,1709108790.8824189,38.57421875,-34.66796875,-37.59765625,686.5234375,1.0,1.0,-1.0,1.0,3.m4v,7.0
2024-02-28 09:26:30.886325,1709108790.8863246,-567.87109375,-35.64453125,-40.52734375,-625.0,1.0,1.0,-1.0,1.0,3.m4v,7.0
2024-02-28 09:26:30.890230,1709108790.8902304,-645.01953125,-35.64453125,-42.96875,-1000.0,1.0,1.0,-1.0,1.0,3.m4v,7.0
2024-02-28 09:26:30.894136,1709108790.8941362,-292.96875,-34.1796875,-40.0390625,-957.51953125,1.0,1.0,-1.0,1.0,3.m4v,7.0
2024-02-28 09:26:30.898042,1709108790.898042,-175.29296875,-37.109375,-40.52734375,-949.21875,1.0,1.0,-1.0,1.0,3.m4v,7.0
2024-02-28 09:26:30.901948,1709108790.9019475,-286.1328125,-40.52734375,-44.921875,-1000.0,1.0,1.0,-1.0,1.0,3.m4v,7.0
2024-02-28 09:26:30.905854,1709108790.9058535,-153.80859375,-41.015625,-44.43359375,-769.04296875,1.0,1.0,-1.0,1.0,3.m4v,7.0
2024-02-28 09:26:30.909760,1709108790.9097595,683.10546875,-37.59765625,-39.55078125,672.8515625,1.0,1.0,-1.0,1.0,3.m4v,7.0
2024-02-28 09:26:30.913665,1709108790.9136653,784.1796875,-38.57421875,-38.0859375,999.51171875,1.0,1.0,-1.0,1.0,3.m4v,7.0
2024-02-28 09:26:30.917575,1709108790.9175746,328.61328125,-41.50390625,-36.62109375,871.58203125,1.0,1.0,-1.0,1.0,3.m4v,7.0
2024-02-28 09:26:30.921480,1709108790.9214804,165.52734375,-41.50390625,-36.62109375,999.51171875,1.0,1.0,-1.0,1.0,3.m4v,7.0
2024-02-28 09:26:30.925386,1709108790.9253862,-182.12890625,-40.0390625,-34.1796875,317.3828125,1.0,1.0,-1.0,1.0,3.m4v,7.0
2024-02-28 09:26:31.151941,1709108791.1519406,163.57421875,-32.2265625,-34.66796875,999.51171875,1.0,1.0,-1.0,1.0,3.m4v,7.0
2024-02-28 09:26:31.155846,1709108791.1558464,-179.6875,-31.73828125,-32.71484375,137.6953125,1.0,1.0,-1.0,1.0,3.m4v,7.0
2024-02-28 09:26:31.159752,1709108791.159752,-822.75390625,-35.15625,-29.296875,-936.03515625,1.0,1.0,-1.0,1.0,3.m4v,7.0
2024-02-28 09:26:31.163658,1709108791.163658,-691.40625,-33.69140625,-32.71484375,-1000.0,1.0,1.0,-1.0,1.0,3.m4v,7.0
2024-02-28 09:26:31.167564,1709108791.1675637,-306.15234375,-34.66796875,-32.71484375,-909.1796875,1.0,1.0,-1.0,1.0,3.m4v,7.0
2024-02-28 09:26:31.171469,1709108791.1714694,421.38671875,-33.203125,-34.1796875,446.2890625,1.0,1.0,-1.0,1.0,3.m4v,7.0
2024-02-28 09:26:31.175375,1709108791.1753752,765.13671875,-26.85546875,-34.1796875,999.51171875,1.0,1.0,-1.0,1.0,3.m4v,7.0
2024-02-28 09:26:31.179281,1709108791.1792812,362.3046875,-26.3671875,-28.3203125,902.83203125,1.0,1.0,-1.0,1.0,3.m4v,7.0
2024-02-28 09:26:31.183187,1709108791.183187,94.23828125,-31.73828125,-24.4140625,965.33203125,1.0,1.0,-1.0,1.0,3.m4v,7.0
2024-02-28 09:26:31.187093,1709108791.1870928,1.46484375,-36.62109375,-33.69140625,914.0625,1.0,1.0,-1.0,1.0,3.m4v,7.0
2024-02-28 09:26:31.190999,1709108791.1909986,119.62890625,-31.25,-39.0625,999.51171875,1.0,1.0,-1.0,1.0,3.m4v,7.0
2024-02-28 09:26:31.194904,1709108791.1949043,-73.2421875,-29.78515625,-33.203125,379.8828125,1.0,1.0,-1.0,1.0,3.m4v,7.0
2024-02-28 09:26:31.198818,1709108791.1988175,-766.6015625,-32.71484375,-36.62109375,-884.765625,1.0,1.0,-1.0,1.0,3.m4v,7.0
2024-02-28 09:26:31.202724,1709108791.2027235,-748.53515625,-32.2265625,-37.109375,-994.140625,1.0,1.0,-1.0,1.0,3.m4v,7.0
2024-02-28 09:26:31.206630,1709108791.2066295,-410.64453125,-29.296875,-30.76171875,-1000.0,1.0,1.0,-1.0,1.0,3.m4v,7.0
2024-02-28 09:26:31.210535,1709108791.2105353,11.71875,-28.3203125,-25.390625,-425.29296875,1.0,1.0,-1.0,1.0,3.m4v,7.0
2024-02-28 09:26:31.214441,1709108791.214441,654.78515625,-33.69140625,-25.390625,833.0078125,1.0,1.0,-1.0,1.0,3.m4v,7.0
2024-02-28 09:26:31.218347,1709108791.2183468,575.68359375,-33.203125,-27.83203125,999.51171875,1.0,1.0,-1.0,1.0,3.m4v,7.0
2024-02-28 09:26:31.222253,1709108791.2222526,207.03125,-35.15625,-34.1796875,936.5234375,1.0,1.0,-1.0,1.0,3.m4v,7.0
2024-02-28 09:26:31.226158,1709108791.2261584,63.4765625,-35.64453125,-36.1328125,924.31640625,1.0,1.0,-1.0,1.0,3.m4v,7.0
2024-02-28 09:26:31.230064,1709108791.2300642,154.296875,-33.203125,-32.71484375,999.51171875,1.0,1.0,-1.0,1.0,3.m4v,7.0
2024-02-28 09:26:31.233970,1709108791.23397,31.25,-32.71484375,-31.25,649.4140625,1.0,1.0,-1.0,1.0,3.m4v,7.0
2024-02-28 09:26:31.237876,1709108791.2378757,-644.04296875,-35.64453125,-30.76171875,-749.0234375,1.0,1.0,-1.0,1.0,3.m4v,7.0
2024-02-28 09:26:31.241782,1709108791.2417817,-750.48828125,-37.109375,-31.73828125,-1000.0,1.0,1.0,-1.0,1.0,3.m4v,7.0
2024-02-28 09:26:31.245697,1709108791.245697,-489.2578125,-39.55078125,-32.2265625,-950.68359375,1.0,1.0,-1.0,1.0,3.m4v,7.0
2024-02-28 09:26:31.249603,1709108791.2496028,-221.19140625,-40.52734375,-32.2265625,-950.1953125,1.0,1.0,-1.0,1.0,3.m4v,7.0
2024-02-28 09:26:31.253509,1709108791.2535086,423.828125,-39.0625,-32.2265625,256.8359375,1.0,1.0,-1.0,1.0,3.m4v,7.0
2024-02-28 09:26:31.257414,1709108791.2574143,772.4609375,-40.52734375,-30.2734375,999.51171875,1.0,1.0,-1.0,1.0,3.m4v,7.0
2024-02-28 09:26:31.261320,1709108791.26132,426.26953125,-40.0390625,-29.78515625,942.3828125,1.0,1.0,-1.0,1.0,3.m4v,7.0
2024-02-28 09:26:31.265226,1709108791.265226,131.34765625,-41.50390625,-31.73828125,908.203125,1.0,1.0,-1.0,1.0,3.m4v,7.0
2024-02-28 09:26:31.269132,1709108791.2691317,157.2265625,-42.96875,-36.1328125,999.51171875,1.0,1.0,-1.0,1.0,3.m4v,7.0
2024-02-28 09:26:31.273037,1709108791.2730374,73.2421875,-38.0859375,-35.15625,794.43359375,1.0,1.0,-1.0,1.0,3.m4v,7.0
2024-02-28 09:26:31.276943,1709108791.2769434,-579.1015625,-36.1328125,-32.2265625,-648.4375,1.0,1.0,-1.0,1.0,3.m4v,7.0
2024-02-28 09:26:31.280849,1709108791.2808492,-779.296875,-36.62109375,-34.1796875,-1000.0,1.0,1.0,-1.0,1.0,3.m4v,7.0
2024-02-28 09:26:31.284755,1709108791.284755,-491.69921875,-35.15625,-37.59765625,-995.60546875,1.0,1.0,-1.0,1.0,3.m4v,7.0
2024-02-28 09:26:31.288661,1709108791.2886608,-158.203125,-33.69140625,-34.1796875,-794.921875,1.0,1.0,-1.0,1.0,3.m4v,7.0
2024-02-28 09:26:31.292578,1709108791.2925775,628.41796875,-30.76171875,-30.2734375,639.16015625,1.0,1.0,-1.0,1.0,3.m4v,7.0
2024-02-28 09:26:31.296483,1709108791.2964833,754.8828125,-38.0859375,-30.2734375,999.51171875,1.0,1.0,-1.0,1.0,3.m4v,7.0
2024-02-28 09:26:31.300389,1709108791.300389,293.45703125,-40.0390625,-28.3203125,907.71484375,1.0,1.0,-1.0,1.0,3.m4v,7.0
2024-02-28 09:26:31.304295,1709108791.3042948,77.63671875,-35.64453125,-25.87890625,975.09765625,1.0,1.0,-1.0,1.0,3.m4v,7.0
2024-02-28 09:26:31.308201,1709108791.3082006,25.390625,-41.50390625,-25.87890625,934.5703125,1.0,1.0,-1.0,1.0,3.m4v,7.0
2024-02-28 09:26:31.312106,1709108791.3121064,142.08984375,-42.48046875,-25.390625,999.51171875,1.0,1.0,-1.0,1.0,3.m4v,7.0
2024-02-28 09:26:31.316012,1709108791.316012,-178.22265625,-36.62109375,-32.2265625,139.16015625,1.0,1.0,-1.0,1.0,3.m4v,7.0
2024-02-28 09:26:31.319918,1709108791.319918,-826.66015625,-34.66796875,-37.59765625,-999.0234375,1.0,1.0,-1.0,1.0,3.m4v,7.0
2024-02-28 09:26:31.323824,1709108791.3238237,-696.77734375,-37.59765625,-37.59765625,-995.60546875,1.0,1.0,-1.0,1.0,3.m4v,7.0
2024-02-28 09:26:31.327730,1709108791.3277297,-333.984375,-34.66796875,-35.15625,-978.02734375,1.0,1.0,-1.0,1.0,3.m4v,7.0
2024-02-28 09:26:31.331635,1709108791.3316357,-151.85546875,-31.73828125,-34.66796875,-1000.0,1.0,1.0,-1.0,1.0,3.m4v,7.0
2024-02-28 09:26:31.335541,1709108791.3355412,-4.8828125,-36.1328125,-38.0859375,-899.4140625,1.0,1.0,-1.0,1.0,3.m4v,7.0
2024-02-28 09:26:31.339456,1709108791.3394558,-94.7265625,-39.55078125,-38.57421875,-1000.0,1.0,1.0,-1.0,1.0,3.m4v,7.0
2024-02-28 09:26:31.343362,1709108791.3433616,-46.38671875,-38.57421875,-35.64453125,-751.953125,1.0,1.0,-1.0,1.0,3.m4v,7.0
2024-02-28 09:26:31.347267,1709108791.3472674,647.4609375,-34.1796875,-34.66796875,681.15234375,1.0,1.0,-1.0,1.0,3.m4v,7.0
2024-02-28 09:26:31.351173,1709108791.3511734,735.83984375,-34.1796875,-36.62109375,999.51171875,1.0,1.0,-1.0,1.0,3.m4v,7.0
2024-02-28 09:26:31.355079,1709108791.3550792,380.37109375,-34.66796875,-39.55078125,902.34375,1.0,1.0,-1.0,1.0,3.m4v,7.0
2024-02-28 09:26:31.358985,1709108791.358985,252.9296875,-35.15625,-37.59765625,991.2109375,1.0,1.0,-1.0,1.0,3.m4v,7.0
2024-02-28 09:26:31.362891,1709108791.3628907,76.171875,-35.64453125,-37.109375,959.47265625,1.0,1.0,-1.0,1.0,3.m4v,7.0
2024-02-28 09:26:31.366796,1709108791.3667965,-31.25,-36.1328125,-36.1328125,910.64453125,1.0,1.0,-1.0,1.0,3.m4v,7.0
2024-02-28 09:26:31.370702,1709108791.3707025,107.421875,-35.15625,-33.69140625,999.51171875,1.0,1.0,-1.0,1.0,3.m4v,7.0
2024-02-28 09:26:31.374608,1709108791.374608,-124.0234375,-32.2265625,-31.25,242.1875,1.0,1.0,-1.0,1.0,3.m4v,7.0
2024-02-28 09:26:31.378514,1709108791.3785138,-767.578125,-34.1796875,-34.1796875,-967.28515625,1.0,1.0,-1.0,1.0,3.m4v,7.0
2024-02-28 09:26:31.382420,1709108791.3824196,-699.70703125,-36.62109375,-36.1328125,-977.5390625,1.0,1.0,-1.0,1.0,3.m4v,7.0
2024-02-28 09:26:31.386329,1709108791.386329,-417.96875,-39.0625,-36.62109375,-981.93359375,1.0,1.0,-1.0,1.0,3.m4v,7.0
2024-02-28 09:26:31.390235,1709108791.3902347,-232.91015625,-38.57421875,-37.59765625,-937.5,1.0,1.0,-1.0,1.0,3.m4v,7.0
2024-02-28 09:26:31.394140,1709108791.3941405,373.046875,-37.59765625,-33.203125,296.38671875,1.0,1.0,-1.0,1.0,3.m4v,7.0
2024-02-28 09:26:31.398046,1709108791.3980465,695.80078125,-39.0625,-35.64453125,999.51171875,1.0,1.0,-1.0,1.0,3.m4v,7.0
2024-02-28 09:26:31.401952,1709108791.4019525,327.63671875,-35.64453125,-35.64453125,936.5234375,1.0,1.0,-1.0,1.0,3.m4v,7.0
2024-02-28 09:26:31.405858,1709108791.405858,68.84765625,-27.83203125,-30.2734375,909.66796875,1.0,1.0,-1.0,1.0,3.m4v,7.0
2024-02-28 09:26:31.409764,1709108791.4097638,99.12109375,-30.2734375,-33.69140625,999.51171875,1.0,1.0,-1.0,1.0,3.m4v,7.0
2024-02-28 09:26:31.413670,1709108791.4136696,9.765625,-32.2265625,-36.1328125,719.23828125,1.0,1.0,-1.0,1.0,3.m4v,7.0
2024-02-28 09:26:31.417575,1709108791.4175754,-626.953125,-33.203125,-31.73828125,-708.984375,1.0,1.0,-1.0,1.0,3.m4v,7.0
2024-02-28 09:26:31.421481,1709108791.4214811,-786.1328125,-36.1328125,-30.76171875,-1000.0,1.0,1.0,-1.0,1.0,3.m4v,7.0
2024-02-28 09:26:31.425387,1709108791.425387,-478.515625,-34.1796875,-33.203125,-968.26171875,1.0,1.0,-1.0,1.0,3.m4v,7.0
2024-02-28 09:26:31.429293,1709108791.429293,-229.00390625,-33.203125,-37.59765625,-910.15625,1.0,1.0,-1.0,1.0,3.m4v,7.0
2024-02-28 09:26:31.433201,1709108791.4332013,440.91796875,-28.80859375,-35.64453125,443.359375,1.0,1.0,-1.0,1.0,3.m4v,7.0
2024-02-28 09:26:31.437107,1709108791.437107,699.70703125,-22.94921875,-30.76171875,999.51171875,1.0,1.0,-1.0,1.0,3.m4v,7.0
2024-02-28 09:26:31.441013,1709108791.4410129,279.78515625,-27.83203125,-33.203125,912.59765625,1.0,1.0,-1.0,1.0,3.m4v,7.0
2024-02-28 09:26:31.444919,1709108791.4449189,87.890625,-37.109375,-33.203125,970.703125,1.0,1.0,-1.0,1.0,3.m4v,7.0
2024-02-28 09:26:31.448825,1709108791.4488246,101.07421875,-42.48046875,-32.71484375,930.6640625,1.0,1.0,-1.0,1.0,3.m4v,7.0
2024-02-28 09:26:31.452730,1709108791.4527304,215.33203125,-38.57421875,-35.15625,999.51171875,1.0,1.0,-1.0,1.0,3.m4v,7.0
2024-02-28 09:26:31.456636,1709108791.4566362,-109.375,-34.66796875,-33.203125,197.75390625,1.0,1.0,-1.0,1.0,3.m4v,7.0
2024-02-28 09:26:31.460542,1709108791.460542,-829.58984375,-35.64453125,-32.2265625,-979.00390625,1.0,1.0,-1.0,1.0,3.m4v,7.0
2024-02-28 09:26:31.464448,1709108791.4644475,-765.625,-34.1796875,-36.62109375,-1000.0,1.0,1.0,-1.0,1.0,3.m4v,7.0
2024-02-28 09:26:31.468354,1709108791.4683535,-398.92578125,-33.69140625,-39.0625,-968.75,1.0,1.0,-1.0,1.0,3.m4v,7.0
2024-02-28 09:26:31.472259,1709108791.4722593,-143.06640625,-31.25,-36.1328125,-1000.0,1.0,1.0,-1.0,1.0,3.m4v,7.0
2024-02-28 09:26:31.476165,1709108791.476165,23.4375,-33.69140625,-36.62109375,-940.91796875,1.0,1.0,-1.0,1.0,3.m4v,7.0
2024-02-28 09:26:31.480074,1709108791.4800737,-111.328125,-39.55078125,-38.57421875,-1000.0,1.0,1.0,-1.0,1.0,3.m4v,7.0
2024-02-28 09:26:31.483979,1709108791.4839797,-70.80078125,-41.015625,-35.15625,-735.83984375,1.0,1.0,-1.0,1.0,3.m4v,7.0
2024-02-28 09:26:31.487885,1709108791.4878852,653.3203125,-38.0859375,-34.66796875,684.5703125,1.0,1.0,-1.0,1.0,3.m4v,7.0
2024-02-28 09:26:31.491791,1709108791.491791,772.94921875,-33.69140625,-34.66796875,999.51171875,1.0,1.0,-1.0,1.0,3.m4v,7.0
2024-02-28 09:26:31.495697,1709108791.4956968,385.25390625,-32.71484375,-33.203125,904.78515625,1.0,1.0,-1.0,1.0,3.m4v,7.0
2024-02-28 09:26:31.499603,1709108791.4996026,206.0546875,-33.203125,-33.69140625,992.67578125,1.0,1.0,-1.0,1.0,3.m4v,7.0
2024-02-28 09:26:31.503508,1709108791.5035083,30.76171875,-32.71484375,-34.66796875,942.3828125,1.0,1.0,-1.0,1.0,3.m4v,7.0
2024-02-28 09:26:31.507414,1709108791.5074143,-45.8984375,-32.2265625,-33.69140625,961.42578125,1.0,1.0,-1.0,1.0,3.m4v,7.0
2024-02-28 09:26:31.655847,1709108791.6558466,-384.765625,-39.55078125,-37.59765625,-365.72265625,1.0,1.0,-1.0,1.0,3.m4v,7.0
2024-02-28 09:26:31.659752,1709108791.6597524,-849.12109375,-38.57421875,-42.96875,-1000.0,1.0,1.0,-1.0,1.0,3.m4v,7.0
2024-02-28 09:26:31.663658,1709108791.663658,-595.21484375,-35.15625,-37.109375,-912.59765625,1.0,1.0,-1.0,1.0,3.m4v,7.0
2024-02-28 09:26:31.667567,1709108791.6675675,-357.91015625,-34.66796875,-35.15625,-1000.0,1.0,1.0,-1.0,1.0,3.m4v,7.0
2024-02-28 09:26:31.671473,1709108791.6714733,107.91015625,-32.2265625,-35.64453125,-278.80859375,1.0,1.0,-1.0,1.0,3.m4v,7.0
2024-02-28 09:26:31.675379,1709108791.675379,716.796875,-28.3203125,-29.296875,886.71875,1.0,1.0,-1.0,1.0,3.m4v,7.0
2024-02-28 09:26:31.679285,1709108791.6792848,512.20703125,-29.296875,-30.76171875,991.69921875,1.0,1.0,-1.0,1.0,3.m4v,7.0
2024-02-28 09:26:31.683191,1709108791.6831906,144.53125,-32.2265625,-34.1796875,941.89453125,1.0,1.0,-1.0,1.0,3.m4v,7.0
2024-02-28 09:26:31.687096,1709108791.6870964,96.19140625,-28.3203125,-33.69140625,925.29296875,1.0,1.0,-1.0,1.0,3.m4v,7.0
2024-02-28 09:26:31.691002,1709108791.691002,183.59375,-26.85546875,-32.71484375,999.51171875,1.0,1.0,-1.0,1.0,3.m4v,7.0
2024-02-28 09:26:31.694908,1709108791.694908,-17.08984375,-28.80859375,-31.25,551.7578125,1.0,1.0,-1.0,1.0,3.m4v,7.0
2024-02-28 09:26:31.698814,1709108791.698814,-737.3046875,-33.69140625,-34.66796875,-801.7578125,1.0,1.0,-1.0,1.0,3.m4v,7.0
2024-02-28 09:26:31.702720,1709108791.7027197,-802.24609375,-36.62109375,-36.62109375,-1000.0,1.0,1.0,-1.0,1.0,3.m4v,7.0
2024-02-28 09:26:31.706625,1709108791.7066257,-503.41796875,-32.71484375,-37.109375,-912.109375,1.0,1.0,-1.0,1.0,3.m4v,7.0
2024-02-28 09:26:31.710531,1709108791.7105312,-321.2890625,-30.76171875,-39.0625,-1000.0,1.0,1.0,-1.0,1.0,3.m4v,7.0
2024-02-28 09:26:31.714441,1709108791.7144406,129.8828125,-31.25,-41.50390625,-447.75390625,1.0,1.0,-1.0,1.0,3.m4v,7.0
2024-02-28 09:26:31.718346,1709108791.7183464,716.30859375,-28.80859375,-35.15625,767.578125,1.0,1.0,-1.0,1.0,3.m4v,7.0
2024-02-28 09:26:31.722252,1709108791.722252,555.17578125,-31.25,-32.2265625,999.51171875,1.0,1.0,-1.0,1.0,3.m4v,7.0
2024-02-28 09:26:31.726158,1709108791.726158,147.4609375,-33.69140625,-37.109375,918.45703125,1.0,1.0,-1.0,1.0,3.m4v,7.0
2024-02-28 09:26:31.730064,1709108791.7300637,119.62890625,-32.2265625,-40.0390625,938.96484375,1.0,1.0,-1.0,1.0,3.m4v,7.0
2024-02-28 09:26:31.733969,1709108791.7339694,229.00390625,-29.78515625,-33.203125,999.51171875,1.0,1.0,-1.0,1.0,3.m4v,7.0
2024-02-28 09:26:31.737875,1709108791.7378752,-113.76953125,-33.203125,-29.78515625,266.6015625,1.0,1.0,-1.0,1.0,3.m4v,7.0
2024-02-28 09:26:31.741781,1709108791.741781,-846.19140625,-38.0859375,-37.59765625,-943.84765625,1.0,1.0,-1.0,1.0,3.m4v,7.0
2024-02-28 09:26:31.745687,1709108791.7456868,-724.609375,-38.57421875,-42.48046875,-1000.0,1.0,1.0,-1.0,1.0,3.m4v,7.0
2024-02-28 09:26:31.749593,1709108791.7495923,-293.9453125,-37.59765625,-39.0625,-966.30859375,1.0,1.0,-1.0,1.0,3.m4v,7.0
2024-02-28 09:26:31.753499,1709108791.7534986,-229.98046875,-33.69140625,-38.0859375,-1000.0,1.0,1.0,-1.0,1.0,3.m4v,7.0
2024-02-28 09:26:31.757404,1709108791.7574043,-176.26953125,-31.25,-39.0625,-951.66015625,1.0,1.0,-1.0,1.0,3.m4v,7.0
2024-02-28 09:26:31.761313,1709108791.7613132,-181.15234375,-34.66796875,-37.59765625,-1000.0,1.0,1.0,-1.0,1.0,3.m4v,7.0
2024-02-28 09:26:31.765219,1709108791.765219,66.40625,-35.15625,-37.59765625,-395.01953125,1.0,1.0,-1.0,1.0,3.m4v,7.0
2024-02-28 09:26:31.769125,1709108791.7691247,727.5390625,-33.69140625,-35.15625,875.0,1.0,1.0,-1.0,1.0,3.m4v,7.0
2024-02-28 09:26:31.773031,1709108791.7730303,642.578125,-37.109375,-37.109375,999.51171875,1.0,1.0,-1.0,1.0,3.m4v,7.0
2024-02-28 09:26:31.776936,1709108791.7769363,322.265625,-34.66796875,-34.66796875,926.7578125,1.0,1.0,-1.0,1.0,3.m4v,7.0
2024-02-28 09:26:31.780842,1709108791.780842,175.78125,-29.78515625,-28.80859375,995.1171875,1.0,1.0,-1.0,1.0,3.m4v,7.0
2024-02-28 09:26:31.784748,1709108791.7847478,-27.34375,-35.64453125,-30.2734375,913.0859375,1.0,1.0,-1.0,1.0,3.m4v,7.0
2024-02-28 09:26:31.788654,1709108791.7886536,-32.2265625,-41.015625,-36.62109375,999.51171875,1.0,1.0,-1.0,1.0,3.m4v,7.0
2024-02-28 09:26:31.792560,1709108791.7925596,-41.50390625,-36.1328125,-36.62109375,783.69140625,1.0,1.0,-1.0,1.0,3.m4v,7.0
2024-02-28 09:26:31.796465,1709108791.7964654,-624.0234375,-32.71484375,-31.25,-647.94921875,1.0,1.0,-1.0,1.0,3.m4v,7.0
2024-02-28 09:26:31.800371,1709108791.8003712,-844.23828125,-34.1796875,-33.69140625,-1000.0,1.0,1.0,-1.0,1.0,3.m4v,7.0
2024-02-28 09:26:31.804277,1709108791.804277,-487.3046875,-33.69140625,-34.1796875,-919.921875,1.0,1.0,-1.0,1.0,3.m4v,7.0
2024-02-28 09:26:31.808186,1709108791.8081856,-264.6484375,-32.71484375,-31.73828125,-1000.0,1.0,1.0,-1.0,1.0,3.m4v,7.0
2024-02-28 09:26:31.812091,1709108791.8120914,254.8828125,-34.66796875,-33.69140625,41.015625,1.0,1.0,-1.0,1.0,3.m4v,7.0
2024-02-28 09:26:31.815997,1709108791.8159971,740.72265625,-35.15625,-33.69140625,999.51171875,1.0,1.0,-1.0,1.0,3.m4v,7.0
2024-02-28 09:26:31.819903,1709108791.819903,425.78125,-30.76171875,-28.80859375,950.68359375,1.0,1.0,-1.0,1.0,3.m4v,7.0
2024-02-28 09:26:31.823809,1709108791.823809,80.078125,-30.76171875,-30.76171875,942.87109375,1.0,1.0,-1.0,1.0,3.m4v,7.0
2024-02-28 09:26:31.827714,1709108791.8277144,52.24609375,-38.0859375,-33.203125,944.3359375,1.0,1.0,-1.0,1.0,3.m4v,7.0
2024-02-28 09:26:31.831620,1709108791.8316202,128.41796875,-42.96875,-35.64453125,999.51171875,1.0,1.0,-1.0,1.0,3.m4v,7.0
2024-02-28 09:26:31.835526,1709108791.835526,-184.08203125,-40.52734375,-37.109375,110.3515625,1.0,1.0,-1.0,1.0,3.m4v,7.0
2024-02-28 09:26:31.839432,1709108791.8394318,-773.4375,-40.0390625,-38.0859375,-1000.0,1.0,1.0,-1.0,1.0,3.m4v,7.0
2024-02-28 09:26:31.847244,1709108791.8472435,-392.08984375,-41.9921875,-37.59765625,-974.12109375,1.0,1.0,-1.0,1.0,3.m4v,7.0
2024-02-28 09:26:31.855058,1709108791.8550577,-124.0234375,-36.1328125,-40.0390625,-948.73046875,1.0,1.0,-1.0,1.0,3.m4v,7.0
2024-02-28 09:26:31.862869,1709108791.8628693,-130.859375,-38.0859375,-41.9921875,-912.109375,1.0,1.0,-1.0,1.0,3.m4v,7.0
2024-02-28 09:26:31.870681,1709108791.8706808,818.84765625,-34.66796875,-34.66796875,999.51171875,1.0,1.0,-1.0,1.0,3.m4v,7.0
2024-02-28 09:26:31.878492,1709108791.8784924,247.55859375,-31.25,-34.1796875,999.51171875,1.0,1.0,-1.0,1.0,3.m4v,7.0
2024-02-28 09:26:32.257382,1709108792.2573824,589.35546875,-28.3203125,-30.2734375,999.51171875,1.0,1.0,-1.0,1.0,3.m4v,7.0
2024-02-28 09:26:32.261288,1709108792.2612882,222.16796875,-28.3203125,-33.69140625,928.22265625,1.0,1.0,-1.0,1.0,3.m4v,7.0
2024-02-28 09:26:32.265194,1709108792.2651942,-120.60546875,-26.3671875,-36.62109375,354.4921875,1.0,1.0,-1.0,1.0,3.m4v,7.0
2024-02-28 09:26:32.269100,1709108792.2691,-630.859375,-29.296875,-36.62109375,-820.80078125,1.0,1.0,-1.0,1.0,3.m4v,7.0
2024-02-28 09:26:32.273006,1709108792.2730055,-656.73828125,-33.203125,-36.62109375,-1000.0,1.0,1.0,-1.0,1.0,3.m4v,7.0
2024-02-28 09:26:32.276916,1709108792.2769158,-303.7109375,-34.1796875,-33.203125,-920.8984375,1.0,1.0,-1.0,1.0,3.m4v,7.0
2024-02-28 09:26:32.280822,1709108792.2808216,-164.55078125,-33.69140625,-34.1796875,-1000.0,1.0,1.0,-1.0,1.0,3.m4v,7.0
2024-02-28 09:26:32.284727,1709108792.284727,-181.640625,-33.203125,-39.0625,-1000.0,1.0,1.0,-1.0,1.0,3.m4v,7.0
2024-02-28 09:26:32.288633,1709108792.288633,367.67578125,-30.2734375,-37.109375,298.828125,1.0,1.0,-1.0,1.0,3.m4v,7.0
2024-02-28 09:26:32.292539,1709108792.292539,832.51953125,-30.76171875,-34.1796875,999.51171875,1.0,1.0,-1.0,1.0,3.m4v,7.0
2024-02-28 09:26:32.296445,1709108792.296445,538.0859375,-29.78515625,-31.25,873.53515625,1.0,1.0,-1.0,1.0,3.m4v,7.0
2024-02-28 09:26:32.300350,1709108792.3003504,234.375,-32.2265625,-35.15625,999.51171875,1.0,1.0,-1.0,1.0,3.m4v,7.0
2024-02-28 09:26:32.304256,1709108792.3042564,-54.6875,-35.15625,-37.59765625,617.67578125,1.0,1.0,-1.0,1.0,3.m4v,7.0
2024-02-28 09:26:32.308162,1709108792.3081622,-542.96875,-36.1328125,-32.2265625,-623.046875,1.0,1.0,-1.0,1.0,3.m4v,7.0
2024-02-28 09:26:32.312068,1709108792.312068,-625.0,-38.0859375,-34.66796875,-1000.0,1.0,1.0,-1.0,1.0,3.m4v,7.0
2024-02-28 09:26:32.315974,1709108792.3159738,-294.921875,-36.1328125,-34.1796875,-918.9453125,1.0,1.0,-1.0,1.0,3.m4v,7.0
2024-02-28 09:26:32.319880,1709108792.3198795,-178.7109375,-34.66796875,-32.71484375,-1000.0,1.0,1.0,-1.0,1.0,3.m4v,7.0
2024-02-28 09:26:32.323789,1709108792.3237894,-265.625,-36.1328125,-35.64453125,-1000.0,1.0,1.0,-1.0,1.0,3.m4v,7.0
2024-02-28 09:26:32.327695,1709108792.3276951,246.09375,-38.57421875,-33.69140625,219.23828125,1.0,1.0,-1.0,1.0,3.m4v,7.0
2024-02-28 09:26:32.331601,1709108792.331601,757.8125,-40.52734375,-31.25,999.51171875,1.0,1.0,-1.0,1.0,3.m4v,7.0
2024-02-28 09:26:32.335507,1709108792.335507,479.4921875,-41.9921875,-34.66796875,916.50390625,1.0,1.0,-1.0,1.0,3.m4v,7.0
2024-02-28 09:26:32.339412,1709108792.3394125,199.70703125,-40.52734375,-36.1328125,976.07421875,1.0,1.0,-1.0,1.0,3.m4v,7.0
2024-02-28 09:26:32.343318,1709108792.3433182,45.41015625,-39.55078125,-37.59765625,946.2890625,1.0,1.0,-1.0,1.0,3.m4v,7.0
2024-02-28 09:26:32.347224,1709108792.347224,4.39453125,-38.0859375,-37.59765625,958.49609375,1.0,1.0,-1.0,1.0,3.m4v,7.0
2024-02-28 09:26:32.351130,1709108792.35113,101.5625,-32.2265625,-30.76171875,999.51171875,1.0,1.0,-1.0,1.0,3.m4v,7.0
2024-02-28 09:26:32.355036,1709108792.3550358,-332.51953125,-33.203125,-32.2265625,-146.97265625,1.0,1.0,-1.0,1.0,3.m4v,7.0
2024-02-28 09:26:32.358942,1709108792.3589416,-843.75,-41.015625,-41.015625,-1000.0,1.0,1.0,-1.0,1.0,3.m4v,7.0
2024-02-28 09:26:32.362847,1709108792.362847,-598.14453125,-37.59765625,-41.50390625,-912.59765625,1.0,1.0,-1.0,1.0,3.m4v,7.0
2024-02-28 09:26:32.366753,1709108792.366753,-365.234375,-35.64453125,-37.109375,-1000.0,1.0,1.0,-1.0,1.0,3.m4v,7.0
2024-02-28 09:26:32.370663,1709108792.3706627,-52.24609375,-40.52734375,-37.109375,-588.8671875,1.0,1.0,-1.0,1.0,3.m4v,7.0
2024-02-28 09:26:32.374568,1709108792.3745685,644.53125,-36.62109375,-36.1328125,734.86328125,1.0,1.0,-1.0,1.0,3.m4v,7.0
2024-02-28 09:26:32.378474,1709108792.3784742,636.71875,-36.62109375,-34.1796875,999.51171875,1.0,1.0,-1.0,1.0,3.m4v,7.0
2024-02-28 09:26:32.382380,1709108792.38238,191.40625,-43.9453125,-35.15625,929.19921875,1.0,1.0,-1.0,1.0,3.m4v,7.0
2024-02-28 09:26:32.386286,1709108792.3862858,63.4765625,-45.41015625,-35.15625,922.8515625,1.0,1.0,-1.0,1.0,3.m4v,7.0
2024-02-28 09:26:32.390192,1709108792.3901916,162.109375,-42.48046875,-31.25,999.51171875,1.0,1.0,-1.0,1.0,3.m4v,7.0
2024-02-28 09:26:32.394097,1709108792.394097,109.375,-43.9453125,-28.80859375,754.8828125,1.0,1.0,-1.0,1.0,3.m4v,7.0
2024-02-28 09:26:32.398003,1709108792.398003,-620.1171875,-46.38671875,-32.71484375,-679.6875,1.0,1.0,-1.0,1.0,3.m4v,7.0
2024-02-28 09:26:32.401909,1709108792.401909,-849.12109375,-47.8515625,-38.0859375,-1000.0,1.0,1.0,-1.0,1.0,3.m4v,7.0
2024-02-28 09:26:32.405815,1709108792.405815,-463.8671875,-45.8984375,-37.59765625,-932.12890625,1.0,1.0,-1.0,1.0,3.m4v,7.0
2024-02-28 09:26:32.409721,1709108792.409721,-221.6796875,-42.96875,-33.203125,-1000.0,1.0,1.0,-1.0,1.0,3.m4v,7.0
2024-02-28 09:26:32.413626,1709108792.4136264,-95.21484375,-39.55078125,-32.2265625,-986.81640625,1.0,1.0,-1.0,1.0,3.m4v,7.0
2024-02-28 09:26:32.417536,1709108792.4175358,-54.19921875,-34.1796875,-36.62109375,-970.703125,1.0,1.0,-1.0,1.0,3.m4v,7.0
2024-02-28 09:26:32.421442,1709108792.4214416,-166.015625,-34.1796875,-40.0390625,-1000.0,1.0,1.0,-1.0,1.0,3.m4v,7.0
2024-02-28 09:26:32.425347,1709108792.425347,152.34375,-38.57421875,-40.0390625,-101.5625,1.0,1.0,-1.0,1.0,3.m4v,7.0
2024-02-28 09:26:32.429253,1709108792.429253,769.04296875,-37.59765625,-36.62109375,988.76953125,1.0,1.0,-1.0,1.0,3.m4v,7.0
2024-02-28 09:26:32.433159,1709108792.4331589,590.8203125,-40.0390625,-37.59765625,961.42578125,1.0,1.0,-1.0,1.0,3.m4v,7.0
2024-02-28 09:26:32.437065,1709108792.4370646,285.15625,-38.0859375,-37.59765625,943.359375,1.0,1.0,-1.0,1.0,3.m4v,7.0
2024-02-28 09:26:32.440970,1709108792.4409704,127.9296875,-32.2265625,-30.76171875,949.21875,1.0,1.0,-1.0,1.0,3.m4v,7.0
2024-02-28 09:26:32.444876,1709108792.4448764,-38.0859375,-33.69140625,-29.296875,940.4296875,1.0,1.0,-1.0,1.0,3.m4v,7.0
2024-02-28 09:26:32.448782,1709108792.4487822,-224.609375,-39.55078125,-41.015625,359.375,1.0,1.0,-1.0,1.0,3.m4v,7.0
2024-02-28 09:26:32.452688,1709108792.452688,-647.94921875,-39.0625,-49.31640625,-803.7109375,1.0,1.0,-1.0,1.0,3.m4v,7.0
2024-02-28 09:26:32.456594,1709108792.4565938,-596.19140625,-33.69140625,-48.33984375,-1000.0,1.0,1.0,-1.0,1.0,3.m4v,7.0
2024-02-28 09:26:32.460500,1709108792.4604995,-299.8046875,-33.69140625,-41.9921875,-912.59765625,1.0,1.0,-1.0,1.0,3.m4v,7.0
2024-02-28 09:26:32.464409,1709108792.4644086,-307.12890625,-35.15625,-41.015625,-1000.0,1.0,1.0,-1.0,1.0,3.m4v,7.0
2024-02-28 09:26:32.468314,1709108792.4683144,83.0078125,-28.80859375,-41.015625,-252.44140625,1.0,1.0,-1.0,1.0,3.m4v,7.0
2024-02-28 09:26:32.472220,1709108792.4722202,742.1875,-28.3203125,-36.62109375,937.01171875,1.0,1.0,-1.0,1.0,3.m4v,7.0
2024-02-28 09:26:32.476126,1709108792.476126,576.66015625,-36.1328125,-36.62109375,979.4921875,1.0,1.0,-1.0,1.0,3.m4v,7.0
2024-02-28 09:26:32.480032,1709108792.4800315,198.73046875,-33.69140625,-36.62109375,947.75390625,1.0,1.0,-1.0,1.0,3.m4v,7.0
2024-02-28 09:26:32.483938,1709108792.4839375,52.24609375,-34.1796875,-33.69140625,938.4765625,1.0,1.0,-1.0,1.0,3.m4v,7.0
2024-02-28 09:26:32.487844,1709108792.4878435,11.23046875,-34.1796875,-32.2265625,986.81640625,1.0,1.0,-1.0,1.0,3.m4v,7.0
2024-02-28 09:26:32.491749,1709108792.4917493,80.078125,-33.69140625,-34.66796875,945.80078125,1.0,1.0,-1.0,1.0,3.m4v,7.0
2024-02-28 09:26:32.495655,1709108792.495655,-393.5546875,-36.1328125,-37.109375,-384.765625,1.0,1.0,-1.0,1.0,3.m4v,7.0
2024-02-28 09:26:32.499561,1709108792.4995608,-793.45703125,-37.109375,-40.0390625,-1000.0,1.0,1.0,-1.0,1.0,3.m4v,7.0
2024-02-28 09:26:32.503467,1709108792.5034666,-542.48046875,-36.1328125,-39.55078125,-934.08203125,1.0,1.0,-1.0,1.0,3.m4v,7.0
2024-02-28 09:26:32.507372,1709108792.5073724,-295.41015625,-34.66796875,-33.203125,-1000.0,1.0,1.0,-1.0,1.0,3.m4v,7.0
2024-02-28 09:26:32.511281,1709108792.5112813,265.625,-31.73828125,-33.69140625,136.23046875,1.0,1.0,-1.0,1.0,3.m4v,7.0
2024-02-28 09:26:32.515187,1709108792.515187,709.9609375,-26.85546875,-36.1328125,999.51171875,1.0,1.0,-1.0,1.0,3.m4v,7.0
2024-02-28 09:26:32.519093,1709108792.5190928,428.22265625,-26.3671875,-33.69140625,934.08203125,1.0,1.0,-1.0,1.0,3.m4v,7.0
2024-02-28 09:26:32.522999,1709108792.5229986,119.62890625,-29.78515625,-33.203125,967.28515625,1.0,1.0,-1.0,1.0,3.m4v,7.0
2024-02-28 09:26:32.526904,1709108792.5269043,20.01953125,-31.73828125,-34.1796875,919.921875,1.0,1.0,-1.0,1.0,3.m4v,7.0
2024-02-28 09:26:32.530810,1709108792.5308104,131.8359375,-31.25,-33.69140625,999.51171875,1.0,1.0,-1.0,1.0,3.m4v,7.0
2024-02-28 09:26:32.534716,1709108792.534716,-55.17578125,-34.66796875,-35.15625,510.25390625,1.0,1.0,-1.0,1.0,3.m4v,7.0
2024-02-28 09:26:32.538622,1709108792.538622,-809.08203125,-36.1328125,-35.15625,-834.9609375,1.0,1.0,-1.0,1.0,3.m4v,7.0
2024-02-28 09:26:32.542528,1709108792.5425277,-821.2890625,-33.69140625,-32.71484375,-1000.0,1.0,1.0,-1.0,1.0,3.m4v,7.0
2024-02-28 09:26:32.546433,1709108792.5464334,-424.8046875,-29.78515625,-34.66796875,-970.703125,1.0,1.0,-1.0,1.0,3.m4v,7.0
2024-02-28 09:26:32.550339,1709108792.5503392,-187.01171875,-25.87890625,-31.73828125,-885.25390625,1.0,1.0,-1.0,1.0,3.m4v,7.0
2024-02-28 09:26:32.554245,1709108792.554245,415.52734375,-23.92578125,-32.71484375,348.14453125,1.0,1.0,-1.0,1.0,3.m4v,7.0
2024-02-28 09:26:32.558154,1709108792.558154,688.4765625,-29.296875,-31.73828125,999.51171875,1.0,1.0,-1.0,1.0,3.m4v,7.0
2024-02-28 09:26:32.562060,1709108792.5620596,317.87109375,-32.2265625,-31.25,937.5,1.0,1.0,-1.0,1.0,3.m4v,7.0
2024-02-28 09:26:32.565965,1709108792.5659654,89.35546875,-31.73828125,-36.1328125,910.64453125,1.0,1.0,-1.0,1.0,3.m4v,7.0
2024-02-28 09:26:32.569871,1709108792.5698712,147.4609375,-33.203125,-39.0625,999.51171875,1.0,1.0,-1.0,1.0,3.m4v,7.0
2024-02-28 09:26:32.573777,1709108792.573777,34.1796875,-27.34375,-36.1328125,683.59375,1.0,1.0,-1.0,1.0,3.m4v,7.0
2024-02-28 09:26:32.577683,1709108792.5776827,-604.4921875,-25.390625,-33.203125,-722.16796875,1.0,1.0,-1.0,1.0,3.m4v,7.0
2024-02-28 09:26:32.581589,1709108792.5815885,-742.1875,-31.73828125,-31.73828125,-1000.0,1.0,1.0,-1.0,1.0,3.m4v,7.0
2024-02-28 09:26:32.585495,1709108792.5854945,-478.02734375,-31.25,-28.80859375,-937.01171875,1.0,1.0,-1.0,1.0,3.m4v,7.0
2024-02-28 09:26:32.589400,1709108792.5894003,-271.97265625,-32.71484375,-34.66796875,-1000.0,1.0,1.0,-1.0,1.0,3.m4v,7.0
2024-02-28 09:26:32.593306,1709108792.593306,-79.58984375,-35.64453125,-38.57421875,-1000.0,1.0,1.0,-1.0,1.0,3.m4v,7.0
2024-02-28 09:26:32.597212,1709108792.5972118,-33.69140625,-36.1328125,-37.109375,-953.61328125,1.0,1.0,-1.0,1.0,3.m4v,7.0
2024-02-28 09:26:32.601118,1709108792.6011176,-183.10546875,-38.0859375,-41.9921875,-1000.0,1.0,1.0,-1.0,1.0,3.m4v,7.0
2024-02-28 09:26:32.605026,1709108792.605026,47.36328125,-37.109375,-42.48046875,-371.58203125,1.0,1.0,-1.0,1.0,3.m4v,7.0
2024-02-28 09:26:32.608932,1709108792.6089318,777.34375,-31.73828125,-35.15625,882.32421875,1.0,1.0,-1.0,1.0,3.m4v,7.0
2024-02-28 09:26:32.612838,1709108792.6128376,702.63671875,-27.83203125,-34.1796875,998.53515625,1.0,1.0,-1.0,1.0,3.m4v,7.0
2024-02-28 09:26:32.616743,1709108792.616743,335.44921875,-26.3671875,-33.203125,929.6875,1.0,1.0,-1.0,1.0,3.m4v,7.0
2024-02-28 09:26:32.620649,1709108792.620649,141.6015625,-29.78515625,-30.2734375,990.72265625,1.0,1.0,-1.0,1.0,3.m4v,7.0
2024-02-28 09:26:32.624555,1709108792.6245549,-32.2265625,-31.73828125,-31.25,909.1796875,1.0,1.0,-1.0,1.0,3.m4v,7.0
2024-02-28 09:26:32.628461,1709108792.628461,36.62109375,-36.1328125,-34.66796875,999.51171875,1.0,1.0,-1.0,1.0,3.m4v,7.0
2024-02-28 09:26:32.632367,1709108792.632367,0.0,-40.0390625,-35.15625,682.12890625,1.0,1.0,-1.0,1.0,3.m4v,7.0
2024-02-28 09:26:32.636272,1709108792.6362724,-649.4140625,-34.66796875,-32.71484375,-731.4453125,1.0,1.0,-1.0,1.0,3.m4v,7.0
2024-02-28 09:26:32.640178,1709108792.6401782,-766.11328125,-29.296875,-30.2734375,-1000.0,1.0,1.0,-1.0,1.0,3.m4v,7.0
2024-02-28 09:26:32.644084,1709108792.644084,-430.17578125,-29.296875,-30.2734375,-953.61328125,1.0,1.0,-1.0,1.0,3.m4v,7.0
2024-02-28 09:26:32.647990,1709108792.6479895,-277.34375,-29.78515625,-32.71484375,-979.98046875,1.0,1.0,-1.0,1.0,3.m4v,7.0
2024-02-28 09:26:32.651900,1709108792.6518998,379.8828125,-25.87890625,-32.71484375,321.2890625,1.0,1.0,-1.0,1.0,3.m4v,7.0
2024-02-28 09:26:32.655806,1709108792.6558056,785.15625,-26.85546875,-34.1796875,999.51171875,1.0,1.0,-1.0,1.0,3.m4v,7.0
2024-02-28 09:26:32.659711,1709108792.6597114,412.109375,-29.78515625,-31.73828125,916.50390625,1.0,1.0,-1.0,1.0,3.m4v,7.0
2024-02-28 09:26:32.663617,1709108792.6636171,136.23046875,-31.73828125,-29.78515625,970.703125,1.0,1.0,-1.0,1.0,3.m4v,7.0
2024-02-28 09:26:32.667523,1709108792.667523,35.64453125,-31.25,-29.78515625,925.78125,1.0,1.0,-1.0,1.0,3.m4v,7.0
2024-02-28 09:26:32.671429,1709108792.671429,105.95703125,-28.3203125,-31.73828125,999.51171875,1.0,1.0,-1.0,1.0,3.m4v,7.0
2024-02-28 09:26:32.675334,1709108792.6753345,-109.375,-25.87890625,-32.71484375,317.3828125,1.0,1.0,-1.0,1.0,3.m4v,7.0
2024-02-28 09:26:32.679240,1709108792.6792405,-797.36328125,-31.25,-33.203125,-927.734375,1.0,1.0,-1.0,1.0,3.m4v,7.0
2024-02-28 09:26:32.683146,1709108792.6831462,-762.6953125,-36.62109375,-36.62109375,-1000.0,1.0,1.0,-1.0,1.0,3.m4v,7.0
2024-02-28 09:26:32.687052,1709108792.687052,-356.4453125,-35.15625,-34.66796875,-958.49609375,1.0,1.0,-1.0,1.0,3.m4v,7.0
2024-02-28 09:26:32.690958,1709108792.6909578,-123.53515625,-33.69140625,-37.109375,-936.03515625,1.0,1.0,-1.0,1.0,3.m4v,7.0
2024-02-28 09:26:32.694864,1709108792.6948636,328.125,-35.15625,-40.52734375,77.63671875,1.0,1.0,-1.0,1.0,3.m4v,7.0
2024-02-28 09:26:32.698773,1709108792.6987731,659.1796875,-31.25,-40.52734375,969.7265625,1.0,1.0,-1.0,1.0,3.m4v,7.0
2024-02-28 09:26:32.702679,1709108792.702679,364.74609375,-33.69140625,-40.52734375,971.6796875,1.0,1.0,-1.0,1.0,3.m4v,7.0
2024-02-28 09:26:32.706585,1709108792.7065847,112.79296875,-30.76171875,-39.55078125,895.5078125,1.0,1.0,-1.0,1.0,3.m4v,7.0
2024-02-28 09:26:32.710490,1709108792.7104905,180.17578125,-28.3203125,-36.62109375,999.51171875,1.0,1.0,-1.0,1.0,3.m4v,7.0
2024-02-28 09:26:32.714396,1709108792.7143965,102.5390625,-28.3203125,-35.64453125,800.78125,1.0,1.0,-1.0,1.0,3.m4v,7.0
2024-02-28 09:26:32.718302,1709108792.7183022,-570.80078125,-22.4609375,-38.57421875,-626.953125,1.0,1.0,-1.0,1.0,3.m4v,7.0
2024-02-28 09:26:32.722208,1709108792.722208,-850.5859375,-29.78515625,-44.43359375,-1000.0,1.0,1.0,-1.0,1.0,3.m4v,7.0
2024-02-28 09:26:32.726114,1709108792.7261138,-502.9296875,-36.62109375,-47.36328125,-933.10546875,1.0,1.0,-1.0,1.0,3.m4v,7.0
2024-02-28 09:26:32.730020,1709108792.7300196,-230.46875,-32.2265625,-43.45703125,-1000.0,1.0,1.0,-1.0,1.0,3.m4v,7.0
2024-02-28 09:26:32.733925,1709108792.733925,-112.79296875,-33.203125,-37.59765625,-935.546875,1.0,1.0,-1.0,1.0,3.m4v,7.0
2024-02-28 09:26:32.737831,1709108792.737831,-114.74609375,-37.109375,-37.59765625,-1000.0,1.0,1.0,-1.0,1.0,3.m4v,7.0
2024-02-28 09:26:32.741737,1709108792.741737,-109.86328125,-36.62109375,-37.109375,-903.80859375,1.0,1.0,-1.0,1.0,3.m4v,7.0
2024-02-28 09:26:32.745646,1709108792.7456465,488.28125,-32.71484375,-31.25,509.765625,1.0,1.0,-1.0,1.0,3.m4v,7.0
2024-02-28 09:26:32.749552,1709108792.7495522,818.84765625,-27.83203125,-30.76171875,999.51171875,1.0,1.0,-1.0,1.0,3.m4v,7.0
2024-02-28 09:26:32.753458,1709108792.753458,462.40234375,-28.3203125,-33.69140625,850.5859375,1.0,1.0,-1.0,1.0,3.m4v,7.0
2024-02-28 09:26:32.757364,1709108792.757364,292.96875,-31.25,-34.66796875,999.51171875,1.0,1.0,-1.0,1.0,3.m4v,7.0
2024-02-28 09:26:32.761270,1709108792.7612698,-77.1484375,-31.73828125,-31.25,514.16015625,1.0,1.0,-1.0,1.0,3.m4v,7.0
2024-02-28 09:26:32.765176,1709108792.7651756,-728.515625,-32.2265625,-27.83203125,-797.36328125,1.0,1.0,-1.0,1.0,3.m4v,7.0
2024-02-28 09:26:33.210469,1709108793.210469,-79.1015625,-33.203125,-31.73828125,-734.86328125,1.0,1.0,-1.0,1.0,3.m4v,7.0
2024-02-28 09:26:33.214378,1709108793.214378,572.75390625,-35.64453125,-35.15625,620.1171875,1.0,1.0,-1.0,1.0,3.m4v,7.0
2024-02-28 09:26:33.218284,1709108793.218284,666.50390625,-31.73828125,-33.69140625,999.51171875,1.0,1.0,-1.0,1.0,3.m4v,7.0
2024-02-28 09:26:33.222190,1709108793.22219,209.47265625,-31.73828125,-30.76171875,922.8515625,1.0,1.0,-1.0,1.0,3.m4v,7.0
2024-02-28 09:26:33.226096,1709108793.2260957,40.0390625,-33.203125,-32.2265625,930.6640625,1.0,1.0,-1.0,1.0,3.m4v,7.0
2024-02-28 09:26:33.230001,1709108793.2300014,147.94921875,-28.3203125,-32.71484375,999.51171875,1.0,1.0,-1.0,1.0,3.m4v,7.0
2024-02-28 09:26:33.233907,1709108793.2339072,182.12890625,-28.80859375,-31.73828125,894.04296875,1.0,1.0,-1.0,1.0,3.m4v,7.0
2024-02-28 09:26:33.237813,1709108793.237813,-454.1015625,-34.1796875,-35.64453125,-515.625,1.0,1.0,-1.0,1.0,3.m4v,7.0
2024-02-28 09:26:33.241719,1709108793.2417188,-837.40234375,-37.109375,-38.0859375,-1000.0,1.0,1.0,-1.0,1.0,3.m4v,7.0
2024-02-28 09:26:33.245625,1709108793.2456243,-527.83203125,-38.0859375,-36.1328125,-928.7109375,1.0,1.0,-1.0,1.0,3.m4v,7.0
2024-02-28 09:26:33.249530,1709108793.2495303,-222.16796875,-33.203125,-36.62109375,-1000.0,1.0,1.0,-1.0,1.0,3.m4v,7.0
2024-02-28 09:26:33.253436,1709108793.253436,-74.70703125,-30.76171875,-36.1328125,-1000.0,1.0,1.0,-1.0,1.0,3.m4v,7.0
2024-02-28 09:26:33.257342,1709108793.257342,-36.62109375,-32.71484375,-39.0625,-953.125,1.0,1.0,-1.0,1.0,3.m4v,7.0
2024-02-28 09:26:33.261251,1709108793.261251,-159.1796875,-34.1796875,-42.96875,-1000.0,1.0,1.0,-1.0,1.0,3.m4v,7.0
2024-02-28 09:26:33.265157,1709108793.2651567,39.0625,-29.296875,-38.57421875,-370.60546875,1.0,1.0,-1.0,1.0,3.m4v,7.0
2024-02-28 09:26:33.269063,1709108793.2690625,708.0078125,-30.2734375,-37.109375,884.27734375,1.0,1.0,-1.0,1.0,3.m4v,7.0
2024-02-28 09:26:33.272968,1709108793.2729683,627.44140625,-34.66796875,-37.59765625,998.53515625,1.0,1.0,-1.0,1.0,3.m4v,7.0
2024-02-28 09:26:33.276874,1709108793.276874,282.71484375,-31.25,-30.76171875,928.7109375,1.0,1.0,-1.0,1.0,3.m4v,7.0
2024-02-28 09:26:33.280780,1709108793.2807798,141.11328125,-28.3203125,-31.73828125,994.140625,1.0,1.0,-1.0,1.0,3.m4v,7.0
2024-02-28 09:26:33.284686,1709108793.2846856,-7.8125,-33.69140625,-36.62109375,911.1328125,1.0,1.0,-1.0,1.0,3.m4v,7.0
2024-02-28 09:26:33.288591,1709108793.2885914,68.84765625,-36.62109375,-35.64453125,999.51171875,1.0,1.0,-1.0,1.0,3.m4v,7.0
2024-02-28 09:26:33.292497,1709108793.2924972,5.37109375,-35.64453125,-36.1328125,698.2421875,1.0,1.0,-1.0,1.0,3.m4v,7.0
2024-02-28 09:26:33.296403,1709108793.2964032,-655.2734375,-34.1796875,-33.203125,-723.6328125,1.0,1.0,-1.0,1.0,3.m4v,7.0
2024-02-28 09:26:33.300309,1709108793.300309,-772.94921875,-31.73828125,-30.76171875,-1000.0,1.0,1.0,-1.0,1.0,3.m4v,7.0
2024-02-28 09:26:33.304215,1709108793.3042147,-437.5,-35.15625,-29.296875,-921.38671875,1.0,1.0,-1.0,1.0,3.m4v,7.0
2024-02-28 09:26:33.308123,1709108793.3081234,-263.18359375,-37.59765625,-31.25,-1000.0,1.0,1.0,-1.0,1.0,3.m4v,7.0
2024-02-28 09:26:33.312029,1709108793.3120291,257.32421875,-40.0390625,-37.59765625,-18.06640625,1.0,1.0,-1.0,1.0,3.m4v,7.0
2024-02-28 09:26:33.315935,1709108793.315935,726.5625,-40.52734375,-34.66796875,983.3984375,1.0,1.0,-1.0,1.0,3.m4v,7.0
2024-02-28 09:26:33.319841,1709108793.319841,440.4296875,-39.0625,-30.76171875,968.26171875,1.0,1.0,-1.0,1.0,3.m4v,7.0
2024-02-28 09:26:33.323746,1709108793.3237464,102.5390625,-37.59765625,-27.83203125,902.34375,1.0,1.0,-1.0,1.0,3.m4v,7.0
2024-02-28 09:26:33.327652,1709108793.3276522,115.234375,-34.66796875,-26.3671875,999.51171875,1.0,1.0,-1.0,1.0,3.m4v,7.0
2024-02-28 09:26:33.331558,1709108793.331558,141.6015625,-36.1328125,-29.78515625,918.45703125,1.0,1.0,-1.0,1.0,3.m4v,7.0
2024-02-28 09:26:33.335464,1709108793.335464,-470.703125,-39.55078125,-38.0859375,-478.515625,1.0,1.0,-1.0,1.0,3.m4v,7.0
2024-02-28 09:26:33.339370,1709108793.3393698,-858.3984375,-36.62109375,-42.96875,-1000.0,1.0,1.0,-1.0,1.0,3.m4v,7.0
2024-02-28 09:26:33.343276,1709108793.3432755,-575.68359375,-35.64453125,-37.59765625,-888.18359375,1.0,1.0,-1.0,1.0,3.m4v,7.0
2024-02-28 09:26:33.347181,1709108793.347181,-331.0546875,-35.15625,-35.64453125,-1000.0,1.0,1.0,-1.0,1.0,3.m4v,7.0
2024-02-28 09:26:33.351087,1709108793.351087,64.453125,-33.203125,-34.66796875,-476.5625,1.0,1.0,-1.0,1.0,3.m4v,7.0
2024-02-28 09:26:33.354995,1709108793.3549955,680.6640625,-31.73828125,-33.203125,781.73828125,1.0,1.0,-1.0,1.0,3.m4v,7.0
2024-02-28 09:26:33.358901,1709108793.3589013,604.98046875,-35.64453125,-33.203125,999.51171875,1.0,1.0,-1.0,1.0,3.m4v,7.0
2024-02-28 09:26:33.362807,1709108793.362807,184.5703125,-39.0625,-29.296875,927.24609375,1.0,1.0,-1.0,1.0,3.m4v,7.0
2024-02-28 09:26:33.366713,1709108793.3667128,90.8203125,-39.0625,-31.73828125,930.17578125,1.0,1.0,-1.0,1.0,3.m4v,7.0
2024-02-28 09:26:33.370619,1709108793.3706186,187.01171875,-34.66796875,-31.25,999.51171875,1.0,1.0,-1.0,1.0,3.m4v,7.0
2024-02-28 09:26:33.374524,1709108793.3745244,0.48828125,-33.203125,-28.3203125,513.18359375,1.0,1.0,-1.0,1.0,3.m4v,7.0
2024-02-28 09:26:33.487799,1709108793.4877992,-284.1796875,-32.71484375,-34.1796875,-1000.0,1.0,1.0,-1.0,1.0,3.m4v,7.0
2024-02-28 09:26:33.491705,1709108793.491705,-121.09375,-36.62109375,-38.0859375,-882.32421875,1.0,1.0,-1.0,1.0,3.m4v,7.0
2024-02-28 09:26:33.495615,1709108793.4956143,29.296875,-31.25,-38.0859375,-697.265625,1.0,1.0,-1.0,1.0,3.m4v,7.0
2024-02-28 09:26:33.847160,1709108793.8471603,46.875,-33.69140625,-29.296875,970.703125,1.0,1.0,-1.0,1.0,3.m4v,7.0
2024-02-28 09:26:33.851066,1709108793.851066,111.81640625,-35.64453125,-26.85546875,982.421875,1.0,1.0,-1.0,1.0,3.m4v,7.0
2024-02-28 09:26:33.854972,1709108793.854972,-340.8203125,-41.015625,-30.2734375,-249.51171875,1.0,1.0,-1.0,1.0,3.m4v,7.0
2024-02-28 09:26:33.858878,1709108793.8588777,-838.8671875,-43.9453125,-37.109375,-1000.0,1.0,1.0,-1.0,1.0,3.m4v,7.0
2024-02-28 09:26:33.862783,1709108793.8627834,-578.125,-38.57421875,-35.15625,-905.2734375,1.0,1.0,-1.0,1.0,3.m4v,7.0
2024-02-28 09:26:33.866689,1709108793.8666892,-333.0078125,-37.59765625,-33.203125,-1000.0,1.0,1.0,-1.0,1.0,3.m4v,7.0
2024-02-28 09:26:33.870599,1709108793.8705988,-35.15625,-39.0625,-33.69140625,-536.62109375,1.0,1.0,-1.0,1.0,3.m4v,7.0
2024-02-28 09:26:33.874505,1709108793.8745046,622.0703125,-36.62109375,-27.83203125,753.41796875,1.0,1.0,-1.0,1.0,3.m4v,7.0
2024-02-28 09:26:33.878410,1709108793.8784103,592.7734375,-35.64453125,-25.390625,999.51171875,1.0,1.0,-1.0,1.0,3.m4v,7.0
2024-02-28 09:26:33.882316,1709108793.882316,130.859375,-42.96875,-29.296875,930.6640625,1.0,1.0,-1.0,1.0,3.m4v,7.0
2024-02-28 09:26:33.886222,1709108793.886222,43.45703125,-43.9453125,-29.296875,922.8515625,1.0,1.0,-1.0,1.0,3.m4v,7.0
2024-02-28 09:26:33.890128,1709108793.8901277,208.984375,-33.203125,-25.390625,999.51171875,1.0,1.0,-1.0,1.0,3.m4v,7.0
2024-02-28 09:26:33.894034,1709108793.8940337,90.8203125,-28.80859375,-28.80859375,658.69140625,1.0,1.0,-1.0,1.0,3.m4v,7.0
2024-02-28 09:26:33.897939,1709108793.8979394,-700.1953125,-34.1796875,-30.76171875,-746.58203125,1.0,1.0,-1.0,1.0,3.m4v,7.0
2024-02-28 09:26:33.901845,1709108793.9018452,-857.91015625,-33.69140625,-28.80859375,-1000.0,1.0,1.0,-1.0,1.0,3.m4v,7.0
2024-02-28 09:26:33.905751,1709108793.905751,-465.8203125,-32.71484375,-35.64453125,-938.4765625,1.0,1.0,-1.0,1.0,3.m4v,7.0
2024-02-28 09:26:33.909657,1709108793.9096568,-210.44921875,-29.78515625,-40.52734375,-1000.0,1.0,1.0,-1.0,1.0,3.m4v,7.0
2024-02-28 09:26:33.913563,1709108793.9135623,-78.125,-27.34375,-38.0859375,-1000.0,1.0,1.0,-1.0,1.0,3.m4v,7.0
2024-02-28 09:26:33.917472,1709108793.917472,-41.015625,-29.296875,-36.62109375,-942.3828125,1.0,1.0,-1.0,1.0,3.m4v,7.0
2024-02-28 09:26:33.921378,1709108793.9213777,-166.50390625,-28.80859375,-34.1796875,-1000.0,1.0,1.0,-1.0,1.0,3.m4v,7.0
2024-02-28 09:26:33.925283,1709108793.9252834,-18.06640625,-27.34375,-32.2265625,-612.79296875,1.0,1.0,-1.0,1.0,3.m4v,7.0
2024-02-28 09:26:33.929189,1709108793.9291892,738.28125,-24.4140625,-30.76171875,764.16015625,1.0,1.0,-1.0,1.0,3.m4v,7.0
2024-02-28 09:26:33.933095,1709108793.933095,760.7421875,-23.4375,-25.390625,999.51171875,1.0,1.0,-1.0,1.0,3.m4v,7.0
2024-02-28 09:26:33.937001,1709108793.937001,372.0703125,-25.390625,-24.4140625,913.57421875,1.0,1.0,-1.0,1.0,3.m4v,7.0
2024-02-28 09:26:33.940907,1709108793.9409068,182.12890625,-27.83203125,-32.2265625,994.62890625,1.0,1.0,-1.0,1.0,3.m4v,7.0
2024-02-28 09:26:33.944813,1709108793.9448123,-57.12890625,-27.34375,-32.2265625,912.59765625,1.0,1.0,-1.0,1.0,3.m4v,7.0
2024-02-28 09:26:33.948718,1709108793.9487183,-1.953125,-33.69140625,-29.78515625,999.51171875,1.0,1.0,-1.0,1.0,3.m4v,7.0
2024-02-28 09:26:33.952624,1709108793.952624,-24.4140625,-34.66796875,-33.203125,652.83203125,1.0,1.0,-1.0,1.0,3.m4v,7.0
2024-02-28 09:26:33.956530,1709108793.95653,-665.52734375,-30.76171875,-36.62109375,-752.44140625,1.0,1.0,-1.0,1.0,3.m4v,7.0
2024-02-28 09:26:33.960436,1709108793.9604356,-741.69921875,-24.90234375,-36.1328125,-1000.0,1.0,1.0,-1.0,1.0,3.m4v,7.0
2024-02-28 09:26:33.964345,1709108793.9643447,-456.54296875,-26.85546875,-36.62109375,-994.140625,1.0,1.0,-1.0,1.0,3.m4v,7.0
2024-02-28 09:26:33.968251,1709108793.9682505,-225.09765625,-29.296875,-35.15625,-825.1953125,1.0,1.0,-1.0,1.0,3.m4v,7.0
2024-02-28 09:26:33.972156,1709108793.9721563,514.6484375,-25.390625,-29.78515625,592.28515625,1.0,1.0,-1.0,1.0,3.m4v,7.0
2024-02-28 09:26:33.976062,1709108793.976062,721.19140625,-27.83203125,-27.34375,999.51171875,1.0,1.0,-1.0,1.0,3.m4v,7.0
2024-02-28 09:26:33.979968,1709108793.979968,234.86328125,-32.2265625,-22.4609375,913.0859375,1.0,1.0,-1.0,1.0,3.m4v,7.0
2024-02-28 09:26:33.983874,1709108793.9838738,13.671875,-33.69140625,-23.4375,948.2421875,1.0,1.0,-1.0,1.0,3.m4v,7.0
2024-02-28 09:26:33.987780,1709108793.9877796,107.421875,-34.66796875,-26.85546875,975.09765625,1.0,1.0,-1.0,1.0,3.m4v,7.0
2024-02-28 09:26:33.991685,1709108793.9916854,154.78515625,-37.109375,-31.25,973.14453125,1.0,1.0,-1.0,1.0,3.m4v,7.0
2024-02-28 09:26:33.995591,1709108793.9955912,-396.97265625,-38.0859375,-33.69140625,-302.24609375,1.0,1.0,-1.0,1.0,3.m4v,7.0
2024-02-28 09:26:33.999497,1709108793.999497,-831.0546875,-41.015625,-35.64453125,-1000.0,1.0,1.0,-1.0,1.0,3.m4v,7.0
2024-02-28 09:26:34.003403,1709108794.0034027,-595.21484375,-37.59765625,-38.57421875,-998.53515625,1.0,1.0,-1.0,1.0,3.m4v,7.0
2024-02-28 09:26:34.011217,1709108794.0112174,471.19140625,-24.4140625,-29.296875,569.82421875,1.0,1.0,-1.0,1.0,3.m4v,7.0
2024-02-28 09:26:34.015123,1709108794.0151231,704.58984375,-27.34375,-28.80859375,999.51171875,1.0,1.0,-1.0,1.0,3.m4v,7.0
2024-02-28 09:26:34.022935,1709108794.022935,63.4765625,-32.71484375,-32.71484375,995.60546875,1.0,1.0,-1.0,1.0,3.m4v,7.0
2024-02-28 09:26:34.026841,1709108794.0268407,0.48828125,-33.69140625,-29.78515625,910.64453125,1.0,1.0,-1.0,1.0,3.m4v,7.0
2024-02-28 09:26:34.034652,1709108794.0346522,22.4609375,-34.1796875,-27.83203125,694.3359375,1.0,1.0,-1.0,1.0,3.m4v,7.0
2024-02-28 09:26:34.038558,1709108794.038558,-722.65625,-36.1328125,-33.69140625,-729.00390625,1.0,1.0,-1.0,1.0,3.m4v,7.0
2024-02-28 09:26:34.042464,1709108794.0424638,-836.42578125,-29.78515625,-30.2734375,-1000.0,1.0,1.0,-1.0,1.0,3.m4v,7.0
2024-02-28 09:26:34.046370,1709108794.0463696,-426.26953125,-28.3203125,-34.1796875,-976.07421875,1.0,1.0,-1.0,1.0,3.m4v,7.0
2024-02-28 09:26:34.054181,1709108794.054181,493.1640625,-29.296875,-35.64453125,509.765625,1.0,1.0,-1.0,1.0,3.m4v,7.0
2024-02-28 09:26:34.061996,1709108794.0619955,283.69140625,-34.1796875,-34.66796875,922.8515625,1.0,1.0,-1.0,1.0,3.m4v,7.0
2024-02-28 09:26:34.069808,1709108794.0698075,144.53125,-32.2265625,-27.83203125,999.51171875,1.0,1.0,-1.0,1.0,3.m4v,7.0
2024-02-28 09:26:34.077619,1709108794.077619,-579.58984375,-35.64453125,-25.390625,-688.96484375,1.0,1.0,-1.0,1.0,3.m4v,7.0
2024-02-28 09:26:34.085431,1709108794.0854306,-469.23828125,-35.64453125,-35.64453125,-918.9453125,1.0,1.0,-1.0,1.0,3.m4v,7.0
2024-02-28 09:26:34.093242,1709108794.0932422,252.9296875,-31.25,-35.64453125,-64.94140625,1.0,1.0,-1.0,1.0,3.m4v,7.0
2024-02-28 09:26:34.101054,1709108794.101054,424.31640625,-34.66796875,-35.15625,974.609375,1.0,1.0,-1.0,1.0,3.m4v,7.0
2024-02-28 09:26:34.108868,1709108794.108868,152.34375,-36.62109375,-33.69140625,980.46875,1.0,1.0,-1.0,1.0,3.m4v,7.0
2024-02-28 09:26:34.116680,1709108794.1166797,-332.51953125,-33.69140625,-30.76171875,-274.90234375,1.0,1.0,-1.0,1.0,3.m4v,7.0
2024-02-28 09:26:34.124491,1709108794.1244912,-620.60546875,-37.59765625,-34.66796875,-980.95703125,1.0,1.0,-1.0,1.0,3.m4v,7.0
2024-02-28 09:26:34.132303,1709108794.1323028,424.31640625,-31.73828125,-38.0859375,457.03125,1.0,1.0,-1.0,1.0,3.m4v,7.0
2024-02-28 09:26:34.140114,1709108794.1401143,291.015625,-30.76171875,-26.3671875,915.52734375,1.0,1.0,-1.0,1.0,3.m4v,7.0
2024-02-28 09:26:34.147926,1709108794.147926,80.56640625,-31.25,-31.73828125,957.51953125,1.0,1.0,-1.0,1.0,3.m4v,7.0
2024-02-28 09:26:34.155742,1709108794.155742,-272.94921875,-33.203125,-30.76171875,-131.8359375,1.0,1.0,-1.0,1.0,3.m4v,7.0
2024-02-28 09:26:34.163553,1709108794.1635537,-616.69921875,-31.73828125,-32.2265625,-928.22265625,1.0,1.0,-1.0,1.0,3.m4v,7.0
2024-02-28 09:26:34.171365,1709108794.171365,153.3203125,-36.62109375,-34.1796875,-239.2578125,1.0,1.0,-1.0,1.0,3.m4v,7.0
2024-02-28 09:26:34.179177,1709108794.1791766,522.94921875,-41.50390625,-31.25,988.28125,1.0,1.0,-1.0,1.0,3.m4v,7.0
2024-02-28 09:26:34.186988,1709108794.1869884,35.15625,-42.96875,-35.64453125,957.03125,1.0,1.0,-1.0,1.0,3.m4v,7.0
2024-02-28 09:26:34.194800,1709108794.1948,-231.4453125,-41.9921875,-30.76171875,-24.90234375,1.0,1.0,-1.0,1.0,3.m4v,7.0
2024-02-28 09:26:34.202615,1709108794.2026155,-631.34765625,-42.96875,-31.25,-975.09765625,1.0,1.0,-1.0,1.0,3.m4v,7.0
2024-02-28 09:26:34.284641,1709108794.284641,-584.47265625,-34.66796875,-33.203125,-937.5,1.0,1.0,-1.0,1.0,3.m4v,7.0
2024-02-28 09:26:34.288547,1709108794.2885468,-272.4609375,-33.203125,-35.15625,-990.72265625,1.0,1.0,-1.0,1.0,3.m4v,7.0
2024-02-28 09:26:34.292458,1709108794.2924583,338.8671875,-31.73828125,-34.1796875,241.2109375,1.0,1.0,-1.0,1.0,3.m4v,7.0
2024-02-28 09:26:34.296364,1709108794.296364,676.26953125,-30.76171875,-39.0625,999.51171875,1.0,1.0,-1.0,1.0,3.m4v,7.0
2024-02-28 09:26:34.300270,1709108794.3002698,374.0234375,-32.2265625,-36.62109375,926.7578125,1.0,1.0,-1.0,1.0,3.m4v,7.0
2024-02-28 09:26:34.304176,1709108794.3041756,160.64453125,-27.83203125,-36.62109375,961.42578125,1.0,1.0,-1.0,1.0,3.m4v,7.0
2024-02-28 09:26:34.308081,1709108794.3080814,102.5390625,-27.83203125,-41.015625,932.6171875,1.0,1.0,-1.0,1.0,3.m4v,7.0
2024-02-28 09:26:34.311987,1709108794.3119872,179.19921875,-32.2265625,-39.0625,999.51171875,1.0,1.0,-1.0,1.0,3.m4v,7.0
2024-02-28 09:26:34.315893,1709108794.315893,-118.65234375,-35.15625,-39.55078125,214.84375,1.0,1.0,-1.0,1.0,3.m4v,7.0
2024-02-28 09:26:34.319799,1709108794.319799,-813.4765625,-37.109375,-40.0390625,-970.21484375,1.0,1.0,-1.0,1.0,3.m4v,7.0
2024-02-28 09:26:34.323705,1709108794.3237047,-740.72265625,-37.109375,-36.1328125,-1000.0,1.0,1.0,-1.0,1.0,3.m4v,7.0
2024-02-28 09:26:34.327610,1709108794.3276105,-340.8203125,-33.203125,-35.15625,-968.26171875,1.0,1.0,-1.0,1.0,3.m4v,7.0
2024-02-28 09:26:34.331516,1709108794.3315165,-148.92578125,-30.76171875,-37.59765625,-1000.0,1.0,1.0,-1.0,1.0,3.m4v,7.0
2024-02-28 09:26:34.335422,1709108794.335422,-69.82421875,-32.2265625,-35.15625,-944.3359375,1.0,1.0,-1.0,1.0,3.m4v,7.0
2024-02-28 09:26:34.339331,1709108794.3393312,-152.34375,-35.15625,-34.1796875,-1000.0,1.0,1.0,-1.0,1.0,3.m4v,7.0
2024-02-28 09:26:34.343237,1709108794.343237,-49.31640625,-36.1328125,-34.1796875,-664.55078125,1.0,1.0,-1.0,1.0,3.m4v,7.0
2024-02-28 09:26:34.347143,1709108794.3471427,595.703125,-33.69140625,-33.203125,717.7734375,1.0,1.0,-1.0,1.0,3.m4v,7.0
2024-02-28 09:26:34.351048,1709108794.3510485,676.26953125,-34.66796875,-33.203125,999.51171875,1.0,1.0,-1.0,1.0,3.m4v,7.0
2024-02-28 09:26:34.354954,1709108794.3549542,354.98046875,-39.0625,-34.66796875,909.66796875,1.0,1.0,-1.0,1.0,3.m4v,7.0
2024-02-28 09:26:34.358860,1709108794.35886,209.47265625,-37.59765625,-33.203125,989.74609375,1.0,1.0,-1.0,1.0,3.m4v,7.0
2024-02-28 09:26:34.362766,1709108794.362766,17.08984375,-36.62109375,-31.73828125,953.125,1.0,1.0,-1.0,1.0,3.m4v,7.0
2024-02-28 09:26:34.366672,1709108794.3666718,-51.26953125,-39.0625,-31.25,944.82421875,1.0,1.0,-1.0,1.0,3.m4v,7.0
2024-02-28 09:26:34.370578,1709108794.3705776,102.5390625,-34.1796875,-27.34375,999.51171875,1.0,1.0,-1.0,1.0,3.m4v,7.0
2024-02-28 09:26:34.374483,1709108794.374483,-218.75,-34.1796875,-25.87890625,10.7421875,1.0,1.0,-1.0,1.0,3.m4v,7.0
2024-02-28 09:26:34.378389,1709108794.3783891,-776.3671875,-39.55078125,-29.78515625,-1000.0,1.0,1.0,-1.0,1.0,3.m4v,7.0
2024-02-28 09:26:34.382295,1709108794.382295,-625.9765625,-36.1328125,-34.1796875,-933.59375,1.0,1.0,-1.0,1.0,3.m4v,7.0
2024-02-28 09:26:34.386204,1709108794.3862038,-383.7890625,-35.15625,-34.1796875,-1000.0,1.0,1.0,-1.0,1.0,3.m4v,7.0
2024-02-28 09:26:34.390110,1709108794.3901095,-171.875,-32.71484375,-32.71484375,-809.5703125,1.0,1.0,-1.0,1.0,3.m4v,7.0
2024-02-28 09:26:34.394015,1709108794.3940153,484.86328125,-30.2734375,-33.69140625,545.41015625,1.0,1.0,-1.0,1.0,3.m4v,7.0
2024-02-28 09:26:34.401827,1709108794.4018269,317.87109375,-34.1796875,-35.15625,916.9921875,1.0,1.0,-1.0,1.0,3.m4v,7.0
2024-02-28 09:26:34.405733,1709108794.4057329,121.09375,-24.4140625,-31.25,927.734375,1.0,1.0,-1.0,1.0,3.m4v,7.0
2024-02-28 09:26:34.409639,1709108794.4096386,191.40625,-21.484375,-34.66796875,999.51171875,1.0,1.0,-1.0,1.0,3.m4v,7.0
2024-02-28 09:26:34.413544,1709108794.4135444,17.578125,-23.92578125,-40.0390625,656.25,1.0,1.0,-1.0,1.0,3.m4v,7.0
2024-02-28 09:26:34.417450,1709108794.4174502,-671.38671875,-31.25,-35.64453125,-712.40234375,1.0,1.0,-1.0,1.0,3.m4v,7.0
2024-02-28 09:26:34.421356,1709108794.421356,-806.640625,-32.71484375,-35.64453125,-1000.0,1.0,1.0,-1.0,1.0,3.m4v,7.0
2024-02-28 09:26:34.425262,1709108794.4252615,-462.890625,-29.78515625,-38.0859375,-936.03515625,1.0,1.0,-1.0,1.0,3.m4v,7.0
2024-02-28 09:26:34.429168,1709108794.4291675,-222.16796875,-28.3203125,-33.69140625,-985.3515625,1.0,1.0,-1.0,1.0,3.m4v,7.0
2024-02-28 09:26:34.433076,1709108794.433076,291.9921875,-30.76171875,-30.76171875,56.15234375,1.0,1.0,-1.0,1.0,3.m4v,7.0
2024-02-28 09:26:34.436982,1709108794.436982,687.98828125,-30.76171875,-35.64453125,983.88671875,1.0,1.0,-1.0,1.0,3.m4v,7.0
2024-02-28 09:26:34.440888,1709108794.4408877,389.16015625,-31.25,-41.50390625,958.49609375,1.0,1.0,-1.0,1.0,3.m4v,7.0
2024-02-28 09:26:34.444793,1709108794.4447937,127.9296875,-31.25,-37.59765625,937.5,1.0,1.0,-1.0,1.0,3.m4v,7.0
2024-02-28 09:26:34.448699,1709108794.4486997,138.18359375,-30.2734375,-32.71484375,948.73046875,1.0,1.0,-1.0,1.0,3.m4v,7.0
2024-02-28 09:26:34.452605,1709108794.4526052,202.63671875,-29.78515625,-31.73828125,999.51171875,1.0,1.0,-1.0,1.0,3.m4v,7.0
2024-02-28 09:26:34.456511,1709108794.456511,-227.05078125,-35.64453125,-35.15625,23.4375,1.0,1.0,-1.0,1.0,3.m4v,7.0
2024-02-28 09:26:34.460417,1709108794.4604168,-864.74609375,-40.0390625,-38.0859375,-1000.0,1.0,1.0,-1.0,1.0,3.m4v,7.0
2024-02-28 09:26:34.464323,1709108794.4643226,-664.55078125,-40.0390625,-39.55078125,-981.4453125,1.0,1.0,-1.0,1.0,3.m4v,7.0
2024-02-28 09:26:34.468228,1709108794.4682283,-301.26953125,-41.50390625,-38.0859375,-981.93359375,1.0,1.0,-1.0,1.0,3.m4v,7.0
2024-02-28 09:26:34.472134,1709108794.472134,-151.85546875,-39.0625,-34.66796875,-1000.0,1.0,1.0,-1.0,1.0,3.m4v,7.0
2024-02-28 09:26:34.476040,1709108794.47604,-15.625,-36.1328125,-34.1796875,-945.80078125,1.0,1.0,-1.0,1.0,3.m4v,7.0
2024-02-28 09:26:34.479949,1709108794.4799488,-107.91015625,-33.203125,-36.62109375,-1000.0,1.0,1.0,-1.0,1.0,3.m4v,7.0
2024-02-28 09:26:34.483855,1709108794.4838543,-41.015625,-31.73828125,-37.109375,-581.0546875,1.0,1.0,-1.0,1.0,3.m4v,7.0
2024-02-28 09:26:34.487760,1709108794.4877603,657.71484375,-28.80859375,-37.109375,769.53125,1.0,1.0,-1.0,1.0,3.m4v,7.0
2024-02-28 09:26:34.491666,1709108794.491666,691.89453125,-27.34375,-36.62109375,999.51171875,1.0,1.0,-1.0,1.0,3.m4v,7.0
2024-02-28 09:26:34.495572,1709108794.495572,315.91796875,-28.80859375,-35.15625,915.0390625,1.0,1.0,-1.0,1.0,3.m4v,7.0
2024-02-28 09:26:34.499478,1709108794.4994776,167.96875,-28.3203125,-34.1796875,992.1875,1.0,1.0,-1.0,1.0,3.m4v,7.0
2024-02-28 09:26:34.503383,1709108794.5033834,21.484375,-39.0625,-34.66796875,938.96484375,1.0,1.0,-1.0,1.0,3.m4v,7.0
2024-02-28 09:26:34.507289,1709108794.5072892,17.08984375,-41.9921875,-31.73828125,967.7734375,1.0,1.0,-1.0,1.0,3.m4v,7.0
2024-02-28 09:26:34.511195,1709108794.511195,123.53515625,-32.71484375,-30.76171875,988.76953125,1.0,1.0,-1.0,1.0,3.m4v,7.0
2024-02-28 09:26:34.515101,1709108794.515101,-351.5625,-35.64453125,-33.69140625,-228.02734375,1.0,1.0,-1.0,1.0,3.m4v,7.0
2024-02-28 09:26:34.519007,1709108794.5190067,-868.1640625,-40.0390625,-33.69140625,-1000.0,1.0,1.0,-1.0,1.0,3.m4v,7.0
2024-02-28 09:26:34.597131,1709108794.5971308,-497.55859375,-36.62109375,-26.85546875,-478.02734375,1.0,1.0,-1.0,1.0,3.m4v,7.0
2024-02-28 09:26:34.601037,1709108794.6010363,-882.8125,-39.55078125,-31.73828125,-1000.0,1.0,1.0,-1.0,1.0,3.m4v,7.0
2024-02-28 09:26:34.604942,1709108794.6049423,-591.796875,-39.0625,-37.109375,-930.17578125,1.0,1.0,-1.0,1.0,3.m4v,7.0
2024-02-28 09:26:34.608848,1709108794.608848,-350.5859375,-40.0390625,-40.52734375,-1000.0,1.0,1.0,-1.0,1.0,3.m4v,7.0
2024-02-28 09:26:34.612754,1709108794.612754,-167.96875,-37.109375,-38.57421875,-1000.0,1.0,1.0,-1.0,1.0,3.m4v,7.0
2024-02-28 09:26:34.616660,1709108794.61666,-21.484375,-39.55078125,-34.1796875,-953.61328125,1.0,1.0,-1.0,1.0,3.m4v,7.0
2024-02-28 09:26:34.620569,1709108794.6205697,-131.34765625,-40.0390625,-31.73828125,-1000.0,1.0,1.0,-1.0,1.0,3.m4v,7.0
2024-02-28 09:26:34.624475,1709108794.6244752,61.03515625,-31.73828125,-34.66796875,-366.2109375,1.0,1.0,-1.0,1.0,3.m4v,7.0
2024-02-28 09:26:34.628381,1709108794.628381,743.1640625,-27.83203125,-38.0859375,886.23046875,1.0,1.0,-1.0,1.0,3.m4v,7.0
2024-02-28 09:26:34.632287,1709108794.6322868,683.10546875,-28.3203125,-38.57421875,997.55859375,1.0,1.0,-1.0,1.0,3.m4v,7.0
2024-02-28 09:26:34.636193,1709108794.6361926,336.42578125,-27.34375,-40.52734375,929.19921875,1.0,1.0,-1.0,1.0,3.m4v,7.0
2024-02-28 09:26:34.640098,1709108794.6400983,174.31640625,-24.90234375,-35.15625,994.140625,1.0,1.0,-1.0,1.0,3.m4v,7.0
2024-02-28 09:26:34.644004,1709108794.644004,-19.53125,-29.296875,-34.66796875,911.1328125,1.0,1.0,-1.0,1.0,3.m4v,7.0
2024-02-28 09:26:34.647910,1709108794.64791,-5.859375,-33.69140625,-37.59765625,999.51171875,1.0,1.0,-1.0,1.0,3.m4v,7.0
2024-02-28 09:26:34.651816,1709108794.651816,-16.11328125,-34.1796875,-35.15625,713.37890625,1.0,1.0,-1.0,1.0,3.m4v,7.0
2024-02-28 09:26:34.655722,1709108794.6557217,-650.390625,-38.0859375,-32.71484375,-707.51953125,1.0,1.0,-1.0,1.0,3.m4v,7.0
2024-02-28 09:26:34.659627,1709108794.6596274,-795.8984375,-36.62109375,-34.66796875,-1000.0,1.0,1.0,-1.0,1.0,3.m4v,7.0
2024-02-28 09:26:34.663533,1709108794.6635332,-438.96484375,-33.203125,-40.0390625,-897.4609375,1.0,1.0,-1.0,1.0,3.m4v,7.0
2024-02-28 09:26:34.667443,1709108794.6674426,-295.8984375,-36.62109375,-39.55078125,-1000.0,1.0,1.0,-1.0,1.0,3.m4v,7.0
2024-02-28 09:26:34.671348,1709108794.6713483,108.3984375,-36.62109375,-43.9453125,-394.53125,1.0,1.0,-1.0,1.0,3.m4v,7.0
2024-02-28 09:26:34.675254,1709108794.675254,717.7734375,-35.64453125,-41.015625,822.265625,1.0,1.0,-1.0,1.0,3.m4v,7.0
2024-02-28 09:26:34.679160,1709108794.67916,576.66015625,-35.15625,-28.3203125,999.51171875,1.0,1.0,-1.0,1.0,3.m4v,7.0
2024-02-28 09:26:34.683066,1709108794.6830657,149.90234375,-33.203125,-26.3671875,925.29296875,1.0,1.0,-1.0,1.0,3.m4v,7.0
2024-02-28 09:26:34.686971,1709108794.6869714,78.125,-33.69140625,-29.296875,935.546875,1.0,1.0,-1.0,1.0,3.m4v,7.0
2024-02-28 09:26:34.690877,1709108794.6908772,200.68359375,-33.69140625,-28.3203125,999.51171875,1.0,1.0,-1.0,1.0,3.m4v,7.0
2024-02-28 09:26:34.694783,1709108794.694783,-92.28515625,-28.3203125,-28.80859375,304.6875,1.0,1.0,-1.0,1.0,3.m4v,7.0
2024-02-28 09:26:34.698689,1709108794.698689,-786.62109375,-29.78515625,-29.296875,-931.15234375,1.0,1.0,-1.0,1.0,3.m4v,7.0
2024-02-28 09:26:34.702595,1709108794.7025948,-711.42578125,-32.71484375,-31.25,-1000.0,1.0,1.0,-1.0,1.0,3.m4v,7.0
2024-02-28 09:26:34.706501,1709108794.7065003,-349.12109375,-27.83203125,-40.52734375,-971.19140625,1.0,1.0,-1.0,1.0,3.m4v,7.0
2024-02-28 09:26:34.710406,1709108794.7104063,-169.43359375,-30.76171875,-37.59765625,-992.1875,1.0,1.0,-1.0,1.0,3.m4v,7.0
2024-02-28 09:26:34.714315,1709108794.7143154,-35.15625,-33.69140625,-36.62109375,-907.2265625,1.0,1.0,-1.0,1.0,3.m4v,7.0
2024-02-28 09:26:34.718221,1709108794.7182212,-72.265625,-30.2734375,-38.57421875,-962.40234375,1.0,1.0,-1.0,1.0,3.m4v,7.0
2024-02-28 09:26:34.722127,1709108794.7221272,-243.1640625,-33.69140625,-32.71484375,-1000.0,1.0,1.0,-1.0,1.0,3.m4v,7.0
2024-02-28 09:26:34.726033,1709108794.726033,157.2265625,-33.69140625,-34.1796875,-51.7578125,1.0,1.0,-1.0,1.0,3.m4v,7.0
2024-02-28 09:26:34.729939,1709108794.7299387,798.33984375,-32.71484375,-35.15625,999.51171875,1.0,1.0,-1.0,1.0,3.m4v,7.0
2024-02-28 09:26:34.733845,1709108794.7338445,618.65234375,-29.78515625,-33.69140625,903.80859375,1.0,1.0,-1.0,1.0,3.m4v,7.0
2024-02-28 09:26:34.737750,1709108794.7377503,307.12890625,-27.34375,-35.15625,994.62890625,1.0,1.0,-1.0,1.0,3.m4v,7.0
2024-02-28 09:26:34.741656,1709108794.741656,-0.9765625,-37.109375,-36.1328125,749.0234375,1.0,1.0,-1.0,1.0,3.m4v,7.0
2024-02-28 09:26:34.745562,1709108794.7455618,-618.65234375,-40.52734375,-37.59765625,-602.5390625,1.0,1.0,-1.0,1.0,3.m4v,7.0
2024-02-28 09:26:34.749468,1709108794.7494676,-694.82421875,-34.66796875,-35.64453125,-1000.0,1.0,1.0,-1.0,1.0,3.m4v,7.0
2024-02-28 09:26:34.753373,1709108794.7533734,-335.44921875,-32.71484375,-35.64453125,-951.66015625,1.0,1.0,-1.0,1.0,3.m4v,7.0
2024-02-28 09:26:34.757279,1709108794.7572794,-187.98828125,-37.59765625,-36.62109375,-950.68359375,1.0,1.0,-1.0,1.0,3.m4v,7.0
2024-02-28 09:26:34.761188,1709108794.761188,-275.390625,-40.0390625,-34.1796875,-1000.0,1.0,1.0,-1.0,1.0,3.m4v,7.0
2024-02-28 09:26:34.765094,1709108794.7650938,-143.5546875,-36.62109375,-32.71484375,-707.03125,1.0,1.0,-1.0,1.0,3.m4v,7.0
2024-02-28 09:26:34.769000,1709108794.7689996,655.2734375,-36.62109375,-36.62109375,708.49609375,1.0,1.0,-1.0,1.0,3.m4v,7.0
2024-02-28 09:26:34.772905,1709108794.772905,711.9140625,-41.015625,-37.59765625,999.51171875,1.0,1.0,-1.0,1.0,3.m4v,7.0
2024-02-28 09:26:34.776811,1709108794.7768111,280.2734375,-41.50390625,-33.69140625,908.203125,1.0,1.0,-1.0,1.0,3.m4v,7.0
2024-02-28 09:26:34.780717,1709108794.780717,145.01953125,-39.0625,-31.73828125,990.72265625,1.0,1.0,-1.0,1.0,3.m4v,7.0
2024-02-28 09:26:34.784623,1709108794.784623,15.625,-38.57421875,-35.64453125,916.50390625,1.0,1.0,-1.0,1.0,3.m4v,7.0
2024-02-28 09:26:34.788529,1709108794.7885287,50.29296875,-41.015625,-38.57421875,999.51171875,1.0,1.0,-1.0,1.0,3.m4v,7.0
2024-02-28 09:26:34.792434,1709108794.7924345,-117.67578125,-41.015625,-38.57421875,517.08984375,1.0,1.0,-1.0,1.0,3.m4v,7.0
2024-02-28 09:26:34.796340,1709108794.7963402,-728.02734375,-37.109375,-41.015625,-832.03125,1.0,1.0,-1.0,1.0,3.m4v,7.0
2024-02-28 09:26:34.800246,1709108794.800246,-709.47265625,-33.203125,-35.64453125,-1000.0,1.0,1.0,-1.0,1.0,3.m4v,7.0
2024-02-28 09:26:34.804152,1709108794.8041518,-490.72265625,-29.78515625,-33.69140625,-1000.0,1.0,1.0,-1.0,1.0,3.m4v,7.0
2024-02-28 09:26:34.808060,1709108794.8080604,-239.2578125,-30.2734375,-39.55078125,-816.89453125,1.0,1.0,-1.0,1.0,3.m4v,7.0
2024-02-28 09:26:34.811966,1709108794.8119662,580.56640625,-30.76171875,-37.109375,618.1640625,1.0,1.0,-1.0,1.0,3.m4v,7.0
2024-02-28 09:26:34.815872,1709108794.815872,731.4453125,-31.73828125,-36.1328125,999.51171875,1.0,1.0,-1.0,1.0,3.m4v,7.0
2024-02-28 09:26:34.819778,1709108794.819778,296.875,-37.109375,-41.015625,911.62109375,1.0,1.0,-1.0,1.0,3.m4v,7.0
2024-02-28 09:26:34.823684,1709108794.8236835,70.3125,-36.62109375,-35.64453125,948.73046875,1.0,1.0,-1.0,1.0,3.m4v,7.0
2024-02-28 09:26:34.827590,1709108794.8275895,60.546875,-29.78515625,-29.78515625,976.5625,1.0,1.0,-1.0,1.0,3.m4v,7.0
2024-02-28 09:26:34.831495,1709108794.8314953,136.71875,-31.25,-29.296875,972.65625,1.0,1.0,-1.0,1.0,3.m4v,7.0
2024-02-28 09:26:34.835401,1709108794.835401,-379.8828125,-32.71484375,-32.71484375,-304.6875,1.0,1.0,-1.0,1.0,3.m4v,7.0
2024-02-28 09:26:34.839307,1709108794.8393068,-884.765625,-32.2265625,-36.1328125,-1000.0,1.0,1.0,-1.0,1.0,3.m4v,7.0
2024-02-28 09:26:34.843213,1709108794.8432126,-627.44140625,-35.15625,-33.69140625,-902.34375,1.0,1.0,-1.0,1.0,3.m4v,7.0
2024-02-28 09:26:34.847118,1709108794.8471184,-329.1015625,-36.1328125,-35.15625,-1000.0,1.0,1.0,-1.0,1.0,3.m4v,7.0
2024-02-28 09:26:34.851024,1709108794.8510242,-48.33984375,-37.59765625,-40.52734375,-652.34375,1.0,1.0,-1.0,1.0,3.m4v,7.0
2024-02-28 09:26:34.854933,1709108794.8549323,541.50390625,-35.15625,-40.52734375,637.6953125,1.0,1.0,-1.0,1.0,3.m4v,7.0
2024-02-28 09:26:34.858838,1709108794.8588383,635.25390625,-30.2734375,-35.15625,999.51171875,1.0,1.0,-1.0,1.0,3.m4v,7.0
2024-02-28 09:26:34.862744,1709108794.8627443,257.32421875,-30.2734375,-31.73828125,922.8515625,1.0,1.0,-1.0,1.0,3.m4v,7.0
2024-02-28 09:26:34.866650,1709108794.86665,103.02734375,-30.76171875,-29.296875,927.24609375,1.0,1.0,-1.0,1.0,3.m4v,7.0
2024-02-28 09:26:34.870556,1709108794.870556,130.37109375,-30.76171875,-29.78515625,999.51171875,1.0,1.0,-1.0,1.0,3.m4v,7.0
2024-02-28 09:26:34.874462,1709108794.8744617,4.8828125,-31.73828125,-33.203125,599.12109375,1.0,1.0,-1.0,1.0,3.m4v,7.0
2024-02-28 09:26:35.265067,1709108795.265067,-441.89453125,-34.66796875,-39.0625,-942.87109375,1.0,1.0,-1.0,1.0,3.m4v,7.0
2024-02-28 09:26:35.268973,1709108795.268973,-280.2734375,-35.64453125,-37.109375,-1000.0,1.0,1.0,-1.0,1.0,3.m4v,7.0
2024-02-28 09:26:35.272879,1709108795.272879,-67.87109375,-29.296875,-34.66796875,-885.7421875,1.0,1.0,-1.0,1.0,3.m4v,7.0
2024-02-28 09:26:35.276787,1709108795.276787,27.34375,-30.2734375,-35.15625,-889.16015625,1.0,1.0,-1.0,1.0,3.m4v,7.0
2024-02-28 09:26:35.280693,1709108795.280693,-155.76171875,-28.80859375,-37.109375,-1000.0,1.0,1.0,-1.0,1.0,3.m4v,7.0
2024-02-28 09:26:35.284599,1709108795.2845988,-14.6484375,-26.3671875,-33.203125,-546.875,1.0,1.0,-1.0,1.0,3.m4v,7.0
2024-02-28 09:26:35.288505,1709108795.2885046,725.5859375,-28.80859375,-30.2734375,787.59765625,1.0,1.0,-1.0,1.0,3.m4v,7.0
2024-02-28 09:26:35.292410,1709108795.2924104,687.5,-26.85546875,-29.296875,999.51171875,1.0,1.0,-1.0,1.0,3.m4v,7.0
2024-02-28 09:26:35.296316,1709108795.296316,294.43359375,-23.4375,-26.85546875,895.01953125,1.0,1.0,-1.0,1.0,3.m4v,7.0
2024-02-28 09:26:35.300222,1709108795.300222,153.3203125,-26.85546875,-30.76171875,984.375,1.0,1.0,-1.0,1.0,3.m4v,7.0
2024-02-28 09:26:35.304128,1709108795.3041277,-82.51953125,-33.203125,-30.76171875,660.64453125,1.0,1.0,-1.0,1.0,3.m4v,7.0
2024-02-28 09:26:35.308033,1709108795.3080337,-499.51171875,-34.1796875,-29.78515625,-406.73828125,1.0,1.0,-1.0,1.0,3.m4v,7.0
2024-02-28 09:26:35.311939,1709108795.3119392,-708.49609375,-36.1328125,-34.1796875,-1000.0,1.0,1.0,-1.0,1.0,3.m4v,7.0
2024-02-28 09:26:35.319751,1709108795.319751,-220.703125,-30.2734375,-30.2734375,-965.8203125,1.0,1.0,-1.0,1.0,3.m4v,7.0
2024-02-28 09:26:35.327570,1709108795.3275702,146.97265625,-34.66796875,-35.15625,-68.359375,1.0,1.0,-1.0,1.0,3.m4v,7.0
2024-02-28 09:26:35.643962,1709108795.6439617,-453.61328125,-34.66796875,-36.1328125,-958.49609375,1.0,1.0,-1.0,1.0,3.m4v,7.0
2024-02-28 09:26:35.647867,1709108795.6478674,-217.28515625,-31.25,-38.0859375,-922.36328125,1.0,1.0,-1.0,1.0,3.m4v,7.0
2024-02-28 09:26:35.651776,1709108795.6517756,435.546875,-28.3203125,-40.0390625,415.52734375,1.0,1.0,-1.0,1.0,3.m4v,7.0
2024-02-28 09:26:35.655681,1709108795.6556814,718.75,-31.25,-38.0859375,999.51171875,1.0,1.0,-1.0,1.0,3.m4v,7.0
2024-02-28 09:26:35.659587,1709108795.6595874,334.9609375,-33.203125,-36.1328125,914.0625,1.0,1.0,-1.0,1.0,3.m4v,7.0
2024-02-28 09:26:35.663493,1709108795.6634932,49.8046875,-33.69140625,-38.0859375,967.28515625,1.0,1.0,-1.0,1.0,3.m4v,7.0
2024-02-28 09:26:35.667399,1709108795.667399,25.390625,-34.1796875,-38.57421875,933.59375,1.0,1.0,-1.0,1.0,3.m4v,7.0
2024-02-28 09:26:35.671305,1709108795.6713047,173.828125,-33.203125,-35.64453125,999.51171875,1.0,1.0,-1.0,1.0,3.m4v,7.0
2024-02-28 09:26:35.675210,1709108795.6752105,-166.50390625,-33.69140625,-34.1796875,147.94921875,1.0,1.0,-1.0,1.0,3.m4v,7.0
2024-02-28 09:26:35.679116,1709108795.6791162,-829.1015625,-32.71484375,-30.76171875,-1000.0,1.0,1.0,-1.0,1.0,3.m4v,7.0
2024-02-28 09:26:35.683022,1709108795.683022,-667.96875,-30.76171875,-31.25,-999.0234375,1.0,1.0,-1.0,1.0,3.m4v,7.0
2024-02-28 09:26:35.686928,1709108795.6869278,-310.546875,-33.203125,-36.1328125,-972.65625,1.0,1.0,-1.0,1.0,3.m4v,7.0
2024-02-28 09:26:35.690834,1709108795.6908336,-211.9140625,-38.0859375,-37.109375,-995.1171875,1.0,1.0,-1.0,1.0,3.m4v,7.0
2024-02-28 09:26:35.694739,1709108795.694739,-89.84375,-36.62109375,-35.15625,-928.22265625,1.0,1.0,-1.0,1.0,3.m4v,7.0
2024-02-28 09:26:35.714272,1709108795.7142725,391.6015625,-38.57421875,-34.1796875,903.3203125,1.0,1.0,-1.0,1.0,3.m4v,7.0
2024-02-28 09:26:35.718178,1709108795.7181785,213.8671875,-34.1796875,-28.80859375,994.62890625,1.0,1.0,-1.0,1.0,3.m4v,7.0
2024-02-28 09:26:35.722084,1709108795.722084,45.41015625,-33.203125,-24.90234375,933.59375,1.0,1.0,-1.0,1.0,3.m4v,7.0
2024-02-28 09:26:35.725990,1709108795.7259898,-12.20703125,-36.1328125,-25.87890625,975.5859375,1.0,1.0,-1.0,1.0,3.m4v,7.0
2024-02-28 09:26:35.729896,1709108795.7298956,74.70703125,-37.109375,-27.83203125,972.16796875,1.0,1.0,-1.0,1.0,3.m4v,7.0
2024-02-28 09:26:35.733801,1709108795.7338014,-407.71484375,-44.43359375,-35.64453125,-304.6875,1.0,1.0,-1.0,1.0,3.m4v,7.0
2024-02-28 09:26:35.737707,1709108795.7377074,-832.03125,-42.48046875,-37.59765625,-1000.0,1.0,1.0,-1.0,1.0,3.m4v,7.0
2024-02-28 09:26:35.741613,1709108795.7416131,-556.15234375,-35.15625,-34.66796875,-891.6015625,1.0,1.0,-1.0,1.0,3.m4v,7.0
2024-02-28 09:26:35.745522,1709108795.7455225,-390.13671875,-39.0625,-38.0859375,-1000.0,1.0,1.0,-1.0,1.0,3.m4v,7.0
2024-02-28 09:26:35.749429,1709108795.7494285,-110.3515625,-39.0625,-36.1328125,-701.66015625,1.0,1.0,-1.0,1.0,3.m4v,7.0
2024-02-28 09:26:35.753334,1709108795.7533343,605.95703125,-30.76171875,-30.2734375,663.57421875,1.0,1.0,-1.0,1.0,3.m4v,7.0
2024-02-28 09:26:35.757240,1709108795.75724,699.70703125,-28.3203125,-31.25,999.51171875,1.0,1.0,-1.0,1.0,3.m4v,7.0
2024-02-28 09:26:35.761146,1709108795.7611458,291.50390625,-29.296875,-31.25,922.8515625,1.0,1.0,-1.0,1.0,3.m4v,7.0
2024-02-28 09:26:35.765052,1709108795.7650516,96.6796875,-30.2734375,-30.76171875,922.8515625,1.0,1.0,-1.0,1.0,3.m4v,7.0
2024-02-28 09:26:35.768957,1709108795.7689574,115.72265625,-33.69140625,-32.71484375,999.51171875,1.0,1.0,-1.0,1.0,3.m4v,7.0
2024-02-28 09:26:35.772863,1709108795.7728631,27.34375,-37.59765625,-34.66796875,720.703125,1.0,1.0,-1.0,1.0,3.m4v,7.0
2024-02-28 09:26:35.776769,1709108795.776769,-643.5546875,-45.8984375,-36.62109375,-715.33203125,1.0,1.0,-1.0,1.0,3.m4v,7.0
2024-02-28 09:26:35.780675,1709108795.7806747,-772.4609375,-45.8984375,-40.0390625,-1000.0,1.0,1.0,-1.0,1.0,3.m4v,7.0
2024-02-28 09:26:35.784581,1709108795.7845807,-471.6796875,-36.1328125,-36.62109375,-951.171875,1.0,1.0,-1.0,1.0,3.m4v,7.0
2024-02-28 09:26:35.788486,1709108795.7884865,-227.5390625,-33.69140625,-36.1328125,-957.03125,1.0,1.0,-1.0,1.0,3.m4v,7.0
2024-02-28 09:26:35.792396,1709108795.7923958,433.10546875,-34.1796875,-41.015625,309.5703125,1.0,1.0,-1.0,1.0,3.m4v,7.0
2024-02-28 09:26:35.796302,1709108795.7963016,762.20703125,-32.2265625,-39.55078125,999.51171875,1.0,1.0,-1.0,1.0,3.m4v,7.0
2024-02-28 09:26:35.800207,1709108795.8002074,381.8359375,-33.69140625,-34.66796875,924.31640625,1.0,1.0,-1.0,1.0,3.m4v,7.0
2024-02-28 09:26:35.804113,1709108795.8041131,81.0546875,-37.59765625,-36.62109375,957.03125,1.0,1.0,-1.0,1.0,3.m4v,7.0
2024-02-28 09:26:35.808019,1709108795.808019,69.82421875,-38.57421875,-34.1796875,941.40625,1.0,1.0,-1.0,1.0,3.m4v,7.0
2024-02-28 09:26:35.811925,1709108795.8119247,180.6640625,-37.109375,-34.66796875,999.51171875,1.0,1.0,-1.0,1.0,3.m4v,7.0
2024-02-28 09:26:35.815830,1709108795.8158305,-214.84375,-42.48046875,-36.1328125,80.078125,1.0,1.0,-1.0,1.0,3.m4v,7.0
2024-02-28 09:26:35.819736,1709108795.8197362,-850.09765625,-49.8046875,-35.15625,-1000.0,1.0,1.0,-1.0,1.0,3.m4v,7.0
2024-02-28 09:26:35.823642,1709108795.8236425,-696.2890625,-47.8515625,-40.0390625,-989.74609375,1.0,1.0,-1.0,1.0,3.m4v,7.0
2024-02-28 09:26:35.827548,1709108795.827548,-344.7265625,-43.9453125,-40.0390625,-976.5625,1.0,1.0,-1.0,1.0,3.m4v,7.0
2024-02-28 09:26:35.831454,1709108795.8314538,-151.85546875,-43.9453125,-36.62109375,-1000.0,1.0,1.0,-1.0,1.0,3.m4v,7.0
2024-02-28 09:26:35.835360,1709108795.8353596,-61.03515625,-39.55078125,-41.50390625,-949.70703125,1.0,1.0,-1.0,1.0,3.m4v,7.0
2024-02-28 09:26:35.839268,1709108795.8392684,-162.59765625,-34.66796875,-44.921875,-1000.0,1.0,1.0,-1.0,1.0,3.m4v,7.0
2024-02-28 09:26:35.843174,1709108795.8431742,-164.0625,-34.1796875,-45.8984375,-928.22265625,1.0,1.0,-1.0,1.0,3.m4v,7.0
2024-02-28 09:26:35.847080,1709108795.84708,517.08984375,-30.76171875,-42.96875,483.3984375,1.0,1.0,-1.0,1.0,3.m4v,7.0
2024-02-28 09:26:35.850986,1709108795.8509858,844.7265625,-30.2734375,-36.62109375,999.51171875,1.0,1.0,-1.0,1.0,3.m4v,7.0
2024-02-28 09:26:35.854892,1709108795.8548915,451.171875,-34.1796875,-33.69140625,863.28125,1.0,1.0,-1.0,1.0,3.m4v,7.0
2024-02-28 09:26:35.858798,1709108795.8587976,188.96484375,-33.69140625,-33.203125,999.51171875,1.0,1.0,-1.0,1.0,3.m4v,7.0
2024-02-28 09:26:35.862703,1709108795.862703,-153.80859375,-28.80859375,-31.73828125,488.28125,1.0,1.0,-1.0,1.0,3.m4v,7.0
2024-02-28 09:26:35.866609,1709108795.866609,-630.859375,-30.76171875,-35.64453125,-743.65234375,1.0,1.0,-1.0,1.0,3.m4v,7.0
2024-02-28 09:26:35.874421,1709108795.8744206,-260.25390625,-27.83203125,-31.73828125,-947.75390625,1.0,1.0,-1.0,1.0,3.m4v,7.0
2024-02-28 09:26:35.882232,1709108795.8822322,-277.34375,-30.2734375,-37.109375,-1000.0,1.0,1.0,-1.0,1.0,3.m4v,7.0
2024-02-28 09:26:35.890047,1709108795.8900468,753.90625,-31.73828125,-31.73828125,930.17578125,1.0,1.0,-1.0,1.0,3.m4v,7.0
2024-02-28 09:26:35.897859,1709108795.8978586,296.875,-36.1328125,-31.25,962.40234375,1.0,1.0,-1.0,1.0,3.m4v,7.0
2024-02-28 09:26:35.905670,1709108795.9056702,-127.44140625,-30.2734375,-31.25,658.203125,1.0,1.0,-1.0,1.0,3.m4v,7.0
2024-02-28 09:26:35.913482,1709108795.9134817,-33.69140625,-37.109375,-33.69140625,545.8984375,1.0,1.0,-1.0,1.0,3.m4v,7.0
2024-02-28 09:26:35.921293,1709108795.9212933,-719.23828125,-31.25,-33.203125,-1000.0,1.0,1.0,-1.0,1.0,3.m4v,7.0
2024-02-28 09:26:35.929105,1709108795.9291048,-293.45703125,-33.203125,-35.15625,-927.734375,1.0,1.0,-1.0,1.0,3.m4v,7.0
2024-02-28 09:26:35.933014,1709108795.9330144,305.17578125,-32.2265625,-32.71484375,329.58984375,1.0,1.0,-1.0,1.0,3.m4v,7.0
2024-02-28 09:26:35.936920,1709108795.9369202,711.42578125,-26.3671875,-32.71484375,999.51171875,1.0,1.0,-1.0,1.0,3.m4v,7.0
2024-02-28 09:26:35.940826,1709108795.940826,370.60546875,-24.90234375,-30.76171875,924.8046875,1.0,1.0,-1.0,1.0,3.m4v,7.0
2024-02-28 09:26:35.944732,1709108795.9447317,131.34765625,-28.3203125,-33.203125,961.42578125,1.0,1.0,-1.0,1.0,3.m4v,7.0
2024-02-28 09:26:35.948637,1709108795.9486375,121.58203125,-27.34375,-33.203125,935.05859375,1.0,1.0,-1.0,1.0,3.m4v,7.0
2024-02-28 09:26:35.952543,1709108795.9525433,164.55078125,-26.3671875,-30.76171875,999.51171875,1.0,1.0,-1.0,1.0,3.m4v,7.0
2024-02-28 09:26:35.956449,1709108795.956449,-200.68359375,-31.25,-34.1796875,150.87890625,1.0,1.0,-1.0,1.0,3.m4v,7.0
2024-02-28 09:26:35.960355,1709108795.960355,-882.32421875,-33.203125,-39.55078125,-986.328125,1.0,1.0,-1.0,1.0,3.m4v,7.0
2024-02-28 09:26:35.964261,1709108795.9642608,-689.453125,-26.85546875,-37.59765625,-972.16796875,1.0,1.0,-1.0,1.0,3.m4v,7.0
2024-02-28 09:26:35.968167,1709108795.9681666,-309.5703125,-27.83203125,-37.109375,-1000.0,1.0,1.0,-1.0,1.0,3.m4v,7.0
2024-02-28 09:26:35.972072,1709108795.9720724,74.21875,-34.1796875,-39.55078125,-315.4296875,1.0,1.0,-1.0,1.0,3.m4v,7.0
2024-02-28 09:26:35.975978,1709108795.975978,638.671875,-33.203125,-36.1328125,842.7734375,1.0,1.0,-1.0,1.0,3.m4v,7.0
2024-02-28 09:26:35.979887,1709108795.9798868,452.63671875,-30.2734375,-29.78515625,999.51171875,1.0,1.0,-1.0,1.0,3.m4v,7.0
2024-02-28 09:26:35.983793,1709108795.9837923,83.984375,-33.69140625,-28.80859375,926.26953125,1.0,1.0,-1.0,1.0,3.m4v,7.0
2024-02-28 09:26:35.987698,1709108795.9876983,81.54296875,-38.0859375,-34.66796875,938.96484375,1.0,1.0,-1.0,1.0,3.m4v,7.0
2024-02-28 09:26:35.991604,1709108795.9916043,182.12890625,-34.66796875,-37.59765625,999.51171875,1.0,1.0,-1.0,1.0,3.m4v,7.0
2024-02-28 09:26:35.995510,1709108795.99551,-141.11328125,-32.71484375,-34.66796875,228.515625,1.0,1.0,-1.0,1.0,3.m4v,7.0
2024-02-28 09:26:35.999416,1709108795.999416,-771.97265625,-30.76171875,-34.66796875,-961.9140625,1.0,1.0,-1.0,1.0,3.m4v,7.0
2024-02-28 09:26:36.003322,1709108796.0033216,-654.78515625,-33.69140625,-35.64453125,-1000.0,1.0,1.0,-1.0,1.0,3.m4v,7.0
2024-02-28 09:26:36.011133,1709108796.0111332,-129.8828125,-36.1328125,-32.2265625,-958.0078125,1.0,1.0,-1.0,1.0,3.m4v,7.0
2024-02-28 09:26:36.018945,1709108796.0189447,453.125,-28.80859375,-31.73828125,617.1875,1.0,1.0,-1.0,1.0,3.m4v,7.0
2024-02-28 09:26:36.026761,1709108796.0267608,258.7890625,-26.85546875,-36.1328125,867.1875,1.0,1.0,-1.0,1.0,3.m4v,7.0
2024-02-28 09:26:36.034572,1709108796.0345724,119.62890625,-31.73828125,-33.203125,782.71484375,1.0,1.0,-1.0,1.0,3.m4v,7.0
2024-02-28 09:26:36.042384,1709108796.042384,-871.09375,-31.73828125,-32.71484375,-1000.0,1.0,1.0,-1.0,1.0,3.m4v,7.0
2024-02-28 09:26:36.050195,1709108796.0501957,319.3359375,-30.2734375,-35.64453125,331.54296875,1.0,1.0,-1.0,1.0,3.m4v,7.0
2024-02-28 09:26:36.058007,1709108796.058007,306.640625,-20.01953125,-25.390625,933.59375,1.0,1.0,-1.0,1.0,3.m4v,7.0
2024-02-28 09:26:36.065819,1709108796.0658188,-124.0234375,-36.62109375,-31.73828125,528.3203125,1.0,1.0,-1.0,1.0,3.m4v,7.0
2024-02-28 09:26:36.073634,1709108796.0736344,-529.296875,-32.2265625,-31.25,-722.65625,1.0,1.0,-1.0,1.0,3.m4v,7.0
2024-02-28 09:26:36.081446,1709108796.081446,-440.91796875,-28.80859375,-27.34375,-998.53515625,1.0,1.0,-1.0,1.0,3.m4v,7.0
2024-02-28 09:26:36.089257,1709108796.0892577,558.59375,-30.76171875,-33.203125,537.109375,1.0,1.0,-1.0,1.0,3.m4v,7.0
2024-02-28 09:26:36.097069,1709108796.097069,408.69140625,-30.2734375,-29.296875,903.80859375,1.0,1.0,-1.0,1.0,3.m4v,7.0
2024-02-28 09:26:36.104881,1709108796.1048808,-80.56640625,-32.71484375,-32.71484375,865.72265625,1.0,1.0,-1.0,1.0,3.m4v,7.0
2024-02-28 09:26:36.112692,1709108796.1126924,10.25390625,-30.76171875,-32.71484375,614.74609375,1.0,1.0,-1.0,1.0,3.m4v,7.0
2024-02-28 09:26:36.120508,1709108796.1205077,-795.41015625,-34.1796875,-33.69140625,-1000.0,1.0,1.0,-1.0,1.0,3.m4v,7.0
2024-02-28 09:26:36.128319,1709108796.1283193,-289.0625,-32.2265625,-37.109375,-1000.0,1.0,1.0,-1.0,1.0,3.m4v,7.0
2024-02-28 09:26:36.136131,1709108796.1361308,0.48828125,-30.2734375,-37.59765625,-882.32421875,1.0,1.0,-1.0,1.0,3.m4v,7.0
2024-02-28 09:26:36.143942,1709108796.1439424,70.3125,-28.80859375,-38.0859375,-352.5390625,1.0,1.0,-1.0,1.0,3.m4v,7.0
2024-02-28 09:26:36.151754,1709108796.151754,654.78515625,-25.87890625,-30.2734375,985.83984375,1.0,1.0,-1.0,1.0,3.m4v,7.0
2024-02-28 09:26:36.159566,1709108796.1595657,172.36328125,-28.3203125,-26.85546875,991.2109375,1.0,1.0,-1.0,1.0,3.m4v,7.0
2024-02-28 09:26:36.167381,1709108796.1673808,-716.30859375,-33.69140625,-31.25,-940.4296875,1.0,1.0,-1.0,1.0,3.m4v,7.0
2024-02-28 09:26:36.175192,1709108796.1751924,-238.76953125,-32.71484375,-31.73828125,-935.05859375,1.0,1.0,-1.0,1.0,3.m4v,7.0
2024-02-28 09:26:36.183004,1709108796.183004,-277.34375,-31.73828125,-34.66796875,-1000.0,1.0,1.0,-1.0,1.0,3.m4v,7.0
2024-02-28 09:26:36.190816,1709108796.1908157,883.7890625,-25.87890625,-33.69140625,999.51171875,1.0,1.0,-1.0,1.0,3.m4v,7.0
2024-02-28 09:26:36.198627,1709108796.1986272,199.70703125,-36.62109375,-36.62109375,999.51171875,1.0,1.0,-1.0,1.0,3.m4v,7.0
2024-02-28 09:26:36.206439,1709108796.2064388,-696.2890625,-31.73828125,-31.25,-779.78515625,1.0,1.0,-1.0,1.0,3.m4v,7.0
2024-02-28 09:26:36.214254,1709108796.214254,-326.171875,-34.1796875,-24.4140625,-922.8515625,1.0,1.0,-1.0,1.0,3.m4v,7.0
2024-02-28 09:26:36.222065,1709108796.2220654,-184.08203125,-28.3203125,-27.34375,-1000.0,1.0,1.0,-1.0,1.0,3.m4v,7.0
2024-02-28 09:26:36.229877,1709108796.2298772,788.57421875,-24.90234375,-34.1796875,999.51171875,1.0,1.0,-1.0,1.0,3.m4v,7.0
2024-02-28 09:26:36.237689,1709108796.2376888,255.859375,-34.1796875,-24.90234375,999.51171875,1.0,1.0,-1.0,1.0,3.m4v,7.0
2024-02-28 09:26:36.245500,1709108796.2455003,-788.0859375,-37.109375,-28.80859375,-821.2890625,1.0,1.0,-1.0,1.0,3.m4v,7.0
2024-02-28 09:26:36.253312,1709108796.253312,-233.3984375,-32.2265625,-32.2265625,-950.68359375,1.0,1.0,-1.0,1.0,3.m4v,7.0
2024-02-28 09:26:36.261127,1709108796.2611265,-213.8671875,-32.71484375,-33.69140625,-1000.0,1.0,1.0,-1.0,1.0,3.m4v,7.0
2024-02-28 09:26:36.268938,1709108796.2689383,726.5625,-22.94921875,-28.80859375,915.0390625,1.0,1.0,-1.0,1.0,3.m4v,7.0
2024-02-28 09:26:36.276750,1709108796.2767498,312.01171875,-28.3203125,-34.1796875,934.08203125,1.0,1.0,-1.0,1.0,3.m4v,7.0
2024-02-28 09:26:36.284561,1709108796.2845614,-27.83203125,-36.1328125,-32.71484375,918.9453125,1.0,1.0,-1.0,1.0,3.m4v,7.0
2024-02-28 09:26:36.292373,1709108796.292373,-52.24609375,-34.1796875,-34.1796875,464.35546875,1.0,1.0,-1.0,1.0,3.m4v,7.0
2024-02-28 09:26:36.300184,1709108796.3001845,-711.42578125,-34.1796875,-33.69140625,-1000.0,1.0,1.0,-1.0,1.0,3.m4v,7.0
2024-02-28 09:26:36.307999,1709108796.3079991,-290.52734375,-31.73828125,-39.55078125,-981.4453125,1.0,1.0,-1.0,1.0,3.m4v,7.0
2024-02-28 09:26:36.311905,1709108796.311905,321.2890625,-27.34375,-38.57421875,153.3203125,1.0,1.0,-1.0,1.0,3.m4v,7.0
2024-02-28 09:26:36.315811,1709108796.315811,752.9296875,-27.34375,-37.59765625,999.51171875,1.0,1.0,-1.0,1.0,3.m4v,7.0
2024-02-28 09:26:36.319716,1709108796.3197165,388.671875,-29.78515625,-36.1328125,949.70703125,1.0,1.0,-1.0,1.0,3.m4v,7.0
2024-02-28 09:26:36.323622,1709108796.3236222,55.6640625,-29.78515625,-33.69140625,915.52734375,1.0,1.0,-1.0,1.0,3.m4v,7.0
2024-02-28 09:26:36.327528,1709108796.327528,131.8359375,-26.3671875,-32.71484375,997.55859375,1.0,1.0,-1.0,1.0,3.m4v,7.0
2024-02-28 09:26:36.331434,1709108796.3314338,208.49609375,-31.73828125,-34.1796875,937.98828125,1.0,1.0,-1.0,1.0,3.m4v,7.0
2024-02-28 09:26:36.335340,1709108796.3353395,-429.6875,-44.921875,-36.62109375,-427.24609375,1.0,1.0,-1.0,1.0,3.m4v,7.0
2024-02-28 09:26:36.339246,1709108796.3392456,-870.1171875,-41.9921875,-35.15625,-1000.0,1.0,1.0,-1.0,1.0,3.m4v,7.0
2024-02-28 09:26:36.343151,1709108796.343151,-556.15234375,-37.109375,-34.1796875,-933.10546875,1.0,1.0,-1.0,1.0,3.m4v,7.0
2024-02-28 09:26:36.347057,1709108796.347057,-285.15625,-37.109375,-36.62109375,-1000.0,1.0,1.0,-1.0,1.0,3.m4v,7.0
2024-02-28 09:26:36.350963,1709108796.3509629,-134.765625,-33.69140625,-37.109375,-993.65234375,1.0,1.0,-1.0,1.0,3.m4v,7.0
2024-02-28 09:26:36.354871,1709108796.3548713,-44.43359375,-29.78515625,-37.109375,-932.6171875,1.0,1.0,-1.0,1.0,3.m4v,7.0
2024-02-28 09:26:36.358777,1709108796.358777,-121.58203125,-35.15625,-42.96875,-1000.0,1.0,1.0,-1.0,1.0,3.m4v,7.0
2024-02-28 09:26:36.362683,1709108796.3626828,-122.0703125,-39.0625,-41.015625,-776.85546875,1.0,1.0,-1.0,1.0,3.m4v,7.0
2024-02-28 09:26:36.366589,1709108796.3665886,583.0078125,-36.62109375,-31.25,652.34375,1.0,1.0,-1.0,1.0,3.m4v,7.0
2024-02-28 09:26:36.370494,1709108796.3704944,800.29296875,-35.15625,-29.296875,999.51171875,1.0,1.0,-1.0,1.0,3.m4v,7.0
2024-02-28 09:26:36.374400,1709108796.3744004,427.24609375,-35.64453125,-32.71484375,861.81640625,1.0,1.0,-1.0,1.0,3.m4v,7.0
2024-02-28 09:26:36.378306,1709108796.3783062,219.7265625,-39.55078125,-37.109375,999.51171875,1.0,1.0,-1.0,1.0,3.m4v,7.0
2024-02-28 09:26:36.382212,1709108796.382212,-62.5,-40.0390625,-38.0859375,666.50390625,1.0,1.0,-1.0,1.0,3.m4v,7.0
2024-02-28 09:26:36.386118,1709108796.3861177,-622.55859375,-39.0625,-34.66796875,-621.58203125,1.0,1.0,-1.0,1.0,3.m4v,7.0
2024-02-28 09:26:36.390023,1709108796.3900237,-738.28125,-39.0625,-30.2734375,-1000.0,1.0,1.0,-1.0,1.0,3.m4v,7.0
2024-02-28 09:26:36.393929,1709108796.3939292,-371.09375,-35.15625,-36.62109375,-927.24609375,1.0,1.0,-1.0,1.0,3.m4v,7.0
2024-02-28 09:26:36.397835,1709108796.397835,-163.0859375,-26.85546875,-44.921875,-986.328125,1.0,1.0,-1.0,1.0,3.m4v,7.0
2024-02-28 09:26:36.401743,1709108796.4017434,-170.8984375,-26.85546875,-41.015625,-1000.0,1.0,1.0,-1.0,1.0,3.m4v,7.0
2024-02-28 09:26:36.405649,1709108796.4056492,185.05859375,-34.66796875,-37.59765625,-13.18359375,1.0,1.0,-1.0,1.0,3.m4v,7.0
2024-02-28 09:26:36.409555,1709108796.4095552,763.671875,-36.1328125,-36.1328125,999.0234375,1.0,1.0,-1.0,1.0,3.m4v,7.0
2024-02-28 09:26:36.413461,1709108796.413461,556.15234375,-32.71484375,-35.64453125,931.640625,1.0,1.0,-1.0,1.0,3.m4v,7.0
2024-02-28 09:26:36.417367,1709108796.4173667,225.5859375,-32.71484375,-33.203125,953.125,1.0,1.0,-1.0,1.0,3.m4v,7.0
2024-02-28 09:26:36.421273,1709108796.4212725,-229.98046875,-37.59765625,-33.69140625,59.08203125,1.0,1.0,-1.0,1.0,3.m4v,7.0
2024-02-28 09:26:36.425178,1709108796.4251783,-741.69921875,-37.59765625,-38.57421875,-969.7265625,1.0,1.0,-1.0,1.0,3.m4v,7.0
2024-02-28 09:26:36.429084,1709108796.429084,-515.13671875,-35.64453125,-41.015625,-1000.0,1.0,1.0,-1.0,1.0,3.m4v,7.0
2024-02-28 09:26:36.432990,1709108796.4329898,-189.453125,-30.2734375,-36.1328125,-980.95703125,1.0,1.0,-1.0,1.0,3.m4v,7.0
2024-02-28 09:26:36.436896,1709108796.4368956,-105.46875,-26.3671875,-35.15625,-954.1015625,1.0,1.0,-1.0,1.0,3.m4v,7.0
2024-02-28 09:26:36.440801,1709108796.4408014,-243.65234375,-28.80859375,-38.57421875,-1000.0,1.0,1.0,-1.0,1.0,3.m4v,7.0
2024-02-28 09:26:36.444707,1709108796.4447072,-60.05859375,-31.73828125,-37.59765625,-504.39453125,1.0,1.0,-1.0,1.0,3.m4v,7.0
2024-02-28 09:26:36.448617,1709108796.448617,717.28515625,-28.3203125,-34.66796875,822.265625,1.0,1.0,-1.0,1.0,3.m4v,7.0
2024-02-28 09:26:36.452523,1709108796.452523,726.5625,-28.3203125,-33.203125,999.51171875,1.0,1.0,-1.0,1.0,3.m4v,7.0
2024-02-28 09:26:36.456429,1709108796.4564288,330.56640625,-35.15625,-34.66796875,919.921875,1.0,1.0,-1.0,1.0,3.m4v,7.0
2024-02-28 09:26:36.460335,1709108796.4603343,148.92578125,-35.15625,-36.1328125,998.046875,1.0,1.0,-1.0,1.0,3.m4v,7.0
2024-02-28 09:26:36.464240,1709108796.4642403,-5.37109375,-35.15625,-36.62109375,911.1328125,1.0,1.0,-1.0,1.0,3.m4v,7.0
2024-02-28 09:26:36.468146,1709108796.468146,73.2421875,-40.0390625,-36.62109375,999.51171875,1.0,1.0,-1.0,1.0,3.m4v,7.0
2024-02-28 09:26:36.468146,1709108796.468146,73.2421875,-40.0390625,-36.62109375,999.51171875,1.0,1.0,-1.0,1.0,3.m4v,7.0
2024-02-28 09:26:36.472052,1709108796.472052,90.8203125,-37.109375,-33.69140625,815.4296875,1.0,1.0,-1.0,1.0,3.m4v,7.0
2024-02-28 09:26:36.472052,1709108796.472052,90.8203125,-37.109375,-33.69140625,815.4296875,1.0,1.0,-1.0,1.0,3.m4v,7.0
2024-02-28 09:26:36.475958,1709108796.4759576,-618.1640625,-36.62109375,-36.62109375,-631.8359375,1.0,1.0,-1.0,1.0,3.m4v,7.0
2024-02-28 09:26:36.475958,1709108796.4759576,-618.1640625,-36.62109375,-36.62109375,-631.8359375,1.0,1.0,-1.0,1.0,3.m4v,7.0
2024-02-28 09:26:36.479863,1709108796.4798634,-900.87890625,-37.109375,-38.57421875,-1000.0,1.0,1.0,-1.0,1.0,3.m4v,7.0
2024-02-28 09:26:36.479863,1709108796.4798634,-900.87890625,-37.109375,-38.57421875,-1000.0,1.0,1.0,-1.0,1.0,3.m4v,7.0
2024-02-28 09:26:36.483769,1709108796.4837692,-518.06640625,-38.0859375,-41.9921875,-908.203125,1.0,1.0,-1.0,1.0,3.m4v,7.0
2024-02-28 09:26:36.483769,1709108796.4837692,-518.06640625,-38.0859375,-41.9921875,-908.203125,1.0,1.0,-1.0,1.0,3.m4v,7.0
2024-02-28 09:26:36.487675,1709108796.4876752,-243.1640625,-35.64453125,-38.57421875,-1000.0,1.0,1.0,-1.0,1.0,3.m4v,7.0
2024-02-28 09:26:36.487675,1709108796.4876752,-243.1640625,-35.64453125,-38.57421875,-1000.0,1.0,1.0,-1.0,1.0,3.m4v,7.0
2024-02-28 09:26:36.491581,1709108796.491581,2.44140625,-31.73828125,-33.203125,-699.21875,1.0,1.0,-1.0,1.0,3.m4v,7.0
2024-02-28 09:26:36.491581,1709108796.491581,2.44140625,-31.73828125,-33.203125,-699.21875,1.0,1.0,-1.0,1.0,3.m4v,7.0
2024-02-28 09:26:36.495491,1709108796.4954906,402.34375,-32.71484375,-35.64453125,365.72265625,1.0,1.0,-1.0,1.0,3.m4v,7.0
2024-02-28 09:26:36.495491,1709108796.4954906,402.34375,-32.71484375,-35.64453125,365.72265625,1.0,1.0,-1.0,1.0,3.m4v,7.0
2024-02-28 09:26:36.522831,1709108796.522831,-844.23828125,-33.69140625,-37.59765625,-1000.0,1.0,1.0,-1.0,1.0,3.m4v,7.0
2024-02-28 09:26:36.526737,1709108796.526737,-442.3828125,-34.66796875,-36.1328125,-944.82421875,1.0,1.0,-1.0,1.0,3.m4v,7.0
2024-02-28 09:26:36.530643,1709108796.5306427,-185.546875,-34.1796875,-35.15625,-1000.0,1.0,1.0,-1.0,1.0,3.m4v,7.0
2024-02-28 09:26:36.534549,1709108796.5345483,-89.84375,-31.73828125,-31.73828125,-946.2890625,1.0,1.0,-1.0,1.0,3.m4v,7.0
2024-02-28 09:26:36.538454,1709108796.5384543,-106.4453125,-31.25,-31.73828125,-1000.0,1.0,1.0,-1.0,1.0,3.m4v,7.0
2024-02-28 09:26:36.542364,1709108796.5423636,-145.01953125,-30.76171875,-31.25,-904.296875,1.0,1.0,-1.0,1.0,3.m4v,7.0
2024-02-28 09:26:36.964219,1709108796.9642189,145.5078125,-36.1328125,-27.83203125,903.80859375,1.0,1.0,-1.0,1.0,3.m4v,7.0
2024-02-28 09:26:36.968125,1709108796.9681246,122.55859375,-37.109375,-28.80859375,999.51171875,1.0,1.0,-1.0,1.0,3.m4v,7.0
2024-02-28 09:26:36.972030,1709108796.9720304,138.671875,-31.25,-31.25,918.9453125,1.0,1.0,-1.0,1.0,3.m4v,7.0
2024-02-28 09:26:36.975936,1709108796.9759362,-455.56640625,-30.2734375,-29.296875,-466.796875,1.0,1.0,-1.0,1.0,3.m4v,7.0
2024-02-28 09:26:36.979842,1709108796.979842,-848.6328125,-35.15625,-33.203125,-1000.0,1.0,1.0,-1.0,1.0,3.m4v,7.0
2024-02-28 09:26:36.983748,1709108796.9837475,-553.22265625,-31.25,-36.62109375,-981.93359375,1.0,1.0,-1.0,1.0,3.m4v,7.0
2024-02-28 09:26:36.987653,1709108796.9876535,-184.08203125,-28.80859375,-30.76171875,-816.89453125,1.0,1.0,-1.0,1.0,3.m4v,7.0
2024-02-28 09:26:36.991560,1709108796.9915595,509.765625,-36.62109375,-33.203125,575.1953125,1.0,1.0,-1.0,1.0,3.m4v,7.0
2024-02-28 09:26:36.995465,1709108796.9954653,684.08203125,-38.0859375,-38.57421875,999.51171875,1.0,1.0,-1.0,1.0,3.m4v,7.0
2024-02-28 09:26:36.999371,1709108796.999371,324.21875,-32.71484375,-38.57421875,918.9453125,1.0,1.0,-1.0,1.0,3.m4v,7.0
2024-02-28 09:26:37.003277,1709108797.0032768,98.14453125,-33.69140625,-40.0390625,930.17578125,1.0,1.0,-1.0,1.0,3.m4v,7.0
2024-02-28 09:26:37.007183,1709108797.0071826,79.1015625,-34.1796875,-41.015625,999.51171875,1.0,1.0,-1.0,1.0,3.m4v,7.0
2024-02-28 09:26:37.011091,1709108797.0110917,98.6328125,-34.1796875,-40.0390625,888.671875,1.0,1.0,-1.0,1.0,3.m4v,7.0
2024-02-28 09:26:37.014997,1709108797.0149972,-503.90625,-37.109375,-34.66796875,-536.1328125,1.0,1.0,-1.0,1.0,3.m4v,7.0
2024-02-28 09:26:37.018903,1709108797.018903,-815.91796875,-38.0859375,-37.109375,-1000.0,1.0,1.0,-1.0,1.0,3.m4v,7.0
2024-02-28 09:26:37.022809,1709108797.0228088,-529.296875,-39.55078125,-37.59765625,-929.6875,1.0,1.0,-1.0,1.0,3.m4v,7.0
2024-02-28 09:26:37.026715,1709108797.0267148,-329.58984375,-39.55078125,-33.69140625,-1000.0,1.0,1.0,-1.0,1.0,3.m4v,7.0
2024-02-28 09:26:37.030621,1709108797.0306206,286.1328125,-33.69140625,-32.71484375,205.078125,1.0,1.0,-1.0,1.0,3.m4v,7.0
2024-02-28 09:26:37.034526,1709108797.0345263,739.2578125,-30.76171875,-30.2734375,999.51171875,1.0,1.0,-1.0,1.0,3.m4v,7.0
2024-02-28 09:26:37.038432,1709108797.038432,391.11328125,-36.1328125,-29.296875,930.17578125,1.0,1.0,-1.0,1.0,3.m4v,7.0
2024-02-28 09:26:37.042338,1709108797.042338,94.23828125,-35.64453125,-29.296875,939.453125,1.0,1.0,-1.0,1.0,3.m4v,7.0
2024-02-28 09:26:37.046244,1709108797.0462437,84.9609375,-35.64453125,-26.85546875,963.37890625,1.0,1.0,-1.0,1.0,3.m4v,7.0
2024-02-28 09:26:37.050149,1709108797.0501494,166.015625,-34.66796875,-28.3203125,999.51171875,1.0,1.0,-1.0,1.0,3.m4v,7.0
2024-02-28 09:26:37.054055,1709108797.0540552,-273.4375,-31.73828125,-34.66796875,-161.62109375,1.0,1.0,-1.0,1.0,3.m4v,7.0
2024-02-28 09:26:37.057966,1709108797.0579658,-793.9453125,-29.296875,-33.203125,-1000.0,1.0,1.0,-1.0,1.0,3.m4v,7.0
2024-02-28 09:26:37.061872,1709108797.0618715,-593.26171875,-26.3671875,-29.78515625,-944.3359375,1.0,1.0,-1.0,1.0,3.m4v,7.0
2024-02-28 09:26:37.065777,1709108797.0657773,-335.9375,-30.2734375,-34.66796875,-976.5625,1.0,1.0,-1.0,1.0,3.m4v,7.0
2024-02-28 09:26:37.069683,1709108797.069683,-181.640625,-33.69140625,-34.1796875,-965.33203125,1.0,1.0,-1.0,1.0,3.m4v,7.0
2024-02-28 09:26:37.073589,1709108797.073589,263.671875,-29.296875,-30.2734375,-109.86328125,1.0,1.0,-1.0,1.0,3.m4v,7.0
2024-02-28 09:26:37.077495,1709108797.0774949,699.21875,-28.3203125,-30.2734375,907.71484375,1.0,1.0,-1.0,1.0,3.m4v,7.0
2024-02-28 09:26:37.081401,1709108797.0814006,446.2890625,-32.2265625,-32.2265625,993.65234375,1.0,1.0,-1.0,1.0,3.m4v,7.0
2024-02-28 09:26:37.085306,1709108797.0853064,91.30859375,-38.0859375,-35.15625,882.8125,1.0,1.0,-1.0,1.0,3.m4v,7.0
2024-02-28 09:26:37.089212,1709108797.0892122,132.32421875,-39.0625,-35.15625,999.51171875,1.0,1.0,-1.0,1.0,3.m4v,7.0
2024-02-28 09:26:37.093118,1709108797.093118,91.30859375,-37.59765625,-36.1328125,734.375,1.0,1.0,-1.0,1.0,3.m4v,7.0
2024-02-28 09:26:37.097024,1709108797.0970235,-591.796875,-40.0390625,-33.69140625,-697.265625,1.0,1.0,-1.0,1.0,3.m4v,7.0
2024-02-28 09:26:37.100929,1709108797.1009295,-792.96875,-41.50390625,-30.2734375,-1000.0,1.0,1.0,-1.0,1.0,3.m4v,7.0
2024-02-28 09:26:37.104838,1709108797.104838,-447.75390625,-36.1328125,-31.73828125,-939.94140625,1.0,1.0,-1.0,1.0,3.m4v,7.0
2024-02-28 09:26:37.108744,1709108797.108744,-219.23828125,-31.73828125,-34.66796875,-982.91015625,1.0,1.0,-1.0,1.0,3.m4v,7.0
2024-02-28 09:26:37.112650,1709108797.1126497,387.20703125,-30.2734375,-37.59765625,199.70703125,1.0,1.0,-1.0,1.0,3.m4v,7.0
2024-02-28 09:26:37.116555,1709108797.1165557,761.23046875,-29.78515625,-39.55078125,999.51171875,1.0,1.0,-1.0,1.0,3.m4v,7.0
2024-02-28 09:26:37.159522,1709108797.1595216,317.3828125,-32.71484375,-28.80859375,913.0859375,1.0,1.0,-1.0,1.0,3.m4v,7.0
2024-02-28 09:26:37.163427,1709108797.1634274,56.640625,-38.0859375,-27.34375,958.49609375,1.0,1.0,-1.0,1.0,3.m4v,7.0
2024-02-28 09:26:37.167333,1709108797.1673331,45.41015625,-37.109375,-26.85546875,949.70703125,1.0,1.0,-1.0,1.0,3.m4v,7.0
2024-02-28 09:26:37.171239,1709108797.171239,150.390625,-33.203125,-26.3671875,999.51171875,1.0,1.0,-1.0,1.0,3.m4v,7.0
2024-02-28 09:26:37.175145,1709108797.175145,-266.6015625,-39.55078125,-31.73828125,-44.921875,1.0,1.0,-1.0,1.0,3.m4v,7.0
2024-02-28 09:26:37.179050,1709108797.1790504,-873.53515625,-44.43359375,-43.45703125,-1000.0,1.0,1.0,-1.0,1.0,3.m4v,7.0
2024-02-28 09:26:37.182956,1709108797.1829565,-713.37890625,-36.62109375,-42.48046875,-972.65625,1.0,1.0,-1.0,1.0,3.m4v,7.0
2024-02-28 09:26:37.182956,1709108797.1829565,-713.37890625,-36.62109375,-42.48046875,-972.65625,1.0,1.0,-1.0,1.0,3.m4v,7.0
2024-02-28 09:26:37.186862,1709108797.1868622,-366.69921875,-35.15625,-38.57421875,-987.79296875,1.0,1.0,-1.0,1.0,3.m4v,7.0
2024-02-28 09:26:37.186862,1709108797.1868622,-366.69921875,-35.15625,-38.57421875,-987.79296875,1.0,1.0,-1.0,1.0,3.m4v,7.0
2024-02-28 09:26:37.190768,1709108797.190768,-130.859375,-37.109375,-40.0390625,-1000.0,1.0,1.0,-1.0,1.0,3.m4v,7.0
2024-02-28 09:26:37.190768,1709108797.190768,-130.859375,-37.109375,-40.0390625,-1000.0,1.0,1.0,-1.0,1.0,3.m4v,7.0
2024-02-28 09:26:37.194674,1709108797.1946738,3.41796875,-31.73828125,-40.0390625,-922.8515625,1.0,1.0,-1.0,1.0,3.m4v,7.0
2024-02-28 09:26:37.194674,1709108797.1946738,3.41796875,-31.73828125,-40.0390625,-922.8515625,1.0,1.0,-1.0,1.0,3.m4v,7.0
2024-02-28 09:26:37.198584,1709108797.1985836,-129.8828125,-30.76171875,-40.0390625,-1000.0,1.0,1.0,-1.0,1.0,3.m4v,7.0
2024-02-28 09:26:37.198584,1709108797.1985836,-129.8828125,-30.76171875,-40.0390625,-1000.0,1.0,1.0,-1.0,1.0,3.m4v,7.0
2024-02-28 09:26:37.202489,1709108797.2024894,-138.671875,-37.109375,-37.59765625,-846.6796875,1.0,1.0,-1.0,1.0,3.m4v,7.0
2024-02-28 09:26:37.202489,1709108797.2024894,-138.671875,-37.109375,-37.59765625,-846.6796875,1.0,1.0,-1.0,1.0,3.m4v,7.0
2024-02-28 09:26:37.206395,1709108797.2063951,580.56640625,-35.64453125,-37.59765625,590.33203125,1.0,1.0,-1.0,1.0,3.m4v,7.0
2024-02-28 09:26:37.206395,1709108797.2063951,580.56640625,-35.64453125,-37.59765625,590.33203125,1.0,1.0,-1.0,1.0,3.m4v,7.0
2024-02-28 09:26:37.210301,1709108797.210301,805.17578125,-35.64453125,-40.0390625,999.51171875,1.0,1.0,-1.0,1.0,3.m4v,7.0
2024-02-28 09:26:37.210301,1709108797.210301,805.17578125,-35.64453125,-40.0390625,999.51171875,1.0,1.0,-1.0,1.0,3.m4v,7.0
2024-02-28 09:26:37.214207,1709108797.2142067,415.0390625,-39.55078125,-41.015625,898.92578125,1.0,1.0,-1.0,1.0,3.m4v,7.0
2024-02-28 09:26:37.214207,1709108797.2142067,415.0390625,-39.55078125,-41.015625,898.92578125,1.0,1.0,-1.0,1.0,3.m4v,7.0
2024-02-28 09:26:37.218112,1709108797.2181125,237.79296875,-35.64453125,-41.9921875,991.69921875,1.0,1.0,-1.0,1.0,3.m4v,7.0
2024-02-28 09:26:37.218112,1709108797.2181125,237.79296875,-35.64453125,-41.9921875,991.69921875,1.0,1.0,-1.0,1.0,3.m4v,7.0
2024-02-28 09:26:37.222018,1709108797.2220182,84.47265625,-35.15625,-43.45703125,946.77734375,1.0,1.0,-1.0,1.0,3.m4v,7.0
2024-02-28 09:26:37.222018,1709108797.2220182,84.47265625,-35.15625,-43.45703125,946.77734375,1.0,1.0,-1.0,1.0,3.m4v,7.0
2024-02-28 09:26:37.225924,1709108797.2259245,-1.953125,-33.69140625,-37.59765625,954.58984375,1.0,1.0,-1.0,1.0,3.m4v,7.0
2024-02-28 09:26:37.225924,1709108797.2259245,-1.953125,-33.69140625,-37.59765625,954.58984375,1.0,1.0,-1.0,1.0,3.m4v,7.0
2024-02-28 09:26:37.229830,1709108797.22983,63.4765625,-31.73828125,-34.1796875,999.51171875,1.0,1.0,-1.0,1.0,3.m4v,7.0
2024-02-28 09:26:37.229830,1709108797.22983,63.4765625,-31.73828125,-34.1796875,999.51171875,1.0,1.0,-1.0,1.0,3.m4v,7.0
2024-02-28 09:26:37.233736,1709108797.2337358,-328.125,-33.203125,-41.015625,-111.328125,1.0,1.0,-1.0,1.0,3.m4v,7.0
2024-02-28 09:26:37.233736,1709108797.2337358,-328.125,-33.203125,-41.015625,-111.328125,1.0,1.0,-1.0,1.0,3.m4v,7.0
2024-02-28 09:26:37.237642,1709108797.2376416,-792.96875,-27.83203125,-45.41015625,-1000.0,1.0,1.0,-1.0,1.0,3.m4v,7.0
2024-02-28 09:26:37.237642,1709108797.2376416,-792.96875,-27.83203125,-45.41015625,-1000.0,1.0,1.0,-1.0,1.0,3.m4v,7.0
2024-02-28 09:26:37.241547,1709108797.241547,-566.40625,-28.3203125,-44.43359375,-921.38671875,1.0,1.0,-1.0,1.0,3.m4v,7.0
2024-02-28 09:26:37.241547,1709108797.241547,-566.40625,-28.3203125,-44.43359375,-921.38671875,1.0,1.0,-1.0,1.0,3.m4v,7.0
2024-02-28 09:26:37.245457,1709108797.245457,-377.9296875,-33.69140625,-37.109375,-1000.0,1.0,1.0,-1.0,1.0,3.m4v,7.0
2024-02-28 09:26:37.245457,1709108797.245457,-377.9296875,-33.69140625,-37.109375,-1000.0,1.0,1.0,-1.0,1.0,3.m4v,7.0
2024-02-28 09:26:37.268892,1709108797.2688918,157.2265625,-29.296875,-28.80859375,999.51171875,1.0,1.0,-1.0,1.0,3.m4v,7.0
2024-02-28 09:26:37.268892,1709108797.2688918,157.2265625,-29.296875,-28.80859375,999.51171875,1.0,1.0,-1.0,1.0,3.m4v,7.0
2024-02-28 09:26:37.276703,1709108797.2767034,-659.66796875,-36.1328125,-32.71484375,-720.703125,1.0,1.0,-1.0,1.0,3.m4v,7.0
2024-02-28 09:26:37.276703,1709108797.2767034,-659.66796875,-36.1328125,-32.71484375,-720.703125,1.0,1.0,-1.0,1.0,3.m4v,7.0
2024-02-28 09:26:37.280609,1709108797.2806091,-795.41015625,-32.71484375,-38.0859375,-1000.0,1.0,1.0,-1.0,1.0,3.m4v,7.0
2024-02-28 09:26:37.280609,1709108797.2806091,-795.41015625,-32.71484375,-38.0859375,-1000.0,1.0,1.0,-1.0,1.0,3.m4v,7.0
2024-02-28 09:26:37.288421,1709108797.288421,-226.5625,-26.85546875,-34.66796875,-1000.0,1.0,1.0,-1.0,1.0,3.m4v,7.0
2024-02-28 09:26:37.288421,1709108797.288421,-226.5625,-26.85546875,-34.66796875,-1000.0,1.0,1.0,-1.0,1.0,3.m4v,7.0
2024-02-28 09:26:37.292330,1709108797.29233,237.3046875,-27.34375,-36.1328125,-86.42578125,1.0,1.0,-1.0,1.0,3.m4v,7.0
2024-02-28 09:26:37.300142,1709108797.3001416,440.91796875,-27.34375,-31.25,972.16796875,1.0,1.0,-1.0,1.0,3.m4v,7.0
2024-02-28 09:26:37.307953,1709108797.3079531,121.58203125,-24.90234375,-32.71484375,935.05859375,1.0,1.0,-1.0,1.0,3.m4v,7.0
2024-02-28 09:26:37.311859,1709108797.3118591,166.9921875,-23.92578125,-34.1796875,999.51171875,1.0,1.0,-1.0,1.0,3.m4v,7.0
2024-02-28 09:26:37.354826,1709108797.3548262,348.14453125,-25.87890625,-35.64453125,909.1796875,1.0,1.0,-1.0,1.0,3.m4v,7.0
2024-02-28 09:26:37.358732,1709108797.358732,177.24609375,-24.4140625,-33.69140625,997.55859375,1.0,1.0,-1.0,1.0,3.m4v,7.0
2024-02-28 09:26:37.362638,1709108797.3626378,45.41015625,-23.92578125,-28.80859375,919.921875,1.0,1.0,-1.0,1.0,3.m4v,7.0
2024-02-28 09:26:37.366544,1709108797.3665435,54.6875,-23.92578125,-28.3203125,999.51171875,1.0,1.0,-1.0,1.0,3.m4v,7.0
2024-02-28 09:26:37.370449,1709108797.3704493,59.5703125,-26.3671875,-30.2734375,900.87890625,1.0,1.0,-1.0,1.0,3.m4v,7.0
2024-02-28 09:26:37.374355,1709108797.374355,-525.390625,-32.2265625,-32.2265625,-508.30078125,1.0,1.0,-1.0,1.0,3.m4v,7.0
2024-02-28 09:26:37.378261,1709108797.3782609,-829.1015625,-32.2265625,-32.2265625,-1000.0,1.0,1.0,-1.0,1.0,3.m4v,7.0
2024-02-28 09:26:37.382167,1709108797.3821666,-497.0703125,-27.83203125,-31.25,-890.625,1.0,1.0,-1.0,1.0,3.m4v,7.0
2024-02-28 09:26:37.386076,1709108797.3860755,-313.4765625,-24.90234375,-33.69140625,-1000.0,1.0,1.0,-1.0,1.0,3.m4v,7.0
2024-02-28 09:26:37.389982,1709108797.3899815,78.61328125,-28.80859375,-31.73828125,-384.27734375,1.0,1.0,-1.0,1.0,3.m4v,7.0
2024-02-28 09:26:37.393887,1709108797.3938873,665.0390625,-34.1796875,-28.3203125,833.49609375,1.0,1.0,-1.0,1.0,3.m4v,7.0
2024-02-28 09:26:37.397793,1709108797.397793,521.484375,-30.2734375,-27.83203125,999.51171875,1.0,1.0,-1.0,1.0,3.m4v,7.0
2024-02-28 09:26:37.401699,1709108797.4016988,145.99609375,-31.25,-27.83203125,923.828125,1.0,1.0,-1.0,1.0,3.m4v,7.0
2024-02-28 09:26:37.405605,1709108797.4056046,94.23828125,-33.203125,-29.296875,937.5,1.0,1.0,-1.0,1.0,3.m4v,7.0
2024-02-28 09:26:37.409510,1709108797.4095104,199.21875,-31.73828125,-30.2734375,999.51171875,1.0,1.0,-1.0,1.0,3.m4v,7.0
2024-02-28 09:26:37.413416,1709108797.413416,-134.27734375,-40.52734375,-34.66796875,254.8828125,1.0,1.0,-1.0,1.0,3.m4v,7.0
2024-02-28 09:26:37.417322,1709108797.4173222,-817.3828125,-45.8984375,-35.64453125,-962.40234375,1.0,1.0,-1.0,1.0,3.m4v,7.0
2024-02-28 09:26:37.421228,1709108797.421228,-649.90234375,-35.15625,-38.0859375,-963.8671875,1.0,1.0,-1.0,1.0,3.m4v,7.0
2024-02-28 09:26:37.425134,1709108797.4251337,-352.5390625,-35.15625,-38.0859375,-1000.0,1.0,1.0,-1.0,1.0,3.m4v,7.0
2024-02-28 09:26:37.429039,1709108797.4290397,-100.09765625,-41.9921875,-34.66796875,-672.36328125,1.0,1.0,-1.0,1.0,3.m4v,7.0
2024-02-28 09:26:37.432950,1709108797.43295,598.6328125,-41.015625,-32.2265625,693.359375,1.0,1.0,-1.0,1.0,3.m4v,7.0
2024-02-28 09:26:37.436856,1709108797.4368558,611.81640625,-37.59765625,-30.2734375,999.51171875,1.0,1.0,-1.0,1.0,3.m4v,7.0
2024-02-28 09:26:37.440762,1709108797.4407616,208.49609375,-37.109375,-30.2734375,918.9453125,1.0,1.0,-1.0,1.0,3.m4v,7.0
2024-02-28 09:26:37.444667,1709108797.444667,108.3984375,-34.66796875,-27.83203125,956.54296875,1.0,1.0,-1.0,1.0,3.m4v,7.0
2024-02-28 09:26:37.448573,1709108797.448573,104.00390625,-30.2734375,-26.85546875,959.9609375,1.0,1.0,-1.0,1.0,3.m4v,7.0
2024-02-28 09:26:37.452479,1709108797.452479,202.63671875,-31.73828125,-30.2734375,999.51171875,1.0,1.0,-1.0,1.0,3.m4v,7.0
2024-02-28 09:26:37.456385,1709108797.456385,-262.6953125,-37.109375,-29.296875,-158.69140625,1.0,1.0,-1.0,1.0,3.m4v,7.0
2024-02-28 09:26:37.460291,1709108797.460291,-886.71875,-40.0390625,-29.78515625,-1000.0,1.0,1.0,-1.0,1.0,3.m4v,7.0
2024-02-28 09:26:37.464196,1709108797.4641964,-685.05859375,-40.52734375,-30.2734375,-958.49609375,1.0,1.0,-1.0,1.0,3.m4v,7.0
2024-02-28 09:26:37.468102,1709108797.4681022,-316.40625,-45.41015625,-30.2734375,-997.0703125,1.0,1.0,-1.0,1.0,3.m4v,7.0
2024-02-28 09:26:37.472008,1709108797.472008,-138.671875,-48.828125,-35.15625,-997.0703125,1.0,1.0,-1.0,1.0,3.m4v,7.0
