Timestamp,Timestamp_UNIX,TP9,AF7,AF8,TP10,Valence,Arousal,Dominace,Viewed,Video,Participant
2024-02-28 09:30:42.177621,1709109042.1776206,-930.17578125,-37.109375,-32.2265625,-1000.0,-1.0,0.0,-1.0,0.0,4.m4v,7.0
2024-02-28 09:30:42.181527,1709109042.181527,-435.546875,-36.62109375,-42.96875,-930.17578125,-1.0,0.0,-1.0,0.0,4.m4v,7.0
2024-02-28 09:30:42.185432,1709109042.1854324,-190.91796875,-36.1328125,-34.66796875,-1000.0,-1.0,0.0,-1.0,0.0,4.m4v,7.0
2024-02-28 09:30:42.189338,1709109042.1893382,-139.16015625,-26.85546875,-27.83203125,-944.3359375,-1.0,0.0,-1.0,0.0,4.m4v,7.0
2024-02-28 09:30:42.193244,1709109042.1932435,-210.44921875,-20.99609375,-27.83203125,-1000.0,-1.0,0.0,-1.0,0.0,4.m4v,7.0
2024-02-28 09:30:42.197150,1709109042.1971495,-124.51171875,-29.78515625,-27.83203125,-856.4453125,-1.0,0.0,-1.0,0.0,4.m4v,7.0
2024-02-28 09:30:42.201055,1709109042.2010553,593.26171875,-41.50390625,-36.62109375,573.2421875,-1.0,0.0,-1.0,0.0,4.m4v,7.0
2024-02-28 09:30:42.204961,1709109042.204961,829.58984375,-43.45703125,-34.1796875,999.51171875,-1.0,0.0,-1.0,0.0,4.m4v,7.0
2024-02-28 09:30:42.208867,1709109042.208867,390.625,-28.80859375,-31.73828125,898.92578125,-1.0,0.0,-1.0,0.0,4.m4v,7.0
2024-02-28 09:30:42.212773,1709109042.2127728,105.95703125,-29.296875,-31.25,984.86328125,-1.0,0.0,-1.0,0.0,4.m4v,7.0
2024-02-28 09:30:42.216679,1709109042.2166786,26.3671875,-27.83203125,-30.2734375,981.4453125,-1.0,0.0,-1.0,0.0,4.m4v,7.0
2024-02-28 09:30:42.220584,1709109042.2205844,33.69140625,-20.5078125,-28.3203125,913.0859375,-1.0,0.0,-1.0,0.0,4.m4v,7.0
2024-02-28 09:30:42.224490,1709109042.2244902,134.27734375,-33.69140625,-27.34375,999.51171875,-1.0,0.0,-1.0,0.0,4.m4v,7.0
2024-02-28 09:30:42.228396,1709109042.2283962,-15.625,-37.109375,-37.109375,687.5,-1.0,0.0,-1.0,0.0,4.m4v,7.0
2024-02-28 09:30:42.232302,1709109042.232302,-770.01953125,-29.296875,-42.96875,-713.8671875,-1.0,0.0,-1.0,0.0,4.m4v,7.0
2024-02-28 09:30:42.236208,1709109042.2362075,-860.83984375,-27.83203125,-36.62109375,-1000.0,-1.0,0.0,-1.0,0.0,4.m4v,7.0
2024-02-28 09:30:42.240114,1709109042.2401145,-409.1796875,-35.64453125,-39.0625,-936.5234375,-1.0,0.0,-1.0,0.0,4.m4v,7.0
2024-02-28 09:30:42.244020,1709109042.2440205,-189.453125,-41.015625,-45.8984375,-1000.0,-1.0,0.0,-1.0,0.0,4.m4v,7.0
2024-02-28 09:30:42.247926,1709109042.2479262,-75.1953125,-30.76171875,-41.9921875,-951.171875,-1.0,0.0,-1.0,0.0,4.m4v,7.0
2024-02-28 09:30:42.251832,1709109042.251832,-147.94921875,-23.4375,-41.50390625,-1000.0,-1.0,0.0,-1.0,0.0,4.m4v,7.0
2024-02-28 09:30:42.255738,1709109042.2557378,-160.15625,-17.08984375,-37.109375,-942.87109375,-1.0,0.0,-1.0,0.0,4.m4v,7.0
2024-02-28 09:30:42.259644,1709109042.2596436,505.859375,-23.92578125,-29.296875,459.47265625,-1.0,0.0,-1.0,0.0,4.m4v,7.0
2024-02-28 09:30:42.263550,1709109042.2635496,848.14453125,-37.109375,-39.55078125,999.51171875,-1.0,0.0,-1.0,0.0,4.m4v,7.0
2024-02-28 09:30:42.267455,1709109042.267455,453.61328125,-36.1328125,-47.8515625,897.94921875,-1.0,0.0,-1.0,0.0,4.m4v,7.0
2024-02-28 09:30:42.271361,1709109042.271361,159.66796875,-30.76171875,-40.52734375,981.4453125,-1.0,0.0,-1.0,0.0,4.m4v,7.0
2024-02-28 09:30:42.275267,1709109042.275267,2.44140625,-21.97265625,-40.0390625,976.5625,-1.0,0.0,-1.0,0.0,4.m4v,7.0
2024-02-28 09:30:42.279173,1709109042.279173,16.11328125,-21.97265625,-36.1328125,950.68359375,-1.0,0.0,-1.0,0.0,4.m4v,7.0
2024-02-28 09:30:42.283079,1709109042.283079,93.75,-30.2734375,-28.80859375,949.21875,-1.0,0.0,-1.0,0.0,4.m4v,7.0
2024-02-28 09:30:42.286985,1709109042.2869852,138.18359375,-33.203125,-36.1328125,999.51171875,-1.0,0.0,-1.0,0.0,4.m4v,7.0
2024-02-28 09:30:42.290891,1709109042.290891,-351.5625,-34.1796875,-28.3203125,-29.296875,-1.0,0.0,-1.0,0.0,4.m4v,7.0
2024-02-28 09:30:42.294797,1709109042.294797,-920.41015625,-20.01953125,-29.296875,-1000.0,-1.0,0.0,-1.0,0.0,4.m4v,7.0
2024-02-28 09:30:42.298703,1709109042.2987027,-680.6640625,-21.97265625,-42.48046875,-976.07421875,-1.0,0.0,-1.0,0.0,4.m4v,7.0
2024-02-28 09:30:42.302608,1709109042.3026085,-302.24609375,-46.875,-35.15625,-983.88671875,-1.0,0.0,-1.0,0.0,4.m4v,7.0
2024-02-28 09:30:42.306514,1709109042.3065145,-75.1953125,-49.31640625,-30.76171875,-1000.0,-1.0,0.0,-1.0,0.0,4.m4v,7.0
2024-02-28 09:30:42.310420,1709109042.31042,-85.9375,-34.1796875,-39.55078125,-986.328125,-1.0,0.0,-1.0,0.0,4.m4v,7.0
2024-02-28 09:30:42.314326,1709109042.314326,-182.12890625,-26.85546875,-39.55078125,-974.609375,-1.0,0.0,-1.0,0.0,4.m4v,7.0
2024-02-28 09:30:42.318232,1709109042.3182318,-176.7578125,-26.85546875,-28.3203125,-1000.0,-1.0,0.0,-1.0,0.0,4.m4v,7.0
2024-02-28 09:30:42.322138,1709109042.3221376,269.53125,-34.1796875,-35.15625,-109.375,-1.0,0.0,-1.0,0.0,4.m4v,7.0
2024-02-28 09:30:42.326043,1709109042.3260434,803.7109375,-40.52734375,-38.0859375,968.26171875,-1.0,0.0,-1.0,0.0,4.m4v,7.0
2024-02-28 09:30:42.329949,1709109042.3299491,523.92578125,-38.57421875,-25.87890625,964.35546875,-1.0,0.0,-1.0,0.0,4.m4v,7.0
2024-02-28 09:30:42.333857,1709109042.3338566,125.48828125,-38.0859375,-20.99609375,950.1953125,-1.0,0.0,-1.0,0.0,4.m4v,7.0
2024-02-28 09:30:42.337762,1709109042.3377624,48.33984375,-39.0625,-24.4140625,965.8203125,-1.0,0.0,-1.0,0.0,4.m4v,7.0
2024-02-28 09:30:42.341668,1709109042.341668,70.3125,-31.25,-31.73828125,938.96484375,-1.0,0.0,-1.0,0.0,4.m4v,7.0
2024-02-28 09:30:42.345574,1709109042.345574,163.57421875,-28.80859375,-34.1796875,999.51171875,-1.0,0.0,-1.0,0.0,4.m4v,7.0
2024-02-28 09:30:42.349480,1709109042.34948,-246.09375,-31.73828125,-33.69140625,99.12109375,-1.0,0.0,-1.0,0.0,4.m4v,7.0
2024-02-28 09:30:42.353386,1709109042.3533857,-870.60546875,-35.15625,-35.64453125,-1000.0,-1.0,0.0,-1.0,0.0,4.m4v,7.0
2024-02-28 09:30:42.357291,1709109042.3572917,-645.5078125,-40.0390625,-29.296875,-993.65234375,-1.0,0.0,-1.0,0.0,4.m4v,7.0
2024-02-28 09:30:42.361197,1709109042.3611972,-310.546875,-41.50390625,-29.296875,-975.09765625,-1.0,0.0,-1.0,0.0,4.m4v,7.0
2024-02-28 09:30:42.365103,1709109042.365103,-170.8984375,-38.0859375,-35.64453125,-1000.0,-1.0,0.0,-1.0,0.0,4.m4v,7.0
2024-02-28 09:30:42.369009,1709109042.369009,-66.40625,-40.52734375,-37.109375,-944.3359375,-1.0,0.0,-1.0,0.0,4.m4v,7.0
2024-02-28 09:30:42.372915,1709109042.3729148,-154.78515625,-42.48046875,-37.109375,-1000.0,-1.0,0.0,-1.0,0.0,4.m4v,7.0
2024-02-28 09:30:42.376821,1709109042.3768206,-119.62890625,-41.50390625,-38.0859375,-850.5859375,-1.0,0.0,-1.0,0.0,4.m4v,7.0
2024-02-28 09:30:42.380727,1709109042.3807268,574.70703125,-33.69140625,-33.203125,576.66015625,-1.0,0.0,-1.0,0.0,4.m4v,7.0
2024-02-28 09:30:42.384633,1709109042.3846326,846.19140625,-20.99609375,-20.99609375,999.51171875,-1.0,0.0,-1.0,0.0,4.m4v,7.0
2024-02-28 09:30:42.388539,1709109042.3885386,412.109375,-25.390625,-27.34375,899.4140625,-1.0,0.0,-1.0,0.0,4.m4v,7.0
2024-02-28 09:30:42.392444,1709109042.3924444,56.640625,-33.203125,-42.48046875,983.88671875,-1.0,0.0,-1.0,0.0,4.m4v,7.0
2024-02-28 09:30:42.396350,1709109042.39635,-44.921875,-28.80859375,-37.109375,983.3984375,-1.0,0.0,-1.0,0.0,4.m4v,7.0
2024-02-28 09:30:42.400256,1709109042.400256,30.2734375,-28.3203125,-29.296875,915.0390625,-1.0,0.0,-1.0,0.0,4.m4v,7.0
2024-02-28 09:30:42.404162,1709109042.4041617,136.71875,-36.62109375,-27.83203125,999.51171875,-1.0,0.0,-1.0,0.0,4.m4v,7.0
2024-02-28 09:30:42.408067,1709109042.4080677,89.35546875,-31.25,-26.3671875,814.94140625,-1.0,0.0,-1.0,0.0,4.m4v,7.0
2024-02-28 09:30:42.411973,1709109042.4119737,-642.578125,-34.1796875,-28.80859375,-603.02734375,-1.0,0.0,-1.0,0.0,4.m4v,7.0
2024-02-28 09:30:42.415879,1709109042.4158792,-899.4140625,-38.57421875,-30.76171875,-1000.0,-1.0,0.0,-1.0,0.0,4.m4v,7.0
2024-02-28 09:30:42.419785,1709109042.419785,-431.640625,-24.4140625,-35.64453125,-930.6640625,-1.0,0.0,-1.0,0.0,4.m4v,7.0
2024-02-28 09:30:42.423691,1709109042.4236908,-178.22265625,-25.87890625,-39.0625,-1000.0,-1.0,0.0,-1.0,0.0,4.m4v,7.0
2024-02-28 09:30:42.427597,1709109042.427597,-96.19140625,-32.2265625,-44.43359375,-989.2578125,-1.0,0.0,-1.0,0.0,4.m4v,7.0
2024-02-28 09:30:42.431503,1709109042.4315028,-109.375,-29.296875,-43.9453125,-968.75,-1.0,0.0,-1.0,0.0,4.m4v,7.0
2024-02-28 09:30:42.435409,1709109042.4354086,-180.17578125,-27.83203125,-32.2265625,-1000.0,-1.0,0.0,-1.0,0.0,4.m4v,7.0
2024-02-28 09:30:42.439314,1709109042.4393144,219.7265625,-38.57421875,-32.71484375,-157.2265625,-1.0,0.0,-1.0,0.0,4.m4v,7.0
2024-02-28 09:30:42.443220,1709109042.4432204,797.36328125,-42.48046875,-41.015625,961.42578125,-1.0,0.0,-1.0,0.0,4.m4v,7.0
2024-02-28 09:30:42.447126,1709109042.4471262,612.3046875,-33.203125,-34.66796875,968.26171875,-1.0,0.0,-1.0,0.0,4.m4v,7.0
2024-02-28 09:30:42.451032,1709109042.451032,223.14453125,-28.80859375,-34.66796875,942.87109375,-1.0,0.0,-1.0,0.0,4.m4v,7.0
2024-02-28 09:30:42.454938,1709109042.4549377,31.25,-36.62109375,-35.15625,991.2109375,-1.0,0.0,-1.0,0.0,4.m4v,7.0
2024-02-28 09:30:42.458843,1709109042.4588437,0.48828125,-40.52734375,-37.109375,914.55078125,-1.0,0.0,-1.0,0.0,4.m4v,7.0
2024-02-28 09:30:42.462749,1709109042.4627492,91.796875,-36.62109375,-39.0625,999.51171875,-1.0,0.0,-1.0,0.0,4.m4v,7.0
2024-02-28 09:30:42.466655,1709109042.4666553,42.48046875,-35.64453125,-31.25,772.94921875,-1.0,0.0,-1.0,0.0,4.m4v,7.0
2024-02-28 09:30:42.470561,1709109042.470561,-641.6015625,-37.109375,-30.2734375,-636.23046875,-1.0,0.0,-1.0,0.0,4.m4v,7.0
2024-02-28 09:30:42.474467,1709109042.4744668,-915.52734375,-42.96875,-37.59765625,-1000.0,-1.0,0.0,-1.0,0.0,4.m4v,7.0
2024-02-28 09:30:42.478373,1709109042.4783728,-471.6796875,-39.0625,-47.36328125,-933.10546875,-1.0,0.0,-1.0,0.0,4.m4v,7.0
2024-02-28 09:30:42.482279,1709109042.4822786,-151.3671875,-27.83203125,-39.55078125,-1000.0,-1.0,0.0,-1.0,0.0,4.m4v,7.0
2024-02-28 09:30:42.486184,1709109042.4861844,-34.66796875,-28.80859375,-33.69140625,-979.4921875,-1.0,0.0,-1.0,0.0,4.m4v,7.0
2024-02-28 09:30:42.490090,1709109042.49009,-79.58984375,-34.1796875,-41.50390625,-981.4453125,-1.0,0.0,-1.0,0.0,4.m4v,7.0
2024-02-28 09:30:42.493996,1709109042.493996,-184.5703125,-25.87890625,-33.69140625,-1000.0,-1.0,0.0,-1.0,0.0,4.m4v,7.0
2024-02-28 09:30:42.497902,1709109042.497902,253.41796875,-22.94921875,-32.2265625,38.0859375,-1.0,0.0,-1.0,0.0,4.m4v,7.0
2024-02-28 09:30:42.501808,1709109042.5018077,790.0390625,-30.76171875,-40.0390625,999.51171875,-1.0,0.0,-1.0,0.0,4.m4v,7.0
2024-02-28 09:30:42.505713,1709109042.5057137,571.77734375,-25.390625,-26.3671875,938.96484375,-1.0,0.0,-1.0,0.0,4.m4v,7.0
2024-02-28 09:30:42.509619,1709109042.5096192,207.03125,-23.92578125,-21.97265625,956.0546875,-1.0,0.0,-1.0,0.0,4.m4v,7.0
2024-02-28 09:30:42.513525,1709109042.513525,-4.8828125,-36.1328125,-32.2265625,987.79296875,-1.0,0.0,-1.0,0.0,4.m4v,7.0
2024-02-28 09:30:42.517431,1709109042.517431,-42.96875,-41.9921875,-37.109375,919.43359375,-1.0,0.0,-1.0,0.0,4.m4v,7.0
2024-02-28 09:30:42.521337,1709109042.5213368,51.7578125,-42.96875,-45.8984375,999.51171875,-1.0,0.0,-1.0,0.0,4.m4v,7.0
2024-02-28 09:30:42.525243,1709109042.5252426,39.0625,-44.43359375,-41.50390625,870.60546875,-1.0,0.0,-1.0,0.0,4.m4v,7.0
2024-02-28 09:30:42.642418,1709109042.642418,119.140625,-28.3203125,-24.4140625,923.828125,-1.0,0.0,-1.0,0.0,4.m4v,7.0
2024-02-28 09:30:42.646324,1709109042.6463237,139.6484375,-20.5078125,-27.83203125,999.51171875,-1.0,0.0,-1.0,0.0,4.m4v,7.0
2024-02-28 09:30:42.650229,1709109042.6502297,-228.02734375,-32.71484375,-34.66796875,405.2734375,-1.0,0.0,-1.0,0.0,4.m4v,7.0
2024-02-28 09:30:42.654135,1709109042.6541357,-891.11328125,-50.29296875,-45.41015625,-864.2578125,-1.0,0.0,-1.0,0.0,4.m4v,7.0
2024-02-28 09:30:42.658041,1709109042.6580412,-703.61328125,-51.26953125,-40.52734375,-1000.0,-1.0,0.0,-1.0,0.0,4.m4v,7.0
2024-02-28 09:30:42.661948,1709109042.6619475,-244.62890625,-43.45703125,-33.203125,-955.078125,-1.0,0.0,-1.0,0.0,4.m4v,7.0
2024-02-28 09:30:42.665854,1709109042.6658535,-88.37890625,-31.25,-36.1328125,-1000.0,-1.0,0.0,-1.0,0.0,4.m4v,7.0
2024-02-28 09:30:42.669760,1709109042.6697595,-75.1953125,-17.08984375,-26.85546875,-943.359375,-1.0,0.0,-1.0,0.0,4.m4v,7.0
2024-02-28 09:30:42.673665,1709109042.6736653,-194.82421875,-17.08984375,-22.94921875,-1000.0,-1.0,0.0,-1.0,0.0,4.m4v,7.0
2024-02-28 09:30:42.677571,1709109042.677571,-80.078125,-26.3671875,-42.48046875,-778.80859375,-1.0,0.0,-1.0,0.0,4.m4v,7.0
2024-02-28 09:30:42.681477,1709109042.6814768,660.15625,-28.3203125,-44.43359375,638.671875,-1.0,0.0,-1.0,0.0,4.m4v,7.0
2024-02-28 09:30:42.685383,1709109042.6853828,819.82421875,-29.296875,-30.76171875,999.51171875,-1.0,0.0,-1.0,0.0,4.m4v,7.0
2024-02-28 09:30:42.689289,1709109042.6892886,351.07421875,-35.15625,-32.71484375,902.83203125,-1.0,0.0,-1.0,0.0,4.m4v,7.0
2024-02-28 09:30:42.693194,1709109042.6931944,60.05859375,-42.48046875,-33.69140625,989.2578125,-1.0,0.0,-1.0,0.0,4.m4v,7.0
2024-02-28 09:30:42.697100,1709109042.6971002,-15.625,-45.8984375,-36.1328125,959.9609375,-1.0,0.0,-1.0,0.0,4.m4v,7.0
2024-02-28 09:30:42.701006,1709109042.701006,51.26953125,-44.43359375,-44.43359375,936.5234375,-1.0,0.0,-1.0,0.0,4.m4v,7.0
2024-02-28 09:30:42.704912,1709109042.704912,141.11328125,-41.9921875,-43.45703125,999.51171875,-1.0,0.0,-1.0,0.0,4.m4v,7.0
2024-02-28 09:30:42.708818,1709109042.7088184,-257.8125,-33.203125,-36.62109375,147.94921875,-1.0,0.0,-1.0,0.0,4.m4v,7.0
2024-02-28 09:30:42.712724,1709109042.7127242,-922.36328125,-27.83203125,-35.64453125,-985.3515625,-1.0,0.0,-1.0,0.0,4.m4v,7.0
2024-02-28 09:30:42.716630,1709109042.71663,-711.42578125,-35.15625,-39.55078125,-1000.0,-1.0,0.0,-1.0,0.0,4.m4v,7.0
2024-02-28 09:30:42.720536,1709109042.7205358,-296.875,-38.57421875,-34.66796875,-971.19140625,-1.0,0.0,-1.0,0.0,4.m4v,7.0
2024-02-28 09:30:42.724442,1709109042.7244415,-133.30078125,-34.66796875,-35.64453125,-1000.0,-1.0,0.0,-1.0,0.0,4.m4v,7.0
2024-02-28 09:30:42.728347,1709109042.7283473,-35.64453125,-38.0859375,-37.109375,-964.84375,-1.0,0.0,-1.0,0.0,4.m4v,7.0
2024-02-28 09:30:42.732253,1709109042.7322533,-101.07421875,-42.48046875,-31.73828125,-1000.0,-1.0,0.0,-1.0,0.0,4.m4v,7.0
2024-02-28 09:30:42.736159,1709109042.736159,-187.5,-36.62109375,-41.50390625,-991.2109375,-1.0,0.0,-1.0,0.0,4.m4v,7.0
2024-02-28 09:30:42.740065,1709109042.7400649,362.3046875,-31.73828125,-48.33984375,268.06640625,-1.0,0.0,-1.0,0.0,4.m4v,7.0
2024-02-28 09:30:42.743971,1709109042.7439706,832.03125,-28.80859375,-31.25,999.51171875,-1.0,0.0,-1.0,0.0,4.m4v,7.0
2024-02-28 09:30:42.747876,1709109042.7478764,499.51171875,-30.2734375,-28.80859375,915.52734375,-1.0,0.0,-1.0,0.0,4.m4v,7.0
2024-02-28 09:30:42.751782,1709109042.7517824,146.484375,-42.96875,-44.921875,971.6796875,-1.0,0.0,-1.0,0.0,4.m4v,7.0
2024-02-28 09:30:42.755689,1709109042.755689,22.94921875,-44.921875,-49.8046875,979.4921875,-1.0,0.0,-1.0,0.0,4.m4v,7.0
2024-02-28 09:30:42.759594,1709109042.7595944,21.97265625,-36.1328125,-30.76171875,915.52734375,-1.0,0.0,-1.0,0.0,4.m4v,7.0
2024-02-28 09:30:42.763500,1709109042.7635005,138.18359375,-34.1796875,-13.671875,999.51171875,-1.0,0.0,-1.0,0.0,4.m4v,7.0
2024-02-28 09:30:42.767406,1709109042.7674062,-68.359375,-49.31640625,-21.484375,567.3828125,-1.0,0.0,-1.0,0.0,4.m4v,7.0
2024-02-28 09:30:42.771312,1709109042.771312,-822.75390625,-55.17578125,-29.78515625,-786.1328125,-1.0,0.0,-1.0,0.0,4.m4v,7.0
2024-02-28 09:30:42.775218,1709109042.7752178,-838.8671875,-40.0390625,-27.34375,-1000.0,-1.0,0.0,-1.0,0.0,4.m4v,7.0
2024-02-28 09:30:42.779124,1709109042.7791235,-372.0703125,-27.34375,-26.85546875,-944.3359375,-1.0,0.0,-1.0,0.0,4.m4v,7.0
2024-02-28 09:30:42.783030,1709109042.7830296,-139.16015625,-35.15625,-41.015625,-1000.0,-1.0,0.0,-1.0,0.0,4.m4v,7.0
2024-02-28 09:30:42.786935,1709109042.786935,-74.70703125,-36.62109375,-46.38671875,-1000.0,-1.0,0.0,-1.0,0.0,4.m4v,7.0
2024-02-28 09:30:42.790841,1709109042.790841,-116.69921875,-39.55078125,-39.0625,-955.078125,-1.0,0.0,-1.0,0.0,4.m4v,7.0
2024-02-28 09:30:42.794747,1709109042.7947469,-220.703125,-45.8984375,-32.2265625,-1000.0,-1.0,0.0,-1.0,0.0,4.m4v,7.0
2024-02-28 09:30:42.798653,1709109042.7986526,67.87109375,-36.62109375,-27.34375,-411.62109375,-1.0,0.0,-1.0,0.0,4.m4v,7.0
2024-02-28 09:30:42.802560,1709109042.8025603,749.51171875,-32.2265625,-28.3203125,846.6796875,-1.0,0.0,-1.0,0.0,4.m4v,7.0
2024-02-28 09:30:42.806466,1709109042.806466,641.6015625,-34.66796875,-26.85546875,999.51171875,-1.0,0.0,-1.0,0.0,4.m4v,7.0
2024-02-28 09:30:42.810372,1709109042.810372,200.1953125,-30.76171875,-29.78515625,925.78125,-1.0,0.0,-1.0,0.0,4.m4v,7.0
2024-02-28 09:30:42.814278,1709109042.814278,9.27734375,-27.83203125,-31.25,986.81640625,-1.0,0.0,-1.0,0.0,4.m4v,7.0
2024-02-28 09:30:42.818184,1709109042.8181837,-1.46484375,-29.78515625,-33.203125,956.0546875,-1.0,0.0,-1.0,0.0,4.m4v,7.0
2024-02-28 09:30:42.865054,1709109042.8650537,758.30078125,-32.2265625,-25.87890625,999.51171875,-1.0,0.0,-1.0,0.0,4.m4v,7.0
2024-02-28 09:30:42.868959,1709109042.8689594,381.34765625,-13.671875,-19.53125,906.73828125,-1.0,0.0,-1.0,0.0,4.m4v,7.0
2024-02-28 09:30:42.872865,1709109042.8728652,103.515625,-21.484375,-17.578125,985.83984375,-1.0,0.0,-1.0,0.0,4.m4v,7.0
2024-02-28 09:30:42.876771,1709109042.876771,-24.4140625,-39.0625,-22.94921875,976.07421875,-1.0,0.0,-1.0,0.0,4.m4v,7.0
2024-02-28 09:30:42.880677,1709109042.8806767,27.83203125,-31.25,-27.83203125,917.96875,-1.0,0.0,-1.0,0.0,4.m4v,7.0
2024-02-28 09:30:42.884583,1709109042.8845823,130.37109375,-31.73828125,-33.203125,999.51171875,-1.0,0.0,-1.0,0.0,4.m4v,7.0
2024-02-28 09:30:42.888489,1709109042.8884883,-101.07421875,-33.69140625,-29.296875,533.69140625,-1.0,0.0,-1.0,0.0,4.m4v,7.0
2024-02-28 09:30:42.892394,1709109042.8923943,-807.12890625,-35.15625,-30.76171875,-801.26953125,-1.0,0.0,-1.0,0.0,4.m4v,7.0
2024-02-28 09:30:42.896300,1709109042.8963,-760.7421875,-43.9453125,-34.1796875,-1000.0,-1.0,0.0,-1.0,0.0,4.m4v,7.0
2024-02-28 09:30:42.900206,1709109042.900206,-314.453125,-46.38671875,-29.296875,-946.77734375,-1.0,0.0,-1.0,0.0,4.m4v,7.0
2024-02-28 09:30:42.904112,1709109042.9041116,-128.90625,-40.0390625,-26.85546875,-1000.0,-1.0,0.0,-1.0,0.0,4.m4v,7.0
2024-02-28 09:30:42.908017,1709109042.9080174,-33.69140625,-31.25,-27.34375,-940.91796875,-1.0,0.0,-1.0,0.0,4.m4v,7.0
2024-02-28 09:30:42.911923,1709109042.9119232,-147.94921875,-14.16015625,-35.15625,-1000.0,-1.0,0.0,-1.0,0.0,4.m4v,7.0
2024-02-28 09:30:42.915829,1709109042.9158292,-60.05859375,-16.6015625,-32.2265625,-752.44140625,-1.0,0.0,-1.0,0.0,4.m4v,7.0
2024-02-28 09:30:42.919735,1709109042.919735,625.48828125,-29.296875,-24.4140625,673.33984375,-1.0,0.0,-1.0,0.0,4.m4v,7.0
2024-02-28 09:30:42.923641,1709109042.9236407,727.5390625,-34.1796875,-23.4375,999.51171875,-1.0,0.0,-1.0,0.0,4.m4v,7.0
2024-02-28 09:30:42.927547,1709109042.9275465,345.703125,-41.9921875,-34.1796875,903.80859375,-1.0,0.0,-1.0,0.0,4.m4v,7.0
2024-02-28 09:30:42.931452,1709109042.9314525,102.5390625,-48.33984375,-40.0390625,999.0234375,-1.0,0.0,-1.0,0.0,4.m4v,7.0
2024-02-28 09:30:42.935358,1709109042.9353583,-66.89453125,-42.48046875,-43.45703125,915.52734375,-1.0,0.0,-1.0,0.0,4.m4v,7.0
2024-02-28 09:30:42.939264,1709109042.939264,37.109375,-26.3671875,-47.8515625,999.51171875,-1.0,0.0,-1.0,0.0,4.m4v,7.0
2024-02-28 09:30:42.943170,1709109042.9431696,112.3046875,-26.3671875,-33.69140625,845.21484375,-1.0,0.0,-1.0,0.0,4.m4v,7.0
2024-02-28 09:30:42.947076,1709109042.9470756,-485.3515625,-37.109375,-22.94921875,-577.1484375,-1.0,0.0,-1.0,0.0,4.m4v,7.0
2024-02-28 09:30:42.950981,1709109042.9509814,-824.21875,-40.52734375,-33.203125,-1000.0,-1.0,0.0,-1.0,0.0,4.m4v,7.0
2024-02-28 09:30:42.954887,1709109042.9548872,-517.578125,-35.64453125,-28.80859375,-929.6875,-1.0,0.0,-1.0,0.0,4.m4v,7.0
2024-02-28 09:30:42.958793,1709109042.958793,-234.86328125,-24.90234375,-23.92578125,-1000.0,-1.0,0.0,-1.0,0.0,4.m4v,7.0
2024-02-28 09:30:42.962699,1709109042.9626987,-78.61328125,-20.99609375,-36.1328125,-1000.0,-1.0,0.0,-1.0,0.0,4.m4v,7.0
2024-02-28 09:30:42.966605,1709109042.9666047,-53.22265625,-23.4375,-39.0625,-1000.0,-1.0,0.0,-1.0,0.0,4.m4v,7.0
2024-02-28 09:30:42.970510,1709109042.9705105,-109.375,-28.80859375,-33.203125,-947.75390625,-1.0,0.0,-1.0,0.0,4.m4v,7.0
2024-02-28 09:30:42.974416,1709109042.9744165,-200.68359375,-30.76171875,-26.3671875,-1000.0,-1.0,0.0,-1.0,0.0,4.m4v,7.0
2024-02-28 09:30:42.978322,1709109042.978322,68.359375,-32.2265625,-33.69140625,-580.56640625,-1.0,0.0,-1.0,0.0,4.m4v,7.0
2024-02-28 09:30:42.982228,1709109042.9822278,792.96875,-29.78515625,-37.59765625,762.20703125,-1.0,0.0,-1.0,0.0,4.m4v,7.0
2024-02-28 09:30:42.986134,1709109042.9861338,769.53125,-22.94921875,-31.73828125,999.51171875,-1.0,0.0,-1.0,0.0,4.m4v,7.0
2024-02-28 09:30:42.990041,1709109042.9900403,280.76171875,-27.34375,-31.73828125,915.0390625,-1.0,0.0,-1.0,0.0,4.m4v,7.0
2024-02-28 09:30:42.993946,1709109042.9939463,35.64453125,-33.69140625,-32.71484375,991.2109375,-1.0,0.0,-1.0,0.0,4.m4v,7.0
2024-02-28 09:30:42.997852,1709109042.9978523,-2.9296875,-33.203125,-31.25,942.3828125,-1.0,0.0,-1.0,0.0,4.m4v,7.0
2024-02-28 09:30:43.001758,1709109043.001758,78.61328125,-32.2265625,-32.2265625,965.33203125,-1.0,0.0,-1.0,0.0,4.m4v,7.0
2024-02-28 09:30:43.005664,1709109043.005664,138.671875,-28.80859375,-35.15625,971.6796875,-1.0,0.0,-1.0,0.0,4.m4v,7.0
2024-02-28 09:30:43.009570,1709109043.0095696,-340.33203125,-35.64453125,-38.0859375,-163.57421875,-1.0,0.0,-1.0,0.0,4.m4v,7.0
2024-02-28 09:30:43.013475,1709109043.0134754,-897.4609375,-35.64453125,-31.73828125,-1000.0,-1.0,0.0,-1.0,0.0,4.m4v,7.0
2024-02-28 09:30:43.017381,1709109043.0173814,-614.74609375,-34.1796875,-35.15625,-964.84375,-1.0,0.0,-1.0,0.0,4.m4v,7.0
2024-02-28 09:30:43.021287,1709109043.0212872,-207.51953125,-37.59765625,-40.0390625,-992.1875,-1.0,0.0,-1.0,0.0,4.m4v,7.0
2024-02-28 09:30:43.025193,1709109043.025193,-76.171875,-38.0859375,-37.109375,-1000.0,-1.0,0.0,-1.0,0.0,4.m4v,7.0
2024-02-28 09:30:43.029099,1709109043.0290987,-83.49609375,-31.25,-28.80859375,-945.80078125,-1.0,0.0,-1.0,0.0,4.m4v,7.0
2024-02-28 09:30:43.033005,1709109043.0330043,-228.515625,-33.203125,-39.0625,-1000.0,-1.0,0.0,-1.0,0.0,4.m4v,7.0
2024-02-28 09:30:43.036911,1709109043.0369112,-5.859375,-39.55078125,-50.29296875,-570.80078125,-1.0,0.0,-1.0,0.0,4.m4v,7.0
2024-02-28 09:30:43.040817,1709109043.040817,722.16796875,-43.45703125,-37.109375,777.83203125,-1.0,0.0,-1.0,0.0,4.m4v,7.0
2024-02-28 09:30:43.044723,1709109043.0447228,715.8203125,-46.875,-31.73828125,999.51171875,-1.0,0.0,-1.0,0.0,4.m4v,7.0
2024-02-28 09:30:43.048629,1709109043.0486288,299.31640625,-36.1328125,-33.69140625,915.52734375,-1.0,0.0,-1.0,0.0,4.m4v,7.0
2024-02-28 09:30:43.052535,1709109043.0525346,74.70703125,-26.85546875,-28.80859375,985.3515625,-1.0,0.0,-1.0,0.0,4.m4v,7.0
2024-02-28 09:30:43.056440,1709109043.0564404,20.01953125,-30.76171875,-23.92578125,972.65625,-1.0,0.0,-1.0,0.0,4.m4v,7.0
2024-02-28 09:30:43.060346,1709109043.060346,57.12890625,-28.80859375,-33.69140625,922.36328125,-1.0,0.0,-1.0,0.0,4.m4v,7.0
2024-02-28 09:30:43.064252,1709109043.064252,127.9296875,-24.90234375,-41.9921875,999.51171875,-1.0,0.0,-1.0,0.0,4.m4v,7.0
2024-02-28 09:30:43.068158,1709109043.068158,-115.72265625,-43.9453125,-31.73828125,462.40234375,-1.0,0.0,-1.0,0.0,4.m4v,7.0
2024-02-28 09:30:43.072064,1709109043.0720637,-851.07421875,-53.7109375,-20.01953125,-830.078125,-1.0,0.0,-1.0,0.0,4.m4v,7.0
2024-02-28 09:30:43.075969,1709109043.0759697,-806.15234375,-47.36328125,-26.85546875,-1000.0,-1.0,0.0,-1.0,0.0,4.m4v,7.0
2024-02-28 09:30:43.079875,1709109043.0798752,-313.96484375,-34.66796875,-30.2734375,-951.171875,-1.0,0.0,-1.0,0.0,4.m4v,7.0
2024-02-28 09:30:43.083782,1709109043.0837817,-99.609375,-28.3203125,-24.4140625,-1000.0,-1.0,0.0,-1.0,0.0,4.m4v,7.0
2024-02-28 09:30:43.087687,1709109043.0876875,-42.96875,-31.25,-17.08984375,-986.81640625,-1.0,0.0,-1.0,0.0,4.m4v,7.0
2024-02-28 09:30:43.091594,1709109043.0915935,-159.66796875,-39.55078125,-25.87890625,-971.6796875,-1.0,0.0,-1.0,0.0,4.m4v,7.0
2024-02-28 09:30:43.095499,1709109043.0954993,-231.93359375,-32.2265625,-35.15625,-1000.0,-1.0,0.0,-1.0,0.0,4.m4v,7.0
2024-02-28 09:30:43.099405,1709109043.099405,252.9296875,-19.04296875,-21.484375,-101.5625,-1.0,0.0,-1.0,0.0,4.m4v,7.0
2024-02-28 09:30:43.103311,1709109043.1033108,882.32421875,-19.04296875,-22.4609375,984.86328125,-1.0,0.0,-1.0,0.0,4.m4v,7.0
2024-02-28 09:30:43.107217,1709109043.1072166,641.11328125,-33.203125,-31.73828125,959.47265625,-1.0,0.0,-1.0,0.0,4.m4v,7.0
2024-02-28 09:30:43.111123,1709109043.1111226,176.7578125,-41.9921875,-32.71484375,949.21875,-1.0,0.0,-1.0,0.0,4.m4v,7.0
2024-02-28 09:30:43.115028,1709109043.1150284,15.625,-32.2265625,-38.57421875,979.00390625,-1.0,0.0,-1.0,0.0,4.m4v,7.0
2024-02-28 09:30:43.118934,1709109043.1189342,13.18359375,-29.296875,-41.50390625,922.36328125,-1.0,0.0,-1.0,0.0,4.m4v,7.0
2024-02-28 09:30:43.122840,1709109043.12284,144.04296875,-29.78515625,-35.64453125,999.51171875,-1.0,0.0,-1.0,0.0,4.m4v,7.0
2024-02-28 09:30:43.126746,1709109043.1267457,-52.734375,-30.76171875,-27.83203125,409.66796875,-1.0,0.0,-1.0,0.0,4.m4v,7.0
2024-02-28 09:30:43.130652,1709109043.1306522,-746.09375,-32.71484375,-35.15625,-865.234375,-1.0,0.0,-1.0,0.0,4.m4v,7.0
2024-02-28 09:30:43.134558,1709109043.134558,-752.44140625,-30.76171875,-45.41015625,-1000.0,-1.0,0.0,-1.0,0.0,4.m4v,7.0
2024-02-28 09:30:43.286885,1709109043.2868853,526.85546875,-33.69140625,-34.1796875,937.98828125,-1.0,0.0,-1.0,0.0,4.m4v,7.0
2024-02-28 09:30:43.310320,1709109043.31032,-729.00390625,-40.0390625,-44.43359375,-648.4375,-1.0,0.0,-1.0,0.0,4.m4v,7.0
2024-02-28 09:30:43.345472,1709109043.345472,641.11328125,-28.3203125,-45.8984375,963.8671875,-1.0,0.0,-1.0,0.0,4.m4v,7.0
2024-02-28 09:30:43.380625,1709109043.3806255,-262.6953125,-37.109375,-31.25,-1000.0,-1.0,0.0,-1.0,0.0,4.m4v,7.0
2024-02-28 09:30:43.404061,1709109043.4040606,822.265625,-33.203125,-38.57421875,999.51171875,-1.0,0.0,-1.0,0.0,4.m4v,7.0
2024-02-28 09:30:43.474367,1709109043.474367,15.625,-32.2265625,-38.57421875,981.93359375,-1.0,0.0,-1.0,0.0,4.m4v,7.0
2024-02-28 09:30:43.486084,1709109043.4860842,134.27734375,-47.36328125,-42.48046875,939.453125,-1.0,0.0,-1.0,0.0,4.m4v,7.0
2024-02-28 09:30:43.493896,1709109043.4938958,-962.890625,-29.78515625,-35.64453125,-1000.0,-1.0,0.0,-1.0,0.0,4.m4v,7.0
2024-02-28 09:30:43.501708,1709109043.5017076,-210.44921875,-37.59765625,-41.015625,-1000.0,-1.0,0.0,-1.0,0.0,4.m4v,7.0
2024-02-28 09:30:43.509520,1709109043.5095196,-125.9765625,-40.52734375,-49.31640625,-958.49609375,-1.0,0.0,-1.0,0.0,4.m4v,7.0
2024-02-28 09:30:43.517331,1709109043.5173314,122.0703125,-30.76171875,-34.66796875,-270.5078125,-1.0,0.0,-1.0,0.0,4.m4v,7.0
2024-02-28 09:30:43.525143,1709109043.525143,658.69140625,-37.59765625,-41.015625,982.421875,-1.0,0.0,-1.0,0.0,4.m4v,7.0
2024-02-28 09:30:43.532955,1709109043.5329547,49.8046875,-26.3671875,-39.55078125,989.74609375,-1.0,0.0,-1.0,0.0,4.m4v,7.0
2024-02-28 09:30:43.540766,1709109043.5407662,53.7109375,-33.69140625,-24.4140625,980.46875,-1.0,0.0,-1.0,0.0,4.m4v,7.0
2024-02-28 09:30:43.548578,1709109043.5485778,-424.8046875,-30.2734375,-39.0625,-326.66015625,-1.0,0.0,-1.0,0.0,4.m4v,7.0
2024-02-28 09:30:43.657941,1709109043.657941,25.390625,-31.25,-26.85546875,977.05078125,-1.0,0.0,-1.0,0.0,4.m4v,7.0
2024-02-28 09:30:43.661847,1709109043.661847,70.80078125,-35.15625,-35.64453125,916.015625,-1.0,0.0,-1.0,0.0,4.m4v,7.0
2024-02-28 09:30:43.669659,1709109043.669659,-111.81640625,-42.96875,-52.734375,546.875,-1.0,0.0,-1.0,0.0,4.m4v,7.0
2024-02-28 09:30:43.677470,1709109043.6774702,-808.10546875,-44.43359375,-32.71484375,-1000.0,-1.0,0.0,-1.0,0.0,4.m4v,7.0
2024-02-28 09:30:43.685282,1709109043.685282,-136.23046875,-38.57421875,-43.9453125,-1000.0,-1.0,0.0,-1.0,0.0,4.m4v,7.0
2024-02-28 09:30:43.693093,1709109043.6930933,-284.66796875,-43.9453125,-31.25,-1000.0,-1.0,0.0,-1.0,0.0,4.m4v,7.0
2024-02-28 09:30:43.700905,1709109043.7009048,645.99609375,-29.78515625,-35.15625,652.83203125,-1.0,0.0,-1.0,0.0,4.m4v,7.0
2024-02-28 09:30:43.708717,1709109043.7087166,309.5703125,-25.87890625,-37.109375,902.83203125,-1.0,0.0,-1.0,0.0,4.m4v,7.0
2024-02-28 09:30:43.716528,1709109043.7165282,62.5,-24.4140625,-34.1796875,953.125,-1.0,0.0,-1.0,0.0,4.m4v,7.0
2024-02-28 09:30:43.724340,1709109043.7243395,149.4140625,-38.57421875,-33.69140625,999.51171875,-1.0,0.0,-1.0,0.0,4.m4v,7.0
2024-02-28 09:30:43.732152,1709109043.7321515,-927.734375,-36.1328125,-43.45703125,-1000.0,-1.0,0.0,-1.0,0.0,4.m4v,7.0
2024-02-28 09:30:43.739964,1709109043.7399642,-282.71484375,-24.90234375,-30.2734375,-981.4453125,-1.0,0.0,-1.0,0.0,4.m4v,7.0
2024-02-28 09:30:43.743870,1709109043.74387,-100.5859375,-38.0859375,-37.59765625,-1000.0,-1.0,0.0,-1.0,0.0,4.m4v,7.0
2024-02-28 09:30:43.747776,1709109043.7477758,-51.26953125,-43.45703125,-40.52734375,-957.51953125,-1.0,0.0,-1.0,0.0,4.m4v,7.0
2024-02-28 09:30:43.751682,1709109043.7516816,-182.12890625,-30.76171875,-43.45703125,-1000.0,-1.0,0.0,-1.0,0.0,4.m4v,7.0
2024-02-28 09:30:43.755587,1709109043.755587,-214.84375,-34.66796875,-36.62109375,-974.609375,-1.0,0.0,-1.0,0.0,4.m4v,7.0
2024-02-28 09:30:43.759493,1709109043.7594934,429.19921875,-41.50390625,-25.87890625,375.9765625,-1.0,0.0,-1.0,0.0,4.m4v,7.0
2024-02-28 09:30:43.763399,1709109043.7633991,836.42578125,-45.8984375,-29.78515625,999.51171875,-1.0,0.0,-1.0,0.0,4.m4v,7.0
2024-02-28 09:30:43.767305,1709109043.767305,444.82421875,-42.48046875,-33.69140625,903.3203125,-1.0,0.0,-1.0,0.0,4.m4v,7.0
2024-02-28 09:30:43.771211,1709109043.771211,109.86328125,-37.59765625,-36.62109375,977.5390625,-1.0,0.0,-1.0,0.0,4.m4v,7.0
2024-02-28 09:30:43.775116,1709109043.7751164,-26.3671875,-36.1328125,-34.1796875,979.00390625,-1.0,0.0,-1.0,0.0,4.m4v,7.0
2024-02-28 09:30:43.779022,1709109043.7790225,20.99609375,-29.78515625,-18.5546875,939.453125,-1.0,0.0,-1.0,0.0,4.m4v,7.0
2024-02-28 09:30:43.782928,1709109043.7829282,109.86328125,-30.76171875,-21.484375,967.7734375,-1.0,0.0,-1.0,0.0,4.m4v,7.0
2024-02-28 09:30:43.786835,1709109043.7868347,140.13671875,-31.25,-38.0859375,982.91015625,-1.0,0.0,-1.0,0.0,4.m4v,7.0
2024-02-28 09:30:43.790741,1709109043.7907407,-420.8984375,-35.64453125,-36.62109375,-218.75,-1.0,0.0,-1.0,0.0,4.m4v,7.0
2024-02-28 09:30:43.794647,1709109043.7946465,-913.57421875,-41.9921875,-27.83203125,-1000.0,-1.0,0.0,-1.0,0.0,4.m4v,7.0
2024-02-28 09:30:43.798552,1709109043.7985525,-552.24609375,-40.52734375,-27.83203125,-953.61328125,-1.0,0.0,-1.0,0.0,4.m4v,7.0
2024-02-28 09:30:43.950881,1709109043.9508808,183.10546875,-35.15625,-30.2734375,944.82421875,-1.0,0.0,-1.0,0.0,4.m4v,7.0
2024-02-28 09:30:43.954787,1709109043.9547863,23.4375,-34.66796875,-28.80859375,988.76953125,-1.0,0.0,-1.0,0.0,4.m4v,7.0
2024-02-28 09:30:43.958692,1709109043.9586923,-4.39453125,-36.62109375,-33.69140625,912.59765625,-1.0,0.0,-1.0,0.0,4.m4v,7.0
2024-02-28 09:30:44.060244,1709109044.0602438,617.1875,-38.0859375,-35.15625,619.140625,-1.0,0.0,-1.0,0.0,4.m4v,7.0
2024-02-28 09:30:44.064150,1709109044.0641496,827.1484375,-33.69140625,-39.55078125,999.51171875,-1.0,0.0,-1.0,0.0,4.m4v,7.0
2024-02-28 09:30:44.068055,1709109044.0680552,382.32421875,-31.73828125,-30.2734375,899.90234375,-1.0,0.0,-1.0,0.0,4.m4v,7.0
2024-02-28 09:30:44.071961,1709109044.0719612,90.8203125,-36.62109375,-28.3203125,984.86328125,-1.0,0.0,-1.0,0.0,4.m4v,7.0
2024-02-28 09:30:44.075867,1709109044.075867,-28.80859375,-38.57421875,-31.73828125,977.05078125,-1.0,0.0,-1.0,0.0,4.m4v,7.0
2024-02-28 09:30:44.079773,1709109044.0797727,45.8984375,-33.69140625,-32.71484375,948.2421875,-1.0,0.0,-1.0,0.0,4.m4v,7.0
2024-02-28 09:30:44.083678,1709109044.0836785,101.5625,-39.0625,-32.2265625,953.61328125,-1.0,0.0,-1.0,0.0,4.m4v,7.0
2024-02-28 09:30:44.087584,1709109044.0875845,104.00390625,-36.1328125,-32.71484375,999.51171875,-1.0,0.0,-1.0,0.0,4.m4v,7.0
2024-02-28 09:30:44.091490,1709109044.09149,-405.76171875,-33.69140625,-38.57421875,-79.1015625,-1.0,0.0,-1.0,0.0,4.m4v,7.0
2024-02-28 09:30:44.095396,1709109044.095396,-937.98828125,-35.15625,-33.69140625,-1000.0,-1.0,0.0,-1.0,0.0,4.m4v,7.0
2024-02-28 09:30:44.099302,1709109044.0993018,-566.89453125,-26.3671875,-29.78515625,-969.7265625,-1.0,0.0,-1.0,0.0,4.m4v,7.0
2024-02-28 09:30:44.103208,1709109044.1032076,-169.43359375,-23.92578125,-32.71484375,-992.67578125,-1.0,0.0,-1.0,0.0,4.m4v,7.0
2024-02-28 09:30:44.107113,1709109044.1071134,-105.46875,-33.203125,-33.69140625,-991.69921875,-1.0,0.0,-1.0,0.0,4.m4v,7.0
2024-02-28 09:30:44.111019,1709109044.1110191,-160.64453125,-33.203125,-39.55078125,-971.6796875,-1.0,0.0,-1.0,0.0,4.m4v,7.0
2024-02-28 09:30:44.114926,1709109044.114926,-221.19140625,-28.3203125,-38.0859375,-1000.0,-1.0,0.0,-1.0,0.0,4.m4v,7.0
2024-02-28 09:30:44.118832,1709109044.118832,209.47265625,-28.3203125,-27.83203125,-104.4921875,-1.0,0.0,-1.0,0.0,4.m4v,7.0
2024-02-28 09:30:44.122738,1709109044.122738,817.3828125,-24.90234375,-25.87890625,982.91015625,-1.0,0.0,-1.0,0.0,4.m4v,7.0
2024-02-28 09:30:44.126644,1709109044.1266437,602.05078125,-28.80859375,-29.78515625,959.9609375,-1.0,0.0,-1.0,0.0,4.m4v,7.0
2024-02-28 09:30:44.130549,1709109044.1305494,216.796875,-29.296875,-32.71484375,946.2890625,-1.0,0.0,-1.0,0.0,4.m4v,7.0
2024-02-28 09:30:44.134455,1709109044.1344552,43.9453125,-27.83203125,-37.109375,989.2578125,-1.0,0.0,-1.0,0.0,4.m4v,7.0
2024-02-28 09:30:44.138361,1709109044.138361,-51.26953125,-27.83203125,-35.64453125,919.43359375,-1.0,0.0,-1.0,0.0,4.m4v,7.0
2024-02-28 09:30:44.142267,1709109044.1422668,49.8046875,-30.76171875,-31.73828125,999.51171875,-1.0,0.0,-1.0,0.0,4.m4v,7.0
2024-02-28 09:30:44.146173,1709109044.1461728,85.9375,-32.2265625,-30.2734375,827.63671875,-1.0,0.0,-1.0,0.0,4.m4v,7.0
2024-02-28 09:30:44.150079,1709109044.1500783,-577.1484375,-31.25,-27.83203125,-561.5234375,-1.0,0.0,-1.0,0.0,4.m4v,7.0
2024-02-28 09:30:44.153984,1709109044.1539843,-933.10546875,-36.62109375,-39.0625,-1000.0,-1.0,0.0,-1.0,0.0,4.m4v,7.0
2024-02-28 09:30:44.157890,1709109044.15789,-485.3515625,-37.109375,-51.26953125,-933.10546875,-1.0,0.0,-1.0,0.0,4.m4v,7.0
2024-02-28 09:30:44.161797,1709109044.1617968,-187.5,-43.45703125,-43.45703125,-1000.0,-1.0,0.0,-1.0,0.0,4.m4v,7.0
2024-02-28 09:30:44.165703,1709109044.1657026,-85.9375,-42.96875,-37.59765625,-999.0234375,-1.0,0.0,-1.0,0.0,4.m4v,7.0
2024-02-28 09:30:44.169608,1709109044.1696084,-81.54296875,-33.69140625,-30.76171875,-954.1015625,-1.0,0.0,-1.0,0.0,4.m4v,7.0
2024-02-28 09:30:44.173514,1709109044.1735144,-224.609375,-27.34375,-24.90234375,-1000.0,-1.0,0.0,-1.0,0.0,4.m4v,7.0
2024-02-28 09:30:44.989841,1709109044.989841,-465.33203125,-39.55078125,-36.62109375,-326.171875,-1.0,0.0,-1.0,0.0,4.m4v,7.0
2024-02-28 09:30:44.993747,1709109044.993747,-935.05859375,-36.1328125,-45.41015625,-1000.0,-1.0,0.0,-1.0,0.0,4.m4v,7.0
2024-02-28 09:30:44.997653,1709109044.9976528,-571.77734375,-34.66796875,-35.15625,-942.87109375,-1.0,0.0,-1.0,0.0,4.m4v,7.0
2024-02-28 09:30:45.001559,1709109045.0015583,-198.73046875,-36.62109375,-25.87890625,-1000.0,-1.0,0.0,-1.0,0.0,4.m4v,7.0
2024-02-28 09:30:45.005465,1709109045.0054648,-58.10546875,-35.15625,-22.4609375,-992.67578125,-1.0,0.0,-1.0,0.0,4.m4v,7.0
2024-02-28 09:30:45.009371,1709109045.0093706,-127.44140625,-33.69140625,-20.99609375,-964.84375,-1.0,0.0,-1.0,0.0,4.m4v,7.0
2024-02-28 09:30:45.013277,1709109045.0132766,-239.2578125,-36.62109375,-20.01953125,-1000.0,-1.0,0.0,-1.0,0.0,4.m4v,7.0
2024-02-28 09:30:45.017182,1709109045.0171824,145.99609375,-40.0390625,-21.97265625,-190.4296875,-1.0,0.0,-1.0,0.0,4.m4v,7.0
2024-02-28 09:30:45.021088,1709109045.021088,788.57421875,-25.87890625,-32.2265625,954.58984375,-1.0,0.0,-1.0,0.0,4.m4v,7.0
2024-02-28 09:30:45.024994,1709109045.024994,679.6875,-18.06640625,-32.71484375,972.16796875,-1.0,0.0,-1.0,0.0,4.m4v,7.0
2024-02-28 09:30:45.337462,1709109045.3374624,12.6953125,-37.109375,-40.52734375,948.2421875,-1.0,0.0,-1.0,0.0,4.m4v,7.0
2024-02-28 09:30:45.341368,1709109045.3413682,111.81640625,-39.55078125,-45.8984375,953.125,-1.0,0.0,-1.0,0.0,4.m4v,7.0
2024-02-28 09:30:45.345274,1709109045.3452742,134.765625,-40.0390625,-38.0859375,999.51171875,-1.0,0.0,-1.0,0.0,4.m4v,7.0
2024-02-28 09:30:45.349180,1709109045.34918,-372.0703125,-41.9921875,-29.296875,-76.66015625,-1.0,0.0,-1.0,0.0,4.m4v,7.0
2024-02-28 09:30:45.353086,1709109045.3530858,-902.83203125,-34.1796875,-35.64453125,-1000.0,-1.0,0.0,-1.0,0.0,4.m4v,7.0
2024-02-28 09:30:45.356992,1709109045.3569915,-609.86328125,-25.87890625,-36.1328125,-969.7265625,-1.0,0.0,-1.0,0.0,4.m4v,7.0
2024-02-28 09:30:45.360897,1709109045.3608973,-241.69921875,-33.69140625,-33.69140625,-988.28125,-1.0,0.0,-1.0,0.0,4.m4v,7.0
2024-02-28 09:30:45.364803,1709109045.364803,-151.85546875,-33.203125,-37.59765625,-1000.0,-1.0,0.0,-1.0,0.0,4.m4v,7.0
2024-02-28 09:30:45.368709,1709109045.368709,-132.8125,-24.90234375,-40.0390625,-945.3125,-1.0,0.0,-1.0,0.0,4.m4v,7.0
2024-02-28 09:30:45.372615,1709109045.3726149,-221.19140625,-21.484375,-35.64453125,-1000.0,-1.0,0.0,-1.0,0.0,4.m4v,7.0
2024-02-28 09:30:45.376521,1709109045.3765206,-67.3828125,-29.296875,-44.921875,-626.953125,-1.0,0.0,-1.0,0.0,4.m4v,7.0
2024-02-28 09:30:45.380428,1709109045.3804278,646.484375,-31.25,-48.828125,738.28125,-1.0,0.0,-1.0,0.0,4.m4v,7.0
2024-02-28 09:30:45.384334,1709109045.3843336,716.30859375,-35.64453125,-40.52734375,999.51171875,-1.0,0.0,-1.0,0.0,4.m4v,7.0
2024-02-28 09:30:45.388239,1709109045.3882394,273.92578125,-48.828125,-40.0390625,912.109375,-1.0,0.0,-1.0,0.0,4.m4v,7.0
2024-02-28 09:30:45.392145,1709109045.3921452,40.0390625,-41.50390625,-37.59765625,983.88671875,-1.0,0.0,-1.0,0.0,4.m4v,7.0
2024-02-28 09:30:45.396051,1709109045.396051,-7.32421875,-33.203125,-27.34375,981.93359375,-1.0,0.0,-1.0,0.0,4.m4v,7.0
2024-02-28 09:30:45.399957,1709109045.399957,57.12890625,-33.203125,-20.99609375,911.1328125,-1.0,0.0,-1.0,0.0,4.m4v,7.0
2024-02-28 09:30:45.403863,1709109045.4038627,165.0390625,-29.296875,-23.92578125,999.51171875,-1.0,0.0,-1.0,0.0,4.m4v,7.0
2024-02-28 09:30:45.407768,1709109045.4077685,-38.0859375,-24.90234375,-26.3671875,684.5703125,-1.0,0.0,-1.0,0.0,4.m4v,7.0
2024-02-28 09:30:45.411674,1709109045.4116745,-815.4296875,-26.3671875,-38.57421875,-726.07421875,-1.0,0.0,-1.0,0.0,4.m4v,7.0
2024-02-28 09:30:45.415580,1709109045.41558,-838.8671875,-20.01953125,-41.015625,-1000.0,-1.0,0.0,-1.0,0.0,4.m4v,7.0
2024-02-28 09:30:45.419486,1709109045.4194858,-362.79296875,-20.99609375,-38.57421875,-936.5234375,-1.0,0.0,-1.0,0.0,4.m4v,7.0
2024-02-28 09:30:45.423392,1709109045.4233918,-189.453125,-32.2265625,-36.62109375,-1000.0,-1.0,0.0,-1.0,0.0,4.m4v,7.0
2024-02-28 09:30:45.427298,1709109045.4272978,-84.47265625,-42.48046875,-35.64453125,-959.9609375,-1.0,0.0,-1.0,0.0,4.m4v,7.0
2024-02-28 09:30:45.431204,1709109045.4312036,-136.23046875,-40.0390625,-45.41015625,-1000.0,-1.0,0.0,-1.0,0.0,4.m4v,7.0
2024-02-28 09:30:45.435110,1709109045.4351096,-172.8515625,-27.34375,-41.015625,-976.5625,-1.0,0.0,-1.0,0.0,4.m4v,7.0
2024-02-28 09:30:45.439015,1709109045.4390154,412.59765625,-29.78515625,-33.69140625,341.30859375,-1.0,0.0,-1.0,0.0,4.m4v,7.0
2024-02-28 09:30:45.442921,1709109045.4429212,829.58984375,-32.2265625,-31.73828125,999.51171875,-1.0,0.0,-1.0,0.0,4.m4v,7.0
2024-02-28 09:30:45.446827,1709109045.446827,512.6953125,-25.87890625,-34.1796875,907.71484375,-1.0,0.0,-1.0,0.0,4.m4v,7.0
2024-02-28 09:30:45.450733,1709109045.4507327,197.265625,-20.99609375,-31.25,977.05078125,-1.0,0.0,-1.0,0.0,4.m4v,7.0
2024-02-28 09:30:45.454639,1709109045.4546387,34.66796875,-29.78515625,-31.25,974.609375,-1.0,0.0,-1.0,0.0,4.m4v,7.0
2024-02-28 09:30:45.458544,1709109045.4585445,35.15625,-38.0859375,-26.85546875,919.921875,-1.0,0.0,-1.0,0.0,4.m4v,7.0
2024-02-28 09:30:45.462450,1709109045.4624505,181.15234375,-33.203125,-22.94921875,999.51171875,-1.0,0.0,-1.0,0.0,4.m4v,7.0
2024-02-28 09:30:45.466356,1709109045.466356,-57.6171875,-34.66796875,-30.2734375,461.9140625,-1.0,0.0,-1.0,0.0,4.m4v,7.0
2024-02-28 09:30:45.470262,1709109045.4702618,-804.6875,-35.15625,-30.76171875,-841.796875,-1.0,0.0,-1.0,0.0,4.m4v,7.0
2024-02-28 09:30:45.474168,1709109045.4741678,-772.4609375,-30.76171875,-32.71484375,-1000.0,-1.0,0.0,-1.0,0.0,4.m4v,7.0
2024-02-28 09:30:45.478074,1709109045.4780736,-349.12109375,-27.83203125,-38.57421875,-951.171875,-1.0,0.0,-1.0,0.0,4.m4v,7.0
2024-02-28 09:30:45.481979,1709109045.4819794,-152.34375,-27.83203125,-39.55078125,-1000.0,-1.0,0.0,-1.0,0.0,4.m4v,7.0
2024-02-28 09:30:45.485885,1709109045.4858854,-12.20703125,-23.4375,-31.25,-954.1015625,-1.0,0.0,-1.0,0.0,4.m4v,7.0
2024-02-28 09:30:45.489791,1709109045.4897912,-122.55859375,-38.0859375,-34.1796875,-1000.0,-1.0,0.0,-1.0,0.0,4.m4v,7.0
2024-02-28 09:30:45.493697,1709109045.493697,-202.1484375,-39.0625,-39.55078125,-956.54296875,-1.0,0.0,-1.0,0.0,4.m4v,7.0
2024-02-28 09:30:45.497603,1709109045.4976027,444.3359375,-23.92578125,-27.34375,425.29296875,-1.0,0.0,-1.0,0.0,4.m4v,7.0
2024-02-28 09:30:45.544473,1709109045.5444727,-19.53125,-25.390625,-34.66796875,-1000.0,-1.0,0.0,-1.0,0.0,4.m4v,7.0
2024-02-28 09:30:45.552284,1709109045.5522842,-254.8828125,-27.34375,-42.48046875,-1000.0,-1.0,0.0,-1.0,0.0,4.m4v,7.0
2024-02-28 09:30:45.560096,1709109045.560096,651.85546875,-18.5546875,-17.578125,660.64453125,-1.0,0.0,-1.0,0.0,4.m4v,7.0
2024-02-28 09:30:45.567907,1709109045.567907,401.3671875,-35.64453125,-28.3203125,903.80859375,-1.0,0.0,-1.0,0.0,4.m4v,7.0
2024-02-28 09:30:45.575719,1709109045.5757189,11.23046875,-25.87890625,-26.3671875,975.09765625,-1.0,0.0,-1.0,0.0,4.m4v,7.0
2024-02-28 09:30:45.583531,1709109045.583531,165.0390625,-30.76171875,-38.57421875,999.51171875,-1.0,0.0,-1.0,0.0,4.m4v,7.0
2024-02-28 09:30:45.591342,1709109045.5913422,-763.18359375,-41.50390625,-38.57421875,-778.80859375,-1.0,0.0,-1.0,0.0,4.m4v,7.0
2024-02-28 09:30:45.599154,1709109045.5991538,-359.375,-23.4375,-29.296875,-945.80078125,-1.0,0.0,-1.0,0.0,4.m4v,7.0
2024-02-28 09:30:45.606966,1709109045.6069655,-124.0234375,-31.25,-22.94921875,-974.609375,-1.0,0.0,-1.0,0.0,4.m4v,7.0
2024-02-28 09:30:45.614778,1709109045.6147785,-200.1953125,-40.0390625,-26.3671875,-1000.0,-1.0,0.0,-1.0,0.0,4.m4v,7.0
2024-02-28 09:30:45.622590,1709109045.6225898,795.41015625,-32.2265625,-41.50390625,999.51171875,-1.0,0.0,-1.0,0.0,4.m4v,7.0
2024-02-28 09:30:45.630401,1709109045.6304014,148.4375,-27.83203125,-32.71484375,962.40234375,-1.0,0.0,-1.0,0.0,4.m4v,7.0
2024-02-28 09:30:45.638213,1709109045.6382132,64.94140625,-17.08984375,-36.62109375,917.48046875,-1.0,0.0,-1.0,0.0,4.m4v,7.0
2024-02-28 09:30:45.646025,1709109045.6460247,-47.36328125,-40.0390625,-37.59765625,520.5078125,-1.0,0.0,-1.0,0.0,4.m4v,7.0
2024-02-28 09:30:45.653836,1709109045.6538365,-800.78125,-29.296875,-38.57421875,-1000.0,-1.0,0.0,-1.0,0.0,4.m4v,7.0
2024-02-28 09:30:45.661649,1709109045.661649,-154.78515625,-33.69140625,-38.0859375,-1000.0,-1.0,0.0,-1.0,0.0,4.m4v,7.0
2024-02-28 09:30:45.669461,1709109045.6694603,-114.2578125,-34.1796875,-41.9921875,-1000.0,-1.0,0.0,-1.0,0.0,4.m4v,7.0
2024-02-28 09:30:45.677272,1709109045.677272,294.43359375,-28.3203125,-30.76171875,221.6796875,-1.0,0.0,-1.0,0.0,4.m4v,7.0
2024-02-28 09:30:46.485783,1709109046.485783,107.421875,-23.92578125,-35.15625,831.0546875,-1.0,0.0,-1.0,0.0,4.m4v,7.0
2024-02-28 09:30:46.489689,1709109046.4896889,-623.53515625,-28.80859375,-42.96875,-591.30859375,-1.0,0.0,-1.0,0.0,4.m4v,7.0
2024-02-28 09:30:46.493595,1709109046.4935946,-892.578125,-40.0390625,-32.71484375,-1000.0,-1.0,0.0,-1.0,0.0,4.m4v,7.0
2024-02-28 09:30:46.497500,1709109046.4975004,-480.95703125,-37.59765625,-23.4375,-930.17578125,-1.0,0.0,-1.0,0.0,4.m4v,7.0
2024-02-28 09:30:46.501406,1709109046.5014064,-199.70703125,-23.92578125,-28.80859375,-1000.0,-1.0,0.0,-1.0,0.0,4.m4v,7.0
2024-02-28 09:30:46.505312,1709109046.5053124,-35.64453125,-28.3203125,-31.73828125,-992.1875,-1.0,0.0,-1.0,0.0,4.m4v,7.0
2024-02-28 09:30:46.595147,1709109046.595147,0.9765625,-27.34375,-20.5078125,966.30859375,-1.0,0.0,-1.0,0.0,4.m4v,7.0
2024-02-28 09:30:46.602959,1709109046.602959,155.76171875,-28.3203125,-18.06640625,999.51171875,-1.0,0.0,-1.0,0.0,4.m4v,7.0
2024-02-28 09:30:46.610770,1709109046.6107702,-833.0078125,-38.57421875,-33.203125,-921.875,-1.0,0.0,-1.0,0.0,4.m4v,7.0
2024-02-28 09:30:46.618582,1709109046.6185818,-275.87890625,-22.94921875,-28.3203125,-961.9140625,-1.0,0.0,-1.0,0.0,4.m4v,7.0
2024-02-28 09:30:46.626394,1709109046.6263936,-59.5703125,-27.34375,-28.80859375,-948.2421875,-1.0,0.0,-1.0,0.0,4.m4v,7.0
2024-02-28 09:30:46.634205,1709109046.634205,-170.41015625,-23.92578125,-38.57421875,-911.62109375,-1.0,0.0,-1.0,0.0,4.m4v,7.0
2024-02-28 09:30:46.642017,1709109046.642017,877.44140625,-19.04296875,-27.34375,999.51171875,-1.0,0.0,-1.0,0.0,4.m4v,7.0
2024-02-28 09:30:46.649828,1709109046.6498284,176.26953125,-30.2734375,-44.43359375,982.421875,-1.0,0.0,-1.0,0.0,4.m4v,7.0
2024-02-28 09:30:46.657640,1709109046.65764,19.53125,-30.2734375,-20.99609375,963.37890625,-1.0,0.0,-1.0,0.0,4.m4v,7.0
2024-02-28 09:30:46.665452,1709109046.6654518,165.0390625,-28.3203125,-25.390625,999.51171875,-1.0,0.0,-1.0,0.0,4.m4v,7.0
2024-02-28 09:30:46.673263,1709109046.6732633,-916.50390625,-35.15625,-29.296875,-978.02734375,-1.0,0.0,-1.0,0.0,4.m4v,7.0
2024-02-28 09:30:46.681075,1709109046.6810749,-225.09765625,-29.78515625,-45.8984375,-968.75,-1.0,0.0,-1.0,0.0,4.m4v,7.0
2024-02-28 09:30:46.688887,1709109046.6888866,-112.3046875,-35.64453125,-33.69140625,-943.84765625,-1.0,0.0,-1.0,0.0,4.m4v,7.0
2024-02-28 09:30:46.696698,1709109046.696698,-100.09765625,-33.203125,-22.94921875,-815.4296875,-1.0,0.0,-1.0,0.0,4.m4v,7.0
2024-02-28 09:30:46.704509,1709109046.7045095,830.56640625,-26.3671875,-42.96875,999.51171875,-1.0,0.0,-1.0,0.0,4.m4v,7.0
2024-02-28 09:30:46.712321,1709109046.712321,90.8203125,-34.66796875,-29.78515625,999.51171875,-1.0,0.0,-1.0,0.0,4.m4v,7.0
2024-02-28 09:30:46.720133,1709109046.7201328,109.375,-27.83203125,-42.96875,999.51171875,-1.0,0.0,-1.0,0.0,4.m4v,7.0
2024-02-28 09:30:46.727944,1709109046.7279444,-638.18359375,-40.0390625,-46.875,-662.109375,-1.0,0.0,-1.0,0.0,4.m4v,7.0
2024-02-28 09:30:46.735756,1709109046.7357562,-499.0234375,-36.62109375,-26.3671875,-930.6640625,-1.0,0.0,-1.0,0.0,4.m4v,7.0
2024-02-28 09:30:46.743569,1709109046.743569,-31.73828125,-31.25,-29.78515625,-1000.0,-1.0,0.0,-1.0,0.0,4.m4v,7.0
2024-02-28 09:30:46.751380,1709109046.7513804,-221.6796875,-38.57421875,-28.80859375,-1000.0,-1.0,0.0,-1.0,0.0,4.m4v,7.0
2024-02-28 09:30:46.759192,1709109046.759192,607.421875,-41.50390625,-34.1796875,560.05859375,-1.0,0.0,-1.0,0.0,4.m4v,7.0
2024-02-28 09:30:46.767004,1709109046.7670038,402.34375,-27.83203125,-28.3203125,898.92578125,-1.0,0.0,-1.0,0.0,4.m4v,7.0
2024-02-28 09:30:46.774815,1709109046.774815,4.39453125,-33.69140625,-25.87890625,977.05078125,-1.0,0.0,-1.0,0.0,4.m4v,7.0
2024-02-28 09:30:46.782627,1709109046.782627,145.01953125,-28.3203125,-39.0625,999.51171875,-1.0,0.0,-1.0,0.0,4.m4v,7.0
2024-02-28 09:30:46.790439,1709109046.7904394,-796.875,-39.55078125,-29.78515625,-775.87890625,-1.0,0.0,-1.0,0.0,4.m4v,7.0
2024-02-28 09:30:46.798251,1709109046.7982512,-361.328125,-39.55078125,-23.4375,-943.84765625,-1.0,0.0,-1.0,0.0,4.m4v,7.0
2024-02-28 09:30:47.376317,1709109047.3763173,-25.87890625,-43.9453125,-34.1796875,921.875,-1.0,0.0,-1.0,0.0,4.m4v,7.0
2024-02-28 09:30:47.380223,1709109047.380223,26.3671875,-37.109375,-21.484375,999.51171875,-1.0,0.0,-1.0,0.0,4.m4v,7.0
2024-02-28 09:30:47.384129,1709109047.384129,55.6640625,-36.1328125,-25.87890625,886.23046875,-1.0,0.0,-1.0,0.0,4.m4v,7.0
2024-02-28 09:30:47.388035,1709109047.3880348,-547.36328125,-34.66796875,-29.78515625,-493.1640625,-1.0,0.0,-1.0,0.0,4.m4v,7.0
2024-02-28 09:30:47.391941,1709109047.3919406,-894.53125,-37.59765625,-29.296875,-1000.0,-1.0,0.0,-1.0,0.0,4.m4v,7.0
2024-02-28 09:30:47.395846,1709109047.3958464,-479.00390625,-40.52734375,-32.2265625,-932.6171875,-1.0,0.0,-1.0,0.0,4.m4v,7.0
2024-02-28 09:30:47.399752,1709109047.399752,-167.48046875,-31.25,-38.0859375,-1000.0,-1.0,0.0,-1.0,0.0,4.m4v,7.0
2024-02-28 09:30:47.403658,1709109047.403658,-38.57421875,-30.2734375,-44.921875,-995.1171875,-1.0,0.0,-1.0,0.0,4.m4v,7.0
2024-02-28 09:30:47.407564,1709109047.4075637,-39.0625,-31.25,-31.25,-958.0078125,-1.0,0.0,-1.0,0.0,4.m4v,7.0
2024-02-28 09:30:47.411470,1709109047.4114697,-192.3828125,-31.25,-16.11328125,-1000.0,-1.0,0.0,-1.0,0.0,4.m4v,7.0
2024-02-28 09:30:47.415375,1709109047.4153757,125.0,-32.2265625,-16.6015625,-235.83984375,-1.0,0.0,-1.0,0.0,4.m4v,7.0
2024-02-28 09:30:47.419281,1709109047.4192812,771.484375,-33.69140625,-19.53125,952.1484375,-1.0,0.0,-1.0,0.0,4.m4v,7.0
2024-02-28 09:30:47.423187,1709109047.423187,607.421875,-38.57421875,-29.296875,975.5859375,-1.0,0.0,-1.0,0.0,4.m4v,7.0
2024-02-28 09:30:47.427093,1709109047.4270928,224.12109375,-30.76171875,-36.62109375,937.98828125,-1.0,0.0,-1.0,0.0,4.m4v,7.0
2024-02-28 09:30:47.430999,1709109047.4309988,28.3203125,-35.64453125,-29.78515625,981.4453125,-1.0,0.0,-1.0,0.0,4.m4v,7.0
2024-02-28 09:30:47.434905,1709109047.4349046,-31.73828125,-48.828125,-30.76171875,974.609375,-1.0,0.0,-1.0,0.0,4.m4v,7.0
2024-02-28 09:30:47.438810,1709109047.4388103,-20.5078125,-35.64453125,-33.69140625,917.96875,-1.0,0.0,-1.0,0.0,4.m4v,7.0
2024-02-28 09:30:47.442716,1709109047.442716,101.5625,-26.85546875,-32.2265625,999.51171875,-1.0,0.0,-1.0,0.0,4.m4v,7.0
2024-02-28 09:30:47.446622,1709109047.446622,-96.6796875,-34.1796875,-26.85546875,484.375,-1.0,0.0,-1.0,0.0,4.m4v,7.0
2024-02-28 09:30:47.450528,1709109047.4505277,-831.54296875,-42.48046875,-34.66796875,-833.0078125,-1.0,0.0,-1.0,0.0,4.m4v,7.0
2024-02-28 09:30:47.454433,1709109047.4544334,-781.73828125,-36.1328125,-36.1328125,-1000.0,-1.0,0.0,-1.0,0.0,4.m4v,7.0
2024-02-28 09:30:47.458339,1709109047.4583392,-336.9140625,-38.57421875,-31.73828125,-949.70703125,-1.0,0.0,-1.0,0.0,4.m4v,7.0
2024-02-28 09:30:47.462245,1709109047.4622452,-114.2578125,-36.62109375,-36.1328125,-1000.0,-1.0,0.0,-1.0,0.0,4.m4v,7.0
2024-02-28 09:30:47.466151,1709109047.466151,-41.9921875,-30.76171875,-33.203125,-980.46875,-1.0,0.0,-1.0,0.0,4.m4v,7.0
2024-02-28 09:30:47.470057,1709109047.4700568,-152.83203125,-40.0390625,-33.203125,-981.4453125,-1.0,0.0,-1.0,0.0,4.m4v,7.0
2024-02-28 09:30:47.473963,1709109047.4739623,-239.2578125,-39.55078125,-40.0390625,-1000.0,-1.0,0.0,-1.0,0.0,4.m4v,7.0
2024-02-28 09:30:47.477868,1709109047.4778683,247.0703125,-28.80859375,-35.64453125,10.25390625,-1.0,0.0,-1.0,0.0,4.m4v,7.0
2024-02-28 09:30:47.481774,1709109047.4817743,824.70703125,-32.71484375,-27.83203125,999.51171875,-1.0,0.0,-1.0,0.0,4.m4v,7.0
2024-02-28 09:30:47.485680,1709109047.48568,567.3828125,-37.109375,-35.15625,944.82421875,-1.0,0.0,-1.0,0.0,4.m4v,7.0
2024-02-28 09:30:47.489587,1709109047.4895868,175.29296875,-37.109375,-33.69140625,954.1015625,-1.0,0.0,-1.0,0.0,4.m4v,7.0
2024-02-28 09:30:47.493493,1709109047.4934928,12.20703125,-33.203125,-27.34375,989.2578125,-1.0,0.0,-1.0,0.0,4.m4v,7.0
2024-02-28 09:30:47.497399,1709109047.4973986,-8.7890625,-33.203125,-28.80859375,913.57421875,-1.0,0.0,-1.0,0.0,4.m4v,7.0
2024-02-28 09:30:47.501304,1709109047.5013044,127.9296875,-37.59765625,-39.0625,999.51171875,-1.0,0.0,-1.0,0.0,4.m4v,7.0
2024-02-28 09:30:47.505210,1709109047.5052102,87.40234375,-38.0859375,-34.1796875,775.87890625,-1.0,0.0,-1.0,0.0,4.m4v,7.0
2024-02-28 09:30:47.509116,1709109047.509116,-623.53515625,-38.0859375,-31.25,-642.08984375,-1.0,0.0,-1.0,0.0,4.m4v,7.0
2024-02-28 09:30:47.513022,1709109047.513022,-895.01953125,-46.38671875,-42.96875,-1000.0,-1.0,0.0,-1.0,0.0,4.m4v,7.0
2024-02-28 09:30:47.516928,1709109047.5169277,-463.37890625,-51.26953125,-44.43359375,-932.6171875,-1.0,0.0,-1.0,0.0,4.m4v,7.0
2024-02-28 09:30:47.520833,1709109047.5208335,-155.76171875,-51.7578125,-38.0859375,-1000.0,-1.0,0.0,-1.0,0.0,4.m4v,7.0
2024-02-28 09:30:47.524739,1709109047.5247393,-51.7578125,-53.22265625,-41.015625,-986.81640625,-1.0,0.0,-1.0,0.0,4.m4v,7.0
2024-02-28 09:30:47.528645,1709109047.528645,-105.95703125,-41.015625,-39.55078125,-971.19140625,-1.0,0.0,-1.0,0.0,4.m4v,7.0
2024-02-28 09:30:47.532551,1709109047.532551,-220.21484375,-34.1796875,-29.296875,-1000.0,-1.0,0.0,-1.0,0.0,4.m4v,7.0
2024-02-28 09:30:47.536458,1709109047.5364578,168.45703125,-32.2265625,-26.3671875,-100.5859375,-1.0,0.0,-1.0,0.0,4.m4v,7.0
2024-02-28 09:30:47.540364,1709109047.5403636,761.23046875,-23.92578125,-22.94921875,987.3046875,-1.0,0.0,-1.0,0.0,4.m4v,7.0
2024-02-28 09:30:47.544269,1709109047.544269,569.82421875,-18.5546875,-35.64453125,958.984375,-1.0,0.0,-1.0,0.0,4.m4v,7.0
2024-02-28 09:30:47.548175,1709109047.548175,181.15234375,-17.578125,-37.59765625,946.2890625,-1.0,0.0,-1.0,0.0,4.m4v,7.0
2024-02-28 09:30:47.552081,1709109047.5520809,17.08984375,-33.69140625,-32.2265625,988.28125,-1.0,0.0,-1.0,0.0,4.m4v,7.0
2024-02-28 09:30:47.555987,1709109047.555987,19.53125,-32.2265625,-35.64453125,929.19921875,-1.0,0.0,-1.0,0.0,4.m4v,7.0
2024-02-28 09:30:47.559893,1709109047.559893,107.421875,-27.34375,-32.71484375,985.83984375,-1.0,0.0,-1.0,0.0,4.m4v,7.0
2024-02-28 09:30:47.563798,1709109047.5637984,143.06640625,-38.57421875,-32.2265625,949.21875,-1.0,0.0,-1.0,0.0,4.m4v,7.0
2024-02-28 09:30:47.567704,1709109047.5677042,-455.078125,-41.015625,-41.50390625,-371.58203125,-1.0,0.0,-1.0,0.0,4.m4v,7.0
2024-02-28 09:30:47.571610,1709109047.57161,-919.921875,-46.38671875,-39.0625,-1000.0,-1.0,0.0,-1.0,0.0,4.m4v,7.0
2024-02-28 09:30:47.575516,1709109047.575516,-562.5,-34.1796875,-32.2265625,-937.5,-1.0,0.0,-1.0,0.0,4.m4v,7.0
2024-02-28 09:30:47.579422,1709109047.5794218,-237.79296875,-28.3203125,-34.1796875,-1000.0,-1.0,0.0,-1.0,0.0,4.m4v,7.0
2024-02-28 09:30:47.583328,1709109047.583328,-88.8671875,-34.66796875,-32.2265625,-1000.0,-1.0,0.0,-1.0,0.0,4.m4v,7.0
2024-02-28 09:30:47.587234,1709109047.5872338,-54.19921875,-39.0625,-39.0625,-940.91796875,-1.0,0.0,-1.0,0.0,4.m4v,7.0
2024-02-28 09:30:47.591140,1709109047.5911398,-199.21875,-40.52734375,-36.1328125,-1000.0,-1.0,0.0,-1.0,0.0,4.m4v,7.0
2024-02-28 09:30:47.595046,1709109047.5950456,-97.16796875,-25.87890625,-20.99609375,-739.74609375,-1.0,0.0,-1.0,0.0,4.m4v,7.0
2024-02-28 09:30:47.598951,1709109047.598951,652.83203125,-16.6015625,-24.4140625,680.6640625,-1.0,0.0,-1.0,0.0,4.m4v,7.0
2024-02-28 09:30:47.602857,1709109047.602857,767.08984375,-27.83203125,-30.76171875,999.51171875,-1.0,0.0,-1.0,0.0,4.m4v,7.0
2024-02-28 09:30:47.606763,1709109047.606763,342.28515625,-35.64453125,-28.3203125,904.78515625,-1.0,0.0,-1.0,0.0,4.m4v,7.0
2024-02-28 09:30:47.610669,1709109047.610669,84.9609375,-36.1328125,-25.390625,985.83984375,-1.0,0.0,-1.0,0.0,4.m4v,7.0
2024-02-28 09:30:47.614575,1709109047.614575,-34.66796875,-41.50390625,-34.1796875,978.02734375,-1.0,0.0,-1.0,0.0,4.m4v,7.0
2024-02-28 09:30:47.618480,1709109047.6184804,4.8828125,-41.015625,-41.015625,915.52734375,-1.0,0.0,-1.0,0.0,4.m4v,7.0
2024-02-28 09:30:47.622386,1709109047.6223862,189.453125,-27.83203125,-29.296875,999.51171875,-1.0,0.0,-1.0,0.0,4.m4v,7.0
2024-02-28 09:30:47.626292,1709109047.626292,0.0,-24.4140625,-27.83203125,586.42578125,-1.0,0.0,-1.0,0.0,4.m4v,7.0
2024-02-28 09:30:47.630198,1709109047.6301985,-802.734375,-47.8515625,-27.34375,-773.4375,-1.0,0.0,-1.0,0.0,4.m4v,7.0
2024-02-28 09:30:47.634104,1709109047.6341045,-819.82421875,-41.9921875,-26.85546875,-1000.0,-1.0,0.0,-1.0,0.0,4.m4v,7.0
2024-02-28 09:30:47.638010,1709109047.63801,-348.6328125,-22.4609375,-27.34375,-942.87109375,-1.0,0.0,-1.0,0.0,4.m4v,7.0
2024-02-28 09:30:47.641916,1709109047.6419158,-128.41796875,-23.92578125,-25.87890625,-1000.0,-1.0,0.0,-1.0,0.0,4.m4v,7.0
2024-02-28 09:30:47.645822,1709109047.6458216,-71.77734375,-36.62109375,-32.71484375,-1000.0,-1.0,0.0,-1.0,0.0,4.m4v,7.0
2024-02-28 09:30:47.649728,1709109047.6497276,-132.8125,-39.55078125,-40.52734375,-947.75390625,-1.0,0.0,-1.0,0.0,4.m4v,7.0
2024-02-28 09:30:47.653633,1709109047.6536334,-194.82421875,-37.109375,-42.48046875,-1000.0,-1.0,0.0,-1.0,0.0,4.m4v,7.0
2024-02-28 09:30:47.657539,1709109047.6575391,-29.296875,-43.9453125,-31.25,-770.99609375,-1.0,0.0,-1.0,0.0,4.m4v,7.0
2024-02-28 09:30:47.661445,1709109047.661445,642.08984375,-44.43359375,-27.34375,615.72265625,-1.0,0.0,-1.0,0.0,4.m4v,7.0
2024-02-28 09:30:47.665351,1709109047.665351,757.8125,-34.1796875,-32.71484375,999.51171875,-1.0,0.0,-1.0,0.0,4.m4v,7.0
2024-02-28 09:30:47.669257,1709109047.6692567,249.0234375,-29.78515625,-31.73828125,905.2734375,-1.0,0.0,-1.0,0.0,4.m4v,7.0
2024-02-28 09:30:47.673162,1709109047.6731625,11.23046875,-43.9453125,-30.76171875,997.55859375,-1.0,0.0,-1.0,0.0,4.m4v,7.0
2024-02-28 09:30:47.677069,1709109047.6770687,-3.41796875,-44.43359375,-33.69140625,913.57421875,-1.0,0.0,-1.0,0.0,4.m4v,7.0
2024-02-28 09:30:47.680974,1709109047.6809745,119.140625,-37.109375,-31.25,999.51171875,-1.0,0.0,-1.0,0.0,4.m4v,7.0
2024-02-28 09:30:47.684880,1709109047.6848805,129.39453125,-38.0859375,-30.2734375,812.01171875,-1.0,0.0,-1.0,0.0,4.m4v,7.0
2024-02-28 09:30:47.688786,1709109047.6887865,-604.98046875,-42.96875,-46.875,-616.2109375,-1.0,0.0,-1.0,0.0,4.m4v,7.0
2024-02-28 09:30:47.692692,1709109047.692692,-881.8359375,-33.69140625,-51.26953125,-1000.0,-1.0,0.0,-1.0,0.0,4.m4v,7.0
2024-02-28 09:30:47.696598,1709109047.6965978,-412.59765625,-23.92578125,-34.66796875,-930.17578125,-1.0,0.0,-1.0,0.0,4.m4v,7.0
2024-02-28 09:30:47.700504,1709109047.7005036,-144.04296875,-28.80859375,-32.71484375,-1000.0,-1.0,0.0,-1.0,0.0,4.m4v,7.0
2024-02-28 09:30:47.704410,1709109047.7044096,-72.75390625,-37.109375,-40.52734375,-1000.0,-1.0,0.0,-1.0,0.0,4.m4v,7.0
2024-02-28 09:30:47.708315,1709109047.7083154,-116.2109375,-41.015625,-41.015625,-947.265625,-1.0,0.0,-1.0,0.0,4.m4v,7.0
2024-02-28 09:30:47.712221,1709109047.7122211,-230.46875,-42.96875,-34.1796875,-1000.0,-1.0,0.0,-1.0,0.0,4.m4v,7.0
2024-02-28 09:30:47.716127,1709109047.716127,7.32421875,-46.38671875,-29.78515625,-563.4765625,-1.0,0.0,-1.0,0.0,4.m4v,7.0
2024-02-28 09:30:47.720033,1709109047.7200327,722.16796875,-44.43359375,-29.78515625,774.90234375,-1.0,0.0,-1.0,0.0,4.m4v,7.0
2024-02-28 09:30:47.723939,1709109047.7239387,724.12109375,-31.73828125,-33.69140625,999.51171875,-1.0,0.0,-1.0,0.0,4.m4v,7.0
2024-02-28 09:30:47.727844,1709109047.7278445,258.7890625,-20.99609375,-40.0390625,916.015625,-1.0,0.0,-1.0,0.0,4.m4v,7.0
2024-02-28 09:30:47.731750,1709109047.7317505,17.578125,-27.34375,-41.9921875,983.88671875,-1.0,0.0,-1.0,0.0,4.m4v,7.0
2024-02-28 09:30:47.735656,1709109047.7356565,-13.671875,-36.1328125,-40.0390625,980.95703125,-1.0,0.0,-1.0,0.0,4.m4v,7.0
2024-02-28 09:30:47.739562,1709109047.739562,43.45703125,-37.109375,-32.2265625,913.57421875,-1.0,0.0,-1.0,0.0,4.m4v,7.0
2024-02-28 09:30:47.743468,1709109047.7434678,139.6484375,-37.109375,-32.2265625,999.51171875,-1.0,0.0,-1.0,0.0,4.m4v,7.0
2024-02-28 09:30:47.747374,1709109047.7473736,-84.9609375,-44.921875,-40.52734375,681.15234375,-1.0,0.0,-1.0,0.0,4.m4v,7.0
2024-02-28 09:30:47.751280,1709109047.7512796,-837.40234375,-53.7109375,-45.41015625,-716.30859375,-1.0,0.0,-1.0,0.0,4.m4v,7.0
2024-02-28 09:30:47.755185,1709109047.7551854,-878.41796875,-44.921875,-37.109375,-1000.0,-1.0,0.0,-1.0,0.0,4.m4v,7.0
2024-02-28 09:30:47.759091,1709109047.7590911,-371.58203125,-33.69140625,-37.109375,-937.01171875,-1.0,0.0,-1.0,0.0,4.m4v,7.0
2024-02-28 09:30:47.762997,1709109047.762997,-153.3203125,-35.64453125,-39.55078125,-1000.0,-1.0,0.0,-1.0,0.0,4.m4v,7.0
2024-02-28 09:30:47.766903,1709109047.7669027,-98.14453125,-43.9453125,-37.59765625,-942.87109375,-1.0,0.0,-1.0,0.0,4.m4v,7.0
2024-02-28 09:30:47.770808,1709109047.7708085,-171.875,-36.1328125,-35.15625,-1000.0,-1.0,0.0,-1.0,0.0,4.m4v,7.0
2024-02-28 09:30:47.774714,1709109047.7747142,-99.609375,-22.94921875,-37.59765625,-838.37890625,-1.0,0.0,-1.0,0.0,4.m4v,7.0
2024-02-28 09:30:47.778620,1709109047.7786202,591.796875,-17.578125,-39.0625,597.65625,-1.0,0.0,-1.0,0.0,4.m4v,7.0
2024-02-28 09:30:47.782526,1709109047.782526,805.17578125,-23.4375,-28.80859375,999.51171875,-1.0,0.0,-1.0,0.0,4.m4v,7.0
2024-02-28 09:30:47.786432,1709109047.7864318,391.11328125,-30.76171875,-25.87890625,899.4140625,-1.0,0.0,-1.0,0.0,4.m4v,7.0
2024-02-28 09:30:47.790338,1709109047.7903376,120.60546875,-33.69140625,-34.66796875,984.375,-1.0,0.0,-1.0,0.0,4.m4v,7.0
2024-02-28 09:30:47.794243,1709109047.794243,-4.39453125,-45.41015625,-36.1328125,982.91015625,-1.0,0.0,-1.0,0.0,4.m4v,7.0
2024-02-28 09:30:47.798149,1709109047.798149,9.27734375,-51.26953125,-32.71484375,917.96875,-1.0,0.0,-1.0,0.0,4.m4v,7.0
2024-02-28 09:30:47.802055,1709109047.8020551,137.20703125,-39.55078125,-29.78515625,999.51171875,-1.0,0.0,-1.0,0.0,4.m4v,7.0
2024-02-28 09:30:47.805961,1709109047.805961,102.05078125,-39.55078125,-34.66796875,847.65625,-1.0,0.0,-1.0,0.0,4.m4v,7.0
2024-02-28 09:30:47.809867,1709109047.809867,-605.95703125,-48.828125,-39.55078125,-557.6171875,-1.0,0.0,-1.0,0.0,4.m4v,7.0
2024-02-28 09:30:47.813772,1709109047.8137724,-908.69140625,-46.875,-37.59765625,-1000.0,-1.0,0.0,-1.0,0.0,4.m4v,7.0
2024-02-28 09:30:47.817678,1709109047.817678,-479.00390625,-39.0625,-40.0390625,-930.6640625,-1.0,0.0,-1.0,0.0,4.m4v,7.0
2024-02-28 09:30:47.821584,1709109047.821584,-168.9453125,-37.109375,-39.55078125,-1000.0,-1.0,0.0,-1.0,0.0,4.m4v,7.0
2024-02-28 09:30:47.825490,1709109047.8254898,-44.43359375,-24.90234375,-36.1328125,-964.84375,-1.0,0.0,-1.0,0.0,4.m4v,7.0
2024-02-28 09:30:47.829396,1709109047.8293955,-116.2109375,-17.578125,-28.80859375,-1000.0,-1.0,0.0,-1.0,0.0,4.m4v,7.0
2024-02-28 09:30:47.833301,1709109047.8333013,-186.5234375,-24.4140625,-30.76171875,-1000.0,-1.0,0.0,-1.0,0.0,4.m4v,7.0
2024-02-28 09:30:47.837207,1709109047.837207,381.34765625,-31.73828125,-37.59765625,274.90234375,-1.0,0.0,-1.0,0.0,4.m4v,7.0
2024-02-28 09:30:47.841113,1709109047.841113,806.15234375,-37.59765625,-39.0625,999.51171875,-1.0,0.0,-1.0,0.0,4.m4v,7.0
2024-02-28 09:30:47.845019,1709109047.8450189,502.9296875,-36.62109375,-31.25,911.1328125,-1.0,0.0,-1.0,0.0,4.m4v,7.0
2024-02-28 09:30:47.848925,1709109047.8489246,187.5,-42.96875,-29.78515625,972.16796875,-1.0,0.0,-1.0,0.0,4.m4v,7.0
2024-02-28 09:30:47.852830,1709109047.8528304,5.37109375,-49.31640625,-37.59765625,983.3984375,-1.0,0.0,-1.0,0.0,4.m4v,7.0
2024-02-28 09:30:47.856736,1709109047.8567362,6.34765625,-42.96875,-35.15625,924.8046875,-1.0,0.0,-1.0,0.0,4.m4v,7.0
2024-02-28 09:30:47.860642,1709109047.8606422,116.2109375,-44.43359375,-35.64453125,997.0703125,-1.0,0.0,-1.0,0.0,4.m4v,7.0
2024-02-28 09:30:47.864548,1709109047.8645475,134.765625,-30.2734375,-37.59765625,915.0390625,-1.0,0.0,-1.0,0.0,4.m4v,7.0
2024-02-28 09:30:47.868454,1709109047.8684535,-512.6953125,-22.4609375,-30.2734375,-443.84765625,-1.0,0.0,-1.0,0.0,4.m4v,7.0
2024-02-28 09:30:47.872359,1709109047.8723593,-938.96484375,-34.1796875,-30.2734375,-1000.0,-1.0,0.0,-1.0,0.0,4.m4v,7.0
2024-02-28 09:30:47.876265,1709109047.876265,-535.64453125,-34.66796875,-37.59765625,-934.08203125,-1.0,0.0,-1.0,0.0,4.m4v,7.0
2024-02-28 09:30:47.880171,1709109047.8801708,-196.2890625,-31.73828125,-50.78125,-1000.0,-1.0,0.0,-1.0,0.0,4.m4v,7.0
2024-02-28 09:30:47.884077,1709109047.8840768,-55.6640625,-31.73828125,-45.8984375,-1000.0,-1.0,0.0,-1.0,0.0,4.m4v,7.0
2024-02-28 09:30:47.887983,1709109047.8879826,-93.75,-40.52734375,-38.57421875,-954.1015625,-1.0,0.0,-1.0,0.0,4.m4v,7.0
2024-02-28 09:30:47.891888,1709109047.8918884,-239.74609375,-46.38671875,-42.96875,-1000.0,-1.0,0.0,-1.0,0.0,4.m4v,7.0
2024-02-28 09:30:47.895794,1709109047.8957942,70.80078125,-37.109375,-42.96875,-379.8828125,-1.0,0.0,-1.0,0.0,4.m4v,7.0
2024-02-28 09:30:47.899700,1709109047.8997,770.99609375,-24.90234375,-39.0625,872.55859375,-1.0,0.0,-1.0,0.0,4.m4v,7.0
2024-02-28 09:30:47.903606,1709109047.903606,707.51953125,-29.78515625,-39.0625,999.51171875,-1.0,0.0,-1.0,0.0,4.m4v,7.0
2024-02-28 09:30:47.907512,1709109047.9075117,280.76171875,-25.390625,-32.71484375,927.734375,-1.0,0.0,-1.0,0.0,4.m4v,7.0
2024-02-28 09:30:47.911418,1709109047.9114184,25.390625,-30.2734375,-37.59765625,985.3515625,-1.0,0.0,-1.0,0.0,4.m4v,7.0
2024-02-28 09:30:47.919230,1709109047.91923,74.21875,-27.83203125,-39.0625,932.6171875,-1.0,0.0,-1.0,0.0,4.m4v,7.0
2024-02-28 09:30:47.927042,1709109047.9270418,-223.6328125,-40.52734375,-40.52734375,176.7578125,-1.0,0.0,-1.0,0.0,4.m4v,7.0
2024-02-28 09:30:47.934853,1709109047.9348533,-690.4296875,-34.66796875,-36.62109375,-1000.0,-1.0,0.0,-1.0,0.0,4.m4v,7.0
2024-02-28 09:30:47.942665,1709109047.9426649,-100.09765625,-30.2734375,-41.50390625,-1000.0,-1.0,0.0,-1.0,0.0,4.m4v,7.0
2024-02-28 09:30:47.950477,1709109047.9504766,-184.08203125,-37.109375,-35.15625,-1000.0,-1.0,0.0,-1.0,0.0,4.m4v,7.0
2024-02-28 09:30:47.958289,1709109047.958289,568.84765625,-22.94921875,-38.0859375,626.46484375,-1.0,0.0,-1.0,0.0,4.m4v,7.0
2024-02-28 09:30:47.966100,1709109047.9661005,369.140625,-40.0390625,-41.015625,901.85546875,-1.0,0.0,-1.0,0.0,4.m4v,7.0
2024-02-28 09:30:47.973912,1709109047.9739122,9.765625,-35.64453125,-30.76171875,974.12109375,-1.0,0.0,-1.0,0.0,4.m4v,7.0
2024-02-28 09:30:47.981724,1709109047.9817238,147.4609375,-28.80859375,-23.92578125,999.51171875,-1.0,0.0,-1.0,0.0,4.m4v,7.0
2024-02-28 09:30:47.989536,1709109047.9895356,-811.03515625,-40.0390625,-31.73828125,-844.7265625,-1.0,0.0,-1.0,0.0,4.m4v,7.0
2024-02-28 09:30:47.997347,1709109047.997347,-323.2421875,-24.90234375,-37.59765625,-950.68359375,-1.0,0.0,-1.0,0.0,4.m4v,7.0
2024-02-28 09:30:48.001253,1709109048.001253,-110.83984375,-33.69140625,-41.50390625,-1000.0,-1.0,0.0,-1.0,0.0,4.m4v,7.0
2024-02-28 09:30:48.005159,1709109048.0051591,-16.11328125,-38.57421875,-40.0390625,-960.9375,-1.0,0.0,-1.0,0.0,4.m4v,7.0
2024-02-28 09:30:48.009065,1709109048.0090652,-108.3984375,-37.59765625,-33.69140625,-1000.0,-1.0,0.0,-1.0,0.0,4.m4v,7.0
2024-02-28 09:30:48.012971,1709109048.012971,-210.9375,-31.73828125,-27.34375,-983.88671875,-1.0,0.0,-1.0,0.0,4.m4v,7.0
2024-02-28 09:30:48.016877,1709109048.0168767,338.37890625,-25.87890625,-37.59765625,325.68359375,-1.0,0.0,-1.0,0.0,4.m4v,7.0
2024-02-28 09:30:48.020782,1709109048.0207825,796.875,-32.71484375,-43.45703125,999.51171875,-1.0,0.0,-1.0,0.0,4.m4v,7.0
2024-02-28 09:30:48.024688,1709109048.0246882,525.87890625,-37.109375,-30.2734375,908.69140625,-1.0,0.0,-1.0,0.0,4.m4v,7.0
2024-02-28 09:30:48.028594,1709109048.0285945,192.3828125,-35.64453125,-28.3203125,974.12109375,-1.0,0.0,-1.0,0.0,4.m4v,7.0
2024-02-28 09:30:48.032500,1709109048.0325,-25.390625,-36.1328125,-33.69140625,985.3515625,-1.0,0.0,-1.0,0.0,4.m4v,7.0
2024-02-28 09:30:48.036406,1709109048.0364058,-68.84765625,-40.0390625,-38.0859375,913.57421875,-1.0,0.0,-1.0,0.0,4.m4v,7.0
2024-02-28 09:30:48.040312,1709109048.0403116,46.875,-38.0859375,-36.62109375,999.51171875,-1.0,0.0,-1.0,0.0,4.m4v,7.0
2024-02-28 09:30:48.044217,1709109048.044217,49.31640625,-40.52734375,-36.1328125,819.82421875,-1.0,0.0,-1.0,0.0,4.m4v,7.0
2024-02-28 09:30:48.048123,1709109048.0481234,-642.578125,-49.8046875,-38.0859375,-608.3984375,-1.0,0.0,-1.0,0.0,4.m4v,7.0
2024-02-28 09:30:48.052031,1709109048.052031,-896.484375,-40.52734375,-38.57421875,-1000.0,-1.0,0.0,-1.0,0.0,4.m4v,7.0
2024-02-28 09:30:48.055937,1709109048.0559368,-449.70703125,-31.25,-38.0859375,-930.17578125,-1.0,0.0,-1.0,0.0,4.m4v,7.0
2024-02-28 09:30:48.059843,1709109048.0598426,-177.734375,-33.69140625,-34.1796875,-1000.0,-1.0,0.0,-1.0,0.0,4.m4v,7.0
2024-02-28 09:30:48.063748,1709109048.0637484,-58.10546875,-33.69140625,-32.2265625,-970.703125,-1.0,0.0,-1.0,0.0,4.m4v,7.0
2024-02-28 09:30:48.067654,1709109048.0676544,-100.09765625,-38.57421875,-38.0859375,-995.1171875,-1.0,0.0,-1.0,0.0,4.m4v,7.0
2024-02-28 09:30:48.071560,1709109048.07156,-208.0078125,-41.9921875,-34.1796875,-1000.0,-1.0,0.0,-1.0,0.0,4.m4v,7.0
2024-02-28 09:30:48.075466,1709109048.075466,275.390625,-41.9921875,-28.3203125,179.6875,-1.0,0.0,-1.0,0.0,4.m4v,7.0
2024-02-28 09:30:48.079372,1709109048.0793717,774.4140625,-27.83203125,-30.76171875,999.51171875,-1.0,0.0,-1.0,0.0,4.m4v,7.0
2024-02-28 09:30:48.083277,1709109048.0832777,491.2109375,-30.76171875,-36.62109375,920.8984375,-1.0,0.0,-1.0,0.0,4.m4v,7.0
2024-02-28 09:30:48.087183,1709109048.0871837,157.2265625,-43.45703125,-41.50390625,965.8203125,-1.0,0.0,-1.0,0.0,4.m4v,7.0
2024-02-28 09:30:48.091089,1709109048.0910892,15.625,-30.76171875,-34.66796875,981.93359375,-1.0,0.0,-1.0,0.0,4.m4v,7.0
2024-02-28 09:30:48.094995,1709109048.094995,-26.3671875,-30.2734375,-28.3203125,937.98828125,-1.0,0.0,-1.0,0.0,4.m4v,7.0
2024-02-28 09:30:48.098901,1709109048.098901,39.0625,-39.55078125,-32.2265625,969.7265625,-1.0,0.0,-1.0,0.0,4.m4v,7.0
2024-02-28 09:30:48.102807,1709109048.102807,166.015625,-35.64453125,-37.109375,982.91015625,-1.0,0.0,-1.0,0.0,4.m4v,7.0
2024-02-28 09:30:48.106713,1709109048.1067128,-354.4921875,-41.015625,-31.73828125,-241.69921875,-1.0,0.0,-1.0,0.0,4.m4v,7.0
2024-02-28 09:30:48.110619,1709109048.1106186,-918.45703125,-46.38671875,-24.4140625,-1000.0,-1.0,0.0,-1.0,0.0,4.m4v,7.0
2024-02-28 09:30:48.114524,1709109048.1145244,-605.46875,-41.50390625,-21.97265625,-949.70703125,-1.0,0.0,-1.0,0.0,4.m4v,7.0
2024-02-28 09:30:48.118430,1709109048.11843,-218.75,-40.52734375,-32.2265625,-998.53515625,-1.0,0.0,-1.0,0.0,4.m4v,7.0
2024-02-28 09:30:48.122336,1709109048.122336,-108.3984375,-40.0390625,-37.109375,-1000.0,-1.0,0.0,-1.0,0.0,4.m4v,7.0
2024-02-28 09:30:48.126242,1709109048.126242,-85.44921875,-38.0859375,-35.64453125,-940.91796875,-1.0,0.0,-1.0,0.0,4.m4v,7.0
2024-02-28 09:30:48.130148,1709109048.1301477,-176.7578125,-39.55078125,-43.9453125,-1000.0,-1.0,0.0,-1.0,0.0,4.m4v,7.0
2024-02-28 09:30:48.134053,1709109048.1340537,-60.05859375,-33.203125,-44.43359375,-742.1875,-1.0,0.0,-1.0,0.0,4.m4v,7.0
2024-02-28 09:30:48.137959,1709109048.1379592,652.34375,-36.1328125,-41.015625,679.6875,-1.0,0.0,-1.0,0.0,4.m4v,7.0
2024-02-28 09:30:48.219981,1709109048.2199812,73.73046875,-37.109375,-39.55078125,933.10546875,-1.0,0.0,-1.0,0.0,4.m4v,7.0
2024-02-28 09:30:48.219981,1709109048.2199812,73.73046875,-37.109375,-39.55078125,933.10546875,-1.0,0.0,-1.0,0.0,4.m4v,7.0
2024-02-28 09:30:48.223887,1709109048.223887,158.203125,-23.4375,-36.1328125,999.51171875,-1.0,0.0,-1.0,0.0,4.m4v,7.0
2024-02-28 09:30:48.223887,1709109048.223887,158.203125,-23.4375,-36.1328125,999.51171875,-1.0,0.0,-1.0,0.0,4.m4v,7.0
2024-02-28 09:30:48.227793,1709109048.2277927,-262.6953125,-25.87890625,-44.43359375,174.8046875,-1.0,0.0,-1.0,0.0,4.m4v,7.0
2024-02-28 09:30:48.227793,1709109048.2277927,-262.6953125,-25.87890625,-44.43359375,174.8046875,-1.0,0.0,-1.0,0.0,4.m4v,7.0
2024-02-28 09:30:48.231699,1709109048.2316985,-895.5078125,-38.57421875,-42.48046875,-980.46875,-1.0,0.0,-1.0,0.0,4.m4v,7.0
2024-02-28 09:30:48.231699,1709109048.2316985,-895.5078125,-38.57421875,-42.48046875,-980.46875,-1.0,0.0,-1.0,0.0,4.m4v,7.0
2024-02-28 09:30:48.235605,1709109048.2356043,-652.83203125,-38.0859375,-36.1328125,-1000.0,-1.0,0.0,-1.0,0.0,4.m4v,7.0
2024-02-28 09:30:48.235605,1709109048.2356043,-652.83203125,-38.0859375,-36.1328125,-1000.0,-1.0,0.0,-1.0,0.0,4.m4v,7.0
2024-02-28 09:30:48.239511,1709109048.2395115,-233.88671875,-35.15625,-31.73828125,-971.6796875,-1.0,0.0,-1.0,0.0,4.m4v,7.0
2024-02-28 09:30:48.239511,1709109048.2395115,-233.88671875,-35.15625,-31.73828125,-971.6796875,-1.0,0.0,-1.0,0.0,4.m4v,7.0
2024-02-28 09:30:48.243417,1709109048.2434173,-85.9375,-34.66796875,-29.296875,-1000.0,-1.0,0.0,-1.0,0.0,4.m4v,7.0
2024-02-28 09:30:48.243417,1709109048.2434173,-85.9375,-34.66796875,-29.296875,-1000.0,-1.0,0.0,-1.0,0.0,4.m4v,7.0
2024-02-28 09:30:48.247323,1709109048.247323,-71.2890625,-30.76171875,-25.87890625,-947.265625,-1.0,0.0,-1.0,0.0,4.m4v,7.0
2024-02-28 09:30:48.247323,1709109048.247323,-71.2890625,-30.76171875,-25.87890625,-947.265625,-1.0,0.0,-1.0,0.0,4.m4v,7.0
2024-02-28 09:30:48.251229,1709109048.2512288,-235.3515625,-27.34375,-31.73828125,-1000.0,-1.0,0.0,-1.0,0.0,4.m4v,7.0
2024-02-28 09:30:48.251229,1709109048.2512288,-235.3515625,-27.34375,-31.73828125,-1000.0,-1.0,0.0,-1.0,0.0,4.m4v,7.0
2024-02-28 09:30:48.255135,1709109048.2551346,-52.734375,-26.85546875,-40.52734375,-587.40234375,-1.0,0.0,-1.0,0.0,4.m4v,7.0
2024-02-28 09:30:48.255135,1709109048.2551346,-52.734375,-26.85546875,-40.52734375,-587.40234375,-1.0,0.0,-1.0,0.0,4.m4v,7.0
2024-02-28 09:30:48.259041,1709109048.2590406,694.82421875,-26.3671875,-35.15625,758.30078125,-1.0,0.0,-1.0,0.0,4.m4v,7.0
2024-02-28 09:30:48.259041,1709109048.2590406,694.82421875,-26.3671875,-35.15625,758.30078125,-1.0,0.0,-1.0,0.0,4.m4v,7.0
2024-02-28 09:30:48.262946,1709109048.2629464,719.7265625,-23.4375,-30.2734375,999.51171875,-1.0,0.0,-1.0,0.0,4.m4v,7.0
2024-02-28 09:30:48.262946,1709109048.2629464,719.7265625,-23.4375,-30.2734375,999.51171875,-1.0,0.0,-1.0,0.0,4.m4v,7.0
2024-02-28 09:30:48.266852,1709109048.266852,263.671875,-26.3671875,-34.66796875,914.55078125,-1.0,0.0,-1.0,0.0,4.m4v,7.0
2024-02-28 09:30:48.266852,1709109048.266852,263.671875,-26.3671875,-34.66796875,914.55078125,-1.0,0.0,-1.0,0.0,4.m4v,7.0
2024-02-28 09:30:48.270758,1709109048.270758,39.55078125,-36.1328125,-37.59765625,984.86328125,-1.0,0.0,-1.0,0.0,4.m4v,7.0
2024-02-28 09:30:48.270758,1709109048.270758,39.55078125,-36.1328125,-37.59765625,984.86328125,-1.0,0.0,-1.0,0.0,4.m4v,7.0
2024-02-28 09:30:48.274664,1709109048.2746637,-59.5703125,-39.0625,-33.69140625,976.5625,-1.0,0.0,-1.0,0.0,4.m4v,7.0
2024-02-28 09:30:48.274664,1709109048.2746637,-59.5703125,-39.0625,-33.69140625,976.5625,-1.0,0.0,-1.0,0.0,4.m4v,7.0
2024-02-28 09:30:48.278570,1709109048.2785697,-48.828125,-42.96875,-33.69140625,916.9921875,-1.0,0.0,-1.0,0.0,4.m4v,7.0
2024-02-28 09:30:48.278570,1709109048.2785697,-48.828125,-42.96875,-33.69140625,916.9921875,-1.0,0.0,-1.0,0.0,4.m4v,7.0
2024-02-28 09:30:48.282475,1709109048.2824757,148.92578125,-33.69140625,-27.34375,999.51171875,-1.0,0.0,-1.0,0.0,4.m4v,7.0
2024-02-28 09:30:48.282475,1709109048.2824757,148.92578125,-33.69140625,-27.34375,999.51171875,-1.0,0.0,-1.0,0.0,4.m4v,7.0
2024-02-28 09:30:48.286382,1709109048.2863822,-43.45703125,-27.83203125,-25.390625,537.109375,-1.0,0.0,-1.0,0.0,4.m4v,7.0
2024-02-28 09:30:48.286382,1709109048.2863822,-43.45703125,-27.83203125,-25.390625,537.109375,-1.0,0.0,-1.0,0.0,4.m4v,7.0
2024-02-28 09:30:48.290288,1709109048.290288,-823.73046875,-26.3671875,-24.90234375,-802.734375,-1.0,0.0,-1.0,0.0,4.m4v,7.0
2024-02-28 09:30:48.290288,1709109048.290288,-823.73046875,-26.3671875,-24.90234375,-802.734375,-1.0,0.0,-1.0,0.0,4.m4v,7.0
2024-02-28 09:30:48.294194,1709109048.2941935,-786.62109375,-25.390625,-27.83203125,-1000.0,-1.0,0.0,-1.0,0.0,4.m4v,7.0
2024-02-28 09:30:48.294194,1709109048.2941935,-786.62109375,-25.390625,-27.83203125,-1000.0,-1.0,0.0,-1.0,0.0,4.m4v,7.0
2024-02-28 09:30:48.298100,1709109048.2980995,-302.24609375,-33.203125,-32.71484375,-946.2890625,-1.0,0.0,-1.0,0.0,4.m4v,7.0
2024-02-28 09:30:48.298100,1709109048.2980995,-302.24609375,-33.203125,-32.71484375,-946.2890625,-1.0,0.0,-1.0,0.0,4.m4v,7.0
2024-02-28 09:30:48.302005,1709109048.3020053,-100.5859375,-33.203125,-29.78515625,-1000.0,-1.0,0.0,-1.0,0.0,4.m4v,7.0
2024-02-28 09:30:48.302005,1709109048.3020053,-100.5859375,-33.203125,-29.78515625,-1000.0,-1.0,0.0,-1.0,0.0,4.m4v,7.0
2024-02-28 09:30:48.305911,1709109048.3059113,-8.30078125,-28.80859375,-38.57421875,-942.3828125,-1.0,0.0,-1.0,0.0,4.m4v,7.0
2024-02-28 09:30:48.305911,1709109048.3059113,-8.30078125,-28.80859375,-38.57421875,-942.3828125,-1.0,0.0,-1.0,0.0,4.m4v,7.0
2024-02-28 09:30:48.309817,1709109048.309817,-143.5546875,-31.25,-37.109375,-1000.0,-1.0,0.0,-1.0,0.0,4.m4v,7.0
2024-02-28 09:30:48.309817,1709109048.309817,-143.5546875,-31.25,-37.109375,-1000.0,-1.0,0.0,-1.0,0.0,4.m4v,7.0
2024-02-28 09:30:48.313723,1709109048.3137228,-145.99609375,-39.0625,-28.3203125,-844.23828125,-1.0,0.0,-1.0,0.0,4.m4v,7.0
2024-02-28 09:30:48.313723,1709109048.3137228,-145.99609375,-39.0625,-28.3203125,-844.23828125,-1.0,0.0,-1.0,0.0,4.m4v,7.0
2024-02-28 09:30:48.317629,1709109048.3176286,570.80078125,-40.52734375,-35.15625,595.21484375,-1.0,0.0,-1.0,0.0,4.m4v,7.0
2024-02-28 09:30:48.317629,1709109048.3176286,570.80078125,-40.52734375,-35.15625,595.21484375,-1.0,0.0,-1.0,0.0,4.m4v,7.0
2024-02-28 09:30:48.321534,1709109048.3215344,756.8359375,-28.80859375,-39.55078125,999.51171875,-1.0,0.0,-1.0,0.0,4.m4v,7.0
2024-02-28 09:30:48.321534,1709109048.3215344,756.8359375,-28.80859375,-39.55078125,999.51171875,-1.0,0.0,-1.0,0.0,4.m4v,7.0
2024-02-28 09:30:48.325440,1709109048.3254404,347.16796875,-20.01953125,-37.109375,898.92578125,-1.0,0.0,-1.0,0.0,4.m4v,7.0
2024-02-28 09:30:48.325440,1709109048.3254404,347.16796875,-20.01953125,-37.109375,898.92578125,-1.0,0.0,-1.0,0.0,4.m4v,7.0
2024-02-28 09:30:48.329346,1709109048.3293462,125.0,-17.578125,-37.109375,984.86328125,-1.0,0.0,-1.0,0.0,4.m4v,7.0
2024-02-28 09:30:48.329346,1709109048.3293462,125.0,-17.578125,-37.109375,984.86328125,-1.0,0.0,-1.0,0.0,4.m4v,7.0
2024-02-28 09:30:48.333253,1709109048.333253,-1.953125,-20.5078125,-41.50390625,984.375,-1.0,0.0,-1.0,0.0,4.m4v,7.0
2024-02-28 09:30:48.333253,1709109048.333253,-1.953125,-20.5078125,-41.50390625,984.375,-1.0,0.0,-1.0,0.0,4.m4v,7.0
2024-02-28 09:30:48.337158,1709109048.3371584,27.83203125,-24.4140625,-37.109375,915.52734375,-1.0,0.0,-1.0,0.0,4.m4v,7.0
2024-02-28 09:30:48.337158,1709109048.3371584,27.83203125,-24.4140625,-37.109375,915.52734375,-1.0,0.0,-1.0,0.0,4.m4v,7.0
2024-02-28 09:30:48.341064,1709109048.3410642,139.6484375,-27.34375,-23.92578125,999.51171875,-1.0,0.0,-1.0,0.0,4.m4v,7.0
2024-02-28 09:30:48.341064,1709109048.3410642,139.6484375,-27.34375,-23.92578125,999.51171875,-1.0,0.0,-1.0,0.0,4.m4v,7.0
2024-02-28 09:30:48.344970,1709109048.34497,99.609375,-33.69140625,-22.94921875,850.5859375,-1.0,0.0,-1.0,0.0,4.m4v,7.0
2024-02-28 09:30:48.344970,1709109048.34497,99.609375,-33.69140625,-22.94921875,850.5859375,-1.0,0.0,-1.0,0.0,4.m4v,7.0
2024-02-28 09:30:48.348876,1709109048.348876,-613.76953125,-36.1328125,-30.2734375,-573.73046875,-1.0,0.0,-1.0,0.0,4.m4v,7.0
2024-02-28 09:30:48.348876,1709109048.348876,-613.76953125,-36.1328125,-30.2734375,-573.73046875,-1.0,0.0,-1.0,0.0,4.m4v,7.0
2024-02-28 09:30:48.352782,1709109048.3527818,-897.4609375,-40.52734375,-32.71484375,-1000.0,-1.0,0.0,-1.0,0.0,4.m4v,7.0
2024-02-28 09:30:48.352782,1709109048.3527818,-897.4609375,-40.52734375,-32.71484375,-1000.0,-1.0,0.0,-1.0,0.0,4.m4v,7.0
2024-02-28 09:30:48.356688,1709109048.3566875,-450.68359375,-42.96875,-31.25,-929.19921875,-1.0,0.0,-1.0,0.0,4.m4v,7.0
2024-02-28 09:30:48.356688,1709109048.3566875,-450.68359375,-42.96875,-31.25,-929.19921875,-1.0,0.0,-1.0,0.0,4.m4v,7.0
2024-02-28 09:30:48.360593,1709109048.3605933,-180.17578125,-28.80859375,-38.57421875,-1000.0,-1.0,0.0,-1.0,0.0,4.m4v,7.0
2024-02-28 09:30:48.360593,1709109048.3605933,-180.17578125,-28.80859375,-38.57421875,-1000.0,-1.0,0.0,-1.0,0.0,4.m4v,7.0
2024-02-28 09:30:48.364499,1709109048.364499,-80.078125,-39.0625,-41.50390625,-982.91015625,-1.0,0.0,-1.0,0.0,4.m4v,7.0
2024-02-28 09:30:48.364499,1709109048.364499,-80.078125,-39.0625,-41.50390625,-982.91015625,-1.0,0.0,-1.0,0.0,4.m4v,7.0
2024-02-28 09:30:48.368405,1709109048.368405,-119.140625,-52.734375,-41.015625,-976.07421875,-1.0,0.0,-1.0,0.0,4.m4v,7.0
2024-02-28 09:30:48.368405,1709109048.368405,-119.140625,-52.734375,-41.015625,-976.07421875,-1.0,0.0,-1.0,0.0,4.m4v,7.0
2024-02-28 09:30:48.372311,1709109048.3723109,-234.86328125,-31.73828125,-43.9453125,-1000.0,-1.0,0.0,-1.0,0.0,4.m4v,7.0
2024-02-28 09:30:48.372311,1709109048.3723109,-234.86328125,-31.73828125,-43.9453125,-1000.0,-1.0,0.0,-1.0,0.0,4.m4v,7.0
2024-02-28 09:30:48.376217,1709109048.376217,200.68359375,-26.85546875,-31.73828125,-25.390625,-1.0,0.0,-1.0,0.0,4.m4v,7.0
2024-02-28 09:30:48.376217,1709109048.376217,200.68359375,-26.85546875,-31.73828125,-25.390625,-1.0,0.0,-1.0,0.0,4.m4v,7.0
2024-02-28 09:30:48.380123,1709109048.380123,779.78515625,-38.0859375,-34.66796875,999.51171875,-1.0,0.0,-1.0,0.0,4.m4v,7.0
2024-02-28 09:30:48.380123,1709109048.380123,779.78515625,-38.0859375,-34.66796875,999.51171875,-1.0,0.0,-1.0,0.0,4.m4v,7.0
2024-02-28 09:30:48.384029,1709109048.384029,557.6171875,-34.66796875,-40.52734375,947.265625,-1.0,0.0,-1.0,0.0,4.m4v,7.0
2024-02-28 09:30:48.384029,1709109048.384029,557.6171875,-34.66796875,-40.52734375,947.265625,-1.0,0.0,-1.0,0.0,4.m4v,7.0
2024-02-28 09:30:48.387935,1709109048.3879347,181.15234375,-37.59765625,-31.73828125,952.1484375,-1.0,0.0,-1.0,0.0,4.m4v,7.0
2024-02-28 09:30:48.387935,1709109048.3879347,181.15234375,-37.59765625,-31.73828125,952.1484375,-1.0,0.0,-1.0,0.0,4.m4v,7.0
2024-02-28 09:30:48.391840,1709109048.3918405,-34.66796875,-41.50390625,-35.15625,979.4921875,-1.0,0.0,-1.0,0.0,4.m4v,7.0
2024-02-28 09:30:48.391840,1709109048.3918405,-34.66796875,-41.50390625,-35.15625,979.4921875,-1.0,0.0,-1.0,0.0,4.m4v,7.0
2024-02-28 09:30:48.395746,1709109048.3957462,-30.76171875,-33.203125,-35.15625,966.796875,-1.0,0.0,-1.0,0.0,4.m4v,7.0
2024-02-28 09:30:48.395746,1709109048.3957462,-30.76171875,-33.203125,-35.15625,966.796875,-1.0,0.0,-1.0,0.0,4.m4v,7.0
2024-02-28 09:30:48.399652,1709109048.399652,62.98828125,-35.64453125,-29.78515625,926.26953125,-1.0,0.0,-1.0,0.0,4.m4v,7.0
2024-02-28 09:30:48.399652,1709109048.399652,62.98828125,-35.64453125,-29.78515625,926.26953125,-1.0,0.0,-1.0,0.0,4.m4v,7.0
2024-02-28 09:30:48.403558,1709109048.4035578,160.64453125,-39.0625,-33.203125,999.51171875,-1.0,0.0,-1.0,0.0,4.m4v,7.0
2024-02-28 09:30:48.407464,1709109048.4074638,-181.15234375,-36.62109375,-36.62109375,277.83203125,-1.0,0.0,-1.0,0.0,4.m4v,7.0
2024-02-28 09:30:48.606662,1709109048.6066616,-84.47265625,-35.15625,-40.0390625,-1000.0,-1.0,0.0,-1.0,0.0,4.m4v,7.0
2024-02-28 09:30:48.610567,1709109048.610567,-143.06640625,-30.76171875,-44.43359375,-948.73046875,-1.0,0.0,-1.0,0.0,4.m4v,7.0
2024-02-28 09:30:48.614474,1709109048.614474,-148.92578125,-32.71484375,-40.52734375,-1000.0,-1.0,0.0,-1.0,0.0,4.m4v,7.0
2024-02-28 09:30:48.618380,1709109048.61838,39.0625,-28.80859375,-42.48046875,-758.7890625,-1.0,0.0,-1.0,0.0,4.m4v,7.0
2024-02-28 09:30:48.622286,1709109048.6222858,696.77734375,-26.85546875,-30.76171875,620.1171875,-1.0,0.0,-1.0,0.0,4.m4v,7.0
2024-02-28 09:30:48.626192,1709109048.6261916,754.8828125,-32.2265625,-23.92578125,999.51171875,-1.0,0.0,-1.0,0.0,4.m4v,7.0
2024-02-28 09:30:48.630097,1709109048.6300974,245.1171875,-34.1796875,-27.83203125,906.25,-1.0,0.0,-1.0,0.0,4.m4v,7.0
2024-02-28 09:30:48.634003,1709109048.6340032,89.84375,-35.64453125,-27.34375,995.1171875,-1.0,0.0,-1.0,0.0,4.m4v,7.0
2024-02-28 09:30:48.637909,1709109048.6379092,102.05078125,-40.0390625,-28.80859375,912.109375,-1.0,0.0,-1.0,0.0,4.m4v,7.0
2024-02-28 09:30:48.641815,1709109048.641815,166.9921875,-29.296875,-41.9921875,999.51171875,-1.0,0.0,-1.0,0.0,4.m4v,7.0
2024-02-28 09:30:48.645721,1709109048.6457207,31.25,-26.85546875,-36.1328125,711.9140625,-1.0,0.0,-1.0,0.0,4.m4v,7.0
2024-02-28 09:30:48.649626,1709109048.6496265,-732.91015625,-40.0390625,-36.62109375,-699.70703125,-1.0,0.0,-1.0,0.0,4.m4v,7.0
2024-02-28 09:30:48.657438,1709109048.6574385,-362.79296875,-38.0859375,-39.55078125,-935.546875,-1.0,0.0,-1.0,0.0,4.m4v,7.0
2024-02-28 09:30:48.665251,1709109048.6652503,-26.85546875,-34.66796875,-37.109375,-943.359375,-1.0,0.0,-1.0,0.0,4.m4v,7.0
2024-02-28 09:30:48.673062,1709109048.673062,-166.50390625,-34.1796875,-32.71484375,-863.28125,-1.0,0.0,-1.0,0.0,4.m4v,7.0
2024-02-28 09:30:48.680874,1709109048.680874,799.8046875,-46.38671875,-26.85546875,999.51171875,-1.0,0.0,-1.0,0.0,4.m4v,7.0
2024-02-28 09:30:48.688685,1709109048.6886854,152.83203125,-15.625,-42.48046875,984.375,-1.0,0.0,-1.0,0.0,4.m4v,7.0
2024-02-28 09:30:48.696497,1709109048.6964972,-42.96875,-48.33984375,-45.8984375,935.05859375,-1.0,0.0,-1.0,0.0,4.m4v,7.0
2024-02-28 09:30:48.700403,1709109048.700403,19.53125,-44.921875,-48.828125,975.09765625,-1.0,0.0,-1.0,0.0,4.m4v,7.0
2024-02-28 09:30:48.704309,1709109048.7043087,112.3046875,-41.9921875,-32.71484375,972.16796875,-1.0,0.0,-1.0,0.0,4.m4v,7.0
2024-02-28 09:30:48.708215,1709109048.7082152,-450.68359375,-38.0859375,-30.2734375,-285.64453125,-1.0,0.0,-1.0,0.0,4.m4v,7.0
2024-02-28 09:30:48.712121,1709109048.712121,-949.21875,-36.1328125,-37.109375,-1000.0,-1.0,0.0,-1.0,0.0,4.m4v,7.0
2024-02-28 09:30:48.716027,1709109048.7160268,-556.15234375,-41.9921875,-41.015625,-945.3125,-1.0,0.0,-1.0,0.0,4.m4v,7.0
2024-02-28 09:30:48.719933,1709109048.7199328,-204.58984375,-52.734375,-33.203125,-1000.0,-1.0,0.0,-1.0,0.0,4.m4v,7.0
2024-02-28 09:30:48.723839,1709109048.7238386,-117.67578125,-32.2265625,-21.97265625,-992.67578125,-1.0,0.0,-1.0,0.0,4.m4v,7.0
2024-02-28 09:30:48.727744,1709109048.7277443,-163.0859375,-23.4375,-31.73828125,-965.33203125,-1.0,0.0,-1.0,0.0,4.m4v,7.0
2024-02-28 09:30:48.969906,1709109048.969906,-191.40625,-35.15625,-58.59375,-1000.0,-1.0,0.0,-1.0,0.0,4.m4v,7.0
2024-02-28 09:30:48.981623,1709109048.9816234,831.54296875,-30.2734375,-31.25,999.51171875,-1.0,0.0,-1.0,0.0,4.m4v,7.0
2024-02-28 09:30:48.993341,1709109048.9933407,-14.16015625,-43.9453125,-42.96875,984.375,-1.0,0.0,-1.0,0.0,4.m4v,7.0
2024-02-28 09:30:49.005058,1709109049.005058,76.66015625,-34.66796875,-38.0859375,793.45703125,-1.0,0.0,-1.0,0.0,4.m4v,7.0
2024-02-28 09:30:49.110520,1709109049.11052,53.22265625,-37.59765625,-26.3671875,983.3984375,-1.0,0.0,-1.0,0.0,4.m4v,7.0
2024-02-28 09:30:49.110520,1709109049.11052,53.22265625,-37.59765625,-26.3671875,983.3984375,-1.0,0.0,-1.0,0.0,4.m4v,7.0
2024-02-28 09:30:49.114426,1709109049.1144257,-21.484375,-43.9453125,-34.1796875,974.12109375,-1.0,0.0,-1.0,0.0,4.m4v,7.0
2024-02-28 09:30:49.114426,1709109049.1144257,-21.484375,-43.9453125,-34.1796875,974.12109375,-1.0,0.0,-1.0,0.0,4.m4v,7.0
2024-02-28 09:30:49.118332,1709109049.1183317,-4.8828125,-46.875,-39.0625,920.41015625,-1.0,0.0,-1.0,0.0,4.m4v,7.0
2024-02-28 09:30:49.118332,1709109049.1183317,-4.8828125,-46.875,-39.0625,920.41015625,-1.0,0.0,-1.0,0.0,4.m4v,7.0
2024-02-28 09:30:49.305814,1709109049.3058136,-97.16796875,-19.53125,-31.25,419.921875,-1.0,0.0,-1.0,0.0,4.m4v,7.0
2024-02-28 09:30:49.309719,1709109049.309719,-860.3515625,-31.25,-32.71484375,-869.140625,-1.0,0.0,-1.0,0.0,4.m4v,7.0
2024-02-28 09:30:49.313625,1709109049.313625,-780.76171875,-33.69140625,-27.83203125,-1000.0,-1.0,0.0,-1.0,0.0,4.m4v,7.0
2024-02-28 09:30:49.317531,1709109049.3175306,-319.3359375,-33.203125,-31.25,-953.61328125,-1.0,0.0,-1.0,0.0,4.m4v,7.0
2024-02-28 09:30:49.321436,1709109049.3214364,-109.86328125,-31.73828125,-38.57421875,-1000.0,-1.0,0.0,-1.0,0.0,4.m4v,7.0
2024-02-28 09:30:49.325342,1709109049.3253424,-24.4140625,-25.390625,-35.64453125,-948.2421875,-1.0,0.0,-1.0,0.0,4.m4v,7.0
2024-02-28 09:30:49.329248,1709109049.3292482,-154.296875,-26.3671875,-35.64453125,-1000.0,-1.0,0.0,-1.0,0.0,4.m4v,7.0
2024-02-28 09:30:49.333154,1709109049.333154,-164.55078125,-29.78515625,-36.62109375,-916.50390625,-1.0,0.0,-1.0,0.0,4.m4v,7.0
2024-02-28 09:30:49.337060,1709109049.3370595,543.45703125,-18.5546875,-26.3671875,500.9765625,-1.0,0.0,-1.0,0.0,4.m4v,7.0
2024-02-28 09:30:49.340966,1709109049.3409655,807.6171875,-35.64453125,-39.0625,999.51171875,-1.0,0.0,-1.0,0.0,4.m4v,7.0
2024-02-28 09:30:49.352683,1709109049.352683,19.53125,-15.13671875,-29.78515625,983.3984375,-1.0,0.0,-1.0,0.0,4.m4v,7.0
2024-02-28 09:30:49.364400,1709109049.3644,77.63671875,-25.390625,-34.1796875,744.140625,-1.0,0.0,-1.0,0.0,4.m4v,7.0
2024-02-28 09:30:49.372212,1709109049.372212,-864.2578125,-26.3671875,-33.69140625,-1000.0,-1.0,0.0,-1.0,0.0,4.m4v,7.0
2024-02-28 09:30:49.383929,1709109049.3839293,-30.76171875,-41.9921875,-44.921875,-1000.0,-1.0,0.0,-1.0,0.0,4.m4v,7.0
2024-02-28 09:30:49.395647,1709109049.3956468,-35.15625,-27.83203125,-26.3671875,-632.8125,-1.0,0.0,-1.0,0.0,4.m4v,7.0
2024-02-28 09:30:49.403458,1709109049.4034584,755.859375,-23.4375,-18.5546875,999.51171875,-1.0,0.0,-1.0,0.0,4.m4v,7.0
2024-02-28 09:30:49.415177,1709109049.4151769,-39.0625,-30.2734375,-36.1328125,974.609375,-1.0,0.0,-1.0,0.0,4.m4v,7.0
2024-02-28 09:30:49.551882,1709109049.5518825,-792.48046875,-39.55078125,-30.2734375,-1000.0,-1.0,0.0,-1.0,0.0,4.m4v,7.0
2024-02-28 09:30:49.555788,1709109049.555788,-371.58203125,-42.48046875,-39.55078125,-951.171875,-1.0,0.0,-1.0,0.0,4.m4v,7.0
2024-02-28 09:30:49.559694,1709109049.5596938,-166.9921875,-31.25,-38.57421875,-1000.0,-1.0,0.0,-1.0,0.0,4.m4v,7.0
2024-02-28 09:30:49.563600,1709109049.5635996,-37.109375,-23.92578125,-31.73828125,-985.3515625,-1.0,0.0,-1.0,0.0,4.m4v,7.0
2024-02-28 09:30:49.567506,1709109049.5675056,-52.734375,-20.5078125,-34.1796875,-973.14453125,-1.0,0.0,-1.0,0.0,4.m4v,7.0
2024-02-28 09:30:49.571411,1709109049.5714114,-183.10546875,-18.5546875,-38.0859375,-1000.0,-1.0,0.0,-1.0,0.0,4.m4v,7.0
2024-02-28 09:30:49.575317,1709109049.5753171,196.2890625,-19.53125,-38.57421875,-74.21875,-1.0,0.0,-1.0,0.0,4.m4v,7.0
2024-02-28 09:30:49.579223,1709109049.579223,757.32421875,-23.4375,-27.34375,996.58203125,-1.0,0.0,-1.0,0.0,4.m4v,7.0
2024-02-28 09:30:49.583129,1709109049.5831287,555.6640625,-32.71484375,-20.99609375,955.078125,-1.0,0.0,-1.0,0.0,4.m4v,7.0
2024-02-28 09:30:49.587035,1709109049.5870347,209.9609375,-39.0625,-22.4609375,948.2421875,-1.0,0.0,-1.0,0.0,4.m4v,7.0
2024-02-28 09:30:49.590940,1709109049.5909405,32.71484375,-42.96875,-22.4609375,980.46875,-1.0,0.0,-1.0,0.0,4.m4v,7.0
2024-02-28 09:30:49.594846,1709109049.5948462,-6.8359375,-39.55078125,-37.109375,969.23828125,-1.0,0.0,-1.0,0.0,4.m4v,7.0
2024-02-28 09:30:49.598752,1709109049.5987525,37.59765625,-32.2265625,-45.41015625,924.31640625,-1.0,0.0,-1.0,0.0,4.m4v,7.0
2024-02-28 09:30:49.602658,1709109049.6026585,155.2734375,-34.66796875,-45.41015625,999.51171875,-1.0,0.0,-1.0,0.0,4.m4v,7.0
2024-02-28 09:30:49.606564,1709109049.606564,-159.1796875,-31.73828125,-41.015625,340.33203125,-1.0,0.0,-1.0,0.0,4.m4v,7.0
2024-02-28 09:30:49.610470,1709109049.6104698,-888.671875,-37.109375,-30.76171875,-907.71484375,-1.0,0.0,-1.0,0.0,4.m4v,7.0
2024-02-28 09:30:49.614376,1709109049.6143756,-766.6015625,-42.48046875,-26.3671875,-1000.0,-1.0,0.0,-1.0,0.0,4.m4v,7.0
2024-02-28 09:30:49.618282,1709109049.6182816,-312.01171875,-32.2265625,-31.73828125,-958.984375,-1.0,0.0,-1.0,0.0,4.m4v,7.0
2024-02-28 09:30:49.622187,1709109049.6221874,-153.80859375,-36.1328125,-34.1796875,-1000.0,-1.0,0.0,-1.0,0.0,4.m4v,7.0
2024-02-28 09:30:49.626093,1709109049.6260931,-112.79296875,-50.78125,-34.66796875,-939.94140625,-1.0,0.0,-1.0,0.0,4.m4v,7.0
2024-02-28 09:30:49.629999,1709109049.629999,-238.76953125,-48.828125,-32.2265625,-1000.0,-1.0,0.0,-1.0,0.0,4.m4v,7.0
2024-02-28 09:30:50.161196,1709109050.1611958,-137.20703125,-42.96875,-24.4140625,-1000.0,-1.0,0.0,-1.0,0.0,4.m4v,7.0
2024-02-28 09:30:50.161196,1709109050.1611958,-137.20703125,-42.96875,-24.4140625,-1000.0,-1.0,0.0,-1.0,0.0,4.m4v,7.0
2024-02-28 09:30:50.165102,1709109050.1651015,-50.78125,-39.55078125,-34.1796875,-966.30859375,-1.0,0.0,-1.0,0.0,4.m4v,7.0
2024-02-28 09:30:50.165102,1709109050.1651015,-50.78125,-39.55078125,-34.1796875,-966.30859375,-1.0,0.0,-1.0,0.0,4.m4v,7.0
2024-02-28 09:30:50.169007,1709109050.1690073,-148.4375,-28.3203125,-34.66796875,-1000.0,-1.0,0.0,-1.0,0.0,4.m4v,7.0
2024-02-28 09:30:50.169007,1709109050.1690073,-148.4375,-28.3203125,-34.66796875,-1000.0,-1.0,0.0,-1.0,0.0,4.m4v,7.0
2024-02-28 09:30:50.172913,1709109050.172913,-189.94140625,-30.2734375,-38.57421875,-998.53515625,-1.0,0.0,-1.0,0.0,4.m4v,7.0
2024-02-28 09:30:50.172913,1709109050.172913,-189.94140625,-30.2734375,-38.57421875,-998.53515625,-1.0,0.0,-1.0,0.0,4.m4v,7.0
2024-02-28 09:30:50.176819,1709109050.176819,364.74609375,-30.2734375,-37.59765625,242.67578125,-1.0,0.0,-1.0,0.0,4.m4v,7.0
2024-02-28 09:30:50.176819,1709109050.176819,364.74609375,-30.2734375,-37.59765625,242.67578125,-1.0,0.0,-1.0,0.0,4.m4v,7.0
2024-02-28 09:30:50.180725,1709109050.1807249,850.09765625,-21.97265625,-22.4609375,999.51171875,-1.0,0.0,-1.0,0.0,4.m4v,7.0
2024-02-28 09:30:50.180725,1709109050.1807249,850.09765625,-21.97265625,-22.4609375,999.51171875,-1.0,0.0,-1.0,0.0,4.m4v,7.0
2024-02-28 09:30:50.184631,1709109050.1846306,515.13671875,-30.76171875,-19.53125,917.96875,-1.0,0.0,-1.0,0.0,4.m4v,7.0
2024-02-28 09:30:50.184631,1709109050.1846306,515.13671875,-30.76171875,-19.53125,917.96875,-1.0,0.0,-1.0,0.0,4.m4v,7.0
2024-02-28 09:30:50.188536,1709109050.1885364,146.97265625,-41.015625,-25.87890625,968.75,-1.0,0.0,-1.0,0.0,4.m4v,7.0
2024-02-28 09:30:50.188536,1709109050.1885364,146.97265625,-41.015625,-25.87890625,968.75,-1.0,0.0,-1.0,0.0,4.m4v,7.0
2024-02-28 09:30:50.192442,1709109050.1924422,19.04296875,-40.52734375,-28.3203125,984.375,-1.0,0.0,-1.0,0.0,4.m4v,7.0
2024-02-28 09:30:50.192442,1709109050.1924422,19.04296875,-40.52734375,-28.3203125,984.375,-1.0,0.0,-1.0,0.0,4.m4v,7.0
2024-02-28 09:30:50.196348,1709109050.1963482,23.4375,-45.8984375,-33.69140625,925.78125,-1.0,0.0,-1.0,0.0,4.m4v,7.0
2024-02-28 09:30:50.196348,1709109050.1963482,23.4375,-45.8984375,-33.69140625,925.78125,-1.0,0.0,-1.0,0.0,4.m4v,7.0
2024-02-28 09:30:50.200254,1709109050.200254,85.9375,-52.24609375,-37.59765625,994.140625,-1.0,0.0,-1.0,0.0,4.m4v,7.0
2024-02-28 09:30:50.200254,1709109050.200254,85.9375,-52.24609375,-37.59765625,994.140625,-1.0,0.0,-1.0,0.0,4.m4v,7.0
2024-02-28 09:30:50.204160,1709109050.2041595,124.51171875,-38.0859375,-38.0859375,927.734375,-1.0,0.0,-1.0,0.0,4.m4v,7.0
2024-02-28 09:30:50.204160,1709109050.2041595,124.51171875,-38.0859375,-38.0859375,927.734375,-1.0,0.0,-1.0,0.0,4.m4v,7.0
2024-02-28 09:30:50.208066,1709109050.2080662,-512.20703125,-31.25,-38.0859375,-425.78125,-1.0,0.0,-1.0,0.0,4.m4v,7.0
2024-02-28 09:30:50.208066,1709109050.2080662,-512.20703125,-31.25,-38.0859375,-425.78125,-1.0,0.0,-1.0,0.0,4.m4v,7.0
2024-02-28 09:30:50.211972,1709109050.211972,-952.1484375,-42.48046875,-40.0390625,-1000.0,-1.0,0.0,-1.0,0.0,4.m4v,7.0
2024-02-28 09:30:50.211972,1709109050.211972,-952.1484375,-42.48046875,-40.0390625,-1000.0,-1.0,0.0,-1.0,0.0,4.m4v,7.0
2024-02-28 09:30:50.215878,1709109050.215878,-547.8515625,-41.015625,-35.15625,-934.08203125,-1.0,0.0,-1.0,0.0,4.m4v,7.0
2024-02-28 09:30:50.215878,1709109050.215878,-547.8515625,-41.015625,-35.15625,-934.08203125,-1.0,0.0,-1.0,0.0,4.m4v,7.0
2024-02-28 09:30:50.219784,1709109050.2197838,-203.125,-31.73828125,-32.71484375,-1000.0,-1.0,0.0,-1.0,0.0,4.m4v,7.0
2024-02-28 09:30:50.219784,1709109050.2197838,-203.125,-31.73828125,-32.71484375,-1000.0,-1.0,0.0,-1.0,0.0,4.m4v,7.0
2024-02-28 09:30:50.223690,1709109050.2236896,-68.84765625,-33.69140625,-38.0859375,-1000.0,-1.0,0.0,-1.0,0.0,4.m4v,7.0
2024-02-28 09:30:50.223690,1709109050.2236896,-68.84765625,-33.69140625,-38.0859375,-1000.0,-1.0,0.0,-1.0,0.0,4.m4v,7.0
2024-02-28 09:30:50.227595,1709109050.227595,-59.08203125,-42.96875,-38.0859375,-948.2421875,-1.0,0.0,-1.0,0.0,4.m4v,7.0
2024-02-28 09:30:50.227595,1709109050.227595,-59.08203125,-42.96875,-38.0859375,-948.2421875,-1.0,0.0,-1.0,0.0,4.m4v,7.0
2024-02-28 09:30:50.231501,1709109050.231501,-181.15234375,-40.0390625,-36.1328125,-1000.0,-1.0,0.0,-1.0,0.0,4.m4v,7.0
2024-02-28 09:30:50.235407,1709109050.235407,-6.34765625,-27.34375,-31.25,-585.9375,-1.0,0.0,-1.0,0.0,4.m4v,7.0
2024-02-28 09:30:50.239313,1709109050.239313,713.37890625,-25.87890625,-31.73828125,754.8828125,-1.0,0.0,-1.0,0.0,4.m4v,7.0
2024-02-28 09:30:50.243219,1709109050.243219,717.28515625,-30.2734375,-40.52734375,999.51171875,-1.0,0.0,-1.0,0.0,4.m4v,7.0
2024-02-28 09:30:50.247124,1709109050.2471244,248.53515625,-23.4375,-45.8984375,914.55078125,-1.0,0.0,-1.0,0.0,4.m4v,7.0
2024-02-28 09:30:50.251030,1709109050.2510302,46.38671875,-29.78515625,-42.48046875,988.28125,-1.0,0.0,-1.0,0.0,4.m4v,7.0
2024-02-28 09:30:50.254937,1709109050.2549367,16.11328125,-39.55078125,-28.80859375,957.51953125,-1.0,0.0,-1.0,0.0,4.m4v,7.0
2024-02-28 09:30:50.258842,1709109050.2588425,57.12890625,-32.71484375,-31.25,938.96484375,-1.0,0.0,-1.0,0.0,4.m4v,7.0
2024-02-28 09:30:50.262748,1709109050.2627482,129.39453125,-27.34375,-43.45703125,999.51171875,-1.0,0.0,-1.0,0.0,4.m4v,7.0
2024-02-28 09:30:50.266654,1709109050.266654,-289.0625,-32.2265625,-41.50390625,91.30859375,-1.0,0.0,-1.0,0.0,4.m4v,7.0
2024-02-28 09:30:50.270560,1709109050.27056,-909.1796875,-36.62109375,-37.59765625,-1000.0,-1.0,0.0,-1.0,0.0,4.m4v,7.0
2024-02-28 09:30:50.274466,1709109050.2744658,-619.140625,-29.296875,-26.3671875,-992.1875,-1.0,0.0,-1.0,0.0,4.m4v,7.0
2024-02-28 09:30:50.278372,1709109050.2783716,-206.54296875,-27.83203125,-26.3671875,-975.5859375,-1.0,0.0,-1.0,0.0,4.m4v,7.0
2024-02-28 09:30:50.290089,1709109050.2900891,-164.0625,-46.875,-34.66796875,-1000.0,-1.0,0.0,-1.0,0.0,4.m4v,7.0
2024-02-28 09:30:50.465851,1709109050.4658513,-96.6796875,-41.9921875,-32.2265625,-1000.0,-1.0,0.0,-1.0,0.0,4.m4v,7.0
2024-02-28 09:30:50.477569,1709109050.4775689,51.26953125,-44.43359375,-40.52734375,-658.69140625,-1.0,0.0,-1.0,0.0,4.m4v,7.0
2024-02-28 09:30:50.485380,1709109050.4853804,732.91015625,-26.85546875,-32.71484375,999.51171875,-1.0,0.0,-1.0,0.0,4.m4v,7.0
2024-02-28 09:30:50.493192,1709109050.4931917,73.2421875,-25.87890625,-21.97265625,997.55859375,-1.0,0.0,-1.0,0.0,4.m4v,7.0
2024-02-28 09:30:50.504909,1709109050.504909,49.31640625,-39.55078125,-36.1328125,788.0859375,-1.0,0.0,-1.0,0.0,4.m4v,7.0
2024-02-28 09:30:50.512721,1709109050.5127208,-880.37109375,-36.62109375,-43.45703125,-1000.0,-1.0,0.0,-1.0,0.0,4.m4v,7.0
2024-02-28 09:30:50.524438,1709109050.524438,-92.7734375,-36.1328125,-39.0625,-980.95703125,-1.0,0.0,-1.0,0.0,4.m4v,7.0
2024-02-28 09:30:50.536157,1709109050.536157,235.3515625,-35.64453125,-27.34375,3.90625,-1.0,0.0,-1.0,0.0,4.m4v,7.0
2024-02-28 09:30:50.543968,1709109050.5439684,559.08203125,-40.52734375,-31.25,944.3359375,-1.0,0.0,-1.0,0.0,4.m4v,7.0
2024-02-28 09:30:50.555686,1709109050.5556858,52.24609375,-34.1796875,-33.69140625,937.5,-1.0,0.0,-1.0,0.0,4.m4v,7.0
2024-02-28 09:30:50.563498,1709109050.5634975,107.91015625,-41.50390625,-43.45703125,979.98046875,-1.0,0.0,-1.0,0.0,4.m4v,7.0
2024-02-28 09:30:50.575215,1709109050.5752149,-576.171875,-39.55078125,-30.76171875,-949.21875,-1.0,0.0,-1.0,0.0,4.m4v,7.0
2024-02-28 09:30:50.583027,1709109050.5830274,-89.84375,-39.55078125,-36.1328125,-1000.0,-1.0,0.0,-1.0,0.0,4.m4v,7.0
2024-02-28 09:30:50.590839,1709109050.590839,-224.12109375,-34.66796875,-37.59765625,-1000.0,-1.0,0.0,-1.0,0.0,4.m4v,7.0
2024-02-28 09:30:50.598650,1709109050.5986505,700.1953125,-30.76171875,-42.96875,767.08984375,-1.0,0.0,-1.0,0.0,4.m4v,7.0
2024-02-28 09:30:50.606462,1709109050.6064622,299.8046875,-36.1328125,-39.0625,915.52734375,-1.0,0.0,-1.0,0.0,4.m4v,7.0
2024-02-28 09:30:50.614274,1709109050.6142738,-48.828125,-26.85546875,-34.1796875,983.88671875,-1.0,0.0,-1.0,0.0,4.m4v,7.0
2024-02-28 09:30:50.622085,1709109050.622085,146.484375,-29.296875,-29.296875,999.51171875,-1.0,0.0,-1.0,0.0,4.m4v,7.0
2024-02-28 09:30:50.629898,1709109050.6298976,-765.625,-35.15625,-25.87890625,-684.08203125,-1.0,0.0,-1.0,0.0,4.m4v,7.0
2024-02-28 09:30:50.637709,1709109050.6377091,-360.3515625,-35.15625,-30.76171875,-933.10546875,-1.0,0.0,-1.0,0.0,4.m4v,7.0
2024-02-28 09:30:50.645521,1709109050.645521,-55.17578125,-25.390625,-32.71484375,-944.82421875,-1.0,0.0,-1.0,0.0,4.m4v,7.0
2024-02-28 09:30:50.653332,1709109050.6533325,-146.97265625,-19.53125,-48.33984375,-847.65625,-1.0,0.0,-1.0,0.0,4.m4v,7.0
2024-02-28 09:30:50.661144,1709109050.6611445,773.92578125,-25.390625,-43.9453125,999.51171875,-1.0,0.0,-1.0,0.0,4.m4v,7.0
2024-02-28 09:30:50.668956,1709109050.6689558,75.68359375,-28.3203125,-41.9921875,983.88671875,-1.0,0.0,-1.0,0.0,4.m4v,7.0
2024-02-28 09:30:50.676768,1709109050.6767678,3.41796875,-37.109375,-24.90234375,968.75,-1.0,0.0,-1.0,0.0,4.m4v,7.0
2024-02-28 09:30:50.684579,1709109050.6845794,129.8828125,-41.50390625,-29.296875,999.51171875,-1.0,0.0,-1.0,0.0,4.m4v,7.0
2024-02-28 09:30:50.692391,1709109050.6923912,-890.625,-31.25,-41.50390625,-891.11328125,-1.0,0.0,-1.0,0.0,4.m4v,7.0
2024-02-28 09:30:50.700203,1709109050.7002027,-195.80078125,-22.94921875,-31.73828125,-959.47265625,-1.0,0.0,-1.0,0.0,4.m4v,7.0
2024-02-28 09:30:50.708014,1709109050.7080142,-175.78125,-39.55078125,-35.64453125,-945.3125,-1.0,0.0,-1.0,0.0,4.m4v,7.0
2024-02-28 09:30:50.715826,1709109050.715826,-32.71484375,-35.64453125,-31.25,-651.85546875,-1.0,0.0,-1.0,0.0,4.m4v,7.0
2024-02-28 09:30:50.723638,1709109050.7236376,723.6328125,-25.87890625,-35.64453125,999.51171875,-1.0,0.0,-1.0,0.0,4.m4v,7.0
2024-02-28 09:30:50.731449,1709109050.7314494,15.13671875,-35.64453125,-36.1328125,984.86328125,-1.0,0.0,-1.0,0.0,4.m4v,7.0
2024-02-28 09:30:50.739261,1709109050.739261,66.40625,-26.85546875,-35.64453125,914.55078125,-1.0,0.0,-1.0,0.0,4.m4v,7.0
2024-02-28 09:30:50.747072,1709109050.7470725,-82.03125,-34.66796875,-36.62109375,623.53515625,-1.0,0.0,-1.0,0.0,4.m4v,7.0
2024-02-28 09:30:50.754884,1709109050.7548842,-808.10546875,-39.0625,-39.0625,-1000.0,-1.0,0.0,-1.0,0.0,4.m4v,7.0
2024-02-28 09:30:50.762696,1709109050.7626958,-122.0703125,-25.87890625,-39.0625,-1000.0,-1.0,0.0,-1.0,0.0,4.m4v,7.0
2024-02-28 09:30:50.770507,1709109050.770507,-210.9375,-34.1796875,-52.24609375,-1000.0,-1.0,0.0,-1.0,0.0,4.m4v,7.0
2024-02-28 09:30:50.778319,1709109050.7783191,534.1796875,-32.71484375,-40.0390625,481.93359375,-1.0,0.0,-1.0,0.0,4.m4v,7.0
2024-02-28 09:30:50.786131,1709109050.786131,358.88671875,-35.64453125,-44.921875,899.4140625,-1.0,0.0,-1.0,0.0,4.m4v,7.0
2024-02-28 09:30:51.040011,1709109051.0400107,85.44921875,-34.66796875,-31.73828125,981.93359375,-1.0,0.0,-1.0,0.0,4.m4v,7.0
2024-02-28 09:30:51.043916,1709109051.0439165,125.48828125,-32.2265625,-32.2265625,953.125,-1.0,0.0,-1.0,0.0,4.m4v,7.0
2024-02-28 09:30:51.047822,1709109051.0478222,-473.14453125,-33.69140625,-27.34375,-335.9375,-1.0,0.0,-1.0,0.0,4.m4v,7.0
2024-02-28 09:30:51.051728,1709109051.0517285,-955.56640625,-41.9921875,-34.66796875,-1000.0,-1.0,0.0,-1.0,0.0,4.m4v,7.0
2024-02-28 09:30:51.055634,1709109051.0556345,-559.5703125,-37.109375,-32.71484375,-941.89453125,-1.0,0.0,-1.0,0.0,4.m4v,7.0
2024-02-28 09:30:51.055634,1709109051.0556345,-559.5703125,-37.109375,-32.71484375,-941.89453125,-1.0,0.0,-1.0,0.0,4.m4v,7.0
2024-02-28 09:30:51.059540,1709109051.05954,-226.07421875,-33.203125,-34.66796875,-1000.0,-1.0,0.0,-1.0,0.0,4.m4v,7.0
2024-02-28 09:30:51.059540,1709109051.05954,-226.07421875,-33.203125,-34.66796875,-1000.0,-1.0,0.0,-1.0,0.0,4.m4v,7.0
2024-02-28 09:30:51.063446,1709109051.063446,-92.7734375,-39.0625,-39.55078125,-956.54296875,-1.0,0.0,-1.0,0.0,4.m4v,7.0
2024-02-28 09:30:51.063446,1709109051.063446,-92.7734375,-39.0625,-39.55078125,-956.54296875,-1.0,0.0,-1.0,0.0,4.m4v,7.0
2024-02-28 09:30:51.067352,1709109051.0673518,-133.30078125,-32.2265625,-30.76171875,-1000.0,-1.0,0.0,-1.0,0.0,4.m4v,7.0
2024-02-28 09:30:51.067352,1709109051.0673518,-133.30078125,-32.2265625,-30.76171875,-1000.0,-1.0,0.0,-1.0,0.0,4.m4v,7.0
2024-02-28 09:30:51.071258,1709109051.0712576,-206.0546875,-22.94921875,-39.0625,-963.37890625,-1.0,0.0,-1.0,0.0,4.m4v,7.0
2024-02-28 09:30:51.071258,1709109051.0712576,-206.0546875,-22.94921875,-39.0625,-963.37890625,-1.0,0.0,-1.0,0.0,4.m4v,7.0
2024-02-28 09:30:51.075163,1709109051.0751634,385.25390625,-33.203125,-50.78125,407.71484375,-1.0,0.0,-1.0,0.0,4.m4v,7.0
2024-02-28 09:30:51.075163,1709109051.0751634,385.25390625,-33.203125,-50.78125,407.71484375,-1.0,0.0,-1.0,0.0,4.m4v,7.0
2024-02-28 09:30:51.079069,1709109051.0790691,757.8125,-46.875,-38.57421875,999.51171875,-1.0,0.0,-1.0,0.0,4.m4v,7.0
2024-02-28 09:30:51.079069,1709109051.0790691,757.8125,-46.875,-38.57421875,999.51171875,-1.0,0.0,-1.0,0.0,4.m4v,7.0
2024-02-28 09:30:51.082975,1709109051.0829751,478.515625,-42.48046875,-21.97265625,900.87890625,-1.0,0.0,-1.0,0.0,4.m4v,7.0
2024-02-28 09:30:51.086881,1709109051.086881,206.54296875,-36.62109375,-20.01953125,979.00390625,-1.0,0.0,-1.0,0.0,4.m4v,7.0
2024-02-28 09:30:51.090787,1709109051.0907867,7.8125,-40.0390625,-24.4140625,979.4921875,-1.0,0.0,-1.0,0.0,4.m4v,7.0
2024-02-28 09:30:51.094692,1709109051.0946925,-12.20703125,-33.69140625,-22.94921875,933.59375,-1.0,0.0,-1.0,0.0,4.m4v,7.0
2024-02-28 09:30:51.098599,1709109051.0985987,66.89453125,-26.3671875,-26.85546875,980.46875,-1.0,0.0,-1.0,0.0,4.m4v,7.0
2024-02-28 09:30:51.102504,1709109051.1025045,147.94921875,-23.92578125,-31.25,941.40625,-1.0,0.0,-1.0,0.0,4.m4v,7.0
2024-02-28 09:30:51.106410,1709109051.1064105,-394.04296875,-32.71484375,-39.0625,-321.2890625,-1.0,0.0,-1.0,0.0,4.m4v,7.0
2024-02-28 09:30:51.110316,1709109051.110316,-919.921875,-35.15625,-37.59765625,-1000.0,-1.0,0.0,-1.0,0.0,4.m4v,7.0
2024-02-28 09:30:51.114222,1709109051.114222,-603.515625,-33.203125,-26.85546875,-945.80078125,-1.0,0.0,-1.0,0.0,4.m4v,7.0
2024-02-28 09:30:51.118128,1709109051.1181278,-239.2578125,-30.2734375,-29.296875,-1000.0,-1.0,0.0,-1.0,0.0,4.m4v,7.0
2024-02-28 09:30:51.122034,1709109051.1220336,-70.80078125,-29.296875,-17.578125,-1000.0,-1.0,0.0,-1.0,0.0,4.m4v,7.0
2024-02-28 09:30:51.125939,1709109051.1259394,-78.61328125,-36.1328125,-18.06640625,-961.9140625,-1.0,0.0,-1.0,0.0,4.m4v,7.0
2024-02-28 09:30:51.129845,1709109051.1298451,-190.91796875,-41.9921875,-33.69140625,-1000.0,-1.0,0.0,-1.0,0.0,4.m4v,7.0
2024-02-28 09:30:51.133751,1709109051.1337512,-196.77734375,-39.55078125,-38.57421875,-983.88671875,-1.0,0.0,-1.0,0.0,4.m4v,7.0
2024-02-28 09:30:51.137657,1709109051.137657,403.3203125,-31.73828125,-43.45703125,312.01171875,-1.0,0.0,-1.0,0.0,4.m4v,7.0
2024-02-28 09:30:51.141563,1709109051.1415627,841.796875,-32.71484375,-37.109375,999.51171875,-1.0,0.0,-1.0,0.0,4.m4v,7.0
2024-02-28 09:30:51.145468,1709109051.1454685,497.55859375,-31.73828125,-37.109375,910.64453125,-1.0,0.0,-1.0,0.0,4.m4v,7.0
2024-02-28 09:30:51.149374,1709109051.1493742,154.78515625,-25.87890625,-39.55078125,973.14453125,-1.0,0.0,-1.0,0.0,4.m4v,7.0
2024-02-28 09:30:51.153280,1709109051.15328,39.0625,-33.203125,-33.203125,982.91015625,-1.0,0.0,-1.0,0.0,4.m4v,7.0
2024-02-28 09:30:51.157186,1709109051.157186,50.29296875,-39.0625,-29.78515625,921.38671875,-1.0,0.0,-1.0,0.0,4.m4v,7.0
2024-02-28 09:30:51.161092,1709109051.1610918,128.90625,-34.66796875,-21.484375,999.51171875,-1.0,0.0,-1.0,0.0,4.m4v,7.0
2024-02-28 09:30:51.164998,1709109051.1649976,89.35546875,-28.3203125,-16.6015625,831.54296875,-1.0,0.0,-1.0,0.0,4.m4v,7.0
2024-02-28 09:30:51.168903,1709109051.1689034,-618.1640625,-32.2265625,-25.390625,-546.38671875,-1.0,0.0,-1.0,0.0,4.m4v,7.0
2024-02-28 09:30:51.172809,1709109051.1728091,-964.84375,-38.0859375,-29.296875,-1000.0,-1.0,0.0,-1.0,0.0,4.m4v,7.0
2024-02-28 09:30:51.176715,1709109051.1767151,-479.98046875,-37.109375,-31.73828125,-933.59375,-1.0,0.0,-1.0,0.0,4.m4v,7.0
2024-02-28 09:30:51.180621,1709109051.180621,-134.27734375,-30.76171875,-29.296875,-1000.0,-1.0,0.0,-1.0,0.0,4.m4v,7.0
2024-02-28 09:30:51.184527,1709109051.1845267,-51.26953125,-25.87890625,-23.4375,-976.5625,-1.0,0.0,-1.0,0.0,4.m4v,7.0
2024-02-28 09:30:51.188432,1709109051.1884325,-126.46484375,-35.64453125,-26.3671875,-987.79296875,-1.0,0.0,-1.0,0.0,4.m4v,7.0
2024-02-28 09:30:51.192339,1709109051.1923394,-197.75390625,-44.921875,-37.109375,-1000.0,-1.0,0.0,-1.0,0.0,4.m4v,7.0
2024-02-28 09:30:51.196245,1709109051.1962452,285.64453125,-36.62109375,-32.71484375,81.0546875,-1.0,0.0,-1.0,0.0,4.m4v,7.0
2024-02-28 09:30:51.200151,1709109051.2001512,825.68359375,-27.83203125,-18.06640625,999.51171875,-1.0,0.0,-1.0,0.0,4.m4v,7.0
2024-02-28 09:30:51.204057,1709109051.204057,555.17578125,-30.76171875,-19.04296875,936.03515625,-1.0,0.0,-1.0,0.0,4.m4v,7.0
2024-02-28 09:30:51.207963,1709109051.2079628,118.1640625,-38.57421875,-25.390625,958.49609375,-1.0,0.0,-1.0,0.0,4.m4v,7.0
2024-02-28 09:30:51.211869,1709109051.2118683,4.8828125,-35.15625,-39.0625,983.3984375,-1.0,0.0,-1.0,0.0,4.m4v,7.0
2024-02-28 09:30:51.215774,1709109051.2157743,29.296875,-27.34375,-43.45703125,938.96484375,-1.0,0.0,-1.0,0.0,4.m4v,7.0
2024-02-28 09:30:51.219680,1709109051.2196803,25.390625,-24.4140625,-38.0859375,970.703125,-1.0,0.0,-1.0,0.0,4.m4v,7.0
2024-02-28 09:30:51.223586,1709109051.223586,88.37890625,-31.73828125,-36.62109375,971.19140625,-1.0,0.0,-1.0,0.0,4.m4v,7.0
2024-02-28 09:30:51.227492,1709109051.227492,-429.19921875,-39.0625,-37.59765625,-239.2578125,-1.0,0.0,-1.0,0.0,4.m4v,7.0
2024-02-28 09:30:51.231398,1709109051.2313976,-922.8515625,-46.38671875,-40.0390625,-1000.0,-1.0,0.0,-1.0,0.0,4.m4v,7.0
2024-02-28 09:30:51.235303,1709109051.2353034,-569.3359375,-40.52734375,-30.2734375,-952.63671875,-1.0,0.0,-1.0,0.0,4.m4v,7.0
2024-02-28 09:30:51.317326,1709109051.3173263,-28.3203125,-27.34375,-37.109375,-835.9375,-1.0,0.0,-1.0,0.0,4.m4v,7.0
2024-02-28 09:30:51.321232,1709109051.321232,652.34375,-40.52734375,-33.69140625,561.5234375,-1.0,0.0,-1.0,0.0,4.m4v,7.0
2024-02-28 09:30:51.325138,1709109051.325138,757.8125,-43.9453125,-26.85546875,999.51171875,-1.0,0.0,-1.0,0.0,4.m4v,7.0
2024-02-28 09:30:51.329044,1709109051.3290436,240.234375,-37.109375,-19.53125,908.203125,-1.0,0.0,-1.0,0.0,4.m4v,7.0
2024-02-28 09:30:51.332950,1709109051.33295,42.96875,-41.9921875,-31.25,968.75,-1.0,0.0,-1.0,0.0,4.m4v,7.0
2024-02-28 09:30:51.336856,1709109051.336856,46.38671875,-49.31640625,-41.015625,942.87109375,-1.0,0.0,-1.0,0.0,4.m4v,7.0
2024-02-28 09:30:51.340762,1709109051.340762,142.578125,-46.875,-42.96875,999.51171875,-1.0,0.0,-1.0,0.0,4.m4v,7.0
2024-02-28 09:30:51.344668,1709109051.3446677,-188.4765625,-38.0859375,-39.0625,74.70703125,-1.0,0.0,-1.0,0.0,4.m4v,7.0
2024-02-28 09:30:51.348573,1709109051.3485734,-797.8515625,-36.1328125,-36.1328125,-1000.0,-1.0,0.0,-1.0,0.0,4.m4v,7.0
2024-02-28 09:30:51.352479,1709109051.3524792,-624.0234375,-22.94921875,-34.1796875,-992.67578125,-1.0,0.0,-1.0,0.0,4.m4v,7.0
2024-02-28 09:30:51.356385,1709109051.3563852,-252.9296875,-13.671875,-36.1328125,-976.07421875,-1.0,0.0,-1.0,0.0,4.m4v,7.0
2024-02-28 09:30:51.360291,1709109051.360291,-102.5390625,-26.3671875,-26.85546875,-1000.0,-1.0,0.0,-1.0,0.0,4.m4v,7.0
2024-02-28 09:30:51.364197,1709109051.3641968,-54.19921875,-25.87890625,-28.3203125,-970.21484375,-1.0,0.0,-1.0,0.0,4.m4v,7.0
2024-02-28 09:30:51.368103,1709109051.3681026,-123.53515625,-29.296875,-34.66796875,-997.55859375,-1.0,0.0,-1.0,0.0,4.m4v,7.0
2024-02-28 09:30:51.372008,1709109051.3720083,-217.28515625,-41.015625,-38.0859375,-1000.0,-1.0,0.0,-1.0,0.0,4.m4v,7.0
2024-02-28 09:30:51.375914,1709109051.375914,300.78125,-39.55078125,-44.43359375,187.5,-1.0,0.0,-1.0,0.0,4.m4v,7.0
2024-02-28 09:30:51.379821,1709109051.3798206,831.54296875,-31.73828125,-33.203125,999.51171875,-1.0,0.0,-1.0,0.0,4.m4v,7.0
2024-02-28 09:30:51.383726,1709109051.3837264,532.71484375,-21.484375,-23.92578125,921.38671875,-1.0,0.0,-1.0,0.0,4.m4v,7.0
2024-02-28 09:30:51.387632,1709109051.387632,175.29296875,-30.76171875,-30.76171875,965.8203125,-1.0,0.0,-1.0,0.0,4.m4v,7.0
2024-02-28 09:30:51.391538,1709109051.391538,20.5078125,-39.0625,-33.69140625,974.609375,-1.0,0.0,-1.0,0.0,4.m4v,7.0
2024-02-28 09:30:51.395444,1709109051.395444,31.73828125,-28.80859375,-38.57421875,974.609375,-1.0,0.0,-1.0,0.0,4.m4v,7.0
2024-02-28 09:30:51.399350,1709109051.3993497,91.30859375,-21.97265625,-34.66796875,918.45703125,-1.0,0.0,-1.0,0.0,4.m4v,7.0
2024-02-28 09:30:51.403255,1709109051.4032557,150.87890625,-32.71484375,-26.3671875,999.51171875,-1.0,0.0,-1.0,0.0,4.m4v,7.0
2024-02-28 09:30:51.407161,1709109051.4071612,-166.50390625,-44.43359375,-32.2265625,479.98046875,-1.0,0.0,-1.0,0.0,4.m4v,7.0
2024-02-28 09:30:51.411067,1709109051.4110672,-879.39453125,-41.015625,-33.69140625,-834.9609375,-1.0,0.0,-1.0,0.0,4.m4v,7.0
2024-02-28 09:30:51.414973,1709109051.414973,-753.41796875,-29.78515625,-29.78515625,-1000.0,-1.0,0.0,-1.0,0.0,4.m4v,7.0
2024-02-28 09:30:51.418879,1709109051.4188788,-279.78515625,-24.4140625,-26.3671875,-951.171875,-1.0,0.0,-1.0,0.0,4.m4v,7.0
2024-02-28 09:30:51.485279,1709109051.4852786,9.765625,-27.83203125,-20.5078125,-940.91796875,-1.0,0.0,-1.0,0.0,4.m4v,7.0
2024-02-28 09:30:51.496996,1709109051.4969962,702.1484375,-25.87890625,-28.80859375,724.609375,-1.0,0.0,-1.0,0.0,4.m4v,7.0
2024-02-28 09:30:51.508714,1709109051.5087135,90.33203125,-31.25,-28.80859375,985.3515625,-1.0,0.0,-1.0,0.0,4.m4v,7.0
2024-02-28 09:30:51.520431,1709109051.5204313,93.26171875,-40.52734375,-28.80859375,999.51171875,-1.0,0.0,-1.0,0.0,4.m4v,7.0
2024-02-28 09:30:51.532149,1709109051.5321486,-846.6796875,-29.296875,-32.71484375,-1000.0,-1.0,0.0,-1.0,0.0,4.m4v,7.0
2024-02-28 09:30:51.543866,1709109051.5438662,-42.48046875,-27.34375,-29.78515625,-984.375,-1.0,0.0,-1.0,0.0,4.m4v,7.0
2024-02-28 09:30:51.555584,1709109051.5555837,162.109375,-34.66796875,-34.1796875,-59.5703125,-1.0,0.0,-1.0,0.0,4.m4v,7.0
2024-02-28 09:30:51.567301,1709109051.5673008,242.1875,-26.3671875,-20.99609375,949.21875,-1.0,0.0,-1.0,0.0,4.m4v,7.0
2024-02-28 09:30:51.579018,1709109051.5790184,81.54296875,-31.73828125,-30.2734375,924.8046875,-1.0,0.0,-1.0,0.0,4.m4v,7.0
2024-02-28 09:30:51.590736,1709109051.5907357,-821.2890625,-26.3671875,-38.0859375,-848.6328125,-1.0,0.0,-1.0,0.0,4.m4v,7.0
2024-02-28 09:30:51.602453,1709109051.6024532,-130.37109375,-33.69140625,-37.59765625,-1000.0,-1.0,0.0,-1.0,0.0,4.m4v,7.0
2024-02-28 09:30:51.614170,1709109051.6141703,-142.578125,-33.203125,-33.203125,-951.66015625,-1.0,0.0,-1.0,0.0,4.m4v,7.0
2024-02-28 09:30:51.625888,1709109051.6258876,403.3203125,-40.0390625,-43.45703125,905.2734375,-1.0,0.0,-1.0,0.0,4.m4v,7.0
2024-02-28 09:30:51.637605,1709109051.6376052,55.17578125,-30.76171875,-44.921875,946.77734375,-1.0,0.0,-1.0,0.0,4.m4v,7.0
2024-02-28 09:30:51.645417,1709109051.6454167,-347.16796875,-32.71484375,-43.9453125,6.34765625,-1.0,0.0,-1.0,0.0,4.m4v,7.0
2024-02-28 09:30:51.649323,1709109051.6493225,-942.87109375,-38.57421875,-29.296875,-1000.0,-1.0,0.0,-1.0,0.0,4.m4v,7.0
2024-02-28 09:30:51.653229,1709109051.6532283,-652.83203125,-49.31640625,-22.4609375,-981.4453125,-1.0,0.0,-1.0,0.0,4.m4v,7.0
2024-02-28 09:30:51.657134,1709109051.6571343,-248.53515625,-41.50390625,-30.76171875,-980.95703125,-1.0,0.0,-1.0,0.0,4.m4v,7.0
2024-02-28 09:30:51.661041,1709109051.661041,-104.4921875,-33.69140625,-35.64453125,-1000.0,-1.0,0.0,-1.0,0.0,4.m4v,7.0
2024-02-28 09:30:51.664947,1709109051.6649468,-35.64453125,-41.9921875,-35.15625,-946.2890625,-1.0,0.0,-1.0,0.0,4.m4v,7.0
2024-02-28 09:30:51.668853,1709109051.6688526,-145.5078125,-28.80859375,-35.64453125,-1000.0,-1.0,0.0,-1.0,0.0,4.m4v,7.0
2024-02-28 09:30:51.672758,1709109051.6727583,-148.4375,-19.04296875,-38.0859375,-885.25390625,-1.0,0.0,-1.0,0.0,4.m4v,7.0
2024-02-28 09:30:51.676664,1709109051.6766644,522.94921875,-26.85546875,-35.64453125,536.62109375,-1.0,0.0,-1.0,0.0,4.m4v,7.0
2024-02-28 09:30:51.680570,1709109051.68057,832.03125,-29.78515625,-28.3203125,999.51171875,-1.0,0.0,-1.0,0.0,4.m4v,7.0
2024-02-28 09:30:51.684476,1709109051.684476,447.265625,-28.80859375,-30.76171875,898.92578125,-1.0,0.0,-1.0,0.0,4.m4v,7.0
2024-02-28 09:30:51.688382,1709109051.6883817,101.07421875,-30.2734375,-32.71484375,983.3984375,-1.0,0.0,-1.0,0.0,4.m4v,7.0
2024-02-28 09:30:51.692287,1709109051.6922874,-55.17578125,-31.73828125,-26.85546875,981.93359375,-1.0,0.0,-1.0,0.0,4.m4v,7.0
2024-02-28 09:30:51.696193,1709109051.6961937,-43.45703125,-34.66796875,-29.78515625,922.8515625,-1.0,0.0,-1.0,0.0,4.m4v,7.0
2024-02-28 09:30:51.700099,1709109051.7000992,78.61328125,-30.2734375,-26.85546875,999.51171875,-1.0,0.0,-1.0,0.0,4.m4v,7.0
2024-02-28 09:30:51.704005,1709109051.704005,118.65234375,-32.2265625,-20.5078125,903.3203125,-1.0,0.0,-1.0,0.0,4.m4v,7.0
2024-02-28 09:30:51.707911,1709109051.7079115,-547.8515625,-28.3203125,-35.15625,-471.19140625,-1.0,0.0,-1.0,0.0,4.m4v,7.0
2024-02-28 09:30:51.711817,1709109051.7118173,-931.640625,-24.4140625,-48.33984375,-1000.0,-1.0,0.0,-1.0,0.0,4.m4v,7.0
2024-02-28 09:30:51.715723,1709109051.7157233,-506.8359375,-32.2265625,-36.62109375,-932.12890625,-1.0,0.0,-1.0,0.0,4.m4v,7.0
2024-02-28 09:30:51.719629,1709109051.719629,-195.3125,-32.2265625,-30.76171875,-1000.0,-1.0,0.0,-1.0,0.0,4.m4v,7.0
2024-02-28 09:30:51.723535,1709109051.7235348,-88.8671875,-28.80859375,-37.59765625,-1000.0,-1.0,0.0,-1.0,0.0,4.m4v,7.0
2024-02-28 09:30:51.727441,1709109051.7274406,-109.375,-26.3671875,-31.73828125,-955.56640625,-1.0,0.0,-1.0,0.0,4.m4v,7.0
2024-02-28 09:30:51.731346,1709109051.7313464,-197.75390625,-34.1796875,-26.85546875,-1000.0,-1.0,0.0,-1.0,0.0,4.m4v,7.0
2024-02-28 09:30:51.735252,1709109051.7352524,-148.92578125,-50.29296875,-31.73828125,-824.21875,-1.0,0.0,-1.0,0.0,4.m4v,7.0
2024-02-28 09:30:51.739158,1709109051.7391582,485.3515625,-41.9921875,-30.76171875,518.5546875,-1.0,0.0,-1.0,0.0,4.m4v,7.0
2024-02-28 09:30:51.743064,1709109051.743064,748.046875,-35.64453125,-26.85546875,999.51171875,-1.0,0.0,-1.0,0.0,4.m4v,7.0
2024-02-28 09:30:51.746970,1709109051.7469697,331.0546875,-34.66796875,-25.87890625,906.73828125,-1.0,0.0,-1.0,0.0,4.m4v,7.0
2024-02-28 09:30:51.750875,1709109051.7508757,111.81640625,-29.296875,-35.15625,981.93359375,-1.0,0.0,-1.0,0.0,4.m4v,7.0
2024-02-28 09:30:51.754782,1709109051.754782,62.98828125,-35.64453125,-42.48046875,973.14453125,-1.0,0.0,-1.0,0.0,4.m4v,7.0
2024-02-28 09:30:51.758688,1709109051.7586875,78.125,-38.57421875,-26.3671875,918.45703125,-1.0,0.0,-1.0,0.0,4.m4v,7.0
2024-02-28 09:30:51.762594,1709109051.7625935,198.73046875,-41.015625,-22.4609375,999.51171875,-1.0,0.0,-1.0,0.0,4.m4v,7.0
2024-02-28 09:30:51.766499,1709109051.7664993,-111.81640625,-40.0390625,-32.71484375,431.640625,-1.0,0.0,-1.0,0.0,4.m4v,7.0
2024-02-28 09:30:51.770405,1709109051.7704053,-866.69921875,-40.52734375,-38.57421875,-869.62890625,-1.0,0.0,-1.0,0.0,4.m4v,7.0
2024-02-28 09:30:51.774311,1709109051.774311,-699.21875,-34.1796875,-38.0859375,-1000.0,-1.0,0.0,-1.0,0.0,4.m4v,7.0
2024-02-28 09:30:51.778217,1709109051.7782168,-235.3515625,-30.2734375,-37.109375,-953.125,-1.0,0.0,-1.0,0.0,4.m4v,7.0
2024-02-28 09:30:51.782123,1709109051.7821226,-100.09765625,-25.390625,-28.3203125,-1000.0,-1.0,0.0,-1.0,0.0,4.m4v,7.0
2024-02-28 09:30:51.786028,1709109051.7860284,-99.12109375,-28.80859375,-25.390625,-952.63671875,-1.0,0.0,-1.0,0.0,4.m4v,7.0
2024-02-28 09:30:51.789934,1709109051.7899344,-249.51171875,-35.15625,-31.73828125,-1000.0,-1.0,0.0,-1.0,0.0,4.m4v,7.0
2024-02-28 09:30:51.793840,1709109051.7938402,-197.75390625,-32.2265625,-35.15625,-930.17578125,-1.0,0.0,-1.0,0.0,4.m4v,7.0
2024-02-28 09:30:51.797746,1709109051.797746,517.08984375,-25.390625,-26.85546875,454.1015625,-1.0,0.0,-1.0,0.0,4.m4v,7.0
2024-02-28 09:30:51.801652,1709109051.8016522,847.65625,-32.71484375,-32.2265625,999.51171875,-1.0,0.0,-1.0,0.0,4.m4v,7.0
2024-02-28 09:30:51.809464,1709109051.8094635,95.703125,-27.34375,-32.2265625,979.98046875,-1.0,0.0,-1.0,0.0,4.m4v,7.0
2024-02-28 09:30:51.817275,1709109051.8172753,57.12890625,-30.2734375,-27.83203125,955.078125,-1.0,0.0,-1.0,0.0,4.m4v,7.0
2024-02-28 09:30:51.825087,1709109051.825087,102.05078125,-44.921875,-31.73828125,999.51171875,-1.0,0.0,-1.0,0.0,4.m4v,7.0
2024-02-28 09:30:51.832899,1709109051.8328986,-929.19921875,-33.69140625,-32.2265625,-1000.0,-1.0,0.0,-1.0,0.0,4.m4v,7.0
2024-02-28 09:30:51.840710,1709109051.8407104,-254.39453125,-31.73828125,-31.25,-986.81640625,-1.0,0.0,-1.0,0.0,4.m4v,7.0
2024-02-28 09:30:51.848522,1709109051.8485222,-191.89453125,-31.73828125,-40.0390625,-994.62890625,-1.0,0.0,-1.0,0.0,4.m4v,7.0
2024-02-28 09:30:51.856334,1709109051.8563335,320.80078125,-37.109375,-37.59765625,161.62109375,-1.0,0.0,-1.0,0.0,4.m4v,7.0
2024-02-28 09:30:51.864145,1709109051.8641453,532.2265625,-37.109375,-32.71484375,924.31640625,-1.0,0.0,-1.0,0.0,4.m4v,7.0
2024-02-28 09:30:51.871957,1709109051.871957,22.94921875,-19.04296875,-33.203125,980.46875,-1.0,0.0,-1.0,0.0,4.m4v,7.0
2024-02-28 09:30:51.879769,1709109051.8797686,56.15234375,-46.38671875,-33.203125,999.51171875,-1.0,0.0,-1.0,0.0,4.m4v,7.0
2024-02-28 09:30:51.887580,1709109051.8875804,-685.05859375,-29.78515625,-42.48046875,-742.67578125,-1.0,0.0,-1.0,0.0,4.m4v,7.0
2024-02-28 09:30:51.895392,1709109051.895392,-369.140625,-37.59765625,-33.69140625,-941.89453125,-1.0,0.0,-1.0,0.0,4.m4v,7.0
2024-02-28 09:30:51.903203,1709109051.9032035,-24.90234375,-39.0625,-39.55078125,-976.5625,-1.0,0.0,-1.0,0.0,4.m4v,7.0
2024-02-28 09:30:51.911015,1709109051.9110153,-212.40234375,-30.76171875,-28.3203125,-1000.0,-1.0,0.0,-1.0,0.0,4.m4v,7.0
2024-02-28 09:30:51.918827,1709109051.9188268,762.20703125,-24.4140625,-44.921875,999.51171875,-1.0,0.0,-1.0,0.0,4.m4v,7.0
2024-02-28 09:30:51.926639,1709109051.9266386,192.87109375,-32.2265625,-33.69140625,959.9609375,-1.0,0.0,-1.0,0.0,4.m4v,7.0
2024-02-28 09:30:51.934450,1709109051.93445,-10.25390625,-32.71484375,-30.2734375,975.09765625,-1.0,0.0,-1.0,0.0,4.m4v,7.0
2024-02-28 09:30:51.942262,1709109051.9422617,177.734375,-41.015625,-46.38671875,999.51171875,-1.0,0.0,-1.0,0.0,4.m4v,7.0
2024-02-28 09:30:51.950073,1709109051.9500737,-844.7265625,-46.875,-43.9453125,-831.0546875,-1.0,0.0,-1.0,0.0,4.m4v,7.0
