Timestamp,Timestamp_UNIX,TP9,AF7,AF8,TP10,Valence,Arousal,Dominace,Viewed,Video,Participant
2024-02-28 09:39:55.003509,1709109595.0035093,-111.81640625,-37.59765625,-35.64453125,-55.17578125,0.0,1.0,-1.0,0.0,6.m4v,7.0
2024-02-28 09:39:55.007414,1709109595.007414,559.5703125,-33.69140625,-34.1796875,999.51171875,0.0,1.0,-1.0,0.0,6.m4v,7.0
2024-02-28 09:39:55.011318,1709109595.0113184,362.79296875,-39.55078125,-34.66796875,939.453125,0.0,1.0,-1.0,0.0,6.m4v,7.0
2024-02-28 09:39:55.015223,1709109595.015223,-93.75,-36.1328125,-34.1796875,335.44921875,0.0,1.0,-1.0,0.0,6.m4v,7.0
2024-02-28 09:39:55.019128,1709109595.0191276,-561.5234375,-36.62109375,-38.0859375,-854.00390625,0.0,1.0,-1.0,0.0,6.m4v,7.0
2024-02-28 09:39:55.023032,1709109595.0230322,-410.15625,-37.109375,-38.57421875,-720.21484375,0.0,1.0,-1.0,0.0,6.m4v,7.0
2024-02-28 09:39:55.026937,1709109595.0269368,248.53515625,-37.59765625,-36.62109375,615.72265625,0.0,1.0,-1.0,0.0,6.m4v,7.0
2024-02-28 09:39:55.030855,1709109595.0308547,378.41796875,-42.96875,-36.1328125,999.51171875,0.0,1.0,-1.0,0.0,6.m4v,7.0
2024-02-28 09:39:55.034759,1709109595.0347593,160.15625,-44.921875,-34.1796875,929.6875,0.0,1.0,-1.0,0.0,6.m4v,7.0
2024-02-28 09:39:55.038664,1709109595.038664,103.02734375,-45.8984375,-38.57421875,931.640625,0.0,1.0,-1.0,0.0,6.m4v,7.0
2024-02-28 09:39:55.042568,1709109595.0425684,91.796875,-50.78125,-41.015625,999.51171875,0.0,1.0,-1.0,0.0,6.m4v,7.0
2024-02-28 09:39:55.046473,1709109595.046473,-18.06640625,-56.15234375,-38.57421875,752.44140625,0.0,1.0,-1.0,0.0,6.m4v,7.0
2024-02-28 09:39:55.050378,1709109595.0503776,-425.29296875,-48.828125,-38.0859375,-462.890625,0.0,1.0,-1.0,0.0,6.m4v,7.0
2024-02-28 09:39:55.054282,1709109595.0542822,-676.7578125,-42.96875,-39.55078125,-1000.0,0.0,1.0,-1.0,0.0,6.m4v,7.0
2024-02-28 09:39:55.058187,1709109595.058187,-560.546875,-45.41015625,-42.96875,-898.4375,0.0,1.0,-1.0,0.0,6.m4v,7.0
2024-02-28 09:39:55.062092,1709109595.0620916,154.296875,-44.921875,-46.38671875,247.55859375,0.0,1.0,-1.0,0.0,6.m4v,7.0
2024-02-28 09:39:55.065996,1709109595.0659962,596.6796875,-36.62109375,-42.96875,999.51171875,0.0,1.0,-1.0,0.0,6.m4v,7.0
2024-02-28 09:39:55.069901,1709109595.0699008,239.2578125,-36.62109375,-42.96875,955.078125,0.0,1.0,-1.0,0.0,6.m4v,7.0
2024-02-28 09:39:55.073805,1709109595.073805,-90.33203125,-48.33984375,-42.96875,680.6640625,0.0,1.0,-1.0,0.0,6.m4v,7.0
2024-02-28 09:39:55.077722,1709109595.0777218,-563.4765625,-50.29296875,-38.0859375,-521.484375,0.0,1.0,-1.0,0.0,6.m4v,7.0
2024-02-28 09:39:55.081626,1709109595.0816264,-304.19921875,-41.015625,-31.73828125,-245.60546875,0.0,1.0,-1.0,0.0,6.m4v,7.0
2024-02-28 09:39:55.085531,1709109595.085531,403.80859375,-32.2265625,-27.83203125,981.93359375,0.0,1.0,-1.0,0.0,6.m4v,7.0
2024-02-28 09:39:55.089436,1709109595.0894358,341.30859375,-30.76171875,-32.71484375,999.51171875,0.0,1.0,-1.0,0.0,6.m4v,7.0
2024-02-28 09:39:55.093340,1709109595.0933404,3.90625,-36.1328125,-36.62109375,654.78515625,0.0,1.0,-1.0,0.0,6.m4v,7.0
2024-02-28 09:39:55.097245,1709109595.097245,-391.11328125,-40.0390625,-35.15625,274.90234375,0.0,1.0,-1.0,0.0,6.m4v,7.0
2024-02-28 09:39:55.101150,1709109595.1011496,-153.80859375,-41.50390625,-35.64453125,716.30859375,0.0,1.0,-1.0,0.0,6.m4v,7.0
2024-02-28 09:39:55.105054,1709109595.105054,177.734375,-37.59765625,-30.2734375,999.51171875,0.0,1.0,-1.0,0.0,6.m4v,7.0
2024-02-28 09:39:55.108959,1709109595.1089587,20.5078125,-29.78515625,-25.390625,766.6015625,0.0,1.0,-1.0,0.0,6.m4v,7.0
2024-02-28 09:39:55.112863,1709109595.1128633,-447.265625,-34.66796875,-25.87890625,-383.7890625,0.0,1.0,-1.0,0.0,6.m4v,7.0
2024-02-28 09:39:55.116768,1709109595.116768,-836.9140625,-36.1328125,-24.4140625,-1000.0,0.0,1.0,-1.0,0.0,6.m4v,7.0
2024-02-28 09:39:55.120672,1709109595.1206725,-304.19921875,-30.2734375,-26.85546875,-134.765625,0.0,1.0,-1.0,0.0,6.m4v,7.0
2024-02-28 09:39:55.124599,1709109595.1245985,476.07421875,-26.3671875,-26.85546875,999.51171875,0.0,1.0,-1.0,0.0,6.m4v,7.0
2024-02-28 09:39:55.128503,1709109595.128503,407.71484375,-27.83203125,-29.296875,952.1484375,0.0,1.0,-1.0,0.0,6.m4v,7.0
2024-02-28 09:39:55.132408,1709109595.1324077,101.5625,-36.62109375,-34.1796875,937.5,0.0,1.0,-1.0,0.0,6.m4v,7.0
2024-02-28 09:39:55.136312,1709109595.1363122,-36.62109375,-41.9921875,-31.73828125,965.33203125,0.0,1.0,-1.0,0.0,6.m4v,7.0
2024-02-28 09:39:55.140217,1709109595.1402168,-151.3671875,-36.62109375,-33.69140625,930.6640625,0.0,1.0,-1.0,0.0,6.m4v,7.0
2024-02-28 09:39:55.144122,1709109595.1441216,-123.53515625,-30.76171875,-32.71484375,999.51171875,0.0,1.0,-1.0,0.0,6.m4v,7.0
2024-02-28 09:39:55.148026,1709109595.1480262,-39.55078125,-38.57421875,-29.78515625,810.05859375,0.0,1.0,-1.0,0.0,6.m4v,7.0
2024-02-28 09:39:55.151931,1709109595.1519308,-564.94140625,-46.38671875,-33.69140625,-358.3984375,0.0,1.0,-1.0,0.0,6.m4v,7.0
2024-02-28 09:39:55.155835,1709109595.1558354,-858.88671875,-42.96875,-30.76171875,-1000.0,0.0,1.0,-1.0,0.0,6.m4v,7.0
2024-02-28 09:39:55.159740,1709109595.15974,-321.77734375,-41.015625,-23.4375,-332.51953125,0.0,1.0,-1.0,0.0,6.m4v,7.0
2024-02-28 09:39:55.163645,1709109595.1636446,397.94921875,-34.1796875,-24.4140625,946.2890625,0.0,1.0,-1.0,0.0,6.m4v,7.0
2024-02-28 09:39:55.167549,1709109595.1675491,405.2734375,-28.80859375,-29.78515625,975.5859375,0.0,1.0,-1.0,0.0,6.m4v,7.0
2024-02-28 09:39:55.171463,1709109595.1714628,84.47265625,-36.62109375,-33.69140625,924.31640625,0.0,1.0,-1.0,0.0,6.m4v,7.0
2024-02-28 09:39:55.175367,1709109595.1753674,-235.83984375,-42.96875,-37.109375,422.8515625,0.0,1.0,-1.0,0.0,6.m4v,7.0
2024-02-28 09:39:55.179272,1709109595.179272,-380.859375,-38.0859375,-40.52734375,171.875,0.0,1.0,-1.0,0.0,6.m4v,7.0
2024-02-28 09:39:55.183177,1709109595.1831765,34.66796875,-33.69140625,-41.015625,798.828125,0.0,1.0,-1.0,0.0,6.m4v,7.0
2024-02-28 09:39:55.187081,1709109595.187081,224.609375,-33.203125,-35.64453125,999.51171875,0.0,1.0,-1.0,0.0,6.m4v,7.0
2024-02-28 09:39:55.190986,1709109595.1909857,1.953125,-33.69140625,-32.2265625,689.453125,0.0,1.0,-1.0,0.0,6.m4v,7.0
2024-02-28 09:39:55.194890,1709109595.1948905,-562.5,-36.62109375,-29.78515625,-477.05078125,0.0,1.0,-1.0,0.0,6.m4v,7.0
2024-02-28 09:39:55.198795,1709109595.1987948,-813.4765625,-37.59765625,-29.78515625,-1000.0,0.0,1.0,-1.0,0.0,6.m4v,7.0
2024-02-28 09:39:55.202700,1709109595.2026997,-153.3203125,-35.64453125,-33.203125,-132.32421875,0.0,1.0,-1.0,0.0,6.m4v,7.0
2024-02-28 09:39:55.206604,1709109595.2066042,403.3203125,-38.0859375,-34.1796875,992.67578125,0.0,1.0,-1.0,0.0,6.m4v,7.0
2024-02-28 09:39:55.210509,1709109595.2105088,224.609375,-37.59765625,-33.69140625,982.91015625,0.0,1.0,-1.0,0.0,6.m4v,7.0
2024-02-28 09:39:55.214413,1709109595.2144134,-84.47265625,-34.1796875,-31.25,375.48828125,0.0,1.0,-1.0,0.0,6.m4v,7.0
2024-02-28 09:39:55.218336,1709109595.2183363,-598.6328125,-37.109375,-35.15625,-789.55078125,0.0,1.0,-1.0,0.0,6.m4v,7.0
2024-02-28 09:39:55.222241,1709109595.222241,-616.69921875,-36.1328125,-39.55078125,-936.03515625,0.0,1.0,-1.0,0.0,6.m4v,7.0
2024-02-28 09:39:55.226146,1709109595.2261455,211.9140625,-34.1796875,-41.015625,288.0859375,0.0,1.0,-1.0,0.0,6.m4v,7.0
2024-02-28 09:39:55.230050,1709109595.23005,506.34765625,-40.52734375,-41.9921875,999.51171875,0.0,1.0,-1.0,0.0,6.m4v,7.0
2024-02-28 09:39:55.233955,1709109595.233955,158.69140625,-42.96875,-36.1328125,938.96484375,0.0,1.0,-1.0,0.0,6.m4v,7.0
2024-02-28 09:39:55.237859,1709109595.2378592,-23.4375,-38.0859375,-33.69140625,916.015625,0.0,1.0,-1.0,0.0,6.m4v,7.0
2024-02-28 09:39:55.241764,1709109595.2417638,-10.25390625,-43.45703125,-41.50390625,999.51171875,0.0,1.0,-1.0,0.0,6.m4v,7.0
2024-02-28 09:39:55.245668,1709109595.2456684,9.27734375,-43.9453125,-38.57421875,758.7890625,0.0,1.0,-1.0,0.0,6.m4v,7.0
2024-02-28 09:39:55.249573,1709109595.249573,-570.80078125,-43.45703125,-36.62109375,-539.55078125,0.0,1.0,-1.0,0.0,6.m4v,7.0
2024-02-28 09:39:55.253478,1709109595.2534778,-791.9921875,-46.875,-44.921875,-1000.0,0.0,1.0,-1.0,0.0,6.m4v,7.0
2024-02-28 09:39:55.257382,1709109595.2573824,-525.87890625,-44.921875,-43.9453125,-1000.0,0.0,1.0,-1.0,0.0,6.m4v,7.0
2024-02-28 09:39:55.261287,1709109595.261287,-12.6953125,-36.1328125,-37.109375,-182.6171875,0.0,1.0,-1.0,0.0,6.m4v,7.0
2024-02-28 09:39:55.265208,1709109595.2652085,629.8828125,-36.1328125,-36.1328125,999.51171875,0.0,1.0,-1.0,0.0,6.m4v,7.0
2024-02-28 09:39:55.269113,1709109595.269113,465.8203125,-41.015625,-32.71484375,999.51171875,0.0,1.0,-1.0,0.0,6.m4v,7.0
2024-02-28 09:39:55.273018,1709109595.2730176,-145.99609375,-37.59765625,-29.296875,24.90234375,0.0,1.0,-1.0,0.0,6.m4v,7.0
2024-02-28 09:39:55.276922,1709109595.2769222,-700.1953125,-36.1328125,-33.69140625,-1000.0,0.0,1.0,-1.0,0.0,6.m4v,7.0
2024-02-28 09:39:55.280827,1709109595.2808268,-545.41015625,-38.57421875,-38.57421875,-904.296875,0.0,1.0,-1.0,0.0,6.m4v,7.0
2024-02-28 09:39:55.284732,1709109595.2847316,188.4765625,-41.9921875,-37.109375,168.45703125,0.0,1.0,-1.0,0.0,6.m4v,7.0
2024-02-28 09:39:55.288636,1709109595.2886362,626.46484375,-40.0390625,-33.69140625,999.51171875,0.0,1.0,-1.0,0.0,6.m4v,7.0
2024-02-28 09:39:55.292541,1709109595.2925408,127.9296875,-38.57421875,-39.55078125,565.4296875,0.0,1.0,-1.0,0.0,6.m4v,7.0
2024-02-28 09:39:55.296445,1709109595.2964454,-649.4140625,-44.921875,-41.50390625,-660.64453125,0.0,1.0,-1.0,0.0,6.m4v,7.0
2024-02-28 09:39:55.300350,1709109595.30035,-750.0,-50.78125,-36.62109375,-1000.0,0.0,1.0,-1.0,0.0,6.m4v,7.0
2024-02-28 09:39:55.304255,1709109595.3042543,-93.75,-44.43359375,-30.76171875,-452.1484375,0.0,1.0,-1.0,0.0,6.m4v,7.0
2024-02-28 09:39:55.308159,1709109595.308159,539.55078125,-39.0625,-29.296875,720.703125,0.0,1.0,-1.0,0.0,6.m4v,7.0
2024-02-28 09:39:55.312079,1709109595.3120794,504.8828125,-38.0859375,-31.25,999.51171875,0.0,1.0,-1.0,0.0,6.m4v,7.0
2024-02-28 09:39:55.315984,1709109595.315984,-16.6015625,-37.109375,-31.73828125,335.9375,0.0,1.0,-1.0,0.0,6.m4v,7.0
2024-02-28 09:39:55.319889,1709109595.3198886,-548.828125,-40.52734375,-31.25,-792.48046875,0.0,1.0,-1.0,0.0,6.m4v,7.0
2024-02-28 09:39:55.323793,1709109595.3237932,-540.52734375,-43.9453125,-35.64453125,-1000.0,0.0,1.0,-1.0,0.0,6.m4v,7.0
2024-02-28 09:39:55.327698,1709109595.3276978,-279.78515625,-40.52734375,-36.1328125,-939.94140625,0.0,1.0,-1.0,0.0,6.m4v,7.0
2024-02-28 09:39:55.331602,1709109595.3316023,-162.59765625,-36.1328125,-40.52734375,-998.046875,0.0,1.0,-1.0,0.0,6.m4v,7.0
2024-02-28 09:39:55.335507,1709109595.335507,-179.6875,-40.0390625,-42.48046875,-981.4453125,0.0,1.0,-1.0,0.0,6.m4v,7.0
2024-02-28 09:39:55.339412,1709109595.3394115,168.9453125,-43.9453125,-38.57421875,145.5078125,0.0,1.0,-1.0,0.0,6.m4v,7.0
2024-02-28 09:39:55.343316,1709109595.3433163,534.1796875,-42.48046875,-37.109375,997.0703125,0.0,1.0,-1.0,0.0,6.m4v,7.0
2024-02-28 09:39:55.347221,1709109595.347221,419.43359375,-41.50390625,-34.66796875,999.51171875,0.0,1.0,-1.0,0.0,6.m4v,7.0
2024-02-28 09:39:55.351125,1709109595.3511257,-80.078125,-44.43359375,-34.1796875,186.03515625,0.0,1.0,-1.0,0.0,6.m4v,7.0
2024-02-28 09:39:55.355030,1709109595.35503,-666.50390625,-43.45703125,-36.1328125,-988.76953125,0.0,1.0,-1.0,0.0,6.m4v,7.0
2024-02-28 09:39:55.358949,1709109595.358949,-579.58984375,-37.109375,-41.50390625,-1000.0,0.0,1.0,-1.0,0.0,6.m4v,7.0
2024-02-28 09:39:55.362854,1709109595.3628535,11.23046875,-33.69140625,-39.55078125,-269.04296875,0.0,1.0,-1.0,0.0,6.m4v,7.0
2024-02-28 09:39:55.366758,1709109595.366758,557.6171875,-31.25,-34.66796875,972.16796875,0.0,1.0,-1.0,0.0,6.m4v,7.0
2024-02-28 09:39:55.370663,1709109595.3706627,411.1328125,-35.64453125,-37.109375,914.0625,0.0,1.0,-1.0,0.0,6.m4v,7.0
2024-02-28 09:39:55.374567,1709109595.3745673,-290.52734375,-38.57421875,-42.48046875,-256.8359375,0.0,1.0,-1.0,0.0,6.m4v,7.0
2024-02-28 09:39:55.378472,1709109595.378472,-708.0078125,-37.109375,-43.45703125,-1000.0,0.0,1.0,-1.0,0.0,6.m4v,7.0
2024-02-28 09:39:55.382376,1709109595.3823764,-398.92578125,-36.1328125,-41.50390625,-901.85546875,0.0,1.0,-1.0,0.0,6.m4v,7.0
2024-02-28 09:39:55.386281,1709109595.3862813,181.15234375,-37.59765625,-40.52734375,-138.671875,0.0,1.0,-1.0,0.0,6.m4v,7.0
2024-02-28 09:39:55.390186,1709109595.3901858,506.34765625,-41.015625,-38.57421875,816.40625,0.0,1.0,-1.0,0.0,6.m4v,7.0
2024-02-28 09:39:55.394090,1709109595.3940904,324.21875,-40.52734375,-33.69140625,982.421875,0.0,1.0,-1.0,0.0,6.m4v,7.0
2024-02-28 09:39:55.397995,1709109595.397995,-148.4375,-41.50390625,-32.2265625,145.99609375,0.0,1.0,-1.0,0.0,6.m4v,7.0
2024-02-28 09:39:55.401900,1709109595.4018996,-573.2421875,-40.0390625,-38.0859375,-906.25,0.0,1.0,-1.0,0.0,6.m4v,7.0
2024-02-28 09:39:55.405818,1709109595.4058175,-408.203125,-42.48046875,-36.62109375,-1000.0,0.0,1.0,-1.0,0.0,6.m4v,7.0
2024-02-28 09:39:55.409722,1709109595.4097223,-192.87109375,-41.50390625,-34.1796875,-930.6640625,0.0,1.0,-1.0,0.0,6.m4v,7.0
2024-02-28 09:39:55.413627,1709109595.413627,-274.90234375,-39.55078125,-36.62109375,-1000.0,0.0,1.0,-1.0,0.0,6.m4v,7.0
2024-02-28 09:39:55.417531,1709109595.4175315,-286.1328125,-39.55078125,-43.45703125,-849.609375,0.0,1.0,-1.0,0.0,6.m4v,7.0
2024-02-28 09:39:55.421436,1709109595.421436,300.29296875,-37.109375,-41.50390625,395.99609375,0.0,1.0,-1.0,0.0,6.m4v,7.0
2024-02-28 09:39:55.425341,1709109595.425341,673.828125,-41.50390625,-40.0390625,999.51171875,0.0,1.0,-1.0,0.0,6.m4v,7.0
2024-02-28 09:39:55.429245,1709109595.4292452,481.93359375,-42.96875,-40.0390625,981.93359375,0.0,1.0,-1.0,0.0,6.m4v,7.0
2024-02-28 09:39:55.433150,1709109595.4331498,-139.6484375,-42.48046875,-32.71484375,-3.90625,0.0,1.0,-1.0,0.0,6.m4v,7.0
2024-02-28 09:39:55.437055,1709109595.4370546,-672.8515625,-39.55078125,-30.2734375,-1000.0,0.0,1.0,-1.0,0.0,6.m4v,7.0
2024-02-28 09:39:55.440959,1709109595.4409592,-443.359375,-35.15625,-35.15625,-1000.0,0.0,1.0,-1.0,0.0,6.m4v,7.0
2024-02-28 09:39:55.444864,1709109595.4448638,-44.921875,-37.109375,-34.1796875,-582.51953125,0.0,1.0,-1.0,0.0,6.m4v,7.0
2024-02-28 09:39:55.448768,1709109595.4487684,354.00390625,-33.203125,-33.203125,512.20703125,0.0,1.0,-1.0,0.0,6.m4v,7.0
2024-02-28 09:39:55.452685,1709109595.4526849,361.328125,-28.80859375,-39.55078125,999.51171875,0.0,1.0,-1.0,0.0,6.m4v,7.0
2024-02-28 09:39:55.456589,1709109595.4565897,74.70703125,-34.1796875,-37.109375,611.81640625,0.0,1.0,-1.0,0.0,6.m4v,7.0
2024-02-28 09:39:55.460494,1709109595.460494,-504.8828125,-41.50390625,-33.203125,-478.515625,0.0,1.0,-1.0,0.0,6.m4v,7.0
2024-02-28 09:39:55.464399,1709109595.4643986,-542.96875,-38.0859375,-37.109375,-1000.0,0.0,1.0,-1.0,0.0,6.m4v,7.0
2024-02-28 09:39:55.468303,1709109595.4683032,-107.421875,-36.1328125,-38.57421875,-952.63671875,0.0,1.0,-1.0,0.0,6.m4v,7.0
2024-02-28 09:39:55.472208,1709109595.4722078,-59.5703125,-37.59765625,-38.0859375,-968.26171875,0.0,1.0,-1.0,0.0,6.m4v,7.0
2024-02-28 09:39:55.476112,1709109595.4761124,-212.40234375,-33.69140625,-36.1328125,-1000.0,0.0,1.0,-1.0,0.0,6.m4v,7.0
2024-02-28 09:39:55.480017,1709109595.480017,200.1953125,-34.66796875,-31.73828125,17.08984375,0.0,1.0,-1.0,0.0,6.m4v,7.0
2024-02-28 09:39:55.483922,1709109595.4839218,687.01171875,-34.1796875,-33.69140625,999.51171875,0.0,1.0,-1.0,0.0,6.m4v,7.0
2024-02-28 09:39:55.487826,1709109595.4878263,525.390625,-36.1328125,-34.66796875,999.51171875,0.0,1.0,-1.0,0.0,6.m4v,7.0
2024-02-28 09:39:55.491731,1709109595.491731,-96.6796875,-40.0390625,-35.64453125,45.8984375,0.0,1.0,-1.0,0.0,6.m4v,7.0
2024-02-28 09:39:55.495636,1709109595.4956355,-634.27734375,-41.9921875,-38.0859375,-1000.0,0.0,1.0,-1.0,0.0,6.m4v,7.0
2024-02-28 09:39:55.499551,1709109595.4995508,-514.6484375,-38.0859375,-36.62109375,-1000.0,0.0,1.0,-1.0,0.0,6.m4v,7.0
2024-02-28 09:39:55.503455,1709109595.5034554,-281.25,-39.0625,-33.203125,-681.640625,0.0,1.0,-1.0,0.0,6.m4v,7.0
2024-02-28 09:39:55.507360,1709109595.50736,418.45703125,-41.015625,-30.2734375,401.85546875,0.0,1.0,-1.0,0.0,6.m4v,7.0
2024-02-28 09:39:55.511265,1709109595.5112646,717.7734375,-36.1328125,-30.2734375,999.51171875,0.0,1.0,-1.0,0.0,6.m4v,7.0
2024-02-28 09:39:55.515169,1709109595.5151691,185.546875,-36.1328125,-28.3203125,624.51171875,0.0,1.0,-1.0,0.0,6.m4v,7.0
2024-02-28 09:39:55.519074,1709109595.5190735,-472.16796875,-41.9921875,-30.2734375,-577.1484375,0.0,1.0,-1.0,0.0,6.m4v,7.0
2024-02-28 09:39:55.522978,1709109595.5229783,-530.2734375,-42.48046875,-39.0625,-1000.0,0.0,1.0,-1.0,0.0,6.m4v,7.0
2024-02-28 09:39:55.526883,1709109595.5268831,-229.00390625,-41.015625,-39.55078125,-963.8671875,0.0,1.0,-1.0,0.0,6.m4v,7.0
2024-02-28 09:39:55.530788,1709109595.5307877,-153.80859375,-41.015625,-37.109375,-937.01171875,0.0,1.0,-1.0,0.0,6.m4v,7.0
2024-02-28 09:39:55.534692,1709109595.5346923,-215.33203125,-41.9921875,-42.48046875,-1000.0,0.0,1.0,-1.0,0.0,6.m4v,7.0
2024-02-28 09:39:55.538597,1709109595.5385969,77.63671875,-36.62109375,-36.1328125,-329.58984375,0.0,1.0,-1.0,0.0,6.m4v,7.0
2024-02-28 09:39:55.542501,1709109595.5425014,532.2265625,-33.203125,-33.69140625,909.1796875,0.0,1.0,-1.0,0.0,6.m4v,7.0
2024-02-28 09:39:55.546417,1709109595.5464163,513.18359375,-29.296875,-43.45703125,999.51171875,0.0,1.0,-1.0,0.0,6.m4v,7.0
2024-02-28 09:39:55.550321,1709109595.550321,99.12109375,-34.66796875,-39.0625,384.765625,0.0,1.0,-1.0,0.0,6.m4v,7.0
2024-02-28 09:39:55.554226,1709109595.5542257,-576.171875,-44.921875,-32.71484375,-855.95703125,0.0,1.0,-1.0,0.0,6.m4v,7.0
2024-02-28 09:39:55.558130,1709109595.5581305,-598.6328125,-42.48046875,-37.59765625,-1000.0,0.0,1.0,-1.0,0.0,6.m4v,7.0
2024-02-28 09:39:55.562035,1709109595.5620348,-106.4453125,-40.52734375,-41.50390625,-565.91796875,0.0,1.0,-1.0,0.0,6.m4v,7.0
2024-02-28 09:39:55.565940,1709109595.5659397,520.99609375,-37.109375,-43.45703125,664.55078125,0.0,1.0,-1.0,0.0,6.m4v,7.0
2024-02-28 09:39:55.569844,1709109595.5698442,635.25390625,-37.59765625,-41.9921875,999.51171875,0.0,1.0,-1.0,0.0,6.m4v,7.0
2024-02-28 09:39:55.573749,1709109595.5737488,-102.5390625,-43.9453125,-35.64453125,-51.26953125,0.0,1.0,-1.0,0.0,6.m4v,7.0
2024-02-28 09:39:55.577653,1709109595.5776534,-683.10546875,-50.29296875,-35.15625,-1000.0,0.0,1.0,-1.0,0.0,6.m4v,7.0
2024-02-28 09:39:55.581558,1709109595.581558,-443.359375,-47.8515625,-39.55078125,-998.53515625,0.0,1.0,-1.0,0.0,6.m4v,7.0
2024-02-28 09:39:55.585463,1709109595.5854626,-41.9921875,-42.96875,-37.109375,-750.48828125,0.0,1.0,-1.0,0.0,6.m4v,7.0
2024-02-28 09:39:55.589367,1709109595.5893672,70.3125,-42.96875,-31.25,-616.2109375,0.0,1.0,-1.0,0.0,6.m4v,7.0
2024-02-28 09:39:55.593290,1709109595.59329,-199.70703125,-40.0390625,-35.15625,-1000.0,0.0,1.0,-1.0,0.0,6.m4v,7.0
2024-02-28 09:39:55.597194,1709109595.5971944,-191.40625,-37.59765625,-39.0625,-808.59375,0.0,1.0,-1.0,0.0,6.m4v,7.0
2024-02-28 09:39:55.601099,1709109595.6010993,379.8828125,-38.57421875,-37.109375,479.4921875,0.0,1.0,-1.0,0.0,6.m4v,7.0
2024-02-28 09:39:55.605004,1709109595.6050038,588.8671875,-37.109375,-36.62109375,999.51171875,0.0,1.0,-1.0,0.0,6.m4v,7.0
2024-02-28 09:39:55.608908,1709109595.6089084,359.86328125,-35.64453125,-33.203125,909.66796875,0.0,1.0,-1.0,0.0,6.m4v,7.0
2024-02-28 09:39:55.612813,1709109595.612813,-188.4765625,-35.64453125,-33.203125,-138.18359375,0.0,1.0,-1.0,0.0,6.m4v,7.0
2024-02-28 09:39:55.616718,1709109595.6167176,-603.515625,-29.296875,-31.25,-1000.0,0.0,1.0,-1.0,0.0,6.m4v,7.0
2024-02-28 09:39:55.620622,1709109595.6206222,-460.9375,-32.2265625,-31.25,-1000.0,0.0,1.0,-1.0,0.0,6.m4v,7.0
2024-02-28 09:39:55.624527,1709109595.6245267,7.8125,-34.66796875,-35.64453125,-296.875,0.0,1.0,-1.0,0.0,6.m4v,7.0
2024-02-28 09:39:55.628431,1709109595.628431,550.29296875,-31.73828125,-30.2734375,833.984375,0.0,1.0,-1.0,0.0,6.m4v,7.0
2024-02-28 09:39:55.632336,1709109595.632336,473.6328125,-32.2265625,-24.90234375,999.51171875,0.0,1.0,-1.0,0.0,6.m4v,7.0
2024-02-28 09:39:55.636241,1709109595.6362407,-144.53125,-36.62109375,-24.90234375,116.69921875,0.0,1.0,-1.0,0.0,6.m4v,7.0
2024-02-28 09:39:55.640162,1709109595.6401622,-666.015625,-43.9453125,-25.390625,-984.86328125,0.0,1.0,-1.0,0.0,6.m4v,7.0
2024-02-28 09:39:55.644067,1709109595.6440668,-441.89453125,-45.8984375,-33.69140625,-1000.0,0.0,1.0,-1.0,0.0,6.m4v,7.0
2024-02-28 09:39:55.647971,1709109595.6479714,-129.39453125,-44.921875,-39.0625,-938.96484375,0.0,1.0,-1.0,0.0,6.m4v,7.0
2024-02-28 09:39:55.651876,1709109595.651876,-147.94921875,-44.921875,-35.64453125,-1000.0,0.0,1.0,-1.0,0.0,6.m4v,7.0
2024-02-28 09:39:55.655781,1709109595.6557806,-239.2578125,-42.48046875,-34.1796875,-929.19921875,0.0,1.0,-1.0,0.0,6.m4v,7.0
2024-02-28 09:39:55.659685,1709109595.6596851,328.125,-39.55078125,-27.34375,268.5546875,0.0,1.0,-1.0,0.0,6.m4v,7.0
2024-02-28 09:39:55.663590,1709109595.6635897,630.859375,-44.43359375,-32.71484375,999.51171875,0.0,1.0,-1.0,0.0,6.m4v,7.0
2024-02-28 09:39:55.667494,1709109595.6674943,375.9765625,-41.9921875,-40.0390625,999.51171875,0.0,1.0,-1.0,0.0,6.m4v,7.0
2024-02-28 09:39:55.671399,1709109595.671399,-140.625,-41.9921875,-35.15625,49.31640625,0.0,1.0,-1.0,0.0,6.m4v,7.0
2024-02-28 09:39:55.675304,1709109595.6753037,-685.546875,-51.26953125,-37.59765625,-1000.0,0.0,1.0,-1.0,0.0,6.m4v,7.0
2024-02-28 09:39:55.679208,1709109595.6792085,-565.4296875,-45.8984375,-41.50390625,-1000.0,0.0,1.0,-1.0,0.0,6.m4v,7.0
2024-02-28 09:39:55.683113,1709109595.6831129,-85.9375,-41.015625,-42.48046875,-299.8046875,0.0,1.0,-1.0,0.0,6.m4v,7.0
2024-02-28 09:39:55.687033,1709109595.6870332,553.22265625,-35.64453125,-38.57421875,878.90625,0.0,1.0,-1.0,0.0,6.m4v,7.0
2024-02-28 09:39:55.690938,1709109595.6909378,579.58984375,-34.66796875,-34.66796875,999.51171875,0.0,1.0,-1.0,0.0,6.m4v,7.0
2024-02-28 09:39:55.694842,1709109595.6948423,-163.0859375,-38.57421875,-39.0625,-56.15234375,0.0,1.0,-1.0,0.0,6.m4v,7.0
2024-02-28 09:39:55.698747,1709109595.698747,-708.984375,-36.1328125,-34.1796875,-1000.0,0.0,1.0,-1.0,0.0,6.m4v,7.0
2024-02-28 09:39:55.702652,1709109595.7026515,-404.78515625,-41.015625,-35.15625,-992.1875,0.0,1.0,-1.0,0.0,6.m4v,7.0
2024-02-28 09:39:55.706556,1709109595.7065563,-36.62109375,-41.9921875,-37.59765625,-799.31640625,0.0,1.0,-1.0,0.0,6.m4v,7.0
2024-02-28 09:39:55.710461,1709109595.710461,148.92578125,-38.57421875,-35.15625,-203.61328125,0.0,1.0,-1.0,0.0,6.m4v,7.0
2024-02-28 09:39:55.714365,1709109595.7143655,236.328125,-36.62109375,-37.109375,485.83984375,0.0,1.0,-1.0,0.0,6.m4v,7.0
2024-02-28 09:39:55.718270,1709109595.71827,284.66796875,-41.9921875,-39.55078125,890.13671875,0.0,1.0,-1.0,0.0,6.m4v,7.0
2024-02-28 09:39:55.722175,1709109595.7221746,296.875,-44.43359375,-39.55078125,999.51171875,0.0,1.0,-1.0,0.0,6.m4v,7.0
2024-02-28 09:39:55.726079,1709109595.7260792,196.77734375,-38.57421875,-38.0859375,695.80078125,0.0,1.0,-1.0,0.0,6.m4v,7.0
2024-02-28 09:39:55.729984,1709109595.7299838,-445.80078125,-43.45703125,-38.0859375,-604.4921875,0.0,1.0,-1.0,0.0,6.m4v,7.0
2024-02-28 09:39:55.733903,1709109595.733903,-692.3828125,-46.38671875,-43.45703125,-1000.0,0.0,1.0,-1.0,0.0,6.m4v,7.0
2024-02-28 09:39:55.737808,1709109595.7378078,-399.4140625,-43.45703125,-43.45703125,-1000.0,0.0,1.0,-1.0,0.0,6.m4v,7.0
2024-02-28 09:39:55.741712,1709109595.7417123,-8.30078125,-41.9921875,-39.55078125,-359.86328125,0.0,1.0,-1.0,0.0,6.m4v,7.0
2024-02-28 09:39:55.745617,1709109595.745617,551.7578125,-39.0625,-43.9453125,939.453125,0.0,1.0,-1.0,0.0,6.m4v,7.0
2024-02-28 09:39:55.749521,1709109595.7495215,488.76953125,-32.71484375,-45.8984375,979.98046875,0.0,1.0,-1.0,0.0,6.m4v,7.0
2024-02-28 09:39:55.753426,1709109595.753426,-262.6953125,-31.73828125,-41.015625,-158.69140625,0.0,1.0,-1.0,0.0,6.m4v,7.0
2024-02-28 09:39:55.757331,1709109595.757331,-615.234375,-36.62109375,-40.52734375,-1000.0,0.0,1.0,-1.0,0.0,6.m4v,7.0
2024-02-28 09:39:55.761235,1709109595.7612352,-308.59375,-38.57421875,-43.9453125,-979.98046875,0.0,1.0,-1.0,0.0,6.m4v,7.0
2024-02-28 09:39:55.765140,1709109595.7651398,-68.359375,-38.0859375,-43.9453125,-751.46484375,0.0,1.0,-1.0,0.0,6.m4v,7.0
2024-02-28 09:39:55.769045,1709109595.7690446,57.12890625,-40.52734375,-39.55078125,-629.8828125,0.0,1.0,-1.0,0.0,6.m4v,7.0
2024-02-28 09:39:55.772949,1709109595.7729492,-158.69140625,-42.96875,-39.0625,-978.515625,0.0,1.0,-1.0,0.0,6.m4v,7.0
2024-02-28 09:39:55.776854,1709109595.7768538,-219.7265625,-39.0625,-40.0390625,-909.66796875,0.0,1.0,-1.0,0.0,6.m4v,7.0
2024-02-28 09:39:55.780774,1709109595.7807736,358.88671875,-40.0390625,-40.0390625,307.6171875,0.0,1.0,-1.0,0.0,6.m4v,7.0
2024-02-28 09:39:55.784678,1709109595.7846782,629.39453125,-39.55078125,-41.015625,999.51171875,0.0,1.0,-1.0,0.0,6.m4v,7.0
2024-02-28 09:39:55.788583,1709109595.7885828,399.90234375,-38.57421875,-37.109375,938.4765625,0.0,1.0,-1.0,0.0,6.m4v,7.0
2024-02-28 09:39:55.792487,1709109595.7924874,-209.9609375,-45.8984375,-42.48046875,-93.75,0.0,1.0,-1.0,0.0,6.m4v,7.0
2024-02-28 09:39:55.796392,1709109595.796392,-712.40234375,-50.29296875,-47.8515625,-1000.0,0.0,1.0,-1.0,0.0,6.m4v,7.0
2024-02-28 09:39:55.800297,1709109595.8002963,-410.64453125,-45.8984375,-43.45703125,-868.65234375,0.0,1.0,-1.0,0.0,6.m4v,7.0
2024-02-28 09:39:55.804201,1709109595.8042014,306.640625,-41.9921875,-41.015625,238.76953125,0.0,1.0,-1.0,0.0,6.m4v,7.0
2024-02-28 09:39:55.808106,1709109595.808106,653.3203125,-41.50390625,-39.0625,999.51171875,0.0,1.0,-1.0,0.0,6.m4v,7.0
2024-02-28 09:39:55.812011,1709109595.8120103,-77.63671875,-44.43359375,-41.50390625,55.6640625,0.0,1.0,-1.0,0.0,6.m4v,7.0
2024-02-28 09:39:55.815915,1709109595.815915,-668.9453125,-46.875,-46.875,-1000.0,0.0,1.0,-1.0,0.0,6.m4v,7.0
2024-02-28 09:39:55.819820,1709109595.8198197,-397.4609375,-43.45703125,-46.38671875,-973.6328125,0.0,1.0,-1.0,0.0,6.m4v,7.0
2024-02-28 09:39:55.823724,1709109595.8237245,-70.3125,-41.50390625,-41.9921875,-579.58984375,0.0,1.0,-1.0,0.0,6.m4v,7.0
2024-02-28 09:39:55.827641,1709109595.8276415,336.9140625,-41.9921875,-40.0390625,375.48828125,0.0,1.0,-1.0,0.0,6.m4v,7.0
2024-02-28 09:39:55.831546,1709109595.831546,581.54296875,-39.55078125,-38.57421875,999.51171875,0.0,1.0,-1.0,0.0,6.m4v,7.0
2024-02-28 09:39:55.835451,1709109595.8354506,28.3203125,-42.96875,-33.69140625,196.2890625,0.0,1.0,-1.0,0.0,6.m4v,7.0
2024-02-28 09:39:55.839355,1709109595.8393552,-567.3828125,-46.875,-41.015625,-991.2109375,0.0,1.0,-1.0,0.0,6.m4v,7.0
2024-02-28 09:39:55.843260,1709109595.8432598,-398.4375,-44.921875,-43.45703125,-1000.0,0.0,1.0,-1.0,0.0,6.m4v,7.0
2024-02-28 09:39:55.847165,1709109595.8471646,-118.65234375,-36.1328125,-34.66796875,-968.26171875,0.0,1.0,-1.0,0.0,6.m4v,7.0
2024-02-28 09:39:55.851069,1709109595.8510692,-123.046875,-39.0625,-39.55078125,-951.66015625,0.0,1.0,-1.0,0.0,6.m4v,7.0
2024-02-28 09:39:55.854974,1709109595.8549738,-201.171875,-46.875,-42.96875,-1000.0,0.0,1.0,-1.0,0.0,6.m4v,7.0
2024-02-28 09:39:55.858878,1709109595.8588784,166.9921875,-41.50390625,-36.1328125,-241.69921875,0.0,1.0,-1.0,0.0,6.m4v,7.0
2024-02-28 09:39:55.862783,1709109595.862783,649.4140625,-35.15625,-30.2734375,951.66015625,0.0,1.0,-1.0,0.0,6.m4v,7.0
2024-02-28 09:39:55.866688,1709109595.8666875,604.00390625,-32.71484375,-34.66796875,999.51171875,0.0,1.0,-1.0,0.0,6.m4v,7.0
2024-02-28 09:39:55.870592,1709109595.870592,-22.4609375,-38.0859375,-35.15625,148.92578125,0.0,1.0,-1.0,0.0,6.m4v,7.0
2024-02-28 09:39:55.874508,1709109595.874508,-688.96484375,-40.0390625,-33.203125,-990.234375,0.0,1.0,-1.0,0.0,6.m4v,7.0
2024-02-28 09:39:55.878412,1709109595.8784125,-563.96484375,-37.109375,-39.0625,-1000.0,0.0,1.0,-1.0,0.0,6.m4v,7.0
2024-02-28 09:39:55.882317,1709109595.8823173,-15.13671875,-32.71484375,-40.52734375,-530.2734375,0.0,1.0,-1.0,0.0,6.m4v,7.0
2024-02-28 09:39:55.886222,1709109595.886222,676.26953125,-28.3203125,-36.62109375,765.13671875,0.0,1.0,-1.0,0.0,6.m4v,7.0
2024-02-28 09:39:55.890126,1709109595.8901265,610.83984375,-35.15625,-36.62109375,900.390625,0.0,1.0,-1.0,0.0,6.m4v,7.0
2024-02-28 09:39:55.894031,1709109595.894031,-277.83203125,-37.59765625,-36.62109375,-382.32421875,0.0,1.0,-1.0,0.0,6.m4v,7.0
2024-02-28 09:39:55.897936,1709109595.8979356,-544.43359375,-39.0625,-39.55078125,-1000.0,0.0,1.0,-1.0,0.0,6.m4v,7.0
2024-02-28 09:39:55.901840,1709109595.9018402,-172.8515625,-40.52734375,-37.59765625,-971.6796875,0.0,1.0,-1.0,0.0,6.m4v,7.0
2024-02-28 09:39:55.905745,1709109595.9057448,90.8203125,-31.25,-34.66796875,-655.2734375,0.0,1.0,-1.0,0.0,6.m4v,7.0
2024-02-28 09:39:55.909650,1709109595.9096496,332.03125,-27.83203125,-32.71484375,96.19140625,0.0,1.0,-1.0,0.0,6.m4v,7.0
2024-02-28 09:39:55.913554,1709109595.9135542,332.51953125,-39.55078125,-34.1796875,498.53515625,0.0,1.0,-1.0,0.0,6.m4v,7.0
2024-02-28 09:39:55.917459,1709109595.9174588,77.63671875,-46.875,-40.52734375,298.33984375,0.0,1.0,-1.0,0.0,6.m4v,7.0
2024-02-28 09:39:55.921372,1709109595.9213722,20.99609375,-41.9921875,-38.0859375,307.6171875,0.0,1.0,-1.0,0.0,6.m4v,7.0
2024-02-28 09:39:55.925277,1709109595.9252768,263.671875,-31.73828125,-30.2734375,638.671875,0.0,1.0,-1.0,0.0,6.m4v,7.0
2024-02-28 09:39:55.929182,1709109595.9291816,-131.8359375,-31.25,-30.2734375,-284.1796875,0.0,1.0,-1.0,0.0,6.m4v,7.0
2024-02-28 09:39:55.933086,1709109595.9330862,-659.66796875,-34.1796875,-33.203125,-1000.0,0.0,1.0,-1.0,0.0,6.m4v,7.0
2024-02-28 09:39:55.936991,1709109595.9369907,-477.05078125,-31.25,-33.203125,-1000.0,0.0,1.0,-1.0,0.0,6.m4v,7.0
2024-02-28 09:39:55.940895,1709109595.9408953,188.96484375,-30.2734375,-29.78515625,-256.34765625,0.0,1.0,-1.0,0.0,6.m4v,7.0
2024-02-28 09:39:55.944800,1709109595.9448,701.171875,-36.1328125,-31.73828125,999.51171875,0.0,1.0,-1.0,0.0,6.m4v,7.0
2024-02-28 09:39:55.948704,1709109595.9487045,424.8046875,-38.57421875,-32.71484375,796.38671875,0.0,1.0,-1.0,0.0,6.m4v,7.0
2024-02-28 09:39:55.952609,1709109595.952609,-274.90234375,-39.0625,-32.2265625,-432.12890625,0.0,1.0,-1.0,0.0,6.m4v,7.0
2024-02-28 09:39:55.956514,1709109595.9565136,-569.82421875,-37.59765625,-37.109375,-1000.0,0.0,1.0,-1.0,0.0,6.m4v,7.0
2024-02-28 09:39:55.960418,1709109595.9604185,-263.18359375,-31.25,-34.66796875,-832.51953125,0.0,1.0,-1.0,0.0,6.m4v,7.0
2024-02-28 09:39:55.964323,1709109595.964323,339.35546875,-28.3203125,-32.71484375,251.953125,0.0,1.0,-1.0,0.0,6.m4v,7.0
2024-02-28 09:39:55.968246,1709109595.9682455,669.43359375,-29.78515625,-34.66796875,999.51171875,0.0,1.0,-1.0,0.0,6.m4v,7.0
2024-02-28 09:39:55.972150,1709109595.9721503,17.08984375,-37.59765625,-33.69140625,113.28125,0.0,1.0,-1.0,0.0,6.m4v,7.0
2024-02-28 09:39:55.976055,1709109595.976055,-603.02734375,-39.55078125,-31.73828125,-1000.0,0.0,1.0,-1.0,0.0,6.m4v,7.0
2024-02-28 09:39:55.979960,1709109595.9799595,-481.93359375,-37.109375,-32.71484375,-1000.0,0.0,1.0,-1.0,0.0,6.m4v,7.0
2024-02-28 09:39:55.983864,1709109595.9838643,-64.94140625,-32.2265625,-35.64453125,-564.453125,0.0,1.0,-1.0,0.0,6.m4v,7.0
2024-02-28 09:39:55.987769,1709109595.987769,488.28125,-30.2734375,-32.2265625,559.5703125,0.0,1.0,-1.0,0.0,6.m4v,7.0
2024-02-28 09:39:55.991673,1709109595.9916737,528.3203125,-36.62109375,-28.80859375,999.51171875,0.0,1.0,-1.0,0.0,6.m4v,7.0
2024-02-28 09:39:55.995578,1709109595.995578,120.1171875,-40.0390625,-33.203125,629.8828125,0.0,1.0,-1.0,0.0,6.m4v,7.0
2024-02-28 09:39:55.999483,1709109595.9994826,-375.48828125,-45.8984375,-31.73828125,-518.06640625,0.0,1.0,-1.0,0.0,6.m4v,7.0
2024-02-28 09:39:56.003387,1709109596.0033872,-478.515625,-47.36328125,-36.62109375,-1000.0,0.0,1.0,-1.0,0.0,6.m4v,7.0
2024-02-28 09:39:56.007292,1709109596.0072918,-221.19140625,-41.015625,-39.0625,-950.68359375,0.0,1.0,-1.0,0.0,6.m4v,7.0
2024-02-28 09:39:56.011197,1709109596.0111966,-157.2265625,-39.0625,-30.76171875,-963.37890625,0.0,1.0,-1.0,0.0,6.m4v,7.0
2024-02-28 09:39:56.015118,1709109596.015118,-219.7265625,-38.57421875,-34.1796875,-1000.0,0.0,1.0,-1.0,0.0,6.m4v,7.0
2024-02-28 09:39:56.019023,1709109596.0190227,211.9140625,-34.66796875,-32.71484375,-33.69140625,0.0,1.0,-1.0,0.0,6.m4v,7.0
2024-02-28 09:39:56.022927,1709109596.0229273,657.2265625,-31.25,-32.71484375,996.09375,0.0,1.0,-1.0,0.0,6.m4v,7.0
2024-02-28 09:39:56.026832,1709109596.026832,470.21484375,-31.73828125,-34.1796875,999.51171875,0.0,1.0,-1.0,0.0,6.m4v,7.0
2024-02-28 09:39:56.030736,1709109596.0307364,-111.81640625,-37.109375,-33.69140625,152.83203125,0.0,1.0,-1.0,0.0,6.m4v,7.0
2024-02-28 09:39:56.034641,1709109596.034641,-635.25390625,-39.0625,-37.109375,-1000.0,0.0,1.0,-1.0,0.0,6.m4v,7.0
2024-02-28 09:39:56.038546,1709109596.0385458,-514.6484375,-43.45703125,-38.57421875,-984.86328125,0.0,1.0,-1.0,0.0,6.m4v,7.0
2024-02-28 09:39:56.042450,1709109596.0424504,-281.73828125,-46.875,-40.52734375,-854.98046875,0.0,1.0,-1.0,0.0,6.m4v,7.0
2024-02-28 09:39:56.046355,1709109596.046355,267.08984375,-42.48046875,-38.57421875,63.96484375,0.0,1.0,-1.0,0.0,6.m4v,7.0
2024-02-28 09:39:56.050260,1709109596.0502596,662.59765625,-40.52734375,-42.48046875,945.3125,0.0,1.0,-1.0,0.0,6.m4v,7.0
2024-02-28 09:39:56.054164,1709109596.0541642,375.9765625,-35.64453125,-39.0625,950.68359375,0.0,1.0,-1.0,0.0,6.m4v,7.0
2024-02-28 09:39:56.058069,1709109596.0580688,-22.94921875,-33.69140625,-30.2734375,488.28125,0.0,1.0,-1.0,0.0,6.m4v,7.0
2024-02-28 09:39:56.061989,1709109596.061989,-441.89453125,-35.15625,-31.25,-550.29296875,0.0,1.0,-1.0,0.0,6.m4v,7.0
2024-02-28 09:39:56.065894,1709109596.0658937,-492.1875,-33.203125,-30.2734375,-1000.0,0.0,1.0,-1.0,0.0,6.m4v,7.0
2024-02-28 09:39:56.069798,1709109596.0697985,-176.26953125,-30.2734375,-33.203125,-944.82421875,0.0,1.0,-1.0,0.0,6.m4v,7.0
2024-02-28 09:39:56.073703,1709109596.073703,-146.484375,-30.76171875,-42.48046875,-991.2109375,0.0,1.0,-1.0,0.0,6.m4v,7.0
2024-02-28 09:39:56.077608,1709109596.0776076,-211.42578125,-36.1328125,-41.9921875,-985.83984375,0.0,1.0,-1.0,0.0,6.m4v,7.0
2024-02-28 09:39:56.081512,1709109596.0815122,322.75390625,-35.15625,-32.71484375,130.859375,0.0,1.0,-1.0,0.0,6.m4v,7.0
2024-02-28 09:39:56.085417,1709109596.0854168,637.6953125,-34.66796875,-33.203125,999.51171875,0.0,1.0,-1.0,0.0,6.m4v,7.0
2024-02-28 09:39:56.089321,1709109596.0893214,364.2578125,-33.203125,-34.66796875,754.8828125,0.0,1.0,-1.0,0.0,6.m4v,7.0
2024-02-28 09:39:56.093226,1709109596.093226,-310.05859375,-38.57421875,-33.69140625,-442.3828125,0.0,1.0,-1.0,0.0,6.m4v,7.0
2024-02-28 09:39:56.097131,1709109596.0971303,-701.171875,-40.52734375,-36.1328125,-1000.0,0.0,1.0,-1.0,0.0,6.m4v,7.0
2024-02-28 09:39:56.101035,1709109596.1010354,-290.52734375,-35.15625,-35.64453125,-923.828125,0.0,1.0,-1.0,0.0,6.m4v,7.0
2024-02-28 09:39:56.104940,1709109596.10494,317.3828125,-33.69140625,-37.59765625,-29.296875,0.0,1.0,-1.0,0.0,6.m4v,7.0
2024-02-28 09:39:56.108859,1709109596.108859,675.29296875,-30.2734375,-37.109375,999.51171875,0.0,1.0,-1.0,0.0,6.m4v,7.0
2024-02-28 09:39:56.112764,1709109596.1127636,238.76953125,-28.80859375,-34.1796875,557.6171875,0.0,1.0,-1.0,0.0,6.m4v,7.0
2024-02-28 09:39:56.116668,1709109596.1166682,-467.28515625,-41.015625,-32.71484375,-760.25390625,0.0,1.0,-1.0,0.0,6.m4v,7.0
2024-02-28 09:39:56.120573,1709109596.1205728,-503.41796875,-41.9921875,-35.64453125,-1000.0,0.0,1.0,-1.0,0.0,6.m4v,7.0
2024-02-28 09:39:56.124477,1709109596.1244774,-179.6875,-36.1328125,-36.62109375,-957.51953125,0.0,1.0,-1.0,0.0,6.m4v,7.0
2024-02-28 09:39:56.128382,1709109596.128382,-43.9453125,-40.52734375,-38.0859375,-983.88671875,0.0,1.0,-1.0,0.0,6.m4v,7.0
2024-02-28 09:39:56.132287,1709109596.1322868,-101.5625,-41.9921875,-38.57421875,-992.67578125,0.0,1.0,-1.0,0.0,6.m4v,7.0
2024-02-28 09:39:56.136191,1709109596.1361914,-218.75,-40.0390625,-39.0625,-982.421875,0.0,1.0,-1.0,0.0,6.m4v,7.0
2024-02-28 09:39:56.140096,1709109596.140096,304.19921875,-36.62109375,-39.55078125,143.5546875,0.0,1.0,-1.0,0.0,6.m4v,7.0
2024-02-28 09:39:56.144001,1709109596.1440003,618.65234375,-33.69140625,-42.48046875,999.51171875,0.0,1.0,-1.0,0.0,6.m4v,7.0
2024-02-28 09:39:56.147905,1709109596.147905,400.87890625,-37.109375,-40.0390625,999.51171875,0.0,1.0,-1.0,0.0,6.m4v,7.0
2024-02-28 09:39:56.151810,1709109596.1518097,-161.62109375,-43.45703125,-36.62109375,14.6484375,0.0,1.0,-1.0,0.0,6.m4v,7.0
2024-02-28 09:39:56.155727,1709109596.1557274,-658.203125,-41.50390625,-35.15625,-1000.0,0.0,1.0,-1.0,0.0,6.m4v,7.0
2024-02-28 09:39:56.159632,1709109596.159632,-378.90625,-38.0859375,-38.57421875,-998.53515625,0.0,1.0,-1.0,0.0,6.m4v,7.0
2024-02-28 09:39:56.163537,1709109596.1635368,193.84765625,-36.1328125,-43.9453125,-24.90234375,0.0,1.0,-1.0,0.0,6.m4v,7.0
2024-02-28 09:39:56.167441,1709109596.1674414,604.98046875,-39.0625,-43.45703125,999.51171875,0.0,1.0,-1.0,0.0,6.m4v,7.0
2024-02-28 09:39:56.171346,1709109596.171346,250.0,-38.57421875,-41.50390625,737.79296875,0.0,1.0,-1.0,0.0,6.m4v,7.0
2024-02-28 09:39:56.175251,1709109596.1752503,-458.0078125,-40.0390625,-41.015625,-475.5859375,0.0,1.0,-1.0,0.0,6.m4v,7.0
2024-02-28 09:39:56.179155,1709109596.179155,-607.421875,-42.96875,-41.50390625,-1000.0,0.0,1.0,-1.0,0.0,6.m4v,7.0
2024-02-28 09:39:56.183060,1709109596.1830597,-303.22265625,-41.9921875,-43.45703125,-959.47265625,0.0,1.0,-1.0,0.0,6.m4v,7.0
2024-02-28 09:39:56.186964,1709109596.1869645,-154.296875,-42.96875,-43.9453125,-939.453125,0.0,1.0,-1.0,0.0,6.m4v,7.0
2024-02-28 09:39:56.190869,1709109596.190869,-176.7578125,-39.0625,-41.015625,-1000.0,0.0,1.0,-1.0,0.0,6.m4v,7.0
2024-02-28 09:39:56.194774,1709109596.1947737,-149.90234375,-36.1328125,-40.52734375,-758.7890625,0.0,1.0,-1.0,0.0,6.m4v,7.0
2024-02-28 09:39:56.198678,1709109596.1986785,441.40625,-34.66796875,-39.0625,539.0625,0.0,1.0,-1.0,0.0,6.m4v,7.0
2024-02-28 09:39:56.202596,1709109596.2025957,629.8828125,-37.109375,-34.66796875,982.421875,0.0,1.0,-1.0,0.0,6.m4v,7.0
2024-02-28 09:39:56.206500,1709109596.2065003,394.53125,-37.109375,-40.52734375,999.51171875,0.0,1.0,-1.0,0.0,6.m4v,7.0
2024-02-28 09:39:56.210405,1709109596.2104049,-52.24609375,-39.0625,-45.8984375,348.6328125,0.0,1.0,-1.0,0.0,6.m4v,7.0
2024-02-28 09:39:56.214309,1709109596.2143097,-714.84375,-44.43359375,-41.015625,-939.453125,0.0,1.0,-1.0,0.0,6.m4v,7.0
2024-02-28 09:39:56.218214,1709109596.218214,-610.83984375,-36.1328125,-37.59765625,-1000.0,0.0,1.0,-1.0,0.0,6.m4v,7.0
2024-02-28 09:39:56.222119,1709109596.2221189,134.27734375,-30.76171875,-37.59765625,-76.171875,0.0,1.0,-1.0,0.0,6.m4v,7.0
2024-02-28 09:39:56.226023,1709109596.2260234,697.265625,-34.1796875,-37.109375,999.51171875,0.0,1.0,-1.0,0.0,6.m4v,7.0
2024-02-28 09:39:56.229928,1709109596.229928,267.08984375,-36.1328125,-37.59765625,698.2421875,0.0,1.0,-1.0,0.0,6.m4v,7.0
2024-02-28 09:39:56.233833,1709109596.2338326,-492.67578125,-38.57421875,-37.59765625,-501.46484375,0.0,1.0,-1.0,0.0,6.m4v,7.0
2024-02-28 09:39:56.237737,1709109596.2377372,-666.015625,-45.8984375,-37.109375,-1000.0,0.0,1.0,-1.0,0.0,6.m4v,7.0
2024-02-28 09:39:56.241642,1709109596.2416418,-151.85546875,-41.015625,-39.55078125,-429.19921875,0.0,1.0,-1.0,0.0,6.m4v,7.0
2024-02-28 09:39:56.245546,1709109596.2455463,530.2734375,-34.1796875,-41.9921875,790.0390625,0.0,1.0,-1.0,0.0,6.m4v,7.0
2024-02-28 09:39:56.249462,1709109596.2494617,588.8671875,-36.1328125,-37.59765625,999.51171875,0.0,1.0,-1.0,0.0,6.m4v,7.0
2024-02-28 09:39:56.253366,1709109596.2533665,-65.4296875,-37.109375,-34.66796875,154.296875,0.0,1.0,-1.0,0.0,6.m4v,7.0
2024-02-28 09:39:56.257271,1709109596.257271,-706.0546875,-41.015625,-39.0625,-979.98046875,0.0,1.0,-1.0,0.0,6.m4v,7.0
2024-02-28 09:39:56.261176,1709109596.2611756,-530.76171875,-39.0625,-44.921875,-1000.0,0.0,1.0,-1.0,0.0,6.m4v,7.0
2024-02-28 09:39:56.265080,1709109596.2650802,169.43359375,-35.64453125,-38.57421875,-11.23046875,0.0,1.0,-1.0,0.0,6.m4v,7.0
2024-02-28 09:39:56.268985,1709109596.2689848,556.15234375,-34.66796875,-37.109375,969.7265625,0.0,1.0,-1.0,0.0,6.m4v,7.0
2024-02-28 09:39:56.272889,1709109596.2728894,345.703125,-35.64453125,-40.52734375,999.0234375,0.0,1.0,-1.0,0.0,6.m4v,7.0
2024-02-28 09:39:56.276794,1709109596.276794,-133.30078125,-40.0390625,-38.0859375,338.8671875,0.0,1.0,-1.0,0.0,6.m4v,7.0
2024-02-28 09:39:56.280699,1709109596.2806983,-478.515625,-41.9921875,-35.15625,-797.8515625,0.0,1.0,-1.0,0.0,6.m4v,7.0
2024-02-28 09:39:56.284603,1709109596.2846034,-345.703125,-38.0859375,-38.57421875,-1000.0,0.0,1.0,-1.0,0.0,6.m4v,7.0
2024-02-28 09:39:56.288508,1709109596.288508,-214.84375,-36.1328125,-36.1328125,-911.62109375,0.0,1.0,-1.0,0.0,6.m4v,7.0
2024-02-28 09:39:56.292413,1709109596.2924123,-208.0078125,-41.50390625,-35.64453125,-1000.0,0.0,1.0,-1.0,0.0,6.m4v,7.0
2024-02-28 09:39:56.296326,1709109596.2963262,-104.00390625,-42.96875,-39.0625,-628.41796875,0.0,1.0,-1.0,0.0,6.m4v,7.0
2024-02-28 09:39:56.300231,1709109596.300231,411.62109375,-37.109375,-35.15625,673.828125,0.0,1.0,-1.0,0.0,6.m4v,7.0
2024-02-28 09:39:56.304136,1709109596.3041356,605.46875,-36.1328125,-32.2265625,999.51171875,0.0,1.0,-1.0,0.0,6.m4v,7.0
2024-02-28 09:39:56.308040,1709109596.30804,272.94921875,-39.0625,-38.0859375,924.31640625,0.0,1.0,-1.0,0.0,6.m4v,7.0
2024-02-28 09:39:56.311945,1709109596.3119447,-312.98828125,-40.0390625,-44.921875,-84.9609375,0.0,1.0,-1.0,0.0,6.m4v,7.0
2024-02-28 09:39:56.315849,1709109596.3158493,-660.15625,-36.62109375,-47.36328125,-1000.0,0.0,1.0,-1.0,0.0,6.m4v,7.0
2024-02-28 09:39:56.319754,1709109596.319754,-242.67578125,-40.52734375,-49.8046875,-727.5390625,0.0,1.0,-1.0,0.0,6.m4v,7.0
2024-02-28 09:39:56.323658,1709109596.3236585,345.21484375,-41.015625,-43.9453125,443.84765625,0.0,1.0,-1.0,0.0,6.m4v,7.0
2024-02-28 09:39:56.327563,1709109596.3275633,530.76171875,-34.1796875,-40.0390625,999.51171875,0.0,1.0,-1.0,0.0,6.m4v,7.0
2024-02-28 09:39:56.331468,1709109596.331468,192.87109375,-38.57421875,-41.9921875,549.8046875,0.0,1.0,-1.0,0.0,6.m4v,7.0
2024-02-28 09:39:56.335372,1709109596.3353724,-523.4375,-44.921875,-40.0390625,-677.734375,0.0,1.0,-1.0,0.0,6.m4v,7.0
2024-02-28 09:39:56.339277,1709109596.339277,-661.1328125,-44.43359375,-32.2265625,-1000.0,0.0,1.0,-1.0,0.0,6.m4v,7.0
2024-02-28 09:39:56.343200,1709109596.3432004,-193.359375,-41.015625,-35.64453125,-865.72265625,0.0,1.0,-1.0,0.0,6.m4v,7.0
2024-02-28 09:39:56.347105,1709109596.3471053,281.73828125,-36.62109375,-41.015625,53.7109375,0.0,1.0,-1.0,0.0,6.m4v,7.0
2024-02-28 09:39:56.351010,1709109596.3510098,554.19921875,-32.2265625,-39.0625,975.09765625,0.0,1.0,-1.0,0.0,6.m4v,7.0
2024-02-28 09:39:56.354914,1709109596.3549144,251.953125,-33.69140625,-44.921875,961.42578125,0.0,1.0,-1.0,0.0,6.m4v,7.0
2024-02-28 09:39:56.358819,1709109596.358819,4.39453125,-33.203125,-47.36328125,887.20703125,0.0,1.0,-1.0,0.0,6.m4v,7.0
2024-02-28 09:39:56.362724,1709109596.3627236,181.15234375,-31.73828125,-40.0390625,999.51171875,0.0,1.0,-1.0,0.0,6.m4v,7.0
2024-02-28 09:39:56.366628,1709109596.3666282,-123.53515625,-32.2265625,-36.1328125,239.74609375,0.0,1.0,-1.0,0.0,6.m4v,7.0
2024-02-28 09:39:56.370533,1709109596.3705328,-769.53125,-36.1328125,-39.0625,-1000.0,0.0,1.0,-1.0,0.0,6.m4v,7.0
2024-02-28 09:39:56.374437,1709109596.374437,-530.2734375,-34.66796875,-41.015625,-962.40234375,0.0,1.0,-1.0,0.0,6.m4v,7.0
2024-02-28 09:39:56.378342,1709109596.3783422,-307.12890625,-34.66796875,-38.0859375,-1000.0,0.0,1.0,-1.0,0.0,6.m4v,7.0
2024-02-28 09:39:56.382247,1709109596.3822467,152.83203125,-36.62109375,-36.1328125,-83.49609375,0.0,1.0,-1.0,0.0,6.m4v,7.0
2024-02-28 09:39:56.386151,1709109596.3861513,707.03125,-32.2265625,-35.15625,999.51171875,0.0,1.0,-1.0,0.0,6.m4v,7.0
2024-02-28 09:39:56.390073,1709109596.3900728,403.3203125,-35.15625,-37.109375,772.4609375,0.0,1.0,-1.0,0.0,6.m4v,7.0
2024-02-28 09:39:56.393977,1709109596.3939774,-403.80859375,-40.52734375,-32.2265625,-387.6953125,0.0,1.0,-1.0,0.0,6.m4v,7.0
2024-02-28 09:39:56.397882,1709109596.397882,-706.54296875,-37.59765625,-35.15625,-1000.0,0.0,1.0,-1.0,0.0,6.m4v,7.0
2024-02-28 09:39:56.401787,1709109596.4017866,-164.0625,-34.66796875,-40.52734375,-632.8125,0.0,1.0,-1.0,0.0,6.m4v,7.0
2024-02-28 09:39:56.405691,1709109596.4056911,458.0078125,-35.15625,-36.62109375,546.38671875,0.0,1.0,-1.0,0.0,6.m4v,7.0
2024-02-28 09:39:56.409596,1709109596.409596,582.51953125,-32.71484375,-35.64453125,999.51171875,0.0,1.0,-1.0,0.0,6.m4v,7.0
2024-02-28 09:39:56.413501,1709109596.4135003,91.796875,-32.71484375,-40.52734375,653.80859375,0.0,1.0,-1.0,0.0,6.m4v,7.0
2024-02-28 09:39:56.417405,1709109596.4174051,-693.359375,-36.62109375,-44.921875,-563.4765625,0.0,1.0,-1.0,0.0,6.m4v,7.0
2024-02-28 09:39:56.421310,1709109596.4213097,-582.51953125,-39.0625,-37.59765625,-1000.0,0.0,1.0,-1.0,0.0,6.m4v,7.0
2024-02-28 09:39:56.425214,1709109596.4252143,-38.57421875,-34.1796875,-31.73828125,-959.9609375,0.0,1.0,-1.0,0.0,6.m4v,7.0
2024-02-28 09:39:56.429119,1709109596.4291189,-31.25,-35.15625,-34.1796875,-937.98828125,0.0,1.0,-1.0,0.0,6.m4v,7.0
2024-02-28 09:39:56.433023,1709109596.4330237,-250.9765625,-39.0625,-38.57421875,-1000.0,0.0,1.0,-1.0,0.0,6.m4v,7.0
2024-02-28 09:39:56.436949,1709109596.4369495,-6.34765625,-34.66796875,-33.203125,-358.88671875,0.0,1.0,-1.0,0.0,6.m4v,7.0
2024-02-28 09:39:56.440854,1709109596.440854,572.75390625,-34.66796875,-30.76171875,920.41015625,0.0,1.0,-1.0,0.0,6.m4v,7.0
2024-02-28 09:39:56.444759,1709109596.444759,500.9765625,-34.1796875,-32.2265625,999.51171875,0.0,1.0,-1.0,0.0,6.m4v,7.0
2024-02-28 09:39:56.448663,1709109596.4486637,224.609375,-30.2734375,-29.78515625,756.34765625,0.0,1.0,-1.0,0.0,6.m4v,7.0
2024-02-28 09:39:56.452568,1709109596.452568,-359.86328125,-40.52734375,-32.2265625,-367.1875,0.0,1.0,-1.0,0.0,6.m4v,7.0
2024-02-28 09:39:56.456473,1709109596.4564726,-809.08203125,-45.8984375,-32.2265625,-1000.0,0.0,1.0,-1.0,0.0,6.m4v,7.0
2024-02-28 09:39:56.460377,1709109596.4603772,-206.0546875,-41.015625,-35.64453125,-365.234375,0.0,1.0,-1.0,0.0,6.m4v,7.0
2024-02-28 09:39:56.464282,1709109596.4642818,458.0078125,-43.9453125,-35.64453125,879.39453125,0.0,1.0,-1.0,0.0,6.m4v,7.0
2024-02-28 09:39:56.468186,1709109596.4681864,360.83984375,-45.8984375,-32.2265625,999.51171875,0.0,1.0,-1.0,0.0,6.m4v,7.0
2024-02-28 09:39:56.472091,1709109596.4720912,-114.74609375,-41.015625,-30.76171875,55.17578125,0.0,1.0,-1.0,0.0,6.m4v,7.0
2024-02-28 09:39:56.475996,1709109596.4759958,-615.234375,-40.0390625,-29.78515625,-1000.0,0.0,1.0,-1.0,0.0,6.m4v,7.0
2024-02-28 09:39:56.479900,1709109596.4799004,-423.33984375,-36.62109375,-32.2265625,-896.484375,0.0,1.0,-1.0,0.0,6.m4v,7.0
2024-02-28 09:39:56.483819,1709109596.4838192,268.06640625,-31.73828125,-35.64453125,214.84375,0.0,1.0,-1.0,0.0,6.m4v,7.0
2024-02-28 09:39:56.487724,1709109596.4877238,593.75,-32.71484375,-35.64453125,999.51171875,0.0,1.0,-1.0,0.0,6.m4v,7.0
2024-02-28 09:39:56.491628,1709109596.4916284,201.171875,-36.1328125,-34.1796875,709.9609375,0.0,1.0,-1.0,0.0,6.m4v,7.0
2024-02-28 09:39:56.495533,1709109596.495533,-535.15625,-40.52734375,-38.57421875,-471.6796875,0.0,1.0,-1.0,0.0,6.m4v,7.0
2024-02-28 09:39:56.499438,1709109596.4994376,-706.54296875,-41.9921875,-43.9453125,-1000.0,0.0,1.0,-1.0,0.0,6.m4v,7.0
2024-02-28 09:39:56.503342,1709109596.5033424,-14.16015625,-40.0390625,-39.55078125,-332.03125,0.0,1.0,-1.0,0.0,6.m4v,7.0
2024-02-28 09:39:56.507247,1709109596.507247,559.5703125,-30.76171875,-35.64453125,750.48828125,0.0,1.0,-1.0,0.0,6.m4v,7.0
2024-02-28 09:39:56.511152,1709109596.5111516,507.32421875,-28.3203125,-40.52734375,999.51171875,0.0,1.0,-1.0,0.0,6.m4v,7.0
2024-02-28 09:39:56.515056,1709109596.515056,24.4140625,-38.0859375,-36.62109375,565.91796875,0.0,1.0,-1.0,0.0,6.m4v,7.0
2024-02-28 09:39:56.518961,1709109596.5189607,-581.54296875,-44.43359375,-32.2265625,-600.5859375,0.0,1.0,-1.0,0.0,6.m4v,7.0
2024-02-28 09:39:56.522865,1709109596.5228653,-626.953125,-38.57421875,-34.66796875,-1000.0,0.0,1.0,-1.0,0.0,6.m4v,7.0
2024-02-28 09:39:56.526770,1709109596.52677,-189.453125,-33.69140625,-36.1328125,-925.78125,0.0,1.0,-1.0,0.0,6.m4v,7.0
2024-02-28 09:39:56.530688,1709109596.530688,-88.37890625,-37.109375,-39.55078125,-1000.0,0.0,1.0,-1.0,0.0,6.m4v,7.0
2024-02-28 09:39:56.534593,1709109596.5345926,-116.2109375,-37.109375,-42.96875,-868.65234375,0.0,1.0,-1.0,0.0,6.m4v,7.0
2024-02-28 09:39:56.538497,1709109596.5384972,313.96484375,-34.1796875,-38.0859375,346.6796875,0.0,1.0,-1.0,0.0,6.m4v,7.0
2024-02-28 09:39:56.542402,1709109596.5424018,542.96875,-27.83203125,-33.203125,991.69921875,0.0,1.0,-1.0,0.0,6.m4v,7.0
2024-02-28 09:39:56.546306,1709109596.5463064,371.58203125,-29.296875,-32.71484375,999.51171875,0.0,1.0,-1.0,0.0,6.m4v,7.0
2024-02-28 09:39:56.550211,1709109596.5502112,-11.23046875,-35.15625,-31.73828125,352.05078125,0.0,1.0,-1.0,0.0,6.m4v,7.0
2024-02-28 09:39:56.554116,1709109596.5541158,-565.91796875,-37.109375,-31.73828125,-877.44140625,0.0,1.0,-1.0,0.0,6.m4v,7.0
2024-02-28 09:39:56.558020,1709109596.5580204,-617.67578125,-39.55078125,-34.1796875,-1000.0,0.0,1.0,-1.0,0.0,6.m4v,7.0
2024-02-28 09:39:56.561925,1709109596.561925,-65.91796875,-35.64453125,-38.57421875,-316.89453125,0.0,1.0,-1.0,0.0,6.m4v,7.0
2024-02-28 09:39:56.565830,1709109596.5658295,627.9296875,-27.34375,-34.66796875,880.37109375,0.0,1.0,-1.0,0.0,6.m4v,7.0
2024-02-28 09:39:56.569734,1709109596.569734,520.01953125,-28.80859375,-29.296875,999.51171875,0.0,1.0,-1.0,0.0,6.m4v,7.0
2024-02-28 09:39:56.573639,1709109596.573639,-143.5546875,-37.109375,-34.1796875,167.48046875,0.0,1.0,-1.0,0.0,6.m4v,7.0
2024-02-28 09:39:56.577555,1709109596.5775552,-663.0859375,-44.43359375,-35.64453125,-989.74609375,0.0,1.0,-1.0,0.0,6.m4v,7.0
2024-02-28 09:39:56.581460,1709109596.5814598,-480.46875,-38.0859375,-35.64453125,-998.53515625,0.0,1.0,-1.0,0.0,6.m4v,7.0
2024-02-28 09:39:56.585364,1709109596.5853643,-69.82421875,-30.2734375,-36.1328125,-848.6328125,0.0,1.0,-1.0,0.0,6.m4v,7.0
2024-02-28 09:39:56.589269,1709109596.589269,129.8828125,-36.1328125,-35.64453125,-454.1015625,0.0,1.0,-1.0,0.0,6.m4v,7.0
2024-02-28 09:39:56.593174,1709109596.5931735,247.55859375,-39.0625,-34.66796875,450.1953125,0.0,1.0,-1.0,0.0,6.m4v,7.0
2024-02-28 09:39:56.597078,1709109596.5970783,391.6015625,-32.71484375,-27.83203125,973.14453125,0.0,1.0,-1.0,0.0,6.m4v,7.0
2024-02-28 09:39:56.600983,1709109596.600983,336.9140625,-32.2265625,-29.296875,956.0546875,0.0,1.0,-1.0,0.0,6.m4v,7.0
2024-02-28 09:39:56.604887,1709109596.6048875,231.4453125,-35.64453125,-35.15625,895.99609375,0.0,1.0,-1.0,0.0,6.m4v,7.0
2024-02-28 09:39:56.608792,1709109596.608792,-365.72265625,-31.73828125,-33.69140625,-278.80859375,0.0,1.0,-1.0,0.0,6.m4v,7.0
2024-02-28 09:39:56.612697,1709109596.6126966,-695.80078125,-33.69140625,-33.203125,-1000.0,0.0,1.0,-1.0,0.0,6.m4v,7.0
2024-02-28 09:39:56.616601,1709109596.6166012,-561.03515625,-36.62109375,-34.66796875,-1000.0,0.0,1.0,-1.0,0.0,6.m4v,7.0
2024-02-28 09:39:56.620506,1709109596.620506,-156.73828125,-36.1328125,-37.109375,-272.94921875,0.0,1.0,-1.0,0.0,6.m4v,7.0
2024-02-28 09:39:56.624422,1709109596.6244223,609.86328125,-34.1796875,-32.71484375,948.73046875,0.0,1.0,-1.0,0.0,6.m4v,7.0
2024-02-28 09:39:56.628327,1709109596.628327,575.68359375,-30.76171875,-33.69140625,999.51171875,0.0,1.0,-1.0,0.0,6.m4v,7.0
2024-02-28 09:39:56.632231,1709109596.6322317,-48.828125,-35.64453125,-39.0625,151.3671875,0.0,1.0,-1.0,0.0,6.m4v,7.0
2024-02-28 09:39:56.636136,1709109596.636136,-628.90625,-38.0859375,-39.0625,-1000.0,0.0,1.0,-1.0,0.0,6.m4v,7.0
2024-02-28 09:39:56.640041,1709109596.6400406,-502.44140625,-34.1796875,-39.0625,-976.07421875,0.0,1.0,-1.0,0.0,6.m4v,7.0
2024-02-28 09:39:56.643945,1709109596.6439452,204.1015625,-31.25,-36.1328125,106.4453125,0.0,1.0,-1.0,0.0,6.m4v,7.0
2024-02-28 09:39:56.647850,1709109596.64785,615.234375,-33.203125,-35.15625,999.51171875,0.0,1.0,-1.0,0.0,6.m4v,7.0
2024-02-28 09:39:56.651755,1709109596.6517546,129.8828125,-37.59765625,-32.2265625,438.96484375,0.0,1.0,-1.0,0.0,6.m4v,7.0
2024-02-28 09:39:56.655659,1709109596.6556592,-565.4296875,-35.64453125,-35.15625,-782.71484375,0.0,1.0,-1.0,0.0,6.m4v,7.0
2024-02-28 09:39:56.659564,1709109596.6595638,-745.1171875,-36.1328125,-41.015625,-1000.0,0.0,1.0,-1.0,0.0,6.m4v,7.0
2024-02-28 09:39:56.663468,1709109596.6634684,-123.046875,-35.15625,-36.62109375,-417.48046875,0.0,1.0,-1.0,0.0,6.m4v,7.0
2024-02-28 09:39:56.667373,1709109596.667373,584.47265625,-38.0859375,-35.64453125,774.90234375,0.0,1.0,-1.0,0.0,6.m4v,7.0
2024-02-28 09:39:56.671287,1709109596.6712868,558.10546875,-43.9453125,-39.55078125,999.51171875,0.0,1.0,-1.0,0.0,6.m4v,7.0
2024-02-28 09:39:56.675191,1709109596.6751914,191.89453125,-42.48046875,-37.109375,901.3671875,0.0,1.0,-1.0,0.0,6.m4v,7.0
2024-02-28 09:39:56.679096,1709109596.679096,35.15625,-43.45703125,-37.109375,981.4453125,0.0,1.0,-1.0,0.0,6.m4v,7.0
2024-02-28 09:39:56.683001,1709109596.6830006,62.98828125,-42.96875,-39.0625,903.3203125,0.0,1.0,-1.0,0.0,6.m4v,7.0
2024-02-28 09:39:56.686905,1709109596.6869054,-417.96875,-38.0859375,-39.0625,-269.53125,0.0,1.0,-1.0,0.0,6.m4v,7.0
2024-02-28 09:39:56.690810,1709109596.69081,-712.890625,-37.109375,-42.48046875,-1000.0,0.0,1.0,-1.0,0.0,6.m4v,7.0
2024-02-28 09:39:56.694715,1709109596.6947143,-418.9453125,-41.015625,-41.015625,-1000.0,0.0,1.0,-1.0,0.0,6.m4v,7.0
2024-02-28 09:39:56.698619,1709109596.6986191,-285.15625,-35.64453125,-37.109375,-796.38671875,0.0,1.0,-1.0,0.0,6.m4v,7.0
2024-02-28 09:39:56.702524,1709109596.7025237,272.94921875,-31.25,-34.66796875,404.78515625,0.0,1.0,-1.0,0.0,6.m4v,7.0
2024-02-28 09:39:56.706428,1709109596.7064283,680.17578125,-32.71484375,-31.73828125,999.51171875,0.0,1.0,-1.0,0.0,6.m4v,7.0
2024-02-28 09:39:56.710333,1709109596.7103329,210.9375,-32.2265625,-36.1328125,604.00390625,0.0,1.0,-1.0,0.0,6.m4v,7.0
2024-02-28 09:39:56.714238,1709109596.7142377,-554.19921875,-35.64453125,-42.96875,-599.12109375,0.0,1.0,-1.0,0.0,6.m4v,7.0
2024-02-28 09:39:56.718160,1709109596.7181604,-641.6015625,-37.109375,-44.921875,-1000.0,0.0,1.0,-1.0,0.0,6.m4v,7.0
2024-02-28 09:39:56.722065,1709109596.722065,49.8046875,-36.1328125,-41.9921875,-136.71875,0.0,1.0,-1.0,0.0,6.m4v,7.0
2024-02-28 09:39:56.725970,1709109596.7259696,546.38671875,-39.0625,-38.0859375,970.21484375,0.0,1.0,-1.0,0.0,6.m4v,7.0
2024-02-28 09:39:56.729874,1709109596.729874,436.5234375,-41.9921875,-37.109375,999.51171875,0.0,1.0,-1.0,0.0,6.m4v,7.0
2024-02-28 09:39:56.733779,1709109596.733779,-78.125,-41.50390625,-36.1328125,178.22265625,0.0,1.0,-1.0,0.0,6.m4v,7.0
2024-02-28 09:39:56.737684,1709109596.7376835,-674.8046875,-43.45703125,-40.0390625,-965.33203125,0.0,1.0,-1.0,0.0,6.m4v,7.0
2024-02-28 09:39:56.741588,1709109596.741588,-578.125,-41.50390625,-41.9921875,-1000.0,0.0,1.0,-1.0,0.0,6.m4v,7.0
2024-02-28 09:39:56.745493,1709109596.7454927,-183.59375,-40.52734375,-40.0390625,-941.89453125,0.0,1.0,-1.0,0.0,6.m4v,7.0
2024-02-28 09:39:56.749397,1709109596.7493973,-15.13671875,-40.52734375,-43.45703125,-1000.0,0.0,1.0,-1.0,0.0,6.m4v,7.0
2024-02-28 09:39:56.753302,1709109596.753302,-46.875,-42.96875,-44.921875,-953.61328125,0.0,1.0,-1.0,0.0,6.m4v,7.0
2024-02-28 09:39:56.757206,1709109596.7572064,299.8046875,-39.55078125,-40.52734375,208.984375,0.0,1.0,-1.0,0.0,6.m4v,7.0
2024-02-28 09:39:56.761111,1709109596.7611113,529.296875,-31.25,-41.50390625,997.0703125,0.0,1.0,-1.0,0.0,6.m4v,7.0
2024-02-28 09:39:56.765033,1709109596.7650328,366.2109375,-31.25,-42.96875,999.51171875,0.0,1.0,-1.0,0.0,6.m4v,7.0
2024-02-28 09:39:56.768937,1709109596.768937,130.37109375,-33.69140625,-41.015625,538.0859375,0.0,1.0,-1.0,0.0,6.m4v,7.0
2024-02-28 09:39:56.772842,1709109596.772842,-485.83984375,-35.15625,-41.50390625,-717.28515625,0.0,1.0,-1.0,0.0,6.m4v,7.0
2024-02-28 09:39:56.776747,1709109596.7767465,-702.63671875,-33.69140625,-40.0390625,-1000.0,0.0,1.0,-1.0,0.0,6.m4v,7.0
2024-02-28 09:39:56.780651,1709109596.780651,-215.33203125,-32.71484375,-38.57421875,-452.63671875,0.0,1.0,-1.0,0.0,6.m4v,7.0
2024-02-28 09:39:56.784556,1709109596.784556,579.1015625,-36.1328125,-33.203125,780.2734375,0.0,1.0,-1.0,0.0,6.m4v,7.0
2024-02-28 09:39:56.788460,1709109596.7884605,633.7890625,-37.59765625,-30.76171875,999.51171875,0.0,1.0,-1.0,0.0,6.m4v,7.0
2024-02-28 09:39:56.792365,1709109596.792365,20.01953125,-38.57421875,-33.203125,395.01953125,0.0,1.0,-1.0,0.0,6.m4v,7.0
2024-02-28 09:39:56.796270,1709109596.7962697,-580.078125,-40.52734375,-33.69140625,-793.45703125,0.0,1.0,-1.0,0.0,6.m4v,7.0
2024-02-28 09:39:56.800174,1709109596.8001742,-527.34375,-35.64453125,-33.203125,-1000.0,0.0,1.0,-1.0,0.0,6.m4v,7.0
2024-02-28 09:39:56.804079,1709109596.804079,29.78515625,-36.1328125,-30.76171875,-318.359375,0.0,1.0,-1.0,0.0,6.m4v,7.0
2024-02-28 09:39:56.807984,1709109596.8079836,515.625,-36.62109375,-29.78515625,726.5625,0.0,1.0,-1.0,0.0,6.m4v,7.0
2024-02-28 09:39:56.811904,1709109596.8119037,384.765625,-37.109375,-33.203125,999.51171875,0.0,1.0,-1.0,0.0,6.m4v,7.0
2024-02-28 09:39:56.815808,1709109596.8158083,-133.30078125,-42.96875,-32.2265625,684.08203125,0.0,1.0,-1.0,0.0,6.m4v,7.0
2024-02-28 09:39:56.819713,1709109596.8197129,-207.03125,-40.0390625,-32.2265625,216.796875,0.0,1.0,-1.0,0.0,6.m4v,7.0
2024-02-28 09:39:56.823618,1709109596.8236177,-242.67578125,-37.59765625,-36.1328125,-421.875,0.0,1.0,-1.0,0.0,6.m4v,7.0
2024-02-28 09:39:56.827522,1709109596.8275225,-393.06640625,-41.50390625,-40.52734375,-979.98046875,0.0,1.0,-1.0,0.0,6.m4v,7.0
2024-02-28 09:39:56.831427,1709109596.8314269,-261.71875,-45.8984375,-47.36328125,-993.65234375,0.0,1.0,-1.0,0.0,6.m4v,7.0
2024-02-28 09:39:56.835331,1709109596.8353314,-192.3828125,-41.9921875,-41.50390625,-944.82421875,0.0,1.0,-1.0,0.0,6.m4v,7.0
2024-02-28 09:39:56.839236,1709109596.839236,253.90625,-36.62109375,-36.1328125,180.17578125,0.0,1.0,-1.0,0.0,6.m4v,7.0
2024-02-28 09:39:56.843141,1709109596.8431406,616.69921875,-34.66796875,-42.96875,999.0234375,0.0,1.0,-1.0,0.0,6.m4v,7.0
2024-02-28 09:39:56.847045,1709109596.8470452,417.96875,-38.57421875,-39.0625,999.51171875,0.0,1.0,-1.0,0.0,6.m4v,7.0
2024-02-28 09:39:56.850950,1709109596.85095,-82.51953125,-40.52734375,-35.64453125,239.2578125,0.0,1.0,-1.0,0.0,6.m4v,7.0
2024-02-28 09:39:56.854855,1709109596.8548546,-671.875,-38.0859375,-39.55078125,-982.91015625,0.0,1.0,-1.0,0.0,6.m4v,7.0
2024-02-28 09:39:56.858774,1709109596.8587744,-609.375,-35.64453125,-39.0625,-1000.0,0.0,1.0,-1.0,0.0,6.m4v,7.0
2024-02-28 09:39:56.862679,1709109596.862679,25.87890625,-36.1328125,-37.59765625,21.97265625,0.0,1.0,-1.0,0.0,6.m4v,7.0
2024-02-28 09:39:56.866584,1709109596.8665836,540.52734375,-37.59765625,-37.109375,999.51171875,0.0,1.0,-1.0,0.0,6.m4v,7.0
2024-02-28 09:39:56.870488,1709109596.8704884,415.52734375,-38.0859375,-37.109375,926.7578125,0.0,1.0,-1.0,0.0,6.m4v,7.0
2024-02-28 09:39:56.874393,1709109596.874393,-160.15625,-37.109375,-36.1328125,-75.1953125,0.0,1.0,-1.0,0.0,6.m4v,7.0
2024-02-28 09:39:56.878298,1709109596.8782976,-603.515625,-39.55078125,-38.0859375,-1000.0,0.0,1.0,-1.0,0.0,6.m4v,7.0
2024-02-28 09:39:56.882202,1709109596.882202,-311.5234375,-40.52734375,-41.015625,-862.3046875,0.0,1.0,-1.0,0.0,6.m4v,7.0
2024-02-28 09:39:56.886107,1709109596.8861067,213.8671875,-36.62109375,-38.57421875,43.9453125,0.0,1.0,-1.0,0.0,6.m4v,7.0
2024-02-28 09:39:56.890011,1709109596.8900113,474.12109375,-38.57421875,-36.1328125,915.0390625,0.0,1.0,-1.0,0.0,6.m4v,7.0
2024-02-28 09:39:56.893916,1709109596.893916,280.76171875,-38.57421875,-35.15625,966.30859375,0.0,1.0,-1.0,0.0,6.m4v,7.0
2024-02-28 09:39:56.897821,1709109596.8978207,10.7421875,-36.1328125,-31.25,893.06640625,0.0,1.0,-1.0,0.0,6.m4v,7.0
2024-02-28 09:39:56.901725,1709109596.9017253,43.45703125,-38.57421875,-31.73828125,999.51171875,0.0,1.0,-1.0,0.0,6.m4v,7.0
2024-02-28 09:39:56.905644,1709109596.9056437,-244.62890625,-39.0625,-36.1328125,147.4609375,0.0,1.0,-1.0,0.0,6.m4v,7.0
2024-02-28 09:39:56.909548,1709109596.9095483,-726.5625,-36.62109375,-38.57421875,-1000.0,0.0,1.0,-1.0,0.0,6.m4v,7.0
2024-02-28 09:39:56.913453,1709109596.9134529,-496.58203125,-35.64453125,-42.48046875,-990.72265625,0.0,1.0,-1.0,0.0,6.m4v,7.0
2024-02-28 09:39:56.917357,1709109596.9173574,-180.17578125,-34.1796875,-44.921875,-911.62109375,0.0,1.0,-1.0,0.0,6.m4v,7.0
2024-02-28 09:39:56.921262,1709109596.921262,325.1953125,-33.69140625,-41.015625,227.05078125,0.0,1.0,-1.0,0.0,6.m4v,7.0
2024-02-28 09:39:56.925167,1709109596.9251666,594.7265625,-36.62109375,-38.0859375,999.51171875,0.0,1.0,-1.0,0.0,6.m4v,7.0
2024-02-28 09:39:56.929071,1709109596.9290714,376.46484375,-34.66796875,-40.0390625,982.421875,0.0,1.0,-1.0,0.0,6.m4v,7.0
2024-02-28 09:39:56.932976,1709109596.932976,-203.61328125,-39.0625,-42.48046875,-14.16015625,0.0,1.0,-1.0,0.0,6.m4v,7.0
2024-02-28 09:39:56.936881,1709109596.9368806,-784.1796875,-44.43359375,-42.48046875,-1000.0,0.0,1.0,-1.0,0.0,6.m4v,7.0
2024-02-28 09:39:56.940785,1709109596.9407852,-533.69140625,-37.59765625,-40.52734375,-993.1640625,0.0,1.0,-1.0,0.0,6.m4v,7.0
2024-02-28 09:39:56.944690,1709109596.9446898,-81.0546875,-32.71484375,-43.45703125,-887.20703125,0.0,1.0,-1.0,0.0,6.m4v,7.0
2024-02-28 09:39:56.948594,1709109596.9485943,47.8515625,-34.1796875,-41.50390625,-777.34375,0.0,1.0,-1.0,0.0,6.m4v,7.0
2024-02-28 09:39:56.952511,1709109596.9525113,-172.8515625,-36.1328125,-39.0625,-1000.0,0.0,1.0,-1.0,0.0,6.m4v,7.0
2024-02-28 09:39:56.956416,1709109596.956416,-165.52734375,-35.15625,-41.015625,-563.96484375,0.0,1.0,-1.0,0.0,6.m4v,7.0
2024-02-28 09:39:56.960320,1709109596.9603205,440.91796875,-33.203125,-41.9921875,749.51171875,0.0,1.0,-1.0,0.0,6.m4v,7.0
2024-02-28 09:39:56.964225,1709109596.964225,597.65625,-34.66796875,-38.57421875,999.51171875,0.0,1.0,-1.0,0.0,6.m4v,7.0
2024-02-28 09:39:56.968130,1709109596.9681296,298.33984375,-39.55078125,-34.1796875,763.18359375,0.0,1.0,-1.0,0.0,6.m4v,7.0
2024-02-28 09:39:56.972034,1709109596.9720345,-268.5546875,-39.0625,-32.2265625,-376.46484375,0.0,1.0,-1.0,0.0,6.m4v,7.0
2024-02-28 09:39:56.975939,1709109596.975939,-647.4609375,-45.41015625,-36.1328125,-1000.0,0.0,1.0,-1.0,0.0,6.m4v,7.0
2024-02-28 09:39:56.979844,1709109596.9798436,-328.61328125,-50.78125,-41.50390625,-918.9453125,0.0,1.0,-1.0,0.0,6.m4v,7.0
2024-02-28 09:39:56.983748,1709109596.9837482,203.125,-43.9453125,-42.48046875,87.40234375,0.0,1.0,-1.0,0.0,6.m4v,7.0
2024-02-28 09:39:56.987653,1709109596.9876528,583.0078125,-36.62109375,-39.0625,999.51171875,0.0,1.0,-1.0,0.0,6.m4v,7.0
2024-02-28 09:39:56.991557,1709109596.9915574,421.875,-40.52734375,-39.0625,962.40234375,0.0,1.0,-1.0,0.0,6.m4v,7.0
2024-02-28 09:39:56.995462,1709109596.995462,-246.09375,-40.0390625,-41.015625,-39.0625,0.0,1.0,-1.0,0.0,6.m4v,7.0
2024-02-28 09:39:56.999377,1709109596.9993773,-653.3203125,-33.69140625,-43.45703125,-1000.0,0.0,1.0,-1.0,0.0,6.m4v,7.0
2024-02-28 09:39:57.003282,1709109597.0032818,-436.5234375,-35.64453125,-48.33984375,-984.375,0.0,1.0,-1.0,0.0,6.m4v,7.0
2024-02-28 09:39:57.007186,1709109597.0071864,-230.95703125,-38.0859375,-45.41015625,-918.45703125,0.0,1.0,-1.0,0.0,6.m4v,7.0
2024-02-28 09:39:57.011091,1709109597.011091,-154.78515625,-39.0625,-42.48046875,-1000.0,0.0,1.0,-1.0,0.0,6.m4v,7.0
2024-02-28 09:39:57.014996,1709109597.0149958,64.94140625,-33.203125,-42.48046875,-417.96875,0.0,1.0,-1.0,0.0,6.m4v,7.0
2024-02-28 09:39:57.018900,1709109597.0189004,465.33203125,-31.25,-36.62109375,883.7890625,0.0,1.0,-1.0,0.0,6.m4v,7.0
2024-02-28 09:39:57.022805,1709109597.022805,440.4296875,-40.52734375,-44.921875,975.09765625,0.0,1.0,-1.0,0.0,6.m4v,7.0
2024-02-28 09:39:57.026710,1709109597.0267096,359.375,-42.48046875,-45.41015625,942.87109375,0.0,1.0,-1.0,0.0,6.m4v,7.0
2024-02-28 09:39:57.030614,1709109597.030614,-169.43359375,-40.0390625,-36.62109375,-76.171875,0.0,1.0,-1.0,0.0,6.m4v,7.0
2024-02-28 09:39:57.034519,1709109597.0345187,-625.9765625,-38.0859375,-37.59765625,-1000.0,0.0,1.0,-1.0,0.0,6.m4v,7.0
2024-02-28 09:39:57.038423,1709109597.0384233,-378.41796875,-37.59765625,-34.1796875,-878.41796875,0.0,1.0,-1.0,0.0,6.m4v,7.0
2024-02-28 09:39:57.042328,1709109597.042328,212.40234375,-38.57421875,-37.59765625,236.328125,0.0,1.0,-1.0,0.0,6.m4v,7.0
2024-02-28 09:39:57.046243,1709109597.0462432,591.30859375,-31.73828125,-35.64453125,999.51171875,0.0,1.0,-1.0,0.0,6.m4v,7.0
2024-02-28 09:39:57.050148,1709109597.0501478,281.73828125,-34.1796875,-27.34375,744.140625,0.0,1.0,-1.0,0.0,6.m4v,7.0
2024-02-28 09:39:57.054052,1709109597.0540524,-470.21484375,-43.9453125,-30.2734375,-392.578125,0.0,1.0,-1.0,0.0,6.m4v,7.0
2024-02-28 09:39:57.057957,1709109597.057957,-659.1796875,-37.109375,-33.203125,-1000.0,0.0,1.0,-1.0,0.0,6.m4v,7.0
2024-02-28 09:39:57.061862,1709109597.0618618,-18.5546875,-33.203125,-30.76171875,-216.30859375,0.0,1.0,-1.0,0.0,6.m4v,7.0
2024-02-28 09:39:57.065766,1709109597.0657663,562.01171875,-30.2734375,-31.25,956.0546875,0.0,1.0,-1.0,0.0,6.m4v,7.0
2024-02-28 09:39:57.069671,1709109597.069671,410.64453125,-30.2734375,-33.69140625,966.30859375,0.0,1.0,-1.0,0.0,6.m4v,7.0
2024-02-28 09:39:57.073575,1709109597.0735755,-321.77734375,-39.55078125,-26.3671875,-130.37109375,0.0,1.0,-1.0,0.0,6.m4v,7.0
2024-02-28 09:39:57.077480,1709109597.07748,-644.53125,-43.45703125,-17.578125,-1000.0,0.0,1.0,-1.0,0.0,6.m4v,7.0
2024-02-28 09:39:57.081385,1709109597.081385,-301.26953125,-42.48046875,-24.4140625,-829.1015625,0.0,1.0,-1.0,0.0,6.m4v,7.0
2024-02-28 09:39:57.085289,1709109597.0852892,309.08203125,-36.62109375,-24.90234375,298.828125,0.0,1.0,-1.0,0.0,6.m4v,7.0
2024-02-28 09:39:57.089194,1709109597.089194,533.203125,-33.69140625,-24.90234375,999.51171875,0.0,1.0,-1.0,0.0,6.m4v,7.0
2024-02-28 09:39:57.093117,1709109597.0931168,190.91796875,-32.71484375,-29.78515625,937.5,0.0,1.0,-1.0,0.0,6.m4v,7.0
2024-02-28 09:39:57.097021,1709109597.097021,-37.109375,-34.66796875,-27.83203125,888.18359375,0.0,1.0,-1.0,0.0,6.m4v,7.0
2024-02-28 09:39:57.100926,1709109597.100926,63.4765625,-39.55078125,-30.2734375,999.51171875,0.0,1.0,-1.0,0.0,6.m4v,7.0
2024-02-28 09:39:57.104831,1709109597.1048305,30.2734375,-41.50390625,-35.15625,514.6484375,0.0,1.0,-1.0,0.0,6.m4v,7.0
2024-02-28 09:39:57.108735,1709109597.108735,-494.140625,-43.45703125,-39.55078125,-821.2890625,0.0,1.0,-1.0,0.0,6.m4v,7.0
2024-02-28 09:39:57.112640,1709109597.11264,-561.5234375,-45.41015625,-41.015625,-988.28125,0.0,1.0,-1.0,0.0,6.m4v,7.0
2024-02-28 09:39:57.116544,1709109597.1165445,-337.890625,-45.8984375,-40.52734375,-1000.0,0.0,1.0,-1.0,0.0,6.m4v,7.0
2024-02-28 09:39:57.120449,1709109597.120449,-18.5546875,-40.52734375,-37.109375,-238.28125,0.0,1.0,-1.0,0.0,6.m4v,7.0
2024-02-28 09:39:57.124354,1709109597.1243536,496.58203125,-31.73828125,-31.73828125,964.84375,0.0,1.0,-1.0,0.0,6.m4v,7.0
2024-02-28 09:39:57.128258,1709109597.1282582,515.625,-34.66796875,-32.2265625,999.51171875,0.0,1.0,-1.0,0.0,6.m4v,7.0
2024-02-28 09:39:57.132163,1709109597.132163,39.55078125,-41.9921875,-34.1796875,220.21484375,0.0,1.0,-1.0,0.0,6.m4v,7.0
2024-02-28 09:39:57.136068,1709109597.1360676,-642.08984375,-43.9453125,-30.2734375,-940.4296875,0.0,1.0,-1.0,0.0,6.m4v,7.0
2024-02-28 09:39:57.139989,1709109597.1399891,-752.9296875,-39.0625,-31.73828125,-1000.0,0.0,1.0,-1.0,0.0,6.m4v,7.0
2024-02-28 09:39:57.143894,1709109597.1438937,-198.2421875,-39.0625,-37.109375,-650.87890625,0.0,1.0,-1.0,0.0,6.m4v,7.0
2024-02-28 09:39:57.147798,1709109597.1477983,591.796875,-39.0625,-35.64453125,467.28515625,0.0,1.0,-1.0,0.0,6.m4v,7.0
2024-02-28 09:39:57.151703,1709109597.151703,650.390625,-38.0859375,-29.296875,999.51171875,0.0,1.0,-1.0,0.0,6.m4v,7.0
2024-02-28 09:39:57.155607,1709109597.1556077,228.02734375,-41.50390625,-33.203125,913.0859375,0.0,1.0,-1.0,0.0,6.m4v,7.0
2024-02-28 09:39:57.159512,1709109597.159512,82.03125,-39.0625,-38.0859375,953.61328125,0.0,1.0,-1.0,0.0,6.m4v,7.0
2024-02-28 09:39:57.163417,1709109597.1634166,116.69921875,-36.1328125,-34.1796875,970.703125,0.0,1.0,-1.0,0.0,6.m4v,7.0
2024-02-28 09:39:57.167321,1709109597.1673214,-338.8671875,-36.62109375,-35.64453125,-149.4140625,0.0,1.0,-1.0,0.0,6.m4v,7.0
2024-02-28 09:39:57.171226,1709109597.171226,-717.28515625,-38.57421875,-37.59765625,-1000.0,0.0,1.0,-1.0,0.0,6.m4v,7.0
2024-02-28 09:39:57.175131,1709109597.1751306,-492.67578125,-40.52734375,-31.73828125,-1000.0,0.0,1.0,-1.0,0.0,6.m4v,7.0
2024-02-28 09:39:57.179035,1709109597.1790352,-87.890625,-34.1796875,-35.64453125,-488.76953125,0.0,1.0,-1.0,0.0,6.m4v,7.0
2024-02-28 09:39:57.182940,1709109597.1829398,506.34765625,-32.2265625,-38.57421875,782.71484375,0.0,1.0,-1.0,0.0,6.m4v,7.0
2024-02-28 09:39:57.186860,1709109597.1868603,538.57421875,-33.203125,-36.1328125,999.51171875,0.0,1.0,-1.0,0.0,6.m4v,7.0
2024-02-28 09:39:57.190765,1709109597.190765,37.59765625,-28.80859375,-37.59765625,418.9453125,0.0,1.0,-1.0,0.0,6.m4v,7.0
2024-02-28 09:39:57.194670,1709109597.1946695,-488.76953125,-35.15625,-38.57421875,-782.71484375,0.0,1.0,-1.0,0.0,6.m4v,7.0
2024-02-28 09:39:57.198574,1709109597.1985743,-627.9296875,-38.57421875,-34.1796875,-1000.0,0.0,1.0,-1.0,0.0,6.m4v,7.0
2024-02-28 09:39:57.202479,1709109597.202479,-18.5546875,-30.76171875,-30.2734375,-55.6640625,0.0,1.0,-1.0,0.0,6.m4v,7.0
2024-02-28 09:39:57.206383,1709109597.2063837,660.64453125,-33.69140625,-32.2265625,999.51171875,0.0,1.0,-1.0,0.0,6.m4v,7.0
2024-02-28 09:39:57.210288,1709109597.210288,479.4921875,-38.0859375,-36.62109375,953.125,0.0,1.0,-1.0,0.0,6.m4v,7.0
2024-02-28 09:39:57.214193,1709109597.2141926,-258.30078125,-40.52734375,-36.1328125,-112.79296875,0.0,1.0,-1.0,0.0,6.m4v,7.0
2024-02-28 09:39:57.218097,1709109597.2180972,-667.48046875,-46.875,-37.109375,-1000.0,0.0,1.0,-1.0,0.0,6.m4v,7.0
2024-02-28 09:39:57.222002,1709109597.222002,-418.45703125,-38.0859375,-37.109375,-970.703125,0.0,1.0,-1.0,0.0,6.m4v,7.0
2024-02-28 09:39:57.225907,1709109597.2259066,-145.01953125,-27.83203125,-38.57421875,-723.6328125,0.0,1.0,-1.0,0.0,6.m4v,7.0
2024-02-28 09:39:57.229811,1709109597.2298112,217.7734375,-31.25,-42.96875,182.6171875,0.0,1.0,-1.0,0.0,6.m4v,7.0
2024-02-28 09:39:57.233730,1709109597.2337303,456.54296875,-37.59765625,-41.9921875,936.03515625,0.0,1.0,-1.0,0.0,6.m4v,7.0
2024-02-28 09:39:57.237635,1709109597.237635,273.4375,-39.55078125,-39.0625,913.0859375,0.0,1.0,-1.0,0.0,6.m4v,7.0
2024-02-28 09:39:57.241539,1709109597.2415397,94.7265625,-40.0390625,-38.0859375,999.51171875,0.0,1.0,-1.0,0.0,6.m4v,7.0
2024-02-28 09:39:57.245444,1709109597.245444,61.5234375,-39.0625,-36.1328125,626.953125,0.0,1.0,-1.0,0.0,6.m4v,7.0
2024-02-28 09:39:57.249349,1709109597.2493489,-441.89453125,-36.1328125,-38.0859375,-676.7578125,0.0,1.0,-1.0,0.0,6.m4v,7.0
2024-02-28 09:39:57.253253,1709109597.2532537,-553.22265625,-34.1796875,-40.0390625,-1000.0,0.0,1.0,-1.0,0.0,6.m4v,7.0
2024-02-28 09:39:57.257158,1709109597.257158,-311.5234375,-35.15625,-36.62109375,-948.2421875,0.0,1.0,-1.0,0.0,6.m4v,7.0
2024-02-28 09:39:57.261063,1709109597.2610626,210.9375,-35.64453125,-39.55078125,74.70703125,0.0,1.0,-1.0,0.0,6.m4v,7.0
2024-02-28 09:39:57.264967,1709109597.2649672,529.296875,-33.69140625,-43.9453125,999.51171875,0.0,1.0,-1.0,0.0,6.m4v,7.0
2024-02-28 09:39:57.268872,1709109597.2688718,143.5546875,-34.66796875,-42.48046875,734.375,0.0,1.0,-1.0,0.0,6.m4v,7.0
2024-02-28 09:39:57.272776,1709109597.2727764,-361.81640625,-40.52734375,-40.52734375,-396.97265625,0.0,1.0,-1.0,0.0,6.m4v,7.0
2024-02-28 09:39:57.276681,1709109597.2766812,-613.28125,-42.48046875,-40.52734375,-1000.0,0.0,1.0,-1.0,0.0,6.m4v,7.0
2024-02-28 09:39:57.280599,1709109597.2805989,-167.96875,-40.0390625,-38.0859375,-535.15625,0.0,1.0,-1.0,0.0,6.m4v,7.0
2024-02-28 09:39:57.284504,1709109597.2845037,451.66015625,-38.0859375,-36.1328125,674.8046875,0.0,1.0,-1.0,0.0,6.m4v,7.0
2024-02-28 09:39:57.288408,1709109597.2884085,563.96484375,-41.015625,-37.59765625,999.51171875,0.0,1.0,-1.0,0.0,6.m4v,7.0
2024-02-28 09:39:57.292313,1709109597.2923129,51.26953125,-41.015625,-42.96875,399.4140625,0.0,1.0,-1.0,0.0,6.m4v,7.0
2024-02-28 09:39:57.296217,1709109597.2962174,-551.26953125,-37.109375,-43.9453125,-827.63671875,0.0,1.0,-1.0,0.0,6.m4v,7.0
2024-02-28 09:39:57.300122,1709109597.300122,-591.796875,-33.69140625,-37.109375,-1000.0,0.0,1.0,-1.0,0.0,6.m4v,7.0
2024-02-28 09:39:57.304027,1709109597.3040266,89.84375,-28.3203125,-33.69140625,105.95703125,0.0,1.0,-1.0,0.0,6.m4v,7.0
2024-02-28 09:39:57.307931,1709109597.3079312,571.2890625,-28.3203125,-34.66796875,999.51171875,0.0,1.0,-1.0,0.0,6.m4v,7.0
2024-02-28 09:39:57.311836,1709109597.311836,276.85546875,-36.1328125,-31.73828125,931.15234375,0.0,1.0,-1.0,0.0,6.m4v,7.0
2024-02-28 09:39:57.315741,1709109597.3157406,-386.71875,-38.57421875,-34.66796875,-54.19921875,0.0,1.0,-1.0,0.0,6.m4v,7.0
2024-02-28 09:39:57.319645,1709109597.3196452,-710.44921875,-33.69140625,-39.55078125,-1000.0,0.0,1.0,-1.0,0.0,6.m4v,7.0
2024-02-28 09:39:57.323550,1709109597.3235495,-311.03515625,-28.3203125,-34.1796875,-984.375,0.0,1.0,-1.0,0.0,6.m4v,7.0
2024-02-28 09:39:57.327466,1709109597.3274665,-46.875,-27.83203125,-35.64453125,-919.921875,0.0,1.0,-1.0,0.0,6.m4v,7.0
2024-02-28 09:39:57.331371,1709109597.331371,-108.3984375,-28.80859375,-38.57421875,-1000.0,0.0,1.0,-1.0,0.0,6.m4v,7.0
2024-02-28 09:39:57.335276,1709109597.3352757,93.26171875,-30.2734375,-34.66796875,-300.29296875,0.0,1.0,-1.0,0.0,6.m4v,7.0
2024-02-28 09:39:57.339180,1709109597.3391802,571.2890625,-31.25,-34.1796875,980.95703125,0.0,1.0,-1.0,0.0,6.m4v,7.0
2024-02-28 09:39:57.343085,1709109597.343085,391.6015625,-30.2734375,-32.71484375,926.7578125,0.0,1.0,-1.0,0.0,6.m4v,7.0
2024-02-28 09:39:57.346990,1709109597.3469896,124.51171875,-25.390625,-29.78515625,999.51171875,0.0,1.0,-1.0,0.0,6.m4v,7.0
2024-02-28 09:39:57.350894,1709109597.3508942,19.53125,-26.85546875,-33.203125,407.2265625,0.0,1.0,-1.0,0.0,6.m4v,7.0
2024-02-28 09:39:57.354799,1709109597.3547988,-450.1953125,-38.0859375,-40.0390625,-812.5,0.0,1.0,-1.0,0.0,6.m4v,7.0
2024-02-28 09:39:57.358703,1709109597.3587034,-557.6171875,-43.45703125,-42.96875,-1000.0,0.0,1.0,-1.0,0.0,6.m4v,7.0
2024-02-28 09:39:57.362608,1709109597.362608,-206.0546875,-36.62109375,-35.64453125,-762.6953125,0.0,1.0,-1.0,0.0,6.m4v,7.0
2024-02-28 09:39:57.366513,1709109597.3665128,326.66015625,-34.66796875,-29.296875,293.45703125,0.0,1.0,-1.0,0.0,6.m4v,7.0
2024-02-28 09:39:57.370417,1709109597.3704174,489.74609375,-36.62109375,-34.66796875,999.51171875,0.0,1.0,-1.0,0.0,6.m4v,7.0
2024-02-28 09:39:57.374333,1709109597.3743334,192.3828125,-35.15625,-41.9921875,926.26953125,0.0,1.0,-1.0,0.0,6.m4v,7.0
2024-02-28 09:39:57.378238,1709109597.378238,76.66015625,-40.52734375,-39.0625,931.640625,0.0,1.0,-1.0,0.0,6.m4v,7.0
2024-02-28 09:39:57.382143,1709109597.3821423,174.31640625,-36.62109375,-34.66796875,999.51171875,0.0,1.0,-1.0,0.0,6.m4v,7.0
2024-02-28 09:39:57.386047,1709109597.3860474,-206.0546875,-37.109375,-39.0625,-60.05859375,0.0,1.0,-1.0,0.0,6.m4v,7.0
2024-02-28 09:39:57.389952,1709109597.389952,-754.8828125,-42.96875,-37.59765625,-1000.0,0.0,1.0,-1.0,0.0,6.m4v,7.0
2024-02-28 09:39:57.393857,1709109597.3938563,-571.2890625,-40.0390625,-33.203125,-1000.0,0.0,1.0,-1.0,0.0,6.m4v,7.0
2024-02-28 09:39:57.397761,1709109597.397761,-167.96875,-37.59765625,-35.15625,-686.5234375,0.0,1.0,-1.0,0.0,6.m4v,7.0
2024-02-28 09:39:57.401666,1709109597.4016657,326.66015625,-35.15625,-40.52734375,547.8515625,0.0,1.0,-1.0,0.0,6.m4v,7.0
2024-02-28 09:39:57.405570,1709109597.4055705,581.0546875,-35.64453125,-41.50390625,999.51171875,0.0,1.0,-1.0,0.0,6.m4v,7.0
2024-02-28 09:39:57.409475,1709109597.409475,206.54296875,-41.015625,-34.66796875,571.77734375,0.0,1.0,-1.0,0.0,6.m4v,7.0
2024-02-28 09:39:57.413380,1709109597.4133797,-495.60546875,-44.921875,-34.1796875,-637.6953125,0.0,1.0,-1.0,0.0,6.m4v,7.0
2024-02-28 09:39:57.417284,1709109597.4172845,-635.7421875,-46.875,-36.62109375,-1000.0,0.0,1.0,-1.0,0.0,6.m4v,7.0
2024-02-28 09:39:57.421199,1709109597.4211986,-73.73046875,-39.55078125,-33.69140625,-438.4765625,0.0,1.0,-1.0,0.0,6.m4v,7.0
2024-02-28 09:39:57.425103,1709109597.4251032,586.42578125,-30.2734375,-32.71484375,771.484375,0.0,1.0,-1.0,0.0,6.m4v,7.0
2024-02-28 09:39:57.429008,1709109597.429008,554.19921875,-37.59765625,-35.64453125,999.51171875,0.0,1.0,-1.0,0.0,6.m4v,7.0
2024-02-28 09:39:57.432913,1709109597.4329126,-185.05859375,-37.59765625,-32.71484375,86.42578125,0.0,1.0,-1.0,0.0,6.m4v,7.0
2024-02-28 09:39:57.436817,1709109597.4368172,-733.88671875,-38.57421875,-30.76171875,-1000.0,0.0,1.0,-1.0,0.0,6.m4v,7.0
2024-02-28 09:39:57.440722,1709109597.4407218,-489.2578125,-45.41015625,-37.109375,-874.0234375,0.0,1.0,-1.0,0.0,6.m4v,7.0
2024-02-28 09:39:57.444626,1709109597.4446263,260.25390625,-43.9453125,-38.57421875,261.71875,0.0,1.0,-1.0,0.0,6.m4v,7.0
2024-02-28 09:39:57.448531,1709109597.448531,604.00390625,-41.9921875,-34.66796875,999.51171875,0.0,1.0,-1.0,0.0,6.m4v,7.0
2024-02-28 09:39:57.452436,1709109597.4524355,246.58203125,-41.015625,-36.1328125,775.390625,0.0,1.0,-1.0,0.0,6.m4v,7.0
2024-02-28 09:39:57.456340,1709109597.4563403,-325.68359375,-43.45703125,-36.1328125,-314.94140625,0.0,1.0,-1.0,0.0,6.m4v,7.0
2024-02-28 09:39:57.460245,1709109597.460245,-558.10546875,-44.43359375,-32.71484375,-1000.0,0.0,1.0,-1.0,0.0,6.m4v,7.0
2024-02-28 09:39:57.464149,1709109597.4641497,-262.6953125,-42.96875,-35.64453125,-976.5625,0.0,1.0,-1.0,0.0,6.m4v,7.0
2024-02-28 09:39:57.468066,1709109597.4680662,-84.47265625,-43.9453125,-36.62109375,-927.24609375,0.0,1.0,-1.0,0.0,6.m4v,7.0
2024-02-28 09:39:57.471971,1709109597.4719708,-232.421875,-45.41015625,-35.64453125,-1000.0,0.0,1.0,-1.0,0.0,6.m4v,7.0
2024-02-28 09:39:57.475876,1709109597.4758756,-155.76171875,-44.43359375,-35.64453125,-471.19140625,0.0,1.0,-1.0,0.0,6.m4v,7.0
2024-02-28 09:39:57.479780,1709109597.4797802,563.4765625,-36.1328125,-33.203125,875.48828125,0.0,1.0,-1.0,0.0,6.m4v,7.0
2024-02-28 09:39:57.483685,1709109597.4836848,551.26953125,-31.73828125,-34.66796875,944.82421875,0.0,1.0,-1.0,0.0,6.m4v,7.0
2024-02-28 09:39:57.487589,1709109597.4875894,312.01171875,-34.66796875,-35.64453125,999.51171875,0.0,1.0,-1.0,0.0,6.m4v,7.0
2024-02-28 09:39:57.491494,1709109597.491494,-48.33984375,-35.15625,-40.0390625,294.43359375,0.0,1.0,-1.0,0.0,6.m4v,7.0
2024-02-28 09:39:57.495399,1709109597.4953983,-685.546875,-41.015625,-39.0625,-955.078125,0.0,1.0,-1.0,0.0,6.m4v,7.0
2024-02-28 09:39:57.499303,1709109597.499303,-524.90234375,-46.875,-36.1328125,-1000.0,0.0,1.0,-1.0,0.0,6.m4v,7.0
2024-02-28 09:39:57.503208,1709109597.503208,94.7265625,-40.52734375,-38.0859375,-219.23828125,0.0,1.0,-1.0,0.0,6.m4v,7.0
2024-02-28 09:39:57.507113,1709109597.5071125,500.9765625,-33.203125,-35.15625,861.328125,0.0,1.0,-1.0,0.0,6.m4v,7.0
2024-02-28 09:39:57.511017,1709109597.511017,336.42578125,-37.109375,-31.73828125,998.046875,0.0,1.0,-1.0,0.0,6.m4v,7.0
2024-02-28 09:39:57.514939,1709109597.5149386,12.20703125,-43.9453125,-36.1328125,581.54296875,0.0,1.0,-1.0,0.0,6.m4v,7.0
2024-02-28 09:39:57.518843,1709109597.5188432,-460.9375,-38.57421875,-40.0390625,-498.53515625,0.0,1.0,-1.0,0.0,6.m4v,7.0
2024-02-28 09:39:57.522748,1709109597.5227478,-562.01171875,-33.69140625,-37.109375,-1000.0,0.0,1.0,-1.0,0.0,6.m4v,7.0
2024-02-28 09:39:57.526653,1709109597.5266526,-305.6640625,-34.1796875,-39.0625,-906.73828125,0.0,1.0,-1.0,0.0,6.m4v,7.0
2024-02-28 09:39:57.530557,1709109597.5305572,-200.1953125,-34.1796875,-40.0390625,-1000.0,0.0,1.0,-1.0,0.0,6.m4v,7.0
2024-02-28 09:39:57.534462,1709109597.5344615,-16.11328125,-31.73828125,-35.64453125,-533.69140625,0.0,1.0,-1.0,0.0,6.m4v,7.0
2024-02-28 09:39:57.538366,1709109597.5383663,475.09765625,-31.73828125,-33.69140625,784.1796875,0.0,1.0,-1.0,0.0,6.m4v,7.0
2024-02-28 09:39:57.542271,1709109597.542271,528.80859375,-34.66796875,-37.109375,999.51171875,0.0,1.0,-1.0,0.0,6.m4v,7.0
2024-02-28 09:39:57.546175,1709109597.5461757,228.515625,-33.203125,-45.41015625,850.09765625,0.0,1.0,-1.0,0.0,6.m4v,7.0
2024-02-28 09:39:57.550080,1709109597.5500803,-288.0859375,-34.1796875,-47.8515625,-199.21875,0.0,1.0,-1.0,0.0,6.m4v,7.0
2024-02-28 09:39:57.553985,1709109597.5539849,-733.3984375,-35.64453125,-40.0390625,-1000.0,0.0,1.0,-1.0,0.0,6.m4v,7.0
2024-02-28 09:39:57.557889,1709109597.5578897,-347.16796875,-34.66796875,-35.15625,-775.87890625,0.0,1.0,-1.0,0.0,6.m4v,7.0
2024-02-28 09:39:57.561810,1709109597.5618098,338.8671875,-37.109375,-38.57421875,409.66796875,0.0,1.0,-1.0,0.0,6.m4v,7.0
2024-02-28 09:39:57.565714,1709109597.5657144,588.8671875,-35.64453125,-38.57421875,999.51171875,0.0,1.0,-1.0,0.0,6.m4v,7.0
2024-02-28 09:39:57.569619,1709109597.5696192,257.32421875,-35.64453125,-32.2265625,637.6953125,0.0,1.0,-1.0,0.0,6.m4v,7.0
2024-02-28 09:39:57.573524,1709109597.5735238,-402.34375,-39.55078125,-30.76171875,-535.15625,0.0,1.0,-1.0,0.0,6.m4v,7.0
2024-02-28 09:39:57.577428,1709109597.5774283,-693.84765625,-42.96875,-38.0859375,-1000.0,0.0,1.0,-1.0,0.0,6.m4v,7.0
2024-02-28 09:39:57.581333,1709109597.581333,-63.4765625,-37.59765625,-36.62109375,-266.11328125,0.0,1.0,-1.0,0.0,6.m4v,7.0
2024-02-28 09:39:57.585238,1709109597.5852375,523.4375,-33.69140625,-32.2265625,968.75,0.0,1.0,-1.0,0.0,6.m4v,7.0
2024-02-28 09:39:57.589142,1709109597.589142,331.54296875,-35.64453125,-32.2265625,921.38671875,0.0,1.0,-1.0,0.0,6.m4v,7.0
2024-02-28 09:39:57.593047,1709109597.593047,-406.25,-38.0859375,-33.203125,-198.2421875,0.0,1.0,-1.0,0.0,6.m4v,7.0
2024-02-28 09:39:57.596951,1709109597.5969515,-705.56640625,-41.9921875,-38.0859375,-1000.0,0.0,1.0,-1.0,0.0,6.m4v,7.0
2024-02-28 09:39:57.600856,1709109597.600856,-181.640625,-41.015625,-36.62109375,-710.44921875,0.0,1.0,-1.0,0.0,6.m4v,7.0
2024-02-28 09:39:57.604761,1709109597.6047606,445.3125,-32.2265625,-37.59765625,417.48046875,0.0,1.0,-1.0,0.0,6.m4v,7.0
2024-02-28 09:39:57.608680,1709109597.6086798,628.90625,-29.78515625,-38.57421875,999.51171875,0.0,1.0,-1.0,0.0,6.m4v,7.0
2024-02-28 09:39:57.612584,1709109597.6125844,58.59375,-35.15625,-32.71484375,390.13671875,0.0,1.0,-1.0,0.0,6.m4v,7.0
2024-02-28 09:39:57.616489,1709109597.616489,-554.6875,-38.0859375,-34.1796875,-802.734375,0.0,1.0,-1.0,0.0,6.m4v,7.0
2024-02-28 09:39:57.620394,1709109597.6203935,-414.0625,-39.55078125,-38.57421875,-1000.0,0.0,1.0,-1.0,0.0,6.m4v,7.0
2024-02-28 09:39:57.624298,1709109597.624298,57.12890625,-35.64453125,-41.50390625,-365.234375,0.0,1.0,-1.0,0.0,6.m4v,7.0
2024-02-28 09:39:57.628203,1709109597.628203,372.0703125,-34.66796875,-38.57421875,650.87890625,0.0,1.0,-1.0,0.0,6.m4v,7.0
2024-02-28 09:39:57.632107,1709109597.6321075,430.17578125,-37.109375,-39.0625,999.0234375,0.0,1.0,-1.0,0.0,6.m4v,7.0
2024-02-28 09:39:57.636012,1709109597.636012,116.69921875,-41.50390625,-41.50390625,882.32421875,0.0,1.0,-1.0,0.0,6.m4v,7.0
2024-02-28 09:39:57.639917,1709109597.639917,7.8125,-44.43359375,-41.015625,999.51171875,0.0,1.0,-1.0,0.0,6.m4v,7.0
2024-02-28 09:39:57.643821,1709109597.6438212,-146.97265625,-44.43359375,-43.9453125,248.046875,0.0,1.0,-1.0,0.0,6.m4v,7.0
2024-02-28 09:39:57.647726,1709109597.6477258,-507.8125,-44.43359375,-41.50390625,-1000.0,0.0,1.0,-1.0,0.0,6.m4v,7.0
2024-02-28 09:39:57.651630,1709109597.6516304,-396.484375,-38.57421875,-39.0625,-940.4296875,0.0,1.0,-1.0,0.0,6.m4v,7.0
2024-02-28 09:39:57.655548,1709109597.655548,-375.9765625,-33.69140625,-35.64453125,-1000.0,0.0,1.0,-1.0,0.0,6.m4v,7.0
2024-02-28 09:39:57.659453,1709109597.659453,-78.125,-28.3203125,-37.109375,-271.484375,0.0,1.0,-1.0,0.0,6.m4v,7.0
2024-02-28 09:39:57.663357,1709109597.6633575,538.57421875,-29.78515625,-38.0859375,954.1015625,0.0,1.0,-1.0,0.0,6.m4v,7.0
2024-02-28 09:39:57.667262,1709109597.667262,552.24609375,-32.71484375,-39.0625,999.51171875,0.0,1.0,-1.0,0.0,6.m4v,7.0
2024-02-28 09:39:57.671167,1709109597.671167,182.6171875,-31.25,-37.109375,611.328125,0.0,1.0,-1.0,0.0,6.m4v,7.0
2024-02-28 09:39:57.675071,1709109597.6750712,-497.55859375,-36.1328125,-29.78515625,-598.6328125,0.0,1.0,-1.0,0.0,6.m4v,7.0
2024-02-28 09:39:57.678976,1709109597.6789758,-615.72265625,-39.0625,-35.64453125,-1000.0,0.0,1.0,-1.0,0.0,6.m4v,7.0
2024-02-28 09:39:57.682881,1709109597.6828806,-143.06640625,-42.48046875,-41.015625,-739.2578125,0.0,1.0,-1.0,0.0,6.m4v,7.0
2024-02-28 09:39:57.686785,1709109597.6867852,180.6640625,-38.57421875,-39.0625,-96.6796875,0.0,1.0,-1.0,0.0,6.m4v,7.0
2024-02-28 09:39:57.690690,1709109597.6906898,293.45703125,-32.2265625,-39.0625,653.3203125,0.0,1.0,-1.0,0.0,6.m4v,7.0
2024-02-28 09:39:57.694594,1709109597.6945944,278.80859375,-36.1328125,-36.1328125,970.703125,0.0,1.0,-1.0,0.0,6.m4v,7.0
2024-02-28 09:39:57.698499,1709109597.698499,186.03515625,-33.69140625,-35.15625,915.52734375,0.0,1.0,-1.0,0.0,6.m4v,7.0
2024-02-28 09:39:57.702417,1709109597.7024171,187.01171875,-36.62109375,-38.0859375,999.51171875,0.0,1.0,-1.0,0.0,6.m4v,7.0
2024-02-28 09:39:57.706322,1709109597.7063217,-136.71875,-37.59765625,-37.59765625,35.15625,0.0,1.0,-1.0,0.0,6.m4v,7.0
2024-02-28 09:39:57.710226,1709109597.7102263,-645.99609375,-31.25,-37.109375,-1000.0,0.0,1.0,-1.0,0.0,6.m4v,7.0
2024-02-28 09:39:57.714131,1709109597.7141309,-583.984375,-31.73828125,-36.1328125,-990.72265625,0.0,1.0,-1.0,0.0,6.m4v,7.0
2024-02-28 09:39:57.718035,1709109597.7180357,-351.07421875,-29.296875,-36.62109375,-872.0703125,0.0,1.0,-1.0,0.0,6.m4v,7.0
2024-02-28 09:39:57.721940,1709109597.7219405,299.8046875,-24.90234375,-33.203125,251.953125,0.0,1.0,-1.0,0.0,6.m4v,7.0
2024-02-28 09:39:57.725845,1709109597.7258449,755.859375,-24.90234375,-29.296875,999.51171875,0.0,1.0,-1.0,0.0,6.m4v,7.0
2024-02-28 09:39:57.729749,1709109597.7297494,354.00390625,-27.83203125,-28.3203125,748.046875,0.0,1.0,-1.0,0.0,6.m4v,7.0
2024-02-28 09:39:57.733654,1709109597.733654,-368.65234375,-34.1796875,-30.2734375,-410.64453125,0.0,1.0,-1.0,0.0,6.m4v,7.0
2024-02-28 09:39:57.737559,1709109597.7375586,-736.328125,-32.71484375,-29.296875,-1000.0,0.0,1.0,-1.0,0.0,6.m4v,7.0
2024-02-28 09:39:57.741463,1709109597.7414632,-418.45703125,-30.76171875,-26.85546875,-863.76953125,0.0,1.0,-1.0,0.0,6.m4v,7.0
2024-02-28 09:39:57.745368,1709109597.745368,168.9453125,-32.71484375,-30.76171875,4.8828125,0.0,1.0,-1.0,0.0,6.m4v,7.0
2024-02-28 09:39:57.749283,1709109597.749283,523.92578125,-30.76171875,-33.69140625,923.828125,0.0,1.0,-1.0,0.0,6.m4v,7.0
2024-02-28 09:39:57.753188,1709109597.7531877,266.11328125,-29.78515625,-35.64453125,971.19140625,0.0,1.0,-1.0,0.0,6.m4v,7.0
2024-02-28 09:39:57.757092,1709109597.7570922,103.515625,-31.73828125,-36.62109375,886.23046875,0.0,1.0,-1.0,0.0,6.m4v,7.0
2024-02-28 09:39:57.760997,1709109597.7609968,197.265625,-32.2265625,-36.1328125,999.51171875,0.0,1.0,-1.0,0.0,6.m4v,7.0
2024-02-28 09:39:57.764901,1709109597.7649014,-97.16796875,-38.57421875,-32.71484375,257.8125,0.0,1.0,-1.0,0.0,6.m4v,7.0
2024-02-28 09:39:57.768806,1709109597.7688062,-523.92578125,-41.50390625,-31.73828125,-1000.0,0.0,1.0,-1.0,0.0,6.m4v,7.0
2024-02-28 09:39:57.772711,1709109597.7727108,-473.14453125,-40.52734375,-33.203125,-954.58984375,0.0,1.0,-1.0,0.0,6.m4v,7.0
2024-02-28 09:39:57.776615,1709109597.7766154,-388.671875,-43.9453125,-33.69140625,-1000.0,0.0,1.0,-1.0,0.0,6.m4v,7.0
2024-02-28 09:39:57.780520,1709109597.78052,69.3359375,-39.0625,-34.1796875,-171.875,0.0,1.0,-1.0,0.0,6.m4v,7.0
2024-02-28 09:39:57.784425,1709109597.7844243,572.265625,-39.0625,-40.52734375,999.51171875,0.0,1.0,-1.0,0.0,6.m4v,7.0
2024-02-28 09:39:57.788329,1709109597.7883294,425.78125,-44.43359375,-36.1328125,852.5390625,0.0,1.0,-1.0,0.0,6.m4v,7.0
2024-02-28 09:39:57.792234,1709109597.792234,-280.2734375,-42.96875,-33.69140625,-273.92578125,0.0,1.0,-1.0,0.0,6.m4v,7.0
2024-02-28 09:39:57.796148,1709109597.7961478,-664.0625,-44.921875,-35.15625,-1000.0,0.0,1.0,-1.0,0.0,6.m4v,7.0
2024-02-28 09:39:57.800052,1709109597.8000524,-166.015625,-43.9453125,-36.1328125,-676.26953125,0.0,1.0,-1.0,0.0,6.m4v,7.0
2024-02-28 09:39:57.803957,1709109597.803957,460.9375,-37.59765625,-41.9921875,499.51171875,0.0,1.0,-1.0,0.0,6.m4v,7.0
2024-02-28 09:39:57.807862,1709109597.8078616,644.04296875,-39.0625,-37.59765625,999.51171875,0.0,1.0,-1.0,0.0,6.m4v,7.0
2024-02-28 09:39:57.811766,1709109597.8117664,-94.7265625,-44.43359375,-34.1796875,107.421875,0.0,1.0,-1.0,0.0,6.m4v,7.0
2024-02-28 09:39:57.815671,1709109597.815671,-716.30859375,-46.38671875,-34.66796875,-1000.0,0.0,1.0,-1.0,0.0,6.m4v,7.0
2024-02-28 09:39:57.819576,1709109597.8195755,-386.71875,-44.921875,-37.59765625,-969.7265625,0.0,1.0,-1.0,0.0,6.m4v,7.0
2024-02-28 09:39:57.823480,1709109597.82348,13.18359375,-39.0625,-33.203125,-420.8984375,0.0,1.0,-1.0,0.0,6.m4v,7.0
2024-02-28 09:39:57.827385,1709109597.8273847,455.56640625,-38.57421875,-29.78515625,581.0546875,0.0,1.0,-1.0,0.0,6.m4v,7.0
2024-02-28 09:39:57.831289,1709109597.8312893,521.484375,-41.015625,-34.1796875,999.51171875,0.0,1.0,-1.0,0.0,6.m4v,7.0
2024-02-28 09:39:57.835194,1709109597.835194,212.890625,-37.59765625,-33.203125,849.12109375,0.0,1.0,-1.0,0.0,6.m4v,7.0
2024-02-28 09:39:57.839099,1709109597.8390987,135.7421875,-34.66796875,-33.69140625,999.51171875,0.0,1.0,-1.0,0.0,6.m4v,7.0
2024-02-28 09:39:57.843022,1709109597.8430216,-28.80859375,-38.57421875,-34.1796875,548.33984375,0.0,1.0,-1.0,0.0,6.m4v,7.0
2024-02-28 09:39:57.846926,1709109597.8469262,-524.4140625,-34.66796875,-34.1796875,-805.6640625,0.0,1.0,-1.0,0.0,6.m4v,7.0
2024-02-28 09:39:57.850831,1709109597.8508308,-565.91796875,-33.69140625,-33.203125,-989.74609375,0.0,1.0,-1.0,0.0,6.m4v,7.0
2024-02-28 09:39:57.854735,1709109597.8547354,-455.56640625,-41.015625,-34.1796875,-1000.0,0.0,1.0,-1.0,0.0,6.m4v,7.0
2024-02-28 09:39:57.858640,1709109597.8586402,-172.8515625,-41.015625,-39.55078125,-533.69140625,0.0,1.0,-1.0,0.0,6.m4v,7.0
2024-02-28 09:39:57.862545,1709109597.8625448,504.39453125,-41.015625,-37.109375,764.6484375,0.0,1.0,-1.0,0.0,6.m4v,7.0
2024-02-28 09:39:57.866449,1709109597.8664494,556.640625,-42.48046875,-34.66796875,999.51171875,0.0,1.0,-1.0,0.0,6.m4v,7.0
2024-02-28 09:39:57.870354,1709109597.870354,57.6171875,-42.96875,-38.57421875,284.66796875,0.0,1.0,-1.0,0.0,6.m4v,7.0
2024-02-28 09:39:57.874259,1709109597.8742585,-590.8203125,-42.48046875,-35.64453125,-898.92578125,0.0,1.0,-1.0,0.0,6.m4v,7.0
2024-02-28 09:39:57.878163,1709109597.878163,-638.18359375,-45.41015625,-36.1328125,-1000.0,0.0,1.0,-1.0,0.0,6.m4v,7.0
2024-02-28 09:39:57.882068,1709109597.882068,-4.39453125,-40.52734375,-34.66796875,-332.03125,0.0,1.0,-1.0,0.0,6.m4v,7.0
2024-02-28 09:39:57.885972,1709109597.8859725,579.58984375,-30.2734375,-28.80859375,829.58984375,0.0,1.0,-1.0,0.0,6.m4v,7.0
2024-02-28 09:39:57.889894,1709109597.8898938,451.171875,-30.2734375,-29.78515625,999.51171875,0.0,1.0,-1.0,0.0,6.m4v,7.0
2024-02-28 09:39:57.893799,1709109597.8937986,82.03125,-34.66796875,-33.203125,817.87109375,0.0,1.0,-1.0,0.0,6.m4v,7.0
2024-02-28 09:39:57.897703,1709109597.8977032,-85.44921875,-38.0859375,-31.73828125,491.2109375,0.0,1.0,-1.0,0.0,6.m4v,7.0
2024-02-28 09:39:57.901608,1709109597.9016078,-376.953125,-39.55078125,-32.71484375,-299.31640625,0.0,1.0,-1.0,0.0,6.m4v,7.0
2024-02-28 09:39:57.905512,1709109597.9055123,-576.171875,-36.1328125,-32.2265625,-992.67578125,0.0,1.0,-1.0,0.0,6.m4v,7.0
2024-02-28 09:39:57.909417,1709109597.909417,-288.0859375,-30.2734375,-32.2265625,-949.21875,0.0,1.0,-1.0,0.0,6.m4v,7.0
2024-02-28 09:39:57.913322,1709109597.9133215,-226.07421875,-29.78515625,-39.0625,-1000.0,0.0,1.0,-1.0,0.0,6.m4v,7.0
2024-02-28 09:39:57.917226,1709109597.9172263,48.33984375,-26.85546875,-35.64453125,-140.13671875,0.0,1.0,-1.0,0.0,6.m4v,7.0
2024-02-28 09:39:57.921131,1709109597.921131,506.34765625,-32.71484375,-27.83203125,980.46875,0.0,1.0,-1.0,0.0,6.m4v,7.0
2024-02-28 09:39:57.925035,1709109597.9250357,398.92578125,-39.0625,-34.66796875,999.51171875,0.0,1.0,-1.0,0.0,6.m4v,7.0
2024-02-28 09:39:57.928940,1709109597.92894,119.140625,-36.62109375,-39.0625,608.3984375,0.0,1.0,-1.0,0.0,6.m4v,7.0
2024-02-28 09:39:57.932845,1709109597.9328446,-482.421875,-39.55078125,-41.50390625,-610.3515625,0.0,1.0,-1.0,0.0,6.m4v,7.0
2024-02-28 09:39:57.936764,1709109597.9367645,-691.40625,-38.57421875,-40.0390625,-1000.0,0.0,1.0,-1.0,0.0,6.m4v,7.0
2024-02-28 09:39:57.940669,1709109597.940669,16.6015625,-35.64453125,-34.66796875,-125.48828125,0.0,1.0,-1.0,0.0,6.m4v,7.0
2024-02-28 09:39:57.944574,1709109597.9445736,563.4765625,-35.15625,-34.1796875,967.7734375,0.0,1.0,-1.0,0.0,6.m4v,7.0
2024-02-28 09:39:57.948478,1709109597.9484782,391.11328125,-35.64453125,-35.64453125,999.51171875,0.0,1.0,-1.0,0.0,6.m4v,7.0
2024-02-28 09:39:57.952383,1709109597.952383,-83.49609375,-32.71484375,-37.109375,298.33984375,0.0,1.0,-1.0,0.0,6.m4v,7.0
2024-02-28 09:39:57.956288,1709109597.9562876,-539.55078125,-36.62109375,-42.96875,-903.80859375,0.0,1.0,-1.0,0.0,6.m4v,7.0
2024-02-28 09:39:57.960192,1709109597.9601922,-417.48046875,-42.48046875,-42.96875,-997.0703125,0.0,1.0,-1.0,0.0,6.m4v,7.0
2024-02-28 09:39:57.964097,1709109597.9640968,-33.69140625,-43.45703125,-44.43359375,-535.64453125,0.0,1.0,-1.0,0.0,6.m4v,7.0
2024-02-28 09:39:57.968001,1709109597.9680014,191.89453125,-40.52734375,-41.015625,-41.9921875,0.0,1.0,-1.0,0.0,6.m4v,7.0
2024-02-28 09:39:57.971906,1709109597.9719062,127.9296875,-40.52734375,-38.0859375,242.1875,0.0,1.0,-1.0,0.0,6.m4v,7.0
2024-02-28 09:39:57.975811,1709109597.9758108,127.44140625,-38.0859375,-36.62109375,703.125,0.0,1.0,-1.0,0.0,6.m4v,7.0
2024-02-28 09:39:57.979715,1709109597.979715,172.36328125,-33.69140625,-36.1328125,973.14453125,0.0,1.0,-1.0,0.0,6.m4v,7.0
2024-02-28 09:39:57.983635,1709109597.9836347,202.1484375,-36.1328125,-43.45703125,988.76953125,0.0,1.0,-1.0,0.0,6.m4v,7.0
2024-02-28 09:39:57.987539,1709109597.9875393,-195.80078125,-38.57421875,-41.50390625,-70.80078125,0.0,1.0,-1.0,0.0,6.m4v,7.0
2024-02-28 09:39:57.991444,1709109597.991444,-780.2734375,-41.50390625,-41.9921875,-1000.0,0.0,1.0,-1.0,0.0,6.m4v,7.0
2024-02-28 09:39:57.995348,1709109597.9953485,-595.703125,-41.9921875,-43.45703125,-1000.0,0.0,1.0,-1.0,0.0,6.m4v,7.0
2024-02-28 09:39:57.999253,1709109597.999253,98.14453125,-36.62109375,-41.015625,-171.875,0.0,1.0,-1.0,0.0,6.m4v,7.0
2024-02-28 09:39:58.003158,1709109598.003158,652.83203125,-31.25,-37.109375,973.6328125,0.0,1.0,-1.0,0.0,6.m4v,7.0
2024-02-28 09:39:58.007062,1709109598.0070624,502.9296875,-31.25,-36.1328125,999.51171875,0.0,1.0,-1.0,0.0,6.m4v,7.0
2024-02-28 09:39:58.010967,1709109598.010967,-73.73046875,-38.0859375,-39.0625,210.9375,0.0,1.0,-1.0,0.0,6.m4v,7.0
2024-02-28 09:39:58.014872,1709109598.0148716,-634.27734375,-41.9921875,-41.015625,-984.86328125,0.0,1.0,-1.0,0.0,6.m4v,7.0
2024-02-28 09:39:58.018776,1709109598.0187762,-501.953125,-33.203125,-39.55078125,-1000.0,0.0,1.0,-1.0,0.0,6.m4v,7.0
2024-02-28 09:39:58.022681,1709109598.0226808,52.734375,-30.76171875,-41.9921875,-68.359375,0.0,1.0,-1.0,0.0,6.m4v,7.0
2024-02-28 09:39:58.026586,1709109598.0265856,415.52734375,-36.1328125,-49.31640625,963.8671875,0.0,1.0,-1.0,0.0,6.m4v,7.0
2024-02-28 09:39:58.030503,1709109598.0305033,255.37109375,-39.0625,-43.9453125,923.33984375,0.0,1.0,-1.0,0.0,6.m4v,7.0
2024-02-28 09:39:58.034408,1709109598.034408,-220.21484375,-40.52734375,-39.0625,-126.46484375,0.0,1.0,-1.0,0.0,6.m4v,7.0
2024-02-28 09:39:58.038312,1709109598.0383124,-576.171875,-44.43359375,-37.59765625,-1000.0,0.0,1.0,-1.0,0.0,6.m4v,7.0
2024-02-28 09:39:58.042217,1709109598.0422173,-348.14453125,-38.0859375,-39.55078125,-964.84375,0.0,1.0,-1.0,0.0,6.m4v,7.0
2024-02-28 09:39:58.046122,1709109598.0461218,-89.35546875,-35.15625,-41.015625,-951.171875,0.0,1.0,-1.0,0.0,6.m4v,7.0
2024-02-28 09:39:58.050026,1709109598.0500264,-74.70703125,-38.57421875,-40.52734375,-1000.0,0.0,1.0,-1.0,0.0,6.m4v,7.0
2024-02-28 09:39:58.053931,1709109598.053931,209.47265625,-34.1796875,-41.50390625,-13.18359375,0.0,1.0,-1.0,0.0,6.m4v,7.0
2024-02-28 09:39:58.057836,1709109598.0578356,513.18359375,-31.73828125,-38.0859375,999.51171875,0.0,1.0,-1.0,0.0,6.m4v,7.0
2024-02-28 09:39:58.061740,1709109598.0617404,370.60546875,-35.64453125,-39.55078125,914.0625,0.0,1.0,-1.0,0.0,6.m4v,7.0
2024-02-28 09:39:58.065645,1709109598.065645,325.1953125,-38.0859375,-37.59765625,993.1640625,0.0,1.0,-1.0,0.0,6.m4v,7.0
2024-02-28 09:39:58.069550,1709109598.0695496,-225.09765625,-40.0390625,-38.57421875,-40.0390625,0.0,1.0,-1.0,0.0,6.m4v,7.0
2024-02-28 09:39:58.073454,1709109598.073454,-709.9609375,-39.55078125,-43.9453125,-1000.0,0.0,1.0,-1.0,0.0,6.m4v,7.0
2024-02-28 09:39:58.077371,1709109598.0773706,-475.09765625,-32.2265625,-39.0625,-1000.0,0.0,1.0,-1.0,0.0,6.m4v,7.0
2024-02-28 09:39:58.081275,1709109598.0812752,27.34375,-28.3203125,-31.73828125,-132.8125,0.0,1.0,-1.0,0.0,6.m4v,7.0
2024-02-28 09:39:58.085180,1709109598.0851798,461.42578125,-32.71484375,-36.1328125,984.375,0.0,1.0,-1.0,0.0,6.m4v,7.0
2024-02-28 09:39:58.089085,1709109598.0890846,479.00390625,-33.203125,-37.59765625,995.60546875,0.0,1.0,-1.0,0.0,6.m4v,7.0
2024-02-28 09:39:58.092989,1709109598.0929892,-75.68359375,-33.69140625,-34.66796875,38.57421875,0.0,1.0,-1.0,0.0,6.m4v,7.0
2024-02-28 09:39:58.096894,1709109598.0968938,-621.09375,-41.015625,-35.64453125,-1000.0,0.0,1.0,-1.0,0.0,6.m4v,7.0
2024-02-28 09:39:58.100798,1709109598.1007984,-378.41796875,-44.921875,-37.109375,-995.60546875,0.0,1.0,-1.0,0.0,6.m4v,7.0
2024-02-28 09:39:58.104703,1709109598.104703,-210.9375,-44.921875,-39.55078125,-933.59375,0.0,1.0,-1.0,0.0,6.m4v,7.0
2024-02-28 09:39:58.108608,1709109598.1086078,-198.73046875,-38.0859375,-36.1328125,-1000.0,0.0,1.0,-1.0,0.0,6.m4v,7.0
2024-02-28 09:39:58.112512,1709109598.1125124,-116.2109375,-32.2265625,-31.25,-806.15234375,0.0,1.0,-1.0,0.0,6.m4v,7.0
2024-02-28 09:39:58.116417,1709109598.116417,294.43359375,-29.78515625,-29.78515625,472.16796875,0.0,1.0,-1.0,0.0,6.m4v,7.0
2024-02-28 09:39:58.120322,1709109598.1203215,580.078125,-36.1328125,-32.71484375,999.51171875,0.0,1.0,-1.0,0.0,6.m4v,7.0
2024-02-28 09:39:58.124238,1709109598.124238,366.2109375,-37.59765625,-33.69140625,963.8671875,0.0,1.0,-1.0,0.0,6.m4v,7.0
2024-02-28 09:39:58.128143,1709109598.1281426,113.76953125,-30.2734375,-35.64453125,755.37109375,0.0,1.0,-1.0,0.0,6.m4v,7.0
2024-02-28 09:39:58.132047,1709109598.1320472,-427.24609375,-34.66796875,-36.1328125,-460.44921875,0.0,1.0,-1.0,0.0,6.m4v,7.0
2024-02-28 09:39:58.135952,1709109598.1359518,-645.99609375,-40.52734375,-34.66796875,-1000.0,0.0,1.0,-1.0,0.0,6.m4v,7.0
2024-02-28 09:39:58.139857,1709109598.1398566,-217.28515625,-34.1796875,-35.15625,-611.328125,0.0,1.0,-1.0,0.0,6.m4v,7.0
2024-02-28 09:39:58.143761,1709109598.1437612,263.671875,-29.78515625,-35.15625,565.91796875,0.0,1.0,-1.0,0.0,6.m4v,7.0
2024-02-28 09:39:58.147666,1709109598.1476655,500.0,-31.25,-32.71484375,999.51171875,0.0,1.0,-1.0,0.0,6.m4v,7.0
2024-02-28 09:39:58.151570,1709109598.1515703,102.5390625,-36.1328125,-34.66796875,312.98828125,0.0,1.0,-1.0,0.0,6.m4v,7.0
2024-02-28 09:39:58.155475,1709109598.155475,-571.77734375,-40.0390625,-36.62109375,-907.71484375,0.0,1.0,-1.0,0.0,6.m4v,7.0
2024-02-28 09:39:58.159380,1709109598.1593795,-541.015625,-38.57421875,-33.69140625,-1000.0,0.0,1.0,-1.0,0.0,6.m4v,7.0
2024-02-28 09:39:58.163284,1709109598.1632843,-196.2890625,-35.64453125,-30.2734375,-879.39453125,0.0,1.0,-1.0,0.0,6.m4v,7.0
2024-02-28 09:39:58.167189,1709109598.167189,-20.01953125,-35.15625,-34.66796875,-732.91015625,0.0,1.0,-1.0,0.0,6.m4v,7.0
2024-02-28 09:39:58.171103,1709109598.1711028,-42.96875,-31.73828125,-42.48046875,-650.87890625,0.0,1.0,-1.0,0.0,6.m4v,7.0
2024-02-28 09:39:58.175007,1709109598.175007,201.171875,-33.203125,-39.55078125,266.11328125,0.0,1.0,-1.0,0.0,6.m4v,7.0
2024-02-28 09:39:58.178912,1709109598.178912,428.22265625,-39.0625,-34.66796875,996.58203125,0.0,1.0,-1.0,0.0,6.m4v,7.0
2024-02-28 09:39:58.182817,1709109598.1828165,236.81640625,-37.59765625,-34.66796875,980.95703125,0.0,1.0,-1.0,0.0,6.m4v,7.0
2024-02-28 09:39:58.186721,1709109598.186721,166.50390625,-33.69140625,-36.1328125,732.421875,0.0,1.0,-1.0,0.0,6.m4v,7.0
2024-02-28 09:39:58.190626,1709109598.1906257,-307.12890625,-36.62109375,-40.0390625,-448.73046875,0.0,1.0,-1.0,0.0,6.m4v,7.0
2024-02-28 09:39:58.194530,1709109598.1945305,-620.1171875,-40.52734375,-38.0859375,-1000.0,0.0,1.0,-1.0,0.0,6.m4v,7.0
2024-02-28 09:39:58.198435,1709109598.198435,-301.26953125,-37.59765625,-29.78515625,-785.64453125,0.0,1.0,-1.0,0.0,6.m4v,7.0
2024-02-28 09:39:58.202340,1709109598.2023396,261.71875,-33.203125,-25.390625,333.984375,0.0,1.0,-1.0,0.0,6.m4v,7.0
2024-02-28 09:39:58.206244,1709109598.2062442,555.6640625,-36.1328125,-27.83203125,999.51171875,0.0,1.0,-1.0,0.0,6.m4v,7.0
2024-02-28 09:39:58.210149,1709109598.2101488,203.61328125,-41.9921875,-33.203125,653.80859375,0.0,1.0,-1.0,0.0,6.m4v,7.0
2024-02-28 09:39:58.214054,1709109598.2140536,-488.28125,-40.0390625,-30.2734375,-538.0859375,0.0,1.0,-1.0,0.0,6.m4v,7.0
2024-02-28 09:39:58.217976,1709109598.2179763,-785.64453125,-36.1328125,-32.71484375,-1000.0,0.0,1.0,-1.0,0.0,6.m4v,7.0
2024-02-28 09:39:58.221881,1709109598.221881,-307.6171875,-41.50390625,-32.71484375,-819.3359375,0.0,1.0,-1.0,0.0,6.m4v,7.0
2024-02-28 09:39:58.225785,1709109598.2257855,239.74609375,-35.64453125,-28.3203125,-134.27734375,0.0,1.0,-1.0,0.0,6.m4v,7.0
2024-02-28 09:39:58.229690,1709109598.22969,494.62890625,-30.2734375,-34.1796875,736.328125,0.0,1.0,-1.0,0.0,6.m4v,7.0
2024-02-28 09:39:58.233595,1709109598.233595,392.578125,-35.64453125,-33.203125,975.5859375,0.0,1.0,-1.0,0.0,6.m4v,7.0
2024-02-28 09:39:58.237499,1709109598.2374997,175.78125,-30.76171875,-26.3671875,905.76171875,0.0,1.0,-1.0,0.0,6.m4v,7.0
2024-02-28 09:39:58.241404,1709109598.241404,158.203125,-30.76171875,-30.76171875,999.51171875,0.0,1.0,-1.0,0.0,6.m4v,7.0
2024-02-28 09:39:58.245309,1709109598.2453086,-251.46484375,-33.69140625,-36.1328125,29.296875,0.0,1.0,-1.0,0.0,6.m4v,7.0
2024-02-28 09:39:58.249213,1709109598.2492132,-672.8515625,-35.15625,-38.57421875,-1000.0,0.0,1.0,-1.0,0.0,6.m4v,7.0
2024-02-28 09:39:58.253118,1709109598.253118,-514.16015625,-39.0625,-42.48046875,-983.3984375,0.0,1.0,-1.0,0.0,6.m4v,7.0
2024-02-28 09:39:58.257023,1709109598.2570226,-310.05859375,-41.50390625,-45.8984375,-892.578125,0.0,1.0,-1.0,0.0,6.m4v,7.0
2024-02-28 09:39:58.260927,1709109598.2609272,268.5546875,-36.1328125,-41.015625,222.16796875,0.0,1.0,-1.0,0.0,6.m4v,7.0
2024-02-28 09:39:58.264849,1709109598.264849,493.1640625,-27.34375,-33.69140625,999.51171875,0.0,1.0,-1.0,0.0,6.m4v,7.0
2024-02-28 09:39:58.268754,1709109598.2687535,123.046875,-28.80859375,-35.64453125,542.48046875,0.0,1.0,-1.0,0.0,6.m4v,7.0
2024-02-28 09:39:58.272658,1709109598.272658,-324.70703125,-35.15625,-33.69140625,-677.734375,0.0,1.0,-1.0,0.0,6.m4v,7.0
2024-02-28 09:39:58.276563,1709109598.276563,-508.30078125,-36.62109375,-26.3671875,-1000.0,0.0,1.0,-1.0,0.0,6.m4v,7.0
2024-02-28 09:39:58.280468,1709109598.2804675,-30.76171875,-36.62109375,-31.73828125,-256.34765625,0.0,1.0,-1.0,0.0,6.m4v,7.0
2024-02-28 09:39:58.284372,1709109598.284372,499.0234375,-40.0390625,-37.109375,921.38671875,0.0,1.0,-1.0,0.0,6.m4v,7.0
2024-02-28 09:39:58.288277,1709109598.288277,455.56640625,-42.48046875,-35.15625,998.53515625,0.0,1.0,-1.0,0.0,6.m4v,7.0
2024-02-28 09:39:58.292181,1709109598.2921813,-190.91796875,-38.0859375,-37.59765625,-76.171875,0.0,1.0,-1.0,0.0,6.m4v,7.0
2024-02-28 09:39:58.296086,1709109598.296086,-647.4609375,-38.0859375,-40.0390625,-1000.0,0.0,1.0,-1.0,0.0,6.m4v,7.0
2024-02-28 09:39:58.299991,1709109598.299991,-436.03515625,-44.921875,-39.55078125,-977.5390625,0.0,1.0,-1.0,0.0,6.m4v,7.0
2024-02-28 09:39:58.303895,1709109598.3038952,-69.82421875,-39.0625,-39.55078125,-566.89453125,0.0,1.0,-1.0,0.0,6.m4v,7.0
2024-02-28 09:39:58.307800,1709109598.3077998,385.25390625,-31.73828125,-36.62109375,505.859375,0.0,1.0,-1.0,0.0,6.m4v,7.0
2024-02-28 09:39:58.311720,1709109598.31172,471.6796875,-37.59765625,-30.76171875,999.51171875,0.0,1.0,-1.0,0.0,6.m4v,7.0
2024-02-28 09:39:58.315624,1709109598.3156245,206.54296875,-41.9921875,-26.85546875,879.39453125,0.0,1.0,-1.0,0.0,6.m4v,7.0
2024-02-28 09:39:58.319529,1709109598.3195293,72.265625,-37.109375,-30.2734375,999.51171875,0.0,1.0,-1.0,0.0,6.m4v,7.0
2024-02-28 09:39:58.323434,1709109598.323434,-8.30078125,-28.3203125,-33.203125,519.04296875,0.0,1.0,-1.0,0.0,6.m4v,7.0
2024-02-28 09:39:58.327338,1709109598.3273385,-450.1953125,-25.87890625,-31.73828125,-823.73046875,0.0,1.0,-1.0,0.0,6.m4v,7.0
2024-02-28 09:39:58.331243,1709109598.331243,-505.859375,-25.87890625,-33.203125,-986.328125,0.0,1.0,-1.0,0.0,6.m4v,7.0
2024-02-28 09:39:58.335148,1709109598.3351476,-354.4921875,-32.2265625,-37.109375,-1000.0,0.0,1.0,-1.0,0.0,6.m4v,7.0
2024-02-28 09:39:58.339052,1709109598.3390522,-99.12109375,-42.48046875,-39.55078125,-483.3984375,0.0,1.0,-1.0,0.0,6.m4v,7.0
2024-02-28 09:39:58.342957,1709109598.342957,417.48046875,-39.0625,-35.15625,810.05859375,0.0,1.0,-1.0,0.0,6.m4v,7.0
2024-02-28 09:39:58.346862,1709109598.3468616,404.296875,-36.1328125,-33.203125,999.51171875,0.0,1.0,-1.0,0.0,6.m4v,7.0
2024-02-28 09:39:58.350766,1709109598.3507662,-90.33203125,-40.52734375,-34.66796875,81.54296875,0.0,1.0,-1.0,0.0,6.m4v,7.0
2024-02-28 09:39:58.354671,1709109598.3546708,-567.87109375,-33.69140625,-32.2265625,-1000.0,0.0,1.0,-1.0,0.0,6.m4v,7.0
2024-02-28 09:39:58.358590,1709109598.35859,-460.9375,-32.2265625,-31.25,-1000.0,0.0,1.0,-1.0,0.0,6.m4v,7.0
2024-02-28 09:39:58.362494,1709109598.3624945,181.640625,-37.59765625,-32.2265625,-16.11328125,0.0,1.0,-1.0,0.0,6.m4v,7.0
2024-02-28 09:39:58.366399,1709109598.366399,625.0,-33.203125,-34.66796875,986.328125,0.0,1.0,-1.0,0.0,6.m4v,7.0
2024-02-28 09:39:58.370304,1709109598.370304,417.48046875,-33.203125,-35.15625,980.46875,0.0,1.0,-1.0,0.0,6.m4v,7.0
2024-02-28 09:39:58.374208,1709109598.3742085,-112.3046875,-38.57421875,-34.1796875,289.0625,0.0,1.0,-1.0,0.0,6.m4v,7.0
2024-02-28 09:39:58.378113,1709109598.378113,-567.3828125,-39.55078125,-35.15625,-838.8671875,0.0,1.0,-1.0,0.0,6.m4v,7.0
2024-02-28 09:39:58.382018,1709109598.3820176,-446.77734375,-34.66796875,-34.66796875,-1000.0,0.0,1.0,-1.0,0.0,6.m4v,7.0
2024-02-28 09:39:58.385922,1709109598.3859222,-201.171875,-35.15625,-40.52734375,-928.7109375,0.0,1.0,-1.0,0.0,6.m4v,7.0
2024-02-28 09:39:58.389827,1709109598.389827,-145.5078125,-41.9921875,-38.0859375,-1000.0,0.0,1.0,-1.0,0.0,6.m4v,7.0
2024-02-28 09:39:58.393732,1709109598.3937316,-188.96484375,-43.9453125,-36.1328125,-865.72265625,0.0,1.0,-1.0,0.0,6.m4v,7.0
2024-02-28 09:39:58.397636,1709109598.3976362,233.88671875,-37.109375,-41.50390625,355.46875,0.0,1.0,-1.0,0.0,6.m4v,7.0
2024-02-28 09:39:58.401541,1709109598.4015408,552.24609375,-36.1328125,-39.0625,999.51171875,0.0,1.0,-1.0,0.0,6.m4v,7.0
2024-02-28 09:39:58.405458,1709109598.4054585,456.54296875,-39.55078125,-36.1328125,989.2578125,0.0,1.0,-1.0,0.0,6.m4v,7.0
2024-02-28 09:39:58.409363,1709109598.4093633,-54.19921875,-45.41015625,-36.62109375,34.1796875,0.0,1.0,-1.0,0.0,6.m4v,7.0
2024-02-28 09:39:58.413268,1709109598.413268,-693.359375,-44.43359375,-36.62109375,-1000.0,0.0,1.0,-1.0,0.0,6.m4v,7.0
2024-02-28 09:39:58.417172,1709109598.4171724,-551.26953125,-45.41015625,-36.62109375,-975.5859375,0.0,1.0,-1.0,0.0,6.m4v,7.0
2024-02-28 09:39:58.421077,1709109598.421077,260.7421875,-41.50390625,-39.55078125,114.2578125,0.0,1.0,-1.0,0.0,6.m4v,7.0
2024-02-28 09:39:58.424982,1709109598.4249816,638.671875,-31.25,-37.109375,999.51171875,0.0,1.0,-1.0,0.0,6.m4v,7.0
2024-02-28 09:39:58.428886,1709109598.4288864,319.82421875,-27.83203125,-38.0859375,966.30859375,0.0,1.0,-1.0,0.0,6.m4v,7.0
2024-02-28 09:39:58.432791,1709109598.432791,-185.05859375,-37.109375,-45.41015625,-29.78515625,0.0,1.0,-1.0,0.0,6.m4v,7.0
2024-02-28 09:39:58.436696,1709109598.4366956,-601.07421875,-47.8515625,-47.8515625,-1000.0,0.0,1.0,-1.0,0.0,6.m4v,7.0
2024-02-28 09:39:58.440600,1709109598.4406002,-348.14453125,-39.55078125,-39.55078125,-970.703125,0.0,1.0,-1.0,0.0,6.m4v,7.0
2024-02-28 09:39:58.444505,1709109598.4445047,-93.75,-34.1796875,-34.66796875,-937.5,0.0,1.0,-1.0,0.0,6.m4v,7.0
2024-02-28 09:39:58.448410,1709109598.4484096,-166.9921875,-38.0859375,-41.50390625,-993.65234375,0.0,1.0,-1.0,0.0,6.m4v,7.0
2024-02-28 09:39:58.452326,1709109598.452326,-279.296875,-38.0859375,-44.921875,-996.09375,0.0,1.0,-1.0,0.0,6.m4v,7.0
2024-02-28 09:39:58.456231,1709109598.4562306,217.7734375,-32.2265625,-37.109375,134.765625,0.0,1.0,-1.0,0.0,6.m4v,7.0
2024-02-28 09:39:58.460135,1709109598.4601357,629.39453125,-28.80859375,-38.0859375,995.1171875,0.0,1.0,-1.0,0.0,6.m4v,7.0
2024-02-28 09:39:58.464040,1709109598.46404,421.38671875,-28.3203125,-41.015625,999.51171875,0.0,1.0,-1.0,0.0,6.m4v,7.0
2024-02-28 09:39:58.467945,1709109598.4679446,61.5234375,-31.25,-37.59765625,447.265625,0.0,1.0,-1.0,0.0,6.m4v,7.0
2024-02-28 09:39:58.471849,1709109598.4718492,-459.47265625,-35.15625,-39.55078125,-812.5,0.0,1.0,-1.0,0.0,6.m4v,7.0
2024-02-28 09:39:58.475754,1709109598.4757538,-519.53125,-37.109375,-40.0390625,-1000.0,0.0,1.0,-1.0,0.0,6.m4v,7.0
2024-02-28 09:39:58.479659,1709109598.4796586,28.3203125,-39.55078125,-41.015625,-224.12109375,0.0,1.0,-1.0,0.0,6.m4v,7.0
2024-02-28 09:39:58.483563,1709109598.4835632,570.80078125,-35.64453125,-36.62109375,931.640625,0.0,1.0,-1.0,0.0,6.m4v,7.0
2024-02-28 09:39:58.487468,1709109598.4874678,493.65234375,-29.296875,-33.203125,999.51171875,0.0,1.0,-1.0,0.0,6.m4v,7.0
2024-02-28 09:39:58.491372,1709109598.4913723,-185.05859375,-36.62109375,-39.0625,59.08203125,0.0,1.0,-1.0,0.0,6.m4v,7.0
2024-02-28 09:39:58.495277,1709109598.495277,-755.37109375,-42.48046875,-38.57421875,-1000.0,0.0,1.0,-1.0,0.0,6.m4v,7.0
2024-02-28 09:39:58.499192,1709109598.4991922,-646.97265625,-34.66796875,-37.109375,-992.67578125,0.0,1.0,-1.0,0.0,6.m4v,7.0
2024-02-28 09:39:58.503097,1709109598.5030968,-146.484375,-35.64453125,-34.1796875,-471.19140625,0.0,1.0,-1.0,0.0,6.m4v,7.0
2024-02-28 09:39:58.507001,1709109598.5070014,592.28515625,-37.59765625,-30.2734375,620.60546875,0.0,1.0,-1.0,0.0,6.m4v,7.0
2024-02-28 09:39:58.510906,1709109598.510906,586.42578125,-38.0859375,-34.1796875,999.51171875,0.0,1.0,-1.0,0.0,6.m4v,7.0
2024-02-28 09:39:58.514811,1709109598.5148106,152.34375,-41.50390625,-36.1328125,872.0703125,0.0,1.0,-1.0,0.0,6.m4v,7.0
2024-02-28 09:39:58.518715,1709109598.5187154,105.46875,-39.55078125,-36.62109375,999.51171875,0.0,1.0,-1.0,0.0,6.m4v,7.0
2024-02-28 09:39:58.522620,1709109598.52262,50.78125,-43.45703125,-36.62109375,693.84765625,0.0,1.0,-1.0,0.0,6.m4v,7.0
2024-02-28 09:39:58.526525,1709109598.5265243,-487.79296875,-46.875,-38.0859375,-647.94921875,0.0,1.0,-1.0,0.0,6.m4v,7.0
2024-02-28 09:39:58.530429,1709109598.5304291,-644.53125,-39.0625,-38.0859375,-1000.0,0.0,1.0,-1.0,0.0,6.m4v,7.0
2024-02-28 09:39:58.534334,1709109598.5343337,-478.02734375,-38.0859375,-35.15625,-1000.0,0.0,1.0,-1.0,0.0,6.m4v,7.0
2024-02-28 09:39:58.538239,1709109598.5382383,-142.578125,-39.55078125,-35.15625,-388.671875,0.0,1.0,-1.0,0.0,6.m4v,7.0
2024-02-28 09:39:58.542143,1709109598.542143,443.359375,-35.15625,-35.15625,890.625,0.0,1.0,-1.0,0.0,6.m4v,7.0
2024-02-28 09:39:58.546058,1709109598.5460584,515.13671875,-35.64453125,-37.109375,999.51171875,0.0,1.0,-1.0,0.0,6.m4v,7.0
2024-02-28 09:39:58.549963,1709109598.549963,218.26171875,-39.0625,-39.55078125,540.0390625,0.0,1.0,-1.0,0.0,6.m4v,7.0
2024-02-28 09:39:58.553868,1709109598.5538678,-481.4453125,-41.015625,-41.015625,-687.5,0.0,1.0,-1.0,0.0,6.m4v,7.0
2024-02-28 09:39:58.557772,1709109598.5577724,-637.20703125,-48.33984375,-45.8984375,-1000.0,0.0,1.0,-1.0,0.0,6.m4v,7.0
2024-02-28 09:39:58.561677,1709109598.561677,-205.56640625,-50.78125,-43.45703125,-884.27734375,0.0,1.0,-1.0,0.0,6.m4v,7.0
2024-02-28 09:39:58.565582,1709109598.5655816,303.7109375,-37.59765625,-39.55078125,75.68359375,0.0,1.0,-1.0,0.0,6.m4v,7.0
2024-02-28 09:39:58.569486,1709109598.569486,563.4765625,-36.62109375,-42.48046875,999.51171875,0.0,1.0,-1.0,0.0,6.m4v,7.0
2024-02-28 09:39:58.573391,1709109598.573391,221.19140625,-36.62109375,-39.55078125,939.453125,0.0,1.0,-1.0,0.0,6.m4v,7.0
2024-02-28 09:39:58.577296,1709109598.5772955,-57.12890625,-33.69140625,-30.2734375,915.0390625,0.0,1.0,-1.0,0.0,6.m4v,7.0
2024-02-28 09:39:58.581200,1709109598.5812,156.73828125,-36.62109375,-31.25,999.51171875,0.0,1.0,-1.0,0.0,6.m4v,7.0
2024-02-28 09:39:58.585105,1709109598.5851047,-141.6015625,-31.25,-36.1328125,-7.8125,0.0,1.0,-1.0,0.0,6.m4v,7.0
2024-02-28 09:39:58.589009,1709109598.5890093,-709.47265625,-31.25,-37.109375,-1000.0,0.0,1.0,-1.0,0.0,6.m4v,7.0
2024-02-28 09:39:58.592932,1709109598.5929322,-484.86328125,-32.71484375,-41.015625,-1000.0,0.0,1.0,-1.0,0.0,6.m4v,7.0
2024-02-28 09:39:58.596837,1709109598.5968368,-252.9296875,-34.1796875,-45.8984375,-813.96484375,0.0,1.0,-1.0,0.0,6.m4v,7.0
2024-02-28 09:39:58.600741,1709109598.6007414,286.1328125,-34.66796875,-43.45703125,368.1640625,0.0,1.0,-1.0,0.0,6.m4v,7.0
2024-02-28 09:39:58.604646,1709109598.6046462,595.21484375,-30.76171875,-31.73828125,999.51171875,0.0,1.0,-1.0,0.0,6.m4v,7.0
2024-02-28 09:39:58.608551,1709109598.6085508,208.0078125,-26.85546875,-26.3671875,725.5859375,0.0,1.0,-1.0,0.0,6.m4v,7.0
2024-02-28 09:39:58.612455,1709109598.6124554,-443.359375,-31.73828125,-28.80859375,-467.28515625,0.0,1.0,-1.0,0.0,6.m4v,7.0
2024-02-28 09:39:58.616360,1709109598.61636,-671.875,-39.55078125,-34.1796875,-1000.0,0.0,1.0,-1.0,0.0,6.m4v,7.0
2024-02-28 09:39:58.620265,1709109598.6202643,-244.62890625,-41.015625,-41.015625,-930.17578125,0.0,1.0,-1.0,0.0,6.m4v,7.0
2024-02-28 09:39:58.624169,1709109598.624169,66.89453125,-40.52734375,-38.0859375,-603.515625,0.0,1.0,-1.0,0.0,6.m4v,7.0
2024-02-28 09:39:58.628074,1709109598.628074,-38.0859375,-43.45703125,-39.0625,-618.1640625,0.0,1.0,-1.0,0.0,6.m4v,7.0
2024-02-28 09:39:58.631979,1709109598.6319785,-273.92578125,-38.57421875,-39.0625,-1000.0,0.0,1.0,-1.0,0.0,6.m4v,7.0
2024-02-28 09:39:58.635883,1709109598.635883,89.35546875,-34.66796875,-32.2265625,-244.140625,0.0,1.0,-1.0,0.0,6.m4v,7.0
2024-02-28 09:39:58.639805,1709109598.6398048,626.953125,-36.1328125,-30.2734375,954.58984375,0.0,1.0,-1.0,0.0,6.m4v,7.0
2024-02-28 09:39:58.643709,1709109598.6437094,556.15234375,-33.69140625,-29.296875,999.51171875,0.0,1.0,-1.0,0.0,6.m4v,7.0
2024-02-28 09:39:58.647614,1709109598.647614,-18.5546875,-28.80859375,-28.80859375,177.734375,0.0,1.0,-1.0,0.0,6.m4v,7.0
2024-02-28 09:39:58.651519,1709109598.6515186,-584.9609375,-33.203125,-30.2734375,-973.14453125,0.0,1.0,-1.0,0.0,6.m4v,7.0
2024-02-28 09:39:58.655423,1709109598.6554232,-527.83203125,-37.109375,-35.15625,-1000.0,0.0,1.0,-1.0,0.0,6.m4v,7.0
2024-02-28 09:39:58.659328,1709109598.6593275,-95.703125,-30.76171875,-34.66796875,-417.96875,0.0,1.0,-1.0,0.0,6.m4v,7.0
2024-02-28 09:39:58.663233,1709109598.6632326,592.28515625,-28.3203125,-31.73828125,886.23046875,0.0,1.0,-1.0,0.0,6.m4v,7.0
2024-02-28 09:39:58.667137,1709109598.6671371,558.10546875,-33.69140625,-31.73828125,949.21875,0.0,1.0,-1.0,0.0,6.m4v,7.0
2024-02-28 09:39:58.671042,1709109598.6710415,-269.53125,-36.1328125,-34.66796875,-275.87890625,0.0,1.0,-1.0,0.0,6.m4v,7.0
2024-02-28 09:39:58.674946,1709109598.6749463,-586.9140625,-36.1328125,-36.1328125,-1000.0,0.0,1.0,-1.0,0.0,6.m4v,7.0
2024-02-28 09:39:58.678851,1709109598.678851,-325.1953125,-32.71484375,-34.66796875,-975.09765625,0.0,1.0,-1.0,0.0,6.m4v,7.0
2024-02-28 09:39:58.682756,1709109598.6827557,-22.4609375,-29.78515625,-35.64453125,-680.6640625,0.0,1.0,-1.0,0.0,6.m4v,7.0
2024-02-28 09:39:58.686676,1709109598.686676,271.97265625,-28.3203125,-36.1328125,-117.67578125,0.0,1.0,-1.0,0.0,6.m4v,7.0
2024-02-28 09:39:58.690581,1709109598.6905806,104.4921875,-31.73828125,-33.69140625,-363.76953125,0.0,1.0,-1.0,0.0,6.m4v,7.0
2024-02-28 09:39:58.694485,1709109598.6944852,-289.0625,-32.71484375,-36.62109375,-1000.0,0.0,1.0,-1.0,0.0,6.m4v,7.0
2024-02-28 09:39:58.698390,1709109598.6983898,-6.34765625,-30.76171875,-36.62109375,-293.9453125,0.0,1.0,-1.0,0.0,6.m4v,7.0
2024-02-28 09:39:58.702294,1709109598.7022943,645.99609375,-31.25,-36.1328125,967.28515625,0.0,1.0,-1.0,0.0,6.m4v,7.0
2024-02-28 09:39:58.706199,1709109598.7061992,609.375,-28.80859375,-37.109375,999.51171875,0.0,1.0,-1.0,0.0,6.m4v,7.0
2024-02-28 09:39:58.710104,1709109598.7101038,-53.7109375,-33.203125,-33.203125,61.5234375,0.0,1.0,-1.0,0.0,6.m4v,7.0
2024-02-28 09:39:58.714008,1709109598.7140083,-701.66015625,-41.50390625,-28.80859375,-1000.0,0.0,1.0,-1.0,0.0,6.m4v,7.0
2024-02-28 09:39:58.717913,1709109598.717913,-562.98828125,-41.9921875,-31.73828125,-1000.0,0.0,1.0,-1.0,0.0,6.m4v,7.0
2024-02-28 09:39:58.721817,1709109598.7218175,13.671875,-37.59765625,-34.66796875,-482.421875,0.0,1.0,-1.0,0.0,6.m4v,7.0
2024-02-28 09:39:58.725722,1709109598.7257223,570.3125,-26.3671875,-32.71484375,618.1640625,0.0,1.0,-1.0,0.0,6.m4v,7.0
2024-02-28 09:39:58.729627,1709109598.729627,572.75390625,-23.4375,-35.64453125,999.51171875,0.0,1.0,-1.0,0.0,6.m4v,7.0
2024-02-28 09:39:58.733546,1709109598.733546,-46.38671875,-33.69140625,-36.62109375,242.67578125,0.0,1.0,-1.0,0.0,6.m4v,7.0
2024-02-28 09:39:58.737451,1709109598.7374506,-636.23046875,-37.109375,-37.109375,-901.3671875,0.0,1.0,-1.0,0.0,6.m4v,7.0
2024-02-28 09:39:58.741355,1709109598.7413552,-388.671875,-27.34375,-40.0390625,-1000.0,0.0,1.0,-1.0,0.0,6.m4v,7.0
2024-02-28 09:39:58.745260,1709109598.7452598,2.44140625,-28.3203125,-38.0859375,-904.78515625,0.0,1.0,-1.0,0.0,6.m4v,7.0
2024-02-28 09:39:58.749164,1709109598.7491643,-71.2890625,-31.25,-32.71484375,-1000.0,0.0,1.0,-1.0,0.0,6.m4v,7.0
2024-02-28 09:39:58.753069,1709109598.7530692,-15.13671875,-26.3671875,-33.69140625,-526.85546875,0.0,1.0,-1.0,0.0,6.m4v,7.0
2024-02-28 09:39:58.756974,1709109598.7569735,407.2265625,-24.4140625,-38.57421875,770.5078125,0.0,1.0,-1.0,0.0,6.m4v,7.0
2024-02-28 09:39:58.760878,1709109598.7608783,457.03125,-23.92578125,-33.203125,999.51171875,0.0,1.0,-1.0,0.0,6.m4v,7.0
2024-02-28 09:39:58.764783,1709109598.764783,173.33984375,-29.296875,-29.78515625,739.74609375,0.0,1.0,-1.0,0.0,6.m4v,7.0
2024-02-28 09:39:58.768687,1709109598.7686875,-333.984375,-33.69140625,-32.71484375,-402.34375,0.0,1.0,-1.0,0.0,6.m4v,7.0
2024-02-28 09:39:58.772592,1709109598.772592,-593.75,-34.1796875,-32.2265625,-1000.0,0.0,1.0,-1.0,0.0,6.m4v,7.0
2024-02-28 09:39:58.776497,1709109598.776497,-277.34375,-30.2734375,-30.2734375,-773.4375,0.0,1.0,-1.0,0.0,6.m4v,7.0
2024-02-28 09:39:58.780435,1709109598.7804348,335.44921875,-29.296875,-31.73828125,401.85546875,0.0,1.0,-1.0,0.0,6.m4v,7.0
2024-02-28 09:39:58.784339,1709109598.7843394,539.55078125,-35.64453125,-35.15625,999.51171875,0.0,1.0,-1.0,0.0,6.m4v,7.0
2024-02-28 09:39:58.788244,1709109598.788244,304.6875,-38.57421875,-31.25,794.921875,0.0,1.0,-1.0,0.0,6.m4v,7.0
2024-02-28 09:39:58.792149,1709109598.7921486,-357.91015625,-41.015625,-35.15625,-280.2734375,0.0,1.0,-1.0,0.0,6.m4v,7.0
2024-02-28 09:39:58.796053,1709109598.7960532,-793.9453125,-44.43359375,-44.921875,-1000.0,0.0,1.0,-1.0,0.0,6.m4v,7.0
2024-02-28 09:39:58.799958,1709109598.799958,-140.13671875,-37.109375,-47.8515625,-409.1796875,0.0,1.0,-1.0,0.0,6.m4v,7.0
2024-02-28 09:39:58.803863,1709109598.8038626,499.0234375,-28.80859375,-37.59765625,883.30078125,0.0,1.0,-1.0,0.0,6.m4v,7.0
2024-02-28 09:39:58.807767,1709109598.8077672,379.8828125,-39.0625,-36.1328125,954.1015625,0.0,1.0,-1.0,0.0,6.m4v,7.0
2024-02-28 09:39:58.811672,1709109598.8116715,-245.1171875,-48.828125,-41.50390625,-181.15234375,0.0,1.0,-1.0,0.0,6.m4v,7.0
2024-02-28 09:39:58.815576,1709109598.8155763,-690.4296875,-42.48046875,-38.0859375,-1000.0,0.0,1.0,-1.0,0.0,6.m4v,7.0
2024-02-28 09:39:58.819481,1709109598.8194811,-461.9140625,-36.62109375,-39.55078125,-839.84375,0.0,1.0,-1.0,0.0,6.m4v,7.0
2024-02-28 09:39:58.823386,1709109598.8233857,275.390625,-33.69140625,-40.0390625,286.62109375,0.0,1.0,-1.0,0.0,6.m4v,7.0
2024-02-28 09:39:58.827312,1709109598.8273122,596.6796875,-35.15625,-36.62109375,999.51171875,0.0,1.0,-1.0,0.0,6.m4v,7.0
2024-02-28 09:39:58.831217,1709109598.8312168,231.93359375,-34.66796875,-32.2265625,875.48828125,0.0,1.0,-1.0,0.0,6.m4v,7.0
2024-02-28 09:39:58.835121,1709109598.8351214,-149.4140625,-35.64453125,-33.203125,298.828125,0.0,1.0,-1.0,0.0,6.m4v,7.0
2024-02-28 09:39:58.839026,1709109598.8390262,-513.671875,-39.0625,-41.50390625,-659.1796875,0.0,1.0,-1.0,0.0,6.m4v,7.0
2024-02-28 09:39:58.842931,1709109598.8429308,-525.390625,-35.15625,-48.33984375,-1000.0,0.0,1.0,-1.0,0.0,6.m4v,7.0
2024-02-28 09:39:58.846835,1709109598.8468354,-229.4921875,-32.2265625,-43.9453125,-947.75390625,0.0,1.0,-1.0,0.0,6.m4v,7.0
2024-02-28 09:39:58.850740,1709109598.85074,-216.30859375,-33.69140625,-47.36328125,-1000.0,0.0,1.0,-1.0,0.0,6.m4v,7.0
2024-02-28 09:39:58.854645,1709109598.8546443,125.9765625,-34.66796875,-50.29296875,-8.30078125,0.0,1.0,-1.0,0.0,6.m4v,7.0
2024-02-28 09:39:58.858549,1709109598.858549,570.3125,-34.66796875,-41.015625,993.1640625,0.0,1.0,-1.0,0.0,6.m4v,7.0
2024-02-28 09:39:58.862454,1709109598.862454,327.63671875,-32.2265625,-39.0625,999.51171875,0.0,1.0,-1.0,0.0,6.m4v,7.0
2024-02-28 09:39:58.866359,1709109598.8663585,109.86328125,-31.73828125,-41.50390625,685.05859375,0.0,1.0,-1.0,0.0,6.m4v,7.0
2024-02-28 09:39:58.870263,1709109598.870263,-359.375,-36.1328125,-41.9921875,-521.97265625,0.0,1.0,-1.0,0.0,6.m4v,7.0
2024-02-28 09:39:58.874179,1709109598.8741786,-683.59375,-34.1796875,-44.921875,-1000.0,0.0,1.0,-1.0,0.0,6.m4v,7.0
2024-02-28 09:39:58.878083,1709109598.8780832,-266.11328125,-25.390625,-47.8515625,-502.44140625,0.0,1.0,-1.0,0.0,6.m4v,7.0
