Timestamp,Timestamp_UNIX,TP9,AF7,AF8,TP10,Valence,Arousal,Dominace,Viewed,Video,Participant
2024-02-27 13:55:17.044185,1709038517.0441854,-43.45703125,969.7265625,-317.87109375,-29.296875,1.0,-1.0,1.0,1.0,7.m4v,4.0
2024-02-27 13:55:17.048091,1709038517.0480912,-237.3046875,982.421875,-837.890625,-38.57421875,1.0,-1.0,1.0,1.0,7.m4v,4.0
2024-02-27 13:55:17.051997,1709038517.0519972,-30.76171875,925.78125,-308.59375,-39.0625,1.0,-1.0,1.0,1.0,7.m4v,4.0
2024-02-27 13:55:17.055903,1709038517.0559032,363.76953125,990.234375,817.3828125,-23.4375,1.0,-1.0,1.0,1.0,7.m4v,4.0
2024-02-27 13:55:17.059809,1709038517.059809,255.859375,953.61328125,816.40625,-26.85546875,1.0,-1.0,1.0,1.0,7.m4v,4.0
2024-02-27 13:55:17.067621,1709038517.0676208,-582.51953125,-1000.0,-994.140625,-52.734375,1.0,-1.0,1.0,1.0,7.m4v,4.0
2024-02-27 13:55:17.075433,1709038517.0754323,29.296875,-1000.0,-72.265625,-34.1796875,1.0,-1.0,1.0,1.0,7.m4v,4.0
2024-02-27 13:55:17.083247,1709038517.083247,-54.19921875,-1000.0,-325.1953125,-48.33984375,1.0,-1.0,1.0,1.0,7.m4v,4.0
2024-02-27 13:55:17.091059,1709038517.0910587,-194.3359375,-1000.0,-895.5078125,-26.3671875,1.0,-1.0,1.0,1.0,7.m4v,4.0
2024-02-27 13:55:17.098871,1709038517.0988705,599.609375,568.84765625,726.07421875,-18.5546875,1.0,-1.0,1.0,1.0,7.m4v,4.0
2024-02-27 13:55:17.106682,1709038517.1066823,-280.76171875,895.01953125,-728.02734375,-45.41015625,1.0,-1.0,1.0,1.0,7.m4v,4.0
2024-02-27 13:55:17.317614,1709038517.3176138,-257.8125,969.7265625,113.76953125,-41.50390625,1.0,-1.0,1.0,1.0,7.m4v,4.0
2024-02-27 13:55:17.317614,1709038517.3176138,-257.8125,969.7265625,113.76953125,-41.50390625,1.0,-1.0,1.0,1.0,7.m4v,4.0
2024-02-27 13:55:17.321520,1709038517.32152,-156.73828125,969.7265625,359.375,-41.50390625,1.0,-1.0,1.0,1.0,7.m4v,4.0
2024-02-27 13:55:17.321520,1709038517.32152,-156.73828125,969.7265625,359.375,-41.50390625,1.0,-1.0,1.0,1.0,7.m4v,4.0
2024-02-27 13:55:17.325426,1709038517.3254256,78.125,970.21484375,908.69140625,-41.015625,1.0,-1.0,1.0,1.0,7.m4v,4.0
2024-02-27 13:55:17.325426,1709038517.3254256,78.125,970.21484375,908.69140625,-41.015625,1.0,-1.0,1.0,1.0,7.m4v,4.0
2024-02-27 13:55:17.329332,1709038517.3293316,101.07421875,969.23828125,983.88671875,-43.45703125,1.0,-1.0,1.0,1.0,7.m4v,4.0
2024-02-27 13:55:17.329332,1709038517.3293316,101.07421875,969.23828125,983.88671875,-43.45703125,1.0,-1.0,1.0,1.0,7.m4v,4.0
2024-02-27 13:55:17.333237,1709038517.3332374,42.48046875,908.69140625,901.3671875,-50.78125,1.0,-1.0,1.0,1.0,7.m4v,4.0
2024-02-27 13:55:17.333237,1709038517.3332374,42.48046875,908.69140625,901.3671875,-50.78125,1.0,-1.0,1.0,1.0,7.m4v,4.0
2024-02-27 13:55:17.337143,1709038517.3371434,-73.73046875,999.51171875,527.83203125,-36.62109375,1.0,-1.0,1.0,1.0,7.m4v,4.0
2024-02-27 13:55:17.337143,1709038517.3371434,-73.73046875,999.51171875,527.83203125,-36.62109375,1.0,-1.0,1.0,1.0,7.m4v,4.0
2024-02-27 13:55:17.341049,1709038517.3410492,-343.75,168.45703125,220.703125,-41.015625,1.0,-1.0,1.0,1.0,7.m4v,4.0
2024-02-27 13:55:17.341049,1709038517.3410492,-343.75,168.45703125,220.703125,-41.015625,1.0,-1.0,1.0,1.0,7.m4v,4.0
2024-02-27 13:55:17.344955,1709038517.3449552,-289.0625,-1000.0,594.7265625,-29.78515625,1.0,-1.0,1.0,1.0,7.m4v,4.0
2024-02-27 13:55:17.344955,1709038517.3449552,-289.0625,-1000.0,594.7265625,-29.78515625,1.0,-1.0,1.0,1.0,7.m4v,4.0
2024-02-27 13:55:17.348861,1709038517.348861,17.08984375,-980.95703125,979.4921875,-45.41015625,1.0,-1.0,1.0,1.0,7.m4v,4.0
2024-02-27 13:55:17.348861,1709038517.348861,17.08984375,-980.95703125,979.4921875,-45.41015625,1.0,-1.0,1.0,1.0,7.m4v,4.0
2024-02-27 13:55:17.352767,1709038517.352767,-138.671875,-974.609375,359.86328125,-52.734375,1.0,-1.0,1.0,1.0,7.m4v,4.0
2024-02-27 13:55:17.352767,1709038517.352767,-138.671875,-974.609375,359.86328125,-52.734375,1.0,-1.0,1.0,1.0,7.m4v,4.0
2024-02-27 13:55:17.356673,1709038517.3566728,-297.36328125,-1000.0,-209.47265625,-39.0625,1.0,-1.0,1.0,1.0,7.m4v,4.0
2024-02-27 13:55:17.356673,1709038517.3566728,-297.36328125,-1000.0,-209.47265625,-39.0625,1.0,-1.0,1.0,1.0,7.m4v,4.0
2024-02-27 13:55:17.360582,1709038517.360582,-169.43359375,-1000.0,-9.27734375,-45.8984375,1.0,-1.0,1.0,1.0,7.m4v,4.0
2024-02-27 13:55:17.360582,1709038517.360582,-169.43359375,-1000.0,-9.27734375,-45.8984375,1.0,-1.0,1.0,1.0,7.m4v,4.0
2024-02-27 13:55:17.364488,1709038517.3644876,3.41796875,-1000.0,447.75390625,-33.69140625,1.0,-1.0,1.0,1.0,7.m4v,4.0
2024-02-27 13:55:17.364488,1709038517.3644876,3.41796875,-1000.0,447.75390625,-33.69140625,1.0,-1.0,1.0,1.0,7.m4v,4.0
2024-02-27 13:55:17.368394,1709038517.3683937,161.62109375,-1000.0,877.9296875,-31.25,1.0,-1.0,1.0,1.0,7.m4v,4.0
2024-02-27 13:55:17.368394,1709038517.3683937,161.62109375,-1000.0,877.9296875,-31.25,1.0,-1.0,1.0,1.0,7.m4v,4.0
2024-02-27 13:55:17.372299,1709038517.3722994,36.62109375,-942.3828125,546.875,-51.26953125,1.0,-1.0,1.0,1.0,7.m4v,4.0
2024-02-27 13:55:17.372299,1709038517.3722994,36.62109375,-942.3828125,546.875,-51.26953125,1.0,-1.0,1.0,1.0,7.m4v,4.0
2024-02-27 13:55:17.376205,1709038517.3762054,-299.8046875,-1000.0,-327.63671875,-52.24609375,1.0,-1.0,1.0,1.0,7.m4v,4.0
2024-02-27 13:55:17.376205,1709038517.3762054,-299.8046875,-1000.0,-327.63671875,-52.24609375,1.0,-1.0,1.0,1.0,7.m4v,4.0
2024-02-27 13:55:17.380111,1709038517.3801112,-205.078125,-785.64453125,-243.1640625,-44.43359375,1.0,-1.0,1.0,1.0,7.m4v,4.0
2024-02-27 13:55:17.380111,1709038517.3801112,-205.078125,-785.64453125,-243.1640625,-44.43359375,1.0,-1.0,1.0,1.0,7.m4v,4.0
2024-02-27 13:55:17.384017,1709038517.3840172,333.0078125,616.69921875,687.5,-35.15625,1.0,-1.0,1.0,1.0,7.m4v,4.0
2024-02-27 13:55:17.384017,1709038517.3840172,333.0078125,616.69921875,687.5,-35.15625,1.0,-1.0,1.0,1.0,7.m4v,4.0
2024-02-27 13:55:17.387923,1709038517.387923,389.6484375,999.51171875,999.51171875,-29.296875,1.0,-1.0,1.0,1.0,7.m4v,4.0
2024-02-27 13:55:17.387923,1709038517.387923,389.6484375,999.51171875,999.51171875,-29.296875,1.0,-1.0,1.0,1.0,7.m4v,4.0
2024-02-27 13:55:17.391829,1709038517.391829,81.0546875,907.2265625,649.90234375,-33.69140625,1.0,-1.0,1.0,1.0,7.m4v,4.0
2024-02-27 13:55:17.391829,1709038517.391829,81.0546875,907.2265625,649.90234375,-33.69140625,1.0,-1.0,1.0,1.0,7.m4v,4.0
2024-02-27 13:55:17.395735,1709038517.3957348,-148.92578125,981.93359375,-35.64453125,-39.55078125,1.0,-1.0,1.0,1.0,7.m4v,4.0
2024-02-27 13:55:17.395735,1709038517.3957348,-148.92578125,981.93359375,-35.64453125,-39.55078125,1.0,-1.0,1.0,1.0,7.m4v,4.0
2024-02-27 13:55:17.399641,1709038517.3996408,-159.66796875,969.7265625,-132.32421875,-58.10546875,1.0,-1.0,1.0,1.0,7.m4v,4.0
2024-02-27 13:55:17.399641,1709038517.3996408,-159.66796875,969.7265625,-132.32421875,-58.10546875,1.0,-1.0,1.0,1.0,7.m4v,4.0
2024-02-27 13:55:17.403547,1709038517.4035466,53.22265625,969.7265625,453.61328125,-50.29296875,1.0,-1.0,1.0,1.0,7.m4v,4.0
2024-02-27 13:55:17.403547,1709038517.4035466,53.22265625,969.7265625,453.61328125,-50.29296875,1.0,-1.0,1.0,1.0,7.m4v,4.0
2024-02-27 13:55:17.407455,1709038517.4074552,249.51171875,970.21484375,990.72265625,-16.11328125,1.0,-1.0,1.0,1.0,7.m4v,4.0
2024-02-27 13:55:17.407455,1709038517.4074552,249.51171875,970.21484375,990.72265625,-16.11328125,1.0,-1.0,1.0,1.0,7.m4v,4.0
2024-02-27 13:55:17.411361,1709038517.4113612,137.20703125,970.703125,802.24609375,-27.34375,1.0,-1.0,1.0,1.0,7.m4v,4.0
2024-02-27 13:55:17.411361,1709038517.4113612,137.20703125,970.703125,802.24609375,-27.34375,1.0,-1.0,1.0,1.0,7.m4v,4.0
2024-02-27 13:55:17.415267,1709038517.415267,-159.66796875,906.73828125,76.171875,-42.96875,1.0,-1.0,1.0,1.0,7.m4v,4.0
2024-02-27 13:55:17.415267,1709038517.415267,-159.66796875,906.73828125,76.171875,-42.96875,1.0,-1.0,1.0,1.0,7.m4v,4.0
2024-02-27 13:55:17.419173,1709038517.419173,-142.08984375,999.51171875,-51.26953125,-32.2265625,1.0,-1.0,1.0,1.0,7.m4v,4.0
2024-02-27 13:55:17.419173,1709038517.419173,-142.08984375,999.51171875,-51.26953125,-32.2265625,1.0,-1.0,1.0,1.0,7.m4v,4.0
2024-02-27 13:55:17.423079,1709038517.4230788,-176.7578125,191.40625,168.9453125,-32.2265625,1.0,-1.0,1.0,1.0,7.m4v,4.0
2024-02-27 13:55:17.423079,1709038517.4230788,-176.7578125,191.40625,168.9453125,-32.2265625,1.0,-1.0,1.0,1.0,7.m4v,4.0
2024-02-27 13:55:17.426985,1709038517.4269848,-92.7734375,-1000.0,686.03515625,-46.38671875,1.0,-1.0,1.0,1.0,7.m4v,4.0
2024-02-27 13:55:17.426985,1709038517.4269848,-92.7734375,-1000.0,686.03515625,-46.38671875,1.0,-1.0,1.0,1.0,7.m4v,4.0
2024-02-27 13:55:17.430891,1709038517.4308906,79.58984375,-984.375,802.24609375,-42.48046875,1.0,-1.0,1.0,1.0,7.m4v,4.0
2024-02-27 13:55:17.430891,1709038517.4308906,79.58984375,-984.375,802.24609375,-42.48046875,1.0,-1.0,1.0,1.0,7.m4v,4.0
2024-02-27 13:55:17.434797,1709038517.4347966,-251.46484375,-972.65625,-252.9296875,-38.0859375,1.0,-1.0,1.0,1.0,7.m4v,4.0
2024-02-27 13:55:17.434797,1709038517.4347966,-251.46484375,-972.65625,-252.9296875,-38.0859375,1.0,-1.0,1.0,1.0,7.m4v,4.0
2024-02-27 13:55:17.438702,1709038517.4387023,-395.99609375,-1000.0,-830.56640625,-39.0625,1.0,-1.0,1.0,1.0,7.m4v,4.0
2024-02-27 13:55:17.438702,1709038517.4387023,-395.99609375,-1000.0,-830.56640625,-39.0625,1.0,-1.0,1.0,1.0,7.m4v,4.0
2024-02-27 13:55:17.442608,1709038517.4426084,-168.45703125,-1000.0,-434.5703125,-26.85546875,1.0,-1.0,1.0,1.0,7.m4v,4.0
2024-02-27 13:55:17.442608,1709038517.4426084,-168.45703125,-1000.0,-434.5703125,-26.85546875,1.0,-1.0,1.0,1.0,7.m4v,4.0
2024-02-27 13:55:17.446514,1709038517.446514,193.84765625,-1000.0,419.921875,-27.34375,1.0,-1.0,1.0,1.0,7.m4v,4.0
2024-02-27 13:55:17.446514,1709038517.446514,193.84765625,-1000.0,419.921875,-27.34375,1.0,-1.0,1.0,1.0,7.m4v,4.0
2024-02-27 13:55:17.450420,1709038517.45042,179.6875,-1000.0,475.5859375,-35.64453125,1.0,-1.0,1.0,1.0,7.m4v,4.0
2024-02-27 13:55:17.450420,1709038517.45042,179.6875,-1000.0,475.5859375,-35.64453125,1.0,-1.0,1.0,1.0,7.m4v,4.0
2024-02-27 13:55:17.454329,1709038517.4543283,-179.6875,-1000.0,-386.71875,-40.52734375,1.0,-1.0,1.0,1.0,7.m4v,4.0
2024-02-27 13:55:17.454329,1709038517.4543283,-179.6875,-1000.0,-386.71875,-40.52734375,1.0,-1.0,1.0,1.0,7.m4v,4.0
2024-02-27 13:55:17.458235,1709038517.4582343,-237.79296875,-928.22265625,-721.6796875,-42.96875,1.0,-1.0,1.0,1.0,7.m4v,4.0
2024-02-27 13:55:17.458235,1709038517.4582343,-237.79296875,-928.22265625,-721.6796875,-42.96875,1.0,-1.0,1.0,1.0,7.m4v,4.0
2024-02-27 13:55:17.462140,1709038517.4621403,-4.8828125,-1000.0,-150.390625,-33.203125,1.0,-1.0,1.0,1.0,7.m4v,4.0
2024-02-27 13:55:17.462140,1709038517.4621403,-4.8828125,-1000.0,-150.390625,-33.203125,1.0,-1.0,1.0,1.0,7.m4v,4.0
2024-02-27 13:55:17.466046,1709038517.4660463,342.28515625,-442.3828125,718.75,-30.76171875,1.0,-1.0,1.0,1.0,7.m4v,4.0
2024-02-27 13:55:17.466046,1709038517.4660463,342.28515625,-442.3828125,718.75,-30.76171875,1.0,-1.0,1.0,1.0,7.m4v,4.0
2024-02-27 13:55:17.469952,1709038517.469952,495.60546875,944.3359375,940.4296875,-29.296875,1.0,-1.0,1.0,1.0,7.m4v,4.0
2024-02-27 13:55:17.469952,1709038517.469952,495.60546875,944.3359375,940.4296875,-29.296875,1.0,-1.0,1.0,1.0,7.m4v,4.0
2024-02-27 13:55:17.473858,1709038517.473858,190.91796875,993.65234375,496.58203125,-42.48046875,1.0,-1.0,1.0,1.0,7.m4v,4.0
2024-02-27 13:55:17.473858,1709038517.473858,190.91796875,993.65234375,496.58203125,-42.48046875,1.0,-1.0,1.0,1.0,7.m4v,4.0
2024-02-27 13:55:17.477764,1709038517.477764,-37.109375,924.8046875,255.37109375,-41.015625,1.0,-1.0,1.0,1.0,7.m4v,4.0
2024-02-27 13:55:17.477764,1709038517.477764,-37.109375,924.8046875,255.37109375,-41.015625,1.0,-1.0,1.0,1.0,7.m4v,4.0
2024-02-27 13:55:17.481670,1709038517.48167,-1.46484375,982.421875,456.0546875,-22.4609375,1.0,-1.0,1.0,1.0,7.m4v,4.0
2024-02-27 13:55:17.481670,1709038517.48167,-1.46484375,982.421875,456.0546875,-22.4609375,1.0,-1.0,1.0,1.0,7.m4v,4.0
2024-02-27 13:55:17.485576,1709038517.4855757,60.05859375,969.7265625,747.55859375,-41.015625,1.0,-1.0,1.0,1.0,7.m4v,4.0
2024-02-27 13:55:17.485576,1709038517.4855757,60.05859375,969.7265625,747.55859375,-41.015625,1.0,-1.0,1.0,1.0,7.m4v,4.0
2024-02-27 13:55:17.489482,1709038517.4894817,55.17578125,969.7265625,708.49609375,-44.921875,1.0,-1.0,1.0,1.0,7.m4v,4.0
2024-02-27 13:55:17.489482,1709038517.4894817,55.17578125,969.7265625,708.49609375,-44.921875,1.0,-1.0,1.0,1.0,7.m4v,4.0
2024-02-27 13:55:17.493387,1709038517.4933877,-161.62109375,969.7265625,-17.08984375,-42.96875,1.0,-1.0,1.0,1.0,7.m4v,4.0
2024-02-27 13:55:17.493387,1709038517.4933877,-161.62109375,969.7265625,-17.08984375,-42.96875,1.0,-1.0,1.0,1.0,7.m4v,4.0
2024-02-27 13:55:17.497293,1709038517.4972937,-270.5078125,969.7265625,-513.18359375,-43.9453125,1.0,-1.0,1.0,1.0,7.m4v,4.0
2024-02-27 13:55:17.497293,1709038517.4972937,-270.5078125,969.7265625,-513.18359375,-43.9453125,1.0,-1.0,1.0,1.0,7.m4v,4.0
2024-02-27 13:55:17.501202,1709038517.5012016,-78.61328125,969.7265625,-103.02734375,-34.1796875,1.0,-1.0,1.0,1.0,7.m4v,4.0
2024-02-27 13:55:17.501202,1709038517.5012016,-78.61328125,969.7265625,-103.02734375,-34.1796875,1.0,-1.0,1.0,1.0,7.m4v,4.0
2024-02-27 13:55:17.505108,1709038517.5051076,181.640625,969.7265625,681.15234375,-31.73828125,1.0,-1.0,1.0,1.0,7.m4v,4.0
2024-02-27 13:55:17.505108,1709038517.5051076,181.640625,969.7265625,681.15234375,-31.73828125,1.0,-1.0,1.0,1.0,7.m4v,4.0
2024-02-27 13:55:17.509013,1709038517.5090134,232.91015625,969.7265625,996.09375,-32.2265625,1.0,-1.0,1.0,1.0,7.m4v,4.0
2024-02-27 13:55:17.509013,1709038517.5090134,232.91015625,969.7265625,996.09375,-32.2265625,1.0,-1.0,1.0,1.0,7.m4v,4.0
2024-02-27 13:55:17.512919,1709038517.5129194,-10.7421875,969.7265625,451.171875,-36.62109375,1.0,-1.0,1.0,1.0,7.m4v,4.0
2024-02-27 13:55:17.512919,1709038517.5129194,-10.7421875,969.7265625,451.171875,-36.62109375,1.0,-1.0,1.0,1.0,7.m4v,4.0
2024-02-27 13:55:17.516825,1709038517.5168252,-245.1171875,969.7265625,-198.73046875,-48.33984375,1.0,-1.0,1.0,1.0,7.m4v,4.0
2024-02-27 13:55:17.516825,1709038517.5168252,-245.1171875,969.7265625,-198.73046875,-48.33984375,1.0,-1.0,1.0,1.0,7.m4v,4.0
2024-02-27 13:55:17.520731,1709038517.5207312,-49.8046875,982.421875,284.66796875,-55.17578125,1.0,-1.0,1.0,1.0,7.m4v,4.0
2024-02-27 13:55:17.520731,1709038517.5207312,-49.8046875,982.421875,284.66796875,-55.17578125,1.0,-1.0,1.0,1.0,7.m4v,4.0
2024-02-27 13:55:17.524637,1709038517.524637,179.6875,896.97265625,962.890625,-37.59765625,1.0,-1.0,1.0,1.0,7.m4v,4.0
2024-02-27 13:55:17.524637,1709038517.524637,179.6875,896.97265625,962.890625,-37.59765625,1.0,-1.0,1.0,1.0,7.m4v,4.0
2024-02-27 13:55:17.528543,1709038517.528543,132.8125,999.51171875,999.51171875,-32.71484375,1.0,-1.0,1.0,1.0,7.m4v,4.0
2024-02-27 13:55:17.528543,1709038517.528543,132.8125,999.51171875,999.51171875,-32.71484375,1.0,-1.0,1.0,1.0,7.m4v,4.0
2024-02-27 13:55:17.532449,1709038517.532449,-123.53515625,467.7734375,523.4375,-52.24609375,1.0,-1.0,1.0,1.0,7.m4v,4.0
2024-02-27 13:55:17.532449,1709038517.532449,-123.53515625,467.7734375,523.4375,-52.24609375,1.0,-1.0,1.0,1.0,7.m4v,4.0
2024-02-27 13:55:17.536355,1709038517.5363548,-534.1796875,-943.84765625,-302.734375,-63.96484375,1.0,-1.0,1.0,1.0,7.m4v,4.0
2024-02-27 13:55:17.536355,1709038517.5363548,-534.1796875,-943.84765625,-302.734375,-63.96484375,1.0,-1.0,1.0,1.0,7.m4v,4.0
2024-02-27 13:55:17.540261,1709038517.5402608,-405.76171875,-1000.0,-254.8828125,-57.6171875,1.0,-1.0,1.0,1.0,7.m4v,4.0
2024-02-27 13:55:17.540261,1709038517.5402608,-405.76171875,-1000.0,-254.8828125,-57.6171875,1.0,-1.0,1.0,1.0,7.m4v,4.0
2024-02-27 13:55:17.544167,1709038517.5441666,-93.26171875,-950.68359375,218.26171875,-37.109375,1.0,-1.0,1.0,1.0,7.m4v,4.0
2024-02-27 13:55:17.544167,1709038517.5441666,-93.26171875,-950.68359375,218.26171875,-37.109375,1.0,-1.0,1.0,1.0,7.m4v,4.0
2024-02-27 13:55:17.548075,1709038517.5480747,133.7890625,-1000.0,749.0234375,-47.36328125,1.0,-1.0,1.0,1.0,7.m4v,4.0
2024-02-27 13:55:17.548075,1709038517.5480747,133.7890625,-1000.0,749.0234375,-47.36328125,1.0,-1.0,1.0,1.0,7.m4v,4.0
2024-02-27 13:55:17.551981,1709038517.5519807,53.22265625,-1000.0,547.8515625,-61.03515625,1.0,-1.0,1.0,1.0,7.m4v,4.0
2024-02-27 13:55:17.551981,1709038517.5519807,53.22265625,-1000.0,547.8515625,-61.03515625,1.0,-1.0,1.0,1.0,7.m4v,4.0
2024-02-27 13:55:17.555887,1709038517.5558865,-262.20703125,-999.0234375,-249.51171875,-38.0859375,1.0,-1.0,1.0,1.0,7.m4v,4.0
2024-02-27 13:55:17.555887,1709038517.5558865,-262.20703125,-999.0234375,-249.51171875,-38.0859375,1.0,-1.0,1.0,1.0,7.m4v,4.0
2024-02-27 13:55:17.559793,1709038517.5597925,-252.9296875,-940.4296875,-358.3984375,-33.69140625,1.0,-1.0,1.0,1.0,7.m4v,4.0
2024-02-27 13:55:17.559793,1709038517.5597925,-252.9296875,-940.4296875,-358.3984375,-33.69140625,1.0,-1.0,1.0,1.0,7.m4v,4.0
2024-02-27 13:55:17.563698,1709038517.5636983,5.37109375,-1000.0,349.609375,-27.83203125,1.0,-1.0,1.0,1.0,7.m4v,4.0
2024-02-27 13:55:17.563698,1709038517.5636983,5.37109375,-1000.0,349.609375,-27.83203125,1.0,-1.0,1.0,1.0,7.m4v,4.0
2024-02-27 13:55:17.567604,1709038517.5676043,375.0,-183.59375,943.84765625,-17.578125,1.0,-1.0,1.0,1.0,7.m4v,4.0
2024-02-27 13:55:17.567604,1709038517.5676043,375.0,-183.59375,943.84765625,-17.578125,1.0,-1.0,1.0,1.0,7.m4v,4.0
2024-02-27 13:55:17.571510,1709038517.57151,423.33984375,999.51171875,981.4453125,-21.97265625,1.0,-1.0,1.0,1.0,7.m4v,4.0
2024-02-27 13:55:17.571510,1709038517.57151,423.33984375,999.51171875,981.4453125,-21.97265625,1.0,-1.0,1.0,1.0,7.m4v,4.0
2024-02-27 13:55:17.575416,1709038517.575416,-24.4140625,948.2421875,389.6484375,-22.94921875,1.0,-1.0,1.0,1.0,7.m4v,4.0
2024-02-27 13:55:17.575416,1709038517.575416,-24.4140625,948.2421875,389.6484375,-22.94921875,1.0,-1.0,1.0,1.0,7.m4v,4.0
2024-02-27 13:55:17.579322,1709038517.579322,-249.51171875,945.3125,-34.1796875,-45.41015625,1.0,-1.0,1.0,1.0,7.m4v,4.0
2024-02-27 13:55:17.579322,1709038517.579322,-249.51171875,945.3125,-34.1796875,-45.41015625,1.0,-1.0,1.0,1.0,7.m4v,4.0
2024-02-27 13:55:17.583228,1709038517.583228,5.37109375,975.5859375,593.75,-41.015625,1.0,-1.0,1.0,1.0,7.m4v,4.0
2024-02-27 13:55:17.583228,1709038517.583228,5.37109375,975.5859375,593.75,-41.015625,1.0,-1.0,1.0,1.0,7.m4v,4.0
2024-02-27 13:55:17.587134,1709038517.5871336,178.7109375,969.7265625,999.51171875,-10.25390625,1.0,-1.0,1.0,1.0,7.m4v,4.0
2024-02-27 13:55:17.591040,1709038517.5910397,86.42578125,969.7265625,921.875,-20.99609375,1.0,-1.0,1.0,1.0,7.m4v,4.0
2024-02-27 13:55:17.594949,1709038517.5949492,-87.890625,969.7265625,485.3515625,-38.57421875,1.0,-1.0,1.0,1.0,7.m4v,4.0
2024-02-27 13:55:17.598855,1709038517.598855,-122.0703125,969.7265625,422.36328125,-32.71484375,1.0,-1.0,1.0,1.0,7.m4v,4.0
2024-02-27 13:55:17.602761,1709038517.602761,19.53125,969.7265625,875.9765625,-21.97265625,1.0,-1.0,1.0,1.0,7.m4v,4.0
2024-02-27 13:55:17.606667,1709038517.6066668,51.26953125,982.421875,969.7265625,-24.90234375,1.0,-1.0,1.0,1.0,7.m4v,4.0
2024-02-27 13:55:17.610573,1709038517.6105728,43.9453125,918.45703125,973.6328125,-22.4609375,1.0,-1.0,1.0,1.0,7.m4v,4.0
2024-02-27 13:55:17.614479,1709038517.6144786,27.83203125,999.51171875,886.23046875,-30.76171875,1.0,-1.0,1.0,1.0,7.m4v,4.0
2024-02-27 13:55:17.618385,1709038517.6183846,-110.83984375,838.37890625,607.91015625,-40.52734375,1.0,-1.0,1.0,1.0,7.m4v,4.0
2024-02-27 13:55:17.622290,1709038517.6222904,-326.66015625,-544.43359375,586.9140625,-36.62109375,1.0,-1.0,1.0,1.0,7.m4v,4.0
2024-02-27 13:55:17.626196,1709038517.6261964,-193.359375,-1000.0,898.4375,-35.64453125,1.0,-1.0,1.0,1.0,7.m4v,4.0
2024-02-27 13:55:17.630102,1709038517.6301022,-14.6484375,-935.05859375,934.5703125,-51.26953125,1.0,-1.0,1.0,1.0,7.m4v,4.0
2024-02-27 13:55:17.634008,1709038517.6340082,-144.04296875,-1000.0,425.78125,-64.94140625,1.0,-1.0,1.0,1.0,7.m4v,4.0
2024-02-27 13:55:17.637914,1709038517.637914,-229.00390625,-1000.0,53.7109375,-47.8515625,1.0,-1.0,1.0,1.0,7.m4v,4.0
2024-02-27 13:55:17.641823,1709038517.6418233,-59.08203125,-1000.0,515.13671875,-33.69140625,1.0,-1.0,1.0,1.0,7.m4v,4.0
2024-02-27 13:55:17.645729,1709038517.645729,116.69921875,-1000.0,977.5390625,-36.1328125,1.0,-1.0,1.0,1.0,7.m4v,4.0
2024-02-27 13:55:17.649635,1709038517.649635,91.796875,-996.09375,999.51171875,-39.0625,1.0,-1.0,1.0,1.0,7.m4v,4.0
2024-02-27 13:55:17.653541,1709038517.6535408,-8.7890625,-944.82421875,794.43359375,-39.0625,1.0,-1.0,1.0,1.0,7.m4v,4.0
2024-02-27 13:55:17.657447,1709038517.6574469,-149.90234375,-1000.0,584.9609375,-39.0625,1.0,-1.0,1.0,1.0,7.m4v,4.0
2024-02-27 13:55:17.661353,1709038517.6613526,92.28515625,-143.5546875,893.06640625,-32.2265625,1.0,-1.0,1.0,1.0,7.m4v,4.0
2024-02-27 13:55:17.665259,1709038517.6652586,279.296875,999.51171875,986.81640625,-19.04296875,1.0,-1.0,1.0,1.0,7.m4v,4.0
2024-02-27 13:55:17.669164,1709038517.6691644,106.4453125,943.359375,960.44921875,-22.94921875,1.0,-1.0,1.0,1.0,7.m4v,4.0
2024-02-27 13:55:17.673070,1709038517.6730704,44.43359375,948.2421875,958.49609375,-39.0625,1.0,-1.0,1.0,1.0,7.m4v,4.0
2024-02-27 13:55:17.676976,1709038517.6769762,-92.28515625,974.609375,632.32421875,-39.0625,1.0,-1.0,1.0,1.0,7.m4v,4.0
2024-02-27 13:55:17.680882,1709038517.6808822,-122.0703125,969.7265625,674.31640625,-36.1328125,1.0,-1.0,1.0,1.0,7.m4v,4.0
2024-02-27 13:55:17.684788,1709038517.684788,34.1796875,969.7265625,978.02734375,-47.8515625,1.0,-1.0,1.0,1.0,7.m4v,4.0
2024-02-27 13:55:17.688697,1709038517.688697,53.7109375,969.7265625,976.5625,-52.734375,1.0,-1.0,1.0,1.0,7.m4v,4.0
2024-02-27 13:55:17.692603,1709038517.6926029,19.04296875,970.21484375,935.546875,-43.9453125,1.0,-1.0,1.0,1.0,7.m4v,4.0
2024-02-27 13:55:17.696509,1709038517.696509,-115.72265625,969.7265625,559.08203125,-26.85546875,1.0,-1.0,1.0,1.0,7.m4v,4.0
2024-02-27 13:55:17.700415,1709038517.700415,-136.23046875,970.703125,608.3984375,-34.66796875,1.0,-1.0,1.0,1.0,7.m4v,4.0
2024-02-27 13:55:17.704321,1709038517.704321,22.4609375,967.28515625,973.6328125,-35.15625,1.0,-1.0,1.0,1.0,7.m4v,4.0
2024-02-27 13:55:17.708226,1709038517.7082264,76.66015625,912.109375,972.16796875,-26.85546875,1.0,-1.0,1.0,1.0,7.m4v,4.0
2024-02-27 13:55:17.712132,1709038517.7121325,64.94140625,999.51171875,948.73046875,-37.109375,1.0,-1.0,1.0,1.0,7.m4v,4.0
2024-02-27 13:55:17.716038,1709038517.7160382,-278.3203125,135.7421875,423.33984375,-42.48046875,1.0,-1.0,1.0,1.0,7.m4v,4.0
2024-02-27 13:55:17.719944,1709038517.7199442,-453.125,-1000.0,179.6875,-51.26953125,1.0,-1.0,1.0,1.0,7.m4v,4.0
2024-02-27 13:55:17.723850,1709038517.72385,-141.11328125,-977.05078125,621.09375,-35.64453125,1.0,-1.0,1.0,1.0,7.m4v,4.0
2024-02-27 13:55:17.727756,1709038517.727756,53.22265625,-977.05078125,983.88671875,-41.015625,1.0,-1.0,1.0,1.0,7.m4v,4.0
2024-02-27 13:55:17.731662,1709038517.7316618,-9.765625,-1000.0,713.37890625,-51.26953125,1.0,-1.0,1.0,1.0,7.m4v,4.0
2024-02-27 13:55:17.735571,1709038517.735571,-223.6328125,-1000.0,14.6484375,-62.98828125,1.0,-1.0,1.0,1.0,7.m4v,4.0
2024-02-27 13:55:17.739477,1709038517.739477,-224.12109375,-1000.0,-97.16796875,-59.08203125,1.0,-1.0,1.0,1.0,7.m4v,4.0
2024-02-27 13:55:17.743382,1709038517.7433825,0.9765625,-1000.0,453.125,-31.73828125,1.0,-1.0,1.0,1.0,7.m4v,4.0
2024-02-27 13:55:17.747288,1709038517.7472885,181.15234375,-1000.0,986.81640625,-22.4609375,1.0,-1.0,1.0,1.0,7.m4v,4.0
2024-02-27 13:55:17.751194,1709038517.7511942,43.9453125,-1000.0,699.70703125,-28.80859375,1.0,-1.0,1.0,1.0,7.m4v,4.0
2024-02-27 13:55:17.759006,1709038517.759006,-169.921875,-1000.0,-25.87890625,-57.6171875,1.0,-1.0,1.0,1.0,7.m4v,4.0
2024-02-27 13:55:17.770724,1709038517.7707238,44.921875,-946.2890625,336.42578125,-37.59765625,1.0,-1.0,1.0,1.0,7.m4v,4.0
2024-02-27 13:55:17.778536,1709038517.7785356,-184.08203125,-751.953125,-544.43359375,-47.8515625,1.0,-1.0,1.0,1.0,7.m4v,4.0
2024-02-27 13:55:17.786350,1709038517.7863505,342.7734375,999.51171875,585.44921875,-18.06640625,1.0,-1.0,1.0,1.0,7.m4v,4.0
2024-02-27 13:55:17.798068,1709038517.7980678,-505.859375,-65.91796875,-1000.0,-60.546875,1.0,-1.0,1.0,1.0,7.m4v,4.0
2024-02-27 13:55:17.805880,1709038517.8058798,201.66015625,-954.58984375,314.453125,-26.3671875,1.0,-1.0,1.0,1.0,7.m4v,4.0
2024-02-27 13:55:17.813692,1709038517.8136916,-262.20703125,-1000.0,-813.4765625,-47.8515625,1.0,-1.0,1.0,1.0,7.m4v,4.0
2024-02-27 13:55:17.825409,1709038517.8254092,69.82421875,-1000.0,-410.15625,-51.26953125,1.0,-1.0,1.0,1.0,7.m4v,4.0
2024-02-27 13:55:17.837129,1709038517.8371294,-119.62890625,-1000.0,-1000.0,-41.015625,1.0,-1.0,1.0,1.0,7.m4v,4.0
2024-02-27 13:55:17.848847,1709038517.8488472,330.56640625,-249.0234375,18.06640625,-27.83203125,1.0,-1.0,1.0,1.0,7.m4v,4.0
2024-02-27 13:55:18.305865,1709038518.305865,240.234375,-1000.0,689.94140625,-31.25,1.0,-1.0,1.0,1.0,7.m4v,4.0
2024-02-27 13:55:18.309771,1709038518.3097708,272.4609375,-937.5,958.984375,-29.78515625,1.0,-1.0,1.0,1.0,7.m4v,4.0
2024-02-27 13:55:18.313677,1709038518.3136768,-76.66015625,-1000.0,236.328125,-29.78515625,1.0,-1.0,1.0,1.0,7.m4v,4.0
2024-02-27 13:55:18.317583,1709038518.3175826,-59.08203125,-219.7265625,-99.609375,-32.71484375,1.0,-1.0,1.0,1.0,7.m4v,4.0
2024-02-27 13:55:18.321489,1709038518.3214886,368.65234375,999.51171875,628.41796875,-11.23046875,1.0,-1.0,1.0,1.0,7.m4v,4.0
2024-02-27 13:55:18.325394,1709038518.3253944,302.734375,962.890625,999.51171875,-17.08984375,1.0,-1.0,1.0,1.0,7.m4v,4.0
2024-02-27 13:55:18.329300,1709038518.3293004,28.3203125,871.58203125,756.8359375,-37.109375,1.0,-1.0,1.0,1.0,7.m4v,4.0
2024-02-27 13:55:18.333206,1709038518.3332062,-182.12890625,999.51171875,-33.69140625,-49.31640625,1.0,-1.0,1.0,1.0,7.m4v,4.0
2024-02-27 13:55:18.337112,1709038518.3371122,-404.296875,375.9765625,-753.90625,-55.6640625,1.0,-1.0,1.0,1.0,7.m4v,4.0
2024-02-27 13:55:18.341018,1709038518.341018,-467.28515625,-991.2109375,-741.69921875,-59.5703125,1.0,-1.0,1.0,1.0,7.m4v,4.0
2024-02-27 13:55:18.344927,1709038518.3449273,-10.7421875,-1000.0,144.04296875,-40.0390625,1.0,-1.0,1.0,1.0,7.m4v,4.0
2024-02-27 13:55:18.348833,1709038518.348833,233.88671875,-963.37890625,607.421875,-29.78515625,1.0,-1.0,1.0,1.0,7.m4v,4.0
2024-02-27 13:55:18.352739,1709038518.352739,-51.26953125,-988.28125,-19.04296875,-33.69140625,1.0,-1.0,1.0,1.0,7.m4v,4.0
2024-02-27 13:55:18.356645,1709038518.356645,-231.93359375,-979.4921875,-544.921875,-50.29296875,1.0,-1.0,1.0,1.0,7.m4v,4.0
2024-02-27 13:55:18.360551,1709038518.3605509,-143.5546875,-1000.0,-269.04296875,-49.8046875,1.0,-1.0,1.0,1.0,7.m4v,4.0
2024-02-27 13:55:18.364457,1709038518.364457,316.89453125,144.53125,581.0546875,-19.04296875,1.0,-1.0,1.0,1.0,7.m4v,4.0
2024-02-27 13:55:18.368363,1709038518.368363,482.91015625,999.51171875,999.51171875,-26.85546875,1.0,-1.0,1.0,1.0,7.m4v,4.0
2024-02-27 13:55:18.372269,1709038518.372269,45.8984375,913.0859375,411.1328125,-27.34375,1.0,-1.0,1.0,1.0,7.m4v,4.0
2024-02-27 13:55:18.376174,1709038518.3761744,-314.453125,966.796875,-512.6953125,-50.29296875,1.0,-1.0,1.0,1.0,7.m4v,4.0
2024-02-27 13:55:18.380080,1709038518.3800805,-106.93359375,970.703125,-143.5546875,-55.17578125,1.0,-1.0,1.0,1.0,7.m4v,4.0
2024-02-27 13:55:18.383986,1709038518.3839862,212.890625,969.7265625,693.359375,-20.5078125,1.0,-1.0,1.0,1.0,7.m4v,4.0
2024-02-27 13:55:18.426955,1709038518.4269545,71.2890625,-937.98828125,227.5390625,-21.484375,1.0,-1.0,1.0,1.0,7.m4v,4.0
2024-02-27 13:55:18.426955,1709038518.4269545,71.2890625,-937.98828125,227.5390625,-21.484375,1.0,-1.0,1.0,1.0,7.m4v,4.0
2024-02-27 13:55:18.426955,1709038518.4269545,71.2890625,-937.98828125,227.5390625,-21.484375,1.0,-1.0,1.0,1.0,7.m4v,4.0
2024-02-27 13:55:18.430860,1709038518.4308603,4.8828125,-1000.0,-56.15234375,-33.203125,1.0,-1.0,1.0,1.0,7.m4v,4.0
2024-02-27 13:55:18.430860,1709038518.4308603,4.8828125,-1000.0,-56.15234375,-33.203125,1.0,-1.0,1.0,1.0,7.m4v,4.0
2024-02-27 13:55:18.430860,1709038518.4308603,4.8828125,-1000.0,-56.15234375,-33.203125,1.0,-1.0,1.0,1.0,7.m4v,4.0
2024-02-27 13:55:18.434766,1709038518.4347663,-296.875,-1000.0,-883.30078125,-61.5234375,1.0,-1.0,1.0,1.0,7.m4v,4.0
2024-02-27 13:55:18.434766,1709038518.4347663,-296.875,-1000.0,-883.30078125,-61.5234375,1.0,-1.0,1.0,1.0,7.m4v,4.0
2024-02-27 13:55:18.434766,1709038518.4347663,-296.875,-1000.0,-883.30078125,-61.5234375,1.0,-1.0,1.0,1.0,7.m4v,4.0
2024-02-27 13:55:18.438676,1709038518.4386756,-203.125,-1000.0,-839.84375,-54.6875,1.0,-1.0,1.0,1.0,7.m4v,4.0
2024-02-27 13:55:18.438676,1709038518.4386756,-203.125,-1000.0,-839.84375,-54.6875,1.0,-1.0,1.0,1.0,7.m4v,4.0
2024-02-27 13:55:18.438676,1709038518.4386756,-203.125,-1000.0,-839.84375,-54.6875,1.0,-1.0,1.0,1.0,7.m4v,4.0
2024-02-27 13:55:18.442581,1709038518.4425814,30.76171875,-1000.0,-224.12109375,-21.97265625,1.0,-1.0,1.0,1.0,7.m4v,4.0
2024-02-27 13:55:18.442581,1709038518.4425814,30.76171875,-1000.0,-224.12109375,-21.97265625,1.0,-1.0,1.0,1.0,7.m4v,4.0
2024-02-27 13:55:18.442581,1709038518.4425814,30.76171875,-1000.0,-224.12109375,-21.97265625,1.0,-1.0,1.0,1.0,7.m4v,4.0
2024-02-27 13:55:18.446487,1709038518.4464874,144.04296875,-1000.0,233.88671875,-20.5078125,1.0,-1.0,1.0,1.0,7.m4v,4.0
2024-02-27 13:55:18.446487,1709038518.4464874,144.04296875,-1000.0,233.88671875,-20.5078125,1.0,-1.0,1.0,1.0,7.m4v,4.0
2024-02-27 13:55:18.446487,1709038518.4464874,144.04296875,-1000.0,233.88671875,-20.5078125,1.0,-1.0,1.0,1.0,7.m4v,4.0
2024-02-27 13:55:18.450393,1709038518.4503932,95.703125,-980.95703125,155.76171875,-43.45703125,1.0,-1.0,1.0,1.0,7.m4v,4.0
2024-02-27 13:55:18.450393,1709038518.4503932,95.703125,-980.95703125,155.76171875,-43.45703125,1.0,-1.0,1.0,1.0,7.m4v,4.0
2024-02-27 13:55:18.450393,1709038518.4503932,95.703125,-980.95703125,155.76171875,-43.45703125,1.0,-1.0,1.0,1.0,7.m4v,4.0
2024-02-27 13:55:18.454299,1709038518.4542992,-187.01171875,-969.7265625,-618.65234375,-41.9921875,1.0,-1.0,1.0,1.0,7.m4v,4.0
2024-02-27 13:55:18.454299,1709038518.4542992,-187.01171875,-969.7265625,-618.65234375,-41.9921875,1.0,-1.0,1.0,1.0,7.m4v,4.0
2024-02-27 13:55:18.454299,1709038518.4542992,-187.01171875,-969.7265625,-618.65234375,-41.9921875,1.0,-1.0,1.0,1.0,7.m4v,4.0
2024-02-27 13:55:18.458205,1709038518.458205,-227.05078125,-1000.0,-801.26953125,-26.3671875,1.0,-1.0,1.0,1.0,7.m4v,4.0
2024-02-27 13:55:18.458205,1709038518.458205,-227.05078125,-1000.0,-801.26953125,-26.3671875,1.0,-1.0,1.0,1.0,7.m4v,4.0
2024-02-27 13:55:18.458205,1709038518.458205,-227.05078125,-1000.0,-801.26953125,-26.3671875,1.0,-1.0,1.0,1.0,7.m4v,4.0
2024-02-27 13:55:18.462111,1709038518.462111,213.8671875,80.078125,12.6953125,-28.80859375,1.0,-1.0,1.0,1.0,7.m4v,4.0
2024-02-27 13:55:18.462111,1709038518.462111,213.8671875,80.078125,12.6953125,-28.80859375,1.0,-1.0,1.0,1.0,7.m4v,4.0
2024-02-27 13:55:18.462111,1709038518.462111,213.8671875,80.078125,12.6953125,-28.80859375,1.0,-1.0,1.0,1.0,7.m4v,4.0
2024-02-27 13:55:18.466017,1709038518.4660168,465.33203125,999.51171875,692.3828125,-21.484375,1.0,-1.0,1.0,1.0,7.m4v,4.0
2024-02-27 13:55:18.466017,1709038518.4660168,465.33203125,999.51171875,692.3828125,-21.484375,1.0,-1.0,1.0,1.0,7.m4v,4.0
2024-02-27 13:55:18.466017,1709038518.4660168,465.33203125,999.51171875,692.3828125,-21.484375,1.0,-1.0,1.0,1.0,7.m4v,4.0
2024-02-27 13:55:18.469923,1709038518.4699228,176.26953125,917.96875,426.26953125,-24.90234375,1.0,-1.0,1.0,1.0,7.m4v,4.0
2024-02-27 13:55:18.469923,1709038518.4699228,176.26953125,917.96875,426.26953125,-24.90234375,1.0,-1.0,1.0,1.0,7.m4v,4.0
2024-02-27 13:55:18.469923,1709038518.4699228,176.26953125,917.96875,426.26953125,-24.90234375,1.0,-1.0,1.0,1.0,7.m4v,4.0
2024-02-27 13:55:18.473829,1709038518.4738286,-161.62109375,963.37890625,-439.94140625,-45.8984375,1.0,-1.0,1.0,1.0,7.m4v,4.0
2024-02-27 13:55:18.477735,1709038518.4777346,-260.7421875,971.19140625,-883.30078125,-46.875,1.0,-1.0,1.0,1.0,7.m4v,4.0
2024-02-27 13:55:18.481640,1709038518.4816403,-86.42578125,969.7265625,-525.390625,-30.2734375,1.0,-1.0,1.0,1.0,7.m4v,4.0
2024-02-27 13:55:18.485549,1709038518.4855492,204.58984375,969.7265625,269.04296875,-21.97265625,1.0,-1.0,1.0,1.0,7.m4v,4.0
2024-02-27 13:55:18.489455,1709038518.4894552,208.49609375,969.7265625,411.62109375,-32.2265625,1.0,-1.0,1.0,1.0,7.m4v,4.0
2024-02-27 13:55:18.493361,1709038518.493361,-119.62890625,969.7265625,-388.671875,-32.71484375,1.0,-1.0,1.0,1.0,7.m4v,4.0
2024-02-27 13:55:18.497267,1709038518.497267,-180.6640625,969.7265625,-628.41796875,-38.57421875,1.0,-1.0,1.0,1.0,7.m4v,4.0
2024-02-27 13:55:18.501173,1709038518.5011728,-41.9921875,973.14453125,-233.3984375,-39.0625,1.0,-1.0,1.0,1.0,7.m4v,4.0
2024-02-27 13:55:18.505079,1709038518.5050788,155.76171875,903.3203125,434.5703125,-26.85546875,1.0,-1.0,1.0,1.0,7.m4v,4.0
2024-02-27 13:55:18.508985,1709038518.5089846,327.63671875,999.51171875,949.21875,-30.2734375,1.0,-1.0,1.0,1.0,7.m4v,4.0
2024-02-27 13:55:18.512891,1709038518.5128906,-195.80078125,246.58203125,-6.34765625,-39.0625,1.0,-1.0,1.0,1.0,7.m4v,4.0
2024-02-27 13:55:18.516796,1709038518.5167964,-665.0390625,-1000.0,-984.375,-53.22265625,1.0,-1.0,1.0,1.0,7.m4v,4.0
2024-02-27 13:55:18.520702,1709038518.5207024,-390.625,-993.65234375,-894.53125,-47.8515625,1.0,-1.0,1.0,1.0,7.m4v,4.0
2024-02-27 13:55:18.520702,1709038518.5207024,-390.625,-993.65234375,-894.53125,-47.8515625,1.0,-1.0,1.0,1.0,7.m4v,4.0
2024-02-27 13:55:18.520702,1709038518.5207024,-390.625,-993.65234375,-894.53125,-47.8515625,1.0,-1.0,1.0,1.0,7.m4v,4.0
2024-02-27 13:55:18.524608,1709038518.524608,37.109375,-968.26171875,-130.37109375,-45.41015625,1.0,-1.0,1.0,1.0,7.m4v,4.0
2024-02-27 13:55:18.524608,1709038518.524608,37.109375,-968.26171875,-130.37109375,-45.41015625,1.0,-1.0,1.0,1.0,7.m4v,4.0
2024-02-27 13:55:18.524608,1709038518.524608,37.109375,-968.26171875,-130.37109375,-45.41015625,1.0,-1.0,1.0,1.0,7.m4v,4.0
2024-02-27 13:55:18.528514,1709038518.528514,240.234375,-1000.0,438.4765625,-41.015625,1.0,-1.0,1.0,1.0,7.m4v,4.0
2024-02-27 13:55:18.528514,1709038518.528514,240.234375,-1000.0,438.4765625,-41.015625,1.0,-1.0,1.0,1.0,7.m4v,4.0
2024-02-27 13:55:18.528514,1709038518.528514,240.234375,-1000.0,438.4765625,-41.015625,1.0,-1.0,1.0,1.0,7.m4v,4.0
2024-02-27 13:55:18.532423,1709038518.5324228,-34.1796875,-1000.0,-229.00390625,-30.2734375,1.0,-1.0,1.0,1.0,7.m4v,4.0
2024-02-27 13:55:18.532423,1709038518.5324228,-34.1796875,-1000.0,-229.00390625,-30.2734375,1.0,-1.0,1.0,1.0,7.m4v,4.0
2024-02-27 13:55:18.532423,1709038518.5324228,-34.1796875,-1000.0,-229.00390625,-30.2734375,1.0,-1.0,1.0,1.0,7.m4v,4.0
2024-02-27 13:55:18.536329,1709038518.5363286,-295.41015625,-1000.0,-982.91015625,-42.96875,1.0,-1.0,1.0,1.0,7.m4v,4.0
2024-02-27 13:55:18.536329,1709038518.5363286,-295.41015625,-1000.0,-982.91015625,-42.96875,1.0,-1.0,1.0,1.0,7.m4v,4.0
2024-02-27 13:55:18.536329,1709038518.5363286,-295.41015625,-1000.0,-982.91015625,-42.96875,1.0,-1.0,1.0,1.0,7.m4v,4.0
2024-02-27 13:55:18.540235,1709038518.5402346,-173.828125,-985.3515625,-829.1015625,-39.0625,1.0,-1.0,1.0,1.0,7.m4v,4.0
2024-02-27 13:55:18.540235,1709038518.5402346,-173.828125,-985.3515625,-829.1015625,-39.0625,1.0,-1.0,1.0,1.0,7.m4v,4.0
2024-02-27 13:55:18.540235,1709038518.5402346,-173.828125,-985.3515625,-829.1015625,-39.0625,1.0,-1.0,1.0,1.0,7.m4v,4.0
2024-02-27 13:55:18.544140,1709038518.5441403,152.83203125,-961.9140625,38.0859375,-20.5078125,1.0,-1.0,1.0,1.0,7.m4v,4.0
2024-02-27 13:55:18.544140,1709038518.5441403,152.83203125,-961.9140625,38.0859375,-20.5078125,1.0,-1.0,1.0,1.0,7.m4v,4.0
2024-02-27 13:55:18.544140,1709038518.5441403,152.83203125,-961.9140625,38.0859375,-20.5078125,1.0,-1.0,1.0,1.0,7.m4v,4.0
2024-02-27 13:55:18.548046,1709038518.5480464,224.12109375,-1000.0,520.5078125,-40.0390625,1.0,-1.0,1.0,1.0,7.m4v,4.0
2024-02-27 13:55:18.548046,1709038518.5480464,224.12109375,-1000.0,520.5078125,-40.0390625,1.0,-1.0,1.0,1.0,7.m4v,4.0
2024-02-27 13:55:18.548046,1709038518.5480464,224.12109375,-1000.0,520.5078125,-40.0390625,1.0,-1.0,1.0,1.0,7.m4v,4.0
2024-02-27 13:55:18.551952,1709038518.551952,277.83203125,20.5078125,418.9453125,-36.62109375,1.0,-1.0,1.0,1.0,7.m4v,4.0
2024-02-27 13:55:18.551952,1709038518.551952,277.83203125,20.5078125,418.9453125,-36.62109375,1.0,-1.0,1.0,1.0,7.m4v,4.0
2024-02-27 13:55:18.551952,1709038518.551952,277.83203125,20.5078125,418.9453125,-36.62109375,1.0,-1.0,1.0,1.0,7.m4v,4.0
2024-02-27 13:55:18.555858,1709038518.555858,161.1328125,999.51171875,31.25,-25.87890625,1.0,-1.0,1.0,1.0,7.m4v,4.0
2024-02-27 13:55:18.555858,1709038518.555858,161.1328125,999.51171875,31.25,-25.87890625,1.0,-1.0,1.0,1.0,7.m4v,4.0
2024-02-27 13:55:18.555858,1709038518.555858,161.1328125,999.51171875,31.25,-25.87890625,1.0,-1.0,1.0,1.0,7.m4v,4.0
2024-02-27 13:55:18.559764,1709038518.559764,-111.81640625,923.33984375,-136.23046875,-44.921875,1.0,-1.0,1.0,1.0,7.m4v,4.0
2024-02-27 13:55:18.559764,1709038518.559764,-111.81640625,923.33984375,-136.23046875,-44.921875,1.0,-1.0,1.0,1.0,7.m4v,4.0
2024-02-27 13:55:18.559764,1709038518.559764,-111.81640625,923.33984375,-136.23046875,-44.921875,1.0,-1.0,1.0,1.0,7.m4v,4.0
2024-02-27 13:55:18.563670,1709038518.56367,11.71875,959.9609375,345.21484375,-37.109375,1.0,-1.0,1.0,1.0,7.m4v,4.0
2024-02-27 13:55:18.563670,1709038518.56367,11.71875,959.9609375,345.21484375,-37.109375,1.0,-1.0,1.0,1.0,7.m4v,4.0
2024-02-27 13:55:18.563670,1709038518.56367,11.71875,959.9609375,345.21484375,-37.109375,1.0,-1.0,1.0,1.0,7.m4v,4.0
2024-02-27 13:55:18.567576,1709038518.5675757,140.13671875,972.16796875,711.42578125,-33.69140625,1.0,-1.0,1.0,1.0,7.m4v,4.0
2024-02-27 13:55:18.567576,1709038518.5675757,140.13671875,972.16796875,711.42578125,-33.69140625,1.0,-1.0,1.0,1.0,7.m4v,4.0
2024-02-27 13:55:18.567576,1709038518.5675757,140.13671875,972.16796875,711.42578125,-33.69140625,1.0,-1.0,1.0,1.0,7.m4v,4.0
2024-02-27 13:55:18.571482,1709038518.5714817,-2.9296875,969.7265625,319.82421875,-36.1328125,1.0,-1.0,1.0,1.0,7.m4v,4.0
2024-02-27 13:55:18.571482,1709038518.5714817,-2.9296875,969.7265625,319.82421875,-36.1328125,1.0,-1.0,1.0,1.0,7.m4v,4.0
2024-02-27 13:55:18.571482,1709038518.5714817,-2.9296875,969.7265625,319.82421875,-36.1328125,1.0,-1.0,1.0,1.0,7.m4v,4.0
2024-02-27 13:55:18.575387,1709038518.5753877,-289.0625,969.7265625,-518.5546875,-53.7109375,1.0,-1.0,1.0,1.0,7.m4v,4.0
2024-02-27 13:55:18.575387,1709038518.5753877,-289.0625,969.7265625,-518.5546875,-53.7109375,1.0,-1.0,1.0,1.0,7.m4v,4.0
2024-02-27 13:55:18.579296,1709038518.579296,-284.1796875,969.7265625,-648.92578125,-70.3125,1.0,-1.0,1.0,1.0,7.m4v,4.0
2024-02-27 13:55:18.579296,1709038518.579296,-284.1796875,969.7265625,-648.92578125,-70.3125,1.0,-1.0,1.0,1.0,7.m4v,4.0
2024-02-27 13:55:18.583202,1709038518.583202,-13.671875,982.421875,23.4375,-63.96484375,1.0,-1.0,1.0,1.0,7.m4v,4.0
2024-02-27 13:55:18.583202,1709038518.583202,-13.671875,982.421875,23.4375,-63.96484375,1.0,-1.0,1.0,1.0,7.m4v,4.0
2024-02-27 13:55:18.587108,1709038518.587108,242.67578125,897.4609375,753.90625,-41.50390625,1.0,-1.0,1.0,1.0,7.m4v,4.0
2024-02-27 13:55:18.587108,1709038518.587108,242.67578125,897.4609375,753.90625,-41.50390625,1.0,-1.0,1.0,1.0,7.m4v,4.0
2024-02-27 13:55:18.591014,1709038518.5910137,103.02734375,999.51171875,535.15625,-55.6640625,1.0,-1.0,1.0,1.0,7.m4v,4.0
2024-02-27 13:55:18.591014,1709038518.5910137,103.02734375,999.51171875,535.15625,-55.6640625,1.0,-1.0,1.0,1.0,7.m4v,4.0
2024-02-27 13:55:18.594920,1709038518.5949197,-311.03515625,482.91015625,-429.6875,-51.7578125,1.0,-1.0,1.0,1.0,7.m4v,4.0
2024-02-27 13:55:18.594920,1709038518.5949197,-311.03515625,482.91015625,-429.6875,-51.7578125,1.0,-1.0,1.0,1.0,7.m4v,4.0
2024-02-27 13:55:18.598826,1709038518.5988257,-445.80078125,-930.17578125,-572.265625,-45.8984375,1.0,-1.0,1.0,1.0,7.m4v,4.0
2024-02-27 13:55:18.598826,1709038518.5988257,-445.80078125,-930.17578125,-572.265625,-45.8984375,1.0,-1.0,1.0,1.0,7.m4v,4.0
2024-02-27 13:55:18.602731,1709038518.6027317,-105.95703125,-1000.0,215.8203125,-57.6171875,1.0,-1.0,1.0,1.0,7.m4v,4.0
2024-02-27 13:55:18.602731,1709038518.6027317,-105.95703125,-1000.0,215.8203125,-57.6171875,1.0,-1.0,1.0,1.0,7.m4v,4.0
2024-02-27 13:55:18.606637,1709038518.6066377,82.03125,-949.70703125,558.59375,-27.83203125,1.0,-1.0,1.0,1.0,7.m4v,4.0
2024-02-27 13:55:18.606637,1709038518.6066377,82.03125,-949.70703125,558.59375,-27.83203125,1.0,-1.0,1.0,1.0,7.m4v,4.0
2024-02-27 13:55:18.610543,1709038518.6105433,-30.76171875,-1000.0,257.32421875,-42.48046875,1.0,-1.0,1.0,1.0,7.m4v,4.0
2024-02-27 13:55:18.610543,1709038518.6105433,-30.76171875,-1000.0,257.32421875,-42.48046875,1.0,-1.0,1.0,1.0,7.m4v,4.0
2024-02-27 13:55:18.614449,1709038518.6144493,-242.67578125,-1000.0,-476.5625,-47.36328125,1.0,-1.0,1.0,1.0,7.m4v,4.0
2024-02-27 13:55:18.614449,1709038518.6144493,-242.67578125,-1000.0,-476.5625,-47.36328125,1.0,-1.0,1.0,1.0,7.m4v,4.0
2024-02-27 13:55:18.618355,1709038518.618355,-203.61328125,-1000.0,-576.66015625,-24.4140625,1.0,-1.0,1.0,1.0,7.m4v,4.0
2024-02-27 13:55:18.618355,1709038518.618355,-203.61328125,-1000.0,-576.66015625,-24.4140625,1.0,-1.0,1.0,1.0,7.m4v,4.0
2024-02-27 13:55:18.622261,1709038518.622261,34.1796875,-1000.0,88.8671875,-33.203125,1.0,-1.0,1.0,1.0,7.m4v,4.0
2024-02-27 13:55:18.622261,1709038518.622261,34.1796875,-1000.0,88.8671875,-33.203125,1.0,-1.0,1.0,1.0,7.m4v,4.0
2024-02-27 13:55:18.626171,1709038518.6261706,157.71484375,-1000.0,597.65625,-28.80859375,1.0,-1.0,1.0,1.0,7.m4v,4.0
2024-02-27 13:55:18.626171,1709038518.6261706,157.71484375,-1000.0,597.65625,-28.80859375,1.0,-1.0,1.0,1.0,7.m4v,4.0
2024-02-27 13:55:18.630077,1709038518.6300766,104.98046875,-1000.0,490.72265625,-19.04296875,1.0,-1.0,1.0,1.0,7.m4v,4.0
2024-02-27 13:55:18.630077,1709038518.6300766,104.98046875,-1000.0,490.72265625,-19.04296875,1.0,-1.0,1.0,1.0,7.m4v,4.0
2024-02-27 13:55:18.633982,1709038518.6339824,-201.171875,-998.046875,-334.9609375,-39.0625,1.0,-1.0,1.0,1.0,7.m4v,4.0
2024-02-27 13:55:18.633982,1709038518.6339824,-201.171875,-998.046875,-334.9609375,-39.0625,1.0,-1.0,1.0,1.0,7.m4v,4.0
2024-02-27 13:55:18.637888,1709038518.6378884,-322.265625,-941.89453125,-816.40625,-41.9921875,1.0,-1.0,1.0,1.0,7.m4v,4.0
2024-02-27 13:55:18.637888,1709038518.6378884,-322.265625,-941.89453125,-816.40625,-41.9921875,1.0,-1.0,1.0,1.0,7.m4v,4.0
2024-02-27 13:55:18.641794,1709038518.6417942,-137.6953125,-1000.0,-432.6171875,-31.25,1.0,-1.0,1.0,1.0,7.m4v,4.0
2024-02-27 13:55:18.641794,1709038518.6417942,-137.6953125,-1000.0,-432.6171875,-31.25,1.0,-1.0,1.0,1.0,7.m4v,4.0
2024-02-27 13:55:18.645700,1709038518.6457002,381.34765625,-173.828125,571.77734375,-12.20703125,1.0,-1.0,1.0,1.0,7.m4v,4.0
2024-02-27 13:55:18.645700,1709038518.6457002,381.34765625,-173.828125,571.77734375,-12.20703125,1.0,-1.0,1.0,1.0,7.m4v,4.0
2024-02-27 13:55:18.649606,1709038518.649606,488.28125,993.1640625,832.51953125,-21.484375,1.0,-1.0,1.0,1.0,7.m4v,4.0
2024-02-27 13:55:18.649606,1709038518.649606,488.28125,993.1640625,832.51953125,-21.484375,1.0,-1.0,1.0,1.0,7.m4v,4.0
2024-02-27 13:55:18.653512,1709038518.653512,-83.0078125,999.51171875,-241.69921875,-42.96875,1.0,-1.0,1.0,1.0,7.m4v,4.0
2024-02-27 13:55:18.653512,1709038518.653512,-83.0078125,999.51171875,-241.69921875,-42.96875,1.0,-1.0,1.0,1.0,7.m4v,4.0
2024-02-27 13:55:18.809759,1709038518.809759,43.9453125,-1000.0,-329.1015625,-36.1328125,1.0,-1.0,1.0,1.0,7.m4v,4.0
2024-02-27 13:55:18.809759,1709038518.809759,43.9453125,-1000.0,-329.1015625,-36.1328125,1.0,-1.0,1.0,1.0,7.m4v,4.0
2024-02-27 13:55:18.813668,1709038518.8136678,-171.875,-1000.0,-892.578125,-49.8046875,1.0,-1.0,1.0,1.0,7.m4v,4.0
2024-02-27 13:55:18.813668,1709038518.8136678,-171.875,-1000.0,-892.578125,-49.8046875,1.0,-1.0,1.0,1.0,7.m4v,4.0
2024-02-27 13:55:18.817574,1709038518.8175735,-161.62109375,-1000.0,-1000.0,-43.9453125,1.0,-1.0,1.0,1.0,7.m4v,4.0
2024-02-27 13:55:18.817574,1709038518.8175735,-161.62109375,-1000.0,-1000.0,-43.9453125,1.0,-1.0,1.0,1.0,7.m4v,4.0
2024-02-27 13:55:18.821480,1709038518.8214796,-79.58984375,-987.3046875,-891.6015625,-23.92578125,1.0,-1.0,1.0,1.0,7.m4v,4.0
2024-02-27 13:55:18.821480,1709038518.8214796,-79.58984375,-987.3046875,-891.6015625,-23.92578125,1.0,-1.0,1.0,1.0,7.m4v,4.0
2024-02-27 13:55:18.825385,1709038518.825385,131.8359375,-959.47265625,-231.4453125,-27.83203125,1.0,-1.0,1.0,1.0,7.m4v,4.0
2024-02-27 13:55:18.825385,1709038518.825385,131.8359375,-959.47265625,-231.4453125,-27.83203125,1.0,-1.0,1.0,1.0,7.m4v,4.0
2024-02-27 13:55:18.829291,1709038518.829291,178.22265625,-1000.0,33.69140625,-47.36328125,1.0,-1.0,1.0,1.0,7.m4v,4.0
2024-02-27 13:55:18.829291,1709038518.829291,178.22265625,-1000.0,33.69140625,-47.36328125,1.0,-1.0,1.0,1.0,7.m4v,4.0
2024-02-27 13:55:18.833197,1709038518.833197,168.45703125,-5.37109375,-252.44140625,-45.41015625,1.0,-1.0,1.0,1.0,7.m4v,4.0
2024-02-27 13:55:18.833197,1709038518.833197,168.45703125,-5.37109375,-252.44140625,-45.41015625,1.0,-1.0,1.0,1.0,7.m4v,4.0
2024-02-27 13:55:18.837103,1709038518.8371031,125.48828125,999.51171875,-487.3046875,-50.29296875,1.0,-1.0,1.0,1.0,7.m4v,4.0
2024-02-27 13:55:18.837103,1709038518.8371031,125.48828125,999.51171875,-487.3046875,-50.29296875,1.0,-1.0,1.0,1.0,7.m4v,4.0
2024-02-27 13:55:18.841009,1709038518.841009,-31.25,926.7578125,-458.0078125,-43.9453125,1.0,-1.0,1.0,1.0,7.m4v,4.0
2024-02-27 13:55:18.841009,1709038518.841009,-31.25,926.7578125,-458.0078125,-43.9453125,1.0,-1.0,1.0,1.0,7.m4v,4.0
2024-02-27 13:55:18.844915,1709038518.844915,205.56640625,958.0078125,340.33203125,-40.0390625,1.0,-1.0,1.0,1.0,7.m4v,4.0
2024-02-27 13:55:18.844915,1709038518.844915,205.56640625,958.0078125,340.33203125,-40.0390625,1.0,-1.0,1.0,1.0,7.m4v,4.0
2024-02-27 13:55:18.848821,1709038518.8488207,275.390625,972.65625,657.2265625,-38.0859375,1.0,-1.0,1.0,1.0,7.m4v,4.0
2024-02-27 13:55:18.848821,1709038518.8488207,275.390625,972.65625,657.2265625,-38.0859375,1.0,-1.0,1.0,1.0,7.m4v,4.0
2024-02-27 13:55:18.852727,1709038518.8527267,-65.91796875,970.21484375,-149.4140625,-40.0390625,1.0,-1.0,1.0,1.0,7.m4v,4.0
2024-02-27 13:55:18.852727,1709038518.8527267,-65.91796875,970.21484375,-149.4140625,-40.0390625,1.0,-1.0,1.0,1.0,7.m4v,4.0
2024-02-27 13:55:18.856632,1709038518.8566325,-275.390625,969.7265625,-816.89453125,-45.8984375,1.0,-1.0,1.0,1.0,7.m4v,4.0
2024-02-27 13:55:18.856632,1709038518.8566325,-275.390625,969.7265625,-816.89453125,-45.8984375,1.0,-1.0,1.0,1.0,7.m4v,4.0
2024-02-27 13:55:18.860543,1709038518.8605428,-41.015625,969.7265625,-358.88671875,-34.1796875,1.0,-1.0,1.0,1.0,7.m4v,4.0
2024-02-27 13:55:18.860543,1709038518.8605428,-41.015625,969.7265625,-358.88671875,-34.1796875,1.0,-1.0,1.0,1.0,7.m4v,4.0
2024-02-27 13:55:18.864449,1709038518.8644488,192.3828125,969.7265625,369.140625,-26.3671875,1.0,-1.0,1.0,1.0,7.m4v,4.0
2024-02-27 13:55:18.864449,1709038518.8644488,192.3828125,969.7265625,369.140625,-26.3671875,1.0,-1.0,1.0,1.0,7.m4v,4.0
2024-02-27 13:55:18.868355,1709038518.8683546,142.08984375,969.7265625,470.21484375,-36.62109375,1.0,-1.0,1.0,1.0,7.m4v,4.0
2024-02-27 13:55:18.868355,1709038518.8683546,142.08984375,969.7265625,470.21484375,-36.62109375,1.0,-1.0,1.0,1.0,7.m4v,4.0
2024-02-27 13:55:18.872261,1709038518.8722606,-14.16015625,969.7265625,29.78515625,-42.96875,1.0,-1.0,1.0,1.0,7.m4v,4.0
2024-02-27 13:55:18.872261,1709038518.8722606,-14.16015625,969.7265625,29.78515625,-42.96875,1.0,-1.0,1.0,1.0,7.m4v,4.0
2024-02-27 13:55:18.876166,1709038518.8761663,-222.65625,979.98046875,-589.84375,-34.66796875,1.0,-1.0,1.0,1.0,7.m4v,4.0
2024-02-27 13:55:18.876166,1709038518.8761663,-222.65625,979.98046875,-589.84375,-34.66796875,1.0,-1.0,1.0,1.0,7.m4v,4.0
2024-02-27 13:55:18.880072,1709038518.8800724,-129.39453125,927.734375,-341.796875,-28.3203125,1.0,-1.0,1.0,1.0,7.m4v,4.0
2024-02-27 13:55:18.880072,1709038518.8800724,-129.39453125,927.734375,-341.796875,-28.3203125,1.0,-1.0,1.0,1.0,7.m4v,4.0
2024-02-27 13:55:18.883978,1709038518.883978,263.18359375,993.1640625,702.63671875,-15.625,1.0,-1.0,1.0,1.0,7.m4v,4.0
2024-02-27 13:55:18.887884,1709038518.887884,227.05078125,909.66796875,909.1796875,-35.15625,1.0,-1.0,1.0,1.0,7.m4v,4.0
2024-02-27 13:55:18.891790,1709038518.89179,-290.0390625,-418.9453125,91.30859375,-71.2890625,1.0,-1.0,1.0,1.0,7.m4v,4.0
2024-02-27 13:55:18.895696,1709038518.895696,-504.39453125,-1000.0,-709.9609375,-59.08203125,1.0,-1.0,1.0,1.0,7.m4v,4.0
2024-02-27 13:55:18.899602,1709038518.8996017,-266.11328125,-937.5,-659.66796875,-45.41015625,1.0,-1.0,1.0,1.0,7.m4v,4.0
2024-02-27 13:55:18.903508,1709038518.9035077,55.17578125,-1000.0,140.625,-47.36328125,1.0,-1.0,1.0,1.0,7.m4v,4.0
2024-02-27 13:55:18.907416,1709038518.9074163,250.0,-1000.0,773.92578125,-15.13671875,1.0,-1.0,1.0,1.0,7.m4v,4.0
2024-02-27 13:55:18.911322,1709038518.911322,46.875,-939.453125,358.88671875,-14.16015625,1.0,-1.0,1.0,1.0,7.m4v,4.0
2024-02-27 13:55:18.915228,1709038518.915228,-268.5546875,-1000.0,-501.953125,-39.0625,1.0,-1.0,1.0,1.0,7.m4v,4.0
2024-02-27 13:55:18.919134,1709038518.919134,-143.06640625,-735.3515625,-358.3984375,-30.76171875,1.0,-1.0,1.0,1.0,7.m4v,4.0
2024-02-27 13:55:18.923040,1709038518.92304,334.9609375,670.41015625,552.24609375,-22.4609375,1.0,-1.0,1.0,1.0,7.m4v,4.0
2024-02-27 13:55:18.926946,1709038518.9269457,442.3828125,999.51171875,999.51171875,-30.76171875,1.0,-1.0,1.0,1.0,7.m4v,4.0
2024-02-27 13:55:18.930852,1709038518.9308517,170.41015625,909.1796875,791.9921875,-28.3203125,1.0,-1.0,1.0,1.0,7.m4v,4.0
2024-02-27 13:55:18.934757,1709038518.9347577,-209.47265625,981.93359375,-129.8828125,-35.64453125,1.0,-1.0,1.0,1.0,7.m4v,4.0
2024-02-27 13:55:18.938663,1709038518.9386635,-309.5703125,969.7265625,-599.609375,-43.9453125,1.0,-1.0,1.0,1.0,7.m4v,4.0
2024-02-27 13:55:18.942569,1709038518.9425695,-76.66015625,969.7265625,-113.76953125,-27.83203125,1.0,-1.0,1.0,1.0,7.m4v,4.0
2024-02-27 13:55:18.946475,1709038518.9464753,188.4765625,969.7265625,606.4453125,-30.76171875,1.0,-1.0,1.0,1.0,7.m4v,4.0
2024-02-27 13:55:18.950381,1709038518.9503813,197.75390625,969.7265625,716.796875,-36.1328125,1.0,-1.0,1.0,1.0,7.m4v,4.0
2024-02-27 13:55:18.954290,1709038518.9542897,-80.56640625,969.7265625,48.828125,-35.15625,1.0,-1.0,1.0,1.0,7.m4v,4.0
2024-02-27 13:55:18.958195,1709038518.9581954,-230.95703125,969.7265625,-327.63671875,-43.9453125,1.0,-1.0,1.0,1.0,7.m4v,4.0
2024-02-27 13:55:18.962101,1709038518.9621017,-108.3984375,969.7265625,-28.80859375,-27.34375,1.0,-1.0,1.0,1.0,7.m4v,4.0
2024-02-27 13:55:18.969913,1709038518.9699132,131.8359375,977.5390625,662.59765625,-34.66796875,1.0,-1.0,1.0,1.0,7.m4v,4.0
2024-02-27 13:55:18.977725,1709038518.977725,-126.46484375,999.51171875,-119.140625,-35.15625,1.0,-1.0,1.0,1.0,7.m4v,4.0
2024-02-27 13:55:18.985537,1709038518.9855368,-238.76953125,-1000.0,173.828125,-46.38671875,1.0,-1.0,1.0,1.0,7.m4v,4.0
2024-02-27 13:55:18.993349,1709038518.9933486,-202.1484375,-961.42578125,-546.38671875,-19.53125,1.0,-1.0,1.0,1.0,7.m4v,4.0
2024-02-27 13:55:18.997254,1709038518.9972544,-324.21875,-1000.0,-1000.0,-36.1328125,1.0,-1.0,1.0,1.0,7.m4v,4.0
2024-02-27 13:55:19.001163,1709038519.0011628,-148.4375,-1000.0,-729.4921875,-21.484375,1.0,-1.0,1.0,1.0,7.m4v,4.0
2024-02-27 13:55:19.005069,1709038519.0050688,203.61328125,-1000.0,164.55078125,-12.20703125,1.0,-1.0,1.0,1.0,7.m4v,4.0
2024-02-27 13:55:19.008975,1709038519.0089746,243.65234375,-1000.0,480.46875,-32.71484375,1.0,-1.0,1.0,1.0,7.m4v,4.0
2024-02-27 13:55:19.012881,1709038519.0128806,-71.77734375,-938.4765625,-205.56640625,-32.71484375,1.0,-1.0,1.0,1.0,7.m4v,4.0
2024-02-27 13:55:19.020692,1709038519.0206923,83.0078125,-206.0546875,-203.125,-24.4140625,1.0,-1.0,1.0,1.0,7.m4v,4.0
2024-02-27 13:55:19.028504,1709038519.028504,303.7109375,951.66015625,906.73828125,-21.484375,1.0,-1.0,1.0,1.0,7.m4v,4.0
2024-02-27 13:55:19.036316,1709038519.036316,-321.77734375,976.07421875,-715.8203125,-48.828125,1.0,-1.0,1.0,1.0,7.m4v,4.0
2024-02-27 13:55:19.044128,1709038519.0441277,128.41796875,969.7265625,223.6328125,-16.6015625,1.0,-1.0,1.0,1.0,7.m4v,4.0
2024-02-27 13:55:19.051942,1709038519.051942,-79.58984375,969.7265625,-132.32421875,-44.921875,1.0,-1.0,1.0,1.0,7.m4v,4.0
2024-02-27 13:55:19.059754,1709038519.0597537,-160.15625,974.12109375,-706.54296875,-23.92578125,1.0,-1.0,1.0,1.0,7.m4v,4.0
2024-02-27 13:55:19.067565,1709038519.0675654,266.6015625,937.98828125,617.1875,-34.66796875,1.0,-1.0,1.0,1.0,7.m4v,4.0
2024-02-27 13:55:19.075377,1709038519.0753772,-445.3125,-98.14453125,-671.875,-48.33984375,1.0,-1.0,1.0,1.0,7.m4v,4.0
2024-02-27 13:55:19.083189,1709038519.083189,-180.6640625,-950.1953125,-551.26953125,-69.82421875,1.0,-1.0,1.0,1.0,7.m4v,4.0
2024-02-27 13:55:19.091001,1709038519.0910008,75.68359375,-1000.0,0.48828125,-38.57421875,1.0,-1.0,1.0,1.0,7.m4v,4.0
2024-02-27 13:55:19.098818,1709038519.0988176,-172.36328125,-1000.0,-783.203125,-28.3203125,1.0,-1.0,1.0,1.0,7.m4v,4.0
2024-02-27 13:55:19.106629,1709038519.1066294,165.52734375,-938.4765625,288.0859375,-26.3671875,1.0,-1.0,1.0,1.0,7.m4v,4.0
2024-02-27 13:55:19.114441,1709038519.1144412,-39.0625,-208.49609375,-519.04296875,-33.203125,1.0,-1.0,1.0,1.0,7.m4v,4.0
2024-02-27 13:55:19.122253,1709038519.122253,67.87109375,952.1484375,-194.82421875,-46.875,1.0,-1.0,1.0,1.0,7.m4v,4.0
2024-02-27 13:55:19.130065,1709038519.1300647,129.8828125,976.07421875,204.58984375,-14.6484375,1.0,-1.0,1.0,1.0,7.m4v,4.0
2024-02-27 13:55:19.137877,1709038519.1378765,-237.79296875,969.7265625,-911.62109375,-52.24609375,1.0,-1.0,1.0,1.0,7.m4v,4.0
2024-02-27 13:55:19.145692,1709038519.1456916,216.796875,969.7265625,283.203125,-20.99609375,1.0,-1.0,1.0,1.0,7.m4v,4.0
2024-02-27 13:55:19.153503,1709038519.1535034,-101.07421875,969.7265625,-317.3828125,-23.4375,1.0,-1.0,1.0,1.0,7.m4v,4.0
2024-02-27 13:55:19.161315,1709038519.1613152,58.10546875,929.19921875,29.296875,-24.90234375,1.0,-1.0,1.0,1.0,7.m4v,4.0
2024-02-27 13:55:19.169127,1709038519.169127,146.484375,933.10546875,763.18359375,-37.59765625,1.0,-1.0,1.0,1.0,7.m4v,4.0
2024-02-27 13:55:19.176939,1709038519.1769388,-629.39453125,-1000.0,-1000.0,-58.59375,1.0,-1.0,1.0,1.0,7.m4v,4.0
2024-02-27 13:55:19.282407,1709038519.2824073,28.3203125,-993.1640625,190.91796875,-25.87890625,1.0,-1.0,1.0,1.0,7.m4v,4.0
2024-02-27 13:55:19.286313,1709038519.286313,182.12890625,-1000.0,719.7265625,-14.6484375,1.0,-1.0,1.0,1.0,7.m4v,4.0
2024-02-27 13:55:19.290219,1709038519.290219,97.16796875,-992.1875,612.3046875,-31.25,1.0,-1.0,1.0,1.0,7.m4v,4.0
2024-02-27 13:55:19.294125,1709038519.2941248,-194.3359375,-950.1953125,-211.42578125,-46.38671875,1.0,-1.0,1.0,1.0,7.m4v,4.0
2024-02-27 13:55:19.298031,1709038519.2980309,-360.3515625,-1000.0,-756.34765625,-33.203125,1.0,-1.0,1.0,1.0,7.m4v,4.0
2024-02-27 13:55:19.301937,1709038519.3019366,157.2265625,-85.9375,110.3515625,-17.578125,1.0,-1.0,1.0,1.0,7.m4v,4.0
2024-02-27 13:55:19.305843,1709038519.3058426,566.89453125,999.51171875,999.51171875,-7.32421875,1.0,-1.0,1.0,1.0,7.m4v,4.0
2024-02-27 13:55:19.309748,1709038519.3097484,170.41015625,936.03515625,729.00390625,-35.64453125,1.0,-1.0,1.0,1.0,7.m4v,4.0
2024-02-27 13:55:19.313654,1709038519.3136544,-171.875,952.63671875,-104.4921875,-45.8984375,1.0,-1.0,1.0,1.0,7.m4v,4.0
2024-02-27 13:55:19.317560,1709038519.3175602,-265.625,973.6328125,-544.921875,-49.8046875,1.0,-1.0,1.0,1.0,7.m4v,4.0
2024-02-27 13:55:19.321466,1709038519.3214662,-101.5625,969.7265625,-126.46484375,-54.6875,1.0,-1.0,1.0,1.0,7.m4v,4.0
2024-02-27 13:55:19.325372,1709038519.325372,212.40234375,969.7265625,704.1015625,-40.0390625,1.0,-1.0,1.0,1.0,7.m4v,4.0
2024-02-27 13:55:19.329282,1709038519.3292818,216.796875,969.7265625,836.9140625,-35.64453125,1.0,-1.0,1.0,1.0,7.m4v,4.0
2024-02-27 13:55:19.333188,1709038519.3331878,-152.34375,969.7265625,-55.17578125,-55.6640625,1.0,-1.0,1.0,1.0,7.m4v,4.0
2024-02-27 13:55:19.337094,1709038519.3370936,-298.828125,969.7265625,-600.5859375,-44.43359375,1.0,-1.0,1.0,1.0,7.m4v,4.0
2024-02-27 13:55:19.341000,1709038519.3409996,-21.97265625,970.703125,5.37109375,-29.296875,1.0,-1.0,1.0,1.0,7.m4v,4.0
2024-02-27 13:55:19.344905,1709038519.3449054,181.640625,967.7734375,667.48046875,-31.25,1.0,-1.0,1.0,1.0,7.m4v,4.0
2024-02-27 13:55:19.348811,1709038519.3488114,214.84375,911.62109375,950.1953125,-16.11328125,1.0,-1.0,1.0,1.0,7.m4v,4.0
2024-02-27 13:55:19.352717,1709038519.3527172,14.16015625,999.51171875,455.56640625,-42.48046875,1.0,-1.0,1.0,1.0,7.m4v,4.0
2024-02-27 13:55:19.356623,1709038519.3566232,-538.57421875,141.11328125,-674.8046875,-66.40625,1.0,-1.0,1.0,1.0,7.m4v,4.0
2024-02-27 13:55:19.360529,1709038519.3605292,-643.5546875,-1000.0,-990.234375,-45.41015625,1.0,-1.0,1.0,1.0,7.m4v,4.0
2024-02-27 13:55:19.364435,1709038519.364435,-110.83984375,-977.5390625,-275.390625,-38.57421875,1.0,-1.0,1.0,1.0,7.m4v,4.0
2024-02-27 13:55:19.368341,1709038519.368341,147.94921875,-976.5625,191.89453125,-38.57421875,1.0,-1.0,1.0,1.0,7.m4v,4.0
2024-02-27 13:55:19.372247,1709038519.3722467,-37.59765625,-1000.0,-274.4140625,-43.45703125,1.0,-1.0,1.0,1.0,7.m4v,4.0
2024-02-27 13:55:19.376155,1709038519.376155,-265.625,-1000.0,-891.6015625,-58.59375,1.0,-1.0,1.0,1.0,7.m4v,4.0
2024-02-27 13:55:19.380061,1709038519.380061,-238.28125,-1000.0,-956.54296875,-59.08203125,1.0,-1.0,1.0,1.0,7.m4v,4.0
2024-02-27 13:55:19.383967,1709038519.3839667,76.66015625,-1000.0,-262.6953125,-39.0625,1.0,-1.0,1.0,1.0,7.m4v,4.0
2024-02-27 13:55:19.387873,1709038519.3878727,275.390625,-929.6875,286.62109375,-30.2734375,1.0,-1.0,1.0,1.0,7.m4v,4.0
2024-02-27 13:55:19.391778,1709038519.3917785,-14.16015625,-1000.0,-304.6875,-33.69140625,1.0,-1.0,1.0,1.0,7.m4v,4.0
2024-02-27 13:55:19.395684,1709038519.3956845,-153.80859375,-373.53515625,-847.65625,-55.17578125,1.0,-1.0,1.0,1.0,7.m4v,4.0
2024-02-27 13:55:19.399590,1709038519.3995905,247.0703125,979.4921875,-214.35546875,-36.1328125,1.0,-1.0,1.0,1.0,7.m4v,4.0
2024-02-27 13:55:19.403496,1709038519.4034965,345.21484375,979.98046875,448.2421875,-8.30078125,1.0,-1.0,1.0,1.0,7.m4v,4.0
2024-02-27 13:55:19.407402,1709038519.4074025,143.5546875,930.17578125,408.203125,-22.94921875,1.0,-1.0,1.0,1.0,7.m4v,4.0
2024-02-27 13:55:19.411308,1709038519.411308,-73.2421875,980.95703125,-179.19921875,-37.59765625,1.0,-1.0,1.0,1.0,7.m4v,4.0
2024-02-27 13:55:19.415214,1709038519.415214,-270.5078125,969.7265625,-856.4453125,-62.5,1.0,-1.0,1.0,1.0,7.m4v,4.0
2024-02-27 13:55:19.419120,1709038519.4191198,-244.62890625,969.7265625,-970.703125,-59.08203125,1.0,-1.0,1.0,1.0,7.m4v,4.0
2024-02-27 13:55:19.423029,1709038519.4230287,54.19921875,980.46875,-292.48046875,-22.94921875,1.0,-1.0,1.0,1.0,7.m4v,4.0
2024-02-27 13:55:19.485527,1709038519.4855266,153.80859375,-1000.0,109.375,-29.78515625,1.0,-1.0,1.0,1.0,7.m4v,4.0
2024-02-27 13:55:19.489433,1709038519.4894326,457.03125,181.15234375,670.8984375,-20.99609375,1.0,-1.0,1.0,1.0,7.m4v,4.0
2024-02-27 13:55:19.493338,1709038519.4933383,232.421875,999.51171875,80.56640625,-24.90234375,1.0,-1.0,1.0,1.0,7.m4v,4.0
2024-02-27 13:55:19.497244,1709038519.4972444,-294.43359375,911.62109375,-907.71484375,-52.734375,1.0,-1.0,1.0,1.0,7.m4v,4.0
2024-02-27 13:55:19.501150,1709038519.50115,-194.3359375,969.23828125,-747.0703125,-50.78125,1.0,-1.0,1.0,1.0,7.m4v,4.0
2024-02-27 13:55:19.505056,1709038519.505056,115.72265625,908.203125,3.90625,-46.875,1.0,-1.0,1.0,1.0,7.m4v,4.0
2024-02-27 13:55:19.508962,1709038519.508962,196.77734375,999.51171875,157.71484375,-42.96875,1.0,-1.0,1.0,1.0,7.m4v,4.0
2024-02-27 13:55:19.512868,1709038519.512868,-194.3359375,183.59375,-570.80078125,-42.48046875,1.0,-1.0,1.0,1.0,7.m4v,4.0
2024-02-27 13:55:19.516777,1709038519.5167773,-493.1640625,-1000.0,-1000.0,-55.17578125,1.0,-1.0,1.0,1.0,7.m4v,4.0
2024-02-27 13:55:19.520683,1709038519.520683,-250.0,-983.3984375,-880.859375,-41.50390625,1.0,-1.0,1.0,1.0,7.m4v,4.0
2024-02-27 13:55:19.524589,1709038519.524589,26.3671875,-973.6328125,-350.5859375,-34.1796875,1.0,-1.0,1.0,1.0,7.m4v,4.0
2024-02-27 13:55:19.528495,1709038519.528495,59.5703125,-1000.0,-214.35546875,-45.8984375,1.0,-1.0,1.0,1.0,7.m4v,4.0
2024-02-27 13:55:19.532401,1709038519.5324008,-134.27734375,-1000.0,-792.96875,-42.96875,1.0,-1.0,1.0,1.0,7.m4v,4.0
2024-02-27 13:55:19.536307,1709038519.5363069,-151.85546875,-1000.0,-987.3046875,-48.33984375,1.0,-1.0,1.0,1.0,7.m4v,4.0
2024-02-27 13:55:19.540213,1709038519.5402126,-91.30859375,-1000.0,-855.95703125,-38.57421875,1.0,-1.0,1.0,1.0,7.m4v,4.0
2024-02-27 13:55:19.544119,1709038519.5441186,20.5078125,-1000.0,-494.140625,-15.13671875,1.0,-1.0,1.0,1.0,7.m4v,4.0
2024-02-27 13:55:19.548024,1709038519.5480244,147.4609375,-1000.0,-161.62109375,-26.3671875,1.0,-1.0,1.0,1.0,7.m4v,4.0
2024-02-27 13:55:19.551930,1709038519.5519304,-60.05859375,-1000.0,-664.55078125,-45.8984375,1.0,-1.0,1.0,1.0,7.m4v,4.0
2024-02-27 13:55:19.555836,1709038519.5558362,-179.19921875,-1000.0,-1000.0,-37.109375,1.0,-1.0,1.0,1.0,7.m4v,4.0
2024-02-27 13:55:19.559742,1709038519.5597422,-107.91015625,-1000.0,-1000.0,-28.3203125,1.0,-1.0,1.0,1.0,7.m4v,4.0
2024-02-27 13:55:19.563651,1709038519.563651,42.96875,-1000.0,-574.21875,-19.04296875,1.0,-1.0,1.0,1.0,7.m4v,4.0
2024-02-27 13:55:19.567557,1709038519.567557,203.61328125,-1000.0,-83.49609375,-10.7421875,1.0,-1.0,1.0,1.0,7.m4v,4.0
2024-02-27 13:55:19.571463,1709038519.5714629,4.39453125,-937.98828125,-562.98828125,-41.50390625,1.0,-1.0,1.0,1.0,7.m4v,4.0
2024-02-27 13:55:19.575369,1709038519.575369,-230.95703125,-1000.0,-1000.0,-65.4296875,1.0,-1.0,1.0,1.0,7.m4v,4.0
2024-02-27 13:55:19.579275,1709038519.579275,28.80859375,-212.890625,-849.609375,-40.0390625,1.0,-1.0,1.0,1.0,7.m4v,4.0
2024-02-27 13:55:19.583181,1709038519.583181,493.65234375,999.51171875,140.625,-4.8828125,1.0,-1.0,1.0,1.0,7.m4v,4.0
2024-02-27 13:55:19.587086,1709038519.5870864,529.296875,952.63671875,938.4765625,-7.32421875,1.0,-1.0,1.0,1.0,7.m4v,4.0
2024-02-27 13:55:19.590992,1709038519.5909925,20.01953125,942.87109375,38.57421875,-31.73828125,1.0,-1.0,1.0,1.0,7.m4v,4.0
2024-02-27 13:55:19.594898,1709038519.5948982,-337.890625,976.5625,-970.21484375,-48.828125,1.0,-1.0,1.0,1.0,7.m4v,4.0
2024-02-27 13:55:19.598804,1709038519.5988042,-229.4921875,970.21484375,-1000.0,-41.015625,1.0,-1.0,1.0,1.0,7.m4v,4.0
2024-02-27 13:55:19.602710,1709038519.60271,-17.08984375,970.21484375,-626.46484375,-32.2265625,1.0,-1.0,1.0,1.0,7.m4v,4.0
2024-02-27 13:55:19.606616,1709038519.606616,206.54296875,969.7265625,30.2734375,-20.5078125,1.0,-1.0,1.0,1.0,7.m4v,4.0
2024-02-27 13:55:19.610525,1709038519.610525,66.40625,969.7265625,-258.30078125,-41.50390625,1.0,-1.0,1.0,1.0,7.m4v,4.0
2024-02-27 13:55:19.614431,1709038519.614431,-183.59375,970.21484375,-910.64453125,-48.828125,1.0,-1.0,1.0,1.0,7.m4v,4.0
2024-02-27 13:55:19.618337,1709038519.618337,-180.6640625,969.7265625,-1000.0,-25.390625,1.0,-1.0,1.0,1.0,7.m4v,4.0
2024-02-27 13:55:19.622242,1709038519.6222425,-30.76171875,970.21484375,-691.89453125,-25.390625,1.0,-1.0,1.0,1.0,7.m4v,4.0
2024-02-27 13:55:19.626148,1709038519.6261485,212.40234375,969.7265625,5.37109375,-22.94921875,1.0,-1.0,1.0,1.0,7.m4v,4.0
2024-02-27 13:55:19.630054,1709038519.6300542,256.8359375,970.703125,264.6484375,-22.4609375,1.0,-1.0,1.0,1.0,7.m4v,4.0
2024-02-27 13:55:19.633960,1709038519.6339602,-41.015625,965.8203125,-327.63671875,-58.10546875,1.0,-1.0,1.0,1.0,7.m4v,4.0
2024-02-27 13:55:19.637866,1709038519.637866,-261.71875,914.55078125,-887.20703125,-57.12890625,1.0,-1.0,1.0,1.0,7.m4v,4.0
2024-02-27 13:55:19.641772,1709038519.641772,-54.6875,999.51171875,-500.48828125,-25.87890625,1.0,-1.0,1.0,1.0,7.m4v,4.0
2024-02-27 13:55:19.645678,1709038519.6456778,-36.62109375,117.1875,-90.33203125,-41.9921875,1.0,-1.0,1.0,1.0,7.m4v,4.0
2024-02-27 13:55:19.762863,1709038519.7628627,140.625,-958.0078125,278.3203125,-33.203125,1.0,-1.0,1.0,1.0,7.m4v,4.0
2024-02-27 13:55:19.762863,1709038519.7628627,140.625,-958.0078125,278.3203125,-33.203125,1.0,-1.0,1.0,1.0,7.m4v,4.0
2024-02-27 13:55:19.766769,1709038519.7667687,173.828125,-1000.0,630.859375,-37.109375,1.0,-1.0,1.0,1.0,7.m4v,4.0
2024-02-27 13:55:19.766769,1709038519.7667687,173.828125,-1000.0,630.859375,-37.109375,1.0,-1.0,1.0,1.0,7.m4v,4.0
2024-02-27 13:55:19.770674,1709038519.7706745,319.82421875,-2.44140625,790.0390625,-35.64453125,1.0,-1.0,1.0,1.0,7.m4v,4.0
2024-02-27 13:55:19.770674,1709038519.7706745,319.82421875,-2.44140625,790.0390625,-35.64453125,1.0,-1.0,1.0,1.0,7.m4v,4.0
2024-02-27 13:55:19.774580,1709038519.7745805,201.171875,999.51171875,363.76953125,-35.64453125,1.0,-1.0,1.0,1.0,7.m4v,4.0
2024-02-27 13:55:19.774580,1709038519.7745805,201.171875,999.51171875,363.76953125,-35.64453125,1.0,-1.0,1.0,1.0,7.m4v,4.0
2024-02-27 13:55:19.778486,1709038519.7784865,-247.55859375,925.78125,-391.11328125,-44.43359375,1.0,-1.0,1.0,1.0,7.m4v,4.0
2024-02-27 13:55:19.778486,1709038519.7784865,-247.55859375,925.78125,-391.11328125,-44.43359375,1.0,-1.0,1.0,1.0,7.m4v,4.0
2024-02-27 13:55:19.782392,1709038519.7823925,-71.77734375,961.42578125,50.78125,-41.9921875,1.0,-1.0,1.0,1.0,7.m4v,4.0
2024-02-27 13:55:19.782392,1709038519.7823925,-71.77734375,961.42578125,50.78125,-41.9921875,1.0,-1.0,1.0,1.0,7.m4v,4.0
2024-02-27 13:55:19.786298,1709038519.786298,229.4921875,957.51953125,777.34375,-37.109375,1.0,-1.0,1.0,1.0,7.m4v,4.0
2024-02-27 13:55:19.786298,1709038519.786298,229.4921875,957.51953125,777.34375,-37.109375,1.0,-1.0,1.0,1.0,7.m4v,4.0
2024-02-27 13:55:19.790204,1709038519.790204,100.09765625,932.12890625,541.015625,-32.71484375,1.0,-1.0,1.0,1.0,7.m4v,4.0
2024-02-27 13:55:19.790204,1709038519.790204,100.09765625,932.12890625,541.015625,-32.71484375,1.0,-1.0,1.0,1.0,7.m4v,4.0
2024-02-27 13:55:19.794110,1709038519.7941098,-187.01171875,999.51171875,-266.6015625,-58.59375,1.0,-1.0,1.0,1.0,7.m4v,4.0
2024-02-27 13:55:19.794110,1709038519.7941098,-187.01171875,999.51171875,-266.6015625,-58.59375,1.0,-1.0,1.0,1.0,7.m4v,4.0
2024-02-27 13:55:19.798018,1709038519.798018,-436.03515625,-44.43359375,-744.140625,-58.59375,1.0,-1.0,1.0,1.0,7.m4v,4.0
2024-02-27 13:55:19.798018,1709038519.798018,-436.03515625,-44.43359375,-744.140625,-58.59375,1.0,-1.0,1.0,1.0,7.m4v,4.0
2024-02-27 13:55:19.801924,1709038519.801924,-358.88671875,-1000.0,-470.21484375,-27.34375,1.0,-1.0,1.0,1.0,7.m4v,4.0
2024-02-27 13:55:19.801924,1709038519.801924,-358.88671875,-1000.0,-470.21484375,-27.34375,1.0,-1.0,1.0,1.0,7.m4v,4.0
2024-02-27 13:55:19.805830,1709038519.8058298,88.8671875,-961.42578125,343.75,-30.76171875,1.0,-1.0,1.0,1.0,7.m4v,4.0
2024-02-27 13:55:19.805830,1709038519.8058298,88.8671875,-961.42578125,343.75,-30.76171875,1.0,-1.0,1.0,1.0,7.m4v,4.0
2024-02-27 13:55:19.809736,1709038519.8097358,161.62109375,-967.28515625,491.2109375,-34.1796875,1.0,-1.0,1.0,1.0,7.m4v,4.0
2024-02-27 13:55:19.809736,1709038519.8097358,161.62109375,-967.28515625,491.2109375,-34.1796875,1.0,-1.0,1.0,1.0,7.m4v,4.0
2024-02-27 13:55:19.813642,1709038519.8136415,-167.96875,-978.515625,-344.23828125,-38.0859375,1.0,-1.0,1.0,1.0,7.m4v,4.0
2024-02-27 13:55:19.813642,1709038519.8136415,-167.96875,-978.515625,-344.23828125,-38.0859375,1.0,-1.0,1.0,1.0,7.m4v,4.0
2024-02-27 13:55:19.817548,1709038519.8175476,-264.6484375,-1000.0,-642.08984375,-38.0859375,1.0,-1.0,1.0,1.0,7.m4v,4.0
2024-02-27 13:55:19.817548,1709038519.8175476,-264.6484375,-1000.0,-642.08984375,-38.0859375,1.0,-1.0,1.0,1.0,7.m4v,4.0
2024-02-27 13:55:19.821453,1709038519.821453,217.7734375,119.140625,278.3203125,-21.484375,1.0,-1.0,1.0,1.0,7.m4v,4.0
2024-02-27 13:55:19.821453,1709038519.821453,217.7734375,119.140625,278.3203125,-21.484375,1.0,-1.0,1.0,1.0,7.m4v,4.0
2024-02-27 13:55:19.825359,1709038519.825359,479.98046875,999.51171875,999.51171875,-20.5078125,1.0,-1.0,1.0,1.0,7.m4v,4.0
2024-02-27 13:55:19.825359,1709038519.825359,479.98046875,999.51171875,999.51171875,-20.5078125,1.0,-1.0,1.0,1.0,7.m4v,4.0
2024-02-27 13:55:19.829265,1709038519.829265,135.7421875,916.015625,644.53125,-30.76171875,1.0,-1.0,1.0,1.0,7.m4v,4.0
2024-02-27 13:55:19.829265,1709038519.829265,135.7421875,916.015625,644.53125,-30.76171875,1.0,-1.0,1.0,1.0,7.m4v,4.0
2024-02-27 13:55:19.833171,1709038519.8331711,-193.359375,965.33203125,-275.390625,-41.9921875,1.0,-1.0,1.0,1.0,7.m4v,4.0
2024-02-27 13:55:19.833171,1709038519.8331711,-193.359375,965.33203125,-275.390625,-41.9921875,1.0,-1.0,1.0,1.0,7.m4v,4.0
2024-02-27 13:55:19.837077,1709038519.837077,-290.52734375,970.703125,-777.83203125,-38.57421875,1.0,-1.0,1.0,1.0,7.m4v,4.0
2024-02-27 13:55:19.837077,1709038519.837077,-290.52734375,970.703125,-777.83203125,-38.57421875,1.0,-1.0,1.0,1.0,7.m4v,4.0
2024-02-27 13:55:19.840983,1709038519.840983,-127.44140625,969.7265625,-454.58984375,-32.2265625,1.0,-1.0,1.0,1.0,7.m4v,4.0
2024-02-27 13:55:19.840983,1709038519.840983,-127.44140625,969.7265625,-454.58984375,-32.2265625,1.0,-1.0,1.0,1.0,7.m4v,4.0
2024-02-27 13:55:19.844892,1709038519.8448925,167.96875,978.515625,346.19140625,-30.2734375,1.0,-1.0,1.0,1.0,7.m4v,4.0
2024-02-27 13:55:19.844892,1709038519.8448925,167.96875,978.515625,346.19140625,-30.2734375,1.0,-1.0,1.0,1.0,7.m4v,4.0
2024-02-27 13:55:19.848798,1709038519.848798,223.14453125,931.15234375,593.75,-28.80859375,1.0,-1.0,1.0,1.0,7.m4v,4.0
2024-02-27 13:55:19.848798,1709038519.848798,223.14453125,931.15234375,593.75,-28.80859375,1.0,-1.0,1.0,1.0,7.m4v,4.0
2024-02-27 13:55:19.852704,1709038519.852704,-48.33984375,986.81640625,-27.34375,-33.203125,1.0,-1.0,1.0,1.0,7.m4v,4.0
2024-02-27 13:55:19.852704,1709038519.852704,-48.33984375,986.81640625,-27.34375,-33.203125,1.0,-1.0,1.0,1.0,7.m4v,4.0
2024-02-27 13:55:19.856610,1709038519.8566098,-278.80859375,922.8515625,-701.171875,-39.55078125,1.0,-1.0,1.0,1.0,7.m4v,4.0
2024-02-27 13:55:19.856610,1709038519.8566098,-278.80859375,922.8515625,-701.171875,-39.55078125,1.0,-1.0,1.0,1.0,7.m4v,4.0
2024-02-27 13:55:19.860516,1709038519.8605158,-386.71875,-382.32421875,-725.5859375,-47.36328125,1.0,-1.0,1.0,1.0,7.m4v,4.0
2024-02-27 13:55:19.860516,1709038519.8605158,-386.71875,-382.32421875,-725.5859375,-47.36328125,1.0,-1.0,1.0,1.0,7.m4v,4.0
2024-02-27 13:55:19.864422,1709038519.8644216,-31.73828125,-1000.0,229.4921875,-34.66796875,1.0,-1.0,1.0,1.0,7.m4v,4.0
2024-02-27 13:55:19.864422,1709038519.8644216,-31.73828125,-1000.0,229.4921875,-34.66796875,1.0,-1.0,1.0,1.0,7.m4v,4.0
2024-02-27 13:55:19.868328,1709038519.8683276,250.0,-939.453125,761.71875,-35.64453125,1.0,-1.0,1.0,1.0,7.m4v,4.0
2024-02-27 13:55:19.926919,1709038519.9269197,234.86328125,971.6796875,618.65234375,-15.13671875,1.0,-1.0,1.0,1.0,7.m4v,4.0
2024-02-27 13:55:19.930825,1709038519.9308252,93.26171875,969.7265625,321.77734375,-36.1328125,1.0,-1.0,1.0,1.0,7.m4v,4.0
2024-02-27 13:55:19.934731,1709038519.9347312,-230.95703125,969.7265625,-557.6171875,-57.12890625,1.0,-1.0,1.0,1.0,7.m4v,4.0
2024-02-27 13:55:19.938640,1709038519.9386404,-193.84765625,970.21484375,-617.67578125,-36.1328125,1.0,-1.0,1.0,1.0,7.m4v,4.0
2024-02-27 13:55:19.942546,1709038519.9425464,103.515625,982.91015625,179.19921875,-18.06640625,1.0,-1.0,1.0,1.0,7.m4v,4.0
2024-02-27 13:55:19.946452,1709038519.946452,258.7890625,899.4140625,755.37109375,-8.30078125,1.0,-1.0,1.0,1.0,7.m4v,4.0
2024-02-27 13:55:19.950358,1709038519.9503582,90.8203125,999.51171875,431.640625,-23.92578125,1.0,-1.0,1.0,1.0,7.m4v,4.0
2024-02-27 13:55:19.954264,1709038519.954264,-313.96484375,521.484375,-530.76171875,-52.734375,1.0,-1.0,1.0,1.0,7.m4v,4.0
2024-02-27 13:55:19.958170,1709038519.95817,-466.796875,-891.6015625,-753.41796875,-56.640625,1.0,-1.0,1.0,1.0,7.m4v,4.0
2024-02-27 13:55:19.962076,1709038519.9620757,-145.01953125,-1000.0,-96.19140625,-42.96875,1.0,-1.0,1.0,1.0,7.m4v,4.0
2024-02-27 13:55:19.965982,1709038519.9659815,127.9296875,-947.75390625,413.57421875,-18.06640625,1.0,-1.0,1.0,1.0,7.m4v,4.0
2024-02-27 13:55:19.969887,1709038519.9698875,-1.46484375,-1000.0,93.26171875,-25.390625,1.0,-1.0,1.0,1.0,7.m4v,4.0
2024-02-27 13:55:19.973794,1709038519.9737935,-280.2734375,-1000.0,-713.37890625,-50.29296875,1.0,-1.0,1.0,1.0,7.m4v,4.0
2024-02-27 13:55:19.977699,1709038519.9776993,-306.15234375,-1000.0,-1000.0,-54.6875,1.0,-1.0,1.0,1.0,7.m4v,4.0
2024-02-27 13:55:19.981605,1709038519.9816053,-53.22265625,-1000.0,-473.14453125,-40.0390625,1.0,-1.0,1.0,1.0,7.m4v,4.0
2024-02-27 13:55:19.985514,1709038519.9855142,214.84375,-1000.0,349.609375,-24.4140625,1.0,-1.0,1.0,1.0,7.m4v,4.0
2024-02-27 13:55:19.989420,1709038519.98942,199.70703125,-978.02734375,453.61328125,-22.94921875,1.0,-1.0,1.0,1.0,7.m4v,4.0
2024-02-27 13:55:19.993326,1709038519.993326,-120.1171875,-975.5859375,-314.94140625,-40.52734375,1.0,-1.0,1.0,1.0,7.m4v,4.0
2024-02-27 13:55:19.997232,1709038519.9972315,-305.17578125,-1000.0,-831.54296875,-43.9453125,1.0,-1.0,1.0,1.0,7.m4v,4.0
2024-02-27 13:55:20.001138,1709038520.0011375,168.45703125,118.1640625,-44.43359375,-23.4375,1.0,-1.0,1.0,1.0,7.m4v,4.0
2024-02-27 13:55:20.005044,1709038520.0050435,527.83203125,999.51171875,877.9296875,-24.4140625,1.0,-1.0,1.0,1.0,7.m4v,4.0
2024-02-27 13:55:20.008950,1709038520.0089495,307.6171875,915.0390625,959.9609375,-33.69140625,1.0,-1.0,1.0,1.0,7.m4v,4.0
2024-02-27 13:55:20.075352,1709038520.0753524,-466.796875,-473.14453125,-565.91796875,-41.015625,1.0,-1.0,1.0,1.0,7.m4v,4.0
2024-02-27 13:55:20.079261,1709038520.079261,-527.83203125,-1000.0,-803.22265625,-48.828125,1.0,-1.0,1.0,1.0,7.m4v,4.0
2024-02-27 13:55:20.083167,1709038520.0831668,-57.6171875,-935.546875,25.87890625,-62.5,1.0,-1.0,1.0,1.0,7.m4v,4.0
2024-02-27 13:55:20.087073,1709038520.0870728,198.73046875,-1000.0,688.4765625,-48.33984375,1.0,-1.0,1.0,1.0,7.m4v,4.0
2024-02-27 13:55:20.090979,1709038520.0909786,56.15234375,-931.640625,349.609375,-26.3671875,1.0,-1.0,1.0,1.0,7.m4v,4.0
2024-02-27 13:55:20.094885,1709038520.0948846,-239.74609375,-1000.0,-397.4609375,-54.6875,1.0,-1.0,1.0,1.0,7.m4v,4.0
2024-02-27 13:55:20.098790,1709038520.0987904,-137.20703125,-635.25390625,-225.09765625,-59.5703125,1.0,-1.0,1.0,1.0,7.m4v,4.0
2024-02-27 13:55:20.102696,1709038520.1026964,343.26171875,794.921875,705.56640625,-36.1328125,1.0,-1.0,1.0,1.0,7.m4v,4.0
2024-02-27 13:55:20.106602,1709038520.1066022,363.76953125,999.51171875,999.51171875,-38.57421875,1.0,-1.0,1.0,1.0,7.m4v,4.0
2024-02-27 13:55:20.110508,1709038520.1105082,41.015625,911.62109375,516.11328125,-54.6875,1.0,-1.0,1.0,1.0,7.m4v,4.0
2024-02-27 13:55:20.114414,1709038520.114414,-246.58203125,984.375,-345.703125,-57.12890625,1.0,-1.0,1.0,1.0,7.m4v,4.0
2024-02-27 13:55:20.118320,1709038520.11832,-169.921875,969.7265625,-338.8671875,-53.22265625,1.0,-1.0,1.0,1.0,7.m4v,4.0
2024-02-27 13:55:20.122226,1709038520.1222258,137.20703125,984.375,462.890625,-44.43359375,1.0,-1.0,1.0,1.0,7.m4v,4.0
2024-02-27 13:55:20.126134,1709038520.1261344,225.09765625,904.296875,941.40625,-44.921875,1.0,-1.0,1.0,1.0,7.m4v,4.0
2024-02-27 13:55:20.130040,1709038520.1300402,126.46484375,999.51171875,769.04296875,-32.71484375,1.0,-1.0,1.0,1.0,7.m4v,4.0
2024-02-27 13:55:20.133946,1709038520.1339462,-203.125,668.9453125,-61.5234375,-43.45703125,1.0,-1.0,1.0,1.0,7.m4v,4.0
2024-02-27 13:55:20.137852,1709038520.137852,-567.3828125,-761.23046875,-683.59375,-63.4765625,1.0,-1.0,1.0,1.0,7.m4v,4.0
2024-02-27 13:55:20.141758,1709038520.141758,-371.58203125,-1000.0,-401.3671875,-57.6171875,1.0,-1.0,1.0,1.0,7.m4v,4.0
2024-02-27 13:55:20.145664,1709038520.1456635,201.171875,-939.453125,631.8359375,-38.57421875,1.0,-1.0,1.0,1.0,7.m4v,4.0
2024-02-27 13:55:20.149570,1709038520.1495695,202.1484375,-1000.0,782.71484375,-42.96875,1.0,-1.0,1.0,1.0,7.m4v,4.0
2024-02-27 13:55:20.153476,1709038520.1534755,-295.8984375,-1000.0,-379.39453125,-64.94140625,1.0,-1.0,1.0,1.0,7.m4v,4.0
2024-02-27 13:55:20.157382,1709038520.1573815,-420.41015625,-1000.0,-1000.0,-53.22265625,1.0,-1.0,1.0,1.0,7.m4v,4.0
2024-02-27 13:55:20.161287,1709038520.1612873,-137.20703125,-1000.0,-530.76171875,-30.76171875,1.0,-1.0,1.0,1.0,7.m4v,4.0
2024-02-27 13:55:20.165193,1709038520.165193,185.05859375,-1000.0,327.63671875,-43.9453125,1.0,-1.0,1.0,1.0,7.m4v,4.0
2024-02-27 13:55:20.169099,1709038520.169099,150.390625,-1000.0,392.578125,-45.8984375,1.0,-1.0,1.0,1.0,7.m4v,4.0
2024-02-27 13:55:20.173007,1709038520.1730072,-169.921875,-1000.0,-424.31640625,-39.55078125,1.0,-1.0,1.0,1.0,7.m4v,4.0
2024-02-27 13:55:20.176913,1709038520.176913,-320.80078125,-1000.0,-942.3828125,-58.10546875,1.0,-1.0,1.0,1.0,7.m4v,4.0
2024-02-27 13:55:20.180819,1709038520.180819,-64.94140625,-1000.0,-367.67578125,-47.8515625,1.0,-1.0,1.0,1.0,7.m4v,4.0
2024-02-27 13:55:20.184725,1709038520.1847248,286.62109375,-995.60546875,632.32421875,-20.5078125,1.0,-1.0,1.0,1.0,7.m4v,4.0
2024-02-27 13:55:20.188631,1709038520.1886308,197.265625,-945.80078125,598.14453125,-16.11328125,1.0,-1.0,1.0,1.0,7.m4v,4.0
2024-02-27 13:55:20.192537,1709038520.1925366,-140.13671875,-1000.0,-97.16796875,-50.78125,1.0,-1.0,1.0,1.0,7.m4v,4.0
2024-02-27 13:55:20.196443,1709038520.1964426,-30.2734375,-138.18359375,-243.65234375,-44.43359375,1.0,-1.0,1.0,1.0,7.m4v,4.0
2024-02-27 13:55:20.200348,1709038520.2003484,140.13671875,999.51171875,-54.6875,-29.78515625,1.0,-1.0,1.0,1.0,7.m4v,4.0
2024-02-27 13:55:20.204254,1709038520.2042544,171.875,943.359375,448.2421875,-27.34375,1.0,-1.0,1.0,1.0,7.m4v,4.0
2024-02-27 13:55:20.208160,1709038520.2081604,185.546875,948.2421875,676.7578125,-17.08984375,1.0,-1.0,1.0,1.0,7.m4v,4.0
2024-02-27 13:55:20.212066,1709038520.2120662,-86.42578125,974.609375,8.7890625,-34.66796875,1.0,-1.0,1.0,1.0,7.m4v,4.0
2024-02-27 13:55:20.215972,1709038520.2159722,-229.98046875,969.7265625,-511.71875,-35.64453125,1.0,-1.0,1.0,1.0,7.m4v,4.0
2024-02-27 13:55:20.219882,1709038520.2198815,-128.41796875,969.7265625,-289.55078125,-33.203125,1.0,-1.0,1.0,1.0,7.m4v,4.0
2024-02-27 13:55:20.223788,1709038520.2237875,110.3515625,969.7265625,431.15234375,-34.1796875,1.0,-1.0,1.0,1.0,7.m4v,4.0
2024-02-27 13:55:20.227693,1709038520.227693,205.078125,969.7265625,769.04296875,-22.4609375,1.0,-1.0,1.0,1.0,7.m4v,4.0
2024-02-27 13:55:20.231599,1709038520.231599,-58.10546875,970.21484375,149.4140625,-43.9453125,1.0,-1.0,1.0,1.0,7.m4v,4.0
2024-02-27 13:55:20.235505,1709038520.235505,-260.25390625,979.98046875,-458.0078125,-52.734375,1.0,-1.0,1.0,1.0,7.m4v,4.0
2024-02-27 13:55:20.239411,1709038520.239411,-107.421875,928.22265625,-116.2109375,-40.0390625,1.0,-1.0,1.0,1.0,7.m4v,4.0
2024-02-27 13:55:20.243317,1709038520.243317,163.57421875,990.234375,709.47265625,-34.66796875,1.0,-1.0,1.0,1.0,7.m4v,4.0
2024-02-27 13:55:20.247223,1709038520.247223,191.89453125,925.78125,966.796875,-31.73828125,1.0,-1.0,1.0,1.0,7.m4v,4.0
2024-02-27 13:55:20.462063,1709038520.4620633,-67.87109375,969.7265625,-729.00390625,-44.43359375,1.0,-1.0,1.0,1.0,7.m4v,4.0
2024-02-27 13:55:20.462063,1709038520.4620633,-67.87109375,969.7265625,-729.00390625,-44.43359375,1.0,-1.0,1.0,1.0,7.m4v,4.0
2024-02-27 13:55:20.473781,1709038520.473781,-102.5390625,969.7265625,-609.375,-41.50390625,1.0,-1.0,1.0,1.0,7.m4v,4.0
2024-02-27 13:55:20.473781,1709038520.473781,-102.5390625,969.7265625,-609.375,-41.50390625,1.0,-1.0,1.0,1.0,7.m4v,4.0
2024-02-27 13:55:20.473781,1709038520.473781,-102.5390625,969.7265625,-609.375,-41.50390625,1.0,-1.0,1.0,1.0,7.m4v,4.0
2024-02-27 13:55:20.485499,1709038520.485499,102.5390625,999.51171875,36.1328125,-14.6484375,1.0,-1.0,1.0,1.0,7.m4v,4.0
2024-02-27 13:55:20.485499,1709038520.485499,102.5390625,999.51171875,36.1328125,-14.6484375,1.0,-1.0,1.0,1.0,7.m4v,4.0
2024-02-27 13:55:20.485499,1709038520.485499,102.5390625,999.51171875,36.1328125,-14.6484375,1.0,-1.0,1.0,1.0,7.m4v,4.0
2024-02-27 13:55:20.497216,1709038520.4972165,-345.21484375,-1000.0,-1000.0,-28.80859375,1.0,-1.0,1.0,1.0,7.m4v,4.0
2024-02-27 13:55:20.497216,1709038520.4972165,-345.21484375,-1000.0,-1000.0,-28.80859375,1.0,-1.0,1.0,1.0,7.m4v,4.0
2024-02-27 13:55:20.497216,1709038520.4972165,-345.21484375,-1000.0,-1000.0,-28.80859375,1.0,-1.0,1.0,1.0,7.m4v,4.0
2024-02-27 13:55:20.508937,1709038520.5089366,133.30078125,-1000.0,-127.9296875,-39.0625,1.0,-1.0,1.0,1.0,7.m4v,4.0
2024-02-27 13:55:20.508937,1709038520.5089366,133.30078125,-1000.0,-127.9296875,-39.0625,1.0,-1.0,1.0,1.0,7.m4v,4.0
2024-02-27 13:55:20.508937,1709038520.5089366,133.30078125,-1000.0,-127.9296875,-39.0625,1.0,-1.0,1.0,1.0,7.m4v,4.0
2024-02-27 13:55:20.520654,1709038520.5206544,30.76171875,-324.21875,-547.8515625,-30.2734375,1.0,-1.0,1.0,1.0,7.m4v,4.0
2024-02-27 13:55:20.520654,1709038520.5206544,30.76171875,-324.21875,-547.8515625,-30.2734375,1.0,-1.0,1.0,1.0,7.m4v,4.0
2024-02-27 13:55:20.520654,1709038520.5206544,30.76171875,-324.21875,-547.8515625,-30.2734375,1.0,-1.0,1.0,1.0,7.m4v,4.0
2024-02-27 13:55:20.532372,1709038520.532372,-128.90625,934.08203125,-452.1484375,-35.15625,1.0,-1.0,1.0,1.0,7.m4v,4.0
2024-02-27 13:55:20.532372,1709038520.532372,-128.90625,934.08203125,-452.1484375,-35.15625,1.0,-1.0,1.0,1.0,7.m4v,4.0
2024-02-27 13:55:20.532372,1709038520.532372,-128.90625,934.08203125,-452.1484375,-35.15625,1.0,-1.0,1.0,1.0,7.m4v,4.0
2024-02-27 13:55:20.544090,1709038520.5440898,219.23828125,973.6328125,486.328125,-39.0625,1.0,-1.0,1.0,1.0,7.m4v,4.0
2024-02-27 13:55:20.544090,1709038520.5440898,219.23828125,973.6328125,486.328125,-39.0625,1.0,-1.0,1.0,1.0,7.m4v,4.0
2024-02-27 13:55:20.544090,1709038520.5440898,219.23828125,973.6328125,486.328125,-39.0625,1.0,-1.0,1.0,1.0,7.m4v,4.0
2024-02-27 13:55:20.555810,1709038520.5558095,-396.484375,249.0234375,-817.87109375,-46.875,1.0,-1.0,1.0,1.0,7.m4v,4.0
2024-02-27 13:55:20.555810,1709038520.5558095,-396.484375,249.0234375,-817.87109375,-46.875,1.0,-1.0,1.0,1.0,7.m4v,4.0
2024-02-27 13:55:20.555810,1709038520.5558095,-396.484375,249.0234375,-817.87109375,-46.875,1.0,-1.0,1.0,1.0,7.m4v,4.0
2024-02-27 13:55:20.567528,1709038520.5675275,403.3203125,-187.5,668.45703125,-28.80859375,1.0,-1.0,1.0,1.0,7.m4v,4.0
2024-02-27 13:55:20.567528,1709038520.5675275,403.3203125,-187.5,668.45703125,-28.80859375,1.0,-1.0,1.0,1.0,7.m4v,4.0
2024-02-27 13:55:20.567528,1709038520.5675275,403.3203125,-187.5,668.45703125,-28.80859375,1.0,-1.0,1.0,1.0,7.m4v,4.0
2024-02-27 13:55:20.579245,1709038520.579245,-247.55859375,942.3828125,-665.52734375,-50.29296875,1.0,-1.0,1.0,1.0,7.m4v,4.0
2024-02-27 13:55:20.579245,1709038520.579245,-247.55859375,942.3828125,-665.52734375,-50.29296875,1.0,-1.0,1.0,1.0,7.m4v,4.0
2024-02-27 13:55:20.579245,1709038520.579245,-247.55859375,942.3828125,-665.52734375,-50.29296875,1.0,-1.0,1.0,1.0,7.m4v,4.0
2024-02-27 13:55:20.590963,1709038520.590963,43.45703125,999.51171875,173.33984375,-31.73828125,1.0,-1.0,1.0,1.0,7.m4v,4.0
2024-02-27 13:55:20.590963,1709038520.590963,43.45703125,999.51171875,173.33984375,-31.73828125,1.0,-1.0,1.0,1.0,7.m4v,4.0
2024-02-27 13:55:20.590963,1709038520.590963,43.45703125,999.51171875,173.33984375,-31.73828125,1.0,-1.0,1.0,1.0,7.m4v,4.0
2024-02-27 13:55:20.602684,1709038520.6026845,-43.9453125,-1000.0,251.46484375,-36.62109375,1.0,-1.0,1.0,1.0,7.m4v,4.0
2024-02-27 13:55:20.602684,1709038520.6026845,-43.9453125,-1000.0,251.46484375,-36.62109375,1.0,-1.0,1.0,1.0,7.m4v,4.0
2024-02-27 13:55:20.602684,1709038520.6026845,-43.9453125,-1000.0,251.46484375,-36.62109375,1.0,-1.0,1.0,1.0,7.m4v,4.0
2024-02-27 13:55:20.610496,1709038520.610496,-57.12890625,-1000.0,83.0078125,-20.99609375,1.0,-1.0,1.0,1.0,7.m4v,4.0
2024-02-27 13:55:20.614402,1709038520.6144018,-217.28515625,-1000.0,-408.69140625,-47.8515625,1.0,-1.0,1.0,1.0,7.m4v,4.0
2024-02-27 13:55:20.637837,1709038520.6378372,-212.40234375,-1000.0,-751.953125,-40.52734375,1.0,-1.0,1.0,1.0,7.m4v,4.0
2024-02-27 13:55:20.641747,1709038520.6417463,40.52734375,-1000.0,-74.70703125,-31.73828125,1.0,-1.0,1.0,1.0,7.m4v,4.0
2024-02-27 13:55:20.645652,1709038520.6456523,204.1015625,-1000.0,566.40625,-39.0625,1.0,-1.0,1.0,1.0,7.m4v,4.0
2024-02-27 13:55:20.649558,1709038520.6495583,96.6796875,-972.16796875,437.5,-27.34375,1.0,-1.0,1.0,1.0,7.m4v,4.0
2024-02-27 13:55:20.653464,1709038520.653464,-191.89453125,-987.79296875,-324.70703125,-50.78125,1.0,-1.0,1.0,1.0,7.m4v,4.0
2024-02-27 13:55:20.657370,1709038520.65737,-267.578125,-1000.0,-618.1640625,-69.82421875,1.0,-1.0,1.0,1.0,7.m4v,4.0
2024-02-27 13:55:20.661276,1709038520.661276,224.609375,200.68359375,284.1796875,-30.2734375,1.0,-1.0,1.0,1.0,7.m4v,4.0
2024-02-27 13:55:20.665182,1709038520.665182,512.6953125,999.51171875,999.51171875,-27.83203125,1.0,-1.0,1.0,1.0,7.m4v,4.0
2024-02-27 13:55:20.669088,1709038520.6690876,217.28515625,909.1796875,872.0703125,-46.38671875,1.0,-1.0,1.0,1.0,7.m4v,4.0
2024-02-27 13:55:20.672994,1709038520.6729937,-116.2109375,969.7265625,161.62109375,-40.0390625,1.0,-1.0,1.0,1.0,7.m4v,4.0
2024-02-27 13:55:20.676899,1709038520.6768994,-344.23828125,970.21484375,-581.0546875,-48.33984375,1.0,-1.0,1.0,1.0,7.m4v,4.0
2024-02-27 13:55:20.680805,1709038520.6808054,-192.3828125,969.7265625,-363.28125,-42.96875,1.0,-1.0,1.0,1.0,7.m4v,4.0
2024-02-27 13:55:20.684711,1709038520.6847112,138.18359375,977.05078125,417.96875,-25.390625,1.0,-1.0,1.0,1.0,7.m4v,4.0
2024-02-27 13:55:20.688620,1709038520.6886203,206.54296875,938.4765625,651.85546875,-27.83203125,1.0,-1.0,1.0,1.0,7.m4v,4.0
2024-02-27 13:55:20.692526,1709038520.692526,-138.671875,968.75,-175.78125,-61.03515625,1.0,-1.0,1.0,1.0,7.m4v,4.0
2024-02-27 13:55:20.696432,1709038520.696432,-362.3046875,976.5625,-895.5078125,-60.546875,1.0,-1.0,1.0,1.0,7.m4v,4.0
2024-02-27 13:55:20.700338,1709038520.700338,-373.046875,-215.8203125,-801.7578125,-51.26953125,1.0,-1.0,1.0,1.0,7.m4v,4.0
2024-02-27 13:55:20.704244,1709038520.704244,-182.12890625,-1000.0,-180.17578125,-61.03515625,1.0,-1.0,1.0,1.0,7.m4v,4.0
2024-02-27 13:55:20.708150,1709038520.7081497,358.3984375,-154.78515625,652.83203125,-37.109375,1.0,-1.0,1.0,1.0,7.m4v,4.0
2024-02-27 13:55:20.712056,1709038520.7120557,301.26953125,999.51171875,340.33203125,-35.15625,1.0,-1.0,1.0,1.0,7.m4v,4.0
2024-02-27 13:55:20.715961,1709038520.7159617,-218.75,951.66015625,-648.4375,-45.41015625,1.0,-1.0,1.0,1.0,7.m4v,4.0
2024-02-27 13:55:20.719867,1709038520.7198677,-109.86328125,943.359375,-362.3046875,-40.52734375,1.0,-1.0,1.0,1.0,7.m4v,4.0
2024-02-27 13:55:20.723773,1709038520.7237732,187.01171875,976.5625,474.609375,-33.203125,1.0,-1.0,1.0,1.0,7.m4v,4.0
2024-02-27 13:55:20.727679,1709038520.7276793,173.33984375,969.7265625,574.21875,-27.83203125,1.0,-1.0,1.0,1.0,7.m4v,4.0
2024-02-27 13:55:20.731585,1709038520.731585,-92.28515625,969.7265625,-113.28125,-39.0625,1.0,-1.0,1.0,1.0,7.m4v,4.0
2024-02-27 13:55:20.735494,1709038520.735494,-260.25390625,969.7265625,-737.3046875,-48.828125,1.0,-1.0,1.0,1.0,7.m4v,4.0
2024-02-27 13:55:20.739400,1709038520.7394,-192.3828125,976.07421875,-656.73828125,-50.78125,1.0,-1.0,1.0,1.0,7.m4v,4.0
2024-02-27 13:55:20.743306,1709038520.7433057,22.94921875,939.453125,-4.39453125,-36.1328125,1.0,-1.0,1.0,1.0,7.m4v,4.0
2024-02-27 13:55:20.747212,1709038520.7472117,193.84765625,970.703125,444.82421875,-15.625,1.0,-1.0,1.0,1.0,7.m4v,4.0
2024-02-27 13:55:20.751118,1709038520.7511177,-1.953125,955.078125,-72.75390625,-24.90234375,1.0,-1.0,1.0,1.0,7.m4v,4.0
2024-02-27 13:55:20.755023,1709038520.7550237,-356.4453125,-264.16015625,-667.48046875,-39.55078125,1.0,-1.0,1.0,1.0,7.m4v,4.0
2024-02-27 13:55:20.758929,1709038520.7589295,-386.71875,-1000.0,-690.4296875,-49.8046875,1.0,-1.0,1.0,1.0,7.m4v,4.0
2024-02-27 13:55:20.762835,1709038520.7628353,-93.75,-949.70703125,-255.37109375,-35.15625,1.0,-1.0,1.0,1.0,7.m4v,4.0
2024-02-27 13:55:20.766741,1709038520.7667413,146.97265625,-997.55859375,266.11328125,-12.20703125,1.0,-1.0,1.0,1.0,7.m4v,4.0
2024-02-27 13:55:20.770647,1709038520.770647,13.671875,-1000.0,-111.81640625,-23.4375,1.0,-1.0,1.0,1.0,7.m4v,4.0
2024-02-27 13:55:20.774553,1709038520.774553,-251.953125,-1000.0,-870.60546875,-34.1796875,1.0,-1.0,1.0,1.0,7.m4v,4.0
2024-02-27 13:55:20.778459,1709038520.7784588,-196.2890625,-1000.0,-917.48046875,-30.76171875,1.0,-1.0,1.0,1.0,7.m4v,4.0
2024-02-27 13:55:20.782368,1709038520.7823677,125.0,-1000.0,-73.2421875,-42.96875,1.0,-1.0,1.0,1.0,7.m4v,4.0
2024-02-27 13:55:20.786273,1709038520.7862737,286.62109375,-1000.0,565.91796875,-28.3203125,1.0,-1.0,1.0,1.0,7.m4v,4.0
2024-02-27 13:55:20.790179,1709038520.7901795,105.46875,-1000.0,214.84375,-20.99609375,1.0,-1.0,1.0,1.0,7.m4v,4.0
2024-02-27 13:55:20.794085,1709038520.7940853,-171.875,-938.96484375,-539.0625,-47.8515625,1.0,-1.0,1.0,1.0,7.m4v,4.0
2024-02-27 13:55:20.797991,1709038520.7979913,-279.296875,-1000.0,-880.859375,-32.2265625,1.0,-1.0,1.0,1.0,7.m4v,4.0
2024-02-27 13:55:20.801897,1709038520.801897,193.359375,-203.125,2.9296875,-14.6484375,1.0,-1.0,1.0,1.0,7.m4v,4.0
2024-02-27 13:55:20.805803,1709038520.805803,613.76953125,999.51171875,999.51171875,-1.46484375,1.0,-1.0,1.0,1.0,7.m4v,4.0
2024-02-27 13:55:20.809709,1709038520.809709,193.359375,951.171875,519.53125,-20.99609375,1.0,-1.0,1.0,1.0,7.m4v,4.0
2024-02-27 13:55:20.813615,1709038520.8136148,-214.35546875,943.84765625,-472.65625,-48.33984375,1.0,-1.0,1.0,1.0,7.m4v,4.0
2024-02-27 13:55:20.817521,1709038520.8175209,-252.44140625,976.07421875,-779.78515625,-48.33984375,1.0,-1.0,1.0,1.0,7.m4v,4.0
2024-02-27 13:55:20.821427,1709038520.8214266,-28.3203125,969.7265625,-256.8359375,-41.9921875,1.0,-1.0,1.0,1.0,7.m4v,4.0
2024-02-27 13:55:20.825333,1709038520.8253326,229.4921875,969.7265625,446.77734375,-28.80859375,1.0,-1.0,1.0,1.0,7.m4v,4.0
2024-02-27 13:55:20.829241,1709038520.829241,128.41796875,969.7265625,303.7109375,-35.64453125,1.0,-1.0,1.0,1.0,7.m4v,4.0
2024-02-27 13:55:20.833147,1709038520.8331468,-182.12890625,969.7265625,-506.34765625,-46.875,1.0,-1.0,1.0,1.0,7.m4v,4.0
2024-02-27 13:55:20.837053,1709038520.8370528,-222.65625,970.21484375,-847.16796875,-31.25,1.0,-1.0,1.0,1.0,7.m4v,4.0
2024-02-27 13:55:20.840959,1709038520.8409586,63.4765625,970.703125,-133.7890625,-20.99609375,1.0,-1.0,1.0,1.0,7.m4v,4.0
2024-02-27 13:55:20.844865,1709038520.8448646,284.1796875,966.796875,675.78125,-17.578125,1.0,-1.0,1.0,1.0,7.m4v,4.0
2024-02-27 13:55:20.844865,1709038520.8448646,284.1796875,966.796875,675.78125,-17.578125,1.0,-1.0,1.0,1.0,7.m4v,4.0
2024-02-27 13:55:20.844865,1709038520.8448646,284.1796875,966.796875,675.78125,-17.578125,1.0,-1.0,1.0,1.0,7.m4v,4.0
2024-02-27 13:55:20.848770,1709038520.8487704,205.56640625,912.59765625,742.67578125,-22.4609375,1.0,-1.0,1.0,1.0,7.m4v,4.0
2024-02-27 13:55:20.848770,1709038520.8487704,205.56640625,912.59765625,742.67578125,-22.4609375,1.0,-1.0,1.0,1.0,7.m4v,4.0
2024-02-27 13:55:20.848770,1709038520.8487704,205.56640625,912.59765625,742.67578125,-22.4609375,1.0,-1.0,1.0,1.0,7.m4v,4.0
2024-02-27 13:55:20.852676,1709038520.8526764,28.80859375,999.51171875,311.03515625,-60.05859375,1.0,-1.0,1.0,1.0,7.m4v,4.0
2024-02-27 13:55:20.852676,1709038520.8526764,28.80859375,999.51171875,311.03515625,-60.05859375,1.0,-1.0,1.0,1.0,7.m4v,4.0
2024-02-27 13:55:20.852676,1709038520.8526764,28.80859375,999.51171875,311.03515625,-60.05859375,1.0,-1.0,1.0,1.0,7.m4v,4.0
2024-02-27 13:55:20.856582,1709038520.8565822,-425.78125,129.8828125,-563.96484375,-66.40625,1.0,-1.0,1.0,1.0,7.m4v,4.0
2024-02-27 13:55:20.856582,1709038520.8565822,-425.78125,129.8828125,-563.96484375,-66.40625,1.0,-1.0,1.0,1.0,7.m4v,4.0
2024-02-27 13:55:20.856582,1709038520.8565822,-425.78125,129.8828125,-563.96484375,-66.40625,1.0,-1.0,1.0,1.0,7.m4v,4.0
2024-02-27 13:55:20.860488,1709038520.8604882,-544.43359375,-1000.0,-775.87890625,-39.0625,1.0,-1.0,1.0,1.0,7.m4v,4.0
2024-02-27 13:55:20.860488,1709038520.8604882,-544.43359375,-1000.0,-775.87890625,-39.0625,1.0,-1.0,1.0,1.0,7.m4v,4.0
2024-02-27 13:55:20.860488,1709038520.8604882,-544.43359375,-1000.0,-775.87890625,-39.0625,1.0,-1.0,1.0,1.0,7.m4v,4.0
2024-02-27 13:55:20.864394,1709038520.864394,-25.87890625,-976.07421875,5.859375,-26.3671875,1.0,-1.0,1.0,1.0,7.m4v,4.0
2024-02-27 13:55:20.864394,1709038520.864394,-25.87890625,-976.07421875,5.859375,-26.3671875,1.0,-1.0,1.0,1.0,7.m4v,4.0
2024-02-27 13:55:20.864394,1709038520.864394,-25.87890625,-976.07421875,5.859375,-26.3671875,1.0,-1.0,1.0,1.0,7.m4v,4.0
2024-02-27 13:55:20.868300,1709038520.8683,140.625,-977.5390625,306.640625,-28.3203125,1.0,-1.0,1.0,1.0,7.m4v,4.0
2024-02-27 13:55:20.868300,1709038520.8683,140.625,-977.5390625,306.640625,-28.3203125,1.0,-1.0,1.0,1.0,7.m4v,4.0
2024-02-27 13:55:20.868300,1709038520.8683,140.625,-977.5390625,306.640625,-28.3203125,1.0,-1.0,1.0,1.0,7.m4v,4.0
2024-02-27 13:55:20.872206,1709038520.8722055,-151.3671875,-1000.0,-416.50390625,-39.55078125,1.0,-1.0,1.0,1.0,7.m4v,4.0
2024-02-27 13:55:20.872206,1709038520.8722055,-151.3671875,-1000.0,-416.50390625,-39.55078125,1.0,-1.0,1.0,1.0,7.m4v,4.0
2024-02-27 13:55:20.872206,1709038520.8722055,-151.3671875,-1000.0,-416.50390625,-39.55078125,1.0,-1.0,1.0,1.0,7.m4v,4.0
2024-02-27 13:55:20.876114,1709038520.876114,-285.64453125,-1000.0,-941.40625,-45.8984375,1.0,-1.0,1.0,1.0,7.m4v,4.0
2024-02-27 13:55:20.876114,1709038520.876114,-285.64453125,-1000.0,-941.40625,-45.8984375,1.0,-1.0,1.0,1.0,7.m4v,4.0
2024-02-27 13:55:20.876114,1709038520.876114,-285.64453125,-1000.0,-941.40625,-45.8984375,1.0,-1.0,1.0,1.0,7.m4v,4.0
2024-02-27 13:55:20.880020,1709038520.88002,-148.92578125,-1000.0,-661.1328125,-49.8046875,1.0,-1.0,1.0,1.0,7.m4v,4.0
2024-02-27 13:55:20.880020,1709038520.88002,-148.92578125,-1000.0,-661.1328125,-49.8046875,1.0,-1.0,1.0,1.0,7.m4v,4.0
2024-02-27 13:55:20.880020,1709038520.88002,-148.92578125,-1000.0,-661.1328125,-49.8046875,1.0,-1.0,1.0,1.0,7.m4v,4.0
2024-02-27 13:55:20.883926,1709038520.883926,187.98828125,-1000.0,249.51171875,-31.73828125,1.0,-1.0,1.0,1.0,7.m4v,4.0
2024-02-27 13:55:20.883926,1709038520.883926,187.98828125,-1000.0,249.51171875,-31.73828125,1.0,-1.0,1.0,1.0,7.m4v,4.0
2024-02-27 13:55:20.883926,1709038520.883926,187.98828125,-1000.0,249.51171875,-31.73828125,1.0,-1.0,1.0,1.0,7.m4v,4.0
2024-02-27 13:55:20.887832,1709038520.887832,310.546875,-936.5234375,699.21875,-25.87890625,1.0,-1.0,1.0,1.0,7.m4v,4.0
2024-02-27 13:55:20.887832,1709038520.887832,310.546875,-936.5234375,699.21875,-25.87890625,1.0,-1.0,1.0,1.0,7.m4v,4.0
2024-02-27 13:55:20.887832,1709038520.887832,310.546875,-936.5234375,699.21875,-25.87890625,1.0,-1.0,1.0,1.0,7.m4v,4.0
2024-02-27 13:55:20.891738,1709038520.8917377,-78.125,-1000.0,-101.07421875,-51.7578125,1.0,-1.0,1.0,1.0,7.m4v,4.0
2024-02-27 13:55:20.891738,1709038520.8917377,-78.125,-1000.0,-101.07421875,-51.7578125,1.0,-1.0,1.0,1.0,7.m4v,4.0
2024-02-27 13:55:20.891738,1709038520.8917377,-78.125,-1000.0,-101.07421875,-51.7578125,1.0,-1.0,1.0,1.0,7.m4v,4.0
2024-02-27 13:55:20.895644,1709038520.8956437,-73.2421875,-233.88671875,-443.84765625,-41.9921875,1.0,-1.0,1.0,1.0,7.m4v,4.0
2024-02-27 13:55:20.895644,1709038520.8956437,-73.2421875,-233.88671875,-443.84765625,-41.9921875,1.0,-1.0,1.0,1.0,7.m4v,4.0
2024-02-27 13:55:20.895644,1709038520.8956437,-73.2421875,-233.88671875,-443.84765625,-41.9921875,1.0,-1.0,1.0,1.0,7.m4v,4.0
2024-02-27 13:55:20.899549,1709038520.8995495,308.10546875,999.51171875,262.20703125,-19.04296875,1.0,-1.0,1.0,1.0,7.m4v,4.0
2024-02-27 13:55:20.899549,1709038520.8995495,308.10546875,999.51171875,262.20703125,-19.04296875,1.0,-1.0,1.0,1.0,7.m4v,4.0
2024-02-27 13:55:20.903455,1709038520.9034555,318.84765625,955.56640625,826.66015625,-20.01953125,1.0,-1.0,1.0,1.0,7.m4v,4.0
2024-02-27 13:55:20.903455,1709038520.9034555,318.84765625,955.56640625,826.66015625,-20.01953125,1.0,-1.0,1.0,1.0,7.m4v,4.0
2024-02-27 13:55:20.907361,1709038520.9073613,196.2890625,941.40625,902.83203125,-24.90234375,1.0,-1.0,1.0,1.0,7.m4v,4.0
2024-02-27 13:55:20.907361,1709038520.9073613,196.2890625,941.40625,902.83203125,-24.90234375,1.0,-1.0,1.0,1.0,7.m4v,4.0
2024-02-27 13:55:20.911267,1709038520.9112673,12.6953125,977.05078125,389.16015625,-33.69140625,1.0,-1.0,1.0,1.0,7.m4v,4.0
2024-02-27 13:55:20.911267,1709038520.9112673,12.6953125,977.05078125,389.16015625,-33.69140625,1.0,-1.0,1.0,1.0,7.m4v,4.0
2024-02-27 13:55:20.915173,1709038520.9151733,-195.80078125,969.7265625,-342.28515625,-39.55078125,1.0,-1.0,1.0,1.0,7.m4v,4.0
2024-02-27 13:55:20.915173,1709038520.9151733,-195.80078125,969.7265625,-342.28515625,-39.55078125,1.0,-1.0,1.0,1.0,7.m4v,4.0
2024-02-27 13:55:20.919079,1709038520.919079,-175.78125,970.21484375,-400.390625,-32.2265625,1.0,-1.0,1.0,1.0,7.m4v,4.0
2024-02-27 13:55:20.919079,1709038520.919079,-175.78125,970.21484375,-400.390625,-32.2265625,1.0,-1.0,1.0,1.0,7.m4v,4.0
2024-02-27 13:55:20.922987,1709038520.9229872,104.4921875,969.7265625,329.58984375,-26.3671875,1.0,-1.0,1.0,1.0,7.m4v,4.0
2024-02-27 13:55:20.922987,1709038520.9229872,104.4921875,969.7265625,329.58984375,-26.3671875,1.0,-1.0,1.0,1.0,7.m4v,4.0
2024-02-27 13:55:20.926893,1709038520.9268932,304.19921875,969.7265625,979.4921875,-23.92578125,1.0,-1.0,1.0,1.0,7.m4v,4.0
2024-02-27 13:55:20.926893,1709038520.9268932,304.19921875,969.7265625,979.4921875,-23.92578125,1.0,-1.0,1.0,1.0,7.m4v,4.0
2024-02-27 13:55:20.930799,1709038520.930799,95.21484375,969.7265625,593.26171875,-33.203125,1.0,-1.0,1.0,1.0,7.m4v,4.0
2024-02-27 13:55:20.930799,1709038520.930799,95.21484375,969.7265625,593.26171875,-33.203125,1.0,-1.0,1.0,1.0,7.m4v,4.0
2024-02-27 13:55:20.934705,1709038520.934705,-262.6953125,969.7265625,-355.46875,-52.734375,1.0,-1.0,1.0,1.0,7.m4v,4.0
2024-02-27 13:55:20.934705,1709038520.934705,-262.6953125,969.7265625,-355.46875,-52.734375,1.0,-1.0,1.0,1.0,7.m4v,4.0
2024-02-27 13:55:20.938611,1709038520.9386108,-242.67578125,970.21484375,-484.86328125,-44.43359375,1.0,-1.0,1.0,1.0,7.m4v,4.0
2024-02-27 13:55:20.938611,1709038520.9386108,-242.67578125,970.21484375,-484.86328125,-44.43359375,1.0,-1.0,1.0,1.0,7.m4v,4.0
2024-02-27 13:55:20.942517,1709038520.9425168,143.06640625,970.21484375,406.25,-22.4609375,1.0,-1.0,1.0,1.0,7.m4v,4.0
2024-02-27 13:55:20.942517,1709038520.9425168,143.06640625,970.21484375,406.25,-22.4609375,1.0,-1.0,1.0,1.0,7.m4v,4.0
2024-02-27 13:55:20.946423,1709038520.9464226,297.8515625,907.71484375,999.51171875,-19.53125,1.0,-1.0,1.0,1.0,7.m4v,4.0
2024-02-27 13:55:20.950329,1709038520.9503286,46.38671875,999.51171875,580.56640625,-40.0390625,1.0,-1.0,1.0,1.0,7.m4v,4.0
2024-02-27 13:55:20.954234,1709038520.9542344,-395.5078125,183.59375,-453.125,-54.6875,1.0,-1.0,1.0,1.0,7.m4v,4.0
2024-02-27 13:55:21.313600,1709038521.3136003,-216.30859375,-1000.0,-937.01171875,-45.8984375,1.0,-1.0,1.0,1.0,7.m4v,4.0
2024-02-27 13:55:21.313600,1709038521.3136003,-216.30859375,-1000.0,-937.01171875,-45.8984375,1.0,-1.0,1.0,1.0,7.m4v,4.0
2024-02-27 13:55:21.317506,1709038521.3175063,-8.30078125,-164.55078125,-823.73046875,-36.1328125,1.0,-1.0,1.0,1.0,7.m4v,4.0
2024-02-27 13:55:21.317506,1709038521.3175063,-8.30078125,-164.55078125,-823.73046875,-36.1328125,1.0,-1.0,1.0,1.0,7.m4v,4.0
2024-02-27 13:55:21.321412,1709038521.321412,413.0859375,999.51171875,142.08984375,-10.7421875,1.0,-1.0,1.0,1.0,7.m4v,4.0
2024-02-27 13:55:21.321412,1709038521.321412,413.0859375,999.51171875,142.08984375,-10.7421875,1.0,-1.0,1.0,1.0,7.m4v,4.0
2024-02-27 13:55:21.325318,1709038521.325318,349.609375,945.80078125,654.296875,-15.13671875,1.0,-1.0,1.0,1.0,7.m4v,4.0
2024-02-27 13:55:21.329224,1709038521.329224,26.85546875,946.77734375,56.15234375,-49.8046875,1.0,-1.0,1.0,1.0,7.m4v,4.0
2024-02-27 13:55:21.333130,1709038521.33313,-199.70703125,975.5859375,-743.1640625,-47.8515625,1.0,-1.0,1.0,1.0,7.m4v,4.0
2024-02-27 13:55:21.337036,1709038521.3370357,-232.91015625,969.7265625,-1000.0,-29.78515625,1.0,-1.0,1.0,1.0,7.m4v,4.0
2024-02-27 13:55:21.340942,1709038521.3409417,-41.50390625,982.421875,-626.46484375,-37.109375,1.0,-1.0,1.0,1.0,7.m4v,4.0
2024-02-27 13:55:21.344851,1709038521.344851,212.890625,919.921875,155.76171875,-23.4375,1.0,-1.0,1.0,1.0,7.m4v,4.0
2024-02-27 13:55:21.344851,1709038521.344851,212.890625,919.921875,155.76171875,-23.4375,1.0,-1.0,1.0,1.0,7.m4v,4.0
2024-02-27 13:55:21.348757,1709038521.3487568,167.96875,999.51171875,143.06640625,-27.34375,1.0,-1.0,1.0,1.0,7.m4v,4.0
2024-02-27 13:55:21.348757,1709038521.3487568,167.96875,999.51171875,143.06640625,-27.34375,1.0,-1.0,1.0,1.0,7.m4v,4.0
2024-02-27 13:55:21.352663,1709038521.3526628,-126.953125,830.56640625,-589.84375,-42.96875,1.0,-1.0,1.0,1.0,7.m4v,4.0
2024-02-27 13:55:21.352663,1709038521.3526628,-126.953125,830.56640625,-589.84375,-42.96875,1.0,-1.0,1.0,1.0,7.m4v,4.0
2024-02-27 13:55:21.356569,1709038521.3565686,-418.9453125,-470.703125,-1000.0,-60.546875,1.0,-1.0,1.0,1.0,7.m4v,4.0
2024-02-27 13:55:21.356569,1709038521.3565686,-418.9453125,-470.703125,-1000.0,-60.546875,1.0,-1.0,1.0,1.0,7.m4v,4.0
2024-02-27 13:55:21.360475,1709038521.3604746,-321.2890625,-1000.0,-859.86328125,-46.875,1.0,-1.0,1.0,1.0,7.m4v,4.0
2024-02-27 13:55:21.360475,1709038521.3604746,-321.2890625,-1000.0,-859.86328125,-46.875,1.0,-1.0,1.0,1.0,7.m4v,4.0
2024-02-27 13:55:21.364380,1709038521.3643804,207.51953125,-695.80078125,184.08203125,-6.8359375,1.0,-1.0,1.0,1.0,7.m4v,4.0
2024-02-27 13:55:21.364380,1709038521.3643804,207.51953125,-695.80078125,184.08203125,-6.8359375,1.0,-1.0,1.0,1.0,7.m4v,4.0
2024-02-27 13:55:21.368286,1709038521.3682864,464.35546875,685.05859375,633.7890625,-29.78515625,1.0,-1.0,1.0,1.0,7.m4v,4.0
2024-02-27 13:55:21.368286,1709038521.3682864,464.35546875,685.05859375,633.7890625,-29.78515625,1.0,-1.0,1.0,1.0,7.m4v,4.0
2024-02-27 13:55:21.372192,1709038521.372192,-21.484375,999.51171875,-422.36328125,-48.33984375,1.0,-1.0,1.0,1.0,7.m4v,4.0
2024-02-27 13:55:21.372192,1709038521.372192,-21.484375,999.51171875,-422.36328125,-48.33984375,1.0,-1.0,1.0,1.0,7.m4v,4.0
2024-02-27 13:55:21.376098,1709038521.3760982,-483.3984375,-418.45703125,-1000.0,-38.57421875,1.0,-1.0,1.0,1.0,7.m4v,4.0
2024-02-27 13:55:21.376098,1709038521.3760982,-483.3984375,-418.45703125,-1000.0,-38.57421875,1.0,-1.0,1.0,1.0,7.m4v,4.0
2024-02-27 13:55:21.380004,1709038521.380004,-283.203125,-1000.0,-755.37109375,-34.1796875,1.0,-1.0,1.0,1.0,7.m4v,4.0
2024-02-27 13:55:21.380004,1709038521.380004,-283.203125,-1000.0,-755.37109375,-34.1796875,1.0,-1.0,1.0,1.0,7.m4v,4.0
2024-02-27 13:55:21.383910,1709038521.38391,136.71875,-937.5,33.69140625,-26.85546875,1.0,-1.0,1.0,1.0,7.m4v,4.0
2024-02-27 13:55:21.383910,1709038521.38391,136.71875,-937.5,33.69140625,-26.85546875,1.0,-1.0,1.0,1.0,7.m4v,4.0
2024-02-27 13:55:21.387816,1709038521.3878157,104.00390625,-1000.0,80.078125,-45.8984375,1.0,-1.0,1.0,1.0,7.m4v,4.0
2024-02-27 13:55:21.387816,1709038521.3878157,104.00390625,-1000.0,80.078125,-45.8984375,1.0,-1.0,1.0,1.0,7.m4v,4.0
2024-02-27 13:55:21.391725,1709038521.391725,-169.43359375,-1000.0,-669.43359375,-49.31640625,1.0,-1.0,1.0,1.0,7.m4v,4.0
2024-02-27 13:55:21.395631,1709038521.395631,-235.3515625,-1000.0,-1000.0,-35.15625,1.0,-1.0,1.0,1.0,7.m4v,4.0
2024-02-27 13:55:21.399537,1709038521.3995368,-142.08984375,-971.6796875,-887.6953125,-30.76171875,1.0,-1.0,1.0,1.0,7.m4v,4.0
2024-02-27 13:55:21.403443,1709038521.4034429,126.46484375,-989.2578125,-158.69140625,-13.671875,1.0,-1.0,1.0,1.0,7.m4v,4.0
2024-02-27 13:55:21.407349,1709038521.4073486,244.140625,-1000.0,318.359375,-21.484375,1.0,-1.0,1.0,1.0,7.m4v,4.0
2024-02-27 13:55:21.411255,1709038521.4112546,292.48046875,206.54296875,267.578125,-19.53125,1.0,-1.0,1.0,1.0,7.m4v,4.0
2024-02-27 13:55:21.415160,1709038521.4151604,171.875,999.51171875,-36.62109375,-15.625,1.0,-1.0,1.0,1.0,7.m4v,4.0
2024-02-27 13:55:21.419066,1709038521.4190664,-132.32421875,909.1796875,-354.98046875,-24.90234375,1.0,-1.0,1.0,1.0,7.m4v,4.0
2024-02-27 13:55:21.422972,1709038521.4229722,46.38671875,970.21484375,215.33203125,-17.08984375,1.0,-1.0,1.0,1.0,7.m4v,4.0
2024-02-27 13:55:21.579221,1709038521.579221,-319.82421875,-979.00390625,-945.80078125,-30.76171875,1.0,-1.0,1.0,1.0,7.m4v,4.0
2024-02-27 13:55:21.583127,1709038521.5831268,11.23046875,-975.5859375,-286.62109375,-25.390625,1.0,-1.0,1.0,1.0,7.m4v,4.0
2024-02-27 13:55:21.587033,1709038521.5870328,204.58984375,-1000.0,287.109375,-35.15625,1.0,-1.0,1.0,1.0,7.m4v,4.0
2024-02-27 13:55:21.590939,1709038521.5909386,-15.625,-985.3515625,-196.77734375,-46.875,1.0,-1.0,1.0,1.0,7.m4v,4.0
2024-02-27 13:55:21.594845,1709038521.5948446,-279.296875,-962.40234375,-937.01171875,-39.55078125,1.0,-1.0,1.0,1.0,7.m4v,4.0
2024-02-27 13:55:21.598750,1709038521.5987504,-222.16796875,-1000.0,-827.63671875,-45.41015625,1.0,-1.0,1.0,1.0,7.m4v,4.0
2024-02-27 13:55:21.602656,1709038521.6026564,313.4765625,19.04296875,263.671875,-30.2734375,1.0,-1.0,1.0,1.0,7.m4v,4.0
2024-02-27 13:55:21.606562,1709038521.606562,480.46875,999.51171875,736.328125,-16.11328125,1.0,-1.0,1.0,1.0,7.m4v,4.0
2024-02-27 13:55:21.610468,1709038521.610468,10.25390625,923.828125,-11.71875,-28.80859375,1.0,-1.0,1.0,1.0,7.m4v,4.0
2024-02-27 13:55:21.614374,1709038521.614374,-282.2265625,959.47265625,-827.63671875,-57.12890625,1.0,-1.0,1.0,1.0,7.m4v,4.0
2024-02-27 13:55:21.618280,1709038521.61828,-227.5390625,972.16796875,-871.09375,-67.87109375,1.0,-1.0,1.0,1.0,7.m4v,4.0
2024-02-27 13:55:21.622186,1709038521.6221857,115.234375,978.02734375,20.01953125,-46.38671875,1.0,-1.0,1.0,1.0,7.m4v,4.0
2024-02-27 13:55:21.626094,1709038521.6260943,305.6640625,935.05859375,731.4453125,-20.01953125,1.0,-1.0,1.0,1.0,7.m4v,4.0
2024-02-27 13:55:21.630000,1709038521.63,53.22265625,975.5859375,256.34765625,-36.62109375,1.0,-1.0,1.0,1.0,7.m4v,4.0
2024-02-27 13:55:21.633906,1709038521.633906,-241.2109375,962.40234375,-670.8984375,-55.17578125,1.0,-1.0,1.0,1.0,7.m4v,4.0
2024-02-27 13:55:21.637812,1709038521.637812,-412.59765625,-321.2890625,-1000.0,-22.4609375,1.0,-1.0,1.0,1.0,7.m4v,4.0
2024-02-27 13:55:21.641718,1709038521.641718,-308.59375,-1000.0,-737.79296875,-19.53125,1.0,-1.0,1.0,1.0,7.m4v,4.0
2024-02-27 13:55:21.645624,1709038521.6456237,181.640625,-939.94140625,300.29296875,-24.90234375,1.0,-1.0,1.0,1.0,7.m4v,4.0
2024-02-27 13:55:21.649530,1709038521.6495297,213.8671875,-1000.0,429.6875,-41.9921875,1.0,-1.0,1.0,1.0,7.m4v,4.0
2024-02-27 13:55:21.653435,1709038521.6534357,-248.046875,-1000.0,-635.7421875,-61.5234375,1.0,-1.0,1.0,1.0,7.m4v,4.0
2024-02-27 13:55:21.657341,1709038521.6573417,-351.07421875,-1000.0,-1000.0,-59.5703125,1.0,-1.0,1.0,1.0,7.m4v,4.0
2024-02-27 13:55:21.661247,1709038521.6612473,-62.5,-1000.0,-556.640625,-53.7109375,1.0,-1.0,1.0,1.0,7.m4v,4.0
2024-02-27 13:55:21.665153,1709038521.6651533,237.3046875,-1000.0,232.91015625,-33.203125,1.0,-1.0,1.0,1.0,7.m4v,4.0
2024-02-27 13:55:21.669059,1709038521.669059,177.24609375,-1000.0,178.7109375,-37.109375,1.0,-1.0,1.0,1.0,7.m4v,4.0
2024-02-27 13:55:21.672967,1709038521.6729672,-145.99609375,-937.5,-620.1171875,-58.59375,1.0,-1.0,1.0,1.0,7.m4v,4.0
2024-02-27 13:55:21.676873,1709038521.676873,-277.83203125,-1000.0,-1000.0,-48.33984375,1.0,-1.0,1.0,1.0,7.m4v,4.0
2024-02-27 13:55:21.680779,1709038521.680779,153.80859375,-219.23828125,-323.2421875,-31.73828125,1.0,-1.0,1.0,1.0,7.m4v,4.0
2024-02-27 13:55:21.684685,1709038521.6846848,587.40234375,999.51171875,734.86328125,-29.296875,1.0,-1.0,1.0,1.0,7.m4v,4.0
2024-02-27 13:55:21.688591,1709038521.6885908,286.62109375,953.61328125,534.66796875,-38.0859375,1.0,-1.0,1.0,1.0,7.m4v,4.0
2024-02-27 13:55:21.692497,1709038521.6924963,-36.62109375,942.3828125,-115.234375,-43.9453125,1.0,-1.0,1.0,1.0,7.m4v,4.0
2024-02-27 13:55:21.696403,1709038521.6964023,-124.0234375,976.5625,-414.0625,-52.24609375,1.0,-1.0,1.0,1.0,7.m4v,4.0
2024-02-27 13:55:21.700308,1709038521.7003083,-144.53125,969.7265625,-361.328125,-62.01171875,1.0,-1.0,1.0,1.0,7.m4v,4.0
2024-02-27 13:55:21.704214,1709038521.7042143,73.2421875,981.93359375,181.640625,-33.203125,1.0,-1.0,1.0,1.0,7.m4v,4.0
2024-02-27 13:55:21.708120,1709038521.70812,142.08984375,898.92578125,318.359375,-44.43359375,1.0,-1.0,1.0,1.0,7.m4v,4.0
2024-02-27 13:55:21.712026,1709038521.712026,-68.84765625,999.51171875,-333.0078125,-50.29296875,1.0,-1.0,1.0,1.0,7.m4v,4.0
2024-02-27 13:55:21.715932,1709038521.715932,-306.15234375,494.62890625,-942.87109375,-46.875,1.0,-1.0,1.0,1.0,7.m4v,4.0
2024-02-27 13:55:21.719841,1709038521.7198417,-388.671875,-913.57421875,-806.15234375,-55.6640625,1.0,-1.0,1.0,1.0,7.m4v,4.0
2024-02-27 13:55:21.723747,1709038521.7237475,-53.7109375,-1000.0,-48.828125,-27.83203125,1.0,-1.0,1.0,1.0,7.m4v,4.0
2024-02-27 13:55:21.727653,1709038521.7276533,129.8828125,-948.2421875,224.609375,-43.9453125,1.0,-1.0,1.0,1.0,7.m4v,4.0
2024-02-27 13:55:21.731559,1709038521.7315593,-78.61328125,-953.61328125,-354.98046875,-56.15234375,1.0,-1.0,1.0,1.0,7.m4v,4.0
2024-02-27 13:55:21.735465,1709038521.735465,-269.53125,-1000.0,-879.39453125,-45.41015625,1.0,-1.0,1.0,1.0,7.m4v,4.0
2024-02-27 13:55:21.739371,1709038521.739371,83.0078125,-193.84765625,-253.41796875,-34.1796875,1.0,-1.0,1.0,1.0,7.m4v,4.0
2024-02-27 13:55:21.743277,1709038521.7432768,521.484375,999.51171875,822.265625,-17.578125,1.0,-1.0,1.0,1.0,7.m4v,4.0
2024-02-27 13:55:21.747183,1709038521.7471828,284.1796875,883.30078125,889.16015625,-39.0625,1.0,-1.0,1.0,1.0,7.m4v,4.0
2024-02-27 13:55:21.751089,1709038521.7510886,-124.0234375,999.51171875,-29.78515625,-44.43359375,1.0,-1.0,1.0,1.0,7.m4v,4.0
2024-02-27 13:55:21.754995,1709038521.7549946,-373.53515625,624.0234375,-907.71484375,-30.76171875,1.0,-1.0,1.0,1.0,7.m4v,4.0
2024-02-27 13:55:21.758900,1709038521.7589004,-455.078125,-801.7578125,-927.734375,-51.26953125,1.0,-1.0,1.0,1.0,7.m4v,4.0
2024-02-27 13:55:21.762806,1709038521.7628064,-122.55859375,-1000.0,-217.7734375,-43.45703125,1.0,-1.0,1.0,1.0,7.m4v,4.0
2024-02-27 13:55:21.766716,1709038521.7667155,148.92578125,-942.3828125,229.4921875,-27.34375,1.0,-1.0,1.0,1.0,7.m4v,4.0
2024-02-27 13:55:21.770622,1709038521.7706215,-2.44140625,-1000.0,-145.5078125,-22.94921875,1.0,-1.0,1.0,1.0,7.m4v,4.0
2024-02-27 13:55:21.774527,1709038521.7745273,-190.91796875,-966.30859375,-736.81640625,-24.4140625,1.0,-1.0,1.0,1.0,7.m4v,4.0
2024-02-27 13:55:21.778433,1709038521.778433,-232.421875,-1000.0,-904.296875,-30.2734375,1.0,-1.0,1.0,1.0,7.m4v,4.0
2024-02-27 13:55:21.782339,1709038521.782339,18.06640625,-1000.0,-166.015625,-30.2734375,1.0,-1.0,1.0,1.0,7.m4v,4.0
2024-02-27 13:55:21.786245,1709038521.786245,492.67578125,275.390625,810.546875,-16.6015625,1.0,-1.0,1.0,1.0,7.m4v,4.0
2024-02-27 13:55:21.790151,1709038521.790151,445.3125,999.51171875,821.2890625,-34.66796875,1.0,-1.0,1.0,1.0,7.m4v,4.0
2024-02-27 13:55:21.794057,1709038521.794057,-138.18359375,906.25,-153.80859375,-58.59375,1.0,-1.0,1.0,1.0,7.m4v,4.0
2024-02-27 13:55:21.794057,1709038521.794057,-138.18359375,906.25,-153.80859375,-58.59375,1.0,-1.0,1.0,1.0,7.m4v,4.0
2024-02-27 13:55:21.797963,1709038521.797963,-307.12890625,973.14453125,-623.53515625,-39.55078125,1.0,-1.0,1.0,1.0,7.m4v,4.0
2024-02-27 13:55:21.797963,1709038521.797963,-307.12890625,973.14453125,-623.53515625,-39.55078125,1.0,-1.0,1.0,1.0,7.m4v,4.0
2024-02-27 13:55:21.801869,1709038521.801869,47.8515625,969.7265625,173.828125,-31.73828125,1.0,-1.0,1.0,1.0,7.m4v,4.0
2024-02-27 13:55:21.801869,1709038521.801869,47.8515625,969.7265625,173.828125,-31.73828125,1.0,-1.0,1.0,1.0,7.m4v,4.0
2024-02-27 13:55:21.805774,1709038521.8057745,252.9296875,969.7265625,872.0703125,-34.1796875,1.0,-1.0,1.0,1.0,7.m4v,4.0
2024-02-27 13:55:21.805774,1709038521.8057745,252.9296875,969.7265625,872.0703125,-34.1796875,1.0,-1.0,1.0,1.0,7.m4v,4.0
2024-02-27 13:55:21.809680,1709038521.8096805,17.08984375,969.7265625,403.3203125,-47.8515625,1.0,-1.0,1.0,1.0,7.m4v,4.0
2024-02-27 13:55:21.809680,1709038521.8096805,17.08984375,969.7265625,403.3203125,-47.8515625,1.0,-1.0,1.0,1.0,7.m4v,4.0
2024-02-27 13:55:21.813590,1709038521.8135896,-230.46875,969.7265625,-420.41015625,-48.33984375,1.0,-1.0,1.0,1.0,7.m4v,4.0
2024-02-27 13:55:21.813590,1709038521.8135896,-230.46875,969.7265625,-420.41015625,-48.33984375,1.0,-1.0,1.0,1.0,7.m4v,4.0
2024-02-27 13:55:21.817496,1709038521.8174956,-259.765625,969.7265625,-676.26953125,-43.9453125,1.0,-1.0,1.0,1.0,7.m4v,4.0
2024-02-27 13:55:21.817496,1709038521.8174956,-259.765625,969.7265625,-676.26953125,-43.9453125,1.0,-1.0,1.0,1.0,7.m4v,4.0
2024-02-27 13:55:21.821401,1709038521.8214014,-35.64453125,969.7265625,-119.140625,-32.71484375,1.0,-1.0,1.0,1.0,7.m4v,4.0
2024-02-27 13:55:21.821401,1709038521.8214014,-35.64453125,969.7265625,-119.140625,-32.71484375,1.0,-1.0,1.0,1.0,7.m4v,4.0
2024-02-27 13:55:21.825307,1709038521.8253074,234.86328125,969.7265625,680.6640625,-35.64453125,1.0,-1.0,1.0,1.0,7.m4v,4.0
2024-02-27 13:55:21.825307,1709038521.8253074,234.86328125,969.7265625,680.6640625,-35.64453125,1.0,-1.0,1.0,1.0,7.m4v,4.0
2024-02-27 13:55:21.829213,1709038521.8292131,117.67578125,969.7265625,531.25,-44.43359375,1.0,-1.0,1.0,1.0,7.m4v,4.0
2024-02-27 13:55:21.829213,1709038521.8292131,117.67578125,969.7265625,531.25,-44.43359375,1.0,-1.0,1.0,1.0,7.m4v,4.0
2024-02-27 13:55:21.833119,1709038521.8331192,-85.44921875,969.7265625,39.0625,-50.29296875,1.0,-1.0,1.0,1.0,7.m4v,4.0
2024-02-27 13:55:21.833119,1709038521.8331192,-85.44921875,969.7265625,39.0625,-50.29296875,1.0,-1.0,1.0,1.0,7.m4v,4.0
2024-02-27 13:55:21.837025,1709038521.837025,-131.8359375,983.88671875,-61.03515625,-46.38671875,1.0,-1.0,1.0,1.0,7.m4v,4.0
2024-02-27 13:55:21.837025,1709038521.837025,-131.8359375,983.88671875,-61.03515625,-46.38671875,1.0,-1.0,1.0,1.0,7.m4v,4.0
2024-02-27 13:55:21.840931,1709038521.840931,-77.63671875,908.69140625,208.0078125,-42.96875,1.0,-1.0,1.0,1.0,7.m4v,4.0
2024-02-27 13:55:21.840931,1709038521.840931,-77.63671875,908.69140625,208.0078125,-42.96875,1.0,-1.0,1.0,1.0,7.m4v,4.0
2024-02-27 13:55:21.844837,1709038521.8448367,130.859375,999.51171875,776.85546875,-27.83203125,1.0,-1.0,1.0,1.0,7.m4v,4.0
2024-02-27 13:55:21.844837,1709038521.8448367,130.859375,999.51171875,776.85546875,-27.83203125,1.0,-1.0,1.0,1.0,7.m4v,4.0
2024-02-27 13:55:21.848743,1709038521.8487427,26.85546875,726.5625,554.6875,-41.50390625,1.0,-1.0,1.0,1.0,7.m4v,4.0
2024-02-27 13:55:21.848743,1709038521.8487427,26.85546875,726.5625,554.6875,-41.50390625,1.0,-1.0,1.0,1.0,7.m4v,4.0
2024-02-27 13:55:21.852648,1709038521.8526485,-417.48046875,-690.4296875,-365.234375,-52.734375,1.0,-1.0,1.0,1.0,7.m4v,4.0
2024-02-27 13:55:21.852648,1709038521.8526485,-417.48046875,-690.4296875,-365.234375,-52.734375,1.0,-1.0,1.0,1.0,7.m4v,4.0
2024-02-27 13:55:21.856555,1709038521.8565545,-546.38671875,-1000.0,-968.26171875,-54.19921875,1.0,-1.0,1.0,1.0,7.m4v,4.0
2024-02-27 13:55:21.856555,1709038521.8565545,-546.38671875,-1000.0,-968.26171875,-54.19921875,1.0,-1.0,1.0,1.0,7.m4v,4.0
2024-02-27 13:55:21.860464,1709038521.8604636,-151.3671875,-937.5,-388.671875,-46.38671875,1.0,-1.0,1.0,1.0,7.m4v,4.0
2024-02-27 13:55:21.860464,1709038521.8604636,-151.3671875,-937.5,-388.671875,-46.38671875,1.0,-1.0,1.0,1.0,7.m4v,4.0
2024-02-27 13:55:21.864369,1709038521.8643694,252.44140625,-1000.0,664.55078125,-4.39453125,1.0,-1.0,1.0,1.0,7.m4v,4.0
2024-02-27 13:55:21.864369,1709038521.8643694,252.44140625,-1000.0,664.55078125,-4.39453125,1.0,-1.0,1.0,1.0,7.m4v,4.0
2024-02-27 13:55:21.868275,1709038521.8682754,97.65625,-1000.0,508.30078125,-39.0625,1.0,-1.0,1.0,1.0,7.m4v,4.0
2024-02-27 13:55:21.868275,1709038521.8682754,97.65625,-1000.0,508.30078125,-39.0625,1.0,-1.0,1.0,1.0,7.m4v,4.0
2024-02-27 13:55:21.872181,1709038521.8721812,-260.7421875,-958.0078125,-451.171875,-66.40625,1.0,-1.0,1.0,1.0,7.m4v,4.0
2024-02-27 13:55:21.872181,1709038521.8721812,-260.7421875,-958.0078125,-451.171875,-66.40625,1.0,-1.0,1.0,1.0,7.m4v,4.0
2024-02-27 13:55:21.876087,1709038521.8760872,-365.72265625,-1000.0,-1000.0,-57.12890625,1.0,-1.0,1.0,1.0,7.m4v,4.0
2024-02-27 13:55:21.876087,1709038521.8760872,-365.72265625,-1000.0,-1000.0,-57.12890625,1.0,-1.0,1.0,1.0,7.m4v,4.0
2024-02-27 13:55:21.879993,1709038521.879993,-108.3984375,-942.87109375,-532.71484375,-56.640625,1.0,-1.0,1.0,1.0,7.m4v,4.0
2024-02-27 13:55:21.879993,1709038521.879993,-108.3984375,-942.87109375,-532.71484375,-56.640625,1.0,-1.0,1.0,1.0,7.m4v,4.0
2024-02-27 13:55:21.883899,1709038521.883899,444.3359375,394.04296875,669.43359375,-33.69140625,1.0,-1.0,1.0,1.0,7.m4v,4.0
2024-02-27 13:55:21.883899,1709038521.883899,444.3359375,394.04296875,669.43359375,-33.69140625,1.0,-1.0,1.0,1.0,7.m4v,4.0
2024-02-27 13:55:21.887805,1709038521.8878047,386.71875,999.51171875,743.65234375,-34.1796875,1.0,-1.0,1.0,1.0,7.m4v,4.0
2024-02-27 13:55:21.891711,1709038521.8917108,-131.8359375,905.2734375,-295.41015625,-45.41015625,1.0,-1.0,1.0,1.0,7.m4v,4.0
2024-02-27 13:55:21.895617,1709038521.8956163,-304.19921875,976.5625,-939.94140625,-50.29296875,1.0,-1.0,1.0,1.0,7.m4v,4.0
2024-02-27 13:55:21.899523,1709038521.8995223,-105.46875,970.21484375,-570.80078125,-46.875,1.0,-1.0,1.0,1.0,7.m4v,4.0
2024-02-27 13:55:21.903428,1709038521.9034283,269.04296875,979.98046875,457.03125,-22.4609375,1.0,-1.0,1.0,1.0,7.m4v,4.0
2024-02-27 13:55:21.907337,1709038521.907337,274.90234375,924.31640625,762.6953125,-24.4140625,1.0,-1.0,1.0,1.0,7.m4v,4.0
2024-02-27 13:55:21.911243,1709038521.911243,-80.078125,999.51171875,-42.48046875,-43.9453125,1.0,-1.0,1.0,1.0,7.m4v,4.0
2024-02-27 13:55:21.915149,1709038521.9151487,-289.0625,858.88671875,-798.828125,-52.734375,1.0,-1.0,1.0,1.0,7.m4v,4.0
2024-02-27 13:55:21.919055,1709038521.9190547,-341.30859375,-481.93359375,-727.05078125,-35.64453125,1.0,-1.0,1.0,1.0,7.m4v,4.0
2024-02-27 13:55:21.922961,1709038521.9229603,-75.1953125,-1000.0,56.640625,-24.90234375,1.0,-1.0,1.0,1.0,7.m4v,4.0
2024-02-27 13:55:21.926867,1709038521.9268663,233.88671875,-938.4765625,716.30859375,-43.9453125,1.0,-1.0,1.0,1.0,7.m4v,4.0
2024-02-27 13:55:21.930772,1709038521.9307723,-11.23046875,-1000.0,107.421875,-39.0625,1.0,-1.0,1.0,1.0,7.m4v,4.0
2024-02-27 13:55:21.934678,1709038521.9346783,-374.0234375,-1000.0,-911.62109375,-39.55078125,1.0,-1.0,1.0,1.0,7.m4v,4.0
2024-02-27 13:55:21.938584,1709038521.938584,-318.359375,-1000.0,-1000.0,-34.66796875,1.0,-1.0,1.0,1.0,7.m4v,4.0
2024-02-27 13:55:21.942490,1709038521.94249,-25.390625,-1000.0,-497.55859375,-16.11328125,1.0,-1.0,1.0,1.0,7.m4v,4.0
2024-02-27 13:55:21.946396,1709038521.946396,196.2890625,-1000.0,149.4140625,-55.17578125,1.0,-1.0,1.0,1.0,7.m4v,4.0
2024-02-27 13:55:21.950302,1709038521.950302,22.4609375,-1000.0,-334.9609375,-47.8515625,1.0,-1.0,1.0,1.0,7.m4v,4.0
2024-02-27 13:55:21.954210,1709038521.9542103,-195.3125,-1000.0,-974.609375,-28.80859375,1.0,-1.0,1.0,1.0,7.m4v,4.0
2024-02-27 13:55:21.958116,1709038521.9581163,-201.171875,-1000.0,-1000.0,-38.0859375,1.0,-1.0,1.0,1.0,7.m4v,4.0
2024-02-27 13:55:21.962022,1709038521.962022,-17.08984375,-984.86328125,-602.5390625,-29.296875,1.0,-1.0,1.0,1.0,7.m4v,4.0
2024-02-27 13:55:21.965928,1709038521.965928,218.75,-962.890625,71.2890625,-35.64453125,1.0,-1.0,1.0,1.0,7.m4v,4.0
2024-02-27 13:55:21.969834,1709038521.969834,37.109375,-1000.0,-273.92578125,-51.7578125,1.0,-1.0,1.0,1.0,7.m4v,4.0
2024-02-27 13:55:21.973740,1709038521.97374,19.04296875,29.296875,-710.9375,-30.2734375,1.0,-1.0,1.0,1.0,7.m4v,4.0
2024-02-27 13:55:21.977646,1709038521.9776456,127.44140625,999.51171875,-594.7265625,-30.2734375,1.0,-1.0,1.0,1.0,7.m4v,4.0
2024-02-27 13:55:21.981552,1709038521.9815516,119.140625,922.36328125,-127.44140625,-38.0859375,1.0,-1.0,1.0,1.0,7.m4v,4.0
2024-02-27 13:55:21.985457,1709038521.9854574,198.2421875,960.44921875,290.0390625,-21.484375,1.0,-1.0,1.0,1.0,7.m4v,4.0
2024-02-27 13:55:21.989363,1709038521.9893634,-17.578125,971.6796875,-246.58203125,-33.203125,1.0,-1.0,1.0,1.0,7.m4v,4.0
2024-02-27 13:55:21.993269,1709038521.9932692,-224.609375,970.21484375,-910.15625,-44.921875,1.0,-1.0,1.0,1.0,7.m4v,4.0
2024-02-27 13:55:21.997175,1709038521.9971752,-201.171875,970.21484375,-1000.0,-48.33984375,1.0,-1.0,1.0,1.0,7.m4v,4.0
2024-02-27 13:55:22.001084,1709038522.0010836,-75.1953125,969.7265625,-811.5234375,-31.73828125,1.0,-1.0,1.0,1.0,7.m4v,4.0
2024-02-27 13:55:22.004989,1709038522.0049894,189.94140625,969.7265625,-78.125,-23.92578125,1.0,-1.0,1.0,1.0,7.m4v,4.0
2024-02-27 13:55:22.008895,1709038522.0088954,128.41796875,969.7265625,-156.25,-41.015625,1.0,-1.0,1.0,1.0,7.m4v,4.0
2024-02-27 13:55:22.012801,1709038522.0128012,-170.41015625,969.7265625,-873.046875,-46.875,1.0,-1.0,1.0,1.0,7.m4v,4.0
2024-02-27 13:55:22.016707,1709038522.0167072,-187.5,979.4921875,-1000.0,-38.57421875,1.0,-1.0,1.0,1.0,7.m4v,4.0
2024-02-27 13:55:22.180764,1709038522.180764,-301.7578125,-1000.0,-852.05078125,-49.8046875,1.0,-1.0,1.0,1.0,7.m4v,4.0
2024-02-27 13:55:22.188579,1709038522.1885788,94.23828125,-1000.0,-257.32421875,-40.0390625,1.0,-1.0,1.0,1.0,7.m4v,4.0
2024-02-27 13:55:22.200297,1709038522.2002966,-85.44921875,-937.5,-888.18359375,-41.015625,1.0,-1.0,1.0,1.0,7.m4v,4.0
2024-02-27 13:55:22.208108,1709038522.2081084,324.21875,-219.23828125,129.39453125,-36.1328125,1.0,-1.0,1.0,1.0,7.m4v,4.0
2024-02-27 13:55:22.215920,1709038522.2159202,-145.99609375,953.61328125,-958.49609375,-39.55078125,1.0,-1.0,1.0,1.0,7.m4v,4.0
2024-02-27 13:55:22.219826,1709038522.219826,-88.8671875,942.87109375,-674.8046875,-35.64453125,1.0,-1.0,1.0,1.0,7.m4v,4.0
2024-02-27 13:55:22.223732,1709038522.223732,281.25,976.5625,341.30859375,-29.296875,1.0,-1.0,1.0,1.0,7.m4v,4.0
2024-02-27 13:55:22.227638,1709038522.2276378,166.50390625,969.7265625,249.51171875,-32.71484375,1.0,-1.0,1.0,1.0,7.m4v,4.0
2024-02-27 13:55:22.231544,1709038522.2315438,-121.58203125,969.7265625,-505.859375,-27.83203125,1.0,-1.0,1.0,1.0,7.m4v,4.0
