Timestamp,Timestamp_UNIX,TP9,AF7,AF8,TP10,Valence,Arousal,Dominace,Viewed,Video,Participant
2024-02-27 13:45:32.096093,1709037932.0960934,-786.62109375,-882.32421875,-365.234375,-41.50390625,1.0,0.0,1.0,1.0,5.m4v,4.0
2024-02-27 13:45:32.099999,1709037932.0999992,354.98046875,-1000.0,463.8671875,-17.578125,1.0,0.0,1.0,1.0,5.m4v,4.0
2024-02-27 13:45:32.103905,1709037932.103905,999.51171875,-702.63671875,502.9296875,-25.390625,1.0,0.0,1.0,1.0,5.m4v,4.0
2024-02-27 13:45:32.107811,1709037932.1078107,969.7265625,734.375,58.10546875,-34.1796875,1.0,0.0,1.0,1.0,5.m4v,4.0
2024-02-27 13:45:32.111717,1709037932.1117165,37.59765625,999.51171875,-362.79296875,-34.66796875,1.0,0.0,1.0,1.0,5.m4v,4.0
2024-02-27 13:45:32.119528,1709037932.1195278,999.51171875,922.8515625,999.51171875,-24.4140625,1.0,0.0,1.0,1.0,5.m4v,4.0
2024-02-27 13:45:32.123434,1709037932.1234336,729.00390625,999.51171875,655.76171875,-34.66796875,1.0,0.0,1.0,1.0,5.m4v,4.0
2024-02-27 13:45:32.131245,1709037932.1312451,-1000.0,-1000.0,-958.0078125,-60.546875,1.0,0.0,1.0,1.0,5.m4v,4.0
2024-02-27 13:45:32.139057,1709037932.1390567,-181.640625,-974.12109375,199.21875,-27.83203125,1.0,0.0,1.0,1.0,5.m4v,4.0
2024-02-27 13:45:32.146871,1709037932.146871,335.44921875,-1000.0,-183.10546875,-28.80859375,1.0,0.0,1.0,1.0,5.m4v,4.0
2024-02-27 13:45:32.154682,1709037932.1546824,-1000.0,-980.95703125,-665.0390625,-38.57421875,1.0,0.0,1.0,1.0,5.m4v,4.0
2024-02-27 13:45:32.162494,1709037932.162494,921.38671875,105.46875,610.83984375,-15.13671875,1.0,0.0,1.0,1.0,5.m4v,4.0
2024-02-27 13:45:32.170305,1709037932.1703055,268.5546875,751.46484375,-220.703125,-35.64453125,1.0,0.0,1.0,1.0,5.m4v,4.0
2024-02-27 13:45:32.178117,1709037932.1781168,-985.3515625,-1000.0,-452.1484375,-46.38671875,1.0,0.0,1.0,1.0,5.m4v,4.0
2024-02-27 13:45:32.185928,1709037932.1859283,45.8984375,-1000.0,-582.03125,-41.015625,1.0,0.0,1.0,1.0,5.m4v,4.0
2024-02-27 13:45:32.193743,1709037932.1937425,-1000.0,-1000.0,-961.42578125,-41.50390625,1.0,0.0,1.0,1.0,5.m4v,4.0
2024-02-27 13:45:32.201554,1709037932.201554,999.51171875,710.9375,525.390625,-17.08984375,1.0,0.0,1.0,1.0,5.m4v,4.0
2024-02-27 13:45:32.424197,1709037932.4241974,671.875,-1000.0,235.3515625,-29.78515625,1.0,0.0,1.0,1.0,5.m4v,4.0
2024-02-27 13:45:32.428103,1709037932.4281032,-128.90625,-1000.0,-460.9375,-44.43359375,1.0,0.0,1.0,1.0,5.m4v,4.0
2024-02-27 13:45:32.432009,1709037932.432009,-1000.0,-938.96484375,-828.125,-41.015625,1.0,0.0,1.0,1.0,5.m4v,4.0
2024-02-27 13:45:32.435915,1709037932.4359148,-631.34765625,-1000.0,-319.82421875,-36.1328125,1.0,0.0,1.0,1.0,5.m4v,4.0
2024-02-27 13:45:32.439821,1709037932.4398203,582.03125,-187.01171875,566.40625,-25.390625,1.0,0.0,1.0,1.0,5.m4v,4.0
2024-02-27 13:45:32.443726,1709037932.4437263,999.51171875,976.07421875,999.51171875,-16.6015625,1.0,0.0,1.0,1.0,5.m4v,4.0
2024-02-27 13:45:32.447632,1709037932.4476318,718.75,999.51171875,383.7890625,-36.62109375,1.0,0.0,1.0,1.0,5.m4v,4.0
2024-02-27 13:45:32.451538,1709037932.4515376,-416.50390625,557.6171875,-449.70703125,-49.31640625,1.0,0.0,1.0,1.0,5.m4v,4.0
2024-02-27 13:45:32.455443,1709037932.4554434,-1000.0,-823.2421875,-406.73828125,-43.45703125,1.0,0.0,1.0,1.0,5.m4v,4.0
2024-02-27 13:45:32.459349,1709037932.4593492,-549.8046875,-1000.0,259.765625,-38.57421875,1.0,0.0,1.0,1.0,5.m4v,4.0
2024-02-27 13:45:32.463255,1709037932.463255,384.27734375,-1000.0,378.41796875,-38.0859375,1.0,0.0,1.0,1.0,5.m4v,4.0
2024-02-27 13:45:32.467161,1709037932.4671607,874.0234375,-4.8828125,42.48046875,-31.25,1.0,0.0,1.0,1.0,5.m4v,4.0
2024-02-27 13:45:32.471070,1709037932.4710698,584.9609375,999.51171875,-266.6015625,-42.96875,1.0,0.0,1.0,1.0,5.m4v,4.0
2024-02-27 13:45:32.474975,1709037932.474975,-329.1015625,924.8046875,-181.15234375,-36.62109375,1.0,0.0,1.0,1.0,5.m4v,4.0
2024-02-27 13:45:32.478881,1709037932.4788811,271.484375,959.47265625,537.59765625,-13.18359375,1.0,0.0,1.0,1.0,5.m4v,4.0
2024-02-27 13:45:32.482787,1709037932.482787,999.51171875,972.16796875,701.171875,-37.109375,1.0,0.0,1.0,1.0,5.m4v,4.0
2024-02-27 13:45:32.486693,1709037932.486693,108.3984375,969.7265625,-29.78515625,-59.08203125,1.0,0.0,1.0,1.0,5.m4v,4.0
2024-02-27 13:45:32.490598,1709037932.4905984,-1000.0,970.21484375,-281.25,-46.38671875,1.0,0.0,1.0,1.0,5.m4v,4.0
2024-02-27 13:45:32.494504,1709037932.4945042,-677.734375,984.86328125,88.37890625,-37.59765625,1.0,0.0,1.0,1.0,5.m4v,4.0
2024-02-27 13:45:32.498410,1709037932.49841,295.8984375,898.4375,539.0625,-32.71484375,1.0,0.0,1.0,1.0,5.m4v,4.0
2024-02-27 13:45:32.502316,1709037932.5023155,999.51171875,999.51171875,876.953125,-29.296875,1.0,0.0,1.0,1.0,5.m4v,4.0
2024-02-27 13:45:32.506221,1709037932.5062213,206.0546875,582.03125,196.77734375,-42.48046875,1.0,0.0,1.0,1.0,5.m4v,4.0
2024-02-27 13:45:32.510127,1709037932.510127,-987.3046875,-856.93359375,-806.15234375,-59.08203125,1.0,0.0,1.0,1.0,5.m4v,4.0
2024-02-27 13:45:32.514033,1709037932.5140328,-1000.0,-1000.0,-895.99609375,-49.8046875,1.0,0.0,1.0,1.0,5.m4v,4.0
2024-02-27 13:45:32.517942,1709037932.5179417,-638.671875,-877.44140625,-110.3515625,-35.15625,1.0,0.0,1.0,1.0,5.m4v,4.0
2024-02-27 13:45:32.521847,1709037932.5218472,541.015625,-1000.0,355.95703125,-31.25,1.0,0.0,1.0,1.0,5.m4v,4.0
2024-02-27 13:45:32.525753,1709037932.525753,999.51171875,-266.6015625,133.7890625,-28.3203125,1.0,0.0,1.0,1.0,5.m4v,4.0
2024-02-27 13:45:32.529659,1709037932.5296588,816.40625,999.51171875,-222.16796875,-21.97265625,1.0,0.0,1.0,1.0,5.m4v,4.0
2024-02-27 13:45:32.533565,1709037932.5335646,83.984375,971.6796875,-272.94921875,-44.43359375,1.0,0.0,1.0,1.0,5.m4v,4.0
2024-02-27 13:45:32.537470,1709037932.5374703,259.27734375,866.2109375,503.90625,-48.33984375,1.0,0.0,1.0,1.0,5.m4v,4.0
2024-02-27 13:45:32.541376,1709037932.541376,999.51171875,999.51171875,999.51171875,-23.4375,1.0,0.0,1.0,1.0,5.m4v,4.0
2024-02-27 13:45:32.545282,1709037932.545282,150.390625,399.4140625,147.94921875,-57.12890625,1.0,0.0,1.0,1.0,5.m4v,4.0
2024-02-27 13:45:32.549187,1709037932.5491874,-1000.0,-974.12109375,-884.27734375,-72.75390625,1.0,0.0,1.0,1.0,5.m4v,4.0
2024-02-27 13:45:32.553093,1709037932.5530932,-1000.0,-975.5859375,-996.58203125,-53.7109375,1.0,0.0,1.0,1.0,5.m4v,4.0
2024-02-27 13:45:32.556999,1709037932.556999,-650.87890625,-1000.0,-323.2421875,-39.0625,1.0,0.0,1.0,1.0,5.m4v,4.0
2024-02-27 13:45:32.560905,1709037932.5609047,593.75,-64.94140625,663.57421875,-19.04296875,1.0,0.0,1.0,1.0,5.m4v,4.0
2024-02-27 13:45:32.564814,1709037932.5648136,999.51171875,999.51171875,506.8359375,-22.4609375,1.0,0.0,1.0,1.0,5.m4v,4.0
2024-02-27 13:45:32.568719,1709037932.5687191,373.046875,999.51171875,-278.80859375,-41.50390625,1.0,0.0,1.0,1.0,5.m4v,4.0
2024-02-27 13:45:32.572625,1709037932.572625,-763.671875,191.89453125,-647.4609375,-46.875,1.0,0.0,1.0,1.0,5.m4v,4.0
2024-02-27 13:45:32.576531,1709037932.5765307,-1000.0,-1000.0,-336.9140625,-38.0859375,1.0,0.0,1.0,1.0,5.m4v,4.0
2024-02-27 13:45:32.580436,1709037932.5804365,-81.0546875,-1000.0,332.51953125,-34.1796875,1.0,0.0,1.0,1.0,5.m4v,4.0
2024-02-27 13:45:32.584342,1709037932.5843422,923.33984375,83.0078125,619.62890625,-31.25,1.0,0.0,1.0,1.0,5.m4v,4.0
2024-02-27 13:45:32.588248,1709037932.588248,999.51171875,999.51171875,456.0546875,-40.0390625,1.0,0.0,1.0,1.0,5.m4v,4.0
2024-02-27 13:45:32.592154,1709037932.5921538,169.921875,816.89453125,-103.02734375,-60.546875,1.0,0.0,1.0,1.0,5.m4v,4.0
2024-02-27 13:45:32.596059,1709037932.596059,-1000.0,-504.8828125,-353.515625,-53.22265625,1.0,0.0,1.0,1.0,5.m4v,4.0
2024-02-27 13:45:32.599965,1709037932.599965,-925.29296875,-1000.0,42.48046875,-39.55078125,1.0,0.0,1.0,1.0,5.m4v,4.0
2024-02-27 13:45:32.603871,1709037932.6038709,-177.734375,-935.05859375,99.609375,-36.1328125,1.0,0.0,1.0,1.0,5.m4v,4.0
2024-02-27 13:45:32.607777,1709037932.6077766,-303.7109375,-1000.0,-559.5703125,-53.7109375,1.0,0.0,1.0,1.0,5.m4v,4.0
2024-02-27 13:45:32.611685,1709037932.6116848,-1000.0,-940.91796875,-1000.0,-54.6875,1.0,0.0,1.0,1.0,5.m4v,4.0
2024-02-27 13:45:32.615591,1709037932.6155906,-665.52734375,-1000.0,-687.01171875,-30.2734375,1.0,0.0,1.0,1.0,5.m4v,4.0
2024-02-27 13:45:32.619496,1709037932.6194963,606.4453125,-180.6640625,403.80859375,-19.04296875,1.0,0.0,1.0,1.0,5.m4v,4.0
2024-02-27 13:45:32.623402,1709037932.623402,999.51171875,999.51171875,771.97265625,-23.92578125,1.0,0.0,1.0,1.0,5.m4v,4.0
2024-02-27 13:45:32.627308,1709037932.6273077,716.30859375,947.75390625,-52.24609375,-41.015625,1.0,0.0,1.0,1.0,5.m4v,4.0
2024-02-27 13:45:32.631213,1709037932.6312134,-118.1640625,945.3125,-330.56640625,-46.875,1.0,0.0,1.0,1.0,5.m4v,4.0
2024-02-27 13:45:32.635119,1709037932.6351192,43.9453125,976.5625,240.72265625,-28.3203125,1.0,0.0,1.0,1.0,5.m4v,4.0
2024-02-27 13:45:32.639025,1709037932.639025,803.22265625,965.33203125,756.34765625,-20.5078125,1.0,0.0,1.0,1.0,5.m4v,4.0
2024-02-27 13:45:32.642931,1709037932.6429307,999.51171875,914.55078125,860.3515625,-35.64453125,1.0,0.0,1.0,1.0,5.m4v,4.0
2024-02-27 13:45:32.646836,1709037932.6468363,222.16796875,999.51171875,339.35546875,-47.36328125,1.0,0.0,1.0,1.0,5.m4v,4.0
2024-02-27 13:45:32.650742,1709037932.650742,-859.86328125,106.4453125,-446.2890625,-57.12890625,1.0,0.0,1.0,1.0,5.m4v,4.0
2024-02-27 13:45:32.654648,1709037932.6546478,-1000.0,-1000.0,-680.6640625,-50.29296875,1.0,0.0,1.0,1.0,5.m4v,4.0
2024-02-27 13:45:32.658556,1709037932.6585555,-789.55078125,-973.14453125,-26.85546875,-36.1328125,1.0,0.0,1.0,1.0,5.m4v,4.0
2024-02-27 13:45:32.662462,1709037932.6624615,294.43359375,-979.4921875,303.7109375,-22.94921875,1.0,0.0,1.0,1.0,5.m4v,4.0
2024-02-27 13:45:32.666367,1709037932.6663673,417.96875,-1000.0,-170.8984375,-29.296875,1.0,0.0,1.0,1.0,5.m4v,4.0
2024-02-27 13:45:32.670273,1709037932.6702728,-707.51953125,-937.5,-771.97265625,-56.15234375,1.0,0.0,1.0,1.0,5.m4v,4.0
2024-02-27 13:45:32.674179,1709037932.6741786,-1000.0,-1000.0,-818.359375,-54.19921875,1.0,0.0,1.0,1.0,5.m4v,4.0
2024-02-27 13:45:32.678084,1709037932.6780844,-20.99609375,-219.7265625,175.29296875,-23.4375,1.0,0.0,1.0,1.0,5.m4v,4.0
2024-02-27 13:45:32.681990,1709037932.68199,999.51171875,999.51171875,999.51171875,-13.671875,1.0,0.0,1.0,1.0,5.m4v,4.0
2024-02-27 13:45:32.685896,1709037932.685896,875.9765625,953.61328125,393.5546875,-34.1796875,1.0,0.0,1.0,1.0,5.m4v,4.0
2024-02-27 13:45:32.689802,1709037932.6898017,-120.1171875,942.3828125,-410.15625,-54.6875,1.0,0.0,1.0,1.0,5.m4v,4.0
2024-02-27 13:45:32.693707,1709037932.6937077,-1000.0,976.5625,-400.390625,-54.6875,1.0,0.0,1.0,1.0,5.m4v,4.0
2024-02-27 13:45:32.697613,1709037932.697613,-52.734375,983.3984375,278.80859375,-30.2734375,1.0,0.0,1.0,1.0,5.m4v,4.0
2024-02-27 13:45:32.701519,1709037932.7015188,999.51171875,895.5078125,823.2421875,-10.25390625,1.0,0.0,1.0,1.0,5.m4v,4.0
2024-02-27 13:45:32.705429,1709037932.7054288,901.85546875,999.51171875,583.49609375,-14.16015625,1.0,0.0,1.0,1.0,5.m4v,4.0
2024-02-27 13:45:32.709335,1709037932.7093346,-149.4140625,484.86328125,-124.0234375,-38.0859375,1.0,0.0,1.0,1.0,5.m4v,4.0
2024-02-27 13:45:32.713240,1709037932.7132404,-1000.0,-914.55078125,-765.13671875,-52.24609375,1.0,0.0,1.0,1.0,5.m4v,4.0
2024-02-27 13:45:32.717146,1709037932.7171462,-1000.0,-1000.0,-421.875,-49.8046875,1.0,0.0,1.0,1.0,5.m4v,4.0
2024-02-27 13:45:32.721052,1709037932.7210517,-226.5625,-1000.0,205.078125,-43.9453125,1.0,0.0,1.0,1.0,5.m4v,4.0
2024-02-27 13:45:32.724957,1709037932.7249577,874.0234375,97.65625,452.1484375,-28.3203125,1.0,0.0,1.0,1.0,5.m4v,4.0
2024-02-27 13:45:32.728863,1709037932.7288632,970.21484375,999.51171875,147.4609375,-31.25,1.0,0.0,1.0,1.0,5.m4v,4.0
2024-02-27 13:45:32.732769,1709037932.732769,-69.3359375,915.0390625,-324.70703125,-45.41015625,1.0,0.0,1.0,1.0,5.m4v,4.0
2024-02-27 13:45:32.736675,1709037932.7366748,-712.890625,971.19140625,-7.32421875,-39.55078125,1.0,0.0,1.0,1.0,5.m4v,4.0
2024-02-27 13:45:32.740581,1709037932.7405806,383.7890625,902.34375,511.23046875,-17.578125,1.0,0.0,1.0,1.0,5.m4v,4.0
2024-02-27 13:45:32.744486,1709037932.744486,999.51171875,999.51171875,450.1953125,-19.04296875,1.0,0.0,1.0,1.0,5.m4v,4.0
2024-02-27 13:45:32.748392,1709037932.748392,-94.23828125,286.62109375,-332.51953125,-50.29296875,1.0,0.0,1.0,1.0,5.m4v,4.0
2024-02-27 13:45:32.752302,1709037932.7523017,-1000.0,-1000.0,-1000.0,-67.87109375,1.0,0.0,1.0,1.0,5.m4v,4.0
2024-02-27 13:45:32.756207,1709037932.7562077,-1000.0,-945.80078125,-657.71484375,-44.43359375,1.0,0.0,1.0,1.0,5.m4v,4.0
2024-02-27 13:45:32.760113,1709037932.7601132,-54.6875,-1000.0,228.02734375,-36.1328125,1.0,0.0,1.0,1.0,5.m4v,4.0
2024-02-27 13:45:32.764019,1709037932.764019,999.51171875,-854.98046875,497.0703125,-38.0859375,1.0,0.0,1.0,1.0,5.m4v,4.0
2024-02-27 13:45:32.767925,1709037932.7679243,979.98046875,553.7109375,72.265625,-42.96875,1.0,0.0,1.0,1.0,5.m4v,4.0
2024-02-27 13:45:32.771830,1709037932.7718303,633.30078125,999.51171875,-75.1953125,-42.48046875,1.0,0.0,1.0,1.0,5.m4v,4.0
2024-02-27 13:45:32.775736,1709037932.775736,188.96484375,904.296875,269.04296875,-30.76171875,1.0,0.0,1.0,1.0,5.m4v,4.0
2024-02-27 13:45:32.779642,1709037932.779642,372.0703125,919.921875,588.8671875,-23.4375,1.0,0.0,1.0,1.0,5.m4v,4.0
2024-02-27 13:45:32.783548,1709037932.7835476,379.8828125,999.51171875,438.4765625,-38.0859375,1.0,0.0,1.0,1.0,5.m4v,4.0
2024-02-27 13:45:32.787453,1709037932.7874534,-528.80859375,174.31640625,-400.87890625,-58.10546875,1.0,0.0,1.0,1.0,5.m4v,4.0
2024-02-27 13:45:32.791359,1709037932.791359,-1000.0,-1000.0,-1000.0,-50.78125,1.0,0.0,1.0,1.0,5.m4v,4.0
2024-02-27 13:45:32.795265,1709037932.7952647,-1000.0,-981.93359375,-709.47265625,-48.33984375,1.0,0.0,1.0,1.0,5.m4v,4.0
2024-02-27 13:45:32.799174,1709037932.7991743,-178.22265625,-974.12109375,120.1171875,-43.9453125,1.0,0.0,1.0,1.0,5.m4v,4.0
2024-02-27 13:45:32.803080,1709037932.80308,999.51171875,-1000.0,371.58203125,-39.0625,1.0,0.0,1.0,1.0,5.m4v,4.0
2024-02-27 13:45:32.806986,1709037932.806986,250.9765625,-992.1875,-324.21875,-54.19921875,1.0,0.0,1.0,1.0,5.m4v,4.0
2024-02-27 13:45:32.810891,1709037932.8108914,-1000.0,-950.68359375,-979.00390625,-41.50390625,1.0,0.0,1.0,1.0,5.m4v,4.0
2024-02-27 13:45:32.814797,1709037932.8147972,-985.83984375,-1000.0,-861.328125,-49.31640625,1.0,0.0,1.0,1.0,5.m4v,4.0
2024-02-27 13:45:32.818703,1709037932.818703,184.5703125,-76.66015625,295.41015625,-40.0390625,1.0,0.0,1.0,1.0,5.m4v,4.0
2024-02-27 13:45:32.822609,1709037932.8226087,999.51171875,999.51171875,971.19140625,-19.53125,1.0,0.0,1.0,1.0,5.m4v,4.0
2024-02-27 13:45:32.826514,1709037932.8265145,978.02734375,867.1875,403.80859375,-38.57421875,1.0,0.0,1.0,1.0,5.m4v,4.0
2024-02-27 13:45:32.830420,1709037932.8304205,-10.25390625,999.51171875,-329.1015625,-50.78125,1.0,0.0,1.0,1.0,5.m4v,4.0
2024-02-27 13:45:32.834326,1709037932.8343258,-1000.0,274.4140625,-612.79296875,-51.26953125,1.0,0.0,1.0,1.0,5.m4v,4.0
2024-02-27 13:45:32.838232,1709037932.8382316,-1000.0,-1000.0,-249.0234375,-53.22265625,1.0,0.0,1.0,1.0,5.m4v,4.0
2024-02-27 13:45:32.842137,1709037932.842137,-103.515625,-997.55859375,264.16015625,-42.48046875,1.0,0.0,1.0,1.0,5.m4v,4.0
2024-02-27 13:45:32.846046,1709037932.8460464,625.0,-981.4453125,-41.50390625,-27.83203125,1.0,0.0,1.0,1.0,5.m4v,4.0
2024-02-27 13:45:32.849952,1709037932.8499522,-520.99609375,-938.4765625,-858.88671875,-33.203125,1.0,0.0,1.0,1.0,5.m4v,4.0
2024-02-27 13:45:32.853858,1709037932.853858,-1000.0,-1000.0,-869.140625,-42.96875,1.0,0.0,1.0,1.0,5.m4v,4.0
2024-02-27 13:45:32.857764,1709037932.8577638,20.01953125,-627.9296875,-12.6953125,-29.296875,1.0,0.0,1.0,1.0,5.m4v,4.0
2024-02-27 13:45:32.861670,1709037932.8616695,995.60546875,812.98828125,642.08984375,-16.11328125,1.0,0.0,1.0,1.0,5.m4v,4.0
2024-02-27 13:45:32.865575,1709037932.8655753,979.4921875,999.51171875,581.0546875,-13.671875,1.0,0.0,1.0,1.0,5.m4v,4.0
2024-02-27 13:45:32.869481,1709037932.869481,763.671875,911.62109375,107.91015625,-26.3671875,1.0,0.0,1.0,1.0,5.m4v,4.0
2024-02-27 13:45:32.873387,1709037932.8733866,-544.43359375,985.3515625,-333.984375,-51.7578125,1.0,0.0,1.0,1.0,5.m4v,4.0
2024-02-27 13:45:32.877292,1709037932.8772924,-750.0,977.05078125,88.37890625,-39.0625,1.0,0.0,1.0,1.0,5.m4v,4.0
2024-02-27 13:45:32.881198,1709037932.8811982,625.9765625,940.4296875,696.2890625,-18.06640625,1.0,0.0,1.0,1.0,5.m4v,4.0
2024-02-27 13:45:32.885104,1709037932.885104,988.28125,960.9375,498.53515625,-22.4609375,1.0,0.0,1.0,1.0,5.m4v,4.0
2024-02-27 13:45:32.889010,1709037932.8890097,-101.5625,999.51171875,-98.6328125,-27.34375,1.0,0.0,1.0,1.0,5.m4v,4.0
2024-02-27 13:45:32.892919,1709037932.8929186,-992.1875,-246.58203125,-612.3046875,-42.96875,1.0,0.0,1.0,1.0,5.m4v,4.0
2024-02-27 13:45:32.896824,1709037932.896824,-1000.0,-1000.0,-357.421875,-44.921875,1.0,0.0,1.0,1.0,5.m4v,4.0
2024-02-27 13:45:32.900730,1709037932.90073,-333.984375,-939.94140625,292.48046875,-28.3203125,1.0,0.0,1.0,1.0,5.m4v,4.0
2024-02-27 13:45:32.904636,1709037932.9046357,510.25390625,-1000.0,142.08984375,-23.4375,1.0,0.0,1.0,1.0,5.m4v,4.0
2024-02-27 13:45:32.908541,1709037932.9085414,-398.92578125,-1000.0,-715.8203125,-36.1328125,1.0,0.0,1.0,1.0,5.m4v,4.0
2024-02-27 13:45:32.912447,1709037932.9124472,-1000.0,-929.19921875,-791.50390625,-41.015625,1.0,0.0,1.0,1.0,5.m4v,4.0
2024-02-27 13:45:32.916353,1709037932.916353,26.85546875,-1000.0,-12.6953125,-16.11328125,1.0,0.0,1.0,1.0,5.m4v,4.0
2024-02-27 13:45:32.920259,1709037932.9202588,952.1484375,-408.203125,540.52734375,-18.06640625,1.0,0.0,1.0,1.0,5.m4v,4.0
2024-02-27 13:45:32.924164,1709037932.9241643,999.51171875,911.62109375,520.01953125,-22.4609375,1.0,0.0,1.0,1.0,5.m4v,4.0
2024-02-27 13:45:32.928070,1709037932.92807,337.890625,999.51171875,-302.734375,-30.2734375,1.0,0.0,1.0,1.0,5.m4v,4.0
2024-02-27 13:45:32.931976,1709037932.9319758,-864.2578125,44.921875,-916.9921875,-50.29296875,1.0,0.0,1.0,1.0,5.m4v,4.0
2024-02-27 13:45:32.935882,1709037932.9358816,-1000.0,-1000.0,-665.0390625,-50.78125,1.0,0.0,1.0,1.0,5.m4v,4.0
2024-02-27 13:45:32.939790,1709037932.93979,-308.59375,-942.3828125,13.671875,-30.2734375,1.0,0.0,1.0,1.0,5.m4v,4.0
2024-02-27 13:45:32.943696,1709037932.9436958,851.5625,-1000.0,206.0546875,-28.3203125,1.0,0.0,1.0,1.0,5.m4v,4.0
2024-02-27 13:45:32.947602,1709037932.9476016,999.51171875,26.85546875,-96.6796875,-31.25,1.0,0.0,1.0,1.0,5.m4v,4.0
2024-02-27 13:45:32.951507,1709037932.951507,515.13671875,999.51171875,-442.87109375,-33.69140625,1.0,0.0,1.0,1.0,5.m4v,4.0
2024-02-27 13:45:32.955413,1709037932.955413,-774.90234375,153.3203125,-649.4140625,-52.24609375,1.0,0.0,1.0,1.0,5.m4v,4.0
2024-02-27 13:45:32.959319,1709037932.9593189,-716.30859375,-1000.0,22.94921875,-30.76171875,1.0,0.0,1.0,1.0,5.m4v,4.0
2024-02-27 13:45:32.963224,1709037932.9632244,780.76171875,-139.6484375,651.3671875,-20.99609375,1.0,0.0,1.0,1.0,5.m4v,4.0
2024-02-27 13:45:32.967130,1709037932.9671302,736.81640625,999.51171875,-229.98046875,-31.73828125,1.0,0.0,1.0,1.0,5.m4v,4.0
2024-02-27 13:45:32.971036,1709037932.971036,-618.1640625,-260.25390625,-1000.0,-38.57421875,1.0,0.0,1.0,1.0,5.m4v,4.0
2024-02-27 13:45:32.974942,1709037932.9749415,-1000.0,-1000.0,-1000.0,-48.33984375,1.0,0.0,1.0,1.0,5.m4v,4.0
2024-02-27 13:45:32.978848,1709037932.9788475,-634.27734375,-935.05859375,-527.83203125,-20.5078125,1.0,0.0,1.0,1.0,5.m4v,4.0
2024-02-27 13:45:32.982753,1709037932.9827533,699.21875,-1000.0,-4.39453125,-13.671875,1.0,0.0,1.0,1.0,5.m4v,4.0
2024-02-27 13:45:32.986661,1709037932.9866612,651.85546875,-1000.0,-532.2265625,-26.3671875,1.0,0.0,1.0,1.0,5.m4v,4.0
2024-02-27 13:45:32.990567,1709037932.990567,-651.85546875,-998.046875,-1000.0,-12.20703125,1.0,0.0,1.0,1.0,5.m4v,4.0
2024-02-27 13:45:32.994473,1709037932.9944727,-1000.0,-941.89453125,-944.3359375,-32.2265625,1.0,0.0,1.0,1.0,5.m4v,4.0
2024-02-27 13:45:32.998379,1709037932.9983785,-121.09375,-1000.0,-373.53515625,-43.45703125,1.0,0.0,1.0,1.0,5.m4v,4.0
2024-02-27 13:45:33.002284,1709037933.0022843,985.3515625,-176.26953125,221.6796875,-12.6953125,1.0,0.0,1.0,1.0,5.m4v,4.0
2024-02-27 13:45:33.006190,1709037933.00619,948.73046875,999.51171875,94.23828125,-27.34375,1.0,0.0,1.0,1.0,5.m4v,4.0
2024-02-27 13:45:33.010096,1709037933.0100956,927.24609375,947.75390625,-136.71875,-47.8515625,1.0,0.0,1.0,1.0,5.m4v,4.0
2024-02-27 13:45:33.014001,1709037933.0140014,303.7109375,955.56640625,-211.9140625,-39.0625,1.0,0.0,1.0,1.0,5.m4v,4.0
2024-02-27 13:45:33.017907,1709037933.0179071,-341.30859375,936.03515625,9.765625,-35.15625,1.0,0.0,1.0,1.0,5.m4v,4.0
2024-02-27 13:45:33.021813,1709037933.021813,394.53125,985.83984375,364.2578125,-34.66796875,1.0,0.0,1.0,1.0,5.m4v,4.0
2024-02-27 13:45:33.025719,1709037933.0257187,375.0,940.91796875,-103.02734375,-39.0625,1.0,0.0,1.0,1.0,5.m4v,4.0
2024-02-27 13:45:33.029624,1709037933.0296245,-782.2265625,-384.765625,-852.05078125,-56.15234375,1.0,0.0,1.0,1.0,5.m4v,4.0
2024-02-27 13:45:33.033532,1709037933.0335324,-1000.0,-1000.0,-1000.0,-53.22265625,1.0,0.0,1.0,1.0,5.m4v,4.0
2024-02-27 13:45:33.037438,1709037933.037438,-817.3828125,-936.03515625,-635.7421875,-45.41015625,1.0,0.0,1.0,1.0,5.m4v,4.0
2024-02-27 13:45:33.041344,1709037933.0413437,351.07421875,-1000.0,185.05859375,-38.57421875,1.0,0.0,1.0,1.0,5.m4v,4.0
2024-02-27 13:45:33.045249,1709037933.0452497,999.51171875,-975.09765625,157.71484375,-27.83203125,1.0,0.0,1.0,1.0,5.m4v,4.0
2024-02-27 13:45:33.049155,1709037933.0491552,-164.55078125,-981.93359375,-715.8203125,-42.96875,1.0,0.0,1.0,1.0,5.m4v,4.0
2024-02-27 13:45:33.053061,1709037933.053061,-966.30859375,-1000.0,-657.71484375,-51.26953125,1.0,0.0,1.0,1.0,5.m4v,4.0
2024-02-27 13:45:33.056967,1709037933.0569668,358.88671875,159.1796875,364.74609375,-27.83203125,1.0,0.0,1.0,1.0,5.m4v,4.0
2024-02-27 13:45:33.060873,1709037933.0608726,999.51171875,999.51171875,821.2890625,-22.4609375,1.0,0.0,1.0,1.0,5.m4v,4.0
2024-02-27 13:45:33.064778,1709037933.064778,999.51171875,850.09765625,606.93359375,-20.5078125,1.0,0.0,1.0,1.0,5.m4v,4.0
2024-02-27 13:45:33.068684,1709037933.068684,499.0234375,999.51171875,99.12109375,-34.1796875,1.0,0.0,1.0,1.0,5.m4v,4.0
2024-02-27 13:45:33.072590,1709037933.0725896,-733.3984375,189.94140625,-519.04296875,-54.19921875,1.0,0.0,1.0,1.0,5.m4v,4.0
2024-02-27 13:45:33.697556,1709037933.6975565,-512.6953125,-1000.0,351.07421875,-29.296875,1.0,0.0,1.0,1.0,5.m4v,4.0
2024-02-27 13:45:33.701462,1709037933.701462,728.515625,-195.3125,965.8203125,-13.18359375,1.0,0.0,1.0,1.0,5.m4v,4.0
2024-02-27 13:45:33.705368,1709037933.7053678,997.0703125,999.51171875,820.3125,-2.9296875,1.0,0.0,1.0,1.0,5.m4v,4.0
2024-02-27 13:45:33.709274,1709037933.7092736,875.0,893.06640625,501.46484375,-24.4140625,1.0,0.0,1.0,1.0,5.m4v,4.0
2024-02-27 13:45:33.713179,1709037933.713179,80.56640625,999.51171875,362.79296875,-29.78515625,1.0,0.0,1.0,1.0,5.m4v,4.0
2024-02-27 13:45:33.717085,1709037933.7170851,-926.26953125,133.7890625,234.86328125,-50.78125,1.0,0.0,1.0,1.0,5.m4v,4.0
2024-02-27 13:45:33.720991,1709037933.720991,-999.51171875,-1000.0,404.78515625,-47.8515625,1.0,0.0,1.0,1.0,5.m4v,4.0
2024-02-27 13:45:33.724896,1709037933.7248964,-706.0546875,-975.5859375,280.76171875,-27.34375,1.0,0.0,1.0,1.0,5.m4v,4.0
2024-02-27 13:45:33.728802,1709037933.7288022,-694.82421875,-977.5390625,-253.41796875,-47.8515625,1.0,0.0,1.0,1.0,5.m4v,4.0
2024-02-27 13:45:33.732708,1709037933.732708,-982.91015625,-1000.0,-739.74609375,-54.19921875,1.0,0.0,1.0,1.0,5.m4v,4.0
2024-02-27 13:45:33.736616,1709037933.7366164,-967.28515625,-1000.0,-649.4140625,-34.66796875,1.0,0.0,1.0,1.0,5.m4v,4.0
2024-02-27 13:45:33.740522,1709037933.740522,117.1875,-1000.0,85.44921875,-17.578125,1.0,0.0,1.0,1.0,5.m4v,4.0
2024-02-27 13:45:33.744428,1709037933.7444277,999.51171875,-1000.0,317.3828125,-22.94921875,1.0,0.0,1.0,1.0,5.m4v,4.0
2024-02-27 13:45:33.748333,1709037933.7483337,278.80859375,-929.6875,-376.46484375,-46.38671875,1.0,0.0,1.0,1.0,5.m4v,4.0
2024-02-27 13:45:33.752239,1709037933.7522392,-1000.0,-1000.0,-1000.0,-66.89453125,1.0,0.0,1.0,1.0,5.m4v,4.0
2024-02-27 13:45:33.756145,1709037933.756145,-531.73828125,-627.9296875,-536.1328125,-43.9453125,1.0,0.0,1.0,1.0,5.m4v,4.0
2024-02-27 13:45:33.760051,1709037933.7600508,814.94140625,811.5234375,701.171875,-16.11328125,1.0,0.0,1.0,1.0,5.m4v,4.0
2024-02-27 13:45:33.763957,1709037933.7639563,999.51171875,969.23828125,742.1875,-14.6484375,1.0,0.0,1.0,1.0,5.m4v,4.0
2024-02-27 13:45:33.767862,1709037933.767862,388.18359375,999.51171875,-193.359375,-40.0390625,1.0,0.0,1.0,1.0,5.m4v,4.0
2024-02-27 13:45:33.771768,1709037933.771768,-790.0390625,183.10546875,-882.8125,-64.453125,1.0,0.0,1.0,1.0,5.m4v,4.0
2024-02-27 13:45:33.775674,1709037933.7756736,-1000.0,-1000.0,-858.3984375,-50.29296875,1.0,0.0,1.0,1.0,5.m4v,4.0
2024-02-27 13:45:33.779579,1709037933.7795794,-646.484375,-938.96484375,-264.6484375,-34.1796875,1.0,0.0,1.0,1.0,5.m4v,4.0
2024-02-27 13:45:33.783490,1709037933.7834897,514.16015625,-1000.0,100.09765625,-33.69140625,1.0,0.0,1.0,1.0,5.m4v,4.0
2024-02-27 13:45:33.787395,1709037933.7873952,999.51171875,-19.53125,-80.56640625,-31.73828125,1.0,0.0,1.0,1.0,5.m4v,4.0
2024-02-27 13:45:33.791301,1709037933.791301,641.6015625,999.51171875,-479.98046875,-34.66796875,1.0,0.0,1.0,1.0,5.m4v,4.0
2024-02-27 13:45:33.795207,1709037933.7952068,-484.375,927.734375,-638.671875,-36.1328125,1.0,0.0,1.0,1.0,5.m4v,4.0
2024-02-27 13:45:33.799113,1709037933.7991126,-271.484375,954.58984375,-125.0,-27.34375,1.0,0.0,1.0,1.0,5.m4v,4.0
2024-02-27 13:45:33.803018,1709037933.8030183,939.453125,915.0390625,695.3125,-18.5546875,1.0,0.0,1.0,1.0,5.m4v,4.0
2024-02-27 13:45:33.806924,1709037933.806924,868.65234375,999.51171875,511.71875,-24.90234375,1.0,0.0,1.0,1.0,5.m4v,4.0
2024-02-27 13:45:33.810830,1709037933.81083,-410.15625,128.41796875,-652.34375,-47.8515625,1.0,0.0,1.0,1.0,5.m4v,4.0
2024-02-27 13:45:33.814735,1709037933.8147354,-1000.0,-1000.0,-1000.0,-52.24609375,1.0,0.0,1.0,1.0,5.m4v,4.0
2024-02-27 13:45:33.818641,1709037933.8186412,-991.69921875,-975.5859375,-708.49609375,-27.34375,1.0,0.0,1.0,1.0,5.m4v,4.0
2024-02-27 13:45:33.822547,1709037933.822547,-138.18359375,-977.5390625,-152.34375,-34.1796875,1.0,0.0,1.0,1.0,5.m4v,4.0
2024-02-27 13:45:33.826453,1709037933.8264527,644.04296875,-1000.0,-376.46484375,-43.9453125,1.0,0.0,1.0,1.0,5.m4v,4.0
2024-02-27 13:45:33.830363,1709037933.8303628,-374.0234375,-994.62890625,-955.56640625,-45.41015625,1.0,0.0,1.0,1.0,5.m4v,4.0
2024-02-27 13:45:33.834268,1709037933.8342683,-1000.0,-947.265625,-1000.0,-50.29296875,1.0,0.0,1.0,1.0,5.m4v,4.0
2024-02-27 13:45:33.838174,1709037933.838174,-445.80078125,-1000.0,-596.6796875,-41.50390625,1.0,0.0,1.0,1.0,5.m4v,4.0
2024-02-27 13:45:33.842080,1709037933.84208,770.01953125,-114.74609375,131.8359375,-23.92578125,1.0,0.0,1.0,1.0,5.m4v,4.0
2024-02-27 13:45:33.845986,1709037933.8459857,999.51171875,999.51171875,5.859375,-19.53125,1.0,0.0,1.0,1.0,5.m4v,4.0
2024-02-27 13:45:33.849891,1709037933.8498914,781.73828125,939.453125,-421.38671875,-39.55078125,1.0,0.0,1.0,1.0,5.m4v,4.0
2024-02-27 13:45:33.853797,1709037933.8537972,270.99609375,950.68359375,-316.40625,-46.38671875,1.0,0.0,1.0,1.0,5.m4v,4.0
2024-02-27 13:45:33.857703,1709037933.857703,-354.4921875,975.09765625,-169.921875,-46.38671875,1.0,0.0,1.0,1.0,5.m4v,4.0
2024-02-27 13:45:33.861609,1709037933.8616085,121.58203125,906.73828125,158.69140625,-41.9921875,1.0,0.0,1.0,1.0,5.m4v,4.0
2024-02-27 13:45:33.865514,1709037933.8655145,586.9140625,999.51171875,-58.59375,-34.1796875,1.0,0.0,1.0,1.0,5.m4v,4.0
2024-02-27 13:45:33.869420,1709037933.86942,-480.95703125,188.96484375,-789.0625,-58.10546875,1.0,0.0,1.0,1.0,5.m4v,4.0
2024-02-27 13:45:33.873326,1709037933.8733258,-1000.0,-1000.0,-1000.0,-77.1484375,1.0,0.0,1.0,1.0,5.m4v,4.0
2024-02-27 13:45:33.877235,1709037933.8772354,-1000.0,-983.88671875,-903.3203125,-39.0625,1.0,0.0,1.0,1.0,5.m4v,4.0
2024-02-27 13:45:33.881141,1709037933.8811412,-265.625,-973.14453125,-335.9375,-23.4375,1.0,0.0,1.0,1.0,5.m4v,4.0
2024-02-27 13:45:33.885047,1709037933.885047,867.1875,-1000.0,-332.51953125,-40.52734375,1.0,0.0,1.0,1.0,5.m4v,4.0
2024-02-27 13:45:33.888953,1709037933.8889527,-55.6640625,-945.80078125,-901.85546875,-46.38671875,1.0,0.0,1.0,1.0,5.m4v,4.0
2024-02-27 13:45:33.892859,1709037933.8928585,-1000.0,-1000.0,-1000.0,-57.6171875,1.0,0.0,1.0,1.0,5.m4v,4.0
2024-02-27 13:45:33.896764,1709037933.8967645,-657.71484375,-840.8203125,-812.01171875,-46.875,1.0,0.0,1.0,1.0,5.m4v,4.0
2024-02-27 13:45:33.900670,1709037933.9006698,633.7890625,565.91796875,46.38671875,-5.859375,1.0,0.0,1.0,1.0,5.m4v,4.0
2024-02-27 13:45:33.904576,1709037933.9045756,999.51171875,999.51171875,28.80859375,-20.99609375,1.0,0.0,1.0,1.0,5.m4v,4.0
2024-02-27 13:45:33.908481,1709037933.9084814,498.53515625,999.51171875,-750.48828125,-47.8515625,1.0,0.0,1.0,1.0,5.m4v,4.0
2024-02-27 13:45:33.912387,1709037933.9123871,-541.9921875,372.0703125,-987.3046875,-51.26953125,1.0,0.0,1.0,1.0,5.m4v,4.0
2024-02-27 13:45:33.916293,1709037933.916293,-1000.0,-1000.0,-1000.0,-39.55078125,1.0,0.0,1.0,1.0,5.m4v,4.0
2024-02-27 13:45:33.920199,1709037933.920199,-628.41796875,-1000.0,-546.38671875,-23.92578125,1.0,0.0,1.0,1.0,5.m4v,4.0
2024-02-27 13:45:33.924108,1709037933.924108,597.65625,-958.984375,-307.12890625,-17.578125,1.0,0.0,1.0,1.0,5.m4v,4.0
2024-02-27 13:45:33.928014,1709037933.9280138,230.95703125,-1000.0,-861.328125,-34.1796875,1.0,0.0,1.0,1.0,5.m4v,4.0
2024-02-27 13:45:33.931920,1709037933.9319196,-877.9296875,-926.26953125,-1000.0,-39.55078125,1.0,0.0,1.0,1.0,5.m4v,4.0
2024-02-27 13:45:33.935825,1709037933.935825,-1000.0,-1000.0,-1000.0,-34.66796875,1.0,0.0,1.0,1.0,5.m4v,4.0
2024-02-27 13:45:33.939731,1709037933.939731,-22.4609375,-521.97265625,-574.70703125,-17.578125,1.0,0.0,1.0,1.0,5.m4v,4.0
2024-02-27 13:45:34.053004,1709037934.0530038,-868.65234375,-289.55078125,-1000.0,-42.96875,1.0,0.0,1.0,1.0,5.m4v,4.0
2024-02-27 13:45:34.056910,1709037934.0569096,-1000.0,-1000.0,-998.046875,-42.48046875,1.0,0.0,1.0,1.0,5.m4v,4.0
2024-02-27 13:45:34.060815,1709037934.060815,-548.33984375,-939.94140625,-633.30078125,-23.92578125,1.0,0.0,1.0,1.0,5.m4v,4.0
2024-02-27 13:45:34.064724,1709037934.0647235,465.33203125,-1000.0,-560.05859375,-31.73828125,1.0,0.0,1.0,1.0,5.m4v,4.0
2024-02-27 13:45:34.068630,1709037934.0686295,101.5625,-1000.0,-971.19140625,-47.8515625,1.0,0.0,1.0,1.0,5.m4v,4.0
2024-02-27 13:45:34.072535,1709037934.0725353,-598.14453125,-927.24609375,-1000.0,-37.59765625,1.0,0.0,1.0,1.0,5.m4v,4.0
2024-02-27 13:45:34.076441,1709037934.076441,-583.984375,-1000.0,-919.921875,-28.80859375,1.0,0.0,1.0,1.0,5.m4v,4.0
2024-02-27 13:45:34.080347,1709037934.0803468,291.50390625,-469.23828125,-415.52734375,-20.01953125,1.0,0.0,1.0,1.0,5.m4v,4.0
2024-02-27 13:45:34.084253,1709037934.0842526,996.09375,852.05078125,268.5546875,-23.4375,1.0,0.0,1.0,1.0,5.m4v,4.0
2024-02-27 13:45:34.088158,1709037934.088158,999.51171875,999.51171875,23.92578125,-29.78515625,1.0,0.0,1.0,1.0,5.m4v,4.0
2024-02-27 13:45:34.092064,1709037934.092064,-37.109375,515.13671875,-801.7578125,-49.31640625,1.0,0.0,1.0,1.0,5.m4v,4.0
2024-02-27 13:45:34.095970,1709037934.0959697,-1000.0,-858.88671875,-1000.0,-57.12890625,1.0,0.0,1.0,1.0,5.m4v,4.0
2024-02-27 13:45:34.099875,1709037934.0998757,-975.5859375,-1000.0,-829.58984375,-41.50390625,1.0,0.0,1.0,1.0,5.m4v,4.0
2024-02-27 13:45:34.103781,1709037934.1037812,-350.09765625,-944.3359375,-658.203125,-51.26953125,1.0,0.0,1.0,1.0,5.m4v,4.0
2024-02-27 13:45:34.107687,1709037934.107687,93.75,-1000.0,-908.69140625,-44.43359375,1.0,0.0,1.0,1.0,5.m4v,4.0
2024-02-27 13:45:34.111596,1709037934.111596,-223.14453125,-956.0546875,-996.58203125,-35.64453125,1.0,0.0,1.0,1.0,5.m4v,4.0
2024-02-27 13:45:34.115502,1709037934.115502,-557.6171875,-1000.0,-1000.0,-43.9453125,1.0,0.0,1.0,1.0,5.m4v,4.0
2024-02-27 13:45:34.119408,1709037934.1194077,-10.25390625,-935.546875,-653.3203125,-28.80859375,1.0,0.0,1.0,1.0,5.m4v,4.0
2024-02-27 13:45:34.123313,1709037934.1233134,954.1015625,416.015625,60.05859375,-15.625,1.0,0.0,1.0,1.0,5.m4v,4.0
2024-02-27 13:45:34.127219,1709037934.1272192,957.03125,999.51171875,-276.85546875,-39.0625,1.0,0.0,1.0,1.0,5.m4v,4.0
2024-02-27 13:45:34.131125,1709037934.131125,623.53515625,904.78515625,-645.99609375,-46.875,1.0,0.0,1.0,1.0,5.m4v,4.0
2024-02-27 13:45:34.135031,1709037934.1350307,0.0,977.5390625,-529.78515625,-31.25,1.0,0.0,1.0,1.0,5.m4v,4.0
2024-02-27 13:45:34.138936,1709037934.1389363,-379.8828125,973.14453125,-334.47265625,-36.62109375,1.0,0.0,1.0,1.0,5.m4v,4.0
2024-02-27 13:45:34.142842,1709037934.142842,522.4609375,904.296875,53.22265625,-30.2734375,1.0,0.0,1.0,1.0,5.m4v,4.0
2024-02-27 13:45:34.146748,1709037934.1467478,709.9609375,999.51171875,-280.2734375,-40.0390625,1.0,0.0,1.0,1.0,5.m4v,4.0
2024-02-27 13:45:34.150654,1709037934.1506536,-537.109375,234.375,-843.26171875,-53.7109375,1.0,0.0,1.0,1.0,5.m4v,4.0
2024-02-27 13:45:34.154559,1709037934.1545594,-1000.0,-1000.0,-1000.0,-52.24609375,1.0,0.0,1.0,1.0,5.m4v,4.0
2024-02-27 13:45:34.158467,1709037934.1584673,-953.61328125,-991.2109375,-770.99609375,-41.50390625,1.0,0.0,1.0,1.0,5.m4v,4.0
2024-02-27 13:45:34.162373,1709037934.162373,184.08203125,-969.23828125,-93.26171875,-35.64453125,1.0,0.0,1.0,1.0,5.m4v,4.0
2024-02-27 13:45:34.166279,1709037934.1662788,924.8046875,-1000.0,-326.66015625,-39.0625,1.0,0.0,1.0,1.0,5.m4v,4.0
2024-02-27 13:45:34.170185,1709037934.1701846,-290.0390625,-931.640625,-920.8984375,-42.96875,1.0,0.0,1.0,1.0,5.m4v,4.0
2024-02-27 13:45:34.174090,1709037934.1740904,-1000.0,-1000.0,-1000.0,-46.38671875,1.0,0.0,1.0,1.0,5.m4v,4.0
2024-02-27 13:45:34.177996,1709037934.1779962,-286.1328125,-318.359375,-491.69921875,-29.78515625,1.0,0.0,1.0,1.0,5.m4v,4.0
2024-02-27 13:45:34.181902,1709037934.1819017,961.9140625,973.14453125,669.921875,-11.71875,1.0,0.0,1.0,1.0,5.m4v,4.0
2024-02-27 13:45:34.185807,1709037934.1858077,999.51171875,962.890625,304.6875,-16.6015625,1.0,0.0,1.0,1.0,5.m4v,4.0
2024-02-27 13:45:34.189713,1709037934.1897132,33.203125,967.7734375,-697.265625,-41.015625,1.0,0.0,1.0,1.0,5.m4v,4.0
2024-02-27 13:45:34.193619,1709037934.193619,-1000.0,-237.79296875,-1000.0,-52.24609375,1.0,0.0,1.0,1.0,5.m4v,4.0
2024-02-27 13:45:34.197525,1709037934.1975248,-1000.0,-1000.0,-845.21484375,-37.109375,1.0,0.0,1.0,1.0,5.m4v,4.0
2024-02-27 13:45:34.201431,1709037934.2014306,-201.66015625,-968.26171875,-257.32421875,-25.87890625,1.0,0.0,1.0,1.0,5.m4v,4.0
2024-02-27 13:45:34.205341,1709037934.2053406,883.30078125,-945.3125,-153.3203125,-36.1328125,1.0,0.0,1.0,1.0,5.m4v,4.0
2024-02-27 13:45:34.209246,1709037934.2092462,984.86328125,400.87890625,-571.77734375,-43.9453125,1.0,0.0,1.0,1.0,5.m4v,4.0
2024-02-27 13:45:34.213152,1709037934.213152,224.12109375,999.51171875,-913.0859375,-31.25,1.0,0.0,1.0,1.0,5.m4v,4.0
2024-02-27 13:45:34.217058,1709037934.2170577,-241.69921875,907.2265625,-531.73828125,-24.4140625,1.0,0.0,1.0,1.0,5.m4v,4.0
2024-02-27 13:45:34.220963,1709037934.2209637,650.390625,963.37890625,346.19140625,-12.20703125,1.0,0.0,1.0,1.0,5.m4v,4.0
2024-02-27 13:45:34.224869,1709037934.2248693,999.51171875,930.17578125,752.44140625,-16.11328125,1.0,0.0,1.0,1.0,5.m4v,4.0
2024-02-27 13:45:34.228775,1709037934.228775,476.5625,999.51171875,147.4609375,-38.57421875,1.0,0.0,1.0,1.0,5.m4v,4.0
2024-02-27 13:45:34.232681,1709037934.2326806,-765.625,-46.38671875,-844.23828125,-57.12890625,1.0,0.0,1.0,1.0,5.m4v,4.0
2024-02-27 13:45:34.236586,1709037934.2365863,-1000.0,-1000.0,-922.8515625,-53.7109375,1.0,0.0,1.0,1.0,5.m4v,4.0
2024-02-27 13:45:34.240492,1709037934.240492,-642.578125,-950.68359375,-248.53515625,-27.34375,1.0,0.0,1.0,1.0,5.m4v,4.0
2024-02-27 13:45:34.244398,1709037934.244398,502.44140625,-1000.0,116.69921875,-20.01953125,1.0,0.0,1.0,1.0,5.m4v,4.0
2024-02-27 13:45:34.248304,1709037934.2483037,999.51171875,236.81640625,-303.22265625,-26.85546875,1.0,0.0,1.0,1.0,5.m4v,4.0
2024-02-27 13:45:34.252213,1709037934.2522132,214.35546875,999.51171875,-841.796875,-32.71484375,1.0,0.0,1.0,1.0,5.m4v,4.0
2024-02-27 13:45:34.256119,1709037934.256119,-738.28125,910.15625,-686.03515625,-36.1328125,1.0,0.0,1.0,1.0,5.m4v,4.0
2024-02-27 13:45:34.260025,1709037934.2600248,168.9453125,970.703125,91.30859375,-14.16015625,1.0,0.0,1.0,1.0,5.m4v,4.0
2024-02-27 13:45:34.439701,1709037934.439701,-233.88671875,-908.69140625,135.25390625,-24.90234375,1.0,0.0,1.0,1.0,5.m4v,4.0
2024-02-27 13:45:34.447512,1709037934.4475124,693.84765625,-666.9921875,172.36328125,-41.9921875,1.0,0.0,1.0,1.0,5.m4v,4.0
2024-02-27 13:45:34.455324,1709037934.455324,-190.91796875,999.51171875,-417.96875,-39.0625,1.0,0.0,1.0,1.0,5.m4v,4.0
2024-02-27 13:45:34.463135,1709037934.4631355,999.51171875,999.51171875,999.51171875,-15.625,1.0,0.0,1.0,1.0,5.m4v,4.0
2024-02-27 13:45:34.470947,1709037934.470947,-903.80859375,-715.8203125,-757.8125,-69.3359375,1.0,0.0,1.0,1.0,5.m4v,4.0
2024-02-27 13:45:34.478758,1709037934.4787583,-812.98828125,-937.01171875,-394.04296875,-37.109375,1.0,0.0,1.0,1.0,5.m4v,4.0
2024-02-27 13:45:34.486572,1709037934.486572,999.51171875,-1000.0,173.33984375,-28.3203125,1.0,0.0,1.0,1.0,5.m4v,4.0
2024-02-27 13:45:34.740462,1709037934.7404623,292.48046875,-112.79296875,425.78125,-17.08984375,1.0,0.0,1.0,1.0,5.m4v,4.0
2024-02-27 13:45:34.744368,1709037934.744368,999.51171875,992.67578125,926.7578125,-11.23046875,1.0,0.0,1.0,1.0,5.m4v,4.0
2024-02-27 13:45:34.748274,1709037934.7482736,920.8984375,999.51171875,360.3515625,-33.69140625,1.0,0.0,1.0,1.0,5.m4v,4.0
2024-02-27 13:45:34.752179,1709037934.7521794,-104.4921875,547.8515625,-407.71484375,-49.31640625,1.0,0.0,1.0,1.0,5.m4v,4.0
2024-02-27 13:45:34.756085,1709037934.7560852,-1000.0,-774.90234375,-679.19921875,-44.43359375,1.0,0.0,1.0,1.0,5.m4v,4.0
2024-02-27 13:45:34.759991,1709037934.759991,-740.234375,-1000.0,-15.13671875,-35.15625,1.0,0.0,1.0,1.0,5.m4v,4.0
2024-02-27 13:45:34.763897,1709037934.7638967,420.41015625,-499.0234375,520.01953125,-24.4140625,1.0,0.0,1.0,1.0,5.m4v,4.0
2024-02-27 13:45:34.767805,1709037934.767805,999.51171875,847.65625,197.75390625,-34.1796875,1.0,0.0,1.0,1.0,5.m4v,4.0
2024-02-27 13:45:34.771711,1709037934.771711,293.45703125,999.51171875,-436.5234375,-54.6875,1.0,0.0,1.0,1.0,5.m4v,4.0
2024-02-27 13:45:34.775617,1709037934.7756166,-863.76953125,916.9921875,-455.56640625,-50.29296875,1.0,0.0,1.0,1.0,5.m4v,4.0
2024-02-27 13:45:34.779522,1709037934.7795224,-27.34375,985.3515625,316.89453125,-33.69140625,1.0,0.0,1.0,1.0,5.m4v,4.0
2024-02-27 13:45:34.783428,1709037934.7834282,999.51171875,963.37890625,786.1328125,-18.06640625,1.0,0.0,1.0,1.0,5.m4v,4.0
2024-02-27 13:45:34.787334,1709037934.787334,991.2109375,917.96875,602.5390625,-33.203125,1.0,0.0,1.0,1.0,5.m4v,4.0
2024-02-27 13:45:34.791240,1709037934.7912395,264.6484375,999.51171875,249.0234375,-48.33984375,1.0,0.0,1.0,1.0,5.m4v,4.0
2024-02-27 13:45:34.795146,1709037934.7951455,-854.4921875,73.73046875,-287.59765625,-62.98828125,1.0,0.0,1.0,1.0,5.m4v,4.0
2024-02-27 13:45:34.799051,1709037934.799051,-1000.0,-1000.0,-229.4921875,-54.19921875,1.0,0.0,1.0,1.0,5.m4v,4.0
2024-02-27 13:45:34.802957,1709037934.8029568,-618.65234375,-968.75,233.3984375,-34.66796875,1.0,0.0,1.0,1.0,5.m4v,4.0
2024-02-27 13:45:34.806863,1709037934.8068626,212.890625,-981.93359375,184.08203125,-34.1796875,1.0,0.0,1.0,1.0,5.m4v,4.0
2024-02-27 13:45:34.810768,1709037934.8107684,-76.171875,-1000.0,-307.12890625,-40.52734375,1.0,0.0,1.0,1.0,5.m4v,4.0
2024-02-27 13:45:34.814677,1709037934.814677,-1000.0,-938.96484375,-712.890625,-47.36328125,1.0,0.0,1.0,1.0,5.m4v,4.0
2024-02-27 13:45:34.818583,1709037934.8185823,-634.27734375,-1000.0,-264.6484375,-36.1328125,1.0,0.0,1.0,1.0,5.m4v,4.0
2024-02-27 13:45:34.822488,1709037934.8224883,629.8828125,-204.58984375,585.9375,-16.6015625,1.0,0.0,1.0,1.0,5.m4v,4.0
2024-02-27 13:45:34.826394,1709037934.826394,999.51171875,999.51171875,689.453125,-22.4609375,1.0,0.0,1.0,1.0,5.m4v,4.0
2024-02-27 13:45:34.830300,1709037934.8303,545.41015625,951.66015625,-127.9296875,-48.828125,1.0,0.0,1.0,1.0,5.m4v,4.0
2024-02-27 13:45:34.834206,1709037934.8342056,-575.1953125,945.80078125,-318.84765625,-56.640625,1.0,0.0,1.0,1.0,5.m4v,4.0
2024-02-27 13:45:34.838111,1709037934.8381114,9.765625,964.84375,461.9140625,-40.0390625,1.0,0.0,1.0,1.0,5.m4v,4.0
2024-02-27 13:45:34.842017,1709037934.842017,999.51171875,925.78125,829.1015625,-13.671875,1.0,0.0,1.0,1.0,5.m4v,4.0
2024-02-27 13:45:34.845923,1709037934.8459227,574.70703125,999.51171875,445.80078125,-22.94921875,1.0,0.0,1.0,1.0,5.m4v,4.0
2024-02-27 13:45:34.849828,1709037934.8498285,-665.0390625,-6.8359375,-518.5546875,-47.8515625,1.0,0.0,1.0,1.0,5.m4v,4.0
2024-02-27 13:45:34.853734,1709037934.8537345,-1000.0,-1000.0,-1000.0,-50.29296875,1.0,0.0,1.0,1.0,5.m4v,4.0
2024-02-27 13:45:34.857640,1709037934.85764,-885.25390625,-935.546875,-475.09765625,-34.1796875,1.0,0.0,1.0,1.0,5.m4v,4.0
2024-02-27 13:45:34.861548,1709037934.8615482,197.75390625,-1000.0,380.859375,-17.08984375,1.0,0.0,1.0,1.0,5.m4v,4.0
2024-02-27 13:45:34.865454,1709037934.8654535,999.51171875,97.16796875,562.01171875,-19.04296875,1.0,0.0,1.0,1.0,5.m4v,4.0
2024-02-27 13:45:34.869359,1709037934.8693595,975.5859375,999.51171875,185.05859375,-26.3671875,1.0,0.0,1.0,1.0,5.m4v,4.0
2024-02-27 13:45:34.873265,1709037934.8732653,212.890625,999.51171875,-221.19140625,-40.52734375,1.0,0.0,1.0,1.0,5.m4v,4.0
2024-02-27 13:45:34.877171,1709037934.877171,-1000.0,78.125,-258.30078125,-40.52734375,1.0,0.0,1.0,1.0,5.m4v,4.0
2024-02-27 13:45:34.881077,1709037934.8810768,-524.90234375,-804.19921875,505.859375,-28.80859375,1.0,0.0,1.0,1.0,5.m4v,4.0
2024-02-27 13:45:34.884983,1709037934.8849826,941.89453125,655.2734375,999.51171875,-23.92578125,1.0,0.0,1.0,1.0,5.m4v,4.0
2024-02-27 13:45:34.888888,1709037934.8888884,734.375,999.51171875,373.53515625,-39.55078125,1.0,0.0,1.0,1.0,5.m4v,4.0
2024-02-27 13:45:34.892794,1709037934.892794,-551.26953125,120.1171875,-553.22265625,-55.6640625,1.0,0.0,1.0,1.0,5.m4v,4.0
2024-02-27 13:45:34.896700,1709037934.8966997,-1000.0,-1000.0,-712.890625,-43.45703125,1.0,0.0,1.0,1.0,5.m4v,4.0
2024-02-27 13:45:34.900605,1709037934.9006054,-723.14453125,-983.88671875,-41.015625,-38.57421875,1.0,0.0,1.0,1.0,5.m4v,4.0
2024-02-27 13:45:34.904511,1709037934.9045112,570.80078125,-973.14453125,386.71875,-29.296875,1.0,0.0,1.0,1.0,5.m4v,4.0
2024-02-27 13:45:34.908419,1709037934.9084191,441.89453125,-1000.0,-211.9140625,-26.85546875,1.0,0.0,1.0,1.0,5.m4v,4.0
2024-02-27 13:45:34.912325,1709037934.912325,-927.734375,-937.5,-853.515625,-44.43359375,1.0,0.0,1.0,1.0,5.m4v,4.0
2024-02-27 13:45:34.916230,1709037934.9162304,-916.9921875,-1000.0,-609.375,-42.96875,1.0,0.0,1.0,1.0,5.m4v,4.0
2024-02-27 13:45:34.920136,1709037934.9201362,323.2421875,-219.7265625,381.34765625,-15.13671875,1.0,0.0,1.0,1.0,5.m4v,4.0
2024-02-27 13:45:34.924042,1709037934.924042,999.51171875,999.51171875,984.86328125,-8.30078125,1.0,0.0,1.0,1.0,5.m4v,4.0
2024-02-27 13:45:34.927948,1709037934.9279478,935.546875,911.62109375,855.46875,-29.78515625,1.0,0.0,1.0,1.0,5.m4v,4.0
2024-02-27 13:45:34.931854,1709037934.9318535,872.55859375,964.84375,607.421875,-31.73828125,1.0,0.0,1.0,1.0,5.m4v,4.0
2024-02-27 13:45:34.935759,1709037934.9357593,-252.9296875,923.33984375,185.546875,-42.48046875,1.0,0.0,1.0,1.0,5.m4v,4.0
2024-02-27 13:45:34.939665,1709037934.939665,-1000.0,-416.50390625,141.11328125,-47.8515625,1.0,0.0,1.0,1.0,5.m4v,4.0
2024-02-27 13:45:34.943571,1709037934.9435706,-931.15234375,-1000.0,302.24609375,-40.0390625,1.0,0.0,1.0,1.0,5.m4v,4.0
2024-02-27 13:45:34.947476,1709037934.9474764,-887.20703125,-949.21875,-150.390625,-48.828125,1.0,0.0,1.0,1.0,5.m4v,4.0
2024-02-27 13:45:34.951382,1709037934.9513822,-1000.0,-933.10546875,-805.6640625,-57.6171875,1.0,0.0,1.0,1.0,5.m4v,4.0
2024-02-27 13:45:34.955292,1709037934.955292,-935.05859375,-1000.0,-788.0859375,-52.734375,1.0,0.0,1.0,1.0,5.m4v,4.0
2024-02-27 13:45:34.959198,1709037934.9591978,191.40625,-493.65234375,84.47265625,-32.2265625,1.0,0.0,1.0,1.0,5.m4v,4.0
2024-02-27 13:45:34.963104,1709037934.9631035,999.51171875,920.41015625,886.71875,-28.80859375,1.0,0.0,1.0,1.0,5.m4v,4.0
2024-02-27 13:45:34.967009,1709037934.9670093,980.46875,999.51171875,517.08984375,-43.45703125,1.0,0.0,1.0,1.0,5.m4v,4.0
2024-02-27 13:45:34.970915,1709037934.970915,283.69140625,920.41015625,-236.81640625,-41.50390625,1.0,0.0,1.0,1.0,5.m4v,4.0
2024-02-27 13:45:34.974821,1709037934.9748206,-357.91015625,983.88671875,-21.484375,-32.2265625,1.0,0.0,1.0,1.0,5.m4v,4.0
2024-02-27 13:45:34.978726,1709037934.9787264,431.15234375,972.65625,710.9375,-32.2265625,1.0,0.0,1.0,1.0,5.m4v,4.0
2024-02-27 13:45:34.982632,1709037934.9826322,999.51171875,904.78515625,965.33203125,-35.64453125,1.0,0.0,1.0,1.0,5.m4v,4.0
2024-02-27 13:45:34.986538,1709037934.986538,521.484375,999.51171875,633.7890625,-38.57421875,1.0,0.0,1.0,1.0,5.m4v,4.0
2024-02-27 13:45:34.990444,1709037934.9904437,-644.04296875,225.09765625,-135.7421875,-54.6875,1.0,0.0,1.0,1.0,5.m4v,4.0
2024-02-27 13:45:34.994349,1709037934.9943497,-1000.0,-1000.0,-749.51171875,-49.31640625,1.0,0.0,1.0,1.0,5.m4v,4.0
2024-02-27 13:45:34.998255,1709037934.9982553,-1000.0,-989.74609375,-412.59765625,-34.1796875,1.0,0.0,1.0,1.0,5.m4v,4.0
2024-02-27 13:45:35.002165,1709037935.0021646,-52.24609375,-970.21484375,453.125,-18.5546875,1.0,0.0,1.0,1.0,5.m4v,4.0
2024-02-27 13:45:35.006070,1709037935.0060704,999.51171875,-1000.0,572.265625,-25.87890625,1.0,0.0,1.0,1.0,5.m4v,4.0
2024-02-27 13:45:35.009976,1709037935.009976,-16.6015625,-972.16796875,-244.62890625,-52.734375,1.0,0.0,1.0,1.0,5.m4v,4.0
2024-02-27 13:45:35.013882,1709037935.013882,-1000.0,-987.79296875,-823.73046875,-49.31640625,1.0,0.0,1.0,1.0,5.m4v,4.0
2024-02-27 13:45:35.017788,1709037935.0177877,-758.7890625,-1000.0,-391.6015625,-26.85546875,1.0,0.0,1.0,1.0,5.m4v,4.0
2024-02-27 13:45:35.021693,1709037935.0216932,479.00390625,202.63671875,650.87890625,-7.32421875,1.0,0.0,1.0,1.0,5.m4v,4.0
2024-02-27 13:45:35.470888,1709037935.470888,925.78125,750.9765625,-165.52734375,-24.4140625,1.0,0.0,1.0,1.0,5.m4v,4.0
2024-02-27 13:45:35.474794,1709037935.4747937,307.6171875,999.51171875,-432.12890625,-30.76171875,1.0,0.0,1.0,1.0,5.m4v,4.0
2024-02-27 13:45:35.478699,1709037935.4786992,-256.8359375,909.66796875,-43.9453125,-25.390625,1.0,0.0,1.0,1.0,5.m4v,4.0
2024-02-27 13:45:35.482605,1709037935.482605,622.0703125,999.0234375,652.83203125,-20.01953125,1.0,0.0,1.0,1.0,5.m4v,4.0
2024-02-27 13:45:35.486511,1709037935.4865108,965.33203125,904.296875,552.734375,-27.83203125,1.0,0.0,1.0,1.0,5.m4v,4.0
2024-02-27 13:45:35.490417,1709037935.4904163,373.046875,999.51171875,217.28515625,-31.25,1.0,0.0,1.0,1.0,5.m4v,4.0
2024-02-27 13:45:35.494322,1709037935.4943223,-468.26171875,683.10546875,31.25,-42.96875,1.0,0.0,1.0,1.0,5.m4v,4.0
2024-02-27 13:45:35.498228,1709037935.498228,-1000.0,-750.48828125,-152.34375,-48.828125,1.0,0.0,1.0,1.0,5.m4v,4.0
2024-02-27 13:45:35.502134,1709037935.5021338,-765.625,-1000.0,305.6640625,-38.0859375,1.0,0.0,1.0,1.0,5.m4v,4.0
2024-02-27 13:45:35.506039,1709037935.5060394,42.48046875,-938.4765625,408.69140625,-36.1328125,1.0,0.0,1.0,1.0,5.m4v,4.0
2024-02-27 13:45:35.509945,1709037935.5099452,-334.47265625,-1000.0,-354.98046875,-54.19921875,1.0,0.0,1.0,1.0,5.m4v,4.0
2024-02-27 13:45:35.513851,1709037935.513851,-1000.0,-935.546875,-663.0859375,-50.29296875,1.0,0.0,1.0,1.0,5.m4v,4.0
2024-02-27 13:45:35.517760,1709037935.5177598,-662.59765625,-1000.0,-231.4453125,-30.2734375,1.0,0.0,1.0,1.0,5.m4v,4.0
2024-02-27 13:45:35.521666,1709037935.5216656,522.4609375,-249.51171875,554.19921875,-20.5078125,1.0,0.0,1.0,1.0,5.m4v,4.0
2024-02-27 13:45:35.580254,1709037935.580254,33.69140625,-708.984375,323.73046875,-30.2734375,1.0,0.0,1.0,1.0,5.m4v,4.0
2024-02-27 13:45:35.584160,1709037935.58416,973.14453125,727.05078125,942.3828125,-12.20703125,1.0,0.0,1.0,1.0,5.m4v,4.0
2024-02-27 13:45:35.588066,1709037935.5880656,999.51171875,985.83984375,983.88671875,-30.76171875,1.0,0.0,1.0,1.0,5.m4v,4.0
2024-02-27 13:45:35.591971,1709037935.5919714,496.09375,999.51171875,416.015625,-39.0625,1.0,0.0,1.0,1.0,5.m4v,4.0
2024-02-27 13:45:35.595877,1709037935.5958772,-770.01953125,179.6875,-270.01953125,-52.24609375,1.0,0.0,1.0,1.0,5.m4v,4.0
2024-02-27 13:45:35.599783,1709037935.599783,-1000.0,-1000.0,41.015625,-49.8046875,1.0,0.0,1.0,1.0,5.m4v,4.0
2024-02-27 13:45:35.603689,1709037935.6036887,-194.3359375,-980.46875,628.90625,-30.76171875,1.0,0.0,1.0,1.0,5.m4v,4.0
2024-02-27 13:45:35.607594,1709037935.6075945,587.40234375,-978.02734375,421.38671875,-38.0859375,1.0,0.0,1.0,1.0,5.m4v,4.0
2024-02-27 13:45:35.611502,1709037935.6115024,-333.0078125,-991.69921875,-311.03515625,-49.8046875,1.0,0.0,1.0,1.0,5.m4v,4.0
2024-02-27 13:45:35.615408,1709037935.6154082,-1000.0,-961.9140625,-486.81640625,-49.31640625,1.0,0.0,1.0,1.0,5.m4v,4.0
2024-02-27 13:45:35.619314,1709037935.619314,-387.20703125,-1000.0,121.09375,-36.1328125,1.0,0.0,1.0,1.0,5.m4v,4.0
2024-02-27 13:45:35.623219,1709037935.6232195,813.4765625,22.4609375,849.12109375,-19.04296875,1.0,0.0,1.0,1.0,5.m4v,4.0
2024-02-27 13:45:35.627125,1709037935.6271253,976.07421875,999.51171875,730.46875,-21.97265625,1.0,0.0,1.0,1.0,5.m4v,4.0
2024-02-27 13:45:35.631031,1709037935.631031,868.65234375,922.8515625,353.515625,-37.109375,1.0,0.0,1.0,1.0,5.m4v,4.0
2024-02-27 13:45:35.634937,1709037935.6349368,275.390625,959.9609375,328.61328125,-38.57421875,1.0,0.0,1.0,1.0,5.m4v,4.0
2024-02-27 13:45:35.638843,1709037935.6388426,-625.0,975.5859375,362.3046875,-26.3671875,1.0,0.0,1.0,1.0,5.m4v,4.0
2024-02-27 13:45:35.642748,1709037935.6427484,79.1015625,950.68359375,835.9375,-26.3671875,1.0,0.0,1.0,1.0,5.m4v,4.0
2024-02-27 13:45:35.646654,1709037935.646654,999.51171875,938.96484375,894.04296875,-31.73828125,1.0,0.0,1.0,1.0,5.m4v,4.0
2024-02-27 13:45:35.650560,1709037935.6505597,198.73046875,999.51171875,365.72265625,-45.41015625,1.0,0.0,1.0,1.0,5.m4v,4.0
2024-02-27 13:45:35.654465,1709037935.6544654,-901.85546875,-105.95703125,-366.69921875,-58.59375,1.0,0.0,1.0,1.0,5.m4v,4.0
2024-02-27 13:45:35.658374,1709037935.6583736,-1000.0,-1000.0,-381.8359375,-42.96875,1.0,0.0,1.0,1.0,5.m4v,4.0
2024-02-27 13:45:35.662279,1709037935.6622791,-575.68359375,-949.21875,355.46875,-27.34375,1.0,0.0,1.0,1.0,5.m4v,4.0
2024-02-27 13:45:35.666185,1709037935.666185,565.4296875,-994.140625,519.04296875,-32.2265625,1.0,0.0,1.0,1.0,5.m4v,4.0
2024-02-27 13:45:35.670091,1709037935.670091,109.375,-938.96484375,-134.27734375,-42.48046875,1.0,0.0,1.0,1.0,5.m4v,4.0
2024-02-27 13:45:35.673996,1709037935.6739964,-1000.0,-1000.0,-658.203125,-49.31640625,1.0,0.0,1.0,1.0,5.m4v,4.0
2024-02-27 13:45:35.677902,1709037935.6779022,-239.2578125,-219.7265625,154.78515625,-41.50390625,1.0,0.0,1.0,1.0,5.m4v,4.0
2024-02-27 13:45:35.681808,1709037935.681808,999.51171875,999.51171875,999.51171875,-5.37109375,1.0,0.0,1.0,1.0,5.m4v,4.0
2024-02-27 13:45:35.685714,1709037935.6857138,999.51171875,881.8359375,847.16796875,-3.90625,1.0,0.0,1.0,1.0,5.m4v,4.0
2024-02-27 13:45:35.689619,1709037935.6896193,363.28125,999.51171875,201.171875,-38.0859375,1.0,0.0,1.0,1.0,5.m4v,4.0
2024-02-27 13:45:35.693525,1709037935.693525,-788.57421875,417.96875,-395.99609375,-63.96484375,1.0,0.0,1.0,1.0,5.m4v,4.0
2024-02-27 13:45:35.697431,1709037935.6974308,-1000.0,-909.1796875,-344.23828125,-51.7578125,1.0,0.0,1.0,1.0,5.m4v,4.0
2024-02-27 13:45:35.701337,1709037935.7013366,-500.48828125,-1000.0,326.66015625,-29.296875,1.0,0.0,1.0,1.0,5.m4v,4.0
2024-02-27 13:45:35.705247,1709037935.705247,687.5,-190.91796875,800.78125,-32.71484375,1.0,0.0,1.0,1.0,5.m4v,4.0
2024-02-27 13:45:35.709153,1709037935.7091527,999.51171875,964.35546875,558.10546875,-32.2265625,1.0,0.0,1.0,1.0,5.m4v,4.0
2024-02-27 13:45:35.713058,1709037935.7130585,306.640625,999.51171875,-4.39453125,-44.921875,1.0,0.0,1.0,1.0,5.m4v,4.0
2024-02-27 13:45:35.716964,1709037935.716964,-933.59375,169.43359375,-263.671875,-52.734375,1.0,0.0,1.0,1.0,5.m4v,4.0
2024-02-27 13:45:35.720870,1709037935.7208698,-874.0234375,-1000.0,275.390625,-41.015625,1.0,0.0,1.0,1.0,5.m4v,4.0
2024-02-27 13:45:35.724776,1709037935.7247756,319.3359375,-135.7421875,920.41015625,-34.66796875,1.0,0.0,1.0,1.0,5.m4v,4.0
2024-02-27 13:45:35.728681,1709037935.728681,999.51171875,999.51171875,924.31640625,-34.66796875,1.0,0.0,1.0,1.0,5.m4v,4.0
2024-02-27 13:45:35.732587,1709037935.732587,242.1875,999.51171875,206.54296875,-47.8515625,1.0,0.0,1.0,1.0,5.m4v,4.0
2024-02-27 13:45:35.736493,1709037935.7364929,-986.328125,-5.859375,-243.65234375,-45.41015625,1.0,0.0,1.0,1.0,5.m4v,4.0
2024-02-27 13:45:35.740399,1709037935.7403986,-1000.0,-1000.0,205.078125,-37.109375,1.0,0.0,1.0,1.0,5.m4v,4.0
2024-02-27 13:45:35.744304,1709037935.7443042,-172.36328125,-962.890625,594.7265625,-35.64453125,1.0,0.0,1.0,1.0,5.m4v,4.0
2024-02-27 13:45:35.748210,1709037935.74821,242.1875,-996.58203125,186.03515625,-41.015625,1.0,0.0,1.0,1.0,5.m4v,4.0
2024-02-27 13:45:35.752120,1709037935.7521198,-691.40625,-930.6640625,-432.12890625,-53.7109375,1.0,0.0,1.0,1.0,5.m4v,4.0
2024-02-27 13:45:35.756026,1709037935.7560256,-962.890625,-1000.0,-318.84765625,-41.50390625,1.0,0.0,1.0,1.0,5.m4v,4.0
2024-02-27 13:45:35.759931,1709037935.759931,238.76953125,-453.61328125,483.88671875,-14.16015625,1.0,0.0,1.0,1.0,5.m4v,4.0
2024-02-27 13:45:35.763837,1709037935.7638369,999.51171875,942.87109375,988.28125,-19.53125,1.0,0.0,1.0,1.0,5.m4v,4.0
2024-02-27 13:45:35.767743,1709037935.7677426,925.78125,995.1171875,917.96875,-41.50390625,1.0,0.0,1.0,1.0,5.m4v,4.0
2024-02-27 13:45:35.771648,1709037935.7716484,902.83203125,861.328125,726.07421875,-40.52734375,1.0,0.0,1.0,1.0,5.m4v,4.0
2024-02-27 13:45:35.775554,1709037935.7755542,15.13671875,999.51171875,475.5859375,-39.0625,1.0,0.0,1.0,1.0,5.m4v,4.0
2024-02-27 13:45:35.779460,1709037935.77946,-953.61328125,183.10546875,417.48046875,-37.59765625,1.0,0.0,1.0,1.0,5.m4v,4.0
2024-02-27 13:45:35.783366,1709037935.7833655,-994.62890625,-1000.0,580.078125,-33.203125,1.0,0.0,1.0,1.0,5.m4v,4.0
2024-02-27 13:45:35.787271,1709037935.7872713,-850.5859375,-997.55859375,307.6171875,-40.0390625,1.0,0.0,1.0,1.0,5.m4v,4.0
2024-02-27 13:45:35.791177,1709037935.791177,-925.78125,-900.87890625,-383.7890625,-48.33984375,1.0,0.0,1.0,1.0,5.m4v,4.0
2024-02-27 13:45:35.795083,1709037935.7950828,-1000.0,-1000.0,-509.27734375,-36.62109375,1.0,0.0,1.0,1.0,5.m4v,4.0
2024-02-27 13:45:35.798992,1709037935.7989922,39.55078125,-574.21875,274.90234375,-23.4375,1.0,0.0,1.0,1.0,5.m4v,4.0
2024-02-27 13:45:35.802898,1709037935.802898,975.5859375,860.83984375,954.58984375,-14.6484375,1.0,0.0,1.0,1.0,5.m4v,4.0
2024-02-27 13:45:35.806804,1709037935.8068037,999.51171875,999.51171875,915.0390625,-26.85546875,1.0,0.0,1.0,1.0,5.m4v,4.0
2024-02-27 13:45:35.810709,1709037935.8107097,580.56640625,915.0390625,291.9921875,-55.6640625,1.0,0.0,1.0,1.0,5.m4v,4.0
2024-02-27 13:45:35.814615,1709037935.8146152,-857.91015625,984.86328125,-245.60546875,-45.41015625,1.0,0.0,1.0,1.0,5.m4v,4.0
2024-02-27 13:45:35.818521,1709037935.8185208,-374.51171875,972.65625,442.87109375,-39.55078125,1.0,0.0,1.0,1.0,5.m4v,4.0
2024-02-27 13:45:35.822427,1709037935.8224266,956.54296875,956.0546875,999.51171875,-27.34375,1.0,0.0,1.0,1.0,5.m4v,4.0
2024-02-27 13:45:35.826332,1709037935.8263323,999.51171875,930.17578125,931.15234375,-10.25390625,1.0,0.0,1.0,1.0,5.m4v,4.0
2024-02-27 13:45:35.830238,1709037935.830238,308.59375,999.51171875,590.33203125,-31.73828125,1.0,0.0,1.0,1.0,5.m4v,4.0
2024-02-27 13:45:35.834144,1709037935.834144,-831.0546875,-36.62109375,-230.46875,-50.29296875,1.0,0.0,1.0,1.0,5.m4v,4.0
2024-02-27 13:45:35.838050,1709037935.8380497,-1000.0,-1000.0,-407.71484375,-42.96875,1.0,0.0,1.0,1.0,5.m4v,4.0
2024-02-27 13:45:35.841955,1709037935.8419554,-787.109375,-955.56640625,237.79296875,-21.97265625,1.0,0.0,1.0,1.0,5.m4v,4.0
2024-02-27 13:45:35.845865,1709037935.8458643,398.92578125,-989.2578125,572.265625,-12.6953125,1.0,0.0,1.0,1.0,5.m4v,4.0
2024-02-27 13:45:35.849770,1709037935.84977,203.61328125,-1000.0,-62.5,-28.80859375,1.0,0.0,1.0,1.0,5.m4v,4.0
2024-02-27 13:45:35.853676,1709037935.8536758,-1000.0,-937.5,-754.39453125,-41.015625,1.0,0.0,1.0,1.0,5.m4v,4.0
2024-02-27 13:45:35.857582,1709037935.8575816,-840.33203125,-1000.0,-378.41796875,-40.0390625,1.0,0.0,1.0,1.0,5.m4v,4.0
2024-02-27 13:45:35.861487,1709037935.8614874,361.328125,-205.078125,542.48046875,-18.5546875,1.0,0.0,1.0,1.0,5.m4v,4.0
2024-02-27 13:45:35.865393,1709037935.8653932,999.51171875,975.5859375,999.51171875,-14.6484375,1.0,0.0,1.0,1.0,5.m4v,4.0
2024-02-27 13:45:35.869299,1709037935.869299,940.4296875,999.51171875,733.88671875,-38.0859375,1.0,0.0,1.0,1.0,5.m4v,4.0
2024-02-27 13:45:35.873205,1709037935.8732047,-89.35546875,633.30078125,-205.56640625,-37.59765625,1.0,0.0,1.0,1.0,5.m4v,4.0
2024-02-27 13:45:35.877110,1709037935.8771102,-1000.0,-694.82421875,-588.8671875,-52.24609375,1.0,0.0,1.0,1.0,5.m4v,4.0
2024-02-27 13:45:35.881016,1709037935.881016,-702.1484375,-1000.0,134.765625,-48.33984375,1.0,0.0,1.0,1.0,5.m4v,4.0
2024-02-27 13:45:35.884922,1709037935.8849218,463.37890625,-155.2734375,776.85546875,-13.671875,1.0,0.0,1.0,1.0,5.m4v,4.0
2024-02-27 13:45:35.888828,1709037935.8888276,999.51171875,999.51171875,719.7265625,-17.578125,1.0,0.0,1.0,1.0,5.m4v,4.0
2024-02-27 13:45:35.892736,1709037935.8927364,453.61328125,952.63671875,130.859375,-40.0390625,1.0,0.0,1.0,1.0,5.m4v,4.0
2024-02-27 13:45:35.896642,1709037935.8966422,-915.0390625,942.87109375,-258.30078125,-41.50390625,1.0,0.0,1.0,1.0,5.m4v,4.0
2024-02-27 13:45:35.900548,1709037935.900548,-658.203125,976.5625,283.203125,-31.25,1.0,0.0,1.0,1.0,5.m4v,4.0
2024-02-27 13:45:35.904454,1709037935.9044538,753.90625,980.46875,831.0546875,-19.53125,1.0,0.0,1.0,1.0,5.m4v,4.0
2024-02-27 13:45:35.908360,1709037935.9083595,865.72265625,897.4609375,459.9609375,-28.3203125,1.0,0.0,1.0,1.0,5.m4v,4.0
2024-02-27 13:45:35.912265,1709037935.912265,-267.578125,999.51171875,-15.625,-38.57421875,1.0,0.0,1.0,1.0,5.m4v,4.0
2024-02-27 13:45:35.916171,1709037935.9161708,-974.609375,417.96875,-91.30859375,-50.29296875,1.0,0.0,1.0,1.0,5.m4v,4.0
2024-02-27 13:45:35.920077,1709037935.9200766,-1000.0,-972.65625,16.6015625,-43.45703125,1.0,0.0,1.0,1.0,5.m4v,4.0
2024-02-27 13:45:35.923982,1709037935.9239824,-791.015625,-1000.0,215.8203125,-10.25390625,1.0,0.0,1.0,1.0,5.m4v,4.0
2024-02-27 13:45:35.927888,1709037935.9278882,-392.578125,-966.796875,-107.91015625,-30.2734375,1.0,0.0,1.0,1.0,5.m4v,4.0
2024-02-27 13:45:35.931794,1709037935.931794,-784.1796875,-962.890625,-782.71484375,-55.17578125,1.0,0.0,1.0,1.0,5.m4v,4.0
2024-02-27 13:45:35.935700,1709037935.9356997,-978.515625,-1000.0,-769.53125,-37.59765625,1.0,0.0,1.0,1.0,5.m4v,4.0
2024-02-27 13:45:35.939608,1709037935.939608,122.55859375,-878.41796875,-39.55078125,-28.80859375,1.0,0.0,1.0,1.0,5.m4v,4.0
2024-02-27 13:45:35.943514,1709037935.9435136,967.7734375,502.44140625,570.3125,-24.4140625,1.0,0.0,1.0,1.0,5.m4v,4.0
2024-02-27 13:45:35.947419,1709037935.9474194,985.83984375,999.51171875,546.875,-20.99609375,1.0,0.0,1.0,1.0,5.m4v,4.0
2024-02-27 13:45:35.951325,1709037935.9513252,756.34765625,999.51171875,131.8359375,-38.0859375,1.0,0.0,1.0,1.0,5.m4v,4.0
2024-02-27 13:45:35.955231,1709037935.955231,-483.88671875,239.2578125,-565.4296875,-50.29296875,1.0,0.0,1.0,1.0,5.m4v,4.0
2024-02-27 13:45:35.959137,1709037935.9591367,-1000.0,-1000.0,-200.68359375,-43.9453125,1.0,0.0,1.0,1.0,5.m4v,4.0
2024-02-27 13:45:35.963042,1709037935.9630425,335.9375,-990.72265625,823.2421875,-29.296875,1.0,0.0,1.0,1.0,5.m4v,4.0
2024-02-27 13:45:35.966948,1709037935.966948,538.0859375,-969.7265625,259.27734375,-33.69140625,1.0,0.0,1.0,1.0,5.m4v,4.0
2024-02-27 13:45:35.970854,1709037935.9708538,-861.328125,-1000.0,-779.78515625,-60.05859375,1.0,0.0,1.0,1.0,5.m4v,4.0
2024-02-27 13:45:35.974760,1709037935.9747596,-1000.0,-1000.0,-1000.0,-56.15234375,1.0,0.0,1.0,1.0,5.m4v,4.0
2024-02-27 13:45:35.978665,1709037935.9786654,-858.3984375,-1000.0,-754.8828125,-37.109375,1.0,0.0,1.0,1.0,5.m4v,4.0
2024-02-27 13:45:35.982571,1709037935.9825711,245.60546875,-995.60546875,0.9765625,-21.484375,1.0,0.0,1.0,1.0,5.m4v,4.0
2024-02-27 13:45:35.986479,1709037935.986479,999.51171875,-994.140625,65.91796875,-23.4375,1.0,0.0,1.0,1.0,5.m4v,4.0
2024-02-27 13:45:35.990385,1709037935.9903848,2.44140625,-1000.0,-669.921875,-45.8984375,1.0,0.0,1.0,1.0,5.m4v,4.0
2024-02-27 13:45:35.994291,1709037935.9942906,-1000.0,-929.6875,-1000.0,-54.6875,1.0,0.0,1.0,1.0,5.m4v,4.0
2024-02-27 13:45:35.998196,1709037935.9981964,-803.7109375,-1000.0,-757.32421875,-43.9453125,1.0,0.0,1.0,1.0,5.m4v,4.0
2024-02-27 13:45:36.002102,1709037936.002102,380.37109375,-358.88671875,-18.06640625,-25.390625,1.0,0.0,1.0,1.0,5.m4v,4.0
2024-02-27 13:45:36.006008,1709037936.0060077,978.515625,908.69140625,517.578125,-19.53125,1.0,0.0,1.0,1.0,5.m4v,4.0
2024-02-27 13:45:36.009913,1709037936.0099134,999.51171875,999.51171875,358.88671875,-31.73828125,1.0,0.0,1.0,1.0,5.m4v,4.0
2024-02-27 13:45:36.013819,1709037936.0138192,162.109375,563.96484375,-446.77734375,-52.734375,1.0,0.0,1.0,1.0,5.m4v,4.0
2024-02-27 13:45:36.017725,1709037936.017725,-1000.0,-826.66015625,-1000.0,-50.78125,1.0,0.0,1.0,1.0,5.m4v,4.0
2024-02-27 13:45:36.021631,1709037936.0216308,-1000.0,-1000.0,-757.32421875,-41.9921875,1.0,0.0,1.0,1.0,5.m4v,4.0
2024-02-27 13:45:36.025537,1709037936.0255363,-453.61328125,-941.89453125,-520.99609375,-45.41015625,1.0,0.0,1.0,1.0,5.m4v,4.0
2024-02-27 13:45:36.029442,1709037936.0294423,-178.7109375,-1000.0,-882.32421875,-40.52734375,1.0,0.0,1.0,1.0,5.m4v,4.0
2024-02-27 13:45:36.033350,1709037936.03335,-535.64453125,-1000.0,-1000.0,-47.36328125,1.0,0.0,1.0,1.0,5.m4v,4.0
2024-02-27 13:45:36.037256,1709037936.0372558,-718.26171875,-1000.0,-1000.0,-40.0390625,1.0,0.0,1.0,1.0,5.m4v,4.0
2024-02-27 13:45:36.041162,1709037936.0411615,-68.84765625,-1000.0,-648.4375,-28.80859375,1.0,0.0,1.0,1.0,5.m4v,4.0
2024-02-27 13:45:36.045067,1709037936.0450673,999.51171875,-1000.0,-286.62109375,-17.578125,1.0,0.0,1.0,1.0,5.m4v,4.0
2024-02-27 13:45:36.048973,1709037936.048973,448.73046875,-1000.0,-817.87109375,-20.5078125,1.0,0.0,1.0,1.0,5.m4v,4.0
2024-02-27 13:45:36.052879,1709037936.0528789,-563.4765625,-1000.0,-1000.0,-32.71484375,1.0,0.0,1.0,1.0,5.m4v,4.0
2024-02-27 13:45:36.302865,1709037936.3028646,-557.6171875,-919.921875,-116.2109375,-31.25,1.0,0.0,1.0,1.0,5.m4v,4.0
2024-02-27 13:45:36.314589,1709037936.3145893,639.6484375,999.51171875,-507.32421875,-42.48046875,1.0,0.0,1.0,1.0,5.m4v,4.0
2024-02-27 13:45:36.326307,1709037936.3263066,999.51171875,999.51171875,630.37109375,-16.11328125,1.0,0.0,1.0,1.0,5.m4v,4.0
2024-02-27 13:45:36.338024,1709037936.3380237,-1000.0,-1000.0,-572.265625,-39.0625,1.0,0.0,1.0,1.0,5.m4v,4.0
2024-02-27 13:45:36.349741,1709037936.349741,305.6640625,-1000.0,-484.375,-41.50390625,1.0,0.0,1.0,1.0,5.m4v,4.0
2024-02-27 13:45:36.361461,1709037936.3614607,13.671875,-982.91015625,-273.92578125,-20.99609375,1.0,0.0,1.0,1.0,5.m4v,4.0
2024-02-27 13:45:36.463016,1709037936.463016,128.41796875,-939.453125,158.69140625,-15.625,1.0,0.0,1.0,1.0,5.m4v,4.0
2024-02-27 13:45:36.466922,1709037936.4669218,999.51171875,-1000.0,219.23828125,-27.34375,1.0,0.0,1.0,1.0,5.m4v,4.0
2024-02-27 13:45:36.470828,1709037936.4708276,-88.8671875,-1000.0,-642.578125,-42.48046875,1.0,0.0,1.0,1.0,5.m4v,4.0
2024-02-27 13:45:36.474733,1709037936.4747334,-1000.0,-935.05859375,-895.5078125,-39.55078125,1.0,0.0,1.0,1.0,5.m4v,4.0
2024-02-27 13:45:36.478639,1709037936.4786391,-541.50390625,-1000.0,-391.6015625,-20.01953125,1.0,0.0,1.0,1.0,5.m4v,4.0
2024-02-27 13:45:36.482545,1709037936.482545,515.13671875,-727.5390625,56.640625,-11.23046875,1.0,0.0,1.0,1.0,5.m4v,4.0
2024-02-27 13:45:36.486450,1709037936.4864504,965.33203125,710.44921875,313.4765625,-15.625,1.0,0.0,1.0,1.0,5.m4v,4.0
2024-02-27 13:45:36.580196,1709037936.5801957,-1000.0,-1000.0,-325.68359375,-40.0390625,1.0,0.0,1.0,1.0,5.m4v,4.0
2024-02-27 13:45:36.584101,1709037936.5841014,-346.19140625,-946.2890625,318.84765625,-23.4375,1.0,0.0,1.0,1.0,5.m4v,4.0
2024-02-27 13:45:36.588007,1709037936.5880072,497.0703125,-997.55859375,198.2421875,-25.390625,1.0,0.0,1.0,1.0,5.m4v,4.0
2024-02-27 13:45:36.591913,1709037936.591913,-338.37890625,-992.1875,-599.12109375,-47.8515625,1.0,0.0,1.0,1.0,5.m4v,4.0
2024-02-27 13:45:36.595822,1709037936.595822,-1000.0,-952.1484375,-925.78125,-45.41015625,1.0,0.0,1.0,1.0,5.m4v,4.0
2024-02-27 13:45:36.599728,1709037936.5997276,-546.38671875,-1000.0,-359.86328125,-30.2734375,1.0,0.0,1.0,1.0,5.m4v,4.0
2024-02-27 13:45:36.603633,1709037936.6036334,677.734375,-63.4765625,570.3125,-16.11328125,1.0,0.0,1.0,1.0,5.m4v,4.0
2024-02-27 13:45:36.607539,1709037936.6075392,999.51171875,999.51171875,759.27734375,-13.671875,1.0,0.0,1.0,1.0,5.m4v,4.0
2024-02-27 13:45:36.611445,1709037936.611445,694.3359375,932.6171875,-13.18359375,-29.296875,1.0,0.0,1.0,1.0,5.m4v,4.0
2024-02-27 13:45:36.615351,1709037936.6153507,-370.60546875,956.54296875,-298.828125,-32.2265625,1.0,0.0,1.0,1.0,5.m4v,4.0
2024-02-27 13:45:36.619256,1709037936.6192565,-175.78125,962.40234375,356.4453125,-38.57421875,1.0,0.0,1.0,1.0,5.m4v,4.0
2024-02-27 13:45:36.623162,1709037936.623162,952.63671875,924.8046875,809.5703125,-25.390625,1.0,0.0,1.0,1.0,5.m4v,4.0
2024-02-27 13:45:36.627068,1709037936.6270678,668.45703125,999.51171875,482.91015625,-23.92578125,1.0,0.0,1.0,1.0,5.m4v,4.0
2024-02-27 13:45:36.630974,1709037936.6309736,-609.375,-8.7890625,-504.8828125,-57.6171875,1.0,0.0,1.0,1.0,5.m4v,4.0
2024-02-27 13:45:36.634879,1709037936.6348794,-1000.0,-1000.0,-1000.0,-62.98828125,1.0,0.0,1.0,1.0,5.m4v,4.0
2024-02-27 13:45:36.638785,1709037936.6387851,-927.734375,-1000.0,-613.28125,-51.7578125,1.0,0.0,1.0,1.0,5.m4v,4.0
2024-02-27 13:45:36.642694,1709037936.6426938,110.3515625,-692.87109375,326.66015625,-27.83203125,1.0,0.0,1.0,1.0,5.m4v,4.0
2024-02-27 13:45:36.646600,1709037936.6465995,999.51171875,627.44140625,736.81640625,-21.97265625,1.0,0.0,1.0,1.0,5.m4v,4.0
2024-02-27 13:45:36.650505,1709037936.650505,775.390625,999.51171875,134.27734375,-35.15625,1.0,0.0,1.0,1.0,5.m4v,4.0
2024-02-27 13:45:36.654411,1709037936.6544108,-313.4765625,538.0859375,-530.2734375,-38.57421875,1.0,0.0,1.0,1.0,5.m4v,4.0
2024-02-27 13:45:36.658317,1709037936.6583166,-1000.0,-1000.0,-476.5625,-50.78125,1.0,0.0,1.0,1.0,5.m4v,4.0
2024-02-27 13:45:36.662222,1709037936.6622224,-234.375,-388.671875,410.64453125,-33.203125,1.0,0.0,1.0,1.0,5.m4v,4.0
2024-02-27 13:45:36.666128,1709037936.6661282,999.51171875,976.5625,999.51171875,-13.671875,1.0,0.0,1.0,1.0,5.m4v,4.0
2024-02-27 13:45:36.670034,1709037936.670034,935.546875,999.51171875,608.3984375,-35.64453125,1.0,0.0,1.0,1.0,5.m4v,4.0
2024-02-27 13:45:36.673939,1709037936.6739397,-186.03515625,281.25,-286.1328125,-61.03515625,1.0,0.0,1.0,1.0,5.m4v,4.0
2024-02-27 13:45:36.677845,1709037936.6778452,-1000.0,-1000.0,-554.6875,-61.5234375,1.0,0.0,1.0,1.0,5.m4v,4.0
2024-02-27 13:45:36.681751,1709037936.681751,-791.9921875,-1000.0,110.3515625,-31.73828125,1.0,0.0,1.0,1.0,5.m4v,4.0
2024-02-27 13:45:36.685657,1709037936.6856568,489.2578125,-962.40234375,575.68359375,-33.203125,1.0,0.0,1.0,1.0,5.m4v,4.0
2024-02-27 13:45:36.689565,1709037936.6895654,711.42578125,-1000.0,148.92578125,-37.109375,1.0,0.0,1.0,1.0,5.m4v,4.0
2024-02-27 13:45:36.693471,1709037936.693471,-600.5859375,-949.70703125,-606.4453125,-56.15234375,1.0,0.0,1.0,1.0,5.m4v,4.0
2024-02-27 13:45:36.697377,1709037936.6973767,-1000.0,-1000.0,-720.703125,-63.4765625,1.0,0.0,1.0,1.0,5.m4v,4.0
2024-02-27 13:45:36.701283,1709037936.7012825,-132.8125,-879.8828125,79.58984375,-28.3203125,1.0,0.0,1.0,1.0,5.m4v,4.0
2024-02-27 13:45:36.705188,1709037936.7051885,956.0546875,499.51171875,850.09765625,-9.27734375,1.0,0.0,1.0,1.0,5.m4v,4.0
2024-02-27 13:45:36.709094,1709037936.709094,999.51171875,999.51171875,627.44140625,-14.6484375,1.0,0.0,1.0,1.0,5.m4v,4.0
2024-02-27 13:45:36.713000,1709037936.7129998,540.0390625,999.51171875,27.34375,-30.2734375,1.0,0.0,1.0,1.0,5.m4v,4.0
2024-02-27 13:45:36.716906,1709037936.7169056,-671.38671875,147.4609375,-440.91796875,-39.0625,1.0,0.0,1.0,1.0,5.m4v,4.0
2024-02-27 13:45:36.720811,1709037936.7208111,-1000.0,-1000.0,-213.37890625,-42.96875,1.0,0.0,1.0,1.0,5.m4v,4.0
2024-02-27 13:45:36.724717,1709037936.724717,-268.06640625,-1000.0,337.890625,-28.80859375,1.0,0.0,1.0,1.0,5.m4v,4.0
2024-02-27 13:45:36.728623,1709037936.728623,814.453125,-296.875,316.89453125,-16.11328125,1.0,0.0,1.0,1.0,5.m4v,4.0
2024-02-27 13:45:36.732528,1709037936.7325284,810.546875,999.51171875,-140.625,-32.71484375,1.0,0.0,1.0,1.0,5.m4v,4.0
2024-02-27 13:45:36.736437,1709037936.7364368,-371.09375,173.828125,-699.21875,-50.29296875,1.0,0.0,1.0,1.0,5.m4v,4.0
2024-02-27 13:45:36.740343,1709037936.7403426,-1000.0,-1000.0,-547.36328125,-39.0625,1.0,0.0,1.0,1.0,5.m4v,4.0
2024-02-27 13:45:36.744248,1709037936.7442484,-367.1875,-975.5859375,73.73046875,-32.2265625,1.0,0.0,1.0,1.0,5.m4v,4.0
2024-02-27 13:45:36.748154,1709037936.7481542,509.27734375,-973.6328125,-113.28125,-29.78515625,1.0,0.0,1.0,1.0,5.m4v,4.0
2024-02-27 13:45:36.752060,1709037936.75206,-441.40625,-1000.0,-916.50390625,-35.15625,1.0,0.0,1.0,1.0,5.m4v,4.0
2024-02-27 13:45:36.755966,1709037936.7559657,-1000.0,-1000.0,-839.35546875,-40.0390625,1.0,0.0,1.0,1.0,5.m4v,4.0
2024-02-27 13:45:36.759871,1709037936.7598715,178.22265625,-1000.0,-108.88671875,-27.34375,1.0,0.0,1.0,1.0,5.m4v,4.0
2024-02-27 13:45:36.763777,1709037936.763777,999.51171875,-1000.0,291.9921875,-23.4375,1.0,0.0,1.0,1.0,5.m4v,4.0
2024-02-27 13:45:36.767683,1709037936.7676828,741.69921875,-1000.0,-24.90234375,-23.4375,1.0,0.0,1.0,1.0,5.m4v,4.0
2024-02-27 13:45:36.771589,1709037936.7715886,-387.20703125,-998.53515625,-769.04296875,-35.15625,1.0,0.0,1.0,1.0,5.m4v,4.0
2024-02-27 13:45:36.775494,1709037936.7754943,-1000.0,-941.40625,-1000.0,-47.36328125,1.0,0.0,1.0,1.0,5.m4v,4.0
2024-02-27 13:45:36.779400,1709037936.7794,-379.8828125,-1000.0,-483.88671875,-39.55078125,1.0,0.0,1.0,1.0,5.m4v,4.0
2024-02-27 13:45:36.783308,1709037936.7833078,829.1015625,-176.7578125,348.14453125,-25.390625,1.0,0.0,1.0,1.0,5.m4v,4.0
2024-02-27 13:45:36.787214,1709037936.7872136,999.51171875,999.51171875,613.76953125,-28.3203125,1.0,0.0,1.0,1.0,5.m4v,4.0
2024-02-27 13:45:36.791119,1709037936.791119,837.890625,882.32421875,113.28125,-44.921875,1.0,0.0,1.0,1.0,5.m4v,4.0
2024-02-27 13:45:36.795025,1709037936.795025,-198.73046875,999.51171875,-546.38671875,-49.8046875,1.0,0.0,1.0,1.0,5.m4v,4.0
2024-02-27 13:45:36.798931,1709037936.798931,-1000.0,-23.4375,-513.18359375,-50.29296875,1.0,0.0,1.0,1.0,5.m4v,4.0
2024-02-27 13:45:36.802837,1709037936.802837,-352.05078125,-713.8671875,410.64453125,-43.45703125,1.0,0.0,1.0,1.0,5.m4v,4.0
2024-02-27 13:45:36.806742,1709037936.8067422,999.51171875,846.19140625,820.80078125,-18.5546875,1.0,0.0,1.0,1.0,5.m4v,4.0
2024-02-27 13:45:36.810648,1709037936.810648,442.3828125,999.51171875,-188.96484375,-42.48046875,1.0,0.0,1.0,1.0,5.m4v,4.0
2024-02-27 13:45:36.814554,1709037936.8145535,-842.7734375,-239.2578125,-973.6328125,-61.03515625,1.0,0.0,1.0,1.0,5.m4v,4.0
2024-02-27 13:45:36.818460,1709037936.8184595,-1000.0,-1000.0,-861.328125,-42.48046875,1.0,0.0,1.0,1.0,5.m4v,4.0
2024-02-27 13:45:36.822365,1709037936.8223653,-344.7265625,-1000.0,-112.3046875,-27.34375,1.0,0.0,1.0,1.0,5.m4v,4.0
2024-02-27 13:45:36.826271,1709037936.826271,849.12109375,-727.5390625,359.375,-17.08984375,1.0,0.0,1.0,1.0,5.m4v,4.0
2024-02-27 13:45:36.830181,1709037936.830181,999.51171875,604.4921875,28.80859375,-22.4609375,1.0,0.0,1.0,1.0,5.m4v,4.0
2024-02-27 13:45:36.834086,1709037936.8340864,399.90234375,999.51171875,-520.99609375,-44.921875,1.0,0.0,1.0,1.0,5.m4v,4.0
2024-02-27 13:45:36.837992,1709037936.8379922,-778.3203125,369.62890625,-599.12109375,-40.0390625,1.0,0.0,1.0,1.0,5.m4v,4.0
2024-02-27 13:45:36.841898,1709037936.841898,-957.03125,-926.7578125,-27.34375,-21.484375,1.0,0.0,1.0,1.0,5.m4v,4.0
2024-02-27 13:45:36.845804,1709037936.8458035,83.0078125,-1000.0,310.05859375,-18.5546875,1.0,0.0,1.0,1.0,5.m4v,4.0
2024-02-27 13:45:36.849710,1709037936.8497095,911.62109375,114.2578125,226.07421875,-30.2734375,1.0,0.0,1.0,1.0,5.m4v,4.0
2024-02-27 13:45:36.853615,1709037936.8536153,999.51171875,999.51171875,171.875,-46.875,1.0,0.0,1.0,1.0,5.m4v,4.0
2024-02-27 13:45:36.857521,1709037936.857521,408.203125,921.875,91.796875,-49.31640625,1.0,0.0,1.0,1.0,5.m4v,4.0
2024-02-27 13:45:36.861427,1709037936.8614266,-355.95703125,945.80078125,258.30078125,-31.25,1.0,0.0,1.0,1.0,5.m4v,4.0
2024-02-27 13:45:36.865332,1709037936.8653324,147.4609375,936.5234375,463.8671875,-25.87890625,1.0,0.0,1.0,1.0,5.m4v,4.0
2024-02-27 13:45:36.869238,1709037936.869238,78.125,999.51171875,0.9765625,-35.15625,1.0,0.0,1.0,1.0,5.m4v,4.0
2024-02-27 13:45:36.873144,1709037936.873144,-828.61328125,-79.1015625,-768.06640625,-52.24609375,1.0,0.0,1.0,1.0,5.m4v,4.0
2024-02-27 13:45:36.877053,1709037936.8770535,-1000.0,-1000.0,-960.9375,-59.5703125,1.0,0.0,1.0,1.0,5.m4v,4.0
2024-02-27 13:45:36.880959,1709037936.8809593,-757.8125,-951.66015625,-370.60546875,-28.80859375,1.0,0.0,1.0,1.0,5.m4v,4.0
2024-02-27 13:45:36.884865,1709037936.884865,492.1875,-1000.0,291.50390625,-11.23046875,1.0,0.0,1.0,1.0,5.m4v,4.0
2024-02-27 13:45:36.888771,1709037936.8887706,915.52734375,-944.82421875,43.45703125,-19.04296875,1.0,0.0,1.0,1.0,5.m4v,4.0
2024-02-27 13:45:36.892676,1709037936.8926764,-477.05078125,-1000.0,-754.39453125,-25.87890625,1.0,0.0,1.0,1.0,5.m4v,4.0
2024-02-27 13:45:36.896582,1709037936.896582,-830.56640625,-808.59375,-535.64453125,-27.83203125,1.0,0.0,1.0,1.0,5.m4v,4.0
2024-02-27 13:45:36.900488,1709037936.900488,568.84765625,610.3515625,514.16015625,-19.53125,1.0,0.0,1.0,1.0,5.m4v,4.0
2024-02-27 13:45:36.904394,1709037936.9043937,999.51171875,999.51171875,768.5546875,-17.578125,1.0,0.0,1.0,1.0,5.m4v,4.0
2024-02-27 13:45:36.908299,1709037936.9082994,815.4296875,966.796875,351.07421875,-24.90234375,1.0,0.0,1.0,1.0,5.m4v,4.0
2024-02-27 13:45:36.912205,1709037936.9122052,-166.50390625,803.22265625,-279.78515625,-44.43359375,1.0,0.0,1.0,1.0,5.m4v,4.0
2024-02-27 13:45:36.916111,1709037936.9161108,-1000.0,-611.81640625,-908.69140625,-51.26953125,1.0,0.0,1.0,1.0,5.m4v,4.0
2024-02-27 13:45:36.920017,1709037936.9200163,-1000.0,-1000.0,-582.03125,-37.109375,1.0,0.0,1.0,1.0,5.m4v,4.0
2024-02-27 13:45:36.923926,1709037936.923926,-84.9609375,-935.546875,203.61328125,-26.3671875,1.0,0.0,1.0,1.0,5.m4v,4.0
2024-02-27 13:45:36.927832,1709037936.9278316,949.70703125,-1000.0,143.06640625,-28.3203125,1.0,0.0,1.0,1.0,5.m4v,4.0
2024-02-27 13:45:36.931737,1709037936.9317372,-134.765625,-972.16796875,-660.15625,-39.0625,1.0,0.0,1.0,1.0,5.m4v,4.0
2024-02-27 13:45:36.935643,1709037936.935643,-1000.0,-988.28125,-975.09765625,-40.52734375,1.0,0.0,1.0,1.0,5.m4v,4.0
2024-02-27 13:45:36.939549,1709037936.9395487,-596.19140625,-1000.0,-480.95703125,-32.71484375,1.0,0.0,1.0,1.0,5.m4v,4.0
2024-02-27 13:45:36.943455,1709037936.9434545,625.9765625,204.1015625,553.22265625,-20.99609375,1.0,0.0,1.0,1.0,5.m4v,4.0
2024-02-27 13:45:36.947360,1709037936.9473605,999.51171875,999.51171875,947.265625,-20.5078125,1.0,0.0,1.0,1.0,5.m4v,4.0
2024-02-27 13:45:36.951266,1709037936.951266,543.45703125,859.86328125,84.9609375,-42.48046875,1.0,0.0,1.0,1.0,5.m4v,4.0
2024-02-27 13:45:36.955172,1709037936.9551716,-644.04296875,999.51171875,-687.98828125,-50.29296875,1.0,0.0,1.0,1.0,5.m4v,4.0
2024-02-27 13:45:36.959077,1709037936.9590774,-1000.0,152.83203125,-536.62109375,-35.15625,1.0,0.0,1.0,1.0,5.m4v,4.0
2024-02-27 13:45:36.962983,1709037936.9629831,-675.29296875,-1000.0,58.10546875,-24.4140625,1.0,0.0,1.0,1.0,5.m4v,4.0
2024-02-27 13:45:36.966889,1709037936.966889,381.8359375,-666.50390625,321.2890625,-22.94921875,1.0,0.0,1.0,1.0,5.m4v,4.0
2024-02-27 13:45:36.970798,1709037936.9707985,999.51171875,767.578125,70.80078125,-31.73828125,1.0,0.0,1.0,1.0,5.m4v,4.0
2024-02-27 13:45:36.974704,1709037936.9747038,402.83203125,999.51171875,-391.11328125,-43.45703125,1.0,0.0,1.0,1.0,5.m4v,4.0
2024-02-27 13:45:36.978610,1709037936.9786096,-666.9921875,908.69140625,-360.83984375,-33.69140625,1.0,0.0,1.0,1.0,5.m4v,4.0
2024-02-27 13:45:36.982515,1709037936.982515,96.6796875,988.28125,404.296875,-27.34375,1.0,0.0,1.0,1.0,5.m4v,4.0
2024-02-27 13:45:36.986421,1709037936.986421,999.51171875,953.61328125,650.390625,-22.4609375,1.0,0.0,1.0,1.0,5.m4v,4.0
2024-02-27 13:45:36.990327,1709037936.990327,699.21875,935.05859375,231.4453125,-28.3203125,1.0,0.0,1.0,1.0,5.m4v,4.0
2024-02-27 13:45:36.994233,1709037936.994233,-368.65234375,999.51171875,-99.12109375,-35.64453125,1.0,0.0,1.0,1.0,5.m4v,4.0
2024-02-27 13:45:36.998138,1709037936.9981384,-1000.0,-67.3828125,-348.14453125,-40.52734375,1.0,0.0,1.0,1.0,5.m4v,4.0
2024-02-27 13:45:37.002044,1709037937.002044,-990.234375,-1000.0,-109.86328125,-36.1328125,1.0,0.0,1.0,1.0,5.m4v,4.0
2024-02-27 13:45:37.005950,1709037937.0059495,-422.36328125,-953.61328125,159.66796875,-28.3203125,1.0,0.0,1.0,1.0,5.m4v,4.0
2024-02-27 13:45:37.009856,1709037937.0098555,-153.3203125,-1000.0,-316.40625,-30.76171875,1.0,0.0,1.0,1.0,5.m4v,4.0
2024-02-27 13:45:37.013761,1709037937.0137613,-791.015625,-960.44921875,-856.4453125,-41.9921875,1.0,0.0,1.0,1.0,5.m4v,4.0
2024-02-27 13:45:37.017670,1709037937.0176702,-1000.0,-1000.0,-830.56640625,-40.0390625,1.0,0.0,1.0,1.0,5.m4v,4.0
2024-02-27 13:45:37.021576,1709037937.021576,-51.7578125,-955.078125,-156.25,-11.71875,1.0,0.0,1.0,1.0,5.m4v,4.0
2024-02-27 13:45:37.025482,1709037937.0254817,974.12109375,382.32421875,647.4609375,0.0,1.0,0.0,1.0,1.0,5.m4v,4.0
2024-02-27 13:45:37.029387,1709037937.0293872,999.51171875,999.51171875,647.4609375,-16.11328125,1.0,0.0,1.0,1.0,5.m4v,4.0
2024-02-27 13:45:37.033293,1709037937.033293,514.16015625,904.78515625,-84.9609375,-30.2734375,1.0,0.0,1.0,1.0,5.m4v,4.0
2024-02-27 13:45:37.037199,1709037937.0371988,-511.71875,978.02734375,-166.015625,-35.64453125,1.0,0.0,1.0,1.0,5.m4v,4.0
2024-02-27 13:45:37.041105,1709037937.0411046,145.01953125,962.890625,633.7890625,-30.2734375,1.0,0.0,1.0,1.0,5.m4v,4.0
2024-02-27 13:45:37.045010,1709037937.0450103,999.51171875,918.45703125,928.22265625,-26.85546875,1.0,0.0,1.0,1.0,5.m4v,4.0
2024-02-27 13:45:37.048916,1709037937.048916,434.08203125,999.51171875,405.76171875,-25.390625,1.0,0.0,1.0,1.0,5.m4v,4.0
2024-02-27 13:45:37.052822,1709037937.0528216,-781.73828125,68.84765625,-489.74609375,-50.29296875,1.0,0.0,1.0,1.0,5.m4v,4.0
2024-02-27 13:45:37.056727,1709037937.0567274,-1000.0,-1000.0,-834.9609375,-68.84765625,1.0,0.0,1.0,1.0,5.m4v,4.0
2024-02-27 13:45:37.060633,1709037937.0606332,-920.8984375,-968.26171875,-261.71875,-42.48046875,1.0,0.0,1.0,1.0,5.m4v,4.0
2024-02-27 13:45:37.064542,1709037937.0645416,127.44140625,-981.93359375,323.2421875,-29.78515625,1.0,0.0,1.0,1.0,5.m4v,4.0
2024-02-27 13:45:37.380926,1709037937.3809264,-660.15625,979.98046875,194.82421875,-34.66796875,1.0,0.0,1.0,1.0,5.m4v,4.0
2024-02-27 13:45:37.384832,1709037937.384832,713.37890625,897.4609375,849.12109375,-20.01953125,1.0,0.0,1.0,1.0,5.m4v,4.0
2024-02-27 13:45:37.388738,1709037937.3887377,999.51171875,999.51171875,711.42578125,-18.06640625,1.0,0.0,1.0,1.0,5.m4v,4.0
2024-02-27 13:45:37.392647,1709037937.3926468,-104.4921875,389.16015625,-103.02734375,-49.8046875,1.0,0.0,1.0,1.0,5.m4v,4.0
2024-02-27 13:45:37.396553,1709037937.3965526,-1000.0,-970.703125,-800.29296875,-59.08203125,1.0,0.0,1.0,1.0,5.m4v,4.0
2024-02-27 13:45:37.400458,1709037937.400458,-1000.0,-987.79296875,-427.24609375,-36.62109375,1.0,0.0,1.0,1.0,5.m4v,4.0
2024-02-27 13:45:37.404364,1709037937.404364,-49.31640625,-1000.0,422.36328125,-19.53125,1.0,0.0,1.0,1.0,5.m4v,4.0
2024-02-27 13:45:37.408270,1709037937.4082696,999.51171875,42.96875,602.5390625,-0.48828125,1.0,0.0,1.0,1.0,5.m4v,4.0
2024-02-27 13:45:37.412175,1709037937.4121754,969.23828125,999.51171875,271.97265625,-31.73828125,1.0,0.0,1.0,1.0,5.m4v,4.0
2024-02-27 13:45:37.416081,1709037937.4160812,481.4453125,922.36328125,143.5546875,-45.8984375,1.0,0.0,1.0,1.0,5.m4v,4.0
2024-02-27 13:45:37.419987,1709037937.419987,-522.4609375,967.7734375,180.6640625,-39.55078125,1.0,0.0,1.0,1.0,5.m4v,4.0
2024-02-27 13:45:37.423892,1709037937.4238925,-272.4609375,902.83203125,532.2265625,-35.64453125,1.0,0.0,1.0,1.0,5.m4v,4.0
2024-02-27 13:45:37.427798,1709037937.4277985,544.43359375,999.51171875,512.20703125,-35.64453125,1.0,0.0,1.0,1.0,5.m4v,4.0
2024-02-27 13:45:37.431704,1709037937.431704,-294.921875,307.12890625,-229.00390625,-58.10546875,1.0,0.0,1.0,1.0,5.m4v,4.0
2024-02-27 13:45:37.435610,1709037937.4356098,-1000.0,-1000.0,-843.26171875,-66.89453125,1.0,0.0,1.0,1.0,5.m4v,4.0
2024-02-27 13:45:37.439518,1709037937.4395182,-1000.0,-945.3125,-573.2421875,-57.6171875,1.0,0.0,1.0,1.0,5.m4v,4.0
2024-02-27 13:45:37.814495,1709037937.8144948,527.83203125,999.51171875,-228.515625,-11.71875,1.0,0.0,1.0,1.0,5.m4v,4.0
2024-02-27 13:45:37.818401,1709037937.8184006,-746.58203125,740.234375,-506.34765625,-52.734375,1.0,0.0,1.0,1.0,5.m4v,4.0
2024-02-27 13:45:37.822306,1709037937.8223064,-1000.0,-568.359375,69.82421875,-44.43359375,1.0,0.0,1.0,1.0,5.m4v,4.0
2024-02-27 13:45:37.826212,1709037937.8262122,42.96875,-1000.0,575.68359375,-24.4140625,1.0,0.0,1.0,1.0,5.m4v,4.0
2024-02-27 13:45:37.830118,1709037937.830118,477.05078125,-937.5,81.54296875,-33.69140625,1.0,0.0,1.0,1.0,5.m4v,4.0
2024-02-27 13:45:37.834023,1709037937.8340237,-697.75390625,-1000.0,-449.21875,-49.31640625,1.0,0.0,1.0,1.0,5.m4v,4.0
2024-02-27 13:45:37.837929,1709037937.8379292,-750.0,-951.171875,-101.5625,-59.5703125,1.0,0.0,1.0,1.0,5.m4v,4.0
2024-02-27 13:45:37.841835,1709037937.841835,206.0546875,-1000.0,329.1015625,-54.19921875,1.0,0.0,1.0,1.0,5.m4v,4.0
2024-02-27 13:45:37.845741,1709037937.8457408,771.484375,-865.234375,510.25390625,-37.59765625,1.0,0.0,1.0,1.0,5.m4v,4.0
2024-02-27 13:45:37.849647,1709037937.8496466,999.51171875,497.0703125,226.07421875,-25.390625,1.0,0.0,1.0,1.0,5.m4v,4.0
2024-02-27 13:45:37.853552,1709037937.8535523,395.99609375,999.51171875,-387.6953125,-46.875,1.0,0.0,1.0,1.0,5.m4v,4.0
2024-02-27 13:45:37.857458,1709037937.857458,-969.7265625,907.2265625,-617.67578125,-56.640625,1.0,0.0,1.0,1.0,5.m4v,4.0
2024-02-27 13:45:37.861366,1709037937.861366,-458.0078125,979.98046875,3.41796875,-34.66796875,1.0,0.0,1.0,1.0,5.m4v,4.0
2024-02-27 13:45:37.865272,1709037937.8652718,838.37890625,966.30859375,729.4921875,-26.3671875,1.0,0.0,1.0,1.0,5.m4v,4.0
2024-02-27 13:45:37.869178,1709037937.8691776,999.51171875,913.57421875,756.8359375,-25.390625,1.0,0.0,1.0,1.0,5.m4v,4.0
2024-02-27 13:45:37.873083,1709037937.8730834,288.0859375,999.51171875,158.69140625,-44.921875,1.0,0.0,1.0,1.0,5.m4v,4.0
2024-02-27 13:45:37.876989,1709037937.8769891,-970.21484375,122.55859375,-495.60546875,-55.6640625,1.0,0.0,1.0,1.0,5.m4v,4.0
2024-02-27 13:45:37.880895,1709037937.880895,-963.8671875,-1000.0,53.22265625,-51.26953125,1.0,0.0,1.0,1.0,5.m4v,4.0
2024-02-27 13:45:37.884800,1709037937.8848004,389.6484375,-975.09765625,952.1484375,-41.9921875,1.0,0.0,1.0,1.0,5.m4v,4.0
2024-02-27 13:45:37.888706,1709037937.8887062,591.30859375,-978.515625,456.54296875,-36.1328125,1.0,0.0,1.0,1.0,5.m4v,4.0
2024-02-27 13:45:37.892612,1709037937.892612,-744.62890625,-1000.0,-570.80078125,-40.52734375,1.0,0.0,1.0,1.0,5.m4v,4.0
2024-02-27 13:45:37.896518,1709037937.8965178,-1000.0,-940.91796875,-923.828125,-50.78125,1.0,0.0,1.0,1.0,5.m4v,4.0
2024-02-27 13:45:37.900424,1709037937.9004235,-566.89453125,-1000.0,-362.79296875,-38.57421875,1.0,0.0,1.0,1.0,5.m4v,4.0
2024-02-27 13:45:37.904329,1709037937.904329,621.09375,-180.17578125,611.81640625,-17.578125,1.0,0.0,1.0,1.0,5.m4v,4.0
2024-02-27 13:45:37.908237,1709037937.9082372,999.51171875,999.51171875,884.27734375,-13.18359375,1.0,0.0,1.0,1.0,5.m4v,4.0
2024-02-27 13:45:37.912143,1709037937.912143,785.64453125,948.2421875,198.73046875,-33.69140625,1.0,0.0,1.0,1.0,5.m4v,4.0
2024-02-27 13:45:37.916049,1709037937.9160483,-424.31640625,945.3125,-343.26171875,-44.43359375,1.0,0.0,1.0,1.0,5.m4v,4.0
2024-02-27 13:45:37.919954,1709037937.9199543,-858.3984375,976.07421875,-10.7421875,-34.66796875,1.0,0.0,1.0,1.0,5.m4v,4.0
2024-02-27 13:45:37.923860,1709037937.92386,424.8046875,970.703125,730.95703125,-24.90234375,1.0,0.0,1.0,1.0,5.m4v,4.0
2024-02-27 13:45:37.927766,1709037937.9277658,999.51171875,907.2265625,979.4921875,-28.80859375,1.0,0.0,1.0,1.0,5.m4v,4.0
2024-02-27 13:45:37.931672,1709037937.9316716,757.8125,999.51171875,704.1015625,-36.62109375,1.0,0.0,1.0,1.0,5.m4v,4.0
2024-02-27 13:45:37.935577,1709037937.9355774,-360.83984375,188.96484375,-99.12109375,-56.640625,1.0,0.0,1.0,1.0,5.m4v,4.0
2024-02-27 13:45:37.939483,1709037937.9394832,-1000.0,-1000.0,-608.3984375,-61.03515625,1.0,0.0,1.0,1.0,5.m4v,4.0
2024-02-27 13:45:37.943389,1709037937.9433887,-827.1484375,-983.88671875,-11.71875,-32.71484375,1.0,0.0,1.0,1.0,5.m4v,4.0
2024-02-27 13:45:37.947294,1709037937.9472945,63.4765625,-973.14453125,328.125,-37.109375,1.0,0.0,1.0,1.0,5.m4v,4.0
2024-02-27 13:45:37.951200,1709037937.9512002,79.1015625,-1000.0,-240.72265625,-42.96875,1.0,0.0,1.0,1.0,5.m4v,4.0
2024-02-27 13:45:37.955110,1709037937.95511,-847.65625,-935.05859375,-755.859375,-40.52734375,1.0,0.0,1.0,1.0,5.m4v,4.0
2024-02-27 13:45:37.959016,1709037937.9590158,-1000.0,-1000.0,-630.859375,-41.50390625,1.0,0.0,1.0,1.0,5.m4v,4.0
2024-02-27 13:45:37.962922,1709037937.9629216,117.67578125,-704.58984375,171.38671875,-30.76171875,1.0,0.0,1.0,1.0,5.m4v,4.0
2024-02-27 13:45:37.966827,1709037937.9668274,999.51171875,725.09765625,794.43359375,-17.578125,1.0,0.0,1.0,1.0,5.m4v,4.0
2024-02-27 13:45:37.970733,1709037937.9707332,874.0234375,999.51171875,277.83203125,-23.92578125,1.0,0.0,1.0,1.0,5.m4v,4.0
2024-02-27 13:45:37.974639,1709037937.974639,447.265625,908.69140625,-89.84375,-37.109375,1.0,0.0,1.0,1.0,5.m4v,4.0
2024-02-27 13:45:37.978544,1709037937.9785445,33.69140625,984.375,171.875,-33.203125,1.0,0.0,1.0,1.0,5.m4v,4.0
2024-02-27 13:45:37.982450,1709037937.9824502,-62.98828125,970.703125,373.046875,-26.85546875,1.0,0.0,1.0,1.0,5.m4v,4.0
2024-02-27 13:45:37.986356,1709037937.986356,637.6953125,906.73828125,698.2421875,-16.6015625,1.0,0.0,1.0,1.0,5.m4v,4.0
2024-02-27 13:45:37.990262,1709037937.9902618,895.5078125,999.51171875,540.0390625,-29.78515625,1.0,0.0,1.0,1.0,5.m4v,4.0
2024-02-27 13:45:37.994168,1709037937.9941676,-349.12109375,188.96484375,-319.3359375,-58.59375,1.0,0.0,1.0,1.0,5.m4v,4.0
2024-02-27 13:45:37.998073,1709037937.998073,-1000.0,-1000.0,-821.77734375,-56.640625,1.0,0.0,1.0,1.0,5.m4v,4.0
2024-02-27 13:45:38.001983,1709037938.0019832,-949.21875,-983.88671875,-306.640625,-36.62109375,1.0,0.0,1.0,1.0,5.m4v,4.0
2024-02-27 13:45:38.005889,1709037938.005889,182.6171875,-973.6328125,389.6484375,-2.9296875,1.0,0.0,1.0,1.0,5.m4v,4.0
2024-02-27 13:45:38.009794,1709037938.0097945,961.9140625,-1000.0,247.55859375,-23.92578125,1.0,0.0,1.0,1.0,5.m4v,4.0
2024-02-27 13:45:38.013700,1709037938.0137002,-300.78125,-939.453125,-626.953125,-69.82421875,1.0,0.0,1.0,1.0,5.m4v,4.0
2024-02-27 13:45:38.017606,1709037938.017606,-1000.0,-1000.0,-884.765625,-59.08203125,1.0,0.0,1.0,1.0,5.m4v,4.0
2024-02-27 13:45:38.021512,1709037938.0215118,-23.4375,-182.12890625,228.515625,-31.73828125,1.0,0.0,1.0,1.0,5.m4v,4.0
2024-02-27 13:45:38.025418,1709037938.0254176,999.51171875,990.234375,999.51171875,-33.203125,1.0,0.0,1.0,1.0,5.m4v,4.0
2024-02-27 13:45:38.029323,1709037938.029323,933.10546875,999.51171875,611.328125,-49.8046875,1.0,0.0,1.0,1.0,5.m4v,4.0
2024-02-27 13:45:38.033229,1709037938.033229,-101.07421875,753.90625,-350.5859375,-59.5703125,1.0,0.0,1.0,1.0,5.m4v,4.0
2024-02-27 13:45:38.037135,1709037938.0371346,-1000.0,-555.17578125,-773.92578125,-71.77734375,1.0,0.0,1.0,1.0,5.m4v,4.0
2024-02-27 13:45:38.041040,1709037938.0410404,-890.625,-1000.0,-255.37109375,-71.77734375,1.0,0.0,1.0,1.0,5.m4v,4.0
2024-02-27 13:45:38.044946,1709037938.0449462,212.890625,-141.11328125,643.5546875,-40.52734375,1.0,0.0,1.0,1.0,5.m4v,4.0
2024-02-27 13:45:38.048856,1709037938.0488558,999.51171875,967.28515625,975.5859375,-23.92578125,1.0,0.0,1.0,1.0,5.m4v,4.0
2024-02-27 13:45:38.052762,1709037938.0527616,585.44921875,999.51171875,282.71484375,-52.24609375,1.0,0.0,1.0,1.0,5.m4v,4.0
2024-02-27 13:45:38.056667,1709037938.056667,-608.88671875,225.09765625,-511.23046875,-57.12890625,1.0,0.0,1.0,1.0,5.m4v,4.0
2024-02-27 13:45:38.060573,1709037938.060573,-1000.0,-1000.0,-363.28125,-54.19921875,1.0,0.0,1.0,1.0,5.m4v,4.0
2024-02-27 13:45:38.064479,1709037938.0644789,-380.37109375,-1000.0,322.265625,-50.78125,1.0,0.0,1.0,1.0,5.m4v,4.0
2024-02-27 13:45:38.068384,1709037938.0683844,892.578125,198.2421875,836.9140625,-49.31640625,1.0,0.0,1.0,1.0,5.m4v,4.0
2024-02-27 13:45:38.373050,1709037938.3730495,-561.03515625,-1000.0,-777.83203125,-43.45703125,1.0,0.0,1.0,1.0,5.m4v,4.0
2024-02-27 13:45:38.384771,1709037938.3847706,874.51171875,-147.94921875,463.8671875,-4.39453125,1.0,0.0,1.0,1.0,5.m4v,4.0
2024-02-27 13:45:38.396488,1709037938.396488,51.7578125,947.75390625,-92.28515625,-46.38671875,1.0,0.0,1.0,1.0,5.m4v,4.0
2024-02-27 13:45:38.408205,1709037938.4082053,999.51171875,999.51171875,985.3515625,-35.64453125,1.0,0.0,1.0,1.0,5.m4v,4.0
2024-02-27 13:45:38.419922,1709037938.4199224,-1000.0,-1000.0,-655.76171875,-56.640625,1.0,0.0,1.0,1.0,5.m4v,4.0
2024-02-27 13:45:38.431643,1709037938.431643,587.890625,-991.69921875,11.23046875,-41.50390625,1.0,0.0,1.0,1.0,5.m4v,4.0
2024-02-27 13:45:38.439455,1709037938.4394546,-1000.0,-1000.0,-415.52734375,-31.73828125,1.0,0.0,1.0,1.0,5.m4v,4.0
2024-02-27 13:45:38.517576,1709037938.517576,-1000.0,-958.984375,-471.6796875,-48.33984375,1.0,0.0,1.0,1.0,5.m4v,4.0
2024-02-27 13:45:38.521482,1709037938.5214818,-92.7734375,-1000.0,136.71875,-24.4140625,1.0,0.0,1.0,1.0,5.m4v,4.0
2024-02-27 13:45:38.525388,1709037938.5253875,909.1796875,-10.25390625,799.8046875,-12.6953125,1.0,0.0,1.0,1.0,5.m4v,4.0
2024-02-27 13:45:38.529293,1709037938.5292933,999.51171875,999.51171875,999.51171875,-11.23046875,1.0,0.0,1.0,1.0,5.m4v,4.0
2024-02-27 13:45:38.533199,1709037938.533199,699.21875,927.24609375,425.29296875,-18.06640625,1.0,0.0,1.0,1.0,5.m4v,4.0
2024-02-27 13:45:38.537105,1709037938.5371048,-370.1171875,957.51953125,88.8671875,-27.83203125,1.0,0.0,1.0,1.0,5.m4v,4.0
2024-02-27 13:45:38.541010,1709037938.5410104,-120.1171875,974.12109375,729.98046875,-16.11328125,1.0,0.0,1.0,1.0,5.m4v,4.0
2024-02-27 13:45:38.544916,1709037938.5449162,887.6953125,905.76171875,999.51171875,-19.04296875,1.0,0.0,1.0,1.0,5.m4v,4.0
2024-02-27 13:45:38.548822,1709037938.548822,676.26953125,999.51171875,843.26171875,-35.15625,1.0,0.0,1.0,1.0,5.m4v,4.0
2024-02-27 13:45:38.552728,1709037938.5527277,-466.796875,209.9609375,58.10546875,-55.6640625,1.0,0.0,1.0,1.0,5.m4v,4.0
2024-02-27 13:45:38.556633,1709037938.5566337,-1000.0,-1000.0,-543.9453125,-58.59375,1.0,0.0,1.0,1.0,5.m4v,4.0
2024-02-27 13:45:38.560539,1709037938.5605392,-1000.0,-987.3046875,-116.2109375,-45.8984375,1.0,0.0,1.0,1.0,5.m4v,4.0
2024-02-27 13:45:38.564448,1709037938.5644476,-251.46484375,-971.19140625,560.546875,-20.01953125,1.0,0.0,1.0,1.0,5.m4v,4.0
2024-02-27 13:45:38.568353,1709037938.5683534,992.67578125,-1000.0,673.33984375,-10.25390625,1.0,0.0,1.0,1.0,5.m4v,4.0
2024-02-27 13:45:38.572259,1709037938.572259,260.7421875,-982.421875,71.2890625,-31.25,1.0,0.0,1.0,1.0,5.m4v,4.0
2024-02-27 13:45:38.576165,1709037938.5761647,-1000.0,-966.30859375,-528.3203125,-46.875,1.0,0.0,1.0,1.0,5.m4v,4.0
2024-02-27 13:45:38.580070,1709037938.5800705,-875.0,-1000.0,-211.9140625,-38.0859375,1.0,0.0,1.0,1.0,5.m4v,4.0
2024-02-27 13:45:38.583976,1709037938.5839765,367.67578125,74.70703125,689.94140625,-19.53125,1.0,0.0,1.0,1.0,5.m4v,4.0
2024-02-27 13:45:38.587882,1709037938.587882,999.51171875,999.51171875,999.51171875,-23.92578125,1.0,0.0,1.0,1.0,5.m4v,4.0
2024-02-27 13:45:38.591788,1709037938.5917878,866.2109375,986.328125,730.95703125,-43.9453125,1.0,0.0,1.0,1.0,5.m4v,4.0
2024-02-27 13:45:38.595694,1709037938.5956936,-193.359375,740.72265625,-71.77734375,-55.6640625,1.0,0.0,1.0,1.0,5.m4v,4.0
2024-02-27 13:45:38.599599,1709037938.5995991,-1000.0,-577.1484375,-285.15625,-44.43359375,1.0,0.0,1.0,1.0,5.m4v,4.0
2024-02-27 13:45:38.603505,1709037938.603505,-611.328125,-1000.0,471.19140625,-30.76171875,1.0,0.0,1.0,1.0,5.m4v,4.0
2024-02-27 13:45:38.607411,1709037938.607411,576.66015625,-591.796875,898.92578125,-28.80859375,1.0,0.0,1.0,1.0,5.m4v,4.0
2024-02-27 13:45:38.611319,1709037938.6113188,999.51171875,748.046875,457.03125,-34.66796875,1.0,0.0,1.0,1.0,5.m4v,4.0
2024-02-27 13:45:38.615225,1709037938.6152246,317.3828125,999.51171875,-80.56640625,-34.1796875,1.0,0.0,1.0,1.0,5.m4v,4.0
2024-02-27 13:45:38.619130,1709037938.6191304,-844.23828125,912.109375,-108.88671875,-33.69140625,1.0,0.0,1.0,1.0,5.m4v,4.0
2024-02-27 13:45:38.623036,1709037938.623036,-215.8203125,994.62890625,544.921875,-19.04296875,1.0,0.0,1.0,1.0,5.m4v,4.0
2024-02-27 13:45:38.626942,1709037938.626942,958.984375,923.33984375,898.4375,-12.20703125,1.0,0.0,1.0,1.0,5.m4v,4.0
2024-02-27 13:45:38.630848,1709037938.6308477,889.16015625,999.51171875,664.55078125,-34.66796875,1.0,0.0,1.0,1.0,5.m4v,4.0
2024-02-27 13:45:38.634753,1709037938.6347537,-147.94921875,885.7421875,218.75,-59.08203125,1.0,0.0,1.0,1.0,5.m4v,4.0
2024-02-27 13:45:38.638659,1709037938.638659,-1000.0,-477.5390625,-235.3515625,-47.8515625,1.0,0.0,1.0,1.0,5.m4v,4.0
2024-02-27 13:45:38.642565,1709037938.6425648,-960.9375,-1000.0,122.55859375,-29.78515625,1.0,0.0,1.0,1.0,5.m4v,4.0
2024-02-27 13:45:38.646471,1709037938.6464703,-464.84375,-1000.0,500.0,-26.85546875,1.0,0.0,1.0,1.0,5.m4v,4.0
2024-02-27 13:45:38.650376,1709037938.6503763,487.79296875,-269.53125,359.86328125,-27.83203125,1.0,0.0,1.0,1.0,5.m4v,4.0
2024-02-27 13:45:38.654282,1709037938.654282,958.49609375,999.51171875,28.3203125,-28.80859375,1.0,0.0,1.0,1.0,5.m4v,4.0
2024-02-27 13:45:38.658190,1709037938.6581905,90.33203125,960.44921875,-162.109375,-34.66796875,1.0,0.0,1.0,1.0,5.m4v,4.0
2024-02-27 13:45:38.662096,1709037938.662096,-301.7578125,939.94140625,287.109375,-22.94921875,1.0,0.0,1.0,1.0,5.m4v,4.0
2024-02-27 13:45:38.666002,1709037938.6660016,740.234375,915.0390625,944.3359375,-17.578125,1.0,0.0,1.0,1.0,5.m4v,4.0
2024-02-27 13:45:38.669907,1709037938.669907,877.9296875,999.51171875,754.39453125,-28.80859375,1.0,0.0,1.0,1.0,5.m4v,4.0
2024-02-27 13:45:38.673813,1709037938.673813,-375.9765625,188.96484375,-269.53125,-42.48046875,1.0,0.0,1.0,1.0,5.m4v,4.0
2024-02-27 13:45:38.677719,1709037938.6777189,-1000.0,-1000.0,-503.41796875,-42.96875,1.0,0.0,1.0,1.0,5.m4v,4.0
2024-02-27 13:45:38.681625,1709037938.681625,-632.32421875,-983.88671875,345.703125,-23.4375,1.0,0.0,1.0,1.0,5.m4v,4.0
2024-02-27 13:45:38.685530,1709037938.6855304,560.546875,-973.14453125,807.6171875,-23.4375,1.0,0.0,1.0,1.0,5.m4v,4.0
2024-02-27 13:45:38.689436,1709037938.6894362,360.3515625,-1000.0,344.23828125,-51.7578125,1.0,0.0,1.0,1.0,5.m4v,4.0
2024-02-27 13:45:38.693342,1709037938.6933415,-822.75390625,-1000.0,-597.65625,-60.546875,1.0,0.0,1.0,1.0,5.m4v,4.0
2024-02-27 13:45:38.740215,1709037938.740215,-1000.0,-1000.0,-556.15234375,-51.26953125,1.0,0.0,1.0,1.0,5.m4v,4.0
2024-02-27 13:45:38.744121,1709037938.7441208,-276.3671875,-1000.0,265.13671875,-35.64453125,1.0,0.0,1.0,1.0,5.m4v,4.0
2024-02-27 13:45:38.748027,1709037938.7480266,969.23828125,-169.43359375,783.203125,-30.76171875,1.0,0.0,1.0,1.0,5.m4v,4.0
2024-02-27 13:45:38.751936,1709037938.7519362,867.67578125,999.51171875,242.1875,-28.80859375,1.0,0.0,1.0,1.0,5.m4v,4.0
2024-02-27 13:45:38.755842,1709037938.755842,-269.53125,409.1796875,-604.4921875,-37.109375,1.0,0.0,1.0,1.0,5.m4v,4.0
2024-02-27 13:45:38.759748,1709037938.7597475,-1000.0,-928.22265625,-746.09375,-54.6875,1.0,0.0,1.0,1.0,5.m4v,4.0
2024-02-27 13:45:38.763653,1709037938.7636533,-474.609375,-1000.0,50.78125,-33.203125,1.0,0.0,1.0,1.0,5.m4v,4.0
2024-02-27 13:45:38.767559,1709037938.767559,769.04296875,-104.00390625,735.83984375,-8.7890625,1.0,0.0,1.0,1.0,5.m4v,4.0
2024-02-27 13:45:38.771465,1709037938.7714648,999.51171875,976.07421875,622.0703125,-15.625,1.0,0.0,1.0,1.0,5.m4v,4.0
2024-02-27 13:45:38.775371,1709037938.7753706,690.91796875,999.51171875,266.6015625,-31.25,1.0,0.0,1.0,1.0,5.m4v,4.0
2024-02-27 13:45:38.779276,1709037938.7792764,-438.4765625,225.09765625,-132.8125,-44.921875,1.0,0.0,1.0,1.0,5.m4v,4.0
2024-02-27 13:45:38.783182,1709037938.783182,-1000.0,-1000.0,1.953125,-41.9921875,1.0,0.0,1.0,1.0,5.m4v,4.0
2024-02-27 13:45:38.787088,1709037938.787088,-629.39453125,-993.65234375,298.828125,-25.390625,1.0,0.0,1.0,1.0,5.m4v,4.0
2024-02-27 13:45:38.790993,1709037938.7909937,-286.62109375,-979.00390625,-144.04296875,-27.34375,1.0,0.0,1.0,1.0,5.m4v,4.0
2024-02-27 13:45:38.794899,1709037938.7948992,-788.57421875,-936.03515625,-754.39453125,-35.15625,1.0,0.0,1.0,1.0,5.m4v,4.0
2024-02-27 13:45:38.798809,1709037938.7988086,-1000.0,-1000.0,-768.5546875,-31.73828125,1.0,0.0,1.0,1.0,5.m4v,4.0
2024-02-27 13:45:38.802714,1709037938.8027143,74.70703125,-439.94140625,32.2265625,-13.671875,1.0,0.0,1.0,1.0,5.m4v,4.0
2024-02-27 13:45:38.806620,1709037938.80662,999.0234375,949.21875,842.7734375,2.44140625,1.0,0.0,1.0,1.0,5.m4v,4.0
2024-02-27 13:45:38.810526,1709037938.8105257,999.51171875,992.1875,537.59765625,-16.11328125,1.0,0.0,1.0,1.0,5.m4v,4.0
2024-02-27 13:45:38.814431,1709037938.8144314,94.7265625,924.8046875,-364.2578125,-48.828125,1.0,0.0,1.0,1.0,5.m4v,4.0
2024-02-27 13:45:38.818337,1709037938.8183372,-837.890625,982.91015625,-250.9765625,-47.36328125,1.0,0.0,1.0,1.0,5.m4v,4.0
2024-02-27 13:45:38.822243,1709037938.822243,297.36328125,970.703125,656.73828125,-20.5078125,1.0,0.0,1.0,1.0,5.m4v,4.0
2024-02-27 13:45:38.826149,1709037938.8261487,999.51171875,907.2265625,820.3125,-11.23046875,1.0,0.0,1.0,1.0,5.m4v,4.0
2024-02-27 13:45:38.830055,1709037938.8300543,599.609375,999.51171875,438.4765625,-28.80859375,1.0,0.0,1.0,1.0,5.m4v,4.0
2024-02-27 13:45:38.833960,1709037938.8339603,-529.78515625,188.96484375,-403.80859375,-49.31640625,1.0,0.0,1.0,1.0,5.m4v,4.0
2024-02-27 13:45:38.837866,1709037938.8378658,-1000.0,-1000.0,-1000.0,-42.48046875,1.0,0.0,1.0,1.0,5.m4v,4.0
2024-02-27 13:45:38.841772,1709037938.8417716,-1000.0,-983.88671875,-652.83203125,-33.203125,1.0,0.0,1.0,1.0,5.m4v,4.0
2024-02-27 13:45:38.845681,1709037938.8456807,-149.90234375,-973.14453125,84.47265625,-22.94921875,1.0,0.0,1.0,1.0,5.m4v,4.0
2024-02-27 13:45:38.849586,1709037938.8495865,999.51171875,-1000.0,105.95703125,-24.90234375,1.0,0.0,1.0,1.0,5.m4v,4.0
2024-02-27 13:45:38.853492,1709037938.8534925,9.27734375,-1000.0,-614.2578125,-41.9921875,1.0,0.0,1.0,1.0,5.m4v,4.0
2024-02-27 13:45:38.857398,1709037938.857398,-1000.0,-938.4765625,-1000.0,-47.36328125,1.0,0.0,1.0,1.0,5.m4v,4.0
2024-02-27 13:45:38.861304,1709037938.8613038,-806.15234375,-1000.0,-760.25390625,-38.57421875,1.0,0.0,1.0,1.0,5.m4v,4.0
2024-02-27 13:45:38.865210,1709037938.8652096,322.265625,-209.47265625,172.36328125,-22.94921875,1.0,0.0,1.0,1.0,5.m4v,4.0
2024-02-27 13:45:38.869115,1709037938.869115,999.51171875,999.51171875,723.6328125,-13.18359375,1.0,0.0,1.0,1.0,5.m4v,4.0
2024-02-27 13:45:38.873021,1709037938.873021,602.05078125,885.7421875,-131.8359375,-32.71484375,1.0,0.0,1.0,1.0,5.m4v,4.0
2024-02-27 13:45:38.876927,1709037938.876927,-595.21484375,999.51171875,-909.1796875,-45.8984375,1.0,0.0,1.0,1.0,5.m4v,4.0
2024-02-27 13:45:38.880832,1709037938.8808324,-1000.0,338.37890625,-689.94140625,-39.0625,1.0,0.0,1.0,1.0,5.m4v,4.0
2024-02-27 13:45:38.884738,1709037938.8847382,-816.89453125,-1000.0,-205.56640625,-35.64453125,1.0,0.0,1.0,1.0,5.m4v,4.0
2024-02-27 13:45:38.888644,1709037938.888644,224.609375,-501.46484375,83.0078125,-31.73828125,1.0,0.0,1.0,1.0,5.m4v,4.0
2024-02-27 13:45:38.892553,1709037938.8925529,999.51171875,945.80078125,-168.9453125,-34.66796875,1.0,0.0,1.0,1.0,5.m4v,4.0
2024-02-27 13:45:38.896459,1709037938.8964586,263.671875,997.0703125,-764.6484375,-41.50390625,1.0,0.0,1.0,1.0,5.m4v,4.0
2024-02-27 13:45:38.900364,1709037938.9003644,-607.91015625,919.43359375,-606.93359375,-40.0390625,1.0,0.0,1.0,1.0,5.m4v,4.0
2024-02-27 13:45:38.904270,1709037938.9042702,346.6796875,991.69921875,289.0625,-32.2265625,1.0,0.0,1.0,1.0,5.m4v,4.0
2024-02-27 13:45:38.908176,1709037938.908176,999.51171875,937.98828125,427.734375,-20.01953125,1.0,0.0,1.0,1.0,5.m4v,4.0
2024-02-27 13:45:38.912082,1709037938.9120817,596.6796875,967.28515625,-61.03515625,-22.4609375,1.0,0.0,1.0,1.0,5.m4v,4.0
2024-02-27 13:45:38.915987,1709037938.9159873,-404.296875,993.1640625,-356.93359375,-38.57421875,1.0,0.0,1.0,1.0,5.m4v,4.0
2024-02-27 13:45:38.919893,1709037938.919893,-1000.0,-281.25,-647.4609375,-40.52734375,1.0,0.0,1.0,1.0,5.m4v,4.0
2024-02-27 13:45:38.923799,1709037938.9237988,-1000.0,-1000.0,-410.64453125,-39.0625,1.0,0.0,1.0,1.0,5.m4v,4.0
2024-02-27 13:45:38.927705,1709037938.9277046,-132.32421875,-938.96484375,28.3203125,-21.97265625,1.0,0.0,1.0,1.0,5.m4v,4.0
2024-02-27 13:45:38.931610,1709037938.9316103,339.35546875,-1000.0,-385.7421875,-25.87890625,1.0,0.0,1.0,1.0,5.m4v,4.0
2024-02-27 13:45:38.935516,1709037938.935516,-666.9921875,-997.0703125,-982.421875,-49.8046875,1.0,0.0,1.0,1.0,5.m4v,4.0
2024-02-27 13:45:38.939425,1709037938.9394245,-1000.0,-944.3359375,-947.265625,-40.0390625,1.0,0.0,1.0,1.0,5.m4v,4.0
2024-02-27 13:45:38.943330,1709037938.94333,-120.1171875,-1000.0,-341.30859375,-37.109375,1.0,0.0,1.0,1.0,5.m4v,4.0
2024-02-27 13:45:38.947236,1709037938.9472358,934.08203125,-153.3203125,220.703125,-30.2734375,1.0,0.0,1.0,1.0,5.m4v,4.0
2024-02-27 13:45:38.951142,1709037938.9511416,999.51171875,999.51171875,140.13671875,-20.5078125,1.0,0.0,1.0,1.0,5.m4v,4.0
2024-02-27 13:45:38.955047,1709037938.9550474,388.18359375,945.3125,-562.98828125,-35.64453125,1.0,0.0,1.0,1.0,5.m4v,4.0
2024-02-27 13:45:38.958953,1709037938.9589531,-598.14453125,954.58984375,-586.9140625,-41.9921875,1.0,0.0,1.0,1.0,5.m4v,4.0
2024-02-27 13:45:38.962859,1709037938.962859,268.06640625,944.82421875,266.6015625,-28.3203125,1.0,0.0,1.0,1.0,5.m4v,4.0
2024-02-27 13:45:38.966765,1709037938.9667647,999.51171875,962.890625,523.4375,-33.203125,1.0,0.0,1.0,1.0,5.m4v,4.0
2024-02-27 13:45:38.970670,1709037938.9706702,347.16796875,999.51171875,-86.9140625,-42.48046875,1.0,0.0,1.0,1.0,5.m4v,4.0
2024-02-27 13:45:38.974576,1709037938.974576,-838.37890625,-258.7890625,-854.4921875,-49.8046875,1.0,0.0,1.0,1.0,5.m4v,4.0
2024-02-27 13:45:38.978482,1709037938.9784818,-1000.0,-1000.0,-1000.0,-55.6640625,1.0,0.0,1.0,1.0,5.m4v,4.0
2024-02-27 13:45:38.982388,1709037938.9823875,-822.265625,-938.96484375,-529.296875,-38.57421875,1.0,0.0,1.0,1.0,5.m4v,4.0
2024-02-27 13:45:38.986296,1709037938.9862957,396.97265625,-1000.0,83.0078125,-20.01953125,1.0,0.0,1.0,1.0,5.m4v,4.0
2024-02-27 13:45:38.990201,1709037938.9902012,720.21484375,-1000.0,-318.359375,-35.15625,1.0,0.0,1.0,1.0,5.m4v,4.0
2024-02-27 13:45:38.994107,1709037938.994107,-572.265625,-1000.0,-955.56640625,-57.6171875,1.0,0.0,1.0,1.0,5.m4v,4.0
2024-02-27 13:45:38.998013,1709037938.9980128,-1000.0,-937.5,-1000.0,-51.7578125,1.0,0.0,1.0,1.0,5.m4v,4.0
2024-02-27 13:45:39.001919,1709037939.0019186,-631.34765625,-1000.0,-777.34375,-42.48046875,1.0,0.0,1.0,1.0,5.m4v,4.0
2024-02-27 13:45:39.005824,1709037939.0058243,517.578125,-218.75,122.55859375,-19.04296875,1.0,0.0,1.0,1.0,5.m4v,4.0
2024-02-27 13:45:39.009730,1709037939.00973,999.51171875,982.421875,639.16015625,-27.83203125,1.0,0.0,1.0,1.0,5.m4v,4.0
2024-02-27 13:45:39.013636,1709037939.013636,604.4921875,999.51171875,-195.3125,-49.8046875,1.0,0.0,1.0,1.0,5.m4v,4.0
2024-02-27 13:45:39.017541,1709037939.0175414,-600.5859375,123.046875,-995.1171875,-44.43359375,1.0,0.0,1.0,1.0,5.m4v,4.0
2024-02-27 13:45:39.021447,1709037939.0214472,-1000.0,-1000.0,-981.4453125,-45.41015625,1.0,0.0,1.0,1.0,5.m4v,4.0
2024-02-27 13:45:39.025353,1709037939.025353,-680.6640625,-978.515625,-534.1796875,-50.29296875,1.0,0.0,1.0,1.0,5.m4v,4.0
2024-02-27 13:45:39.029259,1709037939.0292587,270.01953125,-976.07421875,-468.26171875,-39.0625,1.0,0.0,1.0,1.0,5.m4v,4.0
2024-02-27 13:45:39.033167,1709037939.0331666,74.21875,-1000.0,-917.96875,-35.64453125,1.0,0.0,1.0,1.0,5.m4v,4.0
2024-02-27 13:45:39.037072,1709037939.0370724,-823.2421875,-1000.0,-1000.0,-49.31640625,1.0,0.0,1.0,1.0,5.m4v,4.0
2024-02-27 13:45:39.040978,1709037939.0409782,-737.3046875,-993.1640625,-893.06640625,-39.55078125,1.0,0.0,1.0,1.0,5.m4v,4.0
2024-02-27 13:45:39.044884,1709037939.044884,415.52734375,-949.21875,-257.32421875,-25.87890625,1.0,0.0,1.0,1.0,5.m4v,4.0
2024-02-27 13:45:39.048790,1709037939.0487895,963.8671875,-1000.0,-157.2265625,-24.90234375,1.0,0.0,1.0,1.0,5.m4v,4.0
2024-02-27 13:45:39.052695,1709037939.0526953,858.88671875,-94.7265625,-494.140625,-28.3203125,1.0,0.0,1.0,1.0,5.m4v,4.0
2024-02-27 13:45:39.056601,1709037939.056601,839.84375,999.51171875,-593.26171875,-40.52734375,1.0,0.0,1.0,1.0,5.m4v,4.0
2024-02-27 13:45:39.060507,1709037939.0605068,-73.2421875,937.5,-654.296875,-51.26953125,1.0,0.0,1.0,1.0,5.m4v,4.0
2024-02-27 13:45:39.064413,1709037939.0644126,-28.80859375,950.68359375,-166.9921875,-35.15625,1.0,0.0,1.0,1.0,5.m4v,4.0
2024-02-27 13:45:39.068318,1709037939.0683184,999.51171875,913.0859375,117.67578125,-26.85546875,1.0,0.0,1.0,1.0,5.m4v,4.0
2024-02-27 13:45:39.072224,1709037939.072224,714.84375,999.51171875,-295.8984375,-39.55078125,1.0,0.0,1.0,1.0,5.m4v,4.0
2024-02-27 13:45:39.076130,1709037939.0761297,-550.78125,163.0859375,-897.94921875,-53.22265625,1.0,0.0,1.0,1.0,5.m4v,4.0
2024-02-27 13:45:39.080040,1709037939.0800395,-1000.0,-1000.0,-1000.0,-50.78125,1.0,0.0,1.0,1.0,5.m4v,4.0
2024-02-27 13:45:39.083946,1709037939.0839455,-837.890625,-980.46875,-590.33203125,-41.015625,1.0,0.0,1.0,1.0,5.m4v,4.0
2024-02-27 13:45:39.087851,1709037939.0878513,131.8359375,-985.3515625,-307.12890625,-26.85546875,1.0,0.0,1.0,1.0,5.m4v,4.0
2024-02-27 13:45:39.091757,1709037939.091757,345.21484375,-934.08203125,-698.73046875,-51.26953125,1.0,0.0,1.0,1.0,5.m4v,4.0
2024-02-27 13:45:39.095663,1709037939.0956626,-801.7578125,-1000.0,-1000.0,-57.12890625,1.0,0.0,1.0,1.0,5.m4v,4.0
2024-02-27 13:45:39.099568,1709037939.0995684,-403.80859375,-423.33984375,-726.07421875,-27.34375,1.0,0.0,1.0,1.0,5.m4v,4.0
2024-02-27 13:45:39.501891,1709037939.5018914,-1000.0,-1000.0,-528.3203125,-53.22265625,1.0,0.0,1.0,1.0,5.m4v,4.0
2024-02-27 13:45:39.505797,1709037939.5057971,-176.7578125,-936.5234375,291.50390625,-36.1328125,1.0,0.0,1.0,1.0,5.m4v,4.0
2024-02-27 13:45:39.509703,1709037939.509703,986.328125,-1000.0,349.609375,-28.3203125,1.0,0.0,1.0,1.0,5.m4v,4.0
2024-02-27 13:45:39.513609,1709037939.5136087,-11.71875,-939.94140625,-452.63671875,-40.0390625,1.0,0.0,1.0,1.0,5.m4v,4.0
2024-02-27 13:45:39.517514,1709037939.5175145,-1000.0,-1000.0,-778.3203125,-57.6171875,1.0,0.0,1.0,1.0,5.m4v,4.0
2024-02-27 13:45:39.521420,1709037939.5214202,-100.5859375,-180.17578125,196.2890625,-44.921875,1.0,0.0,1.0,1.0,5.m4v,4.0
2024-02-27 13:45:39.525326,1709037939.5253258,999.51171875,987.79296875,999.51171875,-23.92578125,1.0,0.0,1.0,1.0,5.m4v,4.0
2024-02-27 13:45:39.529232,1709037939.5292315,952.1484375,999.51171875,719.7265625,-27.34375,1.0,0.0,1.0,1.0,5.m4v,4.0
2024-02-27 13:45:39.533137,1709037939.533137,-78.61328125,716.30859375,-211.42578125,-56.640625,1.0,0.0,1.0,1.0,5.m4v,4.0
2024-02-27 13:45:39.537043,1709037939.537043,-1000.0,-627.44140625,-855.95703125,-75.1953125,1.0,0.0,1.0,1.0,5.m4v,4.0
2024-02-27 13:45:39.540949,1709037939.5409489,-976.5625,-1000.0,-455.56640625,-47.36328125,1.0,0.0,1.0,1.0,5.m4v,4.0
2024-02-27 13:45:39.544855,1709037939.5448546,37.109375,-943.359375,389.6484375,-22.4609375,1.0,0.0,1.0,1.0,5.m4v,4.0
2024-02-27 13:45:39.548764,1709037939.5487642,999.51171875,180.17578125,807.6171875,-22.4609375,1.0,0.0,1.0,1.0,5.m4v,4.0
2024-02-27 13:45:39.552670,1709037939.55267,884.27734375,999.51171875,402.83203125,-37.109375,1.0,0.0,1.0,1.0,5.m4v,4.0
2024-02-27 13:45:39.556576,1709037939.5565758,-195.3125,674.8046875,-409.66796875,-41.50390625,1.0,0.0,1.0,1.0,5.m4v,4.0
2024-02-27 13:45:39.560482,1709037939.5604815,-1000.0,-674.8046875,-465.8203125,-51.26953125,1.0,0.0,1.0,1.0,5.m4v,4.0
2024-02-27 13:45:39.564387,1709037939.564387,-632.8125,-1000.0,221.6796875,-50.78125,1.0,0.0,1.0,1.0,5.m4v,4.0
2024-02-27 13:45:39.568293,1709037939.5682929,652.83203125,109.375,930.17578125,-28.3203125,1.0,0.0,1.0,1.0,5.m4v,4.0
2024-02-27 13:45:39.572199,1709037939.5721986,999.51171875,999.51171875,687.01171875,-35.15625,1.0,0.0,1.0,1.0,5.m4v,4.0
2024-02-27 13:45:39.576104,1709037939.5761044,-164.0625,430.6640625,-334.9609375,-56.15234375,1.0,0.0,1.0,1.0,5.m4v,4.0
2024-02-27 13:45:39.580010,1709037939.5800102,-1000.0,-933.59375,-625.48828125,-60.546875,1.0,0.0,1.0,1.0,5.m4v,4.0
2024-02-27 13:45:39.583916,1709037939.583916,-834.9609375,-1000.0,-2.44140625,-44.43359375,1.0,0.0,1.0,1.0,5.m4v,4.0
2024-02-27 13:45:39.587822,1709037939.5878215,321.2890625,-949.21875,459.47265625,-41.9921875,1.0,0.0,1.0,1.0,5.m4v,4.0
2024-02-27 13:45:39.591727,1709037939.5917275,538.0859375,-1000.0,25.390625,-48.828125,1.0,0.0,1.0,1.0,5.m4v,4.0
2024-02-27 13:45:39.595636,1709037939.5956364,-658.69140625,-976.5625,-684.08203125,-66.40625,1.0,0.0,1.0,1.0,5.m4v,4.0
2024-02-27 13:45:39.599542,1709037939.599542,-1000.0,-979.98046875,-696.77734375,-55.6640625,1.0,0.0,1.0,1.0,5.m4v,4.0
2024-02-27 13:45:39.603448,1709037939.603448,-165.0390625,-1000.0,-35.15625,-25.87890625,1.0,0.0,1.0,1.0,5.m4v,4.0
2024-02-27 13:45:39.607353,1709037939.6073534,932.6171875,143.5546875,697.265625,-20.5078125,1.0,0.0,1.0,1.0,5.m4v,4.0
2024-02-27 13:45:39.611259,1709037939.6112592,979.4921875,999.51171875,692.3828125,-26.3671875,1.0,0.0,1.0,1.0,5.m4v,4.0
2024-02-27 13:45:39.615165,1709037939.615165,831.0546875,914.0625,252.9296875,-37.109375,1.0,0.0,1.0,1.0,5.m4v,4.0
2024-02-27 13:45:39.619071,1709037939.6190708,127.44140625,966.796875,195.80078125,-36.1328125,1.0,0.0,1.0,1.0,5.m4v,4.0
2024-02-27 13:45:39.622977,1709037939.6229763,-442.87109375,973.6328125,425.78125,-40.0390625,1.0,0.0,1.0,1.0,5.m4v,4.0
2024-02-27 13:45:39.626882,1709037939.6268823,380.37109375,904.296875,814.94140625,-28.3203125,1.0,0.0,1.0,1.0,5.m4v,4.0
2024-02-27 13:45:39.630788,1709037939.630788,729.00390625,999.51171875,581.54296875,-25.87890625,1.0,0.0,1.0,1.0,5.m4v,4.0
2024-02-27 13:45:39.634694,1709037939.6346936,-501.46484375,219.7265625,-308.59375,-49.8046875,1.0,0.0,1.0,1.0,5.m4v,4.0
2024-02-27 13:45:39.638599,1709037939.6385994,-1000.0,-1000.0,-725.5859375,-46.38671875,1.0,0.0,1.0,1.0,5.m4v,4.0
2024-02-27 13:45:39.642508,1709037939.6425085,-884.765625,-1000.0,-145.99609375,-32.2265625,1.0,0.0,1.0,1.0,5.m4v,4.0
2024-02-27 13:45:39.646414,1709037939.6464138,187.98828125,-810.05859375,637.6953125,-20.5078125,1.0,0.0,1.0,1.0,5.m4v,4.0
2024-02-27 13:45:39.650320,1709037939.6503196,999.51171875,464.35546875,666.9921875,-15.13671875,1.0,0.0,1.0,1.0,5.m4v,4.0
2024-02-27 13:45:39.654225,1709037939.654225,647.94921875,999.51171875,62.01171875,-45.8984375,1.0,0.0,1.0,1.0,5.m4v,4.0
2024-02-27 13:45:39.658131,1709037939.6581311,-628.41796875,186.03515625,-573.73046875,-53.7109375,1.0,0.0,1.0,1.0,5.m4v,4.0
2024-02-27 13:45:39.662037,1709037939.662037,-1000.0,-1000.0,-111.81640625,-13.671875,1.0,0.0,1.0,1.0,5.m4v,4.0
2024-02-27 13:45:39.665943,1709037939.665943,207.51953125,-200.1953125,845.703125,-7.8125,1.0,0.0,1.0,1.0,5.m4v,4.0
2024-02-27 13:45:39.669848,1709037939.6698484,999.51171875,999.51171875,956.0546875,-10.25390625,1.0,0.0,1.0,1.0,5.m4v,4.0
2024-02-27 13:45:39.673754,1709037939.673754,335.9375,999.51171875,157.2265625,-23.4375,1.0,0.0,1.0,1.0,5.m4v,4.0
2024-02-27 13:45:39.677660,1709037939.6776595,-905.2734375,-221.6796875,-744.62890625,-43.9453125,1.0,0.0,1.0,1.0,5.m4v,4.0
2024-02-27 13:45:39.681566,1709037939.6815655,-1000.0,-1000.0,-519.04296875,-33.69140625,1.0,0.0,1.0,1.0,5.m4v,4.0
2024-02-27 13:45:39.685471,1709037939.6854713,-451.66015625,-942.87109375,194.82421875,-21.484375,1.0,0.0,1.0,1.0,5.m4v,4.0
2024-02-27 13:45:39.689380,1709037939.6893797,699.21875,-998.53515625,319.82421875,-25.390625,1.0,0.0,1.0,1.0,5.m4v,4.0
2024-02-27 13:45:39.693285,1709037939.6932857,288.0859375,-1000.0,-216.30859375,-38.57421875,1.0,0.0,1.0,1.0,5.m4v,4.0
2024-02-27 13:45:39.697191,1709037939.6971912,-873.53515625,-933.10546875,-638.671875,-48.828125,1.0,0.0,1.0,1.0,5.m4v,4.0
2024-02-27 13:45:39.701097,1709037939.701097,-965.8203125,-1000.0,-438.4765625,-41.9921875,1.0,0.0,1.0,1.0,5.m4v,4.0
2024-02-27 13:45:39.705003,1709037939.7050028,196.2890625,-298.33984375,332.03125,-7.32421875,1.0,0.0,1.0,1.0,5.m4v,4.0
2024-02-27 13:45:39.708909,1709037939.7089086,999.51171875,999.51171875,999.51171875,-10.25390625,1.0,0.0,1.0,1.0,5.m4v,4.0
2024-02-27 13:45:39.712814,1709037939.7128143,990.234375,966.796875,726.5625,-32.71484375,1.0,0.0,1.0,1.0,5.m4v,4.0
2024-02-27 13:45:39.716720,1709037939.71672,11.23046875,936.03515625,-159.66796875,-47.36328125,1.0,0.0,1.0,1.0,5.m4v,4.0
2024-02-27 13:45:39.720626,1709037939.7206256,-1000.0,979.00390625,-320.80078125,-55.6640625,1.0,0.0,1.0,1.0,5.m4v,4.0
2024-02-27 13:45:39.724531,1709037939.7245314,-152.83203125,981.93359375,429.19921875,-23.92578125,1.0,0.0,1.0,1.0,5.m4v,4.0
2024-02-27 13:45:39.728437,1709037939.7284372,999.51171875,896.97265625,848.6328125,-11.71875,1.0,0.0,1.0,1.0,5.m4v,4.0
2024-02-27 13:45:39.732343,1709037939.732343,892.08984375,999.51171875,572.75390625,-20.99609375,1.0,0.0,1.0,1.0,5.m4v,4.0
2024-02-27 13:45:39.736251,1709037939.7362514,-253.41796875,442.87109375,-131.34765625,-43.9453125,1.0,0.0,1.0,1.0,5.m4v,4.0
2024-02-27 13:45:39.740157,1709037939.7401571,-1000.0,-960.44921875,-616.2109375,-47.8515625,1.0,0.0,1.0,1.0,5.m4v,4.0
2024-02-27 13:45:39.744063,1709037939.744063,-1000.0,-1000.0,-232.421875,-39.55078125,1.0,0.0,1.0,1.0,5.m4v,4.0
2024-02-27 13:45:39.747968,1709037939.7479684,-171.38671875,-952.63671875,273.92578125,-28.3203125,1.0,0.0,1.0,1.0,5.m4v,4.0
2024-02-27 13:45:39.751874,1709037939.7518742,419.43359375,-1000.0,-106.93359375,-33.203125,1.0,0.0,1.0,1.0,5.m4v,4.0
2024-02-27 13:45:39.755780,1709037939.75578,-551.7578125,-1000.0,-561.5234375,-43.9453125,1.0,0.0,1.0,1.0,5.m4v,4.0
2024-02-27 13:45:39.759686,1709037939.7596858,-717.28515625,-1000.0,-282.71484375,-28.80859375,1.0,0.0,1.0,1.0,5.m4v,4.0
2024-02-27 13:45:39.763592,1709037939.7635915,24.4140625,-1000.0,94.23828125,-28.80859375,1.0,0.0,1.0,1.0,5.m4v,4.0
2024-02-27 13:45:39.767497,1709037939.7674973,813.96484375,-1000.0,423.33984375,-13.18359375,1.0,0.0,1.0,1.0,5.m4v,4.0
2024-02-27 13:45:39.771403,1709037939.771403,672.8515625,-1000.0,116.69921875,-17.08984375,1.0,0.0,1.0,1.0,5.m4v,4.0
2024-02-27 13:45:39.775309,1709037939.7753086,-558.59375,-996.09375,-656.25,-53.22265625,1.0,0.0,1.0,1.0,5.m4v,4.0
2024-02-27 13:45:39.779214,1709037939.7792144,-1000.0,-944.82421875,-799.8046875,-47.8515625,1.0,0.0,1.0,1.0,5.m4v,4.0
2024-02-27 13:45:39.783122,1709037939.783122,-357.421875,-1000.0,-199.70703125,-27.83203125,1.0,0.0,1.0,1.0,5.m4v,4.0
2024-02-27 13:45:39.787028,1709037939.7870278,785.64453125,-142.578125,471.6796875,-17.578125,1.0,0.0,1.0,1.0,5.m4v,4.0
2024-02-27 13:45:39.790934,1709037939.7909336,999.51171875,999.51171875,560.546875,-20.01953125,1.0,0.0,1.0,1.0,5.m4v,4.0
2024-02-27 13:45:39.794839,1709037939.7948394,570.3125,943.359375,-99.12109375,-38.0859375,1.0,0.0,1.0,1.0,5.m4v,4.0
2024-02-27 13:45:39.798745,1709037939.7987452,-814.453125,954.1015625,-604.98046875,-48.33984375,1.0,0.0,1.0,1.0,5.m4v,4.0
2024-02-27 13:45:39.802651,1709037939.802651,-467.7734375,949.21875,140.625,-34.1796875,1.0,0.0,1.0,1.0,5.m4v,4.0
2024-02-27 13:45:39.806557,1709037939.8065567,999.51171875,952.1484375,937.98828125,-11.23046875,1.0,0.0,1.0,1.0,5.m4v,4.0
2024-02-27 13:45:39.810462,1709037939.8104622,608.88671875,999.51171875,304.6875,-22.4609375,1.0,0.0,1.0,1.0,5.m4v,4.0
2024-02-27 13:45:39.814368,1709037939.814368,-720.21484375,-195.3125,-674.8046875,-58.10546875,1.0,0.0,1.0,1.0,5.m4v,4.0
2024-02-27 13:45:39.818274,1709037939.8182738,-1000.0,-1000.0,-1000.0,-59.08203125,1.0,0.0,1.0,1.0,5.m4v,4.0
2024-02-27 13:45:39.822180,1709037939.8221796,-994.140625,-942.87109375,-747.55859375,-40.0390625,1.0,0.0,1.0,1.0,5.m4v,4.0
2024-02-27 13:45:39.826085,1709037939.826085,4.39453125,-998.53515625,16.11328125,-29.78515625,1.0,0.0,1.0,1.0,5.m4v,4.0
2024-02-27 13:45:39.829995,1709037939.8299952,999.51171875,-1000.0,39.0625,-29.296875,1.0,0.0,1.0,1.0,5.m4v,4.0
2024-02-27 13:45:39.833901,1709037939.833901,-72.265625,-1000.0,-706.0546875,-44.921875,1.0,0.0,1.0,1.0,5.m4v,4.0
2024-02-27 13:45:39.837807,1709037939.8378067,-1000.0,-927.734375,-1000.0,-46.38671875,1.0,0.0,1.0,1.0,5.m4v,4.0
2024-02-27 13:45:39.841712,1709037939.8417125,-846.6796875,-1000.0,-785.15625,-43.9453125,1.0,0.0,1.0,1.0,5.m4v,4.0
2024-02-27 13:45:39.845618,1709037939.845618,332.03125,-449.21875,55.17578125,-30.2734375,1.0,0.0,1.0,1.0,5.m4v,4.0
2024-02-27 13:45:39.849524,1709037939.8495238,995.1171875,869.140625,718.75,-14.6484375,1.0,0.0,1.0,1.0,5.m4v,4.0
2024-02-27 13:45:39.853430,1709037939.8534296,999.51171875,999.51171875,431.15234375,-28.3203125,1.0,0.0,1.0,1.0,5.m4v,4.0
2024-02-27 13:45:39.857335,1709037939.857335,159.66796875,651.85546875,-392.08984375,-49.8046875,1.0,0.0,1.0,1.0,5.m4v,4.0
2024-02-27 13:45:39.861241,1709037939.861241,-1000.0,-718.26171875,-715.8203125,-52.24609375,1.0,0.0,1.0,1.0,5.m4v,4.0
2024-02-27 13:45:39.865147,1709037939.8651469,-819.3359375,-1000.0,-153.3203125,-41.50390625,1.0,0.0,1.0,1.0,5.m4v,4.0
2024-02-27 13:45:39.869053,1709037939.8690526,307.6171875,-937.98828125,107.421875,-23.4375,1.0,0.0,1.0,1.0,5.m4v,4.0
2024-02-27 13:45:39.872958,1709037939.8729582,173.33984375,-1000.0,-512.20703125,-33.69140625,1.0,0.0,1.0,1.0,5.m4v,4.0
2024-02-27 13:45:39.876868,1709037939.8768678,-964.84375,-928.7109375,-1000.0,-55.17578125,1.0,0.0,1.0,1.0,5.m4v,4.0
2024-02-27 13:45:39.880774,1709037939.8807735,-986.81640625,-1000.0,-873.53515625,-43.9453125,1.0,0.0,1.0,1.0,5.m4v,4.0
2024-02-27 13:45:39.884679,1709037939.8846793,177.24609375,-588.37890625,-113.28125,-23.4375,1.0,0.0,1.0,1.0,5.m4v,4.0
2024-02-27 13:45:39.888585,1709037939.888585,999.51171875,843.26171875,524.4140625,-18.06640625,1.0,0.0,1.0,1.0,5.m4v,4.0
2024-02-27 13:45:39.892491,1709037939.8924906,921.38671875,999.51171875,137.6953125,-27.83203125,1.0,0.0,1.0,1.0,5.m4v,4.0
2024-02-27 13:45:39.896396,1709037939.8963964,713.37890625,914.0625,-159.1796875,-26.3671875,1.0,0.0,1.0,1.0,5.m4v,4.0
2024-02-27 13:45:39.900302,1709037939.9003022,320.3125,985.3515625,135.7421875,-27.34375,1.0,0.0,1.0,1.0,5.m4v,4.0
2024-02-27 13:45:39.904208,1709037939.904208,158.203125,965.8203125,426.26953125,-40.52734375,1.0,0.0,1.0,1.0,5.m4v,4.0
2024-02-27 13:45:39.908114,1709037939.9081137,432.6171875,914.0625,545.41015625,-51.7578125,1.0,0.0,1.0,1.0,5.m4v,4.0
2024-02-27 13:45:39.912019,1709037939.9120195,137.20703125,999.51171875,146.484375,-46.38671875,1.0,0.0,1.0,1.0,5.m4v,4.0
2024-02-27 13:45:39.915925,1709037939.9159253,-751.46484375,114.74609375,-646.484375,-48.828125,1.0,0.0,1.0,1.0,5.m4v,4.0
2024-02-27 13:45:39.919831,1709037939.9198308,-1000.0,-1000.0,-928.22265625,-53.7109375,1.0,0.0,1.0,1.0,5.m4v,4.0
2024-02-27 13:45:39.923740,1709037939.9237404,-853.515625,-974.12109375,-341.30859375,-40.0390625,1.0,0.0,1.0,1.0,5.m4v,4.0
2024-02-27 13:45:39.927646,1709037939.9276462,312.01171875,-979.00390625,219.23828125,-32.71484375,1.0,0.0,1.0,1.0,5.m4v,4.0
2024-02-27 13:45:39.931552,1709037939.931552,881.8359375,-1000.0,-40.0390625,-31.25,1.0,0.0,1.0,1.0,5.m4v,4.0
2024-02-27 13:45:39.935457,1709037939.9354577,-351.5625,-937.5,-760.25390625,-40.0390625,1.0,0.0,1.0,1.0,5.m4v,4.0
2024-02-27 13:45:39.939363,1709037939.9393632,-1000.0,-1000.0,-1000.0,-41.50390625,1.0,0.0,1.0,1.0,5.m4v,4.0
2024-02-27 13:45:39.943269,1709037939.943269,-74.70703125,-204.1015625,15.13671875,-6.8359375,1.0,0.0,1.0,1.0,5.m4v,4.0
2024-02-27 13:45:39.947175,1709037939.9471748,999.51171875,990.234375,999.51171875,-3.90625,1.0,0.0,1.0,1.0,5.m4v,4.0
2024-02-27 13:45:39.951081,1709037939.9510806,987.3046875,999.51171875,601.5625,-37.109375,1.0,0.0,1.0,1.0,5.m4v,4.0
2024-02-27 13:45:39.954986,1709037939.9549863,52.24609375,810.546875,-302.24609375,-53.22265625,1.0,0.0,1.0,1.0,5.m4v,4.0
2024-02-27 13:45:39.958892,1709037939.958892,-1000.0,-524.90234375,-846.19140625,-56.640625,1.0,0.0,1.0,1.0,5.m4v,4.0
2024-02-27 13:45:39.962798,1709037939.9627976,-1000.0,-1000.0,-515.625,-45.8984375,1.0,0.0,1.0,1.0,5.m4v,4.0
2024-02-27 13:45:39.966703,1709037939.9667034,-56.640625,-1000.0,194.3359375,-39.0625,1.0,0.0,1.0,1.0,5.m4v,4.0
2024-02-27 13:45:39.970615,1709037939.970615,999.51171875,8.7890625,528.3203125,-27.83203125,1.0,0.0,1.0,1.0,5.m4v,4.0
2024-02-27 13:45:39.974521,1709037939.9745207,831.54296875,999.51171875,79.1015625,-24.90234375,1.0,0.0,1.0,1.0,5.m4v,4.0
2024-02-27 13:45:39.978426,1709037939.9784265,-164.0625,999.51171875,-442.3828125,-46.875,1.0,0.0,1.0,1.0,5.m4v,4.0
2024-02-27 13:45:39.982332,1709037939.9823322,-973.6328125,228.515625,-185.05859375,-35.64453125,1.0,0.0,1.0,1.0,5.m4v,4.0
