Timestamp,Timestamp_UNIX,TP9,AF7,AF8,TP10,Valence,Arousal,Dominace,Viewed,Video,Participant
2024-02-27 14:33:23.000942,1709040803.0009425,963.8671875,979.4921875,-32.2265625,969.23828125,1.0,1.0,0.0,1.0,3.m4v,5.0
2024-02-27 14:33:23.004848,1709040803.004848,970.703125,970.21484375,-23.4375,971.19140625,1.0,1.0,0.0,1.0,3.m4v,5.0
2024-02-27 14:33:23.008754,1709040803.0087535,969.23828125,969.7265625,-30.76171875,969.7265625,1.0,1.0,0.0,1.0,3.m4v,5.0
2024-02-27 14:33:23.012659,1709040803.0126593,969.23828125,969.7265625,-37.59765625,969.7265625,1.0,1.0,0.0,1.0,3.m4v,5.0
2024-02-27 14:33:23.016565,1709040803.0165648,969.23828125,969.7265625,-44.43359375,969.7265625,1.0,1.0,0.0,1.0,3.m4v,5.0
2024-02-27 14:33:23.020470,1709040803.0204704,969.23828125,969.7265625,-44.43359375,969.7265625,1.0,1.0,0.0,1.0,3.m4v,5.0
2024-02-27 14:33:23.024376,1709040803.0243762,968.75,969.7265625,-37.109375,969.7265625,1.0,1.0,0.0,1.0,3.m4v,5.0
2024-02-27 14:33:23.028282,1709040803.0282817,969.23828125,969.7265625,-33.203125,969.7265625,1.0,1.0,0.0,1.0,3.m4v,5.0
2024-02-27 14:33:23.032187,1709040803.0321872,969.23828125,970.21484375,-35.15625,969.7265625,1.0,1.0,0.0,1.0,3.m4v,5.0
2024-02-27 14:33:23.036093,1709040803.036093,969.23828125,970.21484375,-35.64453125,969.7265625,1.0,1.0,0.0,1.0,3.m4v,5.0
2024-02-27 14:33:23.040004,1709040803.0400045,969.23828125,969.7265625,-39.55078125,969.23828125,1.0,1.0,0.0,1.0,3.m4v,5.0
2024-02-27 14:33:23.043910,1709040803.04391,985.3515625,986.328125,-34.1796875,985.83984375,1.0,1.0,0.0,1.0,3.m4v,5.0
2024-02-27 14:33:23.047816,1709040803.0478158,911.62109375,911.1328125,-24.90234375,910.64453125,1.0,1.0,0.0,1.0,3.m4v,5.0
2024-02-27 14:33:23.051721,1709040803.051721,999.51171875,999.51171875,-31.73828125,999.51171875,1.0,1.0,0.0,1.0,3.m4v,5.0
2024-02-27 14:33:23.055627,1709040803.0556269,859.86328125,854.00390625,-42.96875,847.65625,1.0,1.0,0.0,1.0,3.m4v,5.0
2024-02-27 14:33:23.059533,1709040803.0595326,-597.16796875,-605.46875,-40.52734375,-612.3046875,1.0,1.0,0.0,1.0,3.m4v,5.0
2024-02-27 14:33:23.063438,1709040803.0634382,-1000.0,-1000.0,-31.73828125,-1000.0,1.0,1.0,0.0,1.0,3.m4v,5.0
2024-02-27 14:33:23.067344,1709040803.0673437,-925.78125,-925.78125,-30.76171875,-926.26953125,1.0,1.0,0.0,1.0,3.m4v,5.0
2024-02-27 14:33:23.071249,1709040803.0712495,-1000.0,-1000.0,-39.55078125,-1000.0,1.0,1.0,0.0,1.0,3.m4v,5.0
2024-02-27 14:33:23.075155,1709040803.075155,-1000.0,-1000.0,-41.015625,-1000.0,1.0,1.0,0.0,1.0,3.m4v,5.0
2024-02-27 14:33:23.079061,1709040803.0790606,-1000.0,-1000.0,-27.83203125,-1000.0,1.0,1.0,0.0,1.0,3.m4v,5.0
2024-02-27 14:33:23.082966,1709040803.0829663,-1000.0,-1000.0,-38.57421875,-1000.0,1.0,1.0,0.0,1.0,3.m4v,5.0
2024-02-27 14:33:23.086878,1709040803.0868776,-1000.0,-1000.0,-48.828125,-1000.0,1.0,1.0,0.0,1.0,3.m4v,5.0
2024-02-27 14:33:23.090783,1709040803.090783,-1000.0,-1000.0,-35.15625,-1000.0,1.0,1.0,0.0,1.0,3.m4v,5.0
2024-02-27 14:33:23.094689,1709040803.094689,-1000.0,-1000.0,-32.71484375,-1000.0,1.0,1.0,0.0,1.0,3.m4v,5.0
2024-02-27 14:33:23.098594,1709040803.0985944,-933.59375,-943.359375,-32.2265625,-931.640625,1.0,1.0,0.0,1.0,3.m4v,5.0
2024-02-27 14:33:23.102500,1709040803.1025,-1000.0,-1000.0,-31.73828125,-1000.0,1.0,1.0,0.0,1.0,3.m4v,5.0
2024-02-27 14:33:23.106405,1709040803.1064055,-784.66796875,-295.8984375,-33.203125,-735.83984375,1.0,1.0,0.0,1.0,3.m4v,5.0
2024-02-27 14:33:23.110311,1709040803.1103113,693.84765625,973.14453125,-40.52734375,737.3046875,1.0,1.0,0.0,1.0,3.m4v,5.0
2024-02-27 14:33:23.114217,1709040803.1142168,999.51171875,975.09765625,-44.43359375,999.51171875,1.0,1.0,0.0,1.0,3.m4v,5.0
2024-02-27 14:33:23.118122,1709040803.1181223,898.92578125,935.05859375,-39.0625,902.34375,1.0,1.0,0.0,1.0,3.m4v,5.0
2024-02-27 14:33:23.122028,1709040803.122028,986.81640625,979.4921875,-44.921875,986.81640625,1.0,1.0,0.0,1.0,3.m4v,5.0
2024-02-27 14:33:23.125934,1709040803.1259336,969.23828125,969.7265625,-50.78125,969.7265625,1.0,1.0,0.0,1.0,3.m4v,5.0
2024-02-27 14:33:23.129839,1709040803.1298392,968.75,969.7265625,-42.48046875,969.7265625,1.0,1.0,0.0,1.0,3.m4v,5.0
2024-02-27 14:33:23.133752,1709040803.133752,969.23828125,969.7265625,-35.15625,969.7265625,1.0,1.0,0.0,1.0,3.m4v,5.0
2024-02-27 14:33:23.137658,1709040803.1376576,969.23828125,969.7265625,-41.015625,969.7265625,1.0,1.0,0.0,1.0,3.m4v,5.0
2024-02-27 14:33:23.141563,1709040803.1415632,969.23828125,969.7265625,-48.33984375,969.7265625,1.0,1.0,0.0,1.0,3.m4v,5.0
2024-02-27 14:33:23.145469,1709040803.145469,979.00390625,981.93359375,-36.1328125,982.421875,1.0,1.0,0.0,1.0,3.m4v,5.0
2024-02-27 14:33:23.149374,1709040803.1493745,931.640625,926.7578125,-33.203125,924.31640625,1.0,1.0,0.0,1.0,3.m4v,5.0
2024-02-27 14:33:23.153280,1709040803.15328,973.14453125,987.79296875,-32.2265625,993.65234375,1.0,1.0,0.0,1.0,3.m4v,5.0
2024-02-27 14:33:23.157186,1709040803.1571858,995.1171875,961.42578125,-29.296875,944.3359375,1.0,1.0,0.0,1.0,3.m4v,5.0
2024-02-27 14:33:23.161091,1709040803.161091,-342.7734375,-416.015625,-37.59765625,-444.3359375,1.0,1.0,0.0,1.0,3.m4v,5.0
2024-02-27 14:33:23.164997,1709040803.1649969,-1000.0,-1000.0,-32.2265625,-1000.0,1.0,1.0,0.0,1.0,3.m4v,5.0
2024-02-27 14:33:23.168903,1709040803.1689026,-930.6640625,-928.22265625,-30.76171875,-928.22265625,1.0,1.0,0.0,1.0,3.m4v,5.0
2024-02-27 14:33:23.172808,1709040803.1728082,-1000.0,-1000.0,-37.109375,-1000.0,1.0,1.0,0.0,1.0,3.m4v,5.0
2024-02-27 14:33:23.176714,1709040803.1767137,-1000.0,-1000.0,-41.50390625,-1000.0,1.0,1.0,0.0,1.0,3.m4v,5.0
2024-02-27 14:33:23.180626,1709040803.1806264,-1000.0,-1000.0,-42.96875,-1000.0,1.0,1.0,0.0,1.0,3.m4v,5.0
2024-02-27 14:33:23.184532,1709040803.184532,-1000.0,-1000.0,-39.55078125,-1000.0,1.0,1.0,0.0,1.0,3.m4v,5.0
2024-02-27 14:33:23.188437,1709040803.1884377,-1000.0,-988.28125,-36.62109375,-1000.0,1.0,1.0,0.0,1.0,3.m4v,5.0
2024-02-27 14:33:23.192343,1709040803.1923432,-1000.0,-962.40234375,-29.78515625,-1000.0,1.0,1.0,0.0,1.0,3.m4v,5.0
2024-02-27 14:33:23.196249,1709040803.1962488,-968.26171875,-1000.0,-36.62109375,-959.9609375,1.0,1.0,0.0,1.0,3.m4v,5.0
2024-02-27 14:33:23.200154,1709040803.2001543,-993.1640625,-75.1953125,-38.57421875,-1000.0,1.0,1.0,0.0,1.0,3.m4v,5.0
2024-02-27 14:33:23.204060,1709040803.20406,-1000.0,999.51171875,-32.2265625,-1000.0,1.0,1.0,0.0,1.0,3.m4v,5.0
2024-02-27 14:33:23.207966,1709040803.2079656,245.1171875,944.82421875,-35.15625,351.07421875,1.0,1.0,0.0,1.0,3.m4v,5.0
2024-02-27 14:33:23.211871,1709040803.2118711,999.51171875,950.68359375,-39.0625,999.51171875,1.0,1.0,0.0,1.0,3.m4v,5.0
2024-02-27 14:33:23.215777,1709040803.215777,902.83203125,975.5859375,-49.31640625,899.90234375,1.0,1.0,0.0,1.0,3.m4v,5.0
2024-02-27 14:33:23.219682,1709040803.2196825,972.65625,969.7265625,-43.9453125,977.5390625,1.0,1.0,0.0,1.0,3.m4v,5.0
2024-02-27 14:33:23.223588,1709040803.223588,969.23828125,969.7265625,-29.296875,969.7265625,1.0,1.0,0.0,1.0,3.m4v,5.0
2024-02-27 14:33:23.227501,1709040803.227501,969.23828125,969.7265625,-31.73828125,969.7265625,1.0,1.0,0.0,1.0,3.m4v,5.0
2024-02-27 14:33:23.231406,1709040803.2314062,969.23828125,969.7265625,-27.34375,969.7265625,1.0,1.0,0.0,1.0,3.m4v,5.0
2024-02-27 14:33:23.235312,1709040803.2353115,968.75,969.7265625,-25.87890625,969.7265625,1.0,1.0,0.0,1.0,3.m4v,5.0
2024-02-27 14:33:23.239218,1709040803.2392175,969.23828125,969.7265625,-29.296875,969.7265625,1.0,1.0,0.0,1.0,3.m4v,5.0
2024-02-27 14:33:23.243123,1709040803.243123,969.23828125,969.7265625,-31.73828125,971.19140625,1.0,1.0,0.0,1.0,3.m4v,5.0
2024-02-27 14:33:23.247029,1709040803.2470286,986.81640625,985.3515625,-29.78515625,977.5390625,1.0,1.0,0.0,1.0,3.m4v,5.0
2024-02-27 14:33:23.250934,1709040803.2509344,898.4375,898.92578125,-24.90234375,908.69140625,1.0,1.0,0.0,1.0,3.m4v,5.0
2024-02-27 14:33:23.254840,1709040803.25484,999.51171875,999.51171875,-27.83203125,999.51171875,1.0,1.0,0.0,1.0,3.m4v,5.0
2024-02-27 14:33:23.258745,1709040803.2587454,685.546875,607.91015625,-25.87890625,454.58984375,1.0,1.0,0.0,1.0,3.m4v,5.0
2024-02-27 14:33:23.262651,1709040803.2626512,-792.48046875,-844.7265625,-25.87890625,-901.3671875,1.0,1.0,0.0,1.0,3.m4v,5.0
2024-02-27 14:33:23.266557,1709040803.2665567,-1000.0,-1000.0,-32.71484375,-1000.0,1.0,1.0,0.0,1.0,3.m4v,5.0
2024-02-27 14:33:23.270462,1709040803.2704625,-934.08203125,-939.453125,-26.85546875,-951.171875,1.0,1.0,0.0,1.0,3.m4v,5.0
2024-02-27 14:33:23.274374,1709040803.2743742,-1000.0,-1000.0,-20.99609375,-1000.0,1.0,1.0,0.0,1.0,3.m4v,5.0
2024-02-27 14:33:23.278280,1709040803.2782798,-1000.0,-1000.0,-25.390625,-1000.0,1.0,1.0,0.0,1.0,3.m4v,5.0
2024-02-27 14:33:23.282186,1709040803.2821856,-1000.0,-1000.0,-41.9921875,-1000.0,1.0,1.0,0.0,1.0,3.m4v,5.0
2024-02-27 14:33:23.286091,1709040803.286091,-1000.0,-938.4765625,-49.31640625,-1000.0,1.0,1.0,0.0,1.0,3.m4v,5.0
2024-02-27 14:33:23.289997,1709040803.2899966,-1000.0,-1000.0,-44.43359375,-1000.0,1.0,1.0,0.0,1.0,3.m4v,5.0
2024-02-27 14:33:23.293902,1709040803.2939024,-1000.0,-580.56640625,-36.1328125,-1000.0,1.0,1.0,0.0,1.0,3.m4v,5.0
2024-02-27 14:33:23.297808,1709040803.297808,-946.77734375,807.6171875,-29.78515625,-944.3359375,1.0,1.0,0.0,1.0,3.m4v,5.0
2024-02-27 14:33:23.301713,1709040803.3017137,-1000.0,999.51171875,-28.3203125,-1000.0,1.0,1.0,0.0,1.0,3.m4v,5.0
2024-02-27 14:33:23.305619,1709040803.3056192,-925.78125,914.55078125,-28.3203125,-906.73828125,1.0,1.0,0.0,1.0,3.m4v,5.0
2024-02-27 14:33:23.309525,1709040803.3095248,510.7421875,984.375,-35.64453125,541.50390625,1.0,1.0,0.0,1.0,3.m4v,5.0
2024-02-27 14:33:23.313430,1709040803.3134303,999.51171875,969.7265625,-41.015625,999.51171875,1.0,1.0,0.0,1.0,3.m4v,5.0
2024-02-27 14:33:23.317336,1709040803.317336,894.53125,969.7265625,-35.64453125,895.01953125,1.0,1.0,0.0,1.0,3.m4v,5.0
2024-02-27 14:33:23.321248,1709040803.3212478,983.3984375,969.7265625,-35.15625,984.86328125,1.0,1.0,0.0,1.0,3.m4v,5.0
2024-02-27 14:33:23.325153,1709040803.3251534,969.23828125,969.7265625,-33.203125,969.7265625,1.0,1.0,0.0,1.0,3.m4v,5.0
2024-02-27 14:33:23.329059,1709040803.3290591,969.23828125,969.7265625,-28.80859375,969.7265625,1.0,1.0,0.0,1.0,3.m4v,5.0
2024-02-27 14:33:23.332965,1709040803.332965,968.75,969.7265625,-32.71484375,969.7265625,1.0,1.0,0.0,1.0,3.m4v,5.0
2024-02-27 14:33:23.336870,1709040803.3368702,968.75,969.7265625,-33.69140625,969.7265625,1.0,1.0,0.0,1.0,3.m4v,5.0
2024-02-27 14:33:23.340776,1709040803.340776,969.23828125,969.7265625,-31.73828125,969.7265625,1.0,1.0,0.0,1.0,3.m4v,5.0
2024-02-27 14:33:23.344682,1709040803.3446815,984.375,986.328125,-23.92578125,985.83984375,1.0,1.0,0.0,1.0,3.m4v,5.0
2024-02-27 14:33:23.348587,1709040803.348587,914.0625,911.62109375,-28.3203125,913.57421875,1.0,1.0,0.0,1.0,3.m4v,5.0
2024-02-27 14:33:23.352493,1709040803.3524928,999.51171875,999.51171875,-38.57421875,999.51171875,1.0,1.0,0.0,1.0,3.m4v,5.0
2024-02-27 14:33:23.356398,1709040803.3563983,883.7890625,856.93359375,-34.1796875,872.0703125,1.0,1.0,0.0,1.0,3.m4v,5.0
2024-02-27 14:33:23.360304,1709040803.360304,-559.5703125,-601.5625,-35.15625,-578.61328125,1.0,1.0,0.0,1.0,3.m4v,5.0
2024-02-27 14:33:23.364210,1709040803.3642097,-1000.0,-1000.0,-31.73828125,-1000.0,1.0,1.0,0.0,1.0,3.m4v,5.0
2024-02-27 14:33:23.368121,1709040803.3681211,-925.29296875,-925.78125,-34.66796875,-925.29296875,1.0,1.0,0.0,1.0,3.m4v,5.0
2024-02-27 14:33:23.372027,1709040803.372027,-1000.0,-1000.0,-38.57421875,-1000.0,1.0,1.0,0.0,1.0,3.m4v,5.0
2024-02-27 14:33:23.375932,1709040803.3759325,-1000.0,-1000.0,-35.15625,-1000.0,1.0,1.0,0.0,1.0,3.m4v,5.0
2024-02-27 14:33:23.379838,1709040803.379838,-1000.0,-1000.0,-32.71484375,-1000.0,1.0,1.0,0.0,1.0,3.m4v,5.0
2024-02-27 14:33:23.383744,1709040803.3837438,-1000.0,-1000.0,-35.64453125,-1000.0,1.0,1.0,0.0,1.0,3.m4v,5.0
2024-02-27 14:33:23.387649,1709040803.3876493,-1000.0,-1000.0,-48.33984375,-1000.0,1.0,1.0,0.0,1.0,3.m4v,5.0
2024-02-27 14:33:23.391555,1709040803.3915548,-1000.0,-1000.0,-40.52734375,-1000.0,1.0,1.0,0.0,1.0,3.m4v,5.0
2024-02-27 14:33:23.395461,1709040803.3954606,-1000.0,-1000.0,-25.390625,-1000.0,1.0,1.0,0.0,1.0,3.m4v,5.0
2024-02-27 14:33:23.399366,1709040803.399366,-942.3828125,-935.546875,-21.97265625,-940.4296875,1.0,1.0,0.0,1.0,3.m4v,5.0
2024-02-27 14:33:23.403272,1709040803.4032717,-1000.0,-1000.0,-24.4140625,-1000.0,1.0,1.0,0.0,1.0,3.m4v,5.0
2024-02-27 14:33:23.407177,1709040803.4071774,-891.11328125,-791.50390625,-31.73828125,-869.62890625,1.0,1.0,0.0,1.0,3.m4v,5.0
2024-02-27 14:33:23.411083,1709040803.411083,565.91796875,675.78125,-39.55078125,592.7734375,1.0,1.0,0.0,1.0,3.m4v,5.0
2024-02-27 14:33:23.414995,1709040803.4149947,999.51171875,999.51171875,-31.73828125,999.51171875,1.0,1.0,0.0,1.0,3.m4v,5.0
2024-02-27 14:33:23.418900,1709040803.4189005,894.04296875,899.90234375,-30.2734375,895.99609375,1.0,1.0,0.0,1.0,3.m4v,5.0
2024-02-27 14:33:23.422806,1709040803.4228058,984.86328125,986.81640625,-36.62109375,985.83984375,1.0,1.0,0.0,1.0,3.m4v,5.0
2024-02-27 14:33:23.426712,1709040803.4267116,969.23828125,969.7265625,-37.59765625,969.7265625,1.0,1.0,0.0,1.0,3.m4v,5.0
2024-02-27 14:33:23.430617,1709040803.430617,969.23828125,969.7265625,-35.15625,969.7265625,1.0,1.0,0.0,1.0,3.m4v,5.0
2024-02-27 14:33:23.434523,1709040803.4345226,968.75,969.7265625,-29.296875,969.7265625,1.0,1.0,0.0,1.0,3.m4v,5.0
2024-02-27 14:33:23.438428,1709040803.4384284,968.75,969.7265625,-20.5078125,969.7265625,1.0,1.0,0.0,1.0,3.m4v,5.0
2024-02-27 14:33:23.442334,1709040803.442334,969.23828125,969.7265625,-15.13671875,969.7265625,1.0,1.0,0.0,1.0,3.m4v,5.0
2024-02-27 14:33:23.446239,1709040803.4462397,982.91015625,985.3515625,-16.11328125,984.86328125,1.0,1.0,0.0,1.0,3.m4v,5.0
2024-02-27 14:33:23.450145,1709040803.4501452,920.8984375,915.0390625,-23.92578125,916.50390625,1.0,1.0,0.0,1.0,3.m4v,5.0
2024-02-27 14:33:23.454051,1709040803.4540508,999.0234375,999.51171875,-39.55078125,999.51171875,1.0,1.0,0.0,1.0,3.m4v,5.0
2024-02-27 14:33:23.457956,1709040803.4579563,929.19921875,881.8359375,-49.31640625,893.5546875,1.0,1.0,0.0,1.0,3.m4v,5.0
2024-02-27 14:33:23.461868,1709040803.4618676,-480.95703125,-563.4765625,-44.43359375,-540.0390625,1.0,1.0,0.0,1.0,3.m4v,5.0
2024-02-27 14:33:23.465773,1709040803.465773,-1000.0,-1000.0,-26.85546875,-1000.0,1.0,1.0,0.0,1.0,3.m4v,5.0
2024-02-27 14:33:23.469679,1709040803.4696786,-926.26953125,-925.29296875,-20.01953125,-926.26953125,1.0,1.0,0.0,1.0,3.m4v,5.0
2024-02-27 14:33:23.473584,1709040803.4735844,-1000.0,-1000.0,-21.484375,-1000.0,1.0,1.0,0.0,1.0,3.m4v,5.0
2024-02-27 14:33:23.477490,1709040803.47749,-1000.0,-1000.0,-33.203125,-1000.0,1.0,1.0,0.0,1.0,3.m4v,5.0
2024-02-27 14:33:23.598578,1709040803.598578,-1000.0,-1000.0,-31.25,-1000.0,1.0,1.0,0.0,1.0,3.m4v,5.0
2024-02-27 14:33:23.602490,1709040803.6024904,-1000.0,-1000.0,-28.3203125,-1000.0,1.0,1.0,0.0,1.0,3.m4v,5.0
2024-02-27 14:33:23.606396,1709040803.606396,-1000.0,-1000.0,-27.83203125,-1000.0,1.0,1.0,0.0,1.0,3.m4v,5.0
2024-02-27 14:33:23.610301,1709040803.6103015,-1000.0,-1000.0,-22.94921875,-1000.0,1.0,1.0,0.0,1.0,3.m4v,5.0
2024-02-27 14:33:23.614207,1709040803.6142073,-1000.0,-1000.0,-29.296875,-1000.0,1.0,1.0,0.0,1.0,3.m4v,5.0
2024-02-27 14:33:23.618113,1709040803.6181128,-1000.0,-1000.0,-45.41015625,-1000.0,1.0,1.0,0.0,1.0,3.m4v,5.0
2024-02-27 14:33:23.622018,1709040803.6220183,-1000.0,-1000.0,-40.52734375,-1000.0,1.0,1.0,0.0,1.0,3.m4v,5.0
2024-02-27 14:33:23.625924,1709040803.625924,-1000.0,-1000.0,-34.1796875,-1000.0,1.0,1.0,0.0,1.0,3.m4v,5.0
2024-02-27 14:33:23.629830,1709040803.6298296,-1000.0,-1000.0,-30.2734375,-1000.0,1.0,1.0,0.0,1.0,3.m4v,5.0
2024-02-27 14:33:23.633735,1709040803.6337352,-1000.0,-1000.0,-39.55078125,-1000.0,1.0,1.0,0.0,1.0,3.m4v,5.0
2024-02-27 14:33:23.637641,1709040803.637641,-960.44921875,-949.70703125,-45.8984375,-957.03125,1.0,1.0,0.0,1.0,3.m4v,5.0
2024-02-27 14:33:23.641546,1709040803.6415465,-1000.0,-1000.0,-33.69140625,-1000.0,1.0,1.0,0.0,1.0,3.m4v,5.0
2024-02-27 14:33:23.645452,1709040803.645452,-1000.0,-944.82421875,-26.3671875,-989.74609375,1.0,1.0,0.0,1.0,3.m4v,5.0
2024-02-27 14:33:23.649364,1709040803.6493642,345.703125,477.05078125,-24.4140625,387.6953125,1.0,1.0,0.0,1.0,3.m4v,5.0
2024-02-27 14:33:23.653270,1709040803.65327,999.51171875,999.51171875,-24.4140625,999.51171875,1.0,1.0,0.0,1.0,3.m4v,5.0
2024-02-27 14:33:23.657176,1709040803.6571755,897.94921875,895.5078125,-31.25,897.94921875,1.0,1.0,0.0,1.0,3.m4v,5.0
2024-02-27 14:33:23.661081,1709040803.661081,977.5390625,983.3984375,-31.25,979.4921875,1.0,1.0,0.0,1.0,3.m4v,5.0
2024-02-27 14:33:23.664987,1709040803.6649868,969.23828125,969.7265625,-29.78515625,969.7265625,1.0,1.0,0.0,1.0,3.m4v,5.0
2024-02-27 14:33:23.668892,1709040803.6688924,969.23828125,969.7265625,-31.25,969.7265625,1.0,1.0,0.0,1.0,3.m4v,5.0
2024-02-27 14:33:23.672798,1709040803.672798,969.23828125,969.7265625,-36.1328125,969.7265625,1.0,1.0,0.0,1.0,3.m4v,5.0
2024-02-27 14:33:23.676704,1709040803.6767037,968.75,969.7265625,-28.3203125,969.7265625,1.0,1.0,0.0,1.0,3.m4v,5.0
2024-02-27 14:33:23.680609,1709040803.6806092,968.75,969.7265625,-27.83203125,969.7265625,1.0,1.0,0.0,1.0,3.m4v,5.0
2024-02-27 14:33:23.684515,1709040803.6845148,969.23828125,969.7265625,-27.83203125,972.16796875,1.0,1.0,0.0,1.0,3.m4v,5.0
2024-02-27 14:33:23.688421,1709040803.6884203,986.81640625,986.328125,-30.76171875,972.16796875,1.0,1.0,0.0,1.0,3.m4v,5.0
2024-02-27 14:33:23.692326,1709040803.692326,897.94921875,898.92578125,-34.1796875,917.48046875,1.0,1.0,0.0,1.0,3.m4v,5.0
2024-02-27 14:33:23.696238,1709040803.696238,999.51171875,999.51171875,-27.34375,999.51171875,1.0,1.0,0.0,1.0,3.m4v,5.0
2024-02-27 14:33:23.700144,1709040803.7001436,682.6171875,638.671875,-29.296875,365.234375,1.0,1.0,0.0,1.0,3.m4v,5.0
2024-02-27 14:33:23.704049,1709040803.704049,-795.41015625,-826.171875,-39.0625,-922.8515625,1.0,1.0,0.0,1.0,3.m4v,5.0
2024-02-27 14:33:23.707955,1709040803.707955,-1000.0,-1000.0,-34.1796875,-1000.0,1.0,1.0,0.0,1.0,3.m4v,5.0
2024-02-27 14:33:23.711860,1709040803.7118604,-934.08203125,-937.5,-29.296875,-957.03125,1.0,1.0,0.0,1.0,3.m4v,5.0
2024-02-27 14:33:23.715766,1709040803.715766,-1000.0,-1000.0,-40.0390625,-1000.0,1.0,1.0,0.0,1.0,3.m4v,5.0
2024-02-27 14:33:23.719672,1709040803.7196715,-1000.0,-1000.0,-46.875,-1000.0,1.0,1.0,0.0,1.0,3.m4v,5.0
2024-02-27 14:33:23.723577,1709040803.7235773,-1000.0,-1000.0,-44.43359375,-1000.0,1.0,1.0,0.0,1.0,3.m4v,5.0
2024-02-27 14:33:23.727483,1709040803.7274828,-1000.0,-1000.0,-40.0390625,-1000.0,1.0,1.0,0.0,1.0,3.m4v,5.0
2024-02-27 14:33:23.731389,1709040803.7313886,-1000.0,-1000.0,-30.76171875,-1000.0,1.0,1.0,0.0,1.0,3.m4v,5.0
2024-02-27 14:33:23.735294,1709040803.735294,-1000.0,-1000.0,-24.90234375,-1000.0,1.0,1.0,0.0,1.0,3.m4v,5.0
2024-02-27 14:33:23.789984,1709040803.7899845,969.23828125,969.7265625,-26.3671875,969.7265625,1.0,1.0,0.0,1.0,3.m4v,5.0
2024-02-27 14:33:23.793890,1709040803.79389,969.23828125,969.7265625,-33.203125,969.7265625,1.0,1.0,0.0,1.0,3.m4v,5.0
2024-02-27 14:33:23.797796,1709040803.7977958,969.23828125,969.7265625,-41.9921875,969.7265625,1.0,1.0,0.0,1.0,3.m4v,5.0
2024-02-27 14:33:23.801701,1709040803.8017013,969.23828125,969.7265625,-44.43359375,969.7265625,1.0,1.0,0.0,1.0,3.m4v,5.0
2024-02-27 14:33:23.805607,1709040803.8056068,971.19140625,973.14453125,-44.43359375,976.07421875,1.0,1.0,0.0,1.0,3.m4v,5.0
2024-02-27 14:33:23.809513,1709040803.8095126,967.7734375,959.47265625,-43.9453125,950.1953125,1.0,1.0,0.0,1.0,3.m4v,5.0
2024-02-27 14:33:23.813418,1709040803.813418,914.0625,927.734375,-46.38671875,946.2890625,1.0,1.0,0.0,1.0,3.m4v,5.0
2024-02-27 14:33:23.817324,1709040803.8173237,999.51171875,999.51171875,-47.36328125,999.51171875,1.0,1.0,0.0,1.0,3.m4v,5.0
2024-02-27 14:33:23.821229,1709040803.8212297,212.40234375,55.17578125,-37.109375,-60.546875,1.0,1.0,0.0,1.0,3.m4v,5.0
2024-02-27 14:33:23.825135,1709040803.825135,-1000.0,-1000.0,-25.87890625,-1000.0,1.0,1.0,0.0,1.0,3.m4v,5.0
2024-02-27 14:33:23.829041,1709040803.8290403,-996.09375,-973.6328125,-25.390625,-966.30859375,1.0,1.0,0.0,1.0,3.m4v,5.0
2024-02-27 14:33:23.832946,1709040803.8329463,-969.7265625,-981.4453125,-41.9921875,-987.3046875,1.0,1.0,0.0,1.0,3.m4v,5.0
2024-02-27 14:33:23.836858,1709040803.8368576,-1000.0,-1000.0,-38.57421875,-1000.0,1.0,1.0,0.0,1.0,3.m4v,5.0
2024-02-27 14:33:23.840763,1709040803.840763,-1000.0,-1000.0,-28.80859375,-1000.0,1.0,1.0,0.0,1.0,3.m4v,5.0
2024-02-27 14:33:23.844669,1709040803.8446689,-1000.0,-1000.0,-34.66796875,-1000.0,1.0,1.0,0.0,1.0,3.m4v,5.0
2024-02-27 14:33:23.848574,1709040803.8485744,-1000.0,-1000.0,-22.4609375,-1000.0,1.0,1.0,0.0,1.0,3.m4v,5.0
2024-02-27 14:33:23.852480,1709040803.85248,-1000.0,-1000.0,-21.484375,-1000.0,1.0,1.0,0.0,1.0,3.m4v,5.0
2024-02-27 14:33:23.856386,1709040803.8563857,-1000.0,-1000.0,-32.71484375,-1000.0,1.0,1.0,0.0,1.0,3.m4v,5.0
2024-02-27 14:33:23.860291,1709040803.8602912,-1000.0,-1000.0,-33.69140625,-1000.0,1.0,1.0,0.0,1.0,3.m4v,5.0
2024-02-27 14:33:23.864197,1709040803.8641968,-1000.0,-1000.0,-30.2734375,-1000.0,1.0,1.0,0.0,1.0,3.m4v,5.0
2024-02-27 14:33:23.868103,1709040803.8681026,-1000.0,-1000.0,-26.85546875,-1000.0,1.0,1.0,0.0,1.0,3.m4v,5.0
2024-02-27 14:33:23.872008,1709040803.872008,-1000.0,-1000.0,-32.71484375,-1000.0,1.0,1.0,0.0,1.0,3.m4v,5.0
2024-02-27 14:33:23.875914,1709040803.8759136,-999.51171875,-980.95703125,-32.71484375,-993.65234375,1.0,1.0,0.0,1.0,3.m4v,5.0
2024-02-27 14:33:23.879819,1709040803.8798194,-944.3359375,-972.16796875,-33.69140625,-953.125,1.0,1.0,0.0,1.0,3.m4v,5.0
2024-02-27 14:33:23.961851,1709040803.9618514,-941.40625,-1000.0,-31.73828125,-993.65234375,1.0,1.0,0.0,1.0,3.m4v,5.0
2024-02-27 14:33:23.969662,1709040803.9696624,-951.66015625,-973.6328125,-35.15625,-963.8671875,1.0,1.0,0.0,1.0,3.m4v,5.0
2024-02-27 14:33:23.977480,1709040803.9774804,-1000.0,-1000.0,-32.2265625,-1000.0,1.0,1.0,0.0,1.0,3.m4v,5.0
2024-02-27 14:33:23.985292,1709040803.9852915,-1000.0,-1000.0,-36.62109375,-1000.0,1.0,1.0,0.0,1.0,3.m4v,5.0
2024-02-27 14:33:23.993103,1709040803.9931028,-1000.0,-1000.0,-24.4140625,-1000.0,1.0,1.0,0.0,1.0,3.m4v,5.0
2024-02-27 14:33:24.000914,1709040804.000914,-942.3828125,-937.5,-34.1796875,-938.4765625,1.0,1.0,0.0,1.0,3.m4v,5.0
2024-02-27 14:33:24.008725,1709040804.0087254,-889.6484375,-834.47265625,-27.34375,-833.0078125,1.0,1.0,0.0,1.0,3.m4v,5.0
2024-02-27 14:33:24.016536,1709040804.0165365,999.51171875,999.51171875,-26.3671875,999.51171875,1.0,1.0,0.0,1.0,3.m4v,5.0
2024-02-27 14:33:24.024354,1709040804.0243542,984.86328125,986.81640625,-42.96875,986.328125,1.0,1.0,0.0,1.0,3.m4v,5.0
2024-02-27 14:33:24.032166,1709040804.0321655,969.23828125,969.7265625,-21.97265625,969.7265625,1.0,1.0,0.0,1.0,3.m4v,5.0
2024-02-27 14:33:24.039977,1709040804.0399768,969.23828125,973.14453125,-18.5546875,969.7265625,1.0,1.0,0.0,1.0,3.m4v,5.0
2024-02-27 14:33:24.047788,1709040804.047788,906.73828125,925.78125,-31.25,904.78515625,1.0,1.0,0.0,1.0,3.m4v,5.0
2024-02-27 14:33:24.055599,1709040804.0555992,810.546875,132.32421875,-32.71484375,762.6953125,1.0,1.0,0.0,1.0,3.m4v,5.0
2024-02-27 14:33:24.063411,1709040804.0634103,-1000.0,-988.76953125,-37.59765625,-1000.0,1.0,1.0,0.0,1.0,3.m4v,5.0
2024-02-27 14:33:24.071228,1709040804.071228,-1000.0,-1000.0,-28.3203125,-1000.0,1.0,1.0,0.0,1.0,3.m4v,5.0
2024-02-27 14:33:24.079039,1709040804.079039,-1000.0,-1000.0,-48.33984375,-1000.0,1.0,1.0,0.0,1.0,3.m4v,5.0
2024-02-27 14:33:24.086850,1709040804.0868504,-1000.0,-1000.0,-31.25,-1000.0,1.0,1.0,0.0,1.0,3.m4v,5.0
2024-02-27 14:33:24.094662,1709040804.0946617,-1000.0,-1000.0,-30.2734375,-1000.0,1.0,1.0,0.0,1.0,3.m4v,5.0
2024-02-27 14:33:24.102473,1709040804.102473,-929.19921875,-927.24609375,-42.96875,-956.54296875,1.0,1.0,0.0,1.0,3.m4v,5.0
2024-02-27 14:33:24.110284,1709040804.110284,-555.6640625,-633.30078125,-35.15625,-202.1484375,1.0,1.0,0.0,1.0,3.m4v,5.0
2024-02-27 14:33:24.118101,1709040804.1181014,999.51171875,999.51171875,-27.34375,966.796875,1.0,1.0,0.0,1.0,3.m4v,5.0
2024-02-27 14:33:24.125913,1709040804.125913,984.375,986.328125,-34.66796875,978.515625,1.0,1.0,0.0,1.0,3.m4v,5.0
2024-02-27 14:33:24.129818,1709040804.1298182,969.23828125,969.7265625,-31.73828125,969.7265625,1.0,1.0,0.0,1.0,3.m4v,5.0
2024-02-27 14:33:24.133724,1709040804.133724,969.23828125,969.7265625,-31.73828125,969.7265625,1.0,1.0,0.0,1.0,3.m4v,5.0
2024-02-27 14:33:24.137630,1709040804.1376295,968.75,969.7265625,-25.87890625,969.7265625,1.0,1.0,0.0,1.0,3.m4v,5.0
2024-02-27 14:33:24.141535,1709040804.141535,969.23828125,969.7265625,-26.85546875,969.7265625,1.0,1.0,0.0,1.0,3.m4v,5.0
2024-02-27 14:33:24.145441,1709040804.1454408,985.3515625,986.328125,-32.2265625,986.328125,1.0,1.0,0.0,1.0,3.m4v,5.0
2024-02-27 14:33:24.149346,1709040804.1493464,911.1328125,905.76171875,-24.4140625,911.62109375,1.0,1.0,0.0,1.0,3.m4v,5.0
2024-02-27 14:33:24.153252,1709040804.153252,999.51171875,999.51171875,-30.76171875,999.51171875,1.0,1.0,0.0,1.0,3.m4v,5.0
2024-02-27 14:33:24.157158,1709040804.1571577,859.86328125,760.25390625,-42.48046875,854.98046875,1.0,1.0,0.0,1.0,3.m4v,5.0
2024-02-27 14:33:24.161063,1709040804.1610632,-597.16796875,-704.58984375,-24.90234375,-604.00390625,1.0,1.0,0.0,1.0,3.m4v,5.0
2024-02-27 14:33:24.164975,1709040804.1649747,-1000.0,-1000.0,-16.11328125,-1000.0,1.0,1.0,0.0,1.0,3.m4v,5.0
2024-02-27 14:33:24.168880,1709040804.1688802,-925.78125,-930.6640625,-24.90234375,-925.78125,1.0,1.0,0.0,1.0,3.m4v,5.0
2024-02-27 14:33:24.172786,1709040804.1727858,-1000.0,-1000.0,-28.80859375,-1000.0,1.0,1.0,0.0,1.0,3.m4v,5.0
2024-02-27 14:33:24.176692,1709040804.1766915,-1000.0,-1000.0,-26.85546875,-1000.0,1.0,1.0,0.0,1.0,3.m4v,5.0
2024-02-27 14:33:24.180597,1709040804.180597,-1000.0,-1000.0,-26.3671875,-1000.0,1.0,1.0,0.0,1.0,3.m4v,5.0
2024-02-27 14:33:24.184503,1709040804.1845026,-1000.0,-1000.0,-26.3671875,-1000.0,1.0,1.0,0.0,1.0,3.m4v,5.0
2024-02-27 14:33:24.188408,1709040804.1884084,-1000.0,-1000.0,-33.203125,-1000.0,1.0,1.0,0.0,1.0,3.m4v,5.0
2024-02-27 14:33:24.192314,1709040804.192314,-1000.0,-1000.0,-49.8046875,-1000.0,1.0,1.0,0.0,1.0,3.m4v,5.0
2024-02-27 14:33:24.196219,1709040804.1962194,-1000.0,-1000.0,-48.33984375,-1000.0,1.0,1.0,0.0,1.0,3.m4v,5.0
2024-02-27 14:33:24.200125,1709040804.2001252,-942.87109375,-943.84765625,-30.76171875,-940.4296875,1.0,1.0,0.0,1.0,3.m4v,5.0
2024-02-27 14:33:24.204031,1709040804.2040308,-1000.0,-1000.0,-22.4609375,-1000.0,1.0,1.0,0.0,1.0,3.m4v,5.0
2024-02-27 14:33:24.207936,1709040804.2079363,-894.04296875,-900.390625,-21.484375,-866.69921875,1.0,1.0,0.0,1.0,3.m4v,5.0
2024-02-27 14:33:24.211848,1709040804.2118475,561.5234375,551.7578125,-19.04296875,594.7265625,1.0,1.0,0.0,1.0,3.m4v,5.0
2024-02-27 14:33:24.215753,1709040804.215753,999.51171875,999.51171875,-11.71875,999.51171875,1.0,1.0,0.0,1.0,3.m4v,5.0
2024-02-27 14:33:24.219659,1709040804.2196586,894.53125,895.01953125,-11.71875,896.484375,1.0,1.0,0.0,1.0,3.m4v,5.0
2024-02-27 14:33:24.223564,1709040804.2235644,984.86328125,985.3515625,-12.20703125,985.83984375,1.0,1.0,0.0,1.0,3.m4v,5.0
2024-02-27 14:33:24.227470,1709040804.22747,968.75,969.7265625,-14.16015625,969.7265625,1.0,1.0,0.0,1.0,3.m4v,5.0
2024-02-27 14:33:24.231375,1709040804.2313757,969.23828125,969.7265625,-23.92578125,969.7265625,1.0,1.0,0.0,1.0,3.m4v,5.0
2024-02-27 14:33:24.235281,1709040804.2352812,969.23828125,969.7265625,-35.15625,969.7265625,1.0,1.0,0.0,1.0,3.m4v,5.0
2024-02-27 14:33:24.239187,1709040804.2391868,969.23828125,969.7265625,-31.25,969.7265625,1.0,1.0,0.0,1.0,3.m4v,5.0
2024-02-27 14:33:24.243092,1709040804.2430923,969.23828125,969.7265625,-28.3203125,969.7265625,1.0,1.0,0.0,1.0,3.m4v,5.0
2024-02-27 14:33:24.246998,1709040804.246998,969.23828125,969.7265625,-24.90234375,969.7265625,1.0,1.0,0.0,1.0,3.m4v,5.0
2024-02-27 14:33:24.250904,1709040804.2509036,969.23828125,970.21484375,-17.578125,969.7265625,1.0,1.0,0.0,1.0,3.m4v,5.0
2024-02-27 14:33:24.254809,1709040804.2548091,969.23828125,969.7265625,-23.92578125,969.7265625,1.0,1.0,0.0,1.0,3.m4v,5.0
2024-02-27 14:33:24.258720,1709040804.2587202,969.23828125,970.21484375,-33.69140625,969.7265625,1.0,1.0,0.0,1.0,3.m4v,5.0
2024-02-27 14:33:24.262626,1709040804.262626,969.23828125,969.7265625,-33.203125,971.19140625,1.0,1.0,0.0,1.0,3.m4v,5.0
2024-02-27 14:33:24.266531,1709040804.2665317,986.328125,987.3046875,-18.06640625,977.5390625,1.0,1.0,0.0,1.0,3.m4v,5.0
2024-02-27 14:33:24.270437,1709040804.270437,898.92578125,904.296875,-15.625,909.66796875,1.0,1.0,0.0,1.0,3.m4v,5.0
2024-02-27 14:33:24.274343,1709040804.2743428,999.51171875,999.51171875,-23.4375,999.51171875,1.0,1.0,0.0,1.0,3.m4v,5.0
2024-02-27 14:33:24.278248,1709040804.2782483,698.2421875,773.4375,-21.97265625,464.84375,1.0,1.0,0.0,1.0,3.m4v,5.0
2024-02-27 14:33:24.282154,1709040804.2821538,-778.80859375,-705.56640625,-17.08984375,-890.625,1.0,1.0,0.0,1.0,3.m4v,5.0
2024-02-27 14:33:24.286060,1709040804.2860596,-1000.0,-1000.0,-12.6953125,-1000.0,1.0,1.0,0.0,1.0,3.m4v,5.0
2024-02-27 14:33:24.289965,1709040804.2899652,-933.10546875,-928.7109375,-17.08984375,-950.1953125,1.0,1.0,0.0,1.0,3.m4v,5.0
2024-02-27 14:33:24.293871,1709040804.2938707,-1000.0,-1000.0,-17.578125,-1000.0,1.0,1.0,0.0,1.0,3.m4v,5.0
2024-02-27 14:33:24.395431,1709040804.3954306,-1000.0,-1000.0,-31.73828125,-1000.0,1.0,1.0,0.0,1.0,3.m4v,5.0
2024-02-27 14:33:24.399343,1709040804.3993428,-1000.0,-1000.0,-25.87890625,-1000.0,1.0,1.0,0.0,1.0,3.m4v,5.0
2024-02-27 14:33:24.403248,1709040804.4032483,-1000.0,-1000.0,-17.578125,-1000.0,1.0,1.0,0.0,1.0,3.m4v,5.0
2024-02-27 14:33:24.407154,1709040804.4071538,-1000.0,-1000.0,-24.4140625,-1000.0,1.0,1.0,0.0,1.0,3.m4v,5.0
2024-02-27 14:33:24.411060,1709040804.4110596,-1000.0,-962.890625,-19.53125,-1000.0,1.0,1.0,0.0,1.0,3.m4v,5.0
2024-02-27 14:33:24.414965,1709040804.4149652,-1000.0,-1000.0,-12.6953125,-1000.0,1.0,1.0,0.0,1.0,3.m4v,5.0
2024-02-27 14:33:24.418871,1709040804.4188707,-927.734375,-1000.0,-21.97265625,-940.91796875,1.0,1.0,0.0,1.0,3.m4v,5.0
2024-02-27 14:33:24.422776,1709040804.4227765,-1000.0,312.98828125,-35.15625,-1000.0,1.0,1.0,0.0,1.0,3.m4v,5.0
2024-02-27 14:33:24.426682,1709040804.426682,-604.98046875,999.51171875,-36.1328125,-389.6484375,1.0,1.0,0.0,1.0,3.m4v,5.0
2024-02-27 14:33:24.430588,1709040804.4305875,843.26171875,901.3671875,-33.69140625,925.29296875,1.0,1.0,0.0,1.0,3.m4v,5.0
2024-02-27 14:33:24.434493,1709040804.4344933,999.51171875,976.07421875,-30.2734375,992.67578125,1.0,1.0,0.0,1.0,3.m4v,5.0
2024-02-27 14:33:24.438399,1709040804.4383988,910.64453125,969.7265625,-41.015625,927.734375,1.0,1.0,0.0,1.0,3.m4v,5.0
2024-02-27 14:33:24.442304,1709040804.4423044,985.3515625,969.7265625,-50.29296875,981.4453125,1.0,1.0,0.0,1.0,3.m4v,5.0
2024-02-27 14:33:24.446216,1709040804.4462163,969.23828125,969.7265625,-31.73828125,969.7265625,1.0,1.0,0.0,1.0,3.m4v,5.0
2024-02-27 14:33:24.450122,1709040804.450122,968.75,969.7265625,-21.484375,969.7265625,1.0,1.0,0.0,1.0,3.m4v,5.0
2024-02-27 14:33:24.454027,1709040804.4540274,969.23828125,969.7265625,-27.83203125,969.7265625,1.0,1.0,0.0,1.0,3.m4v,5.0
2024-02-27 14:33:24.457933,1709040804.4579332,969.23828125,969.7265625,-30.2734375,969.7265625,1.0,1.0,0.0,1.0,3.m4v,5.0
2024-02-27 14:33:24.461839,1709040804.4618387,976.5625,984.375,-34.66796875,979.00390625,1.0,1.0,0.0,1.0,3.m4v,5.0
2024-02-27 14:33:24.465744,1709040804.4657445,939.453125,918.45703125,-34.66796875,935.05859375,1.0,1.0,0.0,1.0,3.m4v,5.0
2024-02-27 14:33:24.469650,1709040804.46965,957.51953125,999.51171875,-34.1796875,969.23828125,1.0,1.0,0.0,1.0,3.m4v,5.0
2024-02-27 14:33:24.473556,1709040804.4735556,999.51171875,907.2265625,-32.2265625,999.51171875,1.0,1.0,0.0,1.0,3.m4v,5.0
2024-02-27 14:33:24.477461,1709040804.477461,-243.1640625,-519.04296875,-31.25,-307.6171875,1.0,1.0,0.0,1.0,3.m4v,5.0
2024-02-27 14:33:24.481367,1709040804.4813669,-1000.0,-1000.0,-35.15625,-1000.0,1.0,1.0,0.0,1.0,3.m4v,5.0
2024-02-27 14:33:24.485272,1709040804.4852724,-937.01171875,-925.78125,-31.73828125,-933.59375,1.0,1.0,0.0,1.0,3.m4v,5.0
2024-02-27 14:33:24.489178,1709040804.489178,-1000.0,-1000.0,-31.73828125,-1000.0,1.0,1.0,0.0,1.0,3.m4v,5.0
2024-02-27 14:33:24.493090,1709040804.49309,-1000.0,-1000.0,-28.80859375,-1000.0,1.0,1.0,0.0,1.0,3.m4v,5.0
2024-02-27 14:33:24.496995,1709040804.4969954,-1000.0,-1000.0,-23.4375,-1000.0,1.0,1.0,0.0,1.0,3.m4v,5.0
2024-02-27 14:33:24.500901,1709040804.500901,-1000.0,-981.4453125,-21.97265625,-1000.0,1.0,1.0,0.0,1.0,3.m4v,5.0
2024-02-27 14:33:24.504807,1709040804.5048068,-1000.0,-972.16796875,-23.4375,-1000.0,1.0,1.0,0.0,1.0,3.m4v,5.0
2024-02-27 14:33:24.508712,1709040804.5087123,-1000.0,-1000.0,-25.390625,-1000.0,1.0,1.0,0.0,1.0,3.m4v,5.0
2024-02-27 14:33:24.512618,1709040804.5126178,-1000.0,45.8984375,-27.34375,-1000.0,1.0,1.0,0.0,1.0,3.m4v,5.0
2024-02-27 14:33:24.516524,1709040804.5165236,-987.79296875,999.51171875,-29.78515625,-975.09765625,1.0,1.0,0.0,1.0,3.m4v,5.0
2024-02-27 14:33:24.520429,1709040804.5204291,-960.9375,927.734375,-39.55078125,-983.88671875,1.0,1.0,0.0,1.0,3.m4v,5.0
2024-02-27 14:33:24.524335,1709040804.524335,-1000.0,959.9609375,-39.0625,-1000.0,1.0,1.0,0.0,1.0,3.m4v,5.0
2024-02-27 14:33:24.528240,1709040804.5282404,-49.8046875,973.14453125,-28.80859375,133.30078125,1.0,1.0,0.0,1.0,3.m4v,5.0
2024-02-27 14:33:24.532146,1709040804.532146,999.51171875,969.7265625,-20.5078125,999.51171875,1.0,1.0,0.0,1.0,3.m4v,5.0
2024-02-27 14:33:24.536052,1709040804.5360515,937.01171875,969.7265625,-23.92578125,919.43359375,1.0,1.0,0.0,1.0,3.m4v,5.0
2024-02-27 14:33:24.539963,1709040804.539963,953.125,969.7265625,-29.296875,964.84375,1.0,1.0,0.0,1.0,3.m4v,5.0
2024-02-27 14:33:24.871985,1709040804.8719852,-1000.0,-1000.0,-35.64453125,-1000.0,1.0,1.0,0.0,1.0,3.m4v,5.0
2024-02-27 14:33:24.883702,1709040804.883702,-1000.0,-1000.0,-32.2265625,-1000.0,1.0,1.0,0.0,1.0,3.m4v,5.0
2024-02-27 14:33:24.895419,1709040804.895419,-1000.0,-1000.0,-24.4140625,-1000.0,1.0,1.0,0.0,1.0,3.m4v,5.0
2024-02-27 14:33:24.907136,1709040804.9071355,-1000.0,-966.796875,-41.015625,-1000.0,1.0,1.0,0.0,1.0,3.m4v,5.0
2024-02-27 14:33:24.918859,1709040804.9188583,903.80859375,896.484375,-30.76171875,901.3671875,1.0,1.0,0.0,1.0,3.m4v,5.0
2024-02-27 14:33:24.930575,1709040804.9305754,969.23828125,969.7265625,-21.484375,969.7265625,1.0,1.0,0.0,1.0,3.m4v,5.0
2024-02-27 14:33:24.938387,1709040804.938387,968.75,969.7265625,-28.80859375,969.7265625,1.0,1.0,0.0,1.0,3.m4v,5.0
2024-02-27 14:33:24.946198,1709040804.946198,980.46875,983.88671875,-28.3203125,983.3984375,1.0,1.0,0.0,1.0,3.m4v,5.0
2024-02-27 14:33:24.954009,1709040804.954009,981.4453125,999.51171875,-23.4375,999.0234375,1.0,1.0,0.0,1.0,3.m4v,5.0
2024-02-27 14:33:24.961826,1709040804.9618258,-386.71875,-491.69921875,-39.55078125,-472.16796875,1.0,1.0,0.0,1.0,3.m4v,5.0
2024-02-27 14:33:24.969637,1709040804.9696372,-928.7109375,-926.26953125,-20.5078125,-927.24609375,1.0,1.0,0.0,1.0,3.m4v,5.0
2024-02-27 14:33:24.977448,1709040804.9774482,-1000.0,-1000.0,-27.34375,-1000.0,1.0,1.0,0.0,1.0,3.m4v,5.0
2024-02-27 14:33:24.985260,1709040804.9852595,-1000.0,-1000.0,-32.71484375,-1000.0,1.0,1.0,0.0,1.0,3.m4v,5.0
2024-02-27 14:33:24.993071,1709040804.9930708,-1000.0,-1000.0,-35.15625,-1000.0,1.0,1.0,0.0,1.0,3.m4v,5.0
2024-02-27 14:33:25.000882,1709040805.000882,-957.51953125,-960.9375,-41.9921875,-948.73046875,1.0,1.0,0.0,1.0,3.m4v,5.0
2024-02-27 14:33:25.008698,1709040805.0086985,-995.1171875,-1000.0,-42.96875,-927.24609375,1.0,1.0,0.0,1.0,3.m4v,5.0
2024-02-27 14:33:25.016510,1709040805.0165098,999.51171875,999.51171875,-27.34375,999.51171875,1.0,1.0,0.0,1.0,3.m4v,5.0
2024-02-27 14:33:25.024321,1709040805.0243208,979.00390625,978.02734375,-22.4609375,982.91015625,1.0,1.0,0.0,1.0,3.m4v,5.0
2024-02-27 14:33:25.028227,1709040805.0282266,969.23828125,969.7265625,-26.3671875,969.7265625,1.0,1.0,0.0,1.0,3.m4v,5.0
2024-02-27 14:33:25.032132,1709040805.032132,969.23828125,969.7265625,-26.3671875,969.7265625,1.0,1.0,0.0,1.0,3.m4v,5.0
2024-02-27 14:33:25.036038,1709040805.0360377,969.23828125,969.7265625,-21.97265625,969.7265625,1.0,1.0,0.0,1.0,3.m4v,5.0
2024-02-27 14:33:25.039943,1709040805.0399437,969.23828125,969.7265625,-21.484375,969.7265625,1.0,1.0,0.0,1.0,3.m4v,5.0
2024-02-27 14:33:25.043849,1709040805.043849,969.23828125,969.7265625,-30.2734375,969.7265625,1.0,1.0,0.0,1.0,3.m4v,5.0
2024-02-27 14:33:25.047755,1709040805.0477543,968.75,969.7265625,-34.1796875,969.7265625,1.0,1.0,0.0,1.0,3.m4v,5.0
2024-02-27 14:33:25.051660,1709040805.0516603,969.23828125,969.7265625,-30.2734375,969.7265625,1.0,1.0,0.0,1.0,3.m4v,5.0
2024-02-27 14:33:25.055573,1709040805.0555727,969.23828125,969.7265625,-20.99609375,969.7265625,1.0,1.0,0.0,1.0,3.m4v,5.0
2024-02-27 14:33:25.059478,1709040805.0594783,969.23828125,969.7265625,-16.6015625,969.7265625,1.0,1.0,0.0,1.0,3.m4v,5.0
2024-02-27 14:33:25.063384,1709040805.063384,969.7265625,971.19140625,-19.53125,972.16796875,1.0,1.0,0.0,1.0,3.m4v,5.0
2024-02-27 14:33:25.067290,1709040805.0672896,979.00390625,971.6796875,-24.90234375,968.26171875,1.0,1.0,0.0,1.0,3.m4v,5.0
2024-02-27 14:33:25.071195,1709040805.0711951,900.87890625,910.64453125,-25.390625,917.48046875,1.0,1.0,0.0,1.0,3.m4v,5.0
2024-02-27 14:33:25.075101,1709040805.075101,999.51171875,999.51171875,-25.390625,999.51171875,1.0,1.0,0.0,1.0,3.m4v,5.0
2024-02-27 14:33:25.079006,1709040805.0790064,429.6875,276.3671875,-29.296875,229.4921875,1.0,1.0,0.0,1.0,3.m4v,5.0
2024-02-27 14:33:25.082912,1709040805.082912,-948.2421875,-1000.0,-31.25,-1000.0,1.0,1.0,0.0,1.0,3.m4v,5.0
2024-02-27 14:33:25.086818,1709040805.0868175,-1000.0,-1000.0,-27.83203125,-1000.0,1.0,1.0,0.0,1.0,3.m4v,5.0
2024-02-27 14:33:25.090723,1709040805.0907233,-953.125,-964.84375,-24.90234375,-967.7734375,1.0,1.0,0.0,1.0,3.m4v,5.0
2024-02-27 14:33:25.094629,1709040805.0946288,-1000.0,-1000.0,-18.5546875,-1000.0,1.0,1.0,0.0,1.0,3.m4v,5.0
2024-02-27 14:33:25.098535,1709040805.0985346,-1000.0,-1000.0,-26.3671875,-1000.0,1.0,1.0,0.0,1.0,3.m4v,5.0
2024-02-27 14:33:25.102447,1709040805.102447,-1000.0,-1000.0,-25.390625,-1000.0,1.0,1.0,0.0,1.0,3.m4v,5.0
2024-02-27 14:33:25.106353,1709040805.1063526,-1000.0,-1000.0,-15.13671875,-1000.0,1.0,1.0,0.0,1.0,3.m4v,5.0
2024-02-27 14:33:25.110258,1709040805.1102583,-1000.0,-1000.0,-24.90234375,-1000.0,1.0,1.0,0.0,1.0,3.m4v,5.0
2024-02-27 14:33:25.114164,1709040805.114164,-1000.0,-1000.0,-25.390625,-1000.0,1.0,1.0,0.0,1.0,3.m4v,5.0
2024-02-27 14:33:25.118069,1709040805.1180694,-1000.0,-1000.0,-17.578125,-1000.0,1.0,1.0,0.0,1.0,3.m4v,5.0
2024-02-27 14:33:25.121975,1709040805.1219752,-1000.0,-1000.0,-20.5078125,-1000.0,1.0,1.0,0.0,1.0,3.m4v,5.0
2024-02-27 14:33:25.125881,1709040805.1258807,-1000.0,-1000.0,-31.73828125,-1000.0,1.0,1.0,0.0,1.0,3.m4v,5.0
2024-02-27 14:33:25.129786,1709040805.1297865,-1000.0,-1000.0,-30.76171875,-1000.0,1.0,1.0,0.0,1.0,3.m4v,5.0
2024-02-27 14:33:25.133692,1709040805.133692,-1000.0,-1000.0,-27.83203125,-1000.0,1.0,1.0,0.0,1.0,3.m4v,5.0
2024-02-27 14:33:25.137598,1709040805.1375976,-960.44921875,-952.63671875,-31.73828125,-955.078125,1.0,1.0,0.0,1.0,3.m4v,5.0
2024-02-27 14:33:25.141503,1709040805.141503,-1000.0,-1000.0,-36.62109375,-1000.0,1.0,1.0,0.0,1.0,3.m4v,5.0
2024-02-27 14:33:25.145409,1709040805.1454089,-1000.0,-965.33203125,-37.59765625,-976.5625,1.0,1.0,0.0,1.0,3.m4v,5.0
2024-02-27 14:33:25.149321,1709040805.149321,345.703125,440.4296875,-31.25,413.57421875,1.0,1.0,0.0,1.0,3.m4v,5.0
2024-02-27 14:33:25.153227,1709040805.1532269,999.51171875,999.51171875,-32.2265625,999.51171875,1.0,1.0,0.0,1.0,3.m4v,5.0
2024-02-27 14:33:25.157132,1709040805.1571324,897.94921875,895.99609375,-40.52734375,897.4609375,1.0,1.0,0.0,1.0,3.m4v,5.0
2024-02-27 14:33:25.161038,1709040805.161038,977.5390625,981.93359375,-39.55078125,980.95703125,1.0,1.0,0.0,1.0,3.m4v,5.0
2024-02-27 14:33:25.164944,1709040805.1649437,969.23828125,969.7265625,-29.296875,969.7265625,1.0,1.0,0.0,1.0,3.m4v,5.0
2024-02-27 14:33:25.168849,1709040805.1688492,969.23828125,969.7265625,-33.203125,969.7265625,1.0,1.0,0.0,1.0,3.m4v,5.0
2024-02-27 14:33:25.172755,1709040805.1727548,969.23828125,969.7265625,-54.6875,969.7265625,1.0,1.0,0.0,1.0,3.m4v,5.0
2024-02-27 14:33:25.176661,1709040805.1766603,969.23828125,969.7265625,-52.734375,969.7265625,1.0,1.0,0.0,1.0,3.m4v,5.0
2024-02-27 14:33:25.180566,1709040805.180566,969.23828125,969.7265625,-34.1796875,969.7265625,1.0,1.0,0.0,1.0,3.m4v,5.0
2024-02-27 14:33:25.184472,1709040805.1844716,968.75,969.7265625,-31.25,969.7265625,1.0,1.0,0.0,1.0,3.m4v,5.0
2024-02-27 14:33:25.188377,1709040805.1883774,969.23828125,969.7265625,-28.3203125,969.7265625,1.0,1.0,0.0,1.0,3.m4v,5.0
2024-02-27 14:33:25.192283,1709040805.192283,969.23828125,969.7265625,-30.76171875,969.7265625,1.0,1.0,0.0,1.0,3.m4v,5.0
2024-02-27 14:33:25.196197,1709040805.1961966,969.23828125,969.7265625,-41.9921875,969.7265625,1.0,1.0,0.0,1.0,3.m4v,5.0
2024-02-27 14:33:25.200102,1709040805.2001023,969.23828125,969.7265625,-40.52734375,969.7265625,1.0,1.0,0.0,1.0,3.m4v,5.0
2024-02-27 14:33:25.204008,1709040805.204008,969.23828125,970.21484375,-38.57421875,972.16796875,1.0,1.0,0.0,1.0,3.m4v,5.0
2024-02-27 14:33:25.207913,1709040805.2079134,980.95703125,980.46875,-40.0390625,969.7265625,1.0,1.0,0.0,1.0,3.m4v,5.0
2024-02-27 14:33:25.211819,1709040805.2118192,898.4375,900.87890625,-27.83203125,915.52734375,1.0,1.0,0.0,1.0,3.m4v,5.0
2024-02-27 14:33:25.215725,1709040805.2157247,999.51171875,999.51171875,-30.76171875,999.51171875,1.0,1.0,0.0,1.0,3.m4v,5.0
2024-02-27 14:33:25.219630,1709040805.2196302,482.91015625,445.80078125,-41.50390625,263.671875,1.0,1.0,0.0,1.0,3.m4v,5.0
2024-02-27 14:33:25.223536,1709040805.223536,-926.26953125,-941.40625,-30.2734375,-994.62890625,1.0,1.0,0.0,1.0,3.m4v,5.0
2024-02-27 14:33:25.227442,1709040805.2274415,-1000.0,-1000.0,-17.08984375,-1000.0,1.0,1.0,0.0,1.0,3.m4v,5.0
2024-02-27 14:33:25.231347,1709040805.231347,-948.73046875,-951.66015625,-16.6015625,-965.33203125,1.0,1.0,0.0,1.0,3.m4v,5.0
2024-02-27 14:33:25.235253,1709040805.2352529,-1000.0,-1000.0,-26.3671875,-1000.0,1.0,1.0,0.0,1.0,3.m4v,5.0
2024-02-27 14:33:25.239158,1709040805.2391584,-1000.0,-1000.0,-34.1796875,-1000.0,1.0,1.0,0.0,1.0,3.m4v,5.0
2024-02-27 14:33:25.243070,1709040805.24307,-1000.0,-1000.0,-33.203125,-1000.0,1.0,1.0,0.0,1.0,3.m4v,5.0
2024-02-27 14:33:25.246976,1709040805.2469757,-1000.0,-1000.0,-32.71484375,-1000.0,1.0,1.0,0.0,1.0,3.m4v,5.0
2024-02-27 14:33:25.250881,1709040805.2508812,-1000.0,-1000.0,-34.66796875,-1000.0,1.0,1.0,0.0,1.0,3.m4v,5.0
2024-02-27 14:33:25.254787,1709040805.2547867,-1000.0,-941.40625,-39.55078125,-1000.0,1.0,1.0,0.0,1.0,3.m4v,5.0
2024-02-27 14:33:25.258693,1709040805.2586925,-928.22265625,-1000.0,-37.59765625,-940.4296875,1.0,1.0,0.0,1.0,3.m4v,5.0
2024-02-27 14:33:25.262598,1709040805.262598,-1000.0,-878.90625,-31.73828125,-1000.0,1.0,1.0,0.0,1.0,3.m4v,5.0
2024-02-27 14:33:25.266504,1709040805.2665036,-632.32421875,581.0546875,-41.015625,-416.9921875,1.0,1.0,0.0,1.0,3.m4v,5.0
2024-02-27 14:33:25.270409,1709040805.270409,824.70703125,999.51171875,-39.0625,909.1796875,1.0,1.0,0.0,1.0,3.m4v,5.0
2024-02-27 14:33:25.274315,1709040805.2743149,999.51171875,895.5078125,-26.85546875,998.046875,1.0,1.0,0.0,1.0,3.m4v,5.0
2024-02-27 14:33:25.278220,1709040805.2782204,908.69140625,985.83984375,-36.62109375,925.29296875,1.0,1.0,0.0,1.0,3.m4v,5.0
2024-02-27 14:33:25.282126,1709040805.2821262,985.3515625,969.7265625,-44.43359375,981.93359375,1.0,1.0,0.0,1.0,3.m4v,5.0
2024-02-27 14:33:25.286032,1709040805.2860315,969.23828125,969.7265625,-41.50390625,969.7265625,1.0,1.0,0.0,1.0,3.m4v,5.0
2024-02-27 14:33:25.289943,1709040805.2899432,968.75,969.7265625,-37.109375,969.7265625,1.0,1.0,0.0,1.0,3.m4v,5.0
2024-02-27 14:33:25.293849,1709040805.2938488,969.23828125,969.7265625,-32.2265625,969.7265625,1.0,1.0,0.0,1.0,3.m4v,5.0
2024-02-27 14:33:25.297754,1709040805.2977543,969.23828125,969.7265625,-32.2265625,969.7265625,1.0,1.0,0.0,1.0,3.m4v,5.0
2024-02-27 14:33:25.301660,1709040805.30166,969.23828125,971.19140625,-39.0625,970.21484375,1.0,1.0,0.0,1.0,3.m4v,5.0
2024-02-27 14:33:25.305566,1709040805.3055656,986.81640625,976.07421875,-38.0859375,984.375,1.0,1.0,0.0,1.0,3.m4v,5.0
2024-02-27 14:33:25.309471,1709040805.3094711,899.90234375,908.203125,-35.64453125,900.87890625,1.0,1.0,0.0,1.0,3.m4v,5.0
2024-02-27 14:33:25.313377,1709040805.313377,999.51171875,999.51171875,-45.41015625,999.51171875,1.0,1.0,0.0,1.0,3.m4v,5.0
2024-02-27 14:33:25.317282,1709040805.3172824,715.8203125,390.625,-50.29296875,605.46875,1.0,1.0,0.0,1.0,3.m4v,5.0
2024-02-27 14:33:25.321188,1709040805.321188,-764.16015625,-944.3359375,-41.015625,-836.42578125,1.0,1.0,0.0,1.0,3.m4v,5.0
2024-02-27 14:33:25.325094,1709040805.3250935,-1000.0,-1000.0,-35.64453125,-1000.0,1.0,1.0,0.0,1.0,3.m4v,5.0
2024-02-27 14:33:25.328999,1709040805.3289993,-932.12890625,-955.56640625,-39.55078125,-939.94140625,1.0,1.0,0.0,1.0,3.m4v,5.0
2024-02-27 14:33:25.332905,1709040805.3329048,-1000.0,-1000.0,-41.015625,-1000.0,1.0,1.0,0.0,1.0,3.m4v,5.0
2024-02-27 14:33:25.336816,1709040805.3368163,-1000.0,-1000.0,-40.52734375,-1000.0,1.0,1.0,0.0,1.0,3.m4v,5.0
2024-02-27 14:33:25.340722,1709040805.3407218,-1000.0,-1000.0,-36.1328125,-1000.0,1.0,1.0,0.0,1.0,3.m4v,5.0
2024-02-27 14:33:25.344627,1709040805.3446274,-1000.0,-1000.0,-34.66796875,-1000.0,1.0,1.0,0.0,1.0,3.m4v,5.0
2024-02-27 14:33:25.348533,1709040805.3485332,-1000.0,-956.54296875,-39.55078125,-1000.0,1.0,1.0,0.0,1.0,3.m4v,5.0
2024-02-27 14:33:25.352439,1709040805.3524387,-1000.0,-1000.0,-36.62109375,-1000.0,1.0,1.0,0.0,1.0,3.m4v,5.0
2024-02-27 14:33:25.356344,1709040805.3563442,-1000.0,-979.98046875,-40.0390625,-990.72265625,1.0,1.0,0.0,1.0,3.m4v,5.0
2024-02-27 14:33:25.360250,1709040805.36025,-940.4296875,393.06640625,-53.7109375,-958.984375,1.0,1.0,0.0,1.0,3.m4v,5.0
2024-02-27 14:33:25.364156,1709040805.3641555,-1000.0,999.51171875,-52.734375,-1000.0,1.0,1.0,0.0,1.0,3.m4v,5.0
2024-02-27 14:33:25.368061,1709040805.368061,-312.01171875,899.4140625,-42.48046875,-112.79296875,1.0,1.0,0.0,1.0,3.m4v,5.0
2024-02-27 14:33:25.371967,1709040805.3719668,974.609375,979.00390625,-42.96875,999.51171875,1.0,1.0,0.0,1.0,3.m4v,5.0
2024-02-27 14:33:25.375872,1709040805.3758724,975.09765625,969.7265625,-47.36328125,949.21875,1.0,1.0,0.0,1.0,3.m4v,5.0
2024-02-27 14:33:25.379778,1709040805.379778,933.10546875,969.7265625,-34.66796875,948.2421875,1.0,1.0,0.0,1.0,3.m4v,5.0
2024-02-27 14:33:25.383689,1709040805.383689,979.00390625,969.7265625,-24.4140625,976.07421875,1.0,1.0,0.0,1.0,3.m4v,5.0
2024-02-27 14:33:25.387594,1709040805.3875945,969.23828125,969.7265625,-22.4609375,969.7265625,1.0,1.0,0.0,1.0,3.m4v,5.0
2024-02-27 14:33:25.391500,1709040805.3915,969.23828125,969.7265625,-22.94921875,969.7265625,1.0,1.0,0.0,1.0,3.m4v,5.0
2024-02-27 14:33:25.395406,1709040805.3954058,969.23828125,969.7265625,-28.3203125,969.7265625,1.0,1.0,0.0,1.0,3.m4v,5.0
2024-02-27 14:33:25.399311,1709040805.3993113,969.23828125,969.7265625,-29.78515625,969.7265625,1.0,1.0,0.0,1.0,3.m4v,5.0
2024-02-27 14:33:25.403217,1709040805.4032168,968.75,969.7265625,-35.64453125,969.7265625,1.0,1.0,0.0,1.0,3.m4v,5.0
2024-02-27 14:33:25.407123,1709040805.4071226,985.3515625,986.328125,-44.921875,985.83984375,1.0,1.0,0.0,1.0,3.m4v,5.0
2024-02-27 14:33:25.411028,1709040805.411028,911.1328125,912.109375,-42.96875,909.66796875,1.0,1.0,0.0,1.0,3.m4v,5.0
2024-02-27 14:33:25.414934,1709040805.4149337,999.51171875,999.51171875,-31.25,999.51171875,1.0,1.0,0.0,1.0,3.m4v,5.0
2024-02-27 14:33:25.418839,1709040805.4188397,859.86328125,860.3515625,-24.4140625,804.19921875,1.0,1.0,0.0,1.0,3.m4v,5.0
2024-02-27 14:33:25.422745,1709040805.422745,-597.16796875,-597.16796875,-23.4375,-650.390625,1.0,1.0,0.0,1.0,3.m4v,5.0
2024-02-27 14:33:25.426651,1709040805.4266503,-1000.0,-1000.0,-22.94921875,-1000.0,1.0,1.0,0.0,1.0,3.m4v,5.0
2024-02-27 14:33:25.430563,1709040805.4305632,-925.78125,-925.78125,-30.76171875,-928.7109375,1.0,1.0,0.0,1.0,3.m4v,5.0
2024-02-27 14:33:25.434469,1709040805.4344687,-1000.0,-1000.0,-39.0625,-1000.0,1.0,1.0,0.0,1.0,3.m4v,5.0
2024-02-27 14:33:25.438375,1709040805.4383743,-1000.0,-1000.0,-31.25,-1000.0,1.0,1.0,0.0,1.0,3.m4v,5.0
2024-02-27 14:33:25.442280,1709040805.44228,-994.62890625,-939.453125,-30.2734375,-984.86328125,1.0,1.0,0.0,1.0,3.m4v,5.0
2024-02-27 14:33:25.446186,1709040805.4461856,-951.66015625,-1000.0,-35.15625,-969.7265625,1.0,1.0,0.0,1.0,3.m4v,5.0
2024-02-27 14:33:25.450091,1709040805.4500914,-1000.0,-825.68359375,-29.78515625,-1000.0,1.0,1.0,0.0,1.0,3.m4v,5.0
2024-02-27 14:33:25.453997,1709040805.453997,-169.921875,630.37109375,-30.76171875,-31.73828125,1.0,1.0,0.0,1.0,3.m4v,5.0
2024-02-27 14:33:25.457902,1709040805.4579024,999.51171875,999.51171875,-41.9921875,999.51171875,1.0,1.0,0.0,1.0,3.m4v,5.0
2024-02-27 14:33:25.461808,1709040805.4618082,954.58984375,898.4375,-34.1796875,942.87109375,1.0,1.0,0.0,1.0,3.m4v,5.0
2024-02-27 14:33:25.465714,1709040805.4657135,944.3359375,985.83984375,-27.83203125,952.63671875,1.0,1.0,0.0,1.0,3.m4v,5.0
2024-02-27 14:33:25.469619,1709040805.4696193,976.07421875,969.7265625,-27.83203125,975.09765625,1.0,1.0,0.0,1.0,3.m4v,5.0
2024-02-27 14:33:25.473525,1709040805.473525,969.23828125,969.7265625,-32.2265625,969.7265625,1.0,1.0,0.0,1.0,3.m4v,5.0
2024-02-27 14:33:25.477437,1709040805.4774373,969.23828125,969.7265625,-34.66796875,969.7265625,1.0,1.0,0.0,1.0,3.m4v,5.0
2024-02-27 14:33:25.481343,1709040805.481343,969.23828125,969.7265625,-41.50390625,969.7265625,1.0,1.0,0.0,1.0,3.m4v,5.0
2024-02-27 14:33:25.485249,1709040805.4852486,968.75,969.7265625,-42.96875,970.21484375,1.0,1.0,0.0,1.0,3.m4v,5.0
2024-02-27 14:33:25.489154,1709040805.489154,985.3515625,986.328125,-36.1328125,983.3984375,1.0,1.0,0.0,1.0,3.m4v,5.0
2024-02-27 14:33:25.493060,1709040805.49306,911.1328125,911.62109375,-46.38671875,911.62109375,1.0,1.0,0.0,1.0,3.m4v,5.0
2024-02-27 14:33:25.496965,1709040805.4969654,999.51171875,999.51171875,-57.6171875,999.51171875,1.0,1.0,0.0,1.0,3.m4v,5.0
2024-02-27 14:33:25.500871,1709040805.500871,859.86328125,855.95703125,-62.98828125,749.51171875,1.0,1.0,0.0,1.0,3.m4v,5.0
2024-02-27 14:33:25.504777,1709040805.5047767,-597.16796875,-603.02734375,-70.3125,-676.26953125,1.0,1.0,0.0,1.0,3.m4v,5.0
2024-02-27 14:33:25.508682,1709040805.5086825,-1000.0,-1000.0,-44.921875,-1000.0,1.0,1.0,0.0,1.0,3.m4v,5.0
2024-02-27 14:33:25.512588,1709040805.5125878,-925.78125,-925.78125,-28.80859375,-932.6171875,1.0,1.0,0.0,1.0,3.m4v,5.0
2024-02-27 14:33:25.516494,1709040805.5164936,-1000.0,-1000.0,-36.62109375,-1000.0,1.0,1.0,0.0,1.0,3.m4v,5.0
2024-02-27 14:33:25.520399,1709040805.520399,-1000.0,-1000.0,-32.2265625,-1000.0,1.0,1.0,0.0,1.0,3.m4v,5.0
2024-02-27 14:33:25.524311,1709040805.5243113,-1000.0,-1000.0,-33.203125,-1000.0,1.0,1.0,0.0,1.0,3.m4v,5.0
2024-02-27 14:33:25.528217,1709040805.5282168,-1000.0,-1000.0,-37.109375,-1000.0,1.0,1.0,0.0,1.0,3.m4v,5.0
2024-02-27 14:33:25.532122,1709040805.5321224,-1000.0,-1000.0,-33.69140625,-1000.0,1.0,1.0,0.0,1.0,3.m4v,5.0
2024-02-27 14:33:25.536028,1709040805.536028,-989.2578125,-941.40625,-45.41015625,-979.4921875,1.0,1.0,0.0,1.0,3.m4v,5.0
2024-02-27 14:33:25.539934,1709040805.5399337,-958.984375,-1000.0,-59.5703125,-976.07421875,1.0,1.0,0.0,1.0,3.m4v,5.0
2024-02-27 14:33:25.543839,1709040805.5438392,-1000.0,-878.41796875,-56.640625,-1000.0,1.0,1.0,0.0,1.0,3.m4v,5.0
2024-02-27 14:33:25.684460,1709040805.6844597,979.98046875,929.6875,-42.48046875,974.609375,1.0,1.0,0.0,1.0,3.m4v,5.0
2024-02-27 14:33:25.688365,1709040805.6883652,899.4140625,981.4453125,-44.43359375,908.203125,1.0,1.0,0.0,1.0,3.m4v,5.0
2024-02-27 14:33:25.692271,1709040805.692271,999.51171875,974.609375,-29.78515625,999.51171875,1.0,1.0,0.0,1.0,3.m4v,5.0
2024-02-27 14:33:25.696177,1709040805.6961763,464.35546875,-376.46484375,-26.3671875,352.05078125,1.0,1.0,0.0,1.0,3.m4v,5.0
2024-02-27 14:33:25.700082,1709040805.700082,-932.12890625,-1000.0,-32.2265625,-968.75,1.0,1.0,0.0,1.0,3.m4v,5.0
2024-02-27 14:33:25.703988,1709040805.7039878,-1000.0,-930.6640625,-33.203125,-1000.0,1.0,1.0,0.0,1.0,3.m4v,5.0
2024-02-27 14:33:25.707893,1709040805.7078934,-950.1953125,-1000.0,-32.2265625,-958.984375,1.0,1.0,0.0,1.0,3.m4v,5.0
2024-02-27 14:33:25.711805,1709040805.7118046,-1000.0,-1000.0,-23.4375,-1000.0,1.0,1.0,0.0,1.0,3.m4v,5.0
2024-02-27 14:33:25.715710,1709040805.7157102,-1000.0,-1000.0,-21.97265625,-1000.0,1.0,1.0,0.0,1.0,3.m4v,5.0
2024-02-27 14:33:25.719616,1709040805.7196157,-1000.0,-1000.0,-34.66796875,-1000.0,1.0,1.0,0.0,1.0,3.m4v,5.0
2024-02-27 14:33:25.723521,1709040805.7235217,-999.0234375,-937.5,-37.109375,-992.1875,1.0,1.0,0.0,1.0,3.m4v,5.0
2024-02-27 14:33:25.727427,1709040805.727427,-993.1640625,-1000.0,-37.109375,-1000.0,1.0,1.0,0.0,1.0,3.m4v,5.0
2024-02-27 14:33:25.731333,1709040805.7313323,-1000.0,-812.01171875,-39.0625,-981.93359375,1.0,1.0,0.0,1.0,3.m4v,5.0
2024-02-27 14:33:25.735238,1709040805.7352383,-842.7734375,650.390625,-34.66796875,-874.51171875,1.0,1.0,0.0,1.0,3.m4v,5.0
2024-02-27 14:33:25.739144,1709040805.7391438,-754.39453125,999.51171875,-31.25,-894.04296875,1.0,1.0,0.0,1.0,3.m4v,5.0
2024-02-27 14:33:25.743049,1709040805.7430494,-1000.0,899.4140625,-33.203125,-1000.0,1.0,1.0,0.0,1.0,3.m4v,5.0
2024-02-27 14:33:25.754766,1709040805.7547662,999.51171875,969.7265625,-45.41015625,999.51171875,1.0,1.0,0.0,1.0,3.m4v,5.0
2024-02-27 14:33:25.766489,1709040805.7664888,968.75,969.7265625,-40.0390625,969.7265625,1.0,1.0,0.0,1.0,3.m4v,5.0
2024-02-27 14:33:25.778206,1709040805.7782056,969.23828125,969.7265625,-39.55078125,969.7265625,1.0,1.0,0.0,1.0,3.m4v,5.0
2024-02-27 14:33:25.789922,1709040805.7899225,921.38671875,916.50390625,-33.203125,916.9921875,1.0,1.0,0.0,1.0,3.m4v,5.0
2024-02-27 14:33:25.801639,1709040805.8016393,-472.16796875,-537.59765625,-46.875,-536.1328125,1.0,1.0,0.0,1.0,3.m4v,5.0
2024-02-27 14:33:25.813363,1709040805.8133633,-1000.0,-1000.0,-38.57421875,-1000.0,1.0,1.0,0.0,1.0,3.m4v,5.0
2024-02-27 14:33:25.946173,1709040805.9461734,-927.734375,-925.78125,-33.203125,-927.24609375,1.0,1.0,0.0,1.0,3.m4v,5.0
2024-02-27 14:33:25.950079,1709040805.9500792,-1000.0,-1000.0,-33.69140625,-1000.0,1.0,1.0,0.0,1.0,3.m4v,5.0
2024-02-27 14:33:25.953985,1709040805.9539847,-1000.0,-1000.0,-37.59765625,-1000.0,1.0,1.0,0.0,1.0,3.m4v,5.0
2024-02-27 14:33:25.957890,1709040805.9578905,-1000.0,-1000.0,-36.62109375,-1000.0,1.0,1.0,0.0,1.0,3.m4v,5.0
2024-02-27 14:33:25.961796,1709040805.961796,-1000.0,-1000.0,-41.015625,-1000.0,1.0,1.0,0.0,1.0,3.m4v,5.0
2024-02-27 14:33:25.965702,1709040805.9657016,-1000.0,-1000.0,-52.24609375,-1000.0,1.0,1.0,0.0,1.0,3.m4v,5.0
2024-02-27 14:33:25.969607,1709040805.969607,-1000.0,-1000.0,-46.38671875,-1000.0,1.0,1.0,0.0,1.0,3.m4v,5.0
2024-02-27 14:33:25.973513,1709040805.973513,-1000.0,-1000.0,-37.109375,-1000.0,1.0,1.0,0.0,1.0,3.m4v,5.0
2024-02-27 14:33:25.977418,1709040805.9774184,-1000.0,-1000.0,-47.36328125,-1000.0,1.0,1.0,0.0,1.0,3.m4v,5.0
2024-02-27 14:33:25.981324,1709040805.9813242,-937.01171875,-929.19921875,-41.015625,-934.08203125,1.0,1.0,0.0,1.0,3.m4v,5.0
2024-02-27 14:33:25.985230,1709040805.9852295,-1000.0,-1000.0,-23.4375,-1000.0,1.0,1.0,0.0,1.0,3.m4v,5.0
2024-02-27 14:33:25.989135,1709040805.9891353,-832.51953125,-665.52734375,-20.5078125,-767.08984375,1.0,1.0,0.0,1.0,3.m4v,5.0
2024-02-27 14:33:25.993047,1709040805.9930472,639.16015625,796.38671875,-30.2734375,701.66015625,1.0,1.0,0.0,1.0,3.m4v,5.0
2024-02-27 14:33:25.996953,1709040805.9969528,999.51171875,999.51171875,-35.15625,999.51171875,1.0,1.0,0.0,1.0,3.m4v,5.0
2024-02-27 14:33:26.000858,1709040806.0008583,896.484375,907.2265625,-36.62109375,900.87890625,1.0,1.0,0.0,1.0,3.m4v,5.0
2024-02-27 14:33:26.004764,1709040806.004764,986.328125,986.81640625,-41.015625,986.81640625,1.0,1.0,0.0,1.0,3.m4v,5.0
2024-02-27 14:33:26.008670,1709040806.0086696,969.23828125,969.7265625,-37.59765625,969.7265625,1.0,1.0,0.0,1.0,3.m4v,5.0
2024-02-27 14:33:26.012575,1709040806.0125751,969.23828125,969.7265625,-38.0859375,969.7265625,1.0,1.0,0.0,1.0,3.m4v,5.0
2024-02-27 14:33:26.016481,1709040806.016481,969.23828125,969.7265625,-34.1796875,969.7265625,1.0,1.0,0.0,1.0,3.m4v,5.0
2024-02-27 14:33:26.020386,1709040806.0203865,968.75,969.7265625,-30.76171875,969.7265625,1.0,1.0,0.0,1.0,3.m4v,5.0
2024-02-27 14:33:26.024292,1709040806.024292,969.23828125,969.7265625,-36.62109375,969.7265625,1.0,1.0,0.0,1.0,3.m4v,5.0
2024-02-27 14:33:26.028198,1709040806.0281978,969.23828125,969.7265625,-37.109375,969.7265625,1.0,1.0,0.0,1.0,3.m4v,5.0
2024-02-27 14:33:26.032103,1709040806.0321033,969.23828125,969.7265625,-32.71484375,969.7265625,1.0,1.0,0.0,1.0,3.m4v,5.0
2024-02-27 14:33:26.036009,1709040806.0360088,969.23828125,969.7265625,-28.80859375,969.7265625,1.0,1.0,0.0,1.0,3.m4v,5.0
2024-02-27 14:33:26.039920,1709040806.0399203,969.23828125,972.65625,-27.83203125,969.7265625,1.0,1.0,0.0,1.0,3.m4v,5.0
2024-02-27 14:33:26.043826,1709040806.043826,986.328125,965.33203125,-30.76171875,986.328125,1.0,1.0,0.0,1.0,3.m4v,5.0
2024-02-27 14:33:26.047732,1709040806.0477316,897.94921875,920.41015625,-32.71484375,899.4140625,1.0,1.0,0.0,1.0,3.m4v,5.0
2024-02-27 14:33:26.051637,1709040806.0516372,999.51171875,999.51171875,-25.390625,999.51171875,1.0,1.0,0.0,1.0,3.m4v,5.0
2024-02-27 14:33:26.055543,1709040806.0555427,677.24609375,176.26953125,-22.94921875,652.83203125,1.0,1.0,0.0,1.0,3.m4v,5.0
2024-02-27 14:33:26.059448,1709040806.0594485,-799.8046875,-1000.0,-26.85546875,-811.03515625,1.0,1.0,0.0,1.0,3.m4v,5.0
2024-02-27 14:33:26.063354,1709040806.063354,-1000.0,-993.1640625,-26.3671875,-1000.0,1.0,1.0,0.0,1.0,3.m4v,5.0
2024-02-27 14:33:26.067260,1709040806.0672596,-934.5703125,-972.16796875,-35.64453125,-936.5234375,1.0,1.0,0.0,1.0,3.m4v,5.0
2024-02-27 14:33:26.071165,1709040806.071165,-1000.0,-1000.0,-33.203125,-1000.0,1.0,1.0,0.0,1.0,3.m4v,5.0
2024-02-27 14:33:26.075071,1709040806.0750709,-1000.0,-1000.0,-29.78515625,-1000.0,1.0,1.0,0.0,1.0,3.m4v,5.0
2024-02-27 14:33:26.078976,1709040806.0789764,-1000.0,-1000.0,-30.2734375,-1000.0,1.0,1.0,0.0,1.0,3.m4v,5.0
2024-02-27 14:33:26.082882,1709040806.0828822,-1000.0,-1000.0,-26.85546875,-1000.0,1.0,1.0,0.0,1.0,3.m4v,5.0
2024-02-27 14:33:26.086793,1709040806.0867932,-1000.0,-1000.0,-28.80859375,-1000.0,1.0,1.0,0.0,1.0,3.m4v,5.0
2024-02-27 14:33:26.090699,1709040806.090699,-1000.0,-1000.0,-33.69140625,-1000.0,1.0,1.0,0.0,1.0,3.m4v,5.0
2024-02-27 14:33:26.094604,1709040806.0946045,-1000.0,-962.40234375,-34.66796875,-1000.0,1.0,1.0,0.0,1.0,3.m4v,5.0
2024-02-27 14:33:26.098510,1709040806.09851,-927.734375,-1000.0,-34.66796875,-933.59375,1.0,1.0,0.0,1.0,3.m4v,5.0
2024-02-27 14:33:26.102416,1709040806.1024158,-1000.0,-1000.0,-39.55078125,-1000.0,1.0,1.0,0.0,1.0,3.m4v,5.0
2024-02-27 14:33:26.106321,1709040806.106321,-624.51171875,317.87109375,-37.59765625,-498.53515625,1.0,1.0,0.0,1.0,3.m4v,5.0
2024-02-27 14:33:26.110227,1709040806.1102269,831.0546875,999.51171875,-32.71484375,886.23046875,1.0,1.0,0.0,1.0,3.m4v,5.0
2024-02-27 14:33:26.114133,1709040806.1141326,999.51171875,900.87890625,-31.25,999.51171875,1.0,1.0,0.0,1.0,3.m4v,5.0
2024-02-27 14:33:26.118038,1709040806.1180382,909.1796875,976.5625,-38.0859375,919.43359375,1.0,1.0,0.0,1.0,3.m4v,5.0
2024-02-27 14:33:26.121944,1709040806.1219437,985.3515625,969.7265625,-45.41015625,983.88671875,1.0,1.0,0.0,1.0,3.m4v,5.0
2024-02-27 14:33:26.125849,1709040806.1258495,969.23828125,969.7265625,-31.25,970.21484375,1.0,1.0,0.0,1.0,3.m4v,5.0
2024-02-27 14:33:26.129755,1709040806.129755,969.23828125,970.21484375,-19.04296875,969.7265625,1.0,1.0,0.0,1.0,3.m4v,5.0
2024-02-27 14:33:26.133668,1709040806.1336677,969.23828125,969.7265625,-24.4140625,969.7265625,1.0,1.0,0.0,1.0,3.m4v,5.0
2024-02-27 14:33:26.137573,1709040806.1375737,969.23828125,969.7265625,-31.25,969.7265625,1.0,1.0,0.0,1.0,3.m4v,5.0
2024-02-27 14:33:26.141479,1709040806.141479,969.23828125,970.21484375,-36.1328125,969.7265625,1.0,1.0,0.0,1.0,3.m4v,5.0
2024-02-27 14:33:26.145385,1709040806.1453846,982.421875,983.88671875,-32.2265625,984.86328125,1.0,1.0,0.0,1.0,3.m4v,5.0
2024-02-27 14:33:26.149290,1709040806.1492903,922.36328125,919.921875,-22.4609375,916.9921875,1.0,1.0,0.0,1.0,3.m4v,5.0
2024-02-27 14:33:26.153196,1709040806.153196,995.1171875,999.51171875,-19.04296875,999.51171875,1.0,1.0,0.0,1.0,3.m4v,5.0
2024-02-27 14:33:26.157101,1709040806.1571014,940.91796875,919.43359375,-20.5078125,895.99609375,1.0,1.0,0.0,1.0,3.m4v,5.0
2024-02-27 14:33:26.161007,1709040806.1610072,-460.44921875,-498.53515625,-31.73828125,-537.59765625,1.0,1.0,0.0,1.0,3.m4v,5.0
2024-02-27 14:33:26.164913,1709040806.1649127,-1000.0,-1000.0,-40.52734375,-1000.0,1.0,1.0,0.0,1.0,3.m4v,5.0
2024-02-27 14:33:26.168818,1709040806.1688182,-926.7578125,-926.26953125,-36.1328125,-925.78125,1.0,1.0,0.0,1.0,3.m4v,5.0
2024-02-27 14:33:26.172724,1709040806.172724,-1000.0,-1000.0,-39.55078125,-1000.0,1.0,1.0,0.0,1.0,3.m4v,5.0
2024-02-27 14:33:26.176630,1709040806.1766295,-1000.0,-1000.0,-34.1796875,-1000.0,1.0,1.0,0.0,1.0,3.m4v,5.0
2024-02-27 14:33:26.180542,1709040806.180542,-1000.0,-1000.0,-24.4140625,-1000.0,1.0,1.0,0.0,1.0,3.m4v,5.0
2024-02-27 14:33:26.184448,1709040806.1844478,-1000.0,-1000.0,-29.78515625,-1000.0,1.0,1.0,0.0,1.0,3.m4v,5.0
2024-02-27 14:33:26.188353,1709040806.1883533,-1000.0,-968.75,-25.390625,-1000.0,1.0,1.0,0.0,1.0,3.m4v,5.0
2024-02-27 14:33:26.192259,1709040806.1922588,-1000.0,-994.140625,-28.80859375,-1000.0,1.0,1.0,0.0,1.0,3.m4v,5.0
2024-02-27 14:33:26.196165,1709040806.1961646,-1000.0,-1000.0,-41.9921875,-1000.0,1.0,1.0,0.0,1.0,3.m4v,5.0
2024-02-27 14:33:26.200070,1709040806.20007,-927.734375,231.93359375,-38.0859375,-938.4765625,1.0,1.0,0.0,1.0,3.m4v,5.0
2024-02-27 14:33:26.203976,1709040806.2039757,-1000.0,999.51171875,-33.69140625,-1000.0,1.0,1.0,0.0,1.0,3.m4v,5.0
2024-02-27 14:33:26.207881,1709040806.2078817,-630.37109375,907.71484375,-37.109375,-430.6640625,1.0,1.0,0.0,1.0,3.m4v,5.0
2024-02-27 14:33:26.211787,1709040806.211787,827.1484375,971.6796875,-33.69140625,909.1796875,1.0,1.0,0.0,1.0,3.m4v,5.0
2024-02-27 14:33:26.215693,1709040806.2156923,999.51171875,970.703125,-29.296875,999.0234375,1.0,1.0,0.0,1.0,3.m4v,5.0
2024-02-27 14:33:26.219598,1709040806.2195983,909.1796875,969.7265625,-28.80859375,924.31640625,1.0,1.0,0.0,1.0,3.m4v,5.0
2024-02-27 14:33:26.223504,1709040806.2235038,985.83984375,969.7265625,-36.62109375,982.421875,1.0,1.0,0.0,1.0,3.m4v,5.0
2024-02-27 14:33:26.227420,1709040806.22742,968.75,969.7265625,-43.45703125,969.7265625,1.0,1.0,0.0,1.0,3.m4v,5.0
2024-02-27 14:33:26.231326,1709040806.2313256,968.75,969.7265625,-30.2734375,969.7265625,1.0,1.0,0.0,1.0,3.m4v,5.0
2024-02-27 14:33:26.235231,1709040806.2352312,969.23828125,969.7265625,-22.94921875,969.7265625,1.0,1.0,0.0,1.0,3.m4v,5.0
2024-02-27 14:33:26.239137,1709040806.2391367,969.23828125,969.7265625,-33.203125,969.7265625,1.0,1.0,0.0,1.0,3.m4v,5.0
2024-02-27 14:33:26.243042,1709040806.2430425,969.23828125,969.7265625,-36.1328125,969.7265625,1.0,1.0,0.0,1.0,3.m4v,5.0
2024-02-27 14:33:26.246948,1709040806.246948,985.3515625,986.328125,-28.80859375,985.83984375,1.0,1.0,0.0,1.0,3.m4v,5.0
2024-02-27 14:33:26.250854,1709040806.2508535,911.1328125,911.1328125,-29.78515625,908.203125,1.0,1.0,0.0,1.0,3.m4v,5.0
2024-02-27 14:33:26.254759,1709040806.2547593,999.51171875,999.51171875,-29.296875,999.51171875,1.0,1.0,0.0,1.0,3.m4v,5.0
2024-02-27 14:33:26.258665,1709040806.2586648,859.86328125,851.5625,-22.4609375,797.36328125,1.0,1.0,0.0,1.0,3.m4v,5.0
2024-02-27 14:33:26.262570,1709040806.2625704,-597.16796875,-607.91015625,-25.87890625,-661.1328125,1.0,1.0,0.0,1.0,3.m4v,5.0
2024-02-27 14:33:26.266476,1709040806.2664762,-1000.0,-1000.0,-34.1796875,-1000.0,1.0,1.0,0.0,1.0,3.m4v,5.0
2024-02-27 14:33:26.270382,1709040806.2703817,-925.78125,-925.78125,-28.3203125,-928.7109375,1.0,1.0,0.0,1.0,3.m4v,5.0
2024-02-27 14:33:26.274294,1709040806.274294,-1000.0,-1000.0,-31.73828125,-1000.0,1.0,1.0,0.0,1.0,3.m4v,5.0
2024-02-27 14:33:26.278200,1709040806.2781997,-1000.0,-1000.0,-33.203125,-1000.0,1.0,1.0,0.0,1.0,3.m4v,5.0
2024-02-27 14:33:26.282105,1709040806.2821052,-1000.0,-1000.0,-21.97265625,-1000.0,1.0,1.0,0.0,1.0,3.m4v,5.0
2024-02-27 14:33:26.286011,1709040806.2860107,-1000.0,-1000.0,-20.99609375,-1000.0,1.0,1.0,0.0,1.0,3.m4v,5.0
2024-02-27 14:33:26.289917,1709040806.2899165,-1000.0,-1000.0,-32.2265625,-1000.0,1.0,1.0,0.0,1.0,3.m4v,5.0
2024-02-27 14:33:26.293822,1709040806.293822,-1000.0,-1000.0,-26.3671875,-1000.0,1.0,1.0,0.0,1.0,3.m4v,5.0
2024-02-27 14:33:26.297728,1709040806.2977276,-1000.0,-1000.0,-20.01953125,-1000.0,1.0,1.0,0.0,1.0,3.m4v,5.0
2024-02-27 14:33:26.301633,1709040806.3016334,-1000.0,-1000.0,-29.78515625,-1000.0,1.0,1.0,0.0,1.0,3.m4v,5.0
2024-02-27 14:33:26.305539,1709040806.305539,-1000.0,-1000.0,-27.34375,-1000.0,1.0,1.0,0.0,1.0,3.m4v,5.0
2024-02-27 14:33:26.309444,1709040806.3094444,-1000.0,-1000.0,-21.97265625,-1000.0,1.0,1.0,0.0,1.0,3.m4v,5.0
2024-02-27 14:33:26.313350,1709040806.3133502,-1000.0,-1000.0,-24.90234375,-1000.0,1.0,1.0,0.0,1.0,3.m4v,5.0
2024-02-27 14:33:26.317256,1709040806.3172555,-1000.0,-1000.0,-37.59765625,-990.234375,1.0,1.0,0.0,1.0,3.m4v,5.0
2024-02-27 14:33:26.321168,1709040806.3211677,-939.453125,-939.453125,-38.0859375,-959.9609375,1.0,1.0,0.0,1.0,3.m4v,5.0
2024-02-27 14:33:26.325073,1709040806.3250732,-1000.0,-1000.0,-33.69140625,-1000.0,1.0,1.0,0.0,1.0,3.m4v,5.0
2024-02-27 14:33:26.328979,1709040806.3289788,-322.265625,-324.21875,-36.1328125,-107.91015625,1.0,1.0,0.0,1.0,3.m4v,5.0
2024-02-27 14:33:26.332885,1709040806.3328846,971.6796875,971.6796875,-39.0625,999.51171875,1.0,1.0,0.0,1.0,3.m4v,5.0
2024-02-27 14:33:26.336790,1709040806.33679,976.5625,977.5390625,-43.9453125,949.70703125,1.0,1.0,0.0,1.0,3.m4v,5.0
2024-02-27 14:33:26.340696,1709040806.340696,932.6171875,933.10546875,-41.015625,948.2421875,1.0,1.0,0.0,1.0,3.m4v,5.0
2024-02-27 14:33:26.344601,1709040806.3446014,979.00390625,979.98046875,-30.2734375,976.07421875,1.0,1.0,0.0,1.0,3.m4v,5.0
2024-02-27 14:33:26.348507,1709040806.348507,969.23828125,969.7265625,-24.4140625,969.7265625,1.0,1.0,0.0,1.0,3.m4v,5.0
2024-02-27 14:33:26.352413,1709040806.3524127,969.23828125,969.7265625,-24.90234375,969.7265625,1.0,1.0,0.0,1.0,3.m4v,5.0
2024-02-27 14:33:26.356318,1709040806.3563182,968.75,969.7265625,-36.1328125,969.7265625,1.0,1.0,0.0,1.0,3.m4v,5.0
2024-02-27 14:33:26.360224,1709040806.3602238,969.23828125,969.7265625,-42.48046875,969.7265625,1.0,1.0,0.0,1.0,3.m4v,5.0
2024-02-27 14:33:26.364130,1709040806.3641295,969.23828125,969.7265625,-31.73828125,969.7265625,1.0,1.0,0.0,1.0,3.m4v,5.0
2024-02-27 14:33:26.368041,1709040806.368041,969.23828125,970.21484375,-29.296875,969.7265625,1.0,1.0,0.0,1.0,3.m4v,5.0
2024-02-27 14:33:26.371947,1709040806.3719466,971.6796875,984.375,-24.90234375,969.7265625,1.0,1.0,0.0,1.0,3.m4v,5.0
2024-02-27 14:33:26.375852,1709040806.3758523,971.6796875,909.66796875,-19.04296875,971.6796875,1.0,1.0,0.0,1.0,3.m4v,5.0
2024-02-27 14:33:26.379758,1709040806.379758,919.921875,999.51171875,-30.2734375,975.09765625,1.0,1.0,0.0,1.0,3.m4v,5.0
2024-02-27 14:33:26.383664,1709040806.3836637,999.51171875,747.55859375,-29.78515625,911.62109375,1.0,1.0,0.0,1.0,3.m4v,5.0
2024-02-27 14:33:26.387569,1709040806.3875692,442.3828125,-690.4296875,-21.484375,999.51171875,1.0,1.0,0.0,1.0,3.m4v,5.0
2024-02-27 14:33:26.391475,1709040806.3914747,-849.609375,-1000.0,-20.01953125,397.94921875,1.0,1.0,0.0,1.0,3.m4v,5.0
2024-02-27 14:33:26.395380,1709040806.3953805,-1000.0,-932.12890625,-28.3203125,-926.26953125,1.0,1.0,0.0,1.0,3.m4v,5.0
2024-02-27 14:33:26.399286,1709040806.399286,-952.63671875,-1000.0,-28.80859375,-1000.0,1.0,1.0,0.0,1.0,3.m4v,5.0
2024-02-27 14:33:26.403192,1709040806.4031916,-1000.0,-1000.0,-34.66796875,-955.078125,1.0,1.0,0.0,1.0,3.m4v,5.0
2024-02-27 14:33:26.407097,1709040806.407097,-1000.0,-1000.0,-39.0625,-1000.0,1.0,1.0,0.0,1.0,3.m4v,5.0
2024-02-27 14:33:26.411003,1709040806.4110029,-1000.0,-1000.0,-33.69140625,-1000.0,1.0,1.0,0.0,1.0,3.m4v,5.0
2024-02-27 14:33:26.414914,1709040806.4149144,-1000.0,-1000.0,-44.921875,-1000.0,1.0,1.0,0.0,1.0,3.m4v,5.0
2024-02-27 14:33:26.418820,1709040806.41882,-1000.0,-1000.0,-47.8515625,-1000.0,1.0,1.0,0.0,1.0,3.m4v,5.0
2024-02-27 14:33:26.422726,1709040806.4227257,-1000.0,-1000.0,-38.0859375,-1000.0,1.0,1.0,0.0,1.0,3.m4v,5.0
2024-02-27 14:33:26.426631,1709040806.4266312,-982.421875,-932.12890625,-25.390625,-1000.0,1.0,1.0,0.0,1.0,3.m4v,5.0
2024-02-27 14:33:26.430537,1709040806.430537,-976.5625,-1000.0,-20.01953125,-978.515625,1.0,1.0,0.0,1.0,3.m4v,5.0
2024-02-27 14:33:26.434443,1709040806.4344423,-1000.0,-718.75,-18.06640625,-980.46875,1.0,1.0,0.0,1.0,3.m4v,5.0
2024-02-27 14:33:26.438348,1709040806.438348,-6.8359375,746.09375,-21.484375,-1000.0,1.0,1.0,0.0,1.0,3.m4v,5.0
2024-02-27 14:33:26.442254,1709040806.4422538,999.51171875,999.51171875,-29.78515625,70.3125,1.0,1.0,0.0,1.0,3.m4v,5.0
2024-02-27 14:33:26.446159,1709040806.4461594,943.359375,904.296875,-31.73828125,999.51171875,1.0,1.0,0.0,1.0,3.m4v,5.0
2024-02-27 14:33:26.450065,1709040806.450065,952.63671875,986.81640625,-32.2265625,930.6640625,1.0,1.0,0.0,1.0,3.m4v,5.0
2024-02-27 14:33:26.453971,1709040806.453971,975.09765625,969.7265625,-42.96875,959.47265625,1.0,1.0,0.0,1.0,3.m4v,5.0
2024-02-27 14:33:26.457876,1709040806.4578762,969.23828125,969.7265625,-41.9921875,973.6328125,1.0,1.0,0.0,1.0,3.m4v,5.0
2024-02-27 14:33:26.461787,1709040806.4617872,968.75,969.7265625,-27.34375,969.7265625,1.0,1.0,0.0,1.0,3.m4v,5.0
2024-02-27 14:33:26.465693,1709040806.465693,969.23828125,969.7265625,-22.94921875,969.7265625,1.0,1.0,0.0,1.0,3.m4v,5.0
2024-02-27 14:33:26.469599,1709040806.4695983,969.23828125,969.7265625,-22.94921875,969.7265625,1.0,1.0,0.0,1.0,3.m4v,5.0
2024-02-27 14:33:26.473504,1709040806.473504,969.23828125,969.7265625,-27.34375,969.7265625,1.0,1.0,0.0,1.0,3.m4v,5.0
2024-02-27 14:33:26.477410,1709040806.4774098,969.23828125,969.7265625,-39.55078125,969.7265625,1.0,1.0,0.0,1.0,3.m4v,5.0
2024-02-27 14:33:26.481315,1709040806.4813154,969.7265625,977.5390625,-48.33984375,970.703125,1.0,1.0,0.0,1.0,3.m4v,5.0
2024-02-27 14:33:26.485221,1709040806.485221,980.95703125,941.40625,-48.828125,977.5390625,1.0,1.0,0.0,1.0,3.m4v,5.0
2024-02-27 14:33:26.489127,1709040806.4891267,898.92578125,958.984375,-44.921875,904.78515625,1.0,1.0,0.0,1.0,3.m4v,5.0
2024-02-27 14:33:26.493032,1709040806.4930322,999.51171875,999.51171875,-36.1328125,999.51171875,1.0,1.0,0.0,1.0,3.m4v,5.0
2024-02-27 14:33:26.496938,1709040806.4969378,478.02734375,-215.33203125,-33.203125,404.296875,1.0,1.0,0.0,1.0,3.m4v,5.0
2024-02-27 14:33:26.500844,1709040806.5008435,-925.78125,-1000.0,-41.9921875,-950.68359375,1.0,1.0,0.0,1.0,3.m4v,5.0
2024-02-27 14:33:26.504749,1709040806.504749,-1000.0,-944.3359375,-43.9453125,-1000.0,1.0,1.0,0.0,1.0,3.m4v,5.0
2024-02-27 14:33:26.508662,1709040806.5086615,-949.21875,-999.0234375,-38.57421875,-955.078125,1.0,1.0,0.0,1.0,3.m4v,5.0
2024-02-27 14:33:26.512568,1709040806.5125675,-1000.0,-1000.0,-34.1796875,-1000.0,1.0,1.0,0.0,1.0,3.m4v,5.0
2024-02-27 14:33:26.516473,1709040806.516473,-1000.0,-1000.0,-36.62109375,-1000.0,1.0,1.0,0.0,1.0,3.m4v,5.0
2024-02-27 14:33:26.520379,1709040806.5203786,-1000.0,-1000.0,-47.36328125,-1000.0,1.0,1.0,0.0,1.0,3.m4v,5.0
2024-02-27 14:33:26.524284,1709040806.5242844,-1000.0,-1000.0,-38.57421875,-1000.0,1.0,1.0,0.0,1.0,3.m4v,5.0
2024-02-27 14:33:26.528190,1709040806.52819,-1000.0,-1000.0,-32.71484375,-1000.0,1.0,1.0,0.0,1.0,3.m4v,5.0
2024-02-27 14:33:26.532095,1709040806.5320954,-1000.0,-1000.0,-37.59765625,-1000.0,1.0,1.0,0.0,1.0,3.m4v,5.0
2024-02-27 14:33:26.536001,1709040806.5360012,-1000.0,-1000.0,-45.41015625,-1000.0,1.0,1.0,0.0,1.0,3.m4v,5.0
2024-02-27 14:33:26.539907,1709040806.5399067,-1000.0,-1000.0,-41.9921875,-1000.0,1.0,1.0,0.0,1.0,3.m4v,5.0
2024-02-27 14:33:26.543812,1709040806.5438125,-939.94140625,-940.91796875,-41.50390625,-947.75390625,1.0,1.0,0.0,1.0,3.m4v,5.0
2024-02-27 14:33:26.547718,1709040806.547718,-1000.0,-1000.0,-46.875,-1000.0,1.0,1.0,0.0,1.0,3.m4v,5.0
2024-02-27 14:33:26.551624,1709040806.5516236,-861.328125,-875.0,-37.109375,-616.69921875,1.0,1.0,0.0,1.0,3.m4v,5.0
2024-02-27 14:33:26.555536,1709040806.555536,603.515625,586.9140625,-36.1328125,736.81640625,1.0,1.0,0.0,1.0,3.m4v,5.0
2024-02-27 14:33:26.657095,1709040806.6570954,999.51171875,999.51171875,-31.25,999.51171875,1.0,1.0,0.0,1.0,3.m4v,5.0
2024-02-27 14:33:26.661001,1709040806.661001,895.01953125,900.390625,-26.85546875,900.87890625,1.0,1.0,0.0,1.0,3.m4v,5.0
2024-02-27 14:33:26.664907,1709040806.6649065,985.83984375,987.3046875,-27.34375,986.328125,1.0,1.0,0.0,1.0,3.m4v,5.0
2024-02-27 14:33:26.668812,1709040806.6688125,969.23828125,970.21484375,-28.80859375,969.7265625,1.0,1.0,0.0,1.0,3.m4v,5.0
2024-02-27 14:33:26.672718,1709040806.6727178,969.23828125,969.7265625,-37.59765625,969.7265625,1.0,1.0,0.0,1.0,3.m4v,5.0
2024-02-27 14:33:26.676623,1709040806.676623,969.23828125,969.7265625,-42.96875,969.7265625,1.0,1.0,0.0,1.0,3.m4v,5.0
2024-02-27 14:33:26.680529,1709040806.680529,969.23828125,969.7265625,-42.96875,969.7265625,1.0,1.0,0.0,1.0,3.m4v,5.0
2024-02-27 14:33:26.684435,1709040806.684435,968.75,969.7265625,-40.0390625,969.7265625,1.0,1.0,0.0,1.0,3.m4v,5.0
2024-02-27 14:33:26.688340,1709040806.6883402,983.3984375,986.328125,-25.87890625,984.86328125,1.0,1.0,0.0,1.0,3.m4v,5.0
2024-02-27 14:33:26.692246,1709040806.692246,917.96875,912.109375,-24.90234375,916.9921875,1.0,1.0,0.0,1.0,3.m4v,5.0
2024-02-27 14:33:26.696158,1709040806.696158,999.51171875,999.51171875,-24.90234375,999.51171875,1.0,1.0,0.0,1.0,3.m4v,5.0
2024-02-27 14:33:26.700063,1709040806.7000637,909.66796875,860.3515625,-19.53125,891.11328125,1.0,1.0,0.0,1.0,3.m4v,5.0
2024-02-27 14:33:26.703969,1709040806.703969,-515.625,-597.16796875,-27.34375,-540.0390625,1.0,1.0,0.0,1.0,3.m4v,5.0
2024-02-27 14:33:26.707875,1709040806.7078748,-1000.0,-1000.0,-32.71484375,-1000.0,1.0,1.0,0.0,1.0,3.m4v,5.0
2024-02-27 14:33:26.711780,1709040806.7117803,-925.78125,-925.78125,-26.85546875,-926.26953125,1.0,1.0,0.0,1.0,3.m4v,5.0
2024-02-27 14:33:26.715686,1709040806.7156858,-1000.0,-1000.0,-34.1796875,-1000.0,1.0,1.0,0.0,1.0,3.m4v,5.0
2024-02-27 14:33:26.719592,1709040806.7195916,-1000.0,-1000.0,-37.109375,-1000.0,1.0,1.0,0.0,1.0,3.m4v,5.0
2024-02-27 14:33:26.723497,1709040806.7234972,-1000.0,-1000.0,-24.90234375,-1000.0,1.0,1.0,0.0,1.0,3.m4v,5.0
2024-02-27 14:33:26.727403,1709040806.7274027,-1000.0,-1000.0,-25.87890625,-1000.0,1.0,1.0,0.0,1.0,3.m4v,5.0
2024-02-27 14:33:26.731308,1709040806.7313085,-1000.0,-1000.0,-28.3203125,-1000.0,1.0,1.0,0.0,1.0,3.m4v,5.0
2024-02-27 14:33:26.735214,1709040806.735214,-1000.0,-1000.0,-27.34375,-1000.0,1.0,1.0,0.0,1.0,3.m4v,5.0
2024-02-27 14:33:26.739120,1709040806.7391195,-1000.0,-1000.0,-31.25,-1000.0,1.0,1.0,0.0,1.0,3.m4v,5.0
2024-02-27 14:33:26.743032,1709040806.7430315,-934.08203125,-933.59375,-30.76171875,-942.87109375,1.0,1.0,0.0,1.0,3.m4v,5.0
2024-02-27 14:33:26.746937,1709040806.746937,-1000.0,-1000.0,-27.34375,-1000.0,1.0,1.0,0.0,1.0,3.m4v,5.0
2024-02-27 14:33:26.750843,1709040806.7508426,-790.0390625,-784.66796875,-29.296875,-530.76171875,1.0,1.0,0.0,1.0,3.m4v,5.0
2024-02-27 14:33:26.754748,1709040806.7547483,688.4765625,693.84765625,-32.71484375,822.75390625,1.0,1.0,0.0,1.0,3.m4v,5.0
2024-02-27 14:33:26.758654,1709040806.758654,999.51171875,999.51171875,-32.71484375,999.51171875,1.0,1.0,0.0,1.0,3.m4v,5.0
2024-02-27 14:33:26.762559,1709040806.7625594,898.4375,899.4140625,-31.25,917.48046875,1.0,1.0,0.0,1.0,3.m4v,5.0
2024-02-27 14:33:26.766465,1709040806.7664652,986.328125,987.3046875,-33.69140625,983.3984375,1.0,1.0,0.0,1.0,3.m4v,5.0
2024-02-27 14:33:26.770371,1709040806.7703707,968.75,969.7265625,-33.69140625,969.7265625,1.0,1.0,0.0,1.0,3.m4v,5.0
2024-02-27 14:33:26.774276,1709040806.7742765,968.75,969.7265625,-29.296875,969.7265625,1.0,1.0,0.0,1.0,3.m4v,5.0
2024-02-27 14:33:26.778182,1709040806.778182,968.75,969.7265625,-33.69140625,969.7265625,1.0,1.0,0.0,1.0,3.m4v,5.0
2024-02-27 14:33:26.782088,1709040806.7820876,968.75,969.7265625,-38.57421875,969.7265625,1.0,1.0,0.0,1.0,3.m4v,5.0
2024-02-27 14:33:26.785993,1709040806.785993,969.23828125,969.7265625,-41.015625,969.7265625,1.0,1.0,0.0,1.0,3.m4v,5.0
2024-02-27 14:33:26.789905,1709040806.7899046,968.75,969.7265625,-37.59765625,969.7265625,1.0,1.0,0.0,1.0,3.m4v,5.0
2024-02-27 14:33:26.793810,1709040806.79381,969.23828125,969.7265625,-41.50390625,970.21484375,1.0,1.0,0.0,1.0,3.m4v,5.0
2024-02-27 14:33:26.797716,1709040806.797716,969.23828125,969.7265625,-47.8515625,968.75,1.0,1.0,0.0,1.0,3.m4v,5.0
2024-02-27 14:33:26.801621,1709040806.8016214,969.23828125,970.21484375,-42.48046875,967.7734375,1.0,1.0,0.0,1.0,3.m4v,5.0
2024-02-27 14:33:26.805527,1709040806.805527,986.328125,984.375,-41.50390625,986.81640625,1.0,1.0,0.0,1.0,3.m4v,5.0
2024-02-27 14:33:26.809433,1709040806.8094327,906.73828125,901.3671875,-31.73828125,904.78515625,1.0,1.0,0.0,1.0,3.m4v,5.0
2024-02-27 14:33:26.813338,1709040806.8133385,999.51171875,999.51171875,-29.296875,999.51171875,1.0,1.0,0.0,1.0,3.m4v,5.0
2024-02-27 14:33:26.817244,1709040806.8172438,810.546875,613.28125,-25.390625,758.7890625,1.0,1.0,0.0,1.0,3.m4v,5.0
2024-02-27 14:33:26.821150,1709040806.8211496,-659.1796875,-828.61328125,-31.73828125,-710.44921875,1.0,1.0,0.0,1.0,3.m4v,5.0
2024-02-27 14:33:26.825055,1709040806.8250551,-1000.0,-1000.0,-35.64453125,-1000.0,1.0,1.0,0.0,1.0,3.m4v,5.0
2024-02-27 14:33:26.828961,1709040806.828961,-927.24609375,-939.453125,-23.92578125,-930.6640625,1.0,1.0,0.0,1.0,3.m4v,5.0
2024-02-27 14:33:26.832866,1709040806.8328664,-1000.0,-1000.0,-27.34375,-1000.0,1.0,1.0,0.0,1.0,3.m4v,5.0
2024-02-27 14:33:26.836778,1709040806.8367777,-1000.0,-1000.0,-27.83203125,-1000.0,1.0,1.0,0.0,1.0,3.m4v,5.0
2024-02-27 14:33:26.840683,1709040806.8406832,-1000.0,-1000.0,-26.3671875,-1000.0,1.0,1.0,0.0,1.0,3.m4v,5.0
2024-02-27 14:33:26.844589,1709040806.844589,-1000.0,-1000.0,-35.64453125,-1000.0,1.0,1.0,0.0,1.0,3.m4v,5.0
2024-02-27 14:33:26.848495,1709040806.8484943,-1000.0,-1000.0,-32.2265625,-1000.0,1.0,1.0,0.0,1.0,3.m4v,5.0
2024-02-27 14:33:26.852400,1709040806.8524,-1000.0,-1000.0,-21.97265625,-1000.0,1.0,1.0,0.0,1.0,3.m4v,5.0
2024-02-27 14:33:26.856306,1709040806.8563058,-1000.0,-1000.0,-24.90234375,-1000.0,1.0,1.0,0.0,1.0,3.m4v,5.0
2024-02-27 14:33:26.860211,1709040806.8602114,-1000.0,-1000.0,-40.52734375,-1000.0,1.0,1.0,0.0,1.0,3.m4v,5.0
2024-02-27 14:33:26.864117,1709040806.864117,-1000.0,-1000.0,-40.52734375,-1000.0,1.0,1.0,0.0,1.0,3.m4v,5.0
2024-02-27 14:33:26.868023,1709040806.868023,-1000.0,-1000.0,-23.4375,-1000.0,1.0,1.0,0.0,1.0,3.m4v,5.0
2024-02-27 14:33:26.871928,1709040806.8719282,-1000.0,-1000.0,-29.78515625,-1000.0,1.0,1.0,0.0,1.0,3.m4v,5.0
2024-02-27 14:33:26.875834,1709040806.8758335,-1000.0,-1000.0,-35.64453125,-1000.0,1.0,1.0,0.0,1.0,3.m4v,5.0
2024-02-27 14:33:26.977399,1709040806.9773989,-1000.0,-1000.0,-28.3203125,-1000.0,1.0,1.0,0.0,1.0,3.m4v,5.0
2024-02-27 14:33:26.981304,1709040806.9813044,-1000.0,-1000.0,-23.92578125,-1000.0,1.0,1.0,0.0,1.0,3.m4v,5.0
2024-02-27 14:33:26.985210,1709040806.98521,-1000.0,-1000.0,-30.2734375,-1000.0,1.0,1.0,0.0,1.0,3.m4v,5.0
2024-02-27 14:33:26.989116,1709040806.9891157,-1000.0,-1000.0,-31.25,-1000.0,1.0,1.0,0.0,1.0,3.m4v,5.0
2024-02-27 14:33:26.993021,1709040806.9930212,-1000.0,-1000.0,-20.5078125,-1000.0,1.0,1.0,0.0,1.0,3.m4v,5.0
2024-02-27 14:33:26.996927,1709040806.9969268,-1000.0,-1000.0,-14.16015625,-1000.0,1.0,1.0,0.0,1.0,3.m4v,5.0
2024-02-27 14:33:27.000833,1709040807.0008326,-970.703125,-950.1953125,-19.04296875,-968.75,1.0,1.0,0.0,1.0,3.m4v,5.0
2024-02-27 14:33:27.004738,1709040807.004738,-989.2578125,-1000.0,-20.01953125,-994.140625,1.0,1.0,0.0,1.0,3.m4v,5.0
2024-02-27 14:33:27.008644,1709040807.0086436,-1000.0,-948.2421875,-20.5078125,-1000.0,1.0,1.0,0.0,1.0,3.m4v,5.0
2024-02-27 14:33:27.012549,1709040807.0125494,213.8671875,469.7265625,-18.06640625,231.93359375,1.0,1.0,0.0,1.0,3.m4v,5.0
2024-02-27 14:33:27.016455,1709040807.016455,999.51171875,999.51171875,-18.06640625,999.51171875,1.0,1.0,0.0,1.0,3.m4v,5.0
2024-02-27 14:33:27.020360,1709040807.0203605,905.76171875,895.99609375,-28.80859375,908.203125,1.0,1.0,0.0,1.0,3.m4v,5.0
2024-02-27 14:33:27.024272,1709040807.0242724,970.703125,982.91015625,-36.1328125,971.6796875,1.0,1.0,0.0,1.0,3.m4v,5.0
2024-02-27 14:33:27.028178,1709040807.028178,969.7265625,969.7265625,-34.1796875,970.703125,1.0,1.0,0.0,1.0,3.m4v,5.0
2024-02-27 14:33:27.032084,1709040807.0320835,969.23828125,969.7265625,-40.0390625,969.7265625,1.0,1.0,0.0,1.0,3.m4v,5.0
2024-02-27 14:33:27.035989,1709040807.0359893,969.23828125,969.7265625,-42.48046875,969.7265625,1.0,1.0,0.0,1.0,3.m4v,5.0
2024-02-27 14:33:27.039895,1709040807.0398948,969.23828125,970.21484375,-28.3203125,969.7265625,1.0,1.0,0.0,1.0,3.m4v,5.0
2024-02-27 14:33:27.043801,1709040807.0438006,969.23828125,969.7265625,-23.4375,970.703125,1.0,1.0,0.0,1.0,3.m4v,5.0
2024-02-27 14:33:27.047706,1709040807.047706,986.328125,987.3046875,-31.73828125,980.46875,1.0,1.0,0.0,1.0,3.m4v,5.0
2024-02-27 14:33:27.051612,1709040807.0516117,902.34375,900.87890625,-30.2734375,906.25,1.0,1.0,0.0,1.0,3.m4v,5.0
2024-02-27 14:33:27.055517,1709040807.0555174,999.51171875,999.51171875,-30.2734375,999.51171875,1.0,1.0,0.0,1.0,3.m4v,5.0
2024-02-27 14:33:27.059423,1709040807.059423,755.859375,715.33203125,-31.73828125,547.8515625,1.0,1.0,0.0,1.0,3.m4v,5.0
2024-02-27 14:33:27.063329,1709040807.0633285,-722.65625,-762.20703125,-29.296875,-848.6328125,1.0,1.0,0.0,1.0,3.m4v,5.0
2024-02-27 14:33:27.067234,1709040807.0672345,-1000.0,-1000.0,-36.1328125,-1000.0,1.0,1.0,0.0,1.0,3.m4v,5.0
2024-02-27 14:33:27.071146,1709040807.0711462,-929.6875,-932.12890625,-41.50390625,-944.82421875,1.0,1.0,0.0,1.0,3.m4v,5.0
2024-02-27 14:33:27.075052,1709040807.075052,-1000.0,-1000.0,-34.66796875,-1000.0,1.0,1.0,0.0,1.0,3.m4v,5.0
2024-02-27 14:33:27.078958,1709040807.0789576,-1000.0,-1000.0,-27.83203125,-1000.0,1.0,1.0,0.0,1.0,3.m4v,5.0
2024-02-27 14:33:27.082863,1709040807.082863,-1000.0,-986.328125,-40.0390625,-1000.0,1.0,1.0,0.0,1.0,3.m4v,5.0
2024-02-27 14:33:27.086769,1709040807.0867689,-1000.0,-966.796875,-47.36328125,-1000.0,1.0,1.0,0.0,1.0,3.m4v,5.0
2024-02-27 14:33:27.090674,1709040807.0906744,-1000.0,-1000.0,-34.66796875,-1000.0,1.0,1.0,0.0,1.0,3.m4v,5.0
2024-02-27 14:33:27.094580,1709040807.09458,-1000.0,-54.19921875,-29.296875,-1000.0,1.0,1.0,0.0,1.0,3.m4v,5.0
2024-02-27 14:33:27.098486,1709040807.0984857,-952.63671875,999.51171875,-36.62109375,-947.75390625,1.0,1.0,0.0,1.0,3.m4v,5.0
2024-02-27 14:33:27.102391,1709040807.1023912,-1000.0,944.82421875,-36.1328125,-1000.0,1.0,1.0,0.0,1.0,3.m4v,5.0
2024-02-27 14:33:27.184421,1709040807.184421,-1000.0,-1000.0,-27.83203125,-1000.0,1.0,1.0,0.0,1.0,3.m4v,5.0
2024-02-27 14:33:27.188327,1709040807.1883268,-1000.0,-1000.0,-23.4375,-1000.0,1.0,1.0,0.0,1.0,3.m4v,5.0
2024-02-27 14:33:27.192232,1709040807.1922324,-1000.0,-1000.0,-26.85546875,-1000.0,1.0,1.0,0.0,1.0,3.m4v,5.0
2024-02-27 14:33:27.196138,1709040807.196138,-1000.0,-1000.0,-31.25,-1000.0,1.0,1.0,0.0,1.0,3.m4v,5.0
2024-02-27 14:33:27.200044,1709040807.2000437,-999.0234375,-1000.0,-33.203125,-979.00390625,1.0,1.0,0.0,1.0,3.m4v,5.0
2024-02-27 14:33:27.203949,1709040807.2039492,-945.3125,-940.4296875,-31.73828125,-979.4921875,1.0,1.0,0.0,1.0,3.m4v,5.0
2024-02-27 14:33:27.207855,1709040807.2078547,-1000.0,-1000.0,-33.203125,-1000.0,1.0,1.0,0.0,1.0,3.m4v,5.0
2024-02-27 14:33:27.211766,1709040807.211766,-245.1171875,-310.546875,-27.34375,61.5234375,1.0,1.0,0.0,1.0,3.m4v,5.0
2024-02-27 14:33:27.215672,1709040807.2156715,996.09375,976.07421875,-31.25,999.51171875,1.0,1.0,0.0,1.0,3.m4v,5.0
2024-02-27 14:33:27.219577,1709040807.219577,965.33203125,975.5859375,-44.921875,932.12890625,1.0,1.0,0.0,1.0,3.m4v,5.0
2024-02-27 14:33:27.223483,1709040807.2234828,938.4765625,934.08203125,-37.59765625,958.984375,1.0,1.0,0.0,1.0,3.m4v,5.0
2024-02-27 14:33:27.227388,1709040807.2273884,977.5390625,979.98046875,-26.3671875,974.12109375,1.0,1.0,0.0,1.0,3.m4v,5.0
2024-02-27 14:33:27.231294,1709040807.231294,969.23828125,969.7265625,-30.2734375,969.7265625,1.0,1.0,0.0,1.0,3.m4v,5.0
2024-02-27 14:33:27.235200,1709040807.2351997,969.23828125,969.7265625,-40.0390625,969.7265625,1.0,1.0,0.0,1.0,3.m4v,5.0
2024-02-27 14:33:27.239105,1709040807.2391052,969.23828125,969.7265625,-39.55078125,969.7265625,1.0,1.0,0.0,1.0,3.m4v,5.0
2024-02-27 14:33:27.243011,1709040807.243011,969.23828125,969.7265625,-31.73828125,969.7265625,1.0,1.0,0.0,1.0,3.m4v,5.0
2024-02-27 14:33:27.246917,1709040807.2469163,985.3515625,986.328125,-32.71484375,986.328125,1.0,1.0,0.0,1.0,3.m4v,5.0
2024-02-27 14:33:27.250822,1709040807.250822,911.1328125,909.1796875,-34.66796875,911.62109375,1.0,1.0,0.0,1.0,3.m4v,5.0
2024-02-27 14:33:27.254728,1709040807.2547278,999.51171875,999.51171875,-37.109375,999.51171875,1.0,1.0,0.0,1.0,3.m4v,5.0
2024-02-27 14:33:27.258639,1709040807.2586389,859.86328125,819.3359375,-36.62109375,856.93359375,1.0,1.0,0.0,1.0,3.m4v,5.0
2024-02-27 14:33:27.262544,1709040807.2625444,-597.16796875,-642.08984375,-38.0859375,-602.05078125,1.0,1.0,0.0,1.0,3.m4v,5.0
2024-02-27 14:33:27.266450,1709040807.2664502,-1000.0,-1000.0,-37.59765625,-1000.0,1.0,1.0,0.0,1.0,3.m4v,5.0
2024-02-27 14:33:27.270356,1709040807.2703557,-925.78125,-927.734375,-36.62109375,-925.78125,1.0,1.0,0.0,1.0,3.m4v,5.0
2024-02-27 14:33:27.274261,1709040807.2742612,-1000.0,-1000.0,-33.203125,-1000.0,1.0,1.0,0.0,1.0,3.m4v,5.0
2024-02-27 14:33:27.278167,1709040807.278167,-1000.0,-1000.0,-23.4375,-1000.0,1.0,1.0,0.0,1.0,3.m4v,5.0
2024-02-27 14:33:27.282073,1709040807.2820723,-1000.0,-1000.0,-25.390625,-1000.0,1.0,1.0,0.0,1.0,3.m4v,5.0
2024-02-27 14:33:27.285978,1709040807.2859783,-1000.0,-1000.0,-24.4140625,-1000.0,1.0,1.0,0.0,1.0,3.m4v,5.0
2024-02-27 14:33:27.289884,1709040807.289884,-1000.0,-1000.0,-24.90234375,-1000.0,1.0,1.0,0.0,1.0,3.m4v,5.0
2024-02-27 14:33:27.293789,1709040807.2937894,-1000.0,-1000.0,-41.015625,-1000.0,1.0,1.0,0.0,1.0,3.m4v,5.0
2024-02-27 14:33:27.297695,1709040807.2976952,-1000.0,-1000.0,-42.48046875,-1000.0,1.0,1.0,0.0,1.0,3.m4v,5.0
2024-02-27 14:33:27.301601,1709040807.3016007,-942.3828125,-941.89453125,-26.85546875,-940.91796875,1.0,1.0,0.0,1.0,3.m4v,5.0
2024-02-27 14:33:27.305513,1709040807.3055131,-1000.0,-1000.0,-20.5078125,-1000.0,1.0,1.0,0.0,1.0,3.m4v,5.0
2024-02-27 14:33:27.309419,1709040807.309419,-891.11328125,-887.20703125,-16.11328125,-872.0703125,1.0,1.0,0.0,1.0,3.m4v,5.0
2024-02-27 14:33:27.313324,1709040807.3133245,565.91796875,571.77734375,-18.06640625,588.8671875,1.0,1.0,0.0,1.0,3.m4v,5.0
2024-02-27 14:33:27.317230,1709040807.31723,999.51171875,999.51171875,-29.296875,999.51171875,1.0,1.0,0.0,1.0,3.m4v,5.0
2024-02-27 14:33:27.457852,1709040807.4578516,969.23828125,969.7265625,-33.69140625,969.7265625,1.0,1.0,0.0,1.0,3.m4v,5.0
2024-02-27 14:33:27.461757,1709040807.4617572,974.12109375,983.3984375,-29.296875,975.5859375,1.0,1.0,0.0,1.0,3.m4v,5.0
2024-02-27 14:33:27.465663,1709040807.465663,951.171875,921.875,-22.4609375,948.73046875,1.0,1.0,0.0,1.0,3.m4v,5.0
2024-02-27 14:33:27.469568,1709040807.4695685,938.4765625,999.0234375,-29.78515625,944.3359375,1.0,1.0,0.0,1.0,3.m4v,5.0
2024-02-27 14:33:27.473474,1709040807.473474,999.51171875,930.17578125,-43.45703125,999.51171875,1.0,1.0,0.0,1.0,3.m4v,5.0
2024-02-27 14:33:27.477380,1709040807.4773798,-70.3125,-474.12109375,-34.1796875,-106.93359375,1.0,1.0,0.0,1.0,3.m4v,5.0
2024-02-27 14:33:27.481285,1709040807.481285,-1000.0,-1000.0,-27.83203125,-1000.0,1.0,1.0,0.0,1.0,3.m4v,5.0
2024-02-27 14:33:27.485191,1709040807.4851909,-956.54296875,-927.24609375,-31.73828125,-954.1015625,1.0,1.0,0.0,1.0,3.m4v,5.0
2024-02-27 14:33:27.489097,1709040807.4890966,-990.234375,-1000.0,-37.109375,-992.67578125,1.0,1.0,0.0,1.0,3.m4v,5.0
2024-02-27 14:33:27.493008,1709040807.4930084,-1000.0,-1000.0,-35.64453125,-1000.0,1.0,1.0,0.0,1.0,3.m4v,5.0
2024-02-27 14:33:27.496914,1709040807.496914,-1000.0,-1000.0,-30.2734375,-1000.0,1.0,1.0,0.0,1.0,3.m4v,5.0
2024-02-27 14:33:27.500820,1709040807.5008197,-1000.0,-1000.0,-30.76171875,-1000.0,1.0,1.0,0.0,1.0,3.m4v,5.0
2024-02-27 14:33:27.504725,1709040807.5047252,-1000.0,-1000.0,-36.1328125,-1000.0,1.0,1.0,0.0,1.0,3.m4v,5.0
2024-02-27 14:33:27.508631,1709040807.508631,-1000.0,-1000.0,-31.25,-1000.0,1.0,1.0,0.0,1.0,3.m4v,5.0
2024-02-27 14:33:27.512537,1709040807.5125363,-1000.0,-1000.0,-29.296875,-1000.0,1.0,1.0,0.0,1.0,3.m4v,5.0
2024-02-27 14:33:27.516442,1709040807.516442,-1000.0,-1000.0,-39.55078125,-1000.0,1.0,1.0,0.0,1.0,3.m4v,5.0
2024-02-27 14:33:27.520348,1709040807.5203478,-1000.0,-1000.0,-49.8046875,-1000.0,1.0,1.0,0.0,1.0,3.m4v,5.0
2024-02-27 14:33:27.524253,1709040807.5242534,-1000.0,-1000.0,-43.45703125,-1000.0,1.0,1.0,0.0,1.0,3.m4v,5.0
2024-02-27 14:33:27.528159,1709040807.528159,-1000.0,-1000.0,-33.203125,-1000.0,1.0,1.0,0.0,1.0,3.m4v,5.0
2024-02-27 14:33:27.532065,1709040807.532065,-1000.0,-1000.0,-25.390625,-1000.0,1.0,1.0,0.0,1.0,3.m4v,5.0
2024-02-27 14:33:27.535970,1709040807.5359702,-1000.0,-1000.0,-23.92578125,-1000.0,1.0,1.0,0.0,1.0,3.m4v,5.0
2024-02-27 14:33:27.539882,1709040807.5398817,-941.89453125,-939.453125,-22.94921875,-938.4765625,1.0,1.0,0.0,1.0,3.m4v,5.0
2024-02-27 14:33:27.543787,1709040807.5437872,-1000.0,-1000.0,-29.78515625,-1000.0,1.0,1.0,0.0,1.0,3.m4v,5.0
2024-02-27 14:33:27.547693,1709040807.5476928,-886.71875,-856.4453125,-34.1796875,-841.30859375,1.0,1.0,0.0,1.0,3.m4v,5.0
2024-02-27 14:33:27.551599,1709040807.5515983,571.77734375,608.88671875,-38.57421875,623.046875,1.0,1.0,0.0,1.0,3.m4v,5.0
2024-02-27 14:33:27.555504,1709040807.555504,999.51171875,999.51171875,-51.7578125,999.51171875,1.0,1.0,0.0,1.0,3.m4v,5.0
2024-02-27 14:33:27.559410,1709040807.5594096,894.53125,896.484375,-45.41015625,897.4609375,1.0,1.0,0.0,1.0,3.m4v,5.0
2024-02-27 14:33:27.563315,1709040807.5633154,984.86328125,986.328125,-25.87890625,986.328125,1.0,1.0,0.0,1.0,3.m4v,5.0
2024-02-27 14:33:27.567221,1709040807.567221,969.23828125,969.7265625,-22.94921875,969.7265625,1.0,1.0,0.0,1.0,3.m4v,5.0
2024-02-27 14:33:27.571127,1709040807.5711267,969.23828125,969.7265625,-26.3671875,969.7265625,1.0,1.0,0.0,1.0,3.m4v,5.0
2024-02-27 14:33:27.575032,1709040807.5750322,969.23828125,969.7265625,-28.3203125,969.7265625,1.0,1.0,0.0,1.0,3.m4v,5.0
2024-02-27 14:33:27.578938,1709040807.5789378,968.75,969.7265625,-37.59765625,969.7265625,1.0,1.0,0.0,1.0,3.m4v,5.0
2024-02-27 14:33:27.582844,1709040807.5828435,969.23828125,969.7265625,-32.71484375,969.7265625,1.0,1.0,0.0,1.0,3.m4v,5.0
2024-02-27 14:33:27.586755,1709040807.5867546,969.23828125,969.7265625,-20.5078125,969.7265625,1.0,1.0,0.0,1.0,3.m4v,5.0
2024-02-27 14:33:27.590660,1709040807.5906603,969.23828125,969.7265625,-36.1328125,969.7265625,1.0,1.0,0.0,1.0,3.m4v,5.0
2024-02-27 14:33:27.594566,1709040807.594566,969.23828125,969.7265625,-43.9453125,969.7265625,1.0,1.0,0.0,1.0,3.m4v,5.0
2024-02-27 14:33:27.598471,1709040807.5984714,969.23828125,969.7265625,-34.66796875,969.7265625,1.0,1.0,0.0,1.0,3.m4v,5.0
2024-02-27 14:33:27.602377,1709040807.6023772,985.3515625,986.81640625,-28.80859375,985.83984375,1.0,1.0,0.0,1.0,3.m4v,5.0
2024-02-27 14:33:27.606283,1709040807.6062827,911.1328125,906.73828125,-25.390625,911.62109375,1.0,1.0,0.0,1.0,3.m4v,5.0
2024-02-27 14:33:27.610188,1709040807.6101882,999.51171875,999.51171875,-30.2734375,999.51171875,1.0,1.0,0.0,1.0,3.m4v,5.0
2024-02-27 14:33:27.614094,1709040807.614094,859.86328125,791.50390625,-35.15625,860.3515625,1.0,1.0,0.0,1.0,3.m4v,5.0
2024-02-27 14:33:27.618000,1709040807.6179996,-597.16796875,-676.26953125,-35.15625,-597.16796875,1.0,1.0,0.0,1.0,3.m4v,5.0
2024-02-27 14:33:27.621905,1709040807.621905,-1000.0,-1000.0,-32.71484375,-1000.0,1.0,1.0,0.0,1.0,3.m4v,5.0
2024-02-27 14:33:27.625811,1709040807.6258109,-925.78125,-928.7109375,-34.66796875,-925.78125,1.0,1.0,0.0,1.0,3.m4v,5.0
2024-02-27 14:33:27.629716,1709040807.6297164,-1000.0,-1000.0,-38.0859375,-1000.0,1.0,1.0,0.0,1.0,3.m4v,5.0
2024-02-27 14:33:27.633627,1709040807.6336272,-1000.0,-1000.0,-43.9453125,-1000.0,1.0,1.0,0.0,1.0,3.m4v,5.0
2024-02-27 14:33:27.637533,1709040807.637533,-1000.0,-1000.0,-41.9921875,-1000.0,1.0,1.0,0.0,1.0,3.m4v,5.0
2024-02-27 14:33:27.641438,1709040807.6414385,-1000.0,-996.09375,-40.52734375,-1000.0,1.0,1.0,0.0,1.0,3.m4v,5.0
2024-02-27 14:33:27.645344,1709040807.645344,-1000.0,-951.66015625,-43.9453125,-1000.0,1.0,1.0,0.0,1.0,3.m4v,5.0
2024-02-27 14:33:27.649250,1709040807.6492498,-1000.0,-1000.0,-36.1328125,-1000.0,1.0,1.0,0.0,1.0,3.m4v,5.0
2024-02-27 14:33:27.653155,1709040807.653155,-1000.0,-194.3359375,-38.0859375,-996.58203125,1.0,1.0,0.0,1.0,3.m4v,5.0
2024-02-27 14:33:27.657061,1709040807.6570609,-1000.0,932.6171875,-47.36328125,-995.60546875,1.0,1.0,0.0,1.0,3.m4v,5.0
2024-02-27 14:33:27.660967,1709040807.6609666,-1000.0,999.51171875,-39.0625,-1000.0,1.0,1.0,0.0,1.0,3.m4v,5.0
2024-02-27 14:33:27.664872,1709040807.6648722,-1000.0,701.66015625,-38.0859375,-1000.0,1.0,1.0,0.0,1.0,3.m4v,5.0
2024-02-27 14:33:27.668778,1709040807.6687777,-1000.0,-703.125,-44.43359375,-1000.0,1.0,1.0,0.0,1.0,3.m4v,5.0
2024-02-27 14:33:27.672683,1709040807.6726837,-1000.0,-1000.0,-35.15625,-1000.0,1.0,1.0,0.0,1.0,3.m4v,5.0
2024-02-27 14:33:27.676589,1709040807.676589,-1000.0,-949.70703125,-42.48046875,-1000.0,1.0,1.0,0.0,1.0,3.m4v,5.0
2024-02-27 14:33:27.680502,1709040807.6805017,-941.89453125,-958.0078125,-44.921875,-937.5,1.0,1.0,0.0,1.0,3.m4v,5.0
2024-02-27 14:33:27.684407,1709040807.6844072,-1000.0,-1000.0,-39.55078125,-1000.0,1.0,1.0,0.0,1.0,3.m4v,5.0
2024-02-27 14:33:27.688313,1709040807.6883128,-884.765625,-888.671875,-35.64453125,-818.84765625,1.0,1.0,0.0,1.0,3.m4v,5.0
2024-02-27 14:33:27.692219,1709040807.6922183,574.21875,569.3359375,-29.296875,644.53125,1.0,1.0,0.0,1.0,3.m4v,5.0
2024-02-27 14:33:27.696124,1709040807.696124,999.51171875,999.51171875,-31.25,999.51171875,1.0,1.0,0.0,1.0,3.m4v,5.0
2024-02-27 14:33:27.700030,1709040807.7000296,894.53125,895.01953125,-38.57421875,898.92578125,1.0,1.0,0.0,1.0,3.m4v,5.0
2024-02-27 14:33:27.703935,1709040807.7039354,985.3515625,985.83984375,-43.9453125,985.83984375,1.0,1.0,0.0,1.0,3.m4v,5.0
2024-02-27 14:33:27.707841,1709040807.707841,969.23828125,969.7265625,-39.0625,969.7265625,1.0,1.0,0.0,1.0,3.m4v,5.0
2024-02-27 14:33:27.711746,1709040807.7117465,969.23828125,969.7265625,-39.0625,969.7265625,1.0,1.0,0.0,1.0,3.m4v,5.0
2024-02-27 14:33:27.715652,1709040807.7156522,969.23828125,969.7265625,-40.52734375,969.7265625,1.0,1.0,0.0,1.0,3.m4v,5.0
2024-02-27 14:33:27.719558,1709040807.7195578,969.23828125,969.7265625,-32.71484375,969.7265625,1.0,1.0,0.0,1.0,3.m4v,5.0
2024-02-27 14:33:27.723463,1709040807.7234633,969.23828125,969.7265625,-25.390625,969.7265625,1.0,1.0,0.0,1.0,3.m4v,5.0
2024-02-27 14:33:27.727376,1709040807.727376,982.91015625,986.328125,-21.97265625,984.375,1.0,1.0,0.0,1.0,3.m4v,5.0
2024-02-27 14:33:27.731282,1709040807.7312815,919.43359375,911.1328125,-23.92578125,917.48046875,1.0,1.0,0.0,1.0,3.m4v,5.0
2024-02-27 14:33:27.735187,1709040807.735187,999.51171875,999.51171875,-28.80859375,999.51171875,1.0,1.0,0.0,1.0,3.m4v,5.0
2024-02-27 14:33:27.739093,1709040807.7390928,922.8515625,848.6328125,-27.34375,902.83203125,1.0,1.0,0.0,1.0,3.m4v,5.0
2024-02-27 14:33:27.742998,1709040807.7429984,-492.1875,-611.328125,-28.80859375,-526.85546875,1.0,1.0,0.0,1.0,3.m4v,5.0
2024-02-27 14:33:27.746904,1709040807.746904,-1000.0,-1000.0,-28.3203125,-1000.0,1.0,1.0,0.0,1.0,3.m4v,5.0
2024-02-27 14:33:27.750810,1709040807.7508097,-926.26953125,-926.26953125,-29.296875,-925.78125,1.0,1.0,0.0,1.0,3.m4v,5.0
2024-02-27 14:33:27.754715,1709040807.7547152,-1000.0,-1000.0,-32.71484375,-1000.0,1.0,1.0,0.0,1.0,3.m4v,5.0
2024-02-27 14:33:27.758621,1709040807.7586207,-1000.0,-1000.0,-31.73828125,-1000.0,1.0,1.0,0.0,1.0,3.m4v,5.0
2024-02-27 14:33:27.762527,1709040807.7625265,-1000.0,-1000.0,-42.48046875,-1000.0,1.0,1.0,0.0,1.0,3.m4v,5.0
2024-02-27 14:33:27.766432,1709040807.766432,-1000.0,-1000.0,-44.43359375,-1000.0,1.0,1.0,0.0,1.0,3.m4v,5.0
2024-02-27 14:33:27.770338,1709040807.7703376,-1000.0,-1000.0,-31.73828125,-1000.0,1.0,1.0,0.0,1.0,3.m4v,5.0
2024-02-27 14:33:27.774250,1709040807.7742498,-1000.0,-1000.0,-31.25,-1000.0,1.0,1.0,0.0,1.0,3.m4v,5.0
2024-02-27 14:33:27.778155,1709040807.778155,-1000.0,-1000.0,-31.25,-1000.0,1.0,1.0,0.0,1.0,3.m4v,5.0
2024-02-27 14:33:27.871902,1709040807.8719022,-1000.0,-1000.0,-28.80859375,-1000.0,1.0,1.0,0.0,1.0,3.m4v,5.0
2024-02-27 14:33:27.875808,1709040807.875808,-1000.0,-1000.0,-37.59765625,-1000.0,1.0,1.0,0.0,1.0,3.m4v,5.0
2024-02-27 14:33:27.879714,1709040807.8797135,-1000.0,-1000.0,-40.52734375,-1000.0,1.0,1.0,0.0,1.0,3.m4v,5.0
2024-02-27 14:33:27.887525,1709040807.8875248,-1000.0,-1000.0,-31.25,-1000.0,1.0,1.0,0.0,1.0,3.m4v,5.0
2024-02-27 14:33:27.899242,1709040807.8992417,-1000.0,-1000.0,-35.15625,-1000.0,1.0,1.0,0.0,1.0,3.m4v,5.0
2024-02-27 14:33:27.907053,1709040807.907053,-1000.0,-1000.0,-33.203125,-1000.0,1.0,1.0,0.0,1.0,3.m4v,5.0
2024-02-27 14:33:27.910959,1709040807.9109583,-862.79296875,-666.50390625,-29.78515625,-838.37890625,1.0,1.0,0.0,1.0,3.m4v,5.0
2024-02-27 14:33:27.914870,1709040807.91487,602.05078125,795.8984375,-25.390625,628.41796875,1.0,1.0,0.0,1.0,3.m4v,5.0
2024-02-27 14:33:27.918776,1709040807.9187758,999.51171875,999.51171875,-16.6015625,999.51171875,1.0,1.0,0.0,1.0,3.m4v,5.0
2024-02-27 14:33:27.922681,1709040807.922681,895.5078125,907.2265625,-14.6484375,897.4609375,1.0,1.0,0.0,1.0,3.m4v,5.0
2024-02-27 14:33:28.145328,1709040808.1453278,969.23828125,969.7265625,-28.80859375,969.7265625,1.0,1.0,0.0,1.0,3.m4v,5.0
2024-02-27 14:33:28.153146,1709040808.1531458,969.23828125,969.7265625,-40.52734375,969.7265625,1.0,1.0,0.0,1.0,3.m4v,5.0
2024-02-27 14:33:28.160957,1709040808.1609569,969.23828125,969.7265625,-32.71484375,969.7265625,1.0,1.0,0.0,1.0,3.m4v,5.0
2024-02-27 14:33:28.168768,1709040808.1687682,981.93359375,975.09765625,-16.6015625,968.75,1.0,1.0,0.0,1.0,3.m4v,5.0
2024-02-27 14:33:28.176579,1709040808.1765797,999.51171875,999.51171875,-30.2734375,999.51171875,1.0,1.0,0.0,1.0,3.m4v,5.0
2024-02-27 14:33:28.184391,1709040808.1843903,-920.8984375,-980.46875,-36.1328125,-998.046875,1.0,1.0,0.0,1.0,3.m4v,5.0
2024-02-27 14:33:28.192202,1709040808.192202,-948.2421875,-959.9609375,-23.92578125,-966.30859375,1.0,1.0,0.0,1.0,3.m4v,5.0
2024-02-27 14:33:28.200019,1709040808.2000194,-1000.0,-1000.0,-18.5546875,-1000.0,1.0,1.0,0.0,1.0,3.m4v,5.0
2024-02-27 14:33:28.207830,1709040808.2078304,-1000.0,-1000.0,-24.90234375,-1000.0,1.0,1.0,0.0,1.0,3.m4v,5.0
2024-02-27 14:33:28.215642,1709040808.2156415,-1000.0,-1000.0,-31.25,-1000.0,1.0,1.0,0.0,1.0,3.m4v,5.0
2024-02-27 14:33:28.223453,1709040808.223453,-1000.0,-1000.0,-42.48046875,-1000.0,1.0,1.0,0.0,1.0,3.m4v,5.0
2024-02-27 14:33:28.231264,1709040808.231264,-1000.0,-1000.0,-22.4609375,-1000.0,1.0,1.0,0.0,1.0,3.m4v,5.0
2024-02-27 14:33:28.239075,1709040808.2390754,-942.3828125,-941.89453125,-25.87890625,-942.3828125,1.0,1.0,0.0,1.0,3.m4v,5.0
2024-02-27 14:33:28.246893,1709040808.2468927,-891.11328125,-884.27734375,-32.71484375,-889.6484375,1.0,1.0,0.0,1.0,3.m4v,5.0
2024-02-27 14:33:28.254704,1709040808.254704,999.51171875,999.51171875,-33.69140625,999.51171875,1.0,1.0,0.0,1.0,3.m4v,5.0
2024-02-27 14:33:28.262515,1709040808.262515,984.86328125,985.83984375,-15.625,985.83984375,1.0,1.0,0.0,1.0,3.m4v,5.0
2024-02-27 14:33:28.270326,1709040808.2703264,968.75,969.7265625,-38.57421875,969.7265625,1.0,1.0,0.0,1.0,3.m4v,5.0
2024-02-27 14:33:28.278138,1709040808.2781377,969.23828125,969.7265625,-27.83203125,969.7265625,1.0,1.0,0.0,1.0,3.m4v,5.0
2024-02-27 14:33:28.285949,1709040808.2859488,969.23828125,969.7265625,-27.34375,969.7265625,1.0,1.0,0.0,1.0,3.m4v,5.0
2024-02-27 14:33:28.293766,1709040808.2937658,969.23828125,969.7265625,-43.9453125,969.7265625,1.0,1.0,0.0,1.0,3.m4v,5.0
2024-02-27 14:33:28.301577,1709040808.301577,970.703125,980.46875,-33.69140625,972.65625,1.0,1.0,0.0,1.0,3.m4v,5.0
2024-02-27 14:33:28.309388,1709040808.3093884,914.0625,978.02734375,-37.59765625,921.875,1.0,1.0,0.0,1.0,3.m4v,5.0
2024-02-27 14:33:28.317199,1709040808.3171997,209.9609375,-359.375,-44.43359375,139.6484375,1.0,1.0,0.0,1.0,3.m4v,5.0
2024-02-27 14:33:28.325011,1709040808.3250108,-995.60546875,-931.15234375,-44.921875,-986.328125,1.0,1.0,0.0,1.0,3.m4v,5.0
2024-02-27 14:33:28.332822,1709040808.332822,-1000.0,-1000.0,-38.0859375,-1000.0,1.0,1.0,0.0,1.0,3.m4v,5.0
2024-02-27 14:33:28.340641,1709040808.3406408,-1000.0,-1000.0,-46.38671875,-1000.0,1.0,1.0,0.0,1.0,3.m4v,5.0
2024-02-27 14:33:28.348452,1709040808.348452,-1000.0,-937.98828125,-35.64453125,-1000.0,1.0,1.0,0.0,1.0,3.m4v,5.0
2024-02-27 14:33:28.356263,1709040808.3562634,-1000.0,-820.3125,-29.78515625,-1000.0,1.0,1.0,0.0,1.0,3.m4v,5.0
2024-02-27 14:33:28.364074,1709040808.3640745,-1000.0,999.51171875,-41.015625,-1000.0,1.0,1.0,0.0,1.0,3.m4v,5.0
2024-02-27 14:33:28.371886,1709040808.3718858,599.12109375,986.328125,-39.0625,683.59375,1.0,1.0,0.0,1.0,3.m4v,5.0
2024-02-27 14:33:28.602351,1709040808.6023507,955.56640625,975.5859375,-34.66796875,963.37890625,1.0,1.0,0.0,1.0,3.m4v,5.0
2024-02-27 14:33:28.606256,1709040808.6062565,972.65625,969.7265625,-30.2734375,972.16796875,1.0,1.0,0.0,1.0,3.m4v,5.0
2024-02-27 14:33:28.610162,1709040808.610162,969.23828125,969.7265625,-31.73828125,969.7265625,1.0,1.0,0.0,1.0,3.m4v,5.0
2024-02-27 14:33:28.614068,1709040808.6140676,969.23828125,969.7265625,-33.203125,969.7265625,1.0,1.0,0.0,1.0,3.m4v,5.0
2024-02-27 14:33:28.617979,1709040808.617979,969.23828125,969.7265625,-38.0859375,969.7265625,1.0,1.0,0.0,1.0,3.m4v,5.0
2024-02-27 14:33:28.621885,1709040808.6218848,969.23828125,969.7265625,-41.50390625,969.7265625,1.0,1.0,0.0,1.0,3.m4v,5.0
2024-02-27 14:33:28.625790,1709040808.6257904,969.23828125,969.7265625,-39.0625,969.7265625,1.0,1.0,0.0,1.0,3.m4v,5.0
2024-02-27 14:33:28.629696,1709040808.629696,968.75,975.5859375,-47.36328125,969.7265625,1.0,1.0,0.0,1.0,3.m4v,5.0
2024-02-27 14:33:28.633602,1709040808.6336017,985.83984375,951.171875,-53.22265625,986.81640625,1.0,1.0,0.0,1.0,3.m4v,5.0
2024-02-27 14:33:28.637507,1709040808.6375072,899.90234375,942.3828125,-47.8515625,906.25,1.0,1.0,0.0,1.0,3.m4v,5.0
2024-02-27 14:33:28.641413,1709040808.6414127,999.51171875,999.51171875,-43.45703125,999.51171875,1.0,1.0,0.0,1.0,3.m4v,5.0
2024-02-27 14:33:28.645319,1709040808.6453185,685.05859375,-67.3828125,-43.9453125,785.15625,1.0,1.0,0.0,1.0,3.m4v,5.0
2024-02-27 14:33:28.649224,1709040808.649224,-782.71484375,-1000.0,-44.43359375,-682.6171875,1.0,1.0,0.0,1.0,3.m4v,5.0
2024-02-27 14:33:28.653130,1709040808.6531296,-1000.0,-960.44921875,-41.9921875,-1000.0,1.0,1.0,0.0,1.0,3.m4v,5.0
2024-02-27 14:33:28.657035,1709040808.6570354,-934.5703125,-989.2578125,-48.828125,-929.19921875,1.0,1.0,0.0,1.0,3.m4v,5.0
2024-02-27 14:33:28.660941,1709040808.660941,-1000.0,-1000.0,-47.8515625,-1000.0,1.0,1.0,0.0,1.0,3.m4v,5.0
2024-02-27 14:33:28.664852,1709040808.664852,-1000.0,-1000.0,-46.875,-1000.0,1.0,1.0,0.0,1.0,3.m4v,5.0
2024-02-27 14:33:28.668758,1709040808.668758,-1000.0,-1000.0,-43.45703125,-1000.0,1.0,1.0,0.0,1.0,3.m4v,5.0
2024-02-27 14:33:28.672663,1709040808.6726637,-1000.0,-1000.0,-37.109375,-1000.0,1.0,1.0,0.0,1.0,3.m4v,5.0
2024-02-27 14:33:28.676569,1709040808.676569,-1000.0,-1000.0,-33.69140625,-1000.0,1.0,1.0,0.0,1.0,3.m4v,5.0
2024-02-27 14:33:28.680475,1709040808.6804748,-1000.0,-1000.0,-29.296875,-1000.0,1.0,1.0,0.0,1.0,3.m4v,5.0
2024-02-27 14:33:28.684380,1709040808.6843803,-1000.0,-1000.0,-42.96875,-1000.0,1.0,1.0,0.0,1.0,3.m4v,5.0
2024-02-27 14:33:28.688286,1709040808.688286,-1000.0,-1000.0,-47.36328125,-1000.0,1.0,1.0,0.0,1.0,3.m4v,5.0
2024-02-27 14:33:28.692192,1709040808.6921916,-1000.0,-995.1171875,-37.59765625,-1000.0,1.0,1.0,0.0,1.0,3.m4v,5.0
2024-02-27 14:33:28.696097,1709040808.6960971,-1000.0,-1000.0,-36.62109375,-1000.0,1.0,1.0,0.0,1.0,3.m4v,5.0
2024-02-27 14:33:28.700003,1709040808.700003,-942.3828125,-943.84765625,-37.59765625,-941.89453125,1.0,1.0,0.0,1.0,3.m4v,5.0
2024-02-27 14:33:28.703908,1709040808.7039084,-1000.0,-1000.0,-36.62109375,-1000.0,1.0,1.0,0.0,1.0,3.m4v,5.0
2024-02-27 14:33:28.707814,1709040808.707814,-891.11328125,-891.11328125,-34.1796875,-885.25390625,1.0,1.0,0.0,1.0,3.m4v,5.0
2024-02-27 14:33:28.992968,1709040808.9929676,-1000.0,-1000.0,-29.296875,-1000.0,1.0,1.0,0.0,1.0,3.m4v,5.0
2024-02-27 14:33:28.996873,1709040808.9968734,-1000.0,-1000.0,-32.2265625,-1000.0,1.0,1.0,0.0,1.0,3.m4v,5.0
2024-02-27 14:33:29.000779,1709040809.000779,-1000.0,-1000.0,-28.80859375,-1000.0,1.0,1.0,0.0,1.0,3.m4v,5.0
2024-02-27 14:33:29.004684,1709040809.0046844,-1000.0,-968.75,-25.390625,-1000.0,1.0,1.0,0.0,1.0,3.m4v,5.0
2024-02-27 14:33:29.008590,1709040809.0085902,-1000.0,-994.62890625,-24.90234375,-1000.0,1.0,1.0,0.0,1.0,3.m4v,5.0
2024-02-27 14:33:29.012496,1709040809.0124958,-1000.0,-1000.0,-23.92578125,-1000.0,1.0,1.0,0.0,1.0,3.m4v,5.0
2024-02-27 14:33:29.016401,1709040809.0164013,-1000.0,230.95703125,-19.04296875,-1000.0,1.0,1.0,0.0,1.0,3.m4v,5.0
2024-02-27 14:33:29.020307,1709040809.020307,-940.4296875,999.51171875,-18.5546875,-936.5234375,1.0,1.0,0.0,1.0,3.m4v,5.0
2024-02-27 14:33:29.024213,1709040809.0242126,-1000.0,909.1796875,-23.92578125,-1000.0,1.0,1.0,0.0,1.0,3.m4v,5.0
2024-02-27 14:33:29.028118,1709040809.028118,-868.65234375,971.6796875,-23.92578125,-781.25,1.0,1.0,0.0,1.0,3.m4v,5.0
2024-02-27 14:33:29.032024,1709040809.032024,594.23828125,970.703125,-21.484375,677.734375,1.0,1.0,0.0,1.0,3.m4v,5.0
2024-02-27 14:33:29.035929,1709040809.0359294,999.51171875,969.7265625,-31.73828125,999.51171875,1.0,1.0,0.0,1.0,3.m4v,5.0
2024-02-27 14:33:29.039841,1709040809.039841,895.01953125,969.7265625,-41.015625,900.87890625,1.0,1.0,0.0,1.0,3.m4v,5.0
2024-02-27 14:33:29.043746,1709040809.0437465,985.3515625,969.7265625,-38.57421875,985.83984375,1.0,1.0,0.0,1.0,3.m4v,5.0
2024-02-27 14:33:29.047652,1709040809.047652,968.75,969.7265625,-30.2734375,969.7265625,1.0,1.0,0.0,1.0,3.m4v,5.0
2024-02-27 14:33:29.051558,1709040809.0515578,969.23828125,982.421875,-25.87890625,969.7265625,1.0,1.0,0.0,1.0,3.m4v,5.0
2024-02-27 14:33:29.055463,1709040809.0554633,969.23828125,925.29296875,-24.4140625,969.7265625,1.0,1.0,0.0,1.0,3.m4v,5.0
2024-02-27 14:33:29.059369,1709040809.0593688,968.75,991.2109375,-23.92578125,969.7265625,1.0,1.0,0.0,1.0,3.m4v,5.0
2024-02-27 14:33:29.063275,1709040809.0632746,980.95703125,949.70703125,-26.3671875,983.3984375,1.0,1.0,0.0,1.0,3.m4v,5.0
2024-02-27 14:33:29.067180,1709040809.0671802,925.78125,-430.6640625,-29.78515625,921.38671875,1.0,1.0,0.0,1.0,3.m4v,5.0
2024-02-27 14:33:29.071086,1709040809.0710857,986.81640625,-1000.0,-33.203125,999.51171875,1.0,1.0,0.0,1.0,3.m4v,5.0
2024-02-27 14:33:29.074991,1709040809.0749917,960.9375,-928.7109375,-31.73828125,926.26953125,1.0,1.0,0.0,1.0,3.m4v,5.0
2024-02-27 14:33:29.078897,1709040809.078897,-416.015625,-1000.0,-25.390625,-479.98046875,1.0,1.0,0.0,1.0,3.m4v,5.0
2024-02-27 14:33:29.082803,1709040809.0828023,-1000.0,-1000.0,-32.71484375,-1000.0,1.0,1.0,0.0,1.0,3.m4v,5.0
2024-02-27 14:33:29.086714,1709040809.0867136,-928.22265625,-1000.0,-33.203125,-927.24609375,1.0,1.0,0.0,1.0,3.m4v,5.0
2024-02-27 14:33:29.090619,1709040809.090619,-1000.0,-1000.0,-24.90234375,-1000.0,1.0,1.0,0.0,1.0,3.m4v,5.0
2024-02-27 14:33:29.094525,1709040809.0945249,-1000.0,-1000.0,-28.3203125,-1000.0,1.0,1.0,0.0,1.0,3.m4v,5.0
2024-02-27 14:33:29.098430,1709040809.0984304,-1000.0,-1000.0,-37.109375,-1000.0,1.0,1.0,0.0,1.0,3.m4v,5.0
2024-02-27 14:33:29.102336,1709040809.1023362,-1000.0,-1000.0,-34.66796875,-1000.0,1.0,1.0,0.0,1.0,3.m4v,5.0
2024-02-27 14:33:29.106242,1709040809.1062417,-1000.0,-1000.0,-37.109375,-1000.0,1.0,1.0,0.0,1.0,3.m4v,5.0
2024-02-27 14:33:29.110147,1709040809.1101472,-1000.0,-1000.0,-47.8515625,-1000.0,1.0,1.0,0.0,1.0,3.m4v,5.0
2024-02-27 14:33:29.114053,1709040809.114053,-1000.0,-1000.0,-54.6875,-1000.0,1.0,1.0,0.0,1.0,3.m4v,5.0
2024-02-27 14:33:29.117959,1709040809.1179583,-1000.0,-1000.0,-44.43359375,-1000.0,1.0,1.0,0.0,1.0,3.m4v,5.0
2024-02-27 14:33:29.121864,1709040809.121864,-942.3828125,-942.3828125,-34.1796875,-937.98828125,1.0,1.0,0.0,1.0,3.m4v,5.0
2024-02-27 14:33:29.125770,1709040809.12577,-1000.0,-1000.0,-39.0625,-1000.0,1.0,1.0,0.0,1.0,3.m4v,5.0
2024-02-27 14:33:29.129675,1709040809.1296754,-891.11328125,-888.671875,-31.73828125,-810.546875,1.0,1.0,0.0,1.0,3.m4v,5.0
2024-02-27 14:33:29.133586,1709040809.1335864,565.91796875,569.3359375,-27.34375,646.97265625,1.0,1.0,0.0,1.0,3.m4v,5.0
2024-02-27 14:33:29.137492,1709040809.137492,999.51171875,999.51171875,-37.59765625,999.51171875,1.0,1.0,0.0,1.0,3.m4v,5.0
2024-02-27 14:33:29.141397,1709040809.1413977,894.04296875,895.01953125,-35.64453125,899.4140625,1.0,1.0,0.0,1.0,3.m4v,5.0
2024-02-27 14:33:29.145303,1709040809.1453032,984.86328125,985.83984375,-27.83203125,985.83984375,1.0,1.0,0.0,1.0,3.m4v,5.0
2024-02-27 14:33:29.149209,1709040809.1492088,969.23828125,969.7265625,-30.2734375,969.7265625,1.0,1.0,0.0,1.0,3.m4v,5.0
2024-02-27 14:33:29.153114,1709040809.1531143,969.23828125,969.7265625,-31.73828125,969.7265625,1.0,1.0,0.0,1.0,3.m4v,5.0
2024-02-27 14:33:29.157020,1709040809.15702,969.23828125,969.7265625,-38.0859375,969.7265625,1.0,1.0,0.0,1.0,3.m4v,5.0
2024-02-27 14:33:29.160926,1709040809.1609256,969.23828125,969.7265625,-45.41015625,969.7265625,1.0,1.0,0.0,1.0,3.m4v,5.0
2024-02-27 14:33:29.164831,1709040809.1648312,969.23828125,969.7265625,-31.73828125,969.7265625,1.0,1.0,0.0,1.0,3.m4v,5.0
2024-02-27 14:33:29.168737,1709040809.168737,968.75,969.7265625,-11.23046875,969.7265625,1.0,1.0,0.0,1.0,3.m4v,5.0
2024-02-27 14:33:29.172642,1709040809.1726425,969.23828125,970.703125,-13.18359375,969.7265625,1.0,1.0,0.0,1.0,3.m4v,5.0
2024-02-27 14:33:29.176548,1709040809.176548,981.93359375,980.46875,-19.53125,970.21484375,1.0,1.0,0.0,1.0,3.m4v,5.0
2024-02-27 14:33:29.180461,1709040809.1804607,923.828125,903.80859375,-21.97265625,981.93359375,1.0,1.0,0.0,1.0,3.m4v,5.0
2024-02-27 14:33:29.184366,1709040809.1843662,993.1640625,999.51171875,-26.85546875,903.3203125,1.0,1.0,0.0,1.0,3.m4v,5.0
2024-02-27 14:33:29.188272,1709040809.1882718,937.98828125,504.8828125,-26.85546875,999.51171875,1.0,1.0,0.0,1.0,3.m4v,5.0
2024-02-27 14:33:29.192178,1709040809.1921775,-440.4296875,-890.13671875,-15.625,554.19921875,1.0,1.0,0.0,1.0,3.m4v,5.0
2024-02-27 14:33:29.196083,1709040809.196083,-1000.0,-1000.0,-11.23046875,-857.91015625,1.0,1.0,0.0,1.0,3.m4v,5.0
2024-02-27 14:33:29.199989,1709040809.1999886,-929.6875,-947.265625,-15.625,-1000.0,1.0,1.0,0.0,1.0,3.m4v,5.0
2024-02-27 14:33:29.203894,1709040809.2038944,-1000.0,-1000.0,-28.80859375,-943.84765625,1.0,1.0,0.0,1.0,3.m4v,5.0
2024-02-27 14:33:29.207800,1709040809.2078,-1000.0,-1000.0,-39.0625,-1000.0,1.0,1.0,0.0,1.0,3.m4v,5.0
2024-02-27 14:33:29.211705,1709040809.2117054,-1000.0,-1000.0,-36.1328125,-1000.0,1.0,1.0,0.0,1.0,3.m4v,5.0
2024-02-27 14:33:29.215611,1709040809.2156112,-1000.0,-1000.0,-30.76171875,-1000.0,1.0,1.0,0.0,1.0,3.m4v,5.0
2024-02-27 14:33:29.219517,1709040809.2195168,-1000.0,-1000.0,-25.390625,-1000.0,1.0,1.0,0.0,1.0,3.m4v,5.0
2024-02-27 14:33:29.223423,1709040809.2234223,-994.140625,-943.359375,-28.80859375,-991.2109375,1.0,1.0,0.0,1.0,3.m4v,5.0
2024-02-27 14:33:29.227335,1709040809.227335,-952.1484375,-1000.0,-27.83203125,-958.984375,1.0,1.0,0.0,1.0,3.m4v,5.0
2024-02-27 14:33:29.231241,1709040809.2312405,-1000.0,-896.97265625,-24.90234375,-1000.0,1.0,1.0,0.0,1.0,3.m4v,5.0
2024-02-27 14:33:29.235146,1709040809.235146,-161.62109375,556.640625,-27.34375,-136.23046875,1.0,1.0,0.0,1.0,3.m4v,5.0
2024-02-27 14:33:29.239052,1709040809.2390518,999.51171875,999.51171875,-33.203125,999.51171875,1.0,1.0,0.0,1.0,3.m4v,5.0
2024-02-27 14:33:29.242957,1709040809.2429574,953.61328125,895.01953125,-35.15625,955.078125,1.0,1.0,0.0,1.0,3.m4v,5.0
2024-02-27 14:33:29.246863,1709040809.246863,944.82421875,985.3515625,-32.71484375,945.80078125,1.0,1.0,0.0,1.0,3.m4v,5.0
2024-02-27 14:33:29.250769,1709040809.250769,976.07421875,969.7265625,-26.85546875,976.5625,1.0,1.0,0.0,1.0,3.m4v,5.0
2024-02-27 14:33:29.254674,1709040809.2546742,968.75,969.7265625,-36.1328125,969.7265625,1.0,1.0,0.0,1.0,3.m4v,5.0
2024-02-27 14:33:29.258580,1709040809.25858,968.75,970.21484375,-46.875,969.7265625,1.0,1.0,0.0,1.0,3.m4v,5.0
2024-02-27 14:33:29.262486,1709040809.2624855,969.23828125,969.7265625,-31.73828125,969.7265625,1.0,1.0,0.0,1.0,3.m4v,5.0
2024-02-27 14:33:29.266391,1709040809.266391,969.23828125,969.7265625,-23.92578125,970.703125,1.0,1.0,0.0,1.0,3.m4v,5.0
2024-02-27 14:33:29.270297,1709040809.2702968,986.328125,986.81640625,-31.25,981.4453125,1.0,1.0,0.0,1.0,3.m4v,5.0
2024-02-27 14:33:29.274209,1709040809.2742088,905.2734375,900.87890625,-36.62109375,909.66796875,1.0,1.0,0.0,1.0,3.m4v,5.0
2024-02-27 14:33:29.278114,1709040809.2781143,999.51171875,999.51171875,-31.73828125,999.51171875,1.0,1.0,0.0,1.0,3.m4v,5.0
2024-02-27 14:33:29.282020,1709040809.28202,793.45703125,698.73046875,-29.296875,618.1640625,1.0,1.0,0.0,1.0,3.m4v,5.0
2024-02-27 14:33:29.285926,1709040809.2859256,-680.17578125,-771.97265625,-30.2734375,-784.1796875,1.0,1.0,0.0,1.0,3.m4v,5.0
2024-02-27 14:33:29.289831,1709040809.2898312,-1000.0,-1000.0,-34.1796875,-1000.0,1.0,1.0,0.0,1.0,3.m4v,5.0
2024-02-27 14:33:29.293737,1709040809.293737,-928.22265625,-933.59375,-34.66796875,-939.94140625,1.0,1.0,0.0,1.0,3.m4v,5.0
2024-02-27 14:33:29.297642,1709040809.2976425,-1000.0,-1000.0,-40.0390625,-1000.0,1.0,1.0,0.0,1.0,3.m4v,5.0
2024-02-27 14:33:29.301548,1709040809.301548,-1000.0,-1000.0,-43.45703125,-1000.0,1.0,1.0,0.0,1.0,3.m4v,5.0
2024-02-27 14:33:29.305454,1709040809.3054538,-1000.0,-1000.0,-47.8515625,-1000.0,1.0,1.0,0.0,1.0,3.m4v,5.0
2024-02-27 14:33:29.309359,1709040809.3093593,-1000.0,-1000.0,-53.7109375,-1000.0,1.0,1.0,0.0,1.0,3.m4v,5.0
2024-02-27 14:33:29.313265,1709040809.3132648,-1000.0,-1000.0,-44.921875,-1000.0,1.0,1.0,0.0,1.0,3.m4v,5.0
2024-02-27 14:33:29.317171,1709040809.3171706,-1000.0,-1000.0,-41.9921875,-1000.0,1.0,1.0,0.0,1.0,3.m4v,5.0
2024-02-27 14:33:29.321082,1709040809.3210824,-1000.0,-1000.0,-39.55078125,-1000.0,1.0,1.0,0.0,1.0,3.m4v,5.0
2024-02-27 14:33:29.324988,1709040809.324988,-1000.0,-1000.0,-32.71484375,-1000.0,1.0,1.0,0.0,1.0,3.m4v,5.0
2024-02-27 14:33:29.328894,1709040809.3288937,-1000.0,-992.1875,-32.71484375,-1000.0,1.0,1.0,0.0,1.0,3.m4v,5.0
2024-02-27 14:33:29.332799,1709040809.3327992,-938.96484375,-956.0546875,-37.109375,-944.3359375,1.0,1.0,0.0,1.0,3.m4v,5.0
2024-02-27 14:33:29.336705,1709040809.336705,-1000.0,-1000.0,-43.45703125,-1000.0,1.0,1.0,0.0,1.0,3.m4v,5.0
2024-02-27 14:33:29.340611,1709040809.3406105,-841.30859375,-133.7890625,-47.8515625,-904.78515625,1.0,1.0,0.0,1.0,3.m4v,5.0
2024-02-27 14:33:29.344516,1709040809.344516,622.55859375,999.51171875,-42.96875,545.41015625,1.0,1.0,0.0,1.0,3.m4v,5.0
2024-02-27 14:33:29.348422,1709040809.3484218,999.51171875,951.66015625,-33.69140625,999.51171875,1.0,1.0,0.0,1.0,3.m4v,5.0
2024-02-27 14:33:29.352327,1709040809.352327,896.484375,946.77734375,-35.15625,895.01953125,1.0,1.0,0.0,1.0,3.m4v,5.0
2024-02-27 14:33:29.356233,1709040809.356233,985.3515625,976.5625,-41.015625,984.86328125,1.0,1.0,0.0,1.0,3.m4v,5.0
2024-02-27 14:33:29.360139,1709040809.360139,969.23828125,969.7265625,-45.41015625,969.7265625,1.0,1.0,0.0,1.0,3.m4v,5.0
2024-02-27 14:33:29.364044,1709040809.3640442,969.23828125,969.7265625,-39.55078125,969.7265625,1.0,1.0,0.0,1.0,3.m4v,5.0
2024-02-27 14:33:29.367956,1709040809.3679557,969.23828125,969.7265625,-34.66796875,969.7265625,1.0,1.0,0.0,1.0,3.m4v,5.0
2024-02-27 14:33:29.371861,1709040809.3718617,968.75,969.7265625,-40.52734375,969.7265625,1.0,1.0,0.0,1.0,3.m4v,5.0
2024-02-27 14:33:29.375767,1709040809.375767,969.23828125,969.7265625,-41.50390625,969.7265625,1.0,1.0,0.0,1.0,3.m4v,5.0
2024-02-27 14:33:29.379673,1709040809.3796723,969.23828125,969.7265625,-41.015625,969.7265625,1.0,1.0,0.0,1.0,3.m4v,5.0
2024-02-27 14:33:29.383578,1709040809.3835783,969.23828125,971.19140625,-37.109375,969.7265625,1.0,1.0,0.0,1.0,3.m4v,5.0
2024-02-27 14:33:29.387484,1709040809.3874838,986.81640625,977.5390625,-27.34375,985.83984375,1.0,1.0,0.0,1.0,3.m4v,5.0
2024-02-27 14:33:29.391390,1709040809.3913896,901.3671875,906.25,-26.85546875,900.87890625,1.0,1.0,0.0,1.0,3.m4v,5.0
2024-02-27 14:33:29.395295,1709040809.3952951,999.51171875,999.51171875,-38.0859375,999.51171875,1.0,1.0,0.0,1.0,3.m4v,5.0
2024-02-27 14:33:29.399201,1709040809.399201,737.79296875,423.33984375,-49.8046875,664.55078125,1.0,1.0,0.0,1.0,3.m4v,5.0
2024-02-27 14:33:29.403106,1709040809.4031065,-741.69921875,-932.12890625,-45.8984375,-795.8984375,1.0,1.0,0.0,1.0,3.m4v,5.0
2024-02-27 14:33:29.407012,1709040809.407012,-1000.0,-1000.0,-36.62109375,-1000.0,1.0,1.0,0.0,1.0,3.m4v,5.0
2024-02-27 14:33:29.410918,1709040809.4109175,-930.6640625,-953.125,-31.25,-936.03515625,1.0,1.0,0.0,1.0,3.m4v,5.0
2024-02-27 14:33:29.414829,1709040809.4148293,-1000.0,-1000.0,-36.62109375,-1000.0,1.0,1.0,0.0,1.0,3.m4v,5.0
2024-02-27 14:33:29.418735,1709040809.4187348,-1000.0,-1000.0,-44.43359375,-1000.0,1.0,1.0,0.0,1.0,3.m4v,5.0
2024-02-27 14:33:29.422640,1709040809.4226403,-1000.0,-1000.0,-35.15625,-1000.0,1.0,1.0,0.0,1.0,3.m4v,5.0
2024-02-27 14:33:29.426546,1709040809.426546,-1000.0,-994.140625,-36.62109375,-1000.0,1.0,1.0,0.0,1.0,3.m4v,5.0
2024-02-27 14:33:29.430452,1709040809.4304516,-1000.0,-1000.0,-46.875,-1000.0,1.0,1.0,0.0,1.0,3.m4v,5.0
2024-02-27 14:33:29.434357,1709040809.4343574,-1000.0,-957.03125,-34.66796875,-1000.0,1.0,1.0,0.0,1.0,3.m4v,5.0
2024-02-27 14:33:29.438263,1709040809.438263,-1000.0,-940.4296875,-30.76171875,-1000.0,1.0,1.0,0.0,1.0,3.m4v,5.0
2024-02-27 14:33:29.442168,1709040809.4421685,-945.3125,-950.1953125,-39.0625,-942.3828125,1.0,1.0,0.0,1.0,3.m4v,5.0
2024-02-27 14:33:29.446074,1709040809.4460742,-1000.0,-1000.0,-23.4375,-1000.0,1.0,1.0,0.0,1.0,3.m4v,5.0
2024-02-27 14:33:29.449980,1709040809.4499798,-913.0859375,-898.92578125,-14.6484375,-883.7890625,1.0,1.0,0.0,1.0,3.m4v,5.0
2024-02-27 14:33:29.453885,1709040809.4538853,531.25,550.78125,-29.296875,571.77734375,1.0,1.0,0.0,1.0,3.m4v,5.0
2024-02-27 14:33:29.457791,1709040809.457791,999.51171875,999.51171875,-40.52734375,999.51171875,1.0,1.0,0.0,1.0,3.m4v,5.0
2024-02-27 14:33:29.461702,1709040809.461702,894.04296875,895.01953125,-40.52734375,895.5078125,1.0,1.0,0.0,1.0,3.m4v,5.0
2024-02-27 14:33:29.465608,1709040809.465608,984.375,985.3515625,-32.2265625,985.3515625,1.0,1.0,0.0,1.0,3.m4v,5.0
2024-02-27 14:33:29.469513,1709040809.4695134,969.23828125,969.7265625,-22.4609375,969.7265625,1.0,1.0,0.0,1.0,3.m4v,5.0
2024-02-27 14:33:29.473419,1709040809.473419,968.75,969.7265625,-28.3203125,969.7265625,1.0,1.0,0.0,1.0,3.m4v,5.0
2024-02-27 14:33:29.477325,1709040809.4773247,969.23828125,969.7265625,-29.78515625,969.7265625,1.0,1.0,0.0,1.0,3.m4v,5.0
2024-02-27 14:33:29.481230,1709040809.4812305,968.75,969.7265625,-33.69140625,969.7265625,1.0,1.0,0.0,1.0,3.m4v,5.0
2024-02-27 14:33:29.485136,1709040809.4851358,968.75,969.7265625,-42.96875,969.7265625,1.0,1.0,0.0,1.0,3.m4v,5.0
2024-02-27 14:33:29.489042,1709040809.4890416,968.75,969.7265625,-36.1328125,969.7265625,1.0,1.0,0.0,1.0,3.m4v,5.0
2024-02-27 14:33:29.492947,1709040809.492947,969.23828125,969.7265625,-27.34375,969.7265625,1.0,1.0,0.0,1.0,3.m4v,5.0
2024-02-27 14:33:29.496853,1709040809.4968526,969.23828125,969.7265625,-29.296875,969.7265625,1.0,1.0,0.0,1.0,3.m4v,5.0
2024-02-27 14:33:29.500758,1709040809.5007584,969.23828125,969.7265625,-34.66796875,969.7265625,1.0,1.0,0.0,1.0,3.m4v,5.0
2024-02-27 14:33:29.504664,1709040809.504664,985.3515625,985.83984375,-36.1328125,986.328125,1.0,1.0,0.0,1.0,3.m4v,5.0
2024-02-27 14:33:29.508575,1709040809.5085747,911.1328125,907.71484375,-35.64453125,911.62109375,1.0,1.0,0.0,1.0,3.m4v,5.0
2024-02-27 14:33:29.512480,1709040809.5124805,999.51171875,999.51171875,-28.80859375,999.51171875,1.0,1.0,0.0,1.0,3.m4v,5.0
2024-02-27 14:33:29.516386,1709040809.516386,859.86328125,764.6484375,-32.2265625,856.93359375,1.0,1.0,0.0,1.0,3.m4v,5.0
2024-02-27 14:33:29.520292,1709040809.5202916,-597.16796875,-687.01171875,-39.55078125,-601.5625,1.0,1.0,0.0,1.0,3.m4v,5.0
2024-02-27 14:33:29.524197,1709040809.524197,-1000.0,-1000.0,-33.203125,-1000.0,1.0,1.0,0.0,1.0,3.m4v,5.0
2024-02-27 14:33:29.528103,1709040809.5281029,-925.78125,-931.15234375,-16.6015625,-925.78125,1.0,1.0,0.0,1.0,3.m4v,5.0
2024-02-27 14:33:29.532008,1709040809.5320084,-1000.0,-1000.0,-12.6953125,-1000.0,1.0,1.0,0.0,1.0,3.m4v,5.0
2024-02-27 14:33:29.535914,1709040809.5359142,-1000.0,-1000.0,-19.04296875,-1000.0,1.0,1.0,0.0,1.0,3.m4v,5.0
2024-02-27 14:33:29.539820,1709040809.5398197,-1000.0,-1000.0,-29.296875,-1000.0,1.0,1.0,0.0,1.0,3.m4v,5.0
2024-02-27 14:33:29.543725,1709040809.5437255,-1000.0,-1000.0,-27.83203125,-1000.0,1.0,1.0,0.0,1.0,3.m4v,5.0
