Timestamp,Timestamp_UNIX,TP9,AF7,AF8,TP10,Valence,Arousal,Dominace,Viewed,Video,Participant
2024-02-27 14:07:30.001910,1709039250.0019095,-995.1171875,-1000.0,-91.796875,-34.66796875,-1.0,-1.0,-1.0,0.0,9.m4v,4.0
2024-02-27 14:07:30.005816,1709039250.0058155,-570.3125,-944.82421875,-222.65625,-41.9921875,-1.0,-1.0,-1.0,0.0,9.m4v,4.0
2024-02-27 14:07:30.009722,1709039250.0097215,-514.6484375,-996.58203125,-699.21875,-46.38671875,-1.0,-1.0,-1.0,0.0,9.m4v,4.0
2024-02-27 14:07:30.013628,1709039250.0136275,-366.69921875,-940.4296875,-666.9921875,-34.66796875,-1.0,-1.0,-1.0,0.0,9.m4v,4.0
2024-02-27 14:07:30.017534,1709039250.0175335,394.04296875,-1000.0,-163.0859375,-26.3671875,-1.0,-1.0,-1.0,0.0,9.m4v,4.0
2024-02-27 14:07:30.021439,1709039250.0214393,864.74609375,-188.96484375,333.984375,-15.625,-1.0,-1.0,-1.0,0.0,9.m4v,4.0
2024-02-27 14:07:30.025345,1709039250.025345,989.74609375,999.51171875,467.28515625,-19.53125,-1.0,-1.0,-1.0,0.0,9.m4v,4.0
2024-02-27 14:07:30.029251,1709039250.029251,819.3359375,972.65625,93.75,-32.71484375,-1.0,-1.0,-1.0,0.0,9.m4v,4.0
2024-02-27 14:07:30.033157,1709039250.033157,-322.265625,822.75390625,-444.3359375,-38.57421875,-1.0,-1.0,-1.0,0.0,9.m4v,4.0
2024-02-27 14:07:30.158147,1709039250.1581466,-1000.0,-1000.0,-233.88671875,-38.0859375,-1.0,-1.0,-1.0,0.0,9.m4v,4.0
2024-02-27 14:07:30.162053,1709039250.1620526,-277.83203125,-946.77734375,219.23828125,-27.34375,-1.0,-1.0,-1.0,0.0,9.m4v,4.0
2024-02-27 14:07:30.165959,1709039250.1659586,485.3515625,-1000.0,102.05078125,-34.1796875,-1.0,-1.0,-1.0,0.0,9.m4v,4.0
2024-02-27 14:07:30.169864,1709039250.1698644,-349.12109375,-937.5,-516.11328125,-49.31640625,-1.0,-1.0,-1.0,0.0,9.m4v,4.0
2024-02-27 14:07:30.173770,1709039250.1737704,-1000.0,-1000.0,-778.3203125,-43.45703125,-1.0,-1.0,-1.0,0.0,9.m4v,4.0
2024-02-27 14:07:30.177676,1709039250.1776764,44.43359375,-217.7734375,190.91796875,-21.97265625,-1.0,-1.0,-1.0,0.0,9.m4v,4.0
2024-02-27 14:07:30.181582,1709039250.1815822,999.51171875,999.51171875,999.51171875,-18.5546875,-1.0,-1.0,-1.0,0.0,9.m4v,4.0
2024-02-27 14:07:30.185488,1709039250.1854882,948.2421875,881.8359375,730.46875,-33.69140625,-1.0,-1.0,-1.0,0.0,9.m4v,4.0
2024-02-27 14:07:30.189394,1709039250.1893942,-32.71484375,999.51171875,-52.734375,-41.50390625,-1.0,-1.0,-1.0,0.0,9.m4v,4.0
2024-02-27 14:07:30.193300,1709039250.1933,-996.58203125,480.95703125,-392.08984375,-44.921875,-1.0,-1.0,-1.0,0.0,9.m4v,4.0
2024-02-27 14:07:30.197206,1709039250.197206,-1000.0,-914.55078125,-190.4296875,-56.640625,-1.0,-1.0,-1.0,0.0,9.m4v,4.0
2024-02-27 14:07:30.201112,1709039250.201112,-673.33984375,-998.046875,140.625,-46.38671875,-1.0,-1.0,-1.0,0.0,9.m4v,4.0
2024-02-27 14:07:30.205019,1709039250.2050183,175.78125,-1000.0,186.03515625,-30.2734375,-1.0,-1.0,-1.0,0.0,9.m4v,4.0
2024-02-27 14:07:30.208925,1709039250.2089243,766.6015625,-4.8828125,78.61328125,-27.83203125,-1.0,-1.0,-1.0,0.0,9.m4v,4.0
2024-02-27 14:07:30.212831,1709039250.2128303,924.8046875,999.51171875,-12.20703125,-30.2734375,-1.0,-1.0,-1.0,0.0,9.m4v,4.0
2024-02-27 14:07:30.216736,1709039250.2167363,321.77734375,926.7578125,110.3515625,-36.1328125,-1.0,-1.0,-1.0,0.0,9.m4v,4.0
2024-02-27 14:07:30.220642,1709039250.2206423,287.59765625,954.1015625,634.765625,-27.83203125,-1.0,-1.0,-1.0,0.0,9.m4v,4.0
2024-02-27 14:07:30.224548,1709039250.2245483,999.51171875,917.48046875,999.51171875,-16.11328125,-1.0,-1.0,-1.0,0.0,9.m4v,4.0
2024-02-27 14:07:30.228454,1709039250.228454,708.49609375,999.51171875,762.6953125,-20.5078125,-1.0,-1.0,-1.0,0.0,9.m4v,4.0
2024-02-27 14:07:30.232360,1709039250.23236,-572.265625,99.12109375,-176.7578125,-43.45703125,-1.0,-1.0,-1.0,0.0,9.m4v,4.0
2024-02-27 14:07:30.236266,1709039250.236266,-1000.0,-1000.0,-524.90234375,-44.43359375,-1.0,-1.0,-1.0,0.0,9.m4v,4.0
2024-02-27 14:07:30.240172,1709039250.240172,-827.1484375,-971.6796875,101.5625,-27.34375,-1.0,-1.0,-1.0,0.0,9.m4v,4.0
2024-02-27 14:07:30.244078,1709039250.244078,-10.25390625,-979.4921875,366.69921875,-23.92578125,-1.0,-1.0,-1.0,0.0,9.m4v,4.0
2024-02-27 14:07:30.247984,1709039250.247984,156.73828125,-1000.0,-53.22265625,-25.390625,-1.0,-1.0,-1.0,0.0,9.m4v,4.0
2024-02-27 14:07:30.251889,1709039250.2518897,-708.984375,-973.6328125,-562.98828125,-41.9921875,-1.0,-1.0,-1.0,0.0,9.m4v,4.0
2024-02-27 14:07:30.255795,1709039250.2557952,-1000.0,-985.3515625,-521.97265625,-43.45703125,-1.0,-1.0,-1.0,0.0,9.m4v,4.0
2024-02-27 14:07:30.259701,1709039250.2597013,-32.2265625,-1000.0,60.546875,-33.69140625,-1.0,-1.0,-1.0,0.0,9.m4v,4.0
2024-02-27 14:07:30.263607,1709039250.2636073,968.26171875,181.640625,574.70703125,-20.99609375,-1.0,-1.0,-1.0,0.0,9.m4v,4.0
2024-02-27 14:07:30.267513,1709039250.267513,923.828125,999.51171875,619.140625,-24.4140625,-1.0,-1.0,-1.0,0.0,9.m4v,4.0
2024-02-27 14:07:30.271419,1709039250.271419,996.58203125,876.953125,503.41796875,-30.76171875,-1.0,-1.0,-1.0,0.0,9.m4v,4.0
2024-02-27 14:07:30.275325,1709039250.275325,186.03515625,999.51171875,301.7578125,-31.25,-1.0,-1.0,-1.0,0.0,9.m4v,4.0
2024-02-27 14:07:30.279231,1709039250.2792308,-954.1015625,-69.82421875,66.40625,-36.1328125,-1.0,-1.0,-1.0,0.0,9.m4v,4.0
2024-02-27 14:07:30.283137,1709039250.2831368,-996.58203125,-1000.0,25.390625,-30.76171875,-1.0,-1.0,-1.0,0.0,9.m4v,4.0
2024-02-27 14:07:30.287043,1709039250.2870429,-966.30859375,-960.44921875,-283.69140625,-25.390625,-1.0,-1.0,-1.0,0.0,9.m4v,4.0
2024-02-27 14:07:30.290949,1709039250.2909486,-882.32421875,-958.49609375,-686.5234375,-30.76171875,-1.0,-1.0,-1.0,0.0,9.m4v,4.0
2024-02-27 14:07:30.294855,1709039250.2948546,-444.82421875,-1000.0,-592.28515625,-33.69140625,-1.0,-1.0,-1.0,0.0,9.m4v,4.0
2024-02-27 14:07:30.298760,1709039250.29876,428.7109375,-1000.0,-43.9453125,-27.34375,-1.0,-1.0,-1.0,0.0,9.m4v,4.0
2024-02-27 14:07:30.302666,1709039250.302666,950.1953125,261.23046875,486.328125,-18.06640625,-1.0,-1.0,-1.0,0.0,9.m4v,4.0
2024-02-27 14:07:30.306572,1709039250.3065715,999.51171875,999.51171875,398.92578125,-22.4609375,-1.0,-1.0,-1.0,0.0,9.m4v,4.0
2024-02-27 14:07:30.310478,1709039250.3104775,455.56640625,909.1796875,-170.41015625,-39.0625,-1.0,-1.0,-1.0,0.0,9.m4v,4.0
2024-02-27 14:07:30.314384,1709039250.3143835,-718.75,971.6796875,-367.1875,-46.38671875,-1.0,-1.0,-1.0,0.0,9.m4v,4.0
2024-02-27 14:07:30.318290,1709039250.3182895,-48.33984375,982.91015625,430.6640625,-21.97265625,-1.0,-1.0,-1.0,0.0,9.m4v,4.0
2024-02-27 14:07:30.322196,1709039250.3221955,999.51171875,895.99609375,987.3046875,-11.71875,-1.0,-1.0,-1.0,0.0,9.m4v,4.0
2024-02-27 14:07:30.326102,1709039250.3261015,594.23828125,999.51171875,602.05078125,-32.71484375,-1.0,-1.0,-1.0,0.0,9.m4v,4.0
2024-02-27 14:07:30.330007,1709039250.3300073,-523.4375,463.8671875,2.9296875,-41.015625,-1.0,-1.0,-1.0,0.0,9.m4v,4.0
2024-02-27 14:07:30.333913,1709039250.333913,-994.62890625,-950.1953125,-630.37109375,-42.48046875,-1.0,-1.0,-1.0,0.0,9.m4v,4.0
2024-02-27 14:07:30.337819,1709039250.337819,-1000.0,-1000.0,-447.75390625,-38.0859375,-1.0,-1.0,-1.0,0.0,9.m4v,4.0
2024-02-27 14:07:30.341725,1709039250.341725,-435.546875,-950.68359375,136.71875,-26.85546875,-1.0,-1.0,-1.0,0.0,9.m4v,4.0
2024-02-27 14:07:30.345631,1709039250.3456314,562.98828125,-1000.0,143.06640625,-25.87890625,-1.0,-1.0,-1.0,0.0,9.m4v,4.0
2024-02-27 14:07:30.349537,1709039250.3495374,33.69140625,-1000.0,-362.79296875,-33.69140625,-1.0,-1.0,-1.0,0.0,9.m4v,4.0
2024-02-27 14:07:30.353443,1709039250.3534431,-931.15234375,-988.28125,-680.6640625,-43.9453125,-1.0,-1.0,-1.0,0.0,9.m4v,4.0
2024-02-27 14:07:30.357349,1709039250.3573492,-980.95703125,-956.54296875,-508.30078125,-44.43359375,-1.0,-1.0,-1.0,0.0,9.m4v,4.0
2024-02-27 14:07:30.415938,1709039250.4159384,-294.43359375,-1000.0,-644.53125,-30.2734375,-1.0,-1.0,-1.0,0.0,9.m4v,4.0
2024-02-27 14:07:30.415938,1709039250.4159384,-294.43359375,-1000.0,-644.53125,-30.2734375,-1.0,-1.0,-1.0,0.0,9.m4v,4.0
2024-02-27 14:07:30.419844,1709039250.4198442,-80.078125,-1000.0,-415.52734375,-29.296875,-1.0,-1.0,-1.0,0.0,9.m4v,4.0
2024-02-27 14:07:30.419844,1709039250.4198442,-80.078125,-1000.0,-415.52734375,-29.296875,-1.0,-1.0,-1.0,0.0,9.m4v,4.0
2024-02-27 14:07:30.419844,1709039250.4198442,-80.078125,-1000.0,-415.52734375,-29.296875,-1.0,-1.0,-1.0,0.0,9.m4v,4.0
2024-02-27 14:07:30.423750,1709039250.4237502,651.3671875,-1000.0,-188.96484375,-36.62109375,-1.0,-1.0,-1.0,0.0,9.m4v,4.0
2024-02-27 14:07:30.423750,1709039250.4237502,651.3671875,-1000.0,-188.96484375,-36.62109375,-1.0,-1.0,-1.0,0.0,9.m4v,4.0
2024-02-27 14:07:30.423750,1709039250.4237502,651.3671875,-1000.0,-188.96484375,-36.62109375,-1.0,-1.0,-1.0,0.0,9.m4v,4.0
2024-02-27 14:07:30.423750,1709039250.4237502,651.3671875,-1000.0,-188.96484375,-36.62109375,-1.0,-1.0,-1.0,0.0,9.m4v,4.0
2024-02-27 14:07:30.427656,1709039250.4276562,230.46875,-1000.0,-671.38671875,-46.38671875,-1.0,-1.0,-1.0,0.0,9.m4v,4.0
2024-02-27 14:07:30.427656,1709039250.4276562,230.46875,-1000.0,-671.38671875,-46.38671875,-1.0,-1.0,-1.0,0.0,9.m4v,4.0
2024-02-27 14:07:30.427656,1709039250.4276562,230.46875,-1000.0,-671.38671875,-46.38671875,-1.0,-1.0,-1.0,0.0,9.m4v,4.0
2024-02-27 14:07:30.427656,1709039250.4276562,230.46875,-1000.0,-671.38671875,-46.38671875,-1.0,-1.0,-1.0,0.0,9.m4v,4.0
2024-02-27 14:07:30.431562,1709039250.431562,-887.6953125,-998.046875,-1000.0,-41.50390625,-1.0,-1.0,-1.0,0.0,9.m4v,4.0
2024-02-27 14:07:30.431562,1709039250.431562,-887.6953125,-998.046875,-1000.0,-41.50390625,-1.0,-1.0,-1.0,0.0,9.m4v,4.0
2024-02-27 14:07:30.431562,1709039250.431562,-887.6953125,-998.046875,-1000.0,-41.50390625,-1.0,-1.0,-1.0,0.0,9.m4v,4.0
2024-02-27 14:07:30.431562,1709039250.431562,-887.6953125,-998.046875,-1000.0,-41.50390625,-1.0,-1.0,-1.0,0.0,9.m4v,4.0
2024-02-27 14:07:30.435468,1709039250.435468,-737.3046875,-941.89453125,-949.21875,-33.69140625,-1.0,-1.0,-1.0,0.0,9.m4v,4.0
2024-02-27 14:07:30.435468,1709039250.435468,-737.3046875,-941.89453125,-949.21875,-33.69140625,-1.0,-1.0,-1.0,0.0,9.m4v,4.0
2024-02-27 14:07:30.435468,1709039250.435468,-737.3046875,-941.89453125,-949.21875,-33.69140625,-1.0,-1.0,-1.0,0.0,9.m4v,4.0
2024-02-27 14:07:30.435468,1709039250.435468,-737.3046875,-941.89453125,-949.21875,-33.69140625,-1.0,-1.0,-1.0,0.0,9.m4v,4.0
2024-02-27 14:07:30.439374,1709039250.439374,206.0546875,-1000.0,-552.734375,-34.66796875,-1.0,-1.0,-1.0,0.0,9.m4v,4.0
2024-02-27 14:07:30.439374,1709039250.439374,206.0546875,-1000.0,-552.734375,-34.66796875,-1.0,-1.0,-1.0,0.0,9.m4v,4.0
2024-02-27 14:07:30.439374,1709039250.439374,206.0546875,-1000.0,-552.734375,-34.66796875,-1.0,-1.0,-1.0,0.0,9.m4v,4.0
2024-02-27 14:07:30.439374,1709039250.439374,206.0546875,-1000.0,-552.734375,-34.66796875,-1.0,-1.0,-1.0,0.0,9.m4v,4.0
2024-02-27 14:07:30.443280,1709039250.4432795,909.66796875,-171.38671875,-170.8984375,-31.73828125,-1.0,-1.0,-1.0,0.0,9.m4v,4.0
2024-02-27 14:07:30.443280,1709039250.4432795,909.66796875,-171.38671875,-170.8984375,-31.73828125,-1.0,-1.0,-1.0,0.0,9.m4v,4.0
2024-02-27 14:07:30.443280,1709039250.4432795,909.66796875,-171.38671875,-170.8984375,-31.73828125,-1.0,-1.0,-1.0,0.0,9.m4v,4.0
2024-02-27 14:07:30.443280,1709039250.4432795,909.66796875,-171.38671875,-170.8984375,-31.73828125,-1.0,-1.0,-1.0,0.0,9.m4v,4.0
2024-02-27 14:07:30.443280,1709039250.4432795,909.66796875,-171.38671875,-170.8984375,-31.73828125,-1.0,-1.0,-1.0,0.0,9.m4v,4.0
2024-02-27 14:07:30.447186,1709039250.4471858,999.51171875,999.51171875,-222.65625,-22.94921875,-1.0,-1.0,-1.0,0.0,9.m4v,4.0
2024-02-27 14:07:30.447186,1709039250.4471858,999.51171875,999.51171875,-222.65625,-22.94921875,-1.0,-1.0,-1.0,0.0,9.m4v,4.0
2024-02-27 14:07:30.447186,1709039250.4471858,999.51171875,999.51171875,-222.65625,-22.94921875,-1.0,-1.0,-1.0,0.0,9.m4v,4.0
2024-02-27 14:07:30.447186,1709039250.4471858,999.51171875,999.51171875,-222.65625,-22.94921875,-1.0,-1.0,-1.0,0.0,9.m4v,4.0
2024-02-27 14:07:30.451092,1709039250.4510918,775.87890625,947.265625,-537.59765625,-30.2734375,-1.0,-1.0,-1.0,0.0,9.m4v,4.0
2024-02-27 14:07:30.451092,1709039250.4510918,775.87890625,947.265625,-537.59765625,-30.2734375,-1.0,-1.0,-1.0,0.0,9.m4v,4.0
2024-02-27 14:07:30.451092,1709039250.4510918,775.87890625,947.265625,-537.59765625,-30.2734375,-1.0,-1.0,-1.0,0.0,9.m4v,4.0
2024-02-27 14:07:30.451092,1709039250.4510918,775.87890625,947.265625,-537.59765625,-30.2734375,-1.0,-1.0,-1.0,0.0,9.m4v,4.0
2024-02-27 14:07:30.451092,1709039250.4510918,775.87890625,947.265625,-537.59765625,-30.2734375,-1.0,-1.0,-1.0,0.0,9.m4v,4.0
2024-02-27 14:07:30.454998,1709039250.4549975,-298.33984375,947.265625,-831.0546875,-38.0859375,-1.0,-1.0,-1.0,0.0,9.m4v,4.0
2024-02-27 14:07:30.454998,1709039250.4549975,-298.33984375,947.265625,-831.0546875,-38.0859375,-1.0,-1.0,-1.0,0.0,9.m4v,4.0
2024-02-27 14:07:30.454998,1709039250.4549975,-298.33984375,947.265625,-831.0546875,-38.0859375,-1.0,-1.0,-1.0,0.0,9.m4v,4.0
2024-02-27 14:07:30.454998,1709039250.4549975,-298.33984375,947.265625,-831.0546875,-38.0859375,-1.0,-1.0,-1.0,0.0,9.m4v,4.0
2024-02-27 14:07:30.458904,1709039250.4589036,-179.19921875,971.6796875,-168.9453125,-38.0859375,-1.0,-1.0,-1.0,0.0,9.m4v,4.0
2024-02-27 14:07:30.458904,1709039250.4589036,-179.19921875,971.6796875,-168.9453125,-38.0859375,-1.0,-1.0,-1.0,0.0,9.m4v,4.0
2024-02-27 14:07:30.458904,1709039250.4589036,-179.19921875,971.6796875,-168.9453125,-38.0859375,-1.0,-1.0,-1.0,0.0,9.m4v,4.0
2024-02-27 14:07:30.458904,1709039250.4589036,-179.19921875,971.6796875,-168.9453125,-38.0859375,-1.0,-1.0,-1.0,0.0,9.m4v,4.0
2024-02-27 14:07:30.458904,1709039250.4589036,-179.19921875,971.6796875,-168.9453125,-38.0859375,-1.0,-1.0,-1.0,0.0,9.m4v,4.0
2024-02-27 14:07:30.462810,1709039250.4628096,999.51171875,914.0625,628.41796875,-22.94921875,-1.0,-1.0,-1.0,0.0,9.m4v,4.0
2024-02-27 14:07:30.462810,1709039250.4628096,999.51171875,914.0625,628.41796875,-22.94921875,-1.0,-1.0,-1.0,0.0,9.m4v,4.0
2024-02-27 14:07:30.462810,1709039250.4628096,999.51171875,914.0625,628.41796875,-22.94921875,-1.0,-1.0,-1.0,0.0,9.m4v,4.0
2024-02-27 14:07:30.462810,1709039250.4628096,999.51171875,914.0625,628.41796875,-22.94921875,-1.0,-1.0,-1.0,0.0,9.m4v,4.0
2024-02-27 14:07:30.466715,1709039250.466715,518.5546875,999.51171875,3.90625,-26.85546875,-1.0,-1.0,-1.0,0.0,9.m4v,4.0
2024-02-27 14:07:30.466715,1709039250.466715,518.5546875,999.51171875,3.90625,-26.85546875,-1.0,-1.0,-1.0,0.0,9.m4v,4.0
2024-02-27 14:07:30.466715,1709039250.466715,518.5546875,999.51171875,3.90625,-26.85546875,-1.0,-1.0,-1.0,0.0,9.m4v,4.0
2024-02-27 14:07:30.466715,1709039250.466715,518.5546875,999.51171875,3.90625,-26.85546875,-1.0,-1.0,-1.0,0.0,9.m4v,4.0
2024-02-27 14:07:30.466715,1709039250.466715,518.5546875,999.51171875,3.90625,-26.85546875,-1.0,-1.0,-1.0,0.0,9.m4v,4.0
2024-02-27 14:07:30.470621,1709039250.470621,-776.3671875,115.234375,-844.23828125,-45.41015625,-1.0,-1.0,-1.0,0.0,9.m4v,4.0
2024-02-27 14:07:30.470621,1709039250.470621,-776.3671875,115.234375,-844.23828125,-45.41015625,-1.0,-1.0,-1.0,0.0,9.m4v,4.0
2024-02-27 14:07:30.470621,1709039250.470621,-776.3671875,115.234375,-844.23828125,-45.41015625,-1.0,-1.0,-1.0,0.0,9.m4v,4.0
2024-02-27 14:07:30.470621,1709039250.470621,-776.3671875,115.234375,-844.23828125,-45.41015625,-1.0,-1.0,-1.0,0.0,9.m4v,4.0
2024-02-27 14:07:30.474527,1709039250.4745274,-1000.0,-1000.0,-1000.0,-52.734375,-1.0,-1.0,-1.0,0.0,9.m4v,4.0
2024-02-27 14:07:30.474527,1709039250.4745274,-1000.0,-1000.0,-1000.0,-52.734375,-1.0,-1.0,-1.0,0.0,9.m4v,4.0
2024-02-27 14:07:30.474527,1709039250.4745274,-1000.0,-1000.0,-1000.0,-52.734375,-1.0,-1.0,-1.0,0.0,9.m4v,4.0
2024-02-27 14:07:30.478433,1709039250.4784331,-949.21875,-974.12109375,-776.3671875,-40.0390625,-1.0,-1.0,-1.0,0.0,9.m4v,4.0
2024-02-27 14:07:30.478433,1709039250.4784331,-949.21875,-974.12109375,-776.3671875,-40.0390625,-1.0,-1.0,-1.0,0.0,9.m4v,4.0
2024-02-27 14:07:30.478433,1709039250.4784331,-949.21875,-974.12109375,-776.3671875,-40.0390625,-1.0,-1.0,-1.0,0.0,9.m4v,4.0
2024-02-27 14:07:30.478433,1709039250.4784331,-949.21875,-974.12109375,-776.3671875,-40.0390625,-1.0,-1.0,-1.0,0.0,9.m4v,4.0
2024-02-27 14:07:30.482339,1709039250.4823391,125.9765625,-978.515625,-204.1015625,-30.2734375,-1.0,-1.0,-1.0,0.0,9.m4v,4.0
2024-02-27 14:07:30.482339,1709039250.4823391,125.9765625,-978.515625,-204.1015625,-30.2734375,-1.0,-1.0,-1.0,0.0,9.m4v,4.0
2024-02-27 14:07:30.482339,1709039250.4823391,125.9765625,-978.515625,-204.1015625,-30.2734375,-1.0,-1.0,-1.0,0.0,9.m4v,4.0
2024-02-27 14:07:30.486245,1709039250.486245,975.5859375,-1000.0,-296.38671875,-34.66796875,-1.0,-1.0,-1.0,0.0,9.m4v,4.0
2024-02-27 14:07:30.486245,1709039250.486245,975.5859375,-1000.0,-296.38671875,-34.66796875,-1.0,-1.0,-1.0,0.0,9.m4v,4.0
2024-02-27 14:07:30.486245,1709039250.486245,975.5859375,-1000.0,-296.38671875,-34.66796875,-1.0,-1.0,-1.0,0.0,9.m4v,4.0
2024-02-27 14:07:30.486245,1709039250.486245,975.5859375,-1000.0,-296.38671875,-34.66796875,-1.0,-1.0,-1.0,0.0,9.m4v,4.0
2024-02-27 14:07:30.490151,1709039250.490151,31.73828125,-944.82421875,-825.1953125,-41.50390625,-1.0,-1.0,-1.0,0.0,9.m4v,4.0
2024-02-27 14:07:30.490151,1709039250.490151,31.73828125,-944.82421875,-825.1953125,-41.50390625,-1.0,-1.0,-1.0,0.0,9.m4v,4.0
2024-02-27 14:07:30.490151,1709039250.490151,31.73828125,-944.82421875,-825.1953125,-41.50390625,-1.0,-1.0,-1.0,0.0,9.m4v,4.0
2024-02-27 14:07:30.494057,1709039250.4940567,-946.77734375,-1000.0,-976.07421875,-40.0390625,-1.0,-1.0,-1.0,0.0,9.m4v,4.0
2024-02-27 14:07:30.494057,1709039250.4940567,-946.77734375,-1000.0,-976.07421875,-40.0390625,-1.0,-1.0,-1.0,0.0,9.m4v,4.0
2024-02-27 14:07:30.497963,1709039250.4979627,-282.71484375,-836.9140625,-492.1875,-25.87890625,-1.0,-1.0,-1.0,0.0,9.m4v,4.0
2024-02-27 14:07:30.497963,1709039250.4979627,-282.71484375,-836.9140625,-492.1875,-25.87890625,-1.0,-1.0,-1.0,0.0,9.m4v,4.0
2024-02-27 14:07:30.497963,1709039250.4979627,-282.71484375,-836.9140625,-492.1875,-25.87890625,-1.0,-1.0,-1.0,0.0,9.m4v,4.0
2024-02-27 14:07:30.501869,1709039250.5018687,913.57421875,566.89453125,359.86328125,-20.01953125,-1.0,-1.0,-1.0,0.0,9.m4v,4.0
2024-02-27 14:07:30.501869,1709039250.5018687,913.57421875,566.89453125,359.86328125,-20.01953125,-1.0,-1.0,-1.0,0.0,9.m4v,4.0
2024-02-27 14:07:30.505774,1709039250.5057745,954.1015625,999.51171875,554.19921875,-22.94921875,-1.0,-1.0,-1.0,0.0,9.m4v,4.0
2024-02-27 14:07:30.505774,1709039250.5057745,954.1015625,999.51171875,554.19921875,-22.94921875,-1.0,-1.0,-1.0,0.0,9.m4v,4.0
2024-02-27 14:07:30.505774,1709039250.5057745,954.1015625,999.51171875,554.19921875,-22.94921875,-1.0,-1.0,-1.0,0.0,9.m4v,4.0
2024-02-27 14:07:30.509681,1709039250.5096805,956.54296875,833.0078125,272.4609375,-28.3203125,-1.0,-1.0,-1.0,0.0,9.m4v,4.0
2024-02-27 14:07:30.509681,1709039250.5096805,956.54296875,833.0078125,272.4609375,-28.3203125,-1.0,-1.0,-1.0,0.0,9.m4v,4.0
2024-02-27 14:07:30.513587,1709039250.5135863,525.390625,999.51171875,99.609375,-35.15625,-1.0,-1.0,-1.0,0.0,9.m4v,4.0
2024-02-27 14:07:30.513587,1709039250.5135863,525.390625,999.51171875,99.609375,-35.15625,-1.0,-1.0,-1.0,0.0,9.m4v,4.0
2024-02-27 14:07:30.517492,1709039250.5174923,-609.375,375.48828125,-136.23046875,-46.875,-1.0,-1.0,-1.0,0.0,9.m4v,4.0
2024-02-27 14:07:30.521398,1709039250.5213983,-1000.0,-995.1171875,-260.25390625,-42.48046875,-1.0,-1.0,-1.0,0.0,9.m4v,4.0
2024-02-27 14:07:30.521398,1709039250.5213983,-1000.0,-995.1171875,-260.25390625,-42.48046875,-1.0,-1.0,-1.0,0.0,9.m4v,4.0
2024-02-27 14:07:30.529210,1709039250.52921,-702.1484375,-958.49609375,-724.12109375,-35.64453125,-1.0,-1.0,-1.0,0.0,9.m4v,4.0
2024-02-27 14:07:30.537022,1709039250.537022,-148.92578125,-1000.0,-595.21484375,-31.73828125,-1.0,-1.0,-1.0,0.0,9.m4v,4.0
2024-02-27 14:07:30.537022,1709039250.537022,-148.92578125,-1000.0,-595.21484375,-31.73828125,-1.0,-1.0,-1.0,0.0,9.m4v,4.0
2024-02-27 14:07:30.544834,1709039250.5448337,999.51171875,999.51171875,367.1875,-18.06640625,-1.0,-1.0,-1.0,0.0,9.m4v,4.0
2024-02-27 14:07:30.556551,1709039250.5565517,410.15625,976.5625,337.40234375,-35.64453125,-1.0,-1.0,-1.0,0.0,9.m4v,4.0
2024-02-27 14:07:30.556551,1709039250.5565517,410.15625,976.5625,337.40234375,-35.64453125,-1.0,-1.0,-1.0,0.0,9.m4v,4.0
2024-02-27 14:07:30.572175,1709039250.5721753,-760.7421875,182.12890625,-461.42578125,-45.41015625,-1.0,-1.0,-1.0,0.0,9.m4v,4.0
2024-02-27 14:07:30.587799,1709039250.5877988,667.96875,-1000.0,-114.2578125,-46.38671875,-1.0,-1.0,-1.0,0.0,9.m4v,4.0
2024-02-27 14:07:30.587799,1709039250.5877988,667.96875,-1000.0,-114.2578125,-46.38671875,-1.0,-1.0,-1.0,0.0,9.m4v,4.0
2024-02-27 14:07:30.603422,1709039250.6034224,999.51171875,999.51171875,996.09375,-28.80859375,-1.0,-1.0,-1.0,0.0,9.m4v,4.0
2024-02-27 14:07:30.619046,1709039250.6190462,184.08203125,982.91015625,395.5078125,-20.99609375,-1.0,-1.0,-1.0,0.0,9.m4v,4.0
2024-02-27 14:07:30.619046,1709039250.6190462,184.08203125,982.91015625,395.5078125,-20.99609375,-1.0,-1.0,-1.0,0.0,9.m4v,4.0
2024-02-27 14:07:30.634670,1709039250.6346695,-1000.0,-601.07421875,-196.2890625,-35.64453125,-1.0,-1.0,-1.0,0.0,9.m4v,4.0
2024-02-27 14:07:30.650293,1709039250.6502934,874.51171875,534.66796875,266.6015625,-22.94921875,-1.0,-1.0,-1.0,0.0,9.m4v,4.0
2024-02-27 14:07:30.650293,1709039250.6502934,874.51171875,534.66796875,266.6015625,-22.94921875,-1.0,-1.0,-1.0,0.0,9.m4v,4.0
2024-02-27 14:07:30.665917,1709039250.665917,-964.35546875,-1000.0,-77.63671875,-47.8515625,-1.0,-1.0,-1.0,0.0,9.m4v,4.0
2024-02-27 14:07:30.681540,1709039250.68154,939.94140625,-2.9296875,512.20703125,-18.06640625,-1.0,-1.0,-1.0,0.0,9.m4v,4.0
2024-02-27 14:07:30.681540,1709039250.68154,939.94140625,-2.9296875,512.20703125,-18.06640625,-1.0,-1.0,-1.0,0.0,9.m4v,4.0
2024-02-27 14:07:30.689352,1709039250.689352,756.34765625,927.734375,90.33203125,-38.0859375,-1.0,-1.0,-1.0,0.0,9.m4v,4.0
2024-02-27 14:07:30.701070,1709039250.7010698,184.08203125,973.14453125,654.296875,-35.64453125,-1.0,-1.0,-1.0,0.0,9.m4v,4.0
2024-02-27 14:07:30.701070,1709039250.7010698,184.08203125,973.14453125,654.296875,-35.64453125,-1.0,-1.0,-1.0,0.0,9.m4v,4.0
2024-02-27 14:07:30.708882,1709039250.7088816,-802.24609375,-312.5,-481.4453125,-43.9453125,-1.0,-1.0,-1.0,0.0,9.m4v,4.0
2024-02-27 14:07:30.826060,1709039250.82606,818.84765625,-986.81640625,129.39453125,-43.9453125,-1.0,-1.0,-1.0,0.0,9.m4v,4.0
2024-02-27 14:07:30.829966,1709039250.829966,56.640625,-966.796875,-469.23828125,-48.828125,-1.0,-1.0,-1.0,0.0,9.m4v,4.0
2024-02-27 14:07:30.833872,1709039250.8338718,-844.7265625,-1000.0,-516.11328125,-48.33984375,-1.0,-1.0,-1.0,0.0,9.m4v,4.0
2024-02-27 14:07:30.837778,1709039250.837778,232.91015625,70.80078125,309.08203125,-28.80859375,-1.0,-1.0,-1.0,0.0,9.m4v,4.0
2024-02-27 14:07:30.841684,1709039250.841684,999.51171875,999.51171875,758.7890625,-15.13671875,-1.0,-1.0,-1.0,0.0,9.m4v,4.0
2024-02-27 14:07:30.845590,1709039250.8455896,762.6953125,982.421875,388.671875,-34.1796875,-1.0,-1.0,-1.0,0.0,9.m4v,4.0
2024-02-27 14:07:30.849496,1709039250.8494956,-330.56640625,762.20703125,-335.9375,-44.921875,-1.0,-1.0,-1.0,0.0,9.m4v,4.0
2024-02-27 14:07:30.853402,1709039250.8534017,-1000.0,-587.890625,-746.09375,-44.43359375,-1.0,-1.0,-1.0,0.0,9.m4v,4.0
2024-02-27 14:07:30.857307,1709039250.8573074,-916.9921875,-1000.0,-363.28125,-43.9453125,-1.0,-1.0,-1.0,0.0,9.m4v,4.0
2024-02-27 14:07:30.861213,1709039250.8612134,113.76953125,-964.84375,335.9375,-42.96875,-1.0,-1.0,-1.0,0.0,9.m4v,4.0
2024-02-27 14:07:30.865119,1709039250.8651192,989.2578125,228.515625,534.66796875,-33.203125,-1.0,-1.0,-1.0,0.0,9.m4v,4.0
2024-02-27 14:07:30.869025,1709039250.8690252,999.51171875,999.51171875,286.1328125,-34.1796875,-1.0,-1.0,-1.0,0.0,9.m4v,4.0
2024-02-27 14:07:30.872931,1709039250.8729312,332.03125,909.1796875,-53.22265625,-39.55078125,-1.0,-1.0,-1.0,0.0,9.m4v,4.0
2024-02-27 14:07:30.876837,1709039250.876837,-776.3671875,985.83984375,-102.05078125,-25.390625,-1.0,-1.0,-1.0,0.0,9.m4v,4.0
2024-02-27 14:07:30.880743,1709039250.880743,-30.76171875,905.76171875,562.98828125,-17.578125,-1.0,-1.0,-1.0,0.0,9.m4v,4.0
2024-02-27 14:07:30.884649,1709039250.8846488,999.51171875,999.51171875,958.984375,-31.25,-1.0,-1.0,-1.0,0.0,9.m4v,4.0
2024-02-27 14:07:30.888555,1709039250.8885548,122.55859375,694.3359375,177.24609375,-38.57421875,-1.0,-1.0,-1.0,0.0,9.m4v,4.0
2024-02-27 14:07:30.892461,1709039250.8924608,-1000.0,-735.83984375,-722.16796875,-44.43359375,-1.0,-1.0,-1.0,0.0,9.m4v,4.0
2024-02-27 14:07:30.896367,1709039250.8963666,-1000.0,-1000.0,-746.09375,-43.9453125,-1.0,-1.0,-1.0,0.0,9.m4v,4.0
2024-02-27 14:07:30.900273,1709039250.9002726,-656.25,-937.98828125,-91.796875,-32.71484375,-1.0,-1.0,-1.0,0.0,9.m4v,4.0
2024-02-27 14:07:30.904179,1709039250.9041786,648.4375,-1000.0,331.0546875,-34.1796875,-1.0,-1.0,-1.0,0.0,9.m4v,4.0
2024-02-27 14:07:30.908084,1709039250.9080842,715.33203125,-1000.0,-52.24609375,-36.1328125,-1.0,-1.0,-1.0,0.0,9.m4v,4.0
2024-02-27 14:07:30.911990,1709039250.9119902,-609.86328125,-934.5703125,-541.015625,-46.38671875,-1.0,-1.0,-1.0,0.0,9.m4v,4.0
2024-02-27 14:07:30.915896,1709039250.9158962,-1000.0,-1000.0,-420.41015625,-49.31640625,-1.0,-1.0,-1.0,0.0,9.m4v,4.0
2024-02-27 14:07:30.919802,1709039250.919802,207.03125,-267.08984375,384.27734375,-33.203125,-1.0,-1.0,-1.0,0.0,9.m4v,4.0
2024-02-27 14:07:30.923708,1709039250.923708,999.51171875,999.51171875,915.52734375,-21.97265625,-1.0,-1.0,-1.0,0.0,9.m4v,4.0
2024-02-27 14:07:30.927614,1709039250.927614,942.3828125,917.48046875,689.453125,-32.71484375,-1.0,-1.0,-1.0,0.0,9.m4v,4.0
2024-02-27 14:07:30.931520,1709039250.9315195,787.109375,965.8203125,507.32421875,-35.15625,-1.0,-1.0,-1.0,0.0,9.m4v,4.0
2024-02-27 14:07:30.935426,1709039250.9354258,-254.39453125,914.0625,273.92578125,-37.59765625,-1.0,-1.0,-1.0,0.0,9.m4v,4.0
2024-02-27 14:07:30.939332,1709039250.9393318,-1000.0,-441.40625,92.7734375,-40.0390625,-1.0,-1.0,-1.0,0.0,9.m4v,4.0
2024-02-27 14:07:30.943238,1709039250.9432375,-992.1875,-1000.0,166.9921875,-35.15625,-1.0,-1.0,-1.0,0.0,9.m4v,4.0
2024-02-27 14:07:30.947144,1709039250.9471436,-818.359375,-947.265625,-143.06640625,-35.64453125,-1.0,-1.0,-1.0,0.0,9.m4v,4.0
2024-02-27 14:07:30.951050,1709039250.9510496,-871.09375,-958.49609375,-687.01171875,-35.15625,-1.0,-1.0,-1.0,0.0,9.m4v,4.0
2024-02-27 14:07:30.954955,1709039250.954955,-857.91015625,-1000.0,-683.10546875,-41.9921875,-1.0,-1.0,-1.0,0.0,9.m4v,4.0
2024-02-27 14:07:30.958861,1709039250.958861,203.125,-880.859375,-74.70703125,-32.2265625,-1.0,-1.0,-1.0,0.0,9.m4v,4.0
2024-02-27 14:07:30.962767,1709039250.962767,974.609375,490.72265625,447.75390625,-22.94921875,-1.0,-1.0,-1.0,0.0,9.m4v,4.0
2024-02-27 14:07:30.966673,1709039250.966673,999.51171875,999.51171875,306.15234375,-29.78515625,-1.0,-1.0,-1.0,0.0,9.m4v,4.0
2024-02-27 14:07:30.970579,1709039250.970579,542.48046875,905.2734375,-184.5703125,-40.0390625,-1.0,-1.0,-1.0,0.0,9.m4v,4.0
2024-02-27 14:07:30.974485,1709039250.9744847,30.2734375,979.4921875,63.96484375,-40.0390625,-1.0,-1.0,-1.0,0.0,9.m4v,4.0
2024-02-27 14:07:30.978391,1709039250.9783907,709.47265625,981.93359375,842.28515625,-21.97265625,-1.0,-1.0,-1.0,0.0,9.m4v,4.0
2024-02-27 14:07:30.982297,1709039250.9822967,925.29296875,896.97265625,887.6953125,-21.484375,-1.0,-1.0,-1.0,0.0,9.m4v,4.0
2024-02-27 14:07:30.986202,1709039250.9862025,-234.375,999.51171875,353.02734375,-34.66796875,-1.0,-1.0,-1.0,0.0,9.m4v,4.0
2024-02-27 14:07:30.990108,1709039250.9901085,-1000.0,442.3828125,-194.3359375,-46.875,-1.0,-1.0,-1.0,0.0,9.m4v,4.0
2024-02-27 14:07:30.994015,1709039250.9940145,-941.40625,-960.44921875,-647.94921875,-52.24609375,-1.0,-1.0,-1.0,0.0,9.m4v,4.0
2024-02-27 14:07:30.997920,1709039250.9979205,-1000.0,-1000.0,-502.9296875,-37.109375,-1.0,-1.0,-1.0,0.0,9.m4v,4.0
2024-02-27 14:07:31.001826,1709039251.0018258,-448.2421875,-952.63671875,-5.859375,-30.2734375,-1.0,-1.0,-1.0,0.0,9.m4v,4.0
2024-02-27 14:07:31.005732,1709039251.0057318,589.35546875,-1000.0,12.20703125,-32.71484375,-1.0,-1.0,-1.0,0.0,9.m4v,4.0
2024-02-27 14:07:31.009638,1709039251.0096376,109.375,-984.86328125,-496.09375,-40.0390625,-1.0,-1.0,-1.0,0.0,9.m4v,4.0
2024-02-27 14:07:31.013544,1709039251.0135436,-1000.0,-962.40234375,-783.69140625,-38.57421875,-1.0,-1.0,-1.0,0.0,9.m4v,4.0
2024-02-27 14:07:31.017450,1709039251.0174496,-530.76171875,-1000.0,-367.1875,-28.80859375,-1.0,-1.0,-1.0,0.0,9.m4v,4.0
2024-02-27 14:07:31.021355,1709039251.0213554,699.70703125,27.83203125,553.7109375,-15.13671875,-1.0,-1.0,-1.0,0.0,9.m4v,4.0
2024-02-27 14:07:31.029167,1709039251.0291674,431.640625,999.51171875,72.265625,-33.69140625,-1.0,-1.0,-1.0,0.0,9.m4v,4.0
2024-02-27 14:07:31.036979,1709039251.0369792,-1000.0,-1000.0,-402.83203125,-43.9453125,-1.0,-1.0,-1.0,0.0,9.m4v,4.0
2024-02-27 14:07:31.076038,1709039251.076038,-678.7109375,461.9140625,8.30078125,-40.52734375,-1.0,-1.0,-1.0,0.0,9.m4v,4.0
2024-02-27 14:07:31.259618,1709039251.2596183,922.8515625,800.78125,226.5625,-23.92578125,-1.0,-1.0,-1.0,0.0,9.m4v,4.0
2024-02-27 14:07:31.263524,1709039251.263524,999.51171875,999.51171875,259.765625,-22.94921875,-1.0,-1.0,-1.0,0.0,9.m4v,4.0
2024-02-27 14:07:31.267430,1709039251.26743,508.7890625,864.74609375,-332.03125,-46.875,-1.0,-1.0,-1.0,0.0,9.m4v,4.0
2024-02-27 14:07:31.271336,1709039251.271336,-554.19921875,999.51171875,-769.53125,-45.8984375,-1.0,-1.0,-1.0,0.0,9.m4v,4.0
2024-02-27 14:07:31.275242,1709039251.275242,-1000.0,15.625,-844.7265625,-42.96875,-1.0,-1.0,-1.0,0.0,9.m4v,4.0
2024-02-27 14:07:31.279148,1709039251.279148,-833.49609375,-1000.0,-468.75,-46.38671875,-1.0,-1.0,-1.0,0.0,9.m4v,4.0
2024-02-27 14:07:31.283054,1709039251.2830536,128.90625,-1000.0,-116.2109375,-34.1796875,-1.0,-1.0,-1.0,0.0,9.m4v,4.0
2024-02-27 14:07:31.286960,1709039251.2869596,694.82421875,-664.0625,-279.78515625,-30.76171875,-1.0,-1.0,-1.0,0.0,9.m4v,4.0
2024-02-27 14:07:31.290866,1709039251.2908657,887.20703125,743.65234375,-461.9140625,-35.15625,-1.0,-1.0,-1.0,0.0,9.m4v,4.0
2024-02-27 14:07:31.294771,1709039251.2947714,589.35546875,999.51171875,-541.015625,-37.59765625,-1.0,-1.0,-1.0,0.0,9.m4v,4.0
2024-02-27 14:07:31.298677,1709039251.2986774,-40.52734375,910.64453125,-276.3671875,-32.71484375,-1.0,-1.0,-1.0,0.0,9.m4v,4.0
2024-02-27 14:07:31.306489,1709039251.3064892,973.6328125,999.51171875,505.859375,-26.85546875,-1.0,-1.0,-1.0,0.0,9.m4v,4.0
2024-02-27 14:07:31.314301,1709039251.3143013,-1000.0,-1000.0,-1000.0,-53.7109375,-1.0,-1.0,-1.0,0.0,9.m4v,4.0
2024-02-27 14:07:31.322113,1709039251.322113,86.9140625,-973.14453125,108.88671875,-30.76171875,-1.0,-1.0,-1.0,0.0,9.m4v,4.0
2024-02-27 14:07:31.603338,1709039251.6033385,412.59765625,907.2265625,443.84765625,-28.80859375,-1.0,-1.0,-1.0,0.0,9.m4v,4.0
2024-02-27 14:07:31.615056,1709039251.6150565,-1000.0,-1000.0,-859.86328125,-45.41015625,-1.0,-1.0,-1.0,0.0,9.m4v,4.0
2024-02-27 14:07:31.622868,1709039251.622868,231.4453125,-896.97265625,186.5234375,-29.296875,-1.0,-1.0,-1.0,0.0,9.m4v,4.0
2024-02-27 14:07:31.630680,1709039251.63068,965.33203125,999.51171875,79.58984375,-25.87890625,-1.0,-1.0,-1.0,0.0,9.m4v,4.0
2024-02-27 14:07:31.638492,1709039251.638492,28.80859375,982.421875,343.75,-37.59765625,-1.0,-1.0,-1.0,0.0,9.m4v,4.0
2024-02-27 14:07:31.646304,1709039251.6463037,14.16015625,943.84765625,270.99609375,-30.2734375,-1.0,-1.0,-1.0,0.0,9.m4v,4.0
2024-02-27 14:07:31.650210,1709039251.6502097,-364.2578125,999.51171875,-132.8125,-41.9921875,-1.0,-1.0,-1.0,0.0,9.m4v,4.0
2024-02-27 14:07:31.654116,1709039251.6541157,-861.81640625,-135.25390625,-526.3671875,-39.0625,-1.0,-1.0,-1.0,0.0,9.m4v,4.0
2024-02-27 14:07:31.658021,1709039251.6580212,-1000.0,-1000.0,-327.1484375,-42.96875,-1.0,-1.0,-1.0,0.0,9.m4v,4.0
2024-02-27 14:07:31.661927,1709039251.6619272,-281.25,-947.75390625,205.56640625,-38.0859375,-1.0,-1.0,-1.0,0.0,9.m4v,4.0
2024-02-27 14:07:31.665833,1709039251.6658332,458.984375,-995.60546875,25.87890625,-41.50390625,-1.0,-1.0,-1.0,0.0,9.m4v,4.0
2024-02-27 14:07:31.669739,1709039251.669739,-388.671875,-938.4765625,-597.65625,-49.31640625,-1.0,-1.0,-1.0,0.0,9.m4v,4.0
2024-02-27 14:07:31.673645,1709039251.673645,-1000.0,-1000.0,-820.80078125,-44.921875,-1.0,-1.0,-1.0,0.0,9.m4v,4.0
2024-02-27 14:07:31.677551,1709039251.677551,-42.96875,-210.9375,1.953125,-29.296875,-1.0,-1.0,-1.0,0.0,9.m4v,4.0
2024-02-27 14:07:31.681457,1709039251.6814568,999.51171875,999.51171875,968.26171875,-11.71875,-1.0,-1.0,-1.0,0.0,9.m4v,4.0
2024-02-27 14:07:31.685363,1709039251.6853628,894.53125,962.890625,550.29296875,-17.08984375,-1.0,-1.0,-1.0,0.0,9.m4v,4.0
2024-02-27 14:07:31.693175,1709039251.6931746,-1000.0,-276.85546875,-881.8359375,-45.41015625,-1.0,-1.0,-1.0,0.0,9.m4v,4.0
2024-02-27 14:07:31.700987,1709039251.7009866,-40.0390625,-720.21484375,135.7421875,-28.80859375,-1.0,-1.0,-1.0,0.0,9.m4v,4.0
2024-02-27 14:07:31.708798,1709039251.7087982,999.51171875,999.51171875,25.87890625,-18.5546875,-1.0,-1.0,-1.0,0.0,9.m4v,4.0
2024-02-27 14:07:31.716610,1709039251.7166102,-906.73828125,982.91015625,-372.0703125,-35.15625,-1.0,-1.0,-1.0,0.0,9.m4v,4.0
2024-02-27 14:07:31.724422,1709039251.724422,930.6640625,906.73828125,513.18359375,-9.765625,-1.0,-1.0,-1.0,0.0,9.m4v,4.0
2024-02-27 14:07:31.732234,1709039251.7322338,-389.16015625,189.453125,-510.25390625,-44.921875,-1.0,-1.0,-1.0,0.0,9.m4v,4.0
2024-02-27 14:07:31.740046,1709039251.7400455,-810.546875,-983.88671875,-267.578125,-30.2734375,-1.0,-1.0,-1.0,0.0,9.m4v,4.0
2024-02-27 14:07:31.747858,1709039251.7478576,132.8125,-1000.0,-487.79296875,-34.66796875,-1.0,-1.0,-1.0,0.0,9.m4v,4.0
2024-02-27 14:07:31.755669,1709039251.7556689,-949.70703125,-1000.0,-880.859375,-37.59765625,-1.0,-1.0,-1.0,0.0,9.m4v,4.0
2024-02-27 14:07:31.763481,1709039251.763481,999.51171875,659.1796875,308.59375,-23.4375,-1.0,-1.0,-1.0,0.0,9.m4v,4.0
2024-02-27 14:07:31.829881,1709039251.829881,-979.4921875,734.86328125,-385.25390625,-45.41015625,-1.0,-1.0,-1.0,0.0,9.m4v,4.0
2024-02-27 14:07:31.833787,1709039251.833787,-955.56640625,-674.8046875,-621.09375,-47.36328125,-1.0,-1.0,-1.0,0.0,9.m4v,4.0
2024-02-27 14:07:31.837693,1709039251.837693,-1000.0,-1000.0,-520.5078125,-50.78125,-1.0,-1.0,-1.0,0.0,9.m4v,4.0
2024-02-27 14:07:31.841599,1709039251.8415987,-382.8125,-937.5,17.578125,-36.1328125,-1.0,-1.0,-1.0,0.0,9.m4v,4.0
2024-02-27 14:07:31.845505,1709039251.845505,696.2890625,-1000.0,61.5234375,-36.1328125,-1.0,-1.0,-1.0,0.0,9.m4v,4.0
2024-02-27 14:07:31.849411,1709039251.849411,-59.08203125,-1000.0,-565.91796875,-49.31640625,-1.0,-1.0,-1.0,0.0,9.m4v,4.0
2024-02-27 14:07:31.853317,1709039251.8533168,-1000.0,-974.12109375,-854.00390625,-34.1796875,-1.0,-1.0,-1.0,0.0,9.m4v,4.0
2024-02-27 14:07:31.857223,1709039251.8572228,-781.73828125,-983.3984375,-557.12890625,-33.203125,-1.0,-1.0,-1.0,0.0,9.m4v,4.0
2024-02-27 14:07:31.861129,1709039251.8611288,345.21484375,-1000.0,-132.8125,-41.9921875,-1.0,-1.0,-1.0,0.0,9.m4v,4.0
2024-02-27 14:07:31.865035,1709039251.8650346,999.51171875,175.78125,311.5234375,-30.2734375,-1.0,-1.0,-1.0,0.0,9.m4v,4.0
2024-02-27 14:07:31.868941,1709039251.8689406,934.08203125,999.51171875,127.44140625,-33.69140625,-1.0,-1.0,-1.0,0.0,9.m4v,4.0
2024-02-27 14:07:31.872847,1709039251.8728466,178.7109375,910.15625,-437.01171875,-38.57421875,-1.0,-1.0,-1.0,0.0,9.m4v,4.0
2024-02-27 14:07:31.876752,1709039251.8767524,-502.44140625,969.23828125,-214.35546875,-36.1328125,-1.0,-1.0,-1.0,0.0,9.m4v,4.0
2024-02-27 14:07:31.880658,1709039251.8806584,378.90625,984.375,497.55859375,-34.66796875,-1.0,-1.0,-1.0,0.0,9.m4v,4.0
2024-02-27 14:07:31.884564,1709039251.8845644,999.51171875,910.15625,592.7734375,-31.73828125,-1.0,-1.0,-1.0,0.0,9.m4v,4.0
2024-02-27 14:07:31.888470,1709039251.8884702,444.82421875,999.51171875,169.921875,-32.2265625,-1.0,-1.0,-1.0,0.0,9.m4v,4.0
2024-02-27 14:07:31.892376,1709039251.8923764,-532.71484375,744.62890625,-169.921875,-41.015625,-1.0,-1.0,-1.0,0.0,9.m4v,4.0
2024-02-27 14:07:31.896282,1709039251.8962822,-1000.0,-667.48046875,-398.92578125,-48.33984375,-1.0,-1.0,-1.0,0.0,9.m4v,4.0
2024-02-27 14:07:31.900188,1709039251.9001882,-894.04296875,-1000.0,-47.8515625,-38.57421875,-1.0,-1.0,-1.0,0.0,9.m4v,4.0
2024-02-27 14:07:31.904094,1709039251.9040942,80.078125,-938.96484375,300.78125,-26.85546875,-1.0,-1.0,-1.0,0.0,9.m4v,4.0
2024-02-27 14:07:31.908000,1709039251.908,238.28125,-948.73046875,-196.77734375,-34.1796875,-1.0,-1.0,-1.0,0.0,9.m4v,4.0
2024-02-27 14:07:31.911906,1709039251.911906,-798.828125,-1000.0,-562.01171875,-42.48046875,-1.0,-1.0,-1.0,0.0,9.m4v,4.0
2024-02-27 14:07:31.915812,1709039251.915812,-96.19140625,-238.28125,-75.1953125,-28.80859375,-1.0,-1.0,-1.0,0.0,9.m4v,4.0
2024-02-27 14:07:31.919718,1709039251.9197178,999.51171875,999.51171875,518.5546875,-14.16015625,-1.0,-1.0,-1.0,0.0,9.m4v,4.0
2024-02-27 14:07:31.923624,1709039251.9236238,999.51171875,924.31640625,571.77734375,-12.20703125,-1.0,-1.0,-1.0,0.0,9.m4v,4.0
2024-02-27 14:07:31.927530,1709039251.9275298,113.28125,999.51171875,-57.12890625,-29.296875,-1.0,-1.0,-1.0,0.0,9.m4v,4.0
2024-02-27 14:07:31.931436,1709039251.9314356,-928.22265625,-90.8203125,-767.578125,-46.875,-1.0,-1.0,-1.0,0.0,9.m4v,4.0
2024-02-27 14:07:31.935342,1709039251.9353416,-1000.0,-1000.0,-833.0078125,-38.57421875,-1.0,-1.0,-1.0,0.0,9.m4v,4.0
2024-02-27 14:07:31.939248,1709039251.9392476,-520.5078125,-1000.0,-150.390625,-36.1328125,-1.0,-1.0,-1.0,0.0,9.m4v,4.0
2024-02-27 14:07:31.943154,1709039251.9431536,662.59765625,-508.7890625,317.3828125,-33.203125,-1.0,-1.0,-1.0,0.0,9.m4v,4.0
2024-02-27 14:07:31.947059,1709039251.9470594,999.51171875,897.94921875,209.47265625,-22.94921875,-1.0,-1.0,-1.0,0.0,9.m4v,4.0
2024-02-27 14:07:31.950965,1709039251.9509654,844.7265625,999.51171875,-74.70703125,-21.484375,-1.0,-1.0,-1.0,0.0,9.m4v,4.0
2024-02-27 14:07:31.954871,1709039251.9548714,-154.296875,933.59375,-254.8828125,-29.296875,-1.0,-1.0,-1.0,0.0,9.m4v,4.0
2024-02-27 14:07:31.958777,1709039251.9587772,-60.546875,917.48046875,423.33984375,-23.92578125,-1.0,-1.0,-1.0,0.0,9.m4v,4.0
2024-02-27 14:07:31.962683,1709039251.9626832,999.51171875,999.51171875,999.51171875,-20.01953125,-1.0,-1.0,-1.0,0.0,9.m4v,4.0
2024-02-27 14:07:31.966589,1709039251.9665892,275.87890625,667.48046875,357.91015625,-43.45703125,-1.0,-1.0,-1.0,0.0,9.m4v,4.0
2024-02-27 14:07:31.970495,1709039251.970495,-1000.0,-767.08984375,-636.71875,-51.26953125,-1.0,-1.0,-1.0,0.0,9.m4v,4.0
2024-02-27 14:07:31.974401,1709039251.974401,-983.3984375,-1000.0,-836.9140625,-33.203125,-1.0,-1.0,-1.0,0.0,9.m4v,4.0
2024-02-27 14:07:31.978307,1709039251.978307,-963.37890625,-938.96484375,-430.17578125,-32.2265625,-1.0,-1.0,-1.0,0.0,9.m4v,4.0
2024-02-27 14:07:31.982213,1709039251.9822128,41.9921875,-1000.0,113.28125,-22.94921875,-1.0,-1.0,-1.0,0.0,9.m4v,4.0
2024-02-27 14:07:31.986119,1709039251.9861188,957.51953125,-1000.0,73.73046875,-26.85546875,-1.0,-1.0,-1.0,0.0,9.m4v,4.0
2024-02-27 14:07:31.990025,1709039251.9900246,-109.86328125,-1000.0,-532.2265625,-40.0390625,-1.0,-1.0,-1.0,0.0,9.m4v,4.0
2024-02-27 14:07:31.993931,1709039251.9939306,-1000.0,-992.67578125,-765.625,-40.0390625,-1.0,-1.0,-1.0,0.0,9.m4v,4.0
2024-02-27 14:07:31.997837,1709039251.9978366,-803.22265625,-958.0078125,-464.84375,-35.15625,-1.0,-1.0,-1.0,0.0,9.m4v,4.0
2024-02-27 14:07:32.005648,1709039252.0056484,978.515625,-136.71875,162.109375,-22.4609375,-1.0,-1.0,-1.0,0.0,9.m4v,4.0
2024-02-27 14:07:32.052519,1709039252.052519,-545.41015625,-1000.0,-874.0234375,-39.55078125,-1.0,-1.0,-1.0,0.0,9.m4v,4.0
2024-02-27 14:07:32.056425,1709039252.056425,337.890625,-175.29296875,-209.47265625,-32.71484375,-1.0,-1.0,-1.0,0.0,9.m4v,4.0
2024-02-27 14:07:32.060331,1709039252.060331,999.51171875,999.51171875,217.28515625,-24.90234375,-1.0,-1.0,-1.0,0.0,9.m4v,4.0
2024-02-27 14:07:32.064237,1709039252.064237,898.4375,884.765625,51.7578125,-29.296875,-1.0,-1.0,-1.0,0.0,9.m4v,4.0
2024-02-27 14:07:32.068143,1709039252.068143,29.78515625,999.51171875,-499.0234375,-42.96875,-1.0,-1.0,-1.0,0.0,9.m4v,4.0
2024-02-27 14:07:32.072049,1709039252.072049,-858.88671875,190.91796875,-878.41796875,-47.8515625,-1.0,-1.0,-1.0,0.0,9.m4v,4.0
2024-02-27 14:07:32.075955,1709039252.075955,-1000.0,-1000.0,-994.140625,-41.50390625,-1.0,-1.0,-1.0,0.0,9.m4v,4.0
2024-02-27 14:07:32.142356,1709039252.142356,355.46875,932.12890625,226.07421875,-26.3671875,-1.0,-1.0,-1.0,0.0,9.m4v,4.0
2024-02-27 14:07:32.157980,1709039252.1579795,-1000.0,-1000.0,-543.9453125,-39.55078125,-1.0,-1.0,-1.0,0.0,9.m4v,4.0
2024-02-27 14:07:32.161886,1709039252.1618855,-641.11328125,-935.546875,-120.1171875,-29.78515625,-1.0,-1.0,-1.0,0.0,9.m4v,4.0
2024-02-27 14:07:32.169698,1709039252.1696975,-149.4140625,-991.69921875,-708.49609375,-41.015625,-1.0,-1.0,-1.0,0.0,9.m4v,4.0
2024-02-27 14:07:32.173603,1709039252.1736028,-862.3046875,-952.1484375,-877.9296875,-46.875,-1.0,-1.0,-1.0,0.0,9.m4v,4.0
2024-02-27 14:07:32.181415,1709039252.1814148,816.40625,-69.82421875,366.69921875,-38.0859375,-1.0,-1.0,-1.0,0.0,9.m4v,4.0
2024-02-27 14:07:32.193133,1709039252.1931326,744.62890625,960.44921875,295.8984375,-44.43359375,-1.0,-1.0,-1.0,0.0,9.m4v,4.0
2024-02-27 14:07:32.767304,1709039252.7673044,468.75,946.77734375,235.3515625,-44.43359375,-1.0,-1.0,-1.0,0.0,9.m4v,4.0
2024-02-27 14:07:32.771210,1709039252.7712104,-660.64453125,874.0234375,-300.29296875,-44.43359375,-1.0,-1.0,-1.0,0.0,9.m4v,4.0
2024-02-27 14:07:32.775116,1709039252.7751164,-1000.0,-500.0,-286.1328125,-41.50390625,-1.0,-1.0,-1.0,0.0,9.m4v,4.0
2024-02-27 14:07:32.779022,1709039252.7790222,-839.35546875,-1000.0,162.109375,-44.43359375,-1.0,-1.0,-1.0,0.0,9.m4v,4.0
2024-02-27 14:07:32.782928,1709039252.782928,191.40625,-936.5234375,503.90625,-35.64453125,-1.0,-1.0,-1.0,0.0,9.m4v,4.0
2024-02-27 14:07:32.786834,1709039252.786834,275.390625,-1000.0,47.8515625,-30.76171875,-1.0,-1.0,-1.0,0.0,9.m4v,4.0
2024-02-27 14:07:32.876670,1709039252.8766696,-970.21484375,-949.70703125,-957.03125,-28.3203125,-1.0,-1.0,-1.0,0.0,9.m4v,4.0
2024-02-27 14:07:32.880576,1709039252.8805757,-4.39453125,-1000.0,-462.40234375,-18.5546875,-1.0,-1.0,-1.0,0.0,9.m4v,4.0
2024-02-27 14:07:32.935258,1709039252.9352582,-90.8203125,-1000.0,-864.2578125,-39.0625,-1.0,-1.0,-1.0,0.0,9.m4v,4.0
2024-02-27 14:07:32.939164,1709039252.939164,646.97265625,-210.9375,-153.3203125,-24.4140625,-1.0,-1.0,-1.0,0.0,9.m4v,4.0
2024-02-27 14:07:32.943070,1709039252.94307,960.9375,999.51171875,786.1328125,-24.4140625,-1.0,-1.0,-1.0,0.0,9.m4v,4.0
2024-02-27 14:07:32.946976,1709039252.946976,999.51171875,952.1484375,708.49609375,-30.76171875,-1.0,-1.0,-1.0,0.0,9.m4v,4.0
2024-02-27 14:07:32.950882,1709039252.9508815,124.51171875,943.359375,-247.55859375,-38.57421875,-1.0,-1.0,-1.0,0.0,9.m4v,4.0
2024-02-27 14:07:32.954788,1709039252.9547875,-1000.0,976.5625,-509.27734375,-53.7109375,-1.0,-1.0,-1.0,0.0,9.m4v,4.0
2024-02-27 14:07:32.958694,1709039252.9586935,-452.1484375,972.65625,20.99609375,-43.45703125,-1.0,-1.0,-1.0,0.0,9.m4v,4.0
2024-02-27 14:07:32.962600,1709039252.9625995,801.26953125,956.0546875,481.4453125,-33.203125,-1.0,-1.0,-1.0,0.0,9.m4v,4.0
2024-02-27 14:07:32.966506,1709039252.9665055,960.9375,929.6875,356.4453125,-42.96875,-1.0,-1.0,-1.0,0.0,9.m4v,4.0
2024-02-27 14:07:32.970411,1709039252.9704108,62.98828125,999.51171875,-82.51953125,-44.43359375,-1.0,-1.0,-1.0,0.0,9.m4v,4.0
2024-02-27 14:07:32.974317,1709039252.9743168,-866.69921875,-33.69140625,-476.5625,-42.96875,-1.0,-1.0,-1.0,0.0,9.m4v,4.0
2024-02-27 14:07:32.978223,1709039252.9782228,-1000.0,-1000.0,-381.34765625,-46.875,-1.0,-1.0,-1.0,0.0,9.m4v,4.0
2024-02-27 14:07:32.982129,1709039252.9821286,-447.75390625,-885.7421875,105.46875,-32.71484375,-1.0,-1.0,-1.0,0.0,9.m4v,4.0
2024-02-27 14:07:32.986035,1709039252.9860346,147.94921875,-1000.0,-114.74609375,-38.57421875,-1.0,-1.0,-1.0,0.0,9.m4v,4.0
2024-02-27 14:07:32.989941,1709039252.9899406,168.9453125,-373.046875,-307.6171875,-44.43359375,-1.0,-1.0,-1.0,0.0,9.m4v,4.0
2024-02-27 14:07:32.993846,1709039252.9938464,872.55859375,982.421875,54.6875,-28.80859375,-1.0,-1.0,-1.0,0.0,9.m4v,4.0
2024-02-27 14:07:32.997752,1709039252.9977524,842.7734375,978.02734375,192.3828125,-26.85546875,-1.0,-1.0,-1.0,0.0,9.m4v,4.0
2024-02-27 14:07:33.001658,1709039253.0016584,680.17578125,870.60546875,512.20703125,-30.76171875,-1.0,-1.0,-1.0,0.0,9.m4v,4.0
2024-02-27 14:07:33.005564,1709039253.0055642,331.0546875,999.51171875,348.14453125,-45.8984375,-1.0,-1.0,-1.0,0.0,9.m4v,4.0
2024-02-27 14:07:33.009470,1709039253.0094702,-704.1015625,152.83203125,-450.1953125,-50.78125,-1.0,-1.0,-1.0,0.0,9.m4v,4.0
2024-02-27 14:07:33.013376,1709039253.0133762,-1000.0,-1000.0,-783.69140625,-50.29296875,-1.0,-1.0,-1.0,0.0,9.m4v,4.0
2024-02-27 14:07:33.017282,1709039253.0172822,-952.63671875,-978.02734375,-403.3203125,-44.43359375,-1.0,-1.0,-1.0,0.0,9.m4v,4.0
2024-02-27 14:07:33.021188,1709039253.0211885,-54.6875,-915.52734375,110.83984375,-30.2734375,-1.0,-1.0,-1.0,0.0,9.m4v,4.0
2024-02-27 14:07:33.025094,1709039253.025094,745.1171875,-1000.0,106.4453125,-36.1328125,-1.0,-1.0,-1.0,0.0,9.m4v,4.0
2024-02-27 14:07:33.029000,1709039253.029,748.53515625,-189.453125,-51.26953125,-42.48046875,-1.0,-1.0,-1.0,0.0,9.m4v,4.0
2024-02-27 14:07:33.032906,1709039253.032906,900.87890625,999.51171875,-0.9765625,-33.69140625,-1.0,-1.0,-1.0,0.0,9.m4v,4.0
2024-02-27 14:07:33.036812,1709039253.0368118,853.515625,949.21875,460.9375,-32.71484375,-1.0,-1.0,-1.0,0.0,9.m4v,4.0
2024-02-27 14:07:33.040718,1709039253.0407178,999.51171875,883.30078125,999.51171875,-33.203125,-1.0,-1.0,-1.0,0.0,9.m4v,4.0
2024-02-27 14:07:33.044624,1709039253.044624,454.1015625,999.51171875,750.48828125,-34.1796875,-1.0,-1.0,-1.0,0.0,9.m4v,4.0
2024-02-27 14:07:33.048530,1709039253.0485296,-736.81640625,171.38671875,-147.4609375,-44.43359375,-1.0,-1.0,-1.0,0.0,9.m4v,4.0
2024-02-27 14:07:33.052436,1709039253.0524356,-993.65234375,-1000.0,-782.2265625,-45.8984375,-1.0,-1.0,-1.0,0.0,9.m4v,4.0
2024-02-27 14:07:33.056342,1709039253.0563416,-1000.0,-981.4453125,-543.9453125,-39.55078125,-1.0,-1.0,-1.0,0.0,9.m4v,4.0
2024-02-27 14:07:33.060247,1709039253.0602474,-333.984375,-974.12109375,149.90234375,-37.109375,-1.0,-1.0,-1.0,0.0,9.m4v,4.0
2024-02-27 14:07:33.064153,1709039253.0641534,875.48828125,-1000.0,364.2578125,-40.0390625,-1.0,-1.0,-1.0,0.0,9.m4v,4.0
2024-02-27 14:07:33.083683,1709039253.083683,965.8203125,999.51171875,991.2109375,-28.80859375,-1.0,-1.0,-1.0,0.0,9.m4v,4.0
2024-02-27 14:07:33.087589,1709039253.087589,999.51171875,877.44140625,906.73828125,-31.73828125,-1.0,-1.0,-1.0,0.0,9.m4v,4.0
2024-02-27 14:07:33.091495,1709039253.091495,371.58203125,999.51171875,366.69921875,-32.71484375,-1.0,-1.0,-1.0,0.0,9.m4v,4.0
2024-02-27 14:07:33.095401,1709039253.0954008,-896.484375,615.234375,-93.75,-38.57421875,-1.0,-1.0,-1.0,0.0,9.m4v,4.0
2024-02-27 14:07:33.099307,1709039253.0993068,-1000.0,-814.94140625,50.29296875,-40.52734375,-1.0,-1.0,-1.0,0.0,9.m4v,4.0
2024-02-27 14:07:33.103213,1709039253.1032128,-882.8125,-1000.0,128.90625,-36.1328125,-1.0,-1.0,-1.0,0.0,9.m4v,4.0
2024-02-27 14:07:33.107119,1709039253.1071186,-519.53125,-949.70703125,-142.08984375,-35.15625,-1.0,-1.0,-1.0,0.0,9.m4v,4.0
2024-02-27 14:07:33.111025,1709039253.1110246,-227.05078125,-984.375,-379.39453125,-32.71484375,-1.0,-1.0,-1.0,0.0,9.m4v,4.0
2024-02-27 14:07:33.114931,1709039253.1149306,-290.0390625,-993.1640625,-304.19921875,-33.69140625,-1.0,-1.0,-1.0,0.0,9.m4v,4.0
2024-02-27 14:07:33.118836,1709039253.1188364,135.25390625,-1000.0,156.73828125,-22.94921875,-1.0,-1.0,-1.0,0.0,9.m4v,4.0
2024-02-27 14:07:33.122742,1709039253.1227424,883.30078125,226.07421875,680.17578125,-10.25390625,-1.0,-1.0,-1.0,0.0,9.m4v,4.0
2024-02-27 14:07:33.126648,1709039253.1266484,947.265625,999.51171875,437.01171875,-21.484375,-1.0,-1.0,-1.0,0.0,9.m4v,4.0
2024-02-27 14:07:33.130554,1709039253.1305542,610.3515625,909.66796875,156.25,-34.66796875,-1.0,-1.0,-1.0,0.0,9.m4v,4.0
2024-02-27 14:07:33.134460,1709039253.1344602,155.76171875,970.703125,319.82421875,-27.83203125,-1.0,-1.0,-1.0,0.0,9.m4v,4.0
2024-02-27 14:07:33.138366,1709039253.1383662,-454.58984375,970.21484375,356.4453125,-27.83203125,-1.0,-1.0,-1.0,0.0,9.m4v,4.0
2024-02-27 14:07:33.142272,1709039253.142272,-384.765625,971.6796875,441.89453125,-33.69140625,-1.0,-1.0,-1.0,0.0,9.m4v,4.0
2024-02-27 14:07:33.146178,1709039253.146178,-199.70703125,963.37890625,117.67578125,-41.50390625,-1.0,-1.0,-1.0,0.0,9.m4v,4.0
2024-02-27 14:07:33.150084,1709039253.150084,-377.44140625,917.96875,-221.19140625,-36.62109375,-1.0,-1.0,-1.0,0.0,9.m4v,4.0
2024-02-27 14:07:33.153990,1709039253.1539898,-325.1953125,999.51171875,-200.68359375,-27.34375,-1.0,-1.0,-1.0,0.0,9.m4v,4.0
2024-02-27 14:07:33.157896,1709039253.1578956,-697.265625,78.61328125,-123.046875,-28.80859375,-1.0,-1.0,-1.0,0.0,9.m4v,4.0
2024-02-27 14:07:33.161802,1709039253.1618016,-1000.0,-1000.0,11.71875,-31.73828125,-1.0,-1.0,-1.0,0.0,9.m4v,4.0
2024-02-27 14:07:33.165708,1709039253.1657076,-601.5625,-979.00390625,-128.41796875,-31.25,-1.0,-1.0,-1.0,0.0,9.m4v,4.0
2024-02-27 14:07:33.169613,1709039253.1696134,-252.9296875,-909.66796875,-485.83984375,-25.87890625,-1.0,-1.0,-1.0,0.0,9.m4v,4.0
2024-02-27 14:07:33.173519,1709039253.1735194,-619.62890625,-1000.0,-740.72265625,-31.73828125,-1.0,-1.0,-1.0,0.0,9.m4v,4.0
2024-02-27 14:07:33.177425,1709039253.1774254,-90.8203125,-384.765625,-160.15625,-28.80859375,-1.0,-1.0,-1.0,0.0,9.m4v,4.0
2024-02-27 14:07:33.181331,1709039253.1813312,975.5859375,960.44921875,891.6015625,-17.08984375,-1.0,-1.0,-1.0,0.0,9.m4v,4.0
2024-02-27 14:07:33.185237,1709039253.1852372,991.2109375,943.359375,660.15625,-24.4140625,-1.0,-1.0,-1.0,0.0,9.m4v,4.0
2024-02-27 14:07:33.189143,1709039253.1891432,-40.0390625,999.51171875,-295.8984375,-37.59765625,-1.0,-1.0,-1.0,0.0,9.m4v,4.0
2024-02-27 14:07:33.193049,1709039253.193049,-990.72265625,-22.4609375,-738.28125,-55.17578125,-1.0,-1.0,-1.0,0.0,9.m4v,4.0
2024-02-27 14:07:33.196955,1709039253.196955,-1000.0,-1000.0,-563.96484375,-49.31640625,-1.0,-1.0,-1.0,0.0,9.m4v,4.0
2024-02-27 14:07:33.200861,1709039253.200861,-492.67578125,-894.04296875,-76.66015625,-29.296875,-1.0,-1.0,-1.0,0.0,9.m4v,4.0
2024-02-27 14:07:33.204767,1709039253.2047677,555.17578125,-1000.0,4.39453125,-28.80859375,-1.0,-1.0,-1.0,0.0,9.m4v,4.0
2024-02-27 14:07:33.208673,1709039253.2086737,781.73828125,-223.14453125,-188.96484375,-27.34375,-1.0,-1.0,-1.0,0.0,9.m4v,4.0
2024-02-27 14:07:33.212579,1709039253.2125793,956.54296875,999.51171875,-112.3046875,-20.5078125,-1.0,-1.0,-1.0,0.0,9.m4v,4.0
2024-02-27 14:07:33.216485,1709039253.2164853,661.1328125,954.1015625,16.11328125,-22.94921875,-1.0,-1.0,-1.0,0.0,9.m4v,4.0
2024-02-27 14:07:33.220391,1709039253.2203913,54.6875,943.359375,222.16796875,-28.3203125,-1.0,-1.0,-1.0,0.0,9.m4v,4.0
2024-02-27 14:07:33.224297,1709039253.224297,539.55078125,914.0625,561.03515625,-19.04296875,-1.0,-1.0,-1.0,0.0,9.m4v,4.0
2024-02-27 14:07:33.228203,1709039253.228203,850.09765625,999.51171875,479.98046875,-19.04296875,-1.0,-1.0,-1.0,0.0,9.m4v,4.0
2024-02-27 14:07:33.232109,1709039253.232109,-390.13671875,188.96484375,-423.33984375,-36.1328125,-1.0,-1.0,-1.0,0.0,9.m4v,4.0
2024-02-27 14:07:33.236015,1709039253.2360148,-1000.0,-1000.0,-780.76171875,-40.0390625,-1.0,-1.0,-1.0,0.0,9.m4v,4.0
2024-02-27 14:07:33.239921,1709039253.2399209,-885.7421875,-983.88671875,-253.90625,-40.0390625,-1.0,-1.0,-1.0,0.0,9.m4v,4.0
2024-02-27 14:07:33.243827,1709039253.2438269,42.48046875,-973.14453125,112.79296875,-33.69140625,-1.0,-1.0,-1.0,0.0,9.m4v,4.0
2024-02-27 14:07:33.247733,1709039253.2477326,337.890625,-1000.0,-341.796875,-31.25,-1.0,-1.0,-1.0,0.0,9.m4v,4.0
2024-02-27 14:07:33.251638,1709039253.2516382,-761.71875,-937.5,-820.80078125,-44.43359375,-1.0,-1.0,-1.0,0.0,9.m4v,4.0
2024-02-27 14:07:33.255544,1709039253.2555442,-755.859375,-1000.0,-559.5703125,-46.38671875,-1.0,-1.0,-1.0,0.0,9.m4v,4.0
2024-02-27 14:07:33.259450,1709039253.25945,487.3046875,-219.23828125,232.421875,-29.78515625,-1.0,-1.0,-1.0,0.0,9.m4v,4.0
2024-02-27 14:07:33.263356,1709039253.263356,999.51171875,999.51171875,687.98828125,-29.78515625,-1.0,-1.0,-1.0,0.0,9.m4v,4.0
2024-02-27 14:07:33.267262,1709039253.267262,845.703125,953.61328125,280.76171875,-44.921875,-1.0,-1.0,-1.0,0.0,9.m4v,4.0
2024-02-27 14:07:33.271168,1709039253.2711678,670.41015625,942.87109375,160.15625,-33.203125,-1.0,-1.0,-1.0,0.0,9.m4v,4.0
2024-02-27 14:07:33.275074,1709039253.2750738,416.50390625,977.5390625,416.015625,-22.94921875,-1.0,-1.0,-1.0,0.0,9.m4v,4.0
2024-02-27 14:07:33.278980,1709039253.2789798,-199.70703125,907.2265625,443.84765625,-34.66796875,-1.0,-1.0,-1.0,0.0,9.m4v,4.0
2024-02-27 14:07:33.282886,1709039253.2828856,-458.0078125,999.51171875,377.9296875,-38.57421875,-1.0,-1.0,-1.0,0.0,9.m4v,4.0
2024-02-27 14:07:33.286792,1709039253.2867916,-667.48046875,188.96484375,-198.73046875,-39.0625,-1.0,-1.0,-1.0,0.0,9.m4v,4.0
2024-02-27 14:07:33.290698,1709039253.2906976,-973.14453125,-1000.0,-921.38671875,-43.9453125,-1.0,-1.0,-1.0,0.0,9.m4v,4.0
2024-02-27 14:07:33.294603,1709039253.294603,-1000.0,-983.88671875,-921.38671875,-41.50390625,-1.0,-1.0,-1.0,0.0,9.m4v,4.0
2024-02-27 14:07:33.298509,1709039253.298509,-451.171875,-973.14453125,-280.2734375,-31.73828125,-1.0,-1.0,-1.0,0.0,9.m4v,4.0
2024-02-27 14:07:33.302415,1709039253.302415,817.3828125,-1000.0,288.57421875,-29.78515625,-1.0,-1.0,-1.0,0.0,9.m4v,4.0
2024-02-27 14:07:33.306321,1709039253.306321,881.34765625,-1000.0,80.078125,-27.34375,-1.0,-1.0,-1.0,0.0,9.m4v,4.0
2024-02-27 14:07:33.310227,1709039253.310227,-222.16796875,-937.5,-478.02734375,-35.15625,-1.0,-1.0,-1.0,0.0,9.m4v,4.0
2024-02-27 14:07:33.314132,1709039253.3141325,-1000.0,-1000.0,-723.6328125,-48.828125,-1.0,-1.0,-1.0,0.0,9.m4v,4.0
2024-02-27 14:07:33.318038,1709039253.3180385,-119.140625,-219.7265625,137.20703125,-36.1328125,-1.0,-1.0,-1.0,0.0,9.m4v,4.0
2024-02-27 14:07:33.321944,1709039253.3219445,999.51171875,999.51171875,980.46875,-23.92578125,-1.0,-1.0,-1.0,0.0,9.m4v,4.0
2024-02-27 14:07:33.532866,1709039253.5328658,-932.12890625,175.29296875,-475.5859375,-46.38671875,-1.0,-1.0,-1.0,0.0,9.m4v,4.0
2024-02-27 14:07:33.536772,1709039253.5367718,-1000.0,-1000.0,-365.234375,-47.8515625,-1.0,-1.0,-1.0,0.0,9.m4v,4.0
2024-02-27 14:07:33.540678,1709039253.5406778,-467.28515625,-997.0703125,229.98046875,-30.76171875,-1.0,-1.0,-1.0,0.0,9.m4v,4.0
2024-02-27 14:07:33.544584,1709039253.5445836,423.828125,-906.25,210.9375,-29.78515625,-1.0,-1.0,-1.0,0.0,9.m4v,4.0
2024-02-27 14:07:33.548490,1709039253.5484896,-392.578125,-1000.0,-511.71875,-39.0625,-1.0,-1.0,-1.0,0.0,9.m4v,4.0
2024-02-27 14:07:33.552396,1709039253.5523956,-703.125,-674.31640625,-514.16015625,-35.15625,-1.0,-1.0,-1.0,0.0,9.m4v,4.0
2024-02-27 14:07:33.556301,1709039253.5563014,598.6328125,763.671875,414.0625,-28.80859375,-1.0,-1.0,-1.0,0.0,9.m4v,4.0
2024-02-27 14:07:33.560207,1709039253.5602074,999.51171875,999.51171875,837.890625,-29.78515625,-1.0,-1.0,-1.0,0.0,9.m4v,4.0
2024-02-27 14:07:33.564113,1709039253.5641134,573.2421875,909.66796875,346.19140625,-42.48046875,-1.0,-1.0,-1.0,0.0,9.m4v,4.0
2024-02-27 14:07:33.806280,1709039253.8062804,73.73046875,-1000.0,-190.4296875,-33.69140625,-1.0,-1.0,-1.0,0.0,9.m4v,4.0
2024-02-27 14:07:33.817998,1709039253.8179982,901.85546875,937.01171875,243.1640625,-28.80859375,-1.0,-1.0,-1.0,0.0,9.m4v,4.0
2024-02-27 14:07:33.821904,1709039253.8219042,714.84375,936.5234375,459.47265625,-27.34375,-1.0,-1.0,-1.0,0.0,9.m4v,4.0
2024-02-27 14:07:33.825810,1709039253.8258102,119.140625,988.28125,165.52734375,-31.25,-1.0,-1.0,-1.0,0.0,9.m4v,4.0
2024-02-27 14:07:33.829716,1709039253.829716,-885.25390625,-310.546875,-751.46484375,-48.33984375,-1.0,-1.0,-1.0,0.0,9.m4v,4.0
2024-02-27 14:07:33.942988,1709039253.9429877,-990.234375,-1000.0,170.8984375,-37.109375,-1.0,-1.0,-1.0,0.0,9.m4v,4.0
2024-02-27 14:07:33.946894,1709039253.9468937,-957.03125,-1000.0,-373.046875,-51.26953125,-1.0,-1.0,-1.0,0.0,9.m4v,4.0
2024-02-27 14:07:33.950800,1709039253.9507997,-1000.0,-906.73828125,-831.54296875,-58.10546875,-1.0,-1.0,-1.0,0.0,9.m4v,4.0
2024-02-27 14:07:33.954705,1709039253.9547052,-863.76953125,-1000.0,-748.53515625,-51.26953125,-1.0,-1.0,-1.0,0.0,9.m4v,4.0
2024-02-27 14:07:33.958611,1709039253.9586112,240.72265625,-756.34765625,-106.93359375,-36.1328125,-1.0,-1.0,-1.0,0.0,9.m4v,4.0
2024-02-27 14:07:33.962517,1709039253.962517,989.2578125,659.66796875,489.74609375,-18.5546875,-1.0,-1.0,-1.0,0.0,9.m4v,4.0
2024-02-27 14:07:33.966423,1709039253.966423,999.51171875,999.51171875,340.8203125,-19.53125,-1.0,-1.0,-1.0,0.0,9.m4v,4.0
2024-02-27 14:07:33.970329,1709039253.970329,353.02734375,907.2265625,-305.6640625,-33.203125,-1.0,-1.0,-1.0,0.0,9.m4v,4.0
2024-02-27 14:07:33.974235,1709039253.9742348,-321.77734375,997.55859375,-116.2109375,-40.0390625,-1.0,-1.0,-1.0,0.0,9.m4v,4.0
2024-02-27 14:07:33.978141,1709039253.9781408,445.80078125,904.296875,571.77734375,-30.76171875,-1.0,-1.0,-1.0,0.0,9.m4v,4.0
2024-02-27 14:07:33.982047,1709039253.9820468,878.41796875,999.51171875,674.31640625,-34.1796875,-1.0,-1.0,-1.0,0.0,9.m4v,4.0
2024-02-27 14:07:33.985953,1709039253.9859526,-132.8125,672.8515625,113.76953125,-46.38671875,-1.0,-1.0,-1.0,0.0,9.m4v,4.0
2024-02-27 14:07:33.989859,1709039253.9898586,-1000.0,-761.71875,-577.63671875,-58.10546875,-1.0,-1.0,-1.0,0.0,9.m4v,4.0
2024-02-27 14:07:33.993765,1709039253.9937646,-1000.0,-1000.0,-795.41015625,-56.15234375,-1.0,-1.0,-1.0,0.0,9.m4v,4.0
2024-02-27 14:07:33.997670,1709039253.9976704,-849.12109375,-1000.0,-461.42578125,-42.96875,-1.0,-1.0,-1.0,0.0,9.m4v,4.0
2024-02-27 14:07:34.001576,1709039254.001576,271.484375,-312.01171875,323.2421875,-26.3671875,-1.0,-1.0,-1.0,0.0,9.m4v,4.0
2024-02-27 14:07:34.005482,1709039254.005482,999.51171875,999.51171875,384.765625,-19.04296875,-1.0,-1.0,-1.0,0.0,9.m4v,4.0
2024-02-27 14:07:34.009388,1709039254.009388,488.28125,966.30859375,-381.34765625,-25.87890625,-1.0,-1.0,-1.0,0.0,9.m4v,4.0
2024-02-27 14:07:34.013294,1709039254.0132935,-746.58203125,936.5234375,-666.015625,-30.76171875,-1.0,-1.0,-1.0,0.0,9.m4v,4.0
2024-02-27 14:07:34.017200,1709039254.0171998,-485.83984375,979.4921875,-201.171875,-28.80859375,-1.0,-1.0,-1.0,0.0,9.m4v,4.0
2024-02-27 14:07:34.021106,1709039254.0211058,771.484375,906.73828125,672.36328125,-21.97265625,-1.0,-1.0,-1.0,0.0,9.m4v,4.0
2024-02-27 14:07:34.025012,1709039254.0250115,999.51171875,999.51171875,835.9375,-21.484375,-1.0,-1.0,-1.0,0.0,9.m4v,4.0
2024-02-27 14:07:34.028918,1709039254.0289176,-213.37890625,188.96484375,-337.40234375,-40.0390625,-1.0,-1.0,-1.0,0.0,9.m4v,4.0
2024-02-27 14:07:34.032824,1709039254.0328236,-1000.0,-1000.0,-1000.0,-52.734375,-1.0,-1.0,-1.0,0.0,9.m4v,4.0
2024-02-27 14:07:34.036729,1709039254.036729,-1000.0,-983.88671875,-678.7109375,-41.015625,-1.0,-1.0,-1.0,0.0,9.m4v,4.0
2024-02-27 14:07:34.040635,1709039254.040635,-383.7890625,-973.14453125,-105.95703125,-24.4140625,-1.0,-1.0,-1.0,0.0,9.m4v,4.0
2024-02-27 14:07:34.044541,1709039254.0445414,537.109375,-1000.0,-143.5546875,-21.97265625,-1.0,-1.0,-1.0,0.0,9.m4v,4.0
2024-02-27 14:07:34.048447,1709039254.048447,-122.0703125,-1000.0,-675.29296875,-36.1328125,-1.0,-1.0,-1.0,0.0,9.m4v,4.0
2024-02-27 14:07:34.052353,1709039254.052353,-565.4296875,-970.703125,-690.4296875,-40.52734375,-1.0,-1.0,-1.0,0.0,9.m4v,4.0
2024-02-27 14:07:34.056259,1709039254.056259,-256.8359375,-992.1875,-462.40234375,-38.0859375,-1.0,-1.0,-1.0,0.0,9.m4v,4.0
2024-02-27 14:07:34.060164,1709039254.0601645,296.875,-1000.0,-92.28515625,-33.69140625,-1.0,-1.0,-1.0,0.0,9.m4v,4.0
2024-02-27 14:07:34.064070,1709039254.0640705,908.69140625,223.14453125,267.578125,-25.390625,-1.0,-1.0,-1.0,0.0,9.m4v,4.0
2024-02-27 14:07:34.067976,1709039254.0679765,971.6796875,999.51171875,308.59375,-15.13671875,-1.0,-1.0,-1.0,0.0,9.m4v,4.0
2024-02-27 14:07:34.071882,1709039254.0718822,889.6484375,898.92578125,196.2890625,-25.390625,-1.0,-1.0,-1.0,0.0,9.m4v,4.0
2024-02-27 14:07:34.075788,1709039254.0757885,-132.8125,999.51171875,-37.109375,-38.57421875,-1.0,-1.0,-1.0,0.0,9.m4v,4.0
2024-02-27 14:07:34.079694,1709039254.0796945,-1000.0,-226.07421875,-88.37890625,-45.8984375,-1.0,-1.0,-1.0,0.0,9.m4v,4.0
2024-02-27 14:07:34.083600,1709039254.0836,-993.1640625,-1000.0,-163.57421875,-48.828125,-1.0,-1.0,-1.0,0.0,9.m4v,4.0
2024-02-27 14:07:34.087506,1709039254.087506,-875.48828125,-943.84765625,-512.6953125,-40.52734375,-1.0,-1.0,-1.0,0.0,9.m4v,4.0
2024-02-27 14:07:34.091412,1709039254.091412,-637.6953125,-935.546875,-780.76171875,-42.48046875,-1.0,-1.0,-1.0,0.0,9.m4v,4.0
2024-02-27 14:07:34.095318,1709039254.095318,-239.74609375,-1000.0,-609.86328125,-34.66796875,-1.0,-1.0,-1.0,0.0,9.m4v,4.0
2024-02-27 14:07:34.099224,1709039254.099224,577.63671875,-237.3046875,121.09375,-19.53125,-1.0,-1.0,-1.0,0.0,9.m4v,4.0
2024-02-27 14:07:34.103130,1709039254.10313,999.51171875,999.51171875,595.21484375,-26.85546875,-1.0,-1.0,-1.0,0.0,9.m4v,4.0
2024-02-27 14:07:34.107036,1709039254.107036,882.32421875,956.54296875,201.66015625,-36.62109375,-1.0,-1.0,-1.0,0.0,9.m4v,4.0
2024-02-27 14:07:34.110942,1709039254.110942,431.15234375,944.82421875,-64.94140625,-32.2265625,-1.0,-1.0,-1.0,0.0,9.m4v,4.0
2024-02-27 14:07:34.114848,1709039254.114848,288.57421875,961.42578125,409.66796875,-33.203125,-1.0,-1.0,-1.0,0.0,9.m4v,4.0
2024-02-27 14:07:34.118754,1709039254.1187537,800.78125,933.59375,946.2890625,-27.83203125,-1.0,-1.0,-1.0,0.0,9.m4v,4.0
2024-02-27 14:07:34.122660,1709039254.1226597,344.7265625,999.51171875,741.2109375,-36.1328125,-1.0,-1.0,-1.0,0.0,9.m4v,4.0
2024-02-27 14:07:34.126566,1709039254.1265657,-793.45703125,-62.01171875,-117.67578125,-47.8515625,-1.0,-1.0,-1.0,0.0,9.m4v,4.0
2024-02-27 14:07:34.130471,1709039254.1304717,-991.69921875,-1000.0,-891.11328125,-50.78125,-1.0,-1.0,-1.0,0.0,9.m4v,4.0
2024-02-27 14:07:34.134377,1709039254.1343777,-1000.0,-953.61328125,-867.67578125,-52.734375,-1.0,-1.0,-1.0,0.0,9.m4v,4.0
2024-02-27 14:07:34.138283,1709039254.1382835,-673.828125,-990.72265625,-313.96484375,-43.45703125,-1.0,-1.0,-1.0,0.0,9.m4v,4.0
2024-02-27 14:07:34.142190,1709039254.1421895,572.75390625,-1000.0,199.21875,-28.80859375,-1.0,-1.0,-1.0,0.0,9.m4v,4.0
2024-02-27 14:07:34.146096,1709039254.1460955,892.08984375,-1000.0,28.3203125,-26.85546875,-1.0,-1.0,-1.0,0.0,9.m4v,4.0
2024-02-27 14:07:34.150001,1709039254.1500013,-230.46875,-943.359375,-551.26953125,-42.96875,-1.0,-1.0,-1.0,0.0,9.m4v,4.0
2024-02-27 14:07:34.216402,1709039254.2164023,546.875,950.1953125,238.28125,-17.08984375,-1.0,-1.0,-1.0,0.0,9.m4v,4.0
2024-02-27 14:07:34.220308,1709039254.220308,-81.54296875,944.3359375,402.83203125,-26.85546875,-1.0,-1.0,-1.0,0.0,9.m4v,4.0
2024-02-27 14:07:34.224214,1709039254.224214,182.12890625,976.07421875,470.21484375,-31.25,-1.0,-1.0,-1.0,0.0,9.m4v,4.0
2024-02-27 14:07:34.228120,1709039254.22812,-48.33984375,969.7265625,65.91796875,-41.9921875,-1.0,-1.0,-1.0,0.0,9.m4v,4.0
2024-02-27 14:07:34.232026,1709039254.232026,-357.91015625,969.7265625,-39.55078125,-49.31640625,-1.0,-1.0,-1.0,0.0,9.m4v,4.0
2024-02-27 14:07:34.235932,1709039254.235932,-428.22265625,976.5625,49.8046875,-37.59765625,-1.0,-1.0,-1.0,0.0,9.m4v,4.0
2024-02-27 14:07:34.239838,1709039254.239838,-26.85546875,941.89453125,415.52734375,-29.296875,-1.0,-1.0,-1.0,0.0,9.m4v,4.0
2024-02-27 14:07:34.243744,1709039254.2437437,787.109375,958.49609375,629.8828125,-28.3203125,-1.0,-1.0,-1.0,0.0,9.m4v,4.0
2024-02-27 14:07:34.247650,1709039254.2476497,260.25390625,999.51171875,159.1796875,-38.57421875,-1.0,-1.0,-1.0,0.0,9.m4v,4.0
2024-02-27 14:07:34.251556,1709039254.2515557,-843.75,-230.46875,-388.671875,-46.38671875,-1.0,-1.0,-1.0,0.0,9.m4v,4.0
2024-02-27 14:07:34.255461,1709039254.2554617,-1000.0,-1000.0,-110.83984375,-43.45703125,-1.0,-1.0,-1.0,0.0,9.m4v,4.0
2024-02-27 14:07:34.259367,1709039254.2593677,-77.63671875,-941.40625,645.01953125,-35.64453125,-1.0,-1.0,-1.0,0.0,9.m4v,4.0
2024-02-27 14:07:34.263273,1709039254.2632737,662.109375,-1000.0,612.79296875,-34.1796875,-1.0,-1.0,-1.0,0.0,9.m4v,4.0
2024-02-27 14:07:34.267179,1709039254.2671793,-364.74609375,-1000.0,-217.7734375,-47.36328125,-1.0,-1.0,-1.0,0.0,9.m4v,4.0
2024-02-27 14:07:34.271085,1709039254.2710853,-1000.0,-959.9609375,-753.90625,-50.78125,-1.0,-1.0,-1.0,0.0,9.m4v,4.0
2024-02-27 14:07:34.274991,1709039254.2749913,-826.66015625,-1000.0,-543.45703125,-35.64453125,-1.0,-1.0,-1.0,0.0,9.m4v,4.0
2024-02-27 14:07:34.278897,1709039254.278897,246.58203125,-961.9140625,124.51171875,-27.83203125,-1.0,-1.0,-1.0,0.0,9.m4v,4.0
2024-02-27 14:07:34.282803,1709039254.2828028,999.51171875,363.28125,671.875,-26.85546875,-1.0,-1.0,-1.0,0.0,9.m4v,4.0
2024-02-27 14:07:34.286709,1709039254.2867088,932.6171875,999.51171875,415.0390625,-27.83203125,-1.0,-1.0,-1.0,0.0,9.m4v,4.0
2024-02-27 14:07:34.290615,1709039254.2906146,633.30078125,906.25,51.26953125,-31.73828125,-1.0,-1.0,-1.0,0.0,9.m4v,4.0
2024-02-27 14:07:34.294521,1709039254.2945206,-294.43359375,976.07421875,-13.18359375,-34.1796875,-1.0,-1.0,-1.0,0.0,9.m4v,4.0
2024-02-27 14:07:34.298427,1709039254.2984266,-620.60546875,970.703125,184.5703125,-30.76171875,-1.0,-1.0,-1.0,0.0,9.m4v,4.0
2024-02-27 14:07:34.302332,1709039254.3023324,536.62109375,907.2265625,838.8671875,-24.4140625,-1.0,-1.0,-1.0,0.0,9.m4v,4.0
2024-02-27 14:07:34.306238,1709039254.3062384,861.81640625,999.51171875,719.23828125,-25.390625,-1.0,-1.0,-1.0,0.0,9.m4v,4.0
2024-02-27 14:07:34.310144,1709039254.3101444,-453.125,188.96484375,-316.40625,-32.71484375,-1.0,-1.0,-1.0,0.0,9.m4v,4.0
2024-02-27 14:07:34.314050,1709039254.3140502,-1000.0,-1000.0,-736.81640625,-39.0625,-1.0,-1.0,-1.0,0.0,9.m4v,4.0
2024-02-27 14:07:34.349203,1709039254.349203,865.72265625,934.5703125,363.76953125,-40.52734375,-1.0,-1.0,-1.0,0.0,9.m4v,4.0
2024-02-27 14:07:34.353109,1709039254.3531094,689.94140625,891.6015625,565.91796875,-28.3203125,-1.0,-1.0,-1.0,0.0,9.m4v,4.0
2024-02-27 14:07:34.357015,1709039254.3570151,54.6875,999.51171875,661.1328125,-29.296875,-1.0,-1.0,-1.0,0.0,9.m4v,4.0
2024-02-27 14:07:34.360921,1709039254.3609211,-813.96484375,176.26953125,444.82421875,-37.59765625,-1.0,-1.0,-1.0,0.0,9.m4v,4.0
2024-02-27 14:07:34.364827,1709039254.3648272,-1000.0,-1000.0,22.4609375,-40.52734375,-1.0,-1.0,-1.0,0.0,9.m4v,4.0
2024-02-27 14:07:34.368733,1709039254.368733,-943.84765625,-991.2109375,-629.8828125,-47.8515625,-1.0,-1.0,-1.0,0.0,9.m4v,4.0
2024-02-27 14:07:34.372639,1709039254.372639,-1000.0,-902.83203125,-826.171875,-40.0390625,-1.0,-1.0,-1.0,0.0,9.m4v,4.0
2024-02-27 14:07:34.493722,1709039254.4937222,-473.14453125,-1000.0,-591.796875,-43.9453125,-1.0,-1.0,-1.0,0.0,9.m4v,4.0
2024-02-27 14:07:34.501534,1709039254.5015342,-211.42578125,-1000.0,-395.01953125,-37.59765625,-1.0,-1.0,-1.0,0.0,9.m4v,4.0
2024-02-27 14:07:34.509346,1709039254.509346,27.34375,-1000.0,-874.0234375,-41.50390625,-1.0,-1.0,-1.0,0.0,9.m4v,4.0
2024-02-27 14:07:34.517158,1709039254.517158,-562.98828125,-1000.0,-849.12109375,-36.1328125,-1.0,-1.0,-1.0,0.0,9.m4v,4.0
2024-02-27 14:07:34.524970,1709039254.5249698,985.3515625,999.51171875,136.23046875,-25.390625,-1.0,-1.0,-1.0,0.0,9.m4v,4.0
2024-02-27 14:07:34.532782,1709039254.5327818,490.234375,942.87109375,-400.390625,-37.109375,-1.0,-1.0,-1.0,0.0,9.m4v,4.0
2024-02-27 14:07:34.540594,1709039254.5405936,736.328125,900.87890625,645.5078125,-19.53125,-1.0,-1.0,-1.0,0.0,9.m4v,4.0
2024-02-27 14:07:34.548405,1709039254.5484054,-636.71875,303.7109375,-588.37890625,-37.59765625,-1.0,-1.0,-1.0,0.0,9.m4v,4.0
2024-02-27 14:07:34.724172,1709039254.724172,990.234375,652.34375,790.52734375,-13.18359375,-1.0,-1.0,-1.0,0.0,9.m4v,4.0
2024-02-27 14:07:34.728078,1709039254.728078,938.96484375,999.51171875,540.0390625,-17.578125,-1.0,-1.0,-1.0,0.0,9.m4v,4.0
2024-02-27 14:07:34.731984,1709039254.731984,-86.9140625,984.86328125,-137.6953125,-29.78515625,-1.0,-1.0,-1.0,0.0,9.m4v,4.0
2024-02-27 14:07:34.735890,1709039254.73589,-1000.0,716.796875,-156.25,-39.55078125,-1.0,-1.0,-1.0,0.0,9.m4v,4.0
2024-02-27 14:07:34.739796,1709039254.739796,-1000.0,-703.61328125,154.296875,-29.78515625,-1.0,-1.0,-1.0,0.0,9.m4v,4.0
2024-02-27 14:07:34.743702,1709039254.7437017,-717.7734375,-1000.0,98.6328125,-27.83203125,-1.0,-1.0,-1.0,0.0,9.m4v,4.0
2024-02-27 14:07:34.747608,1709039254.7476077,-590.8203125,-947.265625,-425.78125,-43.45703125,-1.0,-1.0,-1.0,0.0,9.m4v,4.0
2024-02-27 14:07:34.751513,1709039254.7515132,-853.515625,-942.87109375,-784.1796875,-44.43359375,-1.0,-1.0,-1.0,0.0,9.m4v,4.0
2024-02-27 14:07:34.755419,1709039254.755419,-483.88671875,-1000.0,-543.45703125,-37.109375,-1.0,-1.0,-1.0,0.0,9.m4v,4.0
2024-02-27 14:07:34.759325,1709039254.759325,538.0859375,-369.140625,167.96875,-31.73828125,-1.0,-1.0,-1.0,0.0,9.m4v,4.0
2024-02-27 14:07:34.763231,1709039254.763231,999.51171875,981.93359375,636.71875,-21.97265625,-1.0,-1.0,-1.0,0.0,9.m4v,4.0
2024-02-27 14:07:34.767137,1709039254.7671368,852.05078125,979.00390625,219.7265625,-25.87890625,-1.0,-1.0,-1.0,0.0,9.m4v,4.0
2024-02-27 14:07:34.771043,1709039254.7710428,424.31640625,930.17578125,7.32421875,-36.1328125,-1.0,-1.0,-1.0,0.0,9.m4v,4.0
2024-02-27 14:07:34.774949,1709039254.7749488,334.9609375,984.375,428.7109375,-32.2265625,-1.0,-1.0,-1.0,0.0,9.m4v,4.0
2024-02-27 14:07:34.778855,1709039254.7788546,208.0078125,953.61328125,596.6796875,-25.87890625,-1.0,-1.0,-1.0,0.0,9.m4v,4.0
2024-02-27 14:07:34.782761,1709039254.7827606,-17.08984375,936.03515625,518.5546875,-26.3671875,-1.0,-1.0,-1.0,0.0,9.m4v,4.0
2024-02-27 14:07:34.786667,1709039254.7866666,-431.15234375,999.51171875,47.8515625,-38.0859375,-1.0,-1.0,-1.0,0.0,9.m4v,4.0
2024-02-27 14:07:34.790572,1709039254.7905724,-931.640625,-67.87109375,-572.75390625,-42.48046875,-1.0,-1.0,-1.0,0.0,9.m4v,4.0
2024-02-27 14:07:34.794478,1709039254.7944784,-1000.0,-1000.0,-766.11328125,-38.57421875,-1.0,-1.0,-1.0,0.0,9.m4v,4.0
2024-02-27 14:07:34.798384,1709039254.7983837,-808.10546875,-955.078125,-312.5,-36.62109375,-1.0,-1.0,-1.0,0.0,9.m4v,4.0
2024-02-27 14:07:34.802290,1709039254.8022895,339.35546875,-990.72265625,104.98046875,-22.4609375,-1.0,-1.0,-1.0,0.0,9.m4v,4.0
2024-02-27 14:07:34.806196,1709039254.8061955,645.01953125,-1000.0,-208.0078125,-23.4375,-1.0,-1.0,-1.0,0.0,9.m4v,4.0
2024-02-27 14:07:34.810102,1709039254.8101015,-459.47265625,-938.96484375,-708.49609375,-38.0859375,-1.0,-1.0,-1.0,0.0,9.m4v,4.0
2024-02-27 14:07:34.814008,1709039254.8140075,-1000.0,-1000.0,-861.81640625,-38.0859375,-1.0,-1.0,-1.0,0.0,9.m4v,4.0
2024-02-27 14:07:34.817914,1709039254.8179135,-14.16015625,-201.66015625,55.17578125,-27.83203125,-1.0,-1.0,-1.0,0.0,9.m4v,4.0
2024-02-27 14:07:34.821819,1709039254.8218193,999.51171875,999.51171875,999.51171875,-20.99609375,-1.0,-1.0,-1.0,0.0,9.m4v,4.0
2024-02-27 14:07:34.825725,1709039254.8257253,807.6171875,926.26953125,407.2265625,-31.73828125,-1.0,-1.0,-1.0,0.0,9.m4v,4.0
2024-02-27 14:07:34.829631,1709039254.829631,-160.15625,927.24609375,-334.9609375,-43.9453125,-1.0,-1.0,-1.0,0.0,9.m4v,4.0
2024-02-27 14:07:34.833537,1709039254.833537,-894.04296875,999.51171875,-436.03515625,-35.15625,-1.0,-1.0,-1.0,0.0,9.m4v,4.0
2024-02-27 14:07:34.837443,1709039254.837443,-1000.0,-184.08203125,-380.859375,-26.3671875,-1.0,-1.0,-1.0,0.0,9.m4v,4.0
2024-02-27 14:07:34.841349,1709039254.8413491,-805.6640625,-1000.0,-150.390625,-30.76171875,-1.0,-1.0,-1.0,0.0,9.m4v,4.0
2024-02-27 14:07:34.845254,1709039254.8452544,-295.41015625,-948.73046875,-315.4296875,-38.0859375,-1.0,-1.0,-1.0,0.0,9.m4v,4.0
2024-02-27 14:07:34.849160,1709039254.8491602,-311.03515625,-932.12890625,-750.9765625,-41.015625,-1.0,-1.0,-1.0,0.0,9.m4v,4.0
2024-02-27 14:07:34.853066,1709039254.8530662,-285.15625,-1000.0,-699.21875,-38.0859375,-1.0,-1.0,-1.0,0.0,9.m4v,4.0
2024-02-27 14:07:34.856972,1709039254.8569722,508.7890625,-243.65234375,-18.06640625,-24.4140625,-1.0,-1.0,-1.0,0.0,9.m4v,4.0
2024-02-27 14:07:34.860878,1709039254.860878,971.6796875,999.51171875,604.98046875,-16.6015625,-1.0,-1.0,-1.0,0.0,9.m4v,4.0
2024-02-27 14:07:34.864784,1709039254.864784,975.5859375,886.71875,776.3671875,-22.94921875,-1.0,-1.0,-1.0,0.0,9.m4v,4.0
2024-02-27 14:07:34.868690,1709039254.86869,800.78125,999.51171875,466.796875,-32.2265625,-1.0,-1.0,-1.0,0.0,9.m4v,4.0
2024-02-27 14:07:34.872596,1709039254.8725958,-359.86328125,550.29296875,-224.609375,-49.31640625,-1.0,-1.0,-1.0,0.0,9.m4v,4.0
2024-02-27 14:07:34.876502,1709039254.8765018,-1000.0,-879.8828125,-395.01953125,-51.26953125,-1.0,-1.0,-1.0,0.0,9.m4v,4.0
2024-02-27 14:07:34.880408,1709039254.8804078,-805.6640625,-1000.0,69.82421875,-42.96875,-1.0,-1.0,-1.0,0.0,9.m4v,4.0
2024-02-27 14:07:34.884314,1709039254.8843136,52.734375,-945.80078125,209.47265625,-37.109375,-1.0,-1.0,-1.0,0.0,9.m4v,4.0
2024-02-27 14:07:34.888220,1709039254.8882196,97.65625,-1000.0,-265.13671875,-47.36328125,-1.0,-1.0,-1.0,0.0,9.m4v,4.0
2024-02-27 14:07:34.892126,1709039254.8921256,-532.2265625,-932.12890625,-451.66015625,-49.31640625,-1.0,-1.0,-1.0,0.0,9.m4v,4.0
2024-02-27 14:07:34.896032,1709039254.8960316,-438.96484375,-1000.0,-200.68359375,-39.0625,-1.0,-1.0,-1.0,0.0,9.m4v,4.0
2024-02-27 14:07:34.899938,1709039254.8999376,391.6015625,-659.1796875,312.01171875,-27.34375,-1.0,-1.0,-1.0,0.0,9.m4v,4.0
2024-02-27 14:07:34.903843,1709039254.9038434,999.51171875,773.4375,553.22265625,-23.4375,-1.0,-1.0,-1.0,0.0,9.m4v,4.0
2024-02-27 14:07:34.907749,1709039254.9077494,776.85546875,999.51171875,89.84375,-30.76171875,-1.0,-1.0,-1.0,0.0,9.m4v,4.0
2024-02-27 14:07:34.911655,1709039254.9116554,299.31640625,910.64453125,-15.13671875,-32.2265625,-1.0,-1.0,-1.0,0.0,9.m4v,4.0
2024-02-27 14:07:34.915561,1709039254.9155612,316.40625,984.86328125,443.359375,-32.71484375,-1.0,-1.0,-1.0,0.0,9.m4v,4.0
2024-02-27 14:07:34.919467,1709039254.9194672,365.72265625,907.2265625,667.48046875,-29.78515625,-1.0,-1.0,-1.0,0.0,9.m4v,4.0
2024-02-27 14:07:34.923373,1709039254.9233732,-12.20703125,999.51171875,503.90625,-34.66796875,-1.0,-1.0,-1.0,0.0,9.m4v,4.0
2024-02-27 14:07:34.954621,1709039254.9546206,-0.48828125,948.2421875,188.96484375,-43.9453125,-1.0,-1.0,-1.0,0.0,9.m4v,4.0
2024-02-27 14:07:34.958527,1709039254.9585266,212.890625,905.76171875,673.33984375,-36.1328125,-1.0,-1.0,-1.0,0.0,9.m4v,4.0
2024-02-27 14:07:34.962433,1709039254.9624326,999.51171875,999.51171875,976.07421875,-32.71484375,-1.0,-1.0,-1.0,0.0,9.m4v,4.0
2024-02-27 14:07:34.966338,1709039254.9663384,-71.77734375,439.94140625,304.19921875,-44.921875,-1.0,-1.0,-1.0,0.0,9.m4v,4.0
2024-02-27 14:07:34.970244,1709039254.9702444,-1000.0,-963.37890625,-499.0234375,-48.828125,-1.0,-1.0,-1.0,0.0,9.m4v,4.0
2024-02-27 14:07:34.974150,1709039254.9741502,-974.12109375,-1000.0,-604.4921875,-44.43359375,-1.0,-1.0,-1.0,0.0,9.m4v,4.0
2024-02-27 14:07:34.978056,1709039254.9780562,-895.99609375,-952.63671875,-178.7109375,-38.0859375,-1.0,-1.0,-1.0,0.0,9.m4v,4.0
2024-02-27 14:07:34.981962,1709039254.9819622,197.75390625,-1000.0,327.63671875,-26.3671875,-1.0,-1.0,-1.0,0.0,9.m4v,4.0
2024-02-27 14:07:34.985868,1709039254.985868,976.5625,-1000.0,269.53125,-21.97265625,-1.0,-1.0,-1.0,0.0,9.m4v,4.0
2024-02-27 14:07:34.989774,1709039254.989774,131.8359375,-1000.0,-188.96484375,-32.2265625,-1.0,-1.0,-1.0,0.0,9.m4v,4.0
2024-02-27 14:07:34.993680,1709039254.9936798,-915.52734375,-937.98828125,-368.1640625,-40.0390625,-1.0,-1.0,-1.0,0.0,9.m4v,4.0
2024-02-27 14:07:34.997586,1709039254.9975858,-742.1875,-1000.0,-42.96875,-37.109375,-1.0,-1.0,-1.0,0.0,9.m4v,4.0
2024-02-27 14:07:35.001492,1709039255.0014918,506.34765625,-215.33203125,623.046875,-26.85546875,-1.0,-1.0,-1.0,0.0,9.m4v,4.0
2024-02-27 14:07:35.005398,1709039255.0053976,992.1875,999.51171875,912.59765625,-24.90234375,-1.0,-1.0,-1.0,0.0,9.m4v,4.0
2024-02-27 14:07:35.009304,1709039255.0093036,971.6796875,941.89453125,703.125,-31.73828125,-1.0,-1.0,-1.0,0.0,9.m4v,4.0
2024-02-27 14:07:35.013210,1709039255.0132096,347.65625,904.78515625,372.0703125,-37.59765625,-1.0,-1.0,-1.0,0.0,9.m4v,4.0
2024-02-27 14:07:35.017115,1709039255.0171154,-767.578125,999.51171875,291.50390625,-36.62109375,-1.0,-1.0,-1.0,0.0,9.m4v,4.0
2024-02-27 14:07:35.028833,1709039255.0288332,-981.4453125,-970.21484375,-437.5,-35.15625,-1.0,-1.0,-1.0,0.0,9.m4v,4.0
2024-02-27 14:07:35.028833,1709039255.0288332,-981.4453125,-970.21484375,-437.5,-35.15625,-1.0,-1.0,-1.0,0.0,9.m4v,4.0
2024-02-27 14:07:35.032739,1709039255.032739,-1000.0,-921.38671875,-631.34765625,-38.57421875,-1.0,-1.0,-1.0,0.0,9.m4v,4.0
2024-02-27 14:07:35.032739,1709039255.032739,-1000.0,-921.38671875,-631.34765625,-38.57421875,-1.0,-1.0,-1.0,0.0,9.m4v,4.0
2024-02-27 14:07:35.036645,1709039255.036645,-335.9375,-1000.0,-235.3515625,-34.66796875,-1.0,-1.0,-1.0,0.0,9.m4v,4.0
2024-02-27 14:07:35.036645,1709039255.036645,-335.9375,-1000.0,-235.3515625,-34.66796875,-1.0,-1.0,-1.0,0.0,9.m4v,4.0
2024-02-27 14:07:35.040551,1709039255.0405507,740.234375,-198.2421875,544.921875,-20.01953125,-1.0,-1.0,-1.0,0.0,9.m4v,4.0
2024-02-27 14:07:35.040551,1709039255.0405507,740.234375,-198.2421875,544.921875,-20.01953125,-1.0,-1.0,-1.0,0.0,9.m4v,4.0
2024-02-27 14:07:35.044457,1709039255.0444567,999.51171875,999.51171875,817.3828125,-27.34375,-1.0,-1.0,-1.0,0.0,9.m4v,4.0
2024-02-27 14:07:35.044457,1709039255.0444567,999.51171875,999.51171875,817.3828125,-27.34375,-1.0,-1.0,-1.0,0.0,9.m4v,4.0
2024-02-27 14:07:35.048363,1709039255.0483627,715.33203125,950.68359375,199.70703125,-48.33984375,-1.0,-1.0,-1.0,0.0,9.m4v,4.0
2024-02-27 14:07:35.048363,1709039255.0483627,715.33203125,950.68359375,199.70703125,-48.33984375,-1.0,-1.0,-1.0,0.0,9.m4v,4.0
2024-02-27 14:07:35.052269,1709039255.0522685,201.171875,944.3359375,203.61328125,-47.8515625,-1.0,-1.0,-1.0,0.0,9.m4v,4.0
2024-02-27 14:07:35.052269,1709039255.0522685,201.171875,944.3359375,203.61328125,-47.8515625,-1.0,-1.0,-1.0,0.0,9.m4v,4.0
2024-02-27 14:07:35.056175,1709039255.0561745,528.80859375,976.07421875,827.1484375,-25.390625,-1.0,-1.0,-1.0,0.0,9.m4v,4.0
2024-02-27 14:07:35.056175,1709039255.0561745,528.80859375,976.07421875,827.1484375,-25.390625,-1.0,-1.0,-1.0,0.0,9.m4v,4.0
2024-02-27 14:07:35.060081,1709039255.0600803,703.61328125,907.71484375,999.51171875,-21.97265625,-1.0,-1.0,-1.0,0.0,9.m4v,4.0
2024-02-27 14:07:35.060081,1709039255.0600803,703.61328125,907.71484375,999.51171875,-21.97265625,-1.0,-1.0,-1.0,0.0,9.m4v,4.0
2024-02-27 14:07:35.063986,1709039255.0639863,140.13671875,999.51171875,817.87109375,-39.55078125,-1.0,-1.0,-1.0,0.0,9.m4v,4.0
2024-02-27 14:07:35.063986,1709039255.0639863,140.13671875,999.51171875,817.87109375,-39.55078125,-1.0,-1.0,-1.0,0.0,9.m4v,4.0
2024-02-27 14:07:35.067892,1709039255.0678923,-695.80078125,179.19921875,74.70703125,-42.48046875,-1.0,-1.0,-1.0,0.0,9.m4v,4.0
2024-02-27 14:07:35.067892,1709039255.0678923,-695.80078125,179.19921875,74.70703125,-42.48046875,-1.0,-1.0,-1.0,0.0,9.m4v,4.0
2024-02-27 14:07:35.071798,1709039255.0717983,-987.79296875,-1000.0,-388.671875,-38.0859375,-1.0,-1.0,-1.0,0.0,9.m4v,4.0
2024-02-27 14:07:35.071798,1709039255.0717983,-987.79296875,-1000.0,-388.671875,-38.0859375,-1.0,-1.0,-1.0,0.0,9.m4v,4.0
2024-02-27 14:07:35.075704,1709039255.075704,-1000.0,-982.421875,-209.9609375,-32.71484375,-1.0,-1.0,-1.0,0.0,9.m4v,4.0
2024-02-27 14:07:35.075704,1709039255.075704,-1000.0,-982.421875,-209.9609375,-32.71484375,-1.0,-1.0,-1.0,0.0,9.m4v,4.0
2024-02-27 14:07:35.079610,1709039255.07961,-580.56640625,-973.6328125,210.9375,-32.71484375,-1.0,-1.0,-1.0,0.0,9.m4v,4.0
2024-02-27 14:07:35.079610,1709039255.07961,-580.56640625,-973.6328125,210.9375,-32.71484375,-1.0,-1.0,-1.0,0.0,9.m4v,4.0
2024-02-27 14:07:35.083516,1709039255.083516,601.07421875,-1000.0,435.05859375,-34.66796875,-1.0,-1.0,-1.0,0.0,9.m4v,4.0
2024-02-27 14:07:35.083516,1709039255.083516,601.07421875,-1000.0,435.05859375,-34.66796875,-1.0,-1.0,-1.0,0.0,9.m4v,4.0
2024-02-27 14:07:35.087422,1709039255.0874217,218.26171875,-994.62890625,-125.0,-42.48046875,-1.0,-1.0,-1.0,0.0,9.m4v,4.0
2024-02-27 14:07:35.087422,1709039255.0874217,218.26171875,-994.62890625,-125.0,-42.48046875,-1.0,-1.0,-1.0,0.0,9.m4v,4.0
2024-02-27 14:07:35.091328,1709039255.0913277,-965.8203125,-947.265625,-626.46484375,-49.31640625,-1.0,-1.0,-1.0,0.0,9.m4v,4.0
2024-02-27 14:07:35.091328,1709039255.0913277,-965.8203125,-947.265625,-626.46484375,-49.31640625,-1.0,-1.0,-1.0,0.0,9.m4v,4.0
2024-02-27 14:07:35.095234,1709039255.0952337,-827.1484375,-1000.0,-389.6484375,-50.29296875,-1.0,-1.0,-1.0,0.0,9.m4v,4.0
2024-02-27 14:07:35.099139,1709039255.0991397,367.1875,-114.74609375,475.09765625,-29.296875,-1.0,-1.0,-1.0,0.0,9.m4v,4.0
2024-02-27 14:07:35.103045,1709039255.1030457,999.51171875,999.51171875,999.51171875,-19.53125,-1.0,-1.0,-1.0,0.0,9.m4v,4.0
2024-02-27 14:07:35.106951,1709039255.1069517,774.4140625,939.453125,460.44921875,-40.0390625,-1.0,-1.0,-1.0,0.0,9.m4v,4.0
2024-02-27 14:07:35.110857,1709039255.1108572,-386.23046875,950.68359375,-276.3671875,-39.0625,-1.0,-1.0,-1.0,0.0,9.m4v,4.0
2024-02-27 14:07:35.114763,1709039255.1147633,-993.65234375,974.609375,-170.41015625,-34.66796875,-1.0,-1.0,-1.0,0.0,9.m4v,4.0
2024-02-27 14:07:35.118669,1709039255.1186693,97.16796875,969.7265625,469.7265625,-31.25,-1.0,-1.0,-1.0,0.0,9.m4v,4.0
2024-02-27 14:07:35.122575,1709039255.122575,999.51171875,969.7265625,776.3671875,-33.69140625,-1.0,-1.0,-1.0,0.0,9.m4v,4.0
2024-02-27 14:07:35.161634,1709039255.1616342,-609.86328125,-955.56640625,270.99609375,-31.73828125,-1.0,-1.0,-1.0,0.0,9.m4v,4.0
2024-02-27 14:07:35.165540,1709039255.16554,19.53125,-990.72265625,125.9765625,-25.87890625,-1.0,-1.0,-1.0,0.0,9.m4v,4.0
2024-02-27 14:07:35.169446,1709039255.169446,-550.29296875,-997.0703125,-494.140625,-41.50390625,-1.0,-1.0,-1.0,0.0,9.m4v,4.0
2024-02-27 14:07:35.173351,1709039255.1733513,-878.90625,-947.265625,-453.61328125,-41.50390625,-1.0,-1.0,-1.0,0.0,9.m4v,4.0
2024-02-27 14:07:35.177257,1709039255.1772573,42.96875,-1000.0,72.75390625,-29.78515625,-1.0,-1.0,-1.0,0.0,9.m4v,4.0
2024-02-27 14:07:35.181163,1709039255.1811633,898.92578125,-120.60546875,667.96875,-19.53125,-1.0,-1.0,-1.0,0.0,9.m4v,4.0
2024-02-27 14:07:35.185069,1709039255.185069,999.51171875,999.51171875,548.828125,-21.97265625,-1.0,-1.0,-1.0,0.0,9.m4v,4.0
2024-02-27 14:07:35.188975,1709039255.188975,349.12109375,948.73046875,-37.109375,-31.73828125,-1.0,-1.0,-1.0,0.0,9.m4v,4.0
2024-02-27 14:07:35.192881,1709039255.192881,44.43359375,916.50390625,259.27734375,-33.69140625,-1.0,-1.0,-1.0,0.0,9.m4v,4.0
2024-02-27 14:07:35.196787,1709039255.1967869,733.3984375,974.12109375,863.28125,-35.15625,-1.0,-1.0,-1.0,0.0,9.m4v,4.0
2024-02-27 14:07:35.200693,1709039255.200693,487.3046875,989.74609375,882.8125,-39.0625,-1.0,-1.0,-1.0,0.0,9.m4v,4.0
2024-02-27 14:07:35.204599,1709039255.204599,-648.92578125,-295.8984375,163.57421875,-51.7578125,-1.0,-1.0,-1.0,0.0,9.m4v,4.0
2024-02-27 14:07:35.208505,1709039255.208505,-1000.0,-1000.0,-766.11328125,-50.29296875,-1.0,-1.0,-1.0,0.0,9.m4v,4.0
2024-02-27 14:07:35.212411,1709039255.2124107,-962.40234375,-937.98828125,-1000.0,-44.921875,-1.0,-1.0,-1.0,0.0,9.m4v,4.0
2024-02-27 14:07:35.216317,1709039255.2163167,-929.19921875,-1000.0,-673.33984375,-41.015625,-1.0,-1.0,-1.0,0.0,9.m4v,4.0
2024-02-27 14:07:35.220223,1709039255.220223,138.18359375,-1000.0,-38.0859375,-23.92578125,-1.0,-1.0,-1.0,0.0,9.m4v,4.0
2024-02-27 14:07:35.224129,1709039255.2241287,999.51171875,-1000.0,40.0390625,-26.3671875,-1.0,-1.0,-1.0,0.0,9.m4v,4.0
2024-02-27 14:07:35.228035,1709039255.2280347,81.54296875,-1000.0,-520.01953125,-32.71484375,-1.0,-1.0,-1.0,0.0,9.m4v,4.0
2024-02-27 14:07:35.231941,1709039255.2319407,-1000.0,-931.15234375,-942.87109375,-33.69140625,-1.0,-1.0,-1.0,0.0,9.m4v,4.0
2024-02-27 14:07:35.235847,1709039255.2358463,-825.1953125,-1000.0,-760.25390625,-31.73828125,-1.0,-1.0,-1.0,0.0,9.m4v,4.0
2024-02-27 14:07:35.239753,1709039255.2397523,327.1484375,-322.75390625,127.44140625,-25.87890625,-1.0,-1.0,-1.0,0.0,9.m4v,4.0
2024-02-27 14:07:35.243659,1709039255.2436583,999.51171875,943.84765625,410.64453125,-29.78515625,-1.0,-1.0,-1.0,0.0,9.m4v,4.0
2024-02-27 14:07:35.247564,1709039255.2475643,508.30078125,999.51171875,-465.33203125,-33.203125,-1.0,-1.0,-1.0,0.0,9.m4v,4.0
2024-02-27 14:07:35.251470,1709039255.2514703,-380.37109375,783.203125,-757.8125,-33.69140625,-1.0,-1.0,-1.0,0.0,9.m4v,4.0
2024-02-27 14:07:35.255376,1709039255.2553763,-884.765625,-567.87109375,-831.0546875,-43.9453125,-1.0,-1.0,-1.0,0.0,9.m4v,4.0
2024-02-27 14:07:35.259282,1709039255.259282,-1000.0,-1000.0,-772.94921875,-48.33984375,-1.0,-1.0,-1.0,0.0,9.m4v,4.0
2024-02-27 14:07:35.263188,1709039255.263188,-463.8671875,-934.5703125,-591.30859375,-25.390625,-1.0,-1.0,-1.0,0.0,9.m4v,4.0
2024-02-27 14:07:35.267094,1709039255.267094,56.15234375,-1000.0,-854.00390625,-26.3671875,-1.0,-1.0,-1.0,0.0,9.m4v,4.0
2024-02-27 14:07:35.271000,1709039255.271,-125.9765625,-1000.0,-1000.0,-38.57421875,-1.0,-1.0,-1.0,0.0,9.m4v,4.0
2024-02-27 14:07:35.274906,1709039255.2749062,-257.8125,-938.96484375,-950.68359375,-32.71484375,-1.0,-1.0,-1.0,0.0,9.m4v,4.0
2024-02-27 14:07:35.278812,1709039255.278812,307.12890625,-1000.0,-433.10546875,-26.3671875,-1.0,-1.0,-1.0,0.0,9.m4v,4.0
2024-02-27 14:07:35.282718,1709039255.282718,970.703125,-208.49609375,37.109375,-18.06640625,-1.0,-1.0,-1.0,0.0,9.m4v,4.0
2024-02-27 14:07:35.286624,1709039255.286624,965.33203125,999.51171875,-143.06640625,-29.78515625,-1.0,-1.0,-1.0,0.0,9.m4v,4.0
2024-02-27 14:07:35.290530,1709039255.2905295,818.359375,912.59765625,-345.703125,-37.59765625,-1.0,-1.0,-1.0,0.0,9.m4v,4.0
2024-02-27 14:07:35.294436,1709039255.2944355,70.3125,999.51171875,-428.22265625,-34.1796875,-1.0,-1.0,-1.0,0.0,9.m4v,4.0
2024-02-27 14:07:35.298342,1709039255.2983418,-816.89453125,-13.18359375,-470.703125,-39.0625,-1.0,-1.0,-1.0,0.0,9.m4v,4.0
2024-02-27 14:07:35.302248,1709039255.3022475,-992.67578125,-1000.0,-451.66015625,-45.41015625,-1.0,-1.0,-1.0,0.0,9.m4v,4.0
2024-02-27 14:07:35.306154,1709039255.3061535,-886.23046875,-958.984375,-773.4375,-43.9453125,-1.0,-1.0,-1.0,0.0,9.m4v,4.0
2024-02-27 14:07:35.310060,1709039255.3100595,-546.38671875,-996.58203125,-1000.0,-38.57421875,-1.0,-1.0,-1.0,0.0,9.m4v,4.0
2024-02-27 14:07:35.313966,1709039255.3139656,23.92578125,-966.30859375,-868.1640625,-38.57421875,-1.0,-1.0,-1.0,0.0,9.m4v,4.0
2024-02-27 14:07:35.317871,1709039255.317871,214.84375,-1000.0,-590.8203125,-32.2265625,-1.0,-1.0,-1.0,0.0,9.m4v,4.0
2024-02-27 14:07:35.321777,1709039255.321777,578.61328125,-982.91015625,-242.67578125,-19.53125,-1.0,-1.0,-1.0,0.0,9.m4v,4.0
2024-02-27 14:07:35.325683,1709039255.3256834,999.51171875,318.359375,-227.05078125,-18.06640625,-1.0,-1.0,-1.0,0.0,9.m4v,4.0
2024-02-27 14:07:35.329589,1709039255.3295891,849.609375,999.51171875,-545.8984375,-24.90234375,-1.0,-1.0,-1.0,0.0,9.m4v,4.0
2024-02-27 14:07:35.333495,1709039255.3334951,791.015625,907.71484375,-196.2890625,-26.3671875,-1.0,-1.0,-1.0,0.0,9.m4v,4.0
2024-02-27 14:07:35.337401,1709039255.3374012,908.69140625,979.4921875,385.7421875,-28.3203125,-1.0,-1.0,-1.0,0.0,9.m4v,4.0
2024-02-27 14:07:35.341307,1709039255.341307,281.73828125,901.85546875,268.5546875,-38.0859375,-1.0,-1.0,-1.0,0.0,9.m4v,4.0
2024-02-27 14:07:35.345213,1709039255.345213,-532.2265625,999.51171875,-130.859375,-41.50390625,-1.0,-1.0,-1.0,0.0,9.m4v,4.0
2024-02-27 14:07:35.349119,1709039255.349119,-889.16015625,287.109375,-684.5703125,-46.875,-1.0,-1.0,-1.0,0.0,9.m4v,4.0
2024-02-27 14:07:35.353025,1709039255.3530247,-1000.0,-1000.0,-917.48046875,-48.828125,-1.0,-1.0,-1.0,0.0,9.m4v,4.0
2024-02-27 14:07:35.356931,1709039255.3569307,-917.96875,-1000.0,-530.76171875,-42.48046875,-1.0,-1.0,-1.0,0.0,9.m4v,4.0
2024-02-27 14:07:35.360837,1709039255.3608365,187.98828125,-965.33203125,41.9921875,-38.0859375,-1.0,-1.0,-1.0,0.0,9.m4v,4.0
2024-02-27 14:07:35.368649,1709039255.3686483,-38.57421875,-985.3515625,-556.15234375,-42.48046875,-1.0,-1.0,-1.0,0.0,9.m4v,4.0
2024-02-27 14:07:35.587380,1709039255.5873804,-49.8046875,999.51171875,78.125,-41.9921875,-1.0,-1.0,-1.0,0.0,9.m4v,4.0
2024-02-27 14:07:35.591286,1709039255.5912862,-907.71484375,66.89453125,-505.37109375,-53.7109375,-1.0,-1.0,-1.0,0.0,9.m4v,4.0
2024-02-27 14:07:35.595191,1709039255.5951917,-1000.0,-1000.0,-517.578125,-49.31640625,-1.0,-1.0,-1.0,0.0,9.m4v,4.0
2024-02-27 14:07:35.599097,1709039255.5990975,-721.19140625,-968.26171875,20.99609375,-37.59765625,-1.0,-1.0,-1.0,0.0,9.m4v,4.0
2024-02-27 14:07:35.716275,1709039255.7162757,-317.3828125,989.74609375,222.65625,-31.73828125,-1.0,-1.0,-1.0,0.0,9.m4v,4.0
2024-02-27 14:07:35.720181,1709039255.7201817,-916.015625,-281.25,191.89453125,-38.0859375,-1.0,-1.0,-1.0,0.0,9.m4v,4.0
2024-02-27 14:07:35.724087,1709039255.7240877,-969.7265625,-1000.0,-30.2734375,-41.015625,-1.0,-1.0,-1.0,0.0,9.m4v,4.0
2024-02-27 14:07:35.727993,1709039255.7279932,-1000.0,-940.91796875,-541.9921875,-42.96875,-1.0,-1.0,-1.0,0.0,9.m4v,4.0
2024-02-27 14:07:35.731899,1709039255.7318993,-575.68359375,-1000.0,-509.27734375,-34.1796875,-1.0,-1.0,-1.0,0.0,9.m4v,4.0
2024-02-27 14:07:35.735805,1709039255.7358053,282.2265625,-1000.0,-108.88671875,-26.3671875,-1.0,-1.0,-1.0,0.0,9.m4v,4.0
2024-02-27 14:07:35.739711,1709039255.739711,679.19921875,-1000.0,283.203125,-26.3671875,-1.0,-1.0,-1.0,0.0,9.m4v,4.0
2024-02-27 14:07:35.743617,1709039255.743617,681.640625,-1000.0,313.96484375,-33.69140625,-1.0,-1.0,-1.0,0.0,9.m4v,4.0
2024-02-27 14:07:35.747523,1709039255.747523,-161.62109375,-935.546875,-198.73046875,-40.0390625,-1.0,-1.0,-1.0,0.0,9.m4v,4.0
2024-02-27 14:07:35.751429,1709039255.7514288,-1000.0,-1000.0,-658.69140625,-41.50390625,-1.0,-1.0,-1.0,0.0,9.m4v,4.0
2024-02-27 14:07:35.755335,1709039255.7553349,-288.57421875,-253.90625,-112.3046875,-25.87890625,-1.0,-1.0,-1.0,0.0,9.m4v,4.0
2024-02-27 14:07:35.759241,1709039255.7592409,977.05078125,999.51171875,911.1328125,-9.765625,-1.0,-1.0,-1.0,0.0,9.m4v,4.0
2024-02-27 14:07:35.763147,1709039255.7631466,999.51171875,958.984375,861.81640625,-23.4375,-1.0,-1.0,-1.0,0.0,9.m4v,4.0
2024-02-27 14:07:35.767053,1709039255.767053,536.1328125,939.94140625,255.37109375,-33.203125,-1.0,-1.0,-1.0,0.0,9.m4v,4.0
2024-02-27 14:07:35.770959,1709039255.770959,-633.30078125,977.5390625,-325.1953125,-30.76171875,-1.0,-1.0,-1.0,0.0,9.m4v,4.0
2024-02-27 14:07:35.774864,1709039255.7748644,-973.6328125,970.21484375,-270.99609375,-32.71484375,-1.0,-1.0,-1.0,0.0,9.m4v,4.0
2024-02-27 14:07:35.778770,1709039255.7787704,157.2265625,969.7265625,449.21875,-30.2734375,-1.0,-1.0,-1.0,0.0,9.m4v,4.0
2024-02-27 14:07:35.782676,1709039255.7826762,999.51171875,983.88671875,768.06640625,-33.69140625,-1.0,-1.0,-1.0,0.0,9.m4v,4.0
2024-02-27 14:07:35.786582,1709039255.786582,513.18359375,900.87890625,322.265625,-47.36328125,-1.0,-1.0,-1.0,0.0,9.m4v,4.0
2024-02-27 14:07:35.790488,1709039255.790488,-358.88671875,999.51171875,55.6640625,-41.015625,-1.0,-1.0,-1.0,0.0,9.m4v,4.0
2024-02-27 14:07:35.794394,1709039255.794394,-674.8046875,663.57421875,62.98828125,-32.71484375,-1.0,-1.0,-1.0,0.0,9.m4v,4.0
2024-02-27 14:07:35.798300,1709039255.7982998,-1000.0,-944.3359375,101.5625,-35.64453125,-1.0,-1.0,-1.0,0.0,9.m4v,4.0
2024-02-27 14:07:35.821735,1709039255.8217354,61.5234375,-938.96484375,368.1640625,-40.0390625,-1.0,-1.0,-1.0,0.0,9.m4v,4.0
2024-02-27 14:07:35.829547,1709039255.829547,-347.65625,-972.65625,-458.0078125,-45.41015625,-1.0,-1.0,-1.0,0.0,9.m4v,4.0
2024-02-27 14:07:35.833453,1709039255.833453,-1000.0,-987.3046875,-616.2109375,-35.15625,-1.0,-1.0,-1.0,0.0,9.m4v,4.0
2024-02-27 14:07:35.841265,1709039255.8412647,893.06640625,194.82421875,703.61328125,-13.18359375,-1.0,-1.0,-1.0,0.0,9.m4v,4.0
2024-02-27 14:07:35.845171,1709039255.8451707,998.046875,999.51171875,691.40625,-11.71875,-1.0,-1.0,-1.0,0.0,9.m4v,4.0
2024-02-27 14:07:35.852983,1709039255.8529823,696.2890625,945.80078125,581.0546875,-27.34375,-1.0,-1.0,-1.0,0.0,9.m4v,4.0
2024-02-27 14:07:35.856889,1709039255.8568883,332.03125,950.1953125,802.734375,-21.97265625,-1.0,-1.0,-1.0,0.0,9.m4v,4.0
2024-02-27 14:07:35.864700,1709039255.8647003,-854.00390625,-172.36328125,147.4609375,-33.69140625,-1.0,-1.0,-1.0,0.0,9.m4v,4.0
2024-02-27 14:07:35.868606,1709039255.8686063,-966.796875,-1000.0,-655.76171875,-45.8984375,-1.0,-1.0,-1.0,0.0,9.m4v,4.0
2024-02-27 14:07:35.876418,1709039255.876418,-624.0234375,-1000.0,-333.984375,-30.76171875,-1.0,-1.0,-1.0,0.0,9.m4v,4.0
2024-02-27 14:07:35.880324,1709039255.8803236,531.73828125,-313.96484375,360.83984375,-12.6953125,-1.0,-1.0,-1.0,0.0,9.m4v,4.0
2024-02-27 14:07:35.884230,1709039255.8842297,999.51171875,999.51171875,634.27734375,-17.08984375,-1.0,-1.0,-1.0,0.0,9.m4v,4.0
2024-02-27 14:07:35.888136,1709039255.8881357,756.34765625,969.23828125,108.88671875,-36.62109375,-1.0,-1.0,-1.0,0.0,9.m4v,4.0
2024-02-27 14:07:35.895947,1709039255.8959477,-165.0390625,988.28125,303.7109375,-30.2734375,-1.0,-1.0,-1.0,0.0,9.m4v,4.0
2024-02-27 14:07:35.899853,1709039255.8998537,969.7265625,898.4375,999.51171875,-26.3671875,-1.0,-1.0,-1.0,0.0,9.m4v,4.0
2024-02-27 14:07:35.903759,1709039255.9037592,768.06640625,999.51171875,763.18359375,-30.2734375,-1.0,-1.0,-1.0,0.0,9.m4v,4.0
2024-02-27 14:07:35.911571,1709039255.9115713,-1000.0,-999.0234375,-388.18359375,-47.8515625,-1.0,-1.0,-1.0,0.0,9.m4v,4.0
2024-02-27 14:07:35.915477,1709039255.915477,-1000.0,-1000.0,-176.7578125,-33.203125,-1.0,-1.0,-1.0,0.0,9.m4v,4.0
2024-02-27 14:07:35.919383,1709039255.919383,-469.7265625,-958.49609375,286.62109375,-41.9921875,-1.0,-1.0,-1.0,0.0,9.m4v,4.0
2024-02-27 14:07:35.923288,1709039255.9232883,571.77734375,-1000.0,425.29296875,-44.43359375,-1.0,-1.0,-1.0,0.0,9.m4v,4.0
2024-02-27 14:07:35.931100,1709039255.9311004,-961.9140625,-943.359375,-667.48046875,-46.875,-1.0,-1.0,-1.0,0.0,9.m4v,4.0
2024-02-27 14:07:35.935006,1709039255.935006,-966.796875,-1000.0,-569.82421875,-42.96875,-1.0,-1.0,-1.0,0.0,9.m4v,4.0
2024-02-27 14:07:35.938912,1709039255.9389122,64.453125,-818.84765625,-6.8359375,-37.59765625,-1.0,-1.0,-1.0,0.0,9.m4v,4.0
2024-02-27 14:07:35.942818,1709039255.9428182,971.6796875,596.19140625,792.48046875,-22.94921875,-1.0,-1.0,-1.0,0.0,9.m4v,4.0
2024-02-27 14:07:35.950630,1709039255.95063,128.41796875,999.51171875,-135.7421875,-38.57421875,-1.0,-1.0,-1.0,0.0,9.m4v,4.0
2024-02-27 14:07:35.954536,1709039255.954536,-977.05078125,282.2265625,-384.765625,-50.29296875,-1.0,-1.0,-1.0,0.0,9.m4v,4.0
2024-02-27 14:07:35.958442,1709039255.9584415,-1000.0,-1000.0,12.6953125,-39.0625,-1.0,-1.0,-1.0,0.0,9.m4v,4.0
2024-02-27 14:07:35.962348,1709039255.9623475,-155.76171875,-997.55859375,384.765625,-25.390625,-1.0,-1.0,-1.0,0.0,9.m4v,4.0
2024-02-27 14:07:35.970159,1709039255.970159,-397.4609375,-1000.0,-378.41796875,-39.0625,-1.0,-1.0,-1.0,0.0,9.m4v,4.0
2024-02-27 14:07:35.989689,1709039255.9896886,-577.63671875,-1000.0,-392.08984375,-29.78515625,-1.0,-1.0,-1.0,0.0,9.m4v,4.0
2024-02-27 14:07:35.993595,1709039255.9935946,-390.625,-1000.0,-177.734375,-37.109375,-1.0,-1.0,-1.0,0.0,9.m4v,4.0
2024-02-27 14:07:35.997501,1709039255.997501,-273.4375,-1000.0,-131.34765625,-33.203125,-1.0,-1.0,-1.0,0.0,9.m4v,4.0
2024-02-27 14:07:36.001406,1709039256.0014064,-125.0,-1000.0,-7.8125,-27.83203125,-1.0,-1.0,-1.0,0.0,9.m4v,4.0
2024-02-27 14:07:36.005312,1709039256.0053124,-5.859375,-1000.0,-299.8046875,-40.0390625,-1.0,-1.0,-1.0,0.0,9.m4v,4.0
2024-02-27 14:07:36.009218,1709039256.0092185,-689.94140625,-1000.0,-893.5546875,-37.59765625,-1.0,-1.0,-1.0,0.0,9.m4v,4.0
2024-02-27 14:07:36.013124,1709039256.0131242,-1000.0,-1000.0,-1000.0,-43.45703125,-1.0,-1.0,-1.0,0.0,9.m4v,4.0
2024-02-27 14:07:36.017030,1709039256.0170305,-406.73828125,-1000.0,-679.19921875,-34.66796875,-1.0,-1.0,-1.0,0.0,9.m4v,4.0
2024-02-27 14:07:36.020936,1709039256.0209365,799.31640625,-1000.0,-2.9296875,-24.90234375,-1.0,-1.0,-1.0,0.0,9.m4v,4.0
2024-02-27 14:07:36.024842,1709039256.0248425,928.22265625,-1000.0,-85.44921875,-32.2265625,-1.0,-1.0,-1.0,0.0,9.m4v,4.0
2024-02-27 14:07:36.028748,1709039256.0287485,-87.40234375,-966.796875,-693.359375,-39.55078125,-1.0,-1.0,-1.0,0.0,9.m4v,4.0
2024-02-27 14:07:36.032654,1709039256.032654,-1000.0,-1000.0,-909.66796875,-45.8984375,-1.0,-1.0,-1.0,0.0,9.m4v,4.0
2024-02-27 14:07:36.036560,1709039256.03656,-412.59765625,-1000.0,-479.4921875,-45.41015625,-1.0,-1.0,-1.0,0.0,9.m4v,4.0
2024-02-27 14:07:36.040466,1709039256.040466,770.99609375,223.6328125,245.1171875,-39.0625,-1.0,-1.0,-1.0,0.0,9.m4v,4.0
2024-02-27 14:07:36.044372,1709039256.0443718,999.51171875,999.51171875,5.37109375,-32.71484375,-1.0,-1.0,-1.0,0.0,9.m4v,4.0
2024-02-27 14:07:36.048278,1709039256.048278,88.8671875,833.984375,-765.13671875,-41.50390625,-1.0,-1.0,-1.0,0.0,9.m4v,4.0
2024-02-27 14:07:36.052184,1709039256.052184,-916.9921875,-452.1484375,-1000.0,-49.8046875,-1.0,-1.0,-1.0,0.0,9.m4v,4.0
2024-02-27 14:07:36.056090,1709039256.0560896,-1000.0,-1000.0,-923.828125,-41.9921875,-1.0,-1.0,-1.0,0.0,9.m4v,4.0
2024-02-27 14:07:36.059996,1709039256.0599957,-350.09765625,-935.546875,-437.01171875,-32.2265625,-1.0,-1.0,-1.0,0.0,9.m4v,4.0
2024-02-27 14:07:36.063902,1709039256.0639017,897.94921875,-1000.0,-209.47265625,-32.71484375,-1.0,-1.0,-1.0,0.0,9.m4v,4.0
2024-02-27 14:07:36.067808,1709039256.0678077,598.14453125,-1000.0,-636.23046875,-37.59765625,-1.0,-1.0,-1.0,0.0,9.m4v,4.0
2024-02-27 14:07:36.071713,1709039256.0717134,-626.953125,-936.03515625,-978.515625,-51.7578125,-1.0,-1.0,-1.0,0.0,9.m4v,4.0
2024-02-27 14:07:36.075619,1709039256.0756197,-923.33984375,-1000.0,-872.0703125,-45.41015625,-1.0,-1.0,-1.0,0.0,9.m4v,4.0
2024-02-27 14:07:36.079525,1709039256.0795257,256.34765625,-244.140625,-154.78515625,-24.90234375,-1.0,-1.0,-1.0,0.0,9.m4v,4.0
2024-02-27 14:07:36.083431,1709039256.0834312,999.51171875,999.51171875,605.95703125,-19.53125,-1.0,-1.0,-1.0,0.0,9.m4v,4.0
2024-02-27 14:07:36.087337,1709039256.0873373,867.67578125,957.51953125,188.4765625,-28.80859375,-1.0,-1.0,-1.0,0.0,9.m4v,4.0
2024-02-27 14:07:36.091243,1709039256.091243,-6.8359375,940.4296875,-542.96875,-36.62109375,-1.0,-1.0,-1.0,0.0,9.m4v,4.0
2024-02-27 14:07:36.095149,1709039256.095149,-717.28515625,982.91015625,-449.70703125,-36.62109375,-1.0,-1.0,-1.0,0.0,9.m4v,4.0
2024-02-27 14:07:36.099055,1709039256.099055,-245.60546875,944.82421875,-108.88671875,-46.38671875,-1.0,-1.0,-1.0,0.0,9.m4v,4.0
2024-02-27 14:07:36.102961,1709039256.1029608,541.9921875,952.63671875,17.08984375,-41.50390625,-1.0,-1.0,-1.0,0.0,9.m4v,4.0
2024-02-27 14:07:36.106867,1709039256.1068668,129.39453125,999.51171875,-489.74609375,-45.8984375,-1.0,-1.0,-1.0,0.0,9.m4v,4.0
2024-02-27 14:07:36.110773,1709039256.1107728,-840.33203125,-188.4765625,-1000.0,-48.33984375,-1.0,-1.0,-1.0,0.0,9.m4v,4.0
2024-02-27 14:07:36.114679,1709039256.1146786,-1000.0,-1000.0,-887.20703125,-42.96875,-1.0,-1.0,-1.0,0.0,9.m4v,4.0
2024-02-27 14:07:36.118585,1709039256.1185846,-273.92578125,-1000.0,-231.93359375,-31.73828125,-1.0,-1.0,-1.0,0.0,9.m4v,4.0
2024-02-27 14:07:36.122491,1709039256.1224906,885.7421875,-210.44921875,244.140625,-23.92578125,-1.0,-1.0,-1.0,0.0,9.m4v,4.0
2024-02-27 14:07:36.126396,1709039256.1263964,978.02734375,999.51171875,-0.48828125,-28.3203125,-1.0,-1.0,-1.0,0.0,9.m4v,4.0
2024-02-27 14:07:36.130302,1709039256.1303024,906.73828125,952.63671875,-130.37109375,-28.3203125,-1.0,-1.0,-1.0,0.0,9.m4v,4.0
2024-02-27 14:07:36.134208,1709039256.1342082,633.30078125,951.171875,163.0859375,-26.85546875,-1.0,-1.0,-1.0,0.0,9.m4v,4.0
2024-02-27 14:07:36.138114,1709039256.1381142,147.94921875,906.25,397.94921875,-27.34375,-1.0,-1.0,-1.0,0.0,9.m4v,4.0
2024-02-27 14:07:36.142020,1709039256.1420202,-52.734375,999.51171875,410.64453125,-35.64453125,-1.0,-1.0,-1.0,0.0,9.m4v,4.0
2024-02-27 14:07:36.145926,1709039256.145926,-548.33984375,341.30859375,-200.1953125,-44.43359375,-1.0,-1.0,-1.0,0.0,9.m4v,4.0
2024-02-27 14:07:36.149832,1709039256.149832,-1000.0,-1000.0,-613.28125,-39.55078125,-1.0,-1.0,-1.0,0.0,9.m4v,4.0
2024-02-27 14:07:36.153738,1709039256.153738,-953.125,-1000.0,-391.11328125,-30.76171875,-1.0,-1.0,-1.0,0.0,9.m4v,4.0
2024-02-27 14:07:36.157644,1709039256.1576438,-495.60546875,-960.9375,-91.796875,-21.484375,-1.0,-1.0,-1.0,0.0,9.m4v,4.0
2024-02-27 14:07:36.161550,1709039256.1615498,658.203125,-1000.0,337.890625,-20.01953125,-1.0,-1.0,-1.0,0.0,9.m4v,4.0
2024-02-27 14:07:36.165456,1709039256.1654556,650.87890625,-1000.0,57.6171875,-38.0859375,-1.0,-1.0,-1.0,0.0,9.m4v,4.0
2024-02-27 14:07:36.169362,1709039256.1693616,-620.60546875,-938.96484375,-695.80078125,-44.921875,-1.0,-1.0,-1.0,0.0,9.m4v,4.0
2024-02-27 14:07:36.173268,1709039256.1732676,-1000.0,-1000.0,-931.15234375,-42.96875,-1.0,-1.0,-1.0,0.0,9.m4v,4.0
2024-02-27 14:07:36.177173,1709039256.1771734,-54.6875,-201.171875,5.859375,-24.90234375,-1.0,-1.0,-1.0,0.0,9.m4v,4.0
2024-02-27 14:07:36.181079,1709039256.1810794,999.51171875,999.51171875,963.8671875,-19.53125,-1.0,-1.0,-1.0,0.0,9.m4v,4.0
2024-02-27 14:07:36.184985,1709039256.1849854,895.5078125,902.83203125,486.328125,-34.1796875,-1.0,-1.0,-1.0,0.0,9.m4v,4.0
2024-02-27 14:07:36.188891,1709039256.1888912,-57.12890625,999.51171875,-317.3828125,-37.109375,-1.0,-1.0,-1.0,0.0,9.m4v,4.0
2024-02-27 14:07:36.192797,1709039256.1927972,-988.76953125,95.21484375,-668.45703125,-42.48046875,-1.0,-1.0,-1.0,0.0,9.m4v,4.0
2024-02-27 14:07:36.196703,1709039256.1967032,-993.1640625,-1000.0,-360.3515625,-36.1328125,-1.0,-1.0,-1.0,0.0,9.m4v,4.0
2024-02-27 14:07:36.200609,1709039256.200609,75.68359375,-901.85546875,380.859375,-25.390625,-1.0,-1.0,-1.0,0.0,9.m4v,4.0
2024-02-27 14:07:36.204515,1709039256.2045147,999.51171875,414.55078125,463.37890625,-23.4375,-1.0,-1.0,-1.0,0.0,9.m4v,4.0
2024-02-27 14:07:36.208421,1709039256.2084205,771.484375,999.51171875,-9.765625,-33.203125,-1.0,-1.0,-1.0,0.0,9.m4v,4.0
2024-02-27 14:07:36.212327,1709039256.2123263,268.5546875,906.73828125,-56.640625,-27.34375,-1.0,-1.0,-1.0,0.0,9.m4v,4.0
2024-02-27 14:07:36.239668,1709039256.239668,-737.79296875,-983.88671875,118.1640625,-26.85546875,-1.0,-1.0,-1.0,0.0,9.m4v,4.0
2024-02-27 14:07:36.243574,1709039256.243574,186.03515625,-973.14453125,326.66015625,-22.4609375,-1.0,-1.0,-1.0,0.0,9.m4v,4.0
2024-02-27 14:07:36.247480,1709039256.24748,40.52734375,-1000.0,-237.79296875,-32.2265625,-1.0,-1.0,-1.0,0.0,9.m4v,4.0
2024-02-27 14:07:36.251385,1709039256.2513857,-895.5078125,-928.22265625,-580.078125,-45.41015625,-1.0,-1.0,-1.0,0.0,9.m4v,4.0
2024-02-27 14:07:36.255291,1709039256.2552912,-683.59375,-1000.0,-288.0859375,-41.015625,-1.0,-1.0,-1.0,0.0,9.m4v,4.0
2024-02-27 14:07:36.259197,1709039256.2591972,409.66796875,-558.10546875,279.296875,-18.06640625,-1.0,-1.0,-1.0,0.0,9.m4v,4.0
2024-02-27 14:07:36.263103,1709039256.2631032,999.51171875,867.1875,620.1171875,-21.484375,-1.0,-1.0,-1.0,0.0,9.m4v,4.0
2024-02-27 14:07:36.267009,1709039256.267009,878.90625,999.51171875,242.1875,-47.36328125,-1.0,-1.0,-1.0,0.0,9.m4v,4.0
2024-02-27 14:07:36.270915,1709039256.270915,248.53515625,916.50390625,-36.62109375,-51.26953125,-1.0,-1.0,-1.0,0.0,9.m4v,4.0
2024-02-27 14:07:36.274821,1709039256.274821,144.04296875,993.1640625,451.66015625,-35.15625,-1.0,-1.0,-1.0,0.0,9.m4v,4.0
2024-02-27 14:07:36.278727,1709039256.2787268,636.23046875,898.4375,873.53515625,-33.203125,-1.0,-1.0,-1.0,0.0,9.m4v,4.0
2024-02-27 14:07:36.282633,1709039256.2826328,256.8359375,999.51171875,664.0625,-36.62109375,-1.0,-1.0,-1.0,0.0,9.m4v,4.0
2024-02-27 14:07:36.286539,1709039256.2865388,-678.22265625,365.72265625,43.45703125,-41.50390625,-1.0,-1.0,-1.0,0.0,9.m4v,4.0
2024-02-27 14:07:36.290445,1709039256.2904446,-981.4453125,-999.51171875,-551.7578125,-47.36328125,-1.0,-1.0,-1.0,0.0,9.m4v,4.0
2024-02-27 14:07:36.294351,1709039256.2943506,-1000.0,-1000.0,-567.3828125,-41.015625,-1.0,-1.0,-1.0,0.0,9.m4v,4.0
2024-02-27 14:07:36.298256,1709039256.298256,-637.6953125,-958.49609375,9.27734375,-34.1796875,-1.0,-1.0,-1.0,0.0,9.m4v,4.0
2024-02-27 14:07:36.302162,1709039256.302162,555.6640625,-1000.0,352.5390625,-38.0859375,-1.0,-1.0,-1.0,0.0,9.m4v,4.0
2024-02-27 14:07:36.306068,1709039256.306068,356.93359375,-1000.0,-131.34765625,-41.9921875,-1.0,-1.0,-1.0,0.0,9.m4v,4.0
2024-02-27 14:07:36.325598,1709039256.3255975,686.03515625,953.125,258.7890625,-34.1796875,-1.0,-1.0,-1.0,0.0,9.m4v,4.0
2024-02-27 14:07:36.329504,1709039256.3295035,-376.46484375,942.87109375,-369.140625,-44.43359375,-1.0,-1.0,-1.0,0.0,9.m4v,4.0
2024-02-27 14:07:36.333409,1709039256.3334093,-621.09375,977.05078125,-223.6328125,-40.52734375,-1.0,-1.0,-1.0,0.0,9.m4v,4.0
2024-02-27 14:07:36.337315,1709039256.337315,-91.796875,972.16796875,78.125,-28.80859375,-1.0,-1.0,-1.0,0.0,9.m4v,4.0
2024-02-27 14:07:36.341221,1709039256.341221,692.87109375,905.2734375,515.625,-16.11328125,-1.0,-1.0,-1.0,0.0,9.m4v,4.0
2024-02-27 14:07:36.345127,1709039256.3451266,752.44140625,999.51171875,370.1171875,-16.6015625,-1.0,-1.0,-1.0,0.0,9.m4v,4.0
2024-02-27 14:07:36.349032,1709039256.3490324,-477.05078125,218.75,-471.6796875,-40.0390625,-1.0,-1.0,-1.0,0.0,9.m4v,4.0
2024-02-27 14:07:36.352938,1709039256.3529384,-1000.0,-1000.0,-873.046875,-50.78125,-1.0,-1.0,-1.0,0.0,9.m4v,4.0
2024-02-27 14:07:36.356844,1709039256.3568444,-908.69140625,-929.6875,-384.765625,-36.1328125,-1.0,-1.0,-1.0,0.0,9.m4v,4.0
2024-02-27 14:07:36.360750,1709039256.3607502,-78.125,-1000.0,58.10546875,-22.94921875,-1.0,-1.0,-1.0,0.0,9.m4v,4.0
2024-02-27 14:07:36.364656,1709039256.3646562,860.3515625,-184.08203125,338.8671875,-24.90234375,-1.0,-1.0,-1.0,0.0,9.m4v,4.0
2024-02-27 14:07:36.368562,1709039256.3685622,950.1953125,999.51171875,200.1953125,-35.64453125,-1.0,-1.0,-1.0,0.0,9.m4v,4.0
2024-02-27 14:07:36.372468,1709039256.372468,106.93359375,947.75390625,-338.8671875,-41.50390625,-1.0,-1.0,-1.0,0.0,9.m4v,4.0
2024-02-27 14:07:36.446681,1709039256.446681,898.4375,999.51171875,-51.7578125,-30.76171875,-1.0,-1.0,-1.0,0.0,9.m4v,4.0
2024-02-27 14:07:36.450587,1709039256.450587,369.62890625,909.66796875,-364.2578125,-47.36328125,-1.0,-1.0,-1.0,0.0,9.m4v,4.0
2024-02-27 14:07:36.454493,1709039256.454493,-67.3828125,991.2109375,-123.046875,-44.43359375,-1.0,-1.0,-1.0,0.0,9.m4v,4.0
2024-02-27 14:07:36.462305,1709039256.4623048,999.51171875,962.40234375,958.49609375,-27.34375,-1.0,-1.0,-1.0,0.0,9.m4v,4.0
2024-02-27 14:07:36.466211,1709039256.4662108,193.359375,999.51171875,284.66796875,-44.921875,-1.0,-1.0,-1.0,0.0,9.m4v,4.0
2024-02-27 14:07:36.470117,1709039256.4701166,-973.14453125,-255.859375,-576.66015625,-61.03515625,-1.0,-1.0,-1.0,0.0,9.m4v,4.0
2024-02-27 14:07:36.477929,1709039256.4779286,-863.28125,-939.453125,-308.59375,-36.62109375,-1.0,-1.0,-1.0,0.0,9.m4v,4.0
2024-02-27 14:07:36.481834,1709039256.4818344,226.5625,-1000.0,200.68359375,-36.1328125,-1.0,-1.0,-1.0,0.0,9.m4v,4.0
2024-02-27 14:07:36.485742,1709039256.4857423,753.90625,-1000.0,-36.1328125,-41.9921875,-1.0,-1.0,-1.0,0.0,9.m4v,4.0
2024-02-27 14:07:36.489648,1709039256.489648,-383.7890625,-976.5625,-619.62890625,-52.734375,-1.0,-1.0,-1.0,0.0,9.m4v,4.0
2024-02-27 14:07:36.493554,1709039256.493554,-1000.0,-979.4921875,-665.0390625,-47.36328125,-1.0,-1.0,-1.0,0.0,9.m4v,4.0
2024-02-27 14:07:36.497460,1709039256.49746,-240.72265625,-1000.0,-155.76171875,-41.50390625,-1.0,-1.0,-1.0,0.0,9.m4v,4.0
2024-02-27 14:07:36.505272,1709039256.505272,969.7265625,999.51171875,764.6484375,-20.99609375,-1.0,-1.0,-1.0,0.0,9.m4v,4.0
2024-02-27 14:07:36.513084,1709039256.5130837,25.87890625,999.51171875,109.86328125,-44.43359375,-1.0,-1.0,-1.0,0.0,9.m4v,4.0
2024-02-27 14:07:36.520896,1709039256.5208955,-993.65234375,-1000.0,155.2734375,-46.38671875,-1.0,-1.0,-1.0,0.0,9.m4v,4.0
2024-02-27 14:07:36.528708,1709039256.5287075,-898.92578125,-908.203125,-649.4140625,-48.33984375,-1.0,-1.0,-1.0,0.0,9.m4v,4.0
2024-02-27 14:07:36.536519,1709039256.5365193,297.8515625,-713.8671875,-126.953125,-39.0625,-1.0,-1.0,-1.0,0.0,9.m4v,4.0
2024-02-27 14:07:36.544331,1709039256.544331,999.51171875,999.51171875,559.5703125,-33.203125,-1.0,-1.0,-1.0,0.0,9.m4v,4.0
2024-02-27 14:07:36.552143,1709039256.5521429,-590.8203125,984.86328125,-250.9765625,-41.9921875,-1.0,-1.0,-1.0,0.0,9.m4v,4.0
2024-02-27 14:07:36.559955,1709039256.559955,999.51171875,913.57421875,767.08984375,-34.66796875,-1.0,-1.0,-1.0,0.0,9.m4v,4.0
2024-02-27 14:07:36.567767,1709039256.567767,-854.00390625,123.53515625,-322.265625,-39.0625,-1.0,-1.0,-1.0,0.0,9.m4v,4.0
2024-02-27 14:07:36.575578,1709039256.5755785,-972.16796875,-975.5859375,-275.87890625,-40.52734375,-1.0,-1.0,-1.0,0.0,9.m4v,4.0
2024-02-27 14:07:36.583390,1709039256.5833902,999.51171875,-1000.0,476.07421875,-20.99609375,-1.0,-1.0,-1.0,0.0,9.m4v,4.0
2024-02-27 14:07:36.591202,1709039256.591202,-987.3046875,-937.5,-707.51953125,-43.9453125,-1.0,-1.0,-1.0,0.0,9.m4v,4.0
2024-02-27 14:07:36.599014,1709039256.5990138,179.19921875,-214.84375,353.02734375,-39.55078125,-1.0,-1.0,-1.0,0.0,9.m4v,4.0
2024-02-27 14:07:36.606826,1709039256.6068258,677.24609375,929.6875,303.22265625,-45.41015625,-1.0,-1.0,-1.0,0.0,9.m4v,4.0
2024-02-27 14:07:36.606826,1709039256.6068258,677.24609375,929.6875,303.22265625,-45.41015625,-1.0,-1.0,-1.0,0.0,9.m4v,4.0
2024-02-27 14:07:36.606826,1709039256.6068258,677.24609375,929.6875,303.22265625,-45.41015625,-1.0,-1.0,-1.0,0.0,9.m4v,4.0
2024-02-27 14:07:36.606826,1709039256.6068258,677.24609375,929.6875,303.22265625,-45.41015625,-1.0,-1.0,-1.0,0.0,9.m4v,4.0
2024-02-27 14:07:36.614638,1709039256.6146376,-1000.0,-113.76953125,-425.29296875,-49.8046875,-1.0,-1.0,-1.0,0.0,9.m4v,4.0
2024-02-27 14:07:36.614638,1709039256.6146376,-1000.0,-113.76953125,-425.29296875,-49.8046875,-1.0,-1.0,-1.0,0.0,9.m4v,4.0
2024-02-27 14:07:36.614638,1709039256.6146376,-1000.0,-113.76953125,-425.29296875,-49.8046875,-1.0,-1.0,-1.0,0.0,9.m4v,4.0
2024-02-27 14:07:36.614638,1709039256.6146376,-1000.0,-113.76953125,-425.29296875,-49.8046875,-1.0,-1.0,-1.0,0.0,9.m4v,4.0
2024-02-27 14:07:36.622449,1709039256.6224494,200.1953125,-954.58984375,357.91015625,-26.85546875,-1.0,-1.0,-1.0,0.0,9.m4v,4.0
2024-02-27 14:07:36.622449,1709039256.6224494,200.1953125,-954.58984375,357.91015625,-26.85546875,-1.0,-1.0,-1.0,0.0,9.m4v,4.0
2024-02-27 14:07:36.622449,1709039256.6224494,200.1953125,-954.58984375,357.91015625,-26.85546875,-1.0,-1.0,-1.0,0.0,9.m4v,4.0
2024-02-27 14:07:36.622449,1709039256.6224494,200.1953125,-954.58984375,357.91015625,-26.85546875,-1.0,-1.0,-1.0,0.0,9.m4v,4.0
2024-02-27 14:07:36.630261,1709039256.630261,-603.02734375,-1000.0,-523.4375,-31.73828125,-1.0,-1.0,-1.0,0.0,9.m4v,4.0
2024-02-27 14:07:36.630261,1709039256.630261,-603.02734375,-1000.0,-523.4375,-31.73828125,-1.0,-1.0,-1.0,0.0,9.m4v,4.0
2024-02-27 14:07:36.630261,1709039256.630261,-603.02734375,-1000.0,-523.4375,-31.73828125,-1.0,-1.0,-1.0,0.0,9.m4v,4.0
2024-02-27 14:07:36.630261,1709039256.630261,-603.02734375,-1000.0,-523.4375,-31.73828125,-1.0,-1.0,-1.0,0.0,9.m4v,4.0
2024-02-27 14:07:36.638073,1709039256.6380727,-112.3046875,-1000.0,-66.40625,-23.4375,-1.0,-1.0,-1.0,0.0,9.m4v,4.0
2024-02-27 14:07:36.638073,1709039256.6380727,-112.3046875,-1000.0,-66.40625,-23.4375,-1.0,-1.0,-1.0,0.0,9.m4v,4.0
2024-02-27 14:07:36.638073,1709039256.6380727,-112.3046875,-1000.0,-66.40625,-23.4375,-1.0,-1.0,-1.0,0.0,9.m4v,4.0
2024-02-27 14:07:36.638073,1709039256.6380727,-112.3046875,-1000.0,-66.40625,-23.4375,-1.0,-1.0,-1.0,0.0,9.m4v,4.0
2024-02-27 14:07:36.645885,1709039256.6458848,996.58203125,999.51171875,674.8046875,-25.390625,-1.0,-1.0,-1.0,0.0,9.m4v,4.0
2024-02-27 14:07:36.645885,1709039256.6458848,996.58203125,999.51171875,674.8046875,-25.390625,-1.0,-1.0,-1.0,0.0,9.m4v,4.0
2024-02-27 14:07:36.645885,1709039256.6458848,996.58203125,999.51171875,674.8046875,-25.390625,-1.0,-1.0,-1.0,0.0,9.m4v,4.0
2024-02-27 14:07:36.645885,1709039256.6458848,996.58203125,999.51171875,674.8046875,-25.390625,-1.0,-1.0,-1.0,0.0,9.m4v,4.0
2024-02-27 14:07:36.653697,1709039256.6536963,-234.375,944.3359375,-57.12890625,-33.203125,-1.0,-1.0,-1.0,0.0,9.m4v,4.0
2024-02-27 14:07:36.653697,1709039256.6536963,-234.375,944.3359375,-57.12890625,-33.203125,-1.0,-1.0,-1.0,0.0,9.m4v,4.0
2024-02-27 14:07:36.653697,1709039256.6536963,-234.375,944.3359375,-57.12890625,-33.203125,-1.0,-1.0,-1.0,0.0,9.m4v,4.0
2024-02-27 14:07:36.653697,1709039256.6536963,-234.375,944.3359375,-57.12890625,-33.203125,-1.0,-1.0,-1.0,0.0,9.m4v,4.0
2024-02-27 14:07:36.661508,1709039256.6615083,326.171875,898.92578125,657.71484375,-38.0859375,-1.0,-1.0,-1.0,0.0,9.m4v,4.0
2024-02-27 14:07:36.661508,1709039256.6615083,326.171875,898.92578125,657.71484375,-38.0859375,-1.0,-1.0,-1.0,0.0,9.m4v,4.0
2024-02-27 14:07:36.661508,1709039256.6615083,326.171875,898.92578125,657.71484375,-38.0859375,-1.0,-1.0,-1.0,0.0,9.m4v,4.0
2024-02-27 14:07:36.661508,1709039256.6615083,326.171875,898.92578125,657.71484375,-38.0859375,-1.0,-1.0,-1.0,0.0,9.m4v,4.0
2024-02-27 14:07:36.669320,1709039256.6693203,-436.5234375,551.7578125,-280.2734375,-39.0625,-1.0,-1.0,-1.0,0.0,9.m4v,4.0
2024-02-27 14:07:36.669320,1709039256.6693203,-436.5234375,551.7578125,-280.2734375,-39.0625,-1.0,-1.0,-1.0,0.0,9.m4v,4.0
2024-02-27 14:07:36.669320,1709039256.6693203,-436.5234375,551.7578125,-280.2734375,-39.0625,-1.0,-1.0,-1.0,0.0,9.m4v,4.0
2024-02-27 14:07:36.669320,1709039256.6693203,-436.5234375,551.7578125,-280.2734375,-39.0625,-1.0,-1.0,-1.0,0.0,9.m4v,4.0
2024-02-27 14:07:36.677132,1709039256.6771317,-888.671875,-1000.0,-144.04296875,-39.0625,-1.0,-1.0,-1.0,0.0,9.m4v,4.0
2024-02-27 14:07:36.677132,1709039256.6771317,-888.671875,-1000.0,-144.04296875,-39.0625,-1.0,-1.0,-1.0,0.0,9.m4v,4.0
2024-02-27 14:07:36.677132,1709039256.6771317,-888.671875,-1000.0,-144.04296875,-39.0625,-1.0,-1.0,-1.0,0.0,9.m4v,4.0
2024-02-27 14:07:36.677132,1709039256.6771317,-888.671875,-1000.0,-144.04296875,-39.0625,-1.0,-1.0,-1.0,0.0,9.m4v,4.0
2024-02-27 14:07:36.684943,1709039256.6849434,943.359375,-968.26171875,413.0859375,-31.25,-1.0,-1.0,-1.0,0.0,9.m4v,4.0
2024-02-27 14:07:36.684943,1709039256.6849434,943.359375,-968.26171875,413.0859375,-31.25,-1.0,-1.0,-1.0,0.0,9.m4v,4.0
2024-02-27 14:07:36.684943,1709039256.6849434,943.359375,-968.26171875,413.0859375,-31.25,-1.0,-1.0,-1.0,0.0,9.m4v,4.0
2024-02-27 14:07:36.684943,1709039256.6849434,943.359375,-968.26171875,413.0859375,-31.25,-1.0,-1.0,-1.0,0.0,9.m4v,4.0
2024-02-27 14:07:36.692755,1709039256.6927552,-899.90234375,-911.62109375,-208.984375,-41.9921875,-1.0,-1.0,-1.0,0.0,9.m4v,4.0
2024-02-27 14:07:36.692755,1709039256.6927552,-899.90234375,-911.62109375,-208.984375,-41.9921875,-1.0,-1.0,-1.0,0.0,9.m4v,4.0
2024-02-27 14:07:36.692755,1709039256.6927552,-899.90234375,-911.62109375,-208.984375,-41.9921875,-1.0,-1.0,-1.0,0.0,9.m4v,4.0
2024-02-27 14:07:36.692755,1709039256.6927552,-899.90234375,-911.62109375,-208.984375,-41.9921875,-1.0,-1.0,-1.0,0.0,9.m4v,4.0
2024-02-27 14:07:36.700567,1709039256.7005672,999.51171875,999.51171875,929.6875,-26.3671875,-1.0,-1.0,-1.0,0.0,9.m4v,4.0
2024-02-27 14:07:36.700567,1709039256.7005672,999.51171875,999.51171875,929.6875,-26.3671875,-1.0,-1.0,-1.0,0.0,9.m4v,4.0
2024-02-27 14:07:36.700567,1709039256.7005672,999.51171875,999.51171875,929.6875,-26.3671875,-1.0,-1.0,-1.0,0.0,9.m4v,4.0
2024-02-27 14:07:36.700567,1709039256.7005672,999.51171875,999.51171875,929.6875,-26.3671875,-1.0,-1.0,-1.0,0.0,9.m4v,4.0
2024-02-27 14:07:36.708379,1709039256.708379,-413.0859375,999.51171875,-125.0,-38.57421875,-1.0,-1.0,-1.0,0.0,9.m4v,4.0
2024-02-27 14:07:36.708379,1709039256.708379,-413.0859375,999.51171875,-125.0,-38.57421875,-1.0,-1.0,-1.0,0.0,9.m4v,4.0
2024-02-27 14:07:36.708379,1709039256.708379,-413.0859375,999.51171875,-125.0,-38.57421875,-1.0,-1.0,-1.0,0.0,9.m4v,4.0
2024-02-27 14:07:36.708379,1709039256.708379,-413.0859375,999.51171875,-125.0,-38.57421875,-1.0,-1.0,-1.0,0.0,9.m4v,4.0
2024-02-27 14:07:36.716191,1709039256.7161908,-1000.0,-1000.0,-363.76953125,-46.38671875,-1.0,-1.0,-1.0,0.0,9.m4v,4.0
2024-02-27 14:07:36.720096,1709039256.720096,-253.90625,-1000.0,296.875,-34.1796875,-1.0,-1.0,-1.0,0.0,9.m4v,4.0
2024-02-27 14:07:36.724002,1709039256.724002,936.5234375,-58.59375,541.015625,-39.0625,-1.0,-1.0,-1.0,0.0,9.m4v,4.0
2024-02-27 14:07:36.727908,1709039256.727908,874.51171875,999.51171875,61.03515625,-35.15625,-1.0,-1.0,-1.0,0.0,9.m4v,4.0
2024-02-27 14:07:36.731814,1709039256.731814,-34.66796875,933.59375,-291.9921875,-42.96875,-1.0,-1.0,-1.0,0.0,9.m4v,4.0
2024-02-27 14:07:36.735720,1709039256.73572,-536.1328125,955.56640625,-9.27734375,-41.9921875,-1.0,-1.0,-1.0,0.0,9.m4v,4.0
2024-02-27 14:07:36.739626,1709039256.739626,386.71875,909.1796875,701.171875,-23.4375,-1.0,-1.0,-1.0,0.0,9.m4v,4.0
2024-02-27 14:07:36.743532,1709039256.7435317,999.51171875,999.51171875,953.125,-25.390625,-1.0,-1.0,-1.0,0.0,9.m4v,4.0
2024-02-27 14:07:36.747438,1709039256.7474377,-98.14453125,207.03125,18.5546875,-39.55078125,-1.0,-1.0,-1.0,0.0,9.m4v,4.0
2024-02-27 14:07:36.751344,1709039256.7513435,-1000.0,-1000.0,-468.26171875,-48.828125,-1.0,-1.0,-1.0,0.0,9.m4v,4.0
2024-02-27 14:07:36.755250,1709039256.7552495,-1000.0,-986.81640625,-121.09375,-41.9921875,-1.0,-1.0,-1.0,0.0,9.m4v,4.0
2024-02-27 14:07:36.759156,1709039256.7591555,-789.55078125,-971.6796875,105.46875,-32.2265625,-1.0,-1.0,-1.0,0.0,9.m4v,4.0
2024-02-27 14:07:36.763062,1709039256.7630615,254.39453125,-1000.0,311.5234375,-28.80859375,-1.0,-1.0,-1.0,0.0,9.m4v,4.0
2024-02-27 14:07:36.766968,1709039256.7669675,101.5625,-1000.0,-193.84765625,-38.0859375,-1.0,-1.0,-1.0,0.0,9.m4v,4.0
2024-02-27 14:07:36.888052,1709039256.8880515,396.97265625,999.51171875,-366.69921875,-47.8515625,-1.0,-1.0,-1.0,0.0,9.m4v,4.0
2024-02-27 14:07:36.891957,1709039256.8919573,-820.80078125,-4.8828125,-1000.0,-57.6171875,-1.0,-1.0,-1.0,0.0,9.m4v,4.0
2024-02-27 14:07:36.895863,1709039256.8958633,-1000.0,-1000.0,-793.9453125,-48.828125,-1.0,-1.0,-1.0,0.0,9.m4v,4.0
2024-02-27 14:07:36.899769,1709039256.8997693,-439.94140625,-962.40234375,-225.5859375,-36.62109375,-1.0,-1.0,-1.0,0.0,9.m4v,4.0
2024-02-27 14:07:36.903675,1709039256.903675,716.796875,-990.234375,-94.7265625,-21.97265625,-1.0,-1.0,-1.0,0.0,9.m4v,4.0
2024-02-27 14:07:36.907581,1709039256.9075809,198.2421875,-981.93359375,-665.0390625,-27.83203125,-1.0,-1.0,-1.0,0.0,9.m4v,4.0
2024-02-27 14:07:36.911487,1709039256.9114869,-1000.0,-974.609375,-1000.0,-34.1796875,-1.0,-1.0,-1.0,0.0,9.m4v,4.0
2024-02-27 14:07:36.915393,1709039256.9153929,-545.8984375,-1000.0,-662.59765625,-31.73828125,-1.0,-1.0,-1.0,0.0,9.m4v,4.0
2024-02-27 14:07:36.919299,1709039256.9192986,741.2109375,112.3046875,225.5859375,-17.578125,-1.0,-1.0,-1.0,0.0,9.m4v,4.0
2024-02-27 14:07:36.923205,1709039256.923205,993.65234375,999.51171875,506.8359375,-12.20703125,-1.0,-1.0,-1.0,0.0,9.m4v,4.0
2024-02-27 14:07:36.927111,1709039256.927111,920.41015625,905.2734375,159.66796875,-20.5078125,-1.0,-1.0,-1.0,0.0,9.m4v,4.0
2024-02-27 14:07:36.931016,1709039256.9310164,857.91015625,920.8984375,204.1015625,-28.80859375,-1.0,-1.0,-1.0,0.0,9.m4v,4.0
2024-02-27 14:07:36.934922,1709039256.9349225,46.875,999.51171875,184.08203125,-31.25,-1.0,-1.0,-1.0,0.0,9.m4v,4.0
2024-02-27 14:07:36.938828,1709039256.9388285,-883.30078125,10.25390625,51.7578125,-40.0390625,-1.0,-1.0,-1.0,0.0,9.m4v,4.0
2024-02-27 14:07:36.942734,1709039256.9427342,-1000.0,-1000.0,-70.80078125,-45.8984375,-1.0,-1.0,-1.0,0.0,9.m4v,4.0
2024-02-27 14:07:36.946640,1709039256.9466405,-960.44921875,-976.07421875,-542.48046875,-40.0390625,-1.0,-1.0,-1.0,0.0,9.m4v,4.0
2024-02-27 14:07:36.946640,1709039256.9466405,-960.44921875,-976.07421875,-542.48046875,-40.0390625,-1.0,-1.0,-1.0,0.0,9.m4v,4.0
2024-02-27 14:07:36.946640,1709039256.9466405,-960.44921875,-976.07421875,-542.48046875,-40.0390625,-1.0,-1.0,-1.0,0.0,9.m4v,4.0
2024-02-27 14:07:36.946640,1709039256.9466405,-960.44921875,-976.07421875,-542.48046875,-40.0390625,-1.0,-1.0,-1.0,0.0,9.m4v,4.0
2024-02-27 14:07:36.946640,1709039256.9466405,-960.44921875,-976.07421875,-542.48046875,-40.0390625,-1.0,-1.0,-1.0,0.0,9.m4v,4.0
2024-02-27 14:07:36.950546,1709039256.9505465,-962.40234375,-914.55078125,-861.328125,-44.921875,-1.0,-1.0,-1.0,0.0,9.m4v,4.0
2024-02-27 14:07:36.950546,1709039256.9505465,-962.40234375,-914.55078125,-861.328125,-44.921875,-1.0,-1.0,-1.0,0.0,9.m4v,4.0
2024-02-27 14:07:36.950546,1709039256.9505465,-962.40234375,-914.55078125,-861.328125,-44.921875,-1.0,-1.0,-1.0,0.0,9.m4v,4.0
2024-02-27 14:07:36.950546,1709039256.9505465,-962.40234375,-914.55078125,-861.328125,-44.921875,-1.0,-1.0,-1.0,0.0,9.m4v,4.0
2024-02-27 14:07:36.954452,1709039256.9544518,-520.5078125,-1000.0,-700.68359375,-44.43359375,-1.0,-1.0,-1.0,0.0,9.m4v,4.0
2024-02-27 14:07:36.954452,1709039256.9544518,-520.5078125,-1000.0,-700.68359375,-44.43359375,-1.0,-1.0,-1.0,0.0,9.m4v,4.0
2024-02-27 14:07:36.954452,1709039256.9544518,-520.5078125,-1000.0,-700.68359375,-44.43359375,-1.0,-1.0,-1.0,0.0,9.m4v,4.0
2024-02-27 14:07:36.954452,1709039256.9544518,-520.5078125,-1000.0,-700.68359375,-44.43359375,-1.0,-1.0,-1.0,0.0,9.m4v,4.0
2024-02-27 14:07:36.958358,1709039256.9583578,473.14453125,-599.609375,-37.59765625,-30.2734375,-1.0,-1.0,-1.0,0.0,9.m4v,4.0
2024-02-27 14:07:36.958358,1709039256.9583578,473.14453125,-599.609375,-37.59765625,-30.2734375,-1.0,-1.0,-1.0,0.0,9.m4v,4.0
2024-02-27 14:07:36.958358,1709039256.9583578,473.14453125,-599.609375,-37.59765625,-30.2734375,-1.0,-1.0,-1.0,0.0,9.m4v,4.0
