Timestamp,Timestamp_UNIX,TP9,AF7,AF8,TP10,Valence,Arousal,Dominace,Viewed,Video,Participant
2024-02-28 09:44:48.435327,1709109888.4353266,219.23828125,-26.85546875,-25.87890625,509.27734375,1.0,0.0,0.0,1.0,7.m4v,7.0
2024-02-28 09:44:48.439232,1709109888.439232,-401.85546875,-31.25,-30.76171875,-781.25,1.0,0.0,0.0,1.0,7.m4v,7.0
2024-02-28 09:44:48.443137,1709109888.4431372,-558.59375,-38.0859375,-32.71484375,-1000.0,1.0,0.0,0.0,1.0,7.m4v,7.0
2024-02-28 09:44:48.447043,1709109888.4470427,-20.5078125,-41.9921875,-33.69140625,-126.953125,1.0,0.0,0.0,1.0,7.m4v,7.0
2024-02-28 09:44:48.450948,1709109888.450948,518.5546875,-37.109375,-37.59765625,999.51171875,1.0,0.0,0.0,1.0,7.m4v,7.0
2024-02-28 09:44:48.454853,1709109888.4548533,356.4453125,-36.1328125,-35.64453125,777.34375,1.0,0.0,0.0,1.0,7.m4v,7.0
2024-02-28 09:44:48.458759,1709109888.4587586,-241.2109375,-39.55078125,-34.1796875,-409.66796875,1.0,0.0,0.0,1.0,7.m4v,7.0
2024-02-28 09:44:48.462664,1709109888.462664,-579.58984375,-35.15625,-37.59765625,-1000.0,1.0,0.0,0.0,1.0,7.m4v,7.0
2024-02-28 09:44:48.466569,1709109888.4665692,-132.8125,-34.66796875,-44.43359375,-332.51953125,1.0,0.0,0.0,1.0,7.m4v,7.0
2024-02-28 09:44:48.470474,1709109888.4704745,470.703125,-37.59765625,-41.015625,982.91015625,1.0,0.0,0.0,1.0,7.m4v,7.0
2024-02-28 09:44:48.474380,1709109888.4743798,428.22265625,-36.1328125,-34.66796875,892.08984375,1.0,0.0,0.0,1.0,7.m4v,7.0
2024-02-28 09:44:48.478285,1709109888.478285,-218.75,-36.1328125,-37.109375,-292.96875,1.0,0.0,0.0,1.0,7.m4v,7.0
2024-02-28 09:44:48.482199,1709109888.4821992,-591.796875,-35.15625,-36.62109375,-1000.0,1.0,0.0,0.0,1.0,7.m4v,7.0
2024-02-28 09:44:48.486104,1709109888.4861045,-180.17578125,-32.71484375,-34.66796875,-407.71484375,1.0,0.0,0.0,1.0,7.m4v,7.0
2024-02-28 09:44:48.486104,1709109888.4861045,-180.17578125,-32.71484375,-34.66796875,-407.71484375,1.0,0.0,0.0,1.0,7.m4v,7.0
2024-02-28 09:44:48.490010,1709109888.4900098,434.08203125,-21.484375,-35.15625,919.921875,1.0,0.0,0.0,1.0,7.m4v,7.0
2024-02-28 09:44:48.490010,1709109888.4900098,434.08203125,-21.484375,-35.15625,919.921875,1.0,0.0,0.0,1.0,7.m4v,7.0
2024-02-28 09:44:48.493915,1709109888.493915,449.21875,-23.4375,-33.69140625,955.56640625,1.0,0.0,0.0,1.0,7.m4v,7.0
2024-02-28 09:44:48.493915,1709109888.493915,449.21875,-23.4375,-33.69140625,955.56640625,1.0,0.0,0.0,1.0,7.m4v,7.0
2024-02-28 09:44:48.497820,1709109888.4978204,-204.1015625,-29.296875,-34.1796875,-211.42578125,1.0,0.0,0.0,1.0,7.m4v,7.0
2024-02-28 09:44:48.497820,1709109888.4978204,-204.1015625,-29.296875,-34.1796875,-211.42578125,1.0,0.0,0.0,1.0,7.m4v,7.0
2024-02-28 09:44:48.501726,1709109888.5017257,-592.28515625,-28.80859375,-31.73828125,-1000.0,1.0,0.0,0.0,1.0,7.m4v,7.0
2024-02-28 09:44:48.501726,1709109888.5017257,-592.28515625,-28.80859375,-31.73828125,-1000.0,1.0,0.0,0.0,1.0,7.m4v,7.0
2024-02-28 09:44:48.505631,1709109888.505631,-250.48828125,-30.76171875,-29.78515625,-508.7890625,1.0,0.0,0.0,1.0,7.m4v,7.0
2024-02-28 09:44:48.505631,1709109888.505631,-250.48828125,-30.76171875,-29.78515625,-508.7890625,1.0,0.0,0.0,1.0,7.m4v,7.0
2024-02-28 09:44:48.509536,1709109888.5095365,335.9375,-28.80859375,-31.73828125,809.08203125,1.0,0.0,0.0,1.0,7.m4v,7.0
2024-02-28 09:44:48.509536,1709109888.5095365,335.9375,-28.80859375,-31.73828125,809.08203125,1.0,0.0,0.0,1.0,7.m4v,7.0
2024-02-28 09:44:48.513442,1709109888.5134416,442.87109375,-33.203125,-39.0625,999.51171875,1.0,0.0,0.0,1.0,7.m4v,7.0
2024-02-28 09:44:48.513442,1709109888.5134416,442.87109375,-33.203125,-39.0625,999.51171875,1.0,0.0,0.0,1.0,7.m4v,7.0
2024-02-28 09:44:48.517347,1709109888.5173469,-171.875,-44.921875,-35.15625,-118.1640625,1.0,0.0,0.0,1.0,7.m4v,7.0
2024-02-28 09:44:48.517347,1709109888.5173469,-171.875,-44.921875,-35.15625,-118.1640625,1.0,0.0,0.0,1.0,7.m4v,7.0
2024-02-28 09:44:48.521252,1709109888.5212524,-596.19140625,-47.36328125,-28.3203125,-1000.0,1.0,0.0,0.0,1.0,7.m4v,7.0
2024-02-28 09:44:48.521252,1709109888.5212524,-596.19140625,-47.36328125,-28.3203125,-1000.0,1.0,0.0,0.0,1.0,7.m4v,7.0
2024-02-28 09:44:48.525158,1709109888.5251577,-328.125,-43.9453125,-30.76171875,-679.19921875,1.0,0.0,0.0,1.0,7.m4v,7.0
2024-02-28 09:44:48.525158,1709109888.5251577,-328.125,-43.9453125,-30.76171875,-679.19921875,1.0,0.0,0.0,1.0,7.m4v,7.0
2024-02-28 09:44:48.529072,1709109888.5290716,297.8515625,-39.55078125,-31.25,596.19140625,1.0,0.0,0.0,1.0,7.m4v,7.0
2024-02-28 09:44:48.529072,1709109888.5290716,297.8515625,-39.55078125,-31.25,596.19140625,1.0,0.0,0.0,1.0,7.m4v,7.0
2024-02-28 09:44:48.532977,1709109888.5329769,539.55078125,-33.203125,-30.76171875,999.51171875,1.0,0.0,0.0,1.0,7.m4v,7.0
2024-02-28 09:44:48.532977,1709109888.5329769,539.55078125,-33.203125,-30.76171875,999.51171875,1.0,0.0,0.0,1.0,7.m4v,7.0
2024-02-28 09:44:48.536882,1709109888.5368822,-48.828125,-34.1796875,-31.25,44.921875,1.0,0.0,0.0,1.0,7.m4v,7.0
2024-02-28 09:44:48.536882,1709109888.5368822,-48.828125,-34.1796875,-31.25,44.921875,1.0,0.0,0.0,1.0,7.m4v,7.0
2024-02-28 09:44:48.540787,1709109888.5407877,-572.75390625,-37.109375,-29.296875,-1000.0,1.0,0.0,0.0,1.0,7.m4v,7.0
2024-02-28 09:44:48.540787,1709109888.5407877,-572.75390625,-37.109375,-29.296875,-1000.0,1.0,0.0,0.0,1.0,7.m4v,7.0
2024-02-28 09:44:48.544693,1709109888.5446928,-375.48828125,-40.52734375,-34.1796875,-759.27734375,1.0,0.0,0.0,1.0,7.m4v,7.0
2024-02-28 09:44:48.544693,1709109888.5446928,-375.48828125,-40.52734375,-34.1796875,-759.27734375,1.0,0.0,0.0,1.0,7.m4v,7.0
2024-02-28 09:44:48.548598,1709109888.548598,258.7890625,-35.64453125,-38.0859375,494.140625,1.0,0.0,0.0,1.0,7.m4v,7.0
2024-02-28 09:44:48.548598,1709109888.548598,258.7890625,-35.64453125,-38.0859375,494.140625,1.0,0.0,0.0,1.0,7.m4v,7.0
2024-02-28 09:44:48.552503,1709109888.552503,549.8046875,-27.34375,-34.66796875,999.51171875,1.0,0.0,0.0,1.0,7.m4v,7.0
2024-02-28 09:44:48.552503,1709109888.552503,549.8046875,-27.34375,-34.66796875,999.51171875,1.0,0.0,0.0,1.0,7.m4v,7.0
2024-02-28 09:44:48.556409,1709109888.5564086,-21.97265625,-26.3671875,-37.109375,129.39453125,1.0,0.0,0.0,1.0,7.m4v,7.0
2024-02-28 09:44:48.556409,1709109888.5564086,-21.97265625,-26.3671875,-37.109375,129.39453125,1.0,0.0,0.0,1.0,7.m4v,7.0
2024-02-28 09:44:48.560314,1709109888.560314,-568.84765625,-31.73828125,-41.9921875,-1000.0,1.0,0.0,0.0,1.0,7.m4v,7.0
2024-02-28 09:44:48.560314,1709109888.560314,-568.84765625,-31.73828125,-41.9921875,-1000.0,1.0,0.0,0.0,1.0,7.m4v,7.0
2024-02-28 09:44:48.564219,1709109888.5642197,-454.58984375,-38.0859375,-42.96875,-940.91796875,1.0,0.0,0.0,1.0,7.m4v,7.0
2024-02-28 09:44:48.564219,1709109888.5642197,-454.58984375,-38.0859375,-42.96875,-940.91796875,1.0,0.0,0.0,1.0,7.m4v,7.0
2024-02-28 09:44:48.568125,1709109888.5681248,135.7421875,-36.1328125,-34.1796875,170.41015625,1.0,0.0,0.0,1.0,7.m4v,7.0
2024-02-28 09:44:48.568125,1709109888.5681248,135.7421875,-36.1328125,-34.1796875,170.41015625,1.0,0.0,0.0,1.0,7.m4v,7.0
2024-02-28 09:44:48.572030,1709109888.57203,571.77734375,-29.78515625,-24.90234375,999.51171875,1.0,0.0,0.0,1.0,7.m4v,7.0
2024-02-28 09:44:48.572030,1709109888.57203,571.77734375,-29.78515625,-24.90234375,999.51171875,1.0,0.0,0.0,1.0,7.m4v,7.0
2024-02-28 09:44:48.575943,1709109888.5759432,109.86328125,-35.64453125,-34.1796875,278.80859375,1.0,0.0,0.0,1.0,7.m4v,7.0
2024-02-28 09:44:48.575943,1709109888.5759432,109.86328125,-35.64453125,-34.1796875,278.80859375,1.0,0.0,0.0,1.0,7.m4v,7.0
2024-02-28 09:44:48.579849,1709109888.5798483,-510.7421875,-42.96875,-35.64453125,-1000.0,1.0,0.0,0.0,1.0,7.m4v,7.0
2024-02-28 09:44:48.579849,1709109888.5798483,-510.7421875,-42.96875,-35.64453125,-1000.0,1.0,0.0,0.0,1.0,7.m4v,7.0
2024-02-28 09:44:48.583754,1709109888.5837538,-498.046875,-41.9921875,-30.2734375,-993.65234375,1.0,0.0,0.0,1.0,7.m4v,7.0
2024-02-28 09:44:48.583754,1709109888.5837538,-498.046875,-41.9921875,-30.2734375,-993.65234375,1.0,0.0,0.0,1.0,7.m4v,7.0
2024-02-28 09:44:48.587659,1709109888.5876594,112.79296875,-36.62109375,-28.80859375,122.0703125,1.0,0.0,0.0,1.0,7.m4v,7.0
2024-02-28 09:44:48.587659,1709109888.5876594,112.79296875,-36.62109375,-28.80859375,122.0703125,1.0,0.0,0.0,1.0,7.m4v,7.0
2024-02-28 09:44:48.591565,1709109888.591565,520.5078125,-32.71484375,-20.99609375,999.51171875,1.0,0.0,0.0,1.0,7.m4v,7.0
2024-02-28 09:44:48.591565,1709109888.591565,520.5078125,-32.71484375,-20.99609375,999.51171875,1.0,0.0,0.0,1.0,7.m4v,7.0
2024-02-28 09:44:48.595470,1709109888.59547,186.5234375,-41.015625,-13.18359375,544.43359375,1.0,0.0,0.0,1.0,7.m4v,7.0
2024-02-28 09:44:48.595470,1709109888.59547,186.5234375,-41.015625,-13.18359375,544.43359375,1.0,0.0,0.0,1.0,7.m4v,7.0
2024-02-28 09:44:48.599375,1709109888.5993752,-411.1328125,-45.41015625,-29.296875,-748.046875,1.0,0.0,0.0,1.0,7.m4v,7.0
2024-02-28 09:44:48.599375,1709109888.5993752,-411.1328125,-45.41015625,-29.296875,-748.046875,1.0,0.0,0.0,1.0,7.m4v,7.0
2024-02-28 09:44:48.603281,1709109888.6032803,-584.9609375,-37.109375,-39.0625,-1000.0,1.0,0.0,0.0,1.0,7.m4v,7.0
2024-02-28 09:44:48.603281,1709109888.6032803,-584.9609375,-37.109375,-39.0625,-1000.0,1.0,0.0,0.0,1.0,7.m4v,7.0
2024-02-28 09:44:48.607186,1709109888.6071858,-1.46484375,-40.0390625,-28.80859375,-55.17578125,1.0,0.0,0.0,1.0,7.m4v,7.0
2024-02-28 09:44:48.607186,1709109888.6071858,-1.46484375,-40.0390625,-28.80859375,-55.17578125,1.0,0.0,0.0,1.0,7.m4v,7.0
2024-02-28 09:44:48.611091,1709109888.6110911,539.0625,-35.15625,-27.83203125,999.51171875,1.0,0.0,0.0,1.0,7.m4v,7.0
2024-02-28 09:44:48.611091,1709109888.6110911,539.0625,-35.15625,-27.83203125,999.51171875,1.0,0.0,0.0,1.0,7.m4v,7.0
2024-02-28 09:44:48.614996,1709109888.6149964,222.16796875,-27.83203125,-31.25,509.27734375,1.0,0.0,0.0,1.0,7.m4v,7.0
2024-02-28 09:44:48.614996,1709109888.6149964,222.16796875,-27.83203125,-31.25,509.27734375,1.0,0.0,0.0,1.0,7.m4v,7.0
2024-02-28 09:44:48.618902,1709109888.6189015,-424.31640625,-37.59765625,-34.1796875,-801.7578125,1.0,0.0,0.0,1.0,7.m4v,7.0
2024-02-28 09:44:48.618902,1709109888.6189015,-424.31640625,-37.59765625,-34.1796875,-801.7578125,1.0,0.0,0.0,1.0,7.m4v,7.0
2024-02-28 09:44:48.622815,1709109888.622815,-554.19921875,-44.921875,-34.66796875,-1000.0,1.0,0.0,0.0,1.0,7.m4v,7.0
2024-02-28 09:44:48.622815,1709109888.622815,-554.19921875,-44.921875,-34.66796875,-1000.0,1.0,0.0,0.0,1.0,7.m4v,7.0
2024-02-28 09:44:48.626720,1709109888.62672,26.85546875,-38.0859375,-28.3203125,-73.2421875,1.0,0.0,0.0,1.0,7.m4v,7.0
2024-02-28 09:44:48.626720,1709109888.62672,26.85546875,-38.0859375,-28.3203125,-73.2421875,1.0,0.0,0.0,1.0,7.m4v,7.0
2024-02-28 09:44:48.630625,1709109888.6306252,535.64453125,-29.296875,-22.94921875,999.51171875,1.0,0.0,0.0,1.0,7.m4v,7.0
2024-02-28 09:44:48.630625,1709109888.6306252,535.64453125,-29.296875,-22.94921875,999.51171875,1.0,0.0,0.0,1.0,7.m4v,7.0
2024-02-28 09:44:48.634531,1709109888.6345303,283.203125,-28.3203125,-26.3671875,662.59765625,1.0,0.0,0.0,1.0,7.m4v,7.0
2024-02-28 09:44:48.634531,1709109888.6345303,283.203125,-28.3203125,-26.3671875,662.59765625,1.0,0.0,0.0,1.0,7.m4v,7.0
2024-02-28 09:44:48.638436,1709109888.6384358,-346.6796875,-33.203125,-32.2265625,-588.8671875,1.0,0.0,0.0,1.0,7.m4v,7.0
2024-02-28 09:44:48.638436,1709109888.6384358,-346.6796875,-33.203125,-32.2265625,-588.8671875,1.0,0.0,0.0,1.0,7.m4v,7.0
2024-02-28 09:44:48.642341,1709109888.6423411,-575.1953125,-36.62109375,-33.203125,-1000.0,1.0,0.0,0.0,1.0,7.m4v,7.0
2024-02-28 09:44:48.642341,1709109888.6423411,-575.1953125,-36.62109375,-33.203125,-1000.0,1.0,0.0,0.0,1.0,7.m4v,7.0
2024-02-28 09:44:48.646246,1709109888.6462464,-94.23828125,-38.0859375,-31.73828125,-292.48046875,1.0,0.0,0.0,1.0,7.m4v,7.0
2024-02-28 09:44:48.646246,1709109888.6462464,-94.23828125,-38.0859375,-31.73828125,-292.48046875,1.0,0.0,0.0,1.0,7.m4v,7.0
2024-02-28 09:44:48.650152,1709109888.6501515,463.37890625,-32.2265625,-31.25,999.51171875,1.0,0.0,0.0,1.0,7.m4v,7.0
2024-02-28 09:44:48.650152,1709109888.6501515,463.37890625,-32.2265625,-31.25,999.51171875,1.0,0.0,0.0,1.0,7.m4v,7.0
2024-02-28 09:44:48.654057,1709109888.654057,343.26171875,-26.85546875,-36.62109375,763.18359375,1.0,0.0,0.0,1.0,7.m4v,7.0
2024-02-28 09:44:48.654057,1709109888.654057,343.26171875,-26.85546875,-36.62109375,763.18359375,1.0,0.0,0.0,1.0,7.m4v,7.0
2024-02-28 09:44:48.657963,1709109888.6579626,-286.62109375,-33.203125,-35.15625,-495.1171875,1.0,0.0,0.0,1.0,7.m4v,7.0
2024-02-28 09:44:48.657963,1709109888.6579626,-286.62109375,-33.203125,-35.15625,-495.1171875,1.0,0.0,0.0,1.0,7.m4v,7.0
2024-02-28 09:44:48.661868,1709109888.661868,-555.17578125,-31.73828125,-32.2265625,-1000.0,1.0,0.0,0.0,1.0,7.m4v,7.0
2024-02-28 09:44:48.661868,1709109888.661868,-555.17578125,-31.73828125,-32.2265625,-1000.0,1.0,0.0,0.0,1.0,7.m4v,7.0
2024-02-28 09:44:48.665773,1709109888.6657732,-151.3671875,-32.71484375,-29.296875,-391.6015625,1.0,0.0,0.0,1.0,7.m4v,7.0
2024-02-28 09:44:48.665773,1709109888.6657732,-151.3671875,-32.71484375,-29.296875,-391.6015625,1.0,0.0,0.0,1.0,7.m4v,7.0
2024-02-28 09:44:48.669686,1709109888.6696858,418.9453125,-35.64453125,-32.2265625,915.52734375,1.0,0.0,0.0,1.0,7.m4v,7.0
2024-02-28 09:44:48.669686,1709109888.6696858,418.9453125,-35.64453125,-32.2265625,915.52734375,1.0,0.0,0.0,1.0,7.m4v,7.0
2024-02-28 09:44:48.673591,1709109888.6735911,448.73046875,-39.0625,-38.0859375,960.44921875,1.0,0.0,0.0,1.0,7.m4v,7.0
2024-02-28 09:44:48.673591,1709109888.6735911,448.73046875,-39.0625,-38.0859375,960.44921875,1.0,0.0,0.0,1.0,7.m4v,7.0
2024-02-28 09:44:48.677496,1709109888.6774964,-181.15234375,-36.62109375,-33.203125,-207.51953125,1.0,0.0,0.0,1.0,7.m4v,7.0
2024-02-28 09:44:48.677496,1709109888.6774964,-181.15234375,-36.62109375,-33.203125,-207.51953125,1.0,0.0,0.0,1.0,7.m4v,7.0
2024-02-28 09:44:48.681402,1709109888.6814015,-595.703125,-34.66796875,-30.2734375,-1000.0,1.0,0.0,0.0,1.0,7.m4v,7.0
2024-02-28 09:44:48.681402,1709109888.6814015,-595.703125,-34.66796875,-30.2734375,-1000.0,1.0,0.0,0.0,1.0,7.m4v,7.0
2024-02-28 09:44:48.685307,1709109888.685307,-284.66796875,-47.8515625,-29.78515625,-613.28125,1.0,0.0,0.0,1.0,7.m4v,7.0
2024-02-28 09:44:48.685307,1709109888.685307,-284.66796875,-47.8515625,-29.78515625,-613.28125,1.0,0.0,0.0,1.0,7.m4v,7.0
2024-02-28 09:44:48.689212,1709109888.6892123,324.21875,-48.828125,-27.34375,691.40625,1.0,0.0,0.0,1.0,7.m4v,7.0
2024-02-28 09:44:48.689212,1709109888.6892123,324.21875,-48.828125,-27.34375,691.40625,1.0,0.0,0.0,1.0,7.m4v,7.0
2024-02-28 09:44:48.693118,1709109888.6931176,494.140625,-45.8984375,-32.71484375,999.51171875,1.0,0.0,0.0,1.0,7.m4v,7.0
2024-02-28 09:44:48.693118,1709109888.6931176,494.140625,-45.8984375,-32.71484375,999.51171875,1.0,0.0,0.0,1.0,7.m4v,7.0
2024-02-28 09:44:48.697023,1709109888.697023,-164.55078125,-40.52734375,-41.015625,-74.70703125,1.0,0.0,0.0,1.0,7.m4v,7.0
2024-02-28 09:44:48.697023,1709109888.697023,-164.55078125,-40.52734375,-41.015625,-74.70703125,1.0,0.0,0.0,1.0,7.m4v,7.0
2024-02-28 09:44:48.700928,1709109888.7009282,-626.953125,-35.64453125,-36.1328125,-1000.0,1.0,0.0,0.0,1.0,7.m4v,7.0
2024-02-28 09:44:48.700928,1709109888.7009282,-626.953125,-35.64453125,-36.1328125,-1000.0,1.0,0.0,0.0,1.0,7.m4v,7.0
2024-02-28 09:44:48.704834,1709109888.7048335,-336.9140625,-37.59765625,-36.62109375,-708.49609375,1.0,0.0,0.0,1.0,7.m4v,7.0
2024-02-28 09:44:48.704834,1709109888.7048335,-336.9140625,-37.59765625,-36.62109375,-708.49609375,1.0,0.0,0.0,1.0,7.m4v,7.0
2024-02-28 09:44:48.708739,1709109888.7087388,268.5546875,-34.66796875,-37.109375,548.828125,1.0,0.0,0.0,1.0,7.m4v,7.0
2024-02-28 09:44:48.708739,1709109888.7087388,268.5546875,-34.66796875,-37.109375,548.828125,1.0,0.0,0.0,1.0,7.m4v,7.0
2024-02-28 09:44:48.712644,1709109888.712644,516.6015625,-31.73828125,-32.71484375,999.51171875,1.0,0.0,0.0,1.0,7.m4v,7.0
2024-02-28 09:44:48.712644,1709109888.712644,516.6015625,-31.73828125,-32.71484375,999.51171875,1.0,0.0,0.0,1.0,7.m4v,7.0
2024-02-28 09:44:48.716556,1709109888.716556,-45.41015625,-36.1328125,-30.2734375,66.40625,1.0,0.0,0.0,1.0,7.m4v,7.0
2024-02-28 09:44:48.716556,1709109888.716556,-45.41015625,-36.1328125,-30.2734375,66.40625,1.0,0.0,0.0,1.0,7.m4v,7.0
2024-02-28 09:44:48.720461,1709109888.7204614,-569.82421875,-39.0625,-30.2734375,-1000.0,1.0,0.0,0.0,1.0,7.m4v,7.0
2024-02-28 09:44:48.720461,1709109888.7204614,-569.82421875,-39.0625,-30.2734375,-1000.0,1.0,0.0,0.0,1.0,7.m4v,7.0
2024-02-28 09:44:48.724367,1709109888.724367,-391.6015625,-36.62109375,-32.71484375,-783.69140625,1.0,0.0,0.0,1.0,7.m4v,7.0
2024-02-28 09:44:48.724367,1709109888.724367,-391.6015625,-36.62109375,-32.71484375,-783.69140625,1.0,0.0,0.0,1.0,7.m4v,7.0
2024-02-28 09:44:48.728272,1709109888.728272,228.02734375,-35.64453125,-39.0625,435.05859375,1.0,0.0,0.0,1.0,7.m4v,7.0
2024-02-28 09:44:48.728272,1709109888.728272,228.02734375,-35.64453125,-39.0625,435.05859375,1.0,0.0,0.0,1.0,7.m4v,7.0
2024-02-28 09:44:48.732177,1709109888.7321773,513.18359375,-32.2265625,-46.38671875,999.51171875,1.0,0.0,0.0,1.0,7.m4v,7.0
2024-02-28 09:44:48.732177,1709109888.7321773,513.18359375,-32.2265625,-46.38671875,999.51171875,1.0,0.0,0.0,1.0,7.m4v,7.0
2024-02-28 09:44:48.736083,1709109888.7360826,59.5703125,-30.2734375,-44.921875,250.0,1.0,0.0,0.0,1.0,7.m4v,7.0
2024-02-28 09:44:48.736083,1709109888.7360826,59.5703125,-30.2734375,-44.921875,250.0,1.0,0.0,0.0,1.0,7.m4v,7.0
2024-02-28 09:44:48.739988,1709109888.739988,-479.98046875,-37.109375,-43.9453125,-1000.0,1.0,0.0,0.0,1.0,7.m4v,7.0
2024-02-28 09:44:48.739988,1709109888.739988,-479.98046875,-37.109375,-43.9453125,-1000.0,1.0,0.0,0.0,1.0,7.m4v,7.0
2024-02-28 09:44:48.743893,1709109888.7438931,-478.02734375,-41.9921875,-40.52734375,-986.81640625,1.0,0.0,0.0,1.0,7.m4v,7.0
2024-02-28 09:44:48.743893,1709109888.7438931,-478.02734375,-41.9921875,-40.52734375,-986.81640625,1.0,0.0,0.0,1.0,7.m4v,7.0
2024-02-28 09:44:48.747798,1709109888.7477984,121.58203125,-38.0859375,-31.73828125,133.30078125,1.0,0.0,0.0,1.0,7.m4v,7.0
2024-02-28 09:44:48.747798,1709109888.7477984,121.58203125,-38.0859375,-31.73828125,133.30078125,1.0,0.0,0.0,1.0,7.m4v,7.0
2024-02-28 09:44:48.751704,1709109888.751704,546.875,-34.66796875,-36.62109375,999.51171875,1.0,0.0,0.0,1.0,7.m4v,7.0
2024-02-28 09:44:48.751704,1709109888.751704,546.875,-34.66796875,-36.62109375,999.51171875,1.0,0.0,0.0,1.0,7.m4v,7.0
2024-02-28 09:44:48.755609,1709109888.7556093,157.71484375,-28.3203125,-41.015625,410.64453125,1.0,0.0,0.0,1.0,7.m4v,7.0
2024-02-28 09:44:48.755609,1709109888.7556093,157.71484375,-28.3203125,-41.015625,410.64453125,1.0,0.0,0.0,1.0,7.m4v,7.0
2024-02-28 09:44:48.759515,1709109888.7595146,-439.453125,-24.90234375,-35.64453125,-903.3203125,1.0,0.0,0.0,1.0,7.m4v,7.0
2024-02-28 09:44:48.759515,1709109888.7595146,-439.453125,-24.90234375,-35.64453125,-903.3203125,1.0,0.0,0.0,1.0,7.m4v,7.0
2024-02-28 09:44:48.763426,1709109888.7634256,-514.16015625,-29.296875,-31.73828125,-1000.0,1.0,0.0,0.0,1.0,7.m4v,7.0
2024-02-28 09:44:48.763426,1709109888.7634256,-514.16015625,-29.296875,-31.73828125,-1000.0,1.0,0.0,0.0,1.0,7.m4v,7.0
2024-02-28 09:44:48.767331,1709109888.767331,75.68359375,-35.15625,-32.71484375,68.84765625,1.0,0.0,0.0,1.0,7.m4v,7.0
2024-02-28 09:44:48.767331,1709109888.767331,75.68359375,-35.15625,-32.71484375,68.84765625,1.0,0.0,0.0,1.0,7.m4v,7.0
2024-02-28 09:44:48.771236,1709109888.7712364,531.25,-34.66796875,-31.73828125,999.51171875,1.0,0.0,0.0,1.0,7.m4v,7.0
2024-02-28 09:44:48.771236,1709109888.7712364,531.25,-34.66796875,-31.73828125,999.51171875,1.0,0.0,0.0,1.0,7.m4v,7.0
2024-02-28 09:44:48.775142,1709109888.7751417,202.63671875,-35.15625,-35.64453125,499.51171875,1.0,0.0,0.0,1.0,7.m4v,7.0
2024-02-28 09:44:48.775142,1709109888.7751417,202.63671875,-35.15625,-35.64453125,499.51171875,1.0,0.0,0.0,1.0,7.m4v,7.0
2024-02-28 09:44:48.779047,1709109888.779047,-422.36328125,-33.203125,-35.64453125,-829.1015625,1.0,0.0,0.0,1.0,7.m4v,7.0
2024-02-28 09:44:48.779047,1709109888.779047,-422.36328125,-33.203125,-35.64453125,-829.1015625,1.0,0.0,0.0,1.0,7.m4v,7.0
2024-02-28 09:44:48.782952,1709109888.7829523,-525.390625,-27.34375,-33.203125,-1000.0,1.0,0.0,0.0,1.0,7.m4v,7.0
2024-02-28 09:44:48.782952,1709109888.7829523,-525.390625,-27.34375,-33.203125,-1000.0,1.0,0.0,0.0,1.0,7.m4v,7.0
2024-02-28 09:44:48.786858,1709109888.7868576,71.2890625,-19.04296875,-39.55078125,64.94140625,1.0,0.0,0.0,1.0,7.m4v,7.0
2024-02-28 09:44:48.786858,1709109888.7868576,71.2890625,-19.04296875,-39.55078125,64.94140625,1.0,0.0,0.0,1.0,7.m4v,7.0
2024-02-28 09:44:48.790763,1709109888.790763,513.671875,-17.578125,-36.1328125,999.51171875,1.0,0.0,0.0,1.0,7.m4v,7.0
2024-02-28 09:44:48.790763,1709109888.790763,513.671875,-17.578125,-36.1328125,999.51171875,1.0,0.0,0.0,1.0,7.m4v,7.0
2024-02-28 09:44:48.794668,1709109888.7946682,213.37890625,-26.85546875,-34.66796875,558.59375,1.0,0.0,0.0,1.0,7.m4v,7.0
2024-02-28 09:44:48.794668,1709109888.7946682,213.37890625,-26.85546875,-34.66796875,558.59375,1.0,0.0,0.0,1.0,7.m4v,7.0
2024-02-28 09:44:48.798573,1709109888.7985735,-405.76171875,-34.66796875,-38.0859375,-708.49609375,1.0,0.0,0.0,1.0,7.m4v,7.0
2024-02-28 09:44:48.798573,1709109888.7985735,-405.76171875,-34.66796875,-38.0859375,-708.49609375,1.0,0.0,0.0,1.0,7.m4v,7.0
2024-02-28 09:44:48.802479,1709109888.8024788,-598.14453125,-37.109375,-43.9453125,-1000.0,1.0,0.0,0.0,1.0,7.m4v,7.0
2024-02-28 09:44:48.802479,1709109888.8024788,-598.14453125,-37.109375,-43.9453125,-1000.0,1.0,0.0,0.0,1.0,7.m4v,7.0
2024-02-28 09:44:48.806384,1709109888.806384,-54.6875,-29.296875,-45.8984375,-184.5703125,1.0,0.0,0.0,1.0,7.m4v,7.0
2024-02-28 09:44:48.806384,1709109888.806384,-54.6875,-29.296875,-45.8984375,-184.5703125,1.0,0.0,0.0,1.0,7.m4v,7.0
2024-02-28 09:44:48.810299,1709109888.8102992,514.6484375,-22.94921875,-41.015625,999.51171875,1.0,0.0,0.0,1.0,7.m4v,7.0
2024-02-28 09:44:48.810299,1709109888.8102992,514.6484375,-22.94921875,-41.015625,999.51171875,1.0,0.0,0.0,1.0,7.m4v,7.0
2024-02-28 09:44:48.814204,1709109888.8142045,360.3515625,-27.34375,-36.1328125,775.87890625,1.0,0.0,0.0,1.0,7.m4v,7.0
2024-02-28 09:44:48.814204,1709109888.8142045,360.3515625,-27.34375,-36.1328125,775.87890625,1.0,0.0,0.0,1.0,7.m4v,7.0
2024-02-28 09:44:48.818110,1709109888.8181098,-275.390625,-32.71484375,-33.69140625,-454.58984375,1.0,0.0,0.0,1.0,7.m4v,7.0
2024-02-28 09:44:48.818110,1709109888.8181098,-275.390625,-32.71484375,-33.69140625,-454.58984375,1.0,0.0,0.0,1.0,7.m4v,7.0
2024-02-28 09:44:48.822015,1709109888.822015,-573.2421875,-25.87890625,-35.15625,-1000.0,1.0,0.0,0.0,1.0,7.m4v,7.0
2024-02-28 09:44:48.822015,1709109888.822015,-573.2421875,-25.87890625,-35.15625,-1000.0,1.0,0.0,0.0,1.0,7.m4v,7.0
2024-02-28 09:44:48.825920,1709109888.8259203,-83.49609375,-23.4375,-36.62109375,-258.7890625,1.0,0.0,0.0,1.0,7.m4v,7.0
2024-02-28 09:44:48.825920,1709109888.8259203,-83.49609375,-23.4375,-36.62109375,-258.7890625,1.0,0.0,0.0,1.0,7.m4v,7.0
2024-02-28 09:44:48.829826,1709109888.8298256,478.02734375,-30.76171875,-35.15625,999.51171875,1.0,0.0,0.0,1.0,7.m4v,7.0
2024-02-28 09:44:48.829826,1709109888.8298256,478.02734375,-30.76171875,-35.15625,999.51171875,1.0,0.0,0.0,1.0,7.m4v,7.0
2024-02-28 09:44:48.833731,1709109888.833731,399.4140625,-30.2734375,-32.2265625,864.74609375,1.0,0.0,0.0,1.0,7.m4v,7.0
2024-02-28 09:44:48.833731,1709109888.833731,399.4140625,-30.2734375,-32.2265625,864.74609375,1.0,0.0,0.0,1.0,7.m4v,7.0
2024-02-28 09:44:48.837636,1709109888.8376362,-225.09765625,-34.1796875,-26.85546875,-326.171875,1.0,0.0,0.0,1.0,7.m4v,7.0
2024-02-28 09:44:48.837636,1709109888.8376362,-225.09765625,-34.1796875,-26.85546875,-326.171875,1.0,0.0,0.0,1.0,7.m4v,7.0
2024-02-28 09:44:48.841542,1709109888.8415415,-583.0078125,-33.203125,-28.3203125,-1000.0,1.0,0.0,0.0,1.0,7.m4v,7.0
2024-02-28 09:44:48.841542,1709109888.8415415,-583.0078125,-33.203125,-28.3203125,-1000.0,1.0,0.0,0.0,1.0,7.m4v,7.0
2024-02-28 09:44:48.845447,1709109888.8454468,-205.56640625,-23.4375,-36.62109375,-486.81640625,1.0,0.0,0.0,1.0,7.m4v,7.0
2024-02-28 09:44:48.845447,1709109888.8454468,-205.56640625,-23.4375,-36.62109375,-486.81640625,1.0,0.0,0.0,1.0,7.m4v,7.0
2024-02-28 09:44:48.849352,1709109888.8493524,408.69140625,-20.01953125,-41.015625,832.51953125,1.0,0.0,0.0,1.0,7.m4v,7.0
2024-02-28 09:44:48.849352,1709109888.8493524,408.69140625,-20.01953125,-41.015625,832.51953125,1.0,0.0,0.0,1.0,7.m4v,7.0
2024-02-28 09:44:48.853258,1709109888.8532577,474.609375,-29.296875,-45.8984375,999.51171875,1.0,0.0,0.0,1.0,7.m4v,7.0
2024-02-28 09:44:48.853258,1709109888.8532577,474.609375,-29.296875,-45.8984375,999.51171875,1.0,0.0,0.0,1.0,7.m4v,7.0
2024-02-28 09:44:48.857172,1709109888.857172,-163.57421875,-35.64453125,-45.41015625,-139.16015625,1.0,0.0,0.0,1.0,7.m4v,7.0
2024-02-28 09:44:48.857172,1709109888.857172,-163.57421875,-35.64453125,-45.41015625,-139.16015625,1.0,0.0,0.0,1.0,7.m4v,7.0
2024-02-28 09:44:48.861077,1709109888.8610773,-591.30859375,-32.71484375,-35.15625,-1000.0,1.0,0.0,0.0,1.0,7.m4v,7.0
2024-02-28 09:44:48.861077,1709109888.8610773,-591.30859375,-32.71484375,-35.15625,-1000.0,1.0,0.0,0.0,1.0,7.m4v,7.0
2024-02-28 09:44:48.864983,1709109888.8649826,-274.4140625,-32.2265625,-32.2265625,-584.9609375,1.0,0.0,0.0,1.0,7.m4v,7.0
2024-02-28 09:44:48.864983,1709109888.8649826,-274.4140625,-32.2265625,-32.2265625,-584.9609375,1.0,0.0,0.0,1.0,7.m4v,7.0
2024-02-28 09:44:48.868888,1709109888.868888,325.68359375,-32.71484375,-38.0859375,698.73046875,1.0,0.0,0.0,1.0,7.m4v,7.0
2024-02-28 09:44:48.868888,1709109888.868888,325.68359375,-32.71484375,-38.0859375,698.73046875,1.0,0.0,0.0,1.0,7.m4v,7.0
2024-02-28 09:44:48.872793,1709109888.8727932,490.234375,-25.87890625,-32.71484375,999.51171875,1.0,0.0,0.0,1.0,7.m4v,7.0
2024-02-28 09:44:48.872793,1709109888.8727932,490.234375,-25.87890625,-32.71484375,999.51171875,1.0,0.0,0.0,1.0,7.m4v,7.0
2024-02-28 09:44:48.876698,1709109888.8766985,-65.4296875,-28.3203125,-24.4140625,54.6875,1.0,0.0,0.0,1.0,7.m4v,7.0
2024-02-28 09:44:48.876698,1709109888.8766985,-65.4296875,-28.3203125,-24.4140625,54.6875,1.0,0.0,0.0,1.0,7.m4v,7.0
2024-02-28 09:44:48.880604,1709109888.8806038,-594.23828125,-41.9921875,-24.90234375,-1000.0,1.0,0.0,0.0,1.0,7.m4v,7.0
2024-02-28 09:44:48.880604,1709109888.8806038,-594.23828125,-41.9921875,-24.90234375,-1000.0,1.0,0.0,0.0,1.0,7.m4v,7.0
2024-02-28 09:44:49.466502,1709109889.4665017,97.16796875,-38.0859375,-28.3203125,96.19140625,1.0,0.0,0.0,1.0,7.m4v,7.0
2024-02-28 09:44:49.470407,1709109889.470407,524.4140625,-30.2734375,-28.80859375,999.51171875,1.0,0.0,0.0,1.0,7.m4v,7.0
2024-02-28 09:44:49.474312,1709109889.4743123,184.08203125,-30.2734375,-32.71484375,545.41015625,1.0,0.0,0.0,1.0,7.m4v,7.0
2024-02-28 09:44:49.478218,1709109889.4782176,-400.87890625,-39.55078125,-29.296875,-748.53515625,1.0,0.0,0.0,1.0,7.m4v,7.0
2024-02-28 09:44:49.482123,1709109889.482123,-572.75390625,-40.52734375,-28.3203125,-1000.0,1.0,0.0,0.0,1.0,7.m4v,7.0
2024-02-28 09:44:49.486028,1709109889.4860282,47.36328125,-35.15625,-34.66796875,-30.76171875,1.0,0.0,0.0,1.0,7.m4v,7.0
2024-02-28 09:44:49.489933,1709109889.4899335,565.4296875,-36.62109375,-31.73828125,999.51171875,1.0,0.0,0.0,1.0,7.m4v,7.0
2024-02-28 09:44:49.493839,1709109889.4938388,229.98046875,-37.59765625,-26.85546875,594.23828125,1.0,0.0,0.0,1.0,7.m4v,7.0
2024-02-28 09:44:49.497744,1709109889.497744,-400.390625,-37.59765625,-32.71484375,-695.80078125,1.0,0.0,0.0,1.0,7.m4v,7.0
2024-02-28 09:44:49.501649,1709109889.5016494,-582.51953125,-30.2734375,-40.0390625,-1000.0,1.0,0.0,0.0,1.0,7.m4v,7.0
2024-02-28 09:44:49.505555,1709109889.505555,4.39453125,-26.3671875,-32.2265625,-73.2421875,1.0,0.0,0.0,1.0,7.m4v,7.0
2024-02-28 09:44:49.509460,1709109889.50946,513.18359375,-30.2734375,-29.78515625,999.51171875,1.0,0.0,0.0,1.0,7.m4v,7.0
2024-02-28 09:44:49.513372,1709109889.513372,325.1953125,-31.25,-29.78515625,799.31640625,1.0,0.0,0.0,1.0,7.m4v,7.0
2024-02-28 09:44:49.517277,1709109889.5172772,-275.87890625,-35.15625,-30.2734375,-385.7421875,1.0,0.0,0.0,1.0,7.m4v,7.0
2024-02-28 09:44:49.521183,1709109889.5211823,-619.140625,-35.15625,-39.55078125,-1000.0,1.0,0.0,0.0,1.0,7.m4v,7.0
2024-02-28 09:44:49.525088,1709109889.5250878,-120.1171875,-28.3203125,-37.109375,-266.6015625,1.0,0.0,0.0,1.0,7.m4v,7.0
2024-02-28 09:44:49.528993,1709109889.5289931,465.33203125,-23.92578125,-30.2734375,970.703125,1.0,0.0,0.0,1.0,7.m4v,7.0
2024-02-28 09:44:49.532898,1709109889.5328984,434.5703125,-29.78515625,-27.83203125,999.51171875,1.0,0.0,0.0,1.0,7.m4v,7.0
2024-02-28 09:44:49.536804,1709109889.536804,-144.04296875,-37.59765625,-35.15625,-23.4375,1.0,0.0,0.0,1.0,7.m4v,7.0
2024-02-28 09:44:49.540709,1709109889.5407093,-656.73828125,-37.109375,-39.55078125,-1000.0,1.0,0.0,0.0,1.0,7.m4v,7.0
2024-02-28 09:44:49.544615,1709109889.5446146,-319.82421875,-35.15625,-43.45703125,-519.04296875,1.0,0.0,0.0,1.0,7.m4v,7.0
2024-02-28 09:44:49.548520,1709109889.5485198,315.4296875,-40.52734375,-40.0390625,805.6640625,1.0,0.0,0.0,1.0,7.m4v,7.0
2024-02-28 09:44:49.552425,1709109889.5524251,431.15234375,-41.015625,-28.3203125,999.51171875,1.0,0.0,0.0,1.0,7.m4v,7.0
2024-02-28 09:44:49.556330,1709109889.5563304,-161.1328125,-45.8984375,-30.2734375,-25.87890625,1.0,0.0,0.0,1.0,7.m4v,7.0
2024-02-28 09:44:49.560245,1709109889.560245,-646.484375,-56.640625,-35.15625,-1000.0,1.0,0.0,0.0,1.0,7.m4v,7.0
2024-02-28 09:44:49.564150,1709109889.5641503,-312.98828125,-44.43359375,-41.015625,-542.48046875,1.0,0.0,0.0,1.0,7.m4v,7.0
2024-02-28 09:44:49.568056,1709109889.5680556,306.15234375,-27.34375,-40.0390625,748.046875,1.0,0.0,0.0,1.0,7.m4v,7.0
2024-02-28 09:44:49.571961,1709109889.571961,489.2578125,-26.85546875,-32.71484375,999.51171875,1.0,0.0,0.0,1.0,7.m4v,7.0
2024-02-28 09:44:49.575866,1709109889.5758662,-62.5,-27.83203125,-25.87890625,101.5625,1.0,0.0,0.0,1.0,7.m4v,7.0
2024-02-28 09:44:49.579772,1709109889.5797715,-579.1015625,-31.25,-28.3203125,-1000.0,1.0,0.0,0.0,1.0,7.m4v,7.0
2024-02-28 09:44:49.583677,1709109889.5836768,-410.64453125,-35.15625,-33.69140625,-821.2890625,1.0,0.0,0.0,1.0,7.m4v,7.0
2024-02-28 09:44:49.587582,1709109889.587582,147.4609375,-36.1328125,-37.109375,372.55859375,1.0,0.0,0.0,1.0,7.m4v,7.0
2024-02-28 09:44:49.591487,1709109889.5914874,494.140625,-41.50390625,-34.1796875,999.51171875,1.0,0.0,0.0,1.0,7.m4v,7.0
2024-02-28 09:44:49.595393,1709109889.595393,33.203125,-42.96875,-37.109375,228.02734375,1.0,0.0,0.0,1.0,7.m4v,7.0
2024-02-28 09:44:49.599298,1709109889.5992982,-542.96875,-36.62109375,-48.33984375,-1000.0,1.0,0.0,0.0,1.0,7.m4v,7.0
2024-02-28 09:44:49.603204,1709109889.6032035,-449.21875,-28.80859375,-38.57421875,-869.140625,1.0,0.0,0.0,1.0,7.m4v,7.0
2024-02-28 09:44:49.607118,1709109889.607118,184.5703125,-21.484375,-30.76171875,347.65625,1.0,0.0,0.0,1.0,7.m4v,7.0
2024-02-28 09:44:49.611023,1709109889.6110232,532.2265625,-21.484375,-36.62109375,999.51171875,1.0,0.0,0.0,1.0,7.m4v,7.0
2024-02-28 09:44:49.614928,1709109889.6149285,35.15625,-33.203125,-38.57421875,250.48828125,1.0,0.0,0.0,1.0,7.m4v,7.0
2024-02-28 09:44:49.618834,1709109889.6188338,-556.15234375,-40.52734375,-31.73828125,-1000.0,1.0,0.0,0.0,1.0,7.m4v,7.0
2024-02-28 09:44:49.622739,1709109889.622739,-512.6953125,-35.15625,-29.296875,-988.28125,1.0,0.0,0.0,1.0,7.m4v,7.0
2024-02-28 09:44:49.626644,1709109889.6266444,108.3984375,-29.296875,-32.2265625,137.20703125,1.0,0.0,0.0,1.0,7.m4v,7.0
2024-02-28 09:44:49.630550,1709109889.63055,552.734375,-25.87890625,-33.69140625,999.51171875,1.0,0.0,0.0,1.0,7.m4v,7.0
2024-02-28 09:44:49.634455,1709109889.6344552,129.8828125,-30.2734375,-30.76171875,364.2578125,1.0,0.0,0.0,1.0,7.m4v,7.0
2024-02-28 09:44:49.638361,1709109889.6383605,-501.953125,-40.0390625,-30.76171875,-923.828125,1.0,0.0,0.0,1.0,7.m4v,7.0
2024-02-28 09:44:49.642266,1709109889.6422658,-587.40234375,-42.96875,-36.62109375,-1000.0,1.0,0.0,0.0,1.0,7.m4v,7.0
2024-02-28 09:44:49.646171,1709109889.646171,-9.765625,-37.59765625,-37.109375,-45.41015625,1.0,0.0,0.0,1.0,7.m4v,7.0
2024-02-28 09:44:49.650076,1709109889.6500764,510.7421875,-32.71484375,-32.71484375,999.51171875,1.0,0.0,0.0,1.0,7.m4v,7.0
2024-02-28 09:44:49.653990,1709109889.6539905,210.44921875,-36.62109375,-35.64453125,552.24609375,1.0,0.0,0.0,1.0,7.m4v,7.0
2024-02-28 09:44:49.657896,1709109889.6578956,-407.71484375,-37.59765625,-41.9921875,-733.3984375,1.0,0.0,0.0,1.0,7.m4v,7.0
2024-02-28 09:44:49.661801,1709109889.6618009,-598.6328125,-37.59765625,-38.0859375,-1000.0,1.0,0.0,0.0,1.0,7.m4v,7.0
2024-02-28 09:44:49.665706,1709109889.6657062,-83.0078125,-34.66796875,-39.55078125,-170.8984375,1.0,0.0,0.0,1.0,7.m4v,7.0
2024-02-28 09:44:49.669611,1709109889.6696117,468.75,-28.80859375,-33.203125,999.51171875,1.0,0.0,0.0,1.0,7.m4v,7.0
2024-02-28 09:44:49.673517,1709109889.6735168,341.30859375,-26.85546875,-27.83203125,815.91796875,1.0,0.0,0.0,1.0,7.m4v,7.0
2024-02-28 09:44:49.677422,1709109889.677422,-281.25,-30.76171875,-34.66796875,-376.46484375,1.0,0.0,0.0,1.0,7.m4v,7.0
2024-02-28 09:44:49.681328,1709109889.6813276,-630.37109375,-36.62109375,-36.62109375,-1000.0,1.0,0.0,0.0,1.0,7.m4v,7.0
2024-02-28 09:44:49.685233,1709109889.6852329,-251.46484375,-33.69140625,-33.203125,-495.1171875,1.0,0.0,0.0,1.0,7.m4v,7.0
2024-02-28 09:44:49.689138,1709109889.6891382,380.37109375,-36.1328125,-32.2265625,882.32421875,1.0,0.0,0.0,1.0,7.m4v,7.0
2024-02-28 09:44:49.693043,1709109889.6930437,429.19921875,-41.50390625,-31.25,862.3046875,1.0,0.0,0.0,1.0,7.m4v,7.0
2024-02-28 09:44:49.696949,1709109889.6969488,-256.8359375,-34.66796875,-35.15625,-423.33984375,1.0,0.0,0.0,1.0,7.m4v,7.0
2024-02-28 09:44:49.700862,1709109889.7008622,-587.890625,-33.69140625,-49.31640625,-1000.0,1.0,0.0,0.0,1.0,7.m4v,7.0
2024-02-28 09:44:49.704767,1709109889.7047677,-218.75,-40.52734375,-48.33984375,-518.5546875,1.0,0.0,0.0,1.0,7.m4v,7.0
2024-02-28 09:44:49.708673,1709109889.7086728,372.55859375,-36.62109375,-33.203125,804.6875,1.0,0.0,0.0,1.0,7.m4v,7.0
2024-02-28 09:44:49.712578,1709109889.712578,469.23828125,-32.2265625,-22.4609375,999.51171875,1.0,0.0,0.0,1.0,7.m4v,7.0
2024-02-28 09:44:49.716483,1709109889.7164834,-186.5234375,-36.1328125,-24.90234375,-194.3359375,1.0,0.0,0.0,1.0,7.m4v,7.0
2024-02-28 09:44:49.720389,1709109889.720389,-587.890625,-33.69140625,-34.66796875,-1000.0,1.0,0.0,0.0,1.0,7.m4v,7.0
2024-02-28 09:44:49.724294,1709109889.724294,-289.0625,-28.80859375,-42.48046875,-656.73828125,1.0,0.0,0.0,1.0,7.m4v,7.0
2024-02-28 09:44:49.728199,1709109889.7281992,298.828125,-27.34375,-40.52734375,632.32421875,1.0,0.0,0.0,1.0,7.m4v,7.0
2024-02-28 09:44:49.732105,1709109889.7321043,501.46484375,-27.34375,-30.2734375,999.51171875,1.0,0.0,0.0,1.0,7.m4v,7.0
2024-02-28 09:44:49.736010,1709109889.7360098,-137.6953125,-33.69140625,-32.2265625,-70.80078125,1.0,0.0,0.0,1.0,7.m4v,7.0
2024-02-28 09:44:49.739915,1709109889.7399151,-608.88671875,-38.0859375,-35.64453125,-1000.0,1.0,0.0,0.0,1.0,7.m4v,7.0
2024-02-28 09:44:49.743820,1709109889.7438204,-337.40234375,-38.0859375,-35.64453125,-734.375,1.0,0.0,0.0,1.0,7.m4v,7.0
2024-02-28 09:44:49.747734,1709109889.747734,273.4375,-37.109375,-34.66796875,514.16015625,1.0,0.0,0.0,1.0,7.m4v,7.0
2024-02-28 09:44:49.751639,1709109889.7516394,520.5078125,-33.69140625,-29.78515625,999.51171875,1.0,0.0,0.0,1.0,7.m4v,7.0
2024-02-28 09:44:49.755545,1709109889.755545,-55.17578125,-31.25,-27.34375,100.09765625,1.0,0.0,0.0,1.0,7.m4v,7.0
2024-02-28 09:44:49.759450,1709109889.75945,-596.6796875,-32.2265625,-35.15625,-1000.0,1.0,0.0,0.0,1.0,7.m4v,7.0
2024-02-28 09:44:49.763355,1709109889.7633553,-423.828125,-33.203125,-41.015625,-826.66015625,1.0,0.0,0.0,1.0,7.m4v,7.0
2024-02-28 09:44:49.767261,1709109889.7672606,212.890625,-34.66796875,-35.15625,400.390625,1.0,0.0,0.0,1.0,7.m4v,7.0
2024-02-28 09:44:49.771166,1709109889.7711658,539.55078125,-33.69140625,-25.390625,999.51171875,1.0,0.0,0.0,1.0,7.m4v,7.0
2024-02-28 09:44:49.775071,1709109889.7750711,-34.66796875,-35.64453125,-29.296875,145.99609375,1.0,0.0,0.0,1.0,7.m4v,7.0
2024-02-28 09:44:49.778976,1709109889.7789764,-586.9140625,-35.64453125,-40.52734375,-1000.0,1.0,0.0,0.0,1.0,7.m4v,7.0
2024-02-28 09:44:49.782882,1709109889.7828815,-468.26171875,-26.85546875,-43.45703125,-951.66015625,1.0,0.0,0.0,1.0,7.m4v,7.0
2024-02-28 09:44:49.786787,1709109889.786787,118.1640625,-21.97265625,-41.015625,158.69140625,1.0,0.0,0.0,1.0,7.m4v,7.0
2024-02-28 09:44:49.790692,1709109889.7906923,523.92578125,-24.90234375,-36.1328125,999.51171875,1.0,0.0,0.0,1.0,7.m4v,7.0
2024-02-28 09:44:49.794605,1709109889.7946048,146.484375,-30.2734375,-35.64453125,447.265625,1.0,0.0,0.0,1.0,7.m4v,7.0
2024-02-28 09:44:49.798510,1709109889.79851,-458.49609375,-33.203125,-34.66796875,-858.88671875,1.0,0.0,0.0,1.0,7.m4v,7.0
2024-02-28 09:44:49.802415,1709109889.8024154,-573.73046875,-33.69140625,-31.25,-1000.0,1.0,0.0,0.0,1.0,7.m4v,7.0
2024-02-28 09:44:49.806321,1709109889.806321,41.9921875,-35.64453125,-32.2265625,27.34375,1.0,0.0,0.0,1.0,7.m4v,7.0
2024-02-28 09:44:49.810226,1709109889.810226,524.4140625,-33.203125,-33.69140625,999.51171875,1.0,0.0,0.0,1.0,7.m4v,7.0
2024-02-28 09:44:49.814131,1709109889.8141313,243.65234375,-30.2734375,-32.2265625,660.15625,1.0,0.0,0.0,1.0,7.m4v,7.0
2024-02-28 09:44:49.818037,1709109889.8180368,-367.1875,-31.73828125,-31.73828125,-586.9140625,1.0,0.0,0.0,1.0,7.m4v,7.0
2024-02-28 09:44:49.821942,1709109889.821942,-631.34765625,-41.015625,-35.64453125,-1000.0,1.0,0.0,0.0,1.0,7.m4v,7.0
2024-02-28 09:44:49.825847,1709109889.8258474,-80.078125,-39.55078125,-34.66796875,-153.3203125,1.0,0.0,0.0,1.0,7.m4v,7.0
2024-02-28 09:44:49.829753,1709109889.8297527,490.72265625,-29.78515625,-30.2734375,999.51171875,1.0,0.0,0.0,1.0,7.m4v,7.0
2024-02-28 09:44:49.833658,1709109889.833658,296.875,-31.73828125,-35.64453125,707.03125,1.0,0.0,0.0,1.0,7.m4v,7.0
2024-02-28 09:44:49.837563,1709109889.8375633,-346.6796875,-34.66796875,-41.015625,-563.4765625,1.0,0.0,0.0,1.0,7.m4v,7.0
2024-02-28 09:44:49.841479,1709109889.8414793,-645.01953125,-31.73828125,-41.50390625,-1000.0,1.0,0.0,0.0,1.0,7.m4v,7.0
2024-02-28 09:44:49.845385,1709109889.8453846,-80.56640625,-27.34375,-39.0625,-148.92578125,1.0,0.0,0.0,1.0,7.m4v,7.0
2024-02-28 09:44:49.849290,1709109889.84929,493.1640625,-27.83203125,-39.0625,999.51171875,1.0,0.0,0.0,1.0,7.m4v,7.0
2024-02-28 09:44:49.853195,1709109889.8531952,310.05859375,-30.76171875,-38.57421875,760.7421875,1.0,0.0,0.0,1.0,7.m4v,7.0
2024-02-28 09:44:49.857100,1709109889.8571005,-302.24609375,-24.4140625,-33.203125,-474.609375,1.0,0.0,0.0,1.0,7.m4v,7.0
2024-02-28 09:44:49.861006,1709109889.8610058,-593.75,-20.01953125,-30.2734375,-1000.0,1.0,0.0,0.0,1.0,7.m4v,7.0
2024-02-28 09:44:49.864911,1709109889.8649113,-82.51953125,-23.92578125,-33.69140625,-197.75390625,1.0,0.0,0.0,1.0,7.m4v,7.0
2024-02-28 09:44:49.868817,1709109889.8688166,457.51953125,-28.80859375,-31.73828125,999.51171875,1.0,0.0,0.0,1.0,7.m4v,7.0
2024-02-28 09:44:49.872722,1709109889.872722,345.21484375,-33.203125,-39.0625,848.14453125,1.0,0.0,0.0,1.0,7.m4v,7.0
2024-02-28 09:44:49.876627,1709109889.8766272,-265.625,-34.66796875,-43.45703125,-348.6328125,1.0,0.0,0.0,1.0,7.m4v,7.0
2024-02-28 09:44:49.880533,1709109889.8805325,-610.3515625,-32.2265625,-34.1796875,-1000.0,1.0,0.0,0.0,1.0,7.m4v,7.0
2024-02-28 09:44:49.884438,1709109889.8844378,-217.7734375,-31.25,-30.76171875,-447.75390625,1.0,0.0,0.0,1.0,7.m4v,7.0
2024-02-28 09:44:49.888349,1709109889.888349,390.13671875,-29.78515625,-27.83203125,860.83984375,1.0,0.0,0.0,1.0,7.m4v,7.0
2024-02-28 09:44:49.892254,1709109889.8922544,456.0546875,-31.25,-32.2265625,999.51171875,1.0,0.0,0.0,1.0,7.m4v,7.0
2024-02-28 09:44:49.896160,1709109889.8961596,-157.2265625,-33.203125,-35.15625,-114.2578125,1.0,0.0,0.0,1.0,7.m4v,7.0
2024-02-28 09:44:49.900065,1709109889.900065,-603.515625,-37.109375,-34.1796875,-1000.0,1.0,0.0,0.0,1.0,7.m4v,7.0
2024-02-28 09:44:49.903970,1709109889.9039702,-234.86328125,-37.109375,-28.3203125,-461.9140625,1.0,0.0,0.0,1.0,7.m4v,7.0
2024-02-28 09:44:49.907876,1709109889.9078755,406.73828125,-31.25,-29.296875,854.98046875,1.0,0.0,0.0,1.0,7.m4v,7.0
2024-02-28 09:44:49.911781,1709109889.9117808,488.28125,-40.0390625,-35.64453125,999.51171875,1.0,0.0,0.0,1.0,7.m4v,7.0
2024-02-28 09:44:49.915686,1709109889.915686,-124.51171875,-46.875,-34.66796875,-50.29296875,1.0,0.0,0.0,1.0,7.m4v,7.0
2024-02-28 09:44:49.915686,1709109889.915686,-124.51171875,-46.875,-34.66796875,-50.29296875,1.0,0.0,0.0,1.0,7.m4v,7.0
2024-02-28 09:44:49.919591,1709109889.9195914,-596.19140625,-35.64453125,-32.71484375,-1000.0,1.0,0.0,0.0,1.0,7.m4v,7.0
2024-02-28 09:44:49.919591,1709109889.9195914,-596.19140625,-35.64453125,-32.71484375,-1000.0,1.0,0.0,0.0,1.0,7.m4v,7.0
2024-02-28 09:44:49.923497,1709109889.9234967,-308.10546875,-32.2265625,-35.64453125,-630.859375,1.0,0.0,0.0,1.0,7.m4v,7.0
2024-02-28 09:44:49.923497,1709109889.9234967,-308.10546875,-32.2265625,-35.64453125,-630.859375,1.0,0.0,0.0,1.0,7.m4v,7.0
2024-02-28 09:44:49.927402,1709109889.927402,303.7109375,-34.1796875,-43.45703125,639.16015625,1.0,0.0,0.0,1.0,7.m4v,7.0
2024-02-28 09:44:49.927402,1709109889.927402,303.7109375,-34.1796875,-43.45703125,639.16015625,1.0,0.0,0.0,1.0,7.m4v,7.0
2024-02-28 09:44:49.931307,1709109889.9313073,521.97265625,-28.80859375,-41.50390625,999.51171875,1.0,0.0,0.0,1.0,7.m4v,7.0
2024-02-28 09:44:49.931307,1709109889.9313073,521.97265625,-28.80859375,-41.50390625,999.51171875,1.0,0.0,0.0,1.0,7.m4v,7.0
2024-02-28 09:44:49.935222,1709109889.9352224,-14.6484375,-27.83203125,-40.52734375,122.55859375,1.0,0.0,0.0,1.0,7.m4v,7.0
2024-02-28 09:44:49.935222,1709109889.9352224,-14.6484375,-27.83203125,-40.52734375,122.55859375,1.0,0.0,0.0,1.0,7.m4v,7.0
2024-02-28 09:44:49.939128,1709109889.9391277,-549.8046875,-32.71484375,-37.109375,-1000.0,1.0,0.0,0.0,1.0,7.m4v,7.0
2024-02-28 09:44:49.939128,1709109889.9391277,-549.8046875,-32.71484375,-37.109375,-1000.0,1.0,0.0,0.0,1.0,7.m4v,7.0
2024-02-28 09:44:49.943033,1709109889.943033,-456.0546875,-37.109375,-34.66796875,-918.9453125,1.0,0.0,0.0,1.0,7.m4v,7.0
2024-02-28 09:44:49.943033,1709109889.943033,-456.0546875,-37.109375,-34.66796875,-918.9453125,1.0,0.0,0.0,1.0,7.m4v,7.0
2024-02-28 09:44:49.946938,1709109889.9469385,145.01953125,-32.71484375,-44.43359375,211.9140625,1.0,0.0,0.0,1.0,7.m4v,7.0
2024-02-28 09:44:49.946938,1709109889.9469385,145.01953125,-32.71484375,-44.43359375,211.9140625,1.0,0.0,0.0,1.0,7.m4v,7.0
2024-02-28 09:44:49.950844,1709109889.9508436,541.015625,-26.85546875,-48.828125,999.51171875,1.0,0.0,0.0,1.0,7.m4v,7.0
2024-02-28 09:44:49.950844,1709109889.9508436,541.015625,-26.85546875,-48.828125,999.51171875,1.0,0.0,0.0,1.0,7.m4v,7.0
2024-02-28 09:44:49.954749,1709109889.9547489,133.7890625,-27.34375,-40.0390625,348.6328125,1.0,0.0,0.0,1.0,7.m4v,7.0
2024-02-28 09:44:49.954749,1709109889.9547489,133.7890625,-27.34375,-40.0390625,348.6328125,1.0,0.0,0.0,1.0,7.m4v,7.0
2024-02-28 09:44:49.958654,1709109889.9586542,-432.6171875,-29.78515625,-36.1328125,-944.3359375,1.0,0.0,0.0,1.0,7.m4v,7.0
2024-02-28 09:44:49.958654,1709109889.9586542,-432.6171875,-29.78515625,-36.1328125,-944.3359375,1.0,0.0,0.0,1.0,7.m4v,7.0
2024-02-28 09:44:49.962559,1709109889.9625597,-481.4453125,-33.69140625,-34.66796875,-1000.0,1.0,0.0,0.0,1.0,7.m4v,7.0
2024-02-28 09:44:49.962559,1709109889.9625597,-481.4453125,-33.69140625,-34.66796875,-1000.0,1.0,0.0,0.0,1.0,7.m4v,7.0
2024-02-28 09:44:49.966465,1709109889.9664648,115.72265625,-33.69140625,-30.2734375,83.0078125,1.0,0.0,0.0,1.0,7.m4v,7.0
2024-02-28 09:44:49.966465,1709109889.9664648,115.72265625,-33.69140625,-30.2734375,83.0078125,1.0,0.0,0.0,1.0,7.m4v,7.0
2024-02-28 09:44:49.970370,1709109889.97037,566.40625,-33.203125,-29.78515625,999.51171875,1.0,0.0,0.0,1.0,7.m4v,7.0
2024-02-28 09:44:49.970370,1709109889.97037,566.40625,-33.203125,-29.78515625,999.51171875,1.0,0.0,0.0,1.0,7.m4v,7.0
2024-02-28 09:44:49.974275,1709109889.9742754,130.859375,-27.34375,-31.73828125,313.4765625,1.0,0.0,0.0,1.0,7.m4v,7.0
2024-02-28 09:44:49.974275,1709109889.9742754,130.859375,-27.34375,-31.73828125,313.4765625,1.0,0.0,0.0,1.0,7.m4v,7.0
2024-02-28 09:44:49.978181,1709109889.978181,-484.86328125,-29.296875,-41.015625,-975.5859375,1.0,0.0,0.0,1.0,7.m4v,7.0
2024-02-28 09:44:49.978181,1709109889.978181,-484.86328125,-29.296875,-41.015625,-975.5859375,1.0,0.0,0.0,1.0,7.m4v,7.0
2024-02-28 09:44:49.982095,1709109889.9820952,-505.859375,-34.66796875,-47.8515625,-1000.0,1.0,0.0,0.0,1.0,7.m4v,7.0
2024-02-28 09:44:49.982095,1709109889.9820952,-505.859375,-34.66796875,-47.8515625,-1000.0,1.0,0.0,0.0,1.0,7.m4v,7.0
2024-02-28 09:44:49.986001,1709109889.9860003,84.9609375,-31.25,-41.015625,14.6484375,1.0,0.0,0.0,1.0,7.m4v,7.0
2024-02-28 09:44:49.986001,1709109889.9860003,84.9609375,-31.25,-41.015625,14.6484375,1.0,0.0,0.0,1.0,7.m4v,7.0
2024-02-28 09:44:49.989906,1709109889.9899058,559.5703125,-24.90234375,-30.2734375,999.51171875,1.0,0.0,0.0,1.0,7.m4v,7.0
2024-02-28 09:44:49.989906,1709109889.9899058,559.5703125,-24.90234375,-30.2734375,999.51171875,1.0,0.0,0.0,1.0,7.m4v,7.0
2024-02-28 09:44:49.993811,1709109889.9938111,235.83984375,-19.04296875,-25.390625,524.90234375,1.0,0.0,0.0,1.0,7.m4v,7.0
2024-02-28 09:44:49.993811,1709109889.9938111,235.83984375,-19.04296875,-25.390625,524.90234375,1.0,0.0,0.0,1.0,7.m4v,7.0
2024-02-28 09:44:49.997716,1709109889.9977164,-393.5546875,-25.390625,-27.34375,-780.2734375,1.0,0.0,0.0,1.0,7.m4v,7.0
2024-02-28 09:44:49.997716,1709109889.9977164,-393.5546875,-25.390625,-27.34375,-780.2734375,1.0,0.0,0.0,1.0,7.m4v,7.0
2024-02-28 09:44:50.001622,1709109890.0016215,-542.48046875,-30.76171875,-27.83203125,-1000.0,1.0,0.0,0.0,1.0,7.m4v,7.0
2024-02-28 09:44:50.001622,1709109890.0016215,-542.48046875,-30.76171875,-27.83203125,-1000.0,1.0,0.0,0.0,1.0,7.m4v,7.0
2024-02-28 09:44:50.005527,1709109890.005527,16.11328125,-27.34375,-30.2734375,-75.68359375,1.0,0.0,0.0,1.0,7.m4v,7.0
2024-02-28 09:44:50.005527,1709109890.005527,16.11328125,-27.34375,-30.2734375,-75.68359375,1.0,0.0,0.0,1.0,7.m4v,7.0
2024-02-28 09:44:50.009432,1709109890.0094323,503.41796875,-29.78515625,-40.0390625,999.51171875,1.0,0.0,0.0,1.0,7.m4v,7.0
2024-02-28 09:44:50.009432,1709109890.0094323,503.41796875,-29.78515625,-40.0390625,999.51171875,1.0,0.0,0.0,1.0,7.m4v,7.0
2024-02-28 09:44:50.013338,1709109890.0133376,238.28125,-36.1328125,-43.9453125,588.8671875,1.0,0.0,0.0,1.0,7.m4v,7.0
2024-02-28 09:44:50.013338,1709109890.0133376,238.28125,-36.1328125,-43.9453125,588.8671875,1.0,0.0,0.0,1.0,7.m4v,7.0
2024-02-28 09:44:50.017243,1709109890.017243,-372.55859375,-35.64453125,-35.64453125,-694.3359375,1.0,0.0,0.0,1.0,7.m4v,7.0
2024-02-28 09:44:50.017243,1709109890.017243,-372.55859375,-35.64453125,-35.64453125,-694.3359375,1.0,0.0,0.0,1.0,7.m4v,7.0
2024-02-28 09:44:50.021148,1709109890.0211482,-554.19921875,-29.296875,-31.73828125,-1000.0,1.0,0.0,0.0,1.0,7.m4v,7.0
2024-02-28 09:44:50.021148,1709109890.0211482,-554.19921875,-29.296875,-31.73828125,-1000.0,1.0,0.0,0.0,1.0,7.m4v,7.0
2024-02-28 09:44:50.025054,1709109890.0250535,-48.33984375,-26.3671875,-31.25,-187.5,1.0,0.0,0.0,1.0,7.m4v,7.0
2024-02-28 09:44:50.025054,1709109890.0250535,-48.33984375,-26.3671875,-31.25,-187.5,1.0,0.0,0.0,1.0,7.m4v,7.0
2024-02-28 09:44:50.028972,1709109890.0289717,481.93359375,-29.78515625,-32.71484375,999.51171875,1.0,0.0,0.0,1.0,7.m4v,7.0
2024-02-28 09:44:50.028972,1709109890.0289717,481.93359375,-29.78515625,-32.71484375,999.51171875,1.0,0.0,0.0,1.0,7.m4v,7.0
2024-02-28 09:44:50.032877,1709109890.032877,338.8671875,-34.66796875,-39.55078125,809.08203125,1.0,0.0,0.0,1.0,7.m4v,7.0
2024-02-28 09:44:50.032877,1709109890.032877,338.8671875,-34.66796875,-39.55078125,809.08203125,1.0,0.0,0.0,1.0,7.m4v,7.0
2024-02-28 09:44:50.036782,1709109890.0367825,-274.90234375,-30.2734375,-37.109375,-390.625,1.0,0.0,0.0,1.0,7.m4v,7.0
2024-02-28 09:44:50.036782,1709109890.0367825,-274.90234375,-30.2734375,-37.109375,-390.625,1.0,0.0,0.0,1.0,7.m4v,7.0
2024-02-28 09:44:50.040688,1709109890.0406878,-597.16796875,-28.80859375,-40.0390625,-1000.0,1.0,0.0,0.0,1.0,7.m4v,7.0
2024-02-28 09:44:50.040688,1709109890.0406878,-597.16796875,-28.80859375,-40.0390625,-1000.0,1.0,0.0,0.0,1.0,7.m4v,7.0
2024-02-28 09:44:50.044593,1709109890.044593,-141.11328125,-29.296875,-36.62109375,-300.78125,1.0,0.0,0.0,1.0,7.m4v,7.0
2024-02-28 09:44:50.044593,1709109890.044593,-141.11328125,-29.296875,-36.62109375,-300.78125,1.0,0.0,0.0,1.0,7.m4v,7.0
2024-02-28 09:44:50.048498,1709109890.0484984,446.2890625,-23.4375,-31.73828125,963.37890625,1.0,0.0,0.0,1.0,7.m4v,7.0
2024-02-28 09:44:50.048498,1709109890.0484984,446.2890625,-23.4375,-31.73828125,963.37890625,1.0,0.0,0.0,1.0,7.m4v,7.0
2024-02-28 09:44:50.454725,1709109890.4547246,-33.203125,-32.71484375,-31.73828125,82.03125,1.0,0.0,0.0,1.0,7.m4v,7.0
2024-02-28 09:44:50.462535,1709109890.4625351,-401.3671875,-24.4140625,-32.2265625,-835.9375,1.0,0.0,0.0,1.0,7.m4v,7.0
2024-02-28 09:44:50.470346,1709109890.470346,549.31640625,-28.80859375,-36.62109375,999.51171875,1.0,0.0,0.0,1.0,7.m4v,7.0
2024-02-28 09:44:50.478157,1709109890.4781566,-508.30078125,-41.9921875,-39.0625,-987.79296875,1.0,0.0,0.0,1.0,7.m4v,7.0
2024-02-28 09:44:50.485967,1709109890.4859672,63.96484375,-32.71484375,-30.76171875,3.41796875,1.0,0.0,0.0,1.0,7.m4v,7.0
2024-02-28 09:44:50.493778,1709109890.4937778,149.90234375,-36.1328125,-49.31640625,376.953125,1.0,0.0,0.0,1.0,7.m4v,7.0
2024-02-28 09:44:50.501596,1709109890.501596,-500.0,-36.1328125,-33.203125,-1000.0,1.0,0.0,0.0,1.0,7.m4v,7.0
2024-02-28 09:44:50.509407,1709109890.5094066,556.640625,-25.87890625,-32.2265625,999.51171875,1.0,0.0,0.0,1.0,7.m4v,7.0
2024-02-28 09:44:50.517217,1709109890.5172172,-376.46484375,-21.484375,-40.0390625,-748.53515625,1.0,0.0,0.0,1.0,7.m4v,7.0
2024-02-28 09:44:50.525028,1709109890.5250278,-9.765625,-35.15625,-33.69140625,-112.79296875,1.0,0.0,0.0,1.0,7.m4v,7.0
2024-02-28 09:44:50.532838,1709109890.5328383,296.875,-27.83203125,-27.34375,662.109375,1.0,0.0,0.0,1.0,7.m4v,7.0
2024-02-28 09:44:50.540649,1709109890.540649,-596.19140625,-35.64453125,-30.2734375,-1000.0,1.0,0.0,0.0,1.0,7.m4v,7.0
2024-02-28 09:44:50.548466,1709109890.5484664,511.23046875,-32.71484375,-32.71484375,999.51171875,1.0,0.0,0.0,1.0,7.m4v,7.0
2024-02-28 09:44:50.556277,1709109890.556277,-273.92578125,-34.66796875,-46.38671875,-409.66796875,1.0,0.0,0.0,1.0,7.m4v,7.0
2024-02-28 09:44:50.564088,1709109890.5640876,-128.41796875,-38.0859375,-40.52734375,-294.921875,1.0,0.0,0.0,1.0,7.m4v,7.0
2024-02-28 09:44:50.571898,1709109890.5718982,378.90625,-30.76171875,-28.80859375,861.81640625,1.0,0.0,0.0,1.0,7.m4v,7.0
2024-02-28 09:44:50.579709,1709109890.5797088,-613.28125,-29.78515625,-23.4375,-1000.0,1.0,0.0,0.0,1.0,7.m4v,7.0
2024-02-28 09:44:50.587519,1709109890.5875194,396.97265625,-35.15625,-32.71484375,875.48828125,1.0,0.0,0.0,1.0,7.m4v,7.0
2024-02-28 09:44:50.595337,1709109890.5953372,-124.0234375,-38.57421875,-31.25,-45.8984375,1.0,0.0,0.0,1.0,7.m4v,7.0
2024-02-28 09:44:50.603148,1709109890.6031475,-307.12890625,-47.8515625,-41.50390625,-626.953125,1.0,0.0,0.0,1.0,7.m4v,7.0
2024-02-28 09:44:50.610958,1709109890.6109583,529.296875,-39.0625,-32.2265625,999.51171875,1.0,0.0,0.0,1.0,7.m4v,7.0
2024-02-28 09:44:50.618769,1709109890.618769,-568.84765625,-35.15625,-42.48046875,-1000.0,1.0,0.0,0.0,1.0,7.m4v,7.0
2024-02-28 09:44:50.626580,1709109890.6265795,164.0625,-28.3203125,-36.1328125,267.578125,1.0,0.0,0.0,1.0,7.m4v,7.0
2024-02-28 09:44:50.634390,1709109890.63439,23.92578125,-30.76171875,-25.87890625,163.0859375,1.0,0.0,0.0,1.0,7.m4v,7.0
2024-02-28 09:44:50.642207,1709109890.642207,-432.6171875,-33.69140625,-31.25,-895.5078125,1.0,0.0,0.0,1.0,7.m4v,7.0
2024-02-28 09:44:50.650017,1709109890.6500175,558.59375,-24.4140625,-37.59765625,999.51171875,1.0,0.0,0.0,1.0,7.m4v,7.0
2024-02-28 09:44:50.657828,1709109890.657828,-460.44921875,-30.76171875,-42.96875,-951.66015625,1.0,0.0,0.0,1.0,7.m4v,7.0
2024-02-28 09:44:50.665639,1709109890.6656387,63.4765625,-34.1796875,-33.69140625,-26.85546875,1.0,0.0,0.0,1.0,7.m4v,7.0
2024-02-28 09:44:50.806262,1709109890.8062618,179.6875,-39.0625,-33.69140625,349.609375,1.0,0.0,0.0,1.0,7.m4v,7.0
2024-02-28 09:44:50.810167,1709109890.810167,539.0625,-31.25,-37.59765625,999.51171875,1.0,0.0,0.0,1.0,7.m4v,7.0
2024-02-28 09:44:50.814072,1709109890.8140724,30.76171875,-35.15625,-42.96875,202.1484375,1.0,0.0,0.0,1.0,7.m4v,7.0
2024-02-28 09:44:50.817978,1709109890.8179777,-541.015625,-39.55078125,-43.9453125,-1000.0,1.0,0.0,0.0,1.0,7.m4v,7.0
2024-02-28 09:44:50.821883,1709109890.821883,-499.0234375,-32.71484375,-37.109375,-966.796875,1.0,0.0,0.0,1.0,7.m4v,7.0
2024-02-28 09:44:50.825796,1709109890.8257964,104.98046875,-30.2734375,-29.296875,152.34375,1.0,0.0,0.0,1.0,7.m4v,7.0
2024-02-28 09:44:50.829702,1709109890.8297017,543.9453125,-32.2265625,-29.296875,999.51171875,1.0,0.0,0.0,1.0,7.m4v,7.0
2024-02-28 09:44:50.833607,1709109890.833607,181.15234375,-30.76171875,-34.1796875,477.5390625,1.0,0.0,0.0,1.0,7.m4v,7.0
2024-02-28 09:44:50.837512,1709109890.8375125,-452.63671875,-36.1328125,-38.57421875,-836.42578125,1.0,0.0,0.0,1.0,7.m4v,7.0
2024-02-28 09:44:50.841418,1709109890.8414178,-583.984375,-42.48046875,-34.1796875,-1000.0,1.0,0.0,0.0,1.0,7.m4v,7.0
2024-02-28 09:44:50.845323,1709109890.845323,60.05859375,-37.59765625,-31.73828125,33.203125,1.0,0.0,0.0,1.0,7.m4v,7.0
2024-02-28 09:44:50.849228,1709109890.8492284,556.640625,-36.1328125,-31.25,999.51171875,1.0,0.0,0.0,1.0,7.m4v,7.0
2024-02-28 09:44:50.853134,1709109890.8531337,177.734375,-38.0859375,-31.25,442.3828125,1.0,0.0,0.0,1.0,7.m4v,7.0
2024-02-28 09:44:50.857039,1709109890.857039,-440.91796875,-37.59765625,-40.52734375,-862.3046875,1.0,0.0,0.0,1.0,7.m4v,7.0
2024-02-28 09:44:50.860944,1709109890.8609445,-549.31640625,-43.45703125,-38.57421875,-1000.0,1.0,0.0,0.0,1.0,7.m4v,7.0
2024-02-28 09:44:50.864850,1709109890.8648496,26.85546875,-37.109375,-29.296875,-42.48046875,1.0,0.0,0.0,1.0,7.m4v,7.0
2024-02-28 09:44:50.868755,1709109890.8687549,531.73828125,-25.87890625,-27.83203125,999.51171875,1.0,0.0,0.0,1.0,7.m4v,7.0
2024-02-28 09:44:50.872668,1709109890.8726678,226.07421875,-26.85546875,-34.66796875,583.0078125,1.0,0.0,0.0,1.0,7.m4v,7.0
2024-02-28 09:44:50.876573,1709109890.876573,-389.16015625,-28.80859375,-39.55078125,-711.9140625,1.0,0.0,0.0,1.0,7.m4v,7.0
2024-02-28 09:44:50.880478,1709109890.8804784,-562.98828125,-33.69140625,-31.25,-1000.0,1.0,0.0,0.0,1.0,7.m4v,7.0
2024-02-28 09:44:50.884384,1709109890.8843837,0.48828125,-35.64453125,-24.90234375,-91.796875,1.0,0.0,0.0,1.0,7.m4v,7.0
2024-02-28 09:44:50.888289,1709109890.888289,499.51171875,-29.78515625,-24.90234375,999.51171875,1.0,0.0,0.0,1.0,7.m4v,7.0
2024-02-28 09:44:50.892195,1709109890.8921945,290.52734375,-27.34375,-26.85546875,794.43359375,1.0,0.0,0.0,1.0,7.m4v,7.0
2024-02-28 09:44:50.896100,1709109890.8960998,-293.9453125,-26.3671875,-29.296875,-376.953125,1.0,0.0,0.0,1.0,7.m4v,7.0
2024-02-28 09:44:50.900005,1709109890.900005,-605.95703125,-30.2734375,-35.15625,-1000.0,1.0,0.0,0.0,1.0,7.m4v,7.0
2024-02-28 09:44:50.903910,1709109890.9039104,-206.54296875,-27.34375,-35.15625,-398.4375,1.0,0.0,0.0,1.0,7.m4v,7.0
2024-02-28 09:44:50.907816,1709109890.9078157,411.62109375,-21.97265625,-27.34375,926.26953125,1.0,0.0,0.0,1.0,7.m4v,7.0
2024-02-28 09:44:50.911721,1709109890.911721,437.5,-34.66796875,-27.83203125,948.2421875,1.0,0.0,0.0,1.0,7.m4v,7.0
2024-02-28 09:44:50.915626,1709109890.9156263,-200.1953125,-38.57421875,-30.2734375,-218.75,1.0,0.0,0.0,1.0,7.m4v,7.0
2024-02-28 09:44:50.919538,1709109890.9195385,-596.19140625,-32.71484375,-29.78515625,-1000.0,1.0,0.0,0.0,1.0,7.m4v,7.0
2024-02-28 09:44:50.923444,1709109890.9234438,-215.33203125,-32.71484375,-33.69140625,-448.2421875,1.0,0.0,0.0,1.0,7.m4v,7.0
2024-02-28 09:44:50.927349,1709109890.927349,389.6484375,-27.83203125,-35.64453125,889.16015625,1.0,0.0,0.0,1.0,7.m4v,7.0
2024-02-28 09:44:50.931254,1709109890.9312544,432.6171875,-31.73828125,-35.15625,984.375,1.0,0.0,0.0,1.0,7.m4v,7.0
2024-02-28 09:44:50.935160,1709109890.9351597,-204.1015625,-42.48046875,-38.57421875,-175.78125,1.0,0.0,0.0,1.0,7.m4v,7.0
2024-02-28 09:44:50.939065,1709109890.939065,-617.67578125,-34.66796875,-39.0625,-1000.0,1.0,0.0,0.0,1.0,7.m4v,7.0
2024-02-28 09:44:50.942970,1709109890.9429705,-191.89453125,-26.85546875,-31.25,-400.390625,1.0,0.0,0.0,1.0,7.m4v,7.0
2024-02-28 09:44:50.946876,1709109890.9468756,404.78515625,-33.203125,-20.99609375,894.53125,1.0,0.0,0.0,1.0,7.m4v,7.0
2024-02-28 09:44:50.950781,1709109890.9507809,452.1484375,-32.2265625,-24.4140625,999.51171875,1.0,0.0,0.0,1.0,7.m4v,7.0
2024-02-28 09:44:50.954686,1709109890.9546862,-149.4140625,-30.76171875,-33.69140625,-51.26953125,1.0,0.0,0.0,1.0,7.m4v,7.0
2024-02-28 09:44:50.958592,1709109890.9585917,-595.703125,-27.83203125,-30.76171875,-1000.0,1.0,0.0,0.0,1.0,7.m4v,7.0
2024-02-28 09:44:50.962497,1709109890.962497,-368.1640625,-26.3671875,-31.25,-770.5078125,1.0,0.0,0.0,1.0,7.m4v,7.0
2024-02-28 09:44:50.966408,1709109890.9664085,215.8203125,-34.1796875,-33.69140625,460.44921875,1.0,0.0,0.0,1.0,7.m4v,7.0
2024-02-28 09:44:50.970314,1709109890.9703138,534.1796875,-31.73828125,-32.71484375,999.51171875,1.0,0.0,0.0,1.0,7.m4v,7.0
2024-02-28 09:44:50.974219,1709109890.974219,-69.82421875,-32.2265625,-34.66796875,70.3125,1.0,0.0,0.0,1.0,7.m4v,7.0
2024-02-28 09:44:50.978125,1709109890.9781246,-605.46875,-41.50390625,-34.1796875,-1000.0,1.0,0.0,0.0,1.0,7.m4v,7.0
2024-02-28 09:44:50.982030,1709109890.98203,-407.2265625,-44.43359375,-33.69140625,-890.625,1.0,0.0,0.0,1.0,7.m4v,7.0
2024-02-28 09:44:50.985935,1709109890.9859352,202.63671875,-32.71484375,-31.25,275.87890625,1.0,0.0,0.0,1.0,7.m4v,7.0
2024-02-28 09:44:50.989841,1709109890.9898405,570.3125,-30.2734375,-34.1796875,999.51171875,1.0,0.0,0.0,1.0,7.m4v,7.0
2024-02-28 09:44:50.993746,1709109890.9937458,21.97265625,-36.62109375,-39.55078125,193.359375,1.0,0.0,0.0,1.0,7.m4v,7.0
2024-02-28 09:44:50.997651,1709109890.997651,-553.22265625,-37.109375,-35.64453125,-1000.0,1.0,0.0,0.0,1.0,7.m4v,7.0
2024-02-28 09:44:51.001556,1709109891.0015564,-477.5390625,-39.55078125,-32.71484375,-988.76953125,1.0,0.0,0.0,1.0,7.m4v,7.0
2024-02-28 09:44:51.005462,1709109891.0054617,110.3515625,-40.0390625,-39.0625,99.609375,1.0,0.0,0.0,1.0,7.m4v,7.0
2024-02-28 09:44:51.009367,1709109891.009367,551.26953125,-30.2734375,-38.0859375,999.51171875,1.0,0.0,0.0,1.0,7.m4v,7.0
2024-02-28 09:44:51.013279,1709109891.0132787,187.98828125,-23.4375,-38.0859375,429.6875,1.0,0.0,0.0,1.0,7.m4v,7.0
2024-02-28 09:44:51.017184,1709109891.017184,-425.29296875,-30.2734375,-33.203125,-876.46484375,1.0,0.0,0.0,1.0,7.m4v,7.0
2024-02-28 09:44:51.021089,1709109891.0210893,-520.99609375,-36.1328125,-25.390625,-1000.0,1.0,0.0,0.0,1.0,7.m4v,7.0
2024-02-28 09:44:51.024995,1709109891.0249946,70.3125,-32.71484375,-22.94921875,-12.6953125,1.0,0.0,0.0,1.0,7.m4v,7.0
2024-02-28 09:44:51.028900,1709109891.0289,564.94140625,-31.73828125,-23.92578125,999.51171875,1.0,0.0,0.0,1.0,7.m4v,7.0
2024-02-28 09:44:51.032805,1709109891.0328054,286.62109375,-35.64453125,-26.3671875,627.44140625,1.0,0.0,0.0,1.0,7.m4v,7.0
2024-02-28 09:44:51.489806,1709109891.4898057,536.62109375,-30.76171875,-32.2265625,999.51171875,1.0,0.0,0.0,1.0,7.m4v,7.0
2024-02-28 09:44:51.501522,1709109891.5015216,-401.85546875,-35.15625,-37.109375,-793.45703125,1.0,0.0,0.0,1.0,7.m4v,7.0
2024-02-28 09:44:51.513237,1709109891.5132377,20.99609375,-36.1328125,-28.80859375,205.078125,1.0,0.0,0.0,1.0,7.m4v,7.0
2024-02-28 09:44:51.524953,1709109891.5249534,119.140625,-34.66796875,-26.85546875,87.40234375,1.0,0.0,0.0,1.0,7.m4v,7.0
2024-02-28 09:44:51.536678,1709109891.5366778,-424.8046875,-25.87890625,-30.2734375,-839.35546875,1.0,0.0,0.0,1.0,7.m4v,7.0
2024-02-28 09:44:51.548394,1709109891.5483935,527.83203125,-22.94921875,-32.71484375,999.51171875,1.0,0.0,0.0,1.0,7.m4v,7.0
2024-02-28 09:44:51.560110,1709109891.56011,-600.09765625,-35.64453125,-32.2265625,-1000.0,1.0,0.0,0.0,1.0,7.m4v,7.0
2024-02-28 09:44:51.571826,1709109891.5718255,326.171875,-33.69140625,-26.85546875,733.88671875,1.0,0.0,0.0,1.0,7.m4v,7.0
2024-02-28 09:44:51.583550,1709109891.5835495,-117.1875,-40.0390625,-30.2734375,-266.11328125,1.0,0.0,0.0,1.0,7.m4v,7.0
2024-02-28 09:44:51.595266,1709109891.5952656,-205.56640625,-32.71484375,-37.59765625,-258.7890625,1.0,0.0,0.0,1.0,7.m4v,7.0
2024-02-28 09:44:51.606982,1709109891.6069815,396.97265625,-31.73828125,-38.57421875,903.80859375,1.0,0.0,0.0,1.0,7.m4v,7.0
2024-02-28 09:44:51.618698,1709109891.6186976,-618.1640625,-37.109375,-37.109375,-1000.0,1.0,0.0,0.0,1.0,7.m4v,7.0
2024-02-28 09:44:51.630421,1709109891.6304207,453.61328125,-29.78515625,-31.73828125,999.51171875,1.0,0.0,0.0,1.0,7.m4v,7.0
2024-02-28 09:44:51.642137,1709109891.6421366,-228.515625,-21.484375,-32.2265625,-525.87890625,1.0,0.0,0.0,1.0,7.m4v,7.0
2024-02-28 09:44:51.653852,1709109891.6538525,-129.39453125,-30.76171875,-37.59765625,-90.33203125,1.0,0.0,0.0,1.0,7.m4v,7.0
2024-02-28 09:44:51.665568,1709109891.6655684,208.49609375,-22.94921875,-40.52734375,297.36328125,1.0,0.0,0.0,1.0,7.m4v,7.0
2024-02-28 09:44:51.677292,1709109891.677292,-499.0234375,-23.92578125,-35.64453125,-1000.0,1.0,0.0,0.0,1.0,7.m4v,7.0
2024-02-28 09:44:51.689008,1709109891.689008,546.875,-26.3671875,-23.92578125,999.51171875,1.0,0.0,0.0,1.0,7.m4v,7.0
2024-02-28 09:44:51.700724,1709109891.700724,-517.08984375,-31.25,-35.64453125,-1000.0,1.0,0.0,0.0,1.0,7.m4v,7.0
2024-02-28 09:44:51.712440,1709109891.7124398,159.1796875,-27.34375,-37.109375,380.859375,1.0,0.0,0.0,1.0,7.m4v,7.0
2024-02-28 09:44:51.724162,1709109891.7241623,120.1171875,-26.85546875,-30.2734375,22.94921875,1.0,0.0,0.0,1.0,7.m4v,7.0
2024-02-28 09:44:51.735878,1709109891.7358782,-336.42578125,-27.34375,-32.71484375,-612.3046875,1.0,0.0,0.0,1.0,7.m4v,7.0
2024-02-28 09:44:51.747594,1709109891.7475944,451.66015625,-25.390625,-22.94921875,999.51171875,1.0,0.0,0.0,1.0,7.m4v,7.0
2024-02-28 09:44:51.759310,1709109891.7593102,-611.328125,-31.25,-28.80859375,-1000.0,1.0,0.0,0.0,1.0,7.m4v,7.0
2024-02-28 09:44:51.771032,1709109891.771032,359.375,-21.484375,-26.3671875,893.5546875,1.0,0.0,0.0,1.0,7.m4v,7.0
2024-02-28 09:44:51.782748,1709109891.782748,-145.5078125,-27.83203125,-27.83203125,-303.7109375,1.0,0.0,0.0,1.0,7.m4v,7.0
2024-02-28 09:44:51.794464,1709109891.794464,-161.62109375,-26.3671875,-25.390625,-112.3046875,1.0,0.0,0.0,1.0,7.m4v,7.0
2024-02-28 09:44:51.806180,1709109891.8061798,341.30859375,-21.484375,-30.2734375,720.21484375,1.0,0.0,0.0,1.0,7.m4v,7.0
2024-02-28 09:44:51.817901,1709109891.8179011,-564.94140625,-27.34375,-28.80859375,-1000.0,1.0,0.0,0.0,1.0,7.m4v,7.0
2024-02-28 09:44:51.829617,1709109891.829617,500.0,-20.01953125,-32.2265625,999.51171875,1.0,0.0,0.0,1.0,7.m4v,7.0
2024-02-28 09:44:51.841333,1709109891.841333,-458.984375,-26.85546875,-36.1328125,-872.0703125,1.0,0.0,0.0,1.0,7.m4v,7.0
2024-02-28 09:44:51.853049,1709109891.853049,67.3828125,-24.4140625,-38.0859375,270.01953125,1.0,0.0,0.0,1.0,7.m4v,7.0
2024-02-28 09:44:51.864774,1709109891.864774,138.671875,-24.90234375,-26.85546875,143.5546875,1.0,0.0,0.0,1.0,7.m4v,7.0
2024-02-28 09:44:51.876490,1709109891.87649,-485.3515625,-26.3671875,-23.92578125,-959.47265625,1.0,0.0,0.0,1.0,7.m4v,7.0
2024-02-28 09:44:51.888206,1709109891.8882058,513.18359375,-31.25,-36.1328125,999.51171875,1.0,0.0,0.0,1.0,7.m4v,7.0
2024-02-28 09:44:51.899922,1709109891.899922,-518.06640625,-23.92578125,-34.1796875,-1000.0,1.0,0.0,0.0,1.0,7.m4v,7.0
2024-02-28 09:44:51.911646,1709109891.9116464,282.71484375,-27.83203125,-41.015625,642.578125,1.0,0.0,0.0,1.0,7.m4v,7.0
2024-02-28 09:44:51.923362,1709109891.9233625,-47.8515625,-22.94921875,-33.69140625,-158.203125,1.0,0.0,0.0,1.0,7.m4v,7.0
2024-02-28 09:44:51.935078,1709109891.935078,-333.49609375,-30.2734375,-27.83203125,-560.546875,1.0,0.0,0.0,1.0,7.m4v,7.0
2024-02-28 09:44:51.946794,1709109891.9467945,472.16796875,-26.3671875,-38.57421875,999.51171875,1.0,0.0,0.0,1.0,7.m4v,7.0
2024-02-28 09:44:51.958519,1709109891.9585185,-590.33203125,-21.484375,-42.96875,-1000.0,1.0,0.0,0.0,1.0,7.m4v,7.0
2024-02-28 09:44:51.970234,1709109891.9702344,484.375,-11.71875,-33.203125,999.51171875,1.0,0.0,0.0,1.0,7.m4v,7.0
2024-02-28 09:44:51.981950,1709109891.9819503,-361.328125,-21.97265625,-39.0625,-792.48046875,1.0,0.0,0.0,1.0,7.m4v,7.0
2024-02-28 09:44:51.989761,1709109891.9897609,550.78125,-14.6484375,-28.80859375,999.51171875,1.0,0.0,0.0,1.0,7.m4v,7.0
2024-02-28 09:44:51.993666,1709109891.9936662,-39.0625,-14.16015625,-31.25,52.24609375,1.0,0.0,0.0,1.0,7.m4v,7.0
2024-02-28 09:44:51.997579,1709109891.997579,-559.08203125,-11.71875,-33.69140625,-1000.0,1.0,0.0,0.0,1.0,7.m4v,7.0
2024-02-28 09:44:52.001484,1709109892.0014844,-363.76953125,-10.7421875,-36.62109375,-770.01953125,1.0,0.0,0.0,1.0,7.m4v,7.0
2024-02-28 09:44:52.005390,1709109892.0053897,223.14453125,-10.25390625,-31.25,461.9140625,1.0,0.0,0.0,1.0,7.m4v,7.0
2024-02-28 09:44:52.009295,1709109892.009295,518.06640625,-3.90625,-27.34375,999.51171875,1.0,0.0,0.0,1.0,7.m4v,7.0
2024-02-28 09:44:52.013200,1709109892.0132003,18.06640625,-1.46484375,-27.34375,158.69140625,1.0,0.0,0.0,1.0,7.m4v,7.0
2024-02-28 09:44:52.017106,1709109892.0171056,-502.44140625,-5.37109375,-36.1328125,-1000.0,1.0,0.0,0.0,1.0,7.m4v,7.0
2024-02-28 09:44:52.021011,1709109892.021011,-391.6015625,-11.23046875,-42.96875,-880.859375,1.0,0.0,0.0,1.0,7.m4v,7.0
2024-02-28 09:44:52.024916,1709109892.0249164,193.359375,-9.765625,-36.1328125,298.828125,1.0,0.0,0.0,1.0,7.m4v,7.0
2024-02-28 09:44:52.028822,1709109892.0288217,528.3203125,-5.37109375,-38.0859375,999.51171875,1.0,0.0,0.0,1.0,7.m4v,7.0
2024-02-28 09:44:52.032727,1709109892.032727,74.70703125,-7.8125,-40.52734375,295.41015625,1.0,0.0,0.0,1.0,7.m4v,7.0
2024-02-28 09:44:52.036632,1709109892.0366323,-489.2578125,-9.27734375,-38.0859375,-982.91015625,1.0,0.0,0.0,1.0,7.m4v,7.0
2024-02-28 09:44:52.040538,1709109892.0405376,-482.421875,-9.765625,-36.1328125,-1000.0,1.0,0.0,0.0,1.0,7.m4v,7.0
2024-02-28 09:44:52.044450,1709109892.0444498,138.18359375,-6.8359375,-32.2265625,107.91015625,1.0,0.0,0.0,1.0,7.m4v,7.0
2024-02-28 09:44:52.048355,1709109892.048355,558.59375,-6.34765625,-31.73828125,999.51171875,1.0,0.0,0.0,1.0,7.m4v,7.0
2024-02-28 09:44:52.052261,1709109892.0522606,147.94921875,-8.30078125,-32.71484375,380.37109375,1.0,0.0,0.0,1.0,7.m4v,7.0
2024-02-28 09:44:52.056166,1709109892.056166,-449.21875,-10.25390625,-32.2265625,-925.29296875,1.0,0.0,0.0,1.0,7.m4v,7.0
2024-02-28 09:44:52.060071,1709109892.0600712,-531.73828125,-12.20703125,-36.62109375,-1000.0,1.0,0.0,0.0,1.0,7.m4v,7.0
2024-02-28 09:44:52.063977,1709109892.0639763,69.82421875,-7.32421875,-37.109375,28.80859375,1.0,0.0,0.0,1.0,7.m4v,7.0
2024-02-28 09:44:52.513160,1709109892.5131595,-90.33203125,-22.94921875,-36.1328125,48.33984375,1.0,0.0,0.0,1.0,7.m4v,7.0
2024-02-28 09:44:52.517065,1709109892.5170648,-608.3984375,-17.08984375,-35.15625,-1000.0,1.0,0.0,0.0,1.0,7.m4v,7.0
2024-02-28 09:44:52.520970,1709109892.52097,-386.23046875,-13.671875,-38.57421875,-797.8515625,1.0,0.0,0.0,1.0,7.m4v,7.0
2024-02-28 09:44:52.524875,1709109892.5248754,247.55859375,-14.6484375,-37.59765625,431.15234375,1.0,0.0,0.0,1.0,7.m4v,7.0
2024-02-28 09:44:52.528781,1709109892.5287807,547.36328125,-12.20703125,-31.25,999.51171875,1.0,0.0,0.0,1.0,7.m4v,7.0
2024-02-28 09:44:52.532686,1709109892.532686,48.828125,-11.71875,-32.71484375,213.8671875,1.0,0.0,0.0,1.0,7.m4v,7.0
2024-02-28 09:44:52.536592,1709109892.5365915,-530.76171875,-12.20703125,-27.83203125,-1000.0,1.0,0.0,0.0,1.0,7.m4v,7.0
2024-02-28 09:44:52.540497,1709109892.5404968,-480.95703125,-15.13671875,-21.97265625,-935.546875,1.0,0.0,0.0,1.0,7.m4v,7.0
2024-02-28 09:44:52.544402,1709109892.544402,139.6484375,-14.6484375,-26.3671875,225.09765625,1.0,0.0,0.0,1.0,7.m4v,7.0
2024-02-28 09:44:52.548307,1709109892.5483074,542.96875,-9.765625,-29.78515625,999.51171875,1.0,0.0,0.0,1.0,7.m4v,7.0
2024-02-28 09:44:52.552213,1709109892.5522127,78.125,-11.71875,-23.92578125,251.953125,1.0,0.0,0.0,1.0,7.m4v,7.0
2024-02-28 09:44:52.556118,1709109892.556118,-510.25390625,-19.53125,-22.4609375,-999.51171875,1.0,0.0,0.0,1.0,7.m4v,7.0
2024-02-28 09:44:52.560029,1709109892.5600288,-519.04296875,-24.90234375,-27.34375,-1000.0,1.0,0.0,0.0,1.0,7.m4v,7.0
2024-02-28 09:44:52.563934,1709109892.563934,66.40625,-23.92578125,-30.2734375,-2.9296875,1.0,0.0,0.0,1.0,7.m4v,7.0
2024-02-28 09:44:52.567839,1709109892.5678394,573.2421875,-20.99609375,-31.73828125,999.51171875,1.0,0.0,0.0,1.0,7.m4v,7.0
2024-02-28 09:44:52.571745,1709109892.571745,235.83984375,-20.99609375,-31.73828125,513.671875,1.0,0.0,0.0,1.0,7.m4v,7.0
2024-02-28 09:44:52.575650,1709109892.57565,-408.69140625,-22.94921875,-34.1796875,-812.01171875,1.0,0.0,0.0,1.0,7.m4v,7.0
2024-02-28 09:44:52.575650,1709109892.57565,-408.69140625,-22.94921875,-34.1796875,-812.01171875,1.0,0.0,0.0,1.0,7.m4v,7.0
2024-02-28 09:44:52.579555,1709109892.5795553,-532.71484375,-19.53125,-40.0390625,-1000.0,1.0,0.0,0.0,1.0,7.m4v,7.0
2024-02-28 09:44:52.579555,1709109892.5795553,-532.71484375,-19.53125,-40.0390625,-1000.0,1.0,0.0,0.0,1.0,7.m4v,7.0
2024-02-28 09:44:52.583461,1709109892.5834606,71.2890625,-13.18359375,-40.0390625,36.62109375,1.0,0.0,0.0,1.0,7.m4v,7.0
2024-02-28 09:44:52.583461,1709109892.5834606,71.2890625,-13.18359375,-40.0390625,36.62109375,1.0,0.0,0.0,1.0,7.m4v,7.0
2024-02-28 09:44:52.587366,1709109892.587366,514.6484375,-15.625,-32.71484375,999.51171875,1.0,0.0,0.0,1.0,7.m4v,7.0
2024-02-28 09:44:52.587366,1709109892.587366,514.6484375,-15.625,-32.71484375,999.51171875,1.0,0.0,0.0,1.0,7.m4v,7.0
2024-02-28 09:44:52.591271,1709109892.5912712,119.140625,-19.53125,-27.83203125,383.7890625,1.0,0.0,0.0,1.0,7.m4v,7.0
2024-02-28 09:44:52.591271,1709109892.5912712,119.140625,-19.53125,-27.83203125,383.7890625,1.0,0.0,0.0,1.0,7.m4v,7.0
2024-02-28 09:44:52.595176,1709109892.5951765,-461.9140625,-19.53125,-35.15625,-886.71875,1.0,0.0,0.0,1.0,7.m4v,7.0
2024-02-28 09:44:52.595176,1709109892.5951765,-461.9140625,-19.53125,-35.15625,-886.71875,1.0,0.0,0.0,1.0,7.m4v,7.0
2024-02-28 09:44:52.599082,1709109892.599082,-544.921875,-20.5078125,-40.0390625,-1000.0,1.0,0.0,0.0,1.0,7.m4v,7.0
2024-02-28 09:44:52.599082,1709109892.599082,-544.921875,-20.5078125,-40.0390625,-1000.0,1.0,0.0,0.0,1.0,7.m4v,7.0
2024-02-28 09:44:52.602987,1709109892.6029873,-41.50390625,-22.94921875,-32.71484375,-235.3515625,1.0,0.0,0.0,1.0,7.m4v,7.0
2024-02-28 09:44:52.602987,1709109892.6029873,-41.50390625,-22.94921875,-32.71484375,-235.3515625,1.0,0.0,0.0,1.0,7.m4v,7.0
2024-02-28 09:44:52.606902,1709109892.6069016,507.8125,-26.3671875,-24.90234375,999.51171875,1.0,0.0,0.0,1.0,7.m4v,7.0
2024-02-28 09:44:52.606902,1709109892.6069016,507.8125,-26.3671875,-24.90234375,999.51171875,1.0,0.0,0.0,1.0,7.m4v,7.0
2024-02-28 09:44:52.610807,1709109892.610807,314.453125,-27.83203125,-30.76171875,685.546875,1.0,0.0,0.0,1.0,7.m4v,7.0
2024-02-28 09:44:52.610807,1709109892.610807,314.453125,-27.83203125,-30.76171875,685.546875,1.0,0.0,0.0,1.0,7.m4v,7.0
2024-02-28 09:44:52.614712,1709109892.6147122,-328.125,-27.83203125,-34.1796875,-589.84375,1.0,0.0,0.0,1.0,7.m4v,7.0
2024-02-28 09:44:52.614712,1709109892.6147122,-328.125,-27.83203125,-34.1796875,-589.84375,1.0,0.0,0.0,1.0,7.m4v,7.0
2024-02-28 09:44:52.618618,1709109892.6186175,-584.47265625,-25.390625,-33.69140625,-1000.0,1.0,0.0,0.0,1.0,7.m4v,7.0
2024-02-28 09:44:52.618618,1709109892.6186175,-584.47265625,-25.390625,-33.69140625,-1000.0,1.0,0.0,0.0,1.0,7.m4v,7.0
2024-02-28 09:44:52.622523,1709109892.622523,-120.1171875,-23.92578125,-38.57421875,-329.1015625,1.0,0.0,0.0,1.0,7.m4v,7.0
2024-02-28 09:44:52.622523,1709109892.622523,-120.1171875,-23.92578125,-38.57421875,-329.1015625,1.0,0.0,0.0,1.0,7.m4v,7.0
2024-02-28 09:44:52.626428,1709109892.6264284,458.984375,-20.99609375,-36.1328125,973.14453125,1.0,0.0,0.0,1.0,7.m4v,7.0
2024-02-28 09:44:52.626428,1709109892.6264284,458.984375,-20.99609375,-36.1328125,973.14453125,1.0,0.0,0.0,1.0,7.m4v,7.0
2024-02-28 09:44:52.630334,1709109892.6303337,398.92578125,-19.04296875,-29.78515625,841.30859375,1.0,0.0,0.0,1.0,7.m4v,7.0
2024-02-28 09:44:52.630334,1709109892.6303337,398.92578125,-19.04296875,-29.78515625,841.30859375,1.0,0.0,0.0,1.0,7.m4v,7.0
2024-02-28 09:44:52.634239,1709109892.634239,-226.5625,-20.01953125,-33.203125,-345.703125,1.0,0.0,0.0,1.0,7.m4v,7.0
2024-02-28 09:44:52.634239,1709109892.634239,-226.5625,-20.01953125,-33.203125,-345.703125,1.0,0.0,0.0,1.0,7.m4v,7.0
2024-02-28 09:44:52.638144,1709109892.6381445,-561.5234375,-22.94921875,-36.62109375,-1000.0,1.0,0.0,0.0,1.0,7.m4v,7.0
2024-02-28 09:44:52.638144,1709109892.6381445,-561.5234375,-22.94921875,-36.62109375,-1000.0,1.0,0.0,0.0,1.0,7.m4v,7.0
2024-02-28 09:44:52.642050,1709109892.6420496,-205.078125,-21.484375,-40.0390625,-531.25,1.0,0.0,0.0,1.0,7.m4v,7.0
2024-02-28 09:44:52.642050,1709109892.6420496,-205.078125,-21.484375,-40.0390625,-531.25,1.0,0.0,0.0,1.0,7.m4v,7.0
2024-02-28 09:44:52.645955,1709109892.6459548,383.30078125,-18.5546875,-40.0390625,801.7578125,1.0,0.0,0.0,1.0,7.m4v,7.0
2024-02-28 09:44:52.645955,1709109892.6459548,383.30078125,-18.5546875,-40.0390625,801.7578125,1.0,0.0,0.0,1.0,7.m4v,7.0
2024-02-28 09:44:52.649860,1709109892.64986,470.21484375,-20.99609375,-33.69140625,999.51171875,1.0,0.0,0.0,1.0,7.m4v,7.0
2024-02-28 09:44:52.649860,1709109892.64986,470.21484375,-20.99609375,-33.69140625,999.51171875,1.0,0.0,0.0,1.0,7.m4v,7.0
2024-02-28 09:44:52.653774,1709109892.6537745,-167.96875,-25.390625,-29.78515625,-183.10546875,1.0,0.0,0.0,1.0,7.m4v,7.0
2024-02-28 09:44:52.653774,1709109892.6537745,-167.96875,-25.390625,-29.78515625,-183.10546875,1.0,0.0,0.0,1.0,7.m4v,7.0
2024-02-28 09:44:52.657680,1709109892.6576796,-583.984375,-24.4140625,-31.73828125,-1000.0,1.0,0.0,0.0,1.0,7.m4v,7.0
2024-02-28 09:44:52.657680,1709109892.6576796,-583.984375,-24.4140625,-31.73828125,-1000.0,1.0,0.0,0.0,1.0,7.m4v,7.0
2024-02-28 09:44:52.661585,1709109892.6615849,-300.78125,-20.99609375,-34.66796875,-612.79296875,1.0,0.0,0.0,1.0,7.m4v,7.0
2024-02-28 09:44:52.661585,1709109892.6615849,-300.78125,-20.99609375,-34.66796875,-612.79296875,1.0,0.0,0.0,1.0,7.m4v,7.0
2024-02-28 09:44:52.665490,1709109892.6654902,298.33984375,-17.08984375,-33.203125,687.5,1.0,0.0,0.0,1.0,7.m4v,7.0
2024-02-28 09:44:52.665490,1709109892.6654902,298.33984375,-17.08984375,-33.203125,687.5,1.0,0.0,0.0,1.0,7.m4v,7.0
2024-02-28 09:44:52.669395,1709109892.6693954,469.23828125,-16.6015625,-32.2265625,999.51171875,1.0,0.0,0.0,1.0,7.m4v,7.0
2024-02-28 09:44:52.669395,1709109892.6693954,469.23828125,-16.6015625,-32.2265625,999.51171875,1.0,0.0,0.0,1.0,7.m4v,7.0
2024-02-28 09:44:52.673301,1709109892.6733007,-95.21484375,-19.53125,-35.64453125,-31.73828125,1.0,0.0,0.0,1.0,7.m4v,7.0
2024-02-28 09:44:52.673301,1709109892.6733007,-95.21484375,-19.53125,-35.64453125,-31.73828125,1.0,0.0,0.0,1.0,7.m4v,7.0
2024-02-28 09:44:52.677206,1709109892.677206,-527.83203125,-16.6015625,-37.109375,-1000.0,1.0,0.0,0.0,1.0,7.m4v,7.0
2024-02-28 09:44:52.677206,1709109892.677206,-527.83203125,-16.6015625,-37.109375,-1000.0,1.0,0.0,0.0,1.0,7.m4v,7.0
2024-02-28 09:44:52.681111,1709109892.681111,-337.890625,-17.08984375,-36.62109375,-759.27734375,1.0,0.0,0.0,1.0,7.m4v,7.0
2024-02-28 09:44:52.681111,1709109892.681111,-337.890625,-17.08984375,-36.62109375,-759.27734375,1.0,0.0,0.0,1.0,7.m4v,7.0
2024-02-28 09:44:52.685017,1709109892.6850166,258.30078125,-16.6015625,-38.0859375,486.81640625,1.0,0.0,0.0,1.0,7.m4v,7.0
2024-02-28 09:44:52.685017,1709109892.6850166,258.30078125,-16.6015625,-38.0859375,486.81640625,1.0,0.0,0.0,1.0,7.m4v,7.0
2024-02-28 09:44:52.688922,1709109892.688922,532.2265625,-17.08984375,-38.0859375,999.51171875,1.0,0.0,0.0,1.0,7.m4v,7.0
2024-02-28 09:44:52.688922,1709109892.688922,532.2265625,-17.08984375,-38.0859375,999.51171875,1.0,0.0,0.0,1.0,7.m4v,7.0
2024-02-28 09:44:52.692827,1709109892.6928272,-24.90234375,-20.99609375,-35.64453125,72.265625,1.0,0.0,0.0,1.0,7.m4v,7.0
2024-02-28 09:44:52.692827,1709109892.6928272,-24.90234375,-20.99609375,-35.64453125,72.265625,1.0,0.0,0.0,1.0,7.m4v,7.0
2024-02-28 09:44:52.696733,1709109892.6967323,-541.015625,-21.97265625,-32.71484375,-1000.0,1.0,0.0,0.0,1.0,7.m4v,7.0
2024-02-28 09:44:52.696733,1709109892.6967323,-541.015625,-21.97265625,-32.71484375,-1000.0,1.0,0.0,0.0,1.0,7.m4v,7.0
2024-02-28 09:44:52.700646,1709109892.700646,-436.5234375,-21.97265625,-36.62109375,-898.92578125,1.0,0.0,0.0,1.0,7.m4v,7.0
2024-02-28 09:44:52.700646,1709109892.700646,-436.5234375,-21.97265625,-36.62109375,-898.92578125,1.0,0.0,0.0,1.0,7.m4v,7.0
2024-02-28 09:44:52.704551,1709109892.7045512,141.6015625,-21.484375,-37.109375,238.28125,1.0,0.0,0.0,1.0,7.m4v,7.0
2024-02-28 09:44:52.704551,1709109892.7045512,141.6015625,-21.484375,-37.109375,238.28125,1.0,0.0,0.0,1.0,7.m4v,7.0
2024-02-28 09:44:52.708457,1709109892.7084565,528.80859375,-16.6015625,-32.71484375,999.51171875,1.0,0.0,0.0,1.0,7.m4v,7.0
2024-02-28 09:44:52.708457,1709109892.7084565,528.80859375,-16.6015625,-32.71484375,999.51171875,1.0,0.0,0.0,1.0,7.m4v,7.0
2024-02-28 09:44:52.712362,1709109892.7123618,71.77734375,-15.625,-31.25,282.71484375,1.0,0.0,0.0,1.0,7.m4v,7.0
2024-02-28 09:44:52.712362,1709109892.7123618,71.77734375,-15.625,-31.25,282.71484375,1.0,0.0,0.0,1.0,7.m4v,7.0
2024-02-28 09:44:52.716267,1709109892.716267,-525.390625,-19.04296875,-33.69140625,-1000.0,1.0,0.0,0.0,1.0,7.m4v,7.0
2024-02-28 09:44:52.716267,1709109892.716267,-525.390625,-19.04296875,-33.69140625,-1000.0,1.0,0.0,0.0,1.0,7.m4v,7.0
2024-02-28 09:44:52.720173,1709109892.7201726,-473.6328125,-24.4140625,-37.109375,-878.41796875,1.0,0.0,0.0,1.0,7.m4v,7.0
2024-02-28 09:44:52.720173,1709109892.7201726,-473.6328125,-24.4140625,-37.109375,-878.41796875,1.0,0.0,0.0,1.0,7.m4v,7.0
2024-02-28 09:44:52.724078,1709109892.724078,172.8515625,-22.4609375,-34.1796875,356.93359375,1.0,0.0,0.0,1.0,7.m4v,7.0
2024-02-28 09:44:52.724078,1709109892.724078,172.8515625,-22.4609375,-34.1796875,356.93359375,1.0,0.0,0.0,1.0,7.m4v,7.0
2024-02-28 09:44:52.727983,1709109892.7279832,529.78515625,-17.08984375,-34.66796875,999.51171875,1.0,0.0,0.0,1.0,7.m4v,7.0
2024-02-28 09:44:52.727983,1709109892.7279832,529.78515625,-17.08984375,-34.66796875,999.51171875,1.0,0.0,0.0,1.0,7.m4v,7.0
2024-02-28 09:44:52.731889,1709109892.7318883,36.62109375,-22.94921875,-35.64453125,237.79296875,1.0,0.0,0.0,1.0,7.m4v,7.0
2024-02-28 09:44:52.731889,1709109892.7318883,36.62109375,-22.94921875,-35.64453125,237.79296875,1.0,0.0,0.0,1.0,7.m4v,7.0
2024-02-28 09:44:52.735794,1709109892.7357938,-539.55078125,-29.296875,-36.1328125,-996.58203125,1.0,0.0,0.0,1.0,7.m4v,7.0
2024-02-28 09:44:52.735794,1709109892.7357938,-539.55078125,-29.296875,-36.1328125,-996.58203125,1.0,0.0,0.0,1.0,7.m4v,7.0
2024-02-28 09:44:52.739699,1709109892.7396991,-529.296875,-26.85546875,-34.1796875,-1000.0,1.0,0.0,0.0,1.0,7.m4v,7.0
2024-02-28 09:44:52.739699,1709109892.7396991,-529.296875,-26.85546875,-34.1796875,-1000.0,1.0,0.0,0.0,1.0,7.m4v,7.0
2024-02-28 09:44:52.743604,1709109892.7436044,41.50390625,-21.484375,-30.2734375,-0.48828125,1.0,0.0,0.0,1.0,7.m4v,7.0
2024-02-28 09:44:52.743604,1709109892.7436044,41.50390625,-21.484375,-30.2734375,-0.48828125,1.0,0.0,0.0,1.0,7.m4v,7.0
2024-02-28 09:44:52.747517,1709109892.747517,501.953125,-20.5078125,-26.85546875,999.51171875,1.0,0.0,0.0,1.0,7.m4v,7.0
2024-02-28 09:44:52.747517,1709109892.747517,501.953125,-20.5078125,-26.85546875,999.51171875,1.0,0.0,0.0,1.0,7.m4v,7.0
2024-02-28 09:44:52.751423,1709109892.7514226,195.80078125,-20.01953125,-25.87890625,543.9453125,1.0,0.0,0.0,1.0,7.m4v,7.0
2024-02-28 09:44:52.751423,1709109892.7514226,195.80078125,-20.01953125,-25.87890625,543.9453125,1.0,0.0,0.0,1.0,7.m4v,7.0
2024-02-28 09:44:52.755328,1709109892.755328,-370.60546875,-22.4609375,-29.296875,-741.69921875,1.0,0.0,0.0,1.0,7.m4v,7.0
2024-02-28 09:44:52.755328,1709109892.755328,-370.60546875,-22.4609375,-29.296875,-741.69921875,1.0,0.0,0.0,1.0,7.m4v,7.0
2024-02-28 09:44:52.759233,1709109892.7592332,-544.921875,-30.2734375,-32.2265625,-1000.0,1.0,0.0,0.0,1.0,7.m4v,7.0
2024-02-28 09:44:52.759233,1709109892.7592332,-544.921875,-30.2734375,-32.2265625,-1000.0,1.0,0.0,0.0,1.0,7.m4v,7.0
2024-02-28 09:44:52.763139,1709109892.7631383,-0.48828125,-32.71484375,-26.3671875,-91.796875,1.0,0.0,0.0,1.0,7.m4v,7.0
2024-02-28 09:44:52.763139,1709109892.7631383,-0.48828125,-32.71484375,-26.3671875,-91.796875,1.0,0.0,0.0,1.0,7.m4v,7.0
2024-02-28 09:44:52.767044,1709109892.767044,562.01171875,-25.390625,-24.90234375,999.51171875,1.0,0.0,0.0,1.0,7.m4v,7.0
2024-02-28 09:44:52.767044,1709109892.767044,562.01171875,-25.390625,-24.90234375,999.51171875,1.0,0.0,0.0,1.0,7.m4v,7.0
2024-02-28 09:44:52.770949,1709109892.7709494,320.80078125,-19.53125,-33.203125,636.23046875,1.0,0.0,0.0,1.0,7.m4v,7.0
2024-02-28 09:44:52.770949,1709109892.7709494,320.80078125,-19.53125,-33.203125,636.23046875,1.0,0.0,0.0,1.0,7.m4v,7.0
2024-02-28 09:44:52.774855,1709109892.774855,-356.4453125,-27.34375,-33.203125,-630.37109375,1.0,0.0,0.0,1.0,7.m4v,7.0
2024-02-28 09:44:52.774855,1709109892.774855,-356.4453125,-27.34375,-33.203125,-630.37109375,1.0,0.0,0.0,1.0,7.m4v,7.0
2024-02-28 09:44:52.778760,1709109892.77876,-598.14453125,-30.76171875,-30.2734375,-1000.0,1.0,0.0,0.0,1.0,7.m4v,7.0
2024-02-28 09:44:52.778760,1709109892.77876,-598.14453125,-30.76171875,-30.2734375,-1000.0,1.0,0.0,0.0,1.0,7.m4v,7.0
2024-02-28 09:44:52.782665,1709109892.7826653,-110.83984375,-25.390625,-33.203125,-294.43359375,1.0,0.0,0.0,1.0,7.m4v,7.0
2024-02-28 09:44:52.782665,1709109892.7826653,-110.83984375,-25.390625,-33.203125,-294.43359375,1.0,0.0,0.0,1.0,7.m4v,7.0
2024-02-28 09:44:52.786571,1709109892.7865703,480.95703125,-21.484375,-31.73828125,999.51171875,1.0,0.0,0.0,1.0,7.m4v,7.0
2024-02-28 09:44:52.786571,1709109892.7865703,480.95703125,-21.484375,-31.73828125,999.51171875,1.0,0.0,0.0,1.0,7.m4v,7.0
2024-02-28 09:44:52.790476,1709109892.7904758,388.671875,-21.484375,-31.25,822.265625,1.0,0.0,0.0,1.0,7.m4v,7.0
2024-02-28 09:44:52.790476,1709109892.7904758,388.671875,-21.484375,-31.25,822.265625,1.0,0.0,0.0,1.0,7.m4v,7.0
2024-02-28 09:44:52.794388,1709109892.7943883,-244.140625,-23.92578125,-37.109375,-407.2265625,1.0,0.0,0.0,1.0,7.m4v,7.0
2024-02-28 09:44:52.794388,1709109892.7943883,-244.140625,-23.92578125,-37.109375,-407.2265625,1.0,0.0,0.0,1.0,7.m4v,7.0
2024-02-28 09:44:52.798294,1709109892.7982936,-564.453125,-22.94921875,-43.45703125,-1000.0,1.0,0.0,0.0,1.0,7.m4v,7.0
2024-02-28 09:44:52.798294,1709109892.7982936,-564.453125,-22.94921875,-43.45703125,-1000.0,1.0,0.0,0.0,1.0,7.m4v,7.0
2024-02-28 09:44:52.802199,1709109892.802199,-182.12890625,-24.4140625,-42.48046875,-416.9921875,1.0,0.0,0.0,1.0,7.m4v,7.0
2024-02-28 09:44:52.802199,1709109892.802199,-182.12890625,-24.4140625,-42.48046875,-416.9921875,1.0,0.0,0.0,1.0,7.m4v,7.0
2024-02-28 09:44:52.806104,1709109892.8061042,401.85546875,-29.296875,-39.0625,900.87890625,1.0,0.0,0.0,1.0,7.m4v,7.0
2024-02-28 09:44:52.806104,1709109892.8061042,401.85546875,-29.296875,-39.0625,900.87890625,1.0,0.0,0.0,1.0,7.m4v,7.0
2024-02-28 09:44:52.810009,1709109892.8100097,444.82421875,-29.296875,-41.015625,970.703125,1.0,0.0,0.0,1.0,7.m4v,7.0
2024-02-28 09:44:52.810009,1709109892.8100097,444.82421875,-29.296875,-41.015625,970.703125,1.0,0.0,0.0,1.0,7.m4v,7.0
2024-02-28 09:44:52.813915,1709109892.813915,-161.62109375,-30.76171875,-36.1328125,-186.03515625,1.0,0.0,0.0,1.0,7.m4v,7.0
2024-02-28 09:44:52.813915,1709109892.813915,-161.62109375,-30.76171875,-36.1328125,-186.03515625,1.0,0.0,0.0,1.0,7.m4v,7.0
2024-02-28 09:44:52.817820,1709109892.8178203,-578.125,-32.2265625,-34.66796875,-1000.0,1.0,0.0,0.0,1.0,7.m4v,7.0
2024-02-28 09:44:52.817820,1709109892.8178203,-578.125,-32.2265625,-34.66796875,-1000.0,1.0,0.0,0.0,1.0,7.m4v,7.0
2024-02-28 09:44:53.497462,1709109893.497462,-591.30859375,-36.62109375,-39.0625,-1000.0,1.0,0.0,0.0,1.0,7.m4v,7.0
2024-02-28 09:44:53.501367,1709109893.501367,-164.0625,-32.2265625,-38.57421875,-384.27734375,1.0,0.0,0.0,1.0,7.m4v,7.0
2024-02-28 09:44:53.505273,1709109893.5052726,429.6875,-32.71484375,-38.0859375,917.96875,1.0,0.0,0.0,1.0,7.m4v,7.0
2024-02-28 09:44:53.509178,1709109893.509178,450.68359375,-29.78515625,-39.55078125,991.2109375,1.0,0.0,0.0,1.0,7.m4v,7.0
2024-02-28 09:44:53.513083,1709109893.5130832,-177.734375,-27.34375,-38.0859375,-143.5546875,1.0,0.0,0.0,1.0,7.m4v,7.0
2024-02-28 09:44:53.516989,1709109893.5169885,-583.49609375,-22.94921875,-35.64453125,-1000.0,1.0,0.0,0.0,1.0,7.m4v,7.0
2024-02-28 09:44:53.520894,1709109893.5208938,-279.296875,-20.5078125,-35.64453125,-593.75,1.0,0.0,0.0,1.0,7.m4v,7.0
2024-02-28 09:44:53.524799,1709109893.524799,317.87109375,-26.3671875,-35.15625,720.703125,1.0,0.0,0.0,1.0,7.m4v,7.0
2024-02-28 09:44:53.528704,1709109893.5287044,483.3984375,-27.83203125,-31.73828125,999.51171875,1.0,0.0,0.0,1.0,7.m4v,7.0
2024-02-28 09:44:53.532610,1709109893.5326097,-144.04296875,-27.34375,-32.2265625,-88.8671875,1.0,0.0,0.0,1.0,7.m4v,7.0
2024-02-28 09:44:53.536515,1709109893.536515,-583.0078125,-27.83203125,-36.1328125,-1000.0,1.0,0.0,0.0,1.0,7.m4v,7.0
2024-02-28 09:44:53.540421,1709109893.5404203,-346.19140625,-28.80859375,-36.1328125,-750.0,1.0,0.0,0.0,1.0,7.m4v,7.0
2024-02-28 09:44:53.544333,1709109893.5443327,250.0,-25.87890625,-30.2734375,503.41796875,1.0,0.0,0.0,1.0,7.m4v,7.0
2024-02-28 09:44:53.548238,1709109893.548238,508.30078125,-23.92578125,-26.85546875,999.51171875,1.0,0.0,0.0,1.0,7.m4v,7.0
2024-02-28 09:44:53.552143,1709109893.552143,-81.0546875,-22.94921875,-30.76171875,38.57421875,1.0,0.0,0.0,1.0,7.m4v,7.0
2024-02-28 09:44:53.556049,1709109893.5560486,-573.2421875,-22.4609375,-30.2734375,-1000.0,1.0,0.0,0.0,1.0,7.m4v,7.0
2024-02-28 09:44:53.559954,1709109893.5599542,-344.7265625,-18.5546875,-27.34375,-747.55859375,1.0,0.0,0.0,1.0,7.m4v,7.0
2024-02-28 09:44:53.563859,1709109893.5638597,282.71484375,-7.8125,-26.3671875,512.6953125,1.0,0.0,0.0,1.0,7.m4v,7.0
2024-02-28 09:44:53.567765,1709109893.5677648,549.8046875,-15.13671875,-30.76171875,999.51171875,1.0,0.0,0.0,1.0,7.m4v,7.0
2024-02-28 09:44:53.571670,1709109893.57167,-41.50390625,-29.78515625,-35.15625,85.9375,1.0,0.0,0.0,1.0,7.m4v,7.0
2024-02-28 09:44:53.575575,1709109893.5755754,-559.5703125,-32.71484375,-27.83203125,-1000.0,1.0,0.0,0.0,1.0,7.m4v,7.0
2024-02-28 09:44:53.579481,1709109893.5794806,-444.3359375,-35.15625,-28.80859375,-966.30859375,1.0,0.0,0.0,1.0,7.m4v,7.0
2024-02-28 09:44:53.583386,1709109893.583386,139.16015625,-31.73828125,-27.83203125,121.58203125,1.0,0.0,0.0,1.0,7.m4v,7.0
2024-02-28 09:44:53.587291,1709109893.5872912,553.22265625,-30.76171875,-29.296875,999.51171875,1.0,0.0,0.0,1.0,7.m4v,7.0
2024-02-28 09:44:53.591204,1709109893.5912037,92.7734375,-30.2734375,-36.1328125,304.19921875,1.0,0.0,0.0,1.0,7.m4v,7.0
2024-02-28 09:44:53.595109,1709109893.595109,-470.21484375,-22.94921875,-35.15625,-974.609375,1.0,0.0,0.0,1.0,7.m4v,7.0
2024-02-28 09:44:53.599014,1709109893.5990143,-490.72265625,-24.90234375,-35.15625,-1000.0,1.0,0.0,0.0,1.0,7.m4v,7.0
2024-02-28 09:44:53.602920,1709109893.6029196,60.546875,-27.34375,-35.15625,2.44140625,1.0,0.0,0.0,1.0,7.m4v,7.0
2024-02-28 09:44:53.606825,1709109893.6068249,529.78515625,-24.4140625,-33.69140625,999.51171875,1.0,0.0,0.0,1.0,7.m4v,7.0
2024-02-28 09:44:53.610730,1709109893.6107302,216.796875,-25.87890625,-33.69140625,503.41796875,1.0,0.0,0.0,1.0,7.m4v,7.0
2024-02-28 09:44:53.614635,1709109893.6146357,-418.9453125,-32.71484375,-36.62109375,-771.484375,1.0,0.0,0.0,1.0,7.m4v,7.0
2024-02-28 09:44:53.618541,1709109893.6185408,-595.21484375,-35.64453125,-36.62109375,-1000.0,1.0,0.0,0.0,1.0,7.m4v,7.0
2024-02-28 09:44:53.622446,1709109893.6224463,-58.59375,-32.2265625,-39.0625,-229.98046875,1.0,0.0,0.0,1.0,7.m4v,7.0
2024-02-28 09:44:53.626352,1709109893.6263516,523.92578125,-25.87890625,-41.015625,999.51171875,1.0,0.0,0.0,1.0,7.m4v,7.0
2024-02-28 09:44:53.630257,1709109893.630257,336.42578125,-22.94921875,-36.1328125,650.390625,1.0,0.0,0.0,1.0,7.m4v,7.0
2024-02-28 09:44:53.634162,1709109893.6341622,-335.9375,-27.34375,-41.9921875,-645.01953125,1.0,0.0,0.0,1.0,7.m4v,7.0
2024-02-28 09:44:53.638073,1709109893.6380734,-583.984375,-27.83203125,-43.45703125,-1000.0,1.0,0.0,0.0,1.0,7.m4v,7.0
2024-02-28 09:44:53.641979,1709109893.6419787,-64.453125,-23.4375,-37.59765625,-229.98046875,1.0,0.0,0.0,1.0,7.m4v,7.0
2024-02-28 09:44:53.645884,1709109893.645884,508.7890625,-24.4140625,-40.0390625,999.51171875,1.0,0.0,0.0,1.0,7.m4v,7.0
2024-02-28 09:44:53.649789,1709109893.649789,350.09765625,-25.390625,-36.62109375,761.71875,1.0,0.0,0.0,1.0,7.m4v,7.0
2024-02-28 09:44:53.653695,1709109893.6536946,-303.22265625,-28.3203125,-30.76171875,-483.88671875,1.0,0.0,0.0,1.0,7.m4v,7.0
2024-02-28 09:44:53.657600,1709109893.6576,-602.5390625,-30.2734375,-28.3203125,-1000.0,1.0,0.0,0.0,1.0,7.m4v,7.0
2024-02-28 09:44:53.661505,1709109893.6615052,-142.08984375,-28.3203125,-28.3203125,-302.24609375,1.0,0.0,0.0,1.0,7.m4v,7.0
2024-02-28 09:44:53.665411,1709109893.6654105,454.1015625,-27.34375,-25.390625,999.51171875,1.0,0.0,0.0,1.0,7.m4v,7.0
2024-02-28 09:44:53.669316,1709109893.6693158,384.27734375,-26.85546875,-25.87890625,843.26171875,1.0,0.0,0.0,1.0,7.m4v,7.0
2024-02-28 09:44:53.673221,1709109893.673221,-273.92578125,-30.2734375,-32.2265625,-384.765625,1.0,0.0,0.0,1.0,7.m4v,7.0
2024-02-28 09:44:53.677126,1709109893.6771264,-613.28125,-32.71484375,-32.2265625,-1000.0,1.0,0.0,0.0,1.0,7.m4v,7.0
2024-02-28 09:44:53.681032,1709109893.681032,-187.5,-32.71484375,-34.1796875,-398.4375,1.0,0.0,0.0,1.0,7.m4v,7.0
2024-02-28 09:44:53.684942,1709109893.6849425,406.73828125,-26.3671875,-29.78515625,895.01953125,1.0,0.0,0.0,1.0,7.m4v,7.0
2024-02-28 09:44:53.688848,1709109893.6888478,432.12890625,-25.390625,-27.83203125,999.51171875,1.0,0.0,0.0,1.0,7.m4v,7.0
2024-02-28 09:44:53.692753,1709109893.692753,-172.8515625,-32.2265625,-33.203125,-82.03125,1.0,0.0,0.0,1.0,7.m4v,7.0
2024-02-28 09:44:53.696658,1709109893.6966584,-606.4453125,-28.3203125,-34.1796875,-1000.0,1.0,0.0,0.0,1.0,7.m4v,7.0
2024-02-28 09:44:53.700564,1709109893.7005637,-300.29296875,-27.34375,-35.15625,-603.515625,1.0,0.0,0.0,1.0,7.m4v,7.0
2024-02-28 09:44:53.704469,1709109893.7044692,322.265625,-31.25,-35.64453125,697.265625,1.0,0.0,0.0,1.0,7.m4v,7.0
2024-02-28 09:44:53.708375,1709109893.7083745,505.37109375,-31.25,-33.203125,999.51171875,1.0,0.0,0.0,1.0,7.m4v,7.0
2024-02-28 09:44:53.712280,1709109893.7122798,-96.19140625,-33.203125,-33.69140625,15.625,1.0,0.0,0.0,1.0,7.m4v,7.0
2024-02-28 09:44:53.716185,1709109893.716185,-592.28515625,-32.71484375,-33.69140625,-1000.0,1.0,0.0,0.0,1.0,7.m4v,7.0
2024-02-28 09:44:53.720090,1709109893.7200904,-376.953125,-33.203125,-33.203125,-764.6484375,1.0,0.0,0.0,1.0,7.m4v,7.0
2024-02-28 09:44:53.723996,1709109893.7239957,221.19140625,-36.1328125,-35.15625,472.16796875,1.0,0.0,0.0,1.0,7.m4v,7.0
2024-02-28 09:44:53.727901,1709109893.727901,498.53515625,-30.76171875,-33.203125,999.51171875,1.0,0.0,0.0,1.0,7.m4v,7.0
2024-02-28 09:44:53.731816,1709109893.7318156,-36.1328125,-34.1796875,-30.2734375,120.60546875,1.0,0.0,0.0,1.0,7.m4v,7.0
2024-02-28 09:44:53.735721,1709109893.7357209,-570.80078125,-36.1328125,-32.71484375,-1000.0,1.0,0.0,0.0,1.0,7.m4v,7.0
2024-02-28 09:44:53.739626,1709109893.7396262,-392.08984375,-27.83203125,-28.80859375,-791.9921875,1.0,0.0,0.0,1.0,7.m4v,7.0
2024-02-28 09:44:53.743531,1709109893.7435317,254.39453125,-24.90234375,-25.87890625,438.96484375,1.0,0.0,0.0,1.0,7.m4v,7.0
2024-02-28 09:44:53.747437,1709109893.7474368,543.9453125,-20.5078125,-31.25,999.51171875,1.0,0.0,0.0,1.0,7.m4v,7.0
2024-02-28 09:44:53.751342,1709109893.751342,110.3515625,-23.92578125,-31.73828125,351.07421875,1.0,0.0,0.0,1.0,7.m4v,7.0
2024-02-28 09:44:53.755247,1709109893.7552474,-475.09765625,-30.76171875,-34.1796875,-916.50390625,1.0,0.0,0.0,1.0,7.m4v,7.0
2024-02-28 09:44:53.759153,1709109893.759153,-549.31640625,-29.78515625,-38.57421875,-1000.0,1.0,0.0,0.0,1.0,7.m4v,7.0
2024-02-28 09:44:53.763058,1709109893.763058,41.015625,-25.390625,-34.66796875,0.48828125,1.0,0.0,0.0,1.0,7.m4v,7.0
2024-02-28 09:44:53.766963,1709109893.7669635,528.3203125,-25.87890625,-30.76171875,999.51171875,1.0,0.0,0.0,1.0,7.m4v,7.0
2024-02-28 09:44:53.770869,1709109893.7708688,132.32421875,-36.1328125,-34.1796875,404.78515625,1.0,0.0,0.0,1.0,7.m4v,7.0
2024-02-28 09:44:53.774774,1709109893.774774,-510.25390625,-41.015625,-39.55078125,-916.50390625,1.0,0.0,0.0,1.0,7.m4v,7.0
2024-02-28 09:44:53.778688,1709109893.778688,-549.31640625,-41.9921875,-40.52734375,-1000.0,1.0,0.0,0.0,1.0,7.m4v,7.0
2024-02-28 09:44:53.782593,1709109893.7825933,77.63671875,-38.57421875,-40.52734375,25.87890625,1.0,0.0,0.0,1.0,7.m4v,7.0
2024-02-28 09:44:53.786499,1709109893.7864983,549.31640625,-29.296875,-42.48046875,999.51171875,1.0,0.0,0.0,1.0,7.m4v,7.0
2024-02-28 09:44:53.790404,1709109893.7904038,221.6796875,-29.78515625,-38.0859375,537.59765625,1.0,0.0,0.0,1.0,7.m4v,7.0
2024-02-28 09:44:53.794309,1709109893.7943091,-397.94921875,-33.69140625,-33.69140625,-792.48046875,1.0,0.0,0.0,1.0,7.m4v,7.0
2024-02-28 09:44:53.798214,1709109893.7982144,-531.25,-34.1796875,-32.71484375,-1000.0,1.0,0.0,0.0,1.0,7.m4v,7.0
2024-02-28 09:44:53.802120,1709109893.8021195,78.61328125,-30.2734375,-29.296875,58.59375,1.0,0.0,0.0,1.0,7.m4v,7.0
2024-02-28 09:44:53.806025,1709109893.806025,513.18359375,-27.83203125,-30.76171875,999.51171875,1.0,0.0,0.0,1.0,7.m4v,7.0
2024-02-28 09:44:53.809931,1709109893.8099306,244.140625,-29.296875,-35.15625,619.62890625,1.0,0.0,0.0,1.0,7.m4v,7.0
2024-02-28 09:44:53.813836,1709109893.813836,-354.98046875,-27.83203125,-33.69140625,-633.30078125,1.0,0.0,0.0,1.0,7.m4v,7.0
2024-02-28 09:44:53.817741,1709109893.8177412,-604.00390625,-28.80859375,-28.3203125,-1000.0,1.0,0.0,0.0,1.0,7.m4v,7.0
2024-02-28 09:44:53.821646,1709109893.8216465,-88.8671875,-27.34375,-26.3671875,-238.76953125,1.0,0.0,0.0,1.0,7.m4v,7.0
2024-02-28 09:44:53.825560,1709109893.82556,495.1171875,-27.83203125,-27.83203125,999.51171875,1.0,0.0,0.0,1.0,7.m4v,7.0
2024-02-28 09:44:53.829465,1709109893.8294654,329.1015625,-27.83203125,-24.90234375,726.07421875,1.0,0.0,0.0,1.0,7.m4v,7.0
2024-02-28 09:44:53.833371,1709109893.8333707,-298.33984375,-26.85546875,-30.2734375,-532.71484375,1.0,0.0,0.0,1.0,7.m4v,7.0
2024-02-28 09:44:53.837276,1709109893.837276,-578.61328125,-30.76171875,-37.109375,-1000.0,1.0,0.0,0.0,1.0,7.m4v,7.0
2024-02-28 09:44:53.841181,1709109893.8411813,-145.5078125,-32.2265625,-34.66796875,-331.0546875,1.0,0.0,0.0,1.0,7.m4v,7.0
2024-02-28 09:44:53.845087,1709109893.8450866,446.2890625,-26.85546875,-31.25,953.61328125,1.0,0.0,0.0,1.0,7.m4v,7.0
2024-02-28 09:44:53.848992,1709109893.848992,449.70703125,-20.01953125,-29.78515625,973.6328125,1.0,0.0,0.0,1.0,7.m4v,7.0
2024-02-28 09:44:53.852897,1709109893.8528972,-178.22265625,-23.4375,-28.3203125,-161.1328125,1.0,0.0,0.0,1.0,7.m4v,7.0
2024-02-28 09:44:53.856802,1709109893.8568025,-617.1875,-29.296875,-31.25,-1000.0,1.0,0.0,0.0,1.0,7.m4v,7.0
2024-02-28 09:44:53.860708,1709109893.8607078,-280.2734375,-27.83203125,-27.83203125,-573.73046875,1.0,0.0,0.0,1.0,7.m4v,7.0
2024-02-28 09:44:53.864613,1709109893.864613,354.98046875,-26.3671875,-25.87890625,747.0703125,1.0,0.0,0.0,1.0,7.m4v,7.0
2024-02-28 09:44:53.868518,1709109893.8685184,505.859375,-29.78515625,-30.2734375,999.51171875,1.0,0.0,0.0,1.0,7.m4v,7.0
2024-02-28 09:44:53.872432,1709109893.8724315,-126.953125,-34.1796875,-36.62109375,-79.1015625,1.0,0.0,0.0,1.0,7.m4v,7.0
2024-02-28 09:44:53.876337,1709109893.8763368,-593.26171875,-33.69140625,-40.0390625,-1000.0,1.0,0.0,0.0,1.0,7.m4v,7.0
2024-02-28 09:44:53.880242,1709109893.880242,-313.96484375,-31.73828125,-35.15625,-666.015625,1.0,0.0,0.0,1.0,7.m4v,7.0
2024-02-28 09:44:53.884147,1709109893.8841474,312.01171875,-28.80859375,-33.69140625,636.23046875,1.0,0.0,0.0,1.0,7.m4v,7.0
2024-02-28 09:44:53.888053,1709109893.8880527,491.2109375,-29.296875,-29.78515625,999.51171875,1.0,0.0,0.0,1.0,7.m4v,7.0
2024-02-28 09:44:53.891958,1709109893.891958,-96.19140625,-30.2734375,-25.390625,-46.38671875,1.0,0.0,0.0,1.0,7.m4v,7.0
2024-02-28 09:44:53.895863,1709109893.8958633,-551.7578125,-29.78515625,-30.2734375,-1000.0,1.0,0.0,0.0,1.0,7.m4v,7.0
2024-02-28 09:44:53.899769,1709109893.8997686,-376.953125,-35.64453125,-35.15625,-829.1015625,1.0,0.0,0.0,1.0,7.m4v,7.0
2024-02-28 09:44:53.903674,1709109893.903674,206.0546875,-30.2734375,-30.76171875,373.046875,1.0,0.0,0.0,1.0,7.m4v,7.0
2024-02-28 09:44:53.907579,1709109893.9075792,532.2265625,-25.87890625,-29.78515625,999.51171875,1.0,0.0,0.0,1.0,7.m4v,7.0
2024-02-28 09:44:53.911485,1709109893.9114847,-17.08984375,-29.78515625,-28.80859375,146.484375,1.0,0.0,0.0,1.0,7.m4v,7.0
2024-02-28 09:44:53.911485,1709109893.9114847,-17.08984375,-29.78515625,-28.80859375,146.484375,1.0,0.0,0.0,1.0,7.m4v,7.0
2024-02-28 09:44:53.915390,1709109893.91539,-587.890625,-35.15625,-34.1796875,-1000.0,1.0,0.0,0.0,1.0,7.m4v,7.0
2024-02-28 09:44:53.915390,1709109893.91539,-587.890625,-35.15625,-34.1796875,-1000.0,1.0,0.0,0.0,1.0,7.m4v,7.0
2024-02-28 09:44:53.919302,1709109893.9193022,-454.1015625,-34.1796875,-39.55078125,-917.48046875,1.0,0.0,0.0,1.0,7.m4v,7.0
2024-02-28 09:44:53.919302,1709109893.9193022,-454.1015625,-34.1796875,-39.55078125,-917.48046875,1.0,0.0,0.0,1.0,7.m4v,7.0
2024-02-28 09:44:53.923208,1709109893.9232075,165.0390625,-27.83203125,-33.69140625,233.88671875,1.0,0.0,0.0,1.0,7.m4v,7.0
2024-02-28 09:44:53.923208,1709109893.9232075,165.0390625,-27.83203125,-33.69140625,233.88671875,1.0,0.0,0.0,1.0,7.m4v,7.0
2024-02-28 09:44:53.927113,1709109893.9271128,553.22265625,-26.3671875,-34.1796875,999.51171875,1.0,0.0,0.0,1.0,7.m4v,7.0
2024-02-28 09:44:53.927113,1709109893.9271128,553.22265625,-26.3671875,-34.1796875,999.51171875,1.0,0.0,0.0,1.0,7.m4v,7.0
2024-02-28 09:44:53.931018,1709109893.9310184,75.68359375,-29.78515625,-36.62109375,277.34375,1.0,0.0,0.0,1.0,7.m4v,7.0
2024-02-28 09:44:53.931018,1709109893.9310184,75.68359375,-29.78515625,-36.62109375,277.34375,1.0,0.0,0.0,1.0,7.m4v,7.0
2024-02-28 09:44:53.934924,1709109893.9349236,-521.97265625,-35.15625,-41.015625,-1000.0,1.0,0.0,0.0,1.0,7.m4v,7.0
2024-02-28 09:44:53.934924,1709109893.9349236,-521.97265625,-35.15625,-41.015625,-1000.0,1.0,0.0,0.0,1.0,7.m4v,7.0
2024-02-28 09:44:53.938829,1709109893.938829,-458.0078125,-31.25,-46.38671875,-908.203125,1.0,0.0,0.0,1.0,7.m4v,7.0
2024-02-28 09:44:53.938829,1709109893.938829,-458.0078125,-31.25,-46.38671875,-908.203125,1.0,0.0,0.0,1.0,7.m4v,7.0
2024-02-28 09:44:53.942734,1709109893.9427342,172.36328125,-27.83203125,-39.0625,296.875,1.0,0.0,0.0,1.0,7.m4v,7.0
2024-02-28 09:44:53.942734,1709109893.9427342,172.36328125,-27.83203125,-39.0625,296.875,1.0,0.0,0.0,1.0,7.m4v,7.0
2024-02-28 09:44:53.946640,1709109893.9466395,527.83203125,-32.2265625,-30.76171875,999.51171875,1.0,0.0,0.0,1.0,7.m4v,7.0
2024-02-28 09:44:53.946640,1709109893.9466395,527.83203125,-32.2265625,-30.76171875,999.51171875,1.0,0.0,0.0,1.0,7.m4v,7.0
2024-02-28 09:44:53.950545,1709109893.9505448,76.171875,-35.64453125,-29.78515625,288.57421875,1.0,0.0,0.0,1.0,7.m4v,7.0
2024-02-28 09:44:53.950545,1709109893.9505448,76.171875,-35.64453125,-29.78515625,288.57421875,1.0,0.0,0.0,1.0,7.m4v,7.0
2024-02-28 09:44:53.954450,1709109893.95445,-467.28515625,-33.203125,-34.1796875,-947.265625,1.0,0.0,0.0,1.0,7.m4v,7.0
2024-02-28 09:44:53.954450,1709109893.95445,-467.28515625,-33.203125,-34.1796875,-947.265625,1.0,0.0,0.0,1.0,7.m4v,7.0
2024-02-28 09:44:53.958355,1709109893.9583554,-517.08984375,-29.78515625,-38.57421875,-1000.0,1.0,0.0,0.0,1.0,7.m4v,7.0
2024-02-28 09:44:53.958355,1709109893.9583554,-517.08984375,-29.78515625,-38.57421875,-1000.0,1.0,0.0,0.0,1.0,7.m4v,7.0
2024-02-28 09:44:53.962261,1709109893.9622607,-3.90625,-27.83203125,-32.71484375,-140.13671875,1.0,0.0,0.0,1.0,7.m4v,7.0
2024-02-28 09:44:53.962261,1709109893.9622607,-3.90625,-27.83203125,-32.71484375,-140.13671875,1.0,0.0,0.0,1.0,7.m4v,7.0
2024-02-28 09:44:53.966173,1709109893.9661727,534.66796875,-26.85546875,-25.390625,999.51171875,1.0,0.0,0.0,1.0,7.m4v,7.0
2024-02-28 09:44:53.966173,1709109893.9661727,534.66796875,-26.85546875,-25.390625,999.51171875,1.0,0.0,0.0,1.0,7.m4v,7.0
2024-02-28 09:44:53.970078,1709109893.970078,280.2734375,-25.390625,-25.87890625,616.2109375,1.0,0.0,0.0,1.0,7.m4v,7.0
2024-02-28 09:44:53.970078,1709109893.970078,280.2734375,-25.390625,-25.87890625,616.2109375,1.0,0.0,0.0,1.0,7.m4v,7.0
2024-02-28 09:44:53.973983,1709109893.9739833,-347.16796875,-27.34375,-26.3671875,-675.29296875,1.0,0.0,0.0,1.0,7.m4v,7.0
2024-02-28 09:44:53.973983,1709109893.9739833,-347.16796875,-27.34375,-26.3671875,-675.29296875,1.0,0.0,0.0,1.0,7.m4v,7.0
2024-02-28 09:44:53.977889,1709109893.9778886,-562.5,-35.15625,-29.296875,-1000.0,1.0,0.0,0.0,1.0,7.m4v,7.0
2024-02-28 09:44:53.977889,1709109893.9778886,-562.5,-35.15625,-29.296875,-1000.0,1.0,0.0,0.0,1.0,7.m4v,7.0
2024-02-28 09:44:53.981794,1709109893.981794,-36.62109375,-36.1328125,-33.203125,-144.04296875,1.0,0.0,0.0,1.0,7.m4v,7.0
2024-02-28 09:44:53.981794,1709109893.981794,-36.62109375,-36.1328125,-33.203125,-144.04296875,1.0,0.0,0.0,1.0,7.m4v,7.0
2024-02-28 09:44:53.985699,1709109893.9856992,522.94921875,-29.78515625,-30.76171875,999.51171875,1.0,0.0,0.0,1.0,7.m4v,7.0
2024-02-28 09:44:53.985699,1709109893.9856992,522.94921875,-29.78515625,-30.76171875,999.51171875,1.0,0.0,0.0,1.0,7.m4v,7.0
2024-02-28 09:44:53.989604,1709109893.9896045,328.61328125,-35.64453125,-33.69140625,732.91015625,1.0,0.0,0.0,1.0,7.m4v,7.0
2024-02-28 09:44:53.989604,1709109893.9896045,328.61328125,-35.64453125,-33.69140625,732.91015625,1.0,0.0,0.0,1.0,7.m4v,7.0
2024-02-28 09:44:53.993510,1709109893.9935098,-333.984375,-41.50390625,-39.55078125,-519.04296875,1.0,0.0,0.0,1.0,7.m4v,7.0
2024-02-28 09:44:53.993510,1709109893.9935098,-333.984375,-41.50390625,-39.55078125,-519.04296875,1.0,0.0,0.0,1.0,7.m4v,7.0
2024-02-28 09:44:53.997415,1709109893.997415,-627.44140625,-36.1328125,-37.59765625,-1000.0,1.0,0.0,0.0,1.0,7.m4v,7.0
2024-02-28 09:44:53.997415,1709109893.997415,-627.44140625,-36.1328125,-37.59765625,-1000.0,1.0,0.0,0.0,1.0,7.m4v,7.0
2024-02-28 09:44:54.001320,1709109894.0013204,-135.25390625,-31.73828125,-35.15625,-262.20703125,1.0,0.0,0.0,1.0,7.m4v,7.0
2024-02-28 09:44:54.001320,1709109894.0013204,-135.25390625,-31.73828125,-35.15625,-262.20703125,1.0,0.0,0.0,1.0,7.m4v,7.0
2024-02-28 09:44:54.005226,1709109894.0052257,456.0546875,-27.34375,-40.0390625,999.51171875,1.0,0.0,0.0,1.0,7.m4v,7.0
2024-02-28 09:44:54.005226,1709109894.0052257,456.0546875,-27.34375,-40.0390625,999.51171875,1.0,0.0,0.0,1.0,7.m4v,7.0
2024-02-28 09:44:54.009131,1709109894.0091312,352.5390625,-29.296875,-41.015625,871.58203125,1.0,0.0,0.0,1.0,7.m4v,7.0
2024-02-28 09:44:54.009131,1709109894.0091312,352.5390625,-29.296875,-41.015625,871.58203125,1.0,0.0,0.0,1.0,7.m4v,7.0
2024-02-28 09:44:54.013043,1709109894.013043,-271.484375,-33.69140625,-37.109375,-312.98828125,1.0,0.0,0.0,1.0,7.m4v,7.0
2024-02-28 09:44:54.013043,1709109894.013043,-271.484375,-33.69140625,-37.109375,-312.98828125,1.0,0.0,0.0,1.0,7.m4v,7.0
2024-02-28 09:44:54.016948,1709109894.0169482,-611.328125,-31.25,-39.0625,-1000.0,1.0,0.0,0.0,1.0,7.m4v,7.0
2024-02-28 09:44:54.016948,1709109894.0169482,-611.328125,-31.25,-39.0625,-1000.0,1.0,0.0,0.0,1.0,7.m4v,7.0
2024-02-28 09:44:54.020854,1709109894.0208535,-197.265625,-22.94921875,-39.55078125,-393.5546875,1.0,0.0,0.0,1.0,7.m4v,7.0
2024-02-28 09:44:54.020854,1709109894.0208535,-197.265625,-22.94921875,-39.55078125,-393.5546875,1.0,0.0,0.0,1.0,7.m4v,7.0
2024-02-28 09:44:54.024759,1709109894.024759,402.34375,-21.97265625,-37.59765625,898.92578125,1.0,0.0,0.0,1.0,7.m4v,7.0
2024-02-28 09:44:54.024759,1709109894.024759,402.34375,-21.97265625,-37.59765625,898.92578125,1.0,0.0,0.0,1.0,7.m4v,7.0
2024-02-28 09:44:54.028664,1709109894.0286644,463.37890625,-24.4140625,-30.2734375,999.51171875,1.0,0.0,0.0,1.0,7.m4v,7.0
2024-02-28 09:44:54.028664,1709109894.0286644,463.37890625,-24.4140625,-30.2734375,999.51171875,1.0,0.0,0.0,1.0,7.m4v,7.0
2024-02-28 09:44:54.032570,1709109894.0325696,-88.37890625,-25.87890625,-27.34375,-61.5234375,1.0,0.0,0.0,1.0,7.m4v,7.0
2024-02-28 09:44:54.032570,1709109894.0325696,-88.37890625,-25.87890625,-27.34375,-61.5234375,1.0,0.0,0.0,1.0,7.m4v,7.0
2024-02-28 09:44:54.036475,1709109894.036475,-565.4296875,-32.71484375,-29.78515625,-1000.0,1.0,0.0,0.0,1.0,7.m4v,7.0
2024-02-28 09:44:54.036475,1709109894.036475,-565.4296875,-32.71484375,-29.78515625,-1000.0,1.0,0.0,0.0,1.0,7.m4v,7.0
2024-02-28 09:44:54.040380,1709109894.0403802,-342.7734375,-37.109375,-34.1796875,-642.578125,1.0,0.0,0.0,1.0,7.m4v,7.0
2024-02-28 09:44:54.040380,1709109894.0403802,-342.7734375,-37.109375,-34.1796875,-642.578125,1.0,0.0,0.0,1.0,7.m4v,7.0
2024-02-28 09:44:54.044286,1709109894.0442855,288.57421875,-28.80859375,-31.73828125,640.625,1.0,0.0,0.0,1.0,7.m4v,7.0
2024-02-28 09:44:54.044286,1709109894.0442855,288.57421875,-28.80859375,-31.73828125,640.625,1.0,0.0,0.0,1.0,7.m4v,7.0
2024-02-28 09:44:54.048191,1709109894.0481908,520.5078125,-29.296875,-32.2265625,999.51171875,1.0,0.0,0.0,1.0,7.m4v,7.0
2024-02-28 09:44:54.048191,1709109894.0481908,520.5078125,-29.296875,-32.2265625,999.51171875,1.0,0.0,0.0,1.0,7.m4v,7.0
2024-02-28 09:44:54.052096,1709109894.052096,-61.03515625,-33.69140625,-37.109375,75.68359375,1.0,0.0,0.0,1.0,7.m4v,7.0
2024-02-28 09:44:54.052096,1709109894.052096,-61.03515625,-33.69140625,-37.109375,75.68359375,1.0,0.0,0.0,1.0,7.m4v,7.0
2024-02-28 09:44:54.056001,1709109894.0560014,-593.75,-33.203125,-37.59765625,-1000.0,1.0,0.0,0.0,1.0,7.m4v,7.0
2024-02-28 09:44:54.056001,1709109894.0560014,-593.75,-33.203125,-37.59765625,-1000.0,1.0,0.0,0.0,1.0,7.m4v,7.0
2024-02-28 09:44:54.059912,1709109894.0599122,-386.71875,-33.203125,-41.015625,-774.90234375,1.0,0.0,0.0,1.0,7.m4v,7.0
2024-02-28 09:44:54.059912,1709109894.0599122,-386.71875,-33.203125,-41.015625,-774.90234375,1.0,0.0,0.0,1.0,7.m4v,7.0
2024-02-28 09:44:54.063818,1709109894.0638175,231.4453125,-34.66796875,-36.62109375,479.00390625,1.0,0.0,0.0,1.0,7.m4v,7.0
2024-02-28 09:44:54.063818,1709109894.0638175,231.4453125,-34.66796875,-36.62109375,479.00390625,1.0,0.0,0.0,1.0,7.m4v,7.0
2024-02-28 09:44:54.067723,1709109894.0677228,527.83203125,-33.203125,-30.2734375,999.51171875,1.0,0.0,0.0,1.0,7.m4v,7.0
2024-02-28 09:44:54.067723,1709109894.0677228,527.83203125,-33.203125,-30.2734375,999.51171875,1.0,0.0,0.0,1.0,7.m4v,7.0
2024-02-28 09:44:54.071628,1709109894.071628,-15.625,-34.66796875,-33.69140625,86.42578125,1.0,0.0,0.0,1.0,7.m4v,7.0
2024-02-28 09:44:54.071628,1709109894.071628,-15.625,-34.66796875,-33.69140625,86.42578125,1.0,0.0,0.0,1.0,7.m4v,7.0
2024-02-28 09:44:54.075533,1709109894.0755334,-565.4296875,-36.1328125,-38.0859375,-1000.0,1.0,0.0,0.0,1.0,7.m4v,7.0
2024-02-28 09:44:54.075533,1709109894.0755334,-565.4296875,-36.1328125,-38.0859375,-1000.0,1.0,0.0,0.0,1.0,7.m4v,7.0
2024-02-28 09:44:54.079439,1709109894.0794387,-391.6015625,-34.66796875,-43.9453125,-746.58203125,1.0,0.0,0.0,1.0,7.m4v,7.0
2024-02-28 09:44:54.079439,1709109894.0794387,-391.6015625,-34.66796875,-43.9453125,-746.58203125,1.0,0.0,0.0,1.0,7.m4v,7.0
2024-02-28 09:44:54.083344,1709109894.0833442,224.609375,-32.2265625,-45.8984375,511.23046875,1.0,0.0,0.0,1.0,7.m4v,7.0
2024-02-28 09:44:54.087250,1709109894.0872495,505.859375,-29.78515625,-41.9921875,999.51171875,1.0,0.0,0.0,1.0,7.m4v,7.0
2024-02-28 09:44:54.091155,1709109894.0911548,-41.9921875,-29.296875,-34.66796875,104.98046875,1.0,0.0,0.0,1.0,7.m4v,7.0
2024-02-28 09:44:54.095060,1709109894.09506,-560.546875,-28.3203125,-27.83203125,-1000.0,1.0,0.0,0.0,1.0,7.m4v,7.0
2024-02-28 09:44:54.098965,1709109894.0989654,-447.265625,-31.73828125,-33.203125,-959.47265625,1.0,0.0,0.0,1.0,7.m4v,7.0
2024-02-28 09:44:54.102871,1709109894.1028707,135.7421875,-27.83203125,-36.62109375,136.71875,1.0,0.0,0.0,1.0,7.m4v,7.0
2024-02-28 09:44:54.106785,1709109894.1067853,557.12890625,-21.484375,-32.2265625,999.51171875,1.0,0.0,0.0,1.0,7.m4v,7.0
2024-02-28 09:44:54.110691,1709109894.1106908,118.1640625,-23.92578125,-33.69140625,364.74609375,1.0,0.0,0.0,1.0,7.m4v,7.0
2024-02-28 09:44:54.114596,1709109894.114596,-462.40234375,-27.34375,-36.62109375,-925.78125,1.0,0.0,0.0,1.0,7.m4v,7.0
2024-02-28 09:44:54.118501,1709109894.1185014,-522.94921875,-31.73828125,-38.0859375,-1000.0,1.0,0.0,0.0,1.0,7.m4v,7.0
2024-02-28 09:44:54.122407,1709109894.1224067,42.96875,-28.80859375,-42.48046875,-25.87890625,1.0,0.0,0.0,1.0,7.m4v,7.0
2024-02-28 09:44:54.126312,1709109894.126312,556.15234375,-24.90234375,-40.0390625,999.51171875,1.0,0.0,0.0,1.0,7.m4v,7.0
2024-02-28 09:44:54.130217,1709109894.1302173,187.98828125,-29.78515625,-33.69140625,484.375,1.0,0.0,0.0,1.0,7.m4v,7.0
2024-02-28 09:44:54.134123,1709109894.1341226,-413.57421875,-31.25,-30.76171875,-810.546875,1.0,0.0,0.0,1.0,7.m4v,7.0
2024-02-28 09:44:54.138028,1709109894.138028,-558.10546875,-35.15625,-33.69140625,-1000.0,1.0,0.0,0.0,1.0,7.m4v,7.0
2024-02-28 09:44:54.141933,1709109894.1419332,-45.8984375,-38.0859375,-36.1328125,-145.99609375,1.0,0.0,0.0,1.0,7.m4v,7.0
2024-02-28 09:44:54.145838,1709109894.1458385,516.11328125,-35.15625,-33.203125,999.51171875,1.0,0.0,0.0,1.0,7.m4v,7.0
2024-02-28 09:44:54.149744,1709109894.1497438,248.046875,-34.66796875,-33.69140625,578.125,1.0,0.0,0.0,1.0,7.m4v,7.0
2024-02-28 09:44:54.153658,1709109894.1536582,-370.1171875,-37.109375,-37.109375,-712.890625,1.0,0.0,0.0,1.0,7.m4v,7.0
2024-02-28 09:44:54.157563,1709109894.1575634,-550.78125,-37.59765625,-38.0859375,-1000.0,1.0,0.0,0.0,1.0,7.m4v,7.0
2024-02-28 09:44:54.161469,1709109894.1614687,-66.89453125,-34.1796875,-37.59765625,-208.984375,1.0,0.0,0.0,1.0,7.m4v,7.0
2024-02-28 09:44:54.165374,1709109894.165374,459.9609375,-29.78515625,-37.109375,999.51171875,1.0,0.0,0.0,1.0,7.m4v,7.0
2024-02-28 09:44:54.169279,1709109894.169279,321.2890625,-32.2265625,-39.0625,808.10546875,1.0,0.0,0.0,1.0,7.m4v,7.0
2024-02-28 09:44:54.173185,1709109894.1731846,-251.953125,-32.71484375,-34.66796875,-388.18359375,1.0,0.0,0.0,1.0,7.m4v,7.0
2024-02-28 09:44:54.177090,1709109894.17709,-575.1953125,-28.3203125,-31.25,-1000.0,1.0,0.0,0.0,1.0,7.m4v,7.0
2024-02-28 09:44:54.180995,1709109894.1809952,-168.9453125,-31.25,-37.59765625,-391.11328125,1.0,0.0,0.0,1.0,7.m4v,7.0
2024-02-28 09:44:54.184901,1709109894.1849008,426.26953125,-34.66796875,-36.1328125,949.70703125,1.0,0.0,0.0,1.0,7.m4v,7.0
2024-02-28 09:44:54.188806,1709109894.188806,397.4609375,-36.1328125,-33.203125,915.52734375,1.0,0.0,0.0,1.0,7.m4v,7.0
2024-02-28 09:44:54.192711,1709109894.1927114,-209.47265625,-29.78515625,-32.71484375,-289.55078125,1.0,0.0,0.0,1.0,7.m4v,7.0
2024-02-28 09:44:54.196617,1709109894.1966166,-605.46875,-31.25,-33.69140625,-1000.0,1.0,0.0,0.0,1.0,7.m4v,7.0
2024-02-28 09:44:54.200530,1709109894.20053,-282.2265625,-32.2265625,-37.59765625,-542.96875,1.0,0.0,0.0,1.0,7.m4v,7.0
2024-02-28 09:44:54.204435,1709109894.204435,375.48828125,-27.34375,-36.62109375,767.578125,1.0,0.0,0.0,1.0,7.m4v,7.0
2024-02-28 09:44:54.208341,1709109894.2083406,512.6953125,-29.78515625,-38.0859375,999.51171875,1.0,0.0,0.0,1.0,7.m4v,7.0
2024-02-28 09:44:54.212246,1709109894.212246,-126.953125,-33.203125,-41.015625,-74.70703125,1.0,0.0,0.0,1.0,7.m4v,7.0
2024-02-28 09:44:54.216151,1709109894.2161512,-612.3046875,-28.80859375,-38.0859375,-1000.0,1.0,0.0,0.0,1.0,7.m4v,7.0
2024-02-28 09:44:54.220057,1709109894.2200563,-270.99609375,-22.94921875,-36.62109375,-534.1796875,1.0,0.0,0.0,1.0,7.m4v,7.0
2024-02-28 09:44:54.223962,1709109894.2239618,360.3515625,-20.99609375,-37.59765625,789.0625,1.0,0.0,0.0,1.0,7.m4v,7.0
2024-02-28 09:44:54.227867,1709109894.2278671,486.328125,-27.34375,-38.57421875,999.51171875,1.0,0.0,0.0,1.0,7.m4v,7.0
2024-02-28 09:44:54.231773,1709109894.231773,-119.62890625,-33.203125,-39.0625,-49.31640625,1.0,0.0,0.0,1.0,7.m4v,7.0
2024-02-28 09:44:54.235678,1709109894.235678,-588.37890625,-31.73828125,-36.1328125,-1000.0,1.0,0.0,0.0,1.0,7.m4v,7.0
2024-02-28 09:44:54.239583,1709109894.2395833,-376.46484375,-29.78515625,-31.25,-798.828125,1.0,0.0,0.0,1.0,7.m4v,7.0
2024-02-28 09:44:54.243489,1709109894.2434886,257.32421875,-25.87890625,-30.76171875,451.66015625,1.0,0.0,0.0,1.0,7.m4v,7.0
2024-02-28 09:44:54.247401,1709109894.2474017,542.96875,-25.390625,-30.2734375,999.51171875,1.0,0.0,0.0,1.0,7.m4v,7.0
2024-02-28 09:44:54.696584,1709109894.6965845,-625.0,-34.66796875,-37.59765625,-1000.0,1.0,0.0,0.0,1.0,7.m4v,7.0
2024-02-28 09:44:54.700490,1709109894.7004898,-240.234375,-31.25,-34.1796875,-486.328125,1.0,0.0,0.0,1.0,7.m4v,7.0
2024-02-28 09:44:54.704395,1709109894.704395,406.25,-27.34375,-29.296875,857.421875,1.0,0.0,0.0,1.0,7.m4v,7.0
2024-02-28 09:44:54.708300,1709109894.7083004,467.28515625,-27.83203125,-30.2734375,979.00390625,1.0,0.0,0.0,1.0,7.m4v,7.0
2024-02-28 09:44:54.712206,1709109894.7122056,-214.84375,-30.2734375,-34.1796875,-207.03125,1.0,0.0,0.0,1.0,7.m4v,7.0
2024-02-28 09:44:54.716118,1709109894.716118,-641.6015625,-28.3203125,-30.76171875,-1000.0,1.0,0.0,0.0,1.0,7.m4v,7.0
2024-02-28 09:44:54.720023,1709109894.7200232,-274.90234375,-29.78515625,-35.15625,-500.48828125,1.0,0.0,0.0,1.0,7.m4v,7.0
2024-02-28 09:44:54.723928,1709109894.7239285,374.0234375,-28.80859375,-41.015625,801.26953125,1.0,0.0,0.0,1.0,7.m4v,7.0
2024-02-28 09:44:54.727834,1709109894.7278335,503.90625,-32.2265625,-42.48046875,999.51171875,1.0,0.0,0.0,1.0,7.m4v,7.0
2024-02-28 09:44:54.731739,1709109894.731739,-97.16796875,-32.71484375,-40.52734375,8.7890625,1.0,0.0,0.0,1.0,7.m4v,7.0
2024-02-28 09:44:54.735644,1709109894.7356443,-587.890625,-28.80859375,-34.66796875,-1000.0,1.0,0.0,0.0,1.0,7.m4v,7.0
2024-02-28 09:44:54.739550,1709109894.7395496,-291.015625,-29.78515625,-37.109375,-586.9140625,1.0,0.0,0.0,1.0,7.m4v,7.0
2024-02-28 09:44:54.743455,1709109894.743455,316.40625,-30.76171875,-36.1328125,728.515625,1.0,0.0,0.0,1.0,7.m4v,7.0
2024-02-28 09:44:54.747360,1709109894.7473602,468.26171875,-28.3203125,-30.76171875,999.51171875,1.0,0.0,0.0,1.0,7.m4v,7.0
2024-02-28 09:44:54.751266,1709109894.7512658,-136.23046875,-30.2734375,-32.2265625,-10.25390625,1.0,0.0,0.0,1.0,7.m4v,7.0
2024-02-28 09:44:54.755171,1709109894.755171,-619.140625,-34.1796875,-34.1796875,-1000.0,1.0,0.0,0.0,1.0,7.m4v,7.0
2024-02-28 09:44:54.759076,1709109894.7590764,-333.0078125,-33.69140625,-30.76171875,-697.75390625,1.0,0.0,0.0,1.0,7.m4v,7.0
2024-02-28 09:44:54.762988,1709109894.7629876,291.015625,-30.76171875,-32.2265625,559.5703125,1.0,0.0,0.0,1.0,7.m4v,7.0
2024-02-28 09:44:54.766893,1709109894.766893,528.80859375,-29.296875,-36.62109375,999.51171875,1.0,0.0,0.0,1.0,7.m4v,7.0
2024-02-28 09:44:54.770798,1709109894.7707982,-8.7890625,-29.296875,-35.64453125,147.4609375,1.0,0.0,0.0,1.0,7.m4v,7.0
2024-02-28 09:44:54.774704,1709109894.7747035,-557.12890625,-26.85546875,-37.59765625,-1000.0,1.0,0.0,0.0,1.0,7.m4v,7.0
2024-02-28 09:44:54.778609,1709109894.778609,-451.66015625,-25.87890625,-37.109375,-925.29296875,1.0,0.0,0.0,1.0,7.m4v,7.0
2024-02-28 09:44:54.782514,1709109894.7825143,179.19921875,-21.484375,-32.71484375,243.65234375,1.0,0.0,0.0,1.0,7.m4v,7.0
2024-02-28 09:44:54.786420,1709109894.7864196,548.33984375,-24.90234375,-35.15625,999.51171875,1.0,0.0,0.0,1.0,7.m4v,7.0
2024-02-28 09:44:54.790325,1709109894.790325,11.23046875,-31.25,-35.15625,208.49609375,1.0,0.0,0.0,1.0,7.m4v,7.0
2024-02-28 09:44:54.794230,1709109894.7942302,-519.53125,-25.390625,-30.76171875,-1000.0,1.0,0.0,0.0,1.0,7.m4v,7.0
2024-02-28 09:44:54.798136,1709109894.7981355,-439.453125,-24.4140625,-30.76171875,-997.55859375,1.0,0.0,0.0,1.0,7.m4v,7.0
2024-02-28 09:44:54.802041,1709109894.8020408,108.88671875,-28.3203125,-32.2265625,91.796875,1.0,0.0,0.0,1.0,7.m4v,7.0
2024-02-28 09:44:54.805946,1709109894.805946,527.83203125,-25.390625,-33.203125,999.51171875,1.0,0.0,0.0,1.0,7.m4v,7.0
2024-02-28 09:44:54.809857,1709109894.809857,138.18359375,-27.34375,-29.78515625,382.8125,1.0,0.0,0.0,1.0,7.m4v,7.0
2024-02-28 09:44:54.813762,1709109894.8137622,-455.078125,-30.2734375,-25.87890625,-912.109375,1.0,0.0,0.0,1.0,7.m4v,7.0
2024-02-28 09:44:54.817667,1709109894.8176675,-531.25,-32.2265625,-24.90234375,-1000.0,1.0,0.0,0.0,1.0,7.m4v,7.0
2024-02-28 09:44:54.821573,1709109894.8215728,37.59765625,-30.76171875,-23.92578125,-28.80859375,1.0,0.0,0.0,1.0,7.m4v,7.0
2024-02-28 09:44:54.825478,1709109894.8254783,513.18359375,-25.87890625,-23.4375,999.51171875,1.0,0.0,0.0,1.0,7.m4v,7.0
2024-02-28 09:44:54.829384,1709109894.8293836,269.53125,-28.3203125,-27.34375,700.68359375,1.0,0.0,0.0,1.0,7.m4v,7.0
2024-02-28 09:44:54.833289,1709109894.833289,-353.02734375,-33.203125,-32.71484375,-522.94921875,1.0,0.0,0.0,1.0,7.m4v,7.0
2024-02-28 09:44:54.837194,1709109894.8371942,-622.55859375,-33.203125,-32.2265625,-1000.0,1.0,0.0,0.0,1.0,7.m4v,7.0
2024-02-28 09:44:54.841100,1709109894.8410995,-98.6328125,-26.3671875,-28.80859375,-277.83203125,1.0,0.0,0.0,1.0,7.m4v,7.0
2024-02-28 09:44:54.845005,1709109894.8450048,493.1640625,-25.390625,-25.87890625,999.51171875,1.0,0.0,0.0,1.0,7.m4v,7.0
2024-02-28 09:44:54.848910,1709109894.84891,360.3515625,-34.66796875,-22.4609375,787.109375,1.0,0.0,0.0,1.0,7.m4v,7.0
2024-02-28 09:44:54.852815,1709109894.8528154,-289.55078125,-32.2265625,-23.92578125,-468.26171875,1.0,0.0,0.0,1.0,7.m4v,7.0
2024-02-28 09:44:54.856730,1709109894.8567295,-589.35546875,-28.3203125,-29.78515625,-1000.0,1.0,0.0,0.0,1.0,7.m4v,7.0
2024-02-28 09:44:54.860635,1709109894.8606353,-136.71875,-31.25,-33.69140625,-315.91796875,1.0,0.0,0.0,1.0,7.m4v,7.0
2024-02-28 09:44:54.864541,1709109894.8645406,457.51953125,-24.4140625,-28.80859375,999.51171875,1.0,0.0,0.0,1.0,7.m4v,7.0
2024-02-28 09:44:54.868446,1709109894.868446,389.6484375,-20.99609375,-25.87890625,860.83984375,1.0,0.0,0.0,1.0,7.m4v,7.0
2024-02-28 09:44:54.872351,1709109894.8723512,-256.8359375,-27.83203125,-26.85546875,-351.5625,1.0,0.0,0.0,1.0,7.m4v,7.0
2024-02-28 09:44:54.876256,1709109894.8762565,-588.37890625,-34.1796875,-29.78515625,-1000.0,1.0,0.0,0.0,1.0,7.m4v,7.0
2024-02-28 09:44:54.880162,1709109894.8801618,-158.203125,-37.109375,-31.73828125,-334.47265625,1.0,0.0,0.0,1.0,7.m4v,7.0
2024-02-28 09:44:54.884067,1709109894.884067,400.87890625,-34.66796875,-28.3203125,974.12109375,1.0,0.0,0.0,1.0,7.m4v,7.0
2024-02-28 09:44:54.887972,1709109894.8879724,395.01953125,-32.71484375,-29.296875,925.29296875,1.0,0.0,0.0,1.0,7.m4v,7.0
2024-02-28 09:44:54.891878,1709109894.8918777,-233.3984375,-43.9453125,-36.1328125,-250.0,1.0,0.0,0.0,1.0,7.m4v,7.0
2024-02-28 09:44:54.895783,1709109894.895783,-634.765625,-45.41015625,-40.52734375,-1000.0,1.0,0.0,0.0,1.0,7.m4v,7.0
2024-02-28 09:44:54.899688,1709109894.8996885,-238.76953125,-39.0625,-38.0859375,-495.1171875,1.0,0.0,0.0,1.0,7.m4v,7.0
2024-02-28 09:44:54.903602,1709109894.903602,387.6953125,-36.62109375,-34.66796875,815.91796875,1.0,0.0,0.0,1.0,7.m4v,7.0
2024-02-28 09:44:54.907507,1709109894.9075074,485.3515625,-33.203125,-33.69140625,999.51171875,1.0,0.0,0.0,1.0,7.m4v,7.0
2024-02-28 09:44:54.911413,1709109894.9114127,-131.8359375,-31.25,-35.15625,-65.91796875,1.0,0.0,0.0,1.0,7.m4v,7.0
2024-02-28 09:44:54.915318,1709109894.915318,-586.9140625,-34.1796875,-37.109375,-1000.0,1.0,0.0,0.0,1.0,7.m4v,7.0
2024-02-28 09:44:54.919223,1709109894.9192233,-369.62890625,-37.59765625,-40.0390625,-753.90625,1.0,0.0,0.0,1.0,7.m4v,7.0
2024-02-28 09:44:54.923129,1709109894.9231286,242.67578125,-29.78515625,-41.015625,501.953125,1.0,0.0,0.0,1.0,7.m4v,7.0
2024-02-28 09:44:54.927034,1709109894.927034,532.71484375,-23.4375,-32.71484375,999.51171875,1.0,0.0,0.0,1.0,7.m4v,7.0
2024-02-28 09:44:54.930939,1709109894.9309392,-87.40234375,-27.34375,-31.25,15.625,1.0,0.0,0.0,1.0,7.m4v,7.0
2024-02-28 09:44:54.934845,1709109894.9348447,-591.30859375,-36.1328125,-39.0625,-1000.0,1.0,0.0,0.0,1.0,7.m4v,7.0
2024-02-28 09:44:54.938750,1709109894.93875,-411.1328125,-37.59765625,-36.1328125,-856.4453125,1.0,0.0,0.0,1.0,7.m4v,7.0
2024-02-28 09:44:54.942655,1709109894.942655,161.62109375,-31.73828125,-29.78515625,311.03515625,1.0,0.0,0.0,1.0,7.m4v,7.0
2024-02-28 09:44:54.946561,1709109894.9465606,522.4609375,-31.25,-30.76171875,999.51171875,1.0,0.0,0.0,1.0,7.m4v,7.0
2024-02-28 09:44:54.950474,1709109894.950474,66.89453125,-33.69140625,-30.76171875,272.4609375,1.0,0.0,0.0,1.0,7.m4v,7.0
2024-02-28 09:44:54.954379,1709109894.954379,-501.953125,-37.59765625,-34.66796875,-1000.0,1.0,0.0,0.0,1.0,7.m4v,7.0
2024-02-28 09:44:54.958285,1709109894.9582846,-509.27734375,-36.1328125,-39.0625,-1000.0,1.0,0.0,0.0,1.0,7.m4v,7.0
2024-02-28 09:44:54.962190,1709109894.96219,94.23828125,-28.80859375,-31.25,102.5390625,1.0,0.0,0.0,1.0,7.m4v,7.0
2024-02-28 09:44:54.966095,1709109894.9660954,552.734375,-28.3203125,-27.83203125,999.51171875,1.0,0.0,0.0,1.0,7.m4v,7.0
2024-02-28 09:44:54.970001,1709109894.9700007,169.921875,-33.69140625,-36.1328125,430.17578125,1.0,0.0,0.0,1.0,7.m4v,7.0
