Timestamp,Timestamp_UNIX,TP9,AF7,AF8,TP10,Valence,Arousal,Dominace,Viewed,Video,Participant
2024-02-28 14:18:10.000885,1709126290.0008848,-202.1484375,-1000.0,-31.25,-932.12890625,0.0,-1.0,0.0,0.0,1.m4v,11.0
2024-02-28 14:18:10.004790,1709126290.0047896,-124.0234375,-957.03125,-31.25,-1000.0,0.0,-1.0,0.0,0.0,1.m4v,11.0
2024-02-28 14:18:10.008695,1709126290.0086946,-88.8671875,-1000.0,-37.109375,-1000.0,0.0,-1.0,0.0,0.0,1.m4v,11.0
2024-02-28 14:18:10.012599,1709126290.0125997,-69.3359375,-958.984375,-33.69140625,-958.0078125,0.0,-1.0,0.0,0.0,1.m4v,11.0
2024-02-28 14:18:10.016504,1709126290.0165043,-79.1015625,-1000.0,-25.87890625,-1000.0,0.0,-1.0,0.0,0.0,1.m4v,11.0
2024-02-28 14:18:10.020409,1709126290.020409,-92.28515625,-1000.0,-16.11328125,-991.2109375,0.0,-1.0,0.0,0.0,1.m4v,11.0
2024-02-28 14:18:10.024314,1709126290.024314,105.46875,365.72265625,-15.13671875,373.046875,0.0,-1.0,0.0,0.0,1.m4v,11.0
2024-02-28 14:18:10.028240,1709126290.02824,225.5859375,999.51171875,-24.90234375,999.51171875,0.0,-1.0,0.0,0.0,1.m4v,11.0
2024-02-28 14:18:10.032145,1709126290.0321448,131.34765625,898.4375,-25.390625,899.4140625,0.0,-1.0,0.0,0.0,1.m4v,11.0
2024-02-28 14:18:10.036050,1709126290.0360496,61.5234375,979.00390625,-27.83203125,979.98046875,0.0,-1.0,0.0,0.0,1.m4v,11.0
2024-02-28 14:18:10.039954,1709126290.0399544,12.6953125,969.7265625,-34.1796875,976.5625,0.0,-1.0,0.0,0.0,1.m4v,11.0
2024-02-28 14:18:10.043859,1709126290.0438592,10.25390625,969.23828125,-31.25,912.109375,0.0,-1.0,0.0,0.0,1.m4v,11.0
2024-02-28 14:18:10.047764,1709126290.047764,45.41015625,970.703125,-31.25,999.51171875,0.0,-1.0,0.0,0.0,1.m4v,11.0
2024-02-28 14:18:10.051669,1709126290.051669,-27.34375,969.23828125,-32.71484375,451.171875,0.0,-1.0,0.0,0.0,1.m4v,11.0
2024-02-28 14:18:10.055574,1709126290.055574,-205.56640625,959.47265625,-30.76171875,-827.1484375,0.0,-1.0,0.0,0.0,1.m4v,11.0
2024-02-28 14:18:10.059479,1709126290.0594788,-215.33203125,965.8203125,-45.8984375,-1000.0,0.0,-1.0,0.0,0.0,1.m4v,11.0
2024-02-28 14:18:10.063384,1709126290.0633836,-130.37109375,987.79296875,-56.640625,-895.01953125,0.0,-1.0,0.0,0.0,1.m4v,11.0
2024-02-28 14:18:10.067288,1709126290.0672884,58.59375,910.64453125,-46.38671875,399.90234375,0.0,-1.0,0.0,0.0,1.m4v,11.0
2024-02-28 14:18:10.071193,1709126290.0711932,158.203125,999.51171875,-24.4140625,999.51171875,0.0,-1.0,0.0,0.0,1.m4v,11.0
2024-02-28 14:18:10.075117,1709126290.0751169,-11.71875,852.5390625,-31.73828125,166.50390625,0.0,-1.0,0.0,0.0,1.m4v,11.0
2024-02-28 14:18:10.079022,1709126290.0790217,-238.28125,-607.421875,-55.6640625,-951.66015625,0.0,-1.0,0.0,0.0,1.m4v,11.0
2024-02-28 14:18:10.082927,1709126290.0829265,-205.078125,-1000.0,-23.4375,-1000.0,0.0,-1.0,0.0,0.0,1.m4v,11.0
2024-02-28 14:18:10.086831,1709126290.086831,-108.3984375,-900.390625,-20.01953125,-980.46875,0.0,-1.0,0.0,0.0,1.m4v,11.0
2024-02-28 14:18:10.090736,1709126290.0907362,-76.171875,-1000.0,-30.2734375,-945.3125,0.0,-1.0,0.0,0.0,1.m4v,11.0
2024-02-28 14:18:10.094641,1709126290.094641,-84.9609375,-1000.0,-29.78515625,-1000.0,0.0,-1.0,0.0,0.0,1.m4v,11.0
2024-02-28 14:18:10.098546,1709126290.0985458,-29.296875,140.13671875,-43.45703125,-710.9375,0.0,-1.0,0.0,0.0,1.m4v,11.0
2024-02-28 14:18:10.102451,1709126290.1024506,162.59765625,999.51171875,-46.875,742.67578125,0.0,-1.0,0.0,0.0,1.m4v,11.0
2024-02-28 14:18:10.106355,1709126290.1063554,155.2734375,928.7109375,-41.9921875,999.51171875,0.0,-1.0,0.0,0.0,1.m4v,11.0
2024-02-28 14:18:10.110260,1709126290.1102602,79.58984375,898.4375,-27.34375,934.08203125,0.0,-1.0,0.0,0.0,1.m4v,11.0
2024-02-28 14:18:10.114165,1709126290.1141653,48.828125,999.51171875,-47.8515625,926.26953125,0.0,-1.0,0.0,0.0,1.m4v,11.0
2024-02-28 14:18:10.118070,1709126290.11807,-153.3203125,452.63671875,-47.36328125,-448.2421875,0.0,-1.0,0.0,0.0,1.m4v,11.0
2024-02-28 14:18:10.121993,1709126290.1219926,-267.578125,-929.6875,-12.20703125,-1000.0,0.0,-1.0,0.0,0.0,1.m4v,11.0
2024-02-28 14:18:10.125897,1709126290.1258974,-161.62109375,-1000.0,-28.80859375,-935.05859375,0.0,-1.0,0.0,0.0,1.m4v,11.0
2024-02-28 14:18:10.129802,1709126290.1298022,-102.5390625,-965.8203125,-43.9453125,-1000.0,0.0,-1.0,0.0,0.0,1.m4v,11.0
2024-02-28 14:18:10.133707,1709126290.133707,-78.125,-941.89453125,-26.85546875,-936.03515625,0.0,-1.0,0.0,0.0,1.m4v,11.0
2024-02-28 14:18:10.137612,1709126290.137612,-111.81640625,-1000.0,-33.69140625,-1000.0,0.0,-1.0,0.0,0.0,1.m4v,11.0
2024-02-28 14:18:10.141517,1709126290.1415167,-43.9453125,-589.35546875,-32.2265625,-578.61328125,0.0,-1.0,0.0,0.0,1.m4v,11.0
2024-02-28 14:18:10.145422,1709126290.1454215,191.89453125,852.5390625,-34.66796875,824.70703125,0.0,-1.0,0.0,0.0,1.m4v,11.0
2024-02-28 14:18:10.149326,1709126290.1493263,174.31640625,999.51171875,-38.0859375,999.51171875,0.0,-1.0,0.0,0.0,1.m4v,11.0
2024-02-28 14:18:10.153231,1709126290.1532311,75.1953125,912.59765625,-27.34375,914.0625,0.0,-1.0,0.0,0.0,1.m4v,11.0
2024-02-28 14:18:10.157136,1709126290.157136,38.0859375,986.328125,-15.13671875,995.60546875,0.0,-1.0,0.0,0.0,1.m4v,11.0
2024-02-28 14:18:10.161041,1709126290.1610408,8.30078125,982.91015625,-14.16015625,930.17578125,0.0,-1.0,0.0,0.0,1.m4v,11.0
2024-02-28 14:18:10.164946,1709126290.1649456,6.34765625,899.90234375,-33.203125,983.3984375,0.0,-1.0,0.0,0.0,1.m4v,11.0
2024-02-28 14:18:10.168868,1709126290.1688676,11.23046875,999.51171875,-43.9453125,959.47265625,0.0,-1.0,0.0,0.0,1.m4v,11.0
2024-02-28 14:18:10.172772,1709126290.1727724,-139.16015625,520.01953125,-51.26953125,-363.28125,0.0,-1.0,0.0,0.0,1.m4v,11.0
2024-02-28 14:18:10.176677,1709126290.1766772,-294.43359375,-915.0390625,-39.0625,-1000.0,0.0,-1.0,0.0,0.0,1.m4v,11.0
2024-02-28 14:18:10.180582,1709126290.180582,-216.30859375,-985.83984375,-26.85546875,-886.71875,0.0,-1.0,0.0,0.0,1.m4v,11.0
2024-02-28 14:18:10.184487,1709126290.1844869,-139.6484375,-1000.0,-44.921875,-1000.0,0.0,-1.0,0.0,0.0,1.m4v,11.0
2024-02-28 14:18:10.188392,1709126290.1883917,-48.828125,-847.16796875,-34.66796875,-686.5234375,0.0,-1.0,0.0,0.0,1.m4v,11.0
2024-02-28 14:18:10.192297,1709126290.1922965,158.69140625,634.27734375,-27.34375,673.33984375,0.0,-1.0,0.0,0.0,1.m4v,11.0
2024-02-28 14:18:10.196202,1709126290.1962016,150.390625,999.51171875,-54.6875,999.51171875,0.0,-1.0,0.0,0.0,1.m4v,11.0
2024-02-28 14:18:10.200106,1709126290.2001064,41.9921875,910.64453125,-43.45703125,919.43359375,0.0,-1.0,0.0,0.0,1.m4v,11.0
2024-02-28 14:18:10.204011,1709126290.2040112,26.3671875,940.4296875,-19.53125,926.26953125,0.0,-1.0,0.0,0.0,1.m4v,11.0
2024-02-28 14:18:10.207916,1709126290.207916,47.36328125,994.140625,-42.48046875,999.51171875,0.0,-1.0,0.0,0.0,1.m4v,11.0
2024-02-28 14:18:10.211821,1709126290.2118208,8.7890625,944.82421875,-46.38671875,642.578125,0.0,-1.0,0.0,0.0,1.m4v,11.0
2024-02-28 14:18:10.215743,1709126290.2157428,-222.16796875,-449.21875,-27.83203125,-748.046875,0.0,-1.0,0.0,0.0,1.m4v,11.0
2024-02-28 14:18:10.219648,1709126290.2196476,-264.16015625,-1000.0,-14.16015625,-1000.0,0.0,-1.0,0.0,0.0,1.m4v,11.0
2024-02-28 14:18:10.223552,1709126290.2235525,-150.390625,-927.24609375,-25.390625,-939.453125,0.0,-1.0,0.0,0.0,1.m4v,11.0
2024-02-28 14:18:10.227457,1709126290.2274573,-104.98046875,-1000.0,-34.1796875,-1000.0,0.0,-1.0,0.0,0.0,1.m4v,11.0
2024-02-28 14:18:10.231362,1709126290.231362,-78.125,-1000.0,-28.80859375,-1000.0,0.0,-1.0,0.0,0.0,1.m4v,11.0
2024-02-28 14:18:10.235267,1709126290.235267,-63.4765625,-942.3828125,-21.484375,-944.3359375,0.0,-1.0,0.0,0.0,1.m4v,11.0
2024-02-28 14:18:10.239172,1709126290.2391715,-101.5625,-1000.0,-39.0625,-1000.0,0.0,-1.0,0.0,0.0,1.m4v,11.0
2024-02-28 14:18:10.243077,1709126290.2430766,-40.52734375,-891.11328125,-56.640625,-416.50390625,0.0,-1.0,0.0,0.0,1.m4v,11.0
2024-02-28 14:18:10.246981,1709126290.2469814,190.4296875,566.40625,-25.87890625,891.6015625,0.0,-1.0,0.0,0.0,1.m4v,11.0
2024-02-28 14:18:10.250886,1709126290.2508864,186.5234375,999.51171875,-25.390625,999.51171875,0.0,-1.0,0.0,0.0,1.m4v,11.0
2024-02-28 14:18:10.254791,1709126290.2547913,79.1015625,895.01953125,-50.29296875,925.78125,0.0,-1.0,0.0,0.0,1.m4v,11.0
2024-02-28 14:18:10.258696,1709126290.258696,28.80859375,985.83984375,-43.45703125,995.60546875,0.0,-1.0,0.0,0.0,1.m4v,11.0
2024-02-28 14:18:10.262615,1709126290.2626152,-2.44140625,986.328125,-15.625,917.96875,0.0,-1.0,0.0,0.0,1.m4v,11.0
2024-02-28 14:18:10.266520,1709126290.26652,17.578125,899.4140625,-38.0859375,999.51171875,0.0,-1.0,0.0,0.0,1.m4v,11.0
2024-02-28 14:18:10.270425,1709126290.2704248,20.5078125,999.51171875,-37.59765625,876.46484375,0.0,-1.0,0.0,0.0,1.m4v,11.0
2024-02-28 14:18:10.274330,1709126290.2743297,-147.94921875,649.90234375,-8.7890625,-534.1796875,0.0,-1.0,0.0,0.0,1.m4v,11.0
2024-02-28 14:18:10.278234,1709126290.2782345,-295.8984375,-815.91796875,-14.16015625,-1000.0,0.0,-1.0,0.0,0.0,1.m4v,11.0
2024-02-28 14:18:10.282139,1709126290.2821393,-213.8671875,-1000.0,-23.4375,-929.6875,0.0,-1.0,0.0,0.0,1.m4v,11.0
2024-02-28 14:18:10.286044,1709126290.286044,-122.55859375,-936.5234375,-34.66796875,-1000.0,0.0,-1.0,0.0,0.0,1.m4v,11.0
2024-02-28 14:18:10.289949,1709126290.289949,-95.21484375,-1000.0,-17.578125,-1000.0,0.0,-1.0,0.0,0.0,1.m4v,11.0
2024-02-28 14:18:10.293854,1709126290.2938538,-71.77734375,-960.44921875,0.0,-938.4765625,0.0,-1.0,0.0,0.0,1.m4v,11.0
2024-02-28 14:18:10.297759,1709126290.2977586,-94.7265625,-1000.0,-27.34375,-1000.0,0.0,-1.0,0.0,0.0,1.m4v,11.0
2024-02-28 14:18:10.301663,1709126290.3016634,-74.70703125,-1000.0,-37.109375,-817.87109375,0.0,-1.0,0.0,0.0,1.m4v,11.0
2024-02-28 14:18:10.305568,1709126290.3055682,163.0859375,345.21484375,-18.06640625,640.13671875,0.0,-1.0,0.0,0.0,1.m4v,11.0
2024-02-28 14:18:10.309486,1709126290.309486,222.16796875,999.51171875,-11.71875,999.51171875,0.0,-1.0,0.0,0.0,1.m4v,11.0
2024-02-28 14:18:10.313391,1709126290.313391,104.4921875,899.4140625,-31.73828125,898.92578125,0.0,-1.0,0.0,0.0,1.m4v,11.0
2024-02-28 14:18:10.317296,1709126290.3172958,49.8046875,978.02734375,-47.8515625,993.65234375,0.0,-1.0,0.0,0.0,1.m4v,11.0
2024-02-28 14:18:10.321201,1709126290.3212006,16.11328125,987.3046875,-20.01953125,944.3359375,0.0,-1.0,0.0,0.0,1.m4v,11.0
2024-02-28 14:18:10.325105,1709126290.3251054,15.625,900.87890625,-5.859375,957.03125,0.0,-1.0,0.0,0.0,1.m4v,11.0
2024-02-28 14:18:10.329010,1709126290.3290102,35.15625,999.51171875,-37.109375,999.51171875,0.0,-1.0,0.0,0.0,1.m4v,11.0
2024-02-28 14:18:10.332915,1709126290.332915,-95.703125,710.44921875,-25.87890625,-151.3671875,0.0,-1.0,0.0,0.0,1.m4v,11.0
2024-02-28 14:18:10.336820,1709126290.33682,-268.06640625,-765.625,5.37109375,-1000.0,0.0,-1.0,0.0,0.0,1.m4v,11.0
2024-02-28 14:18:10.340725,1709126290.3407247,-226.5625,-1000.0,-15.625,-957.03125,0.0,-1.0,0.0,0.0,1.m4v,11.0
2024-02-28 14:18:10.344630,1709126290.3446295,-144.04296875,-932.6171875,-41.50390625,-993.1640625,0.0,-1.0,0.0,0.0,1.m4v,11.0
2024-02-28 14:18:10.348534,1709126290.3485343,-99.12109375,-1000.0,-25.390625,-1000.0,0.0,-1.0,0.0,0.0,1.m4v,11.0
2024-02-28 14:18:10.352439,1709126290.3524392,-81.0546875,-1000.0,-20.01953125,-969.23828125,0.0,-1.0,0.0,0.0,1.m4v,11.0
2024-02-28 14:18:10.356365,1709126290.356365,-92.28515625,-941.89453125,-17.578125,-996.58203125,0.0,-1.0,0.0,0.0,1.m4v,11.0
2024-02-28 14:18:10.360270,1709126290.3602698,-110.3515625,-1000.0,-16.6015625,-1000.0,0.0,-1.0,0.0,0.0,1.m4v,11.0
2024-02-28 14:18:10.364175,1709126290.3641748,43.9453125,-882.32421875,-16.11328125,209.9609375,0.0,-1.0,0.0,0.0,1.m4v,11.0
2024-02-28 14:18:10.368080,1709126290.3680797,208.984375,577.63671875,-29.78515625,999.51171875,0.0,-1.0,0.0,0.0,1.m4v,11.0
2024-02-28 14:18:10.371984,1709126290.3719845,152.34375,999.51171875,-30.76171875,915.52734375,0.0,-1.0,0.0,0.0,1.m4v,11.0
2024-02-28 14:18:10.375889,1709126290.3758893,80.56640625,895.5078125,-31.73828125,969.7265625,0.0,-1.0,0.0,0.0,1.m4v,11.0
2024-02-28 14:18:10.379794,1709126290.379794,32.71484375,999.51171875,-54.19921875,976.5625,0.0,-1.0,0.0,0.0,1.m4v,11.0
2024-02-28 14:18:10.383699,1709126290.383699,13.671875,912.109375,-24.4140625,916.50390625,0.0,-1.0,0.0,0.0,1.m4v,11.0
2024-02-28 14:18:10.387604,1709126290.3876038,47.8515625,999.51171875,-9.765625,999.51171875,0.0,-1.0,0.0,0.0,1.m4v,11.0
2024-02-28 14:18:10.391509,1709126290.3915086,-31.73828125,860.3515625,-31.25,418.45703125,0.0,-1.0,0.0,0.0,1.m4v,11.0
2024-02-28 14:18:10.395413,1709126290.3954134,-264.16015625,-597.16796875,-49.31640625,-879.39453125,0.0,-1.0,0.0,0.0,1.m4v,11.0
2024-02-28 14:18:10.399318,1709126290.3993182,-266.6015625,-1000.0,-42.96875,-1000.0,0.0,-1.0,0.0,0.0,1.m4v,11.0
2024-02-28 14:18:10.403244,1709126290.4032438,-161.62109375,-925.78125,-13.18359375,-953.125,0.0,-1.0,0.0,0.0,1.m4v,11.0
2024-02-28 14:18:10.407149,1709126290.4071486,-115.72265625,-1000.0,-52.24609375,-1000.0,0.0,-1.0,0.0,0.0,1.m4v,11.0
2024-02-28 14:18:10.411053,1709126290.4110534,-83.984375,-1000.0,-42.96875,-982.421875,0.0,-1.0,0.0,0.0,1.m4v,11.0
2024-02-28 14:18:10.414958,1709126290.4149582,-70.80078125,-944.3359375,-11.23046875,-973.6328125,0.0,-1.0,0.0,0.0,1.m4v,11.0
2024-02-28 14:18:10.418863,1709126290.418863,-96.19140625,-1000.0,-52.24609375,-1000.0,0.0,-1.0,0.0,0.0,1.m4v,11.0
2024-02-28 14:18:10.422768,1709126290.422768,31.73828125,-261.23046875,-33.203125,14.6484375,0.0,-1.0,0.0,0.0,1.m4v,11.0
2024-02-28 14:18:10.426673,1709126290.426673,215.33203125,990.234375,-16.6015625,999.51171875,0.0,-1.0,0.0,0.0,1.m4v,11.0
2024-02-28 14:18:10.430578,1709126290.4305778,143.06640625,968.75,-52.24609375,936.03515625,0.0,-1.0,0.0,0.0,1.m4v,11.0
2024-02-28 14:18:10.434483,1709126290.4344826,59.08203125,937.98828125,-35.64453125,956.0546875,0.0,-1.0,0.0,0.0,1.m4v,11.0
2024-02-28 14:18:10.438387,1709126290.4383874,21.97265625,981.93359375,-28.3203125,989.74609375,0.0,-1.0,0.0,0.0,1.m4v,11.0
2024-02-28 14:18:10.442292,1709126290.4422922,-2.44140625,961.42578125,-38.57421875,913.57421875,0.0,-1.0,0.0,0.0,1.m4v,11.0
2024-02-28 14:18:10.446197,1709126290.446197,23.4375,925.78125,-59.08203125,999.51171875,0.0,-1.0,0.0,0.0,1.m4v,11.0
2024-02-28 14:18:10.450122,1709126290.4501224,18.06640625,999.51171875,-31.25,850.5859375,0.0,-1.0,0.0,0.0,1.m4v,11.0
2024-02-28 14:18:10.454027,1709126290.4540272,-179.6875,86.9140625,-24.90234375,-587.890625,0.0,-1.0,0.0,0.0,1.m4v,11.0
2024-02-28 14:18:10.457932,1709126290.457932,-286.1328125,-1000.0,-38.0859375,-1000.0,0.0,-1.0,0.0,0.0,1.m4v,11.0
2024-02-28 14:18:10.461837,1709126290.4618368,-199.21875,-978.515625,-20.01953125,-928.22265625,0.0,-1.0,0.0,0.0,1.m4v,11.0
2024-02-28 14:18:10.465742,1709126290.4657416,-139.6484375,-979.00390625,-43.45703125,-1000.0,0.0,-1.0,0.0,0.0,1.m4v,11.0
2024-02-28 14:18:10.469646,1709126290.4696465,-92.28515625,-1000.0,-41.015625,-1000.0,0.0,-1.0,0.0,0.0,1.m4v,11.0
2024-02-28 14:18:10.473551,1709126290.4735513,-71.77734375,-961.9140625,-30.2734375,-938.4765625,0.0,-1.0,0.0,0.0,1.m4v,11.0
2024-02-28 14:18:10.477456,1709126290.477456,-114.74609375,-1000.0,-50.78125,-1000.0,0.0,-1.0,0.0,0.0,1.m4v,11.0
2024-02-28 14:18:10.481361,1709126290.481361,-87.890625,-1000.0,-28.80859375,-827.1484375,0.0,-1.0,0.0,0.0,1.m4v,11.0
2024-02-28 14:18:10.485266,1709126290.4852655,154.296875,328.61328125,-31.25,633.30078125,0.0,-1.0,0.0,0.0,1.m4v,11.0
2024-02-28 14:18:10.489171,1709126290.4891706,216.796875,999.51171875,-30.76171875,999.51171875,0.0,-1.0,0.0,0.0,1.m4v,11.0
2024-02-28 14:18:10.493076,1709126290.4930756,111.328125,900.390625,-32.2265625,898.4375,0.0,-1.0,0.0,0.0,1.m4v,11.0
2024-02-28 14:18:10.496998,1709126290.496998,44.921875,977.05078125,-61.03515625,987.79296875,0.0,-1.0,0.0,0.0,1.m4v,11.0
2024-02-28 14:18:10.500903,1709126290.500903,13.18359375,985.83984375,-41.50390625,975.09765625,0.0,-1.0,0.0,0.0,1.m4v,11.0
2024-02-28 14:18:10.504808,1709126290.5048077,8.30078125,913.57421875,-37.109375,916.015625,0.0,-1.0,0.0,0.0,1.m4v,11.0
2024-02-28 14:18:10.508713,1709126290.5087123,23.92578125,999.51171875,-51.26953125,999.51171875,0.0,-1.0,0.0,0.0,1.m4v,11.0
2024-02-28 14:18:10.512617,1709126290.512617,-38.0859375,872.55859375,-40.0390625,470.21484375,0.0,-1.0,0.0,0.0,1.m4v,11.0
2024-02-28 14:18:10.516522,1709126290.5165222,-250.0,-577.63671875,-60.05859375,-854.4921875,0.0,-1.0,0.0,0.0,1.m4v,11.0
2024-02-28 14:18:10.520427,1709126290.520427,-260.25390625,-1000.0,-73.2421875,-1000.0,0.0,-1.0,0.0,0.0,1.m4v,11.0
2024-02-28 14:18:10.524332,1709126290.5243318,-165.52734375,-925.29296875,-44.43359375,-950.68359375,0.0,-1.0,0.0,0.0,1.m4v,11.0
2024-02-28 14:18:10.528237,1709126290.5282366,-139.6484375,-1000.0,-32.2265625,-1000.0,0.0,-1.0,0.0,0.0,1.m4v,11.0
2024-02-28 14:18:10.532141,1709126290.5321414,-122.0703125,-1000.0,-30.76171875,-951.171875,0.0,-1.0,0.0,0.0,1.m4v,11.0
2024-02-28 14:18:10.536046,1709126290.5360465,-119.140625,-930.6640625,-42.96875,-1000.0,0.0,-1.0,0.0,0.0,1.m4v,11.0
2024-02-28 14:18:10.539951,1709126290.539951,-118.1640625,-1000.0,-39.55078125,-943.359375,0.0,-1.0,0.0,0.0,1.m4v,11.0
2024-02-28 14:18:10.543873,1709126290.5438726,60.546875,-588.8671875,-25.390625,463.37890625,0.0,-1.0,0.0,0.0,1.m4v,11.0
2024-02-28 14:18:10.547777,1709126290.5477774,197.265625,841.796875,-17.08984375,999.51171875,0.0,-1.0,0.0,0.0,1.m4v,11.0
2024-02-28 14:18:10.551682,1709126290.5516822,122.0703125,999.51171875,-43.45703125,897.4609375,0.0,-1.0,0.0,0.0,1.m4v,11.0
2024-02-28 14:18:10.555587,1709126290.555587,56.15234375,913.0859375,-40.0390625,981.93359375,0.0,-1.0,0.0,0.0,1.m4v,11.0
2024-02-28 14:18:10.559492,1709126290.559492,18.5546875,999.51171875,-2.9296875,983.88671875,0.0,-1.0,0.0,0.0,1.m4v,11.0
2024-02-28 14:18:10.563397,1709126290.5633967,12.20703125,919.43359375,-11.71875,910.15625,0.0,-1.0,0.0,0.0,1.m4v,11.0
2024-02-28 14:18:10.567302,1709126290.5673015,37.59765625,999.51171875,-42.96875,999.51171875,0.0,-1.0,0.0,0.0,1.m4v,11.0
2024-02-28 14:18:10.571206,1709126290.5712063,-3.41796875,916.50390625,-42.48046875,736.81640625,0.0,-1.0,0.0,0.0,1.m4v,11.0
2024-02-28 14:18:10.575111,1709126290.5751112,-223.14453125,-503.90625,-21.97265625,-694.82421875,0.0,-1.0,0.0,0.0,1.m4v,11.0
2024-02-28 14:18:10.579016,1709126290.579016,-286.62109375,-1000.0,-28.3203125,-1000.0,0.0,-1.0,0.0,0.0,1.m4v,11.0
2024-02-28 14:18:10.582921,1709126290.5829208,-179.6875,-926.26953125,-47.36328125,-933.10546875,0.0,-1.0,0.0,0.0,1.m4v,11.0
2024-02-28 14:18:10.586826,1709126290.5868258,-103.515625,-1000.0,-48.33984375,-1000.0,0.0,-1.0,0.0,0.0,1.m4v,11.0
2024-02-28 14:18:10.590747,1709126290.5907466,-68.84765625,-1000.0,-52.24609375,-991.2109375,0.0,-1.0,0.0,0.0,1.m4v,11.0
2024-02-28 14:18:10.594652,1709126290.5946517,-63.96484375,-937.98828125,-28.80859375,-962.40234375,0.0,-1.0,0.0,0.0,1.m4v,11.0
2024-02-28 14:18:10.598557,1709126290.5985565,-92.7734375,-1000.0,-15.13671875,-1000.0,0.0,-1.0,0.0,0.0,1.m4v,11.0
2024-02-28 14:18:10.602461,1709126290.602461,-4.39453125,-839.35546875,-54.19921875,-159.66796875,0.0,-1.0,0.0,0.0,1.m4v,11.0
2024-02-28 14:18:10.606366,1709126290.6063662,200.68359375,628.41796875,-50.78125,983.3984375,0.0,-1.0,0.0,0.0,1.m4v,11.0
2024-02-28 14:18:10.610271,1709126290.610271,183.59375,999.51171875,-20.01953125,963.37890625,0.0,-1.0,0.0,0.0,1.m4v,11.0
2024-02-28 14:18:10.614176,1709126290.6141758,86.42578125,897.4609375,-41.015625,943.359375,0.0,-1.0,0.0,0.0,1.m4v,11.0
2024-02-28 14:18:10.618081,1709126290.6180806,21.97265625,990.234375,-43.9453125,992.67578125,0.0,-1.0,0.0,0.0,1.m4v,11.0
2024-02-28 14:18:10.621985,1709126290.6219854,-11.71875,959.9609375,-48.828125,915.52734375,0.0,-1.0,0.0,0.0,1.m4v,11.0
2024-02-28 14:18:10.625890,1709126290.6258905,8.30078125,927.734375,-37.59765625,999.51171875,0.0,-1.0,0.0,0.0,1.m4v,11.0
2024-02-28 14:18:10.629795,1709126290.629795,13.671875,999.51171875,-38.0859375,868.65234375,0.0,-1.0,0.0,0.0,1.m4v,11.0
2024-02-28 14:18:10.633700,1709126290.6337,-166.015625,67.3828125,-36.62109375,-560.546875,0.0,-1.0,0.0,0.0,1.m4v,11.0
2024-02-28 14:18:10.637621,1709126290.6376207,-273.4375,-1000.0,-26.3671875,-1000.0,0.0,-1.0,0.0,0.0,1.m4v,11.0
2024-02-28 14:18:10.641526,1709126290.6415255,-183.10546875,-976.5625,-47.36328125,-928.22265625,0.0,-1.0,0.0,0.0,1.m4v,11.0
2024-02-28 14:18:10.645430,1709126290.6454303,-118.1640625,-979.98046875,-59.5703125,-1000.0,0.0,-1.0,0.0,0.0,1.m4v,11.0
2024-02-28 14:18:10.649335,1709126290.6493354,-84.9609375,-1000.0,-34.1796875,-1000.0,0.0,-1.0,0.0,0.0,1.m4v,11.0
2024-02-28 14:18:10.653240,1709126290.6532402,-63.4765625,-970.21484375,-32.71484375,-943.359375,0.0,-1.0,0.0,0.0,1.m4v,11.0
2024-02-28 14:18:10.657145,1709126290.657145,-82.03125,-991.69921875,-46.38671875,-1000.0,0.0,-1.0,0.0,0.0,1.m4v,11.0
2024-02-28 14:18:10.661050,1709126290.6610498,-64.453125,-1000.0,-31.73828125,-694.82421875,0.0,-1.0,0.0,0.0,1.m4v,11.0
2024-02-28 14:18:10.664955,1709126290.664955,141.6015625,211.42578125,-29.296875,701.66015625,0.0,-1.0,0.0,0.0,1.m4v,11.0
2024-02-28 14:18:10.668859,1709126290.6688595,192.87109375,999.51171875,-47.36328125,999.51171875,0.0,-1.0,0.0,0.0,1.m4v,11.0
2024-02-28 14:18:10.672764,1709126290.6727643,92.28515625,910.15625,-36.62109375,907.71484375,0.0,-1.0,0.0,0.0,1.m4v,11.0
2024-02-28 14:18:10.676669,1709126290.6766691,40.52734375,970.703125,-20.5078125,987.79296875,0.0,-1.0,0.0,0.0,1.m4v,11.0
2024-02-28 14:18:10.680574,1709126290.680574,-5.859375,986.328125,-15.625,967.7734375,0.0,-1.0,0.0,0.0,1.m4v,11.0
2024-02-28 14:18:10.684492,1709126290.684492,-8.7890625,916.50390625,-28.3203125,926.7578125,0.0,-1.0,0.0,0.0,1.m4v,11.0
2024-02-28 14:18:10.688397,1709126290.6883967,17.08984375,999.51171875,-61.5234375,999.51171875,0.0,-1.0,0.0,0.0,1.m4v,11.0
2024-02-28 14:18:10.692302,1709126290.6923015,-53.7109375,894.04296875,-35.64453125,317.3828125,0.0,-1.0,0.0,0.0,1.m4v,11.0
2024-02-28 14:18:10.696206,1709126290.6962063,-254.39453125,-542.96875,-46.875,-887.6953125,0.0,-1.0,0.0,0.0,1.m4v,11.0
2024-02-28 14:18:10.700111,1709126290.7001112,-268.06640625,-1000.0,-46.38671875,-1000.0,0.0,-1.0,0.0,0.0,1.m4v,11.0
2024-02-28 14:18:10.704016,1709126290.704016,-160.64453125,-925.78125,-10.25390625,-969.23828125,0.0,-1.0,0.0,0.0,1.m4v,11.0
2024-02-28 14:18:10.707921,1709126290.7079208,-36.62109375,-1000.0,-21.484375,-275.390625,0.0,-1.0,0.0,0.0,1.m4v,11.0
2024-02-28 14:18:10.711826,1709126290.7118258,-16.6015625,-1000.0,-43.45703125,-242.1875,0.0,-1.0,0.0,0.0,1.m4v,11.0
2024-02-28 14:18:10.715731,1709126290.715731,-109.375,-937.98828125,-47.36328125,-958.984375,0.0,-1.0,0.0,0.0,1.m4v,11.0
2024-02-28 14:18:10.719635,1709126290.7196355,-140.13671875,-1000.0,-24.4140625,-1000.0,0.0,-1.0,0.0,0.0,1.m4v,11.0
2024-02-28 14:18:10.723540,1709126290.7235403,-20.99609375,-838.8671875,-13.671875,-187.5,0.0,-1.0,0.0,0.0,1.m4v,11.0
2024-02-28 14:18:10.727445,1709126290.7274451,193.359375,629.39453125,-19.53125,968.75,0.0,-1.0,0.0,0.0,1.m4v,11.0
2024-02-28 14:18:10.731371,1709126290.731371,159.1796875,999.51171875,-57.12890625,968.75,0.0,-1.0,0.0,0.0,1.m4v,11.0
2024-02-28 14:18:10.735276,1709126290.7352755,64.94140625,897.4609375,-34.1796875,940.4296875,0.0,-1.0,0.0,0.0,1.m4v,11.0
2024-02-28 14:18:10.739181,1709126290.7391806,20.01953125,986.81640625,-34.1796875,993.65234375,0.0,-1.0,0.0,0.0,1.m4v,11.0
2024-02-28 14:18:10.743085,1709126290.7430854,-1.953125,982.421875,-33.203125,914.55078125,0.0,-1.0,0.0,0.0,1.m4v,11.0
2024-02-28 14:18:10.746990,1709126290.7469904,22.4609375,925.78125,-5.37109375,999.51171875,0.0,-1.0,0.0,0.0,1.m4v,11.0
2024-02-28 14:18:10.750895,1709126290.7508953,15.13671875,990.234375,-30.76171875,861.81640625,0.0,-1.0,0.0,0.0,1.m4v,11.0
2024-02-28 14:18:10.754800,1709126290.7548,-151.85546875,954.1015625,-35.15625,-574.70703125,0.0,-1.0,0.0,0.0,1.m4v,11.0
2024-02-28 14:18:10.758705,1709126290.758705,-261.23046875,-429.19921875,-33.69140625,-1000.0,0.0,-1.0,0.0,0.0,1.m4v,11.0
2024-02-28 14:18:10.762610,1709126290.7626095,-212.40234375,-1000.0,-48.33984375,-927.734375,0.0,-1.0,0.0,0.0,1.m4v,11.0
2024-02-28 14:18:10.766515,1709126290.7665143,-123.53515625,-927.734375,-32.71484375,-1000.0,0.0,-1.0,0.0,0.0,1.m4v,11.0
2024-02-28 14:18:10.770419,1709126290.7704194,-74.70703125,-1000.0,-20.01953125,-1000.0,0.0,-1.0,0.0,0.0,1.m4v,11.0
2024-02-28 14:18:10.774324,1709126290.7743242,-72.75390625,-950.1953125,-27.34375,-937.98828125,0.0,-1.0,0.0,0.0,1.m4v,11.0
2024-02-28 14:18:10.778249,1709126290.778249,-102.05078125,-1000.0,-8.30078125,-1000.0,0.0,-1.0,0.0,0.0,1.m4v,11.0
2024-02-28 14:18:10.782154,1709126290.7821538,-62.98828125,-946.2890625,-16.11328125,-799.31640625,0.0,-1.0,0.0,0.0,1.m4v,11.0
2024-02-28 14:18:10.786059,1709126290.786059,183.10546875,474.12109375,-39.0625,655.2734375,0.0,-1.0,0.0,0.0,1.m4v,11.0
2024-02-28 14:18:10.789963,1709126290.7899635,225.5859375,999.51171875,-39.55078125,999.51171875,0.0,-1.0,0.0,0.0,1.m4v,11.0
2024-02-28 14:18:10.793868,1709126290.7938683,104.4921875,895.5078125,-40.0390625,900.390625,0.0,-1.0,0.0,0.0,1.m4v,11.0
2024-02-28 14:18:10.797773,1709126290.7977731,59.5703125,982.91015625,-16.11328125,999.51171875,0.0,-1.0,0.0,0.0,1.m4v,11.0
2024-02-28 14:18:10.801678,1709126290.801678,20.5078125,970.21484375,-19.53125,915.0390625,0.0,-1.0,0.0,0.0,1.m4v,11.0
2024-02-28 14:18:10.805583,1709126290.805583,24.4140625,970.21484375,-53.7109375,999.51171875,0.0,-1.0,0.0,0.0,1.m4v,11.0
2024-02-28 14:18:10.809488,1709126290.8094878,22.4609375,969.7265625,-37.59765625,857.91015625,0.0,-1.0,0.0,0.0,1.m4v,11.0
2024-02-28 14:18:10.813393,1709126290.8133926,-131.8359375,970.21484375,-2.9296875,-571.77734375,0.0,-1.0,0.0,0.0,1.m4v,11.0
2024-02-28 14:18:10.817297,1709126290.8172977,-204.1015625,970.21484375,-21.97265625,-1000.0,0.0,-1.0,0.0,0.0,1.m4v,11.0
2024-02-28 14:18:10.821202,1709126290.8212025,-157.71484375,970.21484375,-57.12890625,-988.28125,0.0,-1.0,0.0,0.0,1.m4v,11.0
2024-02-28 14:18:10.825126,1709126290.8251264,-58.59375,970.21484375,-33.203125,-553.7109375,0.0,-1.0,0.0,0.0,1.m4v,11.0
2024-02-28 14:18:10.829031,1709126290.8290312,128.90625,969.7265625,-16.6015625,885.25390625,0.0,-1.0,0.0,0.0,1.m4v,11.0
2024-02-28 14:18:10.832936,1709126290.832936,91.30859375,969.7265625,-48.33984375,829.1015625,0.0,-1.0,0.0,0.0,1.m4v,11.0
2024-02-28 14:18:10.836841,1709126290.8368409,-128.90625,970.21484375,-42.96875,-658.203125,0.0,-1.0,0.0,0.0,1.m4v,11.0
2024-02-28 14:18:10.840746,1709126290.8407457,-172.8515625,977.5390625,6.34765625,-1000.0,0.0,-1.0,0.0,0.0,1.m4v,11.0
2024-02-28 14:18:10.844651,1709126290.8446507,-34.66796875,941.40625,0.0,-390.13671875,0.0,-1.0,0.0,0.0,1.m4v,11.0
2024-02-28 14:18:10.848556,1709126290.8485556,135.7421875,958.0078125,-28.80859375,945.80078125,0.0,-1.0,0.0,0.0,1.m4v,11.0
2024-02-28 14:18:10.852460,1709126290.8524604,83.0078125,999.51171875,-38.57421875,817.87109375,0.0,-1.0,0.0,0.0,1.m4v,11.0
2024-02-28 14:18:10.856365,1709126290.8563652,-183.59375,-219.23828125,-24.4140625,-708.984375,0.0,-1.0,0.0,0.0,1.m4v,11.0
2024-02-28 14:18:10.860270,1709126290.86027,-250.0,-1000.0,-24.90234375,-1000.0,0.0,-1.0,0.0,0.0,1.m4v,11.0
2024-02-28 14:18:10.864175,1709126290.8641748,-153.80859375,-942.3828125,-42.48046875,-929.6875,0.0,-1.0,0.0,0.0,1.m4v,11.0
2024-02-28 14:18:10.868080,1709126290.8680797,-112.3046875,-1000.0,-44.921875,-1000.0,0.0,-1.0,0.0,0.0,1.m4v,11.0
2024-02-28 14:18:10.872003,1709126290.8720033,-79.58984375,-1000.0,-50.29296875,-975.5859375,0.0,-1.0,0.0,0.0,1.m4v,11.0
2024-02-28 14:18:10.875908,1709126290.875908,-66.40625,-944.82421875,-35.15625,-984.86328125,0.0,-1.0,0.0,0.0,1.m4v,11.0
2024-02-28 14:18:10.879813,1709126290.879813,-96.19140625,-1000.0,-4.8828125,-1000.0,0.0,-1.0,0.0,0.0,1.m4v,11.0
2024-02-28 14:18:10.883718,1709126290.883718,60.546875,-250.0,-20.5078125,113.76953125,0.0,-1.0,0.0,0.0,1.m4v,11.0
2024-02-28 14:18:10.887623,1709126290.8876228,234.375,994.62890625,-25.87890625,999.51171875,0.0,-1.0,0.0,0.0,1.m4v,11.0
2024-02-28 14:18:10.891528,1709126290.8915277,157.71484375,966.796875,-1.46484375,925.78125,0.0,-1.0,0.0,0.0,1.m4v,11.0
2024-02-28 14:18:10.895432,1709126290.8954325,75.68359375,938.4765625,-15.13671875,965.33203125,0.0,-1.0,0.0,0.0,1.m4v,11.0
2024-02-28 14:18:10.899337,1709126290.8993373,21.484375,995.1171875,-28.80859375,973.6328125,0.0,-1.0,0.0,0.0,1.m4v,11.0
2024-02-28 14:18:10.903242,1709126290.903242,-1.46484375,910.64453125,-37.109375,918.9453125,0.0,-1.0,0.0,0.0,1.m4v,11.0
2024-02-28 14:18:10.907147,1709126290.907147,43.9453125,999.51171875,-38.0859375,999.51171875,0.0,-1.0,0.0,0.0,1.m4v,11.0
2024-02-28 14:18:10.911052,1709126290.9110518,-33.203125,842.28515625,-42.48046875,327.1484375,0.0,-1.0,0.0,0.0,1.m4v,11.0
2024-02-28 14:18:10.914957,1709126290.9149566,-258.7890625,-620.1171875,-25.87890625,-937.5,0.0,-1.0,0.0,0.0,1.m4v,11.0
2024-02-28 14:18:10.918878,1709126290.9188778,-249.0234375,-1000.0,-28.80859375,-1000.0,0.0,-1.0,0.0,0.0,1.m4v,11.0
2024-02-28 14:18:10.922783,1709126290.922783,-160.15625,-926.26953125,-45.41015625,-998.046875,0.0,-1.0,0.0,0.0,1.m4v,11.0
2024-02-28 14:18:10.926688,1709126290.9266877,-96.6796875,-1000.0,-35.15625,-824.70703125,0.0,-1.0,0.0,0.0,1.m4v,11.0
2024-02-28 14:18:10.930593,1709126290.9305923,-36.1328125,-1000.0,-20.5078125,-647.4609375,0.0,-1.0,0.0,0.0,1.m4v,11.0
2024-02-28 14:18:10.934497,1709126290.9344974,-72.265625,-938.96484375,-14.6484375,-922.36328125,0.0,-1.0,0.0,0.0,1.m4v,11.0
2024-02-28 14:18:10.938402,1709126290.9384022,-120.60546875,-1000.0,-25.87890625,-1000.0,0.0,-1.0,0.0,0.0,1.m4v,11.0
2024-02-28 14:18:10.942307,1709126290.942307,-32.71484375,-851.07421875,-48.828125,-360.3515625,0.0,-1.0,0.0,0.0,1.m4v,11.0
2024-02-28 14:18:10.946212,1709126290.9462118,186.03515625,616.2109375,-56.15234375,887.20703125,0.0,-1.0,0.0,0.0,1.m4v,11.0
2024-02-28 14:18:10.950117,1709126290.9501166,175.29296875,999.51171875,-29.78515625,998.046875,0.0,-1.0,0.0,0.0,1.m4v,11.0
2024-02-28 14:18:10.954021,1709126290.9540217,80.078125,896.484375,-24.4140625,928.22265625,0.0,-1.0,0.0,0.0,1.m4v,11.0
2024-02-28 14:18:10.957926,1709126290.9579265,44.43359375,988.76953125,-20.01953125,994.62890625,0.0,-1.0,0.0,0.0,1.m4v,11.0
2024-02-28 14:18:10.961831,1709126290.961831,2.9296875,965.33203125,-29.78515625,920.8984375,0.0,-1.0,0.0,0.0,1.m4v,11.0
2024-02-28 14:18:10.965752,1709126290.965752,10.7421875,919.921875,-41.015625,999.51171875,0.0,-1.0,0.0,0.0,1.m4v,11.0
2024-02-28 14:18:10.969657,1709126290.969657,30.76171875,999.51171875,-32.2265625,916.015625,0.0,-1.0,0.0,0.0,1.m4v,11.0
2024-02-28 14:18:10.973562,1709126290.9735618,-159.66796875,139.16015625,-32.71484375,-493.65234375,0.0,-1.0,0.0,0.0,1.m4v,11.0
2024-02-28 14:18:10.977467,1709126290.9774666,-294.43359375,-979.98046875,-44.43359375,-1000.0,0.0,-1.0,0.0,0.0,1.m4v,11.0
2024-02-28 14:18:10.981371,1709126290.9813714,-223.14453125,-1000.0,-42.48046875,-1000.0,0.0,-1.0,0.0,0.0,1.m4v,11.0
2024-02-28 14:18:10.985276,1709126290.9852762,-81.54296875,-806.640625,-30.76171875,-635.25390625,0.0,-1.0,0.0,0.0,1.m4v,11.0
2024-02-28 14:18:10.989181,1709126290.989181,153.80859375,628.90625,-31.73828125,737.3046875,0.0,-1.0,0.0,0.0,1.m4v,11.0
2024-02-28 14:18:10.993086,1709126290.993086,147.4609375,999.51171875,-34.1796875,999.51171875,0.0,-1.0,0.0,0.0,1.m4v,11.0
2024-02-28 14:18:10.996991,1709126290.996991,21.97265625,897.94921875,-39.55078125,788.57421875,0.0,-1.0,0.0,0.0,1.m4v,11.0
2024-02-28 14:18:11.000896,1709126291.0008955,-3.90625,997.0703125,-28.80859375,725.5859375,0.0,-1.0,0.0,0.0,1.m4v,11.0
2024-02-28 14:18:11.004800,1709126291.0048003,38.57421875,901.85546875,-20.5078125,956.0546875,0.0,-1.0,0.0,0.0,1.m4v,11.0
2024-02-28 14:18:11.008705,1709126291.0087054,46.875,999.51171875,-35.64453125,999.51171875,0.0,-1.0,0.0,0.0,1.m4v,11.0
2024-02-28 14:18:11.012625,1709126291.012625,-115.234375,455.078125,-43.9453125,-250.9765625,0.0,-1.0,0.0,0.0,1.m4v,11.0
2024-02-28 14:18:11.016530,1709126291.0165298,-272.94921875,-931.640625,-30.2734375,-1000.0,0.0,-1.0,0.0,0.0,1.m4v,11.0
2024-02-28 14:18:11.020435,1709126291.0204346,-206.0546875,-1000.0,-18.5546875,-948.2421875,0.0,-1.0,0.0,0.0,1.m4v,11.0
2024-02-28 14:18:11.024339,1709126291.0243394,-119.140625,-904.296875,-21.484375,-1000.0,0.0,-1.0,0.0,0.0,1.m4v,11.0
2024-02-28 14:18:11.028244,1709126291.0282445,-71.2890625,-1000.0,-19.53125,-943.359375,0.0,-1.0,0.0,0.0,1.m4v,11.0
2024-02-28 14:18:11.032149,1709126291.032149,-57.12890625,-967.28515625,-11.23046875,-1000.0,0.0,-1.0,0.0,0.0,1.m4v,11.0
2024-02-28 14:18:11.036054,1709126291.036054,23.92578125,432.12890625,-20.01953125,-557.6171875,0.0,-1.0,0.0,0.0,1.m4v,11.0
2024-02-28 14:18:11.039959,1709126291.0399587,163.0859375,999.51171875,-30.76171875,809.5703125,0.0,-1.0,0.0,0.0,1.m4v,11.0
2024-02-28 14:18:11.043864,1709126291.0438635,145.01953125,913.0859375,-26.85546875,999.51171875,0.0,-1.0,0.0,0.0,1.m4v,11.0
2024-02-28 14:18:11.047769,1709126291.0477686,80.078125,923.33984375,-19.53125,866.2109375,0.0,-1.0,0.0,0.0,1.m4v,11.0
2024-02-28 14:18:11.051673,1709126291.0516734,70.3125,999.51171875,-21.97265625,999.51171875,0.0,-1.0,0.0,0.0,1.m4v,11.0
2024-02-28 14:18:11.055578,1709126291.0555782,-22.94921875,858.88671875,-30.76171875,428.7109375,0.0,-1.0,0.0,0.0,1.m4v,11.0
2024-02-28 14:18:11.059498,1709126291.0594978,-243.1640625,-599.12109375,-23.92578125,-864.2578125,0.0,-1.0,0.0,0.0,1.m4v,11.0
2024-02-28 14:18:11.063403,1709126291.063403,-229.00390625,-1000.0,-17.578125,-1000.0,0.0,-1.0,0.0,0.0,1.m4v,11.0
2024-02-28 14:18:11.067307,1709126291.0673077,-127.44140625,-942.87109375,-28.80859375,-970.21484375,0.0,-1.0,0.0,0.0,1.m4v,11.0
2024-02-28 14:18:11.071212,1709126291.0712123,-79.58984375,-950.68359375,-25.87890625,-950.68359375,0.0,-1.0,0.0,0.0,1.m4v,11.0
2024-02-28 14:18:11.075117,1709126291.075117,-90.8203125,-1000.0,-17.578125,-1000.0,0.0,-1.0,0.0,0.0,1.m4v,11.0
2024-02-28 14:18:11.079022,1709126291.0790222,-69.82421875,-786.62109375,-19.04296875,-835.9375,0.0,-1.0,0.0,0.0,1.m4v,11.0
2024-02-28 14:18:11.082927,1709126291.082927,162.59765625,686.03515625,-18.5546875,631.34765625,0.0,-1.0,0.0,0.0,1.m4v,11.0
2024-02-28 14:18:11.086832,1709126291.0868318,194.3359375,999.51171875,-7.8125,999.51171875,0.0,-1.0,0.0,0.0,1.m4v,11.0
2024-02-28 14:18:11.090737,1709126291.0907366,92.28515625,899.90234375,-15.13671875,874.51171875,0.0,-1.0,0.0,0.0,1.m4v,11.0
2024-02-28 14:18:11.094641,1709126291.0946414,62.01171875,986.81640625,-28.3203125,999.51171875,0.0,-1.0,0.0,0.0,1.m4v,11.0
2024-02-28 14:18:11.098546,1709126291.0985465,-33.203125,970.21484375,-14.6484375,371.58203125,0.0,-1.0,0.0,0.0,1.m4v,11.0
2024-02-28 14:18:11.102451,1709126291.102451,-141.6015625,983.88671875,-13.18359375,-703.61328125,0.0,-1.0,0.0,0.0,1.m4v,11.0
2024-02-28 14:18:11.106377,1709126291.1063771,-59.5703125,920.8984375,-29.296875,-208.0078125,0.0,-1.0,0.0,0.0,1.m4v,11.0
2024-02-28 14:18:11.110282,1709126291.110282,103.02734375,999.51171875,-22.4609375,999.51171875,0.0,-1.0,0.0,0.0,1.m4v,11.0
2024-02-28 14:18:11.114187,1709126291.1141868,49.8046875,925.78125,-14.6484375,775.87890625,0.0,-1.0,0.0,0.0,1.m4v,11.0
2024-02-28 14:18:11.118092,1709126291.1180916,-205.56640625,-486.81640625,-8.7890625,-693.359375,0.0,-1.0,0.0,0.0,1.m4v,11.0
2024-02-28 14:18:11.121996,1709126291.1219964,-243.65234375,-1000.0,-3.41796875,-1000.0,0.0,-1.0,0.0,0.0,1.m4v,11.0
2024-02-28 14:18:11.125901,1709126291.1259012,-114.74609375,-926.26953125,-16.6015625,-914.55078125,0.0,-1.0,0.0,0.0,1.m4v,11.0
2024-02-28 14:18:11.129806,1709126291.129806,-75.68359375,-1000.0,-26.3671875,-1000.0,0.0,-1.0,0.0,0.0,1.m4v,11.0
2024-02-28 14:18:11.133711,1709126291.1337109,-71.77734375,-943.359375,-31.25,-941.40625,0.0,-1.0,0.0,0.0,1.m4v,11.0
2024-02-28 14:18:11.137616,1709126291.1376157,-113.76953125,-1000.0,-41.50390625,-1000.0,0.0,-1.0,0.0,0.0,1.m4v,11.0
2024-02-28 14:18:11.141521,1709126291.1415207,-75.1953125,-899.4140625,-37.59765625,-763.18359375,0.0,-1.0,0.0,0.0,1.m4v,11.0
2024-02-28 14:18:11.145426,1709126291.1454256,183.59375,553.7109375,-20.99609375,681.640625,0.0,-1.0,0.0,0.0,1.m4v,11.0
2024-02-28 14:18:11.149330,1709126291.1493304,217.28515625,999.51171875,-20.01953125,999.51171875,0.0,-1.0,0.0,0.0,1.m4v,11.0
2024-02-28 14:18:11.153255,1709126291.153255,98.14453125,895.01953125,-29.78515625,902.34375,0.0,-1.0,0.0,0.0,1.m4v,11.0
2024-02-28 14:18:11.157160,1709126291.1571598,47.36328125,985.3515625,-31.73828125,992.67578125,0.0,-1.0,0.0,0.0,1.m4v,11.0
2024-02-28 14:18:11.161065,1709126291.1610646,18.06640625,970.21484375,-24.90234375,947.75390625,0.0,-1.0,0.0,0.0,1.m4v,11.0
2024-02-28 14:18:11.164969,1709126291.1649694,18.5546875,973.6328125,-19.53125,953.125,0.0,-1.0,0.0,0.0,1.m4v,11.0
2024-02-28 14:18:11.168874,1709126291.1688745,33.69140625,959.9609375,-31.25,999.51171875,0.0,-1.0,0.0,0.0,1.m4v,11.0
2024-02-28 14:18:11.172779,1709126291.172779,-74.70703125,927.734375,-32.71484375,-83.49609375,0.0,-1.0,0.0,0.0,1.m4v,11.0
2024-02-28 14:18:11.176684,1709126291.176684,-201.171875,999.51171875,-16.6015625,-1000.0,0.0,-1.0,0.0,0.0,1.m4v,11.0
2024-02-28 14:18:11.180589,1709126291.180589,-199.70703125,63.4765625,-15.625,-967.7734375,0.0,-1.0,0.0,0.0,1.m4v,11.0
2024-02-28 14:18:11.184494,1709126291.1844938,-176.26953125,-1000.0,-21.97265625,-987.79296875,0.0,-1.0,0.0,0.0,1.m4v,11.0
2024-02-28 14:18:11.188399,1709126291.1883986,-117.67578125,-975.5859375,-19.53125,-1000.0,0.0,-1.0,0.0,0.0,1.m4v,11.0
2024-02-28 14:18:11.192303,1709126291.1923034,-77.63671875,-996.58203125,-22.4609375,-970.703125,0.0,-1.0,0.0,0.0,1.m4v,11.0
2024-02-28 14:18:11.196208,1709126291.1962082,-87.890625,-948.2421875,-33.203125,-994.62890625,0.0,-1.0,0.0,0.0,1.m4v,11.0
2024-02-28 14:18:11.200132,1709126291.200132,-111.328125,-1000.0,-31.73828125,-1000.0,0.0,-1.0,0.0,0.0,1.m4v,11.0
2024-02-28 14:18:11.204037,1709126291.2040367,34.66796875,-894.04296875,-32.71484375,189.453125,0.0,-1.0,0.0,0.0,1.m4v,11.0
2024-02-28 14:18:11.207942,1709126291.2079415,201.66015625,562.01171875,-49.31640625,999.51171875,0.0,-1.0,0.0,0.0,1.m4v,11.0
2024-02-28 14:18:11.211846,1709126291.2118464,144.04296875,999.51171875,-42.48046875,917.96875,0.0,-1.0,0.0,0.0,1.m4v,11.0
2024-02-28 14:18:11.215751,1709126291.2157512,59.08203125,895.01953125,-21.484375,968.26171875,0.0,-1.0,0.0,0.0,1.m4v,11.0
2024-02-28 14:18:11.219656,1709126291.219656,35.64453125,998.046875,-11.23046875,979.98046875,0.0,-1.0,0.0,0.0,1.m4v,11.0
2024-02-28 14:18:11.223561,1709126291.2235608,17.578125,925.29296875,-18.06640625,915.0390625,0.0,-1.0,0.0,0.0,1.m4v,11.0
2024-02-28 14:18:11.227466,1709126291.2274656,17.08984375,991.69921875,-26.3671875,999.51171875,0.0,-1.0,0.0,0.0,1.m4v,11.0
2024-02-28 14:18:11.231370,1709126291.2313704,-32.71484375,951.171875,-30.2734375,563.4765625,0.0,-1.0,0.0,0.0,1.m4v,11.0
2024-02-28 14:18:11.235275,1709126291.2352753,-241.69921875,-436.5234375,-35.15625,-791.50390625,0.0,-1.0,0.0,0.0,1.m4v,11.0
2024-02-28 14:18:11.239180,1709126291.2391803,-272.94921875,-1000.0,-34.1796875,-1000.0,0.0,-1.0,0.0,0.0,1.m4v,11.0
2024-02-28 14:18:11.243085,1709126291.2430851,-160.64453125,-927.734375,-40.52734375,-944.82421875,0.0,-1.0,0.0,0.0,1.m4v,11.0
2024-02-28 14:18:11.247008,1709126291.2470083,-112.3046875,-1000.0,-36.62109375,-1000.0,0.0,-1.0,0.0,0.0,1.m4v,11.0
2024-02-28 14:18:11.250913,1709126291.2509131,-92.7734375,-1000.0,-21.97265625,-1000.0,0.0,-1.0,0.0,0.0,1.m4v,11.0
2024-02-28 14:18:11.254818,1709126291.254818,-78.125,-942.3828125,-25.390625,-939.453125,0.0,-1.0,0.0,0.0,1.m4v,11.0
2024-02-28 14:18:11.258723,1709126291.2587228,-104.98046875,-1000.0,-29.78515625,-1000.0,0.0,-1.0,0.0,0.0,1.m4v,11.0
2024-02-28 14:18:11.262628,1709126291.2626276,-51.26953125,-891.11328125,-22.94921875,-574.21875,0.0,-1.0,0.0,0.0,1.m4v,11.0
2024-02-28 14:18:11.266533,1709126291.266533,190.4296875,566.40625,-23.4375,805.17578125,0.0,-1.0,0.0,0.0,1.m4v,11.0
2024-02-28 14:18:11.270437,1709126291.2704377,195.3125,999.51171875,-14.6484375,999.51171875,0.0,-1.0,0.0,0.0,1.m4v,11.0
2024-02-28 14:18:11.274342,1709126291.2743423,57.6171875,895.01953125,-5.859375,915.0390625,0.0,-1.0,0.0,0.0,1.m4v,11.0
2024-02-28 14:18:11.278247,1709126291.278247,14.6484375,985.83984375,-10.7421875,997.0703125,0.0,-1.0,0.0,0.0,1.m4v,11.0
2024-02-28 14:18:11.282152,1709126291.282152,-5.37109375,987.3046875,-21.97265625,920.41015625,0.0,-1.0,0.0,0.0,1.m4v,11.0
2024-02-28 14:18:11.286057,1709126291.2860568,8.30078125,903.3203125,-28.3203125,999.51171875,0.0,-1.0,0.0,0.0,1.m4v,11.0
2024-02-28 14:18:11.289962,1709126291.2899616,18.5546875,999.51171875,-23.92578125,903.80859375,0.0,-1.0,0.0,0.0,1.m4v,11.0
2024-02-28 14:18:11.293889,1709126291.2938888,-135.25390625,747.0703125,-13.18359375,-496.09375,0.0,-1.0,0.0,0.0,1.m4v,11.0
2024-02-28 14:18:11.297794,1709126291.2977936,-274.90234375,-727.5390625,-20.01953125,-1000.0,0.0,-1.0,0.0,0.0,1.m4v,11.0
2024-02-28 14:18:11.301698,1709126291.3016984,-214.35546875,-1000.0,-34.66796875,-929.19921875,0.0,-1.0,0.0,0.0,1.m4v,11.0
2024-02-28 14:18:11.305603,1709126291.3056033,-131.34765625,-930.6640625,-20.5078125,-1000.0,0.0,-1.0,0.0,0.0,1.m4v,11.0
2024-02-28 14:18:11.309508,1709126291.3095083,-99.12109375,-1000.0,-16.6015625,-1000.0,0.0,-1.0,0.0,0.0,1.m4v,11.0
2024-02-28 14:18:11.313413,1709126291.3134131,-70.3125,-953.125,-20.99609375,-938.4765625,0.0,-1.0,0.0,0.0,1.m4v,11.0
2024-02-28 14:18:11.317318,1709126291.317318,-87.890625,-1000.0,-20.99609375,-1000.0,0.0,-1.0,0.0,0.0,1.m4v,11.0
2024-02-28 14:18:11.321223,1709126291.3212228,-72.75390625,-966.30859375,-26.3671875,-765.13671875,0.0,-1.0,0.0,0.0,1.m4v,11.0
2024-02-28 14:18:11.325128,1709126291.3251276,157.71484375,434.08203125,-33.203125,675.29296875,0.0,-1.0,0.0,0.0,1.m4v,11.0
2024-02-28 14:18:11.329032,1709126291.3290324,201.171875,999.51171875,-36.62109375,999.51171875,0.0,-1.0,0.0,0.0,1.m4v,11.0
2024-02-28 14:18:11.332937,1709126291.3329372,83.984375,896.484375,-37.109375,902.34375,0.0,-1.0,0.0,0.0,1.m4v,11.0
2024-02-28 14:18:11.336842,1709126291.336842,40.52734375,981.4453125,-30.2734375,989.74609375,0.0,-1.0,0.0,0.0,1.m4v,11.0
2024-02-28 14:18:11.340762,1709126291.3407624,13.671875,983.88671875,-27.83203125,962.890625,0.0,-1.0,0.0,0.0,1.m4v,11.0
2024-02-28 14:18:11.344667,1709126291.3446672,5.859375,921.38671875,-27.34375,932.12890625,0.0,-1.0,0.0,0.0,1.m4v,11.0
2024-02-28 14:18:11.348572,1709126291.348572,28.3203125,999.51171875,-16.11328125,999.51171875,0.0,-1.0,0.0,0.0,1.m4v,11.0
2024-02-28 14:18:11.352477,1709126291.3524768,-51.7578125,926.7578125,-17.08984375,199.70703125,0.0,-1.0,0.0,0.0,1.m4v,11.0
2024-02-28 14:18:11.356382,1709126291.3563817,-257.8125,-484.375,-31.25,-970.21484375,0.0,-1.0,0.0,0.0,1.m4v,11.0
2024-02-28 14:18:11.360286,1709126291.3602865,-250.48828125,-1000.0,-35.15625,-1000.0,0.0,-1.0,0.0,0.0,1.m4v,11.0
2024-02-28 14:18:11.364191,1709126291.3641913,-141.6015625,-926.26953125,-42.48046875,-968.26171875,0.0,-1.0,0.0,0.0,1.m4v,11.0
2024-02-28 14:18:11.368096,1709126291.368096,-111.328125,-1000.0,-56.640625,-1000.0,0.0,-1.0,0.0,0.0,1.m4v,11.0
2024-02-28 14:18:11.372001,1709126291.372001,-86.42578125,-1000.0,-47.8515625,-968.26171875,0.0,-1.0,0.0,0.0,1.m4v,11.0
2024-02-28 14:18:11.375906,1709126291.3759058,-85.44921875,-931.15234375,-45.41015625,-998.046875,0.0,-1.0,0.0,0.0,1.m4v,11.0
2024-02-28 14:18:11.379811,1709126291.3798108,-115.234375,-1000.0,-49.8046875,-1000.0,0.0,-1.0,0.0,0.0,1.m4v,11.0
2024-02-28 14:18:11.383716,1709126291.3837156,41.9921875,-715.8203125,-31.25,224.12109375,0.0,-1.0,0.0,0.0,1.m4v,11.0
2024-02-28 14:18:11.387635,1709126291.3876345,212.40234375,752.9296875,-32.71484375,999.51171875,0.0,-1.0,0.0,0.0,1.m4v,11.0
2024-02-28 14:18:11.391539,1709126291.391539,138.671875,999.51171875,-46.38671875,913.57421875,0.0,-1.0,0.0,0.0,1.m4v,11.0
2024-02-28 14:18:11.395444,1709126291.3954444,62.5,904.296875,-38.0859375,969.7265625,0.0,-1.0,0.0,0.0,1.m4v,11.0
2024-02-28 14:18:11.399349,1709126291.3993492,25.87890625,999.0234375,-37.109375,985.83984375,0.0,-1.0,0.0,0.0,1.m4v,11.0
2024-02-28 14:18:11.403254,1709126291.403254,2.44140625,927.24609375,-48.33984375,908.203125,0.0,-1.0,0.0,0.0,1.m4v,11.0
2024-02-28 14:18:11.407159,1709126291.4071589,27.83203125,986.81640625,-43.9453125,999.51171875,0.0,-1.0,0.0,0.0,1.m4v,11.0
2024-02-28 14:18:11.411064,1709126291.4110637,-5.37109375,962.890625,-44.43359375,722.16796875,0.0,-1.0,0.0,0.0,1.m4v,11.0
2024-02-28 14:18:11.414968,1709126291.4149685,-221.6796875,-408.69140625,-47.36328125,-713.8671875,0.0,-1.0,0.0,0.0,1.m4v,11.0
2024-02-28 14:18:11.418873,1709126291.4188733,-275.87890625,-1000.0,-39.55078125,-1000.0,0.0,-1.0,0.0,0.0,1.m4v,11.0
2024-02-28 14:18:11.422778,1709126291.422778,-172.8515625,-928.7109375,-38.57421875,-934.08203125,0.0,-1.0,0.0,0.0,1.m4v,11.0
2024-02-28 14:18:11.426683,1709126291.426683,-115.72265625,-1000.0,-40.52734375,-1000.0,0.0,-1.0,0.0,0.0,1.m4v,11.0
2024-02-28 14:18:11.430588,1709126291.430588,-95.703125,-1000.0,-39.0625,-1000.0,0.0,-1.0,0.0,0.0,1.m4v,11.0
2024-02-28 14:18:11.434506,1709126291.4345062,-79.1015625,-944.3359375,-40.0390625,-942.87109375,0.0,-1.0,0.0,0.0,1.m4v,11.0
2024-02-28 14:18:11.438411,1709126291.438411,-102.05078125,-1000.0,-36.62109375,-1000.0,0.0,-1.0,0.0,0.0,1.m4v,11.0
2024-02-28 14:18:11.442316,1709126291.4423158,-30.2734375,-905.76171875,-30.76171875,-477.5390625,0.0,-1.0,0.0,0.0,1.m4v,11.0
2024-02-28 14:18:11.446221,1709126291.4462206,204.1015625,542.96875,-28.3203125,857.91015625,0.0,-1.0,0.0,0.0,1.m4v,11.0
2024-02-28 14:18:11.450125,1709126291.4501257,197.265625,999.51171875,-35.64453125,999.51171875,0.0,-1.0,0.0,0.0,1.m4v,11.0
2024-02-28 14:18:11.454031,1709126291.4540305,101.07421875,895.01953125,-42.96875,921.38671875,0.0,-1.0,0.0,0.0,1.m4v,11.0
2024-02-28 14:18:11.457935,1709126291.457935,57.12890625,988.28125,-35.15625,997.55859375,0.0,-1.0,0.0,0.0,1.m4v,11.0
2024-02-28 14:18:11.461840,1709126291.4618402,13.671875,962.890625,-27.83203125,915.0390625,0.0,-1.0,0.0,0.0,1.m4v,11.0
2024-02-28 14:18:11.465745,1709126291.465745,28.80859375,923.33984375,-25.390625,999.51171875,0.0,-1.0,0.0,0.0,1.m4v,11.0
2024-02-28 14:18:11.469650,1709126291.4696498,26.3671875,999.51171875,-31.73828125,869.140625,0.0,-1.0,0.0,0.0,1.m4v,11.0
2024-02-28 14:18:11.473555,1709126291.4735546,-161.1328125,118.65234375,-39.55078125,-563.96484375,0.0,-1.0,0.0,0.0,1.m4v,11.0
2024-02-28 14:18:11.477459,1709126291.4774594,-279.78515625,-1000.0,-38.57421875,-1000.0,0.0,-1.0,0.0,0.0,1.m4v,11.0
2024-02-28 14:18:11.481386,1709126291.481386,-188.4765625,-983.3984375,-33.69140625,-927.734375,0.0,-1.0,0.0,0.0,1.m4v,11.0
2024-02-28 14:18:11.485291,1709126291.4852908,-108.88671875,-977.05078125,-41.9921875,-1000.0,0.0,-1.0,0.0,0.0,1.m4v,11.0
2024-02-28 14:18:11.489196,1709126291.4891956,-79.58984375,-1000.0,-45.8984375,-998.046875,0.0,-1.0,0.0,0.0,1.m4v,11.0
2024-02-28 14:18:11.493100,1709126291.4931004,-66.89453125,-931.640625,-33.203125,-951.66015625,0.0,-1.0,0.0,0.0,1.m4v,11.0
2024-02-28 14:18:11.497005,1709126291.4970052,-90.8203125,-1000.0,-20.5078125,-1000.0,0.0,-1.0,0.0,0.0,1.m4v,11.0
2024-02-28 14:18:11.500910,1709126291.50091,10.25390625,-509.765625,-22.94921875,-283.203125,0.0,-1.0,0.0,0.0,1.m4v,11.0
2024-02-28 14:18:11.504815,1709126291.504815,219.7265625,888.18359375,-34.66796875,949.21875,0.0,-1.0,0.0,0.0,1.m4v,11.0
2024-02-28 14:18:11.508720,1709126291.50872,177.734375,999.51171875,-40.0390625,979.98046875,0.0,-1.0,0.0,0.0,1.m4v,11.0
2024-02-28 14:18:11.512625,1709126291.5126247,85.9375,918.9453125,-41.50390625,935.05859375,0.0,-1.0,0.0,0.0,1.m4v,11.0
2024-02-28 14:18:11.516530,1709126291.5165296,47.36328125,984.375,-43.9453125,981.4453125,0.0,-1.0,0.0,0.0,1.m4v,11.0
2024-02-28 14:18:11.520434,1709126291.5204344,13.18359375,986.81640625,-38.0859375,954.58984375,0.0,-1.0,0.0,0.0,1.m4v,11.0
2024-02-28 14:18:11.524339,1709126291.5243392,13.671875,906.25,-32.71484375,951.66015625,0.0,-1.0,0.0,0.0,1.m4v,11.0
2024-02-28 14:18:11.528273,1709126291.528273,20.01953125,999.51171875,-34.1796875,910.64453125,0.0,-1.0,0.0,0.0,1.m4v,11.0
2024-02-28 14:18:11.532178,1709126291.5321782,-96.6796875,787.59765625,-34.1796875,-109.375,0.0,-1.0,0.0,0.0,1.m4v,11.0
2024-02-28 14:18:11.536083,1709126291.5360832,-281.73828125,-682.12890625,-41.50390625,-1000.0,0.0,-1.0,0.0,0.0,1.m4v,11.0
2024-02-28 14:18:11.539988,1709126291.539988,-257.32421875,-1000.0,-43.9453125,-970.21484375,0.0,-1.0,0.0,0.0,1.m4v,11.0
2024-02-28 14:18:11.543893,1709126291.5438929,-164.0625,-928.7109375,-45.8984375,-1000.0,0.0,-1.0,0.0,0.0,1.m4v,11.0
2024-02-28 14:18:11.547798,1709126291.5477977,-59.08203125,-1000.0,-50.29296875,-703.61328125,0.0,-1.0,0.0,0.0,1.m4v,11.0
2024-02-28 14:18:11.551702,1709126291.5517025,-24.90234375,-1000.0,-37.109375,-592.7734375,0.0,-1.0,0.0,0.0,1.m4v,11.0
2024-02-28 14:18:11.555607,1709126291.5556073,-96.6796875,-930.17578125,-28.3203125,-999.51171875,0.0,-1.0,0.0,0.0,1.m4v,11.0
2024-02-28 14:18:11.559512,1709126291.559512,-107.91015625,-1000.0,-23.4375,-1000.0,0.0,-1.0,0.0,0.0,1.m4v,11.0
2024-02-28 14:18:11.563417,1709126291.563417,44.921875,-692.87109375,-29.78515625,182.6171875,0.0,-1.0,0.0,0.0,1.m4v,11.0
2024-02-28 14:18:11.567322,1709126291.5673218,212.890625,774.90234375,-35.64453125,999.51171875,0.0,-1.0,0.0,0.0,1.m4v,11.0
2024-02-28 14:18:11.571227,1709126291.5712268,145.01953125,999.51171875,-37.109375,919.921875,0.0,-1.0,0.0,0.0,1.m4v,11.0
2024-02-28 14:18:11.575151,1709126291.575151,56.15234375,905.2734375,-38.57421875,965.8203125,0.0,-1.0,0.0,0.0,1.m4v,11.0
2024-02-28 14:18:11.579056,1709126291.5790558,21.484375,986.81640625,-35.15625,987.79296875,0.0,-1.0,0.0,0.0,1.m4v,11.0
2024-02-28 14:18:11.582961,1709126291.5829606,6.34765625,969.7265625,-37.59765625,912.109375,0.0,-1.0,0.0,0.0,1.m4v,11.0
2024-02-28 14:18:11.586865,1709126291.5868654,25.390625,985.3515625,-45.8984375,999.51171875,0.0,-1.0,0.0,0.0,1.m4v,11.0
2024-02-28 14:18:11.590770,1709126291.5907702,0.0,915.52734375,-46.38671875,829.58984375,0.0,-1.0,0.0,0.0,1.m4v,11.0
2024-02-28 14:18:11.594675,1709126291.594675,-166.50390625,999.51171875,-37.59765625,-614.2578125,0.0,-1.0,0.0,0.0,1.m4v,11.0
2024-02-28 14:18:11.598580,1709126291.59858,-226.5625,887.6953125,-34.1796875,-1000.0,0.0,-1.0,0.0,0.0,1.m4v,11.0
2024-02-28 14:18:11.602485,1709126291.6024847,-199.70703125,-554.19921875,-26.3671875,-928.22265625,0.0,-1.0,0.0,0.0,1.m4v,11.0
2024-02-28 14:18:11.606390,1709126291.6063898,-168.9453125,-1000.0,-23.4375,-1000.0,0.0,-1.0,0.0,0.0,1.m4v,11.0
2024-02-28 14:18:11.610295,1709126291.6102946,-122.0703125,-940.4296875,-36.1328125,-1000.0,0.0,-1.0,0.0,0.0,1.m4v,11.0
2024-02-28 14:18:11.614199,1709126291.6141994,-101.07421875,-961.9140625,-48.828125,-941.40625,0.0,-1.0,0.0,0.0,1.m4v,11.0
2024-02-28 14:18:11.618104,1709126291.6181042,-117.1875,-1000.0,-47.36328125,-1000.0,0.0,-1.0,0.0,0.0,1.m4v,11.0
2024-02-28 14:18:11.622027,1709126291.6220274,-50.29296875,-926.26953125,-43.9453125,-554.19921875,0.0,-1.0,0.0,0.0,1.m4v,11.0
2024-02-28 14:18:11.625932,1709126291.6259322,170.8984375,508.7890625,-43.9453125,809.5703125,0.0,-1.0,0.0,0.0,1.m4v,11.0
2024-02-28 14:18:11.629837,1709126291.629837,184.08203125,999.51171875,-43.9453125,999.51171875,0.0,-1.0,0.0,0.0,1.m4v,11.0
2024-02-28 14:18:11.633742,1709126291.633742,77.63671875,895.5078125,-41.9921875,916.50390625,0.0,-1.0,0.0,0.0,1.m4v,11.0
2024-02-28 14:18:11.637647,1709126291.637647,19.53125,991.69921875,-44.921875,999.51171875,0.0,-1.0,0.0,0.0,1.m4v,11.0
2024-02-28 14:18:11.641552,1709126291.6415515,-19.53125,942.87109375,-42.48046875,910.15625,0.0,-1.0,0.0,0.0,1.m4v,11.0
2024-02-28 14:18:11.645457,1709126291.6454566,2.9296875,955.56640625,-29.78515625,999.51171875,0.0,-1.0,0.0,0.0,1.m4v,11.0
2024-02-28 14:18:11.649361,1709126291.6493614,-2.9296875,999.51171875,-27.83203125,822.75390625,0.0,-1.0,0.0,0.0,1.m4v,11.0
2024-02-28 14:18:11.653266,1709126291.6532662,-196.77734375,-200.1953125,-29.78515625,-631.34765625,0.0,-1.0,0.0,0.0,1.m4v,11.0
2024-02-28 14:18:11.657171,1709126291.657171,-290.0390625,-1000.0,-42.48046875,-1000.0,0.0,-1.0,0.0,0.0,1.m4v,11.0
2024-02-28 14:18:11.661076,1709126291.6610758,-204.58984375,-944.3359375,-71.77734375,-928.22265625,0.0,-1.0,0.0,0.0,1.m4v,11.0
2024-02-28 14:18:11.664981,1709126291.6649806,-135.7421875,-998.53515625,-59.08203125,-1000.0,0.0,-1.0,0.0,0.0,1.m4v,11.0
2024-02-28 14:18:11.668912,1709126291.6689117,-98.6328125,-1000.0,-35.15625,-1000.0,0.0,-1.0,0.0,0.0,1.m4v,11.0
2024-02-28 14:18:11.672817,1709126291.6728165,-73.2421875,-941.89453125,-37.59765625,-940.4296875,0.0,-1.0,0.0,0.0,1.m4v,11.0
2024-02-28 14:18:11.676721,1709126291.676721,-86.9140625,-1000.0,-36.1328125,-1000.0,0.0,-1.0,0.0,0.0,1.m4v,11.0
2024-02-28 14:18:11.680626,1709126291.6806262,-73.73046875,-883.30078125,-41.015625,-856.4453125,0.0,-1.0,0.0,0.0,1.m4v,11.0
2024-02-28 14:18:11.684531,1709126291.684531,155.2734375,576.66015625,-46.875,603.515625,0.0,-1.0,0.0,0.0,1.m4v,11.0
2024-02-28 14:18:11.688436,1709126291.6884358,219.7265625,999.51171875,-41.015625,999.51171875,0.0,-1.0,0.0,0.0,1.m4v,11.0
2024-02-28 14:18:11.692341,1709126291.6923409,110.83984375,895.5078125,-35.64453125,896.484375,0.0,-1.0,0.0,0.0,1.m4v,11.0
2024-02-28 14:18:11.696246,1709126291.6962457,34.1796875,986.328125,-48.33984375,992.1875,0.0,-1.0,0.0,0.0,1.m4v,11.0
2024-02-28 14:18:11.700150,1709126291.7001505,-10.7421875,969.7265625,-52.734375,952.1484375,0.0,-1.0,0.0,0.0,1.m4v,11.0
2024-02-28 14:18:11.704055,1709126291.7040553,0.48828125,970.21484375,-41.50390625,945.80078125,0.0,-1.0,0.0,0.0,1.m4v,11.0
2024-02-28 14:18:11.707960,1709126291.70796,18.5546875,970.21484375,-37.59765625,999.51171875,0.0,-1.0,0.0,0.0,1.m4v,11.0
2024-02-28 14:18:11.711865,1709126291.711865,-77.1484375,969.7265625,-29.296875,-29.296875,0.0,-1.0,0.0,0.0,1.m4v,11.0
2024-02-28 14:18:11.715787,1709126291.7157867,-200.68359375,970.21484375,-27.83203125,-992.67578125,0.0,-1.0,0.0,0.0,1.m4v,11.0
2024-02-28 14:18:11.719692,1709126291.7196915,-194.82421875,970.21484375,-29.296875,-1000.0,0.0,-1.0,0.0,0.0,1.m4v,11.0
2024-02-28 14:18:11.723596,1709126291.7235963,-118.65234375,969.7265625,-26.3671875,-831.0546875,0.0,-1.0,0.0,0.0,1.m4v,11.0
2024-02-28 14:18:11.727501,1709126291.7275012,69.3359375,969.7265625,-31.25,570.3125,0.0,-1.0,0.0,0.0,1.m4v,11.0
2024-02-28 14:18:11.731406,1709126291.7314062,111.328125,969.7265625,-38.0859375,999.51171875,0.0,-1.0,0.0,0.0,1.m4v,11.0
2024-02-28 14:18:11.735311,1709126291.735311,-49.8046875,969.7265625,-38.57421875,4.39453125,0.0,-1.0,0.0,0.0,1.m4v,11.0
2024-02-28 14:18:11.739216,1709126291.739216,-195.80078125,970.21484375,-40.52734375,-957.03125,0.0,-1.0,0.0,0.0,1.m4v,11.0
2024-02-28 14:18:11.743121,1709126291.743121,-179.6875,984.375,-44.921875,-1000.0,0.0,-1.0,0.0,0.0,1.m4v,11.0
2024-02-28 14:18:11.747025,1709126291.7470255,-42.96875,918.9453125,-42.48046875,-372.55859375,0.0,-1.0,0.0,0.0,1.m4v,11.0
2024-02-28 14:18:11.750930,1709126291.7509303,106.4453125,999.51171875,-38.0859375,913.57421875,0.0,-1.0,0.0,0.0,1.m4v,11.0
2024-02-28 14:18:11.754835,1709126291.7548351,32.71484375,913.0859375,-27.83203125,679.6875,0.0,-1.0,0.0,0.0,1.m4v,11.0
2024-02-28 14:18:11.758740,1709126291.75874,-232.421875,-509.765625,-21.97265625,-774.4140625,0.0,-1.0,0.0,0.0,1.m4v,11.0
2024-02-28 14:18:11.762659,1709126291.762659,-258.7890625,-1000.0,-25.87890625,-1000.0,0.0,-1.0,0.0,0.0,1.m4v,11.0
2024-02-28 14:18:11.766564,1709126291.766564,-130.859375,-930.6640625,-23.4375,-944.82421875,0.0,-1.0,0.0,0.0,1.m4v,11.0
2024-02-28 14:18:11.770469,1709126291.7704687,-88.8671875,-997.55859375,-24.4140625,-997.0703125,0.0,-1.0,0.0,0.0,1.m4v,11.0
2024-02-28 14:18:11.774374,1709126291.7743735,-64.453125,-966.796875,-36.62109375,-972.16796875,0.0,-1.0,0.0,0.0,1.m4v,11.0
2024-02-28 14:18:11.778278,1709126291.7782784,-92.7734375,-1000.0,-30.2734375,-1000.0,0.0,-1.0,0.0,0.0,1.m4v,11.0
2024-02-28 14:18:11.782183,1709126291.7821832,52.24609375,5.859375,-18.06640625,6.34765625,0.0,-1.0,0.0,0.0,1.m4v,11.0
2024-02-28 14:18:11.786088,1709126291.786088,233.3984375,999.51171875,-21.97265625,999.51171875,0.0,-1.0,0.0,0.0,1.m4v,11.0
2024-02-28 14:18:11.789993,1709126291.7899928,145.5078125,931.15234375,-24.4140625,936.5234375,0.0,-1.0,0.0,0.0,1.m4v,11.0
2024-02-28 14:18:11.793898,1709126291.793898,54.19921875,957.51953125,-31.25,956.0546875,0.0,-1.0,0.0,0.0,1.m4v,11.0
2024-02-28 14:18:11.797803,1709126291.7978027,8.30078125,982.421875,-30.76171875,990.234375,0.0,-1.0,0.0,0.0,1.m4v,11.0
2024-02-28 14:18:11.801708,1709126291.8017075,-11.71875,936.03515625,-20.99609375,913.57421875,0.0,-1.0,0.0,0.0,1.m4v,11.0
2024-02-28 14:18:11.805612,1709126291.8056123,14.6484375,967.7734375,-23.92578125,999.51171875,0.0,-1.0,0.0,0.0,1.m4v,11.0
2024-02-28 14:18:11.809530,1709126291.80953,9.27734375,999.51171875,-25.87890625,860.3515625,0.0,-1.0,0.0,0.0,1.m4v,11.0
2024-02-28 14:18:11.813435,1709126291.8134348,-200.68359375,-309.5703125,-26.85546875,-589.35546875,0.0,-1.0,0.0,0.0,1.m4v,11.0
2024-02-28 14:18:11.817340,1709126291.8173397,-291.50390625,-1000.0,-26.85546875,-1000.0,0.0,-1.0,0.0,0.0,1.m4v,11.0
2024-02-28 14:18:11.821244,1709126291.8212445,-187.98828125,-917.96875,-25.87890625,-897.4609375,0.0,-1.0,0.0,0.0,1.m4v,11.0
2024-02-28 14:18:11.825149,1709126291.8251493,-133.7890625,-1000.0,-17.08984375,-1000.0,0.0,-1.0,0.0,0.0,1.m4v,11.0
2024-02-28 14:18:11.829054,1709126291.8290544,40.0390625,168.9453125,-15.13671875,-58.59375,0.0,-1.0,0.0,0.0,1.m4v,11.0
2024-02-28 14:18:11.832959,1709126291.8329592,192.87109375,999.51171875,-26.3671875,999.51171875,0.0,-1.0,0.0,0.0,1.m4v,11.0
2024-02-28 14:18:11.836864,1709126291.836864,98.14453125,919.921875,-24.4140625,962.40234375,0.0,-1.0,0.0,0.0,1.m4v,11.0
2024-02-28 14:18:11.840769,1709126291.8407688,20.5078125,942.3828125,-17.578125,903.3203125,0.0,-1.0,0.0,0.0,1.m4v,11.0
2024-02-28 14:18:11.844674,1709126291.8446736,29.296875,954.1015625,-18.5546875,999.51171875,0.0,-1.0,0.0,0.0,1.m4v,11.0
2024-02-28 14:18:11.848578,1709126291.8485785,25.390625,999.51171875,-33.203125,930.17578125,0.0,-1.0,0.0,0.0,1.m4v,11.0
2024-02-28 14:18:11.852483,1709126291.8524833,-166.50390625,-187.5,-39.55078125,-461.9140625,0.0,-1.0,0.0,0.0,1.m4v,11.0
2024-02-28 14:18:11.856409,1709126291.856409,-285.15625,-1000.0,-33.203125,-1000.0,0.0,-1.0,0.0,0.0,1.m4v,11.0
2024-02-28 14:18:11.860314,1709126291.860314,-195.80078125,-943.84765625,-37.109375,-937.01171875,0.0,-1.0,0.0,0.0,1.m4v,11.0
2024-02-28 14:18:11.864219,1709126291.8642187,-122.55859375,-998.046875,-28.80859375,-998.53515625,0.0,-1.0,0.0,0.0,1.m4v,11.0
2024-02-28 14:18:11.868124,1709126291.8681238,-69.82421875,-1000.0,-23.92578125,-930.6640625,0.0,-1.0,0.0,0.0,1.m4v,11.0
2024-02-28 14:18:11.872029,1709126291.8720286,-66.40625,-1000.0,-28.80859375,-934.08203125,0.0,-1.0,0.0,0.0,1.m4v,11.0
2024-02-28 14:18:11.875933,1709126291.8759334,-82.51953125,-929.6875,-27.34375,-1000.0,0.0,-1.0,0.0,0.0,1.m4v,11.0
2024-02-28 14:18:11.879838,1709126291.8798382,-96.19140625,-1000.0,-24.90234375,-961.9140625,0.0,-1.0,0.0,0.0,1.m4v,11.0
2024-02-28 14:18:11.883743,1709126291.883743,66.89453125,-519.04296875,-28.3203125,416.9921875,0.0,-1.0,0.0,0.0,1.m4v,11.0
2024-02-28 14:18:11.887648,1709126291.887648,208.984375,881.34765625,-25.87890625,999.51171875,0.0,-1.0,0.0,0.0,1.m4v,11.0
2024-02-28 14:18:11.891553,1709126291.8915527,130.859375,999.51171875,-18.06640625,898.4375,0.0,-1.0,0.0,0.0,1.m4v,11.0
2024-02-28 14:18:11.895458,1709126291.8954575,56.640625,917.96875,-18.06640625,980.95703125,0.0,-1.0,0.0,0.0,1.m4v,11.0
2024-02-28 14:18:11.899362,1709126291.8993623,7.32421875,999.51171875,-22.94921875,981.93359375,0.0,-1.0,0.0,0.0,1.m4v,11.0
2024-02-28 14:18:11.903287,1709126291.903287,-8.7890625,912.109375,-24.90234375,910.15625,0.0,-1.0,0.0,0.0,1.m4v,11.0
2024-02-28 14:18:11.907192,1709126291.9071918,32.71484375,999.51171875,-25.390625,999.51171875,0.0,-1.0,0.0,0.0,1.m4v,11.0
2024-02-28 14:18:11.911097,1709126291.9110966,-10.7421875,860.3515625,-27.83203125,648.4375,0.0,-1.0,0.0,0.0,1.m4v,11.0
2024-02-28 14:18:11.915001,1709126291.9150014,-246.58203125,-597.16796875,-38.0859375,-707.03125,0.0,-1.0,0.0,0.0,1.m4v,11.0
2024-02-28 14:18:11.918906,1709126291.9189062,-285.64453125,-1000.0,-40.52734375,-1000.0,0.0,-1.0,0.0,0.0,1.m4v,11.0
2024-02-28 14:18:11.922811,1709126291.922811,-158.69140625,-925.78125,-31.25,-917.96875,0.0,-1.0,0.0,0.0,1.m4v,11.0
2024-02-28 14:18:11.926716,1709126291.926716,23.92578125,-1000.0,-22.4609375,312.98828125,0.0,-1.0,0.0,0.0,1.m4v,11.0
2024-02-28 14:18:11.930621,1709126291.930621,118.65234375,-1000.0,-22.94921875,999.51171875,0.0,-1.0,0.0,0.0,1.m4v,11.0
2024-02-28 14:18:11.934525,1709126291.9345255,-28.3203125,-1000.0,-25.87890625,98.14453125,0.0,-1.0,0.0,0.0,1.m4v,11.0
2024-02-28 14:18:11.938431,1709126291.9384303,-196.2890625,-930.17578125,-24.4140625,-1000.0,0.0,-1.0,0.0,0.0,1.m4v,11.0
2024-02-28 14:18:11.942335,1709126291.9423354,-166.9921875,-1000.0,-27.83203125,-975.5859375,0.0,-1.0,0.0,0.0,1.m4v,11.0
2024-02-28 14:18:11.946240,1709126291.9462402,53.22265625,-591.796875,-34.1796875,372.55859375,0.0,-1.0,0.0,0.0,1.m4v,11.0
2024-02-28 14:18:11.950165,1709126291.9501648,175.29296875,842.28515625,-28.80859375,999.51171875,0.0,-1.0,0.0,0.0,1.m4v,11.0
2024-02-28 14:18:11.954070,1709126291.9540696,79.58984375,999.51171875,-26.85546875,905.2734375,0.0,-1.0,0.0,0.0,1.m4v,11.0
2024-02-28 14:18:11.957974,1709126291.9579744,4.8828125,913.0859375,-29.296875,985.3515625,0.0,-1.0,0.0,0.0,1.m4v,11.0
2024-02-28 14:18:11.961879,1709126291.9618793,-10.25390625,999.0234375,-23.92578125,937.5,0.0,-1.0,0.0,0.0,1.m4v,11.0
2024-02-28 14:18:11.965784,1709126291.965784,6.8359375,899.4140625,-18.06640625,970.703125,0.0,-1.0,0.0,0.0,1.m4v,11.0
2024-02-28 14:18:11.969689,1709126291.9696891,29.78515625,999.51171875,-33.69140625,987.3046875,0.0,-1.0,0.0,0.0,1.m4v,11.0
2024-02-28 14:18:11.973594,1709126291.973594,-129.8828125,530.2734375,-58.59375,-276.85546875,0.0,-1.0,0.0,0.0,1.m4v,11.0
2024-02-28 14:18:11.977499,1709126291.9774988,-306.15234375,-894.53125,-60.546875,-1000.0,0.0,-1.0,0.0,0.0,1.m4v,11.0
2024-02-28 14:18:11.981404,1709126291.9814036,-240.72265625,-1000.0,-47.8515625,-942.87109375,0.0,-1.0,0.0,0.0,1.m4v,11.0
2024-02-28 14:18:11.985308,1709126291.9853084,-141.11328125,-945.3125,-38.0859375,-1000.0,0.0,-1.0,0.0,0.0,1.m4v,11.0
2024-02-28 14:18:11.989213,1709126291.9892132,-82.03125,-1000.0,-38.0859375,-1000.0,0.0,-1.0,0.0,0.0,1.m4v,11.0
2024-02-28 14:18:11.993118,1709126291.993118,-71.77734375,-969.23828125,-41.9921875,-942.3828125,0.0,-1.0,0.0,0.0,1.m4v,11.0
2024-02-28 14:18:11.997041,1709126291.9970405,-91.30859375,-992.67578125,-38.0859375,-1000.0,0.0,-1.0,0.0,0.0,1.m4v,11.0
2024-02-28 14:18:12.000945,1709126292.000945,-77.1484375,-1000.0,-43.45703125,-881.8359375,0.0,-1.0,0.0,0.0,1.m4v,11.0
2024-02-28 14:18:12.004850,1709126292.0048504,133.7890625,230.95703125,-56.15234375,572.265625,0.0,-1.0,0.0,0.0,1.m4v,11.0
2024-02-28 14:18:12.008755,1709126292.0087552,218.75,999.51171875,-45.41015625,999.51171875,0.0,-1.0,0.0,0.0,1.m4v,11.0
2024-02-28 14:18:12.012660,1709126292.01266,118.1640625,906.25,-31.25,895.99609375,0.0,-1.0,0.0,0.0,1.m4v,11.0
2024-02-28 14:18:12.016565,1709126292.0165648,64.94140625,981.4453125,-38.0859375,997.55859375,0.0,-1.0,0.0,0.0,1.m4v,11.0
2024-02-28 14:18:12.020470,1709126292.0204697,23.4375,935.546875,-42.96875,925.78125,0.0,-1.0,0.0,0.0,1.m4v,11.0
2024-02-28 14:18:12.024374,1709126292.0243745,18.5546875,969.7265625,-39.55078125,991.69921875,0.0,-1.0,0.0,0.0,1.m4v,11.0
2024-02-28 14:18:12.028279,1709126292.0282793,15.13671875,999.51171875,-29.296875,945.80078125,0.0,-1.0,0.0,0.0,1.m4v,11.0
2024-02-28 14:18:12.032184,1709126292.032184,-169.43359375,-313.4765625,-25.390625,-430.17578125,0.0,-1.0,0.0,0.0,1.m4v,11.0
2024-02-28 14:18:12.036089,1709126292.0360892,-294.43359375,-1000.0,-27.83203125,-1000.0,0.0,-1.0,0.0,0.0,1.m4v,11.0
2024-02-28 14:18:12.039994,1709126292.039994,-195.80078125,-932.6171875,-24.4140625,-929.6875,0.0,-1.0,0.0,0.0,1.m4v,11.0
2024-02-28 14:18:12.043916,1709126292.0439155,-102.5390625,-1000.0,-32.2265625,-1000.0,0.0,-1.0,0.0,0.0,1.m4v,11.0
2024-02-28 14:18:12.047821,1709126292.0478206,-90.33203125,-1000.0,-46.875,-1000.0,0.0,-1.0,0.0,0.0,1.m4v,11.0
2024-02-28 14:18:12.051726,1709126292.0517256,-80.078125,-987.3046875,-39.0625,-963.8671875,0.0,-1.0,0.0,0.0,1.m4v,11.0
2024-02-28 14:18:12.055630,1709126292.0556304,-69.82421875,-961.9140625,-29.296875,-1000.0,0.0,-1.0,0.0,0.0,1.m4v,11.0
2024-02-28 14:18:12.059535,1709126292.0595353,-99.12109375,-1000.0,-23.4375,-1000.0,0.0,-1.0,0.0,0.0,1.m4v,11.0
2024-02-28 14:18:12.063440,1709126292.06344,76.171875,-39.55078125,-22.4609375,294.43359375,0.0,-1.0,0.0,0.0,1.m4v,11.0
2024-02-28 14:18:12.067345,1709126292.067345,227.5390625,999.51171875,-32.2265625,999.51171875,0.0,-1.0,0.0,0.0,1.m4v,11.0
2024-02-28 14:18:12.071250,1709126292.0712495,127.44140625,936.5234375,-30.2734375,906.25,0.0,-1.0,0.0,0.0,1.m4v,11.0
2024-02-28 14:18:12.075155,1709126292.0751543,58.59375,954.58984375,-21.484375,977.05078125,0.0,-1.0,0.0,0.0,1.m4v,11.0
2024-02-28 14:18:12.079059,1709126292.0790594,15.13671875,991.2109375,-27.83203125,967.28515625,0.0,-1.0,0.0,0.0,1.m4v,11.0
2024-02-28 14:18:12.082964,1709126292.0829644,-5.37109375,898.92578125,-30.2734375,923.828125,0.0,-1.0,0.0,0.0,1.m4v,11.0
2024-02-28 14:18:12.086869,1709126292.0868692,33.69140625,999.51171875,-21.97265625,999.51171875,0.0,-1.0,0.0,0.0,1.m4v,11.0
2024-02-28 14:18:12.090790,1709126292.09079,-63.96484375,657.2265625,-20.99609375,245.1171875,0.0,-1.0,0.0,0.0,1.m4v,11.0
2024-02-28 14:18:12.094695,1709126292.0946949,-274.4140625,-811.5234375,-34.66796875,-971.19140625,0.0,-1.0,0.0,0.0,1.m4v,11.0
2024-02-28 14:18:12.098600,1709126292.0985997,-248.53515625,-1000.0,-46.38671875,-1000.0,0.0,-1.0,0.0,0.0,1.m4v,11.0
2024-02-28 14:18:12.102504,1709126292.1025045,-156.25,-936.03515625,-41.015625,-963.8671875,0.0,-1.0,0.0,0.0,1.m4v,11.0
2024-02-28 14:18:12.106409,1709126292.1064093,-106.93359375,-1000.0,-34.66796875,-987.79296875,0.0,-1.0,0.0,0.0,1.m4v,11.0
2024-02-28 14:18:12.110314,1709126292.1103144,-78.61328125,-1000.0,-39.0625,-1000.0,0.0,-1.0,0.0,0.0,1.m4v,11.0
2024-02-28 14:18:12.114219,1709126292.1142192,-68.359375,-943.359375,-41.9921875,-940.91796875,0.0,-1.0,0.0,0.0,1.m4v,11.0
2024-02-28 14:18:12.118124,1709126292.118124,-102.05078125,-1000.0,-33.203125,-1000.0,0.0,-1.0,0.0,0.0,1.m4v,11.0
2024-02-28 14:18:12.122029,1709126292.1220288,-59.5703125,-895.99609375,-29.296875,-692.3828125,0.0,-1.0,0.0,0.0,1.m4v,11.0
2024-02-28 14:18:12.125934,1709126292.1259336,184.08203125,558.59375,-35.15625,731.93359375,0.0,-1.0,0.0,0.0,1.m4v,11.0
2024-02-28 14:18:12.129838,1709126292.1298385,208.49609375,999.51171875,-34.1796875,999.51171875,0.0,-1.0,0.0,0.0,1.m4v,11.0
2024-02-28 14:18:12.133743,1709126292.1337433,106.93359375,895.01953125,-27.34375,907.2265625,0.0,-1.0,0.0,0.0,1.m4v,11.0
2024-02-28 14:18:12.137664,1709126292.1376636,61.03515625,987.79296875,-24.4140625,997.0703125,0.0,-1.0,0.0,0.0,1.m4v,11.0
2024-02-28 14:18:12.141568,1709126292.1415684,20.01953125,967.7734375,-19.04296875,924.8046875,0.0,-1.0,0.0,0.0,1.m4v,11.0
2024-02-28 14:18:12.145473,1709126292.1454732,32.71484375,916.50390625,-21.484375,993.65234375,0.0,-1.0,0.0,0.0,1.m4v,11.0
2024-02-28 14:18:12.149378,1709126292.149378,40.0390625,999.51171875,-29.78515625,939.94140625,0.0,-1.0,0.0,0.0,1.m4v,11.0
2024-02-28 14:18:12.153283,1709126292.1532829,-145.99609375,198.73046875,-35.64453125,-435.546875,0.0,-1.0,0.0,0.0,1.m4v,11.0
2024-02-28 14:18:12.157188,1709126292.1571877,-284.1796875,-1000.0,-28.3203125,-1000.0,0.0,-1.0,0.0,0.0,1.m4v,11.0
2024-02-28 14:18:12.161093,1709126292.1610928,-205.56640625,-994.140625,-20.01953125,-930.17578125,0.0,-1.0,0.0,0.0,1.m4v,11.0
2024-02-28 14:18:12.164998,1709126292.1649976,-139.16015625,-970.703125,-31.73828125,-1000.0,0.0,-1.0,0.0,0.0,1.m4v,11.0
2024-02-28 14:18:12.168902,1709126292.1689024,-95.21484375,-1000.0,-30.76171875,-1000.0,0.0,-1.0,0.0,0.0,1.m4v,11.0
2024-02-28 14:18:12.172807,1709126292.1728072,-67.3828125,-947.75390625,-21.97265625,-938.96484375,0.0,-1.0,0.0,0.0,1.m4v,11.0
2024-02-28 14:18:12.176712,1709126292.176712,-91.30859375,-1000.0,-31.73828125,-1000.0,0.0,-1.0,0.0,0.0,1.m4v,11.0
2024-02-28 14:18:12.180617,1709126292.1806169,-65.91796875,-932.12890625,-35.64453125,-793.9453125,0.0,-1.0,0.0,0.0,1.m4v,11.0
2024-02-28 14:18:12.184535,1709126292.1845348,172.36328125,499.51171875,-34.66796875,653.80859375,0.0,-1.0,0.0,0.0,1.m4v,11.0
2024-02-28 14:18:12.188440,1709126292.1884396,223.14453125,999.51171875,-32.71484375,999.51171875,0.0,-1.0,0.0,0.0,1.m4v,11.0
2024-02-28 14:18:12.192344,1709126292.1923444,113.28125,895.5078125,-30.2734375,900.87890625,0.0,-1.0,0.0,0.0,1.m4v,11.0
2024-02-28 14:18:12.196249,1709126292.1962492,70.3125,992.67578125,-27.34375,996.58203125,0.0,-1.0,0.0,0.0,1.m4v,11.0
2024-02-28 14:18:12.200154,1709126292.200154,18.5546875,936.5234375,-30.2734375,930.6640625,0.0,-1.0,0.0,0.0,1.m4v,11.0
2024-02-28 14:18:12.204059,1709126292.204059,23.92578125,966.30859375,-40.52734375,981.4453125,0.0,-1.0,0.0,0.0,1.m4v,11.0
2024-02-28 14:18:12.207964,1709126292.2079637,34.1796875,999.51171875,-37.109375,969.7265625,0.0,-1.0,0.0,0.0,1.m4v,11.0
2024-02-28 14:18:12.211869,1709126292.2118688,-157.71484375,-293.45703125,-32.71484375,-362.79296875,0.0,-1.0,0.0,0.0,1.m4v,11.0
2024-02-28 14:18:12.215774,1709126292.2157736,-273.92578125,-1000.0,-28.80859375,-1000.0,0.0,-1.0,0.0,0.0,1.m4v,11.0
2024-02-28 14:18:12.219678,1709126292.2196784,-185.546875,-933.59375,-21.484375,-944.3359375,0.0,-1.0,0.0,0.0,1.m4v,11.0
2024-02-28 14:18:12.223583,1709126292.2235832,-125.0,-1000.0,-26.3671875,-998.046875,0.0,-1.0,0.0,0.0,1.m4v,11.0
2024-02-28 14:18:12.227488,1709126292.227488,-74.70703125,-1000.0,-28.80859375,-835.44921875,0.0,-1.0,0.0,0.0,1.m4v,11.0
2024-02-28 14:18:12.231414,1709126292.2314143,-87.890625,-1000.0,-37.59765625,-900.390625,0.0,-1.0,0.0,0.0,1.m4v,11.0
2024-02-28 14:18:12.235319,1709126292.2353191,-101.07421875,-939.453125,-42.48046875,-1000.0,0.0,-1.0,0.0,0.0,1.m4v,11.0
2024-02-28 14:18:12.239224,1709126292.239224,-125.9765625,-1000.0,-35.64453125,-1000.0,0.0,-1.0,0.0,0.0,1.m4v,11.0
2024-02-28 14:18:12.243129,1709126292.243129,-1.953125,-854.4921875,-33.69140625,114.2578125,0.0,-1.0,0.0,0.0,1.m4v,11.0
2024-02-28 14:18:12.247034,1709126292.2470338,190.91796875,609.86328125,-28.80859375,999.51171875,0.0,-1.0,0.0,0.0,1.m4v,11.0
2024-02-28 14:18:12.250939,1709126292.250939,132.8125,999.51171875,-30.76171875,925.78125,0.0,-1.0,0.0,0.0,1.m4v,11.0
2024-02-28 14:18:12.254843,1709126292.2548437,33.69140625,896.97265625,-41.50390625,962.890625,0.0,-1.0,0.0,0.0,1.m4v,11.0
2024-02-28 14:18:12.258748,1709126292.2587483,-25.87890625,999.51171875,-37.109375,986.328125,0.0,-1.0,0.0,0.0,1.m4v,11.0
2024-02-28 14:18:12.262653,1709126292.262653,-66.89453125,909.1796875,-23.92578125,909.1796875,0.0,-1.0,0.0,0.0,1.m4v,11.0
2024-02-28 14:18:12.266558,1709126292.266558,-32.71484375,999.51171875,-16.6015625,999.51171875,0.0,-1.0,0.0,0.0,1.m4v,11.0
2024-02-28 14:18:12.270463,1709126292.2704628,-81.0546875,831.0546875,-11.71875,677.24609375,0.0,-1.0,0.0,0.0,1.m4v,11.0
2024-02-28 14:18:12.274368,1709126292.2743678,-303.7109375,-633.30078125,-7.32421875,-740.234375,0.0,-1.0,0.0,0.0,1.m4v,11.0
2024-02-28 14:18:12.278292,1709126292.2782922,-320.80078125,-1000.0,-6.34765625,-1000.0,0.0,-1.0,0.0,0.0,1.m4v,11.0
2024-02-28 14:18:12.282197,1709126292.282197,-236.81640625,-926.7578125,-24.90234375,-937.01171875,0.0,-1.0,0.0,0.0,1.m4v,11.0
2024-02-28 14:18:12.286102,1709126292.286102,-194.3359375,-1000.0,-36.62109375,-1000.0,0.0,-1.0,0.0,0.0,1.m4v,11.0
2024-02-28 14:18:12.290007,1709126292.2900069,-153.80859375,-1000.0,-25.390625,-992.1875,0.0,-1.0,0.0,0.0,1.m4v,11.0
2024-02-28 14:18:12.293912,1709126292.2939117,-137.20703125,-931.15234375,-20.5078125,-960.44921875,0.0,-1.0,0.0,0.0,1.m4v,11.0
2024-02-28 14:18:12.297817,1709126292.2978165,-174.8046875,-1000.0,-30.2734375,-1000.0,0.0,-1.0,0.0,0.0,1.m4v,11.0
2024-02-28 14:18:12.301721,1709126292.301721,-70.80078125,-545.41015625,-26.85546875,-166.50390625,0.0,-1.0,0.0,0.0,1.m4v,11.0
2024-02-28 14:18:12.305626,1709126292.3056262,146.97265625,867.67578125,-21.97265625,988.28125,0.0,-1.0,0.0,0.0,1.m4v,11.0
2024-02-28 14:18:12.309531,1709126292.309531,105.46875,999.51171875,-30.76171875,962.890625,0.0,-1.0,0.0,0.0,1.m4v,11.0
2024-02-28 14:18:12.313436,1709126292.3134358,15.625,916.015625,-26.85546875,942.87109375,0.0,-1.0,0.0,0.0,1.m4v,11.0
2024-02-28 14:18:12.317341,1709126292.3173409,-20.01953125,999.51171875,-20.01953125,993.65234375,0.0,-1.0,0.0,0.0,1.m4v,11.0
2024-02-28 14:18:12.321246,1709126292.3212457,-49.31640625,916.50390625,-24.4140625,913.57421875,0.0,-1.0,0.0,0.0,1.m4v,11.0
2024-02-28 14:18:12.325170,1709126292.3251698,-19.04296875,999.51171875,-33.69140625,999.51171875,0.0,-1.0,0.0,0.0,1.m4v,11.0
2024-02-28 14:18:12.329075,1709126292.3290746,-21.97265625,894.04296875,-33.203125,864.2578125,0.0,-1.0,0.0,0.0,1.m4v,11.0
2024-02-28 14:18:12.332980,1709126292.3329797,-237.3046875,-554.6875,-34.1796875,-593.75,0.0,-1.0,0.0,0.0,1.m4v,11.0
2024-02-28 14:18:12.336884,1709126292.3368845,-304.6875,-1000.0,-37.59765625,-1000.0,0.0,-1.0,0.0,0.0,1.m4v,11.0
2024-02-28 14:18:12.340789,1709126292.3407893,-219.7265625,-938.96484375,-43.45703125,-991.69921875,0.0,-1.0,0.0,0.0,1.m4v,11.0
2024-02-28 14:18:12.344694,1709126292.344694,-127.44140625,-1000.0,-47.36328125,-817.87109375,0.0,-1.0,0.0,0.0,1.m4v,11.0
2024-02-28 14:18:12.348599,1709126292.348599,121.58203125,362.3046875,-40.52734375,629.8828125,0.0,-1.0,0.0,0.0,1.m4v,11.0
2024-02-28 14:18:12.352504,1709126292.3525038,166.015625,999.51171875,-39.55078125,999.51171875,0.0,-1.0,0.0,0.0,1.m4v,11.0
2024-02-28 14:18:12.356409,1709126292.3564086,54.6875,907.71484375,-40.0390625,912.109375,0.0,-1.0,0.0,0.0,1.m4v,11.0
2024-02-28 14:18:12.360313,1709126292.3603134,19.04296875,944.3359375,-28.3203125,946.77734375,0.0,-1.0,0.0,0.0,1.m4v,11.0
2024-02-28 14:18:12.364218,1709126292.3642185,20.01953125,969.7265625,-23.92578125,979.00390625,0.0,-1.0,0.0,0.0,1.m4v,11.0
2024-02-28 14:18:12.368123,1709126292.3681233,27.34375,999.51171875,-32.2265625,973.6328125,0.0,-1.0,0.0,0.0,1.m4v,11.0
2024-02-28 14:18:12.372047,1709126292.372047,-139.6484375,-313.4765625,-35.15625,-343.75,0.0,-1.0,0.0,0.0,1.m4v,11.0
2024-02-28 14:18:12.375952,1709126292.3759518,-275.87890625,-1000.0,-33.203125,-1000.0,0.0,-1.0,0.0,0.0,1.m4v,11.0
2024-02-28 14:18:12.379857,1709126292.3798566,-210.44921875,-932.6171875,-35.64453125,-936.03515625,0.0,-1.0,0.0,0.0,1.m4v,11.0
2024-02-28 14:18:12.383762,1709126292.3837616,-135.7421875,-1000.0,-40.52734375,-1000.0,0.0,-1.0,0.0,0.0,1.m4v,11.0
2024-02-28 14:18:12.387666,1709126292.3876665,-77.63671875,-1000.0,-41.015625,-1000.0,0.0,-1.0,0.0,0.0,1.m4v,11.0
2024-02-28 14:18:12.391571,1709126292.3915713,-59.08203125,-1000.0,-42.96875,-966.796875,0.0,-1.0,0.0,0.0,1.m4v,11.0
2024-02-28 14:18:12.395476,1709126292.395476,-71.77734375,-969.23828125,-46.875,-1000.0,0.0,-1.0,0.0,0.0,1.m4v,11.0
2024-02-28 14:18:12.399381,1709126292.399381,-87.40234375,-995.60546875,-40.52734375,-1000.0,0.0,-1.0,0.0,0.0,1.m4v,11.0
2024-02-28 14:18:12.403286,1709126292.4032855,51.26953125,-1000.0,-28.80859375,246.09375,0.0,-1.0,0.0,0.0,1.m4v,11.0
2024-02-28 14:18:12.407191,1709126292.4071906,208.49609375,222.65625,-26.3671875,999.51171875,0.0,-1.0,0.0,0.0,1.m4v,11.0
2024-02-28 14:18:12.411095,1709126292.4110954,176.7578125,999.51171875,-39.55078125,911.62109375,0.0,-1.0,0.0,0.0,1.m4v,11.0
2024-02-28 14:18:12.415000,1709126292.4150004,91.30859375,912.109375,-46.875,970.703125,0.0,-1.0,0.0,0.0,1.m4v,11.0
2024-02-28 14:18:12.418921,1709126292.4189217,38.57421875,971.19140625,-34.1796875,986.81640625,0.0,-1.0,0.0,0.0,1.m4v,11.0
2024-02-28 14:18:12.422827,1709126292.4228263,24.4140625,977.05078125,-22.4609375,910.64453125,0.0,-1.0,0.0,0.0,1.m4v,11.0
2024-02-28 14:18:12.426731,1709126292.426731,43.9453125,907.2265625,-20.5078125,999.51171875,0.0,-1.0,0.0,0.0,1.m4v,11.0
2024-02-28 14:18:12.430636,1709126292.4306362,29.296875,999.51171875,-21.484375,811.5234375,0.0,-1.0,0.0,0.0,1.m4v,11.0
2024-02-28 14:18:12.434541,1709126292.434541,-163.57421875,362.3046875,-27.34375,-635.25390625,0.0,-1.0,0.0,0.0,1.m4v,11.0
2024-02-28 14:18:12.438446,1709126292.4384458,-259.765625,-967.7734375,-41.015625,-1000.0,0.0,-1.0,0.0,0.0,1.m4v,11.0
2024-02-28 14:18:12.442351,1709126292.4423506,-164.0625,-1000.0,-43.45703125,-929.19921875,0.0,-1.0,0.0,0.0,1.m4v,11.0
2024-02-28 14:18:12.446255,1709126292.4462554,-95.21484375,-958.0078125,-34.1796875,-1000.0,0.0,-1.0,0.0,0.0,1.m4v,11.0
2024-02-28 14:18:12.450161,1709126292.4501605,-68.359375,-1000.0,-32.2265625,-1000.0,0.0,-1.0,0.0,0.0,1.m4v,11.0
2024-02-28 14:18:12.454065,1709126292.454065,-51.26953125,-1000.0,-34.1796875,-939.453125,0.0,-1.0,0.0,0.0,1.m4v,11.0
2024-02-28 14:18:12.457970,1709126292.45797,-72.75390625,-940.91796875,-38.57421875,-1000.0,0.0,-1.0,0.0,0.0,1.m4v,11.0
2024-02-28 14:18:12.461875,1709126292.461875,-34.66796875,-1000.0,-36.1328125,-647.94921875,0.0,-1.0,0.0,0.0,1.m4v,11.0
2024-02-28 14:18:12.465795,1709126292.465795,164.55078125,-363.28125,-32.2265625,753.41796875,0.0,-1.0,0.0,0.0,1.m4v,11.0
2024-02-28 14:18:12.469700,1709126292.4697,208.984375,941.89453125,-37.109375,999.51171875,0.0,-1.0,0.0,0.0,1.m4v,11.0
2024-02-28 14:18:12.473605,1709126292.473605,113.28125,987.3046875,-35.64453125,910.15625,0.0,-1.0,0.0,0.0,1.m4v,11.0
2024-02-28 14:18:12.477510,1709126292.4775095,59.08203125,945.3125,-28.3203125,999.51171875,0.0,-1.0,0.0,0.0,1.m4v,11.0
2024-02-28 14:18:12.481415,1709126292.4814146,22.4609375,926.7578125,-30.2734375,913.0859375,0.0,-1.0,0.0,0.0,1.m4v,11.0
2024-02-28 14:18:12.485319,1709126292.4853194,41.015625,999.51171875,-31.73828125,999.51171875,0.0,-1.0,0.0,0.0,1.m4v,11.0
2024-02-28 14:18:12.489224,1709126292.4892242,27.34375,888.18359375,-33.203125,859.86328125,0.0,-1.0,0.0,0.0,1.m4v,11.0
2024-02-28 14:18:12.493129,1709126292.493129,-200.1953125,-553.7109375,-32.71484375,-591.796875,0.0,-1.0,0.0,0.0,1.m4v,11.0
2024-02-28 14:18:12.497034,1709126292.4970338,-273.4375,-1000.0,-28.3203125,-1000.0,0.0,-1.0,0.0,0.0,1.m4v,11.0
2024-02-28 14:18:12.500939,1709126292.500939,-169.921875,-925.29296875,-28.80859375,-942.87109375,0.0,-1.0,0.0,0.0,1.m4v,11.0
2024-02-28 14:18:12.504843,1709126292.5048437,-100.5859375,-1000.0,-33.203125,-993.1640625,0.0,-1.0,0.0,0.0,1.m4v,11.0
2024-02-28 14:18:12.508749,1709126292.5087483,-39.0625,-1000.0,-39.55078125,-806.15234375,0.0,-1.0,0.0,0.0,1.m4v,11.0
2024-02-28 14:18:12.512668,1709126292.5126684,-33.69140625,-973.14453125,-35.15625,-870.60546875,0.0,-1.0,0.0,0.0,1.m4v,11.0
2024-02-28 14:18:12.516573,1709126292.5165732,-61.03515625,-985.3515625,-25.390625,-1000.0,0.0,-1.0,0.0,0.0,1.m4v,11.0
2024-02-28 14:18:12.520478,1709126292.520478,-45.41015625,-1000.0,-27.83203125,-852.5390625,0.0,-1.0,0.0,0.0,1.m4v,11.0
2024-02-28 14:18:12.524383,1709126292.5243828,175.29296875,173.828125,-25.87890625,585.9375,0.0,-1.0,0.0,0.0,1.m4v,11.0
2024-02-28 14:18:12.528288,1709126292.5282876,242.1875,999.51171875,-26.3671875,999.51171875,0.0,-1.0,0.0,0.0,1.m4v,11.0
2024-02-28 14:18:12.532192,1709126292.5321925,139.6484375,911.62109375,-31.25,896.97265625,0.0,-1.0,0.0,0.0,1.m4v,11.0
2024-02-28 14:18:12.536097,1709126292.5360973,92.7734375,971.19140625,-28.80859375,993.1640625,0.0,-1.0,0.0,0.0,1.m4v,11.0
2024-02-28 14:18:12.540002,1709126292.5400023,36.1328125,965.33203125,-21.484375,943.359375,0.0,-1.0,0.0,0.0,1.m4v,11.0
2024-02-28 14:18:12.543907,1709126292.5439072,23.4375,921.875,-24.4140625,958.49609375,0.0,-1.0,0.0,0.0,1.m4v,11.0
2024-02-28 14:18:12.547812,1709126292.547812,45.8984375,999.51171875,-34.1796875,999.51171875,0.0,-1.0,0.0,0.0,1.m4v,11.0
2024-02-28 14:18:12.551717,1709126292.5517168,-95.21484375,131.34765625,-33.203125,-167.48046875,0.0,-1.0,0.0,0.0,1.m4v,11.0
2024-02-28 14:18:12.555622,1709126292.5556216,-262.20703125,-1000.0,-26.85546875,-1000.0,0.0,-1.0,0.0,0.0,1.m4v,11.0
2024-02-28 14:18:12.559541,1709126292.5595412,-206.54296875,-984.375,-26.85546875,-954.58984375,0.0,-1.0,0.0,0.0,1.m4v,11.0
2024-02-28 14:18:12.563446,1709126292.5634463,-128.90625,-975.5859375,-22.4609375,-994.140625,0.0,-1.0,0.0,0.0,1.m4v,11.0
2024-02-28 14:18:12.567351,1709126292.567351,-86.42578125,-1000.0,-20.99609375,-1000.0,0.0,-1.0,0.0,0.0,1.m4v,11.0
2024-02-28 14:18:12.571256,1709126292.571256,-58.10546875,-938.96484375,-36.62109375,-938.96484375,0.0,-1.0,0.0,0.0,1.m4v,11.0
2024-02-28 14:18:12.575161,1709126292.5751607,-82.03125,-1000.0,-44.921875,-1000.0,0.0,-1.0,0.0,0.0,1.m4v,11.0
2024-02-28 14:18:12.579066,1709126292.5790656,-52.734375,-852.05078125,-46.38671875,-839.35546875,0.0,-1.0,0.0,0.0,1.m4v,11.0
2024-02-28 14:18:12.582970,1709126292.5829704,179.6875,614.74609375,-53.7109375,622.0703125,0.0,-1.0,0.0,0.0,1.m4v,11.0
2024-02-28 14:18:12.586875,1709126292.5868752,212.890625,999.51171875,-46.875,999.51171875,0.0,-1.0,0.0,0.0,1.m4v,11.0
2024-02-28 14:18:12.590780,1709126292.59078,116.69921875,896.484375,-22.94921875,897.4609375,0.0,-1.0,0.0,0.0,1.m4v,11.0
2024-02-28 14:18:12.594685,1709126292.594685,73.2421875,986.328125,-24.4140625,986.81640625,0.0,-1.0,0.0,0.0,1.m4v,11.0
2024-02-28 14:18:12.598590,1709126292.59859,33.203125,986.328125,-34.1796875,981.4453125,0.0,-1.0,0.0,0.0,1.m4v,11.0
2024-02-28 14:18:12.602495,1709126292.6024947,25.87890625,911.62109375,-29.78515625,910.15625,0.0,-1.0,0.0,0.0,1.m4v,11.0
2024-02-28 14:18:12.606420,1709126292.6064205,51.7578125,999.51171875,-40.52734375,999.51171875,0.0,-1.0,0.0,0.0,1.m4v,11.0
2024-02-28 14:18:12.610325,1709126292.610325,-4.39453125,856.93359375,-49.8046875,632.8125,0.0,-1.0,0.0,0.0,1.m4v,11.0
2024-02-28 14:18:12.614230,1709126292.6142302,-226.5625,-618.1640625,-41.015625,-780.2734375,0.0,-1.0,0.0,0.0,1.m4v,11.0
2024-02-28 14:18:12.618135,1709126292.618135,-246.58203125,-1000.0,-31.25,-1000.0,0.0,-1.0,0.0,0.0,1.m4v,11.0
2024-02-28 14:18:12.622040,1709126292.6220398,-170.8984375,-979.4921875,-41.015625,-1000.0,0.0,-1.0,0.0,0.0,1.m4v,11.0
2024-02-28 14:18:12.625945,1709126292.6259446,-88.37890625,-907.2265625,-39.0625,-790.52734375,0.0,-1.0,0.0,0.0,1.m4v,11.0
2024-02-28 14:18:12.629849,1709126292.6298494,135.7421875,566.89453125,-35.64453125,640.13671875,0.0,-1.0,0.0,0.0,1.m4v,11.0
2024-02-28 14:18:12.633754,1709126292.6337545,147.94921875,999.51171875,-37.109375,999.51171875,0.0,-1.0,0.0,0.0,1.m4v,11.0
2024-02-28 14:18:12.637659,1709126292.6376593,35.15625,895.5078125,-25.390625,919.43359375,0.0,-1.0,0.0,0.0,1.m4v,11.0
2024-02-28 14:18:12.641564,1709126292.641564,17.08984375,999.0234375,-19.04296875,925.29296875,0.0,-1.0,0.0,0.0,1.m4v,11.0
2024-02-28 14:18:12.645469,1709126292.645469,31.25,901.3671875,-19.53125,999.51171875,0.0,-1.0,0.0,0.0,1.m4v,11.0
2024-02-28 14:18:12.649374,1709126292.6493738,9.765625,999.51171875,-21.97265625,826.171875,0.0,-1.0,0.0,0.0,1.m4v,11.0
2024-02-28 14:18:12.653298,1709126292.6532984,-177.734375,558.59375,-26.85546875,-626.953125,0.0,-1.0,0.0,0.0,1.m4v,11.0
2024-02-28 14:18:12.657203,1709126292.6572032,-275.87890625,-866.2109375,-35.64453125,-1000.0,0.0,-1.0,0.0,0.0,1.m4v,11.0
2024-02-28 14:18:12.661108,1709126292.6611085,-198.2421875,-1000.0,-38.0859375,-936.5234375,0.0,-1.0,0.0,0.0,1.m4v,11.0
2024-02-28 14:18:12.665013,1709126292.665013,-123.53515625,-945.80078125,-26.3671875,-986.81640625,0.0,-1.0,0.0,0.0,1.m4v,11.0
2024-02-28 14:18:12.668918,1709126292.668918,-75.68359375,-850.5859375,-17.08984375,-998.53515625,0.0,-1.0,0.0,0.0,1.m4v,11.0
2024-02-28 14:18:12.672823,1709126292.6728227,-38.57421875,365.72265625,-30.76171875,-1000.0,0.0,-1.0,0.0,0.0,1.m4v,11.0
2024-02-28 14:18:12.676728,1709126292.6767275,90.33203125,999.51171875,-41.50390625,168.9453125,0.0,-1.0,0.0,0.0,1.m4v,11.0
2024-02-28 14:18:12.680632,1709126292.6806324,162.59765625,917.96875,-33.69140625,999.51171875,0.0,-1.0,0.0,0.0,1.m4v,11.0
2024-02-28 14:18:12.684537,1709126292.6845372,105.95703125,969.7265625,-23.4375,872.0703125,0.0,-1.0,0.0,0.0,1.m4v,11.0
2024-02-28 14:18:12.688442,1709126292.688442,85.44921875,969.7265625,-15.13671875,999.51171875,0.0,-1.0,0.0,0.0,1.m4v,11.0
2024-02-28 14:18:12.692347,1709126292.692347,0.48828125,969.7265625,-19.53125,530.2734375,0.0,-1.0,0.0,0.0,1.m4v,11.0
2024-02-28 14:18:12.696252,1709126292.696252,-170.8984375,969.7265625,-20.5078125,-763.671875,0.0,-1.0,0.0,0.0,1.m4v,11.0
2024-02-28 14:18:12.700184,1709126292.7001843,-180.17578125,969.7265625,-19.53125,-1000.0,0.0,-1.0,0.0,0.0,1.m4v,11.0
2024-02-28 14:18:12.704089,1709126292.7040892,-61.5234375,970.21484375,-33.203125,-552.734375,0.0,-1.0,0.0,0.0,1.m4v,11.0
2024-02-28 14:18:12.707994,1709126292.707994,107.421875,969.7265625,-44.43359375,795.8984375,0.0,-1.0,0.0,0.0,1.m4v,11.0
2024-02-28 14:18:12.711899,1709126292.7118988,109.86328125,969.7265625,-39.0625,996.58203125,0.0,-1.0,0.0,0.0,1.m4v,11.0
2024-02-28 14:18:12.715804,1709126292.7158036,-84.47265625,969.7265625,-32.71484375,-405.2734375,0.0,-1.0,0.0,0.0,1.m4v,11.0
2024-02-28 14:18:12.719708,1709126292.7197084,-206.0546875,969.7265625,-37.109375,-1000.0,0.0,-1.0,0.0,0.0,1.m4v,11.0
2024-02-28 14:18:12.723613,1709126292.7236133,-75.68359375,985.83984375,-38.57421875,-479.00390625,0.0,-1.0,0.0,0.0,1.m4v,11.0
2024-02-28 14:18:12.727518,1709126292.7275183,116.69921875,914.0625,-44.921875,875.9765625,0.0,-1.0,0.0,0.0,1.m4v,11.0
2024-02-28 14:18:12.731423,1709126292.7314231,81.54296875,999.51171875,-55.17578125,929.6875,0.0,-1.0,0.0,0.0,1.m4v,11.0
2024-02-28 14:18:12.735328,1709126292.735328,-127.9296875,875.0,-41.50390625,-577.63671875,0.0,-1.0,0.0,0.0,1.m4v,11.0
2024-02-28 14:18:12.739233,1709126292.7392328,-256.8359375,-574.70703125,-20.01953125,-1000.0,0.0,-1.0,0.0,0.0,1.m4v,11.0
2024-02-28 14:18:12.743138,1709126292.7431376,-200.1953125,-1000.0,-24.4140625,-928.7109375,0.0,-1.0,0.0,0.0,1.m4v,11.0
2024-02-28 14:18:12.747061,1709126292.7470608,-125.0,-925.29296875,-31.73828125,-1000.0,0.0,-1.0,0.0,0.0,1.m4v,11.0
2024-02-28 14:18:12.750966,1709126292.7509656,-110.83984375,-1000.0,-32.71484375,-986.328125,0.0,-1.0,0.0,0.0,1.m4v,11.0
2024-02-28 14:18:12.754870,1709126292.7548704,-96.19140625,-928.7109375,-40.0390625,-969.23828125,0.0,-1.0,0.0,0.0,1.m4v,11.0
2024-02-28 14:18:12.758775,1709126292.7587752,-104.4921875,-1000.0,-39.55078125,-1000.0,0.0,-1.0,0.0,0.0,1.m4v,11.0
2024-02-28 14:18:12.762680,1709126292.76268,10.25390625,-673.828125,-39.0625,-71.77734375,0.0,-1.0,0.0,0.0,1.m4v,11.0
2024-02-28 14:18:12.766585,1709126292.7665849,218.75,793.9453125,-46.875,999.51171875,0.0,-1.0,0.0,0.0,1.m4v,11.0
2024-02-28 14:18:12.770490,1709126292.7704897,165.52734375,999.51171875,-49.31640625,950.68359375,0.0,-1.0,0.0,0.0,1.m4v,11.0
2024-02-28 14:18:12.774395,1709126292.7743948,56.640625,906.73828125,-41.9921875,949.70703125,0.0,-1.0,0.0,0.0,1.m4v,11.0
2024-02-28 14:18:12.778300,1709126292.7782996,22.94921875,986.81640625,-41.015625,991.69921875,0.0,-1.0,0.0,0.0,1.m4v,11.0
2024-02-28 14:18:12.782204,1709126292.7822044,-6.8359375,983.88671875,-40.52734375,908.69140625,0.0,-1.0,0.0,0.0,1.m4v,11.0
2024-02-28 14:18:12.786109,1709126292.7861092,11.23046875,921.875,-41.9921875,999.51171875,0.0,-1.0,0.0,0.0,1.m4v,11.0
2024-02-28 14:18:12.790014,1709126292.790014,-9.765625,999.51171875,-48.33984375,756.8359375,0.0,-1.0,0.0,0.0,1.m4v,11.0
2024-02-28 14:18:12.793936,1709126292.7939365,-184.5703125,930.17578125,-53.7109375,-686.5234375,0.0,-1.0,0.0,0.0,1.m4v,11.0
2024-02-28 14:18:12.797841,1709126292.7978413,-274.4140625,-476.07421875,-49.31640625,-1000.0,0.0,-1.0,0.0,0.0,1.m4v,11.0
2024-02-28 14:18:12.801746,1709126292.801746,-215.33203125,-1000.0,-38.0859375,-931.640625,0.0,-1.0,0.0,0.0,1.m4v,11.0
2024-02-28 14:18:12.805651,1709126292.805651,-142.08984375,-926.7578125,-35.15625,-1000.0,0.0,-1.0,0.0,0.0,1.m4v,11.0
2024-02-28 14:18:12.809556,1709126292.8095558,-112.79296875,-1000.0,-42.48046875,-1000.0,0.0,-1.0,0.0,0.0,1.m4v,11.0
2024-02-28 14:18:12.813461,1709126292.8134608,-84.9609375,-942.3828125,-45.41015625,-941.89453125,0.0,-1.0,0.0,0.0,1.m4v,11.0
2024-02-28 14:18:12.817366,1709126292.8173656,-104.00390625,-1000.0,-43.45703125,-1000.0,0.0,-1.0,0.0,0.0,1.m4v,11.0
2024-02-28 14:18:12.821270,1709126292.8212705,-53.7109375,-891.11328125,-42.96875,-579.58984375,0.0,-1.0,0.0,0.0,1.m4v,11.0
2024-02-28 14:18:12.825175,1709126292.8251753,178.22265625,566.89453125,-39.55078125,790.0390625,0.0,-1.0,0.0,0.0,1.m4v,11.0
2024-02-28 14:18:12.829080,1709126292.82908,185.546875,999.51171875,-40.52734375,999.51171875,0.0,-1.0,0.0,0.0,1.m4v,11.0
2024-02-28 14:18:12.832985,1709126292.832985,75.68359375,895.01953125,-40.0390625,914.55078125,0.0,-1.0,0.0,0.0,1.m4v,11.0
2024-02-28 14:18:12.836890,1709126292.8368895,31.25,985.83984375,-32.2265625,990.234375,0.0,-1.0,0.0,0.0,1.m4v,11.0
2024-02-28 14:18:12.840811,1709126292.8408108,-1.953125,975.5859375,-35.15625,948.73046875,0.0,-1.0,0.0,0.0,1.m4v,11.0
2024-02-28 14:18:12.844716,1709126292.8447156,7.8125,948.73046875,-44.921875,950.1953125,0.0,-1.0,0.0,0.0,1.m4v,11.0
2024-02-28 14:18:12.848620,1709126292.8486204,29.78515625,945.3125,-43.9453125,999.51171875,0.0,-1.0,0.0,0.0,1.m4v,11.0
2024-02-28 14:18:12.852525,1709126292.8525252,-75.1953125,999.51171875,-39.0625,-69.82421875,0.0,-1.0,0.0,0.0,1.m4v,11.0
2024-02-28 14:18:12.856430,1709126292.85643,-243.65234375,-112.79296875,-34.1796875,-1000.0,0.0,-1.0,0.0,0.0,1.m4v,11.0
2024-02-28 14:18:12.860335,1709126292.8603349,-223.6328125,-1000.0,-24.90234375,-968.26171875,0.0,-1.0,0.0,0.0,1.m4v,11.0
2024-02-28 14:18:12.864240,1709126292.8642397,-125.48828125,-953.125,-21.97265625,-987.3046875,0.0,-1.0,0.0,0.0,1.m4v,11.0
2024-02-28 14:18:12.868145,1709126292.8681448,-95.703125,-998.046875,-39.0625,-1000.0,0.0,-1.0,0.0,0.0,1.m4v,11.0
2024-02-28 14:18:12.872050,1709126292.8720496,-74.21875,-984.86328125,-39.55078125,-945.80078125,0.0,-1.0,0.0,0.0,1.m4v,11.0
2024-02-28 14:18:12.875954,1709126292.8759544,-74.70703125,-969.7265625,-20.5078125,-1000.0,0.0,-1.0,0.0,0.0,1.m4v,11.0
2024-02-28 14:18:12.879859,1709126292.8798592,-72.75390625,-1000.0,-23.4375,-908.203125,0.0,-1.0,0.0,0.0,1.m4v,11.0
2024-02-28 14:18:12.883764,1709126292.883764,118.65234375,34.66796875,-38.57421875,527.83203125,0.0,-1.0,0.0,0.0,1.m4v,11.0
2024-02-28 14:18:12.887683,1709126292.8876832,217.7734375,999.51171875,-35.64453125,999.51171875,0.0,-1.0,0.0,0.0,1.m4v,11.0
2024-02-28 14:18:12.891588,1709126292.891588,116.2109375,927.734375,-25.87890625,896.484375,0.0,-1.0,0.0,0.0,1.m4v,11.0
2024-02-28 14:18:12.895493,1709126292.8954928,52.734375,959.47265625,-28.80859375,984.375,0.0,-1.0,0.0,0.0,1.m4v,11.0
2024-02-28 14:18:12.899398,1709126292.899398,2.9296875,973.6328125,-40.52734375,984.86328125,0.0,-1.0,0.0,0.0,1.m4v,11.0
2024-02-28 14:18:12.903303,1709126292.903303,-4.39453125,983.88671875,-38.0859375,908.203125,0.0,-1.0,0.0,0.0,1.m4v,11.0
2024-02-28 14:18:12.907207,1709126292.9072075,33.203125,899.90234375,-27.34375,999.51171875,0.0,-1.0,0.0,0.0,1.m4v,11.0
2024-02-28 14:18:12.911112,1709126292.9111123,-3.41796875,999.51171875,-32.2265625,738.28125,0.0,-1.0,0.0,0.0,1.m4v,11.0
2024-02-28 14:18:12.915017,1709126292.9150171,-199.21875,560.05859375,-37.109375,-702.1484375,0.0,-1.0,0.0,0.0,1.m4v,11.0
2024-02-28 14:18:12.918922,1709126292.918922,-286.62109375,-871.58203125,-30.2734375,-1000.0,0.0,-1.0,0.0,0.0,1.m4v,11.0
2024-02-28 14:18:12.922827,1709126292.9228268,-191.89453125,-1000.0,-24.4140625,-933.10546875,0.0,-1.0,0.0,0.0,1.m4v,11.0
2024-02-28 14:18:12.926732,1709126292.9267318,-109.86328125,-943.359375,-24.90234375,-1000.0,0.0,-1.0,0.0,0.0,1.m4v,11.0
2024-02-28 14:18:12.930637,1709126292.9306366,-85.44921875,-1000.0,-28.3203125,-993.65234375,0.0,-1.0,0.0,0.0,1.m4v,11.0
2024-02-28 14:18:12.934555,1709126292.9345548,-83.984375,-937.98828125,-39.0625,-957.51953125,0.0,-1.0,0.0,0.0,1.m4v,11.0
2024-02-28 14:18:12.938460,1709126292.9384596,-104.4921875,-1000.0,-34.66796875,-1000.0,0.0,-1.0,0.0,0.0,1.m4v,11.0
2024-02-28 14:18:12.942364,1709126292.9423645,1.953125,-840.33203125,-24.90234375,-194.3359375,0.0,-1.0,0.0,0.0,1.m4v,11.0
2024-02-28 14:18:12.946269,1709126292.9462693,210.44921875,627.44140625,-28.80859375,979.98046875,0.0,-1.0,0.0,0.0,1.m4v,11.0
2024-02-28 14:18:12.950174,1709126292.9501743,175.78125,999.51171875,-25.87890625,966.30859375,0.0,-1.0,0.0,0.0,1.m4v,11.0
2024-02-28 14:18:12.954079,1709126292.9540792,80.56640625,897.4609375,-18.06640625,941.40625,0.0,-1.0,0.0,0.0,1.m4v,11.0
2024-02-28 14:18:12.957984,1709126292.957984,34.1796875,999.51171875,-25.390625,993.1640625,0.0,-1.0,0.0,0.0,1.m4v,11.0
2024-02-28 14:18:12.961889,1709126292.9618888,-1.46484375,912.109375,-28.80859375,909.1796875,0.0,-1.0,0.0,0.0,1.m4v,11.0
2024-02-28 14:18:12.965794,1709126292.9657936,35.15625,999.51171875,-18.5546875,999.51171875,0.0,-1.0,0.0,0.0,1.m4v,11.0
2024-02-28 14:18:12.969698,1709126292.9696984,5.859375,860.3515625,-20.01953125,758.30078125,0.0,-1.0,0.0,0.0,1.m4v,11.0
2024-02-28 14:18:12.973603,1709126292.9736032,-212.890625,-597.16796875,-26.85546875,-684.08203125,0.0,-1.0,0.0,0.0,1.m4v,11.0
2024-02-28 14:18:12.977508,1709126292.9775083,-259.765625,-1000.0,-30.76171875,-1000.0,0.0,-1.0,0.0,0.0,1.m4v,11.0
2024-02-28 14:18:12.981435,1709126292.9814346,-166.015625,-925.78125,-31.73828125,-931.640625,0.0,-1.0,0.0,0.0,1.m4v,11.0
2024-02-28 14:18:12.985339,1709126292.9853394,-113.28125,-1000.0,-29.296875,-1000.0,0.0,-1.0,0.0,0.0,1.m4v,11.0
2024-02-28 14:18:12.989244,1709126292.9892442,-77.63671875,-1000.0,-24.90234375,-1000.0,0.0,-1.0,0.0,0.0,1.m4v,11.0
2024-02-28 14:18:12.993149,1709126292.993149,-58.10546875,-929.6875,-20.01953125,-948.2421875,0.0,-1.0,0.0,0.0,1.m4v,11.0
2024-02-28 14:18:12.997054,1709126292.997054,-95.21484375,-1000.0,-17.08984375,-1000.0,0.0,-1.0,0.0,0.0,1.m4v,11.0
2024-02-28 14:18:13.000959,1709126293.000959,-20.5078125,-705.078125,-13.671875,-359.86328125,0.0,-1.0,0.0,0.0,1.m4v,11.0
2024-02-28 14:18:13.004864,1709126293.0048635,195.80078125,768.06640625,-7.32421875,913.57421875,0.0,-1.0,0.0,0.0,1.m4v,11.0
2024-02-28 14:18:13.008769,1709126293.0087686,168.45703125,999.51171875,0.0,992.1875,0.0,-1.0,0.0,0.0,1.m4v,11.0
2024-02-28 14:18:13.012673,1709126293.0126734,71.2890625,904.296875,-11.23046875,929.19921875,0.0,-1.0,0.0,0.0,1.m4v,11.0
2024-02-28 14:18:13.016578,1709126293.0165782,22.94921875,988.28125,-20.99609375,989.2578125,0.0,-1.0,0.0,0.0,1.m4v,11.0
2024-02-28 14:18:13.020483,1709126293.020483,-10.25390625,975.5859375,-15.625,941.89453125,0.0,-1.0,0.0,0.0,1.m4v,11.0
2024-02-28 14:18:13.024388,1709126293.024388,-0.48828125,906.25,-19.04296875,961.9140625,0.0,-1.0,0.0,0.0,1.m4v,11.0
2024-02-28 14:18:13.028313,1709126293.0283127,17.08984375,999.51171875,-30.2734375,999.51171875,0.0,-1.0,0.0,0.0,1.m4v,11.0
2024-02-28 14:18:13.032218,1709126293.0322175,-131.8359375,359.86328125,-42.48046875,-195.80078125,0.0,-1.0,0.0,0.0,1.m4v,11.0
2024-02-28 14:18:13.036122,1709126293.0361223,-299.8046875,-972.16796875,-41.015625,-1000.0,0.0,-1.0,0.0,0.0,1.m4v,11.0
2024-02-28 14:18:13.040027,1709126293.0400271,-245.60546875,-1000.0,-31.25,-956.54296875,0.0,-1.0,0.0,0.0,1.m4v,11.0
2024-02-28 14:18:13.043932,1709126293.043932,-148.92578125,-958.49609375,-21.484375,-992.67578125,0.0,-1.0,0.0,0.0,1.m4v,11.0
2024-02-28 14:18:13.047837,1709126293.047837,-85.44921875,-1000.0,-24.4140625,-942.87109375,0.0,-1.0,0.0,0.0,1.m4v,11.0
2024-02-28 14:18:13.051742,1709126293.0517418,-76.171875,-1000.0,-29.296875,-924.8046875,0.0,-1.0,0.0,0.0,1.m4v,11.0
2024-02-28 14:18:13.055647,1709126293.055647,-88.8671875,-935.546875,-23.92578125,-1000.0,0.0,-1.0,0.0,0.0,1.m4v,11.0
2024-02-28 14:18:13.059551,1709126293.0595517,-80.078125,-1000.0,-21.97265625,-954.58984375,0.0,-1.0,0.0,0.0,1.m4v,11.0
2024-02-28 14:18:13.063456,1709126293.0634563,112.3046875,-425.78125,-22.94921875,435.05859375,0.0,-1.0,0.0,0.0,1.m4v,11.0
2024-02-28 14:18:13.067361,1709126293.067361,244.62890625,925.29296875,-21.97265625,999.51171875,0.0,-1.0,0.0,0.0,1.m4v,11.0
2024-02-28 14:18:13.071266,1709126293.071266,143.06640625,995.60546875,-25.87890625,897.94921875,0.0,-1.0,0.0,0.0,1.m4v,11.0
2024-02-28 14:18:13.075190,1709126293.07519,66.89453125,925.29296875,-35.64453125,981.4453125,0.0,-1.0,0.0,0.0,1.m4v,11.0
2024-02-28 14:18:13.079095,1709126293.079095,31.25,993.65234375,-36.1328125,982.91015625,0.0,-1.0,0.0,0.0,1.m4v,11.0
2024-02-28 14:18:13.083000,1709126293.0829997,20.01953125,928.7109375,-33.203125,909.1796875,0.0,-1.0,0.0,0.0,1.m4v,11.0
2024-02-28 14:18:13.086905,1709126293.0869043,43.9453125,983.88671875,-44.921875,999.51171875,0.0,-1.0,0.0,0.0,1.m4v,11.0
2024-02-28 14:18:13.090810,1709126293.0908096,6.8359375,969.23828125,-39.55078125,686.03515625,0.0,-1.0,0.0,0.0,1.m4v,11.0
2024-02-28 14:18:13.094714,1709126293.0947144,-210.44921875,-390.625,-25.87890625,-733.88671875,0.0,-1.0,0.0,0.0,1.m4v,11.0
2024-02-28 14:18:13.098619,1709126293.0986192,-259.765625,-1000.0,-23.92578125,-1000.0,0.0,-1.0,0.0,0.0,1.m4v,11.0
2024-02-28 14:18:13.102524,1709126293.102524,-156.25,-929.6875,-28.3203125,-936.5234375,0.0,-1.0,0.0,0.0,1.m4v,11.0
2024-02-28 14:18:13.106429,1709126293.1064289,-106.4453125,-1000.0,-32.2265625,-1000.0,0.0,-1.0,0.0,0.0,1.m4v,11.0
2024-02-28 14:18:13.110334,1709126293.1103337,-77.1484375,-1000.0,-32.2265625,-995.1171875,0.0,-1.0,0.0,0.0,1.m4v,11.0
2024-02-28 14:18:13.114239,1709126293.1142385,-65.4296875,-938.4765625,-33.69140625,-956.54296875,0.0,-1.0,0.0,0.0,1.m4v,11.0
2024-02-28 14:18:13.118144,1709126293.1181436,-86.42578125,-1000.0,-30.2734375,-1000.0,0.0,-1.0,0.0,0.0,1.m4v,11.0
2024-02-28 14:18:13.122066,1709126293.1220665,9.765625,-843.26171875,-40.52734375,-226.5625,0.0,-1.0,0.0,0.0,1.m4v,11.0
2024-02-28 14:18:13.125971,1709126293.1259713,216.796875,624.0234375,-46.38671875,965.8203125,0.0,-1.0,0.0,0.0,1.m4v,11.0
2024-02-28 14:18:13.129876,1709126293.129876,187.01171875,999.51171875,-33.203125,971.6796875,0.0,-1.0,0.0,0.0,1.m4v,11.0
2024-02-28 14:18:13.133781,1709126293.133781,78.61328125,896.97265625,-35.15625,938.96484375,0.0,-1.0,0.0,0.0,1.m4v,11.0
2024-02-28 14:18:13.137686,1709126293.137686,30.2734375,999.51171875,-41.9921875,994.62890625,0.0,-1.0,0.0,0.0,1.m4v,11.0
2024-02-28 14:18:13.141591,1709126293.1415908,14.6484375,918.45703125,-34.66796875,911.1328125,0.0,-1.0,0.0,0.0,1.m4v,11.0
2024-02-28 14:18:13.145496,1709126293.1454957,31.73828125,999.51171875,-28.80859375,999.51171875,0.0,-1.0,0.0,0.0,1.m4v,11.0
2024-02-28 14:18:13.149400,1709126293.1494005,5.37109375,907.71484375,-25.87890625,830.56640625,0.0,-1.0,0.0,0.0,1.m4v,11.0
2024-02-28 14:18:13.153305,1709126293.1533053,-212.40234375,-519.53125,-26.85546875,-621.58203125,0.0,-1.0,0.0,0.0,1.m4v,11.0
2024-02-28 14:18:13.157210,1709126293.15721,-288.0859375,-1000.0,-20.01953125,-1000.0,0.0,-1.0,0.0,0.0,1.m4v,11.0
2024-02-28 14:18:13.161115,1709126293.161115,-186.03515625,-925.78125,-21.484375,-927.734375,0.0,-1.0,0.0,0.0,1.m4v,11.0
2024-02-28 14:18:13.165020,1709126293.16502,-116.69921875,-1000.0,-29.78515625,-1000.0,0.0,-1.0,0.0,0.0,1.m4v,11.0
2024-02-28 14:18:13.168942,1709126293.1689415,-71.77734375,-1000.0,-33.69140625,-1000.0,0.0,-1.0,0.0,0.0,1.m4v,11.0
2024-02-28 14:18:13.172847,1709126293.1728466,-63.4765625,-948.2421875,-33.69140625,-938.96484375,0.0,-1.0,0.0,0.0,1.m4v,11.0
2024-02-28 14:18:13.176751,1709126293.1767514,-98.6328125,-1000.0,-37.59765625,-1000.0,0.0,-1.0,0.0,0.0,1.m4v,11.0
2024-02-28 14:18:13.180656,1709126293.1806562,-66.40625,-934.5703125,-44.921875,-723.6328125,0.0,-1.0,0.0,0.0,1.m4v,11.0
2024-02-28 14:18:13.184561,1709126293.1845613,161.1328125,494.140625,-43.45703125,702.1484375,0.0,-1.0,0.0,0.0,1.m4v,11.0
2024-02-28 14:18:13.188466,1709126293.188466,198.2421875,999.51171875,-37.109375,999.51171875,0.0,-1.0,0.0,0.0,1.m4v,11.0
2024-02-28 14:18:13.192371,1709126293.192371,95.21484375,895.5078125,-24.4140625,905.2734375,0.0,-1.0,0.0,0.0,1.m4v,11.0
2024-02-28 14:18:13.196276,1709126293.1962757,34.1796875,983.88671875,-16.11328125,990.72265625,0.0,-1.0,0.0,0.0,1.m4v,11.0
2024-02-28 14:18:13.200181,1709126293.2001803,-11.23046875,984.375,-17.08984375,954.1015625,0.0,-1.0,0.0,0.0,1.m4v,11.0
2024-02-28 14:18:13.204085,1709126293.2040854,-10.7421875,899.4140625,-26.85546875,942.3828125,0.0,-1.0,0.0,0.0,1.m4v,11.0
2024-02-28 14:18:13.207990,1709126293.2079902,24.90234375,999.51171875,-29.78515625,999.51171875,0.0,-1.0,0.0,0.0,1.m4v,11.0
2024-02-28 14:18:13.211895,1709126293.2118952,-72.75390625,583.984375,-33.69140625,15.625,0.0,-1.0,0.0,0.0,1.m4v,11.0
2024-02-28 14:18:13.215825,1709126293.2158246,-266.11328125,-857.421875,-34.66796875,-1000.0,0.0,-1.0,0.0,0.0,1.m4v,11.0
2024-02-28 14:18:13.219730,1709126293.2197297,-225.09765625,-1000.0,-23.92578125,-979.4921875,0.0,-1.0,0.0,0.0,1.m4v,11.0
2024-02-28 14:18:13.223634,1709126293.2236345,-124.0234375,-941.40625,-21.484375,-981.4453125,0.0,-1.0,0.0,0.0,1.m4v,11.0
2024-02-28 14:18:13.227539,1709126293.2275393,-90.33203125,-1000.0,-30.76171875,-1000.0,0.0,-1.0,0.0,0.0,1.m4v,11.0
2024-02-28 14:18:13.231444,1709126293.231444,-75.1953125,-1000.0,-36.1328125,-943.84765625,0.0,-1.0,0.0,0.0,1.m4v,11.0
2024-02-28 14:18:13.235349,1709126293.235349,-77.1484375,-942.3828125,-35.64453125,-1000.0,0.0,-1.0,0.0,0.0,1.m4v,11.0
2024-02-28 14:18:13.239254,1709126293.2392538,-66.40625,-1000.0,-40.0390625,-862.79296875,0.0,-1.0,0.0,0.0,1.m4v,11.0
2024-02-28 14:18:13.243159,1709126293.2431586,114.74609375,-323.2421875,-44.921875,572.75390625,0.0,-1.0,0.0,0.0,1.m4v,11.0
2024-02-28 14:18:13.247064,1709126293.2470636,223.6328125,960.9375,-42.96875,999.51171875,0.0,-1.0,0.0,0.0,1.m4v,11.0
2024-02-28 14:18:13.250968,1709126293.2509685,132.32421875,979.98046875,-33.203125,898.4375,0.0,-1.0,0.0,0.0,1.m4v,11.0
2024-02-28 14:18:13.254873,1709126293.2548733,65.4296875,933.10546875,-26.85546875,985.83984375,0.0,-1.0,0.0,0.0,1.m4v,11.0
2024-02-28 14:18:13.258778,1709126293.258778,24.4140625,997.55859375,-36.1328125,975.5859375,0.0,-1.0,0.0,0.0,1.m4v,11.0
2024-02-28 14:18:13.262698,1709126293.2626977,2.9296875,905.76171875,-37.109375,913.0859375,0.0,-1.0,0.0,0.0,1.m4v,11.0
2024-02-28 14:18:13.266603,1709126293.2666025,43.45703125,999.51171875,-25.87890625,999.51171875,0.0,-1.0,0.0,0.0,1.m4v,11.0
2024-02-28 14:18:13.270508,1709126293.2705076,-29.78515625,790.0390625,-28.80859375,454.58984375,0.0,-1.0,0.0,0.0,1.m4v,11.0
2024-02-28 14:18:13.274412,1709126293.2744124,-250.9765625,-683.10546875,-38.57421875,-856.4453125,0.0,-1.0,0.0,0.0,1.m4v,11.0
2024-02-28 14:18:13.278317,1709126293.2783172,-248.53515625,-1000.0,-47.36328125,-1000.0,0.0,-1.0,0.0,0.0,1.m4v,11.0
2024-02-28 14:18:13.282222,1709126293.282222,-154.296875,-928.22265625,-41.015625,-1000.0,0.0,-1.0,0.0,0.0,1.m4v,11.0
2024-02-28 14:18:13.286127,1709126293.2861269,-21.97265625,-1000.0,-28.3203125,-95.703125,0.0,-1.0,0.0,0.0,1.m4v,11.0
2024-02-28 14:18:13.290032,1709126293.2900317,111.328125,-1000.0,-33.203125,999.51171875,0.0,-1.0,0.0,0.0,1.m4v,11.0
2024-02-28 14:18:13.293936,1709126293.2939365,-37.109375,-1000.0,-51.26953125,-91.796875,0.0,-1.0,0.0,0.0,1.m4v,11.0
2024-02-28 14:18:13.297842,1709126293.2978415,-196.77734375,-940.91796875,-59.5703125,-1000.0,0.0,-1.0,0.0,0.0,1.m4v,11.0
2024-02-28 14:18:13.301746,1709126293.3017464,-157.2265625,-1000.0,-58.10546875,-992.67578125,0.0,-1.0,0.0,0.0,1.m4v,11.0
2024-02-28 14:18:13.305651,1709126293.3056512,23.4375,-870.60546875,-47.8515625,107.421875,0.0,-1.0,0.0,0.0,1.m4v,11.0
2024-02-28 14:18:13.309569,1709126293.309569,206.0546875,590.8203125,-34.66796875,999.51171875,0.0,-1.0,0.0,0.0,1.m4v,11.0
2024-02-28 14:18:13.313474,1709126293.313474,142.08984375,999.51171875,-33.69140625,932.12890625,0.0,-1.0,0.0,0.0,1.m4v,11.0
2024-02-28 14:18:13.317379,1709126293.3173788,47.36328125,895.99609375,-37.59765625,964.35546875,0.0,-1.0,0.0,0.0,1.m4v,11.0
2024-02-28 14:18:13.321284,1709126293.3212836,28.80859375,999.51171875,-34.66796875,965.33203125,0.0,-1.0,0.0,0.0,1.m4v,11.0
2024-02-28 14:18:13.325188,1709126293.3251884,14.16015625,911.62109375,-32.2265625,931.15234375,0.0,-1.0,0.0,0.0,1.m4v,11.0
2024-02-28 14:18:13.329093,1709126293.3290932,26.3671875,999.51171875,-41.9921875,999.51171875,0.0,-1.0,0.0,0.0,1.m4v,11.0
2024-02-28 14:18:13.332998,1709126293.332998,-73.73046875,853.515625,-43.45703125,133.30078125,0.0,-1.0,0.0,0.0,1.m4v,11.0
2024-02-28 14:18:13.336903,1709126293.3369029,-290.0390625,-605.46875,-33.69140625,-1000.0,0.0,-1.0,0.0,0.0,1.m4v,11.0
2024-02-28 14:18:13.340808,1709126293.340808,-268.06640625,-1000.0,-31.73828125,-994.140625,0.0,-1.0,0.0,0.0,1.m4v,11.0
2024-02-28 14:18:13.344713,1709126293.3447127,-143.5546875,-925.78125,-41.015625,-973.6328125,0.0,-1.0,0.0,0.0,1.m4v,11.0
2024-02-28 14:18:13.348618,1709126293.3486176,-98.14453125,-1000.0,-45.41015625,-1000.0,0.0,-1.0,0.0,0.0,1.m4v,11.0
2024-02-28 14:18:13.352522,1709126293.3525224,-83.984375,-995.60546875,-35.15625,-940.91796875,0.0,-1.0,0.0,0.0,1.m4v,11.0
2024-02-28 14:18:13.356448,1709126293.356448,-91.30859375,-951.66015625,-27.34375,-1000.0,0.0,-1.0,0.0,0.0,1.m4v,11.0
2024-02-28 14:18:13.360353,1709126293.3603528,-81.0546875,-1000.0,-39.55078125,-861.81640625,0.0,-1.0,0.0,0.0,1.m4v,11.0
2024-02-28 14:18:13.364258,1709126293.3642578,112.3046875,-197.75390625,-43.45703125,595.703125,0.0,-1.0,0.0,0.0,1.m4v,11.0
2024-02-28 14:18:13.368163,1709126293.3681626,206.0546875,999.51171875,-37.59765625,999.51171875,0.0,-1.0,0.0,0.0,1.m4v,11.0
2024-02-28 14:18:13.372067,1709126293.3720677,115.72265625,961.42578125,-37.109375,896.97265625,0.0,-1.0,0.0,0.0,1.m4v,11.0
2024-02-28 14:18:13.375972,1709126293.3759725,61.5234375,942.3828125,-30.76171875,989.74609375,0.0,-1.0,0.0,0.0,1.m4v,11.0
2024-02-28 14:18:13.379877,1709126293.379877,26.85546875,993.65234375,-24.4140625,963.37890625,0.0,-1.0,0.0,0.0,1.m4v,11.0
2024-02-28 14:18:13.383782,1709126293.383782,16.11328125,898.4375,-23.4375,928.22265625,0.0,-1.0,0.0,0.0,1.m4v,11.0
2024-02-28 14:18:13.387687,1709126293.3876867,41.9921875,999.51171875,-22.94921875,999.51171875,0.0,-1.0,0.0,0.0,1.m4v,11.0
2024-02-28 14:18:13.391592,1709126293.3915918,-55.17578125,609.375,-24.4140625,184.08203125,0.0,-1.0,0.0,0.0,1.m4v,11.0
2024-02-28 14:18:13.395497,1709126293.3954966,-256.8359375,-846.6796875,-36.1328125,-995.60546875,0.0,-1.0,0.0,0.0,1.m4v,11.0
2024-02-28 14:18:13.399401,1709126293.3994014,-245.1171875,-1000.0,-45.8984375,-1000.0,0.0,-1.0,0.0,0.0,1.m4v,11.0
2024-02-28 14:18:13.403327,1709126293.4033267,-150.390625,-939.453125,-39.0625,-969.7265625,0.0,-1.0,0.0,0.0,1.m4v,11.0
2024-02-28 14:18:13.407232,1709126293.4072316,-95.703125,-1000.0,-30.2734375,-1000.0,0.0,-1.0,0.0,0.0,1.m4v,11.0
2024-02-28 14:18:13.411136,1709126293.4111364,-68.359375,-966.30859375,-35.15625,-953.125,0.0,-1.0,0.0,0.0,1.m4v,11.0
2024-02-28 14:18:13.415041,1709126293.4150412,-81.54296875,-998.046875,-35.64453125,-1000.0,0.0,-1.0,0.0,0.0,1.m4v,11.0
2024-02-28 14:18:13.418946,1709126293.418946,-85.9375,-1000.0,-24.90234375,-959.9609375,0.0,-1.0,0.0,0.0,1.m4v,11.0
2024-02-28 14:18:13.422851,1709126293.4228508,112.79296875,272.4609375,-29.296875,438.4765625,0.0,-1.0,0.0,0.0,1.m4v,11.0
2024-02-28 14:18:13.426756,1709126293.426756,221.6796875,999.51171875,-35.64453125,999.51171875,0.0,-1.0,0.0,0.0,1.m4v,11.0
2024-02-28 14:18:13.430661,1709126293.4306607,127.9296875,902.34375,-25.390625,897.4609375,0.0,-1.0,0.0,0.0,1.m4v,11.0
2024-02-28 14:18:13.434566,1709126293.4345655,54.19921875,975.09765625,-28.3203125,982.421875,0.0,-1.0,0.0,0.0,1.m4v,11.0
2024-02-28 14:18:13.438470,1709126293.4384704,-7.8125,986.328125,-38.0859375,977.5390625,0.0,-1.0,0.0,0.0,1.m4v,11.0
2024-02-28 14:18:13.442375,1709126293.4423752,-14.16015625,912.109375,-32.2265625,913.0859375,0.0,-1.0,0.0,0.0,1.m4v,11.0
2024-02-28 14:18:13.446280,1709126293.44628,13.671875,999.51171875,-30.76171875,999.51171875,0.0,-1.0,0.0,0.0,1.m4v,11.0
2024-02-28 14:18:13.450205,1709126293.450205,-41.50390625,860.83984375,-37.109375,531.73828125,0.0,-1.0,0.0,0.0,1.m4v,11.0
2024-02-28 14:18:13.454110,1709126293.45411,-243.65234375,-597.16796875,-39.0625,-825.1953125,0.0,-1.0,0.0,0.0,1.m4v,11.0
2024-02-28 14:18:13.458015,1709126293.458015,-257.8125,-1000.0,-29.78515625,-1000.0,0.0,-1.0,0.0,0.0,1.m4v,11.0
2024-02-28 14:18:13.461920,1709126293.46192,-161.62109375,-925.29296875,-21.484375,-946.2890625,0.0,-1.0,0.0,0.0,1.m4v,11.0
2024-02-28 14:18:13.465825,1709126293.4658248,-114.2578125,-1000.0,-27.83203125,-1000.0,0.0,-1.0,0.0,0.0,1.m4v,11.0
2024-02-28 14:18:13.469730,1709126293.4697297,-76.171875,-1000.0,-30.2734375,-1000.0,0.0,-1.0,0.0,0.0,1.m4v,11.0
2024-02-28 14:18:13.473634,1709126293.4736345,-63.4765625,-942.3828125,-31.25,-938.4765625,0.0,-1.0,0.0,0.0,1.m4v,11.0
2024-02-28 14:18:13.477539,1709126293.4775393,-92.28515625,-1000.0,-36.62109375,-1000.0,0.0,-1.0,0.0,0.0,1.m4v,11.0
2024-02-28 14:18:13.481444,1709126293.481444,-53.7109375,-891.11328125,-34.66796875,-823.73046875,0.0,-1.0,0.0,0.0,1.m4v,11.0
2024-02-28 14:18:13.485349,1709126293.4853492,188.4765625,566.40625,-28.3203125,634.765625,0.0,-1.0,0.0,0.0,1.m4v,11.0
2024-02-28 14:18:13.489254,1709126293.489254,214.35546875,999.51171875,-30.76171875,999.51171875,0.0,-1.0,0.0,0.0,1.m4v,11.0
2024-02-28 14:18:13.493159,1709126293.4931588,93.75,895.01953125,-31.25,898.92578125,0.0,-1.0,0.0,0.0,1.m4v,11.0
2024-02-28 14:18:13.497081,1709126293.497081,49.31640625,985.83984375,-29.78515625,999.51171875,0.0,-1.0,0.0,0.0,1.m4v,11.0
2024-02-28 14:18:13.500986,1709126293.500986,9.765625,969.7265625,-30.2734375,920.8984375,0.0,-1.0,0.0,0.0,1.m4v,11.0
2024-02-28 14:18:13.504891,1709126293.504891,28.80859375,970.21484375,-29.296875,999.51171875,0.0,-1.0,0.0,0.0,1.m4v,11.0
2024-02-28 14:18:13.508795,1709126293.5087955,33.203125,969.7265625,-29.78515625,915.0390625,0.0,-1.0,0.0,0.0,1.m4v,11.0
2024-02-28 14:18:13.512701,1709126293.5127006,-125.9765625,969.7265625,-35.15625,-496.58203125,0.0,-1.0,0.0,0.0,1.m4v,11.0
2024-02-28 14:18:13.516605,1709126293.5166054,-191.89453125,970.21484375,-38.0859375,-1000.0,0.0,-1.0,0.0,0.0,1.m4v,11.0
2024-02-28 14:18:13.520510,1709126293.5205102,-144.53125,970.21484375,-38.0859375,-990.72265625,0.0,-1.0,0.0,0.0,1.m4v,11.0
2024-02-28 14:18:13.524415,1709126293.524415,-79.1015625,970.21484375,-38.57421875,-707.03125,0.0,-1.0,0.0,0.0,1.m4v,11.0
2024-02-28 14:18:13.528320,1709126293.5283198,102.5390625,969.7265625,-33.203125,754.39453125,0.0,-1.0,0.0,0.0,1.m4v,11.0
2024-02-28 14:18:13.532225,1709126293.532225,95.21484375,969.7265625,-34.66796875,991.2109375,0.0,-1.0,0.0,0.0,1.m4v,11.0
2024-02-28 14:18:13.536130,1709126293.5361297,-113.76953125,970.21484375,-30.76171875,-437.98828125,0.0,-1.0,0.0,0.0,1.m4v,11.0
2024-02-28 14:18:13.540035,1709126293.5400343,-207.51953125,970.21484375,-30.76171875,-1000.0,0.0,-1.0,0.0,0.0,1.m4v,11.0
2024-02-28 14:18:13.543956,1709126293.5439556,-111.328125,986.328125,-35.15625,-765.13671875,0.0,-1.0,0.0,0.0,1.m4v,11.0
2024-02-28 14:18:13.547860,1709126293.5478604,67.87109375,912.109375,-42.48046875,533.203125,0.0,-1.0,0.0,0.0,1.m4v,11.0
2024-02-28 14:18:13.551765,1709126293.5517654,110.83984375,999.51171875,-46.875,999.51171875,0.0,-1.0,0.0,0.0,1.m4v,11.0
2024-02-28 14:18:13.555670,1709126293.5556705,-30.2734375,860.3515625,-38.0859375,272.4609375,0.0,-1.0,0.0,0.0,1.m4v,11.0
2024-02-28 14:18:13.559575,1709126293.559575,-239.2578125,-597.16796875,-46.38671875,-872.0703125,0.0,-1.0,0.0,0.0,1.m4v,11.0
2024-02-28 14:18:13.563480,1709126293.56348,-208.984375,-1000.0,-50.78125,-1000.0,0.0,-1.0,0.0,0.0,1.m4v,11.0
2024-02-28 14:18:13.567385,1709126293.5673847,-106.93359375,-925.78125,-43.9453125,-962.890625,0.0,-1.0,0.0,0.0,1.m4v,11.0
2024-02-28 14:18:13.571290,1709126293.5712895,-103.02734375,-1000.0,-45.8984375,-1000.0,0.0,-1.0,0.0,0.0,1.m4v,11.0
2024-02-28 14:18:13.575195,1709126293.5751946,-87.890625,-934.5703125,-37.59765625,-960.44921875,0.0,-1.0,0.0,0.0,1.m4v,11.0
2024-02-28 14:18:13.579099,1709126293.5790994,-114.74609375,-1000.0,-29.296875,-1000.0,0.0,-1.0,0.0,0.0,1.m4v,11.0
2024-02-28 14:18:13.583004,1709126293.5830042,-13.671875,-792.96875,-32.2265625,-159.1796875,0.0,-1.0,0.0,0.0,1.m4v,11.0
2024-02-28 14:18:13.586909,1709126293.586909,190.91796875,682.12890625,-47.8515625,991.69921875,0.0,-1.0,0.0,0.0,1.m4v,11.0
2024-02-28 14:18:13.590830,1709126293.5908298,153.80859375,999.51171875,-55.17578125,960.9375,0.0,-1.0,0.0,0.0,1.m4v,11.0
2024-02-28 14:18:13.594735,1709126293.594735,58.59375,899.4140625,-46.875,943.84765625,0.0,-1.0,0.0,0.0,1.m4v,11.0
2024-02-28 14:18:13.598639,1709126293.5986395,23.92578125,987.3046875,-39.0625,992.1875,0.0,-1.0,0.0,0.0,1.m4v,11.0
2024-02-28 14:18:13.602544,1709126293.6025443,1.46484375,986.328125,-42.96875,909.66796875,0.0,-1.0,0.0,0.0,1.m4v,11.0
2024-02-28 14:18:13.606449,1709126293.6064494,14.16015625,899.90234375,-48.828125,999.51171875,0.0,-1.0,0.0,0.0,1.m4v,11.0
2024-02-28 14:18:13.610354,1709126293.6103542,4.8828125,999.51171875,-51.26953125,754.39453125,0.0,-1.0,0.0,0.0,1.m4v,11.0
2024-02-28 14:18:13.614259,1709126293.614259,-187.98828125,666.50390625,-62.5,-682.6171875,0.0,-1.0,0.0,0.0,1.m4v,11.0
2024-02-28 14:18:13.618164,1709126293.6181638,-281.73828125,-800.78125,-56.15234375,-1000.0,0.0,-1.0,0.0,0.0,1.m4v,11.0
2024-02-28 14:18:13.622069,1709126293.6220686,-185.546875,-1000.0,-33.69140625,-932.12890625,0.0,-1.0,0.0,0.0,1.m4v,11.0
2024-02-28 14:18:13.625973,1709126293.6259737,-124.0234375,-935.546875,-29.296875,-1000.0,0.0,-1.0,0.0,0.0,1.m4v,11.0
2024-02-28 14:18:13.629879,1709126293.6298783,-86.42578125,-1000.0,-28.80859375,-1000.0,0.0,-1.0,0.0,0.0,1.m4v,11.0
2024-02-28 14:18:13.633783,1709126293.633783,-64.94140625,-942.3828125,-33.69140625,-939.453125,0.0,-1.0,0.0,0.0,1.m4v,11.0
2024-02-28 14:18:13.637704,1709126293.6377037,-103.02734375,-1000.0,-42.96875,-1000.0,0.0,-1.0,0.0,0.0,1.m4v,11.0
2024-02-28 14:18:13.641608,1709126293.6416085,-41.50390625,-891.11328125,-46.875,-617.67578125,0.0,-1.0,0.0,0.0,1.m4v,11.0
2024-02-28 14:18:13.645513,1709126293.6455133,194.82421875,566.40625,-43.45703125,776.3671875,0.0,-1.0,0.0,0.0,1.m4v,11.0
2024-02-28 14:18:13.649418,1709126293.649418,194.82421875,999.51171875,-37.109375,999.51171875,0.0,-1.0,0.0,0.0,1.m4v,11.0
2024-02-28 14:18:13.653323,1709126293.6533232,76.66015625,895.01953125,-35.15625,912.109375,0.0,-1.0,0.0,0.0,1.m4v,11.0
2024-02-28 14:18:13.657228,1709126293.657228,40.52734375,993.1640625,-37.109375,999.0234375,0.0,-1.0,0.0,0.0,1.m4v,11.0
2024-02-28 14:18:13.661133,1709126293.6611328,11.23046875,941.89453125,-32.2265625,916.015625,0.0,-1.0,0.0,0.0,1.m4v,11.0
2024-02-28 14:18:13.665038,1709126293.6650376,20.99609375,957.03125,-27.34375,999.51171875,0.0,-1.0,0.0,0.0,1.m4v,11.0
2024-02-28 14:18:13.668942,1709126293.6689425,20.01953125,999.51171875,-29.296875,880.859375,0.0,-1.0,0.0,0.0,1.m4v,11.0
2024-02-28 14:18:13.672847,1709126293.6728473,-178.7109375,-219.23828125,-33.203125,-554.19921875,0.0,-1.0,0.0,0.0,1.m4v,11.0
2024-02-28 14:18:13.676752,1709126293.6767523,-285.15625,-1000.0,-40.52734375,-1000.0,0.0,-1.0,0.0,0.0,1.m4v,11.0
2024-02-28 14:18:13.680657,1709126293.6806571,-192.3828125,-940.91796875,-30.2734375,-944.3359375,0.0,-1.0,0.0,0.0,1.m4v,11.0
2024-02-28 14:18:13.684575,1709126293.684575,-103.515625,-1000.0,-17.08984375,-977.5390625,0.0,-1.0,0.0,0.0,1.m4v,11.0
2024-02-28 14:18:13.688480,1709126293.68848,-46.875,-1000.0,-14.16015625,-849.609375,0.0,-1.0,0.0,0.0,1.m4v,11.0
2024-02-28 14:18:13.692385,1709126293.6923847,-59.5703125,-944.82421875,-16.6015625,-903.3203125,0.0,-1.0,0.0,0.0,1.m4v,11.0
2024-02-28 14:18:13.696290,1709126293.6962895,-91.30859375,-1000.0,-27.83203125,-1000.0,0.0,-1.0,0.0,0.0,1.m4v,11.0
2024-02-28 14:18:13.700194,1709126293.7001944,-80.078125,-908.69140625,-35.15625,-852.05078125,0.0,-1.0,0.0,0.0,1.m4v,11.0
2024-02-28 14:18:13.704099,1709126293.7040994,168.45703125,538.57421875,-25.390625,597.16796875,0.0,-1.0,0.0,0.0,1.m4v,11.0
2024-02-28 14:18:13.708004,1709126293.7080042,224.609375,999.51171875,-21.97265625,999.51171875,0.0,-1.0,0.0,0.0,1.m4v,11.0
2024-02-28 14:18:13.711909,1709126293.711909,78.125,895.01953125,-23.4375,896.484375,0.0,-1.0,0.0,0.0,1.m4v,11.0
2024-02-28 14:18:13.715814,1709126293.715814,42.48046875,985.3515625,-16.11328125,987.3046875,0.0,-1.0,0.0,0.0,1.m4v,11.0
2024-02-28 14:18:13.719719,1709126293.7197187,15.625,985.3515625,-23.92578125,978.515625,0.0,-1.0,0.0,0.0,1.m4v,11.0
2024-02-28 14:18:13.723624,1709126293.7236235,1.46484375,914.55078125,-32.71484375,911.62109375,0.0,-1.0,0.0,0.0,1.m4v,11.0
2024-02-28 14:18:13.727529,1709126293.7275286,32.71484375,999.51171875,-32.71484375,999.51171875,0.0,-1.0,0.0,0.0,1.m4v,11.0
2024-02-28 14:18:13.731454,1709126293.731454,-21.484375,879.8828125,-39.55078125,548.33984375,0.0,-1.0,0.0,0.0,1.m4v,11.0
2024-02-28 14:18:13.735359,1709126293.735359,-238.76953125,-566.89453125,-34.66796875,-817.87109375,0.0,-1.0,0.0,0.0,1.m4v,11.0
2024-02-28 14:18:13.739264,1709126293.7392638,-258.30078125,-1000.0,-30.2734375,-1000.0,0.0,-1.0,0.0,0.0,1.m4v,11.0
2024-02-28 14:18:13.743169,1709126293.7431686,-142.08984375,-924.31640625,-29.296875,-945.3125,0.0,-1.0,0.0,0.0,1.m4v,11.0
2024-02-28 14:18:13.747073,1709126293.7470734,-95.21484375,-1000.0,-27.83203125,-1000.0,0.0,-1.0,0.0,0.0,1.m4v,11.0
2024-02-28 14:18:13.750978,1709126293.7509782,-59.5703125,-998.53515625,-28.3203125,-965.8203125,0.0,-1.0,0.0,0.0,1.m4v,11.0
2024-02-28 14:18:13.754883,1709126293.7548833,-61.5234375,-913.57421875,-37.109375,-1000.0,0.0,-1.0,0.0,0.0,1.m4v,11.0
2024-02-28 14:18:13.758788,1709126293.758788,-101.5625,-1000.0,-36.62109375,-1000.0,0.0,-1.0,0.0,0.0,1.m4v,11.0
2024-02-28 14:18:13.762693,1709126293.762693,52.734375,-553.22265625,-28.80859375,260.7421875,0.0,-1.0,0.0,0.0,1.m4v,11.0
2024-02-28 14:18:13.766598,1709126293.7665975,219.7265625,866.69921875,-31.73828125,999.51171875,0.0,-1.0,0.0,0.0,1.m4v,11.0
2024-02-28 14:18:13.770503,1709126293.7705026,140.13671875,999.51171875,-33.69140625,911.1328125,0.0,-1.0,0.0,0.0,1.m4v,11.0
2024-02-28 14:18:13.774407,1709126293.7744074,60.05859375,915.52734375,-28.3203125,971.6796875,0.0,-1.0,0.0,0.0,1.m4v,11.0
2024-02-28 14:18:13.778333,1709126293.7783327,27.34375,999.51171875,-25.87890625,986.328125,0.0,-1.0,0.0,0.0,1.m4v,11.0
2024-02-28 14:18:13.782238,1709126293.7822375,-0.48828125,913.57421875,-32.2265625,908.69140625,0.0,-1.0,0.0,0.0,1.m4v,11.0
2024-02-28 14:18:13.786142,1709126293.7861423,26.3671875,999.51171875,-31.73828125,999.51171875,0.0,-1.0,0.0,0.0,1.m4v,11.0
2024-02-28 14:18:13.790047,1709126293.7900472,-0.9765625,875.48828125,-34.66796875,751.953125,0.0,-1.0,0.0,0.0,1.m4v,11.0
2024-02-28 14:18:13.793952,1709126293.793952,-227.5390625,-574.21875,-35.15625,-689.94140625,0.0,-1.0,0.0,0.0,1.m4v,11.0
2024-02-28 14:18:13.797857,1709126293.7978568,-275.390625,-1000.0,-41.015625,-1000.0,0.0,-1.0,0.0,0.0,1.m4v,11.0
2024-02-28 14:18:13.801762,1709126293.801762,-166.015625,-925.29296875,-40.52734375,-932.12890625,0.0,-1.0,0.0,0.0,1.m4v,11.0
2024-02-28 14:18:13.805667,1709126293.8056667,-108.88671875,-1000.0,-30.2734375,-1000.0,0.0,-1.0,0.0,0.0,1.m4v,11.0
2024-02-28 14:18:13.809572,1709126293.8095715,-84.47265625,-1000.0,-32.71484375,-1000.0,0.0,-1.0,0.0,0.0,1.m4v,11.0
2024-02-28 14:18:13.813476,1709126293.8134763,-65.91796875,-942.3828125,-43.45703125,-938.96484375,0.0,-1.0,0.0,0.0,1.m4v,11.0
2024-02-28 14:18:13.817381,1709126293.8173811,-92.7734375,-1000.0,-47.8515625,-1000.0,0.0,-1.0,0.0,0.0,1.m4v,11.0
2024-02-28 14:18:13.821286,1709126293.821286,-48.33984375,-891.11328125,-40.52734375,-592.28515625,0.0,-1.0,0.0,0.0,1.m4v,11.0
2024-02-28 14:18:13.825219,1709126293.8252192,181.640625,566.40625,-38.57421875,794.43359375,0.0,-1.0,0.0,0.0,1.m4v,11.0
2024-02-28 14:18:13.829124,1709126293.829124,182.12890625,999.51171875,-35.15625,999.51171875,0.0,-1.0,0.0,0.0,1.m4v,11.0
2024-02-28 14:18:13.833029,1709126293.8330288,69.3359375,895.01953125,-37.109375,913.57421875,0.0,-1.0,0.0,0.0,1.m4v,11.0
2024-02-28 14:18:13.836934,1709126293.8369336,28.80859375,990.234375,-35.15625,995.60546875,0.0,-1.0,0.0,0.0,1.m4v,11.0
2024-02-28 14:18:13.840839,1709126293.840839,2.9296875,956.0546875,-22.94921875,927.734375,0.0,-1.0,0.0,0.0,1.m4v,11.0
2024-02-28 14:18:13.844743,1709126293.8447435,22.94921875,933.10546875,-24.90234375,987.3046875,0.0,-1.0,0.0,0.0,1.m4v,11.0
2024-02-28 14:18:13.848648,1709126293.8486483,40.0390625,999.51171875,-30.76171875,954.58984375,0.0,-1.0,0.0,0.0,1.m4v,11.0
2024-02-28 14:18:13.852553,1709126293.8525531,-145.99609375,-7.32421875,-40.0390625,-397.94921875,0.0,-1.0,0.0,0.0,1.m4v,11.0
2024-02-28 14:18:13.856458,1709126293.856458,-295.8984375,-1000.0,-37.59765625,-1000.0,0.0,-1.0,0.0,0.0,1.m4v,11.0
2024-02-28 14:18:13.860363,1709126293.8603628,-219.7265625,-964.84375,-23.4375,-932.6171875,0.0,-1.0,0.0,0.0,1.m4v,11.0
2024-02-28 14:18:13.864268,1709126293.8642678,-141.6015625,-985.83984375,-31.25,-1000.0,0.0,-1.0,0.0,0.0,1.m4v,11.0
2024-02-28 14:18:13.868173,1709126293.8681726,-93.75,-1000.0,-39.0625,-1000.0,0.0,-1.0,0.0,0.0,1.m4v,11.0
2024-02-28 14:18:13.872096,1709126293.872096,-67.87109375,-1000.0,-39.55078125,-947.75390625,0.0,-1.0,0.0,0.0,1.m4v,11.0
2024-02-28 14:18:13.876001,1709126293.876001,-79.1015625,-942.3828125,-35.64453125,-1000.0,0.0,-1.0,0.0,0.0,1.m4v,11.0
