Timestamp,Timestamp_UNIX,TP9,AF7,AF8,TP10,Valence,Arousal,Dominace,Viewed,Video,Participant
2024-02-27 14:26:01.005998,1709040361.0059977,999.51171875,999.51171875,56.15234375,999.51171875,-1.0,0.0,1.0,0.0,2.m4v,5.0
2024-02-27 14:26:01.013808,1709040361.013808,-1000.0,-1000.0,65.4296875,-1000.0,-1.0,0.0,1.0,0.0,2.m4v,5.0
2024-02-27 14:26:01.021628,1709040361.021628,-990.72265625,-973.6328125,49.8046875,-998.53515625,-1.0,0.0,1.0,0.0,2.m4v,5.0
2024-02-27 14:26:01.029438,1709040361.0294385,-1000.0,-1000.0,50.78125,-1000.0,-1.0,0.0,1.0,0.0,2.m4v,5.0
2024-02-27 14:26:01.037249,1709040361.037249,-1000.0,-1000.0,65.4296875,-1000.0,-1.0,0.0,1.0,0.0,2.m4v,5.0
2024-02-27 14:26:01.045059,1709040361.0450594,-1000.0,-1000.0,41.50390625,-1000.0,-1.0,0.0,1.0,0.0,2.m4v,5.0
2024-02-27 14:26:01.045059,1709040361.0450594,-1000.0,-1000.0,41.50390625,-1000.0,-1.0,0.0,1.0,0.0,2.m4v,5.0
2024-02-27 14:26:01.052870,1709040361.05287,-1000.0,-1000.0,63.4765625,-1000.0,-1.0,0.0,1.0,0.0,2.m4v,5.0
2024-02-27 14:26:01.052870,1709040361.05287,-1000.0,-1000.0,63.4765625,-1000.0,-1.0,0.0,1.0,0.0,2.m4v,5.0
2024-02-27 14:26:01.060681,1709040361.0606806,-1000.0,-1000.0,59.08203125,-1000.0,-1.0,0.0,1.0,0.0,2.m4v,5.0
2024-02-27 14:26:01.060681,1709040361.0606806,-1000.0,-1000.0,59.08203125,-1000.0,-1.0,0.0,1.0,0.0,2.m4v,5.0
2024-02-27 14:26:01.068500,1709040361.0685,-979.4921875,-1000.0,42.96875,-982.421875,-1.0,0.0,1.0,0.0,2.m4v,5.0
2024-02-27 14:26:01.068500,1709040361.0685,-979.4921875,-1000.0,42.96875,-982.421875,-1.0,0.0,1.0,0.0,2.m4v,5.0
2024-02-27 14:26:01.076310,1709040361.0763104,132.32421875,545.8984375,39.0625,145.01953125,-1.0,0.0,1.0,0.0,2.m4v,5.0
2024-02-27 14:26:01.076310,1709040361.0763104,132.32421875,545.8984375,39.0625,145.01953125,-1.0,0.0,1.0,0.0,2.m4v,5.0
2024-02-27 14:26:01.084121,1709040361.084121,915.0390625,895.01953125,40.0390625,915.52734375,-1.0,0.0,1.0,0.0,2.m4v,5.0
2024-02-27 14:26:01.084121,1709040361.084121,915.0390625,895.01953125,40.0390625,915.52734375,-1.0,0.0,1.0,0.0,2.m4v,5.0
2024-02-27 14:26:01.091932,1709040361.0919316,970.703125,969.7265625,33.69140625,971.19140625,-1.0,0.0,1.0,0.0,2.m4v,5.0
2024-02-27 14:26:01.091932,1709040361.0919316,970.703125,969.7265625,33.69140625,971.19140625,-1.0,0.0,1.0,0.0,2.m4v,5.0
2024-02-27 14:26:01.099742,1709040361.099742,969.23828125,969.7265625,19.53125,969.7265625,-1.0,0.0,1.0,0.0,2.m4v,5.0
2024-02-27 14:26:01.099742,1709040361.099742,969.23828125,969.7265625,19.53125,969.7265625,-1.0,0.0,1.0,0.0,2.m4v,5.0
2024-02-27 14:26:01.107553,1709040361.1075523,969.23828125,970.21484375,41.015625,969.7265625,-1.0,0.0,1.0,0.0,2.m4v,5.0
2024-02-27 14:26:01.107553,1709040361.1075523,969.23828125,970.21484375,41.015625,969.7265625,-1.0,0.0,1.0,0.0,2.m4v,5.0
2024-02-27 14:26:01.115375,1709040361.1153746,969.23828125,969.7265625,41.015625,969.7265625,-1.0,0.0,1.0,0.0,2.m4v,5.0
2024-02-27 14:26:01.115375,1709040361.1153746,969.23828125,969.7265625,41.015625,969.7265625,-1.0,0.0,1.0,0.0,2.m4v,5.0
2024-02-27 14:26:01.123185,1709040361.1231852,969.23828125,970.21484375,37.109375,969.7265625,-1.0,0.0,1.0,0.0,2.m4v,5.0
2024-02-27 14:26:01.123185,1709040361.1231852,969.23828125,970.21484375,37.109375,969.7265625,-1.0,0.0,1.0,0.0,2.m4v,5.0
2024-02-27 14:26:01.130996,1709040361.1309958,972.16796875,972.16796875,17.08984375,976.5625,-1.0,0.0,1.0,0.0,2.m4v,5.0
2024-02-27 14:26:01.130996,1709040361.1309958,972.16796875,972.16796875,17.08984375,976.5625,-1.0,0.0,1.0,0.0,2.m4v,5.0
2024-02-27 14:26:01.138806,1709040361.1388063,923.828125,919.921875,42.48046875,951.171875,-1.0,0.0,1.0,0.0,2.m4v,5.0
2024-02-27 14:26:01.138806,1709040361.1388063,923.828125,919.921875,42.48046875,951.171875,-1.0,0.0,1.0,0.0,2.m4v,5.0
2024-02-27 14:26:01.146617,1709040361.1466167,85.44921875,140.13671875,48.828125,-134.27734375,-1.0,0.0,1.0,0.0,2.m4v,5.0
2024-02-27 14:26:01.146617,1709040361.1466167,85.44921875,140.13671875,48.828125,-134.27734375,-1.0,0.0,1.0,0.0,2.m4v,5.0
2024-02-27 14:26:01.154427,1709040361.1544273,-977.05078125,-984.86328125,25.390625,-954.58984375,-1.0,0.0,1.0,0.0,2.m4v,5.0
2024-02-27 14:26:01.154427,1709040361.1544273,-977.05078125,-984.86328125,25.390625,-954.58984375,-1.0,0.0,1.0,0.0,2.m4v,5.0
2024-02-27 14:26:01.162249,1709040361.1622488,-1000.0,-1000.0,23.92578125,-1000.0,-1.0,0.0,1.0,0.0,2.m4v,5.0
2024-02-27 14:26:01.162249,1709040361.1622488,-1000.0,-1000.0,23.92578125,-1000.0,-1.0,0.0,1.0,0.0,2.m4v,5.0
2024-02-27 14:26:01.170059,1709040361.1700594,-1000.0,-1000.0,33.69140625,-1000.0,-1.0,0.0,1.0,0.0,2.m4v,5.0
2024-02-27 14:26:01.170059,1709040361.1700594,-1000.0,-1000.0,33.69140625,-1000.0,-1.0,0.0,1.0,0.0,2.m4v,5.0
2024-02-27 14:26:01.177870,1709040361.17787,-1000.0,-1000.0,45.8984375,-1000.0,-1.0,0.0,1.0,0.0,2.m4v,5.0
2024-02-27 14:26:01.177870,1709040361.17787,-1000.0,-1000.0,45.8984375,-1000.0,-1.0,0.0,1.0,0.0,2.m4v,5.0
2024-02-27 14:26:01.185681,1709040361.1856806,-1000.0,-1000.0,31.73828125,-1000.0,-1.0,0.0,1.0,0.0,2.m4v,5.0
2024-02-27 14:26:01.185681,1709040361.1856806,-1000.0,-1000.0,31.73828125,-1000.0,-1.0,0.0,1.0,0.0,2.m4v,5.0
2024-02-27 14:26:01.193491,1709040361.193491,-1000.0,-1000.0,53.7109375,-1000.0,-1.0,0.0,1.0,0.0,2.m4v,5.0
2024-02-27 14:26:01.193491,1709040361.193491,-1000.0,-1000.0,53.7109375,-1000.0,-1.0,0.0,1.0,0.0,2.m4v,5.0
2024-02-27 14:26:01.201302,1709040361.2013016,-980.46875,-941.40625,42.48046875,-988.76953125,-1.0,0.0,1.0,0.0,2.m4v,5.0
2024-02-27 14:26:01.201302,1709040361.2013016,-980.46875,-941.40625,42.48046875,-988.76953125,-1.0,0.0,1.0,0.0,2.m4v,5.0
2024-02-27 14:26:01.209123,1709040361.2091234,-1000.0,-878.41796875,61.5234375,-1000.0,-1.0,0.0,1.0,0.0,2.m4v,5.0
2024-02-27 14:26:01.209123,1709040361.2091234,-1000.0,-878.41796875,61.5234375,-1000.0,-1.0,0.0,1.0,0.0,2.m4v,5.0
2024-02-27 14:26:01.216934,1709040361.2169335,999.51171875,999.51171875,53.22265625,999.51171875,-1.0,0.0,1.0,0.0,2.m4v,5.0
2024-02-27 14:26:01.216934,1709040361.2169335,999.51171875,999.51171875,53.22265625,999.51171875,-1.0,0.0,1.0,0.0,2.m4v,5.0
2024-02-27 14:26:01.224744,1709040361.2247443,959.9609375,986.328125,46.38671875,951.171875,-1.0,0.0,1.0,0.0,2.m4v,5.0
2024-02-27 14:26:01.224744,1709040361.2247443,959.9609375,986.328125,46.38671875,951.171875,-1.0,0.0,1.0,0.0,2.m4v,5.0
2024-02-27 14:26:01.232555,1709040361.232555,969.23828125,969.7265625,62.98828125,969.7265625,-1.0,0.0,1.0,0.0,2.m4v,5.0
2024-02-27 14:26:01.232555,1709040361.232555,969.23828125,969.7265625,62.98828125,969.7265625,-1.0,0.0,1.0,0.0,2.m4v,5.0
2024-02-27 14:26:01.240365,1709040361.2403653,969.23828125,969.7265625,60.546875,969.7265625,-1.0,0.0,1.0,0.0,2.m4v,5.0
2024-02-27 14:26:01.240365,1709040361.2403653,969.23828125,969.7265625,60.546875,969.7265625,-1.0,0.0,1.0,0.0,2.m4v,5.0
2024-02-27 14:26:01.248176,1709040361.248176,969.23828125,969.7265625,78.61328125,969.7265625,-1.0,0.0,1.0,0.0,2.m4v,5.0
2024-02-27 14:26:01.248176,1709040361.248176,969.23828125,969.7265625,78.61328125,969.7265625,-1.0,0.0,1.0,0.0,2.m4v,5.0
2024-02-27 14:26:01.259902,1709040361.259902,969.23828125,969.7265625,63.4765625,969.7265625,-1.0,0.0,1.0,0.0,2.m4v,5.0
2024-02-27 14:26:01.259902,1709040361.259902,969.23828125,969.7265625,63.4765625,969.7265625,-1.0,0.0,1.0,0.0,2.m4v,5.0
2024-02-27 14:26:01.271618,1709040361.271618,979.98046875,984.86328125,54.19921875,981.4453125,-1.0,0.0,1.0,0.0,2.m4v,5.0
2024-02-27 14:26:01.271618,1709040361.271618,979.98046875,984.86328125,54.19921875,981.4453125,-1.0,0.0,1.0,0.0,2.m4v,5.0
2024-02-27 14:26:01.283334,1709040361.2833338,985.3515625,903.3203125,72.75390625,962.40234375,-1.0,0.0,1.0,0.0,2.m4v,5.0
2024-02-27 14:26:01.283334,1709040361.2833338,985.3515625,903.3203125,72.75390625,962.40234375,-1.0,0.0,1.0,0.0,2.m4v,5.0
2024-02-27 14:26:01.295049,1709040361.2950494,-929.6875,-925.78125,61.5234375,-928.22265625,-1.0,0.0,1.0,0.0,2.m4v,5.0
2024-02-27 14:26:01.295049,1709040361.2950494,-929.6875,-925.78125,61.5234375,-928.22265625,-1.0,0.0,1.0,0.0,2.m4v,5.0
2024-02-27 14:26:01.302870,1709040361.30287,-1000.0,-1000.0,72.75390625,-1000.0,-1.0,0.0,1.0,0.0,2.m4v,5.0
2024-02-27 14:26:01.306775,1709040361.306775,-1000.0,-1000.0,78.61328125,-1000.0,-1.0,0.0,1.0,0.0,2.m4v,5.0
2024-02-27 14:26:01.310681,1709040361.3106806,-1000.0,-1000.0,80.078125,-1000.0,-1.0,0.0,1.0,0.0,2.m4v,5.0
2024-02-27 14:26:01.314586,1709040361.314586,-1000.0,-1000.0,83.49609375,-1000.0,-1.0,0.0,1.0,0.0,2.m4v,5.0
2024-02-27 14:26:01.318491,1709040361.3184912,-1000.0,-1000.0,85.44921875,-1000.0,-1.0,0.0,1.0,0.0,2.m4v,5.0
2024-02-27 14:26:01.322397,1709040361.3223965,-1000.0,-1000.0,79.58984375,-1000.0,-1.0,0.0,1.0,0.0,2.m4v,5.0
2024-02-27 14:26:01.326302,1709040361.3263018,-1000.0,-1000.0,71.77734375,-1000.0,-1.0,0.0,1.0,0.0,2.m4v,5.0
2024-02-27 14:26:01.330207,1709040361.330207,-1000.0,-1000.0,76.66015625,-1000.0,-1.0,0.0,1.0,0.0,2.m4v,5.0
2024-02-27 14:26:01.334112,1709040361.3341122,-1000.0,-1000.0,81.54296875,-1000.0,-1.0,0.0,1.0,0.0,2.m4v,5.0
2024-02-27 14:26:01.338017,1709040361.3380177,-1000.0,-1000.0,80.078125,-1000.0,-1.0,0.0,1.0,0.0,2.m4v,5.0
2024-02-27 14:26:01.341923,1709040361.3419228,-1000.0,-1000.0,87.40234375,-1000.0,-1.0,0.0,1.0,0.0,2.m4v,5.0
2024-02-27 14:26:01.345838,1709040361.3458376,-1000.0,-1000.0,90.8203125,-992.1875,-1.0,0.0,1.0,0.0,2.m4v,5.0
2024-02-27 14:26:01.349743,1709040361.349743,-937.01171875,-931.640625,98.6328125,-957.51953125,-1.0,0.0,1.0,0.0,2.m4v,5.0
2024-02-27 14:26:01.353648,1709040361.3536482,-1000.0,-1000.0,106.4453125,-1000.0,-1.0,0.0,1.0,0.0,2.m4v,5.0
2024-02-27 14:26:01.357553,1709040361.3575535,-375.48828125,-468.26171875,108.3984375,-139.16015625,-1.0,0.0,1.0,0.0,2.m4v,5.0
2024-02-27 14:26:01.361459,1709040361.3614588,950.68359375,915.0390625,102.05078125,999.51171875,-1.0,0.0,1.0,0.0,2.m4v,5.0
2024-02-27 14:26:01.365364,1709040361.365364,985.83984375,999.51171875,103.02734375,954.1015625,-1.0,0.0,1.0,0.0,2.m4v,5.0
2024-02-27 14:26:01.369269,1709040361.3692694,928.7109375,921.875,100.09765625,946.2890625,-1.0,0.0,1.0,0.0,2.m4v,5.0
2024-02-27 14:26:01.373174,1709040361.3731744,980.46875,983.3984375,97.16796875,976.5625,-1.0,0.0,1.0,0.0,2.m4v,5.0
2024-02-27 14:26:01.377080,1709040361.3770795,969.23828125,969.7265625,101.07421875,969.7265625,-1.0,0.0,1.0,0.0,2.m4v,5.0
2024-02-27 14:26:01.380985,1709040361.380985,969.23828125,969.7265625,86.9140625,969.7265625,-1.0,0.0,1.0,0.0,2.m4v,5.0
2024-02-27 14:26:01.384890,1709040361.3848903,969.23828125,969.7265625,86.42578125,969.7265625,-1.0,0.0,1.0,0.0,2.m4v,5.0
2024-02-27 14:26:01.388796,1709040361.3887956,969.23828125,969.7265625,88.8671875,969.7265625,-1.0,0.0,1.0,0.0,2.m4v,5.0
2024-02-27 14:26:01.392710,1709040361.3927104,968.75,969.7265625,91.30859375,969.7265625,-1.0,0.0,1.0,0.0,2.m4v,5.0
2024-02-27 14:26:01.396616,1709040361.3966155,969.23828125,969.7265625,121.09375,969.7265625,-1.0,0.0,1.0,0.0,2.m4v,5.0
2024-02-27 14:26:01.400521,1709040361.400521,969.23828125,969.7265625,118.65234375,969.7265625,-1.0,0.0,1.0,0.0,2.m4v,5.0
2024-02-27 14:26:01.404426,1709040361.4044263,969.23828125,969.7265625,103.515625,969.7265625,-1.0,0.0,1.0,0.0,2.m4v,5.0
2024-02-27 14:26:01.408332,1709040361.4083316,969.23828125,969.7265625,106.93359375,969.7265625,-1.0,0.0,1.0,0.0,2.m4v,5.0
2024-02-27 14:26:01.412237,1709040361.412237,977.05078125,980.95703125,99.12109375,979.98046875,-1.0,0.0,1.0,0.0,2.m4v,5.0
2024-02-27 14:26:01.416142,1709040361.4161422,938.4765625,931.15234375,81.54296875,931.640625,-1.0,0.0,1.0,0.0,2.m4v,5.0
2024-02-27 14:26:01.420047,1709040361.4200473,959.47265625,978.02734375,69.3359375,977.05078125,-1.0,0.0,1.0,0.0,2.m4v,5.0
2024-02-27 14:26:01.423953,1709040361.4239526,999.51171875,984.86328125,75.1953125,984.86328125,-1.0,0.0,1.0,0.0,2.m4v,5.0
2024-02-27 14:26:01.427858,1709040361.427858,-262.6953125,-362.79296875,83.0078125,-353.02734375,-1.0,0.0,1.0,0.0,2.m4v,5.0
2024-02-27 14:26:01.431763,1709040361.4317632,-1000.0,-1000.0,78.125,-1000.0,-1.0,0.0,1.0,0.0,2.m4v,5.0
2024-02-27 14:26:01.435668,1709040361.4356685,-935.05859375,-930.17578125,72.265625,-931.640625,-1.0,0.0,1.0,0.0,2.m4v,5.0
2024-02-27 14:26:01.439583,1709040361.4395826,-1000.0,-1000.0,62.5,-1000.0,-1.0,0.0,1.0,0.0,2.m4v,5.0
2024-02-27 14:26:01.443488,1709040361.443488,-1000.0,-1000.0,59.08203125,-1000.0,-1.0,0.0,1.0,0.0,2.m4v,5.0
2024-02-27 14:26:01.447393,1709040361.4473932,-1000.0,-1000.0,63.96484375,-1000.0,-1.0,0.0,1.0,0.0,2.m4v,5.0
2024-02-27 14:26:01.451298,1709040361.4512982,-1000.0,-1000.0,56.15234375,-1000.0,-1.0,0.0,1.0,0.0,2.m4v,5.0
2024-02-27 14:26:01.455204,1709040361.4552035,-1000.0,-1000.0,42.96875,-1000.0,-1.0,0.0,1.0,0.0,2.m4v,5.0
2024-02-27 14:26:01.459109,1709040361.4591088,-1000.0,-1000.0,44.43359375,-1000.0,-1.0,0.0,1.0,0.0,2.m4v,5.0
2024-02-27 14:26:01.463014,1709040361.463014,-1000.0,-1000.0,44.921875,-1000.0,-1.0,0.0,1.0,0.0,2.m4v,5.0
2024-02-27 14:26:01.466919,1709040361.4669194,-1000.0,-1000.0,52.24609375,-1000.0,-1.0,0.0,1.0,0.0,2.m4v,5.0
2024-02-27 14:26:01.470825,1709040361.4708247,-942.3828125,-942.3828125,56.640625,-940.91796875,-1.0,0.0,1.0,0.0,2.m4v,5.0
2024-02-27 14:26:01.474730,1709040361.47473,-1000.0,-1000.0,60.546875,-1000.0,-1.0,0.0,1.0,0.0,2.m4v,5.0
2024-02-27 14:26:01.478635,1709040361.4786353,-891.11328125,-891.11328125,70.80078125,-785.64453125,-1.0,0.0,1.0,0.0,2.m4v,5.0
2024-02-27 14:26:01.482540,1709040361.4825404,566.40625,566.40625,79.58984375,649.90234375,-1.0,0.0,1.0,0.0,2.m4v,5.0
2024-02-27 14:26:01.486457,1709040361.486457,999.51171875,999.51171875,82.51953125,999.51171875,-1.0,0.0,1.0,0.0,2.m4v,5.0
2024-02-27 14:26:01.490363,1709040361.4903626,894.53125,895.01953125,67.87109375,901.3671875,-1.0,0.0,1.0,0.0,2.m4v,5.0
2024-02-27 14:26:01.494268,1709040361.4942677,985.3515625,985.83984375,60.546875,985.3515625,-1.0,0.0,1.0,0.0,2.m4v,5.0
2024-02-27 14:26:01.498173,1709040361.498173,969.23828125,970.21484375,55.17578125,969.7265625,-1.0,0.0,1.0,0.0,2.m4v,5.0
2024-02-27 14:26:01.502078,1709040361.5020783,969.23828125,970.21484375,59.08203125,969.7265625,-1.0,0.0,1.0,0.0,2.m4v,5.0
2024-02-27 14:26:01.505984,1709040361.5059836,969.23828125,969.7265625,64.94140625,969.7265625,-1.0,0.0,1.0,0.0,2.m4v,5.0
2024-02-27 14:26:01.509889,1709040361.509889,969.23828125,969.7265625,56.640625,969.7265625,-1.0,0.0,1.0,0.0,2.m4v,5.0
2024-02-27 14:26:01.513794,1709040361.5137942,969.23828125,969.7265625,52.24609375,969.7265625,-1.0,0.0,1.0,0.0,2.m4v,5.0
2024-02-27 14:26:01.517699,1709040361.5176997,969.23828125,969.7265625,64.453125,969.7265625,-1.0,0.0,1.0,0.0,2.m4v,5.0
2024-02-27 14:26:01.521605,1709040361.5216048,969.23828125,969.7265625,60.546875,969.7265625,-1.0,0.0,1.0,0.0,2.m4v,5.0
2024-02-27 14:26:01.525510,1709040361.5255098,969.23828125,969.7265625,45.8984375,969.7265625,-1.0,0.0,1.0,0.0,2.m4v,5.0
2024-02-27 14:26:01.529415,1709040361.5294151,969.23828125,970.21484375,65.91796875,969.7265625,-1.0,0.0,1.0,0.0,2.m4v,5.0
2024-02-27 14:26:01.533332,1709040361.5333316,985.3515625,986.328125,81.0546875,986.328125,-1.0,0.0,1.0,0.0,2.m4v,5.0
2024-02-27 14:26:01.537237,1709040361.537237,911.1328125,911.62109375,83.49609375,909.66796875,-1.0,0.0,1.0,0.0,2.m4v,5.0
2024-02-27 14:26:01.541142,1709040361.5411422,999.51171875,999.51171875,82.51953125,999.51171875,-1.0,0.0,1.0,0.0,2.m4v,5.0
2024-02-27 14:26:01.545048,1709040361.5450475,859.86328125,856.4453125,72.265625,828.61328125,-1.0,0.0,1.0,0.0,2.m4v,5.0
2024-02-27 14:26:01.548953,1709040361.5489526,-597.16796875,-602.5390625,62.01171875,-633.30078125,-1.0,0.0,1.0,0.0,2.m4v,5.0
2024-02-27 14:26:01.552858,1709040361.552858,-1000.0,-1000.0,65.4296875,-1000.0,-1.0,0.0,1.0,0.0,2.m4v,5.0
2024-02-27 14:26:01.888803,1709040361.8888023,968.75,969.7265625,-10.25390625,969.7265625,-1.0,0.0,1.0,0.0,2.m4v,5.0
2024-02-27 14:26:01.892708,1709040361.8927078,969.23828125,969.7265625,-16.6015625,969.7265625,-1.0,0.0,1.0,0.0,2.m4v,5.0
2024-02-27 14:26:01.896613,1709040361.8966131,969.23828125,969.7265625,-22.94921875,969.7265625,-1.0,0.0,1.0,0.0,2.m4v,5.0
2024-02-27 14:26:01.900518,1709040361.9005184,969.23828125,969.7265625,-28.3203125,969.7265625,-1.0,0.0,1.0,0.0,2.m4v,5.0
2024-02-27 14:26:01.904423,1709040361.9044237,969.23828125,969.7265625,-26.3671875,969.7265625,-1.0,0.0,1.0,0.0,2.m4v,5.0
2024-02-27 14:26:01.908340,1709040361.90834,968.75,970.21484375,-18.5546875,969.7265625,-1.0,0.0,1.0,0.0,2.m4v,5.0
2024-02-27 14:26:01.912245,1709040361.9122453,969.23828125,969.7265625,-25.390625,969.7265625,-1.0,0.0,1.0,0.0,2.m4v,5.0
2024-02-27 14:26:01.916151,1709040361.9161506,969.23828125,969.7265625,-27.34375,969.7265625,-1.0,0.0,1.0,0.0,2.m4v,5.0
2024-02-27 14:26:01.920056,1709040361.920056,968.75,969.7265625,-7.32421875,969.7265625,-1.0,0.0,1.0,0.0,2.m4v,5.0
2024-02-27 14:26:01.923961,1709040361.923961,971.19140625,973.14453125,-4.8828125,976.07421875,-1.0,0.0,1.0,0.0,2.m4v,5.0
2024-02-27 14:26:01.927866,1709040361.9278662,955.56640625,953.61328125,-18.5546875,942.87109375,-1.0,0.0,1.0,0.0,2.m4v,5.0
2024-02-27 14:26:01.931772,1709040361.9317715,927.734375,933.10546875,-22.94921875,958.984375,-1.0,0.0,1.0,0.0,2.m4v,5.0
2024-02-27 14:26:01.935677,1709040361.9356768,999.51171875,999.51171875,-17.08984375,999.51171875,-1.0,0.0,1.0,0.0,2.m4v,5.0
2024-02-27 14:26:01.939582,1709040361.939582,-32.2265625,-68.359375,-20.5078125,-216.30859375,-1.0,0.0,1.0,0.0,2.m4v,5.0
2024-02-27 14:26:01.943487,1709040361.9434874,-1000.0,-1000.0,-23.4375,-1000.0,-1.0,0.0,1.0,0.0,2.m4v,5.0
2024-02-27 14:26:01.947393,1709040361.9473927,-955.078125,-951.171875,-7.32421875,-946.2890625,-1.0,0.0,1.0,0.0,2.m4v,5.0
2024-02-27 14:26:01.951298,1709040361.951298,-989.2578125,-991.69921875,-3.90625,-997.55859375,-1.0,0.0,1.0,0.0,2.m4v,5.0
2024-02-27 14:26:01.955214,1709040361.9552138,-1000.0,-1000.0,-0.9765625,-1000.0,-1.0,0.0,1.0,0.0,2.m4v,5.0
2024-02-27 14:26:01.955214,1709040361.9552138,-1000.0,-1000.0,-0.9765625,-1000.0,-1.0,0.0,1.0,0.0,2.m4v,5.0
2024-02-27 14:26:01.959119,1709040361.959119,-1000.0,-1000.0,5.37109375,-1000.0,-1.0,0.0,1.0,0.0,2.m4v,5.0
2024-02-27 14:26:01.959119,1709040361.959119,-1000.0,-1000.0,5.37109375,-1000.0,-1.0,0.0,1.0,0.0,2.m4v,5.0
2024-02-27 14:26:01.963024,1709040361.9630244,-1000.0,-1000.0,-0.9765625,-1000.0,-1.0,0.0,1.0,0.0,2.m4v,5.0
2024-02-27 14:26:01.963024,1709040361.9630244,-1000.0,-1000.0,-0.9765625,-1000.0,-1.0,0.0,1.0,0.0,2.m4v,5.0
2024-02-27 14:26:01.966930,1709040361.9669297,-1000.0,-1000.0,-8.30078125,-1000.0,-1.0,0.0,1.0,0.0,2.m4v,5.0
2024-02-27 14:26:01.966930,1709040361.9669297,-1000.0,-1000.0,-8.30078125,-1000.0,-1.0,0.0,1.0,0.0,2.m4v,5.0
2024-02-27 14:26:01.970835,1709040361.970835,-1000.0,-1000.0,0.48828125,-1000.0,-1.0,0.0,1.0,0.0,2.m4v,5.0
2024-02-27 14:26:01.970835,1709040361.970835,-1000.0,-1000.0,0.48828125,-1000.0,-1.0,0.0,1.0,0.0,2.m4v,5.0
2024-02-27 14:26:01.974740,1709040361.9747405,-1000.0,-1000.0,3.90625,-1000.0,-1.0,0.0,1.0,0.0,2.m4v,5.0
2024-02-27 14:26:01.974740,1709040361.9747405,-1000.0,-1000.0,3.90625,-1000.0,-1.0,0.0,1.0,0.0,2.m4v,5.0
2024-02-27 14:26:01.978646,1709040361.9786456,-1000.0,-1000.0,9.27734375,-1000.0,-1.0,0.0,1.0,0.0,2.m4v,5.0
2024-02-27 14:26:01.978646,1709040361.9786456,-1000.0,-1000.0,9.27734375,-1000.0,-1.0,0.0,1.0,0.0,2.m4v,5.0
2024-02-27 14:26:01.982551,1709040361.9825506,-1000.0,-1000.0,16.11328125,-1000.0,-1.0,0.0,1.0,0.0,2.m4v,5.0
2024-02-27 14:26:01.982551,1709040361.9825506,-1000.0,-1000.0,16.11328125,-1000.0,-1.0,0.0,1.0,0.0,2.m4v,5.0
2024-02-27 14:26:01.986456,1709040361.986456,-1000.0,-1000.0,8.30078125,-1000.0,-1.0,0.0,1.0,0.0,2.m4v,5.0
2024-02-27 14:26:01.986456,1709040361.986456,-1000.0,-1000.0,8.30078125,-1000.0,-1.0,0.0,1.0,0.0,2.m4v,5.0
2024-02-27 14:26:01.990361,1709040361.9903612,-1000.0,-1000.0,8.30078125,-1000.0,-1.0,0.0,1.0,0.0,2.m4v,5.0
2024-02-27 14:26:01.990361,1709040361.9903612,-1000.0,-1000.0,8.30078125,-1000.0,-1.0,0.0,1.0,0.0,2.m4v,5.0
2024-02-27 14:26:01.994267,1709040361.9942665,-1000.0,-1000.0,11.71875,-1000.0,-1.0,0.0,1.0,0.0,2.m4v,5.0
2024-02-27 14:26:01.994267,1709040361.9942665,-1000.0,-1000.0,11.71875,-1000.0,-1.0,0.0,1.0,0.0,2.m4v,5.0
2024-02-27 14:26:01.998172,1709040361.9981718,-961.9140625,-967.28515625,9.765625,-948.2421875,-1.0,0.0,1.0,0.0,2.m4v,5.0
2024-02-27 14:26:01.998172,1709040361.9981718,-961.9140625,-967.28515625,9.765625,-948.2421875,-1.0,0.0,1.0,0.0,2.m4v,5.0
2024-02-27 14:26:02.002090,1709040362.0020905,-1000.0,-998.046875,19.53125,-1000.0,-1.0,0.0,1.0,0.0,2.m4v,5.0
2024-02-27 14:26:02.002090,1709040362.0020905,-1000.0,-998.046875,19.53125,-1000.0,-1.0,0.0,1.0,0.0,2.m4v,5.0
2024-02-27 14:26:02.005996,1709040362.0059958,-990.234375,-1000.0,27.83203125,-838.37890625,-1.0,0.0,1.0,0.0,2.m4v,5.0
2024-02-27 14:26:02.005996,1709040362.0059958,-990.234375,-1000.0,27.83203125,-838.37890625,-1.0,0.0,1.0,0.0,2.m4v,5.0
2024-02-27 14:26:02.009901,1709040362.009901,334.47265625,262.6953125,22.4609375,536.62109375,-1.0,0.0,1.0,0.0,2.m4v,5.0
2024-02-27 14:26:02.009901,1709040362.009901,334.47265625,262.6953125,22.4609375,536.62109375,-1.0,0.0,1.0,0.0,2.m4v,5.0
2024-02-27 14:26:02.013806,1709040362.0138063,999.51171875,999.51171875,24.90234375,999.51171875,-1.0,0.0,1.0,0.0,2.m4v,5.0
2024-02-27 14:26:02.013806,1709040362.0138063,999.51171875,999.51171875,24.90234375,999.51171875,-1.0,0.0,1.0,0.0,2.m4v,5.0
2024-02-27 14:26:02.017712,1709040362.0177116,903.80859375,905.2734375,26.85546875,907.2265625,-1.0,0.0,1.0,0.0,2.m4v,5.0
2024-02-27 14:26:02.017712,1709040362.0177116,903.80859375,905.2734375,26.85546875,907.2265625,-1.0,0.0,1.0,0.0,2.m4v,5.0
2024-02-27 14:26:02.021617,1709040362.0216167,975.09765625,973.14453125,21.484375,979.98046875,-1.0,0.0,1.0,0.0,2.m4v,5.0
2024-02-27 14:26:02.021617,1709040362.0216167,975.09765625,973.14453125,21.484375,979.98046875,-1.0,0.0,1.0,0.0,2.m4v,5.0
2024-02-27 14:26:02.025522,1709040362.025522,969.23828125,970.21484375,19.53125,969.7265625,-1.0,0.0,1.0,0.0,2.m4v,5.0
2024-02-27 14:26:02.025522,1709040362.025522,969.23828125,970.21484375,19.53125,969.7265625,-1.0,0.0,1.0,0.0,2.m4v,5.0
2024-02-27 14:26:02.427875,1709040362.427875,-314.94140625,-321.77734375,29.78515625,-270.99609375,-1.0,0.0,1.0,0.0,2.m4v,5.0
2024-02-27 14:26:02.431780,1709040362.4317803,999.51171875,999.51171875,32.71484375,999.51171875,-1.0,0.0,1.0,0.0,2.m4v,5.0
2024-02-27 14:26:02.435686,1709040362.4356856,968.75,970.703125,36.62109375,961.9140625,-1.0,0.0,1.0,0.0,2.m4v,5.0
2024-02-27 14:26:02.439591,1709040362.439591,934.08203125,934.5703125,29.78515625,938.4765625,-1.0,0.0,1.0,0.0,2.m4v,5.0
2024-02-27 14:26:02.443496,1709040362.4434962,978.515625,979.4921875,31.25,978.02734375,-1.0,0.0,1.0,0.0,2.m4v,5.0
2024-02-27 14:26:02.447401,1709040362.4474013,969.23828125,969.7265625,41.9921875,969.7265625,-1.0,0.0,1.0,0.0,2.m4v,5.0
2024-02-27 14:26:02.451307,1709040362.4513066,969.23828125,969.7265625,48.828125,969.7265625,-1.0,0.0,1.0,0.0,2.m4v,5.0
2024-02-27 14:26:02.455212,1709040362.455212,969.23828125,969.7265625,51.26953125,969.7265625,-1.0,0.0,1.0,0.0,2.m4v,5.0
2024-02-27 14:26:02.459117,1709040362.4591172,969.23828125,969.7265625,50.78125,969.7265625,-1.0,0.0,1.0,0.0,2.m4v,5.0
2024-02-27 14:26:02.463022,1709040362.4630225,969.23828125,970.21484375,53.22265625,969.7265625,-1.0,0.0,1.0,0.0,2.m4v,5.0
2024-02-27 14:26:02.466928,1709040362.4669278,976.5625,975.5859375,60.05859375,979.4921875,-1.0,0.0,1.0,0.0,2.m4v,5.0
2024-02-27 14:26:02.470846,1709040362.4708457,939.453125,944.82421875,41.50390625,916.9921875,-1.0,0.0,1.0,0.0,2.m4v,5.0
2024-02-27 14:26:02.474751,1709040362.474751,959.47265625,950.68359375,33.203125,999.51171875,-1.0,0.0,1.0,0.0,2.m4v,5.0
2024-02-27 14:26:02.478656,1709040362.4786563,999.51171875,999.51171875,36.62109375,717.28515625,-1.0,0.0,1.0,0.0,2.m4v,5.0
2024-02-27 14:26:02.482562,1709040362.4825616,-248.53515625,-192.87109375,31.25,-631.8359375,-1.0,0.0,1.0,0.0,2.m4v,5.0
2024-02-27 14:26:02.486467,1709040362.486467,-1000.0,-1000.0,62.98828125,-1000.0,-1.0,0.0,1.0,0.0,2.m4v,5.0
2024-02-27 14:26:02.490372,1709040362.4903722,-938.4765625,-940.91796875,50.29296875,-943.84765625,-1.0,0.0,1.0,0.0,2.m4v,5.0
2024-02-27 14:26:02.494277,1709040362.4942777,-1000.0,-999.0234375,93.26171875,-1000.0,-1.0,0.0,1.0,0.0,2.m4v,5.0
2024-02-27 14:26:02.498183,1709040362.4981823,-1000.0,-1000.0,110.83984375,-1000.0,-1.0,0.0,1.0,0.0,2.m4v,5.0
2024-02-27 14:26:02.502088,1709040362.5020878,-1000.0,-1000.0,32.71484375,-1000.0,-1.0,0.0,1.0,0.0,2.m4v,5.0
2024-02-27 14:26:02.505993,1709040362.5059931,-1000.0,-1000.0,47.8515625,-1000.0,-1.0,0.0,1.0,0.0,2.m4v,5.0
2024-02-27 14:26:02.509898,1709040362.5098984,-1000.0,-931.640625,133.30078125,-1000.0,-1.0,0.0,1.0,0.0,2.m4v,5.0
2024-02-27 14:26:02.513804,1709040362.5138035,-1000.0,-1000.0,197.75390625,-1000.0,-1.0,0.0,1.0,0.0,2.m4v,5.0
2024-02-27 14:26:02.517722,1709040362.5177217,-927.24609375,-648.92578125,158.69140625,-928.7109375,-1.0,0.0,1.0,0.0,2.m4v,5.0
2024-02-27 14:26:02.521627,1709040362.521627,-1000.0,784.1796875,159.1796875,-1000.0,-1.0,0.0,1.0,0.0,2.m4v,5.0
2024-02-27 14:26:02.525532,1709040362.5255322,-440.4296875,999.51171875,246.58203125,-435.546875,-1.0,0.0,1.0,0.0,2.m4v,5.0
2024-02-27 14:26:02.529438,1709040362.5294375,949.70703125,911.1328125,304.6875,960.44921875,-1.0,0.0,1.0,0.0,2.m4v,5.0
2024-02-27 14:26:02.533343,1709040362.5333428,991.69921875,984.375,263.671875,926.26953125,-1.0,0.0,1.0,0.0,2.m4v,5.0
2024-02-27 14:26:02.537248,1709040362.537248,923.828125,970.21484375,146.97265625,999.51171875,-1.0,0.0,1.0,0.0,2.m4v,5.0
2024-02-27 14:26:02.986475,1709040362.9864748,-1000.0,-1000.0,-587.890625,-1000.0,-1.0,0.0,1.0,0.0,2.m4v,5.0
2024-02-27 14:26:02.990380,1709040362.99038,-219.7265625,-264.6484375,-570.3125,-126.953125,-1.0,0.0,1.0,0.0,2.m4v,5.0
2024-02-27 14:26:02.994285,1709040362.994285,999.51171875,999.51171875,-584.9609375,999.51171875,-1.0,0.0,1.0,0.0,2.m4v,5.0
2024-02-27 14:26:02.998191,1709040362.9981906,952.63671875,960.9375,-578.61328125,942.3828125,-1.0,0.0,1.0,0.0,2.m4v,5.0
2024-02-27 14:26:03.002096,1709040363.002096,941.89453125,938.96484375,-553.7109375,948.73046875,-1.0,0.0,1.0,0.0,2.m4v,5.0
2024-02-27 14:26:03.006001,1709040363.0060012,976.07421875,978.02734375,-570.3125,974.609375,-1.0,0.0,1.0,0.0,2.m4v,5.0
2024-02-27 14:26:03.009907,1709040363.0099063,969.23828125,970.21484375,-590.33203125,969.7265625,-1.0,0.0,1.0,0.0,2.m4v,5.0
2024-02-27 14:26:03.013812,1709040363.0138116,969.23828125,969.7265625,-616.2109375,969.7265625,-1.0,0.0,1.0,0.0,2.m4v,5.0
2024-02-27 14:26:03.013812,1709040363.0138116,969.23828125,969.7265625,-616.2109375,969.7265625,-1.0,0.0,1.0,0.0,2.m4v,5.0
2024-02-27 14:26:03.017717,1709040363.017717,969.23828125,969.7265625,-750.9765625,969.7265625,-1.0,0.0,1.0,0.0,2.m4v,5.0
2024-02-27 14:26:03.017717,1709040363.017717,969.23828125,969.7265625,-750.9765625,969.7265625,-1.0,0.0,1.0,0.0,2.m4v,5.0
2024-02-27 14:26:03.021622,1709040363.0216222,969.23828125,970.21484375,-955.078125,969.7265625,-1.0,0.0,1.0,0.0,2.m4v,5.0
2024-02-27 14:26:03.021622,1709040363.0216222,969.23828125,970.21484375,-955.078125,969.7265625,-1.0,0.0,1.0,0.0,2.m4v,5.0
2024-02-27 14:26:03.025527,1709040363.0255277,984.86328125,978.515625,-999.0234375,984.375,-1.0,0.0,1.0,0.0,2.m4v,5.0
2024-02-27 14:26:03.025527,1709040363.0255277,984.86328125,978.515625,-999.0234375,984.375,-1.0,0.0,1.0,0.0,2.m4v,5.0
2024-02-27 14:26:03.029433,1709040363.0294328,902.34375,899.4140625,-992.67578125,903.3203125,-1.0,0.0,1.0,0.0,2.m4v,5.0
2024-02-27 14:26:03.029433,1709040363.0294328,902.34375,899.4140625,-992.67578125,903.3203125,-1.0,0.0,1.0,0.0,2.m4v,5.0
2024-02-27 14:26:03.033349,1709040363.0333493,999.51171875,999.51171875,-996.09375,999.51171875,-1.0,0.0,1.0,0.0,2.m4v,5.0
2024-02-27 14:26:03.033349,1709040363.0333493,999.51171875,999.51171875,-996.09375,999.51171875,-1.0,0.0,1.0,0.0,2.m4v,5.0
2024-02-27 14:26:03.037254,1709040363.0372543,668.45703125,356.93359375,-1000.0,660.15625,-1.0,0.0,1.0,0.0,2.m4v,5.0
2024-02-27 14:26:03.037254,1709040363.0372543,668.45703125,356.93359375,-1000.0,660.15625,-1.0,0.0,1.0,0.0,2.m4v,5.0
2024-02-27 14:26:03.041160,1709040363.0411596,-773.4375,-1000.0,-930.6640625,-772.4609375,-1.0,0.0,1.0,0.0,2.m4v,5.0
2024-02-27 14:26:03.041160,1709040363.0411596,-773.4375,-1000.0,-930.6640625,-772.4609375,-1.0,0.0,1.0,0.0,2.m4v,5.0
2024-02-27 14:26:03.045065,1709040363.045065,-1000.0,-1000.0,-763.671875,-1000.0,-1.0,0.0,1.0,0.0,2.m4v,5.0
2024-02-27 14:26:03.045065,1709040363.045065,-1000.0,-1000.0,-763.671875,-1000.0,-1.0,0.0,1.0,0.0,2.m4v,5.0
2024-02-27 14:26:03.048970,1709040363.0489702,-938.4765625,-959.47265625,-622.55859375,-939.453125,-1.0,0.0,1.0,0.0,2.m4v,5.0
2024-02-27 14:26:03.048970,1709040363.0489702,-938.4765625,-959.47265625,-622.55859375,-939.453125,-1.0,0.0,1.0,0.0,2.m4v,5.0
2024-02-27 14:26:03.052876,1709040363.0528755,-1000.0,-1000.0,-519.04296875,-1000.0,-1.0,0.0,1.0,0.0,2.m4v,5.0
2024-02-27 14:26:03.052876,1709040363.0528755,-1000.0,-1000.0,-519.04296875,-1000.0,-1.0,0.0,1.0,0.0,2.m4v,5.0
2024-02-27 14:26:03.056781,1709040363.0567808,-1000.0,-1000.0,-430.17578125,-1000.0,-1.0,0.0,1.0,0.0,2.m4v,5.0
2024-02-27 14:26:03.056781,1709040363.0567808,-1000.0,-1000.0,-430.17578125,-1000.0,-1.0,0.0,1.0,0.0,2.m4v,5.0
2024-02-27 14:26:03.060686,1709040363.060686,-1000.0,-1000.0,-343.26171875,-991.2109375,-1.0,0.0,1.0,0.0,2.m4v,5.0
2024-02-27 14:26:03.060686,1709040363.060686,-1000.0,-1000.0,-343.26171875,-991.2109375,-1.0,0.0,1.0,0.0,2.m4v,5.0
2024-02-27 14:26:03.064591,1709040363.0645914,-933.59375,-926.7578125,-272.4609375,-960.44921875,-1.0,0.0,1.0,0.0,2.m4v,5.0
2024-02-27 14:26:03.064591,1709040363.0645914,-933.59375,-926.7578125,-272.4609375,-960.44921875,-1.0,0.0,1.0,0.0,2.m4v,5.0
2024-02-27 14:26:03.068496,1709040363.0684965,-1000.0,-1000.0,-208.0078125,-1000.0,-1.0,0.0,1.0,0.0,2.m4v,5.0
2024-02-27 14:26:03.068496,1709040363.0684965,-1000.0,-1000.0,-208.0078125,-1000.0,-1.0,0.0,1.0,0.0,2.m4v,5.0
2024-02-27 14:26:03.072402,1709040363.0724018,-288.0859375,-563.96484375,-146.97265625,-77.1484375,-1.0,0.0,1.0,0.0,2.m4v,5.0
2024-02-27 14:26:03.072402,1709040363.0724018,-288.0859375,-563.96484375,-146.97265625,-77.1484375,-1.0,0.0,1.0,0.0,2.m4v,5.0
2024-02-27 14:26:03.076307,1709040363.076307,999.51171875,871.58203125,-103.515625,999.51171875,-1.0,0.0,1.0,0.0,2.m4v,5.0
2024-02-27 14:26:03.076307,1709040363.076307,999.51171875,871.58203125,-103.515625,999.51171875,-1.0,0.0,1.0,0.0,2.m4v,5.0
2024-02-27 14:26:03.080223,1709040363.080223,963.8671875,999.51171875,-62.98828125,946.2890625,-1.0,0.0,1.0,0.0,2.m4v,5.0
2024-02-27 14:26:03.080223,1709040363.080223,963.8671875,999.51171875,-62.98828125,946.2890625,-1.0,0.0,1.0,0.0,2.m4v,5.0
2024-02-27 14:26:03.084129,1709040363.0841286,936.5234375,915.52734375,3.41796875,948.73046875,-1.0,0.0,1.0,0.0,2.m4v,5.0
2024-02-27 14:26:03.084129,1709040363.0841286,936.5234375,915.52734375,3.41796875,948.73046875,-1.0,0.0,1.0,0.0,2.m4v,5.0
2024-02-27 14:26:03.088034,1709040363.088034,978.02734375,984.86328125,69.3359375,975.5859375,-1.0,0.0,1.0,0.0,2.m4v,5.0
2024-02-27 14:26:03.088034,1709040363.088034,978.02734375,984.86328125,69.3359375,975.5859375,-1.0,0.0,1.0,0.0,2.m4v,5.0
2024-02-27 14:26:03.091939,1709040363.0919392,969.23828125,969.7265625,109.86328125,969.7265625,-1.0,0.0,1.0,0.0,2.m4v,5.0
2024-02-27 14:26:03.091939,1709040363.0919392,969.23828125,969.7265625,109.86328125,969.7265625,-1.0,0.0,1.0,0.0,2.m4v,5.0
2024-02-27 14:26:03.095845,1709040363.0958445,969.23828125,969.7265625,155.2734375,969.7265625,-1.0,0.0,1.0,0.0,2.m4v,5.0
2024-02-27 14:26:03.095845,1709040363.0958445,969.23828125,969.7265625,155.2734375,969.7265625,-1.0,0.0,1.0,0.0,2.m4v,5.0
2024-02-27 14:26:03.099750,1709040363.0997498,969.23828125,969.7265625,196.2890625,969.7265625,-1.0,0.0,1.0,0.0,2.m4v,5.0
2024-02-27 14:26:03.099750,1709040363.0997498,969.23828125,969.7265625,196.2890625,969.7265625,-1.0,0.0,1.0,0.0,2.m4v,5.0
2024-02-27 14:26:03.103655,1709040363.103655,969.23828125,969.7265625,222.16796875,969.7265625,-1.0,0.0,1.0,0.0,2.m4v,5.0
2024-02-27 14:26:03.103655,1709040363.103655,969.23828125,969.7265625,222.16796875,969.7265625,-1.0,0.0,1.0,0.0,2.m4v,5.0
2024-02-27 14:26:03.107560,1709040363.1075604,968.75,969.7265625,231.93359375,969.7265625,-1.0,0.0,1.0,0.0,2.m4v,5.0
2024-02-27 14:26:03.107560,1709040363.1075604,968.75,969.7265625,231.93359375,969.7265625,-1.0,0.0,1.0,0.0,2.m4v,5.0
2024-02-27 14:26:03.111466,1709040363.1114657,969.23828125,976.07421875,257.32421875,969.7265625,-1.0,0.0,1.0,0.0,2.m4v,5.0
2024-02-27 14:26:03.111466,1709040363.1114657,969.23828125,976.07421875,257.32421875,969.7265625,-1.0,0.0,1.0,0.0,2.m4v,5.0
2024-02-27 14:26:03.115371,1709040363.1153708,978.515625,942.3828125,232.421875,971.6796875,-1.0,0.0,1.0,0.0,2.m4v,5.0
2024-02-27 14:26:03.115371,1709040363.1153708,978.515625,942.3828125,232.421875,971.6796875,-1.0,0.0,1.0,0.0,2.m4v,5.0
2024-02-27 14:26:03.119276,1709040363.119276,902.34375,958.49609375,211.42578125,963.37890625,-1.0,0.0,1.0,0.0,2.m4v,5.0
2024-02-27 14:26:03.119276,1709040363.119276,902.34375,958.49609375,211.42578125,963.37890625,-1.0,0.0,1.0,0.0,2.m4v,5.0
2024-02-27 14:26:03.123181,1709040363.123181,999.51171875,999.51171875,279.78515625,918.9453125,-1.0,0.0,1.0,0.0,2.m4v,5.0
2024-02-27 14:26:03.123181,1709040363.123181,999.51171875,999.51171875,279.78515625,918.9453125,-1.0,0.0,1.0,0.0,2.m4v,5.0
2024-02-27 14:26:03.127097,1709040363.1270971,452.1484375,-221.19140625,315.91796875,999.51171875,-1.0,0.0,1.0,0.0,2.m4v,5.0
2024-02-27 14:26:03.127097,1709040363.1270971,452.1484375,-221.19140625,315.91796875,999.51171875,-1.0,0.0,1.0,0.0,2.m4v,5.0
2024-02-27 14:26:03.131002,1709040363.1310024,-915.52734375,-1000.0,351.07421875,81.54296875,-1.0,0.0,1.0,0.0,2.m4v,5.0
2024-02-27 14:26:03.131002,1709040363.1310024,-915.52734375,-1000.0,351.07421875,81.54296875,-1.0,0.0,1.0,0.0,2.m4v,5.0
2024-02-27 14:26:03.134908,1709040363.1349075,-1000.0,-943.84765625,436.03515625,-1000.0,-1.0,0.0,1.0,0.0,2.m4v,5.0
2024-02-27 14:26:03.134908,1709040363.1349075,-1000.0,-943.84765625,436.03515625,-1000.0,-1.0,0.0,1.0,0.0,2.m4v,5.0
2024-02-27 14:26:03.138813,1709040363.138813,-953.61328125,-998.53515625,498.53515625,-971.6796875,-1.0,0.0,1.0,0.0,2.m4v,5.0
2024-02-27 14:26:03.138813,1709040363.138813,-953.61328125,-998.53515625,498.53515625,-971.6796875,-1.0,0.0,1.0,0.0,2.m4v,5.0
2024-02-27 14:26:03.142718,1709040363.1427183,-1000.0,-1000.0,507.8125,-980.46875,-1.0,0.0,1.0,0.0,2.m4v,5.0
2024-02-27 14:26:03.142718,1709040363.1427183,-1000.0,-1000.0,507.8125,-980.46875,-1.0,0.0,1.0,0.0,2.m4v,5.0
2024-02-27 14:26:03.146624,1709040363.1466236,-1000.0,-1000.0,520.01953125,-1000.0,-1.0,0.0,1.0,0.0,2.m4v,5.0
2024-02-27 14:26:03.146624,1709040363.1466236,-1000.0,-1000.0,520.01953125,-1000.0,-1.0,0.0,1.0,0.0,2.m4v,5.0
2024-02-27 14:26:03.150529,1709040363.150529,-1000.0,-1000.0,564.453125,-1000.0,-1.0,0.0,1.0,0.0,2.m4v,5.0
2024-02-27 14:26:03.150529,1709040363.150529,-1000.0,-1000.0,564.453125,-1000.0,-1.0,0.0,1.0,0.0,2.m4v,5.0
2024-02-27 14:26:03.154434,1709040363.1544342,-1000.0,-1000.0,591.796875,-1000.0,-1.0,0.0,1.0,0.0,2.m4v,5.0
2024-02-27 14:26:03.154434,1709040363.1544342,-1000.0,-1000.0,591.796875,-1000.0,-1.0,0.0,1.0,0.0,2.m4v,5.0
2024-02-27 14:26:03.158339,1709040363.1583393,-1000.0,-1000.0,592.28515625,-1000.0,-1.0,0.0,1.0,0.0,2.m4v,5.0
2024-02-27 14:26:03.158339,1709040363.1583393,-1000.0,-1000.0,592.28515625,-1000.0,-1.0,0.0,1.0,0.0,2.m4v,5.0
2024-02-27 14:26:03.162245,1709040363.1622446,-1000.0,-1000.0,602.05078125,-1000.0,-1.0,0.0,1.0,0.0,2.m4v,5.0
2024-02-27 14:26:03.162245,1709040363.1622446,-1000.0,-1000.0,602.05078125,-1000.0,-1.0,0.0,1.0,0.0,2.m4v,5.0
2024-02-27 14:26:03.166150,1709040363.16615,-1000.0,-1000.0,597.16796875,-1000.0,-1.0,0.0,1.0,0.0,2.m4v,5.0
2024-02-27 14:26:03.166150,1709040363.16615,-1000.0,-1000.0,597.16796875,-1000.0,-1.0,0.0,1.0,0.0,2.m4v,5.0
2024-02-27 14:26:03.170055,1709040363.1700552,-1000.0,-1000.0,571.2890625,-1000.0,-1.0,0.0,1.0,0.0,2.m4v,5.0
2024-02-27 14:26:03.170055,1709040363.1700552,-1000.0,-1000.0,571.2890625,-1000.0,-1.0,0.0,1.0,0.0,2.m4v,5.0
2024-02-27 14:26:03.173974,1709040363.1739736,-1000.0,-1000.0,409.66796875,-1000.0,-1.0,0.0,1.0,0.0,2.m4v,5.0
2024-02-27 14:26:03.173974,1709040363.1739736,-1000.0,-1000.0,409.66796875,-1000.0,-1.0,0.0,1.0,0.0,2.m4v,5.0
2024-02-27 14:26:03.177879,1709040363.1778789,-1000.0,-1000.0,267.578125,-1000.0,-1.0,0.0,1.0,0.0,2.m4v,5.0
2024-02-27 14:26:03.177879,1709040363.1778789,-1000.0,-1000.0,267.578125,-1000.0,-1.0,0.0,1.0,0.0,2.m4v,5.0
2024-02-27 14:26:03.181784,1709040363.1817842,-934.08203125,-928.7109375,339.84375,-937.5,-1.0,0.0,1.0,0.0,2.m4v,5.0
2024-02-27 14:26:03.181784,1709040363.1817842,-934.08203125,-928.7109375,339.84375,-937.5,-1.0,0.0,1.0,0.0,2.m4v,5.0
2024-02-27 14:26:03.185689,1709040363.1856894,-1000.0,-1000.0,426.26953125,-1000.0,-1.0,0.0,1.0,0.0,2.m4v,5.0
2024-02-27 14:26:03.185689,1709040363.1856894,-1000.0,-1000.0,426.26953125,-1000.0,-1.0,0.0,1.0,0.0,2.m4v,5.0
2024-02-27 14:26:03.189595,1709040363.1895947,-275.390625,-381.8359375,508.7890625,-226.5625,-1.0,0.0,1.0,0.0,2.m4v,5.0
2024-02-27 14:26:03.189595,1709040363.1895947,-275.390625,-381.8359375,508.7890625,-226.5625,-1.0,0.0,1.0,0.0,2.m4v,5.0
2024-02-27 14:26:03.193500,1709040363.1935,999.51171875,979.98046875,585.44921875,999.51171875,-1.0,0.0,1.0,0.0,2.m4v,5.0
2024-02-27 14:26:03.193500,1709040363.1935,999.51171875,979.98046875,585.44921875,999.51171875,-1.0,0.0,1.0,0.0,2.m4v,5.0
2024-02-27 14:26:03.197405,1709040363.197405,961.9140625,980.95703125,617.1875,954.58984375,-1.0,0.0,1.0,0.0,2.m4v,5.0
2024-02-27 14:26:03.197405,1709040363.197405,961.9140625,980.95703125,617.1875,954.58984375,-1.0,0.0,1.0,0.0,2.m4v,5.0
2024-02-27 14:26:03.201311,1709040363.2013106,937.5,929.19921875,626.46484375,941.89453125,-1.0,0.0,1.0,0.0,2.m4v,5.0
2024-02-27 14:26:03.201311,1709040363.2013106,937.5,929.19921875,626.46484375,941.89453125,-1.0,0.0,1.0,0.0,2.m4v,5.0
2024-02-27 14:26:03.205216,1709040363.2052157,977.5390625,980.95703125,630.859375,977.05078125,-1.0,0.0,1.0,0.0,2.m4v,5.0
2024-02-27 14:26:03.205216,1709040363.2052157,977.5390625,980.95703125,630.859375,977.05078125,-1.0,0.0,1.0,0.0,2.m4v,5.0
2024-02-27 14:26:03.209121,1709040363.209121,969.23828125,969.7265625,626.953125,969.7265625,-1.0,0.0,1.0,0.0,2.m4v,5.0
2024-02-27 14:26:03.209121,1709040363.209121,969.23828125,969.7265625,626.953125,969.7265625,-1.0,0.0,1.0,0.0,2.m4v,5.0
2024-02-27 14:26:03.213026,1709040363.2130263,969.23828125,969.7265625,632.32421875,969.7265625,-1.0,0.0,1.0,0.0,2.m4v,5.0
2024-02-27 14:26:03.213026,1709040363.2130263,969.23828125,969.7265625,632.32421875,969.7265625,-1.0,0.0,1.0,0.0,2.m4v,5.0
2024-02-27 14:26:03.216932,1709040363.2169316,969.23828125,969.7265625,645.99609375,969.7265625,-1.0,0.0,1.0,0.0,2.m4v,5.0
2024-02-27 14:26:03.216932,1709040363.2169316,969.23828125,969.7265625,645.99609375,969.7265625,-1.0,0.0,1.0,0.0,2.m4v,5.0
2024-02-27 14:26:03.220850,1709040363.2208495,969.23828125,969.7265625,652.83203125,969.7265625,-1.0,0.0,1.0,0.0,2.m4v,5.0
2024-02-27 14:26:03.220850,1709040363.2208495,969.23828125,969.7265625,652.83203125,969.7265625,-1.0,0.0,1.0,0.0,2.m4v,5.0
2024-02-27 14:26:03.224755,1709040363.2247548,969.23828125,969.7265625,643.5546875,969.7265625,-1.0,0.0,1.0,0.0,2.m4v,5.0
2024-02-27 14:26:03.224755,1709040363.2247548,969.23828125,969.7265625,643.5546875,969.7265625,-1.0,0.0,1.0,0.0,2.m4v,5.0
2024-02-27 14:26:03.228660,1709040363.22866,969.23828125,969.7265625,627.44140625,969.7265625,-1.0,0.0,1.0,0.0,2.m4v,5.0
2024-02-27 14:26:03.228660,1709040363.22866,969.23828125,969.7265625,627.44140625,969.7265625,-1.0,0.0,1.0,0.0,2.m4v,5.0
2024-02-27 14:26:03.232565,1709040363.2325654,969.23828125,969.7265625,611.328125,969.7265625,-1.0,0.0,1.0,0.0,2.m4v,5.0
2024-02-27 14:26:03.232565,1709040363.2325654,969.23828125,969.7265625,611.328125,969.7265625,-1.0,0.0,1.0,0.0,2.m4v,5.0
2024-02-27 14:26:03.236470,1709040363.2364705,969.23828125,969.7265625,594.23828125,969.7265625,-1.0,0.0,1.0,0.0,2.m4v,5.0
2024-02-27 14:26:03.236470,1709040363.2364705,969.23828125,969.7265625,594.23828125,969.7265625,-1.0,0.0,1.0,0.0,2.m4v,5.0
2024-02-27 14:26:03.240376,1709040363.2403758,969.23828125,969.7265625,586.42578125,969.7265625,-1.0,0.0,1.0,0.0,2.m4v,5.0
2024-02-27 14:26:03.240376,1709040363.2403758,969.23828125,969.7265625,586.42578125,969.7265625,-1.0,0.0,1.0,0.0,2.m4v,5.0
2024-02-27 14:26:03.244281,1709040363.244281,969.7265625,970.21484375,581.0546875,971.6796875,-1.0,0.0,1.0,0.0,2.m4v,5.0
2024-02-27 14:26:03.244281,1709040363.244281,969.7265625,970.21484375,581.0546875,971.6796875,-1.0,0.0,1.0,0.0,2.m4v,5.0
2024-02-27 14:26:03.248186,1709040363.2481863,968.75,968.75,551.26953125,962.40234375,-1.0,0.0,1.0,0.0,2.m4v,5.0
2024-02-27 14:26:03.248186,1709040363.2481863,968.75,968.75,551.26953125,962.40234375,-1.0,0.0,1.0,0.0,2.m4v,5.0
2024-02-27 14:26:03.252092,1709040363.2520916,907.71484375,909.1796875,510.25390625,920.41015625,-1.0,0.0,1.0,0.0,2.m4v,5.0
2024-02-27 14:26:03.252092,1709040363.2520916,907.71484375,909.1796875,510.25390625,920.41015625,-1.0,0.0,1.0,0.0,2.m4v,5.0
2024-02-27 14:26:03.255997,1709040363.255997,999.51171875,999.51171875,500.48828125,999.51171875,-1.0,0.0,1.0,0.0,2.m4v,5.0
2024-02-27 14:26:03.255997,1709040363.255997,999.51171875,999.51171875,500.48828125,999.51171875,-1.0,0.0,1.0,0.0,2.m4v,5.0
2024-02-27 14:26:03.259902,1709040363.2599022,170.41015625,162.59765625,508.7890625,67.87109375,-1.0,0.0,1.0,0.0,2.m4v,5.0
2024-02-27 14:26:03.259902,1709040363.2599022,170.41015625,162.59765625,508.7890625,67.87109375,-1.0,0.0,1.0,0.0,2.m4v,5.0
2024-02-27 14:26:03.263808,1709040363.2638075,-1000.0,-1000.0,498.53515625,-1000.0,-1.0,0.0,1.0,0.0,2.m4v,5.0
2024-02-27 14:26:03.263808,1709040363.2638075,-1000.0,-1000.0,498.53515625,-1000.0,-1.0,0.0,1.0,0.0,2.m4v,5.0
2024-02-27 14:26:03.267725,1709040363.267725,-981.4453125,-980.46875,474.12109375,-970.21484375,-1.0,0.0,1.0,0.0,2.m4v,5.0
2024-02-27 14:26:03.267725,1709040363.267725,-981.4453125,-980.46875,474.12109375,-970.21484375,-1.0,0.0,1.0,0.0,2.m4v,5.0
2024-02-27 14:26:03.271630,1709040363.2716303,-974.609375,-975.09765625,447.75390625,-981.4453125,-1.0,0.0,1.0,0.0,2.m4v,5.0
2024-02-27 14:26:03.271630,1709040363.2716303,-974.609375,-975.09765625,447.75390625,-981.4453125,-1.0,0.0,1.0,0.0,2.m4v,5.0
2024-02-27 14:26:03.275536,1709040363.2755356,-1000.0,-1000.0,411.1328125,-1000.0,-1.0,0.0,1.0,0.0,2.m4v,5.0
2024-02-27 14:26:03.275536,1709040363.2755356,-1000.0,-1000.0,411.1328125,-1000.0,-1.0,0.0,1.0,0.0,2.m4v,5.0
2024-02-27 14:26:03.279441,1709040363.2794409,-1000.0,-1000.0,366.69921875,-1000.0,-1.0,0.0,1.0,0.0,2.m4v,5.0
2024-02-27 14:26:03.279441,1709040363.2794409,-1000.0,-1000.0,366.69921875,-1000.0,-1.0,0.0,1.0,0.0,2.m4v,5.0
2024-02-27 14:26:03.283346,1709040363.2833462,-1000.0,-1000.0,333.984375,-1000.0,-1.0,0.0,1.0,0.0,2.m4v,5.0
2024-02-27 14:26:03.283346,1709040363.2833462,-1000.0,-1000.0,333.984375,-1000.0,-1.0,0.0,1.0,0.0,2.m4v,5.0
2024-02-27 14:26:03.287251,1709040363.2872512,-1000.0,-1000.0,318.84765625,-1000.0,-1.0,0.0,1.0,0.0,2.m4v,5.0
2024-02-27 14:26:03.287251,1709040363.2872512,-1000.0,-1000.0,318.84765625,-1000.0,-1.0,0.0,1.0,0.0,2.m4v,5.0
2024-02-27 14:26:03.291157,1709040363.2911563,-1000.0,-1000.0,315.91796875,-1000.0,-1.0,0.0,1.0,0.0,2.m4v,5.0
2024-02-27 14:26:03.291157,1709040363.2911563,-1000.0,-1000.0,315.91796875,-1000.0,-1.0,0.0,1.0,0.0,2.m4v,5.0
2024-02-27 14:26:03.295062,1709040363.2950618,-1000.0,-1000.0,298.33984375,-1000.0,-1.0,0.0,1.0,0.0,2.m4v,5.0
2024-02-27 14:26:03.295062,1709040363.2950618,-1000.0,-1000.0,298.33984375,-1000.0,-1.0,0.0,1.0,0.0,2.m4v,5.0
2024-02-27 14:26:03.298967,1709040363.2989671,-1000.0,-1000.0,293.45703125,-1000.0,-1.0,0.0,1.0,0.0,2.m4v,5.0
2024-02-27 14:26:03.298967,1709040363.2989671,-1000.0,-1000.0,293.45703125,-1000.0,-1.0,0.0,1.0,0.0,2.m4v,5.0
2024-02-27 14:26:03.302872,1709040363.3028724,-1000.0,-1000.0,291.50390625,-1000.0,-1.0,0.0,1.0,0.0,2.m4v,5.0
2024-02-27 14:26:03.302872,1709040363.3028724,-1000.0,-1000.0,291.50390625,-1000.0,-1.0,0.0,1.0,0.0,2.m4v,5.0
2024-02-27 14:26:03.306778,1709040363.3067777,-1000.0,-1000.0,278.80859375,-1000.0,-1.0,0.0,1.0,0.0,2.m4v,5.0
2024-02-27 14:26:03.306778,1709040363.3067777,-1000.0,-1000.0,278.80859375,-1000.0,-1.0,0.0,1.0,0.0,2.m4v,5.0
2024-02-27 14:26:03.310683,1709040363.310683,-1000.0,-1000.0,266.6015625,-1000.0,-1.0,0.0,1.0,0.0,2.m4v,5.0
2024-02-27 14:26:03.310683,1709040363.310683,-1000.0,-1000.0,266.6015625,-1000.0,-1.0,0.0,1.0,0.0,2.m4v,5.0
2024-02-27 14:26:03.314600,1709040363.3146,-1000.0,-1000.0,251.953125,-1000.0,-1.0,0.0,1.0,0.0,2.m4v,5.0
2024-02-27 14:26:03.314600,1709040363.3146,-1000.0,-1000.0,251.953125,-1000.0,-1.0,0.0,1.0,0.0,2.m4v,5.0
2024-02-27 14:26:03.318505,1709040363.3185053,-1000.0,-1000.0,182.6171875,-1000.0,-1.0,0.0,1.0,0.0,2.m4v,5.0
2024-02-27 14:26:03.318505,1709040363.3185053,-1000.0,-1000.0,182.6171875,-1000.0,-1.0,0.0,1.0,0.0,2.m4v,5.0
2024-02-27 14:26:03.322411,1709040363.3224106,-1000.0,-1000.0,74.21875,-985.83984375,-1.0,0.0,1.0,0.0,2.m4v,5.0
2024-02-27 14:26:03.322411,1709040363.3224106,-1000.0,-1000.0,74.21875,-985.83984375,-1.0,0.0,1.0,0.0,2.m4v,5.0
2024-02-27 14:26:03.326316,1709040363.326316,-938.4765625,-937.5,41.50390625,-976.5625,-1.0,0.0,1.0,0.0,2.m4v,5.0
2024-02-27 14:26:03.326316,1709040363.326316,-938.4765625,-937.5,41.50390625,-976.5625,-1.0,0.0,1.0,0.0,2.m4v,5.0
2024-02-27 14:26:03.330221,1709040363.3302212,-1000.0,-1000.0,44.43359375,-999.0234375,-1.0,0.0,1.0,0.0,2.m4v,5.0
2024-02-27 14:26:03.330221,1709040363.3302212,-1000.0,-1000.0,44.43359375,-999.0234375,-1.0,0.0,1.0,0.0,2.m4v,5.0
2024-02-27 14:26:03.334126,1709040363.3341265,-208.984375,-219.7265625,29.78515625,37.59765625,-1.0,0.0,1.0,0.0,2.m4v,5.0
2024-02-27 14:26:03.334126,1709040363.3341265,-208.984375,-219.7265625,29.78515625,37.59765625,-1.0,0.0,1.0,0.0,2.m4v,5.0
2024-02-27 14:26:03.338032,1709040363.3380318,999.51171875,999.51171875,20.5078125,999.51171875,-1.0,0.0,1.0,0.0,2.m4v,5.0
2024-02-27 14:26:03.338032,1709040363.3380318,999.51171875,999.51171875,20.5078125,999.51171875,-1.0,0.0,1.0,0.0,2.m4v,5.0
2024-02-27 14:26:03.341937,1709040363.341937,951.171875,953.61328125,38.57421875,943.359375,-1.0,0.0,1.0,0.0,2.m4v,5.0
2024-02-27 14:26:03.341937,1709040363.341937,951.171875,953.61328125,38.57421875,943.359375,-1.0,0.0,1.0,0.0,2.m4v,5.0
2024-02-27 14:26:03.345842,1709040363.345842,942.87109375,942.3828125,68.359375,952.63671875,-1.0,0.0,1.0,0.0,2.m4v,5.0
2024-02-27 14:26:03.345842,1709040363.345842,942.87109375,942.3828125,68.359375,952.63671875,-1.0,0.0,1.0,0.0,2.m4v,5.0
2024-02-27 14:26:03.349747,1709040363.3497474,975.5859375,976.5625,98.6328125,974.12109375,-1.0,0.0,1.0,0.0,2.m4v,5.0
2024-02-27 14:26:03.349747,1709040363.3497474,975.5859375,976.5625,98.6328125,974.12109375,-1.0,0.0,1.0,0.0,2.m4v,5.0
2024-02-27 14:26:03.353653,1709040363.3536527,969.23828125,969.7265625,68.84765625,969.7265625,-1.0,0.0,1.0,0.0,2.m4v,5.0
2024-02-27 14:26:03.353653,1709040363.3536527,969.23828125,969.7265625,68.84765625,969.7265625,-1.0,0.0,1.0,0.0,2.m4v,5.0
2024-02-27 14:26:03.357558,1709040363.357558,969.23828125,969.7265625,14.16015625,969.7265625,-1.0,0.0,1.0,0.0,2.m4v,5.0
2024-02-27 14:26:03.357558,1709040363.357558,969.23828125,969.7265625,14.16015625,969.7265625,-1.0,0.0,1.0,0.0,2.m4v,5.0
2024-02-27 14:26:03.361475,1709040363.3614752,969.23828125,969.7265625,26.85546875,969.7265625,-1.0,0.0,1.0,0.0,2.m4v,5.0
2024-02-27 14:26:03.361475,1709040363.3614752,969.23828125,969.7265625,26.85546875,969.7265625,-1.0,0.0,1.0,0.0,2.m4v,5.0
2024-02-27 14:26:03.365381,1709040363.3653803,969.23828125,969.7265625,33.69140625,969.7265625,-1.0,0.0,1.0,0.0,2.m4v,5.0
2024-02-27 14:26:03.365381,1709040363.3653803,969.23828125,969.7265625,33.69140625,969.7265625,-1.0,0.0,1.0,0.0,2.m4v,5.0
2024-02-27 14:26:03.369286,1709040363.3692856,969.23828125,969.7265625,36.1328125,969.7265625,-1.0,0.0,1.0,0.0,2.m4v,5.0
2024-02-27 14:26:03.369286,1709040363.3692856,969.23828125,969.7265625,36.1328125,969.7265625,-1.0,0.0,1.0,0.0,2.m4v,5.0
2024-02-27 14:26:03.373191,1709040363.3731909,969.23828125,969.7265625,58.59375,969.7265625,-1.0,0.0,1.0,0.0,2.m4v,5.0
2024-02-27 14:26:03.373191,1709040363.3731909,969.23828125,969.7265625,58.59375,969.7265625,-1.0,0.0,1.0,0.0,2.m4v,5.0
2024-02-27 14:26:03.377096,1709040363.3770962,969.23828125,969.7265625,76.171875,969.7265625,-1.0,0.0,1.0,0.0,2.m4v,5.0
2024-02-27 14:26:03.377096,1709040363.3770962,969.23828125,969.7265625,76.171875,969.7265625,-1.0,0.0,1.0,0.0,2.m4v,5.0
2024-02-27 14:26:03.381001,1709040363.3810017,969.23828125,969.7265625,99.12109375,969.7265625,-1.0,0.0,1.0,0.0,2.m4v,5.0
2024-02-27 14:26:03.381001,1709040363.3810017,969.23828125,969.7265625,99.12109375,969.7265625,-1.0,0.0,1.0,0.0,2.m4v,5.0
2024-02-27 14:26:03.384907,1709040363.3849068,969.23828125,970.21484375,119.62890625,970.703125,-1.0,0.0,1.0,0.0,2.m4v,5.0
2024-02-27 14:26:03.388812,1709040363.388812,970.21484375,970.703125,125.9765625,967.28515625,-1.0,0.0,1.0,0.0,2.m4v,5.0
2024-02-27 14:26:03.392717,1709040363.3927174,906.25,907.2265625,130.37109375,912.109375,-1.0,0.0,1.0,0.0,2.m4v,5.0
2024-02-27 14:26:03.396623,1709040363.396623,999.51171875,999.51171875,130.37109375,999.51171875,-1.0,0.0,1.0,0.0,2.m4v,5.0
2024-02-27 14:26:03.400528,1709040363.400528,188.4765625,188.96484375,129.39453125,136.71875,-1.0,0.0,1.0,0.0,2.m4v,5.0
2024-02-27 14:26:03.404433,1709040363.404433,-1000.0,-1000.0,118.65234375,-1000.0,-1.0,0.0,1.0,0.0,2.m4v,5.0
2024-02-27 14:26:03.408350,1709040363.4083495,-983.88671875,-983.88671875,106.93359375,-977.5390625,-1.0,0.0,1.0,0.0,2.m4v,5.0
2024-02-27 14:26:03.412255,1709040363.4122548,-973.14453125,-973.14453125,108.3984375,-976.5625,-1.0,0.0,1.0,0.0,2.m4v,5.0
2024-02-27 14:26:03.416160,1709040363.41616,-1000.0,-1000.0,114.74609375,-1000.0,-1.0,0.0,1.0,0.0,2.m4v,5.0
2024-02-27 14:26:03.420065,1709040363.4200654,-1000.0,-1000.0,106.4453125,-1000.0,-1.0,0.0,1.0,0.0,2.m4v,5.0
2024-02-27 14:26:03.423970,1709040363.4239705,-1000.0,-1000.0,92.7734375,-1000.0,-1.0,0.0,1.0,0.0,2.m4v,5.0
2024-02-27 14:26:03.427876,1709040363.4278758,-1000.0,-1000.0,99.609375,-1000.0,-1.0,0.0,1.0,0.0,2.m4v,5.0
2024-02-27 14:26:03.431781,1709040363.431781,-1000.0,-1000.0,106.93359375,-1000.0,-1.0,0.0,1.0,0.0,2.m4v,5.0
2024-02-27 14:26:03.435686,1709040363.4356863,-1000.0,-1000.0,117.1875,-1000.0,-1.0,0.0,1.0,0.0,2.m4v,5.0
2024-02-27 14:26:03.439592,1709040363.4395916,-1000.0,-1000.0,114.74609375,-996.09375,-1.0,0.0,1.0,0.0,2.m4v,5.0
2024-02-27 14:26:03.443497,1709040363.443497,-937.5,-937.5,116.2109375,-945.3125,-1.0,0.0,1.0,0.0,2.m4v,5.0
2024-02-27 14:26:03.447402,1709040363.4474022,-1000.0,-1000.0,128.41796875,-1000.0,-1.0,0.0,1.0,0.0,2.m4v,5.0
2024-02-27 14:26:03.451308,1709040363.4513075,-219.7265625,-218.26171875,119.62890625,-148.92578125,-1.0,0.0,1.0,0.0,2.m4v,5.0
2024-02-27 14:26:03.455223,1709040363.455223,999.51171875,999.51171875,109.86328125,999.51171875,-1.0,0.0,1.0,0.0,2.m4v,5.0
2024-02-27 14:26:03.978668,1709040363.9786685,-961.42578125,-949.70703125,-382.8125,-953.61328125,-1.0,0.0,1.0,0.0,2.m4v,5.0
2024-02-27 14:26:03.982574,1709040363.9825735,-1000.0,-1000.0,-400.87890625,-1000.0,-1.0,0.0,1.0,0.0,2.m4v,5.0
2024-02-27 14:26:03.986479,1709040363.986479,-987.79296875,-890.13671875,-401.3671875,-910.64453125,-1.0,0.0,1.0,0.0,2.m4v,5.0
2024-02-27 14:26:03.990384,1709040363.9903843,339.84375,494.62890625,-388.18359375,448.2421875,-1.0,0.0,1.0,0.0,2.m4v,5.0
2024-02-27 14:26:03.994290,1709040363.9942896,999.51171875,999.51171875,-393.06640625,999.51171875,-1.0,0.0,1.0,0.0,2.m4v,5.0
2024-02-27 14:26:03.998195,1709040363.9981947,903.3203125,903.3203125,-388.18359375,904.78515625,-1.0,0.0,1.0,0.0,2.m4v,5.0
2024-02-27 14:26:04.002100,1709040364.0021,975.09765625,980.46875,-384.27734375,978.02734375,-1.0,0.0,1.0,0.0,2.m4v,5.0
2024-02-27 14:26:04.006005,1709040364.0060053,969.23828125,969.7265625,-383.7890625,969.7265625,-1.0,0.0,1.0,0.0,2.m4v,5.0
2024-02-27 14:26:04.009911,1709040364.0099106,969.23828125,970.21484375,-376.953125,969.7265625,-1.0,0.0,1.0,0.0,2.m4v,5.0
2024-02-27 14:26:04.013816,1709040364.013816,969.23828125,969.7265625,-366.69921875,969.7265625,-1.0,0.0,1.0,0.0,2.m4v,5.0
2024-02-27 14:26:04.017734,1709040364.0177336,969.23828125,969.7265625,-347.16796875,969.7265625,-1.0,0.0,1.0,0.0,2.m4v,5.0
2024-02-27 14:26:04.021639,1709040364.0216389,969.23828125,969.7265625,-340.8203125,969.7265625,-1.0,0.0,1.0,0.0,2.m4v,5.0
2024-02-27 14:26:04.025544,1709040364.0255442,969.23828125,969.7265625,-342.7734375,969.7265625,-1.0,0.0,1.0,0.0,2.m4v,5.0
2024-02-27 14:26:04.029449,1709040364.0294492,969.23828125,969.7265625,-347.16796875,969.7265625,-1.0,0.0,1.0,0.0,2.m4v,5.0
2024-02-27 14:26:04.033355,1709040364.0333543,968.75,969.7265625,-354.4921875,969.7265625,-1.0,0.0,1.0,0.0,2.m4v,5.0
2024-02-27 14:26:04.037260,1709040364.0372598,969.23828125,969.7265625,-366.2109375,969.7265625,-1.0,0.0,1.0,0.0,2.m4v,5.0
2024-02-27 14:26:04.041165,1709040364.041165,968.75,969.7265625,-375.48828125,969.7265625,-1.0,0.0,1.0,0.0,2.m4v,5.0
2024-02-27 14:26:04.045070,1709040364.0450704,971.19140625,973.6328125,-375.9765625,974.609375,-1.0,0.0,1.0,0.0,2.m4v,5.0
2024-02-27 14:26:04.048976,1709040364.0489757,958.0078125,951.66015625,-381.34765625,946.77734375,-1.0,0.0,1.0,0.0,2.m4v,5.0
2024-02-27 14:26:04.052881,1709040364.052881,923.828125,937.5,-378.41796875,949.70703125,-1.0,0.0,1.0,0.0,2.m4v,5.0
2024-02-27 14:26:04.056786,1709040364.0567863,999.51171875,999.51171875,-365.72265625,999.51171875,-1.0,0.0,1.0,0.0,2.m4v,5.0
2024-02-27 14:26:04.060692,1709040364.0606916,3.90625,-97.16796875,-363.28125,-155.76171875,-1.0,0.0,1.0,0.0,2.m4v,5.0
2024-02-27 14:26:04.064609,1709040364.0646086,-1000.0,-1000.0,-353.515625,-1000.0,-1.0,0.0,1.0,0.0,2.m4v,5.0
2024-02-27 14:26:04.068514,1709040364.068514,-959.47265625,-949.21875,-339.35546875,-949.70703125,-1.0,0.0,1.0,0.0,2.m4v,5.0
2024-02-27 14:26:04.072419,1709040364.0724192,-986.81640625,-993.1640625,-337.40234375,-994.62890625,-1.0,0.0,1.0,0.0,2.m4v,5.0
2024-02-27 14:26:04.076324,1709040364.0763245,-1000.0,-1000.0,-338.8671875,-1000.0,-1.0,0.0,1.0,0.0,2.m4v,5.0
2024-02-27 14:26:04.080230,1709040364.0802298,-1000.0,-1000.0,-346.19140625,-1000.0,-1.0,0.0,1.0,0.0,2.m4v,5.0
2024-02-27 14:26:04.084135,1709040364.084135,-1000.0,-1000.0,-357.91015625,-1000.0,-1.0,0.0,1.0,0.0,2.m4v,5.0
2024-02-27 14:26:04.088040,1709040364.0880404,-1000.0,-1000.0,-366.2109375,-1000.0,-1.0,0.0,1.0,0.0,2.m4v,5.0
2024-02-27 14:26:04.091946,1709040364.0919456,-1000.0,-1000.0,-369.62890625,-1000.0,-1.0,0.0,1.0,0.0,2.m4v,5.0
2024-02-27 14:26:04.095851,1709040364.0958507,-1000.0,-1000.0,-369.140625,-1000.0,-1.0,0.0,1.0,0.0,2.m4v,5.0
2024-02-27 14:26:04.099756,1709040364.099756,-1000.0,-1000.0,-367.1875,-1000.0,-1.0,0.0,1.0,0.0,2.m4v,5.0
2024-02-27 14:26:04.103661,1709040364.1036613,-1000.0,-1000.0,-364.74609375,-1000.0,-1.0,0.0,1.0,0.0,2.m4v,5.0
2024-02-27 14:26:04.107567,1709040364.1075666,-1000.0,-1000.0,-363.76953125,-1000.0,-1.0,0.0,1.0,0.0,2.m4v,5.0
2024-02-27 14:26:04.111485,1709040364.111485,-1000.0,-1000.0,-364.74609375,-1000.0,-1.0,0.0,1.0,0.0,2.m4v,5.0
2024-02-27 14:26:04.115390,1709040364.11539,-1000.0,-1000.0,-368.65234375,-1000.0,-1.0,0.0,1.0,0.0,2.m4v,5.0
2024-02-27 14:26:04.119295,1709040364.1192954,-978.02734375,-973.6328125,-372.55859375,-967.7734375,-1.0,0.0,1.0,0.0,2.m4v,5.0
2024-02-27 14:26:04.123201,1709040364.123201,-975.09765625,-983.88671875,-379.8828125,-1000.0,-1.0,0.0,1.0,0.0,2.m4v,5.0
2024-02-27 14:26:04.127106,1709040364.127106,-1000.0,-1000.0,-380.859375,-1000.0,-1.0,0.0,1.0,0.0,2.m4v,5.0
2024-02-27 14:26:04.131011,1709040364.1310112,125.48828125,177.24609375,-356.93359375,261.71875,-1.0,0.0,1.0,0.0,2.m4v,5.0
2024-02-27 14:26:04.134917,1709040364.1349163,999.51171875,999.51171875,-362.3046875,999.51171875,-1.0,0.0,1.0,0.0,2.m4v,5.0
2024-02-27 14:26:04.138822,1709040364.1388218,912.109375,910.15625,-509.27734375,909.66796875,-1.0,0.0,1.0,0.0,2.m4v,5.0
2024-02-27 14:26:04.142727,1709040364.1427271,966.30859375,969.23828125,-629.39453125,971.19140625,-1.0,0.0,1.0,0.0,2.m4v,5.0
2024-02-27 14:26:04.146632,1709040364.1466324,969.7265625,970.703125,-633.30078125,970.21484375,-1.0,0.0,1.0,0.0,2.m4v,5.0
2024-02-27 14:26:04.150537,1709040364.1505375,969.23828125,970.21484375,-634.27734375,969.7265625,-1.0,0.0,1.0,0.0,2.m4v,5.0
2024-02-27 14:26:04.154443,1709040364.1544428,969.23828125,970.21484375,-620.60546875,969.7265625,-1.0,0.0,1.0,0.0,2.m4v,5.0
2024-02-27 14:26:04.158360,1709040364.1583595,969.23828125,969.7265625,-597.16796875,969.7265625,-1.0,0.0,1.0,0.0,2.m4v,5.0
2024-02-27 14:26:04.162265,1709040364.1622648,969.23828125,969.7265625,-571.2890625,969.7265625,-1.0,0.0,1.0,0.0,2.m4v,5.0
2024-02-27 14:26:04.166170,1709040364.16617,969.23828125,969.7265625,-544.43359375,969.7265625,-1.0,0.0,1.0,0.0,2.m4v,5.0
2024-02-27 14:26:04.170075,1709040364.1700752,968.75,969.7265625,-513.18359375,969.7265625,-1.0,0.0,1.0,0.0,2.m4v,5.0
2024-02-27 14:26:04.173980,1709040364.1739805,969.23828125,969.7265625,-495.60546875,969.7265625,-1.0,0.0,1.0,0.0,2.m4v,5.0
2024-02-27 14:26:04.177886,1709040364.1778858,969.23828125,969.7265625,-494.140625,969.7265625,-1.0,0.0,1.0,0.0,2.m4v,5.0
2024-02-27 14:26:04.181791,1709040364.181791,969.23828125,969.7265625,-496.58203125,969.7265625,-1.0,0.0,1.0,0.0,2.m4v,5.0
2024-02-27 14:26:04.185696,1709040364.1856964,981.4453125,982.421875,-490.234375,982.421875,-1.0,0.0,1.0,0.0,2.m4v,5.0
2024-02-27 14:26:04.189602,1709040364.1896017,920.8984375,917.96875,-475.09765625,910.15625,-1.0,0.0,1.0,0.0,2.m4v,5.0
2024-02-27 14:26:04.193507,1709040364.193507,999.51171875,999.51171875,-461.42578125,999.51171875,-1.0,0.0,1.0,0.0,2.m4v,5.0
2024-02-27 14:26:04.197412,1709040364.1974125,883.30078125,846.6796875,-448.2421875,704.1015625,-1.0,0.0,1.0,0.0,2.m4v,5.0
2024-02-27 14:26:04.201317,1709040364.2013173,-491.69921875,-544.43359375,-438.4765625,-694.3359375,-1.0,0.0,1.0,0.0,2.m4v,5.0
2024-02-27 14:26:04.205234,1709040364.2052338,-1000.0,-1000.0,-443.359375,-1000.0,-1.0,0.0,1.0,0.0,2.m4v,5.0
2024-02-27 14:26:04.209139,1709040364.209139,-933.59375,-934.08203125,-433.10546875,-939.94140625,-1.0,0.0,1.0,0.0,2.m4v,5.0
2024-02-27 14:26:04.213044,1709040364.2130444,-1000.0,-1000.0,-413.57421875,-1000.0,-1.0,0.0,1.0,0.0,2.m4v,5.0
2024-02-27 14:26:04.216950,1709040364.2169497,-1000.0,-1000.0,-415.52734375,-1000.0,-1.0,0.0,1.0,0.0,2.m4v,5.0
2024-02-27 14:26:04.220855,1709040364.2208548,-1000.0,-1000.0,-403.80859375,-1000.0,-1.0,0.0,1.0,0.0,2.m4v,5.0
2024-02-27 14:26:04.224760,1709040364.22476,-1000.0,-1000.0,-406.73828125,-1000.0,-1.0,0.0,1.0,0.0,2.m4v,5.0
2024-02-27 14:26:04.228665,1709040364.2286654,-1000.0,-1000.0,-430.17578125,-1000.0,-1.0,0.0,1.0,0.0,2.m4v,5.0
2024-02-27 14:26:04.232571,1709040364.2325706,-1000.0,-1000.0,-420.41015625,-1000.0,-1.0,0.0,1.0,0.0,2.m4v,5.0
2024-02-27 14:26:04.236476,1709040364.236476,-1000.0,-1000.0,-408.69140625,-1000.0,-1.0,0.0,1.0,0.0,2.m4v,5.0
2024-02-27 14:26:04.240381,1709040364.2403812,-1000.0,-1000.0,-422.8515625,-1000.0,-1.0,0.0,1.0,0.0,2.m4v,5.0
2024-02-27 14:26:04.244287,1709040364.2442863,-1000.0,-1000.0,-432.6171875,-1000.0,-1.0,0.0,1.0,0.0,2.m4v,5.0
2024-02-27 14:26:04.248192,1709040364.2481918,-1000.0,-1000.0,-441.89453125,-1000.0,-1.0,0.0,1.0,0.0,2.m4v,5.0
2024-02-27 14:26:04.252110,1709040364.2521105,-1000.0,-1000.0,-444.3359375,-1000.0,-1.0,0.0,1.0,0.0,2.m4v,5.0
2024-02-27 14:26:04.256016,1709040364.2560158,-1000.0,-1000.0,-437.98828125,-1000.0,-1.0,0.0,1.0,0.0,2.m4v,5.0
2024-02-27 14:26:04.259921,1709040364.2599208,-959.47265625,-960.9375,-451.66015625,-948.73046875,-1.0,0.0,1.0,0.0,2.m4v,5.0
2024-02-27 14:26:04.263826,1709040364.263826,-1000.0,-1000.0,-452.63671875,-1000.0,-1.0,0.0,1.0,0.0,2.m4v,5.0
2024-02-27 14:26:04.267731,1709040364.2677314,-971.19140625,-985.83984375,-429.19921875,-852.5390625,-1.0,0.0,1.0,0.0,2.m4v,5.0
2024-02-27 14:26:04.271637,1709040364.2716367,366.69921875,343.75,-412.59765625,522.4609375,-1.0,0.0,1.0,0.0,2.m4v,5.0
2024-02-27 14:26:04.275542,1709040364.275542,999.51171875,999.51171875,-412.59765625,999.51171875,-1.0,0.0,1.0,0.0,2.m4v,5.0
2024-02-27 14:26:04.279447,1709040364.2794473,903.3203125,904.296875,-424.8046875,906.25,-1.0,0.0,1.0,0.0,2.m4v,5.0
2024-02-27 14:26:04.283353,1709040364.2833526,975.5859375,976.07421875,-436.03515625,979.4921875,-1.0,0.0,1.0,0.0,2.m4v,5.0
2024-02-27 14:26:04.287258,1709040364.287258,969.23828125,970.21484375,-438.96484375,969.7265625,-1.0,0.0,1.0,0.0,2.m4v,5.0
2024-02-27 14:26:04.291163,1709040364.2911632,969.23828125,969.7265625,-430.6640625,969.7265625,-1.0,0.0,1.0,0.0,2.m4v,5.0
2024-02-27 14:26:04.295068,1709040364.2950685,969.23828125,969.7265625,-424.8046875,969.7265625,-1.0,0.0,1.0,0.0,2.m4v,5.0
2024-02-27 14:26:04.298987,1709040364.298987,968.75,969.7265625,-420.41015625,969.7265625,-1.0,0.0,1.0,0.0,2.m4v,5.0
2024-02-27 14:26:04.302892,1709040364.302892,969.23828125,969.7265625,-420.8984375,969.7265625,-1.0,0.0,1.0,0.0,2.m4v,5.0
2024-02-27 14:26:04.306797,1709040364.306797,969.23828125,969.7265625,-404.296875,969.7265625,-1.0,0.0,1.0,0.0,2.m4v,5.0
2024-02-27 14:26:04.310702,1709040364.3107023,968.75,969.7265625,-394.04296875,969.7265625,-1.0,0.0,1.0,0.0,2.m4v,5.0
2024-02-27 14:26:04.314608,1709040364.3146076,969.23828125,969.7265625,-414.55078125,969.7265625,-1.0,0.0,1.0,0.0,2.m4v,5.0
2024-02-27 14:26:04.318513,1709040364.318513,968.75,969.7265625,-408.203125,969.7265625,-1.0,0.0,1.0,0.0,2.m4v,5.0
2024-02-27 14:26:04.322418,1709040364.3224182,968.75,970.21484375,-407.2265625,969.7265625,-1.0,0.0,1.0,0.0,2.m4v,5.0
2024-02-27 14:26:04.326324,1709040364.3263235,977.05078125,972.65625,-405.2734375,975.09765625,-1.0,0.0,1.0,0.0,2.m4v,5.0
2024-02-27 14:26:04.330229,1709040364.3302288,898.4375,904.296875,-380.859375,901.85546875,-1.0,0.0,1.0,0.0,2.m4v,5.0
2024-02-27 14:26:04.334134,1709040364.334134,999.51171875,999.51171875,-379.39453125,999.51171875,-1.0,0.0,1.0,0.0,2.m4v,5.0
2024-02-27 14:26:04.338039,1709040364.3380394,335.44921875,228.515625,-382.32421875,279.296875,-1.0,0.0,1.0,0.0,2.m4v,5.0
2024-02-27 14:26:04.341944,1709040364.3419445,-1000.0,-1000.0,-376.46484375,-1000.0,-1.0,0.0,1.0,0.0,2.m4v,5.0
2024-02-27 14:26:04.345862,1709040364.3458624,-1000.0,-990.234375,-377.9296875,-999.0234375,-1.0,0.0,1.0,0.0,2.m4v,5.0
2024-02-27 14:26:04.349768,1709040364.3497677,-961.42578125,-969.7265625,-378.41796875,-965.8203125,-1.0,0.0,1.0,0.0,2.m4v,5.0
2024-02-27 14:26:04.353673,1709040364.353673,-1000.0,-1000.0,-375.0,-1000.0,-1.0,0.0,1.0,0.0,2.m4v,5.0
2024-02-27 14:26:04.357578,1709040364.3575785,-1000.0,-1000.0,-373.53515625,-1000.0,-1.0,0.0,1.0,0.0,2.m4v,5.0
2024-02-27 14:26:04.361484,1709040364.3614836,-1000.0,-1000.0,-366.69921875,-1000.0,-1.0,0.0,1.0,0.0,2.m4v,5.0
2024-02-27 14:26:04.365389,1709040364.3653889,-1000.0,-1000.0,-354.00390625,-1000.0,-1.0,0.0,1.0,0.0,2.m4v,5.0
2024-02-27 14:26:04.369294,1709040364.369294,-1000.0,-1000.0,-357.91015625,-1000.0,-1.0,0.0,1.0,0.0,2.m4v,5.0
2024-02-27 14:26:04.373199,1709040364.3731992,-1000.0,-1000.0,-351.5625,-1000.0,-1.0,0.0,1.0,0.0,2.m4v,5.0
2024-02-27 14:26:04.377105,1709040364.3771043,-1000.0,-1000.0,-333.0078125,-1000.0,-1.0,0.0,1.0,0.0,2.m4v,5.0
2024-02-27 14:26:04.381010,1709040364.3810098,-1000.0,-1000.0,-323.2421875,-1000.0,-1.0,0.0,1.0,0.0,2.m4v,5.0
2024-02-27 14:26:04.384915,1709040364.384915,-1000.0,-1000.0,-325.1953125,-1000.0,-1.0,0.0,1.0,0.0,2.m4v,5.0
2024-02-27 14:26:04.388820,1709040364.3888204,-1000.0,-1000.0,-325.1953125,-1000.0,-1.0,0.0,1.0,0.0,2.m4v,5.0
2024-02-27 14:26:04.392738,1709040364.392738,-1000.0,-1000.0,-317.3828125,-1000.0,-1.0,0.0,1.0,0.0,2.m4v,5.0
2024-02-27 14:26:04.396643,1709040364.3966432,-1000.0,-1000.0,-311.5234375,-1000.0,-1.0,0.0,1.0,0.0,2.m4v,5.0
2024-02-27 14:26:04.400548,1709040364.4005485,-929.6875,-929.6875,-308.59375,-932.6171875,-1.0,0.0,1.0,0.0,2.m4v,5.0
2024-02-27 14:26:04.404454,1709040364.4044538,-1000.0,-1000.0,-305.6640625,-1000.0,-1.0,0.0,1.0,0.0,2.m4v,5.0
2024-02-27 14:26:04.408359,1709040364.408359,-360.83984375,-362.3046875,-292.48046875,-312.01171875,-1.0,0.0,1.0,0.0,2.m4v,5.0
2024-02-27 14:26:04.412264,1709040364.4122643,987.3046875,987.79296875,-291.9921875,999.51171875,-1.0,0.0,1.0,0.0,2.m4v,5.0
2024-02-27 14:26:04.416169,1709040364.4161694,976.5625,977.5390625,-302.734375,969.23828125,-1.0,0.0,1.0,0.0,2.m4v,5.0
2024-02-27 14:26:04.420075,1709040364.4200747,930.17578125,930.6640625,-303.7109375,935.05859375,-1.0,0.0,1.0,0.0,2.m4v,5.0
2024-02-27 14:26:04.423980,1709040364.42398,979.4921875,980.46875,-311.03515625,979.00390625,-1.0,0.0,1.0,0.0,2.m4v,5.0
2024-02-27 14:26:04.427885,1709040364.4278853,969.23828125,969.7265625,-313.96484375,969.7265625,-1.0,0.0,1.0,0.0,2.m4v,5.0
2024-02-27 14:26:04.431791,1709040364.4317906,969.23828125,969.7265625,-287.59765625,969.7265625,-1.0,0.0,1.0,0.0,2.m4v,5.0
2024-02-27 14:26:04.435696,1709040364.435696,969.23828125,969.7265625,-276.3671875,969.7265625,-1.0,0.0,1.0,0.0,2.m4v,5.0
2024-02-27 14:26:04.439613,1709040364.439613,968.75,969.7265625,-294.43359375,969.7265625,-1.0,0.0,1.0,0.0,2.m4v,5.0
2024-02-27 14:26:04.443519,1709040364.4435186,968.75,969.7265625,-300.78125,969.7265625,-1.0,0.0,1.0,0.0,2.m4v,5.0
2024-02-27 14:26:04.447424,1709040364.447424,969.23828125,969.7265625,-283.69140625,969.7265625,-1.0,0.0,1.0,0.0,2.m4v,5.0
2024-02-27 14:26:04.451329,1709040364.4513292,969.23828125,969.7265625,-290.52734375,969.7265625,-1.0,0.0,1.0,0.0,2.m4v,5.0
2024-02-27 14:26:04.455235,1709040364.4552343,969.23828125,969.7265625,-309.08203125,969.7265625,-1.0,0.0,1.0,0.0,2.m4v,5.0
2024-02-27 14:26:04.459140,1709040364.4591396,969.23828125,969.7265625,-294.921875,969.7265625,-1.0,0.0,1.0,0.0,2.m4v,5.0
2024-02-27 14:26:04.463045,1709040364.463045,969.23828125,970.21484375,-288.0859375,969.7265625,-1.0,0.0,1.0,0.0,2.m4v,5.0
2024-02-27 14:26:04.466950,1709040364.4669502,970.703125,970.703125,-301.26953125,970.703125,-1.0,0.0,1.0,0.0,2.m4v,5.0
2024-02-27 14:26:04.470855,1709040364.4708557,904.78515625,907.2265625,-303.7109375,906.25,-1.0,0.0,1.0,0.0,2.m4v,5.0
2024-02-27 14:26:04.474761,1709040364.4747608,999.51171875,999.51171875,-309.5703125,999.51171875,-1.0,0.0,1.0,0.0,2.m4v,5.0
2024-02-27 14:26:04.478666,1709040364.478666,209.9609375,186.03515625,-307.12890625,196.2890625,-1.0,0.0,1.0,0.0,2.m4v,5.0
2024-02-27 14:26:04.482571,1709040364.4825714,-1000.0,-1000.0,-303.7109375,-1000.0,-1.0,0.0,1.0,0.0,2.m4v,5.0
2024-02-27 14:26:04.486488,1709040364.486488,-987.3046875,-983.3984375,-295.41015625,-985.3515625,-1.0,0.0,1.0,0.0,2.m4v,5.0
2024-02-27 14:26:04.490393,1709040364.4903932,-971.19140625,-973.14453125,-284.1796875,-972.16796875,-1.0,0.0,1.0,0.0,2.m4v,5.0
2024-02-27 14:26:04.494298,1709040364.4942985,-1000.0,-1000.0,-285.15625,-1000.0,-1.0,0.0,1.0,0.0,2.m4v,5.0
2024-02-27 14:26:04.498204,1709040364.4982035,-1000.0,-1000.0,-285.64453125,-1000.0,-1.0,0.0,1.0,0.0,2.m4v,5.0
2024-02-27 14:26:04.502109,1709040364.5021088,-1000.0,-1000.0,-293.9453125,-1000.0,-1.0,0.0,1.0,0.0,2.m4v,5.0
2024-02-27 14:26:04.506014,1709040364.506014,-1000.0,-1000.0,-278.80859375,-1000.0,-1.0,0.0,1.0,0.0,2.m4v,5.0
2024-02-27 14:26:04.509919,1709040364.5099194,-1000.0,-1000.0,-275.390625,-1000.0,-1.0,0.0,1.0,0.0,2.m4v,5.0
2024-02-27 14:26:04.513825,1709040364.5138247,-1000.0,-1000.0,-287.59765625,-1000.0,-1.0,0.0,1.0,0.0,2.m4v,5.0
2024-02-27 14:26:04.517730,1709040364.51773,-1000.0,-1000.0,-279.296875,-1000.0,-1.0,0.0,1.0,0.0,2.m4v,5.0
2024-02-27 14:26:04.521635,1709040364.5216353,-1000.0,-1000.0,-284.1796875,-1000.0,-1.0,0.0,1.0,0.0,2.m4v,5.0
2024-02-27 14:26:04.529446,1709040364.529446,-1000.0,-1000.0,-289.0625,-1000.0,-1.0,0.0,1.0,0.0,2.m4v,5.0
2024-02-27 14:26:04.541173,1709040364.5411727,-948.73046875,-949.21875,-283.69140625,-944.3359375,-1.0,0.0,1.0,0.0,2.m4v,5.0
2024-02-27 14:26:04.552889,1709040364.5528886,513.18359375,504.8828125,-308.59375,595.21484375,-1.0,0.0,1.0,0.0,2.m4v,5.0
2024-02-27 14:26:05.006021,1709040365.0060208,969.23828125,969.7265625,-235.3515625,969.7265625,-1.0,0.0,1.0,0.0,2.m4v,5.0
2024-02-27 14:26:05.013831,1709040365.0138311,969.23828125,969.7265625,-238.28125,969.7265625,-1.0,0.0,1.0,0.0,2.m4v,5.0
2024-02-27 14:26:05.021642,1709040365.0216415,969.7265625,979.4921875,-249.0234375,970.703125,-1.0,0.0,1.0,0.0,2.m4v,5.0
2024-02-27 14:26:05.029452,1709040365.0294523,911.62109375,988.28125,-233.88671875,915.52734375,-1.0,0.0,1.0,0.0,2.m4v,5.0
2024-02-27 14:26:05.037263,1709040365.037263,126.953125,-396.484375,-224.609375,102.05078125,-1.0,0.0,1.0,0.0,2.m4v,5.0
2024-02-27 14:26:05.045073,1709040365.0450733,-975.5859375,-936.5234375,-211.42578125,-972.65625,-1.0,0.0,1.0,0.0,2.m4v,5.0
2024-02-27 14:26:05.052897,1709040365.052897,-1000.0,-1000.0,-226.07421875,-1000.0,-1.0,0.0,1.0,0.0,2.m4v,5.0
2024-02-27 14:26:05.060707,1709040365.060707,-1000.0,-1000.0,-229.98046875,-1000.0,-1.0,0.0,1.0,0.0,2.m4v,5.0
2024-02-27 14:26:05.068518,1709040365.068518,-1000.0,-1000.0,-228.02734375,-1000.0,-1.0,0.0,1.0,0.0,2.m4v,5.0
2024-02-27 14:26:05.076329,1709040365.0763285,-1000.0,-1000.0,-248.53515625,-1000.0,-1.0,0.0,1.0,0.0,2.m4v,5.0
2024-02-27 14:26:05.084139,1709040365.084139,-937.5,-937.5,-236.328125,-951.66015625,-1.0,0.0,1.0,0.0,2.m4v,5.0
2024-02-27 14:26:05.091949,1709040365.0919497,-219.7265625,-219.7265625,-226.5625,-99.609375,-1.0,0.0,1.0,0.0,2.m4v,5.0
2024-02-27 14:26:05.099772,1709040365.0997725,952.63671875,953.125,-247.0703125,940.91796875,-1.0,0.0,1.0,0.0,2.m4v,5.0
2024-02-27 14:26:05.107583,1709040365.1075828,975.5859375,976.5625,-254.39453125,974.609375,-1.0,0.0,1.0,0.0,2.m4v,5.0
2024-02-27 14:26:05.115393,1709040365.1153934,969.23828125,969.7265625,-239.2578125,969.7265625,-1.0,0.0,1.0,0.0,2.m4v,5.0
2024-02-27 14:26:05.123204,1709040365.123204,969.23828125,969.7265625,-238.76953125,969.7265625,-1.0,0.0,1.0,0.0,2.m4v,5.0
2024-02-27 14:26:05.123204,1709040365.123204,969.23828125,969.7265625,-238.76953125,969.7265625,-1.0,0.0,1.0,0.0,2.m4v,5.0
2024-02-27 14:26:05.131015,1709040365.1310146,969.23828125,969.7265625,-239.2578125,969.7265625,-1.0,0.0,1.0,0.0,2.m4v,5.0
2024-02-27 14:26:05.131015,1709040365.1310146,969.23828125,969.7265625,-239.2578125,969.7265625,-1.0,0.0,1.0,0.0,2.m4v,5.0
2024-02-27 14:26:05.138825,1709040365.1388252,969.23828125,969.7265625,-243.1640625,969.7265625,-1.0,0.0,1.0,0.0,2.m4v,5.0
2024-02-27 14:26:05.138825,1709040365.1388252,969.23828125,969.7265625,-243.1640625,969.7265625,-1.0,0.0,1.0,0.0,2.m4v,5.0
2024-02-27 14:26:05.146648,1709040365.146648,982.421875,976.07421875,-230.46875,980.46875,-1.0,0.0,1.0,0.0,2.m4v,5.0
2024-02-27 14:26:05.146648,1709040365.146648,982.421875,976.07421875,-230.46875,980.46875,-1.0,0.0,1.0,0.0,2.m4v,5.0
2024-02-27 14:26:05.154458,1709040365.1544583,999.51171875,999.51171875,-229.98046875,999.51171875,-1.0,0.0,1.0,0.0,2.m4v,5.0
2024-02-27 14:26:05.154458,1709040365.1544583,999.51171875,999.51171875,-229.98046875,999.51171875,-1.0,0.0,1.0,0.0,2.m4v,5.0
2024-02-27 14:26:05.162269,1709040365.1622689,-944.3359375,-1000.0,-221.19140625,-973.14453125,-1.0,0.0,1.0,0.0,2.m4v,5.0
2024-02-27 14:26:05.162269,1709040365.1622689,-944.3359375,-1000.0,-221.19140625,-973.14453125,-1.0,0.0,1.0,0.0,2.m4v,5.0
2024-02-27 14:26:05.170079,1709040365.1700797,-949.70703125,-963.8671875,-583.49609375,-954.58984375,-1.0,0.0,1.0,0.0,2.m4v,5.0
2024-02-27 14:26:05.170079,1709040365.1700797,-949.70703125,-963.8671875,-583.49609375,-954.58984375,-1.0,0.0,1.0,0.0,2.m4v,5.0
2024-02-27 14:26:05.177890,1709040365.17789,-1000.0,-1000.0,-584.47265625,-1000.0,-1.0,0.0,1.0,0.0,2.m4v,5.0
2024-02-27 14:26:05.177890,1709040365.17789,-1000.0,-1000.0,-584.47265625,-1000.0,-1.0,0.0,1.0,0.0,2.m4v,5.0
2024-02-27 14:26:05.185701,1709040365.185701,-1000.0,-1000.0,-548.33984375,-1000.0,-1.0,0.0,1.0,0.0,2.m4v,5.0
2024-02-27 14:26:05.185701,1709040365.185701,-1000.0,-1000.0,-548.33984375,-1000.0,-1.0,0.0,1.0,0.0,2.m4v,5.0
2024-02-27 14:26:05.193523,1709040365.193523,-1000.0,-1000.0,-492.1875,-1000.0,-1.0,0.0,1.0,0.0,2.m4v,5.0
2024-02-27 14:26:05.193523,1709040365.193523,-1000.0,-1000.0,-492.1875,-1000.0,-1.0,0.0,1.0,0.0,2.m4v,5.0
2024-02-27 14:26:05.201334,1709040365.2013335,-929.19921875,-937.98828125,-461.42578125,-931.640625,-1.0,0.0,1.0,0.0,2.m4v,5.0
2024-02-27 14:26:05.201334,1709040365.2013335,-929.19921875,-937.98828125,-461.42578125,-931.640625,-1.0,0.0,1.0,0.0,2.m4v,5.0
2024-02-27 14:26:05.209144,1709040365.209144,-369.62890625,-214.84375,-441.40625,-330.56640625,-1.0,0.0,1.0,0.0,2.m4v,5.0
2024-02-27 14:26:05.209144,1709040365.209144,-369.62890625,-214.84375,-441.40625,-330.56640625,-1.0,0.0,1.0,0.0,2.m4v,5.0
2024-02-27 14:26:05.216954,1709040365.2169545,978.02734375,952.63671875,-430.6640625,972.16796875,-1.0,0.0,1.0,0.0,2.m4v,5.0
2024-02-27 14:26:05.216954,1709040365.2169545,978.02734375,952.63671875,-430.6640625,972.16796875,-1.0,0.0,1.0,0.0,2.m4v,5.0
2024-02-27 14:26:05.224765,1709040365.224765,979.98046875,976.5625,-407.2265625,979.98046875,-1.0,0.0,1.0,0.0,2.m4v,5.0
2024-02-27 14:26:05.224765,1709040365.224765,979.98046875,976.5625,-407.2265625,979.98046875,-1.0,0.0,1.0,0.0,2.m4v,5.0
2024-02-27 14:26:05.232576,1709040365.2325757,969.23828125,969.7265625,-370.60546875,969.7265625,-1.0,0.0,1.0,0.0,2.m4v,5.0
2024-02-27 14:26:05.232576,1709040365.2325757,969.23828125,969.7265625,-370.60546875,969.7265625,-1.0,0.0,1.0,0.0,2.m4v,5.0
2024-02-27 14:26:05.240397,1709040365.2403977,969.23828125,969.7265625,-342.7734375,970.21484375,-1.0,0.0,1.0,0.0,2.m4v,5.0
2024-02-27 14:26:05.240397,1709040365.2403977,969.23828125,969.7265625,-342.7734375,970.21484375,-1.0,0.0,1.0,0.0,2.m4v,5.0
2024-02-27 14:26:05.248208,1709040365.248208,974.609375,978.515625,-326.171875,979.00390625,-1.0,0.0,1.0,0.0,2.m4v,5.0
2024-02-27 14:26:05.248208,1709040365.248208,974.609375,978.515625,-326.171875,979.00390625,-1.0,0.0,1.0,0.0,2.m4v,5.0
2024-02-27 14:26:05.256019,1709040365.2560186,946.77734375,973.14453125,-339.84375,997.0703125,-1.0,0.0,1.0,0.0,2.m4v,5.0
2024-02-27 14:26:05.256019,1709040365.2560186,946.77734375,973.14453125,-339.84375,997.0703125,-1.0,0.0,1.0,0.0,2.m4v,5.0
2024-02-27 14:26:05.263829,1709040365.2638292,-175.29296875,-321.77734375,-322.265625,-436.5234375,-1.0,0.0,1.0,0.0,2.m4v,5.0
2024-02-27 14:26:05.263829,1709040365.2638292,-175.29296875,-321.77734375,-322.265625,-436.5234375,-1.0,0.0,1.0,0.0,2.m4v,5.0
2024-02-27 14:26:05.287272,1709040365.2872722,-1000.0,-1000.0,-279.78515625,-1000.0,-1.0,0.0,1.0,0.0,2.m4v,5.0
2024-02-27 14:26:05.291178,1709040365.2911775,-1000.0,-1000.0,-273.92578125,-1000.0,-1.0,0.0,1.0,0.0,2.m4v,5.0
2024-02-27 14:26:05.295083,1709040365.2950828,-1000.0,-928.7109375,-274.90234375,-1000.0,-1.0,0.0,1.0,0.0,2.m4v,5.0
2024-02-27 14:26:05.298988,1709040365.298988,-931.15234375,-1000.0,-270.99609375,-933.10546875,-1.0,0.0,1.0,0.0,2.m4v,5.0
2024-02-27 14:26:05.302893,1709040365.3028934,-1000.0,-560.05859375,-259.27734375,-1000.0,-1.0,0.0,1.0,0.0,2.m4v,5.0
2024-02-27 14:26:05.306798,1709040365.3067985,-335.44921875,864.2578125,-249.0234375,-301.7578125,-1.0,0.0,1.0,0.0,2.m4v,5.0
2024-02-27 14:26:05.310704,1709040365.3107038,997.55859375,999.51171875,-250.9765625,999.51171875,-1.0,0.0,1.0,0.0,2.m4v,5.0
2024-02-27 14:26:05.314609,1709040365.314609,972.16796875,916.015625,-242.67578125,967.28515625,-1.0,0.0,1.0,0.0,2.m4v,5.0
2024-02-27 14:26:05.318514,1709040365.3185143,932.6171875,984.375,-226.07421875,935.546875,-1.0,0.0,1.0,0.0,2.m4v,5.0
2024-02-27 14:26:05.322420,1709040365.3224196,979.00390625,969.7265625,-233.3984375,979.00390625,-1.0,0.0,1.0,0.0,2.m4v,5.0
2024-02-27 14:26:05.326325,1709040365.326325,969.23828125,969.7265625,-234.375,969.7265625,-1.0,0.0,1.0,0.0,2.m4v,5.0
2024-02-27 14:26:05.330244,1709040365.3302438,969.23828125,969.7265625,-231.4453125,969.7265625,-1.0,0.0,1.0,0.0,2.m4v,5.0
2024-02-27 14:26:05.334149,1709040365.3341491,969.23828125,969.7265625,-230.46875,969.7265625,-1.0,0.0,1.0,0.0,2.m4v,5.0
2024-02-27 14:26:05.338054,1709040365.3380544,969.23828125,969.7265625,-231.4453125,969.7265625,-1.0,0.0,1.0,0.0,2.m4v,5.0
2024-02-27 14:26:05.341960,1709040365.3419597,969.23828125,969.7265625,-229.00390625,969.7265625,-1.0,0.0,1.0,0.0,2.m4v,5.0
2024-02-27 14:26:05.345865,1709040365.345865,978.02734375,983.88671875,-218.75,980.46875,-1.0,0.0,1.0,0.0,2.m4v,5.0
2024-02-27 14:26:05.349770,1709040365.3497703,934.08203125,905.76171875,-216.796875,924.8046875,-1.0,0.0,1.0,0.0,2.m4v,5.0
2024-02-27 14:26:05.353675,1709040365.3536754,972.16796875,999.51171875,-215.33203125,999.51171875,-1.0,0.0,1.0,0.0,2.m4v,5.0
2024-02-27 14:26:05.357581,1709040365.357581,984.375,673.33984375,-209.47265625,895.01953125,-1.0,0.0,1.0,0.0,2.m4v,5.0
2024-02-27 14:26:05.361486,1709040365.361486,-321.77734375,-746.09375,-214.84375,-455.078125,-1.0,0.0,1.0,0.0,2.m4v,5.0
2024-02-27 14:26:05.365391,1709040365.3653913,-1000.0,-1000.0,-230.95703125,-1000.0,-1.0,0.0,1.0,0.0,2.m4v,5.0
2024-02-27 14:26:05.369297,1709040365.3692966,-935.546875,-939.94140625,-244.62890625,-935.546875,-1.0,0.0,1.0,0.0,2.m4v,5.0
2024-02-27 14:26:05.373202,1709040365.3732018,-1000.0,-1000.0,-242.67578125,-1000.0,-1.0,0.0,1.0,0.0,2.m4v,5.0
2024-02-27 14:26:05.377120,1709040365.3771205,-1000.0,-1000.0,-240.234375,-1000.0,-1.0,0.0,1.0,0.0,2.m4v,5.0
2024-02-27 14:26:05.381026,1709040365.3810256,-1000.0,-1000.0,-244.62890625,-1000.0,-1.0,0.0,1.0,0.0,2.m4v,5.0
2024-02-27 14:26:05.384931,1709040365.3849308,-1000.0,-1000.0,-242.67578125,-1000.0,-1.0,0.0,1.0,0.0,2.m4v,5.0
2024-02-27 14:26:05.388836,1709040365.388836,-1000.0,-1000.0,-229.00390625,-1000.0,-1.0,0.0,1.0,0.0,2.m4v,5.0
2024-02-27 14:26:05.392741,1709040365.3927414,-1000.0,-1000.0,-225.09765625,-1000.0,-1.0,0.0,1.0,0.0,2.m4v,5.0
2024-02-27 14:26:05.396647,1709040365.3966467,-1000.0,-1000.0,-235.3515625,-1000.0,-1.0,0.0,1.0,0.0,2.m4v,5.0
2024-02-27 14:26:05.400552,1709040365.400552,-1000.0,-1000.0,-231.93359375,-1000.0,-1.0,0.0,1.0,0.0,2.m4v,5.0
2024-02-27 14:26:05.404457,1709040365.404457,-1000.0,-1000.0,-232.91015625,-1000.0,-1.0,0.0,1.0,0.0,2.m4v,5.0
2024-02-27 14:26:05.408363,1709040365.4083626,-1000.0,-1000.0,-234.86328125,-1000.0,-1.0,0.0,1.0,0.0,2.m4v,5.0
2024-02-27 14:26:05.412268,1709040365.412268,-1000.0,-1000.0,-237.79296875,-1000.0,-1.0,0.0,1.0,0.0,2.m4v,5.0
2024-02-27 14:26:05.416173,1709040365.416173,-1000.0,-1000.0,-242.67578125,-1000.0,-1.0,0.0,1.0,0.0,2.m4v,5.0
2024-02-27 14:26:05.420078,1709040365.4200785,-964.84375,-972.16796875,-234.86328125,-954.1015625,-1.0,0.0,1.0,0.0,2.m4v,5.0
2024-02-27 14:26:05.423997,1709040365.4239967,-1000.0,-987.3046875,-218.26171875,-1000.0,-1.0,0.0,1.0,0.0,2.m4v,5.0
2024-02-27 14:26:05.427902,1709040365.427902,-1000.0,-1000.0,-209.9609375,-900.87890625,-1.0,0.0,1.0,0.0,2.m4v,5.0
2024-02-27 14:26:05.431807,1709040365.4318073,296.875,201.66015625,-218.26171875,448.73046875,-1.0,0.0,1.0,0.0,2.m4v,5.0
2024-02-27 14:26:05.435713,1709040365.4357126,999.51171875,999.51171875,-230.46875,999.51171875,-1.0,0.0,1.0,0.0,2.m4v,5.0
2024-02-27 14:26:05.439618,1709040365.439618,904.296875,907.71484375,-241.69921875,906.73828125,-1.0,0.0,1.0,0.0,2.m4v,5.0
2024-02-27 14:26:05.443523,1709040365.443523,973.6328125,970.703125,-236.328125,977.5390625,-1.0,0.0,1.0,0.0,2.m4v,5.0
2024-02-27 14:26:05.447428,1709040365.4474282,969.23828125,970.21484375,-227.5390625,969.7265625,-1.0,0.0,1.0,0.0,2.m4v,5.0
2024-02-27 14:26:05.451334,1709040365.4513335,969.23828125,970.21484375,-223.6328125,969.7265625,-1.0,0.0,1.0,0.0,2.m4v,5.0
2024-02-27 14:26:05.455239,1709040365.4552388,969.23828125,969.7265625,-227.05078125,969.7265625,-1.0,0.0,1.0,0.0,2.m4v,5.0
2024-02-27 14:26:05.459144,1709040365.459144,969.23828125,969.7265625,-236.328125,969.7265625,-1.0,0.0,1.0,0.0,2.m4v,5.0
2024-02-27 14:26:05.463049,1709040365.4630494,968.75,969.7265625,-234.375,969.7265625,-1.0,0.0,1.0,0.0,2.m4v,5.0
2024-02-27 14:26:05.466955,1709040365.4669547,969.23828125,969.7265625,-225.09765625,969.7265625,-1.0,0.0,1.0,0.0,2.m4v,5.0
2024-02-27 14:26:05.470873,1709040365.4708726,969.23828125,969.7265625,-233.3984375,969.7265625,-1.0,0.0,1.0,0.0,2.m4v,5.0
2024-02-27 14:26:05.474778,1709040365.4747777,969.23828125,969.7265625,-243.1640625,969.7265625,-1.0,0.0,1.0,0.0,2.m4v,5.0
2024-02-27 14:26:05.478683,1709040365.478683,968.75,969.7265625,-235.83984375,969.7265625,-1.0,0.0,1.0,0.0,2.m4v,5.0
2024-02-27 14:26:05.482588,1709040365.4825883,969.23828125,970.21484375,-232.91015625,969.7265625,-1.0,0.0,1.0,0.0,2.m4v,5.0
2024-02-27 14:26:05.486494,1709040365.4864936,970.21484375,969.23828125,-229.4921875,970.703125,-1.0,0.0,1.0,0.0,2.m4v,5.0
2024-02-27 14:26:05.490399,1709040365.490399,906.25,908.69140625,-219.7265625,906.25,-1.0,0.0,1.0,0.0,2.m4v,5.0
2024-02-27 14:26:05.494304,1709040365.4943042,999.51171875,999.51171875,-220.703125,999.51171875,-1.0,0.0,1.0,0.0,2.m4v,5.0
2024-02-27 14:26:05.498209,1709040365.4982097,194.82421875,168.9453125,-225.5859375,193.359375,-1.0,0.0,1.0,0.0,2.m4v,5.0
2024-02-27 14:26:05.502115,1709040365.5021148,-1000.0,-1000.0,-219.7265625,-1000.0,-1.0,0.0,1.0,0.0,2.m4v,5.0
2024-02-27 14:26:05.506020,1709040365.50602,-984.86328125,-980.95703125,-205.078125,-984.86328125,-1.0,0.0,1.0,0.0,2.m4v,5.0
2024-02-27 14:26:05.509925,1709040365.5099254,-972.65625,-974.609375,-193.84765625,-972.65625,-1.0,0.0,1.0,0.0,2.m4v,5.0
2024-02-27 14:26:05.513830,1709040365.5138304,-1000.0,-1000.0,-189.94140625,-1000.0,-1.0,0.0,1.0,0.0,2.m4v,5.0
2024-02-27 14:26:05.517748,1709040365.5177484,-1000.0,-1000.0,-186.5234375,-1000.0,-1.0,0.0,1.0,0.0,2.m4v,5.0
2024-02-27 14:26:05.521654,1709040365.5216537,-1000.0,-1000.0,-189.453125,-1000.0,-1.0,0.0,1.0,0.0,2.m4v,5.0
2024-02-27 14:26:05.525559,1709040365.525559,-1000.0,-1000.0,-195.80078125,-1000.0,-1.0,0.0,1.0,0.0,2.m4v,5.0
2024-02-27 14:26:05.529464,1709040365.5294642,-1000.0,-1000.0,-196.2890625,-1000.0,-1.0,0.0,1.0,0.0,2.m4v,5.0
2024-02-27 14:26:05.533370,1709040365.5333695,-1000.0,-1000.0,-198.2421875,-1000.0,-1.0,0.0,1.0,0.0,2.m4v,5.0
2024-02-27 14:26:05.537275,1709040365.5372748,-1000.0,-1000.0,-211.42578125,-1000.0,-1.0,0.0,1.0,0.0,2.m4v,5.0
2024-02-27 14:26:05.541180,1709040365.54118,-1000.0,-1000.0,-218.26171875,-1000.0,-1.0,0.0,1.0,0.0,2.m4v,5.0
2024-02-27 14:26:05.545085,1709040365.5450854,-1000.0,-1000.0,-208.49609375,-1000.0,-1.0,0.0,1.0,0.0,2.m4v,5.0
2024-02-27 14:26:05.548991,1709040365.5489907,-1000.0,-1000.0,-198.2421875,-1000.0,-1.0,0.0,1.0,0.0,2.m4v,5.0
2024-02-27 14:26:05.552896,1709040365.5528958,-1000.0,-1000.0,-192.87109375,-1000.0,-1.0,0.0,1.0,0.0,2.m4v,5.0
2024-02-27 14:26:05.556801,1709040365.556801,-1000.0,-1000.0,-181.15234375,-1000.0,-1.0,0.0,1.0,0.0,2.m4v,5.0
2024-02-27 14:26:05.560706,1709040365.5607064,-959.47265625,-962.890625,-170.8984375,-949.21875,-1.0,0.0,1.0,0.0,2.m4v,5.0
2024-02-27 14:26:05.564624,1709040365.5646236,-1000.0,-1000.0,-175.78125,-1000.0,-1.0,0.0,1.0,0.0,2.m4v,5.0
2024-02-27 14:26:05.568529,1709040365.568529,-971.6796875,-998.53515625,-181.640625,-850.09765625,-1.0,0.0,1.0,0.0,2.m4v,5.0
2024-02-27 14:26:05.572434,1709040365.5724342,365.234375,321.2890625,-178.22265625,520.99609375,-1.0,0.0,1.0,0.0,2.m4v,5.0
2024-02-27 14:26:05.576339,1709040365.5763395,999.51171875,999.51171875,-189.94140625,999.51171875,-1.0,0.0,1.0,0.0,2.m4v,5.0
2024-02-27 14:26:05.580245,1709040365.5802443,903.3203125,904.78515625,-197.265625,906.73828125,-1.0,0.0,1.0,0.0,2.m4v,5.0
2024-02-27 14:26:05.584150,1709040365.5841498,975.5859375,975.09765625,-195.3125,979.4921875,-1.0,0.0,1.0,0.0,2.m4v,5.0
2024-02-27 14:26:06.033376,1709040366.0333755,969.23828125,969.7265625,-167.48046875,969.7265625,-1.0,0.0,1.0,0.0,2.m4v,5.0
2024-02-27 14:26:06.041186,1709040366.041186,968.75,969.7265625,-154.78515625,970.21484375,-1.0,0.0,1.0,0.0,2.m4v,5.0
2024-02-27 14:26:06.052902,1709040366.052902,907.71484375,911.1328125,-142.08984375,923.828125,-1.0,0.0,1.0,0.0,2.m4v,5.0
2024-02-27 14:26:06.060713,1709040366.0607126,171.875,140.625,-142.578125,37.59765625,-1.0,0.0,1.0,0.0,2.m4v,5.0
2024-02-27 14:26:06.072428,1709040366.0724282,-974.12109375,-976.5625,-134.27734375,-983.3984375,-1.0,0.0,1.0,0.0,2.m4v,5.0
2024-02-27 14:26:06.080249,1709040366.0802493,-1000.0,-1000.0,-140.13671875,-1000.0,-1.0,0.0,1.0,0.0,2.m4v,5.0
2024-02-27 14:26:06.091965,1709040366.0919652,-1000.0,-1000.0,-141.6015625,-1000.0,-1.0,0.0,1.0,0.0,2.m4v,5.0
2024-02-27 14:26:06.099776,1709040366.0997756,-1000.0,-1000.0,-145.5078125,-1000.0,-1.0,0.0,1.0,0.0,2.m4v,5.0
2024-02-27 14:26:06.111491,1709040366.1114914,-1000.0,-1000.0,-144.53125,-1000.0,-1.0,0.0,1.0,0.0,2.m4v,5.0
2024-02-27 14:26:06.119302,1709040366.119302,-1000.0,-1000.0,-135.7421875,-970.21484375,-1.0,0.0,1.0,0.0,2.m4v,5.0
2024-02-27 14:26:06.131029,1709040366.131029,999.51171875,962.890625,-140.13671875,999.51171875,-1.0,0.0,1.0,0.0,2.m4v,5.0
2024-02-27 14:26:06.138839,1709040366.138839,970.703125,978.02734375,-154.78515625,962.40234375,-1.0,0.0,1.0,0.0,2.m4v,5.0
2024-02-27 14:26:06.150555,1709040366.150555,969.23828125,969.7265625,-140.13671875,969.7265625,-1.0,0.0,1.0,0.0,2.m4v,5.0
2024-02-27 14:26:06.158365,1709040366.1583655,968.75,969.7265625,-143.5546875,969.7265625,-1.0,0.0,1.0,0.0,2.m4v,5.0
2024-02-27 14:26:06.170081,1709040366.1700814,973.6328125,973.14453125,-144.04296875,974.609375,-1.0,0.0,1.0,0.0,2.m4v,5.0
2024-02-27 14:26:06.177905,1709040366.1779048,940.91796875,931.640625,-149.90234375,996.58203125,-1.0,0.0,1.0,0.0,2.m4v,5.0
2024-02-27 14:26:06.189620,1709040366.1896205,-1000.0,-1000.0,-155.2734375,-1000.0,-1.0,0.0,1.0,0.0,2.m4v,5.0
2024-02-27 14:26:06.197431,1709040366.197431,-995.1171875,-991.2109375,-149.90234375,-1000.0,-1.0,0.0,1.0,0.0,2.m4v,5.0
2024-02-27 14:26:06.209147,1709040366.209147,-1000.0,-1000.0,-150.390625,-1000.0,-1.0,0.0,1.0,0.0,2.m4v,5.0
2024-02-27 14:26:06.216958,1709040366.2169576,-1000.0,-1000.0,-151.85546875,-1000.0,-1.0,0.0,1.0,0.0,2.m4v,5.0
2024-02-27 14:26:06.228686,1709040366.2286863,-1000.0,-1000.0,-143.5546875,-1000.0,-1.0,0.0,1.0,0.0,2.m4v,5.0
2024-02-27 14:26:06.236497,1709040366.236497,-1000.0,-1000.0,-139.16015625,-963.8671875,-1.0,0.0,1.0,0.0,2.m4v,5.0
2024-02-27 14:26:06.248213,1709040366.2482126,999.51171875,957.03125,-138.18359375,999.51171875,-1.0,0.0,1.0,0.0,2.m4v,5.0
2024-02-27 14:26:06.256023,1709040366.2560232,978.515625,977.05078125,-141.11328125,959.47265625,-1.0,0.0,1.0,0.0,2.m4v,5.0
2024-02-27 14:26:06.267751,1709040366.2677517,968.75,969.7265625,-159.1796875,969.7265625,-1.0,0.0,1.0,0.0,2.m4v,5.0
2024-02-27 14:26:06.275562,1709040366.275562,969.23828125,970.21484375,-163.57421875,969.7265625,-1.0,0.0,1.0,0.0,2.m4v,5.0
2024-02-27 14:26:06.287278,1709040366.2872777,981.4453125,984.375,-161.62109375,982.91015625,-1.0,0.0,1.0,0.0,2.m4v,5.0
2024-02-27 14:26:06.295088,1709040366.2950883,999.51171875,999.51171875,-141.6015625,999.51171875,-1.0,0.0,1.0,0.0,2.m4v,5.0
2024-02-27 14:26:06.306804,1709040366.3068042,-1000.0,-1000.0,-172.36328125,-1000.0,-1.0,0.0,1.0,0.0,2.m4v,5.0
2024-02-27 14:26:06.314626,1709040366.3146265,-1000.0,-1000.0,-167.96875,-1000.0,-1.0,0.0,1.0,0.0,2.m4v,5.0
2024-02-27 14:26:06.326342,1709040366.3263423,-1000.0,-1000.0,-167.48046875,-1000.0,-1.0,0.0,1.0,0.0,2.m4v,5.0
2024-02-27 14:26:06.334153,1709040366.334153,-1000.0,-1000.0,-154.296875,-1000.0,-1.0,0.0,1.0,0.0,2.m4v,5.0
2024-02-27 14:26:06.345869,1709040366.3458686,-1000.0,-1000.0,-156.73828125,-1000.0,-1.0,0.0,1.0,0.0,2.m4v,5.0
2024-02-27 14:26:06.353679,1709040366.3536792,-975.5859375,-927.24609375,-178.7109375,-989.74609375,-1.0,0.0,1.0,0.0,2.m4v,5.0
2024-02-27 14:26:06.365407,1709040366.3654068,153.3203125,888.18359375,-170.8984375,-44.921875,-1.0,0.0,1.0,0.0,2.m4v,5.0
2024-02-27 14:26:06.365407,1709040366.3654068,153.3203125,888.18359375,-170.8984375,-44.921875,-1.0,0.0,1.0,0.0,2.m4v,5.0
2024-02-27 14:26:06.373217,1709040366.373217,914.0625,917.48046875,-154.296875,931.640625,-1.0,0.0,1.0,0.0,2.m4v,5.0
2024-02-27 14:26:06.373217,1709040366.373217,914.0625,917.48046875,-154.296875,931.640625,-1.0,0.0,1.0,0.0,2.m4v,5.0
2024-02-27 14:26:06.384933,1709040366.3849332,968.75,969.7265625,-148.4375,969.7265625,-1.0,0.0,1.0,0.0,2.m4v,5.0
2024-02-27 14:26:06.384933,1709040366.3849332,968.75,969.7265625,-148.4375,969.7265625,-1.0,0.0,1.0,0.0,2.m4v,5.0
2024-02-27 14:26:06.392744,1709040366.3927438,969.23828125,969.7265625,-151.85546875,969.7265625,-1.0,0.0,1.0,0.0,2.m4v,5.0
2024-02-27 14:26:06.392744,1709040366.3927438,969.23828125,969.7265625,-151.85546875,969.7265625,-1.0,0.0,1.0,0.0,2.m4v,5.0
2024-02-27 14:26:06.404459,1709040366.4044597,969.23828125,969.7265625,-151.85546875,969.7265625,-1.0,0.0,1.0,0.0,2.m4v,5.0
2024-02-27 14:26:06.404459,1709040366.4044597,969.23828125,969.7265625,-151.85546875,969.7265625,-1.0,0.0,1.0,0.0,2.m4v,5.0
2024-02-27 14:26:06.412281,1709040366.4122813,969.23828125,969.7265625,-115.234375,969.7265625,-1.0,0.0,1.0,0.0,2.m4v,5.0
2024-02-27 14:26:06.412281,1709040366.4122813,969.23828125,969.7265625,-115.234375,969.7265625,-1.0,0.0,1.0,0.0,2.m4v,5.0
2024-02-27 14:26:06.423997,1709040366.4239972,971.19140625,964.84375,-125.0,972.65625,-1.0,0.0,1.0,0.0,2.m4v,5.0
2024-02-27 14:26:06.423997,1709040366.4239972,971.19140625,964.84375,-125.0,972.65625,-1.0,0.0,1.0,0.0,2.m4v,5.0
2024-02-27 14:26:06.431808,1709040366.4318078,999.51171875,999.51171875,-126.953125,999.51171875,-1.0,0.0,1.0,0.0,2.m4v,5.0
2024-02-27 14:26:06.431808,1709040366.4318078,999.51171875,999.51171875,-126.953125,999.51171875,-1.0,0.0,1.0,0.0,2.m4v,5.0
2024-02-27 14:26:06.443524,1709040366.4435236,-987.3046875,-972.16796875,-138.18359375,-990.72265625,-1.0,0.0,1.0,0.0,2.m4v,5.0
2024-02-27 14:26:06.443524,1709040366.4435236,-987.3046875,-972.16796875,-138.18359375,-990.72265625,-1.0,0.0,1.0,0.0,2.m4v,5.0
2024-02-27 14:26:06.451334,1709040366.451334,-1000.0,-1000.0,-123.53515625,-1000.0,-1.0,0.0,1.0,0.0,2.m4v,5.0
2024-02-27 14:26:06.451334,1709040366.451334,-1000.0,-1000.0,-123.53515625,-1000.0,-1.0,0.0,1.0,0.0,2.m4v,5.0
2024-02-27 14:26:06.463061,1709040366.4630606,-1000.0,-1000.0,-127.9296875,-1000.0,-1.0,0.0,1.0,0.0,2.m4v,5.0
2024-02-27 14:26:06.463061,1709040366.4630606,-1000.0,-1000.0,-127.9296875,-1000.0,-1.0,0.0,1.0,0.0,2.m4v,5.0
2024-02-27 14:26:06.470871,1709040366.4708712,-1000.0,-1000.0,-132.8125,-1000.0,-1.0,0.0,1.0,0.0,2.m4v,5.0
2024-02-27 14:26:06.470871,1709040366.4708712,-1000.0,-1000.0,-132.8125,-1000.0,-1.0,0.0,1.0,0.0,2.m4v,5.0
2024-02-27 14:26:06.482587,1709040366.4825869,-1000.0,-1000.0,-136.71875,-1000.0,-1.0,0.0,1.0,0.0,2.m4v,5.0
2024-02-27 14:26:06.482587,1709040366.4825869,-1000.0,-1000.0,-136.71875,-1000.0,-1.0,0.0,1.0,0.0,2.m4v,5.0
2024-02-27 14:26:06.490397,1709040366.4903977,-1000.0,-1000.0,-134.27734375,-1000.0,-1.0,0.0,1.0,0.0,2.m4v,5.0
2024-02-27 14:26:06.490397,1709040366.4903977,-1000.0,-1000.0,-134.27734375,-1000.0,-1.0,0.0,1.0,0.0,2.m4v,5.0
2024-02-27 14:26:06.502127,1709040366.5021267,-927.24609375,-927.734375,-161.62109375,-928.7109375,-1.0,0.0,1.0,0.0,2.m4v,5.0
2024-02-27 14:26:06.502127,1709040366.5021267,-927.24609375,-927.734375,-161.62109375,-928.7109375,-1.0,0.0,1.0,0.0,2.m4v,5.0
2024-02-27 14:26:06.509937,1709040366.509937,-589.84375,-617.1875,-138.671875,-496.09375,-1.0,0.0,1.0,0.0,2.m4v,5.0
2024-02-27 14:26:06.509937,1709040366.509937,-589.84375,-617.1875,-138.671875,-496.09375,-1.0,0.0,1.0,0.0,2.m4v,5.0
2024-02-27 14:26:06.517748,1709040366.5177476,999.51171875,999.51171875,-148.4375,999.51171875,-1.0,0.0,1.0,0.0,2.m4v,5.0
2024-02-27 14:26:06.521653,1709040366.521653,912.59765625,911.62109375,-136.23046875,920.41015625,-1.0,0.0,1.0,0.0,2.m4v,5.0
2024-02-27 14:26:06.525558,1709040366.5255582,984.375,985.3515625,-130.37109375,983.3984375,-1.0,0.0,1.0,0.0,2.m4v,5.0
2024-02-27 14:26:06.529464,1709040366.5294635,968.75,969.7265625,-123.53515625,969.7265625,-1.0,0.0,1.0,0.0,2.m4v,5.0
2024-02-27 14:26:06.533369,1709040366.5333688,969.23828125,969.7265625,-118.1640625,969.7265625,-1.0,0.0,1.0,0.0,2.m4v,5.0
2024-02-27 14:26:06.537274,1709040366.537274,969.23828125,969.7265625,-124.51171875,969.7265625,-1.0,0.0,1.0,0.0,2.m4v,5.0
2024-02-27 14:26:06.541179,1709040366.5411794,969.23828125,969.7265625,-138.671875,969.7265625,-1.0,0.0,1.0,0.0,2.m4v,5.0
2024-02-27 14:26:06.545085,1709040366.5450847,969.23828125,969.7265625,-140.625,969.7265625,-1.0,0.0,1.0,0.0,2.m4v,5.0
2024-02-27 14:26:06.549003,1709040366.549003,969.23828125,969.7265625,-122.55859375,969.7265625,-1.0,0.0,1.0,0.0,2.m4v,5.0
2024-02-27 14:26:06.552908,1709040366.552908,969.23828125,969.7265625,-106.4453125,969.7265625,-1.0,0.0,1.0,0.0,2.m4v,5.0
2024-02-27 14:26:06.556813,1709040366.5568132,968.75,969.7265625,-106.4453125,969.7265625,-1.0,0.0,1.0,0.0,2.m4v,5.0
2024-02-27 14:26:06.560719,1709040366.5607183,969.23828125,969.7265625,-115.234375,969.7265625,-1.0,0.0,1.0,0.0,2.m4v,5.0
2024-02-27 14:26:06.564624,1709040366.5646238,984.375,972.65625,-111.328125,983.88671875,-1.0,0.0,1.0,0.0,2.m4v,5.0
2024-02-27 14:26:06.568529,1709040366.5685291,898.4375,904.78515625,-101.5625,899.90234375,-1.0,0.0,1.0,0.0,2.m4v,5.0
2024-02-27 14:26:06.572434,1709040366.5724344,999.51171875,999.51171875,-106.4453125,999.51171875,-1.0,0.0,1.0,0.0,2.m4v,5.0
2024-02-27 14:26:06.576340,1709040366.5763395,617.1875,227.05078125,-114.74609375,587.890625,-1.0,0.0,1.0,0.0,2.m4v,5.0
2024-02-27 14:26:06.580245,1709040366.580245,-827.63671875,-1000.0,-113.28125,-844.23828125,-1.0,0.0,1.0,0.0,2.m4v,5.0
2024-02-27 14:26:06.584150,1709040366.5841503,-1000.0,-990.234375,-114.2578125,-1000.0,-1.0,0.0,1.0,0.0,2.m4v,5.0
2024-02-27 14:26:06.588056,1709040366.5880556,-940.91796875,-969.7265625,-105.46875,-943.359375,-1.0,0.0,1.0,0.0,2.m4v,5.0
2024-02-27 14:26:06.591961,1709040366.591961,-1000.0,-1000.0,-103.02734375,-1000.0,-1.0,0.0,1.0,0.0,2.m4v,5.0
2024-02-27 14:26:06.595879,1709040366.5958786,-1000.0,-1000.0,-110.83984375,-1000.0,-1.0,0.0,1.0,0.0,2.m4v,5.0
2024-02-27 14:26:06.599784,1709040366.599784,-1000.0,-1000.0,-116.69921875,-1000.0,-1.0,0.0,1.0,0.0,2.m4v,5.0
2024-02-27 14:26:06.603689,1709040366.6036892,-1000.0,-1000.0,-112.3046875,-1000.0,-1.0,0.0,1.0,0.0,2.m4v,5.0
2024-02-27 14:26:06.607594,1709040366.6075945,-1000.0,-1000.0,-104.00390625,-1000.0,-1.0,0.0,1.0,0.0,2.m4v,5.0
2024-02-27 14:26:06.611500,1709040366.6114998,-1000.0,-1000.0,-106.93359375,-1000.0,-1.0,0.0,1.0,0.0,2.m4v,5.0
2024-02-27 14:26:06.615405,1709040366.615405,-1000.0,-1000.0,-115.234375,-1000.0,-1.0,0.0,1.0,0.0,2.m4v,5.0
2024-02-27 14:26:07.017757,1709040367.0177574,968.75,969.7265625,-102.05078125,969.7265625,-1.0,0.0,1.0,0.0,2.m4v,5.0
2024-02-27 14:26:07.021663,1709040367.0216627,969.23828125,969.7265625,-98.6328125,969.7265625,-1.0,0.0,1.0,0.0,2.m4v,5.0
2024-02-27 14:26:07.025568,1709040367.025568,969.23828125,969.7265625,-89.35546875,969.7265625,-1.0,0.0,1.0,0.0,2.m4v,5.0
2024-02-27 14:26:07.029473,1709040367.029473,973.14453125,976.07421875,-89.35546875,976.07421875,-1.0,0.0,1.0,0.0,2.m4v,5.0
2024-02-27 14:26:07.033378,1709040367.0333784,951.66015625,942.87109375,-96.6796875,939.453125,-1.0,0.0,1.0,0.0,2.m4v,5.0
2024-02-27 14:26:07.037284,1709040367.0372837,935.05859375,954.58984375,-108.88671875,969.7265625,-1.0,0.0,1.0,0.0,2.m4v,5.0
2024-02-27 14:26:07.041189,1709040367.041189,999.51171875,999.51171875,-117.67578125,959.9609375,-1.0,0.0,1.0,0.0,2.m4v,5.0
2024-02-27 14:26:07.045094,1709040367.0450945,-92.28515625,-213.37890625,-89.84375,-275.390625,-1.0,0.0,1.0,0.0,2.m4v,5.0
2024-02-27 14:26:07.049000,1709040367.0489995,-1000.0,-1000.0,-65.91796875,-1000.0,-1.0,0.0,1.0,0.0,2.m4v,5.0
2024-02-27 14:26:07.052905,1709040367.0529048,-949.21875,-940.91796875,-73.73046875,-946.2890625,-1.0,0.0,1.0,0.0,2.m4v,5.0
2024-02-27 14:26:07.056810,1709040367.05681,-993.1640625,-999.51171875,-89.84375,-999.0234375,-1.0,0.0,1.0,0.0,2.m4v,5.0
2024-02-27 14:26:07.060715,1709040367.0607154,-1000.0,-1000.0,-88.37890625,-1000.0,-1.0,0.0,1.0,0.0,2.m4v,5.0
2024-02-27 14:26:07.064632,1709040367.0646324,-1000.0,-1000.0,-83.984375,-1000.0,-1.0,0.0,1.0,0.0,2.m4v,5.0
2024-02-27 14:26:07.068538,1709040367.0685377,-1000.0,-1000.0,-81.54296875,-1000.0,-1.0,0.0,1.0,0.0,2.m4v,5.0
2024-02-27 14:26:07.072443,1709040367.072443,-1000.0,-1000.0,-81.54296875,-1000.0,-1.0,0.0,1.0,0.0,2.m4v,5.0
2024-02-27 14:26:07.076348,1709040367.0763483,-1000.0,-1000.0,-80.56640625,-1000.0,-1.0,0.0,1.0,0.0,2.m4v,5.0
2024-02-27 14:26:07.080254,1709040367.0802536,-959.47265625,-928.22265625,-71.2890625,-950.68359375,-1.0,0.0,1.0,0.0,2.m4v,5.0
2024-02-27 14:26:07.084159,1709040367.084159,-1000.0,-1000.0,-69.82421875,-1000.0,-1.0,0.0,1.0,0.0,2.m4v,5.0
2024-02-27 14:26:07.088064,1709040367.0880642,-971.6796875,-440.91796875,-75.1953125,-880.859375,-1.0,0.0,1.0,0.0,2.m4v,5.0
2024-02-27 14:26:07.091969,1709040367.0919693,364.2578125,945.80078125,-80.078125,492.1875,-1.0,0.0,1.0,0.0,2.m4v,5.0
2024-02-27 14:26:07.095875,1709040367.0958743,999.51171875,992.67578125,-86.9140625,999.51171875,-1.0,0.0,1.0,0.0,2.m4v,5.0
2024-02-27 14:26:07.099780,1709040367.0997798,903.3203125,924.8046875,-89.84375,905.2734375,-1.0,0.0,1.0,0.0,2.m4v,5.0
2024-02-27 14:26:07.103685,1709040367.1036851,975.5859375,982.421875,-84.47265625,979.4921875,-1.0,0.0,1.0,0.0,2.m4v,5.0
2024-02-27 14:26:07.103685,1709040367.1036851,975.5859375,982.421875,-84.47265625,979.4921875,-1.0,0.0,1.0,0.0,2.m4v,5.0
2024-02-27 14:26:07.107590,1709040367.1075904,969.23828125,969.7265625,-74.21875,969.7265625,-1.0,0.0,1.0,0.0,2.m4v,5.0
2024-02-27 14:26:07.107590,1709040367.1075904,969.23828125,969.7265625,-74.21875,969.7265625,-1.0,0.0,1.0,0.0,2.m4v,5.0
2024-02-27 14:26:07.111507,1709040367.1115072,969.23828125,969.7265625,-75.68359375,969.7265625,-1.0,0.0,1.0,0.0,2.m4v,5.0
2024-02-27 14:26:07.111507,1709040367.1115072,969.23828125,969.7265625,-75.68359375,969.7265625,-1.0,0.0,1.0,0.0,2.m4v,5.0
2024-02-27 14:26:07.115412,1709040367.1154125,969.23828125,969.7265625,-86.42578125,969.7265625,-1.0,0.0,1.0,0.0,2.m4v,5.0
2024-02-27 14:26:07.115412,1709040367.1154125,969.23828125,969.7265625,-86.42578125,969.7265625,-1.0,0.0,1.0,0.0,2.m4v,5.0
2024-02-27 14:26:07.119318,1709040367.1193178,968.75,969.7265625,-89.35546875,969.7265625,-1.0,0.0,1.0,0.0,2.m4v,5.0
2024-02-27 14:26:07.119318,1709040367.1193178,968.75,969.7265625,-89.35546875,969.7265625,-1.0,0.0,1.0,0.0,2.m4v,5.0
2024-02-27 14:26:07.123223,1709040367.123223,969.23828125,969.7265625,-90.33203125,969.7265625,-1.0,0.0,1.0,0.0,2.m4v,5.0
2024-02-27 14:26:07.123223,1709040367.123223,969.23828125,969.7265625,-90.33203125,969.7265625,-1.0,0.0,1.0,0.0,2.m4v,5.0
2024-02-27 14:26:07.127128,1709040367.1271284,969.23828125,970.21484375,-96.19140625,972.16796875,-1.0,0.0,1.0,0.0,2.m4v,5.0
2024-02-27 14:26:07.127128,1709040367.1271284,969.23828125,970.21484375,-96.19140625,972.16796875,-1.0,0.0,1.0,0.0,2.m4v,5.0
2024-02-27 14:26:07.131033,1709040367.1310334,969.7265625,969.23828125,-77.63671875,960.9375,-1.0,0.0,1.0,0.0,2.m4v,5.0
2024-02-27 14:26:07.131033,1709040367.1310334,969.7265625,969.23828125,-77.63671875,960.9375,-1.0,0.0,1.0,0.0,2.m4v,5.0
2024-02-27 14:26:07.134939,1709040367.1349387,906.25,908.69140625,-66.89453125,924.31640625,-1.0,0.0,1.0,0.0,2.m4v,5.0
2024-02-27 14:26:07.134939,1709040367.1349387,906.25,908.69140625,-66.89453125,924.31640625,-1.0,0.0,1.0,0.0,2.m4v,5.0
2024-02-27 14:26:07.138844,1709040367.138844,999.51171875,999.51171875,-78.61328125,999.51171875,-1.0,0.0,1.0,0.0,2.m4v,5.0
2024-02-27 14:26:07.138844,1709040367.138844,999.51171875,999.51171875,-78.61328125,999.51171875,-1.0,0.0,1.0,0.0,2.m4v,5.0
2024-02-27 14:26:07.142749,1709040367.1427493,188.4765625,169.43359375,-73.2421875,47.36328125,-1.0,0.0,1.0,0.0,2.m4v,5.0
2024-02-27 14:26:07.142749,1709040367.1427493,188.4765625,169.43359375,-73.2421875,47.36328125,-1.0,0.0,1.0,0.0,2.m4v,5.0
2024-02-27 14:26:07.146655,1709040367.1466546,-1000.0,-1000.0,-73.73046875,-1000.0,-1.0,0.0,1.0,0.0,2.m4v,5.0
2024-02-27 14:26:07.146655,1709040367.1466546,-1000.0,-1000.0,-73.73046875,-1000.0,-1.0,0.0,1.0,0.0,2.m4v,5.0
2024-02-27 14:26:07.150560,1709040367.15056,-983.88671875,-981.4453125,-79.1015625,-969.7265625,-1.0,0.0,1.0,0.0,2.m4v,5.0
2024-02-27 14:26:07.150560,1709040367.15056,-983.88671875,-981.4453125,-79.1015625,-969.7265625,-1.0,0.0,1.0,0.0,2.m4v,5.0
2024-02-27 14:26:07.154465,1709040367.1544652,-973.14453125,-974.609375,-83.49609375,-981.93359375,-1.0,0.0,1.0,0.0,2.m4v,5.0
2024-02-27 14:26:07.154465,1709040367.1544652,-973.14453125,-974.609375,-83.49609375,-981.93359375,-1.0,0.0,1.0,0.0,2.m4v,5.0
2024-02-27 14:26:07.158383,1709040367.158383,-1000.0,-1000.0,-86.42578125,-1000.0,-1.0,0.0,1.0,0.0,2.m4v,5.0
2024-02-27 14:26:07.158383,1709040367.158383,-1000.0,-1000.0,-86.42578125,-1000.0,-1.0,0.0,1.0,0.0,2.m4v,5.0
2024-02-27 14:26:07.162288,1709040367.162288,-1000.0,-1000.0,-76.171875,-1000.0,-1.0,0.0,1.0,0.0,2.m4v,5.0
2024-02-27 14:26:07.162288,1709040367.162288,-1000.0,-1000.0,-76.171875,-1000.0,-1.0,0.0,1.0,0.0,2.m4v,5.0
2024-02-27 14:26:07.166193,1709040367.1661932,-1000.0,-1000.0,-74.21875,-1000.0,-1.0,0.0,1.0,0.0,2.m4v,5.0
2024-02-27 14:26:07.166193,1709040367.1661932,-1000.0,-1000.0,-74.21875,-1000.0,-1.0,0.0,1.0,0.0,2.m4v,5.0
2024-02-27 14:26:07.170099,1709040367.1700983,-1000.0,-1000.0,-81.54296875,-1000.0,-1.0,0.0,1.0,0.0,2.m4v,5.0
2024-02-27 14:26:07.170099,1709040367.1700983,-1000.0,-1000.0,-81.54296875,-1000.0,-1.0,0.0,1.0,0.0,2.m4v,5.0
2024-02-27 14:26:07.174004,1709040367.1740038,-1000.0,-1000.0,-87.40234375,-1000.0,-1.0,0.0,1.0,0.0,2.m4v,5.0
2024-02-27 14:26:07.174004,1709040367.1740038,-1000.0,-1000.0,-87.40234375,-1000.0,-1.0,0.0,1.0,0.0,2.m4v,5.0
2024-02-27 14:26:07.177909,1709040367.1779091,-1000.0,-1000.0,-103.02734375,-1000.0,-1.0,0.0,1.0,0.0,2.m4v,5.0
2024-02-27 14:26:07.177909,1709040367.1779091,-1000.0,-1000.0,-103.02734375,-1000.0,-1.0,0.0,1.0,0.0,2.m4v,5.0
2024-02-27 14:26:07.181814,1709040367.1818144,-1000.0,-1000.0,-111.328125,-1000.0,-1.0,0.0,1.0,0.0,2.m4v,5.0
2024-02-27 14:26:07.181814,1709040367.1818144,-1000.0,-1000.0,-111.328125,-1000.0,-1.0,0.0,1.0,0.0,2.m4v,5.0
2024-02-27 14:26:07.185719,1709040367.1857195,-1000.0,-1000.0,-110.3515625,-1000.0,-1.0,0.0,1.0,0.0,2.m4v,5.0
2024-02-27 14:26:07.185719,1709040367.1857195,-1000.0,-1000.0,-110.3515625,-1000.0,-1.0,0.0,1.0,0.0,2.m4v,5.0
2024-02-27 14:26:07.189625,1709040367.1896248,-1000.0,-1000.0,-113.76953125,-1000.0,-1.0,0.0,1.0,0.0,2.m4v,5.0
2024-02-27 14:26:07.189625,1709040367.1896248,-1000.0,-1000.0,-113.76953125,-1000.0,-1.0,0.0,1.0,0.0,2.m4v,5.0
2024-02-27 14:26:07.193530,1709040367.19353,-1000.0,-993.65234375,-115.72265625,-1000.0,-1.0,0.0,1.0,0.0,2.m4v,5.0
2024-02-27 14:26:07.193530,1709040367.19353,-1000.0,-993.65234375,-115.72265625,-1000.0,-1.0,0.0,1.0,0.0,2.m4v,5.0
2024-02-27 14:26:07.197435,1709040367.1974354,-931.640625,-949.21875,-112.3046875,-928.7109375,-1.0,0.0,1.0,0.0,2.m4v,5.0
2024-02-27 14:26:07.197435,1709040367.1974354,-931.640625,-949.21875,-112.3046875,-928.7109375,-1.0,0.0,1.0,0.0,2.m4v,5.0
2024-02-27 14:26:07.201341,1709040367.201341,-1000.0,-1000.0,-109.86328125,-1000.0,-1.0,0.0,1.0,0.0,2.m4v,5.0
2024-02-27 14:26:07.201341,1709040367.201341,-1000.0,-1000.0,-109.86328125,-1000.0,-1.0,0.0,1.0,0.0,2.m4v,5.0
2024-02-27 14:26:07.205257,1709040367.205257,-327.1484375,-105.95703125,-107.91015625,-418.45703125,-1.0,0.0,1.0,0.0,2.m4v,5.0
2024-02-27 14:26:07.205257,1709040367.205257,-327.1484375,-105.95703125,-107.91015625,-418.45703125,-1.0,0.0,1.0,0.0,2.m4v,5.0
2024-02-27 14:26:07.209162,1709040367.2091622,999.51171875,999.51171875,-100.5859375,958.0078125,-1.0,0.0,1.0,0.0,2.m4v,5.0
2024-02-27 14:26:07.209162,1709040367.2091622,999.51171875,999.51171875,-100.5859375,958.0078125,-1.0,0.0,1.0,0.0,2.m4v,5.0
2024-02-27 14:26:07.213068,1709040367.2130675,970.703125,939.453125,-96.19140625,988.28125,-1.0,0.0,1.0,0.0,2.m4v,5.0
2024-02-27 14:26:07.213068,1709040367.2130675,970.703125,939.453125,-96.19140625,988.28125,-1.0,0.0,1.0,0.0,2.m4v,5.0
2024-02-27 14:26:07.216973,1709040367.2169728,933.10546875,950.68359375,-100.09765625,926.26953125,-1.0,0.0,1.0,0.0,2.m4v,5.0
2024-02-27 14:26:07.216973,1709040367.2169728,933.10546875,950.68359375,-100.09765625,926.26953125,-1.0,0.0,1.0,0.0,2.m4v,5.0
2024-02-27 14:26:07.220878,1709040367.220878,978.515625,974.12109375,-95.21484375,981.93359375,-1.0,0.0,1.0,0.0,2.m4v,5.0
2024-02-27 14:26:07.220878,1709040367.220878,978.515625,974.12109375,-95.21484375,981.93359375,-1.0,0.0,1.0,0.0,2.m4v,5.0
2024-02-27 14:26:07.224783,1709040367.2247834,968.75,969.7265625,-93.26171875,969.7265625,-1.0,0.0,1.0,0.0,2.m4v,5.0
2024-02-27 14:26:07.224783,1709040367.2247834,968.75,969.7265625,-93.26171875,969.7265625,-1.0,0.0,1.0,0.0,2.m4v,5.0
2024-02-27 14:26:07.228689,1709040367.2286887,968.75,969.7265625,-103.515625,969.7265625,-1.0,0.0,1.0,0.0,2.m4v,5.0
2024-02-27 14:26:07.228689,1709040367.2286887,968.75,969.7265625,-103.515625,969.7265625,-1.0,0.0,1.0,0.0,2.m4v,5.0
2024-02-27 14:26:07.232594,1709040367.2325938,968.75,969.7265625,-96.6796875,969.7265625,-1.0,0.0,1.0,0.0,2.m4v,5.0
2024-02-27 14:26:07.232594,1709040367.2325938,968.75,969.7265625,-96.6796875,969.7265625,-1.0,0.0,1.0,0.0,2.m4v,5.0
2024-02-27 14:26:07.236499,1709040367.236499,969.23828125,969.7265625,-80.078125,969.7265625,-1.0,0.0,1.0,0.0,2.m4v,5.0
2024-02-27 14:26:07.236499,1709040367.236499,969.23828125,969.7265625,-80.078125,969.7265625,-1.0,0.0,1.0,0.0,2.m4v,5.0
2024-02-27 14:26:07.240404,1709040367.2404044,968.75,969.7265625,-79.1015625,969.7265625,-1.0,0.0,1.0,0.0,2.m4v,5.0
2024-02-27 14:26:07.240404,1709040367.2404044,968.75,969.7265625,-79.1015625,969.7265625,-1.0,0.0,1.0,0.0,2.m4v,5.0
2024-02-27 14:26:07.244310,1709040367.2443097,969.23828125,969.7265625,-75.68359375,969.7265625,-1.0,0.0,1.0,0.0,2.m4v,5.0
2024-02-27 14:26:07.244310,1709040367.2443097,969.23828125,969.7265625,-75.68359375,969.7265625,-1.0,0.0,1.0,0.0,2.m4v,5.0
2024-02-27 14:26:07.248215,1709040367.248215,969.23828125,969.7265625,-74.21875,969.7265625,-1.0,0.0,1.0,0.0,2.m4v,5.0
2024-02-27 14:26:07.248215,1709040367.248215,969.23828125,969.7265625,-74.21875,969.7265625,-1.0,0.0,1.0,0.0,2.m4v,5.0
2024-02-27 14:26:07.252134,1709040367.2521336,969.23828125,969.7265625,-83.984375,969.7265625,-1.0,0.0,1.0,0.0,2.m4v,5.0
2024-02-27 14:26:07.252134,1709040367.2521336,969.23828125,969.7265625,-83.984375,969.7265625,-1.0,0.0,1.0,0.0,2.m4v,5.0
2024-02-27 14:26:07.256039,1709040367.256039,969.23828125,969.7265625,-85.44921875,969.7265625,-1.0,0.0,1.0,0.0,2.m4v,5.0
2024-02-27 14:26:07.256039,1709040367.256039,969.23828125,969.7265625,-85.44921875,969.7265625,-1.0,0.0,1.0,0.0,2.m4v,5.0
2024-02-27 14:26:07.259944,1709040367.259944,969.23828125,969.7265625,-94.7265625,969.7265625,-1.0,0.0,1.0,0.0,2.m4v,5.0
2024-02-27 14:26:07.259944,1709040367.259944,969.23828125,969.7265625,-94.7265625,969.7265625,-1.0,0.0,1.0,0.0,2.m4v,5.0
2024-02-27 14:26:07.263849,1709040367.2638493,971.6796875,980.95703125,-92.7734375,972.65625,-1.0,0.0,1.0,0.0,2.m4v,5.0
2024-02-27 14:26:07.263849,1709040367.2638493,971.6796875,980.95703125,-92.7734375,972.65625,-1.0,0.0,1.0,0.0,2.m4v,5.0
2024-02-27 14:26:07.267755,1709040367.2677546,956.54296875,923.828125,-88.8671875,956.0546875,-1.0,0.0,1.0,0.0,2.m4v,5.0
2024-02-27 14:26:07.267755,1709040367.2677546,956.54296875,923.828125,-88.8671875,956.0546875,-1.0,0.0,1.0,0.0,2.m4v,5.0
2024-02-27 14:26:07.271660,1709040367.27166,926.26953125,999.51171875,-85.44921875,928.7109375,-1.0,0.0,1.0,0.0,2.m4v,5.0
2024-02-27 14:26:07.271660,1709040367.27166,926.26953125,999.51171875,-85.44921875,928.7109375,-1.0,0.0,1.0,0.0,2.m4v,5.0
2024-02-27 14:26:07.275565,1709040367.2755651,999.51171875,881.8359375,-77.1484375,999.51171875,-1.0,0.0,1.0,0.0,2.m4v,5.0
2024-02-27 14:26:07.275565,1709040367.2755651,999.51171875,881.8359375,-77.1484375,999.51171875,-1.0,0.0,1.0,0.0,2.m4v,5.0
2024-02-27 14:26:07.279470,1709040367.2794704,-16.6015625,-474.12109375,-70.3125,-28.80859375,-1.0,0.0,1.0,0.0,2.m4v,5.0
2024-02-27 14:26:07.279470,1709040367.2794704,-16.6015625,-474.12109375,-70.3125,-28.80859375,-1.0,0.0,1.0,0.0,2.m4v,5.0
2024-02-27 14:26:07.283376,1709040367.2833755,-1000.0,-1000.0,-76.66015625,-1000.0,-1.0,0.0,1.0,0.0,2.m4v,5.0
2024-02-27 14:26:07.283376,1709040367.2833755,-1000.0,-1000.0,-76.66015625,-1000.0,-1.0,0.0,1.0,0.0,2.m4v,5.0
2024-02-27 14:26:07.287281,1709040367.287281,-957.03125,-936.03515625,-94.7265625,-956.54296875,-1.0,0.0,1.0,0.0,2.m4v,5.0
2024-02-27 14:26:07.287281,1709040367.287281,-957.03125,-936.03515625,-94.7265625,-956.54296875,-1.0,0.0,1.0,0.0,2.m4v,5.0
2024-02-27 14:26:07.291186,1709040367.2911863,-988.28125,-1000.0,-82.03125,-988.76953125,-1.0,0.0,1.0,0.0,2.m4v,5.0
2024-02-27 14:26:07.291186,1709040367.2911863,-988.28125,-1000.0,-82.03125,-988.76953125,-1.0,0.0,1.0,0.0,2.m4v,5.0
2024-02-27 14:26:07.295092,1709040367.2950916,-1000.0,-1000.0,-86.42578125,-1000.0,-1.0,0.0,1.0,0.0,2.m4v,5.0
2024-02-27 14:26:07.295092,1709040367.2950916,-1000.0,-1000.0,-86.42578125,-1000.0,-1.0,0.0,1.0,0.0,2.m4v,5.0
2024-02-27 14:26:07.299010,1709040367.2990098,-1000.0,-1000.0,-98.14453125,-1000.0,-1.0,0.0,1.0,0.0,2.m4v,5.0
2024-02-27 14:26:07.299010,1709040367.2990098,-1000.0,-1000.0,-98.14453125,-1000.0,-1.0,0.0,1.0,0.0,2.m4v,5.0
2024-02-27 14:26:07.302915,1709040367.302915,-1000.0,-1000.0,-88.37890625,-1000.0,-1.0,0.0,1.0,0.0,2.m4v,5.0
2024-02-27 14:26:07.302915,1709040367.302915,-1000.0,-1000.0,-88.37890625,-1000.0,-1.0,0.0,1.0,0.0,2.m4v,5.0
2024-02-27 14:26:07.306820,1709040367.3068204,-1000.0,-1000.0,-93.75,-1000.0,-1.0,0.0,1.0,0.0,2.m4v,5.0
2024-02-27 14:26:07.306820,1709040367.3068204,-1000.0,-1000.0,-93.75,-1000.0,-1.0,0.0,1.0,0.0,2.m4v,5.0
2024-02-27 14:26:07.310726,1709040367.3107257,-1000.0,-1000.0,-101.5625,-1000.0,-1.0,0.0,1.0,0.0,2.m4v,5.0
2024-02-27 14:26:07.310726,1709040367.3107257,-1000.0,-1000.0,-101.5625,-1000.0,-1.0,0.0,1.0,0.0,2.m4v,5.0
2024-02-27 14:26:07.314631,1709040367.314631,-1000.0,-1000.0,-108.88671875,-1000.0,-1.0,0.0,1.0,0.0,2.m4v,5.0
2024-02-27 14:26:07.314631,1709040367.314631,-1000.0,-1000.0,-108.88671875,-1000.0,-1.0,0.0,1.0,0.0,2.m4v,5.0
2024-02-27 14:26:07.318536,1709040367.3185363,-1000.0,-1000.0,-196.2890625,-1000.0,-1.0,0.0,1.0,0.0,2.m4v,5.0
2024-02-27 14:26:07.318536,1709040367.3185363,-1000.0,-1000.0,-196.2890625,-1000.0,-1.0,0.0,1.0,0.0,2.m4v,5.0
2024-02-27 14:26:07.322442,1709040367.3224416,-1000.0,-1000.0,-269.53125,-1000.0,-1.0,0.0,1.0,0.0,2.m4v,5.0
2024-02-27 14:26:07.322442,1709040367.3224416,-1000.0,-1000.0,-269.53125,-1000.0,-1.0,0.0,1.0,0.0,2.m4v,5.0
2024-02-27 14:26:07.326347,1709040367.3263469,-1000.0,-1000.0,-258.7890625,-1000.0,-1.0,0.0,1.0,0.0,2.m4v,5.0
2024-02-27 14:26:07.326347,1709040367.3263469,-1000.0,-1000.0,-258.7890625,-1000.0,-1.0,0.0,1.0,0.0,2.m4v,5.0
2024-02-27 14:26:07.330252,1709040367.3302522,-1000.0,-1000.0,-252.44140625,-1000.0,-1.0,0.0,1.0,0.0,2.m4v,5.0
2024-02-27 14:26:07.330252,1709040367.3302522,-1000.0,-1000.0,-252.44140625,-1000.0,-1.0,0.0,1.0,0.0,2.m4v,5.0
2024-02-27 14:26:07.334157,1709040367.3341572,-1000.0,-1000.0,-254.8828125,-1000.0,-1.0,0.0,1.0,0.0,2.m4v,5.0
2024-02-27 14:26:07.334157,1709040367.3341572,-1000.0,-1000.0,-254.8828125,-1000.0,-1.0,0.0,1.0,0.0,2.m4v,5.0
2024-02-27 14:26:07.338063,1709040367.3380623,-1000.0,-1000.0,-240.234375,-1000.0,-1.0,0.0,1.0,0.0,2.m4v,5.0
2024-02-27 14:26:07.338063,1709040367.3380623,-1000.0,-1000.0,-240.234375,-1000.0,-1.0,0.0,1.0,0.0,2.m4v,5.0
2024-02-27 14:26:07.341968,1709040367.3419678,-937.98828125,-937.01171875,-223.6328125,-933.10546875,-1.0,0.0,1.0,0.0,2.m4v,5.0
2024-02-27 14:26:07.341968,1709040367.3419678,-937.98828125,-937.01171875,-223.6328125,-933.10546875,-1.0,0.0,1.0,0.0,2.m4v,5.0
2024-02-27 14:26:07.345886,1709040367.3458858,-1000.0,-1000.0,-216.30859375,-1000.0,-1.0,0.0,1.0,0.0,2.m4v,5.0
2024-02-27 14:26:07.345886,1709040367.3458858,-1000.0,-1000.0,-216.30859375,-1000.0,-1.0,0.0,1.0,0.0,2.m4v,5.0
2024-02-27 14:26:07.771669,1709040367.7716691,969.23828125,969.7265625,-56.15234375,969.7265625,-1.0,0.0,1.0,0.0,2.m4v,5.0
2024-02-27 14:26:07.779480,1709040367.7794795,969.23828125,969.7265625,-45.8984375,969.7265625,-1.0,0.0,1.0,0.0,2.m4v,5.0
2024-02-27 14:26:07.787290,1709040367.7872903,945.80078125,899.4140625,-46.38671875,945.3125,-1.0,0.0,1.0,0.0,2.m4v,5.0
2024-02-27 14:26:07.795101,1709040367.7951007,999.51171875,543.45703125,-54.6875,999.51171875,-1.0,0.0,1.0,0.0,2.m4v,5.0
2024-02-27 14:26:07.802911,1709040367.8029113,-1000.0,-1000.0,-40.0390625,-1000.0,-1.0,0.0,1.0,0.0,2.m4v,5.0
2024-02-27 14:26:07.810722,1709040367.810722,-997.55859375,-1000.0,-51.7578125,-997.0703125,-1.0,0.0,1.0,0.0,2.m4v,5.0
2024-02-27 14:26:07.818544,1709040367.8185444,-1000.0,-1000.0,-41.015625,-1000.0,-1.0,0.0,1.0,0.0,2.m4v,5.0
2024-02-27 14:26:08.049015,1709040368.0490148,969.23828125,969.7265625,-42.48046875,969.7265625,-1.0,0.0,1.0,0.0,2.m4v,5.0
2024-02-27 14:26:08.052920,1709040368.05292,969.23828125,969.7265625,-37.59765625,969.7265625,-1.0,0.0,1.0,0.0,2.m4v,5.0
2024-02-27 14:26:08.056825,1709040368.0568254,969.23828125,969.7265625,-44.921875,969.7265625,-1.0,0.0,1.0,0.0,2.m4v,5.0
2024-02-27 14:26:08.060731,1709040368.0607307,969.23828125,969.7265625,-51.26953125,969.7265625,-1.0,0.0,1.0,0.0,2.m4v,5.0
2024-02-27 14:26:08.064636,1709040368.0646358,969.23828125,970.21484375,-41.9921875,970.21484375,-1.0,0.0,1.0,0.0,2.m4v,5.0
2024-02-27 14:26:08.068541,1709040368.068541,974.12109375,970.703125,-33.69140625,973.6328125,-1.0,0.0,1.0,0.0,2.m4v,5.0
2024-02-27 14:26:08.072446,1709040368.0724463,900.87890625,906.73828125,-40.52734375,903.3203125,-1.0,0.0,1.0,0.0,2.m4v,5.0
2024-02-27 14:26:08.076352,1709040368.0763516,999.51171875,999.51171875,-62.5,999.51171875,-1.0,0.0,1.0,0.0,2.m4v,5.0
2024-02-27 14:26:08.080257,1709040368.080257,279.296875,188.96484375,-53.22265625,251.46484375,-1.0,0.0,1.0,0.0,2.m4v,5.0
2024-02-27 14:26:08.084162,1709040368.0841622,-1000.0,-1000.0,-50.29296875,-1000.0,-1.0,0.0,1.0,0.0,2.m4v,5.0
2024-02-27 14:26:08.088068,1709040368.0880675,-999.0234375,-983.88671875,-47.36328125,-994.140625,-1.0,0.0,1.0,0.0,2.m4v,5.0
2024-02-27 14:26:08.091973,1709040368.0919728,-965.8203125,-973.14453125,-94.23828125,-967.7734375,-1.0,0.0,1.0,0.0,2.m4v,5.0
2024-02-27 14:26:08.095891,1709040368.0958908,-1000.0,-1000.0,-181.15234375,-1000.0,-1.0,0.0,1.0,0.0,2.m4v,5.0
2024-02-27 14:26:08.099796,1709040368.0997958,-1000.0,-1000.0,-232.421875,-1000.0,-1.0,0.0,1.0,0.0,2.m4v,5.0
2024-02-27 14:26:08.103701,1709040368.103701,-1000.0,-1000.0,-283.69140625,-1000.0,-1.0,0.0,1.0,0.0,2.m4v,5.0
2024-02-27 14:26:08.107606,1709040368.1076064,-1000.0,-1000.0,-289.55078125,-1000.0,-1.0,0.0,1.0,0.0,2.m4v,5.0
2024-02-27 14:26:08.111512,1709040368.1115117,-1000.0,-1000.0,-266.6015625,-1000.0,-1.0,0.0,1.0,0.0,2.m4v,5.0
2024-02-27 14:26:08.115417,1709040368.115417,-1000.0,-1000.0,-258.30078125,-1000.0,-1.0,0.0,1.0,0.0,2.m4v,5.0
2024-02-27 14:26:08.119322,1709040368.1193223,-1000.0,-1000.0,-256.8359375,-1000.0,-1.0,0.0,1.0,0.0,2.m4v,5.0
2024-02-27 14:26:08.123228,1709040368.1232276,-1000.0,-1000.0,-244.140625,-1000.0,-1.0,0.0,1.0,0.0,2.m4v,5.0
2024-02-27 14:26:08.127133,1709040368.127133,-1000.0,-1000.0,-243.65234375,-1000.0,-1.0,0.0,1.0,0.0,2.m4v,5.0
2024-02-27 14:26:08.131038,1709040368.1310382,-1000.0,-1000.0,-251.953125,-1000.0,-1.0,0.0,1.0,0.0,2.m4v,5.0
2024-02-27 14:26:08.134943,1709040368.1349435,-1000.0,-1000.0,-241.69921875,-1000.0,-1.0,0.0,1.0,0.0,2.m4v,5.0
2024-02-27 14:26:08.138849,1709040368.1388488,-1000.0,-1000.0,-219.23828125,-1000.0,-1.0,0.0,1.0,0.0,2.m4v,5.0
2024-02-27 14:26:08.142766,1709040368.1427662,-928.22265625,-931.15234375,-199.70703125,-931.15234375,-1.0,0.0,1.0,0.0,2.m4v,5.0
2024-02-27 14:26:08.146672,1709040368.1466715,-1000.0,-1000.0,-186.5234375,-1000.0,-1.0,0.0,1.0,0.0,2.m4v,5.0
2024-02-27 14:26:08.150577,1709040368.1505766,-403.80859375,-329.1015625,-183.10546875,-341.30859375,-1.0,0.0,1.0,0.0,2.m4v,5.0
2024-02-27 14:26:08.154482,1709040368.154482,968.75,999.51171875,-181.15234375,994.140625,-1.0,0.0,1.0,0.0,2.m4v,5.0
2024-02-27 14:26:08.158387,1709040368.1583872,984.375,971.6796875,-171.875,974.12109375,-1.0,0.0,1.0,0.0,2.m4v,5.0
2024-02-27 14:26:08.162292,1709040368.1622925,927.24609375,933.59375,-160.64453125,932.6171875,-1.0,0.0,1.0,0.0,2.m4v,5.0
2024-02-27 14:26:08.166198,1709040368.1661978,980.95703125,979.4921875,-155.76171875,979.98046875,-1.0,0.0,1.0,0.0,2.m4v,5.0
2024-02-27 14:26:08.170103,1709040368.170103,969.23828125,969.7265625,-157.71484375,969.7265625,-1.0,0.0,1.0,0.0,2.m4v,5.0
2024-02-27 14:26:08.174008,1709040368.1740084,969.23828125,969.7265625,-156.25,969.7265625,-1.0,0.0,1.0,0.0,2.m4v,5.0
2024-02-27 14:26:08.177914,1709040368.1779137,969.23828125,969.7265625,-153.80859375,969.7265625,-1.0,0.0,1.0,0.0,2.m4v,5.0
2024-02-27 14:26:08.181819,1709040368.181819,969.23828125,969.7265625,-148.4375,969.7265625,-1.0,0.0,1.0,0.0,2.m4v,5.0
2024-02-27 14:26:08.185724,1709040368.1857245,969.23828125,969.7265625,-136.71875,970.21484375,-1.0,0.0,1.0,0.0,2.m4v,5.0
2024-02-27 14:26:08.189641,1709040368.1896412,969.23828125,969.7265625,-139.6484375,969.7265625,-1.0,0.0,1.0,0.0,2.m4v,5.0
2024-02-27 14:26:08.193547,1709040368.1935463,969.23828125,969.7265625,-133.7890625,969.7265625,-1.0,0.0,1.0,0.0,2.m4v,5.0
2024-02-27 14:26:08.197452,1709040368.1974518,968.75,969.7265625,-113.28125,969.7265625,-1.0,0.0,1.0,0.0,2.m4v,5.0
2024-02-27 14:26:08.201357,1709040368.2013571,969.23828125,969.7265625,-121.09375,969.7265625,-1.0,0.0,1.0,0.0,2.m4v,5.0
2024-02-27 14:26:08.205262,1709040368.2052624,969.23828125,969.7265625,-129.8828125,970.21484375,-1.0,0.0,1.0,0.0,2.m4v,5.0
2024-02-27 14:26:08.209168,1709040368.2091677,984.375,983.88671875,-102.05078125,981.93359375,-1.0,0.0,1.0,0.0,2.m4v,5.0
2024-02-27 14:26:08.213073,1709040368.213073,897.4609375,895.5078125,-94.23828125,898.4375,-1.0,0.0,1.0,0.0,2.m4v,5.0
2024-02-27 14:26:08.216978,1709040368.216978,999.51171875,999.51171875,-106.4453125,999.51171875,-1.0,0.0,1.0,0.0,2.m4v,5.0
2024-02-27 14:26:08.220883,1709040368.2208834,596.19140625,499.51171875,-105.95703125,488.28125,-1.0,0.0,1.0,0.0,2.m4v,5.0
2024-02-27 14:26:08.224789,1709040368.224789,-850.5859375,-930.6640625,-97.16796875,-919.921875,-1.0,0.0,1.0,0.0,2.m4v,5.0
2024-02-27 14:26:08.228694,1709040368.228694,-1000.0,-1000.0,-85.44921875,-1000.0,-1.0,0.0,1.0,0.0,2.m4v,5.0
2024-02-27 14:26:08.232599,1709040368.2325993,-941.89453125,-947.75390625,-83.49609375,-949.70703125,-1.0,0.0,1.0,0.0,2.m4v,5.0
2024-02-27 14:26:08.236516,1709040368.236516,-1000.0,-1000.0,-83.49609375,-1000.0,-1.0,0.0,1.0,0.0,2.m4v,5.0
2024-02-27 14:26:08.240421,1709040368.2404213,-1000.0,-1000.0,-77.1484375,-1000.0,-1.0,0.0,1.0,0.0,2.m4v,5.0
2024-02-27 14:26:08.244327,1709040368.2443266,-1000.0,-1000.0,-75.1953125,-1000.0,-1.0,0.0,1.0,0.0,2.m4v,5.0
2024-02-27 14:26:08.248232,1709040368.248232,-1000.0,-1000.0,-62.5,-1000.0,-1.0,0.0,1.0,0.0,2.m4v,5.0
2024-02-27 14:26:08.252137,1709040368.2521372,-1000.0,-1000.0,-65.91796875,-1000.0,-1.0,0.0,1.0,0.0,2.m4v,5.0
2024-02-27 14:26:08.256042,1709040368.2560422,-1000.0,-1000.0,-69.3359375,-1000.0,-1.0,0.0,1.0,0.0,2.m4v,5.0
2024-02-27 14:26:08.259948,1709040368.2599475,-1000.0,-1000.0,-57.6171875,-1000.0,-1.0,0.0,1.0,0.0,2.m4v,5.0
2024-02-27 14:26:08.263853,1709040368.2638528,-1000.0,-1000.0,-64.94140625,-986.328125,-1.0,0.0,1.0,0.0,2.m4v,5.0
2024-02-27 14:26:08.267758,1709040368.267758,-937.5,-937.5,-56.640625,-969.23828125,-1.0,0.0,1.0,0.0,2.m4v,5.0
2024-02-27 14:26:08.271663,1709040368.2716634,-1000.0,-1000.0,-46.875,-1000.0,-1.0,0.0,1.0,0.0,2.m4v,5.0
2024-02-27 14:26:08.275569,1709040368.2755687,-217.28515625,-219.7265625,-56.15234375,-4.39453125,-1.0,0.0,1.0,0.0,2.m4v,5.0
2024-02-27 14:26:08.279474,1709040368.279474,999.51171875,999.51171875,-45.8984375,999.51171875,-1.0,0.0,1.0,0.0,2.m4v,5.0
2024-02-27 14:26:08.283391,1709040368.2833903,952.1484375,953.125,-38.57421875,939.94140625,-1.0,0.0,1.0,0.0,2.m4v,5.0
2024-02-27 14:26:08.287296,1709040368.2872958,941.89453125,942.3828125,-39.55078125,953.125,-1.0,0.0,1.0,0.0,2.m4v,5.0
2024-02-27 14:26:08.291201,1709040368.291201,975.5859375,976.5625,-37.59765625,974.12109375,-1.0,0.0,1.0,0.0,2.m4v,5.0
2024-02-27 14:26:08.295106,1709040368.2951064,969.23828125,969.7265625,-31.73828125,969.7265625,-1.0,0.0,1.0,0.0,2.m4v,5.0
2024-02-27 14:26:08.299012,1709040368.2990117,969.23828125,969.7265625,-25.390625,969.7265625,-1.0,0.0,1.0,0.0,2.m4v,5.0
2024-02-27 14:26:08.302917,1709040368.302917,969.23828125,969.7265625,-32.71484375,969.7265625,-1.0,0.0,1.0,0.0,2.m4v,5.0
2024-02-27 14:26:08.306822,1709040368.3068223,968.75,969.7265625,-40.52734375,969.7265625,-1.0,0.0,1.0,0.0,2.m4v,5.0
2024-02-27 14:26:08.310728,1709040368.3107276,983.3984375,982.91015625,-44.921875,977.5390625,-1.0,0.0,1.0,0.0,2.m4v,5.0
2024-02-27 14:26:08.314633,1709040368.314633,894.53125,895.5078125,-41.9921875,899.90234375,-1.0,0.0,1.0,0.0,2.m4v,5.0
2024-02-27 14:26:08.318538,1709040368.3185382,999.51171875,999.51171875,-50.29296875,999.51171875,-1.0,0.0,1.0,0.0,2.m4v,5.0
