Timestamp,Timestamp_UNIX,TP9,AF7,AF8,TP10,Valence,Arousal,Dominace,Viewed,Video,Participant
2024-02-27 14:03:28.064490,1709039008.06449,731.4453125,-1000.0,-579.1015625,-32.2265625,-1.0,1.0,0.0,0.0,8.m4v,4.0
2024-02-27 14:03:28.068396,1709039008.0683963,-599.609375,-970.703125,-996.09375,-38.57421875,-1.0,1.0,0.0,0.0,8.m4v,4.0
2024-02-27 14:03:28.072302,1709039008.0723023,-1000.0,-991.69921875,-1000.0,-44.43359375,-1.0,1.0,0.0,0.0,8.m4v,4.0
2024-02-27 14:03:28.076208,1709039008.0762084,-375.48828125,-1000.0,-708.49609375,-27.83203125,-1.0,1.0,0.0,0.0,8.m4v,4.0
2024-02-27 14:03:28.080114,1709039008.080114,884.27734375,219.7265625,72.265625,-10.7421875,-1.0,1.0,0.0,0.0,8.m4v,4.0
2024-02-27 14:03:28.084020,1709039008.08402,999.51171875,999.51171875,-85.9375,-24.90234375,-1.0,1.0,0.0,0.0,8.m4v,4.0
2024-02-27 14:03:28.087926,1709039008.087926,674.31640625,909.1796875,-532.2265625,-35.64453125,-1.0,1.0,0.0,0.0,8.m4v,4.0
2024-02-27 14:03:28.091832,1709039008.091832,-235.3515625,983.88671875,-431.640625,-32.2265625,-1.0,1.0,0.0,0.0,8.m4v,4.0
2024-02-27 14:03:28.095738,1709039008.095738,-197.265625,896.97265625,-46.875,-24.90234375,-1.0,1.0,0.0,0.0,8.m4v,4.0
2024-02-27 14:03:28.099644,1709039008.099644,884.27734375,999.51171875,120.60546875,-21.97265625,-1.0,1.0,0.0,0.0,8.m4v,4.0
2024-02-27 14:03:28.103550,1709039008.1035497,96.6796875,493.1640625,-506.8359375,-41.015625,-1.0,1.0,0.0,0.0,8.m4v,4.0
2024-02-27 14:03:28.107456,1709039008.1074555,-1000.0,-927.734375,-978.02734375,-54.6875,-1.0,1.0,0.0,0.0,8.m4v,4.0
2024-02-27 14:03:28.111362,1709039008.1113615,-996.09375,-1000.0,-1000.0,-46.875,-1.0,1.0,0.0,0.0,8.m4v,4.0
2024-02-27 14:03:28.115267,1709039008.115267,-894.53125,-948.73046875,-848.14453125,-37.109375,-1.0,1.0,0.0,0.0,8.m4v,4.0
2024-02-27 14:03:28.119173,1709039008.119173,294.921875,-1000.0,-208.984375,-26.85546875,-1.0,1.0,0.0,0.0,8.m4v,4.0
2024-02-27 14:03:28.123079,1709039008.123079,999.51171875,-1000.0,-241.69921875,-36.1328125,-1.0,1.0,0.0,0.0,8.m4v,4.0
2024-02-27 14:03:28.126985,1709039008.1269848,-69.82421875,-928.22265625,-798.33984375,-46.875,-1.0,1.0,0.0,0.0,8.m4v,4.0
2024-02-27 14:03:28.130891,1709039008.1308908,-1000.0,-1000.0,-1000.0,-39.0625,-1.0,1.0,0.0,0.0,8.m4v,4.0
2024-02-27 14:03:28.134797,1709039008.1347966,-350.09765625,-412.109375,-544.43359375,-31.73828125,-1.0,1.0,0.0,0.0,8.m4v,4.0
2024-02-27 14:03:28.138703,1709039008.1387026,937.5,943.359375,588.8671875,-16.6015625,-1.0,1.0,0.0,0.0,8.m4v,4.0
2024-02-27 14:03:28.142609,1709039008.1426086,999.51171875,957.03125,371.09375,-19.53125,-1.0,1.0,0.0,0.0,8.m4v,4.0
2024-02-27 14:03:28.150420,1709039008.1504204,-1000.0,-79.58984375,-1000.0,-61.5234375,-1.0,1.0,0.0,0.0,8.m4v,4.0
2024-02-27 14:03:28.154326,1709039008.1543264,-941.89453125,-1000.0,-685.05859375,-43.9453125,-1.0,1.0,0.0,0.0,8.m4v,4.0
2024-02-27 14:03:28.158232,1709039008.1582322,270.01953125,-953.125,22.4609375,-37.109375,-1.0,1.0,0.0,0.0,8.m4v,4.0
2024-02-27 14:03:28.162138,1709039008.1621375,954.1015625,-991.69921875,-184.08203125,-48.828125,-1.0,1.0,0.0,0.0,8.m4v,4.0
2024-02-27 14:03:28.166044,1709039008.1660435,-312.01171875,-1000.0,-833.0078125,-53.22265625,-1.0,1.0,0.0,0.0,8.m4v,4.0
2024-02-27 14:03:28.169950,1709039008.1699495,-1000.0,-935.05859375,-1000.0,-49.8046875,-1.0,1.0,0.0,0.0,8.m4v,4.0
2024-02-27 14:03:28.173856,1709039008.1738555,-938.4765625,-1000.0,-914.0625,-42.48046875,-1.0,1.0,0.0,0.0,8.m4v,4.0
2024-02-27 14:03:28.177761,1709039008.1777613,138.671875,-246.09375,-324.21875,-29.296875,-1.0,1.0,0.0,0.0,8.m4v,4.0
2024-02-27 14:03:28.181667,1709039008.181667,999.51171875,975.09765625,459.47265625,-24.4140625,-1.0,1.0,0.0,0.0,8.m4v,4.0
2024-02-27 14:03:28.232445,1709039008.2324448,-1000.0,-1000.0,-555.17578125,-42.96875,-1.0,1.0,0.0,0.0,8.m4v,4.0
2024-02-27 14:03:28.236351,1709039008.2363508,-813.4765625,-941.89453125,-250.9765625,-33.69140625,-1.0,1.0,0.0,0.0,8.m4v,4.0
2024-02-27 14:03:28.240257,1709039008.2402563,489.2578125,-1000.0,-67.3828125,-28.3203125,-1.0,1.0,0.0,0.0,8.m4v,4.0
2024-02-27 14:03:28.244163,1709039008.2441626,669.43359375,-1000.0,-461.9140625,-35.64453125,-1.0,1.0,0.0,0.0,8.m4v,4.0
2024-02-27 14:03:28.283222,1709039008.283222,897.94921875,999.51171875,469.23828125,-24.90234375,-1.0,1.0,0.0,0.0,8.m4v,4.0
2024-02-27 14:03:28.287128,1709039008.287128,-337.890625,165.0390625,-687.98828125,-42.48046875,-1.0,1.0,0.0,0.0,8.m4v,4.0
2024-02-27 14:03:28.291034,1709039008.2910335,-1000.0,-966.796875,-1000.0,-38.57421875,-1.0,1.0,0.0,0.0,8.m4v,4.0
2024-02-27 14:03:28.294940,1709039008.2949398,-983.3984375,-1000.0,-845.703125,-33.203125,-1.0,1.0,0.0,0.0,8.m4v,4.0
2024-02-27 14:03:28.298846,1709039008.2988458,41.015625,-539.55078125,-69.82421875,-24.4140625,-1.0,1.0,0.0,0.0,8.m4v,4.0
2024-02-27 14:03:28.302752,1709039008.3027515,999.51171875,792.48046875,259.765625,-26.3671875,-1.0,1.0,0.0,0.0,8.m4v,4.0
2024-02-27 14:03:28.306658,1709039008.3066576,518.5546875,999.51171875,-435.546875,-40.0390625,-1.0,1.0,0.0,0.0,8.m4v,4.0
2024-02-27 14:03:28.310563,1709039008.310563,-733.88671875,102.5390625,-1000.0,-46.38671875,-1.0,1.0,0.0,0.0,8.m4v,4.0
2024-02-27 14:03:28.314469,1709039008.314469,-1000.0,-1000.0,-862.79296875,-43.9453125,-1.0,1.0,0.0,0.0,8.m4v,4.0
2024-02-27 14:03:28.376964,1709039008.376964,57.6171875,901.3671875,56.15234375,-34.1796875,-1.0,1.0,0.0,0.0,8.m4v,4.0
2024-02-27 14:03:28.376964,1709039008.376964,57.6171875,901.3671875,56.15234375,-34.1796875,-1.0,1.0,0.0,0.0,8.m4v,4.0
2024-02-27 14:03:28.376964,1709039008.376964,57.6171875,901.3671875,56.15234375,-34.1796875,-1.0,1.0,0.0,0.0,8.m4v,4.0
2024-02-27 14:03:28.408211,1709039008.4082117,-956.54296875,-930.17578125,-986.328125,-48.33984375,-1.0,1.0,0.0,0.0,8.m4v,4.0
2024-02-27 14:03:28.412117,1709039008.4121172,-1000.0,-1000.0,-1000.0,-40.0390625,-1.0,1.0,0.0,0.0,8.m4v,4.0
2024-02-27 14:03:28.416023,1709039008.4160233,-198.73046875,-351.5625,-548.33984375,-17.578125,-1.0,1.0,0.0,0.0,8.m4v,4.0
2024-02-27 14:03:28.419929,1709039008.4199293,999.51171875,919.921875,406.25,-10.7421875,-1.0,1.0,0.0,0.0,8.m4v,4.0
2024-02-27 14:03:28.423835,1709039008.423835,855.46875,999.51171875,-291.015625,-20.5078125,-1.0,1.0,0.0,0.0,8.m4v,4.0
2024-02-27 14:03:28.427741,1709039008.427741,-295.8984375,265.625,-1000.0,-32.71484375,-1.0,1.0,0.0,0.0,8.m4v,4.0
2024-02-27 14:03:28.431647,1709039008.431647,-1000.0,-1000.0,-1000.0,-40.52734375,-1.0,1.0,0.0,0.0,8.m4v,4.0
2024-02-27 14:03:28.435553,1709039008.4355528,-935.05859375,-1000.0,-906.25,-26.85546875,-1.0,1.0,0.0,0.0,8.m4v,4.0
2024-02-27 14:03:28.439459,1709039008.4394588,220.703125,-963.8671875,-559.08203125,-15.13671875,-1.0,1.0,0.0,0.0,8.m4v,4.0
2024-02-27 14:03:28.443364,1709039008.4433644,967.28515625,-1000.0,-739.2578125,-28.3203125,-1.0,1.0,0.0,0.0,8.m4v,4.0
2024-02-27 14:03:28.443364,1709039008.4433644,967.28515625,-1000.0,-739.2578125,-28.3203125,-1.0,1.0,0.0,0.0,8.m4v,4.0
2024-02-27 14:03:28.443364,1709039008.4433644,967.28515625,-1000.0,-739.2578125,-28.3203125,-1.0,1.0,0.0,0.0,8.m4v,4.0
2024-02-27 14:03:28.443364,1709039008.4433644,967.28515625,-1000.0,-739.2578125,-28.3203125,-1.0,1.0,0.0,0.0,8.m4v,4.0
2024-02-27 14:03:28.447270,1709039008.4472702,-86.9140625,-929.6875,-998.53515625,-40.52734375,-1.0,1.0,0.0,0.0,8.m4v,4.0
2024-02-27 14:03:28.447270,1709039008.4472702,-86.9140625,-929.6875,-998.53515625,-40.52734375,-1.0,1.0,0.0,0.0,8.m4v,4.0
2024-02-27 14:03:28.447270,1709039008.4472702,-86.9140625,-929.6875,-998.53515625,-40.52734375,-1.0,1.0,0.0,0.0,8.m4v,4.0
2024-02-27 14:03:28.447270,1709039008.4472702,-86.9140625,-929.6875,-998.53515625,-40.52734375,-1.0,1.0,0.0,0.0,8.m4v,4.0
2024-02-27 14:03:28.451176,1709039008.4511762,-1000.0,-1000.0,-1000.0,-36.62109375,-1.0,1.0,0.0,0.0,8.m4v,4.0
2024-02-27 14:03:28.451176,1709039008.4511762,-1000.0,-1000.0,-1000.0,-36.62109375,-1.0,1.0,0.0,0.0,8.m4v,4.0
2024-02-27 14:03:28.451176,1709039008.4511762,-1000.0,-1000.0,-1000.0,-36.62109375,-1.0,1.0,0.0,0.0,8.m4v,4.0
2024-02-27 14:03:28.451176,1709039008.4511762,-1000.0,-1000.0,-1000.0,-36.62109375,-1.0,1.0,0.0,0.0,8.m4v,4.0
2024-02-27 14:03:28.455082,1709039008.4550822,-239.74609375,-376.46484375,-654.296875,-16.11328125,-1.0,1.0,0.0,0.0,8.m4v,4.0
2024-02-27 14:03:28.455082,1709039008.4550822,-239.74609375,-376.46484375,-654.296875,-16.11328125,-1.0,1.0,0.0,0.0,8.m4v,4.0
2024-02-27 14:03:28.455082,1709039008.4550822,-239.74609375,-376.46484375,-654.296875,-16.11328125,-1.0,1.0,0.0,0.0,8.m4v,4.0
2024-02-27 14:03:28.455082,1709039008.4550822,-239.74609375,-376.46484375,-654.296875,-16.11328125,-1.0,1.0,0.0,0.0,8.m4v,4.0
2024-02-27 14:03:28.458988,1709039008.458988,974.12109375,972.65625,75.68359375,-3.90625,-1.0,1.0,0.0,0.0,8.m4v,4.0
2024-02-27 14:03:28.458988,1709039008.458988,974.12109375,972.65625,75.68359375,-3.90625,-1.0,1.0,0.0,0.0,8.m4v,4.0
2024-02-27 14:03:28.458988,1709039008.458988,974.12109375,972.65625,75.68359375,-3.90625,-1.0,1.0,0.0,0.0,8.m4v,4.0
2024-02-27 14:03:28.458988,1709039008.458988,974.12109375,972.65625,75.68359375,-3.90625,-1.0,1.0,0.0,0.0,8.m4v,4.0
2024-02-27 14:03:28.462894,1709039008.462894,999.51171875,928.22265625,-177.24609375,-13.18359375,-1.0,1.0,0.0,0.0,8.m4v,4.0
2024-02-27 14:03:28.462894,1709039008.462894,999.51171875,928.22265625,-177.24609375,-13.18359375,-1.0,1.0,0.0,0.0,8.m4v,4.0
2024-02-27 14:03:28.462894,1709039008.462894,999.51171875,928.22265625,-177.24609375,-13.18359375,-1.0,1.0,0.0,0.0,8.m4v,4.0
2024-02-27 14:03:28.462894,1709039008.462894,999.51171875,928.22265625,-177.24609375,-13.18359375,-1.0,1.0,0.0,0.0,8.m4v,4.0
2024-02-27 14:03:28.466800,1709039008.4668,432.6171875,999.51171875,-755.37109375,-20.99609375,-1.0,1.0,0.0,0.0,8.m4v,4.0
2024-02-27 14:03:28.466800,1709039008.4668,432.6171875,999.51171875,-755.37109375,-20.99609375,-1.0,1.0,0.0,0.0,8.m4v,4.0
2024-02-27 14:03:28.466800,1709039008.4668,432.6171875,999.51171875,-755.37109375,-20.99609375,-1.0,1.0,0.0,0.0,8.m4v,4.0
2024-02-27 14:03:28.466800,1709039008.4668,432.6171875,999.51171875,-755.37109375,-20.99609375,-1.0,1.0,0.0,0.0,8.m4v,4.0
2024-02-27 14:03:28.470706,1709039008.4707055,-791.9921875,93.75,-1000.0,-30.76171875,-1.0,1.0,0.0,0.0,8.m4v,4.0
2024-02-27 14:03:28.470706,1709039008.4707055,-791.9921875,93.75,-1000.0,-30.76171875,-1.0,1.0,0.0,0.0,8.m4v,4.0
2024-02-27 14:03:28.470706,1709039008.4707055,-791.9921875,93.75,-1000.0,-30.76171875,-1.0,1.0,0.0,0.0,8.m4v,4.0
2024-02-27 14:03:28.470706,1709039008.4707055,-791.9921875,93.75,-1000.0,-30.76171875,-1.0,1.0,0.0,0.0,8.m4v,4.0
2024-02-27 14:03:28.474612,1709039008.4746118,-1000.0,-1000.0,-969.7265625,-30.76171875,-1.0,1.0,0.0,0.0,8.m4v,4.0
2024-02-27 14:03:28.474612,1709039008.4746118,-1000.0,-1000.0,-969.7265625,-30.76171875,-1.0,1.0,0.0,0.0,8.m4v,4.0
2024-02-27 14:03:28.474612,1709039008.4746118,-1000.0,-1000.0,-969.7265625,-30.76171875,-1.0,1.0,0.0,0.0,8.m4v,4.0
2024-02-27 14:03:28.474612,1709039008.4746118,-1000.0,-1000.0,-969.7265625,-30.76171875,-1.0,1.0,0.0,0.0,8.m4v,4.0
2024-02-27 14:03:28.478518,1709039008.4785178,-434.5703125,-969.7265625,-683.59375,-20.01953125,-1.0,1.0,0.0,0.0,8.m4v,4.0
2024-02-27 14:03:28.482424,1709039008.4824235,660.64453125,-980.95703125,-755.859375,-16.6015625,-1.0,1.0,0.0,0.0,8.m4v,4.0
2024-02-27 14:03:28.486330,1709039008.4863296,271.484375,-1000.0,-1000.0,-23.92578125,-1.0,1.0,0.0,0.0,8.m4v,4.0
2024-02-27 14:03:28.490235,1709039008.490235,-777.34375,-937.5,-987.3046875,-30.2734375,-1.0,1.0,0.0,0.0,8.m4v,4.0
2024-02-27 14:03:28.494141,1709039008.4941409,-942.87109375,-1000.0,-1000.0,-28.80859375,-1.0,1.0,0.0,0.0,8.m4v,4.0
2024-02-27 14:03:28.498047,1709039008.4980469,220.21484375,-219.7265625,-494.140625,-16.11328125,-1.0,1.0,0.0,0.0,8.m4v,4.0
2024-02-27 14:03:28.501953,1709039008.501953,999.51171875,999.51171875,-54.19921875,-13.18359375,-1.0,1.0,0.0,0.0,8.m4v,4.0
2024-02-27 14:03:28.505859,1709039008.505859,842.28515625,953.61328125,-589.35546875,-35.15625,-1.0,1.0,0.0,0.0,8.m4v,4.0
2024-02-27 14:03:28.509765,1709039008.509765,-460.9375,943.84765625,-1000.0,-45.41015625,-1.0,1.0,0.0,0.0,8.m4v,4.0
2024-02-27 14:03:28.513671,1709039008.5136707,-409.66796875,969.7265625,-409.1796875,-31.25,-1.0,1.0,0.0,0.0,8.m4v,4.0
2024-02-27 14:03:28.517576,1709039008.5175765,999.51171875,918.9453125,456.0546875,-14.16015625,-1.0,1.0,0.0,0.0,8.m4v,4.0
2024-02-27 14:03:28.521482,1709039008.5214825,693.359375,999.51171875,-30.76171875,-20.99609375,-1.0,1.0,0.0,0.0,8.m4v,4.0
2024-02-27 14:03:28.525388,1709039008.5253885,-649.4140625,64.453125,-894.53125,-42.48046875,-1.0,1.0,0.0,0.0,8.m4v,4.0
2024-02-27 14:03:28.529294,1709039008.5292945,-1000.0,-1000.0,-995.60546875,-44.921875,-1.0,1.0,0.0,0.0,8.m4v,4.0
2024-02-27 14:03:28.533200,1709039008.5332005,-1000.0,-967.28515625,-1000.0,-35.15625,-1.0,1.0,0.0,0.0,8.m4v,4.0
2024-02-27 14:03:28.537106,1709039008.5371056,-479.4921875,-982.421875,-705.56640625,-22.4609375,-1.0,1.0,0.0,0.0,8.m4v,4.0
2024-02-27 14:03:28.541012,1709039008.5410116,948.2421875,-1000.0,-394.04296875,-16.6015625,-1.0,1.0,0.0,0.0,8.m4v,4.0
2024-02-27 14:03:28.544917,1709039008.544917,534.66796875,-992.67578125,-791.015625,-26.85546875,-1.0,1.0,0.0,0.0,8.m4v,4.0
2024-02-27 14:03:28.548823,1709039008.5488234,-772.94921875,-950.1953125,-998.046875,-33.203125,-1.0,1.0,0.0,0.0,8.m4v,4.0
2024-02-27 14:03:28.552729,1709039008.5527294,-1000.0,-1000.0,-1000.0,-35.64453125,-1.0,1.0,0.0,0.0,8.m4v,4.0
2024-02-27 14:03:28.556635,1709039008.5566351,2.44140625,-82.51953125,-144.53125,-17.08984375,-1.0,1.0,0.0,0.0,8.m4v,4.0
2024-02-27 14:03:28.560541,1709039008.5605412,999.51171875,999.51171875,658.69140625,-12.6953125,-1.0,1.0,0.0,0.0,8.m4v,4.0
2024-02-27 14:03:28.568353,1709039008.568353,-695.80078125,953.125,-1000.0,-38.57421875,-1.0,1.0,0.0,0.0,8.m4v,4.0
2024-02-27 14:03:28.576165,1709039008.576165,113.76953125,967.28515625,12.6953125,-28.80859375,-1.0,1.0,0.0,0.0,8.m4v,4.0
2024-02-27 14:03:28.583976,1709039008.583976,428.7109375,999.51171875,-176.26953125,-34.66796875,-1.0,1.0,0.0,0.0,8.m4v,4.0
2024-02-27 14:03:28.591788,1709039008.5917878,-1000.0,-1000.0,-1000.0,-42.48046875,-1.0,1.0,0.0,0.0,8.m4v,4.0
2024-02-27 14:03:28.599600,1709039008.5995998,481.4453125,-400.390625,23.92578125,-12.20703125,-1.0,1.0,0.0,0.0,8.m4v,4.0
2024-02-27 14:03:28.830049,1709039008.8300493,-1000.0,-990.72265625,-1000.0,-38.57421875,-1.0,1.0,0.0,0.0,8.m4v,4.0
2024-02-27 14:03:28.833955,1709039008.833955,-700.1953125,-1000.0,-785.64453125,-27.34375,-1.0,1.0,0.0,0.0,8.m4v,4.0
2024-02-27 14:03:28.837861,1709039008.837861,534.1796875,200.1953125,426.26953125,-11.23046875,-1.0,1.0,0.0,0.0,8.m4v,4.0
2024-02-27 14:03:28.841767,1709039008.841767,999.51171875,999.51171875,888.18359375,-14.16015625,-1.0,1.0,0.0,0.0,8.m4v,4.0
2024-02-27 14:03:28.845673,1709039008.8456728,296.38671875,988.28125,-190.4296875,-40.52734375,-1.0,1.0,0.0,0.0,8.m4v,4.0
2024-02-27 14:03:28.849579,1709039008.8495789,-911.62109375,-130.859375,-994.140625,-55.17578125,-1.0,1.0,0.0,0.0,8.m4v,4.0
2024-02-27 14:03:28.853485,1709039008.8534849,-1000.0,-1000.0,-907.71484375,-45.8984375,-1.0,1.0,0.0,0.0,8.m4v,4.0
2024-02-27 14:03:28.857391,1709039008.8573906,-203.125,-1000.0,-242.1875,-20.99609375,-1.0,1.0,0.0,0.0,8.m4v,4.0
2024-02-27 14:03:28.861297,1709039008.861297,992.67578125,-139.6484375,133.30078125,-14.6484375,-1.0,1.0,0.0,0.0,8.m4v,4.0
2024-02-27 14:03:28.865202,1709039008.865202,945.80078125,999.51171875,-335.44921875,-28.3203125,-1.0,1.0,0.0,0.0,8.m4v,4.0
2024-02-27 14:03:28.869108,1709039008.869108,-270.99609375,944.3359375,-859.375,-38.0859375,-1.0,1.0,0.0,0.0,8.m4v,4.0
2024-02-27 14:03:28.873014,1709039008.8730135,-860.83984375,948.2421875,-554.19921875,-32.2265625,-1.0,1.0,0.0,0.0,8.m4v,4.0
2024-02-27 14:03:28.876920,1709039008.8769195,521.97265625,979.98046875,513.671875,-19.04296875,-1.0,1.0,0.0,0.0,8.m4v,4.0
2024-02-27 14:03:28.880826,1709039008.8808258,999.51171875,902.34375,583.0078125,-21.484375,-1.0,1.0,0.0,0.0,8.m4v,4.0
2024-02-27 14:03:28.884732,1709039008.8847315,502.9296875,999.51171875,94.23828125,-28.80859375,-1.0,1.0,0.0,0.0,8.m4v,4.0
2024-02-27 14:03:28.888638,1709039008.8886375,-476.07421875,269.04296875,-354.98046875,-34.66796875,-1.0,1.0,0.0,0.0,8.m4v,4.0
2024-02-27 14:03:28.892544,1709039008.8925436,-1000.0,-1000.0,-1000.0,-39.0625,-1.0,1.0,0.0,0.0,8.m4v,4.0
2024-02-27 14:03:28.896449,1709039008.896449,-861.81640625,-997.0703125,-567.87109375,-30.2734375,-1.0,1.0,0.0,0.0,8.m4v,4.0
2024-02-27 14:03:28.900355,1709039008.900355,446.77734375,-966.796875,29.296875,-21.484375,-1.0,1.0,0.0,0.0,8.m4v,4.0
2024-02-27 14:03:28.904261,1709039008.9042614,686.5234375,-1000.0,-420.41015625,-23.92578125,-1.0,1.0,0.0,0.0,8.m4v,4.0
2024-02-27 14:03:28.908167,1709039008.9081671,-682.6171875,-962.890625,-963.8671875,-26.3671875,-1.0,1.0,0.0,0.0,8.m4v,4.0
2024-02-27 14:03:28.912072,1709039008.9120724,-1000.0,-1000.0,-973.14453125,-20.01953125,-1.0,1.0,0.0,0.0,8.m4v,4.0
2024-02-27 14:03:28.915978,1709039008.9159784,-169.921875,-984.86328125,-350.5859375,-15.625,-1.0,1.0,0.0,0.0,8.m4v,4.0
2024-02-27 14:03:28.919884,1709039008.9198842,956.54296875,326.171875,349.609375,-10.25390625,-1.0,1.0,0.0,0.0,8.m4v,4.0
2024-02-27 14:03:28.923790,1709039008.9237902,999.51171875,999.51171875,107.421875,-14.6484375,-1.0,1.0,0.0,0.0,8.m4v,4.0
2024-02-27 14:03:28.927696,1709039008.9276962,207.03125,906.73828125,-575.1953125,-27.83203125,-1.0,1.0,0.0,0.0,8.m4v,4.0
2024-02-27 14:03:28.931602,1709039008.931602,-926.26953125,982.421875,-535.15625,-28.80859375,-1.0,1.0,0.0,0.0,8.m4v,4.0
2024-02-27 14:03:28.935508,1709039008.935508,150.87890625,937.98828125,486.328125,-15.13671875,-1.0,1.0,0.0,0.0,8.m4v,4.0
2024-02-27 14:03:28.939414,1709039008.939414,999.51171875,965.8203125,934.08203125,-18.06640625,-1.0,1.0,0.0,0.0,8.m4v,4.0
2024-02-27 14:03:28.943320,1709039008.9433198,326.171875,999.51171875,205.078125,-32.2265625,-1.0,1.0,0.0,0.0,8.m4v,4.0
2024-02-27 14:03:28.947226,1709039008.9472258,-881.8359375,-277.83203125,-720.21484375,-44.43359375,-1.0,1.0,0.0,0.0,8.m4v,4.0
2024-02-27 14:03:28.951132,1709039008.9511318,-1000.0,-1000.0,-985.3515625,-47.36328125,-1.0,1.0,0.0,0.0,8.m4v,4.0
2024-02-27 14:03:28.955038,1709039008.9550376,-778.80859375,-937.98828125,-439.94140625,-31.25,-1.0,1.0,0.0,0.0,8.m4v,4.0
2024-02-27 14:03:28.958943,1709039008.958943,468.75,-1000.0,265.625,-14.6484375,-1.0,1.0,0.0,0.0,8.m4v,4.0
2024-02-27 14:03:28.962849,1709039008.962849,965.33203125,-1000.0,155.76171875,-20.99609375,-1.0,1.0,0.0,0.0,8.m4v,4.0
2024-02-27 14:03:28.966755,1709039008.966755,-254.39453125,-964.35546875,-588.37890625,-32.2265625,-1.0,1.0,0.0,0.0,8.m4v,4.0
2024-02-27 14:03:28.970661,1709039008.9706607,-1000.0,-1000.0,-901.3671875,-33.203125,-1.0,1.0,0.0,0.0,8.m4v,4.0
2024-02-27 14:03:28.974566,1709039008.9745665,-501.46484375,-1000.0,-400.390625,-33.203125,-1.0,1.0,0.0,0.0,8.m4v,4.0
2024-02-27 14:03:28.978472,1709039008.9784725,750.9765625,303.22265625,661.1328125,-27.34375,-1.0,1.0,0.0,0.0,8.m4v,4.0
2024-02-27 14:03:29.095651,1709039009.095651,-656.73828125,-948.73046875,-445.3125,-32.71484375,-1.0,1.0,0.0,0.0,8.m4v,4.0
2024-02-27 14:03:29.099556,1709039009.0995564,686.5234375,-1000.0,255.37109375,-26.85546875,-1.0,1.0,0.0,0.0,8.m4v,4.0
2024-02-27 14:03:29.103462,1709039009.1034625,902.34375,-1000.0,35.64453125,-27.34375,-1.0,1.0,0.0,0.0,8.m4v,4.0
2024-02-27 14:03:29.107368,1709039009.1073682,-370.60546875,-937.5,-689.94140625,-44.921875,-1.0,1.0,0.0,0.0,8.m4v,4.0
2024-02-27 14:03:29.111274,1709039009.1112742,-1000.0,-1000.0,-871.09375,-45.8984375,-1.0,1.0,0.0,0.0,8.m4v,4.0
2024-02-27 14:03:29.115180,1709039009.1151805,-76.66015625,-205.078125,79.58984375,-19.53125,-1.0,1.0,0.0,0.0,8.m4v,4.0
2024-02-27 14:03:29.119086,1709039009.119086,999.51171875,978.02734375,999.51171875,-17.578125,-1.0,1.0,0.0,0.0,8.m4v,4.0
2024-02-27 14:03:29.122992,1709039009.122992,958.49609375,999.51171875,688.4765625,-32.71484375,-1.0,1.0,0.0,0.0,8.m4v,4.0
2024-02-27 14:03:29.126898,1709039009.126898,-109.375,663.0859375,-306.15234375,-41.50390625,-1.0,1.0,0.0,0.0,8.m4v,4.0
2024-02-27 14:03:29.130804,1709039009.1308038,-1000.0,-647.4609375,-933.10546875,-49.8046875,-1.0,1.0,0.0,0.0,8.m4v,4.0
2024-02-27 14:03:29.134710,1709039009.1347098,-938.96484375,-1000.0,-647.94921875,-39.0625,-1.0,1.0,0.0,0.0,8.m4v,4.0
2024-02-27 14:03:29.138616,1709039009.1386158,139.16015625,-294.43359375,255.859375,-17.08984375,-1.0,1.0,0.0,0.0,8.m4v,4.0
2024-02-27 14:03:29.142522,1709039009.1425216,999.51171875,900.390625,517.578125,-14.6484375,-1.0,1.0,0.0,0.0,8.m4v,4.0
2024-02-27 14:03:29.146427,1709039009.1464274,538.57421875,999.51171875,-118.65234375,-39.0625,-1.0,1.0,0.0,0.0,8.m4v,4.0
2024-02-27 14:03:29.150333,1709039009.1503332,-692.3828125,302.734375,-699.21875,-53.22265625,-1.0,1.0,0.0,0.0,8.m4v,4.0
2024-02-27 14:03:29.154239,1709039009.1542392,-1000.0,-968.75,-538.0859375,-45.8984375,-1.0,1.0,0.0,0.0,8.m4v,4.0
2024-02-27 14:03:29.158145,1709039009.1581452,-100.09765625,-998.53515625,175.29296875,-25.390625,-1.0,1.0,0.0,0.0,8.m4v,4.0
2024-02-27 14:03:29.162051,1709039009.162051,925.78125,-1000.0,199.21875,-18.06640625,-1.0,1.0,0.0,0.0,8.m4v,4.0
2024-02-27 14:03:29.165957,1709039009.165957,975.5859375,121.58203125,-77.63671875,-21.484375,-1.0,1.0,0.0,0.0,8.m4v,4.0
2024-02-27 14:03:29.169863,1709039009.169863,605.46875,999.51171875,-194.3359375,-27.83203125,-1.0,1.0,0.0,0.0,8.m4v,4.0
2024-02-27 14:03:29.173769,1709039009.1737688,-787.109375,124.0234375,-346.6796875,-39.55078125,-1.0,1.0,0.0,0.0,8.m4v,4.0
2024-02-27 14:03:29.177675,1709039009.1776748,-676.7578125,-1000.0,217.28515625,-27.34375,-1.0,1.0,0.0,0.0,8.m4v,4.0
2024-02-27 14:03:29.181581,1709039009.1815808,354.98046875,-982.91015625,293.45703125,-17.578125,-1.0,1.0,0.0,0.0,8.m4v,4.0
2024-02-27 14:03:29.185487,1709039009.1854866,-358.88671875,-974.12109375,-553.7109375,-33.69140625,-1.0,1.0,0.0,0.0,8.m4v,4.0
2024-02-27 14:03:29.189393,1709039009.1893926,-1000.0,-944.3359375,-1000.0,-40.0390625,-1.0,1.0,0.0,0.0,8.m4v,4.0
2024-02-27 14:03:29.193298,1709039009.193298,-836.42578125,-1000.0,-784.1796875,-29.78515625,-1.0,1.0,0.0,0.0,8.m4v,4.0
2024-02-27 14:03:29.197204,1709039009.197204,342.28515625,-219.7265625,182.12890625,-20.01953125,-1.0,1.0,0.0,0.0,8.m4v,4.0
2024-02-27 14:03:29.201110,1709039009.20111,999.51171875,999.51171875,615.72265625,-14.16015625,-1.0,1.0,0.0,0.0,8.m4v,4.0
2024-02-27 14:03:29.205016,1709039009.205016,993.65234375,953.61328125,139.6484375,-20.99609375,-1.0,1.0,0.0,0.0,8.m4v,4.0
2024-02-27 14:03:29.208922,1709039009.208922,-159.1796875,944.3359375,-398.4375,-35.15625,-1.0,1.0,0.0,0.0,8.m4v,4.0
2024-02-27 14:03:29.212828,1709039009.212828,-785.64453125,967.28515625,-59.5703125,-33.203125,-1.0,1.0,0.0,0.0,8.m4v,4.0
2024-02-27 14:03:29.216734,1709039009.2167337,705.078125,922.36328125,881.34765625,-8.7890625,-1.0,1.0,0.0,0.0,8.m4v,4.0
2024-02-27 14:03:29.220640,1709039009.2206397,921.38671875,999.51171875,682.6171875,-8.30078125,-1.0,1.0,0.0,0.0,8.m4v,4.0
2024-02-27 14:03:29.224546,1709039009.2245457,-440.4296875,26.3671875,-456.54296875,-45.8984375,-1.0,1.0,0.0,0.0,8.m4v,4.0
2024-02-27 14:03:29.228451,1709039009.2284515,-1000.0,-1000.0,-1000.0,-61.03515625,-1.0,1.0,0.0,0.0,8.m4v,4.0
2024-02-27 14:03:29.232358,1709039009.2323575,-1000.0,-962.40234375,-979.98046875,-45.8984375,-1.0,1.0,0.0,0.0,8.m4v,4.0
2024-02-27 14:03:29.236264,1709039009.2362635,-214.84375,-984.86328125,-207.51953125,-34.66796875,-1.0,1.0,0.0,0.0,8.m4v,4.0
2024-02-27 14:03:29.240169,1709039009.2401688,999.51171875,-1000.0,297.36328125,-39.0625,-1.0,1.0,0.0,0.0,8.m4v,4.0
2024-02-27 14:03:29.244075,1709039009.2440748,222.65625,-1000.0,-518.5546875,-48.828125,-1.0,1.0,0.0,0.0,8.m4v,4.0
2024-02-27 14:03:29.247981,1709039009.2479808,-974.12109375,-979.4921875,-1000.0,-60.05859375,-1.0,1.0,0.0,0.0,8.m4v,4.0
2024-02-27 14:03:29.251887,1709039009.2518866,-1000.0,-972.16796875,-1000.0,-60.05859375,-1.0,1.0,0.0,0.0,8.m4v,4.0
2024-02-27 14:03:29.255793,1709039009.2557926,-493.65234375,-1000.0,-838.8671875,-47.8515625,-1.0,1.0,0.0,0.0,8.m4v,4.0
2024-02-27 14:03:29.259699,1709039009.2596986,762.20703125,32.71484375,168.9453125,-31.25,-1.0,1.0,0.0,0.0,8.m4v,4.0
2024-02-27 14:03:29.263604,1709039009.2636044,999.51171875,999.51171875,273.92578125,-34.1796875,-1.0,1.0,0.0,0.0,8.m4v,4.0
2024-02-27 14:03:29.267510,1709039009.2675104,110.83984375,555.17578125,-740.72265625,-49.8046875,-1.0,1.0,0.0,0.0,8.m4v,4.0
2024-02-27 14:03:29.271416,1709039009.2714164,-1000.0,-835.44921875,-1000.0,-50.29296875,-1.0,1.0,0.0,0.0,8.m4v,4.0
2024-02-27 14:03:29.275322,1709039009.2753222,-986.328125,-1000.0,-844.7265625,-41.9921875,-1.0,1.0,0.0,0.0,8.m4v,4.0
2024-02-27 14:03:29.279228,1709039009.2792282,212.40234375,-941.40625,-351.5625,-38.57421875,-1.0,1.0,0.0,0.0,8.m4v,4.0
2024-02-27 14:03:29.283134,1709039009.2831342,917.48046875,-1000.0,-559.08203125,-42.96875,-1.0,1.0,0.0,0.0,8.m4v,4.0
2024-02-27 14:03:29.287039,1709039009.2870393,-316.89453125,-927.734375,-991.69921875,-46.875,-1.0,1.0,0.0,0.0,8.m4v,4.0
2024-02-27 14:03:29.290945,1709039009.2909453,-1000.0,-1000.0,-1000.0,-51.26953125,-1.0,1.0,0.0,0.0,8.m4v,4.0
2024-02-27 14:03:29.294851,1709039009.2948513,-250.9765625,-424.8046875,-594.7265625,-41.9921875,-1.0,1.0,0.0,0.0,8.m4v,4.0
2024-02-27 14:03:29.298757,1709039009.298757,994.140625,958.49609375,315.4296875,-20.99609375,-1.0,1.0,0.0,0.0,8.m4v,4.0
2024-02-27 14:03:29.302663,1709039009.302663,970.21484375,989.2578125,-87.40234375,-26.3671875,-1.0,1.0,0.0,0.0,8.m4v,4.0
2024-02-27 14:03:29.306569,1709039009.306569,485.3515625,925.78125,-643.5546875,-40.0390625,-1.0,1.0,0.0,0.0,8.m4v,4.0
2024-02-27 14:03:29.310475,1709039009.3104749,-461.9140625,982.421875,-639.16015625,-39.55078125,-1.0,1.0,0.0,0.0,8.m4v,4.0
2024-02-27 14:03:29.314381,1709039009.314381,-849.12109375,979.98046875,-563.96484375,-31.25,-1.0,1.0,0.0,0.0,8.m4v,4.0
2024-02-27 14:03:29.318287,1709039009.318287,277.83203125,897.4609375,-108.88671875,-24.90234375,-1.0,1.0,0.0,0.0,8.m4v,4.0
2024-02-27 14:03:29.322193,1709039009.322193,999.51171875,999.51171875,-146.97265625,-28.3203125,-1.0,1.0,0.0,0.0,8.m4v,4.0
2024-02-27 14:03:29.326099,1709039009.326099,-78.125,387.20703125,-778.3203125,-37.109375,-1.0,1.0,0.0,0.0,8.m4v,4.0
2024-02-27 14:03:29.330005,1709039009.3300047,-1000.0,-990.72265625,-1000.0,-40.0390625,-1.0,1.0,0.0,0.0,8.m4v,4.0
2024-02-27 14:03:29.333911,1709039009.3339107,-1000.0,-1000.0,-890.13671875,-36.1328125,-1.0,1.0,0.0,0.0,8.m4v,4.0
2024-02-27 14:03:29.337817,1709039009.3378167,-45.41015625,-957.03125,-275.390625,-27.83203125,-1.0,1.0,0.0,0.0,8.m4v,4.0
2024-02-27 14:03:29.341723,1709039009.3417227,999.51171875,-1000.0,-175.78125,-24.90234375,-1.0,1.0,0.0,0.0,8.m4v,4.0
2024-02-27 14:03:29.345628,1709039009.3456285,62.98828125,-928.22265625,-765.625,-37.109375,-1.0,1.0,0.0,0.0,8.m4v,4.0
2024-02-27 14:03:29.349535,1709039009.3495345,-1000.0,-1000.0,-1000.0,-40.52734375,-1.0,1.0,0.0,0.0,8.m4v,4.0
2024-02-27 14:03:29.353441,1709039009.3534403,-344.7265625,-399.90234375,-587.40234375,-29.296875,-1.0,1.0,0.0,0.0,8.m4v,4.0
2024-02-27 14:03:29.357346,1709039009.3573463,928.22265625,903.80859375,643.06640625,-12.6953125,-1.0,1.0,0.0,0.0,8.m4v,4.0
2024-02-27 14:03:29.404218,1709039009.4042175,547.36328125,999.51171875,401.85546875,-29.296875,-1.0,1.0,0.0,0.0,8.m4v,4.0
2024-02-27 14:03:29.408123,1709039009.4081235,-710.44921875,-208.984375,-767.08984375,-48.828125,-1.0,1.0,0.0,0.0,8.m4v,4.0
2024-02-27 14:03:29.412030,1709039009.4120295,-1000.0,-1000.0,-1000.0,-45.41015625,-1.0,1.0,0.0,0.0,8.m4v,4.0
2024-02-27 14:03:29.415936,1709039009.4159355,-293.45703125,-940.91796875,-128.90625,-28.80859375,-1.0,1.0,0.0,0.0,8.m4v,4.0
2024-02-27 14:03:29.419841,1709039009.4198413,999.51171875,-999.51171875,449.70703125,-18.5546875,-1.0,1.0,0.0,0.0,8.m4v,4.0
2024-02-27 14:03:29.423747,1709039009.4237473,270.99609375,-1000.0,-294.921875,-33.203125,-1.0,1.0,0.0,0.0,8.m4v,4.0
2024-02-27 14:03:29.427653,1709039009.4276533,-961.9140625,-969.7265625,-946.2890625,-48.33984375,-1.0,1.0,0.0,0.0,8.m4v,4.0
2024-02-27 14:03:29.431559,1709039009.431559,-1000.0,-994.62890625,-1000.0,-44.921875,-1.0,1.0,0.0,0.0,8.m4v,4.0
2024-02-27 14:03:29.435465,1709039009.435465,-273.92578125,-1000.0,-447.75390625,-24.90234375,-1.0,1.0,0.0,0.0,8.m4v,4.0
2024-02-27 14:03:29.439371,1709039009.439371,957.03125,231.93359375,369.140625,-9.27734375,-1.0,1.0,0.0,0.0,8.m4v,4.0
2024-02-27 14:03:29.443277,1709039009.443277,995.60546875,999.51171875,187.5,-21.484375,-1.0,1.0,0.0,0.0,8.m4v,4.0
2024-02-27 14:03:29.447183,1709039009.447183,688.4765625,909.66796875,-226.5625,-29.78515625,-1.0,1.0,0.0,0.0,8.m4v,4.0
2024-02-27 14:03:29.454995,1709039009.454995,-384.27734375,966.796875,104.00390625,-18.06640625,-1.0,1.0,0.0,0.0,8.m4v,4.0
2024-02-27 14:03:29.458901,1709039009.4589007,659.66796875,914.0625,602.05078125,-12.20703125,-1.0,1.0,0.0,0.0,8.m4v,4.0
2024-02-27 14:03:29.462807,1709039009.4628067,697.75390625,999.51171875,333.984375,-27.83203125,-1.0,1.0,0.0,0.0,8.m4v,4.0
2024-02-27 14:03:29.466712,1709039009.4667125,-665.0390625,112.79296875,-609.375,-54.19921875,-1.0,1.0,0.0,0.0,8.m4v,4.0
2024-02-27 14:03:29.470618,1709039009.4706185,-1000.0,-1000.0,-1000.0,-50.29296875,-1.0,1.0,0.0,0.0,8.m4v,4.0
2024-02-27 14:03:29.474524,1709039009.4745245,-732.421875,-1000.0,-482.421875,-28.80859375,-1.0,1.0,0.0,0.0,8.m4v,4.0
2024-02-27 14:03:29.478430,1709039009.4784305,461.9140625,-229.98046875,454.1015625,-19.53125,-1.0,1.0,0.0,0.0,8.m4v,4.0
2024-02-27 14:03:29.482336,1709039009.4823363,999.51171875,966.796875,347.16796875,-24.90234375,-1.0,1.0,0.0,0.0,8.m4v,4.0
2024-02-27 14:03:29.486242,1709039009.4862423,243.65234375,999.51171875,-401.3671875,-37.109375,-1.0,1.0,0.0,0.0,8.m4v,4.0
2024-02-27 14:03:29.490148,1709039009.490148,-1000.0,162.59765625,-845.21484375,-44.43359375,-1.0,1.0,0.0,0.0,8.m4v,4.0
2024-02-27 14:03:29.494054,1709039009.494054,-824.21875,-1000.0,-322.75390625,-38.57421875,-1.0,1.0,0.0,0.0,8.m4v,4.0
2024-02-27 14:03:29.497960,1709039009.49796,447.75390625,-141.11328125,670.41015625,-19.53125,-1.0,1.0,0.0,0.0,8.m4v,4.0
2024-02-27 14:03:29.501866,1709039009.501866,999.51171875,999.51171875,492.67578125,-28.3203125,-1.0,1.0,0.0,0.0,8.m4v,4.0
2024-02-27 14:03:29.505772,1709039009.505772,106.4453125,918.45703125,-355.95703125,-47.8515625,-1.0,1.0,0.0,0.0,8.m4v,4.0
2024-02-27 14:03:29.509678,1709039009.509678,-988.76953125,-383.7890625,-899.90234375,-49.31640625,-1.0,1.0,0.0,0.0,8.m4v,4.0
2024-02-27 14:03:29.513584,1709039009.5135837,-1000.0,-1000.0,-731.93359375,-42.96875,-1.0,1.0,0.0,0.0,8.m4v,4.0
2024-02-27 14:03:29.517490,1709039009.5174897,-52.734375,-1000.0,74.21875,-30.2734375,-1.0,1.0,0.0,0.0,8.m4v,4.0
2024-02-27 14:03:29.521395,1709039009.5213952,999.51171875,-252.9296875,424.31640625,-27.83203125,-1.0,1.0,0.0,0.0,8.m4v,4.0
2024-02-27 14:03:29.525301,1709039009.5253012,914.55078125,999.51171875,-20.5078125,-37.59765625,-1.0,1.0,0.0,0.0,8.m4v,4.0
2024-02-27 14:03:29.529207,1709039009.5292072,-124.51171875,892.08984375,-566.89453125,-45.8984375,-1.0,1.0,0.0,0.0,8.m4v,4.0
2024-02-27 14:03:29.533113,1709039009.533113,-1000.0,-481.93359375,-510.25390625,-41.50390625,-1.0,1.0,0.0,0.0,8.m4v,4.0
2024-02-27 14:03:29.537019,1709039009.537019,-244.140625,-1000.0,224.12109375,-28.3203125,-1.0,1.0,0.0,0.0,8.m4v,4.0
2024-02-27 14:03:29.560455,1709039009.5604546,768.5546875,-1000.0,255.859375,-20.5078125,-1.0,1.0,0.0,0.0,8.m4v,4.0
2024-02-27 14:03:29.564360,1709039009.5643604,999.51171875,154.78515625,14.16015625,-28.3203125,-1.0,1.0,0.0,0.0,8.m4v,4.0
2024-02-27 14:03:29.568266,1709039009.568266,290.52734375,999.51171875,-483.3984375,-34.1796875,-1.0,1.0,0.0,0.0,8.m4v,4.0
2024-02-27 14:03:29.572172,1709039009.572172,-994.62890625,102.05078125,-741.2109375,-41.015625,-1.0,1.0,0.0,0.0,8.m4v,4.0
2024-02-27 14:03:29.579984,1709039009.5799837,404.78515625,-578.61328125,266.11328125,-14.6484375,-1.0,1.0,0.0,0.0,8.m4v,4.0
2024-02-27 14:03:29.630760,1709039009.6307604,-1000.0,-1000.0,-917.48046875,-46.38671875,-1.0,1.0,0.0,0.0,8.m4v,4.0
2024-02-27 14:03:29.634666,1709039009.6346662,-214.84375,-336.42578125,-19.04296875,-27.34375,-1.0,1.0,0.0,0.0,8.m4v,4.0
2024-02-27 14:03:29.642478,1709039009.6424782,948.2421875,973.14453125,478.02734375,-33.69140625,-1.0,1.0,0.0,0.0,8.m4v,4.0
2024-02-27 14:03:29.646384,1709039009.646384,-77.1484375,933.59375,-382.8125,-49.8046875,-1.0,1.0,0.0,0.0,8.m4v,4.0
2024-02-27 14:03:29.654196,1709039009.654196,-312.98828125,970.703125,68.359375,-30.76171875,-1.0,1.0,0.0,0.0,8.m4v,4.0
2024-02-27 14:03:29.658102,1709039009.6581018,999.51171875,907.2265625,852.05078125,-16.6015625,-1.0,1.0,0.0,0.0,8.m4v,4.0
2024-02-27 14:03:29.857303,1709039009.8573031,490.234375,-212.40234375,263.18359375,-17.578125,-1.0,1.0,0.0,0.0,8.m4v,4.0
2024-02-27 14:03:29.872927,1709039009.8729267,-520.99609375,990.72265625,98.6328125,-29.296875,-1.0,1.0,0.0,0.0,8.m4v,4.0
2024-02-27 14:03:29.880739,1709039009.8807387,999.51171875,999.51171875,492.67578125,-18.5546875,-1.0,1.0,0.0,0.0,8.m4v,4.0
2024-02-27 14:03:29.888551,1709039009.8885503,-1000.0,-597.16796875,-809.5703125,-43.45703125,-1.0,1.0,0.0,0.0,8.m4v,4.0
2024-02-27 14:03:29.947140,1709039009.94714,-519.04296875,-932.6171875,-769.53125,-40.0390625,-1.0,1.0,0.0,0.0,8.m4v,4.0
2024-02-27 14:03:29.951046,1709039009.9510458,-1000.0,-1000.0,-1000.0,-38.0859375,-1.0,1.0,0.0,0.0,8.m4v,4.0
2024-02-27 14:03:29.954952,1709039009.9549518,-102.5390625,-298.828125,-50.29296875,-20.5078125,-1.0,1.0,0.0,0.0,8.m4v,4.0
2024-02-27 14:03:29.958858,1709039009.9588578,983.3984375,999.51171875,875.9765625,-6.34765625,-1.0,1.0,0.0,0.0,8.m4v,4.0
2024-02-27 14:03:29.962764,1709039009.9627635,999.51171875,898.4375,685.546875,-20.01953125,-1.0,1.0,0.0,0.0,8.m4v,4.0
2024-02-27 14:03:29.966670,1709039009.9666696,562.5,999.51171875,187.98828125,-32.71484375,-1.0,1.0,0.0,0.0,8.m4v,4.0
2024-02-27 14:03:29.970576,1709039009.9705756,-673.33984375,293.9453125,-457.51953125,-33.69140625,-1.0,1.0,0.0,0.0,8.m4v,4.0
2024-02-27 14:03:29.974481,1709039009.974481,-1000.0,-1000.0,-436.5234375,-31.73828125,-1.0,1.0,0.0,0.0,8.m4v,4.0
2024-02-27 14:03:29.978387,1709039009.9783874,-374.0234375,-1000.0,138.671875,-17.08984375,-1.0,1.0,0.0,0.0,8.m4v,4.0
2024-02-27 14:03:29.982293,1709039009.9822934,579.58984375,-966.30859375,20.5078125,-13.18359375,-1.0,1.0,0.0,0.0,8.m4v,4.0
2024-02-27 14:03:29.986199,1709039009.9861991,-275.87890625,-1000.0,-659.66796875,-35.64453125,-1.0,1.0,0.0,0.0,8.m4v,4.0
2024-02-27 14:03:29.990105,1709039009.990105,-1000.0,-943.359375,-1000.0,-41.9921875,-1.0,1.0,0.0,0.0,8.m4v,4.0
2024-02-27 14:03:29.994011,1709039009.9940107,-631.34765625,-1000.0,-646.97265625,-24.90234375,-1.0,1.0,0.0,0.0,8.m4v,4.0
2024-02-27 14:03:29.997916,1709039009.9979165,604.4921875,-157.2265625,261.23046875,-8.30078125,-1.0,1.0,0.0,0.0,8.m4v,4.0
2024-02-27 14:03:30.001822,1709039010.0018225,999.51171875,999.51171875,420.8984375,-10.7421875,-1.0,1.0,0.0,0.0,8.m4v,4.0
2024-02-27 14:03:30.005728,1709039010.0057285,602.05078125,944.82421875,-324.70703125,-29.78515625,-1.0,1.0,0.0,0.0,8.m4v,4.0
2024-02-27 14:03:30.009634,1709039010.0096345,-586.42578125,947.265625,-466.30859375,-41.50390625,-1.0,1.0,0.0,0.0,8.m4v,4.0
2024-02-27 14:03:30.013540,1709039010.0135405,-111.81640625,976.07421875,211.42578125,-33.69140625,-1.0,1.0,0.0,0.0,8.m4v,4.0
2024-02-27 14:03:30.017446,1709039010.0174465,999.51171875,906.73828125,872.0703125,-25.390625,-1.0,1.0,0.0,0.0,8.m4v,4.0
2024-02-27 14:03:30.021352,1709039010.021352,895.99609375,999.51171875,765.13671875,-34.1796875,-1.0,1.0,0.0,0.0,8.m4v,4.0
2024-02-27 14:03:30.025258,1709039010.025258,-272.4609375,188.96484375,-285.15625,-46.875,-1.0,1.0,0.0,0.0,8.m4v,4.0
2024-02-27 14:03:30.029164,1709039010.029164,-1000.0,-1000.0,-1000.0,-45.41015625,-1.0,1.0,0.0,0.0,8.m4v,4.0
2024-02-27 14:03:30.033070,1709039010.0330698,-1000.0,-983.88671875,-814.94140625,-30.76171875,-1.0,1.0,0.0,0.0,8.m4v,4.0
2024-02-27 14:03:30.036975,1709039010.0369751,-205.56640625,-973.14453125,-43.9453125,-17.578125,-1.0,1.0,0.0,0.0,8.m4v,4.0
2024-02-27 14:03:30.040881,1709039010.0408812,999.51171875,-1000.0,116.69921875,-18.5546875,-1.0,1.0,0.0,0.0,8.m4v,4.0
2024-02-27 14:03:30.044787,1709039010.0447872,31.73828125,-1000.0,-556.640625,-39.0625,-1.0,1.0,0.0,0.0,8.m4v,4.0
2024-02-27 14:03:30.048693,1709039010.048693,-1000.0,-937.5,-970.21484375,-44.43359375,-1.0,1.0,0.0,0.0,8.m4v,4.0
2024-02-27 14:03:30.052599,1709039010.052599,-943.359375,-1000.0,-886.23046875,-38.0859375,-1.0,1.0,0.0,0.0,8.m4v,4.0
2024-02-27 14:03:30.056505,1709039010.056505,136.23046875,-220.21484375,132.32421875,-16.11328125,-1.0,1.0,0.0,0.0,8.m4v,4.0
2024-02-27 14:03:30.060411,1709039010.0604107,999.51171875,979.98046875,995.60546875,-8.7890625,-1.0,1.0,0.0,0.0,8.m4v,4.0
2024-02-27 14:03:30.064317,1709039010.0643167,706.0546875,999.51171875,208.49609375,-23.92578125,-1.0,1.0,0.0,0.0,8.m4v,4.0
2024-02-27 14:03:30.072129,1709039010.0721283,-1000.0,-1000.0,-1000.0,-51.7578125,-1.0,1.0,0.0,0.0,8.m4v,4.0
2024-02-27 14:03:30.076035,1709039010.0760343,-422.8515625,-1000.0,-313.96484375,-31.73828125,-1.0,1.0,0.0,0.0,8.m4v,4.0
2024-02-27 14:03:30.079941,1709039010.0799406,896.97265625,138.18359375,429.19921875,-21.484375,-1.0,1.0,0.0,0.0,8.m4v,4.0
2024-02-27 14:03:30.083848,1709039010.0838475,961.9140625,999.51171875,-76.171875,-34.1796875,-1.0,1.0,0.0,0.0,8.m4v,4.0
2024-02-27 14:03:30.103377,1709039010.103377,999.51171875,-175.29296875,-322.75390625,-27.83203125,-1.0,1.0,0.0,0.0,8.m4v,4.0
2024-02-27 14:03:30.107283,1709039010.107283,679.19921875,999.51171875,-628.41796875,-26.85546875,-1.0,1.0,0.0,0.0,8.m4v,4.0
2024-02-27 14:03:30.111189,1709039010.1111891,-515.13671875,139.16015625,-1000.0,-40.0390625,-1.0,1.0,0.0,0.0,8.m4v,4.0
2024-02-27 14:03:30.115095,1709039010.115095,-1000.0,-1000.0,-855.46875,-41.9921875,-1.0,1.0,0.0,0.0,8.m4v,4.0
2024-02-27 14:03:30.119001,1709039010.119001,-59.08203125,-977.05078125,-430.17578125,-31.25,-1.0,1.0,0.0,0.0,8.m4v,4.0
2024-02-27 14:03:30.122907,1709039010.122907,740.234375,-988.28125,-687.5,-41.50390625,-1.0,1.0,0.0,0.0,8.m4v,4.0
2024-02-27 14:03:30.126813,1709039010.1268127,-324.70703125,-950.68359375,-997.55859375,-46.38671875,-1.0,1.0,0.0,0.0,8.m4v,4.0
2024-02-27 14:03:30.130719,1709039010.1307187,-1000.0,-1000.0,-1000.0,-44.921875,-1.0,1.0,0.0,0.0,8.m4v,4.0
2024-02-27 14:03:30.134625,1709039010.1346247,-422.8515625,-833.984375,-769.04296875,-33.69140625,-1.0,1.0,0.0,0.0,8.m4v,4.0
2024-02-27 14:03:30.138531,1709039010.1385307,853.515625,572.75390625,191.89453125,-19.53125,-1.0,1.0,0.0,0.0,8.m4v,4.0
2024-02-27 14:03:30.142437,1709039010.1424365,999.51171875,999.51171875,1.46484375,-29.296875,-1.0,1.0,0.0,0.0,8.m4v,4.0
2024-02-27 14:03:30.146343,1709039010.1463425,283.69140625,904.296875,-876.953125,-43.45703125,-1.0,1.0,0.0,0.0,8.m4v,4.0
2024-02-27 14:03:30.150249,1709039010.1502483,-537.109375,982.421875,-705.56640625,-42.96875,-1.0,1.0,0.0,0.0,8.m4v,4.0
2024-02-27 14:03:30.154154,1709039010.1541543,224.12109375,970.21484375,-166.015625,-26.85546875,-1.0,1.0,0.0,0.0,8.m4v,4.0
2024-02-27 14:03:30.169778,1709039010.169778,-1000.0,-1000.0,-1000.0,-46.875,-1.0,1.0,0.0,0.0,8.m4v,4.0
2024-02-27 14:03:30.173684,1709039010.173684,-1000.0,-983.3984375,-950.68359375,-35.15625,-1.0,1.0,0.0,0.0,8.m4v,4.0
2024-02-27 14:03:30.177590,1709039010.17759,-105.46875,-973.14453125,-388.18359375,-24.90234375,-1.0,1.0,0.0,0.0,8.m4v,4.0
2024-02-27 14:03:30.181496,1709039010.181496,999.51171875,-1000.0,-210.44921875,-24.90234375,-1.0,1.0,0.0,0.0,8.m4v,4.0
2024-02-27 14:03:30.185402,1709039010.185402,158.203125,-993.65234375,-785.64453125,-41.015625,-1.0,1.0,0.0,0.0,8.m4v,4.0
2024-02-27 14:03:30.189308,1709039010.1893077,-1000.0,-948.73046875,-1000.0,-41.50390625,-1.0,1.0,0.0,0.0,8.m4v,4.0
2024-02-27 14:03:30.193214,1709039010.1932137,-867.1875,-1000.0,-917.48046875,-34.1796875,-1.0,1.0,0.0,0.0,8.m4v,4.0
2024-02-27 14:03:30.197119,1709039010.1971197,333.49609375,-99.12109375,-19.04296875,-21.484375,-1.0,1.0,0.0,0.0,8.m4v,4.0
2024-02-27 14:03:30.201025,1709039010.2010255,999.51171875,999.51171875,748.046875,-13.671875,-1.0,1.0,0.0,0.0,8.m4v,4.0
2024-02-27 14:03:30.204931,1709039010.2049315,788.0859375,937.5,97.65625,-25.390625,-1.0,1.0,0.0,0.0,8.m4v,4.0
2024-02-27 14:03:30.208837,1709039010.2088373,-396.97265625,951.66015625,-763.18359375,-34.66796875,-1.0,1.0,0.0,0.0,8.m4v,4.0
2024-02-27 14:03:30.212743,1709039010.2127433,-1000.0,980.95703125,-715.33203125,-35.15625,-1.0,1.0,0.0,0.0,8.m4v,4.0
2024-02-27 14:03:30.216649,1709039010.2166493,19.04296875,940.91796875,13.671875,-22.4609375,-1.0,1.0,0.0,0.0,8.m4v,4.0
2024-02-27 14:03:30.220555,1709039010.220555,999.51171875,958.984375,285.15625,-22.4609375,-1.0,1.0,0.0,0.0,8.m4v,4.0
2024-02-27 14:03:30.224461,1709039010.2244608,272.94921875,999.51171875,-371.58203125,-37.59765625,-1.0,1.0,0.0,0.0,8.m4v,4.0
2024-02-27 14:03:30.228367,1709039010.2283669,-897.94921875,-241.2109375,-940.91796875,-46.875,-1.0,1.0,0.0,0.0,8.m4v,4.0
2024-02-27 14:03:30.232273,1709039010.2322729,-1000.0,-1000.0,-1000.0,-47.36328125,-1.0,1.0,0.0,0.0,8.m4v,4.0
2024-02-27 14:03:30.236179,1709039010.2361786,-319.3359375,-901.85546875,-324.21875,-32.71484375,-1.0,1.0,0.0,0.0,8.m4v,4.0
2024-02-27 14:03:30.240085,1709039010.2400846,907.2265625,-1000.0,83.984375,-26.3671875,-1.0,1.0,0.0,0.0,8.m4v,4.0
2024-02-27 14:03:30.243991,1709039010.243991,994.62890625,-26.85546875,-91.30859375,-32.2265625,-1.0,1.0,0.0,0.0,8.m4v,4.0
2024-02-27 14:03:30.247896,1709039010.2478964,825.68359375,999.51171875,-180.17578125,-44.43359375,-1.0,1.0,0.0,0.0,8.m4v,4.0
2024-02-27 14:03:30.251802,1709039010.2518024,-331.0546875,778.3203125,-459.47265625,-53.22265625,-1.0,1.0,0.0,0.0,8.m4v,4.0
2024-02-27 14:03:30.255708,1709039010.2557085,-1000.0,-563.4765625,-70.3125,-41.015625,-1.0,1.0,0.0,0.0,8.m4v,4.0
2024-02-27 14:03:30.259614,1709039010.2596142,47.8515625,-1000.0,341.30859375,-30.76171875,-1.0,1.0,0.0,0.0,8.m4v,4.0
2024-02-27 14:03:30.263520,1709039010.2635202,-19.53125,-949.70703125,-378.90625,-31.73828125,-1.0,1.0,0.0,0.0,8.m4v,4.0
2024-02-27 14:03:30.267426,1709039010.2674265,-1000.0,-952.63671875,-1000.0,-37.59765625,-1.0,1.0,0.0,0.0,8.m4v,4.0
2024-02-27 14:03:30.271332,1709039010.271332,-1000.0,-1000.0,-903.3203125,-38.0859375,-1.0,1.0,0.0,0.0,8.m4v,4.0
2024-02-27 14:03:30.376791,1709039010.3767912,438.96484375,-37.59765625,517.578125,-13.18359375,-1.0,1.0,0.0,0.0,8.m4v,4.0
2024-02-27 14:03:30.380697,1709039010.3806973,993.65234375,999.51171875,808.59375,-12.20703125,-1.0,1.0,0.0,0.0,8.m4v,4.0
2024-02-27 14:03:30.384603,1709039010.3846033,999.51171875,903.3203125,366.2109375,-25.390625,-1.0,1.0,0.0,0.0,8.m4v,4.0
2024-02-27 14:03:30.388509,1709039010.388509,232.421875,999.51171875,42.48046875,-33.203125,-1.0,1.0,0.0,0.0,8.m4v,4.0
2024-02-27 14:03:30.427568,1709039010.4275675,-199.21875,909.66796875,-514.16015625,-38.0859375,-1.0,1.0,0.0,0.0,8.m4v,4.0
2024-02-27 14:03:30.431474,1709039010.4314735,-961.9140625,951.171875,-443.359375,-35.64453125,-1.0,1.0,0.0,0.0,8.m4v,4.0
2024-02-27 14:03:30.435380,1709039010.4353795,336.9140625,912.59765625,621.09375,-15.13671875,-1.0,1.0,0.0,0.0,8.m4v,4.0
2024-02-27 14:03:30.439286,1709039010.4392855,999.51171875,999.51171875,881.34765625,-16.6015625,-1.0,1.0,0.0,0.0,8.m4v,4.0
2024-02-27 14:03:30.447097,1709039010.4470973,-995.60546875,-727.05078125,-809.5703125,-50.29296875,-1.0,1.0,0.0,0.0,8.m4v,4.0
2024-02-27 14:03:30.451003,1709039010.4510033,-1000.0,-1000.0,-927.734375,-41.50390625,-1.0,1.0,0.0,0.0,8.m4v,4.0
2024-02-27 14:03:30.454909,1709039010.454909,-641.11328125,-1000.0,-315.4296875,-21.97265625,-1.0,1.0,0.0,0.0,8.m4v,4.0
2024-02-27 14:03:30.458814,1709039010.4588144,576.171875,-411.1328125,347.65625,-13.671875,-1.0,1.0,0.0,0.0,8.m4v,4.0
2024-02-27 14:03:30.462720,1709039010.4627204,999.51171875,890.13671875,256.34765625,-18.06640625,-1.0,1.0,0.0,0.0,8.m4v,4.0
2024-02-27 14:03:30.466626,1709039010.4666264,514.16015625,999.51171875,-279.296875,-28.3203125,-1.0,1.0,0.0,0.0,8.m4v,4.0
2024-02-27 14:03:30.470532,1709039010.4705322,-656.73828125,538.57421875,-520.01953125,-33.203125,-1.0,1.0,0.0,0.0,8.m4v,4.0
2024-02-27 14:03:30.474438,1709039010.4744382,-1000.0,-1000.0,-360.83984375,-30.76171875,-1.0,1.0,0.0,0.0,8.m4v,4.0
2024-02-27 14:03:30.478344,1709039010.4783442,-28.3203125,-329.1015625,531.25,-20.01953125,-1.0,1.0,0.0,0.0,8.m4v,4.0
2024-02-27 14:03:30.482250,1709039010.48225,999.51171875,999.51171875,797.8515625,-20.5078125,-1.0,1.0,0.0,0.0,8.m4v,4.0
2024-02-27 14:03:30.486156,1709039010.486156,175.78125,667.48046875,-259.765625,-40.52734375,-1.0,1.0,0.0,0.0,8.m4v,4.0
2024-02-27 14:03:30.490062,1709039010.490062,-1000.0,-700.68359375,-953.61328125,-53.22265625,-1.0,1.0,0.0,0.0,8.m4v,4.0
2024-02-27 14:03:30.493968,1709039010.4939678,-938.4765625,-1000.0,-545.8984375,-41.50390625,-1.0,1.0,0.0,0.0,8.m4v,4.0
2024-02-27 14:03:30.497874,1709039010.4978738,225.5859375,-165.0390625,513.18359375,-25.87890625,-1.0,1.0,0.0,0.0,8.m4v,4.0
2024-02-27 14:03:30.501780,1709039010.5017798,999.51171875,999.51171875,542.96875,-31.25,-1.0,1.0,0.0,0.0,8.m4v,4.0
2024-02-27 14:03:30.505686,1709039010.5056858,197.75390625,983.88671875,-362.79296875,-41.9921875,-1.0,1.0,0.0,0.0,8.m4v,4.0
2024-02-27 14:03:30.509592,1709039010.5095918,-999.51171875,-291.50390625,-908.203125,-50.29296875,-1.0,1.0,0.0,0.0,8.m4v,4.0
2024-02-27 14:03:30.513498,1709039010.5134976,-1000.0,-1000.0,-620.1171875,-42.48046875,-1.0,1.0,0.0,0.0,8.m4v,4.0
2024-02-27 14:03:30.517404,1709039010.5174036,121.09375,-1000.0,158.203125,-25.390625,-1.0,1.0,0.0,0.0,8.m4v,4.0
2024-02-27 14:03:30.521310,1709039010.5213096,994.62890625,-301.7578125,351.07421875,-22.4609375,-1.0,1.0,0.0,0.0,8.m4v,4.0
2024-02-27 14:03:30.525215,1709039010.5252154,999.51171875,934.5703125,285.15625,-21.484375,-1.0,1.0,0.0,0.0,8.m4v,4.0
2024-02-27 14:03:30.529121,1709039010.5291214,586.42578125,999.51171875,72.265625,-29.296875,-1.0,1.0,0.0,0.0,8.m4v,4.0
2024-02-27 14:03:30.533027,1709039010.5330274,-679.19921875,493.1640625,-122.0703125,-41.50390625,-1.0,1.0,0.0,0.0,8.m4v,4.0
2024-02-27 14:03:30.572087,1709039010.5720868,-845.703125,982.91015625,-108.3984375,-31.25,-1.0,1.0,0.0,0.0,8.m4v,4.0
2024-02-27 14:03:30.579899,1709039010.5798986,999.51171875,999.51171875,899.4140625,-20.01953125,-1.0,1.0,0.0,0.0,8.m4v,4.0
2024-02-27 14:03:30.587711,1709039010.5877106,-1000.0,-949.21875,-854.98046875,-50.29296875,-1.0,1.0,0.0,0.0,8.m4v,4.0
2024-02-27 14:03:30.591616,1709039010.5916164,-1000.0,-1000.0,-966.30859375,-43.45703125,-1.0,1.0,0.0,0.0,8.m4v,4.0
2024-02-27 14:03:30.595522,1709039010.5955224,-571.2890625,-950.1953125,-316.40625,-21.97265625,-1.0,1.0,0.0,0.0,8.m4v,4.0
2024-02-27 14:03:30.599428,1709039010.5994282,780.76171875,-1000.0,299.8046875,-18.5546875,-1.0,1.0,0.0,0.0,8.m4v,4.0
2024-02-27 14:03:30.603334,1709039010.6033342,899.4140625,-1000.0,67.3828125,-31.73828125,-1.0,1.0,0.0,0.0,8.m4v,4.0
2024-02-27 14:03:30.607240,1709039010.60724,-326.171875,-926.26953125,-604.98046875,-40.52734375,-1.0,1.0,0.0,0.0,8.m4v,4.0
2024-02-27 14:03:30.611146,1709039010.611146,-1000.0,-1000.0,-917.48046875,-45.8984375,-1.0,1.0,0.0,0.0,8.m4v,4.0
2024-02-27 14:03:30.615052,1709039010.615052,-253.41796875,-489.74609375,-142.578125,-21.97265625,-1.0,1.0,0.0,0.0,8.m4v,4.0
2024-02-27 14:03:30.618958,1709039010.6189578,951.66015625,909.66796875,905.76171875,-1.46484375,-1.0,1.0,0.0,0.0,8.m4v,4.0
2024-02-27 14:03:30.622864,1709039010.6228638,999.51171875,960.9375,876.953125,-19.04296875,-1.0,1.0,0.0,0.0,8.m4v,4.0
2024-02-27 14:03:30.626770,1709039010.6267698,159.1796875,999.51171875,0.0,-43.45703125,-1.0,1.0,0.0,0.0,8.m4v,4.0
2024-02-27 14:03:30.630676,1709039010.6306756,-1000.0,6.8359375,-635.7421875,-43.9453125,-1.0,1.0,0.0,0.0,8.m4v,4.0
2024-02-27 14:03:30.634582,1709039010.6345816,-1000.0,-1000.0,-237.79296875,-32.71484375,-1.0,1.0,0.0,0.0,8.m4v,4.0
2024-02-27 14:03:30.638488,1709039010.6384876,210.44921875,-960.9375,403.80859375,-25.87890625,-1.0,1.0,0.0,0.0,8.m4v,4.0
2024-02-27 14:03:30.642393,1709039010.6423934,893.5546875,-993.65234375,181.640625,-32.71484375,-1.0,1.0,0.0,0.0,8.m4v,4.0
2024-02-27 14:03:30.646299,1709039010.6462991,-356.4453125,-974.609375,-589.35546875,-45.8984375,-1.0,1.0,0.0,0.0,8.m4v,4.0
2024-02-27 14:03:30.650205,1709039010.650205,-1000.0,-989.2578125,-801.7578125,-42.96875,-1.0,1.0,0.0,0.0,8.m4v,4.0
2024-02-27 14:03:30.654111,1709039010.654111,-419.43359375,-1000.0,-202.1484375,-29.78515625,-1.0,1.0,0.0,0.0,8.m4v,4.0
2024-02-27 14:03:30.658017,1709039010.658017,833.49609375,208.0078125,678.7109375,-12.6953125,-1.0,1.0,0.0,0.0,8.m4v,4.0
2024-02-27 14:03:30.661923,1709039010.6619227,999.51171875,999.51171875,601.07421875,-24.90234375,-1.0,1.0,0.0,0.0,8.m4v,4.0
2024-02-27 14:03:30.665829,1709039010.6658287,530.76171875,909.1796875,1.46484375,-44.43359375,-1.0,1.0,0.0,0.0,8.m4v,4.0
2024-02-27 14:03:30.669735,1709039010.6697347,-353.515625,970.21484375,-23.4375,-38.57421875,-1.0,1.0,0.0,0.0,8.m4v,4.0
2024-02-27 14:03:30.673640,1709039010.6736405,-748.046875,972.65625,100.09765625,-37.109375,-1.0,1.0,0.0,0.0,8.m4v,4.0
2024-02-27 14:03:30.677547,1709039010.6775465,345.21484375,904.78515625,751.46484375,-35.64453125,-1.0,1.0,0.0,0.0,8.m4v,4.0
2024-02-27 14:03:30.681453,1709039010.6814525,998.53515625,999.51171875,781.73828125,-38.57421875,-1.0,1.0,0.0,0.0,8.m4v,4.0
2024-02-27 14:03:30.685358,1709039010.6853583,-292.48046875,218.26171875,-247.0703125,-54.6875,-1.0,1.0,0.0,0.0,8.m4v,4.0
2024-02-27 14:03:30.689264,1709039010.6892643,-1000.0,-1000.0,-929.19921875,-62.98828125,-1.0,1.0,0.0,0.0,8.m4v,4.0
2024-02-27 14:03:30.693170,1709039010.6931698,-978.02734375,-944.82421875,-592.7734375,-40.0390625,-1.0,1.0,0.0,0.0,8.m4v,4.0
2024-02-27 14:03:30.697076,1709039010.6970758,63.4765625,-1000.0,300.29296875,-14.16015625,-1.0,1.0,0.0,0.0,8.m4v,4.0
2024-02-27 14:03:30.700982,1709039010.700982,999.51171875,-62.01171875,585.9375,-16.11328125,-1.0,1.0,0.0,0.0,8.m4v,4.0
2024-02-27 14:03:30.704888,1709039010.7048876,839.84375,999.51171875,46.38671875,-36.1328125,-1.0,1.0,0.0,0.0,8.m4v,4.0
2024-02-27 14:03:30.708794,1709039010.7087936,-471.19140625,934.5703125,-442.3828125,-43.9453125,-1.0,1.0,0.0,0.0,8.m4v,4.0
2024-02-27 14:03:30.712700,1709039010.7126997,-616.2109375,955.56640625,112.79296875,-38.0859375,-1.0,1.0,0.0,0.0,8.m4v,4.0
2024-02-27 14:03:30.716605,1709039010.7166054,832.03125,909.66796875,942.3828125,-32.2265625,-1.0,1.0,0.0,0.0,8.m4v,4.0
2024-02-27 14:03:30.720511,1709039010.7205114,999.51171875,999.51171875,852.05078125,-38.57421875,-1.0,1.0,0.0,0.0,8.m4v,4.0
2024-02-27 14:03:30.724417,1709039010.7244174,-184.08203125,191.40625,-62.5,-50.78125,-1.0,1.0,0.0,0.0,8.m4v,4.0
2024-02-27 14:03:30.728323,1709039010.7283232,-1000.0,-991.69921875,-791.50390625,-46.875,-1.0,1.0,0.0,0.0,8.m4v,4.0
2024-02-27 14:03:30.732229,1709039010.7322292,-1000.0,-1000.0,-715.33203125,-34.66796875,-1.0,1.0,0.0,0.0,8.m4v,4.0
2024-02-27 14:03:30.736135,1709039010.7361352,-262.6953125,-481.93359375,195.3125,-25.87890625,-1.0,1.0,0.0,0.0,8.m4v,4.0
2024-02-27 14:03:30.740041,1709039010.7400403,999.51171875,826.66015625,907.71484375,-21.97265625,-1.0,1.0,0.0,0.0,8.m4v,4.0
2024-02-27 14:03:30.743947,1709039010.7439466,767.08984375,999.51171875,242.67578125,-34.66796875,-1.0,1.0,0.0,0.0,8.m4v,4.0
2024-02-27 14:03:30.747853,1709039010.7478526,-398.92578125,384.765625,-496.58203125,-50.29296875,-1.0,1.0,0.0,0.0,8.m4v,4.0
2024-02-27 14:03:30.751758,1709039010.7517583,-1000.0,-924.8046875,-527.83203125,-50.78125,-1.0,1.0,0.0,0.0,8.m4v,4.0
2024-02-27 14:03:30.755664,1709039010.7556643,-506.34765625,-1000.0,81.54296875,-31.73828125,-1.0,1.0,0.0,0.0,8.m4v,4.0
2024-02-27 14:03:30.759570,1709039010.7595704,778.80859375,43.9453125,833.0078125,-14.16015625,-1.0,1.0,0.0,0.0,8.m4v,4.0
2024-02-27 14:03:30.763476,1709039010.763476,999.51171875,999.51171875,771.97265625,-24.90234375,-1.0,1.0,0.0,0.0,8.m4v,4.0
2024-02-27 14:03:30.767382,1709039010.767382,-111.328125,189.453125,-313.4765625,-43.45703125,-1.0,1.0,0.0,0.0,8.m4v,4.0
2024-02-27 14:03:30.771288,1709039010.7712882,-1000.0,-1000.0,-812.98828125,-41.50390625,-1.0,1.0,0.0,0.0,8.m4v,4.0
2024-02-27 14:03:30.775194,1709039010.775194,-740.234375,-991.2109375,-113.28125,-34.1796875,-1.0,1.0,0.0,0.0,8.m4v,4.0
2024-02-27 14:03:30.779100,1709039010.7791,631.8359375,-968.75,470.21484375,-29.296875,-1.0,1.0,0.0,0.0,8.m4v,4.0
2024-02-27 14:03:30.783006,1709039010.783006,649.4140625,-1000.0,25.87890625,-33.203125,-1.0,1.0,0.0,0.0,8.m4v,4.0
2024-02-27 14:03:30.786911,1709039010.786911,-718.75,-933.10546875,-747.0703125,-46.38671875,-1.0,1.0,0.0,0.0,8.m4v,4.0
2024-02-27 14:03:30.790817,1709039010.790817,-1000.0,-1000.0,-874.0234375,-46.38671875,-1.0,1.0,0.0,0.0,8.m4v,4.0
2024-02-27 14:03:30.794723,1709039010.794723,-136.23046875,-292.96875,28.3203125,-29.296875,-1.0,1.0,0.0,0.0,8.m4v,4.0
2024-02-27 14:03:30.798629,1709039010.7986288,995.1171875,999.51171875,953.125,-16.6015625,-1.0,1.0,0.0,0.0,8.m4v,4.0
2024-02-27 14:03:30.802535,1709039010.8025348,981.4453125,905.76171875,548.828125,-30.76171875,-1.0,1.0,0.0,0.0,8.m4v,4.0
2024-02-27 14:03:30.806441,1709039010.8064408,613.76953125,999.51171875,119.62890625,-44.43359375,-1.0,1.0,0.0,0.0,8.m4v,4.0
2024-02-27 14:03:30.810347,1709039010.8103466,-450.1953125,743.1640625,-83.0078125,-47.8515625,-1.0,1.0,0.0,0.0,8.m4v,4.0
2024-02-27 14:03:30.814253,1709039010.8142526,-1000.0,-676.7578125,-201.66015625,-40.52734375,-1.0,1.0,0.0,0.0,8.m4v,4.0
2024-02-27 14:03:30.818159,1709039010.8181586,-380.859375,-1000.0,319.3359375,-29.78515625,-1.0,1.0,0.0,0.0,8.m4v,4.0
2024-02-27 14:03:30.829876,1709039010.8298764,-1000.0,-944.3359375,-857.91015625,-46.875,-1.0,1.0,0.0,0.0,8.m4v,4.0
2024-02-27 14:03:30.837687,1709039010.8376875,756.8359375,-144.53125,449.21875,-12.6953125,-1.0,1.0,0.0,0.0,8.m4v,4.0
2024-02-27 14:03:30.845499,1709039010.8454993,518.5546875,943.359375,-158.203125,-37.59765625,-1.0,1.0,0.0,0.0,8.m4v,4.0
2024-02-27 14:03:30.853311,1709039010.853311,-335.9375,981.4453125,136.23046875,-33.69140625,-1.0,1.0,0.0,0.0,8.m4v,4.0
2024-02-27 14:03:30.861123,1709039010.861123,956.54296875,999.51171875,808.10546875,-25.87890625,-1.0,1.0,0.0,0.0,8.m4v,4.0
2024-02-27 14:03:30.865029,1709039010.8650289,-189.453125,302.24609375,-73.2421875,-43.9453125,-1.0,1.0,0.0,0.0,8.m4v,4.0
2024-02-27 14:03:30.868935,1709039010.8689349,-1000.0,-1000.0,-855.46875,-50.29296875,-1.0,1.0,0.0,0.0,8.m4v,4.0
2024-02-27 14:03:30.872841,1709039010.872841,-1000.0,-1000.0,-670.41015625,-40.0390625,-1.0,1.0,0.0,0.0,8.m4v,4.0
2024-02-27 14:03:30.876747,1709039010.876747,-197.75390625,-963.8671875,136.71875,-23.92578125,-1.0,1.0,0.0,0.0,8.m4v,4.0
2024-02-27 14:03:30.880653,1709039010.880653,999.51171875,-1000.0,401.3671875,-23.92578125,-1.0,1.0,0.0,0.0,8.m4v,4.0
2024-02-27 14:03:30.884559,1709039010.884559,72.75390625,-1000.0,-372.55859375,-38.57421875,-1.0,1.0,0.0,0.0,8.m4v,4.0
2024-02-27 14:03:30.896276,1709039010.8962765,158.69140625,-832.51953125,70.80078125,-25.87890625,-1.0,1.0,0.0,0.0,8.m4v,4.0
2024-02-27 14:03:30.904088,1709039010.9040885,822.75390625,999.51171875,398.92578125,-27.34375,-1.0,1.0,0.0,0.0,8.m4v,4.0
2024-02-27 14:03:30.911900,1709039010.9119003,-1000.0,-1000.0,-834.9609375,-42.48046875,-1.0,1.0,0.0,0.0,8.m4v,4.0
2024-02-27 14:03:30.915806,1709039010.915806,-433.10546875,-790.0390625,-41.015625,-27.83203125,-1.0,1.0,0.0,0.0,8.m4v,4.0
2024-02-27 14:03:30.919712,1709039010.919712,944.82421875,575.68359375,602.5390625,-23.4375,-1.0,1.0,0.0,0.0,8.m4v,4.0
2024-02-27 14:03:30.923618,1709039010.923618,817.87109375,999.51171875,-63.96484375,-39.0625,-1.0,1.0,0.0,0.0,8.m4v,4.0
2024-02-27 14:03:30.927524,1709039010.927524,-411.62109375,124.51171875,-820.80078125,-54.6875,-1.0,1.0,0.0,0.0,8.m4v,4.0
2024-02-27 14:03:30.931430,1709039010.93143,-1000.0,-1000.0,-1000.0,-58.59375,-1.0,1.0,0.0,0.0,8.m4v,4.0
2024-02-27 14:03:30.935336,1709039010.935336,-717.28515625,-983.88671875,-622.0703125,-39.55078125,-1.0,1.0,0.0,0.0,8.m4v,4.0
2024-02-27 14:03:30.939242,1709039010.939242,680.6640625,-973.14453125,6.34765625,-22.94921875,-1.0,1.0,0.0,0.0,8.m4v,4.0
2024-02-27 14:03:30.943148,1709039010.9431477,644.53125,-1000.0,-501.46484375,-37.109375,-1.0,1.0,0.0,0.0,8.m4v,4.0
2024-02-27 14:03:30.947054,1709039010.9470537,-743.1640625,-987.79296875,-1000.0,-42.96875,-1.0,1.0,0.0,0.0,8.m4v,4.0
2024-02-27 14:03:30.950960,1709039010.9509597,-1000.0,-958.49609375,-919.921875,-38.57421875,-1.0,1.0,0.0,0.0,8.m4v,4.0
2024-02-27 14:03:30.962677,1709039010.9626777,999.51171875,999.51171875,-324.70703125,-22.4609375,-1.0,1.0,0.0,0.0,8.m4v,4.0
2024-02-27 14:03:30.970489,1709039010.9704893,-948.2421875,591.30859375,-994.62890625,-34.1796875,-1.0,1.0,0.0,0.0,8.m4v,4.0
2024-02-27 14:03:30.978302,1709039010.978302,190.91796875,-302.734375,68.84765625,-16.6015625,-1.0,1.0,0.0,0.0,8.m4v,4.0
2024-02-27 14:03:30.982208,1709039010.982208,999.51171875,999.51171875,1.46484375,-15.13671875,-1.0,1.0,0.0,0.0,8.m4v,4.0
2024-02-27 14:03:30.986114,1709039010.986114,242.67578125,968.75,-766.11328125,-27.34375,-1.0,1.0,0.0,0.0,8.m4v,4.0
2024-02-27 14:03:30.990020,1709039010.9900198,-1000.0,-280.2734375,-1000.0,-35.64453125,-1.0,1.0,0.0,0.0,8.m4v,4.0
2024-02-27 14:03:30.993926,1709039010.9939258,-730.95703125,-1000.0,-622.0703125,-28.3203125,-1.0,1.0,0.0,0.0,8.m4v,4.0
2024-02-27 14:03:30.997832,1709039010.9978318,607.91015625,-27.34375,338.8671875,-12.20703125,-1.0,1.0,0.0,0.0,8.m4v,4.0
2024-02-27 14:03:31.001738,1709039011.0017376,999.51171875,999.51171875,71.77734375,-18.5546875,-1.0,1.0,0.0,0.0,8.m4v,4.0
2024-02-27 14:03:31.005644,1709039011.0056436,-106.93359375,470.21484375,-832.51953125,-40.52734375,-1.0,1.0,0.0,0.0,8.m4v,4.0
2024-02-27 14:03:31.009550,1709039011.0095496,-1000.0,-938.4765625,-1000.0,-47.36328125,-1.0,1.0,0.0,0.0,8.m4v,4.0
2024-02-27 14:03:31.013455,1709039011.0134554,-1000.0,-981.93359375,-941.40625,-38.57421875,-1.0,1.0,0.0,0.0,8.m4v,4.0
2024-02-27 14:03:31.017361,1709039011.0173614,-70.3125,-1000.0,-413.0859375,-24.90234375,-1.0,1.0,0.0,0.0,8.m4v,4.0
2024-02-27 14:03:31.021267,1709039011.021267,999.51171875,-775.87890625,-181.15234375,-20.5078125,-1.0,1.0,0.0,0.0,8.m4v,4.0
2024-02-27 14:03:31.025173,1709039011.025173,999.51171875,643.5546875,-613.76953125,-20.99609375,-1.0,1.0,0.0,0.0,8.m4v,4.0
2024-02-27 14:03:31.029079,1709039011.029079,364.74609375,999.51171875,-822.75390625,-23.4375,-1.0,1.0,0.0,0.0,8.m4v,4.0
2024-02-27 14:03:31.032985,1709039011.0329847,-160.15625,910.64453125,-475.5859375,-26.3671875,-1.0,1.0,0.0,0.0,8.m4v,4.0
2024-02-27 14:03:31.036891,1709039011.0368907,624.0234375,968.26171875,465.33203125,-13.18359375,-1.0,1.0,0.0,0.0,8.m4v,4.0
2024-02-27 14:03:31.040797,1709039011.0407968,999.51171875,929.19921875,857.91015625,-11.23046875,-1.0,1.0,0.0,0.0,8.m4v,4.0
2024-02-27 14:03:31.044703,1709039011.0447023,386.71875,999.51171875,181.15234375,-27.34375,-1.0,1.0,0.0,0.0,8.m4v,4.0
2024-02-27 14:03:31.048609,1709039011.0486083,-841.796875,-33.203125,-725.5859375,-45.41015625,-1.0,1.0,0.0,0.0,8.m4v,4.0
2024-02-27 14:03:31.052515,1709039011.0525146,-1000.0,-1000.0,-986.328125,-45.8984375,-1.0,1.0,0.0,0.0,8.m4v,4.0
2024-02-27 14:03:31.056420,1709039011.0564203,-680.17578125,-955.56640625,-370.1171875,-31.25,-1.0,1.0,0.0,0.0,8.m4v,4.0
2024-02-27 14:03:31.060326,1709039011.0603263,704.1015625,-989.2578125,-12.20703125,-26.3671875,-1.0,1.0,0.0,0.0,8.m4v,4.0
2024-02-27 14:03:31.064232,1709039011.0642323,430.6640625,-1000.0,-573.2421875,-33.69140625,-1.0,1.0,0.0,0.0,8.m4v,4.0
2024-02-27 14:03:31.068138,1709039011.068138,-969.7265625,-934.5703125,-1000.0,-47.8515625,-1.0,1.0,0.0,0.0,8.m4v,4.0
2024-02-27 14:03:31.142351,1709039011.142351,628.90625,999.51171875,457.03125,-35.15625,-1.0,1.0,0.0,0.0,8.m4v,4.0
2024-02-27 14:03:31.146256,1709039011.1462564,-587.890625,167.48046875,-462.890625,-54.6875,-1.0,1.0,0.0,0.0,8.m4v,4.0
2024-02-27 14:03:31.150162,1709039011.1501625,-1000.0,-1000.0,-886.71875,-53.22265625,-1.0,1.0,0.0,0.0,8.m4v,4.0
2024-02-27 14:03:31.154068,1709039011.1540685,-786.1328125,-1000.0,-370.60546875,-37.109375,-1.0,1.0,0.0,0.0,8.m4v,4.0
2024-02-27 14:03:31.157974,1709039011.1579742,407.71484375,-178.7109375,638.18359375,-23.92578125,-1.0,1.0,0.0,0.0,8.m4v,4.0
2024-02-27 14:03:31.161880,1709039011.1618798,999.51171875,999.51171875,591.30859375,-25.87890625,-1.0,1.0,0.0,0.0,8.m4v,4.0
2024-02-27 14:03:31.165786,1709039011.1657858,73.2421875,793.9453125,-343.26171875,-43.45703125,-1.0,1.0,0.0,0.0,8.m4v,4.0
2024-02-27 14:03:31.169692,1709039011.1696916,-1000.0,-538.57421875,-838.8671875,-55.6640625,-1.0,1.0,0.0,0.0,8.m4v,4.0
2024-02-27 14:03:31.173598,1709039011.1735976,-1000.0,-1000.0,-520.5078125,-46.38671875,-1.0,1.0,0.0,0.0,8.m4v,4.0
2024-02-27 14:03:31.177503,1709039011.177503,52.24609375,-867.67578125,181.640625,-33.203125,-1.0,1.0,0.0,0.0,8.m4v,4.0
2024-02-27 14:03:31.181409,1709039011.1814094,999.51171875,345.703125,709.9609375,-27.34375,-1.0,1.0,0.0,0.0,8.m4v,4.0
2024-02-27 14:03:31.185315,1709039011.1853154,777.83203125,999.51171875,386.71875,-29.78515625,-1.0,1.0,0.0,0.0,8.m4v,4.0
2024-02-27 14:03:31.189221,1709039011.1892211,-407.2265625,116.2109375,-658.69140625,-44.43359375,-1.0,1.0,0.0,0.0,8.m4v,4.0
2024-02-27 14:03:31.193127,1709039011.1931272,-1000.0,-1000.0,-717.7734375,-41.9921875,-1.0,1.0,0.0,0.0,8.m4v,4.0
2024-02-27 14:03:31.197033,1709039011.1970332,-186.5234375,-982.91015625,174.8046875,-25.390625,-1.0,1.0,0.0,0.0,8.m4v,4.0
2024-02-27 14:03:31.200939,1709039011.200939,999.51171875,-974.12109375,390.13671875,-27.34375,-1.0,1.0,0.0,0.0,8.m4v,4.0
2024-02-27 14:03:31.204845,1709039011.204845,146.97265625,-1000.0,-355.46875,-41.9921875,-1.0,1.0,0.0,0.0,8.m4v,4.0
2024-02-27 14:03:31.208750,1709039011.2087502,-1000.0,-943.359375,-833.49609375,-46.875,-1.0,1.0,0.0,0.0,8.m4v,4.0
2024-02-27 14:03:31.212656,1709039011.212656,-761.23046875,-1000.0,-471.19140625,-39.0625,-1.0,1.0,0.0,0.0,8.m4v,4.0
2024-02-27 14:03:31.216562,1709039011.216562,449.21875,-153.3203125,506.8359375,-17.578125,-1.0,1.0,0.0,0.0,8.m4v,4.0
2024-02-27 14:03:31.220468,1709039011.220468,999.51171875,999.51171875,861.328125,-20.5078125,-1.0,1.0,0.0,0.0,8.m4v,4.0
2024-02-27 14:03:31.224374,1709039011.2243738,556.15234375,944.3359375,-58.59375,-40.52734375,-1.0,1.0,0.0,0.0,8.m4v,4.0
2024-02-27 14:03:31.228280,1709039011.2282798,-806.15234375,947.75390625,-481.4453125,-47.36328125,-1.0,1.0,0.0,0.0,8.m4v,4.0
2024-02-27 14:03:31.232186,1709039011.2321856,-626.953125,976.07421875,39.0625,-43.9453125,-1.0,1.0,0.0,0.0,8.m4v,4.0
2024-02-27 14:03:31.236092,1709039011.2360916,694.82421875,907.2265625,525.87890625,-37.109375,-1.0,1.0,0.0,0.0,8.m4v,4.0
2024-02-27 14:03:31.239998,1709039011.2399976,999.51171875,999.51171875,518.5546875,-38.0859375,-1.0,1.0,0.0,0.0,8.m4v,4.0
2024-02-27 14:03:31.243903,1709039011.2439034,-145.01953125,187.5,-354.00390625,-49.8046875,-1.0,1.0,0.0,0.0,8.m4v,4.0
2024-02-27 14:03:31.247809,1709039011.2478094,-1000.0,-1000.0,-1000.0,-50.78125,-1.0,1.0,0.0,0.0,8.m4v,4.0
2024-02-27 14:03:31.251715,1709039011.2517154,-1000.0,-930.6640625,-792.96875,-35.64453125,-1.0,1.0,0.0,0.0,8.m4v,4.0
2024-02-27 14:03:31.255621,1709039011.2556214,-226.07421875,-1000.0,-47.36328125,-22.94921875,-1.0,1.0,0.0,0.0,8.m4v,4.0
2024-02-27 14:03:31.259527,1709039011.2595274,999.51171875,-172.36328125,539.0625,-24.90234375,-1.0,1.0,0.0,0.0,8.m4v,4.0
2024-02-27 14:03:31.263433,1709039011.2634332,951.66015625,999.51171875,137.6953125,-34.66796875,-1.0,1.0,0.0,0.0,8.m4v,4.0
2024-02-27 14:03:31.267339,1709039011.2673392,-75.68359375,948.2421875,-524.4140625,-40.52734375,-1.0,1.0,0.0,0.0,8.m4v,4.0
2024-02-27 14:03:31.271245,1709039011.2712452,-1000.0,-539.0625,-795.41015625,-46.38671875,-1.0,1.0,0.0,0.0,8.m4v,4.0
2024-02-27 14:03:31.275151,1709039011.275151,-405.76171875,-829.1015625,-72.75390625,-28.3203125,-1.0,1.0,0.0,0.0,8.m4v,4.0
2024-02-27 14:03:31.279057,1709039011.279057,944.82421875,703.61328125,964.35546875,-14.6484375,-1.0,1.0,0.0,0.0,8.m4v,4.0
2024-02-27 14:03:31.282963,1709039011.282963,958.984375,999.51171875,586.9140625,-41.9921875,-1.0,1.0,0.0,0.0,8.m4v,4.0
2024-02-27 14:03:31.286869,1709039011.2868688,-201.171875,293.45703125,-446.2890625,-60.546875,-1.0,1.0,0.0,0.0,8.m4v,4.0
2024-02-27 14:03:31.290775,1709039011.2907748,-1000.0,-943.84765625,-910.64453125,-57.12890625,-1.0,1.0,0.0,0.0,8.m4v,4.0
2024-02-27 14:03:31.325928,1709039011.3259282,37.59765625,522.94921875,41.015625,-46.38671875,-1.0,1.0,0.0,0.0,8.m4v,4.0
2024-02-27 14:03:31.325928,1709039011.3259282,37.59765625,522.94921875,41.015625,-46.38671875,-1.0,1.0,0.0,0.0,8.m4v,4.0
2024-02-27 14:03:31.325928,1709039011.3259282,37.59765625,522.94921875,41.015625,-46.38671875,-1.0,1.0,0.0,0.0,8.m4v,4.0
2024-02-27 14:03:31.325928,1709039011.3259282,37.59765625,522.94921875,41.015625,-46.38671875,-1.0,1.0,0.0,0.0,8.m4v,4.0
2024-02-27 14:03:31.329834,1709039011.329834,-1000.0,-843.75,-759.765625,-53.22265625,-1.0,1.0,0.0,0.0,8.m4v,4.0
2024-02-27 14:03:31.329834,1709039011.329834,-1000.0,-843.75,-759.765625,-53.22265625,-1.0,1.0,0.0,0.0,8.m4v,4.0
2024-02-27 14:03:31.329834,1709039011.329834,-1000.0,-843.75,-759.765625,-53.22265625,-1.0,1.0,0.0,0.0,8.m4v,4.0
2024-02-27 14:03:31.329834,1709039011.329834,-1000.0,-843.75,-759.765625,-53.22265625,-1.0,1.0,0.0,0.0,8.m4v,4.0
2024-02-27 14:03:31.333740,1709039011.33374,-988.76953125,-1000.0,-500.0,-40.0390625,-1.0,1.0,0.0,0.0,8.m4v,4.0
2024-02-27 14:03:31.333740,1709039011.33374,-988.76953125,-1000.0,-500.0,-40.0390625,-1.0,1.0,0.0,0.0,8.m4v,4.0
2024-02-27 14:03:31.333740,1709039011.33374,-988.76953125,-1000.0,-500.0,-40.0390625,-1.0,1.0,0.0,0.0,8.m4v,4.0
2024-02-27 14:03:31.333740,1709039011.33374,-988.76953125,-1000.0,-500.0,-40.0390625,-1.0,1.0,0.0,0.0,8.m4v,4.0
2024-02-27 14:03:31.400142,1709039011.4001417,999.51171875,958.0078125,901.85546875,-28.80859375,-1.0,1.0,0.0,0.0,8.m4v,4.0
2024-02-27 14:03:31.407954,1709039011.4079535,-887.20703125,-160.15625,-607.91015625,-51.26953125,-1.0,1.0,0.0,0.0,8.m4v,4.0
2024-02-27 14:03:31.415765,1709039011.4157653,-234.375,-617.67578125,192.87109375,0.0,-1.0,1.0,0.0,0.0,8.m4v,4.0
2024-02-27 14:03:31.423577,1709039011.4235773,695.3125,999.51171875,334.47265625,-29.296875,-1.0,1.0,0.0,0.0,8.m4v,4.0
2024-02-27 14:03:31.427483,1709039011.427483,-542.48046875,103.02734375,-656.25,-62.98828125,-1.0,1.0,0.0,0.0,8.m4v,4.0
2024-02-27 14:03:31.431389,1709039011.431389,-1000.0,-1000.0,-740.234375,-53.7109375,-1.0,1.0,0.0,0.0,8.m4v,4.0
2024-02-27 14:03:31.435295,1709039011.4352949,-551.26953125,-980.46875,-29.296875,-33.69140625,-1.0,1.0,0.0,0.0,8.m4v,4.0
2024-02-27 14:03:31.439201,1709039011.4392009,802.734375,-975.09765625,458.0078125,-27.34375,-1.0,1.0,0.0,0.0,8.m4v,4.0
2024-02-27 14:03:31.443106,1709039011.4431064,770.01953125,-1000.0,118.65234375,-40.52734375,-1.0,1.0,0.0,0.0,8.m4v,4.0
2024-02-27 14:03:31.447012,1709039011.4470124,-511.71875,-926.26953125,-535.64453125,-59.5703125,-1.0,1.0,0.0,0.0,8.m4v,4.0
2024-02-27 14:03:31.450918,1709039011.4509184,-1000.0,-1000.0,-780.2734375,-57.6171875,-1.0,1.0,0.0,0.0,8.m4v,4.0
2024-02-27 14:03:31.454824,1709039011.4548242,-154.296875,-506.8359375,14.16015625,-29.296875,-1.0,1.0,0.0,0.0,8.m4v,4.0
2024-02-27 14:03:31.458730,1709039011.4587302,973.6328125,914.0625,937.5,-15.13671875,-1.0,1.0,0.0,0.0,8.m4v,4.0
2024-02-27 14:03:31.462636,1709039011.4626362,999.51171875,999.51171875,901.85546875,-25.390625,-1.0,1.0,0.0,0.0,8.m4v,4.0
2024-02-27 14:03:31.466542,1709039011.466542,619.62890625,919.43359375,346.19140625,-38.0859375,-1.0,1.0,0.0,0.0,8.m4v,4.0
2024-02-27 14:03:31.470448,1709039011.470448,-776.3671875,984.86328125,-169.921875,-48.33984375,-1.0,1.0,0.0,0.0,8.m4v,4.0
2024-02-27 14:03:31.474354,1709039011.474354,-757.32421875,970.703125,174.31640625,-36.1328125,-1.0,1.0,0.0,0.0,8.m4v,4.0
2024-02-27 14:03:31.478260,1709039011.4782598,710.9375,907.2265625,771.484375,-22.4609375,-1.0,1.0,0.0,0.0,8.m4v,4.0
2024-02-27 14:03:31.482166,1709039011.4821658,854.4921875,999.51171875,504.8828125,-22.94921875,-1.0,1.0,0.0,0.0,8.m4v,4.0
2024-02-27 14:03:31.486072,1709039011.4860718,-410.64453125,188.96484375,-357.91015625,-34.1796875,-1.0,1.0,0.0,0.0,8.m4v,4.0
2024-02-27 14:03:31.489977,1709039011.4899771,-1000.0,-1000.0,-800.29296875,-39.55078125,-1.0,1.0,0.0,0.0,8.m4v,4.0
2024-02-27 14:03:31.493883,1709039011.4938831,-844.23828125,-983.88671875,-262.20703125,-19.04296875,-1.0,1.0,0.0,0.0,8.m4v,4.0
2024-02-27 14:03:31.497789,1709039011.4977891,380.37109375,-974.12109375,478.515625,-6.34765625,-1.0,1.0,0.0,0.0,8.m4v,4.0
2024-02-27 14:03:31.501695,1709039011.501695,921.875,-1000.0,312.5,-15.13671875,-1.0,1.0,0.0,0.0,8.m4v,4.0
2024-02-27 14:03:31.505601,1709039011.505601,-392.08984375,-947.75390625,-500.0,-24.90234375,-1.0,1.0,0.0,0.0,8.m4v,4.0
2024-02-27 14:03:31.509507,1709039011.509507,-1000.0,-1000.0,-525.390625,-19.04296875,-1.0,1.0,0.0,0.0,8.m4v,4.0
2024-02-27 14:03:31.513413,1709039011.5134127,123.046875,-102.05078125,400.390625,3.41796875,-1.0,1.0,0.0,0.0,8.m4v,4.0
2024-02-27 14:03:31.517319,1709039011.5173187,999.51171875,992.67578125,999.51171875,6.8359375,-1.0,1.0,0.0,0.0,8.m4v,4.0
2024-02-27 14:03:31.521225,1709039011.5212247,924.31640625,999.51171875,738.76953125,-14.6484375,-1.0,1.0,0.0,0.0,8.m4v,4.0
2024-02-27 14:03:31.525131,1709039011.5251305,-145.5078125,383.30078125,-202.63671875,-34.1796875,-1.0,1.0,0.0,0.0,8.m4v,4.0
2024-02-27 14:03:31.529037,1709039011.5290363,-1000.0,-973.6328125,-876.46484375,-42.96875,-1.0,1.0,0.0,0.0,8.m4v,4.0
2024-02-27 14:03:31.532943,1709039011.5329423,-981.4453125,-965.8203125,-513.671875,-29.78515625,-1.0,1.0,0.0,0.0,8.m4v,4.0
2024-02-27 14:03:31.536849,1709039011.5368488,64.94140625,-1000.0,295.41015625,-6.8359375,-1.0,1.0,0.0,0.0,8.m4v,4.0
2024-02-27 14:03:31.540755,1709039011.5407546,999.51171875,-227.5390625,571.2890625,-9.765625,-1.0,1.0,0.0,0.0,8.m4v,4.0
2024-02-27 14:03:31.544661,1709039011.5446606,842.28515625,999.51171875,135.25390625,-25.87890625,-1.0,1.0,0.0,0.0,8.m4v,4.0
2024-02-27 14:03:31.548567,1709039011.5485666,-248.046875,730.95703125,-428.22265625,-27.83203125,-1.0,1.0,0.0,0.0,8.m4v,4.0
2024-02-27 14:03:31.552472,1709039011.5524724,-1000.0,-897.4609375,-461.42578125,-30.76171875,-1.0,1.0,0.0,0.0,8.m4v,4.0
2024-02-27 14:03:31.556378,1709039011.5563784,-197.75390625,-410.15625,415.52734375,-21.484375,-1.0,1.0,0.0,0.0,8.m4v,4.0
2024-02-27 14:03:31.560284,1709039011.5602844,999.51171875,989.2578125,999.51171875,-12.20703125,-1.0,1.0,0.0,0.0,8.m4v,4.0
2024-02-27 14:03:31.564190,1709039011.56419,690.4296875,999.51171875,361.81640625,-24.4140625,-1.0,1.0,0.0,0.0,8.m4v,4.0
2024-02-27 14:03:31.568096,1709039011.5680962,-504.8828125,294.921875,-372.0703125,-39.55078125,-1.0,1.0,0.0,0.0,8.m4v,4.0
2024-02-27 14:03:31.572002,1709039011.5720022,-1000.0,-1000.0,-483.3984375,-41.015625,-1.0,1.0,0.0,0.0,8.m4v,4.0
2024-02-27 14:03:31.575908,1709039011.575908,-381.8359375,-752.9296875,289.0625,-28.3203125,-1.0,1.0,0.0,0.0,8.m4v,4.0
2024-02-27 14:03:31.579814,1709039011.579814,979.4921875,629.39453125,954.58984375,-17.08984375,-1.0,1.0,0.0,0.0,8.m4v,4.0
2024-02-27 14:03:31.583719,1709039011.5837195,802.734375,999.51171875,343.26171875,-31.73828125,-1.0,1.0,0.0,0.0,8.m4v,4.0
2024-02-27 14:03:31.587625,1709039011.5876253,-422.36328125,276.85546875,-415.0390625,-53.7109375,-1.0,1.0,0.0,0.0,8.m4v,4.0
2024-02-27 14:03:31.591531,1709039011.5915313,-1000.0,-997.0703125,-568.84765625,-50.29296875,-1.0,1.0,0.0,0.0,8.m4v,4.0
2024-02-27 14:03:31.595437,1709039011.5954373,-546.38671875,-948.2421875,42.96875,-33.69140625,-1.0,1.0,0.0,0.0,8.m4v,4.0
2024-02-27 14:03:31.599343,1709039011.599343,697.75390625,-1000.0,558.10546875,-24.90234375,-1.0,1.0,0.0,0.0,8.m4v,4.0
2024-02-27 14:03:31.603249,1709039011.603249,999.51171875,-286.62109375,369.140625,-21.97265625,-1.0,1.0,0.0,0.0,8.m4v,4.0
2024-02-27 14:03:31.622779,1709039011.622779,25.390625,-952.63671875,26.85546875,-40.0390625,-1.0,1.0,0.0,0.0,8.m4v,4.0
2024-02-27 14:03:31.638402,1709039011.6384025,951.66015625,671.38671875,856.4453125,-11.71875,-1.0,1.0,0.0,0.0,8.m4v,4.0
2024-02-27 14:03:31.650120,1709039011.6501205,-832.03125,983.88671875,-29.78515625,-40.0390625,-1.0,1.0,0.0,0.0,8.m4v,4.0
2024-02-27 14:03:31.657932,1709039011.6579323,999.51171875,903.3203125,807.6171875,-25.390625,-1.0,1.0,0.0,0.0,8.m4v,4.0
2024-02-27 14:03:31.661838,1709039011.661838,401.85546875,999.51171875,378.41796875,-41.9921875,-1.0,1.0,0.0,0.0,8.m4v,4.0
2024-02-27 14:03:31.665744,1709039011.665744,-837.40234375,256.8359375,-526.3671875,-52.734375,-1.0,1.0,0.0,0.0,8.m4v,4.0
2024-02-27 14:03:31.673556,1709039011.673556,-884.27734375,-1000.0,-519.04296875,-52.24609375,-1.0,1.0,0.0,0.0,8.m4v,4.0
2024-02-27 14:03:31.681368,1709039011.6813676,999.51171875,999.51171875,569.3359375,-52.734375,-1.0,1.0,0.0,0.0,8.m4v,4.0
2024-02-27 14:03:31.685274,1709039011.6852736,577.1484375,953.61328125,-76.66015625,-70.80078125,-1.0,1.0,0.0,0.0,8.m4v,4.0
2024-02-27 14:03:31.689180,1709039011.6891797,-812.5,942.87109375,-526.3671875,-85.9375,-1.0,1.0,0.0,0.0,8.m4v,4.0
2024-02-27 14:03:31.696991,1709039011.6969914,647.4609375,969.7265625,791.015625,-76.66015625,-1.0,1.0,0.0,0.0,8.m4v,4.0
2024-02-27 14:03:31.704803,1709039011.7048032,101.07421875,969.7265625,174.8046875,-108.3984375,-1.0,1.0,0.0,0.0,8.m4v,4.0
2024-02-27 14:03:31.708709,1709039011.7087092,-1000.0,970.21484375,-752.9296875,-120.1171875,-1.0,1.0,0.0,0.0,8.m4v,4.0
2024-02-27 14:03:31.724333,1709039011.7243328,-29.78515625,820.3125,-266.6015625,-124.51171875,-1.0,1.0,0.0,0.0,8.m4v,4.0
2024-02-27 14:03:31.747768,1709039011.7477684,108.3984375,999.51171875,-262.6953125,-133.7890625,-1.0,1.0,0.0,0.0,8.m4v,4.0
2024-02-27 14:03:31.771204,1709039011.7712038,-1000.0,-1000.0,-1000.0,-120.60546875,-1.0,1.0,0.0,0.0,8.m4v,4.0
2024-02-27 14:03:31.786828,1709039011.7868276,-33.69140625,919.43359375,-1000.0,-113.76953125,-1.0,1.0,0.0,0.0,8.m4v,4.0
2024-02-27 14:03:31.802451,1709039011.8024514,190.91796875,661.1328125,-363.76953125,-116.69921875,-1.0,1.0,0.0,0.0,8.m4v,4.0
2024-02-27 14:03:31.818075,1709039011.8180747,489.2578125,-999.51171875,131.8359375,-70.80078125,-1.0,1.0,0.0,0.0,8.m4v,4.0
2024-02-27 14:03:31.841510,1709039011.8415103,999.51171875,-121.09375,528.80859375,-26.85546875,-1.0,1.0,0.0,0.0,8.m4v,4.0
2024-02-27 14:03:31.857134,1709039011.857134,101.5625,-929.19921875,65.91796875,-19.53125,-1.0,1.0,0.0,0.0,8.m4v,4.0
2024-02-27 14:03:31.880569,1709039011.880569,999.51171875,956.54296875,652.34375,-3.90625,-1.0,1.0,0.0,0.0,8.m4v,4.0
2024-02-27 14:03:32.028993,1709039012.0289931,838.37890625,999.51171875,247.55859375,14.16015625,-1.0,1.0,0.0,0.0,8.m4v,4.0
2024-02-27 14:03:32.032899,1709039012.0328991,-278.80859375,910.15625,226.5625,7.8125,-1.0,1.0,0.0,0.0,8.m4v,4.0
2024-02-27 14:03:32.036805,1709039012.0368052,-2.9296875,909.66796875,703.61328125,5.859375,-1.0,1.0,0.0,0.0,8.m4v,4.0
2024-02-27 14:03:32.111018,1709039012.1110177,-1000.0,977.05078125,-470.21484375,-15.13671875,-1.0,1.0,0.0,0.0,8.m4v,4.0
2024-02-27 14:03:32.114924,1709039012.1149237,117.1875,970.703125,242.67578125,-3.90625,-1.0,1.0,0.0,0.0,8.m4v,4.0
2024-02-27 14:03:32.118829,1709039012.1188295,999.51171875,907.2265625,931.640625,-4.39453125,-1.0,1.0,0.0,0.0,8.m4v,4.0
2024-02-27 14:03:32.122736,1709039012.1227355,959.9609375,999.51171875,849.609375,-17.578125,-1.0,1.0,0.0,0.0,8.m4v,4.0
2024-02-27 14:03:32.126642,1709039012.1266415,-115.72265625,188.96484375,-154.78515625,-35.15625,-1.0,1.0,0.0,0.0,8.m4v,4.0
2024-02-27 14:03:32.130547,1709039012.1305473,-1000.0,-1000.0,-909.66796875,-41.015625,-1.0,1.0,0.0,0.0,8.m4v,4.0
2024-02-27 14:03:32.134453,1709039012.1344533,-954.1015625,-983.88671875,-401.3671875,-32.2265625,-1.0,1.0,0.0,0.0,8.m4v,4.0
2024-02-27 14:03:32.138359,1709039012.1383593,302.734375,-973.14453125,268.06640625,-21.484375,-1.0,1.0,0.0,0.0,8.m4v,4.0
2024-02-27 14:03:32.142265,1709039012.142265,739.74609375,-1000.0,-81.54296875,-26.3671875,-1.0,1.0,0.0,0.0,8.m4v,4.0
2024-02-27 14:03:32.146171,1709039012.1461709,-616.2109375,-996.09375,-843.26171875,-41.015625,-1.0,1.0,0.0,0.0,8.m4v,4.0
2024-02-27 14:03:32.150077,1709039012.1500766,-1000.0,-944.82421875,-963.37890625,-36.62109375,-1.0,1.0,0.0,0.0,8.m4v,4.0
2024-02-27 14:03:32.153983,1709039012.1539826,-422.36328125,-1000.0,-477.5390625,-20.5078125,-1.0,1.0,0.0,0.0,8.m4v,4.0
2024-02-27 14:03:32.157889,1709039012.157889,820.3125,-143.5546875,332.03125,-3.90625,-1.0,1.0,0.0,0.0,8.m4v,4.0
2024-02-27 14:03:32.161794,1709039012.1617944,999.51171875,999.51171875,278.80859375,-10.25390625,-1.0,1.0,0.0,0.0,8.m4v,4.0
2024-02-27 14:03:32.165700,1709039012.1657004,758.30078125,943.359375,-194.82421875,-25.390625,-1.0,1.0,0.0,0.0,8.m4v,4.0
2024-02-27 14:03:32.169606,1709039012.1696064,77.63671875,956.0546875,-127.44140625,-26.3671875,-1.0,1.0,0.0,0.0,8.m4v,4.0
2024-02-27 14:03:32.173512,1709039012.1735122,-393.06640625,943.359375,68.84765625,-30.2734375,-1.0,1.0,0.0,0.0,8.m4v,4.0
2024-02-27 14:03:32.177418,1709039012.1774182,629.39453125,965.8203125,727.5390625,-21.97265625,-1.0,1.0,0.0,0.0,8.m4v,4.0
2024-02-27 14:03:32.181324,1709039012.1813242,668.45703125,999.51171875,393.06640625,-21.484375,-1.0,1.0,0.0,0.0,8.m4v,4.0
2024-02-27 14:03:32.185230,1709039012.18523,-755.859375,-287.109375,-715.33203125,-43.9453125,-1.0,1.0,0.0,0.0,8.m4v,4.0
2024-02-27 14:03:32.189136,1709039012.189136,-1000.0,-1000.0,-1000.0,-44.43359375,-1.0,1.0,0.0,0.0,8.m4v,4.0
2024-02-27 14:03:32.193042,1709039012.1930418,-867.1875,-981.4453125,-701.66015625,-20.01953125,-1.0,1.0,0.0,0.0,8.m4v,4.0
2024-02-27 14:03:32.196948,1709039012.1969476,244.140625,-865.72265625,163.0859375,-9.765625,-1.0,1.0,0.0,0.0,8.m4v,4.0
2024-02-27 14:03:32.200854,1709039012.2008536,999.51171875,419.921875,412.59765625,-14.6484375,-1.0,1.0,0.0,0.0,8.m4v,4.0
2024-02-27 14:03:32.204760,1709039012.2047596,818.359375,999.51171875,-102.5390625,-24.4140625,-1.0,1.0,0.0,0.0,8.m4v,4.0
2024-02-27 14:03:32.208665,1709039012.2086654,-330.56640625,579.58984375,-610.3515625,-38.0859375,-1.0,1.0,0.0,0.0,8.m4v,4.0
2024-02-27 14:03:32.212571,1709039012.2125714,-1000.0,-973.14453125,-351.5625,-32.71484375,-1.0,1.0,0.0,0.0,8.m4v,4.0
2024-02-27 14:03:32.216477,1709039012.2164774,88.37890625,-303.22265625,648.92578125,-12.20703125,-1.0,1.0,0.0,0.0,8.m4v,4.0
2024-02-27 14:03:32.220383,1709039012.2203832,999.51171875,999.51171875,770.5078125,-19.53125,-1.0,1.0,0.0,0.0,8.m4v,4.0
2024-02-27 14:03:32.224289,1709039012.2242892,292.96875,982.421875,-124.51171875,-39.0625,-1.0,1.0,0.0,0.0,8.m4v,4.0
2024-02-27 14:03:32.228195,1709039012.2281952,-922.36328125,-166.50390625,-818.84765625,-43.45703125,-1.0,1.0,0.0,0.0,8.m4v,4.0
2024-02-27 14:03:32.232101,1709039012.232101,-1000.0,-1000.0,-779.78515625,-43.9453125,-1.0,1.0,0.0,0.0,8.m4v,4.0
2024-02-27 14:03:32.236007,1709039012.236007,-207.03125,-441.40625,119.140625,-25.87890625,-1.0,1.0,0.0,0.0,8.m4v,4.0
2024-02-27 14:03:32.239914,1709039012.2399137,999.51171875,854.98046875,724.609375,-13.18359375,-1.0,1.0,0.0,0.0,8.m4v,4.0
2024-02-27 14:03:32.243819,1709039012.2438197,755.859375,999.51171875,41.9921875,-31.25,-1.0,1.0,0.0,0.0,8.m4v,4.0
2024-02-27 14:03:32.329749,1709039012.329749,-1000.0,-1000.0,-811.5234375,-46.38671875,-1.0,1.0,0.0,0.0,8.m4v,4.0
2024-02-27 14:03:32.329749,1709039012.329749,-1000.0,-1000.0,-811.5234375,-46.38671875,-1.0,1.0,0.0,0.0,8.m4v,4.0
2024-02-27 14:03:32.329749,1709039012.329749,-1000.0,-1000.0,-811.5234375,-46.38671875,-1.0,1.0,0.0,0.0,8.m4v,4.0
2024-02-27 14:03:32.329749,1709039012.329749,-1000.0,-1000.0,-811.5234375,-46.38671875,-1.0,1.0,0.0,0.0,8.m4v,4.0
2024-02-27 14:03:32.333655,1709039012.3336546,-852.5390625,-961.9140625,-262.6953125,-29.296875,-1.0,1.0,0.0,0.0,8.m4v,4.0
2024-02-27 14:03:32.333655,1709039012.3336546,-852.5390625,-961.9140625,-262.6953125,-29.296875,-1.0,1.0,0.0,0.0,8.m4v,4.0
2024-02-27 14:03:32.333655,1709039012.3336546,-852.5390625,-961.9140625,-262.6953125,-29.296875,-1.0,1.0,0.0,0.0,8.m4v,4.0
2024-02-27 14:03:32.333655,1709039012.3336546,-852.5390625,-961.9140625,-262.6953125,-29.296875,-1.0,1.0,0.0,0.0,8.m4v,4.0
2024-02-27 14:03:32.337560,1709039012.3375604,252.44140625,-1000.0,488.76953125,-25.87890625,-1.0,1.0,0.0,0.0,8.m4v,4.0
2024-02-27 14:03:32.337560,1709039012.3375604,252.44140625,-1000.0,488.76953125,-25.87890625,-1.0,1.0,0.0,0.0,8.m4v,4.0
2024-02-27 14:03:32.337560,1709039012.3375604,252.44140625,-1000.0,488.76953125,-25.87890625,-1.0,1.0,0.0,0.0,8.m4v,4.0
2024-02-27 14:03:32.337560,1709039012.3375604,252.44140625,-1000.0,488.76953125,-25.87890625,-1.0,1.0,0.0,0.0,8.m4v,4.0
2024-02-27 14:03:32.341466,1709039012.3414664,999.51171875,-90.33203125,426.7578125,-29.296875,-1.0,1.0,0.0,0.0,8.m4v,4.0
2024-02-27 14:03:32.341466,1709039012.3414664,999.51171875,-90.33203125,426.7578125,-29.296875,-1.0,1.0,0.0,0.0,8.m4v,4.0
2024-02-27 14:03:32.341466,1709039012.3414664,999.51171875,-90.33203125,426.7578125,-29.296875,-1.0,1.0,0.0,0.0,8.m4v,4.0
2024-02-27 14:03:32.341466,1709039012.3414664,999.51171875,-90.33203125,426.7578125,-29.296875,-1.0,1.0,0.0,0.0,8.m4v,4.0
2024-02-27 14:03:32.345372,1709039012.3453724,585.9375,999.51171875,-161.62109375,-33.69140625,-1.0,1.0,0.0,0.0,8.m4v,4.0
2024-02-27 14:03:32.345372,1709039012.3453724,585.9375,999.51171875,-161.62109375,-33.69140625,-1.0,1.0,0.0,0.0,8.m4v,4.0
2024-02-27 14:03:32.345372,1709039012.3453724,585.9375,999.51171875,-161.62109375,-33.69140625,-1.0,1.0,0.0,0.0,8.m4v,4.0
2024-02-27 14:03:32.345372,1709039012.3453724,585.9375,999.51171875,-161.62109375,-33.69140625,-1.0,1.0,0.0,0.0,8.m4v,4.0
2024-02-27 14:03:32.349278,1709039012.3492782,-741.2109375,204.58984375,-675.78125,-40.0390625,-1.0,1.0,0.0,0.0,8.m4v,4.0
2024-02-27 14:03:32.349278,1709039012.3492782,-741.2109375,204.58984375,-675.78125,-40.0390625,-1.0,1.0,0.0,0.0,8.m4v,4.0
2024-02-27 14:03:32.349278,1709039012.3492782,-741.2109375,204.58984375,-675.78125,-40.0390625,-1.0,1.0,0.0,0.0,8.m4v,4.0
2024-02-27 14:03:32.349278,1709039012.3492782,-741.2109375,204.58984375,-675.78125,-40.0390625,-1.0,1.0,0.0,0.0,8.m4v,4.0
2024-02-27 14:03:32.353184,1709039012.3531842,-934.5703125,-1000.0,-269.53125,-36.62109375,-1.0,1.0,0.0,0.0,8.m4v,4.0
2024-02-27 14:03:32.353184,1709039012.3531842,-934.5703125,-1000.0,-269.53125,-36.62109375,-1.0,1.0,0.0,0.0,8.m4v,4.0
2024-02-27 14:03:32.353184,1709039012.3531842,-934.5703125,-1000.0,-269.53125,-36.62109375,-1.0,1.0,0.0,0.0,8.m4v,4.0
2024-02-27 14:03:32.353184,1709039012.3531842,-934.5703125,-1000.0,-269.53125,-36.62109375,-1.0,1.0,0.0,0.0,8.m4v,4.0
2024-02-27 14:03:32.357090,1709039012.3570902,351.07421875,-167.48046875,781.25,-18.06640625,-1.0,1.0,0.0,0.0,8.m4v,4.0
2024-02-27 14:03:32.357090,1709039012.3570902,351.07421875,-167.48046875,781.25,-18.06640625,-1.0,1.0,0.0,0.0,8.m4v,4.0
2024-02-27 14:03:32.357090,1709039012.3570902,351.07421875,-167.48046875,781.25,-18.06640625,-1.0,1.0,0.0,0.0,8.m4v,4.0
2024-02-27 14:03:32.357090,1709039012.3570902,351.07421875,-167.48046875,781.25,-18.06640625,-1.0,1.0,0.0,0.0,8.m4v,4.0
2024-02-27 14:03:32.360996,1709039012.360996,999.51171875,999.51171875,904.296875,-17.578125,-1.0,1.0,0.0,0.0,8.m4v,4.0
2024-02-27 14:03:32.360996,1709039012.360996,999.51171875,999.51171875,904.296875,-17.578125,-1.0,1.0,0.0,0.0,8.m4v,4.0
2024-02-27 14:03:32.360996,1709039012.360996,999.51171875,999.51171875,904.296875,-17.578125,-1.0,1.0,0.0,0.0,8.m4v,4.0
2024-02-27 14:03:32.360996,1709039012.360996,999.51171875,999.51171875,904.296875,-17.578125,-1.0,1.0,0.0,0.0,8.m4v,4.0
2024-02-27 14:03:32.364902,1709039012.364902,384.27734375,999.51171875,185.546875,-30.2734375,-1.0,1.0,0.0,0.0,8.m4v,4.0
2024-02-27 14:03:32.364902,1709039012.364902,384.27734375,999.51171875,185.546875,-30.2734375,-1.0,1.0,0.0,0.0,8.m4v,4.0
2024-02-27 14:03:32.364902,1709039012.364902,384.27734375,999.51171875,185.546875,-30.2734375,-1.0,1.0,0.0,0.0,8.m4v,4.0
2024-02-27 14:03:32.364902,1709039012.364902,384.27734375,999.51171875,185.546875,-30.2734375,-1.0,1.0,0.0,0.0,8.m4v,4.0
2024-02-27 14:03:32.368808,1709039012.368808,-827.63671875,106.4453125,-488.28125,-34.66796875,-1.0,1.0,0.0,0.0,8.m4v,4.0
2024-02-27 14:03:32.372714,1709039012.3727138,-1000.0,-1000.0,-405.2734375,-38.0859375,-1.0,1.0,0.0,0.0,8.m4v,4.0
2024-02-27 14:03:32.376620,1709039012.3766198,-323.73046875,-976.07421875,251.46484375,-24.4140625,-1.0,1.0,0.0,0.0,8.m4v,4.0
2024-02-27 14:03:32.380526,1709039012.380526,999.51171875,-977.5390625,416.50390625,-13.671875,-1.0,1.0,0.0,0.0,8.m4v,4.0
2024-02-27 14:03:32.384432,1709039012.3844318,123.046875,-1000.0,-279.78515625,-29.296875,-1.0,1.0,0.0,0.0,8.m4v,4.0
2024-02-27 14:03:32.388338,1709039012.388338,-1000.0,-937.5,-817.3828125,-40.0390625,-1.0,1.0,0.0,0.0,8.m4v,4.0
2024-02-27 14:03:32.392244,1709039012.392244,-829.58984375,-1000.0,-472.16796875,-31.73828125,-1.0,1.0,0.0,0.0,8.m4v,4.0
2024-02-27 14:03:32.396150,1709039012.3961496,351.07421875,-219.7265625,406.25,-20.5078125,-1.0,1.0,0.0,0.0,8.m4v,4.0
2024-02-27 14:03:32.400056,1709039012.4000556,999.51171875,999.51171875,999.51171875,-16.6015625,-1.0,1.0,0.0,0.0,8.m4v,4.0
2024-02-27 14:03:32.403962,1709039012.4039617,841.796875,953.61328125,619.140625,-31.73828125,-1.0,1.0,0.0,0.0,8.m4v,4.0
2024-02-27 14:03:32.407867,1709039012.4078674,-288.0859375,942.3828125,-227.05078125,-46.875,-1.0,1.0,0.0,0.0,8.m4v,4.0
2024-02-27 14:03:32.411773,1709039012.4117734,-1000.0,986.81640625,-302.24609375,-41.9921875,-1.0,1.0,0.0,0.0,8.m4v,4.0
2024-02-27 14:03:32.415679,1709039012.4156792,-80.078125,928.7109375,457.03125,-26.85546875,-1.0,1.0,0.0,0.0,8.m4v,4.0
2024-02-27 14:03:32.419585,1709039012.4195852,999.51171875,988.76953125,928.7109375,-17.578125,-1.0,1.0,0.0,0.0,8.m4v,4.0
2024-02-27 14:03:32.423491,1709039012.4234912,261.23046875,934.08203125,220.703125,-28.3203125,-1.0,1.0,0.0,0.0,8.m4v,4.0
2024-02-27 14:03:32.427397,1709039012.4273973,-951.66015625,-400.87890625,-648.92578125,-49.8046875,-1.0,1.0,0.0,0.0,8.m4v,4.0
2024-02-27 14:03:32.431303,1709039012.431303,-1000.0,-1000.0,-666.9921875,-48.33984375,-1.0,1.0,0.0,0.0,8.m4v,4.0
2024-02-27 14:03:32.435209,1709039012.435209,-410.64453125,-935.05859375,124.0234375,-27.83203125,-1.0,1.0,0.0,0.0,8.m4v,4.0
2024-02-27 14:03:32.439115,1709039012.439115,999.51171875,-1000.0,572.75390625,-19.04296875,-1.0,1.0,0.0,0.0,8.m4v,4.0
2024-02-27 14:03:32.443021,1709039012.4430208,442.87109375,-1000.0,-58.59375,-33.203125,-1.0,1.0,0.0,0.0,8.m4v,4.0
2024-02-27 14:03:32.446927,1709039012.4469268,-935.546875,-931.640625,-463.37890625,-43.45703125,-1.0,1.0,0.0,0.0,8.m4v,4.0
2024-02-27 14:03:32.450833,1709039012.4508328,-927.24609375,-1000.0,-201.171875,-39.55078125,-1.0,1.0,0.0,0.0,8.m4v,4.0
2024-02-27 14:03:32.454739,1709039012.4547386,201.171875,-314.94140625,400.390625,-24.90234375,-1.0,1.0,0.0,0.0,8.m4v,4.0
2024-02-27 14:03:32.458645,1709039012.4586446,999.51171875,962.890625,892.578125,-11.23046875,-1.0,1.0,0.0,0.0,8.m4v,4.0
2024-02-27 14:03:32.462551,1709039012.4625506,708.984375,986.328125,307.12890625,-34.1796875,-1.0,1.0,0.0,0.0,8.m4v,4.0
2024-02-27 14:03:32.466456,1709039012.4664564,-445.80078125,899.4140625,-469.7265625,-48.33984375,-1.0,1.0,0.0,0.0,8.m4v,4.0
2024-02-27 14:03:32.470362,1709039012.4703624,-1000.0,-340.33203125,-677.24609375,-40.52734375,-1.0,1.0,0.0,0.0,8.m4v,4.0
2024-02-27 14:03:32.474268,1709039012.4742684,-683.10546875,-1000.0,-183.10546875,-29.296875,-1.0,1.0,0.0,0.0,8.m4v,4.0
2024-02-27 14:03:32.478174,1709039012.4781744,534.1796875,82.03125,754.8828125,-18.06640625,-1.0,1.0,0.0,0.0,8.m4v,4.0
2024-02-27 14:03:32.482080,1709039012.4820802,999.51171875,999.51171875,779.78515625,-24.4140625,-1.0,1.0,0.0,0.0,8.m4v,4.0
2024-02-27 14:03:32.485986,1709039012.4859862,220.703125,999.51171875,-50.78125,-36.1328125,-1.0,1.0,0.0,0.0,8.m4v,4.0
2024-02-27 14:03:32.489892,1709039012.4898922,-1000.0,78.125,-552.24609375,-48.828125,-1.0,1.0,0.0,0.0,8.m4v,4.0
2024-02-27 14:03:32.493798,1709039012.493798,-647.4609375,-902.34375,115.72265625,-40.0390625,-1.0,1.0,0.0,0.0,8.m4v,4.0
2024-02-27 14:03:32.497704,1709039012.497704,786.1328125,516.6015625,999.51171875,-15.13671875,-1.0,1.0,0.0,0.0,8.m4v,4.0
2024-02-27 14:03:32.501610,1709039012.50161,941.40625,999.51171875,587.890625,-23.4375,-1.0,1.0,0.0,0.0,8.m4v,4.0
2024-02-27 14:03:32.505516,1709039012.5055158,-301.26953125,336.9140625,-388.671875,-39.0625,-1.0,1.0,0.0,0.0,8.m4v,4.0
2024-02-27 14:03:32.509422,1709039012.5094218,-1000.0,-904.296875,-815.4296875,-45.41015625,-1.0,1.0,0.0,0.0,8.m4v,4.0
2024-02-27 14:03:32.536763,1709039012.5367632,-316.89453125,-778.3203125,331.0546875,-24.90234375,-1.0,1.0,0.0,0.0,8.m4v,4.0
2024-02-27 14:03:32.548481,1709039012.548481,-443.359375,150.390625,-398.92578125,-42.48046875,-1.0,1.0,0.0,0.0,8.m4v,4.0
2024-02-27 14:03:32.568010,1709039012.56801,-1000.0,-934.08203125,-729.4921875,-27.83203125,-1.0,1.0,0.0,0.0,8.m4v,4.0
2024-02-27 14:03:32.587540,1709039012.5875397,27.83203125,938.4765625,-40.0390625,-40.0390625,-1.0,1.0,0.0,0.0,8.m4v,4.0
2024-02-27 14:03:32.603163,1709039012.6031637,90.8203125,316.40625,25.87890625,-42.48046875,-1.0,1.0,0.0,0.0,8.m4v,4.0
2024-02-27 14:03:32.622693,1709039012.6226926,498.046875,-1000.0,-265.13671875,-41.9921875,-1.0,1.0,0.0,0.0,8.m4v,4.0
2024-02-27 14:03:32.833612,1709039012.8336115,-1000.0,-1000.0,-362.79296875,-39.0625,-1.0,1.0,0.0,0.0,8.m4v,4.0
2024-02-27 14:03:32.837518,1709039012.8375175,-171.875,-497.0703125,390.13671875,-23.92578125,-1.0,1.0,0.0,0.0,8.m4v,4.0
2024-02-27 14:03:32.845330,1709039012.8453295,398.4375,992.1875,-285.64453125,-38.57421875,-1.0,1.0,0.0,0.0,8.m4v,4.0
2024-02-27 14:03:33.099213,1709039013.0992126,889.6484375,263.18359375,758.30078125,-27.83203125,-1.0,1.0,0.0,0.0,8.m4v,4.0
2024-02-27 14:03:33.103119,1709039013.103119,999.51171875,999.51171875,640.625,-29.78515625,-1.0,1.0,0.0,0.0,8.m4v,4.0
2024-02-27 14:03:33.107025,1709039013.107025,533.69140625,999.51171875,352.05078125,-39.0625,-1.0,1.0,0.0,0.0,8.m4v,4.0
2024-02-27 14:03:33.110930,1709039013.1109304,-718.26171875,250.0,-64.453125,-49.8046875,-1.0,1.0,0.0,0.0,8.m4v,4.0
2024-02-27 14:03:33.114836,1709039013.1148365,-1000.0,-1000.0,110.83984375,-50.29296875,-1.0,1.0,0.0,0.0,8.m4v,4.0
2024-02-27 14:03:33.169520,1709039013.1695197,-1000.0,-1000.0,-914.0625,-52.24609375,-1.0,1.0,0.0,0.0,8.m4v,4.0
2024-02-27 14:03:33.173425,1709039013.1734254,-734.86328125,-1000.0,-377.44140625,-38.57421875,-1.0,1.0,0.0,0.0,8.m4v,4.0
2024-02-27 14:03:33.177331,1709039013.1773314,460.9375,-270.5078125,493.1640625,-21.484375,-1.0,1.0,0.0,0.0,8.m4v,4.0
2024-02-27 14:03:33.181237,1709039013.1812377,999.51171875,999.51171875,603.515625,-18.5546875,-1.0,1.0,0.0,0.0,8.m4v,4.0
2024-02-27 14:03:33.185143,1709039013.1851432,613.28125,959.9609375,-36.62109375,-33.69140625,-1.0,1.0,0.0,0.0,8.m4v,4.0
2024-02-27 14:03:33.189049,1709039013.1890492,-729.00390625,939.453125,-353.515625,-32.71484375,-1.0,1.0,0.0,0.0,8.m4v,4.0
2024-02-27 14:03:33.192955,1709039013.1929553,-667.96875,989.74609375,99.609375,-21.484375,-1.0,1.0,0.0,0.0,8.m4v,4.0
2024-02-27 14:03:33.196861,1709039013.196861,711.42578125,895.99609375,829.58984375,-18.5546875,-1.0,1.0,0.0,0.0,8.m4v,4.0
2024-02-27 14:03:33.200767,1709039013.200767,999.51171875,999.51171875,999.51171875,-24.4140625,-1.0,1.0,0.0,0.0,8.m4v,4.0
2024-02-27 14:03:33.204673,1709039013.204673,100.5859375,444.3359375,231.93359375,-41.015625,-1.0,1.0,0.0,0.0,8.m4v,4.0
2024-02-27 14:03:33.208579,1709039013.2085788,-1000.0,-962.40234375,-814.453125,-57.12890625,-1.0,1.0,0.0,0.0,8.m4v,4.0
2024-02-27 14:03:33.212485,1709039013.2124848,-1000.0,-1000.0,-689.94140625,-41.015625,-1.0,1.0,0.0,0.0,8.m4v,4.0
2024-02-27 14:03:33.216391,1709039013.2163908,-258.7890625,-952.1484375,138.671875,-27.83203125,-1.0,1.0,0.0,0.0,8.m4v,4.0
2024-02-27 14:03:33.220297,1709039013.2202966,998.53515625,-1000.0,249.0234375,-36.62109375,-1.0,1.0,0.0,0.0,8.m4v,4.0
2024-02-27 14:03:33.224204,1709039013.2242036,8.7890625,-996.58203125,-481.93359375,-42.96875,-1.0,1.0,0.0,0.0,8.m4v,4.0
2024-02-27 14:03:33.228110,1709039013.2281096,-1000.0,-944.3359375,-859.86328125,-43.9453125,-1.0,1.0,0.0,0.0,8.m4v,4.0
2024-02-27 14:03:33.232015,1709039013.2320154,-582.51953125,-1000.0,-371.09375,-38.57421875,-1.0,1.0,0.0,0.0,8.m4v,4.0
2024-02-27 14:03:33.235921,1709039013.2359214,695.3125,-131.8359375,566.40625,-20.5078125,-1.0,1.0,0.0,0.0,8.m4v,4.0
2024-02-27 14:03:33.239827,1709039013.2398274,999.51171875,986.81640625,895.5078125,-20.01953125,-1.0,1.0,0.0,0.0,8.m4v,4.0
2024-02-27 14:03:33.243733,1709039013.2437332,927.24609375,999.51171875,509.765625,-35.15625,-1.0,1.0,0.0,0.0,8.m4v,4.0
2024-02-27 14:03:33.247639,1709039013.2476392,-37.59765625,578.125,-96.19140625,-41.50390625,-1.0,1.0,0.0,0.0,8.m4v,4.0
2024-02-27 14:03:33.251545,1709039013.2515452,-1000.0,-876.46484375,-520.99609375,-44.43359375,-1.0,1.0,0.0,0.0,8.m4v,4.0
2024-02-27 14:03:33.255451,1709039013.255451,-545.8984375,-1000.0,120.60546875,-29.78515625,-1.0,1.0,0.0,0.0,8.m4v,4.0
2024-02-27 14:03:33.259357,1709039013.259357,847.16796875,312.5,872.55859375,-19.53125,-1.0,1.0,0.0,0.0,8.m4v,4.0
2024-02-27 14:03:33.263263,1709039013.263263,832.51953125,999.51171875,350.5859375,-34.66796875,-1.0,1.0,0.0,0.0,8.m4v,4.0
2024-02-27 14:03:33.267169,1709039013.2671688,-422.8515625,264.6484375,-498.53515625,-53.22265625,-1.0,1.0,0.0,0.0,8.m4v,4.0
2024-02-27 14:03:33.271075,1709039013.2710743,-1000.0,-1000.0,-659.1796875,-56.15234375,-1.0,1.0,0.0,0.0,8.m4v,4.0
2024-02-27 14:03:33.274981,1709039013.2749803,-566.40625,-1000.0,-43.9453125,-35.64453125,-1.0,1.0,0.0,0.0,8.m4v,4.0
2024-02-27 14:03:33.278886,1709039013.2788863,815.91796875,-976.5625,458.49609375,-28.3203125,-1.0,1.0,0.0,0.0,8.m4v,4.0
2024-02-27 14:03:33.282792,1709039013.2827923,720.21484375,-944.82421875,20.99609375,-34.66796875,-1.0,1.0,0.0,0.0,8.m4v,4.0
2024-02-27 14:03:33.282792,1709039013.2827923,720.21484375,-944.82421875,20.99609375,-34.66796875,-1.0,1.0,0.0,0.0,8.m4v,4.0
2024-02-27 14:03:33.286698,1709039013.2866983,-811.03515625,-1000.0,-642.578125,-37.109375,-1.0,1.0,0.0,0.0,8.m4v,4.0
2024-02-27 14:03:33.286698,1709039013.2866983,-811.03515625,-1000.0,-642.578125,-37.109375,-1.0,1.0,0.0,0.0,8.m4v,4.0
2024-02-27 14:03:33.290604,1709039013.290604,-684.08203125,-698.2421875,-264.16015625,-28.80859375,-1.0,1.0,0.0,0.0,8.m4v,4.0
2024-02-27 14:03:33.290604,1709039013.290604,-684.08203125,-698.2421875,-264.16015625,-28.80859375,-1.0,1.0,0.0,0.0,8.m4v,4.0
2024-02-27 14:03:33.294510,1709039013.29451,717.28515625,735.83984375,751.953125,-6.34765625,-1.0,1.0,0.0,0.0,8.m4v,4.0
2024-02-27 14:03:33.294510,1709039013.29451,717.28515625,735.83984375,751.953125,-6.34765625,-1.0,1.0,0.0,0.0,8.m4v,4.0
2024-02-27 14:03:33.298416,1709039013.298416,999.51171875,980.95703125,940.91796875,-10.7421875,-1.0,1.0,0.0,0.0,8.m4v,4.0
2024-02-27 14:03:33.298416,1709039013.298416,999.51171875,980.95703125,940.91796875,-10.7421875,-1.0,1.0,0.0,0.0,8.m4v,4.0
2024-02-27 14:03:33.302322,1709039013.302322,479.98046875,999.51171875,275.390625,-27.83203125,-1.0,1.0,0.0,0.0,8.m4v,4.0
2024-02-27 14:03:33.302322,1709039013.302322,479.98046875,999.51171875,275.390625,-27.83203125,-1.0,1.0,0.0,0.0,8.m4v,4.0
2024-02-27 14:03:33.306228,1709039013.306228,-705.078125,215.8203125,-514.6484375,-41.015625,-1.0,1.0,0.0,0.0,8.m4v,4.0
2024-02-27 14:03:33.306228,1709039013.306228,-705.078125,215.8203125,-514.6484375,-41.015625,-1.0,1.0,0.0,0.0,8.m4v,4.0
2024-02-27 14:03:33.310134,1709039013.310134,-1000.0,-1000.0,-808.10546875,-47.36328125,-1.0,1.0,0.0,0.0,8.m4v,4.0
2024-02-27 14:03:33.310134,1709039013.310134,-1000.0,-1000.0,-808.10546875,-47.36328125,-1.0,1.0,0.0,0.0,8.m4v,4.0
2024-02-27 14:03:33.310134,1709039013.310134,-1000.0,-1000.0,-808.10546875,-47.36328125,-1.0,1.0,0.0,0.0,8.m4v,4.0
2024-02-27 14:03:33.314040,1709039013.3140397,-702.1484375,-1000.0,-349.12109375,-32.2265625,-1.0,1.0,0.0,0.0,8.m4v,4.0
2024-02-27 14:03:33.314040,1709039013.3140397,-702.1484375,-1000.0,-349.12109375,-32.2265625,-1.0,1.0,0.0,0.0,8.m4v,4.0
2024-02-27 14:03:33.314040,1709039013.3140397,-702.1484375,-1000.0,-349.12109375,-32.2265625,-1.0,1.0,0.0,0.0,8.m4v,4.0
2024-02-27 14:03:33.317946,1709039013.3179464,491.69921875,-189.94140625,643.06640625,-12.20703125,-1.0,1.0,0.0,0.0,8.m4v,4.0
2024-02-27 14:03:33.317946,1709039013.3179464,491.69921875,-189.94140625,643.06640625,-12.20703125,-1.0,1.0,0.0,0.0,8.m4v,4.0
2024-02-27 14:03:33.317946,1709039013.3179464,491.69921875,-189.94140625,643.06640625,-12.20703125,-1.0,1.0,0.0,0.0,8.m4v,4.0
2024-02-27 14:03:33.321852,1709039013.3218524,999.51171875,999.51171875,659.1796875,-14.16015625,-1.0,1.0,0.0,0.0,8.m4v,4.0
2024-02-27 14:03:33.321852,1709039013.3218524,999.51171875,999.51171875,659.1796875,-14.16015625,-1.0,1.0,0.0,0.0,8.m4v,4.0
2024-02-27 14:03:33.321852,1709039013.3218524,999.51171875,999.51171875,659.1796875,-14.16015625,-1.0,1.0,0.0,0.0,8.m4v,4.0
2024-02-27 14:03:33.325758,1709039013.3257582,96.19140625,979.4921875,-268.06640625,-33.203125,-1.0,1.0,0.0,0.0,8.m4v,4.0
2024-02-27 14:03:33.325758,1709039013.3257582,96.19140625,979.4921875,-268.06640625,-33.203125,-1.0,1.0,0.0,0.0,8.m4v,4.0
2024-02-27 14:03:33.325758,1709039013.3257582,96.19140625,979.4921875,-268.06640625,-33.203125,-1.0,1.0,0.0,0.0,8.m4v,4.0
2024-02-27 14:03:33.329664,1709039013.3296642,-1000.0,-217.7734375,-693.359375,-37.109375,-1.0,1.0,0.0,0.0,8.m4v,4.0
2024-02-27 14:03:33.329664,1709039013.3296642,-1000.0,-217.7734375,-693.359375,-37.109375,-1.0,1.0,0.0,0.0,8.m4v,4.0
2024-02-27 14:03:33.329664,1709039013.3296642,-1000.0,-217.7734375,-693.359375,-37.109375,-1.0,1.0,0.0,0.0,8.m4v,4.0
2024-02-27 14:03:33.333570,1709039013.3335702,-945.80078125,-1000.0,-386.71875,-28.3203125,-1.0,1.0,0.0,0.0,8.m4v,4.0
2024-02-27 14:03:33.333570,1709039013.3335702,-945.80078125,-1000.0,-386.71875,-28.3203125,-1.0,1.0,0.0,0.0,8.m4v,4.0
2024-02-27 14:03:33.333570,1709039013.3335702,-945.80078125,-1000.0,-386.71875,-28.3203125,-1.0,1.0,0.0,0.0,8.m4v,4.0
2024-02-27 14:03:33.337476,1709039013.337476,188.4765625,-179.19921875,588.8671875,-16.11328125,-1.0,1.0,0.0,0.0,8.m4v,4.0
2024-02-27 14:03:33.337476,1709039013.337476,188.4765625,-179.19921875,588.8671875,-16.11328125,-1.0,1.0,0.0,0.0,8.m4v,4.0
2024-02-27 14:03:33.337476,1709039013.337476,188.4765625,-179.19921875,588.8671875,-16.11328125,-1.0,1.0,0.0,0.0,8.m4v,4.0
2024-02-27 14:03:33.341382,1709039013.341382,999.51171875,999.51171875,871.58203125,-19.04296875,-1.0,1.0,0.0,0.0,8.m4v,4.0
2024-02-27 14:03:33.341382,1709039013.341382,999.51171875,999.51171875,871.58203125,-19.04296875,-1.0,1.0,0.0,0.0,8.m4v,4.0
2024-02-27 14:03:33.341382,1709039013.341382,999.51171875,999.51171875,871.58203125,-19.04296875,-1.0,1.0,0.0,0.0,8.m4v,4.0
2024-02-27 14:03:33.345288,1709039013.345288,278.3203125,999.51171875,-20.01953125,-40.52734375,-1.0,1.0,0.0,0.0,8.m4v,4.0
2024-02-27 14:03:33.345288,1709039013.345288,278.3203125,999.51171875,-20.01953125,-40.52734375,-1.0,1.0,0.0,0.0,8.m4v,4.0
2024-02-27 14:03:33.345288,1709039013.345288,278.3203125,999.51171875,-20.01953125,-40.52734375,-1.0,1.0,0.0,0.0,8.m4v,4.0
2024-02-27 14:03:33.349194,1709039013.3491938,-959.9609375,-93.26171875,-612.3046875,-54.19921875,-1.0,1.0,0.0,0.0,8.m4v,4.0
2024-02-27 14:03:33.349194,1709039013.3491938,-959.9609375,-93.26171875,-612.3046875,-54.19921875,-1.0,1.0,0.0,0.0,8.m4v,4.0
2024-02-27 14:03:33.349194,1709039013.3491938,-959.9609375,-93.26171875,-612.3046875,-54.19921875,-1.0,1.0,0.0,0.0,8.m4v,4.0
2024-02-27 14:03:33.353100,1709039013.3530998,-1000.0,-1000.0,-329.1015625,-41.9921875,-1.0,1.0,0.0,0.0,8.m4v,4.0
2024-02-27 14:03:33.353100,1709039013.3530998,-1000.0,-1000.0,-329.1015625,-41.9921875,-1.0,1.0,0.0,0.0,8.m4v,4.0
2024-02-27 14:03:33.353100,1709039013.3530998,-1000.0,-1000.0,-329.1015625,-41.9921875,-1.0,1.0,0.0,0.0,8.m4v,4.0
2024-02-27 14:03:33.357006,1709039013.3570058,-61.5234375,-775.87890625,292.48046875,-25.390625,-1.0,1.0,0.0,0.0,8.m4v,4.0
2024-02-27 14:03:33.357006,1709039013.3570058,-61.5234375,-775.87890625,292.48046875,-25.390625,-1.0,1.0,0.0,0.0,8.m4v,4.0
2024-02-27 14:03:33.357006,1709039013.3570058,-61.5234375,-775.87890625,292.48046875,-25.390625,-1.0,1.0,0.0,0.0,8.m4v,4.0
2024-02-27 14:03:33.360912,1709039013.3609116,999.51171875,521.484375,520.5078125,-25.87890625,-1.0,1.0,0.0,0.0,8.m4v,4.0
2024-02-27 14:03:33.360912,1709039013.3609116,999.51171875,521.484375,520.5078125,-25.87890625,-1.0,1.0,0.0,0.0,8.m4v,4.0
2024-02-27 14:03:33.360912,1709039013.3609116,999.51171875,521.484375,520.5078125,-25.87890625,-1.0,1.0,0.0,0.0,8.m4v,4.0
2024-02-27 14:03:33.364817,1709039013.3648171,641.6015625,999.51171875,-18.5546875,-41.50390625,-1.0,1.0,0.0,0.0,8.m4v,4.0
2024-02-27 14:03:33.364817,1709039013.3648171,641.6015625,999.51171875,-18.5546875,-41.50390625,-1.0,1.0,0.0,0.0,8.m4v,4.0
2024-02-27 14:03:33.364817,1709039013.3648171,641.6015625,999.51171875,-18.5546875,-41.50390625,-1.0,1.0,0.0,0.0,8.m4v,4.0
2024-02-27 14:03:33.368723,1709039013.368723,-597.65625,218.26171875,-620.1171875,-45.8984375,-1.0,1.0,0.0,0.0,8.m4v,4.0
2024-02-27 14:03:33.368723,1709039013.368723,-597.65625,218.26171875,-620.1171875,-45.8984375,-1.0,1.0,0.0,0.0,8.m4v,4.0
2024-02-27 14:03:33.368723,1709039013.368723,-597.65625,218.26171875,-620.1171875,-45.8984375,-1.0,1.0,0.0,0.0,8.m4v,4.0
2024-02-27 14:03:33.372629,1709039013.372629,-1000.0,-1000.0,-575.1953125,-38.57421875,-1.0,1.0,0.0,0.0,8.m4v,4.0
2024-02-27 14:03:33.372629,1709039013.372629,-1000.0,-1000.0,-575.1953125,-38.57421875,-1.0,1.0,0.0,0.0,8.m4v,4.0
2024-02-27 14:03:33.372629,1709039013.372629,-1000.0,-1000.0,-575.1953125,-38.57421875,-1.0,1.0,0.0,0.0,8.m4v,4.0
2024-02-27 14:03:33.376535,1709039013.376535,-96.19140625,-380.37109375,336.9140625,-18.5546875,-1.0,1.0,0.0,0.0,8.m4v,4.0
2024-02-27 14:03:33.376535,1709039013.376535,-96.19140625,-380.37109375,336.9140625,-18.5546875,-1.0,1.0,0.0,0.0,8.m4v,4.0
2024-02-27 14:03:33.376535,1709039013.376535,-96.19140625,-380.37109375,336.9140625,-18.5546875,-1.0,1.0,0.0,0.0,8.m4v,4.0
2024-02-27 14:03:33.380441,1709039013.3804407,999.51171875,996.58203125,751.46484375,-16.11328125,-1.0,1.0,0.0,0.0,8.m4v,4.0
2024-02-27 14:03:33.380441,1709039013.3804407,999.51171875,996.58203125,751.46484375,-16.11328125,-1.0,1.0,0.0,0.0,8.m4v,4.0
2024-02-27 14:03:33.380441,1709039013.3804407,999.51171875,996.58203125,751.46484375,-16.11328125,-1.0,1.0,0.0,0.0,8.m4v,4.0
2024-02-27 14:03:33.384347,1709039013.3843467,773.4375,921.38671875,125.0,-34.66796875,-1.0,1.0,0.0,0.0,8.m4v,4.0
2024-02-27 14:03:33.384347,1709039013.3843467,773.4375,921.38671875,125.0,-34.66796875,-1.0,1.0,0.0,0.0,8.m4v,4.0
2024-02-27 14:03:33.384347,1709039013.3843467,773.4375,921.38671875,125.0,-34.66796875,-1.0,1.0,0.0,0.0,8.m4v,4.0
2024-02-27 14:03:33.392159,1709039013.3921585,-1000.0,119.140625,-225.5859375,-36.1328125,-1.0,1.0,0.0,0.0,8.m4v,4.0
2024-02-27 14:03:33.392159,1709039013.3921585,-1000.0,119.140625,-225.5859375,-36.1328125,-1.0,1.0,0.0,0.0,8.m4v,4.0
2024-02-27 14:03:33.392159,1709039013.3921585,-1000.0,119.140625,-225.5859375,-36.1328125,-1.0,1.0,0.0,0.0,8.m4v,4.0
2024-02-27 14:03:33.399971,1709039013.3999703,506.34765625,-973.14453125,386.71875,-26.3671875,-1.0,1.0,0.0,0.0,8.m4v,4.0
2024-02-27 14:03:33.399971,1709039013.3999703,506.34765625,-973.14453125,386.71875,-26.3671875,-1.0,1.0,0.0,0.0,8.m4v,4.0
2024-02-27 14:03:33.399971,1709039013.3999703,506.34765625,-973.14453125,386.71875,-26.3671875,-1.0,1.0,0.0,0.0,8.m4v,4.0
2024-02-27 14:03:33.403876,1709039013.4038763,-15.625,-993.1640625,-377.44140625,-37.59765625,-1.0,1.0,0.0,0.0,8.m4v,4.0
2024-02-27 14:03:33.403876,1709039013.4038763,-15.625,-993.1640625,-377.44140625,-37.59765625,-1.0,1.0,0.0,0.0,8.m4v,4.0
2024-02-27 14:03:33.403876,1709039013.4038763,-15.625,-993.1640625,-377.44140625,-37.59765625,-1.0,1.0,0.0,0.0,8.m4v,4.0
2024-02-27 14:03:33.411688,1709039013.4116876,-934.08203125,-1000.0,-650.87890625,-37.109375,-1.0,1.0,0.0,0.0,8.m4v,4.0
2024-02-27 14:03:33.411688,1709039013.4116876,-934.08203125,-1000.0,-650.87890625,-37.109375,-1.0,1.0,0.0,0.0,8.m4v,4.0
2024-02-27 14:03:33.411688,1709039013.4116876,-934.08203125,-1000.0,-650.87890625,-37.109375,-1.0,1.0,0.0,0.0,8.m4v,4.0
2024-02-27 14:03:33.419499,1709039013.4194994,999.51171875,748.046875,537.109375,-29.78515625,-1.0,1.0,0.0,0.0,8.m4v,4.0
2024-02-27 14:03:33.419499,1709039013.4194994,999.51171875,748.046875,537.109375,-29.78515625,-1.0,1.0,0.0,0.0,8.m4v,4.0
2024-02-27 14:03:33.419499,1709039013.4194994,999.51171875,748.046875,537.109375,-29.78515625,-1.0,1.0,0.0,0.0,8.m4v,4.0
2024-02-27 14:03:33.423405,1709039013.4234054,999.51171875,999.51171875,223.14453125,-30.76171875,-1.0,1.0,0.0,0.0,8.m4v,4.0
2024-02-27 14:03:33.423405,1709039013.4234054,999.51171875,999.51171875,223.14453125,-30.76171875,-1.0,1.0,0.0,0.0,8.m4v,4.0
2024-02-27 14:03:33.423405,1709039013.4234054,999.51171875,999.51171875,223.14453125,-30.76171875,-1.0,1.0,0.0,0.0,8.m4v,4.0
2024-02-27 14:03:33.431217,1709039013.4312172,-515.625,998.046875,124.51171875,-38.0859375,-1.0,1.0,0.0,0.0,8.m4v,4.0
2024-02-27 14:03:33.431217,1709039013.4312172,-515.625,998.046875,124.51171875,-38.0859375,-1.0,1.0,0.0,0.0,8.m4v,4.0
2024-02-27 14:03:33.431217,1709039013.4312172,-515.625,998.046875,124.51171875,-38.0859375,-1.0,1.0,0.0,0.0,8.m4v,4.0
2024-02-27 14:03:33.439029,1709039013.439029,999.51171875,999.51171875,999.51171875,-29.296875,-1.0,1.0,0.0,0.0,8.m4v,4.0
2024-02-27 14:03:33.439029,1709039013.439029,999.51171875,999.51171875,999.51171875,-29.296875,-1.0,1.0,0.0,0.0,8.m4v,4.0
2024-02-27 14:03:33.439029,1709039013.439029,999.51171875,999.51171875,999.51171875,-29.296875,-1.0,1.0,0.0,0.0,8.m4v,4.0
2024-02-27 14:03:33.442935,1709039013.442935,110.83984375,525.87890625,298.33984375,-44.43359375,-1.0,1.0,0.0,0.0,8.m4v,4.0
2024-02-27 14:03:33.442935,1709039013.442935,110.83984375,525.87890625,298.33984375,-44.43359375,-1.0,1.0,0.0,0.0,8.m4v,4.0
2024-02-27 14:03:33.442935,1709039013.442935,110.83984375,525.87890625,298.33984375,-44.43359375,-1.0,1.0,0.0,0.0,8.m4v,4.0
2024-02-27 14:03:33.450747,1709039013.4507468,-1000.0,-1000.0,-939.94140625,-47.8515625,-1.0,1.0,0.0,0.0,8.m4v,4.0
2024-02-27 14:03:33.450747,1709039013.4507468,-1000.0,-1000.0,-939.94140625,-47.8515625,-1.0,1.0,0.0,0.0,8.m4v,4.0
2024-02-27 14:03:33.450747,1709039013.4507468,-1000.0,-1000.0,-939.94140625,-47.8515625,-1.0,1.0,0.0,0.0,8.m4v,4.0
2024-02-27 14:03:33.454653,1709039013.4546528,-458.0078125,-946.2890625,-76.66015625,-33.69140625,-1.0,1.0,0.0,0.0,8.m4v,4.0
2024-02-27 14:03:33.454653,1709039013.4546528,-458.0078125,-946.2890625,-76.66015625,-33.69140625,-1.0,1.0,0.0,0.0,8.m4v,4.0
2024-02-27 14:03:33.454653,1709039013.4546528,-458.0078125,-946.2890625,-76.66015625,-33.69140625,-1.0,1.0,0.0,0.0,8.m4v,4.0
2024-02-27 14:03:33.462464,1709039013.462464,544.43359375,-1000.0,-5.859375,-34.66796875,-1.0,1.0,0.0,0.0,8.m4v,4.0
2024-02-27 14:03:33.462464,1709039013.462464,544.43359375,-1000.0,-5.859375,-34.66796875,-1.0,1.0,0.0,0.0,8.m4v,4.0
2024-02-27 14:03:33.462464,1709039013.462464,544.43359375,-1000.0,-5.859375,-34.66796875,-1.0,1.0,0.0,0.0,8.m4v,4.0
2024-02-27 14:03:33.470276,1709039013.470276,-1000.0,-1000.0,-748.046875,-41.015625,-1.0,1.0,0.0,0.0,8.m4v,4.0
2024-02-27 14:03:33.470276,1709039013.470276,-1000.0,-1000.0,-748.046875,-41.015625,-1.0,1.0,0.0,0.0,8.m4v,4.0
2024-02-27 14:03:33.470276,1709039013.470276,-1000.0,-1000.0,-748.046875,-41.015625,-1.0,1.0,0.0,0.0,8.m4v,4.0
2024-02-27 14:03:33.474182,1709039013.4741817,-225.09765625,-903.80859375,-137.20703125,-21.97265625,-1.0,1.0,0.0,0.0,8.m4v,4.0
2024-02-27 14:03:33.474182,1709039013.4741817,-225.09765625,-903.80859375,-137.20703125,-21.97265625,-1.0,1.0,0.0,0.0,8.m4v,4.0
2024-02-27 14:03:33.474182,1709039013.4741817,-225.09765625,-903.80859375,-137.20703125,-21.97265625,-1.0,1.0,0.0,0.0,8.m4v,4.0
2024-02-27 14:03:33.478088,1709039013.4780877,954.58984375,392.578125,787.109375,-16.6015625,-1.0,1.0,0.0,0.0,8.m4v,4.0
2024-02-27 14:03:33.478088,1709039013.4780877,954.58984375,392.578125,787.109375,-16.6015625,-1.0,1.0,0.0,0.0,8.m4v,4.0
2024-02-27 14:03:33.478088,1709039013.4780877,954.58984375,392.578125,787.109375,-16.6015625,-1.0,1.0,0.0,0.0,8.m4v,4.0
2024-02-27 14:03:33.481994,1709039013.4819937,999.51171875,999.51171875,735.3515625,-21.97265625,-1.0,1.0,0.0,0.0,8.m4v,4.0
2024-02-27 14:03:33.481994,1709039013.4819937,999.51171875,999.51171875,735.3515625,-21.97265625,-1.0,1.0,0.0,0.0,8.m4v,4.0
2024-02-27 14:03:33.481994,1709039013.4819937,999.51171875,999.51171875,735.3515625,-21.97265625,-1.0,1.0,0.0,0.0,8.m4v,4.0
2024-02-27 14:03:33.524959,1709039013.524959,-11.23046875,-1000.0,-876.46484375,-48.828125,-1.0,1.0,0.0,0.0,8.m4v,4.0
2024-02-27 14:03:33.528865,1709039013.5288649,-921.875,-997.55859375,-943.84765625,-44.43359375,-1.0,1.0,0.0,0.0,8.m4v,4.0
2024-02-27 14:03:33.532771,1709039013.5327709,-847.65625,-942.87109375,-856.4453125,-41.50390625,-1.0,1.0,0.0,0.0,8.m4v,4.0
2024-02-27 14:03:33.536677,1709039013.536677,358.3984375,-1000.0,-296.38671875,-33.203125,-1.0,1.0,0.0,0.0,8.m4v,4.0
2024-02-27 14:03:33.540583,1709039013.540583,999.51171875,-168.45703125,-284.1796875,-33.69140625,-1.0,1.0,0.0,0.0,8.m4v,4.0
2024-02-27 14:03:33.544489,1709039013.544489,927.734375,999.51171875,-750.0,-32.2265625,-1.0,1.0,0.0,0.0,8.m4v,4.0
2024-02-27 14:03:33.548395,1709039013.548395,-24.4140625,947.265625,-1000.0,-26.3671875,-1.0,1.0,0.0,0.0,8.m4v,4.0
2024-02-27 14:03:33.552301,1709039013.5523007,-683.10546875,958.984375,-763.671875,-36.62109375,-1.0,1.0,0.0,0.0,8.m4v,4.0
2024-02-27 14:03:33.556206,1709039013.5562065,468.26171875,901.85546875,29.296875,-31.73828125,-1.0,1.0,0.0,0.0,8.m4v,4.0
2024-02-27 14:03:33.560112,1709039013.5601125,999.51171875,999.51171875,222.16796875,-26.85546875,-1.0,1.0,0.0,0.0,8.m4v,4.0
2024-02-27 14:03:33.564018,1709039013.5640185,47.8515625,500.0,-596.6796875,-43.45703125,-1.0,1.0,0.0,0.0,8.m4v,4.0
2024-02-27 14:03:33.567924,1709039013.5679245,-1000.0,-926.26953125,-1000.0,-47.36328125,-1.0,1.0,0.0,0.0,8.m4v,4.0
2024-02-27 14:03:33.571830,1709039013.5718305,-812.01171875,-1000.0,-663.0859375,-27.34375,-1.0,1.0,0.0,0.0,8.m4v,4.0
2024-02-27 14:03:33.575736,1709039013.5757363,432.12890625,158.69140625,449.21875,-10.7421875,-1.0,1.0,0.0,0.0,8.m4v,4.0
2024-02-27 14:03:33.579642,1709039013.579642,999.51171875,999.51171875,523.92578125,-19.04296875,-1.0,1.0,0.0,0.0,8.m4v,4.0
2024-02-27 14:03:33.583548,1709039013.583548,80.56640625,728.515625,-556.640625,-37.59765625,-1.0,1.0,0.0,0.0,8.m4v,4.0
2024-02-27 14:03:33.587454,1709039013.587454,-991.2109375,-618.65234375,-1000.0,-42.48046875,-1.0,1.0,0.0,0.0,8.m4v,4.0
2024-02-27 14:03:33.591360,1709039013.59136,-1000.0,-1000.0,-956.0546875,-32.71484375,-1.0,1.0,0.0,0.0,8.m4v,4.0
2024-02-27 14:03:33.595266,1709039013.595266,-295.41015625,-1000.0,-396.484375,-15.13671875,-1.0,1.0,0.0,0.0,8.m4v,4.0
2024-02-27 14:03:33.599172,1709039013.599172,947.265625,-235.83984375,47.36328125,-7.8125,-1.0,1.0,0.0,0.0,8.m4v,4.0
2024-02-27 14:03:33.603078,1709039013.603078,999.51171875,999.51171875,-432.12890625,-14.6484375,-1.0,1.0,0.0,0.0,8.m4v,4.0
2024-02-27 14:03:33.606984,1709039013.606984,-58.10546875,954.58984375,-891.11328125,-24.4140625,-1.0,1.0,0.0,0.0,8.m4v,4.0
2024-02-27 14:03:33.610890,1709039013.6108897,-767.578125,942.3828125,-626.953125,-23.92578125,-1.0,1.0,0.0,0.0,8.m4v,4.0
2024-02-27 14:03:33.614796,1709039013.6147957,372.55859375,980.46875,182.12890625,-15.625,-1.0,1.0,0.0,0.0,8.m4v,4.0
2024-02-27 14:03:33.618702,1709039013.6187017,999.51171875,903.80859375,860.3515625,-7.8125,-1.0,1.0,0.0,0.0,8.m4v,4.0
2024-02-27 14:03:33.622607,1709039013.6226077,849.12109375,999.51171875,687.5,-9.765625,-1.0,1.0,0.0,0.0,8.m4v,4.0
2024-02-27 14:03:33.626513,1709039013.6265135,-255.859375,243.65234375,-267.08984375,-24.4140625,-1.0,1.0,0.0,0.0,8.m4v,4.0
2024-02-27 14:03:33.630419,1709039013.6304195,-1000.0,-1000.0,-1000.0,-32.2265625,-1.0,1.0,0.0,0.0,8.m4v,4.0
2024-02-27 14:03:33.634325,1709039013.6343253,-966.30859375,-992.67578125,-624.0234375,-18.5546875,-1.0,1.0,0.0,0.0,8.m4v,4.0
2024-02-27 14:03:33.638231,1709039013.6382313,52.734375,-968.75,-47.8515625,-14.16015625,-1.0,1.0,0.0,0.0,8.m4v,4.0
2024-02-27 14:03:33.642137,1709039013.6421373,612.3046875,-1000.0,-368.65234375,-25.87890625,-1.0,1.0,0.0,0.0,8.m4v,4.0
2024-02-27 14:03:33.646043,1709039013.646043,-537.59765625,-958.49609375,-917.48046875,-29.296875,-1.0,1.0,0.0,0.0,8.m4v,4.0
2024-02-27 14:03:33.649949,1709039013.6499488,-1000.0,-1000.0,-1000.0,-26.85546875,-1.0,1.0,0.0,0.0,8.m4v,4.0
2024-02-27 14:03:33.653855,1709039013.6538548,-188.96484375,-950.1953125,-348.14453125,-14.6484375,-1.0,1.0,0.0,0.0,8.m4v,4.0
2024-02-27 14:03:33.657761,1709039013.6577609,999.51171875,382.32421875,448.2421875,-9.765625,-1.0,1.0,0.0,0.0,8.m4v,4.0
2024-02-27 14:03:33.661667,1709039013.6616666,975.5859375,999.51171875,150.87890625,-19.53125,-1.0,1.0,0.0,0.0,8.m4v,4.0
2024-02-27 14:03:33.665573,1709039013.6655726,693.84765625,905.76171875,-198.73046875,-23.4375,-1.0,1.0,0.0,0.0,8.m4v,4.0
2024-02-27 14:03:33.669479,1709039013.669479,167.96875,977.05078125,62.01171875,-31.25,-1.0,1.0,0.0,0.0,8.m4v,4.0
2024-02-27 14:03:33.673384,1709039013.6733844,81.54296875,966.796875,353.515625,-36.1328125,-1.0,1.0,0.0,0.0,8.m4v,4.0
2024-02-27 14:03:33.677290,1709039013.6772904,832.51953125,912.59765625,851.07421875,-27.34375,-1.0,1.0,0.0,0.0,8.m4v,4.0
2024-02-27 14:03:33.681196,1709039013.6811965,756.8359375,999.51171875,720.21484375,-31.25,-1.0,1.0,0.0,0.0,8.m4v,4.0
2024-02-27 14:03:33.685102,1709039013.6851022,-563.4765625,113.76953125,-391.11328125,-44.921875,-1.0,1.0,0.0,0.0,8.m4v,4.0
2024-02-27 14:03:33.689008,1709039013.6890082,-1000.0,-1000.0,-986.81640625,-44.921875,-1.0,1.0,0.0,0.0,8.m4v,4.0
2024-02-27 14:03:33.692914,1709039013.6929138,-881.8359375,-1000.0,-424.31640625,-32.2265625,-1.0,1.0,0.0,0.0,8.m4v,4.0
2024-02-27 14:03:33.696820,1709039013.6968198,175.29296875,-666.50390625,386.71875,-19.53125,-1.0,1.0,0.0,0.0,8.m4v,4.0
2024-02-27 14:03:33.700726,1709039013.7007258,999.51171875,729.98046875,571.77734375,-22.94921875,-1.0,1.0,0.0,0.0,8.m4v,4.0
2024-02-27 14:03:33.704632,1709039013.7046316,588.8671875,999.51171875,-30.76171875,-35.15625,-1.0,1.0,0.0,0.0,8.m4v,4.0
2024-02-27 14:03:33.708538,1709039013.7085376,-868.1640625,909.66796875,-520.01953125,-32.2265625,-1.0,1.0,0.0,0.0,8.m4v,4.0
2024-02-27 14:03:33.712444,1709039013.7124436,-405.2734375,989.74609375,213.8671875,-15.625,-1.0,1.0,0.0,0.0,8.m4v,4.0
2024-02-27 14:03:33.716349,1709039013.7163494,999.51171875,900.87890625,999.51171875,-14.16015625,-1.0,1.0,0.0,0.0,8.m4v,4.0
2024-02-27 14:03:33.720255,1709039013.7202554,897.94921875,999.51171875,753.41796875,-28.80859375,-1.0,1.0,0.0,0.0,8.m4v,4.0
2024-02-27 14:03:33.724161,1709039013.7241614,-287.109375,282.71484375,-78.61328125,-41.50390625,-1.0,1.0,0.0,0.0,8.m4v,4.0
2024-02-27 14:03:33.728067,1709039013.7280672,-1000.0,-978.02734375,-769.04296875,-46.875,-1.0,1.0,0.0,0.0,8.m4v,4.0
2024-02-27 14:03:33.731973,1709039013.7319732,-1000.0,-1000.0,-621.09375,-37.59765625,-1.0,1.0,0.0,0.0,8.m4v,4.0
2024-02-27 14:03:33.735879,1709039013.7358792,-146.484375,-821.2890625,252.9296875,-23.4375,-1.0,1.0,0.0,0.0,8.m4v,4.0
2024-02-27 14:03:33.774938,1709039013.774938,-622.0703125,-983.3984375,-119.62890625,-34.66796875,-1.0,1.0,0.0,0.0,8.m4v,4.0
2024-02-27 14:03:33.778844,1709039013.778844,573.73046875,-1000.0,313.96484375,-22.4609375,-1.0,1.0,0.0,0.0,8.m4v,4.0
2024-02-27 14:03:33.782750,1709039013.78275,999.51171875,-64.453125,9.27734375,-25.87890625,-1.0,1.0,0.0,0.0,8.m4v,4.0
2024-02-27 14:03:33.786655,1709039013.7866552,466.796875,999.51171875,-415.52734375,-31.25,-1.0,1.0,0.0,0.0,8.m4v,4.0
2024-02-27 14:03:33.790561,1709039013.7905612,-747.55859375,465.8203125,-463.37890625,-40.52734375,-1.0,1.0,0.0,0.0,8.m4v,4.0
2024-02-27 14:03:33.794467,1709039013.794467,-935.05859375,-1000.0,-14.16015625,-41.9921875,-1.0,1.0,0.0,0.0,8.m4v,4.0
2024-02-27 14:03:33.798373,1709039013.798373,298.828125,-253.90625,604.00390625,-33.69140625,-1.0,1.0,0.0,0.0,8.m4v,4.0
2024-02-27 14:03:33.802279,1709039013.802279,999.51171875,999.51171875,360.83984375,-37.109375,-1.0,1.0,0.0,0.0,8.m4v,4.0
2024-02-27 14:03:33.806185,1709039013.8061848,559.5703125,939.94140625,-33.203125,-43.45703125,-1.0,1.0,0.0,0.0,8.m4v,4.0
2024-02-27 14:03:33.810091,1709039013.8100908,-337.40234375,965.33203125,18.06640625,-44.43359375,-1.0,1.0,0.0,0.0,8.m4v,4.0
2024-02-27 14:03:33.813997,1709039013.8139968,-1000.0,-276.3671875,19.53125,-41.9921875,-1.0,1.0,0.0,0.0,8.m4v,4.0
2024-02-27 14:03:33.817903,1709039013.8179026,-709.47265625,-1000.0,213.8671875,-43.9453125,-1.0,1.0,0.0,0.0,8.m4v,4.0
2024-02-27 14:03:33.821809,1709039013.8218086,-565.91796875,-951.171875,-321.77734375,-51.26953125,-1.0,1.0,0.0,0.0,8.m4v,4.0
2024-02-27 14:03:33.825715,1709039013.8257146,-1000.0,-950.68359375,-982.91015625,-46.38671875,-1.0,1.0,0.0,0.0,8.m4v,4.0
2024-02-27 14:03:33.829620,1709039013.8296204,-1000.0,-1000.0,-916.50390625,-36.1328125,-1.0,1.0,0.0,0.0,8.m4v,4.0
2024-02-27 14:03:33.833526,1709039013.8335257,82.51953125,-861.81640625,-233.88671875,-24.90234375,-1.0,1.0,0.0,0.0,8.m4v,4.0
2024-02-27 14:03:33.837431,1709039013.8374314,996.58203125,519.53125,583.49609375,-12.20703125,-1.0,1.0,0.0,0.0,8.m4v,4.0
2024-02-27 14:03:33.841337,1709039013.8413374,999.51171875,999.51171875,385.25390625,-15.13671875,-1.0,1.0,0.0,0.0,8.m4v,4.0
2024-02-27 14:03:33.845243,1709039013.8452437,249.0234375,905.76171875,-411.62109375,-33.203125,-1.0,1.0,0.0,0.0,8.m4v,4.0
2024-02-27 14:03:33.849149,1709039013.8491492,-1000.0,979.98046875,-669.43359375,-41.50390625,-1.0,1.0,0.0,0.0,8.m4v,4.0
2024-02-27 14:03:33.853055,1709039013.8530552,-163.0859375,976.07421875,211.9140625,-25.390625,-1.0,1.0,0.0,0.0,8.m4v,4.0
2024-02-27 14:03:33.856961,1709039013.856961,999.51171875,900.87890625,999.51171875,-11.23046875,-1.0,1.0,0.0,0.0,8.m4v,4.0
2024-02-27 14:03:33.997576,1709039013.997576,958.0078125,757.8125,999.51171875,10.7421875,-1.0,1.0,0.0,0.0,8.m4v,4.0
2024-02-27 14:03:34.001482,1709039014.0014818,896.484375,999.51171875,617.67578125,-30.76171875,-1.0,1.0,0.0,0.0,8.m4v,4.0
2024-02-27 14:03:34.005388,1709039014.0053878,-306.15234375,128.41796875,-433.10546875,-64.453125,-1.0,1.0,0.0,0.0,8.m4v,4.0
2024-02-27 14:03:34.009294,1709039014.0092938,-1000.0,-1000.0,-876.953125,-49.31640625,-1.0,1.0,0.0,0.0,8.m4v,4.0
2024-02-27 14:03:34.013200,1709039014.0131996,-787.109375,-983.88671875,-288.57421875,-36.1328125,-1.0,1.0,0.0,0.0,8.m4v,4.0
2024-02-27 14:03:34.017106,1709039014.0171056,455.078125,-973.14453125,445.80078125,-35.15625,-1.0,1.0,0.0,0.0,8.m4v,4.0
2024-02-27 14:03:34.021011,1709039014.0210114,968.75,-1000.0,300.78125,-37.109375,-1.0,1.0,0.0,0.0,8.m4v,4.0
2024-02-27 14:03:34.024917,1709039014.0249171,-240.234375,-945.80078125,-480.46875,-45.8984375,-1.0,1.0,0.0,0.0,8.m4v,4.0
2024-02-27 14:03:34.028823,1709039014.0288231,-1000.0,-1000.0,-798.828125,-51.26953125,-1.0,1.0,0.0,0.0,8.m4v,4.0
2024-02-27 14:03:34.032729,1709039014.0327291,-312.5,-845.21484375,-79.1015625,-32.2265625,-1.0,1.0,0.0,0.0,8.m4v,4.0
2024-02-27 14:03:34.036635,1709039014.036635,915.52734375,555.17578125,768.06640625,-15.625,-1.0,1.0,0.0,0.0,8.m4v,4.0
2024-02-27 14:03:34.040541,1709039014.040541,999.51171875,999.51171875,999.51171875,-20.5078125,-1.0,1.0,0.0,0.0,8.m4v,4.0
2024-02-27 14:03:34.044447,1709039014.044447,742.67578125,999.51171875,641.6015625,-27.34375,-1.0,1.0,0.0,0.0,8.m4v,4.0
2024-02-27 14:03:34.048353,1709039014.0483527,-423.828125,200.68359375,-266.11328125,-42.96875,-1.0,1.0,0.0,0.0,8.m4v,4.0
2024-02-27 14:03:34.052259,1709039014.0522587,-1000.0,-1000.0,-525.87890625,-50.78125,-1.0,1.0,0.0,0.0,8.m4v,4.0
2024-02-27 14:03:34.056165,1709039014.0561647,-519.04296875,-983.88671875,154.296875,-28.80859375,-1.0,1.0,0.0,0.0,8.m4v,4.0
2024-02-27 14:03:34.060071,1709039014.0600705,788.57421875,-973.14453125,331.0546875,-23.92578125,-1.0,1.0,0.0,0.0,8.m4v,4.0
2024-02-27 14:03:34.063977,1709039014.0639763,126.46484375,-1000.0,-318.84765625,-40.0390625,-1.0,1.0,0.0,0.0,8.m4v,4.0
2024-02-27 14:03:34.067882,1709039014.067882,-1000.0,-927.734375,-663.0859375,-42.96875,-1.0,1.0,0.0,0.0,8.m4v,4.0
2024-02-27 14:03:34.071788,1709039014.071788,-839.84375,-1000.0,-340.8203125,-34.66796875,-1.0,1.0,0.0,0.0,8.m4v,4.0
2024-02-27 14:03:34.075694,1709039014.0756938,325.1953125,-449.21875,332.03125,-25.390625,-1.0,1.0,0.0,0.0,8.m4v,4.0
2024-02-27 14:03:34.079600,1709039014.0796,999.51171875,941.89453125,562.5,-30.2734375,-1.0,1.0,0.0,0.0,8.m4v,4.0
2024-02-27 14:03:34.083506,1709039014.083506,789.55078125,994.62890625,-4.39453125,-40.0390625,-1.0,1.0,0.0,0.0,8.m4v,4.0
2024-02-27 14:03:34.087412,1709039014.0874116,148.92578125,923.828125,-59.08203125,-40.0390625,-1.0,1.0,0.0,0.0,8.m4v,4.0
2024-02-27 14:03:34.091318,1709039014.0913177,122.55859375,992.67578125,459.9609375,-37.59765625,-1.0,1.0,0.0,0.0,8.m4v,4.0
2024-02-27 14:03:34.095224,1709039014.0952237,738.76953125,897.4609375,835.44921875,-32.2265625,-1.0,1.0,0.0,0.0,8.m4v,4.0
