Timestamp,Timestamp_UNIX,TP9,AF7,AF8,TP10,Valence,Arousal,Dominace,Viewed,Video,Participant
2024-02-27 13:37:02.432796,1709037422.4327962,66.89453125,-1000.0,-1000.0,-49.31640625,1.0,-1.0,-1.0,1.0,3.m4v,4.0
2024-02-27 13:37:02.436701,1709037422.4367013,-30.2734375,-1000.0,-1000.0,-27.83203125,1.0,-1.0,-1.0,1.0,3.m4v,4.0
2024-02-27 13:37:02.440607,1709037422.4406066,-10.25390625,-1000.0,-1000.0,-19.04296875,1.0,-1.0,-1.0,1.0,3.m4v,4.0
2024-02-27 13:37:02.444512,1709037422.4445117,166.9921875,-1000.0,-1000.0,-21.97265625,1.0,-1.0,-1.0,1.0,3.m4v,4.0
2024-02-27 13:37:02.448417,1709037422.448417,168.9453125,-1000.0,-1000.0,-24.4140625,1.0,-1.0,-1.0,1.0,3.m4v,4.0
2024-02-27 13:37:02.452322,1709037422.452322,136.23046875,-1000.0,-994.62890625,-31.73828125,1.0,-1.0,-1.0,1.0,3.m4v,4.0
2024-02-27 13:37:02.456227,1709037422.456227,-1.46484375,-1000.0,-1000.0,-33.69140625,1.0,-1.0,-1.0,1.0,3.m4v,4.0
2024-02-27 13:37:02.460132,1709037422.4601324,-71.77734375,-1000.0,-994.140625,-30.2734375,1.0,-1.0,-1.0,1.0,3.m4v,4.0
2024-02-27 13:37:02.464037,1709037422.4640374,308.10546875,-1000.0,-780.2734375,-29.78515625,1.0,-1.0,-1.0,1.0,3.m4v,4.0
2024-02-27 13:37:02.467942,1709037422.4679425,264.6484375,-985.83984375,-807.12890625,-38.57421875,1.0,-1.0,-1.0,1.0,3.m4v,4.0
2024-02-27 13:37:02.471848,1709037422.4718478,-104.4921875,-960.44921875,-996.58203125,-35.64453125,1.0,-1.0,-1.0,1.0,3.m4v,4.0
2024-02-27 13:37:02.475753,1709037422.4757528,-113.76953125,-1000.0,-998.046875,-38.57421875,1.0,-1.0,-1.0,1.0,3.m4v,4.0
2024-02-27 13:37:02.479667,1709037422.479667,478.02734375,11.23046875,-116.2109375,-21.484375,1.0,-1.0,-1.0,1.0,3.m4v,4.0
2024-02-27 13:37:02.483572,1709037422.483572,999.51171875,999.51171875,974.609375,3.90625,1.0,-1.0,-1.0,1.0,3.m4v,4.0
2024-02-27 13:37:02.487477,1709037422.487477,653.80859375,924.31640625,820.80078125,-16.11328125,1.0,-1.0,-1.0,1.0,3.m4v,4.0
2024-02-27 13:37:02.491382,1709037422.4913824,-226.07421875,959.47265625,167.96875,-37.59765625,1.0,-1.0,-1.0,1.0,3.m4v,4.0
2024-02-27 13:37:02.495287,1709037422.4952874,-331.54296875,972.16796875,121.58203125,-43.9453125,1.0,-1.0,-1.0,1.0,3.m4v,4.0
2024-02-27 13:37:02.499193,1709037422.4991927,428.22265625,970.21484375,767.08984375,-27.34375,1.0,-1.0,-1.0,1.0,3.m4v,4.0
2024-02-27 13:37:02.503098,1709037422.5030978,523.92578125,970.21484375,999.51171875,-19.53125,1.0,-1.0,-1.0,1.0,3.m4v,4.0
2024-02-27 13:37:02.507003,1709037422.5070028,106.4453125,969.7265625,962.40234375,-33.69140625,1.0,-1.0,-1.0,1.0,3.m4v,4.0
2024-02-27 13:37:02.510908,1709037422.510908,-22.94921875,969.7265625,882.32421875,-41.015625,1.0,-1.0,-1.0,1.0,3.m4v,4.0
2024-02-27 13:37:02.514813,1709037422.5148132,-99.12109375,969.7265625,871.09375,-34.1796875,1.0,-1.0,-1.0,1.0,3.m4v,4.0
2024-02-27 13:37:02.518718,1709037422.5187182,-68.84765625,969.7265625,982.421875,-41.50390625,1.0,-1.0,-1.0,1.0,3.m4v,4.0
2024-02-27 13:37:02.522624,1709037422.5226235,81.54296875,970.21484375,962.40234375,-41.50390625,1.0,-1.0,-1.0,1.0,3.m4v,4.0
2024-02-27 13:37:02.526541,1709037422.5265417,93.26171875,970.21484375,983.88671875,-29.78515625,1.0,-1.0,-1.0,1.0,3.m4v,4.0
2024-02-27 13:37:02.530447,1709037422.5304468,-126.46484375,969.7265625,908.69140625,-43.45703125,1.0,-1.0,-1.0,1.0,3.m4v,4.0
2024-02-27 13:37:02.534352,1709037422.5343518,-231.93359375,969.7265625,874.0234375,-51.26953125,1.0,-1.0,-1.0,1.0,3.m4v,4.0
2024-02-27 13:37:02.538257,1709037422.538257,-134.27734375,969.7265625,975.5859375,-43.9453125,1.0,-1.0,-1.0,1.0,3.m4v,4.0
2024-02-27 13:37:02.542162,1709037422.5421622,16.6015625,969.7265625,967.28515625,-31.25,1.0,-1.0,-1.0,1.0,3.m4v,4.0
2024-02-27 13:37:02.546067,1709037422.5460672,105.95703125,969.7265625,972.65625,-38.0859375,1.0,-1.0,-1.0,1.0,3.m4v,4.0
2024-02-27 13:37:02.549973,1709037422.5499723,-108.3984375,969.7265625,960.44921875,-50.29296875,1.0,-1.0,-1.0,1.0,3.m4v,4.0
2024-02-27 13:37:02.553878,1709037422.5538776,-375.48828125,969.7265625,869.62890625,-46.875,1.0,-1.0,-1.0,1.0,3.m4v,4.0
2024-02-27 13:37:02.557783,1709037422.5577826,-319.82421875,969.7265625,923.828125,-50.29296875,1.0,-1.0,-1.0,1.0,3.m4v,4.0
2024-02-27 13:37:02.561688,1709037422.561688,-101.5625,969.7265625,975.5859375,-33.203125,1.0,-1.0,-1.0,1.0,3.m4v,4.0
2024-02-27 13:37:02.565593,1709037422.565593,38.57421875,969.7265625,975.5859375,-22.4609375,1.0,-1.0,-1.0,1.0,3.m4v,4.0
2024-02-27 13:37:02.569498,1709037422.569498,-61.5234375,969.7265625,943.84765625,-31.73828125,1.0,-1.0,-1.0,1.0,3.m4v,4.0
2024-02-27 13:37:02.573416,1709037422.5734155,-311.5234375,969.7265625,807.12890625,-37.109375,1.0,-1.0,-1.0,1.0,3.m4v,4.0
2024-02-27 13:37:02.577321,1709037422.5773206,-333.49609375,969.7265625,892.578125,-36.1328125,1.0,-1.0,-1.0,1.0,3.m4v,4.0
2024-02-27 13:37:02.581226,1709037422.581226,-124.51171875,969.7265625,974.12109375,-34.1796875,1.0,-1.0,-1.0,1.0,3.m4v,4.0
2024-02-27 13:37:02.585131,1709037422.585131,24.4140625,969.7265625,991.69921875,-39.55078125,1.0,-1.0,-1.0,1.0,3.m4v,4.0
2024-02-27 13:37:02.589036,1709037422.589036,-112.79296875,969.7265625,869.140625,-46.875,1.0,-1.0,-1.0,1.0,3.m4v,4.0
2024-02-27 13:37:02.592941,1709037422.5929413,-257.32421875,970.21484375,738.28125,-39.0625,1.0,-1.0,-1.0,1.0,3.m4v,4.0
2024-02-27 13:37:02.596846,1709037422.5968463,-184.08203125,969.7265625,936.03515625,-37.59765625,1.0,-1.0,-1.0,1.0,3.m4v,4.0
2024-02-27 13:37:02.600751,1709037422.6007514,-140.13671875,969.7265625,962.40234375,-46.38671875,1.0,-1.0,-1.0,1.0,3.m4v,4.0
2024-02-27 13:37:02.604657,1709037422.6046567,16.11328125,970.21484375,990.72265625,-29.296875,1.0,-1.0,-1.0,1.0,3.m4v,4.0
2024-02-27 13:37:02.608562,1709037422.6085618,-124.51171875,970.21484375,793.9453125,-30.76171875,1.0,-1.0,-1.0,1.0,3.m4v,4.0
2024-02-27 13:37:02.612467,1709037422.612467,-589.35546875,969.7265625,178.22265625,-53.22265625,1.0,-1.0,-1.0,1.0,3.m4v,4.0
2024-02-27 13:37:02.616372,1709037422.616372,-583.49609375,970.21484375,20.5078125,-50.29296875,1.0,-1.0,-1.0,1.0,3.m4v,4.0
2024-02-27 13:37:02.620289,1709037422.620289,8.7890625,970.21484375,506.34765625,-37.109375,1.0,-1.0,-1.0,1.0,3.m4v,4.0
2024-02-27 13:37:02.624194,1709037422.6241944,466.30859375,969.7265625,991.69921875,-29.78515625,1.0,-1.0,-1.0,1.0,3.m4v,4.0
2024-02-27 13:37:02.628099,1709037422.6280994,42.96875,969.7265625,684.08203125,-55.6640625,1.0,-1.0,-1.0,1.0,3.m4v,4.0
2024-02-27 13:37:02.632004,1709037422.6320045,-598.6328125,969.7265625,-76.66015625,-53.7109375,1.0,-1.0,-1.0,1.0,3.m4v,4.0
2024-02-27 13:37:02.635910,1709037422.6359098,-587.40234375,969.7265625,-322.265625,-37.59765625,1.0,-1.0,-1.0,1.0,3.m4v,4.0
2024-02-27 13:37:02.639815,1709037422.6398149,217.7734375,969.7265625,375.48828125,-32.2265625,1.0,-1.0,-1.0,1.0,3.m4v,4.0
2024-02-27 13:37:02.643720,1709037422.64372,710.9375,969.7265625,992.67578125,-15.13671875,1.0,-1.0,-1.0,1.0,3.m4v,4.0
2024-02-27 13:37:02.647625,1709037422.6476252,-130.859375,969.7265625,283.203125,-30.76171875,1.0,-1.0,-1.0,1.0,3.m4v,4.0
2024-02-27 13:37:02.651530,1709037422.6515305,-843.75,969.7265625,-692.3828125,-50.78125,1.0,-1.0,-1.0,1.0,3.m4v,4.0
2024-02-27 13:37:02.655436,1709037422.6554356,-744.62890625,970.21484375,-1000.0,-50.78125,1.0,-1.0,-1.0,1.0,3.m4v,4.0
2024-02-27 13:37:02.659341,1709037422.6593406,49.31640625,983.3984375,-534.1796875,-29.296875,1.0,-1.0,-1.0,1.0,3.m4v,4.0
2024-02-27 13:37:02.663246,1709037422.6632457,850.09765625,902.34375,353.515625,2.9296875,1.0,-1.0,-1.0,1.0,3.m4v,4.0
2024-02-27 13:37:02.667162,1709037422.6671622,284.66796875,999.51171875,13.671875,-8.7890625,1.0,-1.0,-1.0,1.0,3.m4v,4.0
2024-02-27 13:37:02.671067,1709037422.6710672,-682.6171875,592.28515625,-832.51953125,-62.01171875,1.0,-1.0,-1.0,1.0,3.m4v,4.0
2024-02-27 13:37:02.674972,1709037422.6749723,-922.36328125,-817.3828125,-1000.0,-68.359375,1.0,-1.0,-1.0,1.0,3.m4v,4.0
2024-02-27 13:37:02.678878,1709037422.6788776,-447.265625,-1000.0,-952.1484375,-41.50390625,1.0,-1.0,-1.0,1.0,3.m4v,4.0
2024-02-27 13:37:02.682783,1709037422.6827826,283.203125,-1000.0,-567.3828125,-25.390625,1.0,-1.0,-1.0,1.0,3.m4v,4.0
2024-02-27 13:37:02.686688,1709037422.686688,879.8828125,-184.5703125,131.34765625,-15.13671875,1.0,-1.0,-1.0,1.0,3.m4v,4.0
2024-02-27 13:37:02.690593,1709037422.690593,696.77734375,999.51171875,107.421875,-23.4375,1.0,-1.0,-1.0,1.0,3.m4v,4.0
2024-02-27 13:37:02.694498,1709037422.694498,-565.4296875,126.953125,-709.47265625,-48.33984375,1.0,-1.0,-1.0,1.0,3.m4v,4.0
2024-02-27 13:37:02.698403,1709037422.6984034,-856.4453125,-1000.0,-977.5390625,-47.36328125,1.0,-1.0,-1.0,1.0,3.m4v,4.0
2024-02-27 13:37:02.702308,1709037422.7023084,111.328125,-975.09765625,-655.2734375,-29.296875,1.0,-1.0,-1.0,1.0,3.m4v,4.0
2024-02-27 13:37:02.706213,1709037422.7062137,256.8359375,-975.5859375,-769.53125,-38.57421875,1.0,-1.0,-1.0,1.0,3.m4v,4.0
2024-02-27 13:37:02.710119,1709037422.7101188,-95.21484375,-1000.0,-1000.0,-49.31640625,1.0,-1.0,-1.0,1.0,3.m4v,4.0
2024-02-27 13:37:02.714034,1709037422.714034,-61.03515625,-1000.0,-995.1171875,-44.921875,1.0,-1.0,-1.0,1.0,3.m4v,4.0
2024-02-27 13:37:02.717939,1709037422.7179391,-17.08984375,-1000.0,-996.09375,-41.015625,1.0,-1.0,-1.0,1.0,3.m4v,4.0
2024-02-27 13:37:02.721844,1709037422.7218442,151.85546875,-1000.0,-1000.0,-42.96875,1.0,-1.0,-1.0,1.0,3.m4v,4.0
2024-02-27 13:37:02.725749,1709037422.7257495,200.68359375,-1000.0,-1000.0,-48.828125,1.0,-1.0,-1.0,1.0,3.m4v,4.0
2024-02-27 13:37:02.729655,1709037422.7296546,100.5859375,-1000.0,-1000.0,-54.19921875,1.0,-1.0,-1.0,1.0,3.m4v,4.0
2024-02-27 13:37:02.733560,1709037422.7335598,75.1953125,-1000.0,-1000.0,-59.5703125,1.0,-1.0,-1.0,1.0,3.m4v,4.0
2024-02-27 13:37:02.737465,1709037422.737465,-20.5078125,-1000.0,-1000.0,-51.26953125,1.0,-1.0,-1.0,1.0,3.m4v,4.0
2024-02-27 13:37:02.741370,1709037422.74137,47.36328125,-1000.0,-1000.0,-39.55078125,1.0,-1.0,-1.0,1.0,3.m4v,4.0
2024-02-27 13:37:02.745275,1709037422.7452753,230.95703125,-1000.0,-1000.0,-43.45703125,1.0,-1.0,-1.0,1.0,3.m4v,4.0
2024-02-27 13:37:02.749180,1709037422.7491803,130.859375,-1000.0,-1000.0,-40.52734375,1.0,-1.0,-1.0,1.0,3.m4v,4.0
2024-02-27 13:37:02.753085,1709037422.7530854,-11.23046875,-1000.0,-1000.0,-44.921875,1.0,-1.0,-1.0,1.0,3.m4v,4.0
2024-02-27 13:37:02.756991,1709037422.756991,-50.78125,-937.5,-1000.0,-49.8046875,1.0,-1.0,-1.0,1.0,3.m4v,4.0
2024-02-27 13:37:02.760905,1709037422.7609053,-20.5078125,-1000.0,-1000.0,-35.15625,1.0,-1.0,-1.0,1.0,3.m4v,4.0
2024-02-27 13:37:02.764810,1709037422.7648103,459.47265625,-219.7265625,-1000.0,-19.53125,1.0,-1.0,-1.0,1.0,3.m4v,4.0
2024-02-27 13:37:02.768715,1709037422.7687154,719.7265625,999.51171875,-1000.0,-32.2265625,1.0,-1.0,-1.0,1.0,3.m4v,4.0
2024-02-27 13:37:02.772621,1709037422.772621,186.5234375,953.61328125,-984.375,-43.45703125,1.0,-1.0,-1.0,1.0,3.m4v,4.0
2024-02-27 13:37:02.776526,1709037422.7765255,-141.6015625,942.87109375,-1000.0,-39.55078125,1.0,-1.0,-1.0,1.0,3.m4v,4.0
2024-02-27 13:37:02.780431,1709037422.780431,77.63671875,976.5625,-930.6640625,-32.71484375,1.0,-1.0,-1.0,1.0,3.m4v,4.0
2024-02-27 13:37:02.784336,1709037422.784336,616.69921875,969.7265625,-553.22265625,-15.13671875,1.0,-1.0,-1.0,1.0,3.m4v,4.0
2024-02-27 13:37:02.788241,1709037422.7882411,194.3359375,969.7265625,-765.13671875,-21.97265625,1.0,-1.0,-1.0,1.0,3.m4v,4.0
2024-02-27 13:37:02.792146,1709037422.7921464,-325.68359375,970.21484375,-1000.0,-35.15625,1.0,-1.0,-1.0,1.0,3.m4v,4.0
2024-02-27 13:37:02.796052,1709037422.7960515,-237.79296875,970.21484375,-1000.0,-47.36328125,1.0,-1.0,-1.0,1.0,3.m4v,4.0
2024-02-27 13:37:02.799957,1709037422.7999566,-62.98828125,970.21484375,-914.0625,-39.55078125,1.0,-1.0,-1.0,1.0,3.m4v,4.0
2024-02-27 13:37:02.803862,1709037422.803862,472.16796875,969.7265625,-410.64453125,-20.01953125,1.0,-1.0,-1.0,1.0,3.m4v,4.0
2024-02-27 13:37:02.807781,1709037422.8077812,287.109375,969.7265625,-459.9609375,-22.94921875,1.0,-1.0,-1.0,1.0,3.m4v,4.0
2024-02-27 13:37:02.811686,1709037422.8116865,-347.65625,970.21484375,-940.91796875,-36.1328125,1.0,-1.0,-1.0,1.0,3.m4v,4.0
2024-02-27 13:37:02.815591,1709037422.815591,-380.37109375,969.7265625,-954.1015625,-40.0390625,1.0,-1.0,-1.0,1.0,3.m4v,4.0
2024-02-27 13:37:02.819497,1709037422.8194966,242.1875,969.7265625,-262.6953125,-12.6953125,1.0,-1.0,-1.0,1.0,3.m4v,4.0
2024-02-27 13:37:02.823402,1709037422.8234017,831.54296875,969.7265625,663.0859375,-2.9296875,1.0,-1.0,-1.0,1.0,3.m4v,4.0
2024-02-27 13:37:02.827307,1709037422.827307,643.06640625,969.7265625,992.1875,-8.7890625,1.0,-1.0,-1.0,1.0,3.m4v,4.0
2024-02-27 13:37:02.831212,1709037422.831212,80.56640625,969.7265625,895.5078125,-19.04296875,1.0,-1.0,-1.0,1.0,3.m4v,4.0
2024-02-27 13:37:02.835117,1709037422.835117,-383.7890625,969.7265625,847.65625,-33.69140625,1.0,-1.0,-1.0,1.0,3.m4v,4.0
2024-02-27 13:37:02.839022,1709037422.8390224,-227.5390625,969.7265625,964.84375,-17.578125,1.0,-1.0,-1.0,1.0,3.m4v,4.0
2024-02-27 13:37:02.842927,1709037422.8429277,64.94140625,969.7265625,976.5625,-8.30078125,1.0,-1.0,-1.0,1.0,3.m4v,4.0
2024-02-27 13:37:02.846833,1709037422.8468325,-9.765625,969.7265625,964.35546875,-6.8359375,1.0,-1.0,-1.0,1.0,3.m4v,4.0
2024-02-27 13:37:02.850738,1709037422.8507378,-79.1015625,969.7265625,971.19140625,11.71875,1.0,-1.0,-1.0,1.0,3.m4v,4.0
2024-02-27 13:37:02.854651,1709037422.8546512,-172.36328125,969.7265625,969.7265625,34.1796875,1.0,-1.0,-1.0,1.0,3.m4v,4.0
2024-02-27 13:37:02.858556,1709037422.8585565,-208.984375,969.7265625,969.7265625,62.98828125,1.0,-1.0,-1.0,1.0,3.m4v,4.0
2024-02-27 13:37:02.862462,1709037422.8624616,-51.26953125,969.7265625,969.7265625,74.21875,1.0,-1.0,-1.0,1.0,3.m4v,4.0
2024-02-27 13:37:02.866367,1709037422.8663666,53.7109375,969.7265625,969.7265625,78.125,1.0,-1.0,-1.0,1.0,3.m4v,4.0
2024-02-27 13:37:02.870272,1709037422.8702717,-56.15234375,969.7265625,969.7265625,78.125,1.0,-1.0,-1.0,1.0,3.m4v,4.0
2024-02-27 13:37:02.874177,1709037422.874177,-163.0859375,969.7265625,969.7265625,89.35546875,1.0,-1.0,-1.0,1.0,3.m4v,4.0
2024-02-27 13:37:02.878082,1709037422.878082,-274.90234375,969.7265625,969.7265625,89.84375,1.0,-1.0,-1.0,1.0,3.m4v,4.0
2024-02-27 13:37:02.881987,1709037422.881987,-248.53515625,969.7265625,969.7265625,73.2421875,1.0,-1.0,-1.0,1.0,3.m4v,4.0
2024-02-27 13:37:02.885892,1709037422.8858924,-28.3203125,969.7265625,969.7265625,80.078125,1.0,-1.0,-1.0,1.0,3.m4v,4.0
2024-02-27 13:37:02.889797,1709037422.8897974,-43.45703125,970.21484375,969.7265625,79.58984375,1.0,-1.0,-1.0,1.0,3.m4v,4.0
2024-02-27 13:37:02.893703,1709037422.8937027,-230.95703125,969.7265625,969.7265625,71.2890625,1.0,-1.0,-1.0,1.0,3.m4v,4.0
2024-02-27 13:37:02.897608,1709037422.8976078,-312.01171875,969.7265625,969.7265625,57.6171875,1.0,-1.0,-1.0,1.0,3.m4v,4.0
2024-02-27 13:37:02.901521,1709037422.9015212,-104.98046875,969.7265625,969.7265625,62.01171875,1.0,-1.0,-1.0,1.0,3.m4v,4.0
2024-02-27 13:37:02.905427,1709037422.9054265,4.39453125,969.7265625,969.7265625,63.96484375,1.0,-1.0,-1.0,1.0,3.m4v,4.0
2024-02-27 13:37:02.909332,1709037422.9093316,-79.58984375,969.7265625,969.7265625,42.48046875,1.0,-1.0,-1.0,1.0,3.m4v,4.0
2024-02-27 13:37:02.913237,1709037422.9132366,-189.94140625,969.7265625,969.7265625,43.9453125,1.0,-1.0,-1.0,1.0,3.m4v,4.0
2024-02-27 13:37:02.917142,1709037422.917142,-266.11328125,969.7265625,969.7265625,49.31640625,1.0,-1.0,-1.0,1.0,3.m4v,4.0
2024-02-27 13:37:02.921047,1709037422.921047,-77.1484375,969.7265625,969.7265625,44.921875,1.0,-1.0,-1.0,1.0,3.m4v,4.0
2024-02-27 13:37:02.924952,1709037422.9249525,92.7734375,969.7265625,969.7265625,47.8515625,1.0,-1.0,-1.0,1.0,3.m4v,4.0
2024-02-27 13:37:02.928857,1709037422.928857,-20.99609375,969.7265625,969.7265625,33.69140625,1.0,-1.0,-1.0,1.0,3.m4v,4.0
2024-02-27 13:37:02.932762,1709037422.9327624,-145.5078125,969.7265625,969.7265625,19.53125,1.0,-1.0,-1.0,1.0,3.m4v,4.0
2024-02-27 13:37:02.936668,1709037422.9366677,-286.1328125,969.7265625,969.7265625,22.94921875,1.0,-1.0,-1.0,1.0,3.m4v,4.0
2024-02-27 13:37:02.940573,1709037422.9405727,-219.7265625,969.7265625,970.21484375,24.90234375,1.0,-1.0,-1.0,1.0,3.m4v,4.0
2024-02-27 13:37:02.944478,1709037422.9444778,32.2265625,969.7265625,969.7265625,20.99609375,1.0,-1.0,-1.0,1.0,3.m4v,4.0
2024-02-27 13:37:02.948395,1709037422.9483953,18.06640625,970.21484375,969.7265625,22.4609375,1.0,-1.0,-1.0,1.0,3.m4v,4.0
2024-02-27 13:37:02.952300,1709037422.9523003,-151.85546875,969.7265625,969.7265625,18.5546875,1.0,-1.0,-1.0,1.0,3.m4v,4.0
2024-02-27 13:37:02.956206,1709037422.9562056,-277.83203125,969.7265625,969.7265625,15.625,1.0,-1.0,-1.0,1.0,3.m4v,4.0
2024-02-27 13:37:02.960111,1709037422.960111,-145.99609375,969.7265625,971.19140625,19.53125,1.0,-1.0,-1.0,1.0,3.m4v,4.0
2024-02-27 13:37:02.964016,1709037422.9640155,55.17578125,970.21484375,958.49609375,21.97265625,1.0,-1.0,-1.0,1.0,3.m4v,4.0
2024-02-27 13:37:02.967921,1709037422.967921,85.9375,969.7265625,995.1171875,4.39453125,1.0,-1.0,-1.0,1.0,3.m4v,4.0
2024-02-27 13:37:02.971826,1709037422.971826,-191.40625,969.7265625,884.765625,-17.08984375,1.0,-1.0,-1.0,1.0,3.m4v,4.0
2024-02-27 13:37:02.975731,1709037422.9757314,-520.99609375,969.7265625,711.42578125,-13.671875,1.0,-1.0,-1.0,1.0,3.m4v,4.0
2024-02-27 13:37:02.979636,1709037422.9796364,-214.84375,969.7265625,888.18359375,-8.7890625,1.0,-1.0,-1.0,1.0,3.m4v,4.0
2024-02-27 13:37:02.983541,1709037422.9835415,57.12890625,970.21484375,977.5390625,-18.5546875,1.0,-1.0,-1.0,1.0,3.m4v,4.0
2024-02-27 13:37:02.987447,1709037422.9874468,53.7109375,970.21484375,980.46875,-19.04296875,1.0,-1.0,-1.0,1.0,3.m4v,4.0
2024-02-27 13:37:02.991352,1709037422.9913518,-299.8046875,969.7265625,600.09765625,-28.3203125,1.0,-1.0,-1.0,1.0,3.m4v,4.0
2024-02-27 13:37:02.995269,1709037422.9952688,-711.42578125,970.21484375,142.578125,-41.9921875,1.0,-1.0,-1.0,1.0,3.m4v,4.0
2024-02-27 13:37:02.999174,1709037422.999174,-147.94921875,970.21484375,591.30859375,-18.06640625,1.0,-1.0,-1.0,1.0,3.m4v,4.0
2024-02-27 13:37:03.003079,1709037423.003079,347.65625,969.7265625,999.0234375,10.25390625,1.0,-1.0,-1.0,1.0,3.m4v,4.0
2024-02-27 13:37:03.006984,1709037423.0069842,166.015625,969.7265625,991.2109375,0.9765625,1.0,-1.0,-1.0,1.0,3.m4v,4.0
2024-02-27 13:37:03.010889,1709037423.0108893,-291.50390625,969.7265625,661.1328125,-10.7421875,1.0,-1.0,-1.0,1.0,3.m4v,4.0
2024-02-27 13:37:03.014795,1709037423.0147946,-423.828125,969.7265625,623.046875,-15.625,1.0,-1.0,-1.0,1.0,3.m4v,4.0
2024-02-27 13:37:03.417122,1709037423.4171216,-268.06640625,-1000.0,948.73046875,-63.4765625,1.0,-1.0,-1.0,1.0,3.m4v,4.0
2024-02-27 13:37:03.421027,1709037423.4210267,100.09765625,-250.9765625,975.09765625,-49.31640625,1.0,-1.0,-1.0,1.0,3.m4v,4.0
2024-02-27 13:37:03.424932,1709037423.424932,630.37109375,999.51171875,968.26171875,-39.55078125,1.0,-1.0,-1.0,1.0,3.m4v,4.0
2024-02-27 13:37:03.428837,1709037423.428837,281.73828125,958.49609375,970.21484375,-50.29296875,1.0,-1.0,-1.0,1.0,3.m4v,4.0
2024-02-27 13:37:03.432742,1709037423.432742,-90.8203125,940.4296875,969.7265625,-67.3828125,1.0,-1.0,-1.0,1.0,3.m4v,4.0
2024-02-27 13:37:03.436647,1709037423.4366474,-108.88671875,977.5390625,969.7265625,-60.546875,1.0,-1.0,-1.0,1.0,3.m4v,4.0
2024-02-27 13:37:03.440552,1709037423.4405525,13.18359375,969.7265625,969.7265625,-38.57421875,1.0,-1.0,-1.0,1.0,3.m4v,4.0
2024-02-27 13:37:03.444458,1709037423.4444578,94.23828125,969.7265625,969.7265625,-37.59765625,1.0,-1.0,-1.0,1.0,3.m4v,4.0
2024-02-27 13:37:03.448363,1709037423.4483628,-13.671875,969.7265625,969.7265625,-60.546875,1.0,-1.0,-1.0,1.0,3.m4v,4.0
2024-02-27 13:37:03.452268,1709037423.452268,-99.12109375,969.7265625,969.7265625,-62.01171875,1.0,-1.0,-1.0,1.0,3.m4v,4.0
2024-02-27 13:37:03.456173,1709037423.4561732,-176.26953125,969.7265625,969.7265625,-44.921875,1.0,-1.0,-1.0,1.0,3.m4v,4.0
2024-02-27 13:37:03.460078,1709037423.4600782,-150.87890625,969.7265625,969.7265625,-42.48046875,1.0,-1.0,-1.0,1.0,3.m4v,4.0
2024-02-27 13:37:03.463994,1709037423.4639935,45.41015625,969.7265625,969.7265625,-40.0390625,1.0,-1.0,-1.0,1.0,3.m4v,4.0
2024-02-27 13:37:03.467899,1709037423.4678986,127.44140625,969.7265625,969.7265625,-38.0859375,1.0,-1.0,-1.0,1.0,3.m4v,4.0
2024-02-27 13:37:03.471804,1709037423.4718037,0.0,969.7265625,969.7265625,-47.8515625,1.0,-1.0,-1.0,1.0,3.m4v,4.0
2024-02-27 13:37:03.475709,1709037423.475709,-164.55078125,969.7265625,969.7265625,-40.0390625,1.0,-1.0,-1.0,1.0,3.m4v,4.0
2024-02-27 13:37:03.479614,1709037423.479614,-139.6484375,980.46875,971.19140625,-32.2265625,1.0,-1.0,-1.0,1.0,3.m4v,4.0
2024-02-27 13:37:03.483519,1709037423.4835193,83.0078125,925.29296875,957.03125,-19.53125,1.0,-1.0,-1.0,1.0,3.m4v,4.0
2024-02-27 13:37:03.487424,1709037423.4874244,104.4921875,999.51171875,996.09375,-20.01953125,1.0,-1.0,-1.0,1.0,3.m4v,4.0
2024-02-27 13:37:03.491329,1709037423.4913294,-140.13671875,892.578125,869.140625,-41.015625,1.0,-1.0,-1.0,1.0,3.m4v,4.0
2024-02-27 13:37:03.495235,1709037423.4952347,-741.69921875,-453.61328125,614.2578125,-47.36328125,1.0,-1.0,-1.0,1.0,3.m4v,4.0
2024-02-27 13:37:03.499140,1709037423.4991398,-501.46484375,-1000.0,817.87109375,-25.87890625,1.0,-1.0,-1.0,1.0,3.m4v,4.0
2024-02-27 13:37:03.503045,1709037423.503045,180.6640625,-936.03515625,987.79296875,-15.625,1.0,-1.0,-1.0,1.0,3.m4v,4.0
2024-02-27 13:37:03.506950,1709037423.50695,62.5,-1000.0,983.3984375,-28.80859375,1.0,-1.0,-1.0,1.0,3.m4v,4.0
2024-02-27 13:37:03.510865,1709037423.5108652,-170.8984375,-1000.0,889.16015625,-40.52734375,1.0,-1.0,-1.0,1.0,3.m4v,4.0
2024-02-27 13:37:03.514770,1709037423.5147705,-284.66796875,-929.19921875,792.96875,-38.57421875,1.0,-1.0,-1.0,1.0,3.m4v,4.0
2024-02-27 13:37:03.518675,1709037423.518675,-164.0625,-1000.0,956.0546875,-37.59765625,1.0,-1.0,-1.0,1.0,3.m4v,4.0
2024-02-27 13:37:03.522581,1709037423.5225806,144.04296875,-620.1171875,980.46875,-23.4375,1.0,-1.0,-1.0,1.0,3.m4v,4.0
2024-02-27 13:37:03.526486,1709037423.5264857,607.421875,818.84765625,961.9140625,-11.23046875,1.0,-1.0,-1.0,1.0,3.m4v,4.0
2024-02-27 13:37:03.530391,1709037423.530391,415.52734375,999.51171875,971.19140625,-26.85546875,1.0,-1.0,-1.0,1.0,3.m4v,4.0
2024-02-27 13:37:03.534296,1709037423.534296,-87.40234375,912.109375,969.7265625,-43.9453125,1.0,-1.0,-1.0,1.0,3.m4v,4.0
2024-02-27 13:37:03.538201,1709037423.538201,-205.56640625,984.86328125,969.7265625,-40.0390625,1.0,-1.0,-1.0,1.0,3.m4v,4.0
2024-02-27 13:37:03.542106,1709037423.5421064,-21.97265625,969.7265625,969.7265625,-15.13671875,1.0,-1.0,-1.0,1.0,3.m4v,4.0
2024-02-27 13:37:03.546011,1709037423.5460114,86.9140625,969.7265625,969.7265625,-27.34375,1.0,-1.0,-1.0,1.0,3.m4v,4.0
2024-02-27 13:37:03.549917,1709037423.5499165,-15.13671875,969.7265625,969.7265625,-42.96875,1.0,-1.0,-1.0,1.0,3.m4v,4.0
2024-02-27 13:37:03.553822,1709037423.5538218,-134.27734375,969.7265625,969.7265625,-33.69140625,1.0,-1.0,-1.0,1.0,3.m4v,4.0
2024-02-27 13:37:03.557742,1709037423.5577424,-204.1015625,969.7265625,969.7265625,-26.85546875,1.0,-1.0,-1.0,1.0,3.m4v,4.0
2024-02-27 13:37:03.561647,1709037423.5616474,-56.15234375,969.7265625,970.21484375,-24.90234375,1.0,-1.0,-1.0,1.0,3.m4v,4.0
2024-02-27 13:37:03.565552,1709037423.5655525,0.9765625,969.7265625,969.7265625,-26.3671875,1.0,-1.0,-1.0,1.0,3.m4v,4.0
2024-02-27 13:37:03.569458,1709037423.5694578,-137.6953125,970.21484375,969.7265625,-37.59765625,1.0,-1.0,-1.0,1.0,3.m4v,4.0
2024-02-27 13:37:03.573363,1709037423.5733628,-228.02734375,966.30859375,969.7265625,-46.875,1.0,-1.0,-1.0,1.0,3.m4v,4.0
2024-02-27 13:37:03.577268,1709037423.577268,-180.6640625,970.703125,970.21484375,-38.0859375,1.0,-1.0,-1.0,1.0,3.m4v,4.0
2024-02-27 13:37:03.581173,1709037423.5811732,-63.96484375,955.078125,969.7265625,-29.296875,1.0,-1.0,-1.0,1.0,3.m4v,4.0
2024-02-27 13:37:03.585078,1709037423.5850782,-35.15625,934.08203125,969.7265625,-31.25,1.0,-1.0,-1.0,1.0,3.m4v,4.0
2024-02-27 13:37:03.588984,1709037423.5889835,-10.25390625,999.51171875,969.7265625,-38.0859375,1.0,-1.0,-1.0,1.0,3.m4v,4.0
2024-02-27 13:37:03.592889,1709037423.5928886,-470.703125,-57.6171875,969.7265625,-46.38671875,1.0,-1.0,-1.0,1.0,3.m4v,4.0
2024-02-27 13:37:03.596794,1709037423.5967937,-803.7109375,-1000.0,969.7265625,-46.38671875,1.0,-1.0,-1.0,1.0,3.m4v,4.0
2024-02-27 13:37:03.600699,1709037423.600699,-361.81640625,-956.0546875,970.21484375,-34.66796875,1.0,-1.0,-1.0,1.0,3.m4v,4.0
2024-02-27 13:37:03.604612,1709037423.604612,-31.73828125,-989.74609375,969.7265625,-34.66796875,1.0,-1.0,-1.0,1.0,3.m4v,4.0
2024-02-27 13:37:03.608517,1709037423.6085172,-35.64453125,-1000.0,969.7265625,-29.78515625,1.0,-1.0,-1.0,1.0,3.m4v,4.0
2024-02-27 13:37:03.612422,1709037423.6124222,-169.921875,-966.30859375,970.21484375,-27.34375,1.0,-1.0,-1.0,1.0,3.m4v,4.0
2024-02-27 13:37:03.616328,1709037423.6163275,-336.42578125,-1000.0,969.7265625,-41.015625,1.0,-1.0,-1.0,1.0,3.m4v,4.0
2024-02-27 13:37:03.620233,1709037423.6202326,-212.890625,-1000.0,969.7265625,-32.2265625,1.0,-1.0,-1.0,1.0,3.m4v,4.0
2024-02-27 13:37:03.624138,1709037423.6241376,511.71875,282.2265625,969.7265625,5.37109375,1.0,-1.0,-1.0,1.0,3.m4v,4.0
2024-02-27 13:37:03.628043,1709037423.628043,451.66015625,999.51171875,969.7265625,1.46484375,1.0,-1.0,-1.0,1.0,3.m4v,4.0
2024-02-27 13:37:03.631948,1709037423.631948,-225.5859375,907.71484375,969.7265625,-40.52734375,1.0,-1.0,-1.0,1.0,3.m4v,4.0
2024-02-27 13:37:03.635853,1709037423.6358533,-267.08984375,972.65625,969.7265625,-42.48046875,1.0,-1.0,-1.0,1.0,3.m4v,4.0
2024-02-27 13:37:03.639758,1709037423.6397583,-159.1796875,970.21484375,969.7265625,-24.90234375,1.0,-1.0,-1.0,1.0,3.m4v,4.0
2024-02-27 13:37:03.643663,1709037423.6436634,-13.18359375,969.7265625,969.7265625,-20.01953125,1.0,-1.0,-1.0,1.0,3.m4v,4.0
2024-02-27 13:37:03.647569,1709037423.6475687,49.8046875,969.7265625,969.7265625,-21.484375,1.0,-1.0,-1.0,1.0,3.m4v,4.0
2024-02-27 13:37:03.651487,1709037423.6514866,-76.66015625,969.7265625,969.7265625,-33.203125,1.0,-1.0,-1.0,1.0,3.m4v,4.0
2024-02-27 13:37:03.655392,1709037423.655392,-192.3828125,969.7265625,969.7265625,-24.90234375,1.0,-1.0,-1.0,1.0,3.m4v,4.0
2024-02-27 13:37:03.659297,1709037423.659297,-183.10546875,969.7265625,969.7265625,-29.78515625,1.0,-1.0,-1.0,1.0,3.m4v,4.0
2024-02-27 13:37:03.663202,1709037423.6632023,-17.578125,982.91015625,969.7265625,-33.69140625,1.0,-1.0,-1.0,1.0,3.m4v,4.0
2024-02-27 13:37:03.667107,1709037423.667107,41.9921875,917.96875,969.7265625,-36.1328125,1.0,-1.0,-1.0,1.0,3.m4v,4.0
2024-02-27 13:37:03.671012,1709037423.6710124,-2.44140625,999.51171875,969.7265625,-49.31640625,1.0,-1.0,-1.0,1.0,3.m4v,4.0
2024-02-27 13:37:03.674918,1709037423.6749177,-150.87890625,835.9375,969.7265625,-46.38671875,1.0,-1.0,-1.0,1.0,3.m4v,4.0
2024-02-27 13:37:03.678823,1709037423.6788228,-631.8359375,-553.7109375,970.21484375,-55.6640625,1.0,-1.0,-1.0,1.0,3.m4v,4.0
2024-02-27 13:37:03.682728,1709037423.682728,-411.62109375,-1000.0,969.7265625,-47.36328125,1.0,-1.0,-1.0,1.0,3.m4v,4.0
2024-02-27 13:37:03.686633,1709037423.686633,18.5546875,-934.5703125,969.7265625,-48.828125,1.0,-1.0,-1.0,1.0,3.m4v,4.0
2024-02-27 13:37:03.690538,1709037423.6905382,-86.9140625,-1000.0,969.7265625,-59.08203125,1.0,-1.0,-1.0,1.0,3.m4v,4.0
2024-02-27 13:37:03.694443,1709037423.6944437,-160.15625,-1000.0,969.7265625,-42.96875,1.0,-1.0,-1.0,1.0,3.m4v,4.0
2024-02-27 13:37:03.698372,1709037423.6983716,-181.640625,-1000.0,970.703125,-34.66796875,1.0,-1.0,-1.0,1.0,3.m4v,4.0
2024-02-27 13:37:03.702277,1709037423.7022767,-30.76171875,-1000.0,964.35546875,-38.0859375,1.0,-1.0,-1.0,1.0,3.m4v,4.0
2024-02-27 13:37:03.706182,1709037423.706182,103.02734375,-1000.0,975.09765625,-41.50390625,1.0,-1.0,-1.0,1.0,3.m4v,4.0
2024-02-27 13:37:03.710087,1709037423.710087,32.71484375,-1000.0,970.21484375,-48.828125,1.0,-1.0,-1.0,1.0,3.m4v,4.0
2024-02-27 13:37:03.713992,1709037423.713992,-208.0078125,-1000.0,804.19921875,-54.6875,1.0,-1.0,-1.0,1.0,3.m4v,4.0
2024-02-27 13:37:03.717897,1709037423.7178974,-126.953125,-1000.0,869.140625,-37.109375,1.0,-1.0,-1.0,1.0,3.m4v,4.0
2024-02-27 13:37:03.721802,1709037423.7218025,132.8125,-1000.0,970.21484375,-29.78515625,1.0,-1.0,-1.0,1.0,3.m4v,4.0
2024-02-27 13:37:03.725708,1709037423.7257078,144.53125,-1000.0,989.74609375,-35.15625,1.0,-1.0,-1.0,1.0,3.m4v,4.0
2024-02-27 13:37:03.729613,1709037423.7296128,-38.57421875,-1000.0,799.31640625,-43.9453125,1.0,-1.0,-1.0,1.0,3.m4v,4.0
2024-02-27 13:37:03.733518,1709037423.733518,-547.36328125,-937.5,63.4765625,-52.24609375,1.0,-1.0,-1.0,1.0,3.m4v,4.0
2024-02-27 13:37:03.737423,1709037423.7374232,-511.23046875,-1000.0,-58.10546875,-36.62109375,1.0,-1.0,-1.0,1.0,3.m4v,4.0
2024-02-27 13:37:03.741328,1709037423.7413282,485.3515625,-218.75,667.96875,-18.06640625,1.0,-1.0,-1.0,1.0,3.m4v,4.0
2024-02-27 13:37:03.745245,1709037423.7452452,941.40625,978.515625,999.51171875,-20.99609375,1.0,-1.0,-1.0,1.0,3.m4v,4.0
2024-02-27 13:37:03.749150,1709037423.7491505,243.1640625,999.51171875,638.671875,-41.50390625,1.0,-1.0,-1.0,1.0,3.m4v,4.0
2024-02-27 13:37:03.753056,1709037423.7530556,-697.265625,172.36328125,-257.32421875,-70.80078125,1.0,-1.0,-1.0,1.0,3.m4v,4.0
2024-02-27 13:37:03.756961,1709037423.7569606,-904.78515625,-1000.0,-557.12890625,-72.75390625,1.0,-1.0,-1.0,1.0,3.m4v,4.0
2024-02-27 13:37:03.760866,1709037423.760866,93.75,-1000.0,199.70703125,-33.69140625,1.0,-1.0,-1.0,1.0,3.m4v,4.0
2024-02-27 13:37:03.764771,1709037423.764771,999.51171875,-42.48046875,973.6328125,-19.53125,1.0,-1.0,-1.0,1.0,3.m4v,4.0
2024-02-27 13:37:03.768676,1709037423.768676,668.45703125,999.51171875,769.53125,-38.0859375,1.0,-1.0,-1.0,1.0,3.m4v,4.0
2024-02-27 13:37:03.772581,1709037423.772581,-540.52734375,142.08984375,-385.25390625,-62.01171875,1.0,-1.0,-1.0,1.0,3.m4v,4.0
2024-02-27 13:37:03.776486,1709037423.7764864,-1000.0,-1000.0,-1000.0,-66.89453125,1.0,-1.0,-1.0,1.0,3.m4v,4.0
2024-02-27 13:37:03.780392,1709037423.7803917,-172.36328125,-944.82421875,-485.83984375,-41.50390625,1.0,-1.0,-1.0,1.0,3.m4v,4.0
2024-02-27 13:37:03.784297,1709037423.7842968,663.0859375,-1000.0,274.4140625,-27.34375,1.0,-1.0,-1.0,1.0,3.m4v,4.0
2024-02-27 13:37:03.788202,1709037423.7882018,638.671875,17.578125,156.25,-27.83203125,1.0,-1.0,-1.0,1.0,3.m4v,4.0
2024-02-27 13:37:03.792118,1709037423.7921178,-23.92578125,999.51171875,-586.42578125,-49.8046875,1.0,-1.0,-1.0,1.0,3.m4v,4.0
2024-02-27 13:37:03.796023,1709037423.796023,-630.859375,924.31640625,-1000.0,-53.22265625,1.0,-1.0,-1.0,1.0,3.m4v,4.0
2024-02-27 13:37:03.799928,1709037423.7999282,102.5390625,959.47265625,-526.85546875,-28.80859375,1.0,-1.0,-1.0,1.0,3.m4v,4.0
2024-02-27 13:37:03.803833,1709037423.8038332,996.58203125,972.16796875,467.7734375,-16.6015625,1.0,-1.0,-1.0,1.0,3.m4v,4.0
2024-02-27 13:37:03.807739,1709037423.8077383,237.79296875,969.7265625,-59.08203125,-40.0390625,1.0,-1.0,-1.0,1.0,3.m4v,4.0
2024-02-27 13:37:03.811644,1709037423.8116436,-585.44921875,969.7265625,-927.734375,-55.6640625,1.0,-1.0,-1.0,1.0,3.m4v,4.0
2024-02-27 13:37:03.815549,1709037423.815549,-365.72265625,972.65625,-1000.0,-48.33984375,1.0,-1.0,-1.0,1.0,3.m4v,4.0
2024-02-27 13:37:03.819454,1709037423.819454,-118.65234375,958.0078125,-875.9765625,-41.9921875,1.0,-1.0,-1.0,1.0,3.m4v,4.0
2024-02-27 13:37:03.823359,1709037423.823359,385.7421875,927.24609375,-361.81640625,-27.83203125,1.0,-1.0,-1.0,1.0,3.m4v,4.0
2024-02-27 13:37:03.827264,1709037423.8272643,282.2265625,999.51171875,-544.43359375,-29.296875,1.0,-1.0,-1.0,1.0,3.m4v,4.0
2024-02-27 13:37:03.831169,1709037423.8311694,-636.71875,-4.39453125,-1000.0,-45.8984375,1.0,-1.0,-1.0,1.0,3.m4v,4.0
2024-02-27 13:37:03.835074,1709037423.8350744,-706.0546875,-1000.0,-989.74609375,-45.41015625,1.0,-1.0,-1.0,1.0,3.m4v,4.0
2024-02-27 13:37:03.838990,1709037423.8389902,-229.00390625,-959.9609375,-1000.0,-40.0390625,1.0,-1.0,-1.0,1.0,3.m4v,4.0
2024-02-27 13:37:03.842895,1709037423.8428953,85.9375,-986.81640625,-909.1796875,-34.1796875,1.0,-1.0,-1.0,1.0,3.m4v,4.0
2024-02-27 13:37:03.846800,1709037423.8468003,145.99609375,-1000.0,-897.94921875,-26.85546875,1.0,-1.0,-1.0,1.0,3.m4v,4.0
2024-02-27 13:37:03.850706,1709037423.8507056,-66.89453125,-937.01171875,-998.53515625,-40.0390625,1.0,-1.0,-1.0,1.0,3.m4v,4.0
2024-02-27 13:37:03.854611,1709037423.8546107,-171.38671875,-1000.0,-1000.0,-44.43359375,1.0,-1.0,-1.0,1.0,3.m4v,4.0
2024-02-27 13:37:03.858516,1709037423.858516,131.8359375,-224.12109375,-1000.0,-32.2265625,1.0,-1.0,-1.0,1.0,3.m4v,4.0
2024-02-27 13:37:03.862421,1709037423.862421,965.8203125,999.51171875,-297.36328125,-14.6484375,1.0,-1.0,-1.0,1.0,3.m4v,4.0
2024-02-27 13:37:03.866326,1709037423.866326,555.17578125,954.58984375,-307.12890625,-40.0390625,1.0,-1.0,-1.0,1.0,3.m4v,4.0
2024-02-27 13:37:03.870231,1709037423.8702314,-392.08984375,942.3828125,-1000.0,-60.546875,1.0,-1.0,-1.0,1.0,3.m4v,4.0
2024-02-27 13:37:03.874136,1709037423.8741364,-208.0078125,977.05078125,-989.74609375,-41.50390625,1.0,-1.0,-1.0,1.0,3.m4v,4.0
2024-02-27 13:37:03.878042,1709037423.8780415,-103.02734375,978.02734375,-1000.0,-48.33984375,1.0,-1.0,-1.0,1.0,3.m4v,4.0
2024-02-27 13:37:03.881947,1709037423.8819468,82.03125,937.5,-892.08984375,-32.71484375,1.0,-1.0,-1.0,1.0,3.m4v,4.0
2024-02-27 13:37:03.885861,1709037423.8858614,383.30078125,969.23828125,-764.16015625,-32.2265625,1.0,-1.0,-1.0,1.0,3.m4v,4.0
2024-02-27 13:37:03.889766,1709037423.8897665,30.76171875,984.375,-984.375,-60.05859375,1.0,-1.0,-1.0,1.0,3.m4v,4.0
2024-02-27 13:37:03.893672,1709037423.8936718,-517.08984375,-290.0390625,-1000.0,-57.12890625,1.0,-1.0,-1.0,1.0,3.m4v,4.0
2024-02-27 13:37:03.897577,1709037423.8975768,-526.3671875,-1000.0,-1000.0,-56.15234375,1.0,-1.0,-1.0,1.0,3.m4v,4.0
2024-02-27 13:37:03.901482,1709037423.901482,-64.94140625,-942.3828125,-985.3515625,-52.24609375,1.0,-1.0,-1.0,1.0,3.m4v,4.0
2024-02-27 13:37:03.905387,1709037423.9053872,337.890625,-994.62890625,-781.73828125,-33.203125,1.0,-1.0,-1.0,1.0,3.m4v,4.0
2024-02-27 13:37:03.909292,1709037423.9092922,154.78515625,-988.28125,-883.30078125,-30.2734375,1.0,-1.0,-1.0,1.0,3.m4v,4.0
2024-02-27 13:37:03.913198,1709037423.9131975,-294.921875,-991.69921875,-1000.0,-59.08203125,1.0,-1.0,-1.0,1.0,3.m4v,4.0
2024-02-27 13:37:03.917103,1709037423.9171026,-300.78125,-1000.0,-1000.0,-62.98828125,1.0,-1.0,-1.0,1.0,3.m4v,4.0
2024-02-27 13:37:03.921008,1709037423.9210076,101.07421875,-939.94140625,-894.04296875,-42.48046875,1.0,-1.0,-1.0,1.0,3.m4v,4.0
2024-02-27 13:37:03.924913,1709037423.924913,286.1328125,-866.2109375,-831.54296875,-57.6171875,1.0,-1.0,-1.0,1.0,3.m4v,4.0
2024-02-27 13:37:03.928818,1709037423.928818,-65.91796875,-998.046875,-1000.0,-67.3828125,1.0,-1.0,-1.0,1.0,3.m4v,4.0
2024-02-27 13:37:03.932732,1709037423.9327323,-91.30859375,-1000.0,-1000.0,-55.6640625,1.0,-1.0,-1.0,1.0,3.m4v,4.0
2024-02-27 13:37:03.936637,1709037423.9366374,-99.12109375,-994.140625,-995.1171875,-47.36328125,1.0,-1.0,-1.0,1.0,3.m4v,4.0
2024-02-27 13:37:03.940543,1709037423.9405427,-81.0546875,-1000.0,-1000.0,-44.43359375,1.0,-1.0,-1.0,1.0,3.m4v,4.0
2024-02-27 13:37:03.944448,1709037423.9444478,149.4140625,-930.6640625,-1000.0,-37.109375,1.0,-1.0,-1.0,1.0,3.m4v,4.0
2024-02-27 13:37:03.948353,1709037423.9483528,98.14453125,-1000.0,-1000.0,-43.9453125,1.0,-1.0,-1.0,1.0,3.m4v,4.0
2024-02-27 13:37:03.952258,1709037423.952258,177.24609375,-356.4453125,-997.55859375,-48.828125,1.0,-1.0,-1.0,1.0,3.m4v,4.0
2024-02-27 13:37:03.956163,1709037423.9561632,440.91796875,987.3046875,-1000.0,-38.57421875,1.0,-1.0,-1.0,1.0,3.m4v,4.0
2024-02-27 13:37:03.960068,1709037423.9600682,149.4140625,977.05078125,-997.55859375,-36.1328125,1.0,-1.0,-1.0,1.0,3.m4v,4.0
2024-02-27 13:37:03.963974,1709037423.9639735,163.0859375,931.640625,-932.12890625,-31.73828125,1.0,-1.0,-1.0,1.0,3.m4v,4.0
2024-02-27 13:37:03.967879,1709037423.9678786,191.89453125,980.46875,-971.19140625,-46.875,1.0,-1.0,-1.0,1.0,3.m4v,4.0
2024-02-27 13:37:03.971784,1709037423.971784,40.0390625,970.21484375,-993.1640625,-57.12890625,1.0,-1.0,-1.0,1.0,3.m4v,4.0
2024-02-27 13:37:03.975689,1709037423.975689,-49.31640625,970.21484375,-1000.0,-43.9453125,1.0,-1.0,-1.0,1.0,3.m4v,4.0
2024-02-27 13:37:03.979603,1709037423.9796033,4.39453125,972.65625,-944.3359375,-37.109375,1.0,-1.0,-1.0,1.0,3.m4v,4.0
2024-02-27 13:37:03.983508,1709037423.9835083,418.9453125,905.2734375,-517.578125,-26.85546875,1.0,-1.0,-1.0,1.0,3.m4v,4.0
2024-02-27 13:37:03.987414,1709037423.9874136,214.84375,999.51171875,-706.0546875,-33.69140625,1.0,-1.0,-1.0,1.0,3.m4v,4.0
2024-02-27 13:37:03.991319,1709037423.9913187,-415.52734375,221.6796875,-1000.0,-51.7578125,1.0,-1.0,-1.0,1.0,3.m4v,4.0
2024-02-27 13:37:03.995224,1709037423.995224,-576.66015625,-993.65234375,-983.3984375,-48.33984375,1.0,-1.0,-1.0,1.0,3.m4v,4.0
2024-02-27 13:37:03.999129,1709037423.999129,-303.22265625,-1000.0,-1000.0,-41.9921875,1.0,-1.0,-1.0,1.0,3.m4v,4.0
2024-02-27 13:37:04.448328,1709037424.4483275,71.77734375,-1000.0,869.140625,-32.2265625,1.0,-1.0,-1.0,1.0,3.m4v,4.0
2024-02-27 13:37:04.452233,1709037424.4522328,-385.25390625,-929.6875,306.15234375,-48.828125,1.0,-1.0,-1.0,1.0,3.m4v,4.0
2024-02-27 13:37:04.456138,1709037424.456138,-520.01953125,-1000.0,94.23828125,-42.48046875,1.0,-1.0,-1.0,1.0,3.m4v,4.0
2024-02-27 13:37:04.460043,1709037424.4600432,280.76171875,-376.46484375,695.80078125,-27.83203125,1.0,-1.0,-1.0,1.0,3.m4v,4.0
2024-02-27 13:37:04.463948,1709037424.4639482,924.8046875,979.98046875,982.91015625,-9.765625,1.0,-1.0,-1.0,1.0,3.m4v,4.0
2024-02-27 13:37:04.467853,1709037424.4678533,568.84765625,979.98046875,987.79296875,-21.97265625,1.0,-1.0,-1.0,1.0,3.m4v,4.0
2024-02-27 13:37:04.471759,1709037424.4717586,-6.8359375,930.17578125,827.1484375,-39.55078125,1.0,-1.0,-1.0,1.0,3.m4v,4.0
2024-02-27 13:37:04.475664,1709037424.4756637,-497.55859375,979.4921875,392.578125,-39.55078125,1.0,-1.0,-1.0,1.0,3.m4v,4.0
2024-02-27 13:37:04.479569,1709037424.479569,-111.81640625,980.46875,661.62109375,-34.66796875,1.0,-1.0,-1.0,1.0,3.m4v,4.0
2024-02-27 13:37:04.483474,1709037424.483474,341.30859375,917.48046875,992.67578125,-25.87890625,1.0,-1.0,-1.0,1.0,3.m4v,4.0
2024-02-27 13:37:04.487379,1709037424.487379,214.35546875,999.51171875,980.95703125,-27.34375,1.0,-1.0,-1.0,1.0,3.m4v,4.0
2024-02-27 13:37:04.491284,1709037424.4912844,-115.72265625,829.58984375,663.0859375,-55.17578125,1.0,-1.0,-1.0,1.0,3.m4v,4.0
2024-02-27 13:37:04.495201,1709037424.4952009,-890.625,-562.01171875,16.6015625,-60.05859375,1.0,-1.0,-1.0,1.0,3.m4v,4.0
2024-02-27 13:37:04.499106,1709037424.4991062,-648.92578125,-1000.0,238.76953125,-42.96875,1.0,-1.0,-1.0,1.0,3.m4v,4.0
2024-02-27 13:37:04.503011,1709037424.5030112,364.74609375,-934.5703125,910.15625,-33.203125,1.0,-1.0,-1.0,1.0,3.m4v,4.0
2024-02-27 13:37:04.506916,1709037424.5069163,361.328125,-1000.0,989.74609375,-38.57421875,1.0,-1.0,-1.0,1.0,3.m4v,4.0
2024-02-27 13:37:04.510822,1709037424.5108216,-272.4609375,-1000.0,435.546875,-38.0859375,1.0,-1.0,-1.0,1.0,3.m4v,4.0
2024-02-27 13:37:04.514727,1709037424.5147266,-344.7265625,-938.4765625,196.77734375,-32.71484375,1.0,-1.0,-1.0,1.0,3.m4v,4.0
2024-02-27 13:37:04.518632,1709037424.518632,19.04296875,-1000.0,710.9375,-35.15625,1.0,-1.0,-1.0,1.0,3.m4v,4.0
2024-02-27 13:37:04.522537,1709037424.522537,451.66015625,-209.9609375,952.63671875,-18.06640625,1.0,-1.0,-1.0,1.0,3.m4v,4.0
2024-02-27 13:37:04.526442,1709037424.526442,710.44921875,999.51171875,999.0234375,-6.8359375,1.0,-1.0,-1.0,1.0,3.m4v,4.0
2024-02-27 13:37:04.530347,1709037424.530347,4.39453125,952.1484375,583.0078125,-34.66796875,1.0,-1.0,-1.0,1.0,3.m4v,4.0
2024-02-27 13:37:04.534252,1709037424.5342524,-588.37890625,943.359375,-87.40234375,-57.12890625,1.0,-1.0,-1.0,1.0,3.m4v,4.0
2024-02-27 13:37:04.538158,1709037424.5381577,-165.0390625,976.5625,226.5625,-41.50390625,1.0,-1.0,-1.0,1.0,3.m4v,4.0
2024-02-27 13:37:04.542075,1709037424.542075,470.703125,969.7265625,860.3515625,-20.01953125,1.0,-1.0,-1.0,1.0,3.m4v,4.0
2024-02-27 13:37:04.545980,1709037424.54598,464.84375,969.7265625,999.51171875,-12.20703125,1.0,-1.0,-1.0,1.0,3.m4v,4.0
2024-02-27 13:37:04.549885,1709037424.549885,0.48828125,969.7265625,729.98046875,-24.90234375,1.0,-1.0,-1.0,1.0,3.m4v,4.0
2024-02-27 13:37:04.553790,1709037424.55379,-437.01171875,969.7265625,182.6171875,-43.45703125,1.0,-1.0,-1.0,1.0,3.m4v,4.0
2024-02-27 13:37:04.557695,1709037424.5576954,-247.55859375,979.4921875,337.40234375,-37.109375,1.0,-1.0,-1.0,1.0,3.m4v,4.0
2024-02-27 13:37:04.561600,1709037424.5616004,354.00390625,931.640625,850.09765625,-25.87890625,1.0,-1.0,-1.0,1.0,3.m4v,4.0
2024-02-27 13:37:04.565506,1709037424.5655055,429.6875,982.91015625,999.51171875,-26.85546875,1.0,-1.0,-1.0,1.0,3.m4v,4.0
2024-02-27 13:37:04.569411,1709037424.5694108,-30.76171875,941.89453125,775.87890625,-29.296875,1.0,-1.0,-1.0,1.0,3.m4v,4.0
2024-02-27 13:37:04.573316,1709037424.573316,-782.71484375,-294.921875,-134.765625,-42.96875,1.0,-1.0,-1.0,1.0,3.m4v,4.0
2024-02-27 13:37:04.577221,1709037424.5772212,-856.93359375,-1000.0,-350.09765625,-49.31640625,1.0,-1.0,-1.0,1.0,3.m4v,4.0
2024-02-27 13:37:04.581126,1709037424.5811262,325.68359375,-364.2578125,544.921875,-19.04296875,1.0,-1.0,-1.0,1.0,3.m4v,4.0
2024-02-27 13:37:04.585032,1709037424.5850315,977.05078125,950.68359375,999.51171875,-6.34765625,1.0,-1.0,-1.0,1.0,3.m4v,4.0
2024-02-27 13:37:04.588948,1709037424.5889475,393.5546875,990.234375,857.421875,-37.109375,1.0,-1.0,-1.0,1.0,3.m4v,4.0
2024-02-27 13:37:04.592853,1709037424.5928526,-372.55859375,925.78125,248.53515625,-49.8046875,1.0,-1.0,-1.0,1.0,3.m4v,4.0
2024-02-27 13:37:04.596758,1709037424.5967577,-342.28515625,982.421875,192.87109375,-48.828125,1.0,-1.0,-1.0,1.0,3.m4v,4.0
2024-02-27 13:37:04.600663,1709037424.600663,352.5390625,970.21484375,833.49609375,-30.2734375,1.0,-1.0,-1.0,1.0,3.m4v,4.0
2024-02-27 13:37:04.604568,1709037424.604568,434.08203125,970.21484375,975.09765625,-25.87890625,1.0,-1.0,-1.0,1.0,3.m4v,4.0
2024-02-27 13:37:04.608473,1709037424.6084733,224.609375,907.2265625,973.14453125,-34.66796875,1.0,-1.0,-1.0,1.0,3.m4v,4.0
2024-02-27 13:37:04.612378,1709037424.6123784,120.60546875,999.51171875,881.34765625,-41.015625,1.0,-1.0,-1.0,1.0,3.m4v,4.0
2024-02-27 13:37:04.616283,1709037424.6162834,-672.8515625,184.08203125,395.5078125,-55.6640625,1.0,-1.0,-1.0,1.0,3.m4v,4.0
2024-02-27 13:37:04.620189,1709037424.6201887,-682.6171875,-1000.0,556.640625,-52.734375,1.0,-1.0,-1.0,1.0,3.m4v,4.0
2024-02-27 13:37:04.624094,1709037424.6240938,236.81640625,-983.3984375,995.1171875,-41.015625,1.0,-1.0,-1.0,1.0,3.m4v,4.0
2024-02-27 13:37:04.627999,1709037424.627999,247.0703125,-987.79296875,963.8671875,-36.1328125,1.0,-1.0,-1.0,1.0,3.m4v,4.0
2024-02-27 13:37:04.631904,1709037424.631904,-188.4765625,-935.05859375,575.1953125,-41.9921875,1.0,-1.0,-1.0,1.0,3.m4v,4.0
2024-02-27 13:37:04.635820,1709037424.6358197,-557.12890625,-1000.0,160.15625,-46.38671875,1.0,-1.0,-1.0,1.0,3.m4v,4.0
2024-02-27 13:37:04.639725,1709037424.6397247,52.734375,-591.30859375,610.3515625,-38.0859375,1.0,-1.0,-1.0,1.0,3.m4v,4.0
2024-02-27 13:37:04.643630,1709037424.64363,901.3671875,845.21484375,994.62890625,-27.83203125,1.0,-1.0,-1.0,1.0,3.m4v,4.0
2024-02-27 13:37:04.647535,1709037424.647535,580.56640625,999.51171875,999.51171875,-26.3671875,1.0,-1.0,-1.0,1.0,3.m4v,4.0
2024-02-27 13:37:04.651440,1709037424.6514404,-197.75390625,913.57421875,624.51171875,-40.52734375,1.0,-1.0,-1.0,1.0,3.m4v,4.0
2024-02-27 13:37:04.655345,1709037424.6553454,-221.19140625,984.86328125,505.859375,-43.45703125,1.0,-1.0,-1.0,1.0,3.m4v,4.0
2024-02-27 13:37:04.659250,1709037424.6592505,226.5625,971.19140625,989.2578125,-28.3203125,1.0,-1.0,-1.0,1.0,3.m4v,4.0
2024-02-27 13:37:04.663156,1709037424.6631558,113.76953125,964.35546875,953.125,-26.3671875,1.0,-1.0,-1.0,1.0,3.m4v,4.0
2024-02-27 13:37:04.667061,1709037424.6670609,119.62890625,916.9921875,995.1171875,-26.3671875,1.0,-1.0,-1.0,1.0,3.m4v,4.0
2024-02-27 13:37:04.670966,1709037424.670966,-4.39453125,999.51171875,770.01953125,-43.9453125,1.0,-1.0,-1.0,1.0,3.m4v,4.0
2024-02-27 13:37:04.674871,1709037424.6748712,-759.27734375,87.890625,116.2109375,-62.01171875,1.0,-1.0,-1.0,1.0,3.m4v,4.0
2024-02-27 13:37:04.678776,1709037424.6787765,-739.2578125,-1000.0,271.484375,-45.8984375,1.0,-1.0,-1.0,1.0,3.m4v,4.0
2024-02-27 13:37:04.682690,1709037424.6826904,213.8671875,-970.703125,882.8125,-23.4375,1.0,-1.0,-1.0,1.0,3.m4v,4.0
2024-02-27 13:37:04.686595,1709037424.6865954,354.98046875,-987.3046875,999.51171875,-23.92578125,1.0,-1.0,-1.0,1.0,3.m4v,4.0
2024-02-27 13:37:04.690500,1709037424.6905005,-144.04296875,-976.5625,585.9375,-36.1328125,1.0,-1.0,-1.0,1.0,3.m4v,4.0
2024-02-27 13:37:04.694406,1709037424.6944058,-512.20703125,-987.79296875,69.82421875,-37.59765625,1.0,-1.0,-1.0,1.0,3.m4v,4.0
2024-02-27 13:37:04.698311,1709037424.6983109,-164.0625,-1000.0,493.1640625,-26.85546875,1.0,-1.0,-1.0,1.0,3.m4v,4.0
2024-02-27 13:37:04.702216,1709037424.702216,714.35546875,200.1953125,985.3515625,-14.6484375,1.0,-1.0,-1.0,1.0,3.m4v,4.0
2024-02-27 13:37:04.706121,1709037424.7061212,723.6328125,999.51171875,977.05078125,-16.6015625,1.0,-1.0,-1.0,1.0,3.m4v,4.0
2024-02-27 13:37:04.710026,1709037424.7100265,48.33984375,909.1796875,896.484375,-34.1796875,1.0,-1.0,-1.0,1.0,3.m4v,4.0
2024-02-27 13:37:04.713932,1709037424.7139316,-443.84765625,969.7265625,367.1875,-45.41015625,1.0,-1.0,-1.0,1.0,3.m4v,4.0
2024-02-27 13:37:04.717837,1709037424.7178366,-292.96875,970.21484375,450.68359375,-33.203125,1.0,-1.0,-1.0,1.0,3.m4v,4.0
2024-02-27 13:37:04.721742,1709037424.721742,310.546875,969.7265625,955.56640625,-14.6484375,1.0,-1.0,-1.0,1.0,3.m4v,4.0
2024-02-27 13:37:04.725647,1709037424.725647,276.3671875,969.7265625,990.72265625,-21.97265625,1.0,-1.0,-1.0,1.0,3.m4v,4.0
2024-02-27 13:37:04.729561,1709037424.7295606,-0.9765625,969.7265625,878.90625,-27.83203125,1.0,-1.0,-1.0,1.0,3.m4v,4.0
2024-02-27 13:37:04.733466,1709037424.7334657,-394.53125,969.7265625,344.23828125,-21.484375,1.0,-1.0,-1.0,1.0,3.m4v,4.0
2024-02-27 13:37:04.737371,1709037424.737371,-332.51953125,969.7265625,422.8515625,-41.9921875,1.0,-1.0,-1.0,1.0,3.m4v,4.0
2024-02-27 13:37:04.741276,1709037424.741276,226.07421875,970.21484375,969.7265625,-45.8984375,1.0,-1.0,-1.0,1.0,3.m4v,4.0
2024-02-27 13:37:04.745181,1709037424.745181,249.51171875,969.7265625,969.7265625,-39.0625,1.0,-1.0,-1.0,1.0,3.m4v,4.0
2024-02-27 13:37:04.749086,1709037424.7490864,129.39453125,908.203125,959.47265625,-41.9921875,1.0,-1.0,-1.0,1.0,3.m4v,4.0
2024-02-27 13:37:04.752991,1709037424.7529914,114.2578125,999.51171875,969.7265625,-51.7578125,1.0,-1.0,-1.0,1.0,3.m4v,4.0
2024-02-27 13:37:04.756897,1709037424.7568967,-576.66015625,174.8046875,772.4609375,-68.84765625,1.0,-1.0,-1.0,1.0,3.m4v,4.0
2024-02-27 13:37:04.760802,1709037424.7608018,-687.98828125,-1000.0,814.453125,-45.41015625,1.0,-1.0,-1.0,1.0,3.m4v,4.0
2024-02-27 13:37:04.764707,1709037424.764707,2.9296875,-981.93359375,999.51171875,-30.76171875,1.0,-1.0,-1.0,1.0,3.m4v,4.0
2024-02-27 13:37:04.768612,1709037424.768612,-62.5,-974.12109375,884.765625,-52.734375,1.0,-1.0,-1.0,1.0,3.m4v,4.0
2024-02-27 13:37:04.772517,1709037424.7725172,-464.84375,-1000.0,363.76953125,-62.5,1.0,-1.0,-1.0,1.0,3.m4v,4.0
2024-02-27 13:37:04.776435,1709037424.7764351,-484.86328125,-1000.0,282.71484375,-57.12890625,1.0,-1.0,-1.0,1.0,3.m4v,4.0
2024-02-27 13:37:04.780340,1709037424.7803404,96.6796875,-1000.0,829.1015625,-44.43359375,1.0,-1.0,-1.0,1.0,3.m4v,4.0
2024-02-27 13:37:04.784245,1709037424.7842455,264.16015625,-1000.0,981.93359375,-34.66796875,1.0,-1.0,-1.0,1.0,3.m4v,4.0
2024-02-27 13:37:04.788151,1709037424.7881508,99.12109375,-1000.0,997.0703125,-41.015625,1.0,-1.0,-1.0,1.0,3.m4v,4.0
2024-02-27 13:37:04.792056,1709037424.7920558,-213.8671875,-1000.0,735.3515625,-56.640625,1.0,-1.0,-1.0,1.0,3.m4v,4.0
2024-02-27 13:37:04.795961,1709037424.795961,-278.3203125,-1000.0,668.9453125,-50.29296875,1.0,-1.0,-1.0,1.0,3.m4v,4.0
2024-02-27 13:37:04.799866,1709037424.7998662,20.01953125,-1000.0,986.328125,-28.3203125,1.0,-1.0,-1.0,1.0,3.m4v,4.0
2024-02-27 13:37:04.803771,1709037424.8037713,24.90234375,-1000.0,961.42578125,-25.390625,1.0,-1.0,-1.0,1.0,3.m4v,4.0
2024-02-27 13:37:04.807677,1709037424.8076766,20.99609375,-1000.0,971.19140625,-48.828125,1.0,-1.0,-1.0,1.0,3.m4v,4.0
2024-02-27 13:37:04.811582,1709037424.8115816,-281.25,-940.4296875,554.6875,-57.6171875,1.0,-1.0,-1.0,1.0,3.m4v,4.0
2024-02-27 13:37:04.815487,1709037424.815487,-605.95703125,-1000.0,110.83984375,-45.8984375,1.0,-1.0,-1.0,1.0,3.m4v,4.0
2024-02-27 13:37:04.819392,1709037424.819392,-45.41015625,-786.1328125,593.26171875,-29.78515625,1.0,-1.0,-1.0,1.0,3.m4v,4.0
2024-02-27 13:37:04.823310,1709037424.8233097,803.22265625,630.859375,994.62890625,-18.5546875,1.0,-1.0,-1.0,1.0,3.m4v,4.0
2024-02-27 13:37:04.827215,1709037424.8272147,546.38671875,999.51171875,982.91015625,-33.69140625,1.0,-1.0,-1.0,1.0,3.m4v,4.0
2024-02-27 13:37:04.831120,1709037424.8311198,-14.16015625,905.76171875,860.3515625,-44.921875,1.0,-1.0,-1.0,1.0,3.m4v,4.0
2024-02-27 13:37:04.835025,1709037424.835025,-362.3046875,982.91015625,511.71875,-47.36328125,1.0,-1.0,-1.0,1.0,3.m4v,4.0
2024-02-27 13:37:04.838930,1709037424.83893,-157.71484375,974.609375,732.91015625,-44.921875,1.0,-1.0,-1.0,1.0,3.m4v,4.0
2024-02-27 13:37:04.842835,1709037424.8428354,316.89453125,950.1953125,987.79296875,-36.1328125,1.0,-1.0,-1.0,1.0,3.m4v,4.0
2024-02-27 13:37:04.846740,1709037424.8467405,194.82421875,941.89453125,979.4921875,-35.15625,1.0,-1.0,-1.0,1.0,3.m4v,4.0
2024-02-27 13:37:04.850646,1709037424.8506455,-97.16796875,999.51171875,861.328125,-41.50390625,1.0,-1.0,-1.0,1.0,3.m4v,4.0
2024-02-27 13:37:04.854551,1709037424.8545508,-746.09375,-115.234375,321.77734375,-68.84765625,1.0,-1.0,-1.0,1.0,3.m4v,4.0
2024-02-27 13:37:04.858456,1709037424.858456,-793.9453125,-1000.0,372.0703125,-74.70703125,1.0,-1.0,-1.0,1.0,3.m4v,4.0
2024-02-27 13:37:04.862361,1709037424.8623612,118.65234375,-950.1953125,893.5546875,-24.90234375,1.0,-1.0,-1.0,1.0,3.m4v,4.0
2024-02-27 13:37:04.866266,1709037424.8662665,300.29296875,-993.65234375,999.51171875,-24.4140625,1.0,-1.0,-1.0,1.0,3.m4v,4.0
2024-02-27 13:37:04.870183,1709037424.870183,-192.87109375,-1000.0,692.3828125,-50.29296875,1.0,-1.0,-1.0,1.0,3.m4v,4.0
2024-02-27 13:37:04.874088,1709037424.874088,-601.5625,-937.5,62.01171875,-47.36328125,1.0,-1.0,-1.0,1.0,3.m4v,4.0
2024-02-27 13:37:04.877993,1709037424.877993,-418.45703125,-1000.0,207.51953125,-30.76171875,1.0,-1.0,-1.0,1.0,3.m4v,4.0
2024-02-27 13:37:04.881898,1709037424.8818984,503.90625,-210.9375,837.40234375,-16.11328125,1.0,-1.0,-1.0,1.0,3.m4v,4.0
2024-02-27 13:37:04.885804,1709037424.8858037,819.3359375,999.51171875,985.3515625,-11.71875,1.0,-1.0,-1.0,1.0,3.m4v,4.0
2024-02-27 13:37:04.889709,1709037424.8897088,239.74609375,957.03125,930.6640625,-17.08984375,1.0,-1.0,-1.0,1.0,3.m4v,4.0
2024-02-27 13:37:04.893614,1709037424.8936138,-218.75,951.171875,581.0546875,-38.57421875,1.0,-1.0,-1.0,1.0,3.m4v,4.0
2024-02-27 13:37:04.897519,1709037424.897519,-915.0390625,-311.03515625,-35.64453125,-53.7109375,1.0,-1.0,-1.0,1.0,3.m4v,4.0
2024-02-27 13:37:04.901424,1709037424.9014242,-605.95703125,-1000.0,165.0390625,-32.71484375,1.0,-1.0,-1.0,1.0,3.m4v,4.0
2024-02-27 13:37:04.905329,1709037424.9053297,418.9453125,-937.01171875,799.31640625,-13.671875,1.0,-1.0,-1.0,1.0,3.m4v,4.0
2024-02-27 13:37:04.909235,1709037424.9092343,124.0234375,-1000.0,482.91015625,-42.96875,1.0,-1.0,-1.0,1.0,3.m4v,4.0
2024-02-27 13:37:04.913140,1709037424.9131396,-718.75,-1000.0,-444.3359375,-49.8046875,1.0,-1.0,-1.0,1.0,3.m4v,4.0
2024-02-27 13:37:04.917056,1709037424.9170556,-720.703125,-1000.0,-760.7421875,-39.55078125,1.0,-1.0,-1.0,1.0,3.m4v,4.0
2024-02-27 13:37:04.920961,1709037424.920961,128.90625,-1000.0,-64.453125,-26.85546875,1.0,-1.0,-1.0,1.0,3.m4v,4.0
2024-02-27 13:37:04.924866,1709037424.924866,701.171875,-1000.0,657.71484375,-13.671875,1.0,-1.0,-1.0,1.0,3.m4v,4.0
2024-02-27 13:37:04.928771,1709037424.9287713,8.30078125,-944.82421875,104.4921875,-32.2265625,1.0,-1.0,-1.0,1.0,3.m4v,4.0
2024-02-27 13:37:04.932676,1709037424.9326763,-830.56640625,-1000.0,-869.62890625,-47.8515625,1.0,-1.0,-1.0,1.0,3.m4v,4.0
2024-02-27 13:37:04.936581,1709037424.9365814,-449.70703125,-818.359375,-930.17578125,-43.45703125,1.0,-1.0,-1.0,1.0,3.m4v,4.0
2024-02-27 13:37:04.940487,1709037424.940487,658.203125,543.9453125,90.8203125,-21.484375,1.0,-1.0,-1.0,1.0,3.m4v,4.0
2024-02-27 13:37:04.944392,1709037424.9443915,984.86328125,999.51171875,912.109375,-6.34765625,1.0,-1.0,-1.0,1.0,3.m4v,4.0
2024-02-27 13:37:04.948297,1709037424.948297,2.9296875,943.359375,31.73828125,-27.34375,1.0,-1.0,-1.0,1.0,3.m4v,4.0
2024-02-27 13:37:04.952202,1709037424.952202,-963.37890625,-243.1640625,-942.87109375,-56.15234375,1.0,-1.0,-1.0,1.0,3.m4v,4.0
2024-02-27 13:37:04.956107,1709037424.9561071,-814.94140625,-1000.0,-1000.0,-48.828125,1.0,-1.0,-1.0,1.0,3.m4v,4.0
2024-02-27 13:37:04.960012,1709037424.9600124,-206.0546875,-939.94140625,-893.5546875,-24.90234375,1.0,-1.0,-1.0,1.0,3.m4v,4.0
2024-02-27 13:37:04.963928,1709037424.9639275,410.15625,-1000.0,-305.6640625,-34.1796875,1.0,-1.0,-1.0,1.0,3.m4v,4.0
2024-02-27 13:37:04.967833,1709037424.9678328,233.3984375,-1000.0,-394.53125,-51.26953125,1.0,-1.0,-1.0,1.0,3.m4v,4.0
2024-02-27 13:37:04.971738,1709037424.971738,-376.46484375,-998.53515625,-988.28125,-59.5703125,1.0,-1.0,-1.0,1.0,3.m4v,4.0
2024-02-27 13:37:04.975643,1709037424.9756432,-327.1484375,-941.40625,-981.4453125,-53.22265625,1.0,-1.0,-1.0,1.0,3.m4v,4.0
2024-02-27 13:37:04.979548,1709037424.9795485,-248.046875,-1000.0,-1000.0,-47.36328125,1.0,-1.0,-1.0,1.0,3.m4v,4.0
2024-02-27 13:37:04.983454,1709037424.9834535,457.51953125,-176.7578125,-250.9765625,-32.2265625,1.0,-1.0,-1.0,1.0,3.m4v,4.0
2024-02-27 13:37:04.987359,1709037424.9873588,878.90625,999.51171875,261.71875,-27.34375,1.0,-1.0,-1.0,1.0,3.m4v,4.0
2024-02-27 13:37:04.991264,1709037424.991264,-184.5703125,947.75390625,-672.36328125,-56.640625,1.0,-1.0,-1.0,1.0,3.m4v,4.0
2024-02-27 13:37:04.995169,1709037424.995169,-550.78125,946.77734375,-1000.0,-55.6640625,1.0,-1.0,-1.0,1.0,3.m4v,4.0
2024-02-27 13:37:04.999074,1709037424.9990742,-121.09375,972.16796875,-883.30078125,-45.8984375,1.0,-1.0,-1.0,1.0,3.m4v,4.0
2024-02-27 13:37:05.002979,1709037425.0029793,667.96875,913.57421875,82.51953125,-29.78515625,1.0,-1.0,-1.0,1.0,3.m4v,4.0
2024-02-27 13:37:05.006885,1709037425.0068846,585.9375,999.51171875,193.84765625,-31.73828125,1.0,-1.0,-1.0,1.0,3.m4v,4.0
2024-02-27 13:37:05.010799,1709037425.0107994,-710.9375,121.09375,-825.1953125,-62.5,1.0,-1.0,-1.0,1.0,3.m4v,4.0
2024-02-27 13:37:05.014704,1709037425.0147045,-863.28125,-1000.0,-1000.0,-53.22265625,1.0,-1.0,-1.0,1.0,3.m4v,4.0
2024-02-27 13:37:05.018610,1709037425.0186098,-373.046875,-975.09765625,-1000.0,-40.52734375,1.0,-1.0,-1.0,1.0,3.m4v,4.0
2024-02-27 13:37:05.022515,1709037425.0225148,148.4375,-978.02734375,-637.20703125,-36.62109375,1.0,-1.0,-1.0,1.0,3.m4v,4.0
2024-02-27 13:37:05.026420,1709037425.02642,395.01953125,-1000.0,-311.5234375,-25.390625,1.0,-1.0,-1.0,1.0,3.m4v,4.0
2024-02-27 13:37:05.030325,1709037425.0303252,-131.34765625,-1000.0,-805.17578125,-41.50390625,1.0,-1.0,-1.0,1.0,3.m4v,4.0
2024-02-27 13:37:05.479521,1709037425.4795213,-36.62109375,971.19140625,-859.375,-30.76171875,1.0,-1.0,-1.0,1.0,3.m4v,4.0
2024-02-27 13:37:05.483426,1709037425.4834263,642.08984375,906.73828125,58.59375,-16.11328125,1.0,-1.0,-1.0,1.0,3.m4v,4.0
2024-02-27 13:37:05.487331,1709037425.4873314,562.01171875,999.51171875,130.859375,-20.5078125,1.0,-1.0,-1.0,1.0,3.m4v,4.0
2024-02-27 13:37:05.491237,1709037425.4912367,-602.05078125,201.171875,-755.37109375,-51.7578125,1.0,-1.0,-1.0,1.0,3.m4v,4.0
2024-02-27 13:37:05.495142,1709037425.4951415,-948.2421875,-1000.0,-1000.0,-60.05859375,1.0,-1.0,-1.0,1.0,3.m4v,4.0
2024-02-27 13:37:05.499047,1709037425.499047,-346.6796875,-1000.0,-851.07421875,-46.38671875,1.0,-1.0,-1.0,1.0,3.m4v,4.0
2024-02-27 13:37:05.502952,1709037425.502952,622.0703125,-130.859375,10.25390625,-25.87890625,1.0,-1.0,-1.0,1.0,3.m4v,4.0
2024-02-27 13:37:05.506857,1709037425.5068572,793.9453125,999.51171875,246.58203125,-21.484375,1.0,-1.0,-1.0,1.0,3.m4v,4.0
2024-02-27 13:37:05.510762,1709037425.5107625,-229.00390625,804.6875,-643.06640625,-43.45703125,1.0,-1.0,-1.0,1.0,3.m4v,4.0
2024-02-27 13:37:05.514668,1709037425.5146675,-923.33984375,-564.453125,-1000.0,-53.7109375,1.0,-1.0,-1.0,1.0,3.m4v,4.0
2024-02-27 13:37:05.518573,1709037425.5185728,-679.19921875,-1000.0,-994.140625,-61.5234375,1.0,-1.0,-1.0,1.0,3.m4v,4.0
2024-02-27 13:37:05.522478,1709037425.522478,221.19140625,-935.546875,-449.70703125,-33.203125,1.0,-1.0,-1.0,1.0,3.m4v,4.0
2024-02-27 13:37:05.526396,1709037425.526396,652.34375,-1000.0,131.34765625,-13.671875,1.0,-1.0,-1.0,1.0,3.m4v,4.0
2024-02-27 13:37:05.530301,1709037425.530301,-10.25390625,-996.58203125,-365.234375,-41.9921875,1.0,-1.0,-1.0,1.0,3.m4v,4.0
2024-02-27 13:37:05.534206,1709037425.5342064,-557.12890625,-943.84765625,-967.7734375,-56.15234375,1.0,-1.0,-1.0,1.0,3.m4v,4.0
2024-02-27 13:37:05.538111,1709037425.5381114,-346.19140625,-1000.0,-947.75390625,-44.921875,1.0,-1.0,-1.0,1.0,3.m4v,4.0
2024-02-27 13:37:05.542017,1709037425.5420165,462.40234375,-150.390625,89.84375,-12.6953125,1.0,-1.0,-1.0,1.0,3.m4v,4.0
2024-02-27 13:37:05.545922,1709037425.5459218,999.51171875,999.51171875,999.51171875,9.27734375,1.0,-1.0,-1.0,1.0,3.m4v,4.0
2024-02-27 13:37:05.549827,1709037425.5498269,296.875,944.3359375,505.859375,-23.92578125,1.0,-1.0,-1.0,1.0,3.m4v,4.0
2024-02-27 13:37:05.553732,1709037425.5537322,-740.72265625,947.75390625,-578.61328125,-54.6875,1.0,-1.0,-1.0,1.0,3.m4v,4.0
2024-02-27 13:37:05.557637,1709037425.5576372,-543.45703125,975.5859375,-711.9140625,-48.828125,1.0,-1.0,-1.0,1.0,3.m4v,4.0
2024-02-27 13:37:05.561543,1709037425.5615425,271.97265625,968.26171875,22.94921875,-33.69140625,1.0,-1.0,-1.0,1.0,3.m4v,4.0
2024-02-27 13:37:05.565448,1709037425.5654476,729.00390625,910.15625,708.49609375,-23.92578125,1.0,-1.0,-1.0,1.0,3.m4v,4.0
2024-02-27 13:37:05.569353,1709037425.5693526,220.703125,999.51171875,416.9921875,-39.55078125,1.0,-1.0,-1.0,1.0,3.m4v,4.0
2024-02-27 13:37:05.573270,1709037425.57327,-713.37890625,153.80859375,-545.8984375,-62.98828125,1.0,-1.0,-1.0,1.0,3.m4v,4.0
2024-02-27 13:37:05.577175,1709037425.5771754,-947.265625,-1000.0,-919.43359375,-63.96484375,1.0,-1.0,-1.0,1.0,3.m4v,4.0
2024-02-27 13:37:05.581080,1709037425.5810804,-15.625,-979.00390625,-139.16015625,-37.59765625,1.0,-1.0,-1.0,1.0,3.m4v,4.0
2024-02-27 13:37:05.584986,1709037425.5849855,779.296875,-975.5859375,740.72265625,-19.53125,1.0,-1.0,-1.0,1.0,3.m4v,4.0
2024-02-27 13:37:05.588891,1709037425.5888908,189.94140625,-1000.0,447.265625,-40.0390625,1.0,-1.0,-1.0,1.0,3.m4v,4.0
2024-02-27 13:37:05.592796,1709037425.5927958,-381.34765625,-927.24609375,-121.58203125,-49.8046875,1.0,-1.0,-1.0,1.0,3.m4v,4.0
2024-02-27 13:37:05.596701,1709037425.5967011,-346.19140625,-1000.0,-174.8046875,-45.41015625,1.0,-1.0,-1.0,1.0,3.m4v,4.0
2024-02-27 13:37:05.600606,1709037425.6006062,97.16796875,-566.40625,294.43359375,-32.71484375,1.0,-1.0,-1.0,1.0,3.m4v,4.0
2024-02-27 13:37:05.604511,1709037425.6045115,923.828125,867.67578125,984.86328125,-10.7421875,1.0,-1.0,-1.0,1.0,3.m4v,4.0
2024-02-27 13:37:05.608417,1709037425.6084166,581.54296875,999.51171875,822.75390625,-22.4609375,1.0,-1.0,-1.0,1.0,3.m4v,4.0
2024-02-27 13:37:05.612322,1709037425.6123216,-420.41015625,915.52734375,2.44140625,-50.29296875,1.0,-1.0,-1.0,1.0,3.m4v,4.0
2024-02-27 13:37:05.616227,1709037425.616227,-674.8046875,984.86328125,-479.98046875,-62.01171875,1.0,-1.0,-1.0,1.0,3.m4v,4.0
2024-02-27 13:37:05.620144,1709037425.6201437,-51.7578125,971.19140625,23.92578125,-43.45703125,1.0,-1.0,-1.0,1.0,3.m4v,4.0
2024-02-27 13:37:05.624049,1709037425.6240487,647.4609375,906.25,821.77734375,-28.3203125,1.0,-1.0,-1.0,1.0,3.m4v,4.0
2024-02-27 13:37:05.627954,1709037425.627954,539.55078125,999.51171875,968.26171875,-34.66796875,1.0,-1.0,-1.0,1.0,3.m4v,4.0
2024-02-27 13:37:05.631859,1709037425.631859,-430.6640625,235.83984375,205.078125,-59.5703125,1.0,-1.0,-1.0,1.0,3.m4v,4.0
2024-02-27 13:37:05.635764,1709037425.635764,-1000.0,-1000.0,-396.97265625,-74.70703125,1.0,-1.0,-1.0,1.0,3.m4v,4.0
2024-02-27 13:37:05.639669,1709037425.6396694,-101.5625,-994.140625,362.79296875,-40.52734375,1.0,-1.0,-1.0,1.0,3.m4v,4.0
2024-02-27 13:37:05.643574,1709037425.6435745,883.7890625,212.890625,999.51171875,-9.27734375,1.0,-1.0,-1.0,1.0,3.m4v,4.0
2024-02-27 13:37:05.647480,1709037425.6474798,625.48828125,999.51171875,904.296875,-11.71875,1.0,-1.0,-1.0,1.0,3.m4v,4.0
2024-02-27 13:37:05.651385,1709037425.6513848,-337.40234375,443.359375,310.546875,-55.17578125,1.0,-1.0,-1.0,1.0,3.m4v,4.0
2024-02-27 13:37:05.655290,1709037425.65529,-995.60546875,-844.23828125,-426.26953125,-75.68359375,1.0,-1.0,-1.0,1.0,3.m4v,4.0
2024-02-27 13:37:05.659195,1709037425.6591952,-443.359375,-1000.0,-41.9921875,-53.7109375,1.0,-1.0,-1.0,1.0,3.m4v,4.0
2024-02-27 13:37:05.663100,1709037425.6631002,605.95703125,-602.5390625,833.0078125,-29.78515625,1.0,-1.0,-1.0,1.0,3.m4v,4.0
2024-02-27 13:37:05.667017,1709037425.6670172,815.4296875,899.4140625,987.3046875,-35.64453125,1.0,-1.0,-1.0,1.0,3.m4v,4.0
2024-02-27 13:37:05.670923,1709037425.6709225,-115.234375,449.70703125,374.51171875,-62.98828125,1.0,-1.0,-1.0,1.0,3.m4v,4.0
2024-02-27 13:37:05.674828,1709037425.6748276,-1000.0,-1000.0,-369.62890625,-68.359375,1.0,-1.0,-1.0,1.0,3.m4v,4.0
2024-02-27 13:37:05.678733,1709037425.6787326,-642.578125,-981.93359375,-260.25390625,-61.03515625,1.0,-1.0,-1.0,1.0,3.m4v,4.0
2024-02-27 13:37:05.682638,1709037425.682638,326.66015625,-1000.0,533.69140625,-40.0390625,1.0,-1.0,-1.0,1.0,3.m4v,4.0
2024-02-27 13:37:05.686543,1709037425.686543,934.08203125,15.13671875,999.51171875,-11.71875,1.0,-1.0,-1.0,1.0,3.m4v,4.0
2024-02-27 13:37:05.690448,1709037425.6904483,582.51953125,999.51171875,837.890625,-20.99609375,1.0,-1.0,-1.0,1.0,3.m4v,4.0
2024-02-27 13:37:05.694353,1709037425.694353,-574.70703125,136.23046875,-75.68359375,-54.19921875,1.0,-1.0,-1.0,1.0,3.m4v,4.0
2024-02-27 13:37:05.698258,1709037425.6982584,-1000.0,-1000.0,-600.09765625,-58.59375,1.0,-1.0,-1.0,1.0,3.m4v,4.0
2024-02-27 13:37:05.702164,1709037425.7021637,-96.19140625,-982.91015625,91.796875,-30.76171875,1.0,-1.0,-1.0,1.0,3.m4v,4.0
2024-02-27 13:37:05.706069,1709037425.7060688,525.87890625,-973.14453125,583.49609375,-31.25,1.0,-1.0,-1.0,1.0,3.m4v,4.0
2024-02-27 13:37:05.709974,1709037425.709974,-66.89453125,-1000.0,42.96875,-46.875,1.0,-1.0,-1.0,1.0,3.m4v,4.0
2024-02-27 13:37:05.713889,1709037425.7138894,-647.4609375,-926.26953125,-714.84375,-52.734375,1.0,-1.0,-1.0,1.0,3.m4v,4.0
2024-02-27 13:37:05.717794,1709037425.7177944,-567.3828125,-1000.0,-904.78515625,-44.921875,1.0,-1.0,-1.0,1.0,3.m4v,4.0
2024-02-27 13:37:05.721699,1709037425.7216997,284.1796875,-502.44140625,-20.99609375,-27.83203125,1.0,-1.0,-1.0,1.0,3.m4v,4.0
2024-02-27 13:37:05.725605,1709037425.7256048,999.51171875,915.52734375,927.24609375,-11.23046875,1.0,-1.0,-1.0,1.0,3.m4v,4.0
2024-02-27 13:37:05.729510,1709037425.7295098,312.5,999.51171875,296.875,-30.2734375,1.0,-1.0,-1.0,1.0,3.m4v,4.0
2024-02-27 13:37:05.733415,1709037425.7334151,-481.93359375,919.921875,-447.75390625,-50.29296875,1.0,-1.0,-1.0,1.0,3.m4v,4.0
2024-02-27 13:37:05.737320,1709037425.7373202,-263.18359375,988.28125,-387.6953125,-45.8984375,1.0,-1.0,-1.0,1.0,3.m4v,4.0
2024-02-27 13:37:05.741225,1709037425.7412252,173.828125,903.3203125,87.890625,-30.76171875,1.0,-1.0,-1.0,1.0,3.m4v,4.0
2024-02-27 13:37:05.745131,1709037425.7451303,612.3046875,999.51171875,644.53125,-16.11328125,1.0,-1.0,-1.0,1.0,3.m4v,4.0
2024-02-27 13:37:05.749036,1709037425.7490356,-73.73046875,259.27734375,184.08203125,-37.109375,1.0,-1.0,-1.0,1.0,3.m4v,4.0
2024-02-27 13:37:05.752941,1709037425.752941,-1000.0,-1000.0,-736.328125,-52.734375,1.0,-1.0,-1.0,1.0,3.m4v,4.0
2024-02-27 13:37:05.756846,1709037425.756846,-819.82421875,-995.60546875,-1000.0,-56.640625,1.0,-1.0,-1.0,1.0,3.m4v,4.0
2024-02-27 13:37:05.760761,1709037425.7607603,2.44140625,-967.28515625,-510.7421875,-31.25,1.0,-1.0,-1.0,1.0,3.m4v,4.0
2024-02-27 13:37:05.764666,1709037425.7646656,687.01171875,-1000.0,306.640625,-4.39453125,1.0,-1.0,-1.0,1.0,3.m4v,4.0
2024-02-27 13:37:05.768571,1709037425.768571,386.71875,-1000.0,237.79296875,-16.11328125,1.0,-1.0,-1.0,1.0,3.m4v,4.0
2024-02-27 13:37:05.772476,1709037425.772476,-480.95703125,-938.4765625,-610.3515625,-32.71484375,1.0,-1.0,-1.0,1.0,3.m4v,4.0
2024-02-27 13:37:05.776381,1709037425.7763813,-677.734375,-1000.0,-1000.0,-42.96875,1.0,-1.0,-1.0,1.0,3.m4v,4.0
2024-02-27 13:37:05.780286,1709037425.7802863,290.52734375,-194.3359375,-144.04296875,-24.90234375,1.0,-1.0,-1.0,1.0,3.m4v,4.0
2024-02-27 13:37:05.784192,1709037425.7841916,999.51171875,999.51171875,999.51171875,3.90625,1.0,-1.0,-1.0,1.0,3.m4v,4.0
2024-02-27 13:37:05.788097,1709037425.788097,512.6953125,975.5859375,697.265625,-11.23046875,1.0,-1.0,-1.0,1.0,3.m4v,4.0
2024-02-27 13:37:05.792002,1709037425.7920015,-489.2578125,888.671875,-352.05078125,-35.15625,1.0,-1.0,-1.0,1.0,3.m4v,4.0
2024-02-27 13:37:05.795907,1709037425.795907,-1000.0,-419.43359375,-1000.0,-46.875,1.0,-1.0,-1.0,1.0,3.m4v,4.0
2024-02-27 13:37:05.799812,1709037425.799812,-510.25390625,-1000.0,-688.96484375,-24.4140625,1.0,-1.0,-1.0,1.0,3.m4v,4.0
2024-02-27 13:37:05.803717,1709037425.8037174,529.296875,-935.546875,215.33203125,0.48828125,1.0,-1.0,-1.0,1.0,3.m4v,4.0
2024-02-27 13:37:05.807631,1709037425.8076313,483.88671875,-1000.0,384.27734375,-13.671875,1.0,-1.0,-1.0,1.0,3.m4v,4.0
2024-02-27 13:37:05.811536,1709037425.8115363,-298.33984375,-998.53515625,-331.0546875,-37.109375,1.0,-1.0,-1.0,1.0,3.m4v,4.0
2024-02-27 13:37:05.815442,1709037425.8154416,-522.4609375,-941.40625,-736.81640625,-46.38671875,1.0,-1.0,-1.0,1.0,3.m4v,4.0
2024-02-27 13:37:05.819347,1709037425.819347,-84.47265625,-1000.0,-359.375,-34.66796875,1.0,-1.0,-1.0,1.0,3.m4v,4.0
2024-02-27 13:37:05.823252,1709037425.8232515,603.02734375,-179.19921875,446.2890625,-14.16015625,1.0,-1.0,-1.0,1.0,3.m4v,4.0
2024-02-27 13:37:05.827157,1709037425.827157,999.51171875,999.51171875,999.51171875,-7.8125,1.0,-1.0,-1.0,1.0,3.m4v,4.0
2024-02-27 13:37:05.831062,1709037425.831062,265.625,948.2421875,537.59765625,-31.73828125,1.0,-1.0,-1.0,1.0,3.m4v,4.0
2024-02-27 13:37:05.834967,1709037425.8349674,-801.7578125,945.80078125,-546.875,-51.26953125,1.0,-1.0,-1.0,1.0,3.m4v,4.0
2024-02-27 13:37:05.838872,1709037425.8388724,-413.0859375,980.95703125,-448.73046875,-43.45703125,1.0,-1.0,-1.0,1.0,3.m4v,4.0
2024-02-27 13:37:05.842777,1709037425.8427775,638.18359375,946.2890625,590.8203125,-22.94921875,1.0,-1.0,-1.0,1.0,3.m4v,4.0
2024-02-27 13:37:05.846683,1709037425.8466828,656.25,949.21875,905.2734375,-16.11328125,1.0,-1.0,-1.0,1.0,3.m4v,4.0
2024-02-27 13:37:05.850588,1709037425.8505878,-292.96875,999.51171875,33.69140625,-42.48046875,1.0,-1.0,-1.0,1.0,3.m4v,4.0
2024-02-27 13:37:05.854501,1709037425.8545012,-942.3828125,-170.41015625,-838.8671875,-64.453125,1.0,-1.0,-1.0,1.0,3.m4v,4.0
2024-02-27 13:37:05.858407,1709037425.8584063,-839.84375,-1000.0,-945.80078125,-56.15234375,1.0,-1.0,-1.0,1.0,3.m4v,4.0
2024-02-27 13:37:05.862312,1709037425.8623116,203.61328125,-950.1953125,-109.86328125,-29.296875,1.0,-1.0,-1.0,1.0,3.m4v,4.0
2024-02-27 13:37:05.866217,1709037425.866217,743.65234375,-974.609375,561.03515625,-22.4609375,1.0,-1.0,-1.0,1.0,3.m4v,4.0
2024-02-27 13:37:05.870122,1709037425.870122,-131.8359375,-978.02734375,-134.765625,-33.203125,1.0,-1.0,-1.0,1.0,3.m4v,4.0
2024-02-27 13:37:05.874027,1709037425.874027,-688.4765625,-1000.0,-782.71484375,-51.7578125,1.0,-1.0,-1.0,1.0,3.m4v,4.0
2024-02-27 13:37:05.877932,1709037425.8779323,80.56640625,120.1171875,-473.14453125,-39.55078125,1.0,-1.0,-1.0,1.0,3.m4v,4.0
2024-02-27 13:37:05.881837,1709037425.8818374,647.4609375,999.51171875,82.03125,-20.01953125,1.0,-1.0,-1.0,1.0,3.m4v,4.0
2024-02-27 13:37:05.885743,1709037425.885743,502.44140625,874.0234375,432.12890625,-22.94921875,1.0,-1.0,-1.0,1.0,3.m4v,4.0
2024-02-27 13:37:05.889648,1709037425.8896475,-206.54296875,999.51171875,-303.7109375,-51.7578125,1.0,-1.0,-1.0,1.0,3.m4v,4.0
2024-02-27 13:37:05.893553,1709037425.8935528,-916.015625,62.98828125,-1000.0,-66.40625,1.0,-1.0,-1.0,1.0,3.m4v,4.0
2024-02-27 13:37:05.897458,1709037425.897458,-854.4921875,-1000.0,-1000.0,-61.5234375,1.0,-1.0,-1.0,1.0,3.m4v,4.0
2024-02-27 13:37:05.901371,1709037425.9013712,-166.015625,-731.93359375,-746.09375,-49.8046875,1.0,-1.0,-1.0,1.0,3.m4v,4.0
2024-02-27 13:37:05.905277,1709037425.9052763,770.5078125,658.69140625,-213.8671875,-26.3671875,1.0,-1.0,-1.0,1.0,3.m4v,4.0
2024-02-27 13:37:05.909182,1709037425.9091816,186.03515625,999.51171875,-693.359375,-41.015625,1.0,-1.0,-1.0,1.0,3.m4v,4.0
2024-02-27 13:37:05.913087,1709037425.913087,-495.60546875,906.73828125,-1000.0,-60.546875,1.0,-1.0,-1.0,1.0,3.m4v,4.0
2024-02-27 13:37:05.916992,1709037425.916992,-260.7421875,997.0703125,-1000.0,-53.7109375,1.0,-1.0,-1.0,1.0,3.m4v,4.0
2024-02-27 13:37:05.920897,1709037425.9208972,-91.30859375,897.94921875,-898.4375,-35.15625,1.0,-1.0,-1.0,1.0,3.m4v,4.0
2024-02-27 13:37:05.924802,1709037425.9248023,443.84765625,999.51171875,-409.66796875,-15.13671875,1.0,-1.0,-1.0,1.0,3.m4v,4.0
2024-02-27 13:37:05.928707,1709037425.9287074,-5.859375,546.38671875,-682.6171875,-21.97265625,1.0,-1.0,-1.0,1.0,3.m4v,4.0
2024-02-27 13:37:05.932613,1709037425.932613,-891.11328125,-884.765625,-1000.0,-56.15234375,1.0,-1.0,-1.0,1.0,3.m4v,4.0
2024-02-27 13:37:05.936518,1709037425.9365177,-632.32421875,-1000.0,-980.95703125,-72.265625,1.0,-1.0,-1.0,1.0,3.m4v,4.0
2024-02-27 13:37:05.940423,1709037425.940423,-236.81640625,-945.3125,-998.046875,-52.734375,1.0,-1.0,-1.0,1.0,3.m4v,4.0
2024-02-27 13:37:05.944328,1709037425.944328,-50.29296875,-1000.0,-1000.0,-37.59765625,1.0,-1.0,-1.0,1.0,3.m4v,4.0
2024-02-27 13:37:05.948246,1709037425.9482455,-12.6953125,-1000.0,-1000.0,-44.921875,1.0,-1.0,-1.0,1.0,3.m4v,4.0
2024-02-27 13:37:05.952151,1709037425.9521506,-93.75,-977.05078125,-995.60546875,-56.640625,1.0,-1.0,-1.0,1.0,3.m4v,4.0
2024-02-27 13:37:05.956056,1709037425.9560556,-176.7578125,-977.5390625,-988.28125,-52.734375,1.0,-1.0,-1.0,1.0,3.m4v,4.0
2024-02-27 13:37:05.959961,1709037425.959961,-222.16796875,-1000.0,-1000.0,-36.62109375,1.0,-1.0,-1.0,1.0,3.m4v,4.0
2024-02-27 13:37:05.963866,1709037425.963866,489.74609375,131.8359375,-675.78125,-19.53125,1.0,-1.0,-1.0,1.0,3.m4v,4.0
2024-02-27 13:37:05.967771,1709037425.9677713,824.21875,999.51171875,-425.29296875,-18.5546875,1.0,-1.0,-1.0,1.0,3.m4v,4.0
2024-02-27 13:37:05.971676,1709037425.9716763,-87.40234375,914.55078125,-861.328125,-27.34375,1.0,-1.0,-1.0,1.0,3.m4v,4.0
2024-02-27 13:37:05.975581,1709037425.9755814,-434.5703125,966.30859375,-1000.0,-50.29296875,1.0,-1.0,-1.0,1.0,3.m4v,4.0
2024-02-27 13:37:05.979487,1709037425.9794867,-229.98046875,971.19140625,-1000.0,-47.8515625,1.0,-1.0,-1.0,1.0,3.m4v,4.0
2024-02-27 13:37:05.983392,1709037425.9833918,174.8046875,970.21484375,-805.17578125,-16.11328125,1.0,-1.0,-1.0,1.0,3.m4v,4.0
2024-02-27 13:37:05.987297,1709037425.987297,360.3515625,969.7265625,-617.1875,-26.3671875,1.0,-1.0,-1.0,1.0,3.m4v,4.0
2024-02-27 13:37:05.991202,1709037425.991202,-117.1875,970.21484375,-955.56640625,-42.96875,1.0,-1.0,-1.0,1.0,3.m4v,4.0
2024-02-27 13:37:05.995119,1709037425.9951189,-234.375,970.21484375,-996.58203125,-42.96875,1.0,-1.0,-1.0,1.0,3.m4v,4.0
2024-02-27 13:37:05.999024,1709037425.999024,-194.3359375,970.21484375,-1000.0,-40.0390625,1.0,-1.0,-1.0,1.0,3.m4v,4.0
2024-02-27 13:37:06.002929,1709037426.002929,217.7734375,970.21484375,-575.1953125,-25.87890625,1.0,-1.0,-1.0,1.0,3.m4v,4.0
2024-02-27 13:37:06.006834,1709037426.0068345,622.55859375,969.7265625,-21.97265625,-24.90234375,1.0,-1.0,-1.0,1.0,3.m4v,4.0
2024-02-27 13:37:06.010739,1709037426.010739,37.59765625,970.21484375,-468.75,-40.0390625,1.0,-1.0,-1.0,1.0,3.m4v,4.0
2024-02-27 13:37:06.014645,1709037426.0146446,-208.984375,969.7265625,-660.64453125,-43.45703125,1.0,-1.0,-1.0,1.0,3.m4v,4.0
2024-02-27 13:37:06.018550,1709037426.0185497,-7.32421875,969.7265625,-328.125,-39.0625,1.0,-1.0,-1.0,1.0,3.m4v,4.0
2024-02-27 13:37:06.022455,1709037426.022455,480.46875,969.7265625,430.6640625,-18.5546875,1.0,-1.0,-1.0,1.0,3.m4v,4.0
2024-02-27 13:37:06.026360,1709037426.02636,730.46875,969.7265625,991.69921875,-20.5078125,1.0,-1.0,-1.0,1.0,3.m4v,4.0
2024-02-27 13:37:06.030265,1709037426.030265,-73.73046875,969.7265625,398.92578125,-41.015625,1.0,-1.0,-1.0,1.0,3.m4v,4.0
2024-02-27 13:37:06.034170,1709037426.0341704,-600.09765625,969.7265625,-277.34375,-38.0859375,1.0,-1.0,-1.0,1.0,3.m4v,4.0
2024-02-27 13:37:06.038075,1709037426.0380754,-281.25,970.21484375,-75.68359375,-33.69140625,1.0,-1.0,-1.0,1.0,3.m4v,4.0
2024-02-27 13:37:06.041991,1709037426.0419917,388.671875,972.16796875,680.6640625,-31.73828125,1.0,-1.0,-1.0,1.0,3.m4v,4.0
2024-02-27 13:37:06.045897,1709037426.0458963,492.67578125,905.2734375,999.51171875,-17.578125,1.0,-1.0,-1.0,1.0,3.m4v,4.0
2024-02-27 13:37:06.049802,1709037426.0498018,171.875,999.51171875,909.1796875,-22.94921875,1.0,-1.0,-1.0,1.0,3.m4v,4.0
2024-02-27 13:37:06.053707,1709037426.053707,-473.6328125,214.35546875,501.46484375,-41.9921875,1.0,-1.0,-1.0,1.0,3.m4v,4.0
2024-02-27 13:37:06.057612,1709037426.057612,-837.40234375,-1000.0,460.9375,-41.9921875,1.0,-1.0,-1.0,1.0,3.m4v,4.0
2024-02-27 13:37:06.061517,1709037426.0615172,-26.85546875,-988.28125,936.5234375,-22.4609375,1.0,-1.0,-1.0,1.0,3.m4v,4.0
2024-02-27 13:37:06.463843,1709037426.463843,189.94140625,-1000.0,985.83984375,-32.71484375,1.0,-1.0,-1.0,1.0,3.m4v,4.0
2024-02-27 13:37:06.467749,1709037426.4677486,70.80078125,-1000.0,979.98046875,-32.2265625,1.0,-1.0,-1.0,1.0,3.m4v,4.0
2024-02-27 13:37:06.471654,1709037426.4716537,-63.96484375,-1000.0,857.91015625,-48.33984375,1.0,-1.0,-1.0,1.0,3.m4v,4.0
2024-02-27 13:37:06.475559,1709037426.475559,-453.125,-933.59375,335.9375,-53.22265625,1.0,-1.0,-1.0,1.0,3.m4v,4.0
2024-02-27 13:37:06.479464,1709037426.479464,-386.23046875,-1000.0,473.6328125,-41.015625,1.0,-1.0,-1.0,1.0,3.m4v,4.0
2024-02-27 13:37:06.483369,1709037426.483369,448.73046875,-285.64453125,943.359375,-32.2265625,1.0,-1.0,-1.0,1.0,3.m4v,4.0
2024-02-27 13:37:06.487274,1709037426.4872744,819.82421875,999.51171875,999.51171875,-35.64453125,1.0,-1.0,-1.0,1.0,3.m4v,4.0
2024-02-27 13:37:06.491179,1709037426.4911797,139.16015625,964.35546875,819.3359375,-46.875,1.0,-1.0,-1.0,1.0,3.m4v,4.0
2024-02-27 13:37:06.495085,1709037426.4950848,-456.54296875,937.01171875,303.22265625,-48.828125,1.0,-1.0,-1.0,1.0,3.m4v,4.0
2024-02-27 13:37:06.498990,1709037426.4989898,-192.3828125,978.515625,502.44140625,-43.9453125,1.0,-1.0,-1.0,1.0,3.m4v,4.0
2024-02-27 13:37:06.502895,1709037426.5028949,379.39453125,970.21484375,962.890625,-20.5078125,1.0,-1.0,-1.0,1.0,3.m4v,4.0
2024-02-27 13:37:06.506800,1709037426.5068002,298.828125,907.2265625,986.328125,-25.390625,1.0,-1.0,-1.0,1.0,3.m4v,4.0
2024-02-27 13:37:06.510715,1709037426.5107152,8.7890625,999.51171875,834.47265625,-36.1328125,1.0,-1.0,-1.0,1.0,3.m4v,4.0
2024-02-27 13:37:06.514620,1709037426.5146203,-589.35546875,185.05859375,189.94140625,-49.31640625,1.0,-1.0,-1.0,1.0,3.m4v,4.0
2024-02-27 13:37:06.518525,1709037426.5185254,-987.79296875,-1000.0,-154.78515625,-60.05859375,1.0,-1.0,-1.0,1.0,3.m4v,4.0
2024-02-27 13:37:06.522431,1709037426.522431,-65.4296875,-983.3984375,493.65234375,-28.80859375,1.0,-1.0,-1.0,1.0,3.m4v,4.0
2024-02-27 13:37:06.526336,1709037426.5263357,532.71484375,-973.14453125,982.91015625,-5.859375,1.0,-1.0,-1.0,1.0,3.m4v,4.0
2024-02-27 13:37:06.530241,1709037426.530241,20.99609375,-1000.0,637.6953125,-25.87890625,1.0,-1.0,-1.0,1.0,3.m4v,4.0
2024-02-27 13:37:06.534146,1709037426.534146,-474.609375,-1000.0,52.734375,-50.29296875,1.0,-1.0,-1.0,1.0,3.m4v,4.0
2024-02-27 13:37:06.538051,1709037426.5380514,-781.73828125,-1000.0,-495.1171875,-59.08203125,1.0,-1.0,-1.0,1.0,3.m4v,4.0
2024-02-27 13:37:06.541956,1709037426.5419564,-253.90625,-1000.0,-217.7734375,-38.57421875,1.0,-1.0,-1.0,1.0,3.m4v,4.0
2024-02-27 13:37:06.545861,1709037426.5458615,435.546875,-1000.0,358.3984375,-16.6015625,1.0,-1.0,-1.0,1.0,3.m4v,4.0
2024-02-27 13:37:06.549767,1709037426.5497668,-35.15625,-1000.0,-134.765625,-42.48046875,1.0,-1.0,-1.0,1.0,3.m4v,4.0
2024-02-27 13:37:06.553672,1709037426.5536718,-626.953125,-926.26953125,-865.234375,-54.6875,1.0,-1.0,-1.0,1.0,3.m4v,4.0
2024-02-27 13:37:06.557591,1709037426.5575912,-600.09765625,-1000.0,-1000.0,-41.015625,1.0,-1.0,-1.0,1.0,3.m4v,4.0
2024-02-27 13:37:06.561496,1709037426.5614965,58.10546875,-510.25390625,-617.67578125,-30.76171875,1.0,-1.0,-1.0,1.0,3.m4v,4.0
2024-02-27 13:37:06.565402,1709037426.5654016,968.75,911.1328125,197.75390625,-16.11328125,1.0,-1.0,-1.0,1.0,3.m4v,4.0
2024-02-27 13:37:06.569307,1709037426.5693066,245.60546875,999.51171875,-385.25390625,-22.94921875,1.0,-1.0,-1.0,1.0,3.m4v,4.0
2024-02-27 13:37:06.573212,1709037426.573212,-570.3125,919.921875,-1000.0,-47.8515625,1.0,-1.0,-1.0,1.0,3.m4v,4.0
2024-02-27 13:37:06.577117,1709037426.577117,-230.95703125,983.3984375,-983.88671875,-50.78125,1.0,-1.0,-1.0,1.0,3.m4v,4.0
2024-02-27 13:37:06.581022,1709037426.5810225,107.421875,909.66796875,-647.4609375,-30.76171875,1.0,-1.0,-1.0,1.0,3.m4v,4.0
2024-02-27 13:37:06.584927,1709037426.584927,222.65625,999.51171875,-516.11328125,-27.34375,1.0,-1.0,-1.0,1.0,3.m4v,4.0
2024-02-27 13:37:06.588832,1709037426.5888324,-414.55078125,158.69140625,-908.69140625,-51.7578125,1.0,-1.0,-1.0,1.0,3.m4v,4.0
2024-02-27 13:37:06.592738,1709037426.5927377,-706.54296875,-1000.0,-1000.0,-63.96484375,1.0,-1.0,-1.0,1.0,3.m4v,4.0
2024-02-27 13:37:06.596643,1709037426.5966427,-298.828125,-979.98046875,-985.3515625,-55.6640625,1.0,-1.0,-1.0,1.0,3.m4v,4.0
2024-02-27 13:37:06.600548,1709037426.600548,-185.546875,-975.09765625,-1000.0,-34.66796875,1.0,-1.0,-1.0,1.0,3.m4v,4.0
2024-02-27 13:37:06.604461,1709037426.6044612,-12.6953125,-1000.0,-1000.0,-22.4609375,1.0,-1.0,-1.0,1.0,3.m4v,4.0
2024-02-27 13:37:06.608366,1709037426.6083665,95.21484375,-1000.0,-1000.0,-29.78515625,1.0,-1.0,-1.0,1.0,3.m4v,4.0
2024-02-27 13:37:06.612272,1709037426.6122715,-39.55078125,-998.046875,-1000.0,-46.875,1.0,-1.0,-1.0,1.0,3.m4v,4.0
2024-02-27 13:37:06.616177,1709037426.6161766,-136.23046875,-942.3828125,-982.421875,-53.7109375,1.0,-1.0,-1.0,1.0,3.m4v,4.0
2024-02-27 13:37:06.620082,1709037426.620082,-248.53515625,-1000.0,-1000.0,-37.109375,1.0,-1.0,-1.0,1.0,3.m4v,4.0
2024-02-27 13:37:06.623987,1709037426.623987,417.96875,-167.96875,-758.30078125,-18.5546875,1.0,-1.0,-1.0,1.0,3.m4v,4.0
2024-02-27 13:37:06.627892,1709037426.6278925,753.41796875,999.51171875,-645.01953125,-16.6015625,1.0,-1.0,-1.0,1.0,3.m4v,4.0
2024-02-27 13:37:06.631797,1709037426.6317973,-103.515625,946.77734375,-1000.0,-36.1328125,1.0,-1.0,-1.0,1.0,3.m4v,4.0
2024-02-27 13:37:06.635702,1709037426.6357024,-264.6484375,946.77734375,-1000.0,-48.33984375,1.0,-1.0,-1.0,1.0,3.m4v,4.0
2024-02-27 13:37:06.639608,1709037426.6396077,-129.8828125,975.5859375,-989.2578125,-48.33984375,1.0,-1.0,-1.0,1.0,3.m4v,4.0
2024-02-27 13:37:06.643513,1709037426.6435127,2.44140625,975.5859375,-1000.0,-36.1328125,1.0,-1.0,-1.0,1.0,3.m4v,4.0
2024-02-27 13:37:06.647418,1709037426.647418,64.94140625,901.85546875,-1000.0,-30.76171875,1.0,-1.0,-1.0,1.0,3.m4v,4.0
2024-02-27 13:37:06.651330,1709037426.6513305,3.90625,999.51171875,-1000.0,-44.921875,1.0,-1.0,-1.0,1.0,3.m4v,4.0
2024-02-27 13:37:06.655236,1709037426.6552355,-318.359375,283.69140625,-1000.0,-56.15234375,1.0,-1.0,-1.0,1.0,3.m4v,4.0
2024-02-27 13:37:06.659141,1709037426.6591406,-662.109375,-1000.0,-1000.0,-49.31640625,1.0,-1.0,-1.0,1.0,3.m4v,4.0
2024-02-27 13:37:06.663046,1709037426.663046,-296.38671875,-1000.0,-1000.0,-41.50390625,1.0,-1.0,-1.0,1.0,3.m4v,4.0
2024-02-27 13:37:06.666951,1709037426.666951,13.18359375,-965.33203125,-1000.0,-42.96875,1.0,-1.0,-1.0,1.0,3.m4v,4.0
2024-02-27 13:37:06.670856,1709037426.6708562,3.41796875,-1000.0,-1000.0,-46.875,1.0,-1.0,-1.0,1.0,3.m4v,4.0
2024-02-27 13:37:06.674761,1709037426.6747613,-145.01953125,-1000.0,-1000.0,-46.875,1.0,-1.0,-1.0,1.0,3.m4v,4.0
2024-02-27 13:37:06.678667,1709037426.6786666,-280.2734375,-1000.0,-1000.0,-39.55078125,1.0,-1.0,-1.0,1.0,3.m4v,4.0
2024-02-27 13:37:06.682572,1709037426.6825716,-117.67578125,-1000.0,-1000.0,-36.62109375,1.0,-1.0,-1.0,1.0,3.m4v,4.0
2024-02-27 13:37:06.686477,1709037426.6864767,13.671875,-1000.0,-1000.0,-30.76171875,1.0,-1.0,-1.0,1.0,3.m4v,4.0
2024-02-27 13:37:06.690382,1709037426.690382,-88.8671875,-1000.0,-1000.0,-42.48046875,1.0,-1.0,-1.0,1.0,3.m4v,4.0
2024-02-27 13:37:06.694287,1709037426.694287,-146.484375,-1000.0,-1000.0,-49.31640625,1.0,-1.0,-1.0,1.0,3.m4v,4.0
2024-02-27 13:37:06.698210,1709037426.6982098,-175.29296875,-1000.0,-1000.0,-43.9453125,1.0,-1.0,-1.0,1.0,3.m4v,4.0
2024-02-27 13:37:06.702115,1709037426.702115,-134.765625,-1000.0,-1000.0,-38.57421875,1.0,-1.0,-1.0,1.0,3.m4v,4.0
2024-02-27 13:37:06.706020,1709037426.70602,4.39453125,-996.58203125,-1000.0,-31.73828125,1.0,-1.0,-1.0,1.0,3.m4v,4.0
2024-02-27 13:37:06.709925,1709037426.7099252,-10.7421875,-943.84765625,-1000.0,-36.1328125,1.0,-1.0,-1.0,1.0,3.m4v,4.0
2024-02-27 13:37:06.713830,1709037426.7138305,-176.7578125,-1000.0,-1000.0,-43.9453125,1.0,-1.0,-1.0,1.0,3.m4v,4.0
2024-02-27 13:37:06.717736,1709037426.7177355,117.1875,-151.85546875,-1000.0,-40.0390625,1.0,-1.0,-1.0,1.0,3.m4v,4.0
2024-02-27 13:37:06.721641,1709037426.7216408,316.89453125,999.51171875,-1000.0,-31.25,1.0,-1.0,-1.0,1.0,3.m4v,4.0
2024-02-27 13:37:06.725546,1709037426.725546,62.01171875,944.82421875,-1000.0,-28.3203125,1.0,-1.0,-1.0,1.0,3.m4v,4.0
2024-02-27 13:37:06.729451,1709037426.729451,14.6484375,947.75390625,-1000.0,-41.50390625,1.0,-1.0,-1.0,1.0,3.m4v,4.0
2024-02-27 13:37:06.733356,1709037426.7333562,-62.98828125,975.09765625,-998.53515625,-52.734375,1.0,-1.0,-1.0,1.0,3.m4v,4.0
2024-02-27 13:37:06.737261,1709037426.7372613,-197.75390625,971.19140625,-1000.0,-57.12890625,1.0,-1.0,-1.0,1.0,3.m4v,4.0
2024-02-27 13:37:06.741167,1709037426.7411666,-134.27734375,967.28515625,-992.67578125,-50.29296875,1.0,-1.0,-1.0,1.0,3.m4v,4.0
2024-02-27 13:37:06.745084,1709037426.7450836,-12.6953125,913.0859375,-972.65625,-45.8984375,1.0,-1.0,-1.0,1.0,3.m4v,4.0
2024-02-27 13:37:06.748989,1709037426.7489886,-21.97265625,999.51171875,-997.55859375,-47.36328125,1.0,-1.0,-1.0,1.0,3.m4v,4.0
2024-02-27 13:37:06.752894,1709037426.752894,-367.1875,135.7421875,-1000.0,-49.31640625,1.0,-1.0,-1.0,1.0,3.m4v,4.0
2024-02-27 13:37:06.756799,1709037426.756799,-686.5234375,-1000.0,-998.53515625,-46.38671875,1.0,-1.0,-1.0,1.0,3.m4v,4.0
2024-02-27 13:37:06.760704,1709037426.760704,-333.984375,-978.02734375,-1000.0,-35.64453125,1.0,-1.0,-1.0,1.0,3.m4v,4.0
2024-02-27 13:37:06.764609,1709037426.764609,14.6484375,-976.5625,-1000.0,-28.3203125,1.0,-1.0,-1.0,1.0,3.m4v,4.0
2024-02-27 13:37:06.768514,1709037426.7685144,-11.71875,-1000.0,-1000.0,-33.69140625,1.0,-1.0,-1.0,1.0,3.m4v,4.0
2024-02-27 13:37:06.772420,1709037426.7724197,-194.3359375,-1000.0,-1000.0,-40.0390625,1.0,-1.0,-1.0,1.0,3.m4v,4.0
2024-02-27 13:37:06.776325,1709037426.7763247,-221.6796875,-1000.0,-1000.0,-44.43359375,1.0,-1.0,-1.0,1.0,3.m4v,4.0
2024-02-27 13:37:06.780230,1709037426.78023,-215.8203125,-1000.0,-1000.0,-37.109375,1.0,-1.0,-1.0,1.0,3.m4v,4.0
2024-02-27 13:37:06.784135,1709037426.784135,-81.54296875,-1000.0,-1000.0,-28.80859375,1.0,-1.0,-1.0,1.0,3.m4v,4.0
2024-02-27 13:37:06.788040,1709037426.7880402,54.6875,-1000.0,-1000.0,-34.1796875,1.0,-1.0,-1.0,1.0,3.m4v,4.0
2024-02-27 13:37:06.791957,1709037426.791957,-50.78125,-983.3984375,-999.51171875,-39.0625,1.0,-1.0,-1.0,1.0,3.m4v,4.0
2024-02-27 13:37:06.795862,1709037426.7958615,-180.17578125,-965.8203125,-998.046875,-40.52734375,1.0,-1.0,-1.0,1.0,3.m4v,4.0
2024-02-27 13:37:06.799767,1709037426.799767,-243.65234375,-1000.0,-1000.0,-42.96875,1.0,-1.0,-1.0,1.0,3.m4v,4.0
2024-02-27 13:37:06.803672,1709037426.803672,324.70703125,49.31640625,-929.19921875,-35.15625,1.0,-1.0,-1.0,1.0,3.m4v,4.0
2024-02-27 13:37:06.807577,1709037426.8075774,528.3203125,999.51171875,-934.08203125,-30.76171875,1.0,-1.0,-1.0,1.0,3.m4v,4.0
2024-02-27 13:37:06.811482,1709037426.8114824,65.4296875,921.38671875,-1000.0,-38.57421875,1.0,-1.0,-1.0,1.0,3.m4v,4.0
2024-02-27 13:37:06.815387,1709037426.8153875,-102.05078125,961.9140625,-997.0703125,-31.25,1.0,-1.0,-1.0,1.0,3.m4v,4.0
2024-02-27 13:37:06.819293,1709037426.8192928,-223.6328125,973.6328125,-1000.0,-34.66796875,1.0,-1.0,-1.0,1.0,3.m4v,4.0
2024-02-27 13:37:06.823198,1709037426.8231978,-36.1328125,963.37890625,-1000.0,-26.3671875,1.0,-1.0,-1.0,1.0,3.m4v,4.0
2024-02-27 13:37:06.827103,1709037426.8271031,72.265625,918.9453125,-1000.0,-21.97265625,1.0,-1.0,-1.0,1.0,3.m4v,4.0
2024-02-27 13:37:06.831008,1709037426.8310082,50.29296875,999.51171875,-1000.0,-37.109375,1.0,-1.0,-1.0,1.0,3.m4v,4.0
2024-02-27 13:37:06.834913,1709037426.8349135,-388.18359375,75.68359375,-1000.0,-52.734375,1.0,-1.0,-1.0,1.0,3.m4v,4.0
2024-02-27 13:37:06.838829,1709037426.838829,-677.24609375,-1000.0,-1000.0,-46.875,1.0,-1.0,-1.0,1.0,3.m4v,4.0
2024-02-27 13:37:06.842734,1709037426.842734,-190.91796875,-969.7265625,-1000.0,-28.80859375,1.0,-1.0,-1.0,1.0,3.m4v,4.0
2024-02-27 13:37:06.846639,1709037426.8466394,58.59375,-981.4453125,-1000.0,-28.80859375,1.0,-1.0,-1.0,1.0,3.m4v,4.0
2024-02-27 13:37:06.850544,1709037426.8505445,-8.30078125,-1000.0,-1000.0,-30.2734375,1.0,-1.0,-1.0,1.0,3.m4v,4.0
2024-02-27 13:37:06.854450,1709037426.8544495,-120.1171875,-937.98828125,-985.3515625,-37.109375,1.0,-1.0,-1.0,1.0,3.m4v,4.0
2024-02-27 13:37:06.858355,1709037426.8583548,-250.48828125,-1000.0,-1000.0,-41.9921875,1.0,-1.0,-1.0,1.0,3.m4v,4.0
2024-02-27 13:37:06.862260,1709037426.86226,318.359375,-212.40234375,-853.02734375,-26.85546875,1.0,-1.0,-1.0,1.0,3.m4v,4.0
2024-02-27 13:37:06.866165,1709037426.8661652,669.921875,999.51171875,-750.9765625,-18.5546875,1.0,-1.0,-1.0,1.0,3.m4v,4.0
2024-02-27 13:37:06.870070,1709037426.8700702,-1.46484375,952.63671875,-1000.0,-31.73828125,1.0,-1.0,-1.0,1.0,3.m4v,4.0
2024-02-27 13:37:06.873976,1709037426.8739755,-166.9921875,943.359375,-1000.0,-35.64453125,1.0,-1.0,-1.0,1.0,3.m4v,4.0
2024-02-27 13:37:06.877881,1709037426.8778806,-130.37109375,977.05078125,-991.69921875,-35.15625,1.0,-1.0,-1.0,1.0,3.m4v,4.0
2024-02-27 13:37:06.881786,1709037426.881786,-107.421875,968.75,-1000.0,-28.80859375,1.0,-1.0,-1.0,1.0,3.m4v,4.0
2024-02-27 13:37:06.885701,1709037426.885701,60.05859375,910.15625,-1000.0,-10.7421875,1.0,-1.0,-1.0,1.0,3.m4v,4.0
2024-02-27 13:37:06.889606,1709037426.889606,113.76953125,999.51171875,-1000.0,-32.2265625,1.0,-1.0,-1.0,1.0,3.m4v,4.0
2024-02-27 13:37:06.893511,1709037426.893511,-311.03515625,156.25,-1000.0,-58.10546875,1.0,-1.0,-1.0,1.0,3.m4v,4.0
2024-02-27 13:37:06.897416,1709037426.8974164,-648.4375,-1000.0,-1000.0,-44.921875,1.0,-1.0,-1.0,1.0,3.m4v,4.0
2024-02-27 13:37:06.901321,1709037426.9013214,-285.15625,-979.4921875,-1000.0,-26.85546875,1.0,-1.0,-1.0,1.0,3.m4v,4.0
2024-02-27 13:37:06.905227,1709037426.9052267,92.28515625,-975.5859375,-1000.0,-19.04296875,1.0,-1.0,-1.0,1.0,3.m4v,4.0
2024-02-27 13:37:06.909132,1709037426.9091318,112.3046875,-1000.0,-1000.0,-25.390625,1.0,-1.0,-1.0,1.0,3.m4v,4.0
2024-02-27 13:37:06.913037,1709037426.913037,-141.11328125,-1000.0,-1000.0,-38.0859375,1.0,-1.0,-1.0,1.0,3.m4v,4.0
2024-02-27 13:37:06.916942,1709037426.916942,-263.671875,-1000.0,-1000.0,-41.9921875,1.0,-1.0,-1.0,1.0,3.m4v,4.0
2024-02-27 13:37:06.920847,1709037426.9208472,-124.0234375,-1000.0,-1000.0,-40.52734375,1.0,-1.0,-1.0,1.0,3.m4v,4.0
2024-02-27 13:37:06.924752,1709037426.9247525,111.81640625,-1000.0,-996.58203125,-29.78515625,1.0,-1.0,-1.0,1.0,3.m4v,4.0
2024-02-27 13:37:06.928658,1709037426.9286575,97.65625,-1000.0,-999.51171875,-20.99609375,1.0,-1.0,-1.0,1.0,3.m4v,4.0
2024-02-27 13:37:06.932572,1709037426.932572,-37.59765625,-1000.0,-1000.0,-39.0625,1.0,-1.0,-1.0,1.0,3.m4v,4.0
2024-02-27 13:37:06.936477,1709037426.9364772,-134.765625,-1000.0,-997.55859375,-46.38671875,1.0,-1.0,-1.0,1.0,3.m4v,4.0
2024-02-27 13:37:06.940382,1709037426.9403822,-128.90625,-989.2578125,-1000.0,-32.71484375,1.0,-1.0,-1.0,1.0,3.m4v,4.0
2024-02-27 13:37:06.944287,1709037426.9442873,108.88671875,-955.56640625,-938.96484375,-36.62109375,1.0,-1.0,-1.0,1.0,3.m4v,4.0
2024-02-27 13:37:06.948193,1709037426.9481926,65.91796875,-1000.0,-938.4765625,-43.9453125,1.0,-1.0,-1.0,1.0,3.m4v,4.0
2024-02-27 13:37:06.952098,1709037426.9520977,260.7421875,-32.2265625,-1000.0,-35.64453125,1.0,-1.0,-1.0,1.0,3.m4v,4.0
2024-02-27 13:37:06.956003,1709037426.956003,377.9296875,999.51171875,-995.1171875,-31.73828125,1.0,-1.0,-1.0,1.0,3.m4v,4.0
2024-02-27 13:37:06.959908,1709037426.959908,-131.8359375,929.19921875,-1000.0,-38.57421875,1.0,-1.0,-1.0,1.0,3.m4v,4.0
2024-02-27 13:37:06.963813,1709037426.9638133,-11.23046875,956.54296875,-953.125,-44.43359375,1.0,-1.0,-1.0,1.0,3.m4v,4.0
2024-02-27 13:37:06.967718,1709037426.9677184,187.01171875,972.65625,-939.94140625,-40.0390625,1.0,-1.0,-1.0,1.0,3.m4v,4.0
2024-02-27 13:37:06.971623,1709037426.9716234,56.15234375,970.21484375,-1000.0,-29.78515625,1.0,-1.0,-1.0,1.0,3.m4v,4.0
2024-02-27 13:37:06.975529,1709037426.9755287,-79.58984375,970.21484375,-982.421875,-36.62109375,1.0,-1.0,-1.0,1.0,3.m4v,4.0
2024-02-27 13:37:06.979443,1709037426.979443,-204.58984375,982.91015625,-1000.0,-36.1328125,1.0,-1.0,-1.0,1.0,3.m4v,4.0
2024-02-27 13:37:06.983348,1709037426.9833484,202.1484375,910.15625,-690.4296875,-22.4609375,1.0,-1.0,-1.0,1.0,3.m4v,4.0
2024-02-27 13:37:06.987253,1709037426.9872534,313.96484375,999.51171875,-568.359375,-33.69140625,1.0,-1.0,-1.0,1.0,3.m4v,4.0
2024-02-27 13:37:06.991159,1709037426.9911587,-248.53515625,708.984375,-1000.0,-47.36328125,1.0,-1.0,-1.0,1.0,3.m4v,4.0
2024-02-27 13:37:06.995064,1709037426.9950638,-612.79296875,-692.3828125,-1000.0,-49.8046875,1.0,-1.0,-1.0,1.0,3.m4v,4.0
2024-02-27 13:37:06.998969,1709037426.9989688,-453.125,-1000.0,-1000.0,-35.15625,1.0,-1.0,-1.0,1.0,3.m4v,4.0
2024-02-27 13:37:07.002874,1709037427.002874,56.640625,-939.453125,-768.5546875,-19.53125,1.0,-1.0,-1.0,1.0,3.m4v,4.0
2024-02-27 13:37:07.006779,1709037427.0067792,25.390625,-1000.0,-779.296875,-30.2734375,1.0,-1.0,-1.0,1.0,3.m4v,4.0
2024-02-27 13:37:07.010684,1709037427.0106845,-201.171875,-1000.0,-1000.0,-38.0859375,1.0,-1.0,-1.0,1.0,3.m4v,4.0
2024-02-27 13:37:07.014590,1709037427.0145895,-168.45703125,-1000.0,-983.88671875,-40.0390625,1.0,-1.0,-1.0,1.0,3.m4v,4.0
2024-02-27 13:37:07.018495,1709037427.0184948,-229.00390625,-1000.0,-1000.0,-41.015625,1.0,-1.0,-1.0,1.0,3.m4v,4.0
2024-02-27 13:37:07.022400,1709037427.0224,-71.77734375,-1000.0,-907.71484375,-30.76171875,1.0,-1.0,-1.0,1.0,3.m4v,4.0
2024-02-27 13:37:07.026312,1709037427.0263124,211.9140625,-1000.0,-738.76953125,-32.2265625,1.0,-1.0,-1.0,1.0,3.m4v,4.0
2024-02-27 13:37:07.030218,1709037427.0302176,-65.91796875,-1000.0,-951.66015625,-44.43359375,1.0,-1.0,-1.0,1.0,3.m4v,4.0
2024-02-27 13:37:07.034123,1709037427.0341227,-199.21875,-936.03515625,-982.91015625,-36.62109375,1.0,-1.0,-1.0,1.0,3.m4v,4.0
2024-02-27 13:37:07.038028,1709037427.0380278,-214.35546875,-1000.0,-1000.0,-32.2265625,1.0,-1.0,-1.0,1.0,3.m4v,4.0
2024-02-27 13:37:07.041933,1709037427.041933,186.03515625,-229.4921875,-794.43359375,-17.578125,1.0,-1.0,-1.0,1.0,3.m4v,4.0
2024-02-27 13:37:07.045838,1709037427.045838,999.51171875,962.890625,260.7421875,-4.8828125,1.0,-1.0,-1.0,1.0,3.m4v,4.0
2024-02-27 13:37:07.495036,1709037427.4950364,72.75390625,969.7265625,969.7265625,-49.31640625,1.0,-1.0,-1.0,1.0,3.m4v,4.0
2024-02-27 13:37:07.498941,1709037427.4989414,-20.99609375,969.7265625,969.7265625,-49.31640625,1.0,-1.0,-1.0,1.0,3.m4v,4.0
2024-02-27 13:37:07.502847,1709037427.5028467,77.1484375,969.7265625,969.7265625,-34.1796875,1.0,-1.0,-1.0,1.0,3.m4v,4.0
2024-02-27 13:37:07.506752,1709037427.5067518,208.0078125,969.7265625,969.7265625,-23.92578125,1.0,-1.0,-1.0,1.0,3.m4v,4.0
2024-02-27 13:37:07.510657,1709037427.510657,155.76171875,969.7265625,969.7265625,-40.0390625,1.0,-1.0,-1.0,1.0,3.m4v,4.0
2024-02-27 13:37:07.514562,1709037427.514562,137.6953125,969.7265625,969.7265625,-42.48046875,1.0,-1.0,-1.0,1.0,3.m4v,4.0
2024-02-27 13:37:07.518467,1709037427.5184672,2.9296875,969.7265625,969.7265625,-31.73828125,1.0,-1.0,-1.0,1.0,3.m4v,4.0
2024-02-27 13:37:07.522372,1709037427.5223725,-20.01953125,969.7265625,969.7265625,-26.3671875,1.0,-1.0,-1.0,1.0,3.m4v,4.0
2024-02-27 13:37:07.526278,1709037427.5262775,201.171875,969.7265625,969.7265625,-19.04296875,1.0,-1.0,-1.0,1.0,3.m4v,4.0
2024-02-27 13:37:07.530183,1709037427.5301828,127.9296875,969.7265625,969.7265625,-33.69140625,1.0,-1.0,-1.0,1.0,3.m4v,4.0
2024-02-27 13:37:07.534088,1709037427.534088,-7.32421875,969.7265625,969.7265625,-47.36328125,1.0,-1.0,-1.0,1.0,3.m4v,4.0
2024-02-27 13:37:07.537993,1709037427.5379932,-70.80078125,969.7265625,969.7265625,-45.41015625,1.0,-1.0,-1.0,1.0,3.m4v,4.0
2024-02-27 13:37:07.541909,1709037427.5419092,-28.80859375,969.7265625,969.7265625,-41.015625,1.0,-1.0,-1.0,1.0,3.m4v,4.0
2024-02-27 13:37:07.545814,1709037427.5458145,157.71484375,969.7265625,969.7265625,-31.25,1.0,-1.0,-1.0,1.0,3.m4v,4.0
2024-02-27 13:37:07.549720,1709037427.5497196,171.875,969.7265625,969.7265625,-30.76171875,1.0,-1.0,-1.0,1.0,3.m4v,4.0
2024-02-27 13:37:07.553625,1709037427.5536246,35.64453125,969.7265625,969.7265625,-46.875,1.0,-1.0,-1.0,1.0,3.m4v,4.0
2024-02-27 13:37:07.557530,1709037427.55753,-97.16796875,969.7265625,969.7265625,-50.29296875,1.0,-1.0,-1.0,1.0,3.m4v,4.0
2024-02-27 13:37:07.561435,1709037427.561435,11.71875,969.7265625,969.7265625,-33.69140625,1.0,-1.0,-1.0,1.0,3.m4v,4.0
2024-02-27 13:37:07.565340,1709037427.56534,155.2734375,969.7265625,969.7265625,-31.25,1.0,-1.0,-1.0,1.0,3.m4v,4.0
2024-02-27 13:37:07.569245,1709037427.569245,101.07421875,969.7265625,969.7265625,-40.0390625,1.0,-1.0,-1.0,1.0,3.m4v,4.0
2024-02-27 13:37:07.573150,1709037427.5731504,16.6015625,969.7265625,969.7265625,-43.45703125,1.0,-1.0,-1.0,1.0,3.m4v,4.0
2024-02-27 13:37:07.577056,1709037427.5770557,-104.00390625,969.7265625,969.7265625,-42.48046875,1.0,-1.0,-1.0,1.0,3.m4v,4.0
2024-02-27 13:37:07.580961,1709037427.5809608,-60.546875,969.7265625,969.7265625,-32.71484375,1.0,-1.0,-1.0,1.0,3.m4v,4.0
2024-02-27 13:37:07.584866,1709037427.584866,141.11328125,969.7265625,969.7265625,-26.3671875,1.0,-1.0,-1.0,1.0,3.m4v,4.0
2024-02-27 13:37:07.588782,1709037427.5887816,125.0,969.7265625,969.7265625,-28.80859375,1.0,-1.0,-1.0,1.0,3.m4v,4.0
2024-02-27 13:37:07.592687,1709037427.592687,-28.80859375,969.7265625,969.7265625,-50.29296875,1.0,-1.0,-1.0,1.0,3.m4v,4.0
2024-02-27 13:37:07.596592,1709037427.596592,-88.37890625,969.7265625,969.7265625,-57.6171875,1.0,-1.0,-1.0,1.0,3.m4v,4.0
2024-02-27 13:37:07.600497,1709037427.600497,-99.12109375,980.46875,970.21484375,-37.59765625,1.0,-1.0,-1.0,1.0,3.m4v,4.0
2024-02-27 13:37:07.604402,1709037427.6044023,44.43359375,922.36328125,967.7734375,-25.390625,1.0,-1.0,-1.0,1.0,3.m4v,4.0
2024-02-27 13:37:07.608307,1709037427.6083074,193.84765625,999.51171875,966.30859375,-29.296875,1.0,-1.0,-1.0,1.0,3.m4v,4.0
2024-02-27 13:37:07.612212,1709037427.6122124,75.1953125,880.37109375,987.79296875,-46.875,1.0,-1.0,-1.0,1.0,3.m4v,4.0
2024-02-27 13:37:07.616118,1709037427.6161177,-565.91796875,-482.91015625,838.8671875,-53.22265625,1.0,-1.0,-1.0,1.0,3.m4v,4.0
2024-02-27 13:37:07.620023,1709037427.6200228,-587.890625,-1000.0,844.23828125,-56.15234375,1.0,-1.0,-1.0,1.0,3.m4v,4.0
2024-02-27 13:37:07.623928,1709037427.623928,23.92578125,-935.05859375,981.93359375,-47.8515625,1.0,-1.0,-1.0,1.0,3.m4v,4.0
2024-02-27 13:37:07.627833,1709037427.6278331,111.328125,-1000.0,977.5390625,-34.1796875,1.0,-1.0,-1.0,1.0,3.m4v,4.0
2024-02-27 13:37:07.631738,1709037427.6317384,0.0,-1000.0,942.87109375,-37.109375,1.0,-1.0,-1.0,1.0,3.m4v,4.0
2024-02-27 13:37:07.635653,1709037427.6356533,-124.0234375,-937.5,824.21875,-45.41015625,1.0,-1.0,-1.0,1.0,3.m4v,4.0
2024-02-27 13:37:07.639558,1709037427.6395583,-164.0625,-1000.0,915.0390625,-42.48046875,1.0,-1.0,-1.0,1.0,3.m4v,4.0
2024-02-27 13:37:07.643464,1709037427.6434636,283.203125,-222.16796875,985.83984375,-21.97265625,1.0,-1.0,-1.0,1.0,3.m4v,4.0
2024-02-27 13:37:07.647369,1709037427.647369,611.81640625,999.51171875,962.890625,-25.390625,1.0,-1.0,-1.0,1.0,3.m4v,4.0
2024-02-27 13:37:07.651274,1709037427.651274,226.5625,954.1015625,970.703125,-37.109375,1.0,-1.0,-1.0,1.0,3.m4v,4.0
2024-02-27 13:37:07.655179,1709037427.655179,15.625,942.3828125,969.7265625,-41.9921875,1.0,-1.0,-1.0,1.0,3.m4v,4.0
2024-02-27 13:37:07.659084,1709037427.659084,-65.4296875,976.5625,971.6796875,-42.96875,1.0,-1.0,-1.0,1.0,3.m4v,4.0
2024-02-27 13:37:07.662989,1709037427.6629894,-86.42578125,969.7265625,960.9375,-34.66796875,1.0,-1.0,-1.0,1.0,3.m4v,4.0
2024-02-27 13:37:07.666894,1709037427.6668944,47.8515625,969.7265625,979.00390625,-47.8515625,1.0,-1.0,-1.0,1.0,3.m4v,4.0
2024-02-27 13:37:07.670800,1709037427.6707995,61.03515625,970.21484375,946.77734375,-54.19921875,1.0,-1.0,-1.0,1.0,3.m4v,4.0
2024-02-27 13:37:07.674705,1709037427.6747048,-181.640625,969.7265625,677.734375,-56.15234375,1.0,-1.0,-1.0,1.0,3.m4v,4.0
2024-02-27 13:37:07.678610,1709037427.67861,-189.453125,982.421875,748.046875,-57.6171875,1.0,-1.0,-1.0,1.0,3.m4v,4.0
2024-02-27 13:37:07.682524,1709037427.6825242,86.42578125,897.4609375,972.65625,-32.71484375,1.0,-1.0,-1.0,1.0,3.m4v,4.0
2024-02-27 13:37:07.686429,1709037427.6864293,173.828125,999.51171875,976.5625,-18.5546875,1.0,-1.0,-1.0,1.0,3.m4v,4.0
2024-02-27 13:37:07.690335,1709037427.6903346,-37.109375,458.984375,904.78515625,-24.90234375,1.0,-1.0,-1.0,1.0,3.m4v,4.0
2024-02-27 13:37:07.694240,1709037427.6942396,-784.1796875,-865.234375,284.1796875,-65.4296875,1.0,-1.0,-1.0,1.0,3.m4v,4.0
2024-02-27 13:37:07.698145,1709037427.698145,-835.9375,-1000.0,71.77734375,-73.73046875,1.0,-1.0,-1.0,1.0,3.m4v,4.0
2024-02-27 13:37:07.702050,1709037427.70205,260.7421875,-475.09765625,722.65625,-31.73828125,1.0,-1.0,-1.0,1.0,3.m4v,4.0
2024-02-27 13:37:07.705955,1709037427.705955,886.71875,828.125,999.0234375,-17.578125,1.0,-1.0,-1.0,1.0,3.m4v,4.0
2024-02-27 13:37:07.709860,1709037427.7098603,382.32421875,999.51171875,937.5,-32.2265625,1.0,-1.0,-1.0,1.0,3.m4v,4.0
2024-02-27 13:37:07.713765,1709037427.7137654,-547.36328125,77.63671875,290.52734375,-59.08203125,1.0,-1.0,-1.0,1.0,3.m4v,4.0
2024-02-27 13:37:07.717671,1709037427.717671,-1000.0,-1000.0,-373.53515625,-58.59375,1.0,-1.0,-1.0,1.0,3.m4v,4.0
2024-02-27 13:37:07.721576,1709037427.7215755,-170.8984375,-976.07421875,256.8359375,-31.25,1.0,-1.0,-1.0,1.0,3.m4v,4.0
2024-02-27 13:37:07.725481,1709037427.725481,599.12109375,-977.5390625,999.51171875,-25.87890625,1.0,-1.0,-1.0,1.0,3.m4v,4.0
2024-02-27 13:37:07.729395,1709037427.7293952,242.67578125,-1000.0,870.1171875,-32.2265625,1.0,-1.0,-1.0,1.0,3.m4v,4.0
2024-02-27 13:37:07.733300,1709037427.7333002,-465.8203125,-1000.0,157.71484375,-62.5,1.0,-1.0,-1.0,1.0,3.m4v,4.0
2024-02-27 13:37:07.737205,1709037427.7372053,-653.80859375,-980.46875,-290.52734375,-63.96484375,1.0,-1.0,-1.0,1.0,3.m4v,4.0
2024-02-27 13:37:07.741111,1709037427.7411106,-2.9296875,-971.6796875,262.6953125,-31.25,1.0,-1.0,-1.0,1.0,3.m4v,4.0
2024-02-27 13:37:07.745016,1709037427.7450156,454.58984375,-1000.0,879.8828125,-26.3671875,1.0,-1.0,-1.0,1.0,3.m4v,4.0
2024-02-27 13:37:07.748921,1709037427.748921,710.9375,91.30859375,999.51171875,-24.4140625,1.0,-1.0,-1.0,1.0,3.m4v,4.0
2024-02-27 13:37:07.752826,1709037427.752826,338.37890625,999.51171875,702.63671875,-41.015625,1.0,-1.0,-1.0,1.0,3.m4v,4.0
2024-02-27 13:37:07.756731,1709037427.7567313,-675.29296875,917.48046875,-77.1484375,-72.265625,1.0,-1.0,-1.0,1.0,3.m4v,4.0
2024-02-27 13:37:07.760636,1709037427.7606363,-268.06640625,972.65625,176.7578125,-51.7578125,1.0,-1.0,-1.0,1.0,3.m4v,4.0
2024-02-27 13:37:07.764541,1709037427.7645414,541.9921875,935.05859375,930.6640625,-29.296875,1.0,-1.0,-1.0,1.0,3.m4v,4.0
2024-02-27 13:37:07.768447,1709037427.7684467,301.26953125,977.05078125,895.5078125,-36.62109375,1.0,-1.0,-1.0,1.0,3.m4v,4.0
2024-02-27 13:37:07.772352,1709037427.7723515,-359.86328125,962.40234375,149.4140625,-53.22265625,1.0,-1.0,-1.0,1.0,3.m4v,4.0
2024-02-27 13:37:07.776265,1709037427.7762654,-918.45703125,-333.0078125,-489.2578125,-60.05859375,1.0,-1.0,-1.0,1.0,3.m4v,4.0
2024-02-27 13:37:07.780170,1709037427.7801704,-719.7265625,-1000.0,-340.33203125,-50.29296875,1.0,-1.0,-1.0,1.0,3.m4v,4.0
2024-02-27 13:37:07.784076,1709037427.7840755,306.640625,-943.84765625,507.32421875,-26.3671875,1.0,-1.0,-1.0,1.0,3.m4v,4.0
2024-02-27 13:37:07.787981,1709037427.7879808,595.21484375,-935.546875,937.01171875,-24.4140625,1.0,-1.0,-1.0,1.0,3.m4v,4.0
2024-02-27 13:37:07.791886,1709037427.791886,-414.55078125,-1000.0,48.33984375,-47.8515625,1.0,-1.0,-1.0,1.0,3.m4v,4.0
2024-02-27 13:37:07.795791,1709037427.7957911,-417.48046875,-314.453125,-291.9921875,-38.57421875,1.0,-1.0,-1.0,1.0,3.m4v,4.0
2024-02-27 13:37:07.799696,1709037427.7996962,767.08984375,999.51171875,624.51171875,-19.04296875,1.0,-1.0,-1.0,1.0,3.m4v,4.0
2024-02-27 13:37:07.803602,1709037427.8036015,627.9296875,969.23828125,993.65234375,-16.6015625,1.0,-1.0,-1.0,1.0,3.m4v,4.0
2024-02-27 13:37:07.807507,1709037427.8075066,193.84765625,935.05859375,980.46875,-21.484375,1.0,-1.0,-1.0,1.0,3.m4v,4.0
2024-02-27 13:37:07.811412,1709037427.811412,-86.42578125,979.4921875,576.66015625,-41.50390625,1.0,-1.0,-1.0,1.0,3.m4v,4.0
2024-02-27 13:37:07.815317,1709037427.815317,-585.44921875,970.21484375,-155.76171875,-62.01171875,1.0,-1.0,-1.0,1.0,3.m4v,4.0
2024-02-27 13:37:07.819222,1709037427.819222,-303.7109375,979.98046875,17.08984375,-40.52734375,1.0,-1.0,-1.0,1.0,3.m4v,4.0
2024-02-27 13:37:07.823140,1709037427.8231397,388.671875,927.734375,703.61328125,-18.06640625,1.0,-1.0,-1.0,1.0,3.m4v,4.0
2024-02-27 13:37:07.827045,1709037427.827045,455.078125,991.69921875,999.51171875,-24.4140625,1.0,-1.0,-1.0,1.0,3.m4v,4.0
2024-02-27 13:37:07.830950,1709037427.83095,-185.546875,911.1328125,506.8359375,-48.828125,1.0,-1.0,-1.0,1.0,3.m4v,4.0
2024-02-27 13:37:07.834855,1709037427.8348553,-904.78515625,-341.796875,-490.234375,-71.77734375,1.0,-1.0,-1.0,1.0,3.m4v,4.0
2024-02-27 13:37:07.838760,1709037427.8387604,-837.40234375,-1000.0,-624.0234375,-62.01171875,1.0,-1.0,-1.0,1.0,3.m4v,4.0
2024-02-27 13:37:07.842666,1709037427.8426657,318.359375,-390.13671875,406.25,-20.5078125,1.0,-1.0,-1.0,1.0,3.m4v,4.0
2024-02-27 13:37:07.846571,1709037427.8465707,972.65625,865.234375,999.51171875,-5.859375,1.0,-1.0,-1.0,1.0,3.m4v,4.0
2024-02-27 13:37:07.850476,1709037427.8504758,240.72265625,999.51171875,618.1640625,-40.0390625,1.0,-1.0,-1.0,1.0,3.m4v,4.0
2024-02-27 13:37:07.854381,1709037427.854381,-722.16796875,187.01171875,-295.41015625,-60.546875,1.0,-1.0,-1.0,1.0,3.m4v,4.0
2024-02-27 13:37:07.858286,1709037427.858286,-947.75390625,-1000.0,-618.65234375,-59.5703125,1.0,-1.0,-1.0,1.0,3.m4v,4.0
2024-02-27 13:37:07.862191,1709037427.8621914,-107.421875,-991.2109375,78.125,-41.50390625,1.0,-1.0,-1.0,1.0,3.m4v,4.0
2024-02-27 13:37:07.866096,1709037427.8660965,679.19921875,-969.7265625,898.92578125,-24.90234375,1.0,-1.0,-1.0,1.0,3.m4v,4.0
2024-02-27 13:37:07.870013,1709037427.8700132,193.359375,-1000.0,639.6484375,-24.4140625,1.0,-1.0,-1.0,1.0,3.m4v,4.0
2024-02-27 13:37:07.873918,1709037427.8739183,-546.875,-930.6640625,-209.47265625,-33.203125,1.0,-1.0,-1.0,1.0,3.m4v,4.0
2024-02-27 13:37:07.877824,1709037427.8778236,-684.08203125,-1000.0,-605.46875,-46.875,1.0,-1.0,-1.0,1.0,3.m4v,4.0
2024-02-27 13:37:07.881729,1709037427.8817286,150.87890625,-341.796875,159.1796875,-33.203125,1.0,-1.0,-1.0,1.0,3.m4v,4.0
2024-02-27 13:37:07.885634,1709037427.885634,985.3515625,996.58203125,979.4921875,-12.20703125,1.0,-1.0,-1.0,1.0,3.m4v,4.0
2024-02-27 13:37:07.889539,1709037427.889539,642.578125,911.1328125,999.51171875,-27.83203125,1.0,-1.0,-1.0,1.0,3.m4v,4.0
2024-02-27 13:37:07.893444,1709037427.893444,-82.03125,999.51171875,510.7421875,-50.78125,1.0,-1.0,-1.0,1.0,3.m4v,4.0
2024-02-27 13:37:07.897349,1709037427.8973494,-875.0,205.56640625,-344.23828125,-52.24609375,1.0,-1.0,-1.0,1.0,3.m4v,4.0
2024-02-27 13:37:07.901254,1709037427.9012544,-739.2578125,-1000.0,-169.43359375,-45.41015625,1.0,-1.0,-1.0,1.0,3.m4v,4.0
2024-02-27 13:37:07.905160,1709037427.9051597,321.2890625,-984.86328125,638.671875,-19.53125,1.0,-1.0,-1.0,1.0,3.m4v,4.0
2024-02-27 13:37:07.909065,1709037427.9090648,456.0546875,-974.12109375,739.74609375,-1.953125,1.0,-1.0,-1.0,1.0,3.m4v,4.0
2024-02-27 13:37:07.912970,1709037427.91297,-391.11328125,-1000.0,-80.56640625,-36.1328125,1.0,-1.0,-1.0,1.0,3.m4v,4.0
2024-02-27 13:37:07.916886,1709037427.916886,-711.42578125,-949.70703125,-580.078125,-75.1953125,1.0,-1.0,-1.0,1.0,3.m4v,4.0
2024-02-27 13:37:07.920791,1709037427.9207911,-105.46875,-1000.0,-25.390625,-62.98828125,1.0,-1.0,-1.0,1.0,3.m4v,4.0
2024-02-27 13:37:07.924696,1709037427.9246962,762.20703125,-93.75,800.78125,-22.4609375,1.0,-1.0,-1.0,1.0,3.m4v,4.0
2024-02-27 13:37:07.928601,1709037427.9286013,819.3359375,999.51171875,961.9140625,-29.78515625,1.0,-1.0,-1.0,1.0,3.m4v,4.0
2024-02-27 13:37:07.932507,1709037427.9325066,-175.78125,937.01171875,233.88671875,-59.08203125,1.0,-1.0,-1.0,1.0,3.m4v,4.0
2024-02-27 13:37:07.936412,1709037427.9364116,-423.33984375,951.66015625,-41.50390625,-69.82421875,1.0,-1.0,-1.0,1.0,3.m4v,4.0
2024-02-27 13:37:07.940317,1709037427.940317,79.58984375,975.09765625,531.25,-71.2890625,1.0,-1.0,-1.0,1.0,3.m4v,4.0
2024-02-27 13:37:07.944222,1709037427.944222,300.29296875,965.8203125,897.4609375,-53.22265625,1.0,-1.0,-1.0,1.0,3.m4v,4.0
2024-02-27 13:37:07.948127,1709037427.9481273,238.76953125,914.55078125,943.84765625,-52.734375,1.0,-1.0,-1.0,1.0,3.m4v,4.0
2024-02-27 13:37:07.952032,1709037427.9520323,-274.4140625,999.51171875,324.70703125,-77.63671875,1.0,-1.0,-1.0,1.0,3.m4v,4.0
2024-02-27 13:37:07.955937,1709037427.9559374,-882.8125,113.76953125,-471.6796875,-80.56640625,1.0,-1.0,-1.0,1.0,3.m4v,4.0
2024-02-27 13:37:07.959843,1709037427.9598427,-792.48046875,-1000.0,-438.96484375,-67.87109375,1.0,-1.0,-1.0,1.0,3.m4v,4.0
2024-02-27 13:37:07.963758,1709037427.963758,57.12890625,-974.12109375,223.6328125,-56.15234375,1.0,-1.0,-1.0,1.0,3.m4v,4.0
2024-02-27 13:37:07.967663,1709037427.9676633,381.34765625,-981.4453125,528.3203125,-52.734375,1.0,-1.0,-1.0,1.0,3.m4v,4.0
2024-02-27 13:37:07.971568,1709037427.9715683,-179.6875,-991.2109375,-27.34375,-54.6875,1.0,-1.0,-1.0,1.0,3.m4v,4.0
2024-02-27 13:37:07.975474,1709037427.9754736,-693.84765625,-960.9375,-759.27734375,-62.98828125,1.0,-1.0,-1.0,1.0,3.m4v,4.0
2024-02-27 13:37:07.979379,1709037427.9793787,-342.7734375,-1000.0,-600.09765625,-60.546875,1.0,-1.0,-1.0,1.0,3.m4v,4.0
2024-02-27 13:37:07.983284,1709037427.9832838,593.26171875,11.23046875,435.05859375,-24.90234375,1.0,-1.0,-1.0,1.0,3.m4v,4.0
2024-02-27 13:37:07.987189,1709037427.987189,925.78125,999.51171875,999.51171875,-12.6953125,1.0,-1.0,-1.0,1.0,3.m4v,4.0
2024-02-27 13:37:07.991094,1709037427.991094,-76.171875,924.31640625,211.9140625,-48.828125,1.0,-1.0,-1.0,1.0,3.m4v,4.0
2024-02-27 13:37:07.994999,1709037427.9949994,-874.0234375,959.47265625,-835.9375,-73.2421875,1.0,-1.0,-1.0,1.0,3.m4v,4.0
2024-02-27 13:37:07.998904,1709037427.9989045,-447.265625,986.328125,-815.4296875,-62.98828125,1.0,-1.0,-1.0,1.0,3.m4v,4.0
2024-02-27 13:37:08.002810,1709037428.0028098,439.94140625,908.203125,124.51171875,-31.25,1.0,-1.0,-1.0,1.0,3.m4v,4.0
2024-02-27 13:37:08.006715,1709037428.0067148,874.0234375,999.51171875,964.84375,-23.92578125,1.0,-1.0,-1.0,1.0,3.m4v,4.0
2024-02-27 13:37:08.010630,1709037428.0106297,-53.7109375,729.98046875,226.5625,-47.8515625,1.0,-1.0,-1.0,1.0,3.m4v,4.0
2024-02-27 13:37:08.014535,1709037428.014535,-1000.0,-693.359375,-888.671875,-62.5,1.0,-1.0,-1.0,1.0,3.m4v,4.0
2024-02-27 13:37:08.018440,1709037428.01844,-846.19140625,-1000.0,-1000.0,-63.96484375,1.0,-1.0,-1.0,1.0,3.m4v,4.0
2024-02-27 13:37:08.022345,1709037428.0223453,-51.7578125,-875.0,-518.06640625,-42.48046875,1.0,-1.0,-1.0,1.0,3.m4v,4.0
2024-02-27 13:37:08.026250,1709037428.0262504,396.97265625,-1000.0,41.015625,-31.25,1.0,-1.0,-1.0,1.0,3.m4v,4.0
2024-02-27 13:37:08.030156,1709037428.0301557,469.7265625,-210.44921875,41.015625,-43.9453125,1.0,-1.0,-1.0,1.0,3.m4v,4.0
2024-02-27 13:37:08.034061,1709037428.0340607,217.28515625,999.51171875,-436.5234375,-50.29296875,1.0,-1.0,-1.0,1.0,3.m4v,4.0
2024-02-27 13:37:08.037966,1709037428.0379658,-555.6640625,952.63671875,-1000.0,-61.5234375,1.0,-1.0,-1.0,1.0,3.m4v,4.0
2024-02-27 13:37:08.041871,1709037428.041871,-200.68359375,944.3359375,-779.78515625,-41.50390625,1.0,-1.0,-1.0,1.0,3.m4v,4.0
2024-02-27 13:37:08.045776,1709037428.045776,532.2265625,913.57421875,-50.78125,-30.76171875,1.0,-1.0,-1.0,1.0,3.m4v,4.0
2024-02-27 13:37:08.049681,1709037428.0496814,190.4296875,999.51171875,-362.79296875,-45.8984375,1.0,-1.0,-1.0,1.0,3.m4v,4.0
2024-02-27 13:37:08.053586,1709037428.0535865,-713.37890625,201.66015625,-999.51171875,-56.15234375,1.0,-1.0,-1.0,1.0,3.m4v,4.0
2024-02-27 13:37:08.057501,1709037428.057501,-845.21484375,-1000.0,-1000.0,-63.4765625,1.0,-1.0,-1.0,1.0,3.m4v,4.0
2024-02-27 13:37:08.061406,1709037428.061406,-333.0078125,-1000.0,-916.9921875,-43.45703125,1.0,-1.0,-1.0,1.0,3.m4v,4.0
2024-02-27 13:37:08.065311,1709037428.0653114,643.06640625,22.4609375,-119.140625,-24.90234375,1.0,-1.0,-1.0,1.0,3.m4v,4.0
2024-02-27 13:37:08.069216,1709037428.0692165,543.9453125,999.51171875,-239.74609375,-38.57421875,1.0,-1.0,-1.0,1.0,3.m4v,4.0
2024-02-27 13:37:08.073122,1709037428.0731215,-454.58984375,926.7578125,-1000.0,-57.6171875,1.0,-1.0,-1.0,1.0,3.m4v,4.0
2024-02-27 13:37:08.077027,1709037428.0770268,-316.40625,958.984375,-1000.0,-63.4765625,1.0,-1.0,-1.0,1.0,3.m4v,4.0
2024-02-27 13:37:08.526217,1709037428.5262172,395.5078125,-1000.0,-378.90625,-37.109375,1.0,-1.0,-1.0,1.0,3.m4v,4.0
2024-02-27 13:37:08.530122,1709037428.5301225,169.921875,-1000.0,-579.58984375,-33.69140625,1.0,-1.0,-1.0,1.0,3.m4v,4.0
2024-02-27 13:37:08.534028,1709037428.5340276,-306.15234375,-928.7109375,-989.74609375,-47.36328125,1.0,-1.0,-1.0,1.0,3.m4v,4.0
2024-02-27 13:37:08.537933,1709037428.5379326,-315.91796875,-1000.0,-1000.0,-52.24609375,1.0,-1.0,-1.0,1.0,3.m4v,4.0
2024-02-27 13:37:08.541838,1709037428.5418377,61.03515625,-620.60546875,-770.5078125,-32.2265625,1.0,-1.0,-1.0,1.0,3.m4v,4.0
2024-02-27 13:37:08.545743,1709037428.545743,895.5078125,821.77734375,483.3984375,-4.8828125,1.0,-1.0,-1.0,1.0,3.m4v,4.0
2024-02-27 13:37:08.549648,1709037428.549648,818.359375,999.51171875,837.890625,-12.6953125,1.0,-1.0,-1.0,1.0,3.m4v,4.0
2024-02-27 13:37:08.553553,1709037428.553553,-407.2265625,912.109375,-394.04296875,-48.828125,1.0,-1.0,-1.0,1.0,3.m4v,4.0
2024-02-27 13:37:08.557458,1709037428.5574584,-837.890625,985.3515625,-1000.0,-41.50390625,1.0,-1.0,-1.0,1.0,3.m4v,4.0
2024-02-27 13:37:08.561364,1709037428.5613637,-91.30859375,970.21484375,-659.1796875,-32.71484375,1.0,-1.0,-1.0,1.0,3.m4v,4.0
2024-02-27 13:37:08.565269,1709037428.5652688,644.53125,969.7265625,245.1171875,-28.80859375,1.0,-1.0,-1.0,1.0,3.m4v,4.0
2024-02-27 13:37:08.569174,1709037428.569174,402.83203125,969.7265625,254.8828125,-18.06640625,1.0,-1.0,-1.0,1.0,3.m4v,4.0
2024-02-27 13:37:08.573091,1709037428.5730913,-429.6875,969.7265625,-592.7734375,-42.96875,1.0,-1.0,-1.0,1.0,3.m4v,4.0
2024-02-27 13:37:08.576996,1709037428.5769963,-551.26953125,969.7265625,-938.4765625,-56.15234375,1.0,-1.0,-1.0,1.0,3.m4v,4.0
2024-02-27 13:37:08.580902,1709037428.5809016,-22.94921875,969.7265625,-438.96484375,-27.34375,1.0,-1.0,-1.0,1.0,3.m4v,4.0
2024-02-27 13:37:08.584807,1709037428.584807,656.25,974.12109375,508.7890625,-22.94921875,1.0,-1.0,-1.0,1.0,3.m4v,4.0
2024-02-27 13:37:08.588712,1709037428.588712,495.1171875,951.66015625,671.38671875,-26.3671875,1.0,-1.0,-1.0,1.0,3.m4v,4.0
2024-02-27 13:37:08.592617,1709037428.592617,-83.0078125,938.96484375,263.671875,-43.45703125,1.0,-1.0,-1.0,1.0,3.m4v,4.0
2024-02-27 13:37:08.596522,1709037428.5965223,-303.22265625,999.51171875,-50.29296875,-56.15234375,1.0,-1.0,-1.0,1.0,3.m4v,4.0
2024-02-27 13:37:08.600427,1709037428.6004274,-723.14453125,-96.6796875,-234.375,-53.7109375,1.0,-1.0,-1.0,1.0,3.m4v,4.0
2024-02-27 13:37:08.604332,1709037428.6043324,-93.75,-1000.0,529.296875,-34.1796875,1.0,-1.0,-1.0,1.0,3.m4v,4.0
2024-02-27 13:37:08.608238,1709037428.6082375,428.7109375,-951.171875,861.81640625,-30.2734375,1.0,-1.0,-1.0,1.0,3.m4v,4.0
2024-02-27 13:37:08.612143,1709037428.6121428,-378.41796875,-992.67578125,41.9921875,-53.7109375,1.0,-1.0,-1.0,1.0,3.m4v,4.0
2024-02-27 13:37:08.616048,1709037428.616048,-679.19921875,-1000.0,-548.33984375,-56.15234375,1.0,-1.0,-1.0,1.0,3.m4v,4.0
2024-02-27 13:37:08.619965,1709037428.619965,-257.8125,-1000.0,-278.80859375,-41.50390625,1.0,-1.0,-1.0,1.0,3.m4v,4.0
2024-02-27 13:37:08.623870,1709037428.6238704,502.44140625,-1000.0,620.1171875,-20.5078125,1.0,-1.0,-1.0,1.0,3.m4v,4.0
2024-02-27 13:37:08.627775,1709037428.6277754,607.421875,-997.55859375,999.51171875,-12.6953125,1.0,-1.0,-1.0,1.0,3.m4v,4.0
2024-02-27 13:37:08.631680,1709037428.6316805,-32.71484375,-942.87109375,598.14453125,-33.203125,1.0,-1.0,-1.0,1.0,3.m4v,4.0
2024-02-27 13:37:08.635586,1709037428.6355858,-599.12109375,-1000.0,-62.01171875,-57.6171875,1.0,-1.0,-1.0,1.0,3.m4v,4.0
2024-02-27 13:37:08.639491,1709037428.6394908,194.3359375,-162.59765625,429.19921875,-31.73828125,1.0,-1.0,-1.0,1.0,3.m4v,4.0
2024-02-27 13:37:08.643396,1709037428.643396,928.7109375,999.51171875,999.51171875,-3.90625,1.0,-1.0,-1.0,1.0,3.m4v,4.0
2024-02-27 13:37:08.647301,1709037428.6473012,362.79296875,945.80078125,977.5390625,-22.4609375,1.0,-1.0,-1.0,1.0,3.m4v,4.0
2024-02-27 13:37:08.651206,1709037428.6512065,-8.7890625,946.77734375,834.47265625,-34.1796875,1.0,-1.0,-1.0,1.0,3.m4v,4.0
2024-02-27 13:37:08.655112,1709037428.6551116,-370.60546875,975.09765625,250.0,-45.41015625,1.0,-1.0,-1.0,1.0,3.m4v,4.0
2024-02-27 13:37:08.659017,1709037428.6590166,-253.90625,969.7265625,335.44921875,-37.59765625,1.0,-1.0,-1.0,1.0,3.m4v,4.0
2024-02-27 13:37:08.662922,1709037428.662922,334.47265625,971.6796875,903.80859375,-17.578125,1.0,-1.0,-1.0,1.0,3.m4v,4.0
2024-02-27 13:37:08.666839,1709037428.666839,355.46875,962.40234375,983.88671875,-19.53125,1.0,-1.0,-1.0,1.0,3.m4v,4.0
2024-02-27 13:37:08.670744,1709037428.670744,57.12890625,920.8984375,945.80078125,-31.73828125,1.0,-1.0,-1.0,1.0,3.m4v,4.0
2024-02-27 13:37:08.674649,1709037428.6746492,-208.984375,999.51171875,611.328125,-47.36328125,1.0,-1.0,-1.0,1.0,3.m4v,4.0
2024-02-27 13:37:08.678554,1709037428.6785543,-582.51953125,139.6484375,492.67578125,-63.96484375,1.0,-1.0,-1.0,1.0,3.m4v,4.0
2024-02-27 13:37:08.682459,1709037428.6824594,-410.64453125,-1000.0,874.51171875,-43.45703125,1.0,-1.0,-1.0,1.0,3.m4v,4.0
2024-02-27 13:37:08.686365,1709037428.686365,255.859375,-466.30859375,975.09765625,-19.04296875,1.0,-1.0,-1.0,1.0,3.m4v,4.0
2024-02-27 13:37:08.690270,1709037428.6902697,532.2265625,935.546875,998.53515625,-30.76171875,1.0,-1.0,-1.0,1.0,3.m4v,4.0
2024-02-27 13:37:08.694175,1709037428.694175,0.48828125,999.51171875,747.55859375,-45.41015625,1.0,-1.0,-1.0,1.0,3.m4v,4.0
2024-02-27 13:37:08.698080,1709037428.69808,-320.80078125,920.41015625,607.421875,-49.31640625,1.0,-1.0,-1.0,1.0,3.m4v,4.0
2024-02-27 13:37:08.701985,1709037428.7019854,27.83203125,983.88671875,940.91796875,-36.1328125,1.0,-1.0,-1.0,1.0,3.m4v,4.0
2024-02-27 13:37:08.705890,1709037428.7058904,150.87890625,977.05078125,972.65625,-40.52734375,1.0,-1.0,-1.0,1.0,3.m4v,4.0
2024-02-27 13:37:08.709796,1709037428.7097957,89.35546875,937.5,991.2109375,-48.33984375,1.0,-1.0,-1.0,1.0,3.m4v,4.0
2024-02-27 13:37:08.713711,1709037428.7137113,-132.32421875,972.65625,800.29296875,-52.734375,1.0,-1.0,-1.0,1.0,3.m4v,4.0
2024-02-27 13:37:08.717616,1709037428.7176163,-282.2265625,957.51953125,642.578125,-46.875,1.0,-1.0,-1.0,1.0,3.m4v,4.0
2024-02-27 13:37:08.721522,1709037428.7215216,-381.8359375,-295.8984375,899.90234375,-33.203125,1.0,-1.0,-1.0,1.0,3.m4v,4.0
2024-02-27 13:37:08.725427,1709037428.725427,-232.421875,-1000.0,992.67578125,-25.87890625,1.0,-1.0,-1.0,1.0,3.m4v,4.0
2024-02-27 13:37:08.729332,1709037428.7293315,-3.90625,-944.3359375,942.87109375,-24.90234375,1.0,-1.0,-1.0,1.0,3.m4v,4.0
2024-02-27 13:37:08.733237,1709037428.733237,-118.1640625,-1000.0,812.98828125,-30.76171875,1.0,-1.0,-1.0,1.0,3.m4v,4.0
2024-02-27 13:37:08.737142,1709037428.737142,-199.70703125,-1000.0,754.8828125,-39.0625,1.0,-1.0,-1.0,1.0,3.m4v,4.0
2024-02-27 13:37:08.741047,1709037428.7410474,-170.8984375,-1000.0,857.91015625,-31.25,1.0,-1.0,-1.0,1.0,3.m4v,4.0
2024-02-27 13:37:08.744952,1709037428.7449524,25.87890625,-1000.0,973.6328125,-17.578125,1.0,-1.0,-1.0,1.0,3.m4v,4.0
2024-02-27 13:37:08.748858,1709037428.7488575,41.9921875,-1000.0,959.47265625,-31.25,1.0,-1.0,-1.0,1.0,3.m4v,4.0
2024-02-27 13:37:08.752763,1709037428.7527628,-284.1796875,-1000.0,494.62890625,-35.64453125,1.0,-1.0,-1.0,1.0,3.m4v,4.0
2024-02-27 13:37:08.756668,1709037428.756668,-439.453125,-1000.0,161.1328125,-35.15625,1.0,-1.0,-1.0,1.0,3.m4v,4.0
2024-02-27 13:37:08.760583,1709037428.760583,16.6015625,-1000.0,669.43359375,-28.3203125,1.0,-1.0,-1.0,1.0,3.m4v,4.0
2024-02-27 13:37:08.764488,1709037428.764488,261.23046875,-1000.0,983.3984375,-17.08984375,1.0,-1.0,-1.0,1.0,3.m4v,4.0
2024-02-27 13:37:08.768393,1709037428.7683933,135.7421875,-1000.0,999.51171875,-25.87890625,1.0,-1.0,-1.0,1.0,3.m4v,4.0
2024-02-27 13:37:08.772298,1709037428.7722983,-69.3359375,-937.98828125,750.9765625,-35.15625,1.0,-1.0,-1.0,1.0,3.m4v,4.0
2024-02-27 13:37:08.776204,1709037428.7762036,-486.328125,-1000.0,230.95703125,-34.66796875,1.0,-1.0,-1.0,1.0,3.m4v,4.0
2024-02-27 13:37:08.780109,1709037428.7801087,146.484375,-212.40234375,608.3984375,-23.92578125,1.0,-1.0,-1.0,1.0,3.m4v,4.0
2024-02-27 13:37:08.784014,1709037428.7840135,804.6875,999.51171875,998.046875,-8.30078125,1.0,-1.0,-1.0,1.0,3.m4v,4.0
2024-02-27 13:37:08.787919,1709037428.787919,315.91796875,952.63671875,985.3515625,-3.41796875,1.0,-1.0,-1.0,1.0,3.m4v,4.0
2024-02-27 13:37:08.791824,1709037428.791824,-87.40234375,943.359375,808.10546875,-20.5078125,1.0,-1.0,-1.0,1.0,3.m4v,4.0
2024-02-27 13:37:08.795729,1709037428.7957294,-455.56640625,976.5625,213.8671875,-37.109375,1.0,-1.0,-1.0,1.0,3.m4v,4.0
2024-02-27 13:37:08.799634,1709037428.7996345,-273.4375,969.7265625,357.421875,-24.90234375,1.0,-1.0,-1.0,1.0,3.m4v,4.0
2024-02-27 13:37:08.803540,1709037428.8035398,315.91796875,969.7265625,913.0859375,-11.71875,1.0,-1.0,-1.0,1.0,3.m4v,4.0
2024-02-27 13:37:08.807459,1709037428.8074589,299.8046875,969.7265625,999.51171875,-15.13671875,1.0,-1.0,-1.0,1.0,3.m4v,4.0
2024-02-27 13:37:08.811364,1709037428.8113642,-63.96484375,969.7265625,806.15234375,-24.4140625,1.0,-1.0,-1.0,1.0,3.m4v,4.0
2024-02-27 13:37:08.815269,1709037428.8152692,-322.265625,970.21484375,370.1171875,-34.1796875,1.0,-1.0,-1.0,1.0,3.m4v,4.0
2024-02-27 13:37:08.819175,1709037428.8191743,-287.59765625,973.6328125,395.01953125,-41.50390625,1.0,-1.0,-1.0,1.0,3.m4v,4.0
2024-02-27 13:37:08.823080,1709037428.8230796,104.98046875,952.63671875,797.36328125,-35.15625,1.0,-1.0,-1.0,1.0,3.m4v,4.0
2024-02-27 13:37:08.826985,1709037428.826985,351.5625,936.03515625,995.1171875,-18.5546875,1.0,-1.0,-1.0,1.0,3.m4v,4.0
2024-02-27 13:37:08.830890,1709037428.83089,113.76953125,999.51171875,890.625,-27.34375,1.0,-1.0,-1.0,1.0,3.m4v,4.0
2024-02-27 13:37:08.834795,1709037428.834795,-610.83984375,-79.1015625,165.52734375,-44.921875,1.0,-1.0,-1.0,1.0,3.m4v,4.0
2024-02-27 13:37:08.838700,1709037428.8387003,-1000.0,-1000.0,-368.1640625,-54.19921875,1.0,-1.0,-1.0,1.0,3.m4v,4.0
2024-02-27 13:37:08.842605,1709037428.8426054,-149.4140625,-952.1484375,304.19921875,-33.203125,1.0,-1.0,-1.0,1.0,3.m4v,4.0
2024-02-27 13:37:08.846511,1709037428.8465106,555.6640625,-991.69921875,999.51171875,-16.11328125,1.0,-1.0,-1.0,1.0,3.m4v,4.0
2024-02-27 13:37:08.850416,1709037428.8504157,88.37890625,-1000.0,761.71875,-36.62109375,1.0,-1.0,-1.0,1.0,3.m4v,4.0
2024-02-27 13:37:08.854329,1709037428.854329,-694.82421875,-1000.0,-243.65234375,-52.734375,1.0,-1.0,-1.0,1.0,3.m4v,4.0
2024-02-27 13:37:08.858235,1709037428.8582346,-917.96875,-1000.0,-888.671875,-59.08203125,1.0,-1.0,-1.0,1.0,3.m4v,4.0
2024-02-27 13:37:08.862140,1709037428.8621397,-151.3671875,-1000.0,-346.6796875,-40.0390625,1.0,-1.0,-1.0,1.0,3.m4v,4.0
2024-02-27 13:37:08.866045,1709037428.8660448,511.71875,-1000.0,387.20703125,-16.11328125,1.0,-1.0,-1.0,1.0,3.m4v,4.0
2024-02-27 13:37:08.869950,1709037428.86995,17.578125,-1000.0,6.34765625,-33.69140625,1.0,-1.0,-1.0,1.0,3.m4v,4.0
2024-02-27 13:37:08.873855,1709037428.873855,-473.6328125,-1000.0,-612.79296875,-53.7109375,1.0,-1.0,-1.0,1.0,3.m4v,4.0
2024-02-27 13:37:08.877760,1709037428.8777604,-410.64453125,-1000.0,-774.4140625,-46.38671875,1.0,-1.0,-1.0,1.0,3.m4v,4.0
2024-02-27 13:37:08.881665,1709037428.8816657,-215.33203125,-1000.0,-650.390625,-22.94921875,1.0,-1.0,-1.0,1.0,3.m4v,4.0
