Timestamp,Timestamp_UNIX,TP9,AF7,AF8,TP10,Valence,Arousal,Dominace,Viewed,Video,Participant
2024-02-27 14:21:57.000470,1709040117.00047,969.23828125,969.7265625,-20.5078125,969.7265625,1.0,-1.0,-1.0,0.0,1.m4v,5.0
2024-02-27 14:21:57.004387,1709040117.004387,969.23828125,969.7265625,-20.99609375,969.7265625,1.0,-1.0,-1.0,0.0,1.m4v,5.0
2024-02-27 14:21:57.008292,1709040117.0082915,983.3984375,984.375,-13.671875,979.00390625,1.0,-1.0,-1.0,0.0,1.m4v,5.0
2024-02-27 14:21:57.012197,1709040117.0121963,894.53125,895.01953125,-7.32421875,898.92578125,1.0,-1.0,-1.0,0.0,1.m4v,5.0
2024-02-27 14:21:57.016101,1709040117.0161014,999.51171875,999.51171875,-9.27734375,999.51171875,1.0,-1.0,-1.0,0.0,1.m4v,5.0
2024-02-27 14:21:57.020006,1709040117.0200062,500.0,524.4140625,-16.11328125,381.34765625,1.0,-1.0,-1.0,0.0,1.m4v,5.0
2024-02-27 14:21:57.023911,1709040117.0239112,-931.15234375,-917.48046875,-23.92578125,-989.2578125,1.0,-1.0,-1.0,0.0,1.m4v,5.0
2024-02-27 14:21:57.027816,1709040117.027816,-1000.0,-1000.0,-10.25390625,-1000.0,1.0,-1.0,-1.0,0.0,1.m4v,5.0
2024-02-27 14:21:57.031721,1709040117.0317209,-947.75390625,-945.80078125,-4.8828125,-957.51953125,1.0,-1.0,-1.0,0.0,1.m4v,5.0
2024-02-27 14:21:57.035626,1709040117.035626,-1000.0,-1000.0,-15.13671875,-1000.0,1.0,-1.0,-1.0,0.0,1.m4v,5.0
2024-02-27 14:21:57.039531,1709040117.0395308,-1000.0,-1000.0,-20.01953125,-1000.0,1.0,-1.0,-1.0,0.0,1.m4v,5.0
2024-02-27 14:21:57.043436,1709040117.0434356,-1000.0,-1000.0,-18.5546875,-1000.0,1.0,-1.0,-1.0,0.0,1.m4v,5.0
2024-02-27 14:21:57.047341,1709040117.0473406,-1000.0,-1000.0,-13.18359375,-1000.0,1.0,-1.0,-1.0,0.0,1.m4v,5.0
2024-02-27 14:21:57.051257,1709040117.051257,-1000.0,-1000.0,-17.578125,-1000.0,1.0,-1.0,-1.0,0.0,1.m4v,5.0
2024-02-27 14:21:57.055161,1709040117.0551617,-1000.0,-1000.0,-22.94921875,-1000.0,1.0,-1.0,-1.0,0.0,1.m4v,5.0
2024-02-27 14:21:57.059067,1709040117.0590663,-1000.0,-1000.0,-20.5078125,-1000.0,1.0,-1.0,-1.0,0.0,1.m4v,5.0
2024-02-27 14:21:57.062971,1709040117.0629714,-927.734375,-934.5703125,-16.6015625,-930.6640625,1.0,-1.0,-1.0,0.0,1.m4v,5.0
2024-02-27 14:21:57.066876,1709040117.0668762,-1000.0,-1000.0,-7.32421875,-1000.0,1.0,-1.0,-1.0,0.0,1.m4v,5.0
2024-02-27 14:21:57.070781,1709040117.0707812,-422.36328125,-261.71875,9.765625,-350.5859375,1.0,-1.0,-1.0,0.0,1.m4v,5.0
2024-02-27 14:21:57.074686,1709040117.074686,959.9609375,999.51171875,5.859375,990.72265625,1.0,-1.0,-1.0,0.0,1.m4v,5.0
2024-02-27 14:21:57.078591,1709040117.0785909,987.79296875,960.44921875,-17.578125,975.5859375,1.0,-1.0,-1.0,0.0,1.m4v,5.0
2024-02-27 14:21:57.082496,1709040117.082496,925.29296875,938.96484375,-27.34375,932.12890625,1.0,-1.0,-1.0,0.0,1.m4v,5.0
2024-02-27 14:21:57.086401,1709040117.0864007,981.4453125,978.02734375,-20.5078125,980.46875,1.0,-1.0,-1.0,0.0,1.m4v,5.0
2024-02-27 14:21:57.090306,1709040117.0903056,969.23828125,969.7265625,-12.6953125,969.7265625,1.0,-1.0,-1.0,0.0,1.m4v,5.0
2024-02-27 14:21:57.094211,1709040117.0942106,969.23828125,969.7265625,-10.7421875,969.7265625,1.0,-1.0,-1.0,0.0,1.m4v,5.0
2024-02-27 14:21:57.098126,1709040117.098126,969.23828125,969.7265625,-17.08984375,969.7265625,1.0,-1.0,-1.0,0.0,1.m4v,5.0
2024-02-27 14:21:57.102031,1709040117.1020308,969.23828125,969.7265625,-23.4375,969.7265625,1.0,-1.0,-1.0,0.0,1.m4v,5.0
2024-02-27 14:21:57.105936,1709040117.1059356,969.23828125,969.7265625,-20.99609375,970.21484375,1.0,-1.0,-1.0,0.0,1.m4v,5.0
2024-02-27 14:21:57.109840,1709040117.1098404,969.23828125,969.7265625,-6.34765625,969.7265625,1.0,-1.0,-1.0,0.0,1.m4v,5.0
2024-02-27 14:21:57.113745,1709040117.1137457,969.23828125,969.7265625,-1.953125,969.7265625,1.0,-1.0,-1.0,0.0,1.m4v,5.0
2024-02-27 14:21:57.117650,1709040117.1176505,968.75,969.7265625,-10.25390625,969.7265625,1.0,-1.0,-1.0,0.0,1.m4v,5.0
2024-02-27 14:21:57.121555,1709040117.121555,969.23828125,969.7265625,-19.53125,970.21484375,1.0,-1.0,-1.0,0.0,1.m4v,5.0
2024-02-27 14:21:57.125460,1709040117.12546,979.98046875,982.421875,-31.25,982.421875,1.0,-1.0,-1.0,0.0,1.m4v,5.0
2024-02-27 14:21:57.129365,1709040117.129365,926.26953125,919.43359375,-40.52734375,916.015625,1.0,-1.0,-1.0,0.0,1.m4v,5.0
2024-02-27 14:21:57.133270,1709040117.1332698,991.2109375,999.51171875,-38.57421875,999.51171875,1.0,-1.0,-1.0,0.0,1.m4v,5.0
2024-02-27 14:21:57.137175,1709040117.1371748,928.22265625,857.421875,-38.0859375,792.48046875,1.0,-1.0,-1.0,0.0,1.m4v,5.0
2024-02-27 14:21:57.141080,1709040117.1410797,-419.921875,-526.3671875,-43.45703125,-591.796875,1.0,-1.0,-1.0,0.0,1.m4v,5.0
2024-02-27 14:21:57.144999,1709040117.144999,-1000.0,-1000.0,-31.73828125,-1000.0,1.0,-1.0,-1.0,0.0,1.m4v,5.0
2024-02-27 14:21:57.148904,1709040117.1489038,-934.08203125,-934.08203125,-17.578125,-937.5,1.0,-1.0,-1.0,0.0,1.m4v,5.0
2024-02-27 14:21:57.152809,1709040117.152809,-1000.0,-1000.0,-19.04296875,-1000.0,1.0,-1.0,-1.0,0.0,1.m4v,5.0
2024-02-27 14:21:57.156714,1709040117.1567135,-1000.0,-1000.0,-20.99609375,-1000.0,1.0,-1.0,-1.0,0.0,1.m4v,5.0
2024-02-27 14:21:57.160619,1709040117.1606183,-1000.0,-1000.0,-17.08984375,-1000.0,1.0,-1.0,-1.0,0.0,1.m4v,5.0
2024-02-27 14:21:57.164524,1709040117.1645236,-1000.0,-1000.0,-12.20703125,-1000.0,1.0,-1.0,-1.0,0.0,1.m4v,5.0
2024-02-27 14:21:57.168428,1709040117.1684284,-1000.0,-1000.0,-25.390625,-1000.0,1.0,-1.0,-1.0,0.0,1.m4v,5.0
2024-02-27 14:21:57.172333,1709040117.1723332,-1000.0,-1000.0,-32.2265625,-1000.0,1.0,-1.0,-1.0,0.0,1.m4v,5.0
2024-02-27 14:21:57.176238,1709040117.1762383,-1000.0,-1000.0,-27.83203125,-1000.0,1.0,-1.0,-1.0,0.0,1.m4v,5.0
2024-02-27 14:21:57.180143,1709040117.180143,-1000.0,-1000.0,-37.59765625,-1000.0,1.0,-1.0,-1.0,0.0,1.m4v,5.0
2024-02-27 14:21:57.184048,1709040117.184048,-1000.0,-1000.0,-34.1796875,-1000.0,1.0,-1.0,-1.0,0.0,1.m4v,5.0
2024-02-27 14:21:57.187953,1709040117.187953,-1000.0,-1000.0,-20.5078125,-1000.0,1.0,-1.0,-1.0,0.0,1.m4v,5.0
2024-02-27 14:21:57.191872,1709040117.191872,-1000.0,-1000.0,-21.484375,-1000.0,1.0,-1.0,-1.0,0.0,1.m4v,5.0
2024-02-27 14:21:57.195777,1709040117.195777,-1000.0,-1000.0,-34.1796875,-1000.0,1.0,-1.0,-1.0,0.0,1.m4v,5.0
2024-02-27 14:21:57.199682,1709040117.1996818,-992.1875,-981.4453125,-40.52734375,-987.79296875,1.0,-1.0,-1.0,0.0,1.m4v,5.0
2024-02-27 14:21:57.203587,1709040117.2035866,-950.68359375,-969.23828125,-38.0859375,-958.0078125,1.0,-1.0,-1.0,0.0,1.m4v,5.0
2024-02-27 14:21:57.207492,1709040117.2074916,-1000.0,-1000.0,-32.71484375,-1000.0,1.0,-1.0,-1.0,0.0,1.m4v,5.0
2024-02-27 14:21:57.211396,1709040117.2113965,-74.21875,74.21875,-11.71875,-13.671875,1.0,-1.0,-1.0,0.0,1.m4v,5.0
2024-02-27 14:21:57.215301,1709040117.2153013,999.51171875,999.51171875,-18.5546875,999.51171875,1.0,-1.0,-1.0,0.0,1.m4v,5.0
2024-02-27 14:21:57.219206,1709040117.219206,932.6171875,918.45703125,-36.62109375,927.24609375,1.0,-1.0,-1.0,0.0,1.m4v,5.0
2024-02-27 14:21:57.223111,1709040117.2231112,952.63671875,963.37890625,-32.2265625,957.51953125,1.0,-1.0,-1.0,0.0,1.m4v,5.0
2024-02-27 14:21:57.227016,1709040117.227016,972.65625,971.19140625,-35.64453125,972.16796875,1.0,-1.0,-1.0,0.0,1.m4v,5.0
2024-02-27 14:21:57.230921,1709040117.2309208,969.23828125,969.7265625,-22.94921875,969.7265625,1.0,-1.0,-1.0,0.0,1.m4v,5.0
2024-02-27 14:21:57.234826,1709040117.2348258,969.23828125,969.7265625,-4.39453125,970.21484375,1.0,-1.0,-1.0,0.0,1.m4v,5.0
2024-02-27 14:21:57.238744,1709040117.238744,969.23828125,970.21484375,-24.4140625,969.7265625,1.0,-1.0,-1.0,0.0,1.m4v,5.0
2024-02-27 14:21:57.242649,1709040117.2426488,969.23828125,969.7265625,-40.0390625,969.7265625,1.0,-1.0,-1.0,0.0,1.m4v,5.0
2024-02-27 14:21:57.246554,1709040117.246554,969.23828125,969.7265625,-32.2265625,969.7265625,1.0,-1.0,-1.0,0.0,1.m4v,5.0
2024-02-27 14:21:57.250459,1709040117.2504587,969.23828125,969.7265625,-23.92578125,969.7265625,1.0,-1.0,-1.0,0.0,1.m4v,5.0
2024-02-27 14:21:57.254364,1709040117.2543635,969.23828125,969.7265625,-20.5078125,969.7265625,1.0,-1.0,-1.0,0.0,1.m4v,5.0
2024-02-27 14:21:57.258269,1709040117.2582686,969.23828125,970.21484375,-38.57421875,969.7265625,1.0,-1.0,-1.0,0.0,1.m4v,5.0
2024-02-27 14:21:57.262173,1709040117.2621734,969.23828125,969.7265625,-55.6640625,969.7265625,1.0,-1.0,-1.0,0.0,1.m4v,5.0
2024-02-27 14:21:57.266078,1709040117.2660782,969.23828125,970.21484375,-57.12890625,972.16796875,1.0,-1.0,-1.0,0.0,1.m4v,5.0
2024-02-27 14:21:57.269983,1709040117.2699833,968.75,969.7265625,-41.015625,959.9609375,1.0,-1.0,-1.0,0.0,1.m4v,5.0
2024-02-27 14:21:57.273888,1709040117.273888,907.71484375,908.203125,-31.73828125,925.78125,1.0,-1.0,-1.0,0.0,1.m4v,5.0
2024-02-27 14:21:57.277793,1709040117.277793,999.51171875,999.51171875,-39.0625,999.51171875,1.0,-1.0,-1.0,0.0,1.m4v,5.0
2024-02-27 14:21:57.281698,1709040117.281698,170.8984375,174.31640625,-39.0625,26.85546875,1.0,-1.0,-1.0,0.0,1.m4v,5.0
2024-02-27 14:21:57.285616,1709040117.2856157,-1000.0,-1000.0,-38.0859375,-1000.0,1.0,-1.0,-1.0,0.0,1.m4v,5.0
2024-02-27 14:21:57.289521,1709040117.2895205,-981.4453125,-981.93359375,-43.9453125,-966.30859375,1.0,-1.0,-1.0,0.0,1.m4v,5.0
2024-02-27 14:21:57.293425,1709040117.293425,-974.609375,-974.12109375,-38.0859375,-983.88671875,1.0,-1.0,-1.0,0.0,1.m4v,5.0
2024-02-27 14:21:57.297330,1709040117.2973304,-1000.0,-1000.0,-35.64453125,-1000.0,1.0,-1.0,-1.0,0.0,1.m4v,5.0
2024-02-27 14:21:57.301235,1709040117.3012352,-1000.0,-1000.0,-41.9921875,-1000.0,1.0,-1.0,-1.0,0.0,1.m4v,5.0
2024-02-27 14:21:57.305140,1709040117.30514,-1000.0,-1000.0,-32.71484375,-1000.0,1.0,-1.0,-1.0,0.0,1.m4v,5.0
2024-02-27 14:21:57.707461,1709040117.7074614,-1000.0,-1000.0,-41.9921875,-1000.0,1.0,-1.0,-1.0,0.0,1.m4v,5.0
2024-02-27 14:21:57.711366,1709040117.7113664,-1000.0,-1000.0,-22.94921875,-1000.0,1.0,-1.0,-1.0,0.0,1.m4v,5.0
2024-02-27 14:21:57.715271,1709040117.7152712,-1000.0,-1000.0,-20.5078125,-1000.0,1.0,-1.0,-1.0,0.0,1.m4v,5.0
2024-02-27 14:21:57.719176,1709040117.719176,-1000.0,-1000.0,-42.96875,-1000.0,1.0,-1.0,-1.0,0.0,1.m4v,5.0
2024-02-27 14:21:57.723081,1709040117.723081,-955.56640625,-954.1015625,-49.31640625,-947.75390625,1.0,-1.0,-1.0,0.0,1.m4v,5.0
2024-02-27 14:21:57.726986,1709040117.726986,-1000.0,-1000.0,-41.50390625,-1000.0,1.0,-1.0,-1.0,0.0,1.m4v,5.0
2024-02-27 14:21:57.730891,1709040117.7308908,-942.87109375,-930.17578125,-32.71484375,-677.24609375,1.0,-1.0,-1.0,0.0,1.m4v,5.0
2024-02-27 14:21:57.734796,1709040117.7347958,415.52734375,437.98828125,-28.3203125,674.31640625,1.0,-1.0,-1.0,0.0,1.m4v,5.0
2024-02-27 14:21:57.738701,1709040117.7387006,999.51171875,999.51171875,-36.62109375,999.51171875,1.0,-1.0,-1.0,0.0,1.m4v,5.0
2024-02-27 14:21:57.742605,1709040117.7426054,902.34375,902.83203125,-42.96875,912.109375,1.0,-1.0,-1.0,0.0,1.m4v,5.0
2024-02-27 14:21:57.746511,1709040117.7465105,977.5390625,979.00390625,-33.203125,981.4453125,1.0,-1.0,-1.0,0.0,1.m4v,5.0
2024-02-27 14:21:57.750415,1709040117.750415,969.23828125,969.7265625,-11.71875,969.7265625,1.0,-1.0,-1.0,0.0,1.m4v,5.0
2024-02-27 14:21:57.754332,1709040117.7543318,969.23828125,969.7265625,-3.90625,969.7265625,1.0,-1.0,-1.0,0.0,1.m4v,5.0
2024-02-27 14:21:57.758237,1709040117.7582366,969.23828125,969.7265625,-6.8359375,969.7265625,1.0,-1.0,-1.0,0.0,1.m4v,5.0
2024-02-27 14:21:57.762142,1709040117.7621417,969.23828125,969.7265625,-19.53125,969.7265625,1.0,-1.0,-1.0,0.0,1.m4v,5.0
2024-02-27 14:21:57.766047,1709040117.7660463,969.23828125,969.7265625,-26.3671875,969.7265625,1.0,-1.0,-1.0,0.0,1.m4v,5.0
2024-02-27 14:21:57.769951,1709040117.769951,969.23828125,969.7265625,-14.16015625,969.7265625,1.0,-1.0,-1.0,0.0,1.m4v,5.0
2024-02-27 14:21:57.773856,1709040117.7738564,969.23828125,969.7265625,-13.18359375,969.7265625,1.0,-1.0,-1.0,0.0,1.m4v,5.0
2024-02-27 14:21:57.777761,1709040117.7777612,969.23828125,969.7265625,-23.4375,969.7265625,1.0,-1.0,-1.0,0.0,1.m4v,5.0
2024-02-27 14:21:57.781666,1709040117.781666,969.23828125,969.7265625,-32.71484375,969.7265625,1.0,-1.0,-1.0,0.0,1.m4v,5.0
2024-02-27 14:21:57.785571,1709040117.785571,975.09765625,979.00390625,-25.390625,978.515625,1.0,-1.0,-1.0,0.0,1.m4v,5.0
2024-02-27 14:21:57.789476,1709040117.789476,944.3359375,933.10546875,-4.39453125,933.10546875,1.0,-1.0,-1.0,0.0,1.m4v,5.0
2024-02-27 14:21:57.793381,1709040117.7933807,949.21875,978.02734375,-3.41796875,980.95703125,1.0,-1.0,-1.0,0.0,1.m4v,5.0
2024-02-27 14:21:57.797286,1709040117.7972858,999.51171875,967.7734375,-32.71484375,946.77734375,1.0,-1.0,-1.0,0.0,1.m4v,5.0
2024-02-27 14:21:57.801202,1709040117.801202,-189.453125,-345.703125,-44.43359375,-352.5390625,1.0,-1.0,-1.0,0.0,1.m4v,5.0
2024-02-27 14:21:57.805107,1709040117.8051069,-1000.0,-1000.0,-25.87890625,-1000.0,1.0,-1.0,-1.0,0.0,1.m4v,5.0
2024-02-27 14:21:57.809012,1709040117.8090117,-940.91796875,-935.546875,-16.6015625,-938.96484375,1.0,-1.0,-1.0,0.0,1.m4v,5.0
2024-02-27 14:21:57.812917,1709040117.8129168,-999.0234375,-1000.0,-20.99609375,-1000.0,1.0,-1.0,-1.0,0.0,1.m4v,5.0
2024-02-27 14:21:57.816822,1709040117.8168216,-1000.0,-1000.0,-26.85546875,-1000.0,1.0,-1.0,-1.0,0.0,1.m4v,5.0
2024-02-27 14:21:57.820726,1709040117.8207264,-1000.0,-1000.0,-31.73828125,-1000.0,1.0,-1.0,-1.0,0.0,1.m4v,5.0
2024-02-27 14:21:57.824631,1709040117.8246317,-1000.0,-1000.0,-25.87890625,-1000.0,1.0,-1.0,-1.0,0.0,1.m4v,5.0
2024-02-27 14:21:57.828536,1709040117.8285365,-1000.0,-1000.0,-23.92578125,-1000.0,1.0,-1.0,-1.0,0.0,1.m4v,5.0
2024-02-27 14:21:57.832441,1709040117.832441,-1000.0,-1000.0,-26.85546875,-1000.0,1.0,-1.0,-1.0,0.0,1.m4v,5.0
2024-02-27 14:21:57.836346,1709040117.836346,-1000.0,-1000.0,-35.15625,-1000.0,1.0,-1.0,-1.0,0.0,1.m4v,5.0
2024-02-27 14:21:57.840251,1709040117.840251,-1000.0,-1000.0,-49.31640625,-1000.0,1.0,-1.0,-1.0,0.0,1.m4v,5.0
2024-02-27 14:21:57.844156,1709040117.8441558,-1000.0,-1000.0,-40.52734375,-1000.0,1.0,-1.0,-1.0,0.0,1.m4v,5.0
2024-02-27 14:21:57.848071,1709040117.8480709,-1000.0,-1000.0,-23.4375,-1000.0,1.0,-1.0,-1.0,0.0,1.m4v,5.0
2024-02-27 14:21:57.851976,1709040117.8519757,-1000.0,-1000.0,-19.04296875,-1000.0,1.0,-1.0,-1.0,0.0,1.m4v,5.0
2024-02-27 14:21:57.855880,1709040117.8558805,-1000.0,-1000.0,-21.484375,-1000.0,1.0,-1.0,-1.0,0.0,1.m4v,5.0
2024-02-27 14:21:57.859786,1709040117.8597856,-925.78125,-934.5703125,-27.83203125,-926.26953125,1.0,-1.0,-1.0,0.0,1.m4v,5.0
2024-02-27 14:21:57.863690,1709040117.8636904,-1000.0,-1000.0,-32.2265625,-1000.0,1.0,-1.0,-1.0,0.0,1.m4v,5.0
2024-02-27 14:21:57.867595,1709040117.8675952,-538.57421875,-262.20703125,-30.2734375,-506.34765625,1.0,-1.0,-1.0,0.0,1.m4v,5.0
2024-02-27 14:21:57.871500,1709040117.8715005,895.99609375,999.51171875,-28.3203125,913.0859375,1.0,-1.0,-1.0,0.0,1.m4v,5.0
2024-02-27 14:21:57.875405,1709040117.875405,999.51171875,960.44921875,-29.78515625,999.51171875,1.0,-1.0,-1.0,0.0,1.m4v,5.0
2024-02-27 14:21:57.879310,1709040117.87931,916.015625,939.453125,-41.9921875,919.43359375,1.0,-1.0,-1.0,0.0,1.m4v,5.0
2024-02-27 14:21:57.883215,1709040117.883215,984.375,978.02734375,-39.0625,984.375,1.0,-1.0,-1.0,0.0,1.m4v,5.0
2024-02-27 14:21:57.887120,1709040117.8871198,969.23828125,969.7265625,-19.04296875,969.7265625,1.0,-1.0,-1.0,0.0,1.m4v,5.0
2024-02-27 14:21:57.891025,1709040117.8910246,969.23828125,969.7265625,-16.6015625,969.7265625,1.0,-1.0,-1.0,0.0,1.m4v,5.0
2024-02-27 14:21:57.894944,1709040117.8949442,968.75,969.7265625,-26.85546875,969.7265625,1.0,-1.0,-1.0,0.0,1.m4v,5.0
2024-02-27 14:21:57.898849,1709040117.898849,969.23828125,969.7265625,-40.52734375,969.7265625,1.0,-1.0,-1.0,0.0,1.m4v,5.0
2024-02-27 14:21:57.902754,1709040117.9027538,969.23828125,969.7265625,-39.55078125,969.7265625,1.0,-1.0,-1.0,0.0,1.m4v,5.0
2024-02-27 14:21:57.906659,1709040117.906659,968.75,969.7265625,-28.80859375,969.7265625,1.0,-1.0,-1.0,0.0,1.m4v,5.0
2024-02-27 14:21:57.910564,1709040117.9105637,968.75,969.7265625,-23.92578125,969.7265625,1.0,-1.0,-1.0,0.0,1.m4v,5.0
2024-02-27 14:21:57.914469,1709040117.9144683,968.75,969.7265625,-21.97265625,969.7265625,1.0,-1.0,-1.0,0.0,1.m4v,5.0
2024-02-27 14:21:57.918374,1709040117.9183736,969.23828125,969.7265625,-28.80859375,969.7265625,1.0,-1.0,-1.0,0.0,1.m4v,5.0
2024-02-27 14:21:57.922278,1709040117.9222784,969.23828125,969.7265625,-39.55078125,969.7265625,1.0,-1.0,-1.0,0.0,1.m4v,5.0
2024-02-27 14:21:57.926183,1709040117.9261832,975.5859375,977.5390625,-40.52734375,979.00390625,1.0,-1.0,-1.0,0.0,1.m4v,5.0
2024-02-27 14:21:57.930088,1709040117.9300883,942.87109375,937.98828125,-28.3203125,928.7109375,1.0,-1.0,-1.0,0.0,1.m4v,5.0
2024-02-27 14:21:57.933993,1709040117.933993,951.66015625,965.33203125,-18.5546875,991.2109375,1.0,-1.0,-1.0,0.0,1.m4v,5.0
2024-02-27 14:21:57.937898,1709040117.937898,999.51171875,999.51171875,-28.3203125,909.1796875,1.0,-1.0,-1.0,0.0,1.m4v,5.0
2024-02-27 14:21:57.941817,1709040117.9418168,-205.56640625,-279.296875,-38.57421875,-407.2265625,1.0,-1.0,-1.0,0.0,1.m4v,5.0
2024-02-27 14:21:57.945722,1709040117.9457216,-1000.0,-1000.0,-34.1796875,-1000.0,1.0,-1.0,-1.0,0.0,1.m4v,5.0
2024-02-27 14:21:57.949627,1709040117.9496267,-940.4296875,-937.5,-23.4375,-938.96484375,1.0,-1.0,-1.0,0.0,1.m4v,5.0
2024-02-27 14:21:57.953532,1709040117.9535315,-999.51171875,-1000.0,-29.296875,-1000.0,1.0,-1.0,-1.0,0.0,1.m4v,5.0
2024-02-27 14:21:57.957436,1709040117.9574363,-1000.0,-1000.0,-35.64453125,-1000.0,1.0,-1.0,-1.0,0.0,1.m4v,5.0
2024-02-27 14:21:57.961341,1709040117.9613414,-1000.0,-1000.0,-27.83203125,-1000.0,1.0,-1.0,-1.0,0.0,1.m4v,5.0
2024-02-27 14:21:57.965246,1709040117.9652462,-1000.0,-1000.0,-15.625,-1000.0,1.0,-1.0,-1.0,0.0,1.m4v,5.0
2024-02-27 14:21:57.969151,1709040117.969151,-1000.0,-1000.0,0.9765625,-1000.0,1.0,-1.0,-1.0,0.0,1.m4v,5.0
2024-02-27 14:21:57.973056,1709040117.973056,-1000.0,-1000.0,0.48828125,-1000.0,1.0,-1.0,-1.0,0.0,1.m4v,5.0
2024-02-27 14:21:57.976961,1709040117.976961,-1000.0,-1000.0,-22.4609375,-1000.0,1.0,-1.0,-1.0,0.0,1.m4v,5.0
2024-02-27 14:21:57.980866,1709040117.9808657,-1000.0,-1000.0,-34.66796875,-1000.0,1.0,-1.0,-1.0,0.0,1.m4v,5.0
2024-02-27 14:21:57.984771,1709040117.9847708,-1000.0,-1000.0,-30.2734375,-1000.0,1.0,-1.0,-1.0,0.0,1.m4v,5.0
2024-02-27 14:21:57.988689,1709040117.9886892,-1000.0,-1000.0,-26.3671875,-1000.0,1.0,-1.0,-1.0,0.0,1.m4v,5.0
2024-02-27 14:21:57.992594,1709040117.992594,-1000.0,-1000.0,-25.87890625,-1000.0,1.0,-1.0,-1.0,0.0,1.m4v,5.0
2024-02-27 14:21:57.996499,1709040117.996499,-1000.0,-1000.0,-20.5078125,-1000.0,1.0,-1.0,-1.0,0.0,1.m4v,5.0
2024-02-27 14:21:58.000404,1709040118.000404,-926.26953125,-929.19921875,-17.578125,-926.7578125,1.0,-1.0,-1.0,0.0,1.m4v,5.0
2024-02-27 14:21:58.004309,1709040118.0043087,-1000.0,-1000.0,-26.3671875,-1000.0,1.0,-1.0,-1.0,0.0,1.m4v,5.0
2024-02-27 14:21:58.008214,1709040118.0082138,-584.9609375,-385.7421875,-31.73828125,-534.1796875,1.0,-1.0,-1.0,0.0,1.m4v,5.0
2024-02-27 14:21:58.012119,1709040118.0121186,861.81640625,975.09765625,-20.01953125,893.06640625,1.0,-1.0,-1.0,0.0,1.m4v,5.0
2024-02-27 14:21:58.016023,1709040118.0160234,999.51171875,982.421875,-28.3203125,999.51171875,1.0,-1.0,-1.0,0.0,1.m4v,5.0
2024-02-27 14:21:58.019928,1709040118.0199285,912.59765625,929.19921875,-43.45703125,917.48046875,1.0,-1.0,-1.0,0.0,1.m4v,5.0
2024-02-27 14:21:58.023833,1709040118.0238333,984.86328125,980.95703125,-34.66796875,984.375,1.0,-1.0,-1.0,0.0,1.m4v,5.0
2024-02-27 14:21:58.027738,1709040118.027738,969.23828125,969.7265625,-20.99609375,969.7265625,1.0,-1.0,-1.0,0.0,1.m4v,5.0
2024-02-27 14:21:58.031643,1709040118.0316432,969.23828125,969.7265625,-14.16015625,969.7265625,1.0,-1.0,-1.0,0.0,1.m4v,5.0
2024-02-27 14:21:58.035561,1709040118.035561,969.23828125,969.7265625,-15.625,970.21484375,1.0,-1.0,-1.0,0.0,1.m4v,5.0
2024-02-27 14:21:58.039466,1709040118.039466,969.23828125,969.7265625,-28.80859375,969.7265625,1.0,-1.0,-1.0,0.0,1.m4v,5.0
2024-02-27 14:21:58.043371,1709040118.043371,969.23828125,969.7265625,-24.90234375,969.7265625,1.0,-1.0,-1.0,0.0,1.m4v,5.0
2024-02-27 14:21:58.047276,1709040118.0472758,969.23828125,969.7265625,-16.6015625,969.7265625,1.0,-1.0,-1.0,0.0,1.m4v,5.0
2024-02-27 14:21:58.051181,1709040118.0511806,968.75,969.7265625,-27.83203125,969.7265625,1.0,-1.0,-1.0,0.0,1.m4v,5.0
2024-02-27 14:21:58.055086,1709040118.0550857,969.23828125,969.7265625,-21.484375,969.7265625,1.0,-1.0,-1.0,0.0,1.m4v,5.0
2024-02-27 14:21:58.058990,1709040118.0589905,969.23828125,969.7265625,-24.4140625,969.7265625,1.0,-1.0,-1.0,0.0,1.m4v,5.0
2024-02-27 14:21:58.062895,1709040118.0628953,968.75,969.7265625,-31.25,969.7265625,1.0,-1.0,-1.0,0.0,1.m4v,5.0
2024-02-27 14:21:58.066800,1709040118.0668004,972.16796875,973.6328125,-18.5546875,976.5625,1.0,-1.0,-1.0,0.0,1.m4v,5.0
2024-02-27 14:21:58.070705,1709040118.0707052,952.63671875,952.1484375,-13.671875,940.4296875,1.0,-1.0,-1.0,0.0,1.m4v,5.0
2024-02-27 14:21:58.074610,1709040118.07461,932.6171875,936.5234375,-12.6953125,963.8671875,1.0,-1.0,-1.0,0.0,1.m4v,5.0
2024-02-27 14:21:58.078515,1709040118.078515,999.51171875,999.51171875,-16.6015625,989.74609375,1.0,-1.0,-1.0,0.0,1.m4v,5.0
2024-02-27 14:21:58.082432,1709040118.082432,-71.2890625,-92.28515625,-26.85546875,-246.09375,1.0,-1.0,-1.0,0.0,1.m4v,5.0
2024-02-27 14:21:58.086337,1709040118.086337,-1000.0,-1000.0,-28.3203125,-1000.0,1.0,-1.0,-1.0,0.0,1.m4v,5.0
2024-02-27 14:21:58.090242,1709040118.090242,-951.171875,-949.70703125,-12.20703125,-944.82421875,1.0,-1.0,-1.0,0.0,1.m4v,5.0
2024-02-27 14:21:58.094147,1709040118.0941467,-991.69921875,-993.1640625,-12.6953125,-999.0234375,1.0,-1.0,-1.0,0.0,1.m4v,5.0
2024-02-27 14:21:58.098052,1709040118.0980518,-1000.0,-1000.0,-25.87890625,-1000.0,1.0,-1.0,-1.0,0.0,1.m4v,5.0
2024-02-27 14:21:58.101957,1709040118.1019566,-1000.0,-1000.0,-19.53125,-1000.0,1.0,-1.0,-1.0,0.0,1.m4v,5.0
2024-02-27 14:21:58.105861,1709040118.1058614,-1000.0,-1000.0,-14.6484375,-1000.0,1.0,-1.0,-1.0,0.0,1.m4v,5.0
2024-02-27 14:21:58.109766,1709040118.1097665,-1000.0,-1000.0,-25.390625,-1000.0,1.0,-1.0,-1.0,0.0,1.m4v,5.0
2024-02-27 14:21:58.113671,1709040118.1136713,-1000.0,-1000.0,-15.625,-1000.0,1.0,-1.0,-1.0,0.0,1.m4v,5.0
2024-02-27 14:21:58.117576,1709040118.117576,-1000.0,-1000.0,-20.01953125,-1000.0,1.0,-1.0,-1.0,0.0,1.m4v,5.0
2024-02-27 14:21:58.121481,1709040118.1214812,-1000.0,-1000.0,-34.1796875,-1000.0,1.0,-1.0,-1.0,0.0,1.m4v,5.0
2024-02-27 14:21:58.125386,1709040118.125386,-1000.0,-1000.0,-33.203125,-1000.0,1.0,-1.0,-1.0,0.0,1.m4v,5.0
2024-02-27 14:21:58.129303,1709040118.1293025,-1000.0,-1000.0,-25.390625,-1000.0,1.0,-1.0,-1.0,0.0,1.m4v,5.0
2024-02-27 14:21:58.133208,1709040118.1332076,-1000.0,-1000.0,-20.99609375,-1000.0,1.0,-1.0,-1.0,0.0,1.m4v,5.0
2024-02-27 14:21:58.137112,1709040118.1371124,-1000.0,-1000.0,-23.92578125,-1000.0,1.0,-1.0,-1.0,0.0,1.m4v,5.0
2024-02-27 14:21:58.141017,1709040118.1410172,-926.26953125,-932.12890625,-29.78515625,-929.19921875,1.0,-1.0,-1.0,0.0,1.m4v,5.0
2024-02-27 14:21:58.144922,1709040118.1449225,-1000.0,-1000.0,-34.1796875,-1000.0,1.0,-1.0,-1.0,0.0,1.m4v,5.0
2024-02-27 14:21:58.148827,1709040118.148827,-460.9375,-312.01171875,-25.390625,-398.4375,1.0,-1.0,-1.0,0.0,1.m4v,5.0
2024-02-27 14:21:58.152732,1709040118.152732,940.91796875,999.51171875,-26.3671875,968.75,1.0,-1.0,-1.0,0.0,1.m4v,5.0
2024-02-27 14:21:58.156637,1709040118.156637,995.1171875,968.75,-37.59765625,984.86328125,1.0,-1.0,-1.0,0.0,1.m4v,5.0
2024-02-27 14:21:58.160542,1709040118.1605418,922.36328125,935.546875,-46.875,928.22265625,1.0,-1.0,-1.0,0.0,1.m4v,5.0
2024-02-27 14:21:58.164447,1709040118.1644466,982.421875,979.4921875,-49.8046875,981.4453125,1.0,-1.0,-1.0,0.0,1.m4v,5.0
2024-02-27 14:21:58.168352,1709040118.1683517,968.75,969.7265625,-31.25,969.7265625,1.0,-1.0,-1.0,0.0,1.m4v,5.0
2024-02-27 14:21:58.172256,1709040118.1722565,968.75,969.7265625,-23.4375,969.7265625,1.0,-1.0,-1.0,0.0,1.m4v,5.0
2024-02-27 14:21:58.176172,1709040118.1761725,968.75,969.7265625,-31.25,969.7265625,1.0,-1.0,-1.0,0.0,1.m4v,5.0
2024-02-27 14:21:58.180077,1709040118.1800773,969.23828125,969.7265625,-32.71484375,970.21484375,1.0,-1.0,-1.0,0.0,1.m4v,5.0
2024-02-27 14:21:58.183982,1709040118.183982,969.23828125,970.21484375,-28.80859375,970.21484375,1.0,-1.0,-1.0,0.0,1.m4v,5.0
2024-02-27 14:21:58.187887,1709040118.1878872,969.23828125,969.7265625,-17.08984375,969.7265625,1.0,-1.0,-1.0,0.0,1.m4v,5.0
2024-02-27 14:21:58.191792,1709040118.191792,969.23828125,969.7265625,-15.625,969.7265625,1.0,-1.0,-1.0,0.0,1.m4v,5.0
2024-02-27 14:21:58.195697,1709040118.1956968,969.23828125,969.7265625,-14.6484375,969.7265625,1.0,-1.0,-1.0,0.0,1.m4v,5.0
2024-02-27 14:21:58.199602,1709040118.199602,969.23828125,969.7265625,-15.13671875,969.7265625,1.0,-1.0,-1.0,0.0,1.m4v,5.0
2024-02-27 14:21:58.203507,1709040118.2035067,969.23828125,969.7265625,-17.578125,969.7265625,1.0,-1.0,-1.0,0.0,1.m4v,5.0
2024-02-27 14:21:58.207412,1709040118.2074115,984.375,981.93359375,-6.8359375,982.421875,1.0,-1.0,-1.0,0.0,1.m4v,5.0
2024-02-27 14:21:58.211317,1709040118.2113166,895.5078125,896.484375,-1.953125,896.97265625,1.0,-1.0,-1.0,0.0,1.m4v,5.0
2024-02-27 14:21:58.215221,1709040118.2152214,999.51171875,999.51171875,-13.671875,999.51171875,1.0,-1.0,-1.0,0.0,1.m4v,5.0
2024-02-27 14:21:58.219126,1709040118.2191262,558.10546875,445.80078125,-28.80859375,479.4921875,1.0,-1.0,-1.0,0.0,1.m4v,5.0
2024-02-27 14:21:58.223042,1709040118.223042,-888.671875,-960.44921875,-24.90234375,-933.10546875,1.0,-1.0,-1.0,0.0,1.m4v,5.0
2024-02-27 14:21:58.226947,1709040118.226947,-1000.0,-1000.0,-15.13671875,-1000.0,1.0,-1.0,-1.0,0.0,1.m4v,5.0
2024-02-27 14:21:58.230852,1709040118.230852,-943.84765625,-952.1484375,-19.53125,-949.70703125,1.0,-1.0,-1.0,0.0,1.m4v,5.0
2024-02-27 14:21:58.234757,1709040118.2347567,-1000.0,-1000.0,-25.390625,-1000.0,1.0,-1.0,-1.0,0.0,1.m4v,5.0
2024-02-27 14:21:58.238662,1709040118.2386618,-1000.0,-1000.0,-21.484375,-1000.0,1.0,-1.0,-1.0,0.0,1.m4v,5.0
2024-02-27 14:21:58.242567,1709040118.2425666,-1000.0,-1000.0,-20.01953125,-1000.0,1.0,-1.0,-1.0,0.0,1.m4v,5.0
2024-02-27 14:21:58.246471,1709040118.2464714,-1000.0,-1000.0,-28.80859375,-1000.0,1.0,-1.0,-1.0,0.0,1.m4v,5.0
2024-02-27 14:21:58.250376,1709040118.2503765,-1000.0,-1000.0,-26.3671875,-1000.0,1.0,-1.0,-1.0,0.0,1.m4v,5.0
2024-02-27 14:21:58.254281,1709040118.2542813,-1000.0,-1000.0,-21.97265625,-1000.0,1.0,-1.0,-1.0,0.0,1.m4v,5.0
2024-02-27 14:21:58.258186,1709040118.258186,-1000.0,-1000.0,-21.97265625,-1000.0,1.0,-1.0,-1.0,0.0,1.m4v,5.0
2024-02-27 14:21:58.262091,1709040118.2620912,-1000.0,-1000.0,-22.94921875,-1000.0,1.0,-1.0,-1.0,0.0,1.m4v,5.0
2024-02-27 14:21:58.265996,1709040118.265996,-1000.0,-937.01171875,-30.76171875,-1000.0,1.0,-1.0,-1.0,0.0,1.m4v,5.0
2024-02-27 14:21:58.269916,1709040118.269916,-936.5234375,-1000.0,-34.1796875,-952.63671875,1.0,-1.0,-1.0,0.0,1.m4v,5.0
2024-02-27 14:21:58.273821,1709040118.2738209,-1000.0,-662.109375,-25.87890625,-1000.0,1.0,-1.0,-1.0,0.0,1.m4v,5.0
2024-02-27 14:21:58.277726,1709040118.277726,-254.39453125,736.328125,-20.5078125,-868.65234375,1.0,-1.0,-1.0,0.0,1.m4v,5.0
2024-02-27 14:21:58.281631,1709040118.2816308,999.51171875,999.51171875,-21.97265625,476.5625,1.0,-1.0,-1.0,0.0,1.m4v,5.0
2024-02-27 14:21:58.285536,1709040118.2855356,958.984375,913.0859375,-19.04296875,999.51171875,1.0,-1.0,-1.0,0.0,1.m4v,5.0
2024-02-27 14:21:58.289441,1709040118.2894406,938.96484375,981.93359375,-16.11328125,908.69140625,1.0,-1.0,-1.0,0.0,1.m4v,5.0
2024-02-27 14:21:58.738633,1709040118.738633,-1000.0,-1000.0,79.58984375,-1000.0,1.0,-1.0,-1.0,0.0,1.m4v,5.0
2024-02-27 14:21:58.742538,1709040118.7425375,-1000.0,-1000.0,68.359375,-1000.0,1.0,-1.0,-1.0,0.0,1.m4v,5.0
2024-02-27 14:21:58.746443,1709040118.7464426,-1000.0,-959.9609375,70.3125,-1000.0,1.0,-1.0,-1.0,0.0,1.m4v,5.0
2024-02-27 14:21:58.750347,1709040118.7503474,-938.4765625,-1000.0,69.3359375,-929.19921875,1.0,-1.0,-1.0,0.0,1.m4v,5.0
2024-02-27 14:21:58.754252,1709040118.7542524,-1000.0,-951.66015625,69.82421875,-1000.0,1.0,-1.0,-1.0,0.0,1.m4v,5.0
2024-02-27 14:21:58.758157,1709040118.7581573,-213.37890625,367.1875,64.453125,-520.5078125,1.0,-1.0,-1.0,0.0,1.m4v,5.0
2024-02-27 14:21:58.762062,1709040118.762062,999.51171875,999.51171875,44.921875,886.23046875,1.0,-1.0,-1.0,0.0,1.m4v,5.0
2024-02-27 14:21:58.765967,1709040118.7659671,952.1484375,907.71484375,39.0625,999.51171875,1.0,-1.0,-1.0,0.0,1.m4v,5.0
2024-02-27 14:21:58.769872,1709040118.769872,942.3828125,975.09765625,52.734375,918.9453125,1.0,-1.0,-1.0,0.0,1.m4v,5.0
2024-02-27 14:21:58.773777,1709040118.7737768,975.5859375,970.21484375,62.98828125,983.3984375,1.0,-1.0,-1.0,0.0,1.m4v,5.0
2024-02-27 14:21:58.777682,1709040118.7776818,969.23828125,969.7265625,55.17578125,969.7265625,1.0,-1.0,-1.0,0.0,1.m4v,5.0
2024-02-27 14:21:58.781587,1709040118.7815866,969.23828125,970.21484375,42.96875,969.7265625,1.0,-1.0,-1.0,0.0,1.m4v,5.0
2024-02-27 14:21:58.785504,1709040118.7855043,969.23828125,970.21484375,41.50390625,969.7265625,1.0,-1.0,-1.0,0.0,1.m4v,5.0
2024-02-27 14:21:58.789409,1709040118.7894092,969.23828125,970.21484375,43.45703125,969.7265625,1.0,-1.0,-1.0,0.0,1.m4v,5.0
2024-02-27 14:21:58.793314,1709040118.7933142,969.23828125,969.7265625,40.52734375,969.7265625,1.0,-1.0,-1.0,0.0,1.m4v,5.0
2024-02-27 14:21:58.797219,1709040118.797219,969.23828125,969.7265625,32.71484375,970.21484375,1.0,-1.0,-1.0,0.0,1.m4v,5.0
2024-02-27 14:21:58.801124,1709040118.801124,969.23828125,970.21484375,25.390625,969.7265625,1.0,-1.0,-1.0,0.0,1.m4v,5.0
2024-02-27 14:21:58.805029,1709040118.805029,969.7265625,970.21484375,40.0390625,970.703125,1.0,-1.0,-1.0,0.0,1.m4v,5.0
2024-02-27 14:21:58.808934,1709040118.8089335,969.7265625,970.703125,40.0390625,965.33203125,1.0,-1.0,-1.0,0.0,1.m4v,5.0
2024-02-27 14:21:58.812839,1709040118.8128386,906.25,907.2265625,21.97265625,915.52734375,1.0,-1.0,-1.0,0.0,1.m4v,5.0
2024-02-27 14:21:58.816744,1709040118.8167436,999.51171875,999.51171875,11.23046875,999.51171875,1.0,-1.0,-1.0,0.0,1.m4v,5.0
2024-02-27 14:21:58.820648,1709040118.8206484,188.4765625,188.96484375,11.23046875,111.328125,1.0,-1.0,-1.0,0.0,1.m4v,5.0
2024-02-27 14:21:58.824553,1709040118.8245533,-1000.0,-1000.0,21.484375,-1000.0,1.0,-1.0,-1.0,0.0,1.m4v,5.0
2024-02-27 14:21:58.828458,1709040118.8284583,-983.88671875,-983.88671875,27.83203125,-974.609375,1.0,-1.0,-1.0,0.0,1.m4v,5.0
2024-02-27 14:21:58.832375,1709040118.8323753,-973.14453125,-973.14453125,28.80859375,-978.515625,1.0,-1.0,-1.0,0.0,1.m4v,5.0
2024-02-27 14:21:58.836280,1709040118.83628,-1000.0,-1000.0,6.34765625,-1000.0,1.0,-1.0,-1.0,0.0,1.m4v,5.0
2024-02-27 14:21:58.840185,1709040118.8401852,-1000.0,-1000.0,-11.23046875,-1000.0,1.0,-1.0,-1.0,0.0,1.m4v,5.0
2024-02-27 14:21:58.844090,1709040118.84409,-1000.0,-1000.0,-0.9765625,-1000.0,1.0,-1.0,-1.0,0.0,1.m4v,5.0
2024-02-27 14:21:58.847995,1709040118.8479948,-1000.0,-1000.0,8.30078125,-1000.0,1.0,-1.0,-1.0,0.0,1.m4v,5.0
2024-02-27 14:21:58.851900,1709040118.8519,-1000.0,-1000.0,9.27734375,-1000.0,1.0,-1.0,-1.0,0.0,1.m4v,5.0
2024-02-27 14:21:58.855805,1709040118.8558047,-1000.0,-1000.0,0.9765625,-1000.0,1.0,-1.0,-1.0,0.0,1.m4v,5.0
2024-02-27 14:21:58.859710,1709040118.8597095,-1000.0,-1000.0,-17.578125,-1000.0,1.0,-1.0,-1.0,0.0,1.m4v,5.0
2024-02-27 14:21:58.863615,1709040118.8636146,-1000.0,-1000.0,-17.578125,-1000.0,1.0,-1.0,-1.0,0.0,1.m4v,5.0
2024-02-27 14:21:58.867519,1709040118.8675194,-1000.0,-1000.0,-2.9296875,-1000.0,1.0,-1.0,-1.0,0.0,1.m4v,5.0
2024-02-27 14:21:58.871424,1709040118.8714242,-1000.0,-1000.0,1.46484375,-1000.0,1.0,-1.0,-1.0,0.0,1.m4v,5.0
2024-02-27 14:21:58.875329,1709040118.8753293,-1000.0,-1000.0,-3.41796875,-1000.0,1.0,-1.0,-1.0,0.0,1.m4v,5.0
2024-02-27 14:21:58.879246,1709040118.879246,-1000.0,-1000.0,-16.6015625,-1000.0,1.0,-1.0,-1.0,0.0,1.m4v,5.0
2024-02-27 14:21:58.883151,1709040118.883151,-926.7578125,-925.78125,-24.4140625,-930.17578125,1.0,-1.0,-1.0,0.0,1.m4v,5.0
2024-02-27 14:21:58.887056,1709040118.887056,-1000.0,-1000.0,-19.53125,-1000.0,1.0,-1.0,-1.0,0.0,1.m4v,5.0
2024-02-27 14:21:58.890961,1709040118.8909607,-458.49609375,-511.71875,-12.20703125,-378.90625,1.0,-1.0,-1.0,0.0,1.m4v,5.0
2024-02-27 14:21:58.894866,1709040118.8948658,941.40625,913.0859375,-16.6015625,975.5859375,1.0,-1.0,-1.0,0.0,1.m4v,5.0
2024-02-27 14:21:58.898771,1709040118.8987706,995.1171875,999.51171875,-10.25390625,981.4453125,1.0,-1.0,-1.0,0.0,1.m4v,5.0
2024-02-27 14:21:58.902676,1709040118.9026756,922.36328125,918.9453125,-18.06640625,929.6875,1.0,-1.0,-1.0,0.0,1.m4v,5.0
2024-02-27 14:21:58.906580,1709040118.9065804,982.421875,984.375,-30.2734375,980.95703125,1.0,-1.0,-1.0,0.0,1.m4v,5.0
2024-02-27 14:21:58.910485,1709040118.9104853,969.23828125,969.7265625,-10.25390625,969.7265625,1.0,-1.0,-1.0,0.0,1.m4v,5.0
2024-02-27 14:21:58.914390,1709040118.9143903,969.23828125,969.7265625,-3.41796875,969.7265625,1.0,-1.0,-1.0,0.0,1.m4v,5.0
2024-02-27 14:21:58.918295,1709040118.9182951,969.23828125,970.21484375,-6.8359375,969.7265625,1.0,-1.0,-1.0,0.0,1.m4v,5.0
2024-02-27 14:21:58.922200,1709040118.9222,969.23828125,969.7265625,-13.671875,969.7265625,1.0,-1.0,-1.0,0.0,1.m4v,5.0
2024-02-27 14:21:58.926116,1709040118.926116,968.75,969.7265625,-12.20703125,969.7265625,1.0,-1.0,-1.0,0.0,1.m4v,5.0
2024-02-27 14:21:58.930021,1709040118.9300208,969.23828125,969.7265625,1.953125,969.7265625,1.0,-1.0,-1.0,0.0,1.m4v,5.0
2024-02-27 14:21:58.933926,1709040118.933926,969.23828125,970.21484375,5.859375,969.7265625,1.0,-1.0,-1.0,0.0,1.m4v,5.0
2024-02-27 14:21:58.937831,1709040118.9378307,969.23828125,969.7265625,-8.7890625,969.7265625,1.0,-1.0,-1.0,0.0,1.m4v,5.0
2024-02-27 14:21:58.941736,1709040118.9417355,968.75,969.7265625,-16.6015625,969.7265625,1.0,-1.0,-1.0,0.0,1.m4v,5.0
2024-02-27 14:21:58.945641,1709040118.9456406,969.23828125,970.21484375,-0.9765625,971.19140625,1.0,-1.0,-1.0,0.0,1.m4v,5.0
2024-02-27 14:21:58.949545,1709040118.9495454,969.7265625,970.703125,0.9765625,963.8671875,1.0,-1.0,-1.0,0.0,1.m4v,5.0
2024-02-27 14:21:58.953450,1709040118.9534502,906.25,907.2265625,-11.23046875,918.45703125,1.0,-1.0,-1.0,0.0,1.m4v,5.0
2024-02-27 14:21:58.957355,1709040118.9573553,999.51171875,999.51171875,-15.13671875,999.51171875,1.0,-1.0,-1.0,0.0,1.m4v,5.0
2024-02-27 14:21:58.961260,1709040118.96126,188.4765625,188.96484375,-11.71875,84.9609375,1.0,-1.0,-1.0,0.0,1.m4v,5.0
2024-02-27 14:21:58.965165,1709040118.965165,-1000.0,-1000.0,-17.578125,-1000.0,1.0,-1.0,-1.0,0.0,1.m4v,5.0
2024-02-27 14:21:58.969070,1709040118.96907,-983.88671875,-983.88671875,-20.01953125,-971.6796875,1.0,-1.0,-1.0,0.0,1.m4v,5.0
2024-02-27 14:21:58.972990,1709040118.97299,-973.14453125,-973.14453125,-18.06640625,-979.98046875,1.0,-1.0,-1.0,0.0,1.m4v,5.0
2024-02-27 14:21:58.976895,1709040118.9768949,-1000.0,-1000.0,-22.4609375,-1000.0,1.0,-1.0,-1.0,0.0,1.m4v,5.0
2024-02-27 14:21:58.980800,1709040118.9807997,-1000.0,-1000.0,-15.13671875,-1000.0,1.0,-1.0,-1.0,0.0,1.m4v,5.0
2024-02-27 14:21:58.984705,1709040118.9847047,-1000.0,-1000.0,-8.30078125,-1000.0,1.0,-1.0,-1.0,0.0,1.m4v,5.0
2024-02-27 14:21:58.988610,1709040118.9886096,-1000.0,-1000.0,-11.23046875,-1000.0,1.0,-1.0,-1.0,0.0,1.m4v,5.0
2024-02-27 14:21:58.992514,1709040118.9925144,-1000.0,-1000.0,-10.7421875,-1000.0,1.0,-1.0,-1.0,0.0,1.m4v,5.0
2024-02-27 14:21:58.996419,1709040118.9964194,-1000.0,-1000.0,-15.625,-1000.0,1.0,-1.0,-1.0,0.0,1.m4v,5.0
2024-02-27 14:21:59.000324,1709040119.0003242,-1000.0,-1000.0,-23.92578125,-1000.0,1.0,-1.0,-1.0,0.0,1.m4v,5.0
2024-02-27 14:21:59.004229,1709040119.004229,-1000.0,-1000.0,-21.484375,-1000.0,1.0,-1.0,-1.0,0.0,1.m4v,5.0
2024-02-27 14:21:59.008134,1709040119.008134,-1000.0,-1000.0,-10.7421875,-1000.0,1.0,-1.0,-1.0,0.0,1.m4v,5.0
2024-02-27 14:21:59.012039,1709040119.012039,-1000.0,-1000.0,-10.7421875,-1000.0,1.0,-1.0,-1.0,0.0,1.m4v,5.0
2024-02-27 14:21:59.015944,1709040119.0159438,-1000.0,-1000.0,-22.94921875,-1000.0,1.0,-1.0,-1.0,0.0,1.m4v,5.0
2024-02-27 14:21:59.019863,1709040119.0198634,-1000.0,-1000.0,-26.85546875,-993.65234375,1.0,-1.0,-1.0,0.0,1.m4v,5.0
2024-02-27 14:21:59.023768,1709040119.0237682,-938.4765625,-937.5,-17.08984375,-949.70703125,1.0,-1.0,-1.0,0.0,1.m4v,5.0
2024-02-27 14:21:59.027673,1709040119.027673,-1000.0,-1000.0,-22.4609375,-1000.0,1.0,-1.0,-1.0,0.0,1.m4v,5.0
2024-02-27 14:21:59.031578,1709040119.031578,-210.44921875,-219.23828125,-19.04296875,-104.00390625,1.0,-1.0,-1.0,0.0,1.m4v,5.0
2024-02-27 14:21:59.035483,1709040119.035483,999.51171875,999.51171875,-16.11328125,999.51171875,1.0,-1.0,-1.0,0.0,1.m4v,5.0
2024-02-27 14:21:59.039388,1709040119.0393877,951.171875,953.61328125,-29.78515625,939.94140625,1.0,-1.0,-1.0,0.0,1.m4v,5.0
2024-02-27 14:21:59.043293,1709040119.0432928,942.3828125,942.87109375,-29.296875,950.68359375,1.0,-1.0,-1.0,0.0,1.m4v,5.0
2024-02-27 14:21:59.047198,1709040119.0471976,975.5859375,976.5625,-11.71875,974.609375,1.0,-1.0,-1.0,0.0,1.m4v,5.0
2024-02-27 14:21:59.051102,1709040119.0511024,969.23828125,969.7265625,-3.90625,969.7265625,1.0,-1.0,-1.0,0.0,1.m4v,5.0
2024-02-27 14:21:59.055007,1709040119.0550077,969.23828125,969.7265625,-17.578125,969.7265625,1.0,-1.0,-1.0,0.0,1.m4v,5.0
2024-02-27 14:21:59.058912,1709040119.0589125,969.23828125,969.7265625,-24.4140625,969.7265625,1.0,-1.0,-1.0,0.0,1.m4v,5.0
2024-02-27 14:21:59.062817,1709040119.062817,969.23828125,969.7265625,-19.53125,969.7265625,1.0,-1.0,-1.0,0.0,1.m4v,5.0
2024-02-27 14:21:59.066736,1709040119.0667355,969.23828125,969.7265625,-12.6953125,970.21484375,1.0,-1.0,-1.0,0.0,1.m4v,5.0
2024-02-27 14:21:59.070641,1709040119.0706406,983.88671875,985.3515625,-8.7890625,977.5390625,1.0,-1.0,-1.0,0.0,1.m4v,5.0
2024-02-27 14:21:59.074545,1709040119.0745454,897.4609375,904.78515625,-14.6484375,901.3671875,1.0,-1.0,-1.0,0.0,1.m4v,5.0
2024-02-27 14:21:59.078450,1709040119.0784502,999.51171875,999.51171875,-21.97265625,999.51171875,1.0,-1.0,-1.0,0.0,1.m4v,5.0
2024-02-27 14:21:59.082355,1709040119.0823553,580.078125,703.125,-11.23046875,351.07421875,1.0,-1.0,-1.0,0.0,1.m4v,5.0
2024-02-27 14:21:59.086260,1709040119.08626,-861.81640625,-736.328125,2.44140625,-998.046875,1.0,-1.0,-1.0,0.0,1.m4v,5.0
2024-02-27 14:21:59.090165,1709040119.090165,-1000.0,-1000.0,-3.41796875,-1000.0,1.0,-1.0,-1.0,0.0,1.m4v,5.0
2024-02-27 14:21:59.094070,1709040119.09407,-942.87109375,-937.01171875,-14.6484375,-959.9609375,1.0,-1.0,-1.0,0.0,1.m4v,5.0
2024-02-27 14:21:59.097975,1709040119.0979748,-1000.0,-1000.0,-22.4609375,-1000.0,1.0,-1.0,-1.0,0.0,1.m4v,5.0
2024-02-27 14:21:59.101880,1709040119.1018796,-1000.0,-1000.0,-33.69140625,-1000.0,1.0,-1.0,-1.0,0.0,1.m4v,5.0
2024-02-27 14:21:59.105785,1709040119.105785,-1000.0,-1000.0,-34.66796875,-1000.0,1.0,-1.0,-1.0,0.0,1.m4v,5.0
2024-02-27 14:21:59.109689,1709040119.1096897,-1000.0,-1000.0,-17.578125,-1000.0,1.0,-1.0,-1.0,0.0,1.m4v,5.0
2024-02-27 14:21:59.113608,1709040119.1136084,-1000.0,-1000.0,-1.953125,-1000.0,1.0,-1.0,-1.0,0.0,1.m4v,5.0
2024-02-27 14:21:59.117513,1709040119.1175132,-1000.0,-1000.0,-11.23046875,-1000.0,1.0,-1.0,-1.0,0.0,1.m4v,5.0
2024-02-27 14:21:59.121418,1709040119.1214182,-1000.0,-1000.0,-24.4140625,-1000.0,1.0,-1.0,-1.0,0.0,1.m4v,5.0
2024-02-27 14:21:59.125323,1709040119.125323,-1000.0,-1000.0,-15.13671875,-1000.0,1.0,-1.0,-1.0,0.0,1.m4v,5.0
2024-02-27 14:21:59.129228,1709040119.129228,-1000.0,-1000.0,0.0,-1000.0,1.0,-1.0,-1.0,0.0,1.m4v,5.0
2024-02-27 14:21:59.133133,1709040119.133133,-1000.0,-1000.0,-8.7890625,-1000.0,1.0,-1.0,-1.0,0.0,1.m4v,5.0
2024-02-27 14:21:59.137038,1709040119.1370378,-1000.0,-1000.0,-25.87890625,-1000.0,1.0,-1.0,-1.0,0.0,1.m4v,5.0
2024-02-27 14:21:59.140943,1709040119.1409426,-995.1171875,-997.55859375,-36.1328125,-984.86328125,1.0,-1.0,-1.0,0.0,1.m4v,5.0
2024-02-27 14:21:59.144848,1709040119.1448476,-946.2890625,-942.87109375,-41.015625,-965.8203125,1.0,-1.0,-1.0,0.0,1.m4v,5.0
2024-02-27 14:21:59.148752,1709040119.1487525,-1000.0,-1000.0,-36.62109375,-1000.0,1.0,-1.0,-1.0,0.0,1.m4v,5.0
2024-02-27 14:21:59.152657,1709040119.1526573,-122.55859375,-158.69140625,-15.625,23.4375,1.0,-1.0,-1.0,0.0,1.m4v,5.0
2024-02-27 14:21:59.156562,1709040119.1565623,999.51171875,999.51171875,-20.5078125,999.51171875,1.0,-1.0,-1.0,0.0,1.m4v,5.0
2024-02-27 14:21:59.160480,1709040119.16048,939.453125,944.82421875,-36.62109375,927.24609375,1.0,-1.0,-1.0,0.0,1.m4v,5.0
2024-02-27 14:21:59.164385,1709040119.1643848,949.21875,947.265625,-8.30078125,958.49609375,1.0,-1.0,-1.0,0.0,1.m4v,5.0
2024-02-27 14:21:59.168290,1709040119.1682897,973.6328125,975.5859375,4.39453125,972.65625,1.0,-1.0,-1.0,0.0,1.m4v,5.0
2024-02-27 14:21:59.172195,1709040119.1721947,969.23828125,969.7265625,-2.9296875,969.7265625,1.0,-1.0,-1.0,0.0,1.m4v,5.0
2024-02-27 14:21:59.176100,1709040119.1760995,969.23828125,969.7265625,-3.90625,969.7265625,1.0,-1.0,-1.0,0.0,1.m4v,5.0
2024-02-27 14:21:59.180004,1709040119.1800044,969.23828125,969.7265625,-15.625,969.7265625,1.0,-1.0,-1.0,0.0,1.m4v,5.0
2024-02-27 14:21:59.183909,1709040119.1839094,969.23828125,969.7265625,-20.99609375,969.7265625,1.0,-1.0,-1.0,0.0,1.m4v,5.0
2024-02-27 14:21:59.187814,1709040119.1878142,969.23828125,969.7265625,-25.390625,969.23828125,1.0,-1.0,-1.0,0.0,1.m4v,5.0
2024-02-27 14:21:59.191719,1709040119.191719,969.23828125,970.21484375,-30.2734375,969.7265625,1.0,-1.0,-1.0,0.0,1.m4v,5.0
2024-02-27 14:21:59.195624,1709040119.195624,969.23828125,970.21484375,-26.85546875,969.7265625,1.0,-1.0,-1.0,0.0,1.m4v,5.0
2024-02-27 14:21:59.199529,1709040119.199529,969.23828125,969.7265625,-25.87890625,969.7265625,1.0,-1.0,-1.0,0.0,1.m4v,5.0
2024-02-27 14:21:59.203434,1709040119.2034338,969.23828125,969.7265625,-18.06640625,969.7265625,1.0,-1.0,-1.0,0.0,1.m4v,5.0
2024-02-27 14:21:59.207352,1709040119.2073517,980.46875,980.95703125,-15.625,982.421875,1.0,-1.0,-1.0,0.0,1.m4v,5.0
2024-02-27 14:21:59.211257,1709040119.2112567,923.828125,926.7578125,-11.23046875,913.0859375,1.0,-1.0,-1.0,0.0,1.m4v,5.0
2024-02-27 14:21:59.215162,1709040119.2151616,997.55859375,993.1640625,-9.27734375,999.51171875,1.0,-1.0,-1.0,0.0,1.m4v,5.0
2024-02-27 14:21:59.219067,1709040119.2190666,907.2265625,924.31640625,-10.7421875,746.09375,1.0,-1.0,-1.0,0.0,1.m4v,5.0
2024-02-27 14:21:59.222971,1709040119.2229714,-453.125,-425.78125,-15.625,-644.53125,1.0,-1.0,-1.0,0.0,1.m4v,5.0
2024-02-27 14:21:59.226876,1709040119.2268765,-1000.0,-1000.0,-12.6953125,-1000.0,1.0,-1.0,-1.0,0.0,1.m4v,5.0
2024-02-27 14:21:59.230781,1709040119.2307813,-933.59375,-934.08203125,-15.625,-938.96484375,1.0,-1.0,-1.0,0.0,1.m4v,5.0
2024-02-27 14:21:59.234686,1709040119.234686,-1000.0,-1000.0,-18.5546875,-1000.0,1.0,-1.0,-1.0,0.0,1.m4v,5.0
2024-02-27 14:21:59.238591,1709040119.238591,-1000.0,-1000.0,-18.5546875,-1000.0,1.0,-1.0,-1.0,0.0,1.m4v,5.0
2024-02-27 14:21:59.242496,1709040119.242496,-1000.0,-1000.0,-22.4609375,-1000.0,1.0,-1.0,-1.0,0.0,1.m4v,5.0
2024-02-27 14:21:59.246401,1709040119.2464008,-1000.0,-1000.0,-16.6015625,-1000.0,1.0,-1.0,-1.0,0.0,1.m4v,5.0
2024-02-27 14:21:59.250306,1709040119.2503057,-1000.0,-1000.0,-6.34765625,-1000.0,1.0,-1.0,-1.0,0.0,1.m4v,5.0
2024-02-27 14:21:59.254222,1709040119.2542222,-1000.0,-1000.0,-8.7890625,-1000.0,1.0,-1.0,-1.0,0.0,1.m4v,5.0
2024-02-27 14:21:59.258127,1709040119.2581272,-1000.0,-1000.0,-25.390625,-1000.0,1.0,-1.0,-1.0,0.0,1.m4v,5.0
2024-02-27 14:21:59.262032,1709040119.262032,-1000.0,-998.046875,-23.4375,-988.76953125,1.0,-1.0,-1.0,0.0,1.m4v,5.0
2024-02-27 14:21:59.265937,1709040119.2659369,-938.4765625,-941.89453125,-13.671875,-959.9609375,1.0,-1.0,-1.0,0.0,1.m4v,5.0
2024-02-27 14:21:59.269842,1709040119.269842,-1000.0,-1000.0,-12.20703125,-1000.0,1.0,-1.0,-1.0,0.0,1.m4v,5.0
2024-02-27 14:21:59.273747,1709040119.2737467,-206.0546875,-168.45703125,-5.37109375,-36.1328125,1.0,-1.0,-1.0,0.0,1.m4v,5.0
2024-02-27 14:21:59.277652,1709040119.2776515,999.51171875,999.51171875,-13.671875,999.51171875,1.0,-1.0,-1.0,0.0,1.m4v,5.0
2024-02-27 14:21:59.281557,1709040119.2815566,950.68359375,946.2890625,-26.85546875,934.5703125,1.0,-1.0,-1.0,0.0,1.m4v,5.0
2024-02-27 14:21:59.285461,1709040119.2854614,942.87109375,946.2890625,-18.5546875,954.1015625,1.0,-1.0,-1.0,0.0,1.m4v,5.0
2024-02-27 14:21:59.289366,1709040119.2893662,975.5859375,975.5859375,-18.06640625,973.6328125,1.0,-1.0,-1.0,0.0,1.m4v,5.0
2024-02-27 14:21:59.293271,1709040119.2932713,969.23828125,969.7265625,-21.97265625,969.7265625,1.0,-1.0,-1.0,0.0,1.m4v,5.0
2024-02-27 14:21:59.297176,1709040119.297176,969.23828125,970.21484375,-33.69140625,969.7265625,1.0,-1.0,-1.0,0.0,1.m4v,5.0
2024-02-27 14:21:59.301093,1709040119.3010926,969.23828125,969.7265625,-58.59375,969.7265625,1.0,-1.0,-1.0,0.0,1.m4v,5.0
2024-02-27 14:21:59.304997,1709040119.3049974,969.23828125,969.7265625,-47.36328125,969.7265625,1.0,-1.0,-1.0,0.0,1.m4v,5.0
2024-02-27 14:21:59.308903,1709040119.3089025,969.23828125,969.7265625,-25.390625,969.7265625,1.0,-1.0,-1.0,0.0,1.m4v,5.0
2024-02-27 14:21:59.312807,1709040119.312807,969.23828125,969.7265625,-26.3671875,969.7265625,1.0,-1.0,-1.0,0.0,1.m4v,5.0
2024-02-27 14:21:59.316712,1709040119.316712,969.23828125,969.7265625,-21.97265625,969.7265625,1.0,-1.0,-1.0,0.0,1.m4v,5.0
2024-02-27 14:21:59.320617,1709040119.3206172,969.23828125,969.7265625,-25.87890625,969.7265625,1.0,-1.0,-1.0,0.0,1.m4v,5.0
2024-02-27 14:21:59.722933,1709040119.7229333,969.23828125,969.7265625,-24.4140625,969.7265625,1.0,-1.0,-1.0,0.0,1.m4v,5.0
2024-02-27 14:21:59.726838,1709040119.726838,969.23828125,969.7265625,-30.76171875,969.7265625,1.0,-1.0,-1.0,0.0,1.m4v,5.0
2024-02-27 14:21:59.730743,1709040119.730743,969.23828125,969.7265625,-27.34375,969.7265625,1.0,-1.0,-1.0,0.0,1.m4v,5.0
2024-02-27 14:21:59.734648,1709040119.734648,968.75,969.7265625,-16.6015625,969.7265625,1.0,-1.0,-1.0,0.0,1.m4v,5.0
2024-02-27 14:21:59.738553,1709040119.7385528,969.23828125,969.7265625,-29.78515625,970.21484375,1.0,-1.0,-1.0,0.0,1.m4v,5.0
2024-02-27 14:21:59.742458,1709040119.7424576,969.23828125,970.21484375,-25.87890625,969.7265625,1.0,-1.0,-1.0,0.0,1.m4v,5.0
2024-02-27 14:21:59.746363,1709040119.7463627,969.23828125,970.21484375,-7.32421875,973.14453125,1.0,-1.0,-1.0,0.0,1.m4v,5.0
2024-02-27 14:21:59.750268,1709040119.7502675,967.7734375,970.703125,-1.953125,955.078125,1.0,-1.0,-1.0,0.0,1.m4v,5.0
2024-02-27 14:21:59.754173,1709040119.7541726,909.1796875,907.2265625,-4.8828125,936.5234375,1.0,-1.0,-1.0,0.0,1.m4v,5.0
2024-02-27 14:21:59.758077,1709040119.7580774,999.51171875,999.51171875,-18.5546875,999.51171875,1.0,-1.0,-1.0,0.0,1.m4v,5.0
2024-02-27 14:21:59.761982,1709040119.7619822,155.2734375,188.96484375,-27.34375,-42.48046875,1.0,-1.0,-1.0,0.0,1.m4v,5.0
2024-02-27 14:21:59.765887,1709040119.7658873,-1000.0,-1000.0,-24.90234375,-1000.0,1.0,-1.0,-1.0,0.0,1.m4v,5.0
2024-02-27 14:21:59.769807,1709040119.7698066,-979.4921875,-983.88671875,-17.08984375,-962.40234375,1.0,-1.0,-1.0,0.0,1.m4v,5.0
2024-02-27 14:21:59.773711,1709040119.7737114,-975.5859375,-973.14453125,-23.4375,-986.81640625,1.0,-1.0,-1.0,0.0,1.m4v,5.0
2024-02-27 14:21:59.777617,1709040119.7776165,-1000.0,-1000.0,-28.3203125,-1000.0,1.0,-1.0,-1.0,0.0,1.m4v,5.0
2024-02-27 14:21:59.781521,1709040119.781521,-1000.0,-1000.0,-16.11328125,-1000.0,1.0,-1.0,-1.0,0.0,1.m4v,5.0
2024-02-27 14:21:59.785426,1709040119.785426,-1000.0,-1000.0,0.0,-1000.0,1.0,-1.0,-1.0,0.0,1.m4v,5.0
2024-02-27 14:21:59.789331,1709040119.7893312,-1000.0,-1000.0,-3.90625,-1000.0,1.0,-1.0,-1.0,0.0,1.m4v,5.0
2024-02-27 14:21:59.793236,1709040119.793236,-1000.0,-1000.0,-10.25390625,-1000.0,1.0,-1.0,-1.0,0.0,1.m4v,5.0
2024-02-27 14:21:59.797141,1709040119.7971408,-1000.0,-1000.0,-21.484375,-1000.0,1.0,-1.0,-1.0,0.0,1.m4v,5.0
2024-02-27 14:21:59.801046,1709040119.801046,-1000.0,-1000.0,-26.85546875,-1000.0,1.0,-1.0,-1.0,0.0,1.m4v,5.0
2024-02-27 14:21:59.804951,1709040119.8049507,-1000.0,-1000.0,-18.5546875,-1000.0,1.0,-1.0,-1.0,0.0,1.m4v,5.0
2024-02-27 14:21:59.808856,1709040119.8088555,-1000.0,-1000.0,-19.53125,-1000.0,1.0,-1.0,-1.0,0.0,1.m4v,5.0
2024-02-27 14:21:59.812761,1709040119.8127606,-1000.0,-1000.0,-20.99609375,-1000.0,1.0,-1.0,-1.0,0.0,1.m4v,5.0
2024-02-27 14:21:59.816680,1709040119.8166797,-1000.0,-1000.0,-29.296875,-1000.0,1.0,-1.0,-1.0,0.0,1.m4v,5.0
2024-02-27 14:21:59.820585,1709040119.8205848,-991.69921875,-995.1171875,-35.64453125,-980.46875,1.0,-1.0,-1.0,0.0,1.m4v,5.0
2024-02-27 14:21:59.824490,1709040119.8244896,-951.171875,-945.80078125,-26.3671875,-974.609375,1.0,-1.0,-1.0,0.0,1.m4v,5.0
2024-02-27 14:21:59.828394,1709040119.8283944,-1000.0,-1000.0,-18.06640625,-1000.0,1.0,-1.0,-1.0,0.0,1.m4v,5.0
2024-02-27 14:21:59.832299,1709040119.8322997,-68.359375,-122.0703125,-9.27734375,88.8671875,1.0,-1.0,-1.0,0.0,1.m4v,5.0
2024-02-27 14:21:59.836204,1709040119.8362043,999.51171875,999.51171875,-15.13671875,999.51171875,1.0,-1.0,-1.0,0.0,1.m4v,5.0
2024-02-27 14:21:59.840109,1709040119.840109,932.12890625,939.94140625,-34.1796875,921.38671875,1.0,-1.0,-1.0,0.0,1.m4v,5.0
2024-02-27 14:21:59.844014,1709040119.8440142,953.125,949.70703125,-37.59765625,962.40234375,1.0,-1.0,-1.0,0.0,1.m4v,5.0
2024-02-27 14:21:59.847919,1709040119.847919,972.16796875,974.12109375,-30.2734375,971.6796875,1.0,-1.0,-1.0,0.0,1.m4v,5.0
2024-02-27 14:21:59.851824,1709040119.8518238,969.23828125,969.7265625,-10.7421875,969.7265625,1.0,-1.0,-1.0,0.0,1.m4v,5.0
2024-02-27 14:21:59.855729,1709040119.8557289,969.23828125,969.7265625,-7.32421875,969.7265625,1.0,-1.0,-1.0,0.0,1.m4v,5.0
2024-02-27 14:21:59.859634,1709040119.8596337,969.23828125,969.7265625,-24.90234375,969.7265625,1.0,-1.0,-1.0,0.0,1.m4v,5.0
2024-02-27 14:21:59.863552,1709040119.8635516,969.23828125,969.7265625,-29.296875,969.7265625,1.0,-1.0,-1.0,0.0,1.m4v,5.0
2024-02-27 14:21:59.867456,1709040119.8674564,969.23828125,969.7265625,-18.06640625,970.21484375,1.0,-1.0,-1.0,0.0,1.m4v,5.0
2024-02-27 14:21:59.871361,1709040119.8713613,969.23828125,969.7265625,-12.6953125,967.7734375,1.0,-1.0,-1.0,0.0,1.m4v,5.0
2024-02-27 14:21:59.875266,1709040119.8752663,969.23828125,969.7265625,-22.4609375,974.12109375,1.0,-1.0,-1.0,0.0,1.m4v,5.0
2024-02-27 14:21:59.879171,1709040119.8791711,969.23828125,969.7265625,-32.2265625,961.9140625,1.0,-1.0,-1.0,0.0,1.m4v,5.0
2024-02-27 14:21:59.883076,1709040119.883076,969.23828125,969.7265625,-32.2265625,938.96484375,1.0,-1.0,-1.0,0.0,1.m4v,5.0
2024-02-27 14:21:59.886981,1709040119.886981,983.88671875,984.375,-36.1328125,979.00390625,1.0,-1.0,-1.0,0.0,1.m4v,5.0
2024-02-27 14:21:59.890886,1709040119.8908858,908.203125,912.109375,-33.203125,904.78515625,1.0,-1.0,-1.0,0.0,1.m4v,5.0
2024-02-27 14:21:59.894791,1709040119.8947906,999.51171875,999.51171875,-36.1328125,999.51171875,1.0,-1.0,-1.0,0.0,1.m4v,5.0
2024-02-27 14:21:59.898696,1709040119.8986957,753.41796875,793.9453125,-43.45703125,561.03515625,1.0,-1.0,-1.0,0.0,1.m4v,5.0
2024-02-27 14:21:59.902601,1709040119.9026003,-672.8515625,-624.0234375,-40.52734375,-847.65625,1.0,-1.0,-1.0,0.0,1.m4v,5.0
2024-02-27 14:21:59.906505,1709040119.906505,-1000.0,-1000.0,-38.57421875,-1000.0,1.0,-1.0,-1.0,0.0,1.m4v,5.0
2024-02-27 14:21:59.910424,1709040119.9104235,-935.05859375,-934.08203125,-26.3671875,-945.80078125,1.0,-1.0,-1.0,0.0,1.m4v,5.0
2024-02-27 14:21:59.914328,1709040119.9143283,-1000.0,-1000.0,-30.76171875,-1000.0,1.0,-1.0,-1.0,0.0,1.m4v,5.0
2024-02-27 14:21:59.918233,1709040119.9182334,-1000.0,-1000.0,-43.9453125,-1000.0,1.0,-1.0,-1.0,0.0,1.m4v,5.0
2024-02-27 14:21:59.922138,1709040119.9221382,-1000.0,-1000.0,-40.0390625,-1000.0,1.0,-1.0,-1.0,0.0,1.m4v,5.0
2024-02-27 14:21:59.926043,1709040119.926043,-1000.0,-1000.0,-37.59765625,-1000.0,1.0,-1.0,-1.0,0.0,1.m4v,5.0
2024-02-27 14:21:59.929948,1709040119.929948,-1000.0,-1000.0,-31.25,-1000.0,1.0,-1.0,-1.0,0.0,1.m4v,5.0
2024-02-27 14:21:59.933853,1709040119.933853,-1000.0,-1000.0,-30.2734375,-1000.0,1.0,-1.0,-1.0,0.0,1.m4v,5.0
2024-02-27 14:21:59.937758,1709040119.9377575,-1000.0,-1000.0,-41.015625,-1000.0,1.0,-1.0,-1.0,0.0,1.m4v,5.0
2024-02-27 14:21:59.941663,1709040119.9416628,-1000.0,-1000.0,-48.33984375,-1000.0,1.0,-1.0,-1.0,0.0,1.m4v,5.0
2024-02-27 14:21:59.945568,1709040119.9455676,-1000.0,-1000.0,-40.52734375,-1000.0,1.0,-1.0,-1.0,0.0,1.m4v,5.0
2024-02-27 14:21:59.949472,1709040119.9494724,-1000.0,-1000.0,-26.85546875,-1000.0,1.0,-1.0,-1.0,0.0,1.m4v,5.0
2024-02-27 14:21:59.953377,1709040119.9533775,-1000.0,-1000.0,-26.85546875,-1000.0,1.0,-1.0,-1.0,0.0,1.m4v,5.0
2024-02-27 14:21:59.957295,1709040119.9572952,-1000.0,-1000.0,-34.66796875,-1000.0,1.0,-1.0,-1.0,0.0,1.m4v,5.0
2024-02-27 14:21:59.961200,1709040119.9612,-989.74609375,-987.3046875,-36.1328125,-979.98046875,1.0,-1.0,-1.0,0.0,1.m4v,5.0
2024-02-27 14:21:59.965105,1709040119.9651048,-954.1015625,-958.0078125,-34.66796875,-974.609375,1.0,-1.0,-1.0,0.0,1.m4v,5.0
2024-02-27 14:21:59.969010,1709040119.96901,-1000.0,-1000.0,-30.76171875,-1000.0,1.0,-1.0,-1.0,0.0,1.m4v,5.0
2024-02-27 14:21:59.972915,1709040119.9729147,-42.96875,-7.32421875,-12.6953125,95.21484375,1.0,-1.0,-1.0,0.0,1.m4v,5.0
2024-02-27 14:21:59.976820,1709040119.9768195,999.51171875,999.51171875,-1.953125,999.51171875,1.0,-1.0,-1.0,0.0,1.m4v,5.0
2024-02-27 14:21:59.980725,1709040119.9807246,929.19921875,925.29296875,-16.11328125,919.921875,1.0,-1.0,-1.0,0.0,1.m4v,5.0
2024-02-27 14:21:59.984629,1709040119.9846294,954.58984375,958.0078125,-36.1328125,962.890625,1.0,-1.0,-1.0,0.0,1.m4v,5.0
2024-02-27 14:21:59.988534,1709040119.9885342,971.6796875,972.16796875,-26.3671875,971.19140625,1.0,-1.0,-1.0,0.0,1.m4v,5.0
2024-02-27 14:21:59.992439,1709040119.9924393,969.23828125,969.7265625,-4.8828125,969.7265625,1.0,-1.0,-1.0,0.0,1.m4v,5.0
2024-02-27 14:21:59.996344,1709040119.996344,969.23828125,970.21484375,-15.625,969.7265625,1.0,-1.0,-1.0,0.0,1.m4v,5.0
2024-02-27 14:22:00.000249,1709040120.000249,969.23828125,970.21484375,-34.1796875,969.7265625,1.0,-1.0,-1.0,0.0,1.m4v,5.0
2024-02-27 14:22:00.004165,1709040120.0041654,969.23828125,969.7265625,-31.25,969.7265625,1.0,-1.0,-1.0,0.0,1.m4v,5.0
2024-02-27 14:22:00.008070,1709040120.0080705,969.23828125,970.21484375,-23.4375,969.7265625,1.0,-1.0,-1.0,0.0,1.m4v,5.0
2024-02-27 14:22:00.011975,1709040120.0119753,969.23828125,969.7265625,-7.32421875,969.7265625,1.0,-1.0,-1.0,0.0,1.m4v,5.0
2024-02-27 14:22:00.015880,1709040120.01588,969.23828125,969.7265625,-15.13671875,969.7265625,1.0,-1.0,-1.0,0.0,1.m4v,5.0
2024-02-27 14:22:00.019785,1709040120.0197852,968.75,969.7265625,-37.109375,969.7265625,1.0,-1.0,-1.0,0.0,1.m4v,5.0
2024-02-27 14:22:00.023690,1709040120.02369,969.23828125,969.7265625,-32.2265625,969.7265625,1.0,-1.0,-1.0,0.0,1.m4v,5.0
2024-02-27 14:22:00.027595,1709040120.027595,979.00390625,978.515625,-34.1796875,981.93359375,1.0,-1.0,-1.0,0.0,1.m4v,5.0
2024-02-27 14:22:00.031500,1709040120.0315,929.6875,935.546875,-32.71484375,915.0390625,1.0,-1.0,-1.0,0.0,1.m4v,5.0
2024-02-27 14:22:00.035405,1709040120.0354047,982.421875,970.703125,-28.80859375,999.51171875,1.0,-1.0,-1.0,0.0,1.m4v,5.0
2024-02-27 14:22:00.039310,1709040120.0393095,953.125,990.72265625,-23.92578125,763.671875,1.0,-1.0,-1.0,0.0,1.m4v,5.0
2024-02-27 14:22:00.043215,1709040120.0432146,-375.0,-311.03515625,-18.5546875,-617.67578125,1.0,-1.0,-1.0,0.0,1.m4v,5.0
2024-02-27 14:22:00.047119,1709040120.0471194,-1000.0,-1000.0,-29.78515625,-1000.0,1.0,-1.0,-1.0,0.0,1.m4v,5.0
2024-02-27 14:22:00.051036,1709040120.0510356,-934.5703125,-935.546875,-25.87890625,-938.96484375,1.0,-1.0,-1.0,0.0,1.m4v,5.0
2024-02-27 14:22:00.054940,1709040120.0549405,-1000.0,-1000.0,-15.13671875,-1000.0,1.0,-1.0,-1.0,0.0,1.m4v,5.0
2024-02-27 14:22:00.058845,1709040120.0588453,-1000.0,-1000.0,-28.80859375,-1000.0,1.0,-1.0,-1.0,0.0,1.m4v,5.0
2024-02-27 14:22:00.062750,1709040120.0627503,-1000.0,-1000.0,-22.94921875,-1000.0,1.0,-1.0,-1.0,0.0,1.m4v,5.0
2024-02-27 14:22:00.066655,1709040120.0666552,-1000.0,-1000.0,-7.8125,-1000.0,1.0,-1.0,-1.0,0.0,1.m4v,5.0
2024-02-27 14:22:00.070560,1709040120.07056,-1000.0,-1000.0,0.9765625,-1000.0,1.0,-1.0,-1.0,0.0,1.m4v,5.0
2024-02-27 14:22:00.074465,1709040120.074465,-1000.0,-1000.0,-14.16015625,-1000.0,1.0,-1.0,-1.0,0.0,1.m4v,5.0
2024-02-27 14:22:00.078370,1709040120.07837,-1000.0,-1000.0,-37.109375,-1000.0,1.0,-1.0,-1.0,0.0,1.m4v,5.0
2024-02-27 14:22:00.082275,1709040120.082275,-1000.0,-1000.0,-34.66796875,-999.51171875,1.0,-1.0,-1.0,0.0,1.m4v,5.0
2024-02-27 14:22:00.086180,1709040120.0861795,-1000.0,-1000.0,-21.484375,-1000.0,1.0,-1.0,-1.0,0.0,1.m4v,5.0
2024-02-27 14:22:00.090085,1709040120.0900846,-1000.0,-1000.0,-5.859375,-998.046875,1.0,-1.0,-1.0,0.0,1.m4v,5.0
2024-02-27 14:22:00.093990,1709040120.0939896,-1000.0,-1000.0,-6.34765625,-988.76953125,1.0,-1.0,-1.0,0.0,1.m4v,5.0
2024-02-27 14:22:00.097905,1709040120.097905,-1000.0,-1000.0,-19.53125,-1000.0,1.0,-1.0,-1.0,0.0,1.m4v,5.0
2024-02-27 14:22:00.101810,1709040120.1018095,-934.08203125,-941.40625,-32.2265625,-931.640625,1.0,-1.0,-1.0,0.0,1.m4v,5.0
2024-02-27 14:22:00.105715,1709040120.1057146,-1000.0,-1000.0,-28.3203125,-1000.0,1.0,-1.0,-1.0,0.0,1.m4v,5.0
2024-02-27 14:22:00.109620,1709040120.1096196,-715.8203125,-809.5703125,-19.04296875,-550.29296875,1.0,-1.0,-1.0,0.0,1.m4v,5.0
2024-02-27 14:22:00.113524,1709040120.1135244,724.12109375,613.28125,-15.13671875,859.375,1.0,-1.0,-1.0,0.0,1.m4v,5.0
2024-02-27 14:22:00.117429,1709040120.1174293,999.51171875,999.51171875,-18.06640625,999.51171875,1.0,-1.0,-1.0,0.0,1.m4v,5.0
2024-02-27 14:22:00.121334,1709040120.1213343,906.25,903.80859375,-34.66796875,917.48046875,1.0,-1.0,-1.0,0.0,1.m4v,5.0
2024-02-27 14:22:00.125239,1709040120.1252391,983.88671875,982.91015625,-51.26953125,983.3984375,1.0,-1.0,-1.0,0.0,1.m4v,5.0
2024-02-27 14:22:00.129144,1709040120.129144,969.23828125,969.7265625,-40.52734375,969.7265625,1.0,-1.0,-1.0,0.0,1.m4v,5.0
2024-02-27 14:22:00.133049,1709040120.133049,969.23828125,969.7265625,-33.203125,969.7265625,1.0,-1.0,-1.0,0.0,1.m4v,5.0
2024-02-27 14:22:00.136954,1709040120.1369538,968.75,969.7265625,-39.55078125,969.7265625,1.0,-1.0,-1.0,0.0,1.m4v,5.0
2024-02-27 14:22:00.140859,1709040120.140859,969.23828125,969.7265625,-44.921875,969.7265625,1.0,-1.0,-1.0,0.0,1.m4v,5.0
2024-02-27 14:22:00.144778,1709040120.1447778,969.23828125,969.7265625,-47.36328125,969.7265625,1.0,-1.0,-1.0,0.0,1.m4v,5.0
2024-02-27 14:22:00.148683,1709040120.1486826,969.23828125,969.7265625,-43.45703125,969.7265625,1.0,-1.0,-1.0,0.0,1.m4v,5.0
2024-02-27 14:22:00.152588,1709040120.1525877,969.23828125,969.7265625,-34.1796875,969.7265625,1.0,-1.0,-1.0,0.0,1.m4v,5.0
2024-02-27 14:22:00.156492,1709040120.1564925,969.23828125,969.7265625,-24.90234375,969.7265625,1.0,-1.0,-1.0,0.0,1.m4v,5.0
2024-02-27 14:22:00.160397,1709040120.1603973,968.75,969.7265625,-27.83203125,969.7265625,1.0,-1.0,-1.0,0.0,1.m4v,5.0
2024-02-27 14:22:00.164302,1709040120.1643023,969.23828125,969.7265625,-32.71484375,969.7265625,1.0,-1.0,-1.0,0.0,1.m4v,5.0
2024-02-27 14:22:00.168207,1709040120.1682072,984.375,984.86328125,-32.2265625,981.93359375,1.0,-1.0,-1.0,0.0,1.m4v,5.0
2024-02-27 14:22:00.172112,1709040120.1721122,899.4140625,899.90234375,-34.1796875,899.90234375,1.0,-1.0,-1.0,0.0,1.m4v,5.0
2024-02-27 14:22:00.176017,1709040120.176017,999.51171875,999.51171875,-36.1328125,999.51171875,1.0,-1.0,-1.0,0.0,1.m4v,5.0
2024-02-27 14:22:00.179922,1709040120.179922,632.32421875,620.1171875,-41.9921875,498.046875,1.0,-1.0,-1.0,0.0,1.m4v,5.0
2024-02-27 14:22:00.183827,1709040120.183827,-813.96484375,-822.75390625,-44.43359375,-905.2734375,1.0,-1.0,-1.0,0.0,1.m4v,5.0
2024-02-27 14:22:00.187732,1709040120.1877315,-1000.0,-1000.0,-41.015625,-1000.0,1.0,-1.0,-1.0,0.0,1.m4v,5.0
2024-02-27 14:22:00.191651,1709040120.1916509,-939.94140625,-940.91796875,-40.52734375,-949.21875,1.0,-1.0,-1.0,0.0,1.m4v,5.0
2024-02-27 14:22:00.195556,1709040120.1955557,-1000.0,-1000.0,-39.0625,-1000.0,1.0,-1.0,-1.0,0.0,1.m4v,5.0
2024-02-27 14:22:00.199461,1709040120.1994605,-1000.0,-1000.0,-44.921875,-1000.0,1.0,-1.0,-1.0,0.0,1.m4v,5.0
2024-02-27 14:22:00.203366,1709040120.2033656,-1000.0,-1000.0,-51.26953125,-1000.0,1.0,-1.0,-1.0,0.0,1.m4v,5.0
2024-02-27 14:22:00.207270,1709040120.2072704,-1000.0,-1000.0,-37.109375,-1000.0,1.0,-1.0,-1.0,0.0,1.m4v,5.0
2024-02-27 14:22:00.211175,1709040120.2111752,-1000.0,-1000.0,-27.83203125,-1000.0,1.0,-1.0,-1.0,0.0,1.m4v,5.0
2024-02-27 14:22:00.215080,1709040120.2150805,-1000.0,-1000.0,-37.59765625,-1000.0,1.0,-1.0,-1.0,0.0,1.m4v,5.0
2024-02-27 14:22:00.218985,1709040120.218985,-1000.0,-1000.0,-52.24609375,-1000.0,1.0,-1.0,-1.0,0.0,1.m4v,5.0
2024-02-27 14:22:00.222890,1709040120.22289,-962.890625,-971.19140625,-46.38671875,-940.91796875,1.0,-1.0,-1.0,0.0,1.m4v,5.0
2024-02-27 14:22:00.226795,1709040120.226795,-1000.0,-989.2578125,-19.53125,-1000.0,1.0,-1.0,-1.0,0.0,1.m4v,5.0
2024-02-27 14:22:00.230700,1709040120.2306998,-999.0234375,-1000.0,-6.34765625,-724.12109375,1.0,-1.0,-1.0,0.0,1.m4v,5.0
2024-02-27 14:22:00.234605,1709040120.2346048,318.359375,213.37890625,-4.8828125,667.48046875,1.0,-1.0,-1.0,0.0,1.m4v,5.0
2024-02-27 14:22:00.238523,1709040120.238523,999.51171875,999.51171875,-15.625,999.51171875,1.0,-1.0,-1.0,0.0,1.m4v,5.0
2024-02-27 14:22:00.242428,1709040120.2424278,903.80859375,907.71484375,-23.4375,910.64453125,1.0,-1.0,-1.0,0.0,1.m4v,5.0
2024-02-27 14:22:00.246333,1709040120.246333,974.12109375,971.19140625,-18.06640625,981.4453125,1.0,-1.0,-1.0,0.0,1.m4v,5.0
2024-02-27 14:22:00.250238,1709040120.2502377,969.23828125,970.21484375,-15.13671875,969.7265625,1.0,-1.0,-1.0,0.0,1.m4v,5.0
2024-02-27 14:22:00.254143,1709040120.2541428,969.23828125,969.7265625,-21.97265625,969.7265625,1.0,-1.0,-1.0,0.0,1.m4v,5.0
2024-02-27 14:22:00.258048,1709040120.2580476,969.23828125,969.7265625,-21.484375,969.7265625,1.0,-1.0,-1.0,0.0,1.m4v,5.0
2024-02-27 14:22:00.261952,1709040120.2619524,969.23828125,969.7265625,-18.06640625,969.7265625,1.0,-1.0,-1.0,0.0,1.m4v,5.0
2024-02-27 14:22:00.265857,1709040120.2658577,969.23828125,969.7265625,-18.5546875,969.7265625,1.0,-1.0,-1.0,0.0,1.m4v,5.0
2024-02-27 14:22:00.269762,1709040120.2697625,969.23828125,969.7265625,-23.92578125,969.7265625,1.0,-1.0,-1.0,0.0,1.m4v,5.0
2024-02-27 14:22:00.273667,1709040120.273667,969.23828125,969.7265625,-27.34375,969.7265625,1.0,-1.0,-1.0,0.0,1.m4v,5.0
2024-02-27 14:22:00.277572,1709040120.2775722,969.23828125,969.7265625,-34.66796875,969.7265625,1.0,-1.0,-1.0,0.0,1.m4v,5.0
2024-02-27 14:22:00.281477,1709040120.281477,969.23828125,969.7265625,-29.296875,969.7265625,1.0,-1.0,-1.0,0.0,1.m4v,5.0
2024-02-27 14:22:00.285395,1709040120.285395,969.23828125,969.7265625,-24.90234375,969.7265625,1.0,-1.0,-1.0,0.0,1.m4v,5.0
2024-02-27 14:22:00.289299,1709040120.2892995,976.07421875,979.4921875,-24.4140625,974.12109375,1.0,-1.0,-1.0,0.0,1.m4v,5.0
2024-02-27 14:22:00.293205,1709040120.2932043,899.4140625,897.4609375,-17.578125,902.83203125,1.0,-1.0,-1.0,0.0,1.m4v,5.0
2024-02-27 14:22:00.297109,1709040120.2971094,999.51171875,999.51171875,-29.296875,999.51171875,1.0,-1.0,-1.0,0.0,1.m4v,5.0
2024-02-27 14:22:00.301014,1709040120.3010142,316.40625,374.51171875,-29.78515625,260.25390625,1.0,-1.0,-1.0,0.0,1.m4v,5.0
2024-02-27 14:22:00.304919,1709040120.3049192,-1000.0,-999.51171875,-17.578125,-1000.0,1.0,-1.0,-1.0,0.0,1.m4v,5.0
2024-02-27 14:22:00.754108,1709040120.7541082,969.23828125,969.7265625,-9.27734375,969.7265625,1.0,-1.0,-1.0,0.0,1.m4v,5.0
2024-02-27 14:22:00.758013,1709040120.7580132,969.23828125,969.7265625,-29.296875,969.7265625,1.0,-1.0,-1.0,0.0,1.m4v,5.0
2024-02-27 14:22:00.761918,1709040120.761918,969.23828125,969.7265625,-26.3671875,969.7265625,1.0,-1.0,-1.0,0.0,1.m4v,5.0
2024-02-27 14:22:00.765823,1709040120.765823,969.23828125,969.7265625,-22.4609375,969.7265625,1.0,-1.0,-1.0,0.0,1.m4v,5.0
2024-02-27 14:22:00.769728,1709040120.769728,969.23828125,969.7265625,-16.11328125,971.6796875,1.0,-1.0,-1.0,0.0,1.m4v,5.0
2024-02-27 14:22:00.773633,1709040120.7736328,977.05078125,982.421875,-5.37109375,965.8203125,1.0,-1.0,-1.0,0.0,1.m4v,5.0
2024-02-27 14:22:00.777538,1709040120.7775376,898.4375,895.5078125,-13.671875,927.734375,1.0,-1.0,-1.0,0.0,1.m4v,5.0
2024-02-27 14:22:00.781443,1709040120.7814426,999.51171875,999.51171875,-22.94921875,999.51171875,1.0,-1.0,-1.0,0.0,1.m4v,5.0
2024-02-27 14:22:00.785347,1709040120.7853477,342.28515625,442.3828125,-20.5078125,148.4375,1.0,-1.0,-1.0,0.0,1.m4v,5.0
2024-02-27 14:22:00.789253,1709040120.7892523,-1000.0,-965.8203125,-18.06640625,-1000.0,1.0,-1.0,-1.0,0.0,1.m4v,5.0
2024-02-27 14:22:00.793157,1709040120.793157,-1000.0,-1000.0,-18.5546875,-1000.0,1.0,-1.0,-1.0,0.0,1.m4v,5.0
2024-02-27 14:22:00.797062,1709040120.7970622,-960.44921875,-952.63671875,-22.94921875,-969.23828125,1.0,-1.0,-1.0,0.0,1.m4v,5.0
2024-02-27 14:22:00.800979,1709040120.800979,-1000.0,-1000.0,-18.5546875,-1000.0,1.0,-1.0,-1.0,0.0,1.m4v,5.0
2024-02-27 14:22:00.804884,1709040120.8048837,-1000.0,-1000.0,-14.6484375,-1000.0,1.0,-1.0,-1.0,0.0,1.m4v,5.0
2024-02-27 14:22:00.808789,1709040120.8087883,-1000.0,-1000.0,-10.25390625,-1000.0,1.0,-1.0,-1.0,0.0,1.m4v,5.0
2024-02-27 14:22:00.812694,1709040120.8126936,-1000.0,-1000.0,-10.25390625,-1000.0,1.0,-1.0,-1.0,0.0,1.m4v,5.0
2024-02-27 14:22:00.816598,1709040120.8165984,-1000.0,-1000.0,-21.97265625,-1000.0,1.0,-1.0,-1.0,0.0,1.m4v,5.0
2024-02-27 14:22:00.820503,1709040120.8205032,-1000.0,-1000.0,-23.92578125,-1000.0,1.0,-1.0,-1.0,0.0,1.m4v,5.0
2024-02-27 14:22:00.824408,1709040120.8244083,-1000.0,-1000.0,-7.8125,-1000.0,1.0,-1.0,-1.0,0.0,1.m4v,5.0
2024-02-27 14:22:00.828313,1709040120.828313,-1000.0,-1000.0,0.9765625,-1000.0,1.0,-1.0,-1.0,0.0,1.m4v,5.0
2024-02-27 14:22:00.832218,1709040120.8322182,-1000.0,-1000.0,-1.953125,-982.91015625,1.0,-1.0,-1.0,0.0,1.m4v,5.0
2024-02-27 14:22:00.836123,1709040120.836123,-1000.0,-1000.0,-9.765625,-990.72265625,1.0,-1.0,-1.0,0.0,1.m4v,5.0
2024-02-27 14:22:00.840028,1709040120.8400278,-1000.0,-1000.0,-19.04296875,-996.58203125,1.0,-1.0,-1.0,0.0,1.m4v,5.0
2024-02-27 14:22:00.843933,1709040120.8439329,-937.98828125,-937.5,-21.484375,-948.2421875,1.0,-1.0,-1.0,0.0,1.m4v,5.0
2024-02-27 14:22:00.847848,1709040120.8478482,-1000.0,-1000.0,-22.94921875,-1000.0,1.0,-1.0,-1.0,0.0,1.m4v,5.0
2024-02-27 14:22:00.851753,1709040120.851753,-211.42578125,-219.7265625,-12.20703125,-104.00390625,1.0,-1.0,-1.0,0.0,1.m4v,5.0
2024-02-27 14:22:00.855658,1709040120.8556578,999.51171875,999.51171875,-4.8828125,999.51171875,1.0,-1.0,-1.0,0.0,1.m4v,5.0
2024-02-27 14:22:00.859563,1709040120.8595629,951.66015625,953.61328125,-19.53125,939.453125,1.0,-1.0,-1.0,0.0,1.m4v,5.0
2024-02-27 14:22:00.863468,1709040120.8634677,942.3828125,942.87109375,-24.90234375,950.68359375,1.0,-1.0,-1.0,0.0,1.m4v,5.0
2024-02-27 14:22:00.867373,1709040120.8673725,975.5859375,976.5625,-10.25390625,974.609375,1.0,-1.0,-1.0,0.0,1.m4v,5.0
2024-02-27 14:22:00.871278,1709040120.8712776,969.23828125,969.7265625,-20.01953125,969.7265625,1.0,-1.0,-1.0,0.0,1.m4v,5.0
2024-02-27 14:22:00.875182,1709040120.8751824,969.23828125,969.7265625,-40.0390625,969.7265625,1.0,-1.0,-1.0,0.0,1.m4v,5.0
2024-02-27 14:22:00.879087,1709040120.8790874,969.23828125,969.7265625,-29.78515625,969.7265625,1.0,-1.0,-1.0,0.0,1.m4v,5.0
2024-02-27 14:22:00.882992,1709040120.8829925,969.23828125,970.21484375,-18.5546875,969.7265625,1.0,-1.0,-1.0,0.0,1.m4v,5.0
2024-02-27 14:22:00.886897,1709040120.886897,968.75,969.7265625,-18.06640625,969.7265625,1.0,-1.0,-1.0,0.0,1.m4v,5.0
2024-02-27 14:22:00.890802,1709040120.890802,969.23828125,969.7265625,-8.30078125,969.7265625,1.0,-1.0,-1.0,0.0,1.m4v,5.0
2024-02-27 14:22:00.894722,1709040120.8947215,969.23828125,969.7265625,1.953125,969.7265625,1.0,-1.0,-1.0,0.0,1.m4v,5.0
2024-02-27 14:22:00.898626,1709040120.8986263,969.23828125,969.7265625,-1.953125,969.7265625,1.0,-1.0,-1.0,0.0,1.m4v,5.0
2024-02-27 14:22:00.902531,1709040120.9025311,969.23828125,969.7265625,-16.6015625,969.7265625,1.0,-1.0,-1.0,0.0,1.m4v,5.0
2024-02-27 14:22:00.906436,1709040120.9064362,969.23828125,970.21484375,-25.87890625,970.703125,1.0,-1.0,-1.0,0.0,1.m4v,5.0
2024-02-27 14:22:00.910341,1709040120.910341,969.7265625,970.703125,-14.16015625,966.796875,1.0,-1.0,-1.0,0.0,1.m4v,5.0
2024-02-27 14:22:00.914246,1709040120.9142458,906.25,907.2265625,-11.23046875,913.0859375,1.0,-1.0,-1.0,0.0,1.m4v,5.0
2024-02-27 14:22:00.918151,1709040120.918151,999.51171875,999.51171875,-20.01953125,999.51171875,1.0,-1.0,-1.0,0.0,1.m4v,5.0
2024-02-27 14:22:00.922056,1709040120.9220555,188.4765625,188.96484375,-19.53125,128.41796875,1.0,-1.0,-1.0,0.0,1.m4v,5.0
2024-02-27 14:22:00.925961,1709040120.9259603,-1000.0,-1000.0,-21.484375,-1000.0,1.0,-1.0,-1.0,0.0,1.m4v,5.0
2024-02-27 14:22:00.929866,1709040120.9298656,-983.88671875,-983.88671875,-24.4140625,-976.07421875,1.0,-1.0,-1.0,0.0,1.m4v,5.0
2024-02-27 14:22:00.933770,1709040120.9337704,-973.14453125,-973.14453125,-22.4609375,-977.5390625,1.0,-1.0,-1.0,0.0,1.m4v,5.0
2024-02-27 14:22:00.937675,1709040120.9376752,-1000.0,-1000.0,-23.92578125,-1000.0,1.0,-1.0,-1.0,0.0,1.m4v,5.0
2024-02-27 14:22:00.941597,1709040120.9415972,-1000.0,-1000.0,-28.80859375,-1000.0,1.0,-1.0,-1.0,0.0,1.m4v,5.0
2024-02-27 14:22:00.945502,1709040120.945502,-1000.0,-1000.0,-40.0390625,-1000.0,1.0,-1.0,-1.0,0.0,1.m4v,5.0
2024-02-27 14:22:00.949407,1709040120.949407,-1000.0,-1000.0,-35.15625,-1000.0,1.0,-1.0,-1.0,0.0,1.m4v,5.0
2024-02-27 14:22:00.953312,1709040120.953312,-1000.0,-1000.0,-21.97265625,-1000.0,1.0,-1.0,-1.0,0.0,1.m4v,5.0
2024-02-27 14:22:00.957217,1709040120.9572167,-1000.0,-1000.0,-34.1796875,-1000.0,1.0,-1.0,-1.0,0.0,1.m4v,5.0
2024-02-27 14:22:00.961122,1709040120.9611218,-1000.0,-1000.0,-43.9453125,-1000.0,1.0,-1.0,-1.0,0.0,1.m4v,5.0
2024-02-27 14:22:00.965027,1709040120.9650266,-1000.0,-1000.0,-60.05859375,-1000.0,1.0,-1.0,-1.0,0.0,1.m4v,5.0
2024-02-27 14:22:00.968931,1709040120.9689314,-1000.0,-1000.0,-62.5,-1000.0,1.0,-1.0,-1.0,0.0,1.m4v,5.0
2024-02-27 14:22:00.972836,1709040120.9728365,-1000.0,-1000.0,-45.41015625,-1000.0,1.0,-1.0,-1.0,0.0,1.m4v,5.0
2024-02-27 14:22:00.976741,1709040120.9767413,-1000.0,-1000.0,-49.31640625,-1000.0,1.0,-1.0,-1.0,0.0,1.m4v,5.0
2024-02-27 14:22:00.980646,1709040120.980646,-994.140625,-996.58203125,-56.640625,-983.3984375,1.0,-1.0,-1.0,0.0,1.m4v,5.0
2024-02-27 14:22:00.984551,1709040120.9845512,-947.265625,-944.3359375,-41.9921875,-968.26171875,1.0,-1.0,-1.0,0.0,1.m4v,5.0
2024-02-27 14:22:00.988469,1709040120.9884694,-1000.0,-1000.0,-27.34375,-1000.0,1.0,-1.0,-1.0,0.0,1.m4v,5.0
2024-02-27 14:22:00.992374,1709040120.9923744,-109.86328125,-142.578125,-24.4140625,46.38671875,1.0,-1.0,-1.0,0.0,1.m4v,5.0
2024-02-27 14:22:00.996279,1709040120.9962792,999.51171875,999.51171875,-34.1796875,999.51171875,1.0,-1.0,-1.0,0.0,1.m4v,5.0
2024-02-27 14:22:01.000184,1709040121.000184,937.98828125,942.87109375,-49.8046875,924.31640625,1.0,-1.0,-1.0,0.0,1.m4v,5.0
2024-02-27 14:22:01.004089,1709040121.004089,950.1953125,948.2421875,-45.41015625,960.44921875,1.0,-1.0,-1.0,0.0,1.m4v,5.0
2024-02-27 14:22:01.007994,1709040121.007994,973.14453125,975.09765625,-30.2734375,972.16796875,1.0,-1.0,-1.0,0.0,1.m4v,5.0
2024-02-27 14:22:01.011899,1709040121.0118988,969.23828125,970.21484375,-30.76171875,969.7265625,1.0,-1.0,-1.0,0.0,1.m4v,5.0
2024-02-27 14:22:01.015804,1709040121.0158038,969.23828125,970.21484375,-43.9453125,969.7265625,1.0,-1.0,-1.0,0.0,1.m4v,5.0
2024-02-27 14:22:01.019709,1709040121.0197086,969.23828125,970.21484375,-56.15234375,969.7265625,1.0,-1.0,-1.0,0.0,1.m4v,5.0
2024-02-27 14:22:01.023613,1709040121.0236137,969.23828125,969.7265625,-43.45703125,969.7265625,1.0,-1.0,-1.0,0.0,1.m4v,5.0
2024-02-27 14:22:01.027519,1709040121.0275185,969.23828125,969.7265625,-28.80859375,969.7265625,1.0,-1.0,-1.0,0.0,1.m4v,5.0
2024-02-27 14:22:01.031423,1709040121.031423,969.23828125,969.7265625,-33.69140625,969.7265625,1.0,-1.0,-1.0,0.0,1.m4v,5.0
2024-02-27 14:22:01.035342,1709040121.0353415,969.23828125,970.21484375,-31.25,969.7265625,1.0,-1.0,-1.0,0.0,1.m4v,5.0
2024-02-27 14:22:01.039247,1709040121.0392466,969.23828125,969.7265625,-36.62109375,969.7265625,1.0,-1.0,-1.0,0.0,1.m4v,5.0
2024-02-27 14:22:01.043152,1709040121.0431516,969.23828125,970.21484375,-37.109375,970.21484375,1.0,-1.0,-1.0,0.0,1.m4v,5.0
2024-02-27 14:22:01.047056,1709040121.0470564,974.609375,975.09765625,-23.92578125,979.00390625,1.0,-1.0,-1.0,0.0,1.m4v,5.0
2024-02-27 14:22:01.050961,1709040121.0509613,945.80078125,946.77734375,-18.06640625,931.15234375,1.0,-1.0,-1.0,0.0,1.m4v,5.0
2024-02-27 14:22:01.054866,1709040121.0548663,946.2890625,946.2890625,-17.578125,986.328125,1.0,-1.0,-1.0,0.0,1.m4v,5.0
2024-02-27 14:22:01.058771,1709040121.0587711,999.51171875,999.51171875,-27.83203125,928.22265625,1.0,-1.0,-1.0,0.0,1.m4v,5.0
2024-02-27 14:22:01.062676,1709040121.062676,-170.8984375,-164.55078125,-27.34375,-378.90625,1.0,-1.0,-1.0,0.0,1.m4v,5.0
2024-02-27 14:22:01.066581,1709040121.066581,-1000.0,-1000.0,-10.7421875,-1000.0,1.0,-1.0,-1.0,0.0,1.m4v,5.0
2024-02-27 14:22:01.070486,1709040121.0704858,-942.3828125,-942.87109375,-6.8359375,-938.96484375,1.0,-1.0,-1.0,0.0,1.m4v,5.0
2024-02-27 14:22:01.074391,1709040121.074391,-997.55859375,-997.55859375,-6.34765625,-1000.0,1.0,-1.0,-1.0,0.0,1.m4v,5.0
2024-02-27 14:22:01.078296,1709040121.0782957,-1000.0,-1000.0,-20.99609375,-1000.0,1.0,-1.0,-1.0,0.0,1.m4v,5.0
2024-02-27 14:22:01.082213,1709040121.082213,-1000.0,-1000.0,-25.390625,-1000.0,1.0,-1.0,-1.0,0.0,1.m4v,5.0
2024-02-27 14:22:01.086118,1709040121.0861175,-1000.0,-1000.0,-7.8125,-1000.0,1.0,-1.0,-1.0,0.0,1.m4v,5.0
2024-02-27 14:22:01.090023,1709040121.0900226,-1000.0,-1000.0,-7.8125,-1000.0,1.0,-1.0,-1.0,0.0,1.m4v,5.0
2024-02-27 14:22:01.093928,1709040121.0939276,-1000.0,-1000.0,-9.765625,-1000.0,1.0,-1.0,-1.0,0.0,1.m4v,5.0
2024-02-27 14:22:01.097832,1709040121.0978324,-1000.0,-1000.0,-21.484375,-1000.0,1.0,-1.0,-1.0,0.0,1.m4v,5.0
2024-02-27 14:22:01.101737,1709040121.1017373,-1000.0,-1000.0,-14.6484375,-1000.0,1.0,-1.0,-1.0,0.0,1.m4v,5.0
2024-02-27 14:22:01.105642,1709040121.1056423,-1000.0,-1000.0,-8.30078125,-1000.0,1.0,-1.0,-1.0,0.0,1.m4v,5.0
2024-02-27 14:22:01.109547,1709040121.1095471,-1000.0,-1000.0,-19.04296875,-1000.0,1.0,-1.0,-1.0,0.0,1.m4v,5.0
2024-02-27 14:22:01.113452,1709040121.113452,-1000.0,-1000.0,-12.20703125,-1000.0,1.0,-1.0,-1.0,0.0,1.m4v,5.0
2024-02-27 14:22:01.117357,1709040121.117357,-1000.0,-1000.0,-10.25390625,-1000.0,1.0,-1.0,-1.0,0.0,1.m4v,5.0
2024-02-27 14:22:01.121262,1709040121.1212618,-978.515625,-984.86328125,-13.671875,-962.890625,1.0,-1.0,-1.0,0.0,1.m4v,5.0
2024-02-27 14:22:01.125167,1709040121.125167,-974.12109375,-962.40234375,-7.8125,-1000.0,1.0,-1.0,-1.0,0.0,1.m4v,5.0
2024-02-27 14:22:01.129083,1709040121.129083,-1000.0,-1000.0,-2.9296875,-966.30859375,1.0,-1.0,-1.0,0.0,1.m4v,5.0
2024-02-27 14:22:01.132988,1709040121.132988,114.74609375,31.25,-14.16015625,330.56640625,1.0,-1.0,-1.0,0.0,1.m4v,5.0
2024-02-27 14:22:01.136893,1709040121.1368928,999.51171875,999.51171875,-31.25,999.51171875,1.0,-1.0,-1.0,0.0,1.m4v,5.0
2024-02-27 14:22:01.140798,1709040121.1407976,913.57421875,921.38671875,-37.59765625,909.1796875,1.0,-1.0,-1.0,0.0,1.m4v,5.0
2024-02-27 14:22:01.144703,1709040121.144703,965.33203125,960.9375,-18.06640625,973.14453125,1.0,-1.0,-1.0,0.0,1.m4v,5.0
2024-02-27 14:22:01.148607,1709040121.1486075,970.21484375,971.6796875,7.8125,970.21484375,1.0,-1.0,-1.0,0.0,1.m4v,5.0
2024-02-27 14:22:01.152512,1709040121.1525123,969.23828125,970.21484375,0.48828125,969.7265625,1.0,-1.0,-1.0,0.0,1.m4v,5.0
2024-02-27 14:22:01.156417,1709040121.1564174,969.23828125,970.21484375,-26.3671875,969.7265625,1.0,-1.0,-1.0,0.0,1.m4v,5.0
2024-02-27 14:22:01.160322,1709040121.1603222,969.23828125,969.7265625,-22.94921875,970.21484375,1.0,-1.0,-1.0,0.0,1.m4v,5.0
2024-02-27 14:22:01.164227,1709040121.1642272,969.23828125,969.7265625,-21.97265625,969.7265625,1.0,-1.0,-1.0,0.0,1.m4v,5.0
2024-02-27 14:22:01.168132,1709040121.168132,969.23828125,969.7265625,-26.3671875,969.7265625,1.0,-1.0,-1.0,0.0,1.m4v,5.0
2024-02-27 14:22:01.172037,1709040121.172037,969.23828125,969.7265625,-18.5546875,969.7265625,1.0,-1.0,-1.0,0.0,1.m4v,5.0
2024-02-27 14:22:01.175953,1709040121.175953,969.23828125,969.7265625,-21.97265625,969.7265625,1.0,-1.0,-1.0,0.0,1.m4v,5.0
2024-02-27 14:22:01.179858,1709040121.1798575,969.23828125,970.21484375,-28.3203125,969.7265625,1.0,-1.0,-1.0,0.0,1.m4v,5.0
2024-02-27 14:22:01.183763,1709040121.1837628,969.23828125,969.7265625,-28.80859375,969.7265625,1.0,-1.0,-1.0,0.0,1.m4v,5.0
2024-02-27 14:22:01.187668,1709040121.1876676,980.95703125,981.4453125,-24.4140625,982.421875,1.0,-1.0,-1.0,0.0,1.m4v,5.0
2024-02-27 14:22:01.191573,1709040121.191573,921.875,923.828125,-19.04296875,911.1328125,1.0,-1.0,-1.0,0.0,1.m4v,5.0
2024-02-27 14:22:01.195477,1709040121.1954775,999.51171875,999.51171875,-11.71875,999.51171875,1.0,-1.0,-1.0,0.0,1.m4v,5.0
2024-02-27 14:22:01.199382,1709040121.1993823,891.11328125,900.390625,-13.18359375,722.16796875,1.0,-1.0,-1.0,0.0,1.m4v,5.0
2024-02-27 14:22:01.203287,1709040121.2032874,-479.98046875,-467.28515625,-19.53125,-675.29296875,1.0,-1.0,-1.0,0.0,1.m4v,5.0
2024-02-27 14:22:01.207192,1709040121.2071922,-1000.0,-1000.0,-14.6484375,-1000.0,1.0,-1.0,-1.0,0.0,1.m4v,5.0
2024-02-27 14:22:01.211097,1709040121.211097,-933.59375,-933.10546875,-18.06640625,-939.453125,1.0,-1.0,-1.0,0.0,1.m4v,5.0
2024-02-27 14:22:01.215002,1709040121.215002,-1000.0,-1000.0,-16.11328125,-1000.0,1.0,-1.0,-1.0,0.0,1.m4v,5.0
2024-02-27 14:22:01.218907,1709040121.2189069,-1000.0,-1000.0,-15.625,-1000.0,1.0,-1.0,-1.0,0.0,1.m4v,5.0
2024-02-27 14:22:01.222823,1709040121.222823,-1000.0,-1000.0,-18.06640625,-1000.0,1.0,-1.0,-1.0,0.0,1.m4v,5.0
2024-02-27 14:22:01.226728,1709040121.2267275,-1000.0,-1000.0,-9.27734375,-1000.0,1.0,-1.0,-1.0,0.0,1.m4v,5.0
2024-02-27 14:22:01.230633,1709040121.2306323,-1000.0,-1000.0,2.44140625,-1000.0,1.0,-1.0,-1.0,0.0,1.m4v,5.0
2024-02-27 14:22:01.234538,1709040121.2345376,-1000.0,-1000.0,6.8359375,-1000.0,1.0,-1.0,-1.0,0.0,1.m4v,5.0
2024-02-27 14:22:01.238442,1709040121.2384424,-1000.0,-1000.0,-17.578125,-1000.0,1.0,-1.0,-1.0,0.0,1.m4v,5.0
2024-02-27 14:22:01.242347,1709040121.2423472,-1000.0,-1000.0,-37.59765625,-1000.0,1.0,-1.0,-1.0,0.0,1.m4v,5.0
2024-02-27 14:22:01.246252,1709040121.2462523,-1000.0,-1000.0,-32.2265625,-1000.0,1.0,-1.0,-1.0,0.0,1.m4v,5.0
2024-02-27 14:22:01.250157,1709040121.250157,-1000.0,-1000.0,-19.53125,-1000.0,1.0,-1.0,-1.0,0.0,1.m4v,5.0
2024-02-27 14:22:01.254062,1709040121.2540622,-1000.0,-1000.0,-22.4609375,-1000.0,1.0,-1.0,-1.0,0.0,1.m4v,5.0
2024-02-27 14:22:01.257967,1709040121.257967,-1000.0,-1000.0,-27.83203125,-1000.0,1.0,-1.0,-1.0,0.0,1.m4v,5.0
2024-02-27 14:22:01.261872,1709040121.2618718,-925.78125,-925.78125,-24.4140625,-929.19921875,1.0,-1.0,-1.0,0.0,1.m4v,5.0
2024-02-27 14:22:01.265777,1709040121.2657769,-1000.0,-1000.0,-23.92578125,-1000.0,1.0,-1.0,-1.0,0.0,1.m4v,5.0
2024-02-27 14:22:01.269696,1709040121.2696962,-528.3203125,-542.48046875,-14.6484375,-416.9921875,1.0,-1.0,-1.0,0.0,1.m4v,5.0
2024-02-27 14:22:01.273601,1709040121.273601,901.85546875,894.53125,-2.44140625,957.03125,1.0,-1.0,-1.0,0.0,1.m4v,5.0
2024-02-27 14:22:01.277506,1709040121.277506,999.51171875,999.51171875,-8.30078125,988.76953125,1.0,-1.0,-1.0,0.0,1.m4v,5.0
2024-02-27 14:22:01.281411,1709040121.281411,916.9921875,916.50390625,-26.85546875,926.7578125,1.0,-1.0,-1.0,0.0,1.m4v,5.0
2024-02-27 14:22:01.285316,1709040121.2853158,983.88671875,984.86328125,-23.4375,981.93359375,1.0,-1.0,-1.0,0.0,1.m4v,5.0
2024-02-27 14:22:01.289221,1709040121.2892206,969.23828125,969.7265625,-14.6484375,969.7265625,1.0,-1.0,-1.0,0.0,1.m4v,5.0
2024-02-27 14:22:01.293126,1709040121.2931256,969.23828125,969.7265625,-27.83203125,969.7265625,1.0,-1.0,-1.0,0.0,1.m4v,5.0
2024-02-27 14:22:01.297030,1709040121.2970304,969.23828125,969.7265625,-32.71484375,969.7265625,1.0,-1.0,-1.0,0.0,1.m4v,5.0
2024-02-27 14:22:01.300936,1709040121.3009355,969.23828125,969.7265625,-22.94921875,969.7265625,1.0,-1.0,-1.0,0.0,1.m4v,5.0
2024-02-27 14:22:01.304840,1709040121.3048403,969.23828125,969.7265625,-20.01953125,970.21484375,1.0,-1.0,-1.0,0.0,1.m4v,5.0
2024-02-27 14:22:01.308745,1709040121.3087451,969.23828125,969.7265625,-18.06640625,969.7265625,1.0,-1.0,-1.0,0.0,1.m4v,5.0
2024-02-27 14:22:01.312650,1709040121.3126502,969.23828125,969.7265625,-18.06640625,969.7265625,1.0,-1.0,-1.0,0.0,1.m4v,5.0
2024-02-27 14:22:01.316569,1709040121.316569,969.23828125,969.7265625,-22.4609375,969.7265625,1.0,-1.0,-1.0,0.0,1.m4v,5.0
2024-02-27 14:22:01.320474,1709040121.320474,969.23828125,969.7265625,-17.578125,969.7265625,1.0,-1.0,-1.0,0.0,1.m4v,5.0
2024-02-27 14:22:01.324379,1709040121.3243787,969.23828125,969.7265625,-16.6015625,969.7265625,1.0,-1.0,-1.0,0.0,1.m4v,5.0
2024-02-27 14:22:01.328284,1709040121.3282838,975.09765625,973.6328125,-20.01953125,979.00390625,1.0,-1.0,-1.0,0.0,1.m4v,5.0
2024-02-27 14:22:01.332189,1709040121.3321886,943.84765625,951.171875,-20.01953125,928.7109375,1.0,-1.0,-1.0,0.0,1.m4v,5.0
2024-02-27 14:22:01.336093,1709040121.3360934,950.1953125,937.5,-24.4140625,993.65234375,1.0,-1.0,-1.0,0.0,1.m4v,5.0
2024-02-27 14:22:01.785284,1709040121.7852845,-1000.0,-1000.0,-26.3671875,-1000.0,1.0,-1.0,-1.0,0.0,1.m4v,5.0
2024-02-27 14:22:01.789189,1709040121.789189,-1000.0,-1000.0,-30.76171875,-1000.0,1.0,-1.0,-1.0,0.0,1.m4v,5.0
2024-02-27 14:22:01.793094,1709040121.7930942,-1000.0,-1000.0,-17.578125,-1000.0,1.0,-1.0,-1.0,0.0,1.m4v,5.0
2024-02-27 14:22:01.796999,1709040121.7969992,-1000.0,-1000.0,-22.4609375,-1000.0,1.0,-1.0,-1.0,0.0,1.m4v,5.0
2024-02-27 14:22:01.800904,1709040121.800904,-1000.0,-1000.0,-31.25,-1000.0,1.0,-1.0,-1.0,0.0,1.m4v,5.0
2024-02-27 14:22:01.804809,1709040121.8048089,-1000.0,-1000.0,-21.97265625,-1000.0,1.0,-1.0,-1.0,0.0,1.m4v,5.0
2024-02-27 14:22:01.808714,1709040121.808714,-1000.0,-1000.0,-17.578125,-1000.0,1.0,-1.0,-1.0,0.0,1.m4v,5.0
2024-02-27 14:22:01.812619,1709040121.8126187,-1000.0,-1000.0,-7.8125,-1000.0,1.0,-1.0,-1.0,0.0,1.m4v,5.0
2024-02-27 14:22:01.816524,1709040121.8165236,-1000.0,-1000.0,-13.18359375,-1000.0,1.0,-1.0,-1.0,0.0,1.m4v,5.0
2024-02-27 14:22:01.820429,1709040121.8204286,-1000.0,-1000.0,-27.83203125,-990.72265625,1.0,-1.0,-1.0,0.0,1.m4v,5.0
2024-02-27 14:22:01.824333,1709040121.8243334,-939.453125,-937.5,-26.85546875,-954.58984375,1.0,-1.0,-1.0,0.0,1.m4v,5.0
2024-02-27 14:22:01.828238,1709040121.8282382,-1000.0,-1000.0,-23.4375,-1000.0,1.0,-1.0,-1.0,0.0,1.m4v,5.0
2024-02-27 14:22:01.832155,1709040121.8321557,-198.73046875,-219.23828125,-12.20703125,-67.3828125,1.0,-1.0,-1.0,0.0,1.m4v,5.0
2024-02-27 14:22:01.836060,1709040121.8360603,999.51171875,999.51171875,-0.9765625,999.51171875,1.0,-1.0,-1.0,0.0,1.m4v,5.0
2024-02-27 14:22:01.839965,1709040121.839965,949.70703125,953.61328125,-5.859375,936.03515625,1.0,-1.0,-1.0,0.0,1.m4v,5.0
2024-02-27 14:22:01.843870,1709040121.8438702,943.359375,942.3828125,-11.23046875,952.63671875,1.0,-1.0,-1.0,0.0,1.m4v,5.0
2024-02-27 14:22:01.847775,1709040121.847775,975.5859375,976.5625,-8.30078125,973.6328125,1.0,-1.0,-1.0,0.0,1.m4v,5.0
2024-02-27 14:22:01.851680,1709040121.85168,969.23828125,969.7265625,-6.8359375,969.7265625,1.0,-1.0,-1.0,0.0,1.m4v,5.0
2024-02-27 14:22:01.855585,1709040121.8555849,969.23828125,969.7265625,-22.4609375,969.7265625,1.0,-1.0,-1.0,0.0,1.m4v,5.0
2024-02-27 14:22:01.859490,1709040121.8594897,969.23828125,969.7265625,-26.85546875,969.7265625,1.0,-1.0,-1.0,0.0,1.m4v,5.0
2024-02-27 14:22:01.863395,1709040121.8633947,969.23828125,969.7265625,-14.6484375,969.7265625,1.0,-1.0,-1.0,0.0,1.m4v,5.0
2024-02-27 14:22:01.867300,1709040121.8672996,969.23828125,970.21484375,-12.6953125,969.7265625,1.0,-1.0,-1.0,0.0,1.m4v,5.0
2024-02-27 14:22:01.871204,1709040121.8712044,979.00390625,982.91015625,-1.953125,979.4921875,1.0,-1.0,-1.0,0.0,1.m4v,5.0
2024-02-27 14:22:01.875109,1709040121.8751094,931.15234375,898.92578125,-6.8359375,930.6640625,1.0,-1.0,-1.0,0.0,1.m4v,5.0
2024-02-27 14:22:01.879027,1709040121.879027,979.4921875,999.51171875,-23.92578125,985.3515625,1.0,-1.0,-1.0,0.0,1.m4v,5.0
2024-02-27 14:22:01.882931,1709040121.8829317,961.9140625,528.80859375,-29.296875,938.96484375,1.0,-1.0,-1.0,0.0,1.m4v,5.0
2024-02-27 14:22:01.886837,1709040121.8868363,-359.375,-889.16015625,-23.92578125,-379.39453125,1.0,-1.0,-1.0,0.0,1.m4v,5.0
2024-02-27 14:22:01.890741,1709040121.890741,-1000.0,-1000.0,-12.6953125,-1000.0,1.0,-1.0,-1.0,0.0,1.m4v,5.0
2024-02-27 14:22:01.894646,1709040121.8946462,-935.05859375,-946.77734375,-15.625,-937.01171875,1.0,-1.0,-1.0,0.0,1.m4v,5.0
2024-02-27 14:22:01.898551,1709040121.8985512,-1000.0,-1000.0,-19.53125,-1000.0,1.0,-1.0,-1.0,0.0,1.m4v,5.0
2024-02-27 14:22:01.902456,1709040121.902456,-1000.0,-1000.0,-34.1796875,-1000.0,1.0,-1.0,-1.0,0.0,1.m4v,5.0
2024-02-27 14:22:01.906361,1709040121.9063609,-1000.0,-1000.0,-35.15625,-1000.0,1.0,-1.0,-1.0,0.0,1.m4v,5.0
2024-02-27 14:22:01.910266,1709040121.910266,-1000.0,-1000.0,-16.6015625,-1000.0,1.0,-1.0,-1.0,0.0,1.m4v,5.0
2024-02-27 14:22:01.914171,1709040121.9141707,-1000.0,-1000.0,-20.99609375,-1000.0,1.0,-1.0,-1.0,0.0,1.m4v,5.0
2024-02-27 14:22:01.918076,1709040121.9180758,-1000.0,-1000.0,-26.85546875,-1000.0,1.0,-1.0,-1.0,0.0,1.m4v,5.0
2024-02-27 14:22:01.921981,1709040121.9219806,-1000.0,-1000.0,-23.92578125,-1000.0,1.0,-1.0,-1.0,0.0,1.m4v,5.0
2024-02-27 14:22:01.925901,1709040121.9259012,-926.7578125,-930.17578125,-18.06640625,-937.01171875,1.0,-1.0,-1.0,0.0,1.m4v,5.0
2024-02-27 14:22:01.929806,1709040121.929806,-1000.0,-1000.0,-7.32421875,-1000.0,1.0,-1.0,-1.0,0.0,1.m4v,5.0
2024-02-27 14:22:01.933711,1709040121.933711,-468.26171875,-665.0390625,1.46484375,-303.7109375,1.0,-1.0,-1.0,0.0,1.m4v,5.0
2024-02-27 14:22:01.937616,1709040121.937616,935.05859375,784.1796875,-7.32421875,993.65234375,1.0,-1.0,-1.0,0.0,1.m4v,5.0
2024-02-27 14:22:01.941521,1709040121.9415207,996.58203125,999.51171875,-21.97265625,971.6796875,1.0,-1.0,-1.0,0.0,1.m4v,5.0
2024-02-27 14:22:01.945426,1709040121.9454255,921.38671875,909.1796875,-20.01953125,935.05859375,1.0,-1.0,-1.0,0.0,1.m4v,5.0
2024-02-27 14:22:01.949331,1709040121.9493306,982.421875,985.83984375,-14.6484375,979.4921875,1.0,-1.0,-1.0,0.0,1.m4v,5.0
2024-02-27 14:22:01.953235,1709040121.9532354,969.23828125,969.23828125,-17.08984375,969.7265625,1.0,-1.0,-1.0,0.0,1.m4v,5.0
2024-02-27 14:22:01.957140,1709040121.9571404,969.23828125,909.1796875,-22.94921875,969.7265625,1.0,-1.0,-1.0,0.0,1.m4v,5.0
2024-02-27 14:22:01.961045,1709040121.9610453,969.23828125,999.51171875,-27.34375,969.7265625,1.0,-1.0,-1.0,0.0,1.m4v,5.0
2024-02-27 14:22:01.964950,1709040121.9649503,972.65625,168.45703125,-27.83203125,977.05078125,1.0,-1.0,-1.0,0.0,1.m4v,5.0
2024-02-27 14:22:01.968855,1709040121.9688551,951.66015625,-1000.0,-24.90234375,937.5,1.0,-1.0,-1.0,0.0,1.m4v,5.0
2024-02-27 14:22:01.972772,1709040121.972772,934.5703125,-981.4453125,-20.99609375,970.703125,1.0,-1.0,-1.0,0.0,1.m4v,5.0
2024-02-27 14:22:01.976677,1709040121.9766772,999.51171875,-974.609375,-41.50390625,971.19140625,1.0,-1.0,-1.0,0.0,1.m4v,5.0
2024-02-27 14:22:01.980582,1709040121.980582,-87.40234375,-1000.0,-54.19921875,-286.1328125,1.0,-1.0,-1.0,0.0,1.m4v,5.0
2024-02-27 14:22:01.984487,1709040121.984487,-1000.0,-1000.0,-43.9453125,-1000.0,1.0,-1.0,-1.0,0.0,1.m4v,5.0
2024-02-27 14:22:01.988392,1709040121.988392,-949.70703125,-1000.0,-29.78515625,-942.87109375,1.0,-1.0,-1.0,0.0,1.m4v,5.0
2024-02-27 14:22:01.992297,1709040121.9922967,-992.67578125,-1000.0,-23.92578125,-1000.0,1.0,-1.0,-1.0,0.0,1.m4v,5.0
2024-02-27 14:22:01.996202,1709040121.9962018,-1000.0,-1000.0,-30.76171875,-1000.0,1.0,-1.0,-1.0,0.0,1.m4v,5.0
2024-02-27 14:22:02.000107,1709040122.0001066,-1000.0,-1000.0,-31.25,-1000.0,1.0,-1.0,-1.0,0.0,1.m4v,5.0
2024-02-27 14:22:02.004011,1709040122.0040114,-1000.0,-1000.0,-34.1796875,-1000.0,1.0,-1.0,-1.0,0.0,1.m4v,5.0
2024-02-27 14:22:02.007916,1709040122.0079165,-1000.0,-1000.0,-28.3203125,-1000.0,1.0,-1.0,-1.0,0.0,1.m4v,5.0
2024-02-27 14:22:02.011821,1709040122.0118213,-1000.0,-1000.0,-20.5078125,-1000.0,1.0,-1.0,-1.0,0.0,1.m4v,5.0
2024-02-27 14:22:02.015726,1709040122.015726,-1000.0,-1000.0,-35.64453125,-1000.0,1.0,-1.0,-1.0,0.0,1.m4v,5.0
2024-02-27 14:22:02.019645,1709040122.0196457,-1000.0,-1000.0,-49.8046875,-1000.0,1.0,-1.0,-1.0,0.0,1.m4v,5.0
2024-02-27 14:22:02.023551,1709040122.0235505,-930.6640625,-925.78125,-36.62109375,-934.5703125,1.0,-1.0,-1.0,0.0,1.m4v,5.0
2024-02-27 14:22:02.027455,1709040122.027455,-1000.0,-1000.0,-23.92578125,-1000.0,1.0,-1.0,-1.0,0.0,1.m4v,5.0
2024-02-27 14:22:02.031360,1709040122.0313604,-347.16796875,-544.43359375,-25.87890625,-272.4609375,1.0,-1.0,-1.0,0.0,1.m4v,5.0
2024-02-27 14:22:02.035265,1709040122.0352652,992.67578125,893.06640625,-26.85546875,999.51171875,1.0,-1.0,-1.0,0.0,1.m4v,5.0
2024-02-27 14:22:02.039170,1709040122.03917,974.12109375,999.51171875,-30.76171875,962.40234375,1.0,-1.0,-1.0,0.0,1.m4v,5.0
2024-02-27 14:22:02.043075,1709040122.043075,931.640625,916.50390625,-31.73828125,937.98828125,1.0,-1.0,-1.0,0.0,1.m4v,5.0
2024-02-27 14:22:02.046980,1709040122.04698,979.4921875,984.86328125,-26.85546875,978.02734375,1.0,-1.0,-1.0,0.0,1.m4v,5.0
2024-02-27 14:22:02.050885,1709040122.0508847,969.23828125,969.7265625,-11.23046875,969.7265625,1.0,-1.0,-1.0,0.0,1.m4v,5.0
2024-02-27 14:22:02.054790,1709040122.0547898,969.23828125,969.7265625,0.9765625,969.7265625,1.0,-1.0,-1.0,0.0,1.m4v,5.0
2024-02-27 14:22:02.058695,1709040122.0586946,969.23828125,969.7265625,-4.39453125,969.7265625,1.0,-1.0,-1.0,0.0,1.m4v,5.0
2024-02-27 14:22:02.062599,1709040122.0625994,969.23828125,969.7265625,-7.8125,969.7265625,1.0,-1.0,-1.0,0.0,1.m4v,5.0
2024-02-27 14:22:02.066518,1709040122.0665183,969.23828125,969.7265625,-5.37109375,969.7265625,1.0,-1.0,-1.0,0.0,1.m4v,5.0
2024-02-27 14:22:02.070423,1709040122.0704234,969.23828125,969.7265625,-15.625,969.7265625,1.0,-1.0,-1.0,0.0,1.m4v,5.0
2024-02-27 14:22:02.074328,1709040122.0743282,969.23828125,969.7265625,-19.53125,969.7265625,1.0,-1.0,-1.0,0.0,1.m4v,5.0
2024-02-27 14:22:02.078233,1709040122.078233,969.23828125,969.7265625,-29.296875,969.7265625,1.0,-1.0,-1.0,0.0,1.m4v,5.0
2024-02-27 14:22:02.082138,1709040122.082138,969.23828125,969.7265625,-41.9921875,969.7265625,1.0,-1.0,-1.0,0.0,1.m4v,5.0
2024-02-27 14:22:02.086043,1709040122.086043,969.23828125,970.21484375,-16.6015625,970.21484375,1.0,-1.0,-1.0,0.0,1.m4v,5.0
2024-02-27 14:22:02.089948,1709040122.089948,976.07421875,980.95703125,4.39453125,973.6328125,1.0,-1.0,-1.0,0.0,1.m4v,5.0
2024-02-27 14:22:02.093853,1709040122.0938528,899.4140625,896.484375,-11.71875,903.80859375,1.0,-1.0,-1.0,0.0,1.m4v,5.0
2024-02-27 14:22:02.097758,1709040122.0977576,999.51171875,999.51171875,-20.01953125,999.51171875,1.0,-1.0,-1.0,0.0,1.m4v,5.0
2024-02-27 14:22:02.101663,1709040122.1016626,313.96484375,414.55078125,-21.484375,247.0703125,1.0,-1.0,-1.0,0.0,1.m4v,5.0
2024-02-27 14:22:02.105567,1709040122.1055677,-1000.0,-979.98046875,-15.13671875,-1000.0,1.0,-1.0,-1.0,0.0,1.m4v,5.0
2024-02-27 14:22:02.109472,1709040122.1094725,-1000.0,-1000.0,-4.39453125,-994.140625,1.0,-1.0,-1.0,0.0,1.m4v,5.0
2024-02-27 14:22:02.113391,1709040122.1133912,-962.890625,-954.58984375,-7.8125,-968.26171875,1.0,-1.0,-1.0,0.0,1.m4v,5.0
2024-02-27 14:22:02.117296,1709040122.117296,-1000.0,-1000.0,-17.08984375,-1000.0,1.0,-1.0,-1.0,0.0,1.m4v,5.0
2024-02-27 14:22:02.121201,1709040122.1212008,-1000.0,-1000.0,-20.5078125,-1000.0,1.0,-1.0,-1.0,0.0,1.m4v,5.0
2024-02-27 14:22:02.125106,1709040122.125106,-1000.0,-955.078125,-18.06640625,-1000.0,1.0,-1.0,-1.0,0.0,1.m4v,5.0
2024-02-27 14:22:02.129011,1709040122.129011,-1000.0,-1000.0,-8.30078125,-1000.0,1.0,-1.0,-1.0,0.0,1.m4v,5.0
2024-02-27 14:22:02.132916,1709040122.1329155,-1000.0,-900.87890625,-8.7890625,-1000.0,1.0,-1.0,-1.0,0.0,1.m4v,5.0
2024-02-27 14:22:02.136821,1709040122.1368206,-1000.0,442.87109375,-24.4140625,-1000.0,1.0,-1.0,-1.0,0.0,1.m4v,5.0
2024-02-27 14:22:02.140725,1709040122.1407254,-974.12109375,999.51171875,-33.203125,-960.44921875,1.0,-1.0,-1.0,0.0,1.m4v,5.0
2024-02-27 14:22:02.144630,1709040122.1446304,-983.88671875,907.2265625,-26.3671875,-1000.0,1.0,-1.0,-1.0,0.0,1.m4v,5.0
2024-02-27 14:22:02.148535,1709040122.1485353,-1000.0,977.5390625,-16.6015625,-954.58984375,1.0,-1.0,-1.0,0.0,1.m4v,5.0
2024-02-27 14:22:02.152440,1709040122.15244,177.24609375,970.21484375,-12.6953125,358.88671875,1.0,-1.0,-1.0,0.0,1.m4v,5.0
2024-02-27 14:22:02.156345,1709040122.1563451,999.51171875,969.7265625,-31.73828125,999.51171875,1.0,-1.0,-1.0,0.0,1.m4v,5.0
2024-02-27 14:22:02.160263,1709040122.1602628,909.66796875,970.21484375,-41.015625,908.203125,1.0,-1.0,-1.0,0.0,1.m4v,5.0
2024-02-27 14:22:02.164168,1709040122.1641676,968.26171875,969.7265625,-31.73828125,974.609375,1.0,-1.0,-1.0,0.0,1.m4v,5.0
2024-02-27 14:22:02.168073,1709040122.1680727,969.7265625,969.7265625,-23.92578125,970.21484375,1.0,-1.0,-1.0,0.0,1.m4v,5.0
2024-02-27 14:22:02.171978,1709040122.1719775,969.23828125,969.7265625,-23.92578125,969.7265625,1.0,-1.0,-1.0,0.0,1.m4v,5.0
2024-02-27 14:22:02.175883,1709040122.1758826,968.75,969.7265625,-32.2265625,969.7265625,1.0,-1.0,-1.0,0.0,1.m4v,5.0
2024-02-27 14:22:02.179787,1709040122.1797874,969.23828125,969.7265625,-26.85546875,969.7265625,1.0,-1.0,-1.0,0.0,1.m4v,5.0
2024-02-27 14:22:02.183692,1709040122.1836922,969.23828125,969.7265625,-20.99609375,969.7265625,1.0,-1.0,-1.0,0.0,1.m4v,5.0
2024-02-27 14:22:02.187597,1709040122.1875973,978.515625,975.09765625,-20.5078125,981.93359375,1.0,-1.0,-1.0,0.0,1.m4v,5.0
2024-02-27 14:22:02.191502,1709040122.191502,932.12890625,946.2890625,-14.16015625,912.59765625,1.0,-1.0,-1.0,0.0,1.m4v,5.0
2024-02-27 14:22:02.195407,1709040122.195407,976.5625,946.2890625,-19.04296875,999.51171875,1.0,-1.0,-1.0,0.0,1.m4v,5.0
2024-02-27 14:22:02.199312,1709040122.199312,971.19140625,999.51171875,-29.78515625,727.5390625,1.0,-1.0,-1.0,0.0,1.m4v,5.0
2024-02-27 14:22:02.203217,1709040122.2032168,-343.75,-168.45703125,-42.96875,-659.1796875,1.0,-1.0,-1.0,0.0,1.m4v,5.0
2024-02-27 14:22:02.207134,1709040122.2071335,-1000.0,-1000.0,-37.109375,-1000.0,1.0,-1.0,-1.0,0.0,1.m4v,5.0
2024-02-27 14:22:02.211038,1709040122.2110384,-935.05859375,-941.89453125,-20.5078125,-939.94140625,1.0,-1.0,-1.0,0.0,1.m4v,5.0
2024-02-27 14:22:02.214943,1709040122.2149434,-1000.0,-998.046875,-18.5546875,-1000.0,1.0,-1.0,-1.0,0.0,1.m4v,5.0
2024-02-27 14:22:02.218848,1709040122.2188482,-1000.0,-1000.0,-29.78515625,-1000.0,1.0,-1.0,-1.0,0.0,1.m4v,5.0
2024-02-27 14:22:02.222753,1709040122.2227533,-1000.0,-1000.0,-26.85546875,-1000.0,1.0,-1.0,-1.0,0.0,1.m4v,5.0
2024-02-27 14:22:02.226658,1709040122.226658,-1000.0,-1000.0,-12.20703125,-1000.0,1.0,-1.0,-1.0,0.0,1.m4v,5.0
2024-02-27 14:22:02.230563,1709040122.230563,-1000.0,-1000.0,-10.7421875,-1000.0,1.0,-1.0,-1.0,0.0,1.m4v,5.0
2024-02-27 14:22:02.234468,1709040122.234468,-1000.0,-1000.0,-6.8359375,-1000.0,1.0,-1.0,-1.0,0.0,1.m4v,5.0
2024-02-27 14:22:02.238373,1709040122.2383728,-1000.0,-1000.0,-21.484375,-1000.0,1.0,-1.0,-1.0,0.0,1.m4v,5.0
2024-02-27 14:22:02.242278,1709040122.2422776,-1000.0,-1000.0,-40.52734375,-1000.0,1.0,-1.0,-1.0,0.0,1.m4v,5.0
2024-02-27 14:22:02.246183,1709040122.246183,-1000.0,-1000.0,-25.390625,-1000.0,1.0,-1.0,-1.0,0.0,1.m4v,5.0
2024-02-27 14:22:02.250087,1709040122.2500875,-1000.0,-1000.0,-14.6484375,-1000.0,1.0,-1.0,-1.0,0.0,1.m4v,5.0
2024-02-27 14:22:02.254004,1709040122.2540042,-1000.0,-1000.0,-20.01953125,-1000.0,1.0,-1.0,-1.0,0.0,1.m4v,5.0
2024-02-27 14:22:02.257909,1709040122.257909,-1000.0,-1000.0,-31.25,-1000.0,1.0,-1.0,-1.0,0.0,1.m4v,5.0
2024-02-27 14:22:02.261814,1709040122.261814,-926.7578125,-934.5703125,-28.80859375,-928.7109375,1.0,-1.0,-1.0,0.0,1.m4v,5.0
2024-02-27 14:22:02.265719,1709040122.265719,-1000.0,-1000.0,-20.99609375,-1000.0,1.0,-1.0,-1.0,0.0,1.m4v,5.0
2024-02-27 14:22:02.269624,1709040122.2696238,-445.80078125,-263.18359375,-11.71875,-397.94921875,1.0,-1.0,-1.0,0.0,1.m4v,5.0
2024-02-27 14:22:02.273529,1709040122.2735288,948.2421875,999.51171875,4.39453125,969.23828125,1.0,-1.0,-1.0,0.0,1.m4v,5.0
2024-02-27 14:22:02.277434,1709040122.2774336,992.1875,960.44921875,-19.53125,984.86328125,1.0,-1.0,-1.0,0.0,1.m4v,5.0
2024-02-27 14:22:02.281338,1709040122.2813385,923.828125,938.96484375,-37.109375,928.22265625,1.0,-1.0,-1.0,0.0,1.m4v,5.0
2024-02-27 14:22:02.285244,1709040122.2852435,981.93359375,978.02734375,-24.4140625,981.4453125,1.0,-1.0,-1.0,0.0,1.m4v,5.0
2024-02-27 14:22:02.289148,1709040122.2891483,969.23828125,969.7265625,-13.18359375,969.7265625,1.0,-1.0,-1.0,0.0,1.m4v,5.0
2024-02-27 14:22:02.293053,1709040122.2930532,969.23828125,969.7265625,-20.99609375,969.7265625,1.0,-1.0,-1.0,0.0,1.m4v,5.0
2024-02-27 14:22:02.296958,1709040122.2969582,968.75,969.7265625,-31.73828125,969.7265625,1.0,-1.0,-1.0,0.0,1.m4v,5.0
2024-02-27 14:22:02.300875,1709040122.3008747,969.23828125,969.7265625,-37.59765625,969.7265625,1.0,-1.0,-1.0,0.0,1.m4v,5.0
2024-02-27 14:22:02.304780,1709040122.3047795,969.23828125,970.21484375,-27.83203125,969.7265625,1.0,-1.0,-1.0,0.0,1.m4v,5.0
2024-02-27 14:22:02.308684,1709040122.3086843,969.23828125,969.7265625,-22.94921875,969.7265625,1.0,-1.0,-1.0,0.0,1.m4v,5.0
2024-02-27 14:22:02.312589,1709040122.3125894,969.23828125,969.7265625,-28.3203125,969.7265625,1.0,-1.0,-1.0,0.0,1.m4v,5.0
2024-02-27 14:22:02.316494,1709040122.3164942,968.75,969.7265625,-17.08984375,969.7265625,1.0,-1.0,-1.0,0.0,1.m4v,5.0
2024-02-27 14:22:02.320399,1709040122.3203993,969.23828125,969.7265625,-18.06640625,969.7265625,1.0,-1.0,-1.0,0.0,1.m4v,5.0
2024-02-27 14:22:02.324304,1709040122.324304,969.23828125,969.7265625,-26.85546875,969.7265625,1.0,-1.0,-1.0,0.0,1.m4v,5.0
2024-02-27 14:22:02.328209,1709040122.328209,983.88671875,982.91015625,-28.3203125,982.421875,1.0,-1.0,-1.0,0.0,1.m4v,5.0
2024-02-27 14:22:02.332114,1709040122.332114,908.203125,916.9921875,-11.71875,903.80859375,1.0,-1.0,-1.0,0.0,1.m4v,5.0
2024-02-27 14:22:02.336019,1709040122.3360188,999.51171875,999.51171875,-6.8359375,999.51171875,1.0,-1.0,-1.0,0.0,1.m4v,5.0
2024-02-27 14:22:02.339924,1709040122.3399236,753.90625,839.35546875,-12.20703125,593.75,1.0,-1.0,-1.0,0.0,1.m4v,5.0
2024-02-27 14:22:02.343829,1709040122.343829,-671.38671875,-557.6171875,-25.87890625,-814.94140625,1.0,-1.0,-1.0,0.0,1.m4v,5.0
2024-02-27 14:22:02.347744,1709040122.347744,-1000.0,-1000.0,-26.85546875,-1000.0,1.0,-1.0,-1.0,0.0,1.m4v,5.0
2024-02-27 14:22:02.351649,1709040122.3516488,-935.546875,-933.59375,-4.8828125,-944.3359375,1.0,-1.0,-1.0,0.0,1.m4v,5.0
2024-02-27 14:22:02.355554,1709040122.355554,-1000.0,-1000.0,-3.41796875,-1000.0,1.0,-1.0,-1.0,0.0,1.m4v,5.0
2024-02-27 14:22:02.359459,1709040122.3594587,-1000.0,-1000.0,-12.6953125,-1000.0,1.0,-1.0,-1.0,0.0,1.m4v,5.0
2024-02-27 14:22:02.363364,1709040122.3633635,-1000.0,-1000.0,-11.71875,-1000.0,1.0,-1.0,-1.0,0.0,1.m4v,5.0
2024-02-27 14:22:02.367269,1709040122.3672686,-1000.0,-1000.0,-12.20703125,-1000.0,1.0,-1.0,-1.0,0.0,1.m4v,5.0
2024-02-27 14:22:02.769595,1709040122.769595,-952.63671875,-949.21875,-20.01953125,-945.3125,1.0,-1.0,-1.0,0.0,1.m4v,5.0
2024-02-27 14:22:02.773500,1709040122.7734995,-990.72265625,-993.1640625,-18.06640625,-998.53515625,1.0,-1.0,-1.0,0.0,1.m4v,5.0
2024-02-27 14:22:02.777405,1709040122.7774043,-1000.0,-1000.0,-33.69140625,-1000.0,1.0,-1.0,-1.0,0.0,1.m4v,5.0
2024-02-27 14:22:02.781310,1709040122.7813096,-1000.0,-1000.0,-37.109375,-1000.0,1.0,-1.0,-1.0,0.0,1.m4v,5.0
2024-02-27 14:22:02.785214,1709040122.7852144,-1000.0,-1000.0,-28.3203125,-1000.0,1.0,-1.0,-1.0,0.0,1.m4v,5.0
2024-02-27 14:22:02.789119,1709040122.7891192,-1000.0,-1000.0,-31.73828125,-1000.0,1.0,-1.0,-1.0,0.0,1.m4v,5.0
2024-02-27 14:22:02.793024,1709040122.7930243,-1000.0,-1000.0,-35.15625,-1000.0,1.0,-1.0,-1.0,0.0,1.m4v,5.0
2024-02-27 14:22:02.796929,1709040122.7969291,-1000.0,-1000.0,-37.59765625,-1000.0,1.0,-1.0,-1.0,0.0,1.m4v,5.0
2024-02-27 14:22:02.800834,1709040122.800834,-1000.0,-1000.0,-41.50390625,-1000.0,1.0,-1.0,-1.0,0.0,1.m4v,5.0
2024-02-27 14:22:02.804739,1709040122.804739,-1000.0,-1000.0,-36.1328125,-1000.0,1.0,-1.0,-1.0,0.0,1.m4v,5.0
2024-02-27 14:22:02.808644,1709040122.8086438,-1000.0,-1000.0,-23.4375,-1000.0,1.0,-1.0,-1.0,0.0,1.m4v,5.0
2024-02-27 14:22:02.812549,1709040122.8125489,-1000.0,-1000.0,-15.625,-1000.0,1.0,-1.0,-1.0,0.0,1.m4v,5.0
2024-02-27 14:22:02.816468,1709040122.8164675,-1000.0,-1000.0,-13.18359375,-1000.0,1.0,-1.0,-1.0,0.0,1.m4v,5.0
2024-02-27 14:22:02.820373,1709040122.8203726,-990.234375,-993.65234375,-11.23046875,-977.05078125,1.0,-1.0,-1.0,0.0,1.m4v,5.0
2024-02-27 14:22:02.824277,1709040122.8242774,-954.1015625,-947.75390625,-7.8125,-980.95703125,1.0,-1.0,-1.0,0.0,1.m4v,5.0
2024-02-27 14:22:02.828182,1709040122.8281822,-1000.0,-1000.0,-11.71875,-1000.0,1.0,-1.0,-1.0,0.0,1.m4v,5.0
2024-02-27 14:22:02.832087,1709040122.8320873,-44.921875,-101.07421875,-11.23046875,133.30078125,1.0,-1.0,-1.0,0.0,1.m4v,5.0
2024-02-27 14:22:02.835992,1709040122.835992,999.51171875,999.51171875,-2.9296875,999.51171875,1.0,-1.0,-1.0,0.0,1.m4v,5.0
2024-02-27 14:22:02.839897,1709040122.839897,929.6875,937.01171875,-13.18359375,918.45703125,1.0,-1.0,-1.0,0.0,1.m4v,5.0
2024-02-27 14:22:02.843802,1709040122.843802,954.58984375,951.66015625,-32.2265625,964.35546875,1.0,-1.0,-1.0,0.0,1.m4v,5.0
2024-02-27 14:22:02.847707,1709040122.8477068,972.16796875,973.6328125,-26.3671875,971.19140625,1.0,-1.0,-1.0,0.0,1.m4v,5.0
2024-02-27 14:22:02.851612,1709040122.851612,969.23828125,969.7265625,-14.16015625,969.7265625,1.0,-1.0,-1.0,0.0,1.m4v,5.0
2024-02-27 14:22:02.855517,1709040122.855517,969.23828125,969.7265625,-23.4375,969.7265625,1.0,-1.0,-1.0,0.0,1.m4v,5.0
2024-02-27 14:22:02.859421,1709040122.8594215,969.23828125,969.7265625,-31.25,969.7265625,1.0,-1.0,-1.0,0.0,1.m4v,5.0
2024-02-27 14:22:02.863340,1709040122.86334,969.23828125,969.7265625,-31.73828125,969.7265625,1.0,-1.0,-1.0,0.0,1.m4v,5.0
2024-02-27 14:22:02.867245,1709040122.8672447,969.23828125,969.7265625,-35.15625,970.21484375,1.0,-1.0,-1.0,0.0,1.m4v,5.0
2024-02-27 14:22:02.871150,1709040122.8711495,969.23828125,969.7265625,-22.4609375,969.7265625,1.0,-1.0,-1.0,0.0,1.m4v,5.0
2024-02-27 14:22:02.875055,1709040122.8750546,969.23828125,969.7265625,-8.30078125,969.7265625,1.0,-1.0,-1.0,0.0,1.m4v,5.0
2024-02-27 14:22:02.878959,1709040122.8789594,969.23828125,969.7265625,-9.765625,969.7265625,1.0,-1.0,-1.0,0.0,1.m4v,5.0
2024-02-27 14:22:02.882864,1709040122.8828645,969.23828125,969.7265625,-12.6953125,969.7265625,1.0,-1.0,-1.0,0.0,1.m4v,5.0
2024-02-27 14:22:02.886769,1709040122.8867693,975.09765625,975.09765625,-1.953125,979.98046875,1.0,-1.0,-1.0,0.0,1.m4v,5.0
2024-02-27 14:22:02.890674,1709040122.890674,944.3359375,946.77734375,-3.41796875,927.24609375,1.0,-1.0,-1.0,0.0,1.m4v,5.0
2024-02-27 14:22:02.894579,1709040122.8945792,948.73046875,946.2890625,-10.7421875,996.09375,1.0,-1.0,-1.0,0.0,1.m4v,5.0
2024-02-27 14:22:02.898484,1709040122.898484,999.51171875,999.51171875,-14.6484375,896.97265625,1.0,-1.0,-1.0,0.0,1.m4v,5.0
2024-02-27 14:22:02.902389,1709040122.9023888,-185.05859375,-164.55078125,-36.1328125,-430.17578125,1.0,-1.0,-1.0,0.0,1.m4v,5.0
2024-02-27 14:22:02.906294,1709040122.906294,-1000.0,-1000.0,-38.57421875,-1000.0,1.0,-1.0,-1.0,0.0,1.m4v,5.0
2024-02-27 14:22:02.910212,1709040122.9102116,-941.40625,-942.3828125,-19.53125,-938.4765625,1.0,-1.0,-1.0,0.0,1.m4v,5.0
2024-02-27 14:22:02.914116,1709040122.9141164,-998.53515625,-997.55859375,-17.578125,-1000.0,1.0,-1.0,-1.0,0.0,1.m4v,5.0
2024-02-27 14:22:02.918021,1709040122.9180214,-1000.0,-1000.0,-24.4140625,-1000.0,1.0,-1.0,-1.0,0.0,1.m4v,5.0
2024-02-27 14:22:02.921926,1709040122.9219265,-1000.0,-1000.0,-30.76171875,-1000.0,1.0,-1.0,-1.0,0.0,1.m4v,5.0
2024-02-27 14:22:02.925831,1709040122.925831,-1000.0,-1000.0,-23.4375,-1000.0,1.0,-1.0,-1.0,0.0,1.m4v,5.0
2024-02-27 14:22:02.929736,1709040122.929736,-1000.0,-1000.0,-11.71875,-1000.0,1.0,-1.0,-1.0,0.0,1.m4v,5.0
2024-02-27 14:22:02.933641,1709040122.933641,-1000.0,-1000.0,-15.625,-1000.0,1.0,-1.0,-1.0,0.0,1.m4v,5.0
2024-02-27 14:22:02.937546,1709040122.9375458,-1000.0,-1000.0,-25.87890625,-1000.0,1.0,-1.0,-1.0,0.0,1.m4v,5.0
2024-02-27 14:22:02.941451,1709040122.9414508,-1000.0,-1000.0,-26.3671875,-1000.0,1.0,-1.0,-1.0,0.0,1.m4v,5.0
2024-02-27 14:22:02.945356,1709040122.9453557,-1000.0,-1000.0,-25.390625,-1000.0,1.0,-1.0,-1.0,0.0,1.m4v,5.0
2024-02-27 14:22:02.949261,1709040122.9492607,-1000.0,-1000.0,-17.08984375,-1000.0,1.0,-1.0,-1.0,0.0,1.m4v,5.0
2024-02-27 14:22:02.953166,1709040122.9531655,-1000.0,-1000.0,-20.5078125,-1000.0,1.0,-1.0,-1.0,0.0,1.m4v,5.0
2024-02-27 14:22:02.957083,1709040122.9570832,-1000.0,-1000.0,-39.55078125,-1000.0,1.0,-1.0,-1.0,0.0,1.m4v,5.0
2024-02-27 14:22:02.960988,1709040122.960988,-993.65234375,-996.09375,-43.45703125,-982.421875,1.0,-1.0,-1.0,0.0,1.m4v,5.0
2024-02-27 14:22:02.964893,1709040122.964893,-948.2421875,-944.3359375,-32.71484375,-970.21484375,1.0,-1.0,-1.0,0.0,1.m4v,5.0
2024-02-27 14:22:02.968798,1709040122.968798,-1000.0,-1000.0,-23.92578125,-1000.0,1.0,-1.0,-1.0,0.0,1.m4v,5.0
2024-02-27 14:22:02.972703,1709040122.972703,-100.5859375,-137.6953125,-13.18359375,58.59375,1.0,-1.0,-1.0,0.0,1.m4v,5.0
2024-02-27 14:22:02.976608,1709040122.9766078,999.51171875,999.51171875,-10.7421875,999.51171875,1.0,-1.0,-1.0,0.0,1.m4v,5.0
2024-02-27 14:22:02.980513,1709040122.9805126,936.5234375,941.89453125,-31.25,923.828125,1.0,-1.0,-1.0,0.0,1.m4v,5.0
2024-02-27 14:22:02.984418,1709040122.9844177,950.68359375,948.73046875,-33.203125,960.44921875,1.0,-1.0,-1.0,0.0,1.m4v,5.0
2024-02-27 14:22:02.988322,1709040122.9883225,973.14453125,974.609375,-14.6484375,972.16796875,1.0,-1.0,-1.0,0.0,1.m4v,5.0
2024-02-27 14:22:02.992227,1709040122.9922273,969.23828125,969.7265625,-17.08984375,969.7265625,1.0,-1.0,-1.0,0.0,1.m4v,5.0
2024-02-27 14:22:02.996132,1709040122.9961324,969.23828125,969.7265625,-20.5078125,969.7265625,1.0,-1.0,-1.0,0.0,1.m4v,5.0
2024-02-27 14:22:03.000037,1709040123.0000372,969.23828125,969.7265625,-15.13671875,969.7265625,1.0,-1.0,-1.0,0.0,1.m4v,5.0
2024-02-27 14:22:03.003954,1709040123.0039542,969.23828125,970.21484375,-10.25390625,969.7265625,1.0,-1.0,-1.0,0.0,1.m4v,5.0
2024-02-27 14:22:03.007859,1709040123.007859,968.75,970.21484375,-6.34765625,969.7265625,1.0,-1.0,-1.0,0.0,1.m4v,5.0
2024-02-27 14:22:03.011764,1709040123.0117638,968.75,969.7265625,-13.18359375,969.7265625,1.0,-1.0,-1.0,0.0,1.m4v,5.0
2024-02-27 14:22:03.015669,1709040123.0156689,969.23828125,969.7265625,-27.34375,969.7265625,1.0,-1.0,-1.0,0.0,1.m4v,5.0
2024-02-27 14:22:03.019574,1709040123.0195737,969.23828125,969.7265625,-26.3671875,969.7265625,1.0,-1.0,-1.0,0.0,1.m4v,5.0
2024-02-27 14:22:03.023479,1709040123.0234785,968.75,969.7265625,-23.4375,970.21484375,1.0,-1.0,-1.0,0.0,1.m4v,5.0
2024-02-27 14:22:03.027384,1709040123.0273836,984.375,984.86328125,-27.34375,982.421875,1.0,-1.0,-1.0,0.0,1.m4v,5.0
2024-02-27 14:22:03.031288,1709040123.0312884,903.80859375,905.2734375,-13.671875,900.390625,1.0,-1.0,-1.0,0.0,1.m4v,5.0
2024-02-27 14:22:03.035193,1709040123.0351934,999.51171875,999.51171875,-7.8125,999.51171875,1.0,-1.0,-1.0,0.0,1.m4v,5.0
2024-02-27 14:22:03.039098,1709040123.0390985,699.70703125,710.9375,-24.90234375,541.015625,1.0,-1.0,-1.0,0.0,1.m4v,5.0
2024-02-27 14:22:03.043003,1709040123.043003,-739.2578125,-727.05078125,-32.71484375,-871.58203125,1.0,-1.0,-1.0,0.0,1.m4v,5.0
2024-02-27 14:22:03.046908,1709040123.046908,-1000.0,-1000.0,-32.71484375,-1000.0,1.0,-1.0,-1.0,0.0,1.m4v,5.0
2024-02-27 14:22:03.050824,1709040123.0508244,-937.01171875,-936.5234375,-17.08984375,-946.77734375,1.0,-1.0,-1.0,0.0,1.m4v,5.0
2024-02-27 14:22:03.054729,1709040123.0547292,-1000.0,-1000.0,-10.25390625,-1000.0,1.0,-1.0,-1.0,0.0,1.m4v,5.0
2024-02-27 14:22:03.058634,1709040123.0586343,-1000.0,-1000.0,-25.390625,-1000.0,1.0,-1.0,-1.0,0.0,1.m4v,5.0
2024-02-27 14:22:03.062539,1709040123.062539,-1000.0,-1000.0,-25.87890625,-1000.0,1.0,-1.0,-1.0,0.0,1.m4v,5.0
2024-02-27 14:22:03.066444,1709040123.066444,-1000.0,-1000.0,-16.11328125,-1000.0,1.0,-1.0,-1.0,0.0,1.m4v,5.0
2024-02-27 14:22:03.070349,1709040123.070349,-1000.0,-1000.0,-11.23046875,-1000.0,1.0,-1.0,-1.0,0.0,1.m4v,5.0
2024-02-27 14:22:03.074254,1709040123.0742538,-1000.0,-1000.0,-25.87890625,-1000.0,1.0,-1.0,-1.0,0.0,1.m4v,5.0
2024-02-27 14:22:03.078159,1709040123.0781589,-1000.0,-1000.0,-31.73828125,-1000.0,1.0,-1.0,-1.0,0.0,1.m4v,5.0
2024-02-27 14:22:03.082064,1709040123.0820637,-1000.0,-1000.0,-25.390625,-998.53515625,1.0,-1.0,-1.0,0.0,1.m4v,5.0
2024-02-27 14:22:03.085968,1709040123.0859685,-1000.0,-1000.0,-21.484375,-1000.0,1.0,-1.0,-1.0,0.0,1.m4v,5.0
2024-02-27 14:22:03.089874,1709040123.0898736,-1000.0,-1000.0,-18.5546875,-998.53515625,1.0,-1.0,-1.0,0.0,1.m4v,5.0
2024-02-27 14:22:03.093778,1709040123.0937784,-1000.0,-1000.0,-30.76171875,-971.6796875,1.0,-1.0,-1.0,0.0,1.m4v,5.0
2024-02-27 14:22:03.097694,1709040123.0976937,-1000.0,-1000.0,-41.50390625,-1000.0,1.0,-1.0,-1.0,0.0,1.m4v,5.0
2024-02-27 14:22:03.101599,1709040123.1015987,-932.6171875,-937.01171875,-37.59765625,-934.08203125,1.0,-1.0,-1.0,0.0,1.m4v,5.0
2024-02-27 14:22:03.105504,1709040123.1055036,-1000.0,-1000.0,-28.80859375,-1000.0,1.0,-1.0,-1.0,0.0,1.m4v,5.0
2024-02-27 14:22:03.109408,1709040123.1094084,-699.21875,-760.25390625,-18.5546875,-546.875,1.0,-1.0,-1.0,0.0,1.m4v,5.0
2024-02-27 14:22:03.113313,1709040123.1133134,744.62890625,673.828125,-17.578125,865.234375,1.0,-1.0,-1.0,0.0,1.m4v,5.0
2024-02-27 14:22:03.117218,1709040123.1172185,999.51171875,999.51171875,-20.01953125,999.51171875,1.0,-1.0,-1.0,0.0,1.m4v,5.0
2024-02-27 14:22:03.121123,1709040123.121123,907.2265625,905.2734375,-35.64453125,917.48046875,1.0,-1.0,-1.0,0.0,1.m4v,5.0
2024-02-27 14:22:03.125028,1709040123.125028,984.375,984.375,-49.8046875,983.88671875,1.0,-1.0,-1.0,0.0,1.m4v,5.0
2024-02-27 14:22:03.128933,1709040123.128933,969.23828125,969.7265625,-33.203125,969.7265625,1.0,-1.0,-1.0,0.0,1.m4v,5.0
2024-02-27 14:22:03.132838,1709040123.132838,969.23828125,969.7265625,-20.01953125,969.7265625,1.0,-1.0,-1.0,0.0,1.m4v,5.0
2024-02-27 14:22:03.136743,1709040123.1367428,968.75,969.7265625,-14.16015625,969.7265625,1.0,-1.0,-1.0,0.0,1.m4v,5.0
2024-02-27 14:22:03.140648,1709040123.1406476,969.23828125,969.7265625,-28.80859375,969.7265625,1.0,-1.0,-1.0,0.0,1.m4v,5.0
2024-02-27 14:22:03.144567,1709040123.144567,969.23828125,969.7265625,-42.96875,969.7265625,1.0,-1.0,-1.0,0.0,1.m4v,5.0
2024-02-27 14:22:03.148472,1709040123.148472,969.23828125,969.7265625,-28.80859375,969.7265625,1.0,-1.0,-1.0,0.0,1.m4v,5.0
2024-02-27 14:22:03.152377,1709040123.152377,969.23828125,969.7265625,-20.01953125,969.7265625,1.0,-1.0,-1.0,0.0,1.m4v,5.0
2024-02-27 14:22:03.156282,1709040123.1562817,969.23828125,969.7265625,-34.66796875,969.7265625,1.0,-1.0,-1.0,0.0,1.m4v,5.0
2024-02-27 14:22:03.160187,1709040123.1601868,969.23828125,969.7265625,-49.8046875,969.7265625,1.0,-1.0,-1.0,0.0,1.m4v,5.0
2024-02-27 14:22:03.164092,1709040123.1640916,969.23828125,970.21484375,-39.55078125,970.21484375,1.0,-1.0,-1.0,0.0,1.m4v,5.0
2024-02-27 14:22:03.167997,1709040123.1679966,983.88671875,984.375,-35.64453125,982.421875,1.0,-1.0,-1.0,0.0,1.m4v,5.0
2024-02-27 14:22:03.171901,1709040123.1719017,908.203125,910.64453125,-35.64453125,903.3203125,1.0,-1.0,-1.0,0.0,1.m4v,5.0
2024-02-27 14:22:03.175806,1709040123.1758063,999.51171875,999.51171875,-27.34375,999.51171875,1.0,-1.0,-1.0,0.0,1.m4v,5.0
2024-02-27 14:22:03.179711,1709040123.179711,754.39453125,773.92578125,-24.4140625,582.03125,1.0,-1.0,-1.0,0.0,1.m4v,5.0
2024-02-27 14:22:03.183616,1709040123.1836162,-671.38671875,-648.4375,-29.296875,-826.66015625,1.0,-1.0,-1.0,0.0,1.m4v,5.0
2024-02-27 14:22:03.187521,1709040123.187521,-1000.0,-1000.0,-19.04296875,-1000.0,1.0,-1.0,-1.0,0.0,1.m4v,5.0
2024-02-27 14:22:03.191440,1709040123.19144,-935.05859375,-934.5703125,-10.25390625,-944.82421875,1.0,-1.0,-1.0,0.0,1.m4v,5.0
2024-02-27 14:22:03.195345,1709040123.195345,-1000.0,-1000.0,-14.6484375,-1000.0,1.0,-1.0,-1.0,0.0,1.m4v,5.0
2024-02-27 14:22:03.199250,1709040123.1992495,-1000.0,-1000.0,-26.3671875,-1000.0,1.0,-1.0,-1.0,0.0,1.m4v,5.0
2024-02-27 14:22:03.203155,1709040123.2031546,-1000.0,-1000.0,-35.64453125,-1000.0,1.0,-1.0,-1.0,0.0,1.m4v,5.0
2024-02-27 14:22:03.207060,1709040123.2070596,-1000.0,-1000.0,-26.85546875,-1000.0,1.0,-1.0,-1.0,0.0,1.m4v,5.0
2024-02-27 14:22:03.210964,1709040123.2109644,-1000.0,-1000.0,-14.6484375,-1000.0,1.0,-1.0,-1.0,0.0,1.m4v,5.0
2024-02-27 14:22:03.214869,1709040123.2148693,-1000.0,-1000.0,-22.4609375,-1000.0,1.0,-1.0,-1.0,0.0,1.m4v,5.0
2024-02-27 14:22:03.218774,1709040123.2187743,-1000.0,-1000.0,-36.62109375,-1000.0,1.0,-1.0,-1.0,0.0,1.m4v,5.0
2024-02-27 14:22:03.222679,1709040123.2226791,-1000.0,-1000.0,-38.57421875,-1000.0,1.0,-1.0,-1.0,0.0,1.m4v,5.0
2024-02-27 14:22:03.226584,1709040123.2265842,-1000.0,-1000.0,-26.3671875,-1000.0,1.0,-1.0,-1.0,0.0,1.m4v,5.0
2024-02-27 14:22:03.230489,1709040123.230489,-1000.0,-1000.0,-26.85546875,-1000.0,1.0,-1.0,-1.0,0.0,1.m4v,5.0
2024-02-27 14:22:03.234394,1709040123.2343938,-1000.0,-1000.0,-38.57421875,-1000.0,1.0,-1.0,-1.0,0.0,1.m4v,5.0
2024-02-27 14:22:03.238312,1709040123.2383122,-1000.0,-1000.0,-56.15234375,-1000.0,1.0,-1.0,-1.0,0.0,1.m4v,5.0
2024-02-27 14:22:03.242217,1709040123.2422173,-925.78125,-925.29296875,-53.22265625,-928.7109375,1.0,-1.0,-1.0,0.0,1.m4v,5.0
2024-02-27 14:22:03.246122,1709040123.246122,-1000.0,-1000.0,-31.25,-1000.0,1.0,-1.0,-1.0,0.0,1.m4v,5.0
2024-02-27 14:22:03.250027,1709040123.250027,-555.17578125,-573.73046875,-30.2734375,-440.91796875,1.0,-1.0,-1.0,0.0,1.m4v,5.0
2024-02-27 14:22:03.253932,1709040123.253932,885.7421875,875.48828125,-37.109375,943.359375,1.0,-1.0,-1.0,0.0,1.m4v,5.0
2024-02-27 14:22:03.257837,1709040123.2578368,999.51171875,999.51171875,-37.109375,993.1640625,1.0,-1.0,-1.0,0.0,1.m4v,5.0
2024-02-27 14:22:03.261742,1709040123.2617416,914.55078125,914.0625,-24.4140625,924.8046875,1.0,-1.0,-1.0,0.0,1.m4v,5.0
2024-02-27 14:22:03.265647,1709040123.2656467,984.86328125,985.83984375,-37.109375,982.421875,1.0,-1.0,-1.0,0.0,1.m4v,5.0
2024-02-27 14:22:03.269552,1709040123.2695515,969.23828125,969.7265625,-51.7578125,969.7265625,1.0,-1.0,-1.0,0.0,1.m4v,5.0
2024-02-27 14:22:03.273457,1709040123.2734566,968.75,969.7265625,-33.203125,969.7265625,1.0,-1.0,-1.0,0.0,1.m4v,5.0
2024-02-27 14:22:03.277361,1709040123.2773614,969.23828125,969.7265625,-13.671875,969.7265625,1.0,-1.0,-1.0,0.0,1.m4v,5.0
2024-02-27 14:22:03.281266,1709040123.2812662,969.23828125,969.7265625,-15.13671875,969.7265625,1.0,-1.0,-1.0,0.0,1.m4v,5.0
2024-02-27 14:22:03.285183,1709040123.2851834,969.23828125,969.7265625,-21.97265625,969.7265625,1.0,-1.0,-1.0,0.0,1.m4v,5.0
2024-02-27 14:22:03.289088,1709040123.2890885,969.23828125,969.7265625,-18.5546875,969.7265625,1.0,-1.0,-1.0,0.0,1.m4v,5.0
2024-02-27 14:22:03.292993,1709040123.2929933,969.23828125,970.21484375,-19.04296875,969.7265625,1.0,-1.0,-1.0,0.0,1.m4v,5.0
2024-02-27 14:22:03.296898,1709040123.2968984,969.23828125,970.21484375,-23.4375,970.21484375,1.0,-1.0,-1.0,0.0,1.m4v,5.0
2024-02-27 14:22:03.300803,1709040123.3008032,969.23828125,969.7265625,-38.57421875,969.7265625,1.0,-1.0,-1.0,0.0,1.m4v,5.0
2024-02-27 14:22:03.304708,1709040123.304708,969.23828125,969.7265625,-30.2734375,969.7265625,1.0,-1.0,-1.0,0.0,1.m4v,5.0
2024-02-27 14:22:03.308613,1709040123.308613,984.375,985.3515625,-10.7421875,980.95703125,1.0,-1.0,-1.0,0.0,1.m4v,5.0
2024-02-27 14:22:03.312518,1709040123.312518,897.4609375,900.87890625,-18.06640625,898.92578125,1.0,-1.0,-1.0,0.0,1.m4v,5.0
2024-02-27 14:22:03.316423,1709040123.3164227,999.51171875,999.51171875,-29.78515625,999.51171875,1.0,-1.0,-1.0,0.0,1.m4v,5.0
2024-02-27 14:22:03.320328,1709040123.3203278,601.07421875,647.4609375,-34.66796875,441.40625,1.0,-1.0,-1.0,0.0,1.m4v,5.0
2024-02-27 14:22:03.324233,1709040123.3242326,-844.7265625,-801.26953125,-30.2734375,-950.1953125,1.0,-1.0,-1.0,0.0,1.m4v,5.0
2024-02-27 14:22:03.328138,1709040123.3281376,-1000.0,-1000.0,-32.2265625,-1000.0,1.0,-1.0,-1.0,0.0,1.m4v,5.0
2024-02-27 14:22:03.332055,1709040123.3320546,-941.40625,-938.96484375,-23.4375,-953.125,1.0,-1.0,-1.0,0.0,1.m4v,5.0
2024-02-27 14:22:03.335959,1709040123.3359594,-1000.0,-1000.0,-11.23046875,-1000.0,1.0,-1.0,-1.0,0.0,1.m4v,5.0
2024-02-27 14:22:03.339864,1709040123.3398645,-1000.0,-1000.0,-13.18359375,-1000.0,1.0,-1.0,-1.0,0.0,1.m4v,5.0
2024-02-27 14:22:03.343769,1709040123.3437693,-1000.0,-1000.0,-11.71875,-1000.0,1.0,-1.0,-1.0,0.0,1.m4v,5.0
2024-02-27 14:22:03.347674,1709040123.347674,-1000.0,-1000.0,-11.71875,-1000.0,1.0,-1.0,-1.0,0.0,1.m4v,5.0
2024-02-27 14:22:03.351579,1709040123.3515792,-1000.0,-1000.0,-9.765625,-1000.0,1.0,-1.0,-1.0,0.0,1.m4v,5.0
2024-02-27 14:22:03.800782,1709040123.8007822,-993.1640625,-997.0703125,-44.43359375,-979.98046875,1.0,-1.0,-1.0,0.0,1.m4v,5.0
2024-02-27 14:22:03.804687,1709040123.804687,-949.21875,-942.87109375,-41.9921875,-975.5859375,1.0,-1.0,-1.0,0.0,1.m4v,5.0
2024-02-27 14:22:03.808592,1709040123.808592,-1000.0,-1000.0,-44.43359375,-1000.0,1.0,-1.0,-1.0,0.0,1.m4v,5.0
2024-02-27 14:22:03.812497,1709040123.812497,-90.33203125,-155.76171875,-40.0390625,92.7734375,1.0,-1.0,-1.0,0.0,1.m4v,5.0
2024-02-27 14:22:03.816402,1709040123.8164015,999.51171875,999.51171875,-34.1796875,999.51171875,1.0,-1.0,-1.0,0.0,1.m4v,5.0
2024-02-27 14:22:03.820307,1709040123.8203068,935.05859375,944.3359375,-30.2734375,921.875,1.0,-1.0,-1.0,0.0,1.m4v,5.0
2024-02-27 14:22:03.824212,1709040123.8242116,951.66015625,947.265625,-39.55078125,962.40234375,1.0,-1.0,-1.0,0.0,1.m4v,5.0
2024-02-27 14:22:03.828117,1709040123.828117,973.14453125,975.09765625,-42.96875,971.6796875,1.0,-1.0,-1.0,0.0,1.m4v,5.0
2024-02-27 14:22:03.832021,1709040123.8320217,969.23828125,969.7265625,-19.53125,969.7265625,1.0,-1.0,-1.0,0.0,1.m4v,5.0
2024-02-27 14:22:03.835926,1709040123.8359263,969.23828125,969.7265625,-20.99609375,970.21484375,1.0,-1.0,-1.0,0.0,1.m4v,5.0
2024-02-27 14:22:03.839831,1709040123.8398314,969.23828125,970.21484375,-38.0859375,969.7265625,1.0,-1.0,-1.0,0.0,1.m4v,5.0
2024-02-27 14:22:03.843736,1709040123.8437362,969.23828125,969.7265625,-32.71484375,969.7265625,1.0,-1.0,-1.0,0.0,1.m4v,5.0
2024-02-27 14:22:03.847651,1709040123.8476515,969.23828125,969.7265625,-21.97265625,969.7265625,1.0,-1.0,-1.0,0.0,1.m4v,5.0
2024-02-27 14:22:03.851557,1709040123.8515563,969.23828125,969.7265625,-19.04296875,969.7265625,1.0,-1.0,-1.0,0.0,1.m4v,5.0
2024-02-27 14:22:03.855461,1709040123.8554614,969.23828125,969.7265625,-19.04296875,969.7265625,1.0,-1.0,-1.0,0.0,1.m4v,5.0
2024-02-27 14:22:03.859366,1709040123.8593662,969.23828125,969.7265625,-27.34375,969.7265625,1.0,-1.0,-1.0,0.0,1.m4v,5.0
2024-02-27 14:22:03.863271,1709040123.8632712,968.75,969.7265625,-30.76171875,969.7265625,1.0,-1.0,-1.0,0.0,1.m4v,5.0
2024-02-27 14:22:03.867176,1709040123.867176,981.93359375,984.375,-16.11328125,982.91015625,1.0,-1.0,-1.0,0.0,1.m4v,5.0
2024-02-27 14:22:03.871081,1709040123.871081,918.45703125,909.66796875,-22.94921875,909.66796875,1.0,-1.0,-1.0,0.0,1.m4v,5.0
2024-02-27 14:22:03.874986,1709040123.874986,999.51171875,999.51171875,-37.59765625,999.51171875,1.0,-1.0,-1.0,0.0,1.m4v,5.0
2024-02-27 14:22:03.878891,1709040123.8788908,859.86328125,760.7421875,-35.15625,723.14453125,1.0,-1.0,-1.0,0.0,1.m4v,5.0
2024-02-27 14:22:03.882796,1709040123.8827958,-526.85546875,-663.57421875,-44.43359375,-683.59375,1.0,-1.0,-1.0,0.0,1.m4v,5.0
2024-02-27 14:22:03.886701,1709040123.8867006,-1000.0,-1000.0,-39.0625,-1000.0,1.0,-1.0,-1.0,0.0,1.m4v,5.0
2024-02-27 14:22:03.890605,1709040123.8906054,-933.59375,-935.05859375,-25.390625,-938.4765625,1.0,-1.0,-1.0,0.0,1.m4v,5.0
2024-02-27 14:22:03.894525,1709040123.8945248,-1000.0,-1000.0,-27.83203125,-1000.0,1.0,-1.0,-1.0,0.0,1.m4v,5.0
2024-02-27 14:22:03.898430,1709040123.89843,-1000.0,-1000.0,-33.69140625,-1000.0,1.0,-1.0,-1.0,0.0,1.m4v,5.0
2024-02-27 14:22:03.902335,1709040123.9023347,-1000.0,-1000.0,-28.3203125,-1000.0,1.0,-1.0,-1.0,0.0,1.m4v,5.0
2024-02-27 14:22:03.906240,1709040123.9062395,-1000.0,-1000.0,-17.08984375,-1000.0,1.0,-1.0,-1.0,0.0,1.m4v,5.0
2024-02-27 14:22:03.910145,1709040123.9101446,-1000.0,-1000.0,-11.23046875,-1000.0,1.0,-1.0,-1.0,0.0,1.m4v,5.0
2024-02-27 14:22:03.914049,1709040123.9140494,-1000.0,-1000.0,-9.27734375,-1000.0,1.0,-1.0,-1.0,0.0,1.m4v,5.0
2024-02-27 14:22:03.917954,1709040123.9179544,-1000.0,-1000.0,-25.87890625,-1000.0,1.0,-1.0,-1.0,0.0,1.m4v,5.0
2024-02-27 14:22:03.921859,1709040123.9218593,-1000.0,-1000.0,-40.52734375,-1000.0,1.0,-1.0,-1.0,0.0,1.m4v,5.0
2024-02-27 14:22:03.925764,1709040123.9257643,-1000.0,-1000.0,-43.9453125,-1000.0,1.0,-1.0,-1.0,0.0,1.m4v,5.0
2024-02-27 14:22:03.929669,1709040123.9296691,-1000.0,-1000.0,-32.2265625,-1000.0,1.0,-1.0,-1.0,0.0,1.m4v,5.0
2024-02-27 14:22:03.933574,1709040123.933574,-1000.0,-1000.0,-24.90234375,-1000.0,1.0,-1.0,-1.0,0.0,1.m4v,5.0
2024-02-27 14:22:03.937479,1709040123.937479,-1000.0,-1000.0,-34.1796875,-1000.0,1.0,-1.0,-1.0,0.0,1.m4v,5.0
2024-02-27 14:22:03.941398,1709040123.941398,-982.91015625,-985.83984375,-29.78515625,-969.23828125,1.0,-1.0,-1.0,0.0,1.m4v,5.0
2024-02-27 14:22:03.945303,1709040123.9453027,-966.30859375,-960.9375,-26.85546875,-998.53515625,1.0,-1.0,-1.0,0.0,1.m4v,5.0
