Timestamp,Timestamp_UNIX,TP9,AF7,AF8,TP10,Valence,Arousal,Dominace,Viewed,Video,Participant
2024-02-27 13:50:33.489026,1709038233.4890263,-65.91796875,-975.5859375,869.140625,-34.1796875,1.0,-1.0,0.0,0.0,6.m4v,4.0
2024-02-27 13:50:33.492932,1709038233.492932,151.85546875,-980.46875,999.51171875,-18.06640625,1.0,-1.0,0.0,0.0,6.m4v,4.0
2024-02-27 13:50:33.496841,1709038233.496841,49.31640625,-1000.0,963.8671875,-22.94921875,1.0,-1.0,0.0,0.0,6.m4v,4.0
2024-02-27 13:50:33.500747,1709038233.5007467,-174.31640625,-1000.0,666.015625,-43.9453125,1.0,-1.0,0.0,0.0,6.m4v,4.0
2024-02-27 13:50:33.504653,1709038233.5046525,-277.34375,-950.68359375,458.0078125,-50.29296875,1.0,-1.0,0.0,0.0,6.m4v,4.0
2024-02-27 13:50:33.508559,1709038233.5085585,2.9296875,-1000.0,866.69921875,-33.203125,1.0,-1.0,0.0,0.0,6.m4v,4.0
2024-02-27 13:50:33.512464,1709038233.5124643,152.83203125,-953.125,997.55859375,-25.87890625,1.0,-1.0,0.0,0.0,6.m4v,4.0
2024-02-27 13:50:33.516370,1709038233.51637,367.1875,462.40234375,953.61328125,-27.34375,1.0,-1.0,0.0,0.0,6.m4v,4.0
2024-02-27 13:50:33.520276,1709038233.520276,310.546875,999.51171875,977.05078125,-26.3671875,1.0,-1.0,0.0,0.0,6.m4v,4.0
2024-02-27 13:50:33.524182,1709038233.5241818,-106.93359375,895.99609375,774.90234375,-27.34375,1.0,-1.0,0.0,0.0,6.m4v,4.0
2024-02-27 13:50:33.528088,1709038233.5280876,-146.484375,982.91015625,808.59375,-38.57421875,1.0,-1.0,0.0,0.0,6.m4v,4.0
2024-02-27 13:50:33.531994,1709038233.5319936,83.984375,969.7265625,983.3984375,-34.66796875,1.0,-1.0,0.0,0.0,6.m4v,4.0
2024-02-27 13:50:33.535899,1709038233.5358994,106.93359375,969.7265625,976.5625,-32.2265625,1.0,-1.0,0.0,0.0,6.m4v,4.0
2024-02-27 13:50:33.539805,1709038233.5398052,-145.5078125,969.7265625,569.3359375,-52.24609375,1.0,-1.0,0.0,0.0,6.m4v,4.0
2024-02-27 13:50:33.543715,1709038233.5437157,-309.08203125,970.21484375,212.890625,-49.31640625,1.0,-1.0,0.0,0.0,6.m4v,4.0
2024-02-27 13:50:33.547621,1709038233.5476215,-50.78125,969.7265625,624.0234375,-34.1796875,1.0,-1.0,0.0,0.0,6.m4v,4.0
2024-02-27 13:50:33.551527,1709038233.5515273,183.10546875,969.7265625,971.19140625,-34.1796875,1.0,-1.0,0.0,0.0,6.m4v,4.0
2024-02-27 13:50:33.555433,1709038233.555433,137.20703125,970.21484375,990.72265625,-35.64453125,1.0,-1.0,0.0,0.0,6.m4v,4.0
2024-02-27 13:50:33.559339,1709038233.559339,-135.25390625,969.7265625,594.23828125,-43.45703125,1.0,-1.0,0.0,0.0,6.m4v,4.0
2024-02-27 13:50:33.563245,1709038233.5632448,-294.43359375,986.328125,276.3671875,-60.546875,1.0,-1.0,0.0,0.0,6.m4v,4.0
2024-02-27 13:50:33.567151,1709038233.5671506,-46.875,911.62109375,738.76953125,-51.26953125,1.0,-1.0,0.0,0.0,6.m4v,4.0
2024-02-27 13:50:33.571057,1709038233.5710566,118.1640625,999.51171875,999.51171875,-33.203125,1.0,-1.0,0.0,0.0,6.m4v,4.0
2024-02-27 13:50:33.574962,1709038233.5749624,18.06640625,857.91015625,916.50390625,-36.1328125,1.0,-1.0,0.0,0.0,6.m4v,4.0
2024-02-27 13:50:33.578868,1709038233.5788682,-602.5390625,-600.5859375,167.48046875,-42.96875,1.0,-1.0,0.0,0.0,6.m4v,4.0
2024-02-27 13:50:33.582774,1709038233.5827742,-739.74609375,-1000.0,-465.33203125,-55.17578125,1.0,-1.0,0.0,0.0,6.m4v,4.0
2024-02-27 13:50:33.586680,1709038233.58668,-406.25,-925.78125,-438.96484375,-52.734375,1.0,-1.0,0.0,0.0,6.m4v,4.0
2024-02-27 13:50:33.590590,1709038233.5905902,34.1796875,-1000.0,183.59375,-41.50390625,1.0,-1.0,0.0,0.0,6.m4v,4.0
2024-02-27 13:50:33.594496,1709038233.594496,272.94921875,-1000.0,640.625,-34.66796875,1.0,-1.0,0.0,0.0,6.m4v,4.0
2024-02-27 13:50:33.598402,1709038233.5984018,-238.76953125,-967.28515625,-111.328125,-47.36328125,1.0,-1.0,0.0,0.0,6.m4v,4.0
2024-02-27 13:50:33.602308,1709038233.6023076,-617.67578125,-996.09375,-957.03125,-51.7578125,1.0,-1.0,0.0,0.0,6.m4v,4.0
2024-02-27 13:50:33.606214,1709038233.6062136,-423.828125,-1000.0,-934.08203125,-46.875,1.0,-1.0,0.0,0.0,6.m4v,4.0
2024-02-27 13:50:33.610119,1709038233.610119,516.11328125,249.0234375,209.9609375,-24.90234375,1.0,-1.0,0.0,0.0,6.m4v,4.0
2024-02-27 13:50:33.614025,1709038233.614025,855.95703125,999.51171875,999.51171875,-10.7421875,1.0,-1.0,0.0,0.0,6.m4v,4.0
2024-02-27 13:50:33.617931,1709038233.6179311,-93.26171875,997.0703125,106.93359375,-38.0859375,1.0,-1.0,0.0,0.0,6.m4v,4.0
2024-02-27 13:50:33.621837,1709038233.621837,-759.765625,154.78515625,-895.5078125,-52.734375,1.0,-1.0,0.0,0.0,6.m4v,4.0
2024-02-27 13:50:33.625743,1709038233.625743,-761.71875,-1000.0,-1000.0,-57.6171875,1.0,-1.0,0.0,0.0,6.m4v,4.0
2024-02-27 13:50:33.629649,1709038233.6296487,-223.6328125,-992.1875,-694.3359375,-46.38671875,1.0,-1.0,0.0,0.0,6.m4v,4.0
2024-02-27 13:50:33.633554,1709038233.6335545,280.2734375,-973.14453125,-80.078125,-28.3203125,1.0,-1.0,0.0,0.0,6.m4v,4.0
2024-02-27 13:50:33.637465,1709038233.6374643,-23.4375,-1000.0,-433.10546875,-28.80859375,1.0,-1.0,0.0,0.0,6.m4v,4.0
2024-02-27 13:50:33.641371,1709038233.6413703,-356.4453125,-1000.0,-979.00390625,-37.59765625,1.0,-1.0,0.0,0.0,6.m4v,4.0
2024-02-27 13:50:33.641371,1709038233.6413703,-356.4453125,-1000.0,-979.00390625,-37.59765625,1.0,-1.0,0.0,0.0,6.m4v,4.0
2024-02-27 13:50:33.645276,1709038233.6452763,-346.19140625,-953.125,-1000.0,-42.48046875,1.0,-1.0,0.0,0.0,6.m4v,4.0
2024-02-27 13:50:33.645276,1709038233.6452763,-346.19140625,-953.125,-1000.0,-42.48046875,1.0,-1.0,0.0,0.0,6.m4v,4.0
2024-02-27 13:50:33.649182,1709038233.649182,-157.2265625,-1000.0,-862.3046875,-31.73828125,1.0,-1.0,0.0,0.0,6.m4v,4.0
2024-02-27 13:50:33.649182,1709038233.649182,-157.2265625,-1000.0,-862.3046875,-31.73828125,1.0,-1.0,0.0,0.0,6.m4v,4.0
2024-02-27 13:50:33.653088,1709038233.653088,273.4375,-967.28515625,-245.60546875,-21.484375,1.0,-1.0,0.0,0.0,6.m4v,4.0
2024-02-27 13:50:33.653088,1709038233.653088,273.4375,-967.28515625,-245.60546875,-21.484375,1.0,-1.0,0.0,0.0,6.m4v,4.0
2024-02-27 13:50:33.656994,1709038233.656994,433.10546875,433.10546875,-188.96484375,-21.97265625,1.0,-1.0,0.0,0.0,6.m4v,4.0
2024-02-27 13:50:33.656994,1709038233.656994,433.10546875,433.10546875,-188.96484375,-21.97265625,1.0,-1.0,0.0,0.0,6.m4v,4.0
2024-02-27 13:50:33.660900,1709038233.6608996,3.41796875,999.51171875,-749.0234375,-36.62109375,1.0,-1.0,0.0,0.0,6.m4v,4.0
2024-02-27 13:50:33.660900,1709038233.6608996,3.41796875,999.51171875,-749.0234375,-36.62109375,1.0,-1.0,0.0,0.0,6.m4v,4.0
2024-02-27 13:50:33.664806,1709038233.6648057,-354.4921875,896.97265625,-1000.0,-48.33984375,1.0,-1.0,0.0,0.0,6.m4v,4.0
2024-02-27 13:50:33.664806,1709038233.6648057,-354.4921875,896.97265625,-1000.0,-48.33984375,1.0,-1.0,0.0,0.0,6.m4v,4.0
2024-02-27 13:50:33.668711,1709038233.6687114,-85.9375,981.4453125,-827.63671875,-30.76171875,1.0,-1.0,0.0,0.0,6.m4v,4.0
2024-02-27 13:50:33.668711,1709038233.6687114,-85.9375,981.4453125,-827.63671875,-30.76171875,1.0,-1.0,0.0,0.0,6.m4v,4.0
2024-02-27 13:50:33.672617,1709038233.6726172,321.77734375,969.7265625,-230.46875,-20.01953125,1.0,-1.0,0.0,0.0,6.m4v,4.0
2024-02-27 13:50:33.672617,1709038233.6726172,321.77734375,969.7265625,-230.46875,-20.01953125,1.0,-1.0,0.0,0.0,6.m4v,4.0
2024-02-27 13:50:33.676523,1709038233.676523,183.10546875,969.7265625,-314.453125,-30.76171875,1.0,-1.0,0.0,0.0,6.m4v,4.0
2024-02-27 13:50:33.676523,1709038233.676523,183.10546875,969.7265625,-314.453125,-30.76171875,1.0,-1.0,0.0,0.0,6.m4v,4.0
2024-02-27 13:50:33.680429,1709038233.680429,-252.44140625,970.21484375,-904.78515625,-45.8984375,1.0,-1.0,0.0,0.0,6.m4v,4.0
2024-02-27 13:50:33.680429,1709038233.680429,-252.44140625,970.21484375,-904.78515625,-45.8984375,1.0,-1.0,0.0,0.0,6.m4v,4.0
2024-02-27 13:50:33.684339,1709038233.6843386,-307.12890625,970.21484375,-1000.0,-46.875,1.0,-1.0,0.0,0.0,6.m4v,4.0
2024-02-27 13:50:33.684339,1709038233.6843386,-307.12890625,970.21484375,-1000.0,-46.875,1.0,-1.0,0.0,0.0,6.m4v,4.0
2024-02-27 13:50:33.688244,1709038233.6882443,-163.0859375,970.21484375,-924.8046875,-43.9453125,1.0,-1.0,0.0,0.0,6.m4v,4.0
2024-02-27 13:50:33.688244,1709038233.6882443,-163.0859375,970.21484375,-924.8046875,-43.9453125,1.0,-1.0,0.0,0.0,6.m4v,4.0
2024-02-27 13:50:33.692150,1709038233.6921504,348.14453125,969.7265625,-146.97265625,-29.78515625,1.0,-1.0,0.0,0.0,6.m4v,4.0
2024-02-27 13:50:33.692150,1709038233.6921504,348.14453125,969.7265625,-146.97265625,-29.78515625,1.0,-1.0,0.0,0.0,6.m4v,4.0
2024-02-27 13:50:33.696056,1709038233.696056,283.69140625,969.7265625,-65.91796875,-23.4375,1.0,-1.0,0.0,0.0,6.m4v,4.0
2024-02-27 13:50:33.696056,1709038233.696056,283.69140625,969.7265625,-65.91796875,-23.4375,1.0,-1.0,0.0,0.0,6.m4v,4.0
2024-02-27 13:50:33.699962,1709038233.699962,-281.25,970.21484375,-896.484375,-42.48046875,1.0,-1.0,0.0,0.0,6.m4v,4.0
2024-02-27 13:50:33.699962,1709038233.699962,-281.25,970.21484375,-896.484375,-42.48046875,1.0,-1.0,0.0,0.0,6.m4v,4.0
2024-02-27 13:50:34.321041,1709038234.3210406,-636.23046875,-302.24609375,-746.58203125,-55.6640625,1.0,-1.0,0.0,0.0,6.m4v,4.0
2024-02-27 13:50:34.324946,1709038234.3249464,-785.15625,-1000.0,-1000.0,-47.36328125,1.0,-1.0,0.0,0.0,6.m4v,4.0
2024-02-27 13:50:34.328852,1709038234.3288522,-218.26171875,-913.0859375,-899.90234375,-35.64453125,1.0,-1.0,0.0,0.0,6.m4v,4.0
2024-02-27 13:50:34.332758,1709038234.3327582,197.265625,-1000.0,-302.734375,-37.59765625,1.0,-1.0,0.0,0.0,6.m4v,4.0
2024-02-27 13:50:34.336664,1709038234.336664,173.828125,-1000.0,-240.72265625,-30.2734375,1.0,-1.0,0.0,0.0,6.m4v,4.0
2024-02-27 13:50:34.340574,1709038234.340574,-295.8984375,-1000.0,-886.71875,-44.921875,1.0,-1.0,0.0,0.0,6.m4v,4.0
2024-02-27 13:50:34.344480,1709038234.3444798,-334.47265625,-946.77734375,-1000.0,-57.12890625,1.0,-1.0,0.0,0.0,6.m4v,4.0
2024-02-27 13:50:34.348386,1709038234.3483858,-160.15625,-1000.0,-884.765625,-41.015625,1.0,-1.0,0.0,0.0,6.m4v,4.0
2024-02-27 13:50:34.352292,1709038234.3522916,293.45703125,-925.29296875,-173.828125,-20.01953125,1.0,-1.0,0.0,0.0,6.m4v,4.0
2024-02-27 13:50:34.356197,1709038234.3561974,615.234375,510.7421875,177.24609375,-24.4140625,1.0,-1.0,0.0,0.0,6.m4v,4.0
2024-02-27 13:50:34.360103,1709038234.3601034,116.69921875,999.51171875,-371.58203125,-38.0859375,1.0,-1.0,0.0,0.0,6.m4v,4.0
2024-02-27 13:50:34.364009,1709038234.3640091,-252.9296875,895.5078125,-704.58984375,-41.50390625,1.0,-1.0,0.0,0.0,6.m4v,4.0
2024-02-27 13:50:34.367915,1709038234.367915,-179.6875,985.3515625,-607.91015625,-38.57421875,1.0,-1.0,0.0,0.0,6.m4v,4.0
2024-02-27 13:50:34.371821,1709038234.371821,43.45703125,977.5390625,-250.48828125,-47.36328125,1.0,-1.0,0.0,0.0,6.m4v,4.0
2024-02-27 13:50:34.375727,1709038234.3757267,65.91796875,906.25,-257.32421875,-51.26953125,1.0,-1.0,0.0,0.0,6.m4v,4.0
2024-02-27 13:50:34.379632,1709038234.3796325,-249.0234375,999.51171875,-884.765625,-44.43359375,1.0,-1.0,0.0,0.0,6.m4v,4.0
2024-02-27 13:50:34.383538,1709038234.3835385,-408.203125,422.36328125,-1000.0,-53.7109375,1.0,-1.0,0.0,0.0,6.m4v,4.0
2024-02-27 13:50:34.387448,1709038234.3874483,-558.59375,-933.10546875,-1000.0,-49.8046875,1.0,-1.0,0.0,0.0,6.m4v,4.0
2024-02-27 13:50:34.391354,1709038234.391354,-166.50390625,-1000.0,-814.453125,-17.578125,1.0,-1.0,0.0,0.0,6.m4v,4.0
2024-02-27 13:50:34.395260,1709038234.39526,68.359375,-965.8203125,-651.85546875,-26.3671875,1.0,-1.0,0.0,0.0,6.m4v,4.0
2024-02-27 13:50:34.399166,1709038234.399166,-236.81640625,-969.7265625,-941.40625,-57.12890625,1.0,-1.0,0.0,0.0,6.m4v,4.0
2024-02-27 13:50:34.403072,1709038234.4030716,-248.53515625,-1000.0,-1000.0,-52.24609375,1.0,-1.0,0.0,0.0,6.m4v,4.0
2024-02-27 13:50:34.406977,1709038234.4069774,-197.265625,-987.79296875,-1000.0,-39.55078125,1.0,-1.0,0.0,0.0,6.m4v,4.0
2024-02-27 13:50:34.410883,1709038234.4108834,333.0078125,392.08984375,-496.09375,-30.2734375,1.0,-1.0,0.0,0.0,6.m4v,4.0
2024-02-27 13:50:34.414789,1709038234.4147892,395.01953125,999.51171875,-366.69921875,-31.25,1.0,-1.0,0.0,0.0,6.m4v,4.0
2024-02-27 13:50:34.418695,1709038234.418695,-245.60546875,897.94921875,-940.91796875,-55.17578125,1.0,-1.0,0.0,0.0,6.m4v,4.0
2024-02-27 13:50:34.422601,1709038234.422601,-263.18359375,996.58203125,-1000.0,-61.5234375,1.0,-1.0,0.0,0.0,6.m4v,4.0
2024-02-27 13:50:34.426507,1709038234.4265068,-247.0703125,911.62109375,-979.00390625,-51.7578125,1.0,-1.0,0.0,0.0,6.m4v,4.0
2024-02-27 13:50:34.430413,1709038234.4304123,-189.94140625,999.51171875,-1000.0,-40.0390625,1.0,-1.0,0.0,0.0,6.m4v,4.0
2024-02-27 13:50:34.621817,1709038234.6218174,-176.7578125,-1000.0,-996.09375,-37.59765625,1.0,-1.0,0.0,0.0,6.m4v,4.0
2024-02-27 13:50:34.625723,1709038234.6257234,-182.12890625,-1000.0,-1000.0,-31.73828125,1.0,-1.0,0.0,0.0,6.m4v,4.0
2024-02-27 13:50:34.629629,1709038234.6296291,-47.36328125,-1000.0,-922.8515625,-31.73828125,1.0,-1.0,0.0,0.0,6.m4v,4.0
2024-02-27 13:50:34.633535,1709038234.633535,315.4296875,-930.6640625,-385.25390625,-30.2734375,1.0,-1.0,0.0,0.0,6.m4v,4.0
2024-02-27 13:50:34.637441,1709038234.637441,45.41015625,-1000.0,-602.05078125,-38.57421875,1.0,-1.0,0.0,0.0,6.m4v,4.0
2024-02-27 13:50:34.641347,1709038234.6413467,-138.18359375,-573.73046875,-1000.0,-47.36328125,1.0,-1.0,0.0,0.0,6.m4v,4.0
2024-02-27 13:50:34.645252,1709038234.6452525,110.3515625,851.07421875,-1000.0,-44.921875,1.0,-1.0,0.0,0.0,6.m4v,4.0
2024-02-27 13:50:34.649158,1709038234.6491585,-15.13671875,999.51171875,-936.03515625,-34.66796875,1.0,-1.0,0.0,0.0,6.m4v,4.0
2024-02-27 13:50:34.653064,1709038234.6530645,367.1875,914.0625,-223.14453125,-24.90234375,1.0,-1.0,0.0,0.0,6.m4v,4.0
2024-02-27 13:50:34.656970,1709038234.65697,340.33203125,985.3515625,-153.80859375,-28.3203125,1.0,-1.0,0.0,0.0,6.m4v,4.0
2024-02-27 13:50:34.660876,1709038234.660876,-213.8671875,970.21484375,-854.98046875,-42.96875,1.0,-1.0,0.0,0.0,6.m4v,4.0
2024-02-27 13:50:34.664782,1709038234.6647818,-305.6640625,970.21484375,-1000.0,-46.38671875,1.0,-1.0,0.0,0.0,6.m4v,4.0
2024-02-27 13:50:34.668691,1709038234.6686907,-120.60546875,971.6796875,-892.08984375,-50.29296875,1.0,-1.0,0.0,0.0,6.m4v,4.0
2024-02-27 13:50:34.672596,1709038234.6725965,396.484375,971.19140625,-94.23828125,-43.9453125,1.0,-1.0,0.0,0.0,6.m4v,4.0
2024-02-27 13:50:34.676502,1709038234.6765025,309.5703125,898.92578125,20.5078125,-40.52734375,1.0,-1.0,0.0,0.0,6.m4v,4.0
2024-02-27 13:50:34.680408,1709038234.6804082,-230.95703125,999.51171875,-794.921875,-50.29296875,1.0,-1.0,0.0,0.0,6.m4v,4.0
2024-02-27 13:50:34.684314,1709038234.684314,-452.63671875,255.37109375,-1000.0,-51.7578125,1.0,-1.0,0.0,0.0,6.m4v,4.0
2024-02-27 13:50:34.688220,1709038234.68822,-268.06640625,-952.1484375,-619.62890625,-34.1796875,1.0,-1.0,0.0,0.0,6.m4v,4.0
2024-02-27 13:50:34.692126,1709038234.6921258,741.69921875,456.0546875,545.41015625,-15.625,1.0,-1.0,0.0,0.0,6.m4v,4.0
2024-02-27 13:50:34.696032,1709038234.6960316,629.8828125,999.51171875,694.82421875,-27.34375,1.0,-1.0,0.0,0.0,6.m4v,4.0
2024-02-27 13:50:34.699938,1709038234.6999376,-245.1171875,945.80078125,-288.0859375,-48.33984375,1.0,-1.0,0.0,0.0,6.m4v,4.0
2024-02-27 13:50:34.703843,1709038234.7038434,-511.23046875,851.07421875,-949.70703125,-48.828125,1.0,-1.0,0.0,0.0,6.m4v,4.0
2024-02-27 13:50:34.707749,1709038234.7077491,-581.0546875,-623.046875,-907.71484375,-40.0390625,1.0,-1.0,0.0,0.0,6.m4v,4.0
2024-02-27 13:50:34.711655,1709038234.7116551,54.19921875,-1000.0,-98.14453125,-30.2734375,1.0,-1.0,0.0,0.0,6.m4v,4.0
2024-02-27 13:50:34.715565,1709038234.7155652,372.0703125,-926.26953125,307.6171875,-30.2734375,1.0,-1.0,0.0,0.0,6.m4v,4.0
2024-02-27 13:50:34.719471,1709038234.719471,-131.34765625,-1000.0,-307.12890625,-34.1796875,1.0,-1.0,0.0,0.0,6.m4v,4.0
2024-02-27 13:50:34.723377,1709038234.7233768,-284.66796875,-942.3828125,-681.640625,-28.3203125,1.0,-1.0,0.0,0.0,6.m4v,4.0
2024-02-27 13:50:34.727283,1709038234.7272828,-195.3125,-1000.0,-589.84375,-31.25,1.0,-1.0,0.0,0.0,6.m4v,4.0
2024-02-27 13:50:34.731189,1709038234.7311883,212.40234375,-876.46484375,31.73828125,-29.78515625,1.0,-1.0,0.0,0.0,6.m4v,4.0
2024-02-27 13:50:34.735094,1709038234.7350943,883.30078125,515.625,914.0625,-7.32421875,1.0,-1.0,0.0,0.0,6.m4v,4.0
2024-02-27 13:50:34.739000,1709038234.7390003,442.87109375,999.51171875,651.3671875,-10.7421875,1.0,-1.0,0.0,0.0,6.m4v,4.0
2024-02-27 13:50:34.742906,1709038234.742906,-532.71484375,837.890625,-511.23046875,-35.15625,1.0,-1.0,0.0,0.0,6.m4v,4.0
2024-02-27 13:50:34.946026,1709038234.9460256,-474.609375,-925.78125,-115.72265625,-54.19921875,1.0,-1.0,0.0,0.0,6.m4v,4.0
2024-02-27 13:50:34.949935,1709038234.9499347,19.04296875,-1000.0,531.25,-36.62109375,1.0,-1.0,0.0,0.0,6.m4v,4.0
2024-02-27 13:50:34.953840,1709038234.9538405,305.6640625,-1000.0,986.81640625,-20.01953125,1.0,-1.0,0.0,0.0,6.m4v,4.0
2024-02-27 13:50:34.957746,1709038234.9577465,166.015625,-1000.0,902.83203125,-14.16015625,1.0,-1.0,0.0,0.0,6.m4v,4.0
2024-02-27 13:50:34.961652,1709038234.9616525,-125.9765625,-933.10546875,454.58984375,-41.015625,1.0,-1.0,0.0,0.0,6.m4v,4.0
2024-02-27 13:50:34.965558,1709038234.965558,-354.4921875,-1000.0,147.94921875,-58.10546875,1.0,-1.0,0.0,0.0,6.m4v,4.0
2024-02-27 13:50:34.969464,1709038234.9694638,192.3828125,-524.4140625,695.80078125,-26.3671875,1.0,-1.0,0.0,0.0,6.m4v,4.0
2024-02-27 13:50:34.973370,1709038234.9733698,641.11328125,922.36328125,999.51171875,-12.20703125,1.0,-1.0,0.0,0.0,6.m4v,4.0
2024-02-27 13:50:34.977276,1709038234.9772756,220.21484375,988.76953125,917.96875,-36.1328125,1.0,-1.0,0.0,0.0,6.m4v,4.0
2024-02-27 13:50:34.981181,1709038234.9811814,-604.4921875,-478.02734375,83.984375,-53.22265625,1.0,-1.0,0.0,0.0,6.m4v,4.0
2024-02-27 13:50:34.985087,1709038234.9850874,-797.8515625,-1000.0,-601.07421875,-50.78125,1.0,-1.0,0.0,0.0,6.m4v,4.0
2024-02-27 13:50:34.988993,1709038234.9889932,-4.39453125,-928.22265625,118.1640625,-37.59765625,1.0,-1.0,0.0,0.0,6.m4v,4.0
2024-02-27 13:50:34.992899,1709038234.992899,452.63671875,-1000.0,929.6875,-23.92578125,1.0,-1.0,0.0,0.0,6.m4v,4.0
2024-02-27 13:50:34.996808,1709038234.9968078,227.05078125,-1000.0,926.26953125,-29.296875,1.0,-1.0,0.0,0.0,6.m4v,4.0
2024-02-27 13:50:35.000714,1709038235.0007136,-225.5859375,-1000.0,244.140625,-36.62109375,1.0,-1.0,0.0,0.0,6.m4v,4.0
2024-02-27 13:50:35.004620,1709038235.0046196,-388.671875,-952.1484375,-276.3671875,-37.109375,1.0,-1.0,0.0,0.0,6.m4v,4.0
2024-02-27 13:50:35.008525,1709038235.0085254,-65.4296875,-1000.0,132.8125,-29.296875,1.0,-1.0,0.0,0.0,6.m4v,4.0
2024-02-27 13:50:35.012431,1709038235.0124311,393.06640625,-960.9375,854.98046875,-15.625,1.0,-1.0,0.0,0.0,6.m4v,4.0
2024-02-27 13:50:35.016337,1709038235.0163372,626.953125,447.265625,990.234375,-16.11328125,1.0,-1.0,0.0,0.0,6.m4v,4.0
2024-02-27 13:50:35.020243,1709038235.020243,419.43359375,999.51171875,962.890625,-27.34375,1.0,-1.0,0.0,0.0,6.m4v,4.0
2024-02-27 13:50:35.024149,1709038235.0241487,-150.87890625,895.99609375,598.14453125,-36.1328125,1.0,-1.0,0.0,0.0,6.m4v,4.0
2024-02-27 13:50:35.028054,1709038235.0280545,-239.74609375,981.93359375,471.19140625,-40.52734375,1.0,-1.0,0.0,0.0,6.m4v,4.0
2024-02-27 13:50:35.031960,1709038235.0319605,177.734375,969.7265625,904.296875,-28.3203125,1.0,-1.0,0.0,0.0,6.m4v,4.0
2024-02-27 13:50:35.035866,1709038235.0358665,234.86328125,969.7265625,999.51171875,-23.4375,1.0,-1.0,0.0,0.0,6.m4v,4.0
2024-02-27 13:50:35.039772,1709038235.039772,-18.06640625,969.7265625,756.8359375,-43.45703125,1.0,-1.0,0.0,0.0,6.m4v,4.0
2024-02-27 13:50:35.043683,1709038235.0436826,-351.07421875,969.7265625,194.3359375,-53.22265625,1.0,-1.0,0.0,0.0,6.m4v,4.0
2024-02-27 13:50:35.047588,1709038235.0475883,-199.21875,969.7265625,357.421875,-35.15625,1.0,-1.0,0.0,0.0,6.m4v,4.0
2024-02-27 13:50:35.051494,1709038235.051494,254.8828125,969.7265625,919.43359375,-16.6015625,1.0,-1.0,0.0,0.0,6.m4v,4.0
2024-02-27 13:50:35.055400,1709038235.0554,246.58203125,981.4453125,999.51171875,-25.87890625,1.0,-1.0,0.0,0.0,6.m4v,4.0
2024-02-27 13:50:35.059306,1709038235.059306,-15.13671875,927.734375,802.734375,-36.1328125,1.0,-1.0,0.0,0.0,6.m4v,4.0
2024-02-27 13:50:35.063212,1709038235.0632117,-136.23046875,986.328125,581.54296875,-41.015625,1.0,-1.0,0.0,0.0,6.m4v,4.0
2024-02-27 13:50:35.067118,1709038235.0671177,-76.66015625,962.40234375,733.3984375,-38.57421875,1.0,-1.0,0.0,0.0,6.m4v,4.0
2024-02-27 13:50:35.071023,1709038235.0710237,-246.58203125,-404.296875,917.96875,-30.2734375,1.0,-1.0,0.0,0.0,6.m4v,4.0
2024-02-27 13:50:35.074929,1709038235.0749292,-182.12890625,-1000.0,983.88671875,-29.296875,1.0,-1.0,0.0,0.0,6.m4v,4.0
2024-02-27 13:50:35.078835,1709038235.078835,-88.8671875,-929.19921875,687.01171875,-34.1796875,1.0,-1.0,0.0,0.0,6.m4v,4.0
2024-02-27 13:50:35.082741,1709038235.082741,-291.50390625,-1000.0,215.8203125,-44.921875,1.0,-1.0,0.0,0.0,6.m4v,4.0
2024-02-27 13:50:35.086647,1709038235.0866468,-301.26953125,-1000.0,152.83203125,-47.36328125,1.0,-1.0,0.0,0.0,6.m4v,4.0
2024-02-27 13:50:35.246803,1709038235.2468028,-673.828125,-564.453125,-42.48046875,-42.48046875,1.0,-1.0,0.0,0.0,6.m4v,4.0
2024-02-27 13:50:35.250709,1709038235.2507086,-136.71875,-1000.0,656.73828125,-31.73828125,1.0,-1.0,0.0,0.0,6.m4v,4.0
2024-02-27 13:50:35.254615,1709038235.2546146,479.4921875,204.1015625,999.51171875,-26.85546875,1.0,-1.0,0.0,0.0,6.m4v,4.0
2024-02-27 13:50:35.258520,1709038235.2585204,255.859375,999.51171875,789.55078125,-31.73828125,1.0,-1.0,0.0,0.0,6.m4v,4.0
2024-02-27 13:50:35.262426,1709038235.262426,-157.2265625,993.1640625,323.2421875,-34.66796875,1.0,-1.0,0.0,0.0,6.m4v,4.0
2024-02-27 13:50:35.266332,1709038235.266332,-405.2734375,776.3671875,-28.80859375,-32.2265625,1.0,-1.0,0.0,0.0,6.m4v,4.0
2024-02-27 13:50:35.270238,1709038235.270238,-457.51953125,-680.17578125,185.05859375,-39.0625,1.0,-1.0,0.0,0.0,6.m4v,4.0
2024-02-27 13:50:35.274144,1709038235.2741437,100.09765625,-1000.0,814.453125,-35.64453125,1.0,-1.0,0.0,0.0,6.m4v,4.0
2024-02-27 13:50:35.278053,1709038235.278053,50.78125,-929.19921875,590.33203125,-37.59765625,1.0,-1.0,0.0,0.0,6.m4v,4.0
2024-02-27 13:50:35.281959,1709038235.281959,-458.0078125,-1000.0,-281.25,-50.78125,1.0,-1.0,0.0,0.0,6.m4v,4.0
2024-02-27 13:50:35.285865,1709038235.2858648,-393.06640625,-948.2421875,-496.58203125,-40.52734375,1.0,-1.0,0.0,0.0,6.m4v,4.0
2024-02-27 13:50:35.289771,1709038235.2897706,77.63671875,-1000.0,202.63671875,-27.34375,1.0,-1.0,0.0,0.0,6.m4v,4.0
2024-02-27 13:50:35.293677,1709038235.2936766,406.25,-935.05859375,873.046875,-27.34375,1.0,-1.0,0.0,0.0,6.m4v,4.0
2024-02-27 13:50:35.297582,1709038235.2975824,578.61328125,494.140625,999.51171875,-16.6015625,1.0,-1.0,0.0,0.0,6.m4v,4.0
2024-02-27 13:50:35.301488,1709038235.3014882,188.96484375,999.51171875,568.84765625,-26.3671875,1.0,-1.0,0.0,0.0,6.m4v,4.0
2024-02-27 13:50:35.305394,1709038235.3053942,-493.65234375,895.5078125,-297.36328125,-47.36328125,1.0,-1.0,0.0,0.0,6.m4v,4.0
2024-02-27 13:50:35.309300,1709038235.3093,-171.875,983.88671875,-58.59375,-37.109375,1.0,-1.0,0.0,0.0,6.m4v,4.0
2024-02-27 13:50:35.313206,1709038235.3132057,484.375,970.21484375,868.1640625,-17.08984375,1.0,-1.0,0.0,0.0,6.m4v,4.0
2024-02-27 13:50:35.317111,1709038235.3171115,347.16796875,969.7265625,953.61328125,-20.5078125,1.0,-1.0,0.0,0.0,6.m4v,4.0
2024-02-27 13:50:35.321018,1709038235.3210175,-56.640625,969.7265625,498.046875,-34.66796875,1.0,-1.0,0.0,0.0,6.m4v,4.0
2024-02-27 13:50:35.324927,1709038235.3249269,-264.16015625,969.7265625,144.53125,-44.43359375,1.0,-1.0,0.0,0.0,6.m4v,4.0
2024-02-27 13:50:35.328833,1709038235.3288326,-169.43359375,986.328125,269.04296875,-41.9921875,1.0,-1.0,0.0,0.0,6.m4v,4.0
2024-02-27 13:50:35.332738,1709038235.3327384,270.99609375,909.1796875,880.859375,-26.85546875,1.0,-1.0,0.0,0.0,6.m4v,4.0
2024-02-27 13:50:35.336644,1709038235.3366444,269.53125,999.51171875,975.5859375,-29.78515625,1.0,-1.0,0.0,0.0,6.m4v,4.0
2024-02-27 13:50:35.340550,1709038235.3405502,-273.4375,829.1015625,231.93359375,-50.78125,1.0,-1.0,0.0,0.0,6.m4v,4.0
2024-02-27 13:50:35.344456,1709038235.344456,-687.5,-634.765625,-272.94921875,-57.12890625,1.0,-1.0,0.0,0.0,6.m4v,4.0
2024-02-27 13:50:35.348362,1709038235.348362,-319.3359375,-1000.0,43.45703125,-48.828125,1.0,-1.0,0.0,0.0,6.m4v,4.0
2024-02-27 13:50:35.352268,1709038235.3522675,211.42578125,-926.7578125,675.78125,-41.50390625,1.0,-1.0,0.0,0.0,6.m4v,4.0
2024-02-27 13:50:35.356174,1709038235.3561735,237.3046875,-1000.0,871.58203125,-34.1796875,1.0,-1.0,0.0,0.0,6.m4v,4.0
2024-02-27 13:50:35.360079,1709038235.3600793,-236.328125,-1000.0,126.953125,-36.1328125,1.0,-1.0,0.0,0.0,6.m4v,4.0
2024-02-27 13:50:35.363985,1709038235.3639853,-457.03125,-1000.0,-480.95703125,-42.48046875,1.0,-1.0,0.0,0.0,6.m4v,4.0
2024-02-27 13:50:35.367891,1709038235.367891,-172.8515625,-1000.0,-188.96484375,-37.59765625,1.0,-1.0,0.0,0.0,6.m4v,4.0
2024-02-27 13:50:35.371800,1709038235.3718,319.82421875,-1000.0,664.0625,-20.01953125,1.0,-1.0,0.0,0.0,6.m4v,4.0
2024-02-27 13:50:35.375706,1709038235.3757057,363.28125,-1000.0,973.14453125,-16.11328125,1.0,-1.0,0.0,0.0,6.m4v,4.0
2024-02-27 13:50:35.379611,1709038235.3796115,-121.58203125,-948.73046875,338.37890625,-38.57421875,1.0,-1.0,0.0,0.0,6.m4v,4.0
2024-02-27 13:50:35.383518,1709038235.3835175,-360.3515625,-1000.0,-184.08203125,-48.33984375,1.0,-1.0,0.0,0.0,6.m4v,4.0
2024-02-27 13:50:35.387423,1709038235.3874233,-191.89453125,-938.4765625,-41.015625,-36.1328125,1.0,-1.0,0.0,0.0,6.m4v,4.0
2024-02-27 13:50:35.391329,1709038235.391329,571.2890625,488.76953125,719.23828125,-20.99609375,1.0,-1.0,0.0,0.0,6.m4v,4.0
2024-02-27 13:50:35.395235,1709038235.395235,665.0390625,999.51171875,999.51171875,-18.06640625,1.0,-1.0,0.0,0.0,6.m4v,4.0
2024-02-27 13:50:35.399141,1709038235.3991408,36.62109375,895.5078125,639.16015625,-35.15625,1.0,-1.0,0.0,0.0,6.m4v,4.0
2024-02-27 13:50:35.403047,1709038235.4030466,-368.65234375,983.3984375,-141.11328125,-49.31640625,1.0,-1.0,0.0,0.0,6.m4v,4.0
2024-02-27 13:50:35.406953,1709038235.4069526,-278.80859375,969.7265625,-236.81640625,-44.43359375,1.0,-1.0,0.0,0.0,6.m4v,4.0
2024-02-27 13:50:35.410858,1709038235.4108584,253.41796875,969.7265625,575.68359375,-30.2734375,1.0,-1.0,0.0,0.0,6.m4v,4.0
2024-02-27 13:50:35.414764,1709038235.4147642,411.62109375,969.7265625,999.51171875,-31.73828125,1.0,-1.0,0.0,0.0,6.m4v,4.0
2024-02-27 13:50:35.418674,1709038235.4186745,92.7734375,969.7265625,730.46875,-39.55078125,1.0,-1.0,0.0,0.0,6.m4v,4.0
2024-02-27 13:50:35.422580,1709038235.4225805,-287.109375,969.7265625,57.12890625,-37.59765625,1.0,-1.0,0.0,0.0,6.m4v,4.0
2024-02-27 13:50:35.426486,1709038235.4264865,-284.1796875,969.7265625,-57.12890625,-38.57421875,1.0,-1.0,0.0,0.0,6.m4v,4.0
2024-02-27 13:50:35.430392,1709038235.430392,138.18359375,970.21484375,627.44140625,-27.34375,1.0,-1.0,0.0,0.0,6.m4v,4.0
2024-02-27 13:50:35.434298,1709038235.434298,328.125,984.375,992.1875,-25.390625,1.0,-1.0,0.0,0.0,6.m4v,4.0
2024-02-27 13:50:35.438204,1709038235.4382038,172.36328125,899.90234375,942.3828125,-41.50390625,1.0,-1.0,0.0,0.0,6.m4v,4.0
2024-02-27 13:50:35.442110,1709038235.4421096,-29.78515625,999.51171875,666.50390625,-38.57421875,1.0,-1.0,0.0,0.0,6.m4v,4.0
2024-02-27 13:50:35.446016,1709038235.4460156,-430.17578125,592.7734375,170.41015625,-44.921875,1.0,-1.0,0.0,0.0,6.m4v,4.0
2024-02-27 13:50:35.449921,1709038235.4499214,-498.046875,-850.5859375,214.35546875,-43.45703125,1.0,-1.0,0.0,0.0,6.m4v,4.0
2024-02-27 13:50:35.453827,1709038235.4538271,145.01953125,-1000.0,871.58203125,-28.3203125,1.0,-1.0,0.0,0.0,6.m4v,4.0
2024-02-27 13:50:35.457733,1709038235.4577332,158.203125,-940.91796875,845.703125,-32.2265625,1.0,-1.0,0.0,0.0,6.m4v,4.0
2024-02-27 13:50:35.461639,1709038235.461639,-336.42578125,-1000.0,71.77734375,-45.41015625,1.0,-1.0,0.0,0.0,6.m4v,4.0
2024-02-27 13:50:35.465549,1709038235.465549,-452.1484375,-1000.0,-354.00390625,-50.78125,1.0,-1.0,0.0,0.0,6.m4v,4.0
2024-02-27 13:50:35.469455,1709038235.469455,-28.3203125,-1000.0,184.08203125,-24.90234375,1.0,-1.0,0.0,0.0,6.m4v,4.0
2024-02-27 13:50:35.473361,1709038235.4733608,387.6953125,-1000.0,931.640625,-18.06640625,1.0,-1.0,0.0,0.0,6.m4v,4.0
2024-02-27 13:50:35.477267,1709038235.4772666,212.40234375,-931.640625,894.04296875,-28.3203125,1.0,-1.0,0.0,0.0,6.m4v,4.0
2024-02-27 13:50:35.481173,1709038235.4811726,-363.76953125,-1000.0,-0.9765625,-37.109375,1.0,-1.0,0.0,0.0,6.m4v,4.0
2024-02-27 13:50:35.485078,1709038235.4850783,-223.6328125,-595.21484375,-165.0390625,-37.109375,1.0,-1.0,0.0,0.0,6.m4v,4.0
2024-02-27 13:50:35.488984,1709038235.488984,446.2890625,831.0546875,636.71875,-20.99609375,1.0,-1.0,0.0,0.0,6.m4v,4.0
2024-02-27 13:50:35.571015,1709038235.5710154,43.45703125,-1000.0,207.03125,-29.296875,1.0,-1.0,0.0,0.0,6.m4v,4.0
2024-02-27 13:50:35.574921,1709038235.5749211,680.6640625,357.421875,917.48046875,-13.671875,1.0,-1.0,0.0,0.0,6.m4v,4.0
2024-02-27 13:50:35.578827,1709038235.5788271,542.48046875,999.51171875,974.609375,-21.484375,1.0,-1.0,0.0,0.0,6.m4v,4.0
2024-02-27 13:50:35.582733,1709038235.582733,-216.30859375,899.4140625,225.09765625,-37.109375,1.0,-1.0,0.0,0.0,6.m4v,4.0
2024-02-27 13:50:35.586639,1709038235.5866387,-457.51953125,978.515625,-330.56640625,-31.25,1.0,-1.0,0.0,0.0,6.m4v,4.0
2024-02-27 13:50:35.590545,1709038235.5905447,33.69140625,969.7265625,269.53125,-22.4609375,1.0,-1.0,0.0,0.0,6.m4v,4.0
2024-02-27 13:50:35.594450,1709038235.5944505,401.3671875,969.7265625,943.84765625,-21.97265625,1.0,-1.0,0.0,0.0,6.m4v,4.0
2024-02-27 13:50:35.598356,1709038235.5983562,89.35546875,969.7265625,639.16015625,-27.34375,1.0,-1.0,0.0,0.0,6.m4v,4.0
2024-02-27 13:50:35.602262,1709038235.6022625,-352.5390625,969.7265625,-124.51171875,-43.45703125,1.0,-1.0,0.0,0.0,6.m4v,4.0
2024-02-27 13:50:35.606172,1709038235.6061716,-384.27734375,969.7265625,-376.46484375,-47.8515625,1.0,-1.0,0.0,0.0,6.m4v,4.0
2024-02-27 13:50:35.610078,1709038235.6100776,31.73828125,969.7265625,196.2890625,-35.15625,1.0,-1.0,0.0,0.0,6.m4v,4.0
2024-02-27 13:50:35.613983,1709038235.6139834,415.0390625,970.21484375,929.19921875,-33.203125,1.0,-1.0,0.0,0.0,6.m4v,4.0
2024-02-27 13:50:35.617889,1709038235.6178892,116.69921875,969.7265625,695.3125,-38.57421875,1.0,-1.0,0.0,0.0,6.m4v,4.0
2024-02-27 13:50:35.621795,1709038235.6217952,-255.859375,981.4453125,45.41015625,-47.36328125,1.0,-1.0,0.0,0.0,6.m4v,4.0
2024-02-27 13:50:35.625701,1709038235.625701,-135.7421875,928.7109375,124.0234375,-37.59765625,1.0,-1.0,0.0,0.0,6.m4v,4.0
2024-02-27 13:50:35.629607,1709038235.6296067,96.19140625,983.88671875,628.41796875,-24.90234375,1.0,-1.0,0.0,0.0,6.m4v,4.0
2024-02-27 13:50:35.633513,1709038235.6335127,216.30859375,970.703125,957.03125,-26.85546875,1.0,-1.0,0.0,0.0,6.m4v,4.0
2024-02-27 13:50:35.637419,1709038235.6374185,-257.32421875,-391.11328125,550.78125,-37.59765625,1.0,-1.0,0.0,0.0,6.m4v,4.0
2024-02-27 13:50:35.641324,1709038235.6413243,-730.46875,-1000.0,-406.73828125,-50.78125,1.0,-1.0,0.0,0.0,6.m4v,4.0
2024-02-27 13:50:35.645230,1709038235.6452303,-530.76171875,-929.6875,-799.8046875,-40.0390625,1.0,-1.0,0.0,0.0,6.m4v,4.0
2024-02-27 13:50:35.649136,1709038235.649136,-130.859375,-1000.0,-358.88671875,-27.83203125,1.0,-1.0,0.0,0.0,6.m4v,4.0
2024-02-27 13:50:35.653045,1709038235.6530454,341.796875,-1000.0,497.55859375,-20.01953125,1.0,-1.0,0.0,0.0,6.m4v,4.0
2024-02-27 13:50:35.656951,1709038235.6569512,283.69140625,-1000.0,658.203125,-24.90234375,1.0,-1.0,0.0,0.0,6.m4v,4.0
2024-02-27 13:50:35.660857,1709038235.660857,-268.5546875,-951.171875,-178.22265625,-37.59765625,1.0,-1.0,0.0,0.0,6.m4v,4.0
2024-02-27 13:50:35.778039,1709038235.778039,16.6015625,888.18359375,584.9609375,-39.0625,1.0,-1.0,0.0,0.0,6.m4v,4.0
2024-02-27 13:50:35.781945,1709038235.7819448,-717.28515625,-552.734375,-401.3671875,-50.29296875,1.0,-1.0,0.0,0.0,6.m4v,4.0
2024-02-27 13:50:35.785851,1709038235.7858508,-825.1953125,-1000.0,-989.2578125,-48.33984375,1.0,-1.0,0.0,0.0,6.m4v,4.0
2024-02-27 13:50:35.789757,1709038235.7897563,-216.30859375,-925.78125,-585.9375,-40.52734375,1.0,-1.0,0.0,0.0,6.m4v,4.0
2024-02-27 13:50:35.793667,1709038235.7936668,311.03515625,-1000.0,250.48828125,-30.76171875,1.0,-1.0,0.0,0.0,6.m4v,4.0
2024-02-27 13:50:35.797573,1709038235.7975726,195.80078125,-1000.0,261.23046875,-26.85546875,1.0,-1.0,0.0,0.0,6.m4v,4.0
2024-02-27 13:50:35.875694,1709038235.875694,242.1875,969.7265625,287.59765625,-33.203125,1.0,-1.0,0.0,0.0,6.m4v,4.0
2024-02-27 13:50:35.879600,1709038235.8795998,-38.57421875,969.7265625,-173.828125,-38.57421875,1.0,-1.0,0.0,0.0,6.m4v,4.0
2024-02-27 13:50:35.883506,1709038235.8835056,-304.6875,970.21484375,-741.69921875,-47.8515625,1.0,-1.0,0.0,0.0,6.m4v,4.0
2024-02-27 13:50:35.887416,1709038235.8874156,-260.25390625,985.83984375,-769.04296875,-41.015625,1.0,-1.0,0.0,0.0,6.m4v,4.0
2024-02-27 13:50:35.891321,1709038235.8913214,84.9609375,914.55078125,-172.8515625,-35.15625,1.0,-1.0,0.0,0.0,6.m4v,4.0
2024-02-27 13:50:35.895227,1709038235.8952272,467.28515625,999.51171875,527.83203125,-31.73828125,1.0,-1.0,0.0,0.0,6.m4v,4.0
2024-02-27 13:50:35.899133,1709038235.8991332,44.43359375,880.859375,70.3125,-28.80859375,1.0,-1.0,0.0,0.0,6.m4v,4.0
2024-02-27 13:50:35.903039,1709038235.903039,-800.78125,-565.4296875,-914.0625,-54.19921875,1.0,-1.0,0.0,0.0,6.m4v,4.0
2024-02-27 13:50:35.906945,1709038235.9069448,-528.3203125,-1000.0,-809.5703125,-48.33984375,1.0,-1.0,0.0,0.0,6.m4v,4.0
2024-02-27 13:50:35.910851,1709038235.9108508,131.8359375,-925.29296875,-64.453125,-24.90234375,1.0,-1.0,0.0,0.0,6.m4v,4.0
2024-02-27 13:50:35.914757,1709038235.9147563,145.01953125,-1000.0,171.38671875,-28.3203125,1.0,-1.0,0.0,0.0,6.m4v,4.0
2024-02-27 13:50:35.918662,1709038235.9186623,-84.9609375,-1000.0,-217.7734375,-38.0859375,1.0,-1.0,0.0,0.0,6.m4v,4.0
2024-02-27 13:50:35.988976,1709038235.9889755,-140.13671875,969.7265625,-352.05078125,-25.390625,1.0,-1.0,0.0,0.0,6.m4v,4.0
2024-02-27 13:50:35.996787,1709038235.9967873,380.859375,942.3828125,799.8046875,-25.390625,1.0,-1.0,0.0,0.0,6.m4v,4.0
2024-02-27 13:50:36.059284,1709038236.0592842,-302.734375,641.6015625,53.22265625,-51.26953125,1.0,-1.0,0.0,0.0,6.m4v,4.0
2024-02-27 13:50:36.063190,1709038236.0631902,-867.67578125,-814.94140625,-898.92578125,-51.26953125,1.0,-1.0,0.0,0.0,6.m4v,4.0
2024-02-27 13:50:36.067096,1709038236.067096,-527.34375,-1000.0,-961.42578125,-50.29296875,1.0,-1.0,0.0,0.0,6.m4v,4.0
2024-02-27 13:50:36.071002,1709038236.0710018,109.86328125,-937.5,-180.17578125,-34.1796875,1.0,-1.0,0.0,0.0,6.m4v,4.0
2024-02-27 13:50:36.074911,1709038236.0749109,402.83203125,-1000.0,544.43359375,-19.04296875,1.0,-1.0,0.0,0.0,6.m4v,4.0
2024-02-27 13:50:36.078817,1709038236.078817,18.06640625,-1000.0,129.8828125,-34.66796875,1.0,-1.0,0.0,0.0,6.m4v,4.0
2024-02-27 13:50:36.082723,1709038236.082723,-496.09375,-958.49609375,-803.22265625,-54.19921875,1.0,-1.0,0.0,0.0,6.m4v,4.0
2024-02-27 13:50:36.086628,1709038236.0866284,-447.265625,-1000.0,-1000.0,-54.6875,1.0,-1.0,0.0,0.0,6.m4v,4.0
2024-02-27 13:50:36.090534,1709038236.0905342,-30.2734375,-999.51171875,-531.25,-33.203125,1.0,-1.0,0.0,0.0,6.m4v,4.0
2024-02-27 13:50:36.094440,1709038236.0944402,762.6953125,370.1171875,610.83984375,-7.32421875,1.0,-1.0,0.0,0.0,6.m4v,4.0
2024-02-27 13:50:36.485054,1709038236.485054,-449.70703125,987.3046875,-650.390625,-45.41015625,1.0,-1.0,0.0,0.0,6.m4v,4.0
2024-02-27 13:50:36.488960,1709038236.48896,-189.453125,969.7265625,-405.76171875,-39.55078125,1.0,-1.0,0.0,0.0,6.m4v,4.0
2024-02-27 13:50:36.492866,1709038236.4928658,342.7734375,969.7265625,466.796875,-31.25,1.0,-1.0,0.0,0.0,6.m4v,4.0
2024-02-27 13:50:36.496775,1709038236.496775,448.2421875,969.7265625,922.8515625,-33.203125,1.0,-1.0,0.0,0.0,6.m4v,4.0
2024-02-27 13:50:36.496775,1709038236.496775,448.2421875,969.7265625,922.8515625,-33.203125,1.0,-1.0,0.0,0.0,6.m4v,4.0
2024-02-27 13:50:36.500680,1709038236.5006804,-132.8125,969.7265625,170.41015625,-56.15234375,1.0,-1.0,0.0,0.0,6.m4v,4.0
2024-02-27 13:50:36.500680,1709038236.5006804,-132.8125,969.7265625,170.41015625,-56.15234375,1.0,-1.0,0.0,0.0,6.m4v,4.0
2024-02-27 13:50:36.504586,1709038236.5045862,-448.73046875,969.7265625,-599.609375,-64.453125,1.0,-1.0,0.0,0.0,6.m4v,4.0
2024-02-27 13:50:36.504586,1709038236.5045862,-448.73046875,969.7265625,-599.609375,-64.453125,1.0,-1.0,0.0,0.0,6.m4v,4.0
2024-02-27 13:50:36.508492,1709038236.5084922,-192.3828125,969.7265625,-395.5078125,-44.921875,1.0,-1.0,0.0,0.0,6.m4v,4.0
2024-02-27 13:50:36.508492,1709038236.5084922,-192.3828125,969.7265625,-395.5078125,-44.921875,1.0,-1.0,0.0,0.0,6.m4v,4.0
2024-02-27 13:50:36.512398,1709038236.512398,291.015625,986.81640625,458.0078125,-27.83203125,1.0,-1.0,0.0,0.0,6.m4v,4.0
2024-02-27 13:50:36.512398,1709038236.512398,291.015625,986.81640625,458.0078125,-27.83203125,1.0,-1.0,0.0,0.0,6.m4v,4.0
2024-02-27 13:50:36.516304,1709038236.5163038,453.125,907.2265625,974.609375,-33.203125,1.0,-1.0,0.0,0.0,6.m4v,4.0
2024-02-27 13:50:36.516304,1709038236.5163038,453.125,907.2265625,974.609375,-33.203125,1.0,-1.0,0.0,0.0,6.m4v,4.0
2024-02-27 13:50:36.520210,1709038236.5202098,191.89453125,999.51171875,837.40234375,-42.48046875,1.0,-1.0,0.0,0.0,6.m4v,4.0
2024-02-27 13:50:36.520210,1709038236.5202098,191.89453125,999.51171875,837.40234375,-42.48046875,1.0,-1.0,0.0,0.0,6.m4v,4.0
2024-02-27 13:50:36.524116,1709038236.5241156,-406.73828125,802.734375,-4.39453125,-58.10546875,1.0,-1.0,0.0,0.0,6.m4v,4.0
2024-02-27 13:50:36.524116,1709038236.5241156,-406.73828125,802.734375,-4.39453125,-58.10546875,1.0,-1.0,0.0,0.0,6.m4v,4.0
2024-02-27 13:50:36.528021,1709038236.528021,-904.296875,-666.9921875,-750.48828125,-59.08203125,1.0,-1.0,0.0,0.0,6.m4v,4.0
2024-02-27 13:50:36.528021,1709038236.528021,-904.296875,-666.9921875,-750.48828125,-59.08203125,1.0,-1.0,0.0,0.0,6.m4v,4.0
2024-02-27 13:50:36.621769,1709038236.621769,-458.0078125,-1000.0,-476.07421875,-45.8984375,1.0,-1.0,0.0,0.0,6.m4v,4.0
2024-02-27 13:50:36.621769,1709038236.621769,-458.0078125,-1000.0,-476.07421875,-45.8984375,1.0,-1.0,0.0,0.0,6.m4v,4.0
2024-02-27 13:50:36.625675,1709038236.625675,-513.671875,-1000.0,-975.5859375,-47.36328125,1.0,-1.0,0.0,0.0,6.m4v,4.0
2024-02-27 13:50:36.625675,1709038236.625675,-513.671875,-1000.0,-975.5859375,-47.36328125,1.0,-1.0,0.0,0.0,6.m4v,4.0
2024-02-27 13:50:36.629581,1709038236.6295807,-209.47265625,-1000.0,-735.83984375,-32.2265625,1.0,-1.0,0.0,0.0,6.m4v,4.0
2024-02-27 13:50:36.629581,1709038236.6295807,-209.47265625,-1000.0,-735.83984375,-32.2265625,1.0,-1.0,0.0,0.0,6.m4v,4.0
2024-02-27 13:50:36.633487,1709038236.6334865,259.765625,-1000.0,8.7890625,-23.4375,1.0,-1.0,0.0,0.0,6.m4v,4.0
2024-02-27 13:50:36.633487,1709038236.6334865,259.765625,-1000.0,8.7890625,-23.4375,1.0,-1.0,0.0,0.0,6.m4v,4.0
2024-02-27 13:50:36.637398,1709038236.6373978,308.10546875,-1000.0,239.2578125,-21.97265625,1.0,-1.0,0.0,0.0,6.m4v,4.0
2024-02-27 13:50:36.637398,1709038236.6373978,308.10546875,-1000.0,239.2578125,-21.97265625,1.0,-1.0,0.0,0.0,6.m4v,4.0
2024-02-27 13:50:36.641304,1709038236.6413035,-177.24609375,-1000.0,-423.828125,-35.15625,1.0,-1.0,0.0,0.0,6.m4v,4.0
2024-02-27 13:50:36.641304,1709038236.6413035,-177.24609375,-1000.0,-423.828125,-35.15625,1.0,-1.0,0.0,0.0,6.m4v,4.0
2024-02-27 13:50:36.645210,1709038236.6452096,-419.43359375,-946.77734375,-946.2890625,-50.29296875,1.0,-1.0,0.0,0.0,6.m4v,4.0
2024-02-27 13:50:36.645210,1709038236.6452096,-419.43359375,-946.77734375,-946.2890625,-50.29296875,1.0,-1.0,0.0,0.0,6.m4v,4.0
2024-02-27 13:50:36.649115,1709038236.649115,-285.15625,-1000.0,-913.0859375,-49.31640625,1.0,-1.0,0.0,0.0,6.m4v,4.0
2024-02-27 13:50:36.653021,1709038236.653021,209.9609375,-924.31640625,-183.10546875,-31.73828125,1.0,-1.0,0.0,0.0,6.m4v,4.0
2024-02-27 13:50:36.656927,1709038236.656927,858.88671875,512.6953125,707.03125,-14.6484375,1.0,-1.0,0.0,0.0,6.m4v,4.0
2024-02-27 13:50:36.660833,1709038236.660833,404.78515625,999.51171875,272.94921875,-13.18359375,1.0,-1.0,0.0,0.0,6.m4v,4.0
2024-02-27 13:50:36.664739,1709038236.664739,-472.65625,895.5078125,-858.3984375,-34.1796875,1.0,-1.0,0.0,0.0,6.m4v,4.0
2024-02-27 13:50:36.668645,1709038236.668645,-366.2109375,999.51171875,-1000.0,-42.48046875,1.0,-1.0,0.0,0.0,6.m4v,4.0
2024-02-27 13:50:36.672550,1709038236.6725504,231.93359375,912.59765625,-140.13671875,-39.55078125,1.0,-1.0,0.0,0.0,6.m4v,4.0
2024-02-27 13:50:36.676456,1709038236.6764562,462.40234375,999.51171875,394.53125,-29.296875,1.0,-1.0,0.0,0.0,6.m4v,4.0
2024-02-27 13:50:36.680362,1709038236.6803622,-97.65625,865.234375,-312.01171875,-35.15625,1.0,-1.0,0.0,0.0,6.m4v,4.0
2024-02-27 13:50:36.684272,1709038236.6842718,-708.0078125,-589.84375,-961.42578125,-49.8046875,1.0,-1.0,0.0,0.0,6.m4v,4.0
2024-02-27 13:50:36.688178,1709038236.6881776,-529.78515625,-1000.0,-1000.0,-52.24609375,1.0,-1.0,0.0,0.0,6.m4v,4.0
2024-02-27 13:50:36.692084,1709038236.6920836,14.6484375,-932.12890625,-604.4921875,-32.2265625,1.0,-1.0,0.0,0.0,6.m4v,4.0
2024-02-27 13:50:36.770204,1709038236.770204,-123.046875,969.7265625,-390.625,-35.15625,1.0,-1.0,0.0,0.0,6.m4v,4.0
2024-02-27 13:50:36.774110,1709038236.77411,345.703125,969.7265625,387.6953125,-21.97265625,1.0,-1.0,0.0,0.0,6.m4v,4.0
2024-02-27 13:50:36.778019,1709038236.7780194,304.19921875,969.7265625,476.5625,-22.94921875,1.0,-1.0,0.0,0.0,6.m4v,4.0
2024-02-27 13:50:36.781925,1709038236.7819252,-238.28125,969.7265625,-356.93359375,-29.296875,1.0,-1.0,0.0,0.0,6.m4v,4.0
2024-02-27 13:50:36.785831,1709038236.7858312,-406.25,969.7265625,-802.734375,-34.66796875,1.0,-1.0,0.0,0.0,6.m4v,4.0
2024-02-27 13:50:36.789737,1709038236.789737,17.08984375,969.7265625,-203.61328125,-27.34375,1.0,-1.0,0.0,0.0,6.m4v,4.0
2024-02-27 13:50:36.793643,1709038236.7936428,455.56640625,986.81640625,729.4921875,-23.4375,1.0,-1.0,0.0,0.0,6.m4v,4.0
2024-02-27 13:50:36.797549,1709038236.7975488,368.1640625,907.2265625,976.5625,-30.2734375,1.0,-1.0,0.0,0.0,6.m4v,4.0
2024-02-27 13:50:36.801455,1709038236.8014543,-7.8125,999.51171875,442.3828125,-34.1796875,1.0,-1.0,0.0,0.0,6.m4v,4.0
2024-02-27 13:50:36.805360,1709038236.8053603,-447.265625,800.29296875,-314.453125,-40.52734375,1.0,-1.0,0.0,0.0,6.m4v,4.0
2024-02-27 13:50:36.809266,1709038236.8092663,-652.83203125,-666.015625,-499.51171875,-41.50390625,1.0,-1.0,0.0,0.0,6.m4v,4.0
2024-02-27 13:50:36.813172,1709038236.813172,18.06640625,-1000.0,239.2578125,-22.4609375,1.0,-1.0,0.0,0.0,6.m4v,4.0
2024-02-27 13:50:36.817078,1709038236.817078,372.55859375,-928.22265625,685.05859375,-26.3671875,1.0,-1.0,0.0,0.0,6.m4v,4.0
2024-02-27 13:50:36.820984,1709038236.8209836,-63.4765625,-1000.0,151.3671875,-42.96875,1.0,-1.0,0.0,0.0,6.m4v,4.0
2024-02-27 13:50:36.824893,1709038236.8248932,-311.5234375,-1000.0,-358.88671875,-38.0859375,1.0,-1.0,0.0,0.0,6.m4v,4.0
2024-02-27 13:50:36.828799,1709038236.828799,-294.921875,-1000.0,-422.36328125,-32.2265625,1.0,-1.0,0.0,0.0,6.m4v,4.0
2024-02-27 13:50:36.832705,1709038236.8327048,177.734375,-1000.0,332.03125,-21.484375,1.0,-1.0,0.0,0.0,6.m4v,4.0
2024-02-27 13:50:36.836611,1709038236.8366108,454.58984375,-942.87109375,898.92578125,-14.6484375,1.0,-1.0,0.0,0.0,6.m4v,4.0
2024-02-27 13:50:36.840517,1709038236.8405166,-144.53125,-1000.0,123.53515625,-35.15625,1.0,-1.0,0.0,0.0,6.m4v,4.0
2024-02-27 13:50:36.844422,1709038236.8444223,-354.00390625,-894.53125,-446.2890625,-41.015625,1.0,-1.0,0.0,0.0,6.m4v,4.0
2024-02-27 13:50:36.848328,1709038236.8483284,216.30859375,560.546875,-54.19921875,-26.85546875,1.0,-1.0,0.0,0.0,6.m4v,4.0
2024-02-27 13:50:36.852234,1709038236.852234,407.71484375,999.51171875,498.53515625,-22.94921875,1.0,-1.0,0.0,0.0,6.m4v,4.0
2024-02-27 13:50:36.856140,1709038236.85614,396.97265625,895.01953125,937.5,-22.4609375,1.0,-1.0,0.0,0.0,6.m4v,4.0
2024-02-27 13:50:36.860046,1709038236.860046,84.9609375,985.3515625,580.56640625,-34.1796875,1.0,-1.0,0.0,0.0,6.m4v,4.0
2024-02-27 13:50:36.863952,1709038236.8639517,-381.8359375,969.7265625,-254.8828125,-48.33984375,1.0,-1.0,0.0,0.0,6.m4v,4.0
2024-02-27 13:50:36.867857,1709038236.8678577,-271.97265625,969.7265625,-273.92578125,-35.64453125,1.0,-1.0,0.0,0.0,6.m4v,4.0
2024-02-27 13:50:36.871767,1709038236.8717666,243.65234375,969.7265625,559.08203125,-20.01953125,1.0,-1.0,0.0,0.0,6.m4v,4.0
2024-02-27 13:50:36.875672,1709038236.8756723,373.046875,969.7265625,999.51171875,-37.109375,1.0,-1.0,0.0,0.0,6.m4v,4.0
2024-02-27 13:50:36.879578,1709038236.879578,42.48046875,969.7265625,686.5234375,-39.55078125,1.0,-1.0,0.0,0.0,6.m4v,4.0
2024-02-27 13:50:36.883484,1709038236.883484,-235.3515625,969.7265625,131.8359375,-34.66796875,1.0,-1.0,0.0,0.0,6.m4v,4.0
2024-02-27 13:50:36.887390,1709038236.88739,-271.484375,986.328125,-3.41796875,-41.9921875,1.0,-1.0,0.0,0.0,6.m4v,4.0
2024-02-27 13:50:36.891296,1709038236.8912957,125.9765625,899.90234375,635.7421875,-23.92578125,1.0,-1.0,0.0,0.0,6.m4v,4.0
2024-02-27 13:50:36.895202,1709038236.8952017,355.95703125,999.51171875,999.51171875,-16.6015625,1.0,-1.0,0.0,0.0,6.m4v,4.0
2024-02-27 13:50:36.899107,1709038236.8991077,-101.5625,668.45703125,617.67578125,-31.73828125,1.0,-1.0,0.0,0.0,6.m4v,4.0
2024-02-27 13:50:36.903013,1709038236.9030132,-861.81640625,-799.31640625,-601.5625,-52.734375,1.0,-1.0,0.0,0.0,6.m4v,4.0
2024-02-27 13:50:36.906919,1709038236.9069192,-707.03125,-1000.0,-1000.0,-51.7578125,1.0,-1.0,0.0,0.0,6.m4v,4.0
2024-02-27 13:50:36.910825,1709038236.910825,-19.04296875,-935.546875,-262.6953125,-31.73828125,1.0,-1.0,0.0,0.0,6.m4v,4.0
2024-02-27 13:50:36.914731,1709038236.9147308,402.83203125,-1000.0,632.32421875,-20.5078125,1.0,-1.0,0.0,0.0,6.m4v,4.0
2024-02-27 13:50:36.918639,1709038236.9186394,245.60546875,-1000.0,676.7578125,-25.390625,1.0,-1.0,0.0,0.0,6.m4v,4.0
2024-02-27 13:50:36.922545,1709038236.9225452,-272.4609375,-1000.0,-96.19140625,-42.48046875,1.0,-1.0,0.0,0.0,6.m4v,4.0
2024-02-27 13:50:36.926451,1709038236.9264512,-395.5078125,-949.70703125,-505.859375,-49.31640625,1.0,-1.0,0.0,0.0,6.m4v,4.0
2024-02-27 13:50:37.434255,1709038237.434255,326.171875,999.51171875,402.83203125,-32.2265625,1.0,-1.0,0.0,0.0,6.m4v,4.0
2024-02-27 13:50:37.442066,1709038237.4420664,-631.34765625,-645.99609375,-617.67578125,-36.1328125,1.0,-1.0,0.0,0.0,6.m4v,4.0
2024-02-27 13:50:37.449878,1709038237.4498782,-321.77734375,-1000.0,-950.1953125,-59.5703125,1.0,-1.0,0.0,0.0,6.m4v,4.0
2024-02-27 13:50:37.457690,1709038237.45769,858.88671875,842.7734375,877.9296875,-22.4609375,1.0,-1.0,0.0,0.0,6.m4v,4.0
2024-02-27 13:50:37.465502,1709038237.4655015,-797.36328125,-852.05078125,-1000.0,-67.87109375,1.0,-1.0,0.0,0.0,6.m4v,4.0
2024-02-27 13:50:37.473313,1709038237.473313,33.69140625,-934.5703125,-625.9765625,-34.66796875,1.0,-1.0,0.0,0.0,6.m4v,4.0
2024-02-27 13:50:37.481129,1709038237.481129,-85.9375,-1000.0,-783.203125,-50.78125,1.0,-1.0,0.0,0.0,6.m4v,4.0
2024-02-27 13:50:37.488941,1709038237.4889407,-136.71875,-1000.0,-988.76953125,-39.55078125,1.0,-1.0,0.0,0.0,6.m4v,4.0
2024-02-27 13:50:37.496753,1709038237.4967525,305.17578125,-1000.0,-90.33203125,-39.0625,1.0,-1.0,0.0,0.0,6.m4v,4.0
2024-02-27 13:50:37.559249,1709038237.5592494,0.9765625,632.32421875,4.39453125,-42.48046875,1.0,-1.0,0.0,0.0,6.m4v,4.0
2024-02-27 13:50:37.563155,1709038237.5631554,-607.421875,-819.3359375,-816.40625,-45.8984375,1.0,-1.0,0.0,0.0,6.m4v,4.0
2024-02-27 13:50:37.567061,1709038237.5670612,-511.23046875,-1000.0,-1000.0,-49.31640625,1.0,-1.0,0.0,0.0,6.m4v,4.0
2024-02-27 13:50:37.570967,1709038237.570967,45.8984375,-938.4765625,-395.01953125,-34.1796875,1.0,-1.0,0.0,0.0,6.m4v,4.0
2024-02-27 13:50:37.574876,1709038237.574876,324.70703125,-1000.0,333.984375,-29.78515625,1.0,-1.0,0.0,0.0,6.m4v,4.0
2024-02-27 13:50:37.578782,1709038237.5787818,136.23046875,-1000.0,177.24609375,-37.109375,1.0,-1.0,0.0,0.0,6.m4v,4.0
2024-02-27 13:50:37.582688,1709038237.582688,-266.6015625,-962.40234375,-594.7265625,-42.48046875,1.0,-1.0,0.0,0.0,6.m4v,4.0
2024-02-27 13:50:37.586594,1709038237.5865936,-396.484375,-1000.0,-1000.0,-38.57421875,1.0,-1.0,0.0,0.0,6.m4v,4.0
2024-02-27 13:50:37.590499,1709038237.5904994,-89.35546875,-1000.0,-597.65625,-25.87890625,1.0,-1.0,0.0,0.0,6.m4v,4.0
2024-02-27 13:50:37.594405,1709038237.5944054,708.984375,323.2421875,587.890625,-8.7890625,1.0,-1.0,0.0,0.0,6.m4v,4.0
2024-02-27 13:50:37.598311,1709038237.5983112,742.1875,999.51171875,964.35546875,-11.23046875,1.0,-1.0,0.0,0.0,6.m4v,4.0
2024-02-27 13:50:37.602217,1709038237.602217,-113.76953125,900.390625,16.11328125,-37.59765625,1.0,-1.0,0.0,0.0,6.m4v,4.0
2024-02-27 13:50:37.606123,1709038237.606123,-312.5,977.05078125,-552.734375,-22.94921875,1.0,-1.0,0.0,0.0,6.m4v,4.0
2024-02-27 13:50:37.610029,1709038237.6100287,-117.1875,970.703125,-360.3515625,-25.390625,1.0,-1.0,0.0,0.0,6.m4v,4.0
2024-02-27 13:50:37.613935,1709038237.6139345,223.14453125,981.4453125,334.47265625,-49.31640625,1.0,-1.0,0.0,0.0,6.m4v,4.0
2024-02-27 13:50:37.617841,1709038237.6178403,383.30078125,903.80859375,779.78515625,-46.38671875,1.0,-1.0,0.0,0.0,6.m4v,4.0
2024-02-27 13:50:37.621749,1709038237.6217494,-51.7578125,999.51171875,106.4453125,-35.15625,1.0,-1.0,0.0,0.0,6.m4v,4.0
2024-02-27 13:50:37.625655,1709038237.6256552,-523.92578125,527.34375,-685.05859375,-53.22265625,1.0,-1.0,0.0,0.0,6.m4v,4.0
2024-02-27 13:50:37.629561,1709038237.629561,-575.68359375,-892.08984375,-646.97265625,-60.546875,1.0,-1.0,0.0,0.0,6.m4v,4.0
2024-02-27 13:50:37.633467,1709038237.633467,95.21484375,-996.58203125,214.84375,-40.0390625,1.0,-1.0,0.0,0.0,6.m4v,4.0
2024-02-27 13:50:37.637373,1709038237.6373727,329.1015625,-994.140625,683.10546875,-42.48046875,1.0,-1.0,0.0,0.0,6.m4v,4.0
2024-02-27 13:50:37.641279,1709038237.6412785,38.0859375,-922.36328125,355.95703125,-48.33984375,1.0,-1.0,0.0,0.0,6.m4v,4.0
2024-02-27 13:50:37.645185,1709038237.6451845,93.26171875,541.015625,44.43359375,-49.31640625,1.0,-1.0,0.0,0.0,6.m4v,4.0
2024-02-27 13:50:37.649090,1709038237.6490903,-111.81640625,999.51171875,-203.61328125,-57.6171875,1.0,-1.0,0.0,0.0,6.m4v,4.0
2024-02-27 13:50:37.652996,1709038237.652996,120.1171875,895.01953125,368.1640625,-43.9453125,1.0,-1.0,0.0,0.0,6.m4v,4.0
2024-02-27 13:50:37.656902,1709038237.656902,441.89453125,984.86328125,966.796875,-32.71484375,1.0,-1.0,0.0,0.0,6.m4v,4.0
2024-02-27 13:50:37.660808,1709038237.6608078,4.39453125,969.7265625,416.015625,-39.0625,1.0,-1.0,0.0,0.0,6.m4v,4.0
2024-02-27 13:50:37.664714,1709038237.6647136,-312.01171875,969.7265625,-194.82421875,-47.8515625,1.0,-1.0,0.0,0.0,6.m4v,4.0
2024-02-27 13:50:37.668623,1709038237.6686232,-265.625,970.21484375,-216.30859375,-49.31640625,1.0,-1.0,0.0,0.0,6.m4v,4.0
2024-02-27 13:50:37.672529,1709038237.672529,108.3984375,982.421875,374.51171875,-31.25,1.0,-1.0,0.0,0.0,6.m4v,4.0
2024-02-27 13:50:37.676435,1709038237.676435,393.06640625,900.87890625,975.09765625,-22.94921875,1.0,-1.0,0.0,0.0,6.m4v,4.0
2024-02-27 13:50:37.680341,1709038237.6803408,41.9921875,999.51171875,593.26171875,-36.62109375,1.0,-1.0,0.0,0.0,6.m4v,4.0
2024-02-27 13:50:37.684247,1709038237.6842463,-538.0859375,524.90234375,-367.67578125,-54.19921875,1.0,-1.0,0.0,0.0,6.m4v,4.0
2024-02-27 13:50:37.688153,1709038237.6881526,-665.0390625,-890.13671875,-551.7578125,-51.26953125,1.0,-1.0,0.0,0.0,6.m4v,4.0
2024-02-27 13:50:37.692058,1709038237.6920583,50.29296875,-1000.0,434.08203125,-33.203125,1.0,-1.0,0.0,0.0,6.m4v,4.0
2024-02-27 13:50:37.695964,1709038237.695964,296.38671875,-945.80078125,909.66796875,-31.73828125,1.0,-1.0,0.0,0.0,6.m4v,4.0
2024-02-27 13:50:37.699870,1709038237.69987,-125.48828125,-1000.0,335.9375,-45.41015625,1.0,-1.0,0.0,0.0,6.m4v,4.0
2024-02-27 13:50:37.703776,1709038237.703776,-438.96484375,-1000.0,-456.0546875,-54.19921875,1.0,-1.0,0.0,0.0,6.m4v,4.0
2024-02-27 13:50:37.707682,1709038237.7076817,-442.3828125,-1000.0,-765.625,-60.546875,1.0,-1.0,0.0,0.0,6.m4v,4.0
2024-02-27 13:50:37.711588,1709038237.7115877,-70.80078125,-1000.0,-247.55859375,-52.24609375,1.0,-1.0,0.0,0.0,6.m4v,4.0
2024-02-27 13:50:37.715498,1709038237.7154975,366.69921875,-936.03515625,549.8046875,-34.1796875,1.0,-1.0,0.0,0.0,6.m4v,4.0
2024-02-27 13:50:37.719404,1709038237.7194035,98.6328125,-1000.0,340.33203125,-41.50390625,1.0,-1.0,0.0,0.0,6.m4v,4.0
2024-02-27 13:50:37.883461,1709038237.8834612,-336.42578125,855.46875,-328.61328125,-41.015625,1.0,-1.0,0.0,0.0,6.m4v,4.0
2024-02-27 13:50:37.883461,1709038237.8834612,-336.42578125,855.46875,-328.61328125,-41.015625,1.0,-1.0,0.0,0.0,6.m4v,4.0
2024-02-27 13:50:37.887367,1709038237.887367,-880.37109375,-677.734375,-1000.0,-57.12890625,1.0,-1.0,0.0,0.0,6.m4v,4.0
2024-02-27 13:50:37.887367,1709038237.887367,-880.37109375,-677.734375,-1000.0,-57.12890625,1.0,-1.0,0.0,0.0,6.m4v,4.0
2024-02-27 13:50:37.891273,1709038237.891273,-367.1875,-1000.0,-718.75,-41.9921875,1.0,-1.0,0.0,0.0,6.m4v,4.0
2024-02-27 13:50:37.891273,1709038237.891273,-367.1875,-1000.0,-718.75,-41.9921875,1.0,-1.0,0.0,0.0,6.m4v,4.0
2024-02-27 13:50:37.895179,1709038237.8951788,369.140625,-926.7578125,256.34765625,-19.53125,1.0,-1.0,0.0,0.0,6.m4v,4.0
2024-02-27 13:50:37.895179,1709038237.8951788,369.140625,-926.7578125,256.34765625,-19.53125,1.0,-1.0,0.0,0.0,6.m4v,4.0
2024-02-27 13:50:37.899085,1709038237.8990846,269.04296875,-1000.0,417.48046875,-27.34375,1.0,-1.0,0.0,0.0,6.m4v,4.0
2024-02-27 13:50:37.899085,1709038237.8990846,269.04296875,-1000.0,417.48046875,-27.34375,1.0,-1.0,0.0,0.0,6.m4v,4.0
2024-02-27 13:50:37.902994,1709038237.9029942,-266.6015625,-1000.0,-379.39453125,-43.9453125,1.0,-1.0,0.0,0.0,6.m4v,4.0
2024-02-27 13:50:37.902994,1709038237.9029942,-266.6015625,-1000.0,-379.39453125,-43.9453125,1.0,-1.0,0.0,0.0,6.m4v,4.0
2024-02-27 13:50:37.906900,1709038237.9069002,-382.32421875,-1000.0,-753.90625,-45.8984375,1.0,-1.0,0.0,0.0,6.m4v,4.0
2024-02-27 13:50:37.906900,1709038237.9069002,-382.32421875,-1000.0,-753.90625,-45.8984375,1.0,-1.0,0.0,0.0,6.m4v,4.0
2024-02-27 13:50:37.910806,1709038237.910806,-122.0703125,-1000.0,-430.17578125,-37.59765625,1.0,-1.0,0.0,0.0,6.m4v,4.0
2024-02-27 13:50:37.910806,1709038237.910806,-122.0703125,-1000.0,-430.17578125,-37.59765625,1.0,-1.0,0.0,0.0,6.m4v,4.0
2024-02-27 13:50:37.914712,1709038237.9147117,336.42578125,-938.4765625,384.27734375,-27.34375,1.0,-1.0,0.0,0.0,6.m4v,4.0
2024-02-27 13:50:37.914712,1709038237.9147117,336.42578125,-938.4765625,384.27734375,-27.34375,1.0,-1.0,0.0,0.0,6.m4v,4.0
2024-02-27 13:50:37.918618,1709038237.9186175,187.98828125,-1000.0,421.38671875,-43.9453125,1.0,-1.0,0.0,0.0,6.m4v,4.0
2024-02-27 13:50:37.918618,1709038237.9186175,187.98828125,-1000.0,421.38671875,-43.9453125,1.0,-1.0,0.0,0.0,6.m4v,4.0
2024-02-27 13:50:37.922523,1709038237.9225235,-139.6484375,-841.796875,-169.921875,-45.8984375,1.0,-1.0,0.0,0.0,6.m4v,4.0
2024-02-27 13:50:37.922523,1709038237.9225235,-139.6484375,-841.796875,-169.921875,-45.8984375,1.0,-1.0,0.0,0.0,6.m4v,4.0
2024-02-27 13:50:37.926429,1709038237.9264293,93.75,623.53515625,-240.72265625,-42.48046875,1.0,-1.0,0.0,0.0,6.m4v,4.0
2024-02-27 13:50:37.926429,1709038237.9264293,93.75,623.53515625,-240.72265625,-42.48046875,1.0,-1.0,0.0,0.0,6.m4v,4.0
2024-02-27 13:50:37.930335,1709038237.9303353,54.19921875,999.51171875,-97.16796875,-51.7578125,1.0,-1.0,0.0,0.0,6.m4v,4.0
2024-02-27 13:50:37.930335,1709038237.9303353,54.19921875,999.51171875,-97.16796875,-51.7578125,1.0,-1.0,0.0,0.0,6.m4v,4.0
2024-02-27 13:50:37.934241,1709038237.934241,218.26171875,897.4609375,433.59375,-41.50390625,1.0,-1.0,0.0,0.0,6.m4v,4.0
2024-02-27 13:50:37.934241,1709038237.934241,218.26171875,897.4609375,433.59375,-41.50390625,1.0,-1.0,0.0,0.0,6.m4v,4.0
2024-02-27 13:50:37.938147,1709038237.9381468,373.046875,986.328125,779.78515625,-41.9921875,1.0,-1.0,0.0,0.0,6.m4v,4.0
2024-02-27 13:50:37.938147,1709038237.9381468,373.046875,986.328125,779.78515625,-41.9921875,1.0,-1.0,0.0,0.0,6.m4v,4.0
2024-02-27 13:50:37.942053,1709038237.9420528,-111.81640625,969.7265625,76.171875,-59.08203125,1.0,-1.0,0.0,0.0,6.m4v,4.0
2024-02-27 13:50:37.942053,1709038237.9420528,-111.81640625,969.7265625,76.171875,-59.08203125,1.0,-1.0,0.0,0.0,6.m4v,4.0
2024-02-27 13:50:37.945959,1709038237.9459586,-405.2734375,969.7265625,-602.05078125,-61.5234375,1.0,-1.0,0.0,0.0,6.m4v,4.0
2024-02-27 13:50:37.945959,1709038237.9459586,-405.2734375,969.7265625,-602.05078125,-61.5234375,1.0,-1.0,0.0,0.0,6.m4v,4.0
2024-02-27 13:50:37.949868,1709038237.9498675,-213.8671875,984.375,-450.68359375,-53.7109375,1.0,-1.0,0.0,0.0,6.m4v,4.0
2024-02-27 13:50:37.949868,1709038237.9498675,-213.8671875,984.375,-450.68359375,-53.7109375,1.0,-1.0,0.0,0.0,6.m4v,4.0
2024-02-27 13:50:37.953773,1709038237.9537735,202.63671875,917.96875,285.15625,-43.45703125,1.0,-1.0,0.0,0.0,6.m4v,4.0
2024-02-27 13:50:37.953773,1709038237.9537735,202.63671875,917.96875,285.15625,-43.45703125,1.0,-1.0,0.0,0.0,6.m4v,4.0
2024-02-27 13:50:37.957680,1709038237.9576795,350.5859375,999.51171875,666.015625,-44.921875,1.0,-1.0,0.0,0.0,6.m4v,4.0
2024-02-27 13:50:37.957680,1709038237.9576795,350.5859375,999.51171875,666.015625,-44.921875,1.0,-1.0,0.0,0.0,6.m4v,4.0
2024-02-27 13:50:37.961585,1709038237.9615853,-118.65234375,899.4140625,-7.8125,-55.6640625,1.0,-1.0,0.0,0.0,6.m4v,4.0
2024-02-27 13:50:37.961585,1709038237.9615853,-118.65234375,899.4140625,-7.8125,-55.6640625,1.0,-1.0,0.0,0.0,6.m4v,4.0
2024-02-27 13:50:37.965491,1709038237.965491,-633.30078125,-525.390625,-684.5703125,-58.10546875,1.0,-1.0,0.0,0.0,6.m4v,4.0
2024-02-27 13:50:37.965491,1709038237.965491,-633.30078125,-525.390625,-684.5703125,-58.10546875,1.0,-1.0,0.0,0.0,6.m4v,4.0
2024-02-27 13:50:37.969397,1709038237.969397,-344.7265625,-1000.0,-334.9609375,-52.734375,1.0,-1.0,0.0,0.0,6.m4v,4.0
2024-02-27 13:50:37.969397,1709038237.969397,-344.7265625,-1000.0,-334.9609375,-52.734375,1.0,-1.0,0.0,0.0,6.m4v,4.0
2024-02-27 13:50:37.973303,1709038237.9733028,270.99609375,-926.7578125,585.9375,-36.62109375,1.0,-1.0,0.0,0.0,6.m4v,4.0
2024-02-27 13:50:37.973303,1709038237.9733028,270.99609375,-926.7578125,585.9375,-36.62109375,1.0,-1.0,0.0,0.0,6.m4v,4.0
2024-02-27 13:50:37.977209,1709038237.9772086,211.42578125,-1000.0,715.33203125,-33.69140625,1.0,-1.0,0.0,0.0,6.m4v,4.0
2024-02-27 13:50:37.977209,1709038237.9772086,211.42578125,-1000.0,715.33203125,-33.69140625,1.0,-1.0,0.0,0.0,6.m4v,4.0
2024-02-27 13:50:37.981115,1709038237.9811146,-248.046875,-1000.0,-101.5625,-42.48046875,1.0,-1.0,0.0,0.0,6.m4v,4.0
2024-02-27 13:50:37.981115,1709038237.9811146,-248.046875,-1000.0,-101.5625,-42.48046875,1.0,-1.0,0.0,0.0,6.m4v,4.0
2024-02-27 13:50:37.985020,1709038237.9850204,-487.3046875,-1000.0,-857.421875,-50.29296875,1.0,-1.0,0.0,0.0,6.m4v,4.0
2024-02-27 13:50:37.985020,1709038237.9850204,-487.3046875,-1000.0,-857.421875,-50.29296875,1.0,-1.0,0.0,0.0,6.m4v,4.0
2024-02-27 13:50:37.988926,1709038237.9889262,-296.875,-1000.0,-778.80859375,-47.36328125,1.0,-1.0,0.0,0.0,6.m4v,4.0
2024-02-27 13:50:37.988926,1709038237.9889262,-296.875,-1000.0,-778.80859375,-47.36328125,1.0,-1.0,0.0,0.0,6.m4v,4.0
2024-02-27 13:50:37.992832,1709038237.9928322,237.79296875,-1000.0,153.80859375,-28.80859375,1.0,-1.0,0.0,0.0,6.m4v,4.0
2024-02-27 13:50:37.992832,1709038237.9928322,237.79296875,-1000.0,153.80859375,-28.80859375,1.0,-1.0,0.0,0.0,6.m4v,4.0
2024-02-27 13:50:37.996741,1709038237.996741,408.203125,-1000.0,720.21484375,-25.390625,1.0,-1.0,0.0,0.0,6.m4v,4.0
2024-02-27 13:50:38.000647,1709038238.0006468,29.296875,-1000.0,250.9765625,-36.1328125,1.0,-1.0,0.0,0.0,6.m4v,4.0
2024-02-27 13:50:38.031894,1709038238.0318935,-81.0546875,969.7265625,-124.0234375,-36.1328125,1.0,-1.0,0.0,0.0,6.m4v,4.0
2024-02-27 13:50:38.035800,1709038238.0357995,379.39453125,969.7265625,635.7421875,-26.3671875,1.0,-1.0,0.0,0.0,6.m4v,4.0
2024-02-27 13:50:38.039706,1709038238.0397055,190.91796875,969.7265625,507.8125,-36.1328125,1.0,-1.0,0.0,0.0,6.m4v,4.0
2024-02-27 13:50:38.043614,1709038238.043614,-293.9453125,969.7265625,-340.8203125,-44.43359375,1.0,-1.0,0.0,0.0,6.m4v,4.0
2024-02-27 13:50:38.047520,1709038238.04752,-375.0,969.7265625,-718.26171875,-51.7578125,1.0,-1.0,0.0,0.0,6.m4v,4.0
2024-02-27 13:50:38.051426,1709038238.0514257,24.4140625,969.7265625,-113.76953125,-41.015625,1.0,-1.0,0.0,0.0,6.m4v,4.0
2024-02-27 13:50:38.055332,1709038238.0553317,440.91796875,981.4453125,814.94140625,-34.66796875,1.0,-1.0,0.0,0.0,6.m4v,4.0
2024-02-27 13:50:38.059237,1709038238.0592377,220.703125,928.7109375,762.20703125,-41.9921875,1.0,-1.0,0.0,0.0,6.m4v,4.0
2024-02-27 13:50:38.063143,1709038238.0631433,-109.375,983.3984375,261.23046875,-43.9453125,1.0,-1.0,0.0,0.0,6.m4v,4.0
2024-02-27 13:50:38.067049,1709038238.0670493,-229.00390625,969.7265625,-13.18359375,-42.48046875,1.0,-1.0,0.0,0.0,6.m4v,4.0
2024-02-27 13:50:38.070955,1709038238.070955,-478.02734375,-390.13671875,-137.20703125,-38.0859375,1.0,-1.0,0.0,0.0,6.m4v,4.0
2024-02-27 13:50:38.074861,1709038238.0748608,-73.2421875,-1000.0,481.93359375,-35.64453125,1.0,-1.0,0.0,0.0,6.m4v,4.0
2024-02-27 13:50:38.078767,1709038238.0787668,175.29296875,-929.6875,619.62890625,-34.66796875,1.0,-1.0,0.0,0.0,6.m4v,4.0
2024-02-27 13:50:38.082673,1709038238.0826726,-202.1484375,-1000.0,-52.24609375,-47.36328125,1.0,-1.0,0.0,0.0,6.m4v,4.0
2024-02-27 13:50:38.086578,1709038238.0865784,-350.5859375,-1000.0,-439.94140625,-43.9453125,1.0,-1.0,0.0,0.0,6.m4v,4.0
2024-02-27 13:50:38.090489,1709038238.090489,-232.91015625,-1000.0,-357.91015625,-38.57421875,1.0,-1.0,0.0,0.0,6.m4v,4.0
2024-02-27 13:50:38.094395,1709038238.0943947,233.88671875,-1000.0,401.3671875,-36.62109375,1.0,-1.0,0.0,0.0,6.m4v,4.0
2024-02-27 13:50:38.098300,1709038238.0983005,288.57421875,-956.54296875,633.30078125,-34.66796875,1.0,-1.0,0.0,0.0,6.m4v,4.0
2024-02-27 13:50:38.102206,1709038238.1022062,-244.140625,-1000.0,-224.609375,-51.26953125,1.0,-1.0,0.0,0.0,6.m4v,4.0
2024-02-27 13:50:38.106112,1709038238.106112,-466.30859375,-987.79296875,-864.2578125,-56.15234375,1.0,-1.0,0.0,0.0,6.m4v,4.0
2024-02-27 13:50:38.110018,1709038238.110018,299.8046875,392.578125,-46.38671875,-32.71484375,1.0,-1.0,0.0,0.0,6.m4v,4.0
2024-02-27 13:50:38.399074,1709038238.399074,152.83203125,969.7265625,593.26171875,-30.76171875,1.0,-1.0,0.0,0.0,6.m4v,4.0
2024-02-27 13:50:38.402980,1709038238.40298,-348.6328125,969.7265625,-372.55859375,-48.33984375,1.0,-1.0,0.0,0.0,6.m4v,4.0
2024-02-27 13:50:38.406886,1709038238.406886,-421.875,969.7265625,-856.93359375,-53.22265625,1.0,-1.0,0.0,0.0,6.m4v,4.0
2024-02-27 13:50:38.410792,1709038238.4107916,-167.48046875,970.21484375,-558.10546875,-42.96875,1.0,-1.0,0.0,0.0,6.m4v,4.0
2024-02-27 13:50:38.414698,1709038238.4146976,327.63671875,983.88671875,372.0703125,-26.3671875,1.0,-1.0,0.0,0.0,6.m4v,4.0
2024-02-27 13:50:38.418606,1709038238.4186063,265.13671875,903.3203125,548.33984375,-29.296875,1.0,-1.0,0.0,0.0,6.m4v,4.0
2024-02-27 13:50:38.422512,1709038238.422512,-206.0546875,999.51171875,-270.01953125,-43.45703125,1.0,-1.0,0.0,0.0,6.m4v,4.0
2024-02-27 13:50:38.426418,1709038238.4264178,-442.3828125,650.87890625,-838.8671875,-50.29296875,1.0,-1.0,0.0,0.0,6.m4v,4.0
2024-02-27 13:50:38.430324,1709038238.4303238,-474.12109375,-766.6015625,-726.5625,-38.0859375,1.0,-1.0,0.0,0.0,6.m4v,4.0
2024-02-27 13:50:38.434230,1709038238.4342296,62.01171875,-1000.0,48.828125,-16.11328125,1.0,-1.0,0.0,0.0,6.m4v,4.0
2024-02-27 13:50:38.438135,1709038238.4381354,640.625,33.69140625,847.65625,-14.6484375,1.0,-1.0,0.0,0.0,6.m4v,4.0
2024-02-27 13:50:38.442041,1709038238.4420414,332.51953125,999.51171875,495.1171875,-23.92578125,1.0,-1.0,0.0,0.0,6.m4v,4.0
2024-02-27 13:50:38.445947,1709038238.4459472,-303.22265625,999.51171875,-355.46875,-36.1328125,1.0,-1.0,0.0,0.0,6.m4v,4.0
2024-02-27 13:50:38.449853,1709038238.449853,-526.85546875,54.6875,-653.3203125,-36.62109375,1.0,-1.0,0.0,0.0,6.m4v,4.0
2024-02-27 13:50:38.453759,1709038238.453759,-215.8203125,-1000.0,-144.53125,-28.80859375,1.0,-1.0,0.0,0.0,6.m4v,4.0
2024-02-27 13:50:38.457665,1709038238.4576647,236.328125,-977.05078125,394.53125,-26.85546875,1.0,-1.0,0.0,0.0,6.m4v,4.0
2024-02-27 13:50:38.461571,1709038238.4615705,-161.62109375,-979.98046875,-284.1796875,-39.55078125,1.0,-1.0,0.0,0.0,6.m4v,4.0
2024-02-27 13:50:38.465481,1709038238.4654806,-469.7265625,-1000.0,-988.28125,-38.57421875,1.0,-1.0,0.0,0.0,6.m4v,4.0
2024-02-27 13:50:38.469387,1709038238.4693866,-274.4140625,-1000.0,-955.56640625,-29.78515625,1.0,-1.0,0.0,0.0,6.m4v,4.0
2024-02-27 13:50:38.473292,1709038238.4732924,203.125,-951.66015625,-154.296875,-28.3203125,1.0,-1.0,0.0,0.0,6.m4v,4.0
2024-02-27 13:50:38.477198,1709038238.477198,422.8515625,-1000.0,500.48828125,-22.94921875,1.0,-1.0,0.0,0.0,6.m4v,4.0
2024-02-27 13:50:38.481104,1709038238.481104,1.46484375,-958.0078125,-11.23046875,-28.80859375,1.0,-1.0,0.0,0.0,6.m4v,4.0
2024-02-27 13:50:38.485010,1709038238.48501,142.578125,452.63671875,-229.4921875,-25.87890625,1.0,-1.0,0.0,0.0,6.m4v,4.0
2024-02-27 13:50:38.488916,1709038238.4889157,227.05078125,999.51171875,15.13671875,-25.390625,1.0,-1.0,0.0,0.0,6.m4v,4.0
2024-02-27 13:50:38.492822,1709038238.4928217,109.86328125,895.99609375,327.63671875,-23.4375,1.0,-1.0,0.0,0.0,6.m4v,4.0
2024-02-27 13:50:38.496727,1709038238.4967277,395.5078125,982.421875,913.57421875,-19.04296875,1.0,-1.0,0.0,0.0,6.m4v,4.0
2024-02-27 13:50:38.500633,1709038238.5006332,102.5390625,969.7265625,578.61328125,-31.73828125,1.0,-1.0,0.0,0.0,6.m4v,4.0
2024-02-27 13:50:38.504539,1709038238.5045393,-297.36328125,969.7265625,-202.63671875,-43.45703125,1.0,-1.0,0.0,0.0,6.m4v,4.0
2024-02-27 13:50:38.508445,1709038238.508445,-291.9921875,970.703125,-398.92578125,-43.9453125,1.0,-1.0,0.0,0.0,6.m4v,4.0
2024-02-27 13:50:38.629538,1709038238.6295383,319.3359375,671.38671875,60.546875,-29.296875,1.0,-1.0,0.0,0.0,6.m4v,4.0
2024-02-27 13:50:38.629538,1709038238.6295383,319.3359375,671.38671875,60.546875,-29.296875,1.0,-1.0,0.0,0.0,6.m4v,4.0
2024-02-27 13:50:38.633444,1709038238.633444,523.92578125,999.51171875,894.53125,-15.625,1.0,-1.0,0.0,0.0,6.m4v,4.0
2024-02-27 13:50:38.633444,1709038238.633444,523.92578125,999.51171875,894.53125,-15.625,1.0,-1.0,0.0,0.0,6.m4v,4.0
2024-02-27 13:50:38.637350,1709038238.6373498,228.02734375,898.92578125,931.15234375,-22.94921875,1.0,-1.0,0.0,0.0,6.m4v,4.0
2024-02-27 13:50:38.637350,1709038238.6373498,228.02734375,898.92578125,931.15234375,-22.94921875,1.0,-1.0,0.0,0.0,6.m4v,4.0
2024-02-27 13:50:38.641256,1709038238.641256,-150.390625,986.81640625,187.01171875,-45.41015625,1.0,-1.0,0.0,0.0,6.m4v,4.0
2024-02-27 13:50:38.641256,1709038238.641256,-150.390625,986.81640625,187.01171875,-45.41015625,1.0,-1.0,0.0,0.0,6.m4v,4.0
2024-02-27 13:50:38.645162,1709038238.6451616,-442.3828125,970.21484375,-650.390625,-55.6640625,1.0,-1.0,0.0,0.0,6.m4v,4.0
2024-02-27 13:50:38.645162,1709038238.6451616,-442.3828125,970.21484375,-650.390625,-55.6640625,1.0,-1.0,0.0,0.0,6.m4v,4.0
2024-02-27 13:50:38.649067,1709038238.6490674,-266.6015625,969.7265625,-641.6015625,-36.1328125,1.0,-1.0,0.0,0.0,6.m4v,4.0
2024-02-27 13:50:38.649067,1709038238.6490674,-266.6015625,969.7265625,-641.6015625,-36.1328125,1.0,-1.0,0.0,0.0,6.m4v,4.0
2024-02-27 13:50:38.652977,1709038238.6529768,222.65625,969.7265625,231.93359375,-9.27734375,1.0,-1.0,0.0,0.0,6.m4v,4.0
2024-02-27 13:50:38.652977,1709038238.6529768,222.65625,969.7265625,231.93359375,-9.27734375,1.0,-1.0,0.0,0.0,6.m4v,4.0
2024-02-27 13:50:38.656883,1709038238.6568823,440.4296875,969.7265625,931.15234375,-19.53125,1.0,-1.0,0.0,0.0,6.m4v,4.0
2024-02-27 13:50:38.656883,1709038238.6568823,440.4296875,969.7265625,931.15234375,-19.53125,1.0,-1.0,0.0,0.0,6.m4v,4.0
2024-02-27 13:50:38.660788,1709038238.6607883,30.2734375,969.7265625,498.046875,-45.41015625,1.0,-1.0,0.0,0.0,6.m4v,4.0
2024-02-27 13:50:38.660788,1709038238.6607883,30.2734375,969.7265625,498.046875,-45.41015625,1.0,-1.0,0.0,0.0,6.m4v,4.0
2024-02-27 13:50:38.902970,1709038238.9029703,-233.88671875,-1000.0,38.0859375,-49.31640625,1.0,-1.0,0.0,0.0,6.m4v,4.0
2024-02-27 13:50:38.906876,1709038238.9068763,-262.20703125,-862.79296875,-275.87890625,-45.8984375,1.0,-1.0,0.0,0.0,6.m4v,4.0
2024-02-27 13:50:38.910782,1709038238.910782,335.9375,599.12109375,358.3984375,-23.4375,1.0,-1.0,0.0,0.0,6.m4v,4.0
2024-02-27 13:50:38.914688,1709038238.914688,439.94140625,999.51171875,876.953125,-12.6953125,1.0,-1.0,0.0,0.0,6.m4v,4.0
2024-02-27 13:50:38.918594,1709038238.918594,231.4453125,895.99609375,920.41015625,-24.90234375,1.0,-1.0,0.0,0.0,6.m4v,4.0
2024-02-27 13:50:38.922500,1709038238.9224997,-143.06640625,985.83984375,227.5390625,-36.62109375,1.0,-1.0,0.0,0.0,6.m4v,4.0
2024-02-27 13:50:38.926405,1709038238.9264054,-310.05859375,969.7265625,-253.90625,-28.80859375,1.0,-1.0,0.0,0.0,6.m4v,4.0
2024-02-27 13:50:38.930311,1709038238.9303114,-188.96484375,970.703125,-141.11328125,-24.4140625,1.0,-1.0,0.0,0.0,6.m4v,4.0
2024-02-27 13:50:38.934221,1709038238.934221,136.71875,980.95703125,467.7734375,-17.08984375,1.0,-1.0,0.0,0.0,6.m4v,4.0
2024-02-27 13:50:38.938127,1709038238.938127,340.33203125,903.80859375,965.33203125,-5.37109375,1.0,-1.0,0.0,0.0,6.m4v,4.0
2024-02-27 13:50:38.942033,1709038238.9420328,7.32421875,999.51171875,468.75,-15.13671875,1.0,-1.0,0.0,0.0,6.m4v,4.0
2024-02-27 13:50:38.945939,1709038238.9459386,-509.27734375,568.359375,-384.765625,-44.43359375,1.0,-1.0,0.0,0.0,6.m4v,4.0
2024-02-27 13:50:38.949845,1709038238.9498446,-663.0859375,-904.78515625,-544.43359375,-40.0390625,1.0,-1.0,0.0,0.0,6.m4v,4.0
2024-02-27 13:50:38.953750,1709038238.9537504,-0.9765625,-1000.0,274.4140625,-24.4140625,1.0,-1.0,0.0,0.0,6.m4v,4.0
2024-02-27 13:50:38.957656,1709038238.957656,650.87890625,488.28125,996.58203125,-19.04296875,1.0,-1.0,0.0,0.0,6.m4v,4.0
2024-02-27 13:50:38.961562,1709038238.9615622,246.09375,999.51171875,598.14453125,-28.3203125,1.0,-1.0,0.0,0.0,6.m4v,4.0
2024-02-27 13:50:39.254521,1709038239.2545214,255.37109375,938.96484375,143.06640625,-20.01953125,1.0,-1.0,0.0,0.0,6.m4v,4.0
2024-02-27 13:50:39.547487,1709038239.5474863,-458.49609375,-1000.0,-981.93359375,-49.8046875,1.0,-1.0,0.0,0.0,6.m4v,4.0
2024-02-27 13:50:39.555298,1709038239.5552983,335.9375,-967.7734375,267.08984375,-28.3203125,1.0,-1.0,0.0,0.0,6.m4v,4.0
2024-02-27 13:50:39.563110,1709038239.56311,-73.2421875,-1000.0,94.23828125,-41.9921875,1.0,-1.0,0.0,0.0,6.m4v,4.0
2024-02-27 13:50:39.570922,1709038239.5709217,76.66015625,999.51171875,-160.15625,-27.83203125,1.0,-1.0,0.0,0.0,6.m4v,4.0
2024-02-27 13:50:39.578733,1709038239.5787334,395.01953125,972.65625,860.83984375,-23.4375,1.0,-1.0,0.0,0.0,6.m4v,4.0
2024-02-27 13:50:39.586545,1709038239.586545,-372.55859375,969.7265625,-492.67578125,-55.6640625,1.0,-1.0,0.0,0.0,6.m4v,4.0
2024-02-27 13:50:39.594361,1709038239.594361,113.28125,968.75,148.4375,-33.69140625,1.0,-1.0,0.0,0.0,6.m4v,4.0
2024-02-27 13:50:39.602173,1709038239.6021729,-0.9765625,999.51171875,141.6015625,-35.64453125,1.0,-1.0,0.0,0.0,6.m4v,4.0
2024-02-27 13:50:39.609985,1709038239.6099846,-448.73046875,-1000.0,-491.2109375,-36.1328125,1.0,-1.0,0.0,0.0,6.m4v,4.0
2024-02-27 13:50:39.621702,1709038239.6217022,-120.1171875,-1000.0,20.5078125,-41.50390625,1.0,-1.0,0.0,0.0,6.m4v,4.0
2024-02-27 13:50:39.633420,1709038239.6334198,91.796875,-1000.0,-248.046875,-38.57421875,1.0,-1.0,0.0,0.0,6.m4v,4.0
2024-02-27 13:50:39.645141,1709038239.6451414,-331.54296875,-942.3828125,-623.53515625,-40.52734375,1.0,-1.0,0.0,0.0,6.m4v,4.0
2024-02-27 13:50:39.656859,1709038239.6568587,786.1328125,567.3828125,787.59765625,-17.578125,1.0,-1.0,0.0,0.0,6.m4v,4.0
2024-02-27 13:50:39.668576,1709038239.6685762,-488.28125,985.83984375,-934.08203125,-49.8046875,1.0,-1.0,0.0,0.0,6.m4v,4.0
2024-02-27 13:50:39.680294,1709038239.6802938,359.86328125,999.51171875,597.65625,-28.80859375,1.0,-1.0,0.0,0.0,6.m4v,4.0
2024-02-27 13:50:39.692016,1709038239.692016,-421.38671875,-1000.0,-858.88671875,-48.33984375,1.0,-1.0,0.0,0.0,6.m4v,4.0
2024-02-27 13:50:39.699828,1709038239.699828,393.06640625,-955.56640625,449.21875,-40.52734375,1.0,-1.0,0.0,0.0,6.m4v,4.0
2024-02-27 13:50:39.703734,1709038239.7037337,-142.08984375,-1000.0,-259.27734375,-43.45703125,1.0,-1.0,0.0,0.0,6.m4v,4.0
2024-02-27 13:50:39.703734,1709038239.7037337,-142.08984375,-1000.0,-259.27734375,-43.45703125,1.0,-1.0,0.0,0.0,6.m4v,4.0
2024-02-27 13:50:39.707640,1709038239.7076397,-206.0546875,-848.6328125,-517.08984375,-32.71484375,1.0,-1.0,0.0,0.0,6.m4v,4.0
2024-02-27 13:50:39.711545,1709038239.7115457,309.08203125,615.72265625,53.7109375,-23.92578125,1.0,-1.0,0.0,0.0,6.m4v,4.0
2024-02-27 13:50:39.715451,1709038239.7154512,414.55078125,999.51171875,571.2890625,-28.3203125,1.0,-1.0,0.0,0.0,6.m4v,4.0
2024-02-27 13:50:39.715451,1709038239.7154512,414.55078125,999.51171875,571.2890625,-28.3203125,1.0,-1.0,0.0,0.0,6.m4v,4.0
2024-02-27 13:50:39.719357,1709038239.7193573,237.79296875,896.97265625,595.703125,-28.80859375,1.0,-1.0,0.0,0.0,6.m4v,4.0
2024-02-27 13:50:39.723263,1709038239.723263,-202.63671875,985.83984375,-214.84375,-41.9921875,1.0,-1.0,0.0,0.0,6.m4v,4.0
2024-02-27 13:50:39.727169,1709038239.7271688,-457.51953125,968.75,-958.984375,-43.9453125,1.0,-1.0,0.0,0.0,6.m4v,4.0
2024-02-27 13:50:39.727169,1709038239.7271688,-457.51953125,968.75,-958.984375,-43.9453125,1.0,-1.0,0.0,0.0,6.m4v,4.0
2024-02-27 13:50:39.731078,1709038239.7310784,-162.59765625,979.00390625,-704.58984375,-28.3203125,1.0,-1.0,0.0,0.0,6.m4v,4.0
2024-02-27 13:50:39.734984,1709038239.7349842,308.59375,936.03515625,226.07421875,-23.92578125,1.0,-1.0,0.0,0.0,6.m4v,4.0
2024-02-27 13:50:39.738890,1709038239.73889,414.0625,967.7734375,673.33984375,-23.4375,1.0,-1.0,0.0,0.0,6.m4v,4.0
2024-02-27 13:50:39.738890,1709038239.73889,414.0625,967.7734375,673.33984375,-23.4375,1.0,-1.0,0.0,0.0,6.m4v,4.0
2024-02-27 13:50:39.742796,1709038239.742796,-84.47265625,999.51171875,-39.0625,-28.80859375,1.0,-1.0,0.0,0.0,6.m4v,4.0
2024-02-27 13:50:39.746702,1709038239.7467017,-667.48046875,-295.41015625,-929.19921875,-39.0625,1.0,-1.0,0.0,0.0,6.m4v,4.0
2024-02-27 13:50:39.750607,1709038239.7506075,-441.89453125,-1000.0,-678.7109375,-30.76171875,1.0,-1.0,0.0,0.0,6.m4v,4.0
2024-02-27 13:50:39.750607,1709038239.7506075,-441.89453125,-1000.0,-678.7109375,-30.76171875,1.0,-1.0,0.0,0.0,6.m4v,4.0
2024-02-27 13:50:39.754514,1709038239.7545135,279.296875,-935.05859375,409.66796875,-15.13671875,1.0,-1.0,0.0,0.0,6.m4v,4.0
2024-02-27 13:50:39.758419,1709038239.7584193,252.44140625,-1000.0,605.95703125,-21.484375,1.0,-1.0,0.0,0.0,6.m4v,4.0
2024-02-27 13:50:39.762325,1709038239.762325,-246.58203125,-1000.0,-266.6015625,-35.15625,1.0,-1.0,0.0,0.0,6.m4v,4.0
2024-02-27 13:50:39.762325,1709038239.762325,-246.58203125,-1000.0,-266.6015625,-35.15625,1.0,-1.0,0.0,0.0,6.m4v,4.0
2024-02-27 13:50:39.766231,1709038239.766231,-378.41796875,-1000.0,-864.74609375,-39.0625,1.0,-1.0,0.0,0.0,6.m4v,4.0
2024-02-27 13:50:39.770137,1709038239.7701368,-275.390625,-1000.0,-888.18359375,-39.0625,1.0,-1.0,0.0,0.0,6.m4v,4.0
2024-02-27 13:50:39.774043,1709038239.7740426,10.7421875,-1000.0,-388.18359375,-25.390625,1.0,-1.0,0.0,0.0,6.m4v,4.0
2024-02-27 13:50:39.774043,1709038239.7740426,10.7421875,-1000.0,-388.18359375,-25.390625,1.0,-1.0,0.0,0.0,6.m4v,4.0
2024-02-27 13:50:39.777952,1709038239.777952,385.25390625,-1000.0,316.89453125,-8.30078125,1.0,-1.0,0.0,0.0,6.m4v,4.0
2024-02-27 13:50:39.781858,1709038239.781858,29.296875,-1000.0,-98.14453125,-31.73828125,1.0,-1.0,0.0,0.0,6.m4v,4.0
2024-02-27 13:50:39.785764,1709038239.7857635,-419.921875,-966.30859375,-912.109375,-50.78125,1.0,-1.0,0.0,0.0,6.m4v,4.0
2024-02-27 13:50:39.785764,1709038239.7857635,-419.921875,-966.30859375,-912.109375,-50.78125,1.0,-1.0,0.0,0.0,6.m4v,4.0
2024-02-27 13:50:39.789670,1709038239.7896695,-291.50390625,-998.046875,-988.76953125,-44.43359375,1.0,-1.0,0.0,0.0,6.m4v,4.0
2024-02-27 13:50:39.793576,1709038239.7935755,-19.04296875,-1000.0,-535.64453125,-39.55078125,1.0,-1.0,0.0,0.0,6.m4v,4.0
2024-02-27 13:50:39.797481,1709038239.7974813,664.0625,271.484375,523.4375,-24.4140625,1.0,-1.0,0.0,0.0,6.m4v,4.0
2024-02-27 13:50:39.797481,1709038239.7974813,664.0625,271.484375,523.4375,-24.4140625,1.0,-1.0,0.0,0.0,6.m4v,4.0
2024-02-27 13:50:39.801387,1709038239.801387,687.98828125,999.51171875,816.40625,-21.97265625,1.0,-1.0,0.0,0.0,6.m4v,4.0
2024-02-27 13:50:39.805293,1709038239.805293,-267.08984375,902.83203125,-372.0703125,-45.8984375,1.0,-1.0,0.0,0.0,6.m4v,4.0
2024-02-27 13:50:39.809199,1709038239.8091989,-472.16796875,974.609375,-954.1015625,-46.875,1.0,-1.0,0.0,0.0,6.m4v,4.0
2024-02-27 13:50:39.809199,1709038239.8091989,-472.16796875,974.609375,-954.1015625,-46.875,1.0,-1.0,0.0,0.0,6.m4v,4.0
2024-02-27 13:50:39.813105,1709038239.8131046,88.37890625,970.21484375,-182.12890625,-20.01953125,1.0,-1.0,0.0,0.0,6.m4v,4.0
2024-02-27 13:50:39.817011,1709038239.8170106,520.5078125,969.7265625,778.80859375,-9.27734375,1.0,-1.0,0.0,0.0,6.m4v,4.0
2024-02-27 13:50:39.820916,1709038239.8209164,172.8515625,969.7265625,492.67578125,-31.25,1.0,-1.0,0.0,0.0,6.m4v,4.0
2024-02-27 13:50:39.820916,1709038239.8209164,172.8515625,969.7265625,492.67578125,-31.25,1.0,-1.0,0.0,0.0,6.m4v,4.0
2024-02-27 13:50:39.824826,1709038239.8248258,-294.43359375,969.7265625,-341.796875,-36.62109375,1.0,-1.0,0.0,0.0,6.m4v,4.0
2024-02-27 13:50:39.828732,1709038239.8287315,-322.75390625,969.7265625,-585.9375,-44.43359375,1.0,-1.0,0.0,0.0,6.m4v,4.0
2024-02-27 13:50:39.832637,1709038239.8326373,-58.59375,969.7265625,-193.84765625,-38.57421875,1.0,-1.0,0.0,0.0,6.m4v,4.0
2024-02-27 13:50:39.832637,1709038239.8326373,-58.59375,969.7265625,-193.84765625,-38.57421875,1.0,-1.0,0.0,0.0,6.m4v,4.0
2024-02-27 13:50:39.836543,1709038239.836543,415.0390625,985.3515625,717.28515625,-12.6953125,1.0,-1.0,0.0,0.0,6.m4v,4.0
2024-02-27 13:50:39.840449,1709038239.840449,256.34765625,915.0390625,720.21484375,-26.3671875,1.0,-1.0,0.0,0.0,6.m4v,4.0
2024-02-27 13:50:39.844355,1709038239.8443549,-197.265625,999.51171875,-39.55078125,-42.48046875,1.0,-1.0,0.0,0.0,6.m4v,4.0
2024-02-27 13:50:39.844355,1709038239.8443549,-197.265625,999.51171875,-39.55078125,-42.48046875,1.0,-1.0,0.0,0.0,6.m4v,4.0
2024-02-27 13:50:39.856072,1709038239.8560724,-112.3046875,-1000.0,218.26171875,-25.390625,1.0,-1.0,0.0,0.0,6.m4v,4.0
2024-02-27 13:50:39.856072,1709038239.8560724,-112.3046875,-1000.0,218.26171875,-25.390625,1.0,-1.0,0.0,0.0,6.m4v,4.0
2024-02-27 13:50:39.867790,1709038239.86779,-432.6171875,-1000.0,-997.0703125,-49.31640625,1.0,-1.0,0.0,0.0,6.m4v,4.0
2024-02-27 13:50:39.867790,1709038239.86779,-432.6171875,-1000.0,-997.0703125,-49.31640625,1.0,-1.0,0.0,0.0,6.m4v,4.0
2024-02-27 13:50:39.879511,1709038239.8795106,322.265625,-1000.0,354.98046875,-31.73828125,1.0,-1.0,0.0,0.0,6.m4v,4.0
2024-02-27 13:50:39.879511,1709038239.8795106,322.265625,-1000.0,354.98046875,-31.73828125,1.0,-1.0,0.0,0.0,6.m4v,4.0
2024-02-27 13:50:39.891228,1709038239.8912282,-152.83203125,-907.71484375,-706.0546875,-36.1328125,1.0,-1.0,0.0,0.0,6.m4v,4.0
2024-02-27 13:50:39.891228,1709038239.8912282,-152.83203125,-907.71484375,-706.0546875,-36.1328125,1.0,-1.0,0.0,0.0,6.m4v,4.0
2024-02-27 13:50:39.984976,1709038239.9849756,-182.6171875,921.38671875,-235.83984375,-27.83203125,1.0,-1.0,0.0,0.0,6.m4v,4.0
2024-02-27 13:50:39.988881,1709038239.988881,-231.93359375,999.51171875,-413.57421875,-35.15625,1.0,-1.0,0.0,0.0,6.m4v,4.0
2024-02-27 13:50:39.992787,1709038239.9927871,-133.7890625,844.23828125,-170.41015625,-34.66796875,1.0,-1.0,0.0,0.0,6.m4v,4.0
2024-02-27 13:50:39.996693,1709038239.9966931,13.671875,-539.0625,458.49609375,-32.71484375,1.0,-1.0,0.0,0.0,6.m4v,4.0
2024-02-27 13:50:40.000599,1709038240.000599,-114.2578125,-1000.0,287.59765625,-44.921875,1.0,-1.0,0.0,0.0,6.m4v,4.0
2024-02-27 13:50:40.004505,1709038240.004505,-294.921875,-932.12890625,-384.27734375,-52.24609375,1.0,-1.0,0.0,0.0,6.m4v,4.0
2024-02-27 13:50:40.008411,1709038240.0084107,-299.8046875,-1000.0,-567.3828125,-51.7578125,1.0,-1.0,0.0,0.0,6.m4v,4.0
2024-02-27 13:50:40.012321,1709038240.0123205,-169.43359375,-1000.0,-361.328125,-45.41015625,1.0,-1.0,0.0,0.0,6.m4v,4.0
2024-02-27 13:50:40.016227,1709038240.0162263,269.04296875,-1000.0,422.8515625,-36.62109375,1.0,-1.0,0.0,0.0,6.m4v,4.0
2024-02-27 13:50:40.020132,1709038240.0201323,311.5234375,-985.83984375,655.76171875,-19.04296875,1.0,-1.0,0.0,0.0,6.m4v,4.0
2024-02-27 13:50:40.024038,1709038240.024038,-204.1015625,-964.84375,-215.33203125,-25.390625,1.0,-1.0,0.0,0.0,6.m4v,4.0
2024-02-27 13:50:40.027944,1709038240.027944,-457.51953125,-1000.0,-764.6484375,-58.59375,1.0,-1.0,0.0,0.0,6.m4v,4.0
2024-02-27 13:50:40.031850,1709038240.03185,164.55078125,-17.578125,1.46484375,-53.7109375,1.0,-1.0,0.0,0.0,6.m4v,4.0
2024-02-27 13:50:40.035756,1709038240.0357556,703.125,999.51171875,934.5703125,-36.62109375,1.0,-1.0,0.0,0.0,6.m4v,4.0
2024-02-27 13:50:40.039662,1709038240.0396616,334.9609375,934.5703125,900.390625,-39.0625,1.0,-1.0,0.0,0.0,6.m4v,4.0
2024-02-27 13:50:40.043567,1709038240.0435674,-69.82421875,955.56640625,248.046875,-47.36328125,1.0,-1.0,0.0,0.0,6.m4v,4.0
2024-02-27 13:50:40.047473,1709038240.0474732,-323.73046875,974.12109375,-372.55859375,-62.98828125,1.0,-1.0,0.0,0.0,6.m4v,4.0
2024-02-27 13:50:40.051379,1709038240.0513792,-140.13671875,969.7265625,-123.046875,-64.453125,1.0,-1.0,0.0,0.0,6.m4v,4.0
2024-02-27 13:50:40.055285,1709038240.055285,306.640625,969.7265625,682.12890625,-43.45703125,1.0,-1.0,0.0,0.0,6.m4v,4.0
2024-02-27 13:50:40.059195,1709038240.0591946,367.67578125,969.7265625,995.1171875,-39.55078125,1.0,-1.0,0.0,0.0,6.m4v,4.0
2024-02-27 13:50:40.063101,1709038240.0631006,61.5234375,969.7265625,587.40234375,-36.62109375,1.0,-1.0,0.0,0.0,6.m4v,4.0
2024-02-27 13:50:40.067006,1709038240.0670063,-230.95703125,969.7265625,73.2421875,-49.31640625,1.0,-1.0,0.0,0.0,6.m4v,4.0
2024-02-27 13:50:40.067006,1709038240.0670063,-230.95703125,969.7265625,73.2421875,-49.31640625,1.0,-1.0,0.0,0.0,6.m4v,4.0
2024-02-27 13:50:40.070912,1709038240.070912,-259.765625,984.375,-7.8125,-49.31640625,1.0,-1.0,0.0,0.0,6.m4v,4.0
2024-02-27 13:50:40.070912,1709038240.070912,-259.765625,984.375,-7.8125,-49.31640625,1.0,-1.0,0.0,0.0,6.m4v,4.0
2024-02-27 13:50:40.074818,1709038240.074818,104.4921875,918.9453125,549.8046875,-29.78515625,1.0,-1.0,0.0,0.0,6.m4v,4.0
2024-02-27 13:50:40.074818,1709038240.074818,104.4921875,918.9453125,549.8046875,-29.78515625,1.0,-1.0,0.0,0.0,6.m4v,4.0
2024-02-27 13:50:40.078724,1709038240.078724,384.765625,999.51171875,999.51171875,-24.90234375,1.0,-1.0,0.0,0.0,6.m4v,4.0
2024-02-27 13:50:40.078724,1709038240.078724,384.765625,999.51171875,999.51171875,-24.90234375,1.0,-1.0,0.0,0.0,6.m4v,4.0
2024-02-27 13:50:40.082630,1709038240.0826297,87.40234375,911.62109375,735.3515625,-27.83203125,1.0,-1.0,0.0,0.0,6.m4v,4.0
2024-02-27 13:50:40.082630,1709038240.0826297,87.40234375,911.62109375,735.3515625,-27.83203125,1.0,-1.0,0.0,0.0,6.m4v,4.0
2024-02-27 13:50:40.086536,1709038240.0865357,-680.6640625,-511.23046875,-270.01953125,-52.734375,1.0,-1.0,0.0,0.0,6.m4v,4.0
2024-02-27 13:50:40.086536,1709038240.0865357,-680.6640625,-511.23046875,-270.01953125,-52.734375,1.0,-1.0,0.0,0.0,6.m4v,4.0
2024-02-27 13:50:40.090441,1709038240.0904417,-671.875,-1000.0,-571.77734375,-44.921875,1.0,-1.0,0.0,0.0,6.m4v,4.0
2024-02-27 13:50:40.090441,1709038240.0904417,-671.875,-1000.0,-571.77734375,-44.921875,1.0,-1.0,0.0,0.0,6.m4v,4.0
2024-02-27 13:50:40.094347,1709038240.0943472,59.08203125,-926.26953125,226.07421875,-20.99609375,1.0,-1.0,0.0,0.0,6.m4v,4.0
2024-02-27 13:50:40.094347,1709038240.0943472,59.08203125,-926.26953125,226.07421875,-20.99609375,1.0,-1.0,0.0,0.0,6.m4v,4.0
2024-02-27 13:50:40.098253,1709038240.0982533,370.60546875,-1000.0,946.2890625,-19.53125,1.0,-1.0,0.0,0.0,6.m4v,4.0
2024-02-27 13:50:40.098253,1709038240.0982533,370.60546875,-1000.0,946.2890625,-19.53125,1.0,-1.0,0.0,0.0,6.m4v,4.0
2024-02-27 13:50:40.102159,1709038240.102159,33.203125,-1000.0,637.20703125,-38.0859375,1.0,-1.0,0.0,0.0,6.m4v,4.0
2024-02-27 13:50:40.102159,1709038240.102159,33.203125,-1000.0,637.20703125,-38.0859375,1.0,-1.0,0.0,0.0,6.m4v,4.0
2024-02-27 13:50:40.106068,1709038240.1060684,-402.34375,-1000.0,-240.234375,-53.22265625,1.0,-1.0,0.0,0.0,6.m4v,4.0
2024-02-27 13:50:40.106068,1709038240.1060684,-402.34375,-1000.0,-240.234375,-53.22265625,1.0,-1.0,0.0,0.0,6.m4v,4.0
2024-02-27 13:50:40.109974,1709038240.1099744,-401.3671875,-1000.0,-512.6953125,-46.875,1.0,-1.0,0.0,0.0,6.m4v,4.0
2024-02-27 13:50:40.109974,1709038240.1099744,-401.3671875,-1000.0,-512.6953125,-46.875,1.0,-1.0,0.0,0.0,6.m4v,4.0
2024-02-27 13:50:40.113880,1709038240.1138802,70.3125,-1000.0,228.02734375,-28.3203125,1.0,-1.0,0.0,0.0,6.m4v,4.0
2024-02-27 13:50:40.113880,1709038240.1138802,70.3125,-1000.0,228.02734375,-28.3203125,1.0,-1.0,0.0,0.0,6.m4v,4.0
2024-02-27 13:50:40.117786,1709038240.117786,380.37109375,-939.453125,932.12890625,-23.4375,1.0,-1.0,0.0,0.0,6.m4v,4.0
2024-02-27 13:50:40.117786,1709038240.117786,380.37109375,-939.453125,932.12890625,-23.4375,1.0,-1.0,0.0,0.0,6.m4v,4.0
2024-02-27 13:50:40.121692,1709038240.121692,-32.71484375,-1000.0,424.8046875,-30.2734375,1.0,-1.0,0.0,0.0,6.m4v,4.0
2024-02-27 13:50:40.121692,1709038240.121692,-32.71484375,-1000.0,424.8046875,-30.2734375,1.0,-1.0,0.0,0.0,6.m4v,4.0
2024-02-27 13:50:40.125598,1709038240.1255977,-274.90234375,-854.00390625,-238.28125,-31.73828125,1.0,-1.0,0.0,0.0,6.m4v,4.0
2024-02-27 13:50:40.125598,1709038240.1255977,-274.90234375,-854.00390625,-238.28125,-31.73828125,1.0,-1.0,0.0,0.0,6.m4v,4.0
2024-02-27 13:50:40.129503,1709038240.1295035,233.3984375,610.83984375,167.96875,-26.85546875,1.0,-1.0,0.0,0.0,6.m4v,4.0
2024-02-27 13:50:40.133410,1709038240.1334095,336.9140625,999.51171875,785.15625,-24.4140625,1.0,-1.0,0.0,0.0,6.m4v,4.0
2024-02-27 13:50:40.137315,1709038240.1373153,180.6640625,896.484375,979.4921875,-28.3203125,1.0,-1.0,0.0,0.0,6.m4v,4.0
2024-02-27 13:50:40.141221,1709038240.141221,84.47265625,986.328125,802.24609375,-31.73828125,1.0,-1.0,0.0,0.0,6.m4v,4.0
2024-02-27 13:50:40.145127,1709038240.145127,-278.80859375,969.7265625,39.0625,-42.96875,1.0,-1.0,0.0,0.0,6.m4v,4.0
2024-02-27 13:50:40.149033,1709038240.1490328,-377.9296875,969.7265625,-339.35546875,-50.78125,1.0,-1.0,0.0,0.0,6.m4v,4.0
2024-02-27 13:50:40.152942,1709038240.152942,-2.9296875,986.328125,243.65234375,-35.64453125,1.0,-1.0,0.0,0.0,6.m4v,4.0
2024-02-27 13:50:40.156848,1709038240.156848,311.03515625,904.78515625,916.50390625,-25.390625,1.0,-1.0,0.0,0.0,6.m4v,4.0
2024-02-27 13:50:40.160754,1709038240.1607535,181.15234375,999.51171875,852.5390625,-28.80859375,1.0,-1.0,0.0,0.0,6.m4v,4.0
2024-02-27 13:50:40.164660,1709038240.1646595,-320.3125,809.08203125,-1.46484375,-43.45703125,1.0,-1.0,0.0,0.0,6.m4v,4.0
2024-02-27 13:50:40.168566,1709038240.1685655,-768.5546875,-774.4140625,-631.34765625,-64.94140625,1.0,-1.0,0.0,0.0,6.m4v,4.0
2024-02-27 13:50:40.172471,1709038240.1724713,-157.71484375,-966.30859375,66.89453125,-49.8046875,1.0,-1.0,0.0,0.0,6.m4v,4.0
2024-02-27 13:50:40.176377,1709038240.176377,643.5546875,659.66796875,978.515625,-21.97265625,1.0,-1.0,0.0,0.0,6.m4v,4.0
2024-02-27 13:50:40.180283,1709038240.180283,276.85546875,999.51171875,805.17578125,-31.25,1.0,-1.0,0.0,0.0,6.m4v,4.0
2024-02-27 13:50:40.184189,1709038240.1841888,-229.4921875,895.5078125,75.68359375,-49.8046875,1.0,-1.0,0.0,0.0,6.m4v,4.0
2024-02-27 13:50:40.188095,1709038240.1880946,-237.3046875,989.2578125,-194.82421875,-54.19921875,1.0,-1.0,0.0,0.0,6.m4v,4.0
2024-02-27 13:50:40.192001,1709038240.1920006,-123.046875,962.890625,25.390625,-46.875,1.0,-1.0,0.0,0.0,6.m4v,4.0
2024-02-27 13:50:40.195906,1709038240.1959064,219.7265625,923.828125,697.265625,-30.2734375,1.0,-1.0,0.0,0.0,6.m4v,4.0
2024-02-27 13:50:40.199816,1709038240.1998155,346.6796875,999.51171875,999.51171875,-32.71484375,1.0,-1.0,0.0,0.0,6.m4v,4.0
2024-02-27 13:50:40.203721,1709038240.2037213,-291.9921875,110.3515625,209.47265625,-44.921875,1.0,-1.0,0.0,0.0,6.m4v,4.0
2024-02-27 13:50:40.207627,1709038240.2076273,-761.23046875,-1000.0,-681.15234375,-50.29296875,1.0,-1.0,0.0,0.0,6.m4v,4.0
2024-02-27 13:50:40.211533,1709038240.211533,-261.23046875,-993.65234375,-298.828125,-44.921875,1.0,-1.0,0.0,0.0,6.m4v,4.0
2024-02-27 13:50:40.215439,1709038240.2154388,325.1953125,-987.3046875,692.87109375,-43.9453125,1.0,-1.0,0.0,0.0,6.m4v,4.0
2024-02-27 13:50:40.219345,1709038240.2193449,595.703125,331.0546875,999.51171875,-31.25,1.0,-1.0,0.0,0.0,6.m4v,4.0
2024-02-27 13:50:40.223251,1709038240.2232506,319.82421875,999.51171875,766.11328125,-31.25,1.0,-1.0,0.0,0.0,6.m4v,4.0
2024-02-27 13:50:40.227156,1709038240.2271564,-309.08203125,899.90234375,-62.01171875,-43.9453125,1.0,-1.0,0.0,0.0,6.m4v,4.0
2024-02-27 13:50:40.231062,1709038240.2310624,-287.59765625,977.5390625,-175.29296875,-35.15625,1.0,-1.0,0.0,0.0,6.m4v,4.0
2024-02-27 13:50:40.234968,1709038240.2349682,237.3046875,969.7265625,676.26953125,-30.2734375,1.0,-1.0,0.0,0.0,6.m4v,4.0
2024-02-27 13:50:40.238874,1709038240.238874,337.890625,969.7265625,999.51171875,-36.62109375,1.0,-1.0,0.0,0.0,6.m4v,4.0
2024-02-27 13:50:40.242780,1709038240.2427795,74.21875,969.7265625,714.35546875,-40.52734375,1.0,-1.0,0.0,0.0,6.m4v,4.0
2024-02-27 13:50:40.246689,1709038240.2466888,-144.53125,969.7265625,308.59375,-37.109375,1.0,-1.0,0.0,0.0,6.m4v,4.0
2024-02-27 13:50:40.250595,1709038240.2505949,-191.40625,969.7265625,291.50390625,-36.62109375,1.0,-1.0,0.0,0.0,6.m4v,4.0
2024-02-27 13:50:40.254501,1709038240.2545006,102.5390625,969.7265625,798.828125,-26.3671875,1.0,-1.0,0.0,0.0,6.m4v,4.0
2024-02-27 13:50:40.258406,1709038240.2584064,231.93359375,969.7265625,999.51171875,-20.5078125,1.0,-1.0,0.0,0.0,6.m4v,4.0
2024-02-27 13:50:40.262312,1709038240.2623124,16.6015625,969.7265625,741.2109375,-33.69140625,1.0,-1.0,0.0,0.0,6.m4v,4.0
2024-02-27 13:50:40.266218,1709038240.2662182,-138.671875,969.7265625,407.71484375,-52.24609375,1.0,-1.0,0.0,0.0,6.m4v,4.0
2024-02-27 13:50:40.270124,1709038240.270124,-7.32421875,969.7265625,737.79296875,-48.33984375,1.0,-1.0,0.0,0.0,6.m4v,4.0
2024-02-27 13:50:40.274030,1709038240.27403,50.29296875,969.7265625,973.6328125,-43.45703125,1.0,-1.0,0.0,0.0,6.m4v,4.0
2024-02-27 13:50:40.277936,1709038240.2779355,90.33203125,969.7265625,958.49609375,-43.45703125,1.0,-1.0,0.0,0.0,6.m4v,4.0
2024-02-27 13:50:40.281842,1709038240.2818415,114.2578125,969.7265625,972.16796875,-30.2734375,1.0,-1.0,0.0,0.0,6.m4v,4.0
2024-02-27 13:50:40.285748,1709038240.2857475,-192.87109375,969.7265625,500.9765625,-55.17578125,1.0,-1.0,0.0,0.0,6.m4v,4.0
2024-02-27 13:50:40.289653,1709038240.2896533,-341.30859375,969.7265625,285.64453125,-72.75390625,1.0,-1.0,0.0,0.0,6.m4v,4.0
2024-02-27 13:50:40.293562,1709038240.2935617,-21.484375,969.7265625,795.41015625,-64.453125,1.0,-1.0,0.0,0.0,6.m4v,4.0
2024-02-27 13:50:40.297468,1709038240.2974677,129.8828125,969.7265625,995.60546875,-73.2421875,1.0,-1.0,0.0,0.0,6.m4v,4.0
2024-02-27 13:50:40.301373,1709038240.3013735,58.10546875,969.7265625,958.49609375,-77.1484375,1.0,-1.0,0.0,0.0,6.m4v,4.0
2024-02-27 13:50:40.305279,1709038240.3052793,-71.2890625,969.7265625,781.73828125,-82.51953125,1.0,-1.0,0.0,0.0,6.m4v,4.0
2024-02-27 13:50:40.309185,1709038240.3091853,-278.80859375,969.7265625,532.71484375,-93.26171875,1.0,-1.0,0.0,0.0,6.m4v,4.0
2024-02-27 13:50:40.313091,1709038240.313091,-103.02734375,986.328125,804.6875,-82.03125,1.0,-1.0,0.0,0.0,6.m4v,4.0
2024-02-27 13:50:40.316997,1709038240.3169968,80.078125,911.1328125,999.51171875,-78.125,1.0,-1.0,0.0,0.0,6.m4v,4.0
2024-02-27 13:50:40.320903,1709038240.3209028,5.859375,999.51171875,945.3125,-72.265625,1.0,-1.0,0.0,0.0,6.m4v,4.0
2024-02-27 13:50:40.324809,1709038240.3248086,-284.66796875,851.07421875,410.15625,-72.265625,1.0,-1.0,0.0,0.0,6.m4v,4.0
2024-02-27 13:50:40.328714,1709038240.3287144,-778.80859375,-608.88671875,-296.38671875,-75.1953125,1.0,-1.0,0.0,0.0,6.m4v,4.0
2024-02-27 13:50:40.332620,1709038240.3326204,-428.7109375,-1000.0,46.38671875,-60.546875,1.0,-1.0,0.0,0.0,6.m4v,4.0
2024-02-27 13:50:40.336526,1709038240.3365262,255.37109375,-925.78125,867.67578125,-46.875,1.0,-1.0,0.0,0.0,6.m4v,4.0
2024-02-27 13:50:40.340436,1709038240.3404362,222.65625,-1000.0,999.51171875,-47.36328125,1.0,-1.0,0.0,0.0,6.m4v,4.0
2024-02-27 13:50:40.344342,1709038240.344342,-112.79296875,-1000.0,520.99609375,-54.6875,1.0,-1.0,0.0,0.0,6.m4v,4.0
2024-02-27 13:50:40.348248,1709038240.348248,-310.546875,-944.82421875,75.68359375,-52.24609375,1.0,-1.0,0.0,0.0,6.m4v,4.0
2024-02-27 13:50:40.352154,1709038240.3521538,-83.49609375,-1000.0,464.35546875,-38.0859375,1.0,-1.0,0.0,0.0,6.m4v,4.0
2024-02-27 13:50:40.356060,1709038240.3560596,274.4140625,-910.15625,958.0078125,-29.78515625,1.0,-1.0,0.0,0.0,6.m4v,4.0
2024-02-27 13:50:40.359966,1709038240.3599656,478.02734375,536.62109375,960.9375,-30.76171875,1.0,-1.0,0.0,0.0,6.m4v,4.0
2024-02-27 13:50:40.363871,1709038240.363871,326.171875,999.51171875,978.515625,-19.53125,1.0,-1.0,0.0,0.0,6.m4v,4.0
2024-02-27 13:50:40.707614,1709038240.7076142,-344.23828125,970.21484375,-1000.0,-39.55078125,1.0,-1.0,0.0,0.0,6.m4v,4.0
2024-02-27 13:50:40.715430,1709038240.7154305,210.9375,969.7265625,-143.06640625,-20.5078125,1.0,-1.0,0.0,0.0,6.m4v,4.0
2024-02-27 13:50:40.723242,1709038240.723242,-34.66796875,969.7265625,-211.9140625,-31.25,1.0,-1.0,0.0,0.0,6.m4v,4.0
2024-02-27 13:50:40.731054,1709038240.7310538,-275.87890625,985.83984375,-881.34765625,-45.8984375,1.0,-1.0,0.0,0.0,6.m4v,4.0
2024-02-27 13:50:40.738865,1709038240.7388654,614.2578125,999.51171875,980.46875,-11.71875,1.0,-1.0,0.0,0.0,6.m4v,4.0
2024-02-27 13:50:40.746677,1709038240.7466772,-843.75,-819.3359375,-942.3828125,-45.8984375,1.0,-1.0,0.0,0.0,6.m4v,4.0
2024-02-27 13:50:40.754489,1709038240.754489,-10.7421875,-937.98828125,-555.6640625,-29.296875,1.0,-1.0,0.0,0.0,6.m4v,4.0
2024-02-27 13:50:40.754489,1709038240.754489,-10.7421875,-937.98828125,-555.6640625,-29.296875,1.0,-1.0,0.0,0.0,6.m4v,4.0
2024-02-27 13:50:40.762305,1709038240.7623043,80.56640625,-1000.0,-86.9140625,-31.73828125,1.0,-1.0,0.0,0.0,6.m4v,4.0
2024-02-27 13:50:40.762305,1709038240.7623043,80.56640625,-1000.0,-86.9140625,-31.73828125,1.0,-1.0,0.0,0.0,6.m4v,4.0
2024-02-27 13:50:40.770116,1709038240.7701163,-324.21875,-955.078125,-1000.0,-36.62109375,1.0,-1.0,0.0,0.0,6.m4v,4.0
2024-02-27 13:50:40.777928,1709038240.777928,391.6015625,-979.98046875,238.76953125,-13.18359375,1.0,-1.0,0.0,0.0,6.m4v,4.0
2024-02-27 13:50:40.777928,1709038240.777928,391.6015625,-979.98046875,238.76953125,-13.18359375,1.0,-1.0,0.0,0.0,6.m4v,4.0
2024-02-27 13:50:40.785740,1709038240.7857397,203.61328125,999.51171875,-14.6484375,-23.4375,1.0,-1.0,0.0,0.0,6.m4v,4.0
2024-02-27 13:50:40.793551,1709038240.7935514,-143.5546875,980.46875,-343.26171875,-25.390625,1.0,-1.0,0.0,0.0,6.m4v,4.0
2024-02-27 13:50:40.793551,1709038240.7935514,-143.5546875,980.46875,-343.26171875,-25.390625,1.0,-1.0,0.0,0.0,6.m4v,4.0
2024-02-27 13:50:40.801363,1709038240.8013632,95.21484375,969.7265625,62.01171875,-19.53125,1.0,-1.0,0.0,0.0,6.m4v,4.0
2024-02-27 13:50:40.801363,1709038240.8013632,95.21484375,969.7265625,62.01171875,-19.53125,1.0,-1.0,0.0,0.0,6.m4v,4.0
2024-02-27 13:50:40.809179,1709038240.8091786,-342.7734375,970.21484375,-1000.0,-41.015625,1.0,-1.0,0.0,0.0,6.m4v,4.0
2024-02-27 13:50:40.816990,1709038240.8169904,374.0234375,969.7265625,288.0859375,-18.5546875,1.0,-1.0,0.0,0.0,6.m4v,4.0
2024-02-27 13:50:40.816990,1709038240.8169904,374.0234375,969.7265625,288.0859375,-18.5546875,1.0,-1.0,0.0,0.0,6.m4v,4.0
2024-02-27 13:50:40.824802,1709038240.824802,-203.61328125,972.65625,-361.81640625,-35.64453125,1.0,-1.0,0.0,0.0,6.m4v,4.0
2024-02-27 13:50:40.824802,1709038240.824802,-203.61328125,972.65625,-361.81640625,-35.64453125,1.0,-1.0,0.0,0.0,6.m4v,4.0
2024-02-27 13:50:40.832614,1709038240.8326137,-34.1796875,999.51171875,-223.14453125,-36.1328125,1.0,-1.0,0.0,0.0,6.m4v,4.0
2024-02-27 13:50:40.840425,1709038240.8404255,-187.01171875,-964.84375,76.66015625,-40.0390625,1.0,-1.0,0.0,0.0,6.m4v,4.0
2024-02-27 13:50:40.840425,1709038240.8404255,-187.01171875,-964.84375,76.66015625,-40.0390625,1.0,-1.0,0.0,0.0,6.m4v,4.0
2024-02-27 13:50:40.848237,1709038240.848237,-367.1875,-959.9609375,-1000.0,-43.45703125,1.0,-1.0,0.0,0.0,6.m4v,4.0
2024-02-27 13:50:40.856053,1709038240.8560526,112.79296875,-1000.0,-296.38671875,-31.73828125,1.0,-1.0,0.0,0.0,6.m4v,4.0
2024-02-27 13:50:40.856053,1709038240.8560526,112.79296875,-1000.0,-296.38671875,-31.73828125,1.0,-1.0,0.0,0.0,6.m4v,4.0
2024-02-27 13:50:40.863864,1709038240.8638642,-104.4921875,-951.66015625,-455.078125,-43.45703125,1.0,-1.0,0.0,0.0,6.m4v,4.0
2024-02-27 13:50:40.871676,1709038240.871676,-227.05078125,-958.49609375,-946.2890625,-40.52734375,1.0,-1.0,0.0,0.0,6.m4v,4.0
2024-02-27 13:50:40.879488,1709038240.8794878,845.21484375,999.51171875,999.51171875,-5.859375,1.0,-1.0,0.0,0.0,6.m4v,4.0
2024-02-27 13:50:40.887299,1709038240.8872993,-460.9375,982.421875,-705.56640625,-63.96484375,1.0,-1.0,0.0,0.0,6.m4v,4.0
2024-02-27 13:50:40.891205,1709038240.8912053,-376.46484375,970.21484375,-901.85546875,-44.43359375,1.0,-1.0,0.0,0.0,6.m4v,4.0
2024-02-27 13:50:40.895111,1709038240.895111,144.53125,969.7265625,-91.30859375,-29.296875,1.0,-1.0,0.0,0.0,6.m4v,4.0
2024-02-27 13:50:40.899017,1709038240.8990169,426.7578125,969.7265625,583.49609375,-19.53125,1.0,-1.0,0.0,0.0,6.m4v,4.0
2024-02-27 13:50:40.902926,1709038240.9029264,-27.83203125,969.7265625,0.0,-34.1796875,1.0,-1.0,0.0,0.0,6.m4v,4.0
2024-02-27 13:50:40.906832,1709038240.9068322,-354.98046875,969.7265625,-703.61328125,-50.29296875,1.0,-1.0,0.0,0.0,6.m4v,4.0
2024-02-27 13:50:40.910738,1709038240.910738,-299.31640625,970.21484375,-795.41015625,-41.015625,1.0,-1.0,0.0,0.0,6.m4v,4.0
2024-02-27 13:50:40.914644,1709038240.914644,9.765625,986.81640625,-280.76171875,-30.2734375,1.0,-1.0,0.0,0.0,6.m4v,4.0
2024-02-27 13:50:40.918550,1709038240.9185498,334.47265625,908.69140625,410.64453125,-18.5546875,1.0,-1.0,0.0,0.0,6.m4v,4.0
2024-02-27 13:50:40.922456,1709038240.9224555,191.40625,999.51171875,314.453125,-20.99609375,1.0,-1.0,0.0,0.0,6.m4v,4.0
2024-02-27 13:50:40.926362,1709038240.9263616,-326.66015625,822.75390625,-460.44921875,-39.55078125,1.0,-1.0,0.0,0.0,6.m4v,4.0
2024-02-27 13:50:40.930267,1709038240.930267,-802.24609375,-643.06640625,-1000.0,-53.22265625,1.0,-1.0,0.0,0.0,6.m4v,4.0
2024-02-27 13:50:40.934173,1709038240.934173,-447.265625,-1000.0,-884.27734375,-46.38671875,1.0,-1.0,0.0,0.0,6.m4v,4.0
2024-02-27 13:50:40.938079,1709038240.938079,208.984375,-927.24609375,-199.21875,-22.94921875,1.0,-1.0,0.0,0.0,6.m4v,4.0
2024-02-27 13:50:40.941985,1709038240.941985,71.2890625,-1000.0,-347.16796875,-28.3203125,1.0,-1.0,0.0,0.0,6.m4v,4.0
2024-02-27 13:50:40.945891,1709038240.945891,-292.48046875,-1000.0,-946.2890625,-47.8515625,1.0,-1.0,0.0,0.0,6.m4v,4.0
2024-02-27 13:50:40.949800,1709038240.9497998,-286.62109375,-1000.0,-1000.0,-49.8046875,1.0,-1.0,0.0,0.0,6.m4v,4.0
2024-02-27 13:50:40.953706,1709038240.9537055,-89.84375,-1000.0,-781.73828125,-37.109375,1.0,-1.0,0.0,0.0,6.m4v,4.0
2024-02-27 13:50:40.957612,1709038240.9576116,322.75390625,-1000.0,8.30078125,-21.484375,1.0,-1.0,0.0,0.0,6.m4v,4.0
2024-02-27 13:50:40.961517,1709038240.961517,166.50390625,-937.01171875,-127.44140625,-25.390625,1.0,-1.0,0.0,0.0,6.m4v,4.0
2024-02-27 13:50:40.965423,1709038240.965423,-294.43359375,-1000.0,-914.55078125,-34.66796875,1.0,-1.0,0.0,0.0,6.m4v,4.0
2024-02-27 13:50:40.969329,1709038240.969329,-212.890625,-819.82421875,-974.609375,-35.15625,1.0,-1.0,0.0,0.0,6.m4v,4.0
2024-02-27 13:50:40.973235,1709038240.973235,327.63671875,649.4140625,-302.24609375,-36.62109375,1.0,-1.0,0.0,0.0,6.m4v,4.0
2024-02-27 13:50:40.977141,1709038240.977141,458.49609375,999.51171875,268.06640625,-27.83203125,1.0,-1.0,0.0,0.0,6.m4v,4.0
2024-02-27 13:50:40.981046,1709038240.9810464,140.625,898.4375,-1.953125,-24.90234375,1.0,-1.0,0.0,0.0,6.m4v,4.0
2024-02-27 13:50:40.984952,1709038240.9849524,-241.2109375,986.81640625,-780.76171875,-39.55078125,1.0,-1.0,0.0,0.0,6.m4v,4.0
2024-02-27 13:50:40.988858,1709038240.9888582,-289.55078125,970.21484375,-1000.0,-41.015625,1.0,-1.0,0.0,0.0,6.m4v,4.0
2024-02-27 13:50:40.992764,1709038240.992764,-66.89453125,974.609375,-767.578125,-42.48046875,1.0,-1.0,0.0,0.0,6.m4v,4.0
2024-02-27 13:50:40.996673,1709038240.9966729,293.45703125,955.078125,5.37109375,-28.80859375,1.0,-1.0,0.0,0.0,6.m4v,4.0
2024-02-27 13:50:41.000579,1709038241.0005786,301.26953125,936.03515625,225.5859375,-17.578125,1.0,-1.0,0.0,0.0,6.m4v,4.0
2024-02-27 13:50:41.004485,1709038241.004485,-131.34765625,999.51171875,-499.51171875,-37.109375,1.0,-1.0,0.0,0.0,6.m4v,4.0
2024-02-27 13:50:41.008390,1709038241.0083904,-493.65234375,61.5234375,-974.12109375,-53.7109375,1.0,-1.0,0.0,0.0,6.m4v,4.0
2024-02-27 13:50:41.012296,1709038241.0122962,-578.125,-1000.0,-1000.0,-62.98828125,1.0,-1.0,0.0,0.0,6.m4v,4.0
2024-02-27 13:50:41.016202,1709038241.0162022,220.21484375,-600.5859375,-104.4921875,-47.36328125,1.0,-1.0,0.0,0.0,6.m4v,4.0
2024-02-27 13:50:41.020108,1709038241.020108,813.4765625,810.546875,773.92578125,-29.78515625,1.0,-1.0,0.0,0.0,6.m4v,4.0
2024-02-27 13:50:41.024014,1709038241.0240138,-51.26953125,999.51171875,-290.0390625,-49.31640625,1.0,-1.0,0.0,0.0,6.m4v,4.0
2024-02-27 13:50:41.027920,1709038241.0279198,-444.82421875,989.2578125,-1000.0,-63.4765625,1.0,-1.0,0.0,0.0,6.m4v,4.0
2024-02-27 13:50:41.031826,1709038241.0318255,-455.56640625,-53.22265625,-1000.0,-58.10546875,1.0,-1.0,0.0,0.0,6.m4v,4.0
2024-02-27 13:50:41.035731,1709038241.0357313,-287.109375,-1000.0,-691.40625,-49.8046875,1.0,-1.0,0.0,0.0,6.m4v,4.0
2024-02-27 13:50:41.039637,1709038241.039637,183.10546875,-959.47265625,-191.89453125,-40.52734375,1.0,-1.0,0.0,0.0,6.m4v,4.0
2024-02-27 13:50:41.043548,1709038241.0435476,-88.8671875,-989.74609375,-636.71875,-53.7109375,1.0,-1.0,0.0,0.0,6.m4v,4.0
2024-02-27 13:50:41.047453,1709038241.0474534,-333.0078125,-1000.0,-1000.0,-55.6640625,1.0,-1.0,0.0,0.0,6.m4v,4.0
2024-02-27 13:50:41.051359,1709038241.0513592,-240.72265625,-1000.0,-1000.0,-39.55078125,1.0,-1.0,0.0,0.0,6.m4v,4.0
2024-02-27 13:50:41.055265,1709038241.0552652,38.57421875,-937.01171875,-625.48828125,-26.3671875,1.0,-1.0,0.0,0.0,6.m4v,4.0
2024-02-27 13:50:41.059171,1709038241.059171,285.64453125,-1000.0,-78.61328125,-18.06640625,1.0,-1.0,0.0,0.0,6.m4v,4.0
2024-02-27 13:50:41.063077,1709038241.0630767,192.3828125,-422.36328125,-262.6953125,-29.296875,1.0,-1.0,0.0,0.0,6.m4v,4.0
2024-02-27 13:50:41.066983,1709038241.0669827,89.35546875,920.8984375,-670.41015625,-34.1796875,1.0,-1.0,0.0,0.0,6.m4v,4.0
2024-02-27 13:50:41.070889,1709038241.0708883,-230.46875,996.58203125,-1000.0,-43.9453125,1.0,-1.0,0.0,0.0,6.m4v,4.0
2024-02-27 13:50:41.074794,1709038241.0747943,-32.2265625,925.29296875,-625.0,-45.8984375,1.0,-1.0,0.0,0.0,6.m4v,4.0
2024-02-27 13:50:41.078700,1709038241.0787003,459.47265625,982.421875,208.984375,-29.296875,1.0,-1.0,0.0,0.0,6.m4v,4.0
2024-02-27 13:50:41.082606,1709038241.082606,170.41015625,969.7265625,-32.2265625,-31.73828125,1.0,-1.0,0.0,0.0,6.m4v,4.0
2024-02-27 13:50:41.086512,1709038241.086512,-282.2265625,969.7265625,-794.921875,-38.0859375,1.0,-1.0,0.0,0.0,6.m4v,4.0
2024-02-27 13:50:41.090422,1709038241.0904222,-324.70703125,970.21484375,-1000.0,-41.9921875,1.0,-1.0,0.0,0.0,6.m4v,4.0
2024-02-27 13:50:41.094328,1709038241.094328,-20.5078125,986.328125,-598.6328125,-35.64453125,1.0,-1.0,0.0,0.0,6.m4v,4.0
2024-02-27 13:50:41.098234,1709038241.098234,398.4375,910.15625,192.3828125,-14.16015625,1.0,-1.0,0.0,0.0,6.m4v,4.0
2024-02-27 13:50:41.102140,1709038241.1021397,192.3828125,999.51171875,14.6484375,-22.4609375,1.0,-1.0,0.0,0.0,6.m4v,4.0
2024-02-27 13:50:41.106045,1709038241.1060455,-327.1484375,837.890625,-841.30859375,-42.48046875,1.0,-1.0,0.0,0.0,6.m4v,4.0
2024-02-27 13:50:41.109951,1709038241.1099515,-525.390625,-624.0234375,-981.4453125,-44.921875,1.0,-1.0,0.0,0.0,6.m4v,4.0
2024-02-27 13:50:41.113857,1709038241.1138573,-128.41796875,-1000.0,-346.19140625,-29.78515625,1.0,-1.0,0.0,0.0,6.m4v,4.0
2024-02-27 13:50:41.117763,1709038241.117763,197.75390625,-926.7578125,92.28515625,-15.13671875,1.0,-1.0,0.0,0.0,6.m4v,4.0
2024-02-27 13:50:41.121669,1709038241.121669,-28.3203125,-1000.0,-281.73828125,-25.87890625,1.0,-1.0,0.0,0.0,6.m4v,4.0
2024-02-27 13:50:41.125575,1709038241.1255748,-334.47265625,-1000.0,-906.73828125,-42.48046875,1.0,-1.0,0.0,0.0,6.m4v,4.0
2024-02-27 13:50:41.129481,1709038241.1294806,-299.31640625,-1000.0,-1000.0,-43.45703125,1.0,-1.0,0.0,0.0,6.m4v,4.0
2024-02-27 13:50:41.133387,1709038241.1333866,-163.0859375,-1000.0,-915.52734375,-34.1796875,1.0,-1.0,0.0,0.0,6.m4v,4.0
2024-02-27 13:50:41.137296,1709038241.1372964,278.80859375,-941.89453125,-153.80859375,-24.90234375,1.0,-1.0,0.0,0.0,6.m4v,4.0
2024-02-27 13:50:41.141202,1709038241.1412022,295.8984375,-1000.0,86.9140625,-27.34375,1.0,-1.0,0.0,0.0,6.m4v,4.0
2024-02-27 13:50:41.145108,1709038241.145108,-116.2109375,-884.765625,-592.28515625,-31.25,1.0,-1.0,0.0,0.0,6.m4v,4.0
2024-02-27 13:50:41.149014,1709038241.149014,15.625,575.1953125,-835.9375,-36.1328125,1.0,-1.0,0.0,0.0,6.m4v,4.0
2024-02-27 13:50:41.152920,1709038241.1529198,116.2109375,999.51171875,-540.52734375,-39.55078125,1.0,-1.0,0.0,0.0,6.m4v,4.0
2024-02-27 13:50:41.156826,1709038241.1568255,490.234375,864.74609375,531.25,-17.578125,1.0,-1.0,0.0,0.0,6.m4v,4.0
2024-02-27 13:50:41.160732,1709038241.1607316,532.71484375,979.00390625,970.21484375,-19.04296875,1.0,-1.0,0.0,0.0,6.m4v,4.0
2024-02-27 13:50:41.164637,1709038241.164637,-211.9140625,999.51171875,-141.11328125,-50.78125,1.0,-1.0,0.0,0.0,6.m4v,4.0
2024-02-27 13:50:41.168543,1709038241.168543,-713.37890625,-246.58203125,-1000.0,-61.5234375,1.0,-1.0,0.0,0.0,6.m4v,4.0
2024-02-27 13:50:41.172449,1709038241.172449,-528.3203125,-1000.0,-945.80078125,-44.921875,1.0,-1.0,0.0,0.0,6.m4v,4.0
2024-02-27 13:50:41.176355,1709038241.176355,90.8203125,-940.91796875,-224.609375,-37.59765625,1.0,-1.0,0.0,0.0,6.m4v,4.0
2024-02-27 13:50:41.180261,1709038241.180261,240.234375,-1000.0,118.65234375,-41.50390625,1.0,-1.0,0.0,0.0,6.m4v,4.0
2024-02-27 13:50:41.184170,1709038241.1841705,-147.94921875,-1000.0,-519.04296875,-48.33984375,1.0,-1.0,0.0,0.0,6.m4v,4.0
2024-02-27 13:50:41.188076,1709038241.1880765,-336.42578125,-945.3125,-1000.0,-42.48046875,1.0,-1.0,0.0,0.0,6.m4v,4.0
2024-02-27 13:50:41.430255,1709038241.4302554,-287.59765625,-1000.0,-1000.0,-41.9921875,1.0,-1.0,0.0,0.0,6.m4v,4.0
2024-02-27 13:50:41.434161,1709038241.4341612,-48.828125,-952.1484375,-758.30078125,-11.23046875,1.0,-1.0,0.0,0.0,6.m4v,4.0
2024-02-27 13:50:41.438067,1709038241.438067,751.46484375,464.35546875,451.171875,-6.8359375,1.0,-1.0,0.0,0.0,6.m4v,4.0
2024-02-27 13:50:41.441973,1709038241.441973,645.5078125,999.51171875,651.3671875,-30.2734375,1.0,-1.0,0.0,0.0,6.m4v,4.0
2024-02-27 13:50:41.445879,1709038241.4458787,-281.25,895.99609375,-520.5078125,-61.03515625,1.0,-1.0,0.0,0.0,6.m4v,4.0
2024-02-27 13:50:41.449785,1709038241.4497845,-449.70703125,982.91015625,-1000.0,-54.19921875,1.0,-1.0,0.0,0.0,6.m4v,4.0
2024-02-27 13:50:41.453691,1709038241.4536903,-133.30078125,969.7265625,-788.0859375,-39.55078125,1.0,-1.0,0.0,0.0,6.m4v,4.0
2024-02-27 13:50:41.457596,1709038241.4575963,312.98828125,985.3515625,-13.18359375,-39.0625,1.0,-1.0,0.0,0.0,6.m4v,4.0
2024-02-27 13:50:41.461502,1709038241.461502,229.98046875,915.0390625,54.19921875,-45.41015625,1.0,-1.0,0.0,0.0,6.m4v,4.0
2024-02-27 13:50:41.465412,1709038241.4654124,-204.58984375,999.51171875,-741.69921875,-54.6875,1.0,-1.0,0.0,0.0,6.m4v,4.0
2024-02-27 13:50:41.469318,1709038241.4693182,-326.66015625,883.7890625,-1000.0,-70.80078125,1.0,-1.0,0.0,0.0,6.m4v,4.0
2024-02-27 13:50:41.469318,1709038241.4693182,-326.66015625,883.7890625,-1000.0,-70.80078125,1.0,-1.0,0.0,0.0,6.m4v,4.0
2024-02-27 13:50:41.473224,1709038241.4732242,-482.91015625,-560.546875,-975.5859375,-65.4296875,1.0,-1.0,0.0,0.0,6.m4v,4.0
2024-02-27 13:50:41.477130,1709038241.47713,-53.7109375,-1000.0,-350.09765625,-42.48046875,1.0,-1.0,0.0,0.0,6.m4v,4.0
2024-02-27 13:50:41.477130,1709038241.47713,-53.7109375,-1000.0,-350.09765625,-42.48046875,1.0,-1.0,0.0,0.0,6.m4v,4.0
2024-02-27 13:50:41.481036,1709038241.4810357,279.78515625,-925.29296875,40.0390625,-33.69140625,1.0,-1.0,0.0,0.0,6.m4v,4.0
2024-02-27 13:50:41.484942,1709038241.4849415,-48.828125,-1000.0,-416.015625,-42.96875,1.0,-1.0,0.0,0.0,6.m4v,4.0
2024-02-27 13:50:41.488847,1709038241.4888475,-325.68359375,-1000.0,-931.640625,-49.8046875,1.0,-1.0,0.0,0.0,6.m4v,4.0
2024-02-27 13:50:41.488847,1709038241.4888475,-325.68359375,-1000.0,-931.640625,-49.8046875,1.0,-1.0,0.0,0.0,6.m4v,4.0
2024-02-27 13:50:41.492753,1709038241.4927533,-279.296875,-1000.0,-1000.0,-37.109375,1.0,-1.0,0.0,0.0,6.m4v,4.0
2024-02-27 13:50:41.496659,1709038241.4966593,188.4765625,-1000.0,-269.04296875,-25.87890625,1.0,-1.0,0.0,0.0,6.m4v,4.0
2024-02-27 13:50:41.500565,1709038241.500565,292.48046875,-1000.0,81.0546875,-37.109375,1.0,-1.0,0.0,0.0,6.m4v,4.0
2024-02-27 13:50:41.500565,1709038241.500565,292.48046875,-1000.0,81.0546875,-37.109375,1.0,-1.0,0.0,0.0,6.m4v,4.0
2024-02-27 13:50:41.504471,1709038241.5044708,-113.28125,-1000.0,-540.0390625,-41.9921875,1.0,-1.0,0.0,0.0,6.m4v,4.0
2024-02-27 13:50:41.508377,1709038241.5083768,-291.015625,-1000.0,-975.5859375,-42.96875,1.0,-1.0,0.0,0.0,6.m4v,4.0
2024-02-27 13:50:41.508377,1709038241.5083768,-291.015625,-1000.0,-975.5859375,-42.96875,1.0,-1.0,0.0,0.0,6.m4v,4.0
2024-02-27 13:50:41.512287,1709038241.512287,-203.61328125,-1000.0,-878.90625,-37.59765625,1.0,-1.0,0.0,0.0,6.m4v,4.0
2024-02-27 13:50:41.516193,1709038241.516193,142.578125,-1000.0,-228.02734375,-36.1328125,1.0,-1.0,0.0,0.0,6.m4v,4.0
2024-02-27 13:50:41.520098,1709038241.5200984,357.91015625,-970.703125,234.375,-30.2734375,1.0,-1.0,0.0,0.0,6.m4v,4.0
2024-02-27 13:50:41.520098,1709038241.5200984,357.91015625,-970.703125,234.375,-30.2734375,1.0,-1.0,0.0,0.0,6.m4v,4.0
2024-02-27 13:50:41.524004,1709038241.5240042,-32.71484375,-990.234375,-350.09765625,-31.73828125,1.0,-1.0,0.0,0.0,6.m4v,4.0
2024-02-27 13:50:41.527910,1709038241.5279102,-386.23046875,-1000.0,-1000.0,-49.31640625,1.0,-1.0,0.0,0.0,6.m4v,4.0
2024-02-27 13:50:41.527910,1709038241.5279102,-386.23046875,-1000.0,-1000.0,-49.31640625,1.0,-1.0,0.0,0.0,6.m4v,4.0
2024-02-27 13:50:41.531816,1709038241.531816,112.79296875,208.49609375,-597.16796875,-41.9921875,1.0,-1.0,0.0,0.0,6.m4v,4.0
2024-02-27 13:50:41.535722,1709038241.5357218,678.7109375,999.51171875,533.69140625,-19.04296875,1.0,-1.0,0.0,0.0,6.m4v,4.0
2024-02-27 13:50:41.539628,1709038241.5396278,499.51171875,909.66796875,971.6796875,-28.3203125,1.0,-1.0,0.0,0.0,6.m4v,4.0
2024-02-27 13:50:41.539628,1709038241.5396278,499.51171875,909.66796875,971.6796875,-28.3203125,1.0,-1.0,0.0,0.0,6.m4v,4.0
2024-02-27 13:50:41.543534,1709038241.5435336,17.08984375,970.703125,347.16796875,-45.41015625,1.0,-1.0,0.0,0.0,6.m4v,4.0
2024-02-27 13:50:41.547439,1709038241.547439,-413.0859375,970.703125,-583.984375,-56.15234375,1.0,-1.0,0.0,0.0,6.m4v,4.0
2024-02-27 13:50:41.551345,1709038241.551345,-358.88671875,969.7265625,-739.2578125,-51.26953125,1.0,-1.0,0.0,0.0,6.m4v,4.0
2024-02-27 13:50:41.555251,1709038241.5552511,167.96875,969.7265625,96.19140625,-30.2734375,1.0,-1.0,0.0,0.0,6.m4v,4.0
2024-02-27 13:50:41.559161,1709038241.5591607,430.17578125,969.7265625,807.6171875,-29.78515625,1.0,-1.0,0.0,0.0,6.m4v,4.0
2024-02-27 13:50:41.563067,1709038241.5630667,0.9765625,969.7265625,271.97265625,-36.1328125,1.0,-1.0,0.0,0.0,6.m4v,4.0
2024-02-27 13:50:41.566972,1709038241.5669725,-327.1484375,969.7265625,-415.0390625,-50.78125,1.0,-1.0,0.0,0.0,6.m4v,4.0
2024-02-27 13:50:41.570878,1709038241.5708785,-322.75390625,970.21484375,-591.796875,-48.828125,1.0,-1.0,0.0,0.0,6.m4v,4.0
2024-02-27 13:50:41.574784,1709038241.5747845,-53.7109375,983.3984375,-224.12109375,-39.55078125,1.0,-1.0,0.0,0.0,6.m4v,4.0
2024-02-27 13:50:41.824775,1709038241.824775,-180.6640625,951.66015625,-196.77734375,-29.296875,1.0,-1.0,0.0,0.0,6.m4v,4.0
2024-02-27 13:50:41.828681,1709038241.8286808,-377.9296875,975.09765625,-867.1875,-40.52734375,1.0,-1.0,0.0,0.0,6.m4v,4.0
2024-02-27 13:50:41.832587,1709038241.8325863,-199.70703125,969.7265625,-687.5,-36.1328125,1.0,-1.0,0.0,0.0,6.m4v,4.0
2024-02-27 13:50:41.836493,1709038241.8364923,284.66796875,969.7265625,227.5390625,-14.6484375,1.0,-1.0,0.0,0.0,6.m4v,4.0
2024-02-27 13:50:41.840403,1709038241.8404028,349.609375,969.7265625,615.72265625,-24.4140625,1.0,-1.0,0.0,0.0,6.m4v,4.0
2024-02-27 13:50:41.844309,1709038241.8443086,-63.96484375,969.7265625,1.953125,-37.109375,1.0,-1.0,0.0,0.0,6.m4v,4.0
2024-02-27 13:50:41.848215,1709038241.8482146,-354.4921875,970.21484375,-684.5703125,-50.29296875,1.0,-1.0,0.0,0.0,6.m4v,4.0
2024-02-27 13:50:41.852120,1709038241.8521204,-221.19140625,969.7265625,-579.1015625,-38.0859375,1.0,-1.0,0.0,0.0,6.m4v,4.0
2024-02-27 13:50:41.856026,1709038241.8560262,245.1171875,986.328125,278.3203125,-16.11328125,1.0,-1.0,0.0,0.0,6.m4v,4.0
2024-02-27 13:50:41.859932,1709038241.8599322,468.26171875,911.62109375,955.078125,-36.62109375,1.0,-1.0,0.0,0.0,6.m4v,4.0
2024-02-27 13:50:41.863838,1709038241.863838,37.59765625,999.51171875,505.37109375,-51.26953125,1.0,-1.0,0.0,0.0,6.m4v,4.0
2024-02-27 13:50:41.867744,1709038241.8677435,-443.359375,857.91015625,-391.6015625,-49.8046875,1.0,-1.0,0.0,0.0,6.m4v,4.0
2024-02-27 13:50:41.871650,1709038241.8716495,-713.8671875,-600.5859375,-791.015625,-47.36328125,1.0,-1.0,0.0,0.0,6.m4v,4.0
2024-02-27 13:50:41.875556,1709038241.8755555,-260.25390625,-1000.0,-260.25390625,-37.109375,1.0,-1.0,0.0,0.0,6.m4v,4.0
2024-02-27 13:50:41.879461,1709038241.8794613,295.8984375,-925.78125,457.51953125,-23.4375,1.0,-1.0,0.0,0.0,6.m4v,4.0
2024-02-27 13:50:41.883367,1709038241.8833673,-63.96484375,-1000.0,-65.4296875,-31.25,1.0,-1.0,0.0,0.0,6.m4v,4.0
2024-02-27 13:50:41.887277,1709038241.8872771,-448.2421875,-1000.0,-907.2265625,-42.48046875,1.0,-1.0,0.0,0.0,6.m4v,4.0
2024-02-27 13:50:41.887277,1709038241.8872771,-448.2421875,-1000.0,-907.2265625,-42.48046875,1.0,-1.0,0.0,0.0,6.m4v,4.0
2024-02-27 13:50:41.891183,1709038241.891183,-360.83984375,-1000.0,-990.234375,-54.19921875,1.0,-1.0,0.0,0.0,6.m4v,4.0
2024-02-27 13:50:41.891183,1709038241.891183,-360.83984375,-1000.0,-990.234375,-54.19921875,1.0,-1.0,0.0,0.0,6.m4v,4.0
2024-02-27 13:50:41.895089,1709038241.895089,69.3359375,-1000.0,-277.34375,-40.52734375,1.0,-1.0,0.0,0.0,6.m4v,4.0
2024-02-27 13:50:41.895089,1709038241.895089,69.3359375,-1000.0,-277.34375,-40.52734375,1.0,-1.0,0.0,0.0,6.m4v,4.0
2024-02-27 13:50:41.898995,1709038241.8989947,388.671875,-1000.0,456.0546875,-24.4140625,1.0,-1.0,0.0,0.0,6.m4v,4.0
2024-02-27 13:50:41.898995,1709038241.8989947,388.671875,-1000.0,456.0546875,-24.4140625,1.0,-1.0,0.0,0.0,6.m4v,4.0
2024-02-27 13:50:41.902900,1709038241.9029005,40.0390625,-1000.0,27.83203125,-30.76171875,1.0,-1.0,0.0,0.0,6.m4v,4.0
2024-02-27 13:50:41.902900,1709038241.9029005,40.0390625,-1000.0,27.83203125,-30.76171875,1.0,-1.0,0.0,0.0,6.m4v,4.0
2024-02-27 13:50:41.906806,1709038241.9068065,-265.625,-1000.0,-594.23828125,-38.0859375,1.0,-1.0,0.0,0.0,6.m4v,4.0
2024-02-27 13:50:41.906806,1709038241.9068065,-265.625,-1000.0,-594.23828125,-38.0859375,1.0,-1.0,0.0,0.0,6.m4v,4.0
2024-02-27 13:50:41.910712,1709038241.9107122,-215.33203125,-954.1015625,-609.86328125,-41.50390625,1.0,-1.0,0.0,0.0,6.m4v,4.0
2024-02-27 13:50:41.910712,1709038241.9107122,-215.33203125,-954.1015625,-609.86328125,-41.50390625,1.0,-1.0,0.0,0.0,6.m4v,4.0
2024-02-27 13:50:41.914618,1709038241.914618,-41.9921875,-1000.0,-263.671875,-41.015625,1.0,-1.0,0.0,0.0,6.m4v,4.0
2024-02-27 13:50:41.914618,1709038241.914618,-41.9921875,-1000.0,-263.671875,-41.015625,1.0,-1.0,0.0,0.0,6.m4v,4.0
2024-02-27 13:50:41.918524,1709038241.918524,340.8203125,-970.21484375,470.703125,-22.94921875,1.0,-1.0,0.0,0.0,6.m4v,4.0
2024-02-27 13:50:41.918524,1709038241.918524,340.8203125,-970.21484375,470.703125,-22.94921875,1.0,-1.0,0.0,0.0,6.m4v,4.0
2024-02-27 13:50:41.922430,1709038241.9224298,514.6484375,425.29296875,575.1953125,-23.92578125,1.0,-1.0,0.0,0.0,6.m4v,4.0
2024-02-27 13:50:41.922430,1709038241.9224298,514.6484375,425.29296875,575.1953125,-23.92578125,1.0,-1.0,0.0,0.0,6.m4v,4.0
2024-02-27 13:50:41.926336,1709038241.9263356,177.24609375,999.51171875,37.59765625,-43.45703125,1.0,-1.0,0.0,0.0,6.m4v,4.0
2024-02-27 13:50:41.926336,1709038241.9263356,177.24609375,999.51171875,37.59765625,-43.45703125,1.0,-1.0,0.0,0.0,6.m4v,4.0
2024-02-27 13:50:41.930242,1709038241.9302416,-206.0546875,897.4609375,-351.5625,-48.828125,1.0,-1.0,0.0,0.0,6.m4v,4.0
2024-02-27 13:50:41.930242,1709038241.9302416,-206.0546875,897.4609375,-351.5625,-48.828125,1.0,-1.0,0.0,0.0,6.m4v,4.0
2024-02-27 13:50:41.934151,1709038241.9341514,-61.03515625,981.4453125,-86.42578125,-36.62109375,1.0,-1.0,0.0,0.0,6.m4v,4.0
2024-02-27 13:50:41.934151,1709038241.9341514,-61.03515625,981.4453125,-86.42578125,-36.62109375,1.0,-1.0,0.0,0.0,6.m4v,4.0
2024-02-27 13:50:41.938057,1709038241.9380574,358.88671875,969.7265625,700.68359375,-22.94921875,1.0,-1.0,0.0,0.0,6.m4v,4.0
2024-02-27 13:50:41.938057,1709038241.9380574,358.88671875,969.7265625,700.68359375,-22.94921875,1.0,-1.0,0.0,0.0,6.m4v,4.0
2024-02-27 13:50:41.941963,1709038241.9419632,231.93359375,969.7265625,665.52734375,-30.76171875,1.0,-1.0,0.0,0.0,6.m4v,4.0
2024-02-27 13:50:41.941963,1709038241.9419632,231.93359375,969.7265625,665.52734375,-30.76171875,1.0,-1.0,0.0,0.0,6.m4v,4.0
2024-02-27 13:50:41.957587,1709038241.9575863,470.21484375,917.48046875,910.15625,-29.78515625,1.0,-1.0,0.0,0.0,6.m4v,4.0
2024-02-27 13:50:41.961493,1709038241.9614923,224.12109375,999.51171875,845.703125,-27.83203125,1.0,-1.0,0.0,0.0,6.m4v,4.0
2024-02-27 13:50:41.965398,1709038241.9653983,-235.3515625,900.87890625,-3.41796875,-37.59765625,1.0,-1.0,0.0,0.0,6.m4v,4.0
2024-02-27 13:50:41.969304,1709038241.969304,-737.79296875,-530.76171875,-848.14453125,-55.17578125,1.0,-1.0,0.0,0.0,6.m4v,4.0
2024-02-27 13:50:41.973210,1709038241.97321,-575.68359375,-1000.0,-817.3828125,-51.26953125,1.0,-1.0,0.0,0.0,6.m4v,4.0
2024-02-27 13:50:41.977116,1709038241.977116,238.76953125,-925.78125,216.796875,-25.390625,1.0,-1.0,0.0,0.0,6.m4v,4.0
2024-02-27 13:50:41.981026,1709038241.9810257,357.91015625,-1000.0,657.71484375,-19.53125,1.0,-1.0,0.0,0.0,6.m4v,4.0
2024-02-27 13:50:41.984931,1709038241.9849317,-146.484375,-1000.0,-47.8515625,-38.0859375,1.0,-1.0,0.0,0.0,6.m4v,4.0
2024-02-27 13:50:41.988837,1709038241.9888377,-338.8671875,-967.7734375,-566.40625,-48.33984375,1.0,-1.0,0.0,0.0,6.m4v,4.0
2024-02-27 13:50:41.992743,1709038241.9927433,-207.51953125,-995.1171875,-457.03125,-36.1328125,1.0,-1.0,0.0,0.0,6.m4v,4.0
2024-02-27 13:50:41.996649,1709038241.996649,182.6171875,-1000.0,306.640625,-26.3671875,1.0,-1.0,0.0,0.0,6.m4v,4.0
2024-02-27 13:50:42.000555,1709038242.000555,620.1171875,251.953125,952.1484375,-20.99609375,1.0,-1.0,0.0,0.0,6.m4v,4.0
2024-02-27 13:50:42.004461,1709038242.0044608,442.3828125,999.51171875,821.77734375,-21.484375,1.0,-1.0,0.0,0.0,6.m4v,4.0
2024-02-27 13:50:42.008367,1709038242.0083666,-261.71875,904.296875,-50.78125,-33.203125,1.0,-1.0,0.0,0.0,6.m4v,4.0
2024-02-27 13:50:42.012272,1709038242.0122724,-418.9453125,973.6328125,-483.88671875,-51.26953125,1.0,-1.0,0.0,0.0,6.m4v,4.0
2024-02-27 13:50:42.016178,1709038242.0161784,129.39453125,970.21484375,222.16796875,-39.0625,1.0,-1.0,0.0,0.0,6.m4v,4.0
2024-02-27 13:50:42.020084,1709038242.020084,389.6484375,969.7265625,770.01953125,-25.390625,1.0,-1.0,0.0,0.0,6.m4v,4.0
2024-02-27 13:50:42.023990,1709038242.02399,-60.546875,969.7265625,155.76171875,-44.921875,1.0,-1.0,0.0,0.0,6.m4v,4.0
2024-02-27 13:50:42.027899,1709038242.0278993,-363.76953125,969.7265625,-566.89453125,-58.10546875,1.0,-1.0,0.0,0.0,6.m4v,4.0
2024-02-27 13:50:42.031805,1709038242.031805,-235.3515625,985.3515625,-543.45703125,-55.6640625,1.0,-1.0,0.0,0.0,6.m4v,4.0
2024-02-27 13:50:42.035711,1709038242.035711,156.73828125,915.52734375,186.03515625,-35.15625,1.0,-1.0,0.0,0.0,6.m4v,4.0
2024-02-27 13:50:42.039617,1709038242.0396168,458.49609375,999.51171875,919.921875,-17.578125,1.0,-1.0,0.0,0.0,6.m4v,4.0
2024-02-27 13:50:42.043523,1709038242.0435226,19.53125,884.765625,448.2421875,-33.203125,1.0,-1.0,0.0,0.0,6.m4v,4.0
2024-02-27 13:50:42.047429,1709038242.0474286,-624.51171875,-555.6640625,-428.7109375,-52.24609375,1.0,-1.0,0.0,0.0,6.m4v,4.0
2024-02-27 13:50:42.051334,1709038242.0513344,-439.94140625,-1000.0,-346.19140625,-49.31640625,1.0,-1.0,0.0,0.0,6.m4v,4.0
2024-02-27 13:50:42.055240,1709038242.0552402,-52.734375,-925.78125,156.73828125,-43.9453125,1.0,-1.0,0.0,0.0,6.m4v,4.0
2024-02-27 13:50:42.059146,1709038242.0591462,113.76953125,-1000.0,474.12109375,-33.69140625,1.0,-1.0,0.0,0.0,6.m4v,4.0
2024-02-27 13:50:42.063052,1709038242.063052,39.55078125,-1000.0,265.13671875,-28.3203125,1.0,-1.0,0.0,0.0,6.m4v,4.0
2024-02-27 13:50:42.066958,1709038242.0669577,-315.4296875,-1000.0,-445.3125,-48.828125,1.0,-1.0,0.0,0.0,6.m4v,4.0
2024-02-27 13:50:42.070864,1709038242.0708635,-357.421875,-1000.0,-681.640625,-46.38671875,1.0,-1.0,0.0,0.0,6.m4v,4.0
2024-02-27 13:50:42.074773,1709038242.0747726,-56.15234375,-1000.0,-204.1015625,-25.87890625,1.0,-1.0,0.0,0.0,6.m4v,4.0
2024-02-27 13:50:42.078679,1709038242.0786786,290.52734375,-1000.0,491.69921875,-15.625,1.0,-1.0,0.0,0.0,6.m4v,4.0
2024-02-27 13:50:42.082584,1709038242.0825844,166.9921875,-963.37890625,421.38671875,-18.06640625,1.0,-1.0,0.0,0.0,6.m4v,4.0
2024-02-27 13:50:42.086490,1709038242.0864902,-332.51953125,-1000.0,-490.234375,-41.9921875,1.0,-1.0,0.0,0.0,6.m4v,4.0
